COUNTER,F3, FC5,AF3,F7,T7,P7,O1,O2,P8,T8,F8,AF4,FC6,F4,Timestamp
35, 8186, 8228, 8306, 8164, 8226, 8159, 8205, 8253, 8233, 8199, 8189, 8219, 8208, 8309,0.0045986175537109375
36, 8216, 8212, 8220, 8170, 8139, 8139, 8217, 8226, 8242, 8204, 8200, 8202, 8219, 8319,0.012569189071655273
37, 8198, 8195, 8127, 8167, 8114, 8139, 8221, 8188, 8243, 8201, 8182, 8170, 8205, 8305,0.019519567489624023
38, 8201, 8221, 8230, 8174, 8193, 8140, 8195, 8195, 8206, 8181, 8163, 8188, 8188, 8300,0.02761220932006836
39, 8200, 8215, 8174, 8193, 8133, 8128, 8190, 8164, 8188, 8177, 8180, 8172, 8198, 8302,0.03560280799865723
40, 8209, 8231, 8144, 8221, 8133, 8139, 8191, 8150, 8188, 8184, 8189, 8166, 8194, 8289,0.043697357177734375
41, 8221, 8253, 8229, 8220, 8204, 8150, 8183, 8173, 8169, 8173, 8175, 8187, 8178, 8284,0.05157899856567383
42, 8196, 8221, 8180, 8194, 8168, 8148, 8201, 8162, 8150, 8162, 8161, 8168, 8182, 8295,0.05942964553833008
43, 8179, 8199, 8095, 8193, 8116, 8162, 8246, 8152, 8159, 8177, 8163, 8146, 8192, 8304,0.06766843795776367
44, 8182, 8214, 8092, 8205, 8128, 8182, 8272, 8162, 8184, 8194, 8171, 8143, 8195, 8300,0.07560920715332031
45, 8189, 8232, 8227, 8188, 8227, 8197, 8244, 8201, 8181, 8184, 8165, 8184, 8185, 8288,0.08264875411987305
46, 8165, 8195, 8218, 8163, 8191, 8201, 8232, 8207, 8197, 8188, 8174, 8204, 8199, 8313,0.0906827449798584
47, 8130, 8169, 8124, 8161, 8140, 8187, 8240, 8188, 8245, 8212, 8187, 8184, 8224, 8342,0.09863090515136719
48, 8153, 8205, 8236, 8170, 8221, 8181, 8209, 8222, 8247, 8213, 8180, 8197, 8210, 8320,0.1068105697631836
49, 8177, 8192, 8186, 8180, 8150, 8180, 8203, 8219, 8253, 8218, 8199, 8187, 8226, 8321,0.11472487449645996
50, 8194, 8181, 8082, 8189, 8094, 8165, 8232, 8195, 8286, 8233, 8220, 8175, 8261, 8363,0.1227560043334961
51, 8223, 8222, 8170, 8197, 8168, 8149, 8235, 8207, 8270, 8221, 8196, 8193, 8240, 8364,0.1307542324066162
52, 8208, 8213, 8185, 8188, 8174, 8146, 8227, 8204, 8234, 8207, 8164, 8179, 8208, 8320,0.13870668411254883
53, 8179, 8174, 8141, 8162, 8154, 8143, 8214, 8190, 8225, 8204, 8156, 8162, 8195, 8281,0.1454784870147705
54, 8178, 8178, 8145, 8168, 8147, 8122, 8193, 8165, 8205, 8193, 8161, 8164, 8183, 8272,0.1534714698791504
55, 8197, 8213, 8208, 8193, 8179, 8106, 8171, 8156, 8163, 8178, 8156, 8173, 8159, 8272,0.16154813766479492
56, 8178, 8191, 8162, 8182, 8150, 8111, 8159, 8143, 8148, 8171, 8146, 8155, 8143, 8255,0.16971492767333984
57, 8146, 8165, 8098, 8160, 8137, 8109, 8155, 8122, 8149, 8174, 8150, 8130, 8138, 8241,0.17778539657592773
58, 8174, 8201, 8209, 8170, 8205, 8112, 8154, 8157, 8137, 8174, 8159, 8165, 8136, 8256,0.18558168411254883
59, 8169, 8188, 8175, 8180, 8139, 8135, 8173, 8166, 8151, 8172, 8176, 8171, 8159, 8278,0.19372344017028809
60, 8133, 8174, 8139, 8167, 8135, 8149, 8187, 8168, 8174, 8180, 8193, 8169, 8183, 8283,0.20179224014282227
61, 8141, 8192, 8209, 8166, 8199, 8151, 8203, 8223, 8194, 8214, 8230, 8208, 8221, 8322,0.20980453491210938
62, 8137, 8170, 8138, 8175, 8154, 8166, 8242, 8242, 8244, 8252, 8266, 8210, 8275, 8385,0.2177581787109375
63, 8147, 8176, 8178, 8186, 8187, 8192, 8255, 8252, 8273, 8250, 8245, 8217, 8274, 8397,0.224745512008667
64, 8174, 8190, 8188, 8209, 8175, 8195, 8259, 8240, 8280, 8240, 8232, 8205, 8268, 8383,0.23279333114624023
65, 8215, 8212, 8187, 8227, 8192, 8185, 8268, 8238, 8290, 8246, 8236, 8194, 8281, 8373,0.24054336547851562
66, 8269, 8240, 8292, 8240, 8245, 8190, 8261, 8261, 8284, 8245, 8218, 8214, 8264, 8357,0.2487654685974121
67, 8252, 8220, 8177, 8260, 8136, 8185, 8247, 8192, 8266, 8234, 8208, 8177, 8248, 8339,0.25678372383117676
68, 8237, 8233, 8135, 8279, 8145, 8164, 8218, 8153, 8233, 8223, 8194, 8172, 8233, 8327,0.2647101879119873
69, 8247, 8234, 8214, 8257, 8197, 8146, 8187, 8163, 8195, 8211, 8174, 8191, 8207, 8313,0.2726132869720459
70, 8229, 8203, 8171, 8230, 8151, 8133, 8168, 8125, 8161, 8194, 8160, 8159, 8180, 8280,0.2808663845062256
71, 8198, 8207, 8142, 8217, 8149, 8119, 8152, 8114, 8130, 8177, 8141, 8145, 8145, 8242,0.2875709533691406
72, 8181, 8208, 8176, 8212, 8187, 8114, 8141, 8132, 8109, 8168, 8130, 8151, 8117, 8222,0.2956669330596924
73, 8192, 8212, 8228, 8224, 8200, 8117, 8129, 8141, 8087, 8166, 8147, 8165, 8113, 8216,0.30381178855895996
74, 8178, 8200, 8141, 8224, 8105, 8093, 8126, 8118, 8089, 8173, 8184, 8160, 8137, 8231,0.311535120010376
75, 8181, 8198, 8169, 8207, 8133, 8083, 8117, 8132, 8106, 8178, 8208, 8178, 8153, 8259,0.3198542594909668
76, 8197, 8210, 8254, 8227, 8204, 8116, 8121, 8202, 8134, 8184, 8240, 8226, 8188, 8291,0.3277866840362549
77, 8175, 8196, 8146, 8249, 8122, 8122, 8166, 8197, 8173, 8208, 8271, 8210, 8238, 8320,0.33577561378479004
78, 8192, 8196, 8169, 8223, 8124, 8109, 8185, 8179, 8173, 8218, 8242, 8193, 8216, 8320,0.3437657356262207
79, 8204, 8194, 8209, 8208, 8160, 8116, 8176, 8202, 8163, 8205, 8214, 8207, 8182, 8307,0.35179734230041504
80, 8191, 8210, 8192, 8226, 8175, 8119, 8182, 8208, 8175, 8205, 8227, 8209, 8198, 8302,0.35880303382873535
81, 8190, 8232, 8202, 8230, 8172, 8120, 8195, 8200, 8186, 8216, 8226, 8202, 8208, 8298,0.36668944358825684
82, 8174, 8210, 8121, 8231, 8116, 8140, 8203, 8173, 8193, 8212, 8208, 8171, 8197, 8292,0.374774694442749
83, 8196, 8227, 8200, 8236, 8186, 8159, 8191, 8189, 8176, 8197, 8189, 8188, 8180, 8287,0.3827338218688965
84, 8218, 8238, 8212, 8233, 8176, 8143, 8183, 8180, 8164, 8203, 8189, 8195, 8180, 8289,0.39064884185791016
85, 8199, 8226, 8134, 8224, 8151, 8127, 8170, 8141, 8169, 8207, 8176, 8160, 8173, 8278,0.3987240791320801
86, 8204, 8243, 8273, 8196, 8267, 8140, 8142, 8185, 8148, 8191, 8141, 8188, 8139, 8253,0.4067981243133545
87, 8182, 8206, 8218, 8162, 8174, 8141, 8153, 8175, 8145, 8205, 8144, 8164, 8149, 8253,0.41457056999206543
88, 8123, 8161, 8031, 8155, 8060, 8123, 8169, 8128, 8165, 8225, 8146, 8097, 8167, 8257,0.4218013286590576
89, 8113, 8164, 8076, 8142, 8132, 8120, 8166, 8157, 8160, 8200, 8115, 8110, 8135, 8247,0.42979001998901367
90, 8146, 8173, 8164, 8115, 8177, 8137, 8176, 8191, 8166, 8185, 8102, 8145, 8116, 8250,0.4375734329223633
91, 8168, 8186, 8191, 8116, 8178, 8145, 8171, 8205, 8189, 8208, 8129, 8170, 8135, 8267,0.44568729400634766
92, 8164, 8181, 8150, 8137, 8155, 8139, 8156, 8178, 8189, 8216, 8166, 8172, 8153, 8281,0.4537677764892578
93, 8182, 8194, 8161, 8164, 8177, 8143, 8148, 8156, 8171, 8205, 8165, 8172, 8146, 8284,0.461780309677124
94, 8186, 8212, 8184, 8186, 8186, 8151, 8144, 8163, 8172, 8217, 8151, 8172, 8147, 8282,0.4697551727294922
95, 8146, 8192, 8135, 8170, 8156, 8151, 8148, 8157, 8185, 8230, 8161, 8157, 8169, 8285,0.47783613204956055
96, 8151, 8191, 8170, 8152, 8192, 8168, 8150, 8172, 8181, 8218, 8165, 8170, 8165, 8289,0.4847750663757324
97, 8181, 8191, 8184, 8165, 8181, 8183, 8152, 8174, 8181, 8211, 8167, 8168, 8153, 8283,0.4927704334259033
98, 8175, 8179, 8173, 8169, 8177, 8163, 8145, 8167, 8174, 8216, 8169, 8156, 8151, 8261,0.5008037090301514
99, 8159, 8172, 8200, 8153, 8199, 8141, 8132, 8178, 8143, 8209, 8154, 8163, 8131, 8236,0.5087814331054688
100, 8142, 8162, 8140, 8156, 8152, 8142, 8140, 8152, 8129, 8195, 8139, 8137, 8114, 8225,0.5166468620300293
101, 8132, 8178, 8137, 8156, 8166, 8157, 8162, 8151, 8139, 8192, 8133, 8132, 8108, 8226,0.5247983932495117
102, 8123, 8163, 8136, 8134, 8162, 8169, 8187, 8169, 8163, 8197, 8126, 8134, 8099, 8229,0.5327997207641602
103, 8131, 8143, 8151, 8121, 8186, 8169, 8192, 8190, 8176, 8204, 8122, 8135, 8092, 8227,0.5405268669128418
104, 8171, 8172, 8242, 8136, 8235, 8175, 8184, 8230, 8178, 8212, 8142, 8174, 8108, 8233,0.54768967628479
105, 8175, 8171, 8176, 8148, 8155, 8182, 8191, 8206, 8196, 8219, 8170, 8166, 8139, 8256,0.5557208061218262
106, 8154, 8151, 8121, 8141, 8149, 8182, 8186, 8181, 8197, 8218, 8166, 8145, 8142, 8270,0.5635316371917725
107, 8152, 8145, 8144, 8142, 8169, 8173, 8172, 8193, 8178, 8215, 8159, 8146, 8135, 8268,0.5717921257019043
108, 8167, 8164, 8171, 8156, 8169, 8173, 8167, 8204, 8178, 8213, 8175, 8158, 8138, 8264,0.5797998905181885
109, 8185, 8184, 8201, 8172, 8192, 8186, 8181, 8212, 8195, 8222, 8200, 8185, 8152, 8274,0.5879590511322021
110, 8164, 8167, 8137, 8173, 8174, 8184, 8206, 8189, 8212, 8232, 8208, 8170, 8172, 8283,0.5958702564239502
111, 8152, 8188, 8197, 8168, 8235, 8178, 8191, 8207, 8197, 8223, 8179, 8178, 8155, 8265,0.603879451751709
112, 8151, 8189, 8235, 8169, 8211, 8178, 8177, 8207, 8183, 8215, 8179, 8186, 8142, 8250,0.6118736267089844
113, 8127, 8147, 8124, 8157, 8127, 8185, 8194, 8153, 8195, 8217, 8202, 8149, 8156, 8246,0.6187477111816406
114, 8124, 8163, 8160, 8138, 8193, 8188, 8189, 8173, 8187, 8214, 8182, 8158, 8149, 8234,0.6267938613891602
115, 8125, 8178, 8186, 8136, 8195, 8175, 8177, 8189, 8177, 8219, 8177, 8170, 8150, 8244,0.6347942352294922
116, 8132, 8174, 8128, 8158, 8145, 8165, 8172, 8156, 8177, 8224, 8203, 8160, 8175, 8265,0.642601728439331
117, 8155, 8189, 8137, 8179, 8167, 8159, 8150, 8145, 8162, 8218, 8201, 8168, 8170, 8266,0.6507387161254883
118, 8163, 8205, 8185, 8188, 8209, 8153, 8134, 8165, 8154, 8212, 8197, 8181, 8153, 8261,0.6588613986968994
119, 8171, 8214, 8217, 8193, 8200, 8149, 8147, 8189, 8164, 8213, 8232, 8204, 8174, 8274,0.6667003631591797
120, 8174, 8204, 8161, 8200, 8134, 8138, 8168, 8165, 8169, 8220, 8265, 8198, 8204, 8288,0.6747946739196777
121, 8184, 8218, 8210, 8213, 8197, 8137, 8156, 8173, 8155, 8220, 8244, 8204, 8181, 8281,0.6817944049835205
122, 8204, 8218, 8269, 8225, 8225, 8149, 8140, 8199, 8148, 8219, 8235, 8225, 8166, 8283,0.6896724700927734
123, 8197, 8197, 8169, 8223, 8148, 8153, 8155, 8167, 8161, 8235, 8275, 8208, 8213, 8306,0.6977310180664062
124, 8204, 8223, 8191, 8229, 8196, 8160, 8157, 8167, 8161, 8243, 8291, 8216, 8239, 8311,0.7055747509002686
125, 8221, 8235, 8216, 8240, 8196, 8151, 8140, 8168, 8151, 8233, 8272, 8216, 8223, 8310,0.713674783706665
126, 8216, 8224, 8156, 8230, 8146, 8121, 8126, 8145, 8137, 8227, 8250, 8195, 8213, 8321,0.7216792106628418
127, 8211, 8237, 8181, 8219, 8180, 8124, 8124, 8152, 8128, 8229, 8244, 8199, 8214, 8314,0.7295496463775635
237, 8219, 8255, 8190, 8225, 8193, 8152, 8134, 8156, 8138, 8242, 8256, 8196, 8232, 8305,0.7375633716583252
0, 8227, 8259, 8189, 8213, 8192, 8164, 8132, 8162, 8147, 8249, 8248, 8188, 8233, 8303,0.7445261478424072
1, 8186, 8214, 8134, 8167, 8169, 8165, 8135, 8152, 8147, 8237, 8218, 8153, 8202, 8286,0.7525827884674072
2, 8132, 8184, 8113, 8132, 8191, 8163, 8146, 8154, 8148, 8227, 8177, 8131, 8160, 8256,0.7606015205383301
3, 8133, 8187, 8166, 8120, 8196, 8165, 8157, 8177, 8162, 8229, 8159, 8147, 8145, 8247,0.7685239315032959
4, 8136, 8170, 8116, 8105, 8138, 8169, 8169, 8173, 8185, 8240, 8167, 8136, 8162, 8247,0.7766153812408447
5, 8140, 8183, 8154, 8095, 8194, 8158, 8155, 8196, 8176, 8241, 8178, 8145, 8159, 8232,0.7846412658691406
6, 8150, 8194, 8184, 8122, 8195, 8140, 8147, 8194, 8165, 8239, 8211, 8159, 8183, 8253,0.793541669845581
7, 8162, 8201, 8146, 8153, 8173, 8146, 8147, 8158, 8164, 8240, 8222, 8159, 8220, 8292,0.8006231784820557
8, 8207, 8235, 8227, 8162, 8230, 8174, 8137, 8174, 8150, 8249, 8203, 8191, 8211, 8306,0.8086342811584473
9, 8202, 8222, 8166, 8183, 8171, 8178, 8143, 8150, 8159, 8263, 8207, 8175, 8209, 8300,0.8155548572540283
10, 8166, 8219, 8152, 8203, 8192, 8162, 8129, 8126, 8151, 8248, 8195, 8155, 8190, 8264,0.8237044811248779
11, 8170, 8227, 8217, 8196, 8227, 8158, 8120, 8130, 8115, 8225, 8180, 8158, 8159, 8229,0.8314437866210938
12, 8156, 8206, 8099, 8182, 8165, 8161, 8149, 8120, 8107, 8233, 8202, 8143, 8175, 8239,0.8399379253387451
13, 8160, 8222, 8148, 8179, 8208, 8154, 8139, 8145, 8107, 8244, 8202, 8160, 8190, 8254,0.8476896286010742
14, 8162, 8222, 8203, 8161, 8195, 8150, 8115, 8159, 8118, 8245, 8191, 8162, 8191, 8245,0.8556318283081055
15, 8129, 8195, 8123, 8143, 8166, 8162, 8131, 8160, 8120, 8253, 8192, 8150, 8189, 8224,0.86468505859375
16, 8117, 8173, 8126, 8130, 8185, 8163, 8147, 8157, 8082, 8258, 8188, 8150, 8176, 8207,0.8716697692871094
17, 8132, 8179, 8189, 8121, 8222, 8176, 8156, 8163, 8073, 8257, 8201, 8168, 8186, 8213,0.8784325122833252
18, 8148, 8225, 8260, 8150, 8262, 8211, 8177, 8198, 8119, 8271, 8220, 8194, 8215, 8233,0.8866086006164551
19, 8101, 8207, 8127, 8159, 8165, 8207, 8207, 8177, 8180, 8294, 8222, 8151, 8240, 8247,0.8945128917694092
20, 8070, 8185, 8113, 8117, 8191, 8196, 8205, 8198, 8213, 8304, 8215, 8151, 8236, 8244,0.9025154113769531
21, 8077, 8172, 8196, 8080, 8223, 8218, 8208, 8239, 8232, 8301, 8209, 8164, 8216, 8228,0.9106113910675049
22, 8043, 8133, 8079, 8066, 8140, 8222, 8238, 8205, 8240, 8292, 8189, 8096, 8181, 8190,0.9186141490936279
23, 8074, 8155, 8149, 8064, 8218, 8212, 8241, 8214, 8217, 8280, 8161, 8108, 8135, 8157,0.9267191886901855
24, 8146, 8178, 8236, 8083, 8238, 8214, 8233, 8216, 8204, 8275, 8169, 8161, 8152, 8196,0.9345822334289551
25, 8156, 8166, 8132, 8105, 8140, 8208, 8224, 8160, 8190, 8272, 8178, 8160, 8194, 8261,0.9414992332458496
26, 8150, 8172, 8099, 8106, 8120, 8181, 8196, 8126, 8157, 8250, 8164, 8156, 8174, 8266,0.9496598243713379
27, 8160, 8191, 8164, 8092, 8178, 8153, 8163, 8139, 8133, 8230, 8146, 8156, 8130, 8221,0.9574189186096191
28, 8168, 8194, 8204, 8079, 8208, 8145, 8143, 8161, 8116, 8231, 8135, 8154, 8122, 8201,0.9656565189361572
29, 8151, 8166, 8127, 8077, 8155, 8141, 8146, 8143, 8118, 8236, 8133, 8136, 8135, 8222,0.9736793041229248
30, 8135, 8162, 8156, 8067, 8200, 8136, 8141, 8155, 8121, 8234, 8122, 8144, 8120, 8217,0.981454610824585
31, 8118, 8154, 8216, 8059, 8231, 8139, 8137, 8180, 8111, 8224, 8123, 8148, 8104, 8190,0.9896540641784668
32, 8077, 8126, 8111, 8054, 8162, 8142, 8161, 8161, 8125, 8222, 8155, 8123, 8121, 8190,0.997673749923706
33, 8058, 8126, 8116, 8037, 8187, 8154, 8182, 8179, 8153, 8232, 8167, 8138, 8142, 8201,1.0055205821990967
34, 8065, 8116, 8159, 8048, 8208, 8171, 8198, 8206, 8176, 8261, 8157, 8146, 8167, 8214,1.0125927925109863
35, 8099, 8129, 8161, 8099, 8209, 8184, 8208, 8212, 8201, 8281, 8158, 8143, 8183, 8243,1.0205128192901611
36, 8135, 8165, 8190, 8119, 8211, 8186, 8202, 8219, 8214, 8277, 8168, 8155, 8171, 8258,1.028459072113037
37, 8125, 8155, 8132, 8108, 8173, 8182, 8197, 8197, 8222, 8278, 8178, 8135, 8177, 8247,1.0365939140319824
38, 8143, 8167, 8164, 8131, 8204, 8191, 8195, 8205, 8225, 8256, 8179, 8149, 8197, 8251,1.0444824695587158
39, 8167, 8170, 8180, 8141, 8170, 8204, 8209, 8210, 8229, 8206, 8183, 8173, 8205, 8282,1.0524921417236328
40, 8149, 8162, 8153, 8126, 8162, 8204, 8213, 8184, 8208, 8175, 8171, 8155, 8190, 8277,1.06065034866333
41, 8126, 8177, 8178, 8137, 8204, 8188, 8188, 8172, 8163, 8163, 8130, 8135, 8155, 8232,1.068594217300415
42, 8091, 8163, 8099, 8160, 8148, 8170, 8179, 8142, 8144, 8160, 8114, 8113, 8135, 8206,1.075660228729248
43, 8102, 8177, 8187, 8156, 8207, 8165, 8176, 8165, 8130, 8179, 8124, 8143, 8118, 8202,1.083467960357666
44, 8113, 8176, 8251, 8130, 8225, 8152, 8167, 8183, 8118, 8189, 8126, 8153, 8102, 8197,1.0918753147125244
45, 8084, 8148, 8122, 8118, 8156, 8146, 8161, 8148, 8125, 8167, 8110, 8114, 8097, 8195,1.0996992588043213
46, 8105, 8159, 8126, 8142, 8161, 8165, 8166, 8163, 8139, 8171, 8115, 8135, 8109, 8205,1.1074519157409668
47, 8131, 8170, 8149, 8175, 8152, 8173, 8180, 8184, 8161, 8210, 8158, 8160, 8146, 8221,1.115429162979126
48, 8145, 8195, 8218, 8190, 8214, 8171, 8169, 8200, 8162, 8214, 8167, 8183, 8159, 8234,1.123657464981079
49, 8156, 8195, 8223, 8187, 8213, 8173, 8166, 8193, 8149, 8203, 8161, 8189, 8164, 8258,1.1316602230072021
50, 8139, 8180, 8115, 8191, 8144, 8169, 8189, 8166, 8149, 8213, 8183, 8159, 8190, 8284,1.1395397186279297
51, 8157, 8201, 8156, 8214, 8187, 8173, 8202, 8189, 8162, 8211, 8214, 8176, 8209, 8298,1.1465468406677246
52, 8194, 8212, 8173, 8227, 8192, 8194, 8214, 8206, 8187, 8202, 8235, 8195, 8237, 8320,1.1546247005462646
53, 8199, 8212, 8172, 8214, 8192, 8198, 8217, 8215, 8187, 8202, 8220, 8197, 8242, 8327,1.1626131534576416
54, 8161, 8175, 8158, 8195, 8165, 8179, 8211, 8211, 8175, 8206, 8197, 8177, 8212, 8292,1.170619249343872
55, 8124, 8153, 8128, 8181, 8153, 8178, 8205, 8184, 8185, 8211, 8193, 8145, 8185, 8245,1.1786229610443115
56, 8143, 8194, 8233, 8193, 8243, 8200, 8192, 8200, 8188, 8209, 8189, 8166, 8177, 8219,1.186626672744751
57, 8134, 8180, 8192, 8202, 8216, 8193, 8181, 8181, 8183, 8216, 8198, 8154, 8192, 8220,1.194596290588379
58, 8095, 8137, 8100, 8166, 8180, 8168, 8157, 8135, 8163, 8216, 8188, 8121, 8177, 8210,1.2026598453521729
59, 8104, 8139, 8136, 8135, 8181, 8164, 8134, 8127, 8136, 8202, 8161, 8137, 8153, 8205,1.2095911502838135
60, 8127, 8156, 8157, 8155, 8169, 8161, 8132, 8135, 8128, 8192, 8172, 8160, 8168, 8227,1.2174839973449707
61, 8141, 8180, 8210, 8181, 8214, 8150, 8119, 8160, 8118, 8189, 8183, 8175, 8168, 8235,1.225682258605957
62, 8132, 8170, 8156, 8187, 8180, 8148, 8119, 8155, 8120, 8181, 8181, 8158, 8166, 8236,1.2334747314453125
63, 8146, 8167, 8141, 8192, 8178, 8152, 8126, 8157, 8124, 8150, 8187, 8162, 8186, 8259,1.2417333126068115
64, 8185, 8184, 8209, 8201, 8205, 8156, 8127, 8173, 8125, 8135, 8209, 8183, 8212, 8290,1.2496683597564697
65, 8183, 8176, 8171, 8200, 8189, 8168, 8144, 8163, 8148, 8161, 8227, 8172, 8237, 8310,1.2576210498809814
66, 8186, 8167, 8212, 8179, 8230, 8176, 8148, 8190, 8153, 8181, 8208, 8185, 8231, 8307,1.2656795978546143
67, 8176, 8143, 8159, 8169, 8182, 8170, 8158, 8176, 8162, 8194, 8198, 8168, 8220, 8289,1.2726213932037354
68, 8170, 8155, 8150, 8186, 8204, 8185, 8171, 8165, 8174, 8220, 8191, 8158, 8207, 8268,1.2806241512298584
69, 8180, 8173, 8264, 8180, 8265, 8198, 8168, 8208, 8161, 8235, 8162, 8177, 8179, 8254,1.2886250019073486
70, 8134, 8132, 8147, 8151, 8170, 8183, 8174, 8182, 8167, 8235, 8147, 8135, 8168, 8247,1.2965846061706543
71, 8131, 8136, 8128, 8161, 8187, 8174, 8171, 8171, 8181, 8242, 8153, 8141, 8177, 8244,1.3046936988830566
72, 8179, 8158, 8201, 8185, 8222, 8174, 8164, 8193, 8181, 8256, 8165, 8182, 8195, 8264,1.3126182556152344
73, 8183, 8164, 8157, 8183, 8187, 8187, 8166, 8174, 8180, 8266, 8168, 8172, 8203, 8277,1.320563554763794
74, 8168, 8171, 8151, 8186, 8193, 8210, 8164, 8152, 8179, 8269, 8161, 8169, 8200, 8274,1.3287270069122314
75, 8157, 8146, 8151, 8185, 8197, 8200, 8152, 8140, 8163, 8265, 8155, 8166, 8196, 8274,1.3367598056793213
76, 8158, 8145, 8196, 8168, 8225, 8184, 8141, 8160, 8144, 8260, 8158, 8165, 8184, 8262,1.3435680866241455
77, 8154, 8149, 8145, 8175, 8168, 8203, 8162, 8163, 8164, 8275, 8177, 8154, 8200, 8266,1.3517160415649414
78, 8171, 8167, 8145, 8201, 8182, 8217, 8166, 8168, 8178, 8286, 8169, 8169, 8214, 8285,1.3596553802490234
79, 8221, 8199, 8284, 8205, 8268, 8202, 8135, 8205, 8154, 8269, 8148, 8216, 8194, 8292,1.367614507675171
80, 8199, 8158, 8179, 8182, 8186, 8192, 8144, 8177, 8152, 8262, 8171, 8188, 8200, 8296,1.3756945133209229
81, 8179, 8141, 8132, 8176, 8191, 8203, 8160, 8162, 8162, 8274, 8184, 8168, 8218, 8294,1.3837790489196777
82, 8200, 8162, 8208, 8181, 8239, 8193, 8143, 8178, 8153, 8278, 8168, 8185, 8214, 8287,1.3917880058288574
83, 8180, 8143, 8147, 8168, 8189, 8163, 8122, 8153, 8137, 8272, 8148, 8162, 8195, 8277,1.3997159004211426
84, 8160, 8138, 8145, 8159, 8186, 8164, 8125, 8157, 8141, 8272, 8139, 8158, 8178, 8266,1.4066526889801025
85, 8154, 8154, 8151, 8173, 8194, 8185, 8156, 8176, 8170, 8282, 8160, 8164, 8189, 8262,1.4147868156433105
86, 8153, 8154, 8159, 8174, 8215, 8193, 8173, 8190, 8182, 8280, 8173, 8167, 8200, 8274,1.4226746559143066
87, 8148, 8116, 8145, 8137, 8175, 8182, 8167, 8184, 8171, 8266, 8168, 8163, 8199, 8288,1.4305198192596436
88, 8142, 8113, 8127, 8122, 8152, 8171, 8160, 8177, 8165, 8256, 8163, 8160, 8190, 8279,1.4388158321380615
89, 8163, 8153, 8197, 8155, 8215, 8176, 8161, 8198, 8163, 8240, 8163, 8185, 8180, 8267,1.4465100765228271
90, 8172, 8146, 8161, 8167, 8185, 8180, 8181, 8193, 8184, 8221, 8178, 8176, 8201, 8290,1.45448899269104
91, 8193, 8159, 8201, 8162, 8214, 8190, 8188, 8215, 8211, 8220, 8184, 8187, 8217, 8312,1.4626221656799316
92, 8208, 8170, 8241, 8177, 8227, 8212, 8189, 8229, 8232, 8237, 8198, 8207, 8223, 8312,1.4706919193267822
93, 8203, 8148, 8137, 8196, 8169, 8223, 8194, 8179, 8244, 8244, 8217, 8177, 8230, 8315,1.4776062965393066
94, 8236, 8179, 8208, 8200, 8234, 8221, 8166, 8170, 8204, 8225, 8185, 8186, 8201, 8310,1.4857842922210693
95, 8222, 8175, 8208, 8186, 8225, 8203, 8141, 8152, 8162, 8210, 8155, 8181, 8166, 8283,1.493647575378418
96, 8176, 8145, 8126, 8164, 8187, 8190, 8140, 8124, 8167, 8216, 8169, 8154, 8150, 8254,1.5017328262329102
97, 8179, 8152, 8167, 8153, 8199, 8202, 8143, 8141, 8171, 8219, 8182, 8162, 8143, 8253,1.509756326675415
98, 8179, 8146, 8159, 8162, 8174, 8208, 8151, 8143, 8165, 8209, 8177, 8159, 8154, 8269,1.5177478790283203
99, 8184, 8140, 8171, 8163, 8191, 8202, 8162, 8157, 8168, 8210, 8181, 8165, 8165, 8276,1.5257682800292969
100, 8187, 8142, 8162, 8149, 8188, 8202, 8181, 8169, 8181, 8213, 8185, 8164, 8161, 8282,1.5336995124816895
101, 8185, 8157, 8198, 8151, 8219, 8210, 8175, 8181, 8179, 8193, 8169, 8174, 8153, 8279,1.54071044921875
102, 8182, 8149, 8181, 8162, 8188, 8205, 8165, 8177, 8188, 8191, 8191, 8185, 8179, 8290,1.548670768737793
103, 8177, 8144, 8108, 8174, 8150, 8200, 8179, 8163, 8219, 8212, 8224, 8172, 8215, 8317,1.5566129684448242
104, 8223, 8207, 8304, 8189, 8292, 8223, 8168, 8223, 8209, 8213, 8190, 8222, 8194, 8317,1.5647499561309814
105, 8222, 8188, 8264, 8193, 8228, 8222, 8167, 8212, 8206, 8219, 8175, 8217, 8191, 8312,1.5725460052490234
106, 8180, 8144, 8071, 8179, 8126, 8192, 8179, 8151, 8218, 8232, 8196, 8160, 8213, 8315,1.5808415412902832
107, 8199, 8177, 8200, 8170, 8226, 8187, 8170, 8186, 8192, 8222, 8177, 8177, 8189, 8297,1.588829517364502
108, 8194, 8161, 8200, 8166, 8197, 8204, 8179, 8188, 8184, 8200, 8165, 8172, 8182, 8282,1.5966229438781738
109, 8159, 8128, 8086, 8142, 8148, 8198, 8191, 8152, 8201, 8224, 8160, 8145, 8184, 8278,1.6037368774414062
110, 8163, 8140, 8130, 8123, 8194, 8178, 8176, 8159, 8194, 8290, 8140, 8156, 8153, 8273,1.6117067337036133
111, 8180, 8145, 8201, 8124, 8225, 8185, 8159, 8177, 8176, 8262, 8139, 8175, 8130, 8264,1.619791030883789
112, 8176, 8120, 8163, 8129, 8179, 8200, 8159, 8159, 8171, 8360, 8159, 8168, 8134, 8253,1.6276710033416748
113, 8175, 8114, 8100, 8139, 8159, 8202, 8170, 8145, 8188, 8787, 8173, 8152, 8155, 8256,1.6357486248016357
114, 8208, 8157, 8220, 8162, 8255, 8212, 8171, 8189, 8202, 9095, 8157, 8190, 8158, 8269,1.643754482269287
115, 8196, 8138, 8187, 8165, 8181, 8218, 8168, 8178, 8210, 9023, 8156, 8186, 8163, 8278,1.6516833305358887
116, 8174, 8118, 8120, 8151, 8141, 8208, 8153, 8153, 8206, 8962, 8168, 8161, 8166, 8272,1.659635066986084
117, 8220, 8170, 8307, 8160, 8283, 8216, 8141, 8218, 8203, 9036, 8163, 8204, 8156, 8264,1.6667520999908447
118, 8209, 8147, 8219, 8174, 8202, 8233, 8183, 8204, 8228, 9016, 8176, 8190, 8181, 8279,1.6747636795043945
119, 8167, 8112, 8042, 8171, 8114, 8235, 8210, 8155, 8243, 8973, 8196, 8155, 8206, 8300,1.6827552318572998
120, 8189, 8146, 8140, 8168, 8179, 8231, 8188, 8182, 8226, 8981, 8199, 8179, 8200, 8309,1.6907761096954346
121, 8187, 8157, 8183, 8169, 8189, 8214, 8178, 8183, 8208, 8955, 8184, 8177, 8186, 8300,1.6985435485839844
122, 8167, 8138, 8174, 8166, 8202, 8208, 8186, 8176, 8198, 8930, 8164, 8168, 8168, 8281,1.706679344177246
123, 8167, 8114, 8164, 8149, 8200, 8226, 8198, 8187, 8203, 8923, 8168, 8168, 8159, 8282,1.7146151065826416
124, 8171, 8109, 8174, 8131, 8189, 8224, 8190, 8192, 8202, 8908, 8166, 8170, 8150, 8289,1.7225494384765625
125, 8157, 8096, 8146, 8122, 8155, 8204, 8181, 8172, 8201, 8885, 8149, 8158, 8140, 8283,1.7296860218048096
126, 8144, 8092, 8123, 8124, 8150, 8205, 8179, 8152, 8208, 8874, 8150, 8143, 8134, 8270,1.7376317977905273
127, 8162, 8115, 8205, 8138, 8194, 8218, 8166, 8162, 8188, 8863, 8164, 8168, 8124, 8263,1.7466521263122559
237, 8171, 8112, 8174, 8161, 8158, 8227, 8167, 8151, 8175, 8854, 8189, 8183, 8143, 8281,1.7536025047302246
0, 8191, 8135, 8203, 8192, 8205, 8233, 8157, 8167, 8182, 8846, 8204, 8201, 8162, 8296,1.7614879608154297
1, 8217, 8158, 8273, 8217, 8235, 8222, 8136, 8191, 8187, 8835, 8219, 8219, 8169, 8301,1.7695538997650146
2, 8208, 8131, 8169, 8222, 8154, 8203, 8146, 8159, 8187, 8820, 8240, 8201, 8184, 8311,1.7775921821594238
3, 8233, 8143, 8203, 8221, 8179, 8208, 8151, 8162, 8170, 8800, 8239, 8227, 8186, 8317,1.785538911819458
4, 8244, 8162, 8214, 8238, 8166, 8207, 8147, 8163, 8174, 8785, 8244, 8232, 8192, 8321,1.7935404777526855
5, 8243, 8171, 8219, 8247, 8196, 8200, 8144, 8163, 8176, 8765, 8240, 8224, 8192, 8322,1.800600528717041
6, 8268, 8165, 8283, 8236, 8239, 8212, 8148, 8190, 8152, 8745, 8228, 8246, 8189, 8330,1.8085739612579346
7, 8234, 8116, 8152, 8216, 8146, 8198, 8158, 8169, 8156, 8743, 8220, 8206, 8192, 8326,1.8167777061462402
8, 8206, 8124, 8139, 8201, 8175, 8190, 8172, 8184, 8182, 8744, 8202, 8189, 8176, 8306,1.8245248794555664
9, 8223, 8152, 8220, 8203, 8231, 8215, 8192, 8224, 8200, 8736, 8197, 8211, 8174, 8316,1.8328473567962646
10, 8214, 8133, 8205, 8192, 8216, 8215, 8185, 8217, 8205, 8728, 8191, 8199, 8177, 8317,1.8407833576202393
11, 8172, 8082, 8098, 8160, 8131, 8183, 8171, 8174, 8203, 8713, 8170, 8158, 8161, 8291,1.8487014770507812
12, 8161, 8080, 8036, 8146, 8107, 8166, 8177, 8150, 8211, 8705, 8159, 8140, 8152, 8288,1.8565161228179932
13, 8233, 8173, 8312, 8172, 8297, 8192, 8152, 8229, 8206, 8710, 8153, 8220, 8144, 8298,1.8652222156524658
14, 8230, 8151, 8305, 8184, 8230, 8207, 8137, 8218, 8206, 8710, 8169, 8221, 8151, 8301,1.8715989589691162
15, 8157, 8066, 8019, 8164, 8062, 8203, 8156, 8111, 8209, 8709, 8186, 8142, 8172, 8311,1.8795356750488281
16, 8180, 8106, 8118, 8161, 8171, 8213, 8150, 8135, 8190, 8711, 8175, 8175, 8169, 8314,1.8875274658203125
17, 8208, 8130, 8205, 8173, 8203, 8220, 8149, 8169, 8182, 8704, 8172, 8204, 8170, 8312,1.8956103324890137
18, 8217, 8124, 8167, 8187, 8169, 8213, 8154, 8160, 8180, 8682, 8181, 8192, 8179, 8327,1.903724193572998
19, 8244, 8145, 8180, 8209, 8184, 8198, 8136, 8169, 8171, 8671, 8194, 8205, 8196, 8350,1.9116168022155762
20, 8241, 8149, 8170, 8220, 8191, 8185, 8119, 8173, 8176, 8672, 8203, 8211, 8214, 8358,1.9195969104766846
21, 8231, 8143, 8180, 8205, 8201, 8177, 8128, 8188, 8195, 8672, 8197, 8209, 8213, 8357,1.9267327785491943
22, 8227, 8140, 8179, 8188, 8192, 8188, 8150, 8209, 8217, 8680, 8190, 8200, 8206, 8347,1.9346120357513428
23, 8205, 8130, 8183, 8170, 8186, 8202, 8147, 8211, 8209, 8661, 8168, 8190, 8180, 8305,1.9425408840179443
24, 8156, 8082, 8092, 8136, 8113, 8200, 8147, 8161, 8192, 8625, 8143, 8151, 8147, 8258,1.9505689144134521
25, 8151, 8077, 8089, 8121, 8140, 8213, 8164, 8145, 8195, 8622, 8139, 8145, 8137, 8247,1.9587316513061523
26, 8199, 8118, 8252, 8136, 8241, 8229, 8152, 8198, 8196, 8623, 8147, 8199, 8137, 8266,1.9666070938110352
27, 8174, 8088, 8157, 8134, 8140, 8203, 8138, 8175, 8195, 8601, 8160, 8172, 8146, 8274,1.9745192527770996
28, 8153, 8091, 8098, 8135, 8126, 8187, 8133, 8150, 8188, 8587, 8163, 8149, 8151, 8259,1.9825878143310547
29, 8203, 8131, 8229, 8155, 8217, 8201, 8128, 8179, 8178, 8581, 8166, 8201, 8155, 8267,1.9906644821166992
30, 8204, 8109, 8195, 8150, 8176, 8193, 8128, 8162, 8171, 8567, 8170, 8201, 8157, 8292,1.9977641105651855
31, 8170, 8086, 8123, 8131, 8141, 8175, 8129, 8142, 8156, 8566, 8165, 8170, 8153, 8281,2.00575852394104
32, 8163, 8098, 8101, 8144, 8145, 8178, 8144, 8144, 8170, 8584, 8179, 8165, 8175, 8274,2.0137715339660645
33, 8195, 8143, 8177, 8168, 8202, 8188, 8158, 8172, 8185, 8596, 8184, 8194, 8188, 8291,2.0217583179473877
34, 8209, 8142, 8198, 8164, 8196, 8182, 8167, 8185, 8175, 8588, 8164, 8191, 8172, 8292,2.0297791957855225
35, 8177, 8096, 8119, 8156, 8167, 8178, 8185, 8165, 8179, 8575, 8151, 8155, 8161, 8273,2.0377769470214844
36, 8166, 8095, 8180, 8146, 8216, 8180, 8192, 8193, 8192, 8567, 8146, 8174, 8148, 8269,2.045724868774414
37, 8155, 8086, 8144, 8128, 8151, 8179, 8205, 8199, 8208, 8563, 8150, 8171, 8159, 8289,2.0536887645721436
38, 8150, 8086, 8132, 8124, 8166, 8193, 8213, 8193, 8216, 8539, 8144, 8163, 8170, 8286,2.060725688934326
39, 8167, 8099, 8221, 8129, 8218, 8204, 8197, 8207, 8206, 8495, 8134, 8185, 8154, 8267,2.068775177001953
40, 8156, 8081, 8142, 8130, 8132, 8180, 8183, 8176, 8205, 8442, 8140, 8162, 8155, 8269,2.07651686668396
41, 8159, 8089, 8132, 8141, 8150, 8162, 8174, 8167, 8206, 8385, 8146, 8162, 8170, 8279,2.0847504138946533
42, 8170, 8102, 8161, 8151, 8164, 8183, 8177, 8168, 8199, 8353, 8149, 8175, 8171, 8273,2.092769145965576
43, 8173, 8111, 8160, 8158, 8153, 8202, 8179, 8157, 8188, 8342, 8147, 8172, 8158, 8257,2.100771903991699
44, 8198, 8123, 8201, 8176, 8187, 8197, 8178, 8164, 8189, 8330, 8158, 8187, 8164, 8276,2.1088523864746094
45, 8212, 8119, 8165, 8191, 8178, 8197, 8188, 8162, 8209, 8322, 8188, 8192, 8192, 8313,2.1167783737182617
46, 8222, 8140, 8192, 8198, 8195, 8205, 8191, 8179, 8198, 8314, 8180, 8198, 8187, 8315,2.124603509902954
47, 8218, 8140, 8182, 8204, 8162, 8197, 8193, 8167, 8179, 8326, 8166, 8182, 8179, 8317,2.1316943168640137
48, 8226, 8137, 8174, 8202, 8178, 8185, 8183, 8158, 8183, 8379, 8178, 8182, 8205, 8345,2.1397545337677
49, 8239, 8150, 8218, 8196, 8210, 8194, 8178, 8179, 8182, 8413, 8175, 8207, 8216, 8347,2.147785186767578
50, 8194, 8123, 8132, 8194, 8146, 8191, 8196, 8156, 8176, 8385, 8152, 8172, 8200, 8320,2.1557586193084717
51, 8197, 8130, 8226, 8194, 8230, 8177, 8185, 8190, 8171, 8338, 8132, 8183, 8181, 8310,2.163766384124756
52, 8206, 8126, 8257, 8183, 8226, 8175, 8168, 8222, 8189, 8299, 8147, 8200, 8194, 8316,2.1717092990875244
53, 8151, 8092, 8072, 8162, 8107, 8176, 8176, 8170, 8211, 8259, 8157, 8148, 8202, 8302,2.1796929836273193
54, 8155, 8114, 8142, 8166, 8178, 8178, 8165, 8169, 8187, 8212, 8126, 8156, 8167, 8277,2.1874372959136963
55, 8186, 8123, 8212, 8187, 8214, 8177, 8163, 8185, 8165, 8182, 8112, 8180, 8160, 8287,2.194666624069214
56, 8176, 8110, 8132, 8183, 8159, 8183, 8175, 8162, 8173, 8175, 8136, 8167, 8185, 8313,2.2026758193969727
57, 8176, 8126, 8115, 8177, 8141, 8181, 8163, 8146, 8181, 8171, 8166, 8169, 8198, 8321,2.2105917930603027
58, 8200, 8152, 8187, 8188, 8194, 8168, 8145, 8166, 8173, 8153, 8168, 8190, 8194, 8317,2.218611478805542
59, 8200, 8131, 8205, 8180, 8202, 8171, 8159, 8188, 8169, 8145, 8164, 8196, 8195, 8315,2.22654128074646
60, 8154, 8077, 8072, 8155, 8124, 8183, 8187, 8157, 8193, 8162, 8183, 8158, 8219, 8321,2.234545946121216
61, 8182, 8126, 8220, 8161, 8249, 8190, 8166, 8194, 8195, 8154, 8183, 8200, 8214, 8319,2.2426369190216064
62, 8234, 8163, 8328, 8178, 8268, 8182, 8157, 8236, 8190, 8135, 8185, 8243, 8204, 8329,2.2504940032958984
63, 8187, 8101, 8081, 8161, 8092, 8167, 8196, 8172, 8209, 8133, 8197, 8171, 8218, 8341,2.257591485977173
64, 8156, 8095, 8079, 8145, 8150, 8167, 8193, 8161, 8204, 8119, 8175, 8145, 8206, 8315,2.2656145095825195
65, 8165, 8114, 8180, 8149, 8218, 8159, 8170, 8193, 8198, 8108, 8167, 8166, 8201, 8299,2.2735702991485596
66, 8164, 8116, 8146, 8146, 8175, 8162, 8187, 8199, 8214, 8115, 8179, 8171, 8219, 8313,2.281690835952759
67, 8172, 8121, 8157, 8130, 8175, 8191, 8209, 8204, 8222, 8112, 8170, 8180, 8219, 8320,2.28963041305542
68, 8170, 8117, 8180, 8130, 8197, 8199, 8199, 8194, 8211, 8098, 8158, 8182, 8200, 8306,2.297606945037842
69, 8164, 8108, 8204, 8136, 8210, 8186, 8191, 8194, 8194, 8086, 8152, 8188, 8178, 8296,2.3056774139404297
70, 8148, 8085, 8136, 8124, 8163, 8179, 8211, 8178, 8204, 8087, 8171, 8171, 8185, 8306,2.3135182857513428
71, 8147, 8098, 8140, 8121, 8196, 8180, 8210, 8171, 8208, 8092, 8181, 8166, 8188, 8305,2.321627616882324
72, 8142, 8106, 8175, 8128, 8198, 8187, 8194, 8168, 8190, 8081, 8160, 8157, 8165, 8272,2.3285341262817383
73, 8114, 8085, 8109, 8125, 8144, 8187, 8183, 8147, 8186, 8062, 8146, 8127, 8157, 8240,2.336649179458618
74, 8136, 8110, 8194, 8127, 8212, 8179, 8147, 8169, 8175, 8055, 8151, 8163, 8160, 8248,2.34462308883667
75, 8155, 8111, 8180, 8143, 8174, 8175, 8136, 8164, 8163, 8062, 8179, 8178, 8178, 8283,2.3525772094726562
76, 8163, 8113, 8131, 8159, 8149, 8178, 8152, 8152, 8168, 8070, 8194, 8169, 8192, 8296,2.360567808151245
77, 8197, 8142, 8226, 8167, 8209, 8170, 8143, 8180, 8166, 8066, 8185, 8199, 8186, 8290,2.368601083755493
78, 8180, 8127, 8159, 8156, 8164, 8165, 8136, 8161, 8162, 8056, 8179, 8181, 8195, 8290,2.376495599746704
79, 8164, 8135, 8164, 8140, 8184, 8166, 8136, 8158, 8147, 8058, 8173, 8177, 8188, 8280,2.3846683502197266
80, 8165, 8144, 8206, 8132, 8191, 8154, 8144, 8176, 8142, 8072, 8172, 8180, 8167, 8269,2.391738176345825
81, 8146, 8125, 8143, 8133, 8159, 8157, 8155, 8172, 8152, 8078, 8170, 8156, 8165, 8272,2.3997621536254883
82, 8150, 8124, 8137, 8140, 8154, 8181, 8158, 8182, 8167, 8079, 8177, 8168, 8184, 8284,2.407707929611206
83, 8162, 8127, 8137, 8140, 8137, 8183, 8162, 8183, 8184, 8080, 8192, 8176, 8197, 8291,2.415682077407837
84, 8165, 8139, 8194, 8137, 8197, 8169, 8153, 8189, 8173, 8068, 8165, 8167, 8167, 8263,2.4238297939300537
85, 8131, 8117, 8127, 8131, 8180, 8162, 8156, 8163, 8165, 8060, 8146, 8139, 8150, 8233,2.4316439628601074
86, 8121, 8118, 8129, 8124, 8205, 8167, 8160, 8164, 8174, 8066, 8179, 8153, 8164, 8247,2.439664125442505
87, 8172, 8159, 8315, 8133, 8279, 8179, 8145, 8219, 8166, 8061, 8200, 8211, 8172, 8267,2.447725534439087
88, 8142, 8122, 8174, 8139, 8149, 8171, 8150, 8178, 8166, 8044, 8185, 8175, 8175, 8261,2.4556808471679688
89, 8098, 8091, 8040, 8124, 8123, 8163, 8161, 8137, 8164, 8033, 8164, 8136, 8162, 8251,2.4636664390563965
90, 8138, 8122, 8154, 8136, 8213, 8166, 8151, 8169, 8160, 8039, 8173, 8162, 8166, 8268,2.470790147781372
91, 8166, 8154, 8189, 8182, 8212, 8162, 8137, 8170, 8161, 8041, 8176, 8168, 8170, 8262,2.4786794185638428
92, 8158, 8167, 8189, 8191, 8201, 8166, 8136, 8152, 8147, 8029, 8141, 8163, 8130, 8223,2.4867618083953857
93, 8142, 8140, 8156, 8165, 8174, 8164, 8145, 8143, 8142, 8040, 8143, 8156, 8129, 8228,2.4947729110717773
94, 8149, 8128, 8170, 8156, 8194, 8147, 8135, 8169, 8147, 8062, 8174, 8171, 8173, 8265,2.5026276111602783
95, 8161, 8132, 8162, 8170, 8165, 8152, 8137, 8184, 8159, 8057, 8178, 8178, 8190, 8287,2.5107016563415527
96, 8163, 8141, 8138, 8182, 8143, 8165, 8153, 8170, 8174, 8052, 8159, 8164, 8180, 8280,2.5186214447021484
97, 8172, 8155, 8217, 8177, 8206, 8154, 8142, 8182, 8169, 8054, 8152, 8179, 8164, 8257,2.5256295204162598
98, 8152, 8129, 8151, 8162, 8156, 8147, 8148, 8165, 8176, 8054, 8166, 8168, 8175, 8260,2.5338730812072754
99, 8154, 8142, 8174, 8160, 8184, 8173, 8166, 8173, 8189, 8055, 8158, 8180, 8186, 8278,2.5417239665985107
100, 8180, 8163, 8277, 8177, 8232, 8189, 8171, 8207, 8189, 8057, 8153, 8209, 8182, 8279,2.5497233867645264
101, 8161, 8127, 8144, 8185, 8138, 8178, 8185, 8183, 8201, 8064, 8184, 8170, 8203, 8286,2.5577385425567627
102, 8148, 8128, 8104, 8171, 8132, 8174, 8183, 8177, 8204, 8062, 8181, 8157, 8214, 8283,2.56564998626709
103, 8147, 8142, 8150, 8157, 8163, 8174, 8180, 8184, 8202, 8056, 8154, 8164, 8192, 8264,2.5737154483795166
104, 8155, 8144, 8184, 8164, 8192, 8176, 8187, 8193, 8203, 8059, 8138, 8164, 8167, 8249,2.5815138816833496
105, 8146, 8121, 8176, 8157, 8169, 8186, 8189, 8185, 8196, 8060, 8132, 8164, 8160, 8237,2.588432550430298
106, 8105, 8100, 8108, 8135, 8136, 8189, 8188, 8157, 8187, 8057, 8126, 8146, 8156, 8223,2.596662759780884
107, 8124, 8142, 8196, 8145, 8211, 8185, 8174, 8185, 8176, 8052, 8121, 8163, 8146, 8227,2.604539155960083
108, 8141, 8145, 8193, 8159, 8175, 8174, 8157, 8181, 8172, 8054, 8136, 8161, 8156, 8243,2.612417459487915
109, 8121, 8125, 8143, 8150, 8146, 8163, 8136, 8143, 8163, 8061, 8137, 8143, 8153, 8236,2.6206254959106445
110, 8128, 8137, 8184, 8148, 8183, 8156, 8125, 8154, 8159, 8063, 8143, 8163, 8144, 8240,2.62854266166687
111, 8123, 8134, 8137, 8155, 8151, 8161, 8134, 8159, 8173, 8061, 8171, 8165, 8171, 8256,2.636488199234009
112, 8128, 8152, 8213, 8163, 8205, 8172, 8121, 8175, 8165, 8053, 8163, 8179, 8162, 8238,2.644545555114746
113, 8144, 8156, 8236, 8175, 8198, 8168, 8118, 8176, 8158, 8049, 8151, 8181, 8140, 8240,2.651545763015747
114, 8144, 8141, 8133, 8172, 8155, 8160, 8135, 8153, 8166, 8053, 8163, 8166, 8153, 8268,2.65978741645813
115, 8149, 8149, 8150, 8168, 8180, 8169, 8137, 8155, 8164, 8067, 8173, 8172, 8166, 8263,2.6675949096679688
116, 8157, 8155, 8161, 8187, 8166, 8178, 8139, 8147, 8159, 8072, 8179, 8172, 8175, 8256,2.6755785942077637
117, 8185, 8174, 8204, 8196, 8197, 8181, 8141, 8164, 8147, 8063, 8182, 8200, 8190, 8287,2.683732748031616
118, 8178, 8161, 8171, 8171, 8181, 8174, 8149, 8177, 8152, 8073, 8183, 8198, 8207, 8304,2.6915180683135986
119, 8151, 8139, 8128, 8158, 8183, 8165, 8156, 8174, 8172, 8082, 8165, 8164, 8191, 8269,2.6996726989746094
120, 8157, 8138, 8186, 8165, 8215, 8170, 8151, 8187, 8176, 8064, 8142, 8169, 8163, 8239,2.7075443267822266
121, 8135, 8115, 8115, 8149, 8150, 8174, 8158, 8167, 8180, 8048, 8129, 8155, 8163, 8241,2.7157204151153564
122, 8132, 8133, 8174, 8138, 8201, 8171, 8155, 8181, 8169, 8047, 8114, 8168, 8147, 8237,2.7227022647857666
123, 8158, 8149, 8230, 8159, 8212, 8170, 8155, 8203, 8169, 8063, 8151, 8193, 8161, 8256,2.730772018432617
124, 8148, 8135, 8126, 8164, 8153, 8179, 8154, 8171, 8189, 8076, 8196, 8174, 8213, 8277,2.7386085987091064
125, 8135, 8146, 8167, 8146, 8212, 8180, 8125, 8164, 8168, 8057, 8168, 8171, 8195, 8244,2.7468037605285645
126, 8115, 8141, 8164, 8149, 8184, 8151, 8108, 8148, 8136, 8043, 8144, 8150, 8151, 8210,2.754589080810547
127, 8122, 8143, 8134, 8156, 8149, 8126, 8107, 8129, 8116, 8048, 8159, 8143, 8149, 8217,2.7636663913726807
237, 8162, 8147, 8160, 8163, 8174, 8141, 8112, 8133, 8112, 8051, 8180, 8173, 8176, 8247,2.7705674171447754
0, 8170, 8145, 8160, 8180, 8182, 8151, 8118, 8138, 8124, 8053, 8201, 8189, 8201, 8278,2.77846622467041
1, 8169, 8167, 8213, 8184, 8201, 8146, 8116, 8160, 8128, 8061, 8209, 8201, 8207, 8286,2.785529613494873
2, 8179, 8173, 8194, 8184, 8173, 8159, 8121, 8158, 8141, 8073, 8223, 8194, 8223, 8283,2.7937493324279785
3, 8209, 8185, 8206, 8201, 8194, 8174, 8116, 8164, 8155, 8086, 8232, 8205, 8238, 8284,2.801644802093506
4, 8219, 8175, 8185, 8206, 8175, 8169, 8116, 8170, 8168, 8093, 8239, 8207, 8249, 8304,2.8095922470092773
5, 8198, 8161, 8125, 8201, 8162, 8164, 8128, 8170, 8184, 8093, 8238, 8180, 8256, 8315,2.8176722526550293
6, 8192, 8188, 8247, 8193, 8243, 8165, 8115, 8213, 8178, 8089, 8195, 8187, 8220, 8278,2.8255152702331543
7, 8140, 8141, 8180, 8142, 8154, 8147, 8115, 8200, 8176, 8081, 8162, 8153, 8183, 8235,2.8337390422821045
8, 8087, 8088, 8065, 8092, 8092, 8139, 8126, 8164, 8167, 8060, 8157, 8118, 8165, 8217,2.840498924255371
9, 8079, 8108, 8139, 8094, 8154, 8146, 8120, 8168, 8133, 8044, 8145, 8133, 8145, 8194,2.848484516143799
10, 8054, 8110, 8134, 8101, 8155, 8148, 8135, 8162, 8128, 8047, 8133, 8124, 8139, 8179,2.856598377227783
11, 8065, 8107, 8151, 8101, 8170, 8169, 8162, 8187, 8153, 8058, 8131, 8138, 8138, 8191,2.8645036220550537
12, 8111, 8119, 8155, 8131, 8146, 8188, 8168, 8186, 8163, 8068, 8150, 8169, 8149, 8223,2.872410535812378
13, 8156, 8155, 8200, 8178, 8181, 8186, 8146, 8167, 8144, 8065, 8178, 8198, 8161, 8258,2.8805270195007324
14, 8174, 8172, 8225, 8197, 8197, 8181, 8139, 8173, 8145, 8061, 8199, 8208, 8179, 8275,2.888471841812134
15, 8155, 8159, 8133, 8202, 8144, 8187, 8159, 8160, 8168, 8070, 8214, 8180, 8208, 8272,2.8964266777038574
16, 8178, 8179, 8204, 8204, 8198, 8204, 8149, 8172, 8162, 8074, 8223, 8201, 8215, 8278,2.9033915996551514
17, 8196, 8162, 8182, 8191, 8163, 8192, 8123, 8144, 8143, 8066, 8225, 8200, 8211, 8304,2.9114990234375
18, 8211, 8170, 8185, 8188, 8181, 8166, 8098, 8119, 8116, 8056, 8198, 8189, 8194, 8306,2.919376850128174
19, 8265, 8222, 8327, 8217, 8246, 8186, 8094, 8172, 8111, 8061, 8191, 8227, 8207, 8307,2.92742657661438
20, 8232, 8182, 8168, 8212, 8132, 8211, 8130, 8168, 8162, 8081, 8218, 8189, 8256, 8317,2.9356119632720947
21, 8165, 8151, 8100, 8165, 8149, 8197, 8136, 8167, 8176, 8087, 8195, 8158, 8225, 8286,2.9436097145080566
22, 8142, 8149, 8163, 8143, 8171, 8182, 8135, 8190, 8156, 8074, 8164, 8167, 8173, 8260,2.9514639377593994
23, 8127, 8132, 8133, 8152, 8138, 8197, 8169, 8188, 8175, 8075, 8166, 8158, 8184, 8260,2.959550142288208
24, 8140, 8144, 8188, 8174, 8190, 8214, 8188, 8205, 8200, 8087, 8170, 8177, 8192, 8252,2.967564105987549
25, 8149, 8149, 8165, 8187, 8162, 8200, 8178, 8191, 8207, 8083, 8173, 8178, 8187, 8256,2.975437641143799
26, 8151, 8153, 8153, 8175, 8157, 8179, 8150, 8172, 8185, 8067, 8153, 8165, 8161, 8255,2.98250150680542
27, 8150, 8144, 8153, 8159, 8157, 8167, 8138, 8163, 8163, 8056, 8127, 8149, 8122, 8240,2.9905927181243896
28, 8155, 8143, 8137, 8164, 8157, 8156, 8129, 8151, 8152, 8041, 8110, 8145, 8101, 8245,2.998579978942871
29, 8191, 8165, 8195, 8185, 8184, 8153, 8114, 8152, 8141, 8028, 8109, 8175, 8102, 8268,3.006589651107788
30, 8194, 8163, 8159, 8204, 8145, 8150, 8117, 8130, 8133, 8039, 8133, 8169, 8121, 8270,3.0146634578704834
31, 8196, 8185, 8202, 8219, 8194, 8145, 8103, 8142, 8116, 8042, 8136, 8177, 8125, 8251,3.022646427154541
32, 8204, 8188, 8221, 8228, 8201, 8143, 8097, 8162, 8116, 8044, 8147, 8189, 8146, 8262,3.030582904815674
33, 8185, 8172, 8142, 8222, 8167, 8142, 8115, 8154, 8135, 8070, 8180, 8170, 8184, 8283,3.0387184619903564
34, 8166, 8184, 8178, 8196, 8213, 8131, 8106, 8170, 8119, 8071, 8177, 8173, 8170, 8267,3.0467753410339355
35, 8111, 8148, 8122, 8165, 8160, 8121, 8103, 8156, 8105, 8046, 8153, 8149, 8143, 8241,3.0535457134246826
36, 8085, 8125, 8136, 8144, 8167, 8139, 8132, 8165, 8113, 8053, 8136, 8145, 8142, 8221,3.061596393585205
37, 8099, 8135, 8211, 8129, 8198, 8154, 8165, 8199, 8132, 8069, 8144, 8164, 8147, 8211,3.0694687366485596
38, 8089, 8118, 8116, 8122, 8127, 8146, 8187, 8178, 8161, 8069, 8166, 8147, 8151, 8221,3.077592611312866
39, 8106, 8111, 8083, 8131, 8113, 8153, 8190, 8172, 8181, 8076, 8170, 8149, 8162, 8252,3.0855391025543213
40, 8142, 8123, 8128, 8142, 8146, 8161, 8179, 8186, 8187, 8086, 8167, 8163, 8172, 8277,3.0936052799224854
41, 8168, 8151, 8210, 8143, 8204, 8155, 8162, 8198, 8184, 8074, 8163, 8183, 8161, 8283,3.101635456085205
42, 8175, 8144, 8192, 8150, 8174, 8151, 8167, 8181, 8185, 8060, 8166, 8190, 8172, 8295,3.1097352504730225
43, 8171, 8139, 8148, 8171, 8165, 8148, 8169, 8155, 8184, 8070, 8168, 8178, 8187, 8303,3.1164400577545166
44, 8193, 8196, 8275, 8199, 8255, 8160, 8147, 8180, 8157, 8076, 8163, 8194, 8160, 8277,3.1245851516723633
45, 8182, 8195, 8215, 8207, 8194, 8172, 8144, 8165, 8143, 8069, 8170, 8172, 8144, 8244,3.132593870162964
46, 8139, 8154, 8085, 8187, 8136, 8171, 8148, 8131, 8145, 8063, 8166, 8142, 8140, 8230,3.1405739784240723
47, 8127, 8154, 8144, 8182, 8162, 8167, 8153, 8152, 8140, 8057, 8157, 8159, 8129, 8237,3.148651599884033
48, 8146, 8165, 8173, 8202, 8158, 8175, 8175, 8172, 8149, 8058, 8181, 8169, 8146, 8250,3.1566274166107178
49, 8187, 8192, 8199, 8214, 8191, 8182, 8183, 8196, 8168, 8070, 8197, 8182, 8169, 8261,3.164675712585449
50, 8184, 8190, 8165, 8201, 8161, 8169, 8183, 8193, 8185, 8077, 8193, 8173, 8183, 8271,3.172555446624756
51, 8149, 8165, 8147, 8167, 8160, 8156, 8167, 8174, 8170, 8067, 8170, 8153, 8175, 8258,3.1806538105010986
52, 8147, 8154, 8184, 8137, 8190, 8154, 8140, 8176, 8130, 8058, 8153, 8158, 8151, 8235,3.187655448913574
53, 8139, 8141, 8119, 8130, 8140, 8156, 8149, 8162, 8135, 8071, 8170, 8146, 8162, 8243,3.1955885887145996
54, 8134, 8144, 8157, 8130, 8175, 8159, 8163, 8173, 8155, 8080, 8164, 8157, 8169, 8255,3.2035531997680664
55, 8139, 8128, 8169, 8119, 8179, 8163, 8161, 8176, 8156, 8069, 8151, 8166, 8158, 8262,3.2116072177886963
56, 8157, 8132, 8132, 8143, 8158, 8180, 8162, 8164, 8154, 8068, 8179, 8171, 8175, 8284,3.219593048095703
57, 8184, 8168, 8210, 8188, 8189, 8202, 8164, 8176, 8155, 8082, 8211, 8199, 8199, 8297,3.227572202682495
58, 8173, 8169, 8175, 8192, 8151, 8201, 8162, 8157, 8162, 8084, 8213, 8184, 8199, 8289,3.2358415126800537
59, 8182, 8194, 8175, 8195, 8175, 8185, 8140, 8152, 8152, 8066, 8192, 8180, 8166, 8282,3.2426133155822754
60, 8206, 8202, 8177, 8216, 8186, 8180, 8132, 8151, 8142, 8051, 8189, 8182, 8167, 8300,3.2506117820739746
61, 8202, 8182, 8145, 8208, 8190, 8192, 8146, 8143, 8145, 8053, 8194, 8172, 8191, 8309,3.2584640979766846
62, 8212, 8196, 8256, 8190, 8246, 8203, 8145, 8174, 8136, 8054, 8190, 8198, 8165, 8284,3.2665889263153076
63, 8186, 8178, 8192, 8192, 8171, 8188, 8152, 8163, 8135, 8057, 8195, 8172, 8149, 8265,3.2746388912200928
64, 8151, 8154, 8089, 8183, 8135, 8174, 8156, 8148, 8140, 8062, 8205, 8141, 8165, 8254,3.282499313354492
65, 8148, 8142, 8140, 8156, 8171, 8180, 8156, 8174, 8142, 8067, 8199, 8152, 8163, 8238,3.2906999588012695
66, 8135, 8140, 8168, 8138, 8180, 8190, 8172, 8180, 8138, 8065, 8171, 8149, 8138, 8223,3.2986245155334473
67, 8123, 8159, 8167, 8136, 8180, 8190, 8186, 8184, 8133, 8060, 8156, 8151, 8130, 8224,3.306750774383545
68, 8099, 8144, 8099, 8135, 8126, 8175, 8194, 8179, 8160, 8066, 8164, 8141, 8149, 8233,3.314725399017334
69, 8109, 8149, 8183, 8129, 8183, 8171, 8191, 8201, 8176, 8071, 8157, 8161, 8149, 8231,3.3217313289642334
70, 8136, 8151, 8222, 8120, 8190, 8180, 8193, 8201, 8168, 8068, 8172, 8189, 8165, 8250,3.3297312259674072
71, 8139, 8139, 8106, 8133, 8125, 8175, 8193, 8160, 8177, 8074, 8203, 8176, 8193, 8272,3.337702989578247
72, 8174, 8179, 8189, 8167, 8191, 8171, 8164, 8175, 8186, 8085, 8198, 8190, 8179, 8260,3.345771551132202
73, 8192, 8197, 8206, 8185, 8180, 8171, 8137, 8162, 8181, 8089, 8199, 8192, 8178, 8267,3.3536813259124756
74, 8203, 8201, 8170, 8191, 8166, 8172, 8129, 8130, 8158, 8075, 8214, 8199, 8200, 8310,3.3617136478424072
75, 8230, 8209, 8193, 8200, 8178, 8180, 8140, 8144, 8146, 8057, 8226, 8218, 8210, 8338,3.3694863319396973
76, 8227, 8203, 8172, 8195, 8163, 8177, 8147, 8153, 8146, 8063, 8236, 8198, 8223, 8338,3.3767356872558594
77, 8228, 8211, 8238, 8184, 8210, 8169, 8128, 8175, 8124, 8068, 8215, 8203, 8217, 8321,3.3846116065979004
78, 8191, 8169, 8162, 8155, 8154, 8161, 8132, 8157, 8120, 8057, 8178, 8174, 8193, 8289,3.392629623413086
79, 8138, 8135, 8115, 8113, 8158, 8164, 8145, 8156, 8134, 8051, 8154, 8137, 8161, 8251,3.400542974472046
80, 8132, 8151, 8188, 8123, 8187, 8174, 8151, 8188, 8147, 8056, 8155, 8147, 8151, 8237,3.4085044860839844
81, 8129, 8163, 8124, 8154, 8126, 8173, 8164, 8164, 8170, 8065, 8167, 8142, 8162, 8239,3.4166319370269775
82, 8143, 8180, 8172, 8151, 8198, 8167, 8153, 8176, 8178, 8068, 8158, 8158, 8147, 8228,3.4247522354125977
83, 8151, 8162, 8201, 8147, 8222, 8173, 8155, 8194, 8193, 8076, 8175, 8174, 8160, 8237,3.432727813720703
84, 8135, 8143, 8125, 8158, 8163, 8186, 8174, 8173, 8211, 8084, 8201, 8162, 8185, 8245,3.4404549598693848
85, 8115, 8158, 8134, 8158, 8153, 8185, 8173, 8176, 8194, 8074, 8192, 8155, 8159, 8215,3.447458505630493
86, 8106, 8156, 8147, 8155, 8162, 8180, 8172, 8178, 8183, 8063, 8183, 8146, 8136, 8199,3.4554078578948975
87, 8139, 8159, 8197, 8164, 8203, 8178, 8172, 8179, 8178, 8056, 8167, 8165, 8128, 8217,3.463590145111084
88, 8158, 8168, 8168, 8176, 8158, 8167, 8169, 8160, 8167, 8056, 8167, 8169, 8138, 8250,3.4715678691864014
89, 8167, 8191, 8167, 8196, 8163, 8164, 8158, 8164, 8171, 8062, 8197, 8177, 8164, 8271,3.4796111583709717
90, 8180, 8198, 8236, 8193, 8206, 8163, 8152, 8188, 8172, 8071, 8203, 8208, 8171, 8271,3.4876720905303955
91, 8141, 8167, 8145, 8169, 8151, 8153, 8172, 8164, 8164, 8078, 8182, 8177, 8162, 8260,3.495729923248291
92, 8116, 8168, 8156, 8157, 8194, 8157, 8181, 8175, 8156, 8075, 8169, 8160, 8158, 8247,3.5036473274230957
93, 8121, 8145, 8176, 8140, 8201, 8157, 8177, 8192, 8169, 8074, 8173, 8162, 8174, 8242,3.5105648040771484
94, 8119, 8117, 8115, 8111, 8156, 8154, 8182, 8166, 8178, 8082, 8159, 8145, 8176, 8236,3.518524408340454
95, 8139, 8149, 8188, 8105, 8201, 8165, 8172, 8168, 8164, 8086, 8144, 8162, 8157, 8232,3.526671886444092
96, 8138, 8153, 8164, 8116, 8178, 8160, 8157, 8161, 8165, 8082, 8149, 8158, 8154, 8242,3.534566640853882
97, 8135, 8146, 8146, 8110, 8174, 8147, 8140, 8155, 8156, 8062, 8135, 8153, 8140, 8245,3.542654514312744
98, 8141, 8135, 8162, 8095, 8151, 8147, 8132, 8147, 8138, 8043, 8126, 8153, 8119, 8234,3.550771951675415
99, 8134, 8130, 8138, 8098, 8135, 8148, 8128, 8130, 8133, 8041, 8126, 8141, 8108, 8213,3.5588362216949463
100, 8160, 8159, 8224, 8121, 8207, 8160, 8125, 8153, 8125, 8044, 8118, 8167, 8098, 8205,3.5667757987976074
101, 8182, 8150, 8189, 8143, 8162, 8178, 8159, 8146, 8136, 8049, 8148, 8172, 8121, 8238,3.5746982097625732
102, 8199, 8160, 8152, 8166, 8143, 8175, 8176, 8141, 8145, 8054, 8181, 8179, 8153, 8263,3.581723928451538
103, 8206, 8181, 8171, 8178, 8161, 8159, 8155, 8155, 8141, 8056, 8192, 8195, 8171, 8266,3.5897324085235596
104, 8184, 8161, 8158, 8157, 8165, 8147, 8149, 8155, 8139, 8061, 8197, 8182, 8178, 8266,3.597771644592285
105, 8189, 8163, 8231, 8140, 8210, 8161, 8152, 8186, 8133, 8060, 8184, 8194, 8162, 8255,3.6057279109954834
106, 8182, 8154, 8175, 8147, 8146, 8173, 8165, 8182, 8142, 8057, 8186, 8184, 8170, 8260,3.6136012077331543
107, 8175, 8149, 8151, 8146, 8143, 8159, 8171, 8178, 8153, 8065, 8205, 8175, 8190, 8280,3.6217427253723145
108, 8190, 8155, 8192, 8145, 8173, 8140, 8167, 8193, 8166, 8084, 8216, 8183, 8199, 8290,3.6297664642333984
109, 8169, 8155, 8139, 8148, 8149, 8127, 8147, 8171, 8174, 8078, 8191, 8163, 8186, 8277,3.6376571655273438
110, 8148, 8169, 8186, 8138, 8180, 8131, 8114, 8173, 8158, 8061, 8156, 8163, 8147, 8245,3.6447668075561523
111, 8129, 8158, 8162, 8129, 8149, 8139, 8127, 8170, 8163, 8076, 8167, 8152, 8152, 8233,3.652773141860962
112, 8114, 8151, 8120, 8123, 8140, 8138, 8158, 8161, 8176, 8078, 8173, 8148, 8168, 8238,3.660592794418335
113, 8120, 8142, 8151, 8109, 8155, 8133, 8156, 8162, 8161, 8047, 8156, 8160, 8148, 8237,3.6686623096466064
114, 8130, 8127, 8139, 8113, 8145, 8143, 8165, 8162, 8161, 8044, 8171, 8156, 8148, 8251,3.6767678260803223
115, 8173, 8162, 8205, 8134, 8184, 8161, 8181, 8201, 8184, 8058, 8195, 8187, 8174, 8290,3.684688091278076
116, 8195, 8171, 8169, 8146, 8135, 8152, 8180, 8193, 8201, 8056, 8206, 8191, 8195, 8312,3.6927716732025146
117, 8203, 8183, 8163, 8180, 8154, 8151, 8162, 8170, 8190, 8056, 8208, 8184, 8196, 8301,3.700733184814453
118, 8223, 8218, 8261, 8218, 8212, 8174, 8160, 8186, 8159, 8060, 8205, 8214, 8188, 8303,3.7077677249908447
119, 8202, 8197, 8172, 8202, 8122, 8163, 8169, 8147, 8140, 8042, 8198, 8191, 8178, 8301,3.715662717819214
120, 8201, 8185, 8157, 8170, 8137, 8135, 8146, 8129, 8129, 8027, 8183, 8174, 8160, 8275,3.723759651184082
121, 8221, 8193, 8193, 8168, 8180, 8133, 8134, 8147, 8127, 8037, 8187, 8188, 8169, 8273,3.7317311763763428
122, 8203, 8187, 8144, 8170, 8161, 8133, 8133, 8151, 8127, 8039, 8189, 8175, 8178, 8283,3.7397289276123047
123, 8181, 8183, 8168, 8159, 8173, 8127, 8118, 8171, 8122, 8033, 8165, 8164, 8160, 8260,3.747734546661377
124, 8153, 8173, 8171, 8137, 8164, 8139, 8129, 8179, 8136, 8047, 8146, 8153, 8162, 8249,3.7557358741760254
125, 8145, 8168, 8179, 8121, 8174, 8152, 8151, 8185, 8155, 8061, 8145, 8159, 8164, 8266,3.763756513595581
126, 8160, 8150, 8133, 8125, 8120, 8148, 8166, 8173, 8178, 8062, 8168, 8167, 8179, 8287,3.7705798149108887
127, 8183, 8151, 8132, 8123, 8122, 8150, 8164, 8171, 8191, 8062, 8187, 8186, 8205, 8298,3.7786803245544434
237, 8190, 8165, 8210, 8109, 8186, 8165, 8168, 8201, 8189, 8067, 8189, 8200, 8204, 8297,3.786541223526001
0, 8157, 8153, 8130, 8115, 8136, 8164, 8196, 8185, 8206, 8074, 8188, 8155, 8199, 8293,3.794738292694092
1, 8187, 8193, 8194, 8140, 8182, 8162, 8191, 8197, 8209, 8082, 8179, 8180, 8192, 8297,3.8027379512786865
2, 8224, 8211, 8254, 8154, 8183, 8159, 8169, 8213, 8194, 8074, 8186, 8215, 8197, 8323,3.810539484024048
3, 8203, 8194, 8148, 8169, 8121, 8160, 8166, 8169, 8180, 8056, 8195, 8181, 8209, 8338,3.8187263011932373
4, 8222, 8218, 8186, 8191, 8170, 8164, 8155, 8145, 8148, 8049, 8179, 8189, 8192, 8318,3.826637029647827
5, 8232, 8201, 8159, 8188, 8144, 8152, 8150, 8124, 8119, 8049, 8178, 8184, 8167, 8310,3.8345980644226074
6, 8224, 8199, 8181, 8164, 8166, 8137, 8141, 8129, 8087, 8028, 8164, 8178, 8133, 8303,3.841662645339966
7, 8209, 8213, 8245, 8143, 8186, 8123, 8123, 8140, 8053, 8008, 8126, 8182, 8094, 8264,3.8495986461639404
8, 8161, 8181, 8131, 8124, 8111, 8117, 8126, 8124, 8058, 8015, 8129, 8146, 8088, 8229,3.8574886322021484
9, 8161, 8178, 8109, 8129, 8112, 8148, 8144, 8156, 8105, 8036, 8175, 8144, 8135, 8256,3.8655388355255127
10, 8195, 8199, 8149, 8153, 8130, 8176, 8163, 8180, 8155, 8061, 8210, 8165, 8198, 8311,3.8734946250915527
11, 8196, 8215, 8196, 8151, 8170, 8154, 8144, 8179, 8149, 8067, 8203, 8184, 8201, 8307,3.881558895111084
12, 8171, 8201, 8173, 8139, 8129, 8121, 8116, 8163, 8125, 8062, 8195, 8177, 8186, 8284,3.889561891555786
13, 8170, 8191, 8123, 8156, 8098, 8139, 8130, 8147, 8155, 8076, 8208, 8161, 8212, 8310,3.897463321685791
14, 8212, 8234, 8259, 8174, 8218, 8176, 8148, 8192, 8188, 8091, 8219, 8205, 8232, 8340,3.9044764041900635
15, 8211, 8231, 8221, 8175, 8178, 8173, 8155, 8184, 8199, 8096, 8247, 8209, 8245, 8343,3.9124879837036133
16, 8218, 8221, 8131, 8190, 8126, 8157, 8147, 8151, 8199, 8096, 8252, 8186, 8255, 8348,3.9204723834991455
17, 8271, 8239, 8212, 8219, 8192, 8155, 8143, 8177, 8194, 8103, 8237, 8215, 8268, 8389,3.9285881519317627
18, 8269, 8230, 8199, 8219, 8184, 8158, 8162, 8185, 8203, 8111, 8253, 8228, 8302, 8433,3.9365923404693604
19, 8242, 8233, 8189, 8203, 8169, 8158, 8162, 8179, 8202, 8102, 8249, 8225, 8301, 8409,3.944728136062622
20, 8218, 8223, 8161, 8191, 8136, 8145, 8149, 8151, 8176, 8081, 8204, 8189, 8251, 8351,3.9525885581970215
21, 8204, 8207, 8173, 8176, 8164, 8128, 8143, 8146, 8144, 8064, 8157, 8166, 8184, 8322,3.9605839252471924
22, 8206, 8197, 8189, 8159, 8159, 8122, 8146, 8160, 8129, 8055, 8140, 8174, 8151, 8318,3.9684927463531494
23, 8174, 8184, 8089, 8150, 8097, 8125, 8151, 8133, 8131, 8053, 8148, 8151, 8163, 8299,3.9755561351776123
24, 8151, 8206, 8178, 8145, 8179, 8137, 8137, 8162, 8129, 8054, 8138, 8159, 8161, 8249,3.9835453033447266
25, 8117, 8178, 8171, 8125, 8147, 8138, 8144, 8184, 8161, 8074, 8145, 8158, 8176, 8243,3.991536855697632
26, 8104, 8166, 8108, 8121, 8120, 8128, 8154, 8180, 8196, 8099, 8162, 8161, 8206, 8279,3.9995760917663574
27, 8151, 8205, 8242, 8144, 8207, 8134, 8146, 8212, 8193, 8102, 8162, 8198, 8203, 8286,4.00751805305481
28, 8150, 8186, 8181, 8160, 8143, 8143, 8169, 8192, 8207, 8102, 8178, 8171, 8202, 8276,4.015584945678711
29, 8147, 8187, 8123, 8176, 8123, 8155, 8182, 8165, 8213, 8104, 8182, 8156, 8202, 8276,4.02352237701416
30, 8177, 8217, 8184, 8199, 8159, 8160, 8163, 8167, 8193, 8097, 8185, 8173, 8196, 8278,4.031632900238037
31, 8183, 8225, 8178, 8226, 8152, 8149, 8163, 8156, 8192, 8095, 8213, 8176, 8205, 8285,4.038524389266968
32, 8183, 8236, 8170, 8244, 8157, 8157, 8181, 8145, 8197, 8098, 8216, 8185, 8214, 8308,4.046638488769531
33, 8196, 8244, 8160, 8259, 8160, 8169, 8172, 8127, 8182, 8094, 8203, 8187, 8210, 8323,4.0545196533203125
34, 8216, 8248, 8223, 8263, 8199, 8156, 8136, 8136, 8148, 8081, 8204, 8198, 8185, 8309,4.0624613761901855
35, 8195, 8224, 8178, 8239, 8158, 8147, 8150, 8139, 8141, 8070, 8215, 8176, 8168, 8297,4.070658922195435
36, 8172, 8215, 8133, 8212, 8158, 8144, 8168, 8147, 8148, 8076, 8204, 8151, 8165, 8286,4.078598737716675
37, 8194, 8228, 8219, 8217, 8204, 8126, 8141, 8181, 8137, 8085, 8188, 8172, 8165, 8273,4.0865638256073
38, 8187, 8216, 8153, 8225, 8134, 8116, 8138, 8162, 8149, 8086, 8190, 8156, 8174, 8276,4.094601392745972
39, 8179, 8234, 8165, 8204, 8163, 8135, 8147, 8167, 8160, 8088, 8182, 8154, 8168, 8277,4.101591348648071
40, 8178, 8227, 8210, 8186, 8166, 8145, 8137, 8190, 8159, 8092, 8186, 8177, 8167, 8272,4.109614372253418
41, 8150, 8189, 8112, 8183, 8093, 8143, 8145, 8165, 8179, 8096, 8205, 8156, 8189, 8270,4.117609739303589
42, 8157, 8204, 8138, 8178, 8133, 8152, 8158, 8179, 8195, 8108, 8207, 8160, 8201, 8277,4.125595808029175
43, 8164, 8201, 8153, 8163, 8124, 8152, 8163, 8194, 8202, 8120, 8208, 8171, 8211, 8287,4.133603811264038
44, 8151, 8187, 8162, 8144, 8138, 8147, 8179, 8194, 8193, 8109, 8199, 8177, 8200, 8285,4.141506910324097
45, 8144, 8180, 8169, 8144, 8156, 8160, 8211, 8198, 8186, 8101, 8202, 8175, 8181, 8289,4.149465560913086
46, 8139, 8166, 8125, 8153, 8125, 8179, 8235, 8199, 8202, 8113, 8210, 8157, 8184, 8295,4.157585144042969
47, 8165, 8177, 8184, 8150, 8139, 8183, 8235, 8217, 8212, 8112, 8208, 8171, 8181, 8296,4.16549015045166
48, 8173, 8177, 8158, 8150, 8109, 8184, 8247, 8196, 8214, 8100, 8219, 8170, 8185, 8307,4.172600507736206
49, 8170, 8198, 8176, 8178, 8153, 8202, 8241, 8182, 8200, 8093, 8198, 8180, 8189, 8300,4.180697917938232
50, 8176, 8213, 8226, 8198, 8173, 8204, 8216, 8182, 8178, 8093, 8168, 8193, 8187, 8280,4.188624620437622
51, 8156, 8190, 8123, 8195, 8101, 8180, 8206, 8144, 8169, 8098, 8171, 8162, 8194, 8283,4.196782827377319
52, 8157, 8200, 8170, 8198, 8156, 8168, 8174, 8147, 8150, 8088, 8145, 8168, 8175, 8273,4.204782724380493
53, 8142, 8191, 8189, 8189, 8167, 8146, 8139, 8139, 8128, 8076, 8109, 8155, 8143, 8237,4.212686538696289
54, 8100, 8170, 8116, 8165, 8134, 8110, 8125, 8120, 8116, 8076, 8111, 8122, 8122, 8210,4.220710515975952
55, 8097, 8182, 8144, 8170, 8146, 8120, 8131, 8156, 8132, 8094, 8130, 8135, 8141, 8215,4.22872519493103
56, 8109, 8189, 8155, 8185, 8147, 8155, 8151, 8178, 8168, 8118, 8146, 8145, 8185, 8232,4.2355992794036865
57, 8120, 8190, 8190, 8162, 8170, 8149, 8153, 8187, 8176, 8121, 8148, 8158, 8181, 8228,4.243499517440796
58, 8109, 8171, 8154, 8145, 8123, 8131, 8156, 8178, 8181, 8116, 8152, 8157, 8177, 8237,4.251620531082153
59, 8108, 8172, 8161, 8154, 8145, 8153, 8172, 8191, 8197, 8125, 8157, 8159, 8203, 8263,4.259601831436157
60, 8122, 8179, 8207, 8150, 8174, 8174, 8187, 8210, 8200, 8128, 8149, 8176, 8200, 8260,4.267634630203247
61, 8112, 8165, 8125, 8144, 8121, 8169, 8194, 8184, 8200, 8118, 8137, 8158, 8171, 8245,4.275696754455566
62, 8142, 8192, 8226, 8156, 8209, 8176, 8191, 8205, 8188, 8114, 8131, 8177, 8157, 8250,4.283685922622681
63, 8149, 8182, 8225, 8172, 8180, 8177, 8199, 8194, 8187, 8114, 8158, 8184, 8193, 8272,4.291559934616089
64, 8123, 8172, 8119, 8182, 8117, 8167, 8195, 8150, 8186, 8100, 8180, 8171, 8211, 8279,4.299594163894653
65, 8169, 8216, 8233, 8195, 8199, 8174, 8181, 8183, 8155, 8088, 8174, 8205, 8186, 8284,4.306556701660156
66, 8207, 8207, 8205, 8214, 8154, 8182, 8196, 8181, 8149, 8101, 8182, 8201, 8193, 8311,4.314446926116943
67, 8196, 8195, 8128, 8221, 8121, 8177, 8197, 8160, 8161, 8113, 8177, 8177, 8201, 8315,4.3224194049835205
68, 8174, 8193, 8149, 8197, 8163, 8150, 8172, 8168, 8150, 8104, 8150, 8160, 8175, 8283,4.330451011657715
69, 8162, 8188, 8175, 8173, 8183, 8125, 8167, 8174, 8147, 8103, 8148, 8154, 8159, 8261,4.338576078414917
70, 8175, 8203, 8200, 8186, 8180, 8145, 8178, 8179, 8171, 8122, 8171, 8177, 8181, 8272,4.34663724899292
71, 8158, 8195, 8130, 8197, 8156, 8175, 8185, 8169, 8192, 8137, 8187, 8168, 8216, 8292,4.354596138000488
72, 8155, 8201, 8174, 8193, 8209, 8173, 8172, 8182, 8184, 8143, 8184, 8175, 8211, 8288,4.362608909606934
73, 8184, 8211, 8207, 8201, 8170, 8170, 8183, 8180, 8189, 8145, 8196, 8196, 8211, 8295,4.369672775268555
74, 8199, 8214, 8157, 8216, 8137, 8184, 8200, 8158, 8209, 8146, 8204, 8190, 8227, 8319,4.377747297286987
75, 8214, 8230, 8227, 8228, 8218, 8184, 8190, 8181, 8193, 8149, 8194, 8204, 8212, 8323,4.385705947875977
76, 8200, 8208, 8182, 8217, 8169, 8163, 8199, 8173, 8179, 8145, 8203, 8190, 8209, 8318,4.393654108047485
77, 8195, 8207, 8145, 8198, 8150, 8158, 8198, 8155, 8176, 8126, 8205, 8180, 8211, 8312,4.401760101318359
78, 8204, 8222, 8180, 8207, 8177, 8179, 8190, 8165, 8165, 8120, 8203, 8196, 8203, 8314,4.409713506698608
79, 8185, 8206, 8152, 8220, 8157, 8191, 8218, 8168, 8165, 8129, 8209, 8180, 8205, 8316,4.417510747909546
80, 8183, 8204, 8190, 8204, 8189, 8183, 8243, 8200, 8174, 8125, 8204, 8178, 8203, 8307,4.425763368606567
81, 8178, 8196, 8138, 8186, 8168, 8178, 8248, 8198, 8192, 8128, 8205, 8162, 8214, 8306,4.432685375213623
82, 8171, 8207, 8165, 8192, 8211, 8189, 8241, 8193, 8195, 8143, 8190, 8164, 8216, 8296,4.440634727478027
83, 8174, 8220, 8240, 8195, 8232, 8194, 8228, 8201, 8190, 8147, 8182, 8182, 8209, 8277,4.44861626625061
84, 8163, 8203, 8144, 8191, 8152, 8172, 8205, 8162, 8197, 8149, 8210, 8161, 8225, 8273,4.456700801849365
85, 8166, 8203, 8144, 8188, 8167, 8152, 8166, 8148, 8180, 8141, 8208, 8161, 8220, 8268,4.464760780334473
86, 8163, 8203, 8149, 8185, 8163, 8157, 8164, 8145, 8170, 8144, 8202, 8168, 8212, 8279,4.472709655761719
87, 8180, 8225, 8185, 8196, 8192, 8172, 8184, 8157, 8175, 8163, 8223, 8190, 8230, 8306,4.4807188510894775
88, 8201, 8228, 8240, 8197, 8215, 8176, 8182, 8177, 8163, 8157, 8222, 8207, 8234, 8313,4.488754749298096
89, 8175, 8187, 8153, 8184, 8152, 8170, 8189, 8152, 8156, 8137, 8200, 8176, 8224, 8307,4.495596885681152
90, 8182, 8202, 8184, 8185, 8170, 8186, 8205, 8161, 8164, 8135, 8198, 8195, 8224, 8313,4.5035881996154785
91, 8195, 8210, 8189, 8191, 8153, 8200, 8221, 8169, 8184, 8142, 8212, 8209, 8236, 8324,4.511705636978149
92, 8187, 8193, 8170, 8184, 8162, 8189, 8215, 8160, 8184, 8141, 8195, 8190, 8229, 8315,4.519764423370361
93, 8203, 8196, 8227, 8193, 8198, 8179, 8206, 8175, 8170, 8140, 8184, 8201, 8229, 8322,4.527832269668579
94, 8207, 8203, 8168, 8213, 8151, 8166, 8211, 8162, 8172, 8145, 8206, 8193, 8247, 8336,4.5357139110565186
95, 8203, 8224, 8157, 8207, 8173, 8150, 8188, 8152, 8155, 8143, 8194, 8181, 8229, 8309,4.543547630310059
96, 8183, 8206, 8156, 8191, 8170, 8141, 8162, 8149, 8137, 8133, 8171, 8166, 8216, 8283,4.551732301712036
97, 8162, 8182, 8156, 8186, 8166, 8144, 8159, 8155, 8142, 8136, 8172, 8167, 8222, 8283,4.558703660964966
98, 8167, 8192, 8187, 8188, 8184, 8154, 8156, 8171, 8151, 8145, 8177, 8186, 8211, 8282,4.566575050354004
99, 8160, 8188, 8131, 8191, 8168, 8161, 8156, 8156, 8156, 8141, 8179, 8164, 8208, 8276,4.574686765670776
100, 8186, 8202, 8234, 8187, 8252, 8173, 8157, 8192, 8148, 8138, 8177, 8192, 8206, 8281,4.582736968994141
101, 8200, 8184, 8237, 8168, 8206, 8177, 8174, 8209, 8160, 8147, 8188, 8204, 8211, 8298,4.590804576873779
102, 8159, 8148, 8094, 8147, 8114, 8177, 8192, 8163, 8171, 8139, 8185, 8155, 8210, 8301,4.598547697067261
103, 8158, 8162, 8163, 8150, 8189, 8184, 8197, 8173, 8158, 8124, 8163, 8164, 8190, 8287,4.607718467712402
104, 8182, 8169, 8183, 8170, 8190, 8183, 8207, 8177, 8160, 8139, 8179, 8183, 8199, 8297,4.614734888076782
105, 8207, 8180, 8157, 8193, 8163, 8182, 8200, 8161, 8161, 8150, 8197, 8185, 8219, 8315,4.622698545455933
106, 8221, 8190, 8176, 8213, 8171, 8185, 8189, 8159, 8156, 8144, 8193, 8193, 8224, 8312,4.629732847213745
107, 8219, 8196, 8190, 8217, 8190, 8186, 8190, 8170, 8163, 8148, 8201, 8193, 8236, 8311,4.637610673904419
108, 8226, 8207, 8217, 8220, 8193, 8189, 8191, 8194, 8164, 8153, 8210, 8199, 8241, 8317,4.645657300949097
109, 8209, 8190, 8142, 8214, 8134, 8175, 8185, 8176, 8167, 8150, 8193, 8181, 8233, 8311,4.653593301773071
110, 8210, 8206, 8179, 8203, 8186, 8165, 8172, 8186, 8175, 8151, 8175, 8187, 8231, 8309,4.66168475151062
111, 8221, 8213, 8206, 8201, 8195, 8181, 8177, 8198, 8174, 8150, 8193, 8186, 8248, 8324,4.669480562210083
112, 8200, 8202, 8127, 8197, 8162, 8197, 8191, 8171, 8164, 8147, 8194, 8161, 8245, 8322,4.677757740020752
113, 8208, 8244, 8223, 8197, 8232, 8192, 8175, 8179, 8152, 8143, 8158, 8194, 8205, 8306,4.6858229637146
114, 8199, 8234, 8211, 8203, 8176, 8185, 8181, 8174, 8162, 8143, 8164, 8193, 8209, 8310,4.693511009216309
115, 8171, 8189, 8120, 8195, 8134, 8195, 8212, 8173, 8172, 8150, 8188, 8169, 8235, 8308,4.700742483139038
116, 8179, 8190, 8150, 8185, 8159, 8210, 8237, 8196, 8176, 8158, 8191, 8181, 8235, 8304,4.7087907791137695
117, 8192, 8209, 8180, 8198, 8146, 8228, 8258, 8198, 8202, 8153, 8198, 8189, 8247, 8319,4.716948986053467
118, 8214, 8224, 8243, 8210, 8188, 8241, 8247, 8216, 8217, 8151, 8209, 8214, 8268, 8332,4.724666118621826
119, 8213, 8207, 8182, 8209, 8148, 8226, 8217, 8200, 8219, 8171, 8222, 8210, 8284, 8348,4.732754230499268
120, 8214, 8216, 8164, 8215, 8141, 8198, 8183, 8169, 8202, 8168, 8210, 8196, 8271, 8352,4.740832805633545
121, 8225, 8221, 8200, 8206, 8156, 8179, 8155, 8151, 8164, 8144, 8184, 8197, 8238, 8332,4.748795509338379
122, 8201, 8190, 8124, 8174, 8126, 8175, 8150, 8125, 8140, 8131, 8174, 8176, 8220, 8310,4.756728887557983
123, 8197, 8206, 8210, 8157, 8193, 8181, 8150, 8156, 8122, 8123, 8152, 8191, 8197, 8281,4.7637410163879395
124, 8186, 8204, 8208, 8164, 8167, 8175, 8161, 8162, 8127, 8125, 8144, 8177, 8192, 8264,4.771758317947388
125, 8167, 8188, 8110, 8179, 8127, 8165, 8169, 8135, 8153, 8137, 8163, 8154, 8201, 8276,4.779833555221558
126, 8181, 8202, 8166, 8177, 8152, 8169, 8164, 8152, 8158, 8128, 8167, 8174, 8189, 8275,4.787727117538452
127, 8177, 8196, 8165, 8159, 8113, 8164, 8155, 8151, 8147, 8117, 8156, 8159, 8174, 8248,4.795652627944946
237, 8187, 8197, 8177, 8163, 8142, 8172, 8143, 8166, 8150, 8133, 8169, 8167, 8186, 8255,4.803711652755737
0, 8216, 8209, 8194, 8185, 8168, 8198, 8163, 8185, 8180, 8146, 8211, 8199, 8232, 8310,4.811741352081299
1, 8233, 8223, 8186, 8193, 8156, 8200, 8185, 8176, 8192, 8142, 8224, 8199, 8255, 8336,4.8195459842681885
2, 8241, 8232, 8216, 8193, 8160, 8184, 8174, 8178, 8174, 8155, 8212, 8201, 8247, 8321,4.826707124710083
3, 8220, 8206, 8181, 8191, 8151, 8183, 8174, 8166, 8174, 8172, 8219, 8197, 8260, 8323,4.834731578826904
4, 8202, 8190, 8186, 8175, 8170, 8190, 8176, 8164, 8171, 8158, 8204, 8199, 8250, 8325,4.842674016952515
5, 8188, 8174, 8145, 8150, 8117, 8182, 8178, 8154, 8163, 8140, 8180, 8185, 8228, 8312,4.850651979446411
6, 8191, 8186, 8156, 8156, 8139, 8170, 8174, 8164, 8165, 8146, 8190, 8185, 8229, 8301,4.858755588531494
7, 8220, 8213, 8246, 8189, 8194, 8174, 8161, 8196, 8165, 8152, 8205, 8214, 8231, 8308,4.866754770278931
8, 8202, 8186, 8129, 8185, 8092, 8172, 8166, 8158, 8169, 8141, 8189, 8184, 8221, 8318,4.874683141708374
9, 8183, 8188, 8164, 8149, 8140, 8158, 8152, 8157, 8141, 8121, 8145, 8174, 8179, 8287,4.882732629776001
10, 8182, 8181, 8220, 8138, 8171, 8151, 8127, 8173, 8120, 8125, 8146, 8176, 8169, 8257,4.890766382217407
11, 8174, 8169, 8118, 8150, 8108, 8159, 8129, 8147, 8139, 8135, 8180, 8157, 8196, 8276,4.8977556228637695
12, 8195, 8214, 8207, 8159, 8184, 8175, 8143, 8174, 8147, 8121, 8179, 8195, 8192, 8302,4.905832529067993
13, 8187, 8207, 8212, 8154, 8184, 8180, 8162, 8181, 8163, 8128, 8178, 8195, 8193, 8300,4.913757801055908
14, 8178, 8187, 8123, 8158, 8135, 8181, 8170, 8158, 8182, 8156, 8183, 8168, 8203, 8288,4.921647310256958
15, 8194, 8208, 8124, 8182, 8133, 8180, 8178, 8151, 8181, 8153, 8188, 8172, 8205, 8291,4.929622650146484
16, 8193, 8229, 8179, 8190, 8172, 8185, 8190, 8163, 8176, 8143, 8188, 8185, 8209, 8285,4.937640428543091
17, 8193, 8225, 8213, 8171, 8183, 8209, 8204, 8189, 8185, 8153, 8178, 8193, 8210, 8275,4.945633411407471
18, 8176, 8188, 8099, 8162, 8111, 8208, 8229, 8168, 8204, 8161, 8170, 8156, 8213, 8283,4.953508377075195
19, 8181, 8212, 8202, 8160, 8209, 8188, 8214, 8186, 8183, 8150, 8144, 8174, 8193, 8276,4.9605796337127686
20, 8191, 8233, 8295, 8148, 8218, 8179, 8187, 8206, 8156, 8137, 8126, 8209, 8178, 8265,4.96843695640564
21, 8165, 8197, 8105, 8144, 8070, 8171, 8189, 8144, 8165, 8138, 8131, 8161, 8195, 8278,4.9766905307769775
22, 8168, 8202, 8120, 8143, 8120, 8160, 8166, 8138, 8150, 8144, 8119, 8152, 8187, 8280,4.984753370285034
23, 8161, 8194, 8186, 8121, 8143, 8149, 8136, 8160, 8125, 8140, 8112, 8165, 8168, 8268,4.99275016784668
24, 8134, 8166, 8121, 8096, 8092, 8149, 8144, 8146, 8136, 8127, 8110, 8150, 8164, 8260,5.000718832015991
25, 8142, 8175, 8129, 8091, 8118, 8157, 8159, 8149, 8151, 8128, 8100, 8147, 8159, 8253,5.008822441101074
26, 8161, 8196, 8172, 8113, 8159, 8165, 8160, 8158, 8154, 8132, 8102, 8155, 8156, 8245,5.016822338104248
27, 8173, 8212, 8221, 8129, 8187, 8167, 8160, 8166, 8149, 8123, 8116, 8175, 8154, 8239,5.024648666381836
28, 8153, 8198, 8146, 8125, 8128, 8173, 8183, 8152, 8171, 8137, 8146, 8163, 8177, 8253,5.031627416610718
29, 8160, 8218, 8160, 8140, 8151, 8197, 8184, 8168, 8189, 8163, 8158, 8176, 8198, 8268,5.0407538414001465
30, 8209, 8245, 8251, 8167, 8190, 8208, 8174, 8196, 8182, 8158, 8164, 8211, 8209, 8287,5.047500133514404
31, 8214, 8226, 8161, 8168, 8140, 8191, 8187, 8162, 8188, 8148, 8181, 8189, 8232, 8316,5.055754661560059
32, 8223, 8252, 8213, 8164, 8202, 8181, 8180, 8182, 8186, 8153, 8172, 8210, 8226, 8327,5.063745498657227
33, 8217, 8243, 8232, 8164, 8161, 8183, 8175, 8201, 8179, 8147, 8155, 8212, 8206, 8309,5.0716564655303955
34, 8172, 8189, 8124, 8143, 8088, 8169, 8186, 8172, 8178, 8134, 8136, 8158, 8186, 8275,5.079832315444946
35, 8170, 8192, 8168, 8128, 8162, 8148, 8173, 8185, 8167, 8133, 8112, 8161, 8156, 8250,5.087719917297363
36, 8168, 8198, 8164, 8125, 8166, 8137, 8153, 8177, 8151, 8135, 8104, 8167, 8143, 8247,5.094583749771118
37, 8146, 8193, 8137, 8133, 8150, 8134, 8139, 8156, 8130, 8125, 8105, 8157, 8139, 8244,5.1027538776397705
38, 8125, 8170, 8112, 8146, 8146, 8123, 8127, 8144, 8124, 8119, 8099, 8139, 8131, 8231,5.110719680786133
39, 8121, 8162, 8133, 8130, 8173, 8107, 8116, 8152, 8123, 8123, 8086, 8142, 8122, 8223,5.118754148483276
40, 8133, 8175, 8186, 8112, 8175, 8108, 8116, 8161, 8116, 8119, 8089, 8163, 8125, 8231,5.126708030700684
41, 8142, 8174, 8143, 8129, 8134, 8103, 8127, 8140, 8123, 8119, 8116, 8159, 8151, 8251,5.134750127792358
42, 8176, 8198, 8200, 8161, 8182, 8109, 8140, 8172, 8133, 8131, 8138, 8188, 8172, 8274,5.142798900604248
43, 8196, 8195, 8194, 8181, 8141, 8134, 8171, 8190, 8153, 8144, 8164, 8200, 8195, 8297,5.15075159072876
44, 8209, 8193, 8169, 8195, 8128, 8150, 8184, 8180, 8175, 8150, 8182, 8196, 8212, 8313,5.15774941444397
45, 8245, 8220, 8276, 8202, 8202, 8160, 8177, 8209, 8171, 8148, 8172, 8230, 8208, 8319,5.165693759918213
46, 8217, 8199, 8185, 8197, 8137, 8169, 8208, 8194, 8177, 8151, 8172, 8207, 8215, 8328,5.173670768737793
47, 8183, 8192, 8139, 8190, 8150, 8177, 8225, 8178, 8186, 8149, 8167, 8176, 8208, 8319,5.181751012802124
48, 8182, 8204, 8194, 8178, 8192, 8168, 8203, 8182, 8179, 8138, 8150, 8178, 8194, 8295,5.189741373062134
49, 8160, 8193, 8122, 8171, 8145, 8147, 8185, 8155, 8165, 8138, 8138, 8153, 8192, 8276,5.197494745254517
50, 8160, 8200, 8159, 8173, 8177, 8140, 8167, 8165, 8145, 8142, 8124, 8156, 8175, 8257,5.205723524093628
51, 8157, 8192, 8191, 8163, 8175, 8144, 8159, 8178, 8145, 8142, 8122, 8160, 8170, 8250,5.2137486934661865
52, 8143, 8187, 8164, 8152, 8155, 8143, 8156, 8167, 8155, 8132, 8126, 8157, 8176, 8253,5.220482349395752
53, 8157, 8193, 8133, 8172, 8148, 8141, 8165, 8159, 8173, 8140, 8144, 8163, 8196, 8271,5.2287492752075195
54, 8175, 8196, 8141, 8188, 8175, 8136, 8186, 8164, 8188, 8153, 8158, 8171, 8214, 8287,5.236704349517822
55, 8179, 8192, 8221, 8168, 8207, 8116, 8175, 8181, 8163, 8137, 8146, 8197, 8195, 8279,5.244769096374512
56, 8166, 8169, 8148, 8169, 8117, 8113, 8178, 8159, 8155, 8129, 8160, 8188, 8201, 8292,5.2528581619262695
57, 8201, 8207, 8187, 8213, 8168, 8150, 8200, 8178, 8183, 8151, 8187, 8210, 8233, 8323,5.260828256607056
58, 8227, 8227, 8277, 8218, 8232, 8164, 8197, 8202, 8187, 8154, 8174, 8233, 8222, 8324,5.268824100494385
59, 8174, 8167, 8138, 8171, 8131, 8139, 8184, 8143, 8168, 8134, 8150, 8177, 8191, 8299,5.276690483093262
60, 8163, 8164, 8129, 8153, 8134, 8139, 8183, 8135, 8157, 8134, 8155, 8172, 8194, 8294,5.284752130508423
61, 8180, 8189, 8167, 8182, 8149, 8154, 8190, 8156, 8171, 8147, 8176, 8190, 8214, 8303,5.291817903518677
62, 8165, 8198, 8170, 8189, 8175, 8152, 8178, 8168, 8174, 8142, 8169, 8184, 8206, 8288,5.299675226211548
63, 8159, 8201, 8215, 8162, 8211, 8153, 8176, 8202, 8170, 8137, 8160, 8197, 8198, 8281,5.307722330093384
64, 8141, 8185, 8150, 8152, 8159, 8151, 8198, 8197, 8184, 8144, 8171, 8175, 8216, 8288,5.315758466720581
65, 8121, 8184, 8138, 8164, 8168, 8142, 8187, 8191, 8181, 8150, 8163, 8152, 8209, 8269,5.323620557785034
66, 8110, 8168, 8129, 8159, 8160, 8140, 8182, 8189, 8177, 8157, 8167, 8146, 8209, 8245,5.3318932056427
67, 8124, 8168, 8132, 8152, 8160, 8151, 8204, 8195, 8187, 8155, 8184, 8163, 8228, 8253,5.339756727218628
68, 8160, 8194, 8195, 8159, 8180, 8153, 8204, 8215, 8196, 8155, 8185, 8193, 8240, 8289,5.347840070724487
69, 8161, 8185, 8165, 8161, 8161, 8149, 8195, 8194, 8204, 8168, 8180, 8185, 8248, 8308,5.3548264503479
70, 8163, 8189, 8209, 8156, 8202, 8165, 8207, 8194, 8194, 8166, 8169, 8196, 8232, 8286,5.362828969955444
71, 8167, 8198, 8201, 8158, 8169, 8182, 8241, 8191, 8197, 8155, 8184, 8194, 8227, 8275,5.370964288711548
72, 8166, 8202, 8144, 8172, 8156, 8188, 8260, 8180, 8215, 8161, 8201, 8182, 8243, 8286,5.378874063491821
73, 8180, 8214, 8194, 8192, 8217, 8201, 8268, 8200, 8223, 8170, 8184, 8199, 8238, 8285,5.386786222457886
74, 8173, 8211, 8171, 8205, 8188, 8209, 8272, 8190, 8238, 8163, 8171, 8186, 8231, 8286,5.394752264022827
75, 8185, 8239, 8218, 8217, 8222, 8211, 8251, 8188, 8229, 8148, 8172, 8191, 8222, 8285,5.402684450149536
76, 8184, 8236, 8213, 8222, 8225, 8197, 8236, 8172, 8199, 8146, 8168, 8195, 8214, 8278,5.410746812820435
77, 8141, 8197, 8123, 8187, 8183, 8162, 8213, 8141, 8181, 8143, 8150, 8165, 8199, 8261,5.4188151359558105
78, 8124, 8192, 8152, 8151, 8191, 8132, 8171, 8148, 8161, 8124, 8129, 8150, 8172, 8231,5.425693035125732
79, 8116, 8187, 8130, 8146, 8163, 8119, 8161, 8135, 8147, 8129, 8135, 8137, 8176, 8222,5.433741331100464
80, 8115, 8190, 8171, 8139, 8205, 8125, 8154, 8151, 8145, 8153, 8141, 8154, 8186, 8228,5.441717624664307
81, 8097, 8155, 8151, 8132, 8178, 8128, 8152, 8159, 8161, 8151, 8145, 8150, 8175, 8228,5.4496307373046875
82, 8100, 8154, 8124, 8150, 8180, 8127, 8168, 8155, 8172, 8141, 8155, 8143, 8168, 8236,5.4578163623809814
83, 8161, 8221, 8291, 8169, 8288, 8146, 8175, 8216, 8167, 8151, 8172, 8206, 8180, 8258,5.465708017349243
84, 8163, 8195, 8199, 8161, 8184, 8178, 8207, 8216, 8200, 8173, 8204, 8201, 8225, 8289,5.473489999771118
85, 8146, 8161, 8076, 8163, 8134, 8202, 8245, 8182, 8230, 8180, 8202, 8168, 8235, 8306,5.481717109680176
86, 8178, 8208, 8187, 8183, 8219, 8196, 8236, 8193, 8214, 8163, 8181, 8193, 8200, 8294,5.488743543624878
87, 8173, 8216, 8184, 8193, 8193, 8180, 8221, 8179, 8204, 8147, 8184, 8187, 8184, 8271,5.496844530105591
88, 8164, 8192, 8148, 8203, 8170, 8185, 8225, 8166, 8207, 8143, 8183, 8177, 8178, 8270,5.504714250564575
89, 8190, 8202, 8175, 8228, 8197, 8191, 8223, 8164, 8204, 8144, 8188, 8188, 8192, 8300,5.512851238250732
90, 8214, 8238, 8228, 8257, 8247, 8191, 8207, 8170, 8191, 8140, 8199, 8209, 8208, 8314,5.520889043807983
91, 8195, 8232, 8181, 8252, 8199, 8182, 8199, 8162, 8184, 8139, 8193, 8190, 8207, 8293,5.5287394523620605
92, 8164, 8223, 8134, 8226, 8179, 8157, 8186, 8145, 8167, 8147, 8174, 8159, 8196, 8266,5.536757707595825
93, 8181, 8250, 8254, 8217, 8272, 8140, 8150, 8167, 8124, 8142, 8160, 8195, 8182, 8258,5.544695138931274
94, 8173, 8223, 8170, 8222, 8206, 8132, 8142, 8153, 8128, 8149, 8183, 8187, 8214, 8283,5.552628755569458
95, 8154, 8218, 8130, 8217, 8211, 8134, 8136, 8155, 8161, 8171, 8192, 8175, 8247, 8299,5.559739589691162
96, 8166, 8235, 8254, 8198, 8286, 8148, 8121, 8191, 8160, 8174, 8159, 8204, 8223, 8282,5.567743301391602
97, 8132, 8177, 8125, 8174, 8168, 8150, 8142, 8159, 8159, 8172, 8140, 8169, 8204, 8265,5.575557231903076
98, 8117, 8168, 8068, 8168, 8138, 8154, 8157, 8156, 8175, 8179, 8151, 8148, 8213, 8266,5.583847284317017
99, 8140, 8198, 8166, 8172, 8209, 8175, 8163, 8189, 8196, 8184, 8170, 8164, 8218, 8275,5.591731548309326
100, 8145, 8190, 8192, 8166, 8231, 8191, 8185, 8196, 8205, 8176, 8170, 8170, 8205, 8269,5.59858250617981
101, 8138, 8169, 8151, 8165, 8188, 8195, 8206, 8189, 8203, 8169, 8158, 8173, 8201, 8262,5.606605291366577
102, 8137, 8171, 8117, 8177, 8164, 8201, 8203, 8171, 8201, 8155, 8149, 8159, 8189, 8272,5.615634918212891
103, 8189, 8219, 8226, 8204, 8238, 8216, 8196, 8194, 8193, 8150, 8158, 8186, 8180, 8304,5.6227476596832275
104, 8233, 8231, 8206, 8230, 8195, 8224, 8228, 8196, 8205, 8170, 8206, 8213, 8226, 8347,5.630692958831787
105, 8221, 8216, 8160, 8221, 8181, 8211, 8230, 8180, 8210, 8164, 8206, 8202, 8235, 8342,5.638698577880859
106, 8206, 8205, 8252, 8191, 8240, 8196, 8195, 8204, 8190, 8149, 8165, 8197, 8192, 8313,5.64677357673645
107, 8183, 8168, 8169, 8180, 8170, 8188, 8202, 8198, 8206, 8168, 8187, 8173, 8216, 8315,5.654658794403076
108, 8178, 8177, 8140, 8181, 8173, 8173, 8208, 8186, 8224, 8186, 8210, 8179, 8246, 8314,5.662688255310059
109, 8180, 8187, 8193, 8173, 8193, 8172, 8197, 8183, 8220, 8191, 8195, 8193, 8240, 8315,5.669720888137817
110, 8165, 8163, 8158, 8154, 8177, 8197, 8205, 8180, 8231, 8196, 8197, 8188, 8259, 8336,5.677611827850342
111, 8169, 8167, 8195, 8133, 8213, 8209, 8205, 8199, 8234, 8191, 8212, 8203, 8279, 8345,5.685585021972656
112, 8165, 8169, 8173, 8138, 8175, 8194, 8197, 8182, 8227, 8187, 8219, 8193, 8279, 8335,5.693542242050171
113, 8165, 8182, 8164, 8164, 8181, 8187, 8188, 8177, 8221, 8186, 8210, 8188, 8265, 8316,5.701598405838013
114, 8159, 8182, 8162, 8179, 8194, 8182, 8183, 8174, 8210, 8182, 8201, 8186, 8246, 8301,5.709772109985352
115, 8153, 8187, 8142, 8198, 8200, 8183, 8185, 8157, 8197, 8180, 8187, 8179, 8230, 8299,5.717510461807251
116, 8167, 8209, 8185, 8205, 8228, 8201, 8189, 8165, 8182, 8177, 8167, 8189, 8214, 8291,5.725571632385254
117, 8139, 8173, 8117, 8169, 8178, 8200, 8205, 8143, 8182, 8165, 8161, 8156, 8202, 8273,5.73374342918396
118, 8129, 8167, 8145, 8154, 8208, 8196, 8214, 8162, 8183, 8157, 8156, 8149, 8184, 8260,5.741569995880127
119, 8146, 8189, 8186, 8173, 8202, 8209, 8225, 8201, 8192, 8161, 8161, 8168, 8180, 8261,5.748717546463013
120, 8129, 8168, 8114, 8160, 8160, 8212, 8235, 8182, 8203, 8167, 8156, 8147, 8183, 8259,5.756718635559082
121, 8131, 8154, 8180, 8131, 8215, 8191, 8211, 8186, 8177, 8155, 8140, 8153, 8158, 8251,5.764655351638794
122, 8127, 8142, 8156, 8126, 8159, 8159, 8181, 8169, 8149, 8137, 8149, 8148, 8155, 8261,5.772833824157715
123, 8124, 8158, 8134, 8134, 8148, 8152, 8167, 8152, 8138, 8139, 8158, 8153, 8176, 8274,5.780657768249512
124, 8142, 8177, 8209, 8149, 8213, 8172, 8169, 8184, 8154, 8151, 8165, 8178, 8196, 8276,5.788637638092041
125, 8128, 8167, 8177, 8151, 8191, 8180, 8180, 8190, 8175, 8155, 8174, 8167, 8207, 8284,5.796748876571655
126, 8112, 8163, 8153, 8134, 8175, 8175, 8186, 8176, 8161, 8155, 8163, 8168, 8192, 8292,5.8048577308654785
127, 8113, 8149, 8096, 8142, 8135, 8176, 8205, 8147, 8166, 8160, 8168, 8160, 8198, 8304,5.8117311000823975
237, 8172, 8194, 8224, 8169, 8229, 8194, 8202, 8178, 8185, 8170, 8178, 8197, 8209, 8319,5.8198401927948
0, 8227, 8217, 8301, 8174, 8246, 8202, 8195, 8202, 8194, 8173, 8191, 8239, 8217, 8341,5.827618837356567
1, 8206, 8181, 8133, 8172, 8138, 8190, 8211, 8152, 8208, 8178, 8212, 8206, 8239, 8361,5.835850477218628
2, 8228, 8223, 8267, 8183, 8238, 8182, 8188, 8187, 8187, 8171, 8200, 8229, 8223, 8345,5.843794584274292
3, 8220, 8204, 8287, 8160, 8218, 8145, 8164, 8190, 8147, 8156, 8177, 8212, 8197, 8313,5.85168981552124
4, 8133, 8108, 8029, 8110, 8129, 8100, 8175, 8114, 8137, 8151, 8162, 8122, 8192, 8294,5.8597447872161865
5, 8117, 8106, 8041, 8092, 8265, 8117, 8173, 8144, 8147, 8146, 8146, 8121, 8177, 8285,5.867599725723267
6, 8136, 8141, 8169, 8096, 8320, 8147, 8162, 8208, 8153, 8143, 8138, 8150, 8164, 8263,5.875722169876099
7, 8113, 8135, 8177, 8085, 8220, 8142, 8159, 8204, 8158, 8147, 8139, 8142, 8163, 8241,5.882465600967407
8, 8079, 8121, 8118, 8080, 8206, 8149, 8171, 8177, 8177, 8147, 8142, 8128, 8161, 8241,5.89043664932251
9, 8096, 8150, 8163, 8106, 7553, 8181, 8185, 8195, 8194, 8145, 8149, 8145, 8156, 8246,5.898412466049194
10, 8134, 8183, 8199, 8155, 5355, 8203, 8214, 8215, 8214, 8166, 8182, 8174, 8178, 8266,5.906478404998779
11, 8153, 8216, 8148, 8208, 3338, 8226, 8257, 8195, 8248, 8188, 8222, 8186, 8226, 8303,5.9143452644348145
12, 8196, 8268, 8224, 8253, 3364, 8238, 8256, 8197, 8259, 8186, 8238, 8224, 8249, 8333,5.922443628311157
13, 8229, 8269, 8230, 8277, 4013, 8229, 8257, 8195, 8264, 8191, 8263, 8235, 8258, 8359,5.930516719818115
14, 8245, 8267, 8175, 8292, 4004, 8252, 8285, 8186, 8267, 8199, 8283, 8223, 8270, 8375,5.938616037368774
15, 8290, 8306, 8271, 8300, 4000, 8279, 8288, 8208, 8257, 8189, 8271, 8254, 8277, 8395,5.945661306381226
16, 8299, 8284, 8234, 8276, 4127, 8253, 8273, 8193, 8262, 8184, 8269, 8242, 8289, 8427,5.953481435775757
17, 8279, 8260, 8175, 8251, 4142, 8220, 8256, 8174, 8248, 8185, 8267, 8208, 8275, 8415,5.9616334438323975
18, 8275, 8263, 8174, 8252, 4106, 8208, 8246, 8173, 8222, 8189, 8263, 8199, 8268, 8389,5.969693422317505
19, 8282, 8265, 8193, 8240, 4150, 8198, 8231, 8182, 8222, 8194, 8246, 8207, 8273, 8388,5.977625131607056
20, 8274, 8258, 8242, 8200, 4204, 8191, 8208, 8204, 8218, 8184, 8215, 8208, 8256, 8369,5.985551118850708
21, 8208, 8210, 8111, 8178, 4148, 8174, 8206, 8164, 8207, 8171, 8207, 8153, 8251, 8340,5.9935302734375
22, 8209, 8233, 8223, 8186, 4267, 8172, 8194, 8182, 8185, 8173, 8192, 8186, 8239, 8328,6.001591205596924
23, 8247, 8253, 8329, 8191, 4267, 8200, 8191, 8212, 8186, 8190, 8200, 8229, 8241, 8335,6.009669303894043
24, 8199, 8201, 8086, 8179, 4119, 8199, 8211, 8147, 8220, 8197, 8227, 8160, 8265, 8340,6.016441345214844
25, 8162, 8193, 8065, 8160, 4391, 8168, 8199, 8139, 8214, 8178, 8206, 8141, 8235, 8317,6.0245795249938965
26, 8171, 8195, 8142, 8155, 4575, 8164, 8192, 8163, 8198, 8174, 8188, 8167, 8206, 8301,6.0325329303741455
27, 8196, 8207, 8161, 8172, 5042, 8201, 8213, 8178, 8219, 8190, 8208, 8185, 8223, 8316,6.040401935577393
28, 8199, 8204, 8190, 8168, 7044, 8206, 8216, 8184, 8225, 8187, 8207, 8183, 8210, 8308,6.048583745956421
29, 8172, 8167, 8154, 8140, 9317, 8168, 8202, 8162, 8209, 8175, 8184, 8156, 8175, 8280,6.056528091430664
30, 8179, 8171, 8154, 8139, 9858, 8167, 8213, 8178, 8217, 8171, 8181, 8160, 8168, 8285,6.064598798751831
31, 8171, 8170, 8131, 8142, 9446, 8193, 8245, 8187, 8234, 8162, 8193, 8156, 8163, 8292,6.072381258010864
32, 8132, 8141, 8140, 8116, 9558, 8191, 8233, 8181, 8217, 8147, 8187, 8141, 8124, 8260,6.079471111297607
33, 8111, 8116, 8141, 8109, 9631, 8164, 8193, 8172, 8204, 8139, 8179, 8136, 8107, 8237,6.087831735610962
34, 8113, 8119, 8119, 8126, 9394, 8138, 8164, 8151, 8198, 8142, 8174, 8133, 8130, 8240,6.095735311508179
35, 8133, 8149, 8213, 8135, 9415, 8132, 8138, 8160, 8166, 8145, 8164, 8158, 8128, 8243,6.10355019569397
36, 8117, 8133, 8162, 8136, 9363, 8131, 8140, 8144, 8154, 8142, 8166, 8145, 8109, 8239,6.111619234085083
37, 8096, 8119, 8122, 8122, 9318, 8119, 8140, 8140, 8157, 8137, 8150, 8133, 8101, 8211,6.119582414627075
38, 8113, 8129, 8202, 8113, 9349, 8112, 8139, 8171, 8162, 8148, 8152, 8162, 8130, 8211,6.127537488937378
39, 8114, 8124, 8133, 8131, 9268, 8120, 8169, 8161, 8187, 8169, 8201, 8162, 8176, 8264,6.135492563247681
40, 8136, 8141, 8186, 8157, 9309, 8141, 8179, 8185, 8191, 8172, 8207, 8190, 8169, 8286,6.142583847045898
41, 8170, 8151, 8258, 8168, 9309, 8147, 8174, 8210, 8193, 8171, 8189, 8211, 8175, 8293,6.1505303382873535
42, 8176, 8147, 8156, 8176, 9211, 8142, 8188, 8179, 8210, 8175, 8198, 8186, 8212, 8325,6.158648729324341
43, 8181, 8143, 8113, 8167, 9174, 8133, 8198, 8164, 8203, 8175, 8205, 8179, 8201, 8334,6.1664111614227295
44, 8184, 8137, 8149, 8152, 9179, 8118, 8193, 8169, 8183, 8168, 8191, 8177, 8166, 8317,6.174739122390747
45, 8181, 8159, 8202, 8165, 9209, 8120, 8179, 8180, 8159, 8148, 8163, 8173, 8145, 8299,6.182499170303345
46, 8156, 8144, 8149, 8170, 9165, 8135, 8180, 8170, 8153, 8139, 8157, 8153, 8142, 8280,6.190462827682495
47, 8147, 8130, 8153, 8154, 9171, 8139, 8189, 8182, 8166, 8151, 8169, 8158, 8145, 8268,6.198552131652832
48, 8151, 8149, 8183, 8148, 9168, 8141, 8204, 8199, 8179, 8165, 8180, 8166, 8150, 8268,6.2066404819488525
49, 8106, 8135, 8078, 8143, 9099, 8146, 8213, 8162, 8197, 8166, 8186, 8125, 8158, 8257,6.213382244110107
50, 8102, 8137, 8210, 8122, 9211, 8144, 8177, 8193, 8179, 8154, 8163, 8161, 8127, 8230,6.221656084060669
51, 8118, 8117, 8271, 8106, 9188, 8142, 8171, 8215, 8158, 8157, 8155, 8190, 8113, 8228,6.229525566101074
52, 8088, 8088, 8082, 8123, 9018, 8152, 8214, 8153, 8185, 8165, 8190, 8143, 8154, 8258,6.237597465515137
53, 8097, 8124, 8125, 8152, 9040, 8151, 8202, 8155, 8197, 8158, 8210, 8159, 8178, 8279,6.245473861694336
54, 8121, 8135, 8185, 8162, 9036, 8137, 8176, 8177, 8185, 8163, 8207, 8185, 8184, 8287,6.253481149673462
55, 8128, 8120, 8150, 8157, 8992, 8146, 8199, 8175, 8190, 8180, 8208, 8182, 8194, 8293,6.261606693267822
56, 8138, 8122, 8160, 8159, 8995, 8163, 8226, 8181, 8204, 8175, 8210, 8192, 8198, 8297,6.26960301399231
57, 8146, 8128, 8176, 8164, 8991, 8158, 8219, 8182, 8200, 8161, 8196, 8188, 8183, 8287,6.276452302932739
58, 8154, 8121, 8185, 8159, 8933, 8145, 8199, 8183, 8185, 8152, 8172, 8176, 8160, 8273,6.2846057415008545
59, 8150, 8110, 8123, 8163, 8842, 8134, 8194, 8170, 8188, 8150, 8170, 8157, 8163, 8277,6.292447805404663
60, 8150, 8141, 8172, 8159, 8885, 8122, 8171, 8183, 8177, 8152, 8167, 8164, 8150, 8269,6.3006062507629395
61, 8131, 8136, 8192, 8138, 8856, 8112, 8142, 8178, 8151, 8144, 8152, 8153, 8117, 8243,6.308479070663452
62, 8109, 8105, 8118, 8140, 8766, 8108, 8139, 8152, 8151, 8142, 8147, 8132, 8124, 8235,6.31642746925354
63, 8155, 8142, 8236, 8168, 8796, 8119, 8145, 8192, 8159, 8154, 8157, 8184, 8145, 8253,6.32454252243042
64, 8173, 8145, 8213, 8180, 8719, 8138, 8161, 8187, 8181, 8166, 8189, 8192, 8164, 8284,6.3326661586761475
65, 8149, 8140, 8140, 8181, 8711, 8152, 8167, 8161, 8200, 8170, 8200, 8165, 8168, 8280,6.340566396713257
66, 8145, 8155, 8188, 8187, 8659, 8151, 8160, 8170, 8194, 8171, 8187, 8168, 8160, 8247,6.347534894943237
67, 8139, 8143, 8156, 8182, 8256, 8150, 8172, 8158, 8187, 8175, 8183, 8165, 8163, 8256,6.355540037155151
68, 8183, 8168, 8247, 8185, 7782, 8172, 8181, 8188, 8184, 8169, 8195, 8217, 8180, 8302,6.363577127456665
69, 8210, 8173, 8242, 8210, 7396, 8180, 8185, 8190, 8204, 8177, 8239, 8235, 8222, 8334,6.371529817581177
70, 8183, 8161, 8128, 8225, 7273, 8169, 8181, 8153, 8214, 8191, 8258, 8189, 8237, 8322,6.379554748535156
71, 8188, 8181, 8136, 8228, 7229, 8170, 8183, 8158, 8205, 8185, 8224, 8174, 8221, 8304,6.387575626373291
72, 8198, 8189, 8153, 8217, 6736, 8173, 8198, 8171, 8202, 8181, 8194, 8171, 8218, 8304,6.395592212677002
73, 8187, 8188, 8193, 8202, 6068, 8180, 8191, 8180, 8176, 8177, 8187, 8172, 8194, 8286,6.403497695922852
74, 8161, 8165, 8127, 8200, 5501, 8180, 8197, 8166, 8173, 8175, 8203, 8151, 8181, 8273,6.410569906234741
75, 8184, 8174, 8146, 8211, 4827, 8178, 8219, 8202, 8211, 8191, 8218, 8171, 8214, 8306,6.418536424636841
76, 8239, 8201, 8274, 8222, 4162, 8199, 8237, 8266, 8241, 8208, 8227, 8225, 8246, 8352,6.426573753356934
77, 8215, 8183, 8178, 8222, 4217, 8214, 8255, 8226, 8252, 8205, 8241, 8194, 8248, 8356,6.434603929519653
78, 8189, 8191, 8130, 8224, 4574, 8206, 8248, 8192, 8247, 8200, 8238, 8173, 8234, 8338,6.442575216293335
79, 8205, 8208, 8180, 8230, 4770, 8200, 8234, 8206, 8239, 8211, 8233, 8191, 8243, 8342,6.450700998306274
80, 8190, 8190, 8167, 8207, 6497, 8182, 8217, 8191, 8223, 8196, 8206, 8180, 8231, 8330,6.458629369735718
81, 8152, 8162, 8155, 8166, 9115, 8147, 8188, 8156, 8185, 8157, 8164, 8164, 8178, 8298,6.4666478633880615
82, 8143, 8138, 8130, 8161, 9852, 8132, 8175, 8130, 8161, 8152, 8165, 8161, 8173, 8296,6.473552703857422
83, 8186, 8157, 8205, 8192, 9389, 8144, 8167, 8156, 8164, 8173, 8188, 8194, 8197, 8310,6.4815661907196045
84, 8196, 8171, 8193, 8212, 9434, 8138, 8161, 8159, 8177, 8177, 8200, 8194, 8210, 8316,6.489605903625488
85, 8170, 8177, 8139, 8209, 9595, 8116, 8142, 8134, 8161, 8170, 8193, 8171, 8202, 8302,6.497658729553223
86, 8179, 8189, 8216, 8201, 9424, 8105, 8116, 8144, 8132, 8166, 8175, 8183, 8169, 8278,6.505518913269043
87, 8170, 8169, 8138, 8198, 9299, 8099, 8123, 8126, 8138, 8165, 8173, 8159, 8162, 8269,6.513612270355225
88, 8169, 8184, 8164, 8188, 9355, 8099, 8127, 8148, 8138, 8172, 8175, 8171, 8171, 8269,6.521475315093994
89, 8181, 8175, 8249, 8166, 9366, 8109, 8129, 8195, 8148, 8180, 8174, 8202, 8178, 8273,6.529447555541992
90, 8150, 8126, 8131, 8155, 9293, 8116, 8151, 8176, 8174, 8176, 8164, 8158, 8179, 8271,6.53764009475708
91, 8146, 8140, 8119, 8162, 9276, 8123, 8162, 8165, 8165, 8174, 8148, 8140, 8169, 8266,6.54458212852478
92, 8167, 8166, 8163, 8167, 9272, 8120, 8154, 8162, 8145, 8175, 8147, 8151, 8158, 8267,6.55258846282959
93, 8175, 8177, 8201, 8157, 9283, 8123, 8139, 8166, 8134, 8153, 8128, 8164, 8131, 8262,6.560675859451294
94, 8167, 8157, 8186, 8140, 9252, 8138, 8153, 8169, 8131, 8136, 8123, 8165, 8125, 8263,6.568507671356201
95, 8171, 8137, 8134, 8145, 9200, 8145, 8180, 8170, 8144, 8147, 8154, 8164, 8151, 8287,6.576554536819458
96, 8209, 8169, 8208, 8170, 9239, 8153, 8171, 8194, 8144, 8153, 8168, 8194, 8161, 8312,6.584464073181152
97, 8191, 8158, 8176, 8166, 9230, 8149, 8155, 8165, 8134, 8150, 8173, 8180, 8160, 8314,6.592426061630249
98, 8170, 8146, 8163, 8159, 9244, 8143, 8155, 8153, 8128, 8150, 8170, 8172, 8153, 8292,6.600511312484741
99, 8195, 8168, 8193, 8182, 9223, 8151, 8169, 8179, 8140, 8161, 8173, 8188, 8164, 8293,6.607559680938721
100, 8189, 8161, 8131, 8177, 9166, 8156, 8179, 8174, 8164, 8178, 8184, 8168, 8190, 8316,6.615734815597534
101, 8182, 8158, 8205, 8156, 9214, 8155, 8159, 8200, 8163, 8181, 8173, 8179, 8188, 8309,6.623707056045532
102, 8172, 8157, 8200, 8169, 9165, 8143, 8152, 8198, 8167, 8175, 8173, 8182, 8195, 8302,6.631501913070679
103, 8157, 8165, 8141, 8182, 9125, 8131, 8157, 8175, 8179, 8176, 8175, 8170, 8206, 8311,6.639653205871582
104, 8160, 8160, 8157, 8164, 9130, 8124, 8156, 8181, 8174, 8186, 8164, 8172, 8205, 8312,6.64751672744751
105, 8160, 8146, 8142, 8141, 9100, 8115, 8157, 8169, 8168, 8187, 8156, 8164, 8209, 8309,6.655467987060547
106, 8185, 8164, 8250, 8133, 9154, 8117, 8141, 8187, 8151, 8172, 8137, 8190, 8175, 8290,6.663670301437378
107, 8185, 8131, 8211, 8131, 9095, 8138, 8153, 8185, 8154, 8167, 8127, 8179, 8144, 8264,6.671659469604492
108, 8148, 8106, 8085, 8132, 9026, 8165, 8188, 8148, 8165, 8169, 8129, 8136, 8149, 8248,6.678737163543701
109, 8144, 8129, 8131, 8134, 9060, 8171, 8182, 8142, 8148, 8153, 8134, 8147, 8147, 8251,6.6866583824157715
110, 8154, 8125, 8156, 8137, 9050, 8179, 8175, 8155, 8143, 8141, 8141, 8163, 8143, 8268,6.694531679153442
111, 8179, 8133, 8201, 8147, 9064, 8206, 8189, 8182, 8147, 8145, 8140, 8177, 8141, 8283,6.702638387680054
112, 8190, 8147, 8172, 8168, 9028, 8193, 8194, 8163, 8149, 8146, 8146, 8160, 8137, 8280,6.710696220397949
113, 8189, 8172, 8168, 8190, 9039, 8172, 8176, 8159, 8151, 8146, 8156, 8153, 8133, 8256,6.7186973094940186
114, 8192, 8185, 8257, 8190, 9084, 8197, 8176, 8211, 8150, 8148, 8151, 8188, 8134, 8250,6.726584434509277
115, 8158, 8130, 8162, 8159, 8989, 8200, 8193, 8187, 8154, 8153, 8155, 8169, 8154, 8267,6.734646558761597
116, 8142, 8113, 8110, 8146, 8962, 8167, 8174, 8156, 8148, 8156, 8163, 8149, 8153, 8262,6.741665363311768
117, 8144, 8139, 8157, 8156, 8998, 8163, 8156, 8177, 8148, 8160, 8160, 8152, 8135, 8248,6.749668598175049
118, 8124, 8137, 8165, 8145, 9003, 8178, 8161, 8191, 8160, 8165, 8162, 8159, 8143, 8259,6.757503986358643
119, 8128, 8128, 8181, 8126, 8974, 8173, 8158, 8192, 8158, 8171, 8182, 8176, 8167, 8279,6.765680551528931
120, 8137, 8129, 8137, 8123, 8907, 8170, 8164, 8173, 8160, 8182, 8197, 8167, 8177, 8293,6.773708820343018
121, 8155, 8150, 8194, 8124, 8957, 8179, 8167, 8189, 8169, 8184, 8195, 8183, 8171, 8301,6.781541585922241
122, 8169, 8147, 8203, 8135, 8947, 8173, 8165, 8194, 8182, 8182, 8220, 8190, 8200, 8312,6.7897725105285645
123, 8176, 8151, 8155, 8164, 8913, 8165, 8166, 8175, 8185, 8187, 8230, 8171, 8220, 8315,6.797494649887085
124, 8198, 8177, 8230, 8177, 8957, 8181, 8164, 8192, 8173, 8186, 8215, 8195, 8190, 8312,6.804692983627319
125, 8174, 8145, 8157, 8164, 8879, 8198, 8172, 8169, 8180, 8184, 8236, 8180, 8182, 8309,6.8126420974731445
126, 8159, 8147, 8131, 8164, 8870, 8202, 8169, 8157, 8180, 8175, 8226, 8156, 8174, 8277,6.820666313171387
127, 8164, 8159, 8187, 8165, 8889, 8199, 8171, 8186, 8169, 8172, 8189, 8167, 8144, 8247,6.828717947006226
237, 8132, 8126, 8140, 8145, 8833, 8193, 8194, 8178, 8173, 8172, 8188, 8149, 8134, 8243,6.8364832401275635
0, 8127, 8127, 8172, 8130, 8835, 8191, 8191, 8171, 8170, 8167, 8190, 8147, 8140, 8236,6.844722509384155
1, 8127, 8119, 8151, 8126, 8799, 8184, 8171, 8157, 8168, 8164, 8184, 8149, 8144, 8226,6.852733373641968
2, 8121, 8116, 8156, 8114, 8810, 8171, 8151, 8165, 8161, 8155, 8182, 8157, 8137, 8224,6.86061954498291
3, 8129, 8131, 8182, 8114, 8809, 8158, 8145, 8174, 8159, 8158, 8204, 8168, 8144, 8242,6.867523908615112
4, 8131, 8124, 8137, 8141, 8769, 8148, 8141, 8149, 8168, 8175, 8227, 8160, 8161, 8258,6.875669479370117
5, 8153, 8130, 8205, 8164, 8815, 8152, 8131, 8167, 8160, 8176, 8233, 8187, 8168, 8258,6.883603572845459
6, 8173, 8132, 8190, 8164, 8786, 8160, 8148, 8176, 8167, 8177, 8255, 8194, 8198, 8280,6.891788482666016
7, 8188, 8152, 8166, 8169, 8763, 8158, 8154, 8162, 8180, 8179, 8260, 8187, 8203, 8303,6.899806499481201
8, 8198, 8166, 8198, 8186, 8758, 8146, 8149, 8161, 8172, 8170, 8239, 8191, 8172, 8287,6.907606601715088
9, 8203, 8156, 8163, 8194, 8722, 8147, 8165, 8154, 8173, 8172, 8248, 8189, 8188, 8285,6.9156718254089355
10, 8243, 8176, 8248, 8192, 8771, 8165, 8161, 8183, 8171, 8183, 8261, 8229, 8218, 8318,6.923660039901733
11, 8235, 8171, 8225, 8190, 8734, 8161, 8160, 8176, 8169, 8179, 8257, 8216, 8221, 8340,6.931689500808716
12, 8190, 8163, 8129, 8188, 8701, 8144, 8170, 8155, 8174, 8181, 8247, 8169, 8208, 8322,6.938618421554565
13, 8184, 8162, 8163, 8177, 8711, 8147, 8159, 8182, 8180, 8189, 8230, 8174, 8185, 8290,6.946563482284546
14, 8171, 8138, 8152, 8153, 8670, 8154, 8157, 8187, 8189, 8184, 8213, 8164, 8174, 8264,6.954678535461426
15, 8150, 8135, 8163, 8132, 8695, 8152, 8160, 8191, 8182, 8173, 8193, 8149, 8160, 8243,6.962659597396851
16, 8123, 8119, 8129, 8123, 8665, 8153, 8156, 8178, 8168, 8172, 8193, 8133, 8152, 8232,6.970626354217529
17, 8125, 8115, 8133, 8118, 8660, 8149, 8148, 8160, 8152, 8167, 8192, 8136, 8137, 8219,6.978667497634888
18, 8151, 8125, 8199, 8113, 8683, 8138, 8150, 8166, 8133, 8150, 8167, 8157, 8108, 8205,6.986595153808594
19, 8136, 8113, 8137, 8121, 8645, 8140, 8162, 8151, 8132, 8144, 8169, 8149, 8111, 8222,6.994597673416138
20, 8162, 8145, 8218, 8149, 8728, 8149, 8153, 8174, 8126, 8157, 8187, 8185, 8124, 8245,7.0017194747924805
21, 8206, 8157, 8233, 8178, 8615, 8145, 8148, 8171, 8127, 8175, 8211, 8205, 8148, 8262,7.009476184844971
22, 8211, 8142, 8131, 8190, 8358, 8146, 8147, 8143, 8141, 8174, 8221, 8186, 8172, 8277,7.017552852630615
23, 8227, 8172, 8224, 8196, 8249, 8161, 8136, 8176, 8139, 8164, 8217, 8209, 8176, 8294,7.025689601898193
24, 8222, 8179, 8214, 8211, 7765, 8160, 8148, 8165, 8146, 8171, 8242, 8203, 8197, 8317,7.0336151123046875
25, 8220, 8182, 8151, 8230, 6848, 8165, 8158, 8143, 8157, 8178, 8252, 8191, 8210, 8321,7.041510105133057
26, 8235, 8199, 8181, 8230, 6117, 8171, 8159, 8160, 8158, 8180, 8229, 8198, 8194, 8305,7.049419164657593
27, 8233, 8206, 8197, 8219, 5831, 8162, 8166, 8166, 8160, 8185, 8211, 8190, 8186, 8293,7.05752968788147
28, 8231, 8204, 8192, 8227, 5650, 8174, 8179, 8174, 8177, 8186, 8219, 8192, 8202, 8300,7.064535856246948
29, 8229, 8184, 8127, 8235, 5412, 8187, 8193, 8179, 8200, 8187, 8226, 8176, 8217, 8314,7.072514533996582
30, 8238, 8197, 8195, 8227, 5425, 8181, 8186, 8204, 8187, 8182, 8193, 8182, 8198, 8304,7.08055567741394
31, 8223, 8192, 8188, 8219, 5268, 8175, 8194, 8192, 8171, 8175, 8175, 8178, 8185, 8302,7.088526725769043
32, 8211, 8179, 8135, 8216, 4906, 8177, 8208, 8166, 8177, 8174, 8185, 8164, 8181, 8314,7.0964579582214355
33, 8257, 8211, 8292, 8217, 4613, 8188, 8196, 8213, 8175, 8176, 8181, 8209, 8160, 8310,7.104740142822266
34, 8251, 8192, 8217, 8219, 4371, 8199, 8212, 8199, 8188, 8176, 8183, 8196, 8165, 8310,7.1126320362091064
35, 8219, 8172, 8081, 8229, 5613, 8200, 8239, 8149, 8190, 8176, 8198, 8171, 8174, 8322,7.120570182800293
36, 8234, 8178, 8159, 8232, 8166, 8180, 8224, 8157, 8166, 8171, 8203, 8197, 8161, 8321,7.127563238143921
37, 8213, 8159, 8180, 8218, 9422, 8159, 8197, 8160, 8157, 8162, 8179, 8188, 8150, 8301,7.1355791091918945
38, 8184, 8162, 8182, 8212, 9088, 8168, 8190, 8164, 8156, 8162, 8160, 8184, 8149, 8290,7.143583297729492
39, 8188, 8166, 8130, 8223, 8948, 8171, 8187, 8145, 8159, 8169, 8170, 8180, 8169, 8301,7.151547908782959
40, 8216, 8186, 8172, 8232, 9239, 8154, 8149, 8152, 8160, 8175, 8169, 8188, 8177, 8299,7.159508228302002
41, 8219, 8198, 8237, 8228, 9093, 8140, 8113, 8183, 8169, 8190, 8174, 8197, 8175, 8293,7.167733669281006
42, 8177, 8175, 8138, 8220, 8921, 8136, 8122, 8158, 8191, 8201, 8184, 8166, 8186, 8293,7.17563271522522
43, 8179, 8176, 8166, 8220, 9011, 8139, 8127, 8166, 8188, 8187, 8163, 8170, 8176, 8281,7.183787107467651
44, 8177, 8162, 8154, 8232, 8938, 8147, 8135, 8174, 8183, 8177, 8159, 8169, 8168, 8277,7.190694093704224
45, 8157, 8170, 8144, 8235, 8941, 8155, 8146, 8175, 8182, 8181, 8160, 8171, 8157, 8272,7.198731422424316
46, 8164, 8188, 8240, 8211, 9003, 8159, 8149, 8198, 8170, 8171, 8138, 8194, 8128, 8253,7.206796884536743
47, 8141, 8144, 8154, 8184, 8931, 8164, 8182, 8178, 8179, 8165, 8141, 8159, 8129, 8241,7.214786052703857
48, 8127, 8128, 8102, 8187, 8909, 8173, 8203, 8169, 8186, 8172, 8148, 8142, 8131, 8229,7.222732067108154
49, 8142, 8138, 8117, 8206, 8904, 8170, 8204, 8161, 8171, 8170, 8143, 8144, 8121, 8219,7.230813503265381
50, 8177, 8167, 8191, 8221, 8950, 8169, 8205, 8169, 8152, 8167, 8149, 8164, 8128, 8230,7.238670349121094
51, 8204, 8192, 8285, 8234, 8985, 8182, 8197, 8195, 8141, 8165, 8157, 8195, 8123, 8239,7.246731996536255
52, 8156, 8153, 8168, 8222, 8876, 8174, 8185, 8152, 8134, 8156, 8160, 8163, 8112, 8230,7.2547361850738525
53, 8115, 8141, 8084, 8201, 8835, 8153, 8173, 8126, 8122, 8144, 8161, 8143, 8114, 8222,7.2625977993011475
54, 8136, 8169, 8118, 8206, 8863, 8142, 8166, 8143, 8111, 8150, 8165, 8159, 8122, 8224,7.269800901412964
55, 8159, 8172, 8178, 8199, 8887, 8122, 8143, 8147, 8075, 8154, 8149, 8163, 8105, 8212,7.277731895446777
56, 8149, 8144, 8189, 8172, 8872, 8104, 8124, 8145, 8045, 8144, 8138, 8160, 8095, 8209,7.285476207733154
57, 8134, 8130, 8126, 8170, 8827, 8111, 8140, 8145, 8065, 8159, 8172, 8161, 8138, 8245,7.293732643127441
58, 8165, 8162, 8214, 8192, 8884, 8124, 8138, 8176, 8070, 8188, 8192, 8198, 8159, 8262,7.301727771759033
59, 8167, 8156, 8216, 8200, 8847, 8117, 8127, 8169, 8064, 8199, 8191, 8200, 8155, 8247,7.3097920417785645
60, 8142, 8142, 8135, 8214, 8797, 8114, 8128, 8140, 8082, 8205, 8213, 8179, 8170, 8249,7.3176891803741455
61, 8183, 8178, 8233, 8257, 8856, 8126, 8132, 8173, 8105, 8226, 8253, 8220, 8202, 8276,7.325729846954346
62, 8224, 8198, 8213, 8306, 8809, 8130, 8150, 8175, 8148, 8251, 8298, 8235, 8246, 8315,7.332682371139526
63, 8246, 8227, 8200, 8329, 8817, 8141, 8150, 8167, 8175, 8252, 8309, 8243, 8258, 8342,7.340603351593018
64, 8273, 8246, 8287, 8323, 8858, 8147, 8129, 8176, 8153, 8238, 8300, 8272, 8250, 8343,7.348714828491211
65, 8274, 8236, 8246, 8323, 8798, 8131, 8125, 8156, 8140, 8239, 8301, 8256, 8266, 8336,7.3566975593566895
66, 8260, 8235, 8170, 8324, 8762, 8110, 8133, 8153, 8154, 8249, 8298, 8229, 8273, 8340,7.364650726318359
67, 8223, 8214, 8100, 8300, 8761, 8095, 8131, 8145, 8142, 8239, 8263, 8193, 8247, 8324,7.372726202011108
68, 8203, 8207, 8179, 8265, 8822, 8092, 8109, 8159, 8089, 8213, 8204, 8184, 8193, 8275,7.380702257156372
69, 8177, 8188, 8176, 8226, 8758, 8090, 8121, 8162, 8079, 8215, 8190, 8174, 8169, 8252,7.388609409332275
70, 8144, 8163, 8086, 8187, 8704, 8087, 8140, 8149, 8105, 8228, 8189, 8150, 8165, 8248,7.396709203720093
71, 8166, 8181, 8228, 8172, 8816, 8095, 8127, 8193, 8090, 8216, 8146, 8176, 8135, 8229,7.403719425201416
72, 8154, 8142, 8189, 8160, 8751, 8105, 8142, 8177, 8095, 8217, 8138, 8155, 8124, 8233,7.411606788635254
73, 8120, 8105, 8067, 8130, 8678, 8102, 8151, 8136, 8134, 8235, 8155, 8123, 8123, 8247,7.4197704792022705
74, 8150, 8131, 8135, 8136, 8711, 8102, 8127, 8156, 8151, 8234, 8161, 8151, 8131, 8252,7.427703619003296
75, 8187, 8158, 8179, 8179, 8717, 8127, 8139, 8170, 8166, 8230, 8180, 8177, 8157, 8276,7.435639381408691
76, 8215, 8185, 8249, 8199, 8767, 8161, 8164, 8189, 8185, 8236, 8196, 8204, 8155, 8303,7.443718433380127
77, 8228, 8174, 8200, 8208, 8710, 8171, 8170, 8172, 8197, 8235, 8216, 8189, 8160, 8320,7.45171332359314
78, 8234, 8173, 8128, 8220, 8658, 8167, 8172, 8156, 8193, 8221, 8228, 8173, 8177, 8327,7.4586193561553955
79, 8231, 8190, 8162, 8209, 8692, 8170, 8171, 8168, 8175, 8205, 8230, 8188, 8178, 8335,7.466637372970581
80, 8209, 8179, 8154, 8189, 8698, 8149, 8148, 8149, 8149, 8196, 8227, 8181, 8177, 8336,7.474672079086304
81, 8211, 8175, 8206, 8181, 8714, 8120, 8110, 8149, 8108, 8182, 8199, 8190, 8155, 8308,7.482713937759399
82, 8185, 8151, 8169, 8153, 8651, 8107, 8106, 8149, 8095, 8174, 8185, 8174, 8139, 8284,7.490632057189941
83, 8140, 8132, 8119, 8121, 8635, 8109, 8118, 8158, 8116, 8183, 8201, 8155, 8148, 8282,7.4987263679504395
84, 8143, 8141, 8173, 8128, 8662, 8123, 8123, 8197, 8142, 8196, 8216, 8179, 8159, 8285,7.506688594818115
85, 8135, 8132, 8128, 8141, 8615, 8144, 8153, 8199, 8177, 8212, 8210, 8157, 8160, 8275,7.514613151550293
86, 8130, 8128, 8145, 8129, 8647, 8173, 8176, 8207, 8206, 8219, 8191, 8144, 8151, 8266,7.52273416519165
87, 8137, 8118, 8152, 8106, 8639, 8182, 8176, 8199, 8216, 8211, 8196, 8146, 8162, 8271,7.529726266860962
88, 8147, 8132, 8159, 8094, 8640, 8170, 8166, 8179, 8199, 8202, 8198, 8147, 8153, 8257,7.537594318389893
89, 8185, 8171, 8252, 8111, 8677, 8180, 8158, 8187, 8178, 8206, 8187, 8174, 8126, 8243,7.545804738998413
90, 8205, 8168, 8188, 8144, 8608, 8199, 8170, 8163, 8195, 8204, 8207, 8169, 8149, 8268,7.553725481033325
91, 8213, 8177, 8153, 8170, 8627, 8210, 8181, 8153, 8206, 8186, 8231, 8171, 8176, 8293,7.561553239822388
92, 8216, 8198, 8180, 8186, 8654, 8219, 8197, 8167, 8205, 8190, 8235, 8178, 8171, 8300,7.569688558578491
93, 8208, 8206, 8192, 8186, 8644, 8232, 8218, 8181, 8208, 8195, 8222, 8175, 8156, 8301,7.577739477157593
94, 8205, 8198, 8199, 8174, 8627, 8234, 8233, 8198, 8205, 8177, 8208, 8182, 8138, 8299,7.585727691650391
95, 8193, 8171, 8109, 8162, 8572, 8231, 8256, 8179, 8210, 8163, 8206, 8162, 8123, 8302,7.592705965042114
96, 8221, 8200, 8226, 8153, 8654, 8239, 8245, 8203, 8192, 8154, 8182, 8195, 8097, 8301,7.600727319717407
97, 8215, 8181, 8255, 8128, 8614, 8222, 8223, 8197, 8167, 8142, 8163, 8203, 8085, 8293,7.6087400913238525
98, 8145, 8118, 8078, 8093, 8501, 8177, 8204, 8132, 8158, 8132, 8167, 8142, 8082, 8270,7.616683006286621
99, 8137, 8141, 8169, 8079, 8602, 8155, 8160, 8157, 8131, 8124, 8158, 8151, 8054, 8234,7.624726057052612
100, 8136, 8132, 8202, 8061, 8596, 8155, 8141, 8181, 8123, 8129, 8161, 8159, 8063, 8227,7.632727146148682
101, 8106, 8088, 8076, 8045, 8498, 8160, 8148, 8146, 8147, 8149, 8184, 8126, 8096, 8244,7.640628337860107
102, 8111, 8110, 8086, 8077, 8514, 8168, 8144, 8137, 8154, 8161, 8199, 8129, 8105, 8243,7.648664951324463
103, 8134, 8161, 8184, 8125, 8584, 8174, 8139, 8162, 8139, 8164, 8194, 8154, 8107, 8224,7.6567206382751465
104, 8156, 8183, 8220, 8150, 8576, 8185, 8149, 8186, 8145, 8176, 8209, 8173, 8132, 8243,7.663697004318237
105, 8164, 8180, 8117, 8176, 8503, 8210, 8180, 8174, 8199, 8200, 8269, 8168, 8197, 8304,7.671727180480957
106, 8185, 8229, 8231, 8204, 8620, 8244, 8194, 8222, 8222, 8216, 8298, 8210, 8226, 8328,7.679696559906006
107, 8170, 8238, 8291, 8209, 8615, 8261, 8206, 8249, 8216, 8216, 8306, 8224, 8236, 8320,7.687506914138794
108, 8132, 8198, 8098, 8220, 8455, 8270, 8242, 8188, 8246, 8230, 8337, 8176, 8280, 8344,7.695810079574585
109, 8180, 8238, 8175, 8243, 8531, 8294, 8255, 8212, 8275, 8250, 8338, 8222, 8292, 8379,7.703723430633545
110, 8203, 8245, 8240, 8233, 8543, 8305, 8256, 8242, 8291, 8244, 8321, 8251, 8275, 8393,7.711801767349243
111, 8163, 8201, 8109, 8210, 8439, 8291, 8271, 8205, 8308, 8227, 8312, 8195, 8281, 8383,7.71978759765625
112, 8185, 8214, 8152, 8210, 8481, 8284, 8280, 8219, 8308, 8221, 8280, 8179, 8266, 8355,7.726686239242554
113, 8218, 8231, 8235, 8210, 8529, 8286, 8279, 8247, 8302, 8222, 8240, 8182, 8217, 8323,7.7347252368927
114, 8196, 8214, 8189, 8195, 8475, 8272, 8283, 8232, 8295, 8214, 8220, 8163, 8185, 8296,7.742676496505737
115, 8164, 8198, 8097, 8180, 8414, 8246, 8288, 8184, 8282, 8202, 8218, 8129, 8172, 8275,7.750725746154785
116, 8172, 8225, 8178, 8167, 8488, 8226, 8242, 8170, 8237, 8187, 8202, 8142, 8140, 8256,7.758745431900024
117, 8172, 8220, 8213, 8140, 8492, 8204, 8187, 8159, 8185, 8170, 8188, 8158, 8118, 8254,7.7666614055633545
118, 8141, 8186, 8091, 8120, 8419, 8178, 8168, 8111, 8161, 8160, 8194, 8139, 8118, 8264,7.774671792984009
119, 8174, 8226, 8221, 8135, 8531, 8174, 8121, 8134, 8138, 8147, 8192, 8178, 8108, 8259,7.7827184200286865
120, 8187, 8228, 8275, 8147, 8528, 8176, 8083, 8145, 8116, 8135, 8200, 8191, 8118, 8256,7.789503335952759
121, 8134, 8181, 8105, 8133, 8408, 8172, 8099, 8098, 8113, 8139, 8221, 8150, 8142, 8265,7.797717571258545
122, 8146, 8197, 8102, 8136, 8418, 8172, 8125, 8109, 8127, 8149, 8249, 8164, 8149, 8287,7.805666208267212
123, 8182, 8212, 8132, 8146, 8429, 8179, 8146, 8138, 8157, 8153, 8265, 8173, 8159, 8305,7.813442230224609
124, 8182, 8216, 8194, 8142, 8467, 8198, 8156, 8170, 8162, 8148, 8241, 8171, 8144, 8283,7.821723222732544
125, 8147, 8210, 8186, 8145, 8428, 8202, 8170, 8169, 8159, 8140, 8220, 8160, 8121, 8242,7.829676628112793
126, 8116, 8201, 8123, 8159, 8381, 8186, 8181, 8148, 8164, 8140, 8204, 8138, 8121, 8231,7.8377156257629395
127, 8133, 8202, 8165, 8162, 8410, 8196, 8182, 8166, 8158, 8142, 8183, 8150, 8124, 8246,7.845693826675415
237, 8132, 8186, 8144, 8156, 8388, 8202, 8186, 8170, 8169, 8149, 8182, 8143, 8125, 8240,7.852723121643066
0, 8117, 8191, 8158, 8164, 8408, 8181, 8175, 8184, 8179, 8158, 8175, 8137, 8107, 8211,7.860706329345703
1, 8102, 8176, 8155, 8159, 8394, 8168, 8165, 8187, 8173, 8158, 8156, 8132, 8096, 8198,7.868692398071289
2, 8094, 8163, 8144, 8133, 8380, 8169, 8156, 8177, 8165, 8155, 8146, 8135, 8094, 8206,7.876696348190308
3, 8123, 8188, 8215, 8128, 8389, 8160, 8141, 8193, 8156, 8150, 8151, 8165, 8082, 8215,7.8846275806427
4, 8138, 8179, 8136, 8145, 8310, 8157, 8159, 8167, 8160, 8150, 8168, 8145, 8095, 8228,7.892513751983643
5, 8166, 8191, 8183, 8150, 8380, 8181, 8169, 8172, 8150, 8142, 8155, 8156, 8082, 8219,7.90071177482605
6, 8179, 8204, 8239, 8150, 8401, 8197, 8160, 8188, 8140, 8138, 8150, 8175, 8062, 8211,7.908690929412842
7, 8142, 8193, 8116, 8162, 8312, 8194, 8164, 8156, 8153, 8139, 8179, 8131, 8074, 8214,7.9164745807647705
8, 8146, 8212, 8193, 8165, 8378, 8205, 8164, 8174, 8146, 8129, 8176, 8127, 8056, 8181,7.9235827922821045
9, 8162, 8208, 8221, 8177, 8358, 8221, 8183, 8183, 8151, 8128, 8173, 8125, 8054, 8160,7.931797981262207
10, 8160, 8198, 8120, 8191, 8286, 8239, 8212, 8156, 8175, 8130, 8186, 8118, 8085, 8189,7.939579248428345
11, 8154, 8194, 8108, 8168, 8297, 8248, 8205, 8140, 8161, 8122, 8167, 8141, 8062, 8215,7.947797060012817
12, 8145, 8183, 8153, 8130, 8332, 8224, 8172, 8134, 8124, 8101, 8127, 8150, 8004, 8211,7.955797433853149
13, 8152, 8191, 8205, 8120, 8342, 8202, 8148, 8148, 8102, 8087, 8109, 8150, 7993, 8209,7.963795185089111
14, 8137, 8172, 8117, 8113, 8274, 8196, 8141, 8127, 8104, 8095, 8126, 8127, 8020, 8209,7.9718451499938965
15, 8143, 8184, 8197, 8100, 8349, 8180, 8107, 8148, 8093, 8107, 8138, 8160, 8019, 8195,7.979708433151245
16, 8166, 8204, 8304, 8103, 8361, 8164, 8084, 8191, 8093, 8118, 8155, 8203, 8038, 8214,7.986733913421631
17, 8142, 8159, 8106, 8109, 8201, 8174, 8120, 8145, 8127, 8138, 8182, 8156, 8095, 8251,7.994673252105713
18, 8152, 8156, 8078, 8120, 8237, 8193, 8135, 8134, 8135, 8143, 8188, 8154, 8114, 8253,8.00275993347168
19, 8182, 8186, 8185, 8139, 8297, 8183, 8115, 8161, 8123, 8135, 8193, 8184, 8109, 8247,8.010708332061768
20, 8182, 8194, 8176, 8149, 8265, 8174, 8106, 8159, 8127, 8141, 8208, 8172, 8114, 8251,8.018521308898926
21, 8200, 8205, 8196, 8161, 8278, 8182, 8114, 8170, 8141, 8144, 8216, 8171, 8124, 8255,8.026741027832031
22, 8205, 8209, 8203, 8166, 8278, 8193, 8127, 8172, 8160, 8148, 8214, 8173, 8132, 8260,8.034730911254883
23, 8185, 8208, 8182, 8152, 8259, 8206, 8139, 8179, 8177, 8154, 8195, 8168, 8116, 8257,8.042529344558716
24, 8160, 8195, 8100, 8145, 8204, 8209, 8160, 8180, 8206, 8153, 8191, 8136, 8105, 8245,8.049680233001709
25, 8155, 8213, 8140, 8155, 8248, 8220, 8167, 8198, 8227, 8147, 8183, 8126, 8092, 8225,8.057655334472656
26, 8163, 8219, 8225, 8147, 8286, 8242, 8167, 8216, 8222, 8140, 8163, 8144, 8070, 8203,8.06552004814148
27, 8149, 8186, 8136, 8131, 8210, 8229, 8172, 8183, 8214, 8128, 8156, 8131, 8066, 8204,8.073724031448364
28, 8175, 8215, 8195, 8131, 8254, 8198, 8155, 8194, 8192, 8114, 8141, 8156, 8061, 8223,8.081806898117065
29, 8190, 8226, 8220, 8130, 8242, 8198, 8149, 8192, 8182, 8125, 8154, 8171, 8071, 8237,8.089808702468872
30, 8155, 8192, 8113, 8132, 8180, 8202, 8151, 8149, 8193, 8146, 8200, 8151, 8104, 8236,8.097683668136597
31, 8155, 8190, 8153, 8130, 8212, 8187, 8126, 8161, 8189, 8146, 8222, 8168, 8124, 8237,8.105467081069946
32, 8168, 8179, 8157, 8105, 8196, 8176, 8109, 8156, 8177, 8141, 8218, 8174, 8127, 8241,8.113476037979126
33, 8187, 8183, 8210, 8093, 8229, 8180, 8100, 8152, 8156, 8145, 8208, 8193, 8110, 8225,8.120471000671387
34, 8178, 8174, 8217, 8098, 8194, 8181, 8095, 8142, 8138, 8144, 8200, 8188, 8095, 8211,8.128447532653809
35, 8145, 8151, 8111, 8084, 8122, 8182, 8103, 8111, 8134, 8128, 8184, 8142, 8088, 8210,8.136431694030762
36, 8149, 8165, 8129, 8083, 8162, 8198, 8110, 8128, 8133, 8120, 8179, 8155, 8081, 8218,8.144558429718018
37, 8160, 8177, 8143, 8113, 8149, 8218, 8139, 8153, 8151, 8142, 8210, 8178, 8112, 8248,8.152477741241455
38, 8187, 8193, 8203, 8134, 8138, 8234, 8166, 8189, 8166, 8157, 8221, 8190, 8148, 8280,8.160530805587769
39, 8191, 8183, 8207, 8134, 8092, 8229, 8173, 8201, 8168, 8144, 8204, 8176, 8143, 8281,8.168466806411743
40, 8139, 8158, 8116, 8122, 8038, 8212, 8180, 8171, 8171, 8137, 8190, 8144, 8120, 8257,8.176813840866089
41, 8121, 8160, 8171, 8109, 8075, 8215, 8190, 8198, 8168, 8147, 8184, 8163, 8121, 8236,8.183722734451294
42, 8115, 8140, 8155, 8106, 8047, 8226, 8210, 8218, 8184, 8160, 8202, 8155, 8154, 8241,8.19145154953003
43, 8106, 8146, 8132, 8108, 8049, 8222, 8218, 8208, 8191, 8159, 8213, 8141, 8157, 8235,8.19971489906311
44, 8109, 8163, 8156, 8115, 8042, 8210, 8218, 8198, 8183, 8150, 8195, 8147, 8129, 8208,8.207791566848755
45, 8109, 8156, 8127, 8130, 8018, 8215, 8222, 8183, 8189, 8148, 8190, 8141, 8122, 8195,8.215782880783081
46, 8119, 8177, 8198, 8139, 8074, 8238, 8209, 8198, 8189, 8155, 8197, 8164, 8117, 8202,8.223788022994995
47, 8100, 8165, 8162, 8127, 7939, 8243, 8200, 8172, 8182, 8155, 8195, 8162, 8120, 8217,8.231718063354492
48, 8108, 8158, 8138, 8126, 7772, 8223, 8186, 8158, 8173, 8148, 8189, 8171, 8133, 8243,8.23972225189209
49, 8156, 8175, 8199, 8146, 7746, 8220, 8174, 8185, 8182, 8160, 8214, 8207, 8158, 8279,8.246479034423828
50, 8156, 8178, 8152, 8152, 7662, 8233, 8182, 8175, 8206, 8176, 8240, 8196, 8187, 8305,8.254401206970215
51, 8178, 8209, 8219, 8160, 7452, 8248, 8187, 8197, 8217, 8181, 8240, 8215, 8203, 8322,8.262383699417114
52, 8222, 8209, 8220, 8185, 7151, 8248, 8201, 8205, 8238, 8195, 8267, 8230, 8238, 8358,8.270451307296753
53, 8229, 8207, 8180, 8204, 7071, 8233, 8194, 8194, 8246, 8204, 8275, 8216, 8252, 8364,8.278660774230957
54, 8219, 8230, 8229, 8201, 7090, 8219, 8173, 8205, 8222, 8187, 8246, 8209, 8219, 8330,8.286691188812256
55, 8187, 8211, 8158, 8175, 6987, 8212, 8182, 8187, 8219, 8175, 8232, 8177, 8197, 8310,8.294631481170654
56, 8177, 8194, 8153, 8150, 7006, 8222, 8189, 8189, 8226, 8178, 8205, 8171, 8176, 8295,8.302695035934448
57, 8173, 8196, 8190, 8149, 7045, 8219, 8190, 8190, 8211, 8177, 8179, 8176, 8157, 8274,8.310694694519043
58, 8148, 8186, 8162, 8146, 7019, 8207, 8193, 8168, 8187, 8166, 8184, 8161, 8152, 8255,8.317535877227783
59, 8128, 8163, 8125, 8124, 6976, 8226, 8198, 8159, 8182, 8162, 8200, 8154, 8154, 8242,8.325708866119385
60, 8139, 8168, 8121, 8126, 6953, 8247, 8206, 8174, 8205, 8174, 8214, 8168, 8169, 8260,8.333702087402344
61, 8181, 8217, 8223, 8166, 7001, 8251, 8204, 8214, 8219, 8185, 8234, 8210, 8196, 8305,8.341766834259033
62, 8176, 8212, 8158, 8190, 6925, 8251, 8202, 8188, 8228, 8192, 8265, 8195, 8228, 8335,8.349706172943115
63, 8171, 8202, 8147, 8184, 6929, 8251, 8193, 8175, 8236, 8192, 8258, 8191, 8231, 8327,8.357731342315674
64, 8215, 8230, 8302, 8187, 7022, 8243, 8186, 8227, 8245, 8187, 8244, 8238, 8228, 8340,8.365720987319946
65, 8205, 8200, 8179, 8198, 6920, 8232, 8207, 8202, 8269, 8200, 8276, 8209, 8272, 8379,8.373690128326416
66, 8196, 8199, 8131, 8198, 6919, 8233, 8211, 8188, 8265, 8209, 8279, 8194, 8289, 8379,8.381719827651978
67, 8214, 8226, 8225, 8189, 6985, 8235, 8206, 8217, 8251, 8200, 8243, 8208, 8256, 8360,8.38872241973877
68, 8202, 8213, 8167, 8190, 6945, 8211, 8204, 8198, 8250, 8194, 8225, 8181, 8242, 8352,8.396559000015259
69, 8186, 8202, 8138, 8197, 6927, 8175, 8178, 8165, 8211, 8178, 8212, 8169, 8221, 8322,8.4047212600708
70, 8169, 8196, 8132, 8180, 6925, 8160, 8162, 8141, 8173, 8148, 8198, 8156, 8182, 8281,8.41271686553955
71, 8181, 8219, 8197, 8164, 6953, 8165, 8160, 8155, 8161, 8144, 8188, 8166, 8164, 8265,8.420491218566895
72, 8194, 8205, 8201, 8173, 6886, 8171, 8156, 8148, 8148, 8145, 8181, 8177, 8177, 8268,8.428661584854126
73, 8177, 8179, 8130, 8189, 6821, 8179, 8166, 8125, 8141, 8135, 8195, 8162, 8182, 8279,8.435652017593384
74, 8180, 8203, 8169, 8193, 6846, 8194, 8177, 8154, 8154, 8141, 8219, 8170, 8174, 8285,8.443496465682983
75, 8167, 8204, 8155, 8188, 6797, 8200, 8185, 8162, 8180, 8165, 8219, 8162, 8182, 8279,8.45171856880188
76, 8156, 8195, 8195, 8185, 6796, 8203, 8182, 8174, 8187, 8176, 8192, 8172, 8166, 8258,8.459682941436768
77, 8165, 8191, 8213, 8193, 6753, 8207, 8191, 8201, 8202, 8187, 8204, 8192, 8173, 8268,8.467759370803833
78, 8164, 8193, 8126, 8202, 6663, 8212, 8220, 8195, 8239, 8205, 8236, 8178, 8221, 8308,8.475682258605957
79, 8177, 8202, 8172, 8201, 6699, 8227, 8239, 8209, 8249, 8212, 8232, 8187, 8230, 8319,8.483714580535889
80, 8171, 8174, 8152, 8191, 6692, 8212, 8238, 8195, 8245, 8214, 8235, 8182, 8228, 8319,8.491720914840698
81, 8160, 8168, 8178, 8173, 6734, 8181, 8200, 8180, 8218, 8201, 8213, 8176, 8203, 8297,8.499624252319336
82, 8174, 8177, 8270, 8166, 6759, 8175, 8170, 8190, 8184, 8172, 8173, 8181, 8154, 8264,8.507716178894043
83, 8166, 8147, 8146, 8177, 6624, 8180, 8188, 8156, 8195, 8175, 8188, 8156, 8165, 8277,8.514717102050781
84, 8169, 8152, 8092, 8186, 6590, 8185, 8203, 8150, 8225, 8208, 8229, 8170, 8216, 8318,8.522615194320679
85, 8180, 8174, 8157, 8186, 6641, 8186, 8200, 8164, 8221, 8213, 8238, 8186, 8215, 8313,8.530632734298706
86, 8175, 8191, 8211, 8191, 6685, 8187, 8187, 8162, 8184, 8186, 8206, 8174, 8161, 8265,8.538705348968506
87, 8173, 8184, 8176, 8203, 6652, 8193, 8188, 8153, 8177, 8183, 8202, 8165, 8163, 8269,8.546571493148804
88, 8179, 8165, 8133, 8213, 6647, 8194, 8197, 8145, 8198, 8205, 8229, 8168, 8199, 8299,8.55453372001648
89, 8216, 8205, 8295, 8224, 6760, 8202, 8188, 8195, 8187, 8207, 8227, 8217, 8187, 8294,8.56264042854309
90, 8208, 8204, 8234, 8227, 6682, 8202, 8205, 8189, 8189, 8201, 8235, 8206, 8199, 8301,8.570454597473145
91, 8176, 8176, 8078, 8223, 6630, 8188, 8222, 8151, 8211, 8209, 8253, 8164, 8240, 8326,8.577676057815552
92, 8193, 8195, 8170, 8227, 6736, 8197, 8211, 8183, 8209, 8212, 8247, 8183, 8240, 8325,8.585753679275513
93, 8189, 8206, 8171, 8214, 6724, 8207, 8218, 8190, 8215, 8209, 8240, 8176, 8230, 8312,8.593590259552002
94, 8168, 8205, 8143, 8181, 6726, 8188, 8216, 8183, 8222, 8209, 8223, 8163, 8217, 8305,8.601670503616333
95, 8162, 8186, 8161, 8172, 6758, 8178, 8204, 8191, 8234, 8209, 8200, 8166, 8207, 8305,8.609699964523315
96, 8164, 8177, 8174, 8180, 6766, 8192, 8199, 8201, 8258, 8196, 8181, 8168, 8207, 8302,8.617757081985474
97, 8153, 8174, 8165, 8163, 6754, 8172, 8190, 8188, 8257, 8185, 8173, 8160, 8198, 8285,8.625573873519897
98, 8129, 8154, 8107, 8154, 6756, 8150, 8199, 8159, 8255, 8199, 8191, 8141, 8200, 8282,8.63378119468689
99, 8164, 8180, 8210, 8183, 6863, 8181, 8211, 8197, 8260, 8205, 8218, 8182, 8215, 8303,8.641631603240967
100, 8168, 8183, 8167, 8195, 6805, 8193, 8208, 8175, 8251, 8195, 8232, 8182, 8237, 8316,8.648627758026123
101, 8148, 8192, 8150, 8186, 6808, 8174, 8174, 8132, 8212, 8179, 8215, 8170, 8220, 8287,8.656480550765991
102, 8207, 8232, 8389, 8199, 6958, 8182, 8143, 8194, 8174, 8165, 8208, 8237, 8186, 8267,8.66469407081604
103, 8220, 8187, 8235, 8226, 6823, 8188, 8174, 8172, 8195, 8174, 8255, 8216, 8228, 8304,8.67248797416687
104, 8192, 8177, 8007, 8250, 6740, 8175, 8197, 8113, 8220, 8188, 8284, 8162, 8273, 8337,8.680556774139404
105, 8224, 8235, 8146, 8259, 6883, 8169, 8181, 8162, 8219, 8190, 8280, 8197, 8273, 8351,8.68870210647583
106, 8257, 8244, 8243, 8256, 6933, 8173, 8177, 8212, 8243, 8207, 8288, 8229, 8299, 8375,8.696476459503174
107, 8260, 8242, 8196, 8260, 6882, 8174, 8184, 8201, 8267, 8224, 8291, 8224, 8323, 8386,8.704628705978394
108, 8243, 8244, 8137, 8257, 6874, 8168, 8182, 8173, 8257, 8216, 8274, 8196, 8306, 8373,8.711568117141724
109, 8241, 8240, 8209, 8238, 7008, 8164, 8168, 8194, 8237, 8197, 8246, 8203, 8266, 8356,8.719552516937256
110, 8227, 8212, 8201, 8220, 7097, 8155, 8161, 8198, 8237, 8195, 8225, 8201, 8247, 8342,8.727458715438843
111, 8188, 8193, 8119, 8207, 7227, 8147, 8161, 8164, 8235, 8198, 8216, 8171, 8250, 8324,8.735697269439697
112, 8177, 8193, 8170, 8193, 7528, 8148, 8149, 8170, 8219, 8188, 8196, 8176, 8239, 8311,8.743659496307373
113, 8166, 8170, 8144, 8178, 7754, 8144, 8150, 8158, 8219, 8180, 8172, 8165, 8217, 8297,8.751673936843872
114, 8176, 8188, 8164, 8172, 7966, 8146, 8155, 8158, 8216, 8181, 8169, 8171, 8205, 8285,8.759704351425171
115, 8190, 8200, 8224, 8166, 8144, 8148, 8155, 8175, 8208, 8178, 8189, 8186, 8207, 8290,8.767685651779175
116, 8156, 8152, 8131, 8144, 8211, 8133, 8155, 8140, 8200, 8169, 8186, 8152, 8208, 8282,8.775614976882935
117, 8150, 8152, 8156, 8141, 8353, 8135, 8142, 8138, 8178, 8165, 8158, 8159, 8195, 8262,8.782628774642944
118, 8164, 8165, 8184, 8160, 8454, 8147, 8144, 8159, 8182, 8170, 8172, 8172, 8205, 8276,8.790541887283325
119, 8173, 8159, 8165, 8155, 8506, 8144, 8156, 8172, 8200, 8172, 8195, 8166, 8215, 8298,8.798611640930176
120, 8181, 8159, 8166, 8136, 8529, 8141, 8154, 8177, 8189, 8171, 8188, 8167, 8214, 8294,8.80653715133667
121, 8171, 8166, 8141, 8140, 8535, 8143, 8147, 8159, 8178, 8169, 8177, 8155, 8213, 8290,8.814544916152954
122, 8174, 8184, 8197, 8148, 8615, 8145, 8141, 8175, 8179, 8155, 8169, 8164, 8194, 8282,8.822436094284058
123, 8149, 8160, 8146, 8131, 8600, 8138, 8151, 8173, 8185, 8145, 8176, 8147, 8177, 8265,8.830586671829224
124, 8116, 8149, 8138, 8120, 8635, 8133, 8143, 8165, 8176, 8146, 8164, 8136, 8152, 8245,8.839148759841919
125, 8132, 8164, 8219, 8130, 8722, 8130, 8133, 8179, 8166, 8147, 8148, 8164, 8134, 8240,8.845737934112549
126, 8132, 8142, 8134, 8128, 8695, 8111, 8156, 8151, 8173, 8149, 8155, 8147, 8136, 8240,8.853535175323486
127, 8138, 8152, 8165, 8127, 8720, 8115, 8168, 8161, 8161, 8139, 8149, 8154, 8124, 8224,8.861562013626099
237, 8162, 8168, 8200, 8149, 8701, 8157, 8187, 8182, 8164, 8130, 8152, 8177, 8132, 8232,8.870404481887817
0, 8171, 8162, 8143, 8158, 8698, 8186, 8210, 8170, 8198, 8139, 8175, 8169, 8157, 8266,8.877623081207275
1, 8185, 8169, 8187, 8149, 8775, 8184, 8206, 8180, 8212, 8156, 8200, 8183, 8172, 8304,8.885549545288086
2, 8207, 8185, 8189, 8160, 8769, 8169, 8197, 8185, 8216, 8172, 8223, 8196, 8207, 8334,8.893500328063965
3, 8241, 8213, 8206, 8184, 8783, 8155, 8184, 8190, 8219, 8179, 8231, 8212, 8229, 8340,8.901474714279175
4, 8223, 8181, 8179, 8170, 8783, 8140, 8167, 8166, 8211, 8168, 8223, 8196, 8211, 8317,8.908469200134277
5, 8177, 8145, 8151, 8141, 8804, 8119, 8147, 8139, 8180, 8148, 8195, 8170, 8185, 8287,8.916370391845703
6, 8168, 8153, 8185, 8128, 8802, 8091, 8132, 8140, 8150, 8141, 8172, 8171, 8167, 8265,8.92448377609253
7, 8130, 8129, 8099, 8109, 8739, 8083, 8135, 8113, 8148, 8146, 8172, 8132, 8151, 8239,8.932354211807251
8, 8106, 8135, 8186, 8085, 8869, 8099, 8121, 8142, 8132, 8141, 8148, 8142, 8119, 8197,8.940407752990723
9, 8107, 8134, 8232, 8080, 8899, 8093, 8107, 8161, 8130, 8138, 8147, 8164, 8122, 8188,8.94847321510315
10, 8105, 8123, 8102, 8098, 8800, 8085, 8117, 8125, 8149, 8143, 8189, 8141, 8161, 8221,8.956482172012329
