COUNTER,F3,FC5,AF3,F7,T7,P7,O1,O2,P8,T8,F8,AF4,FC6,F4,Timestamp
50, 8144, 8168, 8193, 8198, 8211, 8197, 8203, 8171, 8215, 8180, 8175, 8155, 8152, 8094,0.005507469177246094
50, 8144, 8168, 8193, 8198, 8211, 8197, 8203, 8171, 8215, 8180, 8175, 8155, 8152, 8094,0.005507469177246094
51, 8151, 8182, 8206, 8209, 8220, 8198, 8224, 8164, 8240, 8201, 8184, 8156, 8149, 8120,0.013508319854736328
51, 8151, 8182, 8206, 8209, 8220, 8198, 8224, 8164, 8240, 8201, 8184, 8156, 8149, 8120,0.013508319854736328
52, 8165, 8170, 8181, 8193, 8215, 8187, 8205, 8178, 8213, 8178, 8178, 8164, 8169, 8116,0.02150750160217285
52, 8165, 8170, 8181, 8193, 8215, 8187, 8205, 8178, 8213, 8178, 8178, 8164, 8169, 8116,0.02150750160217285
53, 8136, 8157, 8169, 8175, 8213, 8165, 8194, 8158, 8188, 8166, 8165, 8144, 8154, 8100,0.02950763702392578
53, 8136, 8157, 8169, 8175, 8213, 8165, 8194, 8158, 8188, 8166, 8165, 8144, 8154, 8100,0.02950763702392578
54, 8154, 8164, 8187, 8172, 8229, 8186, 8195, 8179, 8192, 8173, 8180, 8169, 8175, 8123,0.036538124084472656
54, 8154, 8164, 8187, 8172, 8229, 8186, 8195, 8179, 8192, 8173, 8180, 8169, 8175, 8123,0.036538124084472656
55, 8156, 8176, 8193, 8185, 8243, 8189, 8199, 8185, 8204, 8186, 8181, 8168, 8177, 8130,0.04441022872924805
55, 8156, 8176, 8193, 8185, 8243, 8189, 8199, 8185, 8204, 8186, 8181, 8168, 8177, 8130,0.04441022872924805
56, 8154, 8190, 8191, 8197, 8235, 8176, 8204, 8167, 8202, 8189, 8172, 8151, 8158, 8120,0.05241036415100098
56, 8154, 8190, 8191, 8197, 8235, 8176, 8204, 8167, 8202, 8189, 8172, 8151, 8158, 8120,0.05241036415100098
57, 8175, 8194, 8194, 8202, 8233, 8188, 8204, 8183, 8199, 8165, 8174, 8168, 8166, 8118,0.0604252815246582
57, 8175, 8194, 8194, 8202, 8233, 8188, 8204, 8183, 8199, 8165, 8174, 8168, 8166, 8118,0.0604252815246582
58, 8160, 8191, 8205, 8217, 8253, 8193, 8215, 8164, 8218, 8172, 8170, 8154, 8151, 8119,0.06840944290161133
58, 8160, 8191, 8205, 8217, 8253, 8193, 8215, 8164, 8218, 8172, 8170, 8154, 8151, 8119,0.06840944290161133
59, 8180, 8184, 8210, 8215, 8240, 8195, 8213, 8169, 8223, 8187, 8176, 8167, 8162, 8134,0.07644033432006836
59, 8180, 8184, 8210, 8215, 8240, 8195, 8213, 8169, 8223, 8187, 8176, 8167, 8162, 8134,0.07644033432006836
60, 8177, 8177, 8196, 8201, 8222, 8173, 8211, 8182, 8218, 8185, 8175, 8166, 8159, 8123,0.08444738388061523
60, 8177, 8177, 8196, 8201, 8222, 8173, 8211, 8182, 8218, 8185, 8175, 8166, 8159, 8123,0.08444738388061523
61, 8160, 8168, 8190, 8195, 8228, 8163, 8209, 8165, 8214, 8185, 8171, 8150, 8148, 8113,0.0924520492553711
61, 8160, 8168, 8190, 8195, 8228, 8163, 8209, 8165, 8214, 8185, 8171, 8150, 8148, 8113,0.0924520492553711
62, 8187, 8154, 8194, 8187, 8221, 8183, 8187, 8183, 8204, 8181, 8179, 8174, 8177, 8134,0.09917354583740234
62, 8187, 8154, 8194, 8187, 8221, 8183, 8187, 8183, 8204, 8181, 8179, 8174, 8177, 8134,0.09917354583740234
63, 8164, 8146, 8191, 8195, 8215, 8179, 8191, 8176, 8218, 8181, 8175, 8157, 8164, 8135,0.10769081115722656
63, 8164, 8146, 8191, 8195, 8215, 8179, 8191, 8176, 8218, 8181, 8175, 8157, 8164, 8135,0.10769081115722656
64, 8162, 8139, 8181, 8202, 8211, 8170, 8197, 8173, 8210, 8167, 8171, 8152, 8163, 8125,0.11569046974182129
64, 8162, 8139, 8181, 8202, 8211, 8170, 8197, 8173, 8210, 8167, 8171, 8152, 8163, 8125,0.11569046974182129
65, 8169, 8148, 8177, 8196, 8209, 8158, 8193, 8175, 8191, 8160, 8170, 8158, 8174, 8116,0.12380123138427734
65, 8169, 8148, 8177, 8196, 8209, 8158, 8193, 8175, 8191, 8160, 8170, 8158, 8174, 8116,0.12380123138427734
66, 8149, 8161, 8178, 8201, 8216, 8161, 8197, 8156, 8204, 8160, 8169, 8144, 8159, 8106,0.13179969787597656
66, 8149, 8161, 8178, 8201, 8216, 8161, 8197, 8156, 8204, 8160, 8169, 8144, 8159, 8106,0.13179969787597656
67, 8163, 8142, 8166, 8190, 8203, 8177, 8180, 8168, 8186, 8130, 8166, 8157, 8164, 8088,0.13903570175170898
67, 8163, 8142, 8166, 8190, 8203, 8177, 8180, 8168, 8186, 8130, 8166, 8157, 8164, 8088,0.13903570175170898
68, 8148, 8131, 8161, 8170, 8196, 8152, 8170, 8151, 8159, 8123, 8151, 8139, 8148, 8060,0.1470348834991455
68, 8148, 8131, 8161, 8170, 8196, 8152, 8170, 8151, 8159, 8123, 8151, 8139, 8148, 8060,0.14803647994995117
69, 8148, 8131, 8168, 8163, 8188, 8148, 8157, 8145, 8148, 8123, 8152, 8143, 8154, 8064,0.15503692626953125
69, 8148, 8131, 8168, 8163, 8188, 8148, 8157, 8145, 8148, 8123, 8152, 8143, 8154, 8064,0.15503692626953125
70, 8150, 8129, 8175, 8169, 8177, 8158, 8134, 8157, 8145, 8113, 8153, 8157, 8163, 8065,0.1627810001373291
70, 8150, 8129, 8175, 8169, 8177, 8158, 8134, 8157, 8145, 8113, 8153, 8157, 8163, 8065,0.1627810001373291
71, 8135, 8136, 8181, 8179, 8184, 8142, 8129, 8145, 8158, 8118, 8148, 8141, 8151, 8056,0.16978049278259277
71, 8135, 8136, 8181, 8179, 8184, 8142, 8129, 8145, 8158, 8118, 8148, 8141, 8151, 8056,0.17078065872192383
72, 8158, 8138, 8183, 8161, 8184, 8142, 8121, 8166, 8149, 8117, 8156, 8154, 8170, 8066,0.17844557762145996
72, 8158, 8138, 8183, 8161, 8184, 8142, 8121, 8166, 8149, 8117, 8156, 8154, 8170, 8066,0.17844557762145996
73, 8148, 8140, 8182, 8146, 8178, 8142, 8128, 8166, 8155, 8131, 8155, 8142, 8160, 8071,0.18578672409057617
73, 8148, 8140, 8182, 8146, 8178, 8142, 8128, 8166, 8155, 8131, 8155, 8142, 8160, 8071,0.18678545951843262
74, 8150, 8143, 8178, 8158, 8170, 8145, 8133, 8164, 8172, 8133, 8155, 8145, 8164, 8077,0.19479036331176758
74, 8150, 8143, 8178, 8158, 8170, 8145, 8133, 8164, 8172, 8133, 8155, 8145, 8164, 8077,0.19479036331176758
75, 8150, 8128, 8164, 8161, 8176, 8142, 8130, 8174, 8162, 8110, 8156, 8152, 8173, 8069,0.202470064163208
75, 8150, 8128, 8164, 8161, 8176, 8142, 8130, 8174, 8162, 8110, 8156, 8152, 8173, 8069,0.202470064163208
76, 8125, 8114, 8154, 8153, 8181, 8141, 8141, 8152, 8149, 8116, 8149, 8124, 8149, 8051,0.21052336692810059
76, 8125, 8114, 8154, 8153, 8181, 8141, 8141, 8152, 8149, 8116, 8149, 8124, 8149, 8051,0.21052336692810059
77, 8145, 8109, 8145, 8137, 8153, 8156, 8138, 8163, 8134, 8108, 8146, 8136, 8168, 8050,0.21855640411376953
77, 8145, 8109, 8145, 8137, 8153, 8156, 8138, 8163, 8134, 8108, 8146, 8136, 8168, 8050,0.21855640411376953
78, 8131, 8116, 8138, 8122, 8153, 8137, 8142, 8154, 8146, 8097, 8145, 8132, 8162, 8048,0.22654294967651367
78, 8131, 8116, 8138, 8122, 8153, 8137, 8142, 8154, 8146, 8097, 8145, 8132, 8162, 8048,0.22654294967651367
79, 8140, 8137, 8150, 8125, 8178, 8136, 8153, 8149, 8148, 8111, 8160, 8141, 8159, 8059,0.2334747314453125
79, 8140, 8137, 8150, 8125, 8178, 8136, 8153, 8149, 8148, 8111, 8160, 8141, 8159, 8059,0.2334747314453125
80, 8173, 8157, 8176, 8149, 8178, 8149, 8152, 8169, 8126, 8118, 8169, 8163, 8176, 8070,0.2414717674255371
80, 8173, 8157, 8176, 8149, 8178, 8149, 8152, 8169, 8126, 8118, 8169, 8163, 8176, 8070,0.2414717674255371
81, 8150, 8158, 8182, 8173, 8182, 8135, 8152, 8157, 8141, 8120, 8160, 8141, 8156, 8070,0.2497262954711914
81, 8150, 8158, 8182, 8173, 8182, 8135, 8152, 8157, 8141, 8120, 8160, 8141, 8156, 8070,0.2497262954711914
82, 8155, 8143, 8156, 8137, 8160, 8147, 8147, 8171, 8158, 8123, 8155, 8150, 8167, 8076,0.2574324607849121
82, 8155, 8143, 8156, 8137, 8160, 8147, 8147, 8171, 8158, 8123, 8155, 8150, 8167, 8076,0.2574324607849121
83, 8147, 8135, 8144, 8111, 8139, 8151, 8154, 8167, 8157, 8135, 8147, 8143, 8157, 8064,0.2655823230743408
83, 8147, 8135, 8144, 8111, 8139, 8151, 8154, 8167, 8157, 8135, 8147, 8143, 8157, 8064,0.2655823230743408
84, 8141, 8140, 8158, 8148, 8170, 8152, 8165, 8159, 8156, 8138, 8156, 8135, 8147, 8063,0.2735884189605713
84, 8141, 8140, 8158, 8148, 8170, 8152, 8165, 8159, 8156, 8138, 8156, 8135, 8147, 8063,0.2735884189605713
85, 8153, 8149, 8155, 8165, 8189, 8157, 8160, 8174, 8150, 8130, 8168, 8151, 8169, 8073,0.28147268295288086
85, 8153, 8149, 8155, 8165, 8189, 8157, 8160, 8174, 8150, 8130, 8168, 8151, 8169, 8073,0.28147268295288086
86, 8129, 8152, 8145, 8157, 8185, 8141, 8166, 8149, 8162, 8146, 8158, 8134, 8159, 8068,0.2894704341888428
86, 8129, 8152, 8145, 8157, 8185, 8141, 8166, 8149, 8162, 8146, 8158, 8134, 8159, 8068,0.2894704341888428
87, 8139, 8144, 8150, 8153, 8184, 8154, 8162, 8157, 8165, 8149, 8160, 8147, 8173, 8073,0.29647183418273926
87, 8139, 8144, 8150, 8153, 8184, 8154, 8162, 8157, 8165, 8149, 8160, 8147, 8173, 8073,0.29647183418273926
88, 8134, 8146, 8149, 8150, 8182, 8168, 8148, 8160, 8155, 8138, 8155, 8147, 8161, 8062,0.3039886951446533
88, 8134, 8146, 8149, 8150, 8182, 8168, 8148, 8160, 8155, 8138, 8155, 8147, 8161, 8062,0.30498385429382324
89, 8132, 8151, 8138, 8135, 8168, 8170, 8146, 8146, 8157, 8138, 8147, 8133, 8139, 8046,0.31198859214782715
89, 8132, 8151, 8138, 8135, 8168, 8170, 8146, 8146, 8157, 8138, 8147, 8133, 8139, 8046,0.31298351287841797
90, 8150, 8135, 8132, 8121, 8166, 8171, 8149, 8171, 8156, 8129, 8151, 8142, 8159, 8049,0.32047247886657715
90, 8150, 8135, 8132, 8121, 8166, 8171, 8149, 8171, 8156, 8129, 8151, 8142, 8159, 8049,0.32047247886657715
91, 8132, 8140, 8142, 8140, 8199, 8167, 8167, 8165, 8161, 8141, 8155, 8133, 8157, 8061,0.3286013603210449
91, 8132, 8140, 8142, 8140, 8199, 8167, 8167, 8165, 8161, 8141, 8155, 8133, 8157, 8061,0.3286013603210449
92, 8158, 8168, 8155, 8159, 8194, 8186, 8171, 8174, 8151, 8146, 8165, 8156, 8171, 8073,0.3366093635559082
92, 8158, 8168, 8155, 8159, 8194, 8186, 8171, 8174, 8151, 8146, 8165, 8156, 8171, 8073,0.3366093635559082
93, 8153, 8168, 8151, 8159, 8174, 8174, 8169, 8178, 8143, 8145, 8159, 8148, 8162, 8052,0.344470739364624
93, 8153, 8168, 8151, 8159, 8174, 8174, 8169, 8178, 8143, 8145, 8159, 8148, 8162, 8052,0.344470739364624
94, 8119, 8153, 8146, 8151, 8188, 8152, 8179, 8164, 8166, 8164, 8151, 8128, 8146, 8049,0.35247015953063965
94, 8119, 8153, 8146, 8151, 8188, 8152, 8179, 8164, 8166, 8164, 8151, 8128, 8146, 8049,0.35247015953063965
95, 8139, 8152, 8151, 8146, 8183, 8173, 8175, 8184, 8175, 8163, 8160, 8165, 8171, 8075,0.36046576499938965
95, 8139, 8152, 8151, 8146, 8183, 8173, 8175, 8184, 8175, 8163, 8160, 8165, 8171, 8075,0.36046576499938965
96, 8130, 8162, 8157, 8155, 8172, 8178, 8165, 8157, 8161, 8147, 8157, 8158, 8161, 8067,0.367464542388916
96, 8130, 8162, 8157, 8155, 8172, 8178, 8165, 8157, 8161, 8147, 8157, 8158, 8161, 8067,0.367464542388916
97, 8140, 8160, 8153, 8155, 8167, 8169, 8146, 8146, 8142, 8134, 8158, 8152, 8161, 8056,0.3754715919494629
97, 8140, 8160, 8153, 8155, 8167, 8169, 8146, 8146, 8142, 8134, 8158, 8152, 8161, 8056,0.3754715919494629
98, 8140, 8150, 8146, 8155, 8176, 8154, 8157, 8169, 8163, 8156, 8159, 8153, 8159, 8055,0.3834712505340576
98, 8140, 8150, 8146, 8155, 8176, 8154, 8157, 8169, 8163, 8156, 8159, 8153, 8159, 8055,0.3834712505340576
99, 8121, 8157, 8154, 8164, 8206, 8150, 8201, 8159, 8187, 8176, 8157, 8145, 8153, 8064,0.3914647102355957
99, 8121, 8157, 8154, 8164, 8206, 8150, 8201, 8159, 8187, 8176, 8157, 8145, 8153, 8064,0.3914647102355957
100, 8142, 8162, 8155, 8156, 8216, 8162, 8197, 8166, 8156, 8139, 8158, 8163, 8182, 8075,0.3994741439819336
100, 8142, 8162, 8155, 8156, 8216, 8162, 8197, 8166, 8156, 8139, 8158, 8163, 8182, 8075,0.3994741439819336
101, 8125, 8163, 8145, 8152, 8203, 8153, 8179, 8160, 8163, 8128, 8155, 8142, 8163, 8061,0.40789055824279785
101, 8125, 8163, 8145, 8152, 8203, 8153, 8179, 8160, 8163, 8128, 8155, 8142, 8163, 8061,0.40789055824279785
102, 8122, 8159, 8143, 8153, 8182, 8169, 8171, 8160, 8184, 8140, 8160, 8143, 8157, 8051,0.4148871898651123
102, 8122, 8159, 8143, 8153, 8182, 8169, 8171, 8160, 8184, 8140, 8160, 8143, 8157, 8051,0.41588783264160156
103, 8129, 8152, 8146, 8144, 8182, 8180, 8166, 8159, 8159, 8143, 8160, 8153, 8164, 8046,0.4224679470062256
103, 8129, 8152, 8146, 8144, 8182, 8180, 8166, 8159, 8159, 8143, 8160, 8153, 8164, 8046,0.4224679470062256
104, 8118, 8153, 8145, 8146, 8199, 8159, 8164, 8141, 8150, 8151, 8157, 8135, 8149, 8052,0.43044066429138184
104, 8118, 8153, 8145, 8146, 8199, 8159, 8164, 8141, 8150, 8151, 8157, 8135, 8149, 8052,0.43044066429138184
105, 8139, 8152, 8143, 8150, 8194, 8162, 8153, 8168, 8154, 8138, 8164, 8154, 8175, 8069,0.438917875289917
105, 8139, 8152, 8143, 8150, 8194, 8162, 8153, 8168, 8154, 8138, 8164, 8154, 8175, 8069,0.438917875289917
106, 8125, 8162, 8156, 8162, 8190, 8166, 8164, 8162, 8152, 8136, 8161, 8142, 8170, 8063,0.4469587802886963
106, 8125, 8162, 8156, 8162, 8190, 8166, 8164, 8162, 8152, 8136, 8161, 8142, 8170, 8063,0.4469587802886963
107, 8131, 8171, 8163, 8166, 8176, 8170, 8164, 8156, 8164, 8147, 8165, 8139, 8158, 8064,0.45500731468200684
107, 8131, 8171, 8163, 8166, 8176, 8170, 8164, 8156, 8164, 8147, 8165, 8139, 8158, 8064,0.45500731468200684
108, 8143, 8161, 8150, 8151, 8171, 8167, 8159, 8175, 8190, 8157, 8171, 8148, 8167, 8071,0.46201491355895996
108, 8143, 8161, 8150, 8151, 8171, 8167, 8159, 8175, 8190, 8157, 8171, 8148, 8167, 8071,0.46201491355895996
109, 8118, 8150, 8145, 8148, 8190, 8170, 8183, 8158, 8188, 8164, 8165, 8133, 8161, 8081,0.47046947479248047
109, 8118, 8150, 8145, 8148, 8190, 8170, 8183, 8158, 8188, 8164, 8165, 8133, 8161, 8081,0.47046947479248047
110, 8129, 8141, 8147, 8141, 8182, 8192, 8173, 8166, 8149, 8131, 8158, 8151, 8173, 8079,0.4784679412841797
110, 8129, 8141, 8147, 8141, 8182, 8192, 8173, 8166, 8149, 8131, 8158, 8151, 8173, 8079,0.4784679412841797
111, 8113, 8149, 8148, 8145, 8184, 8169, 8159, 8166, 8161, 8122, 8149, 8141, 8155, 8046,0.4864680767059326
111, 8113, 8149, 8148, 8145, 8184, 8169, 8159, 8166, 8161, 8122, 8149, 8141, 8155, 8046,0.4864680767059326
112, 8118, 8165, 8154, 8156, 8200, 8155, 8175, 8173, 8198, 8147, 8164, 8138, 8155, 8049,0.4934678077697754
112, 8118, 8165, 8154, 8156, 8200, 8155, 8175, 8173, 8198, 8147, 8164, 8138, 8155, 8049,0.4934678077697754
113, 8131, 8157, 8151, 8140, 8187, 8154, 8182, 8188, 8190, 8147, 8171, 8151, 8169, 8058,0.5012426376342773
113, 8131, 8157, 8151, 8140, 8187, 8154, 8182, 8188, 8190, 8147, 8171, 8151, 8169, 8058,0.5012426376342773
114, 8096, 8131, 8136, 8132, 8183, 8138, 8174, 8158, 8169, 8140, 8151, 8126, 8148, 8041,0.5092625617980957
114, 8096, 8131, 8136, 8132, 8183, 8138, 8174, 8158, 8169, 8140, 8151, 8126, 8148, 8041,0.5092625617980957
115, 8119, 8127, 8138, 8140, 8185, 8170, 8155, 8168, 8145, 8129, 8158, 8144, 8166, 8049,0.5174252986907959
115, 8119, 8127, 8138, 8140, 8185, 8170, 8155, 8168, 8145, 8129, 8158, 8144, 8166, 8049,0.5174252986907959
116, 8119, 8146, 8146, 8141, 8180, 8185, 8150, 8172, 8151, 8123, 8164, 8145, 8160, 8041,0.5256533622741699
116, 8119, 8146, 8146, 8141, 8180, 8185, 8150, 8172, 8151, 8123, 8164, 8145, 8160, 8041,0.5256533622741699
117, 8105, 8145, 8145, 8135, 8159, 8169, 8151, 8162, 8173, 8123, 8153, 8134, 8145, 8020,0.5336532592773438
117, 8105, 8145, 8145, 8135, 8159, 8169, 8151, 8162, 8173, 8123, 8153, 8134, 8145, 8020,0.5336532592773438
118, 8127, 8139, 8150, 8138, 8144, 8173, 8152, 8176, 8152, 8126, 8150, 8154, 8164, 8033,0.5417077541351318
118, 8127, 8139, 8150, 8138, 8144, 8173, 8152, 8176, 8152, 8126, 8150, 8154, 8164, 8033,0.5417077541351318
119, 8115, 8149, 8158, 8149, 8176, 8180, 8170, 8163, 8152, 8147, 8158, 8145, 8157, 8057,0.5494680404663086
119, 8115, 8149, 8158, 8149, 8176, 8180, 8170, 8163, 8152, 8147, 8158, 8145, 8157, 8057,0.5494680404663086
120, 8125, 8138, 8154, 8136, 8194, 8181, 8156, 8174, 8164, 8128, 8164, 8154, 8169, 8058,0.5566942691802979
120, 8125, 8138, 8154, 8136, 8194, 8181, 8156, 8174, 8164, 8128, 8164, 8154, 8169, 8058,0.5566942691802979
121, 8119, 8132, 8157, 8135, 8174, 8161, 8139, 8169, 8165, 8105, 8152, 8151, 8160, 8035,0.5646946430206299
121, 8119, 8132, 8157, 8135, 8174, 8161, 8139, 8169, 8165, 8105, 8152, 8151, 8160, 8035,0.5646946430206299
122, 8119, 8155, 8172, 8158, 8174, 8168, 8156, 8153, 8172, 8140, 8157, 8147, 8153, 8048,0.5726938247680664
122, 8119, 8155, 8172, 8158, 8174, 8168, 8156, 8153, 8172, 8140, 8157, 8147, 8153, 8048,0.5726938247680664
123, 8137, 8158, 8170, 8165, 8197, 8181, 8163, 8173, 8162, 8156, 8171, 8161, 8173, 8073,0.5806941986083984
123, 8137, 8158, 8170, 8165, 8197, 8181, 8163, 8173, 8162, 8156, 8171, 8161, 8173, 8073,0.5806941986083984
124, 8116, 8151, 8161, 8171, 8206, 8158, 8166, 8157, 8165, 8142, 8168, 8136, 8152, 8063,0.5886979103088379
124, 8116, 8151, 8161, 8171, 8206, 8158, 8166, 8157, 8165, 8142, 8168, 8136, 8152, 8063,0.5886979103088379
125, 8131, 8159, 8167, 8173, 8183, 8183, 8166, 8155, 8157, 8139, 8175, 8148, 8160, 8071,0.5956966876983643
125, 8131, 8159, 8167, 8173, 8183, 8183, 8166, 8155, 8157, 8139, 8175, 8148, 8160, 8071,0.5966970920562744
126, 8129, 8163, 8174, 8175, 8170, 8198, 8160, 8161, 8138, 8139, 8177, 8161, 8168, 8086,0.60420823097229
126, 8129, 8163, 8174, 8175, 8170, 8198, 8160, 8161, 8138, 8139, 8177, 8161, 8168, 8086,0.60420823097229
127, 8119, 8155, 8175, 8188, 8182, 8159, 8149, 8158, 8134, 8117, 8170, 8153, 8162, 8081,0.6122088432312012
127, 8119, 8155, 8175, 8188, 8182, 8159, 8149, 8158, 8134, 8117, 8170, 8153, 8162, 8081,0.6122088432312012
241, 8129, 8140, 8160, 8175, 8169, 8134, 8123, 8172, 8129, 8093, 8158, 8161, 8172, 8063,0.6202082633972168
241, 8129, 8140, 8160, 8175, 8169, 8134, 8123, 8172, 8129, 8093, 8158, 8161, 8172, 8063,0.6202082633972168
0, 8100, 8138, 8155, 8172, 8151, 8142, 8109, 8149, 8128, 8102, 8149, 8142, 8151, 8047,0.6272120475769043
0, 8100, 8138, 8155, 8172, 8151, 8142, 8109, 8149, 8128, 8102, 8149, 8142, 8151, 8047,0.6272120475769043
1, 8119, 8146, 8164, 8191, 8151, 8168, 8103, 8158, 8111, 8088, 8169, 8163, 8166, 8063,0.6352090835571289
1, 8119, 8146, 8164, 8191, 8151, 8168, 8103, 8158, 8111, 8088, 8169, 8163, 8166, 8063,0.6352090835571289
2, 8122, 8142, 8168, 8189, 8157, 8165, 8107, 8167, 8106, 8078, 8175, 8168, 8169, 8064,0.6432170867919922
2, 8122, 8142, 8168, 8189, 8157, 8165, 8107, 8167, 8106, 8078, 8175, 8168, 8169, 8064,0.6432170867919922
3, 8098, 8136, 8168, 8179, 8154, 8174, 8094, 8141, 8113, 8101, 8165, 8146, 8152, 8048,0.6512296199798584
3, 8098, 8136, 8168, 8179, 8154, 8174, 8094, 8141, 8113, 8101, 8165, 8146, 8152, 8048,0.6512296199798584
4, 8132, 8144, 8174, 8190, 8142, 8193, 8069, 8158, 8103, 8094, 8180, 8176, 8180, 8059,0.6592297554016113
4, 8132, 8144, 8174, 8190, 8142, 8193, 8069, 8158, 8103, 8094, 8180, 8176, 8180, 8059,0.6592297554016113
5, 8134, 8161, 8194, 8214, 8162, 8170, 8094, 8157, 8117, 8103, 8195, 8181, 8168, 8086,0.6674308776855469
5, 8134, 8161, 8194, 8214, 8162, 8170, 8094, 8157, 8117, 8103, 8195, 8181, 8168, 8086,0.6674308776855469
6, 8136, 8158, 8198, 8211, 8174, 8165, 8090, 8152, 8120, 8121, 8193, 8184, 8159, 8097,0.6756150722503662
6, 8136, 8158, 8198, 8211, 8174, 8165, 8090, 8152, 8120, 8121, 8193, 8184, 8159, 8097,0.6756150722503662
7, 8132, 8143, 8184, 8199, 8143, 8173, 8051, 8153, 8104, 8108, 8177, 8180, 8165, 8069,0.6836199760437012
7, 8132, 8143, 8184, 8199, 8143, 8173, 8051, 8153, 8104, 8108, 8177, 8180, 8165, 8069,0.6836199760437012
8, 8121, 8149, 8196, 8214, 8121, 8183, 8073, 8144, 8104, 8107, 8176, 8171, 8153, 8064,0.6906242370605469
8, 8121, 8149, 8196, 8214, 8121, 8183, 8073, 8144, 8104, 8107, 8176, 8171, 8153, 8064,0.6906242370605469
9, 8153, 8159, 8214, 8221, 8129, 8204, 8103, 8173, 8107, 8109, 8189, 8198, 8166, 8090,0.6986229419708252
9, 8153, 8159, 8214, 8221, 8129, 8204, 8103, 8173, 8107, 8109, 8189, 8198, 8166, 8090,0.6986229419708252
10, 8137, 8160, 8209, 8225, 8156, 8179, 8099, 8159, 8135, 8108, 8181, 8181, 8153, 8080,0.7061352729797363
10, 8137, 8160, 8209, 8225, 8156, 8179, 8099, 8159, 8135, 8108, 8181, 8181, 8153, 8080,0.7061352729797363
11, 8134, 8154, 8201, 8224, 8149, 8152, 8086, 8138, 8134, 8103, 8181, 8185, 8153, 8074,0.714468240737915
11, 8134, 8154, 8201, 8224, 8149, 8152, 8086, 8138, 8134, 8103, 8181, 8185, 8153, 8074,0.714468240737915
12, 8149, 8156, 8211, 8226, 8154, 8158, 8090, 8154, 8102, 8121, 8196, 8211, 8168, 8088,0.722470760345459
12, 8149, 8156, 8211, 8226, 8154, 8158, 8090, 8154, 8102, 8121, 8196, 8211, 8168, 8088,0.722470760345459
13, 8136, 8167, 8230, 8244, 8185, 8172, 8108, 8155, 8118, 8161, 8206, 8204, 8160, 8106,0.7304680347442627
13, 8136, 8167, 8230, 8244, 8185, 8172, 8108, 8155, 8118, 8161, 8206, 8204, 8160, 8106,0.7304680347442627
14, 8153, 8167, 8234, 8247, 8156, 8178, 8091, 8175, 8130, 8148, 8209, 8227, 8178, 8122,0.7383377552032471
14, 8153, 8167, 8234, 8247, 8156, 8178, 8091, 8175, 8130, 8148, 8209, 8227, 8178, 8122,0.7383377552032471
15, 8137, 8169, 8233, 8248, 8143, 8147, 8075, 8161, 8125, 8133, 8203, 8223, 8163, 8105,0.7463047504425049
15, 8137, 8169, 8233, 8248, 8143, 8147, 8075, 8161, 8125, 8133, 8203, 8223, 8163, 8105,0.7463047504425049
16, 8147, 8171, 8244, 8254, 8172, 8147, 8082, 8152, 8138, 8150, 8213, 8228, 8161, 8107,0.7533128261566162
16, 8147, 8171, 8244, 8254, 8172, 8147, 8082, 8152, 8138, 8150, 8213, 8228, 8161, 8107,0.7533128261566162
17, 8177, 8176, 8250, 8264, 8167, 8177, 8098, 8180, 8159, 8157, 8223, 8260, 8180, 8130,0.7614719867706299
17, 8177, 8176, 8250, 8264, 8167, 8177, 8098, 8180, 8159, 8157, 8223, 8260, 8180, 8130,0.7614719867706299
18, 8145, 8196, 8256, 8287, 8164, 8162, 8123, 8169, 8162, 8163, 8212, 8248, 8155, 8132,0.7694635391235352
18, 8145, 8196, 8256, 8287, 8164, 8162, 8123, 8169, 8162, 8163, 8212, 8248, 8155, 8132,0.7694635391235352
19, 8159, 8201, 8266, 8287, 8182, 8165, 8124, 8181, 8139, 8170, 8215, 8264, 8172, 8140,0.7774350643157959
19, 8159, 8201, 8266, 8287, 8182, 8165, 8124, 8181, 8139, 8170, 8215, 8264, 8172, 8140,0.7774350643157959
20, 8162, 8188, 8261, 8272, 8201, 8166, 8131, 8175, 8144, 8190, 8211, 8253, 8172, 8140,0.7858784198760986
20, 8162, 8188, 8261, 8272, 8201, 8166, 8131, 8175, 8144, 8190, 8211, 8253, 8172, 8140,0.7858784198760986
21, 8148, 8177, 8243, 8268, 8198, 8155, 8143, 8154, 8170, 8194, 8195, 8232, 8151, 8130,0.793889045715332
21, 8148, 8177, 8243, 8268, 8198, 8155, 8143, 8154, 8170, 8194, 8195, 8232, 8151, 8130,0.793889045715332
22, 8170, 8179, 8239, 8273, 8188, 8163, 8135, 8178, 8169, 8177, 8196, 8261, 8172, 8131,0.8011012077331543
22, 8170, 8179, 8239, 8273, 8188, 8163, 8135, 8178, 8169, 8177, 8196, 8261, 8172, 8131,0.8011012077331543
23, 8162, 8201, 8255, 8292, 8204, 8166, 8148, 8175, 8172, 8196, 8207, 8253, 8163, 8145,0.8090419769287109
23, 8162, 8201, 8255, 8292, 8204, 8166, 8148, 8175, 8172, 8196, 8207, 8253, 8163, 8145,0.8090419769287109
24, 8178, 8208, 8260, 8299, 8210, 8183, 8154, 8178, 8174, 8203, 8219, 8258, 8172, 8168,0.8170359134674072
24, 8178, 8208, 8260, 8299, 8210, 8183, 8154, 8178, 8174, 8203, 8219, 8258, 8172, 8168,0.8170359134674072
25, 8173, 8189, 8252, 8290, 8203, 8174, 8141, 8171, 8170, 8190, 8211, 8261, 8175, 8163,0.8244717121124268
25, 8173, 8189, 8252, 8290, 8203, 8174, 8141, 8171, 8170, 8190, 8211, 8261, 8175, 8163,0.8244717121124268
26, 8162, 8192, 8253, 8290, 8214, 8150, 8132, 8163, 8167, 8183, 8202, 8252, 8163, 8160,0.8323853015899658
26, 8162, 8192, 8253, 8290, 8214, 8150, 8132, 8163, 8167, 8183, 8202, 8252, 8163, 8160,0.8323853015899658
27, 8183, 8213, 8263, 8293, 8218, 8156, 8119, 8185, 8151, 8176, 8213, 8269, 8173, 8164,0.8404710292816162
27, 8183, 8213, 8263, 8293, 8218, 8156, 8119, 8185, 8151, 8176, 8213, 8269, 8173, 8164,0.8404710292816162
28, 8157, 8213, 8263, 8296, 8224, 8157, 8124, 8159, 8150, 8194, 8210, 8254, 8152, 8154,0.8487586975097656
28, 8157, 8213, 8263, 8296, 8224, 8157, 8124, 8159, 8150, 8194, 8210, 8254, 8152, 8154,0.8487586975097656
29, 8159, 8193, 8251, 8284, 8210, 8156, 8122, 8153, 8149, 8183, 8201, 8259, 8164, 8160,0.8568408489227295
29, 8159, 8193, 8251, 8284, 8210, 8156, 8122, 8153, 8149, 8183, 8201, 8259, 8164, 8160,0.8568408489227295
30, 8160, 8183, 8241, 8270, 8190, 8144, 8116, 8166, 8155, 8169, 8198, 8257, 8178, 8163,0.8644704818725586
30, 8160, 8183, 8241, 8270, 8190, 8144, 8116, 8166, 8155, 8169, 8198, 8257, 8178, 8163,0.8644704818725586
31, 8156, 8196, 8246, 8272, 8209, 8152, 8129, 8163, 8168, 8201, 8207, 8252, 8174, 8176,0.8724668025970459
31, 8156, 8196, 8246, 8272, 8209, 8152, 8129, 8163, 8168, 8201, 8207, 8252, 8174, 8176,0.8724668025970459
32, 8177, 8191, 8255, 8265, 8217, 8176, 8123, 8185, 8154, 8194, 8210, 8275, 8181, 8181,0.8804450035095215
32, 8177, 8191, 8255, 8265, 8217, 8176, 8123, 8185, 8154, 8194, 8210, 8275, 8181, 8181,0.8814432621002197
33, 8146, 8186, 8253, 8271, 8201, 8168, 8116, 8165, 8162, 8167, 8197, 8250, 8152, 8152,0.8874361515045166
33, 8146, 8186, 8253, 8271, 8201, 8168, 8116, 8165, 8162, 8167, 8197, 8250, 8152, 8152,0.8874361515045166
34, 8156, 8193, 8248, 8288, 8189, 8173, 8115, 8161, 8169, 8180, 8203, 8256, 8162, 8152,0.8954715728759766
34, 8156, 8193, 8248, 8288, 8189, 8173, 8115, 8161, 8169, 8180, 8203, 8256, 8162, 8152,0.8954715728759766
35, 8165, 8189, 8243, 8278, 8200, 8164, 8124, 8173, 8150, 8199, 8202, 8264, 8176, 8167,0.9034686088562012
35, 8165, 8189, 8243, 8278, 8200, 8164, 8124, 8173, 8150, 8199, 8202, 8264, 8176, 8167,0.9034686088562012
36, 8146, 8183, 8243, 8275, 8215, 8145, 8134, 8158, 8152, 8182, 8194, 8239, 8165, 8166,0.9115095138549805
36, 8146, 8183, 8243, 8275, 8215, 8145, 8134, 8158, 8152, 8182, 8194, 8239, 8165, 8166,0.9115095138549805
37, 8169, 8178, 8247, 8282, 8213, 8152, 8121, 8171, 8154, 8143, 8202, 8249, 8176, 8153,0.9195075035095215
37, 8169, 8178, 8247, 8282, 8213, 8152, 8121, 8171, 8154, 8143, 8202, 8249, 8176, 8153,0.9195075035095215
38, 8147, 8181, 8240, 8286, 8212, 8141, 8118, 8153, 8147, 8152, 8189, 8231, 8152, 8129,0.927546501159668
38, 8147, 8181, 8240, 8286, 8212, 8141, 8118, 8153, 8147, 8152, 8189, 8231, 8152, 8129,0.927546501159668
39, 8151, 8179, 8241, 8282, 8196, 8147, 8111, 8149, 8131, 8171, 8189, 8236, 8157, 8139,0.9354701042175293
39, 8151, 8179, 8241, 8282, 8196, 8147, 8111, 8149, 8131, 8171, 8189, 8236, 8157, 8139,0.9354701042175293
40, 8168, 8183, 8245, 8283, 8195, 8154, 8116, 8171, 8126, 8165, 8204, 8250, 8179, 8161,0.9434680938720703
40, 8168, 8183, 8245, 8283, 8195, 8154, 8116, 8171, 8126, 8165, 8204, 8250, 8179, 8161,0.9434680938720703
41, 8149, 8200, 8242, 8297, 8223, 8145, 8137, 8161, 8128, 8178, 8203, 8228, 8162, 8160,0.9504554271697998
41, 8149, 8200, 8242, 8297, 8223, 8145, 8137, 8161, 8128, 8178, 8203, 8228, 8162, 8160,0.9504554271697998
42, 8170, 8204, 8238, 8296, 8205, 8163, 8116, 8165, 8105, 8179, 8198, 8244, 8171, 8145,0.9584567546844482
42, 8170, 8204, 8238, 8296, 8205, 8163, 8116, 8165, 8105, 8179, 8198, 8244, 8171, 8145,0.9584567546844482
43, 8164, 8208, 8246, 8304, 8189, 8163, 8111, 8154, 8120, 8182, 8196, 8236, 8157, 8137,0.9664685726165771
43, 8164, 8208, 8246, 8304, 8189, 8163, 8111, 8154, 8120, 8182, 8196, 8236, 8157, 8137,0.9664685726165771
44, 8170, 8209, 8253, 8312, 8205, 8154, 8142, 8164, 8154, 8191, 8209, 8232, 8159, 8160,0.9749598503112793
44, 8170, 8209, 8253, 8312, 8205, 8154, 8142, 8164, 8154, 8191, 8209, 8232, 8159, 8160,0.9749598503112793
45, 8176, 8191, 8241, 8288, 8203, 8155, 8160, 8191, 8160, 8198, 8207, 8239, 8177, 8170,0.9824693202972412
45, 8176, 8191, 8241, 8288, 8203, 8155, 8160, 8191, 8160, 8198, 8207, 8239, 8177, 8170,0.9824693202972412
46, 8149, 8182, 8229, 8270, 8195, 8152, 8166, 8176, 8163, 8203, 8188, 8218, 8160, 8160,0.9904687404632568
46, 8149, 8182, 8229, 8270, 8195, 8152, 8166, 8176, 8163, 8203, 8188, 8218, 8160, 8160,0.9909684658050537
47, 8169, 8185, 8232, 8276, 8191, 8159, 8146, 8179, 8137, 8163, 8188, 8235, 8172, 8155,0.9985377788543701
47, 8169, 8185, 8232, 8276, 8191, 8159, 8146, 8179, 8137, 8163, 8188, 8235, 8172, 8155,0.9985377788543701
48, 8160, 8185, 8238, 8289, 8206, 8149, 8133, 8159, 8119, 8157, 8191, 8228, 8155, 8136,1.0070719718933105
48, 8160, 8185, 8238, 8289, 8206, 8149, 8133, 8159, 8119, 8157, 8191, 8228, 8155, 8136,1.0070719718933105
49, 8164, 8180, 8246, 8289, 8210, 8153, 8133, 8147, 8128, 8194, 8202, 8227, 8153, 8150,1.0144681930541992
49, 8164, 8180, 8246, 8289, 8210, 8153, 8133, 8147, 8128, 8194, 8202, 8227, 8153, 8150,1.0144681930541992
50, 8189, 8183, 8257, 8280, 8201, 8158, 8129, 8164, 8120, 8191, 8208, 8249, 8186, 8183,1.0215978622436523
50, 8189, 8183, 8257, 8280, 8201, 8158, 8129, 8164, 8120, 8191, 8208, 8249, 8186, 8183,1.0215978622436523
51, 8169, 8205, 8264, 8304, 8222, 8142, 8128, 8144, 8113, 8181, 8206, 8235, 8174, 8182,1.029604434967041
51, 8169, 8205, 8264, 8304, 8222, 8142, 8128, 8144, 8113, 8181, 8206, 8235, 8174, 8182,1.029604434967041
52, 8191, 8221, 8267, 8328, 8235, 8151, 8126, 8166, 8122, 8198, 8215, 8251, 8177, 8179,1.0376403331756592
52, 8191, 8221, 8267, 8328, 8235, 8151, 8126, 8166, 8122, 8198, 8215, 8251, 8177, 8179,1.0376403331756592
53, 8178, 8207, 8258, 8314, 8219, 8149, 8146, 8181, 8157, 8232, 8207, 8240, 8164, 8171,1.0454683303833008
53, 8178, 8207, 8258, 8314, 8219, 8149, 8146, 8181, 8157, 8232, 8207, 8240, 8164, 8171,1.0454683303833008
54, 8155, 8179, 8238, 8277, 8192, 8153, 8164, 8169, 8179, 8221, 8193, 8220, 8156, 8168,1.0534946918487549
54, 8155, 8179, 8238, 8277, 8192, 8153, 8164, 8169, 8179, 8221, 8193, 8220, 8156, 8168,1.0534946918487549
55, 8172, 8167, 8221, 8254, 8187, 8165, 8160, 8184, 8164, 8179, 8187, 8227, 8174, 8157,1.0614979267120361
55, 8172, 8167, 8221, 8254, 8187, 8165, 8160, 8184, 8164, 8179, 8187, 8227, 8174, 8157,1.0614979267120361
56, 8155, 8172, 8219, 8267, 8216, 8154, 8173, 8171, 8150, 8174, 8177, 8205, 8153, 8129,1.0695595741271973
56, 8155, 8172, 8219, 8267, 8216, 8154, 8173, 8171, 8150, 8174, 8177, 8205, 8153, 8129,1.0695595741271973
57, 8166, 8163, 8220, 8264, 8208, 8171, 8170, 8178, 8144, 8167, 8181, 8220, 8159, 8122,1.077434778213501
57, 8166, 8163, 8220, 8264, 8208, 8171, 8170, 8178, 8144, 8167, 8181, 8220, 8159, 8122,1.077434778213501
58, 8155, 8150, 8210, 8241, 8192, 8169, 8159, 8166, 8151, 8159, 8177, 8214, 8158, 8119,1.0844690799713135
58, 8155, 8150, 8210, 8241, 8192, 8169, 8159, 8166, 8151, 8159, 8177, 8214, 8158, 8119,1.0844690799713135
59, 8145, 8147, 8205, 8243, 8201, 8150, 8158, 8135, 8131, 8162, 8167, 8192, 8152, 8123,1.0925259590148926
59, 8145, 8147, 8205, 8243, 8201, 8150, 8158, 8135, 8131, 8162, 8167, 8192, 8152, 8123,1.0925259590148926
60, 8173, 8149, 8210, 8261, 8180, 8155, 8145, 8150, 8082, 8150, 8175, 8217, 8172, 8133,1.0994629859924316
60, 8173, 8149, 8210, 8261, 8180, 8155, 8145, 8150, 8082, 8150, 8175, 8217, 8172, 8133,1.0994629859924316
61, 8153, 8158, 8214, 8271, 8170, 8145, 8142, 8140, 8088, 8160, 8187, 8221, 8160, 8129,1.1084794998168945
61, 8153, 8158, 8214, 8271, 8170, 8145, 8142, 8140, 8088, 8160, 8187, 8221, 8160, 8129,1.1084794998168945
62, 8169, 8158, 8222, 8253, 8181, 8148, 8132, 8143, 8089, 8166, 8198, 8241, 8172, 8147,1.1164677143096924
62, 8169, 8158, 8222, 8253, 8181, 8148, 8132, 8143, 8089, 8166, 8198, 8241, 8172, 8147,1.1164677143096924
63, 8177, 8164, 8232, 8243, 8180, 8140, 8121, 8154, 8067, 8162, 8197, 8236, 8175, 8160,1.12447190284729
63, 8177, 8164, 8232, 8243, 8180, 8140, 8121, 8154, 8067, 8162, 8197, 8236, 8175, 8160,1.12447190284729
64, 8165, 8182, 8240, 8260, 8192, 8132, 8118, 8158, 8095, 8178, 8201, 8224, 8165, 8169,1.1327452659606934
64, 8165, 8182, 8240, 8260, 8192, 8132, 8118, 8158, 8095, 8178, 8201, 8224, 8165, 8169,1.1327452659606934
65, 8180, 8178, 8233, 8259, 8193, 8153, 8112, 8187, 8135, 8183, 8199, 8241, 8177, 8165,1.1407818794250488
65, 8180, 8178, 8233, 8259, 8193, 8153, 8112, 8187, 8135, 8183, 8199, 8241, 8177, 8165,1.1407818794250488
66, 8148, 8157, 8214, 8239, 8162, 8155, 8145, 8176, 8160, 8188, 8176, 8201, 8150, 8136,1.147434949874878
66, 8148, 8157, 8214, 8239, 8162, 8155, 8145, 8176, 8160, 8188, 8176, 8201, 8150, 8136,1.1477837562561035
67, 8148, 8136, 8198, 8214, 8145, 8158, 8171, 8183, 8164, 8174, 8167, 8192, 8157, 8122,1.15474271774292
67, 8148, 8136, 8198, 8214, 8145, 8158, 8171, 8183, 8164, 8174, 8167, 8192, 8157, 8122,1.1557397842407227
68, 8150, 8128, 8185, 8206, 8177, 8149, 8164, 8190, 8162, 8156, 8162, 8198, 8167, 8105,1.1637380123138428
68, 8150, 8128, 8185, 8206, 8177, 8149, 8164, 8190, 8162, 8156, 8162, 8198, 8167, 8105,1.1637380123138428
69, 8136, 8132, 8184, 8213, 8194, 8142, 8154, 8156, 8166, 8147, 8161, 8185, 8150, 8088,1.1714720726013184
69, 8136, 8132, 8184, 8213, 8194, 8142, 8154, 8156, 8166, 8147, 8161, 8185, 8150, 8088,1.1714720726013184
70, 8168, 8132, 8194, 8207, 8157, 8158, 8133, 8161, 8144, 8118, 8174, 8213, 8169, 8088,1.179471731185913
70, 8168, 8132, 8194, 8207, 8157, 8158, 8133, 8161, 8144, 8118, 8174, 8213, 8169, 8088,1.179471731185913
71, 8157, 8151, 8207, 8223, 8161, 8147, 8134, 8147, 8125, 8118, 8169, 8208, 8156, 8087,1.1874804496765137
71, 8157, 8151, 8207, 8223, 8161, 8147, 8134, 8147, 8125, 8118, 8169, 8208, 8156, 8087,1.1874804496765137
72, 8169, 8170, 8220, 8246, 8182, 8149, 8137, 8135, 8113, 8124, 8169, 8216, 8151, 8099,1.1954724788665771
72, 8169, 8170, 8220, 8246, 8182, 8149, 8137, 8135, 8113, 8124, 8169, 8216, 8151, 8099,1.1954724788665771
73, 8183, 8163, 8226, 8242, 8184, 8151, 8135, 8145, 8117, 8121, 8175, 8227, 8162, 8108,1.202871322631836
73, 8183, 8163, 8226, 8242, 8184, 8151, 8135, 8145, 8117, 8121, 8175, 8227, 8162, 8108,1.2038655281066895
74, 8161, 8163, 8235, 8246, 8206, 8146, 8159, 8156, 8159, 8153, 8172, 8206, 8154, 8121,1.2108643054962158
74, 8161, 8163, 8235, 8246, 8206, 8146, 8159, 8156, 8159, 8153, 8172, 8206, 8154, 8121,1.2118637561798096
75, 8181, 8165, 8236, 8249, 8197, 8170, 8178, 8203, 8183, 8172, 8178, 8222, 8173, 8150,1.2182106971740723
75, 8181, 8165, 8236, 8249, 8197, 8170, 8178, 8203, 8183, 8172, 8178, 8222, 8173, 8150,1.2182106971740723
76, 8164, 8153, 8221, 8232, 8182, 8175, 8196, 8196, 8194, 8165, 8175, 8213, 8161, 8142,1.226473331451416
76, 8164, 8153, 8221, 8232, 8182, 8175, 8196, 8196, 8194, 8165, 8175, 8213, 8161, 8142,1.226473331451416
77, 8153, 8137, 8204, 8202, 8174, 8171, 8198, 8180, 8185, 8151, 8167, 8209, 8155, 8116,1.2345497608184814
77, 8153, 8137, 8204, 8202, 8174, 8171, 8198, 8180, 8185, 8151, 8167, 8209, 8155, 8116,1.2345497608184814
78, 8149, 8118, 8178, 8177, 8152, 8151, 8174, 8188, 8151, 8134, 8155, 8206, 8163, 8089,1.2425520420074463
78, 8149, 8118, 8178, 8177, 8152, 8151, 8174, 8188, 8151, 8134, 8155, 8206, 8163, 8089,1.2425520420074463
79, 8123, 8106, 8164, 8176, 8150, 8137, 8168, 8161, 8143, 8127, 8148, 8179, 8144, 8072,1.2504703998565674
79, 8123, 8106, 8164, 8176, 8150, 8137, 8168, 8161, 8143, 8127, 8148, 8179, 8144, 8072,1.2504703998565674
80, 8161, 8121, 8184, 8182, 8155, 8165, 8174, 8176, 8155, 8127, 8170, 8217, 8166, 8090,1.2584049701690674
80, 8161, 8121, 8184, 8182, 8155, 8165, 8174, 8176, 8155, 8127, 8170, 8217, 8166, 8090,1.2584049701690674
81, 8157, 8146, 8202, 8193, 8161, 8153, 8173, 8162, 8158, 8144, 8173, 8214, 8151, 8099,1.2662734985351562
81, 8157, 8146, 8202, 8193, 8161, 8153, 8173, 8162, 8158, 8144, 8173, 8214, 8151, 8099,1.2662734985351562
82, 8151, 8141, 8205, 8199, 8163, 8140, 8149, 8123, 8119, 8131, 8165, 8191, 8142, 8095,1.2742724418640137
82, 8151, 8141, 8205, 8199, 8163, 8140, 8149, 8123, 8119, 8131, 8165, 8191, 8142, 8095,1.2742724418640137
83, 8169, 8127, 8203, 8185, 8167, 8154, 8127, 8126, 8069, 8084, 8164, 8211, 8171, 8092,1.2826871871948242
83, 8169, 8127, 8203, 8185, 8167, 8154, 8127, 8126, 8069, 8084, 8164, 8211, 8171, 8092,1.2826871871948242
84, 8137, 8134, 8188, 8185, 8176, 8138, 8137, 8114, 8068, 8075, 8155, 8185, 8149, 8080,1.2896907329559326
84, 8137, 8134, 8188, 8185, 8176, 8138, 8137, 8114, 8068, 8075, 8155, 8185, 8149, 8080,1.2896907329559326
85, 8144, 8129, 8174, 8188, 8156, 8134, 8137, 8137, 8069, 8067, 8153, 8181, 8157, 8071,1.2974328994750977
85, 8144, 8129, 8174, 8188, 8156, 8134, 8137, 8137, 8069, 8067, 8153, 8181, 8157, 8071,1.2974328994750977
86, 8137, 8121, 8171, 8171, 8150, 8142, 8145, 8158, 8078, 8070, 8146, 8181, 8159, 8047,1.3049688339233398
86, 8137, 8121, 8171, 8171, 8150, 8142, 8145, 8158, 8078, 8070, 8146, 8181, 8159, 8047,1.3049688339233398
87, 8138, 8134, 8178, 8167, 8167, 8166, 8181, 8164, 8111, 8111, 8151, 8181, 8145, 8050,1.3129684925079346
87, 8138, 8134, 8178, 8167, 8167, 8166, 8181, 8164, 8111, 8111, 8151, 8181, 8145, 8050,1.3129684925079346
88, 8166, 8139, 8183, 8187, 8176, 8183, 8199, 8189, 8138, 8130, 8165, 8204, 8163, 8077,1.3217763900756836
88, 8166, 8139, 8183, 8187, 8176, 8183, 8199, 8189, 8138, 8130, 8165, 8204, 8163, 8077,1.3217763900756836
89, 8153, 8148, 8191, 8204, 8200, 8158, 8215, 8169, 8168, 8141, 8163, 8191, 8156, 8092,1.3297760486602783
89, 8153, 8148, 8191, 8204, 8200, 8158, 8215, 8169, 8168, 8141, 8163, 8191, 8156, 8092,1.3297760486602783
90, 8173, 8156, 8197, 8184, 8209, 8166, 8215, 8172, 8166, 8143, 8171, 8208, 8170, 8107,1.337435245513916
90, 8173, 8156, 8197, 8184, 8209, 8166, 8215, 8172, 8166, 8143, 8171, 8208, 8170, 8107,1.337435245513916
91, 8162, 8156, 8191, 8181, 8205, 8184, 8203, 8170, 8155, 8140, 8174, 8215, 8172, 8102,1.3441886901855469
91, 8162, 8156, 8191, 8181, 8205, 8184, 8203, 8170, 8155, 8140, 8174, 8215, 8172, 8102,1.3441886901855469
92, 8144, 8168, 8196, 8215, 8198, 8179, 8186, 8146, 8159, 8133, 8173, 8208, 8163, 8095,1.3521754741668701
92, 8144, 8168, 8196, 8215, 8198, 8179, 8186, 8146, 8159, 8133, 8173, 8208, 8163, 8095,1.3521754741668701
93, 8168, 8173, 8204, 8215, 8187, 8174, 8163, 8154, 8137, 8110, 8172, 8224, 8171, 8090,1.360442876815796
93, 8168, 8173, 8204, 8215, 8187, 8174, 8163, 8154, 8137, 8110, 8172, 8224, 8171, 8090,1.360442876815796
94, 8152, 8164, 8200, 8201, 8197, 8162, 8170, 8140, 8117, 8114, 8163, 8204, 8145, 8077,1.3687465190887451
94, 8152, 8164, 8200, 8201, 8197, 8162, 8170, 8140, 8117, 8114, 8163, 8204, 8145, 8077,1.3687465190887451
95, 8166, 8148, 8186, 8191, 8196, 8166, 8160, 8137, 8092, 8102, 8162, 8208, 8156, 8070,1.3767452239990234
95, 8166, 8148, 8186, 8191, 8196, 8166, 8160, 8137, 8092, 8102, 8162, 8208, 8156, 8070,1.3767452239990234
96, 8163, 8137, 8173, 8184, 8189, 8160, 8151, 8130, 8074, 8088, 8157, 8199, 8160, 8054,1.3844420909881592
96, 8163, 8137, 8173, 8184, 8189, 8160, 8151, 8130, 8074, 8088, 8157, 8199, 8160, 8054,1.3844420909881592
97, 8152, 8133, 8177, 8177, 8194, 8177, 8185, 8138, 8098, 8106, 8157, 8188, 8150, 8055,1.3924579620361328
97, 8152, 8133, 8177, 8177, 8194, 8177, 8185, 8138, 8098, 8106, 8157, 8188, 8150, 8055,1.3924579620361328
98, 8175, 8133, 8177, 8161, 8175, 8206, 8210, 8188, 8126, 8108, 8165, 8216, 8169, 8060,1.3994462490081787
98, 8175, 8133, 8177, 8161, 8175, 8206, 8210, 8188, 8126, 8108, 8165, 8216, 8169, 8060,1.3994462490081787
99, 8146, 8134, 8167, 8160, 8162, 8186, 8216, 8175, 8155, 8111, 8156, 8190, 8151, 8040,1.4074344635009766
99, 8146, 8134, 8167, 8160, 8162, 8186, 8216, 8175, 8155, 8111, 8156, 8190, 8151, 8040,1.4074344635009766
100, 8145, 8112, 8159, 8151, 8153, 8186, 8183, 8164, 8155, 8104, 8152, 8185, 8154, 8031,1.4153523445129395
100, 8145, 8112, 8159, 8151, 8153, 8186, 8183, 8164, 8155, 8104, 8152, 8185, 8154, 8031,1.4153523445129395
101, 8152, 8103, 8162, 8150, 8141, 8190, 8148, 8169, 8148, 8106, 8155, 8200, 8156, 8026,1.4233479499816895
101, 8152, 8103, 8162, 8150, 8141, 8190, 8148, 8169, 8148, 8106, 8155, 8200, 8156, 8026,1.4233479499816895
102, 8148, 8125, 8180, 8178, 8151, 8177, 8137, 8159, 8164, 8129, 8171, 8208, 8156, 8048,1.4314703941345215
102, 8148, 8125, 8180, 8178, 8151, 8177, 8137, 8159, 8164, 8129, 8171, 8208, 8156, 8048,1.4314703941345215
103, 8166, 8123, 8187, 8172, 8160, 8165, 8112, 8166, 8150, 8123, 8183, 8229, 8183, 8082,1.439375877380371
103, 8166, 8123, 8187, 8172, 8160, 8165, 8112, 8166, 8150, 8123, 8183, 8229, 8183, 8082,1.439375877380371
104, 8138, 8111, 8182, 8156, 8159, 8140, 8107, 8144, 8133, 8123, 8170, 8206, 8164, 8078,1.4473686218261719
104, 8138, 8111, 8182, 8156, 8159, 8140, 8107, 8144, 8133, 8123, 8170, 8206, 8164, 8078,1.4473686218261719
105, 8148, 8113, 8176, 8156, 8143, 8146, 8118, 8146, 8108, 8110, 8166, 8210, 8171, 8072,1.4556758403778076
105, 8148, 8113, 8176, 8156, 8143, 8146, 8118, 8146, 8108, 8110, 8166, 8210, 8171, 8072,1.4556758403778076
106, 8139, 8104, 8153, 8143, 8137, 8157, 8128, 8149, 8076, 8077, 8148, 8191, 8169, 8042,1.463672399520874
106, 8139, 8104, 8153, 8143, 8137, 8157, 8128, 8149, 8076, 8077, 8148, 8191, 8169, 8042,1.463672399520874
107, 8108, 8097, 8139, 8140, 8158, 8168, 8151, 8132, 8085, 8070, 8139, 8156, 8143, 8015,1.471672534942627
107, 8108, 8097, 8139, 8140, 8158, 8168, 8151, 8132, 8085, 8070, 8139, 8156, 8143, 8015,1.471672534942627
108, 8143, 8105, 8146, 8142, 8161, 8184, 8167, 8164, 8116, 8080, 8160, 8192, 8165, 8039,1.478470802307129
108, 8143, 8105, 8146, 8142, 8161, 8184, 8167, 8164, 8116, 8080, 8160, 8192, 8165, 8039,1.478470802307129
109, 8118, 8112, 8148, 8137, 8159, 8162, 8187, 8160, 8148, 8105, 8156, 8177, 8149, 8045,1.486504316329956
109, 8118, 8112, 8148, 8137, 8159, 8162, 8187, 8160, 8148, 8105, 8156, 8177, 8149, 8045,1.486504316329956
110, 8105, 8105, 8141, 8142, 8145, 8161, 8179, 8153, 8154, 8115, 8153, 8165, 8143, 8036,1.494502067565918
110, 8105, 8105, 8141, 8142, 8145, 8161, 8179, 8153, 8154, 8115, 8153, 8165, 8143, 8036,1.494502067565918
111, 8129, 8108, 8141, 8151, 8147, 8161, 8162, 8166, 8158, 8121, 8164, 8187, 8154, 8048,1.5028014183044434
111, 8129, 8108, 8141, 8151, 8147, 8161, 8162, 8166, 8158, 8121, 8164, 8187, 8154, 8048,1.5028014183044434
112, 8127, 8130, 8163, 8157, 8177, 8143, 8172, 8150, 8184, 8158, 8171, 8190, 8144, 8081,1.5098087787628174
112, 8127, 8130, 8163, 8157, 8177, 8143, 8172, 8150, 8184, 8158, 8171, 8190, 8144, 8081,1.5108082294464111
113, 8150, 8140, 8183, 8171, 8174, 8146, 8156, 8160, 8178, 8164, 8177, 8212, 8166, 8112,1.5188088417053223
113, 8150, 8140, 8183, 8171, 8174, 8146, 8156, 8160, 8178, 8164, 8177, 8212, 8166, 8112,1.5188088417053223
114, 8131, 8147, 8178, 8202, 8182, 8133, 8128, 8144, 8165, 8146, 8168, 8193, 8154, 8106,1.5264744758605957
114, 8131, 8147, 8178, 8202, 8182, 8133, 8128, 8144, 8165, 8146, 8168, 8193, 8154, 8106,1.5264744758605957
115, 8137, 8154, 8177, 8209, 8207, 8133, 8105, 8130, 8155, 8134, 8163, 8190, 8144, 8101,1.5343561172485352
115, 8137, 8154, 8177, 8209, 8207, 8133, 8105, 8130, 8155, 8134, 8163, 8190, 8144, 8101,1.5343561172485352
116, 8154, 8144, 8173, 8185, 8197, 8146, 8105, 8141, 8142, 8127, 8155, 8194, 8147, 8086,1.5412602424621582
116, 8154, 8144, 8173, 8185, 8197, 8146, 8105, 8141, 8142, 8127, 8155, 8194, 8147, 8086,1.5412602424621582
117, 8130, 8135, 8161, 8177, 8178, 8150, 8152, 8128, 8157, 8133, 8149, 8170, 8129, 8070,1.5494604110717773
117, 8130, 8135, 8161, 8177, 8178, 8150, 8152, 8128, 8157, 8133, 8149, 8170, 8129, 8070,1.5494604110717773
118, 8149, 8127, 8155, 8169, 8180, 8166, 8192, 8146, 8168, 8128, 8156, 8200, 8153, 8085,1.5574369430541992
118, 8149, 8127, 8155, 8169, 8180, 8166, 8192, 8146, 8168, 8128, 8156, 8200, 8153, 8085,1.5574369430541992
119, 8134, 8123, 8148, 8166, 8197, 8154, 8209, 8147, 8183, 8133, 8149, 8193, 8149, 8082,1.5654582977294922
119, 8134, 8123, 8148, 8166, 8197, 8154, 8209, 8147, 8183, 8133, 8149, 8193, 8149, 8082,1.5654582977294922
120, 8124, 8111, 8138, 8161, 8189, 8151, 8198, 8148, 8191, 8130, 8151, 8179, 8144, 8070,1.5734446048736572
120, 8124, 8111, 8138, 8161, 8189, 8151, 8198, 8148, 8191, 8130, 8151, 8179, 8144, 8070,1.5734446048736572
121, 8141, 8086, 8130, 8132, 8164, 8161, 8176, 8172, 8175, 8113, 8156, 8196, 8163, 8065,1.581472635269165
121, 8141, 8086, 8130, 8132, 8164, 8161, 8176, 8172, 8175, 8113, 8156, 8196, 8163, 8065,1.581472635269165
122, 8123, 8085, 8136, 8135, 8174, 8144, 8177, 8161, 8178, 8118, 8153, 8185, 8152, 8063,1.5888941287994385
122, 8123, 8085, 8136, 8135, 8174, 8144, 8177, 8161, 8178, 8118, 8153, 8185, 8152, 8063,1.5898942947387695
123, 8151, 8106, 8157, 8163, 8186, 8157, 8166, 8178, 8192, 8132, 8169, 8210, 8167, 8079,1.5968940258026123
123, 8151, 8106, 8157, 8163, 8186, 8157, 8166, 8178, 8192, 8132, 8169, 8210, 8167, 8079,1.5968940258026123
124, 8162, 8124, 8170, 8180, 8184, 8168, 8157, 8178, 8213, 8160, 8176, 8220, 8163, 8087,1.6054627895355225
124, 8162, 8124, 8170, 8180, 8184, 8168, 8157, 8178, 8213, 8160, 8176, 8220, 8163, 8087,1.6054627895355225
125, 8164, 8137, 8183, 8194, 8194, 8167, 8159, 8155, 8208, 8177, 8179, 8218, 8159, 8099,1.6119112968444824
125, 8164, 8137, 8183, 8194, 8194, 8167, 8159, 8155, 8208, 8177, 8179, 8218, 8159, 8099,1.6129035949707031
126, 8182, 8151, 8200, 8210, 8206, 8176, 8154, 8164, 8175, 8165, 8192, 8244, 8177, 8112,1.6199111938476562
126, 8182, 8151, 8200, 8210, 8206, 8176, 8154, 8164, 8175, 8165, 8192, 8244, 8177, 8112,1.6209030151367188
127, 8155, 8158, 8208, 8222, 8214, 8166, 8147, 8139, 8166, 8168, 8190, 8227, 8150, 8117,1.628462553024292
127, 8155, 8158, 8208, 8222, 8214, 8166, 8147, 8139, 8166, 8168, 8190, 8227, 8150, 8117,1.628462553024292
241, 8172, 8151, 8206, 8216, 8189, 8157, 8120, 8131, 8143, 8158, 8186, 8236, 8165, 8127,1.636470079421997
241, 8172, 8151, 8206, 8216, 8189, 8157, 8120, 8131, 8143, 8158, 8186, 8236, 8165, 8127,1.636470079421997
0, 8173, 8143, 8197, 8215, 8173, 8148, 8115, 8148, 8137, 8160, 8186, 8242, 8181, 8126,1.6444802284240723
0, 8173, 8143, 8197, 8215, 8173, 8148, 8115, 8148, 8137, 8160, 8186, 8242, 8181, 8126,1.6444802284240723
1, 8152, 8138, 8191, 8206, 8189, 8154, 8143, 8162, 8180, 8186, 8187, 8224, 8163, 8122,1.6524677276611328
1, 8152, 8138, 8191, 8206, 8189, 8154, 8143, 8162, 8180, 8186, 8187, 8224, 8163, 8122,1.6524677276611328
2, 8163, 8127, 8169, 8169, 8182, 8164, 8149, 8195, 8196, 8159, 8178, 8228, 8166, 8097,1.660468578338623
2, 8163, 8127, 8169, 8169, 8182, 8164, 8149, 8195, 8196, 8159, 8178, 8228, 8166, 8097,1.660468578338623
3, 8131, 8114, 8139, 8147, 8171, 8149, 8162, 8180, 8194, 8132, 8157, 8200, 8149, 8044,1.668468952178955
3, 8131, 8114, 8139, 8147, 8171, 8149, 8162, 8180, 8194, 8132, 8157, 8200, 8149, 8044,1.668468952178955
4, 8130, 8094, 8127, 8127, 8154, 8163, 8164, 8169, 8189, 8122, 8153, 8196, 8154, 8030,1.6754679679870605
4, 8130, 8094, 8127, 8127, 8154, 8163, 8164, 8169, 8189, 8122, 8153, 8196, 8154, 8030,1.6754679679870605
5, 8135, 8082, 8132, 8109, 8135, 8167, 8154, 8170, 8175, 8119, 8154, 8192, 8155, 8036,1.6834702491760254
5, 8135, 8082, 8132, 8109, 8135, 8167, 8154, 8170, 8175, 8119, 8154, 8192, 8155, 8036,1.6834702491760254
6, 8128, 8096, 8143, 8122, 8141, 8159, 8165, 8149, 8169, 8135, 8157, 8178, 8143, 8038,1.691472053527832
6, 8128, 8096, 8143, 8122, 8141, 8159, 8165, 8149, 8169, 8135, 8157, 8178, 8143, 8038,1.691472053527832
7, 8153, 8102, 8147, 8127, 8151, 8172, 8163, 8159, 8149, 8130, 8162, 8210, 8167, 8056,1.699472188949585
7, 8153, 8102, 8147, 8127, 8151, 8172, 8163, 8159, 8149, 8130, 8162, 8210, 8167, 8056,1.699472188949585
8, 8142, 8110, 8156, 8137, 8161, 8168, 8156, 8144, 8130, 8121, 8161, 8208, 8162, 8065,1.7069852352142334
8, 8142, 8110, 8156, 8137, 8161, 8168, 8156, 8144, 8130, 8121, 8161, 8208, 8162, 8065,1.707984447479248
9, 8164, 8127, 8170, 8163, 8159, 8162, 8143, 8133, 8104, 8103, 8168, 8216, 8170, 8076,1.7149827480316162
9, 8164, 8127, 8170, 8163, 8159, 8162, 8143, 8133, 8104, 8103, 8168, 8216, 8170, 8076,1.7149827480316162
10, 8185, 8132, 8174, 8167, 8157, 8148, 8129, 8141, 8084, 8093, 8177, 8232, 8183, 8085,1.7229831218719482
10, 8185, 8132, 8174, 8167, 8157, 8148, 8129, 8141, 8084, 8093, 8177, 8232, 8183, 8085,1.7229831218719482
11, 8171, 8139, 8182, 8158, 8162, 8143, 8141, 8143, 8113, 8131, 8184, 8220, 8164, 8097,1.730983018875122
11, 8171, 8139, 8182, 8158, 8162, 8143, 8141, 8143, 8113, 8131, 8184, 8220, 8164, 8097,1.730983018875122
12, 8189, 8137, 8184, 8158, 8154, 8177, 8155, 8177, 8130, 8149, 8189, 8235, 8176, 8106,1.7389836311340332
12, 8189, 8137, 8184, 8158, 8154, 8177, 8155, 8177, 8130, 8149, 8189, 8235, 8176, 8106,1.7389836311340332
13, 8160, 8126, 8166, 8162, 8173, 8177, 8177, 8169, 8132, 8133, 8168, 8207, 8163, 8079,1.745983362197876
13, 8160, 8126, 8166, 8162, 8173, 8177, 8177, 8169, 8132, 8133, 8168, 8207, 8163, 8079,1.745983362197876
14, 8152, 8116, 8154, 8151, 8184, 8184, 8199, 8164, 8150, 8128, 8160, 8188, 8160, 8061,1.754070520401001
14, 8152, 8116, 8154, 8151, 8184, 8184, 8199, 8164, 8150, 8128, 8160, 8188, 8160, 8061,1.754070520401001
15, 8160, 8106, 8137, 8123, 8150, 8203, 8198, 8187, 8170, 8145, 8164, 8196, 8170, 8051,1.7620491981506348
15, 8160, 8106, 8137, 8123, 8150, 8203, 8198, 8187, 8170, 8145, 8164, 8196, 8170, 8051,1.7620491981506348
16, 8127, 8092, 8122, 8111, 8138, 8192, 8189, 8165, 8179, 8152, 8158, 8178, 8152, 8037,1.7700490951538086
16, 8127, 8092, 8122, 8111, 8138, 8192, 8189, 8165, 8179, 8152, 8158, 8178, 8152, 8037,1.7700490951538086
17, 8153, 8095, 8133, 8112, 8147, 8195, 8170, 8171, 8166, 8124, 8167, 8200, 8175, 8043,1.7784702777862549
17, 8153, 8095, 8133, 8112, 8147, 8195, 8170, 8171, 8166, 8124, 8167, 8200, 8175, 8043,1.7784702777862549
18, 8154, 8132, 8151, 8131, 8154, 8183, 8171, 8168, 8182, 8132, 8166, 8187, 8165, 8038,1.7860591411590576
18, 8154, 8132, 8151, 8131, 8154, 8183, 8171, 8168, 8182, 8132, 8166, 8187, 8165, 8038,1.7860591411590576
19, 8155, 8154, 8167, 8162, 8156, 8181, 8179, 8159, 8199, 8167, 8176, 8177, 8155, 8052,1.7940828800201416
19, 8155, 8154, 8167, 8162, 8156, 8181, 8179, 8159, 8199, 8167, 8176, 8177, 8155, 8052,1.7940828800201416
20, 8188, 8141, 8180, 8163, 8152, 8193, 8161, 8178, 8170, 8160, 8195, 8215, 8194, 8085,1.801074504852295
20, 8188, 8141, 8180, 8163, 8152, 8193, 8161, 8178, 8170, 8160, 8195, 8215, 8194, 8085,1.801074504852295
21, 8160, 8140, 8181, 8157, 8148, 8171, 8143, 8150, 8152, 8144, 8180, 8180, 8169, 8077,1.8092842102050781
21, 8160, 8140, 8181, 8157, 8148, 8171, 8143, 8150, 8152, 8144, 8180, 8180, 8169, 8077,1.8092842102050781
22, 8174, 8150, 8181, 8166, 8125, 8166, 8127, 8150, 8140, 8131, 8175, 8172, 8164, 8074,1.81727933883667
22, 8174, 8150, 8181, 8166, 8125, 8166, 8127, 8150, 8140, 8131, 8175, 8172, 8164, 8074,1.81727933883667
23, 8182, 8153, 8185, 8178, 8134, 8165, 8133, 8173, 8138, 8150, 8187, 8197, 8175, 8089,1.8254458904266357
23, 8182, 8153, 8185, 8178, 8134, 8165, 8133, 8173, 8138, 8150, 8187, 8197, 8175, 8089,1.8254458904266357
24, 8169, 8156, 8184, 8176, 8177, 8175, 8155, 8173, 8159, 8175, 8181, 8184, 8164, 8097,1.8334801197052002
24, 8169, 8156, 8184, 8176, 8177, 8175, 8155, 8173, 8159, 8175, 8181, 8184, 8164, 8097,1.8334801197052002
25, 8188, 8147, 8174, 8159, 8168, 8199, 8172, 8191, 8162, 8161, 8174, 8190, 8178, 8094,1.8414738178253174
25, 8188, 8147, 8174, 8159, 8168, 8199, 8172, 8191, 8162, 8161, 8174, 8190, 8178, 8094,1.8414738178253174
26, 8160, 8135, 8165, 8147, 8149, 8197, 8208, 8176, 8170, 8171, 8168, 8170, 8160, 8078,1.8494789600372314
26, 8160, 8135, 8165, 8147, 8149, 8197, 8208, 8176, 8170, 8171, 8168, 8170, 8160, 8078,1.8494789600372314
27, 8149, 8121, 8148, 8123, 8156, 8200, 8207, 8171, 8165, 8163, 8163, 8160, 8156, 8067,1.8578376770019531
27, 8149, 8121, 8148, 8123, 8156, 8200, 8207, 8171, 8165, 8163, 8163, 8160, 8156, 8067,1.8578376770019531
28, 8148, 8110, 8137, 8109, 8159, 8194, 8179, 8172, 8140, 8116, 8160, 8158, 8169, 8056,1.8653173446655273
28, 8148, 8110, 8137, 8109, 8159, 8194, 8179, 8172, 8140, 8116, 8160, 8158, 8169, 8056,1.8653173446655273
29, 8153, 8134, 8152, 8137, 8160, 8186, 8180, 8156, 8141, 8114, 8165, 8158, 8166, 8061,1.8723034858703613
29, 8153, 8134, 8152, 8137, 8160, 8186, 8180, 8156, 8141, 8114, 8165, 8158, 8166, 8061,1.8723034858703613
30, 8179, 8165, 8172, 8160, 8175, 8193, 8178, 8168, 8155, 8134, 8173, 8182, 8176, 8079,1.8804633617401123
30, 8179, 8165, 8172, 8160, 8175, 8193, 8178, 8168, 8155, 8134, 8173, 8182, 8176, 8079,1.8804633617401123
31, 8163, 8188, 8179, 8170, 8200, 8187, 8185, 8162, 8177, 8149, 8174, 8164, 8162, 8087,1.8884809017181396
31, 8163, 8188, 8179, 8170, 8200, 8187, 8185, 8162, 8177, 8149, 8174, 8164, 8162, 8087,1.8884809017181396
32, 8179, 8197, 8182, 8171, 8184, 8195, 8187, 8169, 8174, 8146, 8183, 8173, 8172, 8101,1.8964817523956299
32, 8179, 8197, 8182, 8171, 8184, 8195, 8187, 8169, 8174, 8146, 8183, 8173, 8172, 8101,1.8964817523956299
33, 8177, 8186, 8179, 8162, 8167, 8190, 8184, 8171, 8164, 8148, 8177, 8169, 8171, 8098,1.9044451713562012
33, 8177, 8186, 8179, 8162, 8167, 8190, 8184, 8171, 8164, 8148, 8177, 8169, 8171, 8098,1.9044451713562012
34, 8157, 8170, 8174, 8153, 8183, 8174, 8188, 8154, 8171, 8167, 8171, 8138, 8154, 8097,1.9124541282653809
34, 8157, 8170, 8174, 8153, 8183, 8174, 8188, 8154, 8171, 8167, 8171, 8138, 8154, 8097,1.9124541282653809
35, 8185, 8172, 8176, 8154, 8176, 8178, 8178, 8177, 8158, 8153, 8183, 8160, 8180, 8107,1.9204540252685547
35, 8185, 8172, 8176, 8154, 8176, 8178, 8178, 8177, 8158, 8153, 8183, 8160, 8180, 8107,1.9204540252685547
36, 8164, 8176, 8170, 8168, 8172, 8168, 8178, 8167, 8149, 8129, 8170, 8141, 8167, 8087,1.9284701347351074
36, 8164, 8176, 8170, 8168, 8172, 8168, 8178, 8167, 8149, 8129, 8170, 8141, 8167, 8087,1.9284701347351074
37, 8164, 8154, 8155, 8157, 8164, 8172, 8169, 8170, 8145, 8112, 8158, 8132, 8166, 8074,1.9353420734405518
37, 8164, 8154, 8155, 8157, 8164, 8172, 8169, 8170, 8145, 8112, 8158, 8132, 8166, 8074,1.9353420734405518
38, 8166, 8139, 8144, 8136, 8148, 8183, 8157, 8189, 8154, 8119, 8156, 8128, 8169, 8057,1.9433562755584717
38, 8166, 8139, 8144, 8136, 8148, 8183, 8157, 8189, 8154, 8119, 8156, 8128, 8169, 8057,1.9433562755584717
39, 8147, 8147, 8147, 8142, 8157, 8187, 8169, 8170, 8174, 8139, 8157, 8109, 8149, 8040,1.9514706134796143
39, 8147, 8147, 8147, 8142, 8157, 8187, 8169, 8170, 8174, 8139, 8157, 8109, 8149, 8040,1.9514706134796143
40, 8179, 8149, 8163, 8149, 8156, 8196, 8171, 8178, 8175, 8117, 8162, 8141, 8168, 8053,1.9594697952270508
40, 8179, 8149, 8163, 8149, 8156, 8196, 8171, 8178, 8175, 8117, 8162, 8141, 8168, 8053,1.9594697952270508
41, 8163, 8154, 8165, 8161, 8152, 8176, 8169, 8163, 8179, 8104, 8154, 8129, 8154, 8052,1.9673864841461182
41, 8163, 8154, 8165, 8161, 8152, 8176, 8169, 8163, 8179, 8104, 8154, 8129, 8154, 8052,1.9673864841461182
42, 8157, 8155, 8158, 8167, 8156, 8173, 8151, 8152, 8162, 8109, 8153, 8120, 8157, 8049,1.9753873348236084
42, 8157, 8155, 8158, 8167, 8156, 8173, 8151, 8152, 8162, 8109, 8153, 8120, 8157, 8049,1.9753873348236084
43, 8168, 8149, 8157, 8157, 8169, 8178, 8140, 8160, 8129, 8114, 8160, 8131, 8174, 8057,1.9837391376495361
43, 8168, 8149, 8157, 8157, 8169, 8178, 8140, 8160, 8129, 8114, 8160, 8131, 8174, 8057,1.9837391376495361
44, 8155, 8154, 8158, 8160, 8184, 8170, 8153, 8144, 8121, 8112, 8159, 8117, 8160, 8066,1.991755723953247
44, 8155, 8154, 8158, 8160, 8184, 8170, 8153, 8144, 8121, 8112, 8159, 8117, 8160, 8066,1.991755723953247
45, 8178, 8152, 8149, 8157, 8168, 8179, 8140, 8162, 8116, 8089, 8163, 8132, 8175, 8067,1.9984705448150635
45, 8178, 8152, 8149, 8157, 8168, 8179, 8140, 8162, 8116, 8089, 8163, 8132, 8175, 8067,1.9984705448150635
46, 8156, 8155, 8144, 8157, 8167, 8173, 8127, 8160, 8125, 8094, 8163, 8119, 8167, 8049,2.006472110748291
46, 8156, 8155, 8144, 8157, 8167, 8173, 8127, 8160, 8125, 8094, 8163, 8119, 8167, 8049,2.006472110748291
47, 8153, 8166, 8150, 8172, 8165, 8181, 8118, 8161, 8128, 8092, 8163, 8121, 8165, 8044,2.0139219760894775
47, 8153, 8166, 8150, 8172, 8165, 8181, 8118, 8161, 8128, 8092, 8163, 8121, 8165, 8044,2.014915704727173
48, 8168, 8162, 8145, 8166, 8143, 8182, 8115, 8180, 8131, 8069, 8151, 8128, 8174, 8032,2.0229148864746094
48, 8168, 8162, 8145, 8166, 8143, 8182, 8115, 8180, 8131, 8069, 8151, 8128, 8174, 8032,2.0229148864746094
49, 8152, 8148, 8143, 8161, 8152, 8159, 8142, 8160, 8161, 8082, 8140, 8100, 8158, 8024,2.029808521270752
49, 8152, 8148, 8143, 8161, 8152, 8159, 8142, 8160, 8161, 8082, 8140, 8100, 8158, 8024,2.030806541442871
50, 8192, 8138, 8148, 8162, 8163, 8168, 8144, 8175, 8141, 8076, 8153, 8123, 8183, 8044,2.0378081798553467
50, 8192, 8138, 8148, 8162, 8163, 8168, 8144, 8175, 8141, 8076, 8153, 8123, 8183, 8044,2.038808584213257
51, 8195, 8143, 8145, 8163, 8167, 8173, 8144, 8173, 8124, 8068, 8160, 8119, 8179, 8051,2.045815944671631
51, 8195, 8143, 8145, 8163, 8167, 8173, 8144, 8173, 8124, 8068, 8160, 8119, 8179, 8051,2.0468180179595947
52, 8186, 8158, 8150, 8168, 8176, 8183, 8159, 8160, 8158, 8096, 8164, 8115, 8176, 8063,2.0544724464416504
52, 8186, 8158, 8150, 8168, 8176, 8183, 8159, 8160, 8158, 8096, 8164, 8115, 8176, 8063,2.0544724464416504
53, 8198, 8167, 8161, 8176, 8188, 8189, 8155, 8181, 8161, 8118, 8163, 8127, 8187, 8062,2.062391757965088
53, 8198, 8167, 8161, 8176, 8188, 8189, 8155, 8181, 8161, 8118, 8163, 8127, 8187, 8062,2.062391757965088
54, 8175, 8177, 8165, 8186, 8206, 8176, 8164, 8164, 8163, 8138, 8159, 8102, 8162, 8048,2.0696234703063965
54, 8175, 8177, 8165, 8186, 8206, 8176, 8164, 8164, 8163, 8138, 8159, 8102, 8162, 8048,2.0696234703063965
55, 8188, 8179, 8158, 8180, 8195, 8193, 8175, 8169, 8179, 8150, 8175, 8131, 8184, 8075,2.07761549949646
55, 8188, 8179, 8158, 8180, 8195, 8193, 8175, 8169, 8179, 8150, 8175, 8131, 8184, 8075,2.07761549949646
56, 8167, 8183, 8146, 8183, 8186, 8192, 8182, 8167, 8186, 8153, 8171, 8129, 8180, 8093,2.0856497287750244
56, 8167, 8183, 8146, 8183, 8186, 8192, 8182, 8167, 8186, 8153, 8171, 8129, 8180, 8093,2.0856497287750244
57, 8149, 8174, 8139, 8180, 8198, 8185, 8177, 8154, 8176, 8140, 8162, 8096, 8158, 8079,2.093470335006714
57, 8149, 8174, 8139, 8180, 8198, 8185, 8177, 8154, 8176, 8140, 8162, 8096, 8158, 8079,2.093470335006714
58, 8159, 8145, 8121, 8147, 8196, 8193, 8162, 8176, 8165, 8118, 8156, 8097, 8171, 8047,2.101435661315918
58, 8159, 8145, 8121, 8147, 8196, 8193, 8162, 8176, 8165, 8118, 8156, 8097, 8171, 8047,2.101435661315918
59, 8130, 8137, 8112, 8136, 8195, 8190, 8182, 8174, 8186, 8126, 8143, 8075, 8155, 8032,2.109450340270996
59, 8130, 8137, 8112, 8136, 8195, 8190, 8182, 8174, 8186, 8126, 8143, 8075, 8155, 8032,2.109450340270996
60, 8153, 8141, 8123, 8135, 8177, 8203, 8197, 8184, 8189, 8115, 8152, 8084, 8166, 8046,2.1174614429473877
60, 8153, 8141, 8123, 8135, 8177, 8203, 8197, 8184, 8189, 8115, 8152, 8084, 8166, 8046,2.1174614429473877
61, 8145, 8129, 8119, 8123, 8159, 8196, 8190, 8166, 8172, 8100, 8151, 8074, 8160, 8032,2.125471353530884
61, 8145, 8129, 8119, 8123, 8159, 8196, 8190, 8166, 8172, 8100, 8151, 8074, 8160, 8032,2.125471353530884
62, 8126, 8130, 8115, 8125, 8177, 8184, 8190, 8140, 8150, 8102, 8151, 8072, 8149, 8025,2.1324715614318848
62, 8126, 8130, 8115, 8125, 8177, 8184, 8190, 8140, 8150, 8102, 8151, 8072, 8149, 8025,2.1324715614318848
63, 8166, 8156, 8134, 8143, 8188, 8196, 8191, 8166, 8139, 8103, 8166, 8112, 8171, 8056,2.1406192779541016
63, 8166, 8156, 8134, 8143, 8188, 8196, 8191, 8166, 8139, 8103, 8166, 8112, 8171, 8056,2.1406192779541016
64, 8162, 8183, 8160, 8174, 8198, 8193, 8201, 8165, 8179, 8144, 8167, 8105, 8155, 8076,2.14862060546875
64, 8162, 8183, 8160, 8174, 8198, 8193, 8201, 8165, 8179, 8144, 8167, 8105, 8155, 8076,2.14862060546875
65, 8174, 8190, 8174, 8190, 8206, 8200, 8196, 8173, 8196, 8171, 8175, 8127, 8165, 8094,2.156463861465454
65, 8174, 8190, 8174, 8190, 8206, 8200, 8196, 8173, 8196, 8171, 8175, 8127, 8165, 8094,2.156463861465454
66, 8175, 8193, 8175, 8193, 8205, 8186, 8181, 8167, 8179, 8169, 8183, 8133, 8164, 8093,2.1644785404205322
66, 8175, 8193, 8175, 8193, 8205, 8186, 8181, 8167, 8179, 8169, 8183, 8133, 8164, 8093,2.1644785404205322
67, 8170, 8193, 8177, 8201, 8192, 8163, 8168, 8145, 8184, 8176, 8175, 8113, 8148, 8082,2.172475814819336
67, 8170, 8193, 8177, 8201, 8192, 8163, 8168, 8145, 8184, 8176, 8175, 8113, 8148, 8082,2.172475814819336
68, 8193, 8171, 8166, 8183, 8180, 8178, 8145, 8165, 8170, 8148, 8155, 8123, 8163, 8066,2.180479049682617
68, 8193, 8171, 8166, 8183, 8180, 8178, 8145, 8165, 8170, 8148, 8155, 8123, 8163, 8066,2.180479049682617
69, 8160, 8150, 8141, 8161, 8195, 8186, 8156, 8146, 8142, 8115, 8131, 8094, 8140, 8037,2.188474178314209
69, 8160, 8150, 8141, 8161, 8195, 8186, 8156, 8146, 8142, 8115, 8131, 8094, 8140, 8037,2.188474178314209
70, 8171, 8143, 8134, 8147, 8192, 8193, 8173, 8150, 8128, 8093, 8137, 8103, 8157, 8035,2.1964597702026367
70, 8171, 8143, 8134, 8147, 8192, 8193, 8173, 8150, 8128, 8093, 8137, 8103, 8157, 8035,2.1964597702026367
71, 8184, 8133, 8136, 8123, 8168, 8190, 8167, 8177, 8127, 8064, 8137, 8111, 8177, 8019,2.203547239303589
71, 8184, 8133, 8136, 8123, 8168, 8190, 8167, 8177, 8127, 8064, 8137, 8111, 8177, 8019,2.203547239303589
72, 8162, 8123, 8132, 8117, 8142, 8189, 8158, 8160, 8117, 8047, 8128, 8090, 8160, 7993,2.211469888687134
72, 8162, 8123, 8132, 8117, 8142, 8189, 8158, 8160, 8117, 8047, 8128, 8090, 8160, 7993,2.211469888687134
73, 8193, 8126, 8141, 8134, 8124, 8204, 8139, 8174, 8085, 8035, 8142, 8125, 8181, 7993,2.2191572189331055
73, 8193, 8126, 8141, 8134, 8124, 8204, 8139, 8174, 8085, 8035, 8142, 8125, 8181, 7993,2.2191572189331055
74, 8192, 8153, 8172, 8163, 8155, 8201, 8141, 8179, 8098, 8050, 8162, 8138, 8180, 8004,2.227149248123169
74, 8192, 8153, 8172, 8163, 8155, 8201, 8141, 8179, 8098, 8050, 8162, 8138, 8180, 8004,2.227149248123169
75, 8210, 8182, 8197, 8181, 8172, 8210, 8141, 8180, 8128, 8075, 8180, 8149, 8183, 8032,2.2354729175567627
75, 8210, 8182, 8197, 8181, 8172, 8210, 8141, 8180, 8128, 8075, 8180, 8149, 8183, 8032,2.2354729175567627
76, 8229, 8192, 8205, 8192, 8155, 8204, 8129, 8185, 8127, 8090, 8178, 8152, 8193, 8037,2.24347186088562
76, 8229, 8192, 8205, 8192, 8155, 8204, 8129, 8185, 8127, 8090, 8178, 8152, 8193, 8037,2.24347186088562
77, 8199, 8193, 8208, 8204, 8171, 8194, 8138, 8172, 8135, 8100, 8168, 8127, 8186, 8031,2.2514700889587402
77, 8199, 8193, 8208, 8204, 8171, 8194, 8138, 8172, 8135, 8100, 8168, 8127, 8186, 8031,2.2521679401397705
78, 8209, 8170, 8198, 8178, 8169, 8215, 8140, 8193, 8129, 8092, 8174, 8142, 8204, 8043,2.2594552040100098
78, 8209, 8170, 8198, 8178, 8169, 8215, 8140, 8193, 8129, 8092, 8174, 8142, 8204, 8043,2.2594552040100098
79, 8190, 8153, 8177, 8144, 8148, 8196, 8135, 8187, 8116, 8105, 8166, 8126, 8193, 8036,2.2664570808410645
79, 8190, 8153, 8177, 8144, 8148, 8196, 8135, 8187, 8116, 8105, 8166, 8126, 8193, 8036,2.2664570808410645
80, 8182, 8149, 8170, 8126, 8150, 8182, 8118, 8185, 8097, 8096, 8158, 8117, 8194, 8017,2.274470806121826
80, 8182, 8149, 8170, 8126, 8150, 8182, 8118, 8185, 8097, 8096, 8158, 8117, 8194, 8017,2.274470806121826
81, 8188, 8132, 8162, 8111, 8141, 8191, 8110, 8201, 8074, 8053, 8149, 8115, 8199, 7995,2.2824699878692627
81, 8188, 8132, 8162, 8111, 8141, 8191, 8110, 8201, 8074, 8053, 8149, 8115, 8199, 7995,2.2824699878692627
82, 8170, 8129, 8154, 8109, 8119, 8174, 8130, 8180, 8079, 8041, 8141, 8087, 8180, 7978,2.290081262588501
82, 8170, 8129, 8154, 8109, 8119, 8174, 8130, 8180, 8079, 8041, 8141, 8087, 8180, 7978,2.290081262588501
83, 8199, 8129, 8153, 8091, 8114, 8181, 8126, 8196, 8071, 8020, 8146, 8110, 8209, 7973,2.298095703125
83, 8199, 8129, 8153, 8091, 8114, 8181, 8126, 8196, 8071, 8020, 8146, 8110, 8209, 7973,2.298095703125
84, 8188, 8119, 8154, 8076, 8113, 8183, 8127, 8199, 8070, 8009, 8141, 8106, 8201, 7958,2.306622266769409
84, 8188, 8119, 8154, 8076, 8113, 8183, 8127, 8199, 8070, 8009, 8141, 8106, 8201, 7958,2.306622266769409
85, 8193, 8133, 8166, 8092, 8083, 8191, 8136, 8187, 8081, 8023, 8148, 8109, 8186, 7968,2.314366340637207
85, 8193, 8133, 8166, 8092, 8083, 8191, 8136, 8187, 8081, 8023, 8148, 8109, 8186, 7968,2.314366340637207
86, 8223, 8156, 8180, 8105, 8076, 8213, 8119, 8200, 8071, 8025, 8158, 8139, 8205, 7984,2.32212233543396
86, 8223, 8156, 8180, 8105, 8076, 8213, 8119, 8200, 8071, 8025, 8158, 8139, 8205, 7984,2.32212233543396
87, 8201, 8156, 8180, 8108, 8108, 8198, 8099, 8178, 8066, 8040, 8160, 8122, 8195, 7977,2.3291263580322266
87, 8201, 8156, 8180, 8108, 8108, 8198, 8099, 8178, 8066, 8040, 8160, 8122, 8195, 7977,2.3291263580322266
88, 8218, 8143, 8179, 8105, 8094, 8191, 8072, 8182, 8052, 8049, 8171, 8130, 8210, 7986,2.3374311923980713
88, 8218, 8143, 8179, 8105, 8094, 8191, 8072, 8182, 8052, 8049, 8171, 8130, 8210, 7986,2.3374311923980713
89, 8203, 8149, 8177, 8107, 8085, 8194, 8058, 8185, 8042, 8052, 8166, 8122, 8209, 7987,2.345468282699585
89, 8203, 8149, 8177, 8107, 8085, 8194, 8058, 8185, 8042, 8052, 8166, 8122, 8209, 7987,2.345468282699585
90, 8177, 8163, 8175, 8115, 8096, 8201, 8053, 8172, 8032, 8046, 8160, 8114, 8198, 7978,2.353724241256714
90, 8177, 8163, 8175, 8115, 8096, 8201, 8053, 8172, 8032, 8046, 8160, 8114, 8198, 7978,2.353724241256714
91, 8176, 8160, 8154, 8102, 8087, 8199, 8057, 8187, 8018, 8029, 8156, 8121, 8198, 7962,2.361455202102661
91, 8176, 8160, 8154, 8102, 8087, 8199, 8057, 8187, 8018, 8029, 8156, 8121, 8198, 7962,2.361455202102661
92, 8121, 8157, 8123, 8085, 8110, 8191, 8116, 8177, 8067, 8052, 8141, 8072, 8163, 7944,2.369455575942993
92, 8121, 8157, 8123, 8085, 8110, 8191, 8116, 8177, 8067, 8052, 8141, 8072, 8163, 7944,2.369455575942993
93, 8107, 8162, 8110, 8083, 8122, 8202, 8165, 8189, 8115, 8066, 8134, 8061, 8159, 7947,2.3774611949920654
93, 8107, 8162, 8110, 8083, 8122, 8202, 8165, 8189, 8115, 8066, 8134, 8061, 8159, 7947,2.3774611949920654
94, 8087, 8170, 8099, 8100, 8111, 8164, 8190, 8186, 8136, 8070, 8132, 8051, 8145, 7944,2.385467767715454
94, 8087, 8170, 8099, 8100, 8111, 8164, 8190, 8186, 8136, 8070, 8132, 8051, 8145, 7944,2.385467767715454
95, 8056, 8169, 8086, 8103, 8127, 8141, 8221, 8162, 8163, 8108, 8137, 8035, 8129, 7962,2.392467975616455
95, 8056, 8169, 8086, 8103, 8127, 8141, 8221, 8162, 8163, 8108, 8137, 8035, 8129, 7962,2.392467975616455
96, 8062, 8162, 8079, 8085, 8146, 8163, 8224, 8161, 8163, 8131, 8145, 8054, 8141, 7998,2.4006433486938477
96, 8062, 8162, 8079, 8085, 8146, 8163, 8224, 8161, 8163, 8131, 8145, 8054, 8141, 7998,2.4006433486938477
97, 8022, 8174, 8072, 8108, 8170, 8125, 8222, 8120, 8152, 8122, 8139, 8035, 8114, 8011,2.408738613128662
97, 8022, 8174, 8072, 8108, 8170, 8125, 8222, 8120, 8152, 8122, 8139, 8035, 8114, 8011,2.408738613128662
98, 8020, 8179, 8070, 8145, 8185, 8094, 8213, 8115, 8138, 8102, 8140, 8044, 8116, 8026,2.4159295558929443
98, 8020, 8179, 8070, 8145, 8185, 8094, 8213, 8115, 8138, 8102, 8140, 8044, 8116, 8026,2.4159295558929443
99, 8022, 8187, 8077, 8156, 8213, 8114, 8212, 8124, 8160, 8143, 8154, 8054, 8116, 8044,2.4239420890808105
99, 8022, 8187, 8077, 8156, 8213, 8114, 8212, 8124, 8160, 8143, 8154, 8054, 8116, 8044,2.4239420890808105
100, 8017, 8222, 8099, 8186, 8245, 8127, 8227, 8100, 8201, 8219, 8175, 8060, 8108, 8079,2.4319441318511963
100, 8017, 8222, 8099, 8186, 8245, 8127, 8227, 8100, 8201, 8219, 8175, 8060, 8108, 8079,2.432936668395996
101, 8049, 8242, 8112, 8233, 8245, 8102, 8220, 8102, 8187, 8214, 8172, 8085, 8122, 8089,2.440107583999634
101, 8049, 8242, 8112, 8233, 8245, 8102, 8220, 8102, 8187, 8214, 8172, 8085, 8122, 8089,2.440107583999634
102, 8027, 8229, 8100, 8240, 8267, 8079, 8237, 8097, 8192, 8196, 8152, 8063, 8099, 8066,2.448840856552124
102, 8027, 8229, 8100, 8240, 8267, 8079, 8237, 8097, 8192, 8196, 8152, 8063, 8099, 8066,2.448840856552124
103, 8042, 8206, 8093, 8212, 8279, 8126, 8274, 8126, 8229, 8219, 8164, 8081, 8111, 8079,2.4568417072296143
103, 8042, 8206, 8093, 8212, 8279, 8126, 8274, 8126, 8229, 8219, 8164, 8081, 8111, 8079,2.4568417072296143
104, 8056, 8189, 8088, 8207, 8242, 8145, 8307, 8146, 8242, 8225, 8164, 8087, 8123, 8079,2.463768243789673
104, 8056, 8189, 8088, 8207, 8242, 8145, 8307, 8146, 8242, 8225, 8164, 8087, 8123, 8079,2.463768243789673
105, 8036, 8158, 8072, 8193, 8231, 8109, 8316, 8130, 8233, 8213, 8143, 8061, 8113, 8056,2.4714601039886475
105, 8036, 8158, 8072, 8193, 8231, 8109, 8316, 8130, 8233, 8213, 8143, 8061, 8113, 8056,2.4714601039886475
106, 8062, 8122, 8058, 8145, 8246, 8108, 8291, 8150, 8218, 8187, 8139, 8080, 8130, 8053,2.4794657230377197
106, 8062, 8122, 8058, 8145, 8246, 8108, 8291, 8150, 8218, 8187, 8139, 8080, 8130, 8053,2.4794657230377197
107, 8063, 8135, 8076, 8169, 8239, 8123, 8292, 8147, 8226, 8184, 8147, 8086, 8124, 8057,2.4874701499938965
107, 8063, 8135, 8076, 8169, 8239, 8123, 8292, 8147, 8226, 8184, 8147, 8086, 8124, 8057,2.4874701499938965
108, 8092, 8153, 8109, 8217, 8214, 8141, 8289, 8152, 8220, 8179, 8161, 8109, 8147, 8074,2.495462656021118
108, 8092, 8153, 8109, 8217, 8214, 8141, 8289, 8152, 8220, 8179, 8161, 8109, 8147, 8074,2.495462656021118
109, 8104, 8134, 8107, 8195, 8207, 8126, 8254, 8147, 8185, 8155, 8151, 8110, 8157, 8062,2.502990961074829
109, 8104, 8134, 8107, 8195, 8207, 8126, 8254, 8147, 8185, 8155, 8151, 8110, 8157, 8062,2.502990961074829
110, 8092, 8142, 8115, 8202, 8213, 8105, 8226, 8108, 8158, 8155, 8144, 8105, 8134, 8044,2.511110782623291
110, 8092, 8142, 8115, 8202, 8213, 8105, 8226, 8108, 8158, 8155, 8144, 8105, 8134, 8044,2.511110782623291
111, 8136, 8165, 8143, 8239, 8213, 8128, 8195, 8120, 8132, 8152, 8158, 8147, 8152, 8053,2.519467830657959
111, 8136, 8165, 8143, 8239, 8213, 8128, 8195, 8120, 8132, 8152, 8158, 8147, 8152, 8053,2.519467830657959
112, 8126, 8167, 8148, 8239, 8222, 8121, 8174, 8109, 8115, 8141, 8156, 8128, 8143, 8046,2.526468515396118
112, 8126, 8167, 8148, 8239, 8222, 8121, 8174, 8109, 8115, 8141, 8156, 8128, 8143, 8046,2.526468515396118
113, 8137, 8160, 8143, 8224, 8219, 8134, 8172, 8108, 8104, 8122, 8156, 8125, 8146, 8043,2.5344905853271484
113, 8137, 8160, 8143, 8224, 8219, 8134, 8172, 8108, 8104, 8122, 8156, 8125, 8146, 8043,2.5344905853271484
114, 8156, 8140, 8139, 8202, 8197, 8164, 8198, 8154, 8130, 8130, 8156, 8142, 8158, 8044,2.542485475540161
114, 8156, 8140, 8139, 8202, 8197, 8164, 8198, 8154, 8130, 8130, 8156, 8142, 8158, 8044,2.542485475540161
115, 8105, 8111, 8120, 8177, 8187, 8141, 8245, 8157, 8180, 8171, 8145, 8102, 8133, 8027,2.5504698753356934
115, 8105, 8111, 8120, 8177, 8187, 8141, 8245, 8157, 8180, 8171, 8145, 8102, 8133, 8027,2.5504698753356934
116, 8129, 8088, 8106, 8159, 8176, 8156, 8255, 8175, 8177, 8156, 8147, 8111, 8154, 8023,2.558441638946533
116, 8129, 8088, 8106, 8159, 8176, 8156, 8255, 8175, 8177, 8156, 8147, 8111, 8154, 8023,2.558441638946533
117, 8153, 8091, 8116, 8157, 8165, 8182, 8257, 8195, 8181, 8125, 8149, 8139, 8178, 8027,2.566441059112549
117, 8153, 8091, 8116, 8157, 8165, 8182, 8257, 8195, 8181, 8125, 8149, 8139, 8178, 8027,2.566441059112549
118, 8120, 8098, 8120, 8155, 8165, 8154, 8256, 8180, 8183, 8131, 8146, 8125, 8168, 8028,2.574467897415161
118, 8120, 8098, 8120, 8155, 8165, 8154, 8256, 8180, 8183, 8131, 8146, 8125, 8168, 8028,2.574467897415161
119, 8132, 8087, 8124, 8146, 8159, 8136, 8216, 8171, 8120, 8118, 8144, 8126, 8173, 8022,2.582263708114624
119, 8132, 8087, 8124, 8146, 8159, 8136, 8216, 8171, 8120, 8118, 8144, 8126, 8173, 8022,2.582263708114624
120, 8142, 8083, 8137, 8146, 8154, 8151, 8189, 8163, 8104, 8097, 8151, 8145, 8175, 8022,2.5892677307128906
120, 8142, 8083, 8137, 8146, 8154, 8151, 8189, 8163, 8104, 8097, 8151, 8145, 8175, 8022,2.5892677307128906
121, 8151, 8096, 8145, 8149, 8139, 8170, 8171, 8168, 8122, 8099, 8161, 8163, 8179, 8034,2.597431182861328
121, 8151, 8096, 8145, 8149, 8139, 8170, 8171, 8168, 8122, 8099, 8161, 8163, 8179, 8034,2.597431182861328
122, 8162, 8126, 8164, 8172, 8135, 8168, 8147, 8149, 8098, 8107, 8161, 8157, 8170, 8032,2.605468273162842
122, 8162, 8126, 8164, 8172, 8135, 8168, 8147, 8149, 8098, 8107, 8161, 8157, 8170, 8032,2.605468273162842
123, 8172, 8148, 8176, 8194, 8135, 8170, 8127, 8126, 8074, 8095, 8160, 8155, 8162, 8028,2.6130313873291016
123, 8172, 8148, 8176, 8194, 8135, 8170, 8127, 8126, 8074, 8095, 8160, 8155, 8162, 8028,2.6140451431274414
124, 8190, 8132, 8172, 8185, 8104, 8176, 8097, 8145, 8052, 8077, 8163, 8160, 8171, 8031,2.6217052936553955
124, 8190, 8132, 8172, 8185, 8104, 8176, 8097, 8145, 8052, 8077, 8163, 8160, 8171, 8031,2.6217052936553955
125, 8164, 8112, 8165, 8170, 8107, 8173, 8093, 8144, 8040, 8086, 8162, 8133, 8159, 8028,2.6297073364257812
125, 8164, 8112, 8165, 8170, 8107, 8173, 8093, 8144, 8040, 8086, 8162, 8133, 8159, 8028,2.6297073364257812
126, 8179, 8108, 8161, 8151, 8112, 8190, 8098, 8150, 8037, 8069, 8160, 8140, 8167, 8023,2.6374311447143555
126, 8179, 8108, 8161, 8151, 8112, 8190, 8098, 8150, 8037, 8069, 8160, 8140, 8167, 8023,2.6374311447143555
127, 8175, 8096, 8154, 8125, 8094, 8185, 8103, 8156, 8042, 8055, 8150, 8135, 8163, 7997,2.645468235015869
127, 8175, 8096, 8154, 8125, 8094, 8185, 8103, 8156, 8042, 8055, 8150, 8135, 8163, 7997,2.645468235015869
241, 8152, 8074, 8144, 8110, 8081, 8177, 8117, 8159, 8060, 8076, 8148, 8107, 8150, 7984,2.653799295425415
241, 8152, 8074, 8144, 8110, 8081, 8177, 8117, 8159, 8060, 8076, 8148, 8107, 8150, 7984,2.653799295425415
0, 8182, 8067, 8139, 8094, 8063, 8196, 8119, 8193, 8066, 8065, 8150, 8126, 8170, 7981,2.661797285079956
0, 8182, 8067, 8139, 8094, 8063, 8196, 8119, 8193, 8066, 8065, 8150, 8126, 8170, 7981,2.661797285079956
1, 8163, 8073, 8139, 8080, 8071, 8190, 8132, 8179, 8087, 8070, 8145, 8119, 8162, 7970,2.6688103675842285
1, 8163, 8073, 8139, 8080, 8071, 8190, 8132, 8179, 8087, 8070, 8145, 8119, 8162, 7970,2.6688103675842285
2, 8182, 8073, 8150, 8077, 8064, 8196, 8118, 8174, 8069, 8080, 8159, 8133, 8181, 7992,2.6768486499786377
2, 8182, 8073, 8150, 8077, 8064, 8196, 8118, 8174, 8069, 8080, 8159, 8133, 8181, 7992,2.6768486499786377
3, 8203, 8076, 8157, 8078, 8039, 8185, 8071, 8175, 8001, 8043, 8169, 8151, 8196, 7999,2.6846811771392822
3, 8203, 8076, 8157, 8078, 8039, 8185, 8071, 8175, 8001, 8043, 8169, 8151, 8196, 7999,2.6846811771392822
4, 8192, 8108, 8172, 8100, 8053, 8174, 8055, 8151, 7986, 8035, 8174, 8150, 8181, 8004,2.6926965713500977
4, 8192, 8108, 8172, 8100, 8053, 8174, 8055, 8151, 7986, 8035, 8174, 8150, 8181, 8004,2.6926965713500977
5, 8237, 8139, 8210, 8128, 8070, 8216, 8058, 8186, 8020, 8068, 8193, 8190, 8204, 8039,2.700441598892212
5, 8237, 8139, 8210, 8128, 8070, 8216, 8058, 8186, 8020, 8068, 8193, 8190, 8204, 8039,2.700441598892212
6, 8230, 8155, 8226, 8145, 8083, 8206, 8066, 8196, 8047, 8124, 8201, 8183, 8191, 8048,2.708467960357666
6, 8230, 8155, 8226, 8145, 8083, 8206, 8066, 8196, 8047, 8124, 8201, 8183, 8191, 8048,2.708467960357666
7, 8233, 8156, 8220, 8140, 8101, 8182, 8052, 8185, 8019, 8138, 8201, 8179, 8186, 8045,2.716491937637329
7, 8233, 8156, 8220, 8140, 8101, 8182, 8052, 8185, 8019, 8138, 8201, 8179, 8186, 8045,2.716491937637329
8, 8245, 8154, 8221, 8130, 8102, 8196, 8035, 8193, 7997, 8107, 8196, 8192, 8206, 8046,2.723489999771118
8, 8245, 8154, 8221, 8130, 8102, 8196, 8035, 8193, 7997, 8107, 8196, 8192, 8206, 8046,2.723489999771118
9, 8222, 8157, 8223, 8132, 8090, 8203, 8049, 8188, 8023, 8107, 8192, 8179, 8196, 8042,2.7314512729644775
9, 8222, 8157, 8223, 8132, 8090, 8203, 8049, 8188, 8023, 8107, 8192, 8179, 8196, 8042,2.7314512729644775
10, 8249, 8149, 8215, 8117, 8071, 8204, 8047, 8210, 8013, 8104, 8197, 8196, 8213, 8035,2.7394683361053467
10, 8249, 8149, 8215, 8117, 8071, 8204, 8047, 8210, 8013, 8104, 8197, 8196, 8213, 8035,2.7394683361053467
11, 8227, 8146, 8204, 8105, 8083, 8197, 8053, 8207, 8011, 8105, 8188, 8179, 8208, 8019,2.7484676837921143
11, 8227, 8146, 8204, 8105, 8083, 8197, 8053, 8207, 8011, 8105, 8188, 8179, 8208, 8019,2.7484676837921143
12, 8218, 8139, 8194, 8098, 8075, 8222, 8059, 8209, 8035, 8091, 8180, 8167, 8196, 7998,2.7554683685302734
12, 8218, 8139, 8194, 8098, 8075, 8222, 8059, 8209, 8035, 8091, 8180, 8167, 8196, 7998,2.7554683685302734
13, 8234, 8128, 8187, 8085, 8029, 8238, 8057, 8229, 8042, 8075, 8178, 8174, 8202, 7979,2.763467788696289
13, 8234, 8128, 8187, 8085, 8029, 8238, 8057, 8229, 8042, 8075, 8178, 8174, 8202, 7979,2.763467788696289
14, 8213, 8141, 8199, 8090, 8052, 8214, 8083, 8210, 8056, 8105, 8184, 8161, 8199, 8000,2.7714684009552
14, 8213, 8141, 8199, 8090, 8052, 8214, 8083, 8210, 8056, 8105, 8184, 8161, 8199, 8000,2.7714684009552
15, 8245, 8152, 8217, 8091, 8091, 8216, 8089, 8221, 8057, 8111, 8198, 8184, 8229, 8043,2.7794673442840576
15, 8245, 8152, 8217, 8091, 8091, 8216, 8089, 8221, 8057, 8111, 8198, 8184, 8229, 8043,2.7794673442840576
16, 8231, 8160, 8212, 8092, 8076, 8207, 8083, 8214, 8053, 8114, 8198, 8177, 8217, 8044,2.787471294403076
16, 8231, 8160, 8212, 8092, 8076, 8207, 8083, 8214, 8053, 8114, 8198, 8177, 8217, 8044,2.787471294403076
17, 8214, 8166, 8206, 8096, 8051, 8204, 8067, 8196, 8056, 8123, 8200, 8170, 8199, 8035,2.7958147525787354
17, 8214, 8166, 8206, 8096, 8051, 8204, 8067, 8196, 8056, 8123, 8200, 8170, 8199, 8035,2.7958147525787354
18, 8228, 8167, 8214, 8095, 8055, 8209, 8044, 8212, 8061, 8111, 8203, 8175, 8208, 8033,2.8020737171173096
18, 8228, 8167, 8214, 8095, 8055, 8209, 8044, 8212, 8061, 8111, 8203, 8175, 8208, 8033,2.802743434906006
19, 8201, 8189, 8221, 8113, 8085, 8191, 8070, 8194, 8082, 8127, 8201, 8159, 8187, 8049,2.8107492923736572
19, 8201, 8189, 8221, 8113, 8085, 8191, 8070, 8194, 8082, 8127, 8201, 8159, 8187, 8049,2.8107492923736572
20, 8225, 8205, 8227, 8125, 8089, 8208, 8085, 8207, 8083, 8149, 8215, 8188, 8200, 8091,2.8187503814697266
20, 8225, 8205, 8227, 8125, 8089, 8208, 8085, 8207, 8083, 8149, 8215, 8188, 8200, 8091,2.8187503814697266
21, 8208, 8200, 8219, 8121, 8103, 8207, 8102, 8217, 8108, 8175, 8218, 8178, 8198, 8099,2.825852632522583
21, 8208, 8200, 8219, 8121, 8103, 8207, 8102, 8217, 8108, 8175, 8218, 8178, 8198, 8099,2.825852632522583
22, 8185, 8196, 8213, 8122, 8134, 8190, 8141, 8206, 8147, 8204, 8213, 8159, 8185, 8095,2.8344414234161377
22, 8185, 8196, 8213, 8122, 8134, 8190, 8141, 8206, 8147, 8204, 8213, 8159, 8185, 8095,2.8348562717437744
23, 8193, 8186, 8200, 8113, 8127, 8196, 8160, 8220, 8129, 8203, 8203, 8167, 8194, 8094,2.841911554336548
23, 8193, 8186, 8200, 8113, 8127, 8196, 8160, 8220, 8129, 8203, 8203, 8167, 8194, 8094,2.841911554336548
24, 8146, 8179, 8173, 8107, 8131, 8186, 8187, 8199, 8141, 8199, 8192, 8141, 8172, 8086,2.84995174407959
24, 8146, 8179, 8173, 8107, 8131, 8186, 8187, 8199, 8141, 8199, 8192, 8141, 8172, 8086,2.84995174407959
25, 8161, 8185, 8168, 8114, 8149, 8187, 8200, 8203, 8169, 8185, 8200, 8154, 8180, 8094,2.8569746017456055
25, 8161, 8185, 8168, 8114, 8149, 8187, 8200, 8203, 8169, 8185, 8200, 8154, 8180, 8094,2.8569746017456055
26, 8145, 8193, 8165, 8115, 8150, 8170, 8202, 8197, 8165, 8183, 8198, 8149, 8174, 8088,2.8653533458709717
26, 8145, 8193, 8165, 8115, 8150, 8170, 8202, 8197, 8165, 8183, 8198, 8149, 8174, 8088,2.8653533458709717
27, 8102, 8184, 8149, 8108, 8145, 8161, 8206, 8162, 8152, 8199, 8192, 8121, 8155, 8085,2.8733859062194824
27, 8102, 8184, 8149, 8108, 8145, 8161, 8206, 8162, 8152, 8199, 8192, 8121, 8155, 8085,2.8733859062194824
28, 8127, 8169, 8142, 8105, 8160, 8175, 8192, 8166, 8145, 8191, 8191, 8130, 8163, 8091,2.881378650665283
28, 8127, 8169, 8142, 8105, 8160, 8175, 8192, 8166, 8145, 8191, 8191, 8130, 8163, 8091,2.881378650665283
29, 8105, 8185, 8152, 8137, 8195, 8147, 8202, 8143, 8177, 8203, 8188, 8128, 8140, 8104,2.8893539905548096
29, 8105, 8185, 8152, 8137, 8195, 8147, 8202, 8143, 8177, 8203, 8188, 8128, 8140, 8104,2.8893539905548096
30, 8115, 8203, 8165, 8162, 8180, 8134, 8198, 8141, 8182, 8220, 8200, 8150, 8156, 8144,2.897432565689087
30, 8115, 8203, 8165, 8162, 8180, 8134, 8198, 8141, 8182, 8220, 8200, 8150, 8156, 8144,2.8980658054351807
31, 8120, 8210, 8164, 8165, 8172, 8128, 8179, 8139, 8168, 8238, 8209, 8146, 8155, 8160,2.9050722122192383
31, 8120, 8210, 8164, 8165, 8172, 8128, 8179, 8139, 8168, 8238, 8209, 8146, 8155, 8160,2.9050722122192383
32, 8107, 8229, 8168, 8194, 8212, 8122, 8194, 8112, 8200, 8283, 8216, 8132, 8121, 8163,2.9134645462036133
32, 8107, 8229, 8168, 8194, 8212, 8122, 8194, 8112, 8200, 8283, 8216, 8132, 8121, 8163,2.9134645462036133
33, 8147, 8232, 8177, 8218, 8222, 8141, 8232, 8144, 8240, 8304, 8217, 8154, 8133, 8178,2.9204604625701904
33, 8147, 8232, 8177, 8218, 8222, 8141, 8232, 8144, 8240, 8304, 8217, 8154, 8133, 8178,2.9204604625701904
34, 8124, 8214, 8155, 8205, 8234, 8132, 8288, 8151, 8280, 8319, 8201, 8124, 8123, 8183,2.9284679889678955
34, 8124, 8214, 8155, 8205, 8234, 8132, 8288, 8151, 8280, 8319, 8201, 8124, 8123, 8183,2.9284679889678955
35, 8122, 8184, 8123, 8170, 8238, 8131, 8308, 8150, 8289, 8305, 8184, 8114, 8122, 8176,2.9364681243896484
35, 8122, 8184, 8123, 8170, 8238, 8131, 8308, 8150, 8289, 8305, 8184, 8114, 8122, 8176,2.9364681243896484
36, 8118, 8167, 8110, 8155, 8223, 8130, 8309, 8158, 8287, 8280, 8173, 8122, 8124, 8154,2.9444503784179688
36, 8118, 8167, 8110, 8155, 8223, 8130, 8309, 8158, 8287, 8280, 8173, 8122, 8124, 8154,2.9444503784179688
37, 8088, 8175, 8118, 8180, 8224, 8131, 8321, 8142, 8310, 8295, 8183, 8123, 8110, 8147,2.9524552822113037
37, 8088, 8175, 8118, 8180, 8224, 8131, 8321, 8142, 8310, 8295, 8183, 8123, 8110, 8147,2.9524552822113037
38, 8125, 8181, 8130, 8192, 8213, 8160, 8304, 8154, 8299, 8281, 8183, 8141, 8120, 8152,2.9604556560516357
38, 8125, 8181, 8130, 8192, 8213, 8160, 8304, 8154, 8299, 8281, 8183, 8141, 8120, 8152,2.9604556560516357
39, 8104, 8176, 8125, 8188, 8229, 8142, 8306, 8124, 8295, 8268, 8163, 8114, 8096, 8150,2.9686965942382812
39, 8104, 8176, 8125, 8188, 8229, 8142, 8306, 8124, 8295, 8268, 8163, 8114, 8096, 8150,2.9686965942382812
40, 8106, 8162, 8123, 8176, 8252, 8137, 8293, 8104, 8283, 8264, 8167, 8120, 8104, 8163,2.9761946201324463
40, 8106, 8162, 8123, 8176, 8252, 8137, 8293, 8104, 8283, 8264, 8167, 8120, 8104, 8163,2.9761946201324463
41, 8126, 8151, 8130, 8173, 8243, 8138, 8250, 8118, 8251, 8258, 8174, 8140, 8127, 8164,2.9831948280334473
41, 8126, 8151, 8130, 8173, 8243, 8138, 8250, 8118, 8251, 8258, 8174, 8140, 8127, 8164,2.9831948280334473
42, 8103, 8170, 8141, 8208, 8246, 8104, 8248, 8100, 8270, 8292, 8183, 8134, 8115, 8172,2.9914684295654297
42, 8103, 8170, 8141, 8208, 8246, 8104, 8248, 8100, 8270, 8292, 8183, 8134, 8115, 8172,2.9914684295654297
43, 8140, 8172, 8150, 8223, 8237, 8112, 8237, 8117, 8287, 8296, 8195, 8159, 8130, 8187,2.9997904300689697
43, 8140, 8172, 8150, 8223, 8237, 8112, 8237, 8117, 8287, 8296, 8195, 8159, 8130, 8187,2.9997904300689697
44, 8126, 8150, 8143, 8201, 8237, 8117, 8232, 8110, 8296, 8291, 8186, 8147, 8116, 8176,3.0074312686920166
44, 8126, 8150, 8143, 8201, 8237, 8117, 8232, 8110, 8296, 8291, 8186, 8147, 8116, 8176,3.0074312686920166
45, 8134, 8143, 8145, 8195, 8249, 8126, 8263, 8109, 8301, 8302, 8180, 8148, 8122, 8193,3.0158779621124268
45, 8134, 8143, 8145, 8195, 8249, 8126, 8263, 8109, 8301, 8302, 8180, 8148, 8122, 8193,3.0158779621124268
46, 8160, 8126, 8133, 8180, 8238, 8132, 8281, 8143, 8269, 8280, 8170, 8153, 8140, 8187,3.0228753089904785
46, 8160, 8126, 8133, 8180, 8238, 8132, 8281, 8143, 8269, 8280, 8170, 8153, 8140, 8187,3.023876428604126
47, 8106, 8097, 8095, 8143, 8231, 8117, 8291, 8131, 8260, 8257, 8154, 8117, 8115, 8138,3.03189754486084
47, 8106, 8097, 8095, 8143, 8231, 8117, 8291, 8131, 8260, 8257, 8154, 8117, 8115, 8138,3.03189754486084
48, 8119, 8086, 8105, 8125, 8212, 8143, 8283, 8147, 8274, 8241, 8154, 8123, 8122, 8115,3.038898229598999
48, 8119, 8086, 8105, 8125, 8212, 8143, 8283, 8147, 8274, 8241, 8154, 8123, 8122, 8115,3.038898229598999
49, 8115, 8096, 8220, 8131, 8198, 8140, 8294, 8151, 8295, 8261, 8158, 8125, 8119, 8122,3.0468974113464355
49, 8115, 8096, 8220, 8131, 8198, 8140, 8294, 8151, 8295, 8261, 8158, 8125, 8119, 8122,3.0468974113464355
50, 8113, 8107, 8263, 8132, 8217, 8125, 8318, 8139, 8291, 8289, 8164, 8140, 8127, 8152,3.0538980960845947
50, 8113, 8107, 8263, 8132, 8217, 8125, 8318, 8139, 8291, 8289, 8164, 8140, 8127, 8152,3.0548975467681885
51, 8132, 8117, 8078, 8140, 8237, 8127, 8307, 8148, 8270, 8279, 8164, 8145, 8142, 8163,3.0618972778320312
51, 8132, 8117, 8078, 8140, 8237, 8127, 8307, 8148, 8270, 8279, 8164, 8145, 8142, 8163,3.062899589538574
52, 8091, 8134, 8275, 8171, 8244, 8117, 8293, 8124, 8296, 8293, 8172, 8119, 8118, 8163,3.070901393890381
52, 8091, 8134, 8275, 8171, 8244, 8117, 8293, 8124, 8296, 8293, 8172, 8119, 8118, 8163,3.070901393890381
53, 8105, 8123, 8184, 8172, 8234, 8132, 8261, 8122, 8291, 8289, 8168, 8135, 8115, 8166,3.0779099464416504
53, 8105, 8123, 8184, 8172, 8234, 8132, 8261, 8122, 8291, 8289, 8168, 8135, 8115, 8166,3.0779099464416504
54, 8089, 8112, 6351, 8159, 8239, 8112, 8242, 8099, 8262, 8270, 8142, 8120, 8095, 8140,3.086467981338501
54, 8089, 8112, 6351, 8159, 8239, 8112, 8242, 8099, 8262, 8270, 8142, 8120, 8095, 8140,3.086467981338501
55, 8080, 8130, 4379, 8180, 8247, 8099, 8257, 8085, 8266, 8281, 8152, 8116, 8099, 8148,3.0944907665252686
55, 8080, 8130, 4379, 8180, 8247, 8099, 8257, 8085, 8266, 8281, 8152, 8116, 8099, 8148,3.0944907665252686
56, 8114, 8145, 4331, 8191, 8243, 8123, 8280, 8123, 8283, 8296, 8166, 8131, 8119, 8182,3.1020069122314453
56, 8114, 8145, 4331, 8191, 8243, 8123, 8280, 8123, 8283, 8296, 8166, 8131, 8119, 8182,3.1020069122314453
57, 8072, 8146, 4937, 8194, 8268, 8102, 8308, 8113, 8308, 8316, 8159, 8111, 8092, 8183,3.1102004051208496
57, 8072, 8146, 4937, 8194, 8268, 8102, 8308, 8113, 8308, 8316, 8159, 8111, 8092, 8183,3.1102004051208496
58, 8089, 8133, 4912, 8191, 8279, 8096, 8302, 8121, 8300, 8304, 8150, 8128, 8100, 8171,3.1186165809631348
58, 8089, 8133, 4912, 8191, 8279, 8096, 8302, 8121, 8300, 8304, 8150, 8128, 8100, 8171,3.1186165809631348
59, 8094, 8125, 5016, 8182, 8268, 8099, 8315, 8126, 8302, 8298, 8143, 8128, 8100, 8169,3.1256163120269775
59, 8094, 8125, 5016, 8182, 8268, 8099, 8315, 8126, 8302, 8298, 8143, 8128, 8100, 8169,3.1256163120269775
60, 8079, 8128, 5360, 8183, 8272, 8106, 8348, 8114, 8319, 8302, 8148, 8125, 8104, 8183,3.133629560470581
60, 8079, 8128, 5360, 8183, 8272, 8106, 8348, 8114, 8319, 8302, 8148, 8125, 8104, 8183,3.133629560470581
61, 8117, 8113, 5491, 8171, 8267, 8123, 8340, 8130, 8295, 8263, 8141, 8137, 8126, 8172,3.1414637565612793
61, 8117, 8113, 5491, 8171, 8267, 8123, 8340, 8130, 8295, 8263, 8141, 8137, 8126, 8172,3.1414637565612793
62, 8107, 8108, 5615, 8171, 8273, 8104, 8336, 8112, 8299, 8258, 8140, 8136, 8115, 8163,3.149468421936035
62, 8107, 8108, 5615, 8171, 8273, 8104, 8336, 8112, 8299, 8258, 8140, 8136, 8115, 8163,3.149468421936035
63, 8134, 8107, 5740, 8174, 8262, 8107, 8303, 8116, 8294, 8263, 8153, 8168, 8135, 8174,3.157705068588257
63, 8134, 8107, 5740, 8174, 8262, 8107, 8303, 8116, 8294, 8263, 8153, 8168, 8135, 8174,3.157705068588257
64, 8140, 8105, 5846, 8176, 8241, 8119, 8263, 8123, 8266, 8257, 8150, 8168, 8135, 8153,3.165487051010132
64, 8140, 8105, 5846, 8176, 8241, 8119, 8263, 8123, 8266, 8257, 8150, 8168, 8135, 8153,3.165487051010132
65, 8144, 8123, 5971, 8191, 8240, 8147, 8277, 8124, 8280, 8266, 8166, 8175, 8134, 8161,3.1734869480133057
65, 8144, 8123, 5971, 8191, 8240, 8147, 8277, 8124, 8280, 8266, 8166, 8175, 8134, 8161,3.1734869480133057
66, 8195, 8124, 6080, 8181, 8237, 8168, 8276, 8156, 8279, 8249, 8178, 8202, 8162, 8185,3.1814682483673096
66, 8195, 8124, 6080, 8181, 8237, 8168, 8276, 8156, 8279, 8249, 8178, 8202, 8162, 8185,3.1814682483673096
67, 8176, 8117, 6179, 8171, 8247, 8126, 8259, 8148, 8274, 8249, 8175, 8188, 8157, 8182,3.1884679794311523
67, 8176, 8117, 6179, 8171, 8247, 8126, 8259, 8148, 8274, 8249, 8175, 8188, 8157, 8182,3.1884679794311523
68, 8204, 8124, 6281, 8181, 8227, 8146, 8245, 8170, 8269, 8264, 8188, 8213, 8179, 8195,3.1965067386627197
68, 8204, 8124, 6281, 8181, 8227, 8146, 8245, 8170, 8269, 8264, 8188, 8213, 8179, 8195,3.1965067386627197
69, 8210, 8131, 6370, 8185, 8222, 8179, 8249, 8184, 8256, 8271, 8187, 8209, 8180, 8179,3.2040367126464844
69, 8210, 8131, 6370, 8185, 8222, 8179, 8249, 8184, 8256, 8271, 8187, 8209, 8180, 8179,3.2040367126464844
70, 8173, 8127, 6446, 8172, 8244, 8165, 8261, 8157, 8249, 8256, 8171, 8183, 8161, 8145,3.2124626636505127
70, 8173, 8127, 6446, 8172, 8244, 8165, 8261, 8157, 8249, 8256, 8171, 8183, 8161, 8145,3.2124626636505127
71, 8197, 8111, 6534, 8144, 8206, 8173, 8255, 8177, 8245, 8210, 8156, 8186, 8171, 8136,3.2201287746429443
71, 8197, 8111, 6534, 8144, 8206, 8173, 8255, 8177, 8245, 8210, 8156, 8186, 8171, 8136,3.2201287746429443
72, 8172, 8110, 6612, 8134, 8198, 8175, 8279, 8167, 8267, 8217, 8153, 8168, 8160, 8137,3.2281289100646973
72, 8172, 8110, 6612, 8134, 8198, 8175, 8279, 8167, 8267, 8217, 8153, 8168, 8160, 8137,3.2281289100646973
73, 8185, 8113, 6699, 8142, 8219, 8194, 8279, 8159, 8253, 8217, 8155, 8181, 8170, 8134,3.236469268798828
73, 8185, 8113, 6699, 8142, 8219, 8194, 8279, 8159, 8253, 8217, 8155, 8181, 8170, 8134,3.236469268798828
74, 8201, 8110, 6835, 8138, 8206, 8185, 8243, 8159, 8216, 8185, 8149, 8185, 8166, 8118,3.24446964263916
74, 8201, 8110, 6835, 8138, 8206, 8185, 8243, 8159, 8216, 8185, 8149, 8185, 8166, 8118,3.24446964263916
75, 8182, 8118, 6989, 8148, 8192, 8156, 8231, 8132, 8219, 8203, 8160, 8170, 8149, 8125,3.2515642642974854
75, 8182, 8118, 6989, 8148, 8192, 8156, 8231, 8132, 8219, 8203, 8160, 8170, 8149, 8125,3.2515642642974854
76, 8225, 8131, 7074, 8157, 8168, 8180, 8223, 8158, 8214, 8211, 8171, 8188, 8169, 8145,3.259462833404541
76, 8225, 8131, 7074, 8157, 8168, 8180, 8223, 8158, 8214, 8211, 8171, 8188, 8169, 8145,3.259462833404541
77, 8197, 8141, 7086, 8156, 8174, 8176, 8225, 8159, 8217, 8211, 8168, 8177, 8159, 8143,3.26743221282959
77, 8197, 8141, 7086, 8156, 8174, 8176, 8225, 8159, 8217, 8211, 8168, 8177, 8159, 8143,3.26743221282959
78, 8180, 8126, 7100, 8146, 8186, 8159, 8194, 8144, 8196, 8193, 8165, 8160, 8156, 8128,3.2756764888763428
78, 8180, 8126, 7100, 8146, 8186, 8159, 8194, 8144, 8196, 8193, 8165, 8160, 8156, 8128,3.2756764888763428
79, 8189, 8106, 7109, 8125, 8164, 8158, 8148, 8147, 8163, 8155, 8148, 8146, 8157, 8094,3.2836716175079346
79, 8189, 8106, 7109, 8125, 8164, 8158, 8148, 8147, 8163, 8155, 8148, 8146, 8157, 8094,3.2836716175079346
80, 8157, 8121, 7112, 8124, 8164, 8165, 8168, 8135, 8188, 8167, 8144, 8141, 8142, 8091,3.291468381881714
80, 8157, 8121, 7112, 8124, 8164, 8165, 8168, 8135, 8188, 8167, 8144, 8141, 8142, 8091,3.291468381881714
81, 8186, 8126, 7126, 8126, 8166, 8188, 8182, 8164, 8191, 8170, 8147, 8156, 8158, 8102,3.2991271018981934
81, 8186, 8126, 7126, 8126, 8166, 8188, 8182, 8164, 8191, 8170, 8147, 8156, 8158, 8102,3.2991271018981934
82, 8168, 8119, 7135, 8119, 8161, 8161, 8190, 8164, 8181, 8162, 8137, 8130, 8153, 8091,3.3076539039611816
82, 8168, 8119, 7135, 8119, 8161, 8161, 8190, 8164, 8181, 8162, 8137, 8130, 8153, 8091,3.3076539039611816
83, 8159, 8114, 7164, 8098, 8148, 8147, 8201, 8159, 8178, 8149, 8140, 8131, 8152, 8096,3.314653158187866
83, 8159, 8114, 7164, 8098, 8148, 8147, 8201, 8159, 8178, 8149, 8140, 8131, 8152, 8096,3.314653158187866
84, 8175, 8115, 7212, 8079, 8114, 8155, 8192, 8175, 8162, 8124, 8138, 8143, 8151, 8083,3.3224689960479736
84, 8175, 8115, 7212, 8079, 8114, 8155, 8192, 8175, 8162, 8124, 8138, 8143, 8151, 8083,3.3224689960479736
85, 8148, 8131, 7261, 8102, 8116, 8149, 8204, 8146, 8178, 8139, 8137, 8133, 8135, 8066,3.330665111541748
85, 8148, 8131, 7261, 8102, 8116, 8149, 8204, 8146, 8178, 8139, 8137, 8133, 8135, 8066,3.330665111541748
86, 8188, 8130, 7303, 8116, 8143, 8183, 8202, 8155, 8174, 8148, 8140, 8154, 8154, 8083,3.3386662006378174
86, 8188, 8130, 7303, 8116, 8143, 8183, 8202, 8155, 8174, 8148, 8140, 8154, 8154, 8083,3.3386662006378174
87, 8172, 8117, 7322, 8097, 8171, 8181, 8192, 8157, 8162, 8153, 8136, 8145, 8143, 8085,3.346440315246582
87, 8172, 8117, 7322, 8097, 8171, 8181, 8192, 8157, 8162, 8153, 8136, 8145, 8143, 8085,3.346440315246582
88, 8156, 8123, 7345, 8091, 8178, 8173, 8190, 8153, 8176, 8151, 8145, 8137, 8141, 8081,3.354701042175293
88, 8156, 8123, 7345, 8091, 8178, 8173, 8190, 8153, 8176, 8151, 8145, 8137, 8141, 8081,3.354701042175293
89, 8196, 8134, 7384, 8106, 8149, 8191, 8173, 8173, 8181, 8138, 8152, 8157, 8165, 8078,3.362700939178467
89, 8196, 8134, 7384, 8106, 8149, 8191, 8173, 8173, 8181, 8138, 8152, 8157, 8165, 8078,3.362700939178467
90, 8165, 8146, 7416, 8123, 8133, 8171, 8167, 8149, 8191, 8161, 8153, 8152, 8152, 8070,3.370450496673584
90, 8165, 8146, 7416, 8123, 8133, 8171, 8167, 8149, 8191, 8161, 8153, 8152, 8152, 8070,3.370450496673584
91, 8185, 8150, 7443, 8126, 8122, 8182, 8162, 8160, 8185, 8153, 8148, 8152, 8153, 8064,3.377424955368042
91, 8185, 8150, 7443, 8126, 8122, 8182, 8162, 8160, 8185, 8153, 8148, 8152, 8153, 8064,3.377424955368042
92, 8187, 8152, 7463, 8131, 8127, 8189, 8182, 8179, 8183, 8142, 8143, 8145, 8146, 8059,3.3854691982269287
92, 8187, 8152, 7463, 8131, 8127, 8189, 8182, 8179, 8183, 8142, 8143, 8145, 8146, 8059,3.3854691982269287
93, 8173, 8147, 7488, 8128, 8131, 8174, 8206, 8174, 8193, 8154, 8150, 8150, 8149, 8077,3.393030881881714
93, 8173, 8147, 7488, 8128, 8131, 8174, 8206, 8174, 8193, 8154, 8150, 8150, 8149, 8077,3.393030881881714
94, 8195, 8131, 7512, 8098, 8117, 8178, 8183, 8184, 8165, 8124, 8149, 8153, 8169, 8078,3.401024341583252
94, 8195, 8131, 7512, 8098, 8117, 8178, 8183, 8184, 8165, 8124, 8149, 8153, 8169, 8078,3.401024341583252
95, 8151, 8138, 7526, 8104, 8129, 8159, 8175, 8153, 8152, 8110, 8147, 8128, 8152, 8055,3.409468173980713
95, 8151, 8138, 7526, 8104, 8129, 8159, 8175, 8153, 8152, 8110, 8147, 8128, 8152, 8055,3.409468173980713
96, 8165, 8151, 7556, 8119, 8114, 8175, 8168, 8157, 8154, 8115, 8143, 8140, 8149, 8051,3.4174630641937256
96, 8165, 8151, 7556, 8119, 8114, 8175, 8168, 8157, 8154, 8115, 8143, 8140, 8149, 8051,3.4174630641937256
97, 8172, 8149, 7597, 8099, 8097, 8174, 8162, 8161, 8162, 8123, 8139, 8151, 8149, 8055,3.4254660606384277
97, 8172, 8149, 7597, 8099, 8097, 8174, 8162, 8161, 8162, 8123, 8139, 8151, 8149, 8055,3.4254660606384277
98, 8155, 8157, 7632, 8102, 8120, 8143, 8166, 8136, 8168, 8147, 8151, 8158, 8150, 8075,3.4335930347442627
98, 8155, 8157, 7632, 8102, 8120, 8143, 8166, 8136, 8168, 8147, 8151, 8158, 8150, 8075,3.4335930347442627
99, 8183, 8151, 7650, 8113, 8113, 8149, 8147, 8159, 8142, 8142, 8151, 8163, 8165, 8081,3.4414689540863037
99, 8183, 8151, 7650, 8113, 8113, 8149, 8147, 8159, 8142, 8142, 8151, 8163, 8165, 8081,3.4414689540863037
100, 8138, 8135, 7653, 8097, 8096, 8144, 8151, 8145, 8142, 8132, 8150, 8142, 8150, 8066,3.44846773147583
100, 8138, 8135, 7653, 8097, 8096, 8144, 8151, 8145, 8142, 8132, 8150, 8142, 8150, 8066,3.44846773147583
101, 8140, 8124, 7658, 8077, 8067, 8148, 8139, 8129, 8123, 8102, 8146, 8144, 8152, 8050,3.4564895629882812
101, 8140, 8124, 7658, 8077, 8067, 8148, 8139, 8129, 8123, 8102, 8146, 8144, 8152, 8050,3.4564895629882812
102, 8148, 8120, 7646, 8062, 8044, 8151, 8125, 8146, 8096, 8092, 8129, 8129, 8148, 8020,3.4644885063171387
102, 8148, 8120, 7646, 8062, 8044, 8151, 8125, 8146, 8096, 8092, 8129, 8129, 8148, 8020,3.4644885063171387
103, 8128, 8129, 7642, 8060, 8066, 8159, 8163, 8151, 8139, 8134, 8136, 8115, 8141, 8030,3.472689151763916
103, 8128, 8129, 7642, 8060, 8066, 8159, 8163, 8151, 8139, 8134, 8136, 8115, 8141, 8030,3.4728877544403076
104, 8173, 8127, 7658, 8074, 8080, 8184, 8169, 8172, 8166, 8134, 8150, 8149, 8164, 8062,3.480278253555298
104, 8173, 8127, 7658, 8074, 8080, 8184, 8169, 8172, 8166, 8134, 8150, 8149, 8164, 8062,3.480278253555298
105, 8154, 8139, 7656, 8097, 8103, 8153, 8160, 8158, 8169, 8140, 8149, 8156, 8159, 8069,3.4882919788360596
105, 8154, 8139, 7656, 8097, 8103, 8153, 8160, 8158, 8169, 8140, 8149, 8156, 8159, 8069,3.4882919788360596
106, 8153, 8147, 7647, 8099, 8103, 8156, 8145, 8155, 8147, 8137, 8147, 8150, 8156, 8061,3.496469497680664
106, 8153, 8147, 7647, 8099, 8103, 8156, 8145, 8155, 8147, 8137, 8147, 8150, 8156, 8061,3.496469497680664
107, 8173, 8135, 7659, 8081, 8063, 8179, 8129, 8164, 8125, 8105, 8152, 8150, 8161, 8041,3.5044689178466797
107, 8173, 8135, 7659, 8081, 8063, 8179, 8129, 8164, 8125, 8105, 8152, 8150, 8161, 8041,3.5044689178466797
108, 8155, 8149, 7700, 8091, 8074, 8172, 8155, 8144, 8154, 8129, 8160, 8161, 8159, 8055,3.5114686489105225
108, 8155, 8149, 7700, 8091, 8074, 8172, 8155, 8144, 8154, 8129, 8160, 8161, 8159, 8055,3.5114686489105225
109, 8195, 8161, 7727, 8099, 8092, 8191, 8160, 8164, 8145, 8135, 8145, 8180, 8172, 8072,3.5192413330078125
109, 8195, 8161, 7727, 8099, 8092, 8191, 8160, 8164, 8145, 8135, 8145, 8180, 8172, 8072,3.5192413330078125
110, 8180, 8150, 7715, 8090, 8084, 8181, 8156, 8161, 8127, 8122, 8145, 8163, 8162, 8067,3.527235507965088
110, 8180, 8150, 7715, 8090, 8084, 8181, 8156, 8161, 8127, 8122, 8145, 8163, 8162, 8067,3.527235507965088
111, 8178, 8144, 7720, 8087, 8065, 8187, 8154, 8161, 8132, 8123, 8162, 8163, 8169, 8079,3.535468101501465
111, 8178, 8144, 7720, 8087, 8065, 8187, 8154, 8161, 8132, 8123, 8162, 8163, 8169, 8079,3.535468101501465
112, 8202, 8159, 7743, 8082, 8068, 8214, 8152, 8192, 8135, 8132, 8157, 8177, 8179, 8086,3.5432963371276855
112, 8202, 8159, 7743, 8082, 8068, 8214, 8152, 8192, 8135, 8132, 8157, 8177, 8179, 8086,3.5432963371276855
113, 8174, 8181, 7746, 8099, 8106, 8209, 8181, 8184, 8165, 8167, 8164, 8178, 8162, 8087,3.5509145259857178
113, 8174, 8181, 7746, 8099, 8106, 8209, 8181, 8184, 8165, 8167, 8164, 8178, 8162, 8087,3.55191707611084
114, 8202, 8178, 7740, 8109, 8107, 8229, 8184, 8200, 8174, 8160, 8173, 8185, 8173, 8078,3.5590758323669434
114, 8202, 8178, 7740, 8109, 8107, 8229, 8184, 8200, 8174, 8160, 8173, 8185, 8173, 8078,3.5590758323669434
115, 8185, 8171, 7742, 8103, 8093, 8222, 8186, 8198, 8180, 8155, 8156, 8167, 8170, 8060,3.567063808441162
115, 8185, 8171, 7742, 8103, 8093, 8222, 8186, 8198, 8180, 8155, 8156, 8167, 8170, 8060,3.567063808441162
116, 8182, 8161, 7747, 8090, 8088, 8204, 8182, 8180, 8168, 8166, 8146, 8163, 8168, 8060,3.575444221496582
116, 8182, 8161, 7747, 8090, 8088, 8204, 8182, 8180, 8168, 8166, 8146, 8163, 8168, 8060,3.575444221496582
117, 8215, 8147, 7739, 8070, 8086, 8199, 8153, 8191, 8122, 8149, 8152, 8178, 8184, 8057,3.582468032836914
117, 8215, 8147, 7739, 8070, 8086, 8199, 8153, 8191, 8122, 8149, 8152, 8178, 8184, 8057,3.582954168319702
118, 8181, 8171, 7743, 8093, 8124, 8179, 8163, 8177, 8138, 8163, 8169, 8180, 8181, 8065,3.589972972869873
118, 8181, 8171, 7743, 8093, 8124, 8179, 8163, 8177, 8138, 8163, 8169, 8180, 8181, 8065,3.589972972869873
119, 8216, 8192, 7771, 8113, 8117, 8200, 8151, 8183, 8147, 8154, 8171, 8188, 8184, 8072,3.5979647636413574
119, 8216, 8192, 7771, 8113, 8117, 8200, 8151, 8183, 8147, 8154, 8171, 8188, 8184, 8072,3.5979647636413574
120, 8212, 8180, 7780, 8090, 8076, 8203, 8126, 8178, 8127, 8139, 8167, 8176, 8178, 8053,3.605973958969116
120, 8212, 8180, 7780, 8090, 8076, 8203, 8126, 8178, 8127, 8139, 8167, 8176, 8178, 8053,3.605973958969116
121, 8196, 8178, 7790, 8083, 8076, 8213, 8143, 8179, 8132, 8154, 8165, 8181, 8184, 8065,3.6139938831329346
121, 8196, 8178, 7790, 8083, 8076, 8213, 8143, 8179, 8132, 8154, 8165, 8181, 8184, 8065,3.6139938831329346
122, 8236, 8189, 7811, 8092, 8083, 8231, 8156, 8212, 8124, 8143, 8154, 8190, 8196, 8073,3.622372627258301
122, 8236, 8189, 7811, 8092, 8083, 8231, 8156, 8212, 8124, 8143, 8154, 8190, 8196, 8073,3.622372627258301
123, 8209, 8193, 7818, 8089, 8091, 8196, 8163, 8195, 8117, 8135, 8165, 8175, 8184, 8062,3.6303727626800537
123, 8209, 8193, 7818, 8089, 8091, 8196, 8163, 8195, 8117, 8135, 8165, 8175, 8184, 8062,3.6303727626800537
124, 8220, 8171, 7819, 8063, 8072, 8203, 8142, 8215, 8096, 8113, 8168, 8174, 8192, 8055,3.6384689807891846
124, 8220, 8171, 7819, 8063, 8072, 8203, 8142, 8215, 8096, 8113, 8168, 8174, 8192, 8055,3.6384689807891846
125, 8210, 8159, 7820, 8058, 8057, 8213, 8133, 8233, 8089, 8094, 8147, 8164, 8189, 8030,3.6454684734344482
125, 8210, 8159, 7820, 8058, 8057, 8213, 8133, 8233, 8089, 8094, 8147, 8164, 8189, 8030,3.6454684734344482
126, 8195, 8177, 7836, 8072, 8065, 8213, 8142, 8216, 8104, 8103, 8150, 8165, 8188, 8027,3.653468370437622
126, 8195, 8177, 7836, 8072, 8065, 8213, 8142, 8216, 8104, 8103, 8150, 8165, 8188, 8027,3.653468370437622
127, 8221, 8176, 7846, 8052, 8043, 8222, 8110, 8228, 8082, 8088, 8155, 8173, 8198, 8026,3.661447525024414
127, 8221, 8176, 7846, 8052, 8043, 8222, 8110, 8228, 8082, 8088, 8155, 8173, 8198, 8026,3.661447525024414
241, 8178, 8166, 7845, 8039, 8041, 8192, 8098, 8201, 8071, 8080, 8148, 8158, 8183, 8014,3.6694533824920654
241, 8178, 8166, 7845, 8039, 8041, 8192, 8098, 8201, 8071, 8080, 8148, 8158, 8183, 8014,3.6694533824920654
0, 8195, 8177, 7868, 8060, 8045, 8206, 8100, 8196, 8063, 8075, 8150, 8167, 8189, 8014,3.677431344985962
0, 8195, 8177, 7868, 8060, 8045, 8206, 8100, 8196, 8063, 8075, 8150, 8167, 8189, 8014,3.677431344985962
1, 8196, 8199, 7860, 8082, 8059, 8220, 8107, 8205, 8080, 8103, 8161, 8171, 8184, 8019,3.6854677200317383
1, 8196, 8199, 7860, 8082, 8059, 8220, 8107, 8205, 8080, 8103, 8161, 8171, 8184, 8019,3.6854677200317383
2, 8170, 8216, 7816, 8090, 8085, 8211, 8133, 8190, 8122, 8148, 8172, 8166, 8174, 8044,3.6934688091278076
2, 8170, 8216, 7816, 8090, 8085, 8211, 8133, 8190, 8122, 8148, 8172, 8166, 8174, 8044,3.6934688091278076
3, 8201, 8202, 7790, 8072, 8076, 8220, 8133, 8194, 8103, 8131, 8167, 8168, 8184, 8052,3.7017197608947754
3, 8201, 8202, 7790, 8072, 8076, 8220, 8133, 8194, 8103, 8131, 8167, 8168, 8184, 8052,3.7017197608947754
4, 8162, 8194, 7793, 8067, 8087, 8198, 8143, 8182, 8100, 8130, 8161, 8161, 8173, 8045,3.709474563598633
4, 8162, 8194, 7793, 8067, 8087, 8198, 8143, 8182, 8100, 8130, 8161, 8161, 8173, 8045,3.709474563598633
5, 8176, 8199, 7824, 8080, 8093, 8202, 8132, 8196, 8113, 8135, 8160, 8167, 8176, 8049,3.7164738178253174
5, 8176, 8199, 7824, 8080, 8093, 8202, 8132, 8196, 8113, 8135, 8160, 8167, 8176, 8049,3.7173843383789062
6, 8189, 8195, 7855, 8079, 8073, 8195, 8119, 8199, 8117, 8128, 8161, 8156, 8173, 8040,3.7244210243225098
6, 8189, 8195, 7855, 8079, 8073, 8195, 8119, 8199, 8117, 8128, 8161, 8156, 8173, 8040,3.7244210243225098
7, 8157, 8199, 7870, 8078, 8077, 8178, 8151, 8184, 8148, 8163, 8165, 8152, 8166, 8039,3.7324681282043457
7, 8157, 8199, 7870, 8078, 8077, 8178, 8151, 8184, 8148, 8163, 8165, 8152, 8166, 8039,3.7329070568084717
8, 8189, 8200, 7878, 8072, 8082, 8207, 8165, 8220, 8161, 8180, 8157, 8165, 8178, 8048,3.7399234771728516
8, 8189, 8200, 7878, 8072, 8082, 8207, 8165, 8220, 8161, 8180, 8157, 8165, 8178, 8048,3.7409167289733887
9, 8164, 8203, 7884, 8071, 8096, 8192, 8188, 8210, 8177, 8186, 8162, 8155, 8167, 8058,3.7489171028137207
9, 8164, 8203, 7884, 8071, 8096, 8192, 8188, 8210, 8177, 8186, 8162, 8155, 8167, 8058,3.7489171028137207
10, 8160, 8199, 7889, 8069, 8101, 8175, 8186, 8194, 8167, 8179, 8167, 8157, 8167, 8063,3.7564408779144287
10, 8160, 8199, 7889, 8069, 8101, 8175, 8186, 8194, 8167, 8179, 8167, 8157, 8167, 8063,3.7564408779144287
11, 8162, 8201, 7897, 8072, 8106, 8164, 8160, 8197, 8142, 8168, 8167, 8160, 8170, 8057,3.7645745277404785
11, 8162, 8201, 7897, 8072, 8106, 8164, 8160, 8197, 8142, 8168, 8167, 8160, 8170, 8057,3.7645745277404785
12, 8142, 8234, 7928, 8108, 8130, 8160, 8171, 8173, 8162, 8192, 8187, 8167, 8160, 8080,3.7725749015808105
12, 8142, 8234, 7928, 8108, 8130, 8160, 8171, 8173, 8162, 8192, 8187, 8167, 8160, 8080,3.7725749015808105
13, 8182, 8231, 7948, 8117, 8113, 8194, 8165, 8172, 8154, 8186, 8184, 8173, 8164, 8087,3.7795815467834473
13, 8182, 8231, 7948, 8117, 8113, 8194, 8165, 8172, 8154, 8186, 8184, 8173, 8164, 8087,3.7795815467834473
14, 8144, 8206, 7935, 8093, 8105, 8174, 8164, 8152, 8145, 8184, 8167, 8144, 8155, 8071,3.787426710128784
14, 8144, 8206, 7935, 8093, 8105, 8174, 8164, 8152, 8145, 8184, 8167, 8144, 8155, 8071,3.787426710128784
15, 8139, 8199, 7934, 8076, 8116, 8166, 8167, 8153, 8129, 8169, 8164, 8137, 8157, 8075,3.795469045639038
15, 8139, 8199, 7934, 8076, 8116, 8166, 8167, 8153, 8129, 8169, 8164, 8137, 8157, 8075,3.795469045639038
16, 8156, 8200, 7934, 8073, 8120, 8178, 8163, 8164, 8097, 8142, 8160, 8147, 8158, 8071,3.803006172180176
16, 8156, 8200, 7934, 8073, 8120, 8178, 8163, 8164, 8097, 8142, 8160, 8147, 8158, 8071,3.803006172180176
17, 8119, 8217, 7929, 8097, 8120, 8169, 8182, 8143, 8124, 8171, 8164, 8153, 8145, 8078,3.811053514480591
17, 8119, 8217, 7929, 8097, 8120, 8169, 8182, 8143, 8124, 8171, 8164, 8153, 8145, 8078,3.811053514480591
18, 8153, 8218, 7939, 8108, 8106, 8178, 8180, 8165, 8157, 8184, 8167, 8165, 8153, 8086,3.8190014362335205
18, 8153, 8218, 7939, 8108, 8106, 8178, 8180, 8165, 8157, 8184, 8167, 8165, 8153, 8086,3.8190014362335205
19, 8140, 8205, 7939, 8095, 8132, 8151, 8187, 8164, 8166, 8192, 8162, 8156, 8150, 8072,3.8270015716552734
19, 8140, 8205, 7939, 8095, 8132, 8151, 8187, 8164, 8166, 8192, 8162, 8156, 8150, 8072,3.8270015716552734
20, 8132, 8197, 7935, 8089, 8142, 8150, 8183, 8155, 8153, 8191, 8154, 8153, 8149, 8067,3.835001230239868
20, 8132, 8197, 7935, 8089, 8142, 8150, 8183, 8155, 8153, 8191, 8154, 8153, 8149, 8067,3.835001230239868
21, 8155, 8202, 7954, 8096, 8129, 8170, 8166, 8169, 8145, 8174, 8159, 8165, 8156, 8076,3.841917037963867
21, 8155, 8202, 7954, 8096, 8129, 8170, 8166, 8169, 8145, 8174, 8159, 8165, 8156, 8076,3.841917037963867
22, 8130, 8222, 7981, 8120, 8165, 8151, 8185, 8152, 8180, 8207, 8175, 8175, 8154, 8099,3.8499186038970947
22, 8130, 8222, 7981, 8120, 8165, 8151, 8185, 8152, 8180, 8207, 8175, 8175, 8154, 8099,3.8499186038970947
23, 8159, 8215, 7994, 8119, 8163, 8166, 8183, 8158, 8180, 8221, 8167, 8180, 8160, 8104,3.8579180240631104
23, 8159, 8215, 7994, 8119, 8163, 8166, 8183, 8158, 8180, 8221, 8167, 8180, 8160, 8104,3.858919620513916
24, 8139, 8218, 7996, 8114, 8144, 8166, 8192, 8149, 8181, 8223, 8167, 8171, 8146, 8106,3.865917921066284
24, 8139, 8218, 7996, 8114, 8144, 8166, 8192, 8149, 8181, 8223, 8167, 8171, 8146, 8106,3.865917921066284
25, 8136, 8244, 8014, 8137, 8158, 8167, 8208, 8139, 8184, 8234, 8177, 8172, 8146, 8129,3.8739168643951416
25, 8136, 8244, 8014, 8137, 8158, 8167, 8208, 8139, 8184, 8234, 8177, 8172, 8146, 8129,3.8739168643951416
26, 8170, 8231, 8015, 8126, 8146, 8169, 8193, 8150, 8156, 8222, 8163, 8168, 8159, 8122,3.8818938732147217
26, 8170, 8231, 8015, 8126, 8146, 8169, 8193, 8150, 8156, 8222, 8163, 8168, 8159, 8122,3.8818938732147217
27, 8126, 8210, 8003, 8111, 8149, 8130, 8192, 8122, 8163, 8213, 8154, 8151, 8142, 8107,3.8899009227752686
27, 8126, 8210, 8003, 8111, 8149, 8130, 8192, 8122, 8163, 8213, 8154, 8151, 8142, 8107,3.8899009227752686
28, 8144, 8204, 8008, 8119, 8159, 8136, 8178, 8123, 8143, 8181, 8151, 8154, 8141, 8101,3.897900104522705
28, 8144, 8204, 8008, 8119, 8159, 8136, 8178, 8123, 8143, 8181, 8151, 8154, 8141, 8101,3.897900104522705
29, 8130, 8188, 7997, 8106, 8146, 8140, 8178, 8125, 8116, 8178, 8148, 8147, 8142, 8082,3.9054079055786133
29, 8130, 8188, 7997, 8106, 8146, 8140, 8178, 8125, 8116, 8178, 8148, 8147, 8142, 8082,3.9054079055786133
30, 8104, 8159, 7974, 8069, 8127, 8148, 8190, 8131, 8138, 8197, 8151, 8140, 8144, 8075,3.9133689403533936
30, 8104, 8159, 7974, 8069, 8127, 8148, 8190, 8131, 8138, 8197, 8151, 8140, 8144, 8075,3.9133689403533936
31, 8132, 8145, 7967, 8052, 8112, 8161, 8170, 8158, 8155, 8179, 8146, 8146, 8149, 8071,3.921109914779663
31, 8132, 8145, 7967, 8052, 8112, 8161, 8170, 8158, 8155, 8179, 8146, 8146, 8149, 8071,3.921109914779663
32, 8104, 8168, 7986, 8097, 8132, 8144, 8184, 8136, 8183, 8205, 8156, 8147, 8141, 8076,3.929109811782837
32, 8104, 8168, 7986, 8097, 8132, 8144, 8184, 8136, 8183, 8205, 8156, 8147, 8141, 8076,3.929109811782837
33, 8136, 8200, 8013, 8129, 8147, 8169, 8199, 8144, 8179, 8228, 8168, 8162, 8152, 8088,3.9374330043792725
33, 8136, 8200, 8013, 8129, 8147, 8169, 8199, 8144, 8179, 8228, 8168, 8162, 8152, 8088,3.9374330043792725
34, 8145, 8222, 8020, 8119, 8166, 8169, 8205, 8152, 8169, 8218, 8167, 8167, 8153, 8097,3.945467233657837
34, 8145, 8222, 8020, 8119, 8166, 8169, 8205, 8152, 8169, 8218, 8167, 8167, 8153, 8097,3.945467233657837
35, 8129, 8239, 8032, 8135, 8187, 8156, 8215, 8136, 8191, 8223, 8166, 8168, 8142, 8115,3.9534592628479004
35, 8129, 8239, 8032, 8135, 8187, 8156, 8215, 8136, 8191, 8223, 8166, 8168, 8142, 8115,3.9534592628479004
36, 8169, 8238, 8048, 8137, 8152, 8167, 8196, 8144, 8169, 8215, 8167, 8186, 8150, 8115,3.9614686965942383
36, 8169, 8238, 8048, 8137, 8152, 8167, 8196, 8144, 8169, 8215, 8167, 8186, 8150, 8115,3.9614686965942383
37, 8144, 8244, 8044, 8123, 8139, 8149, 8194, 8128, 8142, 8214, 8170, 8179, 8147, 8103,3.969672918319702
37, 8144, 8244, 8044, 8123, 8139, 8149, 8194, 8128, 8142, 8214, 8170, 8179, 8147, 8103,3.969672918319702
38, 8162, 8257, 8048, 8122, 8142, 8162, 8175, 8137, 8118, 8180, 8159, 8166, 8150, 8094,3.976468324661255
38, 8162, 8257, 8048, 8122, 8142, 8162, 8175, 8137, 8118, 8180, 8159, 8166, 8150, 8094,3.976468324661255
39, 8173, 8265, 8056, 8118, 8132, 8167, 8151, 8145, 8104, 8150, 8152, 8168, 8150, 8082,3.9844560623168945
39, 8173, 8265, 8056, 8118, 8132, 8167, 8151, 8145, 8104, 8150, 8152, 8168, 8150, 8082,3.9844560623168945
40, 8154, 8260, 8059, 8114, 8130, 8167, 8156, 8123, 8095, 8170, 8156, 8173, 8147, 8080,3.99247407913208
40, 8154, 8260, 8059, 8114, 8130, 8167, 8156, 8123, 8095, 8170, 8156, 8173, 8147, 8080,3.99247407913208
41, 8182, 8217, 8060, 8097, 8119, 8193, 8154, 8140, 8072, 8159, 8144, 8174, 8159, 8079,4.000646352767944
41, 8182, 8217, 8060, 8097, 8119, 8193, 8154, 8140, 8072, 8159, 8144, 8174, 8159, 8079,4.000646352767944
42, 8139, 8184, 8060, 8092, 8142, 8163, 8180, 8143, 8111, 8169, 8146, 8166, 8153, 8082,4.00817084312439
42, 8139, 8184, 8060, 8092, 8142, 8163, 8180, 8143, 8111, 8169, 8146, 8166, 8153, 8082,4.00817084312439
43, 8137, 8176, 8068, 8103, 8144, 8146, 8185, 8155, 8140, 8185, 8157, 8174, 8156, 8091,4.016167163848877
43, 8137, 8176, 8068, 8103, 8144, 8146, 8185, 8155, 8140, 8185, 8157, 8174, 8156, 8091,4.016167163848877
44, 8154, 8176, 8074, 8110, 8131, 8141, 8170, 8171, 8140, 8180, 8159, 8183, 8165, 8095,4.024461984634399
44, 8154, 8176, 8074, 8110, 8131, 8141, 8170, 8171, 8140, 8180, 8159, 8183, 8165, 8095,4.024461984634399
45, 8129, 8174, 8082, 8118, 8146, 8130, 8172, 8160, 8169, 8194, 8164, 8177, 8156, 8099,4.032468318939209
45, 8129, 8174, 8082, 8118, 8146, 8130, 8172, 8160, 8169, 8194, 8164, 8177, 8156, 8099,4.032468318939209
46, 8155, 8143, 8083, 8102, 8124, 8141, 8144, 8156, 8153, 8186, 8153, 8173, 8154, 8086,4.03948974609375
46, 8155, 8143, 8083, 8102, 8124, 8141, 8144, 8156, 8153, 8186, 8153, 8173, 8154, 8086,4.03948974609375
47, 8127, 8131, 8076, 8096, 8121, 8123, 8148, 8130, 8129, 8187, 8146, 8164, 8148, 8086,4.047490835189819
47, 8127, 8131, 8076, 8096, 8121, 8123, 8148, 8130, 8129, 8187, 8146, 8164, 8148, 8086,4.04848837852478
48, 8131, 8134, 8086, 8101, 8142, 8134, 8161, 8130, 8120, 8176, 8155, 8170, 8147, 8101,4.0554914474487305
48, 8131, 8134, 8086, 8101, 8142, 8134, 8161, 8130, 8120, 8176, 8155, 8170, 8147, 8101,4.0554914474487305
49, 8143, 8111, 8078, 8087, 8130, 8144, 8131, 8138, 8099, 8152, 8159, 8180, 8151, 8082,4.063013076782227
49, 8143, 8111, 8078, 8087, 8130, 8144, 8131, 8138, 8099, 8152, 8159, 8180, 8151, 8082,4.063013076782227
50, 8107, 8105, 8069, 8092, 8106, 8142, 8124, 8112, 8101, 8165, 8154, 8172, 8148, 8063,4.0710129737854
50, 8107, 8105, 8069, 8092, 8106, 8142, 8124, 8112, 8101, 8165, 8154, 8172, 8148, 8063,4.0710129737854
51, 8148, 8115, 8096, 8096, 8094, 8173, 8134, 8130, 8103, 8158, 8147, 8177, 8160, 8070,4.07945442199707
51, 8148, 8115, 8096, 8096, 8094, 8173, 8134, 8130, 8103, 8158, 8147, 8177, 8160, 8070,4.07945442199707
52, 8148, 8117, 8114, 8093, 8117, 8164, 8150, 8133, 8103, 8150, 8156, 8180, 8158, 8073,4.087431192398071
52, 8148, 8117, 8114, 8093, 8117, 8164, 8150, 8133, 8103, 8150, 8156, 8180, 8158, 8073,4.087431192398071
53, 8152, 8103, 8116, 8094, 8122, 8165, 8152, 8130, 8086, 8144, 8157, 8184, 8158, 8059,4.0954976081848145
53, 8152, 8103, 8116, 8094, 8122, 8165, 8152, 8130, 8086, 8144, 8157, 8184, 8158, 8059,4.0954976081848145
54, 8174, 8088, 8125, 8078, 8093, 8168, 8154, 8157, 8073, 8131, 8150, 8190, 8167, 8054,4.10201621055603
54, 8174, 8088, 8125, 8078, 8093, 8168, 8154, 8157, 8073, 8131, 8150, 8190, 8167, 8054,4.103025674819946
55, 8151, 8100, 8119, 8070, 8091, 8152, 8164, 8159, 8106, 8139, 8158, 8179, 8160, 8069,4.110436677932739
55, 8151, 8100, 8119, 8070, 8091, 8152, 8164, 8159, 8106, 8139, 8158, 8179, 8160, 8069,4.110436677932739
56, 8185, 8101, 8098, 8067, 8094, 8179, 8127, 8182, 8112, 8123, 8159, 8182, 8172, 8066,4.1184680461883545
56, 8185, 8101, 8098, 8067, 8094, 8179, 8127, 8182, 8112, 8123, 8159, 8182, 8172, 8066,4.1184680461883545
57, 8166, 8098, 8092, 8075, 8105, 8173, 8122, 8185, 8120, 8138, 8166, 8186, 8179, 8062,4.12648606300354
57, 8166, 8098, 8092, 8075, 8105, 8173, 8122, 8185, 8120, 8138, 8166, 8186, 8179, 8062,4.12648606300354
58, 8162, 8109, 8111, 8086, 8114, 8156, 8138, 8171, 8127, 8175, 8174, 8182, 8174, 8083,4.134486198425293
58, 8162, 8109, 8111, 8086, 8114, 8156, 8138, 8171, 8127, 8175, 8174, 8182, 8174, 8083,4.134486198425293
59, 8204, 8117, 8127, 8078, 8106, 8164, 8121, 8184, 8110, 8168, 8172, 8189, 8178, 8093,4.142529726028442
59, 8204, 8117, 8127, 8078, 8106, 8164, 8121, 8184, 8110, 8168, 8172, 8189, 8178, 8093,4.142529726028442
60, 8194, 8127, 8136, 8089, 8109, 8172, 8124, 8177, 8132, 8164, 8174, 8190, 8172, 8086,4.150469064712524
60, 8194, 8127, 8136, 8089, 8109, 8172, 8124, 8177, 8132, 8164, 8174, 8190, 8172, 8086,4.150469064712524
61, 8220, 8132, 8142, 8102, 8090, 8191, 8119, 8191, 8136, 8154, 8167, 8182, 8175, 8080,4.158444166183472
61, 8220, 8132, 8142, 8102, 8090, 8191, 8119, 8191, 8136, 8154, 8167, 8182, 8175, 8080,4.158444166183472
62, 8176, 8145, 8132, 8102, 8103, 8155, 8128, 8186, 8122, 8175, 8166, 8173, 8171, 8083,4.165440320968628
62, 8176, 8145, 8132, 8102, 8103, 8155, 8128, 8186, 8122, 8175, 8166, 8173, 8171, 8083,4.165440320968628
63, 8133, 8151, 8130, 8096, 8131, 8139, 8140, 8159, 8116, 8188, 8171, 8168, 8163, 8093,4.173438310623169
63, 8133, 8151, 8130, 8096, 8131, 8139, 8140, 8159, 8116, 8188, 8171, 8168, 8163, 8093,4.173438310623169
64, 8149, 8136, 8124, 8075, 8113, 8159, 8137, 8165, 8112, 8156, 8170, 8163, 8170, 8090,4.181467771530151
64, 8149, 8136, 8124, 8075, 8113, 8159, 8137, 8165, 8112, 8156, 8170, 8163, 8170, 8090,4.181467771530151
65, 8105, 8143, 8111, 8085, 8138, 8147, 8173, 8152, 8148, 8182, 8177, 8160, 8162, 8088,4.189452171325684
65, 8105, 8143, 8111, 8085, 8138, 8147, 8173, 8152, 8148, 8182, 8177, 8160, 8162, 8088,4.189452171325684
66, 8122, 8159, 8118, 8106, 8163, 8163, 8186, 8157, 8150, 8211, 8178, 8169, 8162, 8093,4.1977317333221436
66, 8122, 8159, 8118, 8106, 8163, 8163, 8186, 8157, 8150, 8211, 8178, 8169, 8162, 8093,4.1977317333221436
67, 8127, 8164, 8126, 8110, 8152, 8165, 8182, 8166, 8156, 8213, 8171, 8159, 8159, 8098,4.205269813537598
67, 8127, 8164, 8126, 8110, 8152, 8165, 8182, 8166, 8156, 8213, 8171, 8159, 8159, 8098,4.205269813537598
68, 8111, 8159, 8135, 8122, 8152, 8146, 8188, 8159, 8190, 8214, 8164, 8143, 8152, 8108,4.213468551635742
68, 8111, 8159, 8135, 8122, 8152, 8146, 8188, 8159, 8190, 8214, 8164, 8143, 8152, 8108,4.213468551635742
69, 8143, 8149, 8140, 8115, 8156, 8136, 8175, 8172, 8174, 8205, 8166, 8156, 8162, 8113,4.22028374671936
69, 8143, 8149, 8140, 8115, 8156, 8136, 8175, 8172, 8174, 8205, 8166, 8156, 8162, 8113,4.22028374671936
70, 8121, 8162, 8139, 8111, 8172, 8127, 8185, 8167, 8180, 8236, 8183, 8168, 8156, 8128,4.229468107223511
70, 8121, 8162, 8139, 8111, 8172, 8127, 8185, 8167, 8180, 8236, 8183, 8168, 8156, 8128,4.229468107223511
71, 8133, 8164, 8139, 8122, 8168, 8162, 8182, 8171, 8201, 8239, 8177, 8170, 8156, 8127,4.236468553543091
71, 8133, 8164, 8139, 8122, 8168, 8162, 8182, 8171, 8201, 8239, 8177, 8170, 8156, 8127,4.236468553543091
72, 8122, 8148, 8138, 8127, 8169, 8158, 8180, 8172, 8203, 8213, 8159, 8164, 8152, 8104,4.244772911071777
72, 8122, 8148, 8138, 8127, 8169, 8158, 8180, 8172, 8203, 8213, 8159, 8164, 8152, 8104,4.244772911071777
73, 8100, 8152, 8146, 8127, 8175, 8132, 8198, 8146, 8204, 8217, 8161, 8157, 8141, 8102,4.251735210418701
73, 8100, 8152, 8146, 8127, 8175, 8132, 8198, 8146, 8204, 8217, 8161, 8157, 8141, 8102,4.252727508544922
74, 8142, 8152, 8143, 8115, 8146, 8138, 8187, 8147, 8168, 8194, 8155, 8161, 8153, 8104,4.260468482971191
74, 8142, 8152, 8143, 8115, 8146, 8138, 8187, 8147, 8168, 8194, 8155, 8161, 8153, 8104,4.260468482971191
75, 8111, 8135, 8126, 8108, 8147, 8123, 8189, 8135, 8146, 8176, 8151, 8151, 8149, 8097,4.268751859664917
75, 8111, 8135, 8126, 8108, 8147, 8123, 8189, 8135, 8146, 8176, 8151, 8151, 8149, 8097,4.268751859664917
76, 8105, 8111, 8131, 8101, 8156, 8134, 8178, 8129, 8116, 8174, 8156, 8145, 8144, 8087,4.276468753814697
76, 8105, 8111, 8131, 8101, 8156, 8134, 8178, 8129, 8116, 8174, 8156, 8145, 8144, 8087,4.276468753814697
77, 8110, 8107, 8136, 8095, 8143, 8141, 8153, 8134, 8100, 8172, 8156, 8145, 8150, 8069,4.283626079559326
77, 8110, 8107, 8136, 8095, 8143, 8141, 8153, 8134, 8100, 8172, 8156, 8145, 8150, 8069,4.283626079559326
78, 8094, 8121, 8132, 8108, 8142, 8130, 8159, 8129, 8140, 8178, 8154, 8137, 8147, 8073,4.292634010314941
78, 8094, 8121, 8132, 8108, 8142, 8130, 8159, 8129, 8140, 8178, 8154, 8137, 8147, 8073,4.292634010314941
79, 8130, 8110, 8136, 8102, 8134, 8144, 8162, 8160, 8159, 8175, 8156, 8145, 8154, 8093,4.299467325210571
79, 8130, 8110, 8136, 8102, 8134, 8144, 8162, 8160, 8159, 8175, 8156, 8145, 8154, 8093,4.299467325210571
80, 8105, 8102, 8134, 8091, 8141, 8134, 8172, 8160, 8174, 8201, 8166, 8147, 8153, 8099,4.307645559310913
80, 8105, 8102, 8134, 8091, 8141, 8134, 8172, 8160, 8174, 8201, 8166, 8147, 8153, 8099,4.307645559310913
81, 8102, 8099, 8127, 8091, 8149, 8144, 8170, 8153, 8174, 8209, 8163, 8142, 8151, 8091,4.315467596054077
81, 8102, 8099, 8127, 8091, 8149, 8144, 8170, 8153, 8174, 8209, 8163, 8142, 8151, 8091,4.315467596054077
82, 8121, 8099, 8130, 8098, 8147, 8146, 8157, 8166, 8163, 8196, 8163, 8148, 8154, 8083,4.32344126701355
82, 8121, 8099, 8130, 8098, 8147, 8146, 8157, 8166, 8163, 8196, 8163, 8148, 8154, 8083,4.32344126701355
83, 8109, 8123, 8152, 8125, 8158, 8129, 8169, 8151, 8180, 8213, 8176, 8153, 8146, 8091,4.331438064575195
83, 8109, 8123, 8152, 8125, 8158, 8129, 8169, 8151, 8180, 8213, 8176, 8153, 8146, 8091,4.331438064575195
84, 8144, 8124, 8157, 8126, 8159, 8151, 8173, 8158, 8168, 8202, 8159, 8156, 8149, 8100,4.339467525482178
84, 8144, 8124, 8157, 8126, 8159, 8151, 8173, 8158, 8168, 8202, 8159, 8156, 8149, 8100,4.339467525482178
85, 8119, 8110, 8141, 8106, 8167, 8145, 8193, 8157, 8153, 8194, 8144, 8145, 8146, 8095,4.347383737564087
85, 8119, 8110, 8141, 8106, 8167, 8145, 8193, 8157, 8153, 8194, 8144, 8145, 8146, 8095,4.347383737564087
86, 8117, 8109, 8145, 8104, 8175, 8136, 8203, 8152, 8154, 8191, 8156, 8139, 8148, 8091,4.3544676303863525
86, 8117, 8109, 8145, 8104, 8175, 8136, 8203, 8152, 8154, 8191, 8156, 8139, 8148, 8091,4.3544676303863525
87, 8146, 8106, 8149, 8109, 8169, 8135, 8178, 8157, 8145, 8171, 8162, 8145, 8157, 8084,4.363463401794434
87, 8146, 8106, 8149, 8109, 8169, 8135, 8178, 8157, 8145, 8171, 8162, 8145, 8157, 8084,4.363463401794434
88, 8121, 8114, 8145, 8122, 8163, 8136, 8180, 8134, 8137, 8189, 8157, 8144, 8146, 8084,4.370473146438599
88, 8121, 8114, 8145, 8122, 8163, 8136, 8180, 8134, 8137, 8189, 8157, 8144, 8146, 8084,4.370473146438599
89, 8154, 8120, 8156, 8124, 8158, 8166, 8186, 8145, 8130, 8194, 8155, 8150, 8148, 8094,4.37847638130188
89, 8154, 8120, 8156, 8124, 8158, 8166, 8186, 8145, 8130, 8194, 8155, 8150, 8148, 8094,4.37847638130188
90, 8151, 8120, 8163, 8115, 8180, 8156, 8195, 8161, 8155, 8193, 8165, 8152, 8157, 8105,4.386468172073364
90, 8151, 8120, 8163, 8115, 8180, 8156, 8195, 8161, 8155, 8193, 8165, 8152, 8157, 8105,4.386468172073364
91, 8151, 8122, 8166, 8121, 8172, 8162, 8192, 8167, 8179, 8199, 8167, 8154, 8158, 8113,4.394468069076538
91, 8151, 8122, 8166, 8121, 8172, 8162, 8192, 8167, 8179, 8199, 8167, 8154, 8158, 8113,4.394468069076538
92, 8177, 8121, 8168, 8123, 8132, 8187, 8166, 8184, 8165, 8185, 8160, 8162, 8159, 8101,4.402468919754028
92, 8177, 8121, 8168, 8123, 8132, 8187, 8166, 8184, 8165, 8185, 8160, 8162, 8159, 8101,4.402468919754028
93, 8142, 8119, 8166, 8112, 8158, 8158, 8170, 8164, 8167, 8195, 8160, 8153, 8152, 8087,4.409987449645996
93, 8142, 8119, 8166, 8112, 8158, 8158, 8170, 8164, 8167, 8195, 8160, 8153, 8152, 8087,4.410984039306641
94, 8168, 8106, 8175, 8091, 8161, 8158, 8166, 8163, 8162, 8203, 8156, 8155, 8159, 8093,4.417989730834961
94, 8168, 8106, 8175, 8091, 8161, 8158, 8166, 8163, 8162, 8203, 8156, 8155, 8159, 8093,4.4189794063568115
95, 8173, 8104, 8184, 8096, 8134, 8164, 8163, 8162, 8145, 8185, 8153, 8161, 8158, 8096,4.42602014541626
95, 8173, 8104, 8184, 8096, 8134, 8164, 8163, 8162, 8145, 8185, 8153, 8161, 8158, 8096,4.42602014541626
96, 8162, 8105, 8183, 8114, 8148, 8150, 8160, 8148, 8121, 8151, 8147, 8156, 8154, 8084,4.433425664901733
96, 8162, 8105, 8183, 8114, 8148, 8150, 8160, 8148, 8121, 8151, 8147, 8156, 8154, 8084,4.433425664901733
97, 8184, 8093, 8173, 8090, 8144, 8160, 8143, 8162, 8093, 8131, 8145, 8163, 8166, 8075,4.441425323486328
97, 8184, 8093, 8173, 8090, 8144, 8160, 8143, 8162, 8093, 8131, 8145, 8163, 8166, 8075,4.441425323486328
98, 8152, 8100, 8172, 8082, 8122, 8183, 8143, 8148, 8101, 8150, 8158, 8165, 8159, 8074,4.449467658996582
98, 8152, 8100, 8172, 8082, 8122, 8183, 8143, 8148, 8101, 8150, 8158, 8165, 8159, 8074,4.449467658996582
99, 8170, 8109, 8183, 8097, 8102, 8201, 8124, 8149, 8082, 8139, 8153, 8161, 8156, 8066,4.4574339389801025
99, 8170, 8109, 8183, 8097, 8102, 8201, 8124, 8149, 8082, 8139, 8153, 8161, 8156, 8066,4.4574339389801025
100, 8184, 8116, 8193, 8104, 8121, 8171, 8117, 8168, 8076, 8144, 8150, 8163, 8162, 8074,4.465444087982178
