COUNTER,F3,FC5,AF3,F7,T7,P7,O1,O2,P8,T8,F8,AF4,FC6,F4,Timestamp
52, 8184, 8177, 8158, 8148, 8178, 8172, 8184, 8169, 8184, 8190, 8159, 8175, 8165, 8101,0.003999948501586914
52, 8184, 8177, 8158, 8148, 8178, 8172, 8184, 8169, 8184, 8190, 8159, 8175, 8165, 8101,0.005000114440917969
53, 8178, 8177, 8157, 8141, 8167, 8164, 8184, 8173, 8178, 8184, 8153, 8171, 8166, 8093,0.012699604034423828
53, 8178, 8177, 8157, 8141, 8167, 8164, 8184, 8173, 8178, 8184, 8153, 8171, 8166, 8093,0.012699604034423828
54, 8168, 8193, 8162, 8158, 8179, 8165, 8205, 8168, 8184, 8193, 8156, 8165, 8159, 8107,0.020698070526123047
54, 8168, 8193, 8162, 8158, 8179, 8165, 8205, 8168, 8184, 8193, 8156, 8165, 8159, 8107,0.020698070526123047
55, 8188, 8188, 8161, 8148, 8176, 8185, 8201, 8186, 8174, 8172, 8160, 8184, 8176, 8108,0.028697967529296875
55, 8188, 8188, 8161, 8148, 8176, 8185, 8201, 8186, 8174, 8172, 8160, 8184, 8176, 8108,0.028697967529296875
56, 8162, 8175, 8148, 8140, 8174, 8178, 8201, 8158, 8171, 8176, 8149, 8161, 8157, 8093,0.03670048713684082
56, 8162, 8175, 8148, 8140, 8174, 8178, 8201, 8158, 8171, 8176, 8149, 8161, 8157, 8093,0.03670048713684082
57, 8183, 8180, 8157, 8148, 8168, 8194, 8202, 8162, 8170, 8191, 8160, 8174, 8162, 8108,0.04381251335144043
57, 8183, 8180, 8157, 8148, 8168, 8194, 8202, 8162, 8170, 8191, 8160, 8174, 8162, 8108,0.04481220245361328
58, 8188, 8180, 8170, 8147, 8173, 8190, 8199, 8169, 8176, 8184, 8165, 8183, 8161, 8109,0.05261969566345215
58, 8188, 8180, 8170, 8147, 8173, 8190, 8199, 8169, 8176, 8184, 8165, 8183, 8161, 8109,0.05261969566345215
59, 8168, 8173, 8168, 8150, 8179, 8175, 8196, 8148, 8181, 8181, 8153, 8173, 8153, 8099,0.06062793731689453
59, 8168, 8173, 8168, 8150, 8179, 8175, 8196, 8148, 8181, 8181, 8153, 8173, 8153, 8099,0.06062793731689453
60, 8186, 8173, 8161, 8149, 8144, 8179, 8184, 8168, 8158, 8176, 8154, 8191, 8172, 8099,0.06741499900817871
60, 8186, 8173, 8161, 8149, 8144, 8179, 8184, 8168, 8158, 8176, 8154, 8191, 8172, 8099,0.06741499900817871
61, 8162, 8177, 8162, 8140, 8137, 8164, 8182, 8154, 8152, 8170, 8150, 8167, 8156, 8089,0.07492947578430176
61, 8162, 8177, 8162, 8140, 8137, 8164, 8182, 8154, 8152, 8170, 8150, 8167, 8156, 8089,0.0759286880493164
62, 8176, 8170, 8167, 8133, 8155, 8174, 8166, 8154, 8140, 8150, 8153, 8177, 8167, 8087,0.08292913436889648
62, 8176, 8170, 8167, 8133, 8155, 8174, 8166, 8154, 8140, 8150, 8153, 8177, 8167, 8087,0.08292913436889648
63, 8186, 8183, 8172, 8149, 8159, 8171, 8165, 8169, 8137, 8151, 8160, 8195, 8174, 8093,0.0914452075958252
63, 8186, 8183, 8172, 8149, 8159, 8171, 8165, 8169, 8137, 8151, 8160, 8195, 8174, 8093,0.0914452075958252
64, 8166, 8204, 8178, 8169, 8163, 8161, 8185, 8158, 8157, 8173, 8166, 8179, 8154, 8108,0.0994713306427002
64, 8166, 8204, 8178, 8169, 8163, 8161, 8185, 8158, 8157, 8173, 8166, 8179, 8154, 8108,0.0994713306427002
65, 8186, 8194, 8171, 8154, 8159, 8176, 8169, 8170, 8139, 8164, 8166, 8188, 8177, 8113,0.10747671127319336
65, 8186, 8194, 8171, 8154, 8159, 8176, 8169, 8170, 8139, 8164, 8166, 8188, 8177, 8113,0.10747671127319336
66, 8178, 8201, 8176, 8162, 8172, 8165, 8175, 8163, 8140, 8172, 8158, 8185, 8170, 8110,0.11494970321655273
66, 8178, 8201, 8176, 8162, 8172, 8165, 8175, 8163, 8140, 8172, 8158, 8185, 8170, 8110,0.115936279296875
67, 8194, 8219, 8192, 8180, 8177, 8173, 8190, 8175, 8161, 8182, 8167, 8210, 8167, 8130,0.12294363975524902
67, 8194, 8219, 8192, 8180, 8177, 8173, 8190, 8175, 8161, 8182, 8167, 8210, 8167, 8130,0.12393712997436523
68, 8194, 8209, 8180, 8172, 8165, 8175, 8179, 8182, 8156, 8172, 8166, 8212, 8167, 8121,0.13109302520751953
68, 8194, 8209, 8180, 8172, 8165, 8175, 8179, 8182, 8156, 8172, 8166, 8212, 8167, 8121,0.13209152221679688
69, 8170, 8201, 8168, 8174, 8169, 8155, 8174, 8155, 8158, 8165, 8155, 8179, 8147, 8099,0.13872599601745605
69, 8170, 8201, 8168, 8174, 8169, 8155, 8174, 8155, 8158, 8165, 8155, 8179, 8147, 8099,0.13872599601745605
70, 8206, 8206, 8178, 8178, 8174, 8161, 8167, 8176, 8160, 8153, 8163, 8202, 8163, 8113,0.14672613143920898
70, 8206, 8206, 8178, 8178, 8174, 8161, 8167, 8176, 8160, 8153, 8163, 8202, 8163, 8113,0.14672613143920898
71, 8192, 8217, 8187, 8184, 8181, 8149, 8173, 8168, 8175, 8172, 8170, 8198, 8158, 8120,0.15444374084472656
71, 8192, 8217, 8187, 8184, 8181, 8149, 8173, 8168, 8175, 8172, 8170, 8198, 8158, 8120,0.15444374084472656
72, 8189, 8225, 8188, 8193, 8187, 8162, 8180, 8166, 8181, 8197, 8174, 8198, 8165, 8117,0.162492036819458
72, 8189, 8225, 8188, 8193, 8187, 8162, 8180, 8166, 8181, 8197, 8174, 8198, 8165, 8117,0.162492036819458
73, 8194, 8216, 8179, 8183, 8182, 8173, 8174, 8182, 8170, 8194, 8166, 8204, 8170, 8100,0.1694803237915039
73, 8194, 8216, 8179, 8183, 8182, 8173, 8174, 8182, 8170, 8194, 8166, 8204, 8170, 8100,0.1694803237915039
74, 8156, 8195, 8162, 8164, 8169, 8155, 8159, 8151, 8170, 8194, 8152, 8168, 8144, 8074,0.17800259590148926
74, 8156, 8195, 8162, 8164, 8169, 8155, 8159, 8151, 8170, 8194, 8152, 8168, 8144, 8074,0.17800259590148926
75, 8174, 8183, 8158, 8156, 8153, 8175, 8129, 8162, 8162, 8183, 8156, 8183, 8163, 8069,0.18655800819396973
75, 8174, 8183, 8158, 8156, 8153, 8175, 8129, 8162, 8162, 8183, 8156, 8183, 8163, 8069,0.18655800819396973
76, 8171, 8187, 8171, 8168, 8153, 8194, 8145, 8171, 8169, 8176, 8155, 8190, 8159, 8074,0.1935582160949707
76, 8171, 8187, 8171, 8168, 8153, 8194, 8145, 8171, 8169, 8176, 8155, 8190, 8159, 8074,0.1935582160949707
77, 8179, 8194, 8179, 8169, 8145, 8214, 8174, 8165, 8176, 8178, 8161, 8191, 8153, 8085,0.2012345790863037
77, 8179, 8194, 8179, 8169, 8145, 8214, 8174, 8165, 8176, 8178, 8161, 8191, 8153, 8085,0.2012345790863037
78, 8193, 8193, 8168, 8159, 8148, 8216, 8161, 8170, 8164, 8175, 8160, 8195, 8167, 8076,0.20925092697143555
78, 8193, 8193, 8168, 8159, 8148, 8216, 8161, 8170, 8164, 8175, 8160, 8195, 8167, 8076,0.20925092697143555
79, 8161, 8194, 8156, 8164, 8180, 8189, 8151, 8147, 8164, 8177, 8145, 8170, 8148, 8060,0.21739864349365234
79, 8161, 8194, 8156, 8164, 8180, 8189, 8151, 8147, 8164, 8177, 8145, 8170, 8148, 8060,0.21739864349365234
80, 8182, 8183, 8162, 8162, 8177, 8200, 8147, 8162, 8151, 8156, 8151, 8194, 8154, 8068,0.22516751289367676
80, 8182, 8183, 8162, 8162, 8177, 8200, 8147, 8162, 8151, 8156, 8151, 8194, 8154, 8068,0.22516751289367676
81, 8185, 8181, 8171, 8162, 8172, 8198, 8162, 8163, 8152, 8171, 8159, 8193, 8153, 8078,0.23316717147827148
81, 8185, 8181, 8171, 8162, 8172, 8198, 8162, 8163, 8152, 8171, 8159, 8193, 8153, 8078,0.23316717147827148
82, 8187, 8193, 8180, 8174, 8192, 8192, 8181, 8157, 8164, 8209, 8166, 8187, 8162, 8099,0.24117755889892578
82, 8187, 8193, 8180, 8174, 8192, 8192, 8181, 8157, 8164, 8209, 8166, 8187, 8162, 8099,0.24117755889892578
83, 8203, 8192, 8178, 8169, 8186, 8195, 8174, 8179, 8152, 8193, 8167, 8205, 8178, 8114,0.24914073944091797
83, 8203, 8192, 8178, 8169, 8186, 8195, 8174, 8179, 8152, 8193, 8167, 8205, 8178, 8114,0.24914073944091797
84, 8176, 8197, 8173, 8171, 8179, 8174, 8181, 8163, 8160, 8184, 8161, 8184, 8148, 8106,0.2571430206298828
84, 8176, 8197, 8173, 8171, 8179, 8174, 8181, 8163, 8160, 8184, 8161, 8184, 8148, 8106,0.2571430206298828
85, 8196, 8203, 8179, 8178, 8173, 8172, 8186, 8180, 8165, 8189, 8170, 8206, 8164, 8109,0.26438236236572266
85, 8196, 8203, 8179, 8178, 8173, 8172, 8186, 8180, 8165, 8189, 8170, 8206, 8164, 8109,0.26438236236572266
86, 8188, 8198, 8183, 8174, 8183, 8164, 8186, 8184, 8175, 8198, 8167, 8208, 8171, 8104,0.27213525772094727
86, 8188, 8198, 8183, 8174, 8183, 8164, 8186, 8184, 8175, 8198, 8167, 8208, 8171, 8104,0.27213525772094727
87, 8175, 8196, 8187, 8177, 8214, 8165, 8188, 8167, 8193, 8208, 8166, 8189, 8155, 8106,0.28031373023986816
87, 8175, 8196, 8187, 8177, 8214, 8165, 8188, 8167, 8193, 8208, 8166, 8189, 8155, 8106,0.28031373023986816
88, 8207, 8200, 8197, 8190, 8216, 8183, 8194, 8191, 8194, 8216, 8181, 8213, 8172, 8121,0.2884194850921631
88, 8207, 8200, 8197, 8190, 8216, 8183, 8194, 8191, 8194, 8216, 8181, 8213, 8172, 8121,0.2884194850921631
89, 8186, 8205, 8203, 8205, 8205, 8174, 8216, 8168, 8202, 8249, 8177, 8203, 8154, 8128,0.29680418968200684
89, 8186, 8205, 8203, 8205, 8205, 8174, 8216, 8168, 8202, 8249, 8177, 8203, 8154, 8128,0.29680418968200684
90, 8194, 8197, 8200, 8202, 8199, 8175, 8211, 8157, 8191, 8247, 8170, 8208, 8158, 8133,0.3038046360015869
90, 8194, 8197, 8200, 8202, 8199, 8175, 8211, 8157, 8191, 8247, 8170, 8208, 8158, 8133,0.30480527877807617
91, 8193, 8183, 8183, 8185, 8203, 8169, 8211, 8171, 8191, 8217, 8164, 8199, 8163, 8117,0.312424898147583
91, 8193, 8183, 8183, 8185, 8203, 8169, 8211, 8171, 8191, 8217, 8164, 8199, 8163, 8117,0.312424898147583
92, 8172, 8165, 8167, 8163, 8200, 8176, 8223, 8166, 8203, 8205, 8157, 8178, 8155, 8108,0.32044196128845215
92, 8172, 8165, 8167, 8163, 8200, 8176, 8223, 8166, 8203, 8205, 8157, 8178, 8155, 8108,0.32044196128845215
93, 8190, 8147, 8167, 8140, 8187, 8189, 8195, 8179, 8171, 8175, 8155, 8192, 8169, 8108,0.3274097442626953
93, 8190, 8147, 8167, 8140, 8187, 8189, 8195, 8179, 8171, 8175, 8155, 8192, 8169, 8108,0.3274097442626953
94, 8171, 8158, 8170, 8162, 8206, 8159, 8191, 8169, 8168, 8173, 8146, 8173, 8150, 8091,0.3357715606689453
94, 8171, 8158, 8170, 8162, 8206, 8159, 8191, 8169, 8168, 8173, 8146, 8173, 8150, 8091,0.3357715606689453
95, 8184, 8171, 8163, 8181, 8206, 8165, 8205, 8177, 8191, 8190, 8146, 8179, 8156, 8083,0.34377002716064453
95, 8184, 8171, 8163, 8181, 8206, 8165, 8205, 8177, 8191, 8190, 8146, 8179, 8156, 8083,0.34377002716064453
96, 8183, 8160, 8154, 8160, 8179, 8173, 8190, 8169, 8182, 8180, 8134, 8175, 8155, 8062,0.35145020484924316
96, 8183, 8160, 8154, 8160, 8179, 8173, 8190, 8169, 8182, 8180, 8134, 8175, 8155, 8062,0.35145020484924316
97, 8162, 8172, 8166, 8173, 8179, 8167, 8183, 8146, 8189, 8186, 8136, 8158, 8142, 8061,0.35946083068847656
97, 8162, 8172, 8166, 8173, 8179, 8167, 8183, 8146, 8189, 8186, 8136, 8158, 8142, 8061,0.35946083068847656
98, 8192, 8186, 8180, 8191, 8184, 8180, 8192, 8181, 8218, 8212, 8160, 8199, 8170, 8096,0.3673427104949951
98, 8192, 8186, 8180, 8191, 8184, 8180, 8192, 8181, 8218, 8212, 8160, 8199, 8170, 8096,0.3673427104949951
99, 8175, 8172, 8167, 8183, 8200, 8156, 8210, 8164, 8231, 8234, 8160, 8193, 8157, 8099,0.37544965744018555
99, 8175, 8172, 8167, 8183, 8200, 8156, 8210, 8164, 8231, 8234, 8160, 8193, 8157, 8099,0.37544965744018555
100, 8179, 8161, 8156, 8175, 8212, 8153, 8198, 8150, 8206, 8231, 8161, 8181, 8155, 8090,0.3834514617919922
100, 8179, 8161, 8156, 8175, 8212, 8153, 8198, 8150, 8206, 8231, 8161, 8181, 8155, 8090,0.3834514617919922
101, 8178, 8160, 8140, 8159, 8204, 8163, 8184, 8172, 8192, 8221, 8158, 8176, 8162, 8080,0.39041590690612793
101, 8178, 8160, 8140, 8159, 8204, 8163, 8184, 8172, 8192, 8221, 8158, 8176, 8162, 8080,0.39041590690612793
102, 8143, 8141, 8114, 8142, 8190, 8158, 8202, 8156, 8208, 8217, 8140, 8153, 8137, 8066,0.3984496593475342
102, 8143, 8141, 8114, 8142, 8190, 8158, 8202, 8156, 8208, 8217, 8140, 8153, 8137, 8066,0.3984496593475342
103, 8168, 8116, 8113, 8126, 8169, 8172, 8189, 8159, 8176, 8167, 8138, 8177, 8157, 8055,0.4064357280731201
103, 8168, 8116, 8113, 8126, 8169, 8172, 8189, 8159, 8176, 8167, 8138, 8177, 8157, 8055,0.4064357280731201
104, 8153, 8122, 8112, 8113, 8169, 8159, 8168, 8138, 8141, 8131, 8132, 8159, 8150, 8033,0.4137704372406006
104, 8153, 8122, 8112, 8113, 8169, 8159, 8168, 8138, 8141, 8131, 8132, 8159, 8150, 8033,0.41477203369140625
105, 8150, 8128, 8101, 8109, 8162, 8162, 8158, 8131, 8136, 8121, 8126, 8146, 8143, 8033,0.4217705726623535
105, 8150, 8128, 8101, 8109, 8162, 8162, 8158, 8131, 8136, 8121, 8126, 8146, 8143, 8033,0.422771692276001
106, 8166, 8113, 8094, 8106, 8138, 8167, 8146, 8154, 8134, 8118, 8125, 8167, 8163, 8035,0.43077993392944336
106, 8166, 8113, 8094, 8106, 8138, 8167, 8146, 8154, 8134, 8118, 8125, 8167, 8163, 8035,0.43077993392944336
107, 8134, 8108, 8092, 8093, 8149, 8147, 8151, 8142, 8149, 8148, 8129, 8150, 8155, 8024,0.4386310577392578
107, 8134, 8108, 8092, 8093, 8149, 8147, 8151, 8142, 8149, 8148, 8129, 8150, 8155, 8024,0.4386310577392578
108, 8155, 8109, 8101, 8081, 8147, 8164, 8148, 8157, 8144, 8143, 8144, 8164, 8171, 8033,0.44662952423095703
108, 8155, 8109, 8101, 8081, 8147, 8164, 8148, 8157, 8144, 8143, 8144, 8164, 8171, 8033,0.44662952423095703
109, 8153, 8122, 8117, 8104, 8136, 8166, 8150, 8146, 8128, 8123, 8146, 8168, 8162, 8038,0.45444416999816895
109, 8153, 8122, 8117, 8104, 8136, 8166, 8150, 8146, 8128, 8123, 8146, 8168, 8162, 8038,0.45444416999816895
110, 8147, 8140, 8126, 8126, 8139, 8156, 8145, 8138, 8127, 8136, 8151, 8173, 8156, 8040,0.4614431858062744
110, 8147, 8140, 8126, 8126, 8139, 8156, 8145, 8138, 8127, 8136, 8151, 8173, 8156, 8040,0.4614431858062744
111, 8171, 8141, 8130, 8115, 8128, 8155, 8133, 8163, 8134, 8137, 8162, 8188, 8170, 8037,0.46944332122802734
111, 8171, 8141, 8130, 8115, 8128, 8155, 8133, 8163, 8134, 8137, 8162, 8188, 8170, 8037,0.46944332122802734
112, 8153, 8137, 8133, 8118, 8144, 8148, 8146, 8142, 8143, 8134, 8157, 8167, 8150, 8032,0.47748470306396484
112, 8153, 8137, 8133, 8118, 8144, 8148, 8146, 8142, 8143, 8134, 8157, 8167, 8150, 8032,0.47748470306396484
113, 8164, 8138, 8127, 8111, 8164, 8165, 8141, 8150, 8124, 8122, 8148, 8180, 8158, 8026,0.48544740676879883
113, 8164, 8138, 8127, 8111, 8164, 8165, 8141, 8150, 8124, 8122, 8148, 8180, 8158, 8026,0.48544740676879883
114, 8152, 8152, 8118, 8105, 8160, 8164, 8135, 8157, 8126, 8125, 8138, 8168, 8152, 8008,0.49347758293151855
114, 8152, 8152, 8118, 8105, 8160, 8164, 8135, 8157, 8126, 8125, 8138, 8168, 8152, 8008,0.49347758293151855
115, 8150, 8153, 8128, 8126, 8157, 8171, 8138, 8147, 8139, 8140, 8147, 8161, 8143, 8011,0.5014770030975342
115, 8150, 8153, 8128, 8126, 8157, 8171, 8138, 8147, 8139, 8140, 8147, 8161, 8143, 8011,0.5014770030975342
116, 8172, 8140, 8134, 8133, 8163, 8181, 8131, 8161, 8127, 8142, 8149, 8182, 8158, 8019,0.5094411373138428
116, 8172, 8140, 8134, 8133, 8163, 8181, 8131, 8161, 8127, 8142, 8149, 8182, 8158, 8019,0.5094411373138428
117, 8155, 8162, 8137, 8140, 8173, 8167, 8153, 8152, 8149, 8164, 8147, 8160, 8152, 8027,0.5177600383758545
117, 8155, 8162, 8137, 8140, 8173, 8167, 8153, 8152, 8149, 8164, 8147, 8160, 8152, 8027,0.5177600383758545
118, 8179, 8182, 8143, 8142, 8159, 8181, 8161, 8167, 8156, 8157, 8162, 8170, 8171, 8049,0.5244414806365967
118, 8179, 8182, 8143, 8142, 8159, 8181, 8161, 8167, 8156, 8157, 8162, 8170, 8171, 8049,0.5244414806365967
119, 8172, 8169, 8141, 8137, 8171, 8167, 8140, 8160, 8136, 8139, 8159, 8168, 8167, 8044,0.532771110534668
119, 8172, 8169, 8141, 8137, 8171, 8167, 8140, 8160, 8136, 8139, 8159, 8168, 8167, 8044,0.532771110534668
120, 8163, 8175, 8150, 8149, 8194, 8155, 8143, 8141, 8141, 8159, 8154, 8162, 8155, 8045,0.540771484375
120, 8163, 8175, 8150, 8149, 8194, 8155, 8143, 8141, 8141, 8159, 8154, 8162, 8155, 8045,0.540771484375
121, 8196, 8193, 8155, 8158, 8169, 8183, 8162, 8167, 8153, 8178, 8167, 8180, 8170, 8066,0.54844069480896
121, 8196, 8193, 8155, 8158, 8169, 8183, 8162, 8167, 8153, 8178, 8167, 8180, 8170, 8066,0.54844069480896
122, 8169, 8177, 8144, 8155, 8169, 8171, 8180, 8156, 8166, 8181, 8165, 8151, 8152, 8065,0.5564360618591309
122, 8169, 8177, 8144, 8155, 8169, 8171, 8180, 8156, 8166, 8181, 8165, 8151, 8152, 8065,0.5564360618591309
123, 8176, 8154, 8137, 8146, 8179, 8166, 8162, 8166, 8152, 8154, 8165, 8160, 8167, 8060,0.5644485950469971
123, 8176, 8154, 8137, 8146, 8179, 8166, 8162, 8166, 8152, 8154, 8165, 8160, 8167, 8060,0.5644485950469971
124, 8182, 8164, 8140, 8144, 8178, 8175, 8149, 8172, 8145, 8151, 8163, 8169, 8165, 8052,0.5719807147979736
124, 8182, 8164, 8140, 8144, 8178, 8175, 8149, 8172, 8145, 8151, 8163, 8169, 8165, 8052,0.5729753971099854
125, 8175, 8181, 8152, 8156, 8185, 8184, 8160, 8147, 8160, 8175, 8158, 8156, 8142, 8050,0.5804407596588135
125, 8175, 8181, 8152, 8156, 8185, 8184, 8160, 8147, 8160, 8175, 8158, 8156, 8142, 8050,0.5804407596588135
126, 8205, 8177, 8159, 8160, 8170, 8187, 8149, 8163, 8149, 8171, 8155, 8176, 8160, 8052,0.5880594253540039
126, 8205, 8177, 8159, 8160, 8170, 8187, 8149, 8163, 8149, 8171, 8155, 8176, 8160, 8052,0.589083194732666
127, 8185, 8175, 8157, 8160, 8175, 8156, 8150, 8151, 8151, 8176, 8151, 8162, 8147, 8045,0.5950679779052734
127, 8185, 8175, 8157, 8160, 8175, 8156, 8150, 8151, 8151, 8176, 8151, 8162, 8147, 8045,0.596097469329834
241, 8195, 8188, 8168, 8162, 8203, 8170, 8167, 8162, 8162, 8174, 8166, 8177, 8160, 8069,0.6031150817871094
241, 8195, 8188, 8168, 8162, 8203, 8170, 8167, 8162, 8162, 8174, 8166, 8177, 8160, 8069,0.604109525680542
0, 8211, 8206, 8176, 8177, 8211, 8193, 8201, 8185, 8174, 8180, 8175, 8189, 8175, 8097,0.6111047267913818
0, 8211, 8206, 8176, 8177, 8211, 8193, 8201, 8185, 8174, 8180, 8175, 8189, 8175, 8097,0.6111047267913818
1, 8197, 8212, 8166, 8181, 8192, 8194, 8209, 8174, 8191, 8202, 8172, 8164, 8165, 8101,0.619102954864502
1, 8197, 8212, 8166, 8181, 8192, 8194, 8209, 8174, 8191, 8202, 8172, 8164, 8165, 8101,0.619102954864502
2, 8201, 8190, 8146, 8143, 8167, 8199, 8161, 8182, 8165, 8174, 8165, 8170, 8176, 8082,0.6271047592163086
2, 8201, 8190, 8146, 8143, 8167, 8199, 8161, 8182, 8165, 8174, 8165, 8170, 8176, 8082,0.6281068325042725
3, 8170, 8173, 8134, 8130, 8155, 8177, 8150, 8152, 8156, 8160, 8156, 8152, 8154, 8055,0.6354238986968994
3, 8170, 8173, 8134, 8130, 8155, 8177, 8150, 8152, 8156, 8160, 8156, 8152, 8154, 8055,0.6354238986968994
4, 8186, 8168, 8135, 8137, 8136, 8181, 8163, 8143, 8160, 8175, 8162, 8155, 8156, 8059,0.6434428691864014
4, 8186, 8168, 8135, 8137, 8136, 8181, 8163, 8143, 8160, 8175, 8162, 8155, 8156, 8059,0.6434428691864014
5, 8192, 8170, 8129, 8117, 8150, 8175, 8165, 8165, 8146, 8170, 8151, 8159, 8168, 8063,0.6504156589508057
5, 8192, 8170, 8129, 8117, 8150, 8175, 8165, 8165, 8146, 8170, 8151, 8159, 8168, 8063,0.6504156589508057
6, 8161, 8192, 8131, 8120, 8188, 8150, 8171, 8155, 8143, 8162, 8147, 8141, 8153, 8057,0.6584317684173584
6, 8161, 8192, 8131, 8120, 8188, 8150, 8171, 8155, 8143, 8162, 8147, 8141, 8153, 8057,0.6584317684173584
7, 8192, 8207, 8148, 8140, 8182, 8158, 8161, 8171, 8142, 8145, 8167, 8167, 8165, 8060,0.6664910316467285
7, 8192, 8207, 8148, 8140, 8182, 8158, 8161, 8171, 8142, 8145, 8167, 8167, 8165, 8060,0.6664910316467285
8, 8181, 8214, 8152, 8151, 8174, 8158, 8161, 8161, 8153, 8148, 8159, 8159, 8145, 8051,0.674034595489502
8, 8181, 8214, 8152, 8151, 8174, 8158, 8161, 8161, 8153, 8148, 8159, 8159, 8145, 8051,0.674034595489502
9, 8182, 8219, 8150, 8152, 8171, 8173, 8168, 8157, 8159, 8166, 8153, 8159, 8144, 8057,0.6824367046356201
9, 8182, 8219, 8150, 8152, 8171, 8173, 8168, 8157, 8159, 8166, 8153, 8159, 8144, 8057,0.6824367046356201
10, 8202, 8217, 8156, 8143, 8165, 8178, 8171, 8173, 8164, 8174, 8166, 8176, 8169, 8073,0.6904454231262207
10, 8202, 8217, 8156, 8143, 8165, 8178, 8171, 8173, 8164, 8174, 8166, 8176, 8169, 8073,0.6904454231262207
11, 8184, 8225, 8167, 8151, 8174, 8168, 8178, 8157, 8188, 8187, 8167, 8159, 8157, 8082,0.6980504989624023
11, 8184, 8225, 8167, 8151, 8174, 8168, 8178, 8157, 8188, 8187, 8167, 8159, 8157, 8082,0.6980504989624023
12, 8206, 8223, 8167, 8156, 8157, 8187, 8162, 8172, 8179, 8187, 8167, 8174, 8166, 8087,0.7060673236846924
12, 8206, 8223, 8167, 8156, 8157, 8187, 8162, 8172, 8179, 8187, 8167, 8174, 8166, 8087,0.7070951461791992
13, 8189, 8216, 8155, 8149, 8146, 8177, 8170, 8166, 8177, 8201, 8166, 8161, 8159, 8078,0.7141516208648682
13, 8189, 8216, 8155, 8149, 8146, 8177, 8170, 8166, 8177, 8201, 8166, 8161, 8159, 8078,0.7141516208648682
14, 8185, 8223, 8158, 8148, 8157, 8170, 8190, 8159, 8183, 8204, 8164, 8157, 8158, 8087,0.7211534976959229
14, 8185, 8223, 8158, 8148, 8157, 8170, 8190, 8159, 8183, 8204, 8164, 8157, 8158, 8087,0.7211534976959229
15, 8202, 8220, 8162, 8141, 8160, 8171, 8173, 8176, 8146, 8167, 8160, 8176, 8173, 8082,0.7294416427612305
15, 8202, 8220, 8162, 8141, 8160, 8171, 8173, 8176, 8146, 8167, 8160, 8176, 8173, 8082,0.7294416427612305
16, 8168, 8208, 8158, 8137, 8179, 8161, 8171, 8155, 8134, 8163, 8161, 8153, 8155, 8067,0.7374122142791748
16, 8168, 8208, 8158, 8137, 8179, 8161, 8171, 8155, 8134, 8163, 8161, 8153, 8155, 8067,0.7374122142791748
17, 8190, 8213, 8166, 8143, 8187, 8186, 8178, 8173, 8148, 8175, 8171, 8169, 8166, 8083,0.7454476356506348
17, 8190, 8213, 8166, 8143, 8187, 8186, 8178, 8173, 8148, 8175, 8171, 8169, 8166, 8083,0.7454476356506348
18, 8192, 8239, 8169, 8158, 8174, 8180, 8179, 8172, 8155, 8170, 8158, 8167, 8154, 8077,0.7534370422363281
18, 8192, 8239, 8169, 8158, 8174, 8180, 8179, 8172, 8155, 8170, 8158, 8167, 8154, 8077,0.7534370422363281
19, 8179, 8242, 8161, 8159, 8166, 8165, 8169, 8146, 8150, 8151, 8143, 8152, 8140, 8054,0.761469841003418
19, 8179, 8242, 8161, 8159, 8166, 8165, 8169, 8146, 8150, 8151, 8143, 8152, 8140, 8054,0.761469841003418
20, 8193, 8216, 8154, 8140, 8164, 8177, 8158, 8160, 8141, 8140, 8144, 8164, 8163, 8053,0.7694358825683594
20, 8193, 8216, 8154, 8140, 8164, 8177, 8158, 8160, 8141, 8140, 8144, 8164, 8163, 8053,0.7694358825683594
21, 8170, 8215, 8159, 8147, 8172, 8175, 8177, 8152, 8164, 8181, 8146, 8148, 8150, 8067,0.7768290042877197
21, 8170, 8215, 8159, 8147, 8172, 8175, 8177, 8152, 8164, 8181, 8146, 8148, 8150, 8067,0.777841329574585
22, 8204, 8229, 8167, 8165, 8162, 8189, 8182, 8169, 8173, 8202, 8163, 8169, 8163, 8091,0.7848396301269531
22, 8204, 8229, 8167, 8165, 8162, 8189, 8182, 8169, 8173, 8202, 8163, 8169, 8163, 8091,0.7848396301269531
23, 8212, 8233, 8170, 8169, 8169, 8172, 8188, 8171, 8163, 8200, 8168, 8170, 8170, 8096,0.7928435802459717
23, 8212, 8233, 8170, 8169, 8169, 8172, 8188, 8171, 8163, 8200, 8168, 8170, 8170, 8096,0.7928435802459717
24, 8193, 8235, 8180, 8174, 8201, 8154, 8200, 8154, 8156, 8204, 8168, 8153, 8166, 8105,0.8004441261291504
24, 8193, 8235, 8180, 8174, 8201, 8154, 8200, 8154, 8156, 8204, 8168, 8153, 8166, 8105,0.8004441261291504
25, 8215, 8226, 8181, 8175, 8196, 8169, 8193, 8183, 8151, 8194, 8174, 8177, 8180, 8124,0.8084444999694824
25, 8215, 8226, 8181, 8175, 8196, 8169, 8193, 8183, 8151, 8194, 8174, 8177, 8180, 8124,0.8084444999694824
26, 8199, 8223, 8173, 8177, 8202, 8155, 8203, 8172, 8171, 8206, 8168, 8158, 8158, 8127,0.8164737224578857
26, 8199, 8223, 8173, 8177, 8202, 8155, 8203, 8172, 8171, 8206, 8168, 8158, 8158, 8127,0.8164737224578857
27, 8210, 8226, 8175, 8173, 8219, 8164, 8208, 8170, 8159, 8194, 8168, 8155, 8173, 8125,0.8244743347167969
27, 8210, 8226, 8175, 8173, 8219, 8164, 8208, 8170, 8159, 8194, 8168, 8155, 8173, 8125,0.8244743347167969
28, 8201, 8224, 8177, 8177, 8204, 8172, 8201, 8177, 8143, 8177, 8166, 8156, 8170, 8109,0.8324460983276367
28, 8201, 8224, 8177, 8177, 8204, 8172, 8201, 8177, 8143, 8177, 8166, 8156, 8170, 8109,0.8330514430999756
29, 8182, 8226, 8180, 8193, 8178, 8174, 8201, 8164, 8166, 8201, 8164, 8139, 8138, 8097,0.8411266803741455
29, 8182, 8226, 8180, 8193, 8178, 8174, 8201, 8164, 8166, 8201, 8164, 8139, 8138, 8097,0.8411266803741455
30, 8214, 8225, 8186, 8178, 8184, 8185, 8197, 8181, 8168, 8212, 8171, 8155, 8158, 8102,0.8479080200195312
30, 8214, 8225, 8186, 8178, 8184, 8185, 8197, 8181, 8168, 8212, 8171, 8155, 8158, 8102,0.8489043712615967
31, 8197, 8231, 8192, 8177, 8214, 8166, 8223, 8174, 8172, 8218, 8166, 8149, 8157, 8111,0.8559033870697021
31, 8197, 8231, 8192, 8177, 8214, 8166, 8223, 8174, 8172, 8218, 8166, 8149, 8157, 8111,0.8559033870697021
32, 8204, 8232, 8197, 8187, 8199, 8168, 8228, 8181, 8174, 8217, 8168, 8160, 8162, 8126,0.8634459972381592
32, 8204, 8232, 8197, 8187, 8199, 8168, 8228, 8181, 8174, 8217, 8168, 8160, 8162, 8126,0.8634459972381592
33, 8205, 8220, 8190, 8176, 8183, 8160, 8197, 8176, 8159, 8203, 8165, 8163, 8166, 8106,0.870938777923584
33, 8205, 8220, 8190, 8176, 8183, 8160, 8197, 8176, 8159, 8203, 8165, 8163, 8166, 8106,0.870938777923584
34, 8180, 8218, 8189, 8183, 8210, 8156, 8193, 8148, 8171, 8205, 8160, 8150, 8148, 8088,0.8789470195770264
34, 8180, 8218, 8189, 8183, 8210, 8156, 8193, 8148, 8171, 8205, 8160, 8150, 8148, 8088,0.8789470195770264
35, 8205, 8223, 8198, 8194, 8206, 8184, 8201, 8177, 8178, 8204, 8172, 8180, 8163, 8110,0.8869433403015137
35, 8205, 8223, 8198, 8194, 8206, 8184, 8201, 8177, 8178, 8204, 8172, 8180, 8163, 8110,0.8869433403015137
36, 8194, 8222, 8207, 8196, 8198, 8163, 8214, 8172, 8173, 8224, 8180, 8170, 8160, 8132,0.8949897289276123
36, 8194, 8222, 8207, 8196, 8198, 8163, 8214, 8172, 8173, 8224, 8180, 8170, 8160, 8132,0.8949897289276123
37, 8199, 8210, 8211, 8192, 8202, 8155, 8205, 8163, 8149, 8220, 8181, 8171, 8168, 8135,0.9034357070922852
37, 8199, 8210, 8211, 8192, 8202, 8155, 8205, 8163, 8149, 8220, 8181, 8171, 8168, 8135,0.9034357070922852
38, 8196, 8198, 8197, 8188, 8184, 8167, 8180, 8173, 8131, 8184, 8173, 8176, 8167, 8104,0.9114532470703125
38, 8196, 8198, 8197, 8188, 8184, 8167, 8180, 8173, 8131, 8184, 8173, 8176, 8167, 8104,0.9114532470703125
39, 8165, 8188, 8187, 8186, 8160, 8160, 8174, 8145, 8141, 8180, 8165, 8151, 8138, 8082,0.9184556007385254
39, 8165, 8188, 8187, 8186, 8160, 8160, 8174, 8145, 8141, 8180, 8165, 8151, 8138, 8082,0.9184556007385254
40, 8205, 8185, 8199, 8174, 8135, 8178, 8152, 8153, 8123, 8173, 8174, 8177, 8165, 8103,0.926445484161377
40, 8205, 8185, 8199, 8174, 8135, 8178, 8152, 8153, 8123, 8173, 8174, 8177, 8165, 8103,0.926445484161377
41, 8196, 8206, 8208, 8178, 8154, 8184, 8152, 8156, 8111, 8171, 8178, 8176, 8164, 8108,0.934445858001709
41, 8196, 8206, 8208, 8178, 8154, 8184, 8152, 8156, 8111, 8171, 8178, 8176, 8164, 8108,0.934445858001709
42, 8186, 8224, 8213, 8200, 8180, 8188, 8163, 8157, 8098, 8170, 8185, 8171, 8154, 8105,0.9422557353973389
42, 8186, 8224, 8213, 8200, 8180, 8188, 8163, 8157, 8098, 8170, 8185, 8171, 8154, 8105,0.9422557353973389
43, 8215, 8226, 8226, 8219, 8167, 8190, 8151, 8172, 8089, 8169, 8199, 8193, 8175, 8110,0.9502649307250977
43, 8215, 8226, 8226, 8219, 8167, 8190, 8151, 8172, 8089, 8169, 8199, 8193, 8175, 8110,0.9502649307250977
44, 8202, 8237, 8239, 8237, 8170, 8171, 8151, 8156, 8125, 8206, 8206, 8186, 8166, 8121,0.9584355354309082
44, 8202, 8237, 8239, 8237, 8170, 8171, 8151, 8156, 8125, 8206, 8206, 8186, 8166, 8121,0.9584355354309082
45, 8217, 8232, 8246, 8235, 8170, 8169, 8140, 8172, 8118, 8206, 8207, 8204, 8173, 8135,0.9667932987213135
45, 8217, 8232, 8246, 8235, 8170, 8169, 8140, 8172, 8118, 8206, 8207, 8204, 8173, 8135,0.9667932987213135
46, 8200, 8210, 8242, 8231, 8169, 8152, 8132, 8162, 8078, 8176, 8195, 8198, 8161, 8121,0.9745070934295654
46, 8200, 8210, 8242, 8231, 8169, 8152, 8132, 8162, 8078, 8176, 8195, 8198, 8161, 8121,0.9745070934295654
47, 8197, 8219, 8250, 8250, 8164, 8166, 8136, 8142, 8070, 8183, 8204, 8198, 8158, 8125,0.9813804626464844
47, 8197, 8219, 8250, 8250, 8164, 8166, 8136, 8142, 8070, 8183, 8204, 8198, 8158, 8125,0.9813804626464844
48, 8226, 8241, 8268, 8266, 8148, 8187, 8134, 8160, 8063, 8202, 8215, 8225, 8181, 8155,0.9894413948059082
48, 8226, 8241, 8268, 8266, 8148, 8187, 8134, 8160, 8063, 8202, 8215, 8225, 8181, 8155,0.989851713180542
49, 8196, 8239, 8273, 8273, 8166, 8161, 8141, 8153, 8066, 8202, 8203, 8205, 8160, 8163,0.997406005859375
49, 8196, 8239, 8273, 8273, 8166, 8161, 8141, 8153, 8066, 8202, 8203, 8205, 8160, 8163,0.997406005859375
50, 8207, 8226, 8273, 8270, 8177, 8179, 8137, 8175, 8077, 8176, 8204, 8214, 8168, 8150,1.0047647953033447
50, 8207, 8226, 8273, 8270, 8177, 8179, 8137, 8175, 8077, 8176, 8204, 8214, 8168, 8150,1.0057570934295654
51, 8206, 8224, 8267, 8267, 8167, 8195, 8139, 8173, 8090, 8177, 8200, 8207, 8164, 8125,1.0137572288513184
51, 8206, 8224, 8267, 8267, 8167, 8195, 8139, 8173, 8090, 8177, 8200, 8207, 8164, 8125,1.0137572288513184
52, 8200, 8218, 8264, 8272, 8157, 8176, 8133, 8140, 8086, 8186, 8193, 8192, 8151, 8127,1.0215840339660645
52, 8200, 8218, 8264, 8272, 8157, 8176, 8133, 8140, 8086, 8186, 8193, 8192, 8151, 8127,1.0215840339660645
53, 8220, 8194, 8263, 8258, 8152, 8153, 8117, 8159, 8057, 8176, 8198, 8209, 8172, 8145,1.0295813083648682
53, 8220, 8194, 8263, 8258, 8152, 8153, 8117, 8159, 8057, 8176, 8198, 8209, 8172, 8145,1.0295813083648682
54, 8193, 8187, 8253, 8244, 8160, 8128, 8129, 8157, 8063, 8180, 8192, 8184, 8162, 8144,1.0375823974609375
54, 8193, 8187, 8253, 8244, 8160, 8128, 8129, 8157, 8063, 8180, 8192, 8184, 8162, 8144,1.0375823974609375
55, 8210, 8187, 8243, 8241, 8140, 8141, 8114, 8161, 8063, 8167, 8189, 8188, 8170, 8134,1.0455923080444336
55, 8210, 8187, 8243, 8241, 8140, 8141, 8114, 8161, 8063, 8167, 8189, 8188, 8170, 8134,1.0455923080444336
56, 8206, 8185, 8245, 8254, 8127, 8145, 8097, 8158, 8053, 8178, 8195, 8200, 8164, 8125,1.052581787109375
56, 8206, 8185, 8245, 8254, 8127, 8145, 8097, 8158, 8053, 8178, 8195, 8200, 8164, 8125,1.052581787109375
57, 8196, 8192, 8267, 8282, 8157, 8159, 8118, 8147, 8080, 8225, 8209, 8208, 8155, 8151,1.0605864524841309
57, 8196, 8192, 8267, 8282, 8157, 8159, 8118, 8147, 8080, 8225, 8209, 8208, 8155, 8151,1.0605864524841309
58, 8226, 8193, 8276, 8283, 8176, 8180, 8120, 8169, 8093, 8222, 8212, 8232, 8177, 8177,1.068586826324463
58, 8226, 8193, 8276, 8283, 8176, 8180, 8120, 8169, 8093, 8222, 8212, 8232, 8177, 8177,1.068586826324463
59, 8200, 8199, 8267, 8276, 8165, 8150, 8114, 8154, 8075, 8198, 8201, 8215, 8162, 8169,1.076094150543213
59, 8200, 8199, 8267, 8276, 8165, 8150, 8114, 8154, 8075, 8198, 8201, 8215, 8162, 8169,1.076094150543213
60, 8208, 8198, 8264, 8277, 8150, 8151, 8099, 8164, 8051, 8182, 8208, 8224, 8175, 8171,1.084092617034912
60, 8208, 8198, 8264, 8277, 8150, 8151, 8099, 8164, 8051, 8182, 8208, 8224, 8175, 8171,1.084092617034912
61, 8210, 8177, 8263, 8276, 8162, 8155, 8097, 8174, 8073, 8181, 8199, 8223, 8177, 8168,1.0920958518981934
61, 8210, 8177, 8263, 8276, 8162, 8155, 8097, 8174, 8073, 8181, 8199, 8223, 8177, 8168,1.0920958518981934
62, 8199, 8160, 8269, 8274, 8173, 8147, 8116, 8148, 8096, 8183, 8185, 8205, 8154, 8157,1.1004409790039062
62, 8199, 8160, 8269, 8274, 8173, 8147, 8116, 8148, 8096, 8183, 8185, 8205, 8154, 8157,1.1004409790039062
63, 8229, 8149, 8268, 8260, 8154, 8161, 8115, 8162, 8057, 8146, 8189, 8226, 8174, 8157,1.1084411144256592
63, 8229, 8149, 8268, 8260, 8154, 8161, 8115, 8162, 8057, 8146, 8189, 8226, 8174, 8157,1.1084411144256592
64, 8204, 8157, 8262, 8269, 8156, 8146, 8117, 8154, 8046, 8134, 8189, 8211, 8167, 8155,1.1154413223266602
64, 8204, 8157, 8262, 8269, 8156, 8146, 8117, 8154, 8046, 8134, 8189, 8211, 8167, 8155,1.1154413223266602
65, 8213, 8168, 8275, 8289, 8161, 8153, 8107, 8158, 8056, 8161, 8198, 8222, 8173, 8171,1.1233201026916504
65, 8213, 8168, 8275, 8289, 8161, 8153, 8107, 8158, 8056, 8161, 8198, 8222, 8173, 8171,1.1233201026916504
66, 8225, 8165, 8282, 8290, 8156, 8157, 8093, 8173, 8068, 8187, 8206, 8235, 8180, 8180,1.1313896179199219
66, 8225, 8165, 8282, 8290, 8156, 8157, 8093, 8173, 8068, 8187, 8206, 8235, 8180, 8180,1.1313896179199219
67, 8202, 8164, 8275, 8291, 8179, 8144, 8108, 8163, 8109, 8206, 8204, 8210, 8172, 8178,1.1393847465515137
67, 8202, 8164, 8275, 8291, 8179, 8144, 8108, 8163, 8109, 8206, 8204, 8210, 8172, 8178,1.1393847465515137
68, 8219, 8164, 8267, 8286, 8180, 8148, 8103, 8180, 8120, 8188, 8197, 8220, 8190, 8174,1.1473815441131592
68, 8219, 8164, 8267, 8286, 8180, 8148, 8103, 8180, 8120, 8188, 8197, 8220, 8190, 8174,1.1473815441131592
69, 8187, 8160, 8249, 8273, 8144, 8130, 8084, 8148, 8099, 8168, 8170, 8192, 8160, 8141,1.1552047729492188
69, 8187, 8160, 8249, 8273, 8144, 8130, 8084, 8148, 8099, 8168, 8170, 8192, 8160, 8141,1.1552047729492188
70, 8186, 8155, 8238, 8254, 8121, 8138, 8070, 8130, 8061, 8140, 8160, 8176, 8149, 8118,1.1632065773010254
70, 8186, 8155, 8238, 8254, 8121, 8138, 8070, 8130, 8061, 8140, 8160, 8176, 8149, 8118,1.1632065773010254
71, 8211, 8159, 8241, 8246, 8137, 8152, 8083, 8152, 8038, 8119, 8163, 8187, 8166, 8115,1.1714425086975098
71, 8211, 8159, 8241, 8246, 8137, 8152, 8083, 8152, 8038, 8119, 8163, 8187, 8166, 8115,1.1714425086975098
72, 8192, 8164, 8244, 8259, 8148, 8139, 8111, 8137, 8050, 8122, 8157, 8176, 8149, 8108,1.1792206764221191
72, 8192, 8164, 8244, 8259, 8148, 8139, 8111, 8137, 8050, 8122, 8157, 8176, 8149, 8108,1.1792206764221191
73, 8212, 8153, 8240, 8257, 8117, 8142, 8088, 8142, 8026, 8074, 8146, 8190, 8155, 8089,1.186225175857544
73, 8212, 8153, 8240, 8257, 8117, 8142, 8088, 8142, 8026, 8074, 8146, 8190, 8155, 8089,1.186225175857544
74, 8206, 8160, 8241, 8267, 8127, 8128, 8078, 8131, 8024, 8065, 8142, 8173, 8146, 8077,1.1942260265350342
74, 8206, 8160, 8241, 8267, 8127, 8128, 8078, 8131, 8024, 8065, 8142, 8173, 8146, 8077,1.1942260265350342
75, 8227, 8178, 8259, 8290, 8158, 8139, 8104, 8143, 8060, 8121, 8172, 8192, 8159, 8122,1.2024412155151367
75, 8227, 8178, 8259, 8290, 8158, 8139, 8104, 8143, 8060, 8121, 8172, 8192, 8159, 8122,1.2024412155151367
76, 8248, 8165, 8266, 8283, 8149, 8147, 8096, 8171, 8060, 8119, 8186, 8232, 8183, 8147,1.2104432582855225
76, 8248, 8165, 8266, 8283, 8149, 8147, 8096, 8171, 8060, 8119, 8186, 8232, 8183, 8147,1.2104432582855225
77, 8203, 8164, 8254, 8289, 8147, 8118, 8080, 8141, 8073, 8117, 8171, 8196, 8151, 8129,1.2184386253356934
77, 8203, 8164, 8254, 8289, 8147, 8118, 8080, 8141, 8073, 8117, 8171, 8196, 8151, 8129,1.2184386253356934
78, 8225, 8169, 8258, 8300, 8134, 8137, 8072, 8161, 8096, 8152, 8185, 8205, 8166, 8140,1.2264487743377686
78, 8225, 8169, 8258, 8300, 8134, 8137, 8072, 8161, 8096, 8152, 8185, 8205, 8166, 8140,1.2264487743377686
79, 8222, 8148, 8255, 8284, 8140, 8145, 8066, 8170, 8096, 8158, 8187, 8212, 8172, 8138,1.2344415187835693
79, 8222, 8148, 8255, 8284, 8140, 8145, 8066, 8170, 8096, 8158, 8187, 8212, 8172, 8138,1.2344415187835693
80, 8201, 8129, 8233, 8266, 8156, 8138, 8059, 8145, 8076, 8118, 8162, 8186, 8151, 8101,1.242152452468872
80, 8201, 8129, 8233, 8266, 8156, 8138, 8059, 8145, 8076, 8118, 8162, 8186, 8151, 8101,1.242152452468872
81, 8211, 8118, 8215, 8248, 8120, 8149, 8067, 8157, 8051, 8089, 8151, 8185, 8154, 8068,1.2494697570800781
81, 8211, 8118, 8215, 8248, 8120, 8149, 8067, 8157, 8051, 8089, 8151, 8185, 8154, 8068,1.2494697570800781
82, 8185, 8106, 8203, 8237, 8098, 8151, 8104, 8139, 8049, 8103, 8146, 8167, 8147, 8056,1.257478952407837
82, 8185, 8106, 8203, 8237, 8098, 8151, 8104, 8139, 8049, 8103, 8146, 8167, 8147, 8056,1.257478952407837
83, 8200, 8088, 8195, 8224, 8106, 8168, 8102, 8146, 8043, 8091, 8147, 8173, 8168, 8068,1.26544189453125
83, 8200, 8088, 8195, 8224, 8106, 8168, 8102, 8146, 8043, 8091, 8147, 8173, 8168, 8068,1.26544189453125
84, 8193, 8086, 8189, 8220, 8121, 8148, 8082, 8154, 8035, 8065, 8142, 8158, 8163, 8059,1.273435354232788
84, 8193, 8086, 8189, 8220, 8121, 8148, 8082, 8154, 8035, 8065, 8142, 8158, 8163, 8059,1.273435354232788
85, 8176, 8098, 8194, 8224, 8123, 8131, 8072, 8138, 8025, 8045, 8134, 8143, 8144, 8047,1.2818176746368408
85, 8176, 8098, 8194, 8224, 8123, 8131, 8072, 8138, 8025, 8045, 8134, 8143, 8144, 8047,1.2818176746368408
86, 8199, 8104, 8200, 8219, 8104, 8145, 8057, 8145, 8018, 8046, 8144, 8171, 8162, 8057,1.2888247966766357
86, 8199, 8104, 8200, 8219, 8104, 8145, 8057, 8145, 8018, 8046, 8144, 8171, 8162, 8057,1.2898168563842773
87, 8198, 8117, 8213, 8238, 8111, 8136, 8070, 8131, 8031, 8087, 8156, 8171, 8152, 8065,1.296827793121338
87, 8198, 8117, 8213, 8238, 8111, 8136, 8070, 8131, 8031, 8087, 8156, 8171, 8152, 8065,1.2978322505950928
88, 8224, 8126, 8224, 8249, 8113, 8143, 8071, 8146, 8021, 8079, 8163, 8191, 8157, 8074,1.3053998947143555
88, 8224, 8126, 8224, 8249, 8113, 8143, 8071, 8146, 8021, 8079, 8163, 8191, 8157, 8074,1.3053998947143555
89, 8205, 8119, 8215, 8242, 8112, 8145, 8077, 8154, 8036, 8070, 8157, 8187, 8156, 8078,1.3124175071716309
89, 8205, 8119, 8215, 8242, 8112, 8145, 8077, 8154, 8036, 8070, 8157, 8187, 8156, 8078,1.3124175071716309
90, 8190, 8108, 8211, 8247, 8142, 8155, 8103, 8155, 8085, 8101, 8156, 8172, 8156, 8091,1.320420265197754
90, 8190, 8108, 8211, 8247, 8142, 8155, 8103, 8155, 8085, 8101, 8156, 8172, 8156, 8091,1.320420265197754
91, 8220, 8099, 8206, 8235, 8151, 8172, 8099, 8188, 8091, 8091, 8155, 8190, 8177, 8094,1.3284153938293457
91, 8220, 8099, 8206, 8235, 8151, 8172, 8099, 8188, 8091, 8091, 8155, 8190, 8177, 8094,1.3284153938293457
92, 8188, 8105, 8195, 8224, 8146, 8164, 8105, 8167, 8104, 8091, 8148, 8168, 8152, 8074,1.336446762084961
92, 8188, 8105, 8195, 8224, 8146, 8164, 8105, 8167, 8104, 8091, 8148, 8168, 8152, 8074,1.336446762084961
93, 8205, 8112, 8205, 8234, 8148, 8179, 8111, 8165, 8116, 8104, 8159, 8181, 8163, 8080,1.3444433212280273
93, 8205, 8112, 8205, 8234, 8148, 8179, 8111, 8165, 8116, 8104, 8159, 8181, 8163, 8080,1.3444433212280273
94, 8220, 8118, 8215, 8248, 8148, 8167, 8113, 8173, 8112, 8110, 8159, 8191, 8171, 8089,1.351823329925537
94, 8220, 8118, 8215, 8248, 8148, 8167, 8113, 8173, 8112, 8110, 8159, 8191, 8171, 8089,1.352809190750122
95, 8203, 8129, 8218, 8252, 8151, 8153, 8126, 8148, 8123, 8136, 8157, 8172, 8149, 8094,1.35982346534729
95, 8203, 8129, 8218, 8252, 8151, 8153, 8126, 8148, 8123, 8136, 8157, 8172, 8149, 8094,1.35982346534729
96, 8231, 8129, 8227, 8247, 8148, 8169, 8123, 8167, 8113, 8139, 8169, 8196, 8171, 8104,1.3688361644744873
96, 8231, 8129, 8227, 8247, 8148, 8169, 8123, 8167, 8113, 8139, 8169, 8196, 8171, 8104,1.3688361644744873
97, 8211, 8131, 8232, 8255, 8148, 8154, 8124, 8159, 8103, 8126, 8166, 8178, 8162, 8103,1.3754456043243408
97, 8211, 8131, 8232, 8255, 8148, 8154, 8124, 8159, 8103, 8126, 8166, 8178, 8162, 8103,1.3754456043243408
98, 8212, 8120, 8224, 8251, 8139, 8161, 8105, 8145, 8074, 8095, 8163, 8168, 8159, 8098,1.3832066059112549
98, 8212, 8120, 8224, 8251, 8139, 8161, 8105, 8145, 8074, 8095, 8163, 8168, 8159, 8098,1.3832066059112549
99, 8215, 8093, 8207, 8227, 8140, 8169, 8082, 8150, 8044, 8076, 8158, 8179, 8168, 8076,1.3912065029144287
99, 8215, 8093, 8207, 8227, 8140, 8169, 8082, 8150, 8044, 8076, 8158, 8179, 8168, 8076,1.3912065029144287
100, 8191, 8086, 8205, 8220, 8158, 8156, 8103, 8149, 8087, 8112, 8163, 8173, 8162, 8078,1.3994157314300537
100, 8191, 8086, 8205, 8220, 8158, 8156, 8103, 8149, 8087, 8112, 8163, 8173, 8162, 8078,1.3994157314300537
101, 8216, 8088, 8207, 8215, 8145, 8169, 8115, 8189, 8140, 8130, 8176, 8185, 8182, 8094,1.4075157642364502
101, 8216, 8088, 8207, 8215, 8145, 8169, 8115, 8189, 8140, 8130, 8176, 8185, 8182, 8094,1.4075157642364502
102, 8190, 8083, 8186, 8198, 8142, 8165, 8119, 8188, 8165, 8133, 8160, 8158, 8162, 8068,1.4155035018920898
102, 8190, 8083, 8186, 8198, 8142, 8165, 8119, 8188, 8165, 8133, 8160, 8158, 8162, 8068,1.4155035018920898
103, 8194, 8083, 8182, 8187, 8139, 8180, 8138, 8176, 8162, 8140, 8158, 8162, 8158, 8064,1.4235005378723145
103, 8194, 8083, 8182, 8187, 8139, 8180, 8138, 8176, 8162, 8140, 8158, 8162, 8158, 8064,1.4235005378723145
104, 8229, 8103, 8201, 8202, 8143, 8190, 8165, 8179, 8158, 8154, 8171, 8190, 8174, 8091,1.4314565658569336
104, 8229, 8103, 8201, 8202, 8143, 8190, 8165, 8179, 8158, 8154, 8171, 8190, 8174, 8091,1.4314565658569336
105, 8208, 8124, 8209, 8228, 8170, 8163, 8187, 8156, 8175, 8183, 8167, 8170, 8155, 8110,1.4394519329071045
105, 8208, 8124, 8209, 8228, 8170, 8163, 8187, 8156, 8175, 8183, 8167, 8170, 8155, 8110,1.4394519329071045
106, 8226, 8110, 8209, 8217, 8158, 8162, 8170, 8172, 8151, 8165, 8169, 8179, 8169, 8117,1.4464168548583984
106, 8226, 8110, 8209, 8217, 8158, 8162, 8170, 8172, 8151, 8165, 8169, 8179, 8169, 8117,1.4464168548583984
107, 8224, 8096, 8209, 8204, 8154, 8150, 8158, 8161, 8132, 8140, 8171, 8178, 8167, 8111,1.4544486999511719
107, 8224, 8096, 8209, 8204, 8154, 8150, 8158, 8161, 8132, 8140, 8171, 8178, 8167, 8111,1.4544486999511719
108, 8223, 8110, 8220, 8224, 8171, 8142, 8156, 8151, 8146, 8155, 8172, 8187, 8166, 8121,1.4624640941619873
108, 8223, 8110, 8220, 8224, 8171, 8142, 8156, 8151, 8146, 8155, 8172, 8187, 8166, 8121,1.4624640941619873
109, 8239, 8115, 8229, 8237, 8159, 8143, 8137, 8171, 8139, 8161, 8173, 8206, 8176, 8120,1.4704651832580566
109, 8239, 8115, 8229, 8237, 8159, 8143, 8137, 8171, 8139, 8161, 8173, 8206, 8176, 8120,1.4704651832580566
110, 8213, 8107, 8221, 8234, 8158, 8135, 8133, 8145, 8122, 8141, 8161, 8175, 8149, 8091,1.4787287712097168
110, 8213, 8107, 8221, 8234, 8158, 8135, 8133, 8145, 8122, 8141, 8161, 8175, 8149, 8091,1.4787287712097168
111, 8220, 8098, 8204, 8215, 8151, 8160, 8132, 8155, 8105, 8110, 8156, 8176, 8160, 8075,1.486727237701416
111, 8220, 8098, 8204, 8215, 8151, 8160, 8132, 8155, 8105, 8110, 8156, 8176, 8160, 8075,1.486727237701416
112, 8198, 8098, 8191, 8197, 8139, 8159, 8138, 8163, 8118, 8110, 8153, 8166, 8152, 8056,1.4944159984588623
112, 8198, 8098, 8191, 8197, 8139, 8159, 8138, 8163, 8118, 8110, 8153, 8166, 8152, 8056,1.4944159984588623
113, 8191, 8102, 8190, 8199, 8142, 8159, 8139, 8156, 8147, 8134, 8156, 8157, 8144, 8057,1.5024223327636719
113, 8191, 8102, 8190, 8199, 8142, 8159, 8139, 8156, 8147, 8134, 8156, 8157, 8144, 8057,1.5024223327636719
114, 8215, 8103, 8190, 8198, 8141, 8173, 8132, 8173, 8152, 8138, 8156, 8176, 8169, 8077,1.5094428062438965
114, 8215, 8103, 8190, 8198, 8141, 8173, 8132, 8173, 8152, 8138, 8156, 8176, 8169, 8077,1.5094428062438965
115, 8189, 8106, 8187, 8199, 8136, 8150, 8140, 8149, 8148, 8123, 8156, 8155, 8156, 8084,1.5174498558044434
115, 8189, 8106, 8187, 8199, 8136, 8150, 8140, 8149, 8148, 8123, 8156, 8155, 8156, 8084,1.5174498558044434
116, 8213, 8115, 8197, 8195, 8139, 8149, 8126, 8150, 8113, 8095, 8171, 8180, 8168, 8106,1.5254578590393066
116, 8213, 8115, 8197, 8195, 8139, 8149, 8126, 8150, 8113, 8095, 8171, 8180, 8168, 8106,1.5254578590393066
117, 8220, 8140, 8214, 8211, 8161, 8144, 8128, 8157, 8099, 8129, 8171, 8189, 8168, 8126,1.5334396362304688
117, 8220, 8140, 8214, 8211, 8161, 8144, 8128, 8157, 8099, 8129, 8171, 8189, 8168, 8126,1.5334396362304688
118, 8207, 8151, 8225, 8237, 8160, 8147, 8143, 8148, 8117, 8167, 8166, 8165, 8159, 8136,1.5414471626281738
118, 8207, 8151, 8225, 8237, 8160, 8147, 8143, 8148, 8117, 8167, 8166, 8165, 8159, 8136,1.5414471626281738
119, 8225, 8138, 8222, 8223, 8148, 8163, 8130, 8164, 8112, 8131, 8169, 8176, 8181, 8138,1.549447774887085
119, 8225, 8138, 8222, 8223, 8148, 8163, 8130, 8164, 8112, 8131, 8169, 8176, 8181, 8138,1.549447774887085
120, 8196, 8148, 8224, 8216, 8179, 8154, 8148, 8152, 8128, 8143, 8166, 8163, 8163, 8129,1.557441234588623
120, 8196, 8148, 8224, 8216, 8179, 8154, 8148, 8152, 8128, 8143, 8166, 8163, 8163, 8129,1.557441234588623
121, 8204, 8146, 8225, 8212, 8170, 8170, 8162, 8165, 8140, 8161, 8170, 8171, 8167, 8121,1.5654442310333252
121, 8204, 8146, 8225, 8212, 8170, 8170, 8162, 8165, 8140, 8161, 8170, 8171, 8167, 8121,1.5654442310333252
122, 8194, 8110, 8190, 8181, 8131, 8169, 8156, 8168, 8140, 8133, 8157, 8159, 8166, 8084,1.5724458694458008
122, 8194, 8110, 8190, 8181, 8131, 8169, 8156, 8168, 8140, 8133, 8157, 8159, 8166, 8084,1.5724458694458008
123, 8166, 8101, 8163, 8166, 8133, 8157, 8146, 8142, 8143, 8125, 8142, 8129, 8146, 8050,1.5804741382598877
123, 8166, 8101, 8163, 8166, 8133, 8157, 8146, 8142, 8143, 8125, 8142, 8129, 8146, 8050,1.5804741382598877
124, 8181, 8113, 8165, 8175, 8127, 8174, 8125, 8153, 8123, 8117, 8143, 8145, 8157, 8042,1.5884737968444824
124, 8181, 8113, 8165, 8175, 8127, 8174, 8125, 8153, 8123, 8117, 8143, 8145, 8157, 8042,1.5884737968444824
125, 8152, 8123, 8165, 8186, 8132, 8170, 8146, 8144, 8135, 8113, 8140, 8136, 8144, 8042,1.5964405536651611
125, 8152, 8123, 8165, 8186, 8132, 8170, 8146, 8144, 8135, 8113, 8140, 8136, 8144, 8042,1.5964405536651611
126, 8171, 8127, 8176, 8181, 8154, 8172, 8170, 8158, 8157, 8117, 8152, 8149, 8157, 8065,1.604447603225708
126, 8171, 8127, 8176, 8181, 8154, 8172, 8170, 8158, 8157, 8117, 8152, 8149, 8157, 8065,1.604447603225708
127, 8187, 8140, 8198, 8180, 8164, 8163, 8166, 8162, 8148, 8109, 8161, 8156, 8158, 8076,1.612483024597168
127, 8187, 8140, 8198, 8180, 8164, 8163, 8166, 8162, 8148, 8109, 8161, 8156, 8158, 8076,1.612483024597168
241, 8175, 8168, 8216, 8209, 8174, 8163, 8169, 8132, 8136, 8107, 8159, 8151, 8139, 8088,1.6204686164855957
241, 8175, 8168, 8216, 8209, 8174, 8163, 8169, 8132, 8136, 8107, 8159, 8151, 8139, 8088,1.6204686164855957
0, 8209, 8175, 8226, 8228, 8173, 8189, 8159, 8154, 8120, 8115, 8167, 8189, 8173, 8117,1.6274058818817139
0, 8209, 8175, 8226, 8228, 8173, 8189, 8159, 8154, 8120, 8115, 8167, 8189, 8173, 8117,1.6274058818817139
1, 8187, 8161, 8223, 8223, 8167, 8160, 8148, 8142, 8119, 8131, 8167, 8174, 8171, 8126,1.6364376544952393
1, 8187, 8161, 8223, 8223, 8167, 8160, 8148, 8142, 8119, 8131, 8167, 8174, 8171, 8126,1.6364376544952393
2, 8183, 8145, 8220, 8209, 8151, 8150, 8139, 8137, 8112, 8116, 8170, 8169, 8171, 8126,1.643451452255249
2, 8183, 8145, 8220, 8209, 8151, 8150, 8139, 8137, 8112, 8116, 8170, 8169, 8171, 8126,1.643451452255249
3, 8180, 8129, 8207, 8198, 8159, 8170, 8146, 8165, 8116, 8115, 8165, 8166, 8176, 8104,1.6514394283294678
3, 8180, 8129, 8207, 8198, 8159, 8170, 8146, 8165, 8116, 8115, 8165, 8166, 8176, 8104,1.6514394283294678
4, 8138, 8103, 8173, 8184, 8167, 8172, 8154, 8160, 8146, 8133, 8145, 8118, 8151, 8058,1.6594552993774414
4, 8138, 8103, 8173, 8184, 8167, 8172, 8154, 8160, 8146, 8133, 8145, 8118, 8151, 8058,1.6594552993774414
5, 8150, 8080, 8147, 8156, 8128, 8179, 8148, 8181, 8163, 8111, 8142, 8128, 8162, 8034,1.6674585342407227
5, 8150, 8080, 8147, 8156, 8128, 8179, 8148, 8181, 8163, 8111, 8142, 8128, 8162, 8034,1.6674585342407227
6, 8139, 8096, 8155, 8153, 8137, 8166, 8195, 8185, 8201, 8127, 8151, 8133, 8155, 8046,1.6755435466766357
6, 8139, 8096, 8155, 8153, 8137, 8166, 8195, 8185, 8201, 8127, 8151, 8133, 8155, 8046,1.6755435466766357
7, 8155, 8112, 8170, 8162, 8167, 8172, 8234, 8183, 8223, 8152, 8156, 8134, 8162, 8073,1.682544231414795
7, 8155, 8112, 8170, 8162, 8167, 8172, 8234, 8183, 8223, 8152, 8156, 8134, 8162, 8073,1.682544231414795
8, 8168, 8106, 8164, 8157, 8151, 8165, 8214, 8180, 8194, 8122, 8145, 8132, 8171, 8064,1.6904199123382568
8, 8168, 8106, 8164, 8157, 8151, 8165, 8214, 8180, 8194, 8122, 8145, 8132, 8171, 8064,1.6904199123382568
9, 8138, 8114, 8168, 8164, 8152, 8142, 8201, 8154, 8180, 8109, 8143, 8117, 8149, 8051,1.6995253562927246
9, 8138, 8114, 8168, 8164, 8152, 8142, 8201, 8154, 8180, 8109, 8143, 8117, 8149, 8051,1.6995253562927246
10, 8173, 8134, 8198, 8176, 8152, 8160, 8182, 8169, 8151, 8108, 8161, 8160, 8172, 8074,1.7068963050842285
10, 8173, 8134, 8198, 8176, 8152, 8160, 8182, 8169, 8151, 8108, 8161, 8160, 8172, 8074,1.7068963050842285
11, 8173, 8154, 8217, 8197, 8141, 8155, 8163, 8145, 8119, 8115, 8159, 8163, 8172, 8084,1.7138965129852295
11, 8173, 8154, 8217, 8197, 8141, 8155, 8163, 8145, 8119, 8115, 8159, 8163, 8172, 8084,1.7138965129852295
12, 8181, 8166, 8225, 8220, 8151, 8161, 8154, 8133, 8113, 8120, 8163, 8164, 8167, 8098,1.722438097000122
12, 8181, 8166, 8225, 8220, 8151, 8161, 8154, 8133, 8113, 8120, 8163, 8164, 8167, 8098,1.722438097000122
13, 8209, 8160, 8232, 8218, 8166, 8172, 8154, 8174, 8128, 8131, 8179, 8188, 8180, 8118,1.7307357788085938
13, 8209, 8160, 8232, 8218, 8166, 8172, 8154, 8174, 8128, 8131, 8179, 8188, 8180, 8118,1.7307357788085938
14, 8181, 8144, 8223, 8202, 8157, 8154, 8170, 8170, 8168, 8173, 8180, 8169, 8163, 8125,1.7387349605560303
14, 8181, 8144, 8223, 8202, 8157, 8154, 8170, 8170, 8168, 8173, 8180, 8169, 8163, 8125,1.7387349605560303
15, 8191, 8116, 8200, 8166, 8125, 8164, 8167, 8181, 8178, 8169, 8166, 8172, 8169, 8123,1.7464172840118408
15, 8191, 8116, 8200, 8166, 8125, 8164, 8167, 8181, 8178, 8169, 8166, 8172, 8169, 8123,1.7464172840118408
16, 8162, 8081, 8165, 8125, 8114, 8157, 8175, 8176, 8178, 8146, 8137, 8139, 8153, 8084,1.7547533512115479
16, 8162, 8081, 8165, 8125, 8114, 8157, 8175, 8176, 8178, 8146, 8137, 8139, 8153, 8084,1.7547533512115479
17, 8130, 8057, 8138, 8094, 8107, 8152, 8178, 8154, 8165, 8133, 8127, 8103, 8142, 8042,1.7624378204345703
17, 8130, 8057, 8138, 8094, 8107, 8152, 8178, 8154, 8165, 8133, 8127, 8103, 8142, 8042,1.7624378204345703
18, 8142, 8054, 8135, 8074, 8091, 8152, 8161, 8165, 8133, 8102, 8130, 8123, 8159, 8025,1.7694365978240967
18, 8142, 8054, 8135, 8074, 8091, 8152, 8161, 8165, 8133, 8102, 8130, 8123, 8159, 8025,1.7694365978240967
19, 8127, 8080, 8150, 8098, 8108, 8140, 8176, 8153, 8150, 8099, 8129, 8119, 8147, 8029,1.7773993015289307
19, 8127, 8080, 8150, 8098, 8108, 8140, 8176, 8153, 8150, 8099, 8129, 8119, 8147, 8029,1.7773993015289307
20, 8160, 8092, 8167, 8125, 8123, 8162, 8181, 8167, 8162, 8109, 8143, 8138, 8170, 8046,1.7854132652282715
20, 8160, 8092, 8167, 8125, 8123, 8162, 8181, 8167, 8162, 8109, 8143, 8138, 8170, 8046,1.7854132652282715
21, 8162, 8094, 8171, 8124, 8133, 8156, 8180, 8164, 8157, 8121, 8151, 8142, 8168, 8049,1.7934160232543945
21, 8162, 8094, 8171, 8124, 8133, 8156, 8180, 8164, 8157, 8121, 8151, 8142, 8168, 8049,1.7934160232543945
22, 8160, 8118, 8192, 8137, 8156, 8152, 8190, 8147, 8161, 8134, 8151, 8147, 8153, 8066,1.8014459609985352
22, 8160, 8118, 8192, 8137, 8156, 8152, 8190, 8147, 8161, 8134, 8151, 8147, 8153, 8066,1.8014459609985352
23, 8199, 8135, 8220, 8160, 8177, 8180, 8188, 8172, 8165, 8149, 8160, 8184, 8177, 8096,1.809417724609375
23, 8199, 8135, 8220, 8160, 8177, 8180, 8188, 8172, 8165, 8149, 8160, 8184, 8177, 8096,1.809417724609375
24, 8187, 8148, 8233, 8185, 8181, 8180, 8207, 8168, 8194, 8192, 8179, 8180, 8166, 8132,1.8174538612365723
24, 8187, 8148, 8233, 8185, 8181, 8180, 8207, 8168, 8194, 8192, 8179, 8180, 8166, 8132,1.8174538612365723
25, 8201, 8149, 8240, 8187, 8150, 8180, 8216, 8189, 8206, 8207, 8196, 8197, 8175, 8173,1.8254449367523193
25, 8201, 8149, 8240, 8187, 8150, 8180, 8216, 8189, 8206, 8207, 8196, 8197, 8175, 8173,1.8254449367523193
26, 8189, 8117, 8210, 8158, 8148, 8157, 8213, 8200, 8207, 8195, 8176, 8187, 8181, 8157,1.8324801921844482
26, 8189, 8117, 8210, 8158, 8148, 8157, 8213, 8200, 8207, 8195, 8176, 8187, 8181, 8157,1.8324801921844482
27, 8167, 8083, 8173, 8134, 8167, 8154, 8219, 8176, 8215, 8186, 8155, 8154, 8167, 8118,1.8407542705535889
27, 8167, 8083, 8173, 8134, 8167, 8154, 8219, 8176, 8215, 8186, 8155, 8154, 8167, 8118,1.8407542705535889
28, 8182, 8064, 8163, 8112, 8137, 8180, 8197, 8179, 8176, 8153, 8155, 8158, 8175, 8096,1.8477568626403809
28, 8182, 8064, 8163, 8112, 8137, 8180, 8197, 8179, 8176, 8153, 8155, 8158, 8175, 8096,1.8487541675567627
29, 8148, 8063, 8154, 8100, 8128, 8163, 8173, 8156, 8140, 8130, 8143, 8129, 8154, 8052,1.856445074081421
29, 8148, 8063, 8154, 8100, 8128, 8163, 8173, 8156, 8140, 8130, 8143, 8129, 8154, 8052,1.856445074081421
30, 8159, 8060, 8147, 8094, 8138, 8165, 8164, 8160, 8142, 8113, 8137, 8133, 8161, 8023,1.8638434410095215
30, 8159, 8060, 8147, 8094, 8138, 8165, 8164, 8160, 8142, 8113, 8137, 8133, 8161, 8023,1.8648297786712646
31, 8157, 8052, 8140, 8094, 8111, 8164, 8161, 8163, 8149, 8094, 8132, 8133, 8161, 8008,1.8723704814910889
31, 8157, 8052, 8140, 8094, 8111, 8164, 8161, 8163, 8149, 8094, 8132, 8133, 8161, 8008,1.8723704814910889
32, 8146, 8068, 8147, 8107, 8093, 8156, 8166, 8144, 8144, 8095, 8132, 8120, 8150, 8006,1.8803679943084717
32, 8146, 8068, 8147, 8107, 8093, 8156, 8166, 8144, 8144, 8095, 8132, 8120, 8150, 8006,1.8803679943084717
33, 8197, 8092, 8173, 8119, 8119, 8168, 8176, 8172, 8139, 8108, 8149, 8155, 8178, 8036,1.8887124061584473
33, 8197, 8092, 8173, 8119, 8119, 8168, 8176, 8172, 8139, 8108, 8149, 8155, 8178, 8036,1.8887124061584473
34, 8191, 8106, 8196, 8139, 8166, 8151, 8201, 8169, 8160, 8139, 8161, 8155, 8172, 8070,1.8947107791900635
34, 8191, 8106, 8196, 8139, 8166, 8151, 8201, 8169, 8160, 8139, 8161, 8155, 8172, 8070,1.895709753036499
35, 8198, 8114, 8207, 8147, 8172, 8155, 8192, 8177, 8161, 8139, 8172, 8172, 8185, 8092,1.9034597873687744
35, 8198, 8114, 8207, 8147, 8172, 8155, 8192, 8177, 8161, 8139, 8172, 8172, 8185, 8092,1.9034597873687744
36, 8199, 8128, 8201, 8144, 8156, 8154, 8180, 8194, 8168, 8138, 8171, 8181, 8194, 8093,1.9114487171173096
36, 8199, 8128, 8201, 8144, 8156, 8154, 8180, 8194, 8168, 8138, 8171, 8181, 8194, 8093,1.9114487171173096
37, 8166, 8128, 8194, 8158, 8164, 8145, 8191, 8182, 8203, 8170, 8173, 8161, 8175, 8092,1.919447422027588
37, 8166, 8128, 8194, 8158, 8164, 8145, 8191, 8182, 8203, 8170, 8173, 8161, 8175, 8092,1.919447422027588
38, 8174, 8117, 8186, 8143, 8153, 8161, 8170, 8196, 8201, 8166, 8174, 8169, 8180, 8087,1.9274468421936035
38, 8174, 8117, 8186, 8143, 8153, 8161, 8170, 8196, 8201, 8166, 8174, 8169, 8180, 8087,1.9274468421936035
39, 8142, 8128, 8174, 8124, 8140, 8150, 8171, 8176, 8202, 8162, 8154, 8140, 8157, 8059,1.9354474544525146
39, 8142, 8128, 8174, 8124, 8140, 8150, 8171, 8176, 8202, 8162, 8154, 8140, 8157, 8059,1.9354474544525146
40, 8138, 8121, 8164, 8131, 8142, 8152, 8189, 8167, 8201, 8154, 8151, 8136, 8159, 8049,1.943448543548584
40, 8138, 8121, 8164, 8131, 8142, 8152, 8189, 8167, 8201, 8154, 8151, 8136, 8159, 8049,1.943448543548584
41, 8144, 8105, 8145, 8123, 8151, 8160, 8198, 8173, 8192, 8138, 8153, 8141, 8160, 8047,1.9514174461364746
41, 8144, 8105, 8145, 8123, 8151, 8160, 8198, 8173, 8192, 8138, 8153, 8141, 8160, 8047,1.9514174461364746
42, 8125, 8121, 8145, 8111, 8165, 8156, 8221, 8156, 8205, 8155, 8154, 8127, 8141, 8054,1.9594550132751465
42, 8125, 8121, 8145, 8111, 8165, 8156, 8221, 8156, 8205, 8155, 8154, 8127, 8141, 8054,1.9594550132751465
43, 8147, 8129, 8160, 8112, 8148, 8156, 8220, 8168, 8189, 8143, 8156, 8148, 8166, 8065,1.9674580097198486
43, 8147, 8129, 8160, 8112, 8148, 8156, 8220, 8168, 8189, 8143, 8156, 8148, 8166, 8065,1.9674580097198486
44, 8124, 8140, 8153, 8127, 8146, 8130, 8217, 8152, 8187, 8138, 8146, 8128, 8158, 8057,1.9744460582733154
44, 8124, 8140, 8153, 8127, 8146, 8130, 8217, 8152, 8187, 8138, 8146, 8128, 8158, 8057,1.9744460582733154
45, 8139, 8171, 8164, 8142, 8166, 8146, 8230, 8163, 8219, 8177, 8162, 8145, 8163, 8083,1.9823405742645264
45, 8139, 8171, 8164, 8142, 8166, 8146, 8230, 8163, 8219, 8177, 8162, 8145, 8163, 8083,1.9823405742645264
46, 8169, 8177, 8188, 8151, 8187, 8172, 8243, 8195, 8243, 8214, 8182, 8181, 8180, 8119,1.990339994430542
46, 8169, 8177, 8188, 8151, 8187, 8172, 8243, 8195, 8243, 8214, 8182, 8181, 8180, 8119,1.990339994430542
47, 8139, 8178, 8190, 8174, 8214, 8160, 8248, 8167, 8264, 8233, 8191, 8163, 8161, 8134,1.9983367919921875
47, 8139, 8178, 8190, 8174, 8214, 8160, 8248, 8167, 8264, 8233, 8191, 8163, 8161, 8134,1.9983367919921875
48, 8170, 8205, 8199, 8190, 8208, 8170, 8228, 8176, 8260, 8222, 8202, 8187, 8182, 8151,2.0064456462860107
48, 8170, 8205, 8199, 8190, 8208, 8170, 8228, 8176, 8260, 8222, 8202, 8187, 8182, 8151,2.0064456462860107
49, 8166, 8217, 8200, 8187, 8204, 8150, 8226, 8184, 8256, 8226, 8187, 8179, 8175, 8146,2.014439344406128
49, 8166, 8217, 8200, 8187, 8204, 8150, 8226, 8184, 8256, 8226, 8187, 8179, 8175, 8146,2.014439344406128
50, 8140, 8197, 8181, 8178, 8208, 8135, 8224, 8165, 8252, 8221, 8169, 8150, 8153, 8131,2.0224270820617676
50, 8140, 8197, 8181, 8178, 8208, 8135, 8224, 8165, 8252, 8221, 8169, 8150, 8153, 8131,2.0224270820617676
51, 8161, 8174, 8166, 8161, 8178, 8154, 8194, 8174, 8216, 8178, 8166, 8166, 8170, 8109,2.0294461250305176
51, 8161, 8174, 8166, 8161, 8178, 8154, 8194, 8174, 8216, 8178, 8166, 8166, 8170, 8109,2.0294461250305176
52, 8126, 8186, 8155, 8149, 8173, 8147, 8197, 8154, 8215, 8187, 8156, 8139, 8144, 8080,2.037459135055542
52, 8126, 8186, 8155, 8149, 8173, 8147, 8197, 8154, 8215, 8187, 8156, 8139, 8144, 8080,2.037459135055542
53, 8137, 8192, 8150, 8146, 8168, 8166, 8201, 8154, 8223, 8194, 8154, 8140, 8143, 8078,2.045452833175659
53, 8137, 8192, 8150, 8146, 8168, 8166, 8201, 8154, 8223, 8194, 8154, 8140, 8143, 8078,2.045452833175659
54, 8181, 8163, 8149, 8136, 8138, 8185, 8184, 8173, 8187, 8145, 8155, 8176, 8177, 8072,2.0529589653015137
54, 8181, 8163, 8149, 8136, 8138, 8185, 8184, 8173, 8187, 8145, 8155, 8176, 8177, 8072,2.0529589653015137
55, 8148, 8148, 8131, 8117, 8145, 8161, 8195, 8157, 8173, 8137, 8144, 8156, 8166, 8058,2.060957670211792
55, 8148, 8148, 8131, 8117, 8145, 8161, 8195, 8157, 8173, 8137, 8144, 8156, 8166, 8058,2.060957670211792
56, 8145, 8154, 8125, 8107, 8160, 8158, 8193, 8168, 8182, 8151, 8143, 8148, 8162, 8064,2.069445848464966
56, 8145, 8154, 8125, 8107, 8160, 8158, 8193, 8168, 8182, 8151, 8143, 8148, 8162, 8064,2.069445848464966
57, 8155, 8165, 8146, 8121, 8162, 8158, 8181, 8175, 8200, 8155, 8152, 8154, 8168, 8069,2.0775558948516846
57, 8155, 8165, 8146, 8121, 8162, 8158, 8181, 8175, 8200, 8155, 8152, 8154, 8168, 8069,2.0775558948516846
58, 8163, 8170, 8161, 8131, 8161, 8165, 8193, 8175, 8225, 8168, 8156, 8161, 8172, 8081,2.085569143295288
58, 8163, 8170, 8161, 8131, 8161, 8165, 8193, 8175, 8225, 8168, 8156, 8161, 8172, 8081,2.085569143295288
59, 8162, 8177, 8161, 8136, 8156, 8179, 8205, 8180, 8244, 8184, 8155, 8171, 8164, 8089,2.093445062637329
59, 8162, 8177, 8161, 8136, 8156, 8179, 8205, 8180, 8244, 8184, 8155, 8171, 8164, 8089,2.093445062637329
60, 8143, 8186, 8163, 8155, 8168, 8173, 8196, 8168, 8250, 8188, 8157, 8162, 8146, 8085,2.1016390323638916
60, 8143, 8186, 8163, 8155, 8168, 8173, 8196, 8168, 8250, 8188, 8157, 8162, 8146, 8085,2.1016390323638916
61, 8179, 8188, 8175, 8145, 8184, 8178, 8183, 8188, 8243, 8179, 8167, 8176, 8162, 8088,2.1076395511627197
61, 8179, 8188, 8175, 8145, 8184, 8178, 8183, 8188, 8243, 8179, 8167, 8176, 8162, 8088,2.10863995552063
62, 8173, 8198, 8187, 8139, 8194, 8176, 8213, 8186, 8254, 8188, 8167, 8174, 8159, 8100,2.1166396141052246
62, 8173, 8198, 8187, 8139, 8194, 8176, 8213, 8186, 8254, 8188, 8167, 8174, 8159, 8100,2.1166396141052246
63, 8170, 8200, 8192, 8162, 8187, 8190, 8241, 8180, 8246, 8184, 8162, 8180, 8162, 8117,2.124640703201294
63, 8170, 8200, 8192, 8162, 8187, 8190, 8241, 8180, 8246, 8184, 8162, 8180, 8162, 8117,2.124640703201294
64, 8191, 8191, 8191, 8175, 8200, 8201, 8245, 8187, 8223, 8170, 8156, 8190, 8180, 8116,2.1326396465301514
64, 8191, 8191, 8191, 8175, 8200, 8201, 8245, 8187, 8223, 8170, 8156, 8190, 8180, 8116,2.1326396465301514
65, 8185, 8196, 8190, 8179, 8231, 8198, 8265, 8175, 8235, 8188, 8146, 8170, 8164, 8118,2.1406404972076416
65, 8185, 8196, 8190, 8179, 8231, 8198, 8265, 8175, 8235, 8188, 8146, 8170, 8164, 8118,2.1406404972076416
66, 8210, 8188, 8194, 8167, 8210, 8212, 8257, 8196, 8210, 8178, 8149, 8181, 8176, 8124,2.1486403942108154
66, 8210, 8188, 8194, 8167, 8210, 8212, 8257, 8196, 8210, 8178, 8149, 8181, 8176, 8124,2.1486403942108154
67, 8181, 8167, 8182, 8141, 8188, 8190, 8237, 8176, 8184, 8151, 8145, 8161, 8171, 8102,2.1566410064697266
67, 8181, 8167, 8182, 8141, 8188, 8190, 8237, 8176, 8184, 8151, 8145, 8161, 8171, 8102,2.1566410064697266
68, 8182, 8163, 8170, 8131, 8174, 8189, 8218, 8157, 8197, 8139, 8147, 8152, 8165, 8093,2.163644313812256
68, 8182, 8163, 8170, 8131, 8174, 8189, 8218, 8157, 8197, 8139, 8147, 8152, 8165, 8093,2.163644313812256
69, 8197, 8164, 8165, 8141, 8149, 8204, 8192, 8176, 8204, 8143, 8149, 8164, 8166, 8088,2.171645164489746
69, 8197, 8164, 8165, 8141, 8149, 8204, 8192, 8176, 8204, 8143, 8149, 8164, 8166, 8088,2.171645164489746
70, 8160, 8163, 8162, 8136, 8166, 8196, 8193, 8156, 8207, 8166, 8140, 8144, 8149, 8076,2.178774833679199
70, 8160, 8163, 8162, 8136, 8166, 8196, 8193, 8156, 8207, 8166, 8140, 8144, 8149, 8076,2.1797730922698975
71, 8190, 8164, 8163, 8118, 8183, 8210, 8186, 8171, 8202, 8152, 8144, 8170, 8176, 8081,2.187399387359619
71, 8190, 8164, 8163, 8118, 8183, 8210, 8186, 8171, 8202, 8152, 8144, 8170, 8176, 8081,2.187399387359619
72, 8186, 8176, 8158, 8129, 8179, 8201, 8188, 8177, 8221, 8151, 8143, 8159, 8164, 8070,2.1954193115234375
72, 8186, 8176, 8158, 8129, 8179, 8201, 8188, 8177, 8221, 8151, 8143, 8159, 8164, 8070,2.1954193115234375
73, 8177, 8178, 8161, 8137, 8175, 8205, 8206, 8174, 8239, 8170, 8136, 8139, 8148, 8065,2.2034192085266113
73, 8177, 8178, 8161, 8137, 8175, 8205, 8206, 8174, 8239, 8170, 8136, 8139, 8148, 8065,2.2034192085266113
74, 8189, 8167, 8159, 8116, 8179, 8223, 8213, 8195, 8223, 8160, 8131, 8154, 8175, 8064,2.211444616317749
74, 8189, 8167, 8159, 8116, 8179, 8223, 8213, 8195, 8223, 8160, 8131, 8154, 8175, 8064,2.211444616317749
75, 8157, 8166, 8141, 8114, 8193, 8206, 8233, 8172, 8227, 8161, 8125, 8139, 8156, 8050,2.2194159030914307
75, 8157, 8166, 8141, 8114, 8193, 8206, 8233, 8172, 8227, 8161, 8125, 8139, 8156, 8050,2.2194159030914307
76, 8185, 8161, 8135, 8108, 8178, 8209, 8233, 8174, 8222, 8146, 8138, 8155, 8158, 8051,2.2274601459503174
76, 8185, 8161, 8135, 8108, 8178, 8209, 8233, 8174, 8222, 8146, 8138, 8155, 8158, 8051,2.2274601459503174
77, 8178, 8163, 8139, 8102, 8181, 8187, 8240, 8172, 8219, 8150, 8140, 8149, 8159, 8059,2.2344391345977783
77, 8178, 8163, 8139, 8102, 8181, 8187, 8240, 8172, 8219, 8150, 8140, 8149, 8159, 8059,2.2344391345977783
78, 8166, 8174, 8140, 8115, 8211, 8165, 8253, 8160, 8234, 8181, 8132, 8138, 8154, 8069,2.242450475692749
78, 8166, 8174, 8140, 8115, 8211, 8165, 8253, 8160, 8234, 8181, 8132, 8138, 8154, 8069,2.242450475692749
79, 8195, 8177, 8136, 8106, 8203, 8179, 8243, 8185, 8240, 8183, 8136, 8153, 8163, 8072,2.250422716140747
79, 8195, 8177, 8136, 8106, 8203, 8179, 8243, 8185, 8240, 8183, 8136, 8153, 8163, 8072,2.250422716140747
80, 8162, 8177, 8135, 8098, 8196, 8176, 8252, 8165, 8262, 8195, 8145, 8133, 8144, 8078,2.2586615085601807
80, 8162, 8177, 8135, 8098, 8196, 8176, 8252, 8165, 8262, 8195, 8145, 8133, 8144, 8078,2.2586615085601807
81, 8169, 8164, 8138, 8096, 8198, 8184, 8244, 8156, 8261, 8201, 8147, 8149, 8162, 8093,2.266615152359009
81, 8169, 8164, 8138, 8096, 8198, 8184, 8244, 8156, 8261, 8201, 8147, 8149, 8162, 8093,2.266615152359009
82, 8170, 8168, 8134, 8089, 8216, 8170, 8237, 8168, 8264, 8211, 8137, 8147, 8164, 8091,2.2744410037994385
82, 8170, 8168, 8134, 8089, 8216, 8170, 8237, 8168, 8264, 8211, 8137, 8147, 8164, 8091,2.2744410037994385
83, 8164, 8198, 8135, 8090, 8245, 8163, 8253, 8184, 8300, 8237, 8148, 8141, 8158, 8102,2.282646894454956
83, 8164, 8198, 8135, 8090, 8245, 8163, 8253, 8184, 8300, 8237, 8148, 8141, 8158, 8102,2.282646894454956
84, 8174, 8192, 8123, 8070, 8221, 8174, 8246, 8203, 8297, 8222, 8153, 8163, 8179, 8092,2.290408134460449
84, 8174, 8192, 8123, 8070, 8221, 8174, 8246, 8203, 8297, 8222, 8153, 8163, 8179, 8092,2.290408134460449
85, 8120, 8160, 8090, 8043, 8181, 8143, 8231, 8161, 8279, 8192, 8124, 8124, 8149, 8038,2.2974560260772705
85, 8120, 8160, 8090, 8043, 8181, 8143, 8231, 8161, 8279, 8192, 8124, 8124, 8149, 8038,2.2974560260772705
86, 8132, 8141, 8084, 8025, 8166, 8153, 8216, 8162, 8258, 8170, 8119, 8121, 8151, 8022,2.3054516315460205
86, 8132, 8141, 8084, 8025, 8166, 8153, 8216, 8162, 8258, 8170, 8119, 8121, 8151, 8022,2.3054516315460205
87, 8132, 8149, 8096, 8019, 8182, 8165, 8229, 8178, 8241, 8171, 8124, 8133, 8162, 8037,2.3134424686431885
87, 8132, 8149, 8096, 8019, 8182, 8165, 8229, 8178, 8241, 8171, 8124, 8133, 8162, 8037,2.3134424686431885
88, 8108, 8173, 8100, 8034, 8198, 8152, 8250, 8151, 8223, 8174, 8123, 8126, 8151, 8050,2.321506977081299
88, 8108, 8173, 8100, 8034, 8198, 8152, 8250, 8151, 8223, 8174, 8123, 8126, 8151, 8050,2.321506977081299
89, 8145, 8185, 8101, 8050, 8182, 8159, 8231, 8165, 8194, 8145, 8125, 8140, 8166, 8059,2.3295071125030518
89, 8145, 8185, 8101, 8050, 8182, 8159, 8231, 8165, 8194, 8145, 8125, 8140, 8166, 8059,2.3295071125030518
90, 8120, 8192, 8102, 8053, 8179, 8141, 8237, 8157, 8213, 8160, 8127, 8122, 8147, 8061,2.337881565093994
90, 8120, 8192, 8102, 8053, 8179, 8141, 8237, 8157, 8213, 8160, 8127, 8122, 8147, 8061,2.337881565093994
91, 8123, 8188, 8107, 8048, 8182, 8138, 8252, 8156, 8215, 8189, 8138, 8130, 8148, 8070,2.344895601272583
91, 8123, 8188, 8107, 8048, 8182, 8138, 8252, 8156, 8215, 8189, 8138, 8130, 8148, 8070,2.344895601272583
92, 8124, 8175, 8102, 8045, 8205, 8136, 8251, 8165, 8204, 8204, 8137, 8125, 8155, 8065,2.3528966903686523
92, 8124, 8175, 8102, 8045, 8205, 8136, 8251, 8165, 8204, 8204, 8137, 8125, 8155, 8065,2.3528966903686523
93, 8090, 8175, 8092, 8037, 8221, 8132, 8251, 8157, 8256, 8218, 8132, 8098, 8140, 8060,2.359917163848877
93, 8090, 8175, 8092, 8037, 8221, 8132, 8251, 8157, 8256, 8218, 8132, 8098, 8140, 8060,2.359917163848877
94, 8114, 8163, 8082, 8022, 8193, 8154, 8235, 8192, 8276, 8196, 8129, 8111, 8157, 8055,2.367903470993042
94, 8114, 8163, 8082, 8022, 8193, 8154, 8235, 8192, 8276, 8196, 8129, 8111, 8157, 8055,2.367903470993042
95, 8087, 8154, 8065, 8038, 8206, 8136, 8255, 8177, 8266, 8198, 8114, 8084, 8136, 8032,2.376441717147827
95, 8087, 8154, 8065, 8038, 8206, 8136, 8255, 8177, 8266, 8198, 8114, 8084, 8136, 8032,2.376441717147827
96, 8089, 8165, 8061, 8046, 8208, 8138, 8270, 8151, 8259, 8196, 8107, 8082, 8125, 8024,2.384145975112915
96, 8089, 8165, 8061, 8046, 8208, 8138, 8270, 8151, 8259, 8196, 8107, 8082, 8125, 8024,2.384145975112915
97, 8101, 8167, 8062, 8018, 8186, 8159, 8259, 8155, 8256, 8173, 8106, 8096, 8134, 8021,2.3921375274658203
97, 8101, 8167, 8062, 8018, 8186, 8159, 8259, 8155, 8256, 8173, 8106, 8096, 8134, 8021,2.3921375274658203
98, 8077, 8170, 8070, 8025, 8198, 8162, 8281, 8129, 8266, 8194, 8117, 8088, 8129, 8032,2.400441884994507
98, 8077, 8170, 8070, 8025, 8198, 8162, 8281, 8129, 8266, 8194, 8117, 8088, 8129, 8032,2.400441884994507
99, 8115, 8181, 8079, 8039, 8192, 8167, 8278, 8137, 8240, 8182, 8126, 8107, 8146, 8041,2.408435344696045
99, 8115, 8181, 8079, 8039, 8192, 8167, 8278, 8137, 8240, 8182, 8126, 8107, 8146, 8041,2.408435344696045
100, 8098, 8202, 8074, 8034, 8193, 8137, 8260, 8131, 8220, 8162, 8117, 8091, 8132, 8024,2.4164412021636963
100, 8098, 8202, 8074, 8034, 8193, 8137, 8260, 8131, 8220, 8162, 8117, 8091, 8132, 8024,2.4164412021636963
101, 8098, 8218, 8086, 8045, 8203, 8138, 8257, 8129, 8215, 8182, 8123, 8096, 8139, 8043,2.4244298934936523
101, 8098, 8218, 8086, 8045, 8203, 8138, 8257, 8129, 8215, 8182, 8123, 8096, 8139, 8043,2.4244298934936523
102, 8113, 8206, 8091, 8051, 8182, 8147, 8249, 8147, 8207, 8176, 8122, 8104, 8151, 8057,2.431422233581543
102, 8113, 8206, 8091, 8051, 8182, 8147, 8249, 8147, 8207, 8176, 8122, 8104, 8151, 8057,2.431422233581543
103, 8081, 8199, 8086, 8058, 8193, 8124, 8253, 8143, 8245, 8183, 8130, 8096, 8138, 8056,2.4394147396087646
103, 8081, 8199, 8086, 8058, 8193, 8124, 8253, 8143, 8245, 8183, 8130, 8096, 8138, 8056,2.4394147396087646
104, 8116, 8216, 8099, 8048, 8210, 8147, 8247, 8179, 8271, 8219, 8155, 8129, 8163, 8071,2.4468698501586914
104, 8116, 8216, 8099, 8048, 8210, 8147, 8247, 8179, 8271, 8219, 8155, 8129, 8163, 8071,2.4468698501586914
105, 8093, 8225, 8074, 8015, 8187, 8137, 8241, 8156, 8273, 8221, 8129, 8097, 8138, 8041,2.454862594604492
105, 8093, 8225, 8074, 8015, 8187, 8137, 8241, 8156, 8273, 8221, 8129, 8097, 8138, 8041,2.454862594604492
106, 8059, 8212, 8037, 8007, 8159, 8132, 8243, 8127, 8271, 8173, 8096, 8073, 8120, 8002,2.4638659954071045
106, 8059, 8212, 8037, 8007, 8159, 8132, 8243, 8127, 8271, 8173, 8096, 8073, 8120, 8002,2.4638659954071045
107, 8080, 8234, 8045, 8015, 8160, 8160, 8255, 8155, 8266, 8161, 8106, 8087, 8140, 8009,2.4713377952575684
107, 8080, 8234, 8045, 8015, 8160, 8160, 8255, 8155, 8266, 8161, 8106, 8087, 8140, 8009,2.4718475341796875
108, 8066, 8291, 8062, 8020, 8199, 8150, 8287, 8136, 8279, 8200, 8126, 8081, 8128, 8037,2.479440689086914
108, 8066, 8291, 8062, 8020, 8199, 8150, 8287, 8136, 8279, 8200, 8126, 8081, 8128, 8037,2.479440689086914
109, 8085, 8285, 8059, 8016, 8207, 8145, 8272, 8145, 8257, 8175, 8123, 8098, 8136, 8042,2.4874048233032227
109, 8085, 8285, 8059, 8016, 8207, 8145, 8272, 8145, 8257, 8175, 8123, 8098, 8136, 8042,2.4874048233032227
110, 8065, 8244, 8054, 8029, 8184, 8126, 8248, 8150, 8236, 8161, 8110, 8088, 8129, 8018,2.4943130016326904
110, 8065, 8244, 8054, 8029, 8184, 8126, 8248, 8150, 8236, 8161, 8110, 8088, 8129, 8018,2.4943130016326904
111, 8064, 8245, 8075, 8042, 8177, 8138, 8255, 8138, 8256, 8198, 8130, 8105, 8133, 8032,2.5023207664489746
111, 8064, 8245, 8075, 8042, 8177, 8138, 8255, 8138, 8256, 8198, 8130, 8105, 8133, 8032,2.5023207664489746
112, 8098, 8248, 8085, 8036, 8179, 8161, 8248, 8154, 8263, 8200, 8140, 8125, 8142, 8044,2.5104408264160156
112, 8098, 8248, 8085, 8036, 8179, 8161, 8248, 8154, 8263, 8200, 8140, 8125, 8142, 8044,2.5104408264160156
113, 8060, 8223, 8069, 8051, 8202, 8132, 8251, 8135, 8268, 8205, 8130, 8091, 8118, 8032,2.5184216499328613
113, 8060, 8223, 8069, 8051, 8202, 8132, 8251, 8135, 8268, 8205, 8130, 8091, 8118, 8032,2.5184216499328613
114, 8088, 8187, 8064, 8048, 8189, 8137, 8248, 8140, 8253, 8193, 8125, 8098, 8134, 8036,2.526118755340576
114, 8088, 8187, 8064, 8048, 8189, 8137, 8248, 8140, 8253, 8193, 8125, 8098, 8134, 8036,2.526118755340576
115, 8103, 8180, 8066, 8022, 8182, 8133, 8248, 8148, 8237, 8187, 8123, 8098, 8134, 8037,2.534118890762329
115, 8103, 8180, 8066, 8022, 8182, 8133, 8248, 8148, 8237, 8187, 8123, 8098, 8134, 8037,2.534118890762329
116, 8092, 8185, 8068, 8032, 8204, 8127, 8251, 8149, 8239, 8201, 8132, 8102, 8138, 8046,2.542160749435425
116, 8092, 8185, 8068, 8032, 8204, 8127, 8251, 8149, 8239, 8201, 8132, 8102, 8138, 8046,2.542160749435425
117, 8115, 8166, 8063, 8047, 8185, 8144, 8234, 8173, 8234, 8177, 8123, 8119, 8161, 8036,2.5504419803619385
117, 8115, 8166, 8063, 8047, 8185, 8144, 8234, 8173, 8234, 8177, 8123, 8119, 8161, 8036,2.5504419803619385
118, 8093, 8174, 8073, 8047, 8185, 8131, 8260, 8155, 8269, 8195, 8128, 8107, 8141, 8026,2.5574886798858643
118, 8093, 8174, 8073, 8047, 8185, 8131, 8260, 8155, 8269, 8195, 8128, 8107, 8141, 8026,2.5574886798858643
119, 8124, 8194, 8098, 8049, 8199, 8152, 8282, 8166, 8295, 8235, 8156, 8138, 8159, 8055,2.565070390701294
119, 8124, 8194, 8098, 8049, 8199, 8152, 8282, 8166, 8295, 8235, 8156, 8138, 8159, 8055,2.565070390701294
120, 8129, 8182, 8093, 8064, 8198, 8167, 8280, 8174, 8291, 8231, 8149, 8137, 8164, 8068,2.5731589794158936
120, 8129, 8182, 8093, 8064, 8198, 8167, 8280, 8174, 8291, 8231, 8149, 8137, 8164, 8068,2.5731589794158936
121, 8115, 8172, 8096, 8066, 8202, 8145, 8280, 8158, 8294, 8222, 8146, 8128, 8155, 8082,2.5811753273010254
121, 8115, 8172, 8096, 8066, 8202, 8145, 8280, 8158, 8294, 8222, 8146, 8128, 8155, 8082,2.5811753273010254
122, 8156, 8167, 8116, 8044, 8206, 8141, 8259, 8182, 8265, 8215, 8155, 8153, 8175, 8092,2.5894410610198975
122, 8156, 8167, 8116, 8044, 8206, 8141, 8259, 8182, 8265, 8215, 8155, 8153, 8175, 8092,2.5894410610198975
123, 8123, 8145, 8104, 8057, 8216, 8144, 8251, 8160, 8253, 8209, 8152, 8132, 8156, 8072,2.5974040031433105
123, 8123, 8145, 8104, 8057, 8216, 8144, 8251, 8160, 8253, 8209, 8152, 8132, 8156, 8072,2.5974040031433105
124, 8127, 8119, 8091, 8079, 8200, 8170, 8237, 8157, 8255, 8184, 8156, 8132, 8164, 8065,2.605441093444824
124, 8127, 8119, 8091, 8079, 8200, 8170, 8237, 8157, 8255, 8184, 8156, 8132, 8164, 8065,2.605441093444824
125, 8138, 8119, 8097, 8065, 8197, 8152, 8230, 8172, 8259, 8185, 8147, 8130, 8171, 8062,2.6134417057037354
125, 8138, 8119, 8097, 8065, 8197, 8152, 8230, 8172, 8259, 8185, 8147, 8130, 8171, 8062,2.6134417057037354
126, 8123, 8157, 8112, 8062, 8223, 8129, 8253, 8162, 8282, 8220, 8147, 8131, 8159, 8067,2.62144136428833
126, 8123, 8157, 8112, 8062, 8223, 8129, 8253, 8162, 8282, 8220, 8147, 8131, 8159, 8067,2.62144136428833
127, 8163, 8192, 8123, 8078, 8216, 8168, 8250, 8190, 8274, 8231, 8163, 8161, 8175, 8078,2.6284360885620117
127, 8163, 8192, 8123, 8078, 8216, 8168, 8250, 8190, 8274, 8231, 8163, 8161, 8175, 8078,2.6284360885620117
241, 8138, 8204, 8116, 8087, 8199, 8167, 8248, 8175, 8273, 8238, 8163, 8140, 8163, 8077,2.636442184448242
241, 8138, 8204, 8116, 8087, 8199, 8167, 8248, 8175, 8273, 8238, 8163, 8140, 8163, 8077,2.636442184448242
0, 8138, 8193, 8108, 8074, 8195, 8173, 8241, 8167, 8275, 8213, 8158, 8140, 8164, 8075,2.6444356441497803
0, 8138, 8193, 8108, 8074, 8195, 8173, 8241, 8167, 8275, 8213, 8158, 8140, 8164, 8075,2.6444356441497803
1, 8151, 8177, 8102, 8055, 8202, 8179, 8226, 8182, 8267, 8199, 8149, 8142, 8161, 8058,2.6524481773376465
1, 8151, 8177, 8102, 8055, 8202, 8179, 8226, 8182, 8267, 8199, 8149, 8142, 8161, 8058,2.6524481773376465
2, 8123, 8175, 8103, 8071, 8207, 8158, 8245, 8169, 8271, 8246, 8148, 8135, 8150, 8061,2.6604561805725098
2, 8123, 8175, 8103, 8071, 8207, 8158, 8245, 8169, 8271, 8246, 8148, 8135, 8150, 8061,2.6604561805725098
3, 8153, 8169, 8113, 8086, 8190, 8163, 8251, 8186, 8258, 8237, 8152, 8158, 8176, 8076,2.668642282485962
3, 8153, 8169, 8113, 8086, 8190, 8163, 8251, 8186, 8258, 8237, 8152, 8158, 8176, 8076,2.668642282485962
4, 8138, 8158, 8110, 8072, 8218, 8146, 8250, 8178, 8261, 8214, 8150, 8144, 8164, 8076,2.676168441772461
4, 8138, 8158, 8110, 8072, 8218, 8146, 8250, 8178, 8261, 8214, 8150, 8144, 8164, 8076,2.676168441772461
5, 8136, 8139, 8104, 8057, 8220, 8155, 8232, 8175, 8250, 8209, 8151, 8143, 8163, 8074,2.6844429969787598
5, 8136, 8139, 8104, 8057, 8220, 8155, 8232, 8175, 8250, 8209, 8151, 8143, 8163, 8074,2.6844429969787598
6, 8146, 8116, 8098, 8052, 8168, 8166, 8204, 8179, 8221, 8181, 8139, 8145, 8171, 8046,2.691441059112549
6, 8146, 8116, 8098, 8052, 8168, 8166, 8204, 8179, 8221, 8181, 8139, 8145, 8171, 8046,2.691441059112549
7, 8130, 8106, 8100, 8072, 8181, 8150, 8208, 8156, 8240, 8184, 8139, 8134, 8152, 8033,2.6994168758392334
7, 8130, 8106, 8100, 8072, 8181, 8150, 8208, 8156, 8240, 8184, 8139, 8134, 8152, 8033,2.6994168758392334
8, 8176, 8100, 8114, 8080, 8187, 8173, 8199, 8178, 8242, 8191, 8149, 8151, 8162, 8057,2.7074134349823
8, 8176, 8100, 8114, 8080, 8187, 8173, 8199, 8178, 8242, 8191, 8149, 8151, 8162, 8057,2.7074134349823
9, 8154, 8100, 8112, 8055, 8151, 8162, 8196, 8169, 8222, 8190, 8141, 8135, 8157, 8056,2.7153964042663574
9, 8154, 8100, 8112, 8055, 8151, 8162, 8196, 8169, 8222, 8190, 8141, 8135, 8157, 8056,2.7153964042663574
10, 8145, 8094, 8106, 8043, 8153, 8139, 8188, 8161, 8193, 8180, 8138, 8132, 8163, 8047,2.7234411239624023
10, 8145, 8094, 8106, 8043, 8153, 8139, 8188, 8161, 8193, 8180, 8138, 8132, 8163, 8047,2.7234411239624023
11, 8177, 8091, 8112, 8061, 8184, 8139, 8167, 8182, 8176, 8170, 8144, 8148, 8171, 8044,2.7314677238464355
11, 8177, 8091, 8112, 8061, 8184, 8139, 8167, 8182, 8176, 8170, 8144, 8148, 8171, 8044,2.7314677238464355
12, 8159, 8108, 8119, 8085, 8200, 8142, 8188, 8161, 8211, 8209, 8150, 8145, 8154, 8049,2.7396295070648193
12, 8159, 8108, 8119, 8085, 8200, 8142, 8188, 8161, 8211, 8209, 8150, 8145, 8154, 8049,2.7396295070648193
13, 8194, 8100, 8111, 8077, 8172, 8169, 8182, 8179, 8211, 8200, 8150, 8156, 8171, 8047,2.747659206390381
13, 8194, 8100, 8111, 8077, 8172, 8169, 8182, 8179, 8211, 8200, 8150, 8156, 8171, 8047,2.747659206390381
14, 8188, 8080, 8096, 8066, 8165, 8147, 8170, 8182, 8196, 8160, 8138, 8140, 8165, 8035,2.754664659500122
14, 8188, 8080, 8096, 8066, 8165, 8147, 8170, 8182, 8196, 8160, 8138, 8140, 8165, 8035,2.754664659500122
15, 8196, 8095, 8112, 8079, 8192, 8141, 8185, 8168, 8209, 8170, 8148, 8148, 8166, 8064,2.762434959411621
15, 8196, 8095, 8112, 8079, 8192, 8141, 8185, 8168, 8209, 8170, 8148, 8148, 8166, 8064,2.762434959411621
16, 8243, 8108, 8137, 8078, 8199, 8168, 8185, 8199, 8200, 8176, 8164, 8173, 8187, 8085,2.770782947540283
16, 8243, 8108, 8137, 8078, 8199, 8168, 8185, 8199, 8200, 8176, 8164, 8173, 8187, 8085,2.770782947540283
17, 8207, 8117, 8143, 8092, 8178, 8149, 8189, 8187, 8201, 8187, 8172, 8154, 8171, 8079,2.778435230255127
17, 8207, 8117, 8143, 8092, 8178, 8149, 8189, 8187, 8201, 8187, 8172, 8154, 8171, 8079,2.778435230255127
18, 8220, 8122, 8155, 8107, 8148, 8160, 8176, 8177, 8193, 8197, 8175, 8162, 8176, 8086,2.786447763442993
18, 8220, 8122, 8155, 8107, 8148, 8160, 8176, 8177, 8193, 8197, 8175, 8162, 8176, 8086,2.786447763442993
19, 8216, 8111, 8159, 8094, 8166, 8162, 8172, 8175, 8190, 8202, 8167, 8157, 8176, 8084,2.7944414615631104
19, 8216, 8111, 8159, 8094, 8166, 8162, 8172, 8175, 8190, 8202, 8167, 8157, 8176, 8084,2.7944414615631104
20, 8180, 8097, 8152, 8080, 8186, 8156, 8179, 8167, 8195, 8191, 8167, 8143, 8167, 8086,2.8024418354034424
20, 8180, 8097, 8152, 8080, 8186, 8156, 8179, 8167, 8195, 8191, 8167, 8143, 8167, 8086,2.8024418354034424
21, 8194, 8085, 8147, 8078, 8149, 8165, 8149, 8181, 8170, 8143, 8163, 8150, 8171, 8071,2.8104407787323
21, 8194, 8085, 8147, 8078, 8149, 8165, 8149, 8181, 8170, 8143, 8163, 8150, 8171, 8071,2.8104407787323
22, 8168, 8083, 8151, 8091, 8136, 8150, 8143, 8159, 8172, 8161, 8167, 8141, 8158, 8055,2.818533182144165
22, 8168, 8083, 8151, 8091, 8136, 8150, 8143, 8159, 8172, 8161, 8167, 8141, 8158, 8055,2.818533182144165
23, 8197, 8093, 8170, 8103, 8146, 8181, 8156, 8177, 8174, 8212, 8182, 8158, 8171, 8077,2.825526714324951
23, 8197, 8093, 8170, 8103, 8146, 8181, 8156, 8177, 8174, 8212, 8182, 8158, 8171, 8077,2.825526714324951
24, 8208, 8108, 8173, 8108, 8146, 8184, 8164, 8187, 8178, 8210, 8175, 8157, 8165, 8089,2.833564519882202
24, 8208, 8108, 8173, 8108, 8146, 8184, 8164, 8187, 8178, 8210, 8175, 8157, 8165, 8089,2.833564519882202
25, 8181, 8106, 8162, 8107, 8136, 8153, 8162, 8158, 8189, 8180, 8164, 8146, 8152, 8084,2.841521978378296
25, 8181, 8106, 8162, 8107, 8136, 8153, 8162, 8158, 8189, 8180, 8164, 8146, 8152, 8084,2.841521978378296
26, 8219, 8102, 8170, 8097, 8116, 8183, 8152, 8186, 8168, 8164, 8164, 8165, 8177, 8082,2.849519729614258
26, 8219, 8102, 8170, 8097, 8116, 8183, 8152, 8186, 8168, 8164, 8164, 8165, 8177, 8082,2.849519729614258
27, 8193, 8118, 8176, 8112, 8151, 8184, 8170, 8183, 8174, 8192, 8171, 8164, 8169, 8083,2.8574044704437256
27, 8193, 8118, 8176, 8112, 8151, 8184, 8170, 8183, 8174, 8192, 8171, 8164, 8169, 8083,2.8574044704437256
28, 8186, 8106, 8168, 8114, 8165, 8180, 8147, 8174, 8182, 8184, 8169, 8171, 8165, 8072,2.865440845489502
28, 8186, 8106, 8168, 8114, 8165, 8180, 8147, 8174, 8182, 8184, 8169, 8171, 8165, 8072,2.865440845489502
29, 8198, 8091, 8163, 8095, 8121, 8181, 8133, 8190, 8200, 8188, 8163, 8166, 8167, 8055,2.8734283447265625
29, 8198, 8091, 8163, 8095, 8121, 8181, 8133, 8190, 8200, 8188, 8163, 8166, 8167, 8055,2.8734283447265625
30, 8184, 8115, 8173, 8109, 8127, 8166, 8175, 8184, 8234, 8242, 8171, 8164, 8161, 8078,2.8815908432006836
30, 8184, 8115, 8173, 8109, 8127, 8166, 8175, 8184, 8234, 8242, 8171, 8164, 8161, 8078,2.8815908432006836
31, 8209, 8110, 8171, 8107, 8138, 8171, 8144, 8183, 8179, 8204, 8165, 8185, 8176, 8082,2.88858699798584
31, 8209, 8110, 8171, 8107, 8138, 8171, 8144, 8183, 8179, 8204, 8165, 8185, 8176, 8082,2.88858699798584
32, 8175, 8087, 8151, 8090, 8126, 8156, 8091, 8152, 8130, 8134, 8152, 8163, 8162, 8042,2.895753860473633
32, 8175, 8087, 8151, 8090, 8126, 8156, 8091, 8152, 8130, 8134, 8152, 8163, 8162, 8042,2.8967604637145996
33, 8188, 8108, 8162, 8105, 8108, 8180, 8094, 8171, 8152, 8130, 8154, 8159, 8167, 8044,2.90444278717041
33, 8188, 8108, 8162, 8105, 8108, 8180, 8094, 8171, 8152, 8130, 8154, 8159, 8167, 8044,2.90444278717041
34, 8218, 8125, 8182, 8113, 8087, 8199, 8111, 8205, 8161, 8159, 8158, 8173, 8174, 8064,2.9124207496643066
34, 8218, 8125, 8182, 8113, 8087, 8199, 8111, 8205, 8161, 8159, 8158, 8173, 8174, 8064,2.9124207496643066
35, 8188, 8116, 8179, 8103, 8102, 8178, 8125, 8166, 8155, 8173, 8164, 8164, 8153, 8066,2.9204206466674805
35, 8188, 8116, 8179, 8103, 8102, 8178, 8125, 8166, 8155, 8173, 8164, 8164, 8153, 8066,2.9204206466674805
36, 8220, 8107, 8178, 8094, 8106, 8189, 8110, 8173, 8124, 8143, 8163, 8158, 8171, 8070,2.9284377098083496
36, 8220, 8107, 8178, 8094, 8106, 8189, 8110, 8173, 8124, 8143, 8163, 8158, 8171, 8070,2.9284377098083496
37, 8215, 8110, 8176, 8104, 8103, 8178, 8104, 8179, 8116, 8141, 8158, 8134, 8175, 8075,2.9364418983459473
37, 8215, 8110, 8176, 8104, 8103, 8178, 8104, 8179, 8116, 8141, 8158, 8134, 8175, 8075,2.9364418983459473
38, 8227, 8123, 8185, 8120, 8117, 8187, 8099, 8177, 8138, 8153, 8176, 8144, 8173, 8087,2.9444713592529297
38, 8227, 8123, 8185, 8120, 8117, 8187, 8099, 8177, 8138, 8153, 8176, 8144, 8173, 8087,2.9444713592529297
39, 8253, 8139, 8199, 8131, 8135, 8200, 8092, 8195, 8146, 8156, 8185, 8171, 8182, 8086,2.9524710178375244
39, 8253, 8139, 8199, 8131, 8135, 8200, 8092, 8195, 8146, 8156, 8185, 8171, 8182, 8086,2.9524710178375244
40, 8223, 8159, 8205, 8152, 8148, 8181, 8121, 8183, 8169, 8204, 8181, 8162, 8172, 8097,2.9594736099243164
40, 8223, 8159, 8205, 8152, 8148, 8181, 8121, 8183, 8169, 8204, 8181, 8162, 8172, 8097,2.9594736099243164
41, 8248, 8148, 8204, 8152, 8120, 8195, 8121, 8196, 8168, 8212, 8179, 8160, 8177, 8108,2.967473268508911
41, 8248, 8148, 8204, 8152, 8120, 8195, 8121, 8196, 8168, 8212, 8179, 8160, 8177, 8108,2.967473268508911
42, 8224, 8123, 8186, 8134, 8115, 8179, 8110, 8178, 8159, 8183, 8164, 8139, 8160, 8084,2.9749879837036133
42, 8224, 8123, 8186, 8134, 8115, 8179, 8110, 8178, 8159, 8183, 8164, 8139, 8160, 8084,2.9749879837036133
43, 8206, 8112, 8173, 8130, 8127, 8178, 8110, 8162, 8137, 8162, 8153, 8131, 8158, 8073,2.9834413528442383
43, 8206, 8112, 8173, 8130, 8127, 8178, 8110, 8162, 8137, 8162, 8153, 8131, 8158, 8073,2.9834413528442383
44, 8225, 8110, 8176, 8133, 8121, 8186, 8104, 8191, 8111, 8145, 8161, 8150, 8175, 8075,2.9914321899414062
44, 8225, 8110, 8176, 8133, 8121, 8186, 8104, 8191, 8111, 8145, 8161, 8150, 8175, 8075,2.9914321899414062
45, 8193, 8133, 8178, 8156, 8130, 8151, 8120, 8176, 8149, 8179, 8174, 8138, 8157, 8079,2.99943208694458
45, 8193, 8133, 8178, 8156, 8130, 8151, 8120, 8176, 8149, 8179, 8174, 8138, 8157, 8079,2.99943208694458
46, 8226, 8142, 8183, 8162, 8123, 8156, 8106, 8178, 8166, 8196, 8171, 8140, 8166, 8087,3.0074563026428223
46, 8226, 8142, 8183, 8162, 8123, 8156, 8106, 8178, 8166, 8196, 8171, 8140, 8166, 8087,3.0074563026428223
47, 8214, 8139, 8181, 8152, 8141, 8166, 8104, 8173, 8155, 8194, 8163, 8139, 8172, 8094,3.0154409408569336
47, 8214, 8139, 8181, 8152, 8141, 8166, 8104, 8173, 8155, 8194, 8163, 8139, 8172, 8094,3.0154409408569336
48, 8187, 8150, 8180, 8163, 8156, 8182, 8123, 8159, 8161, 8193, 8177, 8136, 8167, 8107,3.0224416255950928
48, 8187, 8150, 8180, 8163, 8156, 8182, 8123, 8159, 8161, 8193, 8177, 8136, 8167, 8107,3.0224416255950928
49, 8210, 8153, 8185, 8178, 8134, 8189, 8107, 8181, 8166, 8186, 8184, 8151, 8172, 8109,3.0299558639526367
49, 8210, 8153, 8185, 8178, 8134, 8189, 8107, 8181, 8166, 8186, 8184, 8151, 8172, 8109,3.0299558639526367
50, 8182, 8162, 8188, 8196, 8162, 8165, 8113, 8174, 8192, 8217, 8182, 8147, 8160, 8111,3.0379881858825684
50, 8182, 8162, 8188, 8196, 8162, 8165, 8113, 8174, 8192, 8217, 8182, 8147, 8160, 8111,3.0379881858825684
51, 8200, 8155, 8185, 8180, 8187, 8183, 8127, 8189, 8192, 8210, 8177, 8153, 8166, 8124,3.0459890365600586
51, 8200, 8155, 8185, 8180, 8187, 8183, 8127, 8189, 8192, 8210, 8177, 8153, 8166, 8124,3.0469799041748047
52, 8194, 8136, 8175, 8150, 8170, 8163, 8137, 8192, 8181, 8199, 8174, 8148, 8164, 8121,3.054028034210205
52, 8194, 8136, 8175, 8150, 8170, 8163, 8137, 8192, 8181, 8199, 8174, 8148, 8164, 8121,3.054028034210205
53, 8187, 8150, 8175, 8174, 8160, 8150, 8139, 8171, 8176, 8211, 8183, 8145, 8161, 8120,3.062056303024292
53, 8187, 8150, 8175, 8174, 8160, 8150, 8139, 8171, 8176, 8211, 8183, 8145, 8161, 8120,3.062056303024292
54, 8217, 8156, 8176, 8191, 8149, 8181, 8117, 8175, 8163, 8178, 8181, 8156, 8174, 8110,3.070068359375
54, 8217, 8156, 8176, 8191, 8149, 8181, 8117, 8175, 8163, 8178, 8181, 8156, 8174, 8110,3.070068359375
55, 8174, 8143, 8164, 8175, 8140, 8168, 8123, 8149, 8182, 8177, 8168, 8132, 8155, 8088,3.078091621398926
55, 8174, 8143, 8164, 8175, 8140, 8168, 8123, 8149, 8182, 8177, 8168, 8132, 8155, 8088,3.078091621398926
56, 8197, 8147, 8170, 8169, 8132, 8175, 8125, 8171, 8180, 8197, 8166, 8139, 8165, 8100,3.0850887298583984
56, 8197, 8147, 8170, 8169, 8132, 8175, 8125, 8171, 8180, 8197, 8166, 8139, 8165, 8100,3.0850887298583984
57, 8206, 8159, 8172, 8171, 8150, 8170, 8116, 8183, 8172, 8191, 8172, 8156, 8174, 8112,3.093440055847168
57, 8206, 8159, 8172, 8171, 8150, 8170, 8116, 8183, 8172, 8191, 8172, 8156, 8174, 8112,3.093440055847168
58, 8170, 8156, 8163, 8167, 8181, 8162, 8114, 8154, 8196, 8193, 8175, 8149, 8156, 8100,3.1014230251312256
58, 8170, 8156, 8163, 8167, 8181, 8162, 8114, 8154, 8196, 8193, 8175, 8149, 8156, 8100,3.1014230251312256
59, 8206, 8164, 8181, 8166, 8172, 8186, 8104, 8180, 8198, 8198, 8178, 8168, 8175, 8103,3.1094486713409424
59, 8206, 8164, 8181, 8166, 8172, 8186, 8104, 8180, 8198, 8198, 8178, 8168, 8175, 8103,3.1094486713409424
60, 8187, 8195, 8193, 8189, 8146, 8165, 8116, 8175, 8200, 8203, 8181, 8165, 8172, 8118,3.1174681186676025
60, 8187, 8195, 8193, 8189, 8146, 8165, 8116, 8175, 8200, 8203, 8181, 8165, 8172, 8118,3.1174681186676025
61, 8192, 8187, 8183, 8186, 8117, 8164, 8104, 8168, 8179, 8170, 8172, 8159, 8164, 8105,3.1254475116729736
61, 8192, 8187, 8183, 8186, 8117, 8164, 8104, 8168, 8179, 8170, 8172, 8159, 8164, 8105,3.1254475116729736
62, 8195, 8169, 8177, 8164, 8128, 8175, 8099, 8179, 8164, 8162, 8171, 8160, 8164, 8080,3.1334433555603027
62, 8195, 8169, 8177, 8164, 8128, 8175, 8099, 8179, 8164, 8162, 8171, 8160, 8164, 8080,3.1334433555603027
63, 8167, 8189, 8186, 8173, 8160, 8173, 8128, 8165, 8197, 8202, 8175, 8153, 8157, 8094,3.1414413452148438
63, 8167, 8189, 8186, 8173, 8160, 8173, 8128, 8165, 8197, 8202, 8175, 8153, 8157, 8094,3.1414413452148438
64, 8200, 8199, 8191, 8178, 8132, 8186, 8123, 8187, 8205, 8192, 8172, 8168, 8171, 8105,3.148440361022949
64, 8200, 8199, 8191, 8178, 8132, 8186, 8123, 8187, 8205, 8192, 8172, 8168, 8171, 8105,3.148440361022949
65, 8184, 8217, 8190, 8192, 8138, 8171, 8140, 8180, 8211, 8197, 8183, 8168, 8164, 8107,3.15641450881958
65, 8184, 8217, 8190, 8192, 8138, 8171, 8140, 8180, 8211, 8197, 8183, 8168, 8164, 8107,3.15641450881958
66, 8205, 8249, 8206, 8219, 8173, 8180, 8160, 8179, 8211, 8222, 8202, 8178, 8177, 8141,3.1644418239593506
66, 8205, 8249, 8206, 8219, 8173, 8180, 8160, 8179, 8211, 8222, 8202, 8178, 8177, 8141,3.1644418239593506
67, 8226, 8256, 8215, 8220, 8164, 8176, 8150, 8199, 8197, 8219, 8202, 8197, 8195, 8157,3.171976327896118
67, 8226, 8256, 8215, 8220, 8164, 8176, 8150, 8199, 8197, 8219, 8202, 8197, 8195, 8157,3.171976327896118
68, 8178, 8242, 8208, 8216, 8160, 8155, 8144, 8177, 8207, 8216, 8199, 8184, 8176, 8147,3.180121660232544
68, 8178, 8242, 8208, 8216, 8160, 8155, 8144, 8177, 8207, 8216, 8199, 8184, 8176, 8147,3.180121660232544
69, 8203, 8231, 8213, 8217, 8147, 8185, 8114, 8183, 8183, 8183, 8196, 8188, 8177, 8136,3.188114643096924
69, 8203, 8231, 8213, 8217, 8147, 8185, 8114, 8183, 8183, 8183, 8196, 8188, 8177, 8136,3.188114643096924
70, 8201, 8246, 8219, 8239, 8137, 8180, 8118, 8175, 8175, 8175, 8197, 8184, 8169, 8132,3.1961135864257812
70, 8201, 8246, 8219, 8239, 8137, 8180, 8118, 8175, 8175, 8175, 8197, 8184, 8169, 8132,3.1961135864257812
71, 8221, 8257, 8236, 8262, 8140, 8181, 8142, 8174, 8204, 8201, 8207, 8189, 8171, 8155,3.204113245010376
71, 8221, 8257, 8236, 8262, 8140, 8181, 8142, 8174, 8204, 8201, 8207, 8189, 8171, 8155,3.204113245010376
72, 8250, 8234, 8244, 8247, 8133, 8185, 8131, 8191, 8207, 8200, 8203, 8193, 8187, 8163,3.212114095687866
72, 8250, 8234, 8244, 8247, 8133, 8185, 8131, 8191, 8207, 8200, 8203, 8193, 8187, 8163,3.212114095687866
73, 8212, 8211, 8224, 8226, 8131, 8150, 8132, 8165, 8204, 8194, 8192, 8168, 8172, 8151,3.219113349914551
73, 8212, 8211, 8224, 8226, 8131, 8150, 8132, 8165, 8204, 8194, 8192, 8168, 8172, 8151,3.219113349914551
74, 8242, 8206, 8218, 8221, 8120, 8160, 8120, 8176, 8174, 8160, 8198, 8182, 8181, 8152,3.2271132469177246
74, 8242, 8206, 8218, 8221, 8120, 8160, 8120, 8176, 8174, 8160, 8198, 8182, 8181, 8152,3.2271132469177246
75, 8218, 8211, 8218, 8228, 8137, 8161, 8105, 8169, 8156, 8143, 8196, 8177, 8173, 8139,3.235114097595215
75, 8218, 8211, 8218, 8228, 8137, 8161, 8105, 8169, 8156, 8143, 8196, 8177, 8173, 8139,3.235114097595215
76, 8195, 8207, 8228, 8238, 8148, 8176, 8116, 8160, 8177, 8172, 8185, 8166, 8164, 8131,3.2431132793426514
76, 8195, 8207, 8228, 8238, 8148, 8176, 8116, 8160, 8177, 8172, 8185, 8166, 8164, 8131,3.2431132793426514
77, 8236, 8198, 8243, 8237, 8129, 8199, 8139, 8195, 8198, 8204, 8191, 8190, 8184, 8151,3.2511134147644043
77, 8236, 8198, 8243, 8237, 8129, 8199, 8139, 8195, 8198, 8204, 8191, 8190, 8184, 8151,3.2511134147644043
78, 8211, 8211, 8244, 8249, 8152, 8177, 8171, 8184, 8229, 8223, 8205, 8186, 8174, 8173,3.2591207027435303
78, 8211, 8211, 8244, 8249, 8152, 8177, 8171, 8184, 8229, 8223, 8205, 8186, 8174, 8173,3.2591207027435303
79, 8225, 8210, 8241, 8252, 8151, 8192, 8158, 8186, 8224, 8186, 8202, 8184, 8175, 8168,3.267404317855835
79, 8225, 8210, 8241, 8252, 8151, 8192, 8158, 8186, 8224, 8186, 8202, 8184, 8175, 8168,3.267404317855835
80, 8212, 8192, 8230, 8243, 8127, 8185, 8140, 8181, 8210, 8176, 8190, 8173, 8175, 8149,3.274885892868042
80, 8212, 8192, 8230, 8243, 8127, 8185, 8140, 8181, 8210, 8176, 8190, 8173, 8175, 8149,3.274885892868042
81, 8198, 8188, 8229, 8246, 8120, 8169, 8137, 8162, 8210, 8204, 8188, 8169, 8176, 8157,3.2828783988952637
81, 8198, 8188, 8229, 8246, 8120, 8169, 8137, 8162, 8210, 8204, 8188, 8169, 8176, 8157,3.2828783988952637
82, 8224, 8179, 8230, 8240, 8117, 8184, 8112, 8180, 8186, 8176, 8184, 8185, 8183, 8149,3.2904350757598877
82, 8224, 8179, 8230, 8240, 8117, 8184, 8112, 8180, 8186, 8176, 8184, 8185, 8183, 8149,3.2904350757598877
83, 8179, 8180, 8220, 8243, 8142, 8182, 8115, 8166, 8191, 8171, 8180, 8172, 8158, 8134,3.2984399795532227
83, 8179, 8180, 8220, 8243, 8142, 8182, 8115, 8166, 8191, 8171, 8180, 8172, 8158, 8134,3.2984399795532227
84, 8194, 8184, 8222, 8256, 8140, 8192, 8114, 8171, 8193, 8171, 8179, 8178, 8169, 8138,3.3064398765563965
84, 8194, 8184, 8222, 8256, 8140, 8192, 8114, 8171, 8193, 8171, 8179, 8178, 8169, 8138,3.3064398765563965
85, 8192, 8172, 8218, 8253, 8129, 8169, 8108, 8171, 8182, 8159, 8173, 8178, 8173, 8127,3.314441680908203
85, 8192, 8172, 8218, 8253, 8129, 8169, 8108, 8171, 8182, 8159, 8173, 8178, 8173, 8127,3.314441680908203
86, 8165, 8164, 8205, 8240, 8149, 8161, 8114, 8151, 8169, 8162, 8174, 8163, 8152, 8119,3.3224411010742188
86, 8165, 8164, 8205, 8240, 8149, 8161, 8114, 8151, 8169, 8162, 8174, 8163, 8152, 8119,3.3224411010742188
87, 8201, 8177, 8212, 8237, 8165, 8189, 8112, 8177, 8155, 8158, 8180, 8173, 8167, 8124,3.330169916152954
87, 8201, 8177, 8212, 8237, 8165, 8189, 8112, 8177, 8155, 8158, 8180, 8173, 8167, 8124,3.330169916152954
88, 8179, 8206, 8222, 8256, 8173, 8170, 8134, 8170, 8186, 8190, 8184, 8164, 8165, 8135,3.338172674179077
88, 8179, 8206, 8222, 8256, 8173, 8170, 8134, 8170, 8186, 8190, 8184, 8164, 8165, 8135,3.338172674179077
89, 8191, 8190, 8217, 8251, 8155, 8170, 8125, 8171, 8166, 8178, 8175, 8161, 8165, 8134,3.3467214107513428
89, 8191, 8190, 8217, 8251, 8155, 8170, 8125, 8171, 8166, 8178, 8175, 8161, 8165, 8134,3.3467214107513428
90, 8185, 8156, 8200, 8227, 8142, 8165, 8103, 8179, 8129, 8132, 8164, 8158, 8167, 8115,3.3534421920776367
90, 8185, 8156, 8200, 8227, 8142, 8165, 8103, 8179, 8129, 8132, 8164, 8158, 8167, 8115,3.3534421920776367
91, 8156, 8166, 8202, 8233, 8151, 8149, 8118, 8169, 8158, 8144, 8174, 8158, 8172, 8128,3.361485004425049
91, 8156, 8166, 8202, 8233, 8151, 8149, 8118, 8169, 8158, 8144, 8174, 8158, 8172, 8128,3.361485004425049
92, 8196, 8173, 8218, 8234, 8142, 8162, 8114, 8197, 8168, 8146, 8177, 8181, 8190, 8146,3.3694841861724854
92, 8196, 8173, 8218, 8234, 8142, 8162, 8114, 8197, 8168, 8146, 8177, 8181, 8190, 8146,3.3694841861724854
93, 8166, 8178, 8215, 8241, 8147, 8145, 8115, 8174, 8176, 8147, 8171, 8167, 8162, 8130,3.3774049282073975
93, 8166, 8178, 8215, 8241, 8147, 8145, 8115, 8174, 8176, 8147, 8171, 8167, 8162, 8130,3.3774049282073975
94, 8166, 8186, 8211, 8250, 8157, 8153, 8099, 8154, 8174, 8155, 8171, 8158, 8156, 8116,3.38531494140625
94, 8166, 8186, 8211, 8250, 8157, 8153, 8099, 8154, 8174, 8155, 8171, 8158, 8156, 8116,3.38531494140625
95, 8176, 8173, 8199, 8228, 8153, 8153, 8093, 8170, 8159, 8157, 8169, 8156, 8168, 8114,3.3933143615722656
95, 8176, 8173, 8199, 8228, 8153, 8153, 8093, 8170, 8159, 8157, 8169, 8156, 8168, 8114,3.3933143615722656
96, 8152, 8166, 8189, 8212, 8160, 8134, 8134, 8164, 8183, 8171, 8173, 8152, 8163, 8128,3.401451587677002
96, 8152, 8166, 8189, 8212, 8160, 8134, 8134, 8164, 8183, 8171, 8173, 8152, 8163, 8128,3.401451587677002
97, 8183, 8166, 8194, 8214, 8154, 8162, 8131, 8189, 8180, 8149, 8175, 8166, 8176, 8134,3.40944242477417
97, 8183, 8166, 8194, 8214, 8154, 8162, 8131, 8189, 8180, 8149, 8175, 8166, 8176, 8134,3.40944242477417
98, 8153, 8170, 8193, 8225, 8171, 8156, 8126, 8177, 8178, 8149, 8178, 8154, 8162, 8124,3.4164414405822754
98, 8153, 8170, 8193, 8225, 8171, 8156, 8126, 8177, 8178, 8149, 8178, 8154, 8162, 8124,3.4164414405822754
99, 8161, 8178, 8207, 8240, 8175, 8162, 8141, 8165, 8193, 8169, 8186, 8169, 8161, 8134,3.424197196960449
99, 8161, 8178, 8207, 8240, 8175, 8162, 8141, 8165, 8193, 8169, 8186, 8169, 8161, 8134,3.424197196960449
100, 8178, 8177, 8210, 8229, 8137, 8164, 8136, 8171, 8176, 8153, 8173, 8172, 8166, 8131,3.432115316390991
100, 8178, 8177, 8210, 8229, 8137, 8164, 8136, 8171, 8176, 8153, 8173, 8172, 8166, 8131,3.432115316390991
101, 8130, 8167, 8190, 8215, 8146, 8131, 8138, 8142, 8160, 8139, 8158, 8145, 8145, 8122,3.4404428005218506
101, 8130, 8167, 8190, 8215, 8146, 8131, 8138, 8142, 8160, 8139, 8158, 8145, 8145, 8122,3.4404428005218506
102, 8167, 8148, 8188, 8199, 8159, 8143, 8128, 8165, 8139, 8128, 8165, 8161, 8163, 8134,3.448441505432129
102, 8167, 8148, 8188, 8199, 8159, 8143, 8128, 8165, 8139, 8128, 8165, 8161, 8163, 8134,3.448441505432129
103, 8156, 8151, 8187, 8197, 8159, 8137, 8129, 8172, 8152, 8145, 8175, 8165, 8166, 8131,3.4563241004943848
103, 8156, 8151, 8187, 8197, 8159, 8137, 8129, 8172, 8152, 8145, 8175, 8165, 8166, 8131,3.4563241004943848
104, 8152, 8173, 8196, 8218, 8158, 8145, 8137, 8166, 8184, 8157, 8175, 8171, 8155, 8130,3.4641077518463135
104, 8152, 8173, 8196, 8218, 8158, 8145, 8137, 8166, 8184, 8157, 8175, 8171, 8155, 8130,3.4641077518463135
105, 8188, 8179, 8212, 8226, 8151, 8163, 8145, 8180, 8193, 8155, 8173, 8184, 8155, 8136,3.472233295440674
105, 8188, 8179, 8212, 8226, 8151, 8163, 8145, 8180, 8193, 8155, 8173, 8184, 8155, 8136,3.472233295440674
106, 8159, 8185, 8204, 8221, 8167, 8151, 8180, 8148, 8208, 8181, 8175, 8165, 8148, 8146,3.4794423580169678
106, 8159, 8185, 8204, 8221, 8167, 8151, 8180, 8148, 8208, 8181, 8175, 8165, 8148, 8146,3.4794423580169678
107, 8185, 8181, 8198, 8207, 8163, 8167, 8177, 8155, 8187, 8155, 8168, 8169, 8164, 8151,3.487406015396118
107, 8185, 8181, 8198, 8207, 8163, 8167, 8177, 8155, 8187, 8155, 8168, 8169, 8164, 8151,3.487406015396118
108, 8168, 8173, 8197, 8205, 8160, 8142, 8173, 8163, 8181, 8144, 8164, 8170, 8161, 8149,3.4954192638397217
108, 8168, 8173, 8197, 8205, 8160, 8142, 8173, 8163, 8181, 8144, 8164, 8170, 8161, 8149,3.4954192638397217
109, 8149, 8168, 8197, 8214, 8160, 8141, 8180, 8152, 8194, 8172, 8172, 8172, 8161, 8156,3.503441572189331
109, 8149, 8168, 8197, 8214, 8160, 8141, 8180, 8152, 8194, 8172, 8172, 8172, 8161, 8156,3.503441572189331
110, 8175, 8163, 8199, 8206, 8149, 8183, 8167, 8164, 8183, 8173, 8173, 8181, 8168, 8149,3.511626958847046
110, 8175, 8163, 8199, 8206, 8149, 8183, 8167, 8164, 8183, 8173, 8173, 8181, 8168, 8149,3.511626958847046
111, 8145, 8187, 8207, 8227, 8174, 8171, 8187, 8144, 8213, 8200, 8180, 8176, 8150, 8164,3.5194764137268066
111, 8145, 8187, 8207, 8227, 8174, 8171, 8187, 8144, 8213, 8200, 8180, 8176, 8150, 8164,3.5194764137268066
112, 8179, 8200, 8222, 8247, 8171, 8174, 8188, 8154, 8222, 8210, 8181, 8188, 8161, 8192,3.5274837017059326
112, 8179, 8200, 8222, 8247, 8171, 8174, 8188, 8154, 8222, 8210, 8181, 8188, 8161, 8192,3.5274837017059326
113, 8175, 8185, 8216, 8227, 8175, 8165, 8173, 8157, 8212, 8203, 8174, 8178, 8155, 8184,3.5351905822753906
113, 8175, 8185, 8216, 8227, 8175, 8165, 8173, 8157, 8212, 8203, 8174, 8178, 8155, 8184,3.5351905822753906
114, 8154, 8188, 8214, 8222, 8228, 8165, 8188, 8148, 8232, 8229, 8183, 8174, 8152, 8188,3.5422046184539795
114, 8154, 8188, 8214, 8222, 8228, 8165, 8188, 8148, 8232, 8229, 8183, 8174, 8152, 8188,3.5422046184539795
115, 8191, 8190, 8215, 8233, 8227, 8187, 8197, 8176, 8231, 8230, 8190, 8183, 8172, 8186,3.5502049922943115
115, 8191, 8190, 8215, 8233, 8227, 8187, 8197, 8176, 8231, 8230, 8190, 8183, 8172, 8186,3.5502049922943115
116, 8155, 8184, 8196, 8230, 8194, 8159, 8206, 8156, 8225, 8215, 8180, 8168, 8150, 8162,3.558424472808838
116, 8155, 8184, 8196, 8230, 8194, 8159, 8206, 8156, 8225, 8215, 8180, 8168, 8150, 8162,3.558424472808838
117, 8174, 8178, 8195, 8211, 8176, 8178, 8190, 8159, 8212, 8184, 8165, 8170, 8147, 8144,3.5664427280426025
117, 8174, 8178, 8195, 8211, 8176, 8178, 8190, 8159, 8212, 8184, 8165, 8170, 8147, 8144,3.5664427280426025
118, 8188, 8164, 8191, 8194, 8178, 8196, 8184, 8170, 8196, 8172, 8156, 8153, 8158, 8126,3.574526309967041
118, 8188, 8164, 8191, 8194, 8178, 8196, 8184, 8170, 8196, 8172, 8156, 8153, 8158, 8126,3.574526309967041
119, 8173, 8169, 8184, 8194, 8183, 8189, 8197, 8151, 8184, 8178, 8161, 8145, 8159, 8134,3.5825250148773193
119, 8173, 8169, 8184, 8194, 8183, 8189, 8197, 8151, 8184, 8178, 8161, 8145, 8159, 8134,3.5825250148773193
120, 8208, 8181, 8194, 8192, 8164, 8206, 8162, 8173, 8149, 8146, 8156, 8164, 8168, 8138,3.590441942214966
120, 8208, 8181, 8194, 8192, 8164, 8206, 8162, 8173, 8149, 8146, 8156, 8164, 8168, 8138,3.590441942214966
121, 8170, 8183, 8196, 8203, 8184, 8183, 8152, 8166, 8173, 8165, 8161, 8163, 8158, 8127,3.5984599590301514
121, 8170, 8183, 8196, 8203, 8184, 8183, 8152, 8166, 8173, 8165, 8161, 8163, 8158, 8127,3.5984599590301514
122, 8189, 8184, 8205, 8217, 8196, 8186, 8164, 8169, 8207, 8201, 8180, 8190, 8167, 8142,3.6054635047912598
122, 8189, 8184, 8205, 8217, 8196, 8186, 8164, 8169, 8207, 8201, 8180, 8190, 8167, 8142,3.6054635047912598
123, 8201, 8201, 8212, 8220, 8182, 8183, 8167, 8171, 8205, 8197, 8174, 8197, 8164, 8147,3.6134426593780518
123, 8201, 8201, 8212, 8220, 8182, 8183, 8167, 8171, 8205, 8197, 8174, 8197, 8164, 8147,3.6134426593780518
124, 8158, 8203, 8205, 8223, 8192, 8157, 8176, 8139, 8221, 8200, 8171, 8173, 8147, 8144,3.6214351654052734
124, 8158, 8203, 8205, 8223, 8192, 8157, 8176, 8139, 8221, 8200, 8171, 8173, 8147, 8144,3.6214351654052734
125, 8194, 8180, 8200, 8200, 8175, 8183, 8160, 8161, 8210, 8181, 8166, 8177, 8156, 8136,3.6294405460357666
125, 8194, 8180, 8200, 8200, 8175, 8183, 8160, 8161, 8210, 8181, 8166, 8177, 8156, 8136,3.6294405460357666
126, 8171, 8195, 8197, 8185, 8165, 8175, 8172, 8165, 8212, 8182, 8155, 8168, 8148, 8130,3.637538433074951
126, 8171, 8195, 8197, 8185, 8165, 8175, 8172, 8165, 8212, 8182, 8155, 8168, 8148, 8130,3.637538433074951
127, 8173, 8207, 8205, 8203, 8178, 8168, 8178, 8167, 8219, 8184, 8157, 8164, 8156, 8133,3.645536184310913
127, 8173, 8207, 8205, 8203, 8178, 8168, 8178, 8167, 8219, 8184, 8157, 8164, 8156, 8133,3.645536184310913
241, 8199, 8193, 8206, 8204, 8185, 8172, 8178, 8178, 8215, 8175, 8162, 8166, 8166, 8134,3.6535837650299072
241, 8199, 8193, 8206, 8204, 8185, 8172, 8178, 8178, 8215, 8175, 8162, 8166, 8166, 8134,3.6535837650299072
0, 8175, 8201, 8198, 8194, 8202, 8160, 8212, 8157, 8226, 8197, 8171, 8170, 8160, 8155,3.6613998413085938
0, 8175, 8201, 8198, 8194, 8202, 8160, 8212, 8157, 8226, 8197, 8171, 8170, 8160, 8155,3.6613998413085938
1, 8198, 8188, 8193, 8190, 8192, 8170, 8185, 8170, 8183, 8167, 8168, 8184, 8174, 8156,3.6693999767303467
1, 8198, 8188, 8193, 8190, 8192, 8170, 8185, 8170, 8183, 8167, 8168, 8184, 8174, 8156,3.6693999767303467
2, 8167, 8184, 8186, 8196, 8192, 8156, 8156, 8155, 8163, 8146, 8164, 8182, 8165, 8135,3.676713705062866
2, 8167, 8184, 8186, 8196, 8192, 8156, 8156, 8155, 8163, 8146, 8164, 8182, 8165, 8135,3.676713705062866
3, 8184, 8215, 8212, 8203, 8201, 8180, 8175, 8156, 8197, 8177, 8175, 8201, 8169, 8158,3.6844799518585205
3, 8184, 8215, 8212, 8203, 8201, 8180, 8175, 8156, 8197, 8177, 8175, 8201, 8169, 8158,3.6844799518585205
4, 8216, 8229, 8235, 8204, 8211, 8187, 8193, 8186, 8228, 8209, 8186, 8210, 8173, 8176,3.6924781799316406
4, 8216, 8229, 8235, 8204, 8211, 8187, 8193, 8186, 8228, 8209, 8186, 8210, 8173, 8176,3.6924781799316406
5, 8172, 8222, 8221, 8213, 8223, 8144, 8201, 8165, 8240, 8230, 8191, 8193, 8160, 8176,3.7004947662353516
5, 8172, 8222, 8221, 8213, 8223, 8144, 8201, 8165, 8240, 8230, 8191, 8193, 8160, 8176,3.701493740081787
6, 8197, 8196, 8207, 8189, 8184, 8163, 8165, 8176, 8186, 8168, 8173, 8196, 8176, 8168,3.708441734313965
6, 8197, 8196, 8207, 8189, 8184, 8163, 8165, 8176, 8186, 8168, 8173, 8196, 8176, 8168,3.708441734313965
7, 8165, 8172, 8193, 8154, 8171, 8155, 8159, 8174, 8160, 8128, 8159, 8185, 8171, 8149,3.716463327407837
7, 8165, 8172, 8193, 8154, 8171, 8155, 8159, 8174, 8160, 8128, 8159, 8185, 8171, 8149,3.716463327407837
8, 8156, 8184, 8198, 8173, 8190, 8159, 8185, 8172, 8187, 8162, 8170, 8195, 8168, 8142,3.7244625091552734
8, 8156, 8184, 8198, 8173, 8190, 8159, 8185, 8172, 8187, 8162, 8170, 8195, 8168, 8142,3.7244625091552734
9, 8197, 8212, 8212, 8202, 8182, 8187, 8191, 8191, 8195, 8174, 8172, 8205, 8174, 8134,3.7324371337890625
9, 8197, 8212, 8212, 8202, 8182, 8187, 8191, 8191, 8195, 8174, 8172, 8205, 8174, 8134,3.7324371337890625
10, 8155, 8212, 8207, 8204, 8207, 8179, 8211, 8167, 8209, 8186, 8169, 8183, 8162, 8140,3.7395119667053223
10, 8155, 8212, 8207, 8204, 8207, 8179, 8211, 8167, 8209, 8186, 8169, 8183, 8162, 8140,3.7395119667053223
11, 8175, 8188, 8199, 8167, 8202, 8191, 8200, 8177, 8179, 8164, 8161, 8178, 8173, 8144,3.7475080490112305
11, 8175, 8188, 8199, 8167, 8202, 8191, 8200, 8177, 8179, 8164, 8161, 8178, 8173, 8144,3.7475080490112305
12, 8172, 8202, 8195, 8160, 8183, 8174, 8191, 8174, 8160, 8151, 8159, 8179, 8172, 8134,3.7555410861968994
12, 8172, 8202, 8195, 8160, 8183, 8174, 8191, 8174, 8160, 8151, 8159, 8179, 8172, 8134,3.7555410861968994
13, 8178, 8233, 8214, 8212, 8204, 8180, 8197, 8168, 8188, 8187, 8177, 8196, 8173, 8152,3.7635550498962402
13, 8178, 8233, 8214, 8212, 8204, 8180, 8197, 8168, 8188, 8187, 8177, 8196, 8173, 8152,3.7635550498962402
14, 8206, 8233, 8225, 8232, 8206, 8206, 8176, 8178, 8179, 8192, 8177, 8202, 8175, 8154,3.7714409828186035
14, 8206, 8233, 8225, 8232, 8206, 8206, 8176, 8178, 8179, 8192, 8177, 8202, 8175, 8154,3.7714409828186035
15, 8167, 8235, 8222, 8236, 8197, 8188, 8181, 8146, 8176, 8195, 8176, 8182, 8155, 8150,3.7794315814971924
15, 8167, 8235, 8222, 8236, 8197, 8188, 8181, 8146, 8176, 8195, 8176, 8182, 8155, 8150,3.7794315814971924
16, 8212, 8234, 8243, 8232, 8198, 8215, 8191, 8175, 8177, 8192, 8179, 8198, 8172, 8176,3.787429094314575
16, 8212, 8234, 8243, 8232, 8198, 8215, 8191, 8175, 8177, 8192, 8179, 8198, 8172, 8176,3.787429094314575
17, 8217, 8223, 8242, 8208, 8233, 8214, 8202, 8188, 8186, 8192, 8179, 8196, 8174, 8181,3.795443534851074
17, 8217, 8223, 8242, 8208, 8233, 8214, 8202, 8188, 8186, 8192, 8179, 8196, 8174, 8181,3.795443534851074
18, 8186, 8226, 8221, 8204, 8242, 8193, 8188, 8160, 8181, 8176, 8176, 8176, 8158, 8164,3.8034415245056152
18, 8186, 8226, 8221, 8204, 8242, 8193, 8188, 8160, 8181, 8176, 8176, 8176, 8158, 8164,3.8034415245056152
19, 8205, 8219, 8212, 8214, 8195, 8195, 8146, 8175, 8149, 8136, 8163, 8174, 8159, 8139,3.8104407787323
19, 8205, 8219, 8212, 8214, 8195, 8195, 8146, 8175, 8149, 8136, 8163, 8174, 8159, 8139,3.8104407787323
20, 8177, 8220, 8209, 8226, 8200, 8183, 8176, 8171, 8179, 8161, 8161, 8169, 8152, 8138,3.8184444904327393
20, 8177, 8220, 8209, 8226, 8200, 8183, 8176, 8171, 8179, 8161, 8161, 8169, 8152, 8138,3.8184444904327393
21, 8221, 8232, 8222, 8212, 8207, 8214, 8199, 8189, 8186, 8174, 8163, 8186, 8168, 8155,3.826465129852295
21, 8221, 8232, 8222, 8212, 8207, 8214, 8199, 8189, 8186, 8174, 8163, 8186, 8168, 8155,3.826465129852295
22, 8218, 8221, 8219, 8186, 8191, 8201, 8176, 8186, 8136, 8143, 8161, 8177, 8172, 8148,3.834465503692627
22, 8218, 8221, 8219, 8186, 8191, 8201, 8176, 8186, 8136, 8143, 8161, 8177, 8172, 8148,3.834465503692627
23, 8179, 8198, 8208, 8196, 8197, 8181, 8162, 8175, 8114, 8130, 8161, 8167, 8167, 8142,3.8424413204193115
23, 8179, 8198, 8208, 8196, 8197, 8181, 8162, 8175, 8114, 8130, 8161, 8167, 8167, 8142,3.8424413204193115
24, 8219, 8193, 8210, 8197, 8182, 8215, 8151, 8211, 8117, 8131, 8166, 8190, 8178, 8137,3.8502137660980225
24, 8219, 8193, 8210, 8197, 8182, 8215, 8151, 8211, 8117, 8131, 8166, 8190, 8178, 8137,3.8502137660980225
25, 8193, 8225, 8209, 8190, 8167, 8198, 8176, 8196, 8160, 8171, 8184, 8188, 8170, 8140,3.858229398727417
25, 8193, 8225, 8209, 8190, 8167, 8198, 8176, 8196, 8160, 8171, 8184, 8188, 8170, 8140,3.858229398727417
26, 8207, 8235, 8222, 8217, 8192, 8193, 8184, 8191, 8182, 8192, 8188, 8193, 8183, 8157,3.866229295730591
26, 8207, 8235, 8222, 8217, 8192, 8193, 8184, 8191, 8182, 8192, 8188, 8193, 8183, 8157,3.867238998413086
27, 8204, 8224, 8226, 8242, 8239, 8175, 8174, 8191, 8187, 8203, 8180, 8194, 8189, 8167,3.873244524002075
27, 8204, 8224, 8226, 8242, 8239, 8175, 8174, 8191, 8187, 8203, 8180, 8194, 8189, 8167,3.873244524002075
28, 8165, 8227, 8214, 8227, 8235, 8153, 8168, 8168, 8193, 8206, 8184, 8187, 8174, 8173,3.881258487701416
28, 8165, 8227, 8214, 8227, 8235, 8153, 8168, 8168, 8193, 8206, 8184, 8187, 8174, 8173,3.881258487701416
29, 8191, 8212, 8208, 8191, 8180, 8176, 8136, 8176, 8158, 8164, 8182, 8188, 8176, 8152,3.889437437057495
29, 8191, 8212, 8208, 8191, 8180, 8176, 8136, 8176, 8158, 8164, 8182, 8188, 8176, 8152,3.889437437057495
30, 8161, 8200, 8193, 8199, 8197, 8164, 8150, 8153, 8160, 8182, 8175, 8168, 8160, 8134,3.8974053859710693
30, 8161, 8200, 8193, 8199, 8197, 8164, 8150, 8153, 8160, 8182, 8175, 8168, 8160, 8134,3.8974053859710693
31, 8179, 8200, 8173, 8190, 8208, 8172, 8169, 8159, 8153, 8178, 8155, 8152, 8154, 8124,3.9050076007843018
31, 8179, 8200, 8173, 8190, 8208, 8172, 8169, 8159, 8153, 8178, 8155, 8152, 8154, 8124,3.9050076007843018
32, 8180, 8192, 8144, 8133, 8176, 8164, 8174, 8172, 8128, 8113, 8133, 8133, 8152, 8092,3.9130070209503174
32, 8180, 8192, 8144, 8133, 8176, 8164, 8174, 8172, 8128, 8113, 8133, 8133, 8152, 8092,3.9130070209503174
33, 8128, 8180, 8119, 8121, 8191, 8141, 8200, 8150, 8154, 8107, 8135, 8119, 8143, 8080,3.922008752822876
33, 8128, 8180, 8119, 8121, 8191, 8141, 8200, 8150, 8154, 8107, 8135, 8119, 8143, 8080,3.922008752822876
34, 8162, 8161, 8119, 8137, 8199, 8169, 8192, 8170, 8160, 8126, 8143, 8136, 8153, 8088,3.9294371604919434
34, 8162, 8161, 8119, 8137, 8199, 8169, 8192, 8170, 8160, 8126, 8143, 8136, 8153, 8088,3.9294371604919434
35, 8146, 8176, 8131, 8149, 8202, 8161, 8198, 8160, 8177, 8169, 8160, 8140, 8148, 8105,3.9360263347625732
35, 8146, 8176, 8131, 8149, 8202, 8161, 8198, 8160, 8177, 8169, 8160, 8140, 8148, 8105,3.937037944793701
36, 8165, 8206, 8157, 8160, 8192, 8168, 8198, 8148, 8202, 8194, 8173, 8142, 8150, 8133,3.9438276290893555
36, 8165, 8206, 8157, 8160, 8192, 8168, 8198, 8148, 8202, 8194, 8173, 8142, 8150, 8133,3.944827079772949
37, 8201, 8223, 8178, 8172, 8184, 8165, 8176, 8152, 8198, 8200, 8169, 8148, 8158, 8147,3.9518353939056396
37, 8201, 8223, 8178, 8172, 8184, 8165, 8176, 8152, 8198, 8200, 8169, 8148, 8158, 8147,3.952826976776123
38, 8187, 8241, 8193, 8205, 8230, 8133, 8171, 8128, 8200, 8234, 8179, 8155, 8157, 8174,3.960441827774048
38, 8187, 8241, 8193, 8205, 8230, 8133, 8171, 8128, 8200, 8234, 8179, 8155, 8157, 8174,3.960441827774048
39, 8230, 8236, 8209, 8211, 8227, 8149, 8137, 8138, 8166, 8213, 8191, 8176, 8167, 8184,3.9686219692230225
39, 8230, 8236, 8209, 8211, 8227, 8149, 8137, 8138, 8166, 8213, 8191, 8176, 8167, 8184,3.9686219692230225
40, 8201, 8231, 8202, 8196, 8201, 8141, 8124, 8120, 8133, 8184, 8189, 8170, 8153, 8161,3.9766314029693604
40, 8201, 8231, 8202, 8196, 8201, 8141, 8124, 8120, 8133, 8184, 8189, 8170, 8153, 8161,3.9766314029693604
41, 8195, 8229, 8201, 8207, 8209, 8147, 8135, 8105, 8112, 8179, 8178, 8164, 8149, 8152,3.9846725463867188
41, 8195, 8229, 8201, 8207, 8209, 8147, 8135, 8105, 8112, 8179, 8178, 8164, 8149, 8152,3.9846725463867188
42, 8216, 8200, 8188, 8204, 8222, 8154, 8147, 8132, 8098, 8166, 8163, 8158, 8152, 8139,3.9926693439483643
42, 8216, 8200, 8188, 8204, 8222, 8154, 8147, 8132, 8098, 8166, 8163, 8158, 8152, 8139,3.9926693439483643
43, 8169, 8184, 8159, 8172, 8228, 8134, 8180, 8132, 8116, 8173, 8152, 8133, 8132, 8115,3.9996702671051025
43, 8169, 8184, 8159, 8172, 8228, 8134, 8180, 8132, 8116, 8173, 8152, 8133, 8132, 8115,3.9996702671051025
44, 8196, 8186, 8161, 8159, 8214, 8166, 8176, 8159, 8125, 8165, 8145, 8140, 8145, 8097,4.006834983825684
44, 8196, 8186, 8161, 8159, 8214, 8166, 8176, 8159, 8125, 8165, 8145, 8140, 8145, 8097,4.006834983825684
45, 8171, 8171, 8143, 8154, 8207, 8160, 8163, 8153, 8166, 8171, 8143, 8135, 8149, 8078,4.015441179275513
45, 8171, 8171, 8143, 8154, 8207, 8160, 8163, 8153, 8166, 8171, 8143, 8135, 8149, 8078,4.015838146209717
46, 8123, 8106, 8081, 8079, 8131, 8140, 8108, 8110, 8154, 8127, 8115, 8091, 8126, 8027,4.023441791534424
46, 8123, 8106, 8081, 8079, 8131, 8140, 8108, 8110, 8154, 8127, 8115, 8091, 8126, 8027,4.023441791534424
47, 8113, 8030, 8028, 7982, 8017, 8130, 8010, 8094, 8053, 8023, 8076, 8056, 8121, 7945,4.031414747238159
47, 8113, 8030, 8028, 7982, 8017, 8130, 8010, 8094, 8053, 8023, 8076, 8056, 8121, 7945,4.031414747238159
48, 8077, 8027, 8025, 7991, 8008, 8100, 7992, 8076, 8036, 8020, 8081, 8048, 8125, 7923,4.039456367492676
48, 8077, 8027, 8025, 7991, 8008, 8100, 7992, 8076, 8036, 8020, 8081, 8048, 8125, 7923,4.039456367492676
49, 8134, 8061, 8058, 8025, 8028, 8118, 8005, 8106, 8052, 8043, 8098, 8074, 8148, 7958,4.047475099563599
49, 8134, 8061, 8058, 8025, 8028, 8118, 8005, 8106, 8052, 8043, 8098, 8074, 8148, 7958,4.047475099563599
50, 8145, 8090, 8084, 8016, 8046, 8116, 8024, 8128, 8059, 8050, 8115, 8098, 8151, 7987,4.055465459823608
50, 8145, 8090, 8084, 8016, 8046, 8116, 8024, 8128, 8059, 8050, 8115, 8098, 8151, 7987,4.055465459823608
51, 8135, 8117, 8109, 8045, 8083, 8118, 8051, 8128, 8072, 8077, 8135, 8116, 8150, 8011,4.063495874404907
51, 8135, 8117, 8109, 8045, 8083, 8118, 8051, 8128, 8072, 8077, 8135, 8116, 8150, 8011,4.063495874404907
52, 8171, 8122, 8118, 8067, 8089, 8133, 8049, 8142, 8062, 8080, 8134, 8128, 8165, 8024,4.070483684539795
52, 8171, 8122, 8118, 8067, 8089, 8133, 8049, 8142, 8062, 8080, 8134, 8128, 8165, 8024,4.070483684539795
53, 8136, 8131, 8114, 8064, 8100, 8118, 8068, 8127, 8088, 8101, 8137, 8122, 8154, 8039,4.077405691146851
53, 8136, 8131, 8114, 8064, 8100, 8118, 8068, 8127, 8088, 8101, 8137, 8122, 8154, 8039,4.077405691146851
54, 8165, 8140, 8129, 8065, 8098, 8142, 8074, 8150, 8095, 8098, 8143, 8136, 8154, 8048,4.085926532745361
54, 8165, 8140, 8129, 8065, 8098, 8142, 8074, 8150, 8095, 8098, 8143, 8136, 8154, 8048,4.085926532745361
55, 8166, 8147, 8131, 8083, 8097, 8139, 8078, 8163, 8081, 8078, 8151, 8141, 8157, 8039,4.093926906585693
55, 8166, 8147, 8131, 8083, 8097, 8139, 8078, 8163, 8081, 8078, 8151, 8141, 8157, 8039,4.093926906585693
56, 8147, 8169, 8133, 8102, 8124, 8142, 8103, 8151, 8102, 8089, 8160, 8132, 8154, 8044,4.10243558883667
56, 8147, 8169, 8133, 8102, 8124, 8142, 8103, 8151, 8102, 8089, 8160, 8132, 8154, 8044,4.10243558883667
57, 8183, 8167, 8131, 8077, 8107, 8164, 8093, 8170, 8099, 8089, 8147, 8135, 8165, 8037,4.110009670257568
57, 8183, 8167, 8131, 8077, 8107, 8164, 8093, 8170, 8099, 8089, 8147, 8135, 8165, 8037,4.110009670257568
58, 8139, 8153, 8111, 8066, 8080, 8128, 8084, 8143, 8086, 8101, 8133, 8121, 8154, 8016,4.11841344833374
58, 8139, 8153, 8111, 8066, 8080, 8128, 8084, 8143, 8086, 8101, 8133, 8121, 8154, 8016,4.11841344833374
59, 8152, 8157, 8115, 8084, 8069, 8144, 8067, 8142, 8067, 8095, 8142, 8120, 8154, 8015,4.12644100189209
59, 8152, 8157, 8115, 8084, 8069, 8144, 8067, 8142, 8067, 8095, 8142, 8120, 8154, 8015,4.127440690994263
60, 8166, 8168, 8127, 8092, 8080, 8156, 8062, 8160, 8067, 8096, 8152, 8126, 8159, 8024,4.13344144821167
60, 8166, 8168, 8127, 8092, 8080, 8156, 8062, 8160, 8067, 8096, 8152, 8126, 8159, 8024,4.13344144821167
61, 8148, 8182, 8138, 8107, 8101, 8138, 8085, 8144, 8081, 8117, 8155, 8128, 8153, 8040,4.141441345214844
61, 8148, 8182, 8138, 8107, 8101, 8138, 8085, 8144, 8081, 8117, 8155, 8128, 8153, 8040,4.141441345214844
62, 8188, 8192, 8153, 8121, 8095, 8157, 8076, 8156, 8055, 8103, 8154, 8149, 8164, 8042,4.149441957473755
62, 8188, 8192, 8153, 8121, 8095, 8157, 8076, 8156, 8055, 8103, 8154, 8149, 8164, 8042,4.149441957473755
63, 8162, 8208, 8150, 8142, 8120, 8156, 8090, 8146, 8069, 8121, 8157, 8145, 8153, 8040,4.157497406005859
63, 8162, 8208, 8150, 8142, 8120, 8156, 8090, 8146, 8069, 8121, 8157, 8145, 8153, 8040,4.157497406005859
64, 8182, 8213, 8161, 8154, 8135, 8179, 8116, 8149, 8088, 8131, 8155, 8139, 8153, 8054,4.165507555007935
64, 8182, 8213, 8161, 8154, 8135, 8179, 8116, 8149, 8088, 8131, 8155, 8139, 8153, 8054,4.165507555007935
65, 8196, 8211, 8170, 8142, 8124, 8175, 8135, 8170, 8080, 8119, 8157, 8138, 8167, 8066,4.174051523208618
65, 8196, 8211, 8170, 8142, 8124, 8175, 8135, 8170, 8080, 8119, 8157, 8138, 8167, 8066,4.174051523208618
66, 8159, 8221, 8163, 8143, 8138, 8148, 8160, 8165, 8102, 8137, 8159, 8128, 8158, 8073,4.181081056594849
66, 8159, 8221, 8163, 8143, 8138, 8148, 8160, 8165, 8102, 8137, 8159, 8128, 8158, 8073,4.181081056594849
67, 8191, 8211, 8156, 8137, 8139, 8179, 8156, 8187, 8119, 8132, 8149, 8134, 8158, 8061,4.1890881061553955
67, 8191, 8211, 8156, 8137, 8139, 8179, 8156, 8187, 8119, 8132, 8149, 8134, 8158, 8061,4.1890881061553955
68, 8156, 8201, 8137, 8119, 8140, 8181, 8166, 8173, 8151, 8133, 8146, 8123, 8154, 8047,4.197404146194458
68, 8156, 8201, 8137, 8119, 8140, 8181, 8166, 8173, 8151, 8133, 8146, 8123, 8154, 8047,4.197404146194458
69, 8152, 8203, 8131, 8122, 8133, 8174, 8158, 8154, 8165, 8129, 8138, 8123, 8151, 8050,4.204441547393799
69, 8152, 8203, 8131, 8122, 8133, 8174, 8158, 8154, 8165, 8129, 8138, 8123, 8151, 8050,4.205103158950806
70, 8173, 8212, 8145, 8133, 8129, 8167, 8142, 8155, 8155, 8128, 8136, 8136, 8151, 8055,4.2124409675598145
70, 8173, 8212, 8145, 8133, 8129, 8167, 8142, 8155, 8155, 8128, 8136, 8136, 8151, 8055,4.2124409675598145
71, 8138, 8220, 8156, 8143, 8153, 8155, 8166, 8133, 8168, 8161, 8159, 8138, 8148, 8077,4.220713138580322
71, 8138, 8220, 8156, 8143, 8153, 8155, 8166, 8133, 8168, 8161, 8159, 8138, 8148, 8077,4.220713138580322
72, 8167, 8210, 8157, 8144, 8146, 8179, 8153, 8149, 8150, 8153, 8169, 8158, 8164, 8098,4.228466510772705
72, 8167, 8210, 8157, 8144, 8146, 8179, 8153, 8149, 8150, 8153, 8169, 8158, 8164, 8098,4.228466510772705
73, 8142, 8215, 8153, 8157, 8154, 8153, 8139, 8144, 8147, 8161, 8171, 8158, 8158, 8094,4.236466407775879
73, 8142, 8215, 8153, 8157, 8154, 8153, 8139, 8144, 8147, 8161, 8171, 8158, 8158, 8094,4.236466407775879
74, 8133, 8221, 8160, 8170, 8166, 8141, 8135, 8129, 8161, 8175, 8170, 8149, 8154, 8084,4.24443507194519
74, 8133, 8221, 8160, 8170, 8166, 8141, 8135, 8129, 8161, 8175, 8170, 8149, 8154, 8084,4.24443507194519
75, 8160, 8207, 8154, 8161, 8155, 8161, 8145, 8146, 8161, 8157, 8155, 8147, 8161, 8079,4.2519848346710205
75, 8160, 8207, 8154, 8161, 8155, 8161, 8145, 8146, 8161, 8157, 8155, 8147, 8161, 8079,4.2519848346710205
76, 8135, 8213, 8138, 8166, 8171, 8154, 8208, 8143, 8194, 8175, 8146, 8135, 8146, 8088,4.259999513626099
76, 8135, 8213, 8138, 8166, 8171, 8154, 8208, 8143, 8194, 8175, 8146, 8135, 8146, 8088,4.259999513626099
77, 8162, 8204, 8133, 8154, 8169, 8157, 8234, 8172, 8198, 8172, 8144, 8138, 8158, 8091,4.2710325717926025
77, 8162, 8204, 8133, 8154, 8169, 8157, 8234, 8172, 8198, 8172, 8144, 8138, 8158, 8091,4.2710325717926025
78, 8137, 8183, 8124, 8136, 8162, 8134, 8233, 8180, 8192, 8155, 8151, 8135, 8164, 8082,4.275541305541992
78, 8137, 8183, 8124, 8136, 8162, 8134, 8233, 8180, 8192, 8155, 8151, 8135, 8164, 8082,4.275541305541992
79, 8133, 8190, 8133, 8151, 8160, 8151, 8229, 8164, 8199, 8157, 8168, 8140, 8156, 8092,4.283706903457642
79, 8133, 8190, 8133, 8151, 8160, 8151, 8229, 8164, 8199, 8157, 8168, 8140, 8156, 8092,4.283706903457642
80, 8171, 8205, 8150, 8170, 8153, 8171, 8211, 8172, 8196, 8162, 8170, 8161, 8163, 8108,4.2916669845581055
80, 8171, 8205, 8150, 8170, 8153, 8171, 8211, 8172, 8196, 8162, 8170, 8161, 8163, 8108,4.2916669845581055
81, 8147, 8220, 8156, 8193, 8179, 8134, 8219, 8155, 8212, 8198, 8170, 8162, 8160, 8129,4.299673795700073
81, 8147, 8220, 8156, 8193, 8179, 8134, 8219, 8155, 8212, 8198, 8170, 8162, 8160, 8129,4.299673795700073
82, 8184, 8215, 8164, 8197, 8173, 8145, 8187, 8159, 8178, 8190, 8173, 8162, 8167, 8140,4.30767297744751
82, 8184, 8215, 8164, 8197, 8173, 8145, 8187, 8159, 8178, 8190, 8173, 8162, 8167, 8140,4.30767297744751
83, 8168, 8201, 8160, 8191, 8156, 8130, 8139, 8145, 8137, 8159, 8176, 8157, 8165, 8123,4.315672397613525
83, 8168, 8201, 8160, 8191, 8156, 8130, 8139, 8145, 8137, 8159, 8176, 8157, 8165, 8123,4.315672397613525
84, 8145, 8206, 8166, 8209, 8163, 8130, 8142, 8136, 8154, 8174, 8184, 8163, 8162, 8120,4.323673725128174
84, 8145, 8206, 8166, 8209, 8163, 8130, 8142, 8136, 8154, 8174, 8184, 8163, 8162, 8120,4.323673725128174
85, 8177, 8212, 8172, 8214, 8168, 8155, 8150, 8171, 8172, 8187, 8182, 8178, 8169, 8122,4.330674409866333
85, 8177, 8212, 8172, 8214, 8168, 8155, 8150, 8171, 8172, 8187, 8182, 8178, 8169, 8122,4.330674409866333
86, 8141, 8203, 8153, 8202, 8179, 8127, 8154, 8147, 8182, 8188, 8167, 8156, 8155, 8109,4.338674068450928
86, 8141, 8203, 8153, 8202, 8179, 8127, 8154, 8147, 8182, 8188, 8167, 8156, 8155, 8109,4.338674068450928
87, 8148, 8172, 8140, 8177, 8155, 8141, 8152, 8134, 8143, 8146, 8141, 8137, 8158, 8088,4.3466737270355225
87, 8148, 8172, 8140, 8177, 8155, 8141, 8152, 8134, 8143, 8146, 8141, 8137, 8158, 8088,4.3466737270355225
88, 8137, 8168, 8130, 8166, 8151, 8146, 8195, 8150, 8119, 8127, 8138, 8129, 8160, 8074,4.3544323444366455
88, 8137, 8168, 8130, 8166, 8151, 8146, 8195, 8150, 8119, 8127, 8138, 8129, 8160, 8074,4.3544323444366455
89, 8129, 8191, 8128, 8178, 8192, 8135, 8249, 8157, 8152, 8150, 8149, 8125, 8151, 8080,4.362016677856445
89, 8129, 8191, 8128, 8178, 8192, 8135, 8249, 8157, 8152, 8150, 8149, 8125, 8151, 8080,4.362016677856445
90, 8165, 8186, 8135, 8171, 8188, 8148, 8242, 8182, 8159, 8142, 8141, 8141, 8163, 8086,4.370015859603882
90, 8165, 8186, 8135, 8171, 8188, 8148, 8242, 8182, 8159, 8142, 8141, 8141, 8163, 8086,4.370015859603882
91, 8124, 8184, 8140, 8176, 8174, 8134, 8238, 8167, 8169, 8157, 8150, 8151, 8160, 8093,4.378440856933594
91, 8124, 8184, 8140, 8176, 8174, 8134, 8238, 8167, 8169, 8157, 8150, 8151, 8160, 8093,4.378440856933594
92, 8146, 8186, 8160, 8193, 8165, 8145, 8211, 8163, 8162, 8167, 8164, 8158, 8165, 8105,4.385441780090332
92, 8146, 8186, 8160, 8193, 8165, 8145, 8211, 8163, 8162, 8167, 8164, 8158, 8165, 8105,4.385441780090332
93, 8164, 8185, 8169, 8201, 8158, 8144, 8172, 8171, 8152, 8170, 8163, 8160, 8173, 8123,4.394451379776001
93, 8164, 8185, 8169, 8201, 8158, 8144, 8172, 8171, 8152, 8170, 8163, 8160, 8173, 8123,4.394451379776001
94, 8147, 8194, 8176, 8222, 8166, 8139, 8159, 8150, 8162, 8194, 8169, 8158, 8163, 8141,4.4014365673065186
94, 8147, 8194, 8176, 8222, 8166, 8139, 8159, 8150, 8162, 8194, 8169, 8158, 8163, 8141,4.4014365673065186
95, 8186, 8197, 8187, 8231, 8173, 8156, 8132, 8155, 8131, 8182, 8177, 8163, 8168, 8131,4.4094460010528564
95, 8186, 8197, 8187, 8231, 8173, 8156, 8132, 8155, 8131, 8182, 8177, 8163, 8168, 8131,4.4094460010528564
96, 8159, 8204, 8191, 8239, 8203, 8140, 8127, 8144, 8130, 8184, 8186, 8155, 8168, 8130,4.417450904846191
96, 8159, 8204, 8191, 8239, 8203, 8140, 8127, 8144, 8130, 8184, 8186, 8155, 8168, 8130,4.417450904846191
97, 8172, 8201, 8195, 8251, 8203, 8152, 8129, 8157, 8147, 8202, 8188, 8160, 8174, 8153,4.425442218780518
97, 8172, 8201, 8195, 8251, 8203, 8152, 8129, 8157, 8147, 8202, 8188, 8160, 8174, 8153,4.425442218780518
98, 8182, 8177, 8171, 8226, 8171, 8161, 8151, 8172, 8128, 8192, 8177, 8148, 8168, 8136,4.43354868888855
98, 8182, 8177, 8171, 8226, 8171, 8161, 8151, 8172, 8128, 8192, 8177, 8148, 8168, 8136,4.43354868888855
99, 8131, 8151, 8136, 8187, 8168, 8161, 8201, 8144, 8107, 8159, 8151, 8111, 8145, 8086,4.441785573959351
99, 8131, 8151, 8136, 8187, 8168, 8161, 8201, 8144, 8107, 8159, 8151, 8111, 8145, 8086,4.441785573959351
100, 8147, 8127, 8119, 8152, 8161, 8185, 8218, 8176, 8106, 8122, 8133, 8109, 8158, 8053,4.448792934417725
100, 8147, 8127, 8119, 8152, 8161, 8185, 8218, 8176, 8106, 8122, 8133, 8109, 8158, 8053,4.448792934417725
101, 8130, 8115, 8101, 8133, 8153, 8167, 8232, 8196, 8146, 8137, 8139, 8112, 8157, 8047,4.457740545272827
101, 8130, 8115, 8101, 8133, 8153, 8167, 8232, 8196, 8146, 8137, 8139, 8112, 8157, 8047,4.457740545272827
102, 8138, 8111, 8100, 8131, 8132, 8164, 8224, 8181, 8152, 8136, 8139, 8117, 8151, 8049,4.464441537857056
