COUNTER,F3,FC5,AF3,F7,T7,P7,O1,O2,P8,T8,F8,AF4,FC6,F4,Timestamp
52,8113,8112,8107,8087,8100,8151,8113,8132,8118,8082,8132,8108,8131,8033,0.00700044631958
53,8140,8109,8112,8074,8095,8180,8098,8163,8101,8075,8153,8143,8163,8039,0.0150003433227539
54,8119,8120,8118,8092,8109,8161,8125,8147,8127,8105,8142,8120,8148,8038,0.0219998359680175
55,8115,8118,8108,8093,8105,8168,8128,8146,8131,8102,8145,8124,8150,8038,0.0300004482269287
56,8118,8109,8094,8074,8096,8167,8118,8153,8098,8078,8149,8132,8161,8027,0.0378830432891845
57,8103,8119,8104,8082,8114,8150,8130,8125,8096,8098,8145,8100,8143,8027,0.0458984375
58,8133,8129,8120,8086,8112,8171,8113,8172,8094,8091,8170,8147,8178,8053,0.0540142059326171
59,8123,8133,8117,8087,8111,8152,8112,8162,8099,8080,8151,8122,8160,8043,0.0623371601104736
60,8132,8138,8119,8097,8114,8161,8122,8150,8105,8088,8147,8112,8148,8035,0.0703375339508056
61,8146,8145,8131,8109,8116,8172,8124,8166,8113,8101,8162,8148,8168,8050,0.0780146121978759
62,8140,8164,8145,8128,8133,8162,8147,8143,8150,8133,8162,8130,8150,8069,0.0848152637481689
63,8174,8178,8144,8125,8138,8180,8156,8176,8157,8145,8179,8158,8171,8093,0.0928080081939697
64,8149,8165,8134,8123,8149,8155,8156,8157,8149,8146,8161,8133,8157,8091,0.1003787517547607
64,8149,8165,8134,8123,8149,8155,8156,8157,8149,8146,8161,8133,8157,8091,0.1013786792755127
65,8147,8154,8145,8129,8151,8168,8153,8145,8144,8136,8162,8132,8160,8099,0.1090142726898193
66,8165,8150,8138,8112,8136,8183,8136,8173,8123,8123,8171,8159,8178,8096,0.117044448852539
67,8123,8131,8101,8090,8134,8149,8121,8145,8100,8121,8142,8103,8143,8057,0.125044584274292
68,8138,8120,8091,8081,8122,8167,8117,8175,8085,8103,8152,8122,8171,8045,0.1329720020294189
69,8153,8147,8115,8104,8130,8159,8141,8170,8118,8129,8154,8131,8164,8050,0.1409907341003418
70,8163,8170,8132,8121,8155,8164,8153,8157,8157,8172,8156,8138,8148,8068,0.1489796638488769
71,8173,8168,8126,8107,8157,8185,8159,8185,8162,8175,8176,8168,8181,8087,0.1560075283050537
72,8155,8182,8135,8119,8176,8162,8203,8160,8186,8191,8174,8134,8162,8098,0.1639823913574218
73,8181,8191,8153,8131,8186,8176,8203,8186,8185,8189,8186,8167,8175,8121,0.1720161437988281
74,8172,8182,8147,8129,8188,8168,8174,8179,8168,8174,8168,8165,8173,8114,0.1800146102905273
75,8178,8181,8146,8139,8183,8160,8160,8154,8167,8169,8162,8149,8161,8112,0.1879820823669433
76,8219,8184,8160,8144,8167,8173,8147,8186,8154,8157,8182,8182,8177,8120,0.1960458755493164
77,8202,8197,8169,8158,8177,8153,8155,8164,8156,8168,8165,8149,8149,8112,0.2040345668792724
78,8210,8189,8160,8154,8168,8171,8146,8177,8148,8165,8170,8166,8160,8111,0.2118985652923584
79,8189,8156,8140,8124,8144,8172,8131,8163,8139,8160,8158,8152,8153,8090,0.2185842990875244
80,8166,8143,8129,8105,8146,8167,8137,8132,8145,8155,8146,8116,8140,8082,0.2265830039978027
81,8183,8151,8122,8096,8154,8171,8132,8174,8129,8128,8159,8151,8175,8093,0.2347960472106933
82,8168,8157,8129,8109,8165,8141,8140,8164,8132,8138,8150,8132,8159,8089,0.2432620525360107
83,8194,8168,8147,8124,8168,8168,8151,8185,8145,8160,8169,8156,8172,8099,0.2512621879577636
84,8195,8178,8145,8130,8171,8173,8167,8188,8160,8168,8166,8162,8166,8096,0.2590119838714599
85,8178,8178,8145,8129,8172,8166,8183,8151,8171,8181,8151,8138,8138,8094,0.2670431137084961
86,8212,8177,8146,8119,8158,8189,8182,8180,8158,8178,8169,8180,8171,8119,0.2743504047393799
86,8212,8177,8146,8119,8158,8189,8182,8180,8158,8178,8169,8180,8171,8119,0.2753496170043945
87,8203,8182,8142,8135,8172,8159,8192,8161,8164,8180,8156,8156,8159,8122,0.2813496589660644
87,8203,8182,8142,8135,8172,8159,8192,8161,8164,8180,8156,8156,8159,8122,0.2823495864868164
88,8203,8181,8146,8146,8187,8170,8187,8172,8161,8180,8168,8170,8168,8127,0.2900631427764892
89,8196,8166,8142,8119,8175,8180,8176,8185,8149,8173,8167,8176,8173,8119,0.2983195781707763
90,8179,8156,8126,8102,8152,8164,8177,8151,8148,8159,8143,8133,8142,8093,0.306011438369751
91,8196,8149,8114,8104,8129,8180,8158,8173,8122,8124,8156,8166,8161,8083,0.3140096664428711
92,8168,8150,8115,8113,8145,8164,8164,8144,8118,8131,8145,8144,8142,8068,0.3216347694396972
93,8175,8147,8114,8104,8151,8167,8161,8147,8115,8139,8154,8147,8154,8071,0.3296296596527099
94,8181,8139,8107,8095,8142,8165,8134,8179,8107,8127,8163,8169,8178,8077,0.3375172615051269
95,8163,8152,8122,8120,8161,8155,8143,8159,8132,8145,8150,8143,8152,8075,0.3445227146148681
96,8189,8155,8124,8116,8148,8182,8142,8181,8124,8140,8157,8167,8168,8072,0.3526182174682617
97,8168,8144,8107,8101,8132,8166,8124,8150,8109,8127,8136,8131,8148,8052,0.3610124588012695
98,8164,8144,8109,8101,8133,8172,8118,8144,8110,8123,8145,8134,8150,8062,0.3690099716186523
99,8178,8150,8116,8104,8136,8173,8127,8180,8102,8108,8166,8176,8183,8078,0.376662015914917
100,8154,8152,8114,8117,8148,8148,8132,8149,8095,8101,8142,8137,8156,8068,0.3846564292907715
101,8175,8154,8117,8117,8149,8180,8109,8175,8085,8087,8151,8163,8173,8076,0.3926947116851806
102,8176,8173,8134,8128,8164,8170,8126,8168,8109,8109,8154,8160,8164,8082,0.4010128974914551
103,8179,8190,8147,8144,8175,8170,8163,8157,8147,8148,8158,8157,8154,8101,0.4090125560760498
104,8191,8181,8138,8141,8168,8187,8170,8188,8157,8148,8165,8188,8178,8115,0.4160125255584717
105,8168,8174,8133,8143,8185,8162,8174,8158,8155,8137,8153,8153,8159,8109,0.4240114688873291
106,8187,8178,8139,8139,8194,8183,8163,8184,8135,8124,8173,8185,8181,8111,0.4319727420806885
107,8180,8179,8133,8140,8189,8177,8164,8175,8145,8145,8159,8181,8164,8093,0.4396312236785888
107,8180,8179,8133,8140,8189,8177,8164,8175,8145,8145,8159,8181,8164,8093,0.4406599998474121
108,8183,8179,8123,8147,8169,8168,8181,8146,8167,8167,8154,8161,8145,8096,0.4480106830596924
109,8214,8176,8126,8138,8148,8181,8172,8191,8155,8150,8187,8210,8190,8122,0.456012487411499
110,8184,8174,8134,8140,8175,8156,8175,8171,8163,8160,8166,8168,8163,8115,0.4640250205993652
111,8190,8170,8134,8145,8183,8175,8167,8175,8164,8156,8160,8167,8161,8106,0.4720182418823242
112,8186,8168,8133,8144,8169,8173,8156,8165,8155,8146,8162,8173,8156,8090,0.4790167808532715
113,8173,8172,8139,8147,8180,8163,8164,8144,8169,8166,8161,8164,8145,8096,0.4870467185974121
114,8204,8174,8148,8150,8187,8184,8169,8189,8172,8167,8176,8205,8188,8129,0.4949808120727539
115,8194,8184,8159,8170,8202,8166,8189,8174,8186,8177,8158,8168,8167,8137,0.5029950141906738
116,8211,8200,8161,8182,8194,8180,8192,8181,8197,8192,8175,8185,8162,8140,0.5109508037567139
117,8209,8203,8152,8176,8187,8172,8193,8177,8198,8202,8186,8197,8167,8139,0.5187551975250244
118,8192,8199,8157,8180,8215,8155,8202,8156,8208,8213,8175,8170,8167,8152,0.5267627239227295
119,8218,8200,8168,8182,8218,8178,8194,8201,8204,8202,8184,8206,8197,8166,0.5348336696624756
120,8197,8211,8170,8195,8204,8164,8213,8171,8220,8213,8165,8168,8152,8146,0.5421719551086426
121,8210,8216,8175,8200,8199,8183,8216,8168,8225,8223,8175,8181,8155,8155,0.5501711368560791
122,8222,8208,8170,8193,8208,8185,8198,8179,8210,8222,8180,8215,8178,8167,0.5576822757720947
123,8196,8206,8157,8199,8214,8157,8203,8143,8210,8228,8163,8179,8145,8155,0.5659947395324707
124,8209,8199,8150,8186,8194,8175,8186,8175,8184,8198,8180,8201,8165,8151,0.5740072727203369
125,8184,8183,8144,8172,8203,8158,8171,8163,8169,8175,8162,8176,8156,8131,0.5822319984436035
126,8180,8180,8142,8169,8216,8165,8173,8171,8172,8175,8158,8176,8161,8131,0.5901803970336914
127,8191,8188,8146,8170,8208,8174,8177,8194,8185,8183,8170,8194,8176,8132,0.5980079174041748
241,8170,8184,8139,8169,8200,8163,8176,8150,8200,8199,8156,8155,8150,8112,0.6050014495849609
0,8182,8162,8120,8143,8173,8188,8156,8166,8170,8171,8161,8174,8171,8104,0.6132245063781738
1,8166,8160,8114,8136,8174,8164,8169,8150,8168,8161,8149,8149,8154,8103,0.6212193965911865
2,8189,8179,8133,8151,8193,8166,8184,8161,8198,8185,8169,8162,8167,8134,0.6290073394775391
3,8217,8179,8142,8152,8186,8184,8161,8199,8195,8182,8186,8197,8196,8135,0.6370077133178711
4,8166,8174,8130,8152,8200,8149,8173,8138,8206,8186,8144,8124,8134,8103,0.6450231075286865
5,8194,8169,8136,8146,8199,8178,8178,8161,8194,8184,8166,8164,8162,8124,0.6530640125274658
6,8211,8164,8155,8139,8175,8188,8153,8196,8155,8172,8191,8215,8207,8126,0.6610620021820068
7,8169,8171,8145,8144,8172,8163,8152,8165,8167,8168,8164,8165,8169,8095,0.6690630912780762
8,8167,8167,8134,8138,8171,8172,8152,8158,8182,8152,8151,8155,8152,8083,0.6760661602020264
9,8156,8153,8132,8128,8175,8158,8153,8143,8173,8156,8148,8148,8145,8091,0.6840076446533203
10,8167,8146,8127,8123,8170,8168,8140,8176,8157,8157,8166,8174,8171,8101,0.6924631595611572
11,8158,8147,8126,8122,8161,8160,8132,8168,8166,8163,8153,8157,8161,8078,0.6994953155517578
12,8152,8156,8130,8129,8166,8157,8144,8146,8180,8183,8144,8134,8141,8080,0.7075097560882568
13,8189,8168,8140,8139,8172,8183,8156,8185,8167,8173,8171,8186,8179,8113,0.7160074710845947
14,8174,8178,8144,8151,8196,8149,8181,8156,8180,8179,8160,8158,8161,8119,0.7238099575042725
15,8181,8173,8142,8142,8194,8158,8163,8170,8166,8174,8167,8164,8171,8127,0.7317235469818115
16,8182,8164,8142,8138,8177,8165,8137,8182,8143,8150,8163,8168,8176,8119,0.7390079498291016
17,8169,8169,8145,8144,8174,8160,8152,8153,8164,8153,8151,8139,8150,8101,0.7470088005065918
18,8187,8167,8142,8132,8155,8183,8145,8169,8154,8143,8171,8180,8174,8102,0.7550077438354492
19,8160,8160,8137,8138,8160,8154,8138,8136,8142,8144,8151,8152,8149,8108,0.7630798816680908
20,8183,8163,8144,8142,8170,8171,8131,8169,8132,8142,8161,8167,8166,8122,0.7711055278778076
21,8178,8158,8139,8134,8155,8171,8120,8184,8117,8135,8158,8166,8174,8091,0.7791063785552979
22,8146,8157,8131,8136,8132,8158,8116,8132,8128,8140,8130,8118,8131,8061,0.7871129512786865
23,8187,8164,8139,8126,8122,8190,8105,8167,8131,8130,8160,8169,8167,8088,0.7950081825256348
24,8170,8166,8139,8126,8163,8155,8123,8152,8140,8149,8161,8147,8160,8104,0.802034854888916
25,8172,8160,8138,8135,8175,8162,8119,8167,8130,8146,8160,8153,8172,8103,0.8100290298461914
26,8171,8153,8138,8129,8138,8178,8095,8177,8123,8117,8154,8164,8175,8074,0.8180079460144043
27,8146,8153,8131,8131,8119,8160,8101,8130,8139,8123,8146,8125,8137,8069,0.8260078430175781
27,8146,8153,8131,8131,8119,8160,8101,8130,8139,8123,8146,8125,8137,8069,0.8264012336730957
28,8177,8144,8132,8130,8116,8180,8084,8172,8105,8105,8175,8180,8185,8098,0.8344080448150635
29,8157,8148,8143,8135,8135,8156,8083,8151,8096,8107,8153,8158,8169,8089,0.8424263000488281
30,8173,8169,8164,8150,8128,8171,8097,8150,8126,8135,8168,8165,8160,8104,0.8500025272369385
31,8187,8173,8173,8154,8117,8173,8103,8174,8129,8142,8188,8198,8175,8130,0.8580071926116943
32,8154,8164,8165,8157,8160,8138,8110,8140,8102,8134,8161,8152,8146,8127,0.8660070896148682
33,8183,8161,8163,8156,8151,8177,8089,8189,8072,8114,8183,8194,8182,8120,0.87300705909729
34,8165,8172,8168,8171,8126,8168,8106,8161,8116,8140,8173,8167,8151,8105,0.8804750442504883
34,8165,8172,8168,8171,8126,8168,8106,8161,8116,8140,8173,8167,8151,8105,0.8814704418182373
35,8174,8186,8178,8182,8154,8173,8136,8139,8149,8168,8182,8173,8151,8134,0.8884754180908203
35,8174,8186,8178,8182,8154,8173,8136,8139,8149,8168,8182,8173,8151,8134,0.889470100402832
36,8200,8191,8181,8177,8179,8177,8133,8190,8123,8169,8205,8220,8200,8159,0.8970081806182861
37,8168,8191,8179,8186,8180,8145,8133,8165,8141,8193,8176,8158,8157,8134,0.904949188232422
38,8192,8178,8182,8172,8156,8189,8121,8182,8146,8185,8188,8196,8173,8129,0.91318678855896
39,8187,8175,8182,8163,8171,8168,8141,8162,8138,8186,8184,8191,8168,8143,0.9211874008178712
40,8198,8194,8192,8187,8191,8152,8158,8165,8164,8204,8197,8182,8168,8176,0.9284090995788574
40,8198,8194,8192,8187,8191,8152,8158,8165,8164,8204,8197,8182,8168,8176,0.9294157028198242
41,8224,8191,8201,8194,8150,8181,8129,8199,8174,8192,8210,8226,8189,8173,0.93542218208313
41,8224,8191,8201,8194,8150,8181,8129,8199,8174,8192,8210,8226,8189,8173,0.9365229606628418
42,8186,8181,8201,8197,8148,8157,8131,8139,8176,8219,8178,8181,8139,8152,0.943615198135376
43,8213,8190,8214,8201,8182,8178,8139,8176,8158,8231,8210,8224,8179,8185,0.9521560668945312
44,8205,8206,8218,8210,8195,8166,8147,8186,8157,8215,8203,8213,8182,8181,0.9601786136627196
45,8193,8212,8210,8222,8184,8166,8146,8155,8165,8208,8181,8180,8145,8158,0.9680099487304688
46,8219,8202,8199,8210,8163,8188,8126,8176,8138,8191,8202,8223,8172,8157,0.9760076999664308
47,8183,8194,8183,8197,8167,8148,8132,8138,8123,8187,8179,8171,8150,8150,0.984344720840454
48,8197,8186,8178,8185,8157,8171,8115,8181,8098,8155,8186,8189,8180,8146,0.9913456439971924
49,8190,8199,8186,8198,8167,8166,8119,8184,8136,8168,8184,8188,8170,8131,0.9993455410003662
49,8190,8199,8186,8198,8167,8166,8119,8184,8136,8168,8184,8188,8170,8131,1.00034499168396
50,8192,8235,8219,8235,8195,8166,8166,8148,8215,8256,8200,8183,8148,8167,1.0063464641571045
51,8235,8236,8234,8231,8196,8198,8172,8197,8197,8278,8237,8247,8202,8223,1.0143442153930664
51,8235,8236,8234,8231,8196,8198,8172,8197,8197,8278,8237,8247,8202,8223,1.0153460502624512
52,8192,8213,8214,8219,8218,8150,8159,8167,8164,8256,8192,8186,8164,8198,1.023345708847046
53,8213,8212,8217,8228,8204,8173,8140,8170,8162,8238,8197,8203,8167,8182,1.0313451290130615
54,8227,8222,8233,8247,8193,8179,8156,8167,8179,8260,8214,8225,8172,8200,1.0390396118164062
55,8192,8213,8223,8252,8242,8153,8166,8143,8176,8263,8198,8188,8148,8206,1.047041416168213
56,8208,8184,8211,8224,8238,8178,8105,8187,8138,8204,8204,8218,8183,8181,1.0545592308044434
57,8194,8186,8222,8230,8203,8157,8100,8156,8176,8226,8193,8183,8148,8166,1.0625579357147217
58,8217,8198,8230,8245,8172,8184,8123,8177,8190,8250,8212,8210,8157,8193,1.070009469985962
59,8196,8176,8195,8215,8167,8183,8104,8175,8133,8200,8188,8195,8162,8155,1.078007459640503
60,8155,8144,8168,8183,8194,8162,8092,8115,8110,8170,8157,8137,8126,8107,1.0860021114349363
61,8198,8142,8184,8179,8171,8202,8086,8157,8095,8149,8188,8203,8159,8128,1.0933444499969482
61,8198,8142,8184,8179,8171,8202,8086,8157,8095,8149,8188,8203,8159,8128,1.0943455696105957
62,8186,8176,8214,8218,8155,8181,8127,8135,8130,8187,8180,8186,8139,8156,1.101970672607422
63,8204,8195,8229,8237,8181,8198,8132,8147,8155,8220,8192,8199,8163,8183,1.1100084781646729
64,8216,8182,8221,8218,8217,8191,8091,8168,8125,8199,8194,8215,8180,8181,1.1183507442474363
65,8196,8188,8231,8230,8223,8157,8104,8138,8137,8208,8189,8190,8152,8195,1.126351833343506
66,8231,8190,8246,8240,8196,8195,8108,8190,8149,8195,8215,8239,8198,8224,1.1343564987182615
67,8190,8160,8213,8216,8196,8168,8090,8160,8138,8166,8176,8177,8162,8180,1.1413657665252686
68,8184,8136,8191,8191,8174,8175,8075,8152,8116,8144,8177,8175,8151,8145,1.1490070819854736
69,8202,8142,8199,8190,8162,8189,8093,8167,8116,8139,8187,8208,8170,8147,1.157068967819214
70,8170,8147,8202,8203,8184,8166,8126,8121,8131,8155,8165,8167,8145,8155,1.165388107299805
71,8196,8135,8202,8189,8159,8201,8095,8173,8095,8131,8185,8216,8182,8158,1.1733636856079102
72,8172,8145,8197,8190,8178,8169,8080,8149,8084,8120,8162,8184,8148,8123,1.18137526512146
73,8175,8171,8204,8209,8202,8170,8087,8130,8081,8125,8171,8181,8147,8136,1.1886296272277832
73,8175,8171,8204,8209,8202,8170,8087,8130,8081,8125,8171,8181,8147,8136,1.189626693725586
74,8201,8166,8208,8197,8167,8187,8071,8171,8064,8135,8190,8213,8187,8168,1.196537733078003
75,8169,8162,8202,8203,8181,8158,8070,8141,8093,8164,8161,8167,8146,8157,1.2035794258117676
76,8197,8170,8204,8217,8189,8198,8055,8169,8100,8143,8181,8217,8169,8149,1.212186336517334
77,8185,8160,8200,8204,8174,8175,8062,8151,8100,8134,8175,8195,8161,8145,1.220186471939087
78,8180,8142,8191,8181,8177,8166,8074,8152,8112,8136,8166,8174,8162,8149,1.2280066013336182
79,8190,8130,8172,8173,8168,8192,8071,8192,8125,8123,8162,8202,8177,8123,1.2360193729400637
80,8153,8141,8170,8194,8170,8170,8111,8149,8175,8164,8150,8165,8132,8117,1.243929386138916
81,8191,8151,8193,8196,8177,8198,8130,8193,8178,8173,8189,8212,8181,8169,1.2519361972808838
82,8179,8146,8192,8184,8190,8173,8123,8181,8144,8143,8169,8178,8172,8144,1.260007619857788
83,8169,8157,8185,8196,8179,8174,8101,8136,8121,8128,8160,8152,8140,8110,1.2680082321166992
84,8202,8177,8201,8217,8172,8201,8070,8162,8098,8122,8186,8216,8172,8142,1.2750024795532229
85,8170,8191,8215,8243,8226,8153,8078,8133,8098,8147,8173,8184,8152,8171,1.282975673675537
86,8201,8188,8212,8239,8210,8178,8060,8173,8067,8138,8192,8207,8184,8172,1.2906262874603271
87,8191,8183,8200,8235,8158,8174,8045,8161,8066,8140,8175,8192,8167,8144,1.2986271381378174
88,8166,8178,8199,8242,8175,8169,8057,8127,8102,8168,8167,8173,8140,8156,1.3070075511932373
89,8197,8170,8194,8223,8194,8189,8063,8188,8099,8154,8192,8217,8185,8175,1.3148670196533203
90,8155,8169,8173,8208,8184,8150,8086,8158,8116,8157,8163,8156,8151,8133,1.3228678703308103
91,8158,8149,8158,8189,8148,8184,8073,8166,8115,8147,8162,8168,8156,8105,1.3300068378448486
92,8158,8129,8152,8180,8151,8176,8082,8172,8113,8135,8156,8180,8156,8109,1.338008165359497
93,8155,8142,8164,8203,8175,8154,8120,8157,8135,8149,8161,8168,8145,8129,1.3461406230926514
94,8189,8157,8173,8199,8161,8195,8096,8195,8117,8140,8183,8213,8180,8128,1.3542397022247314
95,8157,8174,8172,8199,8173,8165,8086,8132,8105,8155,8155,8160,8140,8115,1.3619706630706787
96,8194,8196,8193,8221,8190,8177,8088,8135,8086,8149,8185,8203,8171,8158,1.3702704906463623
97,8206,8208,8211,8237,8210,8170,8080,8167,8075,8131,8200,8238,8197,8179,1.378007411956787
98,8178,8219,8207,8256,8219,8156,8087,8143,8106,8164,8178,8185,8153,8168,1.3862900733947754
99,8223,8225,8206,8259,8188,8200,8084,8182,8121,8188,8204,8229,8186,8183,1.3939471244812012
100,8200,8223,8210,8260,8216,8162,8115,8154,8152,8223,8192,8212,8169,8196,1.4009616374969482
101,8199,8217,8207,8250,8226,8166,8122,8178,8159,8211,8187,8214,8166,8195,1.408961057662964
102,8192,8190,8178,8211,8163,8176,8105,8194,8143,8165,8171,8208,8163,8146,1.4170079231262207
103,8147,8155,8154,8192,8152,8156,8122,8128,8156,8165,8149,8152,8129,8113,1.4246668815612793
103,8147,8155,8154,8192,8152,8156,8122,8128,8156,8165,8149,8152,8129,8113,1.4256610870361328
104,8172,8135,8158,8180,8167,8181,8106,8176,8129,8134,8179,8204,8181,8133,1.4326646327972412
104,8172,8135,8158,8180,8167,8181,8106,8176,8129,8134,8179,8204,8181,8133,1.4336655139923096
105,8154,8149,8167,8195,8174,8151,8096,8167,8128,8121,8165,8178,8161,8119,1.4410018920898438
106,8174,8179,8181,8216,8161,8178,8100,8145,8157,8154,8175,8178,8151,8127,1.4494009017944336
107,8194,8183,8181,8207,8154,8187,8096,8162,8143,8159,8192,8212,8179,8153,1.4570081233978271
108,8162,8180,8176,8212,8194,8139,8098,8138,8123,8148,8173,8159,8154,8148,1.4635584354400637
108,8162,8180,8176,8212,8194,8139,8098,8138,8123,8148,8173,8159,8154,8148,1.464552879333496
109,8194,8185,8187,8223,8201,8173,8081,8182,8101,8128,8185,8192,8174,8139,1.472553253173828
110,8176,8194,8192,8236,8182,8165,8105,8154,8119,8161,8168,8184,8150,8135,1.4800028800964355
111,8182,8199,8198,8242,8179,8176,8129,8155,8135,8188,8180,8190,8163,8168,1.4880361557006836
111,8182,8199,8198,8242,8179,8176,8129,8155,8135,8188,8180,8190,8163,8168,1.489048719406128
112,8202,8199,8200,8237,8190,8180,8116,8203,8133,8182,8194,8216,8196,8175,1.4963130950927734
113,8164,8202,8192,8248,8209,8149,8119,8146,8165,8204,8166,8156,8142,8139,1.5043115615844729
114,8191,8186,8191,8238,8180,8191,8102,8164,8160,8191,8188,8205,8170,8152,1.512303352355957
115,8180,8174,8190,8221,8165,8158,8093,8163,8150,8182,8180,8209,8174,8169,1.5200080871582031
116,8177,8176,8187,8224,8178,8153,8066,8148,8132,8164,8167,8176,8157,8143,1.527008056640625
117,8194,8173,8175,8213,8176,8189,8030,8163,8092,8124,8175,8188,8169,8106,1.5345118045806885
117,8194,8173,8175,8213,8176,8189,8030,8163,8092,8124,8175,8188,8169,8106,1.5354983806610107
118,8155,8177,8169,8210,8175,8152,8067,8119,8108,8138,8157,8150,8138,8111,1.5425128936767578
119,8187,8175,8172,8207,8149,8174,8075,8177,8110,8126,8177,8193,8179,8134,1.5505211353302002
120,8170,8157,8157,8197,8144,8167,8058,8176,8111,8118,8161,8166,8158,8093,1.559011459350586
121,8152,8156,8157,8199,8152,8166,8096,8137,8155,8159,8154,8137,8125,8094,1.5670361518859863
122,8196,8167,8179,8197,8140,8187,8134,8189,8174,8171,8186,8204,8180,8144,1.5750353336334229
123,8171,8172,8191,8208,8157,8151,8139,8169,8178,8169,8174,8168,8161,8143,1.583008050918579
124,8190,8180,8195,8212,8147,8181,8108,8186,8163,8159,8188,8194,8173,8140,1.591008186340332
125,8191,8196,8205,8217,8147,8165,8130,8175,8179,8196,8190,8212,8174,8163,1.5990087985992432
126,8184,8201,8224,8232,8176,8147,8153,8143,8195,8229,8186,8192,8162,8200,1.6059942245483398
127,8208,8189,8214,8222,8175,8177,8095,8189,8141,8166,8195,8218,8193,8200,1.614004611968994
241,8163,8185,8187,8228,8178,8148,8069,8148,8121,8133,8161,8158,8146,8151,1.6219713687896729
0,8175,8174,8180,8215,8152,8177,8070,8160,8124,8136,8175,8176,8154,8138,1.63000750541687
1,8166,8155,8164,8175,8130,8169,8079,8172,8139,8134,8171,8184,8163,8136,1.6380460262298584
2,8137,8152,8147,8168,8145,8146,8100,8148,8160,8139,8147,8146,8146,8131,1.6460444927215576
3,8155,8132,8136,8155,8122,8180,8077,8196,8124,8107,8156,8177,8183,8100,1.6530096530914309
4,8111,8122,8122,8139,8099,8156,8085,8156,8128,8106,8135,8123,8142,8047,1.6610076427459717
5,8137,8136,8125,8130,8090,8181,8102,8157,8147,8122,8150,8146,8153,8066,1.6690683364868164
6,8156,8130,8129,8121,8099,8172,8087,8169,8112,8099,8161,8172,8170,8086,1.6766979694366455
7,8128,8129,8137,8130,8121,8144,8062,8130,8074,8083,8152,8130,8139,8076,1.684692621231079
8,8163,8145,8155,8139,8099,8186,8034,8174,8052,8084,8175,8184,8174,8082,1.6926941871643066
9,8148,8156,8163,8153,8093,8158,8069,8141,8082,8129,8157,8166,8147,8092,1.7006924152374268
10,8163,8158,8175,8161,8107,8165,8085,8139,8086,8129,8171,8174,8159,8130,1.7090067863464355
11,8172,8158,8175,8162,8119,8170,8056,8172,8058,8099,8184,8196,8190,8134,1.7167069911956787
12,8137,8172,8164,8179,8144,8148,8070,8147,8096,8132,8162,8152,8149,8107,1.7246389389038086
13,8171,8178,8166,8167,8124,8189,8087,8188,8129,8133,8171,8189,8167,8111,1.7316398620605469
14,8140,8166,8155,8147,8105,8158,8098,8161,8129,8114,8149,8153,8150,8090,1.7400076389312744
15,8126,8143,8134,8141,8111,8155,8084,8161,8112,8092,8149,8135,8151,8062,1.7480075359344482
16,8134,8128,8120,8129,8112,8172,8072,8197,8104,8070,8158,8157,8172,8042,1.756007432937622
17,8098,8131,8120,8132,8113,8149,8086,8145,8113,8078,8132,8114,8137,8030,1.7641701698303225
18,8136,8134,8132,8129,8084,8180,8057,8165,8075,8057,8146,8160,8167,8041,1.7719714641571045
19,8134,8146,8141,8133,8084,8161,8061,8146,8078,8076,8146,8152,8151,8054,1.7800085544586182
20,8137,8164,8156,8153,8109,8166,8095,8150,8105,8111,8168,8157,8159,8093,1.7870161533355713
21,8158,8174,8166,8170,8119,8181,8084,8201,8082,8098,8183,8200,8196,8111,1.7948932647705078
22,8131,8195,8177,8198,8141,8146,8087,8146,8095,8127,8152,8154,8142,8099,1.8028912544250488
23,8168,8206,8187,8198,8137,8184,8097,8161,8102,8140,8173,8193,8165,8116,1.811009168624878
24,8149,8190,8168,8188,8155,8167,8112,8164,8089,8118,8163,8185,8175,8110,1.8187475204467771
25,8126,8177,8153,8186,8168,8158,8108,8154,8092,8105,8149,8151,8155,8087,1.8267488479614256
26,8146,8167,8151,8167,8133,8181,8091,8188,8107,8099,8167,8181,8169,8075,1.8347594738006592
27,8117,8166,8142,8165,8138,8142,8116,8146,8137,8116,8149,8139,8140,8074,1.841792106628418
28,8151,8172,8147,8166,8141,8174,8104,8186,8126,8098,8164,8168,8175,8090,1.8510079383850095
29,8148,8185,8157,8169,8137,8172,8100,8184,8138,8104,8162,8168,8167,8075,1.8583111763000488
30,8143,8198,8162,8187,8156,8164,8129,8132,8160,8140,8136,8151,8135,8081,1.8653771877288816
30,8143,8198,8162,8187,8156,8164,8129,8132,8160,8140,8136,8151,8135,8081,1.86637020111084
31,8175,8188,8162,8178,8156,8189,8120,8175,8111,8114,8099,8200,8181,8112,1.873377084732056
31,8175,8188,8162,8178,8156,8189,8120,8175,8111,8114,8099,8200,8181,8112,1.87437105178833
32,8137,8177,8158,8170,8160,8145,8116,8161,8089,8096,8030,8158,8160,8100,1.8819708824157717
33,8156,8183,8166,8176,8134,8169,8100,8175,8086,8092,8028,8181,8165,8091,1.8899271488189695
33,8156,8183,8166,8176,8134,8169,8100,8175,8086,8092,8028,8181,8165,8091,1.8909199237823489
34,8145,8182,8163,8178,8115,8176,8092,8165,8088,8100,8023,8186,8161,8086,1.8979010581970213
34,8145,8182,8163,8178,8115,8176,8092,8165,8088,8100,8023,8186,8161,8086,1.8989391326904297
35,8107,8165,8151,8179,8149,8159,8114,8146,8111,8119,8007,8146,8147,8090,1.906196117401123
36,8132,8151,8135,8159,8171,8180,8114,8203,8116,8100,8020,8175,8185,8073,1.9143645763397217
37,8092,8147,8119,8145,8169,8154,8127,8154,8150,8111,7992,8121,8137,8019,1.9223663806915283
38,8102,8140,8120,8138,8139,8183,8127,8154,8153,8111,8010,8137,8147,8026,1.9290080070495603
39,8116,8140,8122,8132,8136,8173,8119,8173,8116,8089,8024,8155,8173,8045,1.936962604522705
40,8097,8155,8126,8143,8165,8145,8121,8139,8110,8100,8013,8111,8138,8033,1.945007085800171
41,8134,8153,8131,8136,8147,8186,8113,8179,8107,8102,8040,8158,8168,8042,1.953035831451416
42,8110,8151,8126,8134,8151,8151,8144,8148,8126,8126,8031,8134,8150,8060,1.961077690124512
43,8117,8157,8126,8144,8152,8158,8136,8159,8116,8131,8038,8138,8157,8083,1.9690747261047363
44,8120,8151,8122,8137,8125,8169,8093,8179,8098,8113,8039,8148,8167,8062,1.977076292037964
45,8092,8145,8115,8127,8129,8145,8109,8131,8132,8122,8024,8109,8133,8045,1.985086441040039
46,8124,8132,8107,8102,8136,8180,8119,8181,8133,8108,8050,8154,8180,8059,1.992002248764038
47,8080,8117,8086,8091,8159,8153,8126,8167,8137,8113,8032,8104,8160,8018,2.000007390975952
48,8074,8111,8077,8091,8162,8168,8139,8155,8151,8128,8030,8087,8141,7987,2.0080082416534424
49,8099,8112,8075,8081,8149,8184,8160,8184,8152,8141,8044,8129,8166,8002,2.016026735305786
50,8068,8123,8074,8081,8164,8142,8186,8154,8169,8169,8036,8091,8147,8012,2.0240073204040527
51,8091,8123,8077,8072,8146,8171,8158,8187,8150,8128,8051,8114,8168,8002,2.032023668289185
52,8077,8116,8073,8070,8120,8162,8150,8156,8150,8112,8032,8094,8142,7990,2.040034770965576
53,8085,8120,8079,8068,8104,8169,8157,8147,8152,8130,8043,8106,8151,8023,2.0478169918060303
54,8105,8129,8088,8055,8108,8171,8134,8193,8131,8107,8063,8145,8184,8036,2.056008815765381
55,8075,8143,8090,8073,8141,8138,8143,8149,8149,8116,8044,8093,8136,8019,2.063007354736328
56,8112,8132,8088,8069,8120,8185,8138,8166,8135,8121,8063,8128,8163,8033,2.0712687969207764
57,8092,8115,8077,8050,8111,8163,8134,8160,8127,8130,8058,8119,8170,8033,2.079267263412476
57,8092,8115,8077,8050,8111,8163,8134,8160,8127,8130,8058,8119,8170,8033,2.080267429351806
58,8081,8128,8075,8060,8146,8156,8144,8171,8163,8149,8059,8104,8163,8037,2.0872673988342285
59,8108,8142,8079,8064,8145,8188,8150,8207,8177,8150,8070,8137,8179,8035,2.0951759815216064
60,8074,8147,8079,8064,8136,8156,8184,8139,8190,8171,8046,8089,8135,8022,2.103181838989258
61,8099,8136,8074,8043,8122,8183,8187,8166,8164,8145,8064,8122,8168,8035,2.111182451248169
62,8085,8120,8060,8025,8127,8160,8172,8180,8130,8104,8055,8113,8170,8019,2.119181871414185
63,8069,8116,8058,8038,8129,8146,8157,8155,8123,8096,8045,8082,8148,8002,2.126181602478028
64,8097,8110,8063,8032,8091,8183,8137,8182,8112,8086,8062,8117,8173,7996,2.1341817378997803
65,8064,8113,8062,8026,8090,8154,8164,8139,8134,8113,8049,8078,8139,7997,2.14218544960022
66,8094,8118,8071,8033,8104,8172,8161,8175,8142,8124,8075,8115,8167,8031,2.1501851081848145
67,8084,8109,8065,8034,8109,8162,8147,8190,8140,8114,8072,8116,8176,8022,2.158034324645996
68,8047,8100,8049,8025,8109,8153,8149,8154,8132,8103,8052,8075,8152,7991,2.166079521179199
69,8075,8098,8054,8008,8086,8182,8126,8188,8094,8076,8069,8118,8174,7981,2.174009084701538
70,8048,8109,8056,8017,8098,8149,8146,8149,8117,8100,8057,8083,8128,7976,2.1818161010742188
71,8061,8119,8045,8023,8099,8180,8153,8158,8124,8094,8068,8099,8146,7985,2.1885886192321777
72,8062,8117,8030,8016,8088,8176,8143,8158,8096,8066,8069,8108,8163,7977,2.1965813636779785
73,8056,8132,8033,8032,8112,8153,8171,8127,8120,8098,8070,8085,8134,7990,2.205010414123535
74,8105,8156,8043,8042,8118,8185,8187,8190,8148,8118,8106,8146,8180,8035,2.213009119033813
75,8070,8150,8029,8040,8119,8145,8193,8164,8167,8132,8090,8110,8167,8040,2.221010684967041
76,8073,8129,8026,8029,8107,8165,8168,8175,8156,8122,8096,8108,8170,8035,2.229009866714477
77,8086,8128,8035,8027,8107,8181,8168,8197,8166,8126,8100,8123,8172,8024,2.237232446670532
78,8061,8135,8035,8033,8119,8154,8204,8145,8197,8147,8083,8089,8138,8021,2.2452309131622314
79,8085,8111,8030,8003,8088,8172,8178,8174,8151,8110,8102,8127,8177,8023,2.251749992370605
80,8054,8100,8018,7996,8091,8138,8166,8159,8121,8107,8088,8092,8161,8002,2.2600131034851074
81,8071,8124,8032,8023,8102,8164,8174,8171,8135,8124,8099,8107,8161,8015,2.2682814598083496
82,8091,8134,8046,8019,8080,8178,8159,8177,8132,8112,8111,8133,8172,8022,2.27628231048584
83,8056,8130,8046,8013,8077,8141,8150,8124,8128,8109,8095,8081,8140,8011,2.283470392227173
83,8056,8130,8046,8013,8077,8141,8150,8124,8128,8109,8095,8081,8140,8011,2.284457206726074
84,8089,8132,8054,8016,8074,8174,8134,8184,8124,8096,8113,8129,8178,8032,2.291456699371338
85,8079,8151,8065,8038,8086,8155,8155,8176,8169,8128,8105,8124,8157,8039,2.3000078201293945
86,8098,8157,8076,8054,8090,8162,8173,8154,8191,8159,8116,8128,8151,8057,2.3078761100769043
87,8116,8136,8077,8037,8080,8170,8157,8183,8154,8131,8117,8158,8181,8074,2.3150854110717773
88,8076,8140,8076,8044,8097,8145,8166,8162,8158,8139,8095,8109,8149,8067,2.323241233825684
89,8119,8164,8089,8063,8099,8188,8178,8196,8178,8162,8131,8152,8173,8076,2.331007957458496
90,8105,8167,8086,8069,8117,8152,8209,8161,8191,8181,8122,8144,8159,8083,2.339008331298828
91,8085,8145,8072,8052,8123,8151,8204,8153,8163,8166,8109,8120,8156,8084,2.347007989883423
92,8097,8133,8062,8033,8091,8182,8151,8203,8130,8124,8125,8144,8182,8059,2.354680299758911
92,8097,8133,8062,8033,8091,8182,8151,8203,8130,8124,8125,8144,8182,8059,2.355673551559448
93,8071,8151,8069,8056,8096,8147,8156,8148,8166,8141,8106,8107,8134,8044,2.3636765480041504
94,8114,8158,8083,8064,8101,8172,8175,8169,8161,8144,8122,8151,8161,8084,2.370717287063598
94,8114,8158,8083,8064,8101,8172,8175,8169,8161,8144,8122,8151,8161,8084,2.3717150688171387
95,8102,8148,8074,8054,8121,8153,8196,8174,8145,8141,8121,8139,8168,8091,2.3787710666656494
96,8089,8151,8074,8070,8134,8155,8198,8160,8166,8153,8114,8112,8151,8071,2.386059045791626
97,8119,8158,8078,8078,8112,8180,8180,8186,8172,8150,8126,8153,8173,8064,2.3940651416778564
98,8096,8165,8086,8088,8135,8141,8206,8142,8186,8172,8116,8123,8149,8079,2.4019699096679688
99,8134,8170,8106,8090,8152,8170,8199,8186,8171,8164,8140,8162,8186,8113,2.4100069999694824
100,8120,8174,8105,8096,8155,8162,8189,8185,8179,8178,8136,8159,8176,8097,2.4179017543792725
101,8098,8179,8100,8107,8165,8153,8197,8134,8212,8221,8130,8130,8139,8091,2.425901174545288
102,8124,8159,8094,8086,8147,8175,8168,8180,8181,8195,8140,8163,8175,8099,2.4340078830718994
103,8088,8149,8086,8082,8146,8142,8171,8162,8176,8178,8114,8114,8151,8071,2.4419708251953125
104,8119,8168,8097,8095,8145,8178,8195,8171,8193,8188,8135,8146,8164,8079,2.4490082263946533
105,8123,8173,8099,8097,8148,8175,8211,8164,8196,8203,8140,8164,8167,8102,2.4566211700439453
105,8123,8173,8099,8097,8148,8175,8211,8164,8196,8203,8140,8164,8167,8102,2.457615852355957
106,8098,8162,8099,8098,8158,8152,8202,8148,8187,8195,8126,8135,8150,8109,2.4646153450012207
107,8127,8158,8106,8094,8140,8182,8163,8198,8163,8161,8142,8175,8180,8099,2.473007917404175
108,8105,8179,8111,8111,8151,8157,8178,8149,8178,8194,8128,8138,8142,8087,2.481632232666016
109,8134,8193,8124,8123,8173,8173,8187,8166,8173,8211,8146,8164,8166,8121,2.4886324405670166
110,8139,8188,8129,8128,8177,8160,8176,8192,8159,8188,8149,8184,8185,8128,2.4966490268707275
111,8113,8184,8125,8137,8162,8148,8185,8150,8178,8199,8125,8139,8142,8109,2.505007743835449
112,8146,8169,8116,8112,8144,8186,8180,8184,8171,8207,8142,8177,8166,8118,2.512983560562134
113,8115,8159,8109,8101,8175,8143,8186,8161,8177,8220,8132,8151,8155,8122,2.5199780464172363
114,8118,8158,8113,8108,8162,8165,8170,8169,8167,8194,8129,8149,8163,8109,2.528007745742798
115,8118,8146,8095,8094,8121,8179,8162,8176,8151,8169,8119,8151,8159,8081,2.5360074043273926
116,8088,8132,8079,8084,8135,8143,8185,8138,8160,8186,8115,8122,8134,8082,2.544309139251709
117,8121,8125,8084,8075,8125,8169,8152,8190,8131,8154,8147,8172,8185,8091,2.5518455505371094
118,8099,8143,8087,8085,8118,8148,8145,8158,8144,8147,8125,8138,8154,8061,2.560314178466797
119,8113,8169,8102,8102,8138,8164,8170,8150,8174,8173,8133,8144,8147,8085,2.5683133602142334
120,8128,8166,8106,8097,8160,8168,8163,8191,8161,8181,8150,8173,8184,8110,2.575007677078247
121,8086,8149,8095,8100,8161,8139,8153,8149,8172,8184,8127,8123,8149,8079,2.583343029022217
122,8117,8146,8100,8101,8112,8181,8137,8169,8169,8165,8145,8163,8167,8071,2.591007232666016
123,8109,8160,8112,8115,8126,8159,8159,8157,8163,8185,8148,8155,8166,8092,2.598995923995972
124,8112,8157,8117,8124,8162,8157,8161,8162,8162,8196,8148,8148,8169,8107,2.6069893836975098
125,8126,8138,8108,8106,8134,8173,8134,8186,8159,8173,8140,8169,8174,8084,2.6150076389312744
126,8096,8144,8101,8109,8134,8148,8153,8132,8173,8195,8125,8124,8136,8072,2.6224536895751958
126,8096,8144,8101,8109,8134,8148,8153,8132,8173,8195,8125,8124,8136,8072,2.6234707832336426
127,8130,8144,8105,8102,8139,8179,8157,8162,8158,8183,8152,8165,8174,8097,2.6304774284362797
127,8130,8144,8105,8102,8139,8179,8157,8162,8158,8183,8152,8165,8174,8097,2.6314737796783447
241,8109,8126,8094,8085,8131,8155,8154,8156,8155,8158,8136,8155,8164,8090,2.639007329940796
0,8096,8129,8089,8086,8123,8155,8140,8150,8139,8148,8125,8133,8148,8079,2.646337509155273
1,8108,8128,8088,8076,8107,8175,8109,8181,8097,8122,8133,8152,8173,8057,2.653871536254883
2,8066,8119,8075,8074,8109,8144,8117,8128,8115,8135,8117,8108,8132,8030,2.6618645191192627
3,8097,8112,8072,8061,8092,8175,8109,8162,8107,8125,8142,8152,8159,8052,2.670009136199951
4,8092,8110,8073,8047,8082,8154,8097,8174,8076,8098,8130,8145,8170,8047,2.678007841110229
5,8082,8116,8076,8059,8083,8146,8097,8148,8081,8109,8113,8116,8151,8027,2.686007499694824
6,8112,8112,8076,8062,8069,8178,8093,8178,8088,8120,8136,8159,8177,8041,2.69390082359314
7,8076,8102,8075,8056,8078,8142,8108,8146,8103,8125,8125,8122,8154,8049,2.7019004821777344
8,8096,8100,8084,8047,8070,8166,8091,8174,8098,8099,8130,8143,8170,8048,2.7090022563934326
9,8088,8105,8084,8054,8059,8164,8089,8164,8107,8109,8129,8139,8160,8033,2.716928482055664
10,8058,8100,8082,8061,8070,8149,8112,8129,8116,8128,8138,8113,8150,8044,2.7249276638031006
11,8084,8095,8076,8042,8070,8178,8086,8187,8076,8076,8154,8155,8190,8044,2.732929229736328
12,8063,8118,8073,8058,8098,8151,8092,8159,8094,8086,8122,8113,8141,8009,2.740936517715454
13,8084,8124,8085,8076,8099,8169,8103,8158,8109,8116,8134,8131,8152,8022,2.7490074634552
14,8074,8105,8084,8059,8079,8156,8086,8163,8080,8087,8134,8135,8179,8028,2.757009029388428
15,8046,8126,8084,8062,8093,8144,8086,8140,8095,8085,8116,8094,8147,8013,2.765007257461548
16,8094,8149,8098,8077,8093,8188,8086,8185,8115,8104,8139,8146,8164,8022,2.772712230682373
17,8073,8136,8099,8087,8103,8146,8102,8147,8122,8115,8132,8122,8148,8036,2.779791593551636
18,8081,8128,8102,8085,8109,8156,8095,8158,8098,8098,8141,8132,8172,8055,2.787794589996338
19,8084,8133,8104,8081,8104,8168,8087,8184,8088,8097,8144,8150,8183,8044,2.7957842350006104
20,8054,8126,8098,8086,8106,8144,8098,8147,8113,8122,8128,8110,8147,8031,2.8040075302124023
21,8088,8111,8098,8069,8080,8173,8079,8185,8101,8106,8145,8144,8175,8037,2.81197190284729
22,8064,8118,8093,8068,8084,8146,8092,8149,8110,8123,8132,8117,8149,8027,2.820007562637329
23,8073,8131,8090,8075,8108,8158,8099,8144,8105,8124,8141,8121,8156,8043,2.82800841331482
24,8083,8119,8080,8053,8112,8164,8075,8181,8065,8082,8144,8142,8183,8038,2.835667610168457
25,8055,8118,8083,8054,8108,8134,8082,8141,8078,8093,8124,8102,8141,8011,2.84268569946289
26,8103,8136,8107,8070,8090,8173,8091,8162,8094,8110,8151,8153,8163,8032,2.8506946563720703
27,8089,8151,8113,8082,8115,8150,8111,8149,8106,8132,8151,8147,8161,8054,2.8590097427368164
28,8086,8154,8116,8092,8133,8151,8110,8169,8106,8134,8149,8144,8168,8065,2.867008209228516
29,8109,8156,8129,8101,8120,8167,8103,8194,8115,8130,8151,8169,8180,8056,2.874648094177246
30,8087,8172,8137,8122,8140,8143,8147,8132,8165,8187,8144,8128,8140,8064,2.882650852203369
31,8117,8171,8139,8113,8141,8179,8156,8183,8154,8187,8169,8164,8183,8100,2.8909125328063965
32,8082,8157,8127,8102,8140,8152,8148,8184,8139,8159,8146,8145,8176,8078,2.898932456970215
33,8065,8149,8112,8109,8141,8148,8159,8149,8163,8169,8136,8127,8150,8062,2.90600848197937
34,8093,8142,8102,8095,8123,8172,8153,8174,8148,8155,8154,8153,8174,8077,2.914008617401123
34,8093,8142,8102,8095,8123,8172,8153,8174,8148,8155,8154,8153,8174,8077,2.914423704147339
35,8061,8147,8101,8088,8137,8137,8152,8145,8141,8138,8135,8097,8150,8067,2.922046661376953
36,8091,8152,8111,8092,8137,8171,8144,8181,8150,8146,8144,8120,8169,8058,2.930290699005127
37,8093,8155,8113,8099,8138,8157,8171,8168,8168,8190,8138,8120,8157,8066,2.938252210617065
38,8086,8165,8120,8102,8150,8143,8182,8137,8150,8180,8138,8113,8148,8093,2.946256399154663
39,8106,8160,8125,8091,8142,8166,8145,8179,8116,8124,8145,8146,8180,8082,2.9534873962402344
40,8071,8162,8121,8110,8149,8137,8164,8145,8155,8153,8126,8102,8142,8052,2.962514162063598
41,8097,8165,8124,8116,8129,8170,8165,8161,8155,8164,8151,8142,8165,8073,2.969928741455078
42,8089,8155,8124,8103,8123,8156,8136,8164,8130,8146,8153,8143,8175,8080,2.976857662200928
43,8072,8160,8133,8123,8148,8138,8141,8153,8149,8165,8148,8115,8151,8077,2.9850077629089355
44,8108,8169,8139,8133,8133,8173,8150,8186,8141,8165,8160,8154,8170,8083,2.993008136749268
45,8074,8164,8118,8121,8135,8142,8169,8134,8139,8171,8137,8113,8144,8081,3.0010294914245605
46,8093,8150,8111,8101,8142,8164,8158,8166,8134,8154,8153,8138,8173,8093,3.0090253353118896
47,8096,8151,8123,8098,8137,8162,8152,8183,8128,8139,8154,8143,8172,8075,3.0170083045959477
48,8083,8164,8135,8119,8143,8150,8167,8139,8141,8167,8140,8111,8139,8072,3.024046897888184
49,8123,8165,8139,8121,8147,8180,8164,8182,8144,8165,8153,8155,8179,8103,3.0330076217651367
50,8081,8162,8132,8123,8161,8140,8176,8158,8155,8164,8139,8124,8157,8092,3.040044069290161
51,8093,8158,8134,8125,8125,8166,8161,8163,8129,8154,8149,8137,8160,8077,3.048046350479126
52,8107,8150,8131,8114,8106,8172,8155,8171,8115,8160,8150,8150,8168,8077,3.0555837154388428
53,8084,8154,8138,8120,8162,8142,8194,8149,8158,8204,8149,8137,8160,8112,3.0636157989501958
54,8123,8152,8159,8125,8160,8176,8183,8210,8162,8199,8169,8188,8197,8138,3.0716140270233154
55,8095,8149,8155,8133,8134,8151,8172,8173,8168,8197,8145,8145,8154,8108,3.0800015926361084
56,8101,8151,8142,8126,8135,8166,8168,8156,8156,8188,8151,8144,8156,8103,3.0880014896392822
57,8116,8141,8133,8106,8139,8166,8156,8175,8117,8160,8155,8157,8182,8105,3.0960171222686768
58,8089,8143,8133,8117,8136,8134,8158,8142,8119,8157,8140,8120,8153,8098,3.103015661239624
59,8114,8148,8133,8121,8116,8173,8123,8176,8103,8125,8146,8157,8172,8091,3.1110081672668457
60,8091,8151,8126,8118,8139,8150,8131,8146,8108,8145,8129,8135,8152,8081,3.1187429428100586
60,8091,8151,8126,8118,8139,8150,8131,8146,8108,8145,8129,8135,8152,8081,3.11966323852539
61,8115,8165,8146,8131,8151,8163,8176,8151,8133,8190,8154,8152,8163,8116,3.1269774436950684
62,8138,8170,8161,8139,8141,8171,8174,8184,8124,8167,8170,8180,8184,8131,3.1349802017211914
63,8097,8161,8149,8146,8174,8138,8164,8144,8117,8147,8150,8139,8155,8111,3.143007516860962
64,8126,8155,8142,8135,8168,8173,8155,8186,8110,8140,8158,8169,8181,8100,3.151545524597168
65,8110,8163,8140,8138,8139,8159,8178,8163,8132,8161,8143,8147,8157,8088,3.1585588455200195
65,8110,8163,8140,8138,8139,8159,8178,8163,8132,8161,8143,8147,8157,8088,3.1595537662506104
66,8114,8162,8147,8142,8131,8175,8171,8148,8136,8168,8151,8150,8161,8116,3.169295072555542
67,8132,8140,8146,8119,8134,8186,8130,8195,8100,8149,8162,8177,8197,8123,3.1732912063598637
67,8132,8140,8146,8119,8134,8186,8130,8195,8100,8149,8162,8177,8197,8123,3.174292087554932
68,8089,8144,8141,8126,8148,8151,8138,8163,8114,8171,8146,8135,8165,8090,3.181290626525879
68,8089,8144,8141,8126,8148,8151,8138,8163,8114,8171,8146,8135,8165,8090,3.1822915077209477
69,8116,8158,8149,8135,8127,8192,8132,8186,8132,8161,8163,8171,8182,8090,3.1902916431427
70,8106,8153,8150,8129,8123,8163,8132,8174,8131,8142,8158,8162,8173,8100,3.1982922554016118
71,8105,8150,8156,8133,8132,8156,8120,8167,8113,8129,8156,8160,8172,8102,3.206292629241944
71,8105,8150,8156,8133,8132,8156,8120,8167,8113,8129,8156,8160,8172,8102,3.206400156021118
72,8130,8159,8159,8135,8124,8194,8091,8196,8099,8115,8159,8186,8189,8082,3.213407278060913
73,8099,8164,8154,8141,8139,8162,8121,8149,8126,8141,8150,8141,8153,8079,3.221407175064087
74,8129,8160,8159,8135,8141,8181,8121,8187,8106,8122,8172,8176,8187,8100,3.2294065952301025
75,8117,8176,8169,8152,8160,8167,8116,8190,8114,8116,8161,8173,8181,8091,3.236405611038208
75,8117,8176,8169,8152,8160,8167,8116,8190,8114,8116,8161,8173,8181,8091,3.237285614013672
76,8104,8189,8179,8178,8175,8170,8134,8166,8158,8158,8159,8155,8161,8095,3.245292901992798
77,8133,8169,8168,8159,8145,8199,8136,8201,8141,8160,8172,8179,8182,8097,3.2531485557556152
78,8098,8164,8153,8148,8143,8164,8160,8158,8150,8173,8150,8133,8152,8084,3.2605786323547363
78,8098,8164,8153,8148,8143,8164,8160,8158,8150,8173,8150,8133,8152,8084,3.26148009300232
79,8119,8161,8157,8140,8131,8189,8157,8181,8157,8171,8155,8152,8179,8096,3.26845121383667
80,8104,8144,8145,8123,8135,8171,8144,8184,8146,8159,8149,8144,8179,8089,3.276451349258423
81,8080,8144,8134,8115,8176,8149,8141,8153,8133,8154,8148,8128,8162,8082,3.2850091457366943
82,8120,8135,8141,8100,8146,8179,8122,8195,8109,8132,8166,8170,8194,8093,3.293097734451294
83,8093,8133,8147,8112,8098,8151,8129,8166,8127,8142,8153,8130,8162,8089,3.3001039028167725
84,8100,8136,8136,8112,8124,8176,8102,8175,8108,8112,8153,8134,8163,8068,3.308111906051636
85,8096,8129,8126,8095,8171,8172,8087,8169,8094,8094,8139,8132,8159,8036,3.3161427974700928
86,8093,8144,8150,8118,8144,8162,8131,8141,8144,8157,8145,8127,8144,8066,3.3240084648132324
87,8127,8140,8155,8111,8096,8193,8123,8188,8123,8154,8167,8167,8173,8100,3.3320343494415283
88,8068,8109,8115,8081,8133,8149,8099,8153,8080,8109,8137,8110,8142,8056,3.340038537979126
88,8068,8109,8115,8081,8133,8149,8099,8153,8080,8109,8137,8110,8142,8056,3.340435266494751
89,8088,8116,8124,8093,8118,8181,8101,8165,8093,8103,8144,8124,8153,8049,3.348008394241333
90,8116,8138,8151,8109,8083,8197,8117,8174,8123,8132,8151,8150,8161,8069,3.356278896331787
91,8074,8123,8133,8095,8142,8158,8129,8128,8122,8142,8135,8111,8133,8068,3.3637382984161377
92,8097,8100,8120,8073,8137,8180,8104,8175,8080,8096,8152,8140,8165,8058,3.3707387447357178
93,8084,8117,8136,8096,8094,8155,8113,8158,8095,8108,8144,8119,8141,8043,3.3790082931518555
94,8108,8147,8160,8127,8119,8173,8133,8150,8129,8154,8151,8132,8140,8073,3.386789560317993
95,8124,8157,8168,8130,8185,8180,8145,8165,8128,8175,8163,8157,8166,8109,3.3951668739318848
96,8089,8163,8172,8141,8217,8149,8163,8137,8138,8187,8156,8122,8148,8113,3.4031684398651123
97,8121,8163,8173,8137,8161,8188,8144,8180,8133,8152,8161,8152,8164,8101,3.4111809730529785
98,8097,8160,8163,8134,8138,8164,8160,8147,8145,8158,8146,8131,8140,8091,3.4193148612976074
99,8098,8146,8162,8131,8153,8164,8166,8137,8140,8171,8156,8127,8148,8113,3.427007913589477
100,8120,8138,8165,8121,8151,8178,8137,8179,8123,8145,8166,8152,8177,8116,3.4339890480041504
101,8090,8157,8171,8136,8166,8154,8147,8137,8158,8157,8146,8117,8140,8097,3.4419994354248047
102,8125,8156,8174,8131,8152,8185,8138,8159,8147,8150,8155,8146,8159,8101,3.449891805648804
103,8115,8144,8174,8125,8147,8151,8138,8153,8135,8156,8153,8144,8159,8108,3.4580085277557373
104,8122,8163,8195,8147,8170,8157,8148,8150,8156,8174,8162,8145,8156,8123,3.465736150741577
105,8154,8177,8204,8156,8170,8191,8149,8176,8169,8174,8176,8175,8178,8125,3.473735809326172
105,8154,8177,8204,8156,8170,8191,8149,8176,8169,8174,8176,8175,8178,8125,3.4747307300567627
106,8120,8164,8189,8158,8174,8157,8169,8125,8186,8196,8161,8141,8148,8128,3.48172926902771
107,8146,8154,8185,8148,8164,8184,8142,8165,8147,8166,8172,8170,8169,8138,3.490008354187012
108,8131,8171,8188,8153,8155,8167,8130,8169,8140,8150,8169,8156,8160,8117,3.496771812438965
109,8120,8186,8195,8173,8160,8164,8153,8137,8167,8174,8166,8139,8143,8124,3.5051984786987305
110,8145,8176,8192,8167,8169,8183,8148,8172,8139,8155,8173,8181,8177,8134,3.5130724906921387
111,8107,8176,8178,8164,8188,8147,8144,8144,8144,8148,8152,8140,8151,8100,3.521009683609009
112,8140,8189,8187,8173,8173,8189,8141,8162,8169,8157,8167,8158,8163,8100,3.529008626937866
113,8142,8192,8193,8185,8184,8182,8169,8155,8179,8187,8172,8167,8164,8127,3.5367863178253174
114,8122,8192,8187,8196,8216,8158,8179,8140,8178,8199,8164,8143,8152,8137,3.5449464321136475
115,8148,8184,8185,8188,8191,8185,8134,8188,8153,8156,8170,8171,8179,8118,3.552795171737671
116,8116,8190,8182,8200,8190,8155,8145,8133,8172,8171,8151,8136,8142,8100,3.559783697128296
117,8150,8213,8194,8216,8205,8181,8174,8146,8196,8203,8166,8162,8156,8134,3.568001508712769
118,8161,8217,8205,8214,8210,8182,8188,8188,8211,8209,8183,8196,8184,8159,3.5760092735290527
119,8144,8218,8213,8225,8220,8171,8207,8166,8240,8223,8173,8175,8163,8157,3.5836918354034424
120,8186,8227,8223,8233,8211,8208,8205,8189,8234,8217,8182,8205,8180,8158,3.591691732406616
121,8157,8226,8219,8232,8226,8172,8224,8157,8236,8230,8174,8175,8163,8161,3.599968910217285
122,8156,8204,8207,8214,8220,8184,8213,8181,8222,8211,8178,8179,8174,8167,3.608007669448853
123,8152,8194,8193,8199,8205,8185,8180,8193,8199,8178,8170,8184,8175,8136,3.615411758422852
123,8152,8194,8193,8199,8205,8185,8180,8193,8199,8178,8170,8184,8175,8136,3.616429567337036
124,8129,8216,8196,8224,8223,8170,8198,8146,8216,8204,8158,8148,8146,8129,3.623435735702514
124,8129,8216,8196,8224,8223,8170,8198,8146,8216,8204,8158,8148,8146,8129,3.624429941177368
125,8167,8222,8205,8229,8217,8203,8213,8186,8220,8214,8184,8198,8187,8169,3.6314306259155273
126,8131,8208,8193,8215,8217,8162,8220,8165,8223,8204,8171,8175,8172,8167,3.639008045196533
127,8131,8201,8187,8209,8206,8172,8196,8173,8201,8181,8173,8164,8164,8148,3.646996974945069
241,8144,8204,8190,8211,8195,8178,8189,8191,8202,8191,8185,8185,8171,8145,3.654529333114624
241,8144,8204,8190,8211,8195,8178,8189,8191,8202,8191,8185,8185,8171,8145,3.6555256843566895
0,8123,8208,8192,8215,8218,8150,8228,8139,8249,8230,8167,8157,8147,8162,3.663008213043213
1,8158,8194,8195,8196,8212,8178,8219,8173,8227,8197,8175,8189,8182,8182,3.6713109016418457
2,8127,8185,8186,8200,8210,8147,8206,8166,8209,8193,8170,8163,8162,8166,3.679311752319336
3,8134,8194,8183,8218,8212,8163,8200,8161,8215,8212,8172,8150,8148,8157,3.68700909614563
4,8153,8197,8185,8213,8216,8176,8211,8167,8214,8210,8176,8177,8168,8167,3.694007396697998
5,8123,8203,8188,8222,8241,8139,8252,8135,8237,8246,8169,8159,8150,8190,3.702130079269409
6,8154,8197,8184,8214,8226,8171,8233,8189,8222,8239,8181,8192,8174,8195,3.7101309299468994
7,8131,8195,8171,8212,8214,8154,8221,8162,8225,8228,8161,8163,8149,8161,3.718003511428833
8,8142,8214,8187,8237,8225,8165,8238,8145,8250,8241,8171,8163,8144,8185,3.726007461547852
9,8173,8224,8207,8249,8245,8173,8243,8194,8242,8244,8202,8209,8180,8224,3.7338929176330566
10,8130,8225,8204,8259,8268,8143,8260,8163,8244,8255,8186,8174,8148,8201,3.7419044971466064
11,8156,8222,8207,8252,8247,8188,8256,8180,8231,8243,8187,8205,8165,8192,3.749901533126831
12,8150,8222,8212,8253,8265,8164,8272,8164,8242,8255,8185,8201,8169,8219,3.7574150562286377
12,8150,8222,8212,8253,8265,8164,8272,8164,8242,8255,8185,8201,8169,8219,3.75841236114502
13,8154,8221,8217,8266,8295,8156,8280,8171,8254,8253,8190,8186,8166,8242,3.764415264129639
13,8154,8221,8217,8266,8295,8156,8280,8171,8254,8253,8190,8186,8166,8242,3.765411853790283
14,8174,8210,8213,8251,8257,8180,8251,8207,8240,8230,8193,8211,8179,8217,3.772414445877075
15,8133,8200,8195,8237,8238,8155,8248,8141,8251,8256,8166,8165,8144,8192,3.780535697937012
16,8165,8189,8191,8225,8243,8185,8235,8166,8222,8246,8178,8189,8171,8213,3.788405179977417
17,8160,8197,8201,8233,8257,8161,8246,8180,8220,8246,8179,8193,8169,8219,3.796418428421021
17,8160,8197,8201,8233,8257,8161,8246,8180,8220,8246,8179,8193,8169,8219,3.7974112033844
18,8160,8222,8218,8257,8268,8158,8272,8159,8268,8290,8180,8185,8149,8224,3.805007219314575
19,8202,8231,8223,8251,8267,8193,8269,8191,8273,8292,8203,8225,8181,8245,3.8130078315734863
20,8168,8237,8218,8257,8297,8156,8289,8156,8276,8294,8188,8187,8161,8257,3.821467161178589
21,8190,8245,8230,8277,8300,8178,8285,8189,8272,8288,8195,8214,8180,8268,3.828247308731079
22,8190,8248,8236,8287,8308,8168,8283,8201,8276,8292,8198,8221,8179,8254,3.835254669189453
22,8190,8248,8236,8287,8308,8168,8283,8201,8276,8292,8198,8221,8179,8254,3.8362479209899902
23,8178,8247,8237,8298,8316,8155,8295,8165,8290,8310,8192,8187,8154,8240,3.844008207321167
24,8208,8232,8243,8285,8272,8188,8268,8182,8270,8290,8201,8219,8173,8241,3.851970911026001
25,8178,8227,8246,8281,8276,8161,8272,8143,8265,8297,8188,8198,8145,8248,3.860083818435669
26,8206,8237,8251,8286,8292,8179,8273,8172,8244,8288,8198,8223,8173,8270,3.868083953857422
27,8203,8242,8241,8285,8275,8166,8258,8188,8242,8261,8194,8223,8178,8245,3.8760037422180176
28,8178,8245,8242,8295,8276,8156,8269,8153,8284,8285,8186,8186,8140,8227,3.884004831314087
29,8225,8239,8251,8291,8279,8193,8269,8194,8280,8300,8206,8230,8182,8264,3.8920185565948486
30,8190,8224,8237,8286,8290,8151,8278,8165,8276,8300,8186,8201,8171,8268,3.899008274078369
31,8188,8206,8233,8273,8264,8175,8259,8171,8266,8279,8184,8199,8168,8244,3.907007932662964
32,8196,8204,8233,8266,8247,8189,8251,8184,8255,8281,8189,8212,8173,8234,3.915009021759033
33,8171,8219,8228,8278,8274,8157,8275,8149,8262,8305,8182,8182,8153,8248,3.923135042190552
34,8196,8208,8225,8263,8254,8178,8251,8194,8235,8267,8188,8211,8180,8240,3.931123971939087
35,8173,8200,8222,8264,8241,8158,8255,8163,8238,8269,8171,8185,8151,8207,3.9391279220581055
36,8195,8214,8229,8277,8255,8176,8273,8152,8241,8291,8186,8202,8154,8229,3.947003602981568
37,8203,8206,8222,8260,8273,8173,8266,8186,8218,8259,8190,8223,8182,8241,3.955061912536621
38,8157,8188,8208,8251,8289,8145,8261,8159,8227,8243,8161,8168,8153,8206,3.962055206298828
38,8157,8188,8208,8251,8289,8145,8261,8159,8227,8243,8161,8168,8153,8206,3.9630589485168457
39,8183,8185,8204,8247,8262,8186,8242,8179,8226,8240,8171,8184,8169,8187,3.970001697540283
40,8159,8187,8195,8244,8261,8155,8262,8147,8235,8262,8172,8163,8158,8183,3.978014469146729
41,8161,8184,8196,8243,8268,8155,8268,8159,8233,8248,8175,8169,8160,8195,3.986366271972656
42,8174,8177,8192,8235,8259,8166,8235,8191,8212,8210,8171,8197,8172,8178,3.993997097015381
43,8143,8185,8183,8243,8269,8143,8242,8134,8230,8227,8159,8153,8142,8158,4.002045392990112
44,8180,8187,8188,8238,8254,8176,8245,8168,8224,8225,8180,8188,8174,8190,4.010045051574707
45,8152,8185,8188,8235,8253,8149,8246,8169,8218,8231,8171,8174,8160,8191,4.018008708953857
46,8141,8190,8191,8242,8269,8153,8242,8153,8226,8242,8164,8161,8144,8176,4.024513244628906
47,8165,8183,8191,8230,8262,8172,8230,8171,8218,8225,8177,8197,8169,8183,4.032510995864868
47,8165,8183,8191,8230,8262,8172,8230,8171,8218,8225,8177,8197,8169,8183,4.033502817153931
48,8127,8177,8181,8229,8265,8133,8241,8138,8226,8231,8169,8163,8148,8194,4.041531801223755
49,8155,8172,8182,8225,8248,8167,8221,8180,8199,8212,8176,8183,8173,8189,4.049010038375855
50,8147,8174,8180,8225,8244,8157,8218,8167,8197,8214,8163,8173,8158,8162,4.05655837059021
51,8140,8184,8188,8235,8264,8150,8238,8140,8232,8241,8165,8165,8146,8183,4.064556837081909
51,8140,8184,8188,8235,8264,8150,8238,8140,8232,8241,8165,8165,8146,8183,4.06555438041687
52,8165,8181,8195,8236,8265,8168,8233,8186,8228,8233,8188,8197,8187,8204,4.073236703872681
53,8130,8178,8181,8237,8257,8134,8236,8150,8228,8253,8166,8153,8155,8174,4.081236362457275
54,8154,8170,8178,8211,8221,8167,8210,8153,8207,8248,8168,8173,8157,8162,4.088236093521118
55,8142,8154,8173,8197,8220,8161,8204,8155,8196,8224,8166,8173,8162,8165,4.096008062362671
56,8130,8158,8174,8223,8246,8153,8222,8156,8207,8221,8165,8154,8157,8171,4.103380918502808
56,8130,8158,8174,8223,8246,8153,8222,8156,8207,8221,8165,8154,8157,8171,4.104374408721924
57,8167,8163,8182,8230,8230,8183,8206,8188,8194,8207,8176,8190,8173,8164,4.11138129234314
57,8167,8163,8182,8230,8230,8183,8206,8188,8194,8207,8176,8190,8173,8164,4.112375736236572
58,8140,8165,8184,8234,8235,8151,8212,8129,8203,8213,8161,8150,8141,8149,4.120410680770874
59,8174,8178,8196,8238,8251,8172,8215,8153,8195,8200,8176,8168,8169,8177,4.128007173538208
60,8176,8186,8202,8241,8262,8162,8214,8181,8188,8195,8178,8183,8182,8196,4.1364359855651855
61,8144,8167,8185,8236,8247,8144,8196,8156,8184,8198,8162,8149,8153,8174,4.1443421840667725
62,8164,8132,8163,8184,8192,8178,8140,8190,8138,8156,8162,8164,8177,8134,4.151873350143433
63,8140,8142,8168,8179,8204,8160,8155,8154,8162,8180,8150,8133,8155,8123,4.158888578414917
64,8168,8173,8189,8220,8233,8183,8186,8163,8206,8225,8173,8164,8167,8163,4.167275667190552
65,8166,8165,8182,8212,8234,8166,8187,8177,8193,8219,8179,8182,8186,8169,4.1750078201293945
66,8134,8157,8188,8209,8243,8139,8191,8148,8187,8211,8170,8147,8166,8163,4.183204650878906
67,8171,8165,8203,8221,8231,8183,8174,8188,8188,8206,8184,8183,8183,8168,4.191232681274414
68,8139,8159,8188,8211,8224,8159,8181,8154,8201,8222,8157,8152,8151,8144,4.198828458786011
69,8139,8134,8181,8176,8213,8167,8170,8158,8173,8187,8154,8152,8162,8138,4.206826448440552
70,8151,8140,8190,8171,8208,8169,8158,8187,8157,8161,8168,8172,8179,8138,4.215007543563843
71,8135,8169,8199,8202,8224,8150,8182,8143,8202,8216,8161,8147,8145,8146,4.221970319747925
71,8135,8169,8199,8202,8224,8150,8182,8143,8202,8216,8161,8147,8145,8146,4.22255539894104
72,8167,8153,8193,8188,8196,8179,8161,8168,8177,8194,8167,8179,8176,8156,4.230009078979492
73,8131,8128,8163,8160,8182,8145,8143,8151,8140,8143,8148,8130,8160,8122,4.2380077838897705
74,8136,8151,8166,8171,8199,8163,8155,8150,8151,8164,8155,8125,8147,8111,4.246008634567261
75,8158,8173,8189,8187,8210,8177,8171,8168,8164,8201,8175,8172,8166,8134,4.25405216217041
76,8129,8170,8193,8192,8228,8138,8190,8140,8179,8217,8171,8145,8156,8158,4.263051271438599
76,8129,8170,8193,8192,8228,8138,8190,8140,8179,8217,8171,8145,8156,8158,4.264047145843506
77,8164,8166,8193,8192,8221,8168,8164,8188,8172,8191,8185,8173,8189,8160,4.270045280456543
78,8147,8173,8191,8198,8220,8155,8154,8160,8179,8197,8169,8151,8165,8126,4.278046131134033
79,8143,8174,8193,8192,8215,8159,8166,8142,8183,8208,8169,8142,8151,8137,4.285045146942139
80,8158,8155,8189,8179,8199,8172,8156,8185,8166,8180,8180,8172,8179,8157,4.293045282363892
81,8122,8153,8182,8195,8218,8145,8160,8148,8178,8182,8162,8135,8155,8136,4.3010454177856445
82,8159,8166,8192,8193,8214,8178,8155,8167,8170,8177,8174,8166,8172,8135,4.309045314788818
83,8149,8164,8187,8181,8201,8154,8150,8157,8147,8162,8165,8157,8160,8137,4.317049026489258
84,8132,8144,8170,8178,8184,8146,8132,8143,8119,8131,8147,8128,8143,8114,4.325046062469482
85,8158,8136,8169,8171,8169,8168,8125,8175,8113,8126,8156,8150,8164,8098,4.333045959472656
86,8143,8162,8187,8195,8204,8146,8182,8144,8177,8194,8161,8131,8146,8122,4.340385675430298
86,8143,8162,8187,8195,8204,8146,8182,8144,8177,8194,8161,8131,8146,8122,4.341383695602417
87,8170,8170,8199,8204,8207,8178,8186,8171,8180,8195,8181,8164,8177,8153,4.349386692047119
88,8149,8157,8192,8188,8192,8158,8156,8164,8146,8171,8173,8159,8176,8140,4.35639214515686
89,8143,8156,8194,8182,8189,8149,8144,8147,8148,8171,8168,8144,8158,8139,4.36350154876709
89,8143,8156,8194,8182,8189,8149,8144,8147,8148,8171,8168,8144,8158,8139,4.364508628845215
90,8172,8152,8188,8171,8167,8174,8127,8190,8136,8144,8176,8172,8180,8135,4.371508121490479
91,8126,8148,8176,8176,8166,8141,8133,8150,8140,8150,8156,8128,8148,8110,4.380007743835449
92,8147,8141,8186,8175,8148,8174,8116,8160,8131,8139,8172,8158,8158,8115,4.388007640838623
93,8156,8139,8185,8165,8137,8169,8118,8161,8133,8128,8176,8172,8157,8114,4.396027326583862
94,8152,8161,8193,8182,8160,8151,8158,8141,8161,8169,8171,8157,8145,8132,4.404026985168457
95,8190,8185,8215,8196,8177,8176,8161,8183,8157,8180,8188,8207,8186,8164,4.41100811958313
96,8157,8183,8206,8201,8182,8144,8148,8148,8147,8161,8174,8172,8163,8147,4.419039249420166
97,8176,8164,8201,8200,8154,8169,8124,8164,8116,8135,8176,8174,8166,8125,4.427007675170898
98,8187,8174,8212,8213,8157,8177,8146,8173,8133,8161,8177,8187,8164,8131,4.434758186340332
99,8165,8197,8213,8228,8189,8159,8179,8128,8177,8198,8174,8158,8139,8145,4.442789793014526
100,8183,8173,8192,8202,8170,8179,8137,8170,8131,8146,8178,8179,8178,8133,4.450787782669067
101,8147,8157,8181,8201,8176,8147,8130,8162,8121,8129,8156,8148,8160,8108,4.459008693695068
102,8165,8182,8201,8217,8182,8166,8145,8164,8161,8155,8168,8164,8154,8128,4.467007875442505
103,8175,8187,8201,8201,8162,8166,8143,8167,8161,8151,8174,8175,8170,8141,4.475002765655518
104,8150,8181,8190,8203,8184,8144,8151,8145,8148,8148,8165,8140,8161,8133,4.482015132904053
105,8185,8190,8199,8218,8194,8182,8151,8194,8154,8156,8186,8182,8183,8134,4.490016222000122
106,8153,8190,8192,8218,8187,8154,8177,8157,8188,8190,8168,8151,8149,8127,4.498007535934448
107,8148,8170,8177,8199,8183,8158,8170,8151,8166,8172,8162,8142,8157,8134,4.506027936935425
108,8156,8158,8174,8187,8189,8167,8146,8187,8134,8137,8166,8165,8179,8115,4.514027118682861
109,8129,8172,8177,8198,8199,8151,8169,8150,8175,8167,8150,8132,8142,8094,4.521970987319946
110,8163,8169,8175,8184,8170,8183,8164,8170,8167,8160,8168,8163,8173,8120,4.530042886734009
111,8131,8147,8163,8164,8161,8150,8140,8147,8125,8130,8162,8138,8165,8115,4.538254499435425
112,8121,8132,8156,8155,8150,8156,8105,8149,8099,8095,8154,8123,8149,8079,4.545498847961426
113,8148,8140,8152,8153,8135,8175,8099,8176,8095,8082,8164,8148,8166,8073,4.552503347396851
113,8148,8140,8152,8153,8135,8175,8099,8176,8095,8082,8164,8148,8166,8073,4.553581714630127
114,8129,8164,8162,8175,8170,8144,8142,8131,8128,8131,8169,8121,8150,8106,4.561007738113403
114,8129,8164,8162,8175,8170,8144,8142,8131,8128,8131,8169,8121,8150,8106,4.561583995819092
115,8150,8151,8173,8165,8163,8172,8120,8171,8124,8120,8180,8153,8177,8117,4.568804025650024
116,8118,8131,8160,8149,8141,8154,8095,8168,8127,8107,8155,8134,8155,8067,4.5767982006073
117,8124,8143,8162,8159,8147,8160,8119,8147,8149,8134,8155,8124,8144,8065,4.584798336029053
118,8153,8147,8163,8151,8149,8179,8127,8173,8133,8129,8173,8159,8177,8096,4.592794895172119
119,8112,8147,8154,8150,8162,8146,8129,8146,8129,8123,8152,8119,8150,8082,4.600263357162476
119,8112,8147,8154,8150,8162,8146,8129,8146,8129,8123,8152,8119,8150,8082,4.601269245147705
120,8144,8157,8165,8156,8157,8180,8120,8180,8133,8125,8167,8145,8168,8075,4.609270334243774
121,8133,8162,8169,8151,8157,8168,8138,8166,8153,8144,8172,8140,8163,8082,4.616270542144775
122,8118,8158,8168,8148,8163,8157,8143,8142,8154,8146,8161,8121,8149,8090,4.624007701873779
123,8149,8155,8163,8146,8157,8174,8108,8186,8120,8117,8164,8154,8179,8076,4.63197135925293
124,8118,8165,8155,8159,8163,8141,8117,8149,8128,8127,8155,8121,8152,8053,4.640008211135864
125,8137,8164,8159,8159,8145,8175,8118,8157,8120,8123,8171,8144,8161,8061,4.64799165725708
126,8128,8155,8157,8155,8151,8169,8129,8159,8114,8120,8166,8142,8161,8063,4.655514478683472
127,8119,8161,8155,8157,8182,8156,8152,8145,8123,8134,8161,8126,8152,8076,4.664007663726807
127,8119,8161,8155,8157,8182,8156,8152,8145,8123,8134,8161,8126,8152,8076,4.66456151008606
241,8153,8160,8156,8145,8173,8179,8134,8189,8110,8120,8178,8164,8179,8083,4.671964883804321
0,8128,8165,8162,8156,8170,8152,8138,8152,8146,8152,8168,8125,8144,8067,4.680008172988892
1,8153,8168,8175,8155,8157,8180,8137,8160,8157,8170,8179,8147,8160,8078,4.686783790588379
2,8144,8152,8158,8133,8151,8165,8122,8172,8129,8145,8174,8149,8174,8078,4.694783687591553
3,8114,8147,8143,8137,8173,8148,8112,8153,8129,8134,8157,8107,8152,8062,4.702790975570679
3,8114,8147,8143,8137,8173,8148,8112,8153,8129,8134,8157,8107,8152,8062,4.703805208206177
4,8145,8146,8156,8139,8161,8185,8104,8182,8125,8119,8166,8148,8174,8054,4.710811376571655
5,8117,8136,8155,8138,8150,8149,8130,8137,8125,8128,8153,8124,8145,8053,4.719008445739746
6,8125,8124,8140,8123,8144,8166,8114,8151,8091,8101,8158,8122,8158,8059,4.72686505317688
7,8121,8127,8136,8119,8143,8169,8086,8173,8070,8076,8156,8132,8171,8031,4.734794616699219
8,8103,8143,8151,8145,8156,8147,8114,8137,8114,8115,8152,8114,8142,8035,4.743091106414795
8,8103,8143,8151,8145,8156,8147,8114,8137,8114,8115,8152,8114,8142,8035,4.74406361579895
9,8143,8143,8162,8143,8151,8177,8117,8180,8115,8120,8178,8159,8178,8077,4.7500762939453125
10,8110,8139,8157,8136,8157,8151,8107,8159,8101,8109,8158,8127,8166,8055,4.758587837219238
11,8124,8142,8162,8147,8144,8169,8099,8154,8096,8102,8157,8121,8157,8035,4.765987396240234
12,8148,8143,8161,8150,8133,8175,8106,8173,8100,8109,8174,8144,8164,8054,4.773996353149414
13,8122,8153,8157,8156,8166,8145,8119,8142,8120,8133,8172,8127,8150,8070,4.7819905281066895
14,8153,8161,8172,8164,8163,8180,8091,8177,8106,8124,8181,8169,8180,8062,4.789985656738281
15,8131,8169,8177,8173,8149,8160,8105,8151,8118,8143,8165,8138,8150,8047,4.797989845275879
16,8137,8173,8179,8174,8153,8164,8124,8154,8135,8156,8176,8144,8155,8082,4.8060832023620605
17,8149,8166,8179,8170,8162,8173,8109,8191,8117,8130,8186,8182,8189,8098,4.814003944396973
18,8118,8171,8185,8187,8173,8149,8120,8147,8129,8150,8168,8141,8149,8071,4.8210108280181885
19,8162,8183,8200,8193,8160,8178,8128,8171,8140,8163,8186,8171,8164,8083,4.829009056091309
20,8158,8186,8198,8198,8183,8151,8140,8161,8149,8162,8183,8168,8165,8108,4.837032318115234
21,8161,8191,8203,8215,8209,8159,8136,8167,8151,8161,8184,8168,8163,8134,4.8452324867248535
22,8176,8188,8205,8209,8186,8178,8114,8200,8147,8156,8190,8189,8179,8127,4.853405952453613
23,8135,8181,8193,8203,8173,8143,8107,8149,8154,8162,8173,8137,8148,8089,4.861008644104004
24,8168,8179,8194,8203,8152,8173,8083,8174,8121,8134,8185,8166,8166,8078,4.868422031402588
24,8168,8179,8194,8203,8152,8173,8083,8174,8121,8134,8185,8166,8166,8078,4.869416236877441
25,8165,8184,8197,8212,8162,8156,8105,8166,8127,8149,8178,8164,8154,8080,4.876415729522705
26,8157,8180,8188,8211,8183,8153,8141,8145,8151,8172,8173,8143,8153,8093,4.884453535079956
27,8172,8153,8175,8180,8168,8172,8126,8180,8113,8133,8180,8166,8183,8087,4.892472743988037
28,8137,8154,8173,8184,8174,8143,8125,8147,8112,8132,8162,8129,8140,8059,4.899786472320557
29,8162,8165,8173,8186,8164,8180,8120,8170,8130,8137,8173,8153,8151,8060,4.907637119293213
30,8146,8150,8156,8170,8169,8165,8125,8163,8137,8142,8175,8156,8163,8062,4.915637254714966
31,8134,8141,8157,8176,8189,8147,8134,8151,8137,8152,8173,8145,8157,8076,4.924007177352905
32,8173,8154,8175,8178,8168,8175,8113,8199,8138,8139,8180,8177,8178,8082,4.932068824768066
33,8143,8167,8176,8185,8176,8154,8130,8154,8175,8164,8163,8134,8145,8070,4.93900728225708
34,8170,8159,8174,8177,8187,8183,8142,8166,8157,8165,8182,8161,8167,8092,4.947047472000122
35,8174,8156,8169,8161,8180,8165,8134,8181,8127,8147,8180,8168,8174,8097,4.954547166824341
36,8142,8158,8158,8161,8169,8147,8130,8152,8140,8140,8153,8123,8142,8070,4.96254825592041
37,8159,8138,8138,8140,8148,8183,8122,8176,8123,8108,8162,8153,8162,8049,4.97100830078125
38,8126,8128,8132,8125,8171,8149,8142,8146,8125,8111,8154,8132,8147,8045,4.979007720947266
39,8151,8144,8158,8139,8190,8167,8134,8180,8143,8123,8165,8154,8167,8074,4.98700761795044
40,8170,8174,8174,8174,8195,8170,8143,8195,8178,8157,8174,8165,8172,8090,4.994767427444458
40,8170,8174,8174,8174,8195,8170,8143,8195,8178,8157,8174,8165,8172,8090,4.995768785476685
41,8161,8193,8183,8198,8211,8154,8189,8147,8218,8211,8172,8140,8147,8104,5.002856969833374
42,8186,8171,8183,8171,8196,8181,8174,8188,8182,8184,8185,8180,8179,8110,5.00985860824585
43,8141,8154,8165,8158,8188,8143,8167,8169,8168,8168,8165,8138,8153,8083,5.018002986907959
44,8159,8170,8172,8175,8183,8165,8189,8167,8205,8202,8175,8148,8160,8093,5.026002883911133
45,8184,8185,8184,8183,8196,8181,8213,8183,8239,8232,8188,8186,8182,8119,5.033434629440308
45,8184,8185,8184,8183,8196,8181,8213,8183,8239,8232,8188,8186,8182,8119,5.034428358078003
46,8160,8182,8173,8179,8231,8155,8227,8158,8246,8229,8175,8147,8154,8120,5.04145097732544
46,8160,8182,8173,8179,8231,8155,8227,8158,8246,8229,8175,8147,8154,8120,5.042446851730347
47,8184,8175,8167,8169,8219,8183,8197,8196,8204,8182,8182,8164,8178,8110,5.050007581710815
47,8184,8175,8167,8169,8219,8183,8197,8196,8204,8182,8182,8164,8178,8110,5.050450325012207
48,8156,8182,8171,8187,8218,8160,8211,8160,8221,8190,8168,8144,8155,8095,5.058001518249512
49,8172,8185,8180,8195,8227,8169,8229,8155,8241,8208,8177,8160,8157,8109,5.065960168838501
50,8183,8171,8176,8170,8217,8173,8203,8188,8207,8185,8178,8177,8179,8108,5.072957754135132
51,8150,8176,8176,8179,8224,8150,8202,8158,8215,8187,8158,8127,8145,8098,5.080960750579834
52,8196,8197,8195,8202,8225,8193,8204,8186,8240,8197,8183,8176,8169,8116,5.089025259017944
53,8190,8200,8197,8205,8235,8169,8227,8162,8257,8231,8185,8180,8165,8131,5.097033500671387
54,8190,8189,8193,8195,8237,8165,8228,8166,8241,8235,8182,8175,8166,8147,5.104799509048462
54,8190,8189,8193,8195,8237,8165,8228,8166,8241,8235,8182,8175,8166,8147,5.105306148529053
55,8195,8182,8187,8183,8233,8176,8199,8205,8224,8208,8184,8188,8178,8129,5.113313674926758
56,8156,8190,8182,8193,8248,8156,8219,8162,8253,8240,8171,8144,8148,8112,5.121379137039185
57,8195,8195,8192,8190,8224,8193,8234,8186,8238,8239,8186,8179,8175,8141,5.12937593460083
58,8184,8192,8190,8182,8219,8165,8241,8168,8217,8212,8176,8170,8162,8145,5.137421131134033
59,8171,8183,8180,8181,8235,8159,8231,8154,8215,8204,8172,8158,8151,8134,5.143534660339356
60,8189,8164,8172,8163,8213,8174,8208,8199,8195,8181,8176,8180,8181,8114,5.151549339294434
61,8157,8171,8170,8166,8214,8139,8217,8163,8198,8173,8159,8134,8148,8085,5.160010814666748
62,8184,8180,8174,8175,8214,8177,8211,8178,8196,8163,8176,8164,8157,8090,5.168010711669922
63,8175,8169,8167,8176,8225,8166,8226,8169,8218,8185,8174,8163,8154,8103,5.176056861877441
64,8174,8173,8176,8184,8240,8156,8234,8162,8236,8205,8177,8151,8155,8125,5.184697866439819
65,8207,8187,8191,8189,8223,8184,8211,8209,8227,8194,8197,8191,8189,8130,5.191582679748535
66,8171,8196,8195,8210,8245,8155,8238,8161,8268,8244,8183,8154,8153,8125,5.199596405029297
67,8200,8198,8200,8215,8258,8175,8252,8175,8274,8275,8196,8184,8175,8157,5.206596612930298
67,8200,8198,8200,8215,8258,8175,8252,8175,8274,8275,8196,8184,8175,8157,5.207593679428101
68,8201,8195,8193,8206,8251,8161,8247,8188,8253,8257,8194,8189,8184,8157,5.215012073516846
69,8181,8187,8188,8206,8255,8159,8249,8166,8264,8235,8178,8154,8156,8126,5.223010301589966
70,8212,8178,8190,8193,8239,8193,8238,8193,8262,8212,8184,8187,8171,8121,5.230766534805298
71,8183,8183,8185,8189,8236,8151,8251,8155,8261,8222,8170,8162,8147,8126,5.239315509796143
72,8198,8175,8188,8190,8227,8169,8242,8182,8230,8192,8181,8181,8171,8128,5.247325420379639
73,8183,8161,8187,8185,8221,8172,8222,8188,8214,8168,8173,8175,8167,8103,5.254865407943726
74,8167,8174,8190,8193,8220,8162,8228,8145,8242,8205,8158,8152,8137,8113,5.262924909591675
75,8222,8185,8208,8199,8217,8187,8222,8192,8238,8213,8190,8215,8188,8159,5.271012306213379
76,8195,8187,8215,8208,8251,8152,8239,8176,8243,8226,8190,8186,8173,8156,5.27801251411438
77,8203,8191,8215,8210,8248,8176,8255,8182,8255,8247,8188,8188,8163,8144,5.2860095500946045
78,8209,8188,8209,8207,8234,8172,8265,8181,8258,8257,8188,8206,8173,8151,5.294002294540405
79,8176,8189,8203,8216,8256,8147,8269,8148,8243,8257,8185,8175,8157,8161,5.301995515823364
80,8201,8188,8198,8206,8236,8191,8233,8200,8201,8222,8191,8200,8181,8146,5.309988737106323
81,8185,8187,8193,8212,8223,8169,8241,8167,8236,8244,8169,8170,8155,8124,5.318007946014404
82,8203,8179,8196,8209,8229,8177,8244,8160,8257,8264,8185,8179,8163,8148,5.326007843017578
83,8194,8162,8181,8177,8233,8172,8217,8186,8209,8220,8184,8188,8182,8140,5.334104061126709
84,8157,8160,8172,8177,8230,8143,8217,8149,8201,8194,8156,8137,8147,8099,5.341119766235352
85,8200,8159,8182,8180,8189,8186,8200,8178,8195,8180,8174,8166,8168,8087,5.349125623703003
86,8178,8161,8187,8185,8192,8166,8206,8153,8203,8201,8172,8149,8153,8096,5.357731819152832
87,8182,8160,8196,8194,8206,8165,8205,8155,8201,8201,8175,8158,8160,8127,5.364730358123779
88,8196,8149,8189,8177,8177,8172,8169,8186,8169,8175,8175,8180,8179,8112,5.372732162475586
89,8168,8159,8190,8186,8180,8153,8171,8145,8179,8215,8165,8148,8146,8093,5.381160974502564
90,8211,8173,8215,8205,8197,8185,8178,8179,8192,8234,8198,8200,8181,8138,5.389166593551636
91,8187,8167,8214,8204,8213,8150,8172,8167,8187,8217,8190,8176,8174,8141,5.397166728973389
92,8174,8161,8204,8195,8193,8160,8143,8156,8159,8208,8177,8155,8163,8109,5.40416693687439
93,8192,8157,8201,8180,8158,8191,8135,8178,8144,8199,8188,8194,8184,8099,5.412166595458984
94,8165,8171,8205,8188,8184,8155,8178,8138,8183,8204,8185,8166,8156,8118,5.420169115066528
95,8197,8188,8217,8198,8197,8178,8175,8183,8171,8190,8203,8202,8186,8146,5.42816972732544
96,8181,8187,8213,8199,8188,8159,8161,8179,8136,8180,8195,8195,8176,8128,5.436008453369141
97,8179,8175,8219,8202,8186,8158,8164,8158,8141,8177,8197,8184,8156,8126,5.444007635116577
98,8212,8165,8223,8197,8174,8183,8151,8194,8152,8184,8208,8215,8184,8138,5.451659917831421
99,8180,8180,8221,8209,8166,8156,8156,8152,8184,8225,8188,8174,8156,8120,5.460165500640869
100,8207,8188,8241,8216,8157,8189,8146,8176,8189,8220,8201,8203,8177,8128,5.467168569564819
101,8199,8176,8247,8210,8181,8173,8153,8175,8175,8227,8201,8201,8173,8140,5.475218057632446
102,8189,8175,8243,8215,8197,8161,8168,8144,8163,8241,8200,8182,8154,8142,5.4832165241241455
103,8229,8184,8247,8220,8176,8193,8163,8183,8159,8221,8216,8223,8186,8149,5.491009950637817
104,8206,8189,8247,8225,8188,8165,8191,8153,8198,8252,8200,8188,8164,8164,5.498998165130615
105,8222,8182,8238,8211,8178,8189,8185,8176,8186,8239,8202,8206,8178,8178,5.507009267807007
106,8213,8190,8238,8214,8182,8179,8174,8189,8174,8202,8199,8214,8179,8159,5.514932870864868
107,8198,8200,8245,8229,8232,8166,8182,8157,8195,8217,8190,8183,8155,8144,5.52292537689209
108,8226,8183,8231,8200,8205,8195,8154,8180,8171,8205,8196,8203,8173,8133,5.529926538467407
109,8196,8176,8221,8192,8160,8162,8167,8150,8183,8202,8178,8170,8149,8131,5.538010597229004
110,8217,8175,8236,8198,8171,8188,8176,8173,8180,8191,8187,8193,8175,8159,5.545501470565796
111,8209,8168,8240,8192,8197,8185,8155,8178,8154,8178,8187,8201,8181,8148,5.553642272949219
112,8188,8174,8246,8209,8175,8170,8157,8134,8172,8187,8178,8174,8146,8130,5.561642169952393
113,8226,8164,8240,8198,8133,8208,8141,8165,8151,8158,8189,8206,8170,8131,5.56980562210083
114,8193,8149,8226,8182,8177,8160,8142,8142,8121,8155,8174,8172,8157,8129,5.577813625335693
115,8220,8155,8249,8194,8185,8174,8150,8177,8116,8167,8197,8200,8176,8160,5.585865259170532
116,8244,8163,8262,8202,8153,8196,8159,8195,8134,8170,8204,8222,8183,8163,5.59379506111145
117,8209,8173,8247,8205,8202,8171,8177,8136,8157,8197,8182,8179,8140,8158,5.600810527801514
118,8244,8177,8249,8198,8219,8193,8163,8180,8134,8192,8205,8220,8179,8190,5.608808755874634
119,8227,8167,8249,8199,8197,8159,8151,8168,8123,8183,8191,8194,8174,8188,5.617008447647095
120,8222,8162,8241,8199,8172,8169,8128,8163,8123,8166,8180,8187,8169,8166,5.62500786781311
121,8223,8163,8236,8186,8141,8184,8119,8183,8131,8150,8191,8207,8173,8144,5.633007764816284
122,8201,8153,8231,8187,8141,8168,8142,8141,8162,8172,8182,8169,8139,8131,5.640852451324463
123,8243,8134,8232,8176,8153,8207,8138,8173,8144,8166,8186,8203,8171,8138,5.64887261390686
124,8222,8143,8232,8176,8178,8177,8165,8146,8120,8159,8176,8186,8162,8133,5.656744003295898
125,8225,8152,8233,8189,8168,8172,8182,8140,8097,8142,8186,8181,8166,8139,5.664008378982544
126,8241,8141,8228,8185,8134,8182,8146,8184,8073,8123,8191,8209,8191,8134,5.671971797943115
127,8219,8156,8239,8207,8151,8162,8140,8151,8102,8172,8176,8177,8155,8132,5.680008411407471
241,8267,8183,8262,8232,8173,8204,8137,8177,8127,8200,8205,8215,8177,8165,5.6880083084106445
0,8245,8192,8249,8237,8205,8174,8149,8168,8158,8202,8204,8205,8175,8175,5.695435047149658
0,8245,8192,8249,8237,8205,8174,8149,8168,8158,8202,8204,8205,8175,8175,5.696430206298828
1,8223,8186,8224,8225,8208,8167,8151,8172,8168,8186,8190,8186,8166,8163,5.703433990478516
2,8232,8158,8203,8194,8172,8193,8123,8203,8137,8140,8175,8194,8170,8121,5.711971282958984
3,8196,8146,8195,8193,8188,8161,8146,8140,8160,8150,8153,8152,8133,8096,5.720008611679077
4,8234,8160,8207,8194,8192,8186,8169,8175,8176,8160,8187,8198,8172,8134,5.72800874710083
5,8229,8163,8213,8187,8172,8167,8169,8194,8173,8155,8187,8191,8176,8145,5.735008239746094
6,8222,8164,8224,8202,8174,8172,8160,8159,8174,8165,8177,8167,8155,8135,5.743007659912109
7,8256,8178,8230,8214,8177,8203,8151,8168,8157,8161,8195,8213,8180,8148,5.751030445098877
8,8222,8187,8220,8223,8189,8157,8173,8136,8154,8169,8184,8183,8156,8164,5.758572578430176
9,8240,8173,8224,8219,8180,8176,8148,8180,8126,8154,8189,8200,8181,8174,5.767008304595947
10,8239,8172,8234,8226,8185,8174,8119,8182,8134,8166,8179,8202,8178,8156,5.775008678436279
11,8230,8191,8231,8243,8194,8174,8112,8139,8169,8195,8171,8179,8148,8156,5.781972169876099
12,8260,8187,8212,8225,8181,8196,8091,8173,8129,8158,8184,8209,8176,8162,5.791614532470703
13,8219,8179,8198,8214,8205,8149,8111,8153,8112,8138,8167,8170,8157,8130,5.7983458042144775
14,8227,8180,8199,8205,8195,8178,8113,8173,8121,8122,8175,8183,8167,8106,5.80635404586792
15,8222,8172,8185,8195,8163,8184,8120,8161,8129,8116,8169,8188,8164,8092,5.813350677490234
15,8222,8172,8185,8195,8163,8184,8120,8161,8129,8116,8169,8188,8164,8092,5.81435227394104
16,8210,8162,8173,8192,8165,8170,8154,8130,8126,8121,8160,8160,8150,8104,5.821351051330566
16,8210,8162,8173,8192,8165,8170,8154,8130,8126,8121,8160,8160,8150,8104,5.822359085083008
17,8251,8153,8175,8173,8160,8192,8138,8187,8083,8081,8172,8188,8188,8109,5.830351829528809
18,8224,8161,8174,8178,8157,8151,8139,8148,8096,8083,8154,8150,8152,8083,5.8373963832855225
19,8249,8169,8187,8193,8140,8174,8140,8145,8109,8095,8167,8175,8153,8098,5.846007585525513
20,8261,8164,8198,8201,8152,8176,8129,8168,8101,8102,8187,8202,8179,8130,5.853903293609619
21,8241,8174,8201,8223,8185,8150,8119,8149,8130,8139,8190,8171,8166,8142,5.861008167266846
22,8276,8181,8201,8225,8164,8185,8082,8189,8142,8143,8200,8201,8184,8132,5.869096755981445
23,8248,8178,8195,8225,8167,8165,8090,8153,8163,8164,8175,8172,8152,8119,5.877089977264404
24,8262,8181,8195,8229,8195,8185,8109,8161,8172,8175,8184,8189,8165,8147,5.885108709335327
25,8268,8182,8189,8219,8205,8183,8122,8190,8158,8156,8192,8206,8185,8146,5.892993688583374
26,8231,8176,8183,8208,8204,8149,8164,8152,8161,8153,8167,8160,8152,8127,5.900812864303589
27,8267,8157,8179,8180,8173,8185,8165,8191,8138,8113,8175,8202,8184,8124,5.90937089920044
28,8239,8148,8161,8169,8166,8161,8158,8166,8131,8091,8159,8174,8162,8090,5.917372465133667
29,8228,8155,8158,8181,8153,8177,8151,8148,8130,8095,8157,8156,8151,8076,5.925413370132446
30,8252,8162,8177,8186,8130,8190,8152,8166,8130,8098,8171,8194,8178,8098,5.93307375907898
31,8236,8175,8192,8202,8161,8148,8172,8139,8150,8125,8168,8173,8163,8111,5.940002918243408
32,8266,8183,8195,8208,8162,8180,8138,8188,8136,8124,8184,8202,8187,8110,5.948013544082642
33,8243,8192,8199,8222,8168,8165,8130,8172,8162,8147,8170,8185,8163,8104,5.956102132797241
34,8249,8205,8217,8241,8203,8169,8144,8161,8207,8185,8180,8192,8163,8140,5.964007616043091
35,8268,8195,8208,8225,8203,8179,8115,8205,8195,8182,8197,8224,8195,8151,5.971970319747925
36,8216,8186,8181,8213,8195,8145,8113,8166,8193,8177,8173,8170,8156,8109,5.979716062545776
37,8238,8182,8174,8199,8167,8186,8130,8173,8165,8137,8176,8190,8169,8086,5.988095045089722
38,8226,8174,8170,8184,8159,8165,8155,8152,8124,8109,8166,8173,8163,8078,5.995096445083618
39,8214,8168,8168,8186,8163,8153,8157,8152,8104,8102,8160,8153,8153,8080,6.003007888793945
40,8234,8171,8172,8192,8152,8181,8148,8185,8111,8094,8172,8189,8179,8077,6.011025428771973
41,8208,8195,8183,8222,8182,8162,8184,8129,8164,8144,8171,8165,8155,8094,6.019029140472412
41,8208,8195,8183,8222,8182,8162,8184,8129,8164,8144,8171,8165,8155,8094,6.019458055496216
42,8250,8204,8199,8234,8196,8187,8185,8177,8167,8165,8198,8201,8186,8138,6.0263495445251465
43,8244,8193,8195,8227,8187,8164,8161,8201,8163,8158,8188,8196,8183,8125,6.034504175186157
44,8230,8200,8190,8232,8181,8160,8161,8168,8210,8181,8176,8175,8158,8115,6.042513132095337
45,8256,8200,8189,8219,8178,8188,8162,8198,8232,8204,8196,8209,8188,8139,6.051309585571289
46,8205,8182,8173,8203,8195,8151,8165,8167,8230,8219,8174,8161,8162,8125,6.058003187179565
47,8213,8167,8162,8189,8167,8183,8125,8185,8190,8169,8169,8174,8164,8088,6.066007852554321
48,8211,8164,8156,8178,8143,8174,8130,8169,8171,8137,8165,8174,8158,8066,6.074027061462402
49,8198,8167,8158,8174,8155,8154,8183,8124,8163,8141,8157,8148,8142,8078,6.082025527954102
50,8230,8159,8163,8164,8149,8187,8177,8170,8111,8097,8170,8195,8179,8089,6.090008497238159
51,8196,8162,8164,8174,8160,8152,8168,8155,8115,8093,8158,8170,8155,8076,6.098008394241333
52,8222,8179,8183,8188,8156,8173,8159,8175,8135,8112,8169,8186,8168,8085,6.105515003204346
52,8222,8179,8183,8188,8156,8173,8159,8175,8135,8112,8169,8186,8168,8085,6.10650897026062
53,8234,8196,8191,8202,8148,8174,8158,8171,8140,8125,8170,8199,8171,8090,6.1135101318359375
54,8205,8196,8183,8215,8173,8155,8162,8127,8151,8137,8164,8169,8154,8099,6.120508193969727
55,8236,8182,8185,8202,8180,8185,8126,8185,8141,8118,8183,8208,8196,8116,6.1285810470581055
56,8220,8200,8192,8218,8201,8157,8138,8178,8186,8168,8175,8186,8161,8116,6.136578559875488
57,8236,8212,8198,8232,8203,8179,8163,8180,8228,8215,8186,8198,8163,8138,6.145251512527466
58,8225,8184,8188,8206,8177,8175,8170,8181,8208,8195,8179,8201,8184,8134,6.153181314468384
59,8189,8174,8180,8196,8179,8154,8193,8139,8179,8174,8161,8157,8156,8115,6.16100811958313
59,8189,8174,8180,8196,8179,8154,8193,8139,8179,8174,8161,8157,8156,8115,6.161658763885498
60,8231,8182,8191,8195,8184,8193,8191,8181,8126,8131,8183,8200,8183,8125,6.169229030609131
61,8211,8188,8202,8211,8196,8153,8195,8151,8117,8133,8174,8174,8165,8122,6.177285671234131
62,8224,8198,8215,8236,8189,8162,8193,8146,8132,8154,8181,8173,8163,8129,6.185285329818726
63,8235,8202,8208,8232,8174,8180,8180,8163,8121,8140,8182,8186,8173,8127,6.19236159324646
64,8196,8194,8192,8227,8200,8155,8184,8122,8120,8128,8155,8140,8144,8125,6.200008630752564
65,8231,8190,8193,8221,8202,8188,8152,8176,8115,8107,8167,8178,8179,8138,6.208008050918579
66,8221,8205,8202,8235,8198,8163,8143,8174,8167,8144,8169,8171,8169,8131,6.2161619663238525
67,8233,8213,8212,8248,8199,8168,8158,8168,8228,8199,8183,8178,8170,8149,6.224149942398071
68,8244,8196,8197,8225,8199,8175,8155,8201,8226,8198,8188,8195,8194,8160,6.231971979141235
69,8197,8183,8175,8212,8206,8149,8162,8169,8222,8197,8156,8133,8155,8129,6.240008354187012
70,8223,8174,8175,8201,8170,8191,8166,8191,8191,8188,8166,8166,8169,8120,6.2480082511901855
71,8207,8172,8180,8199,8167,8166,8199,8157,8166,8189,8173,8173,8163,8128,6.25455904006958
72,8203,8174,8188,8206,8178,8162,8188,8138,8131,8163,8178,8165,8159,8127,6.262562990188599
73,8221,8169,8191,8201,8150,8186,8136,8174,8088,8114,8179,8188,8178,8104,6.27123498916626
74,8184,8178,8191,8214,8166,8152,8157,8131,8108,8131,8160,8158,8146,8103,6.279009580612183
75,8209,8183,8189,8206,8182,8177,8153,8163,8104,8124,8171,8188,8174,8118,6.286592721939087
75,8209,8183,8189,8206,8182,8177,8153,8163,8104,8124,8171,8188,8174,8118,6.28762412071228
76,8196,8178,8173,8196,8183,8161,8128,8171,8109,8114,8161,8163,8168,8088,6.295051574707031
77,8199,8190,8176,8214,8190,8165,8135,8163,8162,8150,8165,8140,8150,8088,6.303059816360474
78,8241,8197,8189,8212,8182,8189,8134,8207,8191,8171,8185,8190,8183,8120,6.311008930206299
79,8210,8193,8183,8208,8190,8145,8146,8175,8208,8187,8165,8158,8162,8122,6.318006992340088
80,8237,8194,8185,8211,8183,8177,8162,8194,8198,8177,8176,8178,8175,8116,6.32597804069519
81,8239,8200,8194,8211,8192,8179,8217,8180,8209,8207,8181,8188,8171,8121,6.333978176116943
82,8234,8204,8207,8217,8208,8171,8263,8155,8222,8249,8184,8184,8163,8158,6.341971397399902
83,8268,8197,8211,8220,8182,8192,8230,8196,8176,8206,8190,8217,8190,8170,6.350008249282837
84,8232,8194,8207,8232,8188,8154,8210,8139,8161,8188,8164,8173,8148,8135,6.358010292053223
85,8257,8199,8215,8234,8206,8180,8206,8143,8150,8192,8182,8206,8165,8147,6.366288900375366
86,8259,8201,8213,8229,8222,8170,8200,8166,8138,8177,8190,8220,8180,8167,6.374242544174194
87,8229,8203,8204,8235,8225,8154,8178,8148,8138,8163,8171,8177,8152,8149,6.381972074508667
88,8253,8200,8200,8223,8181,8190,8128,8181,8124,8150,8177,8210,8173,8128,6.3892598152160645
88,8253,8200,8200,8223,8181,8190,8128,8181,8124,8150,8177,8210,8173,8128,6.389358282089233
89,8229,8209,8206,8227,8193,8159,8136,8145,8171,8199,8172,8194,8158,8136,6.396371364593506
89,8229,8209,8206,8227,8193,8159,8136,8145,8171,8199,8172,8194,8158,8136,6.397365570068359
90,8250,8209,8214,8229,8218,8175,8150,8179,8224,8228,8191,8210,8180,8172,6.404371738433838
91,8234,8180,8191,8201,8205,8176,8160,8211,8248,8222,8186,8208,8178,8153,6.413007974624634
92,8195,8169,8175,8195,8199,8158,8198,8161,8270,8244,8161,8170,8139,8117,6.421009302139282
93,8233,8163,8177,8186,8189,8187,8207,8180,8236,8232,8179,8205,8176,8126,6.429407358169556
94,8199,8150,8169,8182,8193,8153,8222,8154,8209,8212,8171,8170,8164,8119,6.43700909614563
95,8201,8146,8171,8185,8175,8176,8201,8165,8190,8178,8169,8171,8162,8105,6.44500470161438
96,8215,8147,8171,8175,8152,8184,8168,8175,8170,8157,8170,8202,8167,8097,6.4519124031066895
97,8194,8143,8165,8170,8164,8148,8172,8124,8156,8161,8159,8183,8146,8107,6.45942234992981
97,8194,8143,8165,8170,8164,8148,8172,8124,8156,8161,8159,8183,8146,8107,6.460421800613403
98,8220,8135,8167,8157,8151,8176,8123,8164,8086,8107,8172,8218,8180,8111,6.467422008514404
99,8187,8144,8162,8158,8141,8155,8072,8150,8062,8076,8150,8175,8148,8068,6.475438833236694
100,8197,8153,8157,8160,8136,8173,8068,8152,8117,8093,8150,8165,8142,8061,6.483438491821289
101,8213,8142,8152,8139,8131,8180,8098,8182,8166,8117,8169,8200,8182,8083,6.491440057754517
102,8169,8137,8150,8135,8141,8141,8141,8151,8202,8142,8156,8162,8163,8083,6.499439239501953
102,8169,8137,8150,8135,8141,8141,8141,8151,8202,8142,8156,8162,8163,8083,6.500439405441284
103,8192,8131,8147,8121,8114,8179,8150,8195,8198,8124,8163,8182,8178,8074,6.507440328598023
104,8178,8132,8140,8116,8112,8168,8177,8172,8200,8140,8155,8162,8153,8062,6.515438795089722
105,8188,8136,8149,8119,8127,8172,8187,8143,8186,8160,8160,8164,8148,8078,6.522440195083618
106,8208,8129,8157,8114,8115,8179,8162,8167,8147,8139,8165,8197,8180,8087,6.531009197235107
107,8174,8132,8161,8132,8119,8146,8172,8135,8146,8146,8157,8159,8158,8094,6.539048194885254
108,8216,8140,8174,8143,8122,8182,8162,8180,8130,8133,8186,8197,8186,8123,6.547048330307007
109,8199,8139,8171,8147,8151,8155,8141,8172,8122,8125,8171,8190,8174,8107,6.555008172988892
110,8174,8140,8161,8152,8161,8149,8107,8146,8119,8123,8154,8168,8154,8084,6.562519073486328
111,8199,8142,8157,8143,8126,8176,8067,8181,8106,8091,8166,8195,8175,8079,6.570476770401001
111,8199,8142,8157,8143,8126,8176,8067,8181,8106,8091,8166,8195,8175,8079,6.57147216796875
112,8175,8154,8153,8153,8130,8147,8079,8146,8143,8114,8153,8159,8141,8072,6.578468322753906
112,8175,8154,8153,8153,8130,8147,8079,8146,8143,8114,8153,8159,8141,8072,6.579468250274658
113,8200,8158,8153,8154,8133,8181,8085,8172,8172,8147,8168,8187,8160,8077,6.585471630096436
113,8200,8158,8153,8154,8133,8181,8085,8172,8172,8147,8168,8187,8160,8077,6.586477518081665
114,8182,8150,8146,8143,8140,8163,8117,8171,8207,8167,8166,8176,8164,8074,6.593477487564087
114,8182,8150,8146,8143,8140,8163,8117,8171,8207,8167,8166,8176,8164,8074,6.594476938247681
115,8166,8139,8143,8131,8143,8149,8156,8157,8217,8164,8159,8151,8154,8080,6.601739168167114
116,8190,8123,8137,8105,8103,8180,8140,8198,8162,8124,8165,8185,8177,8067,6.609747409820557
117,8151,8121,8130,8106,8106,8153,8151,8149,8156,8121,8144,8145,8141,8035,6.6181581020355225
118,8183,8130,8147,8123,8124,8181,8155,8158,8147,8111,8159,8171,8162,8058,6.626007318496704
119,8192,8144,8160,8129,8130,8166,8144,8168,8126,8106,8169,8184,8180,8089,6.63422155380249
120,8172,8155,8159,8143,8130,8145,8131,8149,8127,8115,8165,8155,8161,8093,6.642248153686523
121,8188,8145,8148,8144,8109,8179,8087,8178,8092,8072,8172,8178,8176,8071,6.650248765945435
122,8150,8136,8135,8131,8107,8154,8074,8125,8085,8061,8149,8144,8138,8043,6.657007932662964
123,8176,8136,8144,8120,8093,8171,8072,8140,8095,8073,8161,8162,8151,8057,6.664796829223633
124,8181,8135,8149,8127,8092,8160,8078,8168,8105,8090,8170,8154,8169,8063,6.67300820350647
125,8156,8139,8144,8129,8111,8144,8094,8152,8128,8112,8160,8121,8155,8055,6.681109666824341
126,8179,8133,8127,8096,8089,8186,8086,8192,8128,8091,8159,8164,8178,8037,6.689114570617676
127,8134,8111,8101,8078,8085,8153,8121,8145,8139,8092,8137,8123,8139,8010,6.696872711181641
241,8144,8097,8103,8073,8094,8166,8137,8152,8122,8077,8155,8127,8155,8023,6.70487904548645
0,8157,8108,8120,8071,8100,8170,8109,8181,8095,8045,8161,8150,8183,8027,6.712918043136597
1,8138,8129,8131,8093,8110,8154,8103,8134,8108,8072,8144,8123,8146,8025,6.720009326934815
2,8186,8125,8140,8093,8089,8187,8079,8161,8080,8089,8169,8175,8176,8054,6.728225469589233
3,8167,8128,8149,8101,8103,8146,8059,8146,8059,8094,8167,8160,8170,8065,6.736224174499512
4,8177,8152,8167,8128,8118,8160,8049,8153,8076,8086,8172,8166,8168,8070,6.74400782585144
5,8191,8157,8168,8130,8100,8177,8054,8170,8091,8083,8175,8194,8177,8070,6.752251148223877
6,8160,8148,8161,8128,8112,8144,8075,8138,8105,8109,8161,8155,8157,8078,6.759554624557495
7,8187,8137,8159,8113,8102,8174,8066,8189,8104,8099,8175,8173,8186,8083,6.767555952072144
8,8156,8134,8140,8108,8090,8152,8093,8163,8137,8108,8157,8140,8156,8047,6.775557994842529
9,8151,8136,8121,8106,8093,8158,8132,8148,8146,8111,8149,8137,8149,8039,6.7830023765563965
10,8158,8112,8102,8069,8085,8171,8129,8187,8116,8071,8150,8167,8175,8038,6.791008710861206
11,8117,8092,8093,8059,8079,8147,8121,8151,8119,8061,8133,8125,8144,8010,6.799007654190064
12,8155,8104,8108,8070,8062,8185,8102,8169,8109,8052,8155,8152,8169,8010,6.806995391845703
13,8156,8130,8126,8079,8076,8161,8108,8143,8109,8083,8164,8152,8166,8037,6.814989805221558
14,8164,8145,8150,8095,8094,8154,8095,8140,8108,8114,8179,8161,8169,8079,6.823028802871704
15,8195,8167,8169,8130,8109,8170,8076,8191,8104,8112,8194,8204,8195,8102,6.831007957458496
16,8179,8201,8180,8172,8160,8147,8111,8151,8150,8150,8178,8168,8155,8105,6.839008331298828
17,8218,8204,8192,8174,8157,8189,8096,8170,8145,8150,8194,8198,8170,8123,6.846007823944092
18,8208,8201,8202,8180,8148,8170,8101,8170,8137,8152,8192,8202,8167,8144,6.853694677352905
19,8202,8203,8200,8182,8165,8161,8151,8165,8164,8169,8185,8190,8158,8161,6.861696481704712
20,8210,8168,8159,8127,8142,8185,8140,8197,8146,8127,8184,8201,8179,8122,6.869697093963623
21,8151,8139,8122,8103,8124,8148,8139,8143,8151,8126,8156,8141,8142,8062,6.877738952636719
22,8171,8130,8119,8105,8099,8177,8150,8166,8147,8135,8168,8164,8166,8070,6.886001586914063
22,8171,8130,8119,8105,8099,8177,8150,8166,8147,8135,8168,8164,8166,8070,6.886305332183838
23,8157,8108,8105,8073,8083,8163,8135,8166,8119,8099,8160,8159,8171,8060,6.894311189651489
24,8129,8097,8101,8055,8086,8145,8103,8134,8111,8079,8143,8130,8144,8034,6.901319265365601
24,8129,8097,8101,8055,8086,8145,8103,8134,8111,8079,8143,8130,8144,8034,6.9023118019104
25,8166,8110,8129,8073,8068,8177,8081,8171,8106,8093,8161,8181,8174,8048,6.909008026123047
26,8144,8128,8145,8092,8078,8148,8103,8137,8116,8125,8157,8163,8160,8070,6.917004346847534
27,8166,8134,8138,8086,8096,8166,8086,8159,8090,8102,8165,8182,8172,8085,6.925111293792725
28,8169,8136,8135,8091,8106,8157,8066,8175,8080,8097,8158,8183,8169,8077,6.93310546875
29,8156,8147,8149,8112,8110,8146,8080,8156,8115,8137,8155,8157,8147,8085,6.941007852554321
30,8192,8148,8150,8101,8105,8182,8081,8201,8130,8128,8173,8192,8177,8091,6.949007272720337
31,8154,8143,8122,8095,8127,8154,8124,8156,8174,8139,8149,8144,8143,8058,6.957007884979248
32,8151,8129,8106,8079,8120,8175,8156,8156,8185,8141,8152,8148,8152,8052,6.964975833892822
33,8136,8112,8092,8048,8101,8166,8148,8176,8147,8111,8148,8161,8171,8039,6.972962856292725
34,8108,8112,8082,8053,8095,8143,8138,8146,8144,8107,8133,8122,8146,8012,6.9802000522613525
35,8147,8115,8090,8059,8067,8181,8114,8171,8140,8099,8151,8159,8171,8016,6.988205194473267
36,8116,8116,8094,8057,8096,8151,8120,8130,8134,8096,8142,8143,8153,8030,6.996220827102661
37,8127,8110,8098,8055,8111,8164,8105,8153,8107,8069,8150,8157,8161,8047,7.004225969314575
38,8151,8106,8102,8055,8067,8170,8074,8186,8094,8057,8161,8175,8170,8037,7.012226343154907
39,8132,8127,8115,8075,8070,8145,8093,8127,8123,8102,8152,8143,8136,8042,7.020008087158203
40,8163,8131,8123,8070,8097,8177,8093,8170,8121,8101,8164,8179,8171,8069,7.028008699417114
41,8137,8116,8106,8061,8104,8151,8101,8176,8143,8092,8147,8140,8152,8042,7.036373138427734
42,8133,8111,8093,8057,8079,8172,8114,8161,8162,8084,8140,8121,8136,8012,7.043390512466431
43,8132,8101,8076,8038,8071,8184,8121,8165,8130,8056,8142,8142,8160,8005,7.051003932952881
44,8096,8094,8068,8030,8102,8140,8132,8136,8118,8062,8135,8110,8144,8005,7.059008836746216
45,8131,8104,8088,8038,8096,8170,8102,8178,8109,8071,8160,8147,8167,8013,7.0670084953308105
46,8118,8124,8105,8066,8102,8156,8107,8147,8123,8101,8150,8133,8151,8021,7.075059175491333
47,8122,8128,8102,8074,8108,8163,8114,8136,8118,8102,8149,8124,8156,8048,7.083056449890137
48,8140,8105,8085,8043,8082,8173,8069,8181,8075,8064,8156,8151,8185,8035,7.090920925140381
49,8107,8105,8079,8043,8078,8140,8066,8146,8096,8088,8141,8116,8151,8010,7.098914861679077
50,8137,8123,8094,8056,8068,8177,8081,8176,8123,8104,8161,8155,8176,8036,7.106915712356567
51,8110,8121,8088,8054,8076,8154,8087,8166,8129,8095,8156,8143,8169,8037,7.113915681838989
52,8098,8107,8074,8049,8077,8150,8076,8150,8127,8077,8150,8118,8150,8012,7.121964931488037
53,8127,8102,8070,8031,8045,8182,8072,8178,8120,8061,8159,8143,8166,7993,7.129978179931641
54,8086,8105,8073,8033,8070,8151,8105,8127,8133,8086,8142,8102,8135,7995,7.137995719909668
55,8106,8095,8077,8031,8098,8171,8088,8157,8103,8060,8151,8125,8164,8009,7.146007537841797
56,8104,8102,8070,8031,8098,8150,8074,8165,8098,8052,8146,8122,8163,7990,7.154007911682129
57,8094,8121,8071,8051,8090,8146,8086,8139,8126,8101,8144,8105,8142,7988,7.162315845489502
58,8111,8107,8071,8041,8077,8180,8082,8168,8110,8098,8157,8140,8173,8006,7.1693150997161865
59,8074,8101,8071,8035,8100,8147,8112,8146,8129,8101,8144,8111,8149,8011,7.177009582519531
60,8111,8117,8089,8044,8105,8176,8114,8188,8144,8103,8162,8150,8168,8026,7.185010194778442
61,8120,8122,8091,8055,8095,8171,8105,8182,8145,8096,8160,8152,8168,8018,7.193002223968506
62,8105,8127,8087,8062,8097,8150,8125,8138,8155,8100,8150,8110,8143,8022,7.201013803482056
63,8131,8126,8091,8045,8093,8165,8123,8183,8124,8079,8168,8146,8176,8043,7.209014415740967
64,8096,8117,8083,8043,8103,8135,8121,8161,8110,8071,8152,8116,8153,8023,7.217008352279663
65,8120,8116,8081,8047,8084,8171,8100,8167,8100,8049,8153,8127,8158,8008,7.225008010864258
66,8123,8127,8089,8050,8079,8170,8105,8165,8113,8058,8158,8142,8166,8016,7.233030080795288
67,8096,8133,8105,8063,8110,8144,8136,8136,8141,8107,8157,8127,8152,8040,7.240041494369507
68,8128,8118,8107,8057,8089,8173,8113,8188,8115,8095,8169,8168,8184,8041,7.2480080127716064
69,8088,8112,8089,8051,8074,8145,8106,8152,8115,8092,8145,8130,8154,8015,7.256008148193359
70,8083,8106,8078,8031,8072,8169,8107,8153,8118,8095,8158,8137,8163,8031,7.264007568359375
71,8087,8094,8073,8016,8069,8167,8101,8178,8102,8086,8170,8153,8175,8036,7.271971702575684
72,8074,8113,8081,8039,8076,8146,8114,8146,8111,8089,8150,8118,8137,8016,7.279751300811768
73,8117,8125,8083,8039,8065,8189,8107,8178,8098,8066,8158,8158,8162,8020,7.288058280944824
74,8094,8122,8076,8041,8092,8150,8127,8149,8104,8087,8152,8132,8152,8032,7.295962333679199
75,8104,8131,8090,8061,8100,8152,8130,8158,8104,8089,8156,8134,8161,8041,7.30305004119873
76,8112,8135,8094,8058,8068,8171,8122,8184,8102,8056,8146,8152,8166,8019,7.3110082149505615
77,8083,8125,8081,8053,8086,8149,8147,8136,8128,8080,8134,8111,8134,8016,7.319007873535156
78,8123,8116,8086,8053,8105,8172,8138,8178,8109,8095,8167,8153,8179,8044,7.326356172561645
78,8123,8116,8086,8053,8105,8172,8138,8178,8109,8095,8167,8153,8179,8044,7.327348232269287
79,8099,8132,8094,8065,8113,8141,8133,8165,8118,8111,8160,8130,8166,8035,7.335348606109619
80,8107,8146,8100,8074,8110,8159,8140,8151,8148,8135,8158,8115,8155,8043,7.34235405921936
80,8107,8146,8100,8074,8110,8159,8140,8151,8148,8135,8158,8115,8155,8043,7.343360900878906
81,8135,8140,8101,8073,8111,8178,8138,8182,8135,8140,8169,8147,8183,8061,7.351009607315063
82,8093,8144,8100,8088,8132,8146,8143,8149,8137,8139,8155,8112,8156,8052,7.359009265899658
83,8123,8157,8113,8095,8120,8186,8128,8175,8137,8121,8174,8143,8176,8052,7.367281198501587
84,8121,8165,8121,8107,8120,8167,8154,8158,8154,8155,8171,8143,8165,8063,7.374281644821167
85,8126,8170,8131,8118,8142,8157,8178,8159,8166,8184,8175,8151,8159,8088,7.381972074508667
86,8142,8168,8125,8111,8148,8168,8153,8200,8144,8157,8181,8176,8183,8080,7.390007495880127
87,8099,8163,8110,8117,8152,8143,8152,8147,8141,8161,8153,8123,8142,8041,7.397680997848511
88,8131,8155,8120,8113,8132,8184,8146,8164,8131,8155,8168,8157,8161,8047,7.405686140060425
89,8125,8151,8128,8109,8131,8161,8155,8158,8129,8148,8169,8155,8166,8063,7.41423487663269
90,8111,8161,8122,8119,8146,8148,8167,8149,8135,8149,8162,8134,8159,8071,7.421971321105957
91,8134,8158,8116,8110,8133,8181,8161,8196,8146,8147,8175,8171,8180,8068,7.430002927780151
92,8111,8155,8118,8112,8147,8153,8198,8150,8195,8195,8168,8144,8149,8077,7.438220024108887
93,8141,8159,8128,8115,8156,8175,8207,8175,8177,8195,8182,8173,8180,8113,7.4452197551727295
94,8126,8157,8122,8108,8165,8162,8190,8190,8146,8166,8174,8161,8175,8091,7.452831745147705
95,8101,8145,8109,8100,8147,8163,8190,8153,8163,8173,8161,8119,8137,8058,7.461008310317993
96,8129,8133,8100,8082,8106,8190,8194,8177,8151,8173,8174,8157,8168,8076,7.468917608261108
97,8104,8148,8103,8095,8151,8140,8225,8160,8167,8192,8163,8143,8158,8094,7.476913928985596
98,8121,8149,8113,8099,8170,8166,8207,8188,8172,8173,8167,8160,8163,8082,7.485009431838989
99,8100,8122,8093,8064,8125,8170,8178,8169,8158,8144,8153,8143,8151,8045,7.49300742149353
100,8072,8118,8075,8052,8122,8148,8187,8134,8157,8152,8148,8116,8138,8046,7.500268459320068
101,8114,8130,8088,8065,8139,8173,8179,8199,8138,8132,8168,8166,8177,8061,7.508270740509033
102,8095,8142,8104,8091,8150,8146,8198,8163,8174,8144,8153,8136,8147,8053,7.515279293060303
102,8095,8142,8104,8091,8150,8146,8198,8163,8174,8144,8153,8136,8147,8053,7.516306161880493
103,8124,8150,8108,8100,8135,8174,8211,8161,8209,8175,8166,8151,8159,8077,7.523717403411865
104,8128,8146,8098,8085,8148,8173,8205,8181,8197,8184,8170,8162,8178,8083,7.532592296600342
105,8094,8147,8097,8096,8183,8150,8206,8153,8199,8186,8158,8125,8150,8063,7.5416083335876465
106,8133,8155,8107,8106,8159,8188,8194,8185,8211,8173,8183,8168,8177,8070,7.547290086746216
106,8133,8155,8107,8106,8159,8188,8194,8185,8211,8173,8183,8168,8177,8070,7.548291206359863
107,8113,8159,8109,8104,8153,8160,8214,8146,8227,8199,8178,8148,8159,8087,7.55579686164856
108,8118,8151,8120,8094,8162,8168,8213,8160,8206,8197,8184,8154,8171,8103,7.563796997070312
109,8126,8142,8125,8092,8144,8168,8195,8191,8196,8165,8184,8166,8184,8083,7.570798635482788
110,8105,8158,8127,8115,8147,8148,8214,8141,8214,8193,8166,8136,8145,8080,7.578798532485962
111,8139,8163,8130,8105,8148,8182,8206,8171,8180,8190,8174,8183,8170,8107,7.586801290512085
112,8109,8154,8122,8094,8159,8146,8204,8160,8182,8181,8159,8149,8159,8093,7.594798803329468
113,8116,8161,8125,8114,8157,8163,8206,8164,8214,8203,8168,8135,8161,8094,7.602799415588379
114,8138,8170,8132,8120,8153,8183,8200,8184,8206,8221,8178,8166,8176,8099,7.610798120498657
115,8103,8162,8122,8114,8173,8148,8216,8138,8208,8229,8156,8126,8138,8082,7.618797540664673
116,8129,8144,8108,8096,8143,8182,8200,8173,8186,8190,8172,8151,8165,8085,7.62680721282959
117,8111,8144,8097,8089,8130,8158,8197,8158,8175,8186,8166,8134,8157,8082,7.633419752120972
118,8110,8151,8108,8095,8160,8155,8200,8155,8178,8199,8161,8128,8152,8085,7.641747713088989
119,8130,8151,8125,8098,8166,8171,8187,8193,8166,8203,8179,8162,8183,8097,7.649818420410156
120,8100,8164,8123,8109,8167,8139,8194,8153,8181,8226,8173,8127,8162,8103,7.657907724380493
121,8128,8158,8114,8095,8144,8166,8177,8188,8177,8181,8173,8152,8180,8095,7.666000127792358
122,8109,8149,8112,8093,8142,8148,8179,8182,8179,8158,8155,8140,8162,8073,7.674007415771484
123,8105,8160,8124,8114,8157,8153,8179,8158,8168,8181,8159,8129,8153,8084,7.682510852813721
124,8137,8159,8123,8107,8153,8177,8155,8184,8133,8171,8171,8157,8187,8090,7.689518451690674
124,8137,8159,8123,8107,8153,8177,8155,8184,8133,8171,8171,8157,8187,8090,7.690527439117432
125,8103,8165,8118,8110,8169,8141,8166,8143,8155,8173,8150,8118,8152,8072,7.69814658164978
126,8131,8184,8133,8118,8160,8177,8151,8170,8162,8161,8164,8154,8166,8077,7.705099105834961
127,8134,8193,8141,8126,8152,8167,8158,8166,8179,8181,8167,8158,8167,8092,7.713201522827148
241,8131,8190,8145,8144,8173,8156,8187,8155,8213,8216,8176,8140,8162,8126,7.720894575119018
0,8150,8178,8133,8130,8162,8181,8153,8202,8186,8186,8186,8164,8189,8117,7.728891611099243
1,8101,8178,8120,8125,8148,8152,8145,8151,8187,8189,8157,8115,8140,8077,7.737007617950439
2,8130,8180,8134,8133,8144,8185,8167,8165,8196,8201,8180,8154,8156,8107,7.744882106781006
3,8134,8166,8132,8125,8167,8169,8167,8178,8180,8182,8186,8168,8174,8121,7.75300407409668
4,8112,8169,8129,8129,8192,8148,8153,8150,8176,8180,8163,8126,8149,8091,7.760690450668335
5,8148,8185,8144,8142,8173,8187,8149,8183,8179,8194,8174,8161,8171,8091,7.768327474594116
6,8117,8186,8141,8149,8182,8154,8170,8144,8193,8219,8168,8139,8149,8108,7.776337623596191
7,8134,8169,8132,8125,8198,8166,8138,8158,8152,8182,8171,8157,8170,8112,7.784338474273682
8,8138,8163,8135,8122,8178,8163,8112,8169,8127,8153,8162,8166,8173,8085,7.791975021362305
9,8115,8177,8144,8153,8133,8155,8135,8134,8169,8186,8157,8142,8138,8085,7.799624919891357
9,8115,8177,8144,8153,8133,8155,8135,8134,8169,8186,8157,8142,8138,8085,7.8006227016448975
10,8145,8169,8140,8138,8113,8190,8122,8174,8164,8167,8180,8183,8167,8102,7.807620048522949
11,8106,8143,8117,8112,8165,8150,8122,8147,8147,8155,8163,8149,8151,8079,7.8160080909729
12,8112,8135,8113,8111,8147,8177,8128,8162,8149,8155,8163,8153,8161,8073,7.824007034301758
13,8119,8129,8109,8104,8127,8184,8118,8169,8157,8140,8160,8158,8162,8062,7.831007957458496
14,8086,8110,8092,8083,8174,8147,8109,8117,8149,8141,8145,8119,8132,8046,7.839008808135986
15,8110,8078,8085,8046,8107,8180,8070,8171,8088,8104,8159,8159,8171,8039,7.847264528274536
16,8077,8078,8087,8047,8043,8160,8072,8159,8097,8087,8139,8126,8148,8017,7.8550028800964355
17,8086,8097,8098,8068,8083,8174,8075,8145,8133,8096,8144,8131,8140,8023,7.863252401351929
18,8104,8093,8098,8052,8105,8176,8057,8160,8119,8097,8157,8169,8162,8032,7.8712477684021
19,8083,8093,8111,8056,8089,8149,8075,8143,8129,8109,8151,8140,8142,8039,7.879007339477539
20,8126,8104,8134,8076,8070,8188,8062,8188,8126,8083,8170,8171,8167,8051,7.88700795173645
21,8101,8105,8120,8084,8087,8161,8067,8141,8128,8083,8154,8145,8146,8033,7.895007371902466
22,8098,8099,8111,8077,8105,8169,8087,8135,8127,8098,8153,8143,8150,8047,7.902024030685425
23,8115,8099,8121,8077,8108,8181,8080,8192,8113,8098,8167,8168,8182,8060,7.910023927688599
24,8071,8108,8112,8088,8110,8148,8081,8147,8143,8120,8153,8117,8142,8028,7.918023109436035
25,8092,8103,8093,8063,8081,8186,8071,8162,8141,8112,8165,8148,8157,8019,7.926022529602051
26,8071,8099,8087,8044,8079,8158,8088,8153,8129,8104,8159,8135,8157,8031,7.9340081214904785
27,8069,8100,8088,8048,8086,8153,8078,8153,8116,8075,8153,8113,8155,8021,7.941972017288208
28,8096,8101,8089,8046,8071,8179,8050,8186,8104,8054,8153,8142,8170,7997,7.949920892715454
29,8077,8115,8104,8062,8100,8148,8094,8138,8146,8111,8146,8119,8140,8021,7.957438230514526
29,8077,8115,8104,8062,8100,8148,8094,8138,8146,8111,8146,8119,8140,8021,7.958430767059326
30,8122,8124,8125,8071,8115,8177,8102,8170,8144,8118,8178,8155,8177,8063,7.965007543563843
31,8108,8132,8126,8080,8116,8159,8078,8167,8133,8110,8175,8146,8171,8049,7.973007202148437
32,8099,8143,8128,8100,8116,8156,8078,8152,8152,8137,8165,8138,8154,8055,7.981450080871582
33,8140,8138,8130,8101,8098,8183,8079,8198,8156,8139,8175,8181,8186,8073,7.989007472991943
34,8114,8148,8130,8110,8114,8149,8105,8150,8192,8154,8161,8143,8151,8068,7.997025012969971
35,8143,8162,8141,8113,8120,8179,8111,8168,8197,8157,8179,8171,8170,8090,8.00502896308899
36,8123,8145,8128,8094,8128,8163,8108,8174,8159,8141,8173,8164,8175,8086,8.013007879257202
37,8085,8122,8103,8084,8125,8149,8101,8152,8137,8114,8158,8120,8151,8051,8.021008014678955
38,8123,8127,8104,8088,8094,8183,8092,8188,8151,8099,8170,8154,8172,8040,8.029082775115967
39,8114,8157,8119,8119,8126,8151,8132,8146,8203,8150,8160,8136,8143,8060,8.036088228225708
40,8133,8152,8118,8119,8137,8171,8123,8163,8179,8140,8176,8159,8161,8081,8.044122219085693
41,8110,8132,8099,8092,8110,8165,8095,8177,8148,8108,8165,8143,8163,8047,8.051972150802612
42,8097,8154,8110,8115,8119,8163,8120,8147,8189,8149,8150,8114,8136,8040,8.060009717941284
43,8149,8177,8135,8139,8131,8198,8131,8178,8193,8157,8178,8182,8174,8086,8.068008184432983
44,8121,8177,8137,8146,8158,8149,8135,8148,8180,8143,8171,8161,8161,8096,8.076007843017578
45,8138,8179,8150,8158,8160,8167,8115,8170,8168,8128,8174,8166,8166,8082,8.084007740020752
46,8147,8190,8160,8180,8146,8176,8122,8173,8182,8142,8175,8180,8169,8075,8.092864990234375
47,8126,8194,8159,8188,8154,8155,8162,8138,8213,8177,8174,8159,8157,8108,8.099011182785034
48,8155,8172,8155,8159,8139,8182,8140,8197,8183,8159,8199,8199,8194,8127,8.10706639289856
49,8118,8166,8150,8169,8140,8150,8126,8158,8186,8159,8177,8159,8149,8087,8.11507272720337
50,8134,8185,8155,8191,8145,8173,8136,8141,8203,8162,8172,8159,8139,8092,8.123008012771606
51,8147,8181,8147,8171,8153,8176,8146,8173,8181,8130,8176,8177,8168,8110,8.131030321121216
52,8114,8182,8144,8175,8171,8148,8167,8160,8184,8138,8164,8144,8155,8099,8.139050722122192
53,8158,8203,8168,8200,8169,8195,8164,8197,8208,8164,8179,8190,8185,8111,8.147008180618286
54,8140,8203,8168,8207,8188,8168,8179,8154,8237,8186,8165,8163,8155,8124,8.154706239700317
55,8126,8173,8147,8186,8172,8164,8168,8147,8202,8148,8163,8145,8154,8117,8.161711931228638
56,8127,8150,8132,8162,8140,8167,8132,8185,8151,8105,8167,8173,8185,8093,8.170013427734375
56,8127,8150,8132,8162,8140,8167,8132,8185,8151,8105,8167,8173,8185,8093,8.17053747177124
57,8109,8158,8134,8172,8160,8143,8153,8153,8178,8142,8155,8149,8158,8095,8.177552700042725
57,8109,8158,8134,8172,8160,8143,8153,8153,8178,8142,8155,8149,8158,8095,8.17854619026184
58,8155,8171,8144,8178,8154,8181,8163,8193,8190,8161,8176,8183,8176,8112,8.185556411743164
59,8132,8170,8140,8179,8149,8161,8171,8168,8196,8180,8168,8158,8152,8096,8.194011926651001
60,8137,8172,8138,8180,8168,8172,8185,8151,8202,8186,8167,8157,8151,8112,8.20216155052185
61,8160,8172,8136,8166,8187,8181,8193,8192,8191,8151,8178,8192,8190,8131,8.210162878036499
62,8116,8167,8122,8163,8194,8138,8192,8158,8191,8151,8157,8140,8153,8102,8.218013286590576
63,8139,8152,8119,8148,8151,8178,8154,8177,8159,8133,8163,8163,8162,8083,8.224518299102783
64,8121,8151,8124,8140,8148,8160,8164,8158,8172,8125,8158,8160,8162,8089,8.232520341873169
65,8119,8160,8138,8152,8176,8152,8180,8158,8208,8147,8163,8152,8160,8108,8.2410147190094
66,8145,8156,8136,8147,8149,8178,8146,8199,8189,8154,8173,8179,8176,8094,8.249012231826782
67,8101,8151,8116,8144,8135,8154,8143,8133,8185,8166,8156,8133,8139,8068,8.257011413574219
68,8128,8144,8119,8133,8140,8180,8142,8160,8168,8139,8171,8163,8170,8093,8.265009641647339
69,8132,8151,8133,8144,8163,8155,8166,8190,8174,8141,8167,8170,8172,8110,8.273041009902954
70,8131,8179,8143,8175,8180,8156,8199,8175,8214,8173,8168,8157,8154,8112,8.281005859375
71,8150,8169,8134,8157,8157,8193,8180,8184,8202,8150,8178,8182,8175,8109,8.28801703453064
72,8104,8148,8114,8133,8157,8153,8169,8139,8187,8138,8153,8135,8141,8100,8.296015739440918
73,8136,8158,8122,8139,8155,8175,8153,8188,8174,8121,8170,8171,8165,8109,8.304111242294312
74,8141,8176,8129,8156,8157,8165,8161,8194,8194,8139,8170,8179,8164,8096,8.312106609344482
75,8119,8170,8128,8161,8163,8152,8177,8143,8207,8172,8153,8147,8139,8096,8.320008754730225
76,8138,8150,8119,8135,8136,8179,8134,8181,8141,8114,8162,8177,8175,8099,8.328125715255737
77,8097,8154,8110,8132,8138,8143,8124,8156,8127,8085,8146,8127,8144,8064,8.336159706115723
78,8118,8151,8115,8131,8130,8174,8137,8160,8154,8102,8157,8138,8149,8062,8.344008207321167
79,8117,8128,8104,8109,8109,8168,8136,8160,8158,8105,8159,8153,8161,8067,8.352633714675903
80,8081,8125,8091,8106,8116,8136,8130,8142,8149,8099,8148,8113,8145,8053,8.359009027481079
81,8102,8122,8088,8099,8106,8175,8113,8191,8136,8082,8160,8132,8173,8030,8.36764407157898
82,8075,8122,8088,8106,8117,8161,8143,8146,8176,8116,8144,8106,8148,8024,8.375234603881836
83,8109,8149,8112,8126,8136,8178,8154,8159,8180,8133,8159,8146,8164,8077,8.383203506469727
84,8122,8162,8123,8133,8153,8167,8135,8193,8137,8113,8168,8171,8178,8097,8.39121150970459
85,8091,8151,8117,8133,8158,8147,8141,8148,8141,8125,8151,8125,8141,8075,8.39889907836914
86,8134,8153,8127,8133,8133,8187,8146,8175,8159,8133,8163,8171,8173,8086,8.406722068786621
87,8109,8164,8132,8148,8149,8142,8166,8159,8175,8141,8155,8156,8163,8092,8.414724826812744
88,8099,8145,8123,8138,8142,8152,8134,8169,8146,8098,8156,8143,8159,8067,8.42172622680664
89,8102,8130,8114,8124,8108,8171,8104,8183,8130,8068,8148,8147,8164,8032,8.43001103401184
90,8081,8151,8126,8147,8130,8144,8152,8138,8183,8128,8136,8119,8137,8050,8.438009262084961
91,8119,8146,8128,8137,8141,8171,8150,8187,8177,8133,8168,8167,8181,8088,8.446007490158081
92,8095,8128,8108,8121,8137,8145,8120,8175,8153,8112,8158,8145,8168,8071,8.454007625579834
93,8103,8138,8114,8138,8124,8160,8108,8155,8156,8118,8149,8141,8152,8065,8.462043523788452
94,8117,8138,8122,8132,8111,8172,8104,8165,8139,8123,8157,8163,8169,8068,8.470009088516235
95,8076,8131,8113,8119,8132,8137,8124,8136,8134,8133,8150,8120,8149,8064,8.478008508682251
96,8116,8143,8117,8123,8131,8172,8127,8198,8131,8117,8166,8155,8180,8076,8.485997438430786
97,8106,8155,8119,8136,8135,8150,8150,8176,8164,8134,8157,8144,8154,8065,8.492996454238892
98,8104,8155,8122,8140,8145,8153,8171,8147,8183,8153,8168,8142,8145,8073,8.501007318496704
99,8126,8159,8128,8132,8144,8175,8158,8195,8162,8128,8184,8181,8187,8096,8.509003162384033
100,8098,8174,8134,8150,8152,8148,8158,8161,8175,8138,8162,8140,8153,8088,8.517008066177368
101,8137,8169,8139,8156,8129,8185,8149,8174,8164,8137,8173,8174,8163,8082,8.525008201599121
102,8113,8159,8124,8143,8135,8161,8166,8155,8155,8138,8165,8167,8159,8081,8.533001899719238
103,8089,8164,8118,8144,8155,8155,8166,8149,8147,8136,8163,8147,8157,8093,8.540032625198364
104,8132,8171,8135,8157,8134,8183,8133,8196,8135,8132,8183,8185,8182,8094,8.549031734466553
105,8125,8192,8155,8192,8153,8148,8166,8147,8182,8183,8171,8156,8151,8096,8.556001424789429
106,8148,8198,8166,8197,8162,8169,8179,8176,8183,8173,8186,8191,8181,8127,8.56409740447998
107,8127,8182,8159,8180,8150,8152,8166,8192,8158,8140,8187,8190,8178,8127,8.572101831436157
108,8123,8177,8166,8188,8151,8151,8159,8164,8163,8155,8177,8163,8143,8113,8.580010414123535
109,8165,8177,8182,8195,8142,8186,8145,8186,8150,8152,8186,8203,8173,8121,8.58829116821289
110,8135,8193,8188,8221,8170,8144,8182,8151,8173,8172,8183,8186,8162,8146,8.596289157867432
111,8158,8199,8191,8227,8173,8167,8185,8184,8183,8168,8201,8211,8181,8165,8.604289054870605
112,8149,8172,8173,8202,8149,8166,8149,8181,8172,8147,8184,8190,8168,8118,8.611008405685425
113,8125,8165,8164,8205,8167,8155,8161,8136,8180,8174,8165,8147,8140,8099,8.619009256362915
114,8155,8167,8160,8196,8191,8178,8176,8185,8176,8182,8187,8196,8184,8135,8.626987218856812
115,8116,8164,8139,8182,8202,8138,8187,8164,8186,8173,8172,8159,8164,8127,8.634986162185669
116,8133,8159,8138,8178,8167,8167,8164,8173,8176,8155,8171,8159,8167,8110,8.642991065979004
117,8143,8155,8144,8176,8141,8173,8149,8178,8166,8159,8170,8171,8167,8104,8.650990962982178
118,8124,8160,8148,8181,8155,8152,8167,8143,8183,8180,8169,8144,8143,8115,8.658499002456665
119,8160,8163,8152,8175,8154,8180,8154,8189,8165,8157,8190,8192,8184,8132,8.666500806808472
120,8133,8167,8154,8181,8163,8142,8159,8159,8164,8169,8171,8174,8167,8132,8.674501419067383
121,8151,8170,8166,8192,8152,8158,8153,8165,8167,8180,8175,8179,8163,8143,8.681498527526855
122,8153,8163,8154,8189,8144,8169,8136,8181,8166,8163,8173,8174,8163,8117,8.689500093460083
123,8109,8160,8135,8191,8176,8150,8151,8137,8193,8171,8152,8128,8127,8094,8.697500228881836
124,8144,8155,8135,8175,8166,8184,8149,8181,8176,8156,8171,8176,8166,8112,8.70550012588501
125,8123,8144,8129,8167,8158,8151,8153,8156,8166,8155,8161,8152,8158,8104,8.714007139205933
126,8132,8138,8126,8171,8160,8164,8141,8147,8167,8148,8161,8149,8162,8101,8.721971273422241
127,8152,8150,8128,8167,8156,8169,8136,8182,8148,8137,8169,8179,8181,8112,8.729007482528687
241,8118,8158,8126,8172,8172,8128,8163,8152,8141,8151,8157,8141,8147,8112,8.737896203994751
0,8138,8141,8123,8159,8145,8170,8138,8185,8105,8122,8166,8165,8171,8104,8.744261741638184
0,8138,8141,8123,8159,8145,8170,8138,8185,8105,8122,8166,8165,8171,8104,8.745262384414673
1,8117,8138,8119,8156,8127,8158,8131,8165,8103,8125,8153,8138,8154,8080,8.753261804580688
2,8136,8168,8136,8183,8151,8164,8157,8158,8129,8162,8163,8145,8154,8100,8.761002779006958
3,8169,8192,8159,8201,8174,8179,8169,8196,8148,8176,8181,8190,8178,8134,8.76952600479126
4,8138,8194,8161,8208,8184,8150,8186,8160,8184,8202,8167,8149,8140,8133,8.777008056640625
5,8171,8181,8157,8196,8144,8186,8169,8184,8176,8191,8180,8183,8164,8132,8.78500747680664
6,8154,8178,8155,8204,8149,8163,8163,8167,8168,8183,8172,8184,8165,8139,8.792682886123657
7,8138,8182,8160,8212,8187,8155,8153,8157,8159,8176,8168,8168,8157,8145,8.800672769546509
8,8155,8166,8146,8185,8172,8174,8125,8187,8134,8143,8167,8181,8164,8112,8.809008598327637
9,8121,8159,8128,8189,8171,8146,8147,8130,8152,8163,8146,8137,8132,8088,8.816007614135742
10,8153,8164,8139,8198,8188,8175,8163,8165,8146,8172,8171,8178,8180,8132,8.824007272720337
11,8146,8167,8147,8194,8208,8156,8175,8183,8140,8178,8174,8179,8183,8143,8.831587314605713
12,8133,8171,8142,8194,8195,8159,8177,8161,8154,8197,8163,8148,8149,8115,8.839598178863525
13,8154,8164,8130,8185,8162,8188,8153,8182,8136,8176,8170,8175,8171,8101,8.848008632659912
14,8118,8163,8131,8188,8176,8143,8163,8135,8146,8174,8155,8144,8151,8108,8.855947256088257
15,8148,8159,8140,8175,8165,8168,8145,8169,8142,8157,8171,8176,8172,8130,8.863978624343872
16,8145,8151,8131,8162,8149,8161,8123,8181,8124,8139,8168,8174,8171,8108,8.871971607208252
16,8145,8151,8131,8162,8149,8161,8123,8181,8124,8139,8168,8174,8171,8108,8.87251091003418
17,8121,8156,8133,8179,8151,8149,8136,8148,8133,8150,8155,8143,8140,8084,8.879009485244751
18,8146,8157,8135,8175,8138,8181,8144,8180,8124,8145,8170,8183,8167,8095,8.886868000030518
19,8114,8159,8131,8180,8167,8143,8171,8150,8136,8158,8164,8154,8155,8107,8.894862174987793
20,8134,8162,8140,8193,8195,8160,8165,8179,8138,8147,8172,8169,8175,8115,8.903008222579956
20,8134,8162,8140,8193,8195,8160,8165,8179,8138,8147,8172,8169,8175,8115,8.90336799621582
21,8134,8169,8140,8195,8186,8159,8160,8187,8146,8153,8157,8171,8166,8095,8.911375045776367
22,8126,8186,8145,8208,8186,8152,8193,8144,8182,8203,8153,8150,8142,8107,8.918381690979004
23,8172,8191,8159,8208,8192,8184,8191,8190,8164,8198,8184,8201,8189,8145,8.927008390426636
24,8133,8184,8158,8204,8213,8145,8188,8168,8160,8192,8168,8165,8161,8133,8.935009479522705
25,8144,8173,8159,8199,8202,8164,8172,8166,8162,8185,8171,8167,8156,8117,8.943312883377075
26,8159,8173,8157,8195,8181,8167,8168,8164,8154,8176,8175,8184,8172,8115,8.949317216873169
27,8135,8189,8161,8212,8197,8143,8196,8132,8162,8191,8169,8164,8154,8139,8.957835674285889
28,8159,8180,8166,8205,8200,8175,8180,8188,8132,8164,8186,8207,8182,8149,8.965834856033325
29,8124,8156,8143,8187,8207,8145,8172,8161,8123,8146,8161,8159,8148,8096,8.973877429962158
30,8136,8157,8134,8186,8195,8168,8180,8151,8131,8146,8158,8154,8146,8083,8.981916666030884
31,8156,8172,8148,8190,8187,8177,8191,8172,8145,8165,8173,8197,8176,8119,8.989837408065796
32,8130,8178,8157,8201,8214,8138,8200,8146,8157,8193,8168,8174,8155,8138,8.997837781906128
33,8154,8162,8143,8189,8191,8170,8155,8191,8114,8147,8176,8194,8177,8113,9.00578498840332
34,8121,8153,8127,8176,8169,8149,8148,8162,8126,8140,8159,8158,8154,8072,9.013001680374146
35,8129,8162,8138,8179,8171,8158,8172,8147,8163,8183,8165,8160,8153,8101,9.021127700805664
36,8153,8166,8147,8183,8170,8172,8175,8171,8154,8192,8178,8189,8177,8122,9.029298543930054
37,8118,8168,8147,8195,8191,8147,8190,8128,8161,8203,8163,8146,8141,8100,9.037299394607544
38,8149,8160,8148,8185,8190,8182,8174,8171,8150,8186,8176,8179,8170,8113,9.045008659362791
39,8129,8152,8137,8176,8190,8149,8163,8169,8145,8184,8166,8168,8173,8123,9.053357124328612
40,8121,8152,8129,8173,8178,8148,8159,8158,8147,8181,8166,8155,8159,8104,9.0610089302063
41,8140,8148,8128,8169,8162,8175,8153,8182,8138,8152,8177,8177,8162,8084,9.068994045257568
42,8106,8158,8129,8186,8195,8148,8172,8133,8157,8170,8161,8138,8132,8092,9.075995922088625
43,8124,8151,8128,8166,8189,8174,8145,8167,8131,8158,8173,8169,8170,8104,9.083998203277588
44,8100,8134,8119,8143,8163,8149,8126,8165,8108,8131,8163,8158,8167,8071,9.092177152633669
45,8110,8159,8138,8180,8175,8155,8151,8150,8141,8148,8162,8153,8153,8077,9.100202798843384
46,8157,8192,8167,8206,8193,8190,8171,8188,8159,8181,8183,8210,8184,8118,9.108200073242188
47,8115,8187,8165,8199,8215,8146,8189,8150,8158,8197,8167,8171,8152,8125,9.11601209640503
48,8136,8179,8159,8189,8197,8165,8170,8184,8142,8165,8178,8182,8173,8120,9.124001026153564
49,8143,8191,8165,8208,8196,8165,8177,8182,8171,8186,8179,8185,8170,8109,9.131992816925049
50,8136,8195,8178,8227,8221,8159,8209,8145,8211,8238,8180,8180,8151,8132,9.14005446434021
51,8163,8180,8174,8208,8215,8171,8199,8191,8193,8227,8199,8220,8188,8163,9.147056579589844
52,8128,8179,8159,8206,8229,8134,8206,8169,8203,8234,8176,8165,8156,8150,9.15500259399414
53,8151,8183,8163,8212,8216,8176,8205,8185,8205,8237,8180,8180,8159,8139,9.163268327713013
54,8154,8186,8164,8211,8195,8171,8205,8178,8203,8233,8182,8196,8164,8129,9.17028260231018
54,8154,8186,8164,8211,8195,8171,8205,8178,8203,8233,8182,8196,8164,8129,9.171283483505247
55,8136,8192,8162,8218,8212,8151,8215,8141,8214,8241,8171,8160,8145,8127,9.178293704986572
55,8136,8192,8162,8218,8212,8151,8215,8141,8214,8241,8171,8160,8145,8127,9.179282665252686
56,8162,8185,8160,8202,8209,8186,8198,8182,8184,8210,8174,8189,8168,8123,9.187008142471312
57,8126,8179,8147,8195,8209,8147,8202,8152,8181,8208,8158,8159,8146,8111,9.195008277893066
58,8141,8172,8148,8194,8203,8158,8186,8172,8182,8197,8177,8173,8173,8130,9.203217267990112
59,8143,8163,8154,8192,8195,8165,8168,8187,8177,8176,8178,8174,8178,8117,9.20986795425415
60,8126,8179,8159,8214,8195,8155,8182,8146,8189,8197,8161,8143,8137,8100,9.217997789382936
61,8170,8188,8171,8219,8184,8184,8178,8180,8179,8205,8181,8195,8172,8134,9.225995063781738
62,8146,8185,8176,8211,8199,8139,8200,8149,8189,8214,8176,8175,8163,8154,9.234007358551024
63,8155,8177,8172,8193,8188,8154,8185,8158,8170,8198,8177,8179,8165,8142,9.241971254348757
64,8161,8171,8160,8176,8168,8169,8153,8180,8144,8184,8173,8190,8170,8116,9.250008344650269
65,8142,8188,8166,8197,8186,8154,8180,8138,8182,8219,8167,8161,8141,8127,9.258007526397703
66,8183,8192,8176,8195,8180,8185,8175,8174,8177,8207,8191,8212,8176,8151,9.26590132713318
67,8139,8171,8159,8176,8176,8143,8154,8158,8157,8179,8171,8185,8163,8131,9.274003267288208
68,8138,8163,8156,8176,8167,8156,8149,8166,8156,8162,8166,8176,8157,8120,9.281007766723633
69,8167,8175,8167,8189,8158,8177,8164,8183,8165,8177,8172,8199,8167,8116,9.28895139694214
70,8129,8180,8167,8194,8180,8148,8189,8136,8189,8220,8153,8160,8140,8117,9.29696536064148
71,8142,8156,8149,8160,8167,8175,8155,8183,8157,8177,8164,8184,8178,8120,9.305007457733154
72,8118,8143,8130,8147,8153,8150,8140,8170,8142,8146,8147,8155,8158,8083,9.313007593154907
73,8128,8162,8142,8165,8154,8165,8164,8150,8161,8170,8148,8155,8147,8078,9.321010828018188
74,8159,8171,8153,8169,8161,8172,8179,8179,8158,8163,8173,8198,8176,8110,9.329012155532835
75,8129,8165,8150,8174,8183,8128,8184,8152,8162,8156,8165,8158,8148,8118,9.3370099067688
76,8151,8159,8145,8162,8156,8168,8146,8193,8147,8145,8168,8173,8166,8099,9.344008207321169
77,8134,8162,8137,8160,8147,8156,8146,8162,8154,8163,8152,8152,8150,8071,9.35194492340088
78,8138,8170,8147,8177,8172,8154,8168,8132,8165,8176,8155,8158,8147,8095,9.360008716583252
79,8163,8171,8156,8172,8177,8175,8155,8186,8148,8150,8175,8199,8186,8118,9.368007898330688
80,8122,8176,8146,8180,8190,8143,8156,8160,8167,8156,8161,8137,8151,8092,9.376007318496704
81,8150,8172,8145,8187,8174,8178,8143,8173,8162,8148,8165,8159,8160,8081,9.383362054824827
82,8143,8164,8144,8175,8157,8162,8153,8155,8154,8146,8153,8169,8157,8087,9.391347885131836
82,8143,8164,8144,8175,8157,8162,8153,8155,8154,8146,8153,8169,8157,8087,9.392347812652588
83,8126,8152,8137,8165,8153,8147,8155,8146,8156,8149,8151,8143,8152,8101,9.39982295036316
84,8145,8138,8130,8152,8134,8172,8121,8197,8144,8130,8165,8157,8176,8085,9.407828092575071
85,8115,8149,8132,8157,8149,8147,8139,8146,8170,8158,8147,8122,8135,8057,9.414836406707764
86,8140,8151,8136,8155,8153,8174,8149,8158,8161,8156,8163,8156,8155,8078,9.423004865646362
87,8125,8128,8125,8146,8148,8156,8133,8172,8137,8126,8160,8153,8169,8075,9.431008100509644
88,8112,8140,8135,8163,8159,8149,8140,8159,8153,8143,8151,8128,8152,8061,9.438933610916138
89,8151,8162,8148,8168,8149,8184,8150,8194,8160,8157,8169,8169,8173,8070,9.44698405265808
90,8115,8166,8138,8173,8167,8144,8179,8145,8188,8185,8156,8131,8145,8074,9.455008506774902
91,8142,8168,8145,8177,8180,8166,8175,8166,8193,8189,8174,8157,8172,8100,9.463008165359495
92,8156,8169,8156,8171,8173,8161,8163,8191,8189,8181,8180,8180,8187,8118,9.47000813484192
93,8136,8171,8159,8178,8175,8144,8172,8164,8214,8195,8167,8154,8155,8115,9.477421760559082
94,8167,8170,8165,8171,8157,8183,8163,8193,8212,8184,8177,8187,8176,8111,9.48543620109558
94,8167,8170,8165,8171,8157,8183,8163,8193,8212,8184,8177,8187,8176,8111,9.48642897605896
95,8133,8163,8158,8166,8171,8152,8173,8151,8202,8193,8163,8149,8152,8105,9.494281768798828
96,8138,8150,8149,8154,8180,8164,8157,8168,8177,8182,8171,8160,8166,8116,9.502119541168211
97,8137,8144,8150,8143,8164,8163,8146,8189,8185,8172,8168,8174,8174,8099,9.510126113891602
98,8112,8161,8161,8160,8169,8147,8177,8139,8231,8206,8162,8138,8137,8088,9.518008708953856
99,8153,8165,8163,8160,8165,8181,8171,8172,8198,8195,8186,8181,8175,8121,9.526008367538452
100,8129,8164,8155,8161,8181,8144,8165,8163,8172,8188,8169,8157,8165,8126,9.534007549285889
101,8137,8166,8157,8161,8183,8162,8153,8179,8195,8191,8166,8151,8161,8106,9.541309833526611
102,8149,8165,8155,8155,8166,8177,8147,8186,8210,8199,8171,8165,8170,8091,9.54899549484253
