COUNTER,F3,FC5,AF3,F7,T7,P7,O1,O2,P8,T8,F8,AF4,FC6,F4,Timestamp
127,8164,8086,8104,8088,8081,8162,8034,8161,8038,8039,8131,8129,8152,7993,0.0039973258972167
127,8164,8086,8104,8088,8081,8162,8034,8161,8038,8039,8131,8129,8152,7993,0.0049972534179687
241,8160,8086,8105,8084,8067,8165,8043,8143,8039,8053,8133,8123,8145,7999,0.0125911235809326
0,8187,8098,8115,8084,8068,8177,8043,8177,8042,8058,8161,8179,8183,8035,0.0205898284912109
1,8168,8114,8127,8103,8108,8152,8072,8156,8069,8075,8146,8145,8155,8046,0.0285887718200683
2,8188,8134,8146,8119,8108,8175,8079,8186,8080,8091,8164,8179,8175,8061,0.0365903377532959
3,8184,8137,8142,8122,8096,8164,8065,8168,8083,8095,8149,8165,8165,8046,0.0442314147949218
4,8172,8123,8126,8111,8100,8159,8054,8145,8077,8077,8139,8142,8147,8031,0.0522317886352539
4,8172,8123,8126,8111,8100,8159,8054,8145,8077,8077,8139,8142,8147,8031,0.0532302856445312
5,8184,8111,8121,8091,8083,8177,8046,8178,8050,8057,8157,8183,8174,8033,0.0592296123504638
6,8159,8115,8120,8100,8083,8155,8059,8139,8055,8071,8136,8138,8140,8016,0.0675055980682373
7,8172,8118,8118,8102,8099,8175,8054,8162,8061,8059,8155,8170,8157,8018,0.0755047798156738
8,8171,8131,8129,8102,8120,8169,8063,8166,8073,8060,8149,8178,8155,8026,0.0835041999816894
9,8166,8147,8142,8111,8120,8161,8084,8135,8088,8080,8139,8157,8135,8034,0.0915038585662841
10,8183,8137,8136,8102,8095,8180,8075,8164,8072,8062,8162,8201,8176,8037,0.0995063781738281
11,8161,8141,8133,8109,8111,8157,8085,8142,8089,8069,8137,8161,8155,8033,0.1075067520141601
12,8183,8150,8134,8112,8126,8176,8092,8168,8108,8082,8151,8187,8171,8056,0.1150143146514892
12,8183,8150,8134,8112,8126,8176,8092,8168,8108,8082,8151,8187,8171,8056,0.1160171031951904
13,8173,8137,8118,8092,8118,8172,8086,8172,8095,8082,8155,8186,8176,8048,0.1230170726776123
14,8158,8135,8123,8093,8127,8159,8092,8146,8102,8106,8150,8147,8162,8046,0.1300199031829834
15,8202,8153,8148,8110,8129,8179,8099,8191,8127,8127,8179,8194,8198,8080,0.1380150318145752
16,8176,8153,8141,8115,8122,8154,8107,8153,8142,8134,8149,8145,8151,8058,0.1460151672363281
17,8170,8127,8114,8096,8100,8171,8079,8149,8110,8113,8151,8147,8154,8036,0.1540143489837646
18,8179,8120,8110,8089,8104,8171,8064,8163,8095,8106,8157,8173,8172,8043,0.1620147228240966
19,8167,8141,8127,8105,8130,8153,8093,8133,8123,8117,8140,8144,8141,8048,0.1704518795013427
20,8186,8149,8131,8100,8120,8182,8088,8170,8116,8089,8161,8185,8170,8048,0.1784529685974121
21,8172,8145,8126,8104,8126,8163,8078,8147,8116,8094,8150,8153,8156,8045,0.185453176498413
22,8185,8148,8136,8110,8131,8169,8076,8148,8127,8114,8165,8170,8168,8068,0.193505048751831
23,8183,8149,8136,8099,8108,8173,8076,8171,8121,8103,8171,8192,8181,8066,0.201500654220581
24,8158,8151,8130,8102,8116,8157,8094,8145,8133,8124,8150,8142,8150,8055,0.2094531059265136
24,8158,8151,8130,8102,8116,8157,8094,8145,8133,8124,8150,8142,8150,8055,0.2099096775054931
25,8196,8158,8141,8106,8132,8182,8103,8183,8141,8149,8176,8188,8191,8079,0.2174491882324218
26,8188,8166,8156,8115,8148,8162,8124,8156,8150,8160,8165,8166,8174,8081,0.2254500389099121
27,8190,8178,8156,8123,8150,8164,8122,8143,8134,8145,8171,8165,8164,8090,0.233436107635498
28,8194,8167,8139,8109,8134,8172,8091,8178,8102,8111,8175,8191,8179,8089,0.2414252758026123
29,8159,8144,8124,8094,8114,8149,8080,8147,8106,8104,8137,8128,8145,8052,0.2494597434997558
30,8180,8137,8120,8078,8079,8181,8063,8166,8098,8087,8151,8165,8171,8033,0.2564592361450195
31,8170,8142,8121,8085,8093,8167,8081,8144,8102,8092,8145,8153,8147,8031,0.2644619941711426
32,8166,8148,8127,8095,8127,8159,8113,8143,8111,8100,8149,8146,8141,8058,0.272458553314209
33,8181,8142,8130,8078,8114,8171,8094,8193,8098,8083,8162,8192,8193,8054,0.2804648876190185
34,8145,8134,8128,8078,8110,8145,8089,8147,8116,8115,8128,8126,8149,8020,0.2884805202484131
35,8175,8132,8126,8083,8103,8177,8092,8171,8112,8126,8167,8167,8170,8038,0.2967953681945801
36,8178,8139,8122,8082,8089,8175,8097,8173,8099,8107,8171,8183,8183,8042,0.304795503616333
37,8151,8135,8118,8080,8094,8157,8109,8133,8122,8113,8133,8117,8143,8038,0.312028169631958
38,8176,8118,8119,8066,8094,8181,8095,8181,8111,8104,8163,8163,8183,8055,0.3194353580474853
39,8151,8123,8113,8068,8119,8156,8089,8158,8086,8094,8148,8137,8164,8034,0.3274312019348144
40,8149,8140,8106,8078,8129,8165,8073,8158,8072,8085,8138,8129,8158,8010,0.3354523181915283
41,8156,8135,8109,8080,8107,8169,8067,8167,8080,8078,8143,8151,8165,8001,0.3434576988220215
42,8139,8136,8115,8086,8111,8150,8091,8138,8101,8092,8136,8126,8137,8016,0.3514378070831299
43,8162,8145,8120,8084,8115,8173,8082,8177,8087,8092,8159,8163,8181,8041,0.3594367504119873
44,8149,8150,8116,8087,8114,8156,8077,8161,8090,8103,8135,8130,8169,8026,0.3674545288085937
45,8167,8161,8125,8100,8123,8170,8094,8170,8111,8125,8150,8156,8164,8038,0.3751089572906494
46,8191,8175,8148,8114,8142,8181,8121,8187,8138,8155,8179,8208,8186,8067,0.3822088241577148
47,8171,8173,8146,8121,8152,8158,8142,8150,8173,8182,8159,8164,8162,8082,0.390756607055664
48,8192,8149,8136,8101,8120,8177,8113,8180,8141,8152,8178,8191,8188,8087,0.3984489440917969
49,8177,8145,8133,8096,8131,8154,8107,8162,8111,8142,8158,8147,8163,8063,0.4057340621948242
49,8177,8145,8133,8096,8131,8154,8107,8162,8111,8142,8158,8147,8163,8063,0.4072675704956054
50,8179,8165,8138,8107,8162,8166,8129,8166,8124,8150,8157,8134,8157,8065,0.4145641326904297
51,8179,8161,8139,8095,8141,8177,8132,8171,8123,8128,8169,8163,8171,8068,0.4218347072601318
51,8179,8161,8139,8095,8141,8177,8132,8171,8123,8128,8169,8163,8171,8068,0.4228231906890869
52,8145,8142,8122,8078,8113,8146,8122,8127,8102,8117,8145,8126,8141,8054,0.4298303127288818
52,8145,8142,8122,8078,8113,8146,8122,8127,8102,8117,8145,8126,8141,8054,0.4308230876922607
53,8173,8139,8117,8070,8111,8169,8091,8177,8051,8085,8166,8181,8189,8054,0.4384491443634033
54,8162,8146,8118,8083,8142,8154,8097,8158,8049,8078,8141,8132,8155,8030,0.4464125633239746
55,8165,8145,8117,8086,8132,8168,8104,8149,8073,8089,8138,8110,8135,8026,0.4538507461547851
56,8177,8140,8118,8075,8111,8176,8093,8171,8066,8087,8163,8167,8173,8040,0.4614498615264892
56,8177,8140,8118,8075,8111,8176,8093,8171,8066,8087,8163,8167,8173,8040,0.4618544578552246
57,8156,8141,8120,8081,8151,8143,8097,8134,8070,8101,8139,8119,8146,8043,0.4699053764343261
58,8191,8143,8120,8085,8146,8176,8075,8187,8064,8095,8157,8152,8181,8042,0.476902961730957
58,8191,8143,8120,8085,8146,8176,8075,8187,8064,8095,8157,8152,8181,8042,0.4779045581817627
59,8162,8149,8108,8088,8124,8158,8077,8157,8080,8103,8132,8113,8144,8013,0.4854519367218017
60,8149,8138,8107,8082,8126,8162,8093,8127,8087,8105,8136,8100,8131,8025,0.493450403213501
61,8162,8112,8108,8062,8128,8170,8076,8173,8061,8074,8164,8151,8183,8037,0.5009794235229492
61,8162,8112,8108,8062,8128,8170,8076,8173,8061,8074,8164,8151,8183,8037,0.5019769668579102
62,8131,8113,8100,8069,8128,8138,8065,8143,8063,8080,8125,8081,8144,8003,0.509423017501831
63,8164,8129,8105,8075,8097,8175,8055,8167,8063,8087,8154,8132,8170,8009,0.517209529876709
63,8164,8129,8105,8075,8097,8175,8055,8167,8063,8087,8154,8132,8170,8009,0.5182101726531982
64,8149,8139,8106,8078,8106,8154,8078,8149,8081,8107,8153,8132,8157,8027,0.5242457389831543
65,8148,8144,8110,8088,8151,8153,8092,8156,8084,8119,8148,8118,8154,8046,0.5322399139404297
66,8181,8142,8120,8089,8146,8181,8069,8198,8061,8093,8168,8157,8188,8037,0.540449857711792
67,8148,8151,8124,8103,8125,8153,8082,8128,8091,8115,8130,8085,8125,8005,0.547832727432251
67,8148,8151,8124,8103,8125,8153,8082,8128,8091,8115,8130,8085,8125,8005,0.5488393306732178
68,8169,8152,8130,8106,8119,8179,8084,8158,8101,8133,8167,8150,8167,8039,0.5558457374572754
68,8169,8152,8130,8106,8119,8179,8084,8158,8101,8133,8167,8150,8167,8039,0.5568380355834961
69,8162,8139,8126,8103,8143,8158,8079,8168,8092,8126,8169,8156,8181,8058,0.5638387203216553
70,8166,8155,8132,8117,8144,8149,8087,8152,8105,8119,8154,8112,8153,8056,0.5714504718780518
71,8202,8175,8149,8124,8123,8180,8079,8187,8112,8112,8178,8174,8179,8058,0.5794532299041748
72,8167,8169,8150,8134,8149,8161,8100,8131,8137,8148,8146,8134,8133,8060,0.5872859954833984
73,8185,8154,8148,8127,8143,8189,8096,8157,8128,8138,8176,8173,8170,8088,0.5950789451599121
74,8171,8148,8137,8112,8126,8162,8079,8170,8103,8109,8175,8157,8183,8081,0.6032891273498535
75,8150,8151,8124,8108,8133,8144,8074,8145,8093,8102,8150,8106,8150,8059,0.6114749908447266
76,8186,8149,8124,8101,8113,8181,8068,8183,8080,8084,8166,8168,8178,8044,0.6189532279968262
77,8161,8155,8125,8111,8128,8155,8108,8138,8110,8118,8139,8126,8135,8034,0.6274359226226807
78,8181,8163,8134,8115,8153,8176,8125,8168,8121,8134,8178,8168,8170,8073,0.6353631019592285
79,8181,8170,8141,8115,8158,8164,8123,8183,8117,8118,8176,8174,8182,8083,0.6423945426940918
80,8171,8193,8156,8143,8166,8149,8132,8148,8141,8126,8149,8126,8142,8070,0.650449275970459
81,8209,8202,8173,8153,8164,8191,8124,8186,8145,8134,8188,8194,8181,8089,0.6584498882293701
82,8170,8193,8163,8152,8180,8157,8144,8144,8163,8151,8172,8150,8152,8096,0.6661500930786133
82,8170,8193,8163,8152,8180,8157,8144,8144,8163,8151,8172,8150,8152,8096,0.6668262481689453
83,8179,8187,8164,8150,8182,8162,8145,8171,8163,8131,8187,8174,8181,8111,0.6746857166290283
84,8193,8188,8173,8157,8184,8164,8139,8197,8158,8133,8177,8180,8184,8101,0.6826975345611572
85,8179,8200,8177,8179,8181,8157,8168,8148,8192,8202,8162,8130,8134,8096,0.6906929016113281
86,8211,8199,8174,8173,8162,8194,8188,8183,8203,8217,8202,8204,8183,8131,0.6986994743347168
86,8211,8199,8174,8173,8162,8194,8188,8183,8203,8217,8202,8204,8183,8131,0.6988706588745117
87,8188,8195,8163,8173,8210,8155,8216,8158,8210,8195,8171,8165,8163,8135,0.7060048580169678
88,8199,8196,8166,8178,8231,8163,8195,8180,8185,8166,8181,8171,8179,8131,0.7130098342895508
88,8199,8196,8166,8178,8231,8163,8195,8180,8185,8166,8181,8171,8179,8131,0.7140140533447266
89,8192,8196,8159,8168,8184,8173,8157,8187,8151,8150,8170,8167,8173,8097,0.7215831279754639
90,8158,8201,8150,8169,8184,8157,8180,8124,8169,8166,8141,8113,8121,8085,0.7295827865600586
91,8194,8191,8151,8155,8196,8190,8178,8174,8159,8138,8184,8193,8180,8114,0.7374498844146729
92,8160,8169,8134,8134,8176,8149,8151,8158,8134,8120,8158,8146,8160,8088,0.7454497814178467
93,8163,8166,8133,8127,8137,8154,8127,8158,8123,8124,8161,8146,8157,8067,0.7536067962646484
94,8183,8168,8139,8128,8123,8172,8120,8175,8118,8127,8164,8180,8166,8064,0.7615966796875
95,8153,8151,8134,8139,8151,8147,8133,8123,8118,8142,8144,8133,8130,8069,0.7695965766906738
96,8191,8128,8136,8135,8146,8175,8115,8171,8091,8111,8178,8197,8186,8094,0.7764139175415039
97,8182,8135,8139,8139,8150,8151,8127,8160,8107,8109,8160,8160,8162,8086,0.7844498157501221
98,8188,8162,8152,8163,8164,8164,8138,8159,8129,8135,8177,8166,8154,8090,0.7919356822967529
99,8201,8159,8151,8161,8136,8183,8114,8181,8111,8125,8177,8195,8173,8087,0.7999508380889893
100,8163,8150,8144,8149,8134,8147,8126,8132,8131,8142,8152,8138,8140,8091,0.8084495067596436
101,8186,8158,8148,8140,8155,8177,8125,8180,8133,8137,8194,8206,8196,8123,0.8162164688110352
102,8154,8158,8135,8143,8159,8158,8113,8163,8103,8103,8150,8154,8164,8073,0.8242206573486328
103,8145,8156,8133,8150,8129,8161,8101,8138,8076,8084,8137,8120,8136,8031,0.8324437141418457
104,8188,8171,8150,8155,8129,8185,8098,8166,8072,8082,8173,8181,8173,8061,0.8404228687286377
105,8170,8188,8168,8185,8176,8150,8137,8125,8104,8119,8164,8147,8150,8095,0.8474490642547607
106,8199,8182,8179,8192,8153,8177,8133,8179,8088,8115,8190,8198,8197,8115,0.8554692268371582
107,8192,8191,8181,8197,8146,8163,8129,8181,8110,8127,8168,8170,8175,8095,0.863469123840332
108,8192,8213,8198,8213,8190,8163,8149,8152,8168,8169,8168,8151,8146,8106,0.8714494705200195
109,8221,8198,8206,8198,8178,8187,8149,8185,8152,8167,8198,8219,8187,8140,0.8795840740203857
110,8185,8186,8201,8208,8168,8147,8170,8144,8145,8182,8173,8179,8158,8148,0.8875861167907715
111,8208,8199,8211,8209,8160,8174,8160,8182,8135,8163,8200,8220,8189,8154,0.8954503536224365
112,8205,8202,8206,8189,8157,8166,8150,8181,8136,8146,8182,8198,8169,8126,0.903449535369873
113,8194,8196,8200,8203,8162,8158,8179,8134,8159,8175,8166,8158,8130,8123,0.910254716873169
114,8225,8190,8201,8222,8154,8190,8182,8173,8135,8167,8200,8226,8183,8150,0.9182498455047609
115,8197,8206,8206,8243,8188,8149,8177,8146,8125,8166,8183,8183,8160,8152,0.92641282081604
116,8229,8224,8222,8253,8199,8170,8152,8174,8134,8172,8204,8207,8175,8163,0.9342799186706544
117,8231,8218,8224,8247,8195,8173,8156,8173,8162,8201,8199,8206,8169,8161,0.9424493312835692
118,8215,8217,8227,8250,8213,8157,8183,8129,8192,8242,8193,8179,8148,8183,0.9504721164703368
119,8255,8223,8235,8243,8203,8180,8170,8188,8163,8227,8228,8247,8209,8218,0.9584710597991944
120,8217,8217,8226,8237,8193,8147,8179,8165,8161,8213,8188,8175,8166,8191,0.966693878173828
121,8222,8202,8225,8240,8175,8175,8179,8163,8173,8197,8193,8173,8164,8173,0.9744505882263184
122,8231,8200,8224,8242,8165,8175,8182,8157,8165,8185,8203,8199,8176,8178,0.98102068901062
123,8212,8203,8212,8232,8184,8148,8200,8130,8145,8191,8189,8162,8150,8193,0.9890198707580566
123,8212,8203,8212,8232,8184,8148,8200,8130,8145,8191,8189,8162,8150,8193,0.9900140762329102
124,8243,8191,8201,8209,8185,8184,8169,8202,8115,8165,8202,8206,8196,8192,0.9970290660858154
124,8243,8191,8201,8209,8185,8184,8169,8202,8115,8165,8202,8206,8196,8192,0.9980382919311525
125,8213,8199,8205,8230,8187,8159,8166,8163,8158,8187,8165,8152,8150,8157,1.0054497718811035
126,8232,8218,8226,8252,8173,8179,8185,8155,8202,8214,8193,8180,8153,8194,1.0132815837860107
127,8260,8227,8239,8250,8182,8182,8190,8191,8201,8215,8226,8233,8198,8247,1.0213050842285156
241,8246,8245,8253,8280,8234,8149,8194,8157,8216,8259,8203,8185,8174,8246,1.029304265975952
0,8273,8245,8255,8290,8218,8188,8176,8190,8214,8274,8215,8230,8194,8227,1.036304235458374
1,8235,8216,8218,8259,8182,8165,8191,8153,8227,8265,8189,8190,8152,8198,1.044304370880127
2,8230,8183,8198,8226,8171,8169,8203,8155,8221,8238,8196,8190,8161,8205,1.0523886680603027
3,8233,8170,8205,8215,8162,8180,8177,8185,8178,8208,8197,8222,8195,8190,1.060408592224121
4,8194,8193,8212,8243,8179,8153,8175,8125,8178,8215,8161,8163,8144,8159,1.068725824356079
5,8237,8209,8221,8257,8192,8192,8171,8163,8172,8201,8201,8220,8171,8177,1.0767245292663574
6,8230,8204,8225,8252,8195,8164,8187,8158,8179,8228,8199,8203,8162,8190,1.0844523906707764
7,8231,8209,8234,8251,8175,8160,8198,8156,8200,8266,8199,8205,8170,8214,1.0925698280334473
8,8255,8211,8241,8247,8170,8182,8177,8194,8203,8253,8215,8257,8206,8227,1.1005802154541016
9,8228,8215,8249,8270,8215,8154,8173,8151,8228,8271,8195,8198,8157,8218,1.1075806617736816
10,8256,8216,8255,8275,8209,8182,8153,8190,8220,8265,8217,8235,8190,8223,1.1155869960784912
11,8227,8202,8231,8256,8184,8159,8156,8172,8211,8238,8190,8210,8182,8190,1.123626470565796
12,8210,8192,8224,8257,8182,8159,8172,8146,8222,8231,8180,8184,8157,8167,1.1314494609832764
13,8230,8185,8228,8257,8158,8190,8163,8176,8189,8203,8195,8222,8177,8151,1.1393961906433103
14,8181,8179,8211,8250,8172,8156,8168,8115,8145,8174,8154,8154,8129,8113,1.147449016571045
15,8213,8183,8213,8236,8184,8178,8157,8163,8123,8155,8181,8204,8174,8133,1.1557316780090332
16,8230,8204,8227,8253,8178,8164,8166,8190,8160,8184,8184,8215,8179,8157,1.1633315086364746
17,8218,8218,8227,8279,8212,8162,8163,8144,8175,8194,8167,8172,8140,8147,1.1733262538909912
18,8239,8220,8232,8269,8250,8192,8137,8159,8137,8166,8191,8222,8174,8150,1.178323745727539
19,8222,8238,8250,8289,8252,8154,8177,8132,8172,8217,8189,8199,8158,8189,1.186323165893555
20,8264,8252,8270,8317,8202,8184,8190,8186,8214,8255,8223,8245,8196,8237,1.1943273544311523
21,8250,8238,8255,8297,8201,8182,8149,8184,8207,8238,8193,8223,8177,8193,1.2023277282714844
22,8197,8203,8218,8254,8235,8159,8125,8121,8182,8202,8148,8157,8127,8130,1.209838628768921
23,8216,8165,8201,8223,8189,8185,8133,8174,8152,8153,8174,8208,8181,8128,1.2178385257720947
24,8188,8153,8194,8221,8139,8153,8172,8161,8163,8155,8151,8159,8157,8117,1.2258388996124268
24,8188,8153,8194,8221,8139,8153,8172,8161,8163,8155,8151,8159,8157,8117,1.2267661094665527
25,8192,8147,8185,8203,8135,8180,8139,8163,8123,8123,8153,8172,8153,8090,1.232770919799805
26,8189,8135,8178,8183,8164,8184,8104,8154,8080,8089,8153,8183,8153,8074,1.2407715320587158
27,8187,8153,8211,8212,8169,8166,8157,8128,8113,8135,8162,8160,8143,8122,1.2487709522247314
28,8235,8173,8246,8237,8147,8199,8164,8179,8106,8145,8204,8233,8196,8165,1.2567930221557615
28,8235,8173,8246,8237,8147,8199,8164,8179,8106,8145,8204,8233,8196,8165,1.257800579071045
29,8206,8177,8235,8244,8172,8163,8143,8130,8095,8139,8169,8193,8153,8142,1.2657980918884275
30,8223,8184,8234,8244,8167,8174,8138,8142,8095,8136,8182,8209,8167,8159,1.2734506130218506
31,8228,8185,8235,8239,8168,8170,8130,8178,8089,8126,8196,8223,8195,8169,1.2814500331878662
32,8193,8187,8233,8253,8230,8143,8144,8148,8141,8153,8168,8163,8151,8159,1.2894501686096191
33,8231,8187,8242,8248,8216,8183,8156,8209,8199,8173,8190,8217,8192,8174,1.2974891662597656
34,8210,8188,8242,8251,8189,8158,8192,8185,8248,8203,8176,8181,8169,8163,1.3044822216033936
35,8212,8189,8242,8275,8211,8176,8213,8180,8255,8210,8180,8179,8165,8163,1.3128101825714111
36,8220,8179,8230,8274,8217,8186,8208,8197,8223,8173,8174,8200,8178,8149,1.3204498291015625
37,8193,8174,8221,8266,8206,8155,8221,8135,8211,8160,8146,8147,8131,8133,1.328507900238037
38,8231,8178,8233,8257,8186,8192,8202,8171,8180,8157,8187,8215,8176,8163,1.3364896774291992
39,8209,8183,8235,8264,8203,8164,8187,8153,8156,8162,8170,8193,8168,8167,1.344451904296875
39,8209,8183,8235,8264,8203,8164,8187,8153,8156,8162,8170,8193,8168,8167,1.3454556465148926
40,8214,8184,8232,8262,8205,8168,8164,8145,8118,8133,8160,8176,8158,8152,1.3524565696716309
41,8241,8185,8233,8255,8191,8190,8149,8174,8096,8115,8175,8217,8175,8146,1.360522985458374
42,8213,8206,8246,8291,8224,8161,8188,8138,8151,8176,8164,8179,8143,8168,1.3675012588500977
43,8243,8211,8253,8294,8231,8186,8192,8195,8173,8187,8199,8229,8196,8210,1.375518560409546
44,8221,8195,8231,8270,8234,8163,8200,8184,8181,8170,8174,8188,8172,8174,1.3834495544433594
45,8211,8193,8213,8268,8235,8175,8213,8154,8181,8152,8151,8147,8140,8126,1.3914480209350586
46,8234,8189,8203,8248,8214,8197,8216,8186,8162,8141,8173,8201,8181,8135,1.399451494216919
47,8211,8190,8200,8238,8229,8154,8253,8156,8202,8197,8166,8175,8162,8167,1.4064459800720217
47,8211,8190,8200,8238,8229,8154,8253,8156,8202,8197,8166,8175,8162,8167,1.4079525470733645
48,8241,8199,8210,8243,8223,8182,8239,8201,8221,8196,8188,8211,8194,8175,1.415449857711792
49,8221,8208,8204,8246,8205,8171,8217,8176,8214,8169,8162,8178,8161,8134,1.4234497547149658
50,8223,8224,8214,8262,8216,8171,8235,8138,8223,8197,8167,8175,8138,8162,1.4314496517181396
51,8277,8246,8245,8289,8241,8194,8239,8193,8215,8215,8219,8267,8207,8231,1.438443660736084
52,8256,8274,8262,8327,8282,8154,8246,8161,8229,8230,8197,8213,8178,8230,1.4464120864868164
53,8294,8288,8284,8341,8295,8193,8252,8193,8255,8249,8212,8241,8184,8241,1.4544353485107422
54,8296,8290,8294,8352,8302,8189,8285,8192,8290,8296,8210,8251,8176,8266,1.4624314308166504
55,8273,8284,8282,8368,8301,8164,8297,8159,8294,8300,8197,8210,8164,8273,1.4704387187957764
55,8273,8284,8282,8368,8301,8164,8297,8159,8294,8300,8197,8210,8164,8273,1.471433401107788
56,8296,8262,8267,8346,8278,8193,8259,8209,8255,8239,8213,8248,8204,8254,1.4784505367279053
57,8257,8249,8256,8324,8297,8172,8268,8160,8268,8251,8176,8192,8147,8217,1.4862244129180908
58,8260,8233,8241,8307,8281,8193,8264,8156,8249,8248,8186,8211,8160,8213,1.494474172592163
59,8242,8208,8211,8282,8248,8174,8244,8164,8207,8201,8183,8212,8182,8192,1.5014731884002686
60,8216,8208,8208,8281,8272,8155,8257,8151,8230,8204,8170,8162,8152,8174,1.5094492435455322
61,8254,8215,8221,8282,8269,8191,8257,8197,8239,8219,8195,8217,8177,8181,1.5174906253814695
62,8233,8219,8223,8293,8260,8158,8277,8153,8245,8250,8177,8194,8150,8198,1.525449514389038
63,8264,8239,8247,8312,8268,8180,8279,8187,8249,8264,8209,8236,8183,8254,1.5334193706512451
64,8284,8254,8271,8328,8277,8177,8267,8216,8264,8269,8212,8255,8192,8263,1.5414247512817385
65,8262,8257,8276,8339,8285,8153,8277,8154,8292,8296,8184,8204,8143,8245,1.5494508743286133
66,8298,8256,8288,8344,8272,8191,8265,8185,8268,8293,8221,8273,8190,8275,1.5574438571929932
67,8273,8260,8291,8361,8277,8159,8269,8167,8257,8295,8211,8243,8175,8289,1.564450740814209
68,8278,8247,8276,8347,8263,8172,8260,8177,8239,8271,8207,8229,8176,8273,1.5727472305297852
69,8277,8219,8253,8311,8255,8185,8246,8180,8212,8237,8187,8234,8176,8225,1.580749750137329
70,8232,8217,8236,8312,8284,8164,8274,8129,8234,8254,8153,8182,8128,8204,1.588117599487305
71,8253,8217,8225,8294,8275,8195,8280,8189,8226,8235,8195,8239,8184,8224,1.5961458683013916
72,8227,8208,8215,8275,8260,8158,8283,8177,8218,8216,8181,8199,8169,8198,1.6044447422027588
73,8231,8205,8222,8281,8234,8167,8277,8175,8237,8220,8171,8186,8154,8182,1.6124496459960938
74,8249,8204,8227,8276,8219,8195,8270,8204,8258,8232,8185,8227,8175,8196,1.6204495429992676
75,8231,8213,8231,8283,8268,8169,8290,8153,8283,8266,8175,8188,8149,8220,1.627737522125244
75,8231,8213,8231,8283,8268,8169,8290,8153,8283,8266,8175,8188,8149,8220,1.628880739212036
76,8277,8221,8251,8292,8282,8185,8263,8193,8260,8255,8210,8249,8198,8256,1.635887861251831
77,8258,8225,8258,8303,8251,8155,8237,8176,8254,8258,8193,8230,8176,8246,1.6428897380828855
77,8258,8225,8258,8303,8251,8155,8237,8176,8254,8258,8193,8230,8176,8246,1.6438915729522705
78,8255,8232,8264,8311,8230,8169,8240,8145,8244,8269,8186,8217,8147,8234,1.65144944190979
79,8284,8228,8264,8301,8242,8189,8248,8161,8192,8237,8208,8270,8177,8234,1.659449577331543
80,8247,8217,8255,8301,8273,8151,8255,8134,8173,8220,8186,8219,8156,8226,1.6674492359161377
81,8262,8203,8248,8283,8245,8190,8220,8188,8165,8200,8196,8249,8189,8217,1.6749701499938965
82,8232,8187,8222,8254,8221,8173,8231,8158,8187,8212,8172,8219,8163,8180,1.682969570159912
83,8212,8172,8195,8236,8227,8162,8257,8135,8208,8224,8170,8180,8148,8174,1.6909713745117188
84,8227,8153,8177,8208,8202,8185,8226,8210,8190,8182,8190,8218,8195,8169,1.6982142925262451
85,8196,8159,8176,8210,8196,8157,8236,8167,8222,8192,8153,8171,8147,8135,1.706413507461548
86,8235,8175,8198,8225,8195,8195,8253,8174,8253,8220,8186,8222,8170,8163,1.714450120925903
87,8234,8186,8209,8233,8206,8180,8246,8182,8256,8230,8196,8224,8183,8195,1.7221696376800537
88,8221,8197,8217,8249,8222,8156,8224,8163,8246,8229,8182,8195,8161,8191,1.7301695346832275
89,8253,8199,8229,8255,8212,8181,8199,8188,8217,8210,8200,8257,8187,8190,1.7384498119354248
90,8230,8207,8230,8268,8226,8154,8232,8129,8217,8226,8177,8214,8146,8198,1.746413230895996
91,8259,8213,8237,8272,8225,8181,8242,8158,8187,8204,8197,8245,8179,8223,1.7542357444763184
92,8248,8212,8241,8275,8224,8169,8227,8177,8158,8174,8188,8246,8186,8204,1.7614402770996094
93,8221,8213,8240,8276,8227,8156,8231,8143,8174,8199,8163,8192,8144,8183,1.7694318294525146
94,8254,8200,8228,8248,8208,8191,8231,8184,8179,8208,8191,8237,8187,8194,1.777449369430542
95,8211,8185,8204,8244,8227,8149,8244,8160,8204,8214,8172,8189,8165,8180,1.7854499816894531
96,8208,8171,8191,8228,8208,8169,8214,8189,8199,8189,8173,8200,8171,8147,1.7934553623199463
97,8210,8161,8182,8197,8169,8179,8196,8186,8198,8184,8164,8215,8167,8117,1.8014554977416992
98,8194,8161,8183,8203,8185,8158,8214,8135,8218,8206,8151,8182,8139,8135,1.8094587326049805
99,8227,8159,8192,8193,8187,8181,8179,8185,8170,8157,8181,8246,8191,8155,1.8174798488616943
100,8196,8169,8194,8190,8188,8152,8166,8145,8162,8147,8158,8204,8151,8121,1.824682712554932
101,8213,8179,8202,8206,8186,8173,8178,8140,8182,8176,8173,8209,8150,8133,1.8326835632324217
102,8223,8170,8198,8201,8180,8173,8176,8167,8148,8165,8184,8237,8181,8158,1.840449810028076
103,8203,8182,8209,8214,8201,8150,8185,8147,8133,8160,8163,8202,8157,8163,1.848449230194092
104,8251,8208,8238,8240,8198,8186,8183,8200,8153,8179,8199,8263,8190,8185,1.8564128875732424
105,8227,8202,8231,8238,8188,8150,8206,8157,8191,8233,8183,8218,8157,8190,1.8645830154418943
106,8227,8182,8218,8211,8194,8162,8216,8155,8194,8245,8181,8205,8169,8205,1.872431755065918
107,8240,8180,8210,8191,8203,8176,8208,8207,8186,8215,8183,8225,8196,8189,1.8804385662078855
108,8209,8187,8199,8197,8207,8150,8225,8161,8222,8224,8153,8156,8138,8146,1.8884172439575195
109,8242,8184,8199,8196,8191,8188,8225,8183,8235,8221,8188,8206,8172,8157,1.8954501152038572
110,8221,8185,8198,8195,8219,8153,8243,8174,8246,8224,8176,8188,8170,8172,1.9035637378692627
111,8210,8187,8198,8185,8235,8151,8232,8173,8239,8214,8167,8164,8159,8160,1.911782503128052
112,8220,8171,8188,8160,8195,8176,8193,8183,8211,8190,8177,8193,8173,8123,1.9197816848754885
113,8196,8169,8189,8175,8205,8148,8215,8129,8224,8212,8160,8156,8137,8128,1.927797555923462
114,8234,8190,8217,8194,8213,8176,8211,8192,8201,8202,8194,8215,8190,8184,1.935450553894043
115,8217,8212,8229,8201,8208,8158,8189,8189,8186,8203,8176,8191,8178,8174,1.943777561187744
116,8223,8219,8232,8214,8222,8167,8202,8158,8206,8233,8170,8178,8149,8173,1.9512970447540283
116,8223,8219,8232,8214,8222,8167,8202,8158,8206,8233,8170,8178,8149,8173,1.952296495437622
117,8246,8204,8226,8204,8236,8187,8221,8193,8199,8225,8197,8237,8189,8201,1.9583022594451904
118,8189,8187,8203,8185,8232,8144,8239,8159,8200,8220,8165,8160,8159,8176,1.966415882110596
119,8205,8167,8188,8155,8179,8175,8220,8194,8196,8202,8175,8181,8176,8137,1.97445011138916
120,8197,8151,8172,8142,8176,8164,8229,8172,8212,8207,8160,8178,8153,8108,1.9830198287963867
121,8183,8152,8165,8146,8206,8159,8245,8139,8218,8204,8151,8153,8141,8120,1.9904437065124512
122,8214,8159,8173,8127,8195,8183,8219,8199,8191,8170,8181,8207,8197,8134,1.9980332851409912
123,8196,8188,8193,8147,8209,8151,8236,8160,8232,8210,8165,8163,8152,8125,2.006040096282959
124,8226,8201,8205,8179,8213,8182,8244,8169,8253,8236,8189,8200,8167,8150,2.0144495964050293
125,8207,8173,8188,8167,8214,8163,8217,8163,8213,8205,8178,8205,8178,8155,2.0214521884918213
126,8191,8168,8192,8157,8207,8142,8194,8146,8188,8196,8168,8179,8158,8148,2.0291683673858643
126,8191,8168,8192,8157,8207,8142,8194,8146,8188,8196,8168,8179,8158,8148,2.030169725418091
127,8231,8178,8207,8157,8157,8178,8187,8199,8189,8206,8198,8232,8190,8153,2.037435293197632
241,8185,8158,8192,8154,8165,8152,8220,8144,8206,8226,8158,8162,8143,8138,2.045419692993164
0,8189,8135,8177,8128,8191,8171,8213,8160,8174,8189,8164,8180,8165,8139,2.0534918308258057
1,8184,8129,8159,8105,8177,8162,8192,8191,8154,8151,8167,8200,8176,8113,2.0614922046661377
2,8147,8124,8147,8092,8156,8149,8198,8154,8183,8162,8143,8146,8133,8067,2.06949234008789
3,8162,8119,8149,8074,8146,8187,8195,8171,8175,8147,8156,8188,8171,8063,2.0774917602539062
4,8136,8125,8141,8090,8168,8155,8210,8133,8177,8145,8135,8148,8150,8069,2.085491180419922
5,8158,8130,8141,8104,8159,8168,8189,8165,8168,8138,8159,8165,8170,8082,2.092449903488159
6,8172,8145,8156,8105,8146,8163,8168,8180,8162,8147,8169,8190,8179,8082,2.100576877593994
7,8171,8175,8185,8138,8168,8147,8192,8127,8201,8205,8158,8163,8139,8112,2.1086573600769043
8,8220,8186,8200,8151,8168,8191,8189,8179,8204,8214,8200,8222,8185,8152,2.116412878036499
9,8183,8180,8182,8140,8178,8156,8205,8159,8207,8214,8177,8167,8156,8136,2.1244499683380127
10,8175,8159,8165,8119,8177,8160,8216,8164,8196,8190,8166,8164,8157,8127,2.1324503421783447
11,8175,8136,8152,8093,8151,8165,8197,8184,8160,8139,8160,8184,8181,8103,2.1404473781585693
12,8145,8138,8143,8087,8148,8143,8205,8134,8156,8129,8138,8119,8143,8074,2.1486873626708984
13,8175,8128,8142,8080,8140,8178,8200,8185,8137,8117,8172,8169,8186,8087,2.155687093734741
14,8148,8121,8143,8091,8161,8145,8208,8170,8153,8136,8152,8136,8160,8068,2.163731813430786
15,8161,8148,8159,8111,8176,8163,8214,8158,8188,8164,8156,8133,8153,8068,2.171449661254883
16,8186,8159,8165,8107,8172,8185,8200,8178,8186,8177,8179,8186,8188,8105,2.1794395446777344
17,8150,8154,8159,8118,8181,8141,8185,8136,8176,8198,8160,8138,8154,8115,2.1874327659606934
18,8185,8157,8167,8125,8153,8168,8140,8184,8154,8183,8184,8183,8182,8105,2.1949493885040283
19,8174,8166,8167,8120,8159,8156,8142,8155,8172,8199,8168,8166,8156,8094,2.2029428482055664
20,8157,8152,8151,8098,8181,8159,8168,8139,8172,8204,8165,8149,8153,8109,2.211449384689331
21,8158,8120,8124,8064,8151,8169,8172,8200,8133,8138,8170,8172,8190,8087,2.218449592590332
21,8158,8120,8124,8064,8151,8169,8172,8200,8133,8138,8170,8172,8190,8087,2.2189533710479736
22,8123,8116,8115,8074,8133,8146,8205,8162,8150,8131,8126,8098,8133,8040,2.226038694381714
22,8123,8116,8115,8074,8133,8146,8205,8162,8150,8131,8126,8098,8133,8040,2.227098226547241
23,8159,8134,8129,8078,8125,8192,8223,8182,8158,8147,8157,8152,8160,8060,2.233898401260376
23,8159,8134,8129,8078,8125,8192,8223,8182,8158,8147,8157,8152,8160,8060,2.2348971366882324
24,8152,8146,8132,8071,8144,8163,8237,8167,8149,8144,8168,8158,8168,8077,2.242060422897339
24,8152,8146,8132,8071,8144,8163,8237,8167,8149,8144,8168,8158,8168,8077,2.243053436279297
25,8144,8143,8131,8084,8162,8147,8227,8149,8135,8122,8157,8131,8160,8072,2.2500603199005127
25,8144,8143,8131,8084,8162,8147,8227,8149,8135,8122,8157,8131,8160,8072,2.2510552406311035
26,8167,8137,8135,8094,8145,8178,8185,8189,8115,8107,8164,8170,8186,8063,2.258449077606201
27,8142,8167,8151,8125,8163,8151,8198,8138,8155,8166,8148,8124,8138,8067,2.2660787105560303
28,8184,8199,8167,8143,8188,8179,8198,8163,8170,8200,8187,8178,8176,8117,2.2740726470947266
29,8182,8199,8158,8137,8205,8162,8178,8174,8162,8209,8177,8174,8186,8124,2.282075881958008
30,8172,8203,8158,8149,8211,8153,8177,8158,8183,8231,8159,8129,8155,8118,2.2890734672546387
31,8196,8201,8162,8139,8194,8185,8177,8190,8187,8216,8183,8175,8183,8124,2.2970759868621826
32,8141,8168,8134,8108,8188,8149,8214,8137,8191,8203,8150,8119,8147,8098,2.3050756454467773
33,8149,8137,8115,8079,8157,8167,8236,8179,8167,8177,8163,8144,8172,8087,2.3135836124420166
34,8152,8142,8119,8081,8150,8163,8253,8196,8165,8176,8155,8153,8165,8067,2.321584939956665
35,8132,8154,8130,8096,8172,8165,8275,8144,8191,8188,8135,8121,8126,8063,2.3295860290527344
36,8152,8137,8120,8077,8150,8193,8254,8184,8159,8149,8169,8176,8179,8078,2.33758544921875
37,8116,8124,8097,8059,8150,8141,8241,8150,8140,8135,8144,8117,8152,8061,2.345449924468994
38,8145,8130,8113,8063,8162,8163,8212,8157,8133,8131,8155,8139,8169,8074,2.3534505367279053
39,8154,8140,8133,8080,8155,8169,8179,8169,8124,8134,8164,8167,8188,8084,2.360123872756958
40,8121,8146,8128,8095,8152,8142,8165,8143,8137,8161,8144,8105,8148,8070,2.3681366443634038
41,8153,8141,8118,8076,8134,8172,8140,8195,8135,8148,8158,8146,8182,8062,2.376406669616699
42,8123,8138,8108,8066,8142,8146,8158,8151,8147,8150,8124,8102,8143,8042,2.3844501972198486
43,8129,8141,8104,8065,8144,8164,8172,8157,8146,8150,8136,8106,8147,8045,2.392451286315918
44,8138,8138,8099,8057,8132,8172,8179,8191,8139,8141,8144,8133,8175,8034,2.400449752807617
45,8108,8136,8092,8057,8136,8152,8211,8146,8158,8150,8114,8080,8131,8016,2.408449649810791
46,8129,8120,8077,8032,8107,8191,8199,8172,8123,8107,8139,8126,8157,8014,2.415449857711792
47,8093,8098,8060,8012,8097,8160,8187,8136,8097,8080,8124,8087,8139,7994,2.4231741428375244
48,8103,8098,8081,8020,8107,8162,8177,8152,8108,8086,8140,8092,8160,8016,2.431084156036377
49,8132,8112,8105,8026,8099,8170,8149,8192,8106,8080,8157,8132,8186,8028,2.439450263977051
50,8101,8116,8099,8040,8101,8143,8137,8127,8101,8090,8123,8078,8125,8000,2.447448968887329
51,8125,8107,8097,8031,8080,8177,8114,8155,8075,8083,8151,8130,8160,8016,2.4557135105133057
52,8103,8102,8090,8012,8073,8146,8115,8151,8071,8091,8140,8103,8157,8022,2.463712692260742
53,8091,8093,8071,7994,8068,8148,8108,8155,8064,8074,8124,8077,8148,7993,2.470919609069824
53,8091,8093,8071,7994,8068,8148,8108,8155,8064,8074,8124,8077,8148,7993,2.471926212310791
54,8097,8067,8052,7971,8050,8176,8098,8184,8050,8038,8122,8103,8165,7946,2.4795174598693848
55,8068,8070,8050,7978,8069,8146,8155,8129,8094,8068,8104,8053,8126,7941,2.4869370460510254
55,8068,8070,8050,7978,8069,8146,8155,8129,8094,8068,8104,8053,8126,7941,2.487929344177246
56,8104,8088,8063,7977,8081,8167,8179,8175,8100,8073,8147,8114,8177,7982,2.4939510822296143
56,8104,8088,8063,7977,8081,8167,8179,8175,8100,8073,8147,8114,8177,7982,2.494946956634521
57,8083,8091,8060,7978,8089,8145,8175,8178,8091,8056,8135,8096,8165,7964,2.5024502277374268
58,8080,8102,8073,8004,8092,8159,8175,8153,8101,8054,8123,8074,8139,7956,2.510502815246582
59,8114,8112,8090,8002,8078,8187,8165,8170,8084,8057,8144,8131,8171,7985,2.518449544906616
60,8077,8110,8087,7992,8088,8144,8161,8120,8078,8075,8124,8080,8139,7987,2.5264127254486084
61,8105,8104,8085,7997,8086,8169,8124,8164,8062,8051,8148,8119,8173,7986,2.5344409942626958
62,8110,8119,8092,8022,8097,8159,8133,8163,8093,8066,8133,8113,8158,7977,2.5424599647521973
63,8107,8145,8111,8032,8107,8157,8178,8137,8144,8119,8132,8095,8139,8008,2.54944372177124
64,8138,8136,8111,8006,8086,8181,8175,8187,8127,8103,8169,8157,8193,8047,2.557459115982056
65,8112,8125,8096,8007,8100,8145,8173,8154,8117,8090,8138,8100,8154,8031,2.565457344055176
66,8133,8130,8097,8011,8100,8174,8164,8174,8109,8077,8150,8116,8166,8013,2.5734665393829346
67,8122,8129,8089,7996,8095,8162,8176,8159,8105,8067,8144,8107,8159,7993,2.5814669132232666
68,8111,8126,8082,7996,8106,8147,8197,8131,8113,8081,8134,8078,8141,8001,2.589449644088745
69,8149,8134,8092,8004,8108,8181,8181,8197,8099,8075,8166,8142,8195,8026,2.597449541091919
70,8115,8155,8103,8030,8137,8150,8198,8161,8117,8102,8137,8093,8148,8012,2.6057560443878174
71,8131,8157,8108,8037,8123,8175,8188,8163,8116,8106,8143,8113,8152,8005,2.612330913543701
72,8138,8151,8111,8029,8101,8171,8169,8163,8112,8095,8144,8129,8165,7999,2.620330810546875
73,8126,8159,8122,8051,8124,8148,8195,8136,8153,8124,8141,8092,8142,8017,2.6284492015838623
73,8126,8159,8122,8051,8124,8148,8195,8136,8153,8124,8141,8092,8142,8017,2.62933611869812
74,8155,8140,8113,8044,8113,8179,8192,8188,8143,8113,8168,8140,8187,8032,2.636408567428589
75,8112,8123,8090,8022,8120,8150,8191,8151,8128,8097,8135,8086,8152,8001,2.644453287124634
76,8125,8138,8102,8028,8141,8169,8184,8170,8129,8085,8150,8105,8163,8006,2.6524527072906494
77,8141,8150,8109,8047,8133,8167,8172,8187,8134,8088,8150,8128,8174,8000,2.6604487895965576
78,8116,8152,8100,8056,8129,8144,8188,8129,8153,8112,8128,8081,8128,7992,2.668126344680786
79,8155,8156,8112,8039,8129,8181,8190,8180,8150,8111,8176,8160,8182,8038,2.676126480102539
80,8135,8169,8124,8045,8158,8149,8206,8172,8167,8142,8163,8141,8170,8060,2.6834499835968018
80,8135,8169,8124,8045,8158,8149,8206,8172,8167,8142,8163,8141,8170,8060,2.684128522872925
81,8141,8178,8131,8054,8154,8164,8205,8178,8172,8149,8155,8134,8167,8064,2.6911394596099854
82,8146,8168,8125,8041,8116,8176,8191,8187,8168,8124,8158,8144,8175,8050,2.6991755962371826
83,8112,8160,8120,8049,8141,8149,8212,8134,8186,8144,8145,8090,8136,8052,2.7071828842163086
84,8152,8167,8129,8061,8158,8183,8217,8192,8168,8148,8182,8156,8190,8087,2.7151989936828613
85,8133,8174,8129,8077,8143,8152,8219,8175,8180,8153,8154,8125,8166,8069,2.723449468612671
86,8133,8173,8129,8083,8133,8161,8210,8150,8195,8161,8148,8110,8145,8050,2.731444835662842
87,8151,8162,8123,8060,8137,8179,8204,8174,8170,8153,8169,8159,8175,8063,2.7394495010375977
87,8151,8162,8123,8060,8137,8179,8204,8174,8170,8153,8169,8159,8175,8063,2.7402150630950928
88,8121,8155,8118,8057,8148,8146,8213,8143,8172,8157,8148,8113,8149,8073,2.747445106506348
89,8156,8162,8128,8072,8137,8182,8179,8190,8171,8138,8173,8151,8184,8073,2.7544798851013184
90,8137,8182,8129,8083,8149,8158,8184,8161,8187,8150,8161,8122,8153,8043,2.7625019550323486
91,8127,8188,8131,8078,8160,8157,8207,8133,8197,8166,8162,8119,8141,8059,2.7705063819885254
92,8149,8171,8137,8069,8149,8182,8186,8180,8169,8145,8177,8176,8190,8090,2.778449296951294
93,8126,8178,8137,8086,8162,8154,8191,8155,8170,8153,8143,8109,8148,8073,2.786412715911865
94,8160,8191,8142,8098,8143,8180,8194,8186,8170,8161,8169,8145,8173,8070,2.7944493293762207
95,8142,8186,8146,8103,8156,8163,8212,8164,8185,8182,8169,8146,8169,8082,2.8024795055389404
96,8128,8181,8145,8099,8177,8168,8213,8147,8181,8178,8162,8120,8155,8096,2.8105509281158447
97,8150,8162,8131,8066,8123,8189,8156,8196,8133,8120,8169,8146,8184,8066,2.81754994392395
98,8111,8152,8121,8065,8109,8144,8145,8139,8149,8127,8135,8088,8135,8028,2.8254504203796387
99,8138,8157,8127,8070,8121,8179,8161,8156,8153,8144,8160,8138,8163,8061,2.833449125289917
100,8136,8150,8121,8054,8128,8173,8168,8158,8125,8142,8154,8136,8167,8071,2.841449499130249
101,8124,8143,8122,8054,8139,8154,8159,8143,8124,8140,8144,8097,8147,8059,2.84945011138916
102,8153,8149,8134,8061,8119,8178,8141,8194,8125,8121,8171,8149,8181,8057,2.857842445373535
103,8122,8168,8140,8087,8122,8153,8172,8145,8155,8148,8145,8106,8135,8055,2.864851713180542
103,8122,8168,8140,8087,8122,8153,8172,8145,8155,8148,8145,8106,8135,8055,2.86584997177124
104,8152,8177,8154,8095,8144,8184,8188,8166,8154,8159,8171,8151,8170,8097,2.8738527297973637
105,8145,8166,8152,8083,8155,8168,8182,8180,8131,8151,8173,8154,8186,8105,2.8804502487182617
106,8108,8157,8146,8084,8138,8146,8171,8151,8133,8162,8148,8096,8142,8075,2.887871742248535
107,8144,8162,8157,8080,8114,8190,8157,8190,8132,8153,8172,8157,8171,8068,2.896412849426269
108,8121,8169,8156,8084,8141,8159,8188,8136,8157,8162,8153,8125,8144,8067,2.904445171356201
109,8129,8149,8140,8075,8141,8167,8176,8154,8142,8145,8170,8138,8171,8084,2.912449598312378
110,8123,8134,8124,8060,8125,8156,8135,8180,8104,8121,8162,8136,8180,8065,2.9204564094543457
111,8093,8159,8129,8072,8118,8142,8134,8133,8109,8139,8133,8084,8134,8039,2.9284496307373047
112,8124,8172,8138,8077,8085,8186,8132,8171,8104,8137,8171,8151,8177,8060,2.936476707458496
113,8103,8163,8129,8079,8117,8149,8164,8149,8123,8150,8160,8119,8155,8072,2.942978858947754
114,8124,8163,8141,8083,8154,8161,8171,8169,8136,8159,8170,8131,8174,8084,2.950978279113769
115,8132,8172,8153,8087,8136,8169,8149,8195,8137,8151,8170,8150,8187,8067,2.9595651626586914
116,8099,8167,8142,8094,8131,8146,8158,8135,8152,8161,8142,8087,8125,8046,2.967552900314331
117,8130,8145,8131,8078,8125,8183,8147,8167,8126,8139,8168,8143,8169,8062,2.9755561351776123
118,8095,8140,8121,8072,8136,8146,8139,8157,8113,8132,8144,8106,8163,8052,2.9832231998443604
119,8097,8149,8123,8083,8131,8155,8128,8164,8112,8125,8145,8092,8152,8036,2.99129319190979
120,8120,8147,8127,8081,8116,8180,8128,8172,8122,8120,8163,8132,8160,8034,2.9993109703063965
121,8092,8153,8128,8092,8134,8150,8153,8121,8156,8160,8154,8092,8135,8056,3.0064127445220947
122,8120,8150,8125,8084,8131,8168,8117,8185,8117,8137,8177,8134,8188,8067,3.0144503116607666
123,8102,8144,8123,8079,8130,8150,8112,8175,8109,8125,8145,8103,8156,8029,3.022451162338257
124,8117,8165,8151,8103,8133,8177,8161,8158,8160,8184,8153,8114,8139,8052,3.030524969100952
125,8149,8179,8168,8115,8142,8187,8172,8192,8157,8211,8186,8173,8186,8100,3.038524627685547
126,8119,8175,8166,8124,8171,8136,8165,8151,8149,8207,8163,8124,8161,8100,3.0465662479400635
127,8145,8166,8163,8112,8155,8174,8141,8186,8144,8173,8179,8160,8186,8096,3.054574489593506
241,8132,8169,8159,8114,8155,8166,8159,8169,8170,8183,8161,8134,8160,8078,3.062742233276367
0,8129,8184,8170,8141,8179,8163,8194,8150,8203,8211,8168,8122,8148,8098,3.069866895675659
0,8129,8184,8170,8141,8179,8163,8194,8150,8203,8211,8168,8122,8148,8098,3.070859432220459
1,8143,8170,8163,8126,8166,8177,8173,8190,8176,8190,8194,8169,8191,8116,3.07685923576355
1,8143,8170,8163,8126,8166,8177,8173,8190,8176,8190,8194,8169,8191,8116,3.0778605937957764
2,8106,8155,8146,8107,8165,8148,8157,8147,8164,8191,8154,8100,8147,8078,3.085451126098633
3,8149,8167,8158,8118,8161,8189,8155,8180,8163,8189,8174,8140,8172,8078,3.0929689407348637
4,8146,8186,8162,8138,8178,8169,8184,8170,8178,8206,8181,8149,8167,8103,3.100969791412353
5,8129,8182,8161,8141,8209,8150,8197,8145,8183,8220,8171,8124,8151,8121,3.109532117843628
6,8156,8165,8170,8133,8179,8178,8161,8197,8162,8184,8178,8160,8189,8106,3.1175320148468018
7,8125,8180,8176,8155,8165,8157,8170,8153,8196,8195,8153,8104,8140,8083,3.125450134277344
8,8156,8199,8186,8163,8184,8189,8174,8178,8204,8220,8180,8149,8163,8112,3.1336677074432373
9,8157,8192,8184,8151,8202,8173,8173,8180,8189,8227,8172,8157,8167,8109,3.140674114227295
10,8141,8194,8186,8162,8210,8155,8199,8144,8214,8230,8165,8127,8142,8114,3.148674964904785
11,8176,8201,8194,8167,8214,8187,8209,8198,8215,8220,8204,8188,8197,8157,3.156679153442383
12,8139,8190,8180,8167,8240,8154,8218,8166,8200,8247,8169,8127,8163,8152,3.164693832397461
13,8146,8170,8171,8150,8214,8177,8194,8180,8183,8244,8173,8140,8169,8136,3.1724507808685303
14,8145,8162,8169,8139,8189,8175,8180,8188,8196,8220,8178,8156,8180,8123,3.18048357963562
15,8127,8171,8168,8155,8206,8158,8197,8155,8217,8222,8166,8108,8149,8121,3.1884889602661133
16,8167,8177,8174,8155,8181,8194,8189,8194,8196,8207,8186,8163,8178,8124,3.1964128017425537
17,8148,8185,8180,8163,8190,8158,8214,8151,8221,8231,8163,8133,8143,8119,3.2034499645233154
18,8170,8194,8195,8173,8222,8173,8229,8170,8236,8233,8190,8162,8165,8162,3.2115509510040283
19,8171,8186,8192,8165,8225,8176,8213,8197,8201,8202,8193,8183,8183,8167,3.219511032104492
20,8138,8183,8187,8178,8225,8152,8221,8149,8199,8221,8152,8124,8133,8132,3.227426528930664
21,8186,8197,8211,8195,8210,8192,8234,8186,8222,8236,8190,8188,8173,8148,3.235421657562256
22,8170,8211,8223,8210,8220,8160,8257,8152,8255,8259,8193,8171,8164,8175,3.24345064163208
23,8161,8191,8209,8197,8225,8162,8231,8153,8215,8240,8189,8169,8178,8182,3.2514548301696777
24,8163,8169,8198,8175,8209,8175,8191,8189,8167,8197,8185,8184,8190,8144,3.2595338821411133
25,8149,8197,8223,8206,8200,8160,8222,8151,8225,8224,8175,8138,8136,8135,3.2675347328186035
26,8191,8207,8235,8218,8208,8195,8215,8176,8234,8230,8209,8199,8174,8173,3.274449586868286
27,8156,8184,8208,8189,8264,8157,8186,8145,8193,8209,8186,8170,8161,8161,3.2826545238494877
28,8163,8194,8219,8192,8256,8162,8191,8160,8194,8205,8189,8166,8164,8156,3.290609836578369
29,8199,8213,8240,8217,8190,8183,8207,8196,8219,8222,8206,8207,8182,8160,3.298449277877808
30,8164,8208,8231,8220,8215,8151,8225,8133,8241,8258,8188,8156,8136,8159,3.30648136138916
30,8164,8208,8231,8220,8215,8151,8225,8133,8241,8258,8188,8156,8136,8159,3.307235717773437
31,8193,8198,8239,8202,8232,8186,8214,8183,8224,8255,8226,8217,8188,8203,3.314451217651367
32,8180,8197,8253,8211,8194,8167,8220,8186,8236,8259,8206,8197,8174,8203,3.321472644805908
33,8172,8198,8251,8223,8188,8168,8216,8166,8249,8264,8194,8170,8150,8180,3.329472541809082
34,8191,8195,8250,8207,8206,8186,8212,8197,8246,8256,8220,8225,8191,8197,3.337489366531372
35,8160,8197,8259,8211,8222,8151,8252,8160,8292,8280,8201,8187,8166,8229,3.3454508781433105
36,8192,8189,8260,8211,8197,8190,8228,8200,8271,8259,8218,8219,8193,8226,3.353450298309326
37,8187,8193,8253,8210,8190,8181,8205,8176,8238,8253,8203,8201,8169,8192,3.361470937728882
38,8178,8197,8260,8213,8198,8171,8209,8136,8254,8274,8201,8185,8147,8213,3.369471549987793
39,8196,8176,8256,8192,8178,8186,8179,8189,8228,8238,8221,8232,8197,8221,3.3774702548980717
40,8166,8177,8241,8198,8175,8148,8183,8162,8214,8231,8182,8172,8159,8180,3.38547158241272
41,8198,8191,8244,8204,8157,8180,8178,8182,8219,8239,8196,8208,8166,8183,3.393666982650757
42,8180,8177,8240,8189,8164,8167,8168,8173,8225,8238,8197,8206,8167,8194,3.400672912597656
43,8158,8169,8240,8191,8190,8158,8177,8153,8222,8237,8186,8169,8160,8196,3.408179759979248
44,8209,8192,8262,8205,8181,8196,8173,8193,8218,8235,8213,8235,8196,8210,3.416179656982422
45,8189,8215,8274,8225,8197,8163,8191,8136,8251,8274,8200,8199,8148,8219,3.4241819381713867
46,8202,8198,8267,8217,8187,8183,8166,8160,8222,8253,8213,8219,8180,8235,3.4321796894073486
47,8194,8174,8254,8201,8167,8174,8150,8183,8182,8219,8202,8214,8194,8221,3.440450429916382
48,8176,8181,8257,8210,8190,8159,8181,8158,8201,8235,8191,8168,8157,8218,3.448202848434448
49,8212,8188,8258,8207,8180,8191,8169,8202,8187,8209,8214,8223,8193,8222,3.4562227725982666
50,8175,8183,8239,8206,8169,8158,8156,8156,8178,8202,8171,8164,8144,8179,3.464611768722534
51,8193,8178,8238,8207,8173,8182,8146,8164,8170,8210,8182,8170,8153,8175,3.471611499786377
52,8203,8178,8238,8208,8177,8176,8127,8173,8158,8197,8194,8197,8177,8179,3.4794492721557617
53,8173,8184,8227,8216,8169,8149,8117,8124,8161,8194,8169,8156,8130,8161,3.4874472618103027
54,8201,8181,8227,8200,8140,8194,8110,8170,8140,8183,8193,8204,8163,8173,3.495450019836426
55,8172,8189,8232,8211,8157,8168,8144,8137,8165,8200,8179,8164,8147,8184,3.503559827804565
56,8191,8200,8243,8231,8169,8180,8153,8146,8186,8191,8192,8181,8162,8199,3.511094808578491
57,8203,8187,8234,8214,8159,8178,8145,8186,8184,8175,8197,8207,8189,8193,3.519450426101685
58,8174,8189,8229,8213,8174,8142,8168,8154,8225,8218,8176,8149,8159,8189,3.527446746826172
59,8220,8211,8251,8236,8179,8180,8172,8190,8245,8241,8213,8218,8189,8216,3.534450054168701
60,8199,8216,8250,8251,8204,8159,8196,8157,8240,8251,8195,8196,8156,8218,3.542449712753296
60,8199,8216,8250,8251,8204,8159,8196,8157,8240,8251,8195,8196,8156,8218,3.5430076122283936
61,8194,8201,8231,8232,8204,8165,8202,8161,8212,8227,8191,8183,8166,8224,3.550050973892212
62,8205,8198,8229,8219,8176,8179,8176,8195,8193,8192,8199,8210,8190,8206,3.558048725128174
63,8184,8219,8244,8253,8200,8157,8191,8134,8214,8222,8175,8160,8130,8181,3.5661940574646
64,8225,8229,8256,8259,8225,8190,8194,8166,8190,8227,8208,8219,8176,8214,3.574215650558472
65,8200,8222,8243,8243,8230,8158,8189,8167,8180,8214,8191,8199,8178,8218,3.581950187683105
66,8193,8213,8235,8242,8205,8165,8176,8167,8193,8199,8179,8177,8158,8196,3.5899477005004883
67,8216,8208,8237,8235,8180,8186,8174,8192,8189,8191,8200,8218,8179,8194,3.598440408706665
68,8191,8212,8241,8244,8208,8150,8201,8144,8208,8228,8188,8173,8146,8216,3.605359077453613
69,8223,8210,8252,8249,8199,8182,8181,8198,8198,8220,8212,8220,8184,8234,3.6134493350982666
70,8207,8210,8253,8248,8187,8164,8184,8195,8204,8217,8194,8198,8167,8208,3.621450185775757
71,8204,8229,8263,8266,8203,8166,8218,8166,8237,8259,8195,8178,8150,8214,3.6295323371887207
72,8236,8235,8275,8272,8201,8195,8229,8199,8258,8285,8226,8236,8188,8242,3.63753080368042
73,8198,8222,8258,8268,8227,8161,8250,8154,8279,8303,8194,8184,8149,8240,3.645454645156861
74,8212,8200,8241,8249,8235,8183,8221,8185,8235,8265,8207,8212,8180,8234,3.653449535369873
75,8195,8192,8230,8239,8214,8165,8186,8174,8201,8234,8190,8199,8167,8189,3.661798238754273
76,8187,8211,8237,8255,8202,8164,8199,8137,8218,8242,8174,8179,8138,8184,3.668811798095703
77,8219,8213,8244,8249,8206,8185,8198,8180,8197,8224,8210,8244,8194,8220,3.6768083572387695
78,8174,8201,8234,8250,8236,8146,8196,8148,8189,8227,8184,8178,8158,8201,3.684503793716431
79,8193,8201,8238,8257,8211,8185,8168,8176,8203,8227,8186,8188,8163,8182,3.692751884460449
80,8194,8197,8236,8244,8180,8175,8167,8172,8223,8229,8186,8197,8163,8185,3.700753927230835
81,8174,8183,8230,8229,8186,8146,8196,8151,8229,8229,8182,8170,8152,8204,3.708449125289917
82,8205,8170,8231,8221,8174,8179,8173,8213,8208,8199,8196,8223,8199,8203,3.716412544250488
83,8177,8179,8232,8240,8187,8159,8182,8164,8235,8223,8163,8173,8149,8177,3.724367380142212
84,8196,8187,8235,8243,8194,8181,8210,8170,8230,8217,8188,8205,8162,8196,3.732362985610962
85,8191,8171,8219,8223,8187,8168,8206,8188,8177,8165,8182,8220,8181,8193,3.739375114440918
86,8164,8164,8208,8221,8191,8149,8178,8150,8158,8154,8147,8156,8141,8158,3.747415781021118
87,8196,8169,8211,8212,8173,8189,8145,8183,8144,8152,8180,8211,8172,8152,3.7554681301116943
88,8168,8186,8212,8224,8187,8157,8181,8141,8168,8192,8171,8190,8149,8164,3.763522148132324
89,8188,8190,8218,8234,8202,8172,8185,8165,8166,8197,8182,8202,8173,8188,3.771159648895264
90,8189,8171,8202,8216,8190,8174,8138,8193,8135,8153,8169,8198,8184,8151,3.7791597843170166
91,8161,8171,8201,8219,8188,8152,8140,8134,8158,8157,8140,8148,8128,8122,3.787449598312378
92,8219,8192,8233,8236,8187,8191,8165,8176,8185,8180,8197,8231,8179,8182,3.794450044631958
93,8212,8210,8247,8257,8223,8153,8194,8174,8222,8223,8195,8202,8176,8217,3.8024165630340576
94,8217,8211,8249,8261,8223,8160,8185,8189,8241,8249,8190,8195,8170,8214,3.809957027435303
95,8215,8192,8236,8241,8185,8177,8177,8195,8231,8242,8191,8223,8173,8197,3.8184502124786377
96,8168,8168,8212,8226,8182,8149,8205,8137,8218,8228,8168,8160,8135,8181,3.826358556747437
97,8197,8160,8214,8211,8179,8178,8208,8197,8184,8191,8193,8216,8191,8194,3.834372520446777
98,8183,8182,8226,8225,8195,8155,8224,8179,8205,8213,8169,8199,8165,8183,3.842444658279419
99,8192,8188,8223,8244,8199,8171,8216,8148,8217,8233,8171,8183,8140,8178,3.850449323654175
100,8202,8171,8208,8228,8181,8179,8175,8168,8165,8196,8193,8217,8176,8181,3.858068466186523
101,8159,8181,8213,8233,8190,8135,8160,8138,8152,8192,8167,8167,8147,8175,3.865067481994629
102,8202,8203,8236,8249,8191,8179,8129,8189,8157,8191,8187,8212,8174,8180,3.87298583984375
103,8194,8205,8226,8251,8209,8168,8131,8159,8170,8199,8167,8183,8151,8165,3.881213426589966
104,8183,8198,8213,8242,8220,8163,8149,8136,8159,8185,8164,8161,8154,8170,3.889213085174561
105,8203,8190,8215,8234,8192,8176,8134,8193,8139,8151,8185,8204,8198,8166,3.897449493408203
106,8175,8194,8218,8254,8195,8144,8152,8152,8184,8195,8159,8152,8144,8143,3.9054512977600098
107,8200,8183,8216,8243,8186,8179,8163,8177,8193,8203,8185,8203,8178,8165,3.913808822631836
108,8167,8154,8193,8213,8169,8156,8163,8173,8156,8160,8173,8182,8177,8155,3.921452045440674
109,8149,8155,8186,8220,8169,8148,8155,8150,8141,8144,8152,8139,8146,8131,3.928475379943848
110,8185,8170,8199,8226,8165,8183,8140,8183,8139,8145,8170,8198,8174,8125,3.9364752769470215
111,8164,8186,8211,8244,8198,8150,8176,8135,8159,8176,8158,8163,8143,8139,3.944449663162232
112,8198,8204,8227,8260,8218,8174,8174,8173,8138,8165,8186,8205,8190,8182,3.952443838119507
113,8186,8213,8231,8262,8213,8167,8142,8177,8123,8144,8161,8192,8180,8161,3.960437297821045
114,8167,8209,8235,8267,8207,8166,8141,8134,8146,8160,8140,8151,8130,8131,3.968437433242798
115,8199,8195,8225,8256,8199,8192,8135,8172,8130,8157,8183,8213,8185,8151,3.976406812667847
116,8163,8197,8213,8260,8226,8154,8140,8151,8131,8164,8158,8158,8165,8147,3.984449863433838
117,8187,8210,8229,8269,8223,8180,8130,8188,8158,8167,8166,8177,8172,8142,3.9914495944976807
118,8191,8207,8227,8265,8213,8174,8154,8186,8197,8182,8174,8197,8172,8148,3.999376058578491
119,8168,8187,8201,8245,8217,8159,8194,8150,8200,8181,8161,8160,8156,8158,4.007891654968262
120,8182,8157,8181,8195,8170,8184,8163,8205,8136,8120,8175,8191,8197,8133,4.015450239181519
121,8144,8151,8176,8179,8152,8148,8163,8152,8140,8123,8137,8129,8144,8088,4.023905277252197
122,8175,8171,8197,8199,8160,8181,8188,8152,8167,8156,8161,8171,8157,8128,4.031907796859741
123,8190,8186,8217,8217,8170,8179,8192,8184,8149,8154,8186,8219,8192,8174,4.039449453353882
124,8159,8193,8217,8228,8180,8142,8173,8151,8143,8148,8169,8163,8159,8168,4.047252416610718
125,8196,8192,8216,8217,8159,8179,8127,8183,8141,8136,8188,8213,8181,8155,4.054956674575806
126,8169,8192,8212,8219,8174,8165,8129,8139,8165,8163,8156,8185,8138,8140,4.061944007873535
127,8167,8184,8205,8219,8188,8180,8120,8149,8144,8147,8163,8188,8156,8147,4.070450067520142
241,8170,8167,8186,8197,8173,8172,8096,8188,8110,8109,8169,8199,8188,8122,4.078318357467651
0,8136,8162,8171,8194,8169,8145,8117,8143,8149,8137,8135,8136,8129,8083,4.086317539215088
1,8153,8150,8162,8174,8145,8189,8123,8175,8144,8120,8161,8198,8164,8090,4.094444990158081
2,8125,8147,8157,8163,8149,8155,8145,8161,8130,8100,8145,8176,8163,8094,4.102450132369995
3,8148,8165,8177,8182,8162,8158,8160,8175,8149,8118,8152,8175,8169,8103,4.110451936721802
4,8168,8163,8175,8179,8146,8178,8138,8195,8153,8124,8170,8207,8178,8090,4.1184492111206055
5,8128,8153,8158,8176,8135,8151,8128,8125,8153,8131,8147,8148,8126,8068,4.1254496574401855
6,8169,8163,8174,8185,8120,8182,8113,8164,8143,8128,8175,8215,8177,8104,4.133424758911133
7,8156,8180,8181,8195,8137,8158,8128,8157,8166,8152,8167,8205,8169,8123,4.14141845703125
8,8139,8176,8172,8187,8155,8161,8128,8153,8157,8139,8166,8186,8159,8119,4.149417161941528
9,8151,8162,8162,8171,8146,8182,8096,8188,8108,8089,8166,8212,8184,8085,4.157418251037598
10,8121,8159,8154,8178,8143,8156,8106,8127,8117,8095,8120,8135,8121,8039,4.165416955947876
11,8140,8142,8147,8155,8120,8186,8113,8159,8104,8078,8148,8176,8155,8045,4.173911094665527
12,8110,8121,8125,8127,8127,8154,8132,8166,8075,8064,8141,8161,8164,8042,4.181076765060425
13,8114,8132,8127,8138,8136,8151,8144,8160,8077,8073,8125,8138,8150,8035,4.18907642364502
14,8164,8158,8151,8154,8109,8185,8134,8189,8084,8073,8151,8202,8180,8057,4.196414232254028
15,8128,8159,8154,8159,8121,8149,8149,8132,8102,8096,8141,8146,8145,8075,4.204449653625488
16,8139,8137,8142,8135,8113,8167,8116,8170,8075,8074,8162,8170,8181,8086,4.212487459182739
17,8141,8154,8145,8141,8119,8150,8096,8174,8072,8082,8149,8176,8181,8081,4.220449686050415
18,8149,8194,8173,8186,8168,8151,8122,8147,8112,8146,8161,8165,8161,8111,4.228450536727905
19,8162,8173,8169,8177,8164,8184,8090,8196,8097,8125,8185,8201,8192,8108,4.236528873443604
20,8106,8153,8131,8167,8148,8144,8060,8152,8088,8096,8119,8117,8136,8040,4.244450569152832
21,8130,8158,8124,8167,8144,8173,8064,8155,8076,8096,8130,8142,8152,8025,4.252454280853272
22,8124,8140,8119,8141,8148,8174,8113,8154,8065,8088,8137,8146,8157,8024,4.258969068527222
23,8097,8138,8112,8126,8169,8156,8167,8154,8086,8067,8112,8103,8139,8022,4.266974449157715
24,8127,8152,8116,8122,8173,8178,8170,8224,8100,8045,8134,8158,8186,8018,4.275449514389038
25,8100,8152,8116,8135,8165,8149,8188,8163,8134,8091,8125,8112,8141,8003,4.283451795578003
26,8133,8158,8134,8151,8153,8179,8189,8166,8132,8123,8162,8153,8167,8050,4.291449785232544
27,8142,8164,8146,8145,8164,8170,8170,8192,8111,8109,8165,8180,8194,8078,4.298882484436035
27,8142,8164,8146,8145,8164,8170,8170,8192,8111,8109,8165,8180,8194,8078,4.299876928329468
28,8113,8165,8139,8147,8174,8145,8152,8152,8130,8125,8135,8125,8150,8059,4.3089094161987305
29,8153,8167,8136,8158,8151,8183,8123,8176,8136,8155,8164,8181,8177,8063,4.315451145172119
30,8131,8161,8132,8165,8165,8150,8133,8134,8139,8174,8150,8144,8151,8068,4.32245135307312
31,8135,8149,8127,8140,8170,8161,8120,8166,8125,8137,8161,8150,8177,8077,4.330512285232544
32,8134,8151,8110,8124,8170,8168,8108,8194,8122,8120,8152,8153,8186,8046,4.338526010513306
33,8097,8151,8096,8132,8182,8157,8152,8135,8141,8136,8115,8080,8122,8000,4.346519470214844
34,8118,8125,8093,8098,8153,8197,8173,8184,8118,8084,8146,8134,8165,8009,4.354450702667236
35,8089,8117,8092,8080,8150,8157,8189,8176,8130,8073,8133,8111,8164,8018,4.362450122833252
36,8105,8133,8104,8100,8149,8158,8183,8178,8141,8097,8140,8119,8168,8017,4.37009859085083
37,8124,8141,8111,8110,8133,8176,8169,8189,8124,8097,8150,8150,8169,8013,4.378097772598267
37,8124,8141,8111,8110,8133,8176,8169,8189,8124,8097,8150,8150,8169,8013,4.379092216491699
38,8098,8155,8120,8129,8168,8159,8193,8133,8140,8132,8134,8104,8129,8038,4.386133193969727
39,8140,8163,8133,8139,8181,8188,8187,8183,8138,8146,8175,8174,8192,8084,4.393450498580933
40,8130,8176,8142,8155,8180,8151,8183,8171,8164,8166,8159,8147,8172,8075,4.401472568511963
41,8141,8188,8159,8178,8181,8164,8188,8159,8200,8191,8158,8130,8153,8079,4.408994436264038
41,8141,8188,8159,8178,8181,8164,8188,8159,8200,8191,8158,8130,8153,8079,4.409991025924683
42,8151,8174,8150,8167,8177,8188,8177,8173,8181,8172,8167,8161,8176,8076,4.4174485206604
43,8104,8159,8117,8148,8200,8150,8186,8117,8153,8142,8135,8102,8132,8050,4.425450563430786
44,8130,8143,8101,8118,8181,8177,8178,8173,8106,8091,8160,8146,8176,8054,4.433449745178223
45,8099,8124,8087,8095,8148,8155,8170,8172,8099,8073,8129,8103,8161,8018,4.441694498062134
46,8087,8128,8086,8100,8144,8164,8171,8155,8129,8079,8118,8074,8133,7991,4.449692010879517
47,8126,8148,8097,8113,8147,8190,8186,8190,8146,8086,8154,8145,8171,8010,4.4566919803619385
48,8100,8158,8096,8119,8168,8144,8214,8139,8160,8117,8139,8108,8149,8031,4.463691711425781
48,8100,8158,8096,8119,8168,8144,8214,8139,8160,8117,8139,8108,8149,8031,4.464691638946533
49,8122,8152,8096,8102,8161,8165,8176,8182,8133,8090,8159,8146,8186,8044,4.471692323684692
49,8122,8152,8096,8102,8161,8165,8176,8182,8133,8090,8159,8146,8186,8044,4.472691059112549
50,8110,8152,8094,8106,8161,8162,8157,8184,8131,8082,8144,8122,8162,8012,4.47969126701355
50,8110,8152,8094,8106,8161,8162,8157,8184,8131,8082,8144,8122,8162,8012,4.480691432952881
51,8103,8159,8097,8122,8168,8169,8175,8142,8147,8110,8139,8092,8131,8003,4.488691091537476
52,8130,8152,8106,8109,8154,8186,8164,8173,8124,8094,8171,8154,8185,8032,4.496695518493652
53,8102,8157,8110,8119,8170,8141,8176,8150,8140,8109,8151,8112,8163,8047,4.503693580627441
53,8102,8157,8110,8119,8170,8141,8176,8150,8140,8109,8151,8112,8163,8047,4.504684686660767
54,8134,8169,8118,8128,8159,8175,8172,8189,8142,8124,8168,8140,8182,8051,4.5121986865997314
55,8133,8167,8120,8123,8150,8169,8179,8177,8142,8139,8153,8127,8164,8028,4.519200563430786
56,8116,8161,8122,8123,8159,8155,8204,8141,8166,8160,8137,8099,8136,8037,4.527198314666748
57,8137,8153,8115,8107,8143,8186,8186,8188,8153,8135,8163,8162,8178,8052,4.535709619522095
58,8103,8154,8105,8108,8140,8152,8187,8143,8154,8133,8144,8105,8133,8025,4.543265581130981
59,8125,8148,8113,8101,8123,8175,8177,8161,8143,8126,8166,8128,8158,8029,4.551410913467407
60,8121,8137,8110,8079,8117,8168,8164,8171,8131,8131,8168,8146,8178,8039,4.559408187866211
61,8112,8151,8118,8090,8140,8147,8184,8137,8153,8170,8167,8116,8154,8059,4.567445755004883
62,8156,8162,8136,8098,8137,8180,8184,8190,8152,8166,8199,8181,8194,8091,4.575450897216797
63,8117,8155,8126,8098,8149,8146,8184,8152,8156,8172,8163,8129,8155,8080,4.582491397857666
64,8126,8152,8121,8098,8161,8168,8172,8159,8148,8172,8173,8138,8175,8081,4.59050989151001
65,8128,8153,8122,8091,8160,8169,8172,8179,8131,8149,8173,8156,8192,8076,4.598509311676025
66,8103,8156,8125,8098,8161,8147,8193,8151,8144,8152,8153,8114,8148,8068,4.605835676193237
67,8152,8164,8138,8105,8145,8184,8186,8204,8151,8171,8189,8173,8185,8082,4.6141111850738525
67,8152,8164,8138,8105,8145,8184,8186,8204,8151,8171,8189,8173,8185,8082,4.6148223876953125
68,8134,8178,8142,8124,8169,8154,8204,8154,8182,8217,8165,8127,8151,8079,4.622649192810059
69,8142,8181,8150,8137,8187,8178,8214,8149,8189,8211,8173,8134,8152,8098,4.630327939987183
70,8157,8172,8147,8129,8175,8187,8207,8185,8163,8181,8185,8165,8180,8105,4.638334274291992
71,8124,8173,8135,8133,8183,8142,8210,8145,8161,8199,8155,8104,8152,8092,4.646840810775757
72,8153,8164,8130,8123,8163,8168,8183,8185,8132,8169,8173,8152,8190,8094,4.654030799865723
73,8141,8165,8133,8126,8162,8151,8195,8166,8143,8154,8150,8127,8154,8079,4.661450386047363
74,8158,8186,8158,8144,8182,8171,8226,8168,8191,8190,8158,8135,8155,8096,4.669450044631958
74,8158,8186,8158,8144,8182,8171,8226,8168,8191,8190,8158,8135,8155,8096,4.670041799545288
75,8178,8190,8170,8156,8195,8184,8238,8186,8214,8218,8189,8181,8192,8128,4.677148818969727
76,8147,8188,8163,8172,8226,8147,8265,8140,8230,8237,8177,8135,8154,8143,4.685163974761963
77,8177,8189,8162,8164,8216,8175,8248,8195,8205,8204,8191,8182,8185,8143,4.693684577941895
78,8147,8186,8152,8156,8196,8154,8230,8166,8204,8191,8159,8145,8155,8105,4.701169967651367
79,8143,8179,8150,8154,8192,8163,8226,8141,8202,8201,8169,8134,8149,8114,4.709646224975586
80,8171,8173,8153,8141,8189,8181,8217,8188,8165,8176,8194,8190,8194,8139,4.716647386550903
81,8132,8174,8144,8147,8197,8150,8225,8156,8177,8178,8153,8129,8152,8117,4.724449157714844
82,8153,8172,8143,8147,8183,8185,8201,8191,8181,8181,8169,8159,8174,8107,4.732503652572632
83,8144,8176,8147,8143,8192,8164,8207,8167,8186,8197,8164,8145,8153,8098,4.740445613861084
84,8147,8181,8153,8145,8207,8163,8229,8134,8190,8201,8167,8138,8148,8122,4.748457193374634
85,8175,8171,8151,8140,8195,8183,8206,8186,8168,8174,8189,8193,8203,8143,4.756464242935181
86,8139,8180,8159,8156,8215,8142,8209,8163,8187,8203,8157,8123,8152,8123,4.764449596405029
87,8174,8193,8173,8163,8206,8179,8203,8186,8192,8207,8176,8152,8158,8124,4.772399425506592
88,8176,8190,8163,8160,8194,8171,8203,8159,8196,8199,8172,8156,8156,8123,4.780399560928345
89,8157,8185,8157,8160,8213,8153,8223,8133,8199,8200,8168,8138,8151,8134,4.787448883056641
90,8179,8166,8154,8136,8189,8175,8198,8195,8154,8158,8183,8183,8197,8132,4.795438051223755
91,8145,8158,8143,8142,8171,8146,8185,8154,8162,8168,8149,8117,8152,8097,4.8034327030181885
92,8164,8172,8152,8162,8183,8180,8184,8165,8191,8195,8180,8154,8168,8109,4.810964345932007
92,8164,8172,8152,8162,8183,8180,8184,8165,8191,8195,8180,8154,8168,8109,4.811961889266968
93,8158,8172,8154,8153,8209,8173,8202,8169,8194,8197,8184,8167,8170,8125,4.8194499015808105
94,8136,8162,8141,8144,8209,8149,8215,8147,8182,8197,8163,8124,8147,8122,4.82701301574707
95,8162,8154,8132,8136,8168,8180,8187,8199,8157,8182,8179,8168,8191,8108,4.835028409957886
95,8162,8154,8132,8136,8168,8180,8187,8199,8157,8182,8179,8168,8191,8108,4.836023330688477
96,8129,8153,8122,8133,8175,8154,8190,8151,8169,8189,8142,8108,8143,8066,4.84302544593811
97,8154,8147,8124,8131,8183,8175,8186,8161,8165,8178,8157,8131,8155,8075,4.850449800491333
97,8154,8147,8124,8131,8183,8175,8186,8161,8165,8178,8157,8131,8155,8075,4.851025819778442
98,8155,8145,8125,8132,8172,8169,8185,8179,8155,8167,8172,8156,8181,8094,4.858031749725342
98,8155,8145,8125,8132,8172,8169,8185,8179,8155,8167,8172,8156,8181,8094,4.859042167663574
99,8127,8158,8124,8140,8181,8156,8192,8151,8170,8173,8153,8112,8149,8083,4.86604380607605
100,8168,8163,8133,8136,8175,8195,8172,8194,8157,8157,8176,8167,8177,8074,4.874096632003784
101,8145,8156,8133,8142,8181,8156,8197,8138,8168,8174,8158,8129,8146,8071,4.882096529006958
101,8145,8156,8133,8142,8181,8156,8197,8138,8168,8174,8158,8129,8146,8071,4.883090734481812
102,8157,8156,8133,8135,8185,8164,8213,8148,8169,8167,8173,8147,8167,8100,4.89044976234436
102,8157,8156,8133,8135,8185,8164,8213,8148,8169,8167,8173,8147,8167,8100,4.891061544418335
103,8169,8166,8134,8124,8182,8167,8198,8200,8156,8153,8175,8171,8186,8102,4.898449182510376
103,8169,8166,8134,8124,8182,8167,8198,8200,8156,8153,8175,8171,8186,8102,4.899093389511108
104,8139,8174,8143,8144,8181,8154,8202,8158,8182,8196,8150,8115,8137,8088,4.9061119556427
105,8165,8163,8149,8140,8148,8197,8194,8179,8183,8193,8183,8171,8178,8101,4.91312050819397
106,8148,8157,8141,8137,8172,8155,8215,8149,8198,8196,8169,8141,8161,8111,4.921450853347778
107,8170,8173,8153,8159,8205,8158,8225,8167,8208,8220,8179,8146,8170,8143,4.929449796676636
108,8185,8186,8163,8168,8193,8180,8217,8202,8194,8227,8185,8180,8193,8145,4.936962842941284
109,8158,8199,8170,8183,8209,8161,8241,8152,8233,8251,8158,8127,8144,8129,4.945197820663452
110,8202,8205,8182,8186,8228,8194,8246,8191,8256,8256,8193,8186,8183,8162,4.953197956085205
111,8173,8201,8165,8178,8243,8154,8251,8169,8241,8257,8175,8159,8169,8163,4.961450338363648
112,8154,8186,8143,8160,8217,8156,8237,8164,8215,8226,8158,8129,8160,8123,4.969435930252075
113,8171,8170,8137,8139,8183,8184,8209,8184,8204,8186,8163,8151,8179,8083,4.976434469223023
114,8152,8178,8147,8158,8213,8157,8237,8121,8222,8216,8152,8111,8136,8095,4.984450578689575
115,8189,8180,8164,8164,8209,8182,8238,8183,8208,8218,8192,8179,8186,8137,4.992450475692749
116,8157,8165,8153,8147,8184,8153,8215,8190,8206,8201,8165,8140,8169,8096,5.000248432159424
117,8143,8169,8149,8149,8180,8160,8204,8151,8200,8203,8150,8104,8141,8076,5.007777690887451
117,8143,8169,8149,8149,8180,8160,8204,8151,8200,8203,8150,8104,8141,8076,5.008787631988525
118,8183,8184,8173,8160,8187,8193,8205,8176,8185,8220,8194,8183,8184,8122,5.016787767410278
119,8154,8186,8179,8173,8207,8153,8219,8150,8214,8248,8182,8154,8163,8139,5.024795770645142
120,8166,8165,8162,8155,8186,8172,8181,8192,8183,8189,8184,8172,8189,8123,5.032310724258423
121,8144,8148,8140,8131,8165,8163,8160,8172,8147,8151,8152,8135,8156,8078,5.0403242111206055
122,8136,8154,8143,8135,8157,8171,8176,8131,8165,8181,8144,8108,8124,8075,5.04758620262146
123,8175,8157,8159,8142,8163,8196,8183,8179,8179,8184,8182,8174,8183,8103,5.055450916290283
124,8146,8158,8161,8154,8217,8147,8214,8161,8207,8209,8164,8128,8162,8101,5.063090085983276
125,8167,8161,8162,8150,8195,8177,8199,8193,8193,8215,8178,8156,8175,8102,5.07094669342041
126,8158,8157,8162,8142,8152,8180,8180,8170,8188,8207,8167,8153,8163,8092,5.07893967628479
127,8137,8144,8161,8140,8173,8165,8181,8133,8209,8207,8165,8123,8148,8102,5.086951732635498
127,8137,8144,8161,8140,8173,8165,8181,8133,8209,8207,8165,8123,8148,8102,5.087961912155151
241,8162,8125,8154,8116,8161,8183,8153,8194,8168,8183,8195,8176,8202,8111,5.095221042633057
0,8129,8127,8152,8116,8143,8153,8160,8155,8156,8195,8157,8116,8153,8078,5.103450059890747
1,8155,8134,8162,8128,8133,8187,8170,8171,8180,8191,8168,8140,8152,8079,5.110450506210327
2,8156,8128,8156,8120,8135,8173,8177,8179,8194,8176,8178,8159,8164,8093,5.1184492111206055
3,8134,8134,8165,8124,8164,8145,8199,8144,8194,8186,8169,8130,8153,8110,5.125795841217041
4,8169,8134,8173,8125,8151,8181,8180,8194,8158,8156,8181,8177,8195,8111,5.134802579879761
5,8137,8126,8152,8129,8121,8148,8162,8158,8155,8141,8143,8113,8143,8073,5.142805576324463
6,8152,8132,8148,8128,8118,8165,8142,8164,8151,8143,8157,8130,8155,8070,5.150454998016357
7,8160,8147,8157,8126,8150,8170,8135,8169,8132,8148,8166,8146,8175,8069,5.158454418182373
8,8138,8157,8162,8148,8168,8153,8153,8122,8150,8174,8158,8100,8135,8069,5.166000843048096
9,8180,8160,8172,8151,8143,8186,8149,8174,8155,8174,8195,8179,8182,8110,5.173011302947998
10,8161,8166,8182,8157,8164,8148,8165,8159,8165,8183,8169,8150,8165,8127,5.181011199951172
11,8169,8170,8192,8168,8188,8165,8159,8174,8163,8182,8173,8145,8165,8127,5.190007925033569
12,8177,8173,8186,8166,8175,8180,8154,8185,8172,8185,8187,8168,8172,8115,5.197112083435059
13,8159,8186,8189,8179,8177,8156,8203,8130,8214,8221,8172,8131,8140,8129,5.205447435379028
14,8200,8179,8200,8175,8176,8186,8206,8190,8197,8205,8196,8193,8193,8163,5.212824106216431
14,8200,8179,8200,8175,8176,8186,8206,8190,8197,8205,8196,8193,8193,8163,5.213815927505493
15,8165,8163,8180,8163,8198,8153,8185,8178,8181,8200,8170,8150,8164,8133,5.220822811126709
15,8165,8163,8180,8163,8198,8153,8185,8178,8181,8200,8170,8150,8164,8133,5.221814632415772
16,8168,8168,8174,8167,8193,8165,8177,8165,8176,8216,8172,8141,8158,8117,5.229451656341553
17,8196,8185,8191,8177,8154,8185,8188,8184,8176,8213,8184,8183,8185,8126,5.237452268600464
18,8166,8202,8196,8195,8174,8160,8215,8139,8192,8224,8165,8137,8138,8134,5.244481086730957
19,8199,8204,8197,8186,8195,8191,8196,8179,8137,8203,8194,8187,8176,8153,5.252480030059815
20,8179,8198,8191,8180,8202,8159,8198,8152,8116,8197,8169,8159,8160,8137,5.2604522705078125
21,8176,8193,8187,8191,8198,8162,8210,8141,8162,8196,8166,8142,8149,8138,5.268521785736084
22,8202,8187,8188,8181,8191,8183,8194,8197,8181,8172,8189,8185,8193,8152,5.2764177322387695
23,8170,8201,8199,8196,8216,8150,8207,8163,8202,8207,8161,8132,8160,8145,5.2838521003723145
23,8170,8201,8199,8196,8216,8150,8207,8163,8202,8207,8161,8132,8160,8145,5.284844160079956
24,8195,8209,8205,8205,8212,8187,8214,8193,8206,8248,8185,8169,8177,8153,5.292846441268921
25,8177,8189,8187,8191,8209,8174,8234,8174,8214,8272,8177,8154,8158,8147,5.300340414047241
26,8171,8181,8188,8190,8217,8168,8249,8155,8225,8276,8176,8143,8160,8158,5.307677745819092
27,8193,8186,8193,8187,8207,8185,8226,8208,8219,8250,8200,8194,8206,8170,5.315450668334961
28,8158,8196,8186,8203,8226,8149,8239,8172,8244,8260,8164,8137,8155,8151,5.323490858078003
29,8206,8213,8208,8226,8240,8188,8249,8192,8261,8263,8183,8180,8173,8166,5.331369876861572
30,8209,8224,8223,8243,8259,8183,8266,8176,8279,8285,8194,8188,8174,8183,5.338850736618042
30,8209,8224,8223,8243,8259,8183,8266,8176,8279,8285,8194,8188,8174,8183,5.339843511581421
31,8180,8215,8212,8233,8266,8169,8274,8151,8276,8293,8188,8156,8162,8197,5.346843957901001
31,8180,8215,8212,8233,8266,8169,8274,8151,8276,8293,8188,8156,8162,8197,5.347844839096069
32,8204,8197,8199,8206,8224,8188,8237,8206,8227,8235,8190,8198,8199,8182,5.355784177780151
33,8183,8207,8204,8224,8231,8154,8245,8161,8248,8253,8157,8147,8146,8151,5.363450288772583
34,8207,8213,8220,8235,8256,8189,8252,8172,8266,8276,8184,8178,8169,8177,5.3707497119903564
35,8195,8200,8217,8220,8245,8181,8245,8178,8242,8247,8188,8182,8184,8190,5.378748655319214
36,8172,8200,8218,8224,8234,8161,8248,8160,8238,8242,8169,8147,8152,8185,5.386413097381592
37,8197,8193,8220,8218,8235,8193,8226,8206,8229,8239,8185,8197,8180,8169,5.3944501876831055
38,8164,8187,8206,8219,8245,8161,8250,8153,8255,8269,8167,8142,8146,8150,5.402450323104858
39,8193,8189,8206,8220,8229,8180,8266,8165,8264,8259,8198,8172,8178,8187,5.410450220108032
40,8189,8179,8195,8201,8262,8170,8226,8180,8227,8203,8187,8184,8192,8176,5.418449401855469
41,8153,8175,8183,8196,8282,8148,8208,8148,8220,8204,8149,8125,8143,8135,5.426052093505859
42,8200,8183,8194,8200,8199,8192,8222,8198,8234,8230,8181,8184,8175,8151,5.435046672821045
43,8181,8186,8202,8216,8191,8160,8256,8147,8256,8257,8166,8155,8148,8164,5.441319227218628
44,8190,8181,8203,8217,8244,8170,8229,8148,8229,8235,8178,8178,8169,8176,5.449450731277466
45,8200,8176,8205,8197,8224,8177,8188,8189,8199,8204,8189,8203,8190,8170,5.457346200942993
46,8173,8182,8214,8209,8197,8153,8193,8150,8215,8207,8165,8143,8139,8150,5.465336799621582
47,8214,8183,8229,8234,8206,8193,8193,8177,8204,8196,8188,8196,8173,8160,5.473450183868408
47,8214,8183,8229,8234,8206,8193,8193,8177,8204,8196,8188,8196,8173,8160,5.473900556564331
48,8199,8190,8238,8256,8240,8170,8232,8153,8227,8227,8186,8181,8166,8182,5.481598377227783
49,8198,8195,8243,8252,8229,8176,8237,8173,8239,8233,8200,8188,8177,8201,5.489623546600342
50,8199,8181,8228,8231,8197,8182,8199,8202,8207,8206,8194,8205,8186,8174,5.497491359710693
51,8176,8185,8222,8243,8243,8156,8215,8140,8224,8233,8166,8151,8136,8155,5.504070043563843
51,8176,8185,8222,8243,8243,8156,8215,8140,8224,8233,8166,8151,8136,8155,5.505081415176392
52,8217,8189,8235,8242,8258,8195,8218,8172,8227,8232,8203,8210,8181,8187,5.512697696685791
53,8184,8173,8227,8225,8218,8167,8206,8163,8210,8210,8191,8179,8170,8174,5.520444393157959
54,8177,8166,8224,8219,8197,8169,8193,8164,8199,8200,8180,8160,8158,8162,5.530242443084717
55,8209,8176,8239,8227,8202,8191,8189,8186,8206,8210,8192,8211,8180,8170,5.5362396240234375
56,8186,8193,8247,8247,8232,8165,8213,8126,8233,8246,8180,8176,8141,8178,5.54424262046814
57,8217,8196,8255,8241,8221,8191,8204,8173,8210,8224,8212,8228,8189,8208,5.552238941192627
58,8206,8192,8255,8242,8209,8158,8199,8178,8209,8210,8193,8208,8184,8208,5.560367822647095
59,8204,8194,8257,8254,8192,8165,8197,8164,8230,8223,8183,8180,8156,8198,5.568373441696167
60,8232,8192,8264,8246,8175,8199,8187,8184,8220,8220,8203,8226,8176,8197,5.575372934341431
61,8198,8192,8264,8253,8212,8157,8212,8127,8229,8235,8178,8184,8145,8203,5.583373546600342
62,8228,8195,8264,8260,8221,8179,8204,8180,8222,8216,8208,8228,8196,8230,5.591374635696411
63,8219,8197,8259,8253,8212,8164,8199,8195,8222,8216,8207,8213,8192,8226,5.599380254745483
64,8205,8194,8257,8256,8215,8163,8209,8164,8229,8238,8194,8179,8157,8222,5.606380939483643
64,8205,8194,8257,8256,8215,8163,8209,8164,8229,8238,8194,8179,8157,8222,5.607884407043457
65,8234,8193,8255,8256,8210,8193,8187,8199,8208,8209,8212,8226,8188,8224,5.615771293640137
66,8202,8207,8244,8271,8208,8160,8193,8153,8216,8206,8177,8165,8148,8207,5.623190402984619
67,8222,8206,8247,8265,8184,8189,8186,8176,8206,8196,8184,8195,8171,8208,5.630215406417847
68,8209,8199,8250,8250,8195,8174,8178,8181,8199,8182,8181,8208,8172,8200,5.63821005821228
69,8200,8216,8259,8261,8228,8155,8187,8156,8216,8209,8178,8178,8147,8208,5.646015644073486
70,8242,8222,8264,8267,8204,8188,8176,8193,8196,8214,8200,8230,8185,8213,5.653937816619873
71,8204,8216,8259,8272,8194,8160,8195,8137,8199,8214,8168,8185,8142,8191,5.662450313568115
72,8216,8207,8264,8263,8190,8186,8192,8155,8194,8189,8196,8212,8166,8218,5.670437812805176
73,8216,8191,8253,8250,8187,8173,8173,8178,8178,8184,8204,8220,8193,8229,5.6784539222717285
74,8193,8189,8241,8256,8189,8149,8175,8152,8185,8209,8177,8168,8163,8212,5.686412811279297
75,8223,8186,8237,8239,8145,8182,8161,8200,8171,8181,8198,8213,8192,8207,5.69445013999939
76,8183,8182,8219,8230,8149,8152,8170,8159,8182,8186,8173,8163,8154,8182,5.702384948730469
77,8193,8189,8219,8234,8183,8182,8165,8164,8195,8195,8179,8170,8157,8176,5.708934545516968
78,8203,8181,8218,8214,8166,8182,8152,8173,8191,8179,8181,8184,8165,8167,5.716935157775879
79,8171,8163,8202,8191,8144,8146,8155,8127,8191,8181,8168,8135,8138,8159,5.725988864898682
80,8203,8160,8205,8184,8142,8178,8141,8186,8155,8158,8197,8196,8191,8173,5.7338340282440186
81,8183,8182,8223,8215,8156,8153,8152,8170,8165,8165,8167,8158,8154,8158,5.74144983291626
82,8198,8192,8233,8233,8129,8168,8141,8163,8188,8173,8173,8161,8146,8162,5.749034881591797
83,8210,8181,8227,8212,8115,8172,8120,8171,8173,8164,8194,8204,8175,8181,5.757033824920654
84,8177,8178,8226,8211,8152,8139,8141,8132,8171,8177,8178,8163,8151,8192,5.764450311660767
85,8206,8174,8229,8211,8144,8174,8126,8187,8153,8154,8193,8203,8193,8190,5.772449970245361
86,8178,8170,8211,8215,8144,8155,8118,8160,8170,8149,8165,8159,8155,8151,5.780450344085693
87,8175,8169,8202,8214,8155,8164,8132,8148,8193,8165,8169,8154,8144,8148,5.788453578948975
88,8189,8167,8202,8192,8138,8173,8138,8186,8176,8164,8185,8198,8191,8163,5.796101331710815
89,8164,8181,8204,8201,8141,8146,8157,8152,8172,8173,8161,8147,8157,8163,5.80411696434021
90,8201,8185,8212,8211,8138,8184,8136,8189,8160,8155,8180,8191,8173,8164,5.812646150588989
91,8181,8177,8208,8211,8144,8158,8132,8153,8176,8169,8159,8168,8149,8137,5.820451259613037
92,8191,8189,8214,8220,8144,8164,8148,8134,8190,8193,8167,8163,8155,8150,5.828268766403198
93,8222,8195,8219,8218,8145,8185,8152,8190,8176,8177,8197,8218,8199,8185,5.835263252258301
94,8185,8192,8214,8228,8178,8147,8168,8161,8197,8175,8166,8161,8151,8180,5.843263387680054
95,8220,8196,8224,8233,8162,8183,8150,8185,8192,8160,8183,8199,8170,8174,5.8514440059661865
96,8208,8197,8225,8233,8152,8165,8153,8153,8180,8169,8177,8190,8159,8163,5.859449625015259
97,8189,8192,8221,8235,8160,8157,8168,8132,8175,8172,8175,8169,8155,8180,5.86745810508728
98,8210,8189,8217,8224,8146,8182,8148,8198,8154,8139,8194,8213,8201,8192,5.875444173812866
99,8174,8188,8204,8218,8173,8145,8147,8163,8164,8153,8160,8147,8152,8158,5.883450269699097
100,8196,8175,8198,8202,8160,8174,8139,8173,8148,8153,8175,8168,8162,8145,5.891216278076172
101,8188,8164,8190,8194,8119,8170,8152,8163,8141,8149,8176,8164,8164,8144,5.898235321044922
102,8176,8171,8196,8208,8129,8159,8175,8142,8161,8156,8170,8145,8158,8162,5.906241178512573
103,8202,8175,8200,8201,8145,8175,8151,8190,8144,8125,8182,8197,8196,8161,5.914450168609619
104,8166,8183,8195,8209,8163,8144,8149,8143,8151,8133,8154,8137,8143,8129,5.92245078086853
105,8191,8184,8203,8217,8155,8183,8148,8154,8153,8137,8176,8164,8157,8137,5.930176258087158
106,8185,8179,8197,8203,8147,8176,8149,8157,8146,8126,8173,8175,8174,8144,5.938176393508911
107,8164,8179,8198,8196,8158,8152,8154,8138,8154,8129,8162,8146,8158,8152,5.946413993835449
108,8195,8168,8212,8197,8141,8179,8130,8193,8141,8107,8187,8204,8194,8162,5.954572677612305
109,8165,8177,8211,8217,8148,8148,8145,8150,8155,8127,8158,8151,8148,8137,5.961439847946167
110,8190,8187,8202,8212,8152,8176,8151,8153,8149,8134,8168,8162,8159,8138,5.969437122344971
110,8190,8187,8202,8212,8152,8176,8151,8153,8149,8134,8168,8162,8159,8138,5.970435857772827
111,8186,8164,8185,8181,8146,8172,8141,8164,8130,8111,8166,8174,8171,8131,5.977449655532837
112,8151,8149,8177,8181,8150,8147,8151,8139,8133,8106,8147,8129,8145,8116,5.985450506210327
113,8194,8164,8188,8185,8129,8182,8142,8200,8108,8087,8177,8180,8193,8124,5.9934563636779785
114,8176,8186,8198,8199,8142,8153,8154,8157,8132,8110,8157,8136,8150,8118,6.001456260681152
115,8180,8182,8203,8206,8149,8173,8144,8147,8150,8116,8166,8150,8145,8119,6.009449481964111
116,8182,8167,8188,8193,8126,8180,8137,8171,8123,8099,8177,8183,8176,8118,6.0175557136535645
117,8161,8180,8190,8200,8136,8148,8170,8147,8140,8138,8167,8138,8156,8139,6.025566339492798
118,8200,8193,8216,8209,8161,8179,8155,8202,8169,8157,8198,8193,8192,8166,6.032557010650635
119,8177,8199,8216,8223,8184,8163,8153,8164,8201,8161,8170,8162,8152,8145,6.04045033454895
120,8187,8201,8211,8233,8174,8183,8172,8145,8197,8157,8171,8167,8148,8156,6.048834323883057
121,8201,8186,8211,8225,8167,8180,8169,8172,8156,8135,8185,8202,8179,8169,6.056790828704834
122,8169,8184,8203,8225,8194,8142,8177,8141,8137,8115,8157,8140,8142,8138,6.0648393630981445
123,8205,8196,8204,8219,8182,8188,8174,8194,8126,8092,8173,8184,8178,8133,6.072450399398804
124,8181,8200,8203,8223,8174,8171,8198,8168,8169,8145,8153,8157,8152,8137,6.079111337661743
125,8181,8198,8206,8234,8188,8170,8213,8151,8206,8190,8162,8148,8150,8152,6.087069988250732
126,8215,8194,8207,8222,8190,8177,8209,8199,8203,8174,8198,8199,8207,8170,6.095085382461548
127,8184,8199,8207,8224,8195,8144,8223,8165,8220,8188,8183,8149,8175,8169,6.103443622589111
241,8201,8199,8215,8226,8173,8184,8199,8186,8201,8187,8197,8188,8184,8161,6.111451148986816
0,8180,8189,8209,8225,8173,8166,8196,8159,8199,8190,8185,8177,8164,8143,6.119449853897095
1,8184,8185,8210,8223,8185,8166,8214,8156,8227,8205,8187,8166,8168,8178,6.1274497509002686
2,8218,8188,8215,8216,8185,8189,8199,8209,8216,8186,8203,8209,8203,8199,6.135472297668457
3,8183,8196,8214,8234,8207,8151,8203,8165,8222,8186,8175,8154,8149,8166,6.14347505569458
4,8206,8195,8218,8237,8191,8185,8191,8198,8208,8165,8192,8189,8169,8162,6.151450395584106
5,8196,8192,8211,8230,8194,8171,8185,8184,8189,8147,8169,8174,8153,8146,6.159452199935913
6,8192,8196,8213,8241,8209,8158,8201,8143,8188,8153,8154,8152,8131,8140,6.1664879322052
7,8223,8193,8215,8232,8181,8185,8207,8192,8184,8150,8190,8211,8183,8164,6.174453496932983
8,8186,8187,8206,8225,8205,8150,8231,8161,8207,8177,8173,8159,8157,8170,6.182281017303467
9,8212,8187,8213,8228,8228,8175,8223,8185,8204,8179,8185,8184,8179,8180,6.190280914306641
10,8219,8202,8219,8241,8209,8172,8226,8183,8207,8200,8180,8185,8179,8173,6.198289155960083
11,8207,8205,8216,8248,8193,8158,8245,8137,8212,8238,8178,8160,8159,8174,6.206413745880127
12,8227,8189,8221,8232,8194,8181,8224,8175,8161,8213,8209,8228,8212,8200,6.214594841003418
13,8194,8207,8231,8253,8224,8151,8220,8154,8151,8203,8175,8174,8174,8197,6.221603393554688
14,8217,8212,8227,8258,8208,8180,8194,8178,8152,8182,8178,8171,8169,8169,6.229636669158936
15,8195,8176,8203,8222,8186,8172,8177,8167,8148,8154,8176,8168,8164,8121,6.237602710723877
16,8160,8174,8201,8223,8207,8155,8208,8128,8173,8161,8171,8144,8139,8123,6.245602369308472
17,8199,8181,8203,8222,8197,8189,8202,8198,8164,8136,8194,8212,8190,8153,6.253626823425293
18,8157,8153,8175,8190,8182,8154,8184,8176,8149,8113,8147,8141,8150,8106,6.261776447296143
19,8159,8138,8166,8174,8168,8179,8177,8172,8137,8111,8149,8134,8143,8083,6.269482612609863
20,8177,8156,8176,8188,8163,8182,8198,8172,8147,8132,8168,8168,8160,8108,6.277483701705933
21,8153,8158,8183,8194,8181,8147,8210,8132,8153,8145,8153,8136,8141,8123,6.285450458526611
22,8178,8138,8187,8173,8160,8177,8163,8181,8097,8113,8175,8195,8188,8124,6.292449474334717
23,8153,8143,8183,8181,8162,8147,8167,8146,8095,8132,8162,8157,8163,8114,6.300773859024048
24,8168,8160,8194,8196,8183,8158,8180,8146,8112,8145,8174,8157,8173,8137,6.3083014488220215
25,8181,8157,8196,8189,8169,8167,8143,8168,8076,8101,8174,8182,8191,8126,6.316311359405518
26,8159,8176,8200,8212,8167,8148,8133,8125,8080,8106,8150,8126,8141,8104,6.324442386627197
27,8207,8194,8213,8222,8177,8193,8134,8172,8102,8125,8189,8175,8177,8128,6.33269190788269
28,8178,8177,8199,8204,8191,8161,8147,8146,8119,8142,8178,8152,8163,8129,6.3407042026519775
29,8171,8165,8190,8192,8188,8158,8154,8151,8122,8131,8175,8148,8169,8128,6.34870457649231
30,8186,8169,8183,8182,8184,8174,8159,8206,8137,8107,8176,8168,8190,8101,6.355432987213135
31,8137,8157,8160,8168,8184,8152,8193,8158,8185,8126,8136,8097,8126,8055,6.363452672958374
32,8160,8136,8154,8141,8152,8186,8206,8185,8175,8118,8160,8152,8159,8076,6.371449708938599
33,8162,8142,8164,8142,8152,8159,8226,8178,8178,8125,8161,8148,8164,8107,6.379496574401856
34,8165,8151,8173,8150,8148,8160,8217,8166,8190,8144,8161,8129,8156,8111,6.387449264526367
35,8179,8150,8173,8136,8118,8185,8186,8183,8160,8141,8175,8169,8176,8101,6.395488023757935
36,8162,8173,8184,8166,8141,8153,8216,8128,8159,8174,8166,8135,8141,8120,6.403483867645264
37,8209,8194,8207,8196,8152,8175,8209,8174,8145,8170,8202,8187,8189,8168,6.411450147628784
38,8190,8194,8208,8198,8167,8156,8181,8170,8137,8154,8181,8162,8180,8151,6.418449640274048
39,8180,8196,8206,8206,8185,8167,8173,8131,8147,8159,8173,8135,8151,8132,6.426413297653198
40,8215,8196,8201,8206,8165,8197,8172,8163,8147,8158,8210,8196,8195,8156,6.434252738952637
41,8180,8196,8190,8209,8180,8146,8199,8139,8169,8180,8183,8152,8170,8164,6.442450046539307
42,8192,8190,8184,8197,8173,8168,8185,8187,8163,8162,8189,8178,8190,8148,6.450473070144653
43,8169,8170,8164,8172,8142,8168,8184,8181,8168,8150,8175,8159,8166,8106,6.458470344543457
44,8153,8156,8153,8157,8140,8163,8215,8141,8198,8166,8157,8121,8132,8103,6.466413259506226
45,8187,8143,8158,8137,8139,8183,8203,8191,8178,8132,8180,8182,8185,8124,6.474450349807739
46,8147,8146,8160,8141,8147,8145,8196,8161,8171,8118,8160,8133,8155,8107,6.4828150272369385
47,8165,8158,8167,8148,8125,8177,8183,8175,8164,8123,8170,8152,8165,8104,6.489816904067993
48,8173,8164,8170,8153,8119,8172,8186,8168,8157,8143,8165,8164,8164,8103,6.4968202114105225
48,8173,8164,8170,8153,8119,8172,8186,8168,8157,8143,8165,8164,8164,8103,6.497825145721436
49,8161,8177,8176,8178,8159,8151,8207,8138,8157,8166,8161,8132,8146,8122,6.50545072555542
50,8197,8192,8188,8191,8178,8184,8188,8197,8138,8144,8194,8186,8201,8150,6.513450384140015
51,8173,8209,8195,8217,8199,8156,8193,8155,8165,8169,8170,8143,8162,8138,6.521902322769165
52,8203,8215,8207,8229,8195,8177,8211,8153,8181,8191,8189,8170,8168,8151,6.52890944480896
53,8204,8200,8198,8203,8186,8178,8231,8177,8170,8171,8196,8193,8190,8168,6.537450313568115
54,8173,8192,8187,8193,8196,8155,8241,8165,8182,8167,8168,8145,8159,8164,6.544919013977051
54,8173,8192,8187,8193,8196,8155,8241,8165,8182,8167,8168,8145,8159,8164,6.545944929122925
55,8210,8197,8198,8199,8170,8180,8216,8218,8179,8151,8183,8189,8185,8152,6.551980972290039
56,8183,8209,8206,8214,8160,8155,8244,8169,8209,8170,8162,8144,8148,8140,6.56001091003418
57,8194,8214,8216,8221,8171,8181,8279,8168,8234,8195,8184,8162,8164,8182,6.5680036544799805
57,8194,8214,8216,8221,8171,8181,8279,8168,8234,8195,8184,8162,8164,8182,6.569003105163574
58,8204,8210,8209,8214,8181,8176,8262,8197,8222,8197,8200,8197,8197,8196,6.576216220855713
59,8172,8206,8193,8215,8181,8141,8228,8154,8204,8197,8168,8140,8154,8161,6.584210634231567
60,8197,8195,8191,8201,8156,8182,8190,8186,8167,8168,8179,8182,8176,8146,6.592450141906738
61,8173,8186,8186,8201,8162,8156,8202,8148,8174,8173,8155,8152,8149,8139,6.600221157073975
62,8184,8180,8186,8202,8156,8165,8190,8140,8162,8160,8165,8161,8157,8152,6.608186721801758
63,8191,8164,8176,8180,8139,8173,8150,8173,8120,8127,8179,8185,8178,8133,6.616412878036499
64,8144,8155,8165,8175,8158,8141,8169,8132,8139,8146,8143,8107,8135,8092,6.624704360961914
65,8175,8146,8163,8165,8148,8183,8189,8169,8147,8128,8159,8154,8175,8092,6.63170313835144
66,8161,8133,8144,8149,8139,8155,8204,8148,8145,8106,8148,8143,8156,8078,6.639702796936035
67,8148,8118,8131,8135,8132,8149,8190,8148,8136,8092,8148,8122,8154,8076,6.646702527999878
67,8148,8118,8131,8135,8132,8149,8190,8148,8136,8092,8148,8122,8154,8076,6.647702693939209
68,8157,8112,8132,8123,8115,8171,8158,8194,8117,8073,8159,8152,8194,8078,6.65570330619812
69,8141,8146,8153,8153,8146,8144,8176,8153,8153,8112,8150,8117,8150,8082,6.662704944610596
69,8141,8146,8153,8153,8146,8144,8176,8153,8153,8112,8150,8117,8150,8082,6.663703203201294
70,8188,8174,8175,8172,8147,8175,8168,8190,8167,8138,8189,8173,8177,8110,6.670703411102295
70,8188,8174,8175,8172,8147,8175,8168,8190,8167,8138,8189,8173,8177,8110,6.6717023849487305
71,8167,8167,8162,8168,8140,8159,8166,8172,8169,8155,8170,8152,8169,8103,6.679702758789063
72,8162,8169,8160,8172,8158,8163,8192,8147,8176,8173,8166,8143,8165,8115,6.686702489852905
73,8191,8171,8167,8169,8151,8180,8195,8187,8158,8157,8195,8193,8198,8127,6.6947081089019775
74,8145,8163,8157,8170,8154,8144,8206,8150,8169,8155,8164,8121,8147,8093,6.7027082443237305
75,8166,8160,8151,8162,8142,8182,8203,8189,8173,8139,8171,8149,8165,8088,6.710214853286743
76,8164,8159,8150,8154,8130,8167,8208,8188,8167,8138,8163,8150,8161,8091,6.718308925628662
77,8156,8159,8158,8156,8137,8153,8202,8161,8168,8145,8162,8124,8142,8099,6.726406812667847
78,8180,8154,8166,8148,8136,8179,8164,8195,8152,8120,8179,8167,8180,8106,6.7344138622283936
79,8155,8164,8171,8165,8152,8148,8176,8145,8169,8142,8140,8122,8149,8102,6.742449522018433
80,8193,8183,8189,8182,8146,8179,8192,8174,8182,8166,8169,8175,8176,8130,6.74945068359375
81,8187,8188,8195,8186,8149,8169,8194,8181,8201,8182,8188,8184,8174,8141,6.757449626922607
82,8166,8184,8187,8200,8166,8155,8208,8142,8220,8211,8173,8141,8139,8129,6.765283346176148
83,8200,8171,8174,8190,8150,8188,8210,8181,8202,8202,8185,8193,8179,8114,6.773283004760742
84,8164,8160,8157,8172,8157,8152,8231,8139,8218,8186,8160,8133,8144,8090,6.781294584274292
85,8175,8151,8150,8149,8149,8171,8230,8162,8211,8155,8180,8144,8163,8099,6.7894508838653564
86,8176,8143,8143,8135,8134,8172,8235,8183,8183,8153,8177,8158,8182,8096,6.797449827194214
87,8150,8148,8144,8146,8151,8157,8246,8154,8194,8172,8149,8107,8146,8081,6.805473327636719
88,8189,8155,8157,8149,8151,8185,8216,8204,8211,8161,8176,8162,8181,8090,6.813858509063721
89,8187,8174,8177,8172,8170,8148,8229,8165,8266,8215,8177,8154,8161,8116,6.820450782775879
90,8210,8186,8200,8193,8184,8165,8233,8169,8283,8246,8200,8187,8181,8174,6.828436851501465
91,8205,8183,8200,8194,8186,8169,8201,8189,8244,8215,8189,8195,8195,8183,6.836429357528687
92,8179,8194,8201,8215,8198,8154,8193,8148,8238,8231,8156,8137,8149,8153,6.84444522857666
93,8216,8193,8200,8210,8180,8196,8184,8180,8239,8236,8187,8189,8178,8149,6.852449893951416
94,8178,8170,8169,8178,8166,8157,8196,8138,8230,8224,8165,8144,8148,8122,6.860383749008179
95,8168,8148,8147,8151,8150,8156,8196,8146,8180,8184,8167,8131,8161,8098,6.868306875228882
96,8170,8130,8139,8133,8154,8167,8200,8190,8152,8135,8167,8149,8180,8070,6.876413583755493
97,8136,8125,8129,8133,8173,8154,8242,8148,8189,8134,8125,8088,8117,8038,6.883450746536255
98,8168,8127,8129,8119,8142,8196,8239,8185,8186,8140,8151,8148,8160,8057,6.89145040512085
98,8168,8127,8129,8119,8142,8196,8239,8185,8186,8140,8151,8148,8160,8057,6.891937971115112
99,8153,8131,8132,8118,8134,8160,8222,8168,8190,8165,8158,8142,8166,8083,6.900025606155396
100,8160,8136,8139,8128,8134,8157,8187,8163,8204,8175,8165,8138,8160,8091,6.907021522521973
101,8177,8138,8148,8126,8110,8177,8149,8184,8197,8174,8175,8177,8175,8085,6.91554856300354
102,8155,8146,8169,8141,8132,8150,8168,8136,8219,8211,8172,8144,8149,8114,6.923449993133545
103,8207,8160,8201,8160,8148,8179,8159,8184,8199,8203,8214,8213,8203,8175,6.931471347808838
104,8190,8170,8200,8177,8142,8155,8128,8166,8156,8177,8180,8185,8174,8149,6.939471244812012
105,8173,8159,8181,8180,8127,8167,8104,8130,8138,8165,8161,8146,8137,8104,6.947162389755249
105,8173,8159,8181,8180,8127,8167,8104,8130,8138,8165,8161,8146,8137,8104,6.948174476623535
106,8195,8146,8165,8159,8115,8188,8107,8159,8143,8155,8187,8189,8172,8101,6.954451322555542
107,8159,8153,8151,8153,8145,8137,8154,8134,8181,8171,8163,8135,8149,8095,6.962189435958862
108,8171,8148,8142,8139,8140,8165,8156,8186,8170,8133,8172,8154,8179,8080,6.969889163970947
108,8171,8148,8142,8139,8140,8165,8156,8186,8170,8133,8172,8154,8179,8080,6.970888137817383
109,8144,8132,8124,8123,8120,8165,8161,8171,8165,8114,8143,8123,8146,8033,6.977896690368652
110,8135,8130,8120,8120,8125,8167,8185,8142,8179,8145,8130,8108,8120,8039,6.986414194107056
111,8161,8120,8124,8097,8117,8182,8164,8191,8143,8120,8168,8173,8182,8073,6.994301080703735
111,8161,8120,8124,8097,8117,8182,8164,8191,8143,8120,8168,8173,8182,8073,6.995300531387329
112,8130,8129,8129,8108,8125,8142,8161,8153,8147,8120,8151,8121,8158,8063,7.001993894577026
113,8176,8157,8155,8145,8133,8177,8162,8180,8176,8152,8173,8164,8180,8082,7.010694980621338
114,8190,8172,8175,8165,8156,8166,8177,8176,8200,8189,8187,8185,8183,8116,7.0177001953125
115,8180,8188,8200,8181,8174,8149,8195,8151,8217,8216,8193,8169,8173,8161,7.025452136993408
116,8208,8196,8217,8192,8158,8178,8160,8197,8196,8199,8204,8217,8208,8178,7.033077955245972
116,8208,8196,8217,8192,8158,8178,8160,8197,8196,8199,8204,8217,8208,8178,7.034072637557983
117,8176,8191,8204,8204,8173,8155,8147,8136,8179,8195,8160,8149,8140,8133,7.041080474853516
117,8176,8191,8204,8204,8173,8155,8147,8136,8179,8195,8160,8149,8140,8133,7.042073011398315
118,8203,8191,8194,8194,8181,8185,8158,8144,8154,8185,8185,8175,8154,8132,7.049449443817139
119,8205,8198,8195,8192,8192,8168,8185,8177,8176,8198,8196,8195,8191,8159,7.057739734649658
120,8175,8200,8191,8209,8202,8145,8200,8169,8228,8217,8168,8143,8167,8159,7.065744400024414
121,8194,8183,8177,8184,8165,8186,8176,8205,8224,8184,8170,8169,8180,8123,7.073727369308472
122,8158,8178,8163,8172,8182,8164,8203,8150,8252,8199,8147,8122,8140,8098,7.079734802246094
122,8158,8178,8163,8172,8182,8164,8203,8150,8252,8199,8147,8122,8140,8098,7.080726623535156
123,8173,8185,8173,8187,8212,8184,8229,8173,8269,8207,8177,8162,8170,8142,7.088742971420288
124,8184,8186,8178,8191,8203,8177,8208,8200,8247,8192,8181,8190,8190,8147,7.09674596786499
125,8170,8192,8177,8199,8198,8153,8196,8146,8260,8220,8156,8143,8151,8124,7.103973150253296
126,8211,8204,8193,8204,8197,8186,8209,8184,8267,8238,8196,8210,8194,8163,7.112619161605835
127,8189,8214,8213,8221,8228,8153,8242,8165,8277,8261,8190,8186,8174,8195,7.120450973510742
241,8203,8206,8224,8230,8221,8172,8204,8175,8255,8249,8192,8186,8182,8198,7.128449440002441
0,8215,8203,8212,8225,8195,8181,8173,8191,8229,8229,8192,8208,8187,8181,7.136414051055908
1,8192,8218,8206,8233,8212,8151,8215,8140,8251,8264,8173,8166,8135,8184,7.143445491790772
2,8221,8201,8205,8215,8200,8187,8209,8179,8233,8253,8199,8215,8184,8200,7.1514573097229
3,8183,8178,8185,8196,8203,8159,8210,8164,8233,8238,8172,8173,8171,8178,7.159459829330444
3,8183,8178,8185,8196,8203,8159,8210,8164,8233,8238,8172,8173,8171,8178,7.15987229347229
4,8180,8177,8176,8191,8224,8162,8228,8173,8252,8245,8163,8164,8161,8168,7.167424917221069
5,8196,8171,8168,8180,8209,8177,8213,8198,8245,8240,8170,8186,8187,8148,7.175422668457031
6,8168,8180,8171,8197,8207,8155,8220,8151,8272,8247,8156,8128,8156,8126,7.183449745178223
7,8216,8208,8199,8219,8221,8192,8238,8198,8295,8244,8194,8196,8187,8151,7.191426992416382
8,8206,8219,8207,8233,8243,8164,8259,8169,8302,8269,8180,8192,8162,8168,7.199433326721191
9,8200,8220,8212,8243,8252,8160,8241,8153,8276,8279,8182,8189,8169,8195,7.205760717391968
9,8200,8220,8212,8243,8252,8160,8241,8153,8276,8279,8182,8189,8169,8195,7.206760406494141
10,8226,8230,8231,8251,8250,8180,8219,8203,8254,8256,8199,8232,8211,8207,7.213860750198364
10,8226,8230,8231,8251,8250,8180,8219,8203,8254,8256,8199,8232,8211,8207,7.214852809906006
11,8205,8255,8247,8286,8275,8160,8254,8156,8291,8283,8172,8175,8150,8199,7.2224507331848145
12,8232,8257,8245,8284,8260,8200,8249,8167,8266,8279,8197,8211,8168,8213,7.230449438095093
13,8201,8229,8212,8237,8238,8168,8235,8148,8213,8237,8180,8189,8171,8193,7.238449335098267
14,8183,8210,8188,8210,8243,8155,8246,8160,8208,8207,8169,8160,8165,8174,7.246868371963501
15,8209,8202,8184,8202,8239,8186,8244,8219,8224,8198,8183,8198,8185,8163,7.25444483757019
16,8180,8202,8182,8210,8243,8162,8269,8157,8271,8244,8155,8140,8126,8139,7.262452602386475
17,8214,8201,8192,8209,8224,8186,8278,8187,8287,8266,8187,8186,8169,8168,7.270452260971069
18,8207,8195,8190,8205,8222,8161,8274,8200,8286,8270,8187,8185,8182,8184,7.277488231658935
19,8186,8185,8178,8208,8230,8156,8249,8162,8265,8266,8165,8144,8153,8155,7.2854509353637695
20,8211,8185,8180,8205,8192,8189,8217,8185,8231,8238,8188,8195,8188,8144,7.292936086654663
21,8195,8206,8197,8224,8202,8143,8243,8147,8253,8264,8186,8166,8165,8172,7.30094313621521
22,8236,8219,8224,8243,8239,8170,8238,8182,8235,8267,8209,8211,8193,8218,7.308943033218384
23,8220,8220,8220,8244,8254,8181,8213,8177,8196,8241,8188,8200,8180,8184,7.317444086074829
24,8181,8216,8193,8236,8242,8171,8228,8131,8206,8235,8166,8145,8139,8144,7.325450420379639
25,8206,8194,8180,8205,8217,8187,8244,8184,8203,8227,8192,8209,8181,8157,7.333503484725952
26,8170,8178,8170,8192,8232,8146,8267,8160,8224,8247,8166,8167,8155,8145,7.340426921844482
27,8182,8171,8158,8180,8211,8172,8250,8184,8250,8241,8181,8169,8181,8132,7.348439455032349
28,8183,8165,8150,8161,8180,8170,8229,8200,8261,8231,8180,8178,8190,8125,7.356413125991821
29,8167,8177,8169,8169,8203,8152,8244,8162,8265,8257,8159,8149,8151,8141,7.364449262619018
30,8209,8182,8186,8180,8202,8193,8222,8198,8244,8247,8187,8202,8191,8153,7.372671604156494
31,8186,8185,8185,8197,8202,8160,8215,8150,8262,8247,8170,8154,8156,8133,7.380671977996826
32,8202,8195,8196,8208,8206,8168,8222,8161,8255,8244,8189,8187,8165,8164,7.38824725151062
33,8212,8186,8197,8201,8207,8164,8216,8187,8202,8228,8199,8223,8189,8187,7.396314382553101
34,8189,8191,8206,8214,8219,8146,8204,8140,8185,8239,8172,8163,8149,8169,7.404307842254639
35,8219,8200,8212,8211,8209,8193,8184,8171,8173,8220,8189,8200,8172,8151,7.41084098815918
35,8219,8200,8212,8211,8209,8193,8184,8171,8173,8220,8189,8200,8172,8151,7.411835670471191
36,8182,8179,8182,8192,8216,8168,8236,8143,8192,8218,8164,8160,8140,8125,7.419450283050537
37,8183,8153,8168,8175,8206,8175,8259,8170,8221,8223,8171,8172,8157,8136,7.427406072616577
38,8190,8147,8170,8155,8188,8175,8214,8218,8239,8214,8180,8199,8189,8127,7.435247421264648
39,8150,8153,8155,8148,8200,8151,8213,8166,8263,8235,8147,8126,8139,8089,7.443450212478638
40,8182,8144,8144,8146,8191,8196,8208,8190,8245,8225,8167,8172,8168,8096,7.451449155807495
41,8166,8145,8148,8146,8189,8163,8194,8169,8236,8218,8156,8149,8156,8110,7.459546327590942
42,8173,8160,8163,8135,8176,8160,8180,8171,8218,8220,8166,8135,8162,8125,7.467545986175537
43,8190,8158,8165,8139,8159,8178,8164,8203,8182,8220,8186,8175,8191,8119,7.474449634552002
44,8158,8159,8164,8187,8183,8153,8166,8142,8193,8243,8167,8134,8145,8111,7.482416391372681
45,8200,8164,8183,8188,8176,8183,8144,8172,8182,8229,8198,8193,8185,8144,7.490426778793335
46,8186,8167,8194,8172,8186,8155,8144,8168,8178,8231,8187,8177,8174,8155,7.498449802398682
47,8169,8159,8185,8182,8210,8164,8157,8159,8169,8221,8175,8143,8151,8139,7.506413459777832
48,8188,8138,8164,8156,8187,8196,8169,8177,8137,8176,8181,8168,8175,8099,7.514559984207153
49,8154,8129,8150,8124,8175,8155,8209,8121,8171,8196,8157,8114,8138,8077,7.522571802139282
50,8166,8118,8137,8100,8150,8176,8192,8180,8164,8190,8179,8158,8177,8098,7.5305681228637695
51,8138,8110,8120,8092,8147,8159,8169,8197,8131,8164,8155,8135,8167,8075,7.538580417633057
52,8144,8134,8144,8121,8175,8159,8193,8172,8181,8185,8143,8114,8142,8075,7.54526424407959
53,8201,8171,8185,8144,8167,8196,8210,8202,8242,8224,8188,8195,8194,8133,7.553232192993164
54,8174,8184,8194,8158,8165,8157,8216,8153,8253,8282,8185,8158,8165,8162,7.561250925064087
55,8200,8175,8199,8163,8170,8172,8168,8188,8211,8282,8206,8190,8186,8172,7.56944465637207
56,8198,8183,8204,8178,8205,8165,8143,8185,8208,8269,8196,8188,8184,8164,7.577292919158935
57,8182,8197,8201,8192,8223,8158,8165,8138,8224,8284,8177,8153,8157,8162,7.5849409103393555
58,8205,8170,8187,8161,8177,8192,8154,8176,8179,8251,8193,8192,8189,8156,7.592934846878052
58,8205,8170,8187,8161,8177,8192,8154,8176,8179,8251,8193,8192,8189,8156,7.593935012817383
59,8157,8145,8166,8145,8177,8163,8160,8144,8152,8226,8162,8124,8152,8115,7.601944208145142
60,8159,8137,8150,8136,8172,8185,8164,8166,8119,8211,8169,8130,8168,8088,7.607582092285156
61,8149,8116,8129,8107,8138,8179,8170,8168,8109,8202,8158,8130,8162,8057,7.616413116455078
62,8129,8104,8122,8096,8129,8158,8178,8136,8152,8199,8147,8098,8136,8058,7.62444806098938
63,8165,8112,8132,8091,8121,8179,8143,8198,8152,8169,8179,8157,8197,8077,7.632459878921509
64,8138,8135,8144,8112,8154,8152,8144,8178,8172,8191,8153,8110,8159,8069,7.6404500007629395
65,8159,8151,8162,8135,8171,8188,8145,8187,8200,8221,8170,8132,8151,8094,7.648449659347534
66,8166,8149,8163,8131,8149,8182,8130,8176,8202,8230,8178,8166,8162,8099,7.656421899795532
67,8146,8155,8166,8138,8148,8151,8140,8118,8198,8250,8164,8134,8142,8096,7.66444993019104
68,8191,8155,8179,8143,8165,8189,8131,8177,8173,8235,8202,8198,8193,8128,7.671154975891113
69,8172,8157,8180,8158,8189,8155,8137,8157,8175,8250,8185,8166,8167,8140,7.679754972457886
70,8176,8165,8190,8173,8183,8169,8138,8165,8165,8258,8189,8177,8177,8152,7.687755107879639
71,8170,8161,8184,8161,8173,8176,8130,8194,8156,8238,8188,8188,8188,8132,7.695450067520142
72,8130,8150,8161,8140,8162,8150,8145,8140,8190,8242,8151,8119,8124,8091,7.703214645385742
73,8169,8140,8160,8123,8115,8193,8145,8177,8184,8220,8171,8186,8164,8091,7.71129584312439
74,8147,8136,8159,8133,8147,8155,8164,8165,8186,8220,8164,8168,8165,8093,7.7192888259887695
74,8147,8136,8159,8133,8147,8155,8164,8165,8186,8220,8164,8168,8165,8093,7.72028923034668
75,8142,8134,8155,8132,8214,8148,8139,8172,8194,8211,8174,8146,8167,8102,7.727287769317627
75,8142,8134,8155,8132,8214,8148,8139,8172,8194,8211,8174,8146,8167,8102,7.72774076461792
76,8165,8141,8158,8120,8200,8172,8098,8195,8185,8180,8177,8176,8180,8093,7.734747409820557
77,8143,8157,8156,8139,8155,8162,8125,8129,8200,8204,8142,8127,8129,8077,7.742775201797485
78,8175,8153,8154,8136,8122,8200,8118,8156,8175,8188,8171,8171,8171,8096,7.749784469604492
78,8175,8153,8154,8136,8122,8200,8118,8156,8175,8188,8171,8171,8171,8096,7.750783920288086
79,8156,8144,8159,8123,8137,8162,8105,8151,8163,8174,8175,8162,8174,8101,7.757781267166138
80,8155,8146,8172,8130,8145,8153,8102,8162,8174,8205,8183,8162,8178,8103,7.7657835483551025
80,8155,8146,8172,8130,8145,8153,8102,8162,8174,8205,8183,8162,8178,8103,7.766782522201538
81,8170,8134,8165,8120,8124,8180,8077,8186,8144,8210,8183,8177,8191,8084,7.773781299591064
81,8170,8134,8165,8120,8124,8180,8077,8186,8144,8210,8183,8177,8191,8084,7.7747814655303955
82,8131,8125,8150,8114,8124,8157,8091,8124,8134,8206,8144,8105,8127,8068,7.781781673431396
83,8172,8124,8163,8112,8095,8191,8103,8169,8124,8181,8179,8167,8166,8098,7.789781093597412
84,8168,8123,8171,8116,8100,8171,8110,8161,8144,8176,8180,8162,8168,8097,7.798451662063599
85,8154,8117,8164,8116,8126,8164,8105,8137,8184,8179,8174,8134,8150,8097,7.805449962615967
86,8163,8095,8141,8084,8102,8181,8081,8185,8174,8151,8183,8178,8183,8092,7.813602685928345
87,8107,8085,8112,8074,8100,8139,8095,8150,8174,8137,8141,8120,8141,8054,7.821604251861572
88,8138,8097,8121,8087,8096,8180,8094,8182,8169,8106,8158,8155,8170,8054,7.829612731933594
89,8143,8120,8139,8105,8099,8172,8098,8172,8175,8112,8160,8150,8172,8055,7.837445497512817
90,8130,8138,8143,8123,8128,8153,8108,8141,8178,8146,8158,8123,8155,8063,7.845452308654785
91,8163,8138,8145,8120,8126,8179,8084,8190,8149,8133,8185,8180,8204,8080,7.853450298309326
91,8163,8138,8145,8120,8126,8179,8084,8190,8149,8133,8185,8180,8204,8080,7.8540427684783936
92,8134,8142,8149,8132,8131,8146,8098,8151,8162,8154,8164,8137,8176,8084,7.861058950424194
93,8161,8146,8162,8144,8139,8176,8102,8181,8147,8155,8179,8171,8191,8104,7.868059158325195
94,8156,8136,8151,8135,8128,8175,8088,8188,8119,8133,8161,8164,8168,8077,7.876928806304932
95,8126,8125,8136,8128,8110,8163,8089,8140,8146,8148,8144,8117,8124,8050,7.884450197219849
96,8167,8136,8155,8129,8107,8194,8102,8181,8180,8160,8187,8184,8178,8086,7.892589330673218
97,8143,8154,8165,8151,8144,8158,8143,8162,8213,8175,8169,8141,8160,8113,7.900450468063354
98,8153,8143,8157,8146,8138,8179,8130,8191,8195,8146,8176,8153,8176,8106,7.908468246459961
99,8156,8137,8150,8128,8116,8176,8124,8193,8189,8142,8171,8162,8170,8088,7.91664457321167
100,8139,8165,8160,8145,8149,8161,8165,8143,8231,8187,8154,8120,8132,8108,7.924449443817139
101,8170,8169,8162,8146,8166,8193,8157,8187,8208,8166,8183,8182,8185,8132,7.931450366973877
102,8138,8159,8148,8149,8170,8154,8151,8155,8197,8167,8164,8149,8160,8105,7.9394495487213135
103,8162,8180,8161,8166,8149,8176,8139,8165,8214,8193,8179,8164,8170,8109,7.947709798812866
104,8175,8192,8171,8172,8144,8183,8137,8184,8215,8200,8180,8192,8187,8123,7.9554443359375
105,8144,8178,8167,8178,8181,8154,8172,8152,8225,8214,8154,8151,8151,8132,7.963438034057617
106,8174,8162,8164,8167,8174,8183,8160,8210,8216,8190,8184,8197,8191,8137,7.971430540084839
107,8151,8169,8157,8173,8173,8155,8156,8182,8237,8188,8162,8151,8164,8107,7.97944974899292
108,8174,8192,8174,8196,8181,8178,8175,8175,8255,8200,8165,8159,8159,8109,7.987441062927246
109,8190,8188,8180,8193,8171,8184,8182,8184,8238,8184,8178,8199,8180,8118,7.995454788208008
110,8152,8177,8163,8184,8178,8143,8193,8137,8220,8169,8162,8148,8152,8122,8.002454280853271
111,8191,8179,8166,8179,8174,8180,8179,8198,8185,8134,8185,8192,8194,8133,8.010453462600708
112,8167,8190,8171,8196,8187,8166,8180,8174,8202,8145,8159,8155,8163,8104,8.018450021743774
113,8166,8199,8180,8207,8177,8178,8180,8143,8222,8174,8160,8148,8151,8109,8.02647352218628
114,8190,8200,8187,8198,8153,8185,8169,8177,8207,8170,8185,8201,8194,8137,8.034472942352295
115,8163,8205,8185,8214,8176,8140,8170,8151,8213,8180,8165,8151,8169,8135,8.042449712753296
116,8192,8199,8184,8209,8158,8175,8140,8193,8192,8162,8177,8186,8196,8125,8.050449848175049
117,8168,8192,8179,8192,8132,8163,8146,8167,8200,8165,8153,8159,8158,8103,8.058763265609741
118,8164,8187,8182,8194,8144,8170,8164,8153,8224,8177,8158,8146,8138,8112,8.065770626068115
119,8185,8167,8174,8179,8142,8185,8153,8202,8201,8157,8182,8199,8186,8126,8.073116540908813
120,8149,8160,8167,8180,8155,8147,8166,8159,8197,8154,8149,8141,8151,8113,8.08106541633606
120,8149,8160,8167,8180,8155,8147,8166,8159,8197,8154,8149,8141,8151,8113,8.082061529159546
121,8190,8168,8182,8195,8154,8188,8148,8182,8180,8127,8168,8174,8172,8117,8.089449882507324
122,8182,8181,8181,8204,8148,8167,8150,8162,8177,8138,8162,8168,8164,8112,8.097451210021973
123,8162,8184,8173,8199,8153,8151,8167,8136,8176,8153,8151,8145,8152,8120,8.105560064315796
124,8185,8161,8162,8173,8148,8180,8118,8182,8120,8090,8164,8181,8185,8108,8.113644361495972
125,8148,8152,8149,8172,8144,8147,8085,8139,8104,8070,8131,8114,8135,8056,8.121658086776733
126,8173,8168,8164,8182,8115,8179,8085,8165,8128,8097,8156,8148,8162,8059,8.128681182861328
127,8167,8174,8169,8184,8129,8166,8112,8174,8153,8127,8158,8158,8171,8081,8.136413097381592
241,8147,8166,8156,8179,8162,8146,8127,8154,8159,8126,8143,8136,8151,8089,8.144700288772583
0,8176,8148,8147,8151,8133,8174,8117,8204,8148,8089,8165,8189,8194,8081,8.152702331542969
1,8137,8136,8130,8131,8118,8141,8138,8161,8166,8091,8132,8125,8157,8056,8.160450220108032
2,8148,8125,8124,8116,8100,8165,8127,8180,8137,8073,8135,8139,8170,8056,8.16851544380188
3,8152,8127,8137,8126,8098,8169,8120,8187,8121,8067,8141,8153,8175,8050,8.176508665084839
4,8149,8159,8160,8168,8118,8164,8142,8138,8152,8111,8146,8122,8142,8057,8.184507608413696
5,8189,8170,8161,8170,8111,8186,8117,8173,8119,8101,8179,8181,8181,8085,8.1915123462677
6,8151,8163,8151,8164,8140,8136,8112,8148,8103,8096,8149,8139,8151,8082,8.199466943740845
7,8170,8170,8159,8170,8146,8164,8098,8171,8106,8096,8156,8149,8162,8075,8.207465887069702
8,8176,8167,8151,8162,8107,8175,8068,8168,8096,8077,8149,8149,8161,8039,8.215450286865234
9,8148,8151,8133,8151,8106,8146,8078,8115,8107,8075,8125,8097,8119,8018,8.223449468612671
10,8182,8141,8131,8128,8113,8172,8086,8185,8096,8065,8158,8161,8177,8041,8.231450080871582
11,8150,8150,8126,8126,8128,8139,8109,8180,8115,8080,8139,8124,8162,8033,8.239144563674927
11,8150,8150,8126,8126,8128,8139,8109,8180,8115,8080,8139,8124,8162,8033,8.240142345428467
12,8162,8157,8130,8134,8119,8158,8125,8186,8147,8087,8142,8123,8159,8032,8.247140645980835
12,8162,8157,8130,8134,8119,8158,8125,8186,8147,8087,8142,8123,8159,8032,8.24813961982727
13,8176,8158,8135,8127,8109,8171,8142,8196,8159,8097,8155,8155,8171,8040,8.255450248718262
14,8145,8163,8140,8136,8136,8150,8170,8136,8170,8131,8151,8119,8138,8056,8.262450456619263
15,8185,8162,8151,8149,8130,8186,8155,8178,8144,8107,8186,8179,8191,8091,8.27022123336792
16,8171,8179,8155,8172,8140,8151,8156,8174,8143,8117,8163,8152,8174,8096,8.278449773788452
17,8176,8199,8168,8180,8164,8165,8144,8175,8136,8138,8161,8146,8159,8092,8.286142110824585
18,8184,8197,8168,8160,8162,8182,8121,8181,8112,8105,8170,8173,8175,8073,8.294142007827759
19,8166,8209,8174,8185,8181,8147,8153,8131,8144,8126,8155,8132,8148,8087,8.302149295806885
20,8214,8216,8194,8210,8184,8174,8143,8189,8152,8145,8188,8195,8197,8133,8.309652328491211
20,8214,8216,8194,8210,8184,8174,8143,8189,8152,8145,8188,8195,8197,8133,8.31065559387207
21,8185,8209,8184,8203,8183,8152,8122,8170,8156,8146,8166,8155,8162,8104,8.317655801773071
21,8185,8209,8184,8203,8183,8152,8122,8170,8156,8146,8166,8155,8162,8104,8.318655967712402
22,8177,8208,8172,8191,8168,8167,8138,8145,8174,8156,8158,8122,8137,8080,8.32565689086914
23,8193,8179,8150,8159,8136,8184,8146,8184,8160,8148,8175,8163,8180,8082,8.333453178405762
24,8142,8144,8123,8135,8146,8137,8160,8148,8158,8137,8139,8107,8149,8059,8.341450452804565
25,8172,8147,8136,8131,8149,8171,8167,8201,8160,8107,8156,8151,8180,8055,8.349449872970581
26,8169,8172,8155,8155,8157,8163,8191,8196,8188,8125,8159,8147,8164,8054,8.357189655303955
26,8169,8172,8155,8155,8157,8163,8191,8196,8188,8125,8159,8147,8164,8054,8.35816216468811
27,8159,8188,8163,8179,8166,8163,8192,8152,8189,8144,8163,8130,8142,8076,8.365659713745117
28,8182,8185,8166,8167,8166,8186,8157,8174,8139,8122,8181,8181,8182,8101,8.373661041259766
29,8157,8198,8175,8177,8191,8152,8158,8138,8142,8149,8159,8133,8151,8098,8.381443977355957
30,8198,8218,8191,8197,8181,8181,8143,8168,8144,8158,8187,8184,8178,8116,8.388456106185913
31,8198,8221,8191,8203,8178,8164,8149,8160,8154,8155,8175,8189,8176,8129,8.39647388458252
32,8184,8210,8194,8201,8188,8153,8157,8149,8177,8157,8163,8152,8162,8139,8.40432620048523
33,8197,8187,8185,8172,8158,8180,8119,8205,8153,8132,8185,8189,8193,8121,8.412450075149536
34,8144,8160,8142,8144,8134,8149,8125,8150,8141,8130,8136,8112,8127,8051,8.420488119125366
35,8157,8132,8121,8111,8104,8178,8145,8166,8136,8110,8140,8125,8146,8036,8.42805814743042
36,8156,8131,8134,8102,8113,8165,8170,8183,8156,8118,8159,8150,8178,8078,8.436055183410645
36,8156,8131,8134,8102,8113,8165,8170,8183,8156,8118,8159,8150,8178,8078,8.437050580978394
37,8142,8143,8143,8123,8150,8154,8183,8153,8176,8149,8162,8131,8161,8120,8.444849729537964
38,8169,8137,8131,8119,8128,8192,8149,8193,8137,8119,8179,8170,8188,8118,8.452451467514038
39,8131,8140,8131,8124,8111,8154,8138,8154,8134,8120,8146,8112,8137,8087,8.460437059402466
40,8167,8159,8166,8147,8129,8176,8132,8161,8137,8138,8172,8158,8156,8121,8.467434167861938
41,8191,8181,8184,8166,8168,8169,8145,8168,8119,8140,8187,8200,8183,8169,8.475449562072754
42,8170,8192,8181,8171,8179,8137,8146,8143,8104,8134,8159,8145,8154,8172,8.483444929122925
43,8196,8180,8182,8156,8134,8175,8092,8193,8088,8100,8170,8176,8182,8141,8.491450071334839
44,8165,8173,8172,8160,8140,8154,8101,8137,8121,8118,8151,8133,8139,8110,8.499433755874634
45,8174,8159,8163,8147,8144,8167,8129,8141,8119,8124,8165,8146,8157,8126,8.507028102874756
46,8166,8131,8146,8111,8113,8170,8127,8192,8093,8090,8159,8159,8182,8112,8.515548706054688
47,8130,8134,8135,8121,8121,8154,8150,8165,8148,8109,8132,8101,8134,8082,8.522451877593994
48,8168,8142,8141,8126,8128,8189,8161,8196,8183,8135,8163,8155,8171,8099,8.530450105667114
49,8142,8133,8135,8110,8134,8154,8181,8154,8181,8148,8151,8125,8157,8109,8.538488864898682
50,8150,8134,8138,8110,8128,8164,8173,8156,8164,8137,8168,8134,8164,8131,8.54641318321228
51,8173,8153,8147,8127,8134,8170,8124,8192,8158,8134,8186,8175,8188,8126,8.554438352584839
52,8154,8184,8161,8157,8179,8141,8123,8149,8195,8172,8158,8130,8153,8117,8.562438011169434
53,8199,8199,8184,8167,8180,8188,8130,8183,8192,8166,8184,8190,8184,8164,8.570457458496094
54,8182,8191,8182,8169,8170,8161,8130,8149,8176,8157,8174,8164,8160,8175,8.578448295593262
55,8167,8173,8165,8151,8145,8155,8100,8140,8144,8124,8160,8138,8158,8143,8.585450172424316
56,8154,8140,8133,8103,8091,8173,8068,8179,8088,8049,8147,8147,8176,8079,8.593769073486328
57,8103,8114,8107,8085,8080,8146,8096,8126,8096,8052,8109,8083,8115,8030,8.601773738861084
58,8135,8098,8102,8072,8078,8179,8114,8160,8101,8066,8140,8141,8154,8042,8.608800888061523
58,8135,8098,8102,8072,8078,8179,8114,8160,8101,8066,8140,8141,8154,8042,8.609801054000854
59,8110,8084,8093,8059,8077,8153,8122,8166,8097,8068,8133,8120,8161,8034,8.616868019104004
60,8095,8084,8093,8063,8081,8151,8108,8162,8098,8078,8132,8085,8148,8020,8.625450849533081
61,8127,8100,8102,8064,8074,8176,8081,8186,8100,8085,8158,8146,8173,8022,8.633482456207275
62,8104,8118,8114,8077,8079,8145,8090,8126,8120,8110,8140,8116,8135,8030,8.641480922698975
63,8137,8130,8140,8087,8080,8176,8065,8161,8088,8092,8174,8159,8178,8071,8.649487257003784
64,8138,8147,8152,8107,8113,8157,8046,8167,8084,8097,8172,8157,8185,8094,8.656160354614258
65,8137,8156,8145,8127,8125,8153,8035,8150,8099,8114,8155,8128,8159,8098,8.66420316696167
66,8161,8142,8137,8104,8085,8180,8000,8187,8056,8072,8165,8164,8180,8077,8.67248821258545
67,8117,8141,8130,8094,8091,8144,8020,8138,8065,8061,8134,8110,8136,8044,8.68048644065857
68,8137,8137,8124,8094,8092,8174,8050,8162,8092,8063,8151,8141,8163,8053,8.688513994216919
69,8136,8123,8109,8085,8090,8164,8084,8167,8110,8076,8149,8143,8165,8053,8.696415185928345
70,8124,8128,8113,8086,8114,8150,8120,8154,8134,8102,8145,8119,8150,8060,8.704450368881226
71,8145,8134,8123,8078,8112,8180,8110,8212,8135,8095,8168,8172,8199,8072,8.712745904922485
72,8105,8139,8114,8086,8123,8147,8117,8162,8157,8119,8138,8105,8151,8051,8.719747543334961
73,8137,8147,8121,8096,8108,8173,8112,8169,8152,8136,8161,8132,8164,8068,8.727449893951416
74,8151,8151,8134,8099,8090,8165,8090,8171,8129,8136,8177,8163,8183,8097,8.735450267791748
75,8139,8168,8152,8119,8127,8141,8075,8139,8135,8147,8167,8130,8163,8114,8.74329686164856
76,8172,8176,8165,8121,8140,8171,8045,8197,8124,8129,8180,8180,8197,8115,8.751271486282349
77,8123,8161,8142,8113,8119,8144,8054,8145,8118,8126,8145,8118,8139,8072,8.759523868560791
78,8123,8143,8127,8098,8084,8172,8066,8135,8083,8093,8156,8123,8144,8060,8.767710447311401
79,8128,8129,8127,8084,8088,8170,8075,8170,8049,8039,8155,8146,8178,8059,8.77571153640747
80,8099,8125,8124,8081,8112,8140,8095,8155,8070,8041,8126,8092,8143,8034,8.78275203704834
81,8128,8122,8119,8069,8083,8182,8093,8197,8095,8053,8151,8138,8172,8029,8.790450096130371
82,8101,8128,8116,8077,8087,8157,8123,8156,8133,8092,8136,8108,8150,8042,8.798768281936646
83,8114,8128,8120,8084,8101,8162,8126,8164,8130,8103,8151,8121,8167,8069,8.805765628814697
83,8114,8128,8120,8084,8101,8162,8126,8164,8130,8103,8151,8121,8167,8069,8.806766748428345
84,8126,8123,8123,8077,8097,8167,8097,8196,8110,8083,8161,8152,8193,8063,8.814703941345215
85,8101,8141,8136,8098,8110,8149,8097,8146,8131,8105,8137,8106,8149,8051,8.821708679199219
85,8101,8141,8136,8098,8110,8149,8097,8146,8131,8105,8137,8106,8149,8051,8.822709798812866
86,8139,8152,8144,8102,8088,8184,8075,8174,8126,8106,8164,8162,8179,8071,8.830710411071777
87,8118,8151,8129,8095,8089,8154,8079,8142,8132,8115,8147,8132,8158,8072,8.836709260940552
87,8118,8151,8129,8095,8089,8154,8079,8142,8132,8115,8147,8132,8158,8072,8.837711095809937
88,8123,8151,8128,8100,8123,8162,8093,8151,8126,8111,8153,8131,8161,8084,8.845709800720215
89,8140,8150,8134,8103,8133,8173,8085,8189,8090,8076,8170,8165,8186,8076,8.852710247039795
89,8140,8150,8134,8103,8133,8173,8085,8189,8090,8076,8170,8165,8186,8076,8.85370945930481
90,8111,8160,8134,8121,8137,8142,8103,8130,8099,8078,8141,8101,8135,8044,8.860711097717285
90,8111,8160,8134,8121,8137,8142,8103,8130,8099,8078,8141,8101,8135,8044,8.861710548400879
91,8142,8168,8139,8122,8125,8182,8113,8162,8097,8077,8166,8144,8164,8052,8.868708848953247
91,8142,8168,8139,8122,8125,8182,8113,8162,8097,8077,8166,8144,8164,8052,8.869709253311157
92,8116,8157,8130,8109,8126,8159,8131,8155,8103,8088,8153,8127,8152,8046,8.877710342407227
93,8111,8141,8127,8105,8117,8159,8128,8149,8116,8090,8150,8121,8152,8039,8.885717391967773
94,8137,8135,8129,8098,8101,8179,8111,8186,8114,8084,8173,8169,8185,8045,8.893452405929565
95,8105,8145,8126,8101,8127,8142,8132,8147,8144,8118,8151,8111,8141,8062,8.901450395584106
96,8133,8152,8131,8094,8117,8168,8107,8186,8127,8099,8173,8152,8182,8090,8.909590244293213
97,8124,8153,8135,8096,8109,8150,8085,8175,8106,8093,8173,8144,8181,8072,8.917449951171875
98,8134,8170,8154,8123,8137,8156,8107,8155,8133,8130,8177,8134,8164,8089,8.924472093582153
99,8174,8175,8165,8125,8147,8180,8107,8195,8137,8124,8189,8186,8199,8122,8.932470321655273
100,8132,8164,8146,8116,8144,8138,8104,8144,8127,8121,8150,8120,8159,8087,8.940433263778687
101,8147,8151,8135,8102,8125,8171,8084,8173,8097,8107,8165,8143,8180,8063,8.948463201522827
102,8136,8148,8133,8097,8137,8167,8092,8174,8106,8104,8160,8134,8164,8050,8.956412315368652
103,8123,8154,8137,8106,8139,8159,8124,8140,8145,8121,8151,8105,8133,8048,8.964435815811157
104,8155,8155,8139,8100,8101,8182,8130,8180,8139,8105,8174,8170,8177,8064,8.97243046760559
105,8126,8162,8139,8107,8125,8144,8147,8151,8141,8111,8156,8127,8145,8071,8.97944951057434
106,8146,8158,8142,8105,8136,8170,8114,8189,8121,8100,8176,8146,8167,8074,8.987265348434448
107,8139,8148,8133,8094,8112,8162,8081,8180,8124,8102,8163,8146,8168,8060,8.995277166366577
108,8127,8160,8138,8106,8120,8153,8098,8124,8152,8140,8149,8116,8139,8084,9.003288507461548
109,8164,8169,8150,8107,8123,8184,8088,8182,8121,8128,8182,8171,8193,8110,9.011449813842772
110,8128,8176,8150,8119,8135,8146,8089,8164,8127,8122,8160,8122,8164,8081,9.019450426101685
111,8149,8189,8164,8136,8137,8174,8100,8173,8164,8134,8175,8153,8166,8090,9.02744960784912
112,8160,8189,8160,8133,8144,8173,8117,8171,8159,8150,8173,8176,8172,8104,9.035366773605348
113,8132,8169,8139,8126,8160,8144,8117,8135,8124,8150,8143,8118,8147,8092,9.0433611869812
114,8160,8159,8140,8114,8140,8179,8090,8191,8101,8113,8167,8157,8186,8081,9.050445556640623
115,8136,8180,8153,8129,8148,8151,8128,8162,8162,8138,8153,8117,8143,8073,9.058449268341064
116,8154,8189,8157,8143,8158,8172,8158,8172,8195,8169,8172,8141,8149,8103,9.066379308700562
117,8159,8165,8145,8120,8140,8174,8133,8189,8163,8163,8180,8171,8181,8107,9.074251651763916
118,8125,8159,8144,8113,8141,8140,8118,8146,8153,8160,8145,8111,8152,8080,9.082242727279665
119,8154,8165,8149,8114,8130,8180,8100,8194,8138,8122,8161,8160,8182,8074,9.090449571609495
120,8128,8162,8142,8119,8131,8157,8109,8152,8153,8125,8149,8132,8148,8063,9.0985004901886
121,8139,8158,8154,8121,8138,8157,8105,8136,8160,8145,8164,8136,8159,8090,9.106672763824465
122,8151,8162,8162,8122,8140,8164,8085,8179,8131,8131,8176,8174,8196,8113,9.112877130508425
122,8151,8162,8162,8122,8140,8164,8085,8179,8131,8131,8176,8174,8196,8113,9.113868951797484
123,8115,8179,8156,8144,8150,8143,8102,8154,8136,8142,8151,8128,8155,8092,9.121870040893556
124,8148,8180,8156,8141,8127,8181,8104,8182,8140,8140,8174,8177,8180,8092,9.128873825073242
125,8124,8161,8146,8126,8128,8151,8106,8146,8148,8142,8155,8143,8153,8091,9.13745093345642
126,8116,8143,8136,8109,8120,8156,8090,8148,8132,8124,8155,8119,8151,8086,9.145473718643188
127,8131,8136,8127,8093,8088,8175,8065,8196,8106,8088,8163,8150,8179,8064,9.153473138809204
241,8101,8144,8128,8113,8107,8146,8089,8147,8136,8103,8133,8101,8129,8040,9.161450624465942
0,8135,8147,8138,8119,8108,8177,8089,8177,8124,8098,8163,8150,8168,8052,9.169436931610107
1,8120,8151,8133,8111,8111,8149,8089,8160,8105,8101,8158,8133,8168,8054,9.176435947418211
2,8116,8152,8136,8109,8123,8146,8084,8149,8103,8113,8155,8122,8149,8072,9.184429407119753
3,8145,8140,8146,8105,8111,8173,8056,8198,8084,8089,8172,8165,8178,8071,9.192449808120728
3,8145,8140,8146,8105,8111,8173,8056,8198,8084,8089,8172,8165,8178,8071,9.192822217941284
4,8115,8157,8147,8124,8122,8146,8081,8146,8105,8105,8145,8098,8139,8046,9.200564622879028
5,8143,8173,8152,8127,8118,8181,8097,8159,8113,8124,8175,8148,8167,8074,9.208563804626465
6,8134,8159,8153,8117,8122,8157,8100,8150,8116,8131,8173,8164,8169,8094,9.216721057891846
7,8125,8152,8155,8119,8134,8143,8101,8143,8115,8127,8155,8135,8160,8098,9.224450588226318
8,8154,8163,8161,8120,8116,8176,8074,8200,8099,8114,8169,8171,8192,8098,9.232418060302734
9,8122,8175,8163,8134,8112,8153,8077,8152,8134,8148,8147,8120,8139,8079,9.240450859069824
10,8140,8158,8154,8121,8093,8184,8076,8166,8138,8136,8167,8152,8156,8074,9.247474193572998
11,8120,8128,8128,8089,8094,8166,8090,8169,8110,8095,8154,8150,8162,8056,9.25547194480896
12,8097,8127,8118,8092,8111,8145,8108,8145,8100,8086,8135,8116,8146,8052,9.263451337814333
12,8097,8127,8118,8092,8111,8145,8108,8145,8100,8086,8135,8116,8146,8052,9.264079332351685
13,8130,8138,8126,8098,8096,8175,8081,8190,8087,8080,8164,8168,8186,8053,9.271743774414062
14,8104,8154,8134,8115,8118,8150,8090,8141,8114,8127,8145,8120,8141,8041,9.279743909835815
15,8139,8167,8149,8138,8132,8178,8095,8152,8120,8155,8168,8157,8158,8085,9.28775930404663
16,8150,8165,8151,8138,8120,8169,8088,8161,8098,8136,8174,8179,8179,8108,9.295880556106567
17,8127,8158,8150,8131,8133,8145,8095,8137,8097,8128,8155,8127,8153,8084,9.303451538085938
18,8157,8160,8151,8125,8143,8177,8093,8197,8101,8127,8175,8171,8188,8067,9.310528993606567
19,8117,8157,8131,8128,8149,8148,8116,8147,8134,8158,8148,8125,8142,8049,9.318532705307009
20,8124,8142,8131,8116,8129,8165,8111,8149,8126,8145,8164,8142,8155,8068,9.326574325561523
21,8143,8146,8152,8111,8123,8164,8098,8186,8102,8122,8178,8172,8187,8087,9.334578037261965
22,8125,8162,8156,8124,8134,8142,8107,8164,8126,8135,8157,8124,8154,8081,9.342578887939451
23,8143,8146,8140,8107,8105,8180,8079,8199,8105,8107,8167,8166,8183,8064,9.350579261779783
24,8107,8126,8124,8097,8102,8149,8081,8150,8084,8106,8134,8124,8143,8040,9.35857915878296
25,8120,8130,8127,8098,8111,8163,8092,8152,8080,8111,8146,8129,8149,8058,9.36675763130188
26,8129,8138,8130,8096,8119,8169,8094,8188,8077,8087,8162,8156,8187,8056,9.374756574630736
27,8103,8156,8143,8130,8143,8145,8111,8146,8099,8114,8139,8106,8149,8038,9.3814537525177
28,8143,8163,8158,8137,8116,8191,8085,8171,8100,8147,8162,8159,8166,8053,9.389424562454224
29,8117,8151,8146,8119,8101,8158,8075,8135,8112,8158,8145,8126,8141,8047,9.397449493408203
29,8117,8151,8146,8119,8101,8158,8075,8135,8112,8158,8145,8126,8141,8047,9.397971630096436
30,8122,8147,8144,8120,8117,8151,8091,8146,8129,8140,8159,8131,8160,8072,9.40598750114441
31,8142,8142,8138,8113,8121,8167,8093,8191,8122,8125,8175,8173,8190,8092,9.413512945175173
32,8097,8136,8124,8104,8127,8148,8092,8131,8119,8141,8139,8108,8132,8062,9.4214506149292
33,8125,8135,8136,8107,8113,8184,8073,8168,8091,8119,8160,8157,8169,8059,9.429450035095217
34,8123,8150,8150,8130,8133,8155,8092,8178,8109,8127,8156,8146,8167,8070,9.437449932098389
35,8125,8167,8153,8142,8156,8156,8109,8173,8141,8157,8157,8130,8157,8075,9.444450378417969
36,8147,8169,8153,8137,8142,8181,8109,8188,8149,8161,8170,8173,8180,8070,9.452996492385864
37,8130,8180,8170,8166,8175,8152,8150,8135,8193,8199,8154,8130,8148,8091,9.460449934005736
