COUNTER,F3,FC5,AF3,F7,T7,P7,O1,O2,P8,T8,F8,AF4,FC6,F4,Timestamp
92,8166,8174,8237,8202,8219,8159,8268,8161,8270,8190,8159,8210,8148,8126,0.0040004253387451
93,8179,8168,8222,8188,8180,8179,8243,8174,8234,8159,8166,8233,8170,8122,0.0119996070861816
94,8157,8176,8218,8193,8177,8155,8255,8147,8238,8171,8154,8203,8149,8123,0.0199995040893554
95,8193,8188,8228,8206,8197,8163,8256,8181,8245,8176,8182,8245,8179,8161,0.0269999504089355
96,8190,8194,8233,8212,8225,8149,8250,8177,8247,8170,8178,8233,8174,8165,0.0351569652557373
97,8175,8190,8240,8216,8227,8154,8253,8162,8249,8175,8170,8209,8155,8157,0.0434374809265136
98,8193,8179,8238,8214,8198,8174,8250,8193,8240,8171,8174,8238,8168,8154,0.0514378547668457
99,8173,8191,8231,8221,8213,8149,8269,8158,8259,8184,8153,8201,8139,8137,0.0594379901885986
100,8190,8209,8233,8228,8239,8167,8280,8172,8281,8197,8168,8213,8161,8145,0.067385196685791
101,8180,8202,8231,8229,8248,8158,8291,8171,8304,8214,8166,8205,8158,8145,0.0752115249633789
102,8169,8196,8233,8232,8245,8152,8304,8146,8316,8231,8166,8189,8146,8150,0.0832316875457763
103,8190,8200,8234,8234,8230,8168,8297,8173,8297,8227,8189,8224,8180,8168,0.0901875495910644
104,8177,8209,8240,8250,8252,8148,8309,8151,8305,8237,8175,8191,8150,8177,0.0982928276062011
105,8201,8213,8250,8245,8252,8171,8310,8166,8299,8226,8182,8212,8160,8195,0.1062912940979003
106,8193,8201,8243,8231,8245,8163,8307,8168,8282,8214,8178,8223,8164,8188,0.1145713329315185
107,8178,8187,8246,8242,8261,8145,8307,8144,8280,8230,8168,8205,8146,8185,0.1225728988647461
108,8204,8193,8255,8247,8248,8164,8287,8176,8265,8230,8188,8240,8177,8203,0.1305718421936035
109,8187,8213,8256,8256,8253,8148,8300,8153,8282,8251,8181,8212,8157,8205,0.1385426521301269
110,8201,8215,8264,8264,8277,8160,8323,8172,8303,8265,8193,8224,8169,8219,0.1465442180633545
111,8197,8205,8261,8256,8280,8152,8333,8186,8297,8253,8188,8228,8177,8220,0.1542236804962158
112,8181,8191,8245,8249,8252,8141,8329,8145,8269,8241,8169,8190,8151,8199,0.161217451095581
113,8205,8178,8239,8234,8228,8167,8310,8169,8239,8220,8183,8222,8180,8193,0.1692194938659668
114,8187,8192,8251,8240,8264,8151,8327,8166,8263,8236,8174,8204,8165,8193,0.1772069931030273
115,8202,8211,8261,8256,8285,8164,8325,8184,8273,8258,8185,8216,8170,8205,0.1852419376373291
116,8217,8202,8261,8257,8264,8170,8302,8196,8260,8262,8186,8233,8183,8196,0.1921868324279785
116,8217,8202,8261,8257,8264,8170,8302,8196,8260,8262,8186,8233,8183,8196,0.1935591697692871
117,8204,8191,8269,8255,8257,8158,8309,8168,8278,8268,8168,8206,8161,8187,0.2012176513671875
118,8220,8181,8258,8234,8249,8179,8300,8202,8269,8245,8189,8236,8187,8193,0.2092046737670898
119,8184,8160,8231,8217,8236,8157,8282,8176,8237,8223,8169,8197,8161,8151,0.2161874771118164
120,8181,8151,8229,8212,8215,8165,8265,8162,8221,8209,8153,8192,8149,8124,0.2242109775543213
121,8200,8163,8238,8210,8192,8173,8255,8186,8217,8191,8162,8231,8165,8134,0.2322103977203369
122,8182,8179,8243,8221,8199,8156,8270,8154,8230,8194,8155,8201,8145,8141,0.2402122020721435
123,8199,8179,8249,8222,8212,8180,8271,8168,8235,8198,8167,8231,8172,8156,0.2482099533081054
124,8191,8175,8250,8223,8233,8161,8271,8158,8243,8218,8163,8229,8159,8161,0.2562253475189209
125,8196,8179,8252,8222,8230,8160,8262,8159,8231,8218,8171,8223,8164,8177,0.2642130851745605
126,8202,8174,8255,8209,8202,8170,8246,8191,8214,8193,8179,8240,8195,8178,0.2722063064575195
127,8175,8169,8252,8212,8213,8151,8254,8164,8235,8201,8163,8204,8166,8157,0.2795732021331787
127,8175,8169,8252,8212,8213,8151,8254,8164,8235,8201,8163,8204,8166,8157,0.2805798053741455
241,8199,8176,8254,8220,8219,8172,8251,8189,8238,8200,8183,8239,8184,8166,0.2875819206237793
0,8185,8183,8254,8221,8201,8159,8244,8185,8229,8193,8167,8223,8174,8151,0.2949583530426025
1,8167,8165,8244,8198,8179,8163,8242,8165,8230,8188,8148,8193,8154,8125,0.3029966354370117
1,8167,8165,8244,8198,8179,8163,8242,8165,8230,8188,8148,8193,8154,8125,0.3039867877960205
2,8187,8141,8235,8173,8174,8185,8240,8180,8220,8182,8167,8228,8171,8126,0.3112154006958008
3,8169,8152,8239,8193,8200,8161,8249,8148,8224,8199,8165,8203,8145,8128,0.3194031715393066
4,8181,8162,8244,8203,8198,8171,8231,8182,8211,8183,8176,8222,8171,8135,0.3274018764495849
5,8175,8151,8239,8194,8184,8157,8219,8192,8198,8167,8168,8217,8179,8127,0.3354032039642334
6,8172,8160,8237,8201,8183,8156,8221,8163,8204,8181,8162,8189,8161,8121,0.3432276248931885
7,8193,8174,8231,8194,8185,8180,8223,8184,8209,8185,8172,8217,8179,8120,0.350210428237915
8,8176,8170,8232,8188,8200,8164,8249,8159,8225,8196,8158,8194,8154,8123,0.3581826686859131
9,8195,8165,8237,8190,8188,8179,8236,8176,8203,8175,8173,8214,8175,8143,0.3661916255950928
10,8188,8167,8237,8190,8187,8167,8216,8190,8183,8157,8166,8211,8178,8131,0.3745303153991699
11,8181,8182,8247,8202,8221,8158,8239,8166,8212,8187,8158,8192,8152,8126,0.3835337162017822
12,8211,8189,8252,8209,8219,8182,8251,8185,8216,8189,8181,8232,8175,8147,0.3895337581634521
12,8211,8189,8252,8209,8219,8182,8251,8185,8216,8189,8181,8232,8175,8147,0.3905351161956787
13,8182,8182,8239,8204,8200,8155,8250,8160,8190,8165,8161,8197,8156,8140,0.398045539855957
14,8182,8167,8232,8187,8196,8165,8233,8175,8161,8131,8160,8201,8171,8141,0.4060440063476562
15,8186,8165,8241,8187,8215,8167,8227,8193,8185,8142,8166,8209,8174,8137,0.4130446910858154
16,8176,8181,8251,8212,8227,8157,8244,8164,8223,8190,8159,8183,8143,8122,0.4210467338562011
17,8195,8180,8244,8201,8209,8180,8238,8181,8201,8185,8172,8224,8171,8127,0.4290452003479004
18,8172,8173,8233,8183,8209,8160,8238,8160,8198,8177,8157,8203,8158,8135,0.437044620513916
19,8181,8172,8234,8182,8213,8169,8238,8174,8206,8178,8163,8206,8168,8144,0.4451558589935303
20,8190,8169,8231,8182,8208,8170,8231,8194,8189,8159,8171,8221,8184,8133,0.4531755447387695
21,8169,8162,8232,8180,8200,8152,8229,8160,8185,8154,8156,8191,8157,8123,0.4611768722534179
22,8187,8150,8231,8162,8183,8173,8212,8189,8179,8147,8168,8220,8185,8134,0.4691777229309082
23,8181,8147,8227,8162,8188,8155,8213,8175,8183,8141,8159,8191,8175,8123,0.4770386219024658
24,8197,8147,8232,8171,8174,8163,8207,8170,8180,8133,8172,8173,8174,8123,0.4840750694274902
25,8197,8142,8226,8159,8148,8171,8190,8189,8162,8132,8175,8179,8185,8122,0.4920718669891357
26,8165,8142,8225,8157,8174,8152,8197,8153,8169,8144,8147,8152,8150,8108,0.5002105236053467
27,8189,8142,8234,8156,8189,8176,8200,8178,8170,8134,8163,8197,8173,8118,0.5081970691680908
28,8178,8142,8234,8162,8187,8167,8222,8174,8178,8145,8167,8188,8168,8120,0.5161938667297363
29,8176,8151,8233,8168,8196,8167,8238,8161,8180,8155,8172,8180,8163,8124,0.5244929790496826
30,8188,8156,8230,8155,8194,8174,8221,8181,8164,8138,8171,8205,8181,8120,0.5324928760528564
31,8166,8154,8230,8150,8198,8159,8221,8157,8176,8152,8152,8169,8158,8107,0.5405027866363525
32,8192,8158,8229,8151,8190,8180,8215,8183,8184,8159,8177,8201,8185,8125,0.547217607498169
33,8189,8167,8225,8159,8183,8162,8208,8183,8187,8153,8164,8197,8180,8124,0.5552222728729248
34,8179,8166,8232,8158,8199,8163,8203,8172,8189,8166,8150,8181,8163,8114,0.5632169246673584
35,8196,8162,8237,8146,8203,8187,8192,8188,8179,8176,8172,8214,8178,8108,0.5712156295776367
36,8184,8173,8238,8162,8192,8164,8202,8150,8184,8185,8163,8194,8151,8101,0.5792162418365479
37,8205,8181,8246,8171,8180,8175,8196,8171,8185,8167,8170,8224,8177,8119,0.5872201919555664
38,8192,8174,8247,8163,8198,8167,8198,8172,8196,8164,8169,8216,8175,8115,0.5952508449554443
39,8175,8170,8246,8178,8217,8165,8213,8160,8199,8177,8167,8191,8159,8116,0.6033873558044434
40,8198,8175,8250,8190,8216,8182,8214,8202,8181,8168,8182,8226,8189,8137,0.6110427379608154
41,8176,8174,8250,8181,8231,8161,8221,8175,8191,8178,8166,8188,8164,8123,0.618044376373291
42,8176,8156,8227,8155,8203,8176,8203,8181,8179,8167,8166,8186,8171,8100,0.6262111663818359
43,8164,8144,8203,8143,8162,8170,8188,8186,8157,8141,8157,8180,8170,8074,0.634066104888916
44,8152,8150,8203,8142,8168,8161,8187,8157,8168,8140,8151,8159,8150,8070,0.6421658992767334
45,8175,8144,8207,8129,8168,8178,8162,8189,8159,8137,8167,8195,8178,8078,0.6501901149749756
45,8175,8144,8207,8129,8168,8178,8162,8189,8159,8137,8167,8195,8178,8078,0.6511876583099365
46,8145,8137,8207,8136,8167,8155,8160,8166,8157,8150,8146,8160,8151,8065,0.6582129001617432
47,8151,8142,8210,8139,8161,8173,8172,8163,8161,8152,8156,8171,8155,8077,0.6662118434906006
48,8162,8137,8215,8129,8147,8174,8167,8166,8147,8132,8164,8202,8172,8090,0.6742112636566162
49,8154,8135,8230,8141,8143,8153,8161,8146,8138,8122,8156,8188,8155,8105,0.681236743927002
50,8181,8141,8235,8143,8138,8175,8159,8188,8131,8119,8175,8217,8182,8124,0.6889755725860596
51,8164,8141,8223,8138,8143,8161,8170,8166,8135,8134,8159,8184,8157,8091,0.6970562934875488
51,8164,8141,8223,8138,8143,8161,8170,8166,8135,8134,8159,8184,8157,8091,0.6980531215667725
52,8166,8142,8224,8148,8156,8167,8171,8157,8140,8134,8165,8189,8155,8088,0.7050585746765137
53,8180,8155,8236,8166,8177,8169,8177,8185,8145,8133,8174,8216,8177,8122,0.7130744457244873
54,8163,8168,8239,8175,8187,8149,8193,8171,8153,8155,8160,8181,8164,8126,0.7210917472839355
55,8180,8170,8237,8166,8165,8177,8182,8189,8136,8146,8175,8203,8179,8111,0.7292094230651855
56,8170,8170,8234,8171,8161,8171,8187,8160,8144,8149,8167,8192,8151,8098,0.7372000217437744
57,8165,8162,8222,8166,8163,8168,8186,8159,8152,8158,8169,8199,8157,8114,0.7442021369934082
58,8160,8141,8205,8137,8157,8167,8153,8191,8122,8129,8167,8207,8182,8103,0.752211332321167
59,8139,8141,8206,8142,8154,8151,8142,8158,8111,8117,8145,8158,8148,8071,0.7604830265045166
60,8177,8152,8222,8161,8131,8177,8140,8177,8114,8120,8164,8196,8167,8083,0.7682113647460938
61,8168,8149,8228,8158,8140,8161,8153,8173,8131,8131,8165,8197,8164,8091,0.776301383972168
62,8158,8147,8232,8148,8161,8158,8162,8162,8136,8128,8171,8195,8163,8106,0.784207820892334
63,8181,8150,8238,8156,8136,8173,8144,8184,8109,8113,8180,8224,8188,8115,0.7922086715698242
64,8159,8160,8236,8175,8134,8156,8142,8160,8108,8124,8152,8179,8156,8088,0.7996470928192139
64,8159,8160,8236,8175,8134,8156,8142,8160,8108,8124,8152,8179,8156,8088,0.8006386756896973
65,8172,8171,8231,8164,8145,8175,8148,8184,8116,8124,8163,8201,8171,8086,0.8066463470458984
66,8173,8166,8236,8158,8155,8165,8166,8176,8129,8133,8166,8208,8170,8104,0.815211296081543
66,8173,8166,8236,8158,8155,8165,8166,8176,8129,8133,8166,8208,8170,8104,0.8156509399414062
67,8170,8166,8240,8170,8162,8160,8175,8159,8131,8137,8164,8190,8162,8120,0.8232126235961914
68,8180,8169,8232,8161,8148,8180,8151,8192,8112,8110,8172,8207,8183,8102,0.8312113285064697
69,8148,8153,8218,8148,8136,8161,8143,8159,8116,8117,8151,8169,8148,8066,0.8395624160766602
70,8164,8136,8211,8140,8122,8173,8142,8166,8106,8127,8163,8190,8161,8079,0.8475580215454102
71,8164,8151,8215,8142,8139,8165,8152,8170,8098,8129,8170,8197,8168,8091,0.8552062511444092
72,8150,8167,8224,8155,8166,8157,8151,8162,8110,8138,8167,8182,8160,8088,0.8632113933563232
73,8169,8148,8225,8148,8148,8176,8111,8192,8092,8119,8169,8205,8187,8076,0.8709383010864258
73,8169,8148,8225,8148,8148,8176,8111,8192,8092,8119,8169,8205,8187,8076,0.8719375133514404
74,8156,8146,8225,8151,8129,8160,8107,8156,8086,8125,8150,8167,8149,8058,0.8779463768005371
75,8179,8175,8236,8162,8132,8180,8132,8170,8107,8146,8172,8197,8157,8093,0.8859565258026123
76,8178,8180,8245,8164,8154,8169,8143,8187,8117,8140,8175,8214,8174,8112,0.8937520980834961
77,8154,8163,8241,8164,8166,8153,8130,8159,8097,8119,8155,8174,8150,8086,0.9017043113708496
78,8169,8154,8221,8145,8146,8185,8111,8174,8078,8099,8160,8192,8161,8066,0.9102118015289308
79,8153,8169,8218,8145,8153,8167,8147,8152,8109,8126,8156,8173,8150,8071,0.918210506439209
80,8169,8181,8233,8159,8176,8171,8165,8175,8115,8144,8181,8202,8176,8101,0.926210641860962
81,8174,8173,8231,8158,8182,8169,8144,8195,8097,8134,8181,8208,8176,8085,0.9344303607940674
82,8154,8174,8228,8162,8183,8159,8152,8160,8119,8155,8161,8164,8143,8068,0.9417529106140136
83,8184,8187,8237,8166,8175,8189,8172,8183,8138,8179,8183,8202,8179,8099,0.9487545490264891
84,8171,8188,8234,8168,8189,8169,8183,8163,8146,8184,8176,8186,8165,8103,0.9571750164031982
85,8166,8173,8223,8160,8187,8169,8162,8170,8125,8162,8174,8188,8167,8102,0.9652111530303956
86,8171,8171,8226,8158,8165,8169,8147,8198,8114,8150,8173,8207,8182,8103,0.9732117652893066
87,8157,8185,8238,8177,8177,8156,8162,8166,8151,8163,8157,8176,8152,8090,0.9812119007110596
88,8174,8177,8232,8175,8193,8186,8157,8182,8151,8151,8170,8210,8169,8092,0.9897446632385254
89,8151,8168,8219,8168,8192,8168,8159,8162,8127,8157,8163,8189,8158,8093,0.9971544742584229
90,8158,8177,8224,8170,8187,8168,8159,8165,8113,8168,8171,8182,8166,8103,1.0041656494140625
91,8176,8182,8230,8169,8187,8182,8150,8194,8110,8157,8177,8211,8184,8101,1.0122113227844238
92,8150,8188,8234,8180,8192,8165,8154,8153,8126,8160,8158,8185,8147,8093,1.0202109813690186
93,8172,8183,8232,8177,8178,8178,8148,8173,8117,8152,8181,8210,8167,8107,1.0282347202301023
94,8163,8174,8227,8169,8172,8165,8154,8181,8120,8159,8176,8197,8168,8107,1.036116361618042
95,8159,8173,8235,8171,8178,8179,8154,8175,8146,8162,8169,8193,8164,8105,1.0441100597381592
96,8178,8176,8240,8177,8178,8194,8137,8184,8149,8147,8181,8210,8174,8102,1.0521116256713867
97,8159,8180,8236,8184,8191,8169,8141,8144,8146,8173,8168,8160,8141,8093,1.060211420059204
98,8172,8170,8231,8167,8181,8185,8130,8165,8117,8173,8176,8178,8166,8105,1.068228244781494
99,8160,8161,8225,8159,8174,8169,8115,8172,8100,8155,8169,8180,8170,8108,1.0752294063568115
100,8154,8162,8223,8168,8177,8169,8117,8171,8117,8157,8167,8173,8164,8104,1.0832114219665527
101,8168,8151,8210,8153,8158,8191,8110,8191,8113,8138,8167,8188,8172,8083,1.0911622047424316
102,8140,8143,8199,8148,8171,8164,8116,8148,8115,8138,8147,8148,8137,8062,1.0986976623535156
103,8158,8152,8206,8157,8179,8177,8114,8166,8115,8146,8169,8182,8172,8091,1.107691764831543
104,8163,8165,8218,8162,8167,8175,8122,8172,8113,8146,8170,8182,8182,8100,1.115211009979248
105,8164,8178,8230,8176,8200,8167,8139,8154,8124,8156,8170,8161,8160,8109,1.1232118606567385
106,8197,8188,8240,8191,8228,8184,8129,8196,8124,8175,8190,8207,8187,8132,1.131211519241333
107,8172,8191,8241,8199,8196,8162,8143,8172,8125,8212,8171,8176,8163,8117,1.1382105350494385
108,8178,8185,8241,8192,8160,8185,8156,8171,8127,8213,8182,8181,8164,8124,1.145719051361084
109,8186,8181,8248,8191,8194,8189,8148,8172,8141,8188,8186,8194,8165,8134,1.153719425201416
109,8186,8181,8248,8191,8194,8189,8148,8172,8141,8188,8186,8194,8165,8134,1.154714584350586
110,8169,8178,8243,8197,8226,8170,8145,8154,8152,8174,8176,8177,8153,8126,1.162212371826172
110,8169,8178,8243,8197,8226,8170,8145,8154,8152,8174,8176,8177,8153,8126,1.162724494934082
111,8184,8167,8230,8182,8200,8182,8145,8197,8139,8175,8193,8199,8186,8121,1.1704659461975098
112,8168,8167,8224,8179,8206,8165,8159,8181,8154,8206,8180,8164,8159,8107,1.178452730178833
113,8174,8175,8221,8180,8223,8186,8149,8172,8143,8203,8175,8181,8159,8104,1.18652081489563
114,8172,8166,8218,8174,8217,8183,8138,8173,8117,8187,8177,8197,8171,8101,1.193528175354004
115,8154,8164,8230,8184,8206,8155,8149,8154,8155,8204,8181,8159,8147,8109,1.201211929321289
116,8181,8171,8234,8185,8192,8188,8120,8198,8154,8181,8197,8195,8179,8112,1.2091248035430908
117,8158,8171,8218,8181,8205,8177,8109,8173,8127,8153,8163,8172,8161,8076,1.2171244621276855
118,8163,8166,8219,8182,8191,8177,8129,8153,8136,8154,8164,8175,8154,8085,1.225191354751587
119,8184,8158,8222,8176,8185,8186,8120,8177,8131,8151,8184,8210,8176,8110,1.2332267761230469
120,8152,8163,8218,8187,8238,8162,8115,8157,8126,8171,8162,8163,8152,8107,1.2412223815917969
121,8173,8172,8228,8197,8219,8188,8119,8188,8125,8174,8175,8187,8179,8109,1.2494268417358398
122,8167,8158,8220,8183,8156,8181,8118,8179,8132,8161,8176,8186,8171,8089,1.2574355602264404
123,8140,8140,8196,8164,8172,8167,8102,8153,8138,8159,8162,8156,8143,8078,1.2644352912902832
124,8158,8146,8206,8165,8199,8181,8100,8185,8135,8165,8178,8192,8176,8104,1.272212028503418
125,8153,8161,8219,8178,8171,8161,8117,8167,8133,8179,8180,8186,8171,8110,1.2801978588104248
126,8158,8139,8202,8152,8144,8167,8070,8168,8089,8129,8178,8180,8170,8077,1.2882061004638672
127,8145,8130,8201,8146,8170,8159,8044,8158,8076,8106,8160,8162,8153,8052,1.2962117195129397
241,8150,8163,8212,8176,8190,8160,8096,8155,8112,8162,8162,8172,8148,8087,1.3042113780975342
0,8179,8168,8209,8169,8182,8180,8107,8191,8105,8161,8182,8219,8185,8111,1.3124806880950928
1,8144,8152,8209,8162,8207,8155,8088,8166,8095,8134,8166,8182,8165,8088,1.320481777191162
2,8152,8161,8217,8173,8191,8176,8096,8183,8116,8140,8180,8192,8170,8096,1.3282105922698977
3,8151,8168,8213,8166,8155,8174,8116,8183,8142,8155,8184,8200,8171,8098,1.3352117538452148
4,8128,8155,8203,8153,8187,8151,8112,8146,8134,8143,8168,8172,8156,8088,1.343524694442749
5,8146,8134,8195,8146,8188,8174,8080,8178,8091,8102,8175,8192,8188,8089,1.3512959480285645
6,8109,8128,8177,8141,8163,8158,8077,8165,8078,8093,8153,8148,8160,8063,1.3585615158081057
6,8109,8128,8177,8141,8163,8158,8077,8165,8078,8093,8153,8148,8160,8063,1.3595516681671145
7,8119,8126,8174,8128,8157,8169,8071,8167,8073,8094,8160,8153,8159,8053,1.367551326751709
8,8144,8129,8189,8128,8154,8174,8070,8167,8088,8110,8170,8174,8168,8060,1.375213384628296
9,8127,8143,8191,8148,8164,8158,8098,8142,8132,8143,8164,8149,8151,8081,1.3830626010894775
10,8149,8146,8193,8151,8179,8174,8091,8179,8121,8128,8178,8184,8185,8101,1.3910624980926514
11,8134,8148,8194,8158,8213,8150,8089,8169,8124,8126,8157,8164,8161,8083,1.3990728855133057
12,8151,8171,8207,8180,8219,8172,8114,8178,8162,8150,8169,8177,8161,8098,1.4060821533203125
13,8170,8195,8224,8202,8190,8179,8134,8183,8175,8165,8187,8198,8176,8125,1.413586139678955
13,8170,8195,8224,8202,8190,8179,8134,8183,8175,8165,8187,8198,8176,8125,1.414576530456543
14,8151,8195,8220,8213,8199,8150,8143,8159,8179,8178,8169,8165,8152,8135,1.421583890914917
14,8151,8195,8220,8213,8199,8150,8143,8159,8179,8178,8169,8165,8152,8135,1.422576904296875
15,8183,8185,8218,8201,8239,8175,8134,8207,8181,8172,8181,8205,8185,8144,1.430211067199707
16,8166,8189,8212,8201,8264,8162,8151,8176,8202,8191,8166,8174,8161,8123,1.4382104873657229
17,8164,8189,8197,8200,8227,8181,8153,8156,8199,8202,8165,8165,8156,8120,1.4462757110595703
18,8174,8171,8186,8181,8196,8183,8132,8180,8170,8169,8172,8190,8177,8120,1.4544084072113037
19,8144,8160,8183,8184,8223,8143,8133,8158,8168,8152,8154,8144,8150,8104,1.4624090194702148
20,8176,8162,8191,8197,8208,8177,8119,8193,8164,8148,8172,8181,8181,8101,1.469207763671875
21,8164,8173,8190,8202,8190,8177,8131,8174,8190,8181,8172,8181,8158,8098,1.479509353637695
22,8172,8192,8195,8207,8203,8178,8155,8162,8224,8201,8186,8186,8149,8131,1.4845123291015625
22,8172,8192,8195,8207,8203,8178,8155,8162,8224,8201,8186,8186,8149,8131,1.4855139255523682
23,8200,8194,8203,8212,8211,8177,8153,8192,8214,8179,8197,8212,8187,8156,1.4925143718719482
23,8200,8194,8203,8212,8211,8177,8153,8192,8214,8179,8197,8212,8187,8156,1.4935147762298584
24,8162,8182,8191,8214,8222,8149,8148,8164,8201,8174,8170,8159,8160,8136,1.5010247230529783
25,8179,8181,8186,8201,8207,8186,8113,8183,8175,8155,8183,8185,8170,8114,1.5090248584747314
26,8165,8184,8186,8199,8185,8171,8114,8164,8175,8157,8177,8175,8153,8100,1.5170259475708008
27,8157,8176,8177,8202,8180,8164,8142,8158,8176,8168,8180,8168,8154,8123,1.52502703666687
28,8175,8168,8170,8186,8175,8182,8126,8197,8153,8155,8192,8212,8187,8128,1.5330264568328855
29,8140,8179,8168,8193,8178,8157,8110,8160,8178,8171,8163,8170,8147,8096,1.540024757385254
30,8171,8192,8180,8211,8166,8180,8101,8170,8189,8168,8182,8193,8165,8100,1.5484538078308103
31,8175,8199,8193,8221,8168,8165,8122,8161,8187,8174,8191,8198,8166,8120,1.55646014213562
32,8159,8196,8191,8222,8163,8161,8129,8150,8179,8197,8188,8188,8151,8137,1.5642127990722656
33,8171,8166,8177,8199,8136,8185,8086,8180,8134,8169,8187,8216,8171,8123,1.5722105503082275
34,8138,8158,8169,8194,8151,8154,8093,8144,8131,8163,8168,8175,8143,8104,1.5803329944610596
35,8175,8186,8194,8214,8160,8179,8118,8177,8149,8175,8199,8220,8176,8148,1.5883326530456543
36,8174,8190,8201,8228,8158,8168,8122,8185,8156,8166,8192,8229,8174,8156,1.5950360298156738
37,8142,8171,8182,8221,8154,8152,8112,8148,8152,8153,8170,8190,8148,8129,1.6034317016601562
38,8160,8155,8172,8196,8126,8172,8086,8170,8117,8145,8184,8223,8185,8124,1.611433982849121
39,8132,8152,8164,8191,8133,8145,8090,8144,8119,8166,8160,8181,8156,8114,1.6194329261779783
40,8156,8151,8164,8186,8130,8172,8092,8172,8133,8157,8171,8201,8169,8124,1.6274316310882568
41,8157,8155,8164,8182,8122,8170,8100,8184,8137,8149,8179,8213,8177,8124,1.6351914405822754
42,8132,8170,8161,8193,8150,8155,8108,8157,8140,8161,8166,8174,8151,8112,1.643222093582153
43,8161,8169,8164,8188,8154,8184,8086,8190,8127,8143,8177,8212,8180,8107,1.6512110233306885
44,8134,8158,8157,8178,8137,8154,8084,8146,8136,8151,8156,8178,8142,8088,1.6592001914978027
45,8149,8152,8158,8169,8121,8168,8078,8141,8128,8157,8169,8187,8151,8102,1.6661956310272217
46,8160,8155,8165,8174,8138,8170,8079,8164,8117,8157,8176,8207,8176,8120,1.6742122173309326
47,8145,8171,8172,8199,8161,8155,8108,8150,8141,8177,8166,8182,8155,8130,1.6822121143341064
48,8188,8178,8180,8200,8140,8183,8107,8185,8138,8164,8190,8228,8186,8149,1.6899471282958984
49,8170,8182,8177,8204,8155,8152,8116,8159,8155,8184,8175,8197,8162,8146,1.6980276107788086
50,8176,8183,8179,8212,8190,8167,8118,8171,8175,8202,8185,8202,8169,8155,1.7062113285064695
51,8180,8173,8174,8202,8186,8178,8099,8196,8171,8168,8186,8211,8175,8138,1.7142114639282229
52,8148,8168,8162,8199,8176,8153,8100,8143,8171,8162,8153,8155,8131,8103,1.7222106456756592
53,8173,8159,8157,8184,8145,8184,8086,8165,8145,8158,8167,8196,8168,8110,1.7295734882354736
54,8147,8154,8151,8167,8142,8163,8092,8157,8144,8159,8165,8182,8156,8119,1.7366209030151367
54,8147,8154,8151,8167,8142,8163,8092,8157,8144,8159,8165,8182,8156,8119,1.737614631652832
55,8152,8159,8156,8167,8169,8167,8099,8162,8152,8162,8173,8180,8159,8133,1.745614767074585
56,8166,8159,8153,8164,8164,8173,8090,8191,8141,8154,8175,8198,8187,8125,1.7536206245422363
57,8130,8161,8145,8167,8148,8145,8092,8154,8147,8155,8149,8147,8149,8102,1.7612111568450928
58,8160,8156,8150,8163,8147,8181,8075,8178,8136,8136,8166,8171,8164,8093,1.7692110538482666
59,8149,8154,8146,8167,8183,8168,8100,8168,8159,8167,8159,8156,8153,8084,1.7771692276000977
60,8144,8162,8151,8180,8179,8163,8129,8167,8192,8192,8168,8155,8159,8112,1.7852115631103516
61,8152,8161,8152,8172,8129,8175,8109,8200,8173,8149,8178,8173,8182,8111,1.79215669631958
62,8120,8156,8144,8174,8143,8151,8110,8158,8181,8151,8145,8125,8135,8077,1.8002433776855469
63,8166,8164,8152,8183,8177,8187,8127,8183,8212,8182,8163,8185,8162,8099,1.8082115650177
64,8161,8178,8152,8188,8190,8169,8151,8173,8223,8201,8163,8186,8167,8116,1.8162922859191892
65,8133,8166,8139,8171,8169,8153,8126,8145,8179,8162,8152,8145,8157,8105,1.824211597442627
66,8139,8133,8123,8133,8126,8173,8061,8182,8118,8096,8152,8156,8177,8072,1.832707405090332
67,8114,8142,8126,8142,8133,8151,8073,8153,8146,8128,8138,8122,8134,8056,1.8407073020935056
68,8156,8172,8156,8169,8142,8181,8108,8170,8181,8173,8171,8172,8165,8106,1.8482108116149905
69,8152,8170,8160,8167,8157,8165,8117,8175,8180,8168,8172,8172,8178,8119,1.8562114238739011
70,8135,8164,8154,8164,8181,8150,8115,8160,8166,8152,8162,8140,8160,8106,1.863211154937744
71,8167,8159,8152,8159,8157,8184,8097,8195,8142,8139,8171,8167,8175,8098,1.8712687492370603
72,8140,8157,8149,8166,8146,8153,8111,8152,8167,8167,8153,8138,8136,8092,1.8792986869812007
73,8162,8159,8157,8173,8156,8166,8119,8169,8169,8168,8175,8176,8167,8123,1.8871750831604004
74,8158,8161,8156,8174,8172,8159,8124,8186,8151,8161,8171,8170,8177,8126,1.895063877105713
75,8133,8172,8155,8186,8179,8147,8138,8155,8183,8196,8152,8138,8136,8104,1.90307879447937
76,8162,8170,8150,8177,8152,8187,8122,8183,8194,8199,8164,8170,8162,8097,1.911205530166626
77,8138,8160,8142,8169,8164,8156,8135,8154,8187,8197,8153,8134,8150,8104,1.9192111492156985
78,8163,8162,8157,8172,8181,8163,8135,8167,8169,8185,8170,8164,8173,8130,1.9258456230163572
79,8167,8173,8161,8176,8166,8168,8117,8181,8166,8175,8164,8175,8170,8118,1.933842658996582
80,8147,8188,8166,8195,8165,8158,8140,8151,8194,8203,8156,8152,8143,8116,1.942210912704468
81,8189,8194,8181,8203,8173,8186,8153,8193,8192,8209,8185,8201,8187,8146,1.9502108097076416
82,8162,8185,8176,8192,8194,8150,8144,8169,8181,8202,8172,8160,8159,8143,1.9582109451293943
83,8168,8168,8171,8179,8184,8161,8106,8167,8155,8173,8174,8158,8159,8134,1.9662327766418457
84,8180,8170,8171,8179,8163,8171,8099,8185,8152,8169,8162,8164,8166,8119,1.9742331504821775
85,8162,8196,8185,8205,8176,8152,8150,8152,8207,8226,8159,8141,8141,8132,1.982219219207764
86,8202,8200,8189,8213,8180,8185,8160,8190,8201,8229,8193,8191,8182,8171,1.9900896549224851
87,8174,8180,8169,8201,8192,8151,8154,8175,8168,8201,8167,8160,8164,8154,1.99711012840271
88,8163,8165,8163,8178,8180,8157,8140,8174,8158,8178,8160,8153,8158,8125,2.005211591720581
89,8170,8162,8156,8157,8149,8179,8130,8188,8158,8169,8161,8157,8159,8109,2.0132105350494385
90,8149,8185,8157,8175,8172,8156,8168,8145,8179,8196,8153,8130,8133,8122,2.0212316513061523
91,8182,8193,8173,8180,8180,8179,8171,8184,8164,8184,8176,8177,8182,8152,2.029231071472168
92,8156,8164,8169,8167,8171,8147,8156,8174,8159,8174,8162,8141,8168,8135,2.037174940109253
93,8160,8166,8175,8181,8171,8150,8157,8164,8195,8197,8171,8139,8157,8142,2.045156955718994
94,8195,8198,8191,8200,8174,8177,8163,8190,8221,8222,8183,8178,8169,8160,2.0520336627960205
95,8159,8200,8185,8209,8199,8150,8181,8147,8227,8240,8169,8149,8138,8156,2.06020450592041
96,8175,8177,8168,8195,8200,8172,8154,8171,8191,8192,8186,8178,8174,8157,2.0682175159454346
97,8156,8178,8158,8185,8181,8151,8135,8176,8185,8166,8168,8156,8163,8140,2.0762181282043457
98,8143,8194,8165,8189,8157,8154,8142,8164,8207,8202,8163,8152,8147,8138,2.0842108726501465
99,8161,8183,8162,8180,8141,8180,8137,8179,8197,8209,8169,8179,8165,8135,2.0917537212371826
100,8130,8185,8155,8180,8172,8139,8151,8141,8207,8216,8160,8143,8143,8133,2.1002745628356934
101,8156,8197,8163,8181,8170,8154,8138,8175,8194,8205,8182,8181,8175,8150,2.107284545898437
102,8145,8189,8166,8184,8156,8148,8126,8176,8178,8193,8171,8168,8165,8136,2.115212202072144
103,8134,8173,8170,8187,8163,8150,8124,8149,8178,8180,8168,8153,8155,8128,2.123239755630493
104,8172,8164,8175,8174,8144,8172,8106,8177,8154,8162,8182,8190,8180,8136,2.1312389373779297
105,8149,8178,8181,8185,8155,8135,8135,8141,8171,8205,8172,8164,8141,8142,2.13921332359314
106,8166,8177,8178,8183,8177,8157,8148,8156,8172,8211,8187,8191,8168,8164,2.147178649902344
107,8155,8161,8161,8169,8187,8150,8130,8167,8152,8174,8174,8179,8178,8156,2.155216217041016
108,8138,8168,8164,8183,8169,8143,8120,8152,8164,8175,8169,8154,8151,8139,2.1632022857666016
109,8169,8170,8170,8173,8110,8179,8099,8183,8159,8176,8176,8193,8161,8124,2.1712145805358887
110,8132,8153,8149,8150,8109,8148,8109,8147,8157,8180,8152,8162,8138,8109,2.178218364715576
111,8140,8130,8136,8133,8130,8160,8099,8166,8131,8143,8164,8164,8169,8116,2.1862142086029053
112,8145,8131,8137,8131,8112,8160,8077,8183,8113,8117,8158,8156,8173,8092,2.194213628768921
113,8135,8154,8150,8157,8097,8152,8084,8150,8138,8157,8152,8149,8148,8083,2.2021756172180176
114,8177,8159,8165,8159,8102,8181,8087,8183,8139,8170,8178,8201,8181,8115,2.2101759910583496
115,8148,8150,8159,8148,8131,8150,8101,8171,8143,8166,8170,8163,8168,8120,2.218190193176269
116,8146,8143,8149,8139,8123,8171,8080,8187,8130,8147,8171,8158,8179,8103,2.226207971572876
117,8153,8138,8144,8132,8104,8182,8063,8190,8116,8131,8163,8170,8173,8077,2.2342429161071777
118,8141,8150,8154,8149,8123,8162,8101,8151,8140,8148,8161,8156,8155,8089,2.242242813110352
119,8168,8158,8169,8153,8118,8185,8112,8203,8129,8134,8183,8187,8199,8113,2.249216318130493
120,8140,8154,8171,8142,8115,8153,8104,8193,8119,8132,8162,8155,8174,8092,2.257179975509644
121,8167,8162,8181,8145,8123,8172,8101,8185,8130,8154,8169,8170,8171,8093,2.265618324279785
122,8198,8179,8188,8160,8134,8198,8119,8206,8151,8174,8191,8200,8201,8115,2.2734580039978027
123,8168,8182,8189,8166,8144,8174,8125,8179,8157,8166,8183,8179,8188,8124,2.2814722061157227
124,8191,8165,8192,8143,8110,8195,8073,8213,8111,8109,8183,8213,8204,8114,2.2892119884490967
125,8177,8167,8195,8144,8105,8170,8082,8194,8127,8135,8172,8189,8178,8101,2.2969648838043213
126,8191,8195,8214,8175,8120,8178,8123,8182,8176,8190,8187,8195,8182,8136,2.304971933364868
127,8201,8199,8216,8179,8121,8184,8105,8201,8156,8153,8186,8218,8196,8142,2.31321120262146
241,8150,8180,8196,8171,8121,8145,8083,8159,8129,8121,8157,8164,8153,8094,2.3202109336853027
0,8176,8163,8186,8160,8093,8183,8068,8174,8120,8120,8173,8175,8170,8079,2.328210592269897
1,8163,8170,8180,8159,8113,8169,8086,8161,8136,8132,8176,8169,8158,8089,2.336217164993286
2,8151,8183,8183,8167,8159,8155,8097,8156,8135,8125,8175,8157,8152,8102,2.344204902648926
3,8180,8178,8190,8170,8135,8174,8072,8188,8108,8096,8178,8168,8179,8091,2.352221727371216
4,8153,8181,8192,8189,8104,8153,8078,8143,8123,8110,8167,8138,8142,8074,2.360218048095703
5,8172,8186,8195,8183,8102,8178,8073,8158,8123,8113,8183,8164,8152,8097,2.368210554122925
6,8171,8176,8191,8165,8118,8161,8070,8165,8112,8109,8180,8158,8161,8111,2.376211643218994
7,8172,8173,8202,8176,8104,8158,8072,8156,8115,8116,8181,8142,8155,8110,2.3832693099975586
8,8196,8177,8211,8176,8065,8189,8053,8187,8107,8122,8193,8173,8170,8097,2.39119291305542
9,8160,8175,8204,8180,8093,8159,8069,8143,8122,8148,8175,8145,8140,8082,2.399188041687012
10,8188,8174,8206,8184,8118,8180,8073,8158,8109,8132,8183,8165,8165,8105,2.407174825668335
11,8192,8170,8204,8177,8102,8176,8060,8181,8092,8115,8185,8169,8176,8106,2.4152841567993164
12,8156,8162,8188,8177,8101,8160,8061,8158,8119,8127,8172,8135,8149,8073,2.423545360565185
13,8178,8158,8181,8168,8098,8185,8056,8182,8125,8107,8178,8160,8167,8066,2.4315574169158936
14,8163,8179,8190,8173,8107,8162,8075,8152,8134,8120,8174,8145,8147,8087,2.4385616779327397
14,8163,8179,8190,8173,8107,8162,8075,8152,8134,8120,8174,8145,8147,8087,2.439577102661133
15,8179,8197,8200,8191,8112,8183,8080,8165,8136,8136,8190,8163,8160,8108,2.447622060775757
16,8175,8179,8186,8181,8109,8178,8064,8181,8124,8114,8181,8170,8167,8083,2.4546303749084477
17,8147,8160,8173,8160,8079,8156,8045,8141,8105,8101,8161,8131,8144,8056,2.4622068405151367
18,8178,8160,8179,8156,8028,8194,8013,8171,8079,8096,8180,8165,8174,8061,2.470219850540161
19,8163,8181,8191,8181,8067,8167,8033,8161,8102,8130,8178,8163,8157,8074,2.478217363357544
20,8178,8181,8202,8187,8114,8176,8041,8167,8102,8127,8184,8170,8157,8098,2.4861528873443604
21,8185,8154,8193,8163,8081,8183,8008,8188,8069,8077,8186,8181,8174,8083,2.4941468238830566
22,8157,8163,8191,8176,8058,8161,8014,8146,8086,8090,8169,8147,8143,8061,2.5022103786468506
23,8189,8173,8198,8179,8056,8198,8029,8172,8093,8105,8184,8176,8168,8075,2.5102651119232178
24,8163,8156,8184,8158,8073,8166,8043,8162,8096,8090,8173,8159,8158,8072,2.5172688961029053
25,8157,8149,8179,8144,8082,8156,8033,8155,8095,8070,8160,8145,8144,8059,2.5253164768218994
26,8179,8159,8187,8141,8053,8189,8010,8188,8094,8068,8168,8168,8168,8049,2.533143997192383
27,8156,8166,8192,8156,8044,8174,8022,8158,8127,8101,8166,8145,8153,8052,2.5411577224731445
28,8186,8155,8189,8153,8052,8196,8010,8181,8113,8098,8184,8181,8180,8077,2.549210786819458
29,8171,8152,8185,8146,8070,8180,8008,8180,8086,8095,8181,8177,8177,8080,2.5571744441986084
30,8168,8165,8193,8154,8077,8180,8028,8173,8091,8098,8176,8159,8168,8081,2.565199136734009
31,8201,8179,8204,8151,8052,8199,8025,8200,8088,8080,8189,8196,8195,8084,2.57319450378418
32,8173,8187,8207,8157,8058,8172,8037,8157,8096,8099,8180,8173,8167,8084,2.5801944732666016
33,8189,8174,8206,8155,8066,8197,8029,8180,8086,8103,8188,8187,8181,8101,2.588198661804199
33,8189,8174,8206,8155,8066,8197,8029,8180,8086,8103,8188,8187,8181,8101,2.5884833335876465
34,8177,8170,8204,8156,8068,8179,8016,8193,8091,8109,8188,8190,8179,8096,2.595993757247925
35,8169,8192,8215,8172,8071,8184,8013,8176,8114,8122,8182,8181,8160,8084,2.6040000915527344
36,8198,8196,8217,8173,8058,8217,8009,8197,8103,8108,8184,8213,8180,8089,2.611997365951538
37,8167,8188,8203,8178,8059,8178,8032,8164,8100,8118,8171,8193,8162,8097,2.6199967861175537
38,8182,8186,8204,8170,8048,8193,8029,8186,8085,8105,8189,8213,8187,8110,2.627998352050781
39,8166,8179,8196,8149,8047,8182,8016,8184,8065,8081,8180,8210,8183,8091,2.6357595920562744
40,8136,8159,8176,8137,8053,8168,8012,8152,8046,8073,8158,8172,8154,8068,2.6427597999572754
41,8148,8139,8163,8117,8031,8187,7978,8187,8009,8039,8175,8192,8187,8055,2.6507606506347656
42,8116,8134,8156,8108,8023,8159,7961,8157,8018,8030,8162,8160,8163,8037,2.6587579250335693
43,8141,8146,8159,8110,8016,8182,7957,8167,8029,8040,8163,8174,8168,8047,2.6667611598968506
44,8146,8165,8170,8127,8036,8170,7977,8190,8051,8078,8176,8197,8187,8063,2.6752126216888428
45,8121,8168,8182,8144,8055,8158,8004,8171,8096,8106,8176,8166,8165,8063,2.682710647583008
46,8143,8154,8171,8124,8036,8191,7998,8197,8091,8070,8182,8181,8176,8052,2.6907079219818115
47,8122,8165,8161,8132,8071,8163,8023,8173,8093,8075,8164,8156,8151,8044,2.698718309402466
47,8122,8165,8161,8132,8071,8163,8023,8173,8093,8075,8164,8156,8151,8044,2.699720859527588
48,8144,8184,8180,8159,8101,8189,8047,8186,8103,8096,8171,8168,8163,8067,2.7071750164031982
49,8146,8177,8182,8156,8087,8183,8053,8191,8092,8088,8173,8182,8173,8068,2.713736057281494
50,8123,8170,8170,8149,8086,8152,8044,8150,8078,8087,8156,8148,8143,8045,2.7217962741851807
51,8157,8171,8180,8144,8073,8184,8018,8181,8051,8069,8171,8185,8173,8050,2.7297909259796143
52,8135,8190,8198,8161,8088,8165,8042,8158,8078,8094,8167,8180,8161,8070,2.738210439682007
52,8135,8190,8198,8161,8088,8165,8042,8158,8078,8094,8167,8180,8161,8070,2.7387964725494385
53,8147,8205,8195,8167,8107,8171,8053,8158,8107,8121,8176,8181,8163,8096,2.746811628341675
54,8151,8183,8169,8141,8097,8168,8033,8185,8105,8106,8182,8187,8176,8090,2.75421142578125
55,8121,8171,8170,8135,8081,8154,8052,8167,8133,8111,8167,8158,8151,8075,2.7622318267822266
56,8154,8186,8184,8142,8056,8193,8067,8203,8148,8115,8176,8190,8173,8078,2.7702345848083496
56,8154,8186,8184,8142,8056,8193,8067,8203,8148,8115,8176,8190,8173,8078,2.770684003829956
57,8131,8192,8170,8144,8085,8165,8085,8172,8155,8127,8168,8166,8155,8066,2.778212308883667
58,8134,8173,8168,8137,8119,8167,8094,8162,8142,8120,8176,8169,8162,8082,2.785249948501587
59,8154,8153,8174,8126,8099,8179,8076,8197,8111,8092,8181,8201,8185,8088,2.793248653411865
60,8118,8148,8160,8123,8075,8161,8049,8153,8086,8077,8154,8151,8144,8037,2.80121111869812
61,8131,8134,8139,8105,8043,8194,7995,8151,8023,8040,8155,8162,8155,7999,2.809236764907837
62,8118,8137,8138,8106,8043,8174,7995,8142,8000,8052,8152,8160,8160,8007,2.817176103591919
63,8129,8159,8158,8126,8070,8177,8024,8163,8034,8085,8163,8164,8173,8040,2.825211763381958
64,8151,8160,8166,8121,8074,8192,8026,8207,8071,8079,8180,8196,8193,8043,2.8332109451293945
65,8124,8169,8171,8135,8067,8168,8043,8162,8117,8102,8165,8164,8154,8030,2.841187000274658
66,8161,8182,8186,8146,8068,8198,8055,8186,8118,8116,8178,8193,8182,8060,2.8481879234313965
67,8153,8181,8187,8143,8103,8175,8078,8195,8118,8122,8181,8196,8192,8082,2.856220960617065
68,8145,8190,8189,8159,8119,8168,8096,8180,8134,8128,8181,8180,8174,8088,2.8642117977142334
69,8168,8208,8192,8172,8106,8193,8086,8196,8126,8120,8189,8207,8181,8078,2.8721463680267334
70,8129,8200,8177,8165,8130,8163,8092,8142,8125,8137,8163,8165,8142,8060,2.8802177906036377
71,8142,8172,8170,8142,8143,8182,8081,8160,8107,8146,8173,8178,8170,8087,2.8882267475128174
72,8140,8183,8184,8159,8149,8167,8078,8176,8104,8158,8183,8190,8185,8104,2.896211862564087
73,8128,8221,8191,8203,8166,8159,8091,8145,8120,8165,8173,8165,8148,8089,2.904207706451416
74,8141,8225,8174,8194,8163,8180,8089,8158,8109,8144,8181,8186,8156,8083,2.9111990928649902
75,8108,8210,8165,8174,8176,8142,8122,8139,8130,8167,8175,8160,8143,8099,2.919290781021118
76,8131,8202,8170,8176,8186,8155,8132,8175,8144,8169,8181,8175,8167,8113,2.926805257797241
77,8122,8197,8158,8175,8188,8144,8123,8178,8152,8150,8167,8166,8160,8081,2.935210943222046
78,8106,8206,8165,8186,8199,8133,8163,8134,8193,8185,8160,8144,8128,8086,2.943211078643799
79,8157,8222,8184,8202,8197,8163,8186,8172,8198,8213,8192,8203,8169,8140,2.9508185386657715
79,8157,8222,8184,8202,8197,8163,8186,8172,8198,8213,8192,8203,8169,8140,2.9518163204193115
80,8129,8219,8170,8205,8211,8121,8173,8153,8178,8214,8179,8172,8152,8142,2.9592103958129883
81,8136,8210,8168,8201,8204,8139,8146,8152,8165,8208,8176,8165,8149,8126,2.967174530029297
82,8155,8216,8189,8216,8201,8165,8166,8156,8192,8236,8185,8193,8151,8141,2.9742112159729004
83,8125,8220,8190,8231,8228,8146,8203,8125,8225,8268,8180,8170,8127,8174,2.9826252460479736
84,8140,8205,8177,8210,8219,8156,8175,8169,8201,8246,8192,8196,8166,8171,2.989623546600342
85,8123,8198,8170,8206,8225,8132,8172,8153,8195,8263,8177,8174,8146,8131,2.998211145401001
86,8133,8191,8166,8208,8244,8153,8188,8138,8193,8270,8175,8170,8136,8132,3.006211280822754
87,8137,8165,8153,8180,8232,8155,8173,8149,8172,8215,8166,8182,8161,8134,3.0142321586608887
88,8100,8149,8140,8160,8207,8123,8153,8126,8171,8195,8146,8136,8140,8098,3.022230863571167
89,8132,8148,8138,8150,8169,8161,8128,8165,8162,8195,8166,8158,8153,8080,3.030210494995117
90,8128,8147,8137,8154,8169,8153,8150,8145,8177,8209,8160,8157,8138,8084,3.037174701690674
91,8129,8137,8139,8142,8178,8157,8169,8139,8176,8208,8162,8164,8148,8106,3.0452890396118164
92,8146,8128,8143,8118,8170,8156,8162,8184,8161,8195,8178,8190,8179,8115,3.0534048080444336
93,8132,8137,8151,8133,8196,8132,8179,8171,8201,8228,8169,8157,8153,8113,3.0606069564819336
94,8177,8144,8165,8147,8190,8183,8171,8198,8229,8241,8187,8194,8176,8129,3.0686049461364746
94,8177,8144,8165,8147,8190,8183,8171,8198,8229,8241,8187,8194,8176,8129,3.0696051120758057
95,8158,8146,8168,8147,8171,8174,8161,8169,8234,8248,8179,8187,8162,8120,3.0767624378204346
96,8136,8148,8166,8147,8205,8165,8151,8146,8221,8244,8169,8169,8153,8113,3.0847809314727783
97,8157,8137,8157,8124,8229,8182,8133,8194,8195,8207,8176,8195,8187,8103,3.0927727222442627
98,8128,8138,8135,8109,8203,8159,8143,8170,8206,8210,8153,8150,8152,8058,3.1012110710144043
99,8143,8138,8124,8098,8153,8187,8134,8178,8189,8203,8152,8164,8160,8036,3.108205795288086
100,8127,8123,8114,8077,8149,8168,8128,8163,8152,8171,8139,8160,8159,8029,3.116211414337158
101,8116,8117,8109,8061,8163,8154,8135,8151,8130,8136,8138,8137,8151,8033,3.1241931915283203
102,8146,8124,8123,8055,8138,8179,8129,8193,8112,8114,8160,8168,8181,8033,3.1321988105773926
103,8122,8137,8135,8078,8132,8157,8142,8165,8146,8148,8148,8148,8153,8029,3.140700101852417
104,8147,8142,8143,8098,8138,8180,8127,8177,8175,8170,8159,8179,8166,8052,3.148211479187012
105,8142,8143,8149,8097,8147,8171,8116,8169,8175,8191,8161,8180,8164,8061,3.1561920642852783
106,8123,8152,8154,8096,8157,8161,8142,8143,8178,8220,8162,8149,8147,8077,3.1642746925354004
107,8147,8153,8144,8089,8173,8182,8141,8190,8168,8185,8173,8182,8178,8088,3.171261787414551
108,8109,8150,8122,8093,8198,8156,8147,8171,8179,8164,8146,8142,8141,8049,3.179271697998047
109,8109,8134,8110,8077,8160,8183,8159,8170,8171,8159,8142,8139,8140,8022,3.1871767044067383
110,8102,8113,8097,8050,8138,8174,8180,8168,8166,8148,8141,8142,8157,8016,3.195590019226074
111,8089,8119,8091,8059,8167,8142,8194,8153,8191,8150,8136,8113,8144,8024,3.203211069107056
112,8119,8120,8092,8059,8141,8165,8164,8193,8189,8150,8148,8142,8160,8018,3.2112112045288086
113,8090,8120,8093,8059,8145,8149,8171,8156,8210,8185,8137,8123,8134,8001,3.219294309616089
114,8116,8139,8109,8075,8180,8165,8184,8157,8221,8192,8156,8149,8155,8042,3.227293968200684
115,8137,8137,8115,8077,8171,8153,8157,8181,8190,8163,8164,8171,8172,8065,3.23520565032959
116,8108,8133,8120,8092,8163,8135,8144,8153,8183,8170,8152,8129,8136,8053,3.242211103439331
117,8139,8155,8139,8112,8161,8176,8148,8173,8198,8179,8172,8154,8161,8059,3.2502148151397705
118,8119,8153,8126,8108,8169,8148,8174,8147,8224,8192,8156,8130,8145,8056,3.2582104206085205
119,8110,8117,8100,8077,8158,8155,8179,8152,8216,8178,8146,8119,8146,8054,3.266231775283813
120,8103,8093,8087,8049,8127,8166,8167,8181,8203,8146,8145,8119,8162,8026,3.274231195449829
121,8073,8097,8083,8050,8123,8140,8175,8143,8218,8147,8126,8073,8128,7992,3.282212018966675
122,8117,8107,8092,8053,8121,8174,8171,8163,8195,8139,8142,8107,8155,8011,3.2899417877197266
123,8106,8120,8099,8066,8140,8159,8178,8154,8181,8132,8144,8101,8153,8024,3.298447608947754
124,8101,8128,8102,8070,8144,8157,8165,8158,8191,8124,8152,8104,8153,8019,3.3054511547088623
125,8126,8131,8103,8059,8125,8167,8145,8182,8197,8132,8160,8135,8169,8012,3.313211679458618
126,8111,8145,8117,8076,8145,8146,8165,8138,8209,8176,8142,8104,8140,8028,3.321211338043213
127,8135,8136,8120,8072,8135,8175,8141,8169,8174,8149,8153,8135,8170,8055,3.328582286834717
127,8135,8136,8120,8072,8135,8175,8141,8169,8174,8149,8153,8135,8170,8055,3.329583168029785
241,8112,8119,8101,8055,8096,8148,8116,8170,8162,8112,8145,8122,8160,8031,3.3374247550964355
0,8111,8128,8102,8065,8112,8148,8118,8152,8180,8126,8143,8107,8144,8013,3.3454248905181885
1,8137,8128,8108,8066,8153,8178,8107,8167,8161,8120,8155,8141,8168,8019,3.3532114028930664
2,8108,8124,8108,8069,8132,8148,8130,8138,8165,8115,8149,8116,8151,8027,3.36121129989624
3,8136,8125,8112,8070,8075,8176,8140,8179,8152,8094,8160,8143,8178,8038,3.3692104816436768
4,8120,8128,8099,8063,8133,8174,8125,8172,8133,8081,8136,8128,8161,8002,3.37588119506836
5,8104,8133,8098,8067,8191,8169,8118,8136,8157,8109,8133,8109,8141,7991,3.383870840072632
6,8143,8139,8125,8080,8133,8182,8134,8180,8177,8136,8179,8163,8185,8048,3.391871213912964
7,8121,8158,8141,8104,8127,8148,8154,8166,8193,8156,8175,8144,8165,8076,3.400211811065674
8,8131,8161,8133,8103,8153,8173,8103,8169,8168,8127,8159,8145,8164,8048,3.408211231231689
9,8129,8144,8131,8101,8139,8171,8082,8159,8162,8130,8154,8132,8160,8023,3.416233539581299
10,8122,8138,8141,8114,8129,8157,8122,8142,8192,8172,8172,8123,8153,8058,3.424229621887207
11,8140,8125,8124,8084,8114,8184,8106,8181,8160,8145,8179,8152,8177,8068,3.431211471557617
12,8091,8107,8096,8053,8118,8153,8079,8144,8121,8116,8138,8097,8139,8015,3.439211368560791
13,8101,8104,8103,8055,8107,8167,8067,8142,8112,8103,8147,8111,8151,8005,3.4471750259399414
14,8101,8103,8101,8054,8080,8166,8067,8142,8113,8098,8151,8121,8156,8001,3.455275535583496
15,8068,8100,8083,8043,8068,8151,8081,8114,8103,8091,8132,8085,8127,8000,3.463212490081787
16,8096,8097,8089,8031,8062,8172,8055,8160,8071,8048,8151,8126,8165,8015,3.4710702896118164
17,8075,8105,8098,8044,8100,8142,8039,8143,8090,8056,8142,8103,8150,7995,3.479341506958008
18,8093,8119,8107,8059,8107,8169,8046,8142,8124,8086,8144,8110,8149,7997,3.487349271774292
19,8110,8123,8118,8058,8080,8177,8068,8165,8130,8094,8155,8140,8168,8031,3.495349645614624
20,8091,8124,8124,8070,8100,8144,8084,8152,8131,8112,8151,8113,8154,8049,3.5015220642089844
20,8091,8124,8124,8070,8100,8144,8084,8152,8131,8112,8151,8113,8154,8049,3.5025219917297363
21,8120,8123,8118,8073,8101,8174,8061,8188,8112,8102,8158,8136,8175,8031,3.51052474975586
22,8092,8121,8106,8068,8088,8159,8068,8150,8125,8102,8143,8112,8141,8003,3.5185327529907227
23,8099,8115,8112,8059,8094,8166,8084,8138,8129,8106,8154,8112,8141,8019,3.526531219482422
24,8121,8131,8126,8062,8118,8169,8082,8176,8113,8104,8163,8138,8174,8039,3.5342109203338623
25,8102,8160,8135,8095,8137,8149,8088,8152,8128,8115,8150,8119,8151,8036,3.5422117710113525
26,8130,8151,8138,8095,8122,8183,8068,8165,8118,8095,8165,8149,8163,8028,3.550374746322632
27,8110,8139,8131,8085,8111,8161,8080,8148,8132,8104,8158,8131,8149,8026,3.5581963062286377
28,8117,8144,8129,8092,8111,8163,8101,8155,8151,8131,8163,8134,8157,8054,3.565423488616944
29,8142,8146,8131,8091,8122,8173,8098,8190,8143,8140,8181,8165,8180,8070,3.5734243392944336
30,8114,8156,8136,8098,8151,8149,8117,8163,8171,8161,8167,8125,8151,8061,3.580519437789917
30,8114,8156,8136,8098,8151,8149,8117,8163,8171,8161,8167,8125,8151,8061,3.5815250873565674
31,8141,8166,8141,8102,8130,8186,8116,8184,8184,8150,8175,8145,8176,8065,3.5892109870910645
32,8135,8172,8139,8114,8121,8172,8130,8163,8186,8161,8172,8142,8162,8064,3.597257375717163
33,8131,8163,8136,8120,8138,8165,8135,8148,8173,8171,8170,8132,8149,8073,3.605257034301758
34,8140,8138,8127,8092,8129,8174,8099,8180,8141,8129,8169,8148,8178,8060,3.613212823867798
35,8110,8147,8124,8097,8136,8149,8105,8148,8154,8126,8150,8110,8150,8034,3.6212618350982666
36,8147,8174,8141,8122,8139,8181,8124,8175,8165,8134,8167,8148,8169,8058,3.6292123794555664
37,8141,8177,8149,8133,8143,8165,8141,8177,8175,8154,8164,8151,8163,8068,3.636277675628662
38,8143,8187,8165,8144,8158,8162,8156,8154,8193,8192,8164,8140,8144,8069,3.6443030834198
39,8186,8201,8182,8153,8156,8192,8155,8185,8193,8203,8185,8182,8174,8088,3.652303457260132
40,8151,8201,8175,8167,8161,8159,8169,8154,8198,8205,8168,8151,8155,8106,3.660342216491699
41,8162,8195,8173,8161,8134,8178,8159,8174,8176,8174,8172,8168,8171,8121,3.668341636657715
42,8159,8190,8172,8153,8132,8173,8142,8182,8168,8159,8164,8165,8168,8094,3.6763432025909424
43,8147,8193,8174,8164,8167,8168,8146,8147,8197,8189,8163,8142,8144,8083,3.684349298477173
44,8169,8189,8174,8153,8162,8195,8139,8174,8193,8179,8183,8182,8175,8106,3.6923482418060303
45,8132,8176,8160,8144,8161,8157,8148,8161,8177,8149,8163,8146,8161,8094,3.6984713077545166
45,8132,8176,8160,8144,8161,8157,8148,8161,8177,8149,8163,8146,8161,8094,3.699470281600952
46,8149,8165,8148,8147,8156,8172,8140,8177,8150,8128,8169,8150,8168,8073,3.707470417022705
47,8151,8164,8142,8143,8134,8175,8130,8169,8146,8144,8170,8165,8160,8059,3.71553897857666
48,8134,8167,8152,8143,8123,8160,8143,8132,8161,8167,8159,8141,8137,8070,3.722585916519165
49,8162,8159,8160,8136,8135,8177,8128,8174,8125,8137,8173,8160,8180,8082,3.730545043945313
50,8131,8158,8153,8137,8149,8146,8116,8152,8107,8120,8158,8128,8164,8065,3.739545345306397
51,8147,8167,8160,8144,8111,8165,8099,8149,8109,8107,8164,8146,8162,8073,3.747246980667114
52,8164,8170,8168,8149,8116,8165,8102,8174,8114,8109,8174,8174,8173,8090,3.755248785018921
53,8142,8162,8168,8150,8175,8144,8130,8158,8137,8150,8167,8144,8151,8093,3.762262105941773
54,8164,8151,8162,8135,8144,8173,8126,8195,8137,8153,8182,8165,8180,8094,3.770261764526367
55,8138,8151,8150,8134,8100,8149,8136,8173,8148,8154,8172,8141,8160,8078,3.7782135009765625
56,8144,8151,8151,8136,8128,8164,8136,8167,8149,8156,8173,8147,8162,8082,3.786379814147949
57,8157,8152,8159,8129,8148,8174,8121,8189,8145,8147,8177,8166,8179,8088,3.794381856918335
58,8129,8158,8160,8138,8123,8147,8121,8147,8152,8144,8163,8126,8143,8069,3.80246901512146
59,8149,8144,8145,8126,8083,8178,8096,8156,8111,8101,8168,8147,8162,8048,3.81021499633789
60,8126,8130,8126,8108,8094,8163,8102,8133,8094,8080,8152,8128,8148,8027,3.818250179290772
61,8133,8139,8138,8114,8118,8160,8123,8138,8107,8088,8161,8126,8152,8046,3.826244831085205
62,8156,8137,8143,8099,8108,8165,8121,8184,8103,8091,8176,8145,8186,8072,3.8332152366638175
63,8124,8117,8128,8076,8098,8143,8120,8158,8103,8109,8157,8096,8156,8058,3.8412134647369385
64,8148,8113,8137,8082,8083,8178,8097,8182,8093,8103,8168,8127,8165,8040,3.84889554977417
65,8137,8131,8154,8113,8108,8163,8112,8169,8114,8115,8160,8129,8151,8036,3.856895446777344
66,8135,8149,8167,8141,8126,8157,8139,8151,8134,8130,8158,8123,8151,8070,3.865212440490722
67,8159,8154,8177,8149,8101,8173,8120,8188,8121,8098,8171,8157,8182,8086,3.872936964035034
68,8128,8151,8168,8152,8114,8150,8116,8151,8125,8089,8158,8118,8147,8049,3.880972146987915
69,8149,8139,8157,8135,8126,8175,8120,8155,8108,8105,8168,8135,8159,8048,3.888972043991089
70,8142,8141,8162,8127,8138,8156,8133,8157,8085,8121,8165,8134,8164,8071,3.8962113857269287
71,8130,8160,8169,8140,8150,8150,8126,8146,8074,8090,8155,8113,8153,8072,3.904212474822998
72,8157,8156,8160,8134,8132,8180,8111,8179,8064,8052,8159,8140,8170,8052,3.9122116565704346
73,8139,8163,8169,8152,8146,8153,8163,8157,8118,8114,8154,8121,8142,8064,3.919999361038208
74,8172,8188,8200,8174,8167,8174,8194,8182,8155,8153,8182,8153,8171,8119,3.928211212158203
75,8175,8187,8200,8169,8166,8163,8170,8190,8138,8125,8174,8155,8181,8116,3.936287641525269
76,8150,8171,8187,8167,8169,8151,8165,8165,8142,8126,8153,8127,8149,8090,3.944305181503296
77,8174,8168,8196,8165,8167,8190,8174,8195,8162,8139,8171,8171,8169,8099,3.952278852462769
78,8150,8175,8197,8167,8166,8163,8199,8162,8180,8160,8165,8150,8150,8105,3.958911418914795
79,8153,8156,8178,8147,8147,8169,8179,8171,8137,8139,8165,8145,8161,8100,3.969911575317383
80,8135,8131,8157,8129,8135,8165,8135,8180,8089,8100,8156,8133,8164,8055,3.975211381912232
80,8135,8131,8157,8129,8135,8165,8135,8180,8089,8100,8156,8133,8164,8055,3.9759092330932617
81,8105,8134,8160,8144,8144,8151,8132,8139,8116,8110,8141,8099,8134,8033,3.983156204223633
82,8143,8138,8177,8136,8141,8182,8140,8173,8135,8115,8159,8145,8170,8069,3.991155862808228
83,8124,8148,8180,8131,8154,8149,8156,8165,8144,8117,8148,8133,8162,8084,3.9992105960845943
84,8136,8166,8188,8151,8159,8158,8149,8170,8150,8113,8159,8143,8163,8084,4.007176399230957
85,8158,8175,8206,8171,8166,8173,8148,8185,8166,8127,8172,8164,8173,8082,4.01521110534668
86,8144,8187,8221,8188,8187,8154,8176,8156,8203,8167,8163,8138,8153,8100,4.023210525512695
87,8177,8188,8221,8180,8164,8176,8168,8189,8183,8153,8181,8171,8185,8126,4.030210494995117
88,8150,8176,8210,8167,8165,8149,8167,8170,8167,8159,8173,8151,8161,8111,4.03857421875
89,8145,8170,8213,8169,8186,8165,8171,8166,8184,8184,8173,8150,8153,8100,4.046574354171753
90,8163,8163,8211,8166,8177,8184,8165,8185,8190,8178,8177,8172,8174,8098,4.054576635360718
91,8140,8167,8207,8175,8192,8154,8195,8150,8208,8192,8163,8142,8152,8108,4.06221079826355
92,8171,8174,8212,8176,8196,8181,8202,8188,8193,8177,8184,8180,8181,8137,4.0702455043792725
93,8158,8173,8203,8172,8193,8165,8191,8183,8180,8141,8174,8154,8160,8118,4.078181028366089
94,8155,8172,8208,8172,8196,8167,8191,8163,8195,8141,8164,8129,8141,8101,4.086186408996582
95,8180,8180,8227,8166,8188,8185,8201,8187,8205,8162,8172,8170,8171,8127,4.093198299407959
96,8152,8179,8219,8167,8199,8159,8213,8166,8204,8173,8164,8146,8157,8150,4.101237773895264
97,8175,8169,8204,8165,8185,8185,8186,8199,8172,8141,8172,8158,8176,8138,4.109210968017578
98,8163,8179,8207,8171,8179,8165,8189,8181,8187,8150,8155,8151,8160,8102,4.1171746253967285
98,8163,8179,8207,8171,8179,8165,8189,8181,8187,8150,8155,8151,8160,8102,4.117748975753784
99,8153,8184,8221,8178,8211,8156,8213,8152,8217,8175,8159,8151,8149,8115,4.125212669372559
100,8178,8171,8224,8170,8217,8182,8197,8187,8196,8145,8178,8175,8180,8136,4.133476257324219
101,8153,8180,8213,8178,8197,8159,8199,8158,8202,8141,8159,8130,8158,8120,4.141478061676025
102,8179,8183,8214,8175,8183,8179,8206,8178,8202,8140,8168,8152,8178,8128,4.14948844909668
103,8166,8169,8219,8165,8208,8166,8208,8187,8195,8139,8169,8148,8172,8121,4.157174348831177
104,8148,8181,8220,8182,8211,8168,8209,8164,8214,8156,8159,8128,8144,8105,4.164210796356201
105,8189,8197,8223,8193,8192,8198,8209,8185,8228,8158,8174,8170,8170,8114,4.171991109848023
106,8169,8196,8226,8198,8228,8158,8234,8156,8241,8176,8171,8147,8161,8132,4.1802122592926025
107,8178,8190,8228,8191,8244,8177,8221,8182,8215,8174,8178,8165,8178,8145,4.1882312297821045
108,8174,8187,8224,8187,8225,8178,8206,8185,8211,8182,8168,8170,8168,8120,4.195751905441284
109,8157,8186,8224,8194,8202,8164,8224,8141,8237,8207,8163,8147,8138,8111,4.204211473464966
110,8180,8172,8219,8177,8181,8185,8206,8171,8197,8168,8177,8189,8173,8129,4.212206602096558
111,8144,8165,8212,8169,8209,8156,8199,8163,8178,8145,8162,8164,8159,8122,4.218785762786865
111,8144,8165,8212,8169,8209,8156,8199,8163,8178,8145,8162,8164,8159,8122,4.219794750213623
112,8158,8179,8223,8176,8209,8175,8196,8175,8197,8158,8172,8170,8165,8122,4.227174758911133
113,8167,8187,8229,8173,8191,8176,8196,8174,8205,8171,8174,8183,8168,8121,4.235211372375488
114,8142,8180,8219,8173,8211,8154,8211,8142,8205,8173,8161,8152,8145,8123,4.242717027664185
115,8161,8158,8203,8157,8190,8176,8182,8182,8171,8122,8168,8171,8179,8118,4.250702857971191
116,8135,8154,8200,8153,8173,8150,8168,8165,8170,8115,8155,8147,8157,8095,4.259212493896484
117,8151,8169,8222,8170,8190,8176,8182,8169,8193,8156,8170,8159,8156,8105,4.266717672348023
117,8151,8169,8222,8170,8190,8176,8182,8169,8193,8156,8170,8159,8156,8105,4.267745971679688
118,8165,8172,8222,8168,8199,8187,8202,8189,8199,8176,8179,8177,8176,8115,4.275497198104858
119,8143,8175,8205,8167,8209,8151,8216,8158,8209,8177,8160,8144,8156,8115,4.282513380050659
119,8143,8175,8205,8167,8209,8151,8216,8158,8209,8177,8160,8144,8156,8115,4.283512592315674
120,8169,8170,8201,8163,8195,8179,8185,8188,8192,8145,8168,8167,8177,8113,4.290212392807007
121,8137,8167,8201,8165,8181,8166,8187,8164,8196,8153,8157,8145,8149,8095,4.298211097717285
122,8152,8185,8216,8178,8194,8171,8213,8156,8221,8177,8166,8165,8152,8127,4.306700944900513
123,8179,8186,8224,8173,8207,8172,8210,8186,8213,8158,8177,8198,8183,8149,4.313706636428833
123,8179,8186,8224,8173,8207,8172,8210,8186,8213,8158,8177,8198,8183,8149,4.31470251083374
124,8141,8174,8214,8170,8207,8144,8208,8155,8200,8155,8160,8150,8152,8124,4.322704076766968
125,8169,8182,8219,8178,8203,8174,8200,8184,8194,8155,8178,8181,8174,8132,4.330205917358398
126,8160,8198,8225,8192,8230,8156,8205,8178,8215,8183,8176,8174,8164,8134,4.33821177482605
127,8152,8191,8219,8193,8228,8162,8199,8160,8214,8204,8167,8153,8151,8116,4.346233367919922
241,8171,8183,8214,8188,8187,8180,8190,8176,8193,8193,8167,8181,8169,8111,4.353301763534546
0,8148,8188,8217,8201,8190,8153,8205,8145,8217,8200,8157,8163,8144,8134,4.3611133098602295
1,8175,8176,8214,8182,8192,8180,8183,8175,8201,8169,8177,8192,8173,8157,4.368654489517212
1,8175,8176,8214,8182,8192,8180,8183,8175,8201,8169,8177,8192,8173,8157,4.369646072387695
2,8158,8160,8189,8159,8183,8162,8165,8166,8174,8143,8161,8170,8165,8117,4.376653671264648
3,8143,8163,8180,8168,8175,8163,8167,8140,8176,8143,8146,8135,8136,8081,4.38512134552002
3,8143,8163,8180,8168,8175,8163,8167,8140,8176,8143,8146,8135,8136,8081,4.3856520652771
4,8162,8162,8189,8159,8161,8187,8155,8167,8162,8125,8156,8165,8161,8093,4.393211603164673
5,8126,8151,8186,8148,8169,8150,8145,8138,8148,8114,8142,8147,8151,8101,4.401211977005005
6,8135,8130,8170,8128,8148,8167,8103,8159,8111,8074,8151,8157,8164,8075,4.409229278564453
7,8123,8122,8158,8115,8134,8160,8091,8151,8108,8072,8146,8142,8150,8040,4.417237997055054
8,8121,8134,8170,8124,8147,8162,8120,8123,8134,8112,8142,8139,8138,8063,4.4242143630981445
9,8156,8139,8183,8127,8148,8183,8122,8173,8124,8116,8163,8179,8177,8096,4.432212114334106
10,8128,8150,8181,8141,8169,8145,8140,8161,8151,8135,8152,8133,8161,8093,4.440212249755859
11,8150,8159,8186,8145,8164,8171,8137,8172,8174,8145,8154,8151,8172,8096,4.448305606842041
12,8154,8156,8188,8137,8150,8174,8127,8167,8172,8138,8157,8169,8165,8087,4.4562156200408936
13,8140,8160,8192,8147,8165,8156,8147,8139,8179,8150,8167,8155,8144,8103,4.464269638061523
14,8172,8161,8191,8144,8164,8175,8141,8187,8161,8145,8182,8193,8180,8131,4.472211599349976
15,8145,8164,8184,8148,8168,8147,8137,8168,8165,8151,8157,8154,8151,8101,4.4800121784210205
16,8159,8164,8190,8161,8165,8171,8139,8160,8172,8155,8164,8153,8146,8088,4.487024545669556
17,8161,8148,8179,8143,8158,8168,8137,8163,8155,8143,8166,8165,8158,8100,4.495211362838745
18,8133,8147,8164,8123,8165,8138,8136,8147,8148,8140,8151,8137,8148,8102,4.502769947052002
18,8133,8147,8164,8123,8165,8138,8136,8147,8148,8140,8151,8137,8148,8102,4.503798007965088
19,8162,8158,8173,8131,8163,8176,8118,8189,8152,8143,8172,8171,8180,8102,4.510856866836548
20,8133,8161,8175,8148,8169,8162,8130,8154,8181,8168,8161,8148,8149,8088,4.518854856491089
21,8143,8156,8169,8140,8146,8164,8134,8149,8176,8154,8156,8150,8146,8099,4.527175426483154
22,8162,8156,8171,8136,8134,8165,8123,8182,8152,8122,8162,8172,8174,8114,4.535282373428345
23,8144,8162,8182,8158,8176,8150,8132,8154,8166,8137,8152,8149,8155,8111,4.543280363082886
24,8169,8167,8188,8158,8177,8176,8128,8175,8168,8143,8169,8183,8173,8111,4.550281047821045
25,8144,8184,8183,8167,8176,8149,8149,8153,8189,8175,8171,8167,8153,8110,4.558208227157593
26,8149,8188,8187,8175,8196,8164,8163,8155,8195,8197,8175,8166,8156,8129,4.565831422805786
27,8155,8164,8173,8151,8189,8172,8146,8188,8169,8164,8166,8178,8179,8116,4.573833465576172
28,8124,8162,8162,8158,8181,8146,8145,8154,8182,8158,8147,8134,8144,8085,4.582210779190064
29,8159,8177,8173,8171,8178,8182,8142,8173,8182,8157,8170,8168,8159,8099,4.590274810791016
30,8146,8181,8172,8169,8192,8159,8164,8160,8174,8163,8165,8168,8151,8116,4.597797870635986
31,8150,8177,8170,8169,8195,8156,8170,8156,8170,8159,8163,8164,8158,8124,4.6062116622924805
31,8150,8177,8170,8169,8195,8156,8170,8156,8170,8159,8163,8164,8158,8124,4.606728076934815
32,8169,8172,8167,8157,8187,8174,8147,8188,8170,8138,8171,8180,8180,8106,4.61503791809082
33,8141,8169,8164,8155,8206,8154,8162,8153,8195,8167,8155,8144,8140,8088,4.62104082107544
34,8173,8166,8165,8162,8203,8186,8177,8175,8194,8191,8171,8178,8164,8106,4.629212379455566
35,8162,8177,8162,8175,8207,8171,8198,8169,8208,8205,8175,8171,8167,8114,4.637175798416138
36,8154,8187,8170,8182,8211,8165,8208,8159,8230,8208,8177,8157,8158,8129,4.645133256912232
37,8174,8178,8171,8172,8199,8179,8190,8196,8207,8190,8185,8190,8186,8142,4.653518199920654
38,8143,8175,8169,8177,8222,8153,8192,8159,8208,8203,8170,8158,8154,8120,4.661518335342407
39,8171,8185,8184,8185,8225,8186,8186,8167,8215,8199,8184,8182,8161,8114,4.669560194015503
40,8172,8197,8191,8198,8224,8174,8202,8167,8224,8208,8185,8191,8167,8131,4.677345037460327
41,8162,8202,8187,8211,8243,8158,8214,8156,8227,8221,8182,8175,8165,8151,4.684377431869507
42,8183,8196,8172,8197,8225,8181,8182,8196,8212,8203,8188,8196,8183,8136,4.692211389541626
43,8154,8204,8173,8207,8222,8159,8199,8160,8237,8234,8167,8164,8146,8121,4.6999351978302
44,8186,8215,8198,8223,8251,8182,8222,8174,8252,8251,8187,8196,8168,8167,4.707937240600586
45,8187,8202,8191,8211,8269,8168,8203,8188,8244,8230,8188,8199,8178,8178,4.715937614440918
46,8156,8183,8165,8201,8247,8154,8172,8159,8230,8213,8161,8152,8150,8134,4.723938703536987
47,8178,8179,8161,8186,8206,8186,8157,8181,8210,8196,8175,8181,8168,8118,4.731938123703003
48,8162,8186,8170,8186,8218,8157,8185,8153,8228,8214,8179,8170,8148,8135,4.739946842193604
49,8179,8182,8175,8190,8228,8167,8183,8170,8222,8209,8189,8187,8169,8163,4.748509883880615
50,8170,8173,8162,8177,8209,8169,8161,8188,8209,8191,8177,8186,8169,8140,4.754509687423706
50,8170,8173,8162,8177,8209,8169,8161,8188,8209,8191,8177,8186,8169,8140,4.755511045455933
51,8146,8176,8155,8185,8213,8167,8174,8151,8234,8217,8158,8152,8130,8108,4.76250958442688
51,8146,8176,8155,8185,8213,8167,8174,8151,8234,8217,8158,8152,8130,8108,4.763510942459106
52,8180,8175,8165,8191,8223,8195,8184,8182,8235,8224,8176,8193,8167,8122,4.771512746810913
53,8154,8176,8163,8187,8240,8150,8190,8167,8238,8216,8167,8165,8160,8133,4.778509855270386
53,8154,8176,8163,8187,8240,8150,8190,8167,8238,8216,8167,8165,8160,8133,4.7795116901397705
54,8161,8181,8153,8182,8236,8156,8176,8172,8238,8200,8173,8157,8162,8138,4.786512851715088
54,8161,8181,8153,8182,8236,8156,8176,8172,8238,8200,8173,8157,8162,8138,4.7875144481658936
55,8177,8178,8151,8186,8234,8173,8175,8194,8226,8195,8181,8182,8179,8133,4.794512748718262
56,8156,8186,8166,8205,8257,8154,8198,8163,8237,8213,8169,8160,8158,8137,4.80302095413208
57,8178,8189,8166,8198,8236,8176,8176,8187,8225,8201,8172,8179,8175,8139,4.8110198974609375
58,8159,8190,8162,8195,8223,8161,8178,8164,8247,8223,8163,8159,8158,8119,4.8180201053619385
59,8174,8206,8180,8216,8249,8177,8202,8159,8283,8254,8181,8168,8160,8139,4.826022386550903
60,8195,8212,8180,8224,8256,8185,8196,8180,8268,8226,8192,8188,8178,8158,4.834205627441406
61,8166,8206,8168,8223,8242,8151,8196,8142,8263,8223,8170,8151,8148,8145,4.842210531234741
62,8190,8200,8164,8206,8214,8182,8183,8171,8257,8232,8180,8179,8172,8147,4.850059270858765
63,8176,8195,8159,8199,8229,8169,8187,8166,8257,8240,8174,8166,8163,8151,4.858211278915405
64,8172,8194,8165,8206,8251,8167,8191,8157,8259,8238,8177,8159,8155,8163,4.865170001983643
65,8191,8188,8167,8197,8236,8185,8164,8181,8227,8208,8193,8190,8178,8156,4.873176574707031
66,8152,8182,8153,8192,8228,8152,8150,8139,8209,8192,8170,8150,8146,8125,4.881211042404175
67,8168,8165,8149,8183,8210,8172,8126,8164,8196,8161,8169,8167,8169,8116,4.88875675201416
68,8153,8149,8150,8168,8213,8162,8118,8172,8197,8156,8159,8160,8170,8104,4.897289037704468
69,8136,8150,8149,8157,8209,8159,8125,8157,8197,8171,8153,8143,8152,8103,4.905212163925171
70,8169,8162,8157,8158,8190,8182,8119,8193,8190,8178,8166,8183,8179,8107,4.913457155227661
71,8151,8179,8176,8187,8224,8158,8147,8155,8215,8225,8158,8156,8154,8104,4.92145562171936
72,8167,8176,8185,8187,8240,8179,8152,8164,8217,8225,8169,8169,8162,8121,4.928206205368042
73,8162,8158,8177,8165,8218,8159,8142,8181,8219,8192,8161,8174,8166,8120,4.936211347579956
74,8149,8152,8174,8171,8203,8145,8146,8167,8234,8193,8153,8150,8152,8106,4.94417142868042
75,8177,8156,8178,8174,8191,8181,8134,8181,8215,8188,8170,8181,8174,8101,4.952101469039917
76,8140,8155,8171,8168,8202,8157,8148,8139,8214,8185,8155,8156,8145,8098,4.960210800170898
77,8149,8141,8154,8148,8197,8175,8150,8164,8195,8147,8156,8160,8161,8106,4.9684906005859375
78,8156,8142,8140,8135,8182,8173,8139,8186,8170,8129,8158,8159,8172,8086,4.976501226425171
79,8137,8165,8145,8148,8184,8156,8146,8150,8197,8164,8152,8130,8142,8076,4.984511852264404
80,8164,8164,8158,8150,8171,8182,8140,8176,8205,8168,8164,8169,8168,8099,4.992636442184448
81,8145,8148,8153,8146,8190,8149,8155,8162,8201,8178,8153,8153,8159,8110,5.000180959701538
82,8165,8154,8157,8142,8215,8160,8161,8178,8201,8179,8167,8167,8175,8128,5.007182598114014
83,8175,8158,8164,8137,8191,8174,8138,8189,8200,8163,8170,8179,8181,8113,5.015210390090942
84,8145,8156,8158,8146,8165,8159,8137,8146,8207,8187,8152,8149,8144,8094,5.023495435714722
85,8181,8157,8166,8148,8168,8185,8143,8176,8197,8193,8178,8192,8177,8129,5.031496286392212
86,8169,8166,8177,8164,8204,8155,8154,8166,8213,8202,8182,8180,8173,8150,5.03921103477478
87,8169,8176,8181,8184,8205,8164,8137,8168,8215,8217,8177,8180,8169,8144,5.047567367553711
88,8186,8182,8181,8182,8199,8182,8133,8181,8208,8210,8171,8197,8172,8128,5.055583715438843
89,8170,8188,8181,8179,8228,8156,8165,8145,8230,8208,8164,8162,8145,8130,5.063607454299927
90,8187,8174,8172,8166,8195,8175,8132,8177,8186,8173,8176,8186,8175,8129,5.07160758972168
91,8148,8165,8149,8164,8171,8157,8098,8159,8150,8149,8150,8160,8157,8085,5.078612565994263
92,8153,8177,8154,8175,8196,8174,8114,8150,8185,8163,8153,8154,8147,8082,5.086211919784546
93,8188,8169,8166,8163,8195,8192,8134,8178,8201,8191,8177,8190,8173,8109,5.093905687332153
94,8153,8159,8156,8164,8194,8156,8144,8150,8193,8200,8164,8159,8156,8111,5.10243821144104
95,8174,8178,8162,8185,8197,8175,8132,8189,8197,8168,8178,8184,8182,8110,5.110212087631226
96,8173,8189,8177,8195,8208,8164,8147,8186,8242,8190,8182,8175,8167,8107,5.117820501327515
97,8168,8166,8174,8186,8202,8176,8152,8156,8256,8216,8183,8156,8152,8123,5.125817775726318
98,8187,8156,8166,8175,8180,8191,8130,8178,8229,8200,8186,8174,8179,8134,5.13421106338501
99,8157,8171,8165,8184,8195,8153,8148,8152,8242,8225,8167,8139,8151,8125,5.141211032867432
99,8157,8171,8165,8184,8195,8153,8148,8152,8242,8225,8167,8139,8151,8125,5.141831398010254
100,8174,8162,8165,8174,8201,8184,8141,8174,8213,8209,8175,8161,8171,8123,5.148540019989014
100,8174,8162,8165,8174,8201,8184,8141,8174,8213,8209,8175,8161,8171,8123,5.149539947509766
101,8161,8149,8159,8164,8208,8174,8132,8177,8173,8170,8165,8154,8173,8105,5.157174348831177
102,8150,8174,8165,8181,8222,8162,8149,8165,8199,8178,8162,8136,8155,8100,5.165584564208984
103,8182,8197,8171,8191,8194,8184,8151,8189,8218,8181,8176,8170,8173,8111,5.173212289810181
104,8160,8199,8171,8199,8184,8158,8165,8153,8223,8197,8168,8149,8153,8127,5.180583238601685
104,8160,8199,8171,8199,8184,8158,8165,8153,8223,8197,8168,8149,8153,8127,5.18157172203064
105,8183,8185,8178,8192,8200,8177,8150,8182,8200,8206,8187,8173,8178,8153,5.189579963684082
106,8174,8182,8177,8185,8213,8167,8127,8187,8192,8199,8180,8167,8173,8126,5.1971752643585205
107,8150,8192,8173,8195,8203,8162,8136,8151,8210,8197,8157,8138,8144,8097,5.205539226531982
108,8174,8168,8165,8179,8180,8189,8144,8182,8193,8177,8163,8174,8175,8111,5.211542367935181
108,8174,8168,8165,8179,8180,8189,8144,8182,8193,8177,8163,8174,8175,8111,5.212538242340088
109,8140,8150,8162,8170,8208,8153,8166,8163,8194,8183,8162,8154,8162,8122,5.220539093017578
110,8158,8172,8182,8188,8229,8171,8154,8183,8195,8189,8184,8172,8176,8127,5.228210926055908
111,8168,8188,8185,8194,8210,8176,8135,8185,8192,8187,8179,8173,8170,8105,5.236210823059082
112,8155,8191,8176,8191,8196,8164,8151,8143,8210,8197,8163,8139,8144,8099,5.244212865829468
113,8189,8192,8178,8183,8192,8193,8160,8181,8210,8178,8182,8171,8187,8124,5.25221061706543
114,8158,8194,8176,8191,8224,8161,8164,8167,8210,8185,8165,8145,8167,8119,5.259763956069946
114,8158,8194,8176,8191,8224,8161,8164,8167,8210,8185,8165,8145,8167,8119,5.260759115219116
115,8166,8195,8173,8199,8223,8174,8145,8170,8195,8192,8162,8151,8159,8102,5.267756462097168
116,8182,8194,8172,8194,8193,8180,8153,8178,8203,8183,8168,8165,8172,8097,5.274757146835327
117,8157,8190,8172,8200,8217,8153,8187,8151,8230,8189,8162,8139,8155,8113,5.2832112312316895
118,8175,8183,8167,8195,8236,8175,8148,8193,8191,8165,8173,8177,8183,8121,5.2912116050720215
119,8154,8184,8170,8199,8220,8160,8125,8172,8160,8187,8167,8161,8164,8099,5.299201250076294
120,8173,8188,8189,8210,8197,8180,8157,8162,8183,8227,8182,8174,8161,8121,5.307198286056519
121,8190,8187,8190,8201,8204,8181,8174,8188,8220,8228,8187,8198,8179,8149,5.315215587615967
122,8154,8190,8176,8201,8230,8148,8168,8163,8232,8225,8165,8150,8163,8138,5.3236517906188965
123,8179,8181,8177,8196,8198,8184,8144,8190,8197,8205,8177,8171,8186,8121,5.33121132850647
124,8157,8171,8172,8192,8182,8164,8145,8164,8204,8195,8161,8154,8151,8084,5.338189125061035
125,8148,8168,8158,8188,8187,8163,8136,8146,8202,8161,8151,8146,8141,8071,5.346186876296997
126,8165,8162,8155,8175,8180,8179,8106,8178,8145,8142,8167,8176,8181,8088,5.354214429855347
127,8149,8171,8173,8195,8214,8150,8120,8160,8147,8199,8169,8149,8161,8108,5.362212181091309
241,8180,8180,8191,8213,8224,8169,8117,8181,8156,8205,8177,8174,8169,8114,5.370210886001587
0,8168,8181,8190,8213,8199,8156,8116,8160,8161,8174,8167,8168,8154,8097,5.37821102142334
1,8182,8189,8201,8225,8185,8164,8137,8149,8181,8177,8186,8173,8165,8127,5.386379241943359
2,8212,8193,8213,8233,8184,8173,8129,8190,8151,8199,8209,8211,8204,8157,5.394379854202271
3,8168,8190,8206,8239,8203,8142,8123,8161,8139,8224,8180,8172,8162,8136,5.401212930679321
4,8191,8182,8206,8232,8200,8185,8114,8173,8159,8191,8182,8188,8168,8128,5.409211158752441
5,8190,8177,8200,8227,8192,8170,8126,8165,8186,8169,8184,8186,8173,8129,5.417175054550171
6,8168,8170,8186,8218,8174,8146,8117,8153,8176,8178,8183,8171,8164,8134,5.4252119064331055
7,8179,8155,8172,8185,8163,8174,8070,8186,8135,8144,8178,8191,8178,8111,5.4332122802734375
8,8155,8157,8168,8180,8180,8159,8086,8141,8153,8130,8151,8150,8142,8077,5.44129490852356
9,8183,8166,8178,8189,8160,8183,8115,8161,8165,8152,8173,8179,8168,8106,5.449137926101685
10,8167,8163,8172,8179,8169,8165,8122,8186,8156,8178,8180,8190,8182,8130,5.457151174545288
11,8135,8154,8162,8166,8200,8150,8119,8159,8164,8178,8165,8164,8153,8109,5.465211629867554
12,8167,8152,8163,8164,8170,8190,8105,8179,8181,8154,8172,8195,8166,8088,5.472210884094238
13,8148,8169,8164,8182,8175,8164,8122,8147,8199,8175,8161,8167,8149,8096,5.480210781097412
14,8161,8163,8168,8172,8198,8169,8118,8162,8159,8175,8170,8180,8177,8123,5.488210916519165
15,8149,8138,8158,8153,8198,8160,8107,8181,8149,8146,8165,8185,8180,8104,5.496320724487305
16,8128,8148,8158,8175,8193,8156,8139,8155,8203,8174,8154,8157,8145,8098,5.504458665847778
17,8168,8159,8163,8176,8162,8196,8145,8180,8193,8197,8175,8190,8175,8123,5.512211084365845
18,8132,8142,8147,8147,8156,8158,8135,8148,8160,8182,8160,8158,8156,8102,5.520211219787598
19,8128,8121,8131,8124,8168,8162,8108,8157,8140,8112,8150,8160,8156,8078,5.528210878372192
20,8136,8119,8129,8119,8171,8171,8083,8180,8121,8069,8145,8178,8167,8060,5.5352113246917725
21,8125,8138,8144,8145,8187,8155,8108,8143,8137,8117,8144,8157,8146,8063,5.543212890625
22,8163,8145,8159,8155,8179,8182,8138,8172,8154,8143,8169,8192,8177,8101,5.550862789154053
23,8135,8134,8146,8141,8187,8154,8152,8158,8162,8146,8156,8170,8163,8104,5.558855056762695
24,8129,8123,8133,8123,8200,8165,8122,8164,8146,8138,8153,8162,8161,8082,5.567175388336182
25,8146,8127,8138,8127,8169,8177,8123,8188,8162,8152,8165,8176,8176,8072,5.575097799301148
26,8134,8148,8159,8160,8153,8157,8182,8152,8229,8207,8164,8163,8153,8099,5.583210706710815
27,8162,8151,8164,8157,8190,8184,8183,8185,8221,8195,8183,8199,8183,8130,5.591536998748779
28,8131,8147,8150,8140,8232,8159,8167,8178,8200,8166,8166,8159,8167,8102,5.597627878189087
29,8135,8162,8152,8153,8211,8170,8162,8167,8212,8164,8160,8144,8157,8084,5.6062116622924805
29,8135,8162,8152,8153,8211,8170,8162,8167,8212,8164,8160,8144,8157,8084,5.606640815734863
30,8166,8176,8166,8166,8199,8192,8161,8182,8214,8161,8173,8181,8177,8102,5.614680767059326
31,8145,8176,8174,8171,8238,8167,8184,8152,8222,8179,8166,8155,8155,8124,5.62221097946167
32,8171,8169,8175,8164,8227,8191,8171,8184,8201,8166,8173,8181,8177,8136,5.630232572555542
33,8156,8170,8166,8164,8211,8169,8164,8175,8192,8152,8159,8166,8166,8120,5.638235807418823
34,8155,8176,8172,8174,8208,8165,8165,8163,8205,8159,8162,8152,8160,8123,5.646440982818604
35,8179,8172,8181,8169,8194,8182,8145,8195,8198,8165,8177,8184,8182,8125,5.654211521148682
36,8155,8182,8188,8180,8213,8164,8163,8162,8220,8192,8159,8158,8146,8113,5.662186145782471
37,8181,8191,8193,8187,8227,8195,8182,8180,8235,8190,8178,8184,8170,8137,5.669210910797119
38,8164,8174,8171,8174,8223,8170,8189,8175,8233,8187,8185,8181,8174,8144,5.677745342254639
39,8142,8152,8147,8156,8203,8162,8170,8154,8213,8163,8164,8146,8149,8111,5.684698820114136
39,8142,8152,8147,8156,8203,8162,8170,8154,8213,8163,8164,8146,8149,8111,5.685696840286255
40,8157,8144,8142,8141,8171,8190,8135,8188,8180,8115,8153,8158,8163,8069,5.693322658538818
41,8130,8157,8144,8153,8182,8159,8147,8148,8191,8133,8144,8131,8141,8054,5.700860023498535
42,8153,8153,8141,8146,8180,8176,8151,8153,8184,8144,8162,8156,8163,8081,5.709201097488403
43,8138,8130,8136,8120,8160,8169,8139,8166,8168,8125,8162,8156,8174,8087,5.717175483703613
44,8121,8134,8143,8125,8154,8162,8126,8155,8168,8117,8156,8135,8160,8071,5.725114822387695
44,8121,8134,8143,8125,8154,8162,8126,8155,8168,8117,8156,8135,8160,8071,5.72612738609314
45,8158,8152,8143,8134,8132,8190,8106,8177,8160,8103,8165,8170,8173,8061,5.732125520706177
46,8132,8153,8143,8140,8150,8158,8131,8138,8195,8130,8149,8147,8143,8073,5.740166664123535
47,8153,8148,8160,8139,8180,8173,8139,8166,8208,8153,8172,8180,8181,8118,5.74816370010376
48,8168,8158,8160,8144,8176,8170,8130,8195,8194,8151,8182,8196,8193,8116,5.7561657428741455
49,8145,8168,8149,8157,8175,8157,8145,8158,8213,8165,8166,8151,8142,8090,5.764160871505737
50,8164,8164,8147,8145,8166,8187,8152,8180,8218,8166,8178,8183,8169,8101,5.772169589996338
51,8136,8165,8142,8136,8171,8154,8165,8160,8216,8161,8161,8160,8167,8101,5.779765129089356
52,8151,8165,8141,8136,8168,8168,8154,8169,8200,8141,8159,8154,8165,8088,5.787783622741699
53,8163,8158,8139,8133,8156,8181,8142,8180,8199,8136,8161,8174,8165,8067,5.79621148109436
54,8132,8164,8135,8136,8154,8161,8160,8137,8214,8167,8148,8156,8142,8065,5.802820444107056
55,8158,8167,8142,8127,8139,8177,8152,8171,8186,8146,8165,8189,8179,8090,5.811211347579956
56,8148,8168,8149,8131,8163,8146,8157,8168,8186,8136,8160,8171,8166,8098,5.81918478012085
57,8163,8178,8155,8149,8180,8160,8163,8174,8205,8161,8163,8168,8163,8113,5.827175855636597
58,8177,8178,8155,8151,8163,8174,8155,8195,8197,8163,8169,8188,8185,8114,5.83829402923584
58,8177,8178,8155,8151,8163,8174,8155,8195,8197,8163,8169,8188,8185,8114,5.839284181594849
59,8149,8178,8152,8155,8172,8148,8165,8157,8212,8168,8158,8154,8157,8099,5.843283891677856
60,8172,8161,8139,8140,8152,8185,8148,8174,8207,8158,8167,8172,8166,8088,5.85128378868103
61,8141,8138,8115,8123,8131,8168,8146,8153,8191,8145,8154,8153,8151,8063,5.8592822551727295
62,8127,8136,8114,8121,8148,8160,8150,8148,8168,8117,8156,8149,8158,8065,5.86628270149231
63,8152,8139,8120,8115,8145,8173,8121,8183,8143,8091,8159,8176,8182,8061,5.874282836914063
64,8131,8149,8116,8127,8123,8153,8119,8142,8167,8126,8145,8139,8142,8047,5.8822855949401855
65,8162,8158,8126,8138,8116,8183,8123,8155,8164,8132,8169,8163,8161,8072,5.890285491943359
66,8160,8158,8136,8140,8152,8161,8131,8160,8141,8120,8164,8165,8167,8083,5.897791385650635
67,8156,8159,8138,8146,8155,8155,8133,8156,8148,8116,8155,8154,8160,8084,5.905791521072388
68,8178,8160,8142,8144,8120,8184,8115,8181,8152,8106,8171,8176,8178,8084,5.91379189491272
69,8146,8170,8146,8159,8134,8156,8124,8144,8166,8135,8159,8143,8142,8083,5.922211408615112
70,8175,8172,8157,8167,8144,8175,8125,8168,8150,8130,8162,8178,8163,8102,5.929210901260376
71,8172,8161,8157,8161,8142,8168,8133,8169,8148,8124,8161,8184,8171,8104,5.937175035476685
72,8146,8162,8146,8157,8142,8166,8150,8141,8175,8149,8162,8154,8151,8106,5.945211172103882
73,8172,8171,8147,8153,8134,8191,8142,8173,8168,8141,8176,8180,8175,8115,5.95265531539917
73,8172,8171,8147,8153,8134,8191,8142,8173,8168,8141,8176,8180,8175,8115,5.953648567199707
74,8154,8173,8149,8167,8147,8155,8151,8142,8170,8148,8161,8151,8154,8104,5.960655212402344
74,8154,8173,8149,8167,8147,8155,8151,8142,8170,8148,8161,8151,8154,8104,5.961650133132935
75,8160,8153,8137,8150,8125,8169,8129,8151,8153,8131,8162,8156,8165,8092,5.969211101531982
76,8141,8129,8118,8112,8101,8166,8106,8163,8125,8097,8157,8153,8167,8075,5.97741174697876
77,8126,8137,8126,8124,8122,8152,8124,8148,8125,8108,8153,8137,8152,8085,5.985212326049805
78,8170,8153,8143,8146,8134,8175,8118,8188,8121,8110,8171,8186,8185,8104,5.993067979812622
79,8148,8160,8143,8155,8142,8154,8106,8158,8129,8107,8155,8161,8158,8086,5.999760627746582
80,8165,8166,8151,8166,8120,8177,8100,8152,8131,8103,8167,8168,8158,8092,6.007761955261231
80,8165,8166,8151,8166,8120,8177,8100,8152,8131,8103,8167,8168,8158,8092,6.00875449180603
81,8177,8167,8155,8170,8109,8171,8116,8160,8131,8122,8178,8186,8170,8116,6.016213417053223
82,8152,8164,8155,8166,8154,8153,8132,8145,8135,8137,8168,8155,8159,8125,6.023771524429321
82,8152,8164,8155,8166,8154,8153,8132,8145,8135,8137,8168,8155,8159,8125,6.024800062179565
83,8177,8169,8157,8160,8173,8185,8117,8192,8126,8111,8177,8177,8185,8116,6.032212734222412
84,8161,8193,8156,8186,8173,8158,8154,8174,8176,8145,8162,8155,8154,8102,6.0404462814331055
84,8161,8193,8156,8186,8173,8158,8154,8174,8176,8145,8162,8155,8154,8102,6.041457891464233
85,8177,8202,8166,8203,8170,8176,8194,8176,8218,8185,8173,8172,8162,8138,6.048211097717285
86,8179,8183,8166,8178,8168,8179,8181,8196,8197,8168,8183,8195,8188,8156,6.056233167648315
87,8150,8186,8162,8177,8191,8144,8176,8166,8194,8157,8166,8160,8160,8138,6.063232421875
88,8200,8209,8178,8200,8189,8183,8176,8197,8201,8157,8179,8199,8180,8148,6.070858240127564
89,8194,8225,8195,8221,8189,8177,8205,8177,8233,8197,8182,8195,8167,8166,6.079157829284668
90,8187,8226,8197,8217,8200,8170,8213,8172,8243,8216,8191,8197,8175,8191,6.087162733078003
91,8189,8205,8178,8196,8188,8166,8172,8197,8199,8176,8183,8213,8193,8175,6.095186710357666
92,8159,8186,8160,8194,8175,8153,8160,8156,8192,8166,8156,8173,8151,8139,6.103273630142212
93,8194,8177,8166,8187,8156,8192,8173,8176,8202,8171,8175,8200,8175,8152,6.110956907272339
94,8178,8182,8168,8180,8170,8162,8190,8166,8200,8174,8182,8186,8176,8168,6.118948698043823
95,8170,8189,8166,8185,8185,8157,8169,8157,8175,8163,8182,8181,8166,8162,6.127174615859985
96,8191,8195,8171,8193,8175,8184,8140,8188,8161,8151,8177,8214,8181,8144,6.134599447250366
97,8158,8208,8170,8204,8176,8157,8145,8156,8176,8161,8154,8177,8148,8120,6.141610622406006
98,8169,8198,8157,8185,8153,8175,8128,8171,8144,8132,8166,8192,8160,8108,6.149652004241943
99,8160,8188,8156,8179,8151,8163,8143,8164,8143,8140,8167,8188,8162,8112,6.157651662826538
99,8160,8188,8156,8179,8151,8163,8143,8164,8143,8140,8167,8188,8162,8112,6.158649682998657
100,8163,8199,8168,8194,8178,8169,8178,8153,8179,8187,8173,8179,8162,8142,6.166214942932129
101,8182,8194,8158,8181,8186,8186,8164,8187,8171,8186,8185,8199,8179,8146,6.174216985702515
102,8149,8191,8154,8186,8211,8148,8176,8162,8186,8202,8174,8168,8155,8139,6.182245254516602
103,8182,8197,8170,8203,8210,8181,8190,8192,8193,8206,8186,8202,8189,8158,6.189244031906128
104,8176,8194,8166,8206,8194,8177,8191,8189,8192,8193,8174,8200,8179,8138,6.197756767272949
105,8150,8196,8161,8213,8191,8165,8201,8151,8197,8196,8165,8177,8147,8121,6.205207109451294
106,8171,8189,8162,8202,8190,8190,8195,8174,8160,8163,8179,8214,8179,8135,6.213227987289429
107,8144,8174,8156,8192,8208,8158,8191,8146,8140,8137,8162,8183,8160,8125,6.221223592758179
107,8144,8174,8156,8192,8208,8158,8191,8146,8140,8137,8162,8183,8160,8125,6.221761703491211
108,8170,8170,8159,8199,8195,8177,8156,8166,8133,8133,8175,8194,8168,8115,6.229214906692505
109,8174,8177,8159,8208,8182,8180,8137,8177,8137,8156,8177,8193,8166,8106,6.23717737197876
110,8159,8183,8166,8215,8195,8166,8166,8149,8162,8178,8170,8167,8148,8121,6.244964361190796
111,8193,8182,8173,8208,8180,8182,8162,8185,8159,8156,8192,8209,8189,8149,6.253041744232178
112,8165,8182,8163,8207,8174,8152,8151,8166,8147,8158,8180,8179,8169,8132,6.260042428970337
113,8175,8175,8166,8207,8172,8179,8151,8169,8133,8154,8175,8174,8160,8114,6.268216133117676
114,8177,8169,8165,8205,8173,8183,8168,8170,8147,8149,8170,8187,8166,8110,6.276214599609375
115,8152,8174,8148,8205,8181,8157,8188,8146,8172,8175,8164,8169,8157,8121,6.283954858779907
116,8173,8159,8137,8173,8169,8180,8165,8192,8142,8167,8179,8195,8189,8127,6.2919628620147705
117,8142,8149,8139,8167,8166,8155,8160,8165,8142,8168,8161,8169,8158,8098,6.300210952758789
118,8163,8164,8147,8184,8160,8173,8166,8158,8161,8171,8165,8185,8156,8101,6.308210372924805
119,8180,8161,8140,8168,8155,8178,8167,8180,8146,8152,8169,8203,8180,8114,6.315977096557617
120,8143,8145,8132,8154,8181,8148,8186,8155,8139,8145,8155,8166,8156,8111,6.32297945022583
121,8173,8147,8142,8163,8185,8182,8175,8192,8134,8139,8173,8201,8177,8108,6.33121132850647
122,8168,8165,8150,8182,8167,8166,8174,8170,8162,8166,8162,8186,8158,8092,6.339008092880249
123,8166,8155,8144,8168,8144,8164,8175,8155,8168,8173,8155,8179,8156,8105,6.34675669670105
124,8172,8136,8135,8139,8147,8165,8168,8187,8134,8149,8167,8199,8180,8120,6.3547539710998535
124,8172,8136,8135,8139,8147,8165,8168,8187,8134,8149,8167,8199,8180,8120,6.355742692947388
125,8156,8160,8144,8165,8178,8147,8181,8165,8150,8176,8167,8172,8153,8116,6.363211154937744
126,8196,8181,8155,8189,8172,8188,8187,8194,8172,8200,8181,8204,8174,8122,6.370812654495239
126,8196,8181,8155,8189,8172,8188,8187,8194,8172,8200,8181,8204,8174,8122,6.371833086013794
127,8171,8167,8139,8175,8184,8167,8223,8184,8185,8204,8168,8191,8168,8126,6.379124879837036
241,8161,8155,8133,8161,8206,8163,8237,8168,8177,8190,8167,8177,8165,8140,6.386128664016724
0,8183,8169,8145,8166,8182,8179,8212,8186,8162,8167,8172,8202,8182,8132,6.394211292266846
1,8154,8183,8151,8189,8180,8152,8228,8149,8189,8181,8160,8178,8146,8113,6.402183771133423
2,8185,8172,8154,8184,8183,8180,8223,8173,8181,8170,8177,8211,8167,8131,6.410183429718018
3,8178,8165,8157,8174,8192,8165,8209,8175,8172,8166,8171,8206,8168,8141,6.418210744857788
4,8168,8173,8164,8190,8207,8162,8203,8163,8184,8186,8164,8190,8158,8140,6.426211833953857
5,8192,8174,8163,8196,8201,8188,8182,8189,8176,8191,8179,8216,8181,8134,6.434235095977783
6,8165,8176,8157,8195,8201,8160,8194,8150,8200,8212,8167,8180,8149,8125,6.442170143127441
7,8188,8171,8159,8181,8183,8179,8203,8170,8202,8207,8175,8205,8168,8145,6.450179815292358
8,8182,8170,8159,8180,8202,8166,8201,8179,8184,8197,8173,8214,8182,8151,6.457175016403198
9,8173,8195,8171,8205,8242,8161,8204,8165,8197,8206,8168,8191,8165,8141,6.4652135372161865
10,8203,8203,8180,8207,8220,8190,8208,8196,8208,8202,8179,8220,8183,8145,6.473211288452148
11,8168,8182,8167,8194,8188,8155,8222,8155,8201,8207,8163,8192,8157,8147,6.481212139129639
12,8177,8166,8158,8176,8177,8171,8190,8169,8157,8177,8165,8201,8171,8144,6.4892051219940186
13,8178,8167,8158,8173,8184,8173,8169,8187,8149,8162,8160,8199,8174,8117,6.4970293045043945
14,8164,8172,8160,8186,8181,8165,8191,8149,8180,8188,8153,8168,8145,8103,6.505045652389526
15,8189,8169,8159,8177,8162,8188,8189,8171,8164,8168,8170,8199,8170,8117,6.513211488723755
16,8161,8172,8161,8177,8181,8156,8203,8160,8167,8165,8159,8177,8161,8128,6.520211458206177
17,8173,8161,8163,8178,8174,8170,8201,8175,8169,8166,8165,8186,8173,8132,6.528172016143799
18,8167,8134,8144,8157,8142,8169,8173,8169,8148,8147,8157,8183,8168,8091,6.536211729049683
19,8138,8131,8137,8151,8145,8155,8171,8128,8153,8149,8143,8147,8137,8075,6.54389500617981
20,8165,8135,8142,8147,8148,8188,8170,8173,8146,8147,8168,8190,8177,8111,6.5518882274627686
21,8137,8133,8130,8141,8159,8153,8174,8164,8138,8152,8156,8168,8169,8097,6.560211420059204
22,8154,8152,8137,8158,8158,8158,8168,8171,8134,8145,8150,8169,8167,8081,6.56821084022522
23,8179,8180,8152,8181,8150,8179,8180,8185,8153,8148,8168,8199,8175,8105,6.575940608978272
24,8157,8182,8153,8187,8181,8161,8209,8142,8186,8181,8171,8175,8154,8134,6.5842790603637695
25,8179,8164,8149,8168,8179,8177,8182,8178,8156,8151,8174,8199,8184,8132,6.590951681137085
26,8157,8160,8145,8167,8142,8149,8167,8165,8136,8119,8149,8173,8156,8094,6.599174499511719
27,8159,8156,8146,8167,8122,8163,8163,8140,8140,8116,8155,8161,8140,8082,6.607174396514893
28,8169,8141,8144,8143,8134,8176,8155,8169,8136,8113,8168,8187,8174,8096,6.614906072616577
29,8144,8152,8153,8153,8164,8150,8182,8162,8160,8146,8159,8169,8166,8115,6.623211145401001
30,8173,8167,8154,8169,8151,8182,8178,8189,8161,8167,8180,8197,8185,8124,6.631232738494873
31,8152,8157,8138,8165,8148,8162,8165,8163,8159,8174,8165,8171,8160,8095,6.639480829238892
32,8149,8152,8141,8156,8164,8164,8176,8147,8158,8167,8155,8161,8149,8094,6.647174835205078
33,8172,8157,8146,8148,8152,8184,8183,8176,8141,8150,8175,8197,8182,8109,6.654472589492798
34,8139,8159,8139,8156,8152,8153,8187,8139,8142,8156,8160,8162,8153,8101,6.662471771240234
35,8161,8151,8136,8142,8150,8174,8166,8170,8118,8124,8161,8182,8169,8104,6.670473098754883
36,8153,8151,8136,8138,8156,8165,8165,8182,8116,8109,8159,8178,8168,8091,6.677974462509155
37,8144,8164,8147,8159,8147,8167,8175,8162,8136,8128,8160,8162,8150,8081,6.68571138381958
38,8174,8175,8163,8164,8120,8180,8167,8176,8128,8135,8172,8197,8169,8095,6.693711519241333
38,8174,8175,8163,8164,8120,8180,8167,8176,8128,8135,8172,8197,8169,8095,6.694706439971924
39,8155,8180,8161,8172,8141,8150,8181,8144,8141,8163,8162,8172,8150,8110,6.702212333679199
40,8170,8161,8147,8157,8146,8180,8171,8174,8130,8149,8175,8189,8175,8117,6.710210561752319
41,8150,8144,8131,8132,8140,8166,8159,8177,8119,8132,8167,8176,8169,8084,6.717175006866455
42,8131,8151,8125,8129,8158,8153,8167,8143,8128,8144,8153,8143,8140,8065,6.725280523300171
43,8158,8154,8128,8127,8153,8184,8169,8177,8119,8136,8165,8176,8169,8080,6.733280420303345
44,8133,8161,8129,8135,8151,8158,8199,8161,8139,8150,8160,8155,8156,8094,6.741211652755737
45,8152,8160,8131,8133,8153,8173,8193,8179,8140,8152,8174,8164,8175,8106,6.749212026596069
46,8153,8143,8123,8120,8153,8169,8168,8186,8130,8146,8164,8161,8172,8084,6.757175445556641
47,8140,8150,8130,8136,8146,8159,8183,8153,8158,8177,8152,8138,8143,8078,6.765212059020996
48,8183,8172,8151,8156,8146,8186,8195,8184,8168,8192,8181,8185,8179,8115,6.77328085899353
49,8162,8183,8161,8171,8194,8149,8213,8166,8179,8194,8181,8169,8167,8132,6.780254602432251
50,8170,8188,8167,8173,8192,8166,8216,8182,8188,8193,8184,8179,8173,8133,6.788261651992798
51,8173,8177,8156,8154,8152,8179,8208,8192,8179,8197,8178,8193,8178,8115,6.795262336730957
52,8140,8160,8141,8140,8157,8150,8198,8142,8166,8190,8157,8156,8149,8103,6.803776979446411
53,8156,8149,8133,8124,8143,8165,8164,8173,8130,8147,8164,8172,8174,8105,6.812286615371704
54,8134,8149,8130,8124,8125,8147,8160,8162,8121,8141,8147,8145,8151,8079,6.820181846618652
55,8153,8162,8138,8137,8113,8170,8155,8153,8125,8143,8152,8157,8146,8076,6.828173637390137
56,8165,8164,8139,8140,8116,8181,8138,8164,8118,8137,8165,8185,8165,8095,6.836191177368164
57,8127,8160,8144,8149,8148,8150,8152,8143,8118,8162,8161,8155,8149,8108,6.844211578369141
58,8155,8156,8153,8148,8157,8175,8154,8186,8098,8147,8175,8186,8184,8119,6.851228952407837
59,8138,8157,8148,8146,8157,8151,8169,8169,8109,8142,8162,8166,8173,8107,6.85923433303833
60,8131,8165,8145,8151,8144,8155,8186,8156,8128,8161,8165,8153,8161,8112,6.867174863815308
60,8131,8165,8145,8151,8144,8155,8186,8156,8128,8161,8165,8153,8161,8112,6.867707014083862
61,8155,8166,8149,8150,8141,8178,8180,8189,8124,8148,8173,8181,8183,8113,6.875213384628296
62,8138,8165,8148,8159,8176,8158,8192,8161,8149,8161,8159,8154,8158,8101,6.883201360702515
63,8160,8162,8141,8155,8162,8185,8184,8177,8142,8168,8174,8177,8169,8099,6.890650272369385
63,8160,8162,8141,8155,8162,8185,8184,8177,8142,8168,8174,8177,8169,8099,6.8916425704956055
64,8140,8165,8132,8148,8146,8165,8182,8160,8126,8161,8167,8171,8155,8091,6.899181604385376
65,8139,8168,8132,8151,8165,8164,8189,8153,8126,8159,8168,8169,8159,8102,6.907175540924072
66,8162,8157,8135,8139,8149,8180,8176,8192,8104,8152,8176,8197,8191,8105,6.914203643798828
67,8123,8150,8133,8136,8139,8146,8166,8147,8100,8157,8148,8153,8146,8077,6.922200679779053
68,8142,8140,8126,8127,8136,8172,8138,8151,8082,8122,8155,8166,8152,8065,6.933446884155273
69,8144,8142,8118,8116,8115,8163,8141,8153,8073,8106,8155,8169,8166,8073,6.938446044921875
69,8144,8142,8118,8116,8115,8163,8141,8153,8073,8106,8155,8169,8166,8073,6.93852424621582
70,8140,8157,8135,8130,8110,8154,8158,8148,8085,8127,8153,8165,8162,8101,6.945575952529907
70,8140,8157,8135,8130,8110,8154,8158,8148,8085,8127,8153,8165,8162,8101,6.9465320110321045
71,8163,8157,8150,8142,8130,8172,8137,8184,8085,8115,8168,8196,8178,8101,6.954530715942383
72,8136,8157,8139,8149,8158,8148,8154,8147,8112,8127,8154,8153,8144,8074,6.961530685424805
72,8136,8157,8139,8149,8158,8148,8154,8147,8112,8127,8154,8153,8144,8074,6.9625303745269775
73,8172,8165,8137,8148,8152,8181,8177,8163,8126,8146,8164,8176,8165,8097,6.9695305824279785
74,8180,8174,8144,8152,8153,8173,8177,8179,8118,8158,8168,8189,8178,8116,6.976530075073242
74,8180,8174,8144,8152,8153,8173,8177,8179,8118,8158,8168,8189,8178,8116,6.978532075881958
75,8156,8181,8148,8161,8159,8148,8172,8159,8109,8174,8160,8157,8160,8107,6.9845356941223145
75,8156,8181,8148,8161,8159,8148,8172,8159,8109,8174,8160,8157,8160,8107,6.985533714294434
76,8181,8171,8147,8143,8131,8177,8154,8184,8094,8149,8165,8180,8179,8093,6.993533611297607
77,8158,8162,8144,8144,8135,8158,8166,8149,8119,8161,8157,8159,8154,8087,7.001041650772095
78,8176,8175,8161,8160,8154,8170,8172,8155,8119,8188,8175,8187,8168,8118,7.009042263031006
79,8177,8185,8168,8168,8144,8162,8173,8162,8093,8174,8171,8197,8171,8117,7.017225980758667
80,8144,8174,8147,8169,8132,8154,8186,8137,8109,8154,8151,8152,8144,8093,7.0246758460998535
81,8172,8157,8141,8158,8136,8188,8178,8174,8121,8147,8167,8179,8177,8104,7.033534288406372
82,8156,8160,8155,8166,8155,8148,8192,8154,8132,8176,8161,8170,8161,8114,7.040542364120483
82,8156,8160,8155,8166,8155,8148,8192,8154,8132,8176,8161,8170,8161,8114,7.041534423828125
83,8165,8169,8153,8170,8137,8157,8194,8167,8121,8160,8168,8188,8166,8117,7.048211812973023
84,8164,8159,8130,8149,8130,8171,8185,8184,8100,8125,8166,8191,8177,8100,7.056180953979492
85,8133,8153,8121,8141,8153,8155,8202,8148,8116,8155,8149,8148,8150,8092,7.064180612564087
86,8164,8158,8130,8139,8135,8182,8202,8186,8097,8164,8172,8189,8179,8115,7.072115659713745
87,8147,8170,8141,8150,8164,8151,8215,8171,8097,8159,8171,8188,8167,8123,7.080120325088501
88,8146,8176,8155,8160,8183,8158,8217,8168,8109,8153,8170,8185,8170,8121,7.08812952041626
89,8155,8165,8153,8152,8129,8177,8205,8185,8092,8155,8170,8197,8179,8105,7.095301151275635
90,8142,8166,8152,8163,8126,8161,8223,8141,8110,8171,8158,8174,8140,8100,7.103817224502564
91,8184,8180,8170,8175,8160,8181,8222,8171,8127,8147,8176,8213,8172,8124,7.1112120151519775
92,8167,8196,8182,8192,8191,8151,8233,8174,8142,8158,8172,8199,8177,8133,7.1189799308776855
93,8170,8202,8186,8207,8199,8163,8242,8169,8140,8197,8172,8190,8164,8138,7.1268630027771
94,8191,8194,8177,8200,8178,8185,8224,8182,8123,8202,8172,8210,8170,8124,7.1348631381988525
94,8191,8194,8177,8200,8178,8185,8224,8182,8123,8202,8172,8210,8170,8124,7.135859489440918
95,8149,8191,8156,8186,8179,8154,8228,8145,8135,8194,8155,8171,8145,8106,7.142969846725464
96,8167,8185,8142,8170,8184,8181,8228,8177,8135,8151,8166,8192,8172,8122,7.150961875915527
97,8159,8178,8137,8167,8191,8165,8229,8173,8138,8148,8162,8177,8170,8123,7.159212350845337
98,8153,8174,8144,8171,8176,8153,8215,8161,8134,8173,8169,8160,8166,8115,7.167174577713013
99,8180,8171,8152,8168,8159,8167,8203,8195,8142,8166,8182,8191,8187,8107,7.174211740493774
100,8162,8191,8163,8192,8194,8151,8235,8154,8176,8197,8165,8168,8151,8109,7.182349681854248
101,8195,8214,8185,8217,8199,8187,8243,8162,8149,8230,8180,8203,8170,8147,7.190356969833374
102,8181,8207,8185,8214,8194,8173,8257,8169,8130,8229,8179,8202,8175,8157,7.198206186294556
103,8158,8189,8166,8201,8262,8157,8271,8165,8148,8202,8167,8176,8160,8145,7.206211566925049
104,8181,8184,8160,8192,8341,8177,8235,8198,8141,8181,8170,8207,8178,8131,7.214197397232056
105,8158,8198,8170,8208,8358,8156,8236,8162,8166,8216,8157,8182,8151,8121,7.22219705581665
106,8188,8213,8189,8217,8330,8185,8258,8177,8198,8224,8179,8210,8177,8157,7.229854345321655
107,8191,8217,8188,8209,8345,8160,8256,8181,8188,8218,8182,8212,8183,8171,7.238545894622803
108,8168,8214,8176,8211,8371,8142,8244,8158,8168,8233,8162,8178,8155,8151,7.245545864105225
109,8190,8213,8177,8213,8337,8192,8246,8197,8181,8227,8173,8211,8173,8149,7.25358247756958
110,8165,8214,8178,8214,8316,8166,8283,8163,8218,8247,8169,8189,8154,8159,7.261211633682251
111,8180,8203,8185,8203,8308,8166,8278,8173,8186,8254,8179,8205,8181,8179,7.269211530685425
112,8188,8204,8198,8207,8326,8169,8270,8203,8179,8249,8186,8224,8193,8176,7.276888608932495
113,8171,8223,8207,8236,8369,8165,8289,8172,8240,8261,8182,8198,8152,8169,7.28511118888855
114,8200,8225,8197,8230,8360,8187,8276,8180,8224,8248,8191,8220,8171,8176,7.293111324310303
115,8181,8233,8185,8227,8364,8153,8284,8156,8203,8279,8178,8200,8165,8187,7.301211357116699
116,8200,8243,8200,8241,8375,8175,8281,8176,8211,8307,8189,8213,8180,8202,7.308197975158691
117,8200,8228,8204,8241,8350,8186,8254,8186,8201,8283,8187,8218,8177,8175,7.316282033920288
118,8170,8224,8196,8250,8345,8163,8272,8144,8208,8275,8171,8189,8137,8163,7.32427978515625
119,8209,8228,8203,8242,8340,8187,8285,8185,8206,8259,8196,8228,8178,8201,7.332212686538696
120,8184,8215,8205,8227,8334,8160,8282,8174,8196,8255,8185,8195,8171,8195,7.3402111530303955
121,8175,8197,8195,8219,8332,8171,8263,8159,8164,8245,8170,8174,8151,8157,7.34821081161499
122,8183,8186,8177,8210,8325,8183,8256,8169,8147,8230,8171,8195,8160,8141,7.356211423873901
123,8162,8181,8181,8214,8320,8157,8279,8146,8196,8243,8169,8182,8150,8164,7.364286661148071
124,8194,8172,8198,8215,8312,8184,8267,8190,8206,8238,8183,8220,8188,8185,7.372211217880249
125,8170,8171,8186,8215,8325,8166,8263,8173,8174,8241,8160,8190,8165,8148,7.379231929779053
126,8166,8187,8175,8216,8305,8168,8269,8150,8156,8245,8158,8172,8153,8135,7.387239694595337
127,8191,8190,8176,8209,8291,8180,8255,8176,8162,8226,8175,8203,8183,8161,7.395206928253174
241,8167,8182,8183,8217,8337,8156,8259,8156,8184,8215,8163,8172,8158,8166,7.403212070465088
0,8197,8191,8199,8234,8329,8186,8262,8189,8185,8211,8178,8203,8175,8171,7.411210775375366
1,8192,8211,8205,8247,8314,8168,8274,8173,8203,8249,8179,8201,8166,8172,7.419419527053833
2,8186,8197,8202,8239,8325,8165,8276,8148,8205,8261,8176,8186,8159,8181,7.427419662475586
3,8197,8167,8193,8206,8308,8181,8246,8185,8164,8207,8176,8211,8182,8173,7.435211896896362
4,8163,8177,8188,8212,8298,8152,8243,8163,8184,8204,8156,8179,8149,8152,7.442210912704468
5,8195,8188,8190,8225,8263,8187,8240,8177,8210,8220,8170,8197,8168,8162,7.450212001800537
6,8189,8171,8188,8207,8250,8176,8256,8168,8201,8224,8168,8195,8174,8166,7.458211183547974
7,8174,8166,8186,8200,8291,8158,8267,8159,8185,8225,8163,8177,8161,8169,7.466372728347778
8,8191,8165,8168,8190,8299,8177,8227,8194,8161,8191,8174,8197,8180,8147,7.474374055862427
9,8154,8161,8151,8187,8255,8150,8218,8148,8176,8187,8156,8162,8147,8109,7.482215166091919
9,8154,8161,8151,8187,8255,8150,8218,8148,8176,8187,8156,8162,8147,8109,7.482831239700317
10,8180,8167,8164,8196,8221,8174,8219,8154,8171,8203,8170,8187,8165,8124,7.489840745925903
11,8180,8162,8167,8197,8263,8168,8211,8164,8138,8195,8174,8188,8175,8128,7.497889041900635
12,8145,8135,8161,8179,8288,8155,8207,8150,8135,8164,8163,8165,8157,8110,7.506286144256592
13,8168,8127,8165,8166,8221,8183,8191,8186,8134,8143,8173,8205,8180,8109,7.512543439865112
13,8168,8127,8165,8166,8221,8183,8191,8186,8134,8143,8173,8205,8180,8109,7.513549566268921
14,8156,8156,8170,8195,8192,8158,8201,8150,8160,8178,8163,8178,8154,8111,7.520556449890137
14,8156,8156,8170,8195,8192,8158,8201,8150,8160,8178,8163,8178,8154,8111,7.521549224853516
15,8168,8153,8171,8193,8218,8176,8194,8158,8170,8171,8172,8185,8167,8126,7.529211044311523
16,8157,8122,8163,8158,8237,8171,8177,8180,8151,8146,8171,8199,8182,8118,7.537578344345093
17,8135,8131,8155,8162,8230,8150,8174,8150,8143,8157,8156,8169,8150,8100,7.545658588409424
18,8168,8143,8145,8163,8182,8184,8163,8170,8135,8144,8167,8196,8168,8101,7.553675413131714
19,8143,8138,8143,8149,8187,8160,8182,8142,8139,8150,8158,8176,8157,8107,7.560700416564941
19,8143,8138,8143,8149,8187,8160,8182,8142,8139,8150,8158,8176,8157,8107,7.561694383621216
20,8151,8137,8152,8140,8232,8166,8174,8153,8109,8131,8161,8183,8166,8115,7.567694425582886
20,8151,8137,8152,8140,8232,8166,8174,8153,8109,8131,8161,8183,8166,8115,7.568695068359375
21,8159,8145,8150,8144,8211,8171,8162,8186,8119,8106,8165,8195,8173,8100,7.575795650482178
22,8140,8156,8154,8168,8188,8164,8199,8148,8190,8157,8160,8166,8145,8095,7.583795309066772
23,8169,8147,8149,8156,8221,8189,8185,8160,8159,8154,8170,8186,8169,8105,7.592210531234741
24,8135,8136,8123,8129,8232,8145,8157,8148,8100,8103,8152,8149,8161,8082,7.600207090377808
25,8138,8145,8133,8141,8176,8161,8169,8162,8116,8111,8165,8156,8168,8088,7.608209371566772
26,8163,8152,8153,8161,8181,8190,8199,8185,8161,8156,8178,8192,8174,8110,7.616211652755737
27,8134,8154,8143,8164,8240,8156,8228,8143,8182,8171,8155,8153,8140,8112,7.623207569122314
28,8152,8138,8130,8133,8203,8171,8205,8173,8145,8124,8165,8178,8177,8106,7.631192684173584
29,8132,8117,8118,8113,8173,8154,8181,8165,8136,8107,8153,8168,8169,8079,7.639200210571289
30,8134,8122,8116,8119,8193,8162,8173,8149,8163,8122,8146,8149,8149,8070,7.64719820022583
31,8156,8134,8127,8121,8179,8180,8170,8169,8166,8119,8155,8175,8163,8075,7.655211687088013
32,8128,8138,8136,8137,8169,8156,8185,8142,8181,8130,8153,8163,8143,8081,7.662586450576782
32,8128,8138,8136,8137,8169,8156,8185,8142,8181,8130,8153,8163,8143,8081,7.66357684135437
33,8160,8142,8144,8146,8172,8177,8181,8177,8186,8124,8174,8200,8177,8106,7.671212911605835
34,8155,8156,8157,8155,8211,8154,8196,8171,8195,8143,8169,8195,8175,8116,7.678632736206055
34,8155,8156,8157,8155,8211,8154,8196,8171,8195,8143,8169,8195,8175,8116,7.679630279541016
35,8144,8158,8155,8168,8230,8153,8196,8151,8179,8152,8160,8179,8158,8115,7.686212301254272
36,8158,8145,8134,8160,8184,8175,8156,8179,8124,8102,8162,8201,8180,8092,7.694183588027954
37,8126,8148,8129,8156,8178,8150,8155,8139,8126,8094,8144,8165,8146,8066,7.702212333679199
38,8154,8146,8139,8153,8173,8176,8159,8151,8135,8107,8159,8186,8158,8088,7.710211515426636
39,8151,8139,8136,8155,8168,8164,8168,8161,8126,8110,8163,8187,8168,8104,7.718258619308472
40,8140,8156,8138,8164,8198,8155,8158,8154,8124,8109,8159,8168,8162,8099,7.726916074752808
41,8161,8159,8135,8153,8186,8179,8113,8177,8115,8087,8165,8192,8182,8080,7.733916997909546
42,8121,8150,8122,8148,8162,8151,8121,8129,8137,8095,8149,8149,8147,8059,7.742207050323486
43,8149,8163,8133,8158,8177,8179,8155,8157,8147,8111,8170,8175,8167,8098,7.750211715698242
44,8164,8178,8144,8167,8214,8176,8174,8191,8151,8125,8176,8203,8183,8122,7.757706880569458
44,8164,8178,8144,8167,8214,8176,8174,8191,8151,8125,8176,8203,8183,8122,7.75870680809021
45,8144,8176,8141,8168,8211,8155,8175,8158,8162,8127,8157,8175,8153,8096,7.765707969665527
46,8172,8179,8140,8168,8178,8182,8165,8168,8150,8112,8167,8204,8168,8088,7.773498058319092
47,8154,8189,8140,8185,8201,8157,8199,8146,8159,8135,8163,8191,8154,8105,7.780815839767456
48,8167,8183,8146,8185,8218,8172,8211,8175,8161,8139,8181,8204,8175,8126,7.789421319961548
49,8173,8181,8148,8181,8206,8172,8191,8193,8183,8151,8185,8212,8180,8108,7.796947240829468
50,8155,8195,8145,8198,8218,8158,8199,8147,8230,8199,8163,8181,8148,8098,7.805212259292602
51,8181,8190,8149,8187,8228,8188,8207,8181,8232,8183,8178,8216,8186,8127,7.813212156295776
52,8159,8183,8156,8182,8237,8160,8230,8181,8244,8181,8177,8199,8173,8137,7.821213960647583
53,8169,8182,8151,8195,8211,8171,8218,8175,8242,8190,8171,8192,8160,8122,7.829211235046387
54,8177,8173,8135,8187,8181,8180,8190,8169,8208,8163,8160,8197,8163,8102,7.836211681365967
55,8153,8189,8143,8193,8216,8158,8219,8147,8205,8170,8159,8180,8151,8126,7.844254732131958
56,8187,8204,8163,8202,8234,8186,8220,8193,8192,8167,8182,8223,8189,8156,7.852212905883789
56,8187,8204,8163,8202,8234,8186,8220,8193,8192,8167,8182,8223,8189,8156,7.852552890777588
57,8163,8191,8151,8197,8210,8163,8207,8168,8193,8154,8164,8192,8163,8123,7.860212087631226
58,8168,8191,8150,8198,8200,8172,8225,8162,8222,8167,8169,8191,8154,8128,7.868549346923828
59,8201,8211,8169,8211,8234,8185,8250,8195,8247,8205,8188,8233,8185,8170,7.87654972076416
60,8178,8220,8171,8233,8259,8156,8265,8165,8265,8239,8175,8203,8168,8173,7.8835883140563965
60,8178,8220,8171,8233,8259,8156,8265,8165,8265,8239,8175,8203,8168,8173,7.884586095809936
61,8194,8209,8163,8221,8221,8182,8236,8193,8242,8210,8179,8216,8183,8156,7.891595840454102
62,8174,8195,8156,8198,8205,8158,8223,8175,8239,8203,8163,8185,8157,8133,7.898823022842407
63,8172,8180,8153,8195,8213,8158,8222,8154,8248,8209,8164,8165,8148,8129,7.907174110412598
64,8183,8175,8148,8191,8206,8183,8204,8177,8219,8178,8171,8196,8175,8122,7.914836406707764
64,8183,8175,8148,8191,8206,8183,8204,8177,8219,8178,8171,8196,8175,8122,7.915832042694092
65,8145,8181,8142,8190,8204,8158,8206,8136,8210,8184,8147,8167,8145,8113,7.9233434200286865
66,8173,8174,8146,8177,8179,8179,8198,8161,8200,8181,8161,8192,8167,8132,7.931344270706177
67,8164,8171,8144,8177,8190,8160,8192,8171,8202,8167,8165,8189,8169,8130,7.93921160697937
68,8150,8178,8147,8190,8194,8158,8181,8159,8210,8173,8157,8168,8155,8113,7.947374105453491
69,8182,8173,8153,8185,8150,8190,8167,8182,8205,8182,8168,8194,8175,8110,7.955207586288452
70,8167,8181,8155,8195,8178,8159,8205,8154,8229,8198,8168,8170,8154,8131,7.963220834732056
71,8188,8187,8155,8200,8218,8171,8212,8183,8218,8176,8181,8191,8176,8153,7.970221042633057
72,8171,8176,8138,8187,8200,8164,8193,8183,8201,8167,8161,8174,8166,8122,7.978264093399048
73,8153,8175,8130,8190,8177,8165,8199,8149,8220,8188,8151,8149,8143,8111,7.986058712005615
74,8184,8176,8138,8187,8182,8185,8207,8177,8216,8192,8172,8197,8182,8140,7.994211912155151
75,8146,8165,8127,8178,8200,8150,8221,8163,8204,8201,8158,8169,8163,8133,8.001758813858032
75,8146,8165,8127,8178,8200,8150,8221,8163,8204,8201,8158,8169,8163,8133,8.002752780914307
76,8156,8151,8116,8165,8174,8177,8197,8188,8188,8180,8161,8169,8168,8113,8.009752988815308
77,8174,8166,8134,8175,8176,8176,8201,8186,8209,8189,8169,8177,8166,8111,8.018415451049805
78,8174,8201,8163,8213,8221,8157,8240,8147,8246,8238,8176,8169,8148,8148,8.026451587677002
79,8192,8194,8165,8211,8201,8181,8211,8186,8216,8209,8187,8203,8182,8164,8.032450675964355
79,8192,8194,8165,8211,8201,8181,8211,8186,8216,8209,8187,8203,8182,8164,8.033451795578003
80,8152,8169,8153,8197,8181,8151,8182,8163,8201,8176,8160,8165,8159,8123,8.041451930999756
81,8172,8174,8159,8199,8194,8172,8177,8150,8203,8176,8163,8171,8158,8115,8.049451351165771
82,8186,8187,8166,8205,8196,8177,8194,8161,8197,8188,8175,8193,8173,8136,8.057451009750366
83,8167,8199,8173,8220,8199,8154,8224,8154,8207,8214,8178,8181,8164,8159,8.06445050239563
83,8167,8199,8173,8220,8199,8154,8224,8154,8207,8214,8178,8181,8164,8159,8.06545090675354
84,8193,8191,8161,8206,8202,8186,8199,8193,8185,8192,8188,8207,8187,8156,8.073453187942505
85,8147,8163,8121,8176,8191,8161,8172,8154,8175,8175,8155,8162,8150,8099,8.08146595954895
86,8144,8149,8109,8159,8155,8166,8182,8152,8180,8183,8151,8157,8149,8092,8.089471101760864
87,8174,8163,8126,8160,8171,8170,8203,8192,8183,8186,8167,8185,8177,8127,8.095470428466797
88,8163,8189,8142,8180,8233,8148,8211,8170,8210,8207,8168,8172,8165,8150,8.103978395462036
88,8163,8189,8142,8180,8233,8148,8211,8170,8210,8207,8168,8172,8165,8150,8.104979038238525
89,8191,8192,8148,8185,8209,8177,8190,8198,8206,8201,8182,8213,8190,8163,8.11221170425415
90,8168,8184,8143,8184,8178,8150,8187,8179,8191,8190,8163,8198,8166,8154,8.119813919067383
91,8166,8179,8145,8182,8192,8160,8174,8165,8178,8182,8156,8189,8156,8147,8.12782335281372
92,8176,8170,8136,8167,8172,8179,8144,8180,8157,8163,8156,8200,8172,8119,8.136205434799194
93,8137,8161,8124,8163,8144,8145,8141,8146,8149,8152,8138,8158,8140,8085,8.14419937133789
94,8162,8148,8133,8155,8129,8166,8126,8172,8123,8127,8152,8184,8162,8093,8.152199268341064
95,8155,8149,8133,8155,8150,8157,8136,8162,8124,8138,8145,8172,8157,8095,8.159210681915283
96,8152,8153,8120,8156,8163,8166,8143,8152,8128,8141,8142,8156,8149,8083,8.167242527008057
97,8160,8140,8113,8137,8131,8179,8116,8175,8109,8107,8151,8178,8169,8069,8.175212144851685
98,8125,8139,8109,8140,8120,8153,8127,8135,8122,8125,8139,8148,8138,8065,8.183039903640747
99,8161,8150,8112,8144,8134,8182,8146,8166,8126,8138,8158,8180,8163,8082,8.191030502319336
100,8159,8152,8113,8140,8156,8161,8152,8174,8121,8133,8160,8180,8177,8092,8.199211359024048
101,8145,8149,8121,8144,8148,8151,8140,8161,8116,8132,8156,8166,8164,8100,8.207175016403198
102,8169,8153,8130,8149,8136,8180,8130,8192,8117,8130,8167,8200,8169,8095,8.214857339859009
102,8169,8153,8130,8149,8136,8180,8130,8192,8117,8130,8167,8200,8169,8095,8.215853691101074
103,8144,8166,8134,8163,8175,8156,8160,8152,8155,8165,8158,8168,8141,8090,8.222123861312866
104,8160,8164,8136,8157,8173,8176,8157,8167,8146,8158,8168,8183,8172,8113,8.230122089385986
105,8153,8153,8135,8150,8143,8163,8154,8179,8130,8136,8164,8185,8171,8107,8.238210916519165
106,8147,8164,8142,8168,8148,8155,8166,8156,8149,8147,8159,8168,8145,8092,8.246379137039185
107,8176,8168,8142,8173,8148,8184,8148,8176,8140,8146,8173,8198,8173,8102,8.253694534301758
107,8176,8168,8142,8173,8148,8184,8148,8176,8140,8146,8173,8198,8173,8102,8.254764318466187
108,8145,8162,8135,8170,8148,8155,8159,8147,8143,8161,8161,8172,8156,8113,8.261710166931152
108,8145,8162,8135,8170,8148,8155,8159,8147,8143,8161,8161,8172,8156,8113,8.262707948684692
109,8159,8160,8138,8159,8134,8171,8146,8169,8130,8146,8163,8185,8170,8115,8.270283937454224
110,8155,8160,8131,8148,8132,8165,8108,8173,8110,8123,8154,8183,8164,8080,8.278211832046509
111,8141,8162,8126,8153,8153,8155,8111,8136,8124,8140,8147,8163,8140,8075,8.286438465118408
112,8185,8170,8142,8157,8151,8183,8135,8176,8120,8149,8167,8211,8184,8121,8.293439388275146
113,8154,8182,8154,8174,8152,8146,8159,8163,8126,8158,8161,8189,8172,8128,8.301453828811646
114,8150,8170,8150,8172,8130,8162,8126,8166,8125,8135,8168,8188,8165,8107,8.30916142463684
115,8159,8152,8136,8149,8123,8172,8103,8167,8115,8121,8164,8192,8165,8088,8.31680679321289
116,8145,8151,8135,8153,8145,8151,8128,8130,8118,8150,8152,8157,8146,8097,8.324820756912231
117,8165,8140,8139,8145,8117,8174,8106,8172,8085,8127,8166,8183,8178,8104,8.333211898803711
118,8131,8136,8128,8133,8099,8149,8084,8159,8081,8097,8145,8161,8160,8066,8.341212034225464
119,8145,8159,8133,8148,8114,8165,8092,8149,8107,8099,8148,8164,8156,8061,8.349210977554321
120,8161,8168,8142,8157,8126,8173,8107,8161,8117,8115,8164,8183,8172,8082,8.356132984161377
121,8137,8163,8139,8161,8144,8146,8115,8138,8117,8124,8154,8157,8153,8094,8.364258527755737
122,8175,8170,8144,8164,8140,8176,8093,8178,8105,8099,8168,8192,8179,8099,8.372397899627686
123,8162,8188,8158,8179,8146,8163,8105,8163,8140,8129,8166,8183,8160,8091,8.380344867706299
124,8171,8199,8172,8197,8149,8171,8130,8150,8159,8185,8178,8192,8155,8124,8.388251304626465
125,8192,8187,8167,8193,8133,8175,8120,8177,8126,8179,8189,8217,8185,8152,8.39627981185913
126,8159,8186,8158,8191,8133,8142,8113,8150,8133,8149,8169,8169,8161,8122,8.403991937637329
127,8182,8187,8166,8187,8129,8173,8100,8172,8141,8132,8175,8183,8168,8106,8.411983966827393
241,8174,8173,8167,8188,8134,8162,8117,8152,8147,8161,8169,8179,8154,8112,8.420205116271973
0,8167,8164,8158,8181,8141,8155,8122,8148,8141,8153,8165,8172,8164,8121,8.42716908454895
1,8171,8165,8151,8166,8126,8167,8092,8192,8111,8106,8171,8191,8193,8107,8.435212135314941
2,8134,8169,8157,8193,8125,8150,8098,8150,8123,8131,8160,8164,8151,8085,8.443234920501709
3,8161,8161,8155,8210,8110,8184,8104,8158,8133,8143,8164,8198,8168,8100,8.451236963272095
4,8152,8153,8133,8192,8107,8157,8104,8160,8120,8115,8150,8189,8173,8099,8.459211349487305
5,8144,8154,8135,8183,8128,8144,8101,8153,8113,8114,8152,8171,8155,8088,8.467175245285034
6,8169,8150,8145,8183,8116,8175,8093,8180,8122,8132,8171,8208,8175,8080,8.475280523300171
7,8144,8160,8138,8200,8115,8152,8116,8134,8151,8155,8159,8177,8152,8081,8.483209609985352
7,8144,8160,8138,8200,8115,8152,8116,8134,8151,8155,8159,8177,8152,8081,8.484198808670044
8,8170,8168,8142,8202,8132,8170,8120,8156,8137,8126,8170,8191,8172,8107,8.49020767211914
9,8154,8150,8130,8183,8143,8160,8109,8176,8115,8105,8161,8183,8168,8083,8.497712135314941
10,8120,8136,8109,8174,8135,8155,8110,8145,8121,8130,8143,8144,8143,8047,8.506437063217163
11,8152,8145,8115,8171,8116,8181,8116,8164,8127,8135,8158,8183,8176,8068,8.514211177825928
12,8144,8167,8132,8182,8143,8143,8149,8149,8153,8146,8157,8177,8167,8102,8.522211790084839
13,8163,8174,8137,8186,8148,8159,8154,8175,8144,8138,8163,8186,8176,8105,8.529614448547363
14,8159,8169,8130,8179,8129,8164,8157,8178,8137,8124,8155,8180,8167,8076,8.537621974945068
14,8159,8169,8130,8179,8129,8164,8157,8178,8137,8124,8155,8180,8167,8076,8.538622617721558
15,8141,8163,8132,8181,8140,8156,8176,8139,8169,8133,8151,8153,8145,8083,8.546624183654785
16,8165,8150,8126,8161,8142,8179,8142,8171,8143,8113,8167,8178,8174,8094,8.55321216583252
17,8130,8143,8117,8149,8140,8145,8122,8155,8118,8113,8148,8147,8147,8058,8.561211824417114
18,8139,8145,8120,8152,8119,8165,8122,8155,8127,8112,8145,8159,8154,8046,8.56921100616455
19,8147,8141,8110,8148,8115,8177,8121,8160,8128,8106,8147,8170,8170,8049,8.577307939529419
20,8124,8140,8111,8147,8139,8151,8122,8139,8120,8120,8140,8138,8152,8050,8.585322141647339
21,8157,8143,8129,8144,8130,8174,8100,8183,8109,8104,8159,8177,8183,8060,8.593335151672363
22,8144,8161,8133,8163,8128,8157,8114,8153,8150,8120,8158,8166,8159,8061,8.60119366645813
23,8160,8176,8138,8179,8118,8171,8138,8143,8165,8149,8161,8167,8156,8082,8.60919189453125
24,8166,8154,8131,8159,8120,8171,8130,8168,8123,8122,8155,8181,8181,8084,8.617175579071045
25,8121,8134,8112,8142,8142,8140,8117,8138,8113,8108,8136,8137,8151,8054,8.624213695526123
26,8146,8138,8110,8138,8109,8173,8096,8164,8114,8120,8152,8151,8167,8047,8.632212400436401
27,8145,8155,8130,8161,8112,8158,8130,8154,8149,8158,8158,8147,8166,8068,8.639729499816895
28,8153,8168,8144,8177,8153,8162,8167,8159,8179,8168,8172,8163,8174,8107,8.647732496261597
29,8165,8165,8138,8160,8140,8176,8148,8192,8168,8151,8173,8185,8189,8101,8.655732870101929
30,8146,8167,8136,8161,8125,8153,8147,8151,8179,8164,8147,8142,8152,8070,8.664212226867676
31,8175,8160,8130,8155,8113,8175,8137,8164,8171,8140,8165,8161,8164,8068,8.672212600708008
32,8143,8144,8108,8136,8101,8153,8117,8151,8154,8128,8160,8143,8155,8057,8.679991722106934
33,8136,8138,8115,8135,8092,8154,8110,8136,8154,8143,8149,8135,8154,8060,8.687028169631958
34,8174,8145,8133,8134,8088,8173,8110,8172,8140,8132,8164,8172,8186,8077,8.695027351379395
35,8140,8145,8120,8133,8110,8144,8118,8149,8125,8135,8156,8134,8157,8062,8.703213453292847
36,8144,8132,8112,8128,8111,8172,8093,8173,8105,8124,8156,8148,8166,8044,8.71121096611023
37,8140,8144,8129,8138,8104,8164,8098,8171,8140,8141,8148,8155,8162,8044,8.71924376487732
38,8149,8173,8148,8168,8112,8159,8138,8147,8183,8185,8163,8149,8155,8084,8.727235555648804
39,8178,8180,8152,8178,8116,8176,8145,8183,8161,8179,8187,8183,8185,8113,8.735211372375488
40,8148,8183,8149,8181,8143,8139,8150,8168,8176,8169,8166,8150,8155,8096,8.74321174621582
41,8176,8192,8163,8182,8155,8170,8154,8188,8212,8177,8178,8166,8169,8102,8.751211166381836
42,8185,8194,8172,8191,8155,8175,8175,8181,8225,8212,8183,8179,8175,8121,8.7582106590271
43,8171,8196,8162,8201,8175,8157,8190,8148,8219,8224,8167,8159,8153,8137,8.766211748123169
44,8187,8185,8151,8184,8178,8175,8153,8185,8188,8173,8171,8180,8178,8125,8.774242639541626
45,8153,8179,8151,8182,8160,8148,8140,8160,8196,8173,8162,8151,8155,8088,8.782326698303223
46,8175,8189,8158,8195,8135,8169,8153,8161,8210,8191,8174,8173,8161,8101,8.790325164794922
47,8189,8197,8159,8194,8156,8171,8175,8167,8208,8186,8177,8192,8174,8128,8.798211097717285
48,8164,8192,8158,8195,8186,8150,8182,8156,8209,8196,8167,8172,8161,8128,8.806211233139038
49,8176,8173,8147,8181,8152,8171,8141,8200,8180,8173,8175,8200,8179,8107,8.813997507095337
50,8149,8170,8139,8180,8141,8153,8142,8157,8176,8162,8158,8166,8148,8085,8.82099723815918
51,8173,8190,8159,8196,8152,8176,8161,8151,8185,8177,8165,8175,8158,8116,8.828997135162354
52,8182,8195,8163,8197,8145,8169,8158,8184,8175,8173,8172,8199,8181,8128,8.837175369262695
53,8141,8176,8143,8187,8147,8139,8150,8147,8165,8153,8151,8157,8153,8088,8.845199584960938
54,8166,8160,8137,8168,8126,8181,8130,8158,8153,8137,8161,8182,8169,8075,8.853199481964111
55,8162,8170,8145,8169,8137,8165,8152,8148,8184,8170,8165,8180,8158,8100,8.861191272735596
56,8164,8170,8145,8169,8163,8163,8148,8161,8176,8161,8168,8174,8165,8109,8.869192600250244
57,8164,8147,8122,8149,8145,8168,8106,8173,8127,8112,8155,8164,8172,8056,8.877196073532104
58,8142,8154,8116,8161,8132,8151,8120,8127,8146,8141,8143,8133,8140,8034,8.885194778442383
59,8176,8163,8135,8171,8125,8180,8137,8164,8165,8167,8175,8184,8178,8086,8.891584396362305
60,8151,8141,8133,8149,8127,8153,8131,8167,8149,8152,8165,8170,8176,8087,8.90012240409851
61,8147,8139,8123,8135,8120,8156,8120,8160,8129,8144,8152,8155,8165,8062,8.908210754394531
62,8181,8160,8133,8149,8127,8183,8136,8180,8136,8164,8168,8188,8184,8073,8.915700674057007
63,8162,8166,8145,8168,8158,8159,8177,8144,8169,8180,8171,8161,8154,8094,8.923699378967285
64,8182,8152,8142,8149,8129,8176,8153,8172,8147,8145,8180,8177,8173,8102,8.93221139907837
65,8162,8154,8129,8143,8113,8159,8136,8168,8135,8155,8165,8171,8172,8090,8.940211296081543
66,8154,8162,8135,8164,8151,8159,8162,8153,8160,8188,8168,8171,8169,8109,8.947176218032837
67,8180,8148,8135,8150,8161,8170,8156,8189,8151,8166,8181,8196,8194,8118,8.955290794372559
68,8146,8140,8120,8136,8157,8140,8144,8160,8147,8160,8155,8142,8159,8080,8.963594913482666
69,8163,8153,8125,8148,8154,8175,8146,8174,8149,8157,8159,8151,8166,8066,8.971605777740479
70,8153,8166,8132,8162,8160,8171,8167,8166,8166,8167,8160,8160,8162,8064,8.978612899780273
70,8153,8166,8132,8162,8160,8171,8167,8166,8166,8167,8160,8160,8162,8064,8.979604721069336
71,8144,8168,8134,8171,8157,8162,8173,8141,8183,8196,8159,8152,8151,8083,8.987185955047607
72,8184,8166,8146,8175,8155,8180,8156,8182,8172,8192,8178,8188,8188,8112,8.995211124420166
73,8161,8176,8153,8189,8187,8145,8175,8163,8188,8200,8168,8163,8167,8109,9.00301456451416
74,8170,8183,8153,8185,8172,8168,8171,8172,8195,8203,8169,8176,8166,8099,9.011020421981812
75,8171,8189,8157,8186,8154,8171,8174,8173,8205,8213,8170,8180,8162,8103,9.018009662628174
76,8166,8195,8164,8207,8191,8160,8198,8155,8224,8223,8176,8166,8154,8131,9.026212692260742
77,8193,8178,8160,8194,8194,8184,8170,8193,8187,8180,8187,8197,8189,8133,9.03421187400818
78,8162,8170,8159,8183,8177,8150,8154,8162,8184,8179,8165,8163,8163,8106,9.042211294174194
79,8175,8177,8161,8184,8155,8168,8160,8160,8198,8196,8172,8168,8158,8109,9.050211429595947
80,8173,8166,8137,8169,8140,8173,8165,8160,8169,8186,8172,8170,8163,8100,9.058308124542236
80,8173,8166,8137,8169,8140,8173,8165,8160,8169,8186,8172,8170,8163,8100,9.059323072433472
81,8147,8157,8122,8159,8139,8151,8174,8138,8143,8170,8160,8140,8150,8096,9.06610631942749
82,8176,8159,8128,8157,8142,8174,8158,8192,8128,8133,8167,8174,8179,8103,9.074114084243774
83,8145,8152,8121,8157,8161,8153,8157,8167,8147,8135,8144,8140,8148,8071,9.08116626739502
84,8149,8135,8122,8142,8153,8176,8158,8151,8151,8158,8148,8137,8149,8060,9.08919882774353
85,8167,8139,8132,8137,8143,8178,8161,8168,8141,8170,8164,8167,8175,8082,9.097196102142334
86,8152,8162,8142,8164,8157,8144,8181,8151,8159,8183,8165,8150,8159,8105,9.10521149635315
87,8182,8167,8148,8166,8148,8172,8165,8188,8161,8165,8177,8178,8181,8113,9.113372325897217
88,8162,8175,8149,8169,8158,8156,8168,8163,8180,8185,8166,8164,8163,8100,9.121372938156128
89,8171,8192,8159,8193,8185,8165,8190,8155,8187,8216,8180,8174,8167,8123,9.129372358322144
90,8197,8192,8169,8201,8191,8172,8201,8186,8177,8199,8191,8200,8188,8152,9.137372016906738
91,8179,8195,8176,8209,8203,8152,8209,8158,8197,8198,8171,8166,8157,8147,9.144372463226318
92,8211,8199,8177,8208,8191,8187,8186,8180,8180,8214,8185,8191,8177,8142,9.152371168136597
93,8199,8205,8174,8213,8193,8161,8197,8166,8175,8244,8183,8185,8167,8155,9.160372257232666
94,8204,8223,8190,8233,8216,8156,8220,8168,8204,8240,8183,8193,8166,8189,9.16837215423584
95,8224,8220,8196,8228,8211,8180,8207,8202,8202,8209,8185,8218,8187,8187,9.176372051239014
96,8181,8193,8171,8207,8221,8157,8201,8161,8186,8217,8161,8166,8152,8152,9.184375286102297
97,8194,8172,8152,8184,8215,8174,8187,8180,8161,8196,8167,8179,8172,8146,9.192206621170044
98,8189,8175,8154,8192,8192,8157,8196,8183,8166,8185,8166,8182,8173,8139,9.200214862823486
99,8195,8193,8176,8220,8186,8165,8208,8165,8181,8211,8164,8184,8162,8149,9.20847201347351
100,8220,8203,8187,8224,8182,8185,8180,8181,8172,8209,8172,8208,8180,8160,9.215472221374512
101,8184,8204,8174,8223,8193,8149,8175,8148,8187,8212,8159,8163,8146,8143,9.22321367263794
102,8202,8201,8172,8222,8191,8177,8172,8174,8180,8195,8175,8182,8163,8141,9.231213092803957
103,8196,8198,8172,8226,8197,8170,8168,8172,8170,8190,8174,8181,8166,8134,9.2394917011261
104,8175,8188,8163,8227,8200,8157,8176,8149,8182,8216,8168,8156,8149,8132,9.247178792953491
105,8193,8176,8162,8202,8169,8182,8174,8190,8184,8207,8181,8188,8175,8137,9.255028247833252
106,8167,8181,8164,8198,8147,8158,8178,8157,8197,8198,8162,8162,8148,8122,9.263020038604736
107,8188,8176,8158,8201,8139,8174,8164,8157,8184,8187,8164,8171,8153,8117,9.2712140083313
108,8185,8165,8147,8188,8175,8164,8175,8164,8174,8192,8172,8185,8163,8126,9.278215408325195
109,8169,8180,8151,8190,8217,8151,8198,8152,8189,8214,8175,8181,8162,8145,9.286218166351318
110,8197,8192,8161,8198,8198,8181,8175,8193,8186,8201,8185,8217,8188,8139,9.294207572937012
111,8167,8188,8160,8210,8192,8161,8183,8154,8199,8210,8168,8186,8152,8117,9.30242156982422
112,8180,8191,8158,8203,8197,8179,8198,8153,8187,8220,8177,8199,8160,8135,9.309967279434204
113,8187,8196,8157,8190,8198,8170,8199,8181,8173,8222,8177,8210,8177,8142,9.317965269088743
114,8163,8194,8156,8199,8189,8147,8201,8164,8195,8227,8163,8168,8153,8135,9.326211929321287
115,8187,8180,8146,8196,8167,8183,8170,8187,8183,8205,8174,8192,8173,8125,9.334212064743042
116,8160,8181,8140,8198,8202,8161,8170,8152,8187,8213,8156,8176,8150,8107,9.3422110080719
117,8174,8197,8158,8208,8223,8166,8186,8155,8205,8216,8164,8191,8159,8137,9.349443435668944
118,8194,8199,8164,8206,8193,8173,8188,8186,8210,8206,8182,8215,8188,8166,9.357400178909302
119,8167,8188,8150,8199,8184,8156,8188,8154,8221,8204,8161,8175,8157,8141,9.365399360656738
120,8180,8166,8138,8178,8171,8183,8156,8172,8197,8167,8153,8188,8161,8102,9.373578071594238
121,8153,8160,8131,8172,8170,8158,8158,8154,8192,8186,8147,8169,8145,8083,9.380717754364014
122,8164,8173,8141,8187,8170,8166,8174,8157,8204,8226,8169,8176,8158,8113,9.388736248016356
123,8183,8163,8146,8181,8155,8173,8162,8183,8188,8196,8179,8198,8180,8124,9.397250413894652
124,8150,8153,8141,8181,8181,8144,8164,8153,8191,8187,8151,8160,8145,8098,9.404351234436035
125,8180,8170,8148,8194,8199,8177,8173,8187,8207,8211,8163,8188,8171,8109,9.41235065460205
126,8176,8183,8153,8195,8195,8160,8201,8170,8233,8232,8171,8182,8170,8127,9.42020559310913
127,8180,8170,8153,8180,8186,8159,8202,8152,8228,8211,8170,8178,8159,8132,9.428211212158203
241,8192,8165,8151,8175,8192,8171,8173,8186,8193,8180,8163,8201,8175,8114,9.436229228973389
0,8160,8187,8150,8205,8227,8144,8186,8165,8209,8215,8150,8167,8150,8097,9.444234132766724
1,8198,8200,8159,8214,8210,8182,8192,8187,8234,8246,8176,8198,8172,8121,9.452212572097778
2,8196,8198,8164,8206,8190,8170,8200,8166,8246,8254,8175,8199,8167,8134,9.460210800170898
3,8178,8198,8163,8206,8206,8154,8199,8142,8215,8230,8168,8181,8155,8140,9.46717619895935
4,8196,8199,8159,8202,8209,8169,8182,8188,8182,8191,8179,8211,8187,8143,9.475211143493652
4,8196,8199,8159,8202,8209,8169,8182,8188,8182,8191,8179,8211,8187,8143,9.476237058639526
5,8180,8215,8174,8221,8230,8148,8202,8172,8242,8224,8173,8193,8167,8148,9.483051776885986
6,8212,8217,8191,8232,8227,8182,8201,8178,8269,8251,8187,8217,8172,8164,9.491037845611572
7,8196,8194,8173,8215,8202,8174,8185,8160,8234,8248,8177,8209,8160,8147,9.499504566192629
8,8167,8180,8158,8202,8201,8154,8178,8146,8207,8242,8167,8182,8155,8141,9.507174730300903
9,8199,8176,8170,8198,8203,8178,8153,8193,8199,8224,8190,8218,8190,8152,9.51526665687561
10,8184,8188,8181,8219,8211,8165,8169,8156,8247,8244,8186,8199,8154,8147,9.523273229599
11,8200,8201,8184,8227,8208,8184,8189,8160,8250,8251,8191,8214,8162,8162,9.53127384185791
12,8186,8190,8168,8205,8219,8158,8179,8177,8183,8230,8184,8208,8178,8159,9.53774881362915
13,8163,8177,8152,8198,8224,8141,8177,8158,8173,8226,8174,8173,8159,8140,9.545764446258543
13,8163,8177,8152,8198,8224,8141,8177,8158,8173,8226,8174,8173,8159,8140,9.546756505966188
14,8193,8173,8151,8190,8181,8184,8171,8188,8200,8215,8186,8203,8177,8123,9.554211616516112
15,8164,8173,8153,8182,8160,8164,8172,8149,8200,8220,8158,8166,8141,8095,9.562211275100708
16,8177,8168,8153,8176,8175,8178,8160,8147,8161,8219,8158,8169,8147,8097,9.570210933685305
17,8184,8163,8151,8175,8205,8173,8163,8174,8156,8224,8177,8201,8173,8116,9.578210830688477
18,8161,8175,8161,8192,8217,8152,8187,8160,8210,8247,8175,8186,8156,8124,9.585939168930054
18,8161,8175,8161,8192,8217,8152,8187,8160,8210,8247,8175,8186,8156,8124,9.586934089660645
19,8189,8173,8164,8181,8176,8183,8168,8186,8209,8223,8188,8206,8175,8116,9.593941926956177
