COUNTER,F3, FC5,AF3,F7,T7,P7,O1,O2,P8,T8,F8,AF4,FC6,F4,Timestamp
2, 8120, 8144, 8141, 8151, 8176, 8137, 8173, 8157, 8178, 8157, 8165, 8138, 8142, 8221,0.0074291229248046875
3, 8133, 8159, 8157, 8168, 8182, 8142, 8172, 8167, 8172, 8157, 8146, 8147, 8125, 8220,0.01536870002746582
4, 8149, 8168, 8158, 8163, 8182, 8138, 8160, 8153, 8165, 8145, 8141, 8150, 8122, 8230,0.023534774780273438
5, 8147, 8162, 8157, 8147, 8195, 8136, 8162, 8147, 8164, 8137, 8147, 8144, 8128, 8235,0.03142070770263672
6, 8149, 8152, 8160, 8156, 8200, 8131, 8160, 8160, 8154, 8134, 8154, 8150, 8122, 8234,0.03980064392089844
7, 8146, 8145, 8115, 8156, 8177, 8127, 8155, 8148, 8150, 8137, 8170, 8139, 8125, 8242,0.0475306510925293
8, 8169, 8174, 8187, 8158, 8225, 8133, 8150, 8155, 8155, 8137, 8169, 8150, 8127, 8251,0.05548667907714844
9, 8177, 8163, 8173, 8188, 8158, 8138, 8151, 8153, 8170, 8149, 8177, 8157, 8133, 8260,0.062471628189086914
10, 8171, 8157, 8131, 8185, 8132, 8138, 8133, 8142, 8166, 8154, 8188, 8154, 8141, 8260,0.07067441940307617
11, 8214, 8218, 8326, 8163, 8264, 8146, 8098, 8186, 8134, 8137, 8173, 8195, 8133, 8253,0.07862305641174316
12, 8205, 8188, 8269, 8171, 8160, 8147, 8115, 8172, 8150, 8146, 8204, 8188, 8158, 8269,0.08651161193847656
13, 8165, 8143, 8085, 8191, 8064, 8163, 8156, 8128, 8182, 8168, 8247, 8157, 8197, 8293,0.09441709518432617
14, 8170, 8162, 8129, 8176, 8147, 8183, 8160, 8143, 8163, 8164, 8225, 8159, 8184, 8288,0.10229039192199707
15, 8152, 8145, 8131, 8140, 8138, 8160, 8150, 8148, 8143, 8146, 8192, 8141, 8148, 8261,0.11041569709777832
16, 8136, 8145, 8119, 8140, 8134, 8142, 8161, 8151, 8156, 8139, 8200, 8143, 8136, 8246,0.11843109130859375
17, 8161, 8172, 8160, 8161, 8184, 8164, 8183, 8163, 8172, 8148, 8216, 8160, 8147, 8255,0.12540102005004883
18, 8181, 8182, 8203, 8164, 8205, 8172, 8177, 8175, 8169, 8154, 8212, 8164, 8146, 8262,0.13347721099853516
19, 8165, 8174, 8156, 8176, 8133, 8160, 8164, 8173, 8172, 8156, 8223, 8158, 8147, 8267,0.14138388633728027
20, 8160, 8181, 8118, 8197, 8126, 8168, 8169, 8165, 8183, 8162, 8243, 8160, 8167, 8267,0.14941692352294922
21, 8195, 8196, 8220, 8180, 8221, 8180, 8164, 8177, 8171, 8159, 8227, 8184, 8164, 8257,0.15762567520141602
22, 8186, 8176, 8168, 8164, 8161, 8179, 8167, 8151, 8175, 8167, 8223, 8168, 8168, 8268,0.1654820442199707
23, 8194, 8214, 8168, 8198, 8172, 8188, 8174, 8152, 8186, 8173, 8235, 8173, 8183, 8291,0.17356276512145996
24, 8240, 8253, 8295, 8224, 8248, 8191, 8172, 8182, 8171, 8160, 8229, 8209, 8175, 8293,0.18142938613891602
25, 8214, 8206, 8180, 8215, 8153, 8174, 8177, 8150, 8172, 8166, 8233, 8177, 8181, 8295,0.18953800201416016
26, 8201, 8200, 8130, 8208, 8146, 8174, 8174, 8154, 8183, 8177, 8240, 8166, 8195, 8304,0.196427583694458
27, 8216, 8206, 8183, 8198, 8175, 8180, 8178, 8176, 8183, 8171, 8236, 8174, 8200, 8306,0.20463132858276367
28, 8210, 8192, 8180, 8181, 8174, 8172, 8189, 8166, 8170, 8163, 8229, 8169, 8199, 8308,0.21245861053466797
29, 8203, 8189, 8177, 8174, 8182, 8158, 8184, 8160, 8158, 8162, 8225, 8177, 8197, 8311,0.22051525115966797
30, 8172, 8165, 8120, 8169, 8159, 8146, 8170, 8140, 8167, 8166, 8222, 8163, 8194, 8301,0.22846221923828125
31, 8168, 8167, 8153, 8168, 8188, 8154, 8154, 8140, 8165, 8156, 8208, 8163, 8170, 8288,0.23664402961730957
32, 8185, 8171, 8162, 8173, 8149, 8159, 8162, 8144, 8165, 8153, 8217, 8165, 8174, 8298,0.24438738822937012
33, 8183, 8167, 8150, 8174, 8141, 8145, 8165, 8151, 8172, 8166, 8231, 8164, 8196, 8300,0.2526867389678955
34, 8189, 8175, 8199, 8181, 8182, 8143, 8146, 8172, 8162, 8171, 8225, 8179, 8194, 8291,0.26062655448913574
35, 8184, 8175, 8137, 8194, 8132, 8147, 8154, 8157, 8165, 8167, 8226, 8162, 8188, 8295,0.2675633430480957
36, 8205, 8210, 8212, 8195, 8201, 8143, 8154, 8179, 8164, 8155, 8204, 8170, 8168, 8286,0.2754979133605957
37, 8209, 8195, 8245, 8193, 8210, 8141, 8142, 8186, 8165, 8159, 8201, 8181, 8167, 8275,0.28371548652648926
38, 8183, 8163, 8144, 8211, 8149, 8156, 8154, 8157, 8179, 8177, 8233, 8167, 8195, 8284,0.2914280891418457
39, 8211, 8209, 8214, 8237, 8207, 8176, 8162, 8187, 8186, 8180, 8242, 8188, 8209, 8299,0.29962754249572754
40, 8213, 8204, 8186, 8237, 8167, 8170, 8163, 8184, 8204, 8195, 8251, 8178, 8230, 8310,0.3075845241546631
41, 8186, 8177, 8127, 8238, 8158, 8165, 8161, 8162, 8205, 8203, 8255, 8167, 8243, 8305,0.315385103225708
42, 8184, 8192, 8176, 8241, 8213, 8172, 8158, 8174, 8180, 8191, 8240, 8182, 8231, 8297,0.3235294818878174
43, 8173, 8192, 8154, 8221, 8186, 8164, 8152, 8169, 8177, 8186, 8221, 8163, 8216, 8297,0.33045291900634766
44, 8163, 8171, 8124, 8197, 8148, 8144, 8142, 8162, 8184, 8185, 8203, 8149, 8200, 8288,0.3383903503417969
45, 8166, 8142, 8120, 8181, 8138, 8138, 8149, 8161, 8173, 8173, 8195, 8157, 8188, 8283,0.34650278091430664
46, 8188, 8165, 8204, 8173, 8211, 8145, 8154, 8190, 8148, 8153, 8185, 8177, 8176, 8283,0.35431909561157227
47, 8174, 8167, 8167, 8180, 8179, 8144, 8166, 8194, 8159, 8159, 8196, 8165, 8185, 8283,0.36263036727905273
48, 8146, 8151, 8090, 8181, 8154, 8149, 8184, 8176, 8190, 8185, 8214, 8145, 8205, 8284,0.3705265522003174
49, 8172, 8178, 8237, 8167, 8261, 8166, 8168, 8209, 8182, 8182, 8210, 8182, 8194, 8285,0.37861084938049316
50, 8166, 8155, 8208, 8166, 8192, 8168, 8157, 8195, 8176, 8167, 8213, 8179, 8195, 8294,0.38655686378479004
51, 8147, 8132, 8082, 8188, 8120, 8163, 8171, 8153, 8190, 8173, 8229, 8155, 8214, 8298,0.39340710639953613
52, 8174, 8157, 8155, 8198, 8176, 8172, 8180, 8172, 8194, 8186, 8238, 8176, 8225, 8298,0.40145087242126465
53, 8188, 8166, 8193, 8204, 8169, 8173, 8180, 8181, 8193, 8189, 8250, 8183, 8240, 8311,0.40964365005493164
54, 8206, 8184, 8186, 8236, 8151, 8164, 8172, 8162, 8183, 8187, 8264, 8196, 8250, 8327,0.4174187183380127
55, 8231, 8198, 8174, 8269, 8130, 8153, 8161, 8134, 8165, 8183, 8280, 8205, 8253, 8339,0.4253385066986084
56, 8259, 8219, 8222, 8292, 8156, 8146, 8139, 8142, 8152, 8175, 8291, 8223, 8261, 8348,0.4334754943847656
57, 8261, 8223, 8238, 8302, 8149, 8144, 8121, 8159, 8151, 8184, 8297, 8244, 8281, 8355,0.44144415855407715
58, 8221, 8204, 8164, 8295, 8115, 8141, 8123, 8151, 8159, 8198, 8311, 8227, 8295, 8354,0.44956135749816895
59, 8240, 8226, 8254, 8296, 8203, 8147, 8119, 8179, 8160, 8190, 8307, 8243, 8280, 8354,0.4565880298614502
60, 8252, 8200, 8239, 8286, 8168, 8150, 8129, 8180, 8159, 8184, 8282, 8240, 8273, 8351,0.464461088180542
61, 8205, 8164, 8117, 8262, 8109, 8139, 8153, 8168, 8149, 8166, 8249, 8199, 8251, 8328,0.47258520126342773
62, 8196, 8191, 8192, 8250, 8185, 8148, 8166, 8201, 8138, 8137, 8214, 8194, 8198, 8294,0.4803121089935303
63, 8186, 8176, 8186, 8229, 8159, 8170, 8180, 8191, 8151, 8151, 8192, 8178, 8185, 8282,0.4884762763977051
64, 8163, 8148, 8129, 8190, 8127, 8175, 8174, 8173, 8147, 8167, 8177, 8160, 8195, 8281,0.4965052604675293
65, 8152, 8147, 8116, 8171, 8125, 8173, 8161, 8171, 8136, 8158, 8190, 8154, 8199, 8275,0.5043337345123291
66, 8157, 8165, 8147, 8185, 8154, 8184, 8149, 8159, 8139, 8159, 8201, 8161, 8202, 8270,0.5123844146728516
67, 8193, 8186, 8217, 8208, 8182, 8187, 8132, 8159, 8131, 8164, 8196, 8183, 8201, 8282,0.5204164981842041
68, 8198, 8169, 8144, 8215, 8116, 8178, 8126, 8134, 8130, 8165, 8205, 8165, 8206, 8302,0.5274479389190674
69, 8192, 8177, 8142, 8201, 8145, 8195, 8121, 8123, 8131, 8158, 8185, 8161, 8201, 8289,0.53550124168396
70, 8188, 8186, 8169, 8193, 8148, 8211, 8127, 8134, 8132, 8163, 8175, 8167, 8201, 8274,0.5433604717254639
71, 8182, 8187, 8139, 8200, 8115, 8207, 8132, 8141, 8137, 8176, 8197, 8166, 8207, 8281,0.5514297485351562
72, 8211, 8208, 8207, 8209, 8166, 8212, 8121, 8160, 8139, 8181, 8194, 8192, 8216, 8305,0.5593397617340088
73, 8216, 8195, 8169, 8213, 8133, 8211, 8121, 8146, 8154, 8193, 8187, 8179, 8241, 8329,0.5673913955688477
74, 8207, 8199, 8168, 8212, 8153, 8196, 8113, 8149, 8141, 8186, 8171, 8162, 8222, 8310,0.5755221843719482
75, 8203, 8201, 8220, 8194, 8173, 8187, 8114, 8164, 8115, 8161, 8144, 8162, 8179, 8274,0.5833978652954102
76, 8177, 8171, 8133, 8168, 8100, 8188, 8139, 8139, 8136, 8168, 8144, 8142, 8185, 8266,0.5904114246368408
77, 8170, 8159, 8114, 8165, 8118, 8204, 8145, 8143, 8164, 8184, 8153, 8139, 8192, 8265,0.5985221862792969
78, 8170, 8142, 8134, 8172, 8141, 8212, 8147, 8165, 8172, 8186, 8144, 8142, 8182, 8257,0.6062972545623779
79, 8170, 8149, 8168, 8172, 8137, 8207, 8163, 8190, 8170, 8182, 8129, 8160, 8182, 8257,0.6144189834594727
80, 8172, 8157, 8174, 8184, 8127, 8206, 8181, 8195, 8177, 8189, 8148, 8173, 8199, 8270,0.6223742961883545
81, 8160, 8146, 8134, 8190, 8134, 8199, 8176, 8168, 8174, 8185, 8160, 8156, 8200, 8269,0.6303985118865967
82, 8171, 8160, 8185, 8166, 8165, 8183, 8139, 8165, 8140, 8163, 8129, 8163, 8175, 8257,0.6384689807891846
83, 8173, 8163, 8150, 8174, 8121, 8174, 8129, 8155, 8133, 8169, 8153, 8169, 8194, 8278,0.6463987827301025
84, 8198, 8190, 8177, 8225, 8170, 8182, 8140, 8166, 8147, 8186, 8203, 8186, 8219, 8305,0.6534621715545654
85, 8229, 8203, 8245, 8224, 8177, 8181, 8135, 8187, 8148, 8177, 8190, 8199, 8208, 8309,0.6614861488342285
86, 8199, 8167, 8134, 8188, 8068, 8157, 8137, 8160, 8151, 8168, 8160, 8166, 8201, 8310,0.6694447994232178
87, 8200, 8193, 8177, 8208, 8146, 8160, 8146, 8181, 8154, 8169, 8161, 8176, 8199, 8311,0.6774773597717285
88, 8215, 8208, 8230, 8228, 8175, 8180, 8161, 8196, 8168, 8176, 8176, 8188, 8202, 8317,0.6855487823486328
89, 8204, 8176, 8149, 8205, 8111, 8168, 8170, 8174, 8179, 8178, 8173, 8168, 8204, 8323,0.6934299468994141
90, 8214, 8171, 8150, 8197, 8121, 8154, 8169, 8183, 8173, 8176, 8171, 8173, 8199, 8320,0.7015645503997803
91, 8201, 8171, 8155, 8194, 8128, 8161, 8160, 8178, 8167, 8181, 8169, 8166, 8196, 8300,0.7094707489013672
92, 8187, 8170, 8196, 8177, 8172, 8153, 8140, 8175, 8153, 8170, 8136, 8156, 8171, 8265,0.717740535736084
93, 8167, 8138, 8156, 8163, 8135, 8136, 8154, 8171, 8154, 8164, 8130, 8139, 8162, 8250,0.7245299816131592
94, 8143, 8130, 8115, 8156, 8101, 8155, 8176, 8164, 8173, 8172, 8153, 8135, 8176, 8256,0.7323334217071533
95, 8153, 8151, 8161, 8158, 8113, 8166, 8169, 8163, 8174, 8170, 8155, 8159, 8172, 8263,0.7404651641845703
96, 8168, 8142, 8132, 8179, 8097, 8146, 8160, 8151, 8166, 8166, 8166, 8158, 8171, 8275,0.7485113143920898
97, 8201, 8185, 8223, 8205, 8194, 8155, 8152, 8186, 8161, 8162, 8191, 8186, 8170, 8291,0.7562606334686279
98, 8202, 8195, 8250, 8210, 8178, 8163, 8154, 8192, 8164, 8165, 8199, 8194, 8170, 8293,0.7644286155700684
99, 8162, 8146, 8122, 8190, 8078, 8135, 8156, 8146, 8161, 8165, 8182, 8150, 8171, 8275,0.7724006175994873
100, 8154, 8153, 8128, 8172, 8104, 8124, 8140, 8146, 8146, 8157, 8175, 8144, 8159, 8259,0.7793471813201904
101, 8149, 8157, 8131, 8182, 8113, 8141, 8149, 8151, 8159, 8166, 8213, 8157, 8176, 8271,0.7874674797058105
102, 8155, 8149, 8153, 8202, 8132, 8149, 8178, 8163, 8175, 8182, 8229, 8176, 8206, 8287,0.7954549789428711
103, 8158, 8144, 8155, 8185, 8111, 8138, 8201, 8175, 8176, 8191, 8210, 8171, 8217, 8288,0.8035769462585449
104, 8142, 8143, 8135, 8156, 8113, 8133, 8208, 8175, 8178, 8190, 8205, 8150, 8205, 8275,0.8116064071655273
105, 8153, 8158, 8208, 8159, 8166, 8148, 8200, 8196, 8168, 8173, 8207, 8168, 8183, 8253,0.8194162845611572
106, 8147, 8147, 8162, 8177, 8104, 8150, 8204, 8184, 8166, 8165, 8208, 8161, 8184, 8248,0.827498197555542
107, 8149, 8157, 8133, 8195, 8109, 8143, 8208, 8177, 8180, 8179, 8217, 8160, 8209, 8268,0.8354108333587646
108, 8177, 8181, 8163, 8213, 8136, 8160, 8211, 8193, 8209, 8203, 8256, 8189, 8249, 8305,0.843348503112793
109, 8191, 8195, 8163, 8215, 8123, 8178, 8220, 8199, 8233, 8210, 8271, 8199, 8273, 8329,0.8506324291229248
110, 8216, 8198, 8225, 8202, 8150, 8177, 8217, 8214, 8228, 8199, 8237, 8203, 8255, 8328,0.858440637588501
111, 8211, 8164, 8162, 8199, 8102, 8171, 8222, 8188, 8225, 8202, 8235, 8183, 8245, 8331,0.8664698600769043
112, 8201, 8183, 8150, 8207, 8130, 8168, 8216, 8164, 8208, 8196, 8238, 8184, 8227, 8332,0.8743922710418701
113, 8217, 8204, 8224, 8200, 8173, 8156, 8196, 8164, 8181, 8173, 8208, 8194, 8199, 8325,0.8824491500854492
114, 8208, 8161, 8167, 8172, 8112, 8138, 8189, 8146, 8172, 8167, 8193, 8165, 8203, 8316,0.8904492855072021
115, 8195, 8150, 8159, 8157, 8123, 8135, 8180, 8148, 8161, 8170, 8202, 8166, 8208, 8304,0.8973987102508545
116, 8175, 8151, 8149, 8164, 8119, 8135, 8179, 8142, 8157, 8184, 8207, 8172, 8205, 8310,0.9053449630737305
117, 8166, 8161, 8154, 8161, 8133, 8125, 8175, 8143, 8162, 8192, 8187, 8165, 8198, 8308,0.9134416580200195
118, 8155, 8152, 8163, 8145, 8153, 8122, 8165, 8160, 8160, 8181, 8176, 8150, 8183, 8268,0.9213452339172363
119, 8111, 8122, 8103, 8134, 8119, 8133, 8171, 8157, 8167, 8171, 8180, 8125, 8163, 8226,0.9293608665466309
120, 8111, 8154, 8169, 8147, 8160, 8146, 8170, 8183, 8178, 8166, 8164, 8141, 8150, 8218,0.9373764991760254
121, 8119, 8159, 8157, 8173, 8140, 8142, 8175, 8186, 8191, 8177, 8171, 8142, 8172, 8234,0.9454748630523682
122, 8124, 8150, 8152, 8186, 8157, 8140, 8172, 8177, 8182, 8183, 8199, 8153, 8185, 8235,0.9534633159637451
123, 8151, 8174, 8247, 8181, 8192, 8151, 8153, 8192, 8167, 8178, 8211, 8197, 8187, 8250,0.9616270065307617
124, 8140, 8170, 8150, 8184, 8109, 8162, 8162, 8161, 8185, 8191, 8233, 8185, 8222, 8297,0.9695484638214111
125, 8159, 8193, 8152, 8205, 8151, 8169, 8168, 8143, 8181, 8194, 8245, 8188, 8233, 8315,0.977574348449707
126, 8205, 8200, 8220, 8218, 8171, 8155, 8149, 8149, 8167, 8186, 8235, 8207, 8218, 8316,0.9843428134918213
127, 8222, 8190, 8191, 8221, 8136, 8146, 8146, 8162, 8193, 8201, 8231, 8199, 8238, 8336,0.9924139976501465
237, 8251, 8220, 8213, 8231, 8168, 8160, 8173, 8197, 8233, 8225, 8242, 8209, 8269, 8364,1.000415563583374
0, 8245, 8220, 8177, 8229, 8151, 8159, 8198, 8191, 8246, 8228, 8244, 8202, 8263, 8379,1.0083434581756592
1, 8213, 8194, 8185, 8197, 8177, 8140, 8184, 8187, 8206, 8191, 8190, 8187, 8204, 8345,1.016338586807251
2, 8183, 8156, 8170, 8160, 8166, 8141, 8189, 8188, 8179, 8170, 8156, 8160, 8177, 8290,1.024491548538208
3, 8173, 8149, 8107, 8159, 8148, 8153, 8210, 8179, 8197, 8184, 8180, 8138, 8204, 8275,1.0324251651763916
4, 8198, 8171, 8142, 8168, 8154, 8143, 8193, 8186, 8199, 8182, 8184, 8154, 8208, 8288,1.0403571128845215
5, 8197, 8162, 8129, 8166, 8095, 8128, 8167, 8165, 8183, 8179, 8177, 8152, 8193, 8281,1.0473453998565674
6, 8213, 8194, 8197, 8185, 8164, 8137, 8147, 8160, 8176, 8178, 8175, 8169, 8174, 8269,1.0554413795471191
7, 8236, 8213, 8226, 8215, 8192, 8147, 8135, 8163, 8182, 8176, 8195, 8197, 8184, 8294,1.0636115074157715
8, 8214, 8178, 8145, 8219, 8138, 8140, 8136, 8142, 8179, 8183, 8209, 8192, 8206, 8312,1.0714426040649414
9, 8202, 8175, 8195, 8198, 8184, 8134, 8135, 8144, 8158, 8177, 8186, 8192, 8181, 8284,1.0795087814331055
10, 8188, 8182, 8185, 8186, 8173, 8134, 8143, 8134, 8158, 8174, 8180, 8180, 8170, 8277,1.087634801864624
11, 8187, 8191, 8173, 8190, 8163, 8144, 8143, 8148, 8168, 8179, 8180, 8180, 8187, 8298,1.0954034328460693
12, 8176, 8169, 8178, 8182, 8150, 8161, 8151, 8174, 8174, 8189, 8171, 8175, 8184, 8296,1.1034913063049316
13, 8142, 8148, 8113, 8184, 8127, 8169, 8182, 8170, 8192, 8196, 8169, 8148, 8182, 8284,1.111607313156128
14, 8155, 8168, 8144, 8209, 8161, 8173, 8204, 8180, 8201, 8187, 8172, 8159, 8193, 8292,1.1185541152954102
15, 8158, 8155, 8137, 8192, 8136, 8165, 8215, 8177, 8197, 8179, 8175, 8156, 8188, 8296,1.1265642642974854
16, 8129, 8147, 8130, 8145, 8149, 8147, 8212, 8186, 8194, 8178, 8153, 8144, 8158, 8273,1.1345396041870117
17, 8104, 8140, 8126, 8132, 8146, 8127, 8198, 8182, 8189, 8175, 8130, 8136, 8147, 8244,1.142587661743164
18, 8095, 8123, 8089, 8147, 8123, 8110, 8184, 8151, 8173, 8161, 8130, 8118, 8146, 8234,1.1503589153289795
19, 8149, 8174, 8206, 8179, 8206, 8124, 8171, 8188, 8163, 8160, 8146, 8161, 8146, 8256,1.1583359241485596
20, 8184, 8196, 8206, 8193, 8184, 8139, 8179, 8204, 8187, 8188, 8181, 8188, 8180, 8292,1.1662859916687012
21, 8162, 8163, 8122, 8176, 8139, 8125, 8176, 8163, 8191, 8189, 8192, 8163, 8188, 8285,1.1743736267089844
22, 8164, 8168, 8163, 8189, 8165, 8120, 8163, 8156, 8173, 8168, 8196, 8166, 8174, 8279,1.18143892288208
23, 8179, 8192, 8174, 8206, 8161, 8142, 8182, 8172, 8184, 8172, 8218, 8181, 8194, 8308,1.1895091533660889
24, 8181, 8192, 8187, 8173, 8186, 8156, 8202, 8184, 8188, 8181, 8203, 8186, 8196, 8303,1.197361707687378
25, 8161, 8158, 8159, 8161, 8163, 8155, 8216, 8175, 8187, 8180, 8184, 8164, 8180, 8281,1.2055370807647705
26, 8169, 8157, 8168, 8188, 8177, 8167, 8233, 8185, 8200, 8182, 8196, 8171, 8188, 8281,1.2136237621307373
27, 8185, 8174, 8217, 8191, 8206, 8174, 8240, 8209, 8202, 8189, 8196, 8195, 8193, 8278,1.2214243412017822
28, 8154, 8163, 8141, 8186, 8157, 8166, 8240, 8181, 8205, 8192, 8198, 8168, 8191, 8276,1.2295634746551514
29, 8163, 8186, 8184, 8195, 8197, 8170, 8224, 8184, 8207, 8190, 8208, 8172, 8196, 8292,1.2374920845031738
30, 8171, 8172, 8191, 8184, 8183, 8165, 8209, 8193, 8205, 8199, 8211, 8176, 8208, 8306,1.244478702545166
31, 8152, 8156, 8136, 8182, 8166, 8143, 8194, 8180, 8196, 8200, 8199, 8163, 8204, 8293,1.2524833679199219
32, 8185, 8194, 8218, 8202, 8226, 8140, 8183, 8204, 8188, 8187, 8185, 8185, 8184, 8280,1.2603981494903564
33, 8189, 8175, 8176, 8188, 8165, 8150, 8201, 8205, 8210, 8200, 8187, 8167, 8187, 8284,1.2683815956115723
34, 8164, 8156, 8125, 8166, 8150, 8151, 8206, 8195, 8226, 8202, 8186, 8148, 8183, 8280,1.2764747142791748
35, 8152, 8164, 8135, 8171, 8172, 8141, 8195, 8190, 8214, 8181, 8187, 8158, 8173, 8270,1.2844290733337402
36, 8147, 8166, 8139, 8174, 8169, 8139, 8193, 8184, 8196, 8168, 8174, 8154, 8158, 8263,1.292402744293213
37, 8167, 8172, 8174, 8173, 8166, 8147, 8193, 8188, 8193, 8164, 8154, 8157, 8144, 8264,1.300506591796875
38, 8161, 8154, 8121, 8189, 8118, 8149, 8197, 8168, 8208, 8167, 8166, 8150, 8161, 8266,1.3074579238891602
39, 8166, 8174, 8195, 8199, 8195, 8138, 8182, 8178, 8188, 8159, 8170, 8169, 8161, 8257,1.3154900074005127
40, 8182, 8183, 8241, 8191, 8202, 8121, 8168, 8180, 8162, 8151, 8165, 8183, 8153, 8265,1.3233819007873535
41, 8172, 8163, 8139, 8185, 8124, 8115, 8177, 8149, 8169, 8162, 8172, 8168, 8174, 8292,1.331502914428711
42, 8187, 8180, 8176, 8200, 8159, 8130, 8175, 8161, 8169, 8171, 8186, 8187, 8193, 8301,1.3394629955291748
43, 8187, 8166, 8165, 8212, 8143, 8126, 8173, 8153, 8171, 8178, 8202, 8182, 8198, 8294,1.3474478721618652
44, 8184, 8167, 8167, 8201, 8174, 8108, 8163, 8149, 8166, 8173, 8178, 8173, 8176, 8279,1.3555564880371094
45, 8207, 8192, 8221, 8201, 8198, 8112, 8148, 8175, 8155, 8158, 8155, 8184, 8162, 8272,1.3635928630828857
46, 8207, 8187, 8153, 8214, 8136, 8122, 8155, 8166, 8166, 8166, 8178, 8172, 8180, 8291,1.3715369701385498
47, 8183, 8173, 8133, 8197, 8143, 8109, 8159, 8158, 8169, 8175, 8177, 8160, 8173, 8289,1.3785068988800049
48, 8143, 8153, 8119, 8176, 8132, 8090, 8157, 8155, 8157, 8160, 8150, 8141, 8142, 8255,1.3864099979400635
49, 8137, 8156, 8149, 8175, 8150, 8099, 8146, 8160, 8141, 8137, 8133, 8141, 8115, 8224,1.394392490386963
50, 8157, 8157, 8185, 8161, 8158, 8115, 8143, 8162, 8143, 8141, 8152, 8157, 8121, 8233,1.402538776397705
51, 8154, 8151, 8145, 8158, 8136, 8121, 8162, 8163, 8178, 8164, 8199, 8159, 8154, 8264,1.4104392528533936
52, 8171, 8183, 8195, 8207, 8184, 8140, 8171, 8201, 8203, 8167, 8215, 8175, 8165, 8264,1.4183876514434814
53, 8167, 8182, 8168, 8234, 8148, 8147, 8171, 8192, 8197, 8169, 8208, 8168, 8167, 8249,1.4263932704925537
54, 8163, 8190, 8171, 8213, 8146, 8137, 8167, 8172, 8174, 8165, 8197, 8176, 8166, 8258,1.4342947006225586
55, 8180, 8207, 8242, 8206, 8186, 8146, 8176, 8184, 8173, 8159, 8196, 8198, 8170, 8276,1.4423329830169678
56, 8151, 8167, 8147, 8206, 8151, 8159, 8189, 8164, 8200, 8173, 8212, 8165, 8183, 8271,1.4494028091430664
57, 8153, 8176, 8165, 8206, 8202, 8169, 8184, 8184, 8208, 8182, 8216, 8163, 8168, 8252,1.4575245380401611
58, 8162, 8182, 8201, 8199, 8187, 8177, 8199, 8208, 8208, 8181, 8207, 8169, 8154, 8243,1.465639352798462
59, 8135, 8145, 8133, 8178, 8120, 8165, 8207, 8180, 8210, 8177, 8191, 8147, 8162, 8242,1.4734785556793213
60, 8137, 8141, 8133, 8168, 8132, 8149, 8185, 8160, 8193, 8168, 8185, 8148, 8160, 8248,1.4815444946289062
61, 8147, 8152, 8143, 8160, 8144, 8145, 8170, 8156, 8178, 8164, 8182, 8144, 8150, 8252,1.4895052909851074
62, 8155, 8169, 8194, 8145, 8176, 8135, 8163, 8169, 8166, 8160, 8168, 8155, 8132, 8252,1.4974477291107178
63, 8146, 8147, 8142, 8142, 8123, 8118, 8163, 8147, 8156, 8155, 8178, 8159, 8122, 8264,1.5055415630340576
64, 8146, 8141, 8130, 8149, 8137, 8115, 8152, 8138, 8150, 8152, 8189, 8161, 8125, 8272,1.5124571323394775
65, 8166, 8156, 8227, 8148, 8191, 8127, 8148, 8183, 8153, 8156, 8190, 8185, 8141, 8274,1.5205941200256348
66, 8149, 8132, 8144, 8150, 8105, 8132, 8180, 8180, 8186, 8173, 8218, 8176, 8181, 8292,1.528367280960083
67, 8158, 8159, 8167, 8167, 8158, 8140, 8182, 8180, 8198, 8183, 8231, 8180, 8190, 8299,1.536574363708496
68, 8173, 8181, 8223, 8174, 8194, 8143, 8157, 8184, 8181, 8178, 8220, 8186, 8170, 8289,1.5444927215576172
69, 8152, 8165, 8149, 8186, 8128, 8144, 8157, 8163, 8177, 8168, 8220, 8169, 8166, 8281,1.5525450706481934
70, 8162, 8171, 8168, 8211, 8162, 8151, 8153, 8155, 8169, 8162, 8216, 8177, 8172, 8275,1.5604798793792725
71, 8174, 8164, 8178, 8213, 8176, 8139, 8135, 8122, 8152, 8163, 8214, 8176, 8174, 8278,1.5684213638305664
72, 8187, 8170, 8184, 8205, 8180, 8130, 8133, 8116, 8148, 8160, 8219, 8180, 8169, 8294,1.5755281448364258
73, 8186, 8176, 8168, 8201, 8166, 8137, 8149, 8141, 8162, 8161, 8207, 8179, 8171, 8303,1.5835330486297607
74, 8164, 8169, 8151, 8198, 8160, 8124, 8143, 8144, 8152, 8152, 8177, 8164, 8154, 8279,1.5915026664733887
75, 8171, 8164, 8196, 8196, 8172, 8105, 8128, 8157, 8137, 8136, 8181, 8178, 8131, 8262,1.5993547439575195
76, 8173, 8130, 8143, 8180, 8124, 8111, 8153, 8166, 8169, 8154, 8223, 8171, 8157, 8286,1.6075985431671143
77, 8161, 8126, 8156, 8156, 8158, 8125, 8165, 8190, 8187, 8170, 8217, 8162, 8165, 8291,1.6155922412872314
78, 8136, 8136, 8165, 8154, 8163, 8116, 8155, 8203, 8187, 8168, 8202, 8158, 8144, 8266,1.6235764026641846
79, 8121, 8143, 8112, 8182, 8147, 8121, 8166, 8189, 8204, 8184, 8225, 8151, 8160, 8260,1.631364345550537
80, 8155, 8169, 8207, 8202, 8226, 8145, 8178, 8217, 8205, 8188, 8233, 8181, 8179, 8270,1.6396191120147705
81, 8143, 8140, 8182, 8188, 8180, 8139, 8187, 8217, 8205, 8179, 8243, 8179, 8186, 8284,1.6465778350830078
82, 8111, 8119, 8110, 8164, 8132, 8118, 8185, 8183, 8208, 8184, 8255, 8158, 8188, 8285,1.6544899940490723
83, 8132, 8144, 8154, 8175, 8138, 8115, 8174, 8179, 8198, 8186, 8254, 8170, 8185, 8275,1.6625685691833496
84, 8151, 8155, 8155, 8215, 8120, 8117, 8177, 8173, 8196, 8179, 8272, 8183, 8196, 8277,1.6706504821777344
85, 8162, 8172, 8197, 8226, 8168, 8121, 8173, 8169, 8183, 8170, 8282, 8200, 8189, 8277,1.6785638332366943
86, 8165, 8166, 8183, 8224, 8143, 8131, 8173, 8148, 8169, 8172, 8277, 8198, 8180, 8283,1.686593770980835
87, 8185, 8177, 8192, 8247, 8149, 8127, 8171, 8141, 8170, 8171, 8287, 8211, 8187, 8298,1.6944973468780518
88, 8214, 8190, 8255, 8262, 8174, 8110, 8153, 8150, 8154, 8155, 8316, 8232, 8190, 8306,1.7024059295654297
89, 8214, 8170, 8196, 8253, 8111, 8100, 8144, 8140, 8141, 8152, 8332, 8211, 8197, 8317,1.7095575332641602
90, 8245, 8202, 8228, 8257, 8152, 8109, 8151, 8173, 8150, 8165, 8317, 8230, 8203, 8336,1.717613697052002
91, 8256, 8201, 8220, 8259, 8153, 8112, 8171, 8184, 8176, 8182, 8317, 8236, 8217, 8354,1.725280523300171
92, 8233, 8174, 8178, 8240, 8153, 8103, 8175, 8176, 8179, 8179, 8305, 8210, 8216, 8350,1.7336204051971436
93, 8228, 8191, 8244, 8226, 8206, 8100, 8167, 8209, 8173, 8172, 8276, 8216, 8204, 8329,1.7415785789489746
94, 8182, 8162, 8163, 8203, 8135, 8097, 8183, 8186, 8181, 8177, 8278, 8187, 8209, 8311,1.7496850490570068
95, 8167, 8145, 8134, 8181, 8135, 8106, 8190, 8161, 8177, 8172, 8281, 8171, 8204, 8310,1.7575562000274658
96, 8199, 8163, 8173, 8183, 8174, 8117, 8184, 8173, 8182, 8169, 8269, 8185, 8209, 8331,1.7656183242797852
97, 8188, 8158, 8137, 8190, 8154, 8111, 8171, 8168, 8192, 8177, 8251, 8174, 8214, 8326,1.7724955081939697
98, 8180, 8151, 8144, 8190, 8128, 8113, 8147, 8153, 8181, 8180, 8246, 8173, 8203, 8311,1.78053879737854
99, 8199, 8170, 8135, 8192, 8105, 8115, 8128, 8133, 8173, 8188, 8246, 8175, 8211, 8327,1.7882874011993408
100, 8221, 8218, 8188, 8201, 8166, 8110, 8110, 8153, 8179, 8187, 8224, 8189, 8214, 8333,1.7964210510253906
101, 8203, 8205, 8183, 8197, 8149, 8116, 8113, 8168, 8202, 8189, 8218, 8178, 8211, 8321,1.804354190826416
102, 8165, 8159, 8118, 8157, 8119, 8127, 8135, 8158, 8207, 8189, 8209, 8149, 8196, 8301,1.8126261234283447
103, 8164, 8160, 8167, 8127, 8161, 8130, 8150, 8168, 8169, 8164, 8169, 8154, 8155, 8278,1.8205759525299072
104, 8161, 8146, 8133, 8141, 8099, 8130, 8172, 8159, 8157, 8151, 8160, 8145, 8132, 8269,1.8284096717834473
105, 8162, 8145, 8137, 8150, 8107, 8126, 8187, 8167, 8166, 8157, 8175, 8147, 8130, 8269,1.8366003036499023
106, 8160, 8149, 8179, 8135, 8152, 8121, 8192, 8182, 8167, 8165, 8186, 8157, 8147, 8269,1.8436291217803955
107, 8154, 8145, 8140, 8142, 8130, 8120, 8183, 8167, 8183, 8180, 8212, 8150, 8190, 8292,1.8514411449432373
108, 8192, 8175, 8185, 8165, 8145, 8112, 8148, 8184, 8188, 8184, 8223, 8178, 8200, 8322,1.8596210479736328
109, 8190, 8173, 8165, 8173, 8102, 8098, 8137, 8192, 8197, 8179, 8213, 8180, 8187, 8319,1.867602825164795
110, 8158, 8162, 8131, 8171, 8091, 8100, 8147, 8192, 8215, 8184, 8201, 8159, 8190, 8281,1.8756515979766846
111, 8157, 8168, 8161, 8165, 8111, 8108, 8148, 8186, 8197, 8194, 8211, 8162, 8199, 8263,1.883500337600708
112, 8157, 8170, 8150, 8156, 8106, 8112, 8154, 8147, 8163, 8187, 8225, 8167, 8194, 8274,1.8916223049163818
113, 8159, 8168, 8172, 8151, 8130, 8124, 8155, 8134, 8142, 8162, 8196, 8168, 8160, 8261,1.899587869644165
114, 8134, 8136, 8123, 8147, 8095, 8130, 8168, 8131, 8144, 8155, 8178, 8141, 8142, 8238,1.906369924545288
115, 8124, 8155, 8148, 8150, 8139, 8141, 8190, 8163, 8155, 8166, 8191, 8146, 8154, 8239,1.9144322872161865
116, 8144, 8185, 8192, 8156, 8155, 8157, 8196, 8195, 8176, 8174, 8208, 8168, 8177, 8250,1.9226608276367188
117, 8142, 8174, 8128, 8159, 8098, 8151, 8187, 8177, 8186, 8180, 8221, 8150, 8190, 8246,1.9305667877197266
118, 8165, 8205, 8221, 8171, 8185, 8151, 8174, 8203, 8173, 8174, 8212, 8175, 8176, 8243,1.9386258125305176
119, 8162, 8193, 8201, 8176, 8163, 8156, 8187, 8209, 8189, 8172, 8209, 8180, 8182, 8263,1.9465727806091309
120, 8128, 8153, 8092, 8165, 8082, 8141, 8190, 8172, 8198, 8174, 8209, 8149, 8192, 8275,1.954380989074707
121, 8134, 8165, 8157, 8163, 8117, 8132, 8178, 8174, 8176, 8169, 8193, 8160, 8181, 8267,1.9625036716461182
122, 8142, 8179, 8175, 8162, 8139, 8134, 8183, 8179, 8169, 8162, 8182, 8165, 8171, 8253,1.970395803451538
123, 8143, 8189, 8173, 8148, 8159, 8133, 8173, 8178, 8167, 8146, 8179, 8165, 8156, 8240,1.977342128753662
124, 8128, 8167, 8140, 8140, 8116, 8131, 8172, 8173, 8175, 8155, 8190, 8160, 8161, 8248,1.9853880405426025
125, 8126, 8173, 8137, 8157, 8125, 8139, 8187, 8180, 8188, 8173, 8188, 8163, 8174, 8258,1.9933209419250488
126, 8148, 8202, 8188, 8163, 8168, 8147, 8182, 8185, 8182, 8166, 8178, 8173, 8162, 8251,2.001429319381714
127, 8137, 8174, 8140, 8141, 8124, 8145, 8177, 8155, 8176, 8162, 8189, 8150, 8150, 8246,2.009359121322632
237, 8139, 8166, 8175, 8150, 8161, 8151, 8187, 8170, 8170, 8161, 8198, 8158, 8148, 8246,2.017404317855835
0, 8131, 8157, 8164, 8160, 8152, 8151, 8199, 8184, 8165, 8160, 8206, 8161, 8158, 8248,2.0254130363464355
1, 8107, 8143, 8119, 8120, 8139, 8134, 8190, 8170, 8156, 8157, 8194, 8145, 8150, 8238,2.033524990081787
2, 8124, 8161, 8227, 8096, 8190, 8129, 8185, 8199, 8144, 8151, 8172, 8169, 8130, 8234,2.0404629707336426
3, 8109, 8135, 8158, 8110, 8115, 8137, 8210, 8192, 8160, 8165, 8196, 8154, 8152, 8243,2.048438787460327
4, 8106, 8142, 8122, 8121, 8133, 8145, 8212, 8188, 8173, 8177, 8213, 8145, 8165, 8233,2.0565381050109863
5, 8137, 8169, 8182, 8125, 8164, 8142, 8207, 8204, 8183, 8175, 8207, 8166, 8153, 8232,2.064589500427246
6, 8130, 8161, 8146, 8131, 8122, 8138, 8218, 8189, 8195, 8168, 8196, 8155, 8157, 8248,2.072593927383423
7, 8124, 8168, 8190, 8133, 8169, 8140, 8211, 8191, 8178, 8154, 8173, 8155, 8142, 8232,2.080404043197632
8, 8118, 8161, 8176, 8139, 8153, 8140, 8215, 8184, 8174, 8161, 8182, 8155, 8135, 8221,2.0885848999023438
9, 8115, 8158, 8133, 8145, 8137, 8142, 8223, 8174, 8185, 8172, 8205, 8153, 8158, 8248,2.096522808074951
10, 8124, 8162, 8143, 8144, 8157, 8145, 8206, 8167, 8174, 8163, 8200, 8155, 8171, 8258,2.104509115219116
11, 8139, 8181, 8180, 8164, 8171, 8150, 8197, 8164, 8170, 8163, 8211, 8169, 8180, 8247,2.1114439964294434
12, 8148, 8194, 8200, 8179, 8166, 8164, 8203, 8177, 8179, 8184, 8228, 8186, 8195, 8251,2.1195263862609863
13, 8119, 8156, 8102, 8155, 8113, 8166, 8205, 8156, 8182, 8193, 8202, 8151, 8196, 8253,2.127523183822632
14, 8140, 8177, 8180, 8150, 8195, 8160, 8195, 8167, 8169, 8173, 8182, 8159, 8178, 8252,2.135549783706665
15, 8173, 8194, 8255, 8168, 8215, 8155, 8197, 8191, 8166, 8167, 8221, 8194, 8196, 8267,2.143609046936035
16, 8129, 8142, 8113, 8156, 8112, 8159, 8214, 8171, 8177, 8177, 8234, 8168, 8216, 8272,2.151470422744751
17, 8113, 8144, 8124, 8129, 8137, 8172, 8220, 8181, 8180, 8168, 8195, 8157, 8187, 8259,2.159506320953369
18, 8129, 8165, 8168, 8124, 8151, 8165, 8234, 8200, 8190, 8164, 8192, 8155, 8171, 8252,2.1674277782440186
19, 8130, 8163, 8142, 8134, 8146, 8146, 8236, 8201, 8195, 8166, 8192, 8151, 8166, 8246,2.174412488937378
20, 8136, 8163, 8156, 8145, 8138, 8153, 8227, 8201, 8196, 8164, 8179, 8164, 8161, 8254,2.1825196743011475
21, 8141, 8166, 8140, 8154, 8117, 8171, 8231, 8189, 8212, 8175, 8196, 8166, 8181, 8272,2.190464735031128
22, 8161, 8193, 8208, 8163, 8181, 8173, 8217, 8205, 8209, 8180, 8188, 8183, 8179, 8275,2.198615550994873
23, 8154, 8181, 8191, 8169, 8136, 8161, 8211, 8194, 8199, 8176, 8183, 8185, 8173, 8278,2.2065770626068115
24, 8143, 8173, 8140, 8166, 8108, 8156, 8228, 8177, 8207, 8177, 8206, 8178, 8185, 8278,2.214585065841675
25, 8177, 8199, 8193, 8172, 8153, 8156, 8236, 8190, 8207, 8177, 8213, 8186, 8189, 8274,2.2225208282470703
26, 8186, 8192, 8170, 8182, 8131, 8148, 8227, 8169, 8196, 8171, 8201, 8177, 8184, 8287,2.2303924560546875
27, 8193, 8202, 8201, 8178, 8180, 8142, 8201, 8169, 8184, 8171, 8203, 8194, 8179, 8304,2.2383713722229004
28, 8195, 8201, 8199, 8167, 8171, 8142, 8190, 8166, 8190, 8187, 8224, 8195, 8201, 8310,2.245415449142456
29, 8176, 8180, 8151, 8155, 8119, 8155, 8190, 8135, 8188, 8183, 8214, 8163, 8208, 8298,2.2535245418548584
30, 8160, 8165, 8156, 8149, 8141, 8171, 8185, 8128, 8167, 8162, 8199, 8158, 8182, 8283,2.261507987976074
31, 8133, 8154, 8119, 8142, 8155, 8170, 8192, 8134, 8161, 8167, 8211, 8150, 8178, 8269,2.2694177627563477
32, 8126, 8166, 8164, 8114, 8191, 8174, 8195, 8168, 8166, 8166, 8191, 8150, 8165, 8242,2.2776219844818115
33, 8113, 8147, 8147, 8098, 8155, 8179, 8211, 8178, 8190, 8164, 8174, 8141, 8154, 8233,2.2855489253997803
34, 8113, 8142, 8118, 8125, 8150, 8173, 8224, 8168, 8210, 8171, 8181, 8139, 8157, 8238,2.2936267852783203
35, 8141, 8178, 8190, 8138, 8206, 8169, 8217, 8181, 8200, 8170, 8177, 8166, 8143, 8233,2.3006062507629395
36, 8117, 8167, 8141, 8116, 8164, 8167, 8217, 8165, 8204, 8174, 8186, 8146, 8144, 8232,2.308562755584717
37, 8112, 8166, 8173, 8128, 8187, 8173, 8208, 8175, 8205, 8177, 8209, 8154, 8163, 8243,2.316614866256714
38, 8147, 8180, 8215, 8162, 8187, 8186, 8203, 8194, 8203, 8177, 8224, 8188, 8187, 8279,2.3245439529418945
39, 8149, 8179, 8141, 8161, 8158, 8189, 8205, 8167, 8205, 8181, 8228, 8180, 8198, 8302,2.332536220550537
40, 8160, 8200, 8190, 8168, 8194, 8177, 8181, 8158, 8188, 8170, 8216, 8187, 8185, 8280,2.3405795097351074
41, 8177, 8198, 8204, 8187, 8144, 8164, 8162, 8145, 8176, 8168, 8211, 8185, 8180, 8268,2.348541498184204
42, 8190, 8197, 8173, 8184, 8141, 8169, 8154, 8131, 8167, 8173, 8211, 8177, 8175, 8288,2.356329917907715
43, 8196, 8198, 8164, 8176, 8164, 8177, 8148, 8128, 8154, 8163, 8216, 8188, 8172, 8298,2.3633029460906982
44, 8190, 8190, 8165, 8171, 8164, 8178, 8160, 8136, 8160, 8165, 8222, 8191, 8184, 8297,2.3715686798095703
45, 8208, 8198, 8218, 8163, 8202, 8186, 8171, 8174, 8174, 8179, 8221, 8197, 8197, 8320,2.3797097206115723
46, 8205, 8191, 8161, 8172, 8159, 8198, 8180, 8181, 8187, 8185, 8229, 8183, 8217, 8340,2.3873987197875977
47, 8186, 8212, 8155, 8196, 8175, 8206, 8181, 8181, 8183, 8179, 8218, 8177, 8208, 8314,2.3956217765808105
48, 8156, 8213, 8180, 8196, 8202, 8208, 8189, 8186, 8177, 8182, 8198, 8169, 8175, 8281,2.4033424854278564
49, 8125, 8176, 8127, 8182, 8181, 8212, 8196, 8181, 8199, 8196, 8201, 8146, 8177, 8278,2.411403179168701
50, 8158, 8179, 8211, 8166, 8222, 8221, 8177, 8218, 8210, 8192, 8202, 8172, 8180, 8284,2.4194867610931396
51, 8166, 8161, 8194, 8150, 8162, 8206, 8172, 8207, 8210, 8187, 8201, 8174, 8173, 8283,2.4275028705596924
52, 8153, 8172, 8143, 8171, 8143, 8191, 8178, 8175, 8209, 8184, 8199, 8165, 8177, 8287,2.4343395233154297
53, 8181, 8216, 8209, 8198, 8198, 8201, 8167, 8185, 8196, 8176, 8199, 8189, 8180, 8294,2.4425480365753174
54, 8195, 8204, 8173, 8193, 8162, 8205, 8152, 8165, 8181, 8170, 8202, 8175, 8168, 8297,2.450324296951294
55, 8209, 8208, 8179, 8209, 8177, 8195, 8141, 8156, 8166, 8167, 8201, 8178, 8158, 8296,2.4584834575653076
56, 8209, 8225, 8182, 8222, 8181, 8193, 8146, 8157, 8166, 8179, 8222, 8191, 8178, 8301,2.466485023498535
57, 8204, 8228, 8181, 8200, 8186, 8202, 8143, 8156, 8167, 8187, 8226, 8193, 8197, 8308,2.474544048309326
58, 8207, 8206, 8173, 8187, 8163, 8205, 8145, 8157, 8161, 8186, 8209, 8185, 8204, 8310,2.4825186729431152
59, 8180, 8183, 8116, 8186, 8132, 8210, 8173, 8154, 8163, 8189, 8209, 8163, 8209, 8300,2.4905738830566406
60, 8172, 8218, 8267, 8164, 8257, 8226, 8179, 8200, 8141, 8173, 8186, 8191, 8177, 8268,2.497443914413452
61, 8143, 8175, 8224, 8137, 8183, 8227, 8187, 8186, 8131, 8162, 8165, 8171, 8157, 8247,2.505544424057007
62, 8111, 8134, 8045, 8147, 8079, 8218, 8197, 8140, 8146, 8169, 8169, 8125, 8169, 8252,2.513444185256958
63, 8139, 8188, 8170, 8165, 8198, 8218, 8176, 8176, 8143, 8171, 8172, 8168, 8166, 8271,2.5215911865234375
64, 8136, 8172, 8198, 8147, 8191, 8222, 8166, 8181, 8140, 8174, 8181, 8178, 8174, 8294,2.5295066833496094
65, 8133, 8145, 8119, 8134, 8136, 8223, 8169, 8166, 8152, 8170, 8190, 8155, 8183, 8296,2.5374979972839355
66, 8174, 8191, 8157, 8168, 8166, 8218, 8173, 8181, 8169, 8166, 8190, 8166, 8179, 8287,2.545442581176758
67, 8186, 8230, 8191, 8211, 8204, 8217, 8183, 8183, 8179, 8171, 8176, 8173, 8170, 8277,2.55342435836792
68, 8177, 8231, 8181, 8234, 8202, 8233, 8188, 8171, 8185, 8183, 8169, 8168, 8161, 8269,2.561506748199463
69, 8184, 8229, 8160, 8254, 8191, 8235, 8183, 8151, 8190, 8185, 8174, 8161, 8169, 8273,2.5686147212982178
70, 8206, 8251, 8215, 8254, 8246, 8217, 8169, 8158, 8176, 8166, 8160, 8181, 8166, 8277,2.5765750408172607
71, 8211, 8247, 8203, 8245, 8210, 8207, 8157, 8164, 8172, 8164, 8170, 8197, 8176, 8296,2.5844955444335938
72, 8213, 8237, 8151, 8251, 8165, 8202, 8141, 8157, 8187, 8185, 8199, 8194, 8203, 8317,2.592622756958008
73, 8220, 8237, 8187, 8245, 8210, 8190, 8132, 8162, 8173, 8187, 8177, 8191, 8194, 8311,2.6006178855895996
74, 8190, 8202, 8133, 8214, 8185, 8182, 8153, 8147, 8154, 8177, 8145, 8165, 8179, 8301,2.608397960662842
75, 8184, 8217, 8164, 8198, 8229, 8197, 8175, 8175, 8156, 8177, 8144, 8176, 8182, 8302,2.6166164875030518
76, 8194, 8227, 8234, 8202, 8268, 8213, 8189, 8210, 8163, 8184, 8141, 8189, 8176, 8295,2.6246743202209473
77, 8144, 8167, 8121, 8174, 8193, 8192, 8198, 8176, 8165, 8180, 8120, 8145, 8151, 8271,2.6314165592193604
78, 8125, 8162, 8097, 8135, 8175, 8180, 8189, 8161, 8157, 8162, 8098, 8136, 8123, 8247,2.63960337638855
79, 8136, 8174, 8128, 8129, 8154, 8193, 8195, 8165, 8161, 8157, 8101, 8149, 8114, 8245,2.647616386413574
80, 8140, 8160, 8161, 8136, 8184, 8208, 8206, 8175, 8166, 8158, 8101, 8158, 8109, 8257,2.6556034088134766
81, 8140, 8152, 8177, 8133, 8203, 8209, 8199, 8180, 8165, 8151, 8106, 8161, 8115, 8268,2.663621187210083
82, 8130, 8171, 8130, 8138, 8160, 8208, 8197, 8166, 8169, 8149, 8128, 8144, 8127, 8266,2.6715924739837646
83, 8149, 8210, 8185, 8168, 8200, 8220, 8205, 8179, 8167, 8150, 8143, 8163, 8130, 8258,2.6796133518218994
84, 8167, 8207, 8186, 8197, 8200, 8227, 8212, 8172, 8179, 8163, 8171, 8181, 8159, 8285,2.687591552734375
85, 8185, 8221, 8180, 8205, 8199, 8216, 8202, 8168, 8184, 8168, 8182, 8189, 8183, 8319,2.694575071334839
86, 8192, 8243, 8198, 8195, 8207, 8208, 8191, 8180, 8172, 8162, 8161, 8188, 8175, 8311,2.7025883197784424
87, 8156, 8221, 8133, 8182, 8193, 8203, 8186, 8156, 8175, 8166, 8147, 8158, 8165, 8280,2.710543632507324
88, 8172, 8240, 8216, 8199, 8263, 8192, 8155, 8170, 8176, 8161, 8150, 8180, 8163, 8270,2.718606472015381
89, 8188, 8236, 8224, 8211, 8204, 8178, 8147, 8179, 8169, 8159, 8169, 8192, 8174, 8279,2.726613998413086
90, 8153, 8204, 8112, 8182, 8123, 8179, 8173, 8151, 8159, 8160, 8158, 8159, 8165, 8273,2.7345046997070312
91, 8137, 8192, 8134, 8154, 8166, 8183, 8181, 8160, 8153, 8142, 8124, 8148, 8135, 8255,2.7424349784851074
92, 8126, 8167, 8142, 8145, 8158, 8175, 8182, 8182, 8157, 8139, 8128, 8147, 8138, 8254,2.7505500316619873
93, 8129, 8169, 8154, 8132, 8153, 8180, 8182, 8204, 8161, 8156, 8142, 8163, 8148, 8267,2.758388042449951
94, 8148, 8181, 8157, 8140, 8139, 8191, 8191, 8206, 8179, 8165, 8148, 8169, 8156, 8285,2.765584945678711
95, 8163, 8198, 8169, 8170, 8161, 8188, 8200, 8206, 8191, 8164, 8159, 8170, 8167, 8294,2.7735767364501953
96, 8172, 8215, 8204, 8166, 8186, 8192, 8193, 8208, 8183, 8170, 8164, 8183, 8173, 8292,2.781658887863159
97, 8174, 8211, 8148, 8159, 8134, 8206, 8190, 8181, 8189, 8182, 8166, 8181, 8192, 8307,2.789597272872925
98, 8201, 8225, 8197, 8188, 8177, 8211, 8196, 8191, 8187, 8172, 8159, 8200, 8190, 8324,2.797595262527466
99, 8198, 8211, 8197, 8200, 8166, 8209, 8212, 8190, 8187, 8161, 8158, 8191, 8179, 8324,2.8056082725524902
100, 8179, 8205, 8142, 8181, 8138, 8213, 8214, 8166, 8197, 8166, 8162, 8164, 8186, 8308,2.813579797744751
101, 8212, 8234, 8226, 8171, 8181, 8214, 8202, 8178, 8172, 8159, 8151, 8185, 8178, 8296,2.8216121196746826
102, 8209, 8215, 8181, 8182, 8114, 8197, 8209, 8143, 8145, 8149, 8146, 8177, 8168, 8298,2.8286092281341553
103, 8182, 8212, 8131, 8192, 8119, 8186, 8191, 8099, 8137, 8144, 8147, 8159, 8162, 8286,2.8364758491516113
104, 8180, 8231, 8169, 8197, 8161, 8182, 8156, 8098, 8137, 8142, 8164, 8174, 8168, 8276,2.8446078300476074
105, 8175, 8224, 8163, 8197, 8132, 8163, 8141, 8104, 8132, 8138, 8173, 8174, 8173, 8281,2.852609872817993
106, 8173, 8212, 8179, 8169, 8139, 8143, 8125, 8126, 8110, 8124, 8140, 8166, 8145, 8279,2.8603880405426025
107, 8150, 8178, 8124, 8125, 8118, 8143, 8124, 8127, 8112, 8118, 8108, 8142, 8122, 8268,2.869610548019409
108, 8154, 8188, 8162, 8125, 8168, 8154, 8138, 8158, 8131, 8129, 8103, 8149, 8122, 8252,2.8766109943389893
109, 8172, 8203, 8210, 8145, 8175, 8153, 8162, 8205, 8148, 8139, 8122, 8167, 8131, 8258,2.8844153881073
110, 8148, 8176, 8119, 8129, 8107, 8151, 8184, 8197, 8167, 8142, 8143, 8148, 8135, 8275,2.8925669193267822
111, 8158, 8199, 8168, 8139, 8153, 8165, 8184, 8202, 8177, 8150, 8149, 8163, 8141, 8278,2.899585008621216
112, 8193, 8222, 8191, 8176, 8150, 8174, 8190, 8205, 8194, 8171, 8173, 8180, 8174, 8300,2.907759428024292
113, 8212, 8230, 8157, 8178, 8136, 8180, 8191, 8203, 8203, 8167, 8192, 8179, 8188, 8325,2.915681838989258
114, 8203, 8243, 8177, 8162, 8153, 8181, 8177, 8197, 8188, 8153, 8174, 8171, 8169, 8310,2.923581123352051
115, 8162, 8227, 8150, 8153, 8142, 8161, 8165, 8172, 8167, 8149, 8147, 8140, 8148, 8269,2.931617259979248
116, 8160, 8214, 8175, 8157, 8167, 8155, 8161, 8183, 8155, 8135, 8140, 8152, 8132, 8253,2.939595937728882
117, 8172, 8208, 8159, 8176, 8122, 8171, 8176, 8183, 8164, 8142, 8176, 8174, 8155, 8274,2.94758939743042
118, 8176, 8244, 8169, 8189, 8125, 8175, 8172, 8164, 8170, 8166, 8202, 8187, 8177, 8296,2.955590009689331
119, 8200, 8270, 8223, 8190, 8177, 8169, 8146, 8161, 8170, 8173, 8203, 8203, 8178, 8314,2.962467670440674
120, 8218, 8236, 8179, 8185, 8160, 8170, 8146, 8149, 8175, 8171, 8210, 8196, 8205, 8327,2.970550298690796
121, 8238, 8232, 8211, 8179, 8181, 8175, 8154, 8163, 8169, 8171, 8206, 8199, 8221, 8325,2.9785866737365723
122, 8222, 8223, 8184, 8178, 8157, 8172, 8168, 8178, 8183, 8184, 8205, 8183, 8208, 8325,2.986391544342041
123, 8181, 8214, 8135, 8162, 8171, 8177, 8182, 8185, 8196, 8178, 8192, 8162, 8180, 8315,2.9944591522216797
124, 8166, 8205, 8180, 8139, 8197, 8184, 8191, 8201, 8179, 8157, 8166, 8161, 8150, 8287,3.002440929412842
125, 8164, 8176, 8136, 8146, 8127, 8181, 8203, 8203, 8185, 8168, 8185, 8146, 8162, 8287,3.0112709999084473
126, 8200, 8213, 8198, 8155, 8176, 8179, 8195, 8233, 8195, 8177, 8196, 8170, 8183, 8297,3.0184895992279053
127, 8195, 8220, 8219, 8129, 8184, 8173, 8191, 8228, 8192, 8163, 8172, 8172, 8167, 8280,3.025338649749756
237, 8155, 8179, 8111, 8118, 8130, 8168, 8210, 8191, 8200, 8163, 8164, 8132, 8146, 8270,3.0335476398468018
0, 8182, 8199, 8142, 8146, 8160, 8177, 8218, 8201, 8204, 8170, 8176, 8147, 8145, 8285,3.041433811187744
1, 8193, 8214, 8159, 8162, 8152, 8179, 8212, 8188, 8195, 8160, 8182, 8159, 8152, 8278,3.049459218978882
2, 8166, 8210, 8168, 8165, 8167, 8177, 8202, 8167, 8180, 8146, 8170, 8151, 8142, 8251,3.0573415756225586
3, 8156, 8213, 8163, 8165, 8144, 8183, 8191, 8144, 8174, 8153, 8174, 8154, 8152, 8263,3.065427780151367
4, 8168, 8228, 8159, 8170, 8127, 8173, 8160, 8121, 8174, 8158, 8203, 8172, 8184, 8294,3.0734283924102783
5, 8191, 8229, 8223, 8178, 8168, 8156, 8117, 8126, 8157, 8148, 8226, 8197, 8195, 8303,3.0815513134002686
6, 8162, 8192, 8142, 8167, 8124, 8155, 8118, 8107, 8146, 8153, 8229, 8164, 8197, 8307,3.0893733501434326
7, 8150, 8214, 8165, 8153, 8178, 8172, 8130, 8129, 8138, 8156, 8200, 8155, 8174, 8290,3.0964443683624268
8, 8164, 8222, 8221, 8155, 8187, 8173, 8139, 8166, 8140, 8151, 8196, 8171, 8162, 8273,3.1044206619262695
9, 8138, 8185, 8121, 8152, 8105, 8157, 8169, 8166, 8160, 8163, 8208, 8152, 8181, 8277,3.112454891204834
10, 8146, 8205, 8186, 8147, 8164, 8163, 8179, 8203, 8171, 8169, 8187, 8162, 8173, 8268,3.120422840118408
11, 8148, 8200, 8193, 8145, 8133, 8165, 8175, 8206, 8184, 8163, 8175, 8154, 8162, 8257,3.128326654434204
12, 8136, 8189, 8120, 8144, 8095, 8144, 8169, 8183, 8193, 8159, 8175, 8143, 8163, 8263,3.1364197731018066
13, 8157, 8206, 8155, 8149, 8149, 8135, 8170, 8195, 8198, 8166, 8180, 8163, 8167, 8268,3.1443636417388916
14, 8164, 8204, 8171, 8164, 8148, 8148, 8180, 8198, 8208, 8174, 8197, 8162, 8177, 8274,3.152346611022949
15, 8156, 8206, 8175, 8166, 8142, 8149, 8172, 8190, 8195, 8163, 8184, 8155, 8166, 8277,3.1594719886779785
16, 8137, 8186, 8122, 8151, 8130, 8128, 8162, 8164, 8176, 8157, 8159, 8141, 8147, 8255,3.1674890518188477
17, 8160, 8194, 8168, 8165, 8178, 8119, 8147, 8160, 8161, 8152, 8155, 8160, 8137, 8247,3.175468921661377
18, 8198, 8210, 8225, 8196, 8170, 8120, 8136, 8171, 8159, 8148, 8173, 8188, 8156, 8287,3.1833655834198
19, 8187, 8198, 8151, 8191, 8113, 8114, 8141, 8154, 8169, 8162, 8187, 8175, 8185, 8303,3.191502571105957
20, 8203, 8220, 8194, 8181, 8165, 8129, 8147, 8166, 8178, 8175, 8196, 8187, 8197, 8292,3.1994049549102783
21, 8225, 8222, 8195, 8202, 8140, 8146, 8164, 8174, 8200, 8185, 8218, 8196, 8217, 8325,3.2072978019714355
22, 8214, 8211, 8173, 8217, 8139, 8142, 8169, 8172, 8201, 8178, 8204, 8188, 8219, 8341,3.2154600620269775
23, 8195, 8211, 8222, 8191, 8176, 8139, 8161, 8177, 8172, 8163, 8176, 8181, 8192, 8301,3.223421573638916
24, 8164, 8195, 8157, 8162, 8117, 8135, 8170, 8162, 8172, 8165, 8187, 8155, 8185, 8279,3.230360984802246
25, 8160, 8196, 8147, 8155, 8131, 8125, 8171, 8180, 8180, 8164, 8174, 8158, 8181, 8280,3.2383251190185547
26, 8160, 8175, 8151, 8153, 8128, 8122, 8176, 8192, 8183, 8159, 8147, 8160, 8172, 8269,3.246380090713501
27, 8149, 8161, 8146, 8146, 8128, 8124, 8185, 8189, 8196, 8158, 8147, 8152, 8158, 8250,3.2543959617614746
28, 8146, 8161, 8177, 8133, 8158, 8129, 8182, 8202, 8200, 8155, 8142, 8154, 8141, 8242,3.262397050857544
29, 8131, 8137, 8121, 8113, 8126, 8134, 8193, 8186, 8207, 8156, 8134, 8141, 8144, 8259,3.270463705062866
30, 8166, 8175, 8185, 8128, 8168, 8144, 8190, 8193, 8217, 8159, 8140, 8168, 8139, 8270,3.278337001800537
31, 8201, 8206, 8209, 8178, 8142, 8137, 8175, 8186, 8218, 8167, 8165, 8183, 8145, 8280,3.2863478660583496
32, 8185, 8196, 8158, 8196, 8119, 8125, 8159, 8157, 8197, 8163, 8173, 8166, 8160, 8293,3.2932794094085693
33, 8191, 8206, 8228, 8177, 8183, 8124, 8136, 8164, 8166, 8145, 8156, 8180, 8145, 8283,3.3014018535614014
34, 8192, 8195, 8179, 8179, 8131, 8119, 8133, 8139, 8165, 8157, 8162, 8171, 8144, 8272,3.3094284534454346
35, 8207, 8200, 8168, 8200, 8138, 8116, 8130, 8123, 8167, 8169, 8179, 8173, 8167, 8284,3.317497730255127
36, 8218, 8209, 8200, 8204, 8155, 8112, 8117, 8129, 8164, 8158, 8191, 8183, 8186, 8293,3.3254451751708984
37, 8209, 8213, 8163, 8201, 8140, 8115, 8110, 8124, 8168, 8161, 8188, 8172, 8188, 8276,3.3334386348724365
38, 8225, 8233, 8202, 8198, 8178, 8125, 8112, 8138, 8169, 8174, 8179, 8181, 8187, 8270,3.3415305614471436
39, 8212, 8203, 8168, 8191, 8154, 8129, 8126, 8140, 8179, 8175, 8187, 8174, 8200, 8294,3.3494679927825928
40, 8192, 8181, 8153, 8189, 8157, 8140, 8134, 8162, 8187, 8171, 8176, 8170, 8197, 8307,3.3565480709075928
41, 8183, 8183, 8154, 8176, 8135, 8150, 8147, 8186, 8198, 8172, 8149, 8167, 8179, 8294,3.3645431995391846
42, 8158, 8188, 8137, 8151, 8137, 8150, 8167, 8191, 8209, 8171, 8139, 8148, 8165, 8269,3.3725409507751465
43, 8150, 8196, 8193, 8152, 8197, 8162, 8178, 8216, 8206, 8168, 8144, 8160, 8160, 8255,3.380591869354248
44, 8136, 8162, 8132, 8150, 8121, 8163, 8194, 8202, 8211, 8166, 8155, 8157, 8170, 8263,3.388421058654785
45, 8150, 8166, 8154, 8139, 8134, 8149, 8198, 8200, 8209, 8158, 8157, 8165, 8169, 8273,3.3963422775268555
46, 8177, 8189, 8241, 8146, 8197, 8155, 8200, 8224, 8206, 8173, 8165, 8188, 8168, 8285,3.404268980026245
47, 8153, 8164, 8146, 8156, 8139, 8168, 8215, 8196, 8222, 8191, 8171, 8163, 8186, 8292,3.4123547077178955
48, 8150, 8173, 8130, 8168, 8151, 8173, 8200, 8167, 8212, 8173, 8160, 8155, 8183, 8275,3.419351816177368
49, 8185, 8204, 8185, 8204, 8186, 8168, 8177, 8158, 8194, 8173, 8176, 8171, 8185, 8270,3.427337169647217
50, 8220, 8233, 8214, 8239, 8197, 8165, 8172, 8163, 8197, 8197, 8191, 8185, 8209, 8293,3.4352595806121826
51, 8220, 8226, 8201, 8231, 8176, 8160, 8163, 8157, 8196, 8193, 8177, 8182, 8217, 8311,3.443403482437134
52, 8195, 8202, 8155, 8199, 8161, 8148, 8133, 8127, 8185, 8176, 8168, 8164, 8201, 8297,3.4514403343200684
53, 8206, 8218, 8224, 8196, 8214, 8156, 8118, 8145, 8168, 8171, 8162, 8187, 8189, 8273,3.459458827972412
54, 8189, 8185, 8162, 8196, 8147, 8173, 8159, 8152, 8170, 8178, 8168, 8179, 8208, 8284,3.467495918273926
55, 8164, 8171, 8126, 8178, 8156, 8166, 8175, 8151, 8167, 8171, 8155, 8155, 8190, 8289,3.4754478931427
56, 8174, 8200, 8214, 8155, 8214, 8146, 8153, 8175, 8161, 8154, 8128, 8161, 8149, 8264,3.4834415912628174
57, 8150, 8185, 8139, 8149, 8131, 8147, 8178, 8169, 8188, 8163, 8138, 8146, 8169, 8259,3.490399122238159
58, 8153, 8201, 8180, 8157, 8179, 8165, 8199, 8201, 8200, 8165, 8138, 8167, 8174, 8262,3.4984424114227295
59, 8169, 8196, 8206, 8163, 8180, 8170, 8206, 8221, 8200, 8161, 8132, 8169, 8156, 8261,3.5064268112182617
60, 8149, 8155, 8111, 8156, 8109, 8162, 8221, 8195, 8219, 8169, 8136, 8140, 8164, 8261,3.5144684314727783
61, 8146, 8156, 8148, 8146, 8148, 8156, 8224, 8203, 8225, 8169, 8125, 8157, 8172, 8254,3.5225934982299805
62, 8152, 8173, 8181, 8158, 8158, 8161, 8227, 8204, 8223, 8171, 8130, 8167, 8168, 8251,3.530456781387329
63, 8170, 8193, 8174, 8191, 8145, 8178, 8231, 8186, 8229, 8179, 8155, 8169, 8173, 8274,3.538384199142456
64, 8184, 8200, 8137, 8221, 8134, 8178, 8216, 8160, 8239, 8189, 8175, 8171, 8203, 8307,3.546553611755371
65, 8202, 8224, 8189, 8234, 8184, 8159, 8178, 8151, 8221, 8187, 8164, 8178, 8216, 8304,3.5534780025482178
66, 8218, 8243, 8241, 8235, 8184, 8152, 8154, 8152, 8192, 8176, 8159, 8185, 8205, 8290,3.5616064071655273
67, 8206, 8224, 8163, 8228, 8120, 8160, 8152, 8132, 8181, 8177, 8175, 8170, 8209, 8293,3.5694847106933594
68, 8224, 8231, 8203, 8206, 8172, 8162, 8135, 8160, 8163, 8177, 8159, 8178, 8201, 8293,3.5775232315063477
69, 8221, 8214, 8191, 8188, 8153, 8145, 8136, 8172, 8159, 8177, 8149, 8172, 8200, 8290,3.5856494903564453
70, 8190, 8201, 8142, 8185, 8121, 8135, 8151, 8157, 8168, 8169, 8151, 8149, 8209, 8284,3.5935418605804443
71, 8201, 8225, 8238, 8171, 8181, 8140, 8142, 8184, 8154, 8151, 8130, 8165, 8186, 8264,3.601608991622925
72, 8182, 8185, 8183, 8146, 8127, 8133, 8145, 8180, 8159, 8159, 8112, 8159, 8168, 8262,3.6085996627807617
73, 8157, 8162, 8118, 8158, 8115, 8138, 8171, 8175, 8192, 8178, 8121, 8152, 8181, 8281,3.61657452583313
74, 8166, 8187, 8153, 8176, 8154, 8151, 8184, 8192, 8202, 8176, 8142, 8162, 8190, 8288,3.624748945236206
75, 8158, 8190, 8138, 8148, 8148, 8136, 8175, 8182, 8185, 8164, 8132, 8149, 8175, 8268,3.6325583457946777
76, 8158, 8186, 8163, 8125, 8166, 8130, 8169, 8186, 8182, 8164, 8108, 8147, 8160, 8255,3.6405043601989746
77, 8163, 8175, 8146, 8142, 8134, 8146, 8186, 8183, 8197, 8169, 8121, 8149, 8171, 8270,3.6485631465911865
78, 8181, 8194, 8176, 8165, 8163, 8148, 8181, 8179, 8188, 8161, 8134, 8170, 8173, 8280,3.6565914154052734
79, 8203, 8213, 8205, 8174, 8167, 8137, 8165, 8179, 8183, 8157, 8142, 8189, 8184, 8293,3.664379119873047
80, 8206, 8210, 8151, 8187, 8127, 8136, 8167, 8165, 8199, 8176, 8173, 8176, 8220, 8318,3.671558380126953
81, 8230, 8246, 8226, 8222, 8206, 8143, 8149, 8173, 8197, 8197, 8199, 8204, 8239, 8333,3.680612087249756
82, 8232, 8253, 8211, 8249, 8202, 8137, 8127, 8151, 8201, 8208, 8216, 8214, 8257, 8345,3.6875975131988525
83, 8236, 8259, 8180, 8249, 8193, 8139, 8109, 8132, 8205, 8207, 8212, 8207, 8271, 8349,3.69558048248291
84, 8263, 8288, 8254, 8239, 8217, 8153, 8108, 8156, 8186, 8206, 8204, 8221, 8270, 8360,3.7035412788391113
85, 8237, 8265, 8191, 8222, 8162, 8152, 8147, 8163, 8186, 8210, 8209, 8199, 8265, 8363,3.7115750312805176
86, 8197, 8213, 8132, 8182, 8156, 8148, 8180, 8181, 8189, 8195, 8178, 8165, 8231, 8320,3.7195236682891846
87, 8173, 8172, 8129, 8150, 8141, 8151, 8194, 8194, 8183, 8176, 8131, 8139, 8196, 8270,3.7275400161743164
88, 8169, 8191, 8160, 8151, 8151, 8153, 8193, 8194, 8175, 8168, 8115, 8144, 8174, 8261,3.73557448387146
89, 8169, 8202, 8172, 8144, 8178, 8143, 8181, 8191, 8169, 8156, 8111, 8155, 8156, 8263,3.7425379753112793
90, 8159, 8177, 8114, 8132, 8150, 8138, 8186, 8176, 8178, 8156, 8105, 8134, 8155, 8255,3.750445604324341
91, 8185, 8209, 8191, 8149, 8200, 8149, 8188, 8201, 8180, 8160, 8103, 8152, 8152, 8256,3.758544445037842
92, 8180, 8200, 8187, 8159, 8181, 8137, 8174, 8189, 8175, 8153, 8117, 8159, 8145, 8271,3.7663724422454834
93, 8148, 8178, 8121, 8145, 8158, 8113, 8154, 8148, 8154, 8136, 8119, 8139, 8134, 8263,3.7743330001831055
94, 8157, 8219, 8176, 8164, 8184, 8126, 8157, 8155, 8132, 8131, 8116, 8151, 8131, 8242,3.782541275024414
95, 8158, 8219, 8154, 8204, 8148, 8150, 8184, 8147, 8156, 8158, 8145, 8152, 8155, 8252,3.790372371673584
96, 8183, 8219, 8195, 8209, 8194, 8129, 8166, 8156, 8167, 8167, 8163, 8179, 8165, 8278,3.7985212802886963
97, 8216, 8227, 8234, 8197, 8187, 8093, 8130, 8162, 8142, 8159, 8156, 8205, 8175, 8293,3.805471181869507
98, 8204, 8222, 8169, 8219, 8133, 8089, 8125, 8132, 8132, 8167, 8166, 8187, 8199, 8295,3.8135430812835693
99, 8219, 8245, 8194, 8249, 8170, 8096, 8123, 8134, 8137, 8167, 8178, 8191, 8205, 8307,3.8215420246124268
100, 8231, 8246, 8180, 8231, 8147, 8089, 8124, 8151, 8148, 8171, 8174, 8197, 8206, 8322,3.8295555114746094
101, 8214, 8228, 8175, 8197, 8154, 8094, 8129, 8175, 8151, 8177, 8147, 8186, 8195, 8305,3.837568998336792
102, 8197, 8209, 8179, 8189, 8148, 8109, 8142, 8177, 8155, 8170, 8126, 8165, 8181, 8284,3.8455193042755127
103, 8179, 8191, 8145, 8175, 8131, 8113, 8153, 8163, 8162, 8164, 8116, 8156, 8182, 8281,3.8535728454589844
104, 8165, 8165, 8189, 8138, 8185, 8110, 8140, 8180, 8148, 8162, 8101, 8167, 8165, 8270,3.8612570762634277
105, 8147, 8128, 8146, 8123, 8145, 8099, 8132, 8165, 8141, 8162, 8115, 8144, 8160, 8265,3.869372844696045
106, 8173, 8171, 8153, 8151, 8149, 8104, 8139, 8163, 8154, 8169, 8136, 8156, 8184, 8285,3.8762693405151367
107, 8200, 8211, 8199, 8182, 8185, 8136, 8159, 8180, 8174, 8189, 8147, 8183, 8209, 8309,3.884260654449463
108, 8181, 8189, 8159, 8197, 8178, 8141, 8164, 8160, 8171, 8185, 8149, 8162, 8208, 8312,3.892331838607788
109, 8189, 8198, 8204, 8198, 8208, 8127, 8146, 8165, 8148, 8159, 8138, 8170, 8188, 8297,3.900451183319092
110, 8186, 8189, 8173, 8189, 8173, 8132, 8160, 8169, 8161, 8164, 8152, 8183, 8201, 8304,3.90826153755188
111, 8178, 8184, 8148, 8187, 8180, 8147, 8181, 8166, 8179, 8179, 8167, 8186, 8217, 8321,3.9164087772369385
112, 8208, 8216, 8190, 8204, 8186, 8148, 8175, 8166, 8163, 8179, 8162, 8200, 8208, 8331,3.924612045288086
113, 8232, 8236, 8182, 8226, 8162, 8138, 8161, 8157, 8158, 8177, 8153, 8199, 8206, 8339,3.932323694229126
114, 8245, 8235, 8222, 8233, 8209, 8144, 8151, 8188, 8186, 8190, 8156, 8210, 8228, 8343,3.940248489379883
115, 8234, 8212, 8169, 8225, 8166, 8156, 8157, 8191, 8217, 8218, 8185, 8202, 8272, 8360,3.9474422931671143
116, 8254, 8239, 8202, 8220, 8195, 8172, 8155, 8191, 8203, 8216, 8179, 8206, 8271, 8371,3.955490827560425
117, 8266, 8220, 8249, 8208, 8204, 8174, 8150, 8191, 8174, 8190, 8138, 8191, 8222, 8335,3.963604688644409
118, 8190, 8149, 8113, 8169, 8118, 8154, 8164, 8153, 8170, 8182, 8116, 8129, 8188, 8281,3.9715442657470703
119, 8170, 8191, 8196, 8158, 8203, 8151, 8166, 8178, 8157, 8170, 8097, 8155, 8165, 8263,3.979452610015869
120, 8181, 8193, 8231, 8169, 8183, 8159, 8173, 8190, 8162, 8166, 8097, 8170, 8166, 8276,3.9876646995544434
121, 8139, 8117, 8063, 8137, 8070, 8149, 8182, 8147, 8177, 8172, 8106, 8114, 8166, 8270,3.995511770248413
122, 8124, 8123, 8078, 8107, 8106, 8143, 8177, 8146, 8163, 8159, 8091, 8121, 8136, 8240,4.003603458404541
123, 8126, 8157, 8158, 8120, 8148, 8159, 8191, 8165, 8159, 8154, 8090, 8150, 8126, 8219,4.010561466217041
124, 8131, 8158, 8170, 8132, 8155, 8176, 8201, 8173, 8167, 8162, 8110, 8150, 8143, 8228,4.018407821655273
125, 8150, 8163, 8140, 8144, 8134, 8176, 8193, 8156, 8172, 8171, 8128, 8150, 8172, 8261,4.026592969894409
126, 8186, 8199, 8185, 8181, 8160, 8178, 8180, 8149, 8178, 8183, 8137, 8186, 8187, 8282,4.034451484680176
127, 8209, 8210, 8239, 8202, 8189, 8189, 8166, 8163, 8188, 8191, 8161, 8213, 8199, 8303,4.042349815368652
237, 8195, 8179, 8167, 8197, 8150, 8188, 8157, 8158, 8197, 8197, 8187, 8192, 8229, 8339,4.050336599349976
0, 8201, 8180, 8189, 8192, 8178, 8170, 8137, 8163, 8178, 8194, 8166, 8194, 8228, 8339,4.058355331420898
1, 8197, 8172, 8207, 8174, 8169, 8161, 8122, 8158, 8162, 8191, 8141, 8191, 8201, 8297,4.066433668136597
2, 8173, 8150, 8145, 8152, 8138, 8161, 8126, 8149, 8164, 8182, 8136, 8161, 8184, 8273,4.074546575546265
3, 8166, 8147, 8162, 8140, 8169, 8151, 8125, 8165, 8142, 8162, 8102, 8155, 8157, 8267,4.081429958343506
4, 8137, 8120, 8126, 8122, 8140, 8137, 8135, 8159, 8127, 8155, 8080, 8135, 8125, 8246,4.0895094871521
5, 8122, 8126, 8144, 8115, 8156, 8150, 8156, 8182, 8145, 8162, 8090, 8140, 8121, 8233,4.097596645355225
6, 8116, 8123, 8153, 8122, 8133, 8172, 8183, 8204, 8170, 8169, 8107, 8157, 8147, 8244,4.105354070663452
7, 8087, 8094, 8103, 8113, 8103, 8170, 8189, 8181, 8172, 8168, 8104, 8135, 8150, 8231,4.113458156585693
8, 8101, 8115, 8164, 8113, 8149, 8171, 8175, 8183, 8166, 8172, 8089, 8129, 8137, 8212,4.121423959732056
9, 8119, 8130, 8127, 8145, 8114, 8189, 8179, 8167, 8193, 8190, 8109, 8129, 8158, 8239,4.129425287246704
10, 8140, 8169, 8213, 8171, 8221, 8210, 8174, 8180, 8183, 8179, 8114, 8168, 8148, 8247,4.13755989074707
11, 8147, 8175, 8291, 8161, 8246, 8212, 8170, 8191, 8151, 8165, 8118, 8188, 8141, 8237,4.144428730010986
12, 8116, 8127, 8104, 8153, 8087, 8204, 8192, 8137, 8180, 8195, 8163, 8149, 8205, 8269,4.1524436473846436
13, 8142, 8160, 8097, 8182, 8121, 8215, 8197, 8147, 8207, 8212, 8192, 8172, 8251, 8310,4.1604979038238525
14, 8179, 8193, 8178, 8199, 8172, 8218, 8194, 8173, 8198, 8211, 8198, 8201, 8256, 8332,4.168514966964722
15, 8189, 8187, 8201, 8202, 8182, 8207, 8183, 8160, 8194, 8216, 8188, 8197, 8251, 8331,4.176677703857422
16, 8194, 8169, 8200, 8203, 8192, 8201, 8166, 8156, 8201, 8212, 8165, 8189, 8234, 8311,4.184514284133911
17, 8173, 8141, 8129, 8175, 8155, 8196, 8174, 8154, 8209, 8204, 8158, 8163, 8223, 8292,4.192297458648682
18, 8168, 8155, 8170, 8151, 8188, 8204, 8179, 8180, 8205, 8200, 8156, 8172, 8223, 8298,4.200543642044067
19, 8168, 8159, 8197, 8153, 8197, 8212, 8177, 8198, 8197, 8205, 8139, 8177, 8213, 8305,4.2083899974823
20, 8142, 8131, 8135, 8145, 8154, 8199, 8183, 8186, 8192, 8199, 8120, 8149, 8183, 8276,4.2155375480651855
21, 8121, 8113, 8094, 8127, 8113, 8182, 8184, 8172, 8200, 8184, 8118, 8131, 8169, 8250,4.22363018989563
22, 8124, 8114, 8119, 8117, 8140, 8177, 8177, 8174, 8196, 8175, 8102, 8136, 8163, 8248,4.231555223464966
23, 8135, 8116, 8176, 8115, 8202, 8181, 8169, 8181, 8168, 8160, 8076, 8145, 8125, 8229,4.239650726318359
24, 8111, 8101, 8123, 8123, 8159, 8194, 8176, 8156, 8156, 8146, 8078, 8121, 8095, 8201,4.247487306594849
25, 8097, 8121, 8130, 8124, 8162, 8210, 8182, 8150, 8154, 8142, 8087, 8118, 8096, 8200,4.255474805831909
26, 8118, 8130, 8185, 8119, 8188, 8210, 8192, 8168, 8157, 8155, 8110, 8149, 8125, 8227,4.263585805892944
27, 8133, 8121, 8129, 8151, 8152, 8197, 8204, 8154, 8178, 8185, 8144, 8160, 8171, 8265,4.27137565612793
28, 8175, 8182, 8212, 8204, 8223, 8197, 8179, 8174, 8173, 8189, 8144, 8189, 8177, 8278,4.278570890426636
29, 8187, 8195, 8248, 8215, 8215, 8194, 8155, 8167, 8152, 8176, 8160, 8184, 8169, 8261,4.286646127700806
30, 8170, 8156, 8149, 8201, 8141, 8185, 8158, 8115, 8153, 8183, 8193, 8159, 8189, 8265,4.294373512268066
31, 8201, 8175, 8166, 8204, 8172, 8183, 8159, 8122, 8162, 8197, 8189, 8188, 8207, 8307,4.30235481262207
32, 8210, 8178, 8171, 8215, 8175, 8185, 8154, 8137, 8164, 8200, 8187, 8199, 8222, 8336,4.31056809425354
33, 8197, 8171, 8183, 8210, 8170, 8192, 8142, 8147, 8157, 8197, 8203, 8193, 8231, 8327,4.318421125411987
34, 8192, 8159, 8176, 8186, 8145, 8201, 8154, 8159, 8167, 8211, 8215, 8195, 8241, 8319,4.32660698890686
35, 8177, 8147, 8147, 8156, 8151, 8199, 8176, 8165, 8175, 8211, 8197, 8182, 8228, 8304,4.334340333938599
36, 8176, 8152, 8192, 8150, 8187, 8188, 8168, 8176, 8164, 8185, 8161, 8171, 8190, 8281,4.342664957046509
37, 8175, 8134, 8152, 8153, 8139, 8175, 8167, 8162, 8173, 8185, 8153, 8155, 8186, 8286,4.349608659744263
38, 8191, 8137, 8164, 8145, 8164, 8172, 8170, 8169, 8170, 8186, 8149, 8167, 8186, 8288,4.357588291168213
39, 8192, 8140, 8175, 8142, 8149, 8174, 8173, 8168, 8154, 8169, 8139, 8168, 8163, 8272,4.365413188934326
40, 8169, 8145, 8129, 8149, 8116, 8179, 8181, 8150, 8159, 8164, 8133, 8151, 8143, 8268,4.373507261276245
41, 8181, 8172, 8216, 8146, 8195, 8192, 8177, 8189, 8160, 8163, 8121, 8179, 8137, 8275,4.381300210952759
42, 8162, 8131, 8182, 8120, 8153, 8195, 8182, 8197, 8166, 8166, 8137, 8174, 8157, 8279,4.389592885971069
43, 8140, 8103, 8119, 8110, 8114, 8200, 8188, 8174, 8173, 8173, 8152, 8155, 8169, 8273,4.3975019454956055
44, 8157, 8118, 8149, 8135, 8138, 8207, 8191, 8167, 8166, 8169, 8142, 8164, 8159, 8277,4.405598878860474
45, 8165, 8131, 8167, 8155, 8162, 8210, 8191, 8164, 8160, 8163, 8143, 8172, 8169, 8291,4.412338972091675
46, 8191, 8164, 8253, 8153, 8220, 8208, 8171, 8175, 8149, 8166, 8158, 8204, 8183, 8300,4.420376777648926
47, 8199, 8154, 8203, 8151, 8153, 8186, 8160, 8143, 8141, 8174, 8175, 8195, 8192, 8310,4.42840576171875
48, 8191, 8137, 8128, 8161, 8120, 8161, 8158, 8124, 8139, 8168, 8174, 8171, 8195, 8320,4.436595916748047
49, 8198, 8148, 8163, 8176, 8156, 8156, 8154, 8158, 8145, 8172, 8167, 8182, 8195, 8331,4.444354772567749
50, 8197, 8149, 8163, 8176, 8154, 8155, 8145, 8172, 8158, 8186, 8159, 8181, 8194, 8327,4.452594518661499
51, 8202, 8145, 8204, 8161, 8187, 8158, 8139, 8181, 8157, 8173, 8147, 8185, 8179, 8304,4.460374593734741
52, 8183, 8112, 8154, 8144, 8150, 8168, 8163, 8173, 8170, 8167, 8157, 8170, 8179, 8284,4.468610525131226
53, 8166, 8122, 8143, 8148, 8164, 8170, 8173, 8178, 8180, 8176, 8153, 8161, 8174, 8271,4.475390911102295
54, 8187, 8161, 8241, 8164, 8212, 8171, 8164, 8199, 8171, 8179, 8137, 8186, 8173, 8277,4.483590602874756
55, 8191, 8151, 8185, 8185, 8150, 8176, 8172, 8172, 8181, 8190, 8166, 8178, 8207, 8303,4.491414785385132
56, 8195, 8159, 8155, 8217, 8152, 8177, 8164, 8161, 8184, 8194, 8186, 8180, 8224, 8313,4.49955677986145
57, 8208, 8174, 8185, 8230, 8168, 8173, 8147, 8161, 8168, 8191, 8172, 8195, 8217, 8313,4.507391929626465
58, 8234, 8185, 8206, 8215, 8179, 8180, 8143, 8157, 8157, 8194, 8164, 8198, 8214, 8323,4.5155956745147705
59, 8260, 8203, 8211, 8214, 8192, 8189, 8144, 8163, 8154, 8192, 8169, 8199, 8213, 8333,4.523515224456787
60, 8237, 8189, 8155, 8227, 8173, 8187, 8152, 8158, 8159, 8189, 8178, 8186, 8225, 8342,4.531595468521118
61, 8223, 8178, 8198, 8214, 8207, 8183, 8154, 8184, 8156, 8189, 8165, 8197, 8224, 8340,4.538397550582886
62, 8201, 8152, 8162, 8188, 8149, 8185, 8171, 8187, 8168, 8192, 8148, 8179, 8211, 8322,4.546498775482178
63, 8174, 8156, 8131, 8180, 8150, 8197, 8190, 8183, 8182, 8192, 8140, 8157, 8204, 8301,4.554375648498535
64, 8188, 8168, 8235, 8170, 8232, 8204, 8184, 8211, 8179, 8188, 8143, 8182, 8197, 8293,4.562593221664429
65, 8175, 8122, 8151, 8165, 8141, 8181, 8177, 8177, 8185, 8188, 8152, 8167, 8194, 8299,4.570326805114746
66, 8162, 8131, 8126, 8175, 8137, 8177, 8172, 8158, 8188, 8183, 8142, 8167, 8184, 8298,4.578590393066406
67, 8162, 8147, 8203, 8177, 8192, 8200, 8174, 8179, 8184, 8184, 8147, 8183, 8193, 8283,4.586548805236816
68, 8131, 8115, 8144, 8165, 8152, 8205, 8190, 8163, 8195, 8196, 8159, 8153, 8205, 8263,4.594589948654175
69, 8133, 8133, 8134, 8182, 8151, 8201, 8203, 8171, 8209, 8204, 8154, 8152, 8196, 8254,4.602498292922974
70, 8157, 8158, 8161, 8210, 8156, 8209, 8212, 8196, 8213, 8206, 8164, 8176, 8207, 8270,4.6095640659332275
71, 8177, 8155, 8195, 8208, 8186, 8212, 8197, 8191, 8197, 8198, 8166, 8184, 8205, 8279,4.617547988891602
72, 8191, 8154, 8180, 8213, 8182, 8203, 8178, 8160, 8193, 8202, 8175, 8175, 8197, 8292,4.625328540802002
73, 8216, 8184, 8173, 8239, 8182, 8206, 8182, 8164, 8212, 8218, 8207, 8190, 8227, 8331,4.6335108280181885
74, 8253, 8212, 8253, 8258, 8227, 8216, 8195, 8205, 8222, 8226, 8218, 8225, 8262, 8355,4.641582727432251
75, 8230, 8185, 8186, 8243, 8184, 8205, 8209, 8184, 8226, 8236, 8211, 8198, 8271, 8345,4.649497032165527
76, 8203, 8184, 8172, 8215, 8203, 8197, 8207, 8175, 8212, 8229, 8195, 8185, 8252, 8325,4.657554864883423
77, 8200, 8179, 8207, 8189, 8202, 8202, 8205, 8193, 8185, 8205, 8172, 8190, 8222, 8314,4.665518522262573
78, 8175, 8144, 8111, 8186, 8138, 8200, 8208, 8163, 8178, 8195, 8150, 8148, 8200, 8308,4.672437906265259
79, 8176, 8154, 8140, 8197, 8193, 8201, 8188, 8159, 8160, 8186, 8141, 8149, 8186, 8307,4.680492877960205
80, 8185, 8147, 8166, 8178, 8182, 8200, 8165, 8171, 8148, 8186, 8161, 8173, 8203, 8322,4.6886208057403564
81, 8185, 8136, 8141, 8160, 8154, 8183, 8148, 8168, 8159, 8192, 8166, 8178, 8221, 8328,4.696373462677002
82, 8182, 8135, 8158, 8157, 8174, 8171, 8140, 8159, 8159, 8188, 8156, 8180, 8209, 8315,4.704331636428833
83, 8158, 8116, 8144, 8148, 8161, 8175, 8149, 8146, 8149, 8178, 8145, 8165, 8182, 8295,4.712547302246094
84, 8153, 8131, 8183, 8154, 8190, 8185, 8155, 8162, 8139, 8162, 8120, 8166, 8148, 8274,4.720666408538818
85, 8148, 8139, 8167, 8178, 8181, 8194, 8167, 8158, 8148, 8168, 8134, 8162, 8152, 8272,4.728570222854614
86, 8151, 8151, 8169, 8204, 8204, 8210, 8185, 8155, 8166, 8182, 8173, 8171, 8181, 8278,4.735596656799316
87, 8174, 8174, 8211, 8222, 8224, 8224, 8202, 8181, 8184, 8189, 8194, 8195, 8202, 8285,4.743528842926025
88, 8169, 8175, 8158, 8236, 8191, 8220, 8208, 8170, 8201, 8207, 8209, 8187, 8229, 8292,4.751496076583862
89, 8182, 8201, 8207, 8258, 8240, 8211, 8180, 8161, 8192, 8214, 8205, 8202, 8237, 8292,4.759550094604492
90, 8197, 8208, 8205, 8273, 8200, 8196, 8163, 8152, 8191, 8216, 8203, 8208, 8237, 8303,4.7675817012786865
91, 8195, 8202, 8143, 8247, 8173, 8174, 8160, 8146, 8191, 8219, 8199, 8191, 8234, 8311,4.775320768356323
92, 8199, 8203, 8204, 8225, 8231, 8160, 8135, 8159, 8168, 8211, 8173, 8196, 8220, 8302,4.783329010009766
93, 8170, 8170, 8171, 8215, 8189, 8146, 8131, 8137, 8158, 8201, 8154, 8175, 8214, 8297,4.791473865509033
94, 8163, 8166, 8150, 8192, 8192, 8134, 8140, 8141, 8158, 8196, 8147, 8165, 8207, 8307,4.798515319824219
95, 8177, 8162, 8154, 8176, 8185, 8128, 8137, 8159, 8160, 8194, 8137, 8163, 8202, 8310,4.806403636932373
96, 8159, 8137, 8132, 8159, 8166, 8133, 8140, 8150, 8156, 8190, 8115, 8148, 8188, 8288,4.814591407775879
97, 8146, 8132, 8164, 8138, 8202, 8150, 8151, 8155, 8147, 8184, 8112, 8155, 8163, 8268,4.822434902191162
98, 8142, 8123, 8141, 8136, 8204, 8167, 8168, 8157, 8161, 8190, 8141, 8157, 8176, 8282,4.830512046813965
99, 8171, 8144, 8188, 8157, 8246, 8179, 8173, 8176, 8174, 8192, 8145, 8172, 8192, 8293,4.838557481765747
100, 8166, 8138, 8155, 8172, 8195, 8177, 8174, 8168, 8175, 8187, 8136, 8157, 8190, 8280,4.846656322479248
101, 8139, 8133, 8117, 8176, 8184, 8175, 8166, 8157, 8173, 8188, 8130, 8144, 8184, 8268,4.854528427124023
102, 8184, 8186, 8280, 8187, 8285, 8181, 8155, 8199, 8159, 8186, 8121, 8194, 8172, 8271,4.862593412399292
103, 8193, 8168, 8213, 8184, 8199, 8172, 8170, 8168, 8164, 8184, 8143, 8183, 8175, 8285,4.869532346725464
104, 8164, 8139, 8091, 8190, 8139, 8170, 8170, 8129, 8173, 8187, 8162, 8157, 8193, 8298,4.877502202987671
105, 8183, 8166, 8164, 8211, 8173, 8185, 8159, 8165, 8161, 8195, 8158, 8187, 8215, 8319,4.885558605194092
106, 8197, 8181, 8188, 8204, 8168, 8186, 8163, 8180, 8148, 8188, 8157, 8191, 8207, 8320,4.89358925819397
107, 8181, 8170, 8171, 8178, 8196, 8171, 8165, 8174, 8134, 8173, 8142, 8175, 8170, 8289,4.901544570922852
108, 8151, 8148, 8131, 8169, 8194, 8158, 8164, 8168, 8134, 8182, 8133, 8157, 8173, 8280,4.90960431098938
109, 8158, 8162, 8169, 8170, 8207, 8157, 8152, 8185, 8139, 8182, 8138, 8170, 8183, 8291,4.91757869720459
110, 8173, 8158, 8192, 8150, 8183, 8151, 8149, 8186, 8141, 8163, 8134, 8185, 8162, 8284,4.92543888092041
111, 8149, 8125, 8130, 8135, 8150, 8146, 8161, 8169, 8148, 8163, 8120, 8164, 8145, 8263,4.93364405632019
112, 8133, 8144, 8160, 8143, 8199, 8165, 8165, 8202, 8159, 8170, 8114, 8162, 8147, 8257,4.940598011016846
113, 8119, 8150, 8133, 8150, 8163, 8187, 8182, 8203, 8179, 8173, 8127, 8155, 8155, 8265,4.948460578918457
114, 8121, 8142, 8142, 8141, 8171, 8184, 8185, 8176, 8172, 8163, 8114, 8153, 8135, 8257,4.95666241645813
115, 8135, 8142, 8211, 8134, 8210, 8164, 8148, 8163, 8139, 8150, 8093, 8156, 8113, 8246,4.96450662612915
116, 8121, 8138, 8146, 8146, 8148, 8149, 8115, 8123, 8129, 8155, 8115, 8135, 8131, 8254,4.972521781921387
117, 8136, 8165, 8158, 8172, 8160, 8149, 8099, 8122, 8131, 8163, 8142, 8165, 8157, 8282,4.980563163757324
118, 8151, 8165, 8171, 8180, 8157, 8146, 8101, 8145, 8140, 8170, 8159, 8187, 8181, 8304,4.9885947704315186
119, 8148, 8166, 8159, 8173, 8169, 8142, 8112, 8157, 8149, 8178, 8164, 8175, 8191, 8290,4.996563911437988
120, 8166, 8180, 8191, 8175, 8212, 8150, 8123, 8168, 8146, 8179, 8164, 8182, 8182, 8281,5.003489017486572
121, 8152, 8157, 8144, 8168, 8165, 8153, 8141, 8165, 8152, 8174, 8155, 8171, 8184, 8290,5.011536359786987
122, 8130, 8160, 8163, 8139, 8165, 8144, 8139, 8176, 8148, 8166, 8127, 8162, 8173, 8273,5.019598007202148
123, 8124, 8162, 8169, 8128, 8173, 8145, 8139, 8170, 8143, 8165, 8119, 8152, 8164, 8258,5.0275328159332275
124, 8132, 8162, 8146, 8158, 8181, 8157, 8152, 8166, 8153, 8167, 8117, 8154, 8172, 8277,5.035556316375732
125, 8152, 8165, 8180, 8169, 8184, 8157, 8151, 8188, 8160, 8164, 8124, 8172, 8174, 8284,5.043524503707886
126, 8140, 8140, 8152, 8147, 8137, 8144, 8142, 8174, 8166, 8167, 8149, 8160, 8174, 8276,5.0515429973602295
127, 8153, 8156, 8192, 8155, 8178, 8152, 8142, 8169, 8153, 8162, 8145, 8167, 8166, 8286,5.0595762729644775
237, 8177, 8165, 8185, 8177, 8172, 8153, 8151, 8165, 8145, 8157, 8137, 8183, 8172, 8307,5.06655740737915
0, 8175, 8149, 8132, 8175, 8145, 8139, 8144, 8153, 8152, 8162, 8158, 8184, 8198, 8322,5.074496269226074
1, 8183, 8164, 8200, 8172, 8200, 8144, 8127, 8165, 8145, 8161, 8167, 8195, 8203, 8323,5.082590103149414
2, 8176, 8168, 8175, 8177, 8176, 8154, 8135, 8150, 8140, 8163, 8150, 8180, 8196, 8312,5.090529680252075
3, 8178, 8175, 8157, 8191, 8174, 8155, 8135, 8153, 8143, 8170, 8144, 8176, 8197, 8305,5.098443269729614
4, 8181, 8173, 8174, 8190, 8176, 8165, 8126, 8170, 8153, 8178, 8162, 8181, 8207, 8312,5.106576681137085
5, 8159, 8165, 8151, 8159, 8171, 8170, 8126, 8162, 8158, 8175, 8154, 8168, 8192, 8304,5.114590406417847
6, 8158, 8171, 8190, 8140, 8196, 8157, 8125, 8160, 8139, 8156, 8120, 8175, 8163, 8291,5.122502326965332
7, 8157, 8160, 8152, 8155, 8149, 8145, 8137, 8133, 8124, 8155, 8131, 8172, 8175, 8305,5.129420042037964
8, 8168, 8168, 8167, 8160, 8175, 8151, 8139, 8140, 8119, 8152, 8142, 8181, 8180, 8311,5.13737154006958
9, 8169, 8153, 8179, 8149, 8157, 8157, 8130, 8169, 8126, 8145, 8120, 8175, 8160, 8293,5.145289421081543
10, 8147, 8133, 8129, 8160, 8118, 8152, 8134, 8165, 8136, 8155, 8114, 8149, 8154, 8279,5.15339994430542
11, 8156, 8171, 8214, 8162, 8194, 8151, 8130, 8179, 8126, 8151, 8114, 8175, 8147, 8274,5.1612937450408936
12, 8140, 8150, 8175, 8124, 8136, 8150, 8131, 8166, 8129, 8142, 8116, 8166, 8150, 8280,5.1694416999816895
13, 8112, 8110, 8095, 8095, 8087, 8151, 8133, 8151, 8144, 8144, 8103, 8132, 8154, 8275,5.177519083023071
14, 8125, 8123, 8142, 8109, 8153, 8152, 8129, 8164, 8147, 8152, 8098, 8144, 8151, 8266,5.1853837966918945
15, 8148, 8152, 8163, 8146, 8182, 8150, 8133, 8164, 8152, 8162, 8119, 8163, 8162, 8279,5.193568229675293
16, 8192, 8182, 8211, 8174, 8198, 8158, 8136, 8177, 8160, 8171, 8134, 8190, 8188, 8309,5.2013678550720215
17, 8205, 8163, 8163, 8172, 8151, 8162, 8135, 8164, 8170, 8182, 8157, 8188, 8221, 8338,5.208574533462524
18, 8206, 8174, 8171, 8172, 8190, 8164, 8116, 8157, 8158, 8171, 8169, 8190, 8217, 8342,5.216583251953125
19, 8236, 8208, 8260, 8185, 8227, 8168, 8106, 8178, 8145, 8165, 8165, 8218, 8207, 8341,5.224304676055908
20, 8222, 8176, 8176, 8180, 8149, 8168, 8130, 8157, 8160, 8186, 8175, 8200, 8234, 8350,5.232525587081909
21, 8192, 8160, 8166, 8164, 8174, 8171, 8135, 8151, 8145, 8183, 8157, 8177, 8221, 8325,5.240540027618408
22, 8142, 8136, 8156, 8139, 8152, 8174, 8136, 8154, 8122, 8158, 8107, 8145, 8166, 8279,5.248538970947266
23, 8107, 8102, 8125, 8107, 8144, 8180, 8150, 8169, 8136, 8148, 8076, 8131, 8136, 8261,5.256583213806152
24, 8120, 8102, 8187, 8088, 8211, 8182, 8157, 8208, 8156, 8154, 8082, 8156, 8137, 8261,5.263554334640503
25, 8090, 8086, 8133, 8073, 8159, 8176, 8175, 8205, 8180, 8169, 8092, 8134, 8148, 8234,5.271587610244751
26, 8066, 8091, 8105, 8083, 8139, 8184, 8185, 8206, 8201, 8178, 8087, 8117, 8141, 8209,5.279440879821777
27, 8083, 8103, 8127, 8116, 8165, 8187, 8184, 8209, 8205, 8174, 8094, 8131, 8141, 8233,5.287595748901367
28, 8105, 8110, 8158, 8124, 8190, 8172, 8183, 8206, 8196, 8164, 8102, 8146, 8155, 8263,5.2955641746521
29, 8126, 8113, 8189, 8112, 8170, 8172, 8176, 8206, 8196, 8167, 8105, 8160, 8164, 8270,5.303508996963501
30, 8145, 8120, 8148, 8139, 8117, 8179, 8168, 8183, 8204, 8180, 8133, 8161, 8179, 8274,5.311593294143677
31, 8168, 8165, 8191, 8190, 8166, 8179, 8161, 8178, 8183, 8172, 8147, 8180, 8186, 8269,5.319587230682373
32, 8157, 8163, 8192, 8202, 8163, 8172, 8161, 8157, 8164, 8158, 8138, 8173, 8184, 8264,5.327378511428833
33, 8161, 8149, 8169, 8184, 8157, 8167, 8144, 8128, 8155, 8160, 8140, 8168, 8183, 8279,5.334450006484985
34, 8203, 8177, 8222, 8177, 8188, 8161, 8115, 8132, 8130, 8159, 8155, 8207, 8186, 8309,5.342465162277222
35, 8198, 8159, 8160, 8185, 8127, 8144, 8118, 8116, 8114, 8155, 8156, 8199, 8194, 8316,5.350189208984375
36, 8188, 8147, 8181, 8178, 8158, 8144, 8120, 8134, 8109, 8154, 8131, 8181, 8179, 8294,5.358560085296631
37, 8180, 8136, 8221, 8152, 8173, 8170, 8126, 8168, 8123, 8168, 8138, 8182, 8184, 8293,5.366549015045166
38, 8135, 8103, 8122, 8135, 8107, 8179, 8141, 8148, 8147, 8190, 8158, 8161, 8216, 8301,5.374594449996948
39, 8129, 8111, 8139, 8128, 8134, 8170, 8135, 8148, 8154, 8191, 8148, 8159, 8220, 8287,5.38249135017395
40, 8150, 8120, 8163, 8142, 8135, 8175, 8136, 8165, 8173, 8191, 8150, 8165, 8221, 8298,5.390401601791382
41, 8153, 8116, 8156, 8159, 8147, 8187, 8141, 8179, 8188, 8192, 8154, 8170, 8223, 8314,5.397663116455078
42, 8139, 8096, 8154, 8143, 8137, 8182, 8136, 8175, 8180, 8189, 8142, 8159, 8209, 8286,5.4054601192474365
43, 8119, 8097, 8130, 8121, 8094, 8173, 8143, 8156, 8175, 8182, 8134, 8140, 8192, 8255,5.413429021835327
44, 8140, 8136, 8182, 8133, 8125, 8179, 8150, 8170, 8174, 8176, 8129, 8157, 8185, 8257,5.421576976776123
45, 8147, 8121, 8153, 8144, 8095, 8183, 8148, 8163, 8176, 8183, 8140, 8159, 8201, 8272,5.4295127391815186
46, 8154, 8118, 8158, 8139, 8108, 8177, 8139, 8157, 8177, 8184, 8139, 8166, 8199, 8281,5.437498569488525
47, 8191, 8144, 8214, 8142, 8145, 8175, 8143, 8171, 8185, 8185, 8133, 8183, 8190, 8296,5.445293188095093
48, 8190, 8141, 8174, 8161, 8128, 8175, 8143, 8160, 8192, 8188, 8140, 8164, 8207, 8307,5.453313827514648
49, 8176, 8150, 8207, 8175, 8156, 8170, 8114, 8171, 8166, 8173, 8126, 8166, 8196, 8285,5.460326433181763
50, 8163, 8140, 8176, 8155, 8114, 8164, 8113, 8170, 8155, 8173, 8122, 8159, 8180, 8269,5.4683732986450195
51, 8169, 8132, 8137, 8133, 8115, 8176, 8134, 8165, 8176, 8192, 8141, 8157, 8196, 8293,5.476316928863525
52, 8196, 8149, 8184, 8148, 8155, 8184, 8134, 8179, 8182, 8199, 8156, 8188, 8220, 8331,5.484456539154053
53, 8195, 8154, 8164, 8169, 8132, 8175, 8134, 8160, 8178, 8199, 8156, 8185, 8233, 8343,5.492558717727661
54, 8191, 8160, 8191, 8170, 8171, 8186, 8139, 8161, 8171, 8194, 8136, 8178, 8216, 8324,5.500534534454346
55, 8167, 8134, 8151, 8157, 8141, 8194, 8145, 8153, 8168, 8187, 8133, 8162, 8207, 8305,5.508525133132935
56, 8149, 8131, 8141, 8150, 8132, 8170, 8136, 8146, 8154, 8179, 8127, 8154, 8202, 8288,5.516505479812622
57, 8175, 8152, 8228, 8178, 8173, 8150, 8125, 8173, 8139, 8168, 8100, 8180, 8185, 8283,5.523523569107056
58, 8179, 8137, 8172, 8213, 8128, 8153, 8137, 8168, 8158, 8170, 8093, 8174, 8187, 8295,5.531510353088379
59, 8178, 8147, 8178, 8216, 8152, 8153, 8139, 8168, 8158, 8163, 8087, 8172, 8176, 8289,5.539539098739624
60, 8156, 8142, 8184, 8211, 8140, 8144, 8131, 8152, 8129, 8149, 8075, 8162, 8148, 8268,5.547425746917725
61, 8134, 8129, 8132, 8211, 8125, 8153, 8132, 8122, 8124, 8148, 8076, 8146, 8141, 8261,5.555400133132935
62, 8176, 8154, 8189, 8218, 8175, 8171, 8139, 8138, 8136, 8155, 8080, 8173, 8152, 8270,5.563504457473755
63, 8194, 8153, 8183, 8231, 8144, 8167, 8146, 8157, 8156, 8168, 8097, 8181, 8170, 8286,5.571563720703125
64, 8177, 8161, 8176, 8229, 8145, 8160, 8141, 8176, 8172, 8182, 8113, 8177, 8181, 8293,5.579378128051758
65, 8170, 8162, 8164, 8216, 8141, 8167, 8158, 8183, 8185, 8194, 8117, 8169, 8189, 8305,5.587587118148804
66, 8177, 8150, 8145, 8212, 8150, 8167, 8186, 8187, 8185, 8187, 8101, 8160, 8183, 8302,5.594440698623657
67, 8174, 8150, 8197, 8200, 8190, 8159, 8179, 8204, 8167, 8168, 8084, 8168, 8169, 8275,5.602367162704468
68, 8132, 8127, 8153, 8177, 8142, 8157, 8174, 8181, 8164, 8175, 8092, 8145, 8171, 8263,5.611976861953735
69, 8136, 8141, 8167, 8188, 8159, 8170, 8179, 8182, 8173, 8181, 8098, 8147, 8171, 8272,5.618256330490112
70, 8169, 8155, 8181, 8205, 8148, 8174, 8187, 8178, 8176, 8177, 8104, 8160, 8169, 8276,5.62653660774231
71, 8171, 8140, 8139, 8192, 8114, 8159, 8186, 8139, 8161, 8170, 8093, 8152, 8157, 8270,5.634495973587036
72, 8186, 8160, 8233, 8189, 8194, 8162, 8169, 8153, 8145, 8155, 8070, 8174, 8128, 8264,5.642342805862427
73, 8177, 8158, 8197, 8205, 8165, 8172, 8166, 8155, 8158, 8157, 8092, 8164, 8138, 8272,5.650430679321289
74, 8180, 8153, 8142, 8208, 8136, 8162, 8154, 8138, 8161, 8163, 8112, 8159, 8164, 8289,5.65747857093811
75, 8215, 8161, 8184, 8206, 8163, 8149, 8137, 8147, 8150, 8162, 8108, 8183, 8173, 8310,5.665493488311768
76, 8210, 8165, 8160, 8215, 8161, 8153, 8144, 8151, 8154, 8173, 8112, 8171, 8184, 8314,5.6735734939575195
77, 8190, 8185, 8182, 8211, 8184, 8154, 8140, 8164, 8143, 8178, 8107, 8166, 8178, 8296,5.681580543518066
78, 8161, 8161, 8143, 8192, 8133, 8136, 8132, 8156, 8141, 8174, 8103, 8161, 8167, 8289,5.689521312713623
79, 8164, 8160, 8154, 8192, 8163, 8136, 8138, 8173, 8160, 8173, 8108, 8171, 8173, 8291,5.69757604598999
80, 8194, 8184, 8221, 8192, 8205, 8154, 8156, 8214, 8175, 8184, 8114, 8183, 8191, 8295,5.7054455280303955
81, 8178, 8161, 8152, 8186, 8140, 8154, 8178, 8203, 8192, 8200, 8127, 8153, 8200, 8300,5.713577508926392
82, 8162, 8154, 8148, 8192, 8145, 8144, 8183, 8193, 8189, 8188, 8124, 8154, 8184, 8287,5.721585273742676
83, 8149, 8150, 8133, 8181, 8125, 8138, 8191, 8185, 8178, 8172, 8107, 8152, 8173, 8267,5.728433609008789
84, 8148, 8158, 8156, 8161, 8159, 8140, 8197, 8194, 8173, 8167, 8091, 8152, 8159, 8260,5.736506700515747
85, 8167, 8168, 8234, 8158, 8199, 8148, 8185, 8209, 8171, 8160, 8094, 8170, 8140, 8263,5.744373083114624
86, 8151, 8143, 8148, 8159, 8118, 8136, 8175, 8169, 8166, 8162, 8126, 8147, 8149, 8254,5.752495050430298
87, 8144, 8143, 8114, 8159, 8122, 8122, 8159, 8158, 8150, 8167, 8146, 8144, 8158, 8242,5.760484218597412
88, 8144, 8133, 8150, 8162, 8158, 8123, 8147, 8163, 8141, 8160, 8144, 8161, 8153, 8248,5.7684173583984375
89, 8140, 8124, 8160, 8153, 8176, 8135, 8149, 8152, 8136, 8150, 8133, 8155, 8147, 8242,5.7765796184539795
90, 8141, 8143, 8160, 8149, 8197, 8145, 8161, 8145, 8131, 8157, 8130, 8151, 8151, 8231,5.784561395645142
91, 8143, 8148, 8143, 8171, 8190, 8149, 8163, 8144, 8131, 8168, 8141, 8159, 8166, 8250,5.791541576385498
92, 8177, 8168, 8211, 8194, 8221, 8157, 8145, 8181, 8136, 8167, 8144, 8184, 8176, 8280,5.799580335617065
93, 8182, 8161, 8177, 8181, 8199, 8152, 8146, 8186, 8148, 8176, 8152, 8175, 8190, 8292,5.80746054649353
94, 8150, 8144, 8117, 8152, 8193, 8138, 8153, 8163, 8143, 8176, 8144, 8155, 8182, 8283,5.815553665161133
95, 8159, 8150, 8179, 8148, 8208, 8144, 8156, 8175, 8131, 8160, 8135, 8168, 8164, 8273,5.823542833328247
96, 8166, 8141, 8151, 8159, 8159, 8152, 8182, 8171, 8143, 8160, 8144, 8156, 8178, 8277,5.831366777420044
97, 8165, 8158, 8181, 8165, 8222, 8161, 8199, 8190, 8147, 8163, 8131, 8164, 8176, 8276,5.839625597000122
98, 8158, 8151, 8208, 8155, 8239, 8174, 8217, 8215, 8156, 8168, 8133, 8174, 8166, 8271,5.847550630569458
99, 8142, 8129, 8143, 8149, 8183, 8177, 8231, 8196, 8175, 8177, 8151, 8153, 8177, 8269,5.854400396347046
100, 8163, 8153, 8171, 8175, 8191, 8167, 8217, 8184, 8165, 8169, 8150, 8167, 8179, 8281,5.862556219100952
101, 8181, 8153, 8153, 8185, 8151, 8152, 8205, 8165, 8160, 8167, 8157, 8178, 8187, 8314,5.87058687210083
102, 8187, 8153, 8180, 8160, 8203, 8147, 8192, 8169, 8163, 8174, 8151, 8190, 8194, 8317,5.878418684005737
103, 8187, 8147, 8206, 8153, 8223, 8160, 8187, 8184, 8169, 8180, 8152, 8196, 8201, 8301,5.886580944061279
104, 8185, 8139, 8147, 8178, 8158, 8169, 8201, 8180, 8195, 8191, 8177, 8186, 8218, 8319,5.894575834274292
105, 8205, 8166, 8180, 8189, 8178, 8157, 8189, 8185, 8197, 8189, 8162, 8196, 8214, 8333,5.902536392211914
106, 8189, 8165, 8166, 8179, 8179, 8141, 8168, 8169, 8185, 8182, 8135, 8181, 8200, 8317,5.910542726516724
107, 8170, 8162, 8173, 8170, 8195, 8142, 8164, 8180, 8189, 8184, 8140, 8176, 8191, 8303,5.918615341186523
108, 8172, 8146, 8165, 8157, 8167, 8150, 8175, 8193, 8202, 8193, 8149, 8179, 8195, 8307,5.925580978393555
109, 8158, 8139, 8125, 8145, 8156, 8150, 8177, 8179, 8201, 8185, 8139, 8165, 8191, 8301,5.933514356613159
110, 8176, 8180, 8248, 8152, 8256, 8152, 8155, 8204, 8177, 8163, 8122, 8187, 8163, 8283,5.941589593887329
111, 8173, 8162, 8207, 8165, 8195, 8149, 8158, 8192, 8180, 8179, 8126, 8177, 8172, 8292,5.949581146240234
112, 8146, 8131, 8084, 8154, 8130, 8139, 8170, 8152, 8187, 8188, 8122, 8140, 8187, 8298,5.9575419425964355
113, 8160, 8155, 8148, 8148, 8193, 8134, 8158, 8157, 8169, 8168, 8116, 8150, 8171, 8284,5.965577125549316
114, 8170, 8168, 8178, 8171, 8197, 8142, 8160, 8162, 8171, 8168, 8125, 8162, 8176, 8288,5.973578214645386
115, 8166, 8169, 8163, 8185, 8179, 8149, 8166, 8167, 8180, 8174, 8123, 8163, 8188, 8291,5.981428146362305
116, 8163, 8165, 8144, 8192, 8157, 8142, 8151, 8157, 8175, 8175, 8124, 8160, 8188, 8278,5.988478660583496
117, 8187, 8178, 8186, 8213, 8193, 8152, 8138, 8155, 8164, 8178, 8130, 8173, 8183, 8279,5.99653434753418
118, 8208, 8198, 8216, 8222, 8204, 8179, 8154, 8168, 8173, 8184, 8142, 8187, 8191, 8311,6.004684686660767
119, 8187, 8203, 8150, 8206, 8162, 8183, 8172, 8163, 8197, 8197, 8163, 8177, 8215, 8331,6.012550354003906
120, 8180, 8200, 8197, 8188, 8213, 8176, 8157, 8184, 8196, 8196, 8164, 8194, 8214, 8314,6.020615577697754
121, 8162, 8155, 8171, 8177, 8176, 8171, 8164, 8183, 8197, 8187, 8160, 8186, 8211, 8309,6.028562545776367
122, 8154, 8157, 8137, 8175, 8163, 8168, 8181, 8180, 8200, 8188, 8149, 8171, 8207, 8316,6.036567449569702
123, 8182, 8187, 8232, 8177, 8243, 8168, 8168, 8207, 8187, 8182, 8134, 8192, 8186, 8313,6.04452109336853
124, 8159, 8131, 8159, 8156, 8187, 8149, 8170, 8175, 8187, 8174, 8145, 8167, 8183, 8302,6.052547216415405
125, 8135, 8121, 8104, 8138, 8153, 8140, 8180, 8151, 8182, 8177, 8144, 8149, 8184, 8295,6.059488773345947
126, 8146, 8162, 8152, 8148, 8169, 8156, 8178, 8165, 8171, 8180, 8132, 8161, 8180, 8299,6.067579984664917
127, 8152, 8168, 8175, 8157, 8186, 8162, 8174, 8168, 8170, 8172, 8136, 8168, 8180, 8302,6.075575351715088
237, 8171, 8164, 8201, 8157, 8194, 8161, 8170, 8163, 8165, 8161, 8133, 8181, 8182, 8305,6.083404064178467
0, 8179, 8154, 8151, 8171, 8152, 8166, 8172, 8134, 8158, 8168, 8139, 8169, 8184, 8304,6.0915687084198
1, 8196, 8178, 8193, 8193, 8212, 8174, 8166, 8143, 8160, 8176, 8158, 8179, 8192, 8297,6.099544525146484
2, 8199, 8183, 8211, 8196, 8216, 8173, 8165, 8166, 8180, 8184, 8175, 8196, 8220, 8307,6.1074042320251465
3, 8188, 8171, 8152, 8192, 8179, 8174, 8161, 8154, 8196, 8202, 8179, 8194, 8238, 8330,6.115580320358276
4, 8221, 8203, 8218, 8211, 8226, 8182, 8143, 8168, 8193, 8207, 8175, 8213, 8233, 8341,6.122547388076782
5, 8233, 8204, 8191, 8228, 8185, 8174, 8147, 8170, 8198, 8207, 8180, 8199, 8236, 8342,6.130590438842773
6, 8207, 8176, 8147, 8204, 8170, 8157, 8142, 8161, 8178, 8193, 8152, 8176, 8210, 8317,6.138582706451416
7, 8163, 8132, 8140, 8149, 8163, 8134, 8123, 8159, 8142, 8166, 8111, 8159, 8160, 8279,6.146576166152954
8, 8119, 8098, 8104, 8115, 8125, 8124, 8133, 8155, 8134, 8146, 8102, 8141, 8144, 8262,6.1545729637146
9, 8124, 8119, 8160, 8112, 8171, 8139, 8158, 8170, 8131, 8135, 8099, 8154, 8135, 8251,6.1625471115112305
10, 8126, 8118, 8148, 8113, 8171, 8144, 8176, 8167, 8139, 8151, 8104, 8151, 8130, 8246,6.170551061630249
11, 8126, 8115, 8139, 8123, 8172, 8140, 8176, 8178, 8161, 8165, 8116, 8154, 8138, 8256,6.178571462631226
12, 8154, 8135, 8170, 8151, 8167, 8152, 8176, 8188, 8167, 8161, 8132, 8177, 8148, 8283,6.185603618621826
13, 8187, 8153, 8165, 8179, 8164, 8173, 8181, 8169, 8171, 8166, 8154, 8187, 8171, 8317,6.193441867828369
14, 8214, 8168, 8218, 8196, 8204, 8182, 8174, 8176, 8183, 8176, 8169, 8208, 8193, 8324,6.201333522796631
15, 8191, 8156, 8172, 8201, 8140, 8177, 8167, 8162, 8200, 8191, 8190, 8197, 8214, 8314,6.209459066390991
16, 8185, 8183, 8170, 8213, 8153, 8176, 8154, 8157, 8196, 8202, 8195, 8194, 8218, 8314,6.2172956466674805
17, 8226, 8211, 8232, 8243, 8196, 8183, 8150, 8166, 8186, 8204, 8191, 8217, 8222, 8331,6.225457191467285
18, 8219, 8186, 8157, 8252, 8138, 8178, 8156, 8135, 8191, 8201, 8195, 8200, 8234, 8339,6.233290910720825
19, 8219, 8207, 8200, 8228, 8184, 8177, 8137, 8149, 8174, 8195, 8187, 8202, 8218, 8325,6.241352558135986
20, 8227, 8208, 8221, 8215, 8182, 8187, 8129, 8155, 8157, 8193, 8188, 8197, 8212, 8318,6.248594522476196
21, 8203, 8179, 8155, 8215, 8149, 8189, 8140, 8134, 8165, 8190, 8194, 8177, 8227, 8318,6.256519079208374
22, 8190, 8180, 8173, 8202, 8179, 8183, 8140, 8152, 8170, 8196, 8192, 8186, 8233, 8311,6.264542579650879
23, 8183, 8172, 8150, 8187, 8166, 8178, 8137, 8152, 8168, 8204, 8180, 8177, 8227, 8310,6.2726476192474365
24, 8199, 8179, 8197, 8185, 8194, 8178, 8139, 8166, 8164, 8188, 8151, 8185, 8206, 8318,6.280576229095459
25, 8201, 8161, 8185, 8180, 8158, 8181, 8159, 8184, 8192, 8194, 8160, 8190, 8219, 8330,6.288553237915039
26, 8194, 8158, 8135, 8184, 8145, 8193, 8173, 8187, 8227, 8222, 8185, 8181, 8239, 8332,6.296586275100708
27, 8204, 8178, 8194, 8196, 8194, 8206, 8160, 8195, 8218, 8210, 8170, 8185, 8219, 8320,6.304579019546509
28, 8168, 8152, 8146, 8179, 8145, 8209, 8167, 8170, 8211, 8191, 8157, 8166, 8211, 8310,6.3124940395355225
29, 8161, 8160, 8167, 8165, 8185, 8214, 8185, 8177, 8215, 8195, 8165, 8184, 8220, 8314,6.3195412158966064
30, 8190, 8170, 8211, 8179, 8201, 8210, 8188, 8189, 8213, 8195, 8169, 8205, 8218, 8331,6.327547311782837
31, 8180, 8157, 8154, 8183, 8142, 8192, 8187, 8166, 8209, 8185, 8156, 8180, 8210, 8332,6.335535049438477
32, 8177, 8164, 8153, 8178, 8153, 8183, 8185, 8166, 8200, 8182, 8160, 8187, 8208, 8321,6.343601703643799
33, 8177, 8160, 8143, 8179, 8147, 8172, 8182, 8167, 8197, 8176, 8187, 8199, 8215, 8314,6.351629734039307
34, 8164, 8151, 8155, 8175, 8147, 8155, 8160, 8163, 8181, 8159, 8173, 8190, 8200, 8297,6.359345436096191
35, 8150, 8137, 8153, 8157, 8142, 8150, 8154, 8156, 8167, 8171, 8150, 8168, 8191, 8292,6.366581201553345
36, 8158, 8150, 8161, 8150, 8172, 8162, 8170, 8168, 8175, 8195, 8153, 8170, 8206, 8304,6.375645160675049
37, 8174, 8166, 8194, 8159, 8195, 8175, 8170, 8193, 8192, 8187, 8151, 8182, 8205, 8296,6.382241487503052
38, 8157, 8134, 8115, 8150, 8129, 8167, 8172, 8175, 8200, 8183, 8157, 8158, 8194, 8277,6.390573501586914
39, 8160, 8144, 8150, 8139, 8170, 8156, 8177, 8183, 8185, 8190, 8154, 8163, 8180, 8268,6.398564100265503
40, 8159, 8152, 8200, 8146, 8195, 8151, 8172, 8200, 8191, 8189, 8137, 8169, 8169, 8270,6.406578302383423
41, 8138, 8128, 8134, 8150, 8154, 8144, 8161, 8181, 8208, 8185, 8135, 8147, 8171, 8271,6.414572477340698
42, 8160, 8150, 8179, 8155, 8191, 8145, 8160, 8185, 8196, 8182, 8144, 8172, 8178, 8270,6.422576904296875
43, 8159, 8154, 8168, 8165, 8172, 8153, 8179, 8173, 8192, 8190, 8152, 8178, 8192, 8275,6.429248332977295
44, 8152, 8158, 8159, 8169, 8189, 8170, 8186, 8168, 8195, 8190, 8143, 8165, 8188, 8276,6.438338279724121
45, 8177, 8172, 8195, 8173, 8181, 8185, 8191, 8187, 8191, 8183, 8145, 8179, 8182, 8277,6.446301698684692
46, 8181, 8162, 8156, 8187, 8126, 8182, 8186, 8174, 8196, 8184, 8169, 8179, 8196, 8287,6.453236818313599
47, 8199, 8184, 8210, 8196, 8188, 8165, 8146, 8177, 8193, 8184, 8177, 8192, 8202, 8297,6.461425304412842
48, 8211, 8182, 8197, 8191, 8168, 8150, 8144, 8168, 8192, 8195, 8166, 8190, 8206, 8315,6.469248533248901
49, 8199, 8163, 8152, 8181, 8151, 8153, 8170, 8157, 8198, 8194, 8153, 8179, 8201, 8323,6.477275133132935
50, 8194, 8153, 8172, 8165, 8196, 8154, 8167, 8166, 8186, 8175, 8154, 8182, 8194, 8316,6.48535680770874
51, 8177, 8138, 8138, 8152, 8185, 8148, 8172, 8167, 8180, 8172, 8148, 8161, 8194, 8308,6.493572950363159
52, 8167, 8143, 8175, 8157, 8194, 8147, 8185, 8188, 8182, 8168, 8112, 8160, 8167, 8290,6.501575231552124
53, 8142, 8110, 8134, 8160, 8138, 8145, 8186, 8171, 8186, 8159, 8106, 8145, 8149, 8271,6.50946307182312
54, 8149, 8120, 8147, 8160, 8171, 8157, 8179, 8169, 8185, 8165, 8112, 8151, 8150, 8261,6.516576051712036
55, 8201, 8174, 8274, 8168, 8239, 8177, 8175, 8200, 8175, 8172, 8105, 8194, 8147, 8265,6.524562120437622
56, 8176, 8136, 8164, 8179, 8139, 8173, 8176, 8156, 8176, 8169, 8123, 8175, 8156, 8279,6.532616853713989
57, 8159, 8135, 8142, 8190, 8168, 8172, 8159, 8142, 8173, 8160, 8137, 8176, 8156, 8286,6.540559768676758
58, 8190, 8181, 8226, 8208, 8220, 8184, 8160, 8170, 8182, 8172, 8151, 8202, 8170, 8300,6.548582553863525
59, 8189, 8179, 8183, 8225, 8166, 8176, 8165, 8155, 8191, 8186, 8167, 8189, 8194, 8305,6.556584119796753
60, 8199, 8176, 8180, 8240, 8171, 8169, 8138, 8149, 8183, 8184, 8177, 8196, 8195, 8305,6.56353497505188
61, 8234, 8204, 8189, 8262, 8187, 8177, 8133, 8160, 8199, 8205, 8212, 8217, 8220, 8342,6.57253885269165
62, 8266, 8234, 8205, 8281, 8198, 8181, 8153, 8176, 8219, 8230, 8235, 8230, 8261, 8379,6.5795722007751465
63, 8259, 8224, 8182, 8288, 8174, 8181, 8169, 8183, 8230, 8236, 8237, 8215, 8279, 8386,6.587416410446167
64, 8260, 8232, 8202, 8285, 8215, 8180, 8171, 8203, 8237, 8231, 8230, 8215, 8273, 8384,6.5955727100372314
65, 8275, 8238, 8229, 8268, 8231, 8181, 8179, 8218, 8245, 8225, 8211, 8220, 8260, 8380,6.603582143783569
66, 8239, 8204, 8133, 8237, 8167, 8190, 8203, 8197, 8263, 8225, 8194, 8182, 8243, 8359,6.6113951206207275
67, 8235, 8228, 8228, 8213, 8259, 8204, 8198, 8232, 8257, 8214, 8169, 8195, 8201, 8336,6.619585037231445
68, 8226, 8209, 8259, 8182, 8233, 8192, 8182, 8235, 8233, 8197, 8136, 8199, 8165, 8319,6.62762188911438
69, 8163, 8130, 8075, 8159, 8091, 8171, 8186, 8154, 8219, 8178, 8111, 8138, 8151, 8298,6.6353535652160645
70, 8161, 8129, 8082, 8174, 8132, 8170, 8179, 8139, 8197, 8166, 8121, 8133, 8143, 8291,6.642572402954102
71, 8193, 8151, 8153, 8179, 8165, 8167, 8157, 8156, 8175, 8165, 8147, 8172, 8154, 8308,6.650559663772583
72, 8203, 8154, 8175, 8167, 8157, 8166, 8142, 8156, 8163, 8162, 8144, 8190, 8164, 8311,6.658621072769165
73, 8197, 8156, 8183, 8178, 8150, 8175, 8157, 8157, 8170, 8166, 8147, 8182, 8166, 8301,6.666565656661987
74, 8190, 8158, 8164, 8188, 8145, 8175, 8174, 8154, 8184, 8176, 8169, 8174, 8170, 8313,6.67461085319519
75, 8199, 8166, 8200, 8184, 8161, 8165, 8168, 8160, 8175, 8167, 8169, 8195, 8172, 8325,6.682537794113159
76, 8193, 8161, 8165, 8195, 8109, 8147, 8164, 8139, 8165, 8162, 8165, 8182, 8180, 8307,6.690688371658325
77, 8188, 8187, 8164, 8206, 8136, 8145, 8153, 8137, 8158, 8161, 8152, 8167, 8167, 8280,6.6985673904418945
78, 8189, 8193, 8184, 8189, 8170, 8163, 8148, 8153, 8164, 8155, 8140, 8177, 8154, 8286,6.706460237503052
79, 8180, 8171, 8139, 8190, 8135, 8163, 8164, 8149, 8178, 8166, 8159, 8169, 8173, 8301,6.713469505310059
80, 8206, 8193, 8222, 8208, 8185, 8150, 8164, 8181, 8171, 8178, 8160, 8188, 8175, 8299,6.721724987030029
81, 8205, 8172, 8214, 8194, 8165, 8145, 8169, 8195, 8177, 8182, 8147, 8189, 8166, 8305,6.7296388149261475
82, 8174, 8148, 8134, 8171, 8133, 8149, 8176, 8185, 8192, 8184, 8150, 8169, 8170, 8311,6.737406015396118
83, 8169, 8163, 8143, 8162, 8133, 8147, 8165, 8191, 8188, 8187, 8153, 8168, 8167, 8306,6.745544672012329
84, 8170, 8155, 8143, 8159, 8131, 8148, 8160, 8187, 8193, 8189, 8146, 8165, 8167, 8299,6.753555536270142
85, 8199, 8175, 8229, 8155, 8218, 8176, 8171, 8215, 8216, 8188, 8146, 8191, 8176, 8302,6.76135778427124
86, 8199, 8174, 8206, 8153, 8183, 8196, 8195, 8217, 8236, 8196, 8166, 8187, 8192, 8316,6.769502401351929
87, 8169, 8149, 8121, 8150, 8122, 8181, 8197, 8177, 8229, 8199, 8165, 8166, 8184, 8310,6.776560544967651
88, 8181, 8163, 8159, 8147, 8164, 8171, 8178, 8168, 8210, 8193, 8154, 8181, 8173, 8295,6.784624099731445
89, 8205, 8185, 8162, 8170, 8175, 8175, 8183, 8165, 8214, 8197, 8175, 8186, 8195, 8310,6.792566776275635
90, 8220, 8196, 8194, 8196, 8202, 8170, 8181, 8170, 8213, 8195, 8181, 8198, 8206, 8321,6.800550699234009
91, 8209, 8184, 8176, 8196, 8170, 8160, 8155, 8144, 8201, 8195, 8175, 8198, 8207, 8307,6.808382511138916
92, 8214, 8202, 8177, 8190, 8178, 8167, 8129, 8122, 8182, 8197, 8176, 8195, 8205, 8303,6.81640362739563
93, 8254, 8227, 8269, 8204, 8232, 8176, 8124, 8146, 8158, 8186, 8174, 8216, 8193, 8320,6.8244218826293945
94, 8236, 8188, 8190, 8199, 8153, 8168, 8149, 8145, 8159, 8187, 8172, 8201, 8200, 8336,6.832365274429321
95, 8194, 8162, 8122, 8155, 8136, 8165, 8169, 8158, 8175, 8186, 8155, 8181, 8196, 8329,6.840349435806274
96, 8170, 8155, 8145, 8124, 8170, 8167, 8177, 8181, 8180, 8179, 8127, 8160, 8166, 8309,6.847416877746582
97, 8150, 8158, 8143, 8122, 8169, 8173, 8181, 8181, 8180, 8174, 8108, 8139, 8142, 8288,6.855566501617432
98, 8159, 8164, 8167, 8126, 8180, 8182, 8178, 8187, 8188, 8173, 8111, 8155, 8138, 8281,6.863523244857788
99, 8161, 8128, 8131, 8118, 8149, 8172, 8186, 8183, 8206, 8185, 8142, 8161, 8160, 8289,6.871622562408447
100, 8167, 8149, 8168, 8125, 8187, 8172, 8185, 8196, 8207, 8192, 8152, 8170, 8167, 8288,6.879355192184448
101, 8176, 8198, 8202, 8156, 8193, 8191, 8192, 8203, 8216, 8200, 8150, 8177, 8174, 8292,6.887432336807251
102, 8172, 8192, 8156, 8159, 8166, 8196, 8205, 8191, 8225, 8205, 8154, 8171, 8190, 8306,6.895391941070557
103, 8181, 8183, 8196, 8144, 8190, 8189, 8187, 8190, 8189, 8185, 8136, 8186, 8165, 8291,6.903333425521851
104, 8165, 8166, 8158, 8149, 8132, 8179, 8173, 8153, 8167, 8172, 8137, 8170, 8149, 8266,6.910549879074097
105, 8167, 8182, 8171, 8166, 8161, 8176, 8171, 8158, 8178, 8179, 8165, 8169, 8172, 8278,6.918471336364746
106, 8197, 8208, 8224, 8173, 8205, 8183, 8171, 8191, 8178, 8184, 8180, 8196, 8185, 8307,6.926244020462036
107, 8202, 8186, 8159, 8178, 8152, 8186, 8180, 8163, 8178, 8187, 8172, 8185, 8180, 8320,6.934378385543823
108, 8211, 8169, 8175, 8177, 8159, 8185, 8187, 8164, 8187, 8191, 8165, 8182, 8177, 8322,6.942314863204956
109, 8203, 8162, 8173, 8161, 8147, 8191, 8201, 8193, 8207, 8196, 8181, 8186, 8195, 8331,6.9503467082977295
110, 8201, 8180, 8183, 8156, 8172, 8209, 8226, 8219, 8227, 8197, 8182, 8194, 8204, 8338,6.958138942718506
111, 8202, 8175, 8185, 8156, 8174, 8221, 8254, 8222, 8234, 8195, 8169, 8186, 8190, 8333,6.966437816619873
112, 8168, 8147, 8132, 8120, 8147, 8217, 8260, 8192, 8222, 8184, 8152, 8154, 8162, 8298,6.973360061645508
113, 8169, 8176, 8204, 8101, 8203, 8204, 8237, 8198, 8200, 8164, 8131, 8174, 8136, 8266,6.981446981430054
114, 8173, 8176, 8158, 8141, 8142, 8197, 8232, 8188, 8204, 8170, 8147, 8173, 8155, 8284,6.989315986633301
115, 8176, 8185, 8159, 8167, 8163, 8198, 8217, 8175, 8191, 8173, 8147, 8161, 8160, 8290,6.99737811088562
116, 8187, 8200, 8274, 8148, 8246, 8188, 8174, 8179, 8159, 8156, 8127, 8187, 8136, 8267,7.0053770542144775
117, 8162, 8166, 8158, 8151, 8154, 8174, 8168, 8146, 8177, 8168, 8166, 8176, 8164, 8282,7.013384580612183
118, 8172, 8197, 8133, 8183, 8158, 8182, 8178, 8156, 8200, 8187, 8191, 8178, 8191, 8300,7.021363019943237
119, 8198, 8223, 8215, 8182, 8201, 8190, 8180, 8168, 8197, 8190, 8166, 8185, 8185, 8289,7.029565334320068
120, 8179, 8190, 8178, 8169, 8174, 8185, 8177, 8147, 8201, 8193, 8161, 8177, 8187, 8284,7.037416934967041
121, 8161, 8178, 8158, 8165, 8174, 8187, 8161, 8154, 8199, 8191, 8172, 8187, 8190, 8294,7.044583082199097
122, 8177, 8185, 8176, 8158, 8178, 8199, 8159, 8163, 8194, 8190, 8165, 8183, 8193, 8305,7.052396059036255
123, 8212, 8195, 8204, 8165, 8194, 8212, 8168, 8173, 8192, 8190, 8161, 8184, 8195, 8316,7.060527801513672
124, 8191, 8175, 8135, 8160, 8157, 8207, 8173, 8167, 8198, 8194, 8174, 8175, 8189, 8324,7.068337440490723
125, 8156, 8166, 8118, 8121, 8167, 8190, 8167, 8167, 8186, 8189, 8149, 8160, 8159, 8312,7.076355695724487
126, 8173, 8176, 8188, 8120, 8190, 8187, 8177, 8186, 8173, 8178, 8126, 8165, 8143, 8297,7.084315776824951
127, 8169, 8164, 8140, 8143, 8141, 8192, 8207, 8176, 8201, 8192, 8157, 8161, 8171, 8298,7.092278718948364
237, 8159, 8165, 8184, 8120, 8191, 8197, 8201, 8188, 8205, 8196, 8161, 8181, 8171, 8295,7.100467681884766
0, 8167, 8157, 8207, 8097, 8184, 8200, 8191, 8194, 8185, 8181, 8150, 8185, 8159, 8304,7.107359409332275
1, 8161, 8151, 8127, 8116, 8130, 8205, 8201, 8178, 8191, 8181, 8171, 8163, 8176, 8316,7.115365028381348
2, 8168, 8175, 8181, 8127, 8172, 8208, 8198, 8194, 8197, 8193, 8181, 8185, 8188, 8302,7.1233601570129395
3, 8163, 8161, 8180, 8122, 8150, 8199, 8197, 8178, 8186, 8192, 8172, 8187, 8181, 8292,7.13153338432312
4, 8164, 8167, 8158, 8131, 8154, 8198, 8196, 8155, 8174, 8179, 8171, 8174, 8165, 8301,7.139433860778809
5, 8175, 8190, 8156, 8148, 8152, 8206, 8190, 8154, 8179, 8189, 8180, 8181, 8174, 8305,7.147489070892334
6, 8180, 8200, 8168, 8156, 8159, 8209, 8182, 8158, 8192, 8204, 8186, 8190, 8197, 8299,7.155632257461548
7, 8200, 8224, 8254, 8165, 8218, 8213, 8170, 8179, 8194, 8196, 8187, 8203, 8190, 8296,7.16334342956543
8, 8176, 8204, 8163, 8175, 8150, 8207, 8171, 8161, 8199, 8198, 8200, 8170, 8189, 8292,7.171532869338989
9, 8175, 8216, 8193, 8178, 8199, 8209, 8156, 8185, 8189, 8200, 8190, 8177, 8183, 8271,7.178526401519775
10, 8186, 8211, 8260, 8165, 8222, 8217, 8154, 8212, 8180, 8198, 8173, 8194, 8178, 8267,7.186550140380859
11, 8136, 8157, 8103, 8147, 8116, 8205, 8186, 8157, 8179, 8188, 8172, 8147, 8177, 8273,7.194439172744751
12, 8136, 8169, 8134, 8132, 8178, 8201, 8193, 8162, 8159, 8169, 8152, 8149, 8149, 8254,7.2023468017578125
13, 8145, 8169, 8184, 8122, 8183, 8207, 8193, 8188, 8161, 8172, 8148, 8156, 8140, 8241,7.210257053375244
14, 8111, 8146, 8096, 8126, 8110, 8194, 8200, 8158, 8182, 8177, 8149, 8129, 8146, 8236,7.218510389328003
15, 8121, 8158, 8104, 8130, 8134, 8184, 8193, 8151, 8180, 8160, 8143, 8139, 8137, 8239,7.2263922691345215
16, 8164, 8172, 8164, 8126, 8164, 8199, 8185, 8168, 8175, 8157, 8145, 8172, 8142, 8264,7.2345709800720215
17, 8179, 8172, 8184, 8129, 8160, 8210, 8183, 8170, 8170, 8168, 8150, 8185, 8150, 8283,7.241338491439819
18, 8161, 8167, 8164, 8141, 8155, 8206, 8180, 8156, 8165, 8168, 8165, 8171, 8152, 8276,7.249359607696533
19, 8172, 8190, 8205, 8157, 8202, 8214, 8177, 8158, 8162, 8161, 8157, 8179, 8150, 8267,7.25741171836853
20, 8190, 8195, 8207, 8174, 8180, 8219, 8172, 8145, 8156, 8166, 8155, 8182, 8153, 8269,7.265376091003418
21, 8175, 8182, 8150, 8184, 8123, 8208, 8156, 8111, 8145, 8169, 8180, 8163, 8157, 8262,7.273418426513672
22, 8185, 8208, 8202, 8199, 8180, 8205, 8137, 8131, 8140, 8165, 8191, 8182, 8159, 8263,7.281319856643677
23, 8202, 8218, 8184, 8218, 8188, 8199, 8143, 8148, 8166, 8180, 8203, 8190, 8184, 8290,7.289377689361572
24, 8197, 8218, 8147, 8216, 8186, 8183, 8144, 8144, 8180, 8202, 8211, 8178, 8209, 8305,7.297413110733032
25, 8186, 8222, 8198, 8192, 8199, 8181, 8128, 8151, 8158, 8199, 8189, 8177, 8195, 8282,7.3053929805755615
26, 8143, 8176, 8123, 8158, 8138, 8179, 8142, 8131, 8155, 8187, 8167, 8145, 8169, 8250,7.312392711639404
27, 8130, 8161, 8142, 8139, 8180, 8178, 8161, 8144, 8163, 8176, 8142, 8143, 8146, 8235,7.320535182952881
28, 8139, 8163, 8169, 8147, 8165, 8183, 8179, 8164, 8167, 8180, 8125, 8155, 8138, 8242,7.328397512435913
29, 8125, 8161, 8127, 8146, 8141, 8189, 8189, 8171, 8178, 8186, 8138, 8148, 8136, 8244,7.336433172225952
30, 8124, 8176, 8199, 8132, 8202, 8196, 8192, 8206, 8180, 8169, 8144, 8164, 8127, 8220,7.344466686248779
31, 8112, 8152, 8153, 8124, 8149, 8190, 8215, 8194, 8187, 8160, 8132, 8152, 8127, 8217,7.352384328842163
32, 8121, 8155, 8149, 8127, 8158, 8183, 8221, 8188, 8193, 8160, 8125, 8157, 8114, 8238,7.36053991317749
33, 8129, 8156, 8187, 8123, 8166, 8185, 8210, 8192, 8194, 8157, 8133, 8168, 8107, 8246,7.367340326309204
34, 8116, 8134, 8148, 8116, 8139, 8189, 8200, 8170, 8202, 8162, 8143, 8159, 8126, 8244,7.3755409717559814
35, 8154, 8158, 8195, 8136, 8176, 8188, 8177, 8177, 8210, 8174, 8165, 8191, 8151, 8265,7.383503437042236
36, 8182, 8169, 8182, 8164, 8139, 8181, 8172, 8169, 8227, 8186, 8196, 8201, 8187, 8297,7.391344785690308
37, 8184, 8176, 8173, 8174, 8146, 8179, 8169, 8159, 8217, 8182, 8179, 8189, 8190, 8297,7.399535655975342
38, 8184, 8175, 8170, 8177, 8171, 8173, 8152, 8153, 8195, 8181, 8166, 8180, 8176, 8294,7.407557010650635
39, 8180, 8170, 8145, 8181, 8171, 8168, 8149, 8140, 8197, 8186, 8188, 8173, 8186, 8304,7.415468454360962
40, 8189, 8185, 8216, 8185, 8205, 8175, 8155, 8157, 8190, 8176, 8176, 8194, 8183, 8295,7.423539161682129
41, 8169, 8173, 8193, 8184, 8174, 8174, 8161, 8161, 8177, 8174, 8149, 8178, 8165, 8272,7.4315690994262695
42, 8137, 8168, 8137, 8170, 8161, 8174, 8163, 8161, 8169, 8176, 8134, 8152, 8143, 8253,7.438559532165527
43, 8132, 8161, 8153, 8150, 8171, 8181, 8167, 8174, 8167, 8165, 8130, 8163, 8138, 8246,7.4465882778167725
44, 8138, 8146, 8163, 8139, 8161, 8164, 8171, 8181, 8174, 8161, 8145, 8171, 8150, 8241,7.454547166824341
45, 8145, 8155, 8180, 8148, 8163, 8151, 8171, 8192, 8188, 8170, 8156, 8169, 8151, 8236,7.462483644485474
46, 8139, 8149, 8131, 8158, 8134, 8160, 8176, 8178, 8209, 8183, 8160, 8160, 8160, 8247,7.470544338226318
47, 8157, 8161, 8175, 8166, 8185, 8152, 8158, 8184, 8202, 8179, 8149, 8182, 8163, 8252,7.478419065475464
48, 8172, 8175, 8210, 8187, 8172, 8131, 8143, 8191, 8189, 8170, 8156, 8202, 8167, 8259,7.48663330078125
49, 8164, 8181, 8143, 8211, 8119, 8141, 8164, 8170, 8204, 8181, 8192, 8192, 8195, 8288,7.494302749633789
50, 8216, 8232, 8273, 8227, 8237, 8172, 8172, 8211, 8212, 8191, 8192, 8226, 8203, 8304,7.501568794250488
51, 8221, 8214, 8258, 8221, 8193, 8169, 8173, 8214, 8220, 8196, 8176, 8221, 8207, 8313,7.509564638137817
52, 8158, 8165, 8081, 8203, 8088, 8154, 8179, 8156, 8224, 8202, 8177, 8176, 8226, 8327,7.5173211097717285
53, 8165, 8191, 8121, 8198, 8158, 8158, 8181, 8156, 8213, 8202, 8169, 8179, 8226, 8323,7.525485515594482
54, 8199, 8209, 8192, 8209, 8183, 8151, 8178, 8171, 8210, 8202, 8160, 8184, 8216, 8314,7.533566951751709
55, 8205, 8204, 8197, 8212, 8164, 8122, 8160, 8164, 8195, 8199, 8156, 8187, 8209, 8314,7.541343688964844
56, 8183, 8185, 8139, 8191, 8148, 8107, 8155, 8146, 8176, 8194, 8138, 8179, 8203, 8315,7.5495593547821045
57, 8173, 8178, 8144, 8172, 8179, 8123, 8173, 8154, 8172, 8176, 8104, 8174, 8180, 8305,7.557498455047607
58, 8174, 8171, 8191, 8160, 8200, 8126, 8188, 8183, 8173, 8162, 8096, 8177, 8163, 8293,7.565495252609253
59, 8138, 8141, 8116, 8155, 8158, 8109, 8196, 8181, 8179, 8171, 8102, 8149, 8163, 8272,7.572494745254517
60, 8132, 8150, 8157, 8154, 8200, 8111, 8188, 8199, 8168, 8165, 8073, 8156, 8138, 8248,7.5805583000183105
61, 8149, 8143, 8191, 8147, 8185, 8119, 8193, 8194, 8158, 8150, 8062, 8170, 8124, 8256,7.588510751724243
62, 8156, 8146, 8145, 8162, 8164, 8120, 8203, 8162, 8168, 8160, 8085, 8163, 8140, 8278,7.596541166305542
63, 8179, 8199, 8218, 8204, 8224, 8123, 8186, 8172, 8169, 8163, 8096, 8187, 8147, 8279,7.604465007781982
64, 8176, 8190, 8188, 8218, 8168, 8116, 8165, 8152, 8169, 8162, 8106, 8182, 8156, 8275,7.612558126449585
65, 8184, 8185, 8156, 8223, 8157, 8113, 8145, 8126, 8173, 8163, 8115, 8179, 8167, 8283,7.620509386062622
66, 8208, 8215, 8191, 8254, 8173, 8123, 8141, 8124, 8169, 8165, 8135, 8200, 8187, 8305,7.628530979156494
67, 8204, 8217, 8178, 8256, 8160, 8133, 8150, 8129, 8170, 8173, 8155, 8198, 8209, 8321,7.6355085372924805
68, 8201, 8209, 8190, 8235, 8192, 8143, 8146, 8150, 8178, 8185, 8154, 8204, 8218, 8319,7.643349647521973
69, 8182, 8203, 8156, 8235, 8168, 8147, 8154, 8147, 8187, 8202, 8160, 8199, 8229, 8314,7.651490211486816
70, 8172, 8215, 8176, 8225, 8182, 8143, 8167, 8156, 8177, 8200, 8145, 8193, 8215, 8303,7.659521102905273
71, 8166, 8190, 8168, 8180, 8175, 8142, 8178, 8172, 8170, 8187, 8112, 8171, 8187, 8288,7.667337656021118
72, 8137, 8160, 8109, 8152, 8165, 8144, 8190, 8172, 8183, 8184, 8094, 8146, 8177, 8270,7.675503492355347
73, 8125, 8172, 8161, 8149, 8197, 8136, 8194, 8198, 8188, 8176, 8068, 8158, 8168, 8259,7.683540344238281
74, 8112, 8147, 8129, 8149, 8130, 8117, 8197, 8199, 8197, 8176, 8055, 8146, 8169, 8273,7.691457509994507
75, 8132, 8160, 8159, 8161, 8164, 8125, 8201, 8206, 8204, 8179, 8068, 8155, 8177, 8288,7.69949197769165
76, 8166, 8196, 8226, 8164, 8211, 8150, 8228, 8225, 8204, 8184, 8078, 8185, 8185, 8293,7.70655632019043
77, 8139, 8165, 8123, 8154, 8125, 8143, 8252, 8191, 8199, 8183, 8063, 8162, 8186, 8293,7.7144858837127686
78, 8128, 8157, 8128, 8155, 8127, 8133, 8224, 8177, 8179, 8160, 8050, 8159, 8163, 8277,7.722480297088623
79, 8136, 8175, 8177, 8158, 8146, 8143, 8203, 8177, 8173, 8150, 8067, 8171, 8154, 8269,7.730591058731079
80, 8135, 8181, 8173, 8161, 8158, 8145, 8201, 8162, 8164, 8161, 8070, 8174, 8164, 8282,7.738508224487305
81, 8144, 8175, 8170, 8174, 8165, 8146, 8180, 8149, 8153, 8170, 8073, 8184, 8177, 8299,7.746526479721069
82, 8152, 8189, 8157, 8195, 8159, 8144, 8163, 8133, 8162, 8171, 8089, 8187, 8193, 8303,7.754534959793091
83, 8177, 8242, 8228, 8225, 8207, 8130, 8155, 8141, 8153, 8166, 8084, 8203, 8195, 8295,7.761369466781616
84, 8188, 8240, 8186, 8248, 8161, 8116, 8153, 8128, 8148, 8179, 8104, 8193, 8208, 8303,7.76946759223938
85, 8215, 8248, 8176, 8261, 8179, 8119, 8144, 8140, 8169, 8197, 8145, 8206, 8239, 8330,7.777517795562744
86, 8257, 8283, 8267, 8279, 8228, 8125, 8150, 8182, 8185, 8210, 8153, 8244, 8259, 8356,7.78550124168396
87, 8219, 8236, 8172, 8263, 8146, 8123, 8183, 8159, 8189, 8218, 8136, 8208, 8253, 8346,7.793307781219482
88, 8177, 8192, 8155, 8210, 8182, 8128, 8187, 8155, 8167, 8201, 8110, 8182, 8218, 8309,7.801550388336182
89, 8171, 8179, 8200, 8182, 8202, 8124, 8173, 8167, 8143, 8178, 8085, 8181, 8198, 8293,7.80946946144104
90, 8161, 8167, 8134, 8183, 8132, 8117, 8182, 8149, 8146, 8175, 8067, 8159, 8180, 8283,7.817489862442017
91, 8158, 8162, 8125, 8167, 8141, 8127, 8191, 8159, 8159, 8175, 8064, 8157, 8152, 8270,7.82444167137146
92, 8155, 8151, 8152, 8151, 8162, 8129, 8185, 8177, 8161, 8165, 8068, 8166, 8151, 8275,7.83253026008606
93, 8168, 8169, 8187, 8157, 8183, 8124, 8174, 8188, 8147, 8160, 8059, 8177, 8154, 8287,7.840574741363525
94, 8160, 8173, 8132, 8159, 8152, 8128, 8186, 8188, 8146, 8171, 8059, 8162, 8153, 8296,7.848514080047607
95, 8152, 8173, 8127, 8152, 8167, 8138, 8203, 8204, 8157, 8173, 8071, 8160, 8156, 8303,7.8564324378967285
96, 8167, 8181, 8201, 8150, 8208, 8143, 8205, 8224, 8155, 8169, 8071, 8183, 8152, 8301,7.8645477294921875
97, 8137, 8159, 8118, 8146, 8150, 8136, 8211, 8187, 8157, 8171, 8072, 8154, 8143, 8282,7.87247896194458
98, 8139, 8187, 8180, 8157, 8218, 8140, 8195, 8195, 8149, 8162, 8073, 8165, 8136, 8271,7.880557298660278
99, 8165, 8199, 8254, 8185, 8237, 8150, 8178, 8211, 8145, 8165, 8089, 8196, 8157, 8289,7.888483762741089
100, 8136, 8165, 8113, 8182, 8124, 8136, 8177, 8160, 8158, 8181, 8117, 8159, 8180, 8292,7.895344257354736
101, 8126, 8174, 8119, 8172, 8148, 8118, 8156, 8144, 8157, 8171, 8108, 8148, 8168, 8268,7.903346300125122
102, 8142, 8180, 8175, 8195, 8195, 8131, 8144, 8156, 8161, 8174, 8099, 8162, 8172, 8267,7.911564111709595
103, 8157, 8192, 8181, 8211, 8209, 8158, 8156, 8172, 8173, 8191, 8118, 8171, 8187, 8282,7.919376850128174
104, 8164, 8204, 8171, 8190, 8171, 8155, 8173, 8181, 8175, 8185, 8128, 8171, 8179, 8290,7.9275476932525635
105, 8165, 8197, 8150, 8186, 8150, 8149, 8183, 8176, 8164, 8174, 8109, 8164, 8167, 8293,7.935381174087524
106, 8177, 8199, 8186, 8200, 8191, 8157, 8182, 8185, 8155, 8164, 8086, 8174, 8154, 8284,7.943343639373779
107, 8162, 8182, 8146, 8184, 8146, 8152, 8197, 8173, 8164, 8161, 8092, 8163, 8156, 8282,7.9513819217681885
108, 8161, 8184, 8158, 8163, 8162, 8144, 8203, 8173, 8159, 8160, 8090, 8165, 8160, 8294,7.959550619125366
109, 8180, 8186, 8192, 8160, 8183, 8146, 8181, 8173, 8142, 8152, 8087, 8177, 8157, 8297,7.9664318561553955
110, 8173, 8176, 8140, 8165, 8141, 8149, 8166, 8151, 8152, 8157, 8098, 8170, 8163, 8307,7.974431753158569
111, 8185, 8200, 8209, 8169, 8197, 8155, 8159, 8175, 8151, 8165, 8094, 8193, 8154, 8320,7.982271194458008
112, 8181, 8187, 8186, 8157, 8168, 8160, 8165, 8175, 8141, 8163, 8098, 8186, 8156, 8321,7.990371227264404
113, 8161, 8177, 8123, 8157, 8141, 8165, 8167, 8150, 8144, 8155, 8091, 8158, 8164, 8302,7.998341083526611
114, 8163, 8200, 8184, 8190, 8191, 8176, 8168, 8164, 8155, 8160, 8084, 8170, 8163, 8292,8.006324291229248
115, 8153, 8184, 8169, 8198, 8186, 8178, 8180, 8170, 8160, 8174, 8105, 8165, 8171, 8297,8.014343023300171
116, 8160, 8183, 8193, 8171, 8212, 8172, 8178, 8187, 8145, 8155, 8085, 8162, 8147, 8282,8.022351741790771
117, 8151, 8187, 8177, 8167, 8176, 8172, 8182, 8190, 8155, 8148, 8060, 8158, 8132, 8269,8.029844284057617
118, 8125, 8189, 8119, 8179, 8148, 8174, 8191, 8177, 8180, 8167, 8086, 8153, 8151, 8279,8.037525415420532
119, 8134, 8199, 8159, 8170, 8176, 8173, 8194, 8182, 8173, 8162, 8102, 8159, 8150, 8281,8.045347452163696
120, 8133, 8176, 8161, 8152, 8149, 8168, 8195, 8170, 8163, 8148, 8087, 8152, 8135, 8262,8.053423881530762
121, 8138, 8181, 8181, 8162, 8164, 8162, 8183, 8179, 8165, 8153, 8080, 8168, 8134, 8252,8.061371564865112
122, 8143, 8195, 8144, 8190, 8142, 8155, 8182, 8175, 8178, 8169, 8104, 8162, 8152, 8275,8.069193840026855
123, 8139, 8204, 8143, 8194, 8153, 8158, 8177, 8175, 8182, 8167, 8116, 8162, 8160, 8296,8.077359437942505
124, 8159, 8206, 8245, 8167, 8192, 8184, 8173, 8214, 8180, 8164, 8107, 8194, 8166, 8297,8.085559368133545
125, 8141, 8168, 8166, 8149, 8107, 8210, 8214, 8201, 8202, 8184, 8119, 8172, 8184, 8293,8.09257173538208
126, 8111, 8163, 8118, 8164, 8087, 8218, 8249, 8183, 8200, 8190, 8130, 8159, 8177, 8285,8.100502967834473
127, 8111, 8167, 8162, 8173, 8088, 8221, 8252, 8184, 8168, 8174, 8126, 8172, 8157, 8270,8.108323335647583
237, 8127, 8170, 8168, 8168, 8073, 8213, 8240, 8167, 8157, 8160, 8116, 8163, 8143, 8253,8.116340637207031
0, 8153, 8186, 8180, 8180, 8105, 8201, 8212, 8155, 8163, 8160, 8115, 8167, 8142, 8261,8.124293804168701
1, 8154, 8177, 8137, 8184, 8096, 8190, 8186, 8141, 8167, 8167, 8128, 8170, 8160, 8286,8.13232135772705
2, 8166, 8190, 8181, 8174, 8118, 8188, 8164, 8156, 8162, 8157, 8121, 8177, 8157, 8280,8.14040994644165
3, 8174, 8181, 8189, 8179, 8083, 8188, 8163, 8166, 8166, 8152, 8123, 8176, 8151, 8268,8.148288011550903
4, 8165, 8165, 8140, 8187, 8069, 8184, 8176, 8166, 8171, 8161, 8132, 8170, 8156, 8280,8.156367063522339
5, 8178, 8186, 8196, 8175, 8122, 8184, 8177, 8190, 8165, 8157, 8110, 8183, 8145, 8287,8.163447856903076
6, 8164, 8166, 8138, 8163, 8055, 8178, 8189, 8174, 8171, 8149, 8105, 8160, 8135, 8274,8.171427249908447
7, 8163, 8177, 8178, 8162, 8105, 8175, 8186, 8180, 8156, 8135, 8099, 8163, 8112, 8250,8.179457664489746
8, 8177, 8203, 8269, 8161, 8161, 8179, 8181, 8201, 8130, 8127, 8088, 8191, 8106, 8255,8.187366724014282
9, 8159, 8151, 8132, 8159, 8057, 8186, 8211, 8169, 8148, 8148, 8117, 8170, 8147, 8297,8.195338010787964
10, 8157, 8130, 8088, 8151, 8055, 8186, 8214, 8167, 8159, 8161, 8142, 8170, 8166, 8300,8.203319787979126
11, 8161, 8161, 8153, 8146, 8084, 8165, 8193, 8183, 8144, 8156, 8141, 8179, 8161, 8267,8.211546182632446
12, 8176, 8193, 8199, 8159, 8101, 8165, 8191, 8192, 8157, 8164, 8148, 8185, 8179, 8274,8.219327926635742
13, 8193, 8185, 8188, 8169, 8098, 8184, 8206, 8194, 8188, 8182, 8171, 8192, 8202, 8309,8.22646951675415
14, 8176, 8160, 8149, 8164, 8089, 8182, 8210, 8176, 8189, 8188, 8175, 8180, 8207, 8309,8.234353303909302
15, 8183, 8180, 8216, 8170, 8148, 8172, 8199, 8188, 8176, 8186, 8165, 8193, 8202, 8294,8.242565870285034
16, 8188, 8185, 8183, 8178, 8124, 8162, 8201, 8187, 8192, 8191, 8185, 8193, 8210, 8304,8.250335931777954
17, 8175, 8185, 8150, 8164, 8128, 8162, 8204, 8180, 8197, 8188, 8192, 8186, 8215, 8305,8.258556842803955
18, 8173, 8191, 8198, 8162, 8158, 8177, 8207, 8195, 8185, 8180, 8177, 8189, 8211, 8291,8.266412258148193
19, 8163, 8179, 8151, 8185, 8130, 8178, 8214, 8180, 8191, 8181, 8173, 8171, 8207, 8289,8.274591207504272
20, 8176, 8195, 8200, 8193, 8199, 8170, 8204, 8187, 8180, 8166, 8156, 8190, 8183, 8288,8.28218674659729
21, 8164, 8172, 8201, 8164, 8174, 8171, 8210, 8181, 8158, 8152, 8139, 8187, 8162, 8275,8.290375709533691
22, 8116, 8131, 8109, 8133, 8107, 8168, 8228, 8155, 8155, 8149, 8130, 8147, 8152, 8255,8.297302961349487
23, 8122, 8140, 8144, 8133, 8158, 8165, 8222, 8168, 8163, 8154, 8120, 8152, 8149, 8247,8.305323600769043
24, 8149, 8155, 8163, 8149, 8171, 8170, 8219, 8180, 8178, 8169, 8131, 8166, 8168, 8254,8.313206672668457
25, 8164, 8181, 8188, 8165, 8163, 8175, 8217, 8187, 8174, 8166, 8157, 8176, 8172, 8254,8.321362733840942
26, 8161, 8174, 8169, 8175, 8122, 8170, 8212, 8173, 8171, 8170, 8185, 8172, 8178, 8259,8.32934284210205
27, 8174, 8168, 8165, 8183, 8160, 8175, 8213, 8172, 8182, 8186, 8198, 8182, 8195, 8279,8.337326765060425
28, 8203, 8180, 8209, 8191, 8188, 8188, 8213, 8186, 8193, 8192, 8196, 8201, 8205, 8287,8.345410108566284
29, 8183, 8163, 8133, 8191, 8108, 8185, 8207, 8154, 8199, 8201, 8194, 8172, 8209, 8274,8.353307962417603
30, 8191, 8194, 8217, 8183, 8199, 8191, 8178, 8180, 8186, 8198, 8178, 8191, 8195, 8268,8.360321521759033
31, 8197, 8192, 8247, 8181, 8208, 8199, 8187, 8217, 8196, 8194, 8194, 8209, 8212, 8293,8.368547201156616
32, 8167, 8158, 8114, 8192, 8108, 8190, 8225, 8190, 8224, 8205, 8223, 8173, 8243, 8304,8.376368045806885
33, 8187, 8187, 8184, 8192, 8177, 8181, 8224, 8199, 8213, 8203, 8196, 8180, 8218, 8283,8.384525775909424
34, 8170, 8167, 8179, 8153, 8168, 8168, 8222, 8199, 8201, 8191, 8159, 8168, 8189, 8269,8.392324209213257
35, 8124, 8137, 8118, 8131, 8135, 8151, 8226, 8179, 8187, 8171, 8143, 8138, 8168, 8249,8.400360345840454
36, 8143, 8156, 8167, 8150, 8159, 8149, 8210, 8172, 8157, 8151, 8139, 8149, 8145, 8232,8.408365249633789
37, 8177, 8170, 8182, 8165, 8150, 8154, 8192, 8160, 8145, 8151, 8145, 8167, 8152, 8249,8.416503429412842
38, 8183, 8171, 8182, 8158, 8144, 8154, 8184, 8169, 8152, 8165, 8161, 8178, 8168, 8269,8.423369407653809
39, 8168, 8164, 8144, 8160, 8122, 8161, 8189, 8171, 8171, 8172, 8180, 8168, 8179, 8276,8.431545734405518
40, 8187, 8192, 8195, 8191, 8177, 8176, 8185, 8193, 8184, 8175, 8179, 8184, 8186, 8281,8.439388990402222
41, 8193, 8186, 8212, 8198, 8175, 8170, 8181, 8205, 8178, 8185, 8182, 8195, 8193, 8282,8.44739294052124
42, 8157, 8147, 8131, 8164, 8127, 8147, 8179, 8175, 8149, 8184, 8196, 8165, 8192, 8266,8.455338478088379
43, 8164, 8174, 8173, 8164, 8167, 8144, 8157, 8171, 8121, 8174, 8193, 8168, 8186, 8254,8.463515758514404
44, 8183, 8195, 8174, 8209, 8144, 8157, 8146, 8166, 8127, 8183, 8208, 8181, 8208, 8279,8.471423864364624
45, 8188, 8196, 8164, 8229, 8141, 8165, 8144, 8162, 8126, 8194, 8230, 8196, 8236, 8309,8.479546785354614
46, 8191, 8206, 8194, 8220, 8170, 8161, 8135, 8165, 8118, 8200, 8238, 8202, 8245, 8308,8.486432790756226
47, 8178, 8208, 8169, 8223, 8163, 8152, 8137, 8141, 8129, 8196, 8238, 8179, 8238, 8284,8.494553089141846
48, 8177, 8197, 8178, 8217, 8180, 8156, 8140, 8139, 8123, 8172, 8223, 8178, 8219, 8269,8.50234603881836
49, 8164, 8167, 8140, 8190, 8144, 8167, 8148, 8144, 8101, 8164, 8211, 8165, 8207, 8269,8.510549306869507
50, 8144, 8178, 8152, 8169, 8159, 8169, 8156, 8165, 8094, 8168, 8181, 8152, 8178, 8244,8.518350839614868
51, 8132, 8187, 8193, 8163, 8170, 8156, 8165, 8184, 8091, 8155, 8140, 8155, 8144, 8207,8.526428937911987
52, 8098, 8142, 8112, 8152, 8103, 8143, 8180, 8163, 8096, 8154, 8138, 8125, 8143, 8190,8.534461975097656
53, 8097, 8145, 8129, 8148, 8112, 8157, 8176, 8170, 8107, 8159, 8149, 8127, 8146, 8195,8.542551040649414
54, 8115, 8158, 8150, 8146, 8082, 8163, 8181, 8189, 8120, 8156, 8134, 8145, 8144, 8212,8.550332069396973
55, 8115, 8152, 8132, 8137, 8075, 8147, 8185, 8191, 8122, 8155, 8114, 8140, 8138, 8210,8.557335615158081
56, 8117, 8158, 8173, 8144, 8124, 8141, 8176, 8194, 8127, 8153, 8134, 8150, 8138, 8210,8.565356969833374
57, 8123, 8145, 8145, 8158, 8091, 8145, 8186, 8180, 8146, 8159, 8177, 8164, 8174, 8243,8.573349952697754
58, 8162, 8162, 8195, 8165, 8127, 8152, 8192, 8194, 8137, 8160, 8182, 8191, 8188, 8264,8.581485271453857
59, 8177, 8182, 8224, 8186, 8142, 8167, 8195, 8185, 8133, 8167, 8193, 8203, 8188, 8264,8.589499473571777
60, 8166, 8194, 8171, 8226, 8113, 8180, 8202, 8152, 8157, 8184, 8222, 8202, 8221, 8281,8.597517013549805
61, 8198, 8219, 8200, 8249, 8128, 8181, 8190, 8157, 8155, 8191, 8225, 8214, 8243, 8302,8.605533123016357
62, 8212, 8217, 8192, 8251, 8108, 8174, 8168, 8149, 8146, 8197, 8230, 8207, 8245, 8304,8.613516092300415
63, 8207, 8227, 8204, 8259, 8132, 8178, 8160, 8152, 8160, 8201, 8242, 8218, 8256, 8315,8.620497226715088
64, 8212, 8223, 8188, 8258, 8145, 8176, 8167, 8157, 8174, 8202, 8226, 8220, 8275, 8338,8.628320932388306
65, 8210, 8209, 8152, 8237, 8152, 8167, 8165, 8147, 8160, 8197, 8187, 8192, 8260, 8328,8.636553525924683
66, 8190, 8207, 8184, 8206, 8165, 8175, 8170, 8165, 8143, 8189, 8168, 8182, 8230, 8289,8.644479274749756
67, 8141, 8177, 8116, 8178, 8089, 8180, 8204, 8171, 8158, 8189, 8164, 8155, 8220, 8266,8.652448415756226
68, 8127, 8165, 8134, 8157, 8126, 8175, 8207, 8188, 8162, 8179, 8121, 8144, 8186, 8247,8.660471439361572
69, 8111, 8137, 8144, 8129, 8140, 8168, 8200, 8189, 8157, 8168, 8094, 8133, 8160, 8219,8.66853928565979
70, 8068, 8107, 8074, 8105, 8106, 8158, 8211, 8167, 8167, 8163, 8108, 8110, 8156, 8197,8.676343202590942
71, 8094, 8142, 8191, 8105, 8183, 8155, 8199, 8194, 8160, 8150, 8100, 8146, 8141, 8191,8.683552026748657
72, 8114, 8132, 8184, 8117, 8128, 8161, 8192, 8180, 8160, 8151, 8117, 8157, 8158, 8222,8.691549301147461
73, 8111, 8116, 8094, 8137, 8079, 8172, 8202, 8155, 8170, 8162, 8163, 8149, 8191, 8253,8.699369430541992
74, 8144, 8162, 8167, 8168, 8136, 8177, 8203, 8189, 8170, 8170, 8177, 8181, 8197, 8260,8.707457542419434
75, 8168, 8196, 8204, 8186, 8135, 8173, 8194, 8197, 8173, 8171, 8178, 8197, 8206, 8278,8.71555209159851
76, 8172, 8192, 8180, 8188, 8125, 8169, 8190, 8179, 8176, 8166, 8188, 8197, 8227, 8299,8.723559141159058
77, 8163, 8176, 8136, 8203, 8117, 8170, 8196, 8158, 8183, 8180, 8214, 8189, 8250, 8298,8.731508016586304
78, 8181, 8207, 8195, 8226, 8176, 8173, 8182, 8169, 8179, 8193, 8214, 8204, 8249, 8292,8.739522218704224
79, 8200, 8215, 8213, 8232, 8165, 8158, 8170, 8180, 8169, 8186, 8198, 8215, 8245, 8303,8.747561931610107
80, 8186, 8194, 8136, 8225, 8119, 8153, 8177, 8170, 8180, 8188, 8204, 8190, 8263, 8312,8.754480361938477
81, 8203, 8231, 8240, 8215, 8207, 8170, 8166, 8203, 8177, 8192, 8197, 8200, 8246, 8296,8.762555599212646
82, 8183, 8209, 8218, 8194, 8152, 8164, 8159, 8197, 8170, 8185, 8171, 8182, 8209, 8275,8.770505428314209
83, 8135, 8152, 8086, 8172, 8075, 8145, 8169, 8163, 8173, 8178, 8158, 8143, 8200, 8262,8.778507709503174
84, 8145, 8166, 8151, 8166, 8157, 8162, 8173, 8182, 8173, 8167, 8163, 8160, 8193, 8254,8.786522626876831
85, 8159, 8176, 8186, 8165, 8175, 8176, 8185, 8192, 8177, 8158, 8158, 8166, 8179, 8259,8.794559478759766
86, 8166, 8164, 8175, 8158, 8146, 8170, 8188, 8191, 8170, 8155, 8138, 8159, 8163, 8267,8.80240774154663
87, 8169, 8152, 8150, 8153, 8111, 8172, 8185, 8181, 8156, 8150, 8140, 8154, 8167, 8253,8.810560464859009
88, 8162, 8167, 8159, 8158, 8130, 8168, 8178, 8169, 8139, 8138, 8148, 8165, 8177, 8232,8.817479372024536
89, 8160, 8176, 8186, 8160, 8139, 8153, 8170, 8165, 8128, 8141, 8157, 8185, 8176, 8246,8.825390338897705
90, 8151, 8149, 8123, 8147, 8095, 8156, 8183, 8149, 8149, 8166, 8174, 8168, 8182, 8274,8.833521366119385
91, 8174, 8175, 8178, 8158, 8160, 8177, 8188, 8168, 8169, 8177, 8175, 8186, 8198, 8280,8.841556549072266
92, 8190, 8205, 8205, 8207, 8157, 8176, 8183, 8171, 8176, 8181, 8189, 8208, 8219, 8282,8.849437475204468
93, 8171, 8206, 8160, 8229, 8134, 8163, 8177, 8155, 8175, 8182, 8192, 8195, 8215, 8273,8.857543468475342
94, 8184, 8212, 8217, 8208, 8196, 8171, 8168, 8187, 8172, 8176, 8171, 8196, 8207, 8269,8.865507125854492
95, 8179, 8194, 8159, 8185, 8160, 8174, 8179, 8192, 8182, 8184, 8169, 8169, 8221, 8286,8.87351369857788
96, 8153, 8197, 8137, 8177, 8159, 8157, 8183, 8193, 8174, 8171, 8146, 8153, 8189, 8268,8.881528377532959
97, 8129, 8180, 8150, 8169, 8131, 8143, 8186, 8189, 8163, 8155, 8124, 8149, 8154, 8230,8.888570547103882
98, 8125, 8155, 8137, 8150, 8118, 8144, 8192, 8170, 8159, 8163, 8125, 8148, 8161, 8229,8.896488189697266
99, 8145, 8170, 8228, 8131, 8205, 8151, 8182, 8198, 8149, 8154, 8105, 8174, 8146, 8238,8.90437388420105
100, 8115, 8134, 8158, 8131, 8136, 8155, 8199, 8196, 8169, 8151, 8116, 8152, 8145, 8239,8.912488460540771
101, 8099, 8120, 8082, 8150, 8092, 8167, 8226, 8172, 8190, 8162, 8160, 8135, 8178, 8246,8.920553207397461
102, 8138, 8168, 8150, 8170, 8151, 8178, 8236, 8183, 8187, 8167, 8175, 8164, 8196, 8266,8.928435802459717
103, 8160, 8193, 8189, 8180, 8178, 8172, 8242, 8195, 8190, 8171, 8162, 8182, 8191, 8282,8.936519622802734
104, 8163, 8179, 8194, 8174, 8180, 8174, 8246, 8194, 8196, 8170, 8161, 8181, 8184, 8273,8.944546699523926
105, 8154, 8160, 8137, 8173, 8142, 8188, 8247, 8170, 8206, 8174, 8184, 8171, 8204, 8275,8.95135760307312
106, 8187, 8211, 8209, 8199, 8203, 8195, 8221, 8186, 8208, 8184, 8198, 8204, 8225, 8299,8.95951223373413
