COUNTER,F3, FC5,AF3,F7,T7,P7,O1,O2,P8,T8,F8,AF4,FC6,F4,Timestamp,goodbye_event
39,8138,8185,8146,8225,8089,8207,8170,8173,8185,8194,8164,8165,8186,8269,0.0068635940551757,False
40,8158,8204,8185,8248,8127,8204,8164,8183,8186,8188,8170,8176,8182,8272,0.0145564079284667,False
41,8174,8187,8173,8246,8108,8192,8163,8170,8176,8172,8139,8169,8163,8274,0.022731065750122,False
42,8181,8197,8170,8235,8116,8193,8157,8156,8165,8166,8118,8164,8159,8275,0.030820608139038,False
43,8203,8225,8221,8261,8148,8206,8137,8161,8158,8169,8125,8184,8165,8277,0.0387244224548339,False
44,8197,8215,8184,8296,8122,8208,8128,8142,8157,8174,8121,8175,8159,8274,0.045710802078247,False
45,8187,8218,8199,8301,8136,8207,8129,8148,8141,8167,8106,8167,8139,8259,0.0538017749786376,False
46,8176,8205,8150,8289,8083,8209,8149,8147,8149,8170,8132,8158,8155,8265,0.061746597290039,False
47,8198,8225,8211,8289,8156,8215,8147,8178,8170,8169,8139,8186,8169,8285,0.0699245929718017,False
48,8224,8240,8323,8293,8215,8221,8133,8218,8168,8162,8118,8215,8154,8287,0.0776691436767578,False
49,8169,8180,8125,8281,8057,8212,8151,8169,8178,8176,8141,8157,8167,8271,0.0857648849487304,False
50,8149,8181,8086,8262,8086,8211,8146,8146,8178,8173,8146,8142,8171,8265,0.093705415725708,False
51,8183,8208,8213,8263,8168,8228,8131,8164,8169,8164,8125,8182,8161,8277,0.1017956733703613,False
52,8185,8201,8176,8286,8119,8247,8148,8161,8175,8182,8129,8181,8169,8278,0.1087057590484619,False
53,8184,8190,8143,8288,8109,8260,8165,8159,8175,8181,8132,8168,8173,8268,0.1169135570526123,False
54,8182,8169,8150,8267,8139,8260,8167,8155,8181,8167,8124,8163,8166,8261,0.1246914863586425,False
55,8184,8183,8193,8281,8164,8263,8169,8177,8191,8179,8131,8176,8170,8263,0.1327884197235107,False
56,8182,8191,8170,8297,8117,8264,8183,8187,8200,8198,8152,8184,8195,8283,0.1405463218688964,False
57,8173,8178,8147,8264,8123,8256,8178,8174,8189,8188,8134,8180,8187,8287,0.1486928462982177,False
58,8171,8176,8179,8242,8159,8249,8165,8170,8164,8168,8104,8168,8155,8261,0.1567800045013427,False
59,8167,8179,8146,8265,8120,8241,8173,8167,8159,8169,8104,8148,8157,8253,0.1646990776062011,False
60,8182,8200,8188,8272,8153,8238,8164,8182,8158,8167,8094,8165,8157,8270,0.1727168560028076,False
61,8179,8184,8188,8251,8144,8225,8153,8179,8163,8163,8081,8172,8143,8278,0.1798386573791504,False
62,8158,8161,8135,8247,8120,8205,8155,8165,8173,8162,8078,8150,8135,8270,0.1876976490020752,False
63,8176,8172,8209,8252,8174,8210,8145,8190,8166,8154,8061,8154,8126,8256,0.1956987380981445,False
64,8177,8154,8184,8248,8123,8228,8147,8182,8173,8160,8072,8150,8136,8259,0.2036619186401367,False
65,8161,8153,8140,8242,8100,8235,8152,8167,8186,8167,8095,8151,8148,8263,0.2116906642913818,False
66,8151,8162,8169,8235,8131,8228,8141,8164,8170,8161,8092,8151,8143,8251,0.2197067737579345,False
67,8154,8160,8176,8239,8134,8221,8137,8155,8153,8157,8091,8149,8146,8249,0.2277545928955078,False
68,8182,8177,8203,8270,8143,8222,8142,8159,8152,8163,8103,8179,8160,8269,0.2357120513916015,False
69,8183,8170,8158,8282,8105,8218,8141,8133,8143,8169,8109,8169,8168,8283,0.2426834106445312,False
70,8175,8179,8168,8269,8137,8211,8132,8131,8124,8164,8090,8148,8148,8264,0.2506361007690429,False
71,8166,8186,8173,8272,8129,8207,8146,8153,8130,8159,8088,8146,8140,8242,0.2588787078857422,False
72,8157,8176,8144,8277,8108,8205,8162,8167,8144,8155,8112,8152,8154,8250,0.2665340900421142,False
73,8209,8198,8263,8281,8199,8209,8143,8208,8147,8160,8133,8193,8166,8282,0.2748894691467285,False
74,8225,8173,8218,8282,8148,8211,8141,8197,8169,8183,8156,8192,8193,8315,0.2828273773193359,False
75,8188,8143,8138,8270,8112,8225,8155,8170,8173,8177,8149,8170,8191,8305,0.2907159328460693,False
76,8188,8154,8206,8263,8156,8237,8161,8184,8159,8158,8133,8179,8162,8281,0.2987504005432129,False
77,8186,8151,8169,8267,8131,8234,8171,8178,8169,8168,8119,8167,8161,8280,0.3068165779113769,False
78,8165,8147,8141,8255,8140,8228,8167,8174,8164,8162,8090,8147,8146,8268,0.3135952949523926,False
79,8150,8135,8136,8228,8129,8217,8165,8175,8152,8149,8093,8137,8128,8248,0.3217306137084961,False
80,8164,8138,8155,8222,8143,8206,8159,8188,8156,8159,8122,8151,8140,8255,0.3296482563018799,False
81,8178,8142,8185,8238,8155,8198,8156,8197,8167,8178,8144,8172,8171,8287,0.3376972675323486,False
82,8167,8139,8150,8252,8133,8192,8164,8182,8186,8188,8159,8174,8193,8313,0.3457043170928955,False
83,8159,8148,8174,8232,8156,8181,8154,8188,8180,8177,8149,8181,8176,8311,0.353649377822876,False
84,8137,8116,8148,8198,8108,8168,8145,8180,8168,8176,8152,8172,8163,8303,0.361701488494873,False
85,8141,8116,8154,8207,8114,8168,8149,8181,8176,8191,8180,8174,8181,8300,0.3696649074554443,False
86,8173,8148,8210,8231,8147,8172,8157,8198,8176,8183,8175,8186,8189,8295,0.3766794204711914,False
87,8151,8130,8137,8212,8094,8158,8160,8175,8168,8166,8156,8155,8178,8280,0.3848183155059814,False
88,8128,8123,8162,8176,8143,8149,8148,8174,8152,8154,8145,8147,8147,8264,0.3926787376403808,False
89,8125,8107,8177,8161,8145,8150,8150,8176,8139,8145,8123,8141,8116,8255,0.4007632732391357,False
90,8137,8111,8132,8174,8100,8156,8163,8171,8144,8142,8132,8133,8117,8251,0.4088475704193115,False
91,8177,8157,8195,8214,8139,8175,8166,8188,8153,8154,8200,8173,8154,8267,0.4167282581329345,False
92,8184,8156,8193,8239,8128,8181,8166,8170,8156,8167,8247,8188,8188,8293,0.4247822761535644,False
93,8189,8149,8188,8241,8137,8174,8163,8164,8152,8159,8232,8191,8182,8300,0.4327790737152099,False
94,8193,8145,8177,8233,8136,8179,8166,8174,8167,8169,8234,8195,8185,8301,0.4406592845916748,False
95,8175,8145,8174,8229,8145,8185,8159,8164,8179,8181,8233,8184,8185,8296,0.4476938247680664,False
96,8182,8161,8213,8242,8158,8183,8143,8165,8174,8172,8221,8188,8180,8298,0.4556224346160888,False
97,8189,8160,8131,8251,8102,8177,8156,8163,8196,8187,8245,8180,8205,8315,0.4635913372039795,False
98,8208,8189,8201,8236,8185,8177,8156,8205,8204,8201,8235,8192,8195,8309,0.4717669486999511,False
99,8207,8171,8269,8213,8198,8177,8155,8230,8199,8198,8213,8200,8180,8297,0.4796428680419922,False
100,8152,8109,8117,8213,8096,8166,8178,8188,8203,8198,8226,8167,8201,8302,0.4877231121063232,False
101,8142,8130,8103,8219,8117,8156,8180,8175,8184,8193,8219,8165,8192,8298,0.4957120418548584,False
102,8175,8161,8167,8218,8128,8163,8184,8186,8175,8185,8208,8179,8171,8300,0.5026986598968506,False
103,8199,8162,8200,8223,8139,8176,8194,8195,8169,8167,8206,8183,8164,8304,0.5107452869415283,False
104,8189,8145,8156,8221,8113,8179,8194,8179,8156,8156,8202,8168,8165,8300,0.5196824073791504,False
105,8183,8144,8142,8220,8121,8178,8186,8169,8160,8166,8206,8168,8180,8305,0.5267443656921387,False
106,8218,8174,8267,8236,8196,8176,8180,8199,8167,8174,8206,8203,8186,8311,0.534806489944458,False
107,8198,8143,8180,8227,8106,8166,8193,8171,8181,8192,8216,8176,8192,8306,0.542651891708374,False
108,8173,8124,8110,8196,8085,8170,8184,8151,8181,8196,8222,8153,8197,8303,0.5505013465881348,False
109,8199,8143,8185,8200,8124,8179,8163,8175,8170,8182,8218,8187,8199,8322,0.5588176250457764,False
110,8204,8149,8162,8221,8094,8181,8167,8170,8180,8188,8222,8194,8208,8343,0.566746711730957,False
111,8205,8157,8205,8210,8160,8202,8164,8185,8186,8195,8214,8189,8200,8331,0.5738711357116699,False
112,8189,8136,8202,8194,8155,8213,8164,8180,8175,8189,8201,8175,8190,8315,0.5818355083465576,False
113,8173,8141,8140,8204,8113,8199,8167,8158,8172,8184,8195,8166,8186,8317,0.5898959636688232,False
114,8197,8176,8167,8218,8133,8186,8162,8169,8182,8188,8205,8180,8188,8332,0.5977208614349365,False
115,8207,8182,8175,8222,8125,8183,8158,8176,8187,8194,8217,8177,8193,8331,0.605647087097168,False
116,8199,8180,8176,8227,8124,8182,8155,8180,8185,8190,8197,8165,8189,8309,0.613612174987793,False
117,8187,8164,8145,8221,8118,8174,8155,8174,8187,8189,8178,8155,8178,8299,0.6217308044433594,False
118,8182,8156,8158,8197,8143,8172,8158,8177,8179,8187,8163,8160,8154,8294,0.6297047138214111,False
119,8170,8152,8177,8179,8142,8171,8160,8182,8171,8177,8153,8159,8140,8267,0.6366627216339111,False
120,8148,8138,8129,8185,8119,8151,8153,8166,8172,8170,8165,8138,8150,8249,0.6446423530578613,False
121,8163,8155,8182,8193,8163,8149,8137,8175,8155,8167,8173,8158,8146,8254,0.6526672840118408,False
122,8174,8156,8176,8200,8105,8162,8141,8165,8148,8177,8182,8175,8150,8267,0.660682201385498,False
123,8180,8165,8156,8215,8098,8159,8140,8154,8160,8189,8198,8182,8175,8283,0.6686446666717529,False
124,8210,8191,8248,8228,8176,8152,8126,8179,8161,8188,8210,8209,8194,8310,0.6767103672027588,False
125,8203,8163,8191,8234,8118,8152,8140,8162,8165,8195,8216,8191,8212,8335,0.6836590766906738,False
126,8192,8161,8154,8235,8114,8154,8147,8145,8153,8193,8199,8177,8206,8319,0.6928093433380127,False
127,8197,8175,8177,8219,8114,8159,8148,8147,8142,8177,8188,8188,8189,8301,0.7007567882537842,False
237,8205,8180,8179,8211,8115,8180,8162,8161,8164,8176,8190,8192,8192,8317,0.7077949047088623,False
0,8224,8184,8229,8232,8172,8198,8170,8197,8176,8190,8197,8206,8199,8336,0.7157459259033203,False
1,8195,8147,8161,8225,8119,8187,8171,8185,8178,8202,8214,8187,8206,8337,0.7237293720245361,False
2,8172,8146,8161,8189,8129,8179,8162,8192,8185,8188,8196,8174,8194,8316,0.7316234111785889,False
3,8174,8148,8174,8173,8140,8184,8168,8212,8201,8182,8174,8173,8183,8302,0.7397394180297852,False
4,8156,8134,8130,8172,8129,8180,8180,8203,8204,8194,8187,8167,8185,8295,0.7478704452514648,False
5,8157,8154,8203,8172,8162,8182,8178,8212,8194,8187,8188,8185,8180,8280,0.755784273147583,False
6,8151,8146,8156,8188,8095,8181,8189,8192,8204,8193,8185,8171,8196,8285,0.763723611831665,False
7,8156,8146,8127,8196,8111,8175,8187,8175,8202,8198,8187,8169,8199,8297,0.7708275318145752,False
8,8175,8160,8191,8185,8164,8188,8175,8192,8192,8191,8196,8193,8198,8308,0.7786719799041748,False
9,8165,8163,8162,8198,8124,8210,8193,8189,8205,8192,8204,8188,8219,8321,0.786829948425293,False
10,8158,8165,8144,8219,8132,8221,8206,8171,8198,8187,8190,8181,8218,8317,0.7947301864624023,False
11,8156,8149,8135,8196,8158,8222,8196,8157,8176,8180,8181,8178,8210,8312,0.8028655052185059,False
12,8156,8144,8172,8165,8174,8219,8186,8171,8160,8174,8181,8186,8210,8316,0.8107821941375732,False
13,8143,8135,8171,8161,8124,8208,8202,8161,8153,8168,8182,8179,8200,8306,0.8186924457550049,False
14,8127,8132,8130,8169,8104,8207,8216,8135,8151,8164,8167,8152,8180,8277,0.8268733024597168,False
15,8151,8157,8190,8183,8176,8218,8209,8155,8146,8160,8142,8163,8175,8275,0.8347940444946289,False
16,8155,8139,8161,8180,8155,8209,8198,8145,8139,8162,8148,8171,8190,8298,0.8417263031005859,False
17,8149,8138,8148,8175,8168,8198,8173,8138,8135,8169,8154,8170,8189,8296,0.8497316837310791,False
18,8169,8163,8199,8186,8184,8200,8160,8173,8161,8184,8158,8179,8197,8289,0.8577744960784912,False
19,8172,8151,8155,8194,8127,8194,8167,8177,8199,8204,8179,8173,8217,8296,0.8656678199768066,False
20,8177,8166,8197,8197,8183,8187,8156,8195,8200,8200,8176,8184,8208,8297,0.873762845993042,False
21,8167,8161,8196,8192,8187,8184,8164,8206,8201,8196,8170,8188,8204,8308,0.8816587924957275,False
22,8153,8139,8129,8185,8147,8192,8189,8188,8214,8204,8179,8182,8218,8324,0.8897345066070557,False
23,8159,8157,8156,8185,8173,8203,8181,8178,8197,8202,8184,8190,8219,8322,0.8978807926177979,False
24,8150,8165,8166,8191,8186,8203,8168,8168,8177,8193,8193,8182,8214,8313,0.9047191143035888,False
25,8161,8168,8197,8196,8196,8203,8165,8175,8171,8187,8202,8187,8213,8320,0.9129185676574708,False
26,8167,8160,8154,8196,8118,8202,8162,8157,8169,8192,8207,8185,8226,8333,0.9208462238311768,False
27,8155,8165,8136,8193,8116,8191,8146,8138,8151,8183,8196,8179,8219,8329,0.9286556243896484,False
28,8168,8177,8209,8189,8192,8177,8127,8151,8135,8163,8179,8186,8191,8323,0.9367785453796388,False
29,8179,8161,8152,8195,8159,8176,8139,8132,8149,8175,8178,8169,8199,8330,0.9446969032287598,False
30,8191,8171,8167,8196,8184,8193,8153,8143,8148,8182,8177,8180,8205,8330,0.9528493881225586,False
31,8180,8161,8183,8182,8157,8196,8159,8161,8142,8166,8174,8175,8193,8311,0.9608216285705566,False
32,8159,8148,8137,8180,8123,8189,8170,8162,8162,8162,8158,8142,8184,8275,0.967858076095581,False
33,8174,8163,8180,8194,8183,8204,8179,8189,8172,8176,8149,8155,8181,8259,0.9758903980255128,False
34,8177,8151,8158,8185,8159,8213,8185,8182,8172,8183,8170,8158,8193,8279,0.9838354587554932,False
35,8166,8154,8152,8173,8159,8204,8180,8173,8174,8175,8171,8153,8191,8289,0.9916949272155762,False
36,8158,8150,8152,8185,8171,8198,8190,8186,8190,8186,8166,8162,8194,8285,0.9995737075805664,False
37,8175,8159,8163,8198,8183,8199,8196,8184,8196,8201,8183,8173,8210,8303,1.007662057876587,False
38,8213,8192,8222,8201,8186,8203,8174,8177,8177,8188,8189,8196,8207,8326,1.0156288146972656,False
39,8206,8182,8163,8215,8121,8205,8176,8160,8168,8175,8195,8197,8206,8330,1.0238685607910156,False
40,8210,8197,8182,8236,8174,8208,8183,8165,8159,8166,8198,8199,8200,8322,1.0306403636932373,False
41,8232,8203,8209,8235,8207,8205,8172,8146,8140,8164,8192,8197,8190,8324,1.0387523174285889,False
42,8222,8177,8151,8208,8173,8191,8156,8110,8117,8155,8180,8184,8178,8333,1.046905755996704,False
43,8226,8198,8209,8206,8187,8185,8152,8126,8095,8136,8164,8204,8164,8339,1.0548367500305176,False
44,8224,8200,8190,8217,8130,8194,8177,8139,8116,8149,8173,8208,8175,8354,1.0627810955047607,False
45,8218,8177,8161,8190,8154,8210,8191,8170,8149,8167,8185,8205,8185,8363,1.0707149505615234,False
46,8208,8163,8190,8165,8200,8215,8186,8202,8158,8169,8191,8200,8184,8350,1.0788941383361816,False
47,8171,8151,8132,8173,8141,8198,8189,8186,8175,8183,8192,8168,8195,8323,1.086801528930664,False
48,8168,8153,8137,8173,8133,8186,8181,8195,8195,8195,8198,8171,8207,8305,1.0947535037994385,False
49,8200,8161,8153,8187,8127,8201,8177,8202,8211,8204,8232,8186,8232,8324,1.101560354232788,False
50,8220,8206,8174,8230,8161,8234,8181,8190,8204,8204,8240,8185,8240,8338,1.1097662448883057,False
51,8201,8226,8186,8225,8186,8241,8178,8179,8183,8194,8214,8172,8217,8314,1.1176939010620115,False
52,8171,8204,8141,8184,8163,8225,8170,8163,8173,8191,8219,8157,8208,8297,1.125901460647583,False
53,8194,8222,8192,8194,8196,8232,8167,8175,8172,8188,8237,8171,8207,8293,1.1336774826049805,False
54,8198,8218,8167,8229,8159,8232,8175,8160,8183,8191,8231,8161,8207,8285,1.1416904926300049,False
55,8174,8213,8155,8220,8158,8203,8159,8145,8171,8187,8212,8162,8202,8283,1.1499226093292236,False
56,8185,8224,8221,8190,8173,8180,8141,8164,8150,8169,8216,8195,8191,8293,1.1576192378997805,False
57,8177,8196,8147,8186,8098,8175,8164,8154,8160,8168,8230,8174,8193,8295,1.1647982597351074,False
58,8161,8194,8146,8202,8135,8188,8187,8161,8164,8172,8215,8159,8184,8280,1.1728999614715576,False
59,8143,8184,8168,8187,8155,8204,8199,8172,8162,8165,8201,8161,8169,8265,1.1808390617370603,False
60,8130,8166,8131,8155,8133,8208,8204,8176,8171,8156,8195,8151,8160,8257,1.1888368129730225,False
61,8151,8192,8156,8163,8146,8208,8196,8200,8188,8168,8199,8159,8168,8270,1.1966755390167236,False
62,8159,8205,8148,8182,8125,8200,8178,8195,8202,8185,8217,8166,8193,8289,1.2049026489257812,False
63,8166,8212,8193,8172,8165,8178,8147,8187,8185,8168,8205,8178,8189,8287,1.212761163711548,False
64,8176,8208,8194,8173,8159,8159,8144,8181,8172,8162,8205,8178,8187,8292,1.2208757400512695,False
65,8174,8211,8154,8195,8142,8161,8159,8185,8193,8186,8226,8165,8195,8298,1.2278623580932615,False
66,8171,8220,8179,8196,8145,8158,8152,8196,8195,8183,8212,8165,8183,8278,1.2357618808746338,False
67,8158,8204,8139,8182,8091,8149,8155,8170,8177,8169,8207,8159,8180,8263,1.243908166885376,False
68,8174,8223,8193,8189,8154,8166,8157,8176,8163,8165,8213,8179,8186,8271,1.2517108917236328,False
69,8188,8225,8228,8202,8170,8176,8149,8179,8165,8174,8216,8193,8195,8290,1.259713649749756,False
70,8191,8207,8155,8205,8110,8158,8143,8143,8174,8185,8231,8183,8212,8306,1.2678799629211426,False
71,8210,8222,8180,8212,8138,8155,8140,8144,8171,8182,8246,8195,8220,8309,1.2758967876434326,False
72,8198,8222,8176,8222,8133,8162,8151,8140,8164,8179,8239,8187,8217,8306,1.2837839126586914,False
73,8185,8227,8180,8215,8149,8153,8151,8140,8152,8173,8211,8172,8188,8282,1.2918751239776611,False
74,8188,8217,8181,8188,8145,8138,8155,8154,8141,8159,8201,8163,8163,8265,1.298861026763916,False
75,8176,8198,8149,8176,8139,8139,8179,8163,8151,8155,8202,8162,8173,8286,1.3069376945495603,False
76,8187,8220,8199,8193,8167,8153,8180,8186,8162,8161,8194,8187,8186,8302,1.3149135112762451,False
77,8191,8220,8163,8203,8103,8157,8172,8177,8169,8165,8199,8176,8190,8289,1.322880506515503,False
78,8179,8208,8140,8196,8117,8163,8169,8169,8163,8157,8199,8162,8182,8281,1.330906629562378,False
79,8177,8202,8169,8198,8157,8176,8177,8174,8168,8163,8196,8175,8185,8300,1.3388488292694092,False
80,8179,8212,8153,8203,8133,8177,8183,8166,8192,8181,8197,8171,8198,8307,1.346925973892212,False
81,8205,8234,8206,8201,8155,8175,8172,8182,8194,8177,8186,8175,8193,8293,1.35483980178833,False
82,8217,8209,8183,8195,8122,8181,8167,8175,8189,8188,8201,8178,8204,8307,1.3618276119232178,False
83,8210,8204,8158,8207,8129,8186,8162,8161,8184,8198,8213,8185,8210,8322,1.369855880737305,False
84,8203,8214,8187,8220,8158,8170,8158,8156,8171,8180,8193,8186,8194,8306,1.377925157546997,False
85,8187,8194,8152,8196,8129,8150,8160,8131,8154,8166,8181,8165,8186,8291,1.38586163520813,False
86,8204,8209,8188,8185,8157,8151,8153,8140,8141,8163,8186,8177,8181,8301,1.3939094543457031,False
87,8210,8216,8170,8214,8146,8151,8167,8156,8155,8166,8193,8174,8179,8305,1.4018657207489014,False
88,8181,8207,8143,8210,8147,8149,8188,8169,8165,8163,8171,8159,8172,8273,1.4096834659576416,False
89,8165,8193,8181,8164,8155,8166,8200,8189,8167,8164,8149,8168,8158,8254,1.4177262783050537,False
90,8156,8160,8134,8151,8114,8176,8205,8186,8177,8171,8157,8157,8156,8259,1.4259033203125,False
91,8169,8178,8161,8169,8148,8167,8195,8204,8177,8161,8164,8164,8159,8267,1.4328992366790771,False
92,8169,8192,8169,8173,8134,8148,8188,8195,8181,8162,8174,8174,8175,8286,1.4408998489379885,False
93,8170,8187,8161,8185,8132,8136,8179,8170,8188,8172,8177,8171,8182,8301,1.4488976001739502,False
94,8197,8194,8216,8201,8162,8143,8157,8183,8182,8166,8172,8184,8177,8303,1.4568727016448977,False
95,8193,8191,8164,8196,8104,8146,8151,8175,8185,8172,8186,8181,8198,8309,1.4649040699005127,False
96,8203,8212,8172,8209,8131,8153,8151,8166,8181,8184,8192,8182,8213,8318,1.4729197025299072,False
97,8214,8214,8189,8225,8165,8162,8150,8155,8167,8171,8180,8172,8199,8308,1.4807369709014893,False
98,8186,8207,8157,8204,8154,8159,8148,8149,8161,8155,8176,8161,8186,8290,1.4888715744018557,False
99,8183,8220,8188,8193,8146,8161,8147,8163,8158,8161,8189,8178,8188,8292,1.4958155155181885,False
100,8197,8213,8160,8204,8111,8168,8154,8143,8155,8168,8185,8173,8185,8297,1.503732681274414,False
101,8190,8215,8175,8192,8153,8160,8144,8144,8135,8150,8154,8160,8151,8267,1.5117218494415283,False
102,8164,8198,8174,8167,8132,8142,8136,8147,8121,8137,8143,8148,8124,8235,1.519688844680786,False
103,8154,8180,8138,8149,8094,8146,8149,8131,8125,8137,8141,8137,8113,8235,1.5287857055664062,False
104,8174,8191,8183,8138,8147,8159,8158,8153,8135,8131,8138,8155,8113,8245,1.5357048511505127,False
105,8167,8183,8143,8148,8123,8155,8164,8167,8163,8148,8173,8154,8149,8267,1.543670892715454,False
106,8171,8192,8161,8159,8136,8149,8150,8170,8166,8154,8181,8156,8155,8268,1.551708698272705,False
107,8182,8178,8205,8134,8128,8145,8134,8163,8140,8139,8144,8162,8128,8241,1.5596604347229004,False
108,8167,8147,8148,8122,8094,8146,8141,8156,8147,8139,8142,8145,8131,8236,1.566692590713501,False
109,8167,8175,8172,8145,8145,8160,8149,8184,8172,8150,8175,8158,8139,8246,1.5747504234313965,False
110,8157,8184,8157,8153,8112,8161,8152,8167,8179,8158,8204,8166,8151,8249,1.5827326774597168,False
111,8177,8201,8192,8178,8133,8155,8141,8156,8171,8156,8212,8181,8175,8262,1.5907995700836182,False
112,8210,8222,8236,8224,8158,8159,8142,8175,8169,8173,8230,8201,8203,8292,1.5987303256988523,False
113,8188,8210,8160,8223,8116,8158,8157,8168,8185,8197,8251,8186,8220,8305,1.6067187786102295,False
114,8193,8216,8198,8197,8157,8154,8148,8186,8189,8191,8233,8187,8204,8300,1.614882469177246,False
115,8195,8197,8178,8199,8125,8153,8144,8183,8181,8187,8222,8175,8194,8296,1.6228749752044678,False
116,8169,8187,8139,8197,8117,8156,8149,8165,8166,8186,8218,8170,8193,8274,1.6298928260803225,False
117,8167,8196,8181,8170,8143,8154,8146,8177,8162,8178,8208,8181,8198,8260,1.6376328468322754,False
118,8170,8178,8147,8154,8124,8147,8142,8181,8180,8186,8205,8161,8204,8270,1.6458897590637207,False
119,8179,8181,8164,8168,8178,8152,8127,8183,8178,8195,8186,8162,8185,8273,1.6538920402526855,False
120,8171,8171,8170,8182,8172,8157,8121,8167,8170,8185,8184,8168,8179,8261,1.6618342399597168,False
121,8166,8164,8163,8183,8143,8152,8125,8161,8172,8175,8207,8162,8188,8264,1.6698429584503174,False
122,8179,8176,8168,8184,8148,8154,8138,8175,8186,8193,8229,8164,8202,8284,1.677910566329956,False
123,8174,8191,8151,8192,8144,8171,8160,8176,8207,8204,8237,8164,8218,8286,1.6857004165649414,False
124,8174,8208,8202,8195,8168,8179,8158,8183,8190,8178,8222,8169,8205,8260,1.692882776260376,False
125,8167,8184,8170,8195,8131,8168,8150,8175,8166,8170,8207,8154,8184,8251,1.7008919715881348,False
126,8169,8181,8142,8198,8127,8170,8157,8178,8178,8178,8220,8161,8182,8264,1.7089016437530518,False
127,8186,8203,8189,8194,8151,8190,8166,8199,8192,8174,8242,8184,8193,8265,1.7168593406677246,False
237,8172,8182,8151,8181,8122,8183,8159,8178,8186,8178,8243,8166,8197,8260,1.7249724864959717,False
0,8178,8189,8188,8194,8158,8175,8146,8174,8176,8187,8238,8176,8198,8272,1.7329459190368652,False
1,8205,8211,8206,8218,8139,8188,8151,8174,8193,8195,8254,8194,8222,8298,1.7408738136291504,False
2,8216,8223,8173,8214,8125,8198,8153,8161,8207,8206,8251,8185,8237,8311,1.7488718032836914,False
3,8223,8228,8220,8198,8169,8191,8152,8168,8193,8200,8228,8190,8219,8309,1.755904197692871,False
4,8200,8201,8181,8189,8134,8179,8167,8161,8187,8189,8225,8176,8210,8301,1.763697385787964,False
5,8180,8198,8158,8178,8138,8169,8166,8168,8184,8187,8203,8166,8195,8275,1.7718982696533203,False
6,8173,8191,8154,8163,8123,8148,8161,8167,8175,8184,8185,8163,8174,8264,1.7799053192138672,False
7,8162,8172,8142,8158,8117,8133,8162,8160,8160,8168,8183,8157,8171,8269,1.7877228260040283,False
8,8155,8170,8184,8152,8153,8141,8155,8179,8149,8151,8165,8158,8167,8251,1.7957181930541992,False
9,8140,8160,8136,8147,8096,8150,8163,8165,8160,8158,8166,8146,8168,8238,1.8038997650146484,False
10,8166,8198,8171,8164,8128,8149,8150,8163,8148,8151,8168,8164,8157,8255,1.8118109703063965,False
11,8190,8217,8203,8180,8151,8143,8129,8166,8130,8136,8161,8168,8155,8271,1.8198988437652588,False
12,8163,8192,8135,8179,8119,8146,8134,8150,8152,8146,8169,8141,8168,8263,1.826852560043335,False
13,8171,8215,8208,8197,8177,8164,8137,8172,8168,8153,8169,8168,8156,8251,1.8349082469940183,False
14,8190,8218,8207,8232,8151,8171,8144,8174,8163,8160,8166,8179,8156,8266,1.8427088260650637,False
15,8180,8211,8156,8241,8130,8167,8151,8162,8155,8164,8161,8157,8161,8266,1.850738525390625,False
16,8158,8216,8176,8220,8152,8163,8143,8155,8145,8159,8158,8156,8154,8245,1.858877182006836,False
17,8145,8212,8167,8214,8147,8153,8133,8139,8137,8156,8154,8164,8152,8249,1.8667998313903809,False
18,8163,8220,8189,8227,8154,8143,8132,8142,8131,8156,8148,8168,8151,8253,1.8748998641967771,False
19,8159,8197,8144,8219,8103,8135,8148,8134,8130,8160,8147,8147,8146,8233,1.8829035758972168,False
20,8146,8182,8153,8198,8127,8135,8153,8144,8110,8145,8114,8143,8124,8217,1.8896734714508057,False
21,8136,8180,8192,8182,8153,8141,8155,8166,8099,8129,8090,8147,8110,8219,1.8978943824768064,False
22,8117,8172,8135,8179,8127,8144,8166,8166,8132,8143,8116,8129,8127,8217,1.905876636505127,False
23,8141,8202,8180,8197,8166,8150,8166,8194,8153,8147,8139,8152,8131,8216,1.913832426071167,False
24,8151,8207,8173,8217,8127,8146,8171,8198,8150,8142,8149,8168,8138,8237,1.9218738079071045,False
25,8144,8219,8158,8220,8128,8134,8164,8183,8141,8146,8148,8165,8150,8246,1.9298985004425049,False
26,8181,8246,8227,8228,8162,8135,8150,8183,8135,8145,8150,8188,8159,8258,1.937725067138672,False
27,8198,8240,8203,8263,8119,8148,8161,8162,8152,8150,8185,8206,8184,8293,1.944735050201416,False
28,8204,8261,8221,8303,8154,8157,8158,8159,8152,8158,8215,8230,8203,8311,1.9528663158416748,False
29,8224,8276,8231,8319,8145,8154,8141,8152,8141,8160,8226,8241,8222,8316,1.9608969688415527,False
30,8239,8269,8219,8318,8127,8154,8143,8146,8148,8159,8227,8245,8233,8332,1.9687941074371336,False
31,8238,8262,8235,8314,8155,8159,8148,8148,8155,8161,8222,8250,8225,8332,1.9768457412719729,False
32,8224,8250,8185,8294,8128,8149,8147,8118,8144,8160,8207,8218,8217,8310,1.984881401062012,False
33,8235,8262,8214,8285,8159,8140,8147,8127,8125,8149,8188,8214,8210,8300,1.9928786754608157,False
34,8225,8254,8211,8303,8168,8134,8158,8150,8135,8152,8177,8217,8210,8315,2.000877618789673,False
35,8192,8244,8164,8286,8155,8127,8163,8149,8135,8149,8152,8189,8198,8304,2.0078437328338623,False
36,8176,8236,8180,8238,8153,8130,8159,8155,8117,8131,8129,8166,8174,8267,2.015877246856689,False
37,8165,8208,8135,8229,8124,8136,8172,8154,8128,8137,8135,8159,8183,8262,2.023903608322144,False
38,8190,8238,8189,8247,8197,8154,8177,8187,8131,8149,8127,8189,8191,8290,2.0318782329559326,False
39,8204,8247,8217,8241,8193,8173,8175,8201,8127,8149,8114,8184,8177,8302,2.0396595001220703,False
40,8178,8213,8134,8236,8126,8182,8177,8169,8147,8151,8119,8154,8175,8291,2.0478768348693848,False
41,8171,8217,8146,8232,8162,8184,8164,8154,8156,8156,8113,8167,8195,8294,2.05586314201355,False
42,8153,8207,8152,8199,8174,8176,8153,8138,8143,8166,8098,8162,8201,8299,2.0636701583862305,False
43,8139,8197,8165,8188,8180,8167,8158,8145,8143,8166,8080,8146,8170,8272,2.0717287063598637,False
44,8145,8196,8146,8202,8142,8155,8172,8157,8159,8164,8081,8145,8161,8261,2.079904079437256,False
45,8146,8192,8130,8184,8143,8146,8174,8148,8158,8161,8082,8148,8164,8262,2.086883544921875,False
46,8151,8198,8191,8159,8204,8150,8166,8149,8146,8152,8067,8159,8149,8246,2.0947844982147217,False
47,8153,8209,8153,8188,8167,8147,8178,8145,8154,8166,8081,8154,8164,8256,2.1028969287872314,False
48,8175,8251,8174,8222,8180,8133,8161,8162,8144,8168,8082,8160,8170,8273,2.1108996868133545,False
49,8180,8239,8192,8201,8178,8134,8134,8159,8120,8156,8060,8159,8154,8262,2.1188714504241943,False
50,8143,8191,8128,8158,8150,8144,8139,8134,8116,8143,8049,8133,8140,8241,2.1269001960754395,False
51,8132,8186,8188,8143,8205,8153,8158,8183,8133,8134,8049,8145,8117,8225,2.134897470474243,False
52,8127,8168,8177,8150,8173,8167,8194,8216,8176,8153,8065,8150,8115,8225,2.142850399017334,False
53,8111,8163,8125,8150,8149,8178,8214,8186,8182,8157,8054,8139,8124,8226,2.1499061584472656,False
54,8100,8171,8135,8145,8159,8180,8209,8163,8158,8143,8036,8141,8119,8216,2.157902479171753,False
55,8094,8167,8131,8140,8163,8186,8207,8169,8171,8153,8058,8139,8119,8220,2.1656606197357178,False
56,8126,8182,8185,8147,8220,8191,8194,8185,8182,8167,8074,8154,8130,8244,2.173886299133301,False
57,8143,8177,8168,8164,8189,8170,8176,8157,8177,8163,8077,8159,8152,8266,2.18190598487854,False
58,8154,8185,8171,8182,8188,8150,8164,8145,8179,8164,8098,8175,8171,8287,2.189650774002075,False
59,8189,8208,8217,8198,8210,8150,8163,8149,8175,8171,8123,8197,8185,8316,2.197880744934082,False
60,8200,8207,8172,8206,8178,8151,8162,8125,8160,8168,8119,8184,8191,8323,2.205896139144897,False
61,8219,8222,8214,8204,8216,8154,8147,8149,8152,8162,8113,8197,8188,8319,2.2128584384918213,False
62,8235,8216,8211,8201,8178,8150,8155,8159,8171,8173,8146,8213,8208,8348,2.220893383026123,False
63,8231,8213,8170,8201,8149,8156,8181,8154,8180,8185,8147,8202,8218,8361,2.228893518447876,False
64,8224,8210,8207,8179,8192,8179,8197,8198,8177,8180,8103,8189,8189,8327,2.236878633499145,False
65,8177,8162,8146,8145,8162,8181,8220,8211,8209,8179,8099,8163,8177,8296,2.244872570037842,False
66,8141,8157,8132,8131,8168,8169,8234,8208,8239,8182,8092,8161,8179,8281,2.2528676986694336,False
67,8129,8168,8147,8125,8157,8161,8233,8208,8234,8182,8065,8162,8166,8268,2.260894536972046,False
68,8117,8158,8135,8121,8154,8149,8221,8198,8220,8176,8070,8152,8151,8262,2.268876791000366,False
69,8129,8170,8176,8146,8181,8141,8202,8180,8208,8164,8085,8164,8148,8262,2.276895046234131,False
70,8142,8184,8153,8176,8152,8143,8199,8156,8208,8169,8090,8163,8170,8271,2.2838475704193115,False
71,8150,8201,8177,8177,8190,8143,8191,8171,8196,8172,8094,8174,8181,8281,2.291701078414917,False
72,8146,8196,8177,8171,8171,8139,8186,8163,8170,8168,8103,8176,8185,8286,2.29987907409668,False
73,8150,8207,8143,8187,8142,8136,8178,8137,8144,8162,8104,8163,8184,8280,2.307897090911865,False
74,8177,8219,8201,8195,8201,8136,8160,8142,8124,8149,8098,8172,8157,8266,2.3156449794769287,False
75,8168,8184,8153,8188,8171,8135,8166,8128,8136,8151,8122,8162,8151,8269,2.3238518238067627,False
76,8173,8202,8155,8200,8176,8143,8180,8146,8165,8162,8145,8165,8170,8278,2.3318941593170166,False
77,8182,8217,8205,8191,8196,8149,8198,8172,8181,8164,8126,8167,8170,8263,2.3396987915039062,False
78,8138,8179,8150,8156,8178,8139,8205,8160,8170,8163,8087,8140,8143,8228,2.347666025161743,False
79,8125,8180,8152,8155,8185,8121,8190,8167,8151,8154,8101,8148,8133,8214,2.354560613632202,False
80,8149,8190,8150,8171,8143,8108,8190,8167,8168,8166,8170,8166,8183,8248,2.362540006637573,False
81,8172,8198,8182,8171,8167,8118,8185,8170,8173,8180,8187,8184,8217,8284,2.3705787658691406,False
82,8164,8189,8186,8151,8170,8123,8168,8164,8151,8169,8161,8183,8200,8284,2.378965139389038,False
83,8132,8163,8131,8129,8134,8111,8170,8147,8144,8156,8147,8156,8180,8263,2.386890649795532,False
84,8140,8173,8186,8135,8182,8125,8184,8173,8148,8159,8151,8175,8188,8267,2.394752025604248,False
85,8147,8167,8158,8158,8157,8149,8193,8172,8162,8176,8173,8186,8218,8294,2.4028635025024414,False
86,8157,8182,8168,8170,8171,8165,8196,8187,8187,8183,8178,8185,8222,8300,2.410871982574463,False
87,8188,8202,8229,8183,8175,8173,8210,8221,8208,8193,8184,8202,8226,8314,2.417742729187012,False
88,8189,8178,8151,8187,8119,8160,8217,8185,8205,8196,8198,8199,8244,8333,2.4258835315704346,False
89,8180,8175,8180,8167,8195,8145,8197,8168,8174,8163,8169,8195,8214,8300,2.433892011642456,False
90,8160,8161,8193,8153,8203,8147,8215,8200,8193,8163,8154,8177,8199,8273,2.441668033599853,False
91,8156,8146,8135,8159,8152,8155,8255,8231,8238,8201,8183,8175,8233,8299,2.4497525691986084,False
92,8181,8150,8149,8164,8155,8151,8256,8217,8215,8204,8187,8186,8240,8311,2.457903861999512,True
93,8169,8145,8154,8150,8164,8142,8232,8169,8161,8179,8159,8164,8203,8274,2.465662240982056,True
94,8150,8156,8186,8139,8204,8142,8210,8163,8150,8173,8137,8161,8180,8249,2.473885059356689,True
95,8138,8155,8149,8149,8182,8147,8206,8152,8170,8183,8145,8168,8202,8276,2.4808714389801025,True
96,8140,8160,8145,8159,8190,8147,8194,8142,8161,8170,8141,8168,8206,8295,2.488620519638061,True
97,8143,8152,8181,8143,8184,8140,8175,8155,8151,8161,8125,8157,8185,8269,2.496797561645508,True
98,8122,8130,8118,8127,8134,8135,8176,8154,8181,8180,8136,8139,8194,8257,2.5048720836639404,True
99,8138,8163,8182,8135,8206,8140,8168,8175,8189,8179,8142,8173,8199,8278,2.512897729873657,True
100,8158,8163,8210,8151,8190,8141,8165,8177,8175,8175,8153,8195,8201,8305,2.5208523273468018,True
101,8146,8137,8134,8162,8133,8142,8176,8158,8182,8190,8176,8177,8226,8307,2.5289039611816406,True
102,8147,8160,8156,8163,8167,8161,8175,8160,8187,8186,8181,8186,8235,8314,2.536777973175049,True
103,8156,8173,8164,8161,8162,8175,8179,8150,8182,8178,8176,8191,8222,8341,2.544880151748657,True
104,8177,8180,8197,8163,8186,8180,8187,8165,8179,8184,8168,8190,8214,8339,2.551872491836548,True
105,8167,8176,8179,8165,8172,8177,8190,8163,8182,8181,8165,8172,8213,8304,2.559805393218994,True
106,8133,8160,8139,8149,8163,8176,8184,8152,8177,8167,8166,8163,8206,8295,2.567819833755493,True
107,8151,8157,8201,8125,8193,8182,8190,8189,8182,8175,8167,8192,8218,8334,2.5756618976593018,True
108,8156,8146,8161,8130,8146,8182,8220,8191,8207,8201,8180,8184,8248,8356,2.583683729171753,True
109,8143,8161,8147,8161,8161,8182,8217,8174,8201,8184,8160,8161,8216,8316,2.591636896133423,True
110,8149,8159,8166,8175,8160,8184,8203,8172,8184,8158,8131,8152,8173,8283,2.5997068881988525,True
111,8155,8154,8147,8180,8129,8188,8202,8172,8191,8169,8137,8156,8186,8298,2.6076090335845947,True
112,8172,8185,8203,8193,8166,8194,8189,8176,8188,8175,8144,8178,8195,8313,2.6146950721740723,True
113,8173,8181,8168,8196,8156,8197,8188,8158,8190,8173,8146,8170,8190,8312,2.622699499130249,True
114,8178,8185,8175,8191,8189,8201,8195,8170,8190,8167,8151,8174,8187,8321,2.6308960914611816,True
115,8182,8184,8205,8198,8166,8195,8200,8180,8182,8163,8167,8186,8191,8332,2.638843774795532,True
116,8171,8178,8145,8210,8115,8178,8199,8153,8177,8169,8165,8176,8192,8319,2.646835803985596,True
117,8193,8206,8198,8210,8191,8168,8174,8154,8152,8162,8141,8191,8178,8292,2.654893636703491,True
118,8189,8182,8177,8191,8169,8162,8161,8132,8129,8150,8146,8176,8170,8290,2.662842273712158,True
119,8165,8162,8144,8185,8157,8156,8167,8123,8124,8142,8144,8153,8151,8290,2.6707561016082764,True
120,8150,8164,8164,8191,8184,8163,8189,8159,8135,8150,8137,8161,8148,8281,2.6786139011383057,True
121,8132,8148,8133,8177,8166,8180,8217,8173,8157,8163,8148,8157,8161,8281,2.6857893466949463,True
122,8136,8156,8173,8160,8187,8193,8226,8190,8163,8163,8135,8156,8145,8273,2.6935811042785645,True
123,8110,8141,8132,8144,8133,8181,8237,8194,8171,8158,8119,8135,8132,8244,2.7017524242401123,True
124,8081,8134,8112,8129,8128,8173,8236,8187,8172,8142,8105,8117,8118,8207,2.709636211395264,True
125,8105,8149,8169,8138,8176,8182,8221,8170,8160,8136,8095,8134,8105,8215,2.7175276279449463,True
126,8131,8148,8146,8150,8168,8178,8212,8150,8160,8145,8097,8145,8118,8255,2.7258260250091557,True
127,8143,8162,8183,8159,8193,8171,8192,8166,8149,8140,8093,8162,8124,8255,2.733889579772949,True
237,8143,8155,8179,8177,8159,8174,8176,8158,8153,8150,8111,8163,8138,8250,2.741950750350952,True
0,8163,8165,8175,8180,8155,8175,8164,8160,8170,8169,8142,8166,8156,8275,2.748849391937256,True
1,8188,8186,8214,8172,8181,8167,8148,8175,8155,8155,8140,8176,8151,8291,2.7569618225097656,True
2,8178,8169,8173,8184,8154,8158,8142,8143,8136,8149,8127,8163,8156,8283,2.7648730278015137,True
3,8189,8171,8185,8205,8172,8157,8135,8140,8141,8160,8137,8179,8172,8286,2.772822141647339,True
4,8199,8175,8178,8198,8152,8150,8133,8143,8142,8150,8149,8185,8173,8302,2.780876398086548,True
5,8192,8180,8174,8188,8169,8149,8142,8137,8130,8141,8144,8173,8172,8296,2.788780689239502,True
6,8194,8185,8213,8212,8196,8169,8170,8165,8159,8172,8162,8186,8196,8293,2.7968220710754395,True
7,8177,8160,8148,8216,8138,8180,8195,8177,8206,8203,8178,8177,8211,8310,2.804800748825073,True
8,8171,8160,8180,8174,8181,8169,8181,8183,8182,8179,8144,8169,8174,8300,2.8118369579315186,True
9,8159,8142,8196,8147,8181,8152,8182,8181,8157,8164,8146,8167,8163,8274,2.8198118209838867,True
10,8130,8117,8131,8154,8135,8148,8203,8177,8191,8187,8178,8152,8185,8261,2.827737331390381,True
11,8131,8123,8157,8147,8165,8153,8197,8189,8205,8185,8170,8147,8173,8254,2.835829257965088,True
12,8134,8119,8153,8137,8172,8146,8190,8173,8190,8165,8164,8149,8169,8262,2.843625545501709,True
13,8153,8150,8185,8158,8198,8140,8196,8182,8195,8163,8168,8176,8183,8285,2.851555109024048,True
14,8177,8178,8191,8181,8154,8150,8203,8196,8216,8183,8175,8191,8192,8303,2.859523296356201,True
15,8180,8173,8153,8186,8126,8154,8197,8173,8204,8182,8164,8178,8180,8288,2.8677737712860107,True
16,8196,8182,8196,8195,8193,8146,8181,8161,8169,8158,8140,8175,8156,8264,2.8746204376220703,True
17,8200,8180,8159,8204,8171,8145,8177,8149,8166,8166,8157,8165,8164,8276,2.882639646530152,True
18,8197,8188,8174,8196,8178,8157,8167,8158,8160,8172,8165,8185,8175,8292,2.8906545639038086,True
19,8181,8178,8188,8177,8152,8164,8169,8157,8145,8153,8146,8192,8165,8281,2.898787498474121,True
20,8166,8160,8134,8169,8126,8158,8182,8142,8139,8151,8145,8165,8155,8266,2.9067227840423584,True
21,8194,8180,8234,8168,8221,8157,8181,8182,8132,8155,8144,8193,8147,8265,2.914794445037842,True
22,8176,8160,8221,8158,8182,8159,8196,8190,8151,8159,8137,8191,8145,8264,2.9227335453033447,True
23,8136,8139,8110,8149,8118,8162,8215,8164,8173,8170,8148,8152,8150,8256,2.930730104446411,True
24,8137,8141,8100,8152,8135,8164,8214,8162,8166,8180,8172,8154,8163,8256,2.9385340213775635,True
25,8126,8128,8129,8150,8157,8155,8207,8166,8159,8171,8163,8165,8164,8251,2.945655345916748,True
26,8119,8125,8183,8144,8192,8151,8193,8187,8161,8158,8137,8173,8148,8238,2.9536595344543457,True
27,8134,8117,8139,8145,8165,8154,8191,8189,8185,8175,8150,8165,8162,8255,2.961669921875,True
28,8154,8143,8151,8160,8185,8163,8188,8193,8200,8184,8155,8167,8175,8272,2.969656229019165,True
29,8157,8161,8197,8175,8175,8166,8182,8188,8183,8168,8146,8169,8158,8254,2.977705478668213,True
30,8158,8158,8148,8184,8125,8156,8178,8159,8167,8164,8164,8161,8156,8250,2.985891819000244,True
31,8198,8192,8216,8203,8183,8155,8162,8171,8154,8164,8187,8191,8161,8266,2.99391508102417,True
32,8196,8178,8212,8214,8155,8163,8160,8161,8142,8165,8200,8187,8170,8267,3.001889228820801,True
33,8182,8170,8168,8212,8141,8165,8163,8139,8136,8164,8199,8178,8181,8274,3.008866310119629,True
34,8216,8197,8222,8220,8180,8163,8150,8149,8137,8167,8204,8211,8185,8305,3.016892433166504,True
35,8221,8185,8192,8220,8143,8167,8145,8141,8142,8179,8233,8208,8205,8336,3.024855852127075,True
36,8206,8174,8169,8197,8149,8178,8150,8148,8140,8184,8245,8196,8222,8338,3.032893657684326,True
37,8192,8164,8154,8177,8143,8181,8168,8156,8148,8186,8228,8194,8220,8322,3.040902614593506,True
38,8185,8156,8170,8172,8155,8173,8177,8163,8155,8176,8206,8189,8193,8302,3.048830270767212,True
39,8179,8149,8193,8171,8163,8165,8170,8182,8157,8164,8200,8182,8179,8294,3.056903123855591,True
40,8156,8147,8125,8175,8116,8170,8176,8175,8177,8173,8205,8166,8192,8301,3.0649070739746094,True
41,8171,8179,8172,8186,8164,8189,8181,8195,8189,8181,8199,8176,8188,8301,3.0726547241210938,True
42,8171,8164,8170,8170,8160,8187,8180,8199,8192,8182,8204,8172,8187,8293,3.079890251159668,True
43,8141,8153,8130,8162,8148,8180,8172,8184,8195,8179,8194,8156,8182,8273,3.0879008769989014,True
44,8151,8179,8205,8186,8187,8197,8171,8197,8191,8172,8170,8168,8158,8257,3.0956642627716064,True
45,8150,8153,8157,8183,8132,8203,8204,8181,8197,8175,8182,8161,8165,8264,3.1039278507232666,True
46,8143,8155,8145,8166,8152,8195,8213,8173,8188,8169,8183,8164,8163,8258,3.111940860748291,True
47,8159,8185,8198,8178,8191,8185,8191,8174,8166,8153,8177,8179,8148,8261,3.1199238300323486,True
48,8174,8180,8177,8199,8168,8174,8186,8163,8165,8153,8203,8180,8170,8286,3.127869129180908,True
49,8187,8173,8177,8196,8162,8169,8188,8170,8173,8170,8216,8194,8200,8300,3.135855436325073,True
50,8184,8171,8151,8190,8141,8173,8182,8170,8183,8192,8206,8189,8212,8303,3.142855405807495,True
51,8185,8177,8188,8197,8187,8178,8170,8177,8175,8183,8197,8187,8200,8300,3.150864362716675,True
52,8173,8152,8177,8196,8172,8166,8171,8172,8170,8173,8205,8181,8188,8297,3.1589040756225586,True
53,8150,8134,8116,8181,8132,8158,8185,8166,8174,8191,8204,8165,8191,8294,3.166891098022461,True
54,8161,8160,8196,8158,8187,8171,8192,8192,8172,8188,8182,8177,8184,8283,3.1748836040496826,True
55,8153,8140,8172,8161,8150,8170,8205,8176,8191,8176,8187,8167,8183,8282,3.182970762252808,True
56,8158,8143,8171,8192,8169,8167,8203,8181,8205,8182,8204,8172,8189,8284,3.1908440589904785,True
57,8181,8163,8227,8188,8190,8177,8194,8213,8202,8189,8209,8186,8193,8280,3.1986653804779053,True
58,8157,8136,8143,8157,8119,8170,8192,8185,8207,8184,8208,8158,8192,8272,3.2058355808258057,True
59,8160,8148,8145,8168,8146,8153,8184,8170,8203,8183,8202,8162,8191,8278,3.213860034942627,True
60,8183,8167,8172,8188,8166,8155,8182,8173,8199,8190,8205,8178,8195,8293,3.2216830253601074,True
61,8189,8155,8175,8181,8174,8164,8180,8172,8196,8172,8186,8172,8181,8295,3.2298619747161865,True
62,8203,8149,8182,8185,8178,8169,8180,8165,8192,8166,8182,8169,8178,8299,3.237854480743408,True
63,8205,8164,8158,8198,8170,8171,8174,8153,8188,8189,8225,8181,8206,8307,3.2459945678710938,True
64,8200,8183,8193,8199,8191,8172,8153,8161,8172,8183,8233,8199,8207,8303,3.253892183303833,False
65,8188,8155,8159,8192,8142,8166,8154,8147,8167,8167,8196,8176,8195,8295,3.26185941696167,False
66,8186,8151,8156,8178,8162,8161,8159,8149,8159,8165,8168,8159,8174,8274,3.2688562870025635,False
67,8174,8152,8186,8160,8179,8155,8156,8162,8130,8157,8162,8167,8149,8253,3.27679181098938,False
68,8146,8124,8125,8144,8132,8151,8170,8144,8115,8142,8153,8145,8144,8253,3.2848854064941406,False
69,8162,8142,8189,8132,8204,8161,8176,8165,8115,8131,8132,8151,8129,8254,3.292888879776001,False
70,8169,8137,8199,8137,8192,8161,8181,8186,8144,8150,8144,8164,8136,8258,3.300797939300537,False
71,8159,8119,8127,8163,8130,8152,8187,8181,8178,8173,8172,8162,8170,8282,3.3086841106414795,False
72,8175,8139,8159,8167,8164,8154,8184,8196,8182,8163,8189,8179,8181,8302,3.316869020462036,False
73,8177,8139,8156,8146,8170,8158,8192,8186,8180,8158,8200,8174,8176,8304,3.3247950077056885,False
74,8166,8137,8170,8140,8181,8150,8190,8180,8176,8160,8185,8158,8158,8286,3.3318002223968506,False
75,8153,8131,8160,8156,8150,8139,8191,8178,8183,8162,8183,8154,8155,8275,3.339820146560669,False
76,8169,8154,8167,8180,8155,8142,8203,8178,8197,8173,8209,8178,8174,8291,3.3476994037628174,False
77,8214,8187,8230,8202,8199,8154,8199,8181,8200,8180,8232,8201,8194,8310,3.3558695316314697,False
78,8213,8181,8167,8217,8176,8146,8173,8146,8184,8174,8236,8177,8201,8309,3.363710880279541,False
79,8221,8208,8185,8224,8225,8131,8129,8130,8156,8157,8215,8180,8186,8297,3.371800184249878,False
80,8237,8212,8205,8228,8211,8120,8113,8126,8147,8162,8204,8185,8187,8301,3.3798201084136963,False
81,8217,8195,8161,8221,8178,8117,8133,8137,8151,8174,8207,8168,8195,8302,3.387842893600464,False
82,8219,8210,8229,8205,8224,8126,8152,8176,8140,8163,8195,8184,8183,8284,3.3958237171173096,False
83,8200,8167,8176,8178,8159,8124,8168,8152,8136,8154,8185,8168,8173,8271,3.40275239944458,False
84,8164,8132,8116,8152,8132,8114,8169,8134,8132,8150,8173,8145,8158,8261,3.410867214202881,False
85,8166,8148,8146,8155,8138,8116,8177,8162,8130,8151,8164,8157,8152,8264,3.4188404083251958,False
86,8183,8158,8148,8168,8129,8118,8192,8175,8139,8156,8169,8166,8170,8284,3.42680025100708,False
87,8201,8167,8190,8177,8180,8115,8181,8180,8150,8166,8183,8177,8186,8304,3.4348623752593994,False
88,8193,8165,8167,8187,8177,8110,8172,8168,8168,8180,8207,8172,8189,8305,3.4428257942199707,False
89,8201,8182,8184,8200,8219,8116,8172,8182,8163,8173,8193,8179,8182,8287,3.450881242752075,False
90,8223,8188,8214,8211,8255,8137,8178,8195,8153,8167,8167,8186,8189,8293,3.458825826644897,False
91,8211,8186,8164,8211,8256,8151,8183,8172,8168,8184,8170,8172,8210,8308,3.4668540954589844,False
92,8206,8199,8190,8205,8291,8148,8172,8171,8159,8188,8172,8184,8209,8288,3.4736571311950684,False
93,8201,8180,8164,8204,8239,8133,8165,8155,8143,8184,8170,8188,8203,8276,3.4817471504211426,False
94,8205,8189,8176,8202,8262,8137,8155,8159,8151,8187,8157,8189,8196,8287,3.489682912826538,False
95,8214,8204,8222,8199,8295,8142,8144,8187,8163,8186,8158,8192,8197,8300,3.4975318908691406,False
96,8205,8180,8151,8203,8227,8130,8147,8170,8163,8182,8176,8179,8213,8310,3.5057313442230225,False
97,8210,8184,8165,8198,8243,8130,8143,8157,8142,8173,8156,8182,8199,8301,3.513720989227295,False
98,8194,8175,8165,8182,8251,8136,8151,8154,8128,8165,8133,8163,8175,8279,3.5216224193573,False
99,8168,8156,8150,8178,8258,8136,8167,8160,8125,8162,8143,8152,8176,8271,3.529813528060913,False
100,8159,8151,8168,8173,8250,8139,8177,8176,8124,8162,8158,8167,8185,8283,3.536654472351074,False
101,8143,8138,8128,8155,8221,8146,8188,8176,8128,8165,8145,8150,8171,8285,3.5445120334625244,False
102,8156,8138,8167,8147,8275,8154,8178,8187,8131,8156,8119,8151,8143,8266,3.552781820297241,False
103,8164,8135,8160,8156,8256,8154,8169,8178,8149,8160,8139,8162,8157,8264,3.560692548751831,False
104,8165,8169,8158,8180,8265,8148,8174,8175,8158,8175,8169,8172,8178,8291,3.568598508834839,False
105,8196,8203,8215,8196,8295,8146,8169,8187,8147,8174,8171,8190,8176,8313,3.576777458190918,False
106,8207,8175,8159,8196,8237,8138,8156,8167,8148,8176,8183,8186,8189,8312,3.5846316814422607,False
107,8214,8182,8203,8198,8294,8125,8138,8179,8140,8170,8177,8194,8187,8298,3.592641830444336,False
108,8204,8179,8216,8193,8301,8126,8156,8182,8133,8165,8154,8184,8174,8298,3.599594593048096,False
109,8184,8160,8144,8184,8244,8145,8192,8174,8148,8174,8154,8168,8183,8305,3.607677936553955,False
110,8198,8173,8187,8197,8284,8163,8203,8205,8163,8184,8168,8190,8191,8307,3.615716457366944,False
111,8192,8150,8170,8197,8278,8160,8207,8198,8171,8192,8164,8178,8192,8297,3.623489618301392,False
112,8173,8126,8154,8156,8270,8153,8210,8183,8169,8188,8140,8163,8180,8290,3.6316983699798575,False
113,8160,8109,8139,8125,8260,8151,8202,8174,8162,8179,8136,8165,8176,8297,3.6396849155426025,False
114,8156,8118,8134,8146,8275,8148,8174,8159,8155,8180,8149,8160,8185,8287,3.647655487060547,False
115,8176,8148,8190,8173,8284,8151,8146,8164,8157,8184,8149,8168,8189,8276,3.655574560165405,False
116,8169,8127,8141,8155,8216,8140,8144,8154,8167,8181,8138,8156,8181,8282,3.663571834564209,False
117,8166,8128,8170,8139,8263,8123,8139,8165,8149,8167,8109,8156,8155,8270,3.670523166656494,False
118,8175,8146,8199,8157,8271,8114,8145,8166,8144,8166,8107,8164,8156,8261,3.6785905361175537,False
119,8166,8142,8140,8170,8229,8124,8160,8151,8157,8173,8139,8157,8179,8272,3.686642646789551,False
120,8169,8147,8190,8173,8285,8148,8166,8171,8140,8171,8141,8169,8166,8270,3.694629192352295,False
121,8170,8140,8171,8183,8265,8152,8185,8156,8138,8174,8143,8166,8161,8274,3.702717542648315,False
122,8193,8159,8182,8194,8273,8149,8179,8147,8147,8167,8163,8179,8175,8292,3.7107129096984863,False
123,8220,8175,8224,8194,8271,8158,8163,8168,8140,8175,8176,8201,8198,8303,3.718649387359619,False
124,8202,8163,8156,8195,8227,8164,8178,8164,8151,8206,8184,8185,8222,8312,3.7266552448272714,False
125,8201,8167,8184,8199,8279,8161,8182,8176,8165,8206,8180,8186,8208,8313,3.733499526977539,False
126,8204,8151,8180,8193,8266,8151,8181,8180,8166,8192,8170,8184,8191,8307,3.7416646480560303,False
127,8205,8154,8159,8180,8264,8151,8187,8180,8156,8191,8156,8177,8199,8309,3.749576807022095,False
237,8202,8160,8172,8172,8274,8166,8194,8183,8147,8198,8151,8176,8200,8311,3.757868766784668,False
0,8177,8135,8138,8163,8245,8165,8192,8165,8146,8190,8131,8165,8174,8296,3.765727043151856,False
1,8165,8131,8159,8145,8258,8156,8174,8170,8145,8172,8113,8166,8151,8271,3.7737009525299072,False
2,8139,8116,8133,8135,8224,8159,8177,8167,8159,8181,8136,8149,8164,8265,3.781682014465332,False
3,8128,8120,8154,8147,8256,8173,8186,8175,8161,8190,8128,8146,8158,8259,3.789729118347168,False
4,8152,8138,8200,8168,8256,8178,8176,8187,8151,8180,8103,8167,8141,8255,3.797695398330689,False
5,8157,8139,8144,8183,8171,8174,8171,8169,8161,8186,8126,8171,8168,8264,3.804682970046997,False
6,8163,8166,8184,8198,8215,8174,8171,8175,8163,8192,8146,8189,8186,8271,3.812654495239258,False
7,8167,8166,8192,8209,8246,8166,8170,8159,8149,8180,8147,8188,8180,8262,3.820767641067505,False
8,8187,8164,8177,8223,8246,8155,8154,8135,8136,8171,8144,8194,8186,8259,3.8287973403930655,False
9,8239,8185,8226,8243,8242,8152,8137,8142,8127,8175,8153,8235,8212,8293,3.8366293907165527,False
10,8259,8192,8201,8256,8208,8145,8133,8130,8124,8190,8187,8249,8253,8345,3.844670057296753,False
11,8267,8208,8225,8266,8248,8149,8121,8137,8117,8191,8205,8254,8263,8363,3.852557420730591,False
12,8254,8189,8204,8259,8225,8160,8118,8141,8120,8191,8205,8239,8262,8355,3.859527826309204,False
13,8218,8175,8169,8250,8213,8164,8133,8136,8122,8201,8212,8226,8270,8352,3.867519378662109,False
14,8209,8182,8216,8255,8255,8174,8153,8152,8116,8198,8213,8242,8265,8351,3.8755927085876474,False
15,8194,8148,8157,8244,8214,8177,8171,8157,8121,8191,8196,8221,8255,8339,3.8836519718170166,False
16,8183,8147,8174,8218,8238,8165,8167,8179,8124,8186,8167,8207,8238,8319,3.8915531635284415,False
17,8186,8170,8211,8229,8248,8166,8175,8191,8141,8193,8175,8218,8238,8326,3.89954137802124,False
18,8196,8184,8172,8257,8224,8181,8192,8179,8161,8198,8203,8221,8254,8353,3.907613515853882,False
19,8208,8192,8190,8257,8234,8179,8176,8180,8146,8188,8193,8218,8251,8347,3.915532112121582,False
20,8189,8172,8158,8255,8197,8161,8158,8164,8144,8188,8173,8197,8237,8330,3.923546075820923,False
21,8214,8194,8215,8276,8251,8176,8156,8178,8160,8195,8174,8220,8232,8338,3.931763172149658,False
22,8269,8215,8247,8308,8252,8207,8171,8186,8171,8207,8208,8246,8258,8366,3.938640117645264,False
23,8272,8207,8189,8312,8210,8194,8171,8162,8169,8200,8219,8225,8259,8363,3.946742534637451,False
24,8264,8217,8238,8294,8266,8174,8145,8170,8138,8171,8192,8220,8221,8334,3.954779148101807,False
25,8248,8200,8189,8303,8238,8191,8162,8160,8131,8171,8212,8212,8237,8329,3.962666511535645,False
26,8247,8210,8180,8322,8261,8204,8173,8152,8140,8183,8226,8213,8258,8329,3.970835685729981,False
27,8241,8213,8228,8296,8275,8180,8137,8145,8124,8181,8195,8214,8241,8321,3.978863477706909,False
28,8209,8182,8165,8261,8208,8155,8117,8108,8111,8180,8181,8197,8235,8315,3.9866790771484375,False
29,8225,8194,8181,8274,8229,8160,8126,8114,8114,8181,8181,8214,8233,8321,3.9937257766723633,False
30,8246,8200,8188,8285,8231,8160,8138,8128,8126,8191,8177,8214,8237,8345,4.001613616943359,False
31,8233,8190,8165,8270,8225,8152,8136,8141,8129,8191,8153,8188,8234,8349,4.009824752807617,False
32,8206,8167,8132,8241,8212,8155,8139,8160,8139,8187,8129,8167,8222,8336,4.0176615715026855,False
33,8186,8156,8114,8205,8221,8169,8149,8170,8154,8192,8127,8168,8216,8337,4.025668621063232,False
34,8189,8180,8185,8208,8265,8177,8150,8185,8153,8190,8144,8192,8209,8332,4.033729553222656,False
35,8177,8175,8153,8234,8214,8166,8148,8160,8158,8192,8158,8178,8202,8314,4.041682004928589,False
36,8189,8180,8155,8231,8234,8162,8132,8155,8162,8196,8151,8172,8194,8310,4.049646377563477,False
37,8215,8187,8194,8230,8251,8156,8115,8168,8164,8197,8149,8186,8190,8319,4.057774543762207,False
38,8203,8174,8134,8253,8197,8141,8105,8143,8160,8195,8153,8167,8190,8317,4.064676761627197,False
39,8211,8192,8194,8238,8247,8136,8085,8143,8136,8177,8130,8169,8177,8304,4.072503089904785,False
40,8191,8164,8183,8188,8219,8125,8082,8126,8117,8162,8104,8165,8165,8289,4.080805063247681,False
41,8147,8134,8115,8177,8182,8120,8099,8096,8096,8153,8087,8142,8138,8264,4.088699817657471,False
42,8154,8158,8165,8192,8221,8134,8122,8117,8070,8143,8073,8142,8118,8246,4.0965962409973145,False
43,8157,8153,8147,8181,8198,8146,8157,8147,8086,8150,8073,8133,8136,8257,4.10459566116333,False
44,8149,8136,8137,8156,8212,8156,8180,8175,8116,8164,8068,8130,8135,8254,4.112712144851685,False
45,8143,8122,8135,8143,8215,8171,8192,8181,8125,8166,8074,8130,8116,8241,4.1206889152526855,False
46,8129,8130,8139,8149,8225,8185,8193,8195,8129,8159,8090,8135,8115,8249,4.127557277679443,False
47,8129,8145,8168,8169,8220,8195,8191,8224,8146,8167,8106,8153,8141,8264,4.135612487792969,False
48,8152,8143,8137,8171,8179,8189,8204,8224,8185,8191,8130,8162,8179,8285,4.143721103668213,False
49,8196,8170,8197,8169,8233,8179,8189,8232,8190,8191,8135,8184,8181,8304,4.151707887649536,False
50,8182,8162,8177,8172,8202,8175,8160,8200,8151,8178,8133,8169,8166,8309,4.159752130508423,False
51,8149,8148,8127,8168,8190,8172,8154,8160,8128,8171,8126,8149,8157,8293,4.167865753173828,False
52,8194,8166,8236,8174,8271,8173,8157,8181,8138,8161,8127,8184,8159,8289,4.175826549530029,False
53,8214,8146,8200,8195,8209,8176,8174,8173,8162,8167,8152,8183,8180,8304,4.183809757232666,False
54,8183,8147,8126,8192,8171,8181,8181,8153,8154,8174,8142,8160,8172,8303,4.19189715385437,False
55,8159,8153,8136,8160,8173,8173,8175,8154,8139,8166,8119,8158,8147,8289,4.198852062225342,False
56,8156,8141,8148,8152,8162,8168,8173,8160,8144,8161,8125,8160,8148,8276,4.206697940826416,False
57,8167,8148,8180,8167,8192,8185,8175,8179,8152,8160,8128,8169,8154,8274,4.214871883392334,False
58,8153,8138,8129,8158,8188,8198,8188,8182,8160,8162,8123,8151,8147,8273,4.222741603851318,False
59,8160,8140,8159,8144,8215,8199,8187,8198,8153,8157,8105,8147,8124,8260,4.230638027191162,False
60,8175,8141,8192,8146,8185,8192,8183,8196,8133,8150,8090,8153,8109,8257,4.2388458251953125,False
61,8146,8129,8130,8146,8140,8181,8183,8169,8115,8138,8098,8142,8111,8250,4.246698617935181,False
62,8132,8126,8163,8134,8195,8180,8173,8185,8110,8131,8109,8149,8116,8240,4.254793882369995,False
63,8130,8107,8144,8123,8187,8184,8179,8182,8130,8150,8119,8146,8133,8256,4.261578559875488,False
64,8148,8122,8160,8122,8198,8180,8174,8169,8125,8152,8112,8158,8130,8267,4.269866228103638,False
65,8162,8142,8204,8135,8187,8165,8160,8171,8107,8140,8114,8176,8119,8258,4.277874231338501,False
66,8152,8134,8147,8157,8147,8161,8162,8157,8123,8161,8148,8170,8146,8271,4.28589391708374,False
67,8175,8158,8173,8176,8203,8177,8159,8168,8136,8181,8176,8186,8171,8299,4.293818950653076,False
68,8182,8164,8165,8176,8189,8185,8160,8163,8137,8178,8181,8183,8175,8304,4.301836252212524,False
69,8160,8164,8159,8162,8193,8181,8161,8151,8127,8165,8160,8175,8168,8285,4.309664249420166,False
70,8153,8152,8180,8153,8203,8179,8164,8162,8112,8161,8138,8180,8163,8279,4.317662239074707,False
71,8145,8123,8128,8147,8156,8177,8181,8172,8124,8166,8131,8156,8152,8282,4.324719905853272,False
72,8143,8148,8174,8141,8208,8172,8189,8192,8131,8153,8112,8148,8118,8252,4.332756996154785,False
73,8136,8155,8166,8131,8205,8164,8188,8180,8131,8158,8108,8148,8124,8244,4.340637683868408,False
74,8150,8151,8152,8130,8202,8167,8185,8184,8144,8172,8120,8153,8148,8282,4.348744869232178,False
75,8169,8158,8200,8145,8220,8169,8183,8200,8147,8153,8128,8171,8148,8294,4.356562852859497,False
76,8147,8142,8146,8150,8184,8146,8179,8164,8135,8147,8135,8163,8151,8279,4.364524841308594,False
77,8166,8155,8183,8156,8238,8130,8167,8166,8127,8158,8122,8171,8145,8280,4.372817039489746,False
78,8193,8150,8192,8151,8229,8127,8168,8170,8129,8154,8109,8178,8131,8293,4.380638837814331,False
79,8161,8133,8135,8140,8177,8122,8169,8140,8117,8144,8108,8165,8126,8283,4.387678861618042,False
80,8154,8142,8157,8157,8189,8132,8168,8140,8114,8157,8127,8165,8142,8274,4.395893573760986,False
81,8178,8145,8156,8178,8197,8144,8176,8147,8127,8175,8155,8171,8168,8288,4.403978109359741,False
82,8183,8159,8201,8174,8243,8144,8170,8166,8117,8160,8154,8197,8163,8288,4.411739349365234,False
83,8150,8149,8169,8163,8203,8145,8182,8176,8131,8163,8153,8178,8163,8279,4.419617414474487,False
84,8151,8154,8154,8168,8207,8149,8201,8185,8162,8181,8152,8149,8170,8270,4.427712202072144,False
85,8175,8167,8234,8161,8267,8142,8191,8208,8154,8174,8140,8173,8153,8261,4.435784816741943,False
86,8131,8119,8147,8136,8188,8141,8200,8189,8157,8169,8149,8161,8153,8264,4.443793535232544,False
87,8116,8117,8129,8131,8189,8166,8223,8193,8170,8172,8143,8141,8153,8258,4.451880216598511,False
88,8144,8125,8171,8126,8207,8170,8226,8197,8158,8160,8121,8141,8127,8244,4.458723783493042,False
89,8131,8098,8131,8103,8183,8153,8205,8164,8130,8139,8119,8135,8111,8231,4.466675281524658,False
90,8131,8115,8162,8100,8214,8154,8180,8157,8117,8139,8131,8150,8121,8228,4.4748170375823975,False
91,8154,8147,8167,8133,8198,8153,8181,8149,8129,8158,8145,8160,8140,8249,4.48267388343811,False
92,8171,8161,8169,8147,8207,8139,8176,8148,8125,8154,8156,8166,8145,8272,4.490673780441284,False
93,8158,8142,8150,8131,8195,8126,8167,8146,8123,8153,8171,8167,8158,8274,4.498827219009399,False
94,8142,8133,8139,8142,8190,8128,8167,8147,8134,8166,8180,8168,8167,8271,4.506606101989746,False
95,8160,8153,8204,8163,8224,8134,8163,8169,8135,8158,8171,8184,8161,8289,4.514652490615845,False
96,8161,8152,8170,8161,8187,8129,8173,8154,8133,8150,8172,8171,8169,8304,4.521683692932129,False
97,8160,8164,8179,8151,8216,8132,8170,8154,8126,8156,8164,8169,8164,8279,4.529841184616089,False
98,8156,8160,8198,8151,8213,8145,8156,8176,8132,8168,8169,8175,8162,8263,4.537742376327515,False
99,8139,8149,8144,8163,8174,8148,8169,8174,8158,8175,8196,8164,8176,8272,4.545801639556885,False
100,8158,8176,8212,8172,8237,8147,8186,8199,8160,8171,8194,8179,8170,8271,4.553714752197266,False
101,8153,8157,8184,8159,8200,8145,8199,8202,8154,8172,8190,8165,8167,8269,4.561800003051758,False
102,8129,8144,8124,8135,8177,8144,8200,8186,8151,8167,8182,8143,8159,8264,4.569683313369751,False
103,8128,8160,8175,8127,8210,8153,8186,8175,8138,8149,8157,8146,8137,8239,4.577873706817627,False
104,8128,8142,8155,8122,8180,8163,8186,8157,8139,8147,8160,8143,8138,8228,4.584694147109985,False
105,8148,8152,8163,8133,8193,8174,8194,8160,8140,8158,8187,8160,8154,8255,4.592869997024536,False
106,8167,8174,8161,8167,8186,8173,8187,8138,8131,8171,8202,8164,8165,8269,4.600698471069336,False
107,8190,8200,8189,8199,8220,8173,8155,8128,8132,8176,8202,8169,8173,8261,4.608801603317261,False
108,8219,8214,8232,8210,8239,8178,8141,8144,8140,8176,8224,8193,8196,8282,4.616685390472412,False
109,8203,8188,8175,8201,8192,8168,8150,8135,8146,8187,8242,8184,8221,8308,4.624771595001221,False
110,8195,8189,8204,8200,8228,8163,8147,8155,8138,8189,8229,8189,8218,8304,4.632704973220825,False
111,8185,8175,8175,8193,8187,8170,8161,8162,8143,8188,8227,8191,8211,8299,4.640877723693848,False
112,8160,8162,8144,8172,8178,8174,8174,8162,8149,8182,8211,8171,8193,8285,4.648841619491577,False
113,8158,8158,8218,8160,8237,8174,8174,8194,8151,8170,8181,8169,8172,8262,4.655677318572998,False
114,8150,8135,8162,8156,8176,8176,8199,8197,8172,8182,8189,8162,8185,8269,4.663833618164063,False
115,8145,8150,8136,8151,8182,8184,8214,8195,8182,8189,8193,8161,8184,8280,4.671841621398926,False
116,8139,8151,8150,8143,8219,8185,8206,8189,8179,8175,8184,8157,8176,8274,4.6798505783081055,False
117,8128,8144,8144,8138,8201,8171,8188,8172,8161,8163,8177,8149,8170,8263,4.687664747238159,False
118,8138,8154,8174,8145,8175,8160,8164,8161,8130,8159,8163,8154,8142,8245,4.695568799972534,False
119,8143,8150,8151,8165,8162,8159,8155,8140,8122,8159,8172,8151,8132,8235,4.702592134475708,False
120,8165,8170,8190,8179,8217,8155,8151,8157,8128,8158,8199,8174,8149,8253,4.710738658905029,False
121,8178,8169,8185,8181,8179,8149,8154,8165,8134,8172,8223,8187,8178,8292,4.71860146522522,False
122,8169,8153,8146,8179,8170,8159,8151,8146,8132,8179,8215,8177,8192,8298,4.7265238761901855,False
123,8179,8162,8199,8184,8231,8176,8152,8157,8136,8176,8199,8188,8189,8281,4.73461127281189,False
124,8171,8147,8149,8187,8172,8173,8172,8148,8154,8188,8216,8178,8199,8284,4.742835998535156,False
125,8171,8157,8189,8175,8215,8165,8167,8158,8134,8175,8207,8182,8188,8276,4.750872373580933,False
126,8166,8152,8227,8158,8240,8168,8164,8181,8120,8156,8183,8181,8170,8261,4.758684396743774,False
127,8132,8125,8125,8158,8173,8178,8195,8176,8158,8171,8186,8148,8176,8261,4.766845703125,False
237,8133,8140,8171,8152,8224,8181,8201,8196,8164,8175,8178,8150,8156,8250,4.773739337921143,False
0,8130,8124,8174,8125,8203,8167,8195,8193,8149,8158,8174,8153,8142,8240,4.781609773635864,False
1,8126,8109,8143,8124,8178,8173,8213,8202,8180,8158,8195,8163,8165,8254,4.789874792098999,False
2,8145,8119,8174,8151,8204,8186,8223,8221,8206,8180,8203,8175,8176,8270,4.797881841659546,False
3,8146,8118,8151,8161,8185,8176,8208,8190,8182,8182,8186,8160,8157,8264,4.805871486663818,False
4,8155,8133,8168,8162,8181,8178,8190,8163,8156,8165,8172,8167,8150,8252,4.813844680786133,False
5,8171,8145,8162,8172,8172,8187,8182,8151,8167,8171,8176,8171,8168,8257,4.821881055831909,False
6,8182,8159,8176,8180,8210,8180,8162,8157,8159,8171,8175,8169,8169,8266,4.829876184463501,False
7,8190,8159,8191,8182,8196,8171,8149,8157,8139,8170,8183,8182,8171,8286,4.837758779525757,False
8,8205,8167,8178,8197,8178,8182,8161,8152,8156,8191,8198,8194,8193,8313,4.845841884613037,False
9,8222,8187,8229,8204,8241,8183,8158,8176,8162,8193,8193,8203,8199,8317,4.852872848510742,False
10,8187,8144,8161,8182,8193,8155,8153,8159,8144,8183,8188,8180,8201,8314,4.860792398452759,False
11,8164,8144,8129,8182,8180,8158,8171,8152,8140,8188,8180,8173,8197,8320,4.868887901306152,False
12,8176,8187,8200,8199,8222,8182,8200,8184,8163,8192,8177,8185,8192,8312,4.876856565475464,False
13,8147,8154,8157,8171,8188,8161,8202,8182,8175,8179,8176,8161,8186,8284,4.884829044342041,False
14,8127,8137,8157,8137,8194,8142,8184,8184,8157,8161,8153,8161,8157,8254,4.892865180969238,False
15,8130,8151,8164,8143,8176,8161,8198,8181,8161,8164,8147,8169,8148,8247,4.900879859924316,False
16,8133,8156,8162,8159,8186,8166,8206,8174,8185,8173,8157,8171,8168,8263,4.908669471740723,False
17,8152,8153,8188,8168,8203,8150,8188,8187,8192,8168,8162,8183,8175,8279,4.916760683059692,False
18,8156,8150,8143,8178,8166,8152,8189,8177,8193,8175,8162,8173,8174,8274,4.923875331878662,False
19,8157,8168,8175,8174,8217,8154,8182,8173,8185,8184,8154,8171,8168,8260,4.93189811706543,False
20,8149,8157,8163,8163,8212,8135,8164,8163,8177,8184,8155,8163,8166,8267,4.939847230911255,False
21,8151,8161,8145,8181,8196,8125,8162,8157,8169,8172,8146,8160,8158,8273,4.94787335395813,False
22,8177,8188,8200,8212,8214,8141,8169,8168,8162,8165,8139,8180,8155,8268,4.955932378768921,False
23,8164,8176,8162,8210,8171,8146,8173,8154,8183,8188,8169,8171,8187,8278,4.963867425918579,False
24,8156,8187,8186,8190,8215,8138,8164,8168,8191,8196,8180,8175,8204,8281,4.97191858291626,False
25,8165,8188,8191,8188,8216,8144,8174,8180,8184,8189,8175,8175,8198,8272,4.978924036026001,False
26,8162,8167,8147,8193,8181,8159,8196,8174,8185,8196,8176,8161,8192,8275,4.986752510070801,False
27,8147,8165,8165,8173,8203,8159,8195,8186,8171,8194,8162,8170,8178,8278,4.994709730148315,False
28,8116,8158,8121,8151,8180,8158,8197,8175,8169,8187,8154,8157,8173,8267,5.002816677093506,False
29,8132,8163,8150,8163,8205,8178,8218,8194,8184,8186,8146,8152,8168,8257,5.010623455047607,False
30,8138,8143,8167,8165,8183,8193,8244,8213,8200,8192,8128,8155,8158,8252,5.018970489501953,False
31,8098,8119,8121,8137,8153,8180,8246,8195,8199,8184,8114,8133,8142,8226,5.026840448379517,False
32,8102,8128,8168,8134,8197,8176,8223,8193,8184,8167,8112,8134,8128,8213,5.034677028656006,False
33,8118,8120,8149,8154,8163,8176,8205,8174,8182,8173,8134,8140,8145,8239,5.04271125793457,False
34,8129,8142,8171,8163,8191,8161,8173,8163,8169,8172,8145,8158,8148,8239,5.049870491027832,False
35,8139,8158,8213,8170,8208,8142,8136,8152,8144,8155,8147,8164,8131,8225,5.057923316955566,False
36,8135,8138,8149,8179,8157,8140,8135,8122,8134,8155,8157,8149,8138,8246,5.065883159637451,False
37,8152,8154,8170,8188,8197,8165,8146,8132,8133,8162,8172,8168,8154,8272,5.073879241943359,False
38,8163,8163,8172,8201,8205,8183,8157,8143,8146,8173,8188,8177,8176,8274,5.081889390945435,False
39,8166,8165,8173,8202,8207,8188,8161,8149,8151,8179,8190,8175,8179,8270,5.089728355407715,False
40,8182,8160,8202,8190,8207,8180,8166,8157,8141,8182,8185,8182,8171,8289,5.097820997238159,False
41,8174,8137,8153,8175,8187,8159,8178,8152,8146,8181,8179,8167,8173,8309,5.105873107910156,False
42,8168,8150,8174,8167,8218,8160,8182,8175,8154,8175,8168,8166,8177,8304,5.112796068191528,False
43,8162,8146,8163,8162,8169,8172,8195,8185,8162,8183,8175,8169,8182,8300,5.120841503143311,False
44,8155,8136,8149,8153,8165,8163,8197,8181,8169,8184,8162,8166,8161,8301,5.1288909912109375,False
45,8146,8128,8179,8141,8199,8154,8186,8178,8172,8175,8128,8152,8133,8278,5.136820554733276,False
46,8125,8115,8134,8143,8169,8167,8191,8162,8177,8182,8149,8136,8150,8263,5.144951105117798,False
47,8152,8160,8193,8175,8220,8184,8192,8188,8169,8187,8187,8172,8173,8284,5.152873754501343,False
48,8175,8175,8200,8199,8204,8178,8187,8190,8166,8187,8193,8185,8183,8307,5.160629510879517,False
49,8166,8151,8141,8197,8167,8172,8180,8171,8175,8193,8195,8173,8198,8304,5.168698072433472,False
50,8181,8155,8191,8189,8194,8184,8172,8180,8178,8196,8206,8190,8207,8306,5.176755666732788,False
51,8186,8157,8183,8189,8175,8187,8171,8163,8171,8196,8206,8186,8211,8316,5.183883905410767,False
52,8189,8163,8196,8191,8204,8179,8159,8153,8150,8189,8192,8185,8206,8303,5.191848516464233,False
53,8187,8147,8182,8183,8190,8164,8143,8142,8145,8181,8200,8184,8207,8296,5.199861764907837,False
54,8194,8146,8166,8193,8189,8153,8129,8133,8138,8178,8207,8182,8210,8309,5.207910537719727,False
55,8212,8166,8217,8205,8218,8159,8125,8145,8123,8180,8196,8198,8211,8318,5.215747594833374,False
56,8183,8156,8155,8202,8166,8164,8145,8137,8148,8194,8210,8181,8223,8314,5.223822832107544,False
57,8174,8168,8191,8191,8220,8160,8137,8165,8166,8192,8208,8178,8212,8294,5.231877088546753,False
58,8189,8157,8215,8166,8226,8150,8126,8189,8168,8190,8194,8184,8205,8299,5.239665985107422,False
59,8163,8136,8125,8153,8159,8149,8147,8172,8178,8197,8200,8168,8217,8313,5.246872901916504,False
60,8145,8151,8150,8164,8181,8151,8148,8172,8165,8187,8208,8171,8208,8287,5.254964113235474,True
61,8144,8144,8160,8167,8189,8140,8138,8174,8153,8182,8203,8171,8202,8272,5.26268744468689,True
62,8147,8143,8163,8151,8197,8136,8140,8171,8145,8179,8183,8172,8200,8286,5.270904302597046,True
63,8140,8139,8146,8151,8149,8147,8154,8152,8128,8169,8185,8171,8196,8284,5.278827905654907,True
64,8140,8134,8136,8162,8147,8153,8160,8148,8123,8168,8194,8168,8190,8269,5.286633729934692,True
65,8162,8153,8207,8167,8214,8161,8163,8174,8131,8173,8173,8182,8182,8266,5.294529914855957,True
66,8152,8143,8166,8165,8178,8170,8186,8156,8142,8176,8174,8172,8203,8282,5.30268406867981,True
67,8155,8151,8175,8170,8200,8166,8176,8159,8140,8178,8189,8182,8217,8295,5.309927701950073,True
68,8185,8157,8194,8193,8182,8162,8150,8180,8145,8192,8198,8195,8208,8288,5.317866563796997,True
69,8181,8156,8139,8201,8141,8178,8164,8177,8163,8193,8193,8177,8202,8274,5.3258891105651855,True
70,8182,8183,8212,8199,8230,8196,8186,8204,8168,8182,8180,8194,8204,8277,5.333904504776001,True
71,8163,8153,8186,8193,8198,8188,8200,8204,8172,8192,8181,8192,8204,8287,5.341827630996704,True
72,8139,8122,8124,8166,8153,8190,8208,8187,8172,8184,8166,8159,8177,8266,5.349672317504883,True
73,8136,8135,8157,8140,8192,8203,8214,8178,8160,8152,8135,8150,8153,8253,5.35768723487854,True
74,8133,8146,8155,8144,8194,8196,8209,8152,8148,8147,8123,8153,8158,8269,5.365614652633667,True
75,8157,8155,8184,8173,8192,8187,8188,8156,8138,8162,8137,8175,8159,8276,5.373700141906738,True
76,8174,8144,8154,8181,8158,8181,8176,8161,8149,8175,8169,8179,8172,8285,5.380760669708252,True
77,8177,8145,8155,8167,8183,8176,8163,8165,8154,8167,8168,8183,8181,8297,5.388627767562866,True
78,8180,8144,8193,8154,8188,8173,8156,8163,8133,8154,8144,8186,8169,8295,5.396899223327637,True
79,8179,8138,8151,8158,8145,8179,8162,8149,8122,8160,8155,8173,8164,8291,5.40484881401062,True
80,8206,8172,8200,8181,8207,8203,8167,8173,8128,8171,8173,8192,8181,8301,5.412766695022583,True
81,8203,8159,8178,8185,8196,8206,8170,8159,8141,8181,8176,8191,8212,8315,5.420677185058594,True
82,8182,8145,8155,8169,8184,8183,8152,8129,8132,8174,8166,8180,8194,8303,5.428685426712036,True
83,8198,8177,8237,8162,8208,8180,8137,8148,8111,8158,8162,8194,8165,8293,5.436668395996094,True
84,8182,8162,8170,8164,8152,8195,8162,8143,8117,8171,8170,8175,8192,8303,5.443995714187622,True
85,8152,8144,8130,8162,8163,8197,8178,8142,8124,8180,8159,8163,8194,8286,5.451760768890381,True
86,8143,8147,8152,8161,8159,8196,8184,8166,8140,8185,8165,8175,8184,8269,5.4597461223602295,True
87,8155,8164,8162,8169,8164,8207,8195,8192,8170,8198,8182,8178,8205,8281,5.467590808868408,True
88,8175,8175,8180,8174,8201,8213,8191,8200,8182,8200,8179,8179,8212,8291,5.4755167961120605,True
89,8170,8164,8144,8176,8183,8209,8183,8171,8180,8199,8184,8183,8213,8299,5.483550786972046,True
90,8182,8182,8200,8183,8207,8212,8178,8174,8169,8194,8186,8210,8221,8304,5.491625547409058,True
91,8189,8179,8198,8193,8165,8209,8190,8180,8168,8191,8186,8207,8225,8306,5.499624490737915,True
92,8176,8176,8151,8190,8147,8196,8191,8170,8173,8194,8187,8182,8219,8296,5.506878614425659,True
93,8172,8179,8181,8177,8188,8185,8167,8175,8160,8193,8186,8182,8211,8282,5.514706373214722,True
94,8156,8150,8130,8164,8141,8175,8157,8150,8144,8184,8181,8164,8205,8276,5.52264928817749,True
95,8178,8181,8204,8170,8204,8174,8146,8166,8131,8167,8166,8183,8191,8286,5.530822992324829,True
96,8188,8188,8234,8183,8202,8169,8146,8184,8148,8180,8182,8198,8203,8304,5.538754463195801,True
97,8150,8150,8122,8175,8130,8164,8162,8152,8164,8200,8201,8167,8222,8297,5.546695232391357,True
98,8166,8176,8200,8169,8207,8180,8159,8166,8140,8185,8180,8180,8204,8283,5.554672718048096,True
99,8192,8192,8224,8181,8196,8181,8163,8174,8138,8176,8166,8182,8194,8292,5.562616109848023,True
100,8176,8170,8136,8183,8132,8162,8168,8152,8146,8183,8170,8157,8199,8291,5.57063889503479,True
101,8156,8149,8104,8166,8141,8165,8165,8143,8139,8181,8174,8160,8202,8284,5.577831506729126,True
102,8169,8161,8157,8157,8195,8184,8173,8158,8142,8173,8170,8179,8204,8297,5.585930347442627,True
103,8205,8184,8231,8173,8203,8181,8178,8182,8149,8173,8154,8195,8196,8310,5.593723297119141,True
104,8187,8164,8148,8183,8129,8168,8175,8165,8168,8183,8158,8176,8196,8303,5.601852178573608,True
105,8167,8171,8148,8179,8176,8191,8169,8174,8177,8179,8166,8178,8205,8304,5.609874963760376,True
106,8198,8191,8194,8185,8175,8203,8171,8181,8159,8182,8172,8201,8223,8327,5.617769479751587,True
107,8217,8195,8155,8197,8122,8188,8171,8155,8147,8191,8178,8197,8226,8326,5.625732898712158,True
108,8205,8211,8215,8181,8203,8201,8162,8169,8149,8175,8168,8198,8196,8295,5.6336829662323,True
109,8175,8185,8192,8173,8194,8213,8169,8162,8143,8167,8165,8185,8200,8298,5.640646457672119,True
110,8178,8173,8136,8201,8146,8191,8158,8133,8117,8174,8173,8180,8219,8322,5.648706436157227,True
111,8199,8206,8166,8205,8149,8182,8139,8143,8116,8179,8183,8191,8216,8329,5.656635999679565,True
112,8186,8217,8160,8194,8146,8205,8144,8163,8148,8190,8188,8188,8223,8325,5.664576768875122,True
113,8180,8208,8177,8192,8179,8223,8142,8174,8151,8183,8163,8187,8216,8307,5.672809362411499,True
114,8171,8177,8144,8171,8160,8230,8149,8161,8152,8173,8144,8161,8193,8295,5.680628538131714,True
115,8161,8183,8154,8161,8182,8244,8172,8186,8185,8188,8151,8156,8191,8295,5.688676118850708,True
116,8143,8184,8186,8167,8190,8254,8189,8220,8212,8206,8164,8176,8207,8286,5.696738243103027,True
117,8114,8149,8109,8152,8134,8244,8184,8181,8206,8188,8153,8157,8204,8278,5.704678535461426,True
118,8170,8192,8197,8150,8217,8236,8157,8181,8181,8159,8133,8175,8179,8288,5.711729526519775,True
119,8205,8206,8232,8164,8214,8228,8155,8187,8179,8172,8159,8195,8191,8302,5.719747304916382,True
120,8160,8166,8143,8161,8145,8223,8166,8156,8171,8180,8173,8174,8198,8297,5.727559566497803,True
121,8171,8182,8188,8176,8175,8234,8163,8161,8154,8160,8144,8173,8173,8291,5.735744476318359,True
122,8203,8198,8189,8186,8157,8241,8173,8172,8177,8172,8151,8171,8181,8292,5.7436277866363525,True
123,8188,8185,8155,8160,8150,8239,8173,8170,8185,8185,8161,8166,8181,8275,5.751519441604614,True
124,8155,8170,8142,8143,8161,8236,8166,8150,8165,8174,8145,8157,8162,8258,5.759620666503906,True
125,8162,8190,8176,8161,8200,8229,8156,8139,8156,8168,8151,8160,8164,8263,5.7675621509552,True
126,8192,8200,8205,8185,8210,8214,8138,8148,8148,8170,8173,8179,8173,8279,5.774694919586182,True
127,8191,8177,8133,8185,8173,8203,8127,8145,8140,8167,8185,8177,8183,8295,5.782611846923828,True
237,8200,8200,8190,8176,8221,8207,8121,8165,8133,8161,8184,8191,8190,8302,5.790649175643921,True
0,8193,8197,8189,8171,8153,8207,8123,8157,8123,8165,8195,8183,8196,8302,5.798626899719238,True
1,8164,8175,8120,8164,8112,8200,8124,8144,8115,8171,8186,8161,8186,8299,5.806732416152954,True
2,8175,8195,8208,8163,8209,8208,8123,8181,8122,8167,8164,8184,8173,8289,5.8146727085113525,True
3,8161,8177,8165,8163,8156,8221,8155,8171,8158,8176,8186,8176,8187,8284,5.822661399841309,True
4,8148,8165,8141,8150,8153,8233,8170,8168,8174,8184,8203,8164,8185,8279,5.830855131149292,True
5,8162,8162,8188,8139,8174,8234,8156,8185,8165,8179,8186,8167,8166,8262,5.837986946105957,True
6,8152,8151,8136,8140,8122,8222,8153,8153,8163,8168,8168,8146,8150,8246,5.845833778381348,True
7,8161,8176,8166,8152,8151,8216,8155,8150,8164,8152,8163,8158,8134,8250,5.85404896736145,True
8,8173,8183,8178,8174,8152,8217,8152,8157,8158,8151,8175,8166,8145,8271,5.861936807632446,True
9,8157,8179,8150,8185,8142,8214,8149,8151,8143,8157,8174,8149,8149,8262,5.869616270065308,True
10,8148,8180,8140,8180,8128,8206,8160,8148,8147,8163,8179,8150,8142,8254,5.877828598022461,True
11,8167,8189,8156,8194,8141,8204,8167,8155,8164,8169,8197,8164,8152,8268,5.8855955600738525,True
12,8188,8204,8207,8211,8183,8207,8160,8173,8161,8167,8184,8168,8152,8267,5.893746376037598,True
13,8147,8179,8137,8186,8131,8193,8165,8149,8159,8168,8162,8145,8132,8250,5.90167236328125,True
14,8120,8175,8139,8165,8155,8181,8168,8155,8151,8155,8163,8151,8115,8234,5.908835411071777,True
15,8127,8182,8193,8166,8191,8183,8173,8182,8153,8138,8166,8160,8125,8240,5.916645288467407,True
16,8102,8152,8131,8145,8144,8180,8177,8161,8163,8134,8147,8135,8122,8244,5.9248528480529785,True
17,8092,8135,8147,8116,8157,8170,8161,8155,8139,8123,8127,8143,8092,8231,5.932658433914185,True
18,8098,8128,8153,8128,8147,8173,8162,8154,8125,8123,8144,8148,8102,8228,5.940692186355591,True
19,8122,8158,8159,8164,8159,8194,8167,8153,8141,8141,8153,8148,8120,8236,5.948803424835205,True
20,8145,8169,8187,8163,8183,8198,8152,8151,8147,8142,8144,8165,8115,8241,5.9568586349487305,True
21,8124,8135,8134,8148,8150,8184,8141,8128,8142,8135,8164,8158,8126,8238,5.96467924118042,True
22,8140,8167,8191,8175,8183,8194,8140,8142,8138,8142,8177,8170,8141,8247,5.971829652786255,True
23,8173,8197,8210,8209,8158,8209,8159,8145,8155,8162,8185,8181,8157,8269,5.979642629623413,True
24,8173,8187,8170,8208,8141,8207,8170,8136,8171,8169,8191,8174,8167,8274,5.9878294467926025,True
25,8174,8189,8193,8204,8167,8196,8152,8152,8159,8160,8176,8177,8154,8265,5.995797157287598,True
26,8164,8193,8151,8210,8128,8182,8143,8155,8152,8158,8154,8166,8148,8261,6.003825902938843,True
27,8159,8203,8180,8200,8164,8173,8148,8173,8149,8146,8144,8168,8138,8254,6.011668205261231,True
28,8153,8183,8187,8185,8173,8178,8169,8183,8152,8150,8164,8167,8138,8255,6.019737005233765,True
29,8158,8174,8157,8186,8154,8182,8193,8182,8164,8163,8183,8171,8157,8273,6.027622222900391,True
30,8180,8173,8198,8176,8165,8176,8182,8191,8159,8152,8179,8189,8163,8281,6.035720109939575,True
31,8164,8134,8145,8159,8123,8163,8166,8173,8160,8153,8177,8174,8167,8281,6.042687654495239,True
32,8155,8142,8154,8159,8158,8162,8162,8179,8172,8164,8175,8176,8167,8286,6.050863265991211,True
33,8166,8154,8186,8160,8166,8170,8162,8178,8176,8163,8184,8182,8168,8293,6.058672428131104,False
34,8176,8145,8164,8170,8152,8176,8156,8155,8175,8159,8191,8174,8173,8301,6.066683530807495,False
35,8203,8171,8198,8195,8175,8185,8154,8171,8185,8172,8194,8196,8185,8311,6.074666261672974,False
36,8208,8170,8157,8209,8133,8193,8170,8178,8207,8193,8218,8197,8209,8328,6.082830190658569,False
37,8201,8161,8170,8204,8168,8212,8179,8187,8209,8194,8215,8193,8209,8324,6.0905961990356445,False
38,8187,8152,8189,8193,8161,8231,8194,8189,8209,8188,8191,8190,8197,8303,6.097851514816284,False
39,8170,8149,8148,8198,8117,8226,8206,8186,8225,8189,8190,8174,8199,8294,6.105847835540772,False
40,8182,8160,8205,8202,8170,8204,8193,8199,8207,8176,8182,8184,8194,8293,6.113856792449951,False
41,8180,8135,8184,8179,8146,8185,8180,8164,8183,8169,8169,8184,8184,8302,6.121784210205078,False
42,8189,8142,8178,8170,8151,8180,8160,8140,8173,8173,8162,8186,8173,8313,6.129869222640991,False
43,8213,8167,8209,8200,8178,8172,8140,8150,8164,8171,8170,8192,8182,8315,6.137654542922974,False
44,8206,8156,8170,8212,8168,8167,8139,8142,8159,8168,8185,8179,8192,8310,6.14578104019165,False
45,8207,8152,8193,8195,8185,8169,8130,8148,8146,8163,8179,8185,8174,8299,6.153698921203613,False
46,8200,8138,8159,8185,8130,8159,8124,8148,8137,8151,8168,8173,8159,8287,6.161864757537842,False
47,8198,8141,8161,8193,8138,8159,8120,8155,8133,8132,8152,8171,8150,8276,6.168711423873901,False
48,8215,8134,8203,8199,8165,8170,8122,8161,8129,8128,8147,8183,8150,8278,6.176884889602661,False
49,8196,8113,8151,8190,8134,8158,8133,8140,8128,8133,8154,8162,8154,8276,6.184806823730469,False
50,8184,8138,8178,8184,8158,8151,8135,8149,8129,8130,8154,8169,8145,8268,6.192589998245239,False
51,8191,8152,8173,8198,8124,8168,8151,8156,8148,8147,8165,8183,8161,8288,6.200884819030762,False
52,8193,8154,8166,8206,8137,8179,8153,8150,8149,8160,8170,8178,8178,8291,6.208869457244873,False
53,8189,8150,8198,8195,8176,8165,8134,8153,8144,8158,8179,8178,8176,8283,6.2166807651519775,False
54,8179,8131,8150,8193,8130,8153,8147,8142,8166,8167,8201,8180,8190,8304,6.224861145019531,False
55,8197,8144,8189,8201,8158,8171,8162,8159,8169,8166,8196,8195,8196,8316,6.231696367263794,False
56,8197,8137,8189,8201,8160,8188,8169,8173,8169,8173,8178,8178,8196,8308,6.239940881729126,False
57,8182,8123,8151,8183,8153,8183,8174,8185,8178,8185,8161,8163,8203,8308,6.247594118118286,False
58,8176,8125,8179,8167,8153,8178,8176,8205,8183,8181,8163,8178,8200,8307,6.255598545074463,False
59,8155,8108,8149,8162,8119,8185,8186,8189,8191,8178,8175,8166,8191,8291,6.263939142227173,False
60,8173,8118,8190,8166,8165,8193,8192,8202,8186,8173,8160,8165,8180,8284,6.271649360656738,False
61,8191,8108,8184,8167,8126,8197,8199,8211,8186,8176,8163,8171,8189,8296,6.2798357009887695,False
62,8179,8097,8139,8162,8098,8196,8195,8191,8192,8176,8179,8171,8190,8293,6.287853002548218,False
63,8183,8122,8182,8165,8153,8191,8185,8188,8184,8157,8163,8175,8169,8278,6.295745134353638,False
64,8169,8115,8141,8156,8118,8177,8189,8173,8181,8157,8154,8151,8164,8276,6.302856922149658,False
65,8161,8119,8184,8136,8154,8175,8173,8181,8170,8151,8144,8158,8145,8264,6.310821771621704,False
66,8162,8118,8217,8140,8155,8183,8159,8177,8158,8134,8136,8176,8129,8262,6.318856954574585,False
67,8161,8105,8142,8163,8101,8179,8166,8146,8158,8139,8153,8170,8155,8290,6.326816082000732,False
68,8184,8119,8162,8175,8126,8185,8162,8156,8162,8155,8175,8181,8186,8311,6.33575177192688,False
69,8181,8120,8160,8166,8126,8199,8152,8160,8186,8173,8194,8181,8203,8311,6.342561483383179,False
70,8173,8149,8186,8180,8158,8203,8136,8161,8203,8185,8201,8187,8210,8301,6.350735902786255,False
71,8182,8169,8190,8215,8136,8199,8123,8151,8187,8188,8200,8192,8224,8299,6.358614444732666,False
72,8185,8154,8151,8224,8103,8192,8131,8146,8172,8183,8190,8184,8223,8314,6.365697860717773,False
73,8190,8158,8193,8207,8145,8188,8157,8187,8180,8179,8173,8191,8196,8323,6.373780012130737,False
74,8167,8146,8145,8182,8117,8182,8186,8203,8208,8182,8168,8175,8195,8314,6.381632566452026,False
75,8140,8138,8134,8165,8128,8178,8183,8206,8211,8171,8157,8159,8186,8286,6.389482975006104,False
76,8122,8127,8156,8150,8113,8175,8174,8192,8188,8160,8139,8148,8148,8263,6.397617816925049,False
77,8110,8119,8131,8130,8093,8173,8180,8167,8179,8154,8125,8136,8131,8255,6.405506372451782,False
78,8142,8142,8205,8135,8164,8177,8171,8189,8173,8142,8119,8164,8132,8257,6.413601160049439,False
79,8153,8134,8179,8164,8119,8174,8171,8180,8175,8151,8142,8170,8150,8271,6.421612739562988,False
80,8139,8140,8140,8179,8100,8180,8183,8162,8175,8160,8147,8160,8160,8266,6.428652763366699,False
81,8143,8148,8170,8168,8132,8200,8196,8175,8183,8156,8139,8167,8162,8259,6.436670780181885,False
82,8147,8139,8147,8162,8114,8211,8211,8185,8206,8163,8160,8164,8173,8275,6.4446446895599365,False
83,8163,8158,8194,8174,8153,8215,8213,8203,8211,8168,8168,8175,8169,8278,6.452665090560913,False
84,8161,8146,8176,8183,8136,8213,8213,8188,8213,8169,8166,8174,8175,8270,6.460633754730225,False
85,8161,8154,8160,8202,8130,8208,8198,8168,8219,8181,8179,8180,8196,8274,6.468589782714844,False
86,8181,8188,8205,8223,8141,8198,8169,8152,8215,8194,8203,8193,8215,8295,6.476759433746338,False
87,8184,8182,8163,8225,8123,8176,8143,8124,8201,8196,8210,8180,8227,8321,6.48466420173645,False
88,8213,8193,8210,8229,8177,8174,8117,8150,8175,8185,8187,8191,8214,8328,6.491829872131348,False
89,8217,8181,8192,8221,8140,8188,8123,8156,8170,8180,8167,8182,8200,8322,6.499774694442749,False
90,8183,8151,8139,8184,8119,8187,8139,8142,8163,8159,8133,8158,8179,8304,6.5077855587005615,False
91,8169,8144,8183,8154,8150,8176,8140,8163,8144,8132,8098,8160,8147,8276,6.515748262405396,False
92,8152,8125,8140,8150,8105,8172,8150,8159,8154,8141,8100,8143,8140,8260,6.523586273193359,False
93,8150,8129,8137,8138,8118,8175,8162,8162,8168,8149,8102,8146,8142,8266,6.5316162109375,False
94,8150,8124,8142,8118,8108,8164,8163,8173,8160,8134,8095,8159,8134,8273,6.539636135101318,False
95,8149,8124,8152,8118,8108,8149,8155,8170,8145,8123,8088,8165,8119,8261,6.547577142715454,False
96,8174,8146,8201,8142,8138,8157,8160,8175,8153,8141,8096,8188,8136,8275,6.555688619613648,False
97,8189,8147,8158,8179,8116,8172,8186,8175,8187,8174,8132,8191,8178,8316,6.562509059906006,False
98,8210,8169,8195,8197,8155,8179,8181,8187,8189,8173,8144,8195,8176,8322,6.570596218109131,False
99,8214,8172,8195,8195,8123,8175,8176,8172,8180,8169,8147,8197,8181,8316,6.578571557998657,False
100,8211,8178,8168,8200,8119,8171,8182,8162,8190,8186,8159,8206,8211,8326,6.586657762527466,False
101,8237,8203,8246,8216,8191,8177,8161,8183,8185,8191,8151,8225,8211,8323,6.594614744186401,False
102,8222,8182,8180,8219,8130,8174,8147,8157,8185,8191,8143,8196,8208,8317,6.602685928344727,False
103,8188,8183,8141,8210,8121,8175,8145,8158,8196,8191,8121,8178,8204,8308,6.610442399978638,False
104,8173,8180,8178,8189,8138,8192,8145,8189,8202,8192,8098,8176,8196,8290,6.618714332580566,False
105,8165,8157,8148,8168,8104,8211,8165,8187,8210,8194,8098,8161,8192,8292,6.626698017120361,False
106,8173,8173,8162,8163,8122,8206,8185,8191,8210,8188,8089,8173,8183,8307,6.633589029312134,False
107,8167,8166,8152,8160,8113,8184,8180,8179,8207,8188,8075,8179,8178,8308,6.641502618789673,False
108,8166,8156,8165,8157,8135,8173,8159,8173,8198,8181,8074,8183,8179,8307,6.649705410003662,False
109,8168,8163,8159,8155,8138,8169,8164,8172,8199,8176,8079,8175,8192,8329,6.657604932785034,False
110,8167,8172,8146,8160,8139,8169,8175,8168,8197,8181,8075,8163,8189,8330,6.665679931640625,False
111,8205,8193,8215,8180,8162,8175,8165,8185,8178,8170,8076,8196,8174,8317,6.673596382141113,False
112,8215,8189,8149,8193,8092,8174,8169,8167,8184,8169,8097,8201,8196,8336,6.681675434112549,False
113,8209,8211,8179,8195,8152,8179,8175,8175,8190,8176,8093,8197,8205,8336,6.689723968505859,False
114,8221,8215,8267,8198,8204,8181,8173,8192,8178,8172,8080,8211,8183,8304,6.696505069732666,False
115,8206,8184,8153,8197,8105,8164,8172,8145,8178,8170,8095,8196,8188,8307,6.70456075668335,False
116,8213,8205,8148,8214,8124,8159,8151,8132,8187,8179,8121,8201,8207,8333,6.712669134140015,False
117,8223,8219,8198,8245,8161,8173,8139,8149,8197,8196,8132,8206,8217,8324,6.720594167709351,False
118,8212,8227,8185,8241,8152,8178,8143,8153,8187,8194,8117,8196,8218,8299,6.728751182556152,False
119,8199,8232,8156,8206,8123,8161,8141,8148,8161,8172,8101,8183,8197,8300,6.736565828323364,False
120,8168,8208,8124,8170,8117,8145,8137,8141,8147,8146,8068,8145,8148,8268,6.744776725769043,False
121,8147,8197,8177,8147,8164,8151,8137,8171,8143,8129,8022,8139,8115,8225,6.752751588821411,False
122,8157,8184,8159,8150,8109,8152,8153,8180,8162,8148,8046,8170,8157,8272,6.759612560272217,False
123,8203,8192,8167,8169,8115,8145,8166,8186,8186,8172,8093,8200,8195,8339,6.767590045928955,False
124,8217,8195,8195,8164,8135,8151,8175,8203,8190,8169,8074,8184,8170,8321,6.775755405426025,False
125,8175,8180,8113,8143,8081,8169,8184,8186,8193,8159,8040,8146,8146,8283,6.783488035202026,False
126,8177,8203,8186,8126,8162,8175,8169,8190,8177,8135,8026,8169,8124,8278,6.7916576862335205,False
127,8163,8172,8214,8099,8163,8161,8167,8182,8163,8123,8027,8171,8098,8261,6.799592971801758,False
237,8126,8126,8121,8100,8097,8151,8185,8159,8173,8143,8043,8152,8113,8250,6.80749773979187,False
0,8152,8156,8147,8143,8139,8161,8176,8162,8179,8162,8086,8183,8163,8285,6.81560206413269,False
1,8168,8183,8156,8166,8153,8170,8156,8155,8173,8163,8122,8182,8186,8302,6.823656320571899,False
2,8155,8194,8185,8160,8164,8169,8133,8171,8163,8156,8101,8169,8159,8263,6.830683708190918,False
3,8139,8181,8166,8176,8144,8172,8135,8185,8193,8180,8104,8173,8174,8251,6.8385889530181885,False
4,8137,8186,8144,8195,8162,8183,8150,8187,8229,8211,8139,8182,8219,8288,6.846681594848633,False
5,8162,8204,8207,8188,8169,8191,8151,8199,8220,8205,8119,8187,8212,8297,6.854588270187378,False
6,8161,8181,8152,8185,8074,8185,8164,8174,8208,8202,8092,8162,8192,8280,6.862631797790527,False
7,8178,8198,8194,8196,8140,8184,8162,8183,8196,8199,8097,8181,8181,8283,6.870662689208984,False
8,8195,8196,8211,8194,8150,8182,8153,8197,8188,8187,8108,8191,8179,8302,6.878589868545532,False
9,8163,8163,8109,8175,8075,8181,8164,8174,8189,8186,8090,8151,8181,8293,6.886462926864624,False
10,8165,8179,8186,8159,8151,8192,8176,8189,8184,8185,8066,8163,8169,8275,6.893487930297852,False
11,8174,8174,8199,8155,8149,8189,8190,8192,8190,8182,8075,8182,8174,8290,6.901576995849609,False
12,8156,8158,8133,8148,8102,8176,8184,8176,8189,8166,8063,8156,8157,8290,6.909515142440796,False
13,8134,8140,8119,8123,8078,8175,8165,8154,8166,8150,8047,8129,8116,8261,6.917550563812256,False
14,8129,8133,8138,8116,8083,8179,8153,8138,8146,8143,8064,8144,8116,8253,6.9255781173706055,False
15,8149,8161,8190,8152,8123,8180,8140,8154,8152,8148,8091,8186,8147,8270,6.933616399765015,False
16,8144,8161,8134,8168,8088,8168,8136,8143,8171,8161,8116,8175,8164,8285,6.941490888595581,False
17,8149,8180,8163,8165,8125,8158,8135,8149,8160,8151,8101,8167,8148,8289,6.9497480392456055,False
18,8177,8202,8212,8195,8130,8169,8150,8172,8160,8153,8100,8194,8167,8318,6.956530570983887,False
19,8194,8201,8169,8222,8100,8182,8165,8175,8192,8180,8146,8205,8210,8346,6.964813947677612,False
20,8195,8220,8219,8211,8156,8184,8161,8185,8183,8178,8150,8196,8184,8310,6.972645998001099,False
21,8151,8203,8170,8190,8102,8175,8170,8157,8157,8163,8113,8152,8147,8267,6.980703830718994,False
22,8141,8201,8133,8187,8091,8178,8178,8152,8158,8166,8105,8151,8153,8270,6.988770008087158,False
23,8166,8217,8205,8184,8140,8187,8175,8188,8162,8178,8121,8187,8168,8285,6.996764421463013,False
24,8151,8191,8168,8169,8100,8175,8172,8182,8181,8191,8123,8165,8174,8277,7.004777431488037,False
25,8156,8182,8135,8170,8081,8162,8166,8177,8206,8191,8112,8147,8176,8267,7.012511491775513,False
26,8179,8195,8144,8181,8070,8161,8171,8188,8208,8187,8115,8166,8180,8284,7.020775318145752,False
27,8181,8206,8179,8173,8094,8158,8169,8207,8199,8188,8115,8185,8175,8308,7.027688264846802,False
28,8168,8180,8167,8163,8106,8149,8161,8201,8201,8185,8100,8173,8168,8303,7.035650968551636,False
29,8166,8174,8134,8177,8101,8152,8166,8172,8200,8169,8092,8150,8164,8275,7.043866872787476,False
30,8199,8219,8217,8198,8136,8159,8162,8179,8183,8158,8095,8187,8157,8290,7.051789283752441,False
31,8202,8201,8187,8199,8094,8153,8155,8166,8180,8171,8113,8205,8175,8339,7.059646368026733,False
32,8186,8189,8155,8196,8110,8157,8151,8151,8177,8170,8127,8187,8193,8334,7.067738056182861,False
33,8200,8216,8209,8209,8134,8162,8145,8159,8162,8154,8138,8191,8194,8304,7.075734615325928,False
34,8195,8205,8155,8226,8066,8156,8145,8143,8168,8169,8153,8194,8211,8330,7.0838377475738525,False
35,8182,8212,8180,8220,8123,8169,8141,8160,8163,8182,8139,8199,8207,8341,7.090662002563477,False
36,8151,8216,8185,8193,8150,8180,8151,8172,8154,8178,8113,8166,8179,8276,7.098586320877075,False
37,8126,8200,8131,8191,8105,8167,8161,8154,8149,8170,8090,8137,8161,8227,7.106693267822266,False
38,8153,8195,8168,8197,8103,8157,8158,8163,8137,8163,8089,8177,8166,8264,7.114636182785034,False
39,8171,8193,8154,8191,8089,8153,8161,8165,8143,8169,8108,8196,8183,8313,7.122660636901856,False
40,8166,8217,8176,8191,8130,8156,8154,8177,8152,8172,8092,8180,8174,8293,7.130687713623047,False
41,8155,8204,8177,8192,8110,8162,8158,8183,8166,8175,8076,8167,8167,8270,7.138694286346436,False
42,8150,8178,8143,8179,8089,8155,8161,8164,8169,8177,8089,8181,8174,8289,7.146805763244629,False
43,8172,8207,8195,8174,8130,8152,8151,8164,8166,8173,8092,8213,8175,8316,7.154726505279541,False
44,8181,8211,8166,8191,8088,8165,8168,8158,8188,8178,8091,8196,8181,8337,7.161723375320435,False
45,8183,8201,8173,8185,8110,8179,8177,8165,8186,8181,8093,8180,8177,8328,7.169831275939941,False
46,8171,8193,8186,8158,8125,8179,8168,8165,8176,8185,8105,8183,8176,8302,7.177618980407715,False
47,8151,8191,8136,8167,8107,8183,8165,8152,8194,8191,8105,8173,8186,8297,7.185815095901489,False
48,8158,8209,8166,8195,8136,8194,8161,8166,8188,8177,8083,8172,8176,8291,7.193794012069702,False
49,8133,8195,8136,8185,8091,8183,8156,8155,8168,8171,8088,8157,8170,8277,7.201687574386597,False
50,8129,8200,8150,8185,8110,8171,8154,8166,8174,8180,8097,8166,8179,8278,7.209638595581055,False
51,8165,8213,8186,8202,8130,8179,8178,8196,8187,8180,8083,8188,8180,8289,7.217849969863892,False
52,8142,8188,8128,8163,8101,8184,8205,8188,8174,8170,8063,8167,8161,8276,7.224628210067749,False
53,8106,8182,8161,8125,8139,8179,8191,8188,8159,8158,8052,8163,8138,8244,7.232621192932129,False
54,8110,8181,8164,8159,8102,8177,8188,8187,8179,8173,8084,8180,8161,8248,7.240619659423828,False
55,8156,8203,8164,8198,8103,8192,8212,8204,8213,8199,8119,8205,8195,8295,7.249656200408935,False
56,8182,8211,8184,8190,8136,8202,8211,8216,8231,8203,8115,8209,8208,8331,7.256715536117554,False
57,8159,8198,8149,8183,8109,8192,8186,8182,8230,8194,8104,8177,8206,8313,7.264781713485718,False
58,8172,8213,8192,8195,8125,8187,8167,8175,8209,8187,8103,8188,8190,8292,7.272761106491089,False
59,8188,8197,8163,8190,8101,8193,8172,8172,8207,8195,8109,8198,8193,8325,7.280712366104126,False
60,8174,8189,8145,8170,8114,8200,8180,8178,8218,8197,8109,8189,8201,8342,7.287486553192139,False
61,8172,8202,8207,8169,8130,8200,8177,8191,8210,8190,8107,8181,8188,8311,7.295883893966675,False
62,8174,8196,8167,8192,8075,8190,8179,8167,8205,8188,8105,8168,8178,8286,7.3035361766815186,False
63,8173,8205,8166,8196,8109,8194,8170,8164,8190,8181,8089,8178,8173,8292,7.3117876052856445,False
64,8139,8188,8147,8167,8116,8204,8171,8158,8169,8175,8081,8161,8165,8301,7.319802522659302,False
65,8114,8183,8141,8155,8125,8195,8183,8157,8168,8169,8080,8142,8146,8275,7.327732801437378,False
66,8126,8198,8194,8164,8149,8192,8204,8184,8178,8166,8099,8164,8147,8241,7.3357627391815186,False
67,8119,8171,8144,8164,8101,8203,8235,8176,8193,8177,8119,8164,8168,8247,7.343849420547485,False
68,8133,8177,8164,8163,8128,8207,8224,8177,8189,8180,8100,8164,8160,8271,7.350561141967773,False
69,8157,8192,8177,8162,8125,8196,8195,8188,8200,8186,8106,8168,8163,8291,7.35875129699707,False
70,8165,8201,8164,8166,8118,8189,8179,8189,8216,8195,8134,8173,8181,8300,7.366781949996948,False
71,8182,8217,8215,8183,8145,8187,8167,8188,8199,8186,8119,8189,8179,8308,7.374567031860352,False
72,8177,8199,8158,8194,8098,8189,8175,8174,8198,8180,8111,8175,8189,8321,7.382810115814209,False
73,8176,8196,8164,8185,8129,8205,8194,8194,8217,8177,8119,8172,8185,8314,7.390852451324463,False
74,8171,8190,8196,8177,8143,8215,8205,8190,8213,8178,8123,8173,8167,8293,7.398744583129883,False
75,8153,8187,8160,8177,8119,8212,8197,8159,8196,8181,8132,8162,8177,8285,7.406712293624878,False
76,8168,8208,8181,8188,8132,8214,8188,8173,8205,8185,8154,8180,8200,8294,7.414573907852173,False
77,8171,8206,8151,8196,8102,8198,8187,8164,8220,8198,8175,8178,8209,8303,7.421645402908325,False
78,8168,8214,8184,8195,8141,8175,8158,8148,8193,8192,8162,8177,8193,8289,7.429651260375977,False
79,8186,8219,8208,8221,8133,8175,8134,8152,8185,8193,8158,8195,8202,8288,7.437669515609741,False
80,8205,8225,8157,8244,8092,8185,8149,8160,8217,8219,8184,8203,8241,8326,7.445756435394287,False
81,8217,8235,8193,8222,8128,8182,8163,8180,8218,8219,8190,8209,8245,8345,7.453764200210571,False
82,8188,8199,8160,8185,8100,8170,8177,8174,8202,8204,8177,8184,8226,8319,7.461822271347046,False
83,8169,8189,8151,8170,8121,8171,8193,8182,8191,8193,8143,8172,8209,8296,7.468837976455688,False
84,8166,8189,8175,8160,8146,8173,8202,8189,8190,8189,8123,8175,8204,8307,7.476809978485107,False
85,8148,8162,8144,8156,8126,8174,8204,8167,8201,8198,8144,8163,8206,8314,7.484819173812866,False
86,8160,8176,8187,8169,8135,8175,8190,8176,8208,8198,8151,8177,8196,8298,7.492744207382202,False
87,8163,8175,8158,8166,8079,8154,8180,8179,8219,8192,8135,8171,8193,8302,7.500654458999634,False
88,8162,8174,8147,8165,8096,8142,8175,8176,8225,8193,8132,8169,8197,8319,7.508791446685791,False
89,8178,8195,8179,8184,8116,8159,8169,8171,8226,8195,8153,8178,8200,8311,7.516847848892212,False
90,8175,8210,8151,8199,8080,8170,8163,8155,8222,8181,8146,8166,8192,8289,7.5246500968933105,False
91,8186,8225,8201,8203,8144,8172,8159,8169,8203,8170,8114,8175,8167,8285,7.531675338745117,False
92,8183,8207,8174,8197,8139,8175,8175,8156,8200,8187,8131,8173,8173,8295,7.539612531661987,False
93,8176,8216,8154,8198,8126,8176,8171,8137,8200,8188,8161,8175,8199,8298,7.547839879989624,False
94,8200,8226,8199,8214,8136,8172,8147,8138,8177,8181,8167,8198,8215,8315,7.55572772026062,False
95,8207,8208,8159,8223,8113,8166,8139,8125,8173,8201,8184,8198,8239,8336,7.563821792602539,False
96,8204,8235,8218,8217,8177,8166,8128,8158,8186,8212,8182,8210,8236,8332,7.571864366531372,False
97,8160,8217,8194,8193,8136,8161,8133,8163,8190,8201,8146,8185,8205,8308,7.579820871353149,False
98,8115,8171,8104,8162,8085,8163,8154,8140,8176,8194,8117,8136,8173,8268,7.587778568267822,False
99,8140,8192,8161,8162,8131,8188,8174,8169,8185,8202,8123,8144,8164,8248,7.595840454101562,False
100,8163,8204,8173,8178,8129,8206,8193,8186,8227,8214,8137,8153,8166,8265,7.603600978851318,False
101,8159,8207,8171,8185,8136,8208,8192,8187,8229,8208,8141,8156,8167,8281,7.611810922622681,False
102,8151,8223,8155,8207,8112,8214,8188,8185,8224,8218,8182,8175,8208,8308,7.618619680404663,False
103,8183,8256,8176,8248,8142,8226,8186,8195,8254,8243,8235,8210,8258,8353,7.626600980758667,False
104,8237,8270,8236,8258,8167,8211,8171,8191,8247,8233,8240,8231,8260,8370,7.634638786315918,False
105,8224,8229,8168,8223,8090,8174,8156,8146,8189,8191,8215,8196,8241,8355,7.642846822738647,False
106,8195,8208,8174,8190,8119,8162,8143,8144,8140,8163,8178,8180,8203,8322,7.650846004486084,False
107,8176,8185,8175,8171,8128,8156,8157,8143,8137,8166,8165,8180,8182,8296,7.658847570419311,False
108,8166,8188,8143,8164,8109,8141,8165,8128,8139,8173,8170,8175,8196,8303,7.666779518127441,False
109,8188,8221,8212,8176,8154,8153,8150,8167,8138,8176,8171,8193,8206,8326,7.674858808517456,False
110,8184,8195,8176,8179,8130,8176,8160,8185,8170,8196,8187,8182,8214,8328,7.6817686557769775,False
111,8171,8188,8144,8175,8137,8178,8167,8181,8192,8207,8197,8168,8209,8316,7.689907789230347,False
112,8183,8209,8158,8191,8127,8166,8156,8179,8192,8209,8205,8170,8207,8317,7.697797060012817,False
113,8200,8219,8160,8223,8101,8169,8157,8186,8209,8225,8226,8173,8230,8328,7.70576024055481,False
114,8215,8226,8204,8232,8135,8194,8169,8205,8236,8239,8249,8194,8257,8350,7.713729381561279,False
115,8198,8212,8146,8216,8117,8216,8192,8187,8265,8249,8278,8193,8278,8363,7.721829175949097,False
116,8162,8214,8144,8204,8153,8230,8212,8178,8271,8247,8275,8192,8273,8338,7.7296247482299805,False
117,8110,8193,8166,8198,8162,8245,8233,8179,8273,8245,8266,8196,8265,8334,7.737841129302978,False
118,8095,8159,8134,8193,8129,8254,8250,8176,8292,8255,8282,8205,8278,8373,7.74575924873352,False
119,8181,8183,8215,8193,8166,8260,8252,8211,8296,8257,8282,8238,8293,8407,7.752647399902344,False
120,8252,8204,8201,8209,8128,8261,8262,8225,8308,8265,8286,8231,8315,8430,7.760650873184204,False
121,8263,8219,8187,8227,8137,8252,8262,8225,8310,8258,8282,8216,8307,8421,7.768781423568726,False
122,8262,8221,8234,8225,8159,8229,8241,8222,8287,8241,8263,8217,8280,8391,7.776820421218872,False
123,8248,8203,8182,8209,8114,8208,8223,8195,8281,8257,8265,8197,8286,8391,7.784816980361938,False
124,8245,8206,8180,8194,8135,8201,8200,8189,8277,8269,8269,8196,8291,8396,7.792750120162964,False
125,8227,8193,8162,8183,8116,8189,8187,8168,8266,8256,8251,8187,8270,8372,7.800835609436035,False
126,8207,8198,8159,8175,8120,8176,8178,8154,8248,8239,8223,8176,8238,8341,7.808604955673218,False
127,8205,8198,8167,8163,8150,8172,8171,8156,8225,8232,8218,8175,8224,8328,7.81583309173584,False
237,8186,8178,8127,8157,8147,8183,8171,8136,8219,8235,8219,8171,8230,8332,7.823621034622192,False
0,8184,8192,8191,8164,8185,8200,8168,8163,8232,8234,8199,8187,8221,8329,7.831780195236206,False
1,8167,8174,8172,8162,8147,8201,8184,8184,8248,8230,8195,8172,8217,8310,7.839707374572754,False
2,8143,8161,8131,8149,8142,8193,8204,8178,8238,8213,8199,8149,8211,8290,7.847842216491699,False
3,8150,8178,8158,8140,8140,8183,8208,8187,8229,8197,8194,8160,8187,8287,7.855631113052368,False
4,8157,8174,8136,8152,8095,8181,8210,8171,8234,8197,8193,8165,8178,8289,7.863707542419434,False
5,8169,8194,8199,8174,8175,8205,8204,8171,8220,8194,8190,8178,8180,8276,7.871624231338501,False
6,8149,8184,8184,8165,8170,8200,8192,8165,8212,8195,8192,8165,8179,8264,7.878537893295288,False
7,8119,8159,8112,8134,8117,8159,8165,8145,8210,8185,8183,8135,8158,8244,7.886689186096191,False
8,8115,8166,8136,8130,8147,8149,8140,8136,8198,8171,8173,8134,8142,8221,7.894574880599976,False
9,8124,8171,8142,8156,8158,8162,8146,8129,8206,8194,8205,8148,8178,8234,7.90261697769165,False
10,8158,8187,8195,8171,8173,8160,8151,8153,8205,8208,8223,8184,8202,8271,7.910711765289307,False
11,8138,8161,8146,8138,8100,8154,8156,8148,8186,8186,8200,8171,8168,8272,7.9187047481536865,False
12,8093,8139,8108,8100,8111,8158,8170,8154,8181,8170,8166,8143,8130,8234,7.926844835281372,False
13,8125,8162,8223,8110,8203,8162,8183,8209,8188,8186,8174,8173,8140,8232,7.934790134429932,False
14,8146,8153,8169,8132,8133,8153,8206,8200,8210,8207,8213,8171,8176,8265,7.941817998886108,False
15,8144,8169,8151,8128,8132,8155,8207,8188,8219,8194,8209,8171,8167,8275,7.949761867523193,False
16,8145,8172,8196,8120,8140,8161,8192,8192,8218,8186,8205,8188,8164,8284,7.957777976989746,False
17,8141,8145,8145,8122,8108,8151,8188,8170,8225,8201,8229,8178,8188,8300,7.965797185897827,False
18,8164,8165,8195,8136,8163,8145,8176,8171,8220,8198,8224,8186,8170,8288,7.973867177963257,False
19,8169,8172,8198,8153,8143,8150,8165,8153,8212,8186,8207,8182,8151,8271,7.981598854064941,False
20,8159,8167,8148,8166,8116,8147,8163,8141,8210,8183,8215,8168,8162,8273,7.989824056625366,False
21,8172,8180,8138,8189,8109,8142,8171,8158,8213,8182,8248,8173,8176,8289,7.997777223587036,False
22,8178,8192,8149,8196,8121,8157,8174,8167,8206,8178,8258,8180,8181,8300,8.00575876235962,False
23,8179,8185,8193,8179,8156,8165,8165,8169,8193,8175,8239,8189,8172,8297,8.012756109237671,False
24,8176,8170,8154,8181,8121,8154,8179,8159,8204,8184,8251,8183,8174,8295,8.020835876464844,False
25,8190,8198,8173,8201,8154,8155,8189,8180,8215,8188,8270,8188,8182,8288,8.028795719146729,False
26,8198,8196,8192,8198,8159,8160,8179,8193,8222,8193,8276,8193,8197,8281,8.036810398101807,False
27,8183,8174,8140,8192,8121,8149,8165,8175,8232,8209,8284,8182,8203,8289,8.044851541519165,False
28,8192,8203,8210,8201,8174,8145,8145,8183,8217,8205,8270,8193,8178,8289,8.052846908569336,False
29,8171,8180,8182,8178,8144,8141,8144,8164,8205,8197,8265,8176,8162,8272,8.060727834701538,False
30,8143,8151,8130,8151,8123,8135,8148,8145,8209,8191,8284,8158,8163,8257,8.068814754486084,False
31,8167,8176,8192,8172,8149,8147,8146,8155,8213,8191,8304,8180,8169,8262,8.075791835784912,False
32,8176,8184,8177,8200,8133,8147,8150,8150,8210,8196,8318,8179,8173,8272,8.083785772323608,False
33,8162,8176,8176,8193,8154,8128,8149,8160,8191,8182,8306,8175,8155,8257,8.091590404510498,False
34,8138,8158,8155,8184,8127,8126,8157,8156,8186,8173,8301,8166,8143,8231,8.099855661392212,False
35,8139,8170,8167,8192,8139,8137,8162,8163,8186,8172,8315,8170,8145,8225,8.10776162147522,False
36,8167,8184,8210,8205,8167,8126,8158,8187,8184,8172,8326,8185,8149,8240,8.115839004516602,False
37,8174,8173,8170,8213,8124,8115,8170,8171,8200,8180,8333,8174,8163,8256,8.123796701431274,False
38,8191,8194,8213,8212,8168,8134,8177,8172,8202,8175,8337,8195,8167,8261,8.131614446640015,True
39,8198,8185,8186,8199,8166,8136,8178,8164,8190,8166,8359,8208,8170,8277,8.139801740646362,True
40,8191,8174,8154,8193,8174,8118,8169,8158,8181,8163,8361,8201,8162,8279,8.146885633468628,True
41,8193,8195,8237,8208,8221,8122,8164,8187,8174,8165,8340,8210,8155,8260,8.154807090759277,True
42,8161,8169,8179,8210,8158,8120,8179,8178,8180,8170,8354,8196,8180,8254,8.162853240966797,True
43,8155,8163,8158,8199,8155,8112,8177,8164,8181,8165,8372,8201,8191,8263,8.17078971862793,True
44,8192,8183,8200,8203,8171,8104,8156,8157,8172,8160,8371,8218,8189,8275,8.17882776260376,True
45,8217,8195,8201,8217,8164,8086,8129,8141,8152,8156,8358,8212,8192,8273,8.186725616455078,True
46,8223,8209,8209,8235,8149,8072,8103,8131,8134,8155,8350,8216,8190,8274,8.19479513168335,True
47,8207,8208,8157,8237,8104,8073,8099,8118,8152,8175,8366,8219,8206,8297,8.202789545059204,True
48,8208,8220,8195,8229,8158,8086,8105,8141,8165,8184,8374,8235,8219,8297,8.209820985794067,True
49,8213,8211,8214,8231,8153,8093,8125,8155,8161,8180,8379,8232,8220,8289,8.217772960662842,True
50,8224,8209,8182,8240,8125,8087,8137,8148,8156,8179,8379,8217,8220,8300,8.225801944732666,True
51,8255,8223,8227,8242,8154,8083,8122,8167,8143,8179,8385,8230,8222,8312,8.233569145202637,True
52,8245,8194,8179,8242,8108,8089,8127,8164,8147,8187,8416,8224,8241,8325,8.241584539413452,True
53,8239,8206,8212,8242,8157,8095,8122,8171,8143,8185,8420,8233,8244,8335,8.249785661697388,True
54,8239,8217,8257,8232,8178,8087,8100,8171,8137,8185,8417,8251,8252,8339,8.257570028305054,True
55,8203,8186,8153,8230,8114,8083,8104,8131,8150,8202,8433,8240,8275,8345,8.265684127807617,True
56,8216,8205,8170,8255,8140,8094,8111,8117,8153,8210,8432,8247,8274,8347,8.273832321166992,True
57,8255,8225,8200,8275,8131,8100,8099,8109,8152,8210,8428,8241,8263,8340,8.280725240707397,True
58,8257,8219,8196,8259,8130,8087,8079,8116,8146,8198,8410,8221,8236,8322,8.288657903671265,True
59,8233,8197,8182,8239,8124,8076,8088,8135,8141,8170,8376,8202,8200,8297,8.29677700996399,True
60,8202,8185,8148,8238,8114,8093,8113,8143,8145,8159,8355,8187,8189,8268,8.304689884185791,True
61,8183,8198,8189,8235,8172,8121,8111,8157,8147,8165,8351,8197,8181,8250,8.312800645828247,True
62,8157,8185,8148,8230,8157,8124,8115,8146,8160,8172,8368,8193,8186,8262,8.320842981338501,True
63,8167,8204,8161,8255,8168,8124,8126,8157,8159,8178,8390,8214,8211,8289,8.328769445419312,True
64,8205,8234,8224,8281,8169,8122,8120,8162,8145,8190,8412,8258,8250,8325,8.336700916290283,True
65,8217,8231,8185,8285,8131,8095,8100,8123,8143,8199,8403,8265,8276,8368,8.343451738357544,True
66,8257,8248,8226,8290,8162,8075,8086,8134,8130,8188,8332,8276,8267,8394,8.351644515991211,True
67,8303,8240,8224,8288,8128,8075,8092,8155,8134,8193,8272,8272,8273,8410,8.35955262184143,True
68,8328,8239,8215,8280,8148,8078,8095,8172,8169,8210,8263,8262,8288,8415,8.367547273635864,True
69,8321,8249,8231,8279,8176,8098,8105,8195,8187,8217,8281,8257,8273,8390,8.375681638717651,True
70,8263,8220,8152,8260,8114,8122,8130,8172,8172,8202,8298,8215,8237,8334,8.38355803489685,True
71,8229,8213,8174,8224,8144,8135,8143,8173,8163,8167,8285,8203,8194,8294,8.3917875289917,True
72,8217,8203,8164,8207,8131,8139,8163,8175,8168,8160,8273,8199,8179,8290,8.399820566177368,True
73,8224,8198,8168,8218,8143,8135,8173,8170,8142,8159,8275,8198,8172,8283,8.407709121704102,True
74,8251,8208,8234,8225,8182,8123,8158,8184,8122,8151,8278,8220,8173,8297,8.414775848388672,True
75,8242,8203,8168,8222,8126,8103,8144,8167,8131,8161,8278,8217,8201,8335,8.422794580459595,True
76,8262,8239,8220,8244,8164,8095,8119,8169,8099,8160,8273,8241,8210,8352,8.430843591690063,True
77,8289,8244,8244,8272,8149,8076,8091,8158,8083,8167,8291,8260,8231,8384,8.438807249069214,True
78,8289,8239,8167,8286,8104,8054,8065,8135,8125,8197,8304,8256,8275,8429,8.446833372116089,True
79,8307,8277,8214,8299,8146,8059,8037,8156,8142,8204,8288,8264,8285,8427,8.454811096191406,True
80,8303,8279,8210,8305,8133,8074,8040,8151,8145,8197,8295,8254,8280,8413,8.462733030319214,True
81,8289,8265,8191,8289,8152,8086,8056,8151,8163,8209,8316,8254,8296,8431,8.46950078010559,True
82,8279,8242,8175,8269,8161,8088,8065,8163,8173,8222,8321,8253,8314,8440,8.477781772613525,True
83,8280,8245,8170,8280,8159,8082,8077,8168,8162,8208,8307,8243,8301,8420,8.485713481903076,True
84,8305,8266,8208,8284,8166,8081,8084,8185,8147,8184,8291,8249,8272,8412,8.493798017501831,True
85,8309,8243,8165,8259,8131,8087,8097,8189,8148,8187,8292,8240,8270,8424,8.50174880027771,True
86,8299,8244,8188,8250,8176,8102,8104,8195,8140,8193,8285,8240,8266,8418,8.509616613388062,True
87,8290,8252,8208,8257,8175,8106,8106,8181,8126,8195,8286,8243,8264,8405,8.517760753631592,True
88,8300,8245,8180,8256,8138,8103,8101,8160,8122,8201,8299,8239,8267,8409,8.525519609451294,True
89,8323,8241,8210,8254,8168,8099,8077,8157,8111,8192,8302,8245,8264,8410,8.533617496490479,True
90,8300,8217,8162,8249,8143,8083,8057,8125,8109,8175,8298,8224,8260,8388,8.540570735931396,True
91,8289,8230,8193,8241,8178,8084,8055,8136,8119,8166,8278,8220,8230,8356,8.548551797866821,True
92,8292,8241,8231,8240,8187,8109,8089,8179,8149,8181,8277,8231,8210,8348,8.556524753570557,True
93,8261,8218,8146,8234,8134,8123,8126,8189,8194,8205,8298,8215,8228,8355,8.564743995666504,True
94,8253,8216,8175,8221,8163,8126,8119,8211,8206,8203,8293,8217,8237,8351,8.572654485702515,True
95,8240,8198,8159,8216,8136,8133,8122,8203,8205,8202,8298,8209,8237,8354,8.580527067184448,True
96,8245,8220,8201,8234,8190,8145,8119,8203,8191,8197,8313,8228,8224,8354,8.588776588439941,True
97,8278,8237,8267,8257,8204,8143,8102,8203,8162,8183,8320,8253,8218,8351,8.596657991409302,True
98,8279,8207,8179,8254,8118,8128,8112,8159,8138,8181,8338,8234,8246,8363,8.603640079498291,True
99,8298,8229,8216,8247,8169,8126,8120,8156,8119,8179,8355,8250,8253,8380,8.612734079360962,True
100,8305,8223,8190,8252,8139,8120,8117,8140,8122,8181,8366,8244,8240,8390,8.619664192199707,True
101,8283,8208,8142,8245,8118,8110,8101,8124,8122,8172,8356,8213,8223,8370,8.627640962600708,True
102,8275,8223,8215,8225,8166,8122,8102,8147,8103,8160,8334,8215,8201,8335,8.635683536529541,True
103,8267,8206,8181,8215,8143,8143,8138,8140,8103,8166,8327,8204,8191,8328,8.643542051315308,True
104,8268,8200,8159,8218,8152,8153,8162,8144,8115,8165,8332,8202,8191,8341,8.651538133621216,True
105,8249,8193,8171,8218,8154,8155,8168,8161,8124,8160,8346,8203,8187,8334,8.659545421600342,True
106,8208,8170,8172,8191,8155,8155,8169,8168,8123,8155,8335,8194,8167,8300,8.667666673660278,True
107,8191,8151,8141,8168,8129,8157,8172,8171,8130,8159,8330,8189,8166,8284,8.6746084690094,True
108,8201,8157,8126,8173,8124,8159,8172,8172,8149,8165,8350,8191,8181,8298,8.682910442352295,True
109,8232,8178,8206,8180,8168,8150,8160,8180,8144,8155,8345,8215,8176,8315,8.690772294998169,True
110,8241,8175,8178,8183,8119,8142,8161,8157,8135,8154,8352,8223,8192,8335,8.698799848556519,True
111,8247,8194,8166,8197,8144,8149,8155,8141,8130,8166,8377,8225,8213,8336,8.706801176071167,True
112,8261,8212,8235,8201,8203,8141,8134,8139,8118,8172,8383,8229,8205,8323,8.714802742004395,True
113,8241,8201,8170,8191,8156,8122,8136,8112,8121,8177,8387,8208,8212,8334,8.722811222076416,True
114,8238,8230,8195,8200,8211,8139,8142,8128,8118,8166,8392,8218,8211,8341,8.730810403823853,True
115,8242,8220,8217,8203,8204,8163,8148,8146,8120,8162,8387,8217,8197,8322,8.737752676010132,True
116,8215,8186,8134,8184,8135,8169,8171,8152,8152,8171,8380,8183,8191,8296,8.745831489562988,True
117,8200,8197,8158,8164,8185,8173,8192,8190,8182,8162,8381,8178,8174,8280,8.753807067871094,True
118,8174,8178,8153,8136,8192,8171,8211,8207,8200,8154,8389,8168,8161,8276,8.761599779129028,True
119,8154,8157,8151,8112,8174,8170,8224,8221,8204,8158,8376,8173,8157,8262,8.769795417785645,True
120,8154,8155,8151,8110,8137,8170,8234,8227,8214,8173,8386,8188,8174,8267,8.777846813201904,True
121,8180,8182,8156,8122,8138,8157,8219,8217,8227,8189,8425,8200,8209,8310,8.785590648651123,True
122,8241,8223,8222,8146,8191,8139,8177,8217,8217,8192,8437,8226,8229,8344,8.793838500976562,True
123,8265,8211,8186,8160,8163,8110,8149,8190,8199,8192,8433,8225,8238,8347,8.800643682479858,True
124,8269,8216,8202,8148,8185,8087,8121,8179,8172,8184,8426,8229,8230,8354,8.808921098709106,True
125,8263,8214,8194,8141,8169,8085,8110,8165,8157,8178,8435,8226,8228,8368,8.816768169403076,True
126,8243,8192,8140,8156,8158,8097,8123,8145,8169,8187,8450,8206,8226,8351,8.82485842704773,True
127,8245,8206,8244,8148,8240,8117,8126,8180,8173,8179,8427,8222,8195,8312,8.832769870758057,True
237,8198,8172,8196,8100,8174,8128,8130,8160,8167,8153,8392,8193,8163,8273,8.840780019760132,True
0,8148,8138,8093,8071,8131,8136,8135,8116,8152,8131,8363,8141,8124,8232,8.848755359649658,True
1,8159,8141,8126,8076,8169,8155,8145,8133,8144,8132,8356,8148,8105,8220,8.856836557388306,True
2,8160,8142,8139,8077,8171,8180,8162,8160,8164,8151,8389,8171,8134,8228,8.863595247268677,True
3,8167,8158,8182,8082,8205,8201,8169,8186,8176,8159,8423,8189,8161,8244,8.871874809265137,True
4,8174,8147,8159,8090,8168,8199,8167,8174,8174,8164,8437,8177,8175,8272,8.879622220993042,True
5,8180,8160,8147,8099,8163,8184,8147,8163,8174,8180,8441,8176,8186,8295,8.887618780136108,True
6,8201,8198,8176,8134,8178,8180,8140,8178,8191,8202,8474,8200,8216,8314,8.8956880569458,True
7,8206,8206,8152,8160,8163,8177,8146,8174,8212,8216,8502,8205,8247,8337,8.903961420059204,True
8,8204,8204,8187,8136,8190,8162,8126,8176,8195,8206,8476,8201,8237,8336,8.911637544631958,True
9,8185,8179,8137,8117,8126,8139,8118,8154,8173,8200,8449,8163,8212,8312,8.919543504714966,True
10,8183,8196,8142,8127,8151,8140,8132,8152,8168,8196,8435,8153,8191,8285,8.927581787109375,True
11,8186,8207,8224,8113,8222,8166,8150,8172,8169,8188,8418,8172,8167,8266,8.934692859649658,False
12,8137,8151,8128,8097,8146,8181,8169,8140,8174,8192,8404,8133,8155,8251,8.942793846130371,False
13,8107,8144,8105,8099,8145,8192,8175,8137,8162,8187,8370,8107,8134,8232,8.950542211532593,False
14,8106,8166,8132,8095,8173,8209,8187,8161,8166,8179,8348,8105,8114,8227,8.958520412445068,False
15,8099,8163,8122,8085,8186,8219,8199,8184,8191,8183,8351,8093,8111,8229,8.96666932106018,False
16,8094,8146,8128,8072,8176,8204,8200,8195,8206,8190,8362,8097,8120,8230,8.974678039550781,False
17,8100,8138,8095,8057,8144,8183,8204,8175,8209,8196,8380,8104,8134,8248,8.982657194137573,False
18,8147,8188,8194,8074,8235,8182,8188,8188,8180,8178,8370,8127,8116,8253,8.99074411392212,False
19,8142,8174,8192,8083,8206,8172,8176,8173,8163,8170,8366,8116,8103,8240,8.997658967971802,False
20,8083,8116,8091,8043,8135,8160,8183,8141,8175,8176,8386,8094,8110,8230,9.005654096603394,False
21,8079,8117,8136,8022,8167,8176,8191,8171,8184,8168,8380,8112,8092,8214,9.01365876197815,False
22,8068,8118,8107,8033,8139,8198,8209,8187,8208,8171,8366,8095,8071,8188,9.02177596092224,False
23,8054,8120,8119,8021,8173,8212,8229,8202,8225,8170,8357,8084,8051,8169,9.029835224151611,False
24,8063,8110,8157,8008,8178,8223,8252,8219,8227,8162,8357,8098,8039,8166,9.037598848342896,False
25,8060,8099,8106,8025,8119,8219,8267,8207,8231,8162,8375,8098,8057,8173,9.045803785324097,False
26,8079,8128,8122,8052,8135,8201,8251,8193,8220,8166,8401,8109,8082,8189,9.05380892753601,False
27,8100,8141,8143,8063,8163,8189,8234,8174,8198,8170,8416,8112,8086,8205,9.061562061309814,False
28,8120,8147,8177,8070,8186,8199,8221,8182,8184,8166,8415,8126,8080,8218,9.068787574768066,False
29,8130,8152,8156,8090,8139,8204,8221,8192,8213,8181,8444,8139,8107,8235,9.076821088790894,False
30,8116,8154,8126,8093,8146,8195,8236,8193,8251,8204,8464,8132,8121,8231,9.08478546142578,False
31,8098,8146,8175,8058,8200,8202,8247,8204,8246,8192,8436,8123,8090,8206,9.092692613601685,False
32,8067,8105,8117,8020,8123,8210,8261,8176,8230,8170,8425,8094,8076,8196,9.100744724273682,False
33,8059,8098,8115,8018,8134,8209,8268,8167,8226,8161,8428,8095,8061,8187,9.108815670013428,False
34,8063,8093,8155,8019,8193,8207,8277,8182,8236,8165,8425,8107,8040,8177,9.116787910461426,False
35,8050,8078,8114,8010,8178,8212,8291,8180,8248,8170,8431,8093,8037,8171,9.124818563461304,False
36,8053,8097,8165,8009,8183,8223,8285,8198,8240,8160,8436,8102,8031,8152,9.13178825378418,False
37,8044,8089,8151,8006,8131,8224,8287,8195,8242,8162,8447,8107,8038,8148,9.13957953453064,False
38,8050,8097,8124,8016,8131,8229,8295,8193,8252,8175,8465,8112,8051,8163,9.147820234298706,False
39,8081,8115,8153,8034,8149,8240,8297,8203,8253,8182,8496,8126,8067,8177,9.155795574188232,False
40,8091,8100,8134,8033,8125,8229,8295,8188,8250,8184,8521,8126,8091,8196,9.1636381149292,False
41,8102,8124,8182,8031,8172,8216,8267,8190,8239,8185,8509,8140,8089,8209,9.171809434890749,False
42,8087,8141,8164,8050,8166,8222,8255,8183,8246,8189,8499,8134,8085,8208,9.179749488830566,False
43,8081,8135,8145,8061,8175,8242,8275,8185,8273,8188,8511,8125,8097,8204,9.187696933746338,False
44,8102,8115,8165,8040,8171,8251,8284,8196,8274,8185,8527,8126,8093,8200,9.194823026657104,False
45,8076,8094,8101,8015,8120,8247,8279,8175,8258,8180,8517,8100,8073,8186,9.202791213989258,False
46,8050,8106,8137,8008,8167,8256,8281,8186,8248,8162,8480,8097,8043,8163,9.21078109741211,False
47,8049,8092,8136,8011,8144,8268,8303,8192,8255,8157,8483,8103,8040,8160,9.218807458877563,False
48,8053,8096,8116,8022,8135,8266,8296,8180,8251,8160,8503,8110,8048,8164,9.226806163787842,False
49,8062,8118,8180,8031,8193,8253,8260,8185,8230,8160,8506,8127,8051,8164,9.234787940979004,False
50,8057,8100,8146,8036,8161,8246,8257,8169,8237,8177,8528,8121,8075,8177,9.242763996124268,False
51,8079,8113,8147,8045,8168,8248,8256,8168,8248,8191,8547,8131,8093,8196,9.250482559204102,False
52,8091,8132,8146,8062,8157,8239,8247,8164,8234,8181,8546,8128,8099,8196,9.25869870185852,False
53,8076,8137,8132,8071,8152,8228,8234,8154,8213,8161,8531,8116,8084,8173,9.265724420547484,False
54,8085,8137,8179,8065,8189,8228,8230,8177,8219,8162,8525,8136,8079,8173,9.273675203323364,False
55,8071,8115,8133,8050,8170,8231,8247,8178,8238,8181,8544,8127,8099,8189,9.28181505203247,False
56,8056,8131,8164,8052,8202,8232,8236,8176,8215,8171,8547,8118,8085,8166,9.289524793624878,False
57,8071,8144,8180,8075,8171,8231,8222,8167,8204,8166,8560,8124,8079,8166,9.297691106796265,False
58,8095,8151,8143,8101,8147,8221,8226,8163,8224,8185,8581,8132,8111,8203,9.305793046951294,False
59,8120,8185,8212,8121,8208,8213,8218,8183,8215,8184,8564,8155,8111,8211,9.313594818115234,False
60,8104,8166,8162,8118,8167,8208,8212,8154,8201,8172,8564,8138,8101,8208,9.321635246276855,False
61,8093,8156,8141,8102,8171,8208,8212,8151,8204,8170,8575,8127,8100,8210,9.328611850738524,False
62,8096,8159,8175,8092,8172,8213,8221,8176,8214,8181,8573,8139,8104,8209,9.33647918701172,False
63,8096,8143,8138,8104,8145,8220,8229,8172,8229,8191,8585,8137,8129,8216,9.344703197479248,False
64,8116,8151,8163,8117,8165,8221,8220,8174,8228,8184,8590,8135,8135,8216,9.35261607170105,False
65,8099,8142,8139,8098,8125,8211,8213,8156,8223,8187,8567,8117,8112,8198,9.360506057739258,False
66,8086,8148,8158,8090,8160,8214,8203,8156,8212,8181,8553,8129,8097,8188,9.36861491203308,False
67,8102,8156,8170,8114,8163,8219,8197,8160,8203,8168,8579,8147,8111,8203,9.376598119735718,False
68,8096,8149,8118,8123,8121,8214,8206,8143,8206,8182,8597,8136,8118,8211,9.38453483581543,False
69,8105,8157,8170,8112,8175,8211,8211,8160,8211,8198,8595,8150,8123,8215,9.39268946647644,False
70,8118,8143,8146,8114,8147,8199,8211,8167,8232,8197,8613,8149,8153,8236,9.399482488632202,False
71,8130,8154,8165,8116,8161,8193,8199,8178,8229,8190,8597,8151,8141,8238,9.40758180618286,False
72,8125,8144,8216,8098,8182,8195,8193,8178,8193,8182,8563,8154,8101,8216,9.415560960769652,False
73,8089,8114,8128,8092,8128,8186,8192,8134,8172,8167,8561,8116,8099,8203,9.423750877380373,False
74,8101,8151,8151,8113,8168,8190,8186,8138,8164,8157,8559,8115,8101,8201,9.431632041931152,False
75,8121,8162,8168,8126,8168,8209,8207,8152,8167,8172,8570,8133,8105,8208,9.439518690109251,False
76,8107,8144,8136,8114,8142,8209,8220,8140,8167,8174,8573,8131,8101,8208,9.447588682174684,False
77,8088,8143,8147,8095,8142,8201,8205,8140,8166,8158,8552,8121,8087,8195,9.455596446990969,False
78,8083,8143,8135,8103,8145,8207,8206,8149,8176,8163,8562,8120,8088,8197,9.462664365768433,False
79,8112,8158,8189,8129,8201,8212,8210,8180,8183,8173,8594,8148,8096,8207,9.470566987991331,False
80,8117,8145,8170,8120,8177,8197,8209,8177,8200,8181,8616,8147,8117,8218,9.478665590286257,False
81,8117,8157,8154,8102,8166,8184,8194,8167,8205,8176,8611,8140,8130,8229,9.486672639846802,False
82,8138,8180,8187,8120,8177,8184,8182,8172,8187,8166,8613,8150,8134,8239,9.494590759277344,False
83,8130,8167,8132,8139,8149,8193,8194,8157,8182,8171,8632,8135,8139,8238,9.50257921218872,False
84,8136,8193,8187,8138,8208,8201,8196,8166,8178,8168,8626,8148,8126,8235,9.510577917099,False
85,8137,8194,8195,8140,8174,8187,8187,8156,8177,8175,8627,8159,8134,8248,9.518706560134888,False
86,8118,8168,8133,8140,8135,8173,8175,8139,8194,8191,8631,8147,8155,8248,9.526656150817873,False
87,8120,8179,8170,8143,8191,8176,8170,8157,8204,8187,8615,8147,8143,8235,9.533601760864258,False
88,8108,8177,8141,8145,8163,8182,8183,8155,8206,8181,8617,8135,8139,8238,9.54164433479309,False
89,8106,8178,8144,8141,8164,8190,8189,8165,8209,8188,8635,8145,8153,8245,9.549645900726318,False
90,8117,8180,8151,8137,8164,8189,8186,8168,8210,8194,8640,8154,8157,8248,9.557613849639893,False
91,8126,8182,8153,8133,8175,8181,8186,8155,8190,8180,8623,8141,8137,8247,9.565592288970947,False
92,8146,8184,8199,8144,8198,8190,8196,8168,8179,8174,8618,8148,8130,8257,9.57365107536316,False
93,8141,8171,8139,8159,8139,8196,8207,8161,8197,8188,8648,8146,8160,8277,9.581607818603516,False
94,8142,8189,8162,8138,8176,8186,8184,8163,8190,8171,8643,8148,8154,8263,9.588772773742676,False
95,8135,8177,8173,8120,8185,8178,8157,8153,8176,8158,8620,8134,8131,8239,9.596757650375366,False
96,8120,8162,8127,8145,8169,8179,8154,8140,8190,8181,8619,8119,8143,8242,9.604770183563232,False
97,8157,8200,8223,8165,8218,8186,8156,8186,8201,8190,8617,8157,8156,8254,9.612812280654907,False
98,8165,8182,8183,8149,8158,8189,8164,8187,8213,8196,8619,8153,8169,8259,9.62072253227234,False
99,8134,8146,8105,8136,8146,8195,8168,8161,8216,8201,8620,8125,8169,8246,9.62879490852356,False
100,8128,8146,8136,8144,8164,8208,8184,8174,8216,8199,8622,8135,8162,8240,9.636757135391235,False
101,8136,8153,8153,8145,8150,8214,8209,8182,8225,8199,8618,8143,8161,8247,9.64472508430481,False
102,8145,8156,8172,8143,8168,8212,8203,8178,8217,8189,8610,8145,8156,8245,9.652771711349487,False
103,8133,8145,8121,8153,8135,8211,8204,8160,8210,8187,8622,8135,8166,8244,9.659793376922607,False
104,8138,8172,8158,8156,8178,8215,8218,8174,8211,8197,8631,8146,8170,8252,9.667546510696411,False
105,8153,8173,8200,8131,8188,8214,8218,8191,8210,8198,8627,8154,8171,8255,9.675658464431764,False
106,8141,8142,8134,8117,8130,8205,8215,8184,8219,8198,8613,8138,8175,8249,9.683768033981323,False
107,8147,8163,8174,8144,8176,8206,8221,8199,8229,8205,8596,8149,8168,8247,9.691644430160522,False
108,8144,8161,8160,8148,8183,8215,8242,8192,8247,8209,8607,8142,8171,8245,9.699639320373535,False
109,8132,8149,8141,8129,8190,8213,8231,8182,8242,8192,8601,8126,8158,8226,9.707639455795288,False
110,8128,8147,8170,8115,8204,8202,8199,8174,8213,8184,8573,8128,8138,8213,9.715493440628052,False
111,8127,8149,8135,8119,8179,8202,8186,8142,8199,8190,8581,8132,8154,8227,9.72279977798462,False
112,8163,8190,8187,8152,8213,8213,8166,8141,8179,8175,8597,8154,8160,8239,9.730823040008543,False
