COUNTER,F3,FC5,AF3,F7,T7,P7,O1,O2,P8,T8,F8,AF4,FC6,F4,Timestamp,word
56, 8051, 8150, 8192, 8212, 8166, 8176, 8168, 8159, 8185, 8184, 8246, 8222, 8261, 9523,0.0022988319396972656,XXXXX
57, 8238, 8174, 8146, 8114, 8153, 8157, 8157, 8170, 8172, 8183, 8142, 8157, 8285, 9673,0.010136127471923828,XXXXX
58, 8229, 8179, 8169, 8155, 8163, 8165, 8161, 8167, 8168, 8185, 8136, 8154, 8288, 9660,0.017909526824951172,XXXXX
59, 8086, 8158, 8178, 8195, 8172, 8181, 8172, 8166, 8186, 8185, 8207, 8203, 8269, 9556,0.0256960391998291,XXXXX
60, 8276, 8196, 8118, 8065, 8161, 8146, 8155, 8172, 8158, 8177, 8095, 8156, 8313, 9710,0.03521013259887695,XXXXX
61, 8049, 8148, 8202, 8234, 8176, 8179, 8167, 8161, 8180, 8190, 8231, 8216, 8270, 9556,0.04180264472961426,XXXXX
62, 8200, 8168, 8168, 8158, 8167, 8163, 8163, 8165, 8180, 8187, 8148, 8161, 8278, 9647,0.050908565521240234,XXXXX
63, 8273, 8182, 8159, 8138, 8170, 8158, 8161, 8165, 8166, 8184, 8123, 8148, 8295, 9712,0.05726957321166992,XXXXX
64, 8119, 8147, 8173, 8207, 8177, 8182, 8171, 8167, 8185, 8188, 8202, 8195, 8267, 9595,0.06493973731994629,XXXXX
65, 8288, 8192, 8121, 8076, 8159, 8147, 8158, 8173, 8165, 8178, 8097, 8151, 8297, 9688,0.07271885871887207,XXXXX
66, 8061, 8162, 8201, 8213, 8170, 8170, 8166, 8160, 8180, 8183, 8241, 8215, 8270, 9559,0.08066272735595703,XXXXX
67, 8179, 8170, 8167, 8168, 8168, 8166, 8163, 8171, 8177, 8185, 8155, 8161, 8286, 9661,0.08979105949401855,XXXXX
68, 8267, 8182, 8149, 8133, 8164, 8159, 8167, 8173, 8165, 8183, 8099, 8143, 8298, 9709,0.09758281707763672,XXXXX
69, 8068, 8142, 8179, 8196, 8168, 8178, 8181, 8164, 8188, 8188, 8228, 8209, 8263, 9564,0.1057426929473877,XXXXX
70, 8267, 8187, 8126, 8072, 8152, 8146, 8157, 8171, 8163, 8183, 8115, 8151, 8300, 9696,0.1131744384765625,XXXXX
71, 8075, 8159, 8201, 8223, 8167, 8177, 8166, 8165, 8174, 8188, 8216, 8203, 8272, 9574,0.12089729309082031,XXXXX
72, 8139, 8166, 8171, 8177, 8166, 8171, 8174, 8172, 8181, 8184, 8162, 8170, 8269, 9642,0.1289834976196289,XXXXX
73, 8272, 8196, 8139, 8101, 8163, 8148, 8165, 8173, 8167, 8179, 8099, 8139, 8298, 9712,0.13710546493530273,XXXXX
74, 8052, 8145, 8198, 8218, 8169, 8176, 8170, 8166, 8187, 8190, 8239, 8214, 8268, 9520,0.14507150650024414,XXXXX
75, 8253, 8175, 8149, 8105, 8156, 8147, 8155, 8172, 8163, 8181, 8124, 8164, 8297, 9683,0.15295720100402832,XXXXX
76, 8128, 8158, 8189, 8196, 8176, 8163, 8161, 8165, 8170, 8181, 8212, 8206, 8276, 9633,0.16075587272644043,XXXXX
77, 8152, 8160, 8161, 8154, 8172, 8164, 8161, 8172, 8178, 8183, 8183, 8184, 8274, 9632,0.1687004566192627,XXXXX
78, 8279, 8192, 8138, 8095, 8162, 8151, 8156, 8172, 8159, 8178, 8094, 8144, 8302, 9704,0.17656230926513672,XXXXX
79, 8019, 8142, 8210, 8252, 8178, 8185, 8174, 8163, 8184, 8186, 8239, 8217, 8259, 9541,0.18442225456237793,XXXXX
80, 8222, 8177, 8144, 8112, 8160, 8151, 8156, 8173, 8171, 8182, 8114, 8156, 8289, 9694,0.19058752059936523,XXXXX
81, 8153, 8168, 8155, 8149, 8157, 8156, 8157, 8164, 8176, 8183, 8168, 8185, 8282, 9641,0.19985389709472656,XXXXX
82, 8141, 8156, 8155, 8167, 8164, 8163, 8163, 8170, 8187, 8182, 8201, 8194, 8271, 9613,0.20755219459533691,XXXXX
83, 8319, 8188, 8151, 8116, 8170, 8152, 8157, 8178, 8167, 8179, 8123, 8149, 8298, 9731,0.21494746208190918,XXXXX
84, 8074, 8142, 8211, 8245, 8179, 8189, 8173, 8170, 8185, 8189, 8227, 8199, 8261, 9580,0.22268414497375488,XXXXX
85, 8252, 8181, 8130, 8102, 8159, 8157, 8163, 8174, 8166, 8181, 8077, 8130, 8290, 9707,0.2320873737335205,XXXXX
86, 8207, 8181, 8153, 8149, 8166, 8163, 8167, 8160, 8168, 8180, 8139, 8170, 8283, 9663,0.23975706100463867,XXXXX
87, 8128, 8153, 8164, 8175, 8170, 8174, 8171, 8159, 8186, 8188, 8199, 8199, 8269, 9600,0.2475118637084961,XXXXX
88, 8260, 8184, 8128, 8078, 8155, 8144, 8156, 8167, 8161, 8184, 8094, 8150, 8306, 9698,0.2537119388580322,XXXXX
89, 7992, 8143, 8202, 8234, 8169, 8177, 8163, 8162, 8183, 8188, 8254, 8227, 8265, 9527,0.26190686225891113,XXXXX
90, 8214, 8177, 8145, 8123, 8160, 8154, 8146, 8172, 8172, 8180, 8150, 8169, 8285, 9677,0.2696812152862549,XXXXX
91, 8236, 8182, 8164, 8142, 8167, 8156, 8151, 8164, 8166, 8182, 8153, 8170, 8292, 9698,0.2778184413909912,XXXXX
92, 8080, 8151, 8186, 8210, 8173, 8178, 8174, 8165, 8188, 8191, 8214, 8197, 8273, 9613,0.2866828441619873,XXXXX
93, 8267, 8191, 8129, 8092, 8157, 8151, 8159, 8174, 8164, 8187, 8077, 8129, 8307, 9718,0.2944676876068115,XXXXX
94, 8079, 8149, 8192, 8208, 8173, 8176, 8165, 8160, 8184, 8191, 8214, 8206, 8264, 9542,0.3021974563598633,XXXXX
95, 8211, 8168, 8150, 8120, 8167, 8154, 8160, 8165, 8183, 8182, 8159, 8179, 8278, 9641,0.31014442443847656,XXXXX
96, 8189, 8179, 8163, 8151, 8165, 8153, 8154, 8167, 8170, 8178, 8155, 8165, 8290, 9670,0.31752920150756836,XXXXX
97, 8048, 8148, 8193, 8229, 8172, 8181, 8166, 8170, 8185, 8186, 8218, 8190, 8259, 9562,0.3256561756134033,XXXXX
98, 8304, 8195, 8122, 8071, 8158, 8150, 8155, 8170, 8163, 8182, 8078, 8144, 8296, 9692,0.3329601287841797,XXXXX
99, 8098, 8157, 8185, 8196, 8164, 8176, 8160, 8157, 8180, 8187, 8221, 8224, 8272, 9550,0.3409276008605957,XXXXX
100, 8174, 8161, 8166, 8155, 8159, 8166, 8156, 8169, 8176, 8182, 8171, 8179, 8281, 9634,0.35032129287719727,XXXXX
101, 8229, 8180, 8153, 8140, 8170, 8154, 8163, 8171, 8166, 8181, 8122, 8155, 8295, 9691,0.35663795471191406,XXXXX
102, 8067, 8148, 8177, 8221, 8176, 8178, 8178, 8165, 8190, 8194, 8218, 8206, 8266, 9555,0.3645951747894287,XXXXX
103, 8301, 8190, 8120, 8082, 8154, 8145, 8154, 8169, 8163, 8183, 8097, 8136, 8298, 9696,0.3726050853729248,XXXXX
104, 8093, 8157, 8183, 8197, 8169, 8168, 8162, 8161, 8174, 8180, 8214, 8199, 8267, 9573,0.3806002140045166,XXXXX
105, 8137, 8162, 8165, 8155, 8165, 8164, 8165, 8169, 8181, 8185, 8174, 8188, 8272, 9616,0.3887460231781006,XXXXX
106, 8266, 8192, 8152, 8114, 8160, 8149, 8156, 8167, 8165, 8185, 8114, 8152, 8296, 9696,0.3964502811431885,XXXXX
107, 8058, 8145, 8191, 8229, 8174, 8177, 8166, 8163, 8187, 8186, 8230, 8204, 8260, 9542,0.4041893482208252,XXXXX
108, 8275, 8178, 8134, 8096, 8155, 8146, 8152, 8173, 8169, 8177, 8111, 8158, 8295, 9696,0.4118978977203369,XXXXX
109, 8134, 8160, 8195, 8193, 8158, 8164, 8161, 8161, 8175, 8180, 8219, 8215, 8273, 9619,0.4196348190307617,XXXXX
110, 8131, 8163, 8161, 8164, 8160, 8165, 8161, 8165, 8182, 8178, 8188, 8192, 8267, 9631,0.4288468360900879,XXXXX
111, 8269, 8193, 8130, 8102, 8157, 8150, 8151, 8169, 8161, 8176, 8097, 8148, 8297, 9732,0.43679356575012207,XXXXX
112, 8052, 8143, 8210, 8249, 8169, 8182, 8169, 8161, 8176, 8188, 8237, 8212, 8264, 9588,0.44312334060668945,XXXXX
113, 8248, 8182, 8142, 8111, 8162, 8152, 8162, 8170, 8162, 8179, 8099, 8139, 8295, 9705,0.4509444236755371,XXXXX
114, 8138, 8170, 8157, 8163, 8165, 8170, 8164, 8162, 8179, 8178, 8169, 8182, 8280, 9594,0.4600052833557129,XXXXX
115, 8120, 8154, 8151, 8164, 8159, 8173, 8165, 8168, 8184, 8182, 8205, 8201, 8267, 9569,0.4676847457885742,XXXXX
116, 8280, 8186, 8138, 8102, 8161, 8149, 8156, 8174, 8152, 8177, 8120, 8152, 8295, 9697,0.47534894943237305,XXXXX
117, 8030, 8145, 8215, 8253, 8181, 8183, 8169, 8165, 8182, 8188, 8240, 8206, 8258, 9559,0.4831278324127197,XXXXX
118, 8226, 8187, 8141, 8117, 8163, 8156, 8158, 8176, 8173, 8189, 8094, 8137, 8290, 9711,0.49088239669799805,XXXXX
119, 8184, 8174, 8159, 8160, 8166, 8163, 8162, 8171, 8169, 8189, 8144, 8166, 8288, 9649,0.49873924255371094,XXXXX
120, 8120, 8139, 8177, 8193, 8167, 8175, 8166, 8168, 8177, 8184, 8207, 8193, 8267, 9573,0.506584644317627,XXXXX
121, 8276, 8186, 8137, 8094, 8154, 8152, 8153, 8171, 8151, 8177, 8097, 8153, 8300, 9707,0.514521598815918,XXXXX
122, 8028, 8159, 8195, 8227, 8167, 8185, 8168, 8164, 8179, 8190, 8225, 8223, 8266, 9560,0.5222177505493164,XXXXX
123, 8248, 8183, 8143, 8117, 8157, 8156, 8152, 8168, 8176, 8185, 8121, 8154, 8287, 9673,0.5298810005187988,XXXXX
124, 8244, 8173, 8160, 8146, 8165, 8153, 8156, 8163, 8165, 8180, 8150, 8164, 8287, 9646,0.5376973152160645,XXXXX
125, 8071, 8145, 8181, 8202, 8171, 8174, 8174, 8166, 8180, 8186, 8225, 8210, 8265, 9559,0.5457038879394531,XXXXX
126, 8275, 8194, 8141, 8091, 8157, 8143, 8153, 8170, 8162, 8182, 8097, 8154, 8300, 9738,0.5551192760467529,XXXXX
127, 8109, 8155, 8201, 8219, 8176, 8169, 8166, 8166, 8181, 8184, 8211, 8202, 8266, 9624,0.5629069805145264,XXXXX
239, 8251, 8166, 8147, 8133, 8169, 8157, 8165, 8176, 8168, 8176, 8124, 8145, 8283, 9686,0.5710864067077637,XXXXX
0, 8238, 8175, 8154, 8149, 8169, 8158, 8157, 8163, 8158, 8181, 8124, 8152, 8291, 9651,0.5784578323364258,XXXXX
1, 8074, 8148, 8180, 8216, 8175, 8180, 8166, 8156, 8188, 8192, 8216, 8209, 8263, 9540,0.5847268104553223,XXXXX
2, 8290, 8193, 8125, 8077, 8159, 8146, 8157, 8171, 8169, 8180, 8096, 8151, 8304, 9709,0.5927114486694336,XXXXX
3, 8071, 8154, 8196, 8217, 8170, 8175, 8166, 8163, 8180, 8183, 8222, 8206, 8277, 9569,0.6007347106933594,XXXXX
4, 8184, 8164, 8159, 8158, 8168, 8168, 8160, 8166, 8181, 8187, 8152, 8167, 8281, 9634,0.608659029006958,XXXXX
5, 8280, 8180, 8146, 8122, 8165, 8155, 8162, 8168, 8172, 8186, 8118, 8155, 8291, 9696,0.6182069778442383,XXXXX
6, 8090, 8148, 8175, 8197, 8163, 8172, 8170, 8165, 8193, 8185, 8222, 8210, 8259, 9566,0.6254901885986328,XXXXX
7, 8270, 8194, 8117, 8066, 8149, 8141, 8150, 8172, 8163, 8175, 8095, 8154, 8294, 9704,0.6334261894226074,XXXXX
8, 8068, 8157, 8186, 8207, 8166, 8170, 8163, 8164, 8168, 8185, 8218, 8219, 8267, 9591,0.6407721042633057,XXXXX
9, 8160, 8164, 8167, 8176, 8166, 8170, 8165, 8172, 8175, 8186, 8175, 8190, 8274, 9643,0.6486411094665527,XXXXX
10, 8303, 8192, 8153, 8128, 8167, 8161, 8159, 8167, 8167, 8178, 8105, 8146, 8300, 9720,0.656388521194458,XXXXX
11, 8086, 8145, 8188, 8220, 8172, 8187, 8171, 8158, 8193, 8186, 8210, 8196, 8263, 9578,0.6641395092010498,XXXXX
12, 8304, 8186, 8118, 8072, 8157, 8146, 8154, 8170, 8168, 8184, 8085, 8141, 8294, 9712,0.6719307899475098,XXXXX
13, 8160, 8163, 8179, 8178, 8176, 8165, 8162, 8161, 8174, 8186, 8195, 8200, 8273, 9599,0.6798844337463379,XXXXX
14, 8139, 8159, 8160, 8154, 8168, 8171, 8165, 8165, 8178, 8182, 8172, 8186, 8270, 9619,0.6887450218200684,XXXXX
15, 8253, 8191, 8126, 8084, 8149, 8149, 8155, 8167, 8158, 8179, 8098, 8155, 8292, 9709,0.6963872909545898,XXXXX
16, 8052, 8146, 8194, 8218, 8165, 8181, 8170, 8161, 8184, 8186, 8258, 8230, 8255, 9544,0.704052209854126,XXXXX
17, 8241, 8183, 8138, 8097, 8159, 8153, 8160, 8172, 8168, 8177, 8130, 8161, 8296, 9689,0.7117955684661865,XXXXX
18, 8097, 8168, 8175, 8183, 8171, 8163, 8161, 8167, 8173, 8179, 8186, 8192, 8284, 9623,0.7197079658508301,XXXXX
19, 8116, 8151, 8173, 8184, 8169, 8169, 8164, 8169, 8182, 8181, 8191, 8189, 8268, 9608,0.7276818752288818,XXXXX
20, 8308, 8187, 8140, 8094, 8155, 8148, 8156, 8172, 8159, 8178, 8098, 8144, 8296, 9701,0.7354700565338135,XXXXX
21, 8049, 8151, 8199, 8225, 8169, 8178, 8167, 8166, 8181, 8190, 8244, 8220, 8261, 9536,0.7433083057403564,XXXXX
22, 8236, 8183, 8137, 8105, 8163, 8154, 8151, 8170, 8170, 8185, 8119, 8155, 8291, 9683,0.7512722015380859,XXXXX
23, 8169, 8163, 8167, 8168, 8168, 8173, 8162, 8159, 8178, 8187, 8153, 8172, 8287, 9634,0.7590887546539307,XXXXX
24, 8099, 8144, 8170, 8187, 8166, 8176, 8172, 8161, 8187, 8191, 8199, 8196, 8264, 9576,0.7668178081512451,XXXXX
25, 8276, 8192, 8133, 8083, 8161, 8140, 8154, 8169, 8156, 8180, 8106, 8151, 8293, 9712,0.774594783782959,XXXXX
26, 8041, 8149, 8204, 8233, 8177, 8185, 8168, 8164, 8181, 8185, 8233, 8209, 8263, 9570,0.7823593616485596,XXXXX
27, 8228, 8181, 8147, 8119, 8160, 8167, 8165, 8174, 8175, 8187, 8109, 8150, 8288, 9673,0.7900183200836182,XXXXX
28, 8201, 8184, 8162, 8140, 8163, 8160, 8165, 8166, 8166, 8186, 8148, 8180, 8284, 9624,0.7977511882781982,XXXXX
29, 8063, 8144, 8190, 8205, 8172, 8172, 8168, 8163, 8181, 8182, 8237, 8220, 8262, 9549,0.8071479797363281,XXXXX
30, 8274, 8190, 8142, 8098, 8162, 8150, 8156, 8169, 8163, 8171, 8099, 8146, 8301, 9732,0.8148188591003418,XXXXX
31, 8062, 8160, 8189, 8222, 8169, 8183, 8172, 8162, 8186, 8185, 8209, 8201, 8270, 9566,0.8224546909332275,XXXXX
32, 8201, 8168, 8146, 8131, 8155, 8157, 8161, 8170, 8175, 8188, 8146, 8168, 8285, 9623,0.8301236629486084,XXXXX
33, 8229, 8171, 8165, 8131, 8159, 8151, 8157, 8162, 8159, 8182, 8168, 8184, 8291, 9663,0.8378200531005859,XXXXX
34, 8065, 8146, 8184, 8194, 8165, 8177, 8169, 8161, 8179, 8185, 8231, 8223, 8267, 9584,0.8456082344055176,XXXXX
35, 8269, 8188, 8132, 8094, 8155, 8153, 8154, 8170, 8161, 8181, 8087, 8149, 8303, 9727,0.8533914089202881,XXXXX
36, 8099, 8150, 8210, 8237, 8180, 8185, 8166, 8161, 8180, 8190, 8223, 8201, 8266, 9599,0.8612608909606934,XXXXX
37, 8219, 8167, 8152, 8132, 8169, 8169, 8166, 8172, 8177, 8189, 8136, 8154, 8274, 9661,0.868999719619751,XXXXX
38, 8240, 8185, 8126, 8104, 8157, 8154, 8163, 8169, 8164, 8186, 8092, 8147, 8294, 9660,0.876910924911499,XXXXX
39, 8041, 8150, 8184, 8218, 8168, 8182, 8172, 8156, 8189, 8187, 8229, 8214, 8262, 9529,0.8847165107727051,XXXXX
40, 8282, 8193, 8141, 8094, 8159, 8153, 8156, 8162, 8168, 8179, 8116, 8148, 8289, 9708,0.8925724029541016,XXXXX
41, 8116, 8155, 8193, 8213, 8171, 8177, 8167, 8161, 8173, 8190, 8204, 8195, 8267, 9595,0.9021117687225342,XXXXX
42, 8172, 8162, 8150, 8152, 8166, 8172, 8170, 8172, 8174, 8187, 8146, 8174, 8278, 9628,0.908353328704834,XXXXX
43, 8226, 8189, 8134, 8096, 8158, 8155, 8167, 8170, 8166, 8182, 8120, 8166, 8294, 9675,0.9161171913146973,XXXXX
44, 8023, 8147, 8198, 8220, 8167, 8181, 8178, 8164, 8191, 8190, 8255, 8219, 8256, 9542,0.9241476058959961,XXXXX
45, 8297, 8189, 8147, 8104, 8165, 8153, 8162, 8172, 8165, 8178, 8095, 8132, 8295, 9715,0.9321396350860596,XXXXX
46, 8152, 8161, 8185, 8191, 8178, 8176, 8173, 8159, 8170, 8177, 8172, 8181, 8275, 9603,0.9397904872894287,XXXXX
47, 8138, 8154, 8152, 8144, 8164, 8169, 8171, 8162, 8177, 8184, 8171, 8190, 8271, 9591,0.9476690292358398,XXXXX
48, 8251, 8185, 8137, 8090, 8159, 8142, 8157, 8168, 8160, 8186, 8112, 8162, 8297, 9684,0.9570465087890625,XXXXX
49, 8033, 8137, 8204, 8235, 8174, 8177, 8174, 8164, 8187, 8190, 8238, 8210, 8256, 9544,0.9649195671081543,XXXXX
50, 8286, 8174, 8140, 8104, 8154, 8155, 8163, 8166, 8170, 8180, 8104, 8145, 8286, 9704,0.9713189601898193,XXXXX
51, 8194, 8168, 8172, 8172, 8162, 8159, 8167, 8160, 8173, 8183, 8182, 8196, 8277, 9627,0.9790267944335938,XXXXX
52, 8125, 8160, 8157, 8164, 8164, 8151, 8170, 8170, 8182, 8186, 8194, 8197, 8271, 9597,0.9866280555725098,XXXXX
53, 8267, 8192, 8135, 8091, 8156, 8140, 8158, 8169, 8161, 8178, 8108, 8157, 8301, 9729,0.9958851337432861,XXXXX
54, 8053, 8145, 8212, 8242, 8172, 8189, 8171, 8159, 8183, 8186, 8248, 8227, 8260, 9589,1.003671407699585,XXXXX
55, 8263, 8174, 8154, 8122, 8160, 8154, 8160, 8171, 8165, 8184, 8104, 8144, 8289, 9726,1.0115246772766113,XXXXX
56, 8194, 8163, 8183, 8179, 8164, 8160, 8162, 8167, 8169, 8185, 8140, 8160, 8284, 9679,1.0191028118133545,XXXXX
57, 8129, 8153, 8177, 8190, 8170, 8182, 8170, 8168, 8185, 8187, 8183, 8189, 8269, 9612,1.0269482135772705,XXXXX
58, 8333, 8195, 8120, 8071, 8164, 8147, 8157, 8168, 8157, 8180, 8077, 8140, 8306, 9720,1.0347881317138672,XXXXX
59, 8094, 8141, 8188, 8213, 8175, 8168, 8168, 8156, 8180, 8186, 8220, 8208, 8260, 9574,1.0426831245422363,XXXXX
60, 8213, 8170, 8140, 8103, 8157, 8156, 8160, 8169, 8174, 8178, 8120, 8159, 8276, 9687,1.0504157543182373,XXXXX
61, 8142, 8176, 8162, 8136, 8158, 8165, 8161, 8167, 8167, 8179, 8157, 8186, 8286, 9626,1.0577046871185303,XXXXX
62, 8083, 8149, 8182, 8203, 8169, 8177, 8168, 8167, 8181, 8186, 8226, 8217, 8267, 9561,1.0669488906860352,XXXXX
63, 8329, 8190, 8138, 8106, 8165, 8150, 8158, 8174, 8159, 8182, 8099, 8145, 8298, 9734,1.0748655796051025,XXXXX
64, 8082, 8153, 8200, 8228, 8171, 8180, 8172, 8163, 8180, 8191, 8211, 8194, 8267, 9572,1.0827538967132568,XXXXX
65, 8204, 8174, 8135, 8110, 8149, 8158, 8159, 8171, 8174, 8185, 8113, 8155, 8289, 9642,1.0906240940093994,XXXXX
66, 8201, 8177, 8150, 8126, 8155, 8159, 8155, 8168, 8166, 8181, 8143, 8182, 8290, 9641,1.0979218482971191,XXXXX
67, 8062, 8144, 8198, 8222, 8166, 8179, 8170, 8165, 8184, 8189, 8243, 8219, 8259, 9560,1.1060776710510254,XXXXX
68, 8298, 8192, 8140, 8103, 8150, 8146, 8157, 8168, 8158, 8183, 8086, 8130, 8300, 9721,1.1135931015014648,XXXXX
69, 8095, 8155, 8183, 8210, 8166, 8178, 8168, 8158, 8179, 8188, 8200, 8196, 8269, 9561,1.1216046810150146,XXXXX
70, 8183, 8166, 8148, 8129, 8165, 8159, 8158, 8170, 8180, 8186, 8164, 8187, 8275, 9615,1.1293118000030518,XXXXX
71, 8221, 8185, 8172, 8145, 8168, 8148, 8153, 8174, 8163, 8182, 8150, 8173, 8291, 9676,1.1373207569122314,XXXXX
72, 8061, 8152, 8204, 8238, 8177, 8186, 8171, 8165, 8184, 8185, 8216, 8195, 8264, 9574,1.1453149318695068,XXXXX
73, 8280, 8194, 8120, 8069, 8162, 8156, 8157, 8164, 8169, 8178, 8076, 8135, 8296, 9691,1.1532108783721924,XXXXX
74, 8073, 8158, 8183, 8189, 8170, 8172, 8161, 8160, 8178, 8186, 8222, 8219, 8267, 9549,1.1609206199645996,XXXXX
75, 8164, 8161, 8171, 8164, 8164, 8168, 8157, 8177, 8168, 8182, 8177, 8187, 8276, 9631,1.168612003326416,XXXXX
76, 8277, 8188, 8150, 8124, 8162, 8158, 8159, 8176, 8158, 8173, 8102, 8149, 8299, 9693,1.1762704849243164,XXXXX
77, 8031, 8148, 8189, 8218, 8172, 8181, 8180, 8164, 8190, 8182, 8228, 8221, 8262, 9510,1.1839659214019775,XXXXX
78, 8243, 8191, 8135, 8077, 8163, 8146, 8158, 8172, 8163, 8183, 8114, 8163, 8294, 9689,1.1933891773223877,XXXXX
79, 8130, 8170, 8181, 8177, 8175, 8164, 8160, 8165, 8166, 8188, 8202, 8201, 8272, 9637,1.1999688148498535,XXXXX
80, 8157, 8166, 8167, 8174, 8168, 8168, 8164, 8169, 8178, 8184, 8177, 8183, 8275, 9642,1.207838535308838,XXXXX
81, 8286, 8193, 8157, 8134, 8162, 8157, 8159, 8167, 8164, 8181, 8108, 8143, 8303, 9713,1.2156288623809814,XXXXX
82, 8077, 8145, 8188, 8220, 8171, 8180, 8171, 8162, 8187, 8190, 8227, 8202, 8261, 9562,1.2236123085021973,XXXXX
83, 8288, 8181, 8108, 8060, 8151, 8140, 8157, 8174, 8167, 8177, 8099, 8151, 8290, 9698,1.23170804977417,XXXXX
84, 8142, 8166, 8178, 8175, 8165, 8162, 8165, 8163, 8170, 8178, 8198, 8206, 8277, 9611,1.2395477294921875,XXXXX
85, 8089, 8161, 8181, 8187, 8168, 8175, 8169, 8164, 8179, 8185, 8202, 8200, 8272, 9604,1.2475168704986572,XXXXX
86, 8252, 8194, 8134, 8097, 8154, 8154, 8156, 8172, 8161, 8183, 8092, 8151, 8306, 9733,1.2554347515106201,XXXXX
87, 8058, 8146, 8200, 8236, 8172, 8183, 8169, 8166, 8186, 8189, 8231, 8218, 8267, 9589,1.2633068561553955,XXXXX
88, 8262, 8184, 8140, 8108, 8168, 8154, 8160, 8169, 8170, 8183, 8108, 8145, 8289, 9709,1.271239995956421,XXXXX
89, 8158, 8178, 8162, 8162, 8168, 8167, 8164, 8155, 8174, 8185, 8154, 8169, 8278, 9617,1.279066562652588,XXXXX
90, 8108, 8156, 8169, 8183, 8161, 8177, 8166, 8161, 8188, 8186, 8195, 8195, 8267, 9565,1.2869699001312256,XXXXX
91, 8301, 8190, 8145, 8087, 8156, 8148, 8154, 8174, 8158, 8181, 8102, 8151, 8300, 9711,1.2949345111846924,XXXXX
92, 8030, 8142, 8218, 8242, 8176, 8183, 8170, 8167, 8178, 8190, 8246, 8214, 8257, 9559,1.3029003143310547,XXXXX
93, 8215, 8173, 8156, 8136, 8166, 8163, 8159, 8174, 8168, 8183, 8122, 8149, 8282, 9689,1.3110816478729248,XXXXX
94, 8228, 8175, 8164, 8155, 8169, 8165, 8160, 8170, 8164, 8181, 8132, 8162, 8285, 9687,1.319089651107788,XXXXX
95, 8120, 8149, 8167, 8179, 8168, 8174, 8169, 8168, 8179, 8184, 8194, 8200, 8262, 9601,1.3259499073028564,XXXXX
96, 8271, 8191, 8124, 8074, 8159, 8145, 8155, 8170, 8155, 8177, 8105, 8161, 8295, 9700,1.3348703384399414,XXXXX
97, 8009, 8150, 8208, 8238, 8180, 8182, 8164, 8163, 8178, 8187, 8260, 8227, 8261, 9541,1.3428709506988525,XXXXX
98, 8175, 8171, 8159, 8149, 8165, 8166, 8158, 8174, 8176, 8182, 8145, 8164, 8279, 9683,1.3508338928222656,XXXXX
99, 8228, 8182, 8162, 8150, 8164, 8162, 8157, 8171, 8167, 8179, 8125, 8164, 8285, 9706,1.3586909770965576,XXXXX
100, 8095, 8149, 8191, 8214, 8177, 8179, 8166, 8172, 8183, 8186, 8212, 8204, 8258, 9584,1.3648736476898193,XXXXX
101, 8309, 8188, 8139, 8093, 8161, 8145, 8156, 8178, 8164, 8179, 8089, 8138, 8297, 9733,1.3726780414581299,XXXXX
102, 8104, 8155, 8193, 8219, 8167, 8176, 8172, 8162, 8185, 8187, 8208, 8197, 8270, 9598,1.3819019794464111,XXXXX
103, 8210, 8170, 8141, 8124, 8161, 8168, 8165, 8163, 8177, 8189, 8139, 8163, 8280, 9645,1.3895723819732666,XXXXX
104, 8240, 8180, 8146, 8109, 8162, 8159, 8161, 8158, 8160, 8181, 8135, 8178, 8289, 9658,1.3972992897033691,XXXXX
105, 8040, 8145, 8198, 8216, 8171, 8178, 8172, 8159, 8185, 8183, 8250, 8234, 8263, 9554,1.4053852558135986,XXXXX
106, 8252, 8188, 8143, 8101, 8159, 8144, 8151, 8173, 8165, 8180, 8109, 8147, 8305, 9734,1.4131412506103516,XXXXX
107, 8074, 8152, 8196, 8219, 8171, 8178, 8165, 8163, 8169, 8186, 8210, 8199, 8272, 9613,1.4209978580474854,XXXXX
108, 8181, 8164, 8164, 8158, 8165, 8175, 8169, 8169, 8168, 8183, 8159, 8176, 8271, 9655,1.4300856590270996,XXXXX
109, 8288, 8191, 8157, 8127, 8170, 8152, 8158, 8169, 8164, 8181, 8117, 8147, 8295, 9714,1.4362688064575195,XXXXX
110, 8072, 8147, 8195, 8226, 8182, 8173, 8167, 8162, 8194, 8188, 8225, 8194, 8265, 9587,1.4441449642181396,XXXXX
111, 8285, 8191, 8119, 8076, 8162, 8149, 8158, 8170, 8166, 8180, 8079, 8134, 8298, 9734,1.452101230621338,XXXXX
112, 8136, 8162, 8173, 8184, 8166, 8172, 8167, 8166, 8176, 8185, 8196, 8206, 8270, 9600,1.4597773551940918,XXXXX
113, 8153, 8157, 8158, 8150, 8161, 8165, 8161, 8170, 8186, 8186, 8189, 8198, 8268, 9602,1.4677109718322754,XXXXX
114, 8216, 8191, 8135, 8088, 8159, 8154, 8150, 8163, 8162, 8180, 8117, 8155, 8296, 9685,1.4771032333374023,XXXXX
115, 8006, 8149, 8192, 8223, 8171, 8188, 8167, 8156, 8185, 8188, 8242, 8213, 8256, 9552,1.4848642349243164,XXXXX
116, 8291, 8187, 8134, 8098, 8157, 8152, 8152, 8173, 8173, 8180, 8103, 8150, 8288, 9698,1.492720365524292,XXXXX
117, 8165, 8167, 8175, 8175, 8170, 8168, 8158, 8167, 8182, 8182, 8175, 8195, 8280, 9591,1.49918532371521,XXXXX
118, 8116, 8153, 8163, 8167, 8170, 8173, 8165, 8167, 8189, 8186, 8183, 8198, 8275, 9589,1.50705885887146,XXXXX
119, 8256, 8189, 8146, 8108, 8164, 8145, 8157, 8167, 8163, 8178, 8110, 8154, 8299, 9711,1.514920711517334,XXXXX
120, 8035, 8146, 8214, 8251, 8177, 8181, 8168, 8161, 8189, 8182, 8244, 8212, 8256, 9554,1.5227038860321045,XXXXX
121, 8260, 8177, 8139, 8107, 8157, 8157, 8152, 8174, 8176, 8181, 8098, 8143, 8287, 9694,1.530747890472412,XXXXX
122, 8161, 8165, 8169, 8164, 8165, 8161, 8159, 8166, 8168, 8184, 8158, 8178, 8280, 9621,1.5402839183807373,XXXXX
123, 8089, 8153, 8184, 8196, 8172, 8171, 8169, 8166, 8180, 8183, 8208, 8199, 8262, 9570,1.54677152633667,XXXXX
124, 8315, 8195, 8146, 8100, 8163, 8149, 8151, 8170, 8162, 8179, 8089, 8138, 8294, 9735,1.5557849407196045,XXXXX
125, 8095, 8149, 8201, 8228, 8176, 8180, 8165, 8161, 8178, 8190, 8211, 8198, 8261, 9589,1.5637798309326172,XXXXX
126, 8244, 8176, 8138, 8110, 8162, 8156, 8162, 8170, 8159, 8185, 8110, 8151, 8291, 9686,1.5701828002929688,XXXXX
127, 8214, 8177, 8157, 8148, 8164, 8161, 8164, 8164, 8164, 8186, 8149, 8174, 8293, 9655,1.578077793121338,XXXXX
239, 8124, 8155, 8158, 8179, 8167, 8174, 8168, 8161, 8186, 8186, 8195, 8199, 8270, 9578,1.5859358310699463,XXXXX
0, 8288, 8198, 8106, 8064, 8155, 8144, 8154, 8162, 8163, 8176, 8082, 8153, 8301, 9699,1.5939395427703857,XXXXX
1, 8013, 8154, 8197, 8224, 8171, 8176, 8169, 8157, 8183, 8185, 8249, 8224, 8268, 9550,1.6019139289855957,XXXXX
2, 8167, 8173, 8170, 8152, 8167, 8161, 8162, 8171, 8170, 8182, 8161, 8162, 8288, 9688,1.6099419593811035,XXXXX
3, 8215, 8179, 8171, 8163, 8171, 8167, 8157, 8167, 8164, 8181, 8138, 8162, 8286, 9711,1.618955135345459,XXXXX
4, 8111, 8150, 8175, 8201, 8171, 8181, 8167, 8165, 8191, 8188, 8195, 8195, 8256, 9599,1.625464916229248,XXXXX
5, 8328, 8194, 8124, 8066, 8161, 8141, 8156, 8170, 8167, 8181, 8076, 8130, 8299, 9718,1.6333355903625488,XXXXX
6, 8074, 8151, 8194, 8208, 8178, 8177, 8165, 8161, 8180, 8187, 8220, 8206, 8264, 9557,1.641493797302246,XXXXX
7, 8160, 8170, 8141, 8129, 8162, 8164, 8152, 8170, 8177, 8185, 8144, 8179, 8270, 9638,1.649282693862915,XXXXX
8, 8222, 8193, 8140, 8115, 8156, 8151, 8149, 8162, 8165, 8185, 8131, 8173, 8290, 9671,1.6576409339904785,XXXXX
9, 8056, 8151, 8190, 8210, 8163, 8176, 8166, 8161, 8180, 8193, 8252, 8221, 8267, 9555,1.665712594985962,XXXXX
10, 8255, 8185, 8147, 8098, 8157, 8146, 8151, 8178, 8159, 8184, 8122, 8158, 8298, 9726,1.67337965965271,XXXXX
11, 8061, 8154, 8208, 8222, 8176, 8173, 8162, 8168, 8178, 8185, 8223, 8209, 8266, 9608,1.681091547012329,XXXXX
12, 8173, 8164, 8161, 8151, 8167, 8171, 8162, 8171, 8176, 8179, 8166, 8172, 8268, 9654,1.689455270767212,XXXXX
13, 8273, 8184, 8149, 8123, 8160, 8159, 8154, 8177, 8159, 8175, 8125, 8149, 8288, 9717,1.695913553237915,XXXXX
14, 8056, 8148, 8204, 8242, 8177, 8183, 8166, 8173, 8188, 8186, 8225, 8197, 8266, 9598,1.7047598361968994,XXXXX
15, 8286, 8192, 8137, 8101, 8165, 8156, 8155, 8173, 8168, 8182, 8068, 8118, 8305, 9757,1.7126526832580566,XXXXX
16, 8146, 8160, 8176, 8192, 8166, 8180, 8164, 8161, 8172, 8186, 8170, 8174, 8271, 9632,1.7199792861938477,XXXXX
17, 8189, 8158, 8155, 8154, 8162, 8167, 8163, 8166, 8178, 8185, 8161, 8169, 8267, 9634,1.7276268005371094,XXXXX
18, 8305, 8189, 8137, 8097, 8162, 8145, 8155, 8169, 8164, 8178, 8105, 8144, 8298, 9703,1.7368707656860352,XXXXX
19, 8067, 8146, 8183, 8216, 8172, 8181, 8166, 8166, 8185, 8186, 8228, 8212, 8261, 9553,1.7446362972259521,XXXXX
20, 8259, 8190, 8118, 8077, 8157, 8153, 8152, 8172, 8165, 8181, 8088, 8152, 8287, 9699,1.7525887489318848,XXXXX
21, 8128, 8171, 8173, 8166, 8168, 8164, 8165, 8162, 8170, 8181, 8193, 8203, 8270, 9601,1.7587463855743408,XXXXX
22, 8118, 8159, 8177, 8176, 8165, 8164, 8163, 8172, 8176, 8179, 8221, 8198, 8269, 9607,1.767930269241333,XXXXX
23, 8250, 8192, 8157, 8116, 8155, 8151, 8149, 8173, 8159, 8175, 8125, 8151, 8299, 9741,1.7755796909332275,XXXXX
24, 8033, 8147, 8210, 8236, 8169, 8187, 8167, 8160, 8188, 8183, 8239, 8214, 8258, 9584,1.7833209037780762,XXXXX
25, 8282, 8180, 8138, 8098, 8159, 8153, 8153, 8171, 8165, 8181, 8109, 8148, 8289, 9712,1.791015625,XXXXX
26, 8187, 8165, 8179, 8181, 8174, 8167, 8157, 8165, 8163, 8186, 8170, 8180, 8284, 9660,1.798767328262329,XXXXX
27, 8107, 8152, 8184, 8207, 8176, 8178, 8168, 8166, 8183, 8187, 8184, 8181, 8268, 9632,1.8066682815551758,XXXXX
28, 8300, 8196, 8136, 8105, 8159, 8146, 8157, 8171, 8159, 8182, 8065, 8124, 8297, 9748,1.816082239151001,XXXXX
29, 8095, 8149, 8192, 8225, 8168, 8178, 8168, 8164, 8181, 8189, 8212, 8206, 8260, 9579,1.8226025104522705,XXXXX
30, 8260, 8176, 8124, 8084, 8160, 8155, 8164, 8172, 8175, 8181, 8108, 8158, 8284, 9680,1.830496072769165,XXXXX
31, 8168, 8175, 8148, 8132, 8173, 8159, 8167, 8161, 8172, 8181, 8150, 8176, 8283, 9620,1.8380014896392822,XXXXX
32, 8078, 8150, 8175, 8196, 8174, 8175, 8166, 8162, 8180, 8188, 8208, 8204, 8263, 9561,1.845853567123413,XXXXX
33, 8300, 8192, 8142, 8095, 8155, 8150, 8153, 8171, 8154, 8181, 8099, 8148, 8298, 9712,1.8536512851715088,XXXXX
34, 8068, 8150, 8208, 8237, 8171, 8181, 8170, 8159, 8183, 8187, 8237, 8207, 8264, 9560,1.863213062286377,XXXXX
35, 8212, 8171, 8138, 8121, 8165, 8158, 8162, 8174, 8180, 8182, 8122, 8150, 8284, 9664,1.8711316585540771,XXXXX
36, 8186, 8177, 8141, 8119, 8162, 8153, 8163, 8177, 8167, 8177, 8134, 8166, 8287, 9641,1.87880539894104,XXXXX
37, 8059, 8149, 8186, 8198, 8166, 8175, 8170, 8168, 8182, 8183, 8233, 8210, 8259, 9542,1.8868188858032227,XXXXX
38, 8307, 8192, 8147, 8109, 8162, 8151, 8150, 8167, 8159, 8179, 8098, 8136, 8297, 9719,1.8946757316589355,XXXXX
39, 8102, 8150, 8192, 8234, 8178, 8178, 8169, 8163, 8178, 8188, 8202, 8189, 8262, 9589,1.9010703563690186,XXXXX
40, 8201, 8170, 8135, 8119, 8164, 8161, 8167, 8172, 8176, 8185, 8139, 8164, 8274, 9635,1.9089407920837402,XXXXX
41, 8207, 8184, 8149, 8116, 8161, 8155, 8154, 8163, 8166, 8182, 8152, 8177, 8291, 9637,1.9168713092803955,XXXXX
42, 8042, 8145, 8196, 8233, 8171, 8177, 8162, 8159, 8187, 8187, 8244, 8211, 8261, 9546,1.9258642196655273,XXXXX
43, 8325, 8187, 8145, 8112, 8163, 8149, 8154, 8168, 8166, 8180, 8098, 8135, 8299, 9729,1.9336729049682617,XXXXX
44, 8145, 8155, 8194, 8201, 8174, 8178, 8167, 8160, 8181, 8185, 8208, 8202, 8272, 9593,1.941650152206421,XXXXX
45, 8172, 8170, 8136, 8113, 8157, 8164, 8159, 8165, 8177, 8182, 8146, 8177, 8274, 9631,1.9496150016784668,XXXXX
46, 8223, 8191, 8134, 8104, 8157, 8151, 8151, 8162, 8156, 8181, 8121, 8162, 8289, 9673,1.9570515155792236,XXXXX
47, 8024, 8142, 8208, 8240, 8177, 8182, 8170, 8163, 8175, 8193, 8257, 8217, 8260, 9539,1.9650800228118896,XXXXX
48, 8261, 8182, 8152, 8108, 8164, 8150, 8155, 8179, 8158, 8186, 8113, 8139, 8298, 9734,1.9728944301605225,XXXXX
49, 8126, 8165, 8191, 8206, 8170, 8171, 8162, 8171, 8177, 8186, 8191, 8178, 8273, 9646,1.980963945388794,XXXXX
50, 8189, 8166, 8161, 8161, 8165, 8167, 8167, 8170, 8179, 8182, 8155, 8164, 8272, 9645,1.9884231090545654,XXXXX
51, 8306, 8188, 8143, 8112, 8168, 8149, 8159, 8168, 8156, 8179, 8096, 8145, 8297, 9717,1.9964032173156738,XXXXX
52, 8064, 8149, 8196, 8233, 8181, 8183, 8168, 8163, 8184, 8188, 8216, 8200, 8267, 9583,2.0041465759277344,XXXXX
53, 8267, 8188, 8124, 8089, 8158, 8157, 8156, 8172, 8172, 8183, 8074, 8125, 8302, 9725,2.012080192565918,XXXXX
54, 8157, 8156, 8167, 8177, 8164, 8168, 8165, 8160, 8179, 8188, 8173, 8182, 8277, 9618,2.02022385597229,XXXXX
55, 8159, 8150, 8158, 8158, 8164, 8164, 8165, 8167, 8184, 8186, 8189, 8190, 8269, 9608,2.0268402099609375,XXXXX
56, 8251, 8193, 8129, 8081, 8159, 8146, 8154, 8169, 8165, 8178, 8111, 8151, 8303, 9691,2.035698413848877,XXXXX
57, 7999, 8149, 8196, 8233, 8173, 8180, 8166, 8160, 8192, 8189, 8255, 8224, 8263, 9525,2.043498992919922,XXXXX
58, 8250, 8189, 8145, 8118, 8154, 8151, 8153, 8173, 8169, 8188, 8127, 8158, 8287, 9703,2.051220655441284,XXXXX
59, 8179, 8177, 8183, 8173, 8160, 8163, 8161, 8165, 8162, 8186, 8170, 8176, 8278, 9676,2.059034824371338,XXXXX
60, 8138, 8156, 8172, 8181, 8174, 8174, 8167, 8162, 8175, 8183, 8177, 8178, 8266, 9631,2.0668485164642334,XXXXX
61, 8311, 8195, 8128, 8094, 8172, 8148, 8152, 8169, 8160, 8178, 8074, 8131, 8299, 9709,2.0747907161712646,XXXXX
62, 8057, 8149, 8192, 8220, 8173, 8177, 8169, 8164, 8188, 8188, 8230, 8210, 8260, 9527,2.0840723514556885,XXXXX
63, 8236, 8174, 8130, 8090, 8154, 8148, 8158, 8170, 8174, 8183, 8129, 8168, 8285, 9663,2.090433359146118,XXXXX
64, 8163, 8175, 8168, 8156, 8164, 8155, 8156, 8163, 8169, 8185, 8171, 8192, 8283, 9632,2.0981788635253906,XXXXX
65, 8047, 8161, 8191, 8213, 8167, 8178, 8165, 8170, 8185, 8188, 8219, 8197, 8263, 9576,2.106029510498047,XXXXX
66, 8265, 8197, 8136, 8093, 8157, 8148, 8152, 8180, 8160, 8180, 8091, 8129, 8301, 9741,2.1138312816619873,XXXXX
67, 8072, 8151, 8199, 8229, 8173, 8172, 8166, 8169, 8179, 8190, 8223, 8203, 8265, 9596,2.1230766773223877,XXXXX
68, 8234, 8181, 8151, 8134, 8162, 8158, 8163, 8177, 8171, 8186, 8124, 8153, 8283, 9678,2.1311378479003906,XXXXX
69, 8209, 8182, 8155, 8144, 8169, 8162, 8167, 8168, 8166, 8184, 8132, 8158, 8292, 9651,2.1385016441345215,XXXXX
70, 8075, 8144, 8171, 8191, 8173, 8170, 8172, 8161, 8187, 8193, 8210, 8203, 8268, 9555,2.1462831497192383,XXXXX
71, 8279, 8190, 8133, 8076, 8149, 8139, 8155, 8171, 8164, 8183, 8103, 8155, 8296, 9697,2.1542768478393555,XXXXX
72, 8040, 8151, 8210, 8230, 8163, 8182, 8169, 8166, 8180, 8182, 8247, 8220, 8264, 9549,2.1621439456939697,XXXXX
73, 8175, 8161, 8166, 8159, 8169, 8171, 8164, 8171, 8174, 8181, 8154, 8165, 8282, 9655,2.16986083984375,XXXXX
74, 8252, 8179, 8157, 8145, 8175, 8161, 8164, 8166, 8167, 8185, 8113, 8145, 8288, 9711,2.177584648132324,XXXXX
75, 8113, 8150, 8171, 8199, 8175, 8176, 8173, 8167, 8192, 8190, 8195, 8183, 8259, 9601,2.185490608215332,XXXXX
76, 8304, 8185, 8117, 8077, 8156, 8140, 8155, 8173, 8167, 8175, 8081, 8131, 8298, 9710,2.1931777000427246,XXXXX
77, 8071, 8145, 8187, 8217, 8171, 8171, 8170, 8162, 8178, 8178, 8225, 8204, 8265, 9547,2.201059579849243,XXXXX
78, 8166, 8166, 8141, 8126, 8161, 8163, 8168, 8172, 8176, 8184, 8157, 8168, 8277, 9632,2.2087044715881348,XXXXX
79, 8213, 8189, 8154, 8121, 8158, 8160, 8159, 8168, 8163, 8182, 8128, 8161, 8297, 9681,2.216745615005493,XXXXX
80, 8007, 8143, 8223, 8263, 8174, 8191, 8172, 8164, 8185, 8184, 8255, 8219, 8257, 9539,2.224492073059082,XXXXX
81, 8265, 8190, 8134, 8090, 8159, 8147, 8157, 8178, 8159, 8182, 8085, 8126, 8294, 9727,2.2323975563049316,XXXXX
82, 8088, 8163, 8162, 8176, 8166, 8169, 8169, 8167, 8178, 8192, 8174, 8179, 8271, 9601,2.240302562713623,XXXXX
83, 8128, 8164, 8144, 8153, 8162, 8172, 8173, 8165, 8188, 8186, 8163, 8182, 8268, 9582,2.247836112976074,XXXXX
84, 8242, 8192, 8141, 8113, 8160, 8151, 8156, 8165, 8162, 8181, 8118, 8158, 8293, 9661,2.255749464035034,XXXXX
85, 8019, 8144, 8205, 8237, 8175, 8180, 8161, 8167, 8182, 8192, 8245, 8214, 8261, 9557,2.263697385787964,XXXXX
86, 8248, 8183, 8139, 8103, 8164, 8156, 8155, 8176, 8171, 8180, 8095, 8144, 8295, 9708,2.2717843055725098,XXXXX
87, 8124, 8166, 8175, 8184, 8171, 8174, 8172, 8162, 8182, 8182, 8175, 8189, 8275, 9586,2.281049966812134,XXXXX
88, 8122, 8160, 8159, 8162, 8161, 8167, 8171, 8168, 8180, 8186, 8185, 8186, 8268, 9578,2.28727388381958,XXXXX
89, 8240, 8188, 8137, 8101, 8149, 8141, 8154, 8175, 8157, 8180, 8117, 8156, 8294, 9678,2.2952635288238525,XXXXX
90, 8002, 8147, 8201, 8233, 8170, 8176, 8172, 8168, 8188, 8186, 8239, 8218, 8259, 9540,2.303283929824829,XXXXX
91, 8247, 8191, 8137, 8101, 8160, 8156, 8167, 8178, 8173, 8181, 8090, 8138, 8295, 9712,2.311732053756714,XXXXX
92, 8156, 8171, 8175, 8180, 8164, 8170, 8170, 8170, 8168, 8185, 8163, 8179, 8280, 9621,2.320087432861328,XXXXX
93, 8073, 8149, 8178, 8184, 8163, 8174, 8167, 8165, 8179, 8187, 8201, 8207, 8262, 9558,2.3281795978546143,XXXXX
94, 8259, 8192, 8130, 8072, 8157, 8143, 8152, 8168, 8165, 8178, 8097, 8160, 8294, 9722,2.336029291152954,XXXXX
95, 8057, 8153, 8180, 8205, 8169, 8173, 8169, 8165, 8188, 8187, 8226, 8213, 8260, 9584,2.3439412117004395,XXXXX
96, 8242, 8181, 8140, 8110, 8152, 8154, 8161, 8169, 8170, 8185, 8122, 8150, 8288, 9680,2.3503384590148926,XXXXX
97, 8174, 8172, 8195, 8181, 8164, 8165, 8165, 8161, 8166, 8185, 8182, 8181, 8280, 9651,2.3584043979644775,XXXXX
98, 8073, 8151, 8198, 8211, 8172, 8175, 8167, 8169, 8180, 8186, 8212, 8191, 8261, 9625,2.3658130168914795,XXXXX
99, 8280, 8191, 8131, 8094, 8161, 8152, 8152, 8173, 8158, 8183, 8070, 8124, 8302, 9759,2.375318765640259,XXXXX
100, 8071, 8145, 8193, 8225, 8168, 8183, 8172, 8159, 8184, 8189, 8207, 8203, 8265, 9574,2.3816730976104736,XXXXX
101, 8239, 8171, 8141, 8110, 8152, 8155, 8164, 8171, 8180, 8179, 8121, 8163, 8281, 9666,2.3911209106445312,XXXXX
102, 8217, 8173, 8155, 8137, 8163, 8161, 8162, 8167, 8171, 8179, 8147, 8174, 8286, 9655,2.398904323577881,XXXXX
103, 8061, 8144, 8173, 8197, 8170, 8184, 8174, 8161, 8187, 8184, 8209, 8206, 8262, 9571,2.4070842266082764,XXXXX
104, 8240, 8192, 8123, 8077, 8152, 8149, 8159, 8171, 8164, 8175, 8083, 8150, 8293, 9708,2.4143142700195312,XXXXX
105, 8040, 8155, 8194, 8214, 8164, 8176, 8167, 8168, 8176, 8182, 8243, 8225, 8262, 9561,2.422079563140869,XXXXX
106, 8185, 8171, 8151, 8126, 8161, 8160, 8163, 8174, 8164, 8183, 8169, 8181, 8283, 9663,2.4300081729888916,XXXXX
107, 8159, 8183, 8167, 8144, 8161, 8160, 8160, 8162, 8164, 8182, 8151, 8170, 8289, 9656,2.4380686283111572,XXXXX
108, 8003, 8152, 8197, 8227, 8161, 8187, 8168, 8161, 8193, 8188, 8226, 8202, 8255, 9527,2.4460010528564453,XXXXX
109, 8309, 8196, 8119, 8079, 8156, 8148, 8160, 8174, 8166, 8182, 8074, 8134, 8295, 9715,2.453962564468384,XXXXX
110, 8118, 8153, 8178, 8198, 8178, 8170, 8175, 8161, 8177, 8187, 8201, 8200, 8269, 9602,2.4619696140289307,XXXXX
111, 8158, 8161, 8157, 8140, 8165, 8162, 8169, 8170, 8175, 8183, 8157, 8174, 8275, 9651,2.4698426723480225,XXXXX
112, 8206, 8183, 8153, 8120, 8157, 8151, 8161, 8175, 8165, 8180, 8133, 8163, 8291, 9677,2.477813243865967,XXXXX
113, 8032, 8144, 8184, 8211, 8166, 8173, 8166, 8167, 8192, 8189, 8246, 8218, 8258, 9538,2.484511613845825,XXXXX
114, 8264, 8183, 8134, 8077, 8160, 8141, 8149, 8170, 8165, 8180, 8118, 8158, 8293, 9702,2.4920473098754883,XXXXX
115, 8082, 8157, 8204, 8203, 8173, 8170, 8168, 8166, 8169, 8180, 8219, 8211, 8269, 9603,2.4998202323913574,XXXXX
116, 8134, 8171, 8171, 8172, 8161, 8170, 8170, 8175, 8174, 8182, 8160, 8171, 8276, 9650,2.507758378982544,XXXXX
117, 8253, 8192, 8147, 8123, 8158, 8154, 8157, 8169, 8158, 8183, 8094, 8133, 8302, 9731,2.5157558917999268,XXXXX
118, 8068, 8137, 8198, 8228, 8181, 8180, 8173, 8167, 8179, 8193, 8218, 8194, 8265, 9588,2.5245001316070557,XXXXX
119, 8292, 8182, 8136, 8094, 8164, 8155, 8164, 8179, 8164, 8185, 8088, 8128, 8297, 9719,2.532290458679199,XXXXX
120, 8103, 8170, 8183, 8187, 8162, 8178, 8170, 8164, 8181, 8183, 8191, 8194, 8278, 9586,2.5400424003601074,XXXXX
121, 8101, 8164, 8155, 8148, 8163, 8171, 8164, 8165, 8183, 8184, 8190, 8198, 8274, 9588,2.5482895374298096,XXXXX
122, 8261, 8190, 8130, 8088, 8158, 8143, 8147, 8171, 8154, 8181, 8121, 8158, 8294, 9702,2.5559966564178467,XXXXX
123, 8026, 8144, 8209, 8246, 8165, 8177, 8165, 8168, 8179, 8186, 8262, 8224, 8253, 9563,2.5638926029205322,XXXXX
124, 8224, 8184, 8151, 8123, 8154, 8159, 8161, 8179, 8169, 8179, 8117, 8150, 8295, 9734,2.5715065002441406,XXXXX
125, 8123, 8168, 8181, 8202, 8171, 8173, 8167, 8168, 8179, 8185, 8169, 8169, 8286, 9669,2.5792665481567383,XXXXX
126, 8122, 8152, 8173, 8202, 8174, 8170, 8168, 8167, 8184, 8187, 8188, 8176, 8269, 9619,2.587013006210327,XXXXX
127, 8327, 8191, 8136, 8095, 8165, 8146, 8161, 8171, 8153, 8177, 8093, 8138, 8301, 9722,2.5954384803771973,XXXXX
239, 8074, 8150, 8194, 8224, 8179, 8187, 8176, 8164, 8183, 8181, 8215, 8199, 8266, 9572,2.6033778190612793,XXXXX
0, 8222, 8186, 8126, 8097, 8159, 8157, 8160, 8170, 8174, 8180, 8083, 8138, 8286, 9691,2.6108977794647217,sit
1, 8171, 8177, 8149, 8140, 8163, 8158, 8167, 8163, 8168, 8188, 8146, 8174, 8277, 9636,2.6189377307891846,sit
2, 8116, 8149, 8159, 8169, 8172, 8173, 8173, 8170, 8181, 8190, 8209, 8197, 8262, 9591,2.626873254776001,sit
3, 8246, 8190, 8129, 8087, 8161, 8149, 8149, 8174, 8161, 8181, 8107, 8149, 8296, 9703,2.6345744132995605,sit
4, 7992, 8150, 8206, 8238, 8172, 8179, 8167, 8161, 8185, 8189, 8244, 8222, 8262, 9538,2.6426475048065186,sit
5, 8224, 8176, 8148, 8122, 8162, 8156, 8165, 8167, 8172, 8186, 8124, 8152, 8287, 9670,2.6504931449890137,sit
6, 8214, 8179, 8163, 8153, 8164, 8162, 8162, 8161, 8161, 8186, 8135, 8155, 8287, 9646,2.658536195755005,sit
7, 8065, 8152, 8179, 8202, 8167, 8181, 8170, 8163, 8179, 8189, 8207, 8199, 8268, 9551,2.6663460731506348,sit
8, 8240, 8188, 8128, 8082, 8157, 8143, 8158, 8171, 8161, 8179, 8102, 8149, 8306, 9694,2.6743006706237793,sit
9, 8008, 8142, 8204, 8228, 8167, 8173, 8165, 8161, 8177, 8187, 8245, 8210, 8265, 9557,2.6822545528411865,sit
10, 8197, 8167, 8155, 8129, 8159, 8161, 8156, 8174, 8167, 8184, 8136, 8152, 8280, 9661,2.6899173259735107,sit
11, 8243, 8179, 8156, 8133, 8170, 8159, 8156, 8169, 8164, 8183, 8118, 8156, 8291, 9652,2.697923421859741,sit
12, 8036, 8144, 8189, 8217, 8175, 8177, 8165, 8164, 8192, 8191, 8214, 8204, 8259, 9532,2.7058091163635254,sit
13, 8222, 8192, 8125, 8076, 8156, 8141, 8152, 8182, 8165, 8179, 8085, 8137, 8301, 9706,2.713674545288086,sit
14, 8048, 8158, 8189, 8205, 8170, 8169, 8164, 8175, 8172, 8183, 8228, 8208, 8276, 9576,2.7216403484344482,sit
15, 8181, 8168, 8170, 8160, 8169, 8163, 8162, 8171, 8168, 8187, 8176, 8176, 8278, 9639,2.729452133178711,sit
16, 8234, 8185, 8160, 8133, 8172, 8158, 8163, 8168, 8161, 8185, 8121, 8151, 8289, 9675,2.7374167442321777,sit
17, 8032, 8144, 8182, 8204, 8173, 8177, 8172, 8167, 8190, 8188, 8224, 8208, 8263, 9524,2.7457096576690674,sit
18, 8273, 8189, 8130, 8079, 8150, 8141, 8149, 8171, 8165, 8180, 8119, 8158, 8301, 9690,2.7519428730010986,sit
19, 8097, 8162, 8195, 8206, 8167, 8170, 8162, 8161, 8175, 8183, 8231, 8205, 8274, 9608,2.759610891342163,sit
20, 8132, 8163, 8165, 8157, 8168, 8166, 8167, 8173, 8178, 8183, 8163, 8168, 8278, 9651,2.7688987255096436,sit
21, 8245, 8184, 8153, 8124, 8165, 8151, 8157, 8173, 8160, 8181, 8098, 8144, 8302, 9710,2.7769031524658203,sit
22, 8056, 8141, 8191, 8226, 8177, 8175, 8175, 8163, 8189, 8190, 8227, 8204, 8263, 9548,2.784717559814453,sit
23, 8277, 8181, 8116, 8066, 8160, 8142, 8164, 8170, 8172, 8185, 8097, 8143, 8293, 9686,2.792644739151001,sit
24, 8127, 8159, 8172, 8167, 8164, 8166, 8165, 8165, 8171, 8186, 8190, 8201, 8271, 9594,2.8007113933563232,sit
25, 8121, 8161, 8163, 8159, 8162, 8168, 8164, 8171, 8179, 8183, 8182, 8189, 8266, 9613,2.8085622787475586,sit
26, 8233, 8194, 8147, 8110, 8166, 8148, 8157, 8172, 8166, 8181, 8119, 8152, 8298, 9713,2.8147428035736084,sit
27, 8015, 8146, 8212, 8244, 8181, 8182, 8168, 8167, 8179, 8188, 8253, 8219, 8264, 9565,2.824075222015381,sit
28, 8254, 8185, 8145, 8110, 8160, 8157, 8157, 8179, 8159, 8180, 8112, 8146, 8291, 9721,2.8319883346557617,sit
29, 8173, 8172, 8181, 8184, 8165, 8170, 8167, 8170, 8177, 8185, 8171, 8177, 8277, 9657,2.83965802192688,sit
30, 8151, 8160, 8162, 8166, 8167, 8172, 8168, 8167, 8190, 8185, 8162, 8177, 8276, 9617,2.847546339035034,sit
31, 8275, 8193, 8116, 8075, 8157, 8148, 8155, 8163, 8161, 8178, 8072, 8137, 8303, 9681,2.8554718494415283,sit
32, 8017, 8147, 8194, 8230, 8170, 8183, 8170, 8156, 8181, 8190, 8246, 8217, 8254, 9523,2.863457441329956,sit
33, 8238, 8181, 8148, 8113, 8159, 8157, 8158, 8172, 8168, 8185, 8125, 8152, 8288, 9696,2.8712503910064697,sit
34, 8167, 8174, 8175, 8166, 8167, 8158, 8164, 8166, 8176, 8180, 8155, 8173, 8289, 9617,2.8791682720184326,sit
35, 8083, 8150, 8172, 8187, 8167, 8164, 8174, 8166, 8187, 8182, 8206, 8205, 8266, 9528,2.886725902557373,sit
36, 8287, 8189, 8121, 8070, 8154, 8142, 8160, 8167, 8153, 8180, 8104, 8159, 8298, 9700,2.8944504261016846,sit
37, 8048, 8146, 8192, 8209, 8167, 8178, 8172, 8159, 8176, 8187, 8233, 8217, 8269, 9571,2.9022672176361084,sit
38, 8217, 8175, 8161, 8123, 8164, 8156, 8161, 8175, 8174, 8182, 8126, 8161, 8289, 9679,2.910001754760742,sit
39, 8212, 8179, 8186, 8171, 8175, 8163, 8162, 8173, 8165, 8186, 8151, 8177, 8281, 9671,2.9177849292755127,sit
40, 8099, 8149, 8191, 8217, 8173, 8182, 8172, 8170, 8180, 8191, 8206, 8195, 8261, 9600,2.9269580841064453,sit
41, 8311, 8184, 8138, 8090, 8161, 8152, 8160, 8173, 8161, 8180, 8077, 8131, 8304, 9735,2.9346981048583984,sit
42, 8101, 8148, 8193, 8215, 8180, 8183, 8176, 8163, 8184, 8187, 8213, 8205, 8272, 9575,2.942552089691162,sit
43, 8215, 8175, 8134, 8113, 8163, 8157, 8163, 8168, 8180, 8184, 8139, 8167, 8287, 9655,2.948742389678955,sit
44, 8183, 8177, 8162, 8137, 8157, 8152, 8158, 8167, 8172, 8186, 8158, 8177, 8286, 9651,2.9580323696136475,sit
45, 8027, 8141, 8212, 8234, 8173, 8184, 8171, 8168, 8187, 8196, 8233, 8209, 8254, 9564,2.9657325744628906,sit
46, 8281, 8189, 8144, 8105, 8166, 8155, 8160, 8170, 8158, 8185, 8071, 8127, 8303, 9747,2.9736292362213135,sit
47, 8107, 8151, 8188, 8216, 8172, 8182, 8176, 8159, 8177, 8187, 8201, 8192, 8277, 9612,2.9815993309020996,sit
48, 8205, 8163, 8146, 8129, 8161, 8172, 8171, 8170, 8177, 8188, 8148, 8164, 8277, 9645,2.9894843101501465,sit
49, 8208, 8184, 8148, 8118, 8163, 8161, 8161, 8167, 8160, 8184, 8131, 8166, 8289, 9646,2.9973809719085693,sit
50, 8027, 8147, 8189, 8218, 8172, 8183, 8173, 8162, 8184, 8188, 8235, 8217, 8264, 9546,3.0053954124450684,sit
51, 8295, 8190, 8130, 8088, 8157, 8155, 8164, 8170, 8165, 8185, 8086, 8133, 8300, 9722,3.0117952823638916,sit
52, 8113, 8157, 8195, 8213, 8169, 8179, 8174, 8161, 8180, 8190, 8199, 8194, 8267, 9581,3.021141767501831,sit
53, 8152, 8162, 8167, 8158, 8161, 8167, 8164, 8171, 8177, 8184, 8168, 8187, 8269, 9615,3.0290021896362305,sit
54, 8215, 8187, 8151, 8116, 8159, 8154, 8151, 8173, 8158, 8182, 8124, 8159, 8287, 9681,3.0371627807617188,sit
55, 8033, 8149, 8193, 8223, 8172, 8180, 8167, 8165, 8185, 8194, 8228, 8201, 8255, 9544,3.045191526412964,sit
56, 8298, 8190, 8121, 8074, 8152, 8148, 8158, 8173, 8167, 8186, 8087, 8141, 8296, 9688,3.052975654602051,sit
57, 8112, 8155, 8181, 8184, 8162, 8173, 8164, 8164, 8172, 8185, 8203, 8206, 8277, 9572,3.0610358715057373,sit
58, 8113, 8152, 8172, 8172, 8163, 8169, 8164, 8169, 8175, 8188, 8178, 8186, 8273, 9616,3.069221019744873,sit
59, 8272, 8191, 8147, 8111, 8161, 8143, 8157, 8167, 8163, 8185, 8094, 8141, 8298, 9714,3.075777530670166,sit
60, 8036, 8142, 8200, 8228, 8174, 8178, 8172, 8157, 8188, 8191, 8243, 8217, 8256, 9515,3.0835089683532715,sit
61, 8248, 8178, 8134, 8085, 8154, 8151, 8157, 8171, 8161, 8182, 8126, 8163, 8288, 9671,3.091609239578247,sit
62, 8156, 8172, 8176, 8169, 8161, 8167, 8161, 8172, 8164, 8182, 8193, 8200, 8283, 9639,3.0992863178253174,sit
63, 8120, 8163, 8177, 8185, 8167, 8175, 8163, 8170, 8181, 8184, 8191, 8193, 8272, 9620,3.1071321964263916,sit
64, 8285, 8193, 8150, 8113, 8165, 8157, 8155, 8168, 8166, 8182, 8092, 8139, 8296, 9730,3.114949941635132,sit
65, 8072, 8148, 8203, 8240, 8177, 8186, 8172, 8164, 8185, 8191, 8229, 8202, 8262, 9582,3.1225974559783936,sit
66, 8272, 8182, 8132, 8106, 8161, 8154, 8158, 8173, 8166, 8180, 8110, 8145, 8298, 9711,3.130793809890747,sit
67, 8192, 8168, 8164, 8159, 8166, 8162, 8165, 8160, 8172, 8182, 8159, 8178, 8289, 9641,3.1389033794403076,sit
68, 8112, 8150, 8163, 8168, 8163, 8169, 8172, 8165, 8188, 8188, 8191, 8198, 8268, 9576,3.146817684173584,sit
69, 8285, 8191, 8119, 8066, 8155, 8140, 8149, 8175, 8156, 8180, 8098, 8163, 8297, 9701,3.1547443866729736,sit
70, 8038, 8145, 8200, 8226, 8173, 8177, 8159, 8161, 8178, 8187, 8259, 8236, 8255, 9564,3.162640333175659,sit
71, 8204, 8178, 8156, 8131, 8158, 8156, 8157, 8172, 8172, 8184, 8147, 8162, 8285, 9711,3.1705310344696045,sit
72, 8163, 8180, 8174, 8169, 8161, 8159, 8162, 8175, 8164, 8181, 8162, 8175, 8292, 9684,3.1786882877349854,sit
73, 8079, 8151, 8187, 8209, 8168, 8172, 8170, 8171, 8182, 8180, 8221, 8204, 8265, 9591,3.186598062515259,sit
74, 8328, 8194, 8142, 8097, 8159, 8147, 8156, 8167, 8163, 8175, 8097, 8133, 8298, 9740,3.1945643424987793,sit
75, 8098, 8150, 8197, 8240, 8174, 8186, 8174, 8156, 8182, 8187, 8216, 8188, 8269, 9596,3.2009828090667725,sit
76, 8223, 8172, 8130, 8127, 8165, 8163, 8166, 8171, 8175, 8185, 8108, 8135, 8285, 9675,3.209148645401001,sit
77, 8237, 8186, 8142, 8120, 8165, 8156, 8161, 8172, 8171, 8182, 8118, 8153, 8283, 9660,3.217172861099243,sit
78, 8083, 8155, 8174, 8191, 8170, 8181, 8171, 8170, 8188, 8186, 8218, 8211, 8259, 9562,3.2261855602264404,sit
79, 8238, 8190, 8120, 8078, 8152, 8149, 8154, 8171, 8159, 8176, 8104, 8154, 8301, 9693,3.2339890003204346,sit
80, 7997, 8149, 8202, 8222, 8164, 8176, 8162, 8161, 8181, 8181, 8241, 8219, 8265, 9527,3.2420406341552734,sit
81, 8178, 8169, 8171, 8143, 8163, 8166, 8159, 8173, 8184, 8182, 8157, 8176, 8277, 9637,3.2498106956481934,sit
82, 8270, 8189, 8160, 8130, 8167, 8154, 8159, 8168, 8167, 8184, 8123, 8158, 8295, 9715,3.25783371925354,sit
83, 8058, 8149, 8198, 8230, 8173, 8179, 8168, 8165, 8182, 8190, 8226, 8197, 8262, 9595,3.26581072807312,sit
84, 8273, 8191, 8138, 8102, 8156, 8159, 8157, 8178, 8161, 8181, 8073, 8128, 8299, 9740,3.272005796432495,sit
85, 8119, 8159, 8179, 8206, 8168, 8179, 8174, 8168, 8180, 8186, 8179, 8191, 8274, 9606,3.279620409011841,sit
86, 8189, 8165, 8133, 8121, 8161, 8158, 8164, 8171, 8184, 8184, 8154, 8179, 8276, 9629,3.2890219688415527,sit
87, 8220, 8186, 8137, 8090, 8158, 8148, 8155, 8169, 8168, 8180, 8132, 8174, 8290, 9658,3.296701669692993,sit
88, 7990, 8146, 8200, 8228, 8167, 8182, 8174, 8168, 8189, 8187, 8247, 8227, 8253, 9526,3.3044164180755615,sit
89, 8252, 8193, 8135, 8096, 8154, 8149, 8157, 8173, 8166, 8178, 8100, 8146, 8288, 9727,3.312469005584717,sit
90, 8116, 8165, 8190, 8200, 8169, 8174, 8162, 8159, 8175, 8184, 8201, 8195, 8269, 9634,3.3202733993530273,sit
91, 8140, 8155, 8177, 8181, 8165, 8171, 8166, 8168, 8179, 8186, 8180, 8182, 8276, 9642,3.3280670642852783,sit
92, 8277, 8187, 8149, 8126, 8163, 8148, 8156, 8174, 8166, 8184, 8099, 8138, 8308, 9739,3.3360226154327393,sit
93, 8074, 8152, 8190, 8229, 8175, 8182, 8169, 8159, 8191, 8193, 8213, 8203, 8268, 9581,3.343837261199951,sit
94, 8300, 8188, 8118, 8074, 8151, 8154, 8157, 8165, 8167, 8184, 8085, 8148, 8293, 9694,3.351496934890747,sit
95, 8162, 8158, 8165, 8165, 8159, 8169, 8160, 8168, 8172, 8184, 8186, 8198, 8277, 9602,3.3596229553222656,sit
96, 8110, 8155, 8162, 8171, 8165, 8169, 8165, 8173, 8184, 8189, 8190, 8196, 8275, 9616,3.3674347400665283,sit
97, 8239, 8198, 8135, 8100, 8161, 8144, 8161, 8167, 8161, 8185, 8099, 8147, 8305, 9729,3.375180959701538,sit
98, 8030, 8145, 8195, 8223, 8174, 8175, 8170, 8161, 8179, 8189, 8260, 8222, 8259, 9557,3.383188486099243,sit
99, 8250, 8176, 8132, 8089, 8158, 8154, 8152, 8180, 8158, 8182, 8132, 8160, 8287, 9692,3.3908562660217285,sit
100, 8142, 8171, 8175, 8178, 8162, 8173, 8163, 8167, 8158, 8187, 8160, 8170, 8288, 9637,3.3976635932922363,sit
101, 8100, 8160, 8178, 8198, 8165, 8178, 8171, 8163, 8181, 8194, 8180, 8180, 8272, 9594,3.4069161415100098,sit
102, 8289, 8198, 8131, 8081, 8151, 8146, 8153, 8174, 8164, 8187, 8091, 8154, 8298, 9695,3.4136855602264404,sit
103, 8015, 8142, 8208, 8232, 8165, 8179, 8168, 8168, 8185, 8190, 8264, 8235, 8264, 9527,3.4230923652648926,sit
104, 8196, 8174, 8161, 8132, 8161, 8154, 8160, 8172, 8171, 8180, 8154, 8160, 8294, 9680,3.4310970306396484,sit
105, 8172, 8180, 8173, 8164, 8169, 8159, 8158, 8165, 8171, 8181, 8159, 8165, 8288, 9657,3.438796043395996,sit
106, 8085, 8150, 8172, 8190, 8161, 8177, 8165, 8168, 8192, 8188, 8202, 8194, 8264, 9566,3.4467883110046387,sit
107, 8287, 8192, 8132, 8083, 8150, 8148, 8154, 8172, 8165, 8179, 8103, 8154, 8300, 9694,3.454655647277832,sit
108, 8022, 8154, 8215, 8245, 8174, 8182, 8167, 8161, 8178, 8184, 8248, 8224, 8264, 9542,3.460998058319092,sit
109, 8180, 8169, 8163, 8153, 8160, 8165, 8156, 8172, 8168, 8184, 8119, 8151, 8284, 9678,3.4687278270721436,sit
110, 8244, 8170, 8162, 8149, 8159, 8158, 8158, 8166, 8163, 8184, 8118, 8150, 8291, 9708,3.4767675399780273,sit
111, 8115, 8144, 8174, 8192, 8169, 8173, 8168, 8162, 8184, 8181, 8220, 8201, 8263, 9581,3.4847021102905273,sit
112, 8275, 8190, 8115, 8058, 8156, 8146, 8151, 8167, 8164, 8172, 8087, 8145, 8300, 9683,3.4927663803100586,sit
113, 8039, 8153, 8187, 8203, 8166, 8175, 8166, 8158, 8186, 8185, 8218, 8215, 8268, 9542,3.500779867172241,sit
114, 8189, 8171, 8156, 8139, 8160, 8155, 8161, 8169, 8181, 8183, 8163, 8179, 8284, 9654,3.5089035034179688,sit
115, 8242, 8182, 8162, 8141, 8167, 8152, 8158, 8167, 8165, 8182, 8140, 8166, 8296, 9685,3.5177597999572754,sit
116, 8050, 8142, 8197, 8235, 8177, 8184, 8169, 8162, 8184, 8190, 8229, 8212, 8261, 9542,3.525782823562622,sit
117, 8288, 8183, 8130, 8091, 8156, 8149, 8151, 8174, 8163, 8182, 8094, 8144, 8298, 9713,3.5321390628814697,sit
118, 8118, 8151, 8177, 8192, 8163, 8168, 8160, 8165, 8181, 8187, 8203, 8193, 8269, 9608,3.5400118827819824,sit
119, 8191, 8165, 8152, 8141, 8162, 8159, 8159, 8163, 8178, 8184, 8163, 8177, 8273, 9638,3.547985315322876,sit
120, 8254, 8186, 8163, 8134, 8162, 8154, 8150, 8158, 8156, 8178, 8157, 8183, 8293, 9678,3.556119203567505,sit
121, 8038, 8139, 8209, 8238, 8171, 8184, 8165, 8162, 8178, 8184, 8256, 8222, 8263, 9579,3.5637123584747314,sit
122, 8256, 8183, 8136, 8092, 8161, 8152, 8160, 8175, 8158, 8180, 8074, 8118, 8301, 9759,3.5716664791107178,sit
123, 8088, 8155, 8186, 8204, 8174, 8174, 8169, 8162, 8174, 8186, 8183, 8170, 8273, 9612,3.581041097640991,sit
124, 8149, 8159, 8163, 8167, 8161, 8171, 8163, 8167, 8184, 8186, 8182, 8177, 8268, 9606,3.5888659954071045,sit
125, 8307, 8195, 8141, 8103, 8150, 8158, 8155, 8166, 8161, 8179, 8116, 8159, 8296, 9695,3.5950746536254883,sit
126, 8064, 8148, 8186, 8216, 8166, 8185, 8171, 8157, 8181, 8185, 8236, 8220, 8262, 9543,3.6031484603881836,sit
127, 8243, 8189, 8121, 8080, 8155, 8148, 8152, 8168, 8167, 8182, 8103, 8151, 8291, 9691,3.610832452774048,sit
239, 8117, 8176, 8187, 8180, 8167, 8167, 8158, 8165, 8173, 8188, 8205, 8204, 8273, 9612,3.6199951171875,sit
0, 8130, 8159, 8187, 8180, 8169, 8174, 8168, 8169, 8174, 8187, 8206, 8201, 8270, 9621,3.6277389526367188,sit
1, 8280, 8184, 8153, 8118, 8162, 8152, 8158, 8173, 8154, 8179, 8103, 8143, 8301, 9747,3.6356024742126465,sit
2, 8053, 8145, 8204, 8249, 8171, 8183, 8168, 8163, 8185, 8188, 8226, 8201, 8262, 9593,3.643263578414917,sit
3, 8302, 8192, 8120, 8089, 8158, 8155, 8157, 8168, 8169, 8185, 8082, 8138, 8293, 9717,3.6510467529296875,sit
4, 8212, 8177, 8156, 8153, 8168, 8169, 8162, 8162, 8167, 8188, 8146, 8177, 8283, 9638,3.6588752269744873,sit
5, 8105, 8154, 8178, 8193, 8166, 8174, 8170, 8165, 8178, 8187, 8195, 8192, 8265, 9604,3.6668145656585693,sit
6, 8265, 8193, 8131, 8092, 8157, 8138, 8155, 8171, 8162, 8179, 8091, 8144, 8295, 9731,3.6745574474334717,sit
7, 8049, 8145, 8182, 8214, 8170, 8170, 8162, 8167, 8184, 8192, 8239, 8228, 8259, 9549,3.682361602783203,sit
8, 8233, 8175, 8146, 8110, 8160, 8150, 8155, 8180, 8162, 8186, 8148, 8179, 8286, 9667,3.6900644302368164,sit
9, 8176, 8176, 8189, 8173, 8172, 8157, 8163, 8170, 8161, 8179, 8177, 8184, 8287, 9669,3.69795298576355,sit
10, 8114, 8154, 8187, 8204, 8173, 8175, 8166, 8164, 8187, 8182, 8198, 8188, 8267, 9621,3.707345485687256,sit
11, 8315, 8191, 8135, 8091, 8159, 8154, 8151, 8168, 8160, 8180, 8078, 8132, 8298, 9716,3.7136571407318115,sit
12, 8054, 8145, 8204, 8233, 8172, 8188, 8170, 8164, 8179, 8187, 8232, 8214, 8264, 9535,3.7227048873901367,sit
13, 8197, 8172, 8139, 8115, 8158, 8159, 8159, 8173, 8178, 8180, 8132, 8172, 8288, 9653,3.7289998531341553,sit
14, 8165, 8180, 8154, 8135, 8162, 8157, 8154, 8164, 8175, 8179, 8147, 8179, 8289, 9643,3.736781358718872,sit
15, 8053, 8149, 8193, 8215, 8176, 8183, 8169, 8167, 8188, 8182, 8223, 8205, 8260, 9558,3.7446541786193848,sit
16, 8316, 8185, 8141, 8090, 8166, 8153, 8156, 8175, 8155, 8175, 8084, 8135, 8299, 9712,3.754281997680664,sit
17, 8089, 8146, 8193, 8212, 8173, 8177, 8166, 8162, 8173, 8189, 8212, 8201, 8268, 9549,3.76179575920105,sit
18, 8176, 8176, 8144, 8127, 8159, 8158, 8161, 8175, 8174, 8192, 8143, 8163, 8283, 9640,3.7711923122406006,sit
19, 8197, 8185, 8161, 8140, 8161, 8155, 8158, 8170, 8166, 8189, 8151, 8170, 8293, 9671,3.776867389678955,sit
20, 8051, 8137, 8197, 8220, 8172, 8183, 8168, 8155, 8190, 8193, 8240, 8206, 8261, 9542,3.7845849990844727,sit
21, 8298, 8190, 8119, 8065, 8152, 8152, 8154, 8162, 8169, 8184, 8067, 8122, 8298, 9697,3.791836738586426,sit
22, 8091, 8160, 8173, 8194, 8158, 8179, 8167, 8162, 8179, 8189, 8190, 8201, 8268, 9569,3.7997074127197266,sit
23, 8159, 8163, 8152, 8148, 8162, 8168, 8162, 8171, 8173, 8185, 8166, 8191, 8274, 9623,3.8076295852661133,sit
24, 8232, 8183, 8169, 8140, 8170, 8156, 8158, 8166, 8163, 8180, 8140, 8168, 8294, 9678,3.817070960998535,sit
25, 8043, 8142, 8213, 8243, 8176, 8179, 8170, 8163, 8187, 8189, 8236, 8211, 8263, 9558,3.8249757289886475,sit
26, 8274, 8186, 8123, 8079, 8159, 8148, 8155, 8173, 8164, 8184, 8074, 8135, 8299, 9716,3.8328444957733154,sit
27, 8097, 8164, 8170, 8177, 8171, 8171, 8173, 8160, 8177, 8186, 8184, 8191, 8270, 9576,3.8409852981567383,sit
28, 8141, 8166, 8161, 8152, 8158, 8162, 8170, 8169, 8179, 8183, 8184, 8185, 8268, 9590,3.8487343788146973,sit
29, 8255, 8188, 8157, 8121, 8157, 8151, 8153, 8173, 8158, 8178, 8137, 8164, 8297, 9691,3.8569328784942627,sit
30, 8014, 8142, 8219, 8252, 8180, 8191, 8167, 8167, 8187, 8186, 8245, 8215, 8261, 9567,3.863302230834961,sit
31, 8248, 8180, 8150, 8111, 8160, 8158, 8158, 8175, 8170, 8180, 8083, 8133, 8297, 9734,3.8712568283081055,sit
32, 8166, 8161, 8180, 8185, 8165, 8167, 8170, 8165, 8173, 8185, 8163, 8171, 8286, 9653,3.8789045810699463,sit
33, 8173, 8156, 8156, 8158, 8170, 8169, 8171, 8167, 8181, 8191, 8165, 8174, 8275, 9630,3.886814832687378,sit
34, 8260, 8189, 8132, 8096, 8161, 8151, 8154, 8169, 8161, 8186, 8101, 8156, 8297, 9678,3.89475417137146,sit
35, 7985, 8144, 8203, 8246, 8170, 8185, 8165, 8162, 8181, 8185, 8254, 8228, 8265, 9509,3.902705430984497,sit
36, 8230, 8184, 8144, 8117, 8162, 8157, 8155, 8170, 8166, 8176, 8112, 8145, 8301, 9715,3.9122085571289062,sit
37, 8177, 8175, 8171, 8177, 8176, 8165, 8162, 8164, 8169, 8182, 8154, 8168, 8285, 9681,3.919978618621826,sit
38, 8135, 8154, 8173, 8188, 8170, 8174, 8168, 8164, 8183, 8185, 8178, 8187, 8270, 9609,3.9263088703155518,sit
39, 8315, 8186, 8145, 8102, 8153, 8152, 8155, 8164, 8167, 8174, 8089, 8147, 8307, 9706,3.9343421459198,sit
40, 8074, 8148, 8193, 8220, 8168, 8183, 8168, 8159, 8190, 8183, 8230, 8208, 8268, 9549,3.9423258304595947,sit
41, 8248, 8185, 8116, 8079, 8158, 8155, 8157, 8172, 8169, 8185, 8113, 8156, 8287, 9671,3.9502828121185303,sit
42, 8179, 8172, 8160, 8144, 8164, 8159, 8158, 8162, 8165, 8187, 8169, 8199, 8284, 9627,3.9581127166748047,sit
43, 8069, 8144, 8194, 8205, 8167, 8168, 8167, 8162, 8184, 8185, 8229, 8219, 8274, 9581,3.9660849571228027,sit
44, 8257, 8191, 8142, 8096, 8158, 8143, 8158, 8178, 8160, 8174, 8106, 8142, 8308, 9744,3.974036693572998,sit
45, 8052, 8155, 8191, 8222, 8173, 8180, 8169, 8174, 8185, 8186, 8231, 8206, 8261, 9590,3.9822258949279785,sit
46, 8250, 8178, 8148, 8125, 8164, 8161, 8156, 8171, 8178, 8185, 8130, 8157, 8283, 9686,3.990004539489746,sit
47, 8234, 8173, 8182, 8175, 8172, 8165, 8163, 8162, 8165, 8181, 8156, 8165, 8290, 9671,3.997926712036133,sit
48, 8089, 8146, 8185, 8217, 8178, 8181, 8176, 8170, 8185, 8186, 8211, 8193, 8260, 9590,4.00606107711792,sit
49, 8291, 8199, 8109, 8062, 8161, 8146, 8154, 8174, 8169, 8181, 8060, 8132, 8298, 9720,4.013772249221802,sit
50, 8060, 8155, 8184, 8209, 8171, 8178, 8164, 8159, 8183, 8185, 8211, 8209, 8273, 9538,4.0218260288238525,sit
51, 8193, 8161, 8157, 8142, 8161, 8157, 8163, 8173, 8168, 8182, 8170, 8177, 8287, 9641,4.029587745666504,sit
52, 8217, 8173, 8168, 8146, 8161, 8152, 8166, 8173, 8165, 8181, 8163, 8173, 8291, 9691,4.037585735321045,sit
53, 8057, 8149, 8189, 8221, 8168, 8179, 8171, 8161, 8192, 8184, 8223, 8203, 8263, 9582,4.045722007751465,sit
54, 8303, 8197, 8123, 8086, 8158, 8147, 8147, 8167, 8161, 8178, 8079, 8131, 8301, 9739,4.05346417427063,sit
55, 8102, 8153, 8197, 8224, 8175, 8176, 8166, 8167, 8171, 8184, 8215, 8200, 8270, 9609,4.061090707778931,sit
56, 8184, 8164, 8162, 8166, 8167, 8170, 8169, 8174, 8172, 8181, 8144, 8163, 8283, 9674,4.068754196166992,sit
57, 8257, 8187, 8143, 8131, 8163, 8157, 8156, 8161, 8166, 8182, 8100, 8141, 8303, 9717,4.076514720916748,sit
58, 8074, 8145, 8175, 8211, 8175, 8178, 8169, 8156, 8192, 8191, 8223, 8204, 8268, 9566,4.084171533584595,sit
59, 8317, 8188, 8114, 8070, 8156, 8149, 8163, 8176, 8161, 8178, 8090, 8140, 8300, 9703,4.0919716358184814,sit
60, 8132, 8160, 8175, 8190, 8162, 8179, 8166, 8170, 8172, 8182, 8197, 8197, 8276, 9587,4.099698781967163,sit
61, 8148, 8168, 8144, 8143, 8160, 8170, 8158, 8167, 8181, 8183, 8163, 8183, 8280, 9633,4.108944416046143,sit
62, 8243, 8193, 8125, 8098, 8159, 8150, 8156, 8164, 8162, 8179, 8119, 8160, 8295, 9693,4.116776943206787,sit
63, 8044, 8142, 8190, 8227, 8167, 8180, 8167, 8167, 8188, 8186, 8263, 8223, 8256, 9534,4.122981548309326,sit
64, 8260, 8184, 8142, 8098, 8156, 8148, 8147, 8180, 8170, 8175, 8126, 8161, 8303, 9710,4.130831480026245,sit
65, 8095, 8165, 8189, 8194, 8175, 8166, 8159, 8165, 8175, 8180, 8206, 8207, 8285, 9624,4.138851642608643,sit
66, 8124, 8159, 8161, 8164, 8172, 8168, 8166, 8168, 8179, 8187, 8187, 8183, 8268, 9616,4.148224830627441,sit
67, 8291, 8190, 8142, 8103, 8162, 8152, 8158, 8175, 8160, 8179, 8110, 8143, 8297, 9716,4.155933141708374,sit
68, 8064, 8145, 8217, 8253, 8177, 8189, 8176, 8171, 8182, 8184, 8241, 8212, 8268, 9591,4.163799047470093,sit
69, 8257, 8182, 8142, 8112, 8161, 8156, 8162, 8176, 8159, 8180, 8086, 8131, 8297, 9734,4.1715779304504395,sit
70, 8125, 8166, 8164, 8171, 8166, 8166, 8164, 8164, 8167, 8180, 8156, 8174, 8281, 9609,4.179504632949829,sit
71, 8105, 8151, 8161, 8176, 8164, 8173, 8169, 8167, 8183, 8185, 8203, 8207, 8267, 9556,4.1867921352386475,sit
72, 8276, 8191, 8135, 8093, 8155, 8148, 8152, 8173, 8159, 8184, 8109, 8155, 8296, 9695,4.1948323249816895,sit
73, 8025, 8150, 8205, 8234, 8171, 8184, 8163, 8166, 8179, 8182, 8229, 8203, 8258, 9566,4.202005863189697,sit
74, 8242, 8181, 8144, 8109, 8161, 8158, 8157, 8173, 8169, 8174, 8101, 8141, 8290, 9688,4.209806680679321,sit
75, 8188, 8170, 8170, 8159, 8162, 8160, 8165, 8162, 8174, 8187, 8158, 8178, 8283, 9610,4.219281196594238,sit
76, 8092, 8153, 8177, 8188, 8163, 8173, 8168, 8167, 8182, 8193, 8211, 8201, 8259, 9561,4.2269511222839355,sit
77, 8254, 8197, 8133, 8087, 8155, 8151, 8148, 8182, 8154, 8175, 8100, 8148, 8300, 9718,4.2348058223724365,sit
78, 8024, 8154, 8198, 8229, 8168, 8181, 8164, 8173, 8184, 8179, 8234, 8213, 8268, 9560,4.24275016784668,sit
79, 8236, 8179, 8141, 8112, 8158, 8158, 8163, 8173, 8178, 8182, 8116, 8151, 8284, 9659,4.250699758529663,sit
80, 8207, 8173, 8158, 8143, 8167, 8165, 8163, 8167, 8169, 8184, 8146, 8171, 8283, 9629,4.257139444351196,sit
81, 8057, 8143, 8185, 8212, 8173, 8179, 8169, 8169, 8185, 8184, 8235, 8217, 8262, 9555,4.265033006668091,sit
82, 8281, 8193, 8141, 8100, 8160, 8147, 8157, 8172, 8162, 8174, 8101, 8153, 8300, 9733,4.2732322216033936,sit
83, 8064, 8152, 8190, 8222, 8175, 8184, 8170, 8160, 8179, 8185, 8212, 8207, 8265, 9579,4.280984878540039,sit
84, 8200, 8165, 8133, 8113, 8159, 8164, 8159, 8170, 8172, 8186, 8140, 8170, 8280, 9633,4.289256572723389,sit
85, 8236, 8174, 8167, 8131, 8155, 8157, 8154, 8162, 8163, 8186, 8166, 8190, 8286, 9652,4.2984778881073,sit
86, 8057, 8145, 8200, 8213, 8168, 8180, 8165, 8162, 8182, 8183, 8237, 8217, 8262, 9588,4.306942939758301,sit
87, 8246, 8194, 8123, 8077, 8161, 8147, 8151, 8182, 8155, 8169, 8077, 8130, 8310, 9741,4.3133509159088135,sit
88, 8046, 8153, 8197, 8226, 8175, 8178, 8163, 8172, 8173, 8185, 8219, 8207, 8274, 9553,4.321484088897705,sit
89, 8184, 8159, 8171, 8162, 8161, 8171, 8162, 8169, 8180, 8190, 8165, 8182, 8274, 9622,4.327976703643799,sit
90, 8275, 8179, 8151, 8121, 8162, 8159, 8167, 8169, 8170, 8179, 8115, 8156, 8291, 9702,4.337365627288818,sit
91, 8073, 8147, 8175, 8203, 8178, 8183, 8181, 8168, 8188, 8183, 8208, 8197, 8260, 9567,4.344695329666138,sit
92, 8288, 8196, 8112, 8064, 8156, 8156, 8155, 8172, 8164, 8186, 8078, 8135, 8295, 9709,4.352617979049683,sit
93, 8102, 8163, 8179, 8188, 8160, 8176, 8162, 8162, 8177, 8190, 8215, 8206, 8270, 9588,4.360525131225586,sit
94, 8132, 8162, 8167, 8159, 8162, 8162, 8166, 8171, 8173, 8181, 8190, 8190, 8276, 9630,4.368450880050659,sit
95, 8219, 8183, 8155, 8122, 8165, 8153, 8156, 8169, 8155, 8181, 8132, 8163, 8297, 9702,4.376382350921631,sit
96, 8038, 8141, 8196, 8221, 8171, 8186, 8169, 8163, 8184, 8195, 8253, 8222, 8262, 9555,4.383183479309082,sit
97, 8287, 8187, 8140, 8091, 8159, 8145, 8157, 8173, 8164, 8187, 8122, 8161, 8292, 9715,4.390744924545288,sit
98, 8119, 8163, 8202, 8213, 8174, 8165, 8160, 8165, 8172, 8191, 8211, 8203, 8267, 9630,4.400275230407715,sit
99, 8130, 8162, 8180, 8188, 8166, 8173, 8162, 8169, 8179, 8192, 8172, 8166, 8273, 9652,4.406878471374512,sit
100, 8284, 8194, 8146, 8114, 8162, 8154, 8160, 8166, 8159, 8183, 8079, 8124, 8307, 9740,4.4161646366119385,sit
101, 8069, 8145, 8199, 8240, 8175, 8184, 8172, 8161, 8184, 8190, 8221, 8205, 8263, 9568,4.4236085414886475,sit
102, 8293, 8184, 8136, 8106, 8152, 8158, 8152, 8177, 8167, 8188, 8103, 8144, 8291, 9713,4.431525230407715,sit
103, 8172, 8168, 8179, 8184, 8160, 8175, 8166, 8165, 8169, 8187, 8172, 8182, 8284, 9636,4.439260005950928,sit
104, 8135, 8155, 8158, 8165, 8164, 8176, 8173, 8164, 8181, 8187, 8169, 8187, 8278, 9606,4.447066307067871,sit
105, 8306, 8194, 8110, 8064, 8156, 8145, 8155, 8169, 8163, 8182, 8083, 8141, 8301, 9704,4.454729795455933,sit
106, 8050, 8147, 8188, 8219, 8169, 8176, 8171, 8159, 8184, 8187, 8248, 8217, 8259, 9538,4.462419271469116,sit
107, 8214, 8181, 8141, 8111, 8154, 8153, 8158, 8169, 8170, 8181, 8129, 8164, 8291, 9692,4.470331907272339,sit
108, 8137, 8178, 8166, 8162, 8158, 8160, 8156, 8169, 8176, 8182, 8177, 8192, 8288, 9649,4.478881359100342,sit
109, 8096, 8157, 8172, 8179, 8164, 8167, 8166, 8169, 8188, 8184, 8227, 8208, 8269, 9588,4.486291885375977,sit
110, 8295, 8192, 8139, 8085, 8157, 8143, 8156, 8172, 8158, 8180, 8121, 8155, 8302, 9721,4.494076251983643,sit
111, 8036, 8148, 8212, 8241, 8173, 8179, 8166, 8171, 8180, 8186, 8248, 8216, 8266, 9578,4.501732587814331,sit
112, 8216, 8179, 8155, 8131, 8165, 8160, 8159, 8178, 8173, 8180, 8117, 8145, 8288, 9715,4.509663820266724,sit
113, 8206, 8178, 8176, 8162, 8167, 8165, 8166, 8165, 8168, 8186, 8143, 8161, 8286, 9687,4.517810344696045,sit
114, 8107, 8148, 8190, 8204, 8167, 8181, 8172, 8168, 8181, 8191, 8214, 8201, 8264, 9591,4.525723695755005,sit
115, 8325, 8189, 8142, 8087, 8157, 8150, 8160, 8173, 8157, 8180, 8084, 8140, 8304, 9732,4.53311562538147,sit
116, 8103, 8152, 8202, 8227, 8172, 8179, 8177, 8159, 8187, 8191, 8214, 8199, 8271, 9590,4.54110860824585,sit
117, 8227, 8182, 8130, 8114, 8158, 8157, 8161, 8170, 8185, 8188, 8115, 8150, 8288, 9667,4.548840045928955,sit
118, 8199, 8184, 8143, 8123, 8161, 8155, 8154, 8164, 8169, 8179, 8131, 8167, 8289, 9628,4.556860685348511,sit
119, 8058, 8144, 8197, 8218, 8168, 8177, 8169, 8162, 8181, 8185, 8241, 8213, 8256, 9534,4.564708232879639,sit
120, 8282, 8193, 8146, 8099, 8153, 8145, 8156, 8177, 8159, 8178, 8104, 8142, 8299, 9721,4.572699308395386,sit
121, 8051, 8154, 8197, 8229, 8174, 8180, 8166, 8168, 8180, 8183, 8218, 8207, 8268, 9576,4.582171440124512,sit
122, 8189, 8161, 8150, 8147, 8168, 8165, 8155, 8170, 8174, 8184, 8149, 8170, 8276, 9626,4.588526964187622,sit
123, 8246, 8181, 8153, 8124, 8160, 8152, 8149, 8166, 8159, 8185, 8129, 8158, 8295, 9644,4.59622859954834,sit
124, 8037, 8151, 8193, 8213, 8167, 8182, 8168, 8164, 8184, 8190, 8238, 8216, 8267, 9533,4.6039628982543945,sit
125, 8267, 8195, 8133, 8089, 8157, 8152, 8157, 8172, 8163, 8181, 8100, 8149, 8303, 9717,4.611620903015137,sit
126, 8083, 8159, 8194, 8221, 8170, 8175, 8167, 8164, 8172, 8189, 8206, 8195, 8272, 9585,4.621215581893921,sit
127, 8164, 8163, 8162, 8157, 8164, 8167, 8168, 8170, 8175, 8186, 8159, 8172, 8276, 9619,4.629073619842529,sit
239, 8294, 8188, 8143, 8104, 8162, 8151, 8161, 8168, 8168, 8179, 8116, 8162, 8298, 9699,4.6371753215789795,sit
0, 8071, 8147, 8183, 8209, 8173, 8176, 8167, 8166, 8191, 8186, 8229, 8215, 8260, 9557,4.644982576370239,sit
1, 8251, 8189, 8121, 8068, 8159, 8147, 8152, 8175, 8161, 8179, 8095, 8147, 8292, 9693,4.651508569717407,sit
2, 8101, 8164, 8187, 8182, 8168, 8176, 8163, 8157, 8169, 8181, 8223, 8217, 8275, 9591,4.659331798553467,sit
3, 8128, 8164, 8177, 8168, 8164, 8174, 8162, 8165, 8179, 8183, 8203, 8204, 8275, 9630,4.6674416065216064,sit
4, 8219, 8191, 8157, 8117, 8161, 8149, 8157, 8173, 8164, 8181, 8112, 8154, 8296, 9725,4.675264835357666,sit
5, 8002, 8140, 8209, 8242, 8170, 8180, 8172, 8165, 8185, 8189, 8247, 8215, 8259, 9550,4.6831653118133545,sit
6, 8283, 8180, 8139, 8099, 8155, 8154, 8152, 8172, 8163, 8183, 8111, 8148, 8296, 9699,4.691258192062378,sit
7, 8193, 8167, 8180, 8178, 8170, 8175, 8157, 8167, 8175, 8185, 8168, 8180, 8283, 9651,4.699118614196777,sit
8, 8157, 8153, 8166, 8172, 8170, 8179, 8169, 8169, 8188, 8184, 8166, 8173, 8277, 9636,4.706941604614258,sit
9, 8275, 8188, 8129, 8086, 8161, 8147, 8163, 8168, 8161, 8180, 8091, 8142, 8305, 9685,4.714904546737671,sit
10, 8006, 8146, 8201, 8227, 8170, 8176, 8173, 8159, 8190, 8193, 8262, 8230, 8262, 9495,4.7227301597595215,XXXXX
11, 8234, 8182, 8155, 8122, 8156, 8156, 8157, 8172, 8179, 8186, 8147, 8167, 8292, 9692,4.730623960494995,XXXXX
12, 8185, 8176, 8192, 8198, 8174, 8170, 8159, 8173, 8171, 8182, 8174, 8179, 8284, 9681,4.738481044769287,XXXXX
13, 8122, 8163, 8177, 8201, 8176, 8178, 8164, 8174, 8183, 8186, 8170, 8176, 8267, 9619,4.746290683746338,XXXXX
14, 8322, 8200, 8116, 8077, 8156, 8148, 8149, 8167, 8166, 8182, 8058, 8124, 8303, 9734,4.75426721572876,XXXXX
15, 8077, 8147, 8189, 8214, 8171, 8176, 8165, 8158, 8187, 8189, 8227, 8209, 8264, 9569,4.762253046035767,XXXXX
16, 8219, 8171, 8145, 8106, 8162, 8154, 8163, 8176, 8171, 8181, 8129, 8160, 8286, 9683,4.77021336555481,XXXXX
17, 8176, 8168, 8162, 8147, 8157, 8165, 8168, 8168, 8167, 8182, 8156, 8175, 8286, 9650,4.777831315994263,XXXXX
18, 8094, 8149, 8165, 8179, 8159, 8177, 8169, 8162, 8181, 8188, 8218, 8209, 8263, 9565,4.78557562828064,XXXXX
19, 8300, 8197, 8121, 8060, 8154, 8143, 8152, 8169, 8158, 8177, 8109, 8164, 8298, 9706,4.793376922607422,XXXXX
20, 8046, 8150, 8207, 8226, 8173, 8180, 8167, 8160, 8180, 8182, 8252, 8230, 8266, 9572,4.801239252090454,XXXXX
21, 8188, 8171, 8162, 8150, 8164, 8164, 8158, 8168, 8170, 8183, 8140, 8160, 8289, 9700,4.808889865875244,XXXXX
22, 8204, 8180, 8168, 8165, 8167, 8164, 8158, 8164, 8166, 8184, 8140, 8162, 8292, 9696,4.816627502441406,XXXXX
23, 8090, 8145, 8197, 8218, 8171, 8182, 8171, 8163, 8189, 8187, 8229, 8208, 8263, 9580,4.825916051864624,XXXXX
24, 8305, 8190, 8140, 8082, 8159, 8145, 8158, 8170, 8161, 8181, 8083, 8130, 8304, 9719,4.8331522941589355,XXXXX
25, 8067, 8157, 8188, 8218, 8172, 8175, 8173, 8164, 8177, 8189, 8207, 8189, 8270, 9558,4.840967178344727,XXXXX
26, 8194, 8175, 8143, 8134, 8158, 8159, 8165, 8169, 8178, 8184, 8153, 8172, 8275, 9628,4.8486106395721436,XXXXX
27, 8219, 8184, 8170, 8139, 8162, 8153, 8161, 8162, 8168, 8179, 8150, 8180, 8287, 9665,4.8564183712005615,XXXXX
28, 8030, 8142, 8218, 8248, 8177, 8185, 8174, 8166, 8187, 8185, 8236, 8208, 8259, 9572,4.863642454147339,XXXXX
29, 8282, 8192, 8131, 8090, 8157, 8152, 8154, 8179, 8158, 8180, 8075, 8122, 8298, 9726,4.872942686080933,XXXXX
30, 8083, 8160, 8175, 8185, 8166, 8169, 8162, 8163, 8170, 8189, 8199, 8198, 8272, 9556,4.880656003952026,XXXXX
31, 8147, 8160, 8159, 8141, 8162, 8160, 8165, 8167, 8174, 8187, 8179, 8196, 8275, 9598,4.888539791107178,XXXXX
32, 8255, 8182, 8158, 8126, 8158, 8154, 8162, 8169, 8163, 8181, 8151, 8179, 8290, 9692,4.89626407623291,XXXXX
33, 8070, 8152, 8193, 8226, 8173, 8182, 8175, 8164, 8185, 8187, 8245, 8211, 8262, 9583,4.904073238372803,XXXXX
34, 8283, 8197, 8126, 8087, 8162, 8151, 8158, 8173, 8163, 8179, 8080, 8127, 8304, 9720,4.912019729614258,XXXXX
35, 8107, 8159, 8188, 8204, 8166, 8172, 8164, 8163, 8177, 8185, 8194, 8199, 8275, 9569,4.919707298278809,XXXXX
36, 8135, 8157, 8166, 8167, 8159, 8164, 8165, 8163, 8181, 8186, 8189, 8199, 8271, 9585,4.927400588989258,XXXXX
37, 8238, 8193, 8148, 8120, 8163, 8147, 8156, 8164, 8156, 8181, 8120, 8159, 8299, 9693,4.935130834579468,XXXXX
38, 8030, 8150, 8201, 8243, 8179, 8185, 8167, 8164, 8186, 8185, 8226, 8210, 8264, 9554,4.942880630493164,XXXXX
39, 8272, 8188, 8128, 8080, 8160, 8156, 8155, 8173, 8172, 8178, 8081, 8147, 8301, 9686,4.950779914855957,XXXXX
40, 8121, 8163, 8183, 8171, 8168, 8169, 8163, 8164, 8170, 8184, 8193, 8203, 8285, 9576,4.958642959594727,XXXXX
41, 8100, 8148, 8188, 8194, 8171, 8171, 8160, 8176, 8178, 8189, 8207, 8197, 8274, 9596,4.9681737422943115,XXXXX
42, 8278, 8185, 8151, 8119, 8167, 8151, 8151, 8174, 8165, 8187, 8091, 8136, 8303, 9735,4.976121187210083,XXXXX
43, 8063, 8147, 8192, 8223, 8172, 8181, 8174, 8159, 8186, 8189, 8217, 8198, 8264, 9551,4.982494592666626,XXXXX
44, 8262, 8183, 8129, 8083, 8150, 8150, 8159, 8181, 8164, 8179, 8109, 8145, 8293, 9665,4.990331649780273,XXXXX
45, 8140, 8170, 8183, 8179, 8167, 8168, 8161, 8181, 8166, 8191, 8185, 8191, 8284, 9620,4.998871088027954,XXXXX
46, 8082, 8157, 8188, 8208, 8177, 8178, 8172, 8170, 8181, 8193, 8207, 8198, 8271, 9602,5.00673246383667,XXXXX
47, 8315, 8194, 8136, 8093, 8156, 8142, 8157, 8167, 8163, 8175, 8089, 8138, 8303, 9730,5.014686584472656,XXXXX
48, 8098, 8143, 8188, 8203, 8161, 8175, 8168, 8161, 8188, 8186, 8234, 8217, 8261, 9552,5.022512197494507,XXXXX
49, 8228, 8179, 8123, 8073, 8156, 8156, 8159, 8170, 8166, 8189, 8129, 8166, 8283, 9660,5.030429840087891,XXXXX
50, 8133, 8183, 8164, 8147, 8168, 8160, 8159, 8162, 8160, 8183, 8171, 8179, 8283, 9625,5.038437843322754,XXXXX
51, 8073, 8153, 8194, 8212, 8173, 8177, 8168, 8162, 8184, 8187, 8211, 8195, 8267, 9565,5.044717073440552,XXXXX
52, 8335, 8186, 8137, 8094, 8161, 8152, 8160, 8171, 8166, 8185, 8078, 8135, 8304, 9711,5.054129123687744,XXXXX
53, 8074, 8140, 8194, 8225, 8175, 8179, 8171, 8166, 8185, 8188, 8236, 8211, 8265, 9545,5.061647176742554,XXXXX
54, 8185, 8168, 8150, 8119, 8161, 8153, 8157, 8171, 8170, 8177, 8162, 8174, 8285, 9650,5.069378852844238,XXXXX
55, 8189, 8176, 8167, 8143, 8157, 8157, 8156, 8162, 8164, 8178, 8172, 8195, 8291, 9658,5.077327251434326,XXXXX
56, 8075, 8146, 8182, 8210, 8161, 8178, 8167, 8164, 8186, 8188, 8226, 8216, 8261, 9574,5.084811687469482,XXXXX
57, 8299, 8193, 8130, 8084, 8158, 8146, 8153, 8173, 8162, 8181, 8083, 8131, 8299, 9730,5.09274959564209,XXXXX
58, 8073, 8149, 8204, 8223, 8177, 8182, 8168, 8159, 8183, 8189, 8215, 8200, 8274, 9584,5.100729465484619,XXXXX
59, 8185, 8164, 8151, 8142, 8167, 8169, 8163, 8167, 8180, 8188, 8124, 8159, 8289, 9665,5.108611822128296,XXXXX
60, 8212, 8184, 8146, 8134, 8167, 8158, 8161, 8166, 8163, 8184, 8114, 8153, 8295, 9671,5.116529703140259,XXXXX
61, 8054, 8148, 8186, 8213, 8171, 8174, 8168, 8162, 8180, 8184, 8235, 8215, 8262, 9546,5.12439227104187,XXXXX
62, 8284, 8188, 8136, 8088, 8154, 8143, 8149, 8170, 8158, 8181, 8104, 8157, 8296, 9710,5.13235330581665,XXXXX
63, 8051, 8152, 8204, 8231, 8176, 8181, 8164, 8163, 8178, 8193, 8211, 8201, 8266, 9571,5.140423059463501,XXXXX
64, 8151, 8166, 8162, 8159, 8172, 8174, 8163, 8170, 8181, 8189, 8140, 8155, 8276, 9638,5.1482884883880615,XXXXX
65, 8284, 8191, 8137, 8107, 8161, 8154, 8159, 8166, 8166, 8181, 8093, 8142, 8292, 9715,5.156085968017578,XXXXX
66, 8083, 8152, 8172, 8210, 8172, 8178, 8178, 8160, 8188, 8189, 8210, 8203, 8256, 9579,5.16396164894104,XXXXX
67, 8244, 8192, 8122, 8085, 8162, 8148, 8160, 8168, 8164, 8187, 8095, 8145, 8297, 9708,5.171850204467773,XXXXX
68, 8043, 8158, 8198, 8205, 8167, 8172, 8162, 8159, 8175, 8186, 8222, 8209, 8278, 9571,5.179483652114868,XXXXX
69, 8136, 8158, 8175, 8169, 8160, 8172, 8163, 8167, 8178, 8182, 8175, 8181, 8280, 9618,5.1873815059661865,XXXXX
70, 8302, 8188, 8145, 8117, 8162, 8157, 8156, 8169, 8159, 8183, 8094, 8138, 8304, 9737,5.195125102996826,XXXXX
71, 8070, 8145, 8195, 8241, 8177, 8184, 8167, 8164, 8184, 8192, 8228, 8201, 8266, 9586,5.203102111816406,XXXXX
72, 8271, 8186, 8131, 8102, 8161, 8155, 8159, 8171, 8166, 8181, 8089, 8139, 8296, 9715,5.210852384567261,XXXXX
73, 8147, 8169, 8168, 8175, 8168, 8173, 8169, 8160, 8172, 8184, 8168, 8184, 8277, 9626,5.218708038330078,XXXXX
74, 8155, 8161, 8160, 8154, 8157, 8164, 8162, 8164, 8175, 8186, 8186, 8190, 8270, 9620,5.228140115737915,XXXXX
75, 8284, 8185, 8155, 8111, 8156, 8145, 8153, 8168, 8153, 8180, 8134, 8167, 8298, 9700,5.236000061035156,XXXXX
76, 8028, 8140, 8220, 8252, 8182, 8189, 8177, 8169, 8184, 8189, 8267, 8231, 8260, 9548,5.242214918136597,XXXXX
77, 8247, 8188, 8141, 8099, 8163, 8155, 8162, 8182, 8173, 8182, 8103, 8143, 8292, 9727,5.250042676925659,XXXXX
78, 8169, 8177, 8177, 8176, 8165, 8167, 8163, 8165, 8174, 8184, 8157, 8171, 8279, 9663,5.257758617401123,XXXXX
79, 8131, 8152, 8183, 8196, 8168, 8185, 8168, 8169, 8181, 8189, 8188, 8186, 8264, 9612,5.26562762260437,XXXXX
80, 8309, 8184, 8139, 8098, 8163, 8153, 8160, 8184, 8160, 8181, 8090, 8133, 8297, 9733,5.274853467941284,XXXXX
81, 8077, 8141, 8189, 8224, 8176, 8174, 8171, 8169, 8187, 8190, 8225, 8201, 8265, 9571,5.282806158065796,XXXXX
82, 8261, 8185, 8118, 8077, 8159, 8151, 8156, 8166, 8173, 8190, 8089, 8145, 8297, 9679,5.29067325592041,XXXXX
83, 8171, 8180, 8156, 8135, 8160, 8162, 8161, 8164, 8164, 8185, 8146, 8176, 8289, 9614,5.29801869392395,XXXXX
84, 8074, 8147, 8182, 8205, 8166, 8176, 8171, 8171, 8177, 8182, 8225, 8200, 8265, 9566,5.306021213531494,XXXXX
85, 8263, 8190, 8133, 8104, 8158, 8149, 8154, 8175, 8156, 8180, 8101, 8143, 8298, 9730,5.313894271850586,XXXXX
86, 8032, 8151, 8202, 8230, 8172, 8178, 8164, 8164, 8186, 8188, 8226, 8214, 8258, 9569,5.321690320968628,XXXXX
87, 8224, 8174, 8150, 8116, 8160, 8155, 8157, 8174, 8179, 8180, 8130, 8158, 8281, 9651,5.329461574554443,XXXXX
88, 8202, 8173, 8154, 8141, 8162, 8159, 8160, 8169, 8166, 8183, 8153, 8172, 8288, 9617,5.337189435958862,XXXXX
89, 8066, 8148, 8170, 8200, 8173, 8177, 8170, 8169, 8184, 8189, 8221, 8212, 8259, 9547,5.345019340515137,XXXXX
90, 8289, 8194, 8133, 8090, 8167, 8145, 8156, 8180, 8166, 8178, 8102, 8146, 8293, 9716,5.3527748584747314,XXXXX
91, 8082, 8150, 8205, 8233, 8180, 8177, 8166, 8171, 8182, 8188, 8227, 8204, 8265, 9571,5.360799312591553,XXXXX
92, 8216, 8171, 8142, 8132, 8166, 8159, 8160, 8170, 8176, 8191, 8124, 8162, 8282, 9652,5.368632555007935,XXXXX
93, 8193, 8186, 8144, 8130, 8158, 8155, 8156, 8164, 8171, 8182, 8140, 8178, 8287, 9646,5.376588582992554,XXXXX
94, 8018, 8151, 8186, 8216, 8166, 8181, 8168, 8166, 8191, 8184, 8248, 8223, 8260, 9540,5.384572505950928,XXXXX
95, 8309, 8194, 8134, 8090, 8162, 8148, 8156, 8175, 8164, 8181, 8082, 8134, 8301, 9722,5.392712354660034,XXXXX
96, 8098, 8155, 8199, 8224, 8177, 8179, 8171, 8162, 8181, 8188, 8208, 8192, 8264, 9566,5.400708436965942,XXXXX
97, 8128, 8162, 8154, 8149, 8160, 8169, 8166, 8172, 8179, 8181, 8167, 8176, 8273, 9624,5.408720016479492,XXXXX
98, 8219, 8184, 8144, 8108, 8156, 8152, 8157, 8167, 8161, 8173, 8119, 8163, 8297, 9702,5.416656970977783,XXXXX
99, 8060, 8148, 8187, 8206, 8171, 8172, 8170, 8158, 8188, 8184, 8228, 8215, 8263, 9558,5.4247214794158936,XXXXX
100, 8271, 8189, 8134, 8086, 8160, 8144, 8158, 8170, 8172, 8180, 8113, 8157, 8294, 9708,5.432631492614746,XXXXX
101, 8100, 8161, 8198, 8211, 8178, 8175, 8170, 8163, 8183, 8182, 8221, 8210, 8270, 9625,5.440698862075806,XXXXX
102, 8184, 8171, 8160, 8153, 8171, 8170, 8169, 8167, 8178, 8182, 8154, 8168, 8273, 9665,5.446930170059204,XXXXX
103, 8280, 8194, 8137, 8107, 8161, 8154, 8159, 8166, 8158, 8183, 8095, 8148, 8294, 9679,5.454856872558594,XXXXX
104, 8024, 8142, 8203, 8239, 8170, 8183, 8174, 8158, 8192, 8188, 8254, 8234, 8257, 9495,5.462753772735596,XXXXX
105, 8247, 8186, 8136, 8086, 8158, 8149, 8160, 8168, 8171, 8180, 8122, 8168, 8292, 9689,5.470728158950806,XXXXX
106, 8129, 8164, 8167, 8167, 8172, 8170, 8163, 8166, 8170, 8186, 8190, 8202, 8274, 9624,5.478747606277466,XXXXX
107, 8154, 8152, 8166, 8168, 8168, 8168, 8163, 8171, 8180, 8180, 8183, 8187, 8274, 9615,5.486695289611816,XXXXX
108, 8287, 8185, 8160, 8119, 8163, 8143, 8159, 8170, 8167, 8174, 8125, 8152, 8298, 9708,5.496215105056763,XXXXX
109, 8043, 8144, 8209, 8245, 8180, 8180, 8173, 8164, 8185, 8189, 8242, 8216, 8257, 9569,5.502628803253174,XXXXX
110, 8273, 8182, 8135, 8110, 8164, 8156, 8155, 8173, 8164, 8181, 8075, 8136, 8299, 9733,5.51048731803894,XXXXX
111, 8168, 8166, 8176, 8188, 8168, 8168, 8163, 8167, 8171, 8182, 8154, 8171, 8290, 9649,5.518431186676025,XXXXX
112, 8123, 8153, 8158, 8164, 8168, 8172, 8165, 8172, 8179, 8189, 8191, 8192, 8268, 9592,5.526330471038818,XXXXX
113, 8310, 8189, 8114, 8060, 8159, 8147, 8150, 8170, 8159, 8181, 8099, 8156, 8295, 9695,5.534334421157837,XXXXX
114, 8061, 8141, 8189, 8221, 8169, 8180, 8170, 8163, 8189, 8186, 8242, 8221, 8259, 9546,5.542062044143677,XXXXX
115, 8213, 8176, 8134, 8101, 8153, 8154, 8161, 8179, 8172, 8181, 8114, 8154, 8287, 9694,5.549782991409302,XXXXX
116, 8137, 8170, 8167, 8149, 8159, 8161, 8158, 8172, 8169, 8181, 8168, 8189, 8283, 9634,5.559277296066284,XXXXX
117, 8092, 8148, 8180, 8194, 8167, 8170, 8163, 8172, 8183, 8184, 8234, 8213, 8268, 9575,5.565719842910767,XXXXX
118, 8300, 8191, 8144, 8104, 8162, 8143, 8154, 8178, 8154, 8178, 8121, 8149, 8302, 9740,5.573460817337036,XXXXX
119, 8053, 8154, 8214, 8244, 8180, 8179, 8174, 8165, 8179, 8183, 8235, 8208, 8261, 9596,5.581088542938232,XXXXX
120, 8235, 8187, 8140, 8124, 8164, 8158, 8165, 8173, 8172, 8181, 8109, 8142, 8283, 9699,5.588726282119751,XXXXX
121, 8224, 8182, 8158, 8156, 8165, 8162, 8157, 8167, 8163, 8182, 8144, 8156, 8287, 9672,5.598235368728638,XXXXX
122, 8106, 8146, 8192, 8207, 8174, 8180, 8162, 8167, 8182, 8184, 8211, 8192, 8264, 9605,5.6059181690216064,XXXXX
123, 8290, 8190, 8127, 8072, 8158, 8143, 8158, 8178, 8162, 8183, 8063, 8131, 8301, 9736,5.613696336746216,XXXXX
124, 8035, 8150, 8180, 8209, 8164, 8168, 8173, 8163, 8185, 8193, 8220, 8208, 8264, 9531,5.621457099914551,XXXXX
125, 8185, 8170, 8155, 8129, 8164, 8153, 8157, 8165, 8178, 8179, 8174, 8183, 8279, 9620,5.629229307174683,XXXXX
126, 8216, 8182, 8176, 8141, 8172, 8159, 8155, 8171, 8166, 8177, 8166, 8187, 8288, 9687,5.637050151824951,XXXXX
127, 8072, 8151, 8192, 8215, 8171, 8185, 8171, 8176, 8186, 8196, 8222, 8206, 8264, 9606,5.644968032836914,XXXXX
239, 8292, 8194, 8133, 8089, 8161, 8151, 8156, 8172, 8165, 8189, 8085, 8129, 8301, 9711,5.652693271636963,XXXXX
0, 8066, 8148, 8201, 8220, 8179, 8177, 8165, 8156, 8181, 8184, 8232, 8210, 8265, 9535,5.660525560379028,XXXXX
1, 8160, 8156, 8164, 8137, 8161, 8158, 8161, 8174, 8172, 8184, 8172, 8188, 8273, 9622,5.668410778045654,XXXXX
2, 8201, 8179, 8160, 8123, 8163, 8150, 8162, 8176, 8157, 8187, 8134, 8167, 8290, 9674,5.67634654045105,XXXXX
3, 8031, 8146, 8191, 8225, 8179, 8185, 8174, 8167, 8185, 8188, 8230, 8204, 8260, 9555,5.6843180656433105,XXXXX
4, 8300, 8195, 8130, 8081, 8159, 8150, 8153, 8176, 8165, 8177, 8087, 8134, 8299, 9711,5.692353963851929,XXXXX
5, 8113, 8156, 8197, 8200, 8169, 8171, 8164, 8167, 8177, 8185, 8211, 8201, 8271, 9567,5.6999006271362305,XXXXX
6, 8150, 8153, 8163, 8156, 8164, 8167, 8163, 8167, 8178, 8187, 8173, 8180, 8274, 9611,5.707760810852051,XXXXX
7, 8237, 8184, 8146, 8120, 8159, 8153, 8159, 8166, 8163, 8182, 8115, 8156, 8297, 9698,5.715571165084839,XXXXX
8, 8043, 8147, 8195, 8224, 8173, 8176, 8176, 8163, 8188, 8185, 8230, 8217, 8263, 9546,5.723384141921997,XXXXX
9, 8279, 8186, 8127, 8072, 8157, 8142, 8156, 8166, 8165, 8178, 8091, 8145, 8296, 9680,5.731083869934082,XXXXX
10, 8104, 8161, 8187, 8189, 8162, 8171, 8160, 8158, 8172, 8183, 8200, 8195, 8269, 9585,5.7388575077056885,XXXXX
11, 8123, 8161, 8173, 8178, 8166, 8174, 8163, 8172, 8182, 8186, 8181, 8182, 8268, 9617,5.74683690071106,XXXXX
12, 8277, 8186, 8142, 8106, 8169, 8149, 8154, 8170, 8163, 8186, 8095, 8138, 8304, 9699,5.754821538925171,XXXXX
13, 8043, 8139, 8199, 8220, 8174, 8176, 8166, 8157, 8186, 8193, 8239, 8211, 8263, 9527,5.76278829574585,XXXXX
14, 8247, 8184, 8137, 8090, 8156, 8147, 8154, 8174, 8167, 8179, 8117, 8152, 8290, 9692,5.770688533782959,XXXXX
15, 8110, 8167, 8187, 8192, 8173, 8168, 8163, 8172, 8172, 8180, 8186, 8185, 8278, 9617,5.778364419937134,XXXXX
16, 8087, 8155, 8176, 8190, 8170, 8175, 8168, 8170, 8185, 8187, 8181, 8181, 8268, 9593,5.785829544067383,XXXXX
17, 8312, 8198, 8123, 8085, 8156, 8148, 8154, 8166, 8163, 8183, 8084, 8142, 8296, 9726,5.7937328815460205,XXXXX
18, 8093, 8150, 8178, 8206, 8171, 8174, 8170, 8161, 8185, 8192, 8236, 8221, 8262, 9563,5.801747798919678,XXXXX
19, 8222, 8179, 8134, 8087, 8158, 8144, 8165, 8181, 8169, 8186, 8124, 8161, 8295, 9679,5.8097100257873535,XXXXX
20, 8101, 8173, 8183, 8174, 8162, 8158, 8166, 8165, 8174, 8182, 8197, 8198, 8281, 9626,5.818950176239014,XXXXX
21, 8069, 8152, 8181, 8200, 8162, 8168, 8162, 8161, 8187, 8184, 8224, 8204, 8263, 9593,5.826766490936279,XXXXX
22, 8297, 8188, 8131, 8082, 8156, 8142, 8148, 8179, 8157, 8179, 8072, 8120, 8302, 9737,5.832989692687988,XXXXX
23, 8054, 8142, 8204, 8230, 8178, 8185, 8170, 8172, 8179, 8186, 8210, 8192, 8268, 9557,5.840683937072754,XXXXX
24, 8225, 8172, 8149, 8122, 8164, 8161, 8161, 8170, 8170, 8181, 8128, 8161, 8293, 9664,5.850037336349487,XXXXX
25, 8185, 8173, 8167, 8153, 8162, 8156, 8157, 8165, 8165, 8182, 8167, 8185, 8290, 9651,5.857868432998657,XXXXX
26, 8071, 8147, 8187, 8205, 8170, 8172, 8163, 8171, 8186, 8190, 8228, 8203, 8266, 9579,5.865718841552734,XXXXX
27, 8299, 8193, 8141, 8095, 8163, 8142, 8151, 8172, 8164, 8184, 8108, 8148, 8303, 9728,5.873625755310059,XXXXX
28, 8079, 8157, 8204, 8230, 8177, 8173, 8170, 8164, 8179, 8184, 8228, 8211, 8266, 9595,5.87992262840271,XXXXX
29, 8217, 8181, 8152, 8127, 8167, 8160, 8165, 8178, 8174, 8179, 8104, 8139, 8280, 9699,5.8877949714660645,XXXXX
30, 8216, 8181, 8153, 8140, 8166, 8159, 8156, 8168, 8168, 8189, 8113, 8147, 8291, 9662,5.895732641220093,XXXXX
31, 8058, 8141, 8183, 8224, 8169, 8178, 8164, 8163, 8184, 8194, 8243, 8217, 8263, 9530,5.90530800819397,XXXXX
32, 8269, 8188, 8151, 8107, 8160, 8148, 8157, 8174, 8160, 8179, 8130, 8161, 8295, 9709,5.911746978759766,XXXXX
33, 8067, 8156, 8220, 8229, 8179, 8173, 8166, 8166, 8185, 8186, 8237, 8211, 8267, 9598,5.921094655990601,XXXXX
34, 8208, 8170, 8159, 8138, 8172, 8160, 8154, 8170, 8182, 8187, 8141, 8159, 8283, 9668,5.928816080093384,XXXXX
35, 8250, 8181, 8152, 8130, 8171, 8158, 8159, 8166, 8166, 8183, 8120, 8150, 8295, 9668,5.936856746673584,XXXXX
36, 8041, 8141, 8199, 8223, 8171, 8179, 8175, 8163, 8186, 8189, 8235, 8212, 8262, 9533,5.944827079772949,XXXXX
37, 8262, 8186, 8143, 8093, 8153, 8145, 8151, 8169, 8161, 8183, 8104, 8151, 8302, 9720,5.952910900115967,XXXXX
38, 8067, 8154, 8201, 8225, 8175, 8179, 8161, 8162, 8178, 8184, 8219, 8202, 8274, 9605,5.9592907428741455,XXXXX
39, 8167, 8163, 8156, 8147, 8171, 8168, 8164, 8170, 8179, 8179, 8152, 8168, 8276, 9641,5.966914653778076,XXXXX
40, 8288, 8187, 8140, 8101, 8166, 8148, 8154, 8170, 8158, 8175, 8100, 8151, 8291, 9702,5.974742650985718,XXXXX
41, 8052, 8146, 8201, 8231, 8179, 8182, 8163, 8169, 8184, 8184, 8219, 8208, 8257, 9566,5.984121799468994,XXXXX
42, 8273, 8194, 8125, 8079, 8162, 8152, 8152, 8179, 8168, 8181, 8063, 8128, 8303, 9720,5.991642951965332,XXXXX
43, 8140, 8166, 8164, 8169, 8167, 8167, 8164, 8162, 8178, 8192, 8181, 8192, 8283, 9598,5.999510765075684,XXXXX
44, 8149, 8155, 8160, 8155, 8162, 8165, 8165, 8165, 8181, 8191, 8197, 8201, 8272, 9612,6.007362127304077,XXXXX
45, 8240, 8187, 8154, 8111, 8155, 8152, 8157, 8171, 8161, 8178, 8133, 8166, 8295, 9706,6.01474928855896,XXXXX
46, 8026, 8147, 8201, 8225, 8164, 8181, 8171, 8165, 8184, 8186, 8252, 8215, 8264, 9556,6.024033784866333,XXXXX
47, 8269, 8186, 8129, 8086, 8157, 8146, 8154, 8170, 8162, 8185, 8114, 8147, 8300, 9706,6.0303568840026855,XXXXX
48, 8134, 8166, 8188, 8195, 8171, 8168, 8159, 8162, 8168, 8186, 8199, 8196, 8281, 9623,6.03807258605957,XXXXX
49, 8113, 8157, 8192, 8201, 8173, 8177, 8166, 8169, 8184, 8181, 8190, 8182, 8273, 9638,6.045896291732788,XXXXX
50, 8286, 8189, 8153, 8113, 8168, 8152, 8158, 8169, 8162, 8178, 8080, 8123, 8305, 9767,6.0550031661987305,XXXXX
51, 8078, 8145, 8192, 8228, 8175, 8182, 8168, 8162, 8182, 8188, 8217, 8197, 8265, 9583,6.061738014221191,XXXXX
52, 8290, 8191, 8119, 8087, 8160, 8154, 8157, 8177, 8171, 8180, 8094, 8142, 8292, 9690,6.069645643234253,XXXXX
53, 8179, 8177, 8163, 8160, 8173, 8166, 8167, 8164, 8179, 8182, 8152, 8176, 8282, 9622,6.0792412757873535,XXXXX
54, 8109, 8148, 8164, 8181, 8169, 8173, 8172, 8162, 8189, 8187, 8188, 8189, 8267, 9584,6.087152004241943,XXXXX
55, 8268, 8192, 8126, 8089, 8154, 8146, 8158, 8179, 8158, 8181, 8103, 8148, 8302, 9701,6.09311318397522,XXXXX
56, 8024, 8153, 8210, 8248, 8175, 8181, 8175, 8171, 8177, 8190, 8250, 8220, 8261, 9551,6.100913763046265,XXXXX
57, 8240, 8178, 8145, 8114, 8167, 8157, 8162, 8170, 8166, 8181, 8105, 8138, 8288, 9684,6.108844757080078,XXXXX
58, 8181, 8170, 8151, 8135, 8166, 8162, 8161, 8166, 8171, 8178, 8142, 8162, 8290, 9618,6.1166369915008545,XXXXX
59, 8067, 8149, 8171, 8192, 8170, 8176, 8175, 8172, 8189, 8184, 8224, 8211, 8265, 9542,6.1256513595581055,XXXXX
60, 8304, 8199, 8138, 8098, 8163, 8143, 8163, 8172, 8157, 8181, 8091, 8142, 8298, 9718,6.133518218994141,XXXXX
61, 8082, 8153, 8204, 8237, 8178, 8178, 8170, 8162, 8175, 8191, 8207, 8193, 8265, 9571,6.141636610031128,XXXXX
62, 8204, 8170, 8135, 8118, 8161, 8157, 8159, 8177, 8168, 8186, 8115, 8155, 8287, 9653,6.149457931518555,XXXXX
63, 8166, 8177, 8146, 8127, 8158, 8150, 8160, 8169, 8167, 8177, 8158, 8188, 8290, 9622,6.155834436416626,XXXXX
64, 8033, 8144, 8193, 8205, 8167, 8174, 8170, 8165, 8192, 8183, 8251, 8224, 8259, 9517,6.163655519485474,XXXXX
65, 8307, 8185, 8144, 8087, 8160, 8148, 8152, 8176, 8160, 8183, 8087, 8138, 8297, 9720,6.171803712844849,XXXXX
66, 8104, 8154, 8189, 8214, 8175, 8177, 8164, 8166, 8171, 8186, 8194, 8195, 8269, 9613,6.180775165557861,XXXXX
67, 8203, 8175, 8142, 8131, 8167, 8164, 8165, 8168, 8177, 8180, 8135, 8165, 8283, 9661,6.188691139221191,XXXXX
68, 8246, 8179, 8155, 8126, 8163, 8160, 8166, 8164, 8170, 8182, 8135, 8168, 8292, 9657,6.196553468704224,XXXXX
69, 8065, 8141, 8187, 8202, 8163, 8179, 8168, 8163, 8179, 8188, 8230, 8215, 8265, 9550,6.204561471939087,XXXXX
70, 8273, 8189, 8129, 8074, 8150, 8141, 8156, 8169, 8155, 8182, 8102, 8158, 8306, 9727,6.212464332580566,XXXXX
71, 8067, 8149, 8197, 8219, 8172, 8171, 8181, 8160, 8180, 8193, 8234, 8222, 8272, 9584,6.22050666809082,XXXXX
72, 8163, 8163, 8156, 8152, 8170, 8166, 8168, 8166, 8178, 8192, 8163, 8178, 8275, 9638,6.226721286773682,XXXXX
73, 8260, 8193, 8152, 8117, 8170, 8156, 8151, 8167, 8159, 8183, 8116, 8156, 8297, 9708,6.23625111579895,XXXXX
74, 8050, 8144, 8210, 8240, 8179, 8182, 8171, 8164, 8185, 8188, 8245, 8210, 8263, 9579,6.243988990783691,XXXXX
75, 8282, 8184, 8141, 8109, 8161, 8149, 8156, 8169, 8158, 8185, 8091, 8130, 8298, 9753,6.251798391342163,XXXXX
76, 8129, 8164, 8182, 8206, 8174, 8173, 8162, 8164, 8171, 8190, 8178, 8183, 8274, 9633,6.259414911270142,XXXXX
77, 8177, 8164, 8149, 8148, 8165, 8166, 8167, 8175, 8187, 8182, 8157, 8175, 8275, 9619,6.267185926437378,XXXXX
78, 8295, 8187, 8134, 8090, 8155, 8147, 8158, 8170, 8168, 8177, 8107, 8153, 8296, 9686,6.274922132492065,XXXXX
79, 8074, 8148, 8191, 8212, 8173, 8184, 8167, 8159, 8182, 8190, 8224, 8214, 8259, 9562,6.282690048217773,XXXXX
80, 8258, 8195, 8119, 8072, 8159, 8154, 8153, 8173, 8159, 8182, 8084, 8141, 8301, 9706,6.2906622886657715,XXXXX
81, 8064, 8167, 8186, 8189, 8163, 8167, 8160, 8163, 8168, 8181, 8215, 8199, 8279, 9559,6.298852920532227,XXXXX
82, 8089, 8153, 8195, 8198, 8167, 8171, 8164, 8169, 8178, 8189, 8229, 8208, 8267, 9575,6.306726455688477,XXXXX
83, 8294, 8191, 8158, 8115, 8168, 8157, 8154, 8175, 8159, 8189, 8111, 8150, 8300, 9753,6.314565896987915,XXXXX
84, 8047, 8144, 8207, 8241, 8179, 8189, 8168, 8164, 8182, 8191, 8221, 8191, 8265, 9599,6.3224029541015625,XXXXX
85, 8254, 8181, 8131, 8095, 8163, 8156, 8159, 8170, 8167, 8180, 8080, 8125, 8294, 9708,6.330360651016235,XXXXX
86, 8190, 8169, 8161, 8157, 8171, 8163, 8166, 8162, 8173, 8190, 8157, 8174, 8281, 9646,6.338212013244629,XXXXX
87, 8133, 8149, 8170, 8177, 8166, 8170, 8168, 8169, 8187, 8196, 8192, 8190, 8269, 9620,6.346156358718872,XXXXX
88, 8250, 8189, 8130, 8081, 8151, 8150, 8158, 8182, 8162, 8181, 8081, 8143, 8304, 9701,6.354085683822632,XXXXX
89, 8007, 8147, 8180, 8215, 8165, 8182, 8175, 8172, 8187, 8187, 8235, 8222, 8265, 9515,6.36208963394165,XXXXX
90, 8254, 8179, 8133, 8109, 8161, 8148, 8159, 8169, 8176, 8188, 8132, 8161, 8289, 9667,6.369696140289307,XXXXX
91, 8203, 8168, 8181, 8175, 8174, 8161, 8156, 8161, 8169, 8182, 8155, 8169, 8286, 9634,6.377526521682739,XXXXX
92, 8088, 8144, 8173, 8195, 8171, 8183, 8166, 8169, 8182, 8176, 8187, 8183, 8267, 9566,6.385266304016113,XXXXX
93, 8271, 8190, 8118, 8071, 8153, 8146, 8157, 8173, 8160, 8175, 8089, 8143, 8302, 9699,6.392949342727661,XXXXX
94, 8008, 8147, 8212, 8229, 8172, 8170, 8171, 8160, 8183, 8190, 8261, 8237, 8263, 9523,6.401079177856445,XXXXX
95, 8195, 8170, 8168, 8128, 8161, 8152, 8156, 8170, 8174, 8186, 8159, 8175, 8282, 9664,6.408818483352661,XXXXX
96, 8225, 8179, 8173, 8149, 8160, 8160, 8155, 8169, 8166, 8184, 8148, 8157, 8290, 9710,6.418062210083008,XXXXX
97, 8080, 8152, 8190, 8216, 8168, 8185, 8171, 8168, 8187, 8187, 8199, 8185, 8271, 9604,6.424201011657715,XXXXX
98, 8307, 8190, 8126, 8087, 8157, 8156, 8157, 8167, 8168, 8175, 8067, 8132, 8307, 9725,6.431916236877441,XXXXX
99, 8134, 8152, 8175, 8202, 8173, 8180, 8167, 8156, 8181, 8183, 8203, 8198, 8271, 9594,6.43993616104126,XXXXX
100, 8229, 8175, 8133, 8112, 8165, 8157, 8162, 8174, 8170, 8183, 8127, 8153, 8285, 9669,6.44782567024231,XXXXX
101, 8170, 8177, 8156, 8134, 8162, 8155, 8157, 8170, 8168, 8179, 8146, 8174, 8291, 9635,6.455730199813843,XXXXX
102, 8009, 8139, 8187, 8215, 8166, 8178, 8167, 8161, 8190, 8187, 8249, 8231, 8260, 9520,6.465059995651245,XXXXX
103, 8281, 8195, 8123, 8070, 8157, 8141, 8157, 8172, 8154, 8183, 8088, 8141, 8301, 9719,6.473120927810669,XXXXX
104, 8076, 8160, 8197, 8219, 8172, 8173, 8169, 8163, 8175, 8191, 8201, 8187, 8272, 9592,6.481003046035767,XXXXX
105, 8163, 8164, 8161, 8161, 8164, 8167, 8161, 8173, 8181, 8189, 8143, 8159, 8279, 9633,6.487379550933838,XXXXX
106, 8227, 8181, 8140, 8108, 8169, 8155, 8156, 8175, 8158, 8181, 8115, 8157, 8295, 9656,6.4945762157440186,XXXXX
107, 8028, 8139, 8189, 8208, 8175, 8175, 8163, 8166, 8183, 8187, 8251, 8226, 8259, 9523,6.504000425338745,XXXXX
108, 8272, 8186, 8143, 8097, 8155, 8141, 8145, 8174, 8167, 8182, 8113, 8152, 8297, 9717,6.511925458908081,XXXXX
109, 8104, 8159, 8192, 8212, 8177, 8175, 8164, 8171, 8175, 8185, 8194, 8186, 8275, 9617,6.5197906494140625,XXXXX
110, 8163, 8161, 8147, 8147, 8175, 8176, 8170, 8171, 8180, 8184, 8147, 8162, 8275, 9628,6.527711391448975,XXXXX
111, 8266, 8193, 8133, 8093, 8159, 8153, 8156, 8163, 8167, 8182, 8105, 8157, 8291, 9670,6.5356221199035645,XXXXX
112, 8027, 8148, 8204, 8225, 8167, 8181, 8168, 8165, 8183, 8188, 8254, 8229, 8255, 9521,6.543040752410889,XXXXX
113, 8276, 8180, 8155, 8117, 8163, 8153, 8160, 8182, 8157, 8178, 8116, 8145, 8302, 9725,6.551055908203125,XXXXX
114, 8164, 8157, 8196, 8218, 8176, 8172, 8168, 8170, 8174, 8182, 8185, 8179, 8285, 9648,6.558816909790039,XXXXX
115, 8161, 8159, 8151, 8155, 8168, 8170, 8165, 8168, 8183, 8183, 8158, 8177, 8272, 9611,6.566704034805298,XXXXX
116, 8306, 8198, 8115, 8069, 8160, 8147, 8157, 8167, 8157, 8184, 8077, 8148, 8301, 9693,6.5745837688446045,XXXXX
117, 8056, 8147, 8192, 8228, 8177, 8180, 8176, 8163, 8186, 8198, 8233, 8223, 8261, 9544,6.582518100738525,XXXXX
118, 8227, 8178, 8133, 8098, 8161, 8153, 8157, 8175, 8172, 8185, 8112, 8154, 8290, 9698,6.590353727340698,XXXXX
119, 8124, 8165, 8170, 8162, 8167, 8163, 8152, 8164, 8171, 8183, 8183, 8190, 8283, 9636,6.598174095153809,XXXXX
120, 8138, 8156, 8171, 8177, 8171, 8165, 8163, 8169, 8179, 8187, 8195, 8196, 8273, 9618,6.605907678604126,XXXXX
121, 8327, 8188, 8139, 8103, 8166, 8149, 8158, 8176, 8158, 8182, 8084, 8141, 8298, 9724,6.61344575881958,XXXXX
122, 8043, 8134, 8201, 8238, 8176, 8189, 8168, 8163, 8187, 8191, 8223, 8207, 8260, 9540,6.621107578277588,XXXXX
123, 8224, 8173, 8124, 8086, 8158, 8156, 8156, 8167, 8176, 8186, 8098, 8150, 8295, 9680,6.6288604736328125,XXXXX
124, 8186, 8173, 8147, 8134, 8164, 8163, 8165, 8161, 8170, 8178, 8146, 8183, 8290, 9648,6.636590480804443,XXXXX
125, 8099, 8150, 8166, 8177, 8168, 8178, 8169, 8164, 8181, 8178, 8202, 8201, 8267, 9587,6.645934581756592,XXXXX
126, 8240, 8190, 8133, 8081, 8158, 8148, 8153, 8169, 8157, 8179, 8103, 8148, 8298, 9701,6.653592348098755,XXXXX
127, 7996, 8150, 8204, 8238, 8170, 8180, 8171, 8157, 8182, 8190, 8250, 8221, 8262, 9529,6.6616339683532715,XXXXX
239, 8228, 8179, 8141, 8126, 8162, 8160, 8161, 8169, 8175, 8182, 8120, 8151, 8288, 9680,6.669416189193726,XXXXX
0, 8225, 8180, 8161, 8149, 8173, 8162, 8162, 8176, 8165, 8181, 8129, 8152, 8287, 9707,6.6772987842559814,XXXXX
1, 8091, 8153, 8187, 8209, 8178, 8177, 8175, 8176, 8181, 8186, 8204, 8188, 8260, 9612,6.6852052211761475,XXXXX
2, 8286, 8194, 8127, 8086, 8157, 8143, 8158, 8174, 8165, 8181, 8078, 8142, 8301, 9704,6.691723346710205,XXXXX
3, 8030, 8145, 8189, 8220, 8169, 8171, 8170, 8166, 8188, 8189, 8231, 8226, 8269, 9517,6.700968027114868,XXXXX
4, 8179, 8162, 8161, 8139, 8165, 8154, 8164, 8177, 8172, 8183, 8167, 8183, 8280, 9639,6.708929538726807,XXXXX
5, 8238, 8178, 8181, 8154, 8172, 8158, 8157, 8166, 8156, 8179, 8157, 8167, 8288, 9703,6.716737508773804,XXXXX
6, 8091, 8150, 8193, 8223, 8178, 8185, 8167, 8160, 8186, 8186, 8217, 8197, 8261, 9595,6.724675893783569,XXXXX
7, 8296, 8195, 8119, 8083, 8161, 8151, 8154, 8169, 8170, 8180, 8069, 8130, 8302, 9698,6.7325215339660645,XXXXX
8, 8073, 8154, 8192, 8214, 8172, 8178, 8165, 8159, 8178, 8188, 8222, 8203, 8278, 9532,6.740430116653442,XXXXX
9, 8172, 8165, 8162, 8143, 8163, 8163, 8163, 8169, 8167, 8187, 8176, 8181, 8287, 9624,6.74813985824585,XXXXX
10, 8215, 8187, 8153, 8129, 8168, 8154, 8158, 8167, 8161, 8178, 8130, 8166, 8295, 9675,6.755970478057861,XXXXX
11, 8028, 8149, 8189, 8228, 8182, 8187, 8169, 8158, 8193, 8183, 8217, 8202, 8263, 9540,6.763768434524536,XXXXX
12, 8316, 8189, 8129, 8079, 8161, 8155, 8162, 8166, 8164, 8185, 8080, 8133, 8300, 9716,6.771777391433716,XXXXX
13, 8147, 8152, 8182, 8192, 8172, 8178, 8179, 8157, 8176, 8196, 8206, 8204, 8267, 9602,6.779678583145142,XXXXX
14, 8143, 8158, 8145, 8146, 8172, 8172, 8167, 8162, 8188, 8187, 8166, 8184, 8275, 9632,6.787497520446777,XXXXX
15, 8198, 8185, 8142, 8113, 8164, 8153, 8149, 8166, 8166, 8175, 8123, 8165, 8302, 9687,6.795396089553833,XXXXX
16, 8004, 8138, 8199, 8230, 8168, 8179, 8169, 8167, 8182, 8189, 8256, 8227, 8257, 9538,6.803215980529785,XXXXX
17, 8282, 8182, 8130, 8090, 8158, 8149, 8166, 8175, 8169, 8185, 8105, 8147, 8289, 9723,6.811001300811768,XXXXX
18, 8136, 8162, 8191, 8207, 8178, 8175, 8174, 8163, 8183, 8185, 8187, 8190, 8277, 9639,6.818775415420532,XXXXX
19, 8122, 8162, 8171, 8175, 8176, 8178, 8169, 8167, 8182, 8184, 8156, 8168, 8280, 9644,6.8268373012542725,XXXXX
20, 8275, 8194, 8137, 8095, 8168, 8147, 8155, 8170, 8159, 8180, 8079, 8130, 8304, 9734,6.834815502166748,XXXXX
21, 8090, 8142, 8195, 8220, 8179, 8172, 8172, 8164, 8189, 8188, 8230, 8210, 8261, 9571,6.842723369598389,XXXXX
22, 8274, 8178, 8119, 8074, 8161, 8153, 8160, 8171, 8171, 8179, 8100, 8144, 8295, 9692,6.850503206253052,XXXXX
23, 8092, 8167, 8160, 8163, 8165, 8174, 8164, 8164, 8173, 8182, 8179, 8187, 8282, 9579,6.858169078826904,XXXXX
24, 8096, 8162, 8171, 8184, 8164, 8172, 8167, 8174, 8181, 8188, 8201, 8199, 8269, 9572,6.865857124328613,XXXXX
25, 8313, 8199, 8144, 8101, 8161, 8147, 8155, 8177, 8158, 8180, 8099, 8145, 8298, 9724,6.873637914657593,XXXXX
26, 8057, 8148, 8207, 8228, 8178, 8184, 8171, 8163, 8185, 8184, 8226, 8207, 8261, 9562,6.881576061248779,XXXXX
27, 8223, 8178, 8140, 8096, 8159, 8156, 8161, 8171, 8170, 8178, 8105, 8156, 8292, 9671,6.889515399932861,XXXXX
28, 8127, 8168, 8165, 8159, 8158, 8160, 8162, 8167, 8167, 8183, 8178, 8195, 8285, 9609,6.8975512981414795,XXXXX
29, 8075, 8148, 8182, 8190, 8167, 8168, 8165, 8170, 8184, 8190, 8226, 8206, 8264, 9574,6.905352354049683,XXXXX
30, 8307, 8194, 8151, 8098, 8166, 8144, 8154, 8172, 8166, 8181, 8090, 8137, 8298, 9715,6.9129204750061035,XXXXX
31, 8065, 8151, 8200, 8232, 8176, 8181, 8170, 8164, 8186, 8184, 8207, 8199, 8260, 9547,6.920801639556885,XXXXX
32, 8218, 8178, 8130, 8097, 8155, 8152, 8157, 8181, 8170, 8183, 8108, 8151, 8290, 9670,6.930036544799805,XXXXX
33, 8189, 8178, 8166, 8138, 8164, 8151, 8160, 8173, 8168, 8188, 8163, 8183, 8293, 9653,6.937808990478516,XXXXX
34, 8081, 8150, 8189, 8204, 8173, 8171, 8168, 8166, 8189, 8186, 8230, 8219, 8265, 9570,6.944289922714233,XXXXX
35, 8280, 8191, 8138, 8087, 8156, 8146, 8151, 8172, 8162, 8173, 8093, 8147, 8300, 9731,6.952125549316406,XXXXX
36, 8057, 8151, 8205, 8224, 8171, 8180, 8173, 8165, 8178, 8186, 8223, 8198, 8268, 9594,6.959981203079224,XXXXX
37, 8229, 8180, 8145, 8116, 8162, 8161, 8167, 8169, 8176, 8185, 8124, 8155, 8282, 9666,6.9677512645721436,XXXXX
38, 8218, 8186, 8156, 8129, 8159, 8158, 8155, 8161, 8171, 8178, 8146, 8188, 8284, 9620,6.975715160369873,XXXXX
39, 8020, 8140, 8201, 8223, 8168, 8178, 8167, 8164, 8184, 8182, 8259, 8236, 8258, 9515,6.9836297035217285,XXXXX
40, 8258, 8186, 8149, 8107, 8162, 8150, 8158, 8179, 8157, 8182, 8112, 8152, 8301, 9732,6.993117570877075,XXXXX
41, 8081, 8158, 8203, 8228, 8179, 8182, 8170, 8166, 8183, 8191, 8209, 8203, 8269, 9618,7.0010764598846436,XXXXX
42, 8222, 8172, 8147, 8127, 8171, 8166, 8164, 8169, 8182, 8187, 8117, 8153, 8281, 9672,7.008949279785156,XXXXX
43, 8288, 8179, 8141, 8109, 8166, 8159, 8162, 8170, 8167, 8184, 8099, 8139, 8295, 9688,7.014652252197266,XXXXX
44, 8071, 8141, 8186, 8216, 8172, 8187, 8172, 8165, 8189, 8186, 8222, 8199, 8261, 9565,7.024341344833374,XXXXX
45, 8280, 8196, 8127, 8085, 8161, 8152, 8156, 8168, 8166, 8175, 8085, 8139, 8299, 9731,7.030773401260376,XXXXX
46, 8103, 8162, 8179, 8192, 8171, 8171, 8169, 8160, 8182, 8184, 8203, 8206, 8276, 9584,7.038768768310547,XXXXX
47, 8166, 8164, 8146, 8117, 8158, 8158, 8164, 8170, 8180, 8184, 8176, 8192, 8280, 9609,7.048192739486694,XXXXX
48, 8229, 8184, 8154, 8097, 8163, 8147, 8158, 8177, 8157, 8177, 8150, 8180, 8294, 9678,7.054674863815308,XXXXX
49, 8027, 8142, 8206, 8232, 8179, 8178, 8176, 8177, 8184, 8186, 8253, 8223, 8261, 9574,7.062609434127808,XXXXX
50, 8273, 8190, 8128, 8093, 8158, 8144, 8157, 8177, 8167, 8180, 8079, 8132, 8303, 9741,7.070719003677368,XXXXX
51, 8092, 8162, 8190, 8207, 8171, 8171, 8161, 8160, 8171, 8186, 8189, 8189, 8275, 9594,7.0787177085876465,XXXXX
52, 8124, 8157, 8180, 8186, 8170, 8173, 8167, 8170, 8174, 8189, 8185, 8185, 8266, 9607,7.086706161499023,XXXXX
53, 8296, 8191, 8146, 8114, 8159, 8151, 8162, 8175, 8161, 8182, 8097, 8147, 8296, 9727,7.094617128372192,XXXXX
54, 8079, 8151, 8184, 8209, 8169, 8177, 8173, 8164, 8190, 8189, 8207, 8203, 8265, 9562,7.102554798126221,XXXXX
55, 8268, 8186, 8113, 8065, 8158, 8146, 8157, 8172, 8172, 8186, 8084, 8142, 8300, 9683,7.110541343688965,XXXXX
56, 8134, 8166, 8163, 8169, 8166, 8169, 8166, 8163, 8178, 8188, 8188, 8195, 8281, 9605,7.118573904037476,XXXXX
57, 8133, 8167, 8159, 8162, 8163, 8175, 8167, 8169, 8187, 8185, 8189, 8192, 8270, 9615,7.126132011413574,XXXXX
58, 8258, 8202, 8139, 8090, 8159, 8149, 8154, 8180, 8162, 8180, 8098, 8146, 8303, 9709,7.133904457092285,XXXXX
59, 7999, 8145, 8217, 8247, 8176, 8183, 8171, 8172, 8188, 8188, 8251, 8220, 8262, 9523,7.141638517379761,XXXXX
60, 8274, 8179, 8149, 8109, 8165, 8157, 8161, 8172, 8172, 8183, 8110, 8148, 8286, 9689,7.149374961853027,XXXXX
61, 8217, 8174, 8166, 8159, 8174, 8166, 8165, 8162, 8173, 8189, 8145, 8169, 8283, 9660,7.157127141952515,XXXXX
62, 8107, 8160, 8165, 8182, 8175, 8180, 8171, 8167, 8187, 8191, 8181, 8186, 8271, 9603,7.165199518203735,XXXXX
63, 8287, 8199, 8125, 8079, 8165, 8154, 8160, 8168, 8163, 8181, 8082, 8140, 8296, 9713,7.172966718673706,XXXXX
64, 8066, 8145, 8183, 8213, 8169, 8179, 8171, 8159, 8185, 8188, 8237, 8218, 8257, 9553,7.180864334106445,XXXXX
65, 8234, 8170, 8135, 8104, 8153, 8157, 8152, 8174, 8174, 8180, 8140, 8174, 8291, 9686,7.189975261688232,XXXXX
66, 8167, 8172, 8175, 8157, 8171, 8167, 8151, 8165, 8172, 8178, 8174, 8195, 8291, 9650,7.197767019271851,XXXXX
67, 8072, 8152, 8179, 8195, 8176, 8174, 8165, 8169, 8187, 8187, 8216, 8208, 8264, 9577,7.203919887542725,XXXXX
68, 8294, 8197, 8121, 8072, 8155, 8143, 8155, 8182, 8162, 8183, 8091, 8138, 8300, 9737,7.212043046951294,XXXXX
69, 8054, 8152, 8208, 8230, 8175, 8181, 8166, 8170, 8181, 8185, 8250, 8208, 8269, 9588,7.2197794914245605,XXXXX
70, 8199, 8173, 8171, 8150, 8172, 8157, 8159, 8171, 8169, 8181, 8146, 8160, 8290, 9698,7.229168176651001,XXXXX
71, 8208, 8177, 8175, 8161, 8173, 8157, 8163, 8165, 8165, 8187, 8132, 8157, 8293, 9709,7.237027406692505,XXXXX
72, 8097, 8144, 8183, 8204, 8177, 8187, 8169, 8166, 8196, 8192, 8210, 8184, 8265, 9602,7.245096206665039,XXXXX
73, 8291, 8192, 8124, 8073, 8161, 8149, 8149, 8172, 8173, 8182, 8094, 8135, 8299, 9701,7.253005743026733,XXXXX
74, 8031, 8152, 8202, 8218, 8170, 8175, 8164, 8160, 8181, 8189, 8240, 8224, 8261, 9537,7.261021137237549,XXXXX
75, 8183, 8169, 8158, 8140, 8165, 8168, 8164, 8172, 8175, 8185, 8151, 8171, 8279, 9655,7.268738508224487,XXXXX
76, 8244, 8181, 8158, 8146, 8169, 8162, 8157, 8177, 8168, 8181, 8131, 8154, 8299, 9682,7.2750256061553955,XXXXX
77, 8064, 8140, 8198, 8232, 8176, 8182, 8168, 8172, 8182, 8189, 8227, 8208, 8269, 9557,7.282729864120483,XXXXX
78, 8281, 8191, 8118, 8067, 8157, 8149, 8154, 8171, 8151, 8185, 8075, 8137, 8303, 9713,7.290791273117065,XXXXX
79, 8057, 8161, 8169, 8194, 8166, 8172, 8165, 8161, 8174, 8191, 8213, 8200, 8267, 9550,7.298799514770508,XXXXX
80, 8161, 8167, 8162, 8162, 8168, 8162, 8163, 8173, 8179, 8186, 8171, 8177, 8273, 9616,7.308284759521484,XXXXX
81, 8281, 8187, 8167, 8139, 8172, 8158, 8157, 8171, 8161, 8184, 8115, 8157, 8298, 9707,7.316140174865723,XXXXX
82, 8049, 8143, 8196, 8233, 8175, 8187, 8171, 8163, 8188, 8198, 8227, 8210, 8263, 9557,7.323798179626465,XXXXX
83, 8263, 8185, 8135, 8088, 8157, 8147, 8157, 8171, 8166, 8186, 8090, 8137, 8299, 9717,7.331777572631836,XXXXX
84, 8126, 8158, 8191, 8189, 8171, 8166, 8165, 8162, 8174, 8181, 8191, 8192, 8278, 9615,7.337917804718018,XXXXX
85, 8170, 8161, 8142, 8125, 8159, 8161, 8163, 8165, 8179, 8186, 8164, 8186, 8280, 9616,7.347228288650513,XXXXX
86, 8257, 8190, 8122, 8073, 8151, 8142, 8157, 8165, 8159, 8188, 8113, 8166, 8301, 9680,7.35368275642395,XXXXX
87, 8016, 8147, 8201, 8227, 8173, 8178, 8174, 8165, 8184, 8191, 8250, 8227, 8261, 9539,7.361602306365967,XXXXX
88, 8243, 8188, 8135, 8104, 8163, 8152, 8158, 8176, 8166, 8179, 8108, 8148, 8299, 9712,7.369722127914429,XXXXX
89, 8119, 8166, 8182, 8202, 8168, 8172, 8165, 8165, 8175, 8185, 8183, 8187, 8285, 9643,7.379215955734253,XXXXX
90, 8141, 8159, 8178, 8183, 8168, 8171, 8166, 8174, 8182, 8190, 8163, 8178, 8273, 9637,7.387132406234741,XXXXX
91, 8287, 8192, 8139, 8092, 8166, 8146, 8157, 8175, 8160, 8181, 8085, 8143, 8298, 9686,7.394973993301392,XXXXX
92, 8011, 8145, 8186, 8224, 8179, 8180, 8174, 8159, 8187, 8185, 8242, 8222, 8259, 9489,7.402964115142822,XXXXX
93, 8233, 8188, 8120, 8088, 8158, 8150, 8155, 8169, 8171, 8179, 8103, 8155, 8290, 9683,7.409287691116333,XXXXX
94, 8162, 8177, 8168, 8154, 8162, 8163, 8158, 8166, 8172, 8179, 8178, 8194, 8278, 9650,7.417156934738159,XXXXX
95, 8089, 8155, 8184, 8181, 8167, 8172, 8172, 8169, 8181, 8178, 8227, 8213, 8268, 9596,7.424912929534912,XXXXX
96, 8257, 8192, 8157, 8112, 8163, 8148, 8161, 8177, 8156, 8178, 8116, 8153, 8306, 9730,7.4328293800354,XXXXX
97, 8055, 8150, 8206, 8241, 8175, 8181, 8167, 8167, 8181, 8189, 8229, 8204, 8263, 9600,7.440805435180664,XXXXX
98, 8276, 8183, 8130, 8091, 8161, 8155, 8156, 8170, 8170, 8177, 8092, 8135, 8289, 9719,7.450152397155762,XXXXX
99, 8185, 8171, 8177, 8162, 8171, 8166, 8162, 8165, 8168, 8177, 8150, 8172, 8286, 9631,7.458033800125122,XXXXX
100, 8045, 8145, 8200, 8227, 8171, 8178, 8168, 8168, 8182, 8186, 8218, 8208, 8258, 9553,7.466112852096558,XXXXX
101, 8260, 8195, 8133, 8093, 8155, 8145, 8150, 8171, 8159, 8181, 8091, 8149, 8297, 9729,7.472387075424194,XXXXX
102, 8058, 8157, 8182, 8206, 8170, 8176, 8165, 8156, 8180, 8190, 8228, 8218, 8268, 9580,7.480443239212036,XXXXX
103, 8221, 8180, 8139, 8104, 8159, 8153, 8159, 8164, 8173, 8184, 8141, 8169, 8285, 9672,7.4882941246032715,XXXXX
104, 8171, 8175, 8180, 8165, 8165, 8161, 8160, 8163, 8171, 8181, 8166, 8178, 8283, 9653,7.496216773986816,XXXXX
105, 8045, 8145, 8201, 8244, 8179, 8189, 8174, 8165, 8190, 8188, 8215, 8193, 8260, 9578,7.503962278366089,XXXXX
106, 8323, 8198, 8126, 8090, 8166, 8153, 8160, 8173, 8163, 8182, 8055, 8115, 8294, 9752,7.511783838272095,XXXXX
107, 8109, 8155, 8185, 8200, 8175, 8177, 8166, 8166, 8179, 8191, 8197, 8193, 8260, 9588,7.520982265472412,XXXXX
108, 8217, 8164, 8149, 8121, 8165, 8163, 8158, 8175, 8176, 8188, 8138, 8168, 8284, 9648,7.528558731079102,XXXXX
109, 8239, 8179, 8158, 8137, 8163, 8158, 8159, 8170, 8166, 8184, 8137, 8169, 8293, 9664,7.534887313842773,XXXXX
110, 8065, 8148, 8180, 8209, 8166, 8179, 8169, 8166, 8192, 8190, 8229, 8213, 8256, 9552,7.5426952838897705,XXXXX
111, 8287, 8191, 8111, 8055, 8153, 8142, 8152, 8169, 8168, 8181, 8096, 8156, 8296, 9702,7.55074667930603,XXXXX
112, 8075, 8156, 8189, 8196, 8170, 8169, 8166, 8157, 8176, 8184, 8239, 8227, 8269, 9565,7.558582305908203,XXXXX
113, 8159, 8169, 8172, 8160, 8164, 8163, 8165, 8166, 8173, 8185, 8184, 8185, 8282, 9659,7.567932844161987,XXXXX
114, 8216, 8183, 8160, 8141, 8166, 8153, 8160, 8167, 8165, 8184, 8140, 8162, 8297, 9718,7.575931549072266,XXXXX
115, 8036, 8141, 8194, 8223, 8178, 8177, 8173, 8167, 8187, 8188, 8245, 8214, 8258, 9570,7.5837507247924805,XXXXX
116, 8310, 8190, 8134, 8084, 8161, 8147, 8161, 8178, 8158, 8177, 8099, 8139, 8294, 9738,7.591676950454712,XXXXX
117, 8135, 8160, 8191, 8218, 8169, 8175, 8175, 8161, 8175, 8188, 8196, 8191, 8271, 9632,7.597839117050171,XXXXX
118, 8159, 8160, 8161, 8174, 8162, 8170, 8168, 8162, 8180, 8190, 8143, 8163, 8272, 9650,7.607051849365234,XXXXX
119, 8278, 8186, 8135, 8105, 8162, 8156, 8155, 8165, 8162, 8179, 8082, 8132, 8296, 9710,7.614958763122559,XXXXX
120, 8104, 8138, 8179, 8209, 8174, 8180, 8172, 8164, 8192, 8182, 8226, 8201, 8263, 9570,7.622993469238281,XXXXX
121, 8282, 8180, 8121, 8077, 8160, 8143, 8157, 8174, 8170, 8177, 8104, 8149, 8298, 9703,7.630892038345337,XXXXX
122, 8056, 8165, 8188, 8193, 8176, 8170, 8161, 8163, 8170, 8180, 8205, 8212, 8278, 9571,7.638683557510376,XXXXX
123, 8119, 8162, 8172, 8171, 8172, 8174, 8166, 8169, 8177, 8179, 8182, 8192, 8273, 9596,7.646536350250244,XXXXX
124, 8320, 8187, 8137, 8099, 8157, 8145, 8160, 8173, 8162, 8178, 8091, 8141, 8299, 9706,7.654466867446899,XXXXX
125, 8055, 8136, 8194, 8235, 8169, 8178, 8173, 8161, 8185, 8191, 8230, 8218, 8261, 9535,7.662358283996582,XXXXX
126, 8234, 8182, 8124, 8093, 8157, 8153, 8154, 8168, 8168, 8181, 8102, 8154, 8293, 9683,7.670255184173584,XXXXX
127, 8111, 8167, 8175, 8178, 8166, 8167, 8161, 8167, 8170, 8181, 8195, 8185, 8277, 9612,7.676733493804932,XXXXX
239, 8103, 8146, 8179, 8194, 8168, 8178, 8170, 8177, 8175, 8187, 8208, 8188, 8264, 9597,7.684741497039795,XXXXX
0, 8300, 8188, 8132, 8093, 8156, 8150, 8157, 8174, 8152, 8185, 8076, 8136, 8300, 9718,7.6927478313446045,XXXXX
1, 8038, 8148, 8194, 8226, 8167, 8173, 8170, 8161, 8184, 8192, 8229, 8210, 8259, 9533,7.700854063034058,XXXXX
2, 8247, 8181, 8143, 8112, 8155, 8149, 8161, 8178, 8169, 8184, 8128, 8155, 8285, 9689,7.708666086196899,XXXXX
3, 8205, 8171, 8174, 8171, 8162, 8163, 8163, 8174, 8162, 8180, 8156, 8171, 8281, 9681,7.718161106109619,XXXXX
4, 8104, 8147, 8176, 8189, 8166, 8172, 8168, 8166, 8183, 8181, 8186, 8187, 8267, 9606,7.7261433601379395,XXXXX
5, 8305, 8187, 8134, 8084, 8157, 8144, 8154, 8169, 8166, 8178, 8087, 8147, 8303, 9711,7.732691526412964,XXXXX
6, 8072, 8146, 8194, 8224, 8164, 8179, 8169, 8164, 8187, 8186, 8233, 8222, 8261, 9546,7.74063777923584,XXXXX
7, 8216, 8182, 8125, 8088, 8150, 8153, 8158, 8175, 8174, 8180, 8120, 8163, 8285, 9673,7.748668670654297,XXXXX
8, 8179, 8181, 8154, 8127, 8165, 8158, 8159, 8166, 8168, 8181, 8165, 8187, 8288, 9655,7.7565553188323975,XXXXX
9, 8052, 8143, 8196, 8216, 8176, 8178, 8171, 8165, 8185, 8189, 8251, 8227, 8261, 9570,7.764604568481445,XXXXX
10, 8272, 8190, 8149, 8104, 8161, 8147, 8155, 8178, 8160, 8182, 8105, 8153, 8298, 9752,7.772520303726196,XXXXX
11, 8064, 8155, 8204, 8233, 8173, 8181, 8166, 8168, 8178, 8184, 8223, 8207, 8265, 9608,7.780597925186157,XXXXX
12, 8236, 8171, 8146, 8127, 8164, 8166, 8164, 8170, 8170, 8181, 8134, 8156, 8285, 9678,7.7885730266571045,XXXXX
13, 8258, 8174, 8164, 8135, 8169, 8159, 8163, 8164, 8162, 8181, 8138, 8162, 8291, 9686,7.796743154525757,XXXXX
14, 8076, 8145, 8197, 8221, 8176, 8181, 8169, 8166, 8187, 8186, 8213, 8196, 8263, 9597,7.804049730300903,walk
15, 8305, 8195, 8118, 8082, 8160, 8152, 8154, 8173, 8165, 8182, 8052, 8117, 8299, 9755,7.811904430389404,walk
16, 8098, 8157, 8170, 8200, 8169, 8181, 8171, 8161, 8185, 8189, 8196, 8201, 8261, 9581,7.819681644439697,walk
17, 8194, 8169, 8144, 8122, 8163, 8161, 8166, 8168, 8184, 8186, 8165, 8189, 8272, 9626,7.827724456787109,walk
18, 8244, 8183, 8152, 8117, 8165, 8146, 8158, 8168, 8165, 8189, 8140, 8170, 8295, 9671,7.835693836212158,walk
19, 8049, 8143, 8187, 8219, 8175, 8176, 8169, 8167, 8186, 8195, 8229, 8203, 8267, 9564,7.8436267375946045,walk
20, 8270, 8192, 8122, 8075, 8155, 8148, 8155, 8170, 8163, 8177, 8089, 8144, 8299, 9730,7.851557016372681,walk
21, 8077, 8156, 8194, 8203, 8166, 8171, 8167, 8158, 8172, 8184, 8229, 8220, 8266, 9592,7.859506845474243,walk
22, 8146, 8158, 8178, 8168, 8168, 8161, 8165, 8175, 8168, 8188, 8192, 8190, 8270, 9649,7.8673176765441895,walk
23, 8239, 8188, 8167, 8140, 8170, 8155, 8156, 8174, 8157, 8180, 8125, 8152, 8299, 9738,7.874453783035278,walk
24, 8050, 8147, 8201, 8242, 8177, 8187, 8171, 8158, 8191, 8178, 8229, 8206, 8264, 9590,7.882159233093262,walk
25, 8301, 8190, 8127, 8078, 8162, 8149, 8157, 8168, 8164, 8172, 8083, 8137, 8290, 9730,7.889995098114014,walk
26, 8122, 8163, 8188, 8189, 8178, 8172, 8165, 8162, 8170, 8186, 8189, 8188, 8270, 9614,7.897705554962158,walk
27, 8138, 8162, 8161, 8166, 8173, 8177, 8166, 8161, 8185, 8189, 8158, 8169, 8278, 9618,7.905626535415649,walk
28, 8258, 8195, 8122, 8087, 8161, 8157, 8154, 8162, 8168, 8179, 8084, 8140, 8305, 9673,7.914422273635864,walk
29, 8013, 8145, 8194, 8216, 8172, 8183, 8172, 8163, 8190, 8188, 8263, 8233, 8257, 9508,7.922284364700317,walk
30, 8260, 8181, 8149, 8100, 8159, 8150, 8161, 8176, 8172, 8187, 8132, 8163, 8288, 9701,7.928872346878052,walk
31, 8153, 8166, 8190, 8203, 8173, 8170, 8162, 8164, 8178, 8190, 8171, 8176, 8283, 9635,7.937875270843506,walk
32, 8119, 8160, 8166, 8181, 8173, 8178, 8163, 8167, 8187, 8190, 8174, 8176, 8281, 9598,7.94574761390686,walk
33, 8283, 8192, 8125, 8072, 8155, 8149, 8155, 8173, 8165, 8185, 8101, 8150, 8303, 9704,7.9535071849823,walk
34, 8053, 8139, 8197, 8224, 8165, 8178, 8170, 8169, 8185, 8189, 8246, 8230, 8255, 9554,7.961280584335327,walk
35, 8249, 8179, 8141, 8113, 8160, 8153, 8158, 8178, 8165, 8182, 8115, 8157, 8292, 9698,7.968942880630493,walk
36, 8152, 8175, 8178, 8176, 8174, 8168, 8166, 8165, 8172, 8187, 8170, 8176, 8290, 9637,7.976725339889526,walk
37, 8108, 8154, 8178, 8197, 8178, 8182, 8173, 8164, 8191, 8194, 8194, 8185, 8266, 9585,7.986178159713745,walk
38, 8319, 8191, 8121, 8083, 8159, 8151, 8161, 8168, 8162, 8184, 8081, 8140, 8300, 9708,7.992753505706787,walk
39, 8048, 8143, 8191, 8220, 8162, 8182, 8174, 8154, 8179, 8186, 8243, 8226, 8266, 9541,8.000077962875366,walk
40, 8218, 8177, 8147, 8119, 8155, 8161, 8160, 8163, 8168, 8183, 8126, 8160, 8290, 9678,8.007945775985718,walk
41, 8194, 8177, 8166, 8165, 8168, 8166, 8162, 8165, 8168, 8189, 8139, 8166, 8287, 9657,8.015847206115723,walk
42, 8084, 8144, 8172, 8194, 8168, 8175, 8170, 8167, 8191, 8195, 8205, 8202, 8259, 9566,8.023601770401001,walk
43, 8285, 8192, 8131, 8077, 8155, 8141, 8153, 8166, 8165, 8179, 8095, 8152, 8296, 9712,8.03295373916626,walk
44, 8053, 8156, 8208, 8241, 8175, 8180, 8169, 8160, 8179, 8181, 8231, 8212, 8265, 9575,8.04082465171814,walk
45, 8224, 8176, 8147, 8140, 8166, 8164, 8168, 8173, 8173, 8188, 8115, 8149, 8284, 9682,8.048567295074463,walk
46, 8234, 8178, 8157, 8142, 8168, 8163, 8167, 8165, 8171, 8194, 8125, 8161, 8291, 9653,8.056511640548706,walk
47, 8070, 8147, 8189, 8209, 8169, 8178, 8169, 8164, 8192, 8190, 8235, 8216, 8263, 9538,8.062948942184448,walk
48, 8284, 8197, 8131, 8087, 8153, 8143, 8154, 8178, 8161, 8177, 8105, 8149, 8298, 9723,8.070853471755981,walk
49, 8054, 8158, 8202, 8239, 8175, 8182, 8174, 8167, 8178, 8191, 8220, 8204, 8267, 9577,8.078818082809448,walk
50, 8183, 8170, 8159, 8155, 8166, 8172, 8168, 8169, 8180, 8192, 8139, 8163, 8282, 9637,8.086723327636719,walk
51, 8283, 8190, 8144, 8123, 8158, 8157, 8155, 8168, 8167, 8184, 8117, 8156, 8293, 9693,8.094713687896729,walk
52, 8107, 8155, 8173, 8203, 8170, 8180, 8169, 8164, 8184, 8187, 8214, 8204, 8260, 9584,8.104085206985474,walk
53, 8276, 8190, 8124, 8076, 8161, 8147, 8159, 8168, 8161, 8182, 8085, 8146, 8301, 9717,8.110713005065918,walk
54, 8055, 8150, 8199, 8216, 8176, 8173, 8169, 8158, 8182, 8190, 8224, 8212, 8269, 9558,8.118737936019897,walk
55, 8181, 8161, 8160, 8156, 8176, 8166, 8163, 8167, 8185, 8189, 8159, 8168, 8270, 9624,8.127032279968262,walk
56, 8316, 8187, 8132, 8105, 8168, 8153, 8154, 8166, 8165, 8183, 8091, 8141, 8292, 9721,8.135102272033691,walk
57, 8090, 8146, 8172, 8208, 8170, 8184, 8169, 8164, 8180, 8191, 8217, 8210, 8261, 9580,8.143118619918823,walk
58, 8276, 8193, 8121, 8080, 8159, 8156, 8154, 8173, 8159, 8180, 8096, 8151, 8297, 9715,8.151017427444458,walk
59, 8093, 8164, 8188, 8206, 8172, 8173, 8162, 8165, 8174, 8181, 8225, 8217, 8275, 9590,8.158915758132935,walk
60, 8148, 8159, 8173, 8172, 8165, 8167, 8162, 8174, 8174, 8183, 8206, 8201, 8279, 9622,8.166747331619263,walk
61, 8273, 8189, 8154, 8112, 8165, 8157, 8155, 8174, 8152, 8178, 8109, 8145, 8306, 9726,8.174666404724121,walk
62, 8035, 8144, 8197, 8241, 8178, 8187, 8172, 8165, 8187, 8184, 8221, 8199, 8265, 9570,8.182550191879272,walk
63, 8289, 8187, 8120, 8097, 8158, 8146, 8158, 8173, 8170, 8184, 8086, 8142, 8293, 9701,8.190577745437622,walk
64, 8163, 8172, 8169, 8179, 8167, 8166, 8160, 8159, 8169, 8192, 8183, 8199, 8275, 9591,8.19685673713684,walk
65, 8109, 8159, 8164, 8169, 8160, 8172, 8162, 8166, 8180, 8188, 8197, 8203, 8269, 9591,8.204624891281128,walk
66, 8243, 8191, 8141, 8097, 8147, 8148, 8154, 8175, 8161, 8177, 8111, 8158, 8300, 9723,8.214057922363281,walk
67, 8029, 8145, 8204, 8239, 8170, 8186, 8167, 8165, 8185, 8184, 8241, 8217, 8261, 9571,8.220763444900513,walk
68, 8291, 8182, 8135, 8109, 8167, 8158, 8156, 8174, 8172, 8175, 8094, 8138, 8292, 9719,8.228763818740845,walk
69, 8198, 8165, 8178, 8181, 8175, 8167, 8167, 8166, 8173, 8184, 8160, 8172, 8282, 9641,8.236731767654419,walk
70, 8090, 8147, 8182, 8187, 8168, 8178, 8172, 8163, 8181, 8194, 8202, 8193, 8267, 9589,8.244736671447754,walk
71, 8275, 8192, 8125, 8072, 8152, 8149, 8155, 8170, 8164, 8179, 8095, 8143, 8302, 9725,8.252784967422485,walk
72, 8057, 8149, 8183, 8211, 8169, 8174, 8169, 8165, 8187, 8181, 8240, 8220, 8260, 9555,8.260685205459595,walk
73, 8235, 8180, 8139, 8100, 8161, 8148, 8156, 8171, 8166, 8183, 8139, 8174, 8287, 9672,8.268625497817993,walk
74, 8177, 8174, 8180, 8166, 8165, 8157, 8155, 8169, 8163, 8186, 8187, 8195, 8291, 9650,8.276346206665039,walk
75, 8085, 8151, 8195, 8219, 8170, 8175, 8165, 8170, 8182, 8185, 8222, 8197, 8271, 9605,8.28419828414917,walk
76, 8303, 8198, 8142, 8098, 8157, 8149, 8157, 8164, 8158, 8181, 8081, 8129, 8298, 9762,8.291852951049805,walk
77, 8075, 8149, 8208, 8232, 8168, 8181, 8171, 8155, 8186, 8191, 8231, 8208, 8256, 9586,8.299707174301147,walk
78, 8248, 8168, 8156, 8130, 8166, 8160, 8161, 8175, 8176, 8184, 8137, 8155, 8282, 9681,8.309218645095825,walk
79, 8247, 8176, 8169, 8156, 8175, 8162, 8165, 8171, 8160, 8184, 8134, 8153, 8294, 9688,8.315662622451782,walk
80, 8105, 8151, 8182, 8212, 8171, 8182, 8174, 8164, 8183, 8191, 8197, 8189, 8266, 9590,8.32488203048706,walk
81, 8333, 8195, 8111, 8064, 8155, 8151, 8153, 8164, 8165, 8186, 8070, 8138, 8300, 9719,8.33130168914795,walk
82, 8097, 8149, 8181, 8203, 8176, 8179, 8167, 8156, 8179, 8194, 8228, 8217, 8267, 9560,8.339118242263794,walk
83, 8185, 8166, 8156, 8138, 8162, 8158, 8164, 8172, 8171, 8187, 8160, 8177, 8285, 9655,8.347030401229858,walk
84, 8210, 8181, 8160, 8135, 8156, 8150, 8156, 8169, 8160, 8181, 8143, 8177, 8296, 9680,8.355305433273315,walk
85, 8058, 8140, 8187, 8214, 8169, 8177, 8166, 8163, 8189, 8190, 8249, 8229, 8259, 9553,8.363601446151733,walk
86, 8278, 8188, 8136, 8082, 8156, 8144, 8155, 8172, 8169, 8186, 8124, 8158, 8296, 9708,8.371767520904541,walk
87, 8081, 8161, 8204, 8203, 8167, 8172, 8169, 8163, 8176, 8190, 8236, 8214, 8274, 9593,8.379474401473999,walk
88, 8207, 8171, 8161, 8138, 8165, 8165, 8164, 8171, 8173, 8188, 8160, 8177, 8287, 9668,8.387446880340576,walk
89, 8266, 8185, 8155, 8124, 8164, 8154, 8157, 8171, 8164, 8187, 8127, 8159, 8301, 9688,8.393908500671387,walk
90, 8048, 8142, 8204, 8224, 8165, 8183, 8168, 8167, 8187, 8195, 8247, 8218, 8259, 9528,8.401798963546753,walk
91, 8274, 8190, 8127, 8070, 8153, 8148, 8151, 8175, 8166, 8184, 8100, 8149, 8295, 9690,8.409670352935791,walk
92, 8071, 8157, 8179, 8194, 8176, 8170, 8161, 8165, 8182, 8183, 8213, 8210, 8272, 9576,8.419106006622314,walk
93, 8144, 8158, 8168, 8164, 8170, 8168, 8166, 8169, 8181, 8182, 8174, 8185, 8278, 9622,8.427040576934814,walk
94, 8300, 8189, 8155, 8116, 8161, 8151, 8163, 8165, 8154, 8184, 8102, 8143, 8301, 9705,8.434916734695435,walk
95, 8068, 8144, 8196, 8236, 8174, 8180, 8176, 8159, 8176, 8196, 8236, 8212, 8258, 9545,8.442988872528076,walk
96, 8264, 8185, 8120, 8076, 8155, 8150, 8153, 8176, 8161, 8188, 8098, 8153, 8295, 9702,8.450948715209961,walk
97, 8084, 8164, 8179, 8177, 8165, 8169, 8160, 8169, 8173, 8190, 8190, 8200, 8278, 9601,8.457368612289429,walk
98, 8111, 8155, 8179, 8188, 8166, 8170, 8171, 8170, 8178, 8193, 8195, 8193, 8268, 9601,8.464878797531128,walk
99, 8341, 8190, 8148, 8116, 8160, 8152, 8164, 8172, 8154, 8183, 8106, 8149, 8298, 9729,8.472901344299316,walk
100, 8087, 8145, 8197, 8235, 8175, 8186, 8173, 8165, 8181, 8184, 8223, 8209, 8267, 9575,8.48088026046753,walk
101, 8249, 8183, 8128, 8091, 8161, 8153, 8156, 8171, 8168, 8183, 8081, 8139, 8300, 9710,8.48896312713623,walk
102, 8164, 8171, 8167, 8163, 8169, 8167, 8162, 8158, 8169, 8193, 8175, 8189, 8281, 9623,8.496918439865112,walk
103, 8123, 8155, 8166, 8173, 8169, 8173, 8166, 8166, 8177, 8190, 8220, 8213, 8265, 9575,8.505116939544678,walk
104, 8274, 8194, 8133, 8080, 8153, 8139, 8148, 8175, 8153, 8177, 8104, 8160, 8304, 9718,8.513312816619873,walk
