COUNTER,F3,FC5,AF3,F7,T7,P7,O1,O2,P8,T8,F8,AF4,FC6,F4,Timestamp
57,8207,8211,8238,8234,8242,8166,8259,8168,8260,8249,8180,8173,8155,8195,0.0080118179321289
58,8227,8211,8235,8228,8229,8182,8252,8181,8255,8246,8190,8188,8172,8201,0.0150127410888671
59,8206,8212,8230,8237,8213,8163,8251,8163,8263,8255,8175,8163,8155,8187,0.0230154991149902
60,8215,8208,8222,8219,8213,8172,8246,8163,8261,8251,8173,8172,8165,8185,0.0310156345367431
60,8215,8208,8222,8219,8213,8172,8246,8163,8261,8251,8173,8172,8165,8185,0.0320160388946533
61,8221,8205,8213,8208,8227,8171,8245,8180,8249,8230,8177,8188,8179,8191,0.0395450592041015
62,8199,8198,8215,8235,8230,8154,8250,8162,8245,8237,8172,8162,8162,8193,0.0478506088256835
62,8199,8198,8215,8235,8230,8154,8250,8162,8245,8237,8172,8162,8162,8193,0.0488507747650146
63,8215,8179,8212,8227,8198,8171,8214,8175,8208,8225,8170,8176,8175,8178,0.0558538436889648
64,8197,8172,8203,8198,8201,8153,8198,8150,8201,8203,8150,8156,8149,8142,0.0638551712036132
65,8202,8180,8211,8203,8216,8165,8216,8150,8219,8198,8158,8160,8151,8153,0.071850299835205
66,8209,8183,8214,8221,8199,8174,8222,8176,8211,8202,8168,8174,8169,8164,0.0788500308990478
67,8186,8173,8206,8221,8197,8153,8221,8156,8206,8196,8154,8149,8149,8145,0.086850881576538
68,8212,8171,8215,8208,8202,8171,8218,8173,8209,8174,8161,8182,8173,8157,0.0948507785797119
69,8198,8192,8222,8220,8214,8159,8235,8169,8224,8194,8165,8175,8167,8175,0.1028506755828857
70,8194,8192,8215,8224,8231,8165,8242,8167,8224,8201,8171,8162,8160,8173,0.1108512878417968
71,8207,8174,8217,8205,8241,8171,8231,8183,8211,8184,8174,8174,8174,8165,0.1188559532165527
72,8185,8183,8227,8216,8244,8150,8236,8158,8222,8209,8165,8156,8158,8172,0.1268558502197265
73,8205,8184,8221,8218,8217,8172,8227,8177,8221,8206,8170,8172,8171,8175,0.1343638896942138
74,8192,8174,8208,8207,8201,8165,8222,8174,8233,8198,8163,8156,8162,8151,0.1425402164459228
75,8189,8181,8218,8214,8201,8170,8223,8161,8248,8214,8163,8160,8158,8160,0.1493048667907714
76,8210,8174,8221,8211,8197,8181,8217,8175,8230,8203,8168,8186,8174,8172,0.1572978496551513
77,8185,8153,8210,8193,8191,8156,8213,8145,8216,8177,8153,8143,8147,8148,0.1655595302581787
78,8196,8145,8206,8172,8172,8172,8188,8153,8197,8158,8155,8152,8158,8136,0.1735718250274658
79,8184,8150,8204,8174,8168,8165,8185,8155,8200,8157,8151,8160,8158,8131,0.1815412044525146
80,8175,8152,8203,8186,8167,8161,8198,8156,8210,8152,8155,8148,8152,8136,0.1895742416381836
81,8203,8152,8205,8177,8170,8173,8193,8184,8196,8156,8164,8156,8171,8142,0.1975743770599365
82,8178,8146,8197,8164,8182,8152,8198,8155,8201,8179,8146,8127,8151,8124,0.2058002948760986
83,8179,8132,8182,8151,8157,8169,8189,8160,8201,8153,8148,8140,8165,8111,0.2138001918792724
84,8180,8140,8184,8161,8153,8161,8192,8172,8206,8140,8154,8143,8169,8119,0.2203314304351806
85,8188,8170,8206,8188,8185,8148,8210,8172,8226,8177,8166,8141,8165,8147,0.2285823822021484
86,8206,8167,8211,8181,8178,8168,8199,8191,8213,8176,8173,8165,8186,8146,0.2366349697113037
87,8171,8151,8197,8174,8178,8155,8197,8157,8190,8165,8153,8131,8155,8118,0.2440755367279052
87,8171,8151,8197,8174,8178,8155,8197,8157,8190,8165,8153,8131,8155,8118,0.2450630664825439
88,8195,8168,8198,8188,8196,8170,8206,8170,8185,8165,8165,8145,8161,8131,0.2520713806152344
89,8203,8186,8205,8198,8198,8171,8217,8186,8213,8172,8171,8155,8168,8137,0.2605690956115722
90,8186,8182,8204,8206,8198,8167,8218,8153,8229,8186,8162,8131,8153,8127,0.2686700820922851
91,8208,8169,8196,8206,8184,8180,8194,8166,8188,8161,8168,8155,8173,8124,0.2766685485839844
92,8176,8159,8194,8203,8182,8153,8200,8158,8185,8143,8162,8139,8158,8118,0.2835614681243896
93,8182,8149,8206,8197,8186,8172,8207,8172,8207,8157,8171,8149,8168,8134,0.291548490524292
94,8190,8146,8206,8201,8177,8169,8193,8184,8199,8168,8172,8157,8174,8133,0.299539566040039
95,8165,8153,8194,8212,8174,8143,8190,8154,8189,8161,8160,8131,8150,8115,0.3075318336486816
96,8181,8140,8183,8193,8166,8174,8180,8169,8176,8143,8163,8148,8170,8106,0.3155691623687744
97,8167,8129,8181,8182,8169,8160,8187,8157,8190,8167,8154,8127,8154,8092,0.3234927654266357
98,8179,8136,8187,8192,8163,8154,8189,8154,8195,8174,8165,8133,8151,8105,0.3315715789794922
99,8188,8133,8180,8184,8154,8161,8180,8165,8173,8152,8173,8143,8169,8110,0.3396835327148437
100,8167,8127,8173,8179,8169,8154,8202,8160,8183,8167,8160,8122,8164,8109,0.3466823101043701
101,8194,8134,8182,8188,8171,8168,8204,8191,8194,8166,8164,8152,8180,8121,0.3545711040496826
102,8179,8147,8188,8199,8181,8147,8196,8162,8195,8154,8158,8139,8151,8097,0.3622777462005615
103,8181,8150,8195,8212,8188,8165,8210,8152,8198,8158,8164,8145,8149,8088,0.3705694675445556
104,8203,8146,8200,8225,8191,8181,8228,8181,8202,8161,8169,8168,8177,8111,0.3784346580505371
105,8175,8144,8190,8224,8197,8150,8223,8156,8199,8165,8158,8132,8159,8112,0.386390209197998
106,8182,8135,8176,8200,8167,8168,8184,8164,8171,8147,8162,8140,8167,8090,0.3943357467651367
107,8174,8139,8180,8200,8159,8170,8188,8157,8186,8151,8153,8131,8149,8080,0.4010176658630371
108,8187,8150,8192,8203,8175,8170,8209,8156,8214,8166,8160,8131,8153,8109,0.4090306758880615
108,8187,8150,8192,8203,8175,8170,8209,8156,8214,8166,8160,8131,8153,8109,0.4100232124328613
109,8204,8143,8186,8189,8167,8163,8199,8185,8196,8162,8177,8152,8180,8129,0.417893648147583
110,8173,8138,8184,8208,8182,8142,8209,8161,8198,8177,8171,8130,8157,8122,0.4255716800689697
111,8191,8165,8198,8216,8197,8175,8221,8168,8214,8178,8173,8152,8167,8124,0.4338462352752685
112,8186,8207,8200,8203,8189,8171,8234,8164,8229,8174,8162,8146,8157,8128,0.4410009384155273
112,8186,8207,8200,8203,8189,8171,8234,8164,8229,8174,8162,8146,8157,8128,0.4419920444488525
113,8179,8210,8197,8202,8174,8166,8232,8158,8226,8160,8164,8137,8154,8143,0.4495689868927002
114,8193,8183,8189,8195,8174,8174,8210,8180,8204,8125,8169,8156,8172,8132,0.4575331211090088
115,8168,8191,8189,8205,8203,8152,8231,8157,8227,8141,8155,8132,8145,8109,0.465571641921997
116,8197,8214,8207,8214,8202,8179,8264,8179,8256,8177,8177,8162,8170,8147,0.4735696315765381
117,8207,8220,8224,8215,8189,8175,8282,8188,8265,8199,8185,8169,8182,8181,0.4805693626403808
118,8201,8221,8227,8229,8211,8161,8281,8171,8267,8208,8175,8158,8168,8176,0.4887583255767822
119,8229,8229,8236,8240,8230,8180,8282,8190,8276,8212,8183,8188,8179,8177,0.4967586994171142
120,8216,8244,8250,8249,8242,8167,8304,8172,8310,8241,8185,8173,8157,8194,0.504561185836792
121,8223,8224,8237,8257,8240,8180,8287,8182,8297,8235,8193,8179,8175,8206,0.5125670433044434
122,8206,8191,8209,8268,8236,8173,8260,8186,8275,8210,8179,8168,8178,8176,0.5200493335723877
123,8204,8212,8225,8264,8240,8167,8269,8166,8288,8226,8173,8160,8157,8170,0.5270028114318848
124,8242,8234,8254,8257,8246,8187,8278,8188,8278,8234,8190,8196,8176,8197,0.5355098247528076
125,8199,8214,8239,8274,8260,8162,8277,8166,8267,8216,8174,8166,8158,8177,0.5440385341644287
126,8193,8195,8221,8259,8220,8176,8247,8161,8250,8183,8166,8166,8157,8149,0.5510761737823486
127,8205,8197,8227,8231,8183,8177,8227,8162,8231,8186,8168,8172,8160,8145,0.5590775012969971
241,8194,8199,8226,8250,8217,8159,8240,8148,8232,8205,8175,8159,8157,8165,0.5675294399261475
0,8214,8189,8211,8248,8230,8181,8228,8183,8227,8178,8188,8185,8183,8171,0.575570821762085
1,8191,8179,8210,8235,8210,8160,8216,8167,8238,8182,8168,8155,8157,8141,0.5833778381347656
2,8200,8185,8221,8250,8201,8165,8210,8159,8240,8200,8168,8155,8159,8137,0.5913777351379395
3,8206,8197,8215,8246,8212,8167,8200,8164,8208,8179,8172,8171,8167,8139,0.5995659828186035
4,8186,8194,8207,8233,8213,8152,8202,8142,8197,8164,8163,8153,8146,8137,0.6069951057434082
5,8208,8182,8210,8234,8195,8171,8192,8168,8196,8156,8177,8177,8175,8146,0.6146261692047119
6,8187,8193,8214,8230,8203,8154,8199,8162,8204,8178,8178,8156,8162,8137,0.6226398944854736
7,8200,8221,8233,8237,8218,8167,8211,8164,8203,8198,8184,8163,8156,8138,0.6300580501556396
8,8221,8228,8244,8271,8237,8183,8219,8177,8205,8192,8186,8189,8168,8143,0.638566255569458
9,8191,8207,8232,8296,8250,8167,8230,8150,8239,8201,8178,8167,8149,8151,0.6465661525726318
10,8202,8174,8221,8267,8207,8176,8201,8162,8223,8184,8184,8182,8168,8157,0.6545405387878418
11,8187,8171,8226,8247,8183,8154,8180,8153,8200,8167,8175,8162,8168,8139,0.6625411510467529
12,8187,8187,8236,8260,8200,8167,8182,8161,8215,8170,8178,8163,8170,8139,0.6705663204193115
13,8201,8184,8233,8266,8193,8182,8178,8177,8208,8173,8180,8183,8169,8141,0.6779565811157227
14,8183,8179,8231,8259,8183,8161,8192,8134,8198,8183,8175,8152,8147,8135,0.6859586238861084
15,8212,8178,8234,8244,8191,8177,8198,8165,8207,8171,8200,8178,8186,8153,0.6935663223266602
16,8205,8184,8235,8258,8217,8159,8207,8186,8230,8168,8202,8180,8178,8159,0.701566219329834
17,8193,8191,8237,8262,8211,8160,8200,8161,8219,8167,8190,8165,8152,8144,0.7095661163330078
18,8200,8177,8231,8241,8176,8178,8174,8165,8197,8156,8186,8171,8169,8124,0.7175881862640381
19,8177,8175,8227,8258,8186,8153,8183,8153,8216,8179,8184,8149,8161,8129,0.7255916595458984
20,8206,8188,8236,8279,8188,8168,8176,8174,8200,8177,8196,8177,8175,8147,0.7337031364440918
21,8201,8190,8240,8277,8170,8155,8156,8160,8182,8152,8178,8169,8157,8125,0.7402079105377197
22,8189,8184,8234,8262,8164,8148,8155,8135,8185,8137,8169,8150,8144,8114,0.7485668659210205
23,8211,8171,8224,8234,8158,8169,8150,8163,8166,8128,8183,8170,8178,8127,0.7570302486419678
24,8181,8160,8219,8237,8164,8150,8155,8155,8170,8140,8176,8143,8164,8119,0.7645418643951416
25,8193,8163,8227,8261,8159,8167,8152,8168,8176,8127,8179,8159,8169,8113,0.7725422382354736
26,8198,8182,8235,8272,8157,8165,8158,8162,8184,8131,8178,8170,8162,8115,0.7805662155151367
27,8200,8188,8240,8271,8174,8162,8170,8144,8199,8152,8187,8164,8155,8145,0.7885735034942627
28,8232,8176,8243,8262,8173,8177,8156,8181,8182,8131,8202,8194,8186,8169,0.7965669631958008
29,8205,8186,8246,8259,8162,8148,8150,8161,8172,8151,8184,8169,8161,8148,0.8045670986175537
30,8215,8191,8247,8261,8152,8165,8134,8147,8160,8180,8186,8175,8163,8143,0.8115663528442383
31,8221,8177,8238,8265,8148,8173,8132,8157,8148,8151,8184,8184,8169,8151,0.8194174766540527
32,8204,8177,8239,8256,8144,8158,8138,8153,8149,8124,8175,8169,8153,8153,0.8274321556091309
33,8220,8181,8241,8230,8129,8166,8105,8162,8138,8118,8185,8185,8169,8143,0.8349614143371582
33,8220,8181,8241,8230,8129,8166,8105,8162,8138,8118,8185,8185,8169,8143,0.8359565734863281
34,8203,8177,8232,8252,8142,8143,8110,8139,8156,8134,8177,8155,8155,8128,0.8435671329498291
35,8224,8178,8239,8282,8151,8158,8141,8162,8166,8140,8186,8170,8169,8155,0.8514523506164551
36,8231,8185,8251,8254,8141,8160,8134,8183,8140,8136,8194,8187,8182,8167,0.8595664501190186
37,8200,8177,8245,8234,8148,8144,8117,8148,8126,8141,8185,8155,8158,8147,0.866837739944458
38,8218,8161,8231,8239,8132,8171,8109,8158,8120,8130,8186,8173,8170,8141,0.87483811378479
39,8207,8170,8228,8251,8131,8154,8127,8149,8142,8140,8177,8161,8159,8143,0.882565975189209
40,8213,8182,8233,8250,8145,8156,8124,8162,8157,8140,8183,8162,8170,8150,0.8905656337738037
41,8219,8180,8239,8238,8138,8162,8112,8177,8152,8136,8191,8178,8182,8145,0.898566484451294
42,8203,8187,8249,8255,8152,8153,8145,8152,8171,8171,8192,8166,8155,8149,0.906620979309082
43,8233,8194,8246,8273,8180,8180,8172,8182,8186,8178,8201,8189,8173,8173,0.9146175384521484
44,8213,8202,8239,8286,8206,8158,8177,8170,8197,8169,8191,8169,8167,8175,0.9225671291351318
45,8209,8215,8249,8285,8188,8161,8155,8157,8201,8171,8200,8172,8169,8174,0.9300370216369628
46,8222,8205,8248,8260,8162,8174,8130,8176,8200,8180,8203,8181,8175,8163,0.9371402263641356
47,8195,8183,8231,8254,8185,8151,8133,8153,8201,8186,8184,8143,8150,8152,0.9451401233673096
47,8195,8183,8231,8254,8185,8151,8133,8153,8201,8186,8184,8143,8150,8152,0.9461345672607422
48,8211,8181,8231,8263,8194,8167,8121,8175,8169,8158,8191,8180,8181,8156,0.953566551208496
49,8194,8192,8233,8262,8183,8157,8130,8177,8182,8160,8187,8178,8170,8134,0.961566686630249
50,8204,8200,8237,8268,8176,8167,8166,8169,8225,8198,8190,8167,8155,8141,0.969592809677124
51,8244,8201,8251,8284,8199,8176,8182,8190,8213,8212,8206,8197,8179,8177,0.9775903224945068
52,8220,8206,8256,8287,8235,8147,8179,8167,8197,8195,8197,8179,8165,8182,0.9855906963348388
53,8234,8207,8254,8273,8195,8170,8167,8173,8191,8168,8198,8194,8175,8174,0.9936156272888184
54,8222,8200,8245,8263,8162,8165,8181,8162,8194,8180,8188,8181,8157,8157,1.0005903244018557
55,8204,8193,8236,8259,8200,8161,8199,8154,8193,8183,8177,8166,8150,8149,1.0085656642913818
56,8219,8199,8232,8259,8213,8180,8189,8185,8183,8156,8177,8193,8178,8145,1.016706466674805
57,8200,8211,8238,8276,8190,8163,8195,8164,8219,8185,8178,8178,8156,8136,1.0247061252593994
58,8226,8204,8256,8277,8188,8176,8194,8174,8248,8223,8208,8204,8171,8161,1.0326993465423584
59,8234,8210,8274,8285,8229,8164,8175,8181,8247,8242,8219,8223,8184,8200,1.0405490398406982
60,8228,8239,8283,8309,8232,8150,8156,8173,8250,8259,8217,8216,8177,8219,1.0489134788513184
61,8244,8233,8277,8300,8200,8165,8155,8204,8257,8251,8218,8220,8186,8210,1.0569136142730713
62,8222,8221,8272,8297,8222,8153,8194,8188,8279,8252,8204,8186,8164,8200,1.0635664463043213
63,8243,8227,8278,8307,8235,8175,8207,8189,8276,8238,8207,8204,8177,8207,1.071566104888916
64,8231,8224,8261,8296,8217,8165,8199,8172,8239,8211,8188,8196,8167,8179,1.079566240310669
65,8199,8201,8235,8277,8207,8153,8193,8130,8185,8198,8169,8159,8140,8154,1.0871531963348389
66,8220,8173,8232,8260,8191,8183,8165,8157,8151,8177,8180,8185,8171,8158,1.0951569080352783
67,8193,8169,8236,8268,8194,8159,8163,8152,8195,8187,8173,8167,8163,8153,1.1035666465759275
68,8190,8172,8224,8265,8193,8164,8158,8161,8218,8193,8176,8167,8167,8149,1.1118547916412354
69,8185,8156,8205,8243,8178,8168,8131,8174,8200,8164,8167,8163,8167,8127,1.1195662021636963
70,8166,8153,8214,8248,8180,8153,8124,8155,8220,8155,8158,8147,8147,8114,1.127251386642456
70,8166,8153,8214,8248,8180,8153,8124,8155,8220,8155,8158,8147,8147,8114,1.1282498836517334
71,8206,8166,8232,8255,8180,8168,8126,8174,8225,8170,8184,8183,8176,8139,1.1345667839050293
72,8201,8173,8238,8263,8195,8150,8144,8169,8223,8203,8190,8174,8169,8157,1.143702745437622
72,8201,8173,8238,8263,8195,8150,8144,8169,8223,8203,8190,8174,8169,8157,1.1447029113769531
73,8213,8186,8254,8285,8207,8161,8146,8182,8231,8220,8200,8197,8174,8178,1.1507022380828855
74,8233,8211,8270,8303,8194,8170,8135,8184,8237,8226,8208,8224,8182,8191,1.1587021350860596
75,8220,8222,8271,8307,8189,8161,8140,8137,8225,8243,8200,8190,8157,8192,1.1667027473449707
76,8242,8208,8268,8293,8209,8178,8140,8154,8178,8231,8202,8205,8177,8203,1.1747045516967771
77,8221,8201,8261,8287,8227,8152,8162,8162,8165,8208,8190,8199,8167,8202,1.1827027797698977
78,8213,8200,8247,8279,8195,8161,8173,8166,8166,8169,8178,8184,8160,8188,1.1907024383544922
79,8209,8176,8230,8263,8161,8170,8164,8170,8158,8147,8166,8181,8161,8157,1.197701930999756
80,8179,8154,8223,8255,8173,8152,8175,8141,8170,8174,8160,8168,8144,8144,1.2057037353515625
81,8203,8145,8214,8239,8163,8177,8152,8171,8156,8132,8176,8195,8171,8141,1.213703155517578
82,8187,8147,8208,8244,8161,8156,8123,8163,8151,8084,8171,8173,8162,8113,1.2217049598693848
83,8191,8156,8224,8262,8177,8151,8118,8146,8170,8133,8182,8177,8166,8136,1.229292631149292
84,8221,8176,8241,8266,8176,8168,8113,8173,8181,8179,8198,8216,8189,8174,1.2372872829437256
85,8210,8206,8258,8297,8179,8154,8123,8162,8206,8188,8192,8197,8161,8177,1.2455668449401855
86,8237,8210,8276,8328,8167,8178,8124,8179,8215,8192,8205,8220,8179,8194,1.2537312507629397
87,8225,8193,8270,8326,8172,8171,8131,8167,8215,8217,8204,8212,8174,8197,1.2617392539978027
88,8209,8183,8254,8289,8180,8170,8141,8142,8194,8213,8193,8195,8153,8186,1.2686851024627686
89,8218,8169,8244,8257,8136,8179,8144,8159,8150,8169,8187,8209,8163,8177,1.276567459106445
90,8198,8174,8246,8289,8153,8152,8176,8158,8165,8175,8184,8187,8156,8179,1.2848012447357178
91,8222,8188,8260,8315,8214,8171,8185,8197,8197,8195,8201,8213,8186,8197,1.2928080558776855
92,8210,8187,8263,8287,8196,8168,8175,8200,8218,8207,8190,8210,8180,8194,1.300842046737671
93,8205,8196,8266,8271,8159,8162,8166,8177,8250,8218,8188,8196,8161,8189,1.3088421821594238
94,8235,8200,8270,8289,8192,8175,8151,8187,8244,8201,8199,8215,8180,8180,1.316859006881714
95,8198,8175,8251,8303,8219,8148,8154,8148,8211,8197,8183,8186,8162,8161,1.3238658905029297
95,8198,8175,8251,8303,8219,8148,8154,8148,8211,8197,8183,8186,8162,8161,1.32487154006958
96,8209,8156,8235,8279,8173,8161,8130,8155,8175,8183,8191,8199,8175,8162,1.331621170043945
97,8224,8184,8248,8259,8167,8161,8115,8164,8180,8178,8194,8206,8176,8162,1.3397047519683838
98,8219,8206,8269,8281,8204,8155,8145,8143,8203,8195,8190,8198,8159,8176,1.3475303649902344
99,8244,8185,8264,8299,8192,8172,8169,8176,8191,8202,8206,8224,8182,8205,1.3555665016174316
100,8226,8188,8257,8311,8193,8149,8190,8174,8204,8238,8207,8199,8170,8210,1.3635668754577637
101,8237,8198,8254,8290,8198,8164,8180,8174,8221,8242,8203,8199,8171,8197,1.371880292892456
102,8226,8173,8236,8245,8189,8163,8161,8174,8231,8216,8181,8194,8166,8171,1.37888765335083
102,8226,8173,8236,8245,8189,8163,8161,8174,8231,8216,8181,8194,8166,8171,1.3798820972442627
103,8197,8157,8228,8247,8189,8149,8170,8170,8257,8221,8178,8180,8165,8173,1.3875300884246826
104,8223,8168,8223,8250,8178,8173,8168,8197,8258,8212,8195,8203,8186,8168,1.3942756652832031
105,8200,8176,8208,8235,8179,8163,8164,8157,8248,8197,8171,8164,8144,8122,1.40256667137146
106,8201,8161,8211,8234,8177,8176,8163,8151,8231,8182,8169,8174,8155,8122,1.4105665683746338
107,8210,8142,8212,8239,8171,8167,8160,8170,8217,8180,8182,8194,8182,8143,1.4185409545898438
108,8200,8154,8211,8228,8191,8147,8161,8148,8229,8197,8179,8173,8159,8146,1.4265551567077637
109,8235,8180,8226,8215,8201,8179,8162,8170,8221,8207,8189,8207,8174,8164,1.4345614910125732
110,8219,8187,8237,8233,8205,8160,8183,8162,8207,8224,8191,8201,8166,8181,1.4425673484802246
111,8218,8174,8232,8242,8193,8162,8179,8170,8192,8213,8196,8201,8176,8190,1.4505665302276611
112,8220,8164,8219,8219,8178,8175,8165,8199,8201,8197,8184,8205,8177,8174,1.457530498504639
113,8186,8158,8206,8197,8170,8158,8188,8177,8246,8217,8169,8178,8148,8154,1.46555495262146
114,8204,8142,8202,8187,8149,8174,8195,8188,8255,8211,8184,8201,8175,8159,1.4735748767852783
115,8184,8145,8202,8198,8170,8154,8202,8178,8261,8215,8182,8180,8172,8155,1.4815666675567627
116,8176,8153,8201,8203,8191,8163,8210,8166,8266,8221,8177,8167,8159,8142,1.4890108108520508
116,8176,8153,8201,8203,8191,8163,8210,8166,8266,8221,8177,8167,8159,8142,1.4899966716766355
117,8192,8149,8198,8181,8168,8180,8204,8168,8246,8202,8171,8182,8157,8122,1.4970042705535889
118,8179,8154,8204,8177,8179,8154,8201,8145,8240,8203,8168,8172,8145,8126,1.505997657775879
119,8207,8160,8209,8186,8196,8166,8180,8178,8226,8194,8183,8195,8179,8151,1.513566970825195
120,8198,8168,8205,8201,8182,8154,8179,8171,8227,8191,8181,8186,8165,8142,1.5210449695587158
121,8192,8175,8211,8217,8172,8152,8183,8150,8224,8202,8188,8191,8153,8149,1.5280444622039795
122,8211,8171,8220,8211,8190,8163,8174,8177,8195,8193,8189,8215,8178,8176,1.5365667343139648
123,8189,8168,8209,8207,8196,8153,8185,8169,8188,8181,8168,8184,8164,8167,1.5445702075958252
124,8198,8153,8188,8183,8146,8181,8175,8178,8174,8157,8164,8185,8163,8129,1.5521199703216553
124,8198,8153,8188,8183,8146,8181,8175,8178,8174,8157,8164,8185,8163,8129,1.5531139373779297
125,8177,8132,8176,8161,8134,8163,8185,8165,8180,8157,8149,8164,8147,8097,1.5601131916046145
126,8168,8134,8176,8176,8172,8156,8217,8161,8192,8160,8147,8151,8153,8096,1.5685670375823977
127,8185,8137,8168,8170,8164,8176,8209,8187,8163,8121,8152,8160,8176,8082,1.5765681266784668
241,8159,8130,8164,8159,8153,8159,8210,8165,8178,8121,8146,8133,8155,8063,1.5846080780029297
0,8186,8135,8171,8160,8165,8176,8214,8187,8218,8146,8162,8167,8176,8088,1.5916080474853516
1,8190,8153,8176,8162,8167,8172,8205,8190,8227,8164,8166,8178,8172,8103,1.599567413330078
2,8181,8160,8183,8159,8154,8169,8187,8162,8212,8171,8171,8169,8160,8106,1.6075294017791748
3,8199,8140,8174,8157,8150,8170,8158,8178,8180,8131,8170,8184,8175,8097,1.6152257919311523
4,8165,8121,8156,8160,8158,8139,8136,8158,8159,8101,8146,8146,8149,8068,1.6235663890838623
5,8185,8127,8166,8149,8130,8174,8111,8159,8137,8102,8157,8153,8165,8074,1.6310696601867676
5,8185,8127,8166,8149,8130,8174,8111,8159,8137,8102,8157,8153,8165,8074,1.6320703029632568
6,8199,8149,8178,8148,8114,8180,8116,8153,8128,8115,8157,8151,8172,8086,1.6397862434387207
7,8177,8148,8164,8162,8141,8156,8145,8141,8130,8116,8141,8125,8153,8077,1.647535800933838
8,8188,8128,8147,8151,8145,8171,8150,8182,8114,8083,8146,8137,8170,8060,1.6554057598114014
9,8167,8138,8147,8143,8143,8161,8156,8170,8137,8086,8144,8116,8159,8046,1.6624908447265625
10,8179,8147,8154,8148,8137,8185,8162,8172,8178,8116,8150,8130,8166,8056,1.6714191436767578
11,8183,8139,8161,8150,8143,8184,8181,8191,8201,8140,8158,8147,8172,8071,1.678612470626831
12,8174,8160,8178,8159,8167,8160,8188,8175,8202,8147,8169,8138,8164,8086,1.6863749027252195
12,8174,8160,8178,8159,8167,8160,8188,8175,8202,8147,8169,8138,8164,8086,1.687293529510498
13,8200,8173,8179,8159,8149,8182,8147,8180,8166,8125,8168,8160,8177,8074,1.6942903995513916
14,8163,8144,8152,8164,8124,8171,8133,8150,8149,8121,8143,8136,8152,8039,1.7027714252471924
15,8172,8131,8151,8169,8121,8178,8126,8143,8119,8100,8150,8135,8164,8050,1.7107703685760498
16,8203,8161,8172,8163,8134,8173,8095,8158,8066,8072,8161,8144,8185,8059,1.71856951713562
17,8179,8180,8178,8167,8150,8156,8089,8145,8073,8101,8154,8120,8161,8039,1.7254865169525146
18,8191,8165,8163,8168,8140,8186,8103,8177,8109,8121,8162,8138,8167,8044,1.7334811687469482
19,8177,8166,8151,8170,8156,8167,8132,8181,8139,8119,8154,8124,8154,8049,1.741569757461548
20,8176,8173,8155,8157,8167,8162,8141,8181,8143,8110,8148,8117,8155,8041,1.7495627403259275
21,8177,8157,8146,8138,8141,8171,8138,8191,8142,8107,8145,8125,8165,8025,1.7575349807739258
22,8144,8148,8124,8151,8141,8152,8156,8155,8158,8118,8136,8098,8142,8016,1.765568733215332
23,8160,8134,8109,8138,8144,8160,8140,8159,8130,8093,8138,8113,8161,8022,1.7735519409179688
24,8145,8112,8104,8100,8134,8141,8125,8149,8103,8063,8129,8101,8157,8013,1.7815463542938232
25,8144,8123,8115,8096,8126,8150,8137,8142,8109,8075,8138,8108,8154,8017,1.7885792255401611
26,8168,8144,8129,8123,8118,8168,8136,8156,8101,8091,8151,8139,8167,8033,1.796626091003418
26,8168,8144,8129,8123,8118,8168,8136,8156,8101,8091,8151,8139,8167,8033,1.7970020771026611
27,8150,8151,8136,8149,8135,8142,8132,8123,8086,8095,8146,8115,8147,8041,1.8045556545257568
28,8178,8162,8150,8148,8144,8162,8110,8144,8067,8086,8160,8138,8170,8057,1.8125555515289309
29,8166,8169,8152,8153,8133,8157,8098,8158,8082,8099,8151,8135,8164,8043,1.8206536769866943
30,8139,8151,8133,8147,8131,8156,8105,8149,8097,8098,8129,8101,8139,8026,1.828032732009888
31,8161,8137,8121,8110,8134,8174,8117,8182,8086,8060,8134,8115,8164,8023,1.8365662097930908
32,8145,8140,8124,8115,8138,8147,8149,8170,8114,8066,8133,8095,8154,8013,1.8445539474487305
33,8155,8121,8123,8130,8126,8166,8151,8175,8132,8066,8139,8105,8155,8004,1.851543664932251
34,8155,8109,8116,8110,8130,8173,8155,8178,8130,8068,8139,8114,8161,7997,1.859569787979126
35,8150,8125,8121,8089,8130,8159,8168,8156,8129,8090,8138,8094,8157,8016,1.867529392242432
36,8176,8119,8126,8086,8096,8172,8131,8170,8093,8060,8157,8121,8176,8032,1.8755695819854736
37,8157,8125,8137,8116,8094,8159,8113,8148,8074,8065,8156,8123,8156,8023,1.8835666179656985
38,8184,8155,8165,8140,8104,8178,8128,8156,8083,8109,8162,8145,8167,8050,1.8915660381317136
39,8200,8173,8181,8152,8125,8165,8136,8174,8102,8127,8173,8168,8188,8093,1.8996336460113523
40,8191,8182,8184,8179,8160,8149,8140,8164,8120,8133,8175,8161,8178,8112,1.9076311588287356
41,8218,8186,8191,8181,8146,8180,8129,8187,8112,8123,8173,8179,8186,8099,1.9146487712860107
42,8180,8183,8183,8160,8137,8166,8133,8167,8120,8123,8156,8145,8157,8065,1.9226713180541992
43,8180,8175,8171,8145,8143,8177,8140,8171,8117,8100,8161,8147,8169,8070,1.9306318759918213
44,8191,8162,8164,8144,8138,8181,8141,8192,8103,8077,8159,8159,8183,8066,1.9387423992156985
45,8171,8149,8157,8145,8135,8173,8150,8164,8122,8100,8147,8127,8147,8032,1.946561574935913
46,8197,8141,8154,8116,8105,8199,8146,8176,8115,8097,8158,8152,8169,8031,1.9545667171478271
47,8179,8153,8162,8105,8089,8176,8152,8170,8096,8088,8157,8153,8181,8048,1.9625465869903564
48,8185,8161,8176,8132,8109,8183,8143,8174,8089,8090,8162,8162,8184,8054,1.970212697982788
49,8204,8162,8180,8144,8118,8191,8131,8190,8099,8098,8169,8180,8183,8051,1.9782187938690183
50,8190,8175,8182,8135,8111,8167,8138,8163,8111,8108,8164,8156,8168,8066,1.985560417175293
51,8212,8173,8179,8121,8109,8183,8102,8178,8069,8084,8170,8176,8194,8081,1.9935524463653564
52,8193,8171,8176,8127,8126,8175,8093,8175,8064,8103,8164,8173,8180,8068,2.001556396484375
53,8201,8193,8189,8146,8121,8187,8126,8180,8114,8143,8175,8180,8175,8080,2.0095386505126958
54,8212,8189,8182,8141,8110,8194,8133,8197,8118,8133,8178,8186,8189,8083,2.0176401138305664
55,8164,8159,8161,8117,8112,8166,8120,8176,8099,8112,8157,8143,8164,8052,2.025653600692749
56,8176,8157,8171,8100,8096,8183,8121,8209,8111,8114,8165,8160,8174,8045,2.033653497695923
57,8171,8176,8175,8105,8102,8177,8163,8201,8163,8148,8162,8153,8163,8050,2.04117488861084
58,8163,8159,8152,8104,8108,8178,8177,8171,8162,8137,8156,8140,8162,8056,2.04917573928833
59,8165,8136,8148,8106,8100,8170,8158,8192,8127,8093,8163,8159,8185,8056,2.0561742782592773
60,8142,8165,8171,8131,8124,8143,8174,8184,8159,8123,8163,8145,8161,8064,2.0641753673553467
61,8179,8202,8183,8133,8127,8175,8182,8188,8179,8159,8173,8167,8168,8095,2.072182893753052
62,8176,8197,8176,8134,8131,8162,8174,8158,8155,8153,8172,8160,8164,8100,2.080241680145264
63,8164,8182,8173,8148,8154,8155,8154,8145,8129,8153,8174,8155,8162,8098,2.0884838104248047
64,8181,8184,8168,8144,8152,8177,8122,8180,8109,8154,8172,8174,8172,8090,2.096479654312134
65,8161,8188,8160,8143,8138,8161,8126,8167,8104,8156,8159,8140,8151,8072,2.10456657409668
66,8183,8170,8153,8133,8120,8183,8125,8184,8078,8127,8161,8153,8174,8068,2.11156702041626
67,8167,8146,8140,8118,8118,8179,8119,8190,8079,8103,8148,8149,8170,8047,2.1195664405822754
68,8155,8156,8139,8110,8117,8174,8134,8180,8119,8114,8148,8138,8164,8037,2.127565860748291
69,8184,8163,8141,8097,8095,8192,8144,8196,8127,8112,8159,8156,8185,8043,2.135078430175781
69,8184,8163,8141,8097,8095,8192,8144,8196,8127,8112,8159,8156,8185,8043,2.136087656021118
70,8155,8147,8135,8098,8087,8169,8151,8164,8111,8099,8152,8129,8158,8036,2.1435701847076416
70,8155,8147,8135,8098,8087,8169,8151,8164,8111,8099,8152,8129,8158,8036,2.14391565322876
71,8170,8147,8143,8093,8083,8184,8142,8180,8088,8083,8170,8154,8179,8049,2.1509222984313965
72,8176,8170,8159,8091,8102,8175,8136,8191,8102,8116,8172,8162,8187,8053,2.158931970596313
72,8176,8170,8159,8091,8102,8175,8136,8191,8102,8116,8172,8162,8187,8053,2.159921646118164
73,8166,8184,8174,8118,8133,8164,8141,8156,8132,8165,8169,8155,8164,8058,2.1675305366516118
74,8193,8193,8179,8142,8117,8188,8125,8161,8115,8157,8186,8186,8181,8082,2.175567150115967
75,8166,8202,8172,8148,8107,8164,8114,8147,8100,8156,8178,8165,8172,8089,2.182796001434326
75,8166,8202,8172,8148,8107,8164,8114,8147,8100,8156,8178,8165,8172,8089,2.1829562187194824
76,8160,8177,8161,8129,8121,8166,8095,8165,8093,8148,8167,8164,8171,8074,2.1909432411193848
77,8156,8154,8148,8119,8127,8167,8113,8176,8114,8141,8160,8153,8159,8051,2.197940826416016
77,8156,8154,8148,8119,8127,8167,8113,8176,8114,8141,8160,8153,8159,8051,2.198941946029663
78,8143,8163,8138,8122,8114,8161,8156,8157,8155,8160,8161,8130,8144,8050,2.205965518951416
78,8143,8163,8138,8122,8114,8161,8156,8157,8155,8160,8161,8130,8144,8050,2.206965208053589
79,8153,8149,8121,8085,8102,8173,8144,8178,8149,8140,8150,8143,8158,8051,2.2145678997039795
80,8105,8128,8104,8061,8120,8143,8135,8158,8141,8115,8127,8109,8134,8028,2.2225096225738525
81,8106,8130,8106,8078,8101,8159,8132,8160,8137,8109,8139,8121,8148,8021,2.230429172515869
82,8127,8138,8112,8086,8071,8161,8130,8168,8124,8128,8149,8142,8160,8024,2.2379279136657715
83,8123,8148,8120,8088,8105,8139,8149,8146,8132,8157,8156,8130,8146,8044,2.2459278106689453
84,8145,8159,8135,8097,8121,8156,8134,8163,8129,8145,8170,8155,8166,8071,2.252927541732788
85,8131,8177,8150,8124,8125,8140,8126,8145,8139,8157,8162,8155,8152,8078,2.260927200317383
86,8148,8186,8156,8132,8130,8156,8149,8153,8153,8182,8170,8173,8160,8100,2.268927335739136
87,8140,8156,8126,8092,8111,8156,8169,8172,8136,8150,8158,8155,8163,8081,2.2769272327423096
88,8102,8117,8090,8064,8098,8139,8166,8147,8116,8108,8134,8107,8134,8023,2.2859272956848145
89,8135,8105,8090,8062,8094,8175,8155,8171,8110,8093,8146,8142,8160,8013,2.292927026748657
89,8135,8105,8090,8062,8094,8175,8155,8171,8110,8093,8146,8142,8160,8013,2.2939271926879883
90,8120,8116,8101,8057,8097,8159,8170,8162,8127,8098,8141,8137,8158,8022,2.301927089691162
91,8124,8129,8103,8051,8084,8157,8158,8150,8116,8090,8144,8131,8164,8031,2.308927059173584
91,8124,8129,8103,8051,8084,8157,8158,8150,8116,8090,8144,8131,8164,8031,2.309927225112915
92,8161,8131,8105,8067,8084,8174,8131,8172,8094,8094,8155,8151,8177,8026,2.3160417079925537
93,8150,8144,8130,8086,8108,8160,8138,8155,8103,8125,8153,8144,8158,8031,2.324625968933105
94,8180,8163,8155,8082,8094,8174,8119,8164,8088,8109,8163,8179,8180,8061,2.33262300491333
95,8176,8172,8156,8101,8084,8165,8098,8153,8087,8100,8164,8175,8169,8057,2.340163230895996
96,8169,8172,8157,8115,8105,8175,8098,8153,8107,8119,8164,8162,8157,8045,2.3485662937164307
97,8178,8163,8151,8099,8105,8192,8113,8187,8113,8111,8155,8171,8169,8039,2.3567371368408203
98,8148,8166,8145,8109,8106,8173,8168,8177,8150,8117,8145,8146,8153,8043,2.364737033843994
99,8169,8173,8152,8107,8115,8190,8191,8194,8166,8115,8156,8159,8172,8052,2.372560501098633
100,8165,8174,8144,8088,8121,8175,8190,8190,8153,8108,8151,8152,8169,8041,2.3791844844818115
100,8165,8174,8144,8088,8121,8175,8190,8190,8153,8108,8151,8152,8169,8041,2.3801844120025635
101,8153,8172,8130,8101,8127,8171,8203,8179,8153,8113,8153,8153,8164,8049,2.387763023376465
102,8169,8166,8136,8110,8136,8187,8199,8196,8148,8109,8158,8178,8180,8057,2.3957624435424805
103,8151,8180,8149,8114,8146,8161,8189,8161,8149,8130,8150,8147,8153,8048,2.40356707572937
104,8179,8192,8151,8133,8127,8181,8170,8160,8130,8132,8158,8160,8160,8062,2.411567449569702
105,8182,8203,8160,8157,8142,8176,8162,8162,8114,8117,8160,8172,8171,8078,2.4195659160614014
106,8169,8222,8179,8169,8188,8163,8169,8153,8130,8123,8163,8161,8168,8088,2.4272243976593018
107,8189,8219,8173,8157,8171,8183,8159,8185,8157,8136,8173,8175,8178,8087,2.435222864151001
108,8161,8207,8145,8149,8158,8167,8172,8177,8210,8169,8156,8146,8157,8080,2.442689180374145
108,8161,8207,8145,8149,8158,8167,8172,8177,8210,8169,8156,8146,8157,8080,2.4428341388702397
109,8162,8186,8130,8131,8156,8181,8187,8191,8226,8163,8155,8148,8172,8090,2.450567483901977
110,8151,8160,8124,8111,8138,8174,8201,8207,8210,8140,8157,8154,8178,8082,2.458566188812256
111,8127,8158,8129,8125,8148,8159,8226,8184,8220,8159,8151,8145,8153,8071,2.466588020324707
112,8165,8175,8138,8135,8152,8184,8229,8188,8220,8171,8156,8174,8167,8078,2.4745934009552
112,8165,8175,8138,8135,8152,8184,8229,8188,8220,8171,8156,8174,8167,8078,2.474973440170288
113,8159,8182,8139,8132,8144,8163,8225,8159,8200,8163,8149,8151,8154,8076,2.482797622680664
114,8168,8177,8142,8137,8139,8167,8206,8163,8169,8141,8156,8151,8160,8083,2.4898056983947754
114,8168,8177,8142,8137,8139,8167,8206,8163,8169,8141,8156,8151,8160,8083,2.490799188613892
115,8171,8191,8146,8140,8149,8167,8197,8180,8175,8149,8165,8161,8169,8089,2.4985392093658447
116,8147,8208,8145,8138,8162,8156,8209,8150,8209,8179,8164,8142,8147,8092,2.5066077709198
117,8169,8198,8146,8146,8157,8180,8192,8167,8182,8157,8168,8160,8164,8103,2.513605117797852
118,8147,8192,8145,8173,8175,8156,8186,8160,8163,8145,8156,8140,8157,8093,2.521568298339844
119,8147,8204,8146,8173,8186,8157,8195,8155,8186,8165,8158,8142,8159,8085,2.529566526412964
120,8160,8201,8148,8156,8188,8162,8210,8175,8211,8177,8161,8161,8165,8096,2.53769850730896
121,8133,8184,8136,8155,8198,8140,8239,8167,8226,8187,8153,8136,8150,8108,2.545210838317871
121,8133,8184,8136,8155,8198,8140,8239,8167,8226,8187,8153,8136,8150,8108,2.5462114810943604
122,8145,8173,8121,8140,8187,8161,8232,8191,8209,8174,8158,8146,8173,8107,2.553212404251098
123,8129,8189,8127,8150,8196,8152,8226,8173,8220,8180,8153,8137,8153,8097,2.5615665912628174
124,8141,8203,8141,8171,8200,8154,8235,8152,8241,8198,8160,8137,8139,8112,2.5695366859436035
125,8153,8187,8140,8151,8180,8154,8238,8157,8223,8198,8172,8148,8160,8122,2.5765366554260254
126,8126,8192,8143,8161,8200,8133,8241,8137,8220,8215,8168,8134,8150,8123,2.584566593170166
127,8165,8214,8156,8193,8212,8158,8219,8160,8222,8208,8175,8162,8162,8133,2.5925662517547607
241,8158,8214,8162,8200,8219,8151,8223,8146,8235,8214,8176,8150,8154,8130,2.600796699523926
0,8151,8211,8174,8204,8255,8153,8245,8137,8247,8238,8186,8148,8153,8154,2.608809232711792
1,8178,8229,8173,8213,8271,8157,8243,8180,8234,8237,8191,8177,8170,8177,2.616844892501831
2,8155,8244,8162,8221,8254,8132,8249,8171,8239,8243,8174,8146,8146,8159,2.624383449554444
3,8178,8231,8172,8215,8230,8173,8253,8185,8254,8241,8177,8158,8159,8151,2.6323883533477783
4,8181,8229,8172,8205,8232,8171,8263,8183,8274,8242,8179,8161,8158,8152,2.6405506134033203
5,8170,8242,8161,8203,8216,8159,8255,8164,8252,8233,8171,8148,8150,8158,2.6475656032562256
6,8185,8237,8159,8198,8193,8177,8218,8180,8199,8201,8164,8166,8164,8142,2.6555635929107666
7,8167,8232,8157,8198,8211,8161,8213,8158,8206,8203,8157,8150,8144,8117,2.663854122161865
8,8191,8232,8159,8188,8215,8174,8215,8165,8210,8200,8174,8173,8164,8138,2.671856641769409
9,8188,8228,8169,8195,8212,8164,8214,8165,8191,8192,8176,8176,8172,8157,2.679565668106079
10,8175,8220,8178,8218,8213,8160,8209,8146,8189,8200,8169,8162,8155,8146,2.6875674724578857
11,8199,8214,8175,8198,8200,8186,8197,8165,8189,8198,8170,8186,8168,8132,2.6955668926239014
12,8174,8217,8175,8185,8208,8166,8221,8147,8205,8210,8164,8170,8157,8129,2.7035672664642334
13,8175,8195,8175,8200,8202,8172,8217,8163,8195,8202,8170,8181,8167,8145,2.710571050643921
14,8162,8161,8165,8196,8187,8166,8195,8183,8182,8189,8169,8180,8165,8131,2.718569040298462
15,8149,8168,8165,8190,8200,8160,8212,8174,8215,8206,8165,8167,8151,8123,2.726171970367432
16,8174,8181,8162,8188,8196,8178,8227,8191,8220,8211,8167,8189,8169,8133,2.734205961227417
17,8140,8169,8148,8184,8187,8148,8235,8160,8192,8208,8154,8159,8148,8124,2.7425668239593506
18,8150,8166,8155,8170,8184,8158,8229,8159,8172,8188,8167,8168,8161,8132,2.750568389892578
19,8158,8167,8168,8171,8192,8163,8220,8179,8186,8190,8174,8187,8176,8141,2.7585608959198
20,8137,8167,8169,8191,8197,8155,8212,8154,8209,8216,8159,8158,8149,8132,2.766575336456299
21,8174,8175,8166,8204,8176,8181,8198,8159,8198,8207,8165,8177,8162,8134,2.7735726833343506
22,8162,8184,8171,8212,8197,8155,8220,8148,8202,8217,8169,8175,8159,8152,2.781670570373535
23,8154,8170,8173,8192,8221,8153,8221,8162,8196,8218,8172,8173,8162,8160,2.7896642684936523
24,8155,8152,8166,8182,8204,8158,8194,8175,8186,8193,8169,8170,8158,8134,2.7976784706115723
25,8147,8166,8172,8213,8211,8149,8208,8144,8216,8220,8166,8155,8138,8129,2.80553936958313
26,8181,8176,8183,8215,8224,8172,8224,8167,8223,8242,8181,8187,8168,8162,2.8135740756988525
27,8155,8160,8166,8193,8222,8148,8232,8168,8218,8234,8169,8172,8161,8157,2.8215761184692383
28,8143,8147,8151,8183,8200,8155,8227,8162,8222,8218,8157,8164,8147,8131,2.829561471939087
29,8151,8146,8147,8184,8181,8168,8223,8165,8214,8203,8154,8175,8150,8118,2.836065530776977
30,8132,8149,8148,8194,8206,8139,8249,8141,8213,8204,8148,8152,8144,8127,2.844083309173584
31,8169,8156,8163,8199,8226,8157,8248,8176,8210,8203,8169,8182,8177,8154,2.852561712265014
32,8167,8181,8180,8221,8243,8156,8250,8179,8246,8238,8180,8190,8164,8160,2.860563039779663
33,8165,8190,8186,8234,8250,8164,8259,8158,8267,8259,8177,8184,8143,8161,2.8685548305511475
34,8174,8166,8170,8202,8226,8166,8232,8164,8232,8228,8164,8180,8157,8144,2.8765547275543213
35,8139,8146,8149,8184,8221,8138,8205,8142,8216,8216,8152,8144,8153,8119,2.884566307067871
36,8160,8143,8143,8176,8218,8166,8185,8160,8203,8201,8161,8167,8168,8115,2.892082929611206
37,8163,8153,8145,8163,8208,8162,8193,8157,8198,8192,8150,8159,8144,8102,2.9005391597747803
38,8164,8172,8152,8185,8205,8158,8216,8149,8211,8209,8154,8146,8136,8112,2.9071202278137207
39,8187,8183,8164,8216,8210,8168,8219,8179,8205,8208,8175,8183,8174,8137,2.91556715965271
40,8159,8177,8166,8212,8222,8142,8218,8159,8204,8198,8165,8166,8157,8136,2.9236321449279785
41,8163,8139,8143,8171,8202,8165,8190,8167,8186,8172,8151,8156,8151,8107,2.931635618209839
42,8145,8111,8123,8159,8183,8166,8179,8167,8178,8169,8135,8137,8143,8067,2.9395551681518555
43,8140,8119,8139,8180,8185,8160,8202,8151,8207,8193,8141,8139,8146,8084,2.9475302696228027
44,8172,8120,8156,8183,8203,8172,8204,8180,8205,8186,8164,8180,8179,8123,2.9559102058410645
45,8149,8116,8150,8185,8224,8149,8201,8172,8186,8177,8154,8159,8157,8108,2.963566303253174
46,8163,8129,8153,8194,8194,8171,8192,8178,8186,8178,8157,8170,8159,8099,2.970589399337769
47,8167,8137,8170,8212,8189,8172,8185,8169,8206,8204,8170,8182,8170,8117,2.978584051132202
48,8160,8136,8181,8231,8224,8154,8178,8148,8202,8217,8172,8173,8162,8133,2.98656702041626
49,8180,8127,8167,8214,8209,8166,8143,8167,8155,8167,8156,8186,8166,8113,2.994560956954956
50,8140,8113,8138,8186,8188,8155,8134,8136,8147,8136,8132,8142,8135,8066,3.002562522888184
51,8147,8102,8135,8180,8188,8180,8160,8148,8157,8132,8143,8148,8148,8071,3.0105624198913574
52,8153,8102,8142,8181,8193,8168,8193,8178,8163,8143,8152,8173,8167,8090,3.0185554027557373
53,8132,8120,8146,8172,8190,8143,8201,8151,8183,8169,8150,8153,8152,8084,3.026539802551269
54,8162,8128,8148,8169,8174,8172,8189,8166,8179,8166,8160,8163,8167,8085,3.033564805984497
55,8148,8122,8147,8202,8198,8157,8216,8165,8186,8173,8156,8154,8158,8099,3.041067123413086
56,8154,8126,8157,8221,8230,8163,8224,8173,8202,8180,8160,8171,8167,8123,3.0495524406433105
57,8169,8140,8166,8209,8215,8165,8202,8187,8205,8201,8170,8187,8174,8125,3.0575668811798096
58,8162,8153,8178,8228,8208,8145,8201,8157,8204,8254,8180,8177,8150,8133,3.0655627250671387
59,8195,8158,8194,8249,8231,8164,8185,8166,8198,8256,8191,8208,8167,8166,3.0735583305358887
60,8183,8175,8205,8256,8261,8149,8183,8156,8224,8240,8181,8194,8162,8180,3.0815582275390625
61,8193,8182,8205,8253,8243,8154,8171,8154,8211,8224,8185,8192,8169,8180,3.089561700820923
62,8193,8160,8186,8229,8207,8160,8143,8164,8163,8190,8176,8194,8176,8152,3.09755802154541
63,8147,8143,8157,8211,8217,8145,8162,8135,8163,8176,8144,8148,8144,8112,3.104539394378662
64,8156,8119,8133,8183,8203,8174,8186,8154,8159,8160,8142,8154,8156,8089,3.1125802993774414
65,8137,8106,8130,8164,8171,8159,8204,8148,8145,8161,8145,8147,8149,8069,3.1205804347991943
66,8141,8117,8144,8171,8175,8157,8216,8145,8138,8175,8155,8150,8153,8088,3.1289687156677246
67,8171,8122,8146,8174,8194,8167,8219,8174,8132,8177,8161,8170,8179,8114,3.1359779834747314
67,8171,8122,8146,8174,8194,8167,8219,8174,8132,8177,8161,8170,8179,8114,3.1370508670806885
68,8157,8123,8150,8184,8204,8143,8210,8157,8138,8186,8155,8157,8157,8119,3.1448447704315186
69,8188,8137,8179,8200,8199,8161,8180,8171,8126,8189,8177,8202,8169,8142,3.152717113494873
70,8196,8165,8204,8233,8223,8155,8182,8172,8155,8226,8191,8212,8179,8171,3.1597156524658203
71,8197,8189,8216,8267,8240,8157,8185,8173,8208,8261,8190,8202,8180,8193,3.1677017211914062
72,8211,8197,8227,8275,8235,8170,8160,8187,8206,8246,8188,8229,8182,8195,3.175566434860229
73,8192,8201,8224,8280,8260,8152,8170,8150,8206,8251,8181,8206,8151,8181,3.183152914047241
74,8208,8189,8201,8273,8245,8175,8186,8165,8207,8254,8182,8199,8164,8172,3.1911540031433105
74,8208,8189,8201,8273,8245,8175,8186,8165,8207,8254,8182,8199,8164,8172,3.1921474933624268
75,8180,8159,8174,8250,8209,8164,8212,8174,8202,8237,8165,8182,8166,8149,3.199391841888428
76,8155,8138,8163,8207,8219,8160,8247,8163,8205,8210,8155,8167,8158,8134,3.2074084281921387
77,8180,8136,8161,8181,8229,8182,8246,8187,8196,8181,8158,8180,8169,8120,3.215737819671631
78,8157,8141,8160,8217,8228,8153,8253,8166,8208,8205,8147,8154,8144,8109,3.223742961883545
79,8173,8134,8160,8223,8208,8167,8250,8169,8202,8219,8157,8175,8159,8124,3.2305703163146973
80,8182,8131,8169,8201,8199,8166,8224,8172,8177,8200,8165,8183,8171,8131,3.2382047176361084
81,8185,8153,8199,8227,8207,8156,8201,8152,8177,8201,8174,8176,8164,8150,3.246211528778076
82,8222,8172,8216,8254,8202,8174,8178,8164,8173,8209,8187,8206,8178,8168,3.2545621395111084
83,8199,8171,8209,8263,8206,8151,8170,8133,8164,8216,8173,8181,8152,8150,3.2625694274902344
84,8204,8171,8208,8250,8202,8164,8152,8128,8132,8189,8176,8187,8164,8150,3.2702791690826416
84,8204,8171,8208,8250,8202,8164,8152,8128,8132,8189,8176,8187,8164,8150,3.271275043487549
85,8202,8171,8205,8226,8208,8163,8149,8148,8117,8170,8178,8187,8177,8156,3.278282880783081
86,8179,8166,8202,8240,8227,8151,8170,8153,8154,8195,8172,8159,8156,8145,3.285280227661133
87,8197,8152,8190,8238,8202,8173,8164,8186,8173,8206,8172,8176,8165,8125,3.2935705184936523
88,8177,8142,8173,8203,8184,8156,8177,8169,8197,8222,8160,8159,8149,8111,3.3015482425689697
89,8183,8138,8175,8207,8196,8166,8202,8178,8214,8219,8165,8169,8157,8128,3.309605360031128
90,8180,8130,8174,8219,8202,8163,8196,8194,8204,8182,8168,8176,8166,8119,3.317623376846313
91,8158,8135,8165,8195,8190,8147,8175,8160,8187,8175,8156,8151,8146,8094,3.3253986835479736
92,8190,8140,8175,8181,8161,8173,8158,8172,8159,8184,8160,8176,8166,8109,3.335354804992676
92,8190,8140,8175,8181,8161,8173,8158,8172,8159,8184,8160,8176,8166,8109,3.336353063583374
93,8178,8145,8184,8202,8177,8155,8169,8160,8160,8193,8160,8170,8160,8128,3.341404914855957
93,8178,8145,8184,8202,8177,8155,8169,8160,8160,8193,8160,8170,8160,8128,3.341794013977051
94,8183,8153,8186,8213,8201,8161,8148,8152,8149,8169,8171,8180,8165,8138,3.3498013019561768
95,8200,8156,8194,8213,8189,8172,8121,8162,8137,8160,8179,8198,8172,8140,3.3578004837036133
96,8183,8165,8199,8205,8176,8150,8134,8138,8150,8200,8172,8172,8148,8151,3.364799737930298
97,8200,8161,8185,8183,8163,8166,8117,8161,8126,8190,8174,8186,8169,8157,3.372801780700684
98,8169,8160,8168,8198,8179,8151,8099,8158,8118,8170,8160,8167,8159,8126,3.380800247192383
99,8155,8152,8161,8205,8186,8157,8112,8148,8144,8175,8153,8150,8147,8108,3.3888018131256104
100,8165,8121,8149,8166,8164,8167,8132,8165,8158,8175,8156,8160,8160,8101,3.3968005180358887
101,8146,8117,8141,8160,8179,8145,8157,8155,8174,8186,8157,8147,8152,8099,3.4048001766204834
102,8178,8138,8154,8173,8190,8166,8165,8185,8183,8180,8166,8172,8175,8113,3.4128007888793945
103,8161,8149,8162,8170,8184,8154,8173,8178,8195,8183,8156,8158,8165,8106,3.4205663204193115
104,8156,8154,8161,8175,8184,8153,8169,8160,8185,8185,8160,8152,8159,8106,3.4285833835601807
105,8193,8168,8170,8188,8183,8168,8157,8171,8150,8164,8173,8182,8175,8115,3.435492515563965
106,8175,8189,8193,8213,8194,8146,8162,8145,8155,8171,8166,8164,8151,8116,3.4438745975494385
107,8193,8203,8211,8226,8201,8174,8148,8162,8177,8189,8172,8184,8163,8129,3.4515671730041504
108,8198,8208,8211,8220,8209,8168,8146,8156,8158,8224,8176,8186,8163,8140,3.459541320800781
109,8198,8192,8200,8214,8209,8158,8163,8139,8100,8239,8176,8174,8152,8145,3.4680209159851074
110,8206,8166,8179,8205,8198,8172,8169,8175,8085,8195,8165,8180,8163,8130,3.4760220050811768
111,8170,8156,8163,8196,8214,8143,8201,8171,8096,8196,8143,8146,8150,8108,3.4835612773895264
112,8182,8148,8160,8172,8214,8154,8212,8183,8023,8213,8155,8155,8171,8110,3.4915661811828613
112,8182,8148,8160,8172,8214,8154,8212,8183,8023,8213,8155,8155,8171,8110,3.492083072662353
113,8170,8141,8160,8157,8193,8156,8199,8180,8019,8183,8160,8152,8163,8095,3.4985663890838623
114,8161,8157,8169,8177,8194,8158,8207,8159,8148,8169,8153,8143,8140,8090,3.5071070194244385
115,8198,8169,8179,8194,8218,8175,8214,8180,8185,8207,8165,8174,8168,8117,3.5151047706604004
116,8172,8161,8175,8198,8241,8148,8214,8163,8142,8242,8166,8153,8160,8120,3.5225749015808105
117,8171,8148,8168,8185,8210,8166,8173,8160,8135,8194,8162,8146,8157,8094,3.530566453933716
118,8168,8147,8160,8176,8183,8172,8144,8147,8138,8160,8149,8136,8154,8068,3.538743019104004
119,8158,8149,8162,8183,8215,8163,8168,8134,8131,8198,8156,8132,8152,8091,3.546743154525757
120,8186,8141,8169,8178,8227,8182,8170,8179,8117,8208,8168,8164,8175,8112,3.554561138153076
121,8161,8147,8162,8177,8206,8162,8187,8173,8145,8196,8152,8138,8147,8091,3.5623779296875
122,8168,8146,8156,8170,8189,8198,8213,8180,8180,8188,8154,8145,8153,8097,3.5693960189819336
123,8172,8131,8155,8155,8204,8246,8215,8195,8174,8191,8158,8156,8173,8103,3.5773839950561523
124,8151,8147,8166,8170,8229,8266,8222,8174,8169,8204,8160,8132,8156,8098,3.5855391025543213
125,8182,8163,8176,8187,8225,8284,8226,8188,8175,8205,8171,8159,8167,8111,3.593467712402344
126,8164,8149,8170,8184,8236,8243,8227,8161,8173,8223,8163,8153,8157,8114,3.6014597415924072
127,8161,8138,8170,8171,8225,8240,8210,8152,8143,8214,8171,8153,8165,8116,3.6095669269561768
241,8175,8147,8181,8175,8216,8245,8205,8171,8167,8190,8179,8165,8168,8119,3.617564201354981
0,8171,8164,8194,8201,8249,8230,8219,8149,8207,8229,8170,8153,8145,8127,3.6245675086975098
1,8199,8168,8205,8205,8246,8248,8208,8163,8162,8245,8176,8173,8167,8146,3.6325607299804688
2,8171,8163,8201,8200,8244,8209,8203,8159,8146,8218,8170,8150,8155,8142,3.640470027923584
3,8169,8156,8196,8202,8240,8205,8198,8166,8182,8198,8167,8149,8151,8142,3.648472785949707
4,8188,8157,8199,8207,8204,8220,8189,8190,8186,8196,8173,8174,8168,8145,3.656538963317871
5,8164,8169,8206,8206,8199,8201,8191,8160,8188,8215,8168,8153,8150,8135,3.664364814758301
6,8181,8158,8198,8190,8202,8220,8173,8166,8152,8195,8165,8159,8159,8125,3.672364234924317
7,8158,8129,8171,8185,8194,8197,8155,8155,8114,8155,8149,8139,8148,8101,3.680096387863159
8,8145,8119,8171,8184,8171,8197,8150,8148,8138,8139,8146,8136,8147,8098,3.688101053237915
9,8166,8128,8183,8166,8160,8222,8144,8170,8142,8149,8154,8154,8167,8097,3.695101976394653
10,8143,8143,8173,8172,8213,8197,8136,8140,8130,8150,8147,8128,8145,8072,3.703179359436035
11,8156,8136,8162,8177,8235,8210,8115,8148,8110,8122,8150,8138,8150,8062,3.7111704349517822
12,8146,8126,8168,8170,8186,8208,8140,8152,8094,8157,8153,8132,8152,8067,3.719187021255493
13,8145,8135,8175,8177,8152,8204,8156,8146,8092,8180,8157,8132,8160,8088,3.727882623672485
14,8161,8136,8163,8169,8165,8205,8104,8171,8100,8111,8151,8149,8172,8081,3.7348830699920654
15,8127,8127,8155,8155,8197,8181,8098,8158,8130,8113,8141,8120,8145,8055,3.743541717529297
16,8143,8120,8158,8153,8175,8206,8118,8173,8126,8156,8155,8139,8160,8057,3.7515735626220703
17,8140,8118,8157,8148,8162,8197,8112,8166,8118,8132,8147,8139,8156,8056,3.758573532104492
18,8126,8127,8156,8130,8171,8184,8106,8140,8095,8099,8139,8124,8142,8055,3.766970872879028
19,8141,8113,8144,8101,8136,8196,8079,8160,8049,8084,8142,8142,8163,8045,3.77497124671936
20,8110,8092,8143,8114,8111,8179,8072,8152,8070,8093,8133,8123,8153,8033,3.782705068588257
21,8132,8096,8159,8145,8123,8201,8081,8164,8103,8094,8143,8143,8161,8049,3.79058289527893
22,8149,8120,8158,8135,8144,8192,8087,8154,8111,8090,8141,8150,8157,8040,3.798575162887573
23,8139,8132,8156,8116,8151,8179,8096,8129,8114,8106,8142,8133,8146,8032,3.806569576263428
24,8155,8108,8161,8118,8155,8197,8089,8159,8087,8122,8160,8160,8168,8058,3.81456995010376
25,8131,8099,8158,8139,8172,8171,8095,8152,8095,8141,8155,8151,8159,8068,3.821579217910767
26,8139,8108,8150,8126,8157,8179,8074,8156,8115,8103,8147,8146,8163,8055,3.829568862915039
27,8136,8098,8139,8087,8127,8175,8054,8160,8085,8067,8142,8134,8156,8034,3.837620735168457
28,8119,8098,8143,8087,8107,8169,8075,8145,8096,8111,8151,8123,8144,8040,3.845568895339966
29,8149,8109,8152,8089,8118,8196,8086,8173,8144,8140,8158,8143,8166,8054,3.853592157363892
30,8130,8111,8138,8072,8164,8172,8106,8158,8159,8130,8136,8117,8146,8048,3.861590385437012
31,8133,8102,8124,8060,8140,8181,8106,8161,8130,8093,8140,8123,8153,8050,3.869609832763672
32,8138,8111,8131,8078,8088,8190,8084,8170,8113,8087,8147,8129,8164,8040,3.877530097961426
33,8119,8132,8145,8107,8118,8178,8094,8139,8134,8132,8138,8101,8137,8035,3.885641574859619
34,8156,8128,8154,8094,8151,8207,8105,8165,8140,8129,8151,8144,8162,8058,3.892648220062256
35,8144,8121,8154,8086,8152,8183,8104,8162,8131,8107,8152,8151,8171,8066,3.900562286376953
36,8141,8127,8148,8100,8132,8175,8082,8148,8097,8106,8146,8139,8166,8058,3.9085440635681152
37,8153,8142,8148,8113,8112,8192,8073,8160,8097,8125,8154,8149,8168,8054,3.916537761688232
38,8137,8145,8152,8119,8126,8174,8093,8147,8138,8141,8157,8135,8153,8068,3.9245667457580566
39,8164,8128,8151,8095,8120,8185,8077,8167,8118,8116,8155,8149,8168,8078,3.932560682296753
40,8141,8127,8145,8091,8101,8177,8070,8160,8113,8115,8140,8138,8153,8048,3.9406580924987793
41,8130,8126,8134,8099,8096,8190,8089,8152,8136,8107,8140,8131,8144,8031,3.948655605316162
42,8151,8105,8114,8065,8087,8198,8098,8167,8129,8071,8145,8132,8161,8029,3.955660581588745
43,8126,8104,8109,8053,8094,8175,8112,8154,8142,8091,8143,8118,8158,8030,3.96347975730896
44,8141,8127,8128,8084,8111,8201,8118,8177,8166,8118,8152,8148,8172,8046,3.971566915512085
45,8146,8146,8137,8102,8129,8196,8141,8171,8193,8133,8152,8140,8157,8056,3.9795660972595215
46,8154,8157,8143,8099,8135,8194,8155,8162,8197,8144,8166,8144,8164,8075,3.987940549850464
47,8168,8168,8151,8104,8140,8207,8129,8182,8174,8152,8174,8170,8182,8079,3.99593997001648
48,8148,8181,8152,8129,8144,8198,8113,8150,8171,8177,8159,8147,8153,8062,4.00395131111145
49,8174,8175,8153,8117,8114,8216,8097,8152,8165,8154,8162,8167,8167,8073,4.011571407318115
50,8168,8159,8150,8092,8114,8193,8101,8163,8165,8127,8164,8171,8177,8090,4.019566297531128
51,8156,8156,8148,8096,8129,8194,8108,8164,8165,8137,8162,8156,8169,8084,4.026614189147949
52,8172,8155,8138,8104,8112,8219,8106,8179,8151,8137,8156,8160,8166,8058,4.034539222717285
53,8145,8152,8131,8107,8120,8192,8137,8163,8157,8131,8153,8142,8152,8047,4.042666435241699
54,8159,8147,8125,8087,8118,8201,8146,8183,8152,8115,8157,8155,8177,8056,4.050568103790283
55,8155,8151,8118,8075,8102,8203,8135,8177,8157,8124,8147,8139,8167,8038,4.058538436889648
56,8148,8159,8134,8099,8116,8203,8138,8152,8174,8151,8155,8129,8156,8036,4.066527843475342
57,8165,8157,8141,8117,8125,8207,8127,8175,8153,8148,8166,8159,8181,8053,4.074535131454468
58,8147,8174,8135,8128,8135,8183,8123,8162,8152,8154,8161,8144,8167,8057,4.08254337310791
59,8193,8201,8152,8131,8140,8209,8122,8168,8156,8157,8178,8166,8172,8077,4.089565992355347
60,8210,8196,8163,8124,8140,8196,8122,8168,8148,8146,8179,8171,8173,8090,4.097296476364136
61,8188,8177,8152,8127,8141,8171,8111,8150,8144,8143,8166,8150,8169,8086,4.105288743972778
62,8218,8171,8144,8128,8127,8198,8091,8177,8130,8142,8166,8158,8184,8071,4.1132872104644775
63,8206,8177,8143,8135,8128,8189,8120,8173,8165,8152,8162,8134,8156,8050,4.121288537979126
64,8211,8175,8137,8125,8129,8204,8149,8186,8205,8155,8162,8144,8161,8052,4.129293441772461
65,8211,8159,8120,8090,8119,8202,8154,8200,8191,8156,8148,8144,8175,8040,4.137523412704468
66,8190,8149,8108,8077,8103,8182,8152,8173,8173,8148,8135,8115,8157,8018,4.145566463470459
67,8214,8147,8108,8087,8095,8203,8131,8186,8158,8107,8146,8137,8174,8013,4.152345895767212
68,8196,8154,8110,8101,8131,8185,8133,8169,8153,8108,8146,8131,8167,8008,4.16044545173645
69,8201,8156,8114,8102,8133,8196,8129,8154,8148,8119,8147,8131,8161,8012,4.168453216552734
70,8221,8154,8117,8092,8099,8209,8105,8164,8139,8094,8150,8144,8172,8013,4.17656946182251
71,8198,8165,8113,8094,8118,8180,8098,8144,8131,8093,8142,8125,8165,8021,4.184445858001709
72,8230,8165,8123,8097,8140,8200,8077,8164,8102,8098,8160,8161,8183,8047,4.1926469802856445
73,8229,8173,8142,8130,8135,8189,8082,8174,8120,8123,8180,8174,8181,8060,4.200222969055176
73,8229,8173,8142,8130,8135,8189,8082,8174,8120,8123,8180,8174,8181,8060,4.201218843460083
74,8212,8199,8146,8159,8139,8173,8130,8172,8172,8167,8176,8146,8167,8074,4.208223819732666
75,8230,8197,8135,8133,8149,8199,8164,8197,8181,8174,8165,8157,8173,8075,4.215730905532837
75,8230,8197,8135,8133,8149,8199,8164,8197,8181,8174,8165,8157,8173,8075,4.216052055358887
76,8204,8179,8118,8122,8157,8188,8193,8185,8196,8181,8158,8148,8156,8062,4.223572254180908
76,8204,8179,8118,8122,8157,8188,8193,8185,8196,8181,8158,8148,8156,8062,4.224159002304077
77,8209,8181,8114,8132,8155,8190,8209,8198,8218,8186,8164,8146,8167,8074,4.231177568435669
78,8217,8202,8129,8134,8169,8187,8217,8205,8212,8185,8165,8153,8180,8087,4.239270210266113
78,8217,8202,8129,8134,8169,8187,8217,8205,8212,8185,8165,8153,8180,8087,4.2402660846710205
79,8210,8204,8129,8149,8194,8182,8212,8182,8201,8183,8164,8148,8158,8076,4.2483086585998535
80,8220,8179,8111,8155,8176,8187,8180,8178,8198,8167,8166,8155,8159,8066,4.255319595336914
81,8204,8192,8113,8155,8171,8165,8179,8154,8205,8181,8165,8146,8161,8083,4.26289963722229
81,8204,8192,8113,8155,8171,8165,8179,8154,8205,8181,8165,8146,8161,8083,4.263888597488403
82,8232,8235,8138,8162,8194,8181,8186,8167,8188,8198,8175,8169,8175,8112,4.271891117095947
83,8236,8249,8145,8171,8187,8175,8171,8165,8185,8196,8174,8175,8164,8109,4.279568433761597
84,8217,8239,8134,8181,8176,8169,8151,8137,8196,8196,8172,8150,8148,8104,4.286570072174072
85,8245,8235,8140,8194,8194,8196,8152,8171,8179,8212,8188,8172,8183,8131,4.294941186904907
86,8230,8247,8155,8205,8221,8159,8199,8172,8207,8261,8190,8166,8171,8153,4.302969932556152
87,8241,8242,8149,8199,8201,8169,8218,8182,8238,8255,8186,8164,8162,8143,4.3109941482543945
88,8240,8223,8132,8184,8184,8195,8234,8204,8248,8227,8173,8168,8169,8111,4.318047046661377
89,8203,8224,8135,8185,8217,8172,8295,8181,8293,8268,8163,8147,8147,8120,4.3260602951049805
90,8232,8239,8148,8197,8232,8169,8312,8190,8295,8272,8179,8168,8161,8153,4.334562063217163
91,8227,8238,8147,8210,8239,8164,8282,8180,8262,8241,8177,8163,8161,8139,4.341942548751831
91,8227,8238,8147,8210,8239,8164,8282,8180,8262,8241,8177,8163,8161,8139,4.3429484367370605
92,8230,8237,8151,8218,8236,8186,8254,8177,8258,8244,8175,8164,8156,8131,4.348955392837524
92,8230,8237,8151,8218,8236,8186,8254,8177,8258,8244,8175,8164,8156,8131,4.349947452545166
93,8241,8246,8164,8226,8229,8180,8246,8175,8257,8260,8191,8187,8165,8153,4.356955051422119
93,8241,8246,8164,8226,8229,8180,8246,8175,8257,8260,8191,8187,8165,8153,4.357948541641235
94,8229,8253,8167,8231,8234,8148,8238,8143,8240,8262,8194,8183,8162,8173,4.364959716796875
95,8249,8247,8168,8229,8218,8169,8207,8162,8221,8247,8188,8197,8175,8174,4.373560667037964
96,8227,8241,8160,8227,8220,8162,8212,8156,8228,8266,8173,8173,8155,8149,4.381566762924194
97,8238,8237,8153,8217,8231,8171,8238,8156,8230,8276,8175,8168,8157,8156,4.389437198638916
98,8256,8224,8150,8211,8226,8167,8246,8180,8219,8256,8182,8186,8176,8174,4.397539377212524
99,8218,8206,8134,8207,8221,8140,8255,8159,8228,8252,8165,8152,8150,8151,4.405539512634277
100,8226,8189,8116,8176,8194,8179,8254,8178,8231,8225,8158,8158,8153,8116,4.412566661834717
101,8210,8190,8108,8178,8206,8170,8270,8172,8265,8230,8157,8152,8143,8108,4.423771142959595
102,8222,8200,8121,8198,8237,8165,8282,8165,8286,8263,8163,8158,8151,8139,4.427771091461182
102,8222,8200,8121,8198,8237,8165,8282,8165,8286,8263,8163,8158,8151,8139,4.428769588470459
103,8242,8199,8134,8194,8224,8179,8262,8189,8272,8260,8172,8176,8176,8149,4.435770034790039
104,8214,8206,8140,8215,8222,8158,8252,8159,8287,8262,8170,8154,8149,8135,4.444278717041016
105,8247,8223,8155,8232,8222,8181,8217,8157,8268,8260,8177,8185,8158,8146,4.452279806137085
106,8239,8230,8161,8231,8211,8161,8195,8141,8236,8269,8176,8189,8161,8160,4.460277318954468
107,8227,8214,8158,8237,8208,8150,8191,8136,8234,8274,8178,8182,8158,8169,4.4682776927948
108,8251,8210,8156,8218,8216,8172,8186,8171,8231,8253,8181,8200,8172,8159,4.476277828216553
109,8221,8226,8147,8213,8240,8156,8235,8141,8247,8259,8161,8167,8135,8140,4.483278751373291
110,8236,8209,8136,8214,8234,8176,8269,8156,8240,8246,8162,8177,8145,8148,4.491280317306519
111,8231,8195,8136,8197,8237,8157,8286,8181,8253,8243,8169,8180,8159,8157,4.499277591705322
112,8225,8213,8151,8215,8272,8147,8323,8175,8312,8284,8176,8169,8155,8174,4.507529020309448
113,8249,8207,8146,8236,8271,8179,8321,8191,8321,8283,8177,8183,8172,8173,4.515402555465698
114,8219,8203,8140,8221,8272,8148,8303,8164,8317,8274,8166,8164,8147,8155,4.523566722869873
115,8253,8229,8175,8215,8279,8174,8291,8179,8319,8292,8182,8193,8157,8176,4.531673669815064
116,8268,8246,8195,8262,8285,8190,8301,8183,8334,8325,8192,8204,8163,8187,4.539202928543091
117,8253,8264,8196,8304,8301,8170,8299,8151,8349,8351,8197,8197,8151,8194,4.546248197555542
118,8284,8267,8201,8282,8289,8184,8252,8169,8311,8341,8202,8222,8164,8201,4.554574966430664
119,8259,8242,8188,8269,8270,8156,8238,8143,8279,8324,8178,8188,8141,8181,4.562583923339844
120,8269,8224,8171,8268,8253,8176,8236,8145,8245,8281,8173,8185,8159,8180,4.57076358795166
121,8269,8227,8170,8245,8264,8178,8241,8163,8224,8267,8180,8188,8171,8191,4.578898906707764
122,8242,8226,8165,8236,8272,8155,8269,8153,8254,8288,8178,8170,8149,8188,4.586899042129517
123,8256,8204,8146,8233,8238,8181,8274,8178,8271,8266,8163,8172,8158,8153,4.593974590301514
124,8207,8189,8119,8223,8242,8155,8295,8147,8285,8274,8139,8135,8135,8115,4.602566719055176
125,8211,8179,8113,8207,8247,8163,8299,8147,8273,8278,8156,8146,8147,8126,4.609589338302612
126,8226,8179,8122,8196,8234,8161,8279,8167,8262,8249,8172,8158,8161,8134,4.617594957351685
127,8200,8193,8132,8209,8243,8141,8265,8142,8277,8249,8169,8143,8141,8135,4.625473499298096
241,8231,8187,8136,8227,8233,8176,8222,8158,8251,8240,8171,8167,8155,8136,4.633566617965698
0,8214,8182,8139,8239,8232,8154,8206,8131,8237,8252,8169,8156,8144,8129,4.641534805297852
1,8224,8191,8151,8233,8224,8164,8196,8128,8240,8268,8189,8176,8162,8144,4.649536609649658
2,8239,8183,8150,8224,8202,8167,8166,8153,8225,8255,8188,8180,8172,8148,4.65756893157959
3,8208,8167,8131,8221,8197,8134,8154,8129,8194,8235,8168,8151,8146,8131,4.665567398071289
4,8235,8153,8119,8189,8170,8168,8132,8147,8139,8180,8159,8170,8165,8100,4.673566579818726
4,8235,8153,8119,8189,8170,8168,8132,8147,8139,8180,8159,8170,8165,8100,4.6739561557769775
5,8227,8153,8110,8179,8155,8159,8150,8140,8153,8162,8148,8148,8153,8072,4.68026328086853
6,8242,8150,8108,8192,8149,8169,8184,8149,8181,8182,8160,8151,8152,8086,4.688278436660767
7,8244,8129,8099,8158,8139,8172,8180,8171,8145,8162,8156,8156,8162,8078,4.69656229019165
8,8201,8124,8094,8126,8153,8138,8172,8145,8136,8135,8148,8129,8145,8050,4.704566717147827
9,8239,8133,8104,8137,8140,8170,8156,8170,8154,8122,8158,8150,8161,8051,4.712585926055908
10,8232,8143,8108,8164,8125,8157,8174,8159,8180,8165,8159,8145,8154,8064,4.720297574996948
10,8232,8143,8108,8164,8125,8157,8174,8159,8180,8165,8159,8145,8154,8064,4.721293926239014
11,8234,8160,8123,8172,8136,8156,8182,8148,8177,8197,8176,8163,8162,8104,4.728566646575928
12,8254,8171,8134,8166,8143,8164,8135,8167,8141,8167,8176,8174,8173,8107,4.735556602478027
13,8216,8178,8128,8183,8151,8137,8128,8135,8152,8183,8161,8141,8145,8083,4.7437028884887695
14,8245,8178,8130,8194,8155,8171,8144,8153,8160,8200,8172,8172,8165,8104,4.751540184020996
15,8245,8183,8137,8192,8171,8150,8153,8161,8156,8197,8176,8178,8166,8130,4.759565830230713
16,8247,8184,8136,8186,8167,8142,8141,8148,8146,8187,8170,8178,8160,8123,4.767260074615479
16,8247,8184,8136,8186,8167,8142,8141,8148,8146,8187,8170,8178,8160,8123,4.7682578563690186
17,8260,8150,8111,8156,8127,8171,8126,8156,8109,8156,8150,8169,8154,8076,4.775253534317017
18,8212,8121,8088,8142,8122,8150,8154,8132,8102,8156,8138,8127,8134,8046,4.783566951751709
19,8239,8125,8098,8134,8128,8175,8156,8163,8104,8146,8154,8152,8171,8055,4.791567325592041
20,8243,8135,8102,8123,8142,8167,8144,8165,8121,8144,8153,8155,8165,8043,4.799566268920898
21,8236,8137,8105,8139,8144,8169,8153,8150,8134,8159,8159,8152,8150,8047,4.80752968788147
22,8264,8140,8120,8146,8105,8194,8152,8185,8115,8145,8172,8174,8183,8065,4.813965082168579
22,8264,8140,8120,8146,8105,8194,8152,8185,8115,8145,8172,8174,8183,8065,4.814963579177856
23,8231,8155,8129,8142,8106,8161,8151,8170,8131,8152,8171,8161,8174,8062,4.822566747665405
24,8254,8164,8132,8143,8129,8188,8139,8185,8141,8162,8176,8180,8173,8062,4.830415964126587
25,8267,8176,8140,8161,8153,8184,8166,8183,8146,8176,8173,8181,8167,8086,4.8386828899383545
26,8255,8193,8150,8177,8166,8168,8191,8157,8148,8177,8176,8169,8167,8115,4.846309661865234
27,8275,8189,8144,8156,8145,8202,8152,8186,8124,8144,8175,8177,8185,8095,4.854333162307739
28,8246,8190,8144,8158,8161,8180,8163,8167,8156,8174,8164,8158,8158,8075,4.862561464309692
28,8246,8190,8144,8158,8161,8180,8163,8167,8156,8174,8164,8158,8158,8075,4.862897157669067
29,8267,8194,8156,8165,8167,8191,8187,8171,8165,8187,8166,8171,8167,8096,4.869413614273071
30,8262,8177,8137,8139,8134,8188,8169,8187,8130,8149,8158,8162,8172,8075,4.877413988113403
31,8232,8166,8129,8136,8134,8181,8177,8172,8142,8162,8157,8143,8160,8050,4.885425090789795
32,8274,8170,8153,8158,8151,8214,8194,8198,8154,8179,8164,8171,8181,8066,4.893562078475952
33,8262,8186,8161,8165,8160,8174,8204,8183,8154,8183,8164,8167,8170,8081,4.901566505432129
34,8279,8203,8167,8157,8146,8186,8179,8187,8140,8172,8183,8181,8180,8090,4.909566402435303
35,8289,8210,8176,8180,8150,8203,8168,8190,8136,8180,8182,8181,8182,8083,4.9175896644592285
36,8256,8221,8171,8195,8173,8179,8196,8154,8161,8201,8165,8160,8165,8084,4.9255921840667725
37,8281,8213,8163,8151,8155,8203,8186,8183,8138,8156,8166,8183,8183,8091,4.933567047119141
38,8252,8192,8153,8149,8157,8176,8180,8177,8122,8140,8167,8166,8165,8075,4.940566539764404
39,8251,8188,8147,8176,8169,8187,8187,8170,8139,8167,8170,8150,8162,8074,4.948490142822266
40,8269,8197,8139,8138,8153,8201,8193,8184,8140,8166,8163,8139,8174,8073,4.956501722335815
41,8232,8195,8131,8118,8153,8167,8199,8166,8140,8166,8159,8119,8156,8068,4.964763402938843
42,8251,8174,8130,8144,8137,8197,8164,8195,8134,8153,8167,8138,8168,8056,4.972764253616333
43,8238,8180,8138,8157,8150,8178,8172,8182,8167,8174,8171,8128,8164,8054,4.980566024780273
44,8243,8205,8154,8154,8166,8173,8194,8172,8175,8192,8176,8128,8173,8086,4.988565921783447
45,8258,8193,8149,8143,8132,8190,8145,8194,8123,8153,8166,8136,8186,8074,4.996843338012695
46,8210,8170,8137,8148,8126,8161,8126,8155,8129,8148,8160,8117,8154,8046,5.00354528427124
46,8210,8170,8137,8148,8126,8161,8126,8155,8129,8148,8160,8117,8154,8046,5.0045366287231445
47,8236,8170,8138,8153,8136,8185,8151,8162,8142,8155,8167,8122,8162,8063,5.0115368366241455
48,8228,8181,8139,8158,8156,8166,8181,8168,8134,8160,8157,8104,8163,8080,5.019576787948608
49,8212,8180,8148,8160,8174,8160,8176,8163,8139,8157,8160,8113,8156,8083,5.027529716491699
50,8241,8184,8163,8156,8156,8185,8170,8184,8157,8148,8175,8145,8169,8083,5.035566329956055
51,8224,8212,8163,8181,8171,8153,8215,8162,8191,8192,8183,8133,8160,8103,5.043105602264404
52,8248,8211,8161,8190,8190,8179,8213,8186,8179,8206,8181,8140,8178,8119,5.051105499267578
52,8248,8211,8161,8190,8190,8179,8213,8186,8179,8206,8181,8140,8178,8119,5.052098512649536
53,8234,8198,8162,8181,8185,8176,8193,8185,8192,8201,8167,8140,8166,8100,5.059109687805176
54,8223,8213,8164,8184,8183,8166,8218,8157,8222,8212,8169,8139,8150,8105,5.067170858383179
55,8252,8206,8155,8169,8188,8181,8209,8182,8179,8194,8173,8147,8172,8114,5.074568510055542
56,8221,8196,8151,8166,8200,8150,8186,8170,8174,8197,8168,8125,8161,8098,5.082589864730835
57,8247,8213,8165,8187,8170,8190,8164,8182,8199,8203,8174,8143,8169,8094,5.090589761734009
58,8238,8201,8154,8183,8149,8183,8156,8173,8176,8181,8163,8138,8160,8081,5.098566770553589
59,8204,8166,8134,8143,8161,8149,8155,8147,8137,8153,8153,8116,8154,8069,5.106318712234497
60,8240,8168,8138,8128,8149,8188,8144,8190,8114,8131,8165,8143,8182,8066,5.114318609237671
61,8219,8192,8138,8162,8161,8178,8176,8168,8142,8160,8170,8141,8162,8069,5.122927904129028
62,8237,8188,8141,8169,8165,8196,8183,8160,8135,8166,8167,8147,8164,8083,5.130869626998901
63,8244,8185,8155,8146,8158,8189,8176,8179,8118,8160,8164,8147,8178,8084,5.137866973876953
64,8217,8197,8160,8150,8178,8167,8191,8170,8145,8177,8171,8134,8172,8092,5.144899606704712
64,8217,8197,8160,8150,8178,8167,8191,8170,8145,8177,8171,8134,8172,8092,5.145900726318359
65,8251,8174,8150,8143,8162,8203,8158,8199,8139,8157,8172,8145,8183,8081,5.152899503707886
66,8226,8155,8136,8131,8139,8170,8142,8175,8149,8160,8160,8127,8164,8048,5.160899639129639
66,8226,8155,8136,8131,8139,8170,8142,8175,8149,8160,8160,8127,8164,8048,5.161900281906128
67,8237,8170,8142,8135,8122,8188,8146,8173,8169,8165,8159,8135,8167,8056,5.1688995361328125
68,8252,8172,8146,8130,8113,8202,8129,8196,8148,8138,8158,8140,8179,8066,5.17746114730835
68,8252,8172,8146,8130,8113,8202,8129,8196,8148,8138,8158,8140,8179,8066,5.177903652191162
69,8222,8168,8139,8126,8123,8172,8105,8174,8127,8135,8164,8124,8172,8058,5.1855669021606445
70,8256,8174,8138,8115,8099,8211,8077,8196,8103,8107,8165,8138,8183,8035,5.193566560745239
71,8231,8172,8128,8109,8090,8191,8092,8172,8103,8097,8150,8120,8165,8013,5.200587272644043
72,8230,8165,8122,8114,8096,8195,8100,8166,8087,8098,8155,8121,8176,8024,5.208586692810059
73,8250,8150,8124,8097,8085,8214,8076,8200,8054,8067,8162,8143,8198,8020,5.216567516326904
74,8209,8139,8126,8078,8091,8180,8076,8176,8067,8064,8154,8136,8180,8010,5.224566221237183
75,8241,8146,8130,8082,8072,8214,8053,8200,8055,8061,8158,8138,8194,8008,5.232908725738525
76,8230,8164,8127,8100,8063,8200,8047,8206,8058,8077,8166,8129,8194,8004,5.240976810455322
77,8227,8169,8133,8102,8074,8206,8061,8204,8091,8093,8174,8142,8191,8015,5.2485668659210205
78,8258,8160,8134,8079,8070,8231,8062,8225,8096,8081,8164,8148,8196,8015,5.256566286087036
79,8212,8162,8114,8069,8090,8182,8082,8194,8114,8099,8153,8118,8182,8013,5.264588117599487
80,8223,8155,8098,8058,8073,8212,8063,8213,8097,8076,8157,8119,8195,7992,5.27158784866333
81,8216,8164,8104,8062,8053,8210,8071,8209,8093,8073,8160,8112,8184,7975,5.279831647872925
82,8212,8192,8128,8096,8081,8199,8129,8193,8120,8118,8168,8123,8180,8017,5.287696361541748
83,8234,8188,8131,8095,8095,8218,8122,8222,8086,8094,8160,8131,8195,8020,5.2956976890563965
84,8185,8184,8114,8087,8105,8172,8104,8193,8077,8089,8155,8111,8171,7992,5.3035664558410645
85,8216,8193,8127,8101,8089,8209,8099,8196,8089,8108,8168,8135,8176,8009,5.311566591262817
86,8223,8199,8146,8115,8096,8206,8118,8201,8097,8122,8171,8138,8177,8031,5.319560527801514
87,8201,8219,8153,8133,8130,8176,8139,8198,8118,8133,8179,8141,8181,8053,5.327851057052612
88,8244,8232,8167,8147,8126,8211,8121,8231,8136,8131,8182,8158,8193,8054,5.333860158920288
88,8244,8232,8167,8147,8126,8211,8121,8231,8136,8131,8182,8158,8193,8054,5.334858655929565
89,8209,8223,8162,8142,8130,8176,8146,8199,8176,8176,8179,8135,8166,8057,5.342883348464966
90,8213,8205,8142,8113,8118,8189,8156,8207,8157,8171,8179,8136,8176,8069,5.350894451141357
91,8219,8210,8136,8112,8118,8184,8150,8227,8141,8139,8174,8135,8181,8062,5.358561277389526
92,8200,8237,8145,8146,8149,8165,8172,8197,8183,8175,8178,8123,8166,8065,5.366860389709473
93,8229,8221,8138,8134,8133,8200,8150,8198,8150,8175,8168,8118,8172,8056,5.37487268447876
94,8191,8204,8124,8122,8133,8150,8145,8163,8115,8162,8164,8101,8158,8055,5.382869243621826
95,8204,8215,8138,8144,8134,8171,8146,8166,8122,8152,8176,8117,8165,8068,5.390804529190064
96,8203,8211,8140,8144,8122,8184,8138,8172,8124,8152,8166,8107,8158,8051,5.398562669754028
97,8174,8207,8127,8140,8142,8144,8162,8148,8125,8178,8163,8094,8148,8068,5.405566692352295
98,8218,8202,8134,8135,8134,8170,8153,8184,8101,8145,8172,8120,8171,8094,5.413910865783691
99,8183,8204,8139,8139,8135,8144,8143,8160,8118,8150,8181,8124,8156,8087,5.421566009521484
100,8192,8212,8147,8162,8143,8162,8138,8152,8141,8197,8187,8136,8154,8091,5.429602146148682
101,8209,8201,8144,8155,8136,8158,8150,8176,8144,8203,8172,8126,8155,8092,5.436609268188477
102,8170,8196,8131,8143,8146,8118,8184,8160,8170,8198,8171,8110,8146,8086,5.445568323135376
103,8203,8197,8128,8151,8139,8161,8176,8184,8168,8178,8174,8136,8159,8077,5.453545093536377
104,8179,8199,8123,8166,8151,8134,8190,8155,8180,8197,8169,8132,8139,8080,5.460566759109497
105,8182,8188,8122,8164,8157,8140,8193,8140,8165,8197,8167,8131,8144,8095,5.468977689743042
106,8190,8171,8120,8153,8147,8147,8165,8151,8112,8158,8165,8128,8154,8078,5.4759838581085205
106,8190,8171,8120,8153,8147,8147,8165,8151,8112,8158,8165,8128,8154,8078,5.476974725723267
107,8156,8178,8120,8172,8153,8123,8160,8116,8111,8157,8168,8113,8141,8063,5.484567642211914
108,8202,8180,8128,8180,8138,8165,8147,8134,8111,8155,8157,8126,8148,8062,5.492567539215088
109,8181,8177,8127,8181,8162,8125,8165,8137,8136,8183,8154,8125,8141,8075,5.500567674636841
110,8179,8180,8131,8187,8179,8131,8161,8152,8151,8197,8179,8140,8155,8092,5.508605003356934
111,8210,8176,8141,8186,8152,8160,8132,8163,8135,8194,8181,8158,8159,8084,5.515895366668701
112,8185,8192,8152,8199,8165,8135,8164,8127,8171,8233,8171,8149,8141,8104,5.524948835372925
113,8207,8182,8143,8171,8155,8164,8155,8159,8159,8192,8161,8148,8156,8103,5.531949520111084
114,8162,8147,8108,8144,8137,8129,8138,8149,8123,8143,8146,8125,8143,8050,5.539456367492676
115,8159,8144,8113,8178,8143,8140,8176,8133,8134,8166,8150,8125,8135,8048,5.547456741333008
115,8159,8144,8113,8178,8143,8140,8176,8133,8134,8166,8150,8125,8135,8048,5.547907590866089
116,8201,8155,8141,8192,8159,8156,8202,8163,8158,8196,8162,8136,8151,8087,5.554913282394409
117,8167,8183,8142,8183,8195,8102,8213,8144,8194,8228,8175,8134,8148,8112,5.562913656234741
118,8207,8199,8153,8194,8193,8154,8202,8153,8193,8220,8179,8158,8157,8112,5.570913553237915
118,8207,8199,8153,8194,8193,8154,8202,8153,8193,8220,8179,8158,8157,8112,5.571913480758667
119,8202,8186,8156,8221,8193,8155,8212,8135,8181,8214,8170,8145,8143,8106,5.579913377761841
120,8194,8166,8143,8226,8184,8160,8194,8131,8143,8196,8163,8127,8148,8100,5.58791446685791
121,8244,8163,8147,8186,8143,8202,8145,8171,8087,8152,8152,8142,8168,8076,5.594006061553955
122,8225,8191,8165,8164,8150,8174,8151,8152,8110,8173,8158,8148,8160,8077,5.602537631988525
123,8245,8184,8166,8179,8152,8206,8130,8182,8120,8167,8168,8157,8172,8080,5.610537528991699
124,8222,8163,8150,8199,8159,8186,8122,8190,8126,8151,8169,8145,8168,8064,5.618313789367676
125,8198,8177,8154,8205,8187,8171,8154,8172,8149,8180,8173,8138,8160,8073,5.626312017440796
126,8217,8174,8148,8167,8168,8191,8151,8185,8134,8172,8155,8132,8158,8063,5.634560585021973
127,8165,8161,8122,8150,8148,8151,8169,8151,8165,8167,8144,8104,8134,8045,5.642778396606445
241,8200,8167,8128,8160,8143,8188,8185,8164,8189,8169,8160,8118,8148,8058,5.650784254074097
0,8209,8184,8144,8158,8170,8165,8204,8163,8185,8188,8168,8133,8158,8083,5.657785415649414
1,8183,8200,8155,8166,8203,8131,8232,8143,8194,8210,8170,8141,8155,8115,5.665496110916138
2,8216,8204,8163,8172,8196,8163,8222,8160,8182,8192,8176,8159,8165,8117,5.673119783401489
3,8182,8215,8161,8191,8220,8132,8228,8125,8206,8215,8178,8149,8147,8106,5.682044744491577
4,8212,8217,8168,8195,8211,8167,8222,8138,8212,8228,8170,8149,8151,8110,5.68963360786438
5,8226,8193,8165,8168,8185,8165,8220,8153,8195,8223,8160,8141,8159,8104,5.6975977420806885
6,8190,8176,8154,8158,8211,8134,8234,8139,8208,8231,8163,8133,8151,8098,5.705676317214966
7,8222,8167,8158,8156,8195,8171,8210,8166,8196,8198,8171,8150,8165,8089,5.713624000549316
8,8203,8173,8162,8169,8182,8151,8218,8148,8212,8205,8176,8147,8161,8090,5.72164797782898
9,8228,8177,8171,8170,8197,8173,8234,8165,8220,8216,8170,8154,8163,8108,5.728678226470947
10,8239,8168,8173,8149,8206,8168,8232,8186,8202,8199,8168,8166,8170,8111,5.7365663051605225
11,8204,8182,8176,8167,8201,8147,8233,8167,8223,8208,8176,8168,8169,8113,5.744566917419434
12,8242,8196,8191,8187,8174,8196,8211,8194,8227,8211,8175,8179,8179,8116,5.752769231796265
13,8225,8200,8193,8181,8195,8157,8231,8177,8220,8237,8176,8166,8168,8124,5.76018762588501
14,8235,8196,8189,8179,8215,8162,8245,8175,8206,8223,8176,8163,8174,8130,5.768181324005127
15,8243,8200,8183,8193,8203,8183,8228,8195,8209,8183,8168,8164,8177,8115,5.776569843292236
16,8206,8210,8178,8206,8190,8172,8234,8166,8226,8199,8165,8141,8155,8103,5.784656286239624
17,8244,8194,8175,8185,8160,8201,8220,8179,8187,8190,8163,8135,8166,8097,5.792662382125855
18,8214,8190,8165,8180,8192,8145,8235,8180,8193,8205,8168,8132,8169,8106,5.799658298492432
19,8201,8203,8169,8187,8233,8141,8250,8176,8221,8232,8177,8135,8167,8123,5.807531833648682
20,8210,8207,8170,8176,8222,8158,8242,8175,8227,8221,8179,8136,8162,8119,5.8155670166015625
21,8158,8206,8158,8192,8220,8121,8268,8141,8269,8240,8173,8115,8139,8122,5.823566675186157
22,8176,8169,8136,8184,8207,8145,8260,8158,8253,8232,8158,8108,8147,8103,5.831565618515015
23,8155,8149,8121,8148,8210,8119,8244,8148,8229,8229,8160,8108,8148,8082,5.839567184448242
24,8161,8179,8152,8168,8214,8127,8243,8134,8250,8246,8180,8130,8150,8105,5.847530364990234
25,8205,8191,8175,8211,8204,8149,8246,8151,8256,8234,8179,8148,8161,8127,5.855050802230835
26,8168,8184,8158,8223,8231,8109,8279,8131,8268,8250,8176,8127,8149,8133,5.863050937652588
27,8181,8165,8146,8183,8218,8145,8264,8147,8235,8238,8174,8122,8150,8120,5.870713472366333
28,8170,8159,8148,8163,8191,8138,8245,8138,8215,8222,8171,8117,8143,8100,5.878547430038452
29,8171,8175,8171,8197,8214,8134,8267,8127,8249,8232,8178,8125,8141,8128,5.886558532714844
30,8202,8175,8177,8193,8238,8149,8264,8154,8254,8222,8179,8142,8159,8154,5.894560813903809
31,8156,8178,8161,8188,8255,8108,8253,8127,8255,8239,8178,8128,8150,8143,5.902187347412109
32,8180,8185,8168,8203,8222,8145,8229,8136,8261,8247,8178,8134,8149,8131,5.910178899765015
33,8179,8176,8165,8192,8209,8137,8238,8150,8292,8263,8173,8133,8152,8135,5.917531967163086
34,8158,8173,8158,8192,8248,8110,8266,8131,8294,8286,8174,8121,8148,8149,5.925560235977173
35,8189,8177,8163,8191,8240,8139,8243,8143,8232,8249,8174,8131,8148,8136,5.933573722839356
36,8152,8176,8158,8186,8223,8119,8239,8118,8221,8228,8168,8126,8133,8112,5.941776990890503
37,8175,8171,8163,8189,8221,8148,8243,8123,8221,8215,8164,8126,8145,8113,5.949783802032471
38,8184,8170,8167,8200,8237,8137,8247,8141,8206,8212,8175,8131,8157,8121,5.957785129547119
39,8161,8179,8163,8203,8248,8116,8256,8123,8219,8237,8182,8132,8143,8131,5.965566635131836
39,8161,8179,8163,8203,8248,8116,8256,8123,8219,8237,8182,8132,8143,8131,5.965953826904297
40,8203,8176,8168,8182,8218,8154,8239,8138,8225,8235,8173,8147,8150,8131,5.973566293716431
41,8181,8177,8175,8190,8226,8122,8257,8136,8255,8247,8180,8153,8151,8140,5.981805086135864
42,8191,8181,8180,8211,8235,8141,8264,8151,8261,8244,8189,8161,8154,8148,5.988747835159302
43,8200,8177,8177,8201,8220,8153,8243,8144,8240,8245,8179,8156,8157,8140,5.996760606765747
44,8183,8178,8188,8188,8220,8135,8248,8115,8261,8280,8177,8147,8153,8147,6.004562377929688
45,8227,8172,8201,8181,8201,8162,8239,8166,8271,8267,8186,8167,8167,8157,6.012567043304443
46,8195,8163,8186,8190,8205,8122,8238,8169,8283,8267,8189,8159,8159,8152,6.02056884765625
47,8184,8154,8177,8189,8212,8135,8227,8148,8273,8266,8179,8145,8155,8137,6.028573989868164
48,8198,8146,8179,8159,8194,8157,8221,8156,8246,8235,8168,8149,8159,8128,6.036570072174072
49,8168,8148,8172,8157,8185,8128,8237,8136,8244,8232,8169,8142,8146,8138,6.043566465377808
50,8189,8136,8161,8159,8160,8152,8195,8145,8202,8202,8159,8136,8152,8112,6.051566362380981
51,8169,8128,8160,8154,8169,8134,8177,8132,8188,8183,8151,8127,8150,8087,6.059741497039795
52,8187,8135,8182,8160,8194,8145,8196,8130,8200,8191,8162,8135,8152,8117,6.067914962768555
53,8223,8141,8196,8169,8189,8156,8197,8158,8189,8199,8177,8156,8167,8143,6.075794458389282
54,8191,8155,8193,8187,8183,8127,8199,8142,8209,8238,8183,8153,8160,8140,6.083795070648193
55,8216,8146,8192,8182,8156,8168,8173,8144,8206,8226,8172,8149,8160,8129,6.091567277908325
56,8199,8134,8185,8170,8162,8153,8169,8131,8187,8202,8169,8141,8154,8119,6.099565982818604
57,8193,8130,8182,8166,8173,8143,8172,8135,8159,8195,8173,8144,8153,8119,6.107115030288696
58,8220,8117,8183,8147,8143,8163,8149,8173,8135,8176,8170,8155,8161,8118,6.115115165710449
59,8186,8120,8183,8148,8147,8140,8165,8152,8174,8190,8173,8146,8148,8117,6.12186598777771
59,8186,8120,8183,8148,8147,8140,8165,8152,8174,8190,8173,8146,8148,8117,6.122884035110474
60,8211,8122,8180,8145,8129,8163,8167,8150,8174,8172,8168,8145,8155,8105,6.129887104034424
60,8211,8122,8180,8145,8129,8163,8167,8150,8174,8172,8168,8145,8155,8105,6.130887985229492
61,8197,8113,8164,8128,8114,8142,8159,8150,8141,8144,8160,8140,8158,8092,6.138566255569458
62,8178,8114,8161,8120,8127,8142,8143,8137,8114,8139,8161,8134,8148,8090,6.146820783615112
63,8213,8120,8175,8110,8106,8169,8108,8153,8079,8122,8160,8144,8157,8073,6.154820919036865
64,8199,8140,8186,8139,8111,8136,8121,8135,8103,8136,8163,8145,8156,8074,6.162566184997559
65,8226,8151,8199,8179,8138,8164,8130,8147,8116,8140,8172,8159,8164,8099,6.170833110809326
66,8212,8150,8200,8176,8148,8156,8124,8158,8102,8138,8177,8162,8165,8108,6.178701639175415
67,8186,8156,8196,8165,8142,8142,8122,8142,8098,8141,8175,8152,8159,8101,6.186689615249634
68,8229,8165,8202,8161,8136,8176,8108,8162,8092,8133,8179,8164,8166,8094,6.193686723709106
69,8209,8170,8209,8177,8143,8157,8123,8153,8129,8163,8186,8162,8154,8106,6.201686859130859
70,8216,8152,8200,8178,8116,8175,8114,8157,8121,8160,8179,8154,8159,8109,6.209686756134033
71,8219,8127,8173,8146,8095,8158,8098,8165,8075,8131,8171,8144,8169,8085,6.217687129974365
72,8211,8124,8172,8132,8102,8143,8115,8157,8099,8137,8175,8138,8156,8072,6.2256410121917725
73,8242,8120,8182,8128,8097,8181,8116,8174,8128,8139,8172,8150,8159,8066,6.233609199523926
74,8200,8121,8163,8118,8115,8148,8119,8154,8104,8131,8158,8132,8153,8056,6.2411417961120605
75,8210,8118,8162,8116,8114,8162,8092,8149,8052,8091,8147,8128,8158,8043,6.248566389083862
76,8230,8122,8180,8131,8087,8179,8070,8160,8063,8084,8160,8153,8162,8042,6.256567001342773
77,8208,8139,8188,8153,8085,8160,8080,8142,8103,8129,8173,8156,8151,8062,6.26456618309021
78,8233,8136,8192,8136,8091,8168,8059,8154,8069,8108,8166,8151,8164,8066,6.272289991378784
79,8203,8140,8194,8120,8118,8134,8059,8144,8074,8097,8167,8143,8160,8066,6.280283212661743
80,8204,8139,8196,8133,8108,8153,8069,8145,8098,8112,8167,8150,8152,8080,6.288296461105347
80,8204,8139,8196,8133,8108,8153,8069,8145,8098,8112,8167,8150,8152,8080,6.289313793182373
81,8209,8117,8180,8140,8069,8169,8056,8158,8058,8100,8150,8149,8160,8064,6.296566724777222
82,8190,8127,8182,8144,8082,8158,8067,8147,8067,8128,8156,8142,8160,8052,6.304567098617554
83,8237,8150,8209,8138,8103,8192,8085,8181,8113,8154,8179,8164,8169,8072,6.312641620635986
84,8211,8139,8194,8124,8109,8165,8109,8173,8112,8137,8165,8152,8161,8067,6.3199121952056885
85,8190,8109,8158,8091,8080,8171,8097,8156,8051,8079,8139,8125,8151,8031,6.326938390731812
85,8190,8109,8158,8091,8080,8171,8097,8156,8051,8079,8139,8125,8151,8031,6.327931642532349
86,8200,8103,8154,8062,8048,8187,8076,8179,8023,8066,8144,8127,8156,8016,6.335749864578247
87,8180,8131,8173,8084,8071,8162,8107,8167,8079,8112,8158,8131,8156,8037,6.343854427337647
88,8205,8123,8167,8078,8070,8187,8092,8171,8073,8084,8146,8135,8167,8034,6.351562023162842
89,8180,8098,8147,8048,8053,8168,8053,8161,8038,8057,8137,8124,8162,8003,6.359575033187866
90,8184,8116,8162,8068,8056,8176,8049,8155,8052,8081,8149,8126,8155,8001,6.3675758838653564
91,8216,8130,8174,8083,8059,8200,8050,8174,8066,8083,8152,8142,8169,8003,6.375817537307739
92,8190,8130,8173,8069,8073,8167,8052,8163,8068,8080,8148,8129,8165,8004,6.382561445236206
93,8211,8139,8178,8072,8073,8182,8037,8179,8035,8064,8151,8129,8165,8007,6.390748023986816
94,8186,8154,8172,8101,8095,8170,8057,8171,8055,8071,8156,8133,8160,8006,6.398748159408569
95,8174,8152,8171,8105,8102,8172,8094,8161,8111,8098,8151,8128,8159,8017,6.406754732131958
96,8213,8139,8170,8068,8073,8186,8097,8195,8107,8102,8148,8130,8168,8023,6.414770603179932
97,8181,8144,8161,8072,8093,8156,8114,8179,8104,8108,8158,8128,8155,8020,6.421945571899414
97,8181,8144,8161,8072,8093,8156,8114,8179,8104,8108,8158,8128,8155,8020,6.4230053424835205
98,8191,8151,8159,8086,8101,8183,8119,8174,8128,8094,8153,8143,8160,8019,6.42997932434082
98,8191,8151,8159,8086,8101,8183,8119,8174,8128,8094,8153,8143,8160,8019,6.4309983253479
99,8183,8135,8150,8068,8079,8165,8115,8171,8153,8106,8141,8130,8163,8020,6.438567638397217
100,8159,8102,8134,8045,8070,8147,8098,8152,8124,8117,8141,8100,8153,8007,6.446567535400391
101,8181,8101,8135,8034,8071,8172,8073,8166,8085,8084,8148,8116,8163,7993,6.45362401008606
102,8160,8139,8151,8062,8081,8148,8097,8150,8124,8101,8153,8131,8158,8007,6.461197376251221
103,8176,8137,8156,8073,8071,8160,8100,8151,8126,8111,8150,8128,8158,8022,6.46919059753418
104,8172,8121,8150,8071,8092,8144,8099,8156,8104,8102,8159,8122,8162,8026,6.477529525756836
105,8156,8145,8161,8088,8129,8131,8123,8138,8141,8128,8170,8121,8153,8036,6.4855663776397705
106,8183,8153,8166,8081,8114,8165,8123,8157,8152,8130,8153,8124,8155,8033,6.493567228317261
107,8157,8139,8155,8091,8122,8140,8139,8156,8149,8135,8147,8115,8156,8038,6.501536846160889
108,8177,8139,8158,8113,8125,8150,8140,8162,8146,8132,8162,8128,8163,8053,6.50954270362854
109,8201,8147,8157,8103,8106,8160,8127,8164,8150,8119,8162,8133,8157,8040,6.516567230224609
110,8196,8142,8149,8092,8116,8153,8146,8147,8169,8128,8146,8113,8146,8031,6.524731397628784
111,8232,8127,8145,8079,8119,8173,8153,8174,8156,8128,8146,8120,8165,8037,6.532254934310913
112,8218,8144,8157,8090,8139,8155,8159,8166,8167,8144,8164,8131,8163,8041,6.540343999862671
113,8232,8166,8177,8124,8151,8176,8157,8163,8180,8144,8167,8134,8162,8047,6.548289060592651
114,8238,8147,8162,8107,8116,8178,8141,8176,8151,8106,8150,8125,8167,8037,6.556568145751953
115,8212,8138,8152,8084,8113,8159,8134,8150,8134,8097,8149,8120,8156,8025,6.564877033233643
116,8257,8155,8183,8107,8137,8194,8132,8165,8134,8115,8169,8150,8166,8044,6.57293176651001
117,8259,8175,8194,8126,8148,8170,8160,8163,8156,8148,8175,8151,8167,8072,6.578938961029053
117,8259,8175,8194,8126,8148,8170,8160,8163,8156,8148,8175,8151,8167,8072,6.579936265945435
118,8263,8177,8189,8121,8147,8158,8175,8158,8163,8145,8168,8139,8168,8078,6.5879669189453125
119,8266,8174,8190,8134,8159,8163,8171,8181,8180,8133,8171,8154,8174,8068,6.5969789028167725
120,8235,8171,8183,8143,8164,8154,8178,8166,8217,8164,8171,8143,8154,8064,6.602978944778442
120,8235,8171,8183,8143,8164,8154,8178,8166,8217,8164,8171,8143,8154,8064,6.603979587554932
121,8271,8163,8176,8111,8130,8178,8168,8170,8196,8173,8156,8135,8159,8065,6.6109778881073
121,8271,8163,8176,8111,8130,8178,8168,8170,8196,8173,8156,8135,8159,8065,6.611978530883789
122,8261,8169,8180,8117,8141,8152,8178,8170,8194,8181,8162,8144,8169,8073,6.618977546691895
123,8243,8165,8178,8138,8170,8159,8175,8164,8218,8178,8174,8149,8163,8078,6.627983570098877
124,8261,8152,8167,8114,8148,8179,8148,8167,8204,8153,8168,8139,8159,8065,6.635987043380737
125,8241,8161,8174,8121,8138,8148,8162,8142,8198,8164,8162,8128,8151,8065,6.643495798110962
126,8259,8160,8180,8137,8142,8167,8155,8150,8174,8148,8159,8141,8161,8075,6.650495290756226
127,8255,8153,8171,8126,8159,8163,8141,8152,8161,8115,8160,8136,8159,8063,6.658496856689453
241,8262,8170,8187,8141,8160,8164,8153,8153,8180,8128,8170,8136,8156,8060,6.666496992111206
0,8301,8189,8209,8175,8138,8191,8156,8180,8187,8146,8175,8166,8176,8080,6.674494504928589
1,8287,8200,8220,8194,8162,8183,8172,8166,8200,8171,8170,8168,8172,8102,6.682749032974243
1,8287,8200,8220,8194,8162,8183,8172,8166,8200,8171,8170,8168,8172,8102,6.683003187179565
2,8305,8197,8225,8196,8183,8198,8174,8176,8199,8181,8172,8167,8171,8109,6.690720558166504
3,8288,8191,8215,8188,8180,8175,8175,8185,8196,8174,8175,8165,8173,8103,6.698720693588257
4,8269,8197,8208,8177,8193,8161,8199,8175,8216,8167,8162,8156,8168,8107,6.706568241119385
5,8299,8194,8210,8173,8198,8184,8207,8195,8227,8155,8156,8157,8170,8110,6.713567018508911
6,8269,8186,8198,8184,8189,8161,8203,8180,8233,8157,8162,8141,8156,8096,6.721788167953491
7,8281,8186,8194,8175,8172,8177,8184,8175,8217,8141,8160,8140,8159,8090,6.729792594909668
8,8290,8189,8203,8169,8182,8173,8178,8180,8210,8144,8161,8148,8168,8095,6.737804889678955
9,8262,8191,8206,8186,8189,8159,8185,8166,8229,8169,8166,8143,8163,8097,6.745567321777344
10,8274,8188,8204,8176,8168,8180,8185,8178,8229,8155,8164,8150,8171,8103,6.753762006759644
11,8258,8194,8205,8180,8199,8152,8206,8162,8230,8162,8164,8144,8164,8115,6.761566638946533
12,8272,8200,8204,8198,8229,8161,8198,8159,8224,8173,8167,8143,8160,8111,6.769591331481934
13,8271,8201,8198,8187,8198,8167,8186,8171,8235,8174,8163,8148,8164,8094,6.7775962352752686
14,8249,8204,8205,8185,8191,8153,8210,8158,8257,8195,8164,8142,8160,8115,6.784324407577515
14,8249,8204,8205,8185,8191,8153,8210,8158,8257,8195,8164,8142,8160,8115,6.785334348678589
15,8275,8199,8205,8186,8210,8174,8208,8178,8235,8186,8174,8149,8175,8134,6.792566299438477
16,8245,8190,8189,8183,8210,8152,8211,8176,8249,8182,8176,8149,8167,8111,6.800588369369507
17,8243,8187,8184,8183,8185,8162,8217,8174,8276,8193,8164,8145,8159,8097,6.808586835861206
18,8263,8193,8185,8185,8184,8175,8210,8183,8255,8186,8157,8144,8161,8102,6.816891670227051
19,8234,8189,8183,8178,8202,8152,8212,8166,8245,8167,8162,8142,8153,8107,6.824858665466309
20,8247,8171,8181,8149,8174,8167,8200,8173,8242,8138,8163,8151,8160,8101,6.832860231399536
21,8239,8176,8178,8149,8158,8148,8206,8155,8242,8156,8155,8142,8159,8095,6.839403390884399
22,8242,8184,8177,8165,8170,8150,8210,8147,8230,8164,8154,8138,8159,8102,6.847530364990234
23,8245,8168,8172,8152,8178,8164,8186,8170,8205,8134,8157,8149,8162,8093,6.85556697845459
24,8219,8173,8171,8158,8192,8145,8184,8149,8210,8148,8166,8142,8152,8083,6.863566875457764
25,8250,8181,8177,8164,8175,8164,8187,8160,8206,8163,8168,8149,8163,8094,6.871919870376587
26,8243,8178,8187,8151,8173,8151,8195,8176,8211,8171,8166,8155,8165,8109,6.879445314407349
27,8238,8190,8203,8171,8197,8152,8198,8170,8228,8183,8177,8165,8164,8122,6.887530088424683
28,8257,8190,8202,8201,8197,8164,8192,8177,8226,8171,8181,8173,8171,8125,6.895294904708862
29,8230,8186,8189,8192,8210,8137,8214,8173,8236,8172,8168,8150,8161,8127,6.903292179107666
30,8251,8188,8189,8172,8216,8161,8221,8191,8229,8171,8163,8150,8165,8130,6.910290479660034
31,8244,8191,8197,8187,8214,8166,8225,8182,8234,8181,8168,8149,8164,8123,6.9185662269592285
32,8227,8194,8198,8191,8206,8159,8232,8165,8247,8179,8163,8137,8155,8117,6.9265666007995605
33,8251,8185,8183,8169,8186,8163,8213,8186,8220,8145,8153,8137,8162,8104,6.934332609176636
34,8235,8186,8184,8181,8195,8146,8217,8167,8215,8164,8161,8132,8156,8106,6.942328453063965
35,8253,8196,8204,8199,8202,8174,8222,8160,8215,8184,8172,8146,8160,8128,6.9503209590911865
36,8248,8195,8199,8194,8205,8159,8218,8168,8198,8168,8173,8151,8163,8129,6.958566188812256
37,8232,8182,8187,8187,8209,8142,8205,8160,8186,8168,8165,8142,8158,8112,6.96656608581543
38,8270,8175,8197,8183,8193,8171,8176,8163,8167,8162,8159,8151,8162,8103,6.973644971847534
39,8255,8186,8205,8199,8192,8155,8187,8145,8183,8158,8165,8146,8153,8111,6.981566429138184
40,8248,8178,8198,8185,8192,8163,8189,8166,8195,8148,8162,8142,8160,8114,6.989630937576294
41,8234,8163,8181,8148,8183,8165,8180,8185,8187,8152,8152,8137,8161,8090,6.997525453567505
42,8222,8166,8175,8157,8184,8154,8208,8166,8202,8178,8152,8131,8149,8083,7.005685567855835
43,8247,8157,8179,8158,8166,8167,8217,8183,8207,8157,8158,8142,8166,8096,7.013293027877808
44,8210,8141,8177,8133,8145,8146,8200,8174,8199,8128,8160,8131,8162,8085,7.021293640136719
45,8215,8147,8180,8131,8139,8164,8186,8167,8186,8138,8160,8129,8156,8075,7.029566526412964
46,8235,8158,8191,8149,8159,8167,8194,8171,8178,8164,8161,8144,8170,8099,7.036566972732544
47,8217,8159,8201,8161,8184,8144,8198,8153,8180,8176,8168,8150,8166,8125,7.044566631317139
47,8217,8159,8201,8161,8184,8144,8198,8153,8180,8176,8168,8150,8166,8125,7.045111417770386
48,8240,8157,8201,8155,8160,8167,8171,8167,8172,8159,8173,8158,8161,8112,7.052856683731079
49,8226,8164,8188,8154,8143,8152,8169,8153,8185,8166,8170,8147,8156,8099,7.060567378997803
50,8225,8167,8187,8152,8156,8153,8166,8146,8167,8154,8161,8147,8161,8108,7.068587303161621
51,8232,8166,8199,8155,8175,8160,8154,8170,8141,8140,8159,8159,8165,8105,7.076590299606323
52,8214,8187,8208,8186,8193,8153,8176,8164,8194,8183,8170,8158,8157,8107,7.084524631500244
53,8245,8199,8212,8184,8183,8178,8189,8182,8227,8195,8171,8165,8168,8123,7.092462539672852
54,8235,8197,8209,8167,8187,8153,8194,8183,8223,8186,8166,8158,8168,8126,7.1004557609558105
55,8234,8188,8206,8187,8187,8158,8199,8180,8230,8202,8173,8154,8168,8126,7.107454776763916
56,8246,8173,8198,8193,8171,8177,8203,8194,8234,8218,8178,8160,8171,8127,7.11590838432312
57,8217,8173,8188,8174,8179,8150,8215,8175,8228,8209,8167,8141,8156,8117,7.123693466186523
58,8237,8175,8190,8165,8166,8171,8198,8177,8188,8156,8158,8135,8163,8101,7.131691694259644
59,8229,8172,8197,8179,8160,8171,8188,8169,8177,8138,8163,8135,8164,8096,7.1395673751831055
60,8227,8175,8204,8173,8168,8160,8187,8160,8191,8158,8169,8140,8161,8116,7.14753007888794
61,8250,8180,8205,8157,8166,8163,8170,8175,8174,8156,8162,8157,8171,8127,7.155566453933716
62,8225,8186,8202,8181,8171,8149,8172,8154,8166,8153,8162,8155,8160,8118,7.16356635093689
63,8242,8182,8205,8201,8157,8178,8172,8163,8164,8153,8175,8161,8164,8116,7.170570373535156
64,8232,8185,8204,8191,8156,8172,8175,8171,8182,8176,8177,8163,8164,8118,7.178566932678223
65,8220,8194,8199,8182,8182,8164,8184,8163,8204,8200,8160,8157,8159,8122,7.186339616775513
66,8245,8183,8194,8179,8179,8180,8185,8193,8204,8184,8157,8153,8170,8121,7.194339275360107
67,8216,8178,8196,8184,8170,8154,8196,8196,8224,8190,8168,8142,8166,8118,7.203026533126831
68,8221,8178,8200,8169,8159,8170,8187,8195,8216,8180,8163,8149,8165,8111,7.210348129272461
69,8227,8178,8197,8158,8153,8173,8182,8180,8184,8149,8155,8147,8163,8098,7.218372821807861
70,8219,8186,8199,8176,8163,8162,8192,8168,8178,8152,8163,8145,8159,8108,7.226381301879883
71,8233,8190,8204,8177,8167,8175,8185,8186,8177,8157,8164,8166,8167,8116,7.234378099441528
72,8214,8194,8208,8186,8180,8161,8199,8157,8184,8160,8163,8164,8162,8108,7.240885019302368
73,8228,8196,8211,8192,8168,8176,8194,8157,8170,8154,8168,8164,8166,8112,7.248884439468384
74,8220,8205,8206,8175,8158,8165,8173,8181,8162,8160,8167,8165,8168,8118,7.257523536682129
74,8220,8205,8206,8175,8158,8165,8173,8181,8162,8160,8167,8165,8168,8118,7.257891893386841
75,8211,8212,8210,8193,8190,8155,8187,8170,8187,8190,8167,8161,8158,8123,7.265897274017334
76,8245,8197,8212,8214,8190,8182,8190,8177,8185,8185,8169,8165,8165,8126,7.272904872894287
76,8245,8197,8212,8214,8190,8182,8190,8177,8185,8185,8169,8165,8165,8126,7.273897171020508
77,8214,8191,8202,8192,8179,8153,8181,8171,8183,8171,8167,8154,8161,8126,7.281904697418213
78,8212,8196,8203,8176,8181,8158,8173,8178,8194,8163,8167,8154,8159,8125,7.289635181427002
79,8227,8203,8210,8203,8183,8173,8191,8193,8218,8179,8172,8159,8165,8124,7.297598123550415
80,8214,8225,8216,8232,8188,8159,8230,8184,8246,8213,8183,8156,8161,8141,7.3043341636657715
81,8232,8231,8217,8214,8185,8174,8221,8190,8223,8200,8181,8165,8164,8148,7.31233024597168
82,8206,8209,8208,8192,8183,8160,8205,8167,8204,8192,8166,8153,8159,8134,7.32056713104248
83,8205,8194,8206,8189,8173,8165,8208,8163,8196,8190,8171,8148,8166,8139,7.328566312789917
84,8217,8194,8205,8190,8184,8165,8207,8185,8177,8170,8181,8165,8170,8144,7.336567401885986
85,8182,8190,8204,8179,8194,8154,8195,8161,8181,8167,8174,8163,8156,8131,7.344231367111206
86,8194,8179,8194,8156,8162,8179,8168,8162,8173,8154,8157,8162,8164,8123,7.352230787277222
87,8189,8177,8182,8170,8160,8152,8180,8164,8174,8152,8158,8160,8159,8126,7.360569953918457
88,8190,8172,8187,8189,8178,8145,8190,8163,8177,8155,8173,8164,8154,8129,7.367529630661011
89,8202,8177,8196,8183,8171,8163,8184,8178,8184,8161,8181,8180,8169,8127,7.375566959381103
90,8188,8202,8204,8200,8179,8151,8216,8169,8225,8199,8182,8177,8166,8144,7.383569002151489
91,8209,8197,8198,8195,8174,8170,8213,8183,8219,8193,8171,8172,8163,8152,7.391566276550293
92,8192,8177,8187,8165,8169,8158,8179,8182,8197,8170,8165,8173,8161,8128,7.399259328842163
93,8185,8182,8190,8170,8173,8157,8172,8173,8206,8172,8167,8181,8161,8117,7.407324075698851
94,8204,8174,8184,8166,8147,8169,8173,8173,8184,8149,8154,8173,8159,8110,7.415319681167602
95,8180,8156,8166,8136,8141,8145,8160,8144,8156,8120,8140,8143,8145,8092,7.423566341400146
96,8192,8147,8161,8128,8142,8162,8124,8158,8139,8091,8146,8144,8158,8076,7.430551528930664
97,8176,8146,8152,8144,8133,8153,8119,8160,8141,8086,8150,8138,8157,8058,7.43856143951416
98,8159,8155,8147,8148,8141,8142,8142,8141,8150,8102,8143,8125,8146,8062,7.4458582401275635
98,8159,8155,8147,8148,8141,8142,8142,8141,8150,8102,8143,8125,8146,8062,7.446857929229736
99,8179,8157,8157,8134,8148,8158,8136,8158,8145,8101,8150,8140,8159,8076,7.454351902008057
100,8150,8158,8165,8147,8143,8137,8137,8152,8159,8115,8166,8145,8152,8071,7.46234655380249
101,8156,8160,8160,8156,8123,8148,8135,8158,8164,8120,8158,8147,8151,8065,7.470566749572754
102,8152,8155,8150,8139,8132,8142,8139,8163,8172,8118,8149,8138,8157,8066,7.4785661697387695
103,8137,8150,8153,8134,8148,8134,8148,8158,8185,8126,8154,8134,8156,8073,7.48656702041626
104,8163,8144,8155,8125,8125,8155,8129,8175,8176,8114,8155,8152,8162,8072,7.494558572769165
105,8150,8151,8157,8128,8123,8140,8140,8153,8198,8126,8160,8147,8151,8080,7.501553535461426
106,8165,8160,8164,8144,8133,8151,8150,8154,8199,8132,8163,8149,8155,8094,7.509566068649292
107,8154,8146,8153,8139,8125,8140,8121,8162,8159,8099,8148,8155,8157,8068,7.517771244049072
108,8122,8122,8137,8123,8114,8131,8098,8135,8130,8067,8133,8138,8141,8034,7.525789499282837
109,8154,8121,8138,8120,8101,8163,8091,8145,8107,8047,8133,8130,8153,8031,7.533566236495972
110,8145,8142,8141,8133,8117,8136,8105,8149,8116,8061,8139,8128,8157,8040,7.541132211685181
111,8147,8145,8144,8135,8125,8143,8099,8152,8122,8064,8144,8141,8152,8040,7.549126148223877
112,8155,8141,8148,8141,8114,8162,8090,8158,8110,8056,8142,8144,8155,8028,7.557529926300049
113,8139,8152,8147,8155,8124,8148,8104,8150,8116,8082,8137,8133,8159,8035,7.565567016601562
114,8159,8142,8143,8135,8124,8157,8088,8170,8102,8085,8140,8141,8168,8045,7.572566747665405
115,8138,8120,8130,8123,8114,8141,8063,8156,8082,8064,8140,8132,8156,8026,7.58057165145874
116,8137,8118,8124,8126,8096,8151,8052,8149,8072,8044,8130,8128,8155,8012,7.589285612106323
117,8151,8125,8134,8123,8087,8160,8059,8165,8060,8046,8130,8136,8164,8020,7.596323013305664
118,8132,8127,8141,8130,8097,8140,8068,8151,8057,8050,8138,8124,8156,8025,7.60431957244873
119,8155,8109,8129,8127,8077,8163,8037,8164,8051,8014,8137,8125,8163,8012,7.612565994262695
120,8142,8098,8126,8129,8068,8159,8035,8157,8072,8017,8136,8126,8158,8001,7.620567083358765
121,8133,8103,8127,8129,8071,8163,8052,8142,8084,8036,8135,8128,8155,8013,7.627351522445679
122,8147,8096,8119,8111,8068,8165,8041,8164,8072,8030,8132,8131,8167,8015,7.635634899139404
123,8129,8091,8125,8116,8091,8142,8036,8151,8084,8049,8141,8118,8157,8003,7.643154144287109
124,8147,8099,8128,8118,8095,8168,8025,8151,8077,8045,8144,8122,8156,7996,7.651566982269287
125,8134,8105,8126,8113,8079,8158,8030,8158,8069,8043,8141,8130,8158,8008,7.659547805786133
126,8127,8092,8136,8131,8072,8149,8035,8158,8068,8064,8147,8126,8161,8021,7.667551755905151
127,8140,8074,8132,8126,8072,8158,8018,8167,8050,8046,8144,8127,8169,8011,7.675566673278809
241,8117,8093,8128,8123,8075,8140,8023,8155,8063,8038,8143,8136,8160,8010,7.6835856437683105
0,8148,8121,8154,8150,8059,8161,8030,8173,8078,8056,8157,8162,8166,8037,7.691584348678589
1,8139,8112,8164,8156,8067,8160,8036,8169,8085,8074,8154,8153,8165,8047,7.69858455657959
2,8109,8067,8135,8116,8075,8150,8027,8142,8077,8050,8144,8125,8154,8028,7.706584453582764
3,8129,8045,8114,8084,8038,8159,7996,8154,8043,8001,8140,8131,8163,8004,7.714584112167358
4,8117,8075,8125,8106,8038,8142,8007,8147,8043,8034,8143,8133,8162,8003,7.722583532333374
5,8134,8091,8146,8123,8071,8158,8030,8158,8057,8078,8147,8138,8164,8021,7.730586051940918
6,8129,8071,8141,8107,8070,8144,8022,8155,8037,8054,8150,8136,8161,8018,7.738089084625244
7,8109,8073,8124,8106,8053,8138,8003,8140,8016,8038,8141,8126,8156,8010,7.746092557907104
8,8143,8103,8139,8132,8056,8170,8010,8174,8048,8063,8147,8146,8173,8026,7.754092454910278
9,8142,8118,8163,8159,8081,8152,8045,8170,8111,8102,8168,8155,8174,8050,7.7615673542022705
10,8156,8111,8165,8143,8086,8160,8042,8171,8111,8097,8164,8154,8171,8062,7.769568204879761
11,8165,8130,8172,8147,8100,8168,8049,8186,8114,8104,8160,8162,8168,8074,7.777068138122559
12,8159,8159,8182,8187,8126,8157,8095,8171,8162,8147,8171,8159,8159,8094,7.785066843032837
13,8168,8133,8162,8173,8108,8165,8094,8177,8141,8134,8168,8149,8163,8081,7.793336629867554
14,8138,8103,8138,8145,8106,8141,8085,8168,8110,8102,8160,8132,8159,8055,7.801336765289307
15,8148,8108,8144,8147,8122,8158,8086,8164,8114,8080,8157,8137,8161,8055,7.809348821640015
16,8152,8107,8145,8149,8119,8159,8077,8169,8108,8082,8158,8136,8160,8046,7.817369222640991
17,8123,8110,8134,8145,8112,8129,8073,8153,8096,8103,8160,8115,8147,8030,7.824204444885254
18,8155,8119,8140,8147,8101,8160,8066,8168,8102,8092,8162,8127,8161,8033,7.831992149353027
18,8155,8119,8140,8147,8101,8160,8066,8168,8102,8092,8162,8127,8161,8033,7.83298397064209
19,8151,8128,8153,8156,8120,8157,8090,8167,8156,8110,8166,8141,8163,8053,7.840074300765991
19,8151,8128,8153,8156,8120,8157,8090,8167,8156,8110,8166,8141,8163,8053,7.841067790985107
20,8148,8131,8156,8159,8138,8145,8101,8171,8160,8139,8180,8146,8165,8074,7.84856653213501
21,8156,8126,8154,8156,8134,8139,8088,8187,8122,8135,8180,8146,8170,8071,7.856567144393921
22,8136,8125,8163,8164,8147,8137,8106,8178,8155,8154,8171,8142,8158,8074,7.86437201499939
23,8164,8123,8169,8166,8147,8172,8122,8192,8186,8180,8171,8161,8163,8095,7.872366666793823
24,8160,8123,8161,8162,8150,8156,8138,8180,8183,8178,8171,8160,8157,8100,7.880567312240601
25,8154,8127,8168,8169,8165,8158,8149,8172,8177,8153,8176,8157,8161,8099,7.888566493988037
26,8162,8128,8174,8173,8163,8171,8142,8187,8159,8148,8177,8169,8176,8097,7.896109819412231
27,8147,8140,8174,8179,8171,8148,8154,8165,8165,8187,8180,8169,8161,8104,7.90356707572937
28,8181,8147,8188,8176,8173,8170,8163,8177,8188,8202,8179,8181,8162,8120,7.911539554595947
29,8168,8129,8185,8174,8163,8163,8148,8177,8192,8183,8172,8170,8165,8109,7.919330835342407
30,8153,8112,8169,8177,8155,8159,8126,8162,8166,8177,8175,8156,8161,8098,7.927349328994751
31,8180,8116,8173,8169,8154,8175,8119,8172,8158,8183,8177,8167,8164,8105,7.935566663742065
32,8160,8125,8181,8179,8170,8148,8127,8159,8189,8189,8173,8163,8158,8110,7.9433274269104
33,8164,8098,8167,8181,8148,8157,8108,8178,8182,8161,8170,8162,8164,8103,7.951567888259888
34,8158,8085,8152,8163,8123,8158,8108,8185,8185,8159,8172,8162,8164,8086,7.958726406097412
35,8155,8111,8154,8157,8141,8160,8138,8165,8212,8193,8165,8156,8157,8088,7.9665679931640625
36,8173,8111,8150,8159,8157,8170,8141,8177,8187,8182,8157,8152,8166,8088,7.974788904190063
37,8148,8101,8151,8162,8166,8150,8147,8171,8171,8177,8166,8150,8162,8076,7.982813119888306
38,8174,8127,8173,8168,8161,8175,8160,8178,8186,8185,8173,8169,8164,8084,7.990761041641235
39,8182,8145,8177,8176,8165,8167,8171,8178,8195,8174,8168,8162,8162,8094,7.998344659805298
40,8153,8118,8155,8170,8182,8143,8166,8164,8196,8148,8159,8135,8152,8081,8.006338834762573
41,8166,8101,8155,8152,8169,8170,8157,8187,8198,8138,8158,8148,8164,8075,8.014567136764526
42,8163,8133,8182,8173,8165,8166,8184,8179,8229,8193,8173,8162,8165,8100,8.022433280944824
43,8173,8142,8190,8187,8173,8168,8177,8169,8212,8207,8178,8162,8168,8116,8.029448509216309
44,8160,8126,8176,8176,8181,8160,8156,8176,8168,8168,8174,8162,8171,8108,8.037980079650879
45,8144,8136,8175,8190,8183,8159,8175,8176,8193,8171,8170,8166,8162,8116,8.046014308929443
46,8178,8137,8173,8167,8158,8181,8163,8192,8217,8191,8164,8166,8164,8118,8.054030418395996
47,8154,8117,8154,8116,8163,8146,8146,8177,8211,8194,8160,8141,8156,8095,8.061567544937134
48,8157,8110,8146,8121,8166,8150,8154,8181,8210,8170,8163,8145,8158,8089,8.069566488265991
49,8176,8118,8153,8150,8148,8169,8164,8191,8215,8179,8164,8159,8163,8090,8.077592372894287
50,8155,8116,8159,8143,8158,8159,8175,8166,8212,8214,8158,8141,8155,8086,8.085587501525879
50,8155,8116,8159,8143,8158,8159,8175,8166,8212,8214,8158,8141,8155,8086,8.086586952209473
51,8173,8105,8152,8115,8158,8169,8166,8175,8176,8177,8156,8143,8170,8088,8.092567920684814
52,8163,8123,8149,8131,8159,8150,8160,8171,8157,8156,8166,8150,8170,8091,8.10084867477417
53,8171,8145,8162,8156,8176,8167,8164,8167,8172,8185,8166,8153,8162,8093,8.108536005020142
54,8178,8145,8161,8151,8191,8178,8171,8183,8213,8191,8156,8154,8169,8093,8.116545915603638
55,8156,8153,8164,8153,8190,8154,8180,8172,8250,8202,8170,8157,8169,8111,8.12411642074585
56,8186,8172,8182,8165,8180,8177,8169,8184,8225,8210,8187,8175,8172,8128,8.132115125656128
57,8173,8170,8183,8176,8203,8168,8176,8177,8216,8216,8175,8167,8162,8121,8.140567541122437
58,8167,8149,8170,8158,8203,8162,8174,8174,8236,8219,8161,8159,8162,8119,8.148653030395508
59,8184,8140,8159,8132,8174,8159,8157,8193,8237,8203,8164,8164,8168,8115,8.156656980514526
60,8156,8145,8153,8145,8168,8141,8175,8169,8241,8183,8166,8150,8153,8095,8.163480758666992
61,8158,8132,8146,8142,8151,8173,8168,8158,8200,8153,8149,8146,8156,8070,8.171566247940063
62,8157,8133,8145,8133,8150,8168,8161,8156,8174,8160,8136,8146,8158,8069,8.17958378791809
63,8172,8160,8155,8147,8171,8156,8177,8165,8202,8169,8147,8153,8162,8099,8.187591075897217
64,8179,8156,8157,8136,8169,8169,8160,8178,8191,8122,8153,8165,8168,8104,8.195733785629272
65,8148,8139,8158,8131,8159,8158,8138,8147,8164,8113,8146,8151,8150,8083,8.203500986099243
66,8190,8141,8161,8144,8145,8176,8131,8156,8164,8143,8147,8151,8154,8073,8.211501121520996
67,8209,8150,8149,8138,8147,8159,8146,8172,8182,8168,8159,8157,8163,8081,8.218514442443848
68,8198,8153,8149,8138,8166,8148,8147,8165,8188,8161,8162,8154,8158,8097,8.226454496383667
69,8212,8145,8158,8149,8155,8170,8119,8176,8185,8123,8153,8154,8163,8084,8.234567403793335
70,8180,8131,8141,8145,8134,8156,8119,8153,8194,8125,8142,8131,8153,8051,8.242981195449829
71,8186,8118,8126,8125,8141,8168,8121,8155,8172,8128,8146,8127,8156,8050,8.250463962554932
72,8198,8128,8142,8131,8162,8158,8129,8174,8168,8124,8164,8144,8164,8068,8.258460521697998
73,8191,8155,8161,8161,8157,8143,8145,8165,8195,8142,8165,8148,8157,8077,8.266459703445435
74,8207,8154,8158,8161,8127,8167,8140,8171,8192,8150,8160,8150,8163,8075,8.274461507797241
75,8197,8143,8152,8158,8155,8156,8158,8161,8196,8174,8171,8145,8164,8086,8.282457113265991
76,8227,8140,8153,8154,8191,8158,8158,8172,8185,8174,8172,8149,8163,8097,8.289458513259888
77,8240,8129,8146,8140,8162,8148,8124,8168,8153,8138,8148,8139,8158,8075,8.297248840332031
78,8230,8124,8146,8137,8122,8149,8118,8136,8156,8126,8145,8129,8153,8064,8.305081129074097
79,8262,8122,8148,8134,8100,8181,8115,8151,8146,8120,8154,8150,8162,8074,8.313080072402954
80,8243,8113,8137,8128,8114,8151,8099,8149,8123,8118,8143,8138,8152,8064,8.321563005447388
81,8249,8106,8131,8123,8118,8150,8078,8154,8122,8106,8139,8125,8153,8048,8.329566240310669
82,8278,8123,8137,8134,8114,8161,8084,8169,8142,8092,8148,8136,8160,8049,8.337108135223389
83,8281,8142,8146,8153,8127,8151,8119,8154,8156,8109,8149,8138,8150,8063,8.345139980316162
84,8309,8136,8147,8147,8125,8172,8127,8171,8130,8129,8147,8146,8158,8071,8.352561950683594
85,8297,8145,8151,8150,8140,8154,8134,8170,8129,8145,8161,8145,8160,8078,8.360568761825562
86,8318,8173,8175,8165,8156,8156,8147,8170,8154,8141,8177,8157,8166,8103,8.36856460571289
87,8351,8175,8181,8174,8155,8167,8142,8184,8153,8142,8177,8167,8172,8108,8.376556158065796
88,8326,8157,8161,8186,8149,8147,8129,8151,8140,8157,8173,8148,8154,8089,8.384213209152222
89,8350,8152,8162,8180,8124,8166,8113,8151,8131,8133,8171,8155,8162,8090,8.392205953598022
89,8350,8152,8162,8180,8124,8166,8113,8151,8131,8133,8171,8155,8162,8090,8.39319920539856
90,8360,8174,8182,8174,8145,8159,8135,8161,8161,8143,8172,8167,8169,8113,8.400208234786987
91,8371,8191,8189,8186,8171,8161,8143,8170,8172,8185,8177,8166,8169,8131,8.40856647491455
92,8390,8178,8178,8200,8137,8171,8117,8185,8143,8173,8180,8169,8168,8122,8.41657018661499
93,8372,8180,8174,8214,8128,8151,8123,8164,8162,8152,8172,8161,8155,8106,8.423566341400146
94,8393,8188,8175,8186,8154,8164,8129,8171,8178,8149,8158,8165,8162,8110,8.431317329406738
95,8382,8174,8172,8160,8156,8153,8126,8172,8155,8157,8160,8162,8165,8113,8.43941354751587
96,8373,8166,8170,8186,8145,8157,8131,8164,8141,8141,8159,8161,8160,8102,8.447449207305908
97,8391,8181,8173,8199,8143,8176,8138,8173,8158,8126,8151,8171,8164,8097,8.455562114715576
98,8374,8195,8178,8188,8163,8153,8149,8158,8182,8171,8158,8163,8160,8109,8.463202238082886
98,8374,8195,8178,8188,8163,8153,8149,8158,8182,8171,8158,8163,8160,8109,8.464217901229858
99,8389,8177,8169,8179,8162,8167,8132,8171,8158,8167,8162,8168,8170,8111,8.471219301223755
100,8375,8165,8156,8181,8146,8164,8125,8171,8156,8147,8163,8169,8167,8094,8.479214429855347
100,8375,8165,8156,8181,8146,8164,8125,8171,8156,8147,8163,8169,8167,8094,8.480212450027466
101,8362,8178,8156,8182,8145,8152,8137,8155,8174,8178,8162,8162,8156,8096,8.486287832260132
102,8385,8174,8157,8172,8139,8164,8127,8172,8141,8163,8161,8165,8163,8101,8.494281768798828
103,8352,8166,8155,8167,8141,8148,8123,8155,8135,8131,8162,8159,8159,8092,8.502566576004028
104,8346,8157,8154,8156,8127,8167,8115,8158,8146,8136,8157,8158,8156,8076,8.510359048843384
105,8344,8144,8145,8150,8110,8166,8125,8174,8146,8148,8154,8154,8156,8067,8.51846957206726
106,8330,8159,8142,8156,8117,8151,8145,8169,8157,8143,8158,8153,8157,8087,8.526350259780884
107,8344,8172,8149,8151,8127,8170,8138,8180,8166,8136,8163,8167,8168,8094,8.534356594085693
108,8325,8163,8151,8153,8146,8155,8153,8165,8187,8160,8163,8165,8157,8084,8.542567729949951
109,8347,8160,8157,8172,8143,8165,8168,8166,8182,8167,8164,8166,8160,8101,8.549566268920898
110,8351,8171,8160,8179,8147,8164,8165,8178,8171,8172,8162,8164,8165,8110,8.557529926300049
111,8319,8172,8154,8167,8167,8156,8168,8164,8191,8192,8157,8157,8150,8096,8.565567016601562
112,8344,8167,8152,8149,8152,8180,8168,8174,8187,8185,8157,8170,8158,8097,8.573567867279053
113,8330,8166,8154,8148,8148,8151,8180,8161,8175,8179,8160,8163,8163,8106,8.58156704902649
114,8325,8152,8150,8150,8145,8153,8175,8167,8177,8167,8160,8160,8163,8098,8.589617252349854
115,8324,8150,8144,8141,8133,8166,8156,8183,8185,8153,8158,8160,8161,8086,8.59744381904602
116,8299,8155,8146,8134,8132,8154,8162,8160,8185,8165,8160,8144,8151,8088,8.605436086654663
117,8315,8127,8135,8120,8117,8168,8154,8171,8157,8147,8156,8145,8163,8083,8.613566875457764
118,8302,8132,8126,8121,8117,8155,8158,8176,8173,8140,8155,8146,8162,8080,8.620567560195923
119,8310,8175,8148,8139,8133,8163,8184,8178,8207,8170,8178,8160,8163,8110,8.628371238708496
120,8317,8171,8156,8144,8148,8159,8189,8183,8198,8171,8181,8169,8165,8119,8.63637113571167
121,8286,8157,8142,8141,8149,8139,8187,8157,8189,8161,8164,8152,8153,8095,8.644567489624023
122,8314,8180,8147,8141,8133,8172,8187,8173,8188,8163,8168,8160,8165,8098,8.652677536010742
123,8312,8203,8158,8161,8145,8159,8210,8176,8203,8182,8179,8167,8167,8122,8.660566806793213
124,8298,8197,8156,8164,8156,8152,8207,8164,8198,8172,8170,8164,8162,8128,8.668689727783203
125,8293,8179,8147,8137,8135,8169,8166,8170,8150,8131,8153,8155,8163,8103,8.6755690574646
126,8267,8176,8148,8141,8133,8153,8162,8156,8137,8133,8163,8141,8155,8092,8.683566331863403
127,8290,8182,8155,8149,8134,8169,8173,8173,8160,8146,8179,8158,8161,8105,8.691603422164917
241,8278,8195,8154,8143,8129,8162,8182,8173,8177,8148,8171,8163,8160,8106,8.699347972869873
0,8265,8203,8154,8145,8133,8161,8178,8160,8168,8135,8166,8151,8156,8107,8.707796573638916
1,8289,8196,8155,8146,8137,8177,8169,8179,8159,8128,8176,8154,8169,8108,8.715794801712036
2,8270,8189,8153,8161,8141,8161,8190,8171,8192,8162,8182,8152,8165,8106,8.723567485809326
3,8272,8183,8146,8162,8130,8175,8193,8171,8185,8165,8169,8150,8159,8106,8.731569766998291
4,8255,8175,8138,8143,8132,8166,8181,8169,8147,8140,8159,8137,8153,8092,8.73984432220459
5,8246,8173,8139,8136,8132,8158,8181,8157,8148,8132,8163,8134,8156,8082,8.746849536895752
6,8274,8179,8146,8130,8112,8168,8177,8165,8161,8129,8165,8149,8174,8089,8.754655361175537
7,8242,8182,8146,8135,8136,8149,8181,8152,8166,8149,8167,8137,8164,8094,8.763679265975952
8,8239,8164,8128,8134,8143,8174,8162,8164,8144,8132,8160,8124,8156,8079,8.770677328109741
9,8245,8156,8121,8123,8118,8175,8151,8166,8143,8111,8151,8125,8161,8061,8.778679609298706
9,8245,8156,8121,8123,8118,8175,8151,8166,8143,8111,8151,8125,8161,8061,8.778902769088745
10,8236,8171,8135,8132,8123,8154,8167,8152,8161,8136,8149,8133,8161,8072,8.785909414291382
10,8236,8171,8135,8132,8123,8154,8167,8152,8161,8136,8149,8133,8161,8072,8.786928176879883
11,8248,8158,8133,8120,8120,8165,8156,8177,8134,8133,8154,8141,8165,8077,8.794960737228394
12,8221,8136,8124,8093,8105,8153,8157,8167,8138,8124,8162,8133,8155,8061,8.800960063934326
12,8221,8136,8124,8093,8105,8153,8157,8167,8138,8124,8162,8133,8155,8061,8.801960706710815
13,8235,8140,8130,8101,8097,8172,8172,8166,8172,8141,8160,8140,8164,8069,8.808961153030396
13,8235,8140,8130,8101,8097,8172,8172,8166,8172,8141,8160,8140,8164,8069,8.809961080551147
14,8246,8150,8134,8124,8117,8173,8188,8184,8183,8156,8162,8152,8171,8086,8.817768573760986
15,8232,8158,8135,8127,8140,8156,8207,8174,8192,8166,8165,8153,8157,8091,8.825779914855957
16,8256,8169,8147,8125,8127,8175,8195,8176,8188,8151,8160,8162,8165,8091,8.83277702331543
16,8256,8169,8147,8125,8127,8175,8195,8176,8188,8151,8160,8162,8165,8091,8.83377742767334
17,8235,8173,8151,8135,8121,8154,8181,8152,8177,8142,8161,8144,8164,8092,8.841283559799194
18,8231,8152,8136,8124,8131,8159,8172,8148,8156,8140,8162,8137,8162,8094,8.849566221237183
19,8236,8145,8128,8117,8136,8167,8170,8161,8148,8141,8162,8151,8166,8090,8.85753846168518
20,8220,8167,8137,8130,8144,8148,8181,8148,8155,8143,8162,8150,8157,8095,8.86559247970581
21,8233,8157,8139,8119,8134,8166,8175,8173,8131,8128,8162,8153,8165,8095,8.873567342758179
22,8213,8143,8138,8118,8128,8158,8183,8175,8135,8141,8163,8148,8165,8092,8.880610466003418
23,8217,8156,8139,8124,8115,8157,8184,8164,8162,8138,8163,8146,8165,8092,8.888604879379272
24,8224,8159,8128,8112,8111,8166,8172,8175,8164,8117,8158,8146,8165,8076,8.896568775177002
25,8201,8155,8128,8120,8148,8158,8195,8170,8180,8147,8160,8139,8153,8080,8.904567003250122
26,8230,8155,8135,8125,8143,8176,8202,8182,8188,8147,8161,8144,8162,8097,8.912566184997559
27,8216,8149,8119,8117,8126,8155,8201,8171,8166,8120,8147,8130,8159,8086,8.92063283920288
28,8207,8144,8116,8122,8144,8160,8214,8167,8137,8127,8147,8134,8155,8090,8.928153276443481
29,8231,8146,8128,8115,8138,8173,8203,8180,8121,8128,8156,8154,8166,8097,8.936150789260864
29,8231,8146,8128,8115,8138,8173,8203,8180,8121,8128,8156,8154,8166,8097,8.937145709991455
30,8210,8141,8122,8104,8125,8147,8178,8141,8124,8116,8148,8134,8155,8075,8.94356656074524
31,8217,8130,8111,8107,8121,8166,8162,8141,8109,8110,8145,8126,8158,8063,8.951181650161743
32,8215,8144,8126,8125,8134,8161,8185,8159,8119,8133,8161,8138,8164,8087,8.959566354751587
33,8217,8159,8142,8135,8138,8152,8200,8161,8142,8140,8171,8137,8163,8110,8.967530250549316
34,8221,8139,8130,8118,8119,8166,8177,8167,8126,8109,8155,8134,8163,8082,8.975566864013672
34,8221,8139,8130,8118,8119,8166,8177,8167,8126,8109,8155,8134,8163,8082,8.976558446884155
35,8177,8125,8105,8102,8111,8154,8176,8147,8124,8106,8148,8125,8150,8044,8.982852935791016
35,8177,8125,8105,8102,8111,8154,8176,8147,8124,8106,8148,8125,8150,8044,8.98385214805603
36,8188,8123,8101,8092,8113,8173,8181,8158,8137,8095,8150,8128,8154,8053,8.991483688354492
37,8198,8125,8114,8092,8123,8168,8196,8176,8164,8103,8148,8129,8159,8074,8.999397039413452
38,8195,8130,8116,8091,8119,8160,8204,8173,8175,8143,8150,8130,8157,8077,9.00760006904602
39,8204,8116,8097,8077,8095,8168,8164,8174,8132,8126,8153,8133,8161,8053,9.014567852020264
40,8174,8109,8093,8092,8100,8146,8159,8150,8137,8116,8151,8125,8153,8045,9.022568464279177
41,8200,8132,8121,8117,8119,8168,8192,8169,8174,8140,8153,8147,8163,8081,9.030567646026611
42,8211,8153,8134,8119,8128,8171,8205,8180,8171,8149,8166,8161,8168,8106,9.03901720046997
43,8187,8147,8127,8123,8127,8156,8186,8149,8146,8130,8169,8142,8154,8095,9.046561241149902
44,8215,8145,8132,8123,8122,8172,8177,8162,8140,8120,8164,8149,8163,8093,9.054566621780396
45,8213,8164,8136,8121,8143,8158,8200,8161,8175,8151,8166,8150,8161,8104,9.062567710876465
46,8210,8155,8125,8124,8147,8169,8193,8161,8178,8147,8161,8139,8156,8099,9.070555448532104
47,8206,8131,8120,8125,8128,8164,8180,8172,8158,8133,8158,8136,8163,8088,9.077551126480104
48,8194,8139,8129,8130,8125,8149,8193,8167,8169,8165,8162,8137,8165,8093,9.085567474365234
49,8207,8139,8125,8115,8113,8171,8172,8180,8163,8159,8158,8140,8165,8085,9.093614101409912
50,8176,8119,8108,8102,8109,8159,8161,8155,8150,8123,8147,8124,8149,8062,9.101694583892822
51,8179,8120,8105,8104,8103,8165,8167,8146,8135,8099,8146,8121,8154,8061,9.109018325805664
51,8179,8120,8105,8104,8103,8165,8167,8146,8135,8099,8146,8121,8154,8061,9.110018491744995
52,8194,8147,8122,8112,8107,8161,8171,8170,8137,8111,8156,8132,8168,8075,9.11786961555481
53,8177,8171,8138,8129,8136,8141,8179,8166,8159,8140,8164,8137,8159,8084,9.12587594985962
54,8202,8175,8134,8122,8124,8171,8163,8164,8135,8124,8160,8146,8162,8080,9.133567094802856
55,8189,8172,8125,8122,8123,8164,8173,8146,8122,8121,8157,8135,8160,8074,9.140055656433104
56,8175,8152,8118,8130,8142,8159,8174,8151,8133,8125,8160,8125,8162,8079,9.148056507110596
57,8178,8124,8103,8114,8124,8164,8137,8175,8127,8106,8159,8123,8166,8065,9.156147241592407
58,8166,8136,8101,8111,8099,8153,8133,8159,8130,8107,8159,8118,8154,8051,9.164568185806274
59,8194,8155,8116,8119,8088,8174,8139,8165,8130,8104,8158,8130,8163,8054,9.172589778900146
60,8178,8147,8117,8115,8099,8160,8141,8165,8135,8112,8155,8124,8164,8050,9.18058943748474
61,8173,8138,8109,8089,8106,8158,8142,8162,8139,8120,8156,8118,8158,8046,9.18856644630432
62,8197,8140,8110,8081,8096,8175,8150,8175,8134,8103,8156,8127,8164,8045,9.196586847305298
63,8171,8147,8108,8113,8093,8156,8162,8150,8140,8106,8150,8116,8155,8047,9.203587293624878
64,8184,8153,8106,8118,8080,8169,8148,8155,8118,8104,8150,8113,8162,8060,9.211566925048828
65,8186,8164,8112,8108,8084,8156,8145,8164,8108,8094,8158,8117,8166,8065,9.219563245773315
66,8182,8173,8122,8126,8107,8150,8153,8156,8123,8098,8163,8120,8159,8067,9.227691888809204
67,8192,8161,8117,8130,8095,8168,8136,8161,8105,8104,8156,8120,8161,8058,9.235859155654907
68,8162,8149,8106,8110,8081,8152,8136,8143,8094,8119,8150,8105,8155,8047,9.243378162384031
69,8179,8154,8122,8106,8094,8163,8150,8167,8103,8125,8159,8127,8166,8065,9.251561403274536
70,8183,8166,8141,8137,8115,8159,8162,8179,8117,8133,8173,8146,8172,8084,9.259566307067873
71,8169,8160,8138,8154,8102,8162,8163,8160,8123,8137,8168,8128,8160,8074,9.267487049102783
72,8187,8140,8121,8127,8079,8179,8156,8175,8120,8120,8155,8119,8162,8061,9.274499416351318
73,8172,8142,8118,8124,8109,8147,8178,8171,8137,8131,8159,8122,8159,8074,9.282275676727297
74,8194,8146,8126,8135,8120,8156,8182,8174,8127,8125,8168,8137,8165,8089,9.29028868675232
75,8196,8134,8115,8122,8091,8160,8156,8165,8104,8094,8156,8129,8160,8066,9.298280239105225
76,8173,8138,8104,8123,8090,8155,8150,8138,8115,8108,8149,8111,8147,8049,9.306283712387083
77,8195,8156,8105,8122,8098,8177,8160,8156,8117,8121,8151,8119,8157,8054,9.314280033111572
78,8183,8166,8106,8124,8113,8154,8180,8154,8116,8118,8149,8116,8159,8059,9.322279691696169
79,8196,8166,8111,8142,8120,8156,8180,8161,8112,8112,8151,8120,8164,8069,9.330548524856567
80,8201,8173,8116,8154,8107,8165,8178,8171,8123,8128,8161,8134,8164,8077,9.33655571937561
81,8184,8187,8117,8154,8102,8153,8189,8155,8152,8154,8164,8132,8159,8085,9.345567464828491
82,8207,8188,8120,8153,8112,8163,8176,8170,8137,8128,8158,8133,8171,8092,9.353566408157349
83,8185,8199,8134,8170,8145,8151,8184,8168,8130,8126,8161,8135,8170,8102,9.361568212509155
84,8185,8209,8134,8167,8148,8167,8198,8169,8142,8141,8163,8145,8167,8109,9.369549751281738
85,8199,8201,8121,8142,8136,8164,8195,8183,8143,8140,8158,8143,8167,8098,9.377551555633543
86,8181,8207,8132,8146,8158,8137,8208,8169,8146,8157,8162,8132,8160,8107,9.385562181472778
87,8195,8197,8135,8155,8137,8163,8198,8174,8124,8141,8159,8139,8167,8113,9.393566846847534
88,8175,8176,8108,8150,8102,8157,8181,8161,8110,8118,8145,8129,8158,8082,9.40156626701355
89,8171,8173,8095,8135,8102,8162,8172,8157,8118,8124,8144,8123,8155,8065,9.408566236495972
90,8184,8171,8104,8117,8112,8176,8166,8165,8122,8128,8148,8130,8171,8071,9.416587352752686
91,8167,8170,8110,8124,8123,8156,8169,8142,8121,8117,8146,8120,8160,8073,9.42459774017334
92,8186,8170,8111,8133,8113,8168,8152,8159,8102,8098,8151,8129,8157,8068,9.432567119598389
93,8170,8168,8106,8112,8102,8160,8142,8163,8103,8106,8151,8133,8156,8058,9.44056749343872
93,8170,8168,8106,8112,8102,8160,8142,8163,8103,8106,8151,8133,8156,8058,9.441246509552002
94,8163,8162,8098,8095,8097,8158,8131,8149,8105,8102,8146,8129,8153,8050,9.4482524394989
95,8181,8148,8093,8107,8087,8167,8122,8162,8092,8079,8145,8129,8155,8042,9.45656681060791
96,8154,8142,8090,8124,8090,8147,8142,8158,8103,8092,8143,8115,8147,8042,9.4645414352417
97,8164,8140,8089,8113,8084,8162,8136,8175,8097,8099,8137,8122,8157,8033,9.471535205841064
98,8160,8129,8086,8100,8080,8156,8124,8169,8095,8091,8136,8128,8155,8014,9.47956681251526
99,8152,8117,8091,8105,8085,8161,8130,8146,8110,8088,8142,8122,8148,8018,9.48753023147583
100,8161,8111,8090,8099,8070,8171,8126,8160,8093,8071,8142,8116,8161,8019,9.495566844940186
101,8133,8101,8074,8087,8067,8139,8126,8153,8079,8061,8138,8103,8153,8001,9.503044605255129
102,8152,8094,8073,8086,8071,8161,8118,8158,8073,8052,8143,8120,8153,7998,9.511045455932615
103,8154,8110,8082,8096,8073,8166,8121,8157,8079,8068,8151,8127,8157,8007,9.519567489624023
103,8154,8110,8082,8096,8073,8166,8121,8157,8079,8068,8151,8127,8157,8007,9.519954919815063
104,8140,8119,8089,8093,8070,8152,8130,8145,8083,8079,8141,8113,8159,8016,9.52758240699768
105,8153,8106,8087,8075,8058,8163,8106,8162,8055,8045,8125,8112,8166,8012,9.535576105117798
106,8124,8109,8075,8082,8062,8145,8092,8142,8049,8046,8133,8105,8155,7990,9.542567014694214
107,8141,8125,8071,8092,8058,8163,8096,8142,8051,8060,8144,8111,8156,7990,9.55056643486023
108,8159,8151,8087,8101,8058,8164,8113,8170,8063,8069,8156,8122,8162,8021,9.558241128921509
109,8144,8189,8112,8126,8081,8150,8132,8172,8092,8098,8166,8133,8160,8055,9.566240549087524
110,8160,8203,8121,8131,8093,8169,8130,8182,8097,8102,8164,8150,8166,8059,9.574568033218384
111,8147,8207,8122,8140,8123,8155,8151,8173,8107,8109,8162,8139,8158,8055,9.5828115940094
112,8163,8209,8119,8144,8138,8167,8169,8183,8114,8115,8161,8135,8159,8065,9.59076166152954
113,8177,8209,8125,8139,8132,8166,8178,8186,8130,8137,8161,8149,8167,8069,9.59751009941101
114,8158,8219,8137,8163,8148,8152,8206,8161,8161,8189,8173,8149,8161,8085,9.605820894241331
115,8177,8223,8128,8165,8138,8169,8203,8181,8148,8180,8173,8149,8168,8099,9.613566875457764
116,8167,8233,8124,8162,8125,8152,8200,8177,8149,8159,8165,8141,8166,8092,9.621021270751951
116,8167,8233,8124,8162,8125,8152,8200,8177,8149,8159,8165,8141,8166,8092,9.622015714645386
