COUNTER,F3,FC5,AF3,F7,T7,P7,O1,O2,P8,T8,F8,AF4,FC6,F4,Timestamp
77,8192,8175,8153,8183,8196,8182,8193,8166,8169,8190,8181,8208,8169,8127,0.0010004043579101
78,8179,8169,8149,8183,8210,8173,8207,8173,8180,8209,8171,8195,8166,8144,0.0080001354217529
78,8179,8169,8149,8183,8210,8173,8207,8173,8180,8209,8171,8195,8166,8144,0.0090012550354003
79,8174,8147,8142,8187,8199,8169,8196,8167,8176,8203,8172,8178,8159,8151,0.016000747680664
80,8182,8133,8140,8174,8182,8173,8176,8189,8162,8194,8180,8194,8177,8134,0.0240039825439453
81,8150,8143,8137,8170,8192,8161,8198,8157,8179,8215,8162,8163,8145,8109,0.0323753356933593
82,8170,8142,8127,8148,8171,8178,8195,8159,8167,8205,8169,8186,8164,8125,0.0399456024169921
83,8160,8133,8115,8143,8156,8161,8172,8158,8138,8182,8160,8169,8167,8123,0.0479531288146972
83,8160,8133,8115,8143,8156,8161,8172,8158,8138,8182,8160,8169,8167,8123,0.0489528179168701
84,8148,8140,8123,8174,8185,8158,8167,8151,8140,8182,8158,8153,8159,8115,0.0559527873992919
84,8148,8140,8123,8174,8185,8158,8167,8151,8140,8182,8158,8153,8159,8115,0.0569519996643066
85,8170,8145,8139,8180,8194,8175,8165,8173,8148,8181,8167,8187,8174,8116,0.0649530887603759
86,8154,8147,8142,8176,8186,8161,8181,8148,8157,8185,8156,8162,8145,8104,0.0723483562469482
87,8168,8141,8144,8170,8176,8176,8183,8156,8138,8174,8174,8182,8164,8109,0.0789997577667236
88,8165,8135,8144,8168,8185,8169,8177,8160,8125,8169,8170,8178,8166,8106,0.0870001316070556
89,8164,8151,8148,8175,8196,8163,8184,8154,8138,8178,8161,8165,8158,8117,0.0953545570373535
90,8183,8160,8150,8177,8188,8177,8182,8185,8135,8185,8182,8195,8186,8138,0.1033544540405273
91,8149,8152,8152,8182,8198,8162,8190,8164,8143,8209,8179,8164,8164,8133,0.1109888553619384
91,8149,8152,8152,8182,8198,8162,8190,8164,8143,8209,8179,8164,8164,8133,0.1119964122772216
92,8164,8139,8153,8172,8204,8177,8188,8171,8153,8217,8181,8181,8171,8139,0.1197025775909423
93,8164,8136,8140,8161,8194,8170,8179,8178,8152,8214,8161,8183,8169,8131,0.1267092227935791
93,8164,8136,8140,8161,8194,8170,8179,8178,8152,8214,8161,8183,8169,8131,0.1277074813842773
94,8149,8150,8141,8177,8192,8162,8184,8166,8163,8225,8157,8162,8159,8121,0.1353497505187988
95,8179,8160,8152,8181,8195,8185,8189,8192,8174,8229,8185,8199,8181,8131,0.1427054405212402
96,8156,8158,8146,8177,8199,8170,8204,8160,8184,8230,8171,8171,8148,8122,0.1507060527801513
97,8166,8155,8147,8187,8194,8178,8200,8158,8175,8218,8173,8181,8160,8126,0.1578695774078369
97,8166,8155,8147,8187,8194,8178,8200,8158,8175,8218,8173,8181,8160,8126,0.158869981765747
98,8176,8147,8144,8193,8188,8178,8183,8167,8159,8218,8171,8193,8166,8120,0.1658692359924316
98,8176,8147,8144,8193,8188,8178,8183,8167,8159,8218,8171,8193,8166,8120,0.1668715476989746
99,8156,8138,8130,8179,8184,8164,8183,8140,8154,8230,8157,8157,8135,8102,0.1746811866760254
100,8171,8122,8125,8158,8167,8181,8178,8163,8124,8190,8169,8180,8166,8102,0.1823489665985107
101,8150,8113,8125,8159,8172,8166,8176,8149,8108,8158,8157,8163,8151,8094,0.1903581619262695
102,8158,8123,8130,8166,8179,8170,8163,8151,8110,8163,8163,8173,8155,8103,0.1983489990234375
103,8164,8138,8135,8176,8176,8175,8164,8171,8117,8173,8178,8192,8179,8111,0.2053480148315429
104,8145,8142,8132,8179,8192,8165,8184,8153,8136,8179,8165,8164,8159,8104,0.213348388671875
105,8165,8122,8116,8150,8186,8177,8161,8171,8123,8149,8163,8180,8171,8095,0.2213537693023681
106,8144,8122,8112,8153,8174,8158,8155,8158,8121,8149,8153,8155,8155,8074,0.2293534278869629
107,8156,8148,8132,8191,8180,8170,8178,8162,8144,8191,8164,8168,8162,8091,0.2368619441986084
108,8178,8159,8148,8196,8194,8184,8192,8182,8155,8216,8170,8200,8175,8110,0.2448625564575195
109,8158,8162,8160,8175,8212,8172,8208,8155,8163,8234,8161,8178,8148,8115,0.2528622150421142
110,8185,8160,8164,8171,8207,8187,8208,8176,8158,8237,8186,8212,8174,8145,0.259861946105957
111,8171,8150,8152,8192,8203,8167,8210,8171,8169,8234,8179,8192,8165,8149,0.2678606510162353
112,8154,8141,8141,8188,8204,8166,8213,8162,8166,8217,8172,8173,8160,8131,0.2759997844696045
113,8167,8144,8141,8166,8209,8177,8215,8180,8147,8197,8173,8195,8175,8118,0.2843787670135498
114,8162,8166,8145,8183,8223,8164,8233,8157,8161,8209,8160,8176,8156,8122,0.2923789024353027
115,8192,8176,8149,8193,8215,8181,8231,8173,8165,8214,8176,8203,8184,8147,0.3004121780395508
116,8177,8158,8145,8173,8220,8163,8225,8174,8159,8215,8168,8185,8172,8136,0.308415412902832
117,8165,8142,8140,8154,8232,8160,8220,8172,8161,8214,8168,8168,8167,8124,0.3163807392120361
118,8181,8151,8142,8152,8218,8177,8206,8190,8164,8207,8179,8194,8190,8127,0.323453426361084
119,8160,8165,8149,8173,8207,8161,8209,8160,8184,8222,8159,8167,8156,8120,0.3314516544342041
120,8180,8158,8156,8180,8194,8175,8207,8174,8185,8222,8169,8195,8169,8127,0.3393788337707519
121,8173,8153,8156,8186,8194,8171,8203,8169,8178,8219,8176,8190,8160,8118,0.3474364280700683
122,8169,8158,8157,8187,8197,8167,8204,8148,8177,8219,8175,8169,8147,8122,0.3554656505584717
123,8188,8148,8152,8157,8187,8180,8204,8173,8155,8196,8167,8192,8175,8131,0.3634693622589111
124,8151,8140,8145,8156,8207,8161,8206,8147,8136,8182,8147,8161,8157,8106,0.3713805675506592
125,8166,8150,8150,8189,8222,8175,8191,8157,8124,8171,8159,8175,8168,8098,0.3793771266937256
126,8180,8166,8152,8201,8210,8175,8193,8173,8142,8174,8156,8170,8163,8099,0.3870744705200195
127,8172,8173,8153,8191,8209,8170,8201,8155,8159,8194,8158,8157,8152,8116,0.3950746059417724
127,8172,8173,8153,8191,8209,8170,8201,8155,8159,8194,8158,8157,8152,8116,0.3960716724395752
241,8184,8162,8154,8191,8208,8179,8182,8167,8131,8189,8172,8193,8178,8131,0.4023818969726562
0,8153,8153,8147,8196,8202,8162,8186,8152,8131,8189,8151,8157,8152,8110,0.4104218482971191
1,8168,8146,8145,8181,8196,8177,8186,8164,8147,8186,8158,8165,8158,8108,0.4177935123443603
1,8168,8146,8145,8181,8196,8177,8186,8164,8147,8186,8158,8165,8158,8108,0.4187884330749511
2,8175,8136,8146,8173,8202,8170,8178,8161,8142,8188,8162,8171,8163,8111,0.4268040657043457
3,8149,8139,8142,8179,8201,8161,8180,8142,8136,8191,8153,8145,8156,8110,0.4348437786102295
4,8159,8137,8124,8158,8169,8184,8162,8173,8114,8151,8155,8166,8182,8099,0.4423747062683105
5,8137,8127,8105,8143,8154,8165,8166,8145,8110,8127,8129,8130,8145,8063,0.4503617286682129
6,8149,8135,8117,8146,8166,8171,8181,8144,8115,8136,8142,8142,8149,8073,0.4583549499511719
7,8158,8145,8129,8146,8191,8173,8180,8170,8112,8145,8155,8159,8174,8092,0.465358018875122
8,8142,8137,8120,8153,8202,8161,8179,8155,8119,8148,8140,8127,8152,8076,0.4733753204345703
9,8167,8128,8126,8154,8181,8181,8179,8173,8123,8150,8149,8161,8162,8077,0.481374979019165
10,8153,8133,8141,8162,8185,8163,8193,8157,8138,8178,8150,8156,8152,8091,0.4893746376037597
11,8161,8131,8142,8173,8203,8164,8186,8160,8139,8190,8165,8163,8176,8111,0.4974665641784668
12,8168,8132,8141,8177,8203,8174,8180,8178,8148,8200,8169,8171,8185,8110,0.5054571628570557
13,8146,8154,8152,8183,8205,8170,8208,8155,8179,8233,8162,8145,8151,8106,0.5134613513946533
14,8173,8157,8153,8179,8191,8181,8201,8169,8145,8212,8175,8178,8175,8117,0.520700216293335
14,8173,8157,8153,8179,8191,8181,8201,8169,8145,8212,8175,8178,8175,8117,0.5217182636260986
15,8155,8146,8141,8181,8206,8158,8183,8154,8099,8176,8158,8159,8165,8100,0.52773118019104
15,8155,8146,8141,8181,8206,8158,8183,8154,8099,8176,8158,8159,8165,8100,0.5287282466888428
16,8156,8152,8150,8186,8231,8172,8195,8153,8119,8175,8161,8158,8157,8095,0.5367093086242676
17,8179,8154,8156,8179,8227,8185,8204,8167,8142,8165,8167,8180,8169,8098,0.5437169075012207
17,8179,8154,8156,8179,8227,8185,8204,8167,8142,8165,8167,8180,8169,8098,0.5447089672088623
18,8152,8145,8143,8182,8220,8159,8188,8132,8121,8157,8149,8148,8150,8095,0.5523748397827148
19,8169,8143,8142,8190,8211,8173,8165,8162,8105,8161,8159,8169,8176,8113,0.5603749752044678
20,8171,8157,8148,8196,8219,8169,8185,8171,8152,8185,8156,8158,8162,8103,0.5683400630950928
21,8172,8154,8147,8185,8212,8177,8196,8157,8179,8201,8156,8155,8154,8100,0.5762572288513184
22,8178,8127,8138,8168,8179,8186,8161,8171,8147,8199,8163,8176,8173,8109,0.5841717720031738
23,8153,8131,8141,8182,8178,8157,8154,8154,8151,8210,8159,8149,8156,8114,0.5921711921691895
24,8183,8147,8151,8182,8193,8168,8156,8180,8167,8199,8177,8185,8185,8132,0.5993771553039551
25,8173,8133,8141,8165,8194,8169,8155,8173,8165,8194,8163,8173,8171,8112,0.6072182655334473
26,8160,8122,8138,8163,8176,8170,8156,8150,8155,8205,8157,8148,8149,8098,0.6152124404907227
27,8181,8119,8141,8165,8156,8175,8148,8171,8141,8184,8169,8167,8172,8108,0.623375415802002
28,8152,8103,8123,8161,8163,8155,8140,8144,8130,8158,8151,8136,8152,8088,0.6315460205078125
29,8158,8097,8111,8126,8155,8173,8114,8150,8087,8138,8153,8156,8162,8064,0.6395645141601562
30,8153,8108,8112,8118,8133,8165,8098,8148,8072,8138,8150,8152,8152,8046,0.6476254463195801
31,8144,8099,8119,8161,8140,8159,8112,8135,8104,8147,8156,8141,8149,8066,0.6556272506713867
32,8169,8097,8131,8175,8150,8176,8124,8167,8108,8144,8173,8178,8185,8101,0.663163423538208
33,8149,8135,8140,8158,8145,8156,8128,8154,8107,8159,8162,8160,8161,8092,0.6701831817626953
34,8159,8136,8132,8142,8129,8168,8109,8162,8105,8169,8165,8174,8159,8075,0.6781842708587646
35,8155,8090,8112,8148,8139,8169,8108,8166,8107,8167,8155,8159,8156,8066,0.6863753795623779
35,8155,8090,8112,8148,8139,8169,8108,8166,8107,8167,8155,8159,8156,8066,0.6871838569641113
36,8134,8088,8109,8164,8153,8155,8117,8149,8102,8151,8154,8137,8156,8071,0.6943044662475586
37,8149,8109,8113,8149,8128,8166,8090,8169,8070,8121,8164,8163,8181,8056,0.7022354602813721
38,8131,8105,8111,8139,8138,8157,8086,8140,8066,8129,8148,8134,8145,8026,0.7102148532867432
39,8153,8104,8124,8160,8158,8174,8106,8142,8072,8131,8165,8161,8158,8051,0.7182090282440186
40,8162,8117,8137,8185,8147,8166,8102,8159,8062,8113,8169,8174,8170,8058,0.7263758182525635
41,8143,8123,8139,8195,8146,8151,8085,8137,8060,8124,8155,8144,8143,8033,0.7333762645721436
42,8169,8124,8138,8192,8150,8179,8081,8154,8057,8119,8168,8180,8172,8047,0.741105318069458
43,8151,8138,8145,8187,8154,8163,8098,8151,8066,8114,8167,8165,8167,8065,0.74910569190979
44,8154,8146,8148,8182,8150,8163,8091,8162,8063,8126,8175,8169,8167,8072,0.7571382522583008
45,8168,8138,8145,8197,8155,8174,8099,8167,8069,8138,8176,8178,8170,8069,0.7653751373291016
46,8162,8149,8156,8218,8183,8163,8139,8145,8099,8153,8175,8158,8160,8085,0.7734520435333252
47,8186,8141,8158,8208,8174,8177,8121,8172,8076,8132,8189,8185,8183,8095,0.7817573547363281
48,8160,8133,8146,8208,8147,8155,8099,8156,8059,8128,8173,8165,8151,8063,0.789769172668457
49,8175,8159,8172,8225,8147,8159,8116,8156,8096,8164,8185,8184,8157,8079,0.7967681884765625
50,8202,8165,8196,8232,8167,8172,8125,8176,8106,8176,8200,8212,8181,8116,0.8043770790100098
50,8202,8165,8196,8232,8167,8172,8125,8176,8106,8176,8200,8212,8181,8116,0.8047845363616943
51,8172,8160,8187,8238,8186,8157,8130,8151,8093,8161,8183,8182,8154,8118,0.8117954730987549
51,8172,8160,8187,8238,8186,8157,8130,8151,8093,8161,8183,8182,8154,8118,0.8128230571746826
52,8196,8174,8193,8246,8179,8174,8134,8175,8106,8160,8192,8213,8172,8123,0.8203270435333252
53,8187,8176,8203,8260,8188,8164,8153,8165,8136,8201,8196,8211,8166,8123,0.8283262252807617
54,8178,8152,8192,8258,8198,8167,8152,8153,8126,8207,8202,8208,8168,8140,0.8358492851257324
55,8197,8149,8185,8245,8188,8177,8132,8176,8110,8178,8202,8219,8180,8144,0.8443608283996582
56,8178,8169,8191,8254,8191,8158,8146,8146,8140,8201,8189,8188,8153,8125,0.8523609638214111
57,8193,8152,8186,8247,8183,8173,8145,8156,8137,8199,8196,8211,8168,8121,0.8593757152557373
58,8174,8130,8167,8216,8182,8155,8126,8160,8114,8172,8180,8193,8160,8113,0.8676009178161621
59,8168,8140,8171,8195,8168,8152,8120,8154,8109,8169,8180,8178,8163,8116,0.8756000995635986
60,8201,8150,8179,8195,8134,8176,8109,8170,8102,8168,8193,8200,8180,8109,0.8836007118225098
61,8180,8142,8176,8231,8156,8156,8115,8148,8115,8189,8190,8177,8154,8107,0.8915998935699463
62,8192,8135,8184,8259,8185,8169,8128,8165,8108,8190,8204,8202,8175,8136,0.8994126319885254
63,8190,8157,8192,8253,8186,8173,8143,8166,8104,8190,8194,8198,8170,8131,0.9074134826660156
64,8190,8179,8198,8255,8190,8170,8150,8158,8147,8230,8197,8193,8160,8129,0.9155032634735109
65,8212,8163,8195,8257,8185,8181,8138,8183,8162,8239,8212,8223,8185,8144,0.9235100746154784
66,8175,8142,8179,8238,8188,8153,8130,8151,8139,8210,8184,8186,8159,8123,0.9305236339569092
67,8185,8141,8172,8218,8184,8164,8101,8150,8107,8177,8175,8193,8167,8101,0.9383392333984376
68,8189,8143,8174,8226,8159,8169,8094,8160,8109,8174,8180,8191,8166,8091,0.9463753700256348
69,8176,8149,8182,8250,8154,8165,8126,8158,8141,8204,8193,8178,8152,8109,0.954397201538086
70,8211,8154,8195,8251,8170,8182,8125,8181,8142,8210,8201,8212,8171,8121,0.9623966217041016
71,8200,8159,8202,8256,8193,8158,8127,8153,8140,8202,8182,8188,8146,8115,0.9703752994537354
72,8205,8153,8187,8248,8179,8170,8126,8158,8125,8175,8191,8189,8161,8130,0.9777674674987792
72,8205,8153,8187,8248,8179,8170,8126,8158,8125,8175,8191,8189,8161,8130,0.9787547588348388
73,8200,8134,8169,8218,8165,8173,8106,8166,8101,8165,8186,8190,8169,8125,0.9857618808746338
73,8200,8134,8169,8218,8165,8173,8106,8166,8101,8165,8186,8190,8169,8125,0.9867568016052246
74,8192,8143,8193,8229,8180,8156,8105,8151,8108,8195,8182,8183,8147,8125,0.9927620887756348
74,8192,8143,8193,8229,8180,8156,8105,8151,8108,8195,8182,8183,8147,8125,0.993755340576172
75,8228,8167,8219,8249,8176,8177,8114,8178,8124,8205,8204,8218,8171,8144,1.0008876323699951
75,8228,8167,8219,8249,8176,8177,8114,8178,8124,8205,8204,8218,8171,8144,1.0017824172973633
76,8203,8177,8204,8259,8189,8162,8143,8163,8156,8223,8192,8193,8160,8144,1.0097904205322266
77,8205,8169,8186,8265,8206,8167,8156,8169,8145,8218,8188,8195,8168,8147,1.016798496246338
77,8205,8169,8186,8265,8206,8167,8156,8169,8145,8218,8188,8195,8168,8147,1.0177900791168213
78,8207,8154,8178,8254,8190,8170,8146,8175,8115,8177,8180,8189,8172,8120,1.025017499923706
79,8184,8152,8174,8239,8172,8162,8149,8139,8141,8172,8175,8155,8150,8095,1.032938003540039
80,8220,8158,8185,8232,8180,8185,8150,8162,8137,8183,8192,8197,8175,8123,1.0409832000732422
81,8208,8177,8198,8259,8212,8160,8162,8166,8122,8202,8188,8193,8168,8146,1.0490260124206543
82,8217,8194,8213,8283,8223,8167,8169,8174,8152,8215,8200,8206,8171,8158,1.056372880935669
83,8243,8194,8225,8287,8228,8181,8179,8188,8188,8222,8210,8232,8172,8170,1.064396619796753
84,8221,8190,8220,8284,8242,8164,8198,8165,8184,8247,8202,8206,8154,8184,1.0723998546600342
85,8234,8180,8213,8268,8222,8181,8179,8186,8153,8241,8205,8224,8183,8189,1.0803751945495603
86,8215,8170,8208,8261,8199,8168,8165,8168,8151,8231,8189,8205,8160,8159,1.088338851928711
87,8209,8151,8197,8242,8176,8174,8152,8148,8135,8217,8178,8194,8143,8134,1.0963754653930664
88,8213,8129,8176,8211,8147,8173,8124,8158,8113,8189,8166,8195,8154,8114,1.104008674621582
89,8191,8136,8173,8218,8174,8150,8135,8141,8131,8186,8163,8173,8147,8118,1.1125609874725342
90,8233,8145,8186,8228,8201,8182,8151,8177,8126,8185,8194,8220,8183,8159,1.120577335357666
91,8220,8140,8182,8221,8193,8173,8145,8175,8120,8186,8180,8207,8170,8149,1.1273765563964844
92,8203,8144,8181,8223,8179,8166,8135,8160,8140,8181,8169,8184,8154,8123,1.1353752613067627
93,8222,8142,8184,8218,8167,8181,8144,8176,8138,8174,8183,8209,8169,8124,1.1433959007263184
94,8198,8125,8175,8204,8173,8161,8159,8143,8113,8182,8177,8188,8151,8124,1.1513950824737549
95,8219,8121,8176,8195,8154,8172,8125,8155,8083,8157,8184,8206,8177,8125,1.1593749523162842
96,8210,8139,8181,8209,8149,8158,8119,8162,8098,8155,8172,8194,8170,8115,1.1674909591674805
97,8201,8143,8187,8219,8171,8160,8141,8148,8123,8183,8170,8187,8154,8121,1.1754865646362305
98,8232,8137,8201,8213,8173,8181,8137,8171,8119,8195,8193,8227,8179,8139,1.1833758354187012
99,8220,8155,8219,8235,8192,8162,8158,8164,8144,8215,8194,8211,8168,8155,1.1903750896453855
100,8237,8170,8220,8249,8198,8175,8157,8180,8148,8203,8191,8225,8179,8162,1.198338508605957
101,8217,8155,8193,8228,8182,8163,8131,8166,8132,8187,8171,8205,8159,8122,1.2063758373260498
102,8198,8146,8186,8220,8187,8160,8144,8146,8135,8195,8168,8179,8145,8111,1.2137913703918457
102,8198,8146,8186,8220,8187,8160,8144,8146,8135,8195,8168,8179,8145,8111,1.2147836685180664
103,8228,8154,8205,8225,8202,8184,8164,8179,8122,8173,8181,8213,8179,8141,1.2218067646026611
104,8200,8155,8199,8236,8198,8162,8158,8158,8108,8165,8171,8194,8155,8130,1.2303762435913086
105,8219,8144,8187,8229,8173,8175,8140,8156,8089,8173,8177,8202,8153,8116,1.23833966255188
106,8237,8156,8204,8219,8184,8164,8172,8159,8085,8186,8181,8207,8158,8129,1.2463750839233398
107,8231,8181,8234,8249,8213,8156,8204,8150,8096,8204,8195,8207,8165,8174,1.2549104690551758
108,8260,8187,8249,8289,8206,8182,8171,8173,8090,8205,8212,8248,8192,8200,1.2610323429107666
109,8247,8213,8252,8316,8207,8160,8153,8144,8114,8227,8200,8226,8154,8183,1.269033432006836
109,8247,8213,8252,8316,8207,8160,8153,8144,8114,8227,8200,8226,8154,8183,1.2700278759002686
110,8274,8232,8258,8322,8221,8166,8151,8151,8132,8242,8205,8238,8157,8193,1.2773752212524414
110,8274,8232,8258,8322,8221,8166,8151,8151,8132,8242,8205,8238,8157,8193,1.278033971786499
111,8277,8206,8253,8317,8236,8158,8146,8182,8141,8241,8202,8243,8177,8209,1.2850933074951172
112,8237,8190,8242,8293,8237,8150,8152,8174,8163,8249,8193,8213,8164,8196,1.2931039333343506
113,8252,8191,8235,8260,8213,8182,8154,8188,8163,8231,8193,8224,8173,8165,1.3011012077331543
114,8232,8184,8224,8282,8228,8165,8199,8169,8189,8231,8172,8195,8155,8152,1.3091020584106443
115,8238,8170,8218,8293,8246,8174,8230,8176,8203,8234,8180,8211,8170,8184,1.3171014785766602
116,8239,8168,8213,8248,8225,8176,8203,8178,8159,8209,8189,8221,8176,8177,1.3241066932678225
117,8223,8194,8226,8244,8205,8159,8187,8140,8131,8197,8180,8187,8147,8156,1.3321046829223633
118,8265,8204,8249,8287,8208,8183,8195,8161,8123,8195,8196,8226,8172,8189,1.3406128883361816
119,8245,8193,8245,8303,8238,8164,8198,8145,8125,8215,8199,8226,8166,8206,1.3486125469207764
120,8246,8194,8248,8288,8228,8165,8165,8138,8111,8216,8203,8226,8167,8200,1.3566107749938965
121,8271,8205,8267,8303,8208,8176,8139,8165,8093,8209,8194,8233,8171,8194,1.3636136054992676
121,8271,8205,8267,8303,8208,8176,8139,8165,8093,8209,8194,8233,8171,8194,1.3646116256713867
122,8247,8213,8275,8327,8235,8164,8156,8154,8114,8231,8185,8212,8148,8196,1.372377872467041
123,8269,8206,8270,8306,8233,8182,8152,8180,8125,8224,8202,8241,8174,8211,1.3803746700286863
124,8253,8194,8248,8293,8226,8163,8152,8177,8147,8227,8187,8216,8162,8199,1.3873066902160645
125,8241,8188,8232,8290,8233,8172,8164,8176,8183,8242,8183,8204,8159,8193,1.3953065872192385
126,8242,8170,8222,8262,8225,8187,8168,8194,8195,8228,8187,8217,8177,8186,1.4033164978027344
127,8212,8151,8206,8256,8235,8163,8186,8164,8197,8224,8172,8178,8156,8165,1.4113759994506836
241,8238,8145,8194,8238,8218,8183,8178,8168,8166,8206,8173,8194,8170,8152,1.4196345806121826
0,8225,8155,8190,8219,8200,8175,8176,8156,8138,8197,8170,8185,8161,8135,1.427640676498413
1,8224,8165,8203,8249,8225,8176,8188,8154,8125,8192,8180,8180,8163,8146,1.4353764057159424
2,8252,8166,8212,8262,8225,8191,8172,8180,8117,8161,8183,8208,8181,8155,1.4433748722076416
3,8227,8175,8213,8254,8208,8167,8162,8154,8144,8181,8169,8192,8154,8148,1.450007677078247
4,8259,8195,8232,8269,8215,8181,8169,8174,8152,8225,8190,8227,8168,8181,1.4580020904541016
4,8259,8195,8232,8269,8215,8181,8169,8174,8152,8225,8190,8227,8168,8181,1.4589972496032717
5,8259,8203,8235,8277,8238,8172,8177,8189,8153,8231,8196,8227,8170,8201,1.4663753509521484
6,8243,8185,8224,8268,8233,8166,8156,8182,8175,8217,8192,8211,8170,8198,1.4743752479553225
7,8257,8175,8223,8261,8204,8187,8137,8198,8188,8220,8191,8226,8183,8183,1.482377052307129
8,8224,8175,8214,8271,8204,8175,8161,8162,8193,8230,8168,8189,8149,8155,1.4903745651245115
9,8234,8150,8191,8241,8194,8194,8158,8160,8165,8190,8168,8196,8166,8146,1.498337984085083
10,8216,8133,8170,8199,8177,8183,8155,8167,8143,8167,8159,8188,8175,8132,1.5063345432281494
11,8187,8134,8164,8201,8164,8173,8158,8148,8121,8161,8145,8161,8156,8108,1.5143694877624512
12,8199,8112,8156,8204,8140,8191,8129,8151,8068,8110,8145,8173,8162,8085,1.5216789245605469
13,8175,8107,8158,8198,8164,8168,8136,8136,8066,8097,8147,8158,8150,8084,1.5297040939331057
14,8210,8145,8186,8211,8180,8181,8150,8174,8095,8123,8165,8196,8178,8121,1.5376520156860352
15,8219,8178,8196,8238,8165,8177,8148,8196,8126,8152,8159,8198,8172,8122,1.5456533432006836
16,8195,8168,8188,8242,8179,8164,8148,8168,8151,8162,8158,8164,8142,8112,1.553379774093628
17,8214,8143,8179,8211,8195,8182,8128,8178,8134,8120,8168,8186,8170,8115,1.5613751411437988
18,8176,8139,8165,8191,8177,8160,8126,8156,8120,8097,8145,8155,8159,8086,1.56939959526062
19,8172,8133,8154,8183,8139,8177,8132,8153,8105,8097,8137,8146,8154,8054,1.5774128437042236
20,8178,8113,8141,8182,8146,8184,8136,8150,8089,8094,8135,8148,8152,8037,1.5843660831451416
21,8156,8106,8133,8172,8165,8168,8148,8132,8083,8082,8133,8134,8144,8042,1.5923583507537842
22,8179,8108,8136,8155,8134,8184,8136,8168,8056,8042,8142,8163,8173,8058,1.6003973484039309
23,8165,8119,8141,8175,8134,8168,8133,8162,8068,8049,8134,8142,8155,8059,1.6083409786224363
24,8172,8131,8154,8202,8157,8179,8136,8163,8106,8088,8143,8152,8160,8070,1.6163761615753174
25,8178,8137,8161,8196,8158,8178,8139,8177,8129,8116,8152,8172,8165,8075,1.6243762969970703
26,8160,8147,8161,8191,8164,8157,8157,8152,8143,8136,8140,8144,8136,8075,1.632371187210083
27,8185,8135,8151,8180,8155,8178,8145,8169,8111,8094,8131,8155,8161,8072,1.6401255130767822
28,8153,8113,8123,8169,8152,8159,8128,8152,8074,8049,8112,8122,8152,8031,1.6471257209777832
29,8154,8125,8114,8175,8152,8167,8122,8142,8067,8050,8116,8114,8144,8012,1.6556155681610107
30,8177,8145,8130,8181,8154,8177,8136,8157,8078,8060,8126,8140,8154,8024,1.6631529331207275
31,8160,8148,8142,8177,8170,8153,8163,8134,8079,8060,8117,8124,8144,8032,1.6711878776550293
32,8180,8134,8137,8152,8160,8174,8149,8161,8052,8033,8123,8144,8171,8033,1.6791908740997314
33,8152,8131,8123,8160,8157,8170,8129,8160,8078,8046,8126,8127,8155,8011,1.6873188018798828
34,8150,8141,8136,8194,8158,8174,8132,8149,8129,8093,8144,8134,8148,8029,1.6953794956207275
35,8188,8145,8161,8189,8167,8178,8159,8184,8150,8115,8164,8180,8177,8083,1.7037081718444824
36,8164,8160,8168,8192,8209,8159,8189,8181,8173,8118,8152,8160,8158,8092,1.7117185592651367
37,8162,8147,8141,8183,8203,8186,8168,8187,8166,8099,8140,8156,8163,8056,1.7187209129333496
38,8135,8115,8102,8150,8173,8175,8161,8171,8149,8105,8124,8134,8152,8025,1.7268500328063965
39,8131,8119,8104,8142,8184,8175,8171,8157,8132,8094,8126,8131,8147,8036,1.7346901893615725
40,8151,8128,8115,8146,8188,8190,8147,8168,8096,8033,8126,8147,8162,8021,1.742738962173462
41,8132,8133,8116,8165,8178,8167,8138,8134,8099,8046,8110,8121,8136,8001,1.7508201599121094
42,8172,8155,8138,8188,8185,8189,8144,8147,8116,8102,8137,8161,8160,8049,1.7588222026824951
43,8176,8185,8165,8209,8215,8180,8147,8162,8130,8124,8166,8177,8181,8099,1.76637601852417
44,8175,8200,8186,8221,8216,8167,8130,8158,8155,8138,8172,8164,8169,8114,1.7738347053527832
45,8201,8197,8183,8215,8194,8184,8119,8186,8172,8154,8164,8179,8168,8108,1.7814760208129885
46,8160,8181,8166,8208,8225,8171,8172,8176,8202,8169,8152,8157,8154,8100,1.789466381072998
47,8167,8149,8158,8181,8230,8186,8198,8187,8198,8156,8164,8174,8179,8108,1.7973756790161133
48,8164,8138,8146,8163,8193,8170,8181,8178,8167,8148,8153,8157,8162,8081,1.8055284023284912
49,8138,8149,8129,8164,8188,8161,8196,8151,8163,8139,8134,8125,8133,8053,1.813554048538208
50,8149,8129,8111,8147,8189,8186,8209,8176,8151,8095,8136,8150,8167,8057,1.821561336517334
51,8129,8120,8107,8132,8182,8160,8202,8154,8130,8090,8130,8127,8157,8055,1.8293752670288088
52,8160,8158,8143,8153,8178,8171,8175,8148,8109,8115,8151,8145,8158,8072,1.8373749256134035
53,8173,8179,8166,8193,8196,8175,8162,8154,8126,8135,8169,8172,8165,8093,1.8443620204925537
54,8153,8162,8158,8201,8214,8158,8162,8134,8145,8151,8171,8158,8160,8114,1.8523619174957275
55,8177,8160,8161,8184,8201,8171,8132,8159,8111,8138,8178,8176,8182,8130,1.8603746891021729
56,8158,8182,8168,8195,8197,8165,8126,8152,8122,8143,8160,8151,8157,8108,1.8687560558319087
57,8169,8180,8171,8194,8194,8179,8144,8164,8177,8159,8166,8165,8160,8108,1.8758330345153809
58,8168,8160,8160,8173,8193,8168,8164,8191,8208,8172,8164,8174,8174,8119,1.8848330974578855
59,8133,8151,8140,8168,8203,8162,8189,8179,8218,8183,8138,8131,8152,8095,1.89237642288208
60,8147,8133,8122,8143,8191,8196,8192,8188,8208,8155,8145,8133,8163,8056,1.9003756046295168
61,8119,8115,8104,8114,8175,8167,8196,8165,8205,8129,8140,8110,8151,8031,1.9084768295288088
62,8123,8112,8105,8120,8161,8162,8183,8166,8180,8110,8138,8117,8161,8047,1.9154765605926516
63,8148,8129,8121,8127,8159,8179,8165,8183,8152,8102,8150,8151,8176,8061,1.9234836101531985
64,8141,8158,8143,8146,8161,8170,8162,8148,8157,8137,8154,8148,8151,8077,1.9314823150634768
65,8175,8166,8157,8177,8148,8178,8139,8156,8139,8153,8163,8177,8174,8111,1.9389889240264893
66,8167,8169,8168,8208,8174,8155,8127,8157,8130,8149,8164,8169,8173,8120,1.9473774433135984
67,8175,8182,8185,8223,8199,8167,8120,8150,8143,8156,8169,8172,8166,8130,1.95537543296814
68,8188,8184,8184,8205,8181,8182,8110,8156,8140,8175,8166,8195,8176,8139,1.9635112285614011
69,8151,8168,8172,8195,8179,8156,8124,8132,8148,8168,8155,8164,8159,8131,1.9715275764465328
70,8162,8145,8157,8184,8172,8174,8132,8158,8153,8123,8158,8163,8170,8120,1.9785311222076416
71,8144,8136,8131,8160,8152,8172,8143,8161,8173,8133,8137,8129,8151,8083,1.9865367412567136
72,8128,8118,8111,8133,8130,8171,8135,8148,8183,8146,8129,8113,8145,8053,1.994577169418335
73,8132,8097,8103,8117,8122,8174,8120,8167,8169,8110,8141,8139,8160,8048,2.0023772716522217
74,8113,8108,8113,8132,8150,8157,8144,8147,8177,8113,8140,8120,8142,8058,2.0103952884674072
75,8151,8127,8129,8137,8147,8182,8136,8165,8167,8124,8153,8142,8175,8085,2.018738985061645
76,8145,8137,8137,8152,8137,8171,8117,8171,8169,8132,8160,8142,8176,8093,2.0263750553131104
77,8140,8155,8150,8182,8159,8169,8129,8155,8195,8155,8165,8137,8155,8104,2.033527612686157
78,8176,8171,8153,8179,8171,8184,8127,8170,8176,8156,8173,8169,8180,8128,2.041048526763916
79,8147,8178,8152,8176,8174,8153,8114,8145,8136,8145,8165,8150,8171,8136,2.0493757724761963
80,8152,8165,8156,8167,8164,8170,8103,8156,8106,8118,8167,8160,8172,8125,2.057410955429077
81,8159,8144,8133,8149,8164,8179,8131,8166,8123,8112,8149,8141,8159,8089,2.06541109085083
82,8153,8131,8105,8140,8173,8177,8168,8160,8158,8127,8135,8113,8148,8075,2.0734105110168457
83,8159,8114,8085,8119,8173,8182,8172,8189,8165,8109,8140,8128,8167,8065,2.081410646438598
84,8127,8115,8083,8113,8196,8160,8197,8176,8198,8124,8130,8099,8145,8036,2.089375734329224
85,8153,8140,8103,8139,8210,8185,8221,8184,8233,8173,8150,8127,8160,8059,2.097444772720337
86,8161,8156,8114,8150,8212,8186,8213,8188,8238,8200,8165,8151,8170,8095,2.104445219039917
87,8140,8170,8115,8148,8225,8164,8199,8165,8238,8200,8162,8128,8162,8104,2.112376928329468
88,8159,8192,8127,8166,8224,8176,8176,8183,8233,8188,8167,8147,8186,8111,2.120713949203491
89,8145,8210,8143,8198,8227,8157,8163,8161,8238,8214,8165,8141,8163,8123,2.128715753555298
90,8170,8210,8154,8197,8217,8173,8161,8162,8228,8236,8181,8159,8164,8147,2.136370658874512
91,8166,8191,8140,8171,8204,8180,8192,8183,8229,8232,8170,8158,8166,8131,2.1443755626678467
92,8121,8162,8110,8146,8215,8162,8228,8168,8240,8217,8138,8117,8143,8095,2.1527347564697266
93,8130,8124,8080,8097,8207,8177,8218,8188,8207,8172,8123,8118,8162,8077,2.160376071929932
94,8106,8120,8071,8087,8197,8164,8225,8181,8209,8170,8108,8094,8151,8063,2.1683943271636963
95,8117,8149,8093,8120,8201,8179,8236,8180,8250,8182,8129,8109,8156,8068,2.175401210784912
96,8139,8156,8112,8129,8208,8187,8228,8186,8261,8171,8153,8131,8171,8078,2.183375597000122
97,8131,8150,8120,8132,8216,8163,8221,8162,8257,8192,8154,8118,8164,8100,2.1913750171661377
98,8156,8156,8120,8140,8209,8179,8186,8180,8238,8202,8159,8150,8184,8120,2.19937515258789
99,8140,8173,8129,8150,8203,8172,8170,8159,8237,8205,8155,8132,8163,8112,2.2073962688446045
100,8150,8172,8148,8157,8204,8178,8180,8156,8242,8221,8166,8134,8161,8128,2.2153923511505127
101,8154,8140,8128,8134,8201,8172,8177,8194,8221,8218,8161,8146,8177,8125,2.223048210144043
102,8113,8115,8092,8104,8191,8154,8189,8183,8227,8202,8129,8101,8152,8077,2.2313754558563232
103,8136,8109,8086,8089,8180,8187,8211,8194,8246,8183,8136,8118,8167,8062,2.238337993621826
104,8128,8113,8089,8098,8204,8171,8236,8180,8253,8181,8138,8116,8163,8068,2.24637508392334
105,8114,8109,8086,8098,8206,8165,8230,8171,8228,8162,8133,8110,8161,8061,2.254346370697021
106,8129,8107,8090,8096,8186,8185,8210,8192,8211,8146,8144,8132,8174,8052,2.262346744537353
107,8127,8130,8113,8130,8223,8176,8225,8169,8251,8199,8156,8128,8153,8077,2.2703745365142822
108,8161,8148,8133,8150,8242,8191,8214,8180,8259,8230,8175,8163,8176,8124,2.278620481491089
109,8149,8147,8128,8156,8224,8173,8182,8173,8227,8209,8164,8153,8175,8117,2.2866199016571045
110,8144,8161,8138,8176,8232,8175,8177,8154,8217,8207,8162,8147,8161,8110,2.29437518119812
111,8176,8181,8163,8189,8250,8198,8191,8182,8231,8235,8182,8186,8182,8144,2.3026816844940186
112,8153,8182,8157,8187,8252,8172,8215,8173,8250,8243,8173,8158,8166,8151,2.309682846069336
113,8158,8158,8125,8158,8220,8176,8216,8187,8241,8208,8160,8150,8167,8124,2.3173768520355225
114,8150,8144,8113,8154,8221,8175,8235,8187,8256,8216,8144,8153,8161,8099,2.32537579536438
115,8149,8150,8136,8178,8263,8176,8270,8183,8292,8244,8153,8160,8166,8122,2.333733081817627
116,8164,8148,8138,8169,8256,8184,8255,8205,8278,8214,8168,8174,8186,8134,2.3412890434265137
117,8127,8149,8121,8162,8227,8162,8235,8171,8259,8200,8151,8134,8148,8108,2.349317789077759
118,8155,8162,8132,8170,8228,8183,8243,8176,8255,8222,8160,8160,8160,8129,2.3576879501342773
119,8175,8169,8142,8178,8242,8168,8253,8187,8263,8244,8171,8176,8174,8156,2.3653764724731445
120,8151,8156,8124,8189,8237,8154,8235,8163,8257,8237,8156,8143,8157,8137,2.3720967769622803
121,8151,8138,8105,8178,8224,8189,8209,8177,8230,8202,8147,8147,8169,8105,2.3800957202911377
122,8132,8146,8111,8171,8241,8176,8232,8163,8251,8212,8137,8127,8150,8102,2.388096570968628
123,8149,8145,8113,8161,8237,8176,8236,8178,8253,8212,8145,8140,8164,8126,2.39609694480896
124,8136,8127,8090,8124,8217,8168,8215,8186,8220,8179,8134,8129,8165,8096,2.4040985107421875
124,8136,8127,8090,8124,8217,8168,8215,8186,8220,8179,8134,8129,8165,8096,2.405097007751465
125,8108,8121,8077,8113,8213,8161,8221,8154,8229,8177,8119,8099,8137,8055,2.412095785140991
126,8140,8114,8082,8132,8201,8182,8226,8175,8236,8171,8136,8140,8165,8067,2.420095920562744
127,8123,8109,8084,8137,8205,8158,8231,8175,8232,8165,8134,8130,8166,8079,2.4280989170074463
241,8124,8113,8083,8121,8198,8166,8220,8175,8229,8169,8138,8128,8161,8076,2.436606168746948
0,8140,8115,8085,8122,8187,8178,8223,8180,8226,8194,8144,8138,8161,8072,2.442605972290039
0,8140,8115,8085,8122,8187,8178,8223,8180,8226,8194,8144,8138,8161,8072,2.4436070919036865
1,8128,8120,8101,8138,8216,8170,8250,8165,8245,8224,8143,8130,8149,8090,2.4516074657440186
2,8150,8126,8106,8136,8221,8188,8249,8190,8263,8216,8151,8157,8165,8110,2.4593751430511475
3,8134,8124,8091,8139,8212,8162,8245,8172,8269,8217,8141,8131,8150,8094,2.4677159786224365
4,8135,8113,8085,8129,8206,8162,8232,8161,8245,8201,8142,8122,8164,8093,2.475716114044189
5,8139,8108,8082,8108,8199,8177,8222,8180,8231,8166,8142,8138,8179,8097,2.4833757877349854
6,8122,8115,8082,8112,8208,8167,8241,8162,8254,8176,8135,8121,8149,8089,2.491375684738159
7,8143,8108,8086,8111,8199,8178,8227,8175,8241,8170,8147,8139,8166,8081,2.499767303466797
8,8118,8099,8082,8107,8177,8157,8198,8161,8215,8151,8136,8115,8159,8059,2.506775140762329
9,8126,8106,8081,8108,8162,8161,8189,8150,8212,8158,8140,8122,8151,8069,2.5137784481048584
10,8158,8121,8092,8112,8171,8178,8197,8170,8227,8176,8160,8165,8167,8095,2.5223751068115234
11,8137,8128,8109,8136,8196,8164,8210,8155,8237,8185,8157,8149,8157,8100,2.5303754806518555
12,8149,8119,8110,8141,8183,8176,8185,8173,8195,8151,8155,8157,8178,8092,2.537965774536133
13,8131,8119,8089,8126,8174,8158,8173,8167,8177,8132,8134,8133,8152,8061,2.545965671539306
14,8124,8125,8077,8131,8184,8160,8188,8154,8203,8143,8125,8118,8134,8045,2.553969621658325
15,8142,8114,8077,8146,8186,8180,8189,8175,8194,8135,8131,8139,8166,8051,2.562612771987915
16,8117,8119,8078,8164,8207,8164,8200,8154,8173,8127,8123,8115,8154,8051,2.569612741470337
17,8135,8139,8079,8158,8203,8179,8192,8165,8164,8111,8128,8128,8159,8046,2.577622652053833
18,8133,8145,8084,8141,8185,8173,8185,8155,8175,8108,8129,8124,8150,8032,2.5853755474090576
19,8120,8143,8092,8149,8201,8174,8199,8142,8170,8105,8135,8118,8150,8048,2.593363046646118
20,8139,8138,8092,8170,8211,8185,8191,8181,8142,8085,8144,8144,8175,8065,2.601362705230713
21,8125,8156,8100,8191,8201,8155,8186,8170,8164,8100,8138,8131,8155,8061,2.609351873397827
22,8151,8175,8116,8180,8193,8176,8186,8175,8189,8121,8150,8155,8164,8077,2.6173458099365234
23,8149,8159,8112,8167,8201,8182,8197,8174,8191,8133,8144,8153,8158,8080,2.625365734100342
24,8130,8145,8099,8159,8199,8167,8194,8151,8177,8118,8135,8127,8145,8067,2.6333956718444824
25,8146,8146,8085,8132,8180,8174,8161,8165,8136,8067,8137,8133,8168,8048,2.64037561416626
26,8119,8138,8078,8143,8188,8163,8161,8148,8138,8075,8123,8102,8151,8025,2.648338556289673
27,8143,8141,8089,8163,8188,8190,8180,8156,8160,8113,8135,8122,8156,8036,2.656376600265503
28,8157,8154,8090,8154,8196,8186,8196,8168,8153,8126,8142,8135,8165,8055,2.6643760204315186
29,8142,8159,8086,8145,8220,8164,8204,8159,8145,8129,8140,8113,8157,8068,2.6718051433563232
29,8142,8159,8086,8145,8220,8164,8204,8159,8145,8129,8140,8113,8157,8068,2.672797441482544
30,8180,8168,8111,8167,8214,8187,8206,8193,8154,8134,8159,8143,8176,8087,2.680800676345825
31,8178,8183,8139,8203,8215,8178,8232,8177,8192,8160,8159,8140,8160,8101,2.6883327960968018
32,8191,8184,8147,8186,8221,8187,8229,8176,8203,8167,8169,8156,8173,8128,2.6963765621185303
33,8204,8188,8158,8170,8227,8186,8207,8198,8207,8166,8180,8169,8185,8136,2.703399419784546
34,8197,8206,8182,8211,8239,8182,8221,8178,8240,8194,8180,8158,8163,8142,2.71140718460083
35,8214,8183,8169,8209,8234,8207,8222,8177,8226,8183,8183,8179,8178,8149,2.7193782329559326
36,8181,8154,8130,8163,8251,8176,8213,8152,8184,8154,8155,8137,8162,8109,2.727348566055298
37,8188,8167,8130,8154,8255,8179,8205,8164,8165,8150,8146,8129,8162,8085,2.7352640628814697
38,8201,8181,8140,8171,8217,8196,8205,8186,8173,8160,8150,8148,8171,8088,2.7432732582092285
39,8165,8177,8130,8192,8210,8171,8213,8154,8186,8167,8138,8109,8145,8087,2.751289367675781
40,8192,8173,8132,8186,8223,8185,8190,8189,8163,8142,8160,8146,8184,8092,2.759291172027588
41,8177,8177,8136,8168,8218,8170,8185,8183,8166,8144,8156,8136,8168,8080,2.766369342803955
42,8159,8169,8130,8173,8208,8169,8201,8149,8184,8151,8142,8097,8132,8078,2.773808002471924
42,8159,8169,8130,8173,8208,8169,8201,8149,8184,8151,8142,8097,8132,8078,2.7747721672058105
43,8187,8163,8141,8173,8217,8190,8195,8179,8161,8127,8166,8157,8185,8103,2.7827236652374268
44,8170,8178,8153,8170,8237,8162,8201,8166,8162,8142,8167,8158,8180,8112,2.790374755859375
45,8167,8172,8132,8179,8213,8162,8191,8155,8169,8143,8150,8120,8147,8092,2.7987430095672607
46,8150,8156,8111,8177,8194,8151,8191,8138,8151,8129,8132,8087,8125,8069,2.806759595870972
47,8143,8164,8111,8153,8217,8147,8211,8125,8141,8139,8128,8081,8121,8082,2.8141469955444336
48,8154,8165,8106,8156,8240,8152,8207,8140,8158,8146,8126,8086,8120,8088,2.8221805095672607
49,8158,8160,8105,8178,8236,8162,8200,8145,8188,8153,8142,8103,8128,8082,2.829179286956787
50,8199,8163,8116,8161,8209,8195,8201,8176,8172,8151,8166,8163,8183,8101,2.8373751640319824
51,8173,8171,8118,8149,8213,8159,8210,8159,8154,8154,8140,8127,8160,8102,2.8453757762908936
52,8160,8162,8116,8163,8221,8156,8194,8158,8158,8142,8143,8119,8149,8098,2.8533763885498047
53,8180,8143,8113,8162,8198,8183,8185,8179,8160,8125,8157,8144,8171,8091,2.861443042755127
54,8153,8152,8115,8157,8194,8158,8219,8146,8180,8140,8144,8105,8146,8088,2.869551181793213
55,8165,8153,8108,8141,8184,8168,8204,8166,8175,8126,8155,8122,8164,8096,2.877550840377808
56,8144,8131,8091,8129,8180,8163,8176,8161,8169,8121,8143,8108,8146,8066,2.885375738143921
57,8135,8125,8103,8143,8199,8166,8195,8144,8187,8150,8140,8109,8139,8066,2.893375396728516
58,8169,8136,8117,8145,8195,8183,8206,8173,8194,8152,8157,8143,8170,8095,2.9003751277923584
59,8145,8145,8106,8141,8186,8161,8192,8151,8194,8155,8152,8107,8144,8075,2.9081900119781494
60,8158,8152,8110,8148,8179,8174,8175,8154,8183,8153,8155,8123,8147,8062,2.916189670562744
61,8161,8153,8115,8151,8183,8165,8189,8158,8187,8138,8145,8130,8154,8077,2.924370527267456
62,8138,8144,8101,8137,8199,8150,8198,8142,8197,8127,8136,8101,8151,8079,2.9323768615722656
63,8147,8128,8085,8108,8180,8172,8172,8160,8168,8117,8140,8121,8164,8050,2.940081834793091
64,8130,8126,8086,8107,8154,8157,8175,8136,8153,8130,8132,8103,8145,8037,2.948081970214844
65,8143,8119,8089,8108,8128,8167,8166,8147,8146,8117,8144,8038,8164,8068,2.956073522567749
66,8137,8106,8088,8093,8115,8167,8138,8166,8140,8087,8141,7930,8166,8059,2.963073492050171
67,8126,8125,8104,8113,8141,8165,8154,8150,8172,8114,8138,7888,8147,8051,2.9710731506347656
68,8163,8137,8112,8135,8160,8186,8180,8172,8183,8142,8156,7945,8175,8088,2.979074001312256
69,8135,8114,8089,8127,8154,8153,8172,8157,8158,8132,8145,7927,8163,8086,2.987159252166748
70,8128,8098,8079,8103,8122,8160,8138,8152,8117,8100,8138,7922,8158,8051,2.9953763484954834
71,8144,8113,8090,8103,8122,8178,8146,8161,8114,8101,8143,7952,8163,8042,3.0034611225128174
72,8132,8129,8092,8127,8159,8162,8170,8139,8144,8125,8146,7954,8153,8061,3.011467218399048
73,8148,8119,8083,8118,8134,8174,8129,8159,8121,8096,8148,7978,8172,8051,3.0183393955230717
74,8128,8112,8085,8094,8112,8160,8114,8154,8120,8085,8134,7955,8154,8024,3.026376247406006
75,8140,8112,8092,8087,8131,8173,8136,8158,8147,8103,8146,7966,8156,8046,3.0336618423461914
76,8154,8118,8094,8100,8128,8183,8125,8172,8137,8103,8150,7993,8166,8049,3.042048692703247
77,8123,8128,8103,8123,8123,8165,8118,8148,8132,8115,8137,7974,8143,8029,3.050050973892212
77,8123,8128,8103,8123,8123,8165,8118,8148,8132,8115,8137,7974,8143,8029,3.05104923248291
78,8154,8118,8104,8119,8137,8182,8124,8167,8127,8115,8147,8001,8171,8052,3.0580687522888184
79,8147,8115,8093,8117,8155,8166,8137,8166,8130,8114,8144,7990,8172,8057,3.0663764476776123
80,8125,8116,8087,8119,8134,8167,8125,8159,8124,8093,8140,7977,8160,8024,3.0743627548217773
81,8131,8100,8080,8108,8109,8175,8098,8164,8098,8057,8134,7987,8157,8002,3.0813751220703125
82,8115,8102,8076,8112,8124,8155,8105,8133,8100,8059,8122,7968,8136,8005,3.089560508728028
83,8130,8108,8080,8108,8117,8176,8093,8156,8087,8052,8136,8000,8166,8013,3.097599983215332
84,8114,8098,8079,8095,8110,8162,8067,8160,8071,8045,8131,8004,8165,8000,3.1056010723114014
85,8116,8099,8081,8102,8115,8159,8060,8150,8073,8046,8122,7994,8152,8002,3.113375425338745
86,8137,8111,8087,8115,8104,8176,8063,8172,8072,8043,8126,8009,8167,8009,3.1213436126708984
87,8115,8127,8095,8131,8116,8159,8091,8154,8100,8076,8134,8001,8156,8017,3.1293749809265137
88,8146,8129,8107,8134,8123,8180,8107,8167,8112,8104,8156,8037,8172,8046,3.1370849609375
89,8142,8124,8109,8138,8125,8167,8114,8168,8096,8101,8148,8031,8165,8053,3.145085096359253
90,8123,8122,8105,8146,8136,8155,8109,8152,8083,8083,8140,8011,8152,8050,3.1533732414245605
91,8144,8113,8092,8121,8121,8175,8081,8165,8070,8063,8147,8032,8162,8040,3.160372257232666
92,8125,8106,8082,8123,8112,8154,8085,8142,8082,8075,8140,8017,8142,8029,3.16849946975708
93,8143,8118,8098,8160,8132,8164,8093,8163,8087,8080,8154,8044,8165,8056,3.1765012741088867
94,8149,8147,8114,8163,8154,8164,8092,8170,8089,8080,8154,8056,8168,8057,3.1845085620880127
95,8138,8164,8118,8158,8155,8163,8103,8145,8109,8104,8150,8045,8148,8045,3.192589282989502
96,8160,8154,8127,8191,8155,8179,8114,8164,8124,8118,8173,8076,8168,8068,3.200528621673584
96,8160,8154,8127,8191,8155,8179,8114,8164,8124,8118,8173,8076,8168,8068,3.2010347843170166
97,8133,8148,8132,8212,8170,8154,8129,8146,8124,8122,8162,8056,8155,8075,3.208647966384888
98,8137,8145,8116,8168,8154,8165,8112,8147,8091,8105,8141,8055,8161,8056,3.2166481018066406
99,8145,8133,8113,8146,8150,8168,8101,8152,8086,8111,8147,8064,8161,8049,3.223372459411621
100,8140,8132,8138,8179,8166,8158,8127,8144,8123,8150,8173,8071,8153,8080,3.231351137161255
100,8140,8132,8138,8179,8166,8158,8127,8144,8123,8150,8173,8071,8153,8080,3.2323877811431885
101,8164,8132,8146,8174,8138,8174,8124,8174,8129,8151,8184,8106,8176,8099,3.2393786907196045
102,8140,8127,8138,8154,8125,8153,8114,8156,8135,8162,8174,8085,8150,8083,3.247408390045166
103,8153,8116,8138,8151,8145,8165,8108,8151,8129,8169,8187,8091,8153,8088,3.2554080486297607
104,8167,8116,8137,8156,8157,8168,8117,8167,8120,8154,8182,8106,8167,8099,3.2635819911956787
105,8143,8132,8136,8158,8147,8153,8133,8155,8138,8168,8174,8096,8152,8106,3.271390676498413
106,8161,8136,8142,8136,8124,8176,8127,8174,8142,8179,8191,8121,8167,8111,3.2793757915496826
107,8152,8145,8151,8136,8154,8162,8155,8164,8161,8209,8192,8111,8160,8116,3.287459135055542
108,8170,8153,8159,8157,8172,8166,8179,8170,8170,8232,8207,8132,8178,8150,3.2945327758789062
109,8178,8126,8152,8145,8134,8167,8162,8184,8161,8215,8208,8146,8185,8148,3.3025782108306885
110,8156,8121,8157,8121,8132,8152,8162,8158,8197,8222,8197,8120,8157,8128,3.310577630996704
111,8186,8136,8174,8119,8144,8179,8169,8178,8220,8249,8217,8152,8178,8161,3.3183391094207764
112,8170,8117,8163,8130,8135,8164,8173,8172,8216,8260,8220,8141,8175,8182,3.325841426849365
112,8170,8117,8163,8130,8135,8164,8173,8172,8216,8260,8220,8141,8175,8182,3.32684063911438
113,8167,8091,8150,8126,8134,8165,8166,8171,8229,8246,8214,8127,8168,8169,3.3333396911621094
113,8167,8091,8150,8126,8134,8165,8166,8171,8229,8246,8214,8127,8168,8169,3.334843873977661
114,8181,8106,8149,8108,8144,8176,8166,8184,8244,8251,8206,8136,8169,8159,3.341859102249145
114,8181,8106,8149,8108,8144,8176,8166,8184,8244,8251,8206,8136,8169,8159,3.3428497314453125
115,8152,8125,8142,8106,8137,8162,8189,8153,8235,8262,8186,8118,8150,8164,3.350375175476074
116,8170,8110,8133,8090,8113,8182,8178,8172,8212,8219,8182,8139,8172,8157,3.3569412231445312
116,8170,8110,8133,8090,8113,8182,8178,8172,8212,8219,8182,8139,8172,8157,3.357935905456543
117,8164,8112,8138,8087,8134,8169,8185,8178,8246,8224,8177,8136,8166,8139,3.3653769493103027
118,8172,8141,8158,8116,8163,8170,8216,8172,8285,8269,8184,8140,8162,8165,3.3733773231506348
119,8196,8149,8166,8122,8155,8184,8217,8192,8272,8260,8192,8159,8184,8186,3.380959987640381
120,8173,8145,8168,8121,8164,8165,8209,8178,8281,8268,8186,8137,8172,8172,3.3889546394348145
121,8198,8149,8171,8128,8162,8185,8191,8185,8288,8278,8197,8156,8183,8175,3.39737606048584
122,8196,8151,8174,8140,8149,8175,8193,8175,8288,8271,8194,8155,8172,8186,3.4053752422332764
123,8183,8136,8172,8134,8155,8170,8197,8170,8291,8268,8193,8154,8172,8198,3.4135749340057373
124,8192,8111,8155,8107,8148,8185,8182,8189,8277,8259,8193,8168,8187,8180,3.4215450286865234
125,8155,8099,8131,8093,8137,8164,8182,8151,8276,8251,8168,8123,8149,8130,3.4283409118652344
126,8164,8094,8120,8077,8114,8184,8172,8157,8257,8220,8162,8130,8161,8117,3.436375617980957
127,8169,8104,8128,8080,8114,8175,8173,8175,8238,8197,8165,8142,8175,8128,3.44455885887146
241,8169,8130,8144,8107,8127,8162,8170,8164,8234,8199,8177,8138,8165,8134,3.454376220703125
0,8189,8132,8148,8105,8120,8184,8150,8176,8222,8207,8187,8166,8176,8130,3.460423707962036
1,8166,8125,8148,8098,8133,8170,8169,8157,8243,8225,8173,8149,8158,8130,3.467951774597168
2,8184,8133,8155,8108,8136,8183,8183,8178,8251,8201,8182,8164,8170,8145,3.4759531021118164
3,8180,8138,8152,8112,8122,8179,8169,8185,8238,8181,8180,8166,8166,8132,3.4839038848876958
3,8180,8138,8152,8112,8122,8179,8169,8185,8238,8181,8180,8166,8166,8132,3.484660148620605
4,8162,8126,8149,8104,8117,8172,8171,8156,8246,8210,8172,8147,8146,8125,3.490665912628174
4,8162,8126,8149,8104,8117,8172,8171,8156,8246,8210,8172,8147,8146,8125,3.491666555404663
5,8189,8113,8151,8090,8116,8185,8180,8182,8237,8218,8185,8177,8175,8147,3.498666524887085
5,8189,8113,8151,8090,8116,8185,8180,8182,8237,8218,8185,8177,8175,8147,3.4996659755706787
6,8164,8117,8147,8096,8133,8164,8190,8174,8235,8212,8180,8161,8167,8146,3.50766658782959
7,8174,8122,8146,8095,8126,8187,8177,8178,8246,8205,8179,8166,8171,8136,3.5146677494049072
7,8174,8122,8146,8095,8126,8187,8177,8178,8246,8205,8179,8166,8171,8136,3.5156667232513428
8,8175,8123,8143,8074,8104,8182,8167,8185,8243,8214,8174,8169,8170,8124,3.523669719696045
9,8143,8133,8135,8087,8115,8156,8183,8153,8230,8228,8163,8135,8143,8125,3.531670331954956
10,8182,8131,8136,8103,8119,8192,8175,8184,8207,8197,8186,8195,8191,8146,3.5394415855407715
11,8167,8127,8138,8095,8123,8168,8172,8177,8213,8187,8178,8186,8181,8133,3.5474324226379395
12,8152,8131,8140,8080,8125,8156,8178,8157,8222,8192,8156,8136,8147,8121,3.554426670074463
13,8167,8128,8140,8081,8116,8173,8172,8181,8222,8174,8165,8164,8173,8119,3.562436580657959
14,8146,8124,8131,8092,8109,8160,8157,8167,8227,8180,8161,8153,8159,8096,3.5704450607299805
15,8143,8113,8110,8076,8090,8157,8134,8155,8211,8183,8151,8127,8142,8085,3.5783400535583496
16,8128,8105,8112,8079,8108,8139,8152,8140,8231,8210,8154,8116,8132,8104,3.5863661766052246
17,8152,8110,8134,8092,8129,8153,8173,8152,8259,8248,8176,8146,8143,8140,3.594357490539551
18,8156,8119,8126,8072,8120,8153,8158,8158,8230,8236,8174,8144,8144,8141,3.6023757457733154
19,8131,8117,8111,8060,8125,8141,8155,8141,8194,8208,8162,8130,8147,8130,3.610382318496704
20,8165,8110,8118,8067,8128,8170,8159,8179,8184,8195,8173,8178,8180,8135,3.616844415664673
20,8165,8110,8118,8067,8128,8170,8159,8179,8184,8195,8173,8178,8180,8135,3.6178364753723145
21,8149,8123,8117,8083,8129,8148,8173,8157,8210,8210,8159,8149,8142,8118,3.6248583793640137
22,8153,8123,8112,8070,8120,8152,8158,8133,8200,8187,8157,8147,8140,8107,3.633375644683838
23,8181,8116,8117,8061,8110,8164,8140,8159,8181,8160,8160,8169,8156,8112,3.640873670578003
24,8172,8132,8127,8099,8122,8150,8165,8154,8216,8199,8159,8155,8134,8132,3.6493752002716064
25,8183,8131,8127,8098,8117,8166,8161,8168,8216,8195,8171,8179,8159,8144,3.657628774642944
26,8149,8115,8113,8066,8109,8147,8143,8149,8199,8164,8159,8153,8147,8112,3.665627956390381
27,8147,8114,8113,8075,8109,8156,8146,8145,8212,8175,8164,8150,8141,8103,3.673630714416504
28,8171,8113,8117,8092,8111,8175,8151,8172,8217,8196,8167,8179,8161,8117,3.681639671325684
29,8146,8118,8114,8088,8126,8152,8169,8151,8222,8204,8151,8157,8145,8125,3.6883389949798575
30,8158,8116,8108,8068,8116,8165,8170,8168,8205,8181,8162,8173,8166,8132,3.69645094871521
31,8144,8111,8106,8059,8107,8160,8160,8170,8192,8178,8163,8171,8162,8121,3.704044342041016
32,8149,8131,8120,8081,8113,8169,8154,8153,8209,8202,8165,8169,8145,8129,3.712048530578613
33,8186,8140,8124,8089,8111,8182,8151,8164,8215,8207,8174,8195,8160,8153,3.720375299453736
33,8186,8140,8124,8089,8111,8182,8151,8164,8215,8207,8174,8195,8160,8153,3.72077202796936
34,8158,8133,8123,8060,8121,8149,8158,8142,8215,8210,8166,8179,8154,8155,3.72831130027771
35,8174,8135,8137,8063,8118,8167,8144,8164,8211,8193,8173,8205,8171,8155,3.736839056015015
36,8184,8148,8146,8113,8121,8175,8143,8167,8227,8191,8174,8209,8161,8149,3.744374990463257
37,8177,8147,8144,8120,8142,8168,8162,8143,8233,8213,8173,8191,8144,8156,3.751141309738159
38,8191,8139,8136,8087,8142,8179,8161,8178,8207,8206,8180,8208,8175,8161,3.75917387008667
39,8162,8142,8132,8102,8140,8163,8168,8173,8215,8212,8172,8180,8161,8138,3.7671687602996826
40,8179,8147,8137,8112,8145,8182,8170,8175,8236,8222,8181,8199,8162,8142,3.775376081466675
41,8191,8160,8150,8106,8163,8175,8185,8185,8251,8236,8186,8224,8173,8174,3.783376216888428
42,8183,8176,8170,8134,8178,8160,8198,8174,8258,8252,8181,8207,8168,8194,3.791531562805176
43,8208,8180,8171,8144,8168,8184,8180,8196,8246,8247,8189,8224,8181,8188,3.799539804458618
44,8186,8184,8165,8147,8179,8173,8199,8183,8276,8273,8186,8219,8158,8183,3.807694435119629
45,8198,8181,8177,8153,8188,8178,8218,8181,8293,8281,8197,8237,8173,8216,3.814696788787842
46,8212,8177,8187,8145,8181,8169,8206,8185,8276,8256,8199,8240,8186,8222,3.822375774383545
47,8198,8203,8195,8159,8184,8162,8211,8168,8282,8256,8187,8215,8159,8205,3.830374956130981
47,8198,8203,8195,8159,8184,8162,8211,8168,8282,8256,8187,8215,8159,8205,3.8307950496673584
48,8216,8209,8192,8173,8182,8186,8219,8186,8283,8254,8187,8238,8171,8209,3.838339567184448
49,8192,8179,8176,8166,8197,8161,8230,8172,8277,8252,8179,8223,8164,8214,3.8459432125091553
50,8195,8166,8173,8136,8197,8170,8217,8174,8257,8240,8182,8218,8164,8212,3.8539421558380127
51,8198,8179,8173,8132,8179,8178,8198,8185,8239,8220,8179,8218,8164,8195,3.8623709678649902
52,8174,8195,8177,8169,8196,8162,8226,8159,8261,8242,8180,8201,8151,8207,3.870375394821167
53,8199,8185,8175,8164,8199,8181,8228,8182,8265,8253,8202,8232,8180,8234,3.87833833694458
54,8180,8170,8165,8139,8189,8165,8202,8174,8253,8238,8183,8212,8157,8204,3.885367393493652
55,8177,8175,8171,8149,8177,8169,8201,8164,8253,8232,8170,8209,8144,8188,3.893277645111084
56,8192,8180,8176,8157,8170,8179,8209,8177,8252,8234,8180,8234,8171,8201,3.901411294937134
57,8170,8175,8168,8147,8184,8161,8202,8153,8249,8231,8176,8211,8158,8201,3.9087846279144287
57,8170,8175,8168,8147,8184,8161,8202,8153,8249,8231,8176,8211,8158,8201,3.9097745418548575
58,8191,8173,8171,8141,8190,8179,8194,8178,8246,8217,8181,8233,8168,8202,3.916774034500122
58,8191,8173,8171,8141,8190,8179,8194,8178,8246,8217,8181,8233,8168,8202,3.9177749156951904
59,8187,8185,8186,8162,8208,8167,8219,8183,8280,8245,8178,8236,8160,8201,3.925370216369629
60,8191,8184,8187,8171,8213,8170,8224,8163,8286,8256,8179,8232,8156,8209,3.933375358581543
61,8204,8174,8175,8163,8196,8180,8198,8176,8245,8229,8183,8243,8173,8211,3.941375970840454
62,8177,8177,8169,8167,8199,8157,8212,8169,8259,8240,8170,8216,8155,8198,3.9485843181610103
63,8196,8175,8162,8155,8191,8179,8213,8180,8276,8238,8174,8232,8164,8196,3.9565858840942383
64,8183,8159,8154,8148,8188,8169,8195,8161,8253,8225,8170,8223,8160,8186,3.9643807411193848
65,8164,8149,8148,8161,8190,8152,8188,8151,8223,8226,8167,8206,8163,8179,3.972407817840576
66,8178,8141,8136,8151,8174,8168,8179,8179,8196,8200,8167,8215,8180,8167,3.980375051498413
67,8162,8145,8133,8147,8173,8156,8178,8152,8202,8187,8155,8190,8148,8141,3.9877443313598633
67,8162,8145,8133,8147,8173,8156,8178,8152,8202,8187,8155,8190,8148,8141,3.98874306678772
68,8195,8164,8157,8175,8190,8172,8183,8169,8228,8205,8176,8224,8160,8160,3.99574613571167
69,8203,8185,8178,8202,8213,8166,8218,8186,8255,8235,8185,8240,8170,8195,4.003742218017578
70,8180,8184,8174,8201,8218,8155,8223,8168,8258,8236,8173,8224,8164,8198,4.011742115020752
71,8195,8163,8164,8190,8195,8173,8184,8181,8238,8215,8172,8236,8174,8175,4.019441843032837
72,8181,8157,8160,8193,8196,8164,8191,8155,8239,8221,8165,8209,8143,8164,4.027495622634888
73,8187,8152,8154,8184,8202,8176,8194,8159,8220,8196,8166,8211,8160,8180,4.035451173782349
74,8176,8148,8149,8174,8187,8163,8182,8170,8212,8173,8158,8213,8176,8168,4.0430872440338135
75,8167,8151,8154,8181,8179,8157,8193,8154,8227,8197,8156,8200,8156,8154,4.051091432571411
76,8197,8147,8152,8179,8188,8183,8199,8172,8211,8201,8163,8216,8163,8157,4.059375762939453
77,8178,8158,8148,8185,8212,8157,8211,8158,8222,8201,8153,8201,8155,8163,4.067376613616943
78,8194,8177,8158,8193,8209,8163,8224,8167,8247,8205,8171,8220,8174,8189,4.075397968292236
79,8203,8183,8172,8199,8205,8173,8234,8186,8253,8218,8183,8229,8179,8206,4.082398176193237
80,8181,8184,8180,8222,8217,8168,8231,8175,8264,8231,8174,8209,8163,8197,4.090420722961426
81,8198,8176,8176,8221,8207,8184,8205,8187,8260,8209,8181,8227,8177,8182,4.09833836555481
82,8180,8168,8175,8214,8214,8164,8212,8165,8267,8214,8179,8211,8158,8177,4.106526136398315
83,8186,8164,8172,8216,8211,8173,8218,8171,8268,8223,8178,8216,8169,8194,4.114522457122803
84,8184,8146,8155,8203,8189,8181,8201,8186,8245,8195,8164,8214,8181,8178,4.122376918792725
85,8154,8135,8155,8195,8194,8166,8200,8162,8235,8185,8153,8184,8152,8145,4.130375146865845
86,8178,8147,8167,8194,8195,8182,8196,8183,8230,8198,8170,8215,8164,8146,4.138464689254761
87,8176,8169,8170,8210,8199,8163,8205,8172,8248,8223,8170,8211,8160,8158,4.1454668045043945
88,8193,8184,8178,8227,8215,8168,8220,8164,8255,8229,8173,8216,8175,8185,4.153377294540405
89,8207,8184,8187,8229,8221,8177,8205,8181,8231,8205,8174,8231,8191,8195,4.161376953125
90,8181,8181,8192,8232,8212,8165,8188,8161,8227,8197,8166,8208,8158,8177,4.169374942779541
91,8204,8179,8200,8229,8193,8190,8190,8177,8231,8194,8174,8235,8166,8186,4.177562713623047
92,8197,8180,8197,8228,8208,8173,8201,8171,8236,8200,8168,8233,8169,8199,4.185564041137695
93,8194,8174,8192,8227,8219,8173,8180,8165,8236,8188,8173,8226,8172,8197,4.193576335906982
94,8210,8172,8197,8227,8202,8187,8169,8184,8246,8186,8182,8239,8179,8183,4.2015886306762695
95,8190,8183,8205,8243,8206,8167,8206,8165,8284,8236,8173,8220,8156,8184,4.208115816116333
96,8212,8179,8195,8238,8213,8184,8206,8189,8278,8235,8190,8240,8176,8205,4.216375827789307
97,8205,8172,8183,8228,8221,8177,8196,8189,8266,8215,8189,8228,8173,8194,4.224408864974976
98,8203,8178,8186,8238,8231,8179,8212,8167,8281,8246,8181,8217,8166,8187,4.232408285140991
99,8231,8180,8191,8235,8223,8189,8215,8186,8279,8261,8195,8246,8189,8201,4.240374803543091
100,8215,8185,8190,8237,8224,8161,8225,8177,8274,8251,8188,8230,8173,8206,4.248339653015137
101,8237,8192,8197,8237,8226,8178,8214,8189,8263,8233,8186,8249,8182,8207,4.256556510925293
102,8233,8195,8206,8235,8220,8178,8211,8181,8272,8242,8186,8254,8170,8197,4.264556169509888
103,8219,8200,8206,8238,8223,8168,8232,8165,8293,8260,8192,8234,8152,8208,4.271559715270996
104,8237,8190,8192,8238,8225,8177,8221,8192,8273,8243,8192,8237,8173,8214,4.27937650680542
105,8217,8184,8189,8240,8235,8159,8210,8173,8262,8238,8170,8207,8153,8187,4.287398815155029
106,8237,8194,8200,8218,8226,8177,8211,8174,8269,8238,8175,8218,8156,8188,4.295397758483887
107,8226,8182,8184,8201,8214,8172,8217,8176,8267,8222,8174,8212,8160,8185,4.303375482559204
108,8194,8149,8156,8215,8204,8159,8202,8165,8245,8191,8161,8188,8155,8156,4.311375141143799
109,8211,8144,8160,8210,8185,8176,8176,8185,8225,8174,8163,8215,8174,8141,4.319464921951294
110,8199,8163,8180,8207,8208,8166,8196,8161,8254,8216,8169,8206,8155,8154,4.327476978302002
111,8209,8158,8184,8215,8219,8181,8202,8168,8263,8230,8185,8214,8169,8179,4.335375308990479
112,8198,8151,8166,8210,8187,8170,8176,8185,8235,8201,8171,8206,8176,8159,4.342375993728638
113,8176,8159,8157,8192,8172,8153,8161,8164,8226,8200,8161,8186,8156,8130,4.350362300872803
114,8201,8149,8164,8186,8180,8177,8157,8170,8228,8204,8179,8213,8169,8141,4.358359098434448
115,8183,8144,8170,8199,8205,8162,8175,8149,8237,8211,8169,8200,8158,8155,4.366375207901001
116,8193,8150,8175,8198,8208,8169,8175,8161,8221,8203,8164,8209,8167,8155,4.374369382858276
117,8198,8158,8173,8202,8192,8167,8165,8177,8217,8199,8168,8211,8163,8139,4.382365703582764
118,8179,8170,8175,8221,8200,8154,8182,8153,8245,8213,8173,8192,8140,8153,4.38979172706604
119,8211,8171,8179,8211,8218,8176,8194,8183,8233,8198,8184,8221,8173,8182,4.397810220718384
120,8200,8177,8181,8212,8229,8161,8203,8184,8227,8202,8173,8206,8171,8167,4.404798746109009
121,8201,8192,8185,8221,8210,8174,8205,8179,8247,8226,8177,8213,8161,8162,4.41283655166626
122,8215,8198,8192,8212,8206,8183,8214,8184,8260,8240,8186,8237,8167,8179,4.420846939086914
122,8215,8198,8192,8212,8206,8183,8214,8184,8260,8240,8186,8237,8167,8179,4.421839952468872
123,8204,8203,8206,8223,8236,8162,8236,8174,8274,8259,8189,8225,8172,8201,4.429369688034058
124,8219,8193,8207,8224,8223,8176,8214,8204,8261,8249,8197,8241,8194,8201,4.43751859664917
125,8200,8183,8200,8204,8205,8163,8198,8187,8264,8245,8182,8221,8162,8176,4.445520401000977
126,8210,8189,8209,8211,8209,8177,8216,8171,8278,8252,8180,8226,8162,8193,4.4523773193359375
127,8221,8179,8205,8216,8200,8184,8212,8187,8254,8225,8184,8242,8185,8199,4.46137547492981
241,8190,8165,8194,8197,8200,8159,8191,8167,8239,8207,8173,8209,8157,8169,4.469395875930786
0,8219,8178,8202,8186,8196,8184,8183,8185,8252,8218,8181,8233,8169,8172,4.476396560668945
1,8216,8195,8206,8208,8204,8174,8218,8183,8274,8241,8178,8232,8170,8187,4.484376668930054
2,8195,8178,8179,8209,8210,8167,8224,8171,8254,8220,8173,8209,8167,8176,4.492499351501465
3,8191,8145,8145,8166,8187,8178,8172,8182,8206,8174,8164,8207,8174,8137,4.500320196151733
4,8171,8153,8157,8160,8173,8165,8158,8159,8206,8190,8151,8186,8146,8112,4.508331775665283
5,8202,8175,8182,8177,8163,8184,8165,8178,8207,8207,8171,8217,8168,8139,4.516377925872803
6,8193,8158,8170,8163,8163,8168,8159,8174,8196,8193,8171,8212,8177,8146,4.5246100425720215
7,8174,8130,8155,8139,8156,8158,8134,8152,8179,8161,8160,8192,8165,8119,4.532442092895508
8,8196,8136,8167,8139,8125,8181,8113,8175,8160,8144,8168,8215,8178,8100,4.53866982460022
8,8196,8136,8167,8139,8125,8181,8113,8175,8160,8144,8168,8215,8178,8100,4.539669990539551
9,8187,8158,8183,8169,8132,8165,8137,8162,8188,8182,8169,8203,8164,8122,4.5476720333099365
10,8206,8150,8185,8173,8159,8169,8147,8177,8195,8186,8180,8221,8181,8160,4.555671453475952
11,8195,8141,8181,8160,8169,8161,8143,8183,8187,8161,8173,8215,8174,8142,4.563671112060547
12,8179,8154,8182,8173,8170,8158,8161,8160,8207,8175,8168,8190,8152,8128,4.571669578552246
13,8206,8162,8183,8180,8172,8172,8175,8181,8209,8196,8180,8216,8176,8161,4.579669237136841
14,8183,8170,8181,8180,8190,8151,8182,8172,8215,8210,8171,8202,8162,8166,4.587668657302856
15,8190,8169,8177,8176,8191,8171,8171,8177,8221,8206,8167,8207,8160,8145,4.594668626785278
15,8190,8169,8177,8176,8191,8171,8171,8177,8221,8206,8167,8207,8160,8145,4.595669746398926
16,8195,8161,8171,8177,8180,8173,8179,8171,8218,8198,8164,8201,8159,8128,4.60266900062561
17,8186,8156,8172,8184,8175,8162,8193,8151,8218,8195,8169,8182,8152,8136,4.609668493270874
17,8186,8156,8172,8184,8175,8162,8193,8151,8218,8195,8169,8182,8152,8136,4.610669136047363
18,8213,8149,8179,8178,8160,8180,8171,8183,8212,8180,8182,8212,8181,8147,4.618669509887695
19,8196,8145,8180,8173,8169,8159,8167,8178,8218,8193,8174,8198,8173,8144,4.626375675201416
20,8212,8151,8191,8180,8180,8168,8169,8183,8218,8203,8189,8208,8184,8164,4.634530067443848
21,8220,8153,8202,8190,8175,8170,8158,8190,8212,8195,8195,8219,8189,8168,4.642532825469971
22,8198,8157,8205,8202,8175,8159,8161,8167,8208,8191,8180,8205,8170,8160,4.650362014770508
23,8220,8165,8204,8209,8171,8178,8161,8189,8190,8168,8184,8223,8188,8162,4.658360004425049
24,8203,8162,8200,8217,8189,8155,8169,8177,8193,8181,8175,8195,8168,8147,4.665375709533691
25,8200,8150,8190,8208,8191,8166,8166,8172,8191,8190,8172,8193,8161,8138,4.673382997512817
26,8199,8149,8178,8194,8170,8179,8159,8184,8180,8158,8173,8205,8166,8126,4.681375980377197
27,8187,8163,8188,8202,8179,8171,8172,8163,8202,8170,8171,8186,8157,8128,4.689466953277588
28,8220,8155,8195,8202,8184,8187,8165,8176,8210,8193,8186,8211,8184,8153,4.697460651397705
29,8195,8147,8177,8191,8173,8157,8155,8161,8204,8191,8181,8192,8165,8149,4.7054595947265625
30,8183,8146,8171,8177,8160,8159,8145,8160,8195,8180,8178,8180,8158,8134,4.7133753299713135
31,8204,8131,8179,8185,8155,8175,8140,8180,8191,8184,8176,8199,8171,8126,4.721375465393066
32,8193,8124,8183,8206,8172,8156,8164,8162,8209,8201,8173,8189,8155,8132,4.729309320449829
33,8204,8120,8176,8187,8165,8171,8161,8183,8194,8176,8183,8210,8178,8141,4.735844850540161
34,8187,8127,8184,8181,8155,8161,8150,8179,8193,8174,8171,8199,8170,8124,4.743841409683228
35,8203,8149,8202,8195,8154,8166,8150,8167,8213,8197,8178,8204,8161,8129,4.752376079559326
36,8220,8143,8193,8180,8149,8174,8148,8172,8188,8181,8185,8224,8177,8143,4.760375022888184
37,8168,8108,8166,8188,8156,8151,8155,8147,8164,8157,8166,8184,8160,8122,4.768338918685913
38,8171,8093,8150,8190,8143,8169,8149,8173,8159,8132,8164,8184,8172,8095,4.77645206451416
39,8164,8110,8142,8159,8128,8166,8149,8166,8167,8128,8150,8169,8159,8067,4.784457445144653
40,8160,8112,8136,8148,8134,8169,8154,8147,8172,8127,8145,8156,8151,8068,4.79241681098938
41,8188,8106,8143,8149,8150,8177,8150,8180,8167,8122,8159,8180,8175,8089,4.799410581588745
42,8173,8124,8160,8154,8163,8152,8147,8171,8182,8138,8157,8166,8160,8089,4.8073484897613525
43,8185,8124,8159,8161,8140,8177,8130,8174,8182,8138,8157,8174,8165,8086,4.814732313156128
43,8185,8124,8159,8161,8140,8177,8130,8174,8182,8138,8157,8174,8165,8086,4.815732002258301
44,8180,8115,8154,8170,8141,8177,8143,8173,8190,8149,8159,8163,8166,8094,4.823737382888794
45,8175,8122,8160,8166,8165,8165,8155,8161,8197,8162,8170,8162,8165,8114,4.831362009048462
46,8187,8111,8156,8146,8147,8178,8124,8172,8162,8139,8171,8194,8176,8101,4.838878631591797
47,8161,8104,8151,8153,8133,8162,8136,8148,8158,8140,8151,8167,8147,8077,4.847342014312744
48,8183,8112,8155,8154,8142,8174,8155,8163,8170,8146,8162,8179,8164,8093,4.855372667312622
49,8178,8115,8149,8133,8170,8164,8148,8174,8168,8137,8165,8188,8171,8093,4.862372159957886
50,8160,8126,8152,8145,8193,8161,8158,8169,8177,8130,8161,8179,8159,8094,4.870348215103149
51,8185,8134,8160,8166,8179,8187,8161,8195,8179,8122,8171,8201,8180,8105,4.878372430801392
52,8165,8136,8155,8162,8169,8164,8166,8161,8195,8159,8159,8169,8154,8088,4.886372804641724
53,8183,8139,8152,8148,8159,8180,8165,8166,8206,8187,8167,8184,8161,8088,4.894370079040527
54,8193,8145,8159,8156,8158,8182,8160,8184,8199,8174,8172,8198,8176,8093,4.902370452880859
55,8171,8149,8166,8171,8176,8161,8171,8160,8192,8170,8162,8170,8160,8103,4.910356760025024
56,8196,8146,8169,8152,8174,8177,8173,8182,8185,8168,8173,8196,8182,8121,4.91826057434082
57,8178,8140,8163,8147,8176,8157,8163,8168,8184,8172,8168,8180,8168,8107,4.92628026008606
58,8174,8129,8151,8150,8160,8163,8135,8159,8154,8148,8166,8171,8163,8090,4.934690237045288
59,8184,8133,8154,8143,8131,8170,8127,8177,8141,8132,8170,8181,8167,8086,4.941191673278809
60,8174,8148,8167,8156,8138,8160,8136,8154,8157,8147,8168,8172,8152,8090,4.949192523956299
61,8199,8147,8162,8161,8145,8174,8117,8155,8123,8123,8172,8191,8173,8092,4.957374334335327
62,8181,8141,8147,8155,8154,8152,8130,8153,8111,8117,8159,8165,8164,8092,4.965368747711182
63,8181,8141,8154,8155,8161,8160,8145,8172,8134,8141,8170,8170,8169,8108,4.9733734130859375
64,8198,8154,8171,8170,8160,8172,8137,8182,8149,8160,8184,8200,8177,8111,4.981371641159058
65,8187,8167,8177,8187,8168,8161,8146,8156,8171,8189,8176,8181,8155,8110,4.989364862442017
66,8215,8164,8180,8180,8171,8178,8155,8184,8173,8198,8183,8197,8179,8125,4.996365070343018
67,8196,8169,8184,8189,8181,8156,8175,8175,8184,8212,8184,8193,8173,8139,5.004363775253296
68,8192,8176,8191,8197,8176,8163,8174,8161,8188,8215,8190,8200,8165,8154,5.012364387512207
69,8199,8149,8181,8173,8163,8169,8141,8172,8153,8171,8183,8203,8171,8132,5.020387649536133
70,8161,8128,8163,8165,8169,8145,8144,8145,8135,8136,8159,8161,8148,8096,5.028380393981934
71,8188,8141,8167,8174,8152,8181,8158,8169,8134,8130,8165,8187,8167,8101,5.035888910293579
72,8191,8156,8176,8186,8152,8176,8185,8176,8158,8167,8171,8189,8160,8103,5.0438878536224365
73,8182,8154,8176,8194,8175,8163,8200,8165,8182,8188,8182,8176,8158,8109,5.051888465881348
74,8202,8143,8174,8187,8169,8179,8172,8183,8164,8156,8186,8195,8188,8118,5.059729814529419
75,8187,8152,8179,8194,8176,8166,8163,8163,8162,8165,8172,8180,8171,8118,5.067375898361206
76,8206,8170,8188,8202,8181,8176,8163,8179,8176,8189,8186,8204,8183,8140,5.075375556945801
77,8197,8163,8179,8195,8169,8164,8148,8177,8172,8174,8186,8198,8180,8133,5.082934617996216
78,8185,8154,8169,8198,8171,8159,8132,8155,8151,8145,8175,8176,8162,8109,5.090928316116333
78,8185,8154,8169,8198,8171,8159,8132,8155,8151,8145,8175,8176,8162,8109,5.0919272899627686
79,8211,8163,8187,8209,8167,8174,8138,8185,8148,8143,8182,8211,8181,8116,5.099376201629639
80,8189,8180,8206,8219,8170,8156,8170,8175,8187,8180,8182,8206,8168,8131,5.107405662536621
81,8210,8190,8210,8230,8176,8174,8166,8175,8180,8186,8191,8219,8177,8145,5.115408420562744
82,8214,8189,8208,8246,8173,8168,8153,8168,8144,8173,8185,8216,8171,8133,5.123376131057739
83,8187,8175,8204,8242,8166,8155,8138,8144,8129,8164,8177,8191,8151,8116,5.130375623703003
84,8207,8163,8206,8228,8159,8171,8110,8167,8122,8147,8191,8219,8177,8129,5.138476133346558
85,8196,8166,8215,8242,8164,8154,8124,8157,8142,8155,8188,8209,8169,8141,5.146508932113648
86,8209,8166,8225,8252,8149,8170,8132,8170,8146,8161,8202,8216,8177,8148,5.154494524002075
87,8201,8158,8218,8242,8143,8166,8109,8175,8129,8163,8204,8211,8178,8135,5.162427186965942
88,8187,8160,8218,8245,8154,8153,8100,8150,8130,8166,8190,8197,8159,8126,5.170375108718872
89,8218,8154,8228,8249,8134,8174,8100,8171,8131,8142,8200,8235,8176,8134,5.17833948135376
90,8197,8154,8232,8258,8132,8153,8120,8155,8150,8159,8204,8213,8161,8143,5.186375856399536
91,8215,8170,8241,8269,8152,8165,8134,8158,8152,8183,8210,8220,8175,8169,5.193767070770264
92,8229,8179,8246,8279,8164,8171,8126,8173,8123,8155,8204,8237,8185,8168,5.201766729354858
93,8202,8177,8240,8291,8154,8159,8112,8149,8111,8141,8192,8203,8157,8142,5.209375381469727
94,8223,8164,8234,8279,8131,8176,8104,8166,8115,8160,8201,8218,8173,8146,5.217376232147217
95,8207,8161,8239,8277,8148,8150,8135,8161,8134,8185,8194,8217,8163,8159,5.225375413894653
96,8206,8156,8241,8277,8141,8156,8127,8166,8115,8150,8193,8225,8162,8154,5.233250617980957
97,8207,8136,8226,8260,8105,8166,8077,8162,8075,8102,8177,8220,8163,8114,5.241778135299683
98,8187,8135,8228,8255,8118,8153,8081,8129,8083,8120,8169,8194,8149,8109,5.2497923374176025
99,8218,8141,8237,8245,8122,8173,8101,8164,8076,8121,8203,8236,8183,8148,5.256796360015869
99,8218,8141,8237,8245,8122,8173,8101,8164,8076,8121,8203,8236,8183,8148,5.257806062698364
100,8196,8145,8233,8240,8111,8159,8095,8160,8062,8099,8194,8222,8166,8133,5.264371156692505
101,8190,8145,8236,8256,8103,8163,8076,8147,8066,8097,8178,8203,8158,8111,5.272372007369995
102,8211,8131,8246,8250,8084,8168,8074,8165,8068,8117,8193,8220,8180,8133,5.28043007850647
103,8200,8140,8251,8247,8098,8150,8100,8153,8093,8149,8201,8212,8166,8161,5.288432359695435
104,8223,8161,8255,8264,8122,8177,8094,8174,8115,8142,8203,8232,8179,8163,5.296349763870239
105,8203,8163,8254,8274,8125,8166,8091,8157,8128,8142,8193,8208,8158,8143,5.304373025894165
106,8200,8151,8254,8260,8120,8165,8103,8144,8122,8159,8201,8211,8156,8162,5.312366008758545
107,8213,8145,8244,8251,8131,8168,8092,8166,8100,8141,8195,8233,8178,8166,5.320349454879761
108,8180,8151,8234,8256,8127,8143,8087,8143,8112,8129,8175,8191,8152,8126,5.327375411987305
109,8203,8151,8236,8227,8092,8169,8089,8167,8120,8145,8196,8210,8168,8131,5.335643291473389
110,8195,8148,8237,8211,8111,8163,8104,8175,8125,8164,8195,8209,8173,8154,5.343644380569458
111,8183,8150,8234,8246,8150,8163,8112,8166,8141,8157,8188,8196,8172,8158,5.35138201713562
112,8202,8156,8236,8261,8135,8181,8113,8183,8157,8161,8198,8219,8180,8152,5.359057426452637
113,8185,8166,8240,8252,8121,8159,8131,8159,8179,8200,8194,8204,8156,8151,5.367064714431763
114,8201,8156,8234,8217,8118,8171,8120,8168,8157,8185,8193,8211,8171,8156,5.3750598430633545
115,8182,8147,8229,8199,8120,8159,8119,8166,8151,8170,8185,8190,8162,8144,5.383098125457764
116,8176,8154,8234,8222,8121,8161,8128,8161,8176,8189,8195,8202,8163,8158,5.3912739753723145
117,8196,8138,8217,8220,8098,8177,8100,8175,8154,8155,8193,8225,8180,8152,5.398269891738892
118,8151,8119,8195,8200,8098,8152,8084,8135,8123,8108,8162,8165,8141,8102,5.4063756465911865
119,8165,8128,8204,8199,8101,8175,8084,8156,8106,8092,8175,8195,8159,8097,5.414482355117798
120,8170,8138,8208,8204,8097,8173,8100,8169,8108,8108,8182,8215,8160,8103,5.422511577606201
121,8148,8130,8201,8203,8097,8158,8109,8140,8119,8118,8170,8182,8143,8098,5.430532932281494
122,8170,8114,8203,8186,8077,8173,8088,8162,8117,8103,8174,8202,8174,8102,5.437766790390015
122,8170,8114,8203,8186,8077,8173,8088,8162,8117,8103,8174,8202,8174,8102,5.43876576423645
123,8149,8105,8193,8165,8075,8152,8086,8153,8126,8124,8168,8188,8156,8101,5.4457643032073975
123,8149,8105,8193,8165,8075,8152,8086,8153,8126,8124,8168,8188,8156,8101,5.446764945983887
124,8151,8089,8174,8148,8070,8168,8070,8153,8108,8110,8170,8187,8157,8088,5.4533751010894775
125,8147,8085,8170,8150,8053,8168,8057,8152,8093,8068,8163,8175,8158,8056,5.460774898529053
126,8137,8089,8176,8154,8059,8153,8074,8135,8103,8076,8155,8153,8139,8050,5.469643831253052
127,8166,8084,8175,8138,8060,8176,8067,8160,8086,8078,8165,8187,8162,8070,5.47735071182251
241,8142,8093,8174,8147,8060,8160,8064,8144,8094,8075,8161,8172,8154,8071,5.485355615615845
0,8143,8100,8176,8153,8054,8161,8044,8143,8090,8060,8163,8166,8158,8063,5.493348836898804
1,8139,8087,8161,8133,8055,8155,8018,8154,8043,8028,8149,8166,8165,8040,5.501375913619995
2,8114,8089,8158,8130,8060,8145,8044,8138,8038,8021,8137,8154,8153,8032,5.509613275527954
3,8144,8103,8174,8124,8033,8174,8066,8162,8058,8024,8156,8180,8168,8038,5.517612934112549
4,8131,8113,8177,8130,8026,8155,8070,8150,8073,8048,8149,8158,8144,8030,5.524376153945923
5,8146,8116,8187,8146,8041,8162,8073,8153,8084,8072,8155,8174,8159,8057,5.532378196716309
6,8165,8112,8203,8144,8063,8172,8074,8183,8102,8084,8175,8207,8189,8092,5.540354013442993
7,8141,8124,8211,8155,8086,8151,8079,8167,8125,8111,8175,8181,8162,8099,5.547908782958984
8,8169,8145,8211,8162,8080,8169,8080,8180,8120,8121,8181,8198,8172,8103,5.555903196334839
9,8154,8147,8205,8157,8084,8154,8088,8155,8119,8120,8170,8180,8161,8093,5.564343452453613
10,8140,8133,8198,8145,8079,8158,8077,8140,8093,8086,8166,8169,8156,8089,5.571954011917114
11,8144,8124,8181,8130,8048,8166,8066,8170,8064,8052,8164,8186,8169,8077,5.580353736877441
12,8122,8130,8176,8132,8054,8146,8088,8152,8102,8082,8155,8161,8145,8057,5.58739161491394
13,8152,8138,8185,8130,8083,8170,8092,8167,8133,8093,8168,8179,8160,8060,5.595385789871216
14,8152,8155,8184,8140,8109,8162,8116,8180,8145,8104,8171,8182,8164,8075,5.603383541107178
15,8158,8171,8190,8155,8114,8157,8152,8183,8154,8126,8181,8185,8168,8100,5.611448764801025
16,8171,8170,8194,8152,8101,8166,8138,8189,8143,8111,8183,8198,8174,8096,5.619455575942993
17,8149,8179,8199,8162,8110,8154,8127,8152,8160,8122,8169,8169,8150,8091,5.627352714538574
18,8192,8190,8222,8177,8105,8178,8125,8168,8175,8151,8185,8198,8179,8135,5.63649582862854
19,8198,8184,8237,8200,8113,8162,8131,8170,8183,8183,8194,8205,8175,8157,5.643492221832275
20,8190,8188,8238,8220,8149,8154,8134,8154,8197,8199,8198,8201,8161,8163,5.651493787765503
21,8203,8199,8235,8206,8154,8178,8125,8180,8198,8186,8200,8222,8183,8166,5.65849494934082
22,8158,8187,8220,8198,8155,8162,8134,8162,8186,8172,8173,8183,8150,8125,5.666493892669678
23,8160,8164,8200,8199,8138,8173,8127,8160,8150,8127,8160,8180,8143,8092,5.674492835998535
24,8160,8170,8196,8193,8121,8167,8130,8163,8142,8099,8151,8174,8150,8090,5.6824951171875
25,8148,8181,8203,8179,8132,8165,8157,8163,8159,8115,8162,8161,8154,8096,5.690493822097778
26,8162,8167,8198,8161,8135,8182,8158,8189,8152,8122,8181,8191,8177,8091,5.69849419593811
27,8150,8172,8203,8180,8147,8157,8170,8169,8175,8140,8166,8180,8159,8096,5.70649266242981
28,8184,8197,8230,8206,8155,8175,8178,8180,8199,8166,8175,8205,8173,8133,5.714493274688721
29,8187,8201,8241,8211,8149,8181,8175,8183,8201,8190,8187,8217,8172,8150,5.721348285675049
30,8174,8196,8242,8222,8155,8171,8175,8156,8214,8207,8185,8201,8153,8164,5.7297914028167725
31,8210,8207,8245,8233,8173,8184,8163,8179,8214,8207,8194,8230,8181,8187,5.737285852432251
32,8187,8215,8245,8245,8184,8159,8153,8156,8209,8219,8187,8209,8164,8186,5.74528431892395
33,8188,8186,8234,8245,8159,8173,8125,8147,8179,8196,8186,8208,8166,8179,5.75337553024292
34,8184,8168,8209,8231,8139,8174,8116,8159,8145,8157,8176,8201,8174,8152,5.761375427246094
35,8155,8184,8201,8218,8155,8158,8140,8148,8152,8145,8161,8164,8149,8122,5.769392013549805
36,8170,8174,8197,8203,8161,8179,8150,8180,8160,8125,8166,8179,8163,8108,5.777396440505981
37,8151,8153,8192,8195,8160,8154,8168,8173,8175,8134,8152,8161,8157,8097,5.784383058547974
38,8164,8161,8195,8198,8150,8161,8183,8177,8186,8157,8160,8172,8170,8107,5.792364597320557
39,8183,8178,8206,8222,8163,8177,8190,8195,8203,8175,8178,8200,8179,8124,5.800375938415527
40,8175,8187,8228,8246,8187,8167,8197,8165,8224,8198,8179,8189,8157,8144,5.808382034301758
41,8205,8178,8234,8215,8163,8187,8160,8172,8197,8176,8191,8220,8186,8162,5.81635046005249
42,8187,8167,8222,8199,8162,8165,8132,8159,8185,8171,8185,8207,8181,8154,5.824372053146362
43,8193,8173,8234,8232,8175,8173,8131,8163,8193,8200,8194,8210,8175,8165,5.8323814868927
44,8215,8184,8256,8243,8150,8194,8123,8182,8187,8206,8204,8233,8191,8179,5.840402126312256
45,8196,8187,8255,8232,8154,8147,8132,8155,8211,8221,8187,8202,8168,8180,5.847405910491943
46,8211,8173,8233,8217,8168,8105,8150,8180,8222,8220,8183,8210,8172,8176,5.855375528335571
47,8174,8153,8200,8201,8160,8067,8185,8181,8213,8187,8163,8183,8156,8135,5.863398551940918
48,8152,8143,8177,8184,8150,8086,8196,8166,8198,8151,8154,8160,8153,8103,5.871398448944092
49,8171,8142,8178,8167,8153,8105,8183,8183,8183,8138,8158,8174,8172,8096,5.879374742507935
50,8153,8153,8183,8166,8161,8085,8200,8156,8197,8161,8153,8151,8145,8085,5.887352705001831
51,8173,8164,8190,8177,8146,8114,8188,8162,8191,8164,8177,8190,8162,8101,5.895359039306641
52,8176,8179,8211,8204,8148,8108,8156,8162,8171,8172,8190,8210,8174,8134,5.903609752655029
53,8181,8189,8233,8224,8171,8102,8134,8152,8152,8181,8187,8197,8174,8155,5.91139030456543
54,8208,8184,8231,8222,8171,8112,8108,8163,8137,8164,8190,8210,8180,8147,5.9183855056762695
55,8190,8190,8233,8243,8165,8098,8109,8139,8178,8193,8191,8202,8154,8151,5.926375389099121
56,8204,8189,8245,8239,8152,8126,8116,8171,8208,8219,8206,8227,8181,8183,5.934431791305542
57,8185,8164,8221,8192,8146,8116,8116,8183,8196,8195,8178,8194,8176,8149,5.942375421524048
58,8162,8146,8182,8175,8148,8114,8131,8158,8189,8161,8150,8155,8143,8096,5.950465202331543
59,8178,8140,8175,8176,8149,8146,8178,8183,8196,8155,8165,8195,8168,8103,5.958460092544556
60,8158,8147,8181,8176,8174,8127,8225,8172,8206,8176,8166,8178,8165,8121,5.966375350952148
61,8179,8152,8180,8166,8177,8130,8203,8179,8184,8154,8172,8182,8177,8119,5.97437596321106
62,8180,8163,8191,8176,8163,8125,8186,8178,8179,8146,8176,8198,8171,8109,5.981597185134888
63,8176,8194,8218,8217,8166,8124,8202,8150,8199,8185,8182,8200,8160,8135,5.988591432571411
63,8176,8194,8218,8217,8166,8124,8202,8150,8199,8185,8182,8200,8160,8135,5.9895899295806885
64,8214,8209,8231,8232,8177,8145,8172,8166,8175,8196,8201,8231,8190,8169,5.997375726699829
65,8194,8213,8245,8249,8213,8125,8147,8159,8166,8210,8206,8220,8174,8182,6.005163192749023
66,8217,8234,8274,8265,8214,8139,8148,8177,8191,8228,8216,8247,8185,8212,6.013157606124878
67,8237,8249,8271,8259,8193,8140,8160,8185,8222,8243,8207,8250,8186,8219,6.0211920738220215
68,8209,8232,8247,8260,8219,8127,8190,8167,8235,8254,8194,8213,8160,8211,6.029376029968262
69,8210,8207,8229,8249,8232,8147,8202,8195,8217,8230,8196,8231,8180,8201,6.0373311042785645
70,8177,8192,8199,8213,8211,8127,8203,8167,8223,8211,8163,8191,8152,8144,6.044345140457153
71,8170,8169,8172,8181,8176,8138,8201,8155,8221,8193,8150,8174,8146,8104,6.05234432220459
72,8169,8168,8176,8177,8178,8147,8213,8172,8207,8182,8165,8191,8163,8117,6.060715436935425
73,8163,8197,8200,8190,8210,8132,8213,8156,8208,8188,8175,8181,8155,8143,6.068713426589966
74,8204,8203,8217,8213,8208,8153,8171,8172,8193,8182,8191,8214,8175,8151,6.075716018676758
74,8204,8203,8217,8213,8208,8153,8171,8172,8193,8182,8191,8214,8175,8151,6.076714038848877
75,8188,8208,8224,8242,8205,8133,8169,8152,8189,8210,8183,8203,8157,8146,6.084716558456421
76,8199,8236,8238,8244,8203,8139,8176,8144,8174,8224,8196,8207,8165,8176,6.09171462059021
76,8199,8236,8238,8244,8203,8139,8176,8144,8174,8224,8196,8207,8165,8176,6.092714309692383
77,8224,8247,8254,8249,8199,8149,8135,8163,8153,8202,8212,8227,8187,8203,6.100375175476074
78,8204,8238,8263,8255,8211,8135,8108,8145,8177,8214,8203,8211,8155,8192,6.1083385944366455
79,8224,8227,8254,8222,8206,8158,8126,8175,8188,8229,8211,8239,8166,8192,6.1152660846710205
80,8200,8219,8233,8215,8198,8143,8182,8188,8201,8234,8197,8214,8166,8187,6.123296499252319
81,8179,8191,8211,8219,8185,8148,8200,8187,8217,8215,8176,8186,8165,8157,6.131375789642334
82,8171,8155,8173,8166,8165,8159,8174,8195,8202,8168,8157,8186,8168,8099,6.139089822769165
83,8137,8154,8155,8130,8167,8143,8183,8166,8202,8164,8142,8152,8140,8067,6.147104978561401
84,8166,8169,8168,8137,8158,8169,8188,8181,8198,8183,8163,8176,8166,8086,6.155369997024536
85,8164,8170,8177,8156,8151,8154,8171,8167,8190,8192,8164,8175,8164,8088,6.16337513923645
86,8166,8169,8192,8174,8156,8145,8149,8145,8178,8189,8168,8180,8157,8099,6.171686410903931
87,8200,8177,8207,8175,8155,8152,8127,8161,8150,8179,8186,8217,8185,8135,6.177686452865601
87,8200,8177,8207,8175,8155,8152,8127,8161,8150,8179,8186,8217,8185,8135,6.178686618804932
88,8183,8193,8210,8189,8172,8129,8129,8137,8141,8181,8179,8191,8168,8150,6.1857099533081055
88,8183,8193,8210,8189,8172,8129,8129,8137,8141,8181,8179,8191,8168,8150,6.186696529388428
89,8204,8203,8215,8206,8170,8150,8125,8156,8130,8161,8181,8202,8175,8147,6.194079399108887
89,8204,8203,8215,8206,8170,8150,8125,8156,8130,8161,8181,8202,8175,8147,6.194715738296509
90,8208,8204,8223,8202,8169,8147,8144,8167,8142,8164,8175,8206,8164,8140,6.202101469039917
91,8197,8199,8221,8204,8194,8145,8187,8167,8179,8201,8183,8207,8161,8170,6.210821866989136
92,8204,8187,8206,8202,8193,8154,8185,8195,8188,8203,8189,8221,8187,8179,6.217820167541504
92,8204,8187,8206,8202,8193,8154,8185,8195,8188,8203,8189,8221,8187,8179,6.218821048736572
93,8173,8179,8191,8182,8175,8130,8163,8160,8190,8189,8154,8170,8152,8128,6.226375579833984
94,8187,8174,8183,8165,8172,8156,8155,8163,8187,8170,8154,8185,8157,8104,6.234376192092896
94,8187,8174,8183,8165,8172,8156,8155,8163,8187,8170,8154,8185,8157,8104,6.234721183776856
95,8180,8171,8180,8180,8202,8153,8184,8174,8196,8179,8164,8196,8162,8111,6.241374969482422
96,8164,8178,8184,8181,8217,8138,8194,8158,8210,8185,8160,8172,8155,8117,6.249794960021973
97,8186,8179,8181,8155,8187,8156,8158,8175,8195,8152,8163,8189,8180,8105,6.257803678512573
98,8166,8176,8181,8180,8191,8139,8166,8151,8207,8180,8160,8175,8155,8098,6.264803886413574
98,8166,8176,8181,8180,8191,8139,8166,8151,8207,8180,8160,8175,8155,8098,6.265801191329956
99,8189,8187,8197,8208,8207,8151,8187,8160,8219,8219,8181,8204,8169,8140,6.273377895355225
100,8200,8213,8211,8201,8209,8147,8194,8183,8217,8217,8187,8215,8185,8167,6.281375408172607
101,8187,8227,8216,8206,8220,8141,8215,8178,8236,8227,8178,8184,8159,8159,6.289375066757202
102,8207,8201,8209,8195,8215,8169,8234,8199,8259,8246,8187,8202,8166,8162,6.297396898269653
103,8176,8184,8194,8184,8214,8146,8262,8175,8283,8254,8181,8187,8155,8166,6.305392742156982
104,8181,8200,8192,8192,8214,8147,8253,8179,8262,8222,8183,8191,8167,8163,6.312130451202393
105,8190,8212,8195,8194,8205,8151,8229,8185,8239,8213,8179,8195,8163,8138,6.320187330245972
106,8163,8200,8184,8178,8210,8142,8225,8145,8254,8233,8167,8174,8141,8129,6.327977418899536
107,8168,8169,8157,8146,8196,8159,8191,8159,8214,8184,8168,8184,8167,8120,6.336066484451294
108,8147,8166,8143,8140,8180,8138,8172,8148,8184,8155,8150,8151,8147,8078,6.3443756103515625
109,8169,8180,8160,8152,8179,8153,8183,8146,8211,8188,8162,8171,8152,8086,6.352375030517578
110,8182,8168,8167,8155,8188,8158,8187,8167,8225,8197,8175,8202,8177,8117,6.360373497009277
111,8159,8162,8167,8155,8188,8135,8185,8158,8220,8197,8165,8172,8158,8122,6.368334054946899
112,8194,8174,8181,8148,8161,8161,8177,8182,8223,8211,8179,8202,8178,8125,6.375370979309082
113,8176,8171,8179,8154,8158,8149,8192,8165,8244,8231,8173,8190,8159,8120,6.383385419845581
114,8162,8133,8160,8146,8147,8146,8186,8158,8212,8201,8168,8165,8153,8110,6.391385316848755
115,8169,8105,8143,8117,8125,8153,8154,8175,8164,8154,8165,8164,8170,8079,6.399376392364502
116,8148,8124,8141,8112,8146,8140,8160,8143,8174,8175,8153,8145,8150,8060,6.407400131225586
117,8179,8140,8149,8115,8137,8160,8156,8154,8162,8178,8159,8180,8170,8079,6.415399074554443
118,8161,8122,8136,8105,8110,8140,8131,8144,8134,8133,8140,8154,8156,8057,6.423373460769653
119,8143,8097,8116,8089,8125,8143,8108,8133,8123,8098,8134,8129,8142,8014,6.431366205215454
120,8172,8097,8128,8088,8146,8166,8120,8162,8128,8114,8153,8164,8168,8018,6.438332557678223
121,8163,8124,8156,8117,8141,8146,8159,8151,8162,8154,8162,8158,8164,8058,6.446375131607056
122,8186,8142,8162,8126,8118,8156,8155,8179,8183,8152,8180,8186,8187,8088,6.454366207122803
123,8185,8146,8159,8131,8139,8151,8158,8180,8205,8177,8174,8179,8167,8087,6.461763620376587
123,8185,8146,8159,8131,8139,8151,8158,8180,8205,8177,8174,8179,8167,8087,6.462766170501709
124,8178,8145,8169,8159,8158,8156,8169,8159,8209,8208,8175,8170,8151,8098,6.469763994216919
124,8178,8145,8169,8159,8158,8156,8169,8159,8209,8208,8175,8170,8151,8098,6.470763444900513
125,8191,8142,8163,8150,8140,8165,8141,8176,8167,8177,8187,8205,8180,8113,6.477348804473877
125,8191,8142,8163,8150,8140,8165,8141,8176,8167,8177,8187,8205,8180,8113,6.4787678718566895
126,8163,8147,8155,8134,8146,8133,8129,8153,8149,8168,8171,8182,8165,8104,6.486367225646973
127,8179,8142,8158,8134,8151,8156,8128,8161,8148,8175,8174,8188,8174,8097,6.494375705718994
241,8170,8135,8150,8129,8144,8161,8141,8161,8150,8167,8165,8174,8161,8068,6.502348899841309
0,8161,8140,8141,8135,8141,8156,8166,8146,8154,8159,8159,8154,8144,8054,6.509375333786011
1,8184,8133,8140,8125,8133,8163,8171,8167,8145,8151,8170,8176,8168,8065,6.5173749923706055
2,8148,8117,8130,8098,8142,8140,8183,8153,8156,8168,8156,8146,8154,8056,6.525373935699463
3,8162,8104,8118,8089,8141,8164,8181,8172,8167,8166,8165,8161,8174,8055,6.533373594284058
4,8168,8101,8116,8107,8143,8161,8173,8182,8182,8161,8163,8163,8168,8040,6.540884494781494
4,8168,8101,8116,8107,8143,8161,8173,8182,8182,8161,8163,8163,8168,8040,6.5418853759765625
5,8158,8120,8117,8126,8155,8144,8178,8165,8205,8193,8159,8152,8144,8041,6.548892259597778
5,8158,8120,8117,8126,8155,8144,8178,8165,8205,8193,8159,8152,8144,8041,6.5498926639556885
6,8189,8142,8109,8128,8147,8166,8172,8188,8195,8208,8182,8195,8176,8075,6.556891918182373
7,8170,8148,8118,8144,8168,8149,8169,8164,8185,8211,8180,8177,8165,8094,6.564891576766968
7,8170,8148,8118,8144,8168,8149,8169,8164,8185,8211,8180,8177,8165,8094,6.56589674949646
8,8184,8151,8153,8153,8184,8165,8148,8167,8166,8196,8187,8195,8179,8111,6.572083234786987
9,8189,8158,8167,8152,8166,8159,8128,8174,8142,8189,8184,8207,8182,8110,6.580364227294922
10,8168,8166,8172,8161,8168,8140,8140,8148,8147,8199,8173,8168,8149,8096,6.588364839553833
11,8198,8163,8182,8152,8180,8171,8142,8179,8153,8185,8181,8185,8168,8087,6.596646547317505
12,8176,8153,8169,8142,8185,8159,8159,8161,8178,8198,8165,8160,8156,8077,6.604648113250732
13,8171,8134,8152,8131,8168,8163,8175,8153,8185,8207,8157,8152,8158,8084,6.612646579742432
14,8175,8116,8148,8120,8161,8168,8184,8180,8167,8179,8156,8164,8175,8074,6.620375394821167
15,8151,8125,8143,8124,8177,8151,8201,8163,8170,8164,8150,8130,8152,8050,6.628421068191528
16,8175,8139,8152,8117,8179,8171,8189,8183,8166,8156,8166,8148,8171,8057,6.6359543800354
17,8166,8140,8167,8126,8181,8153,8189,8185,8178,8176,8167,8151,8169,8068,6.643375635147095
18,8179,8150,8182,8156,8173,8157,8196,8182,8202,8210,8181,8164,8168,8095,6.6513752937316895
19,8201,8179,8198,8172,8167,8164,8178,8176,8192,8219,8194,8182,8174,8118,6.659465551376343
20,8183,8208,8210,8192,8190,8147,8173,8135,8172,8211,8181,8159,8150,8122,6.667375802993774
21,8215,8208,8218,8208,8204,8174,8168,8164,8153,8191,8196,8196,8180,8145,6.675365447998047
22,8208,8197,8217,8206,8214,8155,8159,8162,8144,8192,8193,8186,8174,8153,6.683375358581543
23,8195,8184,8206,8186,8209,8149,8135,8143,8116,8179,8178,8164,8157,8129,6.6913769245147705
24,8196,8168,8180,8156,8181,8169,8130,8172,8116,8155,8172,8174,8170,8091,6.699733734130859
25,8160,8156,8155,8148,8183,8157,8185,8158,8199,8192,8157,8127,8139,8071,6.706733703613281
26,8179,8133,8142,8126,8175,8173,8203,8173,8221,8202,8167,8135,8164,8079,6.714348554611206
27,8166,8120,8132,8105,8153,8153,8187,8175,8187,8179,8156,8129,8173,8058,6.7227654457092285
28,8154,8134,8138,8118,8161,8152,8195,8168,8211,8196,8150,8122,8154,8051,6.729766607284546
28,8154,8134,8138,8118,8161,8152,8195,8168,8211,8196,8150,8122,8154,8051,6.730767250061035
29,8179,8141,8144,8130,8180,8172,8205,8192,8236,8219,8174,8163,8177,8072,6.738273859024048
30,8158,8137,8145,8130,8193,8146,8194,8164,8217,8222,8178,8146,8169,8081,6.746275424957275
31,8180,8143,8155,8134,8172,8156,8153,8168,8166,8193,8182,8160,8177,8092,6.754275560379028
32,8187,8173,8177,8174,8171,8144,8138,8156,8146,8184,8171,8167,8156,8096,6.762274026870728
33,8201,8204,8215,8215,8202,8148,8144,8144,8152,8203,8187,8188,8156,8123,6.77027440071106
34,8241,8213,8241,8217,8202,8168,8142,8167,8139,8214,8207,8214,8178,8157,6.777274131774902
35,8226,8216,8234,8220,8204,8146,8164,8143,8139,8241,8187,8175,8144,8167,6.785274505615234
36,8235,8197,8214,8211,8196,8168,8174,8173,8149,8247,8195,8201,8176,8172,6.793173313140869
37,8199,8154,8184,8178,8192,8157,8176,8179,8173,8229,8179,8170,8170,8130,6.801172733306885
38,8167,8123,8151,8141,8196,8146,8168,8152,8178,8192,8157,8121,8142,8085,6.809350728988648
39,8188,8103,8133,8110,8167,8169,8153,8180,8153,8163,8164,8151,8173,8073,6.8173768520355225
40,8156,8093,8130,8123,8164,8150,8177,8168,8173,8193,8163,8122,8157,8061,6.825388669967651
41,8170,8096,8133,8134,8181,8166,8180,8179,8178,8195,8172,8133,8170,8062,6.832388877868652
42,8171,8100,8134,8122,8192,8161,8162,8177,8152,8172,8155,8142,8169,8051,6.840343713760376
43,8160,8108,8146,8128,8193,8158,8155,8149,8146,8176,8154,8128,8148,8051,6.848348140716553
44,8187,8113,8159,8147,8178,8182,8139,8165,8135,8162,8180,8156,8165,8062,6.856349468231201
45,8155,8114,8159,8156,8174,8150,8138,8143,8141,8158,8166,8133,8147,8054,6.864375114440918
46,8163,8109,8155,8134,8155,8161,8132,8153,8124,8164,8161,8144,8163,8066,6.872374534606934
47,8178,8108,8147,8113,8146,8170,8140,8175,8105,8176,8157,8144,8164,8071,6.8803486824035645
48,8169,8117,8161,8126,8164,8158,8185,8161,8137,8193,8156,8126,8147,8082,6.888374328613281
49,8201,8118,8179,8146,8160,8173,8193,8184,8149,8175,8179,8163,8181,8102,6.896367073059082
50,8173,8116,8159,8148,8158,8148,8178,8165,8140,8170,8164,8135,8161,8087,6.903366088867188
51,8174,8113,8150,8132,8155,8163,8173,8169,8133,8179,8167,8143,8158,8084,6.911372184753418
52,8189,8112,8164,8125,8151,8176,8180,8181,8136,8184,8177,8160,8166,8086,6.919008493423462
53,8168,8118,8165,8135,8169,8151,8197,8145,8141,8199,8175,8125,8148,8086,6.927000999450684
54,8192,8110,8160,8128,8166,8171,8181,8169,8116,8193,8190,8157,8182,8109,6.935356855392456
55,8171,8099,8159,8137,8161,8156,8162,8173,8125,8197,8181,8149,8166,8108,6.943560361862183
56,8169,8111,8160,8140,8163,8157,8152,8176,8157,8197,8177,8145,8161,8102,6.951342105865479
57,8184,8101,8149,8097,8145,8162,8143,8190,8160,8176,8167,8154,8177,8089,6.959345817565918
58,8153,8074,8142,8107,8129,8144,8161,8160,8165,8178,8150,8119,8150,8068,6.966347217559815
59,8172,8076,8149,8124,8130,8171,8173,8185,8171,8186,8170,8143,8162,8070,6.974348545074463
60,8160,8095,8153,8094,8145,8163,8193,8180,8200,8207,8165,8131,8150,8070,6.982375144958496
61,8151,8099,8147,8098,8136,8169,8199,8158,8216,8209,8159,8115,8148,8074,6.990373849868774
62,8166,8097,8134,8118,8129,8175,8176,8171,8172,8180,8164,8133,8166,8072,6.9984235763549805
63,8152,8107,8138,8106,8156,8144,8183,8154,8146,8182,8161,8119,8151,8080,7.006423473358154
64,8187,8109,8165,8094,8159,8167,8185,8171,8146,8185,8181,8158,8179,8111,7.014368057250977
65,8174,8113,8173,8129,8164,8162,8171,8166,8159,8194,8176,8154,8167,8108,7.022376775741577
66,8161,8126,8167,8142,8181,8156,8149,8160,8182,8213,8170,8138,8154,8098,7.030381917953491
67,8182,8124,8159,8107,8154,8171,8135,8189,8186,8203,8170,8154,8171,8083,7.037350177764893
68,8153,8113,8148,8106,8125,8161,8163,8163,8181,8193,8147,8116,8139,8053,7.045374155044556
69,8165,8100,8140,8118,8133,8186,8176,8178,8162,8177,8157,8131,8157,8053,7.0533740520477295
70,8162,8106,8141,8109,8162,8170,8184,8187,8169,8187,8167,8134,8171,8067,7.061372041702271
71,8156,8114,8146,8099,8160,8158,8193,8171,8176,8203,8169,8124,8163,8083,7.06936502456665
72,8177,8100,8140,8100,8129,8174,8168,8188,8134,8161,8170,8146,8179,8083,7.077364921569824
73,8151,8099,8143,8122,8143,8148,8147,8156,8115,8135,8158,8125,8157,8071,7.085373401641846
74,8173,8106,8159,8128,8135,8164,8114,8152,8096,8130,8168,8150,8167,8081,7.093270778656006
75,8175,8115,8159,8116,8112,8162,8095,8154,8083,8133,8162,8152,8163,8076,7.100277423858643
76,8158,8126,8155,8128,8129,8155,8098,8142,8109,8155,8161,8131,8150,8074,7.108277320861816
77,8181,8118,8154,8152,8127,8178,8084,8167,8124,8161,8175,8157,8174,8083,7.116277933120728
78,8159,8118,8155,8144,8125,8158,8095,8149,8151,8173,8158,8132,8148,8073,7.124285936355591
79,8162,8119,8154,8105,8134,8170,8099,8162,8158,8168,8163,8139,8161,8072,7.132284641265869
80,8156,8101,8141,8100,8148,8165,8107,8177,8152,8163,8165,8136,8171,8062,7.140313625335693
81,8141,8092,8139,8121,8147,8153,8140,8156,8163,8178,8159,8111,8152,8053,7.148603200912476
82,8170,8092,8147,8101,8117,8176,8137,8181,8150,8151,8165,8143,8174,8055,7.156603813171387
83,8143,8097,8147,8099,8120,8152,8126,8162,8151,8124,8150,8128,8151,8049,7.163603067398071
84,8147,8108,8150,8116,8127,8164,8115,8154,8145,8107,8157,8140,8159,8065,7.171602249145508
85,8155,8113,8147,8111,8116,8170,8102,8158,8114,8094,8162,8156,8172,8066,7.179602384567261
86,8138,8123,8150,8121,8117,8147,8099,8136,8105,8110,8161,8134,8153,8060,7.187602996826172
87,8162,8127,8154,8129,8107,8163,8081,8159,8098,8108,8172,8161,8179,8071,7.195603370666504
88,8135,8116,8143,8115,8114,8146,8074,8144,8103,8113,8159,8139,8163,8063,7.20360279083252
89,8137,8106,8142,8103,8125,8154,8070,8149,8109,8127,8168,8137,8161,8065,7.2103590965271
90,8147,8119,8147,8116,8112,8167,8069,8174,8119,8126,8171,8147,8166,8057,7.219375610351562
91,8118,8138,8142,8137,8112,8157,8090,8155,8163,8152,8155,8119,8141,8038,7.227377653121948
92,8144,8129,8135,8119,8124,8178,8099,8186,8186,8172,8170,8141,8163,8044,7.234377861022949
93,8133,8117,8125,8098,8128,8157,8117,8176,8187,8166,8169,8123,8149,8037,7.242756366729736
94,8130,8123,8124,8097,8103,8156,8120,8155,8170,8138,8168,8119,8141,8032,7.249758958816528
94,8130,8123,8124,8097,8103,8156,8120,8155,8170,8138,8168,8119,8141,8032,7.2507643699646
95,8140,8121,8127,8089,8082,8165,8085,8162,8129,8115,8161,8136,8157,8025,7.25776481628418
95,8140,8121,8127,8089,8082,8165,8085,8162,8129,8115,8161,8136,8157,8025,7.258763790130615
96,8107,8109,8125,8087,8096,8149,8062,8125,8083,8106,8140,8108,8137,8013,7.26576566696167
96,8107,8109,8125,8087,8096,8149,8062,8125,8083,8106,8140,8108,8137,8013,7.266763925552368
97,8135,8110,8130,8093,8093,8173,8053,8136,8038,8070,8154,8144,8159,8026,7.273764610290527
97,8135,8110,8130,8093,8093,8173,8053,8136,8038,8070,8154,8144,8159,8026,7.2747642993927
98,8140,8122,8141,8100,8097,8154,8065,8145,8039,8069,8159,8151,8161,8043,7.281860828399658
98,8140,8122,8141,8100,8097,8154,8065,8145,8039,8069,8159,8151,8161,8043,7.28286075592041
99,8135,8122,8154,8109,8104,8147,8054,8139,8049,8100,8167,8144,8162,8058,7.288908958435059
99,8135,8122,8154,8109,8104,8147,8054,8139,8049,8100,8167,8144,8162,8058,7.289857864379883
100,8152,8113,8156,8116,8091,8161,8020,8151,8046,8102,8178,8159,8174,8057,7.297381401062012
101,8135,8124,8158,8138,8106,8143,8031,8135,8090,8111,8162,8127,8141,8046,7.305276393890381
102,8156,8126,8154,8146,8114,8172,8050,8162,8116,8116,8159,8144,8155,8046,7.313270330429077
103,8142,8114,8148,8140,8121,8169,8075,8169,8132,8127,8157,8143,8160,8043,7.321458578109741
104,8135,8117,8168,8147,8146,8161,8101,8164,8163,8137,8165,8137,8155,8058,7.329463243484497
105,8153,8111,8164,8142,8142,8168,8083,8178,8138,8100,8158,8146,8164,8042,7.33738112449646
106,8121,8100,8145,8141,8126,8149,8071,8138,8121,8080,8135,8103,8135,8000,7.345038890838623
107,8150,8107,8167,8153,8107,8176,8076,8147,8124,8085,8161,8140,8160,8025,7.353039264678955
108,8153,8124,8183,8169,8114,8165,8075,8153,8098,8091,8172,8155,8164,8051,7.360048294067383
109,8133,8129,8167,8181,8141,8149,8061,8131,8063,8085,8161,8129,8151,8045,7.368076324462891
110,8164,8121,8165,8182,8127,8169,8054,8159,8056,8074,8164,8159,8179,8050,7.376381635665893
111,8147,8124,8178,8185,8118,8146,8070,8148,8081,8085,8153,8144,8155,8052,7.38438081741333
112,8161,8126,8178,8174,8122,8158,8062,8157,8092,8076,8164,8148,8161,8054,7.392381429672241
113,8166,8130,8173,8171,8115,8160,8073,8173,8134,8099,8171,8156,8168,8059,7.400512218475342
114,8151,8139,8176,8191,8112,8157,8118,8169,8189,8156,8168,8148,8148,8079,7.40850043296814
115,8169,8128,8172,8186,8130,8174,8120,8194,8168,8142,8172,8166,8168,8085,7.416505575180054
116,8144,8124,8160,8171,8161,8148,8113,8165,8137,8109,8156,8133,8155,8058,7.423366546630859
117,8157,8142,8163,8171,8145,8162,8112,8160,8133,8100,8161,8144,8157,8054,7.431367635726929
118,8167,8145,8169,8184,8125,8168,8105,8158,8138,8101,8166,8159,8154,8055,7.439381122589111
119,8151,8142,8174,8200,8139,8151,8106,8125,8127,8117,8161,8142,8139,8065,7.447381496429443
120,8178,8143,8181,8199,8142,8173,8103,8158,8086,8110,8173,8172,8174,8095,7.454762935638428
120,8178,8143,8181,8199,8142,8173,8103,8158,8086,8110,8173,8172,8174,8095,7.455761671066284
121,8159,8148,8188,8193,8155,8154,8113,8154,8095,8109,8172,8149,8160,8092,7.463761806488037
122,8171,8161,8188,8186,8153,8160,8108,8149,8114,8119,8175,8147,8152,8087,7.470772743225098
122,8171,8161,8188,8186,8153,8160,8108,8149,8114,8119,8175,8147,8152,8087,7.47177791595459
123,8186,8163,8181,8196,8139,8167,8107,8168,8109,8136,8172,8162,8162,8088,7.479456901550293
124,8159,8150,8179,8213,8140,8149,8137,8160,8145,8162,8163,8137,8150,8091,7.486456871032715
125,8175,8133,8175,8181,8138,8172,8130,8186,8167,8147,8173,8157,8173,8095,7.49451756477356
126,8157,8129,8168,8171,8162,8159,8118,8173,8157,8139,8159,8140,8152,8073,7.50237250328064
127,8165,8135,8179,8196,8171,8166,8130,8169,8149,8145,8162,8143,8149,8072,7.510371685028076
241,8185,8141,8175,8174,8131,8176,8141,8184,8145,8134,8165,8161,8166,8072,7.518381118774414
0,8152,8140,8160,8169,8139,8156,8142,8141,8151,8141,8144,8132,8138,8057,7.526390075683594
1,8168,8132,8168,8192,8170,8174,8129,8150,8132,8131,8155,8159,8160,8071,7.534395694732666
2,8157,8143,8169,8187,8169,8161,8145,8159,8121,8122,8157,8151,8156,8077,7.542407751083374
3,8151,8152,8159,8174,8166,8161,8156,8156,8129,8117,8154,8136,8151,8068,7.550329446792602
4,8172,8143,8164,8170,8177,8173,8145,8174,8144,8125,8157,8147,8166,8058,7.557342290878296
5,8158,8155,8180,8186,8187,8158,8164,8162,8186,8181,8164,8131,8144,8068,7.5653791427612305
6,8180,8170,8185,8194,8175,8182,8163,8182,8192,8194,8178,8163,8165,8090,7.5733802318573
7,8166,8167,8175,8189,8193,8167,8158,8174,8192,8175,8161,8151,8166,8084,7.581381320953369
8,8166,8163,8173,8178,8205,8160,8177,8169,8214,8185,8162,8133,8162,8090,7.589352369308472
9,8186,8153,8172,8167,8171,8177,8178,8199,8209,8181,8178,8156,8177,8098,7.597341775894165
10,8155,8151,8178,8186,8184,8155,8183,8169,8195,8184,8165,8140,8154,8097,7.605339527130127
11,8181,8167,8201,8201,8205,8172,8178,8175,8178,8178,8172,8172,8171,8111,7.613382816314697
12,8185,8181,8205,8205,8187,8165,8178,8174,8185,8172,8167,8169,8161,8102,7.620049953460693
13,8167,8169,8187,8200,8182,8159,8197,8144,8184,8166,8154,8138,8141,8092,7.628062725067139
14,8175,8146,8168,8176,8201,8181,8198,8162,8143,8135,8158,8156,8170,8089,7.636584997177124
15,8144,8146,8159,8162,8211,8159,8187,8154,8145,8132,8143,8130,8151,8064,7.644380569458008
16,8165,8156,8165,8167,8185,8171,8163,8163,8154,8137,8153,8146,8155,8060,7.652075052261352
17,8172,8160,8172,8187,8178,8166,8164,8158,8150,8147,8161,8158,8163,8068,7.660168647766113
18,8159,8159,8175,8195,8198,8158,8181,8146,8178,8168,8157,8137,8155,8078,7.667884826660156
18,8159,8159,8175,8195,8198,8158,8181,8146,8178,8168,8157,8137,8155,8078,7.668885946273804
19,8187,8163,8179,8183,8199,8182,8172,8189,8211,8183,8178,8158,8181,8101,7.67588472366333
20,8172,8178,8194,8198,8214,8158,8193,8186,8240,8214,8183,8143,8165,8115,7.684130430221558
21,8183,8180,8207,8213,8210,8168,8212,8191,8231,8212,8181,8163,8168,8121,7.691130638122559
22,8179,8178,8197,8203,8181,8175,8205,8186,8212,8191,8169,8168,8161,8104,7.6993818283081055
23,8157,8177,8189,8199,8178,8168,8198,8150,8210,8186,8168,8145,8141,8092,7.707146644592285
24,8173,8151,8172,8179,8179,8183,8179,8164,8169,8152,8173,8167,8167,8088,7.715140342712402
25,8137,8128,8148,8157,8184,8155,8175,8146,8135,8120,8144,8137,8148,8062,7.723370552062988
26,8141,8139,8147,8158,8180,8167,8164,8151,8132,8102,8149,8137,8154,8051,7.731075048446655
27,8152,8150,8149,8170,8169,8178,8151,8165,8144,8114,8160,8149,8163,8040,7.739591360092163
28,8143,8154,8160,8188,8183,8165,8165,8142,8162,8156,8155,8137,8142,8051,7.747591972351074
29,8182,8161,8179,8181,8190,8180,8176,8174,8157,8165,8175,8177,8175,8094,7.754352331161499
30,8165,8170,8178,8177,8199,8152,8175,8171,8160,8174,8174,8158,8169,8098,7.762378692626953
31,8169,8180,8182,8204,8207,8161,8150,8164,8168,8188,8178,8160,8169,8098,7.770862579345703
32,8190,8190,8198,8227,8195,8176,8151,8189,8182,8191,8181,8187,8181,8108,7.777861356735229
32,8190,8190,8198,8227,8195,8176,8151,8189,8182,8191,8181,8187,8181,8108,7.778860807418823
33,8170,8195,8208,8221,8179,8159,8204,8176,8212,8207,8170,8166,8151,8112,7.786370515823364
34,8193,8183,8209,8196,8185,8178,8228,8185,8197,8196,8178,8182,8167,8126,7.794144868850708
35,8178,8180,8200,8207,8228,8158,8234,8166,8182,8180,8171,8167,8166,8128,7.802151918411255
36,8164,8179,8183,8215,8220,8160,8205,8153,8172,8154,8164,8156,8161,8108,7.810351133346558
37,8166,8170,8174,8198,8187,8176,8169,8168,8153,8141,8159,8170,8167,8084,7.817375659942627
38,8151,8191,8191,8209,8213,8163,8205,8149,8178,8190,8154,8153,8149,8100,7.8253843784332275
39,8180,8203,8194,8199,8217,8181,8216,8170,8184,8205,8171,8179,8170,8124,7.833385229110718
40,8170,8199,8183,8191,8224,8164,8190,8168,8179,8202,8162,8172,8161,8108,7.840893507003784
41,8178,8206,8206,8229,8244,8167,8191,8163,8207,8229,8169,8179,8160,8121,7.848893165588379
42,8189,8193,8211,8222,8222,8182,8190,8182,8215,8230,8182,8199,8175,8140,7.856893062591553
43,8148,8174,8192,8191,8215,8157,8189,8159,8206,8216,8165,8154,8146,8124,7.864892959594727
44,8179,8186,8197,8196,8223,8176,8216,8196,8215,8221,8179,8175,8173,8132,7.872895240783691
45,8176,8197,8201,8201,8226,8172,8256,8204,8248,8239,8180,8180,8171,8135,7.880893230438232
46,8154,8191,8191,8184,8219,8168,8242,8169,8245,8230,8165,8158,8147,8118,7.887892961502075
46,8154,8191,8191,8184,8219,8168,8242,8169,8245,8230,8165,8158,8147,8118,7.888893842697143
47,8177,8190,8189,8181,8205,8183,8215,8183,8221,8213,8170,8181,8170,8115,7.895893335342407
48,8159,8192,8192,8210,8230,8167,8245,8162,8241,8233,8163,8162,8154,8119,7.9038941860198975
49,8182,8189,8203,8221,8264,8189,8262,8172,8256,8234,8177,8189,8167,8141,7.91237998008728
50,8193,8206,8229,8227,8277,8180,8265,8180,8267,8243,8189,8206,8173,8162,7.920155525207519
51,8185,8221,8239,8236,8264,8171,8264,8158,8273,8265,8189,8192,8164,8179,7.928170204162598
52,8203,8206,8219,8227,8242,8187,8233,8175,8248,8248,8188,8206,8188,8185,7.936379432678223
53,8188,8215,8220,8230,8264,8159,8226,8162,8257,8266,8174,8182,8167,8183,7.944246292114258
54,8211,8240,8236,8235,8285,8175,8237,8182,8270,8285,8185,8201,8179,8201,7.951256513595581
55,8205,8233,8217,8225,8278,8180,8254,8197,8272,8251,8175,8193,8180,8186,7.959457635879517
56,8179,8215,8199,8211,8266,8169,8281,8174,8279,8224,8154,8152,8153,8152,7.967153549194336
57,8201,8206,8201,8189,8245,8185,8273,8189,8244,8224,8165,8184,8176,8143,7.975149631500244
58,8174,8202,8201,8187,8245,8166,8260,8156,8215,8240,8156,8167,8156,8131,7.983380317687988
59,8182,8187,8199,8192,8243,8181,8257,8156,8211,8222,8164,8168,8163,8141,7.991482973098755
60,8191,8178,8188,8184,8244,8182,8257,8185,8217,8192,8168,8184,8185,8143,7.9994964599609375
61,8155,8181,8173,8177,8251,8159,8257,8158,8234,8214,8146,8150,8152,8119,8.00748348236084
62,8170,8172,8170,8158,8220,8189,8236,8172,8219,8233,8157,8169,8163,8113,8.015349388122559
63,8164,8172,8177,8153,8215,8174,8227,8166,8207,8211,8164,8165,8167,8125,8.02259612083435
64,8171,8182,8172,8168,8223,8169,8208,8165,8202,8173,8160,8160,8171,8134,8.030595302581787
65,8173,8164,8151,8160,8196,8178,8191,8183,8208,8188,8148,8163,8167,8105,8.0383460521698
66,8143,8152,8138,8124,8181,8164,8228,8158,8223,8226,8137,8124,8144,8084,8.046380043029785
67,8163,8155,8137,8095,8190,8179,8250,8178,8198,8184,8153,8154,8181,8103,8.054353952407837
68,8148,8153,8138,8128,8210,8166,8254,8177,8209,8175,8144,8151,8165,8093,8.062033653259277
69,8153,8158,8149,8164,8214,8178,8244,8163,8239,8220,8143,8135,8148,8085,8.070033073425293
70,8167,8158,8150,8130,8205,8183,8223,8168,8218,8219,8154,8150,8169,8092,8.078020334243774
71,8131,8144,8141,8118,8202,8152,8217,8139,8204,8203,8144,8132,8152,8085,8.085381507873535
72,8154,8144,8149,8145,8193,8173,8192,8165,8189,8173,8161,8164,8180,8090,8.093389987945557
73,8156,8177,8167,8153,8203,8163,8182,8165,8178,8169,8163,8154,8169,8088,8.101478815078735
74,8159,8190,8172,8155,8214,8166,8187,8150,8180,8188,8158,8148,8148,8096,8.109476327896118
75,8180,8174,8163,8166,8209,8179,8177,8169,8179,8189,8171,8185,8175,8115,8.11747694015503
76,8161,8177,8168,8177,8232,8157,8184,8157,8193,8211,8170,8162,8167,8126,8.125516414642334
77,8187,8184,8174,8162,8230,8185,8183,8188,8190,8206,8172,8177,8175,8126,8.133375644683838
78,8166,8171,8148,8144,8194,8183,8188,8175,8181,8192,8149,8152,8154,8084,8.141442775726318
79,8142,8149,8126,8122,8176,8174,8196,8144,8176,8190,8142,8127,8144,8064,8.149442434310913
80,8166,8135,8130,8102,8175,8184,8190,8176,8156,8164,8163,8171,8180,8090,8.15644121170044
81,8145,8146,8140,8129,8192,8154,8205,8154,8157,8169,8154,8150,8153,8102,8.16444182395935
82,8168,8163,8147,8139,8188,8175,8200,8165,8144,8159,8162,8169,8168,8116,8.172376155853271
83,8164,8171,8144,8123,8191,8171,8188,8182,8129,8135,8157,8177,8175,8107,8.180463314056396
84,8145,8188,8141,8147,8214,8156,8205,8156,8150,8164,8150,8137,8143,8090,8.188123941421509
85,8186,8197,8148,8162,8205,8187,8210,8183,8166,8185,8172,8181,8183,8104,8.196132898330688
86,8162,8186,8145,8151,8213,8160,8221,8168,8177,8181,8148,8158,8162,8107,8.204378366470337
87,8162,8185,8140,8137,8218,8164,8222,8170,8177,8188,8152,8145,8153,8111,8.211071491241455
88,8177,8206,8144,8135,8200,8178,8219,8191,8182,8205,8175,8169,8173,8107,8.219073295593262
89,8151,8201,8145,8143,8205,8164,8239,8166,8210,8202,8154,8136,8146,8095,8.227370262145996
90,8169,8175,8149,8147,8207,8180,8255,8186,8222,8200,8162,8164,8169,8109,8.235303163528442
91,8161,8179,8154,8151,8215,8162,8264,8166,8232,8231,8162,8161,8155,8116,8.243366241455078
92,8161,8183,8142,8128,8212,8166,8240,8155,8206,8211,8156,8151,8152,8116,8.251357316970825
93,8158,8164,8124,8112,8200,8164,8217,8176,8173,8173,8156,8150,8166,8096,8.259203910827637
94,8143,8167,8127,8138,8201,8156,8232,8156,8193,8183,8149,8122,8141,8080,8.267372608184814
95,8169,8175,8136,8138,8196,8185,8229,8169,8195,8174,8160,8159,8164,8093,8.275373697280884
96,8138,8168,8125,8117,8213,8159,8232,8152,8181,8176,8148,8140,8154,8084,8.2823486328125
97,8148,8169,8127,8127,8212,8166,8231,8163,8173,8178,8158,8146,8160,8082,8.290348529815674
98,8168,8169,8140,8141,8188,8177,8223,8180,8187,8183,8162,8167,8166,8080,8.298367738723755
99,8146,8165,8135,8131,8194,8159,8238,8140,8212,8209,8144,8128,8143,8076,8.30637240409851
100,8175,8163,8127,8117,8201,8179,8234,8178,8187,8184,8165,8171,8190,8102,8.314719200134277
101,8159,8174,8138,8138,8207,8159,8233,8184,8181,8166,8164,8169,8174,8106,8.322006702423096
102,8170,8197,8160,8168,8206,8175,8238,8171,8212,8206,8167,8165,8156,8111,8.329999208450317
103,8192,8197,8155,8159,8204,8193,8235,8176,8221,8230,8172,8182,8175,8120,8.338353157043457
104,8153,8174,8135,8146,8219,8162,8240,8154,8211,8195,8158,8144,8156,8121,8.346354246139526
105,8161,8151,8126,8135,8209,8172,8215,8178,8167,8154,8162,8165,8177,8116,8.353357315063477
106,8150,8152,8134,8139,8194,8159,8201,8153,8148,8188,8147,8151,8159,8083,8.361376285552979
107,8165,8172,8158,8155,8191,8170,8213,8148,8167,8209,8164,8162,8161,8097,8.369354009628296
108,8190,8179,8165,8173,8188,8178,8216,8186,8183,8182,8180,8190,8177,8126,8.37734317779541
109,8163,8185,8163,8178,8195,8153,8224,8147,8198,8212,8162,8148,8138,8119,8.385375022888184
110,8190,8192,8172,8143,8185,8184,8223,8165,8179,8229,8187,8192,8177,8136,8.393375635147095
111,8189,8192,8177,8143,8184,8168,8231,8181,8176,8195,8186,8196,8181,8153,8.401210069656372
112,8205,8180,8176,8173,8197,8161,8229,8169,8203,8207,8176,8180,8164,8149,8.408210277557373
113,8248,8172,8173,8165,8187,8179,8211,8174,8204,8252,8189,8209,8177,8128,8.416210412979126
114,8228,8182,8165,8148,8181,8156,8216,8142,8196,8252,8187,8174,8144,8122,8.424376487731934
115,8252,8169,8157,8124,8172,8171,8198,8168,8162,8199,8196,8192,8169,8141,8.432374954223633
116,8247,8152,8143,8106,8175,8161,8186,8168,8152,8194,8172,8180,8165,8109,8.440482139587402
117,8232,8150,8134,8108,8165,8164,8192,8143,8170,8210,8163,8154,8142,8077,8.448474884033203
117,8232,8150,8134,8108,8165,8164,8192,8143,8170,8210,8163,8154,8142,8077,8.448909044265747
118,8249,8141,8136,8119,8146,8186,8198,8179,8158,8166,8184,8180,8171,8098,8.456066846847534
119,8211,8151,8139,8134,8189,8153,8224,8167,8162,8168,8173,8150,8148,8110,8.464076042175293
120,8223,8164,8140,8128,8201,8172,8212,8178,8165,8187,8176,8170,8160,8098,8.472078800201416
120,8223,8164,8140,8128,8201,8172,8212,8178,8165,8187,8176,8170,8160,8098,8.473079204559326
121,8224,8159,8142,8123,8177,8174,8206,8170,8174,8197,8170,8170,8165,8086,8.479089736938477
122,8210,8172,8155,8148,8190,8167,8245,8152,8192,8220,8177,8161,8160,8125,8.487370014190674
123,8226,8177,8153,8146,8194,8193,8238,8196,8181,8210,8187,8199,8180,8138,8.495364904403687
124,8188,8159,8132,8133,8194,8174,8231,8168,8195,8208,8155,8150,8131,8085,8.50336480140686
125,8205,8154,8134,8138,8192,8190,8249,8162,8204,8189,8175,8171,8155,8099,8.511375188827515
126,8213,8169,8142,8148,8187,8183,8252,8176,8189,8169,8189,8202,8186,8129,8.519375801086426
127,8190,8174,8142,8152,8193,8172,8239,8158,8197,8197,8171,8166,8151,8111,8.527503967285156
241,8216,8155,8138,8146,8199,8199,8226,8180,8211,8222,8177,8188,8161,8106,8.535261869430542
0,8190,8153,8139,8135,8205,8163,8240,8154,8218,8218,8163,8164,8151,8111,8.542392253875732
1,8193,8158,8150,8122,8183,8170,8226,8162,8195,8174,8175,8172,8169,8120,8.55037546157837
2,8195,8149,8143,8131,8172,8180,8204,8176,8193,8168,8176,8175,8161,8095,8.558339834213257
3,8168,8144,8136,8148,8184,8168,8222,8143,8224,8196,8153,8142,8134,8077,8.566376686096191
4,8197,8138,8143,8117,8168,8189,8216,8168,8186,8151,8176,8191,8186,8104,8.574898958206177
5,8172,8139,8136,8094,8171,8167,8202,8157,8158,8130,8173,8162,8162,8100,8.582908153533936
6,8175,8150,8132,8120,8174,8182,8206,8162,8197,8186,8167,8153,8148,8092,8.589913129806519
7,8192,8151,8140,8130,8161,8191,8230,8182,8222,8225,8175,8190,8178,8105,8.597932815551758
8,8162,8141,8143,8120,8179,8157,8250,8157,8207,8206,8173,8168,8162,8123,8.605718851089478
9,8183,8137,8137,8113,8185,8177,8220,8190,8178,8160,8185,8190,8181,8123,8.613375663757324
10,8173,8151,8138,8131,8188,8178,8217,8177,8198,8181,8177,8168,8157,8091,8.620973110198975
11,8183,8165,8154,8145,8201,8183,8241,8163,8217,8219,8187,8169,8158,8113,8.6289644241333
12,8202,8168,8160,8137,8197,8175,8242,8189,8193,8205,8185,8195,8185,8142,8.637375116348267
13,8171,8166,8153,8157,8203,8154,8240,8154,8183,8195,8160,8155,8146,8116,8.644985914230347
14,8193,8164,8157,8161,8195,8188,8223,8169,8180,8168,8186,8189,8164,8104,8.653034448623657
15,8178,8171,8160,8150,8186,8170,8235,8171,8196,8156,8187,8184,8164,8107,8.661381959915161
16,8175,8170,8160,8162,8200,8172,8257,8163,8201,8208,8181,8174,8157,8126,8.668339014053345
17,8196,8150,8154,8160,8209,8190,8245,8182,8168,8234,8196,8201,8172,8119,8.67591142654419
18,8168,8155,8151,8143,8214,8160,8235,8157,8173,8208,8188,8165,8151,8099,8.683921098709106
19,8194,8169,8157,8136,8199,8183,8225,8180,8194,8184,8194,8190,8182,8115,8.69234824180603
20,8185,8161,8152,8152,8193,8176,8236,8171,8205,8212,8184,8180,8161,8111,8.700375080108643
21,8173,8149,8151,8157,8195,8174,8245,8150,8196,8229,8188,8168,8145,8119,8.707970142364502
22,8200,8155,8159,8152,8199,8189,8236,8181,8181,8206,8200,8204,8183,8141,8.716378688812256
23,8168,8165,8156,8166,8212,8158,8241,8157,8187,8211,8175,8161,8153,8120,8.72438383102417
24,8178,8146,8148,8157,8184,8180,8218,8166,8165,8189,8180,8172,8164,8102,8.73237681388855
25,8176,8131,8150,8132,8173,8177,8212,8160,8166,8172,8183,8176,8165,8108,8.739374876022339
26,8176,8157,8164,8139,8201,8165,8242,8149,8204,8203,8185,8171,8160,8137,8.74742841720581
27,8199,8174,8156,8155,8201,8175,8236,8190,8193,8199,8185,8192,8186,8131,8.755428314208984
28,8151,8148,8135,8153,8198,8153,8227,8159,8182,8172,8150,8135,8143,8079,8.76343846321106
29,8162,8128,8132,8131,8178,8184,8232,8163,8187,8161,8156,8155,8153,8072,8.771203517913818
30,8176,8146,8139,8131,8180,8179,8254,8181,8210,8199,8166,8177,8169,8088,8.7792329788208
31,8170,8164,8150,8152,8224,8159,8263,8169,8236,8220,8174,8157,8160,8102,8.787370204925537
32,8193,8163,8150,8150,8225,8187,8239,8193,8210,8183,8186,8182,8185,8106,8.795376062393188
33,8168,8177,8148,8162,8209,8174,8244,8163,8209,8202,8165,8148,8151,8098,8.80227279663086
34,8191,8172,8157,8173,8196,8182,8240,8163,8227,8214,8179,8169,8167,8122,8.81026577949524
35,8191,8142,8151,8154,8192,8165,8219,8174,8219,8187,8182,8179,8183,8124,8.818339347839355
36,8166,8157,8153,8152,8204,8149,8223,8154,8213,8200,8173,8149,8157,8112,8.826268196105957
37,8200,8182,8168,8153,8197,8185,8221,8177,8205,8212,8189,8191,8177,8123,8.834258556365967
38,8175,8162,8161,8151,8191,8163,8223,8156,8208,8209,8173,8163,8155,8118,8.842364311218262
39,8175,8136,8142,8149,8180,8165,8207,8168,8190,8171,8166,8161,8166,8112,8.850254535675049
40,8185,8145,8135,8137,8174,8175,8197,8188,8185,8157,8160,8174,8175,8090,8.858241319656372
41,8167,8156,8143,8141,8187,8168,8229,8157,8229,8205,8153,8146,8143,8078,8.86637568473816
42,8194,8140,8149,8129,8171,8188,8230,8179,8223,8196,8174,8182,8179,8096,8.873376846313477
43,8171,8138,8143,8105,8170,8157,8222,8168,8191,8163,8161,8160,8169,8087,8.881290197372437
44,8175,8153,8151,8120,8191,8163,8232,8172,8184,8179,8168,8173,8171,8099,8.889326572418213
45,8196,8158,8160,8157,8194,8181,8244,8198,8202,8212,8183,8203,8186,8112,8.897339820861816
46,8171,8161,8155,8159,8195,8161,8254,8159,8240,8227,8166,8151,8149,8106,8.905333995819092
47,8190,8148,8151,8129,8183,8185,8237,8172,8232,8204,8178,8183,8172,8121,8.913328886032104
48,8174,8137,8148,8126,8183,8165,8233,8168,8214,8200,8176,8191,8170,8125,8.921328783035278
49,8184,8161,8156,8130,8195,8156,8244,8166,8219,8218,8178,8183,8171,8132,8.929404497146606
50,8212,8171,8164,8130,8193,8176,8239,8191,8222,8219,8179,8202,8184,8125,8.936015129089355
51,8170,8153,8159,8161,8197,8160,8240,8148,8232,8223,8156,8161,8141,8098,8.944069862365723
52,8188,8153,8153,8159,8194,8181,8233,8163,8219,8212,8176,8185,8170,8110,8.952064275741577
53,8181,8161,8144,8133,8203,8165,8239,8172,8209,8204,8171,8171,8168,8104,8.960018634796143
54,8167,8155,8145,8144,8207,8159,8235,8158,8202,8197,8157,8143,8146,8082,8.968019008636475
55,8197,8159,8162,8159,8185,8181,8218,8185,8198,8184,8174,8178,8177,8088,8.976018905639648
56,8178,8183,8175,8165,8187,8158,8240,8161,8228,8218,8164,8155,8149,8101,8.984018564224243
57,8197,8178,8170,8157,8181,8177,8239,8173,8217,8226,8164,8184,8159,8114,8.992051601409912
58,8189,8162,8166,8152,8186,8169,8234,8173,8206,8220,8158,8188,8162,8111,9.000369548797607
59,8178,8165,8177,8157,8208,8164,8256,8152,8234,8237,8155,8170,8145,8127,9.007098913192749
60,8218,8175,8193,8160,8209,8186,8263,8182,8240,8230,8174,8218,8178,8158,9.014917373657228
61,8198,8195,8201,8191,8234,8155,8294,8172,8260,8253,8168,8195,8165,8168,9.022928953170776
62,8215,8199,8201,8190,8241,8172,8305,8194,8277,8269,8179,8209,8178,8187,9.031375885009766
63,8216,8187,8194,8151,8221,8171,8290,8196,8272,8248,8167,8209,8171,8172,9.03937554359436
64,8192,8193,8189,8168,8223,8160,8288,8164,8268,8237,8145,8169,8141,8150,9.047370910644531
65,8219,8197,8186,8198,8233,8181,8279,8197,8261,8224,8165,8205,8181,8155,9.055629253387451
66,8188,8182,8173,8190,8247,8153,8276,8172,8268,8226,8160,8177,8159,8137,9.063629627227783
67,8197,8176,8172,8158,8219,8169,8265,8165,8247,8222,8160,8177,8156,8125,9.070375442504885
68,8200,8175,8172,8149,8189,8172,8264,8174,8229,8222,8156,8191,8163,8122,9.078339576721191
69,8169,8158,8161,8162,8196,8154,8270,8149,8247,8222,8151,8164,8150,8122,9.08671259880066
70,8197,8147,8159,8152,8188,8177,8236,8183,8226,8187,8169,8199,8187,8122,9.093785762786863
70,8197,8147,8159,8152,8188,8177,8236,8183,8226,8187,8169,8199,8187,8122,9.094777822494509
71,8181,8163,8166,8151,8189,8152,8228,8172,8227,8198,8152,8170,8148,8106,9.101790189743042
71,8181,8163,8166,8151,8189,8152,8228,8172,8227,8198,8152,8170,8148,8106,9.10277795791626
72,8203,8177,8185,8174,8193,8166,8247,8169,8252,8227,8169,8187,8150,8136,9.110779285430908
73,8222,8176,8194,8186,8197,8171,8251,8183,8242,8218,8185,8220,8188,8165,9.117783069610596
73,8222,8176,8194,8186,8197,8171,8251,8183,8242,8218,8185,8220,8188,8165,9.118788242340088
74,8199,8186,8194,8194,8222,8145,8252,8164,8238,8208,8164,8183,8164,8156,9.125595331192017
74,8199,8186,8194,8194,8222,8145,8252,8164,8238,8208,8164,8183,8164,8156,9.126594066619871
75,8228,8194,8201,8199,8218,8179,8244,8192,8247,8201,8175,8212,8172,8138,9.133376359939575
76,8200,8192,8190,8204,8202,8166,8251,8166,8261,8218,8160,8180,8142,8110,9.14137363433838
77,8194,8177,8172,8192,8203,8165,8246,8157,8229,8207,8157,8168,8158,8120,9.149373531341553
78,8209,8165,8163,8180,8208,8169,8234,8186,8196,8177,8163,8191,8187,8124,9.157375812530518
79,8185,8181,8160,8187,8207,8152,8247,8158,8218,8196,8152,8153,8148,8103,9.165045976638794
80,8214,8178,8159,8173,8180,8182,8231,8182,8200,8205,8168,8187,8171,8111,9.173065662384031
81,8192,8155,8143,8163,8178,8164,8225,8173,8197,8203,8155,8167,8153,8096,9.181054592132568
82,8181,8156,8139,8173,8186,8168,8238,8152,8239,8197,8152,8160,8140,8093,9.189054489135742
83,8206,8166,8147,8168,8169,8179,8231,8173,8241,8181,8165,8202,8172,8115,9.196053743362429
84,8192,8174,8158,8165,8172,8151,8231,8159,8230,8192,8161,8170,8158,8122,9.2040536403656
85,8217,8165,8167,8165,8169,8179,8211,8180,8223,8185,8175,8197,8178,8125,9.21237564086914
86,8198,8162,8162,8183,8173,8167,8218,8156,8239,8191,8158,8181,8155,8113,9.220375299453735
87,8198,8181,8171,8198,8193,8167,8253,8153,8253,8211,8161,8168,8150,8132,9.227819919586182
88,8222,8182,8172,8176,8196,8183,8253,8196,8221,8199,8176,8196,8183,8134,9.236349821090698
89,8179,8158,8144,8160,8175,8153,8241,8143,8189,8180,8134,8138,8139,8086,9.244568824768066
90,8205,8158,8141,8160,8140,8177,8230,8147,8177,8169,8145,8162,8159,8091,9.25256633758545
91,8213,8193,8166,8165,8165,8175,8252,8168,8224,8201,8166,8176,8166,8116,9.260567903518677
92,8207,8197,8176,8174,8194,8168,8253,8161,8257,8220,8172,8172,8158,8126,9.26756715774536
93,8225,8160,8158,8167,8162,8171,8211,8186,8213,8197,8191,8213,8195,8137,9.275566339492798
94,8195,8155,8164,8169,8152,8143,8213,8163,8214,8214,8180,8175,8169,8139,9.283570766448976
95,8230,8183,8195,8179,8145,8185,8219,8178,8247,8224,8185,8199,8175,8146,9.291574716567991
96,8227,8191,8193,8182,8144,8177,8234,8175,8262,8212,8182,8205,8166,8139,9.299586296081545
97,8201,8170,8175,8175,8173,8149,8247,8154,8236,8213,8180,8181,8158,8140,9.30734920501709
98,8216,8144,8163,8158,8157,8171,8208,8187,8167,8186,8179,8206,8188,8127,9.3153555393219
99,8168,8134,8142,8151,8126,8151,8183,8153,8155,8162,8143,8145,8140,8075,9.323376417160034
100,8181,8128,8136,8132,8107,8161,8162,8156,8166,8133,8148,8158,8151,8057,9.330354928970335
101,8188,8128,8141,8127,8101,8157,8144,8165,8162,8118,8148,8175,8166,8050,9.33844518661499
102,8173,8151,8152,8161,8115,8159,8157,8137,8167,8142,8149,8144,8146,8062,9.3464457988739
103,8210,8167,8161,8168,8130,8186,8176,8169,8173,8158,8179,8189,8184,8094,9.354449033737184
104,8190,8171,8161,8168,8144,8152,8207,8153,8196,8187,8166,8165,8159,8095,9.362446784973145
105,8208,8173,8169,8171,8130,8167,8214,8160,8194,8180,8179,8181,8170,8116,9.370447635650637
106,8208,8166,8168,8163,8107,8170,8204,8174,8192,8157,8181,8194,8182,8124,9.37835693359375
107,8172,8155,8154,8154,8106,8148,8200,8151,8208,8167,8161,8152,8150,8107,9.386370658874512
108,8197,8136,8144,8133,8101,8174,8172,8188,8186,8140,8173,8182,8180,8098,9.393387794494627
109,8169,8133,8142,8131,8121,8151,8163,8161,8177,8125,8156,8151,8153,8073,9.40138816833496
110,8180,8145,8149,8141,8126,8160,8155,8150,8168,8133,8158,8156,8158,8073,9.409365892410278
111,8200,8152,8146,8139,8113,8172,8153,8173,8144,8131,8160,8169,8180,8072,9.41737413406372
112,8173,8167,8147,8149,8123,8160,8180,8151,8160,8142,8148,8129,8148,8065,9.425403356552124
113,8202,8167,8165,8149,8102,8185,8175,8171,8171,8148,8170,8181,8171,8085,9.433387756347656
114,8180,8150,8162,8136,8102,8152,8161,8146,8158,8167,8155,8164,8149,8080,9.441380739212036
115,8185,8145,8158,8135,8128,8159,8154,8141,8129,8169,8162,8159,8154,8088,9.449382305145264
116,8207,8146,8167,8139,8118,8176,8151,8165,8114,8131,8178,8185,8180,8099,9.457372665405272
117,8174,8152,8174,8153,8111,8148,8167,8138,8135,8126,8164,8150,8153,8100,9.464385271072388
118,8203,8159,8174,8155,8120,8174,8157,8174,8139,8139,8180,8191,8187,8117,9.472370386123655
119,8196,8160,8172,8158,8140,8164,8157,8168,8154,8159,8176,8171,8164,8100,9.48037075996399
120,8194,8162,8186,8173,8133,8170,8170,8154,8169,8162,8174,8167,8151,8097,9.488384485244753
121,8203,8164,8178,8175,8117,8177,8160,8178,8128,8141,8175,8199,8183,8103,9.496386766433716
122,8167,8163,8154,8181,8146,8149,8155,8152,8104,8136,8157,8143,8155,8086,9.504382610321043
123,8200,8160,8158,8167,8145,8183,8140,8177,8107,8117,8173,8171,8177,8079,9.512380123138428
124,8182,8159,8159,8151,8132,8172,8142,8166,8124,8122,8152,8163,8155,8059,9.520355939865112
125,8167,8164,8155,8170,8137,8162,8154,8148,8128,8134,8149,8145,8139,8075,9.528363466262816
126,8194,8163,8159,8186,8132,8173,8159,8184,8125,8116,8180,8187,8184,8109,9.53539490699768
127,8170,8169,8168,8194,8147,8152,8176,8165,8152,8135,8167,8160,8168,8103,9.543636798858644
241,8197,8179,8181,8195,8154,8181,8162,8185,8147,8140,8173,8187,8182,8098,9.551636695861816
0,8186,8190,8185,8199,8153,8168,8166,8178,8155,8143,8165,8177,8158,8092,9.55934762954712
1,8172,8194,8189,8214,8153,8163,8195,8155,8187,8181,8170,8172,8142,8110,9.567379474639893
2,8206,8179,8192,8217,8153,8186,8179,8189,8173,8185,8194,8216,8185,8127,9.57537841796875
3,8177,8175,8189,8221,8176,8155,8166,8166,8169,8173,8171,8166,8158,8106,9.582713842391968
3,8177,8175,8189,8221,8176,8155,8166,8166,8169,8173,8171,8166,8158,8106,9.583706617355348
4,8190,8180,8188,8216,8168,8174,8167,8181,8169,8155,8172,8187,8171,8098,9.590706825256348
5,8187,8185,8180,8209,8155,8172,8190,8181,8188,8170,8171,8190,8161,8090,9.598332643508911
6,8169,8181,8171,8207,8160,8163,8204,8149,8208,8192,8169,8153,8140,8095,9.606338500976562
7,8189,8158,8162,8180,8137,8175,8179,8173,8164,8147,8174,8184,8181,8098,9.614341974258425
7,8189,8158,8162,8180,8137,8175,8179,8173,8164,8147,8174,8184,8181,8098,9.616342544555664
8,8155,8146,8147,8178,8132,8144,8173,8148,8141,8119,8142,8143,8150,8068,9.62234878540039
9,8179,8159,8157,8189,8137,8173,8158,8161,8151,8137,8158,8163,8158,8069,9.63034987449646
