COUNTER,F3,FC5,AF3,F7,T7,P7,O1,O2,P8,T8,F8,AF4,FC6,F4,Timestamp
109, 8220, 8201, 8219, 8249, 8250, 8182, 8227, 8201, 8265, 8220, 8195, 8209, 8180, 8174,0.005998134613037109
109, 8220, 8201, 8219, 8249, 8250, 8182, 8227, 8201, 8265, 8220, 8195, 8209, 8180, 8174,0.005998134613037109
110, 8193, 8193, 8211, 8245, 8251, 8154, 8247, 8161, 8270, 8239, 8187, 8179, 8154, 8181,0.013999223709106445
110, 8193, 8193, 8211, 8245, 8251, 8154, 8247, 8161, 8270, 8239, 8187, 8179, 8154, 8181,0.013999223709106445
111, 8221, 8187, 8208, 8233, 8248, 8177, 8230, 8185, 8245, 8211, 8196, 8198, 8179, 8192,0.02200007438659668
111, 8221, 8187, 8208, 8233, 8248, 8177, 8230, 8185, 8245, 8211, 8196, 8198, 8179, 8192,0.02200007438659668
112, 8198, 8190, 8199, 8222, 8243, 8159, 8211, 8182, 8237, 8209, 8183, 8197, 8174, 8174,0.029947757720947266
112, 8198, 8190, 8199, 8222, 8243, 8159, 8211, 8182, 8237, 8209, 8183, 8197, 8174, 8174,0.029947757720947266
113, 8182, 8184, 8192, 8218, 8220, 8164, 8197, 8170, 8233, 8223, 8174, 8185, 8157, 8156,0.03775763511657715
113, 8182, 8184, 8192, 8218, 8220, 8164, 8197, 8170, 8233, 8223, 8174, 8185, 8157, 8156,0.03775763511657715
114, 8204, 8164, 8192, 8212, 8207, 8186, 8187, 8188, 8217, 8201, 8178, 8194, 8164, 8142,0.04474377632141113
114, 8204, 8164, 8192, 8212, 8207, 8186, 8187, 8188, 8217, 8201, 8178, 8194, 8164, 8142,0.04474377632141113
115, 8185, 8170, 8195, 8221, 8237, 8162, 8211, 8154, 8234, 8207, 8177, 8179, 8147, 8141,0.05274772644042969
115, 8185, 8170, 8195, 8221, 8237, 8162, 8211, 8154, 8234, 8207, 8177, 8179, 8147, 8141,0.05274772644042969
116, 8216, 8187, 8202, 8222, 8234, 8180, 8213, 8176, 8230, 8208, 8185, 8217, 8174, 8166,0.06075000762939453
116, 8216, 8187, 8202, 8222, 8234, 8180, 8213, 8176, 8230, 8208, 8185, 8217, 8174, 8166,0.06075000762939453
117, 8206, 8180, 8195, 8213, 8221, 8159, 8208, 8175, 8221, 8194, 8172, 8208, 8168, 8162,0.06875205039978027
117, 8206, 8180, 8195, 8213, 8221, 8159, 8208, 8175, 8221, 8194, 8172, 8208, 8168, 8162,0.06875205039978027
118, 8195, 8164, 8192, 8205, 8225, 8157, 8204, 8156, 8211, 8186, 8171, 8193, 8161, 8159,0.07692313194274902
118, 8195, 8164, 8192, 8205, 8225, 8157, 8204, 8156, 8211, 8186, 8171, 8193, 8161, 8159,0.07692313194274902
119, 8210, 8151, 8195, 8190, 8216, 8181, 8179, 8183, 8180, 8169, 8185, 8223, 8188, 8163,0.08496332168579102
119, 8210, 8151, 8195, 8190, 8216, 8181, 8179, 8183, 8180, 8169, 8185, 8223, 8188, 8163,0.08496332168579102
120, 8168, 8145, 8189, 8192, 8213, 8155, 8180, 8157, 8174, 8164, 8169, 8197, 8162, 8146,0.09296131134033203
120, 8168, 8145, 8189, 8192, 8213, 8155, 8180, 8157, 8174, 8164, 8169, 8197, 8162, 8146,0.09296131134033203
121, 8194, 8147, 8184, 8195, 8193, 8174, 8174, 8178, 8161, 8149, 8168, 8221, 8174, 8150,0.10094022750854492
121, 8194, 8147, 8184, 8195, 8193, 8174, 8174, 8178, 8161, 8149, 8168, 8221, 8174, 8150,0.10194039344787598
122, 8198, 8153, 8189, 8199, 8185, 8159, 8165, 8182, 8158, 8164, 8175, 8230, 8182, 8151,0.10894012451171875
122, 8198, 8153, 8189, 8199, 8185, 8159, 8165, 8182, 8158, 8164, 8175, 8230, 8182, 8151,0.10894012451171875
123, 8185, 8152, 8207, 8206, 8203, 8151, 8165, 8154, 8176, 8183, 8174, 8216, 8167, 8146,0.11594009399414062
123, 8185, 8152, 8207, 8206, 8203, 8151, 8165, 8154, 8176, 8183, 8174, 8216, 8167, 8146,0.11594009399414062
124, 8205, 8139, 8208, 8196, 8212, 8180, 8166, 8187, 8179, 8157, 8175, 8241, 8176, 8142,0.12394070625305176
124, 8205, 8139, 8208, 8196, 8212, 8180, 8166, 8187, 8179, 8157, 8175, 8241, 8176, 8142,0.12394070625305176
125, 8174, 8140, 8194, 8203, 8221, 8159, 8195, 8171, 8196, 8164, 8167, 8218, 8151, 8136,0.13194036483764648
125, 8174, 8140, 8194, 8203, 8221, 8159, 8195, 8171, 8196, 8164, 8167, 8218, 8151, 8136,0.13194036483764648
126, 8195, 8142, 8192, 8204, 8203, 8176, 8190, 8178, 8189, 8167, 8176, 8231, 8169, 8145,0.139939546585083
126, 8195, 8142, 8192, 8204, 8203, 8176, 8190, 8178, 8189, 8167, 8176, 8231, 8169, 8145,0.139939546585083
127, 8192, 8143, 8191, 8200, 8195, 8169, 8171, 8179, 8185, 8155, 8175, 8228, 8172, 8133,0.14793920516967773
127, 8192, 8143, 8191, 8200, 8195, 8169, 8171, 8179, 8185, 8155, 8175, 8228, 8172, 8133,0.14793920516967773
241, 8175, 8160, 8204, 8219, 8219, 8162, 8187, 8161, 8214, 8179, 8175, 8210, 8151, 8132,0.1559443473815918
241, 8175, 8160, 8204, 8219, 8219, 8162, 8187, 8161, 8214, 8179, 8175, 8210, 8151, 8132,0.1559443473815918
0, 8207, 8160, 8211, 8216, 8217, 8184, 8190, 8195, 8216, 8182, 8182, 8245, 8177, 8147,0.16394543647766113
0, 8207, 8160, 8211, 8216, 8217, 8184, 8190, 8195, 8216, 8182, 8182, 8245, 8177, 8147,0.16394543647766113
1, 8175, 8148, 8194, 8205, 8214, 8151, 8198, 8173, 8219, 8172, 8173, 8221, 8159, 8141,0.1724543571472168
1, 8175, 8148, 8194, 8205, 8214, 8151, 8198, 8173, 8219, 8172, 8173, 8221, 8159, 8141,0.1724543571472168
2, 8180, 8142, 8189, 8200, 8206, 8167, 8194, 8177, 8217, 8163, 8179, 8220, 8164, 8137,0.17945480346679688
2, 8180, 8142, 8189, 8200, 8206, 8167, 8194, 8177, 8217, 8163, 8179, 8220, 8164, 8137,0.18045425415039062
3, 8178, 8134, 8187, 8191, 8198, 8171, 8184, 8182, 8216, 8175, 8172, 8219, 8166, 8119,0.18645501136779785
3, 8178, 8134, 8187, 8191, 8198, 8171, 8184, 8182, 8216, 8175, 8172, 8219, 8166, 8119,0.18645501136779785
4, 8155, 8134, 8178, 8192, 8203, 8158, 8190, 8159, 8231, 8211, 8162, 8194, 8146, 8105,0.1949293613433838
4, 8155, 8134, 8178, 8192, 8203, 8158, 8190, 8159, 8231, 8211, 8162, 8194, 8146, 8105,0.1949293613433838
5, 8183, 8131, 8174, 8191, 8197, 8183, 8180, 8185, 8211, 8192, 8174, 8218, 8168, 8105,0.2023146152496338
5, 8183, 8131, 8174, 8191, 8197, 8183, 8180, 8185, 8211, 8192, 8174, 8218, 8168, 8105,0.20340681076049805
6, 8153, 8125, 8169, 8190, 8213, 8163, 8183, 8160, 8210, 8174, 8166, 8194, 8148, 8090,0.21131443977355957
6, 8153, 8125, 8169, 8190, 8213, 8163, 8183, 8160, 8210, 8174, 8166, 8194, 8148, 8090,0.21131443977355957
7, 8161, 8124, 8173, 8188, 8217, 8176, 8192, 8167, 8230, 8182, 8167, 8202, 8156, 8091,0.21895337104797363
7, 8161, 8124, 8173, 8188, 8217, 8176, 8192, 8167, 8230, 8182, 8167, 8202, 8156, 8091,0.21895337104797363
8, 8188, 8140, 8182, 8199, 8198, 8175, 8199, 8183, 8235, 8195, 8176, 8224, 8169, 8102,0.22694182395935059
8, 8188, 8140, 8182, 8199, 8198, 8175, 8199, 8183, 8235, 8195, 8176, 8224, 8169, 8102,0.22694182395935059
9, 8175, 8163, 8189, 8225, 8193, 8160, 8199, 8151, 8228, 8195, 8174, 8204, 8145, 8113,0.23492121696472168
9, 8175, 8163, 8189, 8225, 8193, 8160, 8199, 8151, 8228, 8195, 8174, 8204, 8145, 8113,0.23492121696472168
10, 8202, 8155, 8190, 8212, 8185, 8186, 8174, 8175, 8195, 8163, 8176, 8228, 8168, 8116,0.24295997619628906
10, 8202, 8155, 8190, 8212, 8185, 8186, 8174, 8175, 8195, 8163, 8176, 8228, 8168, 8116,0.24295997619628906
11, 8179, 8132, 8183, 8188, 8200, 8157, 8174, 8156, 8194, 8166, 8161, 8204, 8154, 8096,0.24995994567871094
11, 8179, 8132, 8183, 8188, 8200, 8157, 8174, 8156, 8194, 8166, 8161, 8204, 8154, 8096,0.24995994567871094
12, 8185, 8128, 8187, 8194, 8199, 8169, 8162, 8153, 8194, 8175, 8166, 8203, 8157, 8097,0.25795578956604004
12, 8185, 8128, 8187, 8194, 8199, 8169, 8162, 8153, 8194, 8175, 8166, 8203, 8157, 8097,0.25795578956604004
13, 8199, 8137, 8189, 8198, 8170, 8183, 8144, 8177, 8178, 8178, 8173, 8230, 8174, 8109,0.265958309173584
13, 8199, 8137, 8189, 8198, 8170, 8183, 8144, 8177, 8178, 8178, 8173, 8230, 8174, 8109,0.265958309173584
14, 8164, 8132, 8181, 8191, 8175, 8158, 8152, 8152, 8188, 8189, 8160, 8202, 8148, 8105,0.27381038665771484
14, 8164, 8132, 8181, 8191, 8175, 8158, 8152, 8152, 8188, 8189, 8160, 8202, 8148, 8105,0.27431344985961914
15, 8181, 8109, 8175, 8176, 8171, 8183, 8138, 8173, 8177, 8167, 8161, 8214, 8165, 8100,0.2823193073272705
15, 8181, 8109, 8175, 8176, 8171, 8183, 8138, 8173, 8177, 8167, 8161, 8214, 8165, 8100,0.2823193073272705
16, 8160, 8110, 8166, 8179, 8159, 8166, 8144, 8162, 8182, 8170, 8154, 8200, 8155, 8092,0.28995704650878906
16, 8160, 8110, 8166, 8179, 8159, 8166, 8144, 8162, 8182, 8170, 8154, 8200, 8155, 8092,0.28995704650878906
17, 8157, 8116, 8166, 8174, 8153, 8167, 8153, 8157, 8193, 8173, 8155, 8197, 8154, 8098,0.29795241355895996
17, 8157, 8116, 8166, 8174, 8153, 8167, 8153, 8157, 8193, 8173, 8155, 8197, 8154, 8098,0.29795241355895996
18, 8169, 8102, 8164, 8152, 8156, 8173, 8141, 8173, 8179, 8152, 8160, 8213, 8173, 8092,0.3059413433074951
18, 8169, 8102, 8164, 8152, 8156, 8173, 8141, 8173, 8179, 8152, 8160, 8213, 8173, 8092,0.3059413433074951
19, 8142, 8110, 8160, 8164, 8178, 8155, 8151, 8149, 8176, 8159, 8158, 8190, 8158, 8089,0.31295084953308105
19, 8142, 8110, 8160, 8164, 8178, 8155, 8151, 8149, 8176, 8159, 8158, 8190, 8158, 8089,0.31295084953308105
20, 8173, 8117, 8161, 8163, 8166, 8177, 8145, 8178, 8157, 8131, 8166, 8216, 8181, 8106,0.3209569454193115
20, 8173, 8117, 8161, 8163, 8166, 8177, 8145, 8178, 8157, 8131, 8166, 8216, 8181, 8106,0.3209569454193115
21, 8152, 8101, 8154, 8144, 8147, 8154, 8134, 8167, 8149, 8110, 8155, 8204, 8166, 8086,0.32895565032958984
21, 8152, 8101, 8154, 8144, 8147, 8154, 8134, 8167, 8149, 8110, 8155, 8204, 8166, 8086,0.32895565032958984
22, 8140, 8096, 8148, 8147, 8137, 8157, 8122, 8153, 8143, 8137, 8149, 8191, 8154, 8060,0.33669066429138184
22, 8140, 8096, 8148, 8147, 8137, 8157, 8122, 8153, 8143, 8137, 8149, 8191, 8154, 8060,0.3376920223236084
23, 8163, 8098, 8142, 8150, 8133, 8175, 8116, 8175, 8134, 8148, 8147, 8211, 8167, 8054,0.34460878372192383
23, 8163, 8098, 8142, 8150, 8133, 8175, 8116, 8175, 8134, 8148, 8147, 8211, 8167, 8054,0.34460878372192383
24, 8138, 8099, 8142, 8149, 8150, 8155, 8140, 8143, 8156, 8147, 8139, 8184, 8142, 8058,0.3526167869567871
24, 8138, 8099, 8142, 8149, 8150, 8155, 8140, 8143, 8156, 8147, 8139, 8184, 8142, 8058,0.3526167869567871
25, 8157, 8088, 8139, 8129, 8138, 8169, 8127, 8160, 8138, 8120, 8149, 8200, 8168, 8066,0.3609588146209717
25, 8157, 8088, 8139, 8129, 8138, 8169, 8127, 8160, 8138, 8120, 8149, 8200, 8168, 8066,0.3609588146209717
26, 8141, 8083, 8128, 8125, 8132, 8147, 8114, 8162, 8115, 8111, 8139, 8191, 8168, 8044,0.3693704605102539
26, 8141, 8083, 8128, 8125, 8132, 8147, 8114, 8162, 8115, 8111, 8139, 8191, 8168, 8044,0.3693704605102539
27, 8130, 8099, 8140, 8151, 8148, 8156, 8135, 8156, 8135, 8126, 8138, 8182, 8154, 8039,0.3773806095123291
27, 8130, 8099, 8140, 8151, 8148, 8156, 8135, 8156, 8135, 8126, 8138, 8182, 8154, 8039,0.3773806095123291
28, 8154, 8108, 8144, 8152, 8143, 8182, 8136, 8177, 8141, 8120, 8149, 8201, 8169, 8052,0.3843812942504883
28, 8154, 8108, 8144, 8152, 8143, 8182, 8136, 8177, 8141, 8120, 8149, 8201, 8169, 8052,0.3843812942504883
29, 8131, 8102, 8130, 8143, 8147, 8152, 8140, 8149, 8146, 8115, 8138, 8167, 8150, 8047,0.3923964500427246
29, 8131, 8102, 8130, 8143, 8147, 8152, 8140, 8149, 8146, 8115, 8138, 8167, 8150, 8047,0.3923964500427246
30, 8160, 8092, 8135, 8137, 8146, 8168, 8144, 8173, 8142, 8101, 8146, 8188, 8171, 8057,0.39968204498291016
30, 8160, 8092, 8135, 8137, 8146, 8168, 8144, 8173, 8142, 8101, 8146, 8188, 8171, 8057,0.39968204498291016
31, 8154, 8097, 8137, 8134, 8144, 8157, 8146, 8171, 8141, 8114, 8144, 8187, 8170, 8058,0.4080338478088379
31, 8154, 8097, 8137, 8134, 8144, 8157, 8146, 8171, 8141, 8114, 8144, 8187, 8170, 8058,0.4080338478088379
32, 8140, 8112, 8138, 8145, 8150, 8153, 8134, 8150, 8148, 8134, 8137, 8165, 8152, 8051,0.41550588607788086
32, 8140, 8112, 8138, 8145, 8150, 8153, 8134, 8150, 8148, 8134, 8137, 8165, 8152, 8051,0.4164919853210449
33, 8177, 8114, 8153, 8153, 8139, 8183, 8118, 8182, 8152, 8123, 8146, 8202, 8173, 8059,0.4234905242919922
33, 8177, 8114, 8153, 8153, 8139, 8183, 8118, 8182, 8152, 8123, 8146, 8202, 8173, 8059,0.4234905242919922
34, 8154, 8118, 8164, 8165, 8159, 8165, 8152, 8162, 8179, 8149, 8147, 8191, 8154, 8072,0.4319283962249756
34, 8154, 8118, 8164, 8165, 8159, 8165, 8152, 8162, 8179, 8149, 8147, 8191, 8154, 8072,0.4319283962249756
35, 8169, 8129, 8169, 8165, 8181, 8177, 8168, 8174, 8187, 8169, 8160, 8206, 8171, 8099,0.4389617443084717
35, 8169, 8129, 8169, 8165, 8181, 8177, 8168, 8174, 8187, 8169, 8160, 8206, 8171, 8099,0.4389617443084717
36, 8164, 8125, 8152, 8152, 8169, 8159, 8144, 8180, 8175, 8149, 8155, 8202, 8178, 8082,0.4469623565673828
36, 8164, 8125, 8152, 8152, 8169, 8159, 8144, 8180, 8175, 8149, 8155, 8202, 8178, 8082,0.4469623565673828
37, 8137, 8109, 8137, 8146, 8155, 8149, 8131, 8156, 8181, 8148, 8147, 8176, 8159, 8051,0.4549412727355957
37, 8137, 8109, 8137, 8146, 8155, 8149, 8131, 8156, 8181, 8148, 8147, 8176, 8159, 8051,0.4549412727355957
38, 8166, 8104, 8146, 8142, 8155, 8177, 8138, 8175, 8182, 8167, 8160, 8204, 8172, 8063,0.4629502296447754
38, 8166, 8104, 8146, 8142, 8155, 8177, 8138, 8175, 8182, 8167, 8160, 8204, 8172, 8063,0.4629502296447754
39, 8142, 8116, 8153, 8150, 8173, 8146, 8163, 8151, 8177, 8176, 8157, 8183, 8151, 8076,0.4704718589782715
39, 8142, 8116, 8153, 8150, 8173, 8146, 8163, 8151, 8177, 8176, 8157, 8183, 8151, 8076,0.4704718589782715
40, 8148, 8121, 8149, 8149, 8161, 8156, 8150, 8159, 8143, 8148, 8159, 8194, 8165, 8084,0.478956937789917
40, 8148, 8121, 8149, 8149, 8161, 8156, 8150, 8159, 8143, 8148, 8159, 8194, 8165, 8084,0.478956937789917
41, 8150, 8130, 8137, 8148, 8158, 8159, 8143, 8175, 8145, 8155, 8161, 8203, 8166, 8079,0.4869575500488281
41, 8150, 8130, 8137, 8148, 8158, 8159, 8143, 8175, 8145, 8155, 8161, 8203, 8166, 8079,0.4869575500488281
42, 8129, 8155, 8141, 8171, 8193, 8149, 8173, 8148, 8195, 8197, 8163, 8179, 8142, 8079,0.49495816230773926
42, 8129, 8155, 8141, 8171, 8193, 8149, 8173, 8148, 8195, 8197, 8163, 8179, 8142, 8079,0.49495816230773926
43, 8167, 8157, 8152, 8178, 8198, 8181, 8169, 8176, 8182, 8179, 8178, 8219, 8181, 8091,0.5029540061950684
43, 8167, 8157, 8152, 8178, 8198, 8181, 8169, 8176, 8182, 8179, 8178, 8219, 8181, 8091,0.5029540061950684
44, 8149, 8152, 8149, 8182, 8189, 8159, 8169, 8167, 8169, 8179, 8173, 8210, 8167, 8091,0.5098738670349121
44, 8149, 8152, 8149, 8182, 8189, 8159, 8169, 8167, 8169, 8179, 8173, 8210, 8167, 8091,0.5098738670349121
45, 8149, 8147, 8149, 8182, 8180, 8158, 8170, 8155, 8180, 8198, 8170, 8202, 8151, 8110,0.517906904220581
45, 8149, 8147, 8149, 8182, 8180, 8158, 8170, 8155, 8180, 8198, 8170, 8202, 8151, 8110,0.517906904220581
46, 8157, 8136, 8145, 8165, 8179, 8161, 8155, 8160, 8171, 8186, 8171, 8215, 8165, 8120,0.5253665447235107
46, 8157, 8136, 8145, 8165, 8179, 8161, 8155, 8160, 8171, 8186, 8171, 8215, 8165, 8120,0.5263664722442627
47, 8133, 8143, 8138, 8171, 8186, 8146, 8159, 8150, 8171, 8187, 8177, 8209, 8163, 8117,0.5339534282684326
47, 8133, 8143, 8138, 8171, 8186, 8146, 8159, 8150, 8171, 8187, 8177, 8209, 8163, 8117,0.5339534282684326
48, 8155, 8138, 8127, 8167, 8165, 8163, 8153, 8180, 8155, 8174, 8177, 8231, 8175, 8110,0.5419714450836182
48, 8155, 8138, 8127, 8167, 8165, 8163, 8153, 8180, 8155, 8174, 8177, 8231, 8175, 8110,0.5419714450836182
49, 8123, 8116, 8102, 8148, 8161, 8145, 8154, 8154, 8147, 8157, 8151, 8197, 8146, 8081,0.5499699115753174
49, 8123, 8116, 8102, 8148, 8161, 8145, 8154, 8154, 8147, 8157, 8151, 8197, 8146, 8081,0.5499699115753174
50, 8120, 8120, 8094, 8149, 8164, 8157, 8155, 8151, 8155, 8148, 8161, 8195, 8150, 8079,0.5579531192779541
50, 8120, 8120, 8094, 8149, 8164, 8157, 8155, 8151, 8155, 8148, 8161, 8195, 8150, 8079,0.5579531192779541
51, 8140, 8141, 8098, 8161, 8169, 8160, 8173, 8181, 8177, 8168, 8175, 8220, 8164, 8091,0.5655364990234375
51, 8140, 8141, 8098, 8161, 8169, 8160, 8173, 8181, 8177, 8168, 8175, 8220, 8164, 8091,0.5655364990234375
52, 8121, 8138, 8100, 8165, 8196, 8144, 8206, 8161, 8206, 8210, 8167, 8195, 8146, 8090,0.5726168155670166
52, 8121, 8138, 8100, 8165, 8196, 8144, 8206, 8161, 8206, 8210, 8167, 8195, 8146, 8090,0.5726168155670166
53, 8146, 8124, 8102, 8149, 8181, 8170, 8193, 8182, 8181, 8182, 8167, 8208, 8175, 8090,0.5811412334442139
53, 8146, 8124, 8102, 8149, 8181, 8170, 8193, 8182, 8181, 8182, 8167, 8208, 8175, 8090,0.5811412334442139
54, 8132, 8140, 8100, 8158, 8175, 8147, 8186, 8174, 8167, 8164, 8161, 8195, 8163, 8084,0.5884902477264404
54, 8132, 8140, 8100, 8158, 8175, 8147, 8186, 8174, 8167, 8164, 8161, 8195, 8163, 8084,0.5884902477264404
55, 8148, 8151, 8111, 8176, 8189, 8154, 8197, 8167, 8191, 8197, 8173, 8207, 8156, 8098,0.5964975357055664
55, 8148, 8151, 8111, 8176, 8189, 8154, 8197, 8167, 8191, 8197, 8173, 8207, 8156, 8098,0.5964975357055664
56, 8178, 8153, 8124, 8178, 8172, 8178, 8199, 8183, 8208, 8219, 8182, 8226, 8172, 8106,0.6049561500549316
56, 8178, 8153, 8124, 8178, 8172, 8178, 8199, 8183, 8208, 8219, 8182, 8226, 8172, 8106,0.6049561500549316
57, 8152, 8178, 8134, 8203, 8182, 8156, 8226, 8156, 8229, 8243, 8176, 8192, 8151, 8117,0.6129541397094727
57, 8152, 8178, 8134, 8203, 8182, 8156, 8226, 8156, 8229, 8243, 8176, 8192, 8151, 8117,0.6129541397094727
58, 8190, 8183, 8148, 8209, 8202, 8178, 8230, 8180, 8218, 8236, 8187, 8224, 8173, 8146,0.6203000545501709
58, 8190, 8183, 8148, 8209, 8202, 8178, 8230, 8180, 8218, 8236, 8187, 8224, 8173, 8146,0.6213052272796631
59, 8178, 8167, 8142, 8198, 8205, 8162, 8222, 8183, 8205, 8225, 8183, 8217, 8169, 8145,0.6293070316314697
59, 8178, 8167, 8142, 8198, 8205, 8162, 8222, 8183, 8205, 8225, 8183, 8217, 8169, 8145,0.6293070316314697
60, 8145, 8172, 8129, 8201, 8201, 8148, 8218, 8150, 8201, 8228, 8177, 8188, 8148, 8140,0.6363084316253662
60, 8145, 8172, 8129, 8201, 8201, 8148, 8218, 8150, 8201, 8228, 8177, 8188, 8148, 8140,0.6373071670532227
61, 8194, 8161, 8121, 8191, 8189, 8189, 8184, 8178, 8158, 8187, 8183, 8228, 8181, 8131,0.643953800201416
61, 8194, 8161, 8121, 8191, 8189, 8189, 8184, 8178, 8158, 8187, 8183, 8228, 8181, 8131,0.643953800201416
62, 8166, 8143, 8103, 8179, 8194, 8161, 8176, 8161, 8142, 8155, 8158, 8198, 8163, 8089,0.6514968872070312
62, 8166, 8143, 8103, 8179, 8194, 8161, 8176, 8161, 8142, 8155, 8158, 8198, 8163, 8089,0.6514968872070312
63, 8135, 8149, 8091, 8175, 8179, 8147, 8174, 8141, 8151, 8153, 8140, 8163, 8134, 8075,0.6595015525817871
63, 8135, 8149, 8091, 8175, 8179, 8147, 8174, 8141, 8151, 8153, 8140, 8163, 8134, 8075,0.6604959964752197
64, 8161, 8151, 8101, 8162, 8153, 8179, 8160, 8156, 8143, 8159, 8150, 8192, 8146, 8082,0.6679534912109375
64, 8161, 8151, 8101, 8162, 8153, 8179, 8160, 8156, 8143, 8159, 8150, 8192, 8146, 8082,0.6679534912109375
65, 8172, 8154, 8109, 8169, 8168, 8178, 8173, 8158, 8153, 8186, 8165, 8210, 8159, 8103,0.6759538650512695
65, 8172, 8154, 8109, 8169, 8168, 8178, 8173, 8158, 8153, 8186, 8165, 8210, 8159, 8103,0.6759538650512695
66, 8186, 8166, 8113, 8190, 8175, 8173, 8171, 8180, 8160, 8196, 8177, 8218, 8179, 8126,0.6839556694030762
66, 8186, 8166, 8113, 8190, 8175, 8173, 8171, 8180, 8160, 8196, 8177, 8218, 8179, 8126,0.6839556694030762
67, 8153, 8157, 8104, 8180, 8165, 8151, 8155, 8170, 8159, 8192, 8165, 8193, 8166, 8111,0.6913566589355469
67, 8153, 8157, 8104, 8180, 8165, 8151, 8155, 8170, 8159, 8192, 8165, 8193, 8166, 8111,0.6913566589355469
68, 8167, 8140, 8102, 8160, 8157, 8171, 8147, 8169, 8157, 8187, 8162, 8202, 8168, 8095,0.6993637084960938
68, 8167, 8140, 8102, 8160, 8157, 8171, 8147, 8169, 8157, 8187, 8162, 8202, 8168, 8095,0.7003521919250488
69, 8204, 8151, 8122, 8174, 8147, 8191, 8151, 8187, 8159, 8188, 8176, 8227, 8178, 8102,0.7069175243377686
69, 8204, 8151, 8122, 8174, 8147, 8191, 8151, 8187, 8159, 8188, 8176, 8227, 8178, 8102,0.7069175243377686
70, 8162, 8159, 8117, 8188, 8156, 8158, 8176, 8159, 8181, 8206, 8172, 8193, 8147, 8117,0.714871883392334
70, 8162, 8159, 8117, 8188, 8156, 8158, 8176, 8159, 8181, 8206, 8172, 8193, 8147, 8117,0.714871883392334
71, 8170, 8138, 8100, 8169, 8164, 8172, 8165, 8164, 8149, 8182, 8164, 8200, 8161, 8117,0.7228729724884033
71, 8170, 8138, 8100, 8169, 8164, 8172, 8165, 8164, 8149, 8182, 8164, 8200, 8161, 8117,0.7228729724884033
72, 8180, 8138, 8099, 8159, 8161, 8175, 8146, 8161, 8106, 8141, 8156, 8212, 8168, 8086,0.7308759689331055
72, 8180, 8138, 8099, 8159, 8161, 8175, 8146, 8161, 8106, 8141, 8156, 8212, 8168, 8086,0.7308759689331055
73, 8187, 8149, 8103, 8160, 8144, 8181, 8140, 8167, 8102, 8121, 8160, 8217, 8163, 8072,0.7388761043548584
73, 8187, 8149, 8103, 8160, 8144, 8181, 8140, 8167, 8102, 8121, 8160, 8217, 8163, 8072,0.7388761043548584
74, 8190, 8137, 8100, 8152, 8124, 8183, 8132, 8183, 8107, 8116, 8159, 8219, 8171, 8068,0.7468607425689697
74, 8190, 8137, 8100, 8152, 8124, 8183, 8132, 8183, 8107, 8116, 8159, 8219, 8171, 8068,0.7468607425689697
75, 8170, 8132, 8098, 8153, 8135, 8165, 8137, 8161, 8118, 8136, 8149, 8200, 8159, 8066,0.7545070648193359
75, 8170, 8132, 8098, 8153, 8135, 8165, 8137, 8161, 8118, 8136, 8149, 8200, 8159, 8066,0.7555150985717773
76, 8198, 8131, 8100, 8143, 8134, 8193, 8139, 8188, 8112, 8130, 8157, 8225, 8179, 8075,0.7625257968902588
76, 8198, 8131, 8100, 8143, 8134, 8193, 8139, 8188, 8112, 8130, 8157, 8225, 8179, 8075,0.7625257968902588
77, 8179, 8138, 8101, 8145, 8139, 8177, 8154, 8193, 8132, 8133, 8160, 8211, 8177, 8078,0.7696330547332764
77, 8179, 8138, 8101, 8145, 8139, 8177, 8154, 8193, 8132, 8133, 8160, 8211, 8177, 8078,0.7696330547332764
78, 8184, 8154, 8112, 8166, 8140, 8177, 8157, 8186, 8152, 8152, 8169, 8208, 8180, 8094,0.7779302597045898
78, 8184, 8154, 8112, 8166, 8140, 8177, 8157, 8186, 8152, 8152, 8169, 8208, 8180, 8094,0.7779302597045898
79, 8201, 8146, 8115, 8161, 8108, 8190, 8137, 8196, 8138, 8151, 8170, 8225, 8186, 8088,0.7859232425689697
79, 8201, 8146, 8115, 8161, 8108, 8190, 8137, 8196, 8138, 8151, 8170, 8225, 8186, 8088,0.7859232425689697
80, 8161, 8136, 8107, 8154, 8122, 8162, 8136, 8169, 8147, 8158, 8162, 8202, 8154, 8076,0.7939534187316895
80, 8161, 8136, 8107, 8154, 8122, 8162, 8136, 8169, 8147, 8158, 8162, 8202, 8154, 8076,0.7939534187316895
81, 8183, 8147, 8113, 8163, 8155, 8176, 8132, 8191, 8154, 8153, 8179, 8224, 8176, 8100,0.8020350933074951
81, 8183, 8147, 8113, 8163, 8155, 8176, 8132, 8191, 8154, 8153, 8179, 8224, 8176, 8100,0.8020350933074951
82, 8161, 8151, 8102, 8161, 8151, 8164, 8146, 8179, 8158, 8161, 8172, 8197, 8166, 8100,0.8095865249633789
82, 8161, 8151, 8102, 8161, 8151, 8164, 8146, 8179, 8158, 8161, 8172, 8197, 8166, 8100,0.8095865249633789
83, 8152, 8140, 8091, 8137, 8123, 8175, 8149, 8154, 8137, 8152, 8158, 8178, 8152, 8085,0.8175952434539795
83, 8152, 8140, 8091, 8137, 8123, 8175, 8149, 8154, 8137, 8152, 8158, 8178, 8152, 8085,0.8175952434539795
84, 8172, 8133, 8092, 8135, 8122, 8185, 8128, 8178, 8107, 8112, 8161, 8204, 8174, 8081,0.8259475231170654
84, 8172, 8133, 8092, 8135, 8122, 8185, 8128, 8178, 8107, 8112, 8161, 8204, 8174, 8081,0.8259475231170654
85, 8135, 8139, 8087, 8165, 8158, 8142, 8136, 8167, 8122, 8132, 8160, 8183, 8165, 8079,0.8339424133300781
85, 8135, 8139, 8087, 8165, 8158, 8142, 8136, 8167, 8122, 8132, 8160, 8183, 8165, 8079,0.8339424133300781
86, 8173, 8154, 8101, 8172, 8148, 8171, 8134, 8186, 8132, 8151, 8170, 8211, 8184, 8093,0.8409404754638672
86, 8173, 8154, 8101, 8172, 8148, 8171, 8134, 8186, 8132, 8151, 8170, 8211, 8184, 8093,0.8409404754638672
87, 8177, 8175, 8114, 8175, 8140, 8170, 8146, 8172, 8149, 8156, 8169, 8211, 8165, 8101,0.8489532470703125
87, 8177, 8175, 8114, 8175, 8140, 8170, 8146, 8172, 8149, 8156, 8169, 8211, 8165, 8101,0.8489532470703125
88, 8166, 8175, 8118, 8185, 8153, 8159, 8169, 8160, 8166, 8171, 8174, 8203, 8157, 8123,0.856917142868042
88, 8166, 8175, 8118, 8185, 8153, 8159, 8169, 8160, 8166, 8171, 8174, 8203, 8157, 8123,0.856917142868042
89, 8186, 8159, 8117, 8160, 8152, 8172, 8159, 8195, 8156, 8171, 8179, 8222, 8187, 8134,0.8651702404022217
89, 8186, 8159, 8117, 8160, 8152, 8172, 8159, 8195, 8156, 8171, 8179, 8222, 8187, 8134,0.8661866188049316
90, 8150, 8158, 8112, 8161, 8170, 8145, 8168, 8163, 8177, 8185, 8173, 8195, 8162, 8125,0.8728153705596924
90, 8150, 8158, 8112, 8161, 8170, 8145, 8168, 8163, 8177, 8185, 8173, 8195, 8162, 8125,0.8728153705596924
91, 8165, 8150, 8111, 8175, 8161, 8172, 8160, 8170, 8175, 8172, 8181, 8216, 8176, 8125,0.8808200359344482
91, 8165, 8150, 8111, 8175, 8161, 8172, 8160, 8170, 8175, 8172, 8181, 8216, 8176, 8125,0.8808200359344482
92, 8143, 8134, 8087, 8149, 8126, 8162, 8137, 8170, 8145, 8156, 8169, 8197, 8170, 8092,0.888953447341919
92, 8143, 8134, 8087, 8149, 8126, 8162, 8137, 8170, 8145, 8156, 8169, 8197, 8170, 8092,0.888953447341919
93, 8127, 8135, 8072, 8141, 8114, 8151, 8142, 8145, 8144, 8161, 8157, 8173, 8146, 8072,0.8972957134246826
93, 8127, 8135, 8072, 8141, 8114, 8151, 8142, 8145, 8144, 8161, 8157, 8173, 8146, 8072,0.8972957134246826
94, 8159, 8128, 8076, 8141, 8125, 8171, 8143, 8167, 8136, 8141, 8156, 8195, 8164, 8079,0.9039547443389893
94, 8159, 8128, 8076, 8141, 8125, 8171, 8143, 8167, 8136, 8141, 8156, 8195, 8164, 8079,0.9039547443389893
95, 8114, 8135, 8077, 8131, 8157, 8133, 8154, 8142, 8139, 8145, 8152, 8161, 8143, 8080,0.9120972156524658
95, 8114, 8135, 8077, 8131, 8157, 8133, 8154, 8142, 8139, 8145, 8152, 8161, 8143, 8080,0.9120972156524658
96, 8128, 8150, 8077, 8126, 8136, 8151, 8150, 8155, 8126, 8145, 8162, 8169, 8158, 8082,0.9201557636260986
96, 8128, 8150, 8077, 8126, 8136, 8151, 8150, 8155, 8126, 8145, 8162, 8169, 8158, 8082,0.9201557636260986
97, 8127, 8148, 8067, 8142, 8122, 8142, 8163, 8157, 8130, 8148, 8145, 8167, 8148, 8064,0.9281563758850098
97, 8127, 8148, 8067, 8142, 8122, 8142, 8163, 8157, 8130, 8148, 8145, 8167, 8148, 8064,0.9281563758850098
98, 8103, 8146, 8070, 8165, 8167, 8120, 8201, 8116, 8164, 8180, 8142, 8150, 8116, 8075,0.9359550476074219
98, 8103, 8146, 8070, 8165, 8167, 8120, 8201, 8116, 8164, 8180, 8142, 8150, 8116, 8075,0.9359550476074219
99, 8144, 8149, 8083, 8158, 8181, 8154, 8195, 8144, 8152, 8168, 8166, 8180, 8149, 8107,0.9437978267669678
99, 8144, 8149, 8083, 8158, 8181, 8154, 8195, 8144, 8152, 8168, 8166, 8180, 8149, 8107,0.9437978267669678
100, 8114, 8159, 8082, 8154, 8182, 8124, 8199, 8132, 8164, 8176, 8157, 8157, 8143, 8105,0.9519534111022949
100, 8114, 8159, 8082, 8154, 8182, 8124, 8199, 8132, 8164, 8176, 8157, 8157, 8143, 8105,0.9519534111022949
101, 8122, 8157, 8085, 8155, 8171, 8134, 8198, 8135, 8180, 8201, 8154, 8167, 8145, 8103,0.960153341293335
101, 8122, 8157, 8085, 8155, 8171, 8134, 8198, 8135, 8180, 8201, 8154, 8167, 8145, 8103,0.960153341293335
102, 8134, 8152, 8086, 8162, 8164, 8150, 8189, 8145, 8171, 8204, 8156, 8172, 8146, 8098,0.967522382736206
102, 8134, 8152, 8086, 8162, 8164, 8150, 8189, 8145, 8171, 8204, 8156, 8172, 8146, 8098,0.967522382736206
103, 8113, 8164, 8087, 8179, 8196, 8133, 8206, 8118, 8170, 8204, 8154, 8155, 8130, 8106,0.9749488830566406
103, 8113, 8164, 8087, 8179, 8196, 8133, 8206, 8118, 8170, 8204, 8154, 8155, 8130, 8106,0.9749488830566406
104, 8152, 8171, 8095, 8167, 8203, 8152, 8208, 8152, 8144, 8177, 8162, 8193, 8159, 8124,0.9827172756195068
104, 8152, 8171, 8095, 8167, 8203, 8152, 8208, 8152, 8144, 8177, 8162, 8193, 8159, 8124,0.9827172756195068
105, 8124, 8174, 8090, 8162, 8197, 8121, 8210, 8141, 8144, 8166, 8153, 8181, 8144, 8107,0.990720272064209
105, 8124, 8174, 8090, 8162, 8197, 8121, 8210, 8141, 8144, 8166, 8153, 8181, 8144, 8107,0.990720272064209
106, 8133, 8170, 8096, 8168, 8188, 8141, 8201, 8137, 8167, 8168, 8152, 8187, 8144, 8101,0.9989535808563232
106, 8133, 8170, 8096, 8168, 8188, 8141, 8201, 8137, 8167, 8168, 8152, 8187, 8144, 8101,0.9989535808563232
107, 8152, 8170, 8105, 8172, 8184, 8158, 8203, 8154, 8174, 8184, 8158, 8187, 8152, 8114,1.0073928833007812
107, 8152, 8170, 8105, 8172, 8184, 8158, 8203, 8154, 8174, 8184, 8158, 8187, 8152, 8114,1.0073928833007812
108, 8125, 8180, 8100, 8182, 8212, 8128, 8231, 8136, 8182, 8206, 8168, 8166, 8141, 8137,1.01495361328125
108, 8125, 8180, 8100, 8182, 8212, 8128, 8231, 8136, 8182, 8206, 8168, 8166, 8141, 8137,1.01495361328125
109, 8156, 8174, 8107, 8175, 8216, 8150, 8235, 8175, 8194, 8202, 8179, 8199, 8168, 8158,1.0226178169250488
109, 8156, 8174, 8107, 8175, 8216, 8150, 8235, 8175, 8194, 8202, 8179, 8199, 8168, 8158,1.0226178169250488
110, 8136, 8168, 8115, 8174, 8215, 8132, 8253, 8163, 8243, 8252, 8176, 8187, 8149, 8149,1.029953956604004
110, 8136, 8168, 8115, 8174, 8215, 8132, 8253, 8163, 8243, 8252, 8176, 8187, 8149, 8149,1.029953956604004
111, 8153, 8171, 8118, 8185, 8217, 8148, 8248, 8142, 8245, 8281, 8184, 8191, 8151, 8152,1.0379528999328613
111, 8153, 8171, 8118, 8185, 8217, 8148, 8248, 8142, 8245, 8281, 8184, 8191, 8151, 8152,1.0379528999328613
112, 8163, 8164, 8104, 8178, 8212, 8150, 8230, 8150, 8198, 8243, 8172, 8190, 8162, 8151,1.0459792613983154
112, 8163, 8164, 8104, 8178, 8212, 8150, 8230, 8150, 8198, 8243, 8172, 8190, 8162, 8151,1.0459792613983154
113, 8121, 8176, 8103, 8178, 8224, 8121, 8257, 8140, 8207, 8245, 8168, 8179, 8147, 8156,1.05399489402771
113, 8121, 8176, 8103, 8178, 8224, 8121, 8257, 8140, 8207, 8245, 8168, 8179, 8147, 8156,1.05399489402771
114, 8161, 8193, 8119, 8180, 8221, 8161, 8244, 8173, 8209, 8242, 8186, 8216, 8171, 8165,1.0619537830352783
114, 8161, 8193, 8119, 8180, 8221, 8161, 8244, 8173, 8209, 8242, 8186, 8216, 8171, 8165,1.0619537830352783
115, 8142, 8192, 8111, 8180, 8231, 8136, 8229, 8142, 8200, 8223, 8173, 8189, 8147, 8138,1.069955587387085
115, 8142, 8192, 8111, 8180, 8231, 8136, 8229, 8142, 8200, 8223, 8173, 8189, 8147, 8138,1.069955587387085
116, 8142, 8191, 8111, 8185, 8228, 8137, 8238, 8127, 8185, 8206, 8172, 8197, 8152, 8139,1.0779528617858887
116, 8142, 8191, 8111, 8185, 8228, 8137, 8238, 8127, 8185, 8206, 8172, 8197, 8152, 8139,1.0779528617858887
117, 8167, 8173, 8110, 8175, 8203, 8153, 8229, 8161, 8163, 8197, 8174, 8216, 8180, 8150,1.085974931716919
117, 8167, 8173, 8110, 8175, 8203, 8153, 8229, 8161, 8163, 8197, 8174, 8216, 8180, 8150,1.085974931716919
118, 8122, 8145, 8089, 8157, 8195, 8117, 8215, 8135, 8171, 8211, 8163, 8172, 8158, 8138,1.0939738750457764
118, 8122, 8145, 8089, 8157, 8195, 8117, 8215, 8135, 8171, 8211, 8163, 8172, 8158, 8138,1.0939738750457764
119, 8134, 8122, 8079, 8129, 8167, 8142, 8177, 8145, 8133, 8178, 8159, 8174, 8169, 8114,1.1011452674865723
119, 8134, 8122, 8079, 8129, 8167, 8142, 8177, 8145, 8133, 8178, 8159, 8174, 8169, 8114,1.1021442413330078
120, 8110, 8127, 8085, 8137, 8171, 8129, 8180, 8145, 8128, 8173, 8156, 8163, 8157, 8096,1.109154462814331
120, 8110, 8127, 8085, 8137, 8171, 8129, 8180, 8145, 8128, 8173, 8156, 8163, 8157, 8096,1.109154462814331
121, 8116, 8154, 8102, 8177, 8202, 8132, 8212, 8151, 8188, 8214, 8179, 8183, 8165, 8121,1.1169168949127197
121, 8116, 8154, 8102, 8177, 8202, 8132, 8212, 8151, 8188, 8214, 8179, 8183, 8165, 8121,1.1169168949127197
122, 8146, 8157, 8102, 8179, 8200, 8150, 8201, 8168, 8202, 8215, 8181, 8201, 8176, 8127,1.124953269958496
122, 8146, 8157, 8102, 8179, 8200, 8150, 8201, 8168, 8202, 8215, 8181, 8201, 8176, 8127,1.124953269958496
123, 8105, 8146, 8096, 8167, 8204, 8119, 8204, 8125, 8197, 8218, 8168, 8170, 8144, 8122,1.1329548358917236
123, 8105, 8146, 8096, 8167, 8204, 8119, 8204, 8125, 8197, 8218, 8168, 8170, 8144, 8122,1.1329548358917236
124, 8142, 8145, 8111, 8173, 8197, 8144, 8206, 8144, 8194, 8210, 8181, 8201, 8170, 8146,1.1409533023834229
124, 8142, 8145, 8111, 8173, 8197, 8144, 8206, 8144, 8194, 8210, 8181, 8201, 8170, 8146,1.1409533023834229
125, 8141, 8169, 8113, 8195, 8210, 8122, 8209, 8145, 8191, 8213, 8175, 8195, 8165, 8151,1.1492974758148193
125, 8141, 8169, 8113, 8195, 8210, 8122, 8209, 8145, 8191, 8213, 8175, 8195, 8165, 8151,1.1492974758148193
126, 8122, 8187, 8114, 8215, 8231, 8117, 8211, 8132, 8181, 8218, 8172, 8184, 8151, 8152,1.1573128700256348
126, 8122, 8187, 8114, 8215, 8231, 8117, 8211, 8132, 8181, 8218, 8172, 8184, 8151, 8152,1.1573128700256348
127, 8150, 8173, 8121, 8212, 8213, 8150, 8211, 8164, 8185, 8210, 8176, 8207, 8169, 8147,1.1643381118774414
127, 8150, 8173, 8121, 8212, 8213, 8150, 8211, 8164, 8185, 8210, 8176, 8207, 8169, 8147,1.1643381118774414
241, 8124, 8171, 8118, 8223, 8214, 8119, 8246, 8137, 8229, 8255, 8176, 8183, 8153, 8154,1.1719534397125244
241, 8124, 8171, 8118, 8223, 8214, 8119, 8246, 8137, 8229, 8255, 8176, 8183, 8153, 8154,1.1719534397125244
0, 8146, 8168, 8118, 8218, 8219, 8134, 8235, 8144, 8205, 8254, 8181, 8199, 8168, 8177,1.1793632507324219
0, 8146, 8168, 8118, 8218, 8219, 8134, 8235, 8144, 8205, 8254, 8181, 8199, 8168, 8177,1.1803617477416992
1, 8124, 8137, 8108, 8191, 8227, 8125, 8196, 8146, 8168, 8202, 8169, 8187, 8161, 8147,1.18794846534729
1, 8124, 8137, 8108, 8191, 8227, 8125, 8196, 8146, 8168, 8202, 8169, 8187, 8161, 8147,1.18794846534729
2, 8103, 8128, 8105, 8195, 8237, 8123, 8198, 8136, 8194, 8199, 8169, 8173, 8152, 8125,1.1962871551513672
2, 8103, 8128, 8105, 8195, 8237, 8123, 8198, 8136, 8194, 8199, 8169, 8173, 8152, 8125,1.1962871551513672
3, 8152, 8149, 8119, 8209, 8210, 8156, 8219, 8168, 8211, 8230, 8174, 8200, 8171, 8141,1.20328688621521
3, 8152, 8149, 8119, 8209, 8210, 8156, 8219, 8168, 8211, 8230, 8174, 8200, 8171, 8141,1.20328688621521
4, 8125, 8151, 8119, 8214, 8213, 8125, 8238, 8140, 8212, 8258, 8171, 8180, 8146, 8150,1.211287498474121
4, 8125, 8151, 8119, 8214, 8213, 8125, 8238, 8140, 8212, 8258, 8171, 8180, 8146, 8150,1.2122852802276611
5, 8145, 8130, 8116, 8205, 8221, 8141, 8204, 8150, 8184, 8220, 8180, 8191, 8168, 8151,1.2192859649658203
5, 8145, 8130, 8116, 8205, 8221, 8141, 8204, 8150, 8184, 8220, 8180, 8191, 8168, 8151,1.2202887535095215
6, 8147, 8134, 8111, 8203, 8208, 8134, 8188, 8164, 8172, 8195, 8173, 8189, 8172, 8133,1.227285385131836
6, 8147, 8134, 8111, 8203, 8208, 8134, 8188, 8164, 8172, 8195, 8173, 8189, 8172, 8133,1.228285312652588
7, 8120, 8138, 8112, 8210, 8204, 8125, 8199, 8139, 8188, 8220, 8166, 8174, 8142, 8124,1.2342848777770996
7, 8120, 8138, 8112, 8210, 8204, 8125, 8199, 8139, 8188, 8220, 8166, 8174, 8142, 8124,1.2352855205535889
8, 8158, 8103, 8118, 8194, 8192, 8165, 8166, 8154, 8156, 8186, 8163, 8191, 8154, 8121,1.2422857284545898
8, 8158, 8103, 8118, 8194, 8192, 8165, 8166, 8154, 8156, 8186, 8163, 8191, 8154, 8121,1.2422857284545898
9, 8134, 8101, 8115, 8190, 8197, 8132, 8176, 8143, 8151, 8178, 8158, 8174, 8149, 8124,1.250286340713501
9, 8134, 8101, 8115, 8190, 8197, 8132, 8176, 8143, 8151, 8178, 8158, 8174, 8149, 8124,1.2512850761413574
10, 8148, 8121, 8117, 8189, 8189, 8145, 8187, 8165, 8164, 8198, 8170, 8185, 8165, 8137,1.258289098739624
10, 8148, 8121, 8117, 8189, 8189, 8145, 8187, 8165, 8164, 8198, 8170, 8185, 8165, 8137,1.258289098739624
11, 8149, 8107, 8111, 8174, 8172, 8156, 8159, 8165, 8157, 8183, 8165, 8175, 8163, 8108,1.2662887573242188
11, 8149, 8107, 8111, 8174, 8172, 8156, 8159, 8165, 8157, 8183, 8165, 8175, 8163, 8108,1.267289161682129
12, 8119, 8101, 8104, 8179, 8179, 8140, 8155, 8132, 8167, 8178, 8164, 8157, 8149, 8094,1.2743732929229736
12, 8119, 8101, 8104, 8179, 8179, 8140, 8155, 8132, 8167, 8178, 8164, 8157, 8149, 8094,1.2743732929229736
13, 8158, 8098, 8112, 8173, 8162, 8167, 8154, 8171, 8156, 8177, 8182, 8194, 8172, 8113,1.2829232215881348
13, 8158, 8098, 8112, 8173, 8162, 8167, 8154, 8171, 8156, 8177, 8182, 8194, 8172, 8113,1.2829232215881348
14, 8133, 8089, 8114, 8165, 8161, 8142, 8162, 8156, 8154, 8192, 8176, 8178, 8152, 8116,1.2909162044525146
14, 8133, 8089, 8114, 8165, 8161, 8142, 8162, 8156, 8154, 8192, 8176, 8178, 8152, 8116,1.2909162044525146
15, 8138, 8087, 8104, 8169, 8152, 8167, 8141, 8142, 8129, 8162, 8160, 8167, 8154, 8110,1.2979528903961182
15, 8138, 8087, 8104, 8169, 8152, 8167, 8141, 8142, 8129, 8162, 8160, 8167, 8154, 8110,1.2979528903961182
16, 8147, 8082, 8090, 8158, 8113, 8175, 8104, 8152, 8089, 8111, 8145, 8161, 8162, 8078,1.3059535026550293
16, 8147, 8082, 8090, 8158, 8113, 8175, 8104, 8152, 8089, 8111, 8145, 8161, 8162, 8078,1.3059535026550293
17, 8123, 8081, 8095, 8152, 8109, 8139, 8123, 8133, 8104, 8123, 8151, 8152, 8150, 8073,1.313976764678955
17, 8123, 8081, 8095, 8152, 8109, 8139, 8123, 8133, 8104, 8123, 8151, 8152, 8150, 8073,1.313976764678955
18, 8166, 8080, 8106, 8145, 8114, 8167, 8114, 8158, 8088, 8102, 8162, 8178, 8173, 8090,1.3219740390777588
18, 8166, 8080, 8106, 8145, 8114, 8167, 8114, 8158, 8088, 8102, 8162, 8178, 8173, 8090,1.3219740390777588
19, 8137, 8083, 8096, 8145, 8126, 8149, 8089, 8139, 8063, 8075, 8147, 8150, 8150, 8065,1.3299531936645508
19, 8137, 8083, 8096, 8145, 8126, 8149, 8089, 8139, 8063, 8075, 8147, 8150, 8150, 8065,1.3299531936645508
20, 8135, 8090, 8104, 8156, 8122, 8161, 8092, 8143, 8068, 8087, 8147, 8157, 8149, 8058,1.3377652168273926
20, 8135, 8090, 8104, 8156, 8122, 8161, 8092, 8143, 8068, 8087, 8147, 8157, 8149, 8058,1.3377652168273926
21, 8158, 8092, 8114, 8150, 8106, 8173, 8108, 8177, 8072, 8097, 8156, 8180, 8169, 8064,1.3447637557983398
21, 8158, 8092, 8114, 8150, 8106, 8173, 8108, 8177, 8072, 8097, 8156, 8180, 8169, 8064,1.3447637557983398
22, 8124, 8091, 8099, 8135, 8114, 8145, 8120, 8148, 8078, 8104, 8147, 8153, 8152, 8050,1.353959083557129
22, 8124, 8091, 8099, 8135, 8114, 8145, 8120, 8148, 8078, 8104, 8147, 8153, 8152, 8050,1.353959083557129
23, 8156, 8070, 8093, 8119, 8104, 8170, 8102, 8161, 8061, 8086, 8141, 8170, 8163, 8041,1.3609533309936523
23, 8156, 8070, 8093, 8119, 8104, 8170, 8102, 8161, 8061, 8086, 8141, 8170, 8163, 8041,1.3609533309936523
24, 8141, 8079, 8099, 8124, 8117, 8151, 8129, 8158, 8083, 8102, 8152, 8171, 8160, 8057,1.3689534664154053
24, 8141, 8079, 8099, 8124, 8117, 8151, 8129, 8158, 8083, 8102, 8152, 8171, 8160, 8057,1.3689534664154053
25, 8144, 8115, 8115, 8136, 8131, 8151, 8148, 8163, 8106, 8112, 8173, 8172, 8171, 8094,1.3773541450500488
25, 8144, 8115, 8115, 8136, 8131, 8151, 8148, 8163, 8106, 8112, 8173, 8172, 8171, 8094,1.3773541450500488
26, 8164, 8117, 8121, 8152, 8129, 8122, 8122, 8187, 8089, 8108, 8171, 8184, 8180, 8089,1.384352684020996
26, 8164, 8117, 8121, 8152, 8129, 8122, 8122, 8187, 8089, 8108, 8171, 8184, 8180, 8089,1.384352684020996
27, 8124, 8107, 8115, 8182, 8154, 8052, 8132, 8155, 8110, 8149, 8167, 8167, 8148, 8071,1.3923614025115967
27, 8124, 8107, 8115, 8182, 8154, 8052, 8132, 8155, 8110, 8149, 8167, 8167, 8148, 8071,1.3932509422302246
28, 8159, 8107, 8120, 8180, 8145, 8100, 8134, 8173, 8119, 8138, 8170, 8185, 8165, 8086,1.400954246520996
28, 8159, 8107, 8120, 8180, 8145, 8100, 8134, 8173, 8119, 8138, 8170, 8185, 8165, 8086,1.400954246520996
29, 8152, 8123, 8122, 8172, 8144, 8099, 8143, 8176, 8133, 8128, 8163, 8180, 8169, 8101,1.4079532623291016
29, 8152, 8123, 8122, 8172, 8144, 8099, 8143, 8176, 8133, 8128, 8163, 8180, 8169, 8101,1.4079532623291016
30, 8146, 8139, 8132, 8172, 8166, 8076, 8147, 8166, 8139, 8145, 8175, 8183, 8169, 8114,1.4169716835021973
30, 8146, 8139, 8132, 8172, 8166, 8076, 8147, 8166, 8139, 8145, 8175, 8183, 8169, 8114,1.4169716835021973
31, 8171, 8128, 8133, 8164, 8156, 8098, 8115, 8189, 8114, 8128, 8179, 8194, 8179, 8095,1.4239771366119385
31, 8171, 8128, 8133, 8164, 8156, 8098, 8115, 8189, 8114, 8128, 8179, 8194, 8179, 8095,1.4239771366119385
32, 8122, 8111, 8113, 8176, 8135, 8088, 8109, 8158, 8126, 8138, 8161, 8167, 8148, 8070,1.4319546222686768
32, 8122, 8111, 8113, 8176, 8135, 8088, 8109, 8158, 8126, 8138, 8161, 8167, 8148, 8070,1.4319546222686768
33, 8141, 8091, 8101, 8160, 8103, 8120, 8097, 8162, 8113, 8129, 8156, 8174, 8157, 8066,1.4399230480194092
33, 8141, 8091, 8101, 8160, 8103, 8120, 8097, 8162, 8113, 8129, 8156, 8174, 8157, 8066,1.4399230480194092
34, 8136, 8083, 8094, 8122, 8115, 8104, 8102, 8162, 8098, 8105, 8159, 8160, 8161, 8056,1.4479246139526367
34, 8136, 8083, 8094, 8122, 8115, 8104, 8102, 8162, 8098, 8105, 8159, 8160, 8161, 8056,1.4479246139526367
35, 8125, 8099, 8105, 8126, 8146, 8091, 8120, 8150, 8116, 8105, 8167, 8154, 8154, 8071,1.4559543132781982
35, 8125, 8099, 8105, 8126, 8146, 8091, 8120, 8150, 8116, 8105, 8167, 8154, 8154, 8071,1.4559543132781982
36, 8157, 8105, 8120, 8133, 8126, 8122, 8096, 8172, 8099, 8098, 8162, 8174, 8169, 8076,1.4639537334442139
36, 8157, 8105, 8120, 8133, 8126, 8122, 8096, 8172, 8099, 8098, 8162, 8174, 8169, 8076,1.4639537334442139
37, 8111, 8094, 8109, 8133, 8129, 8090, 8099, 8142, 8100, 8126, 8149, 8147, 8149, 8058,1.471954345703125
37, 8111, 8094, 8109, 8133, 8129, 8090, 8099, 8142, 8100, 8126, 8149, 8147, 8149, 8058,1.471954345703125
38, 8140, 8100, 8119, 8118, 8128, 8114, 8124, 8160, 8119, 8143, 8161, 8159, 8162, 8076,1.478630542755127
38, 8140, 8100, 8119, 8118, 8128, 8114, 8124, 8160, 8119, 8143, 8161, 8159, 8162, 8076,1.478630542755127
39, 8158, 8124, 8136, 8102, 8116, 8116, 8146, 8184, 8141, 8135, 8168, 8167, 8168, 8092,1.4875097274780273
39, 8158, 8124, 8136, 8102, 8116, 8116, 8146, 8184, 8141, 8135, 8168, 8167, 8168, 8092,1.4885034561157227
40, 8136, 8115, 8129, 8133, 8134, 8105, 8148, 8171, 8156, 8147, 8162, 8164, 8156, 8094,1.4945094585418701
40, 8136, 8115, 8129, 8133, 8134, 8105, 8148, 8171, 8156, 8147, 8162, 8164, 8156, 8094,1.4955031871795654
41, 8168, 8094, 8120, 8140, 8139, 8147, 8121, 8191, 8141, 8140, 8154, 8186, 8168, 8081,1.5035159587860107
41, 8168, 8094, 8120, 8140, 8139, 8147, 8121, 8191, 8141, 8140, 8154, 8186, 8168, 8081,1.5035159587860107
42, 8141, 8111, 8123, 8121, 8143, 8129, 8140, 8160, 8158, 8143, 8156, 8162, 8152, 8069,1.5112004280090332
42, 8141, 8111, 8123, 8121, 8143, 8129, 8140, 8160, 8158, 8143, 8156, 8162, 8152, 8069,1.5112004280090332
43, 8159, 8108, 8126, 8110, 8121, 8147, 8144, 8162, 8147, 8121, 8158, 8166, 8163, 8076,1.5189528465270996
43, 8159, 8108, 8126, 8110, 8121, 8147, 8144, 8162, 8147, 8121, 8158, 8166, 8163, 8076,1.5189528465270996
44, 8158, 8084, 8113, 8079, 8115, 8149, 8126, 8184, 8110, 8102, 8144, 8174, 8169, 8065,1.526698112487793
44, 8158, 8084, 8113, 8079, 8115, 8149, 8126, 8184, 8110, 8102, 8144, 8174, 8169, 8065,1.526698112487793
45, 8137, 8104, 8121, 8072, 8141, 8140, 8137, 8170, 8117, 8125, 8157, 8169, 8163, 8066,1.5344922542572021
45, 8137, 8104, 8121, 8072, 8141, 8140, 8137, 8170, 8117, 8125, 8157, 8169, 8163, 8066,1.5344922542572021
46, 8189, 8126, 8149, 8113, 8121, 8183, 8132, 8190, 8117, 8124, 8177, 8191, 8185, 8077,1.5424847602844238
46, 8189, 8126, 8149, 8113, 8121, 8183, 8132, 8190, 8117, 8124, 8177, 8191, 8185, 8077,1.5424847602844238
47, 8172, 8129, 8149, 8137, 8121, 8153, 8143, 8171, 8130, 8136, 8162, 8171, 8171, 8082,1.5509541034698486
47, 8172, 8129, 8149, 8137, 8121, 8153, 8143, 8171, 8130, 8136, 8162, 8171, 8171, 8082,1.5509541034698486
48, 8191, 8132, 8148, 8111, 8140, 8166, 8135, 8181, 8126, 8127, 8160, 8173, 8179, 8096,1.5579533576965332
48, 8191, 8132, 8148, 8111, 8140, 8166, 8135, 8181, 8126, 8127, 8160, 8173, 8179, 8096,1.5579533576965332
49, 8197, 8134, 8149, 8097, 8132, 8178, 8103, 8200, 8098, 8096, 8166, 8182, 8187, 8081,1.5664458274841309
49, 8197, 8134, 8149, 8097, 8132, 8178, 8103, 8200, 8098, 8096, 8166, 8182, 8187, 8081,1.5664458274841309
50, 8161, 8139, 8144, 8112, 8122, 8159, 8097, 8171, 8099, 8099, 8156, 8172, 8165, 8060,1.5735220909118652
50, 8161, 8139, 8144, 8112, 8122, 8159, 8097, 8171, 8099, 8099, 8156, 8172, 8165, 8060,1.5735220909118652
51, 8205, 8125, 8148, 8090, 8103, 8190, 8088, 8196, 8080, 8085, 8154, 8187, 8183, 8059,1.581954002380371
51, 8205, 8125, 8148, 8090, 8103, 8190, 8088, 8196, 8080, 8085, 8154, 8187, 8183, 8059,1.581954002380371
52, 8185, 8116, 8147, 8076, 8103, 8164, 8109, 8188, 8081, 8077, 8160, 8170, 8180, 8063,1.5899543762207031
52, 8185, 8116, 8147, 8076, 8103, 8164, 8109, 8188, 8081, 8077, 8160, 8170, 8180, 8063,1.590348482131958
53, 8184, 8127, 8148, 8085, 8105, 8177, 8114, 8189, 8096, 8068, 8164, 8185, 8184, 8071,1.5979535579681396
53, 8184, 8127, 8148, 8085, 8105, 8177, 8114, 8189, 8096, 8068, 8164, 8185, 8184, 8071,1.5979535579681396
54, 8194, 8125, 8145, 8074, 8089, 8185, 8083, 8210, 8090, 8062, 8152, 8198, 8187, 8056,1.6062095165252686
54, 8194, 8125, 8145, 8074, 8089, 8185, 8083, 8210, 8090, 8062, 8152, 8198, 8187, 8056,1.6062095165252686
55, 8159, 8125, 8136, 8071, 8078, 8155, 8075, 8180, 8092, 8075, 8147, 8166, 8171, 8043,1.6142096519470215
55, 8159, 8125, 8136, 8071, 8078, 8155, 8075, 8180, 8092, 8075, 8147, 8166, 8171, 8043,1.6142096519470215
56, 8191, 8131, 8136, 8067, 8059, 8188, 8071, 8199, 8074, 8048, 8153, 8184, 8194, 8044,1.6222147941589355
56, 8191, 8131, 8136, 8067, 8059, 8188, 8071, 8199, 8074, 8048, 8153, 8184, 8194, 8044,1.6222147941589355
57, 8159, 8129, 8126, 8059, 8069, 8168, 8084, 8186, 8072, 8047, 8147, 8180, 8181, 8031,1.6290969848632812
57, 8159, 8129, 8126, 8059, 8069, 8168, 8084, 8186, 8072, 8047, 8147, 8180, 8181, 8031,1.6290969848632812
58, 8150, 8125, 8127, 8065, 8075, 8174, 8090, 8169, 8072, 8074, 8146, 8169, 8170, 8031,1.6369166374206543
58, 8150, 8125, 8127, 8065, 8075, 8174, 8090, 8169, 8072, 8074, 8146, 8169, 8170, 8031,1.6369166374206543
59, 8176, 8128, 8132, 8068, 8070, 8179, 8086, 8189, 8073, 8072, 8154, 8181, 8184, 8040,1.6449413299560547
59, 8176, 8128, 8132, 8068, 8070, 8179, 8086, 8189, 8073, 8072, 8154, 8181, 8184, 8040,1.6449413299560547
60, 8141, 8142, 8125, 8074, 8092, 8141, 8114, 8170, 8102, 8079, 8162, 8169, 8172, 8046,1.6529593467712402
60, 8141, 8142, 8125, 8074, 8092, 8141, 8114, 8170, 8102, 8079, 8162, 8169, 8172, 8046,1.6529593467712402
61, 8171, 8135, 8119, 8069, 8081, 8178, 8106, 8193, 8083, 8055, 8160, 8177, 8184, 8038,1.6609528064727783
61, 8171, 8135, 8119, 8069, 8081, 8178, 8106, 8193, 8083, 8055, 8160, 8177, 8184, 8038,1.6609528064727783
62, 8154, 8128, 8114, 8066, 8076, 8169, 8096, 8178, 8084, 8057, 8151, 8168, 8175, 8016,1.6689541339874268
62, 8154, 8128, 8114, 8066, 8076, 8169, 8096, 8178, 8084, 8057, 8151, 8168, 8175, 8016,1.6689541339874268
63, 8149, 8145, 8134, 8088, 8092, 8173, 8100, 8162, 8121, 8100, 8159, 8177, 8168, 8031,1.6773395538330078
63, 8149, 8145, 8134, 8088, 8092, 8173, 8100, 8162, 8121, 8100, 8159, 8177, 8168, 8031,1.6773395538330078
64, 8181, 8147, 8150, 8099, 8094, 8192, 8103, 8195, 8116, 8099, 8165, 8191, 8186, 8054,1.6846442222595215
64, 8181, 8147, 8150, 8099, 8094, 8192, 8103, 8195, 8116, 8099, 8165, 8191, 8186, 8054,1.6846442222595215
65, 8144, 8141, 8138, 8099, 8114, 8158, 8127, 8173, 8113, 8092, 8160, 8165, 8174, 8056,1.6916449069976807
65, 8144, 8141, 8138, 8099, 8114, 8158, 8127, 8173, 8113, 8092, 8160, 8165, 8174, 8056,1.6916449069976807
66, 8168, 8136, 8138, 8094, 8105, 8182, 8110, 8180, 8094, 8072, 8163, 8188, 8185, 8058,1.6999537944793701
66, 8168, 8136, 8138, 8094, 8105, 8182, 8110, 8180, 8094, 8072, 8163, 8188, 8185, 8058,1.6999537944793701
67, 8152, 8146, 8146, 8107, 8098, 8169, 8100, 8179, 8100, 8086, 8169, 8199, 8177, 8056,1.7077744007110596
67, 8152, 8146, 8146, 8107, 8098, 8169, 8100, 8179, 8100, 8086, 8169, 8199, 8177, 8056,1.7077744007110596
68, 8142, 8152, 8152, 8128, 8114, 8170, 8123, 8165, 8129, 8128, 8172, 8192, 8168, 8068,1.715787410736084
68, 8142, 8152, 8152, 8128, 8114, 8170, 8123, 8165, 8129, 8128, 8172, 8192, 8168, 8068,1.715787410736084
69, 8186, 8135, 8153, 8109, 8098, 8195, 8120, 8188, 8107, 8110, 8162, 8203, 8184, 8077,1.723787546157837
69, 8186, 8135, 8153, 8109, 8098, 8195, 8120, 8188, 8107, 8110, 8162, 8203, 8184, 8077,1.723787546157837
70, 8148, 8145, 8154, 8104, 8093, 8154, 8127, 8168, 8099, 8094, 8162, 8190, 8167, 8077,1.7319540977478027
70, 8148, 8145, 8154, 8104, 8093, 8154, 8127, 8168, 8099, 8094, 8162, 8190, 8167, 8077,1.7319540977478027
71, 8163, 8156, 8163, 8127, 8095, 8186, 8115, 8184, 8101, 8086, 8177, 8209, 8181, 8078,1.7398042678833008
71, 8163, 8156, 8163, 8127, 8095, 8186, 8115, 8184, 8101, 8086, 8177, 8209, 8181, 8078,1.7398042678833008
72, 8160, 8139, 8161, 8134, 8105, 8180, 8112, 8190, 8116, 8093, 8169, 8211, 8183, 8068,1.7479538917541504
72, 8160, 8139, 8161, 8134, 8105, 8180, 8112, 8190, 8116, 8093, 8169, 8211, 8183, 8068,1.7479538917541504
73, 8147, 8139, 8163, 8135, 8126, 8157, 8136, 8168, 8132, 8105, 8160, 8200, 8163, 8077,1.7562057971954346
73, 8147, 8139, 8163, 8135, 8126, 8157, 8136, 8168, 8132, 8105, 8160, 8200, 8163, 8077,1.7562057971954346
74, 8182, 8149, 8168, 8131, 8114, 8186, 8132, 8188, 8103, 8087, 8165, 8214, 8175, 8086,1.7632133960723877
74, 8182, 8149, 8168, 8131, 8114, 8186, 8132, 8188, 8103, 8087, 8165, 8214, 8175, 8086,1.7632133960723877
75, 8141, 8148, 8157, 8133, 8119, 8159, 8142, 8164, 8113, 8099, 8168, 8199, 8168, 8088,1.7705788612365723
75, 8141, 8148, 8157, 8133, 8119, 8159, 8142, 8164, 8113, 8099, 8168, 8199, 8168, 8088,1.7705788612365723
76, 8157, 8140, 8152, 8128, 8122, 8174, 8136, 8171, 8125, 8094, 8166, 8212, 8182, 8097,1.7785747051239014
76, 8157, 8140, 8152, 8128, 8122, 8174, 8136, 8171, 8125, 8094, 8166, 8212, 8182, 8097,1.7785747051239014
77, 8162, 8148, 8147, 8121, 8122, 8172, 8128, 8189, 8126, 8096, 8160, 8218, 8182, 8083,1.7865750789642334
77, 8162, 8148, 8147, 8121, 8122, 8172, 8128, 8189, 8126, 8096, 8160, 8218, 8182, 8083,1.7865750789642334
78, 8142, 8150, 8142, 8114, 8124, 8163, 8146, 8166, 8143, 8128, 8162, 8199, 8166, 8075,1.7945845127105713
78, 8142, 8150, 8142, 8114, 8124, 8163, 8146, 8166, 8143, 8128, 8162, 8199, 8166, 8075,1.7945845127105713
79, 8175, 8127, 8142, 8095, 8101, 8188, 8140, 8182, 8127, 8107, 8156, 8206, 8186, 8073,1.802696943283081
79, 8175, 8127, 8142, 8095, 8101, 8188, 8140, 8182, 8127, 8107, 8156, 8206, 8186, 8073,1.802696943283081
80, 8138, 8126, 8133, 8113, 8126, 8150, 8153, 8167, 8139, 8106, 8148, 8195, 8172, 8073,1.8109674453735352
80, 8138, 8126, 8133, 8113, 8126, 8150, 8153, 8167, 8139, 8106, 8148, 8195, 8172, 8073,1.8109674453735352
81, 8158, 8139, 8133, 8128, 8132, 8174, 8145, 8178, 8143, 8112, 8157, 8204, 8175, 8084,1.817962408065796
81, 8158, 8139, 8133, 8128, 8132, 8174, 8145, 8178, 8143, 8112, 8157, 8204, 8175, 8084,1.817962408065796
82, 8171, 8137, 8131, 8105, 8099, 8180, 8117, 8185, 8115, 8097, 8155, 8205, 8179, 8068,1.8259553909301758
82, 8171, 8137, 8131, 8105, 8099, 8180, 8117, 8185, 8115, 8097, 8155, 8205, 8179, 8068,1.8259553909301758
83, 8136, 8133, 8134, 8103, 8109, 8153, 8132, 8150, 8130, 8118, 8151, 8192, 8162, 8060,1.8339550495147705
83, 8136, 8133, 8134, 8103, 8109, 8153, 8132, 8150, 8130, 8118, 8151, 8192, 8162, 8060,1.8339550495147705
84, 8180, 8129, 8154, 8111, 8135, 8192, 8150, 8185, 8148, 8125, 8157, 8216, 8175, 8077,1.8419556617736816
84, 8180, 8129, 8154, 8111, 8135, 8192, 8150, 8185, 8148, 8125, 8157, 8216, 8175, 8077,1.8419556617736816
85, 8162, 8150, 8159, 8128, 8157, 8164, 8179, 8182, 8168, 8135, 8162, 8211, 8158, 8081,1.8500087261199951
85, 8162, 8150, 8159, 8128, 8157, 8164, 8179, 8182, 8168, 8135, 8162, 8211, 8158, 8081,1.8500087261199951
86, 8171, 8162, 8155, 8140, 8139, 8168, 8179, 8167, 8162, 8135, 8166, 8219, 8160, 8086,1.8584706783294678
86, 8171, 8162, 8155, 8140, 8139, 8168, 8179, 8167, 8162, 8135, 8166, 8219, 8160, 8086,1.8584706783294678
87, 8186, 8135, 8148, 8128, 8131, 8176, 8165, 8178, 8143, 8122, 8167, 8226, 8179, 8088,1.8654749393463135
87, 8186, 8135, 8148, 8128, 8131, 8176, 8165, 8178, 8143, 8122, 8167, 8226, 8179, 8088,1.8664734363555908
88, 8149, 8130, 8146, 8124, 8168, 8142, 8194, 8164, 8161, 8147, 8174, 8209, 8168, 8096,1.8735263347625732
88, 8149, 8130, 8146, 8124, 8168, 8142, 8194, 8164, 8161, 8147, 8174, 8209, 8168, 8096,1.8735263347625732
89, 8177, 8136, 8140, 8109, 8163, 8171, 8191, 8191, 8146, 8137, 8169, 8220, 8174, 8097,1.8819544315338135
89, 8177, 8136, 8140, 8109, 8163, 8171, 8191, 8191, 8146, 8137, 8169, 8220, 8174, 8097,1.8819544315338135
90, 8142, 8128, 8114, 8096, 8163, 8155, 8187, 8177, 8145, 8124, 8147, 8193, 8159, 8078,1.888941764831543
90, 8142, 8128, 8114, 8096, 8163, 8155, 8187, 8177, 8145, 8124, 8147, 8193, 8159, 8078,1.888941764831543
91, 8145, 8127, 8118, 8113, 8176, 8164, 8190, 8177, 8168, 8134, 8151, 8190, 8167, 8076,1.8969383239746094
91, 8145, 8127, 8118, 8113, 8176, 8164, 8190, 8177, 8168, 8134, 8151, 8190, 8167, 8076,1.8969383239746094
92, 8185, 8146, 8138, 8116, 8167, 8186, 8192, 8211, 8179, 8153, 8163, 8214, 8183, 8081,1.9052162170410156
92, 8185, 8146, 8138, 8116, 8167, 8186, 8192, 8211, 8179, 8153, 8163, 8214, 8183, 8081,1.9052162170410156
93, 8162, 8168, 8144, 8120, 8181, 8167, 8237, 8187, 8201, 8186, 8166, 8206, 8169, 8097,1.9128391742706299
93, 8162, 8168, 8144, 8120, 8181, 8167, 8237, 8187, 8201, 8186, 8166, 8206, 8169, 8097,1.9128391742706299
94, 8206, 8163, 8160, 8142, 8186, 8197, 8238, 8215, 8185, 8169, 8174, 8231, 8196, 8120,1.9209489822387695
94, 8206, 8163, 8160, 8142, 8186, 8197, 8238, 8215, 8185, 8169, 8174, 8231, 8196, 8120,1.9209489822387695
95, 8196, 8156, 8168, 8150, 8178, 8179, 8207, 8223, 8176, 8161, 8182, 8239, 8197, 8118,1.9289603233337402
95, 8196, 8156, 8168, 8150, 8178, 8179, 8207, 8223, 8176, 8161, 8182, 8239, 8197, 8118,1.9289603233337402
96, 8186, 8156, 8165, 8135, 8166, 8195, 8191, 8198, 8175, 8160, 8180, 8231, 8185, 8104,1.9369606971740723
96, 8186, 8156, 8165, 8135, 8166, 8195, 8191, 8198, 8175, 8160, 8180, 8231, 8185, 8104,1.9369606971740723
97, 8210, 8155, 8162, 8133, 8151, 8218, 8190, 8207, 8156, 8143, 8169, 8233, 8191, 8092,1.944643259048462
97, 8210, 8155, 8162, 8133, 8151, 8218, 8190, 8207, 8156, 8143, 8169, 8233, 8191, 8092,1.945674180984497
98, 8179, 8170, 8170, 8167, 8181, 8171, 8223, 8195, 8181, 8184, 8175, 8231, 8180, 8111,1.9519572257995605
98, 8179, 8170, 8170, 8167, 8181, 8171, 8223, 8195, 8181, 8184, 8175, 8231, 8180, 8111,1.9519572257995605
99, 8214, 8178, 8190, 8160, 8202, 8200, 8224, 8223, 8191, 8197, 8195, 8263, 8202, 8140,1.9599285125732422
99, 8214, 8178, 8190, 8160, 8202, 8200, 8224, 8223, 8191, 8197, 8195, 8263, 8202, 8140,1.9599285125732422
100, 8195, 8172, 8182, 8142, 8204, 8188, 8227, 8222, 8201, 8194, 8193, 8250, 8196, 8122,1.9679536819458008
100, 8195, 8172, 8182, 8142, 8204, 8188, 8227, 8222, 8201, 8194, 8193, 8250, 8196, 8122,1.9679536819458008
101, 8160, 8159, 8162, 8166, 8202, 8174, 8241, 8200, 8219, 8219, 8182, 8217, 8172, 8100,1.9760181903839111
101, 8160, 8159, 8162, 8166, 8202, 8174, 8241, 8200, 8219, 8219, 8182, 8217, 8172, 8100,1.9760181903839111
102, 8180, 8144, 8147, 8161, 8191, 8196, 8231, 8215, 8196, 8211, 8173, 8220, 8177, 8096,1.984022855758667
102, 8180, 8144, 8147, 8161, 8191, 8196, 8231, 8215, 8196, 8211, 8173, 8220, 8177, 8096,1.984022855758667
103, 8147, 8153, 8141, 8151, 8219, 8154, 8246, 8180, 8205, 8214, 8173, 8214, 8169, 8111,1.992032766342163
103, 8147, 8153, 8141, 8151, 8219, 8154, 8246, 8180, 8205, 8214, 8173, 8214, 8169, 8111,1.992032766342163
104, 8161, 8155, 8145, 8149, 8228, 8167, 8237, 8189, 8208, 8207, 8180, 8225, 8181, 8128,2.0002241134643555
104, 8161, 8155, 8145, 8149, 8228, 8167, 8237, 8189, 8208, 8207, 8180, 8225, 8181, 8128,2.0002241134643555
105, 8137, 8147, 8132, 8142, 8209, 8153, 8225, 8193, 8203, 8194, 8178, 8214, 8171, 8109,2.0082242488861084
105, 8137, 8147, 8132, 8142, 8209, 8153, 8225, 8193, 8203, 8194, 8178, 8214, 8171, 8109,2.0082242488861084
106, 8125, 8162, 8137, 8161, 8207, 8142, 8238, 8168, 8225, 8206, 8178, 8213, 8154, 8115,2.015953540802002
106, 8125, 8162, 8137, 8161, 8207, 8142, 8238, 8168, 8225, 8206, 8178, 8213, 8154, 8115,2.015953540802002
107, 8177, 8173, 8162, 8184, 8210, 8175, 8242, 8193, 8226, 8216, 8184, 8242, 8171, 8143,2.0229544639587402
107, 8177, 8173, 8162, 8184, 8210, 8175, 8242, 8193, 8226, 8216, 8184, 8242, 8171, 8143,2.0229544639587402
108, 8136, 8161, 8152, 8181, 8235, 8140, 8266, 8172, 8231, 8242, 8186, 8221, 8164, 8147,2.031073570251465
108, 8136, 8161, 8152, 8181, 8235, 8140, 8266, 8172, 8231, 8242, 8186, 8221, 8164, 8147,2.031073570251465
109, 8148, 8127, 8135, 8147, 8220, 8160, 8248, 8179, 8212, 8216, 8176, 8209, 8169, 8129,2.039073944091797
109, 8148, 8127, 8135, 8147, 8220, 8160, 8248, 8179, 8212, 8216, 8176, 8209, 8169, 8129,2.039073944091797
110, 8151, 8119, 8131, 8129, 8204, 8159, 8226, 8194, 8204, 8198, 8166, 8206, 8168, 8108,2.0470728874206543
110, 8151, 8119, 8131, 8129, 8204, 8159, 8226, 8194, 8204, 8198, 8166, 8206, 8168, 8108,2.0470728874206543
111, 8134, 8153, 8145, 8155, 8218, 8144, 8251, 8170, 8235, 8236, 8184, 8214, 8163, 8123,2.0549488067626953
111, 8134, 8153, 8145, 8155, 8218, 8144, 8251, 8170, 8235, 8236, 8184, 8214, 8163, 8123,2.0549488067626953
112, 8176, 8145, 8157, 8169, 8204, 8174, 8253, 8188, 8224, 8224, 8190, 8233, 8182, 8134,2.0631284713745117
112, 8176, 8145, 8157, 8169, 8204, 8174, 8253, 8188, 8224, 8224, 8190, 8233, 8182, 8134,2.0631284713745117
113, 8129, 8111, 8133, 8165, 8227, 8140, 8268, 8172, 8226, 8222, 8174, 8199, 8166, 8127,2.0709540843963623
113, 8129, 8111, 8133, 8165, 8227, 8140, 8268, 8172, 8226, 8222, 8174, 8199, 8166, 8127,2.0709540843963623
114, 8131, 8108, 8123, 8150, 8243, 8153, 8261, 8184, 8224, 8226, 8175, 8196, 8169, 8128,2.078831195831299
114, 8131, 8108, 8123, 8150, 8243, 8153, 8261, 8184, 8224, 8226, 8175, 8196, 8169, 8128,2.078831195831299
115, 8149, 8126, 8130, 8144, 8233, 8157, 8241, 8198, 8217, 8229, 8180, 8210, 8174, 8120,2.0858242511749268
115, 8149, 8126, 8130, 8144, 8233, 8157, 8241, 8198, 8217, 8229, 8180, 8210, 8174, 8120,2.0858242511749268
116, 8138, 8150, 8143, 8164, 8246, 8143, 8266, 8167, 8260, 8256, 8182, 8208, 8160, 8131,2.0938363075256348
116, 8138, 8150, 8143, 8164, 8246, 8143, 8266, 8167, 8260, 8256, 8182, 8208, 8160, 8131,2.0938363075256348
117, 8185, 8155, 8153, 8167, 8224, 8177, 8269, 8185, 8257, 8237, 8179, 8220, 8173, 8148,2.1019537448883057
117, 8185, 8155, 8153, 8167, 8224, 8177, 8269, 8185, 8257, 8237, 8179, 8220, 8173, 8148,2.1019537448883057
118, 8149, 8133, 8141, 8163, 8207, 8139, 8260, 8166, 8233, 8233, 8175, 8198, 8159, 8136,2.109912633895874
118, 8149, 8133, 8141, 8163, 8207, 8139, 8260, 8166, 8233, 8233, 8175, 8198, 8159, 8136,2.109912633895874
119, 8150, 8120, 8142, 8165, 8213, 8152, 8246, 8166, 8221, 8233, 8177, 8203, 8162, 8131,2.1179134845733643
119, 8150, 8120, 8142, 8165, 8213, 8152, 8246, 8166, 8221, 8233, 8177, 8203, 8162, 8131,2.1179134845733643
120, 8175, 8135, 8157, 8163, 8220, 8164, 8245, 8188, 8214, 8211, 8177, 8227, 8173, 8138,2.125955104827881
120, 8175, 8135, 8157, 8163, 8220, 8164, 8245, 8188, 8214, 8211, 8177, 8227, 8173, 8138,2.125955104827881
121, 8148, 8148, 8162, 8166, 8253, 8133, 8266, 8163, 8225, 8219, 8179, 8224, 8160, 8146,2.134268283843994
121, 8148, 8148, 8162, 8166, 8253, 8133, 8266, 8163, 8225, 8219, 8179, 8224, 8160, 8146,2.134268283843994
122, 8178, 8139, 8163, 8159, 8265, 8167, 8257, 8188, 8216, 8225, 8179, 8231, 8170, 8146,2.141953706741333
122, 8178, 8139, 8163, 8159, 8265, 8167, 8257, 8188, 8216, 8225, 8179, 8231, 8170, 8146,2.1426196098327637
123, 8150, 8154, 8162, 8174, 8262, 8138, 8268, 8181, 8237, 8252, 8186, 8216, 8161, 8150,2.148928642272949
123, 8150, 8154, 8162, 8174, 8262, 8138, 8268, 8181, 8237, 8252, 8186, 8216, 8161, 8150,2.148928642272949
124, 8149, 8162, 8163, 8191, 8253, 8140, 8270, 8169, 8243, 8268, 8191, 8213, 8163, 8157,2.1569368839263916
124, 8149, 8162, 8163, 8191, 8253, 8140, 8270, 8169, 8243, 8268, 8191, 8213, 8163, 8157,2.1569368839263916
125, 8157, 8129, 8140, 8155, 8238, 8161, 8243, 8170, 8217, 8239, 8173, 8202, 8153, 8122,2.1650278568267822
125, 8157, 8129, 8140, 8155, 8238, 8161, 8243, 8170, 8217, 8239, 8173, 8202, 8153, 8122,2.1650278568267822
126, 8110, 8122, 8112, 8139, 8235, 8135, 8244, 8129, 8224, 8220, 8162, 8176, 8131, 8100,2.1730055809020996
126, 8110, 8122, 8112, 8139, 8235, 8135, 8244, 8129, 8224, 8220, 8162, 8176, 8131, 8100,2.1730055809020996
127, 8155, 8126, 8117, 8145, 8222, 8159, 8243, 8155, 8204, 8200, 8165, 8192, 8158, 8115,2.181049346923828
127, 8155, 8126, 8117, 8145, 8222, 8159, 8243, 8155, 8204, 8200, 8165, 8192, 8158, 8115,2.181049346923828
241, 8146, 8121, 8121, 8140, 8245, 8126, 8248, 8160, 8197, 8212, 8172, 8185, 8151, 8118,2.18904185295105
241, 8146, 8121, 8121, 8140, 8245, 8126, 8248, 8160, 8197, 8212, 8172, 8185, 8151, 8118,2.18904185295105
0, 8139, 8126, 8121, 8137, 8249, 8130, 8227, 8143, 8210, 8213, 8167, 8189, 8140, 8112,2.1969165802001953
0, 8139, 8126, 8121, 8137, 8249, 8130, 8227, 8143, 8210, 8213, 8167, 8189, 8140, 8112,2.1969165802001953
1, 8163, 8120, 8118, 8139, 8214, 8162, 8201, 8156, 8207, 8189, 8152, 8202, 8149, 8100,2.205068349838257
1, 8163, 8120, 8118, 8139, 8214, 8162, 8201, 8156, 8207, 8189, 8152, 8202, 8149, 8100,2.205068349838257
2, 8127, 8115, 8114, 8157, 8242, 8127, 8245, 8135, 8231, 8223, 8164, 8190, 8143, 8117,2.2128286361694336
2, 8127, 8115, 8114, 8157, 8242, 8127, 8245, 8135, 8231, 8223, 8164, 8190, 8143, 8117,2.2128286361694336
3, 8165, 8118, 8130, 8141, 8255, 8151, 8245, 8158, 8217, 8217, 8171, 8207, 8157, 8133,2.219954490661621
3, 8165, 8118, 8130, 8141, 8255, 8151, 8245, 8158, 8217, 8217, 8171, 8207, 8157, 8133,2.219954490661621
4, 8152, 8129, 8136, 8123, 8237, 8142, 8218, 8152, 8201, 8189, 8163, 8206, 8146, 8113,2.227972984313965
4, 8152, 8129, 8136, 8123, 8237, 8142, 8218, 8152, 8201, 8189, 8163, 8206, 8146, 8113,2.227972984313965
5, 8143, 8140, 8138, 8156, 8232, 8143, 8232, 8132, 8222, 8208, 8169, 8212, 8142, 8119,2.235976457595825
5, 8143, 8140, 8138, 8156, 8232, 8143, 8232, 8132, 8222, 8208, 8169, 8212, 8142, 8119,2.235976457595825
6, 8179, 8132, 8135, 8152, 8216, 8162, 8231, 8149, 8215, 8212, 8159, 8222, 8156, 8126,2.2439539432525635
6, 8179, 8132, 8135, 8152, 8216, 8162, 8231, 8149, 8215, 8212, 8159, 8222, 8156, 8126,2.2439539432525635
7, 8129, 8117, 8123, 8121, 8231, 8121, 8236, 8127, 8216, 8215, 8150, 8199, 8141, 8125,2.251955032348633
7, 8129, 8117, 8123, 8121, 8231, 8121, 8236, 8127, 8216, 8215, 8150, 8199, 8141, 8125,2.251955032348633
8, 8149, 8104, 8123, 8123, 8240, 8153, 8221, 8150, 8203, 8185, 8162, 8206, 8147, 8130,2.259953022003174
8, 8149, 8104, 8123, 8123, 8240, 8153, 8221, 8150, 8203, 8185, 8162, 8206, 8147, 8130,2.259953022003174
9, 8157, 8121, 8125, 8130, 8240, 8149, 8215, 8147, 8206, 8186, 8167, 8214, 8145, 8122,2.2679495811462402
9, 8157, 8121, 8125, 8130, 8240, 8149, 8215, 8147, 8206, 8186, 8167, 8214, 8145, 8122,2.2689614295959473
10, 8154, 8143, 8141, 8143, 8240, 8143, 8234, 8133, 8237, 8240, 8174, 8227, 8142, 8131,2.275519609451294
10, 8154, 8143, 8141, 8143, 8240, 8143, 8234, 8133, 8237, 8240, 8174, 8227, 8142, 8131,2.275519609451294
11, 8190, 8128, 8154, 8162, 8229, 8179, 8229, 8172, 8224, 8237, 8175, 8236, 8160, 8138,2.28294038772583
11, 8190, 8128, 8154, 8162, 8229, 8179, 8229, 8172, 8224, 8237, 8175, 8236, 8160, 8138,2.28294038772583
12, 8155, 8124, 8145, 8166, 8253, 8147, 8232, 8157, 8214, 8227, 8169, 8213, 8158, 8135,2.2909319400787354
12, 8155, 8124, 8145, 8166, 8253, 8147, 8232, 8157, 8214, 8227, 8169, 8213, 8158, 8135,2.2909319400787354
13, 8184, 8124, 8147, 8140, 8239, 8179, 8198, 8169, 8189, 8208, 8171, 8225, 8169, 8130,2.298931837081909
13, 8184, 8124, 8147, 8140, 8239, 8179, 8198, 8169, 8189, 8208, 8171, 8225, 8169, 8130,2.298931837081909
14, 8181, 8109, 8145, 8126, 8200, 8180, 8174, 8172, 8180, 8192, 8167, 8221, 8159, 8105,2.3069374561309814
14, 8181, 8109, 8145, 8126, 8200, 8180, 8174, 8172, 8180, 8192, 8167, 8221, 8159, 8105,2.3069374561309814
15, 8148, 8113, 8143, 8144, 8212, 8156, 8206, 8143, 8202, 8195, 8155, 8202, 8147, 8105,2.3149337768554688
15, 8148, 8113, 8143, 8144, 8212, 8156, 8206, 8143, 8202, 8195, 8155, 8202, 8147, 8105,2.3149337768554688
16, 8176, 8118, 8148, 8144, 8229, 8173, 8216, 8160, 8184, 8181, 8153, 8212, 8164, 8122,2.3229315280914307
16, 8176, 8118, 8148, 8144, 8229, 8173, 8216, 8160, 8184, 8181, 8153, 8212, 8164, 8122,2.3229315280914307
17, 8129, 8137, 8145, 8151, 8257, 8118, 8244, 8138, 8206, 8229, 8178, 8203, 8149, 8144,2.330934762954712
17, 8129, 8137, 8145, 8151, 8257, 8118, 8244, 8138, 8206, 8229, 8178, 8203, 8149, 8144,2.330934762954712
18, 8132, 8147, 8139, 8156, 8251, 8123, 8246, 8133, 8219, 8252, 8185, 8201, 8139, 8145,2.338932752609253
18, 8132, 8147, 8139, 8156, 8251, 8123, 8246, 8133, 8219, 8252, 8185, 8201, 8139, 8145,2.338932752609253
19, 8128, 8126, 8124, 8143, 8240, 8134, 8226, 8127, 8202, 8209, 8158, 8191, 8130, 8108,2.3459320068359375
19, 8128, 8126, 8124, 8143, 8240, 8134, 8226, 8127, 8202, 8209, 8158, 8191, 8130, 8108,2.3459320068359375
20, 8105, 8119, 8126, 8154, 8258, 8130, 8240, 8110, 8220, 8216, 8160, 8184, 8131, 8114,2.353935718536377
20, 8105, 8119, 8126, 8154, 8258, 8130, 8240, 8110, 8220, 8216, 8160, 8184, 8131, 8114,2.353935718536377
21, 8159, 8120, 8141, 8158, 8253, 8157, 8244, 8144, 8218, 8241, 8175, 8203, 8151, 8144,2.361935615539551
21, 8159, 8120, 8141, 8158, 8253, 8157, 8244, 8144, 8218, 8241, 8175, 8203, 8151, 8144,2.361935615539551
22, 8120, 8117, 8125, 8146, 8261, 8119, 8248, 8124, 8212, 8252, 8167, 8187, 8138, 8137,2.3699533939361572
22, 8120, 8117, 8125, 8146, 8261, 8119, 8248, 8124, 8212, 8252, 8167, 8187, 8138, 8137,2.3703668117523193
23, 8120, 8109, 8113, 8130, 8251, 8140, 8221, 8121, 8183, 8220, 8157, 8188, 8148, 8118,2.3773722648620605
23, 8120, 8109, 8113, 8130, 8251, 8140, 8221, 8121, 8183, 8220, 8157, 8188, 8148, 8118,2.3773722648620605
24, 8145, 8106, 8124, 8134, 8251, 8138, 8211, 8139, 8167, 8200, 8162, 8205, 8160, 8116,2.385380268096924
24, 8145, 8106, 8124, 8134, 8251, 8138, 8211, 8139, 8167, 8200, 8162, 8205, 8160, 8116,2.385380268096924
25, 8128, 8126, 8141, 8151, 8275, 8101, 8238, 8132, 8190, 8216, 8177, 8213, 8148, 8133,2.393954038619995
25, 8128, 8126, 8141, 8151, 8275, 8101, 8238, 8132, 8190, 8216, 8177, 8213, 8148, 8133,2.394322156906128
26, 8166, 8136, 8152, 8145, 8252, 8140, 8222, 8159, 8171, 8194, 8173, 8231, 8163, 8136,2.4018266201019287
26, 8166, 8136, 8152, 8145, 8252, 8140, 8222, 8159, 8171, 8194, 8173, 8231, 8163, 8136,2.4018266201019287
27, 8140, 8143, 8149, 8167, 8278, 8124, 8239, 8147, 8189, 8221, 8170, 8223, 8164, 8145,2.409820556640625
27, 8140, 8143, 8149, 8167, 8278, 8124, 8239, 8147, 8189, 8221, 8170, 8223, 8164, 8145,2.409820556640625
28, 8151, 8147, 8155, 8193, 8315, 8140, 8262, 8163, 8224, 8260, 8184, 8229, 8170, 8165,2.416916608810425
28, 8151, 8147, 8155, 8193, 8315, 8140, 8262, 8163, 8224, 8260, 8184, 8229, 8170, 8165,2.416916608810425
29, 8167, 8136, 8152, 8159, 8281, 8144, 8247, 8182, 8215, 8245, 8190, 8233, 8177, 8151,2.424954891204834
29, 8167, 8136, 8152, 8159, 8281, 8144, 8247, 8182, 8215, 8245, 8190, 8233, 8177, 8151,2.424954891204834
30, 8129, 8125, 8139, 8145, 8274, 8116, 8243, 8153, 8215, 8243, 8182, 8215, 8167, 8141,2.4329543113708496
30, 8129, 8125, 8139, 8145, 8274, 8116, 8243, 8153, 8215, 8243, 8182, 8215, 8167, 8141,2.4329543113708496
31, 8163, 8124, 8147, 8159, 8271, 8148, 8229, 8173, 8199, 8228, 8172, 8226, 8174, 8151,2.4409093856811523
31, 8163, 8124, 8147, 8159, 8271, 8148, 8229, 8173, 8199, 8228, 8172, 8226, 8174, 8151,2.4409093856811523
32, 8136, 8139, 8148, 8159, 8262, 8117, 8235, 8163, 8189, 8229, 8176, 8227, 8163, 8147,2.448949098587036
32, 8136, 8139, 8148, 8159, 8262, 8117, 8235, 8163, 8189, 8229, 8176, 8227, 8163, 8147,2.448949098587036
33, 8132, 8130, 8148, 8157, 8266, 8131, 8225, 8152, 8168, 8231, 8172, 8234, 8162, 8132,2.4569809436798096
33, 8132, 8130, 8148, 8157, 8266, 8131, 8225, 8152, 8168, 8231, 8172, 8234, 8162, 8132,2.4569809436798096
34, 8163, 8121, 8157, 8152, 8270, 8155, 8208, 8167, 8159, 8227, 8164, 8244, 8171, 8129,2.464972972869873
34, 8163, 8121, 8157, 8152, 8270, 8155, 8208, 8167, 8159, 8227, 8164, 8244, 8171, 8129,2.464972972869873
35, 8151, 8159, 8179, 8159, 8282, 8139, 8255, 8159, 8215, 8261, 8176, 8243, 8162, 8161,2.4727790355682373
35, 8151, 8159, 8179, 8159, 8282, 8139, 8255, 8159, 8215, 8261, 8176, 8243, 8162, 8161,2.4727790355682373
36, 8193, 8164, 8195, 8169, 8278, 8175, 8275, 8185, 8219, 8243, 8178, 8251, 8172, 8174,2.479778289794922
36, 8193, 8164, 8195, 8169, 8278, 8175, 8275, 8185, 8219, 8243, 8178, 8251, 8172, 8174,2.479778289794922
37, 8160, 8136, 8178, 8179, 8267, 8138, 8259, 8166, 8192, 8213, 8168, 8227, 8162, 8148,2.4879531860351562
37, 8160, 8136, 8178, 8179, 8267, 8138, 8259, 8166, 8192, 8213, 8168, 8227, 8162, 8148,2.4879531860351562
38, 8162, 8144, 8185, 8189, 8241, 8143, 8231, 8154, 8184, 8205, 8179, 8227, 8159, 8149,2.49594783782959
38, 8162, 8144, 8185, 8189, 8241, 8143, 8231, 8154, 8184, 8205, 8179, 8227, 8159, 8149,2.49594783782959
39, 8202, 8156, 8201, 8177, 8231, 8174, 8209, 8177, 8175, 8200, 8186, 8249, 8172, 8157,2.5037894248962402
39, 8202, 8156, 8201, 8177, 8231, 8174, 8209, 8177, 8175, 8200, 8186, 8249, 8172, 8157,2.5037894248962402
40, 8156, 8141, 8183, 8168, 8251, 8142, 8218, 8149, 8171, 8221, 8163, 8226, 8156, 8151,2.5119473934173584
40, 8156, 8141, 8183, 8168, 8251, 8142, 8218, 8149, 8171, 8221, 8163, 8226, 8156, 8151,2.5119473934173584
41, 8181, 8119, 8175, 8155, 8219, 8168, 8194, 8164, 8131, 8186, 8151, 8221, 8162, 8141,2.5199532508850098
41, 8181, 8119, 8175, 8155, 8219, 8168, 8194, 8164, 8131, 8186, 8151, 8221, 8162, 8141,2.5199532508850098
42, 8176, 8127, 8177, 8153, 8205, 8154, 8177, 8168, 8124, 8161, 8170, 8226, 8171, 8131,2.5279531478881836
42, 8176, 8127, 8177, 8153, 8205, 8154, 8177, 8168, 8124, 8161, 8170, 8226, 8171, 8131,2.5279531478881836
43, 8175, 8143, 8179, 8161, 8213, 8164, 8171, 8161, 8135, 8174, 8174, 8227, 8171, 8120,2.5362000465393066
43, 8175, 8143, 8179, 8161, 8213, 8164, 8171, 8161, 8135, 8174, 8174, 8227, 8171, 8120,2.5362000465393066
44, 8200, 8127, 8175, 8146, 8186, 8186, 8144, 8180, 8112, 8157, 8161, 8230, 8171, 8103,2.543933868408203
44, 8200, 8127, 8175, 8146, 8186, 8186, 8144, 8180, 8112, 8157, 8161, 8230, 8171, 8103,2.543933868408203
45, 8158, 8126, 8178, 8143, 8181, 8150, 8152, 8161, 8130, 8171, 8167, 8217, 8162, 8108,2.550929069519043
45, 8158, 8126, 8178, 8143, 8181, 8150, 8152, 8161, 8130, 8171, 8167, 8217, 8162, 8108,2.550929069519043
46, 8190, 8130, 8189, 8138, 8172, 8176, 8156, 8181, 8130, 8176, 8176, 8229, 8180, 8123,2.558973789215088
46, 8190, 8130, 8189, 8138, 8172, 8176, 8156, 8181, 8130, 8176, 8176, 8229, 8180, 8123,2.558973789215088
47, 8179, 8132, 8176, 8146, 8175, 8155, 8164, 8184, 8122, 8171, 8176, 8230, 8177, 8126,2.567481756210327
47, 8179, 8132, 8176, 8146, 8175, 8155, 8164, 8184, 8122, 8171, 8176, 8230, 8177, 8126,2.567481756210327
48, 8162, 8149, 8172, 8167, 8192, 8144, 8170, 8164, 8137, 8171, 8182, 8220, 8166, 8130,2.5749473571777344
48, 8162, 8149, 8172, 8167, 8192, 8144, 8170, 8164, 8137, 8171, 8182, 8220, 8166, 8130,2.5749473571777344
49, 8200, 8146, 8186, 8143, 8185, 8173, 8148, 8182, 8123, 8154, 8180, 8233, 8180, 8123,2.582960367202759
49, 8200, 8146, 8186, 8143, 8185, 8173, 8148, 8182, 8123, 8154, 8180, 8233, 8180, 8123,2.582960367202759
50, 8168, 8139, 8182, 8143, 8192, 8146, 8167, 8169, 8129, 8177, 8174, 8226, 8167, 8123,2.5909602642059326
50, 8168, 8139, 8182, 8143, 8192, 8146, 8167, 8169, 8129, 8177, 8174, 8226, 8167, 8123,2.5909602642059326
51, 8183, 8139, 8172, 8158, 8185, 8177, 8180, 8185, 8140, 8177, 8169, 8219, 8170, 8126,2.5989532470703125
51, 8183, 8139, 8172, 8158, 8185, 8177, 8180, 8185, 8140, 8177, 8169, 8219, 8170, 8126,2.5989532470703125
52, 8166, 8138, 8162, 8136, 8177, 8160, 8183, 8193, 8156, 8172, 8168, 8210, 8173, 8123,2.6069164276123047
52, 8166, 8138, 8162, 8136, 8177, 8160, 8183, 8193, 8156, 8172, 8168, 8210, 8173, 8123,2.6069164276123047
53, 8129, 8134, 8160, 8131, 8176, 8131, 8186, 8170, 8158, 8196, 8174, 8204, 8163, 8129,2.6139543056488037
53, 8129, 8134, 8160, 8131, 8176, 8131, 8186, 8170, 8158, 8196, 8174, 8204, 8163, 8129,2.6139543056488037
54, 8152, 8124, 8159, 8144, 8160, 8154, 8162, 8185, 8123, 8186, 8170, 8213, 8171, 8114,2.621951103210449
54, 8152, 8124, 8159, 8144, 8160, 8154, 8162, 8185, 8123, 8186, 8170, 8213, 8171, 8114,2.621951103210449
55, 8127, 8146, 8163, 8155, 8193, 8123, 8183, 8169, 8156, 8202, 8176, 8201, 8162, 8107,2.6299538612365723
55, 8127, 8146, 8163, 8155, 8193, 8123, 8183, 8169, 8156, 8202, 8176, 8201, 8162, 8107,2.6299538612365723
56, 8165, 8174, 8192, 8166, 8220, 8145, 8204, 8176, 8195, 8216, 8189, 8217, 8172, 8147,2.6379778385162354
56, 8165, 8174, 8192, 8166, 8220, 8145, 8204, 8176, 8195, 8216, 8189, 8217, 8172, 8147,2.6379778385162354
57, 8177, 8178, 8201, 8192, 8231, 8149, 8215, 8189, 8195, 8221, 8191, 8238, 8179, 8175,2.645977258682251
57, 8177, 8178, 8201, 8192, 8231, 8149, 8215, 8189, 8195, 8221, 8191, 8238, 8179, 8175,2.645977258682251
58, 8152, 8186, 8198, 8215, 8257, 8140, 8243, 8164, 8212, 8234, 8187, 8228, 8159, 8169,2.653953790664673
58, 8152, 8186, 8198, 8215, 8257, 8140, 8243, 8164, 8212, 8234, 8187, 8228, 8159, 8169,2.653953790664673
59, 8197, 8199, 8210, 8208, 8223, 8173, 8236, 8173, 8202, 8216, 8177, 8230, 8164, 8155,2.661954164505005
59, 8197, 8199, 8210, 8208, 8223, 8173, 8236, 8173, 8202, 8216, 8177, 8230, 8164, 8155,2.661954164505005
60, 8168, 8195, 8211, 8214, 8207, 8138, 8239, 8157, 8196, 8226, 8179, 8223, 8165, 8160,2.6704437732696533
60, 8168, 8195, 8211, 8214, 8207, 8138, 8239, 8157, 8196, 8226, 8179, 8223, 8165, 8160,2.6704437732696533
61, 8170, 8175, 8204, 8213, 8240, 8147, 8240, 8160, 8188, 8238, 8188, 8233, 8167, 8175,2.677680492401123
61, 8170, 8175, 8204, 8213, 8240, 8147, 8240, 8160, 8188, 8238, 8188, 8233, 8167, 8175,2.677680492401123
62, 8178, 8170, 8192, 8201, 8255, 8149, 8239, 8171, 8195, 8234, 8187, 8241, 8162, 8163,2.684678077697754
62, 8178, 8170, 8192, 8201, 8255, 8149, 8239, 8171, 8195, 8234, 8187, 8241, 8162, 8163,2.684678077697754
63, 8146, 8185, 8181, 8223, 8245, 8128, 8255, 8145, 8240, 8254, 8184, 8217, 8141, 8153,2.6929545402526855
63, 8146, 8185, 8181, 8223, 8245, 8128, 8255, 8145, 8240, 8254, 8184, 8217, 8141, 8153,2.6929545402526855
64, 8179, 8177, 8179, 8206, 8222, 8153, 8242, 8158, 8242, 8263, 8185, 8203, 8153, 8159,2.701219081878662
64, 8179, 8177, 8179, 8206, 8222, 8153, 8242, 8158, 8242, 8263, 8185, 8203, 8153, 8159,2.701219081878662
65, 8151, 8162, 8163, 8170, 8238, 8118, 8237, 8141, 8236, 8274, 8180, 8185, 8153, 8154,2.7092208862304688
65, 8151, 8162, 8163, 8170, 8238, 8118, 8237, 8141, 8236, 8274, 8180, 8185, 8153, 8154,2.7092208862304688
66, 8145, 8147, 8153, 8180, 8237, 8126, 8224, 8136, 8232, 8256, 8175, 8182, 8149, 8140,2.716916799545288
66, 8145, 8147, 8153, 8180, 8237, 8126, 8224, 8136, 8232, 8256, 8175, 8182, 8149, 8140,2.716916799545288
67, 8161, 8134, 8153, 8182, 8209, 8144, 8219, 8159, 8233, 8237, 8183, 8191, 8151, 8133,2.72495436668396
67, 8161, 8134, 8153, 8182, 8209, 8144, 8219, 8159, 8233, 8237, 8183, 8191, 8151, 8133,2.7255072593688965
68, 8139, 8145, 8161, 8176, 8213, 8126, 8231, 8137, 8244, 8265, 8181, 8189, 8145, 8137,2.7325680255889893
68, 8139, 8145, 8161, 8176, 8213, 8126, 8231, 8137, 8244, 8265, 8181, 8189, 8145, 8137,2.733591318130493
69, 8169, 8130, 8164, 8171, 8200, 8150, 8192, 8144, 8186, 8237, 8162, 8199, 8157, 8121,2.73957896232605
69, 8169, 8130, 8164, 8171, 8200, 8150, 8192, 8144, 8186, 8237, 8162, 8199, 8157, 8121,2.7406082153320312
70, 8142, 8114, 8154, 8160, 8191, 8129, 8181, 8146, 8160, 8214, 8163, 8195, 8149, 8109,2.747342586517334
70, 8142, 8114, 8154, 8160, 8191, 8129, 8181, 8146, 8160, 8214, 8163, 8195, 8149, 8109,2.747342586517334
71, 8150, 8135, 8170, 8152, 8193, 8147, 8197, 8152, 8190, 8220, 8175, 8205, 8144, 8122,2.7553651332855225
71, 8150, 8135, 8170, 8152, 8193, 8147, 8197, 8152, 8190, 8220, 8175, 8205, 8144, 8122,2.756359100341797
72, 8180, 8138, 8175, 8161, 8182, 8161, 8177, 8156, 8190, 8194, 8164, 8207, 8154, 8108,2.7639546394348145
72, 8180, 8138, 8175, 8161, 8182, 8161, 8177, 8156, 8190, 8194, 8164, 8207, 8154, 8108,2.7639546394348145
73, 8142, 8120, 8162, 8188, 8183, 8127, 8173, 8122, 8182, 8188, 8154, 8177, 8141, 8089,2.772148370742798
73, 8142, 8120, 8162, 8188, 8183, 8127, 8173, 8122, 8182, 8188, 8154, 8177, 8141, 8089,2.772148370742798
74, 8178, 8116, 8171, 8182, 8164, 8162, 8172, 8152, 8156, 8173, 8161, 8184, 8153, 8098,2.779634952545166
74, 8178, 8116, 8171, 8182, 8164, 8162, 8172, 8152, 8156, 8173, 8161, 8184, 8153, 8098,2.779634952545166
75, 8173, 8129, 8170, 8165, 8172, 8154, 8180, 8164, 8149, 8166, 8165, 8186, 8158, 8097,2.7876358032226562
75, 8173, 8129, 8170, 8165, 8172, 8154, 8180, 8164, 8149, 8166, 8165, 8186, 8158, 8097,2.7886314392089844
76, 8157, 8126, 8157, 8163, 8185, 8157, 8174, 8144, 8161, 8166, 8156, 8170, 8151, 8075,2.7959482669830322
76, 8157, 8126, 8157, 8163, 8185, 8157, 8174, 8144, 8161, 8166, 8156, 8170, 8151, 8075,2.7959482669830322
77, 8180, 8119, 8159, 8149, 8151, 8183, 8150, 8157, 8149, 8151, 8147, 8165, 8157, 8058,2.802643060684204
77, 8180, 8119, 8159, 8149, 8151, 8183, 8150, 8157, 8149, 8151, 8147, 8165, 8157, 8058,2.802643060684204
78, 8151, 8120, 8162, 8147, 8146, 8153, 8164, 8142, 8139, 8164, 8147, 8153, 8147, 8064,2.8106534481048584
78, 8151, 8120, 8162, 8147, 8146, 8153, 8164, 8142, 8139, 8164, 8147, 8153, 8147, 8064,2.8106534481048584
79, 8175, 8110, 8159, 8144, 8156, 8169, 8155, 8160, 8107, 8155, 8149, 8166, 8156, 8067,2.818648338317871
79, 8175, 8110, 8159, 8144, 8156, 8169, 8155, 8160, 8107, 8155, 8149, 8166, 8156, 8067,2.818648338317871
80, 8166, 8122, 8162, 8140, 8172, 8160, 8145, 8176, 8123, 8159, 8162, 8175, 8162, 8069,2.826648235321045
80, 8166, 8122, 8162, 8140, 8172, 8160, 8145, 8176, 8123, 8159, 8162, 8175, 8162, 8069,2.826648235321045
81, 8156, 8134, 8182, 8159, 8173, 8162, 8164, 8164, 8177, 8189, 8182, 8171, 8162, 8084,2.8346569538116455
81, 8156, 8134, 8182, 8159, 8173, 8162, 8164, 8164, 8177, 8189, 8182, 8171, 8162, 8084,2.8346569538116455
82, 8189, 8120, 8189, 8160, 8153, 8182, 8178, 8178, 8181, 8196, 8186, 8179, 8172, 8098,2.84295392036438
82, 8189, 8120, 8189, 8160, 8153, 8182, 8178, 8178, 8181, 8196, 8186, 8179, 8172, 8098,2.84295392036438
83, 8160, 8129, 8175, 8154, 8166, 8154, 8196, 8169, 8191, 8209, 8182, 8164, 8158, 8107,2.851208209991455
83, 8160, 8129, 8175, 8154, 8166, 8154, 8196, 8169, 8191, 8209, 8182, 8164, 8158, 8107,2.851208209991455
84, 8176, 8131, 8170, 8150, 8153, 8184, 8168, 8173, 8174, 8183, 8175, 8163, 8163, 8099,2.8589541912078857
84, 8176, 8131, 8170, 8150, 8153, 8184, 8168, 8173, 8174, 8183, 8175, 8163, 8163, 8099,2.8589541912078857
85, 8167, 8114, 8163, 8125, 8121, 8179, 8149, 8167, 8147, 8166, 8174, 8172, 8166, 8076,2.86698317527771
85, 8167, 8114, 8163, 8125, 8121, 8179, 8149, 8167, 8147, 8166, 8174, 8172, 8166, 8076,2.86698317527771
86, 8148, 8113, 8160, 8106, 8129, 8163, 8161, 8150, 8147, 8182, 8166, 8167, 8150, 8069,2.8734970092773438
86, 8148, 8113, 8160, 8106, 8129, 8163, 8161, 8150, 8147, 8182, 8166, 8167, 8150, 8069,2.8734970092773438
87, 8177, 8107, 8166, 8131, 8146, 8184, 8142, 8167, 8128, 8159, 8153, 8166, 8150, 8060,2.8811957836151123
87, 8177, 8107, 8166, 8131, 8146, 8184, 8142, 8167, 8128, 8159, 8153, 8166, 8150, 8060,2.8822338581085205
88, 8146, 8115, 8166, 8161, 8149, 8163, 8148, 8152, 8118, 8169, 8160, 8153, 8144, 8050,2.8898065090179443
88, 8146, 8115, 8166, 8161, 8149, 8163, 8148, 8152, 8118, 8169, 8160, 8153, 8144, 8050,2.8898065090179443
89, 8173, 8141, 8178, 8114, 8122, 8192, 8160, 8165, 8112, 8182, 8171, 8165, 8160, 8061,2.89780855178833
89, 8173, 8141, 8178, 8114, 8122, 8192, 8160, 8165, 8112, 8182, 8171, 8165, 8160, 8061,2.89780855178833
90, 8182, 8147, 8183, 8071, 8120, 8183, 8160, 8181, 8140, 8160, 8165, 8170, 8166, 8065,2.905817985534668
90, 8182, 8147, 8183, 8071, 8120, 8183, 8160, 8181, 8140, 8160, 8165, 8170, 8166, 8065,2.905817985534668
91, 8149, 8126, 8171, 8101, 8143, 8155, 8160, 8165, 8163, 8150, 8161, 8151, 8151, 8065,2.9139485359191895
91, 8149, 8126, 8171, 8101, 8143, 8155, 8160, 8165, 8163, 8150, 8161, 8151, 8151, 8065,2.9139485359191895
92, 8170, 8105, 8157, 8123, 8118, 8189, 8142, 8186, 8135, 8132, 8167, 8165, 8167, 8060,2.9219541549682617
92, 8170, 8105, 8157, 8123, 8118, 8189, 8142, 8186, 8135, 8132, 8167, 8165, 8167, 8060,2.9219541549682617
93, 8144, 8122, 8157, 8100, 8090, 8174, 8146, 8175, 8146, 8136, 8170, 8165, 8165, 8047,2.9301953315734863
93, 8144, 8122, 8157, 8100, 8090, 8174, 8146, 8175, 8146, 8136, 8170, 8165, 8165, 8047,2.9301953315734863
94, 8164, 8133, 8174, 8065, 8094, 8185, 8143, 8173, 8136, 8160, 8161, 8161, 8161, 8047,2.9363880157470703
94, 8164, 8133, 8174, 8065, 8094, 8185, 8143, 8173, 8136, 8160, 8161, 8161, 8161, 8047,2.937380790710449
95, 8175, 8120, 8172, 8071, 8112, 8188, 8145, 8190, 8109, 8180, 8156, 8166, 8165, 8055,2.944387912750244
95, 8175, 8120, 8172, 8071, 8112, 8188, 8145, 8190, 8109, 8180, 8156, 8166, 8165, 8055,2.9453814029693604
96, 8148, 8125, 8170, 8135, 8132, 8175, 8169, 8174, 8143, 8186, 8173, 8171, 8164, 8070,2.9529542922973633
96, 8148, 8125, 8170, 8135, 8132, 8175, 8169, 8174, 8143, 8186, 8173, 8171, 8164, 8070,2.9529542922973633
97, 8181, 8133, 8185, 8142, 8127, 8195, 8139, 8185, 8137, 8154, 8182, 8186, 8174, 8075,2.9609532356262207
97, 8181, 8133, 8185, 8142, 8127, 8195, 8139, 8185, 8137, 8154, 8182, 8186, 8174, 8075,2.9609532356262207
98, 8157, 8130, 8186, 8069, 8123, 8169, 8117, 8175, 8117, 8144, 8170, 8169, 8158, 8066,2.9694087505340576
98, 8157, 8130, 8186, 8069, 8123, 8169, 8117, 8175, 8117, 8144, 8170, 8169, 8158, 8066,2.9694087505340576
99, 8169, 8148, 8190, 8051, 8101, 8183, 8118, 8164, 8129, 8138, 8167, 8167, 8152, 8062,2.9775192737579346
99, 8169, 8148, 8190, 8051, 8101, 8183, 8118, 8164, 8129, 8138, 8167, 8167, 8152, 8062,2.9775192737579346
100, 8191, 8166, 8193, 8103, 8077, 8190, 8104, 8166, 8108, 8135, 8169, 8182, 8166, 8058,2.9850003719329834
100, 8191, 8166, 8193, 8103, 8077, 8190, 8104, 8166, 8108, 8135, 8169, 8182, 8166, 8058,2.9850003719329834
101, 8158, 8149, 8187, 8132, 8114, 8164, 8105, 8152, 8081, 8151, 8167, 8172, 8160, 8069,2.9930005073547363
101, 8158, 8149, 8187, 8132, 8114, 8164, 8105, 8152, 8081, 8151, 8167, 8172, 8160, 8069,2.9930005073547363
102, 8185, 8134, 8187, 8113, 8139, 8193, 8108, 8185, 8076, 8139, 8172, 8179, 8172, 8085,3.0009548664093018
102, 8185, 8134, 8187, 8113, 8139, 8193, 8108, 8185, 8076, 8139, 8172, 8179, 8172, 8085,3.0009548664093018
103, 8169, 8151, 8189, 8128, 8137, 8181, 8118, 8180, 8089, 8156, 8180, 8179, 8174, 8079,3.0082640647888184
103, 8169, 8151, 8189, 8128, 8137, 8181, 8118, 8180, 8089, 8156, 8180, 8179, 8174, 8079,3.0082640647888184
104, 8177, 8161, 8199, 8140, 8112, 8186, 8104, 8163, 8086, 8169, 8177, 8178, 8167, 8070,3.0159549713134766
104, 8177, 8161, 8199, 8140, 8112, 8186, 8104, 8163, 8086, 8169, 8177, 8178, 8167, 8070,3.0159549713134766
105, 8200, 8161, 8206, 8101, 8089, 8189, 8089, 8185, 8077, 8142, 8173, 8184, 8174, 8077,3.024026870727539
105, 8200, 8161, 8206, 8101, 8089, 8189, 8089, 8185, 8077, 8142, 8173, 8184, 8174, 8077,3.024026870727539
106, 8156, 8161, 8203, 8123, 8125, 8160, 8107, 8170, 8101, 8151, 8174, 8169, 8169, 8093,3.032027006149292
106, 8156, 8161, 8203, 8123, 8125, 8160, 8107, 8170, 8101, 8151, 8174, 8169, 8169, 8093,3.032027006149292
107, 8164, 8131, 8192, 8157, 8121, 8191, 8084, 8178, 8102, 8144, 8166, 8173, 8171, 8085,3.0399491786956787
107, 8164, 8131, 8192, 8157, 8121, 8191, 8084, 8178, 8102, 8144, 8166, 8173, 8171, 8085,3.0399491786956787
108, 8145, 8130, 8179, 8110, 8097, 8183, 8070, 8178, 8094, 8136, 8167, 8175, 8163, 8057,3.047713041305542
108, 8145, 8130, 8179, 8110, 8097, 8183, 8070, 8178, 8094, 8136, 8167, 8175, 8163, 8057,3.047713041305542
109, 8143, 8163, 8186, 8070, 8101, 8186, 8082, 8169, 8081, 8143, 8167, 8171, 8157, 8057,3.0557432174682617
109, 8143, 8163, 8186, 8070, 8101, 8186, 8082, 8169, 8081, 8143, 8167, 8171, 8157, 8057,3.0557432174682617
110, 8169, 8150, 8189, 8100, 8093, 8197, 8075, 8178, 8059, 8132, 8156, 8170, 8166, 8067,3.063948392868042
110, 8169, 8150, 8189, 8100, 8093, 8197, 8075, 8178, 8059, 8132, 8156, 8170, 8166, 8067,3.063948392868042
111, 8142, 8132, 8175, 8153, 8097, 8164, 8093, 8165, 8085, 8138, 8165, 8160, 8162, 8069,3.070953130722046
111, 8142, 8132, 8175, 8153, 8097, 8164, 8093, 8165, 8085, 8138, 8165, 8160, 8162, 8069,3.070953130722046
112, 8170, 8155, 8187, 8134, 8108, 8183, 8108, 8193, 8122, 8153, 8178, 8180, 8173, 8073,3.078972578048706
112, 8170, 8155, 8187, 8134, 8108, 8183, 8108, 8193, 8122, 8153, 8178, 8180, 8173, 8073,3.078972578048706
113, 8164, 8188, 8208, 8084, 8131, 8172, 8114, 8191, 8131, 8183, 8172, 8180, 8168, 8077,3.0869739055633545
113, 8164, 8188, 8208, 8084, 8131, 8172, 8114, 8191, 8131, 8183, 8172, 8180, 8168, 8077,3.0869739055633545
114, 8146, 8179, 8201, 8118, 8135, 8167, 8120, 8157, 8105, 8187, 8168, 8163, 8156, 8079,3.0949535369873047
114, 8146, 8179, 8201, 8118, 8135, 8167, 8120, 8157, 8105, 8187, 8168, 8163, 8156, 8079,3.0949535369873047
115, 8161, 8147, 8182, 8177, 8129, 8179, 8117, 8172, 8088, 8156, 8176, 8175, 8169, 8076,3.1029536724090576
115, 8161, 8147, 8182, 8177, 8129, 8179, 8117, 8172, 8088, 8156, 8176, 8175, 8169, 8076,3.1029536724090576
116, 8132, 8150, 8185, 8183, 8159, 8146, 8132, 8166, 8130, 8177, 8180, 8177, 8166, 8083,3.110954761505127
116, 8132, 8150, 8185, 8183, 8159, 8146, 8132, 8166, 8130, 8177, 8180, 8177, 8166, 8083,3.110954761505127
117, 8155, 8158, 8196, 8150, 8153, 8163, 8128, 8176, 8145, 8188, 8180, 8183, 8170, 8092,3.118868112564087
117, 8155, 8158, 8196, 8150, 8153, 8163, 8128, 8176, 8145, 8188, 8180, 8183, 8170, 8092,3.118868112564087
118, 8149, 8169, 8191, 8149, 8145, 8159, 8137, 8183, 8154, 8186, 8190, 8185, 8164, 8091,3.1269173622131348
118, 8149, 8169, 8191, 8149, 8145, 8159, 8137, 8183, 8154, 8186, 8190, 8185, 8164, 8091,3.1269173622131348
119, 8138, 8188, 8206, 8184, 8175, 8155, 8161, 8166, 8180, 8195, 8197, 8185, 8154, 8101,3.1349542140960693
119, 8138, 8188, 8206, 8184, 8175, 8155, 8161, 8166, 8180, 8195, 8197, 8185, 8154, 8101,3.1349542140960693
120, 8168, 8176, 8214, 8180, 8179, 8177, 8155, 8174, 8168, 8199, 8184, 8196, 8168, 8112,3.141869306564331
120, 8168, 8176, 8214, 8180, 8179, 8177, 8155, 8174, 8168, 8199, 8184, 8196, 8168, 8112,3.141869306564331
121, 8137, 8169, 8196, 8187, 8176, 8150, 8171, 8153, 8184, 8229, 8178, 8183, 8156, 8114,3.1498677730560303
121, 8137, 8169, 8196, 8187, 8176, 8150, 8171, 8153, 8184, 8229, 8178, 8183, 8156, 8114,3.1498677730560303
122, 8155, 8175, 8198, 8187, 8166, 8161, 8170, 8151, 8177, 8218, 8175, 8185, 8154, 8118,3.1579532623291016
122, 8155, 8175, 8198, 8187, 8166, 8161, 8170, 8151, 8177, 8218, 8175, 8185, 8154, 8118,3.1579532623291016
123, 8148, 8158, 8188, 8155, 8159, 8150, 8151, 8155, 8131, 8178, 8168, 8182, 8158, 8107,3.165637493133545
123, 8148, 8158, 8188, 8155, 8159, 8150, 8151, 8155, 8131, 8178, 8168, 8182, 8158, 8107,3.165637493133545
124, 8118, 8148, 8176, 8152, 8169, 8141, 8157, 8144, 8135, 8184, 8170, 8174, 8153, 8103,3.1739540100097656
124, 8118, 8148, 8176, 8152, 8169, 8141, 8157, 8144, 8135, 8184, 8170, 8174, 8153, 8103,3.1739540100097656
125, 8158, 8166, 8191, 8181, 8163, 8170, 8170, 8165, 8159, 8193, 8185, 8189, 8163, 8114,3.1817409992218018
125, 8158, 8166, 8191, 8181, 8163, 8170, 8170, 8165, 8159, 8193, 8185, 8189, 8163, 8114,3.1817409992218018
126, 8146, 8184, 8197, 8205, 8179, 8148, 8194, 8153, 8194, 8207, 8196, 8178, 8157, 8128,3.1897406578063965
126, 8146, 8184, 8197, 8205, 8179, 8148, 8194, 8153, 8194, 8207, 8196, 8178, 8157, 8128,3.1897406578063965
127, 8160, 8174, 8197, 8189, 8201, 8166, 8186, 8154, 8190, 8212, 8188, 8177, 8164, 8140,3.1977336406707764
127, 8160, 8174, 8197, 8189, 8201, 8166, 8186, 8154, 8190, 8212, 8188, 8177, 8164, 8140,3.1977336406707764
241, 8177, 8167, 8206, 8166, 8198, 8174, 8167, 8170, 8166, 8212, 8189, 8193, 8169, 8137,3.2047431468963623
241, 8177, 8167, 8206, 8166, 8198, 8174, 8167, 8170, 8166, 8212, 8189, 8193, 8169, 8137,3.2047431468963623
0, 8165, 8166, 8208, 8178, 8176, 8167, 8164, 8155, 8175, 8205, 8198, 8192, 8156, 8123,3.212898015975952
0, 8165, 8166, 8208, 8178, 8176, 8167, 8164, 8155, 8175, 8205, 8198, 8192, 8156, 8123,3.212898015975952
1, 8200, 8149, 8200, 8183, 8150, 8196, 8148, 8171, 8166, 8175, 8184, 8196, 8169, 8111,3.2209537029266357
1, 8200, 8149, 8200, 8183, 8150, 8196, 8148, 8171, 8166, 8175, 8184, 8196, 8169, 8111,3.2209537029266357
2, 8181, 8151, 8199, 8173, 8167, 8171, 8154, 8164, 8173, 8196, 8173, 8187, 8166, 8113,3.2289416790008545
2, 8181, 8151, 8199, 8173, 8167, 8171, 8154, 8164, 8173, 8196, 8173, 8187, 8166, 8113,3.2289416790008545
3, 8179, 8160, 8201, 8166, 8176, 8178, 8152, 8162, 8167, 8219, 8182, 8192, 8163, 8117,3.2369396686553955
3, 8179, 8160, 8201, 8166, 8176, 8178, 8152, 8162, 8167, 8219, 8182, 8192, 8163, 8117,3.2369396686553955
4, 8183, 8150, 8189, 8172, 8154, 8192, 8134, 8176, 8142, 8209, 8187, 8199, 8171, 8105,3.2449538707733154
4, 8183, 8150, 8189, 8172, 8154, 8192, 8134, 8176, 8142, 8209, 8187, 8199, 8171, 8105,3.2449538707733154
5, 8166, 8158, 8194, 8192, 8157, 8183, 8147, 8157, 8158, 8217, 8184, 8182, 8159, 8101,3.2529537677764893
5, 8166, 8158, 8194, 8192, 8157, 8183, 8147, 8157, 8158, 8217, 8184, 8182, 8159, 8101,3.2529537677764893
6, 8197, 8164, 8208, 8192, 8159, 8199, 8151, 8167, 8169, 8204, 8183, 8188, 8161, 8110,3.2609801292419434
6, 8197, 8164, 8208, 8192, 8159, 8199, 8151, 8167, 8169, 8204, 8183, 8188, 8161, 8110,3.2609801292419434
7, 8173, 8155, 8199, 8189, 8168, 8169, 8154, 8162, 8166, 8199, 8179, 8192, 8160, 8117,3.267576217651367
7, 8173, 8155, 8199, 8189, 8168, 8169, 8154, 8162, 8166, 8199, 8179, 8192, 8160, 8117,3.267576217651367
8, 8175, 8159, 8198, 8191, 8179, 8169, 8150, 8163, 8154, 8203, 8179, 8195, 8162, 8124,3.275592088699341
8, 8175, 8159, 8198, 8191, 8179, 8169, 8150, 8163, 8154, 8203, 8179, 8195, 8162, 8124,3.275592088699341
9, 8194, 8165, 8203, 8185, 8181, 8179, 8139, 8179, 8145, 8187, 8180, 8197, 8166, 8115,3.2835581302642822
9, 8194, 8165, 8203, 8185, 8181, 8179, 8139, 8179, 8145, 8187, 8180, 8197, 8166, 8115,3.2845520973205566
10, 8163, 8176, 8198, 8205, 8175, 8161, 8150, 8151, 8164, 8194, 8173, 8178, 8150, 8106,3.291560411453247
10, 8163, 8176, 8198, 8205, 8175, 8161, 8150, 8151, 8164, 8194, 8173, 8178, 8150, 8106,3.291560411453247
11, 8192, 8181, 8197, 8216, 8161, 8184, 8143, 8161, 8159, 8196, 8172, 8188, 8157, 8116,3.2999532222747803
11, 8192, 8181, 8197, 8216, 8161, 8184, 8143, 8161, 8159, 8196, 8172, 8188, 8157, 8116,3.2999532222747803
12, 8188, 8169, 8195, 8203, 8193, 8170, 8146, 8170, 8153, 8213, 8187, 8195, 8165, 8129,3.307953119277954
12, 8188, 8169, 8195, 8203, 8193, 8170, 8146, 8170, 8153, 8213, 8187, 8195, 8165, 8129,3.307953119277954
13, 8184, 8158, 8200, 8201, 8194, 8175, 8146, 8166, 8148, 8216, 8188, 8188, 8164, 8126,3.3163108825683594
13, 8184, 8158, 8200, 8201, 8194, 8175, 8146, 8166, 8148, 8216, 8188, 8188, 8164, 8126,3.3163108825683594
14, 8203, 8161, 8200, 8205, 8139, 8197, 8124, 8180, 8140, 8178, 8169, 8190, 8166, 8100,3.323929786682129
14, 8203, 8161, 8200, 8205, 8139, 8197, 8124, 8180, 8140, 8178, 8169, 8190, 8166, 8100,3.323929786682129
15, 8182, 8168, 8200, 8203, 8161, 8181, 8135, 8168, 8161, 8184, 8164, 8184, 8157, 8096,3.3319249153137207
15, 8182, 8168, 8200, 8203, 8161, 8181, 8135, 8168, 8161, 8184, 8164, 8184, 8157, 8096,3.3319249153137207
16, 8216, 8163, 8211, 8191, 8190, 8204, 8135, 8187, 8155, 8195, 8178, 8205, 8173, 8131,3.3389546871185303
16, 8216, 8163, 8211, 8191, 8190, 8204, 8135, 8187, 8155, 8195, 8178, 8205, 8173, 8131,3.3389546871185303
17, 8203, 8156, 8208, 8191, 8161, 8189, 8118, 8186, 8137, 8182, 8181, 8208, 8175, 8130,3.3463432788848877
17, 8203, 8156, 8208, 8191, 8161, 8189, 8118, 8186, 8137, 8182, 8181, 8208, 8175, 8130,3.3463432788848877
18, 8175, 8152, 8200, 8192, 8134, 8177, 8098, 8162, 8129, 8166, 8173, 8186, 8157, 8094,3.354336738586426
18, 8175, 8152, 8200, 8192, 8134, 8177, 8098, 8162, 8129, 8166, 8173, 8186, 8157, 8094,3.3553361892700195
19, 8195, 8153, 8205, 8186, 8135, 8189, 8096, 8181, 8134, 8159, 8167, 8189, 8161, 8088,3.3629539012908936
19, 8195, 8153, 8205, 8186, 8135, 8189, 8096, 8181, 8134, 8159, 8167, 8189, 8161, 8088,3.3629539012908936
20, 8172, 8160, 8199, 8194, 8152, 8169, 8120, 8164, 8156, 8162, 8168, 8182, 8157, 8102,3.3709537982940674
20, 8172, 8160, 8199, 8194, 8152, 8169, 8120, 8164, 8156, 8162, 8168, 8182, 8157, 8102,3.371354341506958
21, 8182, 8150, 8192, 8185, 8139, 8183, 8093, 8158, 8116, 8143, 8173, 8182, 8167, 8104,3.3786203861236572
21, 8182, 8150, 8192, 8185, 8139, 8183, 8093, 8158, 8116, 8143, 8173, 8182, 8167, 8104,3.3786203861236572
22, 8173, 8149, 8203, 8180, 8141, 8174, 8081, 8171, 8094, 8166, 8180, 8187, 8173, 8097,3.386396646499634
22, 8173, 8149, 8203, 8180, 8141, 8174, 8081, 8171, 8094, 8166, 8180, 8187, 8173, 8097,3.387394428253174
23, 8168, 8176, 8218, 8216, 8171, 8177, 8125, 8176, 8149, 8207, 8183, 8193, 8163, 8108,3.3943936824798584
23, 8168, 8176, 8218, 8216, 8171, 8177, 8125, 8176, 8149, 8207, 8183, 8193, 8163, 8108,3.3943936824798584
24, 8204, 8187, 8226, 8240, 8184, 8199, 8148, 8197, 8193, 8200, 8185, 8214, 8173, 8132,3.4021847248077393
24, 8204, 8187, 8226, 8240, 8184, 8199, 8148, 8197, 8193, 8200, 8185, 8214, 8173, 8132,3.4021847248077393
25, 8188, 8192, 8233, 8254, 8204, 8166, 8164, 8182, 8218, 8228, 8201, 8207, 8172, 8160,3.409517288208008
25, 8188, 8192, 8233, 8254, 8204, 8166, 8164, 8182, 8218, 8228, 8201, 8207, 8172, 8160,3.410207748413086
26, 8205, 8206, 8245, 8265, 8221, 8180, 8161, 8190, 8211, 8249, 8206, 8210, 8177, 8176,3.4182145595550537
26, 8205, 8206, 8245, 8265, 8221, 8180, 8161, 8190, 8211, 8249, 8206, 8210, 8177, 8176,3.4182145595550537
27, 8201, 8216, 8247, 8272, 8227, 8189, 8146, 8195, 8202, 8227, 8199, 8214, 8175, 8166,3.425212860107422
27, 8201, 8216, 8247, 8272, 8227, 8189, 8146, 8195, 8202, 8227, 8199, 8214, 8175, 8166,3.426213264465332
28, 8189, 8225, 8249, 8285, 8223, 8181, 8150, 8166, 8205, 8221, 8199, 8209, 8158, 8168,3.434213638305664
28, 8189, 8225, 8249, 8285, 8223, 8181, 8150, 8166, 8205, 8221, 8199, 8209, 8158, 8168,3.434213638305664
29, 8228, 8227, 8258, 8282, 8215, 8195, 8151, 8180, 8199, 8225, 8199, 8224, 8171, 8185,3.4412131309509277
29, 8228, 8227, 8258, 8282, 8215, 8195, 8151, 8180, 8199, 8225, 8199, 8224, 8171, 8185,3.442213535308838
30, 8197, 8221, 8252, 8291, 8251, 8169, 8166, 8179, 8212, 8245, 8198, 8223, 8169, 8193,3.4502134323120117
30, 8197, 8221, 8252, 8291, 8251, 8169, 8166, 8179, 8212, 8245, 8198, 8223, 8169, 8193,3.4502134323120117
31, 8200, 8210, 8250, 8301, 8268, 8181, 8171, 8182, 8205, 8255, 8203, 8229, 8169, 8198,3.458216428756714
31, 8200, 8210, 8250, 8301, 8268, 8181, 8171, 8182, 8205, 8255, 8203, 8229, 8169, 8198,3.458216428756714
32, 8213, 8210, 8246, 8293, 8232, 8176, 8166, 8185, 8185, 8249, 8204, 8228, 8170, 8191,3.465020179748535
32, 8213, 8210, 8246, 8293, 8232, 8176, 8166, 8185, 8185, 8249, 8204, 8228, 8170, 8191,3.465020179748535
33, 8186, 8216, 8243, 8291, 8215, 8153, 8165, 8161, 8182, 8243, 8195, 8213, 8160, 8183,3.4729533195495605
33, 8186, 8216, 8243, 8291, 8215, 8153, 8165, 8161, 8182, 8243, 8195, 8213, 8160, 8183,3.4729533195495605
34, 8204, 8208, 8244, 8298, 8218, 8182, 8160, 8182, 8175, 8217, 8190, 8220, 8172, 8183,3.480956554412842
34, 8204, 8208, 8244, 8298, 8218, 8182, 8160, 8182, 8175, 8217, 8190, 8220, 8172, 8183,3.480956554412842
35, 8189, 8210, 8243, 8313, 8235, 8178, 8185, 8189, 8214, 8227, 8197, 8214, 8170, 8189,3.488694429397583
35, 8189, 8210, 8243, 8313, 8235, 8178, 8185, 8189, 8214, 8227, 8197, 8214, 8170, 8189,3.488694429397583
36, 8198, 8210, 8247, 8300, 8239, 8185, 8191, 8183, 8248, 8250, 8201, 8215, 8171, 8194,3.496696949005127
36, 8198, 8210, 8247, 8300, 8239, 8185, 8191, 8183, 8248, 8250, 8201, 8215, 8171, 8194,3.496696949005127
37, 8205, 8206, 8242, 8278, 8236, 8182, 8170, 8176, 8216, 8239, 8198, 8225, 8172, 8184,3.5049474239349365
37, 8205, 8206, 8242, 8278, 8236, 8182, 8170, 8176, 8216, 8239, 8198, 8225, 8172, 8184,3.5049474239349365
38, 8179, 8200, 8239, 8295, 8244, 8165, 8180, 8160, 8213, 8248, 8194, 8217, 8163, 8181,3.512953758239746
38, 8179, 8200, 8239, 8295, 8244, 8165, 8180, 8160, 8213, 8248, 8194, 8217, 8163, 8181,3.512953758239746
39, 8207, 8183, 8242, 8301, 8225, 8187, 8179, 8182, 8236, 8263, 8195, 8227, 8173, 8189,3.52095365524292
39, 8207, 8183, 8242, 8301, 8225, 8187, 8179, 8182, 8236, 8263, 8195, 8227, 8173, 8189,3.52095365524292
40, 8186, 8186, 8235, 8293, 8234, 8167, 8180, 8174, 8247, 8270, 8198, 8217, 8167, 8189,3.5279541015625
40, 8186, 8186, 8235, 8293, 8234, 8167, 8180, 8174, 8247, 8270, 8198, 8217, 8167, 8189,3.5279541015625
41, 8190, 8202, 8240, 8287, 8252, 8172, 8183, 8172, 8241, 8262, 8194, 8205, 8165, 8199,3.536107063293457
41, 8190, 8202, 8240, 8287, 8252, 8172, 8183, 8172, 8241, 8262, 8194, 8205, 8165, 8199,3.536107063293457
42, 8220, 8201, 8248, 8265, 8221, 8184, 8173, 8185, 8224, 8245, 8192, 8212, 8169, 8205,3.544060468673706
42, 8220, 8201, 8248, 8265, 8221, 8184, 8173, 8185, 8224, 8245, 8192, 8212, 8169, 8205,3.544060468673706
43, 8189, 8194, 8233, 8265, 8204, 8156, 8178, 8153, 8225, 8241, 8193, 8176, 8154, 8196,3.552088737487793
43, 8189, 8194, 8233, 8265, 8204, 8156, 8178, 8153, 8225, 8241, 8193, 8176, 8154, 8196,3.552088737487793
44, 8196, 8170, 8215, 8281, 8208, 8177, 8162, 8168, 8213, 8219, 8186, 8110, 8162, 8179,3.5601632595062256
44, 8196, 8170, 8215, 8281, 8208, 8177, 8162, 8168, 8213, 8219, 8186, 8110, 8162, 8179,3.5601632595062256
45, 8189, 8165, 8217, 8266, 8223, 8178, 8163, 8181, 8220, 8234, 8186, 8063, 8166, 8169,3.5682740211486816
45, 8189, 8165, 8217, 8266, 8223, 8178, 8163, 8181, 8220, 8234, 8186, 8063, 8166, 8169,3.5682740211486816
46, 8203, 8197, 8237, 8240, 8220, 8184, 8188, 8171, 8245, 8246, 8194, 8073, 8164, 8184,3.575955629348755
46, 8203, 8197, 8237, 8240, 8220, 8184, 8188, 8171, 8245, 8246, 8194, 8073, 8164, 8184,3.575955629348755
47, 8225, 8192, 8237, 8235, 8202, 8191, 8188, 8179, 8237, 8208, 8181, 8084, 8174, 8186,3.584158182144165
47, 8225, 8192, 8237, 8235, 8202, 8191, 8188, 8179, 8237, 8208, 8181, 8084, 8174, 8186,3.584158182144165
48, 8188, 8168, 8219, 8256, 8215, 8167, 8183, 8171, 8233, 8207, 8170, 8065, 8165, 8172,3.591157913208008
48, 8188, 8168, 8219, 8256, 8215, 8167, 8183, 8171, 8233, 8207, 8170, 8065, 8165, 8172,3.591157913208008
49, 8205, 8165, 8213, 8253, 8215, 8194, 8171, 8182, 8220, 8207, 8171, 8077, 8169, 8163,3.5989534854888916
49, 8205, 8165, 8213, 8253, 8215, 8194, 8171, 8182, 8220, 8207, 8171, 8077, 8169, 8163,3.5989534854888916
50, 8201, 8169, 8217, 8233, 8212, 8188, 8173, 8171, 8214, 8208, 8165, 8084, 8168, 8156,3.6071858406066895
50, 8201, 8169, 8217, 8233, 8212, 8188, 8173, 8171, 8214, 8208, 8165, 8084, 8168, 8156,3.6071858406066895
51, 8194, 8176, 8222, 8239, 8226, 8175, 8187, 8167, 8225, 8222, 8171, 8085, 8166, 8167,3.6151974201202393
51, 8194, 8176, 8222, 8239, 8226, 8175, 8187, 8167, 8225, 8222, 8171, 8085, 8166, 8167,3.6151974201202393
52, 8212, 8176, 8210, 8237, 8220, 8192, 8195, 8198, 8227, 8202, 8178, 8091, 8175, 8168,3.6229541301727295
52, 8212, 8176, 8210, 8237, 8220, 8192, 8195, 8198, 8227, 8202, 8178, 8091, 8175, 8168,3.6229541301727295
53, 8191, 8170, 8202, 8226, 8216, 8175, 8206, 8179, 8244, 8212, 8170, 8077, 8162, 8159,3.6309542655944824
53, 8191, 8170, 8202, 8226, 8216, 8175, 8206, 8179, 8244, 8212, 8170, 8077, 8162, 8159,3.6309542655944824
54, 8217, 8161, 8212, 8225, 8206, 8185, 8186, 8181, 8235, 8231, 8171, 8092, 8168, 8167,3.638953685760498
54, 8217, 8161, 8212, 8225, 8206, 8185, 8186, 8181, 8235, 8231, 8171, 8092, 8168, 8167,3.638953685760498
55, 8208, 8170, 8207, 8236, 8201, 8175, 8176, 8191, 8234, 8216, 8178, 8103, 8173, 8160,3.646804094314575
55, 8208, 8170, 8207, 8236, 8201, 8175, 8176, 8191, 8234, 8216, 8178, 8103, 8173, 8160,3.646804094314575
56, 8189, 8181, 8202, 8234, 8211, 8176, 8191, 8174, 8253, 8200, 8170, 8100, 8165, 8148,3.6549534797668457
56, 8189, 8181, 8202, 8234, 8211, 8176, 8191, 8174, 8253, 8200, 8170, 8100, 8165, 8148,3.6549534797668457
57, 8218, 8172, 8207, 8202, 8214, 8199, 8191, 8181, 8233, 8202, 8157, 8110, 8169, 8154,3.6618168354034424
57, 8218, 8172, 8207, 8202, 8214, 8199, 8191, 8181, 8233, 8202, 8157, 8110, 8169, 8154,3.6618168354034424
58, 8190, 8161, 8198, 8192, 8217, 8173, 8200, 8170, 8231, 8216, 8164, 8096, 8159, 8155,3.670353889465332
58, 8190, 8161, 8198, 8192, 8217, 8173, 8200, 8170, 8231, 8216, 8164, 8096, 8159, 8155,3.670353889465332
59, 8195, 8160, 8188, 8201, 8207, 8183, 8188, 8180, 8236, 8197, 8174, 8095, 8166, 8145,3.6783580780029297
59, 8195, 8160, 8188, 8201, 8207, 8183, 8188, 8180, 8236, 8197, 8174, 8095, 8166, 8145,3.6783580780029297
60, 8198, 8172, 8194, 8212, 8216, 8180, 8180, 8186, 8239, 8194, 8172, 8095, 8172, 8137,3.686180830001831
60, 8198, 8172, 8194, 8212, 8216, 8180, 8180, 8186, 8239, 8194, 8172, 8095, 8172, 8137,3.686180830001831
61, 8194, 8186, 8208, 8225, 8232, 8171, 8215, 8174, 8266, 8238, 8176, 8090, 8165, 8154,3.6943466663360596
61, 8194, 8186, 8208, 8225, 8232, 8171, 8215, 8174, 8266, 8238, 8176, 8090, 8165, 8154,3.6943466663360596
62, 8229, 8185, 8212, 8216, 8218, 8197, 8226, 8200, 8275, 8254, 8182, 8108, 8177, 8175,3.7023489475250244
62, 8229, 8185, 8212, 8216, 8218, 8197, 8226, 8200, 8275, 8254, 8182, 8108, 8177, 8175,3.7023489475250244
63, 8198, 8183, 8199, 8200, 8222, 8177, 8211, 8185, 8272, 8243, 8179, 8101, 8171, 8174,3.7101833820343018
63, 8198, 8183, 8199, 8200, 8222, 8177, 8211, 8185, 8272, 8243, 8179, 8101, 8171, 8174,3.7101833820343018
64, 8200, 8176, 8194, 8189, 8211, 8179, 8192, 8176, 8258, 8219, 8178, 8105, 8170, 8160,3.7179534435272217
64, 8200, 8176, 8194, 8189, 8211, 8179, 8192, 8176, 8258, 8219, 8178, 8105, 8170, 8160,3.7179534435272217
65, 8211, 8176, 8198, 8199, 8191, 8184, 8200, 8189, 8268, 8232, 8182, 8116, 8170, 8151,3.7253756523132324
65, 8211, 8176, 8198, 8199, 8191, 8184, 8200, 8189, 8268, 8232, 8182, 8116, 8170, 8151,3.7253756523132324
66, 8193, 8189, 8201, 8219, 8206, 8181, 8231, 8184, 8298, 8279, 8184, 8108, 8160, 8171,3.7333719730377197
66, 8193, 8189, 8201, 8219, 8206, 8181, 8231, 8184, 8298, 8279, 8184, 8108, 8160, 8171,3.7333719730377197
67, 8209, 8173, 8196, 8195, 8212, 8194, 8222, 8199, 8276, 8251, 8176, 8110, 8168, 8174,3.7409489154815674
67, 8209, 8173, 8196, 8195, 8212, 8194, 8222, 8199, 8276, 8251, 8176, 8110, 8168, 8174,3.7409489154815674
68, 8179, 8154, 8182, 8170, 8210, 8163, 8209, 8177, 8253, 8210, 8171, 8096, 8161, 8137,3.7489538192749023
68, 8179, 8154, 8182, 8170, 8210, 8163, 8209, 8177, 8253, 8210, 8171, 8096, 8161, 8137,3.7489538192749023
69, 8181, 8156, 8173, 8172, 8203, 8177, 8200, 8165, 8244, 8205, 8170, 8093, 8158, 8126,3.7565507888793945
69, 8181, 8156, 8173, 8172, 8203, 8177, 8200, 8165, 8244, 8205, 8170, 8093, 8158, 8126,3.7575464248657227
70, 8198, 8154, 8166, 8161, 8189, 8194, 8198, 8178, 8240, 8197, 8163, 8104, 8167, 8133,3.7645509243011475
70, 8198, 8154, 8166, 8161, 8189, 8194, 8198, 8178, 8240, 8197, 8163, 8104, 8167, 8133,3.7655458450317383
71, 8185, 8157, 8171, 8161, 8187, 8170, 8205, 8163, 8251, 8197, 8163, 8104, 8164, 8140,3.773669958114624
71, 8185, 8157, 8171, 8161, 8187, 8170, 8205, 8163, 8251, 8197, 8163, 8104, 8164, 8140,3.773669958114624
72, 8213, 8163, 8188, 8175, 8183, 8182, 8188, 8178, 8243, 8193, 8170, 8117, 8175, 8148,3.780953884124756
72, 8213, 8163, 8188, 8175, 8183, 8182, 8188, 8178, 8243, 8193, 8170, 8117, 8175, 8148,3.780953884124756
73, 8191, 8170, 8190, 8185, 8201, 8180, 8201, 8184, 8259, 8219, 8174, 8111, 8165, 8149,3.7889819145202637
73, 8191, 8170, 8190, 8185, 8201, 8180, 8201, 8184, 8259, 8219, 8174, 8111, 8165, 8149,3.7889819145202637
74, 8196, 8171, 8191, 8188, 8219, 8196, 8223, 8184, 8290, 8249, 8174, 8109, 8161, 8160,3.7959489822387695
74, 8196, 8171, 8191, 8188, 8219, 8196, 8223, 8184, 8290, 8249, 8174, 8109, 8161, 8160,3.7959489822387695
75, 8220, 8172, 8203, 8197, 8214, 8191, 8224, 8194, 8293, 8246, 8183, 8117, 8184, 8179,3.8039627075195312
75, 8220, 8172, 8203, 8197, 8214, 8191, 8224, 8194, 8293, 8246, 8183, 8117, 8184, 8179,3.8039627075195312
76, 8184, 8177, 8209, 8209, 8216, 8166, 8229, 8178, 8287, 8237, 8187, 8112, 8179, 8180,3.8119618892669678
76, 8184, 8177, 8209, 8209, 8216, 8166, 8229, 8178, 8287, 8237, 8187, 8112, 8179, 8180,3.8119618892669678
77, 8199, 8181, 8210, 8200, 8216, 8196, 8217, 8192, 8267, 8219, 8183, 8132, 8171, 8165,3.820155620574951
77, 8199, 8181, 8210, 8200, 8216, 8196, 8217, 8192, 8267, 8219, 8183, 8132, 8171, 8165,3.820155620574951
78, 8200, 8202, 8215, 8210, 8225, 8189, 8226, 8188, 8281, 8238, 8184, 8137, 8161, 8168,3.827949047088623
78, 8200, 8202, 8215, 8210, 8225, 8189, 8226, 8188, 8281, 8238, 8184, 8137, 8161, 8168,3.827949047088623
79, 8203, 8211, 8219, 8225, 8219, 8184, 8236, 8178, 8296, 8245, 8183, 8128, 8168, 8192,3.8355343341827393
79, 8203, 8211, 8219, 8225, 8219, 8184, 8236, 8178, 8296, 8245, 8183, 8128, 8168, 8192,3.8355343341827393
80, 8213, 8188, 8206, 8214, 8203, 8182, 8216, 8191, 8265, 8207, 8181, 8130, 8178, 8184,3.8435306549072266
80, 8213, 8188, 8206, 8214, 8203, 8182, 8216, 8191, 8265, 8207, 8181, 8130, 8178, 8184,3.8435306549072266
81, 8187, 8195, 8207, 8230, 8221, 8160, 8213, 8177, 8268, 8221, 8190, 8123, 8163, 8166,3.851531744003296
81, 8187, 8195, 8207, 8230, 8221, 8160, 8213, 8177, 8268, 8221, 8190, 8123, 8163, 8166,3.851531744003296
82, 8219, 8219, 8222, 8235, 8228, 8194, 8213, 8188, 8280, 8256, 8188, 8133, 8170, 8175,3.858534812927246
82, 8219, 8219, 8222, 8235, 8228, 8194, 8213, 8188, 8280, 8256, 8188, 8133, 8170, 8175,3.858534812927246
83, 8207, 8215, 8207, 8204, 8232, 8182, 8216, 8180, 8271, 8252, 8174, 8127, 8168, 8173,3.8665430545806885
83, 8207, 8215, 8207, 8204, 8232, 8182, 8216, 8180, 8271, 8252, 8174, 8127, 8168, 8173,3.8665430545806885
84, 8194, 8210, 8201, 8215, 8246, 8169, 8222, 8173, 8267, 8231, 8173, 8130, 8166, 8163,3.874480962753296
84, 8194, 8210, 8201, 8215, 8246, 8169, 8222, 8173, 8267, 8231, 8173, 8130, 8166, 8163,3.874480962753296
85, 8227, 8225, 8226, 8259, 8239, 8188, 8225, 8203, 8289, 8247, 8194, 8162, 8186, 8177,3.8824942111968994
85, 8227, 8225, 8226, 8259, 8239, 8188, 8225, 8203, 8289, 8247, 8194, 8162, 8186, 8177,3.8824942111968994
86, 8209, 8235, 8237, 8277, 8243, 8173, 8242, 8184, 8324, 8289, 8204, 8156, 8173, 8197,3.8909530639648438
86, 8209, 8235, 8237, 8277, 8243, 8173, 8242, 8184, 8324, 8289, 8204, 8156, 8173, 8197,3.8909530639648438
87, 8225, 8225, 8232, 8254, 8244, 8185, 8238, 8180, 8307, 8275, 8190, 8148, 8171, 8201,3.8989579677581787
87, 8225, 8225, 8232, 8254, 8244, 8185, 8238, 8180, 8307, 8275, 8190, 8148, 8171, 8201,3.8989579677581787
88, 8217, 8222, 8230, 8237, 8239, 8174, 8227, 8182, 8289, 8265, 8191, 8155, 8181, 8192,3.9069130420684814
88, 8217, 8222, 8230, 8237, 8239, 8174, 8227, 8182, 8289, 8265, 8191, 8155, 8181, 8192,3.9069130420684814
89, 8205, 8228, 8232, 8233, 8240, 8166, 8219, 8176, 8287, 8267, 8201, 8157, 8180, 8194,3.9150760173797607
89, 8205, 8228, 8232, 8233, 8240, 8166, 8219, 8176, 8287, 8267, 8201, 8157, 8180, 8194,3.9150760173797607
90, 8231, 8219, 8233, 8230, 8229, 8186, 8203, 8192, 8259, 8226, 8191, 8158, 8180, 8188,3.923210382461548
90, 8231, 8219, 8233, 8230, 8229, 8186, 8203, 8192, 8259, 8226, 8191, 8158, 8180, 8188,3.923210382461548
91, 8206, 8221, 8235, 8257, 8242, 8174, 8218, 8179, 8270, 8240, 8187, 8148, 8164, 8179,3.93021297454834
91, 8206, 8221, 8235, 8257, 8242, 8174, 8218, 8179, 8270, 8240, 8187, 8148, 8164, 8179,3.93021297454834
92, 8219, 8223, 8240, 8270, 8249, 8196, 8224, 8189, 8297, 8270, 8194, 8157, 8169, 8180,3.9379537105560303
92, 8219, 8223, 8240, 8270, 8249, 8196, 8224, 8189, 8297, 8270, 8194, 8157, 8169, 8180,3.9379537105560303
93, 8222, 8214, 8233, 8251, 8241, 8186, 8222, 8194, 8309, 8260, 8190, 8157, 8172, 8183,3.9462730884552
93, 8222, 8214, 8233, 8251, 8241, 8186, 8222, 8194, 8309, 8260, 8190, 8157, 8172, 8183,3.9462730884552
94, 8212, 8221, 8238, 8238, 8245, 8169, 8248, 8182, 8325, 8275, 8191, 8154, 8171, 8208,3.953953981399536
94, 8212, 8221, 8238, 8238, 8245, 8169, 8248, 8182, 8325, 8275, 8191, 8154, 8171, 8208,3.953953981399536
95, 8231, 8229, 8246, 8244, 8236, 8192, 8251, 8205, 8320, 8279, 8196, 8168, 8184, 8216,3.9629533290863037
95, 8231, 8229, 8246, 8244, 8236, 8192, 8251, 8205, 8320, 8279, 8196, 8168, 8184, 8216,3.9629533290863037
96, 8191, 8225, 8227, 8264, 8230, 8173, 8246, 8183, 8322, 8270, 8183, 8148, 8168, 8181,3.969667673110962
96, 8191, 8225, 8227, 8264, 8230, 8173, 8246, 8183, 8322, 8270, 8183, 8148, 8168, 8181,3.969667673110962
97, 8200, 8210, 8215, 8247, 8223, 8180, 8238, 8169, 8315, 8265, 8174, 8141, 8163, 8172,3.977667808532715
97, 8200, 8210, 8215, 8247, 8223, 8180, 8238, 8169, 8315, 8265, 8174, 8141, 8163, 8172,3.977667808532715
98, 8209, 8199, 8220, 8217, 8243, 8176, 8240, 8185, 8295, 8265, 8178, 8152, 8175, 8197,3.9849538803100586
98, 8209, 8199, 8220, 8217, 8243, 8176, 8240, 8185, 8295, 8265, 8178, 8152, 8175, 8197,3.9849538803100586
99, 8181, 8201, 8218, 8220, 8277, 8163, 8250, 8174, 8284, 8253, 8184, 8143, 8167, 8195,3.992953300476074
99, 8181, 8201, 8218, 8220, 8277, 8163, 8250, 8174, 8284, 8253, 8184, 8143, 8167, 8195,3.992953300476074
100, 8205, 8204, 8214, 8230, 8253, 8186, 8232, 8180, 8266, 8225, 8175, 8148, 8164, 8164,4.000952959060669
100, 8205, 8204, 8214, 8230, 8253, 8186, 8232, 8180, 8266, 8225, 8175, 8148, 8164, 8164,4.000952959060669
101, 8196, 8212, 8217, 8230, 8235, 8170, 8242, 8172, 8281, 8243, 8163, 8146, 8161, 8168,4.009108543395996
101, 8196, 8212, 8217, 8230, 8235, 8170, 8242, 8172, 8281, 8243, 8163, 8146, 8161, 8168,4.009108543395996
102, 8205, 8208, 8219, 8222, 8243, 8176, 8255, 8174, 8281, 8250, 8173, 8154, 8170, 8195,4.017112731933594
102, 8205, 8208, 8219, 8222, 8243, 8176, 8255, 8174, 8281, 8250, 8173, 8154, 8170, 8195,4.017112731933594
103, 8207, 8199, 8205, 8220, 8240, 8177, 8244, 8182, 8264, 8240, 8187, 8158, 8172, 8184,4.024949073791504
103, 8207, 8199, 8205, 8220, 8240, 8177, 8244, 8182, 8264, 8240, 8187, 8158, 8172, 8184,4.024949073791504
104, 8188, 8212, 8203, 8237, 8235, 8163, 8244, 8164, 8283, 8261, 8180, 8144, 8163, 8165,4.032953262329102
104, 8188, 8212, 8203, 8237, 8235, 8163, 8244, 8164, 8283, 8261, 8180, 8144, 8163, 8165,4.032953262329102
105, 8221, 8220, 8215, 8240, 8248, 8183, 8246, 8179, 8294, 8269, 8168, 8153, 8174, 8179,4.040955066680908
105, 8221, 8220, 8215, 8240, 8248, 8183, 8246, 8179, 8294, 8269, 8168, 8153, 8174, 8179,4.040955066680908
106, 8196, 8209, 8211, 8237, 8281, 8167, 8261, 8174, 8305, 8269, 8178, 8149, 8167, 8190,4.048953294754028
106, 8196, 8209, 8211, 8237, 8281, 8167, 8261, 8174, 8305, 8269, 8178, 8149, 8167, 8190,4.048953294754028
107, 8194, 8195, 8204, 8236, 8263, 8175, 8249, 8168, 8300, 8256, 8184, 8143, 8163, 8186,4.056223154067993
107, 8194, 8195, 8204, 8236, 8263, 8175, 8249, 8168, 8300, 8256, 8184, 8143, 8163, 8186,4.056223154067993
108, 8205, 8185, 8198, 8221, 8228, 8176, 8223, 8174, 8277, 8234, 8172, 8140, 8165, 8164,4.063406705856323
108, 8205, 8185, 8198, 8221, 8228, 8176, 8223, 8174, 8277, 8234, 8172, 8140, 8165, 8164,4.064412832260132
109, 8167, 8189, 8193, 8203, 8240, 8155, 8232, 8158, 8283, 8234, 8165, 8127, 8151, 8149,4.071939706802368
109, 8167, 8189, 8193, 8203, 8240, 8155, 8232, 8158, 8283, 8234, 8165, 8127, 8151, 8149,4.071939706802368
110, 8180, 8178, 8183, 8176, 8230, 8177, 8230, 8181, 8274, 8225, 8162, 8143, 8166, 8158,4.079960584640503
110, 8180, 8178, 8183, 8176, 8230, 8177, 8230, 8181, 8274, 8225, 8162, 8143, 8166, 8158,4.079960584640503
111, 8168, 8161, 8173, 8181, 8215, 8160, 8223, 8177, 8267, 8233, 8165, 8147, 8170, 8153,4.0881311893463135
111, 8168, 8161, 8173, 8181, 8215, 8160, 8223, 8177, 8267, 8233, 8165, 8147, 8170, 8153,4.0881311893463135
112, 8177, 8173, 8181, 8217, 8214, 8167, 8221, 8167, 8279, 8239, 8166, 8148, 8164, 8147,4.096131086349487
112, 8177, 8173, 8181, 8217, 8214, 8167, 8221, 8167, 8279, 8239, 8166, 8148, 8164, 8147,4.096131086349487
113, 8206, 8195, 8200, 8221, 8213, 8187, 8224, 8182, 8278, 8220, 8160, 8156, 8169, 8150,4.102953672409058
113, 8206, 8195, 8200, 8221, 8213, 8187, 8224, 8182, 8278, 8220, 8160, 8156, 8169, 8150,4.102953672409058
114, 8186, 8199, 8206, 8211, 8231, 8158, 8239, 8162, 8272, 8220, 8162, 8141, 8163, 8153,4.110959053039551
114, 8186, 8199, 8206, 8211, 8231, 8158, 8239, 8162, 8272, 8220, 8162, 8141, 8163, 8153,4.110959053039551
115, 8209, 8190, 8202, 8197, 8232, 8173, 8223, 8172, 8256, 8214, 8163, 8144, 8173, 8151,4.118955850601196
115, 8209, 8190, 8202, 8197, 8232, 8173, 8223, 8172, 8256, 8214, 8163, 8144, 8173, 8151,4.118955850601196
116, 8202, 8205, 8203, 8209, 8229, 8177, 8219, 8178, 8272, 8225, 8165, 8150, 8168, 8148,4.126920461654663
116, 8202, 8205, 8203, 8209, 8229, 8177, 8219, 8178, 8272, 8225, 8165, 8150, 8168, 8148,4.126920461654663
117, 8195, 8216, 8210, 8237, 8227, 8179, 8226, 8173, 8287, 8237, 8172, 8151, 8160, 8159,4.135197639465332
117, 8195, 8216, 8210, 8237, 8227, 8179, 8226, 8173, 8287, 8237, 8172, 8151, 8160, 8159,4.135197639465332
118, 8209, 8196, 8203, 8222, 8217, 8184, 8215, 8188, 8267, 8213, 8171, 8153, 8172, 8154,4.143147945404053
118, 8209, 8196, 8203, 8222, 8217, 8184, 8215, 8188, 8267, 8213, 8171, 8153, 8172, 8154,4.143147945404053
119, 8186, 8196, 8201, 8211, 8228, 8171, 8229, 8170, 8283, 8222, 8169, 8150, 8163, 8145,4.150948762893677
119, 8186, 8196, 8201, 8211, 8228, 8171, 8229, 8170, 8283, 8222, 8169, 8150, 8163, 8145,4.150948762893677
120, 8214, 8216, 8217, 8218, 8236, 8191, 8241, 8180, 8305, 8253, 8181, 8170, 8168, 8168,4.158957004547119
120, 8214, 8216, 8217, 8218, 8236, 8191, 8241, 8180, 8305, 8253, 8181, 8170, 8168, 8168,4.158957004547119
121, 8209, 8223, 8212, 8202, 8249, 8181, 8252, 8189, 8316, 8280, 8192, 8165, 8176, 8190,4.166024923324585
121, 8209, 8223, 8212, 8202, 8249, 8181, 8252, 8189, 8316, 8280, 8192, 8165, 8176, 8190,4.166024923324585
122, 8196, 8216, 8206, 8204, 8272, 8180, 8264, 8180, 8328, 8286, 8191, 8146, 8173, 8192,4.174994945526123
122, 8196, 8216, 8206, 8204, 8272, 8180, 8264, 8180, 8328, 8286, 8191, 8146, 8173, 8192,4.174994945526123
123, 8221, 8215, 8216, 8239, 8278, 8197, 8257, 8195, 8318, 8268, 8188, 8164, 8180, 8189,4.181993246078491
123, 8221, 8215, 8216, 8239, 8278, 8197, 8257, 8195, 8318, 8268, 8188, 8164, 8180, 8189,4.181993246078491
124, 8208, 8243, 8229, 8261, 8278, 8175, 8265, 8178, 8322, 8276, 8190, 8169, 8171, 8194,4.190225601196289
124, 8208, 8243, 8229, 8261, 8278, 8175, 8265, 8178, 8322, 8276, 8190, 8169, 8171, 8194,4.190225601196289
125, 8233, 8266, 8242, 8266, 8269, 8195, 8270, 8183, 8322, 8279, 8188, 8175, 8174, 8211,4.198179721832275
125, 8233, 8266, 8242, 8266, 8269, 8195, 8270, 8183, 8322, 8279, 8188, 8175, 8174, 8211,4.198179721832275
126, 8226, 8260, 8239, 8272, 8287, 8189, 8270, 8190, 8323, 8276, 8187, 8171, 8173, 8210,4.205931186676025
126, 8226, 8260, 8239, 8272, 8287, 8189, 8270, 8190, 8323, 8276, 8187, 8171, 8173, 8210,4.205931186676025
127, 8202, 8255, 8232, 8265, 8296, 8178, 8267, 8174, 8335, 8278, 8192, 8167, 8165, 8200,4.213956594467163
127, 8202, 8255, 8232, 8265, 8296, 8178, 8267, 8174, 8335, 8278, 8192, 8167, 8165, 8200,4.213956594467163
241, 8232, 8265, 8237, 8257, 8254, 8201, 8253, 8185, 8324, 8260, 8189, 8180, 8173, 8193,4.2219557762146
241, 8232, 8265, 8237, 8257, 8254, 8201, 8253, 8185, 8324, 8260, 8189, 8180, 8173, 8193,4.2219557762146
0, 8212, 8278, 8240, 8283, 8266, 8180, 8270, 8178, 8341, 8271, 8184, 8168, 8163, 8195,4.229944705963135
0, 8212, 8278, 8240, 8283, 8266, 8180, 8270, 8178, 8341, 8271, 8184, 8168, 8163, 8195,4.229944705963135
1, 8215, 8263, 8234, 8268, 8298, 8187, 8271, 8186, 8350, 8276, 8189, 8171, 8170, 8203,4.236947536468506
1, 8215, 8263, 8234, 8268, 8298, 8187, 8271, 8186, 8350, 8276, 8189, 8171, 8170, 8203,4.236947536468506
2, 8208, 8246, 8218, 8219, 8271, 8191, 8247, 8186, 8326, 8263, 8187, 8179, 8172, 8187,4.245959758758545
2, 8208, 8246, 8218, 8219, 8271, 8191, 8247, 8186, 8326, 8263, 8187, 8179, 8172, 8187,4.245959758758545
3, 8185, 8257, 8213, 8227, 8247, 8180, 8246, 8165, 8318, 8262, 8172, 8173, 8156, 8170,4.252962112426758
3, 8185, 8257, 8213, 8227, 8247, 8180, 8246, 8165, 8318, 8262, 8172, 8173, 8156, 8170,4.252962112426758
4, 8207, 8256, 8212, 8248, 8241, 8196, 8243, 8182, 8312, 8248, 8163, 8180, 8162, 8165,4.261000156402588
4, 8207, 8256, 8212, 8248, 8241, 8196, 8243, 8182, 8312, 8248, 8163, 8180, 8162, 8165,4.261000156402588
5, 8182, 8242, 8196, 8229, 8240, 8179, 8241, 8162, 8304, 8243, 8163, 8167, 8157, 8156,4.269217014312744
5, 8182, 8242, 8196, 8229, 8240, 8179, 8241, 8162, 8304, 8243, 8163, 8167, 8157, 8156,4.269217014312744
6, 8189, 8243, 8195, 8210, 8239, 8182, 8233, 8159, 8289, 8233, 8170, 8168, 8163, 8160,4.277209281921387
6, 8189, 8243, 8195, 8210, 8239, 8182, 8233, 8159, 8289, 8233, 8170, 8168, 8163, 8160,4.277209281921387
7, 8198, 8254, 8209, 8230, 8250, 8178, 8230, 8182, 8290, 8229, 8172, 8174, 8167, 8164,4.284955739974976
7, 8198, 8254, 8209, 8230, 8250, 8178, 8230, 8182, 8290, 8229, 8172, 8174, 8167, 8164,4.284955739974976
8, 8177, 8251, 8206, 8239, 8249, 8170, 8231, 8169, 8304, 8237, 8169, 8159, 8156, 8156,4.292953252792358
8, 8177, 8251, 8206, 8239, 8249, 8170, 8231, 8169, 8304, 8237, 8169, 8159, 8156, 8156,4.292953252792358
9, 8205, 8234, 8195, 8205, 8218, 8199, 8213, 8179, 8295, 8223, 8166, 8166, 8168, 8152,4.300953149795532
9, 8205, 8234, 8195, 8205, 8218, 8199, 8213, 8179, 8295, 8223, 8166, 8166, 8168, 8152,4.300953149795532
10, 8194, 8238, 8198, 8211, 8220, 8180, 8223, 8180, 8317, 8240, 8164, 8162, 8166, 8162,4.308457612991333
10, 8194, 8238, 8198, 8211, 8220, 8180, 8223, 8180, 8317, 8240, 8164, 8162, 8166, 8162,4.309450149536133
11, 8200, 8247, 8207, 8237, 8227, 8181, 8236, 8185, 8339, 8256, 8173, 8166, 8167, 8175,4.315455675125122
11, 8200, 8247, 8207, 8237, 8227, 8181, 8236, 8185, 8339, 8256, 8173, 8166, 8167, 8175,4.316451787948608
12, 8206, 8230, 8202, 8210, 8210, 8190, 8221, 8189, 8317, 8238, 8179, 8180, 8177, 8160,4.323954105377197
12, 8206, 8230, 8202, 8210, 8210, 8190, 8221, 8189, 8317, 8238, 8179, 8180, 8177, 8160,4.323954105377197
13, 8181, 8216, 8203, 8203, 8202, 8178, 8205, 8158, 8292, 8240, 8172, 8172, 8167, 8145,4.331953525543213
13, 8181, 8216, 8203, 8203, 8202, 8178, 8205, 8158, 8292, 8240, 8172, 8172, 8167, 8145,4.331953525543213
14, 8208, 8212, 8206, 8201, 8181, 8200, 8182, 8165, 8264, 8224, 8158, 8165, 8166, 8147,4.339955806732178
14, 8208, 8212, 8206, 8201, 8181, 8200, 8182, 8165, 8264, 8224, 8158, 8165, 8166, 8147,4.339955806732178
15, 8185, 8207, 8196, 8182, 8186, 8184, 8187, 8162, 8253, 8196, 8160, 8152, 8161, 8138,4.347953796386719
15, 8185, 8207, 8196, 8182, 8186, 8184, 8187, 8162, 8253, 8196, 8160, 8152, 8161, 8138,4.347953796386719
16, 8176, 8203, 8198, 8194, 8212, 8183, 8197, 8165, 8249, 8190, 8167, 8161, 8170, 8133,4.3560521602630615
16, 8176, 8203, 8198, 8194, 8212, 8183, 8197, 8165, 8249, 8190, 8167, 8161, 8170, 8133,4.3560521602630615
17, 8197, 8204, 8200, 8206, 8208, 8200, 8194, 8184, 8243, 8199, 8162, 8174, 8176, 8126,4.364053249359131
17, 8197, 8204, 8200, 8206, 8208, 8200, 8194, 8184, 8243, 8199, 8162, 8174, 8176, 8126,4.364053249359131
18, 8176, 8212, 8194, 8190, 8178, 8185, 8202, 8162, 8254, 8205, 8159, 8152, 8153, 8121,4.3716349601745605
18, 8176, 8212, 8194, 8190, 8178, 8185, 8202, 8162, 8254, 8205, 8159, 8152, 8153, 8121,4.3716349601745605
19, 8192, 8212, 8196, 8171, 8158, 8189, 8190, 8173, 8239, 8177, 8158, 8159, 8165, 8131,4.379947662353516
19, 8192, 8212, 8196, 8171, 8158, 8189, 8190, 8173, 8239, 8177, 8158, 8159, 8165, 8131,4.379947662353516
20, 8184, 8212, 8202, 8185, 8195, 8173, 8189, 8182, 8237, 8181, 8165, 8169, 8177, 8131,4.387152194976807
20, 8184, 8212, 8202, 8185, 8195, 8173, 8189, 8182, 8237, 8181, 8165, 8169, 8177, 8131,4.387152194976807
21, 8186, 8216, 8208, 8192, 8205, 8187, 8192, 8169, 8247, 8203, 8164, 8164, 8166, 8124,4.395147323608398
21, 8186, 8216, 8208, 8192, 8205, 8187, 8192, 8169, 8247, 8203, 8164, 8164, 8166, 8124,4.395147323608398
22, 8200, 8215, 8202, 8175, 8159, 8199, 8168, 8175, 8235, 8177, 8157, 8162, 8164, 8119,4.402953863143921
22, 8200, 8215, 8202, 8175, 8159, 8199, 8168, 8175, 8235, 8177, 8157, 8162, 8164, 8119,4.402953863143921
23, 8170, 8215, 8189, 8182, 8167, 8163, 8174, 8165, 8243, 8176, 8159, 8158, 8164, 8122,4.410953760147095
23, 8170, 8215, 8189, 8182, 8167, 8163, 8174, 8165, 8243, 8176, 8159, 8158, 8164, 8122,4.410953760147095
24, 8192, 8200, 8188, 8184, 8194, 8182, 8175, 8182, 8236, 8194, 8162, 8176, 8175, 8121,4.4189534187316895
24, 8192, 8200, 8188, 8184, 8194, 8182, 8175, 8182, 8236, 8194, 8162, 8176, 8175, 8121,4.4189534187316895
25, 8176, 8195, 8185, 8180, 8185, 8181, 8162, 8174, 8222, 8192, 8158, 8168, 8167, 8103,4.4270548820495605
25, 8176, 8195, 8185, 8180, 8185, 8181, 8162, 8174, 8222, 8192, 8158, 8168, 8167, 8103,4.4270548820495605
26, 8155, 8194, 8180, 8170, 8178, 8177, 8163, 8154, 8228, 8185, 8159, 8148, 8158, 8099,4.435027837753296
26, 8155, 8194, 8180, 8170, 8178, 8177, 8163, 8154, 8228, 8185, 8159, 8148, 8158, 8099,4.435027837753296
27, 8181, 8171, 8177, 8160, 8182, 8195, 8166, 8171, 8233, 8181, 8160, 8158, 8170, 8105,4.443034648895264
27, 8181, 8171, 8177, 8160, 8182, 8195, 8166, 8171, 8233, 8181, 8160, 8158, 8170, 8105,4.443034648895264
28, 8161, 8171, 8178, 8175, 8193, 8171, 8172, 8159, 8243, 8186, 8157, 8157, 8163, 8105,4.449954271316528
28, 8161, 8171, 8178, 8175, 8193, 8171, 8172, 8159, 8243, 8186, 8157, 8157, 8163, 8105,4.449954271316528
29, 8179, 8192, 8183, 8192, 8194, 8177, 8161, 8169, 8227, 8182, 8175, 8172, 8170, 8107,4.457953691482544
29, 8179, 8192, 8183, 8192, 8194, 8177, 8161, 8169, 8227, 8182, 8175, 8172, 8170, 8107,4.457953691482544
30, 8188, 8200, 8183, 8198, 8195, 8174, 8170, 8174, 8224, 8195, 8185, 8175, 8173, 8106,4.465954065322876
