COUNTER,F3,FC5,AF3,F7,T7,P7,O1,O2,P8,T8,F8,AF4,FC6,F4,Timestamp,word
41, 8077, 8119, 8069, 8098, 8136, 8021, 8146, 8114, 8115, 8113, 8068, 8079, 8088, 8070,0.00686335563659668,XXXXX
42, 8077, 8141, 8076, 8097, 8131, 8023, 8147, 8122, 8120, 8122, 8078, 8085, 8093, 8073,0.014710187911987305,XXXXX
43, 8080, 8131, 8078, 8095, 8128, 8023, 8153, 8126, 8116, 8122, 8098, 8093, 8097, 8079,0.022585391998291016,XXXXX
44, 8102, 8146, 8097, 8111, 8135, 8028, 8161, 8127, 8124, 8131, 8106, 8120, 8104, 8104,0.030382871627807617,XXXXX
45, 8120, 8159, 8112, 8132, 8145, 8034, 8169, 8145, 8140, 8153, 8116, 8135, 8119, 8126,0.03814530372619629,XXXXX
46, 8122, 8138, 8119, 8135, 8150, 8041, 8171, 8162, 8150, 8171, 8135, 8142, 8134, 8132,0.04586172103881836,XXXXX
47, 8135, 8161, 8134, 8134, 8158, 8041, 8169, 8171, 8160, 8175, 8145, 8157, 8136, 8144,0.05405378341674805,XXXXX
48, 8141, 8145, 8132, 8138, 8161, 8033, 8166, 8175, 8156, 8170, 8136, 8149, 8130, 8142,0.0619349479675293,XXXXX
49, 8129, 8139, 8129, 8132, 8160, 8034, 8167, 8156, 8143, 8158, 8124, 8139, 8131, 8125,0.06965851783752441,XXXXX
50, 8118, 8149, 8118, 8127, 8161, 8037, 8163, 8136, 8142, 8162, 8127, 8136, 8127, 8116,0.07745718955993652,XXXXX
51, 8118, 8127, 8113, 8131, 8151, 8028, 8156, 8141, 8146, 8180, 8136, 8135, 8128, 8119,0.08548307418823242,XXXXX
52, 8128, 8150, 8132, 8130, 8145, 8027, 8166, 8157, 8148, 8183, 8140, 8145, 8151, 8126,0.09339308738708496,XXXXX
53, 8130, 8140, 8134, 8131, 8157, 8033, 8174, 8162, 8151, 8177, 8145, 8144, 8155, 8127,0.10130977630615234,XXXXX
54, 8131, 8137, 8135, 8136, 8158, 8032, 8162, 8162, 8158, 8175, 8152, 8152, 8143, 8133,0.10898661613464355,XXXXX
55, 8131, 8152, 8134, 8137, 8140, 8026, 8151, 8160, 8157, 8177, 8148, 8157, 8149, 8131,0.11667585372924805,XXXXX
56, 8127, 8128, 8124, 8133, 8141, 8023, 8147, 8157, 8145, 8171, 8138, 8149, 8152, 8124,0.12462401390075684,XXXXX
57, 8140, 8155, 8141, 8134, 8162, 8027, 8153, 8156, 8148, 8170, 8140, 8159, 8148, 8129,0.13257503509521484,XXXXX
58, 8144, 8150, 8146, 8138, 8168, 8026, 8150, 8146, 8146, 8163, 8140, 8154, 8141, 8125,0.1403517723083496,XXXXX
59, 8127, 8131, 8128, 8127, 8153, 8021, 8138, 8125, 8126, 8132, 8119, 8140, 8116, 8118,0.1498405933380127,XXXXX
60, 8116, 8141, 8112, 8108, 8142, 8022, 8140, 8120, 8112, 8116, 8100, 8132, 8100, 8112,0.15630865097045898,XXXXX
61, 8115, 8121, 8106, 8098, 8150, 8026, 8150, 8142, 8122, 8135, 8098, 8118, 8112, 8103,0.1642012596130371,XXXXX
62, 8121, 8142, 8111, 8101, 8160, 8035, 8166, 8164, 8147, 8163, 8103, 8118, 8122, 8106,0.17207670211791992,XXXXX
63, 8125, 8140, 8105, 8104, 8157, 8038, 8173, 8164, 8145, 8158, 8103, 8122, 8118, 8109,0.1801750659942627,XXXXX
64, 8130, 8127, 8109, 8104, 8150, 8034, 8169, 8155, 8131, 8137, 8104, 8140, 8125, 8112,0.1881427764892578,XXXXX
65, 8138, 8147, 8124, 8115, 8154, 8029, 8164, 8171, 8138, 8150, 8119, 8154, 8135, 8128,0.19604063034057617,XXXXX
66, 8144, 8132, 8124, 8129, 8159, 8028, 8164, 8186, 8150, 8170, 8134, 8147, 8135, 8136,0.20397257804870605,XXXXX
67, 8147, 8149, 8129, 8128, 8158, 8034, 8170, 8169, 8141, 8154, 8133, 8152, 8134, 8136,0.21196842193603516,XXXXX
68, 8139, 8150, 8126, 8124, 8155, 8033, 8167, 8159, 8122, 8130, 8126, 8151, 8130, 8133,0.21985507011413574,XXXXX
69, 8136, 8139, 8131, 8135, 8158, 8023, 8158, 8161, 8123, 8129, 8129, 8150, 8126, 8133,0.22779273986816406,XXXXX
70, 8151, 8159, 8146, 8140, 8160, 8021, 8151, 8146, 8125, 8131, 8136, 8160, 8135, 8136,0.2356266975402832,XXXXX
71, 8167, 8140, 8151, 8138, 8161, 8025, 8153, 8140, 8121, 8130, 8139, 8174, 8149, 8148,0.24371004104614258,XXXXX
72, 8169, 8153, 8158, 8137, 8167, 8034, 8169, 8160, 8134, 8135, 8143, 8189, 8154, 8158,0.2515869140625,XXXXX
73, 8141, 8144, 8141, 8126, 8163, 8029, 8169, 8168, 8144, 8146, 8137, 8164, 8141, 8138,0.259319543838501,XXXXX
74, 8131, 8119, 8129, 8120, 8153, 8016, 8155, 8158, 8137, 8147, 8125, 8147, 8132, 8125,0.2670145034790039,XXXXX
75, 8151, 8148, 8143, 8123, 8156, 8019, 8155, 8156, 8139, 8139, 8126, 8165, 8145, 8139,0.27483153343200684,XXXXX
76, 8156, 8136, 8142, 8112, 8161, 8022, 8157, 8161, 8146, 8144, 8135, 8158, 8156, 8140,0.28269147872924805,XXXXX
77, 8148, 8140, 8136, 8104, 8157, 8012, 8151, 8161, 8139, 8147, 8129, 8150, 8152, 8133,0.2905874252319336,XXXXX
78, 8144, 8146, 8130, 8122, 8154, 8010, 8145, 8159, 8137, 8142, 8122, 8154, 8147, 8129,0.2983665466308594,XXXXX
79, 8152, 8138, 8141, 8136, 8162, 8023, 8155, 8172, 8158, 8149, 8140, 8167, 8161, 8142,0.3061859607696533,XXXXX
80, 8171, 8168, 8158, 8134, 8167, 8030, 8176, 8193, 8170, 8166, 8163, 8188, 8184, 8160,0.31397104263305664,XXXXX
81, 8169, 8140, 8147, 8131, 8161, 8029, 8178, 8189, 8156, 8172, 8170, 8184, 8184, 8149,0.32176923751831055,XXXXX
82, 8156, 8137, 8148, 8134, 8162, 8033, 8163, 8170, 8141, 8153, 8168, 8182, 8169, 8140,0.3301558494567871,XXXXX
83, 8148, 8146, 8146, 8123, 8155, 8030, 8151, 8152, 8127, 8130, 8154, 8177, 8161, 8141,0.338162899017334,XXXXX
84, 8147, 8121, 8131, 8101, 8136, 8022, 8148, 8135, 8121, 8121, 8137, 8167, 8162, 8135,0.34607887268066406,XXXXX
85, 8149, 8146, 8136, 8108, 8143, 8026, 8161, 8142, 8134, 8133, 8144, 8167, 8164, 8134,0.35252976417541504,XXXXX
86, 8146, 8133, 8138, 8127, 8162, 8030, 8171, 8159, 8140, 8150, 8152, 8157, 8160, 8135,0.36182689666748047,XXXXX
87, 8155, 8137, 8147, 8134, 8159, 8035, 8175, 8160, 8140, 8160, 8149, 8169, 8166, 8143,0.3695549964904785,XXXXX
88, 8174, 8169, 8159, 8137, 8157, 8041, 8181, 8174, 8154, 8170, 8159, 8183, 8183, 8159,0.37717318534851074,XXXXX
89, 8173, 8130, 8151, 8124, 8163, 8043, 8187, 8192, 8163, 8173, 8160, 8173, 8187, 8159,0.38492488861083984,XXXXX
90, 8159, 8140, 8136, 8112, 8152, 8039, 8177, 8171, 8149, 8157, 8136, 8160, 8161, 8133,0.39265942573547363,XXXXX
91, 8142, 8232, 8125, 8125, 8138, 8027, 8154, 8136, 8125, 8128, 8123, 8144, 8129, 8112,0.4006373882293701,XXXXX
92, 8140, 8358, 8134, 8127, 8136, 8019, 8149, 8131, 8125, 8118, 8130, 8145, 8131, 8120,0.40894103050231934,XXXXX
93, 8137, 8408, 8124, 8096, 8129, 8016, 8156, 8144, 8140, 8127, 8122, 8135, 8142, 8118,0.4153785705566406,XXXXX
94, 8126, 8381, 8109, 8092, 8128, 8015, 8151, 8153, 8138, 8133, 8115, 8119, 8135, 8110,0.4248542785644531,XXXXX
95, 8133, 8417, 8129, 8123, 8133, 8023, 8156, 8154, 8134, 8132, 8126, 8138, 8144, 8125,0.43270444869995117,XXXXX
96, 8139, 8405, 8129, 8123, 8129, 8026, 8163, 8152, 8137, 8130, 8129, 8137, 8152, 8122,0.4406273365020752,XXXXX
97, 8143, 8380, 8130, 8111, 8140, 8031, 8171, 8162, 8145, 8138, 8126, 8134, 8144, 8120,0.4485342502593994,XXXXX
98, 8148, 8392, 8140, 8125, 8163, 8038, 8183, 8170, 8153, 8146, 8131, 8142, 8143, 8134,0.4567267894744873,XXXXX
99, 8139, 8360, 8126, 8132, 8156, 8029, 8172, 8163, 8148, 8138, 8129, 8136, 8139, 8128,0.4646332263946533,XXXXX
100, 8128, 8370, 8121, 8113, 8139, 8024, 8154, 8157, 8135, 8129, 8112, 8128, 8128, 8114,0.4723503589630127,XXXXX
101, 8116, 8357, 8115, 8102, 8144, 8026, 8153, 8156, 8129, 8133, 8103, 8112, 8114, 8111,0.4801003932952881,XXXXX
102, 8103, 8323, 8102, 8103, 8136, 8018, 8151, 8142, 8126, 8121, 8099, 8102, 8102, 8099,0.48639607429504395,XXXXX
103, 8096, 8334, 8094, 8095, 8123, 8014, 8143, 8128, 8120, 8101, 8090, 8100, 8103, 8082,0.4945390224456787,XXXXX
104, 8103, 8321, 8095, 8098, 8136, 8024, 8147, 8144, 8123, 8114, 8092, 8102, 8116, 8086,0.5023767948150635,XXXXX
105, 8122, 8333, 8104, 8109, 8144, 8037, 8165, 8165, 8137, 8132, 8097, 8118, 8119, 8101,0.5117826461791992,XXXXX
106, 8122, 8329, 8098, 8114, 8138, 8039, 8171, 8175, 8148, 8135, 8095, 8119, 8117, 8101,0.5198550224304199,XXXXX
107, 8120, 8319, 8105, 8124, 8148, 8043, 8173, 8190, 8158, 8147, 8101, 8129, 8131, 8111,0.5274033546447754,XXXXX
108, 8134, 8337, 8124, 8133, 8163, 8056, 8177, 8191, 8166, 8153, 8111, 8145, 8136, 8119,0.5350651741027832,XXXXX
109, 8137, 8313, 8125, 8136, 8162, 8049, 8170, 8172, 8158, 8137, 8111, 8142, 8128, 8115,0.5428726673126221,XXXXX
110, 8134, 8319, 8125, 8132, 8153, 8031, 8159, 8151, 8139, 8126, 8107, 8146, 8124, 8117,0.5506234169006348,XXXXX
111, 8130, 8316, 8122, 8131, 8153, 8023, 8150, 8143, 8124, 8128, 8109, 8139, 8123, 8117,0.5585086345672607,XXXXX
112, 8132, 8296, 8128, 8135, 8160, 8025, 8143, 8141, 8125, 8125, 8113, 8132, 8121, 8118,0.5662355422973633,XXXXX
113, 8131, 8314, 8135, 8138, 8165, 8029, 8147, 8140, 8129, 8125, 8105, 8133, 8119, 8118,0.5739362239837646,XXXXX
114, 8114, 8284, 8112, 8132, 8149, 8030, 8148, 8136, 8124, 8129, 8101, 8115, 8118, 8106,0.5818486213684082,XXXXX
115, 8113, 8278, 8102, 8123, 8131, 8026, 8139, 8131, 8126, 8130, 8115, 8115, 8120, 8100,0.5896782875061035,XXXXX
116, 8129, 8289, 8120, 8126, 8144, 8025, 8139, 8135, 8134, 8134, 8133, 8132, 8125, 8110,0.5975804328918457,XXXXX
117, 8134, 8276, 8136, 8135, 8154, 8031, 8144, 8144, 8139, 8136, 8136, 8134, 8132, 8118,0.605539083480835,XXXXX
118, 8126, 8301, 8132, 8131, 8146, 8031, 8138, 8144, 8133, 8131, 8130, 8123, 8132, 8115,0.6148324012756348,XXXXX
119, 8130, 8286, 8124, 8137, 8151, 8027, 8132, 8136, 8126, 8130, 8132, 8122, 8130, 8114,0.6211440563201904,XXXXX
120, 8146, 8288, 8146, 8159, 8166, 8038, 8145, 8132, 8133, 8133, 8138, 8146, 8131, 8124,0.6290469169616699,XXXXX
121, 8146, 8296, 8149, 8165, 8162, 8044, 8152, 8136, 8134, 8132, 8138, 8144, 8128, 8126,0.636955738067627,XXXXX
122, 8140, 8272, 8132, 8155, 8159, 8032, 8144, 8137, 8124, 8126, 8133, 8130, 8127, 8127,0.6446869373321533,XXXXX
123, 8143, 8294, 8139, 8156, 8164, 8027, 8148, 8137, 8125, 8127, 8134, 8143, 8130, 8131,0.6526095867156982,XXXXX
124, 8136, 8277, 8129, 8154, 8163, 8032, 8154, 8137, 8130, 8134, 8135, 8133, 8128, 8121,0.6619558334350586,XXXXX
125, 8135, 8269, 8120, 8141, 8168, 8038, 8148, 8137, 8132, 8130, 8126, 8124, 8129, 8114,0.6688728332519531,XXXXX
126, 8135, 8283, 8127, 8136, 8161, 8035, 8143, 8137, 8130, 8128, 8125, 8130, 8128, 8112,0.6764960289001465,XXXXX
127, 8123, 8256, 8126, 8137, 8136, 8025, 8140, 8135, 8121, 8136, 8125, 8127, 8119, 8105,0.684398889541626,XXXXX
239, 8120, 8273, 8122, 8134, 8135, 8025, 8141, 8131, 8117, 8132, 8114, 8129, 8121, 8112,0.6922056674957275,XXXXX
0, 8118, 8264, 8110, 8135, 8156, 8026, 8135, 8125, 8112, 8115, 8102, 8115, 8118, 8111,0.6999781131744385,XXXXX
1, 8113, 8260, 8117, 8142, 8157, 8022, 8136, 8119, 8103, 8101, 8105, 8112, 8103, 8104,0.7077040672302246,XXXXX
2, 8131, 8290, 8140, 8162, 8155, 8027, 8151, 8128, 8113, 8106, 8121, 8129, 8112, 8123,0.7156565189361572,XXXXX
3, 8152, 8273, 8150, 8183, 8173, 8037, 8158, 8136, 8122, 8114, 8134, 8143, 8136, 8143,0.7235519886016846,XXXXX
4, 8148, 8277, 8149, 8175, 8176, 8043, 8153, 8131, 8115, 8105, 8134, 8147, 8136, 8138,0.7315537929534912,XXXXX
5, 8130, 8265, 8135, 8160, 8165, 8034, 8144, 8130, 8115, 8108, 8130, 8126, 8126, 8125,0.7395846843719482,XXXXX
6, 8137, 8259, 8138, 8161, 8159, 8025, 8144, 8139, 8133, 8130, 8133, 8127, 8139, 8130,0.7470912933349609,XXXXX
7, 8147, 8272, 8143, 8172, 8159, 8024, 8144, 8140, 8135, 8135, 8136, 8138, 8145, 8130,0.754981279373169,XXXXX
8, 8139, 8250, 8136, 8180, 8167, 8026, 8141, 8135, 8127, 8129, 8137, 8132, 8136, 8118,0.7627453804016113,XXXXX
9, 8140, 8271, 8145, 8178, 8175, 8030, 8145, 8136, 8131, 8134, 8138, 8134, 8140, 8127,0.770641565322876,XXXXX
10, 8132, 8253, 8139, 8162, 8164, 8025, 8136, 8134, 8127, 8125, 8131, 8123, 8133, 8121,0.7786033153533936,XXXXX
11, 8114, 8221, 8124, 8150, 8155, 8019, 8134, 8128, 8119, 8104, 8124, 8108, 8112, 8098,0.7866015434265137,XXXXX
12, 8119, 8252, 8124, 8157, 8165, 8027, 8149, 8133, 8121, 8104, 8125, 8109, 8113, 8093,0.794553279876709,XXXXX
13, 8125, 8241, 8124, 8164, 8166, 8034, 8153, 8131, 8114, 8105, 8127, 8111, 8124, 8102,0.8023481369018555,XXXXX
14, 8123, 8244, 8130, 8157, 8160, 8034, 8148, 8111, 8102, 8097, 8126, 8116, 8120, 8109,0.8096308708190918,XXXXX
15, 8115, 8238, 8123, 8155, 8165, 8034, 8142, 8094, 8099, 8096, 8124, 8109, 8114, 8100,0.8176703453063965,XXXXX
16, 8116, 8236, 8125, 8177, 8172, 8041, 8139, 8095, 8101, 8103, 8123, 8113, 8116, 8095,0.825563907623291,XXXXX
17, 8129, 8268, 8144, 8196, 8173, 8037, 8143, 8113, 8114, 8102, 8125, 8131, 8125, 8105,0.8348495960235596,XXXXX
18, 8140, 8238, 8150, 8195, 8172, 8033, 8146, 8131, 8125, 8109, 8130, 8135, 8130, 8115,0.842658519744873,XXXXX
19, 8149, 8238, 8162, 8193, 8170, 8045, 8151, 8135, 8122, 8124, 8137, 8146, 8138, 8123,0.8503196239471436,XXXXX
20, 8148, 8246, 8163, 8194, 8167, 8044, 8154, 8128, 8121, 8131, 8135, 8147, 8142, 8123,0.8581514358520508,XXXXX
21, 8149, 8223, 8159, 8193, 8166, 8037, 8153, 8126, 8133, 8128, 8130, 8142, 8139, 8124,0.8658561706542969,XXXXX
22, 8153, 8237, 8162, 8196, 8171, 8050, 8157, 8128, 8137, 8129, 8144, 8148, 8145, 8126,0.8735837936401367,XXXXX
23, 8147, 8219, 8154, 8195, 8168, 8055, 8159, 8131, 8131, 8137, 8160, 8146, 8155, 8122,0.8815581798553467,XXXXX
24, 8148, 8232, 8156, 8191, 8161, 8044, 8152, 8133, 8134, 8130, 8149, 8148, 8147, 8131,0.889552116394043,XXXXX
25, 8148, 8242, 8155, 8190, 8158, 8034, 8143, 8126, 8133, 8111, 8132, 8140, 8128, 8132,0.8973779678344727,XXXXX
26, 8141, 8211, 8150, 8184, 8152, 8024, 8143, 8120, 8119, 8106, 8132, 8136, 8132, 8125,0.905203104019165,XXXXX
27, 8143, 8231, 8154, 8175, 8150, 8026, 8145, 8124, 8117, 8108, 8133, 8140, 8136, 8125,0.9131796360015869,XXXXX
28, 8143, 8218, 8148, 8175, 8158, 8036, 8149, 8126, 8124, 8110, 8128, 8125, 8128, 8115,0.9210963249206543,XXXXX
29, 8136, 8209, 8152, 8170, 8150, 8041, 8160, 8117, 8123, 8111, 8129, 8126, 8128, 8110,0.929044246673584,XXXXX
30, 8131, 8216, 8150, 8163, 8144, 8047, 8163, 8118, 8120, 8113, 8129, 8129, 8128, 8110,0.9370567798614502,XXXXX
31, 8124, 8199, 8133, 8160, 8151, 8054, 8162, 8130, 8131, 8123, 8129, 8122, 8130, 8099,0.9451878070831299,XXXXX
32, 8123, 8216, 8135, 8160, 8148, 8057, 8170, 8134, 8135, 8128, 8132, 8132, 8135, 8100,0.9518201351165771,XXXXX
33, 8134, 8203, 8143, 8171, 8143, 8052, 8173, 8144, 8127, 8120, 8133, 8129, 8132, 8107,0.9597606658935547,XXXXX
34, 8142, 8205, 8149, 8188, 8156, 8050, 8168, 8155, 8131, 8117, 8129, 8128, 8131, 8107,0.9677214622497559,XXXXX
35, 8128, 8210, 8134, 8181, 8165, 8055, 8167, 8145, 8138, 8120, 8128, 8124, 8133, 8094,0.9756388664245605,XXXXX
36, 8108, 8173, 8110, 8153, 8150, 8053, 8167, 8130, 8122, 8104, 8119, 8108, 8118, 8077,0.9834654331207275,XXXXX
37, 8106, 8190, 8115, 8148, 8130, 8041, 8156, 8133, 8114, 8095, 8106, 8116, 8113, 8074,0.9928655624389648,XXXXX
38, 8110, 8183, 8119, 8157, 8125, 8027, 8129, 8133, 8126, 8111, 8104, 8120, 8125, 8077,1.000903844833374,XXXXX
39, 8108, 8175, 8118, 8145, 8135, 8042, 8131, 8121, 8129, 8106, 8099, 8118, 8119, 8075,1.0072534084320068,XXXXX
40, 8104, 8190, 8114, 8130, 8136, 8059, 8159, 8123, 8123, 8097, 8102, 8110, 8112, 8070,1.0151512622833252,XXXXX
41, 8111, 8169, 8120, 8138, 8126, 8043, 8147, 8132, 8128, 8115, 8124, 8112, 8127, 8076,1.0228044986724854,XXXXX
42, 8124, 8187, 8138, 8144, 8128, 8032, 8125, 8133, 8137, 8132, 8135, 8139, 8137, 8095,1.030480146408081,XXXXX
43, 8117, 8179, 8125, 8133, 8133, 8041, 8133, 8138, 8132, 8130, 8128, 8138, 8131, 8095,1.0396394729614258,XXXXX
44, 8113, 8168, 8114, 8131, 8137, 8050, 8146, 8144, 8130, 8127, 8129, 8125, 8135, 8090,1.0474164485931396,XXXXX
45, 8122, 8183, 8121, 8136, 8137, 8042, 8143, 8139, 8133, 8130, 8133, 8126, 8138, 8096,1.0553405284881592,XXXXX
46, 8121, 8161, 8121, 8133, 8134, 8032, 8135, 8132, 8127, 8126, 8134, 8127, 8133, 8099,1.0631933212280273,XXXXX
47, 8124, 8175, 8123, 8131, 8134, 8036, 8134, 8132, 8128, 8126, 8136, 8135, 8136, 8103,1.0694646835327148,XXXXX
48, 8131, 8167, 8120, 8133, 8137, 8039, 8144, 8144, 8136, 8132, 8129, 8128, 8136, 8103,1.0773696899414062,XXXXX
49, 8137, 8153, 8122, 8132, 8137, 8041, 8156, 8160, 8139, 8131, 8125, 8128, 8134, 8105,1.0866084098815918,XXXXX
50, 8142, 8180, 8125, 8131, 8143, 8052, 8151, 8159, 8136, 8128, 8125, 8144, 8134, 8111,1.0944318771362305,XXXXX
51, 8144, 8166, 8132, 8145, 8160, 8057, 8150, 8151, 8131, 8127, 8125, 8150, 8140, 8115,1.1021826267242432,XXXXX
52, 8157, 8180, 8153, 8158, 8170, 8061, 8167, 8154, 8136, 8131, 8132, 8159, 8153, 8121,1.1100413799285889,XXXXX
53, 8168, 8179, 8153, 8158, 8167, 8065, 8171, 8157, 8142, 8139, 8137, 8159, 8159, 8125,1.1178078651428223,XXXXX
54, 8166, 8161, 8153, 8161, 8164, 8065, 8167, 8155, 8140, 8144, 8135, 8161, 8156, 8133,1.1257474422454834,XXXXX
55, 8165, 8181, 8164, 8161, 8169, 8067, 8168, 8152, 8137, 8138, 8138, 8163, 8161, 8132,1.133584976196289,XXXXX
56, 8162, 8151, 8146, 8142, 8167, 8062, 8156, 8147, 8131, 8127, 8137, 8144, 8150, 8113,1.1414363384246826,XXXXX
57, 8165, 8152, 8141, 8132, 8158, 8055, 8151, 8148, 8134, 8128, 8128, 8142, 8135, 8120,1.1492061614990234,XXXXX
58, 8171, 8169, 8152, 8148, 8161, 8058, 8157, 8160, 8149, 8137, 8129, 8146, 8144, 8138,1.1571097373962402,XXXXX
59, 8168, 8153, 8156, 8149, 8166, 8060, 8151, 8153, 8146, 8137, 8129, 8147, 8150, 8127,1.1650457382202148,XXXXX
60, 8156, 8160, 8152, 8133, 8157, 8044, 8142, 8135, 8128, 8129, 8111, 8146, 8132, 8108,1.1728119850158691,XXXXX
61, 8142, 8142, 8137, 8129, 8151, 8032, 8136, 8128, 8117, 8123, 8098, 8128, 8123, 8103,1.1806578636169434,XXXXX
62, 8150, 8160, 8141, 8138, 8162, 8046, 8136, 8129, 8120, 8122, 8103, 8132, 8137, 8114,1.1885874271392822,XXXXX
63, 8143, 8160, 8134, 8136, 8152, 8045, 8126, 8125, 8121, 8125, 8106, 8127, 8135, 8102,1.198038101196289,XXXXX
64, 8115, 8120, 8120, 8125, 8128, 8027, 8113, 8118, 8124, 8127, 8101, 8105, 8120, 8082,1.2045180797576904,XXXXX
65, 8120, 8154, 8134, 8131, 8143, 8040, 8129, 8126, 8132, 8128, 8099, 8113, 8119, 8098,1.2124502658843994,XXXXX
66, 8137, 8157, 8133, 8137, 8165, 8058, 8146, 8135, 8128, 8127, 8098, 8120, 8125, 8106,1.220390796661377,XXXXX
67, 8140, 8147, 8133, 8135, 8160, 8054, 8143, 8134, 8127, 8128, 8105, 8124, 8130, 8099,1.2282795906066895,XXXXX
68, 8139, 8156, 8140, 8137, 8158, 8050, 8145, 8135, 8133, 8128, 8114, 8124, 8129, 8101,1.2363245487213135,XXXXX
69, 8137, 8141, 8133, 8136, 8162, 8049, 8143, 8132, 8127, 8124, 8110, 8123, 8126, 8102,1.244499921798706,XXXXX
70, 8135, 8157, 8131, 8137, 8157, 8047, 8135, 8124, 8126, 8122, 8114, 8131, 8133, 8103,1.2521631717681885,XXXXX
71, 8141, 8149, 8145, 8151, 8162, 8057, 8136, 8136, 8139, 8136, 8134, 8139, 8147, 8113,1.2601902484893799,XXXXX
72, 8160, 8156, 8168, 8166, 8173, 8073, 8145, 8158, 8147, 8154, 8145, 8160, 8156, 8134,1.268280029296875,XXXXX
73, 8162, 8165, 8162, 8162, 8169, 8070, 8143, 8161, 8145, 8154, 8136, 8159, 8156, 8135,1.274782657623291,XXXXX
74, 8152, 8137, 8148, 8156, 8164, 8061, 8136, 8154, 8147, 8149, 8133, 8141, 8149, 8122,1.2826080322265625,XXXXX
75, 8147, 8158, 8153, 8158, 8167, 8067, 8139, 8145, 8145, 8144, 8136, 8144, 8147, 8112,1.2913575172424316,XXXXX
76, 8141, 8148, 8141, 8157, 8173, 8074, 8142, 8144, 8133, 8142, 8131, 8137, 8145, 8106,1.2995905876159668,XXXXX
77, 8149, 8141, 8146, 8162, 8181, 8080, 8150, 8157, 8139, 8151, 8141, 8141, 8148, 8112,1.307774543762207,XXXXX
78, 8160, 8165, 8165, 8171, 8189, 8077, 8152, 8165, 8153, 8161, 8161, 8152, 8158, 8114,1.3158719539642334,XXXXX
79, 8153, 8142, 8156, 8172, 8183, 8071, 8145, 8160, 8148, 8149, 8150, 8138, 8152, 8105,1.3238353729248047,XXXXX
80, 8145, 8150, 8146, 8164, 8170, 8077, 8143, 8156, 8136, 8131, 8126, 8132, 8136, 8102,1.3319461345672607,XXXXX
81, 8137, 8138, 8135, 8149, 8161, 8066, 8132, 8148, 8129, 8129, 8125, 8127, 8124, 8088,1.3383901119232178,XXXXX
82, 8135, 8130, 8128, 8143, 8157, 8045, 8125, 8135, 8128, 8125, 8128, 8130, 8131, 8085,1.3464462757110596,XXXXX
83, 8140, 8159, 8136, 8154, 8155, 8052, 8135, 8132, 8137, 8122, 8128, 8135, 8140, 8099,1.354443073272705,XXXXX
84, 8144, 8144, 8147, 8161, 8160, 8062, 8140, 8145, 8141, 8137, 8126, 8128, 8131, 8101,1.3621456623077393,XXXXX
85, 8159, 8157, 8162, 8160, 8167, 8059, 8141, 8159, 8144, 8156, 8131, 8142, 8135, 8108,1.3698389530181885,XXXXX
86, 8172, 8159, 8167, 8167, 8163, 8064, 8145, 8160, 8147, 8166, 8154, 8154, 8157, 8126,1.3776633739471436,XXXXX
87, 8170, 8144, 8165, 8168, 8162, 8074, 8152, 8159, 8145, 8156, 8153, 8151, 8155, 8129,1.3854925632476807,XXXXX
88, 8157, 8157, 8150, 8155, 8163, 8071, 8152, 8159, 8145, 8141, 8125, 8135, 8136, 8115,1.393444538116455,XXXXX
89, 8147, 8138, 8141, 8158, 8157, 8059, 8140, 8157, 8146, 8152, 8124, 8129, 8140, 8111,1.4015963077545166,XXXXX
90, 8154, 8151, 8165, 8167, 8156, 8056, 8137, 8154, 8148, 8160, 8151, 8153, 8155, 8125,1.409614086151123,XXXXX
91, 8158, 8151, 8161, 8167, 8161, 8058, 8142, 8156, 8152, 8149, 8162, 8150, 8154, 8129,1.4173486232757568,XXXXX
92, 8154, 8133, 8151, 8162, 8154, 8058, 8142, 8158, 8151, 8147, 8149, 8138, 8153, 8120,1.4251470565795898,XXXXX
93, 8155, 8153, 8164, 8146, 8138, 8056, 8139, 8160, 8154, 8155, 8142, 8151, 8160, 8121,1.4328479766845703,XXXXX
94, 8153, 8126, 8156, 8134, 8134, 8052, 8136, 8162, 8155, 8155, 8151, 8151, 8162, 8132,1.4407744407653809,XXXXX
95, 8153, 8134, 8155, 8136, 8138, 8050, 8141, 8162, 8156, 8151, 8151, 8147, 8161, 8138,1.4486799240112305,XXXXX
96, 8149, 8146, 8152, 8134, 8143, 8046, 8141, 8157, 8152, 8147, 8135, 8139, 8156, 8123,1.456550121307373,XXXXX
97, 8137, 8114, 8139, 8124, 8136, 8042, 8126, 8141, 8141, 8135, 8127, 8134, 8149, 8109,1.4660375118255615,XXXXX
98, 8135, 8134, 8146, 8122, 8127, 8043, 8119, 8135, 8133, 8133, 8134, 8145, 8148, 8113,1.4724392890930176,XXXXX
99, 8144, 8133, 8153, 8129, 8141, 8046, 8131, 8155, 8148, 8153, 8150, 8146, 8157, 8120,1.480360507965088,XXXXX
100, 8163, 8144, 8160, 8134, 8165, 8064, 8153, 8171, 8170, 8163, 8163, 8151, 8169, 8135,1.4883522987365723,XXXXX
101, 8166, 8157, 8161, 8140, 8167, 8082, 8159, 8165, 8159, 8153, 8158, 8148, 8166, 8140,1.4962010383605957,XXXXX
102, 8151, 8122, 8153, 8139, 8158, 8070, 8146, 8160, 8151, 8146, 8152, 8134, 8153, 8125,1.504178524017334,XXXXX
103, 8143, 8132, 8151, 8133, 8157, 8059, 8141, 8164, 8161, 8150, 8149, 8128, 8146, 8113,1.511876106262207,XXXXX
104, 8141, 8128, 8143, 8131, 8157, 8072, 8145, 8164, 8158, 8152, 8147, 8124, 8147, 8109,1.5195527076721191,XXXXX
105, 8152, 8134, 8157, 8138, 8165, 8090, 8151, 8166, 8158, 8155, 8157, 8147, 8161, 8125,1.5273149013519287,XXXXX
106, 8161, 8150, 8168, 8151, 8173, 8090, 8144, 8161, 8165, 8163, 8165, 8157, 8171, 8136,1.5350162982940674,XXXXX
107, 8151, 8121, 8151, 8152, 8165, 8070, 8122, 8141, 8154, 8161, 8159, 8140, 8158, 8125,1.542762279510498,XXXXX
108, 8144, 8138, 8148, 8139, 8153, 8056, 8114, 8125, 8146, 8144, 8155, 8141, 8146, 8115,1.5505366325378418,XXXXX
109, 8148, 8135, 8156, 8145, 8154, 8062, 8120, 8140, 8154, 8139, 8161, 8138, 8153, 8114,1.5584511756896973,XXXXX
110, 8154, 8129, 8159, 8165, 8162, 8073, 8127, 8154, 8149, 8141, 8160, 8140, 8161, 8123,1.56632661819458,XXXXX
111, 8145, 8148, 8143, 8154, 8158, 8066, 8121, 8136, 8137, 8131, 8139, 8132, 8149, 8114,1.575718641281128,XXXXX
112, 8136, 8127, 8135, 8136, 8153, 8061, 8115, 8136, 8145, 8126, 8130, 8115, 8138, 8101,1.5837376117706299,XXXXX
113, 8157, 8149, 8165, 8155, 8165, 8078, 8133, 8165, 8166, 8150, 8154, 8140, 8154, 8122,1.5918121337890625,XXXXX
114, 8174, 8144, 8174, 8169, 8169, 8081, 8140, 8173, 8169, 8167, 8170, 8151, 8161, 8133,1.600130558013916,XXXXX
115, 8172, 8127, 8163, 8153, 8159, 8078, 8133, 8165, 8162, 8153, 8160, 8143, 8155, 8124,1.606415033340454,XXXXX
116, 8174, 8153, 8168, 8157, 8165, 8090, 8143, 8182, 8170, 8153, 8167, 8150, 8165, 8133,1.6142332553863525,XXXXX
117, 8180, 8136, 8177, 8183, 8174, 8091, 8150, 8190, 8169, 8165, 8187, 8160, 8173, 8147,1.622347354888916,XXXXX
118, 8185, 8146, 8188, 8191, 8170, 8086, 8145, 8169, 8162, 8159, 8195, 8172, 8173, 8146,1.6303610801696777,XXXXX
119, 8185, 8147, 8191, 8190, 8175, 8087, 8140, 8159, 8162, 8163, 8211, 8175, 8182, 8142,1.6383099555969238,XXXXX
120, 8184, 8130, 8196, 8188, 8173, 8086, 8141, 8171, 8171, 8184, 8227, 8180, 8194, 8148,1.6463372707366943,XXXXX
121, 8184, 8140, 8194, 8184, 8163, 8089, 8146, 8190, 8180, 8194, 8230, 8179, 8198, 8150,1.6541054248809814,XXXXX
122, 8189, 8126, 8190, 8184, 8172, 8097, 8154, 8195, 8183, 8195, 8236, 8178, 8205, 8151,1.6618282794952393,XXXXX
123, 8194, 8139, 8206, 8180, 8177, 8091, 8149, 8175, 8175, 8182, 8241, 8190, 8206, 8159,1.6696040630340576,XXXXX
124, 8177, 8130, 8192, 8166, 8161, 8074, 8128, 8157, 8155, 8160, 8217, 8169, 8184, 8141,1.6773960590362549,XXXXX
125, 8162, 8109, 8170, 8154, 8157, 8071, 8122, 8158, 8148, 8156, 8193, 8156, 8170, 8122,1.685194730758667,XXXXX
126, 8159, 8131, 8166, 8146, 8166, 8071, 8126, 8147, 8145, 8152, 8190, 8160, 8169, 8128,1.6930277347564697,XXXXX
127, 8144, 8104, 8144, 8131, 8150, 8057, 8112, 8124, 8125, 8129, 8180, 8138, 8149, 8115,1.7007339000701904,XXXXX
239, 8138, 8110, 8139, 8129, 8134, 8057, 8116, 8125, 8125, 8121, 8166, 8134, 8137, 8110,1.7085676193237305,XXXXX
0, 8149, 8124, 8149, 8147, 8149, 8068, 8135, 8147, 8145, 8137, 8173, 8147, 8151, 8125,1.7164044380187988,XXXXX
1, 8153, 8106, 8152, 8153, 8164, 8074, 8137, 8159, 8145, 8144, 8188, 8148, 8161, 8127,1.7261402606964111,XXXXX
2, 8155, 8131, 8159, 8147, 8163, 8081, 8141, 8162, 8144, 8150, 8194, 8152, 8166, 8126,1.732710599899292,XXXXX
3, 8165, 8118, 8169, 8155, 8166, 8090, 8153, 8167, 8155, 8163, 8194, 8157, 8175, 8142,1.740532398223877,XXXXX
4, 8180, 8129, 8180, 8157, 8170, 8092, 8155, 8167, 8159, 8164, 8192, 8166, 8180, 8154,1.7485084533691406,XXXXX
5, 8172, 8136, 8165, 8136, 8161, 8079, 8144, 8164, 8158, 8165, 8190, 8162, 8171, 8141,1.756507158279419,XXXXX
6, 8153, 8110, 8151, 8128, 8160, 8070, 8134, 8161, 8157, 8171, 8186, 8154, 8167, 8134,1.7644660472869873,XXXXX
7, 8148, 8135, 8158, 8135, 8165, 8085, 8139, 8151, 8152, 8161, 8167, 8155, 8162, 8132,1.7723450660705566,XXXXX
8, 8141, 8119, 8147, 8130, 8157, 8090, 8143, 8148, 8145, 8151, 8154, 8146, 8144, 8126,1.7802419662475586,XXXXX
9, 8146, 8124, 8151, 8133, 8161, 8085, 8151, 8160, 8148, 8159, 8160, 8151, 8145, 8138,1.7882750034332275,XXXXX
10, 8158, 8142, 8155, 8141, 8170, 8089, 8153, 8166, 8150, 8164, 8162, 8152, 8158, 8141,1.7947325706481934,XXXXX
11, 8150, 8110, 8144, 8132, 8156, 8092, 8150, 8158, 8149, 8156, 8148, 8146, 8150, 8122,1.8028955459594727,XXXXX
12, 8152, 8139, 8152, 8138, 8156, 8099, 8161, 8162, 8157, 8158, 8155, 8167, 8151, 8124,1.8118946552276611,XXXXX
13, 8170, 8143, 8160, 8164, 8180, 8108, 8162, 8173, 8162, 8174, 8176, 8176, 8173, 8144,1.818526029586792,XXXXX
14, 8168, 8131, 8162, 8158, 8176, 8098, 8150, 8159, 8155, 8162, 8176, 8171, 8176, 8148,1.8266680240631104,XXXXX
15, 8146, 8133, 8147, 8129, 8153, 8076, 8138, 8136, 8146, 8134, 8162, 8153, 8159, 8122,1.8357467651367188,XXXXX
16, 8130, 8109, 8126, 8123, 8148, 8063, 8127, 8132, 8141, 8143, 8151, 8139, 8153, 8102,1.8434252738952637,XXXXX
17, 8132, 8133, 8133, 8130, 8138, 8061, 8121, 8133, 8138, 8156, 8138, 8151, 8147, 8106,1.8512284755706787,XXXXX
18, 8130, 8124, 8135, 8127, 8130, 8054, 8115, 8125, 8133, 8139, 8127, 8140, 8135, 8101,1.8588995933532715,XXXXX
19, 8138, 8124, 8141, 8126, 8145, 8068, 8118, 8134, 8135, 8131, 8130, 8139, 8139, 8106,1.8654911518096924,XXXXX
20, 8159, 8152, 8150, 8135, 8162, 8103, 8139, 8158, 8145, 8154, 8148, 8160, 8152, 8125,1.874849557876587,XXXXX
21, 8177, 8130, 8156, 8151, 8175, 8131, 8159, 8172, 8163, 8178, 8163, 8171, 8166, 8143,1.882725477218628,XXXXX
22, 8192, 8154, 8174, 8163, 8190, 8153, 8165, 8177, 8172, 8187, 8170, 8183, 8175, 8157,1.890594720840454,XXXXX
23, 8177, 8146, 8164, 8157, 8182, 8156, 8155, 8174, 8162, 8194, 8170, 8168, 8165, 8142,1.8985357284545898,XXXXX
24, 8140, 8116, 8136, 8140, 8157, 8139, 8139, 8160, 8155, 8184, 8161, 8145, 8148, 8117,1.9062106609344482,XXXXX
25, 8112, 8127, 8114, 8122, 8139, 8119, 8126, 8145, 8146, 8154, 8135, 8124, 8132, 8096,1.9139118194580078,XXXXX
26, 8101, 8098, 8097, 8104, 8131, 8097, 8112, 8120, 8124, 8127, 8117, 8101, 8118, 8076,1.9215714931488037,XXXXX
27, 8117, 8120, 8111, 8100, 8129, 8083, 8104, 8097, 8114, 8125, 8126, 8114, 8124, 8087,1.9293437004089355,XXXXX
28, 8126, 8128, 8120, 8117, 8135, 8080, 8100, 8109, 8124, 8137, 8135, 8130, 8138, 8105,1.9369933605194092,XXXXX
29, 8114, 8104, 8114, 8122, 8137, 8082, 8105, 8129, 8137, 8141, 8132, 8129, 8138, 8099,1.9447219371795654,XXXXX
30, 8106, 8127, 8112, 8118, 8135, 8083, 8116, 8128, 8134, 8135, 8127, 8121, 8129, 8087,1.9525964260101318,XXXXX
31, 8103, 8113, 8107, 8125, 8134, 8082, 8116, 8126, 8129, 8131, 8123, 8110, 8127, 8083,1.9604532718658447,XXXXX
32, 8116, 8132, 8118, 8132, 8140, 8094, 8122, 8129, 8143, 8138, 8126, 8126, 8132, 8091,1.9683618545532227,XXXXX
33, 8145, 8148, 8130, 8137, 8155, 8110, 8142, 8148, 8160, 8163, 8146, 8144, 8143, 8113,1.977698564529419,XXXXX
34, 8169, 8135, 8146, 8156, 8170, 8122, 8155, 8178, 8166, 8181, 8169, 8157, 8165, 8135,1.9854776859283447,XXXXX
35, 8167, 8163, 8155, 8172, 8175, 8125, 8143, 8176, 8164, 8166, 8163, 8161, 8167, 8130,1.9934508800506592,XXXXX
36, 8144, 8135, 8136, 8167, 8164, 8104, 8118, 8142, 8148, 8137, 8140, 8137, 8137, 8108,1.9998486042022705,XXXXX
37, 8133, 8131, 8135, 8154, 8153, 8087, 8118, 8131, 8133, 8120, 8122, 8134, 8119, 8103,2.007640838623047,XXXXX
38, 8120, 8136, 8124, 8137, 8140, 8078, 8112, 8128, 8130, 8113, 8111, 8129, 8122, 8092,2.0153157711029053,XXXXX
39, 8110, 8119, 8109, 8132, 8131, 8073, 8091, 8105, 8130, 8112, 8115, 8120, 8121, 8085,2.0246596336364746,XXXXX
40, 8128, 8148, 8128, 8149, 8135, 8083, 8102, 8105, 8131, 8124, 8132, 8142, 8122, 8105,2.0323643684387207,XXXXX
41, 8138, 8123, 8135, 8150, 8141, 8088, 8118, 8128, 8133, 8137, 8139, 8147, 8133, 8116,2.0404064655303955,XXXXX
42, 8141, 8131, 8140, 8142, 8149, 8080, 8121, 8135, 8138, 8135, 8135, 8151, 8139, 8119,2.0483691692352295,XXXXX
43, 8144, 8154, 8141, 8153, 8162, 8084, 8130, 8134, 8148, 8137, 8131, 8148, 8133, 8117,2.056281805038452,XXXXX
44, 8140, 8125, 8136, 8162, 8167, 8100, 8132, 8140, 8148, 8139, 8131, 8139, 8132, 8108,2.0625574588775635,XXXXX
45, 8142, 8148, 8141, 8159, 8167, 8102, 8123, 8134, 8141, 8136, 8133, 8148, 8135, 8109,2.0704445838928223,XXXXX
46, 8139, 8133, 8133, 8164, 8167, 8092, 8112, 8127, 8139, 8137, 8136, 8145, 8131, 8106,2.079832077026367,XXXXX
47, 8125, 8119, 8124, 8155, 8158, 8094, 8116, 8126, 8136, 8129, 8126, 8133, 8124, 8098,2.0878992080688477,XXXXX
48, 8113, 8124, 8117, 8136, 8151, 8099, 8131, 8133, 8141, 8129, 8122, 8122, 8120, 8092,2.09599232673645,XXXXX
49, 8120, 8111, 8120, 8151, 8161, 8105, 8137, 8151, 8151, 8146, 8142, 8129, 8127, 8097,2.1024608612060547,XXXXX
50, 8131, 8151, 8133, 8167, 8167, 8114, 8134, 8163, 8163, 8147, 8155, 8145, 8139, 8102,2.111964464187622,XXXXX
51, 8120, 8135, 8128, 8161, 8163, 8109, 8135, 8170, 8162, 8144, 8149, 8135, 8136, 8100,2.1184003353118896,XXXXX
52, 8138, 8128, 8143, 8175, 8165, 8114, 8149, 8185, 8171, 8166, 8159, 8151, 8141, 8112,2.1262667179107666,XXXXX
53, 8166, 8154, 8156, 8185, 8170, 8135, 8162, 8197, 8184, 8178, 8181, 8171, 8164, 8119,2.1344518661499023,XXXXX
54, 8147, 8118, 8139, 8164, 8162, 8138, 8161, 8183, 8172, 8156, 8159, 8148, 8154, 8104,2.142397403717041,XXXXX
55, 8126, 8127, 8130, 8150, 8156, 8133, 8163, 8170, 8166, 8145, 8127, 8127, 8130, 8095,2.150383234024048,XXXXX
56, 8130, 8128, 8124, 8160, 8161, 8133, 8163, 8177, 8177, 8162, 8142, 8125, 8135, 8094,2.1582889556884766,XXXXX
57, 8139, 8125, 8134, 8166, 8165, 8129, 8161, 8175, 8182, 8171, 8169, 8145, 8147, 8107,2.166250467300415,XXXXX
58, 8140, 8133, 8143, 8166, 8164, 8118, 8152, 8158, 8172, 8165, 8165, 8151, 8147, 8116,2.174145221710205,XXXXX
59, 8143, 8109, 8133, 8160, 8160, 8108, 8146, 8153, 8161, 8154, 8150, 8137, 8141, 8112,2.1816952228546143,XXXXX
60, 8151, 8136, 8138, 8153, 8152, 8102, 8153, 8163, 8166, 8156, 8157, 8149, 8141, 8123,2.189603567123413,XXXXX
61, 8146, 8124, 8140, 8159, 8156, 8094, 8147, 8170, 8172, 8167, 8170, 8152, 8152, 8132,2.197584629058838,XXXXX
62, 8136, 8112, 8134, 8157, 8156, 8094, 8142, 8170, 8176, 8162, 8170, 8145, 8166, 8121,2.2052769660949707,XXXXX
63, 8126, 8122, 8123, 8142, 8139, 8091, 8140, 8164, 8179, 8157, 8167, 8133, 8158, 8102,2.2130067348480225,XXXXX
64, 8122, 8101, 8119, 8131, 8139, 8083, 8139, 8159, 8181, 8173, 8174, 8123, 8155, 8105,2.2207067012786865,XXXXX
65, 8131, 8130, 8135, 8137, 8155, 8084, 8139, 8164, 8178, 8180, 8182, 8142, 8169, 8123,2.2284953594207764,XXXXX
66, 8128, 8094, 8126, 8140, 8147, 8080, 8130, 8159, 8165, 8169, 8170, 8141, 8165, 8116,2.2378106117248535,XXXXX
67, 8123, 8089, 8126, 8134, 8131, 8077, 8134, 8153, 8162, 8161, 8163, 8137, 8153, 8111,2.2441630363464355,XXXXX
68, 8141, 8150, 8148, 8150, 8151, 8090, 8153, 8176, 8181, 8174, 8185, 8157, 8161, 8135,2.2518551349639893,XXXXX
69, 8157, 8116, 8149, 8168, 8168, 8103, 8156, 8189, 8190, 8185, 8199, 8161, 8170, 8152,2.2596521377563477,XXXXX
70, 8154, 8119, 8151, 8163, 8161, 8103, 8147, 8169, 8179, 8189, 8190, 8158, 8172, 8146,2.26767635345459,XXXXX
71, 8140, 8121, 8144, 8156, 8158, 8095, 8138, 8158, 8168, 8191, 8190, 8149, 8178, 8134,2.2753214836120605,XXXXX
72, 8144, 8104, 8140, 8158, 8153, 8089, 8128, 8161, 8169, 8187, 8196, 8146, 8172, 8135,2.2847700119018555,XXXXX
73, 8153, 8128, 8146, 8161, 8144, 8089, 8121, 8156, 8175, 8186, 8188, 8146, 8168, 8141,2.292806386947632,XXXXX
74, 8148, 8102, 8139, 8156, 8138, 8086, 8120, 8158, 8181, 8191, 8188, 8141, 8174, 8141,2.3007078170776367,XXXXX
75, 8150, 8106, 8137, 8141, 8135, 8091, 8131, 8167, 8187, 8192, 8193, 8151, 8176, 8145,2.3086726665496826,XXXXX
76, 8150, 8116, 8132, 8135, 8138, 8098, 8139, 8166, 8184, 8188, 8188, 8142, 8170, 8142,2.316666603088379,XXXXX
77, 8155, 8111, 8148, 8158, 8153, 8103, 8141, 8161, 8180, 8187, 8191, 8146, 8172, 8150,2.3232150077819824,XXXXX
78, 8165, 8138, 8171, 8171, 8157, 8106, 8144, 8155, 8180, 8185, 8203, 8168, 8184, 8159,2.3311264514923096,XXXXX
79, 8154, 8103, 8148, 8159, 8136, 8097, 8138, 8170, 8177, 8178, 8195, 8151, 8179, 8140,2.33915376663208,XXXXX
80, 8155, 8114, 8151, 8168, 8128, 8092, 8133, 8187, 8187, 8183, 8193, 8151, 8180, 8144,2.3468148708343506,XXXXX
81, 8171, 8143, 8174, 8191, 8153, 8098, 8138, 8177, 8188, 8196, 8214, 8163, 8187, 8160,2.354649543762207,XXXXX
82, 8165, 8114, 8167, 8190, 8169, 8110, 8151, 8168, 8172, 8191, 8213, 8151, 8182, 8147,2.3639767169952393,XXXXX
83, 8158, 8132, 8158, 8185, 8162, 8113, 8159, 8176, 8175, 8182, 8210, 8154, 8177, 8146,2.3704073429107666,XXXXX
84, 8169, 8122, 8163, 8192, 8153, 8097, 8141, 8176, 8185, 8189, 8216, 8167, 8188, 8161,2.379528284072876,XXXXX
85, 8185, 8125, 8185, 8189, 8149, 8094, 8134, 8168, 8179, 8195, 8211, 8178, 8197, 8167,2.387465476989746,XXXXX
86, 8183, 8138, 8183, 8172, 8154, 8099, 8151, 8167, 8175, 8190, 8212, 8169, 8188, 8164,2.393756866455078,XXXXX
87, 8165, 8103, 8165, 8163, 8151, 8086, 8149, 8160, 8172, 8183, 8225, 8160, 8186, 8159,2.4015324115753174,XXXXX
88, 8159, 8119, 8167, 8158, 8134, 8080, 8140, 8155, 8169, 8186, 8231, 8172, 8193, 8152,2.409480094909668,XXXXX
89, 8161, 8116, 8170, 8156, 8130, 8092, 8146, 8158, 8169, 8194, 8246, 8166, 8197, 8150,2.4174447059631348,XXXXX
90, 8167, 8114, 8182, 8168, 8138, 8098, 8150, 8158, 8172, 8190, 8256, 8170, 8201, 8159,2.4257681369781494,XXXXX
91, 8169, 8132, 8180, 8174, 8137, 8096, 8144, 8159, 8170, 8179, 8234, 8170, 8193, 8154,2.433720350265503,XXXXX
92, 8169, 8115, 8174, 8171, 8145, 8097, 8148, 8158, 8171, 8183, 8224, 8159, 8186, 8145,2.4415783882141113,XXXXX
93, 8173, 8137, 8188, 8175, 8164, 8101, 8158, 8166, 8182, 8192, 8239, 8174, 8196, 8148,2.4494385719299316,XXXXX
94, 8166, 8123, 8180, 8176, 8161, 8096, 8155, 8173, 8183, 8196, 8241, 8176, 8206, 8148,2.45735764503479,XXXXX
95, 8170, 8116, 8178, 8171, 8150, 8097, 8155, 8170, 8175, 8196, 8235, 8176, 8201, 8152,2.465329647064209,XXXXX
96, 8177, 8140, 8185, 8175, 8156, 8101, 8153, 8162, 8175, 8182, 8232, 8180, 8192, 8146,2.4729883670806885,XXXXX
97, 8163, 8113, 8174, 8175, 8162, 8092, 8145, 8158, 8175, 8178, 8228, 8169, 8190, 8133,2.4808907508850098,XXXXX
98, 8160, 8130, 8175, 8165, 8160, 8094, 8148, 8162, 8171, 8190, 8230, 8168, 8199, 8140,2.488525390625,XXXXX
99, 8157, 8123, 8163, 8153, 8150, 8096, 8147, 8165, 8168, 8185, 8223, 8149, 8191, 8131,2.4964582920074463,XXXXX
100, 8143, 8103, 8137, 8134, 8135, 8087, 8141, 8153, 8169, 8164, 8200, 8128, 8164, 8103,2.505650758743286,XXXXX
101, 8134, 8117, 8129, 8120, 8127, 8086, 8137, 8136, 8158, 8158, 8188, 8129, 8152, 8098,2.5133728981018066,XXXXX
102, 8129, 8098, 8128, 8120, 8117, 8077, 8128, 8132, 8147, 8161, 8186, 8127, 8156, 8109,2.51961088180542,XXXXX
103, 8130, 8118, 8128, 8125, 8110, 8067, 8125, 8133, 8157, 8155, 8186, 8134, 8162, 8119,2.5274417400360107,XXXXX
104, 8137, 8119, 8128, 8126, 8120, 8074, 8132, 8140, 8169, 8159, 8200, 8140, 8163, 8125,2.5369224548339844,XXXXX
105, 8147, 8111, 8140, 8123, 8126, 8081, 8133, 8153, 8172, 8174, 8212, 8146, 8162, 8127,2.5440948009490967,XXXXX
106, 8157, 8144, 8156, 8131, 8127, 8082, 8130, 8164, 8182, 8184, 8216, 8150, 8175, 8128,2.552086353302002,XXXXX
107, 8178, 8138, 8175, 8163, 8151, 8096, 8146, 8181, 8207, 8209, 8246, 8171, 8213, 8153,2.5601160526275635,XXXXX
108, 8198, 8151, 8196, 8171, 8164, 8113, 8167, 8198, 8218, 8241, 8275, 8197, 8238, 8181,2.568107843399048,XXXXX
109, 8174, 8135, 8170, 8142, 8147, 8109, 8161, 8199, 8198, 8230, 8250, 8165, 8214, 8162,2.5760297775268555,XXXXX
110, 8155, 8115, 8156, 8136, 8142, 8110, 8156, 8189, 8183, 8199, 8227, 8143, 8189, 8144,2.584019422531128,XXXXX
111, 8160, 8149, 8174, 8149, 8151, 8113, 8162, 8168, 8176, 8184, 8230, 8157, 8188, 8157,2.5907437801361084,XXXXX
112, 8148, 8125, 8154, 8138, 8130, 8098, 8148, 8139, 8157, 8173, 8216, 8141, 8170, 8143,2.599747896194458,XXXXX
113, 8141, 8120, 8141, 8119, 8101, 8089, 8133, 8139, 8155, 8166, 8206, 8137, 8155, 8123,2.607714891433716,XXXXX
114, 8155, 8130, 8150, 8128, 8112, 8095, 8141, 8162, 8177, 8186, 8223, 8148, 8181, 8138,2.615384340286255,XXXXX
115, 8159, 8127, 8155, 8147, 8137, 8103, 8147, 8164, 8183, 8199, 8229, 8149, 8197, 8147,2.6233718395233154,XXXXX
116, 8152, 8152, 8155, 8147, 8133, 8109, 8148, 8159, 8166, 8184, 8217, 8144, 8173, 8124,2.6312642097473145,XXXXX
117, 8142, 8122, 8142, 8136, 8124, 8111, 8151, 8159, 8155, 8170, 8210, 8129, 8160, 8108,2.6390724182128906,XXXXX
118, 8140, 8121, 8135, 8121, 8130, 8108, 8152, 8160, 8167, 8164, 8202, 8124, 8171, 8121,2.6469409465789795,XXXXX
119, 8136, 8127, 8122, 8106, 8122, 8100, 8135, 8163, 8167, 8167, 8191, 8114, 8169, 8115,2.653308153152466,XXXXX
120, 8123, 8104, 8108, 8097, 8105, 8093, 8118, 8156, 8150, 8161, 8182, 8100, 8150, 8096,2.662842273712158,XXXXX
121, 8114, 8135, 8109, 8098, 8109, 8094, 8120, 8139, 8148, 8139, 8168, 8096, 8135, 8087,2.6709580421447754,XXXXX
122, 8109, 8123, 8106, 8097, 8111, 8089, 8117, 8124, 8145, 8135, 8161, 8087, 8130, 8081,2.678727149963379,XXXXX
123, 8118, 8120, 8108, 8098, 8107, 8079, 8109, 8112, 8141, 8144, 8165, 8097, 8138, 8082,2.6866514682769775,XXXXX
124, 8121, 8137, 8107, 8103, 8107, 8070, 8101, 8099, 8143, 8136, 8165, 8103, 8141, 8082,2.6945974826812744,XXXXX
125, 8113, 8115, 8106, 8101, 8108, 8063, 8096, 8094, 8142, 8134, 8162, 8093, 8135, 8081,2.702554941177368,XXXXX
126, 8125, 8136, 8122, 8101, 8106, 8077, 8103, 8109, 8143, 8151, 8172, 8107, 8141, 8092,2.7102272510528564,XXXXX
127, 8132, 8128, 8115, 8103, 8104, 8087, 8109, 8128, 8153, 8158, 8172, 8108, 8140, 8087,2.7166426181793213,XXXXX
239, 8119, 8118, 8106, 8094, 8100, 8080, 8103, 8131, 8156, 8148, 8156, 8094, 8130, 8080,2.7245254516601562,XXXXX
0, 8115, 8143, 8111, 8092, 8101, 8077, 8096, 8128, 8152, 8159, 8171, 8097, 8141, 8098,2.7325332164764404,XXXXX
1, 8129, 8133, 8124, 8107, 8111, 8082, 8092, 8134, 8160, 8182, 8210, 8121, 8169, 8118,2.7405452728271484,XXXXX
2, 8133, 8144, 8135, 8112, 8108, 8075, 8083, 8133, 8169, 8180, 8213, 8137, 8175, 8120,2.7493643760681152,XXXXX
3, 8117, 8122, 8112, 8100, 8099, 8062, 8081, 8126, 8160, 8159, 8187, 8111, 8158, 8109,2.7572195529937744,XXXXX
4, 8120, 8117, 8108, 8099, 8101, 8073, 8097, 8128, 8159, 8153, 8176, 8109, 8156, 8108,2.765197515487671,XXXXX
5, 8135, 8153, 8128, 8109, 8105, 8091, 8102, 8134, 8162, 8163, 8182, 8121, 8162, 8113,2.7729640007019043,XXXXX
6, 8126, 8122, 8118, 8104, 8100, 8086, 8090, 8134, 8155, 8161, 8179, 8102, 8153, 8105,2.779395818710327,XXXXX
7, 8123, 8128, 8116, 8095, 8095, 8084, 8098, 8132, 8157, 8151, 8176, 8105, 8149, 8106,2.788651943206787,XXXXX
8, 8134, 8132, 8115, 8096, 8095, 8094, 8108, 8133, 8162, 8163, 8183, 8108, 8157, 8110,2.7964603900909424,XXXXX
9, 8144, 8131, 8118, 8109, 8105, 8105, 8108, 8132, 8154, 8172, 8194, 8114, 8163, 8117,2.804124116897583,XXXXX
10, 8159, 8159, 8137, 8135, 8130, 8112, 8125, 8137, 8160, 8173, 8202, 8134, 8161, 8134,2.8118343353271484,XXXXX
11, 8158, 8126, 8135, 8136, 8133, 8110, 8124, 8150, 8170, 8178, 8195, 8129, 8159, 8132,2.8197407722473145,XXXXX
12, 8143, 8132, 8127, 8105, 8109, 8106, 8111, 8150, 8165, 8180, 8187, 8121, 8162, 8117,2.827592372894287,XXXXX
13, 8147, 8145, 8134, 8114, 8118, 8110, 8132, 8165, 8173, 8192, 8206, 8128, 8175, 8120,2.835509777069092,XXXXX
14, 8162, 8132, 8150, 8135, 8148, 8109, 8139, 8185, 8190, 8204, 8217, 8134, 8184, 8134,2.8434455394744873,XXXXX
15, 8137, 8136, 8126, 8094, 8129, 8075, 8099, 8156, 8173, 8165, 8176, 8109, 8160, 8109,2.851531982421875,XXXXX
16, 8103, 8106, 8093, 8066, 8089, 8051, 8076, 8118, 8144, 8128, 8149, 8080, 8129, 8074,2.8589870929718018,XXXXX
17, 8118, 8130, 8116, 8100, 8084, 8078, 8093, 8118, 8140, 8141, 8164, 8102, 8135, 8092,2.8667960166931152,XXXXX
18, 8114, 8133, 8107, 8100, 8080, 8070, 8079, 8108, 8131, 8133, 8148, 8097, 8132, 8094,2.874610185623169,XXXXX
19, 8086, 8102, 8076, 8072, 8058, 8022, 8057, 8085, 8118, 8106, 8122, 8076, 8106, 8067,2.8824498653411865,XXXXX
20, 8100, 8135, 8094, 8087, 8060, 8027, 8081, 8098, 8135, 8118, 8144, 8098, 8113, 8076,2.8917343616485596,XXXXX
21, 8115, 8122, 8108, 8104, 8085, 8056, 8092, 8112, 8144, 8125, 8166, 8105, 8130, 8088,2.899425745010376,XXXXX
22, 8112, 8125, 8107, 8095, 8098, 8058, 8085, 8101, 8139, 8115, 8158, 8097, 8130, 8079,2.9071710109710693,XXXXX
23, 8112, 8138, 8103, 8096, 8100, 8060, 8092, 8114, 8147, 8136, 8158, 8091, 8132, 8071,2.9133613109588623,XXXXX
24, 8113, 8116, 8101, 8099, 8097, 8072, 8103, 8131, 8154, 8155, 8164, 8090, 8135, 8074,2.923093557357788,XXXXX
25, 8123, 8143, 8111, 8098, 8109, 8081, 8113, 8129, 8148, 8147, 8164, 8098, 8136, 8092,2.929555892944336,XXXXX
26, 8138, 8139, 8123, 8114, 8129, 8093, 8120, 8141, 8155, 8148, 8174, 8102, 8148, 8109,2.937478542327881,XXXXX
27, 8156, 8150, 8144, 8133, 8135, 8108, 8127, 8163, 8168, 8159, 8186, 8124, 8165, 8124,2.945582628250122,XXXXX
28, 8168, 8159, 8149, 8136, 8134, 8109, 8128, 8162, 8161, 8162, 8183, 8135, 8164, 8136,2.9544906616210938,XXXXX
29, 8168, 8126, 8147, 8132, 8130, 8106, 8126, 8152, 8156, 8158, 8181, 8135, 8158, 8142,2.9621500968933105,XXXXX
30, 8164, 8146, 8159, 8133, 8130, 8115, 8129, 8158, 8168, 8159, 8192, 8142, 8169, 8144,2.9706156253814697,XXXXX
31, 8158, 8136, 8150, 8136, 8131, 8117, 8127, 8153, 8159, 8167, 8190, 8128, 8164, 8132,2.977078437805176,XXXXX
32, 8154, 8135, 8137, 8122, 8122, 8102, 8121, 8137, 8141, 8155, 8171, 8124, 8139, 8127,2.985093832015991,XXXXX
33, 8139, 8144, 8131, 8107, 8113, 8089, 8115, 8132, 8145, 8146, 8161, 8123, 8134, 8126,2.9932830333709717,XXXXX
34, 8134, 8124, 8134, 8118, 8119, 8093, 8124, 8138, 8158, 8154, 8170, 8120, 8149, 8124,3.0013551712036133,XXXXX
35, 8151, 8151, 8148, 8135, 8132, 8101, 8131, 8140, 8161, 8161, 8179, 8130, 8154, 8133,3.0093140602111816,XXXXX
36, 8151, 8141, 8143, 8132, 8129, 8093, 8124, 8136, 8157, 8157, 8171, 8121, 8144, 8129,3.017228126525879,XXXXX
37, 8145, 8136, 8145, 8128, 8119, 8087, 8129, 8136, 8158, 8153, 8168, 8123, 8143, 8125,3.0250017642974854,XXXXX
38, 8152, 8153, 8149, 8134, 8114, 8096, 8136, 8141, 8161, 8159, 8186, 8137, 8156, 8135,3.0328361988067627,XXXXX
39, 8155, 8128, 8142, 8131, 8108, 8092, 8123, 8138, 8150, 8164, 8194, 8131, 8159, 8136,3.040562629699707,XXXXX
40, 8148, 8145, 8144, 8127, 8103, 8076, 8119, 8129, 8144, 8148, 8176, 8119, 8150, 8122,3.048459768295288,XXXXX
41, 8139, 8136, 8137, 8130, 8104, 8069, 8122, 8129, 8148, 8142, 8161, 8113, 8140, 8112,3.0562362670898438,XXXXX
42, 8142, 8129, 8138, 8132, 8107, 8076, 8119, 8123, 8146, 8151, 8163, 8125, 8145, 8121,3.0640084743499756,XXXXX
43, 8149, 8149, 8141, 8128, 8102, 8084, 8122, 8115, 8142, 8143, 8167, 8130, 8156, 8120,3.0719826221466064,XXXXX
44, 8143, 8122, 8131, 8118, 8097, 8084, 8122, 8125, 8142, 8133, 8168, 8120, 8155, 8115,3.0797908306121826,XXXXX
45, 8134, 8135, 8123, 8108, 8099, 8077, 8112, 8128, 8139, 8137, 8153, 8120, 8137, 8110,3.087838888168335,XXXXX
46, 8121, 8132, 8110, 8103, 8095, 8072, 8109, 8111, 8131, 8135, 8132, 8105, 8123, 8092,3.0957772731781006,XXXXX
47, 8116, 8126, 8115, 8103, 8094, 8076, 8113, 8099, 8132, 8126, 8128, 8100, 8131, 8089,3.1039180755615234,XXXXX
48, 8118, 8150, 8121, 8101, 8091, 8069, 8102, 8100, 8130, 8128, 8135, 8107, 8133, 8098,3.111609935760498,XXXXX
49, 8113, 8118, 8110, 8095, 8073, 8060, 8089, 8097, 8123, 8131, 8133, 8099, 8125, 8092,3.119478464126587,XXXXX
50, 8122, 8132, 8120, 8103, 8070, 8073, 8104, 8097, 8134, 8128, 8136, 8110, 8132, 8094,3.1275038719177246,XXXXX
51, 8128, 8144, 8119, 8120, 8090, 8086, 8116, 8110, 8144, 8135, 8148, 8111, 8140, 8100,3.135484457015991,XXXXX
52, 8133, 8134, 8117, 8134, 8102, 8098, 8118, 8125, 8143, 8146, 8157, 8111, 8142, 8104,3.1433587074279785,XXXXX
53, 8162, 8170, 8150, 8158, 8116, 8123, 8136, 8138, 8152, 8159, 8176, 8143, 8163, 8129,3.1512835025787354,XXXXX
54, 8186, 8158, 8175, 8192, 8139, 8130, 8152, 8147, 8162, 8172, 8201, 8160, 8184, 8149,3.159054756164551,XXXXX
55, 8182, 8157, 8173, 8193, 8135, 8118, 8150, 8144, 8158, 8162, 8193, 8153, 8177, 8144,3.166940450668335,XXXXX
56, 8162, 8148, 8151, 8168, 8119, 8113, 8143, 8132, 8143, 8139, 8163, 8132, 8156, 8128,3.1747992038726807,XXXXX
57, 8153, 8127, 8141, 8161, 8120, 8115, 8143, 8128, 8143, 8143, 8156, 8136, 8148, 8132,3.182483196258545,XXXXX
58, 8158, 8153, 8149, 8165, 8113, 8108, 8146, 8133, 8153, 8154, 8165, 8154, 8151, 8148,3.1901772022247314,XXXXX
59, 8146, 8131, 8136, 8161, 8095, 8092, 8139, 8136, 8148, 8139, 8152, 8134, 8146, 8134,3.1979117393493652,XXXXX
60, 8133, 8130, 8125, 8152, 8094, 8092, 8130, 8122, 8137, 8127, 8135, 8122, 8139, 8116,3.20570969581604,XXXXX
61, 8128, 8133, 8113, 8136, 8094, 8093, 8119, 8101, 8126, 8130, 8128, 8114, 8127, 8107,3.213393211364746,XXXXX
62, 8126, 8112, 8106, 8124, 8088, 8082, 8111, 8103, 8126, 8131, 8124, 8108, 8119, 8103,3.2226009368896484,XXXXX
63, 8140, 8151, 8130, 8141, 8095, 8081, 8120, 8130, 8148, 8149, 8141, 8135, 8144, 8123,3.2303760051727295,XXXXX
64, 8151, 8143, 8144, 8166, 8102, 8087, 8125, 8141, 8155, 8166, 8156, 8149, 8162, 8141,3.238054037094116,XXXXX
65, 8145, 8129, 8136, 8159, 8096, 8085, 8118, 8122, 8138, 8137, 8141, 8133, 8136, 8131,3.245774984359741,XXXXX
66, 8134, 8136, 8117, 8140, 8096, 8074, 8115, 8098, 8123, 8111, 8112, 8109, 8111, 8107,3.253462553024292,XXXXX
67, 8131, 8119, 8114, 8138, 8099, 8063, 8117, 8100, 8119, 8115, 8113, 8114, 8117, 8106,3.2611892223358154,XXXXX
68, 8129, 8135, 8125, 8140, 8090, 8059, 8112, 8106, 8120, 8113, 8130, 8128, 8125, 8115,3.268836259841919,XXXXX
69, 8112, 8116, 8107, 8129, 8082, 8057, 8096, 8087, 8115, 8099, 8116, 8106, 8113, 8097,3.276524066925049,XXXXX
70, 8115, 8119, 8108, 8128, 8092, 8068, 8099, 8078, 8106, 8097, 8101, 8108, 8104, 8089,3.285773992538452,XXXXX
71, 8134, 8142, 8128, 8139, 8102, 8077, 8112, 8096, 8106, 8106, 8117, 8127, 8111, 8099,3.2936036586761475,XXXXX
72, 8133, 8114, 8127, 8146, 8098, 8069, 8109, 8104, 8117, 8120, 8136, 8125, 8130, 8107,3.301342487335205,XXXXX
73, 8130, 8138, 8124, 8157, 8096, 8072, 8116, 8104, 8128, 8133, 8136, 8133, 8141, 8112,3.3076014518737793,XXXXX
74, 8134, 8131, 8120, 8154, 8099, 8086, 8124, 8109, 8127, 8133, 8133, 8125, 8128, 8100,3.3154349327087402,XXXXX
75, 8141, 8118, 8130, 8141, 8100, 8083, 8121, 8113, 8126, 8123, 8127, 8123, 8126, 8100,3.3247897624969482,XXXXX
76, 8153, 8150, 8151, 8156, 8115, 8082, 8129, 8127, 8140, 8137, 8139, 8145, 8148, 8128,3.332493782043457,XXXXX
77, 8162, 8134, 8158, 8171, 8132, 8091, 8139, 8139, 8148, 8156, 8158, 8156, 8158, 8147,3.340294122695923,XXXXX
78, 8156, 8135, 8155, 8157, 8126, 8087, 8135, 8120, 8134, 8141, 8145, 8146, 8146, 8132,3.348010301589966,XXXXX
79, 8149, 8130, 8142, 8149, 8115, 8083, 8129, 8110, 8131, 8127, 8140, 8127, 8142, 8119,3.35581636428833,XXXXX
80, 8161, 8136, 8157, 8162, 8123, 8102, 8139, 8138, 8152, 8147, 8162, 8144, 8159, 8140,3.363600015640259,XXXXX
81, 8174, 8165, 8174, 8178, 8135, 8108, 8150, 8158, 8160, 8167, 8169, 8166, 8165, 8153,3.3715438842773438,XXXXX
82, 8171, 8140, 8163, 8187, 8137, 8098, 8148, 8152, 8159, 8162, 8160, 8158, 8160, 8147,3.3792617321014404,XXXXX
83, 8169, 8150, 8166, 8178, 8135, 8104, 8146, 8149, 8164, 8145, 8161, 8161, 8160, 8152,3.3869740962982178,XXXXX
84, 8164, 8147, 8162, 8170, 8131, 8107, 8143, 8157, 8161, 8146, 8169, 8157, 8160, 8147,3.394683599472046,XXXXX
85, 8168, 8134, 8159, 8184, 8130, 8104, 8145, 8159, 8153, 8157, 8172, 8154, 8160, 8141,3.4023938179016113,XXXXX
86, 8179, 8166, 8174, 8197, 8136, 8103, 8150, 8158, 8153, 8146, 8169, 8165, 8165, 8155,3.411609411239624,XXXXX
87, 8177, 8142, 8179, 8195, 8139, 8098, 8145, 8157, 8152, 8133, 8162, 8167, 8160, 8160,3.4193432331085205,XXXXX
88, 8176, 8144, 8183, 8190, 8135, 8106, 8148, 8155, 8155, 8138, 8160, 8167, 8149, 8160,3.427175760269165,XXXXX
89, 8175, 8148, 8173, 8183, 8133, 8115, 8153, 8159, 8159, 8144, 8161, 8156, 8151, 8164,3.433457612991333,XXXXX
90, 8168, 8127, 8164, 8179, 8129, 8106, 8149, 8153, 8157, 8142, 8163, 8157, 8163, 8161,3.4412894248962402,XXXXX
91, 8168, 8152, 8172, 8186, 8131, 8107, 8149, 8137, 8151, 8146, 8167, 8170, 8161, 8156,3.4507758617401123,XXXXX
92, 8171, 8141, 8176, 8194, 8148, 8121, 8162, 8143, 8155, 8155, 8178, 8166, 8156, 8167,3.4586243629455566,XXXXX
93, 8187, 8150, 8188, 8192, 8155, 8127, 8172, 8162, 8167, 8161, 8187, 8176, 8166, 8180,3.4665794372558594,XXXXX
94, 8196, 8150, 8188, 8187, 8149, 8125, 8166, 8164, 8165, 8166, 8188, 8183, 8167, 8175,3.4744787216186523,XXXXX
95, 8191, 8134, 8188, 8192, 8154, 8129, 8165, 8159, 8163, 8161, 8192, 8188, 8165, 8177,3.4823648929595947,XXXXX
96, 8182, 8160, 8185, 8193, 8160, 8133, 8168, 8162, 8167, 8152, 8189, 8190, 8169, 8172,3.4900145530700684,XXXXX
97, 8164, 8131, 8157, 8176, 8161, 8126, 8158, 8162, 8160, 8151, 8170, 8159, 8152, 8140,3.4977190494537354,XXXXX
98, 8155, 8133, 8149, 8162, 8161, 8120, 8150, 8161, 8164, 8152, 8159, 8144, 8134, 8130,3.5054163932800293,XXXXX
99, 8155, 8152, 8146, 8162, 8142, 8119, 8149, 8161, 8176, 8152, 8162, 8145, 8143, 8131,3.5131118297576904,XXXXX
100, 8159, 8133, 8145, 8176, 8124, 8122, 8153, 8158, 8169, 8150, 8166, 8150, 8155, 8126,3.5207719802856445,XXXXX
101, 8178, 8164, 8170, 8192, 8137, 8132, 8164, 8164, 8162, 8158, 8172, 8164, 8160, 8142,3.528507709503174,XXXXX
102, 8176, 8145, 8168, 8190, 8141, 8124, 8158, 8164, 8156, 8161, 8176, 8151, 8156, 8145,3.5365686416625977,XXXXX
103, 8158, 8138, 8151, 8177, 8131, 8113, 8145, 8153, 8148, 8148, 8177, 8148, 8150, 8126,3.544448137283325,XXXXX
104, 8161, 8164, 8160, 8185, 8146, 8123, 8150, 8157, 8159, 8150, 8190, 8163, 8157, 8125,3.5536692142486572,XXXXX
105, 8181, 8144, 8177, 8196, 8163, 8131, 8155, 8166, 8171, 8163, 8193, 8169, 8160, 8143,3.5615134239196777,XXXXX
106, 8186, 8157, 8185, 8191, 8163, 8129, 8154, 8161, 8165, 8157, 8170, 8169, 8153, 8151,3.567659854888916,XXXXX
107, 8173, 8147, 8172, 8188, 8159, 8129, 8149, 8160, 8159, 8150, 8158, 8156, 8147, 8134,3.575474262237549,XXXXX
108, 8176, 8145, 8175, 8195, 8150, 8136, 8154, 8156, 8156, 8155, 8168, 8163, 8152, 8131,3.584731101989746,XXXXX
109, 8178, 8154, 8174, 8185, 8135, 8132, 8153, 8137, 8143, 8142, 8159, 8167, 8153, 8132,3.5927059650421143,XXXXX
110, 8159, 8118, 8154, 8160, 8125, 8116, 8132, 8134, 8136, 8123, 8136, 8149, 8141, 8119,3.6004769802093506,XXXXX
111, 8150, 8137, 8151, 8155, 8129, 8118, 8126, 8156, 8149, 8129, 8132, 8145, 8133, 8112,3.6084048748016357,XXXXX
112, 8151, 8131, 8140, 8161, 8130, 8122, 8135, 8169, 8159, 8136, 8135, 8137, 8128, 8108,3.616180658340454,XXXXX
113, 8147, 8119, 8136, 8151, 8119, 8116, 8138, 8167, 8165, 8128, 8131, 8138, 8130, 8106,3.623950242996216,XXXXX
114, 8145, 8143, 8147, 8147, 8117, 8113, 8139, 8163, 8173, 8129, 8130, 8143, 8140, 8106,3.631688356399536,XXXXX
115, 8154, 8132, 8157, 8163, 8127, 8115, 8138, 8157, 8170, 8144, 8139, 8145, 8152, 8110,3.640064239501953,XXXXX
116, 8181, 8160, 8182, 8172, 8139, 8120, 8152, 8157, 8166, 8154, 8158, 8175, 8162, 8130,3.6466057300567627,XXXXX
117, 8188, 8156, 8192, 8173, 8153, 8127, 8169, 8165, 8165, 8150, 8173, 8183, 8163, 8142,3.65449595451355,XXXXX
118, 8160, 8126, 8170, 8161, 8138, 8123, 8160, 8148, 8151, 8131, 8151, 8153, 8140, 8129,3.6640279293060303,XXXXX
119, 8134, 8137, 8144, 8140, 8102, 8100, 8141, 8127, 8143, 8120, 8119, 8129, 8116, 8109,3.670438051223755,XXXXX
120, 8146, 8122, 8152, 8148, 8108, 8091, 8145, 8158, 8164, 8141, 8136, 8142, 8131, 8118,3.6798787117004395,XXXXX
121, 8169, 8153, 8179, 8165, 8140, 8110, 8155, 8195, 8184, 8162, 8162, 8172, 8159, 8147,3.6879043579101562,XXXXX
122, 8161, 8152, 8161, 8160, 8133, 8113, 8141, 8182, 8176, 8149, 8146, 8153, 8154, 8140,3.695834159851074,XXXXX
123, 8151, 8122, 8149, 8150, 8118, 8098, 8132, 8159, 8165, 8125, 8129, 8135, 8140, 8125,3.702195167541504,XXXXX
124, 8157, 8148, 8164, 8146, 8134, 8096, 8133, 8155, 8166, 8128, 8139, 8149, 8140, 8136,3.7101802825927734,XXXXX
125, 8148, 8130, 8151, 8134, 8128, 8093, 8122, 8140, 8150, 8136, 8136, 8139, 8131, 8130,3.7180702686309814,XXXXX
126, 8143, 8139, 8148, 8126, 8102, 8088, 8120, 8123, 8134, 8118, 8125, 8131, 8121, 8116,3.7257497310638428,XXXXX
127, 8152, 8143, 8158, 8131, 8111, 8096, 8127, 8130, 8141, 8108, 8128, 8134, 8122, 8119,3.7335519790649414,XXXXX
239, 8150, 8125, 8156, 8131, 8128, 8100, 8132, 8140, 8149, 8122, 8128, 8144, 8123, 8125,3.741450548171997,XXXXX
0, 8140, 8141, 8146, 8116, 8112, 8099, 8129, 8137, 8148, 8133, 8127, 8144, 8125, 8117,3.7494688034057617,XXXXX
1, 8122, 8112, 8128, 8096, 8092, 8086, 8110, 8130, 8137, 8125, 8127, 8118, 8125, 8105,3.7575674057006836,XXXXX
2, 8124, 8129, 8135, 8100, 8092, 8086, 8109, 8130, 8141, 8125, 8128, 8123, 8121, 8117,3.765134811401367,XXXXX
3, 8139, 8150, 8141, 8110, 8098, 8102, 8123, 8136, 8148, 8141, 8131, 8136, 8123, 8125,3.7728965282440186,XXXXX
4, 8135, 8125, 8133, 8108, 8103, 8104, 8118, 8131, 8145, 8135, 8127, 8129, 8122, 8110,3.7818939685821533,XXXXX
5, 8135, 8149, 8141, 8115, 8106, 8098, 8117, 8129, 8146, 8125, 8136, 8134, 8125, 8107,3.789836883544922,XXXXX
6, 8151, 8144, 8155, 8133, 8103, 8105, 8132, 8149, 8155, 8150, 8162, 8146, 8140, 8127,3.797813892364502,XXXXX
7, 8170, 8153, 8167, 8139, 8112, 8116, 8140, 8164, 8167, 8163, 8162, 8163, 8153, 8141,3.8058509826660156,XXXXX
8, 8164, 8160, 8151, 8131, 8122, 8109, 8142, 8162, 8162, 8150, 8138, 8154, 8143, 8130,3.8135387897491455,XXXXX
9, 8151, 8131, 8133, 8128, 8112, 8105, 8144, 8153, 8147, 8150, 8134, 8135, 8126, 8115,3.8212497234344482,XXXXX
10, 8149, 8155, 8139, 8132, 8101, 8109, 8137, 8141, 8151, 8150, 8141, 8138, 8121, 8112,3.8288938999176025,XXXXX
11, 8136, 8139, 8125, 8123, 8107, 8102, 8120, 8130, 8153, 8134, 8135, 8126, 8121, 8103,3.8366496562957764,XXXXX
12, 8124, 8134, 8120, 8105, 8106, 8096, 8112, 8125, 8139, 8124, 8135, 8124, 8114, 8098,3.844550132751465,XXXXX
13, 8129, 8153, 8129, 8108, 8093, 8093, 8110, 8125, 8137, 8132, 8152, 8129, 8109, 8101,3.852349281311035,XXXXX
14, 8143, 8141, 8146, 8132, 8106, 8097, 8121, 8139, 8156, 8148, 8167, 8137, 8120, 8111,3.8602116107940674,XXXXX
15, 8163, 8174, 8176, 8145, 8137, 8112, 8146, 8161, 8166, 8164, 8166, 8158, 8137, 8131,3.868131637573242,XXXXX
16, 8164, 8158, 8171, 8139, 8137, 8112, 8143, 8162, 8161, 8165, 8162, 8152, 8134, 8136,3.8760409355163574,XXXXX
17, 8165, 8147, 8168, 8135, 8126, 8104, 8136, 8155, 8166, 8161, 8176, 8155, 8138, 8138,3.8838000297546387,XXXXX
18, 8170, 8174, 8174, 8139, 8131, 8111, 8143, 8160, 8169, 8166, 8185, 8167, 8151, 8143,3.8904428482055664,XXXXX
19, 8166, 8145, 8168, 8138, 8132, 8112, 8142, 8158, 8156, 8165, 8174, 8159, 8148, 8142,3.899750232696533,XXXXX
20, 8159, 8152, 8167, 8133, 8129, 8107, 8144, 8141, 8150, 8147, 8156, 8156, 8133, 8133,3.9075329303741455,XXXXX
21, 8147, 8144, 8148, 8119, 8119, 8104, 8144, 8137, 8151, 8135, 8147, 8140, 8118, 8112,3.915355682373047,XXXXX
22, 8142, 8137, 8142, 8105, 8104, 8102, 8140, 8146, 8149, 8143, 8153, 8139, 8119, 8106,3.9230785369873047,XXXXX
23, 8144, 8165, 8160, 8114, 8113, 8096, 8143, 8144, 8152, 8148, 8163, 8154, 8128, 8113,3.930953025817871,XXXXX
24, 8148, 8155, 8161, 8134, 8131, 8094, 8143, 8137, 8150, 8148, 8167, 8157, 8133, 8117,3.9392080307006836,XXXXX
25, 8160, 8179, 8160, 8134, 8131, 8101, 8139, 8136, 8140, 8149, 8163, 8168, 8133, 8124,3.947411298751831,XXXXX
26, 8161, 8176, 8159, 8132, 8128, 8099, 8139, 8133, 8134, 8140, 8164, 8161, 8130, 8124,3.955592632293701,XXXXX
27, 8157, 8162, 8164, 8139, 8125, 8096, 8142, 8129, 8137, 8131, 8162, 8147, 8124, 8123,3.9619147777557373,XXXXX
28, 8147, 8181, 8155, 8124, 8113, 8098, 8134, 8126, 8132, 8132, 8144, 8140, 8115, 8114,3.9697766304016113,XXXXX
29, 8131, 8149, 8132, 8096, 8109, 8093, 8116, 8124, 8128, 8131, 8130, 8133, 8113, 8105,3.977754831314087,XXXXX
30, 8135, 8170, 8142, 8100, 8118, 8096, 8124, 8130, 8135, 8128, 8141, 8151, 8121, 8116,3.985685348510742,XXXXX
31, 8150, 8184, 8154, 8122, 8125, 8104, 8142, 8138, 8140, 8143, 8162, 8160, 8129, 8120,3.993518352508545,XXXXX
32, 8152, 8164, 8155, 8127, 8124, 8099, 8140, 8135, 8139, 8150, 8162, 8155, 8131, 8114,4.001537561416626,XXXXX
33, 8145, 8183, 8152, 8123, 8125, 8094, 8132, 8130, 8135, 8137, 8156, 8147, 8130, 8110,4.009414434432983,XXXXX
34, 8137, 8160, 8140, 8124, 8127, 8104, 8135, 8131, 8124, 8133, 8157, 8142, 8124, 8105,4.017494440078735,XXXXX
35, 8147, 8172, 8154, 8125, 8125, 8113, 8145, 8131, 8131, 8145, 8162, 8165, 8131, 8121,4.026839017868042,XXXXX
36, 8158, 8185, 8164, 8131, 8124, 8107, 8143, 8136, 8145, 8155, 8175, 8168, 8142, 8130,4.033251762390137,XXXXX
37, 8155, 8170, 8165, 8138, 8136, 8102, 8141, 8150, 8146, 8155, 8187, 8160, 8140, 8120,4.0411903858184814,XXXXX
38, 8162, 8192, 8175, 8137, 8145, 8113, 8150, 8160, 8150, 8160, 8191, 8175, 8145, 8129,4.049120187759399,XXXXX
39, 8175, 8165, 8177, 8139, 8137, 8112, 8143, 8157, 8153, 8164, 8195, 8179, 8158, 8147,4.056987524032593,XXXXX
40, 8185, 8174, 8187, 8140, 8132, 8106, 8139, 8156, 8152, 8162, 8199, 8189, 8169, 8153,4.065109014511108,XXXXX
41, 8181, 8186, 8188, 8136, 8137, 8111, 8143, 8164, 8154, 8166, 8202, 8190, 8171, 8146,4.073135852813721,XXXXX
42, 8168, 8149, 8173, 8131, 8137, 8116, 8141, 8159, 8156, 8167, 8197, 8171, 8155, 8131,4.081128358840942,XXXXX
43, 8162, 8172, 8166, 8133, 8138, 8122, 8143, 8145, 8154, 8165, 8187, 8169, 8147, 8130,4.08913254737854,XXXXX
44, 8163, 8166, 8168, 8140, 8144, 8121, 8147, 8154, 8156, 8175, 8188, 8175, 8162, 8136,4.095593452453613,XXXXX
45, 8170, 8166, 8186, 8141, 8141, 8121, 8150, 8164, 8166, 8178, 8195, 8182, 8175, 8139,4.103521108627319,XXXXX
46, 8170, 8169, 8182, 8137, 8131, 8125, 8157, 8170, 8171, 8172, 8189, 8172, 8166, 8133,4.111653566360474,XXXXX
47, 8156, 8135, 8162, 8131, 8128, 8123, 8163, 8183, 8170, 8170, 8180, 8161, 8152, 8128,4.119635581970215,XXXXX
48, 8152, 8155, 8162, 8126, 8126, 8121, 8157, 8185, 8169, 8166, 8178, 8165, 8145, 8125,4.1275105476379395,XXXXX
49, 8151, 8150, 8161, 8128, 8135, 8121, 8148, 8178, 8166, 8172, 8178, 8155, 8149, 8111,4.13673996925354,XXXXX
50, 8156, 8155, 8173, 8131, 8154, 8133, 8159, 8186, 8173, 8188, 8188, 8165, 8163, 8116,4.144514560699463,XXXXX
51, 8164, 8168, 8178, 8133, 8158, 8142, 8164, 8193, 8184, 8195, 8196, 8176, 8165, 8135,4.1522886753082275,XXXXX
52, 8156, 8132, 8162, 8125, 8152, 8142, 8150, 8181, 8172, 8186, 8183, 8165, 8153, 8129,4.158579349517822,XXXXX
53, 8158, 8155, 8169, 8127, 8158, 8142, 8151, 8168, 8161, 8179, 8174, 8176, 8158, 8126,4.166381359100342,XXXXX
54, 8172, 8155, 8180, 8144, 8162, 8134, 8156, 8163, 8167, 8185, 8185, 8185, 8170, 8135,4.175724267959595,XXXXX
55, 8188, 8151, 8196, 8160, 8160, 8137, 8156, 8172, 8173, 8192, 8201, 8195, 8180, 8151,4.183415651321411,XXXXX
56, 8187, 8164, 8205, 8161, 8163, 8145, 8161, 8192, 8179, 8197, 8209, 8199, 8189, 8161,4.191236257553101,XXXXX
57, 8179, 8131, 8191, 8146, 8163, 8134, 8158, 8189, 8182, 8193, 8207, 8185, 8182, 8156,4.199105501174927,XXXXX
58, 8178, 8152, 8188, 8135, 8163, 8126, 8151, 8173, 8173, 8183, 8195, 8185, 8172, 8148,4.207370758056641,XXXXX
59, 8169, 8148, 8177, 8145, 8162, 8128, 8145, 8174, 8162, 8182, 8186, 8175, 8166, 8141,4.215233564376831,XXXXX
60, 8172, 8138, 8178, 8159, 8159, 8129, 8143, 8174, 8164, 8184, 8191, 8176, 8169, 8147,4.2230987548828125,XXXXX
61, 8180, 8164, 8196, 8160, 8161, 8131, 8145, 8163, 8158, 8174, 8196, 8189, 8170, 8151,4.229449033737183,XXXXX
62, 8172, 8135, 8190, 8159, 8166, 8140, 8147, 8160, 8151, 8173, 8194, 8181, 8166, 8148,4.2374231815338135,XXXXX
63, 8169, 8143, 8181, 8154, 8167, 8142, 8149, 8157, 8167, 8182, 8192, 8187, 8167, 8146,4.246929168701172,XXXXX
64, 8167, 8136, 8171, 8136, 8161, 8127, 8139, 8148, 8170, 8181, 8188, 8185, 8169, 8138,4.253543138504028,XXXXX
65, 8175, 8126, 8175, 8131, 8158, 8124, 8135, 8150, 8162, 8184, 8189, 8184, 8172, 8144,4.262412071228027,XXXXX
66, 8183, 8157, 8179, 8136, 8163, 8142, 8146, 8166, 8179, 8190, 8188, 8190, 8169, 8154,4.270414113998413,XXXXX
67, 8175, 8130, 8170, 8134, 8165, 8146, 8154, 8176, 8185, 8173, 8170, 8181, 8158, 8150,4.278349876403809,XXXXX
68, 8179, 8140, 8176, 8133, 8164, 8138, 8156, 8168, 8170, 8156, 8153, 8186, 8157, 8147,4.286587715148926,XXXXX
69, 8184, 8144, 8167, 8130, 8160, 8133, 8155, 8162, 8176, 8163, 8155, 8181, 8153, 8144,4.292640209197998,XXXXX
70, 8173, 8122, 8162, 8128, 8161, 8136, 8161, 8171, 8196, 8167, 8158, 8175, 8144, 8143,4.301782608032227,XXXXX
71, 8168, 8149, 8172, 8138, 8166, 8143, 8163, 8174, 8192, 8164, 8158, 8177, 8145, 8147,4.309911727905273,XXXXX
72, 8172, 8129, 8165, 8144, 8165, 8141, 8149, 8162, 8184, 8167, 8160, 8171, 8156, 8146,4.317675590515137,XXXXX
73, 8182, 8137, 8172, 8147, 8165, 8145, 8148, 8162, 8195, 8174, 8162, 8183, 8161, 8150,4.32520866394043,XXXXX
74, 8180, 8142, 8177, 8155, 8177, 8151, 8157, 8170, 8192, 8169, 8160, 8182, 8159, 8146,4.333126544952393,XXXXX
75, 8171, 8119, 8174, 8157, 8175, 8146, 8150, 8163, 8179, 8163, 8155, 8175, 8159, 8143,4.341036558151245,XXXXX
76, 8181, 8146, 8184, 8160, 8161, 8146, 8153, 8158, 8182, 8178, 8161, 8179, 8167, 8149,4.349223613739014,XXXXX
77, 8190, 8130, 8187, 8168, 8174, 8153, 8169, 8164, 8192, 8194, 8174, 8178, 8172, 8147,4.356637716293335,XXXXX
78, 8188, 8137, 8192, 8167, 8190, 8163, 8171, 8170, 8200, 8191, 8173, 8189, 8172, 8150,4.3646111488342285,XXXXX
79, 8174, 8146, 8177, 8162, 8176, 8161, 8161, 8165, 8195, 8186, 8161, 8175, 8160, 8143,4.372327566146851,XXXXX
80, 8155, 8115, 8155, 8153, 8157, 8151, 8154, 8160, 8190, 8187, 8150, 8150, 8148, 8123,4.380002498626709,XXXXX
81, 8154, 8139, 8164, 8140, 8159, 8152, 8153, 8161, 8194, 8189, 8146, 8159, 8149, 8128,4.387843370437622,XXXXX
82, 8164, 8127, 8164, 8135, 8163, 8150, 8144, 8172, 8193, 8190, 8153, 8171, 8155, 8142,4.395893335342407,XXXXX
83, 8175, 8126, 8170, 8144, 8156, 8144, 8143, 8180, 8193, 8187, 8158, 8186, 8164, 8151,4.4035804271698,XXXXX
84, 8186, 8143, 8182, 8158, 8162, 8145, 8146, 8175, 8203, 8191, 8162, 8195, 8179, 8160,4.411405324935913,XXXXX
85, 8185, 8122, 8179, 8157, 8164, 8138, 8135, 8162, 8196, 8193, 8162, 8190, 8178, 8160,4.419201374053955,XXXXX
86, 8172, 8137, 8170, 8136, 8144, 8120, 8123, 8155, 8173, 8170, 8146, 8181, 8160, 8146,4.426962375640869,XXXXX
87, 8161, 8117, 8156, 8124, 8129, 8118, 8122, 8156, 8178, 8157, 8133, 8165, 8152, 8134,4.434697866439819,XXXXX
88, 8172, 8121, 8169, 8138, 8136, 8132, 8138, 8158, 8197, 8173, 8141, 8173, 8156, 8146,4.442463159561157,XXXXX
89, 8175, 8143, 8170, 8143, 8147, 8126, 8146, 8162, 8192, 8180, 8146, 8171, 8151, 8146,4.451869964599609,XXXXX
90, 8162, 8113, 8151, 8134, 8149, 8115, 8137, 8162, 8181, 8176, 8146, 8159, 8148, 8135,4.459743022918701,XXXXX
91, 8174, 8140, 8165, 8141, 8158, 8125, 8136, 8161, 8193, 8184, 8162, 8181, 8165, 8152,4.467601299285889,XXXXX
92, 8182, 8137, 8175, 8156, 8171, 8137, 8142, 8174, 8203, 8197, 8176, 8189, 8176, 8166,4.47575569152832,XXXXX
93, 8181, 8126, 8182, 8162, 8175, 8142, 8150, 8186, 8198, 8195, 8169, 8189, 8174, 8166,4.482695579528809,XXXXX
94, 8189, 8144, 8190, 8163, 8177, 8146, 8151, 8184, 8197, 8192, 8171, 8195, 8176, 8164,4.490616321563721,XXXXX
95, 8191, 8116, 8189, 8167, 8180, 8142, 8148, 8180, 8198, 8200, 8186, 8189, 8183, 8162,4.498584747314453,XXXXX
96, 8194, 8136, 8194, 8170, 8193, 8144, 8158, 8186, 8204, 8202, 8195, 8199, 8191, 8167,4.506433963775635,XXXXX
97, 8198, 8128, 8184, 8170, 8195, 8148, 8162, 8195, 8206, 8199, 8193, 8199, 8187, 8169,4.5143513679504395,XXXXX
98, 8191, 8107, 8177, 8162, 8178, 8140, 8151, 8191, 8200, 8190, 8182, 8194, 8179, 8162,4.522245407104492,XXXXX
99, 8175, 8123, 8174, 8148, 8158, 8125, 8141, 8179, 8195, 8180, 8167, 8186, 8171, 8151,4.53013014793396,XXXXX
100, 8157, 8093, 8152, 8132, 8154, 8120, 8129, 8163, 8182, 8176, 8161, 8158, 8151, 8130,4.53817081451416,XXXXX
101, 8152, 8110, 8146, 8125, 8157, 8134, 8128, 8149, 8178, 8167, 8154, 8154, 8139, 8121,4.546077251434326,XXXXX
102, 8147, 8114, 8141, 8128, 8159, 8138, 8131, 8150, 8180, 8151, 8137, 8149, 8137, 8123,4.552490472793579,XXXXX
103, 8138, 8091, 8132, 8124, 8154, 8128, 8127, 8148, 8170, 8139, 8129, 8140, 8123, 8115,4.5605809688568115,XXXXX
104, 8118, 8107, 8122, 8099, 8134, 8120, 8119, 8140, 8164, 8135, 8126, 8129, 8104, 8094,4.568701505661011,XXXXX
105, 8108, 8089, 8110, 8088, 8134, 8111, 8112, 8141, 8175, 8139, 8118, 8116, 8105, 8086,4.577613830566406,XXXXX
106, 8141, 8123, 8138, 8125, 8160, 8124, 8127, 8160, 8194, 8168, 8142, 8149, 8138, 8117,4.585727691650391,XXXXX
107, 8179, 8151, 8176, 8165, 8170, 8146, 8150, 8185, 8201, 8203, 8189, 8192, 8174, 8151,4.593759298324585,XXXXX
108, 8186, 8126, 8184, 8167, 8163, 8146, 8156, 8193, 8201, 8201, 8194, 8197, 8181, 8155,4.6019980907440186,XXXXX
109, 8167, 8130, 8170, 8159, 8162, 8129, 8140, 8187, 8194, 8186, 8167, 8179, 8164, 8140,4.609821081161499,XXXXX
110, 8143, 8103, 8156, 8152, 8161, 8112, 8118, 8176, 8187, 8191, 8162, 8167, 8150, 8128,4.617621421813965,XXXXX
111, 8149, 8115, 8165, 8141, 8151, 8113, 8116, 8164, 8195, 8193, 8165, 8183, 8153, 8135,4.624025106430054,XXXXX
112, 8161, 8127, 8161, 8141, 8155, 8129, 8133, 8164, 8205, 8183, 8160, 8183, 8150, 8136,4.632016897201538,XXXXX
113, 8168, 8111, 8164, 8159, 8177, 8147, 8150, 8180, 8211, 8192, 8172, 8182, 8158, 8143,4.640070199966431,XXXXX
114, 8191, 8147, 8194, 8180, 8201, 8160, 8166, 8196, 8226, 8211, 8197, 8204, 8186, 8167,4.648383617401123,XXXXX
115, 8202, 8134, 8200, 8193, 8204, 8164, 8174, 8208, 8236, 8215, 8202, 8215, 8191, 8175,4.655779123306274,XXXXX
116, 8194, 8132, 8192, 8187, 8196, 8166, 8173, 8214, 8231, 8218, 8194, 8218, 8178, 8168,4.663799285888672,XXXXX
117, 8180, 8133, 8177, 8172, 8194, 8157, 8165, 8204, 8218, 8224, 8187, 8198, 8169, 8155,4.671643972396851,XXXXX
118, 8166, 8106, 8171, 8169, 8192, 8148, 8154, 8183, 8206, 8207, 8187, 8182, 8169, 8148,4.6795830726623535,XXXXX
119, 8164, 8137, 8179, 8166, 8187, 8153, 8147, 8169, 8204, 8185, 8190, 8193, 8161, 8151,4.687357425689697,XXXXX
120, 8167, 8119, 8171, 8166, 8183, 8151, 8142, 8171, 8206, 8190, 8186, 8188, 8158, 8151,4.695151090621948,XXXXX
121, 8175, 8118, 8176, 8185, 8192, 8150, 8148, 8186, 8207, 8198, 8184, 8192, 8169, 8157,4.7028419971466064,XXXXX
122, 8173, 8139, 8178, 8191, 8199, 8151, 8149, 8193, 8201, 8191, 8187, 8195, 8167, 8150,4.710745096206665,XXXXX
123, 8160, 8111, 8170, 8174, 8185, 8146, 8140, 8183, 8194, 8186, 8186, 8186, 8156, 8142,4.718398571014404,XXXXX
124, 8163, 8136, 8181, 8166, 8179, 8150, 8144, 8177, 8196, 8188, 8184, 8195, 8164, 8152,4.727768659591675,XXXXX
125, 8172, 8126, 8180, 8177, 8190, 8155, 8150, 8185, 8199, 8193, 8190, 8193, 8178, 8154,4.7355101108551025,XXXXX
126, 8178, 8109, 8179, 8182, 8185, 8152, 8147, 8185, 8201, 8193, 8191, 8195, 8178, 8146,4.743412733078003,XXXXX
127, 8175, 8125, 8184, 8171, 8176, 8147, 8144, 8175, 8202, 8188, 8185, 8198, 8169, 8145,4.749561786651611,XXXXX
239, 8173, 8109, 8183, 8156, 8186, 8155, 8147, 8177, 8203, 8188, 8185, 8190, 8167, 8150,4.7585718631744385,XXXXX
0, 8180, 8132, 8190, 8165, 8193, 8169, 8156, 8186, 8202, 8194, 8190, 8199, 8176, 8153,0.0058629512786865234,XXXXX
1, 8170, 8120, 8180, 8175, 8184, 8164, 8152, 8179, 8192, 8185, 8189, 8188, 8181, 8143,0.01389002799987793,SPEAK
2, 8164, 8112, 8177, 8163, 8180, 8149, 8141, 8166, 8187, 8160, 8187, 8173, 8174, 8138,0.021771907806396484,SPEAK
3, 8170, 8137, 8187, 8166, 8183, 8144, 8135, 8161, 8185, 8155, 8187, 8178, 8160, 8139,0.02957606315612793,SPEAK
4, 8170, 8111, 8189, 8189, 8186, 8150, 8137, 8158, 8185, 8176, 8185, 8182, 8158, 8136,0.03758406639099121,SPEAK
5, 8185, 8139, 8219, 8220, 8195, 8160, 8147, 8168, 8199, 8190, 8203, 8203, 8181, 8154,0.045549631118774414,SPEAK
6, 8207, 8151, 8253, 8257, 8192, 8153, 8142, 8173, 8204, 8197, 8239, 8222, 8204, 8173,0.05342698097229004,SPEAK
7, 8211, 8143, 8272, 8288, 8184, 8143, 8133, 8157, 8186, 8188, 8251, 8243, 8210, 8175,0.061342477798461914,SPEAK
8, 8219, 8171, 8292, 8312, 8201, 8153, 8147, 8154, 8180, 8170, 8269, 8265, 8210, 8185,0.06906509399414062,SPEAK
9, 8226, 8145, 8307, 8339, 8210, 8154, 8151, 8162, 8183, 8173, 8291, 8265, 8220, 8191,0.07706594467163086,SPEAK
10, 8224, 8154, 8321, 8356, 8184, 8144, 8139, 8160, 8177, 8176, 8271, 8267, 8231, 8187,0.0850982666015625,SPEAK
11, 8223, 8152, 8317, 8349, 8177, 8142, 8132, 8158, 8174, 8177, 8264, 8264, 8224, 8184,0.09293031692504883,SPEAK
12, 8230, 8130, 8316, 8340, 8204, 8148, 8133, 8159, 8178, 8181, 8290, 8273, 8208, 8188,0.10084962844848633,SPEAK
13, 8224, 8146, 8304, 8320, 8198, 8145, 8124, 8143, 8177, 8171, 8278, 8266, 8202, 8182,0.10892820358276367,SPEAK
14, 8207, 8119, 8266, 8284, 8172, 8136, 8108, 8131, 8170, 8167, 8240, 8233, 8195, 8170,0.11508870124816895,SPEAK
15, 8212, 8134, 8262, 8263, 8186, 8143, 8117, 8147, 8182, 8187, 8233, 8236, 8195, 8178,0.12435054779052734,SPEAK
16, 8203, 8135, 8249, 8249, 8191, 8146, 8126, 8154, 8190, 8189, 8218, 8229, 8192, 8168,0.13209247589111328,SPEAK
17, 8177, 8100, 8216, 8223, 8167, 8140, 8119, 8134, 8172, 8163, 8189, 8201, 8178, 8147,0.13991165161132812,SPEAK
18, 8176, 8124, 8207, 8202, 8164, 8145, 8127, 8127, 8161, 8156, 8179, 8197, 8165, 8146,0.14759206771850586,SPEAK
19, 8173, 8106, 8192, 8191, 8172, 8153, 8143, 8146, 8165, 8162, 8165, 8184, 8161, 8142,0.155350923538208,SPEAK
20, 8163, 8104, 8181, 8182, 8162, 8153, 8146, 8163, 8179, 8161, 8152, 8177, 8162, 8136,0.16304850578308105,SPEAK
21, 8168, 8113, 8176, 8181, 8165, 8148, 8138, 8166, 8187, 8164, 8156, 8176, 8158, 8136,0.17226290702819824,SPEAK
22, 8178, 8105, 8188, 8188, 8188, 8151, 8142, 8173, 8186, 8167, 8155, 8182, 8156, 8140,0.17855048179626465,SPEAK
23, 8174, 8141, 8196, 8195, 8190, 8161, 8153, 8164, 8168, 8155, 8140, 8183, 8149, 8144,0.18665719032287598,SPEAK
24, 8156, 8111, 8165, 8180, 8168, 8154, 8143, 8136, 8151, 8131, 8124, 8154, 8130, 8129,0.19440078735351562,SPEAK
25, 8154, 8103, 8160, 8159, 8159, 8151, 8138, 8126, 8155, 8121, 8120, 8148, 8130, 8122,0.202103853225708,SPEAK
26, 8168, 8136, 8182, 8173, 8181, 8167, 8163, 8153, 8171, 8145, 8141, 8167, 8157, 8138,0.2113325595855713,SPEAK
27, 8172, 8124, 8190, 8207, 8199, 8170, 8177, 8168, 8173, 8166, 8158, 8178, 8169, 8153,0.2191147804260254,SPEAK
28, 8170, 8139, 8185, 8201, 8192, 8159, 8163, 8155, 8164, 8154, 8143, 8177, 8162, 8149,0.2269909381866455,SPEAK
29, 8171, 8123, 8182, 8189, 8189, 8163, 8160, 8155, 8164, 8145, 8142, 8174, 8166, 8143,0.2333998680114746,SPEAK
30, 8187, 8132, 8205, 8209, 8188, 8176, 8177, 8168, 8180, 8160, 8165, 8199, 8181, 8159,0.24127769470214844,SPEAK
31, 8195, 8143, 8204, 8210, 8177, 8164, 8171, 8168, 8188, 8170, 8167, 8207, 8186, 8166,0.2490406036376953,SPEAK
32, 8185, 8108, 8187, 8190, 8179, 8154, 8153, 8162, 8180, 8165, 8156, 8193, 8183, 8158,0.2583465576171875,SPEAK
33, 8192, 8139, 8198, 8195, 8185, 8166, 8164, 8160, 8176, 8157, 8167, 8206, 8189, 8163,0.2662203311920166,SPEAK
34, 8188, 8125, 8188, 8193, 8169, 8160, 8165, 8149, 8171, 8147, 8162, 8198, 8180, 8156,0.2739555835723877,SPEAK
35, 8171, 8098, 8171, 8163, 8157, 8148, 8148, 8129, 8163, 8140, 8138, 8180, 8164, 8145,0.2817206382751465,SPEAK
36, 8170, 8122, 8173, 8156, 8163, 8154, 8145, 8134, 8161, 8139, 8133, 8181, 8168, 8146,0.28943943977355957,SPEAK
37, 8168, 8109, 8165, 8171, 8162, 8154, 8149, 8153, 8161, 8138, 8137, 8181, 8166, 8147,0.2975008487701416,SPEAK
38, 8160, 8127, 8159, 8166, 8161, 8143, 8145, 8147, 8159, 8131, 8128, 8177, 8149, 8142,0.30533599853515625,SPEAK
39, 8153, 8119, 8152, 8153, 8166, 8136, 8136, 8137, 8152, 8126, 8121, 8159, 8142, 8133,0.31328511238098145,SPEAK
40, 8166, 8118, 8161, 8159, 8168, 8144, 8144, 8151, 8160, 8138, 8130, 8171, 8156, 8139,0.3210413455963135,SPEAK
41, 8180, 8145, 8171, 8169, 8171, 8158, 8160, 8168, 8172, 8153, 8138, 8194, 8165, 8151,0.3289220333099365,SPEAK
42, 8167, 8111, 8154, 8161, 8168, 8149, 8149, 8155, 8158, 8142, 8129, 8178, 8157, 8149,0.33664894104003906,SPEAK
43, 8158, 8124, 8150, 8152, 8160, 8136, 8135, 8137, 8148, 8129, 8124, 8170, 8153, 8144,0.34439802169799805,SPEAK
44, 8160, 8127, 8156, 8157, 8165, 8142, 8142, 8151, 8163, 8147, 8131, 8172, 8158, 8140,0.3521242141723633,SPEAK
45, 8172, 8117, 8169, 8168, 8184, 8153, 8155, 8171, 8178, 8163, 8132, 8181, 8167, 8145,0.3600335121154785,SPEAK
46, 8177, 8145, 8172, 8168, 8190, 8151, 8154, 8169, 8181, 8161, 8140, 8190, 8171, 8158,0.3696136474609375,SPEAK
47, 8169, 8120, 8163, 8161, 8172, 8138, 8142, 8162, 8178, 8169, 8153, 8189, 8169, 8156,0.37732362747192383,SPEAK
48, 8178, 8132, 8181, 8170, 8163, 8138, 8139, 8157, 8172, 8175, 8147, 8196, 8171, 8151,0.3834514617919922,SPEAK
49, 8188, 8142, 8191, 8193, 8178, 8141, 8132, 8144, 8166, 8169, 8135, 8199, 8173, 8157,0.3911738395690918,SPEAK
50, 8189, 8126, 8187, 8195, 8185, 8141, 8125, 8132, 8159, 8164, 8140, 8205, 8172, 8166,0.3990333080291748,SPEAK
51, 8181, 8140, 8176, 8174, 8183, 8145, 8133, 8122, 8146, 8154, 8140, 8197, 8164, 8158,0.4085266590118408,SPEAK
52, 8155, 8104, 8148, 8158, 8179, 8142, 8140, 8113, 8132, 8133, 8124, 8165, 8149, 8124,0.41644811630249023,SPEAK
53, 8137, 8108, 8139, 8149, 8169, 8142, 8144, 8123, 8147, 8126, 8120, 8164, 8146, 8112,0.42444562911987305,SPEAK
54, 8140, 8119, 8139, 8149, 8171, 8141, 8146, 8148, 8170, 8152, 8129, 8165, 8152, 8128,0.43233227729797363,SPEAK
55, 8152, 8109, 8143, 8158, 8180, 8138, 8150, 8161, 8174, 8175, 8133, 8164, 8157, 8135,0.44031381607055664,SPEAK
56, 8158, 8142, 8152, 8163, 8172, 8141, 8155, 8159, 8175, 8169, 8130, 8176, 8166, 8132,0.4467306137084961,SPEAK
57, 8159, 8124, 8147, 8169, 8174, 8145, 8157, 8168, 8187, 8176, 8143, 8171, 8178, 8137,0.4548060894012451,SPEAK
58, 8161, 8130, 8151, 8173, 8187, 8144, 8160, 8176, 8187, 8187, 8155, 8171, 8175, 8142,0.4628257751464844,SPEAK
59, 8149, 8135, 8143, 8165, 8170, 8126, 8147, 8152, 8161, 8166, 8136, 8163, 8154, 8121,0.47088027000427246,SPEAK
60, 8140, 8104, 8138, 8159, 8154, 8116, 8137, 8137, 8156, 8145, 8121, 8156, 8152, 8112,0.4788823127746582,SPEAK
61, 8158, 8138, 8157, 8166, 8167, 8138, 8151, 8153, 8166, 8153, 8136, 8173, 8161, 8125,0.4866971969604492,SPEAK
62, 8164, 8129, 8156, 8168, 8170, 8145, 8152, 8151, 8160, 8159, 8146, 8174, 8155, 8120,0.4945101737976074,SPEAK
63, 8162, 8125, 8159, 8167, 8160, 8136, 8144, 8131, 8159, 8146, 8138, 8176, 8156, 8121,0.5024707317352295,SPEAK
64, 8166, 8136, 8163, 8169, 8159, 8135, 8142, 8127, 8158, 8138, 8137, 8176, 8165, 8138,0.5102934837341309,SPEAK
65, 8163, 8109, 8156, 8166, 8160, 8140, 8138, 8136, 8152, 8139, 8127, 8170, 8158, 8139,0.5183401107788086,SPEAK
66, 8164, 8132, 8160, 8162, 8159, 8139, 8144, 8151, 8167, 8148, 8115, 8177, 8150, 8135,0.5255515575408936,SPEAK
67, 8157, 8118, 8153, 8158, 8156, 8134, 8141, 8165, 8179, 8154, 8124, 8165, 8156, 8131,0.5332462787628174,SPEAK
68, 8152, 8111, 8147, 8154, 8154, 8136, 8135, 8156, 8169, 8154, 8136, 8154, 8165, 8128,0.540900468826294,SPEAK
69, 8155, 8132, 8141, 8154, 8160, 8144, 8137, 8152, 8174, 8164, 8134, 8159, 8166, 8126,0.5501892566680908,SPEAK
70, 8154, 8112, 8130, 8150, 8155, 8146, 8131, 8161, 8184, 8166, 8133, 8163, 8163, 8130,0.5580968856811523,SPEAK
71, 8155, 8132, 8139, 8139, 8146, 8144, 8128, 8158, 8171, 8161, 8137, 8168, 8166, 8134,0.5662550926208496,SPEAK
72, 8150, 8118, 8133, 8130, 8151, 8137, 8135, 8158, 8159, 8159, 8130, 8145, 8158, 8119,0.5741558074951172,SPEAK
73, 8140, 8112, 8127, 8132, 8145, 8128, 8132, 8152, 8157, 8140, 8123, 8134, 8140, 8111,0.5805578231811523,SPEAK
74, 8138, 8140, 8131, 8141, 8134, 8121, 8123, 8135, 8153, 8122, 8126, 8141, 8139, 8120,0.588493824005127,SPEAK
75, 8150, 8119, 8138, 8155, 8149, 8122, 8128, 8136, 8147, 8130, 8134, 8150, 8157, 8133,0.5965723991394043,SPEAK
76, 8159, 8140, 8153, 8167, 8158, 8128, 8133, 8141, 8154, 8138, 8138, 8171, 8169, 8138,0.6042220592498779,SPEAK
77, 8140, 8127, 8140, 8153, 8139, 8124, 8117, 8133, 8153, 8130, 8135, 8157, 8157, 8119,0.6121008396148682,SPEAK
78, 8132, 8106, 8131, 8136, 8127, 8120, 8113, 8127, 8143, 8127, 8123, 8136, 8141, 8109,0.6214010715484619,SPEAK
79, 8141, 8138, 8143, 8145, 8133, 8123, 8123, 8133, 8146, 8123, 8114, 8140, 8139, 8118,0.6294822692871094,SPEAK
80, 8143, 8119, 8138, 8154, 8136, 8126, 8130, 8141, 8148, 8120, 8113, 8136, 8138, 8124,0.6374814510345459,SPEAK
81, 8149, 8130, 8138, 8146, 8139, 8137, 8142, 8147, 8144, 8124, 8113, 8135, 8138, 8121,0.6440515518188477,SPEAK
82, 8148, 8128, 8138, 8149, 8146, 8139, 8147, 8154, 8145, 8121, 8117, 8136, 8139, 8113,0.652104377746582,SPEAK
83, 8147, 8121, 8143, 8166, 8157, 8135, 8146, 8156, 8149, 8119, 8126, 8148, 8138, 8121,0.6601386070251465,SPEAK
84, 8151, 8148, 8142, 8161, 8159, 8139, 8151, 8145, 8149, 8124, 8128, 8154, 8142, 8130,0.6680448055267334,SPEAK
85, 8147, 8119, 8134, 8158, 8150, 8139, 8151, 8135, 8144, 8127, 8124, 8144, 8147, 8121,0.6760129928588867,SPEAK
86, 8155, 8136, 8152, 8170, 8174, 8143, 8155, 8149, 8152, 8131, 8133, 8159, 8154, 8129,0.6839292049407959,SPEAK
87, 8163, 8142, 8151, 8171, 8195, 8148, 8152, 8161, 8154, 8133, 8146, 8164, 8156, 8142,0.6919920444488525,SPEAK
88, 8153, 8114, 8142, 8162, 8160, 8134, 8141, 8152, 8148, 8125, 8139, 8153, 8158, 8131,0.6999778747558594,SPEAK
89, 8150, 8139, 8152, 8161, 8135, 8133, 8148, 8152, 8149, 8121, 8136, 8159, 8157, 8128,0.7079524993896484,SPEAK
90, 8151, 8119, 8148, 8163, 8157, 8141, 8151, 8160, 8153, 8137, 8151, 8160, 8157, 8138,0.7142879962921143,SPEAK
91, 8153, 8126, 8150, 8160, 8165, 8138, 8142, 8158, 8157, 8144, 8161, 8167, 8168, 8143,0.7223091125488281,SPEAK
92, 8152, 8138, 8150, 8158, 8150, 8133, 8140, 8156, 8158, 8149, 8160, 8165, 8176, 8137,0.7303290367126465,SPEAK
93, 8147, 8115, 8143, 8153, 8155, 8138, 8147, 8158, 8164, 8154, 8158, 8162, 8177, 8133,0.7385590076446533,SPEAK
94, 8140, 8134, 8140, 8142, 8163, 8145, 8158, 8161, 8164, 8142, 8147, 8161, 8167, 8137,0.7476279735565186,SPEAK
95, 8136, 8116, 8126, 8134, 8160, 8148, 8165, 8164, 8159, 8141, 8131, 8144, 8154, 8129,0.7550148963928223,SPEAK
96, 8141, 8127, 8135, 8133, 8164, 8158, 8172, 8166, 8164, 8151, 8133, 8152, 8150, 8126,0.7626886367797852,SPEAK
97, 8142, 8138, 8144, 8140, 8163, 8155, 8169, 8161, 8163, 8139, 8138, 8151, 8151, 8127,0.7703793048858643,SPEAK
98, 8144, 8115, 8140, 8153, 8160, 8145, 8156, 8160, 8155, 8134, 8135, 8145, 8157, 8131,0.778029203414917,SPEAK
99, 8159, 8150, 8153, 8160, 8165, 8150, 8160, 8168, 8167, 8150, 8136, 8163, 8163, 8141,0.7858195304870605,SPEAK
100, 8159, 8127, 8151, 8151, 8168, 8146, 8162, 8168, 8172, 8149, 8141, 8158, 8162, 8138,0.7936239242553711,SPEAK
101, 8146, 8112, 8139, 8137, 8153, 8136, 8150, 8156, 8155, 8126, 8135, 8147, 8156, 8123,0.8015344142913818,SPEAK
102, 8136, 8131, 8128, 8132, 8143, 8140, 8145, 8152, 8159, 8127, 8125, 8137, 8152, 8109,0.8093173503875732,SPEAK
103, 8138, 8116, 8134, 8140, 8156, 8153, 8159, 8172, 8181, 8148, 8131, 8136, 8157, 8120,0.8171708583831787,SPEAK
104, 8157, 8142, 8153, 8145, 8166, 8158, 8179, 8188, 8185, 8160, 8140, 8155, 8168, 8143,0.8250634670257568,SPEAK
105, 8155, 8125, 8142, 8135, 8163, 8150, 8175, 8180, 8172, 8150, 8133, 8151, 8164, 8135,0.8332967758178711,SPEAK
106, 8144, 8116, 8137, 8133, 8163, 8147, 8160, 8160, 8165, 8131, 8128, 8145, 8157, 8119,0.8409838676452637,SPEAK
107, 8136, 8136, 8136, 8137, 8160, 8143, 8148, 8148, 8158, 8126, 8123, 8140, 8150, 8112,0.8486583232879639,SPEAK
108, 8123, 8111, 8129, 8135, 8157, 8130, 8143, 8143, 8143, 8127, 8107, 8127, 8133, 8113,0.8565843105316162,SPEAK
109, 8132, 8136, 8142, 8132, 8165, 8131, 8148, 8138, 8145, 8117, 8111, 8140, 8139, 8127,0.8645181655883789,SPEAK
110, 8137, 8126, 8141, 8132, 8164, 8135, 8143, 8137, 8153, 8114, 8130, 8138, 8153, 8126,0.8721952438354492,SPEAK
111, 8136, 8113, 8138, 8128, 8150, 8131, 8138, 8132, 8144, 8112, 8129, 8124, 8142, 8118,0.8800148963928223,SPEAK
112, 8141, 8143, 8142, 8136, 8160, 8132, 8145, 8132, 8136, 8111, 8127, 8126, 8142, 8120,0.8895840644836426,SPEAK
113, 8137, 8124, 8136, 8150, 8176, 8130, 8147, 8135, 8140, 8116, 8133, 8132, 8151, 8120,0.8960742950439453,SPEAK
114, 8130, 8131, 8143, 8146, 8165, 8127, 8145, 8131, 8143, 8114, 8127, 8132, 8145, 8115,0.9052591323852539,SPEAK
115, 8126, 8123, 8133, 8135, 8166, 8129, 8140, 8130, 8135, 8111, 8125, 8119, 8137, 8108,0.9116034507751465,SPEAK
116, 8132, 8121, 8131, 8139, 8183, 8138, 8142, 8132, 8135, 8117, 8136, 8135, 8148, 8112,0.9194974899291992,SPEAK
117, 8139, 8148, 8146, 8152, 8180, 8145, 8149, 8138, 8150, 8132, 8139, 8151, 8160, 8121,0.9275422096252441,SPEAK
118, 8133, 8109, 8136, 8142, 8165, 8140, 8144, 8140, 8153, 8130, 8128, 8125, 8146, 8113,0.9353065490722656,SPEAK
119, 8132, 8128, 8132, 8131, 8163, 8138, 8139, 8138, 8148, 8124, 8124, 8125, 8133, 8109,0.9433362483978271,SPEAK
120, 8141, 8143, 8135, 8149, 8170, 8140, 8141, 8137, 8139, 8131, 8132, 8142, 8144, 8117,0.9512205123901367,SPEAK
121, 8151, 8122, 8144, 8161, 8172, 8144, 8148, 8134, 8138, 8132, 8136, 8146, 8164, 8126,0.959223747253418,SPEAK
122, 8146, 8140, 8145, 8143, 8175, 8149, 8153, 8133, 8148, 8129, 8132, 8141, 8156, 8132,0.966970682144165,SPEAK
123, 8141, 8125, 8133, 8132, 8173, 8148, 8147, 8144, 8151, 8130, 8134, 8134, 8150, 8136,0.9751737117767334,SPEAK
124, 8151, 8141, 8140, 8143, 8181, 8147, 8153, 8160, 8154, 8135, 8143, 8151, 8169, 8139,0.9833300113677979,SPEAK
125, 8141, 8131, 8132, 8143, 8182, 8145, 8159, 8161, 8153, 8131, 8137, 8139, 8163, 8129,0.9914216995239258,SPEAK
126, 8130, 8105, 8127, 8143, 8164, 8151, 8163, 8151, 8149, 8125, 8126, 8127, 8153, 8123,0.9993813037872314,SPEAK
127, 8153, 8153, 8152, 8162, 8164, 8157, 8175, 8157, 8156, 8141, 8139, 8154, 8176, 8137,1.0075404644012451,SPEAK
239, 8172, 8146, 8168, 8183, 8188, 8151, 8176, 8182, 8167, 8166, 8164, 8169, 8190, 8150,1.0152695178985596,SPEAK
0, 8172, 8140, 8179, 8186, 8191, 8156, 8177, 8190, 8175, 8169, 8168, 8178, 8187, 8156,1.0230193138122559,SPEAK
1, 8162, 8138, 8172, 8171, 8164, 8158, 8176, 8170, 8173, 8160, 8159, 8171, 8182, 8141,1.030663251876831,SPEAK
2, 8151, 8119, 8167, 8158, 8155, 8149, 8163, 8156, 8161, 8161, 8159, 8161, 8176, 8134,1.0371074676513672,SPEAK
3, 8167, 8156, 8184, 8172, 8168, 8152, 8163, 8163, 8156, 8155, 8164, 8170, 8178, 8149,1.046450138092041,SPEAK
4, 8175, 8137, 8180, 8186, 8167, 8148, 8162, 8160, 8154, 8146, 8161, 8164, 8180, 8148,1.0542750358581543,SPEAK
5, 8168, 8131, 8174, 8170, 8158, 8137, 8153, 8151, 8150, 8147, 8158, 8169, 8176, 8148,1.0620827674865723,SPEAK
6, 8167, 8144, 8175, 8159, 8162, 8138, 8159, 8162, 8151, 8149, 8164, 8174, 8182, 8162,1.069861650466919,SPEAK
7, 8162, 8116, 8173, 8160, 8157, 8138, 8166, 8164, 8157, 8144, 8160, 8161, 8185, 8156,1.0775957107543945,SPEAK
8, 8145, 8132, 8166, 8150, 8142, 8130, 8151, 8142, 8153, 8137, 8139, 8147, 8164, 8134,1.0854394435882568,SPEAK
9, 8133, 8114, 8146, 8135, 8144, 8116, 8130, 8129, 8137, 8129, 8131, 8130, 8149, 8121,1.093123435974121,SPEAK
10, 8140, 8122, 8150, 8137, 8162, 8114, 8133, 8128, 8138, 8124, 8131, 8134, 8161, 8125,1.1008620262145996,SPEAK
11, 8140, 8147, 8154, 8141, 8164, 8126, 8145, 8138, 8154, 8131, 8130, 8134, 8162, 8126,1.1085774898529053,SPEAK
12, 8134, 8113, 8141, 8137, 8148, 8131, 8148, 8149, 8159, 8134, 8128, 8125, 8147, 8128,1.1165120601654053,SPEAK
13, 8131, 8127, 8138, 8127, 8131, 8125, 8147, 8137, 8146, 8122, 8118, 8125, 8134, 8120,1.1240813732147217,SPEAK
14, 8126, 8123, 8132, 8133, 8133, 8124, 8147, 8131, 8144, 8124, 8111, 8119, 8137, 8110,1.133277416229248,SPEAK
15, 8147, 8134, 8155, 8157, 8157, 8144, 8168, 8156, 8164, 8140, 8131, 8140, 8157, 8134,1.1410913467407227,SPEAK
16, 8171, 8157, 8170, 8166, 8165, 8157, 8182, 8171, 8163, 8144, 8151, 8158, 8163, 8158,1.1491823196411133,SPEAK
17, 8166, 8124, 8157, 8159, 8157, 8149, 8177, 8162, 8147, 8139, 8144, 8152, 8160, 8155,1.1572270393371582,SPEAK
18, 8164, 8143, 8166, 8161, 8160, 8141, 8176, 8160, 8152, 8133, 8138, 8163, 8169, 8155,1.1650781631469727,SPEAK
19, 8168, 8133, 8170, 8160, 8166, 8139, 8180, 8165, 8159, 8131, 8146, 8156, 8166, 8157,1.1712546348571777,SPEAK
20, 8175, 8124, 8171, 8157, 8165, 8150, 8188, 8173, 8162, 8146, 8159, 8159, 8166, 8166,1.179070234298706,SPEAK
21, 8174, 8151, 8176, 8164, 8164, 8159, 8191, 8176, 8167, 8157, 8165, 8169, 8179, 8164,1.188244104385376,SPEAK
22, 8154, 8114, 8162, 8157, 8162, 8147, 8176, 8162, 8155, 8139, 8151, 8153, 8167, 8141,1.196058750152588,SPEAK
23, 8146, 8123, 8154, 8134, 8161, 8136, 8166, 8155, 8145, 8123, 8135, 8149, 8151, 8133,1.2039670944213867,SPEAK
24, 8152, 8129, 8155, 8132, 8163, 8138, 8169, 8167, 8154, 8134, 8133, 8152, 8157, 8138,1.2120912075042725,SPEAK
25, 8157, 8119, 8163, 8144, 8152, 8141, 8170, 8165, 8161, 8138, 8137, 8153, 8158, 8141,1.219848871231079,SPEAK
26, 8152, 8143, 8160, 8138, 8148, 8140, 8173, 8152, 8160, 8127, 8134, 8146, 8151, 8144,1.2278342247009277,SPEAK
27, 8137, 8115, 8143, 8127, 8150, 8138, 8173, 8151, 8154, 8130, 8128, 8131, 8143, 8129,1.2341127395629883,SPEAK
28, 8131, 8124, 8148, 8128, 8143, 8138, 8166, 8141, 8144, 8122, 8123, 8134, 8139, 8120,1.2423033714294434,SPEAK
29, 8133, 8133, 8149, 8134, 8147, 8134, 8161, 8128, 8140, 8103, 8125, 8129, 8145, 8131,1.2512621879577637,SPEAK
30, 8141, 8124, 8145, 8137, 8162, 8134, 8169, 8141, 8148, 8107, 8131, 8130, 8158, 8141,1.2593467235565186,SPEAK
31, 8147, 8148, 8147, 8141, 8166, 8133, 8179, 8161, 8159, 8130, 8133, 8140, 8162, 8141,1.2673392295837402,SPEAK
32, 8143, 8121, 8142, 8145, 8163, 8128, 8173, 8160, 8155, 8138, 8131, 8133, 8154, 8135,1.2748751640319824,SPEAK
33, 8142, 8135, 8151, 8147, 8162, 8139, 8174, 8145, 8148, 8118, 8124, 8135, 8146, 8133,1.2828238010406494,SPEAK
34, 8135, 8141, 8142, 8140, 8157, 8145, 8178, 8137, 8142, 8104, 8118, 8127, 8144, 8128,1.2909836769104004,SPEAK
35, 8138, 8115, 8134, 8137, 8158, 8139, 8177, 8145, 8142, 8115, 8119, 8128, 8156, 8130,1.298621654510498,SPEAK
36, 8157, 8148, 8159, 8153, 8166, 8142, 8183, 8162, 8155, 8133, 8131, 8153, 8166, 8142,1.3065357208251953,SPEAK
37, 8150, 8127, 8155, 8154, 8166, 8143, 8180, 8165, 8151, 8137, 8141, 8144, 8155, 8141,1.313992977142334,SPEAK
38, 8127, 8118, 8131, 8125, 8157, 8139, 8173, 8148, 8141, 8119, 8127, 8124, 8137, 8122,1.3219718933105469,SPEAK
39, 8123, 8126, 8120, 8113, 8150, 8140, 8176, 8136, 8143, 8110, 8107, 8114, 8128, 8107,1.3297746181488037,SPEAK
40, 8130, 8112, 8129, 8126, 8154, 8135, 8177, 8134, 8143, 8112, 8103, 8115, 8127, 8113,1.3374648094177246,SPEAK
41, 8133, 8143, 8139, 8128, 8157, 8130, 8170, 8133, 8138, 8110, 8111, 8135, 8131, 8123,1.3452184200286865,SPEAK
42, 8133, 8122, 8131, 8122, 8158, 8130, 8164, 8132, 8144, 8113, 8117, 8139, 8136, 8129,1.353074312210083,SPEAK
43, 8148, 8122, 8144, 8130, 8166, 8138, 8169, 8140, 8164, 8127, 8125, 8142, 8143, 8146,1.3609812259674072,SPEAK
44, 8159, 8148, 8157, 8141, 8172, 8139, 8174, 8156, 8164, 8139, 8135, 8142, 8152, 8147,1.368861198425293,SPEAK
45, 8147, 8130, 8156, 8143, 8167, 8131, 8175, 8166, 8154, 8130, 8138, 8139, 8158, 8132,1.376788854598999,SPEAK
46, 8138, 8144, 8153, 8135, 8163, 8127, 8179, 8157, 8154, 8113, 8130, 8138, 8152, 8125,1.3844983577728271,SPEAK
47, 8132, 8118, 8136, 8124, 8160, 8125, 8173, 8140, 8147, 8112, 8120, 8117, 8141, 8112,1.3921840190887451,SPEAK
48, 8139, 8124, 8155, 8129, 8164, 8137, 8176, 8135, 8149, 8124, 8130, 8129, 8157, 8118,1.399937391281128,SPEAK
49, 8144, 8155, 8175, 8141, 8168, 8145, 8183, 8146, 8158, 8134, 8142, 8143, 8175, 8137,1.4082057476043701,SPEAK
50, 8130, 8121, 8154, 8138, 8160, 8131, 8173, 8147, 8151, 8131, 8137, 8124, 8156, 8124,1.4162356853485107,SPEAK
51, 8127, 8143, 8151, 8131, 8159, 8128, 8173, 8137, 8149, 8127, 8130, 8121, 8144, 8110,1.4240427017211914,SPEAK
52, 8125, 8141, 8153, 8133, 8171, 8140, 8181, 8135, 8152, 8127, 8130, 8121, 8145, 8111,1.4318962097167969,SPEAK
53, 8123, 8129, 8156, 8134, 8173, 8151, 8180, 8133, 8145, 8123, 8130, 8121, 8141, 8110,1.4398066997528076,SPEAK
54, 8124, 8141, 8155, 8130, 8163, 8148, 8177, 8136, 8142, 8121, 8129, 8121, 8141, 8104,1.4476737976074219,SPEAK
55, 8126, 8118, 8149, 8130, 8162, 8135, 8177, 8151, 8150, 8130, 8132, 8126, 8148, 8109,1.4556148052215576,SPEAK
56, 8132, 8140, 8153, 8128, 8159, 8125, 8175, 8150, 8143, 8124, 8128, 8142, 8149, 8116,1.4637424945831299,SPEAK
57, 8127, 8127, 8143, 8122, 8151, 8120, 8165, 8134, 8127, 8104, 8112, 8128, 8140, 8105,1.4717304706573486,SPEAK
58, 8126, 8117, 8145, 8125, 8155, 8124, 8169, 8133, 8130, 8102, 8106, 8127, 8140, 8108,1.4798240661621094,SPEAK
59, 8129, 8149, 8151, 8128, 8165, 8125, 8179, 8142, 8134, 8113, 8113, 8142, 8150, 8117,1.4878990650177002,SPEAK
60, 8116, 8117, 8140, 8125, 8155, 8118, 8167, 8129, 8126, 8102, 8109, 8130, 8147, 8107,1.4945323467254639,SPEAK
61, 8125, 8141, 8158, 8141, 8149, 8124, 8161, 8127, 8125, 8090, 8108, 8138, 8148, 8111,1.5023102760314941,SPEAK
62, 8157, 8159, 8186, 8166, 8170, 8143, 8177, 8155, 8138, 8118, 8128, 8160, 8162, 8140,1.5114996433258057,SPEAK
63, 8180, 8145, 8202, 8175, 8181, 8157, 8193, 8179, 8159, 8142, 8150, 8177, 8173, 8160,1.519007682800293,SPEAK
64, 8185, 8168, 8202, 8181, 8173, 8158, 8200, 8184, 8167, 8137, 8160, 8178, 8177, 8161,1.527123212814331,SPEAK
65, 8185, 8149, 8199, 8193, 8181, 8159, 8201, 8191, 8169, 8145, 8163, 8170, 8182, 8158,1.5351917743682861,SPEAK
66, 8190, 8161, 8216, 8197, 8195, 8170, 8205, 8192, 8172, 8156, 8165, 8186, 8187, 8167,1.5428378582000732,SPEAK
67, 8185, 8152, 8207, 8195, 8193, 8172, 8195, 8172, 8164, 8147, 8163, 8177, 8178, 8165,1.550766944885254,SPEAK
68, 8186, 8124, 8201, 8190, 8183, 8166, 8188, 8163, 8159, 8140, 8159, 8167, 8172, 8160,1.5589463710784912,SPEAK
69, 8188, 8151, 8208, 8177, 8177, 8165, 8194, 8174, 8169, 8146, 8163, 8178, 8176, 8165,1.565443515777588,SPEAK
70, 8163, 8119, 8182, 8154, 8157, 8153, 8177, 8175, 8160, 8139, 8159, 8156, 8162, 8150,1.5747747421264648,SPEAK
71, 8134, 8113, 8164, 8134, 8135, 8147, 8154, 8151, 8137, 8117, 8135, 8132, 8137, 8124,1.5810153484344482,SPEAK
72, 8131, 8129, 8166, 8135, 8137, 8157, 8158, 8144, 8140, 8104, 8119, 8129, 8129, 8120,1.589132308959961,SPEAK
73, 8147, 8121, 8172, 8146, 8158, 8155, 8164, 8159, 8154, 8112, 8130, 8142, 8141, 8141,1.597867488861084,SPEAK
74, 8152, 8140, 8176, 8137, 8159, 8142, 8154, 8157, 8161, 8129, 8137, 8151, 8151, 8154,1.6056151390075684,SPEAK
75, 8139, 8111, 8160, 8122, 8132, 8134, 8140, 8141, 8150, 8131, 8127, 8134, 8145, 8137,1.6133193969726562,SPEAK
76, 8138, 8121, 8156, 8125, 8127, 8142, 8151, 8148, 8143, 8121, 8122, 8134, 8137, 8130,1.6211340427398682,SPEAK
77, 8142, 8129, 8158, 8131, 8141, 8151, 8164, 8167, 8153, 8128, 8128, 8136, 8136, 8133,1.6303987503051758,SPEAK
78, 8137, 8123, 8157, 8128, 8142, 8147, 8156, 8157, 8156, 8131, 8129, 8131, 8140, 8130,1.6366539001464844,SPEAK
79, 8137, 8227, 8159, 8124, 8129, 8140, 8142, 8137, 8149, 8112, 8115, 8134, 8134, 8125,1.644526481628418,SPEAK
80, 8135, 8282, 8144, 8122, 8129, 8133, 8133, 8135, 8140, 8100, 8103, 8122, 8122, 8112,1.6523950099945068,SPEAK
81, 8144, 8305, 8155, 8129, 8153, 8140, 8143, 8147, 8150, 8115, 8114, 8131, 8136, 8120,1.660355806350708,SPEAK
82, 8160, 8330, 8172, 8140, 8169, 8150, 8156, 8162, 8163, 8138, 8137, 8144, 8157, 8145,1.6683430671691895,SPEAK
83, 8144, 8304, 8156, 8134, 8158, 8148, 8151, 8160, 8157, 8142, 8128, 8126, 8140, 8136,1.6762518882751465,SPEAK
84, 8124, 8326, 8147, 8122, 8148, 8147, 8148, 8144, 8148, 8127, 8098, 8116, 8115, 8112,1.6844353675842285,SPEAK
85, 8127, 8324, 8146, 8132, 8164, 8146, 8147, 8145, 8149, 8117, 8101, 8118, 8125, 8115,1.6923151016235352,SPEAK
86, 8136, 8315, 8150, 8130, 8165, 8146, 8146, 8154, 8153, 8117, 8115, 8124, 8137, 8128,1.7002089023590088,SPEAK
87, 8116, 8315, 8133, 8103, 8139, 8140, 8141, 8142, 8142, 8111, 8092, 8106, 8109, 8108,1.708111047744751,SPEAK
88, 8092, 8288, 8109, 8092, 8128, 8127, 8128, 8123, 8129, 8102, 8071, 8083, 8084, 8079,1.7159228324890137,SPEAK
89, 8104, 8322, 8123, 8102, 8142, 8127, 8120, 8127, 8141, 8110, 8092, 8098, 8108, 8089,1.7239017486572266,SPEAK
90, 8112, 8315, 8124, 8104, 8146, 8128, 8116, 8135, 8148, 8128, 8110, 8107, 8127, 8101,1.7317986488342285,SPEAK
91, 8106, 8294, 8116, 8096, 8133, 8121, 8115, 8127, 8133, 8124, 8101, 8109, 8114, 8105,1.7397003173828125,SPEAK
92, 8105, 8313, 8121, 8097, 8133, 8119, 8125, 8128, 8133, 8117, 8094, 8110, 8112, 8106,1.7476160526275635,SPEAK
93, 8101, 8293, 8121, 8099, 8136, 8123, 8129, 8136, 8144, 8111, 8095, 8099, 8118, 8099,1.755490779876709,SPEAK
94, 8097, 8307, 8117, 8094, 8131, 8129, 8124, 8128, 8141, 8101, 8092, 8104, 8108, 8091,1.7635202407836914,SPEAK
95, 8096, 8298, 8110, 8093, 8139, 8133, 8123, 8132, 8132, 8108, 8094, 8105, 8106, 8089,1.7701234817504883,SPEAK
96, 8115, 8293, 8132, 8100, 8157, 8142, 8139, 8151, 8142, 8124, 8100, 8118, 8129, 8107,1.7791664600372314,SPEAK
97, 8135, 8318, 8149, 8107, 8163, 8144, 8146, 8154, 8156, 8132, 8104, 8135, 8140, 8123,1.7871127128601074,SPEAK
98, 8128, 8284, 8135, 8108, 8151, 8138, 8132, 8143, 8154, 8132, 8107, 8126, 8137, 8119,1.7950952053070068,SPEAK
99, 8120, 8296, 8140, 8107, 8142, 8139, 8127, 8137, 8145, 8121, 8107, 8124, 8137, 8113,1.8030622005462646,SPEAK
100, 8118, 8287, 8137, 8104, 8138, 8138, 8133, 8140, 8137, 8114, 8102, 8112, 8132, 8109,1.8110857009887695,SPEAK
101, 8128, 8263, 8136, 8102, 8138, 8137, 8142, 8152, 8144, 8123, 8098, 8111, 8132, 8117,1.8190081119537354,SPEAK
102, 8139, 8294, 8144, 8105, 8139, 8141, 8146, 8159, 8153, 8128, 8099, 8128, 8130, 8123,1.8257172107696533,SPEAK
103, 8131, 8271, 8140, 8112, 8136, 8136, 8139, 8145, 8145, 8123, 8104, 8121, 8127, 8113,1.8331737518310547,SPEAK
104, 8129, 8280, 8151, 8113, 8133, 8131, 8141, 8135, 8139, 8122, 8104, 8127, 8138, 8120,1.8413286209106445,SPEAK
105, 8130, 8282, 8148, 8105, 8131, 8130, 8139, 8143, 8140, 8118, 8099, 8124, 8138, 8125,1.8492746353149414,SPEAK
106, 8125, 8255, 8140, 8102, 8135, 8130, 8137, 8153, 8147, 8118, 8096, 8115, 8131, 8116,1.8573384284973145,SPEAK
107, 8134, 8280, 8150, 8114, 8140, 8138, 8147, 8160, 8156, 8134, 8103, 8130, 8144, 8129,1.8654048442840576,SPEAK
108, 8134, 8255, 8142, 8116, 8141, 8138, 8149, 8159, 8153, 8138, 8107, 8136, 8153, 8140,1.873521327972412,SPEAK
109, 8126, 8255, 8136, 8100, 8144, 8129, 8141, 8152, 8145, 8124, 8102, 8141, 8143, 8130,1.8811845779418945,SPEAK
110, 8128, 8264, 8138, 8107, 8159, 8133, 8141, 8154, 8143, 8127, 8107, 8136, 8141, 8126,1.8891651630401611,SPEAK
111, 8148, 8250, 8149, 8131, 8173, 8147, 8158, 8166, 8153, 8148, 8126, 8144, 8157, 8145,1.8969452381134033,SPEAK
112, 8167, 8281, 8169, 8137, 8170, 8155, 8168, 8172, 8164, 8152, 8136, 8169, 8171, 8157,1.904845952987671,SPEAK
113, 8160, 8249, 8162, 8129, 8158, 8147, 8152, 8163, 8156, 8147, 8132, 8161, 8162, 8141,1.9126687049865723,SPEAK
114, 8152, 8242, 8160, 8124, 8154, 8145, 8145, 8155, 8146, 8148, 8127, 8150, 8149, 8131,1.9204168319702148,SPEAK
115, 8152, 8263, 8163, 8131, 8162, 8159, 8162, 8159, 8147, 8140, 8131, 8149, 8151, 8131,1.928173542022705,SPEAK
116, 8159, 8250, 8163, 8144, 8167, 8166, 8176, 8155, 8150, 8126, 8136, 8160, 8162, 8137,1.9359915256500244,SPEAK
117, 8164, 8275, 8170, 8146, 8165, 8164, 8172, 8141, 8149, 8123, 8134, 8172, 8162, 8142,1.9440937042236328,SPEAK
118, 8158, 8254, 8161, 8143, 8173, 8161, 8159, 8142, 8142, 8132, 8130, 8154, 8151, 8133,1.953615665435791,SPEAK
119, 8173, 8255, 8170, 8158, 8187, 8166, 8165, 8160, 8150, 8139, 8135, 8166, 8163, 8146,1.9600520133972168,SPEAK
120, 8185, 8273, 8183, 8168, 8193, 8175, 8180, 8168, 8158, 8145, 8139, 8179, 8177, 8164,1.9682531356811523,SPEAK
121, 8179, 8239, 8182, 8157, 8190, 8178, 8181, 8163, 8153, 8148, 8136, 8171, 8169, 8160,1.9761149883270264,SPEAK
122, 8182, 8261, 8185, 8155, 8191, 8178, 8185, 8161, 8153, 8150, 8135, 8178, 8159, 8157,1.9841184616088867,SPEAK
123, 8178, 8249, 8177, 8165, 8187, 8167, 8181, 8170, 8155, 8156, 8137, 8174, 8159, 8157,1.9921841621398926,SPEAK
124, 8178, 8239, 8187, 8163, 8183, 8169, 8178, 8175, 8158, 8157, 8138, 8173, 8166, 8164,2.0001120567321777,SPEAK
125, 8184, 8259, 8194, 8161, 8186, 8180, 8193, 8172, 8156, 8161, 8136, 8171, 8169, 8171,2.008040189743042,SPEAK
126, 8187, 8237, 8186, 8174, 8189, 8182, 8210, 8182, 8159, 8164, 8134, 8166, 8169, 8171,2.0164146423339844,SPEAK
127, 8190, 8257, 8194, 8182, 8194, 8179, 8207, 8191, 8169, 8162, 8136, 8179, 8168, 8174,2.0224170684814453,SPEAK
239, 8185, 8239, 8185, 8172, 8187, 8170, 8186, 8170, 8159, 8164, 8138, 8178, 8163, 8171,2.030416250228882,SPEAK
0, 8176, 8216, 8174, 8158, 8171, 8165, 8172, 8154, 8140, 8151, 8122, 8165, 8154, 8160,2.038100242614746,SPEAK
1, 8169, 8234, 8164, 8150, 8163, 8164, 8172, 8161, 8142, 8133, 8107, 8153, 8150, 8144,2.0461409091949463,SPEAK
2, 8166, 8212, 8155, 8147, 8160, 8159, 8172, 8164, 8151, 8141, 8117, 8146, 8150, 8137,2.0540430545806885,SPEAK
3, 8187, 8248, 8183, 8165, 8169, 8168, 8175, 8164, 8155, 8160, 8136, 8169, 8169, 8165,2.0619542598724365,SPEAK
4, 8201, 8251, 8197, 8185, 8177, 8175, 8175, 8175, 8156, 8164, 8138, 8182, 8190, 8188,2.071485757827759,SPEAK
5, 8182, 8216, 8182, 8171, 8166, 8169, 8176, 8168, 8154, 8157, 8128, 8176, 8177, 8173,2.0782265663146973,SPEAK
6, 8173, 8233, 8175, 8157, 8171, 8175, 8181, 8160, 8152, 8159, 8125, 8171, 8166, 8159,2.0872089862823486,SPEAK
7, 8184, 8219, 8175, 8163, 8187, 8182, 8181, 8168, 8157, 8164, 8131, 8162, 8180, 8166,2.0938122272491455,SPEAK
8, 8183, 8227, 8177, 8161, 8175, 8177, 8180, 8169, 8164, 8158, 8135, 8167, 8181, 8168,2.1011059284210205,SPEAK
9, 8166, 8215, 8164, 8152, 8158, 8163, 8173, 8165, 8154, 8146, 8127, 8158, 8159, 8152,2.109229326248169,SPEAK
10, 8164, 8199, 8164, 8159, 8158, 8153, 8160, 8155, 8138, 8140, 8111, 8156, 8154, 8145,2.1170542240142822,SPEAK
11, 8173, 8231, 8178, 8163, 8159, 8155, 8162, 8140, 8138, 8136, 8104, 8165, 8157, 8149,2.1266472339630127,SPEAK
12, 8172, 8201, 8174, 8157, 8151, 8154, 8169, 8144, 8140, 8126, 8114, 8153, 8152, 8148,2.134169340133667,XXXXX
13, 8175, 8208, 8178, 8160, 8143, 8156, 8173, 8161, 8143, 8129, 8129, 8161, 8160, 8156,2.142292022705078,XXXXX
14, 8171, 8219, 8175, 8165, 8140, 8159, 8169, 8160, 8153, 8150, 8132, 8167, 8169, 8155,2.1502068042755127,XXXXX
15, 8166, 8196, 8174, 8165, 8153, 8168, 8171, 8157, 8158, 8162, 8128, 8159, 8169, 8147,2.1566083431243896,XXXXX
16, 8170, 8215, 8175, 8160, 8164, 8171, 8182, 8166, 8155, 8158, 8125, 8153, 8164, 8142,2.1644585132598877,XXXXX
17, 8161, 8186, 8157, 8154, 8156, 8159, 8177, 8164, 8153, 8157, 8124, 8139, 8157, 8133,2.1724157333374023,XXXXX
18, 8165, 8196, 8169, 8162, 8158, 8165, 8172, 8156, 8158, 8162, 8129, 8149, 8164, 8140,2.1801702976226807,XXXXX
19, 8175, 8212, 8183, 8170, 8168, 8176, 8174, 8157, 8154, 8164, 8136, 8152, 8164, 8145,2.188117265701294,XXXXX
20, 8161, 8187, 8166, 8157, 8155, 8163, 8169, 8150, 8144, 8147, 8124, 8138, 8144, 8134,2.1960909366607666,XXXXX
21, 8158, 8219, 8160, 8151, 8141, 8156, 8169, 8139, 8146, 8130, 8120, 8139, 8144, 8134,2.2052860260009766,XXXXX
22, 8166, 8206, 8160, 8160, 8159, 8166, 8171, 8140, 8144, 8128, 8131, 8141, 8150, 8138,2.2131128311157227,XXXXX
23, 8158, 8196, 8159, 8145, 8161, 8161, 8161, 8137, 8133, 8125, 8120, 8149, 8137, 8133,2.2193760871887207,XXXXX
24, 8154, 8204, 8154, 8126, 8136, 8146, 8146, 8131, 8133, 8124, 8113, 8153, 8137, 8124,2.2272162437438965,XXXXX
25, 8165, 8192, 8160, 8144, 8138, 8146, 8150, 8136, 8141, 8133, 8135, 8157, 8154, 8138,2.2350974082946777,XXXXX
26, 8168, 8220, 8170, 8159, 8150, 8155, 8159, 8139, 8138, 8136, 8141, 8164, 8159, 8155,2.2429659366607666,XXXXX
27, 8149, 8186, 8149, 8139, 8141, 8146, 8146, 8135, 8132, 8136, 8129, 8141, 8148, 8134,2.252474546432495,XXXXX
28, 8142, 8170, 8146, 8123, 8135, 8139, 8136, 8132, 8139, 8136, 8128, 8130, 8144, 8117,2.260395050048828,XXXXX
29, 8140, 8197, 8153, 8131, 8138, 8140, 8131, 8131, 8139, 8136, 8122, 8133, 8141, 8118,2.268402099609375,XXXXX
30, 8129, 8172, 8136, 8131, 8135, 8129, 8119, 8123, 8126, 8135, 8102, 8121, 8127, 8105,2.276228189468384,XXXXX
31, 8121, 8184, 8130, 8124, 8131, 8124, 8119, 8112, 8120, 8116, 8095, 8112, 8118, 8088,2.284248113632202,XXXXX
32, 8109, 8175, 8122, 8123, 8130, 8129, 8130, 8115, 8120, 8097, 8099, 8098, 8112, 8081,2.290526866912842,XXXXX
33, 8117, 8178, 8132, 8126, 8128, 8138, 8143, 8130, 8128, 8111, 8100, 8109, 8113, 8089,2.298375368118286,XXXXX
34, 8138, 8201, 8147, 8129, 8130, 8143, 8150, 8137, 8138, 8132, 8100, 8121, 8119, 8105,2.3061609268188477,XXXXX
35, 8146, 8176, 8143, 8132, 8132, 8145, 8147, 8137, 8142, 8133, 8114, 8125, 8132, 8118,2.314082145690918,XXXXX
36, 8153, 8202, 8147, 8135, 8141, 8151, 8155, 8137, 8148, 8126, 8128, 8147, 8143, 8132,2.3236215114593506,XXXXX
37, 8151, 8191, 8144, 8132, 8152, 8155, 8162, 8136, 8146, 8120, 8116, 8138, 8141, 8129,2.3311574459075928,XXXXX
38, 8153, 8173, 8146, 8131, 8149, 8163, 8169, 8136, 8144, 8122, 8104, 8130, 8143, 8125,2.339069366455078,XXXXX
39, 8158, 8198, 8148, 8138, 8141, 8165, 8177, 8140, 8148, 8137, 8118, 8137, 8137, 8132,2.3470537662506104,XXXXX
40, 8140, 8166, 8126, 8137, 8134, 8151, 8164, 8136, 8144, 8135, 8116, 8117, 8119, 8118,2.3533425331115723,XXXXX
41, 8124, 8171, 8121, 8127, 8131, 8148, 8152, 8131, 8132, 8120, 8098, 8107, 8109, 8098,2.361159563064575,XXXXX
42, 8130, 8173, 8129, 8125, 8129, 8156, 8162, 8132, 8128, 8126, 8113, 8117, 8116, 8106,2.370636224746704,XXXXX
43, 8148, 8169, 8146, 8128, 8128, 8156, 8173, 8134, 8134, 8136, 8133, 8139, 8135, 8137,2.3770618438720703,XXXXX
44, 8157, 8193, 8154, 8129, 8139, 8152, 8162, 8130, 8137, 8132, 8126, 8151, 8146, 8145,2.3851747512817383,XXXXX
45, 8143, 8161, 8136, 8133, 8148, 8145, 8143, 8115, 8131, 8129, 8126, 8136, 8138, 8123,2.394345283508301,XXXXX
46, 8124, 8167, 8118, 8126, 8135, 8140, 8139, 8098, 8132, 8131, 8126, 8123, 8130, 8101,2.402146339416504,XXXXX
47, 8106, 8161, 8091, 8103, 8125, 8134, 8138, 8100, 8136, 8130, 8109, 8103, 8124, 8084,2.410154104232788,XXXXX
48, 8108, 8148, 8093, 8096, 8136, 8141, 8142, 8115, 8139, 8125, 8112, 8103, 8125, 8092,2.4181113243103027,XXXXX
49, 8127, 8191, 8122, 8109, 8141, 8153, 8148, 8128, 8145, 8129, 8133, 8122, 8144, 8112,2.424233913421631,XXXXX
50, 8135, 8171, 8123, 8110, 8134, 8146, 8150, 8138, 8151, 8133, 8136, 8123, 8158, 8119,2.432077169418335,XXXXX
51, 8145, 8173, 8132, 8103, 8135, 8145, 8164, 8149, 8154, 8132, 8126, 8133, 8149, 8127,2.439990282058716,XXXXX
52, 8140, 8175, 8126, 8104, 8137, 8153, 8178, 8164, 8154, 8135, 8118, 8126, 8135, 8123,2.4492011070251465,XXXXX
53, 8119, 8148, 8110, 8102, 8130, 8150, 8170, 8163, 8149, 8130, 8104, 8109, 8126, 8112,2.456947088241577,XXXXX
54, 8118, 8171, 8109, 8097, 8118, 8142, 8161, 8142, 8138, 8110, 8092, 8109, 8118, 8109,2.4647421836853027,XXXXX
55, 8127, 8149, 8100, 8096, 8115, 8150, 8166, 8133, 8134, 8098, 8092, 8103, 8112, 8108,2.472649335861206,XXXXX
56, 8129, 8160, 8107, 8091, 8132, 8168, 8176, 8138, 8141, 8101, 8095, 8112, 8113, 8110,2.4804067611694336,XXXXX
57, 8110, 8176, 8097, 8078, 8129, 8167, 8169, 8137, 8131, 8102, 8082, 8096, 8102, 8099,2.488340139389038,XXXXX
58, 8085, 8141, 8068, 8066, 8099, 8153, 8155, 8123, 8116, 8096, 8065, 8066, 8082, 8071,2.496140480041504,XXXXX
59, 8099, 8167, 8080, 8076, 8103, 8153, 8165, 8126, 8130, 8095, 8085, 8089, 8093, 8073,2.5038468837738037,XXXXX
60, 8127, 8165, 8111, 8098, 8132, 8164, 8179, 8150, 8148, 8110, 8123, 8122, 8126, 8106,2.5116915702819824,XXXXX
61, 8136, 8169, 8130, 8107, 8139, 8170, 8179, 8153, 8148, 8129, 8130, 8136, 8142, 8129,2.5194056034088135,XXXXX
62, 8131, 8178, 8119, 8103, 8129, 8163, 8167, 8140, 8144, 8132, 8118, 8123, 8131, 8120,2.5271918773651123,XXXXX
63, 8122, 8148, 8108, 8101, 8124, 8151, 8158, 8136, 8143, 8124, 8108, 8111, 8121, 8105,2.5351526737213135,XXXXX
64, 8119, 8171, 8123, 8101, 8128, 8149, 8162, 8139, 8145, 8126, 8105, 8123, 8123, 8110,2.543046236038208,XXXXX
65, 8114, 8154, 8119, 8100, 8131, 8151, 8162, 8142, 8146, 8133, 8111, 8112, 8124, 8113,2.5525999069213867,XXXXX
66, 8119, 8149, 8114, 8103, 8127, 8161, 8165, 8149, 8142, 8133, 8108, 8108, 8127, 8108,2.559072494506836,XXXXX
67, 8134, 8169, 8122, 8105, 8129, 8178, 8179, 8161, 8145, 8131, 8105, 8120, 8131, 8112,2.5670228004455566,XXXXX
68, 8135, 8136, 8125, 8108, 8127, 8167, 8173, 8162, 8153, 8134, 8122, 8125, 8139, 8120,2.5749378204345703,XXXXX
69, 8116, 8146, 8122, 8101, 8107, 8143, 8154, 8146, 8149, 8134, 8127, 8120, 8132, 8112,2.582981586456299,XXXXX
70, 8087, 8128, 8097, 8081, 8094, 8138, 8142, 8131, 8133, 8119, 8102, 8088, 8106, 8084,2.5910255908966064,XXXXX
71, 8085, 8120, 8096, 8070, 8100, 8136, 8138, 8127, 8130, 8099, 8089, 8085, 8097, 8074,2.5988967418670654,XXXXX
72, 8095, 8151, 8106, 8076, 8102, 8124, 8138, 8130, 8135, 8098, 8101, 8102, 8113, 8079,2.6067569255828857,XXXXX
73, 8089, 8132, 8098, 8081, 8098, 8116, 8136, 8131, 8136, 8111, 8104, 8094, 8119, 8079,2.6131160259246826,XXXXX
74, 8087, 8145, 8099, 8075, 8093, 8123, 8133, 8122, 8133, 8102, 8086, 8092, 8104, 8079,2.6225123405456543,XXXXX
75, 8086, 8136, 8090, 8067, 8089, 8121, 8127, 8116, 8123, 8095, 8075, 8085, 8092, 8072,2.630589008331299,XXXXX
76, 8098, 8138, 8103, 8072, 8112, 8122, 8137, 8125, 8130, 8116, 8095, 8093, 8105, 8082,2.6370418071746826,XXXXX
77, 8109, 8172, 8121, 8079, 8129, 8128, 8140, 8122, 8136, 8118, 8105, 8102, 8111, 8095,2.6449761390686035,XXXXX
78, 8096, 8139, 8106, 8072, 8108, 8123, 8120, 8109, 8125, 8102, 8079, 8089, 8098, 8085,2.6545655727386475,XXXXX
79, 8089, 8149, 8097, 8066, 8094, 8131, 8124, 8118, 8135, 8107, 8066, 8091, 8097, 8079,2.6609556674957275,XXXXX
80, 8084, 8148, 8086, 8070, 8101, 8138, 8132, 8135, 8150, 8119, 8076, 8079, 8101, 8076,2.6690428256988525,XXXXX
81, 8077, 8125, 8077, 8054, 8097, 8126, 8121, 8122, 8140, 8114, 8073, 8070, 8094, 8069,2.677008628845215,XXXXX
82, 8083, 8149, 8085, 8047, 8090, 8120, 8113, 8108, 8131, 8111, 8067, 8086, 8094, 8075,2.6850855350494385,XXXXX
83, 8083, 8127, 8083, 8064, 8098, 8121, 8110, 8107, 8134, 8113, 8073, 8088, 8099, 8073,2.6933391094207764,XXXXX
84, 8073, 8136, 8082, 8061, 8099, 8126, 8110, 8102, 8134, 8100, 8075, 8079, 8095, 8064,2.7006421089172363,XXXXX
85, 8071, 8140, 8078, 8050, 8097, 8129, 8113, 8113, 8136, 8101, 8074, 8072, 8095, 8065,2.708479404449463,XXXXX
86, 8077, 8123, 8085, 8056, 8100, 8129, 8121, 8126, 8141, 8124, 8085, 8083, 8103, 8070,2.716402530670166,XXXXX
87, 8078, 8146, 8091, 8057, 8101, 8124, 8124, 8113, 8138, 8126, 8098, 8091, 8107, 8065,2.7243587970733643,XXXXX
88, 8072, 8112, 8073, 8044, 8098, 8114, 8111, 8099, 8129, 8109, 8090, 8071, 8099, 8054,2.7321009635925293,XXXXX
89, 8077, 8115, 8080, 8041, 8097, 8109, 8106, 8100, 8129, 8100, 8067, 8074, 8094, 8057,2.7399678230285645,XXXXX
90, 8084, 8134, 8091, 8056, 8097, 8106, 8115, 8102, 8134, 8111, 8070, 8089, 8099, 8064,2.747727870941162,XXXXX
91, 8092, 8120, 8091, 8074, 8097, 8105, 8120, 8107, 8137, 8122, 8097, 8095, 8110, 8069,2.755464792251587,XXXXX
92, 8093, 8141, 8094, 8068, 8100, 8107, 8106, 8109, 8140, 8119, 8095, 8096, 8108, 8067,2.763176918029785,XXXXX
93, 8072, 8113, 8081, 8039, 8089, 8100, 8085, 8089, 8125, 8102, 8075, 8081, 8093, 8052,2.770989179611206,XXXXX
94, 8074, 8118, 8090, 8045, 8078, 8105, 8095, 8085, 8115, 8090, 8090, 8084, 8099, 8062,2.7802021503448486,XXXXX
95, 8086, 8136, 8094, 8068, 8088, 8116, 8114, 8102, 8125, 8110, 8104, 8085, 8107, 8073,2.7879533767700195,XXXXX
96, 8076, 8113, 8083, 8054, 8099, 8114, 8107, 8106, 8133, 8124, 8078, 8077, 8095, 8059,2.795821189880371,XXXXX
97, 8076, 8140, 8091, 8038, 8098, 8112, 8101, 8102, 8134, 8109, 8075, 8083, 8092, 8057,2.8036482334136963,XXXXX
98, 8082, 8124, 8089, 8055, 8088, 8114, 8102, 8105, 8129, 8105, 8101, 8071, 8104, 8067,2.811350107192993,XXXXX
99, 8085, 8122, 8093, 8066, 8081, 8114, 8103, 8102, 8133, 8119, 8096, 8074, 8107, 8072,2.819032907485962,XXXXX
100, 8085, 8139, 8097, 8060, 8092, 8114, 8106, 8100, 8146, 8118, 8080, 8081, 8100, 8073,2.826754093170166,XXXXX
101, 8076, 8113, 8080, 8056, 8100, 8116, 8101, 8100, 8132, 8098, 8078, 8073, 8091, 8067,2.8345580101013184,XXXXX
102, 8068, 8129, 8076, 8049, 8085, 8107, 8093, 8092, 8113, 8093, 8078, 8075, 8092, 8060,2.842273235321045,XXXXX
103, 8060, 8109, 8077, 8040, 8073, 8091, 8086, 8080, 8118, 8099, 8077, 8069, 8091, 8052,2.8501486778259277,XXXXX
104, 8061, 8107, 8077, 8042, 8079, 8093, 8082, 8074, 8125, 8099, 8076, 8068, 8082, 8049,2.858102560043335,XXXXX
105, 8070, 8138, 8071, 8045, 8090, 8100, 8083, 8086, 8124, 8101, 8074, 8068, 8084, 8048,2.8665733337402344,XXXXX
106, 8066, 8112, 8063, 8041, 8096, 8095, 8083, 8098, 8122, 8099, 8075, 8062, 8088, 8050,2.874513864517212,XXXXX
107, 8061, 8125, 8068, 8036, 8089, 8096, 8086, 8089, 8124, 8099, 8076, 8067, 8089, 8056,2.880971908569336,XXXXX
108, 8057, 8112, 8065, 8031, 8073, 8091, 8080, 8083, 8122, 8102, 8073, 8064, 8085, 8050,2.890519380569458,XXXXX
109, 8061, 8105, 8074, 8036, 8073, 8089, 8074, 8086, 8118, 8101, 8076, 8077, 8080, 8054,2.898458242416382,XXXXX
110, 8071, 8130, 8077, 8044, 8090, 8098, 8077, 8085, 8114, 8094, 8086, 8083, 8085, 8067,2.906402349472046,XXXXX
111, 8071, 8103, 8068, 8039, 8096, 8099, 8076, 8088, 8118, 8098, 8098, 8067, 8097, 8065,2.9144394397735596,XXXXX
112, 8075, 8127, 8086, 8044, 8093, 8105, 8079, 8100, 8127, 8113, 8107, 8084, 8104, 8069,2.9223499298095703,XXXXX
113, 8075, 8131, 8092, 8061, 8094, 8114, 8078, 8102, 8127, 8113, 8105, 8093, 8098, 8075,2.9303462505340576,XXXXX
114, 8077, 8117, 8100, 8068, 8099, 8113, 8079, 8096, 8126, 8104, 8098, 8087, 8101, 8075,2.936619281768799,XXXXX
115, 8094, 8144, 8116, 8069, 8102, 8114, 8097, 8102, 8125, 8102, 8108, 8096, 8111, 8078,2.9445085525512695,XXXXX
116, 8104, 8121, 8116, 8075, 8103, 8124, 8106, 8107, 8123, 8104, 8121, 8103, 8114, 8083,2.952270269393921,XXXXX
117, 8102, 8130, 8117, 8075, 8107, 8131, 8101, 8096, 8127, 8103, 8116, 8109, 8112, 8086,2.9601528644561768,XXXXX
118, 8082, 8121, 8102, 8064, 8102, 8115, 8084, 8079, 8119, 8101, 8100, 8087, 8092, 8066,2.96806263923645,XXXXX
119, 8075, 8105, 8095, 8061, 8092, 8101, 8074, 8078, 8108, 8093, 8095, 8076, 8077, 8049,2.975966691970825,XXXXX
120, 8095, 8149, 8113, 8071, 8094, 8114, 8087, 8096, 8115, 8101, 8110, 8101, 8097, 8068,2.9854862689971924,XXXXX
121, 8103, 8132, 8118, 8078, 8108, 8130, 8104, 8105, 8129, 8121, 8134, 8113, 8121, 8088,2.991866111755371,XXXXX
122, 8097, 8124, 8118, 8068, 8112, 8132, 8106, 8101, 8135, 8111, 8128, 8115, 8112, 8088,2.9997973442077637,XXXXX
123, 8090, 8121, 8106, 8060, 8100, 8121, 8088, 8099, 8127, 8098, 8101, 8104, 8089, 8072,3.0077459812164307,XXXXX
124, 8099, 8113, 8110, 8080, 8097, 8117, 8090, 8096, 8119, 8104, 8109, 8110, 8093, 8076,3.015688419342041,XXXXX
125, 8121, 8149, 8139, 8102, 8109, 8135, 8117, 8099, 8123, 8108, 8134, 8131, 8117, 8103,3.0237739086151123,XXXXX
126, 8125, 8120, 8133, 8099, 8110, 8144, 8125, 8113, 8126, 8114, 8137, 8127, 8125, 8111,3.0314748287200928,XXXXX
127, 8124, 8119, 8125, 8092, 8101, 8137, 8116, 8117, 8134, 8121, 8134, 8131, 8119, 8108,3.0393805503845215,XXXXX
239, 8127, 8129, 8128, 8095, 8102, 8131, 8110, 8121, 8139, 8119, 8131, 8134, 8119, 8108,3.0471365451812744,XXXXX
0, 8130, 8111, 8134, 8096, 8101, 8128, 8111, 8127, 8139, 8123, 8138, 8135, 8132, 8116,3.0551559925079346,XXXXX
1, 8134, 8143, 8144, 8100, 8105, 8136, 8119, 8127, 8147, 8135, 8159, 8141, 8135, 8121,3.062941551208496,XXXXX
2, 8133, 8122, 8136, 8109, 8127, 8144, 8122, 8127, 8153, 8135, 8157, 8129, 8130, 8114,3.0723378658294678,XXXXX
3, 8141, 8122, 8141, 8109, 8137, 8147, 8124, 8126, 8146, 8127, 8140, 8140, 8138, 8124,3.078591823577881,XXXXX
4, 8144, 8140, 8142, 8103, 8117, 8144, 8121, 8119, 8141, 8126, 8152, 8149, 8142, 8132,3.086455821990967,XXXXX
5, 8137, 8108, 8135, 8100, 8099, 8138, 8116, 8111, 8141, 8132, 8161, 8139, 8136, 8119,3.094322443008423,XXXXX
6, 8133, 8120, 8142, 8097, 8101, 8137, 8119, 8106, 8134, 8122, 8138, 8141, 8129, 8106,3.102263927459717,XXXXX
7, 8125, 8106, 8139, 8094, 8105, 8135, 8115, 8108, 8125, 8106, 8125, 8137, 8121, 8107,3.110145092010498,XXXXX
8, 8131, 8112, 8143, 8097, 8106, 8141, 8119, 8121, 8134, 8113, 8142, 8148, 8132, 8119,3.1179959774017334,XXXXX
9, 8142, 8132, 8147, 8103, 8109, 8151, 8141, 8144, 8153, 8139, 8161, 8150, 8151, 8120,3.127091407775879,XXXXX
10, 8135, 8103, 8139, 8098, 8104, 8149, 8140, 8157, 8158, 8149, 8152, 8137, 8144, 8110,3.1347978115081787,XXXXX
11, 8133, 8126, 8144, 8096, 8100, 8142, 8121, 8144, 8146, 8134, 8138, 8143, 8134, 8111,3.140944242477417,XXXXX
12, 8150, 8126, 8157, 8121, 8117, 8141, 8123, 8141, 8148, 8134, 8156, 8152, 8151, 8125,3.1490423679351807,XXXXX
13, 8165, 8125, 8174, 8135, 8133, 8151, 8144, 8164, 8167, 8153, 8170, 8170, 8171, 8141,3.1570727825164795,XXXXX
14, 8151, 8137, 8158, 8111, 8128, 8153, 8150, 8164, 8162, 8149, 8144, 8164, 8160, 8130,3.16506028175354,XXXXX
15, 8120, 8097, 8126, 8092, 8119, 8148, 8139, 8131, 8139, 8128, 8121, 8129, 8134, 8099,3.172973155975342,XXXXX
16, 8111, 8115, 8136, 8104, 8113, 8150, 8135, 8125, 8136, 8120, 8124, 8128, 8126, 8095,3.1810648441314697,XXXXX
17, 8109, 8114, 8134, 8106, 8101, 8142, 8123, 8133, 8140, 8116, 8125, 8129, 8124, 8097,3.189053535461426,XXXXX
18, 8115, 8110, 8128, 8098, 8098, 8138, 8121, 8126, 8135, 8102, 8123, 8130, 8119, 8098,3.1969289779663086,XXXXX
19, 8127, 8131, 8135, 8098, 8106, 8146, 8135, 8129, 8141, 8114, 8123, 8137, 8123, 8108,3.206422805786133,XXXXX
20, 8117, 8089, 8121, 8087, 8102, 8138, 8131, 8142, 8149, 8132, 8111, 8126, 8119, 8103,3.2128748893737793,XXXXX
21, 8105, 8103, 8113, 8072, 8099, 8130, 8123, 8144, 8149, 8115, 8101, 8119, 8107, 8084,3.2208611965179443,XXXXX
22, 8101, 8107, 8104, 8069, 8103, 8132, 8124, 8130, 8137, 8098, 8104, 8106, 8104, 8071,3.228907585144043,XXXXX
23, 8107, 8095, 8107, 8076, 8101, 8135, 8126, 8121, 8132, 8110, 8103, 8104, 8108, 8077,3.2366137504577637,XXXXX
24, 8128, 8130, 8131, 8095, 8110, 8141, 8135, 8142, 8149, 8131, 8112, 8126, 8119, 8097,3.244349956512451,XXXXX
25, 8139, 8106, 8137, 8106, 8116, 8144, 8146, 8162, 8159, 8135, 8125, 8136, 8131, 8115,3.2520949840545654,XXXXX
26, 8135, 8113, 8134, 8095, 8107, 8143, 8146, 8155, 8157, 8135, 8117, 8134, 8136, 8119,3.2600526809692383,XXXXX
27, 8132, 8123, 8134, 8101, 8110, 8142, 8142, 8159, 8157, 8139, 8122, 8128, 8142, 8114,3.2683024406433105,XXXXX
28, 8138, 8115, 8146, 8123, 8119, 8145, 8146, 8164, 8156, 8133, 8135, 8141, 8146, 8116,3.275731086730957,XXXXX
29, 8139, 8133, 8145, 8116, 8106, 8144, 8146, 8144, 8150, 8124, 8118, 8147, 8132, 8117,3.283688545227051,XXXXX
30, 8129, 8102, 8127, 8098, 8095, 8135, 8140, 8141, 8144, 8125, 8106, 8127, 8127, 8110,3.29145884513855,XXXXX
31, 8125, 8112, 8134, 8100, 8105, 8138, 8145, 8162, 8151, 8132, 8129, 8134, 8140, 8110,3.2991855144500732,XXXXX
32, 8119, 8116, 8129, 8101, 8105, 8138, 8144, 8160, 8152, 8138, 8128, 8128, 8131, 8104,3.3070144653320312,XXXXX
33, 8121, 8095, 8121, 8096, 8100, 8141, 8150, 8154, 8146, 8132, 8109, 8116, 8123, 8102,3.3162355422973633,XXXXX
34, 8136, 8129, 8137, 8105, 8105, 8148, 8162, 8161, 8146, 8129, 8117, 8129, 8139, 8113,3.3240227699279785,XXXXX
35, 8140, 8109, 8142, 8113, 8104, 8142, 8151, 8157, 8146, 8143, 8130, 8133, 8149, 8116,3.3313703536987305,XXXXX
36, 8147, 8113, 8152, 8119, 8117, 8140, 8155, 8156, 8153, 8158, 8147, 8151, 8160, 8126,3.338151693344116,XXXXX
37, 8145, 8127, 8152, 8129, 8134, 8145, 8174, 8171, 8162, 8153, 8160, 8156, 8169, 8130,3.34700608253479,XXXXX
38, 8132, 8096, 8139, 8125, 8135, 8144, 8159, 8166, 8154, 8135, 8142, 8145, 8153, 8117,3.3548483848571777,XXXXX
39, 8135, 8115, 8141, 8108, 8131, 8135, 8129, 8138, 8140, 8127, 8123, 8149, 8140, 8114,3.3625452518463135,XXXXX
40, 8136, 8107, 8139, 8103, 8116, 8119, 8125, 8126, 8135, 8133, 8132, 8138, 8143, 8119,3.3702969551086426,XXXXX
41, 8134, 8117, 8141, 8114, 8103, 8123, 8144, 8137, 8143, 8137, 8133, 8136, 8146, 8120,3.378145456314087,XXXXX
42, 8110, 8119, 8116, 8098, 8099, 8119, 8127, 8126, 8132, 8121, 8109, 8122, 8126, 8093,3.3875129222869873,XXXXX
43, 8079, 8077, 8081, 8070, 8077, 8086, 8080, 8088, 8104, 8091, 8090, 8093, 8089, 8057,3.395479679107666,XXXXX
44, 8091, 8115, 8098, 8081, 8061, 8085, 8086, 8089, 8103, 8090, 8090, 8102, 8091, 8061,3.4017248153686523,XXXXX
45, 8108, 8125, 8115, 8102, 8085, 8114, 8120, 8129, 8125, 8121, 8109, 8115, 8121, 8086,3.4096455574035645,XXXXX
46, 8098, 8115, 8111, 8098, 8100, 8118, 8125, 8138, 8133, 8128, 8110, 8112, 8120, 8087,3.4177143573760986,XXXXX
47, 8095, 8128, 8105, 8102, 8089, 8107, 8125, 8121, 8128, 8112, 8093, 8107, 8099, 8072,3.4256556034088135,XXXXX
48, 8119, 8117, 8122, 8128, 8116, 8127, 8146, 8138, 8141, 8123, 8108, 8125, 8119, 8092,3.433772087097168,XXXXX
49, 8139, 8142, 8148, 8136, 8144, 8146, 8154, 8157, 8158, 8142, 8136, 8149, 8139, 8122,3.4416444301605225,XXXXX
50, 8124, 8117, 8133, 8125, 8119, 8128, 8136, 8138, 8148, 8138, 8135, 8135, 8130, 8111,3.4496283531188965,XXXXX
51, 8114, 8105, 8124, 8127, 8093, 8122, 8136, 8121, 8136, 8136, 8127, 8136, 8130, 8104,3.457563638687134,XXXXX
52, 8126, 8134, 8133, 8127, 8103, 8136, 8146, 8124, 8130, 8136, 8130, 8146, 8134, 8113,3.464000701904297,XXXXX
53, 8127, 8107, 8133, 8112, 8110, 8133, 8143, 8125, 8120, 8125, 8124, 8135, 8130, 8108,3.4735021591186523,XXXXX
54, 8124, 8125, 8136, 8102, 8095, 8133, 8148, 8123, 8124, 8122, 8125, 8139, 8131, 8110,3.4814367294311523,XXXXX
55, 8118, 8116, 8124, 8104, 8103, 8141, 8152, 8132, 8135, 8135, 8128, 8130, 8129, 8111,3.489415407180786,XXXXX
56, 8116, 8099, 8122, 8104, 8127, 8140, 8148, 8135, 8139, 8141, 8110, 8127, 8124, 8102,3.4975554943084717,XXXXX
57, 8125, 8129, 8133, 8103, 8125, 8146, 8152, 8134, 8146, 8140, 8109, 8142, 8131, 8105,3.504016637802124,XXXXX
58, 8129, 8106, 8128, 8105, 8106, 8152, 8159, 8150, 8152, 8150, 8133, 8145, 8139, 8117,3.513437509536743,XXXXX
59, 8137, 8119, 8133, 8110, 8102, 8141, 8160, 8153, 8145, 8162, 8137, 8150, 8139, 8122,3.5212137699127197,XXXXX
60, 8149, 8118, 8139, 8124, 8120, 8139, 8162, 8145, 8141, 8162, 8129, 8149, 8145, 8125,3.5291967391967773,XXXXX
61, 8160, 8108, 8155, 8136, 8136, 8162, 8179, 8153, 8150, 8157, 8137, 8162, 8157, 8142,3.5355403423309326,XXXXX
62, 8153, 8138, 8162, 8139, 8138, 8166, 8193, 8164, 8152, 8154, 8141, 8174, 8157, 8149,3.5435197353363037,XXXXX
63, 8148, 8113, 8148, 8145, 8143, 8152, 8180, 8159, 8143, 8149, 8129, 8162, 8142, 8137,3.5513834953308105,XXXXX
64, 8169, 8132, 8165, 8148, 8152, 8164, 8177, 8157, 8147, 8142, 8131, 8171, 8147, 8146,3.559262275695801,XXXXX
65, 8176, 8141, 8172, 8146, 8146, 8176, 8192, 8166, 8156, 8152, 8146, 8179, 8162, 8163,3.567135810852051,XXXXX
66, 8161, 8107, 8153, 8136, 8134, 8162, 8185, 8166, 8155, 8156, 8135, 8164, 8151, 8151,3.5750770568847656,XXXXX
67, 8146, 8119, 8141, 8115, 8124, 8152, 8169, 8152, 8151, 8143, 8102, 8142, 8129, 8127,3.58297061920166,XXXXX
68, 8136, 8098, 8133, 8109, 8107, 8146, 8161, 8146, 8145, 8147, 8103, 8132, 8122, 8120,3.592369318008423,XXXXX
69, 8141, 8112, 8142, 8123, 8104, 8150, 8165, 8151, 8145, 8153, 8131, 8158, 8139, 8130,3.598621129989624,XXXXX
70, 8139, 8121, 8142, 8123, 8118, 8162, 8163, 8153, 8140, 8139, 8129, 8159, 8144, 8126,3.606525421142578,XXXXX
71, 8138, 8103, 8138, 8116, 8126, 8157, 8156, 8149, 8136, 8138, 8117, 8149, 8139, 8123,3.6144161224365234,XXXXX
72, 8151, 8138, 8146, 8127, 8128, 8154, 8159, 8157, 8148, 8156, 8129, 8168, 8153, 8134,3.6221916675567627,XXXXX
73, 8150, 8117, 8143, 8130, 8126, 8164, 8163, 8161, 8151, 8158, 8139, 8168, 8159, 8128,3.6300318241119385,XXXXX
74, 8151, 8121, 8147, 8125, 8123, 8170, 8171, 8156, 8144, 8146, 8131, 8162, 8155, 8124,3.63800048828125,XXXXX
75, 8162, 8139, 8150, 8130, 8125, 8160, 8172, 8162, 8144, 8142, 8128, 8167, 8155, 8136,3.6473004817962646,XXXXX
76, 8160, 8110, 8147, 8123, 8123, 8153, 8169, 8165, 8148, 8135, 8128, 8169, 8148, 8141,3.655116081237793,XXXXX
77, 8152, 8130, 8151, 8111, 8120, 8163, 8179, 8157, 8148, 8137, 8122, 8168, 8139, 8132,3.6613144874572754,XXXXX
78, 8153, 8122, 8144, 8123, 8129, 8171, 8185, 8166, 8149, 8157, 8120, 8155, 8151, 8129,3.6691131591796875,XXXXX
79, 8167, 8125, 8159, 8141, 8144, 8175, 8189, 8191, 8164, 8176, 8140, 8171, 8171, 8146,3.6770904064178467,XXXXX
80, 8172, 8134, 8165, 8135, 8141, 8165, 8181, 8191, 8172, 8183, 8160, 8180, 8168, 8148,3.6851508617401123,XXXXX
