COUNTER,F3, FC5,AF3,F7,T7,P7,O1,O2,P8,T8,F8,AF4,FC6,F4,Timestamp
65, 8184, 8212, 8161, 8153, 8210, 8164, 8179, 8157, 8163, 8176, 8183, 8200, 8220, 8288,0.006218671798706055
66, 8179, 8198, 8158, 8134, 8202, 8174, 8172, 8164, 8167, 8177, 8165, 8191, 8213, 8280,0.014185667037963867
67, 8150, 8183, 8130, 8111, 8169, 8157, 8127, 8155, 8149, 8167, 8148, 8175, 8201, 8270,0.02538442611694336
68, 8149, 8188, 8150, 8115, 8199, 8151, 8171, 8167, 8149, 8158, 8164, 8171, 8197, 8261,0.030193567276000977
69, 8144, 8179, 8155, 8129, 8209, 8157, 8165, 8167, 8180, 8165, 8172, 8164, 8202, 8245,0.038196563720703125
70, 8137, 8174, 8142, 8128, 8214, 8155, 8158, 8171, 8190, 8183, 8167, 8160, 8206, 8244,0.046350955963134766
71, 8152, 8173, 8159, 8121, 8207, 8155, 8165, 8184, 8181, 8196, 8169, 8170, 8205, 8264,0.05327630043029785
72, 8136, 8157, 8151, 8109, 8188, 8164, 8138, 8173, 8187, 8195, 8161, 8159, 8200, 8257,0.062241315841674805
73, 8140, 8159, 8179, 8097, 8253, 8180, 8238, 8186, 8176, 8172, 8156, 8141, 8183, 8226,0.0693364143371582
74, 8139, 8166, 8176, 8104, 8206, 8173, 8193, 8168, 8155, 8161, 8165, 8140, 8172, 8226,0.07719826698303223
75, 8108, 8159, 8117, 8106, 8130, 8152, 8079, 8129, 8143, 8146, 8157, 8136, 8161, 8231,0.0852503776550293
76, 8127, 8155, 8133, 8100, 8178, 8156, 8148, 8139, 8124, 8110, 8143, 8141, 8153, 8231,0.09336543083190918
77, 8150, 8163, 8155, 8109, 8205, 8164, 8180, 8144, 8108, 8099, 8151, 8160, 8162, 8257,0.10146188735961914
78, 8178, 8188, 8198, 8125, 8252, 8166, 8236, 8160, 8109, 8117, 8160, 8174, 8158, 8272,0.10940408706665039
79, 8185, 8193, 8200, 8130, 8213, 8163, 8183, 8159, 8136, 8148, 8169, 8178, 8171, 8270,0.11735272407531738
80, 8174, 8186, 8159, 8145, 8180, 8158, 8121, 8157, 8166, 8165, 8177, 8184, 8198, 8283,0.12424039840698242
81, 8204, 8199, 8195, 8158, 8239, 8158, 8195, 8176, 8169, 8164, 8172, 8189, 8193, 8297,0.1325080394744873
82, 8199, 8201, 8186, 8156, 8209, 8153, 8144, 8155, 8172, 8185, 8174, 8186, 8196, 8302,0.14341521263122559
83, 8192, 8196, 8169, 8150, 8219, 8157, 8158, 8164, 8177, 8192, 8185, 8194, 8219, 8309,0.14843130111694336
84, 8193, 8186, 8169, 8142, 8223, 8164, 8178, 8180, 8182, 8186, 8179, 8195, 8221, 8310,0.1562798023223877
85, 8171, 8175, 8145, 8150, 8192, 8168, 8135, 8167, 8190, 8198, 8165, 8179, 8202, 8291,0.16420817375183105
86, 8172, 8173, 8171, 8167, 8209, 8171, 8178, 8174, 8190, 8197, 8164, 8174, 8179, 8263,0.17125678062438965
87, 8144, 8156, 8146, 8152, 8171, 8157, 8143, 8157, 8184, 8180, 8159, 8164, 8160, 8241,0.17942285537719727
88, 8124, 8151, 8125, 8131, 8183, 8156, 8160, 8155, 8165, 8158, 8152, 8139, 8141, 8216,0.18739700317382812
89, 8147, 8167, 8160, 8158, 8201, 8164, 8179, 8167, 8156, 8159, 8166, 8144, 8143, 8218,0.19551563262939453
90, 8152, 8171, 8164, 8188, 8191, 8161, 8134, 8164, 8161, 8169, 8174, 8166, 8160, 8249,0.20434117317199707
91, 8166, 8173, 8183, 8183, 8227, 8155, 8174, 8170, 8145, 8142, 8165, 8178, 8160, 8263,0.2114551067352295
92, 8184, 8194, 8181, 8199, 8203, 8139, 8142, 8157, 8130, 8126, 8173, 8189, 8178, 8269,0.219252347946167
93, 8204, 8222, 8180, 8227, 8200, 8137, 8147, 8161, 8137, 8157, 8183, 8200, 8196, 8289,0.22741222381591797
94, 8210, 8215, 8190, 8217, 8200, 8141, 8173, 8169, 8151, 8183, 8176, 8199, 8190, 8293,0.23529267311096191
95, 8184, 8192, 8167, 8194, 8181, 8131, 8133, 8157, 8162, 8178, 8170, 8188, 8193, 8274,0.24239444732666016
96, 8202, 8193, 8190, 8196, 8216, 8140, 8177, 8172, 8169, 8171, 8171, 8185, 8191, 8269,0.25020933151245117
97, 8207, 8193, 8182, 8202, 8191, 8153, 8153, 8170, 8170, 8169, 8159, 8186, 8177, 8278,0.25844430923461914
98, 8170, 8185, 8149, 8190, 8198, 8160, 8148, 8163, 8164, 8171, 8152, 8167, 8165, 8247,0.2663249969482422
99, 8160, 8181, 8159, 8186, 8223, 8168, 8179, 8171, 8172, 8196, 8170, 8144, 8167, 8205,0.2743418216705322
100, 8160, 8183, 8145, 8192, 8189, 8164, 8138, 8169, 8192, 8204, 8170, 8135, 8167, 8207,0.28235483169555664
101, 8166, 8190, 8150, 8192, 8212, 8167, 8182, 8188, 8181, 8182, 8155, 8143, 8149, 8223,0.29125189781188965
102, 8155, 8189, 8149, 8193, 8208, 8186, 8169, 8188, 8182, 8200, 8168, 8154, 8160, 8235,0.29824352264404297
103, 8144, 8180, 8137, 8192, 8204, 8189, 8153, 8175, 8195, 8213, 8176, 8152, 8173, 8230,0.30527353286743164
104, 8151, 8170, 8157, 8191, 8213, 8170, 8187, 8169, 8164, 8171, 8163, 8141, 8141, 8207,0.31319332122802734
105, 8134, 8170, 8144, 8188, 8186, 8167, 8147, 8159, 8150, 8164, 8158, 8140, 8131, 8205,0.32140135765075684
106, 8151, 8198, 8162, 8187, 8220, 8179, 8177, 8176, 8169, 8189, 8165, 8153, 8157, 8217,0.32921504974365234
107, 8178, 8210, 8180, 8205, 8207, 8169, 8156, 8166, 8173, 8198, 8173, 8166, 8173, 8223,0.33818507194519043
108, 8185, 8204, 8179, 8228, 8204, 8163, 8151, 8160, 8167, 8191, 8176, 8176, 8170, 8233,0.3452568054199219
109, 8192, 8209, 8184, 8226, 8223, 8167, 8186, 8175, 8159, 8184, 8175, 8181, 8181, 8249,0.35344481468200684
110, 8150, 8202, 8127, 8207, 8167, 8159, 8101, 8163, 8163, 8201, 8174, 8167, 8200, 8248,0.3614006042480469
111, 8147, 8200, 8137, 8199, 8221, 8161, 8168, 8193, 8174, 8203, 8171, 8157, 8185, 8229,0.36940908432006836
112, 8185, 8199, 8194, 8199, 8269, 8168, 8238, 8220, 8187, 8191, 8171, 8170, 8175, 8237,0.3761789798736572
113, 8146, 8174, 8143, 8188, 8197, 8163, 8129, 8182, 8188, 8193, 8172, 8166, 8180, 8254,0.3844327926635742
114, 8108, 8157, 8104, 8185, 8180, 8166, 8115, 8157, 8174, 8190, 8165, 8144, 8155, 8228,0.39339113235473633
115, 8135, 8168, 8145, 8189, 8216, 8181, 8184, 8166, 8172, 8179, 8160, 8146, 8148, 8209,0.400439977645874
116, 8157, 8178, 8174, 8176, 8231, 8182, 8200, 8178, 8174, 8183, 8158, 8155, 8168, 8231,0.4083535671234131
117, 8119, 8156, 8130, 8154, 8186, 8161, 8136, 8158, 8157, 8174, 8148, 8130, 8158, 8230,0.4162485599517822
118, 8092, 8138, 8105, 8156, 8177, 8156, 8132, 8134, 8141, 8145, 8144, 8110, 8138, 8200,0.4244551658630371
119, 8134, 8150, 8154, 8177, 8201, 8184, 8175, 8150, 8152, 8150, 8160, 8139, 8151, 8215,0.4354069232940674
120, 8155, 8164, 8152, 8189, 8173, 8195, 8125, 8162, 8176, 8188, 8166, 8160, 8171, 8252,0.4392130374908447
121, 8160, 8181, 8166, 8191, 8239, 8188, 8210, 8183, 8170, 8185, 8160, 8147, 8152, 8232,0.44732117652893066
122, 8148, 8182, 8191, 8190, 8237, 8182, 8222, 8165, 8158, 8173, 8159, 8137, 8134, 8189,0.4552497863769531
123, 8118, 8176, 8145, 8202, 8154, 8180, 8092, 8128, 8170, 8187, 8157, 8142, 8150, 8197,0.4634673595428467
124, 8174, 8197, 8179, 8221, 8227, 8194, 8188, 8176, 8189, 8188, 8167, 8168, 8172, 8235,0.4713585376739502
125, 8209, 8206, 8212, 8225, 8239, 8192, 8214, 8207, 8213, 8205, 8177, 8185, 8198, 8253,0.47942042350769043
126, 8150, 8194, 8152, 8214, 8169, 8178, 8105, 8183, 8211, 8223, 8166, 8159, 8192, 8231,0.4902808666229248
127, 8119, 8172, 8122, 8188, 8181, 8183, 8119, 8170, 8179, 8198, 8156, 8136, 8151, 8208,0.4954233169555664
238, 8143, 8152, 8145, 8171, 8215, 8194, 8179, 8166, 8166, 8168, 8158, 8154, 8142, 8225,0.5023281574249268
0, 8174, 8165, 8181, 8182, 8208, 8191, 8187, 8163, 8169, 8164, 8163, 8183, 8162, 8265,0.5104424953460693
1, 8163, 8181, 8167, 8202, 8166, 8176, 8121, 8140, 8161, 8161, 8174, 8186, 8167, 8279,0.5183100700378418
2, 8162, 8181, 8176, 8215, 8200, 8183, 8162, 8144, 8153, 8154, 8182, 8179, 8157, 8244,0.5263283252716064
3, 8183, 8196, 8201, 8247, 8199, 8195, 8165, 8154, 8167, 8172, 8190, 8197, 8176, 8228,0.5353572368621826
4, 8185, 8218, 8187, 8284, 8178, 8182, 8116, 8147, 8169, 8179, 8210, 8225, 8215, 8270,0.5421655178070068
5, 8224, 8215, 8248, 8285, 8260, 8170, 8255, 8174, 8138, 8152, 8215, 8244, 8217, 8298,0.5504195690155029
6, 8234, 8201, 8265, 8282, 8203, 8153, 8201, 8147, 8135, 8155, 8206, 8253, 8209, 8294,0.5581011772155762
7, 8224, 8229, 8227, 8310, 8148, 8142, 8093, 8123, 8146, 8172, 8213, 8269, 8228, 8307,0.5652775764465332
8, 8281, 8268, 8282, 8349, 8223, 8146, 8197, 8169, 8137, 8169, 8230, 8304, 8257, 8347,0.5744218826293945
9, 8270, 8252, 8259, 8354, 8181, 8132, 8152, 8160, 8145, 8181, 8225, 8312, 8274, 8365,0.5814027786254883
10, 8216, 8226, 8190, 8323, 8147, 8125, 8090, 8133, 8154, 8183, 8204, 8295, 8263, 8354,0.589409589767456
11, 8249, 8234, 8219, 8316, 8193, 8152, 8151, 8166, 8155, 8186, 8201, 8300, 8260, 8361,0.597358226776123
12, 8288, 8249, 8245, 8330, 8217, 8174, 8194, 8196, 8173, 8203, 8197, 8294, 8254, 8361,0.6054117679595947
13, 8255, 8239, 8200, 8308, 8186, 8165, 8152, 8158, 8168, 8177, 8168, 8248, 8212, 8311,0.6134109497070312
14, 8195, 8205, 8142, 8266, 8176, 8152, 8113, 8115, 8139, 8137, 8144, 8204, 8179, 8269,0.6213092803955078
15, 8198, 8186, 8183, 8241, 8253, 8162, 8237, 8146, 8126, 8136, 8155, 8196, 8164, 8259,0.6292309761047363
16, 8188, 8174, 8184, 8221, 8195, 8162, 8182, 8132, 8133, 8141, 8164, 8197, 8172, 8265,0.6362042427062988
17, 8171, 8189, 8138, 8225, 8152, 8145, 8083, 8103, 8132, 8133, 8157, 8203, 8192, 8298,0.6442713737487793
18, 8240, 8229, 8201, 8259, 8237, 8145, 8206, 8142, 8119, 8137, 8162, 8213, 8187, 8324,0.652214765548706
19, 8249, 8220, 8189, 8256, 8183, 8147, 8176, 8145, 8123, 8144, 8166, 8195, 8171, 8307,0.6611464023590088
20, 8205, 8196, 8138, 8224, 8146, 8142, 8150, 8146, 8130, 8122, 8146, 8173, 8161, 8271,0.6681864261627197
21, 8205, 8197, 8160, 8226, 8157, 8138, 8180, 8163, 8136, 8121, 8147, 8179, 8164, 8275,0.676302433013916
22, 8197, 8194, 8151, 8224, 8142, 8141, 8150, 8163, 8143, 8152, 8168, 8183, 8172, 8297,0.6841506958007812
23, 8198, 8180, 8156, 8191, 8169, 8150, 8189, 8176, 8142, 8157, 8171, 8173, 8167, 8290,0.6933286190032959
24, 8191, 8163, 8149, 8182, 8146, 8149, 8154, 8167, 8155, 8146, 8158, 8155, 8164, 8276,0.7001464366912842
25, 8183, 8161, 8150, 8187, 8157, 8148, 8163, 8161, 8152, 8128, 8146, 8139, 8145, 8256,0.7071812152862549
26, 8169, 8159, 8154, 8177, 8161, 8148, 8179, 8156, 8136, 8120, 8147, 8140, 8124, 8239,0.7153403759002686
27, 8143, 8155, 8135, 8178, 8146, 8158, 8150, 8162, 8153, 8134, 8157, 8142, 8138, 8240,0.7233536243438721
28, 8161, 8171, 8168, 8199, 8183, 8177, 8199, 8206, 8176, 8141, 8161, 8149, 8154, 8250,0.7314298152923584
29, 8153, 8181, 8165, 8208, 8150, 8167, 8147, 8205, 8184, 8155, 8168, 8165, 8166, 8262,0.7393040657043457
30, 8130, 8180, 8154, 8191, 8161, 8160, 8143, 8192, 8183, 8175, 8177, 8169, 8175, 8265,0.7472801208496094
31, 8127, 8167, 8169, 8160, 8191, 8188, 8188, 8195, 8190, 8179, 8175, 8164, 8169, 8268,0.7552106380462646
32, 8100, 8147, 8132, 8129, 8160, 8200, 8154, 8183, 8203, 8171, 8158, 8154, 8157, 8258,0.7622485160827637
33, 8116, 8146, 8143, 8117, 8184, 8183, 8188, 8190, 8184, 8157, 8149, 8145, 8146, 8241,0.7704019546508789
34, 8146, 8146, 8164, 8127, 8170, 8162, 8150, 8174, 8155, 8155, 8160, 8150, 8153, 8254,0.7782344818115234
35, 8138, 8142, 8149, 8126, 8164, 8157, 8143, 8160, 8143, 8142, 8156, 8147, 8140, 8262,0.7872593402862549
36, 8127, 8134, 8144, 8096, 8173, 8165, 8187, 8173, 8138, 8127, 8135, 8125, 8109, 8235,0.7942090034484863
37, 8115, 8121, 8129, 8074, 8142, 8173, 8146, 8179, 8143, 8127, 8138, 8115, 8112, 8224,0.802269458770752
38, 8138, 8130, 8156, 8087, 8174, 8177, 8186, 8193, 8146, 8114, 8156, 8138, 8124, 8247,0.8103747367858887
39, 8161, 8144, 8167, 8107, 8162, 8165, 8170, 8187, 8147, 8110, 8161, 8156, 8131, 8268,0.8192346096038818
40, 8168, 8148, 8154, 8103, 8155, 8157, 8156, 8191, 8152, 8127, 8153, 8154, 8131, 8275,0.8265256881713867
41, 8190, 8141, 8174, 8094, 8171, 8164, 8192, 8201, 8155, 8128, 8155, 8160, 8128, 8276,0.8334124088287354
42, 8170, 8138, 8155, 8101, 8138, 8166, 8140, 8188, 8168, 8134, 8165, 8169, 8137, 8281,0.8422179222106934
43, 8153, 8146, 8158, 8099, 8173, 8175, 8178, 8213, 8184, 8151, 8172, 8164, 8139, 8272,0.8492934703826904
44, 8152, 8135, 8157, 8089, 8167, 8177, 8172, 8217, 8190, 8162, 8167, 8150, 8137, 8250,0.8570680618286133
45, 8146, 8133, 8134, 8107, 8154, 8176, 8143, 8192, 8187, 8168, 8156, 8143, 8133, 8234,0.8653671741485596
46, 8153, 8152, 8159, 8127, 8199, 8193, 8197, 8192, 8184, 8168, 8159, 8149, 8123, 8229,0.8733787536621094
47, 8135, 8146, 8147, 8120, 8184, 8198, 8160, 8172, 8188, 8158, 8162, 8149, 8128, 8232,0.8813440799713135
48, 8134, 8137, 8148, 8113, 8197, 8182, 8167, 8156, 8172, 8141, 8157, 8147, 8128, 8229,0.8893756866455078
49, 8134, 8135, 8151, 8114, 8184, 8159, 8154, 8138, 8150, 8149, 8165, 8152, 8126, 8231,0.8961806297302246
50, 8114, 8129, 8126, 8101, 8170, 8155, 8132, 8121, 8134, 8159, 8167, 8144, 8130, 8223,0.9042561054229736
51, 8117, 8129, 8151, 8091, 8199, 8158, 8183, 8131, 8113, 8131, 8152, 8126, 8110, 8195,0.9122815132141113
52, 8100, 8112, 8136, 8084, 8166, 8150, 8145, 8140, 8120, 8119, 8145, 8117, 8097, 8194,0.9214067459106445
53, 8093, 8097, 8120, 8057, 8181, 8161, 8173, 8172, 8139, 8136, 8146, 8119, 8105, 8206,0.9282705783843994
54, 8106, 8110, 8142, 8063, 8187, 8173, 8188, 8182, 8152, 8148, 8151, 8125, 8120, 8205,0.9362163543701172
55, 8114, 8141, 8153, 8129, 8171, 8170, 8148, 8169, 8169, 8158, 8157, 8135, 8128, 8215,0.9451549053192139
56, 8155, 8158, 8181, 8184, 8200, 8165, 8189, 8177, 8178, 8166, 8156, 8147, 8131, 8244,0.9522225856781006
57, 8175, 8164, 8174, 8192, 8172, 8154, 8141, 8154, 8173, 8158, 8153, 8148, 8141, 8261,0.960071325302124
58, 8194, 8194, 8186, 8207, 8193, 8147, 8145, 8147, 8155, 8138, 8154, 8152, 8138, 8258,0.9714024066925049
59, 8219, 8206, 8209, 8234, 8204, 8144, 8165, 8147, 8148, 8147, 8156, 8162, 8131, 8261,0.9752097129821777
60, 8194, 8181, 8169, 8217, 8171, 8133, 8125, 8120, 8140, 8150, 8150, 8145, 8119, 8254,0.984304666519165
61, 8182, 8173, 8171, 8182, 8202, 8137, 8173, 8117, 8104, 8109, 8146, 8130, 8093, 8225,0.9913108348846436
62, 8169, 8176, 8163, 8178, 8182, 8143, 8145, 8111, 8083, 8099, 8149, 8134, 8091, 8217,0.9992249011993408
63, 8163, 8171, 8154, 8188, 8180, 8139, 8151, 8118, 8087, 8102, 8141, 8125, 8092, 8225,1.008133888244629
64, 8182, 8162, 8179, 8189, 8184, 8147, 8181, 8150, 8104, 8081, 8143, 8121, 8084, 8232,1.0151081085205078
65, 8165, 8161, 8158, 8188, 8160, 8160, 8145, 8176, 8138, 8101, 8162, 8141, 8107, 8242,1.0231482982635498
66, 8158, 8170, 8164, 8184, 8192, 8161, 8194, 8202, 8163, 8141, 8174, 8150, 8130, 8244,1.0302329063415527
67, 8157, 8170, 8165, 8187, 8170, 8160, 8164, 8189, 8165, 8147, 8160, 8135, 8125, 8236,1.0392615795135498
68, 8154, 8175, 8156, 8207, 8177, 8179, 8150, 8183, 8165, 8147, 8153, 8139, 8118, 8227,1.053384780883789
69, 8161, 8183, 8174, 8219, 8206, 8190, 8184, 8178, 8169, 8160, 8168, 8159, 8123, 8234,1.054051399230957
70, 8145, 8178, 8157, 8208, 8168, 8172, 8138, 8131, 8155, 8145, 8164, 8156, 8122, 8246,1.0632200241088867
71, 8160, 8175, 8173, 8193, 8182, 8160, 8171, 8120, 8114, 8111, 8151, 8150, 8108, 8234,1.0701510906219482
72, 8170, 8173, 8176, 8194, 8166, 8156, 8154, 8121, 8094, 8117, 8158, 8153, 8110, 8223,1.0782976150512695
73, 8167, 8179, 8166, 8203, 8162, 8143, 8142, 8121, 8098, 8114, 8159, 8156, 8117, 8240,1.08614182472229
74, 8195, 8191, 8200, 8209, 8179, 8131, 8174, 8135, 8091, 8094, 8155, 8168, 8114, 8263,1.0941319465637207
75, 8205, 8190, 8184, 8219, 8147, 8129, 8124, 8136, 8103, 8118, 8166, 8176, 8132, 8281,1.101315975189209
76, 8210, 8191, 8181, 8218, 8179, 8139, 8174, 8164, 8121, 8145, 8173, 8175, 8145, 8283,1.1091713905334473
77, 8194, 8188, 8177, 8201, 8167, 8143, 8176, 8177, 8127, 8148, 8165, 8171, 8145, 8276,1.1173090934753418
78, 8164, 8181, 8148, 8186, 8146, 8148, 8150, 8184, 8137, 8144, 8164, 8157, 8146, 8269,1.1253166198730469
79, 8164, 8178, 8163, 8190, 8172, 8158, 8199, 8202, 8144, 8146, 8169, 8148, 8139, 8256,1.1392476558685303
80, 8142, 8159, 8147, 8189, 8148, 8152, 8152, 8186, 8142, 8155, 8167, 8147, 8134, 8248,1.1434519290924072
81, 8136, 8144, 8146, 8169, 8173, 8157, 8173, 8193, 8142, 8142, 8160, 8145, 8123, 8242,1.1572751998901367
82, 8143, 8147, 8156, 8169, 8163, 8168, 8175, 8208, 8166, 8141, 8163, 8145, 8127, 8248,1.163421392440796
83, 8131, 8162, 8146, 8195, 8146, 8158, 8142, 8208, 8192, 8178, 8181, 8152, 8156, 8258,1.1653707027435303
84, 8148, 8174, 8176, 8201, 8189, 8151, 8186, 8209, 8186, 8192, 8186, 8161, 8165, 8255,1.1732444763183594
85, 8144, 8169, 8164, 8192, 8155, 8147, 8145, 8179, 8170, 8173, 8169, 8157, 8150, 8241,1.1802361011505127
86, 8145, 8174, 8154, 8204, 8163, 8153, 8162, 8172, 8153, 8160, 8160, 8152, 8132, 8231,1.1883785724639893
87, 8170, 8182, 8174, 8210, 8177, 8152, 8169, 8164, 8136, 8156, 8164, 8156, 8135, 8238,1.196221113204956
88, 8169, 8184, 8167, 8195, 8164, 8134, 8129, 8136, 8121, 8150, 8158, 8145, 8141, 8236,1.2044346332550049
89, 8180, 8195, 8189, 8199, 8188, 8131, 8174, 8137, 8108, 8154, 8160, 8144, 8138, 8226,1.2122464179992676
90, 8169, 8182, 8165, 8194, 8161, 8135, 8139, 8126, 8110, 8144, 8165, 8153, 8141, 8239,1.2202036380767822
91, 8151, 8156, 8143, 8160, 8168, 8145, 8160, 8133, 8108, 8118, 8150, 8141, 8127, 8248,1.227189064025879
92, 8148, 8145, 8157, 8152, 8167, 8152, 8185, 8142, 8097, 8126, 8150, 8121, 8110, 8237,1.2352008819580078
93, 8117, 8140, 8132, 8160, 8150, 8145, 8141, 8138, 8100, 8144, 8164, 8115, 8115, 8213,1.2432494163513184
94, 8104, 8133, 8139, 8133, 8188, 8149, 8192, 8172, 8116, 8134, 8161, 8121, 8118, 8205,1.2512919902801514
95, 8103, 8132, 8141, 8126, 8156, 8155, 8162, 8190, 8144, 8149, 8159, 8134, 8131, 8229,1.2591969966888428
96, 8118, 8153, 8156, 8155, 8164, 8160, 8155, 8191, 8157, 8177, 8176, 8158, 8152, 8254,1.2672505378723145
97, 8143, 8170, 8186, 8166, 8189, 8149, 8177, 8183, 8145, 8163, 8193, 8177, 8159, 8261,1.2752978801727295
98, 8141, 8180, 8166, 8179, 8163, 8139, 8132, 8178, 8154, 8156, 8193, 8177, 8174, 8269,1.2831871509552002
99, 8166, 8207, 8188, 8212, 8190, 8157, 8182, 8202, 8172, 8176, 8181, 8180, 8188, 8274,1.2902143001556396
100, 8174, 8214, 8193, 8224, 8170, 8167, 8166, 8185, 8176, 8191, 8177, 8190, 8195, 8277,1.2992677688598633
101, 8169, 8207, 8179, 8215, 8166, 8153, 8152, 8163, 8156, 8166, 8178, 8185, 8179, 8272,1.3061985969543457
102, 8192, 8211, 8200, 8211, 8183, 8140, 8176, 8165, 8141, 8146, 8173, 8178, 8162, 8265,1.3143296241760254
103, 8187, 8214, 8187, 8219, 8163, 8145, 8137, 8156, 8159, 8176, 8178, 8188, 8183, 8281,1.3222968578338623
104, 8190, 8220, 8195, 8225, 8188, 8157, 8181, 8162, 8156, 8175, 8185, 8195, 8195, 8294,1.3303139209747314
105, 8179, 8209, 8186, 8214, 8157, 8146, 8159, 8138, 8126, 8154, 8169, 8182, 8176, 8276,1.3383138179779053
106, 8154, 8194, 8157, 8200, 8151, 8140, 8144, 8110, 8111, 8151, 8149, 8170, 8155, 8253,1.3461592197418213
107, 8162, 8187, 8175, 8184, 8175, 8152, 8190, 8121, 8113, 8143, 8160, 8176, 8155, 8259,1.354386568069458
108, 8141, 8171, 8153, 8163, 8133, 8146, 8141, 8124, 8122, 8143, 8169, 8173, 8171, 8271,1.36143159866333
109, 8143, 8179, 8160, 8166, 8169, 8147, 8174, 8151, 8133, 8156, 8158, 8166, 8169, 8270,1.3691747188568115
110, 8170, 8200, 8181, 8189, 8174, 8160, 8167, 8169, 8161, 8175, 8165, 8177, 8177, 8289,1.3773987293243408
111, 8170, 8206, 8164, 8194, 8150, 8155, 8134, 8172, 8180, 8175, 8175, 8185, 8188, 8303,1.385378360748291
112, 8173, 8198, 8178, 8183, 8170, 8137, 8180, 8176, 8165, 8158, 8164, 8178, 8168, 8280,1.3934273719787598
113, 8159, 8183, 8158, 8184, 8151, 8129, 8147, 8156, 8157, 8156, 8153, 8169, 8153, 8271,1.4013378620147705
114, 8164, 8193, 8166, 8189, 8177, 8133, 8175, 8168, 8164, 8158, 8168, 8183, 8165, 8289,1.4093599319458008
115, 8174, 8210, 8186, 8192, 8174, 8128, 8164, 8171, 8170, 8159, 8178, 8202, 8186, 8292,1.417370319366455
116, 8172, 8218, 8176, 8205, 8167, 8136, 8139, 8153, 8163, 8157, 8160, 8197, 8183, 8281,1.424330234527588
117, 8208, 8233, 8202, 8225, 8195, 8149, 8189, 8156, 8161, 8166, 8160, 8200, 8179, 8292,1.4320909976959229
118, 8205, 8237, 8178, 8235, 8155, 8130, 8110, 8134, 8171, 8188, 8183, 8207, 8202, 8313,1.4404017925262451
119, 8188, 8231, 8168, 8225, 8184, 8132, 8134, 8126, 8147, 8168, 8173, 8200, 8197, 8295,1.4492418766021729
120, 8222, 8232, 8212, 8222, 8210, 8155, 8211, 8141, 8119, 8153, 8166, 8209, 8186, 8291,1.4564127922058105
121, 8225, 8237, 8186, 8226, 8151, 8136, 8128, 8138, 8134, 8183, 8183, 8220, 8217, 8321,1.4643282890319824
122, 8196, 8229, 8145, 8217, 8150, 8116, 8100, 8137, 8145, 8186, 8173, 8198, 8215, 8315,1.472242832183838
123, 8182, 8215, 8151, 8205, 8181, 8132, 8154, 8149, 8147, 8170, 8165, 8181, 8186, 8295,1.4803824424743652
124, 8200, 8207, 8195, 8196, 8212, 8141, 8224, 8177, 8159, 8175, 8185, 8199, 8194, 8306,1.4882500171661377
125, 8207, 8192, 8205, 8190, 8180, 8130, 8187, 8169, 8161, 8176, 8184, 8205, 8212, 8317,1.4953267574310303
126, 8180, 8187, 8161, 8188, 8138, 8133, 8117, 8143, 8156, 8178, 8167, 8193, 8214, 8317,1.5033764839172363
127, 8178, 8198, 8157, 8189, 8158, 8135, 8140, 8153, 8161, 8188, 8172, 8202, 8209, 8318,1.5113158226013184
238, 8170, 8191, 8146, 8196, 8137, 8117, 8110, 8153, 8166, 8181, 8169, 8201, 8200, 8307,1.5194385051727295
0, 8187, 8195, 8178, 8187, 8190, 8120, 8186, 8165, 8161, 8169, 8164, 8186, 8191, 8285,1.5273172855377197
1, 8223, 8215, 8233, 8167, 8241, 8131, 8232, 8171, 8154, 8177, 8182, 8201, 8205, 8291,1.535236120223999
2, 8197, 8223, 8192, 8172, 8213, 8124, 8119, 8144, 8157, 8181, 8194, 8222, 8224, 8309,1.5433428287506104
3, 8206, 8245, 8196, 8195, 8260, 8129, 8168, 8144, 8145, 8175, 8192, 8229, 8223, 8313,1.551344633102417
4, 8231, 8265, 8214, 8212, 8250, 8136, 8164, 8135, 8144, 8195, 8200, 8234, 8249, 8327,1.5593483448028564
5, 8226, 8266, 8191, 8224, 8236, 8129, 8118, 8125, 8148, 8197, 8198, 8229, 8267, 8340,1.566390037536621
6, 8230, 8255, 8204, 8216, 8264, 8128, 8171, 8127, 8124, 8174, 8176, 8215, 8240, 8329,1.5753669738769531
7, 8209, 8237, 8181, 8195, 8229, 8141, 8150, 8118, 8124, 8189, 8170, 8200, 8228, 8321,1.5822784900665283
8, 8189, 8219, 8148, 8182, 8215, 8158, 8139, 8143, 8151, 8192, 8172, 8182, 8229, 8320,1.590287685394287
9, 8177, 8206, 8132, 8174, 8216, 8155, 8127, 8162, 8166, 8176, 8175, 8178, 8224, 8312,1.598212480545044
10, 8180, 8206, 8156, 8165, 8268, 8149, 8199, 8186, 8170, 8180, 8177, 8179, 8213, 8287,1.6062874794006348
11, 8182, 8192, 8184, 8151, 8258, 8152, 8230, 8201, 8176, 8183, 8174, 8166, 8201, 8266,1.614330768585205
12, 8142, 8169, 8127, 8143, 8177, 8149, 8108, 8168, 8182, 8186, 8172, 8154, 8204, 8271,1.6211960315704346
13, 8167, 8187, 8152, 8155, 8253, 8150, 8171, 8183, 8176, 8192, 8171, 8165, 8198, 8278,1.629307746887207
14, 8207, 8209, 8200, 8170, 8271, 8157, 8199, 8195, 8186, 8200, 8179, 8184, 8201, 8282,1.63838529586792
15, 8179, 8198, 8167, 8166, 8219, 8176, 8142, 8167, 8188, 8189, 8175, 8184, 8214, 8277,1.64542555809021
16, 8177, 8188, 8173, 8156, 8248, 8181, 8183, 8160, 8162, 8164, 8166, 8175, 8194, 8259,1.6531667709350586
17, 8193, 8191, 8170, 8165, 8227, 8155, 8142, 8149, 8157, 8171, 8174, 8177, 8190, 8273,1.6640918254852295
18, 8226, 8218, 8193, 8200, 8252, 8162, 8164, 8160, 8166, 8193, 8187, 8200, 8218, 8308,1.6693222522735596
19, 8241, 8238, 8211, 8224, 8272, 8175, 8165, 8159, 8171, 8203, 8191, 8218, 8234, 8318,1.6773202419281006
20, 8213, 8231, 8180, 8206, 8248, 8153, 8136, 8150, 8167, 8202, 8188, 8208, 8230, 8305,1.6852195262908936
21, 8221, 8215, 8187, 8187, 8235, 8153, 8183, 8162, 8155, 8211, 8187, 8206, 8237, 8306,1.6921069622039795
22, 8207, 8194, 8159, 8172, 8182, 8166, 8141, 8163, 8173, 8228, 8182, 8207, 8246, 8314,1.7001581192016602
23, 8191, 8188, 8156, 8155, 8204, 8174, 8180, 8194, 8210, 8211, 8174, 8192, 8227, 8301,1.7080669403076172
24, 8196, 8187, 8175, 8174, 8204, 8182, 8191, 8214, 8238, 8213, 8181, 8193, 8225, 8292,1.716367483139038
25, 8176, 8177, 8139, 8195, 8175, 8173, 8128, 8189, 8227, 8240, 8181, 8193, 8237, 8282,1.7301888465881348
26, 8174, 8166, 8151, 8169, 8205, 8160, 8181, 8187, 8188, 8224, 8166, 8181, 8215, 8265,1.7322094440460205
27, 8181, 8151, 8158, 8152, 8175, 8158, 8162, 8177, 8177, 8184, 8164, 8180, 8194, 8273,1.740218162536621
28, 8203, 8153, 8170, 8175, 8179, 8162, 8159, 8178, 8185, 8179, 8174, 8190, 8202, 8286,1.7573952674865723
29, 8219, 8169, 8191, 8192, 8181, 8166, 8167, 8196, 8203, 8202, 8182, 8198, 8226, 8284,1.7582213878631592
30, 8200, 8170, 8166, 8192, 8163, 8184, 8144, 8200, 8222, 8192, 8172, 8201, 8219, 8291,1.7641630172729492
31, 8219, 8174, 8183, 8204, 8197, 8183, 8184, 8192, 8203, 8170, 8166, 8209, 8192, 8307,1.7721505165100098
32, 8246, 8188, 8193, 8226, 8171, 8158, 8134, 8154, 8180, 8189, 8182, 8209, 8215, 8318,1.7792422771453857
33, 8266, 8205, 8199, 8226, 8182, 8180, 8151, 8144, 8187, 8198, 8188, 8215, 8244, 8318,1.788233757019043
34, 8274, 8215, 8213, 8221, 8190, 8196, 8181, 8154, 8195, 8192, 8188, 8244, 8242, 8339,1.7953603267669678
35, 8264, 8219, 8197, 8242, 8153, 8156, 8120, 8149, 8188, 8207, 8188, 8247, 8241, 8362,1.803382158279419
36, 8281, 8207, 8207, 8234, 8180, 8146, 8161, 8165, 8182, 8193, 8172, 8213, 8224, 8335,1.8113129138946533
37, 8249, 8162, 8161, 8180, 8156, 8175, 8153, 8159, 8180, 8158, 8150, 8179, 8191, 8294,1.818366289138794
38, 8204, 8144, 8121, 8152, 8150, 8173, 8163, 8155, 8160, 8142, 8142, 8167, 8162, 8274,1.8261990547180176
39, 8209, 8149, 8149, 8151, 8165, 8157, 8187, 8166, 8147, 8120, 8144, 8159, 8136, 8255,1.8343956470489502
40, 8194, 8126, 8139, 8133, 8136, 8164, 8131, 8155, 8163, 8108, 8146, 8135, 8124, 8231,1.8433170318603516
41, 8190, 8118, 8145, 8120, 8167, 8175, 8181, 8163, 8161, 8116, 8148, 8131, 8121, 8221,1.8503077030181885
42, 8177, 8124, 8137, 8129, 8150, 8174, 8168, 8161, 8158, 8131, 8146, 8145, 8129, 8227,1.85929536819458
43, 8170, 8130, 8124, 8128, 8142, 8173, 8151, 8171, 8182, 8142, 8153, 8143, 8134, 8226,1.866459846496582
44, 8209, 8141, 8163, 8124, 8169, 8182, 8201, 8197, 8196, 8146, 8165, 8143, 8134, 8232,1.875206470489502
45, 8213, 8144, 8159, 8138, 8146, 8190, 8156, 8179, 8196, 8149, 8162, 8158, 8144, 8250,1.8822815418243408
46, 8204, 8152, 8167, 8155, 8169, 8189, 8170, 8160, 8183, 8144, 8153, 8165, 8136, 8245,1.8892171382904053
47, 8199, 8156, 8174, 8162, 8154, 8179, 8159, 8141, 8168, 8147, 8154, 8161, 8130, 8233,1.897397518157959
48, 8203, 8160, 8167, 8171, 8151, 8175, 8148, 8139, 8167, 8159, 8163, 8169, 8148, 8251,1.905348539352417
49, 8240, 8179, 8205, 8183, 8189, 8177, 8184, 8159, 8164, 8159, 8169, 8186, 8162, 8273,1.913466215133667
50, 8237, 8183, 8190, 8188, 8155, 8162, 8124, 8137, 8163, 8155, 8164, 8184, 8168, 8278,1.9211647510528564
51, 8241, 8181, 8186, 8182, 8170, 8162, 8154, 8141, 8169, 8156, 8155, 8179, 8162, 8277,1.929337978363037
52, 8252, 8178, 8191, 8176, 8161, 8174, 8166, 8158, 8182, 8156, 8153, 8179, 8150, 8272,1.937143325805664
53, 8224, 8165, 8153, 8161, 8146, 8175, 8139, 8160, 8181, 8133, 8143, 8160, 8130, 8248,1.9454104900360107
54, 8210, 8141, 8157, 8137, 8185, 8181, 8190, 8171, 8161, 8111, 8136, 8148, 8110, 8228,1.9521901607513428
55, 8196, 8124, 8145, 8118, 8154, 8176, 8150, 8157, 8157, 8117, 8148, 8147, 8113, 8229,1.9602563381195068
56, 8195, 8123, 8140, 8103, 8156, 8166, 8167, 8157, 8159, 8107, 8148, 8141, 8104, 8216,1.9682559967041016
57, 8190, 8109, 8146, 8100, 8154, 8170, 8173, 8161, 8163, 8110, 8142, 8138, 8094, 8207,1.976163387298584
58, 8178, 8105, 8133, 8109, 8141, 8187, 8139, 8160, 8176, 8138, 8156, 8140, 8114, 8223,1.9843897819519043
59, 8210, 8123, 8159, 8105, 8171, 8192, 8197, 8176, 8178, 8129, 8163, 8145, 8117, 8232,1.992337703704834
60, 8207, 8118, 8146, 8097, 8137, 8182, 8156, 8158, 8174, 8114, 8148, 8137, 8100, 8228,2.000180721282959
61, 8189, 8129, 8147, 8123, 8152, 8190, 8156, 8159, 8168, 8129, 8150, 8138, 8106, 8221,2.0084168910980225
62, 8209, 8159, 8181, 8165, 8172, 8194, 8177, 8170, 8166, 8136, 8177, 8155, 8134, 8232,2.0153493881225586
63, 8223, 8168, 8166, 8186, 8146, 8186, 8135, 8147, 8163, 8121, 8175, 8157, 8138, 8250,2.023386001586914
64, 8242, 8171, 8183, 8184, 8177, 8189, 8174, 8134, 8148, 8121, 8161, 8149, 8118, 8244,2.0323572158813477
65, 8242, 8181, 8189, 8192, 8167, 8180, 8142, 8127, 8154, 8155, 8180, 8166, 8148, 8248,2.0394551753997803
66, 8248, 8194, 8186, 8210, 8176, 8171, 8144, 8143, 8161, 8165, 8191, 8183, 8191, 8273,2.04728364944458
67, 8269, 8202, 8201, 8211, 8182, 8175, 8173, 8154, 8151, 8154, 8175, 8175, 8193, 8285,2.05513334274292
68, 8247, 8197, 8172, 8201, 8155, 8178, 8140, 8149, 8165, 8176, 8173, 8164, 8182, 8278,2.064274549484253
69, 8231, 8174, 8166, 8184, 8186, 8192, 8190, 8181, 8190, 8183, 8173, 8162, 8168, 8260,2.0712380409240723
70, 8210, 8140, 8147, 8142, 8156, 8201, 8172, 8188, 8200, 8156, 8158, 8146, 8154, 8246,2.0781991481781006
71, 8185, 8121, 8128, 8099, 8145, 8197, 8177, 8186, 8195, 8140, 8142, 8118, 8128, 8233,2.086362361907959
72, 8169, 8106, 8129, 8094, 8162, 8200, 8208, 8203, 8191, 8139, 8144, 8109, 8103, 8213,2.0942728519439697
73, 8152, 8098, 8110, 8100, 8144, 8200, 8157, 8200, 8211, 8149, 8153, 8125, 8119, 8211,2.102328062057495
74, 8188, 8115, 8152, 8102, 8175, 8197, 8194, 8213, 8233, 8152, 8162, 8143, 8135, 8233,2.110387086868286
75, 8211, 8123, 8168, 8119, 8152, 8185, 8162, 8206, 8231, 8168, 8168, 8149, 8135, 8250,2.1194241046905518
76, 8214, 8142, 8155, 8145, 8156, 8173, 8136, 8185, 8211, 8184, 8171, 8148, 8136, 8242,2.126262664794922
77, 8239, 8170, 8184, 8165, 8189, 8162, 8176, 8174, 8196, 8171, 8172, 8152, 8139, 8238,2.134305000305176
78, 8229, 8167, 8169, 8171, 8148, 8148, 8129, 8147, 8186, 8152, 8163, 8144, 8136, 8240,2.1422462463378906
79, 8224, 8166, 8171, 8171, 8171, 8147, 8167, 8139, 8152, 8132, 8157, 8139, 8118, 8228,2.1504743099212646
80, 8219, 8168, 8170, 8169, 8169, 8145, 8159, 8123, 8124, 8123, 8158, 8145, 8108, 8224,2.1572093963623047
81, 8206, 8162, 8148, 8173, 8154, 8141, 8129, 8114, 8126, 8129, 8159, 8149, 8123, 8228,2.166186809539795
82, 8237, 8171, 8182, 8182, 8183, 8148, 8175, 8136, 8137, 8148, 8173, 8160, 8157, 8241,2.173232078552246
83, 8240, 8175, 8167, 8174, 8153, 8152, 8139, 8129, 8137, 8173, 8179, 8159, 8177, 8253,2.181333303451538
84, 8226, 8167, 8151, 8159, 8169, 8158, 8168, 8136, 8116, 8170, 8166, 8142, 8155, 8237,2.1902410984039307
85, 8225, 8162, 8168, 8152, 8170, 8159, 8171, 8152, 8110, 8159, 8164, 8143, 8145, 8230,2.197211503982544
86, 8217, 8154, 8159, 8144, 8151, 8164, 8146, 8161, 8129, 8165, 8162, 8146, 8153, 8244,2.205352783203125
87, 8215, 8139, 8161, 8125, 8171, 8172, 8198, 8177, 8137, 8169, 8155, 8136, 8140, 8238,2.2122750282287598
88, 8187, 8129, 8133, 8114, 8136, 8168, 8155, 8163, 8135, 8160, 8155, 8119, 8126, 8211,2.220179557800293
89, 8177, 8132, 8133, 8105, 8154, 8166, 8165, 8170, 8133, 8142, 8147, 8111, 8110, 8188,2.2281737327575684
90, 8191, 8120, 8157, 8095, 8154, 8164, 8176, 8182, 8136, 8142, 8145, 8115, 8103, 8194,2.23612904548645
91, 8179, 8113, 8137, 8092, 8130, 8165, 8146, 8172, 8140, 8141, 8161, 8119, 8115, 8211,2.244206190109253
92, 8183, 8130, 8151, 8099, 8169, 8170, 8195, 8180, 8132, 8122, 8171, 8126, 8122, 8208,2.252141237258911
93, 8183, 8128, 8153, 8111, 8155, 8166, 8153, 8179, 8147, 8137, 8163, 8134, 8128, 8208,2.2603261470794678
94, 8184, 8133, 8157, 8128, 8161, 8179, 8153, 8188, 8165, 8164, 8162, 8135, 8131, 8219,2.2682530879974365
95, 8205, 8172, 8184, 8166, 8168, 8194, 8170, 8182, 8155, 8161, 8170, 8143, 8133, 8230,2.2761266231536865
96, 8212, 8190, 8181, 8202, 8165, 8177, 8134, 8160, 8144, 8154, 8172, 8155, 8145, 8246,2.2832796573638916
97, 8212, 8173, 8187, 8208, 8203, 8164, 8178, 8165, 8123, 8140, 8157, 8143, 8134, 8234,2.2921762466430664
98, 8176, 8159, 8152, 8187, 8174, 8170, 8149, 8144, 8101, 8117, 8132, 8109, 8103, 8199,2.299429178237915
99, 8160, 8167, 8141, 8156, 8189, 8178, 8166, 8146, 8100, 8116, 8128, 8095, 8086, 8190,2.3074610233306885
100, 8176, 8154, 8161, 8122, 8196, 8172, 8185, 8158, 8099, 8110, 8136, 8095, 8078, 8195,2.3163411617279053
101, 8149, 8125, 8121, 8098, 8149, 8154, 8118, 8136, 8084, 8072, 8134, 8081, 8059, 8177,2.3233802318573
102, 8167, 8138, 8158, 8106, 8179, 8148, 8177, 8158, 8084, 8063, 8145, 8098, 8057, 8183,2.331312656402588
103, 8208, 8173, 8198, 8140, 8212, 8160, 8179, 8179, 8125, 8127, 8170, 8139, 8105, 8231,2.3392350673675537
104, 8203, 8188, 8175, 8158, 8304, 8179, 8162, 8179, 8154, 8164, 8168, 8138, 8128, 8246,2.3463637828826904
105, 8193, 8176, 8174, 8141, 8376, 8179, 8189, 8186, 8152, 8146, 8160, 8124, 8112, 8232,2.354203939437866
106, 8190, 8168, 8166, 8140, 8335, 8177, 8157, 8180, 8165, 8157, 8171, 8141, 8130, 8250,2.362356424331665
107, 8206, 8184, 8185, 8162, 8350, 8196, 8193, 8184, 8165, 8165, 8170, 8159, 8135, 8265,2.3703813552856445
108, 8189, 8198, 8183, 8173, 8344, 8207, 8168, 8173, 8150, 8146, 8161, 8149, 8121, 8247,2.3781824111938477
109, 8176, 8199, 8168, 8180, 8331, 8202, 8153, 8163, 8150, 8137, 8163, 8138, 8124, 8230,2.3862557411193848
110, 8203, 8203, 8192, 8189, 8347, 8196, 8188, 8152, 8142, 8140, 8169, 8139, 8125, 8236,2.3943533897399902
111, 8182, 8200, 8167, 8197, 8321, 8186, 8127, 8116, 8119, 8143, 8160, 8127, 8118, 8238,2.4023287296295166
112, 8169, 8193, 8167, 8188, 8341, 8183, 8157, 8122, 8109, 8131, 8156, 8126, 8113, 8230,2.4093220233917236
113, 8187, 8182, 8181, 8173, 8319, 8184, 8167, 8142, 8143, 8139, 8172, 8144, 8131, 8254,2.417426824569702
114, 8174, 8172, 8161, 8164, 8299, 8183, 8152, 8156, 8167, 8149, 8164, 8141, 8137, 8259,2.425224781036377
115, 8153, 8166, 8165, 8160, 8328, 8182, 8194, 8173, 8145, 8114, 8138, 8115, 8101, 8217,2.4334003925323486
116, 8130, 8157, 8151, 8156, 8291, 8171, 8146, 8162, 8131, 8097, 8148, 8108, 8087, 8213,2.4413647651672363
117, 8141, 8171, 8166, 8159, 8304, 8171, 8171, 8172, 8137, 8118, 8171, 8130, 8111, 8238,2.4531664848327637
118, 8160, 8182, 8183, 8161, 8306, 8169, 8173, 8180, 8142, 8139, 8177, 8146, 8136, 8246,2.4573593139648438
119, 8150, 8178, 8164, 8155, 8290, 8153, 8137, 8167, 8139, 8133, 8176, 8142, 8140, 8258,2.464425802230835
120, 8165, 8183, 8187, 8170, 8320, 8156, 8181, 8166, 8125, 8123, 8170, 8146, 8134, 8278,2.4734039306640625
121, 8175, 8195, 8186, 8193, 8286, 8158, 8135, 8147, 8123, 8147, 8170, 8161, 8148, 8288,2.4803380966186523
122, 8184, 8224, 8193, 8195, 8292, 8157, 8147, 8147, 8125, 8154, 8176, 8168, 8156, 8291,2.4883785247802734
123, 8176, 8231, 8202, 8189, 8301, 8164, 8164, 8151, 8135, 8140, 8174, 8168, 8158, 8298,2.496415376663208
124, 8145, 8214, 8169, 8204, 8290, 8168, 8131, 8159, 8158, 8161, 8175, 8182, 8183, 8309,2.5042004585266113
125, 8178, 8220, 8199, 8240, 8326, 8182, 8181, 8196, 8177, 8192, 8181, 8206, 8208, 8324,2.512286901473999
126, 8192, 8220, 8197, 8252, 8292, 8188, 8141, 8194, 8189, 8187, 8172, 8201, 8202, 8323,2.520397901535034
127, 8166, 8205, 8167, 8230, 8281, 8180, 8146, 8185, 8179, 8159, 8162, 8179, 8174, 8299,2.528146266937256
238, 8159, 8204, 8172, 8214, 8279, 8171, 8180, 8183, 8152, 8150, 8165, 8177, 8162, 8287,2.5364205837249756
0, 8134, 8194, 8140, 8197, 8237, 8158, 8137, 8168, 8135, 8135, 8147, 8152, 8141, 8276,2.5434157848358154
1, 8106, 8156, 8128, 8161, 8238, 8150, 8177, 8173, 8112, 8097, 8123, 8100, 8087, 8225,2.5513417720794678
2, 8086, 8134, 8127, 8148, 8214, 8152, 8158, 8174, 8112, 8091, 8137, 8093, 8083, 8203,2.5594449043273926
3, 8097, 8153, 8142, 8156, 8232, 8163, 8151, 8187, 8144, 8121, 8157, 8125, 8126, 8247,2.5673069953918457
4, 8124, 8168, 8174, 8155, 8251, 8166, 8184, 8186, 8150, 8134, 8147, 8131, 8128, 8271,2.575392723083496
5, 8111, 8158, 8155, 8159, 8201, 8154, 8144, 8148, 8118, 8110, 8135, 8110, 8102, 8240,2.584390163421631
6, 8106, 8138, 8136, 8154, 8170, 8142, 8115, 8132, 8096, 8097, 8145, 8114, 8101, 8229,2.5914440155029297
7, 8105, 8120, 8114, 8139, 8144, 8132, 8067, 8123, 8103, 8117, 8153, 8134, 8122, 8254,2.5993669033050537
8, 8118, 8140, 8149, 8147, 8223, 8146, 8165, 8137, 8101, 8106, 8149, 8136, 8115, 8244,2.607302665710449
9, 8144, 8173, 8222, 8173, 8286, 8168, 8262, 8162, 8090, 8098, 8162, 8153, 8121, 8234,2.6143598556518555
10, 8112, 8175, 8178, 8194, 8215, 8169, 8121, 8148, 8120, 8149, 8182, 8180, 8168, 8289,2.623441219329834
11, 8107, 8190, 8155, 8220, 8238, 8171, 8096, 8161, 8154, 8179, 8177, 8187, 8183, 8319,2.630321502685547
12, 8153, 8206, 8205, 8232, 8307, 8172, 8184, 8182, 8154, 8163, 8168, 8179, 8163, 8285,2.6383063793182373
13, 8146, 8198, 8202, 8209, 8309, 8171, 8190, 8181, 8147, 8164, 8168, 8161, 8160, 8264,2.6464645862579346
14, 8120, 8191, 8169, 8191, 8274, 8170, 8147, 8186, 8154, 8171, 8164, 8149, 8160, 8271,2.654261589050293
15, 8101, 8176, 8145, 8190, 8264, 8162, 8135, 8181, 8146, 8144, 8154, 8141, 8139, 8255,2.6614415645599365
16, 8104, 8159, 8175, 8166, 8318, 8153, 8217, 8174, 8111, 8105, 8138, 8122, 8099, 8215,2.669494152069092
17, 8086, 8149, 8155, 8137, 8249, 8136, 8133, 8148, 8110, 8118, 8140, 8112, 8100, 8214,2.677271604537964
18, 8085, 8142, 8133, 8138, 8236, 8144, 8119, 8156, 8127, 8149, 8164, 8137, 8135, 8243,2.685483694076538
19, 8137, 8145, 8208, 8143, 8320, 8173, 8259, 8188, 8123, 8143, 8178, 8166, 8145, 8258,2.6934750080108643
20, 8111, 8142, 8183, 8132, 8231, 8168, 8155, 8156, 8138, 8147, 8173, 8151, 8143, 8245,2.7014923095703125
21, 8094, 8145, 8153, 8135, 8191, 8157, 8133, 8153, 8141, 8147, 8174, 8145, 8139, 8212,2.709350347518921
22, 8154, 8159, 8210, 8153, 8227, 8160, 8214, 8162, 8111, 8132, 8193, 8190, 8150, 8226,2.717411994934082
23, 8153, 8171, 8192, 8163, 8193, 8155, 8130, 8126, 8108, 8141, 8195, 8213, 8186, 8289,2.7253172397613525
24, 8122, 8180, 8163, 8164, 8192, 8159, 8102, 8132, 8124, 8156, 8180, 8195, 8195, 8307,2.733384609222412
25, 8131, 8175, 8174, 8168, 8224, 8176, 8156, 8171, 8136, 8172, 8175, 8186, 8178, 8280,2.7403855323791504
26, 8159, 8177, 8193, 8177, 8257, 8185, 8196, 8184, 8143, 8179, 8177, 8191, 8175, 8274,2.7552361488342285
27, 8146, 8184, 8171, 8178, 8245, 8170, 8141, 8154, 8152, 8175, 8178, 8186, 8191, 8296,2.756072998046875
28, 8124, 8180, 8147, 8166, 8259, 8156, 8133, 8142, 8144, 8172, 8171, 8172, 8190, 8291,2.768394708633423
29, 8142, 8170, 8170, 8157, 8269, 8160, 8188, 8162, 8124, 8176, 8171, 8177, 8177, 8277,2.775355339050293
30, 8118, 8157, 8138, 8157, 8199, 8162, 8127, 8155, 8127, 8171, 8164, 8179, 8180, 8286,2.8003764152526855
31, 8111, 8154, 8161, 8145, 8252, 8180, 8222, 8192, 8134, 8150, 8156, 8163, 8168, 8279,2.803179979324341
32, 8117, 8140, 8196, 8119, 8257, 8197, 8253, 8210, 8136, 8151, 8163, 8152, 8147, 8257,2.81221866607666
33, 8070, 8120, 8127, 8114, 8167, 8175, 8106, 8153, 8140, 8145, 8160, 8146, 8145, 8249,2.819153308868408
34, 8087, 8128, 8154, 8118, 8230, 8157, 8185, 8150, 8132, 8111, 8143, 8145, 8133, 8247,2.827174425125122
35, 8107, 8126, 8179, 8114, 8227, 8161, 8186, 8148, 8126, 8116, 8146, 8131, 8120, 8236,2.836245536804199
44, 8131, 8149, 8177, 8129, 8235, 8144, 8224, 8163, 8107, 8110, 8155, 8144, 8121, 8224,2.876390218734741
44, 8131, 8149, 8177, 8129, 8235, 8144, 8224, 8163, 8107, 8110, 8155, 8144, 8121, 8224,2.9034204483032227
45, 8134, 8135, 8193, 8104, 8224, 8161, 8218, 8167, 8114, 8103, 8157, 8131, 8106, 8235,2.904061794281006
46, 8073, 8106, 8120, 8073, 8179, 8164, 8129, 8159, 8145, 8117, 8156, 8113, 8112, 8231,2.9060893058776855
47, 8079, 8099, 8138, 8066, 8216, 8167, 8199, 8190, 8158, 8115, 8160, 8121, 8118, 8218,2.914299249649048
48, 8084, 8109, 8142, 8087, 8180, 8167, 8155, 8179, 8163, 8125, 8171, 8138, 8129, 8232,2.922236919403076
49, 8085, 8120, 8149, 8098, 8195, 8167, 8167, 8177, 8151, 8130, 8168, 8136, 8119, 8231,2.9302990436553955
50, 8098, 8117, 8161, 8095, 8183, 8154, 8164, 8174, 8139, 8112, 8167, 8139, 8117, 8218,2.9372682571411133
51, 8108, 8127, 8153, 8115, 8169, 8150, 8131, 8172, 8151, 8126, 8177, 8161, 8148, 8236,2.9452321529388428
52, 8132, 8141, 8190, 8135, 8214, 8168, 8183, 8185, 8162, 8157, 8178, 8178, 8158, 8263,2.9542245864868164
53, 8114, 8138, 8172, 8136, 8182, 8166, 8144, 8153, 8150, 8159, 8174, 8177, 8151, 8269,2.961040735244751
54, 8110, 8154, 8173, 8149, 8202, 8164, 8177, 8150, 8142, 8156, 8186, 8181, 8165, 8266,2.9691824913024902
55, 8135, 8176, 8200, 8185, 8245, 8187, 8181, 8174, 8173, 8192, 8201, 8197, 8201, 8276,2.9772791862487793
56, 8134, 8174, 8183, 8195, 8267, 8211, 8141, 8179, 8204, 8222, 8190, 8194, 8211, 8272,2.9863131046295166
57, 8147, 8178, 8201, 8187, 8281, 8201, 8184, 8178, 8197, 8220, 8188, 8200, 8207, 8278,2.9932053089141846
58, 8144, 8190, 8195, 8200, 8214, 8169, 8135, 8159, 8194, 8232, 8203, 8221, 8235, 8310,3.001264810562134
59, 8136, 8184, 8185, 8197, 8205, 8160, 8147, 8170, 8198, 8226, 8194, 8214, 8237, 8307,3.008208751678467
60, 8134, 8159, 8178, 8168, 8196, 8152, 8168, 8177, 8185, 8202, 8173, 8190, 8213, 8285,3.0162434577941895
61, 8108, 8150, 8145, 8160, 8173, 8142, 8141, 8168, 8175, 8180, 8170, 8174, 8214, 8288,3.0241899490356445
62, 8096, 8150, 8149, 8146, 8198, 8154, 8187, 8175, 8168, 8152, 8160, 8159, 8195, 8278,3.032175302505493
63, 8061, 8125, 8122, 8110, 8161, 8166, 8147, 8154, 8161, 8144, 8147, 8138, 8159, 8240,3.040320634841919
64, 8050, 8118, 8121, 8106, 8181, 8173, 8161, 8159, 8156, 8149, 8149, 8134, 8148, 8223,3.04811429977417
65, 8082, 8125, 8148, 8118, 8195, 8169, 8180, 8175, 8149, 8145, 8143, 8140, 8147, 8232,3.056530475616455
66, 8080, 8107, 8122, 8099, 8162, 8158, 8137, 8162, 8147, 8135, 8139, 8143, 8135, 8240,3.064384937286377
67, 8097, 8105, 8148, 8083, 8195, 8175, 8191, 8179, 8154, 8126, 8152, 8149, 8127, 8239,3.0713326930999756
68, 8102, 8120, 8157, 8100, 8175, 8188, 8160, 8188, 8180, 8135, 8157, 8145, 8136, 8240,3.0831942558288574
69, 8102, 8134, 8146, 8123, 8187, 8191, 8169, 8197, 8209, 8144, 8152, 8154, 8148, 8247,3.087355136871338
70, 8117, 8141, 8170, 8117, 8207, 8205, 8206, 8205, 8222, 8152, 8167, 8177, 8168, 8253,3.0953447818756104
71, 8106, 8152, 8165, 8103, 8180, 8204, 8142, 8188, 8218, 8171, 8182, 8181, 8189, 8257,3.1032772064208984
72, 8139, 8184, 8193, 8117, 8214, 8199, 8173, 8179, 8198, 8181, 8178, 8190, 8186, 8263,3.111265182495117
73, 8159, 8197, 8201, 8143, 8196, 8200, 8153, 8158, 8189, 8185, 8178, 8204, 8194, 8276,3.119365692138672
74, 8146, 8194, 8189, 8148, 8191, 8196, 8150, 8164, 8187, 8195, 8179, 8195, 8205, 8271,3.1273937225341797
75, 8153, 8196, 8199, 8139, 8206, 8190, 8184, 8193, 8188, 8208, 8174, 8186, 8190, 8260,3.134202003479004
76, 8134, 8188, 8164, 8124, 8172, 8188, 8136, 8185, 8197, 8197, 8158, 8180, 8181, 8265,3.1422672271728516
77, 8128, 8177, 8164, 8099, 8203, 8185, 8173, 8186, 8183, 8165, 8147, 8168, 8174, 8266,3.1502685546875
78, 8111, 8149, 8154, 8082, 8179, 8171, 8151, 8173, 8173, 8160, 8154, 8162, 8166, 8251,3.1581664085388184
79, 8070, 8121, 8119, 8060, 8136, 8165, 8133, 8162, 8180, 8159, 8151, 8152, 8154, 8234,3.166376829147339
80, 8072, 8122, 8139, 8039, 8230, 8168, 8182, 8178, 8183, 8147, 8142, 8145, 8147, 8234,3.174203395843506
81, 8075, 8134, 8135, 8045, 8386, 8169, 8144, 8179, 8190, 8155, 8147, 8144, 8158, 8247,3.183244228363037
82, 8090, 8137, 8150, 8057, 8499, 8176, 8180, 8202, 8193, 8159, 8157, 8142, 8156, 8250,3.190340042114258
83, 8101, 8130, 8159, 8063, 8444, 8175, 8168, 8212, 8193, 8160, 8165, 8152, 8165, 8259,3.1983373165130615
84, 8102, 8136, 8145, 8080, 8415, 8172, 8143, 8204, 8193, 8165, 8170, 8166, 8182, 8274,3.2053990364074707
85, 8124, 8159, 8175, 8102, 8472, 8177, 8195, 8205, 8192, 8159, 8170, 8173, 8185, 8274,3.213132619857788
86, 8114, 8168, 8163, 8105, 8428, 8172, 8143, 8185, 8199, 8165, 8165, 8168, 8188, 8270,3.221247911453247
87, 8107, 8164, 8164, 8107, 8423, 8173, 8162, 8187, 8194, 8172, 8164, 8165, 8184, 8263,3.2291202545166016
88, 8127, 8163, 8191, 8135, 8417, 8190, 8174, 8188, 8206, 8194, 8182, 8193, 8211, 8292,3.237147808074951
89, 8156, 8194, 8200, 8166, 8403, 8187, 8142, 8187, 8230, 8225, 8204, 8231, 8268, 8354,3.2451012134552
90, 8192, 8217, 8227, 8173, 8417, 8163, 8182, 8196, 8220, 8224, 8197, 8239, 8279, 8369,3.2530264854431152
91, 8179, 8191, 8194, 8165, 8362, 8150, 8142, 8183, 8209, 8216, 8170, 8216, 8255, 8344,3.2611942291259766
92, 8177, 8185, 8180, 8156, 8366, 8167, 8162, 8199, 8215, 8206, 8160, 8204, 8236, 8328,3.268059015274048
93, 8180, 8189, 8198, 8149, 8377, 8173, 8187, 8210, 8216, 8186, 8173, 8200, 8222, 8312,3.276076316833496
94, 8128, 8151, 8147, 8123, 8349, 8160, 8142, 8179, 8203, 8181, 8171, 8166, 8193, 8272,3.284188747406006
95, 8111, 8133, 8125, 8099, 8352, 8165, 8153, 8171, 8185, 8176, 8151, 8146, 8162, 8248,3.292106866836548
96, 8112, 8142, 8126, 8105, 8299, 8166, 8120, 8170, 8184, 8165, 8151, 8155, 8156, 8258,3.300055980682373
97, 8107, 8141, 8132, 8106, 8295, 8168, 8148, 8181, 8191, 8169, 8165, 8158, 8165, 8256,3.3082003593444824
98, 8121, 8135, 8155, 8095, 8321, 8189, 8196, 8201, 8198, 8194, 8177, 8162, 8181, 8251,3.316092014312744
99, 8123, 8138, 8164, 8112, 8265, 8203, 8200, 8211, 8200, 8202, 8175, 8171, 8189, 8262,3.3240885734558105
100, 8138, 8141, 8195, 8141, 8177, 8188, 8231, 8215, 8186, 8186, 8165, 8173, 8181, 8263,3.332226514816284
101, 8127, 8137, 8171, 8151, 8075, 8155, 8134, 8177, 8177, 8185, 8164, 8168, 8189, 8280,3.3392696380615234
102, 8123, 8148, 8161, 8164, 8117, 8158, 8143, 8172, 8188, 8187, 8178, 8182, 8212, 8313,3.3471951484680176
103, 8158, 8161, 8202, 8186, 8150, 8177, 8206, 8195, 8208, 8198, 8197, 8210, 8241, 8332,3.3553428649902344
104, 8163, 8165, 8184, 8197, 8093, 8171, 8138, 8194, 8232, 8237, 8203, 8227, 8277, 8350,3.363178253173828
105, 8179, 8169, 8199, 8194, 8134, 8170, 8187, 8219, 8234, 8250, 8194, 8231, 8273, 8360,3.3712809085845947
106, 8164, 8151, 8186, 8182, 8115, 8172, 8177, 8216, 8233, 8235, 8179, 8219, 8256, 8347,3.379383087158203
107, 8142, 8142, 8156, 8166, 8111, 8171, 8162, 8206, 8232, 8231, 8168, 8196, 8246, 8326,3.387202024459839
108, 8156, 8145, 8179, 8158, 8136, 8166, 8186, 8197, 8206, 8216, 8165, 8182, 8217, 8300,3.395261287689209
109, 8132, 8141, 8151, 8162, 8094, 8157, 8125, 8158, 8189, 8192, 8156, 8173, 8189, 8270,3.4023282527923584
110, 8138, 8145, 8160, 8165, 8133, 8161, 8176, 8158, 8183, 8188, 8156, 8172, 8172, 8252,3.4101898670196533
111, 8145, 8145, 8169, 8166, 8131, 8166, 8166, 8147, 8166, 8182, 8164, 8169, 8167, 8251,3.4181134700775146
112, 8125, 8150, 8153, 8166, 8118, 8170, 8139, 8130, 8148, 8155, 8160, 8158, 8156, 8239,3.4261062145233154
113, 8139, 8156, 8172, 8161, 8160, 8170, 8182, 8138, 8142, 8152, 8156, 8164, 8143, 8240,3.434358835220337
114, 8145, 8149, 8161, 8169, 8166, 8169, 8147, 8143, 8158, 8186, 8172, 8179, 8166, 8278,3.442338466644287
115, 8161, 8167, 8185, 8192, 8193, 8179, 8179, 8173, 8177, 8200, 8182, 8183, 8198, 8293,3.4500579833984375
116, 8160, 8178, 8184, 8199, 8175, 8174, 8163, 8177, 8185, 8196, 8172, 8178, 8204, 8275,3.458099126815796
117, 8141, 8165, 8148, 8187, 8169, 8165, 8138, 8165, 8187, 8199, 8168, 8180, 8191, 8274,3.4652774333953857
118, 8165, 8175, 8183, 8191, 8197, 8174, 8190, 8182, 8198, 8200, 8176, 8191, 8192, 8296,3.4731974601745605
119, 8155, 8183, 8178, 8196, 8166, 8171, 8145, 8177, 8204, 8206, 8169, 8191, 8209, 8304,3.4814038276672363
120, 8147, 8178, 8172, 8185, 8185, 8155, 8166, 8169, 8179, 8204, 8159, 8196, 8209, 8302,3.4892501831054688
121, 8178, 8185, 8196, 8192, 8170, 8149, 8165, 8165, 8169, 8202, 8172, 8218, 8214, 8330,3.4983880519866943
122, 8186, 8189, 8185, 8202, 8155, 8152, 8130, 8160, 8170, 8195, 8174, 8222, 8221, 8345,3.5053725242614746
123, 8180, 8177, 8188, 8186, 8196, 8149, 8180, 8167, 8149, 8181, 8161, 8205, 8202, 8319,3.5132954120635986
124, 8164, 8170, 8175, 8183, 8165, 8138, 8139, 8156, 8149, 8188, 8165, 8204, 8198, 8318,3.5213589668273926
125, 8174, 8172, 8181, 8186, 8164, 8136, 8158, 8171, 8163, 8175, 8153, 8199, 8190, 8322,3.5283565521240234
126, 8186, 8160, 8179, 8159, 8143, 8148, 8171, 8178, 8161, 8154, 8134, 8184, 8163, 8307,3.5362422466278076
127, 8183, 8165, 8160, 8162, 8104, 8158, 8135, 8163, 8159, 8162, 8158, 8198, 8175, 8322,3.5443203449249268
238, 8201, 8180, 8197, 8190, 8128, 8156, 8185, 8171, 8162, 8159, 8186, 8230, 8199, 8342,3.5522027015686035
0, 8175, 8162, 8175, 8178, 8096, 8147, 8143, 8153, 8161, 8158, 8176, 8223, 8208, 8337,3.5603466033935547
1, 8168, 8162, 8163, 8161, 8105, 8154, 8151, 8152, 8149, 8178, 8177, 8216, 8218, 8338,3.56827712059021
2, 8200, 8190, 8202, 8187, 8119, 8163, 8167, 8166, 8161, 8201, 8200, 8238, 8241, 8353,3.576380968093872
3, 8197, 8200, 8189, 8215, 8104, 8169, 8130, 8170, 8205, 8223, 8203, 8240, 8260, 8354,3.5842125415802
4, 8207, 8206, 8197, 8215, 8147, 8190, 8186, 8190, 8215, 8233, 8186, 8234, 8258, 8344,3.5923640727996826
5, 8202, 8210, 8188, 8216, 8126, 8189, 8149, 8173, 8204, 8229, 8175, 8234, 8250, 8347,3.5992047786712646
6, 8191, 8212, 8176, 8224, 8127, 8173, 8147, 8169, 8195, 8223, 8166, 8222, 8230, 8342,3.6073765754699707
7, 8194, 8201, 8188, 8219, 8147, 8180, 8185, 8181, 8179, 8211, 8167, 8215, 8217, 8326,3.6152985095977783
8, 8162, 8183, 8160, 8197, 8141, 8184, 8146, 8165, 8170, 8189, 8169, 8212, 8213, 8314,3.6232750415802
9, 8160, 8191, 8165, 8191, 8197, 8180, 8192, 8177, 8168, 8179, 8167, 8205, 8194, 8304,3.6312150955200195
10, 8163, 8187, 8160, 8194, 8164, 8179, 8173, 8189, 8184, 8200, 8165, 8197, 8192, 8302,3.639315366744995
11, 8153, 8173, 8156, 8187, 8112, 8187, 8172, 8204, 8210, 8212, 8157, 8194, 8195, 8297,3.647367238998413
12, 8168, 8177, 8184, 8187, 8077, 8188, 8197, 8207, 8212, 8202, 8160, 8198, 8188, 8296,3.6553783416748047
13, 8157, 8179, 8155, 8181, 8004, 8175, 8134, 8165, 8187, 8185, 8163, 8190, 8184, 8293,3.6632273197174072
14, 8154, 8171, 8160, 8158, 8014, 8167, 8173, 8143, 8153, 8149, 8145, 8170, 8155, 8266,3.670405626296997
15, 8158, 8163, 8166, 8162, 8002, 8158, 8155, 8131, 8147, 8141, 8138, 8170, 8136, 8259,3.679320812225342
16, 8163, 8167, 8158, 8183, 7994, 8163, 8139, 8136, 8156, 8150, 8153, 8187, 8153, 8280,3.6861305236816406
17, 8191, 8182, 8194, 8185, 8017, 8177, 8186, 8153, 8158, 8143, 8169, 8206, 8177, 8298,3.6943886280059814
18, 8187, 8198, 8184, 8202, 8005, 8175, 8136, 8143, 8167, 8164, 8171, 8214, 8193, 8312,3.7032854557037354
19, 8189, 8208, 8184, 8222, 8040, 8184, 8169, 8155, 8164, 8177, 8164, 8209, 8186, 8309,3.7122559547424316
20, 8185, 8192, 8183, 8200, 8017, 8188, 8163, 8152, 8153, 8164, 8162, 8205, 8180, 8295,3.718266725540161
21, 8180, 8185, 8169, 8181, 8005, 8168, 8137, 8149, 8152, 8155, 8165, 8205, 8190, 8300,3.7251949310302734
22, 8196, 8200, 8194, 8193, 8040, 8169, 8187, 8175, 8163, 8166, 8170, 8208, 8188, 8315,3.733401298522949
23, 8171, 8193, 8168, 8187, 8012, 8185, 8150, 8174, 8178, 8179, 8166, 8202, 8179, 8311,3.7412984371185303
24, 8171, 8191, 8166, 8175, 8040, 8192, 8181, 8185, 8184, 8170, 8156, 8191, 8171, 8293,3.7491860389709473
25, 8171, 8184, 8164, 8185, 8021, 8185, 8155, 8187, 8207, 8172, 8159, 8188, 8179, 8290,3.757404088973999
26, 8134, 8168, 8135, 8174, 8011, 8183, 8134, 8172, 8210, 8171, 8156, 8169, 8168, 8274,3.766232967376709
27, 8147, 8167, 8165, 8143, 8072, 8183, 8215, 8177, 8167, 8149, 8143, 8152, 8134, 8248,3.773155927658081
28, 8144, 8151, 8142, 8134, 8012, 8171, 8144, 8161, 8152, 8139, 8144, 8154, 8134, 8256,3.7812376022338867
29, 8132, 8144, 8134, 8139, 8000, 8175, 8144, 8163, 8156, 8130, 8150, 8158, 8135, 8264,3.7891626358032227
30, 8166, 8168, 8204, 8156, 8065, 8180, 8221, 8170, 8133, 8128, 8151, 8164, 8132, 8260,3.796400785446167
31, 8169, 8178, 8191, 8182, 8035, 8163, 8150, 8148, 8124, 8135, 8152, 8172, 8154, 8269,3.80405330657959
32, 8143, 8162, 8142, 8182, 7996, 8156, 8100, 8148, 8142, 8134, 8163, 8185, 8180, 8290,3.8121650218963623
33, 8156, 8164, 8159, 8173, 8020, 8167, 8148, 8172, 8156, 8148, 8179, 8200, 8200, 8313,3.82041335105896
34, 8192, 8183, 8200, 8175, 8053, 8176, 8197, 8182, 8159, 8170, 8183, 8205, 8210, 8315,3.8293707370758057
35, 8185, 8180, 8171, 8173, 8003, 8163, 8136, 8157, 8156, 8161, 8167, 8189, 8194, 8297,3.8366637229919434
36, 8163, 8176, 8140, 8178, 8007, 8152, 8133, 8155, 8153, 8136, 8153, 8175, 8169, 8290,3.845350742340088
37, 8178, 8185, 8182, 8189, 8068, 8169, 8208, 8177, 8152, 8141, 8164, 8186, 8174, 8300,3.8521249294281006
38, 8158, 8179, 8159, 8182, 8016, 8173, 8119, 8152, 8162, 8173, 8168, 8190, 8199, 8311,3.8592021465301514
39, 8163, 8175, 8162, 8162, 8055, 8154, 8169, 8163, 8161, 8156, 8157, 8182, 8189, 8305,3.8672587871551514
40, 8198, 8174, 8219, 8167, 8093, 8149, 8252, 8196, 8154, 8124, 8159, 8190, 8174, 8299,3.876194953918457
41, 8170, 8167, 8182, 8184, 8015, 8156, 8138, 8173, 8161, 8146, 8164, 8194, 8195, 8306,3.883176803588867
42, 8165, 8165, 8175, 8175, 8041, 8152, 8168, 8175, 8158, 8159, 8161, 8183, 8195, 8292,3.8911328315734863
43, 8159, 8148, 8171, 8154, 8036, 8134, 8167, 8171, 8154, 8142, 8167, 8174, 8185, 8278,3.8992178440093994
44, 8146, 8148, 8165, 8160, 8030, 8140, 8153, 8158, 8150, 8143, 8170, 8172, 8188, 8279,3.907402753829956
45, 8174, 8171, 8199, 8189, 8049, 8163, 8184, 8165, 8145, 8153, 8166, 8185, 8198, 8296,3.9151837825775146
46, 8184, 8176, 8180, 8203, 8019, 8161, 8133, 8162, 8158, 8162, 8180, 8198, 8225, 8317,3.9233405590057373
47, 8200, 8177, 8193, 8196, 8056, 8156, 8175, 8177, 8160, 8176, 8187, 8196, 8228, 8315,3.9302330017089844
48, 8186, 8174, 8189, 8181, 8045, 8154, 8156, 8164, 8164, 8181, 8176, 8186, 8217, 8305,3.938333749771118
49, 8161, 8171, 8164, 8152, 8043, 8157, 8146, 8157, 8184, 8162, 8173, 8179, 8216, 8298,3.9474918842315674
50, 8171, 8162, 8184, 8129, 8070, 8167, 8194, 8178, 8187, 8158, 8174, 8180, 8212, 8291,3.9554574489593506
51, 8148, 8143, 8163, 8130, 8035, 8164, 8140, 8163, 8175, 8169, 8164, 8177, 8204, 8281,3.9664604663848877
52, 8137, 8139, 8163, 8130, 8050, 8156, 8169, 8167, 8156, 8148, 8156, 8175, 8185, 8263,3.9704606533050537
53, 8149, 8142, 8171, 8118, 8036, 8155, 8161, 8177, 8146, 8135, 8161, 8176, 8177, 8270,3.9815027713775635
54, 8161, 8161, 8170, 8140, 8040, 8167, 8142, 8184, 8155, 8155, 8177, 8190, 8202, 8304,3.986347198486328
55, 8173, 8182, 8195, 8172, 8084, 8172, 8193, 8192, 8163, 8166, 8193, 8205, 8224, 8306,3.9931530952453613
56, 8138, 8151, 8153, 8150, 8048, 8150, 8139, 8167, 8163, 8165, 8174, 8183, 8209, 8279,4.001245975494385
57, 8128, 8129, 8139, 8114, 8053, 8142, 8160, 8172, 8154, 8150, 8151, 8164, 8190, 8273,4.009386301040649
58, 8145, 8146, 8166, 8130, 8057, 8153, 8170, 8169, 8157, 8160, 8169, 8180, 8204, 8280,4.017249822616577
59, 8135, 8148, 8160, 8145, 8083, 8154, 8139, 8143, 8161, 8172, 8181, 8180, 8208, 8265,4.025196075439453
60, 8150, 8136, 8176, 8131, 8143, 8159, 8185, 8149, 8152, 8143, 8163, 8171, 8184, 8258,4.033220052719116
61, 8157, 8140, 8164, 8139, 8112, 8170, 8147, 8156, 8163, 8146, 8162, 8180, 8194, 8287,4.041134834289551
62, 8176, 8164, 8181, 8161, 8125, 8172, 8166, 8172, 8174, 8189, 8186, 8202, 8225, 8319,4.049380540847778
63, 8205, 8181, 8218, 8173, 8137, 8159, 8170, 8175, 8168, 8201, 8199, 8221, 8246, 8335,4.057367563247681
64, 8185, 8183, 8191, 8179, 8118, 8164, 8133, 8173, 8164, 8188, 8194, 8223, 8255, 8335,4.064154863357544
65, 8176, 8176, 8189, 8173, 8128, 8196, 8197, 8200, 8169, 8176, 8180, 8203, 8234, 8320,4.072302579879761
66, 8161, 8160, 8170, 8160, 8065, 8202, 8168, 8197, 8187, 8179, 8168, 8180, 8221, 8305,4.08018946647644
67, 8142, 8157, 8156, 8147, 8053, 8194, 8166, 8194, 8199, 8189, 8160, 8178, 8209, 8282,4.088423490524292
68, 8133, 8146, 8162, 8136, 8065, 8190, 8181, 8190, 8194, 8174, 8155, 8172, 8177, 8254,4.096389055252075
69, 8110, 8128, 8136, 8123, 8045, 8180, 8139, 8171, 8178, 8134, 8147, 8140, 8153, 8230,4.104253768920898
70, 8130, 8133, 8157, 8116, 8073, 8167, 8176, 8173, 8156, 8127, 8152, 8138, 8151, 8230,4.112370729446411
71, 8148, 8144, 8169, 8128, 8049, 8146, 8130, 8156, 8153, 8162, 8177, 8178, 8179, 8270,4.119313478469849
72, 8157, 8155, 8178, 8148, 8057, 8129, 8127, 8155, 8155, 8172, 8184, 8191, 8201, 8293,4.127361297607422
73, 8180, 8168, 8205, 8163, 8076, 8124, 8164, 8164, 8143, 8160, 8175, 8187, 8205, 8289,4.135354995727539
74, 8175, 8175, 8182, 8180, 8049, 8125, 8125, 8152, 8138, 8163, 8178, 8192, 8214, 8301,4.143290996551514
75, 8178, 8179, 8187, 8183, 8079, 8143, 8171, 8163, 8135, 8164, 8177, 8190, 8211, 8308,4.151324033737183
76, 8177, 8175, 8184, 8170, 8069, 8161, 8152, 8156, 8141, 8156, 8175, 8188, 8205, 8299,4.159392833709717
77, 8173, 8184, 8172, 8180, 8079, 8166, 8147, 8145, 8140, 8135, 8171, 8195, 8196, 8290,4.1672203540802
78, 8184, 8181, 8193, 8202, 8109, 8171, 8195, 8146, 8128, 8120, 8162, 8186, 8182, 8284,4.17533016204834
79, 8145, 8149, 8155, 8201, 8055, 8173, 8113, 8122, 8138, 8136, 8170, 8172, 8189, 8285,4.183352708816528
80, 8118, 8149, 8129, 8200, 8048, 8177, 8097, 8124, 8158, 8157, 8191, 8190, 8212, 8293,4.191162109375
81, 8139, 8169, 8158, 8201, 8075, 8186, 8166, 8150, 8162, 8159, 8194, 8205, 8220, 8287,4.19839882850647
82, 8145, 8157, 8172, 8193, 8084, 8180, 8194, 8165, 8157, 8148, 8173, 8188, 8200, 8276,4.2062177658081055
83, 8128, 8135, 8147, 8184, 8067, 8154, 8148, 8163, 8158, 8153, 8161, 8164, 8182, 8278,4.21432638168335
84, 8119, 8132, 8130, 8169, 8077, 8145, 8145, 8170, 8163, 8160, 8155, 8149, 8176, 8271,4.222363710403442
85, 8159, 8146, 8206, 8166, 8149, 8169, 8273, 8207, 8159, 8130, 8155, 8155, 8161, 8252,4.2301881313323975
86, 8146, 8152, 8196, 8193, 8064, 8170, 8169, 8186, 8169, 8140, 8169, 8171, 8177, 8257,4.238419055938721
87, 8104, 8157, 8126, 8203, 8023, 8155, 8082, 8167, 8187, 8182, 8172, 8168, 8198, 8261,4.246340990066528
88, 8144, 8165, 8187, 8186, 8132, 8165, 8228, 8205, 8176, 8173, 8169, 8171, 8185, 8249,4.253299713134766
89, 8165, 8158, 8204, 8200, 8100, 8162, 8180, 8194, 8172, 8169, 8179, 8191, 8201, 8277,4.26123571395874
90, 8167, 8169, 8174, 8225, 8066, 8155, 8123, 8178, 8181, 8182, 8193, 8204, 8230, 8312,4.269246339797974
91, 8186, 8183, 8190, 8221, 8091, 8162, 8160, 8185, 8175, 8179, 8196, 8205, 8227, 8311,4.278393268585205
92, 8177, 8183, 8184, 8228, 8088, 8167, 8149, 8177, 8159, 8167, 8187, 8196, 8217, 8297,4.285370826721191
93, 8185, 8192, 8190, 8253, 8080, 8167, 8151, 8176, 8154, 8146, 8191, 8208, 8223, 8306,4.296209096908569
94, 8205, 8203, 8198, 8262, 8076, 8165, 8139, 8180, 8177, 8150, 8210, 8242, 8251, 8340,4.301166772842407
95, 8226, 8207, 8224, 8256, 8142, 8173, 8208, 8202, 8192, 8182, 8207, 8241, 8252, 8337,4.3091418743133545
96, 8197, 8193, 8205, 8245, 8126, 8173, 8193, 8182, 8185, 8188, 8181, 8198, 8226, 8288,4.317142724990845
97, 8140, 8179, 8148, 8227, 8073, 8171, 8123, 8146, 8173, 8166, 8168, 8170, 8214, 8258,4.324220657348633
98, 8146, 8179, 8160, 8213, 8101, 8182, 8160, 8165, 8174, 8165, 8173, 8174, 8214, 8260,4.332238435745239
99, 8138, 8162, 8140, 8201, 8084, 8180, 8123, 8166, 8186, 8183, 8166, 8172, 8212, 8258,4.340203762054443
100, 8142, 8153, 8154, 8186, 8118, 8176, 8189, 8176, 8167, 8165, 8152, 8164, 8190, 8247,4.348291873931885
101, 8170, 8164, 8207, 8188, 8123, 8179, 8226, 8196, 8160, 8147, 8165, 8170, 8179, 8257,4.35628867149353
102, 8141, 8167, 8170, 8207, 8074, 8174, 8127, 8185, 8194, 8163, 8180, 8178, 8201, 8269,4.36423397064209
103, 8152, 8174, 8189, 8223, 8123, 8171, 8175, 8190, 8202, 8181, 8182, 8198, 8221, 8271,4.372295618057251
104, 8175, 8181, 8199, 8225, 8102, 8171, 8151, 8186, 8192, 8198, 8188, 8215, 8235, 8290,4.380150318145752
105, 8152, 8180, 8151, 8221, 8069, 8177, 8098, 8177, 8189, 8181, 8174, 8198, 8220, 8296,4.387230396270752
106, 8160, 8188, 8170, 8226, 8109, 8181, 8149, 8177, 8186, 8157, 8160, 8179, 8201, 8289,4.395200490951538
107, 8185, 8203, 8200, 8237, 8142, 8183, 8187, 8180, 8194, 8182, 8171, 8185, 8216, 8295,4.403190851211548
108, 8177, 8186, 8195, 8222, 8147, 8191, 8198, 8181, 8187, 8183, 8172, 8185, 8211, 8284,4.411329746246338
109, 8140, 8155, 8150, 8197, 8087, 8187, 8119, 8163, 8182, 8146, 8160, 8173, 8194, 8281,4.419149875640869
110, 8162, 8166, 8169, 8189, 8120, 8195, 8171, 8195, 8207, 8143, 8155, 8176, 8193, 8306,4.427337169647217
111, 8190, 8169, 8203, 8192, 8148, 8194, 8220, 8218, 8225, 8174, 8149, 8177, 8185, 8308,4.435364246368408
112, 8146, 8146, 8142, 8188, 8077, 8163, 8105, 8172, 8206, 8165, 8142, 8155, 8170, 8279,4.443296670913696
113, 8152, 8158, 8142, 8190, 8104, 8160, 8136, 8175, 8187, 8141, 8156, 8155, 8167, 8266,4.450383186340332
114, 8166, 8167, 8160, 8199, 8107, 8171, 8148, 8189, 8210, 8185, 8180, 8178, 8199, 8288,4.458343505859375
115, 8141, 8156, 8150, 8191, 8113, 8183, 8153, 8177, 8212, 8203, 8181, 8178, 8217, 8298,4.466226577758789
116, 8165, 8167, 8202, 8185, 8160, 8199, 8234, 8168, 8165, 8148, 8171, 8177, 8202, 8292,4.474285840988159
117, 8179, 8178, 8208, 8211, 8114, 8186, 8157, 8137, 8151, 8153, 8183, 8193, 8214, 8310,4.482351779937744
118, 8178, 8176, 8190, 8224, 8098, 8168, 8122, 8130, 8166, 8197, 8189, 8197, 8234, 8324,4.490189075469971
119, 8177, 8165, 8178, 8207, 8098, 8181, 8141, 8137, 8165, 8174, 8168, 8178, 8212, 8307,4.49938178062439
120, 8178, 8163, 8182, 8201, 8138, 8197, 8176, 8155, 8166, 8144, 8160, 8169, 8184, 8289,4.506164789199829
121, 8188, 8167, 8205, 8201, 8130, 8164, 8196, 8175, 8173, 8178, 8172, 8178, 8190, 8299,4.51422643661499
122, 8157, 8153, 8166, 8187, 8059, 8131, 8123, 8158, 8178, 8194, 8173, 8178, 8206, 8307,4.521344184875488
123, 8160, 8159, 8182, 8197, 8261, 8158, 8186, 8177, 8190, 8173, 8182, 8186, 8210, 8290,4.529223680496216
124, 8179, 8181, 8204, 8222, 8490, 8184, 8175, 8185, 8203, 8188, 8201, 8211, 8225, 8295,4.5373945236206055
125, 8177, 8189, 8170, 8222, 8532, 8183, 8120, 8175, 8204, 8205, 8197, 8212, 8233, 8316,4.546322822570801
126, 8211, 8201, 8205, 8231, 8562, 8202, 8215, 8203, 8202, 8191, 8192, 8209, 8223, 8316,4.553295135498047
127, 8213, 8211, 8209, 8263, 8566, 8217, 8180, 8199, 8212, 8203, 8196, 8218, 8238, 8311,4.561399221420288
238, 8192, 8210, 8181, 8254, 8580, 8206, 8156, 8183, 8199, 8204, 8180, 8207, 8234, 8297,4.569251537322998
0, 8190, 8195, 8186, 8221, 8561, 8203, 8191, 8172, 8169, 8175, 8164, 8180, 8208, 8276,4.577402830123901
1, 8182, 8187, 8171, 8222, 8504, 8203, 8153, 8156, 8171, 8172, 8166, 8176, 8207, 8283,4.584266662597656
2, 8182, 8198, 8161, 8231, 8488, 8197, 8147, 8179, 8202, 8185, 8172, 8200, 8223, 8304,4.592365980148315
3, 8181, 8205, 8165, 8227, 8490, 8202, 8162, 8210, 8239, 8203, 8181, 8212, 8237, 8314,4.6003313064575195
4, 8189, 8195, 8185, 8221, 8509, 8226, 8200, 8230, 8257, 8219, 8186, 8201, 8235, 8313,4.6083455085754395
5, 8181, 8172, 8173, 8206, 8489, 8239, 8179, 8224, 8262, 8229, 8177, 8188, 8222, 8300,4.616292953491211
6, 8144, 8160, 8137, 8189, 8475, 8237, 8163, 8214, 8265, 8229, 8164, 8170, 8208, 8273,4.624396800994873
7, 8133, 8157, 8153, 8177, 8489, 8238, 8206, 8213, 8244, 8204, 8163, 8157, 8183, 8256,4.632338047027588
8, 8125, 8148, 8137, 8174, 8434, 8236, 8140, 8185, 8235, 8190, 8171, 8164, 8176, 8267,4.640315771102905
9, 8140, 8158, 8152, 8186, 8456, 8243, 8167, 8189, 8241, 8205, 8175, 8179, 8194, 8290,4.648285388946533
10, 8169, 8164, 8189, 8192, 8468, 8242, 8188, 8186, 8230, 8220, 8173, 8182, 8206, 8311,4.655284881591797
11, 8162, 8154, 8147, 8184, 8419, 8222, 8117, 8160, 8222, 8207, 8172, 8184, 8210, 8318,4.66340184211731
12, 8206, 8173, 8194, 8189, 8487, 8227, 8228, 8190, 8228, 8181, 8175, 8200, 8203, 8309,4.671148061752319
13, 8226, 8185, 8229, 8201, 8471, 8231, 8207, 8191, 8240, 8191, 8180, 8202, 8205, 8312,4.679301738739014
14, 8187, 8181, 8179, 8192, 8421, 8212, 8124, 8173, 8238, 8207, 8171, 8181, 8209, 8310,4.687404155731201
15, 8191, 8182, 8188, 8188, 8441, 8220, 8188, 8194, 8234, 8201, 8166, 8188, 8208, 8309,4.6951353549957275
16, 8187, 8169, 8181, 8195, 8406, 8240, 8161, 8189, 8246, 8201, 8169, 8204, 8215, 8323,4.703342914581299
17, 8162, 8152, 8151, 8181, 8370, 8228, 8139, 8177, 8232, 8190, 8163, 8181, 8198, 8313,4.7113728523254395
18, 8153, 8152, 8138, 8170, 8339, 8210, 8138, 8170, 8208, 8180, 8159, 8159, 8183, 8296,4.7181923389434814
19, 8161, 8166, 8159, 8171, 8364, 8217, 8178, 8171, 8204, 8170, 8152, 8171, 8179, 8294,4.7262959480285645
20, 8161, 8158, 8169, 8157, 8364, 8219, 8177, 8166, 8204, 8149, 8147, 8180, 8165, 8293,4.7343268394470215
21, 8119, 8129, 8115, 8147, 8319, 8207, 8109, 8152, 8201, 8148, 8150, 8150, 8151, 8274,4.742334604263306
22, 8121, 8132, 8146, 8146, 8390, 8205, 8227, 8188, 8188, 8156, 8149, 8120, 8130, 8233,4.750276565551758
23, 8137, 8139, 8194, 8139, 8381, 8201, 8248, 8192, 8186, 8153, 8141, 8121, 8123, 8217,4.758334159851074
24, 8119, 8127, 8151, 8143, 8298, 8202, 8114, 8151, 8198, 8153, 8147, 8149, 8145, 8247,4.7663609981536865
25, 8128, 8128, 8144, 8152, 8326, 8213, 8135, 8155, 8197, 8163, 8168, 8173, 8162, 8265,4.774368762969971
26, 8140, 8140, 8162, 8154, 8351, 8205, 8182, 8165, 8201, 8166, 8161, 8153, 8154, 8242,4.782388925552368
27, 8159, 8159, 8183, 8157, 8350, 8200, 8188, 8159, 8205, 8163, 8151, 8148, 8145, 8242,4.7893970012664795
28, 8178, 8174, 8194, 8165, 8318, 8206, 8139, 8154, 8213, 8177, 8179, 8198, 8183, 8293,4.797305345535278
29, 8191, 8185, 8198, 8180, 8325, 8205, 8147, 8173, 8230, 8194, 8195, 8220, 8215, 8319,4.805462121963501
30, 8219, 8193, 8220, 8192, 8356, 8199, 8188, 8179, 8223, 8190, 8177, 8204, 8198, 8312,4.813472509384155
31, 8206, 8181, 8179, 8178, 8305, 8185, 8104, 8142, 8199, 8182, 8172, 8208, 8202, 8332,4.8211634159088135
32, 8201, 8170, 8176, 8154, 8334, 8190, 8169, 8166, 8192, 8178, 8182, 8217, 8222, 8338,4.829200267791748
33, 8195, 8161, 8185, 8147, 8336, 8200, 8201, 8192, 8208, 8195, 8176, 8192, 8206, 8302,4.840390920639038
34, 8151, 8148, 8138, 8135, 8294, 8191, 8137, 8177, 8208, 8199, 8164, 8173, 8181, 8284,4.844183683395386
35, 8168, 8144, 8181, 8122, 8364, 8193, 8241, 8205, 8197, 8174, 8169, 8198, 8183, 8305,4.853387832641602
36, 8176, 8133, 8195, 8122, 8368, 8201, 8210, 8215, 8220, 8180, 8171, 8203, 8196, 8315,4.860363960266113
37, 8148, 8135, 8142, 8121, 8341, 8208, 8128, 8198, 8238, 8180, 8157, 8161, 8172, 8283,4.868389844894409
38, 8169, 8153, 8145, 8131, 8337, 8207, 8146, 8188, 8221, 8148, 8153, 8158, 8152, 8265,4.87632417678833
39, 8191, 8153, 8168, 8128, 8353, 8193, 8181, 8188, 8202, 8136, 8160, 8187, 8150, 8278,4.884484767913818
40, 8184, 8135, 8194, 8098, 8394, 8197, 8239, 8206, 8191, 8136, 8160, 8175, 8133, 8264,4.892466306686401
41, 8162, 8133, 8177, 8101, 8342, 8207, 8160, 8178, 8195, 8142, 8165, 8155, 8145, 8255,4.900264024734497
42, 8183, 8164, 8178, 8150, 8330, 8208, 8123, 8152, 8194, 8165, 8179, 8184, 8187, 8291,4.908186674118042
43, 8205, 8176, 8188, 8172, 8328, 8195, 8124, 8147, 8185, 8181, 8183, 8208, 8195, 8310,4.915240287780762
44, 8180, 8176, 8167, 8159, 8331, 8186, 8126, 8145, 8188, 8158, 8165, 8175, 8161, 8273,4.9232001304626465
45, 8215, 8192, 8232, 8166, 8411, 8191, 8237, 8160, 8179, 8136, 8158, 8170, 8141, 8254,4.931146860122681
46, 8235, 8181, 8227, 8180, 8347, 8192, 8154, 8137, 8181, 8165, 8180, 8217, 8187, 8310,4.940084218978882
47, 8190, 8164, 8156, 8169, 8308, 8203, 8113, 8140, 8201, 8192, 8184, 8210, 8205, 8314,4.947287321090698
48, 8179, 8180, 8184, 8167, 8365, 8208, 8220, 8182, 8199, 8192, 8169, 8161, 8168, 8245,4.955247402191162
49, 8193, 8187, 8188, 8181, 8320, 8184, 8142, 8166, 8198, 8215, 8175, 8176, 8194, 8269,4.963264465332031
50, 8216, 8176, 8165, 8172, 8310, 8180, 8106, 8148, 8207, 8228, 8189, 8228, 8239, 8352,4.972265005111694
51, 8209, 8164, 8164, 8152, 8346, 8195, 8181, 8152, 8194, 8203, 8171, 8204, 8194, 8327,4.97822117805481
52, 8189, 8159, 8169, 8155, 8344, 8188, 8215, 8157, 8162, 8161, 8141, 8150, 8135, 8245,4.986214637756348
53, 8196, 8150, 8169, 8147, 8298, 8175, 8165, 8154, 8164, 8145, 8152, 8165, 8153, 8248,4.994201183319092
54, 8169, 8130, 8134, 8111, 8286, 8178, 8130, 8153, 8183, 8169, 8166, 8187, 8178, 8290,5.003400087356567
55, 8144, 8118, 8153, 8083, 8359, 8185, 8241, 8182, 8160, 8160, 8141, 8148, 8126, 8265,5.010328531265259
56, 8128, 8108, 8163, 8095, 8302, 8182, 8190, 8176, 8154, 8133, 8133, 8117, 8094, 8223,5.018440008163452
57, 8143, 8124, 8165, 8137, 8260, 8182, 8130, 8170, 8190, 8139, 8166, 8160, 8142, 8235,5.0262672901153564
58, 8198, 8159, 8212, 8159, 8334, 8193, 8215, 8188, 8183, 8150, 8178, 8207, 8171, 8270,5.0352911949157715
59, 8174, 8148, 8166, 8155, 8312, 8194, 8150, 8147, 8139, 8139, 8153, 8170, 8135, 8268,5.04137396812439
60, 8144, 8139, 8150, 8169, 8306, 8183, 8153, 8124, 8104, 8090, 8136, 8117, 8086, 8219,5.0492987632751465
61, 8162, 8154, 8188, 8192, 8288, 8163, 8169, 8125, 8102, 8070, 8147, 8148, 8105, 8217,5.057220220565796
62, 8185, 8171, 8184, 8204, 8287, 8173, 8137, 8148, 8142, 8131, 8177, 8217, 8174, 8291,5.0653908252716064
63, 8222, 8192, 8207, 8218, 8346, 8210, 8192, 8201, 8188, 8194, 8190, 8219, 8193, 8330,5.07326340675354
64, 8200, 8200, 8180, 8227, 8307, 8201, 8146, 8188, 8201, 8183, 8162, 8157, 8160, 8281,5.081333875656128
65, 8170, 8204, 8169, 8224, 8305, 8170, 8155, 8171, 8176, 8154, 8147, 8136, 8136, 8229,5.089080333709717
66, 8176, 8188, 8189, 8217, 8301, 8162, 8165, 8178, 8166, 8163, 8172, 8187, 8162, 8251,5.097163677215576
67, 8161, 8153, 8160, 8193, 8273, 8171, 8139, 8177, 8179, 8174, 8166, 8195, 8176, 8289,5.1051106452941895
68, 8154, 8136, 8163, 8160, 8302, 8191, 8192, 8187, 8183, 8173, 8134, 8139, 8137, 8265,5.112176179885864
69, 8128, 8135, 8148, 8157, 8282, 8197, 8152, 8185, 8189, 8172, 8141, 8112, 8125, 8203,5.120392560958862
70, 8103, 8131, 8131, 8157, 8285, 8189, 8164, 8191, 8190, 8160, 8160, 8134, 8141, 8177,5.128292560577393
71, 8101, 8113, 8140, 8133, 8273, 8184, 8187, 8182, 8180, 8157, 8157, 8158, 8142, 8212,5.1362316608428955
72, 8117, 8107, 8141, 8122, 8250, 8186, 8147, 8161, 8171, 8158, 8146, 8148, 8129, 8257,5.144201278686523
73, 8172, 8133, 8187, 8153, 8291, 8190, 8191, 8181, 8170, 8144, 8150, 8141, 8120, 8263,5.152302026748657
74, 8181, 8164, 8192, 8187, 8274, 8181, 8158, 8184, 8184, 8151, 8170, 8163, 8142, 8255,5.160339832305908
75, 8163, 8182, 8183, 8200, 8279, 8183, 8159, 8179, 8175, 8161, 8177, 8185, 8156, 8245,5.168318271636963
76, 8177, 8184, 8199, 8214, 8265, 8197, 8181, 8167, 8147, 8146, 8174, 8185, 8151, 8245,5.175270080566406
77, 8188, 8181, 8183, 8229, 8213, 8191, 8134, 8138, 8143, 8134, 8168, 8175, 8158, 8268,5.187392711639404
78, 8199, 8190, 8206, 8223, 8246, 8181, 8172, 8141, 8143, 8129, 8171, 8192, 8171, 8275,5.191351652145386
79, 8200, 8202, 8219, 8229, 8237, 8173, 8142, 8143, 8154, 8162, 8189, 8231, 8205, 8289,5.199157238006592
80, 8216, 8219, 8207, 8251, 8235, 8179, 8148, 8164, 8179, 8203, 8187, 8234, 8219, 8314,5.207351922988892
81, 8216, 8216, 8196, 8245, 8252, 8189, 8186, 8191, 8193, 8213, 8156, 8192, 8185, 8290,5.21537446975708
82, 8160, 8182, 8157, 8222, 8228, 8177, 8131, 8175, 8199, 8230, 8147, 8164, 8177, 8249,5.223184108734131
83, 8162, 8168, 8181, 8210, 8256, 8170, 8173, 8178, 8193, 8234, 8166, 8183, 8200, 8260,5.230382442474365
84, 8168, 8166, 8169, 8193, 8235, 8170, 8161, 8176, 8190, 8216, 8154, 8172, 8192, 8276,5.239412307739258
85, 8104, 8145, 8110, 8162, 8220, 8168, 8144, 8172, 8191, 8194, 8114, 8103, 8132, 8206,5.246366024017334
86, 8085, 8127, 8130, 8144, 8232, 8177, 8180, 8176, 8182, 8168, 8118, 8084, 8091, 8145,5.254379510879517
87, 8123, 8134, 8152, 8155, 8203, 8192, 8141, 8171, 8184, 8161, 8155, 8141, 8122, 8195,5.2623138427734375
88, 8159, 8139, 8165, 8152, 8236, 8204, 8183, 8189, 8185, 8160, 8156, 8155, 8132, 8241,5.270580291748047
89, 8127, 8116, 8142, 8125, 8214, 8190, 8172, 8177, 8168, 8138, 8123, 8092, 8076, 8193,5.278162002563477
90, 8091, 8116, 8129, 8120, 8197, 8180, 8150, 8164, 8152, 8114, 8128, 8079, 8052, 8146,5.286116600036621
91, 8139, 8140, 8192, 8145, 8253, 8193, 8200, 8181, 8155, 8116, 8168, 8155, 8109, 8182,5.294312000274658
92, 8151, 8132, 8184, 8147, 8245, 8190, 8153, 8162, 8154, 8114, 8170, 8182, 8147, 8230,5.3023247718811035
93, 8143, 8121, 8170, 8133, 8260, 8181, 8182, 8154, 8126, 8077, 8150, 8144, 8122, 8222,5.3091888427734375
94, 8171, 8131, 8191, 8142, 8239, 8176, 8184, 8153, 8116, 8073, 8158, 8153, 8131, 8228,5.317378044128418
95, 8192, 8148, 8192, 8168, 8222, 8177, 8145, 8148, 8137, 8115, 8173, 8210, 8178, 8286,5.32927131652832
96, 8200, 8159, 8205, 8183, 8267, 8185, 8191, 8171, 8148, 8141, 8171, 8230, 8190, 8337,5.333177328109741
97, 8165, 8144, 8168, 8173, 8243, 8174, 8151, 8175, 8166, 8160, 8160, 8184, 8180, 8320,5.341233491897583
98, 8152, 8132, 8153, 8154, 8246, 8155, 8155, 8178, 8178, 8171, 8154, 8151, 8179, 8269,5.349189758300781
99, 8158, 8140, 8176, 8160, 8244, 8147, 8157, 8172, 8170, 8184, 8169, 8182, 8202, 8279,5.357365369796753
100, 8141, 8152, 8165, 8173, 8232, 8165, 8138, 8166, 8178, 8205, 8178, 8193, 8215, 8318,5.365387916564941
101, 8133, 8148, 8169, 8152, 8259, 8179, 8197, 8175, 8176, 8195, 8152, 8148, 8168, 8284,5.373169422149658
102, 8109, 8112, 8147, 8125, 8224, 8168, 8156, 8150, 8152, 8171, 8131, 8129, 8135, 8225,5.380385637283325
103, 8115, 8105, 8162, 8134, 8231, 8172, 8173, 8161, 8143, 8167, 8153, 8174, 8152, 8232,5.388187885284424
104, 8141, 8129, 8188, 8142, 8238, 8177, 8192, 8181, 8145, 8163, 8172, 8194, 8158, 8265,5.396485805511475
105, 8120, 8124, 8147, 8130, 8211, 8159, 8143, 8159, 8126, 8134, 8153, 8141, 8116, 8252,5.405383825302124
106, 8130, 8119, 8164, 8137, 8232, 8155, 8189, 8170, 8117, 8118, 8149, 8121, 8085, 8229,5.412321329116821
107, 8147, 8127, 8181, 8166, 8204, 8164, 8160, 8178, 8141, 8132, 8169, 8170, 8130, 8238,5.420358180999756
108, 8142, 8133, 8169, 8168, 8224, 8167, 8161, 8171, 8135, 8136, 8166, 8192, 8164, 8236,5.428140640258789
109, 8153, 8141, 8175, 8159, 8242, 8170, 8188, 8159, 8117, 8134, 8160, 8166, 8150, 8232,5.435352563858032
110, 8160, 8160, 8167, 8169, 8203, 8172, 8146, 8146, 8130, 8137, 8162, 8150, 8153, 8260,5.4433982372283936
111, 8188, 8170, 8201, 8176, 8226, 8168, 8187, 8165, 8130, 8139, 8164, 8178, 8169, 8276,5.451158285140991
112, 8197, 8151, 8202, 8174, 8208, 8161, 8157, 8166, 8134, 8158, 8181, 8212, 8185, 8284,5.459437608718872
113, 8172, 8140, 8168, 8168, 8216, 8161, 8156, 8165, 8148, 8160, 8181, 8194, 8173, 8288,5.467385292053223
114, 8156, 8139, 8163, 8151, 8227, 8161, 8190, 8170, 8136, 8135, 8153, 8137, 8138, 8259,5.476123571395874
115, 8142, 8129, 8151, 8132, 8179, 8155, 8139, 8164, 8130, 8135, 8145, 8121, 8133, 8241,5.4833784103393555
116, 8161, 8132, 8179, 8130, 8205, 8171, 8182, 8185, 8145, 8148, 8164, 8165, 8153, 8258,5.4911887645721436
117, 8149, 8135, 8172, 8145, 8206, 8174, 8166, 8176, 8158, 8144, 8179, 8187, 8170, 8278,5.499192237854004
118, 8127, 8140, 8154, 8162, 8209, 8159, 8142, 8171, 8164, 8143, 8186, 8172, 8176, 8278,5.506404638290405
119, 8168, 8150, 8195, 8168, 8206, 8165, 8175, 8200, 8185, 8174, 8196, 8182, 8187, 8276,5.514387845993042
120, 8181, 8153, 8185, 8163, 8143, 8171, 8133, 8198, 8199, 8210, 8198, 8197, 8209, 8287,5.5233399868011475
121, 8192, 8168, 8197, 8178, 8170, 8166, 8169, 8193, 8178, 8192, 8186, 8204, 8211, 8306,5.530382394790649
122, 8208, 8179, 8212, 8206, 8176, 8158, 8156, 8177, 8167, 8168, 8186, 8213, 8194, 8324,5.538401365280151
123, 8194, 8173, 8178, 8201, 8161, 8165, 8136, 8168, 8178, 8167, 8184, 8199, 8172, 8305,5.546390533447266
124, 8190, 8169, 8183, 8184, 8189, 8182, 8188, 8185, 8176, 8167, 8173, 8178, 8161, 8273,5.554160833358765
125, 8172, 8169, 8174, 8192, 8160, 8180, 8138, 8172, 8174, 8178, 8176, 8171, 8176, 8266,5.5613319873809814
126, 8166, 8169, 8173, 8190, 8168, 8167, 8157, 8162, 8171, 8165, 8182, 8170, 8175, 8262,5.570378303527832
127, 8171, 8159, 8185, 8167, 8186, 8161, 8186, 8162, 8163, 8145, 8178, 8171, 8163, 8264,5.579342842102051
238, 8162, 8160, 8166, 8162, 8153, 8158, 8135, 8152, 8158, 8154, 8178, 8173, 8168, 8275,5.585256576538086
0, 8152, 8167, 8142, 8173, 8109, 8147, 8097, 8142, 8146, 8146, 8176, 8164, 8164, 8266,5.593386173248291
1, 8130, 8153, 8120, 8161, 8123, 8141, 8103, 8138, 8136, 8119, 8160, 8142, 8142, 8248,5.601134538650513
2, 8164, 8153, 8187, 8148, 8238, 8166, 8255, 8173, 8126, 8111, 8156, 8135, 8120, 8235,5.609449863433838
3, 8186, 8161, 8218, 8165, 8199, 8172, 8233, 8169, 8125, 8124, 8175, 8140, 8127, 8234,5.618056297302246
4, 8141, 8158, 8144, 8173, 8100, 8152, 8078, 8131, 8142, 8136, 8189, 8148, 8150, 8254,5.625168561935425
5, 8151, 8159, 8157, 8165, 8161, 8160, 8135, 8148, 8148, 8148, 8196, 8165, 8166, 8278,5.63225531578064
6, 8189, 8161, 8183, 8178, 8170, 8178, 8165, 8158, 8153, 8152, 8194, 8176, 8176, 8289,5.640150308609009
7, 8188, 8163, 8162, 8182, 8154, 8180, 8154, 8158, 8161, 8131, 8190, 8169, 8167, 8285,5.649260997772217
8, 8179, 8161, 8171, 8143, 8186, 8181, 8199, 8171, 8159, 8129, 8191, 8158, 8152, 8273,5.656270265579224
9, 8176, 8159, 8183, 8116, 8185, 8184, 8198, 8175, 8158, 8155, 8197, 8161, 8163, 8275,5.663981199264526
10, 8195, 8170, 8196, 8133, 8169, 8191, 8174, 8171, 8164, 8163, 8207, 8179, 8190, 8296,5.672196626663208
11, 8189, 8173, 8173, 8145, 8142, 8189, 8120, 8141, 8173, 8155, 8206, 8187, 8205, 8312,5.681246042251587
12, 8188, 8177, 8188, 8126, 8197, 8180, 8205, 8157, 8161, 8142, 8191, 8168, 8181, 8292,5.688141584396362
13, 8192, 8175, 8202, 8108, 8184, 8162, 8203, 8168, 8142, 8134, 8184, 8144, 8153, 8267,5.696228742599487
14, 8138, 8152, 8127, 8098, 8104, 8150, 8076, 8135, 8146, 8122, 8182, 8125, 8149, 8254,5.704113483428955
15, 8120, 8132, 8138, 8076, 8159, 8151, 8181, 8156, 8134, 8086, 8167, 8113, 8115, 8216,5.71105170249939
16, 8123, 8118, 8160, 8062, 8148, 8138, 8188, 8157, 8101, 8065, 8162, 8111, 8088, 8186,5.719149351119995
17, 8111, 8121, 8141, 8074, 8136, 8134, 8132, 8139, 8084, 8063, 8177, 8120, 8091, 8187,5.727133512496948
18, 8136, 8138, 8178, 8091, 8167, 8152, 8178, 8155, 8103, 8074, 8195, 8140, 8095, 8207,5.736228704452515
19, 8142, 8145, 8178, 8110, 8137, 8169, 8154, 8173, 8144, 8118, 8205, 8155, 8120, 8226,5.74311900138855
20, 8155, 8152, 8190, 8127, 8171, 8188, 8194, 8197, 8160, 8133, 8211, 8169, 8144, 8236,5.751125812530518
21, 8170, 8164, 8196, 8141, 8162, 8184, 8159, 8183, 8158, 8128, 8220, 8187, 8164, 8267,5.759132623672485
22, 8189, 8182, 8187, 8154, 8152, 8173, 8143, 8165, 8154, 8141, 8213, 8186, 8168, 8288,5.76620078086853
23, 8214, 8186, 8204, 8153, 8163, 8176, 8196, 8164, 8148, 8141, 8205, 8186, 8161, 8282,5.778300523757935
24, 8178, 8169, 8168, 8140, 8133, 8186, 8150, 8149, 8150, 8148, 8220, 8196, 8182, 8273,5.782188653945923
25, 8148, 8157, 8161, 8130, 8164, 8193, 8175, 8153, 8135, 8157, 8216, 8182, 8187, 8260,5.790056228637695
26, 8153, 8155, 8171, 8132, 8145, 8178, 8167, 8145, 8130, 8147, 8200, 8158, 8169, 8258,5.799123764038086
27, 8176, 8171, 8171, 8138, 8136, 8159, 8150, 8151, 8148, 8153, 8211, 8165, 8180, 8280,5.8062584400177
28, 8199, 8178, 8197, 8137, 8173, 8152, 8181, 8177, 8146, 8166, 8218, 8180, 8191, 8288,5.814202785491943
29, 8167, 8159, 8166, 8129, 8138, 8141, 8126, 8161, 8139, 8143, 8201, 8166, 8171, 8272,5.8221964836120605
30, 8166, 8163, 8170, 8131, 8156, 8149, 8167, 8176, 8149, 8121, 8201, 8161, 8161, 8264,5.830242156982422
31, 8192, 8172, 8191, 8143, 8162, 8169, 8178, 8200, 8162, 8152, 8210, 8176, 8180, 8277,5.837055444717407
32, 8174, 8154, 8154, 8133, 8144, 8166, 8143, 8182, 8156, 8152, 8193, 8164, 8168, 8278,5.845207691192627
33, 8160, 8134, 8156, 8106, 8160, 8163, 8191, 8168, 8146, 8120, 8185, 8144, 8136, 8249,5.853148460388184
34, 8143, 8129, 8148, 8097, 8137, 8184, 8164, 8171, 8169, 8148, 8187, 8145, 8147, 8242,5.862281799316406
35, 8159, 8144, 8153, 8109, 8163, 8214, 8198, 8200, 8188, 8164, 8188, 8158, 8162, 8259,5.869140386581421
36, 8181, 8164, 8171, 8128, 8157, 8217, 8201, 8208, 8191, 8145, 8193, 8166, 8168, 8260,5.877202272415161
37, 8161, 8172, 8163, 8132, 8137, 8202, 8153, 8190, 8197, 8152, 8190, 8161, 8168, 8240,5.886361598968506
38, 8178, 8176, 8192, 8128, 8174, 8204, 8194, 8176, 8179, 8149, 8189, 8165, 8152, 8238,5.893268346786499
39, 8185, 8178, 8179, 8158, 8136, 8199, 8146, 8133, 8151, 8136, 8190, 8174, 8162, 8266,5.901239633560181
40, 8173, 8191, 8170, 8195, 8142, 8182, 8146, 8119, 8134, 8135, 8186, 8176, 8175, 8268,5.908285617828369
41, 8178, 8204, 8187, 8200, 8158, 8174, 8157, 8124, 8145, 8152, 8192, 8185, 8179, 8266,5.9161858558654785
42, 8179, 8205, 8172, 8207, 8125, 8177, 8119, 8122, 8176, 8187, 8197, 8191, 8195, 8290,5.9243762493133545
43, 8183, 8203, 8182, 8214, 8146, 8186, 8183, 8150, 8189, 8201, 8190, 8175, 8201, 8288,5.932292222976685
44, 8154, 8197, 8162, 8203, 8130, 8176, 8162, 8158, 8193, 8200, 8193, 8158, 8201, 8269,5.940231561660767
45, 8136, 8191, 8150, 8181, 8144, 8163, 8161, 8166, 8184, 8202, 8187, 8157, 8192, 8265,5.948329210281372
46, 8139, 8173, 8161, 8153, 8140, 8159, 8181, 8170, 8169, 8197, 8159, 8144, 8166, 8256,5.956245183944702
47, 8113, 8156, 8126, 8131, 8098, 8155, 8142, 8155, 8167, 8175, 8148, 8117, 8140, 8240,5.964191675186157
48, 8128, 8169, 8146, 8134, 8142, 8158, 8191, 8171, 8164, 8156, 8148, 8126, 8133, 8243,5.97113823890686
49, 8148, 8166, 8158, 8136, 8131, 8163, 8164, 8161, 8158, 8167, 8148, 8145, 8142, 8263,5.979104280471802
50, 8143, 8147, 8149, 8124, 8120, 8171, 8156, 8139, 8139, 8148, 8144, 8137, 8131, 8257,5.987061023712158
51, 8147, 8142, 8167, 8123, 8129, 8180, 8191, 8144, 8119, 8100, 8139, 8137, 8106, 8240,5.995084524154663
52, 8146, 8148, 8150, 8131, 8106, 8184, 8147, 8140, 8120, 8089, 8144, 8142, 8105, 8236,6.003184080123901
53, 8172, 8164, 8172, 8138, 8150, 8194, 8189, 8151, 8116, 8090, 8151, 8146, 8115, 8242,6.011210680007935
54, 8183, 8171, 8193, 8150, 8148, 8190, 8177, 8149, 8109, 8089, 8151, 8163, 8130, 8260,6.01915717124939
55, 8160, 8177, 8170, 8169, 8121, 8184, 8133, 8140, 8119, 8101, 8152, 8171, 8151, 8278,6.0272536277771
56, 8170, 8194, 8181, 8191, 8143, 8196, 8160, 8151, 8131, 8119, 8169, 8174, 8174, 8281,6.034276962280273
57, 8178, 8202, 8184, 8196, 8151, 8198, 8144, 8159, 8143, 8151, 8184, 8189, 8210, 8293,6.046259880065918
58, 8179, 8203, 8184, 8192, 8160, 8193, 8153, 8179, 8159, 8193, 8182, 8207, 8239, 8312,6.050203323364258
59, 8178, 8198, 8174, 8196, 8136, 8184, 8141, 8185, 8185, 8212, 8172, 8211, 8250, 8325,6.058269739151001
60, 8183, 8203, 8186, 8193, 8175, 8170, 8201, 8196, 8194, 8197, 8158, 8196, 8237, 8316,6.066158771514893
61, 8179, 8202, 8213, 8164, 8194, 8161, 8239, 8202, 8182, 8195, 8139, 8176, 8205, 8289,6.074250221252441
62, 8123, 8164, 8144, 8135, 8109, 8158, 8112, 8171, 8185, 8208, 8117, 8148, 8186, 8273,6.082257509231567
63, 8133, 8158, 8139, 8141, 8164, 8171, 8170, 8191, 8192, 8203, 8117, 8140, 8183, 8280,6.090125322341919
64, 8164, 8183, 8178, 8167, 8211, 8179, 8209, 8205, 8195, 8204, 8134, 8148, 8188, 8289,6.0971901416778564
65, 8127, 8185, 8149, 8168, 8196, 8179, 8144, 8177, 8195, 8204, 8129, 8136, 8171, 8260,6.105136156082153
66, 8129, 8171, 8158, 8156, 8220, 8188, 8190, 8171, 8179, 8180, 8120, 8122, 8128, 8214,6.114300012588501
67, 8127, 8160, 8141, 8157, 8183, 8189, 8145, 8149, 8172, 8177, 8126, 8115, 8119, 8201,6.121264457702637
68, 8121, 8171, 8147, 8162, 8213, 8196, 8156, 8140, 8159, 8159, 8123, 8109, 8112, 8196,6.129121780395508
69, 8137, 8186, 8171, 8170, 8210, 8198, 8175, 8126, 8137, 8126, 8123, 8116, 8099, 8198,6.137338638305664
70, 8148, 8194, 8162, 8188, 8149, 8181, 8140, 8116, 8128, 8131, 8134, 8133, 8108, 8215,6.146273612976074
71, 8179, 8209, 8202, 8206, 8156, 8168, 8178, 8134, 8127, 8152, 8140, 8153, 8124, 8229,6.153218984603882
72, 8182, 8221, 8207, 8221, 8135, 8170, 8140, 8127, 8135, 8165, 8144, 8173, 8154, 8257,6.1644415855407715
73, 8184, 8231, 8194, 8221, 8150, 8179, 8164, 8148, 8137, 8166, 8150, 8185, 8178, 8290,6.168273210525513
74, 8185, 8220, 8191, 8207, 8159, 8177, 8184, 8174, 8133, 8172, 8142, 8182, 8182, 8295,6.17638635635376
75, 8151, 8193, 8152, 8191, 8141, 8177, 8146, 8173, 8137, 8166, 8126, 8164, 8171, 8278,6.184272050857544
76, 8138, 8174, 8150, 8167, 8155, 8182, 8196, 8191, 8138, 8140, 8123, 8149, 8152, 8256,6.193344593048096
77, 8110, 8157, 8133, 8143, 8111, 8161, 8149, 8185, 8149, 8147, 8125, 8136, 8150, 8241,6.200326919555664
78, 8094, 8149, 8124, 8133, 8119, 8148, 8145, 8177, 8157, 8157, 8125, 8125, 8143, 8224,6.208302021026611
79, 8116, 8145, 8147, 8127, 8133, 8157, 8177, 8175, 8146, 8152, 8132, 8124, 8130, 8215,6.216311693191528
80, 8123, 8153, 8139, 8140, 8106, 8158, 8132, 8157, 8139, 8155, 8133, 8130, 8136, 8227,6.224363088607788
81, 8148, 8180, 8167, 8161, 8137, 8158, 8177, 8162, 8144, 8151, 8128, 8139, 8136, 8238,6.231268882751465
82, 8147, 8186, 8166, 8167, 8110, 8159, 8154, 8154, 8152, 8143, 8133, 8128, 8131, 8236,6.239206314086914
83, 8135, 8184, 8155, 8172, 8115, 8164, 8153, 8157, 8151, 8147, 8138, 8115, 8141, 8227,6.247279405593872
84, 8155, 8192, 8186, 8179, 8139, 8172, 8184, 8165, 8144, 8142, 8141, 8132, 8150, 8237,6.2551820278167725
85, 8135, 8182, 8165, 8170, 8102, 8168, 8133, 8150, 8150, 8127, 8149, 8149, 8149, 8252,6.263189315795898
86, 8116, 8170, 8162, 8159, 8128, 8169, 8175, 8164, 8145, 8129, 8150, 8143, 8140, 8233,6.271011590957642
87, 8113, 8168, 8158, 8160, 8108, 8172, 8154, 8161, 8153, 8159, 8144, 8135, 8149, 8218,6.279221057891846
88, 8126, 8175, 8156, 8160, 8101, 8170, 8145, 8162, 8180, 8184, 8152, 8142, 8172, 8242,6.287137746810913
89, 8159, 8188, 8189, 8166, 8131, 8169, 8191, 8181, 8189, 8199, 8169, 8163, 8194, 8273,6.294051885604858
90, 8145, 8183, 8160, 8170, 8097, 8158, 8129, 8163, 8179, 8225, 8162, 8166, 8207, 8269,6.302098274230957
91, 8137, 8166, 8153, 8154, 8118, 8147, 8159, 8158, 8160, 8217, 8138, 8151, 8180, 8236,6.310123443603516
92, 8146, 8157, 8166, 8148, 8110, 8142, 8171, 8157, 8162, 8191, 8136, 8150, 8165, 8234,6.3180646896362305
93, 8125, 8160, 8129, 8156, 8064, 8134, 8089, 8140, 8172, 8189, 8145, 8159, 8184, 8259,6.326113224029541
94, 8146, 8175, 8144, 8165, 8099, 8128, 8118, 8154, 8161, 8195, 8139, 8169, 8187, 8270,6.3341028690338135
95, 8195, 8186, 8196, 8177, 8132, 8138, 8190, 8180, 8159, 8202, 8134, 8175, 8184, 8288,6.343104839324951
96, 8204, 8190, 8208, 8186, 8131, 8153, 8198, 8183, 8168, 8197, 8143, 8177, 8188, 8309,6.351258039474487
97, 8171, 8189, 8161, 8186, 8094, 8140, 8114, 8147, 8154, 8178, 8142, 8169, 8185, 8299,6.357175827026367
98, 8177, 8203, 8170, 8192, 8127, 8131, 8169, 8141, 8109, 8151, 8130, 8152, 8158, 8256,6.365243673324585
99, 8210, 8203, 8230, 8190, 8156, 8138, 8257, 8153, 8089, 8141, 8133, 8153, 8137, 8228,6.373207330703735
100, 8162, 8174, 8173, 8178, 8082, 8138, 8122, 8120, 8120, 8165, 8151, 8164, 8158, 8245,6.381179332733154
101, 8147, 8190, 8164, 8193, 8126, 8147, 8148, 8126, 8128, 8175, 8162, 8169, 8181, 8257,6.389280319213867
102, 8173, 8210, 8205, 8217, 8130, 8143, 8191, 8138, 8117, 8175, 8168, 8172, 8185, 8238,6.397296905517578
103, 8156, 8205, 8176, 8221, 8085, 8140, 8119, 8142, 8146, 8197, 8174, 8186, 8201, 8245,6.4051525592803955
104, 8187, 8230, 8214, 8236, 8162, 8177, 8185, 8195, 8187, 8231, 8191, 8216, 8237, 8292,6.414386987686157
105, 8204, 8242, 8223, 8270, 8165, 8183, 8154, 8198, 8204, 8251, 8201, 8236, 8274, 8326,6.422266006469727
106, 8204, 8236, 8212, 8290, 8171, 8146, 8156, 8185, 8190, 8232, 8183, 8236, 8261, 8312,6.428224086761475
107, 8235, 8244, 8232, 8280, 8168, 8131, 8185, 8184, 8169, 8211, 8162, 8236, 8227, 8298,6.436081409454346
108, 8235, 8244, 8209, 8262, 8134, 8134, 8137, 8166, 8154, 8189, 8154, 8232, 8209, 8304,6.444070339202881
109, 8230, 8218, 8219, 8250, 8164, 8135, 8178, 8165, 8132, 8154, 8156, 8228, 8190, 8305,6.45228123664856
110, 8229, 8202, 8218, 8250, 8132, 8132, 8153, 8156, 8115, 8154, 8164, 8238, 8200, 8318,6.461303234100342
111, 8252, 8224, 8217, 8251, 8133, 8127, 8157, 8159, 8099, 8163, 8170, 8252, 8225, 8339,6.468213319778442
112, 8269, 8232, 8230, 8245, 8150, 8112, 8164, 8153, 8085, 8158, 8167, 8252, 8221, 8343,6.476353883743286
113, 8240, 8217, 8196, 8244, 8125, 8105, 8119, 8127, 8091, 8144, 8160, 8240, 8202, 8334,6.484249114990234
114, 8241, 8219, 8200, 8234, 8151, 8117, 8181, 8145, 8100, 8129, 8154, 8230, 8188, 8319,6.491190671920776
115, 8235, 8225, 8183, 8204, 8137, 8127, 8153, 8157, 8113, 8148, 8151, 8215, 8194, 8309,6.49910306930542
116, 8217, 8225, 8155, 8179, 8150, 8142, 8143, 8162, 8131, 8180, 8148, 8191, 8199, 8298,6.50724720954895
117, 8217, 8221, 8174, 8182, 8161, 8146, 8177, 8161, 8144, 8186, 8154, 8188, 8200, 8298,6.515392541885376
118, 8207, 8221, 8165, 8198, 8134, 8136, 8129, 8125, 8145, 8198, 8163, 8199, 8212, 8311,6.523363351821899
119, 8225, 8233, 8178, 8192, 8175, 8130, 8161, 8122, 8122, 8205, 8153, 8197, 8205, 8313,6.531172513961792
120, 8207, 8218, 8162, 8164, 8148, 8109, 8136, 8126, 8117, 8195, 8146, 8180, 8203, 8304,6.539257287979126
121, 8166, 8194, 8132, 8141, 8127, 8103, 8137, 8136, 8137, 8198, 8146, 8172, 8211, 8292,6.548274278640747
122, 8191, 8193, 8163, 8138, 8153, 8132, 8192, 8168, 8151, 8210, 8149, 8185, 8210, 8300,6.555307626724243
123, 8198, 8180, 8160, 8136, 8135, 8144, 8146, 8173, 8167, 8207, 8149, 8186, 8209, 8320,6.562304973602295
124, 8185, 8175, 8161, 8128, 8158, 8138, 8179, 8167, 8163, 8196, 8142, 8175, 8195, 8311,6.570239305496216
125, 8166, 8176, 8149, 8118, 8142, 8137, 8169, 8138, 8135, 8194, 8138, 8172, 8179, 8295,6.578387022018433
126, 8161, 8171, 8136, 8105, 8132, 8133, 8156, 8122, 8106, 8171, 8131, 8161, 8162, 8284,6.586326599121094
127, 8192, 8173, 8172, 8109, 8130, 8134, 8188, 8142, 8102, 8156, 8131, 8161, 8156, 8286,6.594195604324341
238, 8190, 8182, 8162, 8130, 8074, 8132, 8128, 8150, 8125, 8185, 8145, 8172, 8169, 8305,6.602338075637817
0, 8196, 8204, 8171, 8147, 8102, 8133, 8169, 8177, 8136, 8183, 8150, 8167, 8159, 8296,6.610274791717529
1, 8197, 8214, 8173, 8153, 8093, 8140, 8175, 8179, 8131, 8173, 8150, 8149, 8149, 8268,6.617343187332153
2, 8169, 8201, 8143, 8149, 8075, 8146, 8150, 8155, 8120, 8182, 8147, 8146, 8155, 8262,6.628390550613403
3, 8165, 8184, 8159, 8136, 8111, 8148, 8194, 8144, 8101, 8166, 8142, 8148, 8143, 8252,6.633121013641357
4, 8153, 8178, 8143, 8135, 8082, 8135, 8137, 8118, 8105, 8155, 8139, 8135, 8130, 8227,6.641369342803955
5, 8150, 8194, 8146, 8150, 8117, 8131, 8153, 8118, 8114, 8161, 8142, 8128, 8128, 8215,6.649393558502197
6, 8152, 8193, 8169, 8148, 8142, 8134, 8163, 8115, 8108, 8178, 8151, 8137, 8140, 8225,6.657137393951416
7, 8157, 8187, 8158, 8145, 8122, 8127, 8125, 8107, 8110, 8191, 8158, 8151, 8167, 8246,6.665219783782959
8, 8187, 8196, 8179, 8152, 8144, 8119, 8168, 8137, 8115, 8181, 8161, 8171, 8175, 8266,6.673301935195923
9, 8172, 8190, 8169, 8152, 8126, 8117, 8140, 8145, 8124, 8184, 8161, 8176, 8178, 8281,6.681412696838379
10, 8155, 8175, 8159, 8136, 8142, 8133, 8170, 8162, 8139, 8205, 8154, 8163, 8180, 8268,6.688273191452026
11, 8156, 8160, 8156, 8121, 8132, 8141, 8185, 8185, 8156, 8208, 8147, 8153, 8172, 8248,6.697340965270996
12, 8135, 8159, 8129, 8110, 8106, 8139, 8145, 8197, 8178, 8207, 8147, 8149, 8166, 8257,6.704443693161011
13, 8145, 8166, 8156, 8103, 8137, 8143, 8199, 8213, 8190, 8201, 8148, 8146, 8154, 8261,6.712340593338013
14, 8152, 8163, 8149, 8117, 8105, 8138, 8163, 8193, 8190, 8190, 8147, 8134, 8145, 8243,6.720323085784912
15, 8155, 8166, 8141, 8130, 8115, 8140, 8165, 8191, 8181, 8183, 8146, 8127, 8138, 8241,6.729316473007202
16, 8162, 8171, 8172, 8131, 8133, 8139, 8188, 8199, 8178, 8181, 8152, 8139, 8142, 8267,6.736287355422974
17, 8140, 8163, 8148, 8123, 8101, 8131, 8132, 8182, 8181, 8182, 8154, 8143, 8159, 8274,6.744274854660034
18, 8145, 8168, 8149, 8123, 8128, 8140, 8173, 8180, 8164, 8178, 8150, 8138, 8160, 8258,6.751328468322754
19, 8150, 8178, 8163, 8149, 8124, 8139, 8169, 8166, 8143, 8173, 8148, 8143, 8162, 8262,6.759112596511841
20, 8140, 8184, 8153, 8176, 8098, 8128, 8124, 8157, 8141, 8171, 8155, 8152, 8170, 8271,6.767321586608887
21, 8155, 8192, 8140, 8189, 8083, 8133, 8098, 8159, 8161, 8188, 8167, 8160, 8183, 8279,6.775325059890747
22, 8175, 8202, 8144, 8194, 8107, 8141, 8121, 8157, 8179, 8206, 8165, 8164, 8197, 8292,6.783220529556274
23, 8205, 8215, 8206, 8193, 8154, 8147, 8227, 8176, 8176, 8213, 8165, 8176, 8199, 8298,6.791350364685059
24, 8193, 8210, 8189, 8191, 8065, 8151, 8151, 8161, 8187, 8231, 8173, 8189, 8208, 8301,6.800046443939209
25, 8169, 8207, 8154, 8198, 8050, 8151, 8131, 8154, 8191, 8216, 8162, 8186, 8199, 8299,6.807188272476196
26, 8192, 8205, 8210, 8187, 8127, 8147, 8242, 8177, 8162, 8183, 8147, 8178, 8171, 8287,6.815272569656372
27, 8179, 8185, 8188, 8161, 8058, 8132, 8152, 8150, 8150, 8193, 8151, 8173, 8170, 8288,6.822101831436157
28, 8157, 8184, 8134, 8168, 8018, 8132, 8091, 8136, 8158, 8203, 8159, 8170, 8170, 8291,6.830358028411865
29, 8173, 8200, 8151, 8195, 8065, 8151, 8154, 8159, 8162, 8191, 8157, 8169, 8159, 8279,6.838347434997559
30, 8198, 8206, 8193, 8198, 8117, 8163, 8224, 8177, 8162, 8195, 8155, 8169, 8165, 8275,6.846328496932983
31, 8201, 8198, 8200, 8186, 8090, 8148, 8202, 8172, 8163, 8210, 8162, 8168, 8176, 8282,6.8543665409088135
32, 8168, 8193, 8149, 8187, 8031, 8134, 8121, 8159, 8174, 8215, 8163, 8154, 8177, 8271,6.862321138381958
33, 8186, 8211, 8180, 8195, 8115, 8154, 8217, 8185, 8172, 8187, 8153, 8146, 8169, 8254,6.87037992477417
34, 8178, 8206, 8182, 8196, 8106, 8163, 8174, 8164, 8160, 8168, 8150, 8150, 8172, 8269,6.878339529037476
35, 8120, 8183, 8121, 8179, 8057, 8151, 8105, 8138, 8156, 8187, 8155, 8142, 8179, 8271,6.88513970375061
36, 8140, 8185, 8164, 8160, 8120, 8147, 8221, 8173, 8154, 8199, 8162, 8138, 8178, 8251,6.893353462219238
37, 8150, 8188, 8169, 8162, 8105, 8147, 8169, 8159, 8153, 8189, 8162, 8144, 8185, 8266,6.901371240615845
38, 8139, 8184, 8152, 8167, 8095, 8152, 8154, 8149, 8142, 8170, 8158, 8148, 8177, 8277,6.909118413925171
39, 8149, 8171, 8175, 8156, 8113, 8142, 8192, 8167, 8146, 8171, 8161, 8157, 8172, 8269,6.91741681098938
40, 8159, 8174, 8178, 8153, 8205, 8131, 8158, 8176, 8171, 8189, 8167, 8165, 8189, 8279,6.925449848175049
41, 8196, 8211, 8206, 8179, 8381, 8147, 8179, 8197, 8179, 8202, 8171, 8186, 8208, 8306,6.9333813190460205
42, 8195, 8220, 8189, 8202, 8412, 8153, 8153, 8188, 8180, 8208, 8166, 8202, 8218, 8322,6.942359685897827
43, 8175, 8198, 8179, 8190, 8332, 8146, 8185, 8177, 8172, 8195, 8155, 8191, 8195, 8301,6.948372840881348
44, 8168, 8193, 8178, 8178, 8172, 8149, 8156, 8156, 8167, 8193, 8158, 8177, 8184, 8279,6.95634126663208
45, 8166, 8207, 8153, 8199, 8107, 8157, 8112, 8143, 8176, 8199, 8166, 8176, 8199, 8276,6.964425563812256
46, 8190, 8209, 8184, 8196, 8184, 8169, 8203, 8164, 8170, 8180, 8151, 8174, 8176, 8258,6.972341060638428
47, 8175, 8187, 8164, 8165, 8139, 8169, 8146, 8140, 8163, 8172, 8136, 8156, 8148, 8249,6.980365991592407
48, 8169, 8185, 8144, 8164, 8125, 8164, 8126, 8121, 8158, 8182, 8146, 8157, 8157, 8269,6.988226652145386
49, 8208, 8203, 8202, 8181, 8187, 8169, 8211, 8129, 8151, 8185, 8167, 8172, 8177, 8280,6.996330738067627
50, 8189, 8201, 8189, 8167, 8148, 8156, 8153, 8111, 8155, 8191, 8164, 8161, 8172, 8269,7.004368782043457
51, 8149, 8180, 8138, 8140, 8134, 8131, 8116, 8096, 8138, 8169, 8138, 8139, 8136, 8250,7.013193130493164
52, 8138, 8161, 8132, 8126, 8147, 8121, 8151, 8094, 8109, 8127, 8135, 8126, 8124, 8241,7.019271373748779
53, 8127, 8153, 8138, 8119, 8132, 8127, 8162, 8109, 8107, 8132, 8156, 8129, 8145, 8251,7.027063369750977
54, 8117, 8149, 8131, 8126, 8122, 8125, 8132, 8117, 8111, 8151, 8162, 8143, 8153, 8259,7.035274505615234
55, 8121, 8152, 8132, 8133, 8147, 8120, 8149, 8123, 8105, 8126, 8150, 8147, 8140, 8250,7.04321026802063
56, 8152, 8168, 8173, 8127, 8166, 8126, 8206, 8150, 8118, 8121, 8154, 8155, 8143, 8251,7.051222562789917
57, 8165, 8172, 8169, 8128, 8114, 8126, 8131, 8162, 8156, 8185, 8175, 8182, 8189, 8284,7.0590715408325195
58, 8176, 8174, 8164, 8137, 8153, 8136, 8157, 8186, 8170, 8212, 8174, 8194, 8209, 8300,7.067313194274902
59, 8187, 8176, 8187, 8136, 8182, 8159, 8230, 8203, 8178, 8185, 8163, 8189, 8180, 8289,7.075333118438721
60, 8152, 8170, 8144, 8133, 8111, 8174, 8153, 8187, 8222, 8202, 8166, 8172, 8181, 8283,7.082289457321167
61, 8162, 8175, 8161, 8138, 8173, 8192, 8227, 8215, 8238, 8220, 8165, 8146, 8186, 8266,7.090285778045654
62, 8170, 8169, 8179, 8141, 8179, 8197, 8224, 8206, 8214, 8191, 8155, 8122, 8160, 8249,7.0983312129974365
63, 8133, 8161, 8127, 8142, 8108, 8189, 8105, 8150, 8198, 8169, 8149, 8112, 8151, 8245,7.106364011764526
64, 8149, 8181, 8143, 8156, 8130, 8183, 8136, 8147, 8197, 8193, 8165, 8133, 8179, 8259,7.115338087081909
65, 8177, 8196, 8178, 8183, 8150, 8171, 8167, 8157, 8190, 8233, 8185, 8164, 8217, 8285,7.122377395629883
66, 8198, 8203, 8220, 8195, 8185, 8167, 8216, 8157, 8164, 8234, 8184, 8179, 8224, 8294,7.130300521850586
67, 8189, 8204, 8207, 8197, 8141, 8156, 8148, 8124, 8161, 8225, 8181, 8183, 8227, 8298,7.138347625732422
68, 8168, 8211, 8167, 8204, 8127, 8150, 8109, 8118, 8185, 8241, 8182, 8183, 8241, 8304,7.146342754364014
69, 8187, 8215, 8194, 8196, 8180, 8156, 8199, 8158, 8182, 8242, 8177, 8185, 8234, 8293,7.1544389724731445
70, 8159, 8184, 8163, 8171, 8133, 8141, 8140, 8148, 8162, 8211, 8159, 8174, 8212, 8274,7.161189794540405
71, 8136, 8170, 8148, 8158, 8139, 8129, 8152, 8155, 8157, 8185, 8154, 8168, 8200, 8275,7.170343637466431
72, 8156, 8175, 8170, 8159, 8143, 8137, 8178, 8176, 8176, 8211, 8168, 8185, 8217, 8299,7.177216291427612
73, 8158, 8163, 8155, 8158, 8123, 8139, 8148, 8169, 8193, 8232, 8170, 8203, 8223, 8308,7.185296535491943
74, 8173, 8156, 8179, 8153, 8157, 8135, 8190, 8167, 8183, 8198, 8164, 8205, 8203, 8300,7.193267107009888
75, 8169, 8170, 8178, 8161, 8129, 8132, 8141, 8157, 8184, 8192, 8166, 8188, 8207, 8304,7.201138019561768
76, 8174, 8194, 8181, 8179, 8145, 8143, 8161, 8161, 8186, 8200, 8169, 8177, 8198, 8289,7.209294319152832
77, 8191, 8194, 8203, 8193, 8150, 8148, 8180, 8156, 8171, 8166, 8162, 8182, 8172, 8264,7.2162275314331055
78, 8178, 8195, 8177, 8212, 8124, 8149, 8136, 8152, 8175, 8151, 8158, 8178, 8174, 8281,7.224195241928101
79, 8182, 8210, 8178, 8217, 8150, 8158, 8184, 8174, 8191, 8177, 8169, 8171, 8187, 8303,7.232233285903931
80, 8157, 8194, 8154, 8184, 8127, 8162, 8150, 8150, 8196, 8198, 8169, 8160, 8194, 8290,7.240265607833862
81, 8132, 8186, 8137, 8162, 8151, 8175, 8163, 8135, 8188, 8198, 8155, 8150, 8186, 8260,7.2482006549835205
82, 8141, 8204, 8160, 8189, 8165, 8189, 8191, 8139, 8187, 8211, 8166, 8153, 8193, 8254,7.256349563598633
83, 8131, 8203, 8146, 8202, 8123, 8181, 8136, 8120, 8186, 8234, 8185, 8157, 8220, 8270,7.2642316818237305
84, 8145, 8194, 8165, 8174, 8148, 8184, 8183, 8143, 8169, 8227, 8177, 8163, 8234, 8292,7.272310018539429
85, 8153, 8189, 8163, 8164, 8128, 8184, 8167, 8171, 8189, 8220, 8174, 8176, 8246, 8322,7.279432773590088
86, 8151, 8178, 8152, 8162, 8124, 8166, 8162, 8188, 8220, 8233, 8182, 8181, 8254, 8330,7.287219047546387
87, 8159, 8158, 8171, 8138, 8134, 8163, 8191, 8191, 8205, 8246, 8172, 8173, 8238, 8310,7.2952446937561035
88, 8142, 8151, 8143, 8126, 8104, 8166, 8140, 8168, 8183, 8238, 8162, 8166, 8218, 8302,7.303058624267578
89, 8159, 8177, 8163, 8157, 8137, 8160, 8183, 8175, 8184, 8227, 8169, 8172, 8216, 8307,7.311027765274048
90, 8177, 8186, 8181, 8178, 8119, 8152, 8171, 8175, 8191, 8230, 8175, 8179, 8223, 8313,7.319034814834595
91, 8163, 8176, 8158, 8161, 8102, 8160, 8141, 8174, 8186, 8203, 8162, 8175, 8204, 8311,7.327205181121826
92, 8176, 8184, 8176, 8166, 8135, 8170, 8190, 8192, 8191, 8182, 8163, 8176, 8189, 8311,7.335293531417847
93, 8175, 8190, 8167, 8195, 8120, 8164, 8173, 8188, 8212, 8214, 8180, 8167, 8211, 8295,7.343274831771851
94, 8153, 8190, 8138, 8196, 8114, 8161, 8141, 8185, 8214, 8224, 8173, 8146, 8207, 8267,7.350058555603027
95, 8135, 8199, 8111, 8187, 8104, 8164, 8098, 8176, 8215, 8209, 8161, 8141, 8197, 8267,7.3592400550842285
96, 8162, 8215, 8152, 8199, 8167, 8180, 8206, 8190, 8221, 8207, 8174, 8149, 8208, 8263,7.366308689117432
97, 8186, 8208, 8213, 8194, 8191, 8192, 8266, 8189, 8206, 8211, 8179, 8156, 8205, 8247,7.37439227104187
98, 8141, 8187, 8161, 8163, 8105, 8173, 8107, 8148, 8206, 8223, 8166, 8157, 8212, 8270,7.382305383682251
99, 8156, 8190, 8160, 8142, 8140, 8166, 8154, 8167, 8218, 8224, 8172, 8165, 8225, 8303,7.390223264694214
100, 8189, 8187, 8182, 8135, 8140, 8162, 8189, 8174, 8209, 8228, 8182, 8174, 8224, 8309,7.398339509963989
101, 8167, 8181, 8156, 8135, 8110, 8154, 8128, 8156, 8193, 8222, 8160, 8164, 8203, 8298,7.406364917755127
102, 8176, 8185, 8183, 8128, 8150, 8164, 8187, 8176, 8189, 8189, 8148, 8159, 8186, 8292,7.413257122039795
103, 8177, 8170, 8178, 8109, 8122, 8172, 8163, 8173, 8200, 8193, 8168, 8169, 8199, 8303,7.421205282211304
104, 8170, 8167, 8170, 8097, 8130, 8180, 8176, 8176, 8204, 8215, 8165, 8169, 8194, 8302,7.429224252700806
105, 8166, 8176, 8173, 8107, 8132, 8190, 8185, 8183, 8210, 8206, 8149, 8156, 8170, 8286,7.437010049819946
106, 8146, 8165, 8146, 8109, 8124, 8194, 8164, 8174, 8206, 8184, 8143, 8140, 8151, 8269,7.446331024169922
107, 8141, 8152, 8155, 8098, 8152, 8195, 8206, 8173, 8185, 8172, 8146, 8130, 8141, 8251,7.453217267990112
108, 8128, 8158, 8151, 8106, 8120, 8192, 8159, 8162, 8188, 8186, 8156, 8130, 8160, 8252,7.46139121055603
109, 8144, 8186, 8163, 8125, 8136, 8187, 8166, 8163, 8191, 8186, 8161, 8142, 8164, 8258,7.469378232955933
110, 8173, 8195, 8182, 8135, 8151, 8187, 8174, 8159, 8186, 8170, 8163, 8148, 8153, 8268,7.477356672286987
111, 8167, 8188, 8164, 8139, 8131, 8193, 8140, 8149, 8199, 8190, 8173, 8149, 8176, 8289,7.484071969985962
112, 8182, 8201, 8188, 8143, 8149, 8182, 8180, 8161, 8204, 8221, 8179, 8165, 8206, 8303,7.492342948913574
113, 8174, 8202, 8176, 8138, 8118, 8166, 8140, 8142, 8192, 8221, 8167, 8170, 8206, 8303,7.500094890594482
114, 8171, 8198, 8164, 8135, 8132, 8173, 8158, 8139, 8180, 8200, 8159, 8155, 8190, 8300,7.508160591125488
115, 8188, 8200, 8178, 8139, 8145, 8177, 8184, 8154, 8189, 8194, 8161, 8149, 8181, 8294,7.516167402267456
116, 8158, 8187, 8145, 8126, 8116, 8170, 8141, 8155, 8207, 8194, 8151, 8139, 8175, 8278,7.5242228507995605
117, 8150, 8169, 8158, 8102, 8145, 8185, 8195, 8172, 8198, 8177, 8148, 8136, 8157, 8272,7.5321879386901855
118, 8154, 8156, 8161, 8092, 8129, 8186, 8167, 8157, 8184, 8166, 8157, 8145, 8151, 8283,7.540102243423462
119, 8147, 8158, 8149, 8093, 8138, 8180, 8157, 8150, 8181, 8157, 8152, 8144, 8144, 8276,7.547198295593262
120, 8144, 8164, 8164, 8094, 8140, 8197, 8188, 8171, 8181, 8164, 8149, 8136, 8136, 8261,7.55518913269043
121, 8132, 8165, 8147, 8101, 8107, 8212, 8154, 8173, 8195, 8187, 8163, 8137, 8146, 8268,7.563133478164673
122, 8156, 8177, 8168, 8109, 8157, 8212, 8197, 8186, 8205, 8189, 8168, 8143, 8151, 8276,7.571287155151367
123, 8157, 8176, 8170, 8106, 8140, 8200, 8164, 8175, 8203, 8173, 8155, 8138, 8148, 8271,7.579282999038696
124, 8136, 8174, 8154, 8109, 8117, 8194, 8157, 8167, 8196, 8167, 8154, 8133, 8145, 8265,7.587316989898682
125, 8158, 8192, 8184, 8139, 8140, 8198, 8197, 8164, 8192, 8184, 8168, 8146, 8156, 8272,7.595337390899658
126, 8167, 8209, 8179, 8168, 8126, 8195, 8142, 8140, 8191, 8190, 8167, 8151, 8166, 8283,7.6032774448394775
127, 8175, 8215, 8189, 8167, 8147, 8198, 8175, 8155, 8193, 8173, 8155, 8152, 8157, 8288,7.611325263977051
238, 8183, 8203, 8191, 8168, 8120, 8191, 8160, 8161, 8211, 8198, 8168, 8165, 8179, 8307,7.618291854858398
0, 8172, 8191, 8166, 8171, 8122, 8183, 8144, 8151, 8213, 8224, 8181, 8164, 8199, 8308,7.626228332519531
1, 8155, 8184, 8160, 8139, 8153, 8196, 8195, 8162, 8185, 8194, 8158, 8141, 8159, 8267,7.6342785358428955
2, 8108, 8155, 8122, 8097, 8110, 8198, 8145, 8161, 8183, 8173, 8135, 8114, 8127, 8237,7.6421120166778564
3, 8097, 8140, 8129, 8088, 8126, 8190, 8176, 8173, 8188, 8167, 8138, 8100, 8121, 8231,7.650338888168335
4, 8090, 8133, 8136, 8086, 8117, 8191, 8175, 8168, 8185, 8160, 8141, 8091, 8104, 8214,7.6593451499938965
5, 8064, 8111, 8111, 8058, 8104, 8200, 8146, 8164, 8194, 8171, 8134, 8081, 8090, 8195,7.666314363479614
6, 8079, 8102, 8132, 8048, 8134, 8200, 8192, 8186, 8199, 8162, 8135, 8081, 8084, 8204,7.673197269439697
7, 8070, 8105, 8116, 8062, 8099, 8188, 8154, 8180, 8191, 8128, 8138, 8071, 8073, 8208,7.681372165679932
8, 8058, 8110, 8122, 8064, 8115, 8190, 8180, 8177, 8180, 8119, 8136, 8058, 8059, 8185,7.689246892929077
9, 8081, 8119, 8158, 8067, 8120, 8189, 8182, 8167, 8181, 8148, 8157, 8081, 8085, 8194,7.697354793548584
10, 8102, 8143, 8160, 8088, 8112, 8183, 8149, 8147, 8174, 8153, 8175, 8111, 8111, 8233,7.705361604690552
11, 8129, 8160, 8179, 8115, 8147, 8191, 8190, 8142, 8148, 8114, 8161, 8105, 8087, 8236,7.713289976119995
12, 8127, 8157, 8165, 8134, 8119, 8192, 8138, 8121, 8159, 8129, 8161, 8100, 8103, 8231,7.721282720565796
13, 8137, 8175, 8172, 8144, 8130, 8186, 8156, 8135, 8181, 8169, 8185, 8126, 8151, 8255,7.729349613189697
14, 8154, 8187, 8186, 8132, 8135, 8181, 8172, 8143, 8169, 8152, 8179, 8131, 8145, 8260,7.737375020980835
15, 8139, 8181, 8161, 8133, 8123, 8175, 8131, 8128, 8157, 8131, 8151, 8117, 8130, 8247,7.745290994644165
16, 8154, 8187, 8187, 8151, 8156, 8179, 8180, 8159, 8172, 8164, 8159, 8136, 8152, 8263,7.752434015274048
17, 8148, 8177, 8175, 8137, 8118, 8184, 8144, 8168, 8195, 8192, 8173, 8146, 8158, 8281,7.7612833976745605
18, 8130, 8156, 8150, 8107, 8124, 8186, 8153, 8174, 8200, 8161, 8157, 8128, 8128, 8254,7.768242120742798
19, 8112, 8138, 8148, 8085, 8130, 8169, 8175, 8176, 8189, 8138, 8140, 8111, 8116, 8223,7.776210069656372
20, 8066, 8119, 8113, 8061, 8092, 8151, 8128, 8157, 8175, 8138, 8140, 8088, 8106, 8210,7.7843663692474365
21, 8082, 8122, 8142, 8072, 8127, 8160, 8180, 8175, 8163, 8123, 8154, 8085, 8084, 8203,7.792175054550171
22, 8109, 8132, 8156, 8123, 8120, 8159, 8160, 8182, 8168, 8132, 8164, 8106, 8101, 8226,7.800198554992676
23, 8102, 8139, 8145, 8140, 8124, 8149, 8160, 8172, 8161, 8131, 8154, 8103, 8110, 8230,7.807330131530762
24, 8110, 8148, 8164, 8134, 8126, 8154, 8178, 8153, 8145, 8119, 8157, 8096, 8098, 8209,7.815157175064087
25, 8118, 8163, 8152, 8162, 8103, 8161, 8127, 8137, 8160, 8140, 8177, 8114, 8121, 8223,7.8232433795928955
26, 8131, 8172, 8168, 8174, 8155, 8168, 8175, 8150, 8172, 8147, 8174, 8126, 8131, 8237,7.8313822746276855
27, 8126, 8167, 8166, 8167, 8158, 8172, 8156, 8133, 8161, 8128, 8160, 8116, 8119, 8224,7.839340686798096
28, 8128, 8172, 8161, 8181, 8167, 8174, 8150, 8129, 8154, 8136, 8164, 8114, 8135, 8222,7.847334146499634
29, 8151, 8176, 8184, 8181, 8186, 8173, 8186, 8158, 8160, 8165, 8177, 8127, 8161, 8235,7.855339050292969
30, 8131, 8164, 8153, 8164, 8145, 8169, 8128, 8153, 8171, 8178, 8177, 8121, 8167, 8239,7.86335825920105
31, 8122, 8160, 8148, 8164, 8174, 8175, 8168, 8157, 8165, 8161, 8174, 8113, 8158, 8236,7.871268033981323
32, 8131, 8147, 8157, 8157, 8177, 8179, 8178, 8157, 8148, 8128, 8165, 8114, 8152, 8237,7.8782336711883545
33, 8113, 8133, 8128, 8144, 8140, 8180, 8111, 8143, 8141, 8116, 8153, 8110, 8149, 8244,7.886338949203491
34, 8108, 8142, 8131, 8155, 8160, 8175, 8135, 8149, 8146, 8131, 8159, 8117, 8154, 8252,7.894268751144409
35, 8119, 8142, 8151, 8156, 8177, 8167, 8179, 8164, 8158, 8133, 8165, 8121, 8150, 8248,7.902356147766113
36, 8127, 8126, 8156, 8132, 8177, 8167, 8187, 8180, 8165, 8118, 8146, 8100, 8123, 8229,7.910359859466553
37, 8112, 8119, 8125, 8120, 8154, 8159, 8134, 8171, 8167, 8120, 8139, 8087, 8116, 8229,7.918105840682983
38, 8121, 8135, 8144, 8129, 8189, 8157, 8185, 8179, 8162, 8128, 8160, 8109, 8132, 8240,7.926361322402954
39, 8158, 8139, 8203, 8143, 8188, 8170, 8222, 8194, 8165, 8137, 8175, 8136, 8148, 8242,7.934419631958008
40, 8136, 8136, 8164, 8170, 8117, 8173, 8110, 8172, 8190, 8169, 8180, 8140, 8174, 8261,7.9412617683410645
41, 8165, 8170, 8184, 8195, 8201, 8192, 8207, 8192, 8191, 8173, 8185, 8151, 8182, 8283,7.949335813522339
42, 8205, 8178, 8222, 8190, 8206, 8202, 8224, 8185, 8169, 8152, 8191, 8164, 8179, 8287,7.957135200500488
43, 8158, 8153, 8163, 8180, 8134, 8177, 8097, 8130, 8157, 8146, 8181, 8155, 8183, 8275,7.965316534042358
44, 8166, 8163, 8186, 8193, 8198, 8167, 8182, 8133, 8144, 8151, 8171, 8156, 8181, 8269,7.973267555236816
45, 8191, 8170, 8199, 8195, 8175, 8165, 8172, 8134, 8144, 8163, 8178, 8167, 8190, 8290,7.981201648712158
46, 8174, 8157, 8151, 8168, 8131, 8161, 8104, 8134, 8149, 8156, 8179, 8159, 8192, 8303,7.988368988037109
47, 8177, 8156, 8157, 8155, 8162, 8168, 8152, 8164, 8149, 8146, 8167, 8150, 8178, 8291,7.997282028198242
48, 8176, 8153, 8167, 8156, 8167, 8174, 8185, 8190, 8165, 8163, 8162, 8147, 8172, 8282,8.004271507263184
49, 8147, 8121, 8149, 8132, 8148, 8172, 8183, 8192, 8171, 8150, 8155, 8125, 8153, 8266,8.012415409088135
50, 8097, 8087, 8108, 8108, 8131, 8180, 8150, 8182, 8174, 8119, 8138, 8092, 8122, 8234,8.020143508911133
51, 8091, 8088, 8119, 8098, 8171, 8190, 8202, 8202, 8186, 8119, 8139, 8078, 8101, 8210,8.029218912124634
52, 8101, 8094, 8131, 8099, 8140, 8175, 8171, 8190, 8185, 8131, 8161, 8088, 8104, 8218,8.036182165145874
53, 8093, 8105, 8108, 8117, 8110, 8172, 8112, 8157, 8170, 8129, 8165, 8104, 8126, 8236,8.044123888015747
54, 8128, 8128, 8158, 8136, 8179, 8189, 8205, 8166, 8156, 8124, 8159, 8116, 8132, 8235,8.052124261856079
55, 8135, 8130, 8160, 8147, 8142, 8177, 8148, 8152, 8167, 8136, 8172, 8117, 8133, 8227,8.060203075408936
56, 8133, 8139, 8151, 8160, 8146, 8162, 8144, 8156, 8168, 8144, 8182, 8120, 8136, 8224,8.068255424499512
57, 8162, 8164, 8204, 8168, 8187, 8163, 8229, 8172, 8151, 8140, 8176, 8132, 8135, 8231,8.075170516967773
58, 8134, 8163, 8173, 8168, 8124, 8152, 8135, 8138, 8151, 8129, 8174, 8123, 8137, 8238,8.083191156387329
59, 8126, 8150, 8151, 8166, 8121, 8145, 8119, 8135, 8150, 8118, 8174, 8106, 8133, 8231,8.0911705493927
60, 8146, 8149, 8153, 8163, 8120, 8150, 8134, 8146, 8148, 8140, 8171, 8109, 8145, 8233,8.099108457565308
61, 8145, 8157, 8156, 8160, 8151, 8151, 8180, 8150, 8136, 8140, 8164, 8112, 8135, 8231,8.107177734375
62, 8145, 8153, 8178, 8151, 8177, 8143, 8211, 8156, 8118, 8102, 8164, 8111, 8112, 8231,8.115100622177124
63, 8125, 8128, 8149, 8138, 8124, 8142, 8127, 8147, 8122, 8110, 8166, 8113, 8131, 8246,8.123077392578125
64, 8118, 8124, 8140, 8134, 8136, 8156, 8153, 8158, 8128, 8131, 8155, 8115, 8131, 8237,8.131140232086182
65, 8106, 8137, 8136, 8137, 8133, 8149, 8144, 8159, 8134, 8122, 8152, 8112, 8116, 8224,8.13816523551941
66, 8122, 8150, 8151, 8145, 8158, 8148, 8165, 8177, 8150, 8114, 8164, 8119, 8134, 8233,8.146078824996948
67, 8163, 8149, 8198, 8147, 8183, 8161, 8223, 8196, 8159, 8127, 8174, 8132, 8145, 8237,8.15417194366455
68, 8127, 8134, 8151, 8144, 8118, 8148, 8132, 8160, 8165, 8136, 8160, 8119, 8124, 8232,8.162168741226196
69, 8121, 8148, 8151, 8152, 8154, 8147, 8165, 8169, 8170, 8130, 8154, 8118, 8117, 8226,8.170108079910278
70, 8165, 8179, 8198, 8180, 8164, 8165, 8177, 8184, 8180, 8156, 8186, 8147, 8159, 8248,8.178213119506836
71, 8166, 8196, 8189, 8195, 8140, 8167, 8134, 8161, 8178, 8169, 8197, 8159, 8180, 8273,8.188203573226929
72, 8166, 8204, 8191, 8192, 8170, 8168, 8181, 8151, 8160, 8139, 8170, 8150, 8156, 8259,8.194131851196289
73, 8166, 8202, 8173, 8208, 8150, 8170, 8145, 8136, 8158, 8141, 8167, 8149, 8156, 8247,8.202336311340332
74, 8187, 8217, 8189, 8230, 8182, 8181, 8175, 8146, 8158, 8156, 8195, 8159, 8178, 8259,8.209299564361572
75, 8191, 8224, 8195, 8226, 8164, 8191, 8177, 8143, 8146, 8146, 8195, 8157, 8178, 8261,8.217370748519897
76, 8152, 8186, 8150, 8185, 8071, 8175, 8142, 8134, 8134, 8134, 8165, 8138, 8155, 8242,8.225365161895752
77, 8145, 8143, 8153, 8141, 8026, 8162, 8190, 8161, 8126, 8138, 8150, 8128, 8136, 8239,8.234248399734497
78, 8119, 8130, 8129, 8131, 7988, 8157, 8148, 8164, 8143, 8138, 8155, 8122, 8139, 8240,8.241055488586426
79, 8090, 8135, 8120, 8124, 8011, 8154, 8164, 8171, 8149, 8115, 8158, 8110, 8128, 8223,8.249241352081299
80, 8090, 8118, 8132, 8094, 7995, 8150, 8172, 8180, 8144, 8111, 8162, 8110, 8121, 8222,8.257226943969727
81, 8090, 8106, 8120, 8097, 7976, 8151, 8142, 8181, 8159, 8139, 8172, 8121, 8149, 8244,8.265356540679932
82, 8105, 8117, 8148, 8121, 8028, 8151, 8192, 8188, 8157, 8147, 8174, 8126, 8154, 8251,8.272278070449829
83, 8091, 8111, 8132, 8112, 7992, 8140, 8142, 8157, 8142, 8137, 8170, 8114, 8143, 8238,8.280235767364502
84, 8090, 8116, 8124, 8103, 7993, 8141, 8150, 8152, 8145, 8144, 8173, 8106, 8142, 8223,8.28943419456482
85, 8117, 8134, 8158, 8128, 8016, 8150, 8176, 8172, 8160, 8155, 8186, 8121, 8141, 8232,8.296234130859375
86, 8110, 8135, 8147, 8148, 8012, 8155, 8135, 8168, 8177, 8154, 8186, 8129, 8143, 8249,8.305184125900269
87, 8122, 8141, 8167, 8151, 8047, 8164, 8185, 8180, 8183, 8152, 8188, 8132, 8145, 8239,8.31233024597168
88, 8134, 8159, 8175, 8171, 8019, 8161, 8149, 8179, 8183, 8176, 8212, 8156, 8163, 8248,8.320191383361816
89, 8148, 8187, 8178, 8196, 8029, 8164, 8150, 8180, 8180, 8191, 8215, 8177, 8180, 8279,8.328064203262329
90, 8164, 8203, 8201, 8202, 8051, 8172, 8184, 8172, 8184, 8179, 8198, 8178, 8185, 8281,8.336115598678589
91, 8153, 8197, 8180, 8196, 8026, 8166, 8133, 8151, 8185, 8191, 8202, 8171, 8194, 8266,8.343160629272461
92, 8172, 8206, 8188, 8196, 8057, 8160, 8171, 8169, 8175, 8210, 8202, 8165, 8193, 8258,8.351355075836182
93, 8161, 8213, 8169, 8192, 8037, 8156, 8155, 8160, 8176, 8193, 8178, 8147, 8178, 8253,8.359394311904907
94, 8126, 8201, 8142, 8173, 8033, 8158, 8156, 8144, 8178, 8170, 8167, 8132, 8159, 8240,8.367401123046875
95, 8137, 8179, 8163, 8155, 8043, 8150, 8184, 8160, 8176, 8192, 8179, 8142, 8167, 8241,8.375248432159424
96, 8122, 8154, 8137, 8144, 8009, 8140, 8131, 8162, 8177, 8198, 8178, 8143, 8182, 8255,8.38336968421936
97, 8097, 8136, 8127, 8120, 8036, 8152, 8172, 8173, 8158, 8153, 8166, 8121, 8156, 8232,8.39127492904663
98, 8086, 8125, 8132, 8102, 8018, 8162, 8155, 8169, 8157, 8161, 8163, 8110, 8142, 8206,8.398273468017578
99, 8097, 8132, 8140, 8112, 8016, 8163, 8150, 8176, 8181, 8185, 8167, 8125, 8154, 8226,8.406180143356323
100, 8127, 8135, 8165, 8118, 8039, 8155, 8198, 8190, 8173, 8149, 8168, 8141, 8148, 8248,8.415300369262695
101, 8110, 8124, 8139, 8115, 8004, 8138, 8135, 8168, 8151, 8137, 8158, 8131, 8136, 8243,8.423253536224365
102, 8108, 8133, 8160, 8122, 8037, 8144, 8171, 8167, 8140, 8155, 8153, 8134, 8134, 8241,8.431260585784912
103, 8132, 8139, 8186, 8132, 8032, 8159, 8175, 8160, 8144, 8156, 8170, 8167, 8154, 8274,8.438260555267334
104, 8158, 8149, 8175, 8139, 8018, 8150, 8138, 8151, 8144, 8146, 8180, 8185, 8170, 8303,8.446101903915405
105, 8194, 8179, 8203, 8150, 8034, 8150, 8182, 8165, 8132, 8139, 8175, 8182, 8166, 8300,8.454360485076904
106, 8163, 8188, 8177, 8149, 7976, 8159, 8146, 8151, 8125, 8149, 8172, 8174, 8171, 8282,8.462318897247314
107, 8140, 8182, 8164, 8133, 7982, 8161, 8167, 8149, 8126, 8153, 8173, 8179, 8181, 8284,8.469165086746216
108, 8172, 8189, 8188, 8134, 8002, 8164, 8187, 8163, 8151, 8165, 8173, 8184, 8194, 8304,8.477078199386597
109, 8155, 8188, 8151, 8134, 7970, 8153, 8125, 8156, 8176, 8182, 8160, 8159, 8195, 8295,8.485078811645508
110, 8124, 8173, 8127, 8123, 7977, 8136, 8125, 8150, 8163, 8174, 8144, 8135, 8173, 8264,8.493027448654175
111, 8137, 8176, 8146, 8126, 7988, 8130, 8145, 8153, 8150, 8173, 8148, 8145, 8164, 8261,8.501090049743652
112, 8166, 8195, 8175, 8138, 7993, 8134, 8175, 8165, 8161, 8176, 8158, 8159, 8165, 8274,8.508991956710815
113, 8138, 8177, 8136, 8123, 7948, 8130, 8111, 8144, 8166, 8160, 8155, 8153, 8162, 8271,8.517042875289917
114, 8121, 8150, 8117, 8106, 7982, 8134, 8134, 8139, 8143, 8143, 8143, 8154, 8148, 8260,8.52510380744934
115, 8186, 8172, 8215, 8122, 8065, 8140, 8269, 8173, 8127, 8147, 8155, 8178, 8140, 8273,8.532050609588623
116, 8175, 8183, 8206, 8132, 7967, 8126, 8163, 8147, 8143, 8154, 8167, 8179, 8157, 8291,8.54003620147705
117, 8143, 8172, 8161, 8121, 7933, 8134, 8142, 8136, 8140, 8141, 8157, 8164, 8152, 8272,8.548127889633179
118, 8167, 8172, 8187, 8131, 7961, 8142, 8188, 8149, 8127, 8131, 8160, 8176, 8140, 8257,8.556084632873535
119, 8157, 8182, 8167, 8161, 7930, 8124, 8115, 8138, 8143, 8131, 8170, 8180, 8162, 8277,8.564332723617554
120, 8168, 8198, 8185, 8180, 7981, 8130, 8180, 8154, 8130, 8112, 8161, 8168, 8161, 8281,8.57229208946228
121, 8187, 8205, 8196, 8191, 7981, 8140, 8173, 8148, 8105, 8110, 8161, 8181, 8160, 8278,8.580359935760498
122, 8193, 8215, 8193, 8200, 7984, 8139, 8151, 8150, 8122, 8133, 8178, 8210, 8183, 8292,8.588313341140747
123, 8185, 8212, 8198, 8200, 7992, 8138, 8165, 8151, 8128, 8150, 8172, 8212, 8180, 8285,8.595099449157715
124, 8140, 8186, 8147, 8176, 7960, 8128, 8127, 8118, 8110, 8157, 8151, 8173, 8159, 8248,8.603358268737793
125, 8132, 8169, 8147, 8146, 7981, 8118, 8173, 8119, 8099, 8136, 8142, 8140, 8145, 8218,8.61124563217163
126, 8140, 8168, 8160, 8149, 7955, 8109, 8139, 8121, 8109, 8129, 8146, 8149, 8156, 8236,8.619285583496094
127, 8156, 8181, 8162, 8160, 7969, 8110, 8140, 8135, 8119, 8154, 8152, 8167, 8172, 8268,8.627248048782349
238, 8183, 8188, 8189, 8159, 8001, 8118, 8192, 8172, 8130, 8163, 8161, 8171, 8176, 8273,8.635197162628174
0, 8178, 8185, 8181, 8179, 7968, 8116, 8143, 8176, 8144, 8165, 8172, 8182, 8186, 8288,8.643041849136353
1, 8199, 8198, 8203, 8195, 7989, 8117, 8171, 8182, 8146, 8180, 8178, 8209, 8203, 8325,8.652065992355347
2, 8210, 8198, 8203, 8176, 7980, 8113, 8160, 8171, 8155, 8195, 8178, 8220, 8223, 8358,8.659235715866089
3, 8195, 8181, 8181, 8159, 7987, 8107, 8153, 8155, 8143, 8173, 8168, 8208, 8209, 8355,8.666168928146362
4, 8209, 8192, 8206, 8180, 8012, 8114, 8187, 8154, 8120, 8154, 8167, 8209, 8192, 8335,8.675087213516235
5, 8206, 8211, 8189, 8211, 7984, 8126, 8139, 8145, 8129, 8166, 8179, 8222, 8216, 8334,8.683135032653809
6, 8210, 8216, 8195, 8221, 8016, 8134, 8177, 8163, 8136, 8163, 8178, 8230, 8221, 8339,8.690374851226807
7, 8217, 8217, 8205, 8223, 8000, 8133, 8162, 8161, 8134, 8149, 8174, 8223, 8212, 8342,8.69920301437378
7, 8217, 8217, 8205, 8223, 8000, 8133, 8162, 8161, 8134, 8149, 8174, 8223, 8212, 8342,8.717172384262085
8, 8206, 8235, 8188, 8232, 7986, 8129, 8138, 8146, 8135, 8151, 8178, 8213, 8222, 8336,8.722117900848389
9, 8218, 8244, 8205, 8240, 8027, 8127, 8185, 8146, 8126, 8170, 8179, 8212, 8223, 8320,8.730348825454712
10, 8191, 8213, 8166, 8225, 8000, 8121, 8139, 8119, 8115, 8180, 8160, 8182, 8199, 8290,8.73929476737976
11, 8164, 8191, 8142, 8183, 8006, 8117, 8167, 8118, 8104, 8153, 8142, 8152, 8171, 8251,8.745218515396118
12, 8172, 8195, 8159, 8159, 7996, 8108, 8162, 8129, 8113, 8148, 8150, 8168, 8178, 8265,8.753262758255005
13, 8173, 8197, 8159, 8173, 7988, 8106, 8134, 8144, 8140, 8179, 8154, 8180, 8190, 8300,8.761208295822144
14, 8176, 8189, 8177, 8173, 8018, 8118, 8192, 8172, 8156, 8180, 8159, 8167, 8182, 8286,8.769322633743286
15, 8171, 8186, 8167, 8159, 7990, 8123, 8147, 8164, 8171, 8174, 8172, 8175, 8194, 8279,8.777236461639404
16, 8199, 8211, 8189, 8170, 8015, 8134, 8167, 8168, 8172, 8185, 8169, 8204, 8209, 8315,8.78531002998352
17, 8216, 8213, 8197, 8176, 8007, 8133, 8181, 8173, 8155, 8195, 8163, 8205, 8205, 8333,8.793350458145142
18, 8179, 8188, 8149, 8160, 7976, 8113, 8137, 8162, 8148, 8177, 8158, 8181, 8200, 8310,8.801239967346191
19, 8180, 8182, 8168, 8171, 8018, 8114, 8179, 8167, 8151, 8153, 8152, 8175, 8186, 8287,8.808115243911743
20, 8176, 8180, 8169, 8191, 7996, 8128, 8145, 8153, 8155, 8162, 8153, 8182, 8183, 8284,8.81616997718811
21, 8173, 8182, 8158, 8188, 8003, 8134, 8161, 8160, 8158, 8155, 8157, 8179, 8183, 8283,8.824058771133423
22, 8185, 8191, 8174, 8188, 8021, 8132, 8180, 8163, 8165, 8145, 8155, 8182, 8177, 8284,8.83217740058899
23, 8176, 8197, 8168, 8201, 8007, 8133, 8141, 8140, 8173, 8165, 8156, 8196, 8187, 8289,8.84011173248291
24, 8192, 8198, 8184, 8193, 8037, 8143, 8188, 8153, 8180, 8183, 8161, 8207, 8199, 8288,8.848233938217163
25, 8175, 8175, 8159, 8179, 8005, 8139, 8153, 8155, 8196, 8188, 8159, 8187, 8197, 8276,8.856241226196289
26, 8146, 8155, 8141, 8167, 8010, 8131, 8161, 8151, 8196, 8176, 8147, 8156, 8172, 8249,8.863299131393433
27, 8156, 8150, 8161, 8162, 8027, 8129, 8188, 8153, 8188, 8174, 8140, 8157, 8162, 8249,8.871285915374756
28, 8148, 8158, 8140, 8181, 8003, 8128, 8135, 8146, 8198, 8181, 8146, 8165, 8174, 8268,8.879320621490479
29, 8153, 8172, 8165, 8192, 8036, 8139, 8180, 8158, 8197, 8166, 8149, 8165, 8166, 8260,8.887306928634644
30, 8155, 8150, 8169, 8168, 8020, 8134, 8156, 8148, 8191, 8158, 8146, 8167, 8167, 8257,8.895288228988647
31, 8148, 8132, 8147, 8153, 8027, 8118, 8147, 8153, 8188, 8163, 8143, 8170, 8170, 8273,8.90329122543335
32, 8149, 8139, 8155, 8157, 8043, 8120, 8177, 8175, 8188, 8158, 8143, 8168, 8157, 8272,8.911280155181885
33, 8133, 8133, 8133, 8136, 8013, 8125, 8142, 8165, 8183, 8145, 8135, 8148, 8140, 8258,8.919360876083374
34, 8152, 8133, 8151, 8121, 8047, 8136, 8197, 8171, 8171, 8127, 8133, 8142, 8122, 8252,8.927274942398071
35, 8151, 8135, 8149, 8138, 8027, 8143, 8176, 8157, 8173, 8127, 8139, 8147, 8119, 8252,8.934307336807251
36, 8114, 8121, 8121, 8132, 8019, 8137, 8153, 8144, 8167, 8136, 8130, 8127, 8113, 8233,8.942344188690186
37, 8116, 8121, 8151, 8124, 8055, 8131, 8198, 8160, 8156, 8139, 8133, 8124, 8110, 8218,8.950106382369995
38, 8131, 8143, 8158, 8150, 8034, 8144, 8149, 8161, 8185, 8158, 8154, 8157, 8144, 8239,8.958138942718506
39, 8143, 8156, 8153, 8165, 8039, 8159, 8148, 8164, 8210, 8181, 8163, 8172, 8180, 8257,8.966340780258179
40, 8132, 8149, 8142, 8161, 8031, 8142, 8141, 8160, 8202, 8194, 8160, 8156, 8183, 8256,8.97408938407898
41, 8120, 8143, 8132, 8158, 8027, 8130, 8126, 8161, 8201, 8196, 8156, 8149, 8179, 8255,8.982325792312622
42, 8130, 8136, 8149, 8145, 8055, 8140, 8170, 8179, 8206, 8182, 8155, 8151, 8171, 8250,8.99031400680542
43, 8111, 8128, 8147, 8126, 8062, 8148, 8187, 8174, 8199, 8165, 8154, 8142, 8160, 8235,8.997222423553467
44, 8118, 8134, 8173, 8126, 8093, 8156, 8225, 8177, 8195, 8164, 8151, 8142, 8152, 8222,9.005261421203613
45, 8135, 8132, 8170, 8137, 8052, 8144, 8151, 8164, 8207, 8173, 8153, 8152, 8160, 8233,9.013305187225342
46, 8122, 8124, 8149, 8130, 8044, 8130, 8139, 8155, 8195, 8160, 8153, 8150, 8155, 8244,9.021209001541138
