COUNTER,F3, FC5,AF3,F7,T7,P7,O1,O2,P8,T8,F8,AF4,FC6,F4,Timestamp,hello_event
33,8195,8181,8172,8187,8212,8171,8199,8194,8139,8175,8171,8180,8193,8310,0.0304772853851318,False
34,8165,8160,8143,8166,8189,8162,8164,8189,8127,8159,8156,8166,8176,8280,0.0312483310699462,False
35,8134,8148,8130,8153,8193,8180,8173,8189,8121,8136,8155,8157,8162,8249,0.0453293323516845,False
36,8149,8148,8147,8150,8198,8194,8194,8198,8130,8149,8159,8170,8159,8258,0.0461714267730712,False
37,8160,8144,8147,8145,8193,8176,8180,8198,8142,8182,8158,8175,8171,8277,0.0533270835876464,False
38,8169,8156,8174,8146,8207,8170,8197,8207,8144,8174,8165,8174,8173,8278,0.0613014698028564,False
39,8165,8162,8167,8161,8186,8177,8165,8196,8155,8169,8161,8170,8168,8276,0.0722706317901611,False
40,8186,8168,8189,8168,8230,8182,8225,8192,8154,8180,8151,8166,8156,8263,0.0804316997528076,False
41,8215,8188,8222,8184,8215,8173,8197,8162,8138,8180,8186,8196,8180,8277,0.0884027481079101,False
42,8218,8210,8198,8219,8178,8167,8112,8136,8132,8187,8220,8233,8234,8321,0.0934417247772216,False
43,8238,8209,8220,8219,8225,8169,8184,8160,8128,8198,8209,8248,8250,8338,0.1003460884094238,False
44,8236,8190,8215,8199,8189,8155,8144,8142,8132,8216,8206,8256,8261,8347,0.1083500385284423,False
45,8247,8205,8205,8213,8200,8152,8136,8134,8132,8218,8208,8265,8275,8361,0.1164250373840332,False
46,8263,8214,8211,8229,8216,8167,8172,8150,8130,8209,8191,8255,8266,8357,0.1304597854614257,False
47,8223,8177,8171,8195,8171,8158,8135,8147,8126,8200,8175,8218,8240,8330,0.1321685314178466,False
48,8200,8153,8164,8145,8186,8147,8174,8157,8104,8181,8170,8193,8211,8299,0.1632931232452392,False
49,8170,8147,8134,8140,8169,8159,8159,8158,8106,8185,8163,8181,8202,8279,0.1641702651977539,False
50,8129,8129,8105,8130,8175,8177,8170,8177,8127,8181,8150,8152,8178,8241,0.1713423728942871,False
51,8123,8109,8118,8104,8184,8175,8191,8195,8136,8160,8150,8139,8149,8215,0.1793513298034668,False
52,8123,8111,8119,8106,8164,8167,8163,8190,8136,8162,8165,8157,8157,8235,0.2074232101440429,False
53,8137,8117,8140,8119,8185,8175,8198,8214,8141,8174,8166,8167,8170,8253,0.2134671211242675,False
54,8141,8107,8142,8127,8161,8173,8163,8215,8151,8177,8162,8157,8166,8255,0.2204349040985107,False
55,8152,8118,8147,8141,8174,8169,8159,8192,8147,8174,8176,8170,8173,8267,0.228421926498413,False
56,8174,8137,8178,8155,8195,8173,8185,8168,8125,8182,8185,8190,8194,8272,0.2344722747802734,False
57,8165,8135,8161,8151,8163,8154,8126,8130,8096,8176,8180,8181,8199,8269,0.2424883842468261,False
58,8182,8138,8169,8153,8182,8132,8145,8122,8070,8147,8178,8180,8191,8283,0.2543790340423584,False
59,8198,8146,8183,8183,8171,8130,8132,8116,8073,8158,8186,8196,8208,8305,0.2654263973236084,False
60,8188,8155,8175,8198,8170,8135,8127,8119,8083,8185,8181,8196,8214,8309,0.2661507129669189,False
61,8204,8164,8189,8191,8189,8132,8169,8136,8083,8180,8177,8192,8200,8302,0.2742445468902588,False
62,8200,8160,8172,8188,8162,8124,8140,8135,8100,8183,8185,8195,8209,8300,0.2824723720550537,False
63,8190,8156,8172,8184,8180,8133,8174,8161,8112,8189,8186,8189,8212,8290,0.2904326915740967,False
64,8181,8144,8167,8165,8171,8147,8171,8177,8113,8180,8170,8176,8193,8283,0.3124639987945556,False
64,8181,8144,8167,8165,8171,8147,8171,8177,8113,8180,8170,8176,8193,8283,0.3214178085327148,False
73,8151,8127,8161,8153,8167,8144,8165,8168,8097,8131,8156,8175,8165,8275,0.3414545059204101,False
74,8167,8133,8180,8157,8177,8145,8177,8175,8100,8149,8171,8188,8197,8297,0.3454282283782959,False
75,8159,8139,8157,8157,8152,8134,8145,8165,8104,8171,8173,8188,8199,8296,0.3564257621765136,False
76,8164,8142,8170,8160,8177,8145,8187,8175,8105,8160,8167,8185,8188,8277,0.3684008121490478,False
77,8160,8145,8169,8167,8162,8151,8157,8164,8107,8164,8171,8188,8205,8278,0.3691451549530029,False
78,8153,8145,8158,8165,8169,8143,8153,8164,8101,8172,8178,8182,8204,8289,0.3762266635894775,False
79,8165,8134,8170,8160,8182,8141,8177,8168,8099,8163,8173,8172,8191,8287,0.3844072818756103,False
80,8156,8130,8158,8160,8168,8142,8147,8149,8113,8167,8158,8167,8191,8277,0.3924605846405029,False
81,8136,8122,8141,8138,8166,8139,8149,8152,8107,8161,8159,8156,8170,8257,0.4164190292358398,False
81,8136,8122,8141,8138,8166,8139,8149,8152,8107,8161,8159,8156,8170,8257,0.4284136295318603,False
82,8114,8091,8113,8106,8127,8138,8119,8152,8099,8145,8166,8144,8151,8246,0.4291536808013916,False
83,8113,8085,8104,8110,8140,8140,8131,8157,8107,8149,8160,8144,8160,8253,0.4373230934143066,False
84,8135,8096,8147,8123,8201,8144,8203,8179,8105,8156,8162,8150,8166,8258,0.4393947124481201,False
85,8147,8096,8164,8119,8193,8151,8190,8181,8102,8158,8174,8163,8173,8274,0.4604349136352539,False
86,8161,8111,8147,8126,8156,8152,8148,8171,8103,8161,8173,8176,8188,8300,0.4654936790466308,False
87,8162,8121,8134,8132,8147,8145,8139,8159,8091,8155,8168,8173,8197,8307,0.4714944362640381,False
88,8165,8121,8170,8125,8185,8144,8202,8160,8078,8143,8175,8168,8192,8296,0.4854252338409424,False
89,8185,8128,8194,8143,8153,8144,8178,8156,8089,8164,8186,8196,8208,8310,0.4873852729797363,False
90,8185,8126,8153,8172,8113,8143,8103,8161,8116,8189,8190,8213,8239,8335,0.4953992366790771,False
91,8199,8129,8170,8166,8180,8150,8179,8191,8116,8163,8182,8200,8217,8321,0.5043995380401611,False
92,8199,8141,8175,8158,8155,8145,8145,8167,8105,8146,8166,8189,8188,8312,0.5124015808105469,False
93,8204,8144,8164,8166,8163,8139,8152,8161,8093,8147,8157,8182,8185,8311,0.54030442237854,False
94,8233,8134,8211,8154,8226,8146,8258,8186,8071,8125,8161,8172,8164,8292,0.5444269180297852,False
95,8190,8112,8179,8136,8153,8137,8158,8151,8065,8122,8158,8158,8150,8281,0.5584595203399658,False
96,8160,8108,8152,8130,8154,8141,8148,8150,8064,8134,8151,8149,8148,8278,0.5644207000732422,False
97,8183,8114,8169,8126,8187,8161,8202,8176,8074,8128,8163,8147,8147,8268,0.566403865814209,False
98,8168,8110,8134,8127,8134,8160,8133,8167,8099,8132,8176,8147,8155,8263,0.5745174884796143,False
107,8190,8133,8185,8142,8193,8150,8211,8157,8065,8126,8166,8157,8158,8259,0.6182594299316406,False
107,8190,8133,8185,8142,8193,8150,8211,8157,8065,8126,8166,8157,8158,8259,0.629387617111206,False
108,8169,8123,8158,8146,8126,8131,8118,8145,8079,8146,8167,8167,8167,8271,0.6301031112670898,False
109,8171,8121,8148,8155,8148,8143,8148,8164,8084,8155,8168,8174,8187,8284,0.6445496082305908,False
110,8200,8131,8181,8159,8187,8163,8208,8189,8097,8155,8173,8181,8195,8292,0.6452367305755615,False
111,8194,8131,8179,8147,8164,8150,8177,8175,8098,8153,8170,8182,8190,8290,0.6635379791259766,False
112,8169,8122,8150,8140,8140,8134,8133,8153,8084,8157,8166,8175,8183,8280,0.70123291015625,False
113,8159,8123,8148,8143,8167,8150,8158,8166,8092,8156,8161,8171,8179,8280,0.7021129131317139,False
114,8169,8129,8172,8154,8181,8171,8181,8180,8107,8147,8161,8175,8182,8284,0.7112905979156494,False
115,8160,8131,8142,8173,8132,8164,8099,8141,8107,8158,8175,8176,8199,8287,0.71728515625,False
116,8197,8158,8178,8191,8204,8159,8188,8155,8099,8167,8180,8186,8196,8286,0.7255620956420898,False
117,8242,8181,8239,8210,8227,8170,8240,8184,8099,8165,8183,8205,8195,8301,0.736396312713623,False
118,8201,8158,8155,8205,8130,8159,8095,8128,8077,8163,8180,8183,8211,8302,0.7412545680999756,False
119,8181,8132,8126,8175,8179,8141,8164,8120,8036,8136,8164,8143,8186,8268,0.7474186420440674,False
120,8184,8127,8168,8161,8201,8136,8223,8152,8045,8120,8156,8141,8163,8254,0.758408784866333,False
121,8150,8133,8133,8165,8134,8137,8107,8144,8077,8144,8157,8144,8174,8261,0.7644236087799072,False
122,8155,8137,8127,8168,8146,8146,8114,8146,8080,8161,8164,8143,8179,8265,0.7703266143798828,False
123,8180,8133,8159,8176,8160,8147,8166,8164,8091,8164,8173,8154,8184,8273,0.7782526016235352,False
124,8171,8134,8156,8180,8151,8133,8159,8176,8107,8165,8168,8154,8183,8273,0.7864210605621338,False
125,8156,8129,8138,8163,8154,8126,8140,8169,8098,8155,8148,8136,8158,8257,0.7942647933959961,False
126,8172,8126,8159,8152,8184,8142,8179,8181,8098,8154,8150,8142,8155,8257,0.802222728729248,False
6,8252,8175,8212,8243,8192,8148,8165,8155,8077,8185,8197,8223,8246,8351,0.830359935760498,False
7,8205,8150,8174,8215,8168,8149,8134,8150,8072,8175,8187,8211,8232,8330,0.8352649211883545,False
8,8204,8141,8176,8194,8180,8142,8178,8174,8057,8159,8167,8200,8223,8323,0.8492746353149414,False
9,8206,8141,8161,8190,8151,8133,8145,8170,8069,8165,8172,8200,8226,8337,0.8502216339111328,False
10,8207,8157,8164,8199,8166,8140,8157,8174,8090,8165,8179,8203,8225,8333,0.8573787212371826,False
11,8225,8158,8195,8206,8167,8142,8177,8182,8094,8168,8176,8216,8222,8323,0.8914062976837158,False
12,8232,8149,8196,8210,8142,8135,8148,8180,8102,8190,8197,8239,8245,8346,0.8921277523040771,False
13,8264,8175,8235,8243,8176,8146,8193,8200,8118,8195,8221,8273,8276,8377,0.8971350193023682,False
14,8281,8200,8255,8292,8159,8153,8169,8195,8124,8191,8221,8301,8289,8374,0.9042117595672609,False
15,8275,8188,8244,8299,8157,8151,8174,8191,8112,8183,8209,8304,8275,8352,0.9123563766479492,False
16,8280,8179,8251,8280,8166,8148,8186,8194,8108,8179,8207,8306,8263,8364,0.9262981414794922,False
17,8283,8196,8237,8289,8156,8133,8130,8167,8109,8190,8200,8303,8278,8391,0.9281628131866456,False
18,8286,8194,8221,8289,8179,8109,8154,8141,8073,8166,8172,8269,8261,8377,0.9361569881439208,False
19,8246,8156,8171,8236,8140,8100,8134,8112,8031,8125,8149,8219,8212,8337,0.9442834854125975,False
20,8206,8130,8134,8178,8128,8116,8141,8113,8018,8112,8143,8193,8175,8305,0.9523277282714844,False
21,8198,8113,8142,8159,8145,8127,8177,8134,8030,8118,8143,8174,8160,8283,0.9591732025146484,False
22,8160,8098,8114,8159,8133,8130,8145,8142,8056,8125,8136,8149,8157,8267,0.9672894477844238,False
23,8148,8102,8120,8155,8169,8150,8186,8168,8070,8125,8136,8151,8149,8262,0.9762203693389891,False
24,8161,8103,8141,8149,8156,8154,8164,8169,8078,8134,8149,8165,8163,8271,0.9833943843841552,False
25,8169,8113,8141,8162,8155,8141,8141,8170,8090,8155,8154,8162,8179,8274,0.9911894798278807,False
26,8186,8139,8168,8185,8174,8133,8172,8183,8097,8157,8161,8169,8184,8274,0.9991488456726074,False
27,8190,8147,8170,8200,8143,8136,8139,8171,8108,8152,8172,8189,8205,8294,1.007335186004639,False
28,8190,8147,8170,8197,8174,8157,8174,8174,8106,8158,8166,8185,8198,8295,1.0151605606079102,False
29,8164,8131,8147,8179,8172,8163,8163,8163,8088,8159,8149,8156,8161,8264,1.022160530090332,False
30,8146,8129,8139,8173,8156,8145,8137,8145,8070,8139,8150,8142,8151,8245,1.030329704284668,False
31,8179,8163,8184,8189,8174,8139,8175,8150,8074,8143,8168,8159,8172,8262,1.042351484298706,False
32,8183,8178,8168,8202,8144,8129,8137,8145,8092,8177,8173,8172,8188,8285,1.0471951961517334,False
33,8180,8169,8163,8200,8158,8135,8158,8157,8098,8166,8165,8165,8175,8274,1.054208755493164,False
34,8183,8154,8179,8187,8160,8160,8163,8158,8101,8147,8160,8150,8163,8248,1.0623366832733154,False
35,8170,8140,8161,8180,8148,8166,8142,8150,8104,8166,8165,8149,8173,8254,1.0732688903808594,False
36,8178,8138,8172,8183,8168,8160,8182,8152,8087,8170,8168,8173,8177,8282,1.0792207717895508,False
37,8171,8134,8164,8169,8143,8155,8148,8130,8060,8135,8153,8171,8159,8286,1.086336612701416,False
38,8161,8123,8150,8133,8159,8147,8166,8135,8037,8102,8137,8141,8131,8261,1.09307861328125,False
39,8165,8110,8146,8123,8156,8132,8169,8144,8033,8113,8140,8140,8130,8252,1.1022844314575195,False
40,8163,8112,8138,8135,8135,8126,8138,8136,8042,8121,8148,8156,8137,8260,1.110220432281494,False
41,8178,8121,8168,8134,8162,8124,8185,8140,8028,8097,8147,8154,8130,8262,1.118120193481445,False
42,8176,8115,8158,8129,8133,8117,8152,8129,8022,8093,8149,8143,8137,8270,1.1254417896270752,False
43,8175,8118,8149,8128,8136,8128,8159,8147,8041,8112,8158,8153,8145,8284,1.13434100151062,False
44,8190,8125,8173,8132,8146,8140,8182,8175,8064,8127,8167,8178,8151,8297,1.1423027515411377,False
45,8186,8120,8166,8143,8131,8142,8149,8168,8074,8130,8166,8182,8162,8303,1.1492667198181152,True
46,8200,8121,8183,8155,8158,8154,8186,8177,8067,8137,8165,8180,8168,8301,1.1562254428863523,True
47,8201,8131,8184,8164,8147,8160,8161,8177,8080,8163,8174,8194,8183,8306,1.17140531539917,True
48,8190,8141,8185,8176,8164,8157,8161,8179,8096,8164,8176,8206,8190,8302,1.1731197834014893,True
49,8199,8140,8203,8186,8167,8153,8177,8181,8093,8150,8175,8206,8192,8301,1.1801977157592771,True
50,8187,8137,8177,8175,8141,8150,8135,8163,8090,8165,8172,8189,8200,8303,1.1891765594482422,True
51,8175,8138,8172,8161,8176,8156,8169,8167,8079,8168,8163,8177,8183,8284,1.1961851119995115,True
52,8156,8127,8158,8159,8151,8158,8152,8158,8078,8152,8153,8170,8156,8266,1.2042999267578125,True
53,8148,8118,8142,8137,8144,8162,8157,8158,8079,8141,8141,8153,8132,8256,1.2122056484222412,True
54,8158,8125,8159,8120,8166,8165,8182,8164,8070,8135,8136,8142,8118,8242,1.219139814376831,True
55,8131,8128,8145,8147,8140,8155,8131,8150,8064,8130,8143,8131,8124,8230,1.227187156677246,True
56,8122,8132,8154,8181,8164,8156,8167,8163,8067,8133,8148,8121,8121,8221,1.235238552093506,True
57,8142,8136,8161,8190,8153,8154,8157,8160,8081,8146,8154,8132,8118,8232,1.2442264556884766,True
58,8159,8141,8159,8186,8147,8149,8140,8150,8089,8158,8165,8152,8140,8259,1.2552499771118164,True
59,8170,8150,8185,8190,8163,8158,8173,8159,8094,8165,8173,8161,8160,8273,1.2593121528625488,True
60,8165,8155,8179,8212,8140,8167,8135,8149,8099,8170,8169,8166,8164,8276,1.2673077583312988,True
61,8190,8167,8191,8220,8166,8179,8169,8153,8090,8170,8166,8179,8169,8278,1.2793598175048828,True
62,8197,8151,8186,8201,8156,8179,8167,8152,8079,8179,8170,8178,8179,8280,1.28432297706604,True
63,8166,8126,8157,8195,8148,8179,8145,8153,8083,8184,8169,8162,8177,8275,1.2902286052703855,True
64,8165,8130,8175,8187,8175,8188,8189,8170,8088,8172,8159,8156,8164,8263,1.307260036468506,True
65,8158,8127,8162,8158,8157,8178,8163,8167,8096,8171,8146,8150,8155,8261,1.3121685981750488,True
66,8144,8113,8149,8148,8170,8157,8182,8187,8102,8153,8141,8136,8140,8251,1.315077304840088,True
67,8135,8102,8153,8156,8148,8157,8176,8197,8109,8148,8155,8141,8149,8235,1.3222224712371826,True
68,8128,8108,8151,8161,8136,8178,8155,8185,8124,8181,8170,8156,8173,8242,1.3435189723968506,True
69,8149,8119,8179,8168,8180,8189,8196,8180,8118,8188,8169,8162,8163,8251,1.3452906608581543,True
70,8151,8116,8168,8166,8160,8179,8156,8151,8096,8166,8158,8159,8151,8241,1.369386911392212,True
71,8153,8121,8166,8165,8171,8189,8172,8148,8091,8159,8157,8156,8157,8241,1.370109796524048,True
72,8164,8132,8192,8183,8179,8201,8175,8153,8104,8181,8173,8161,8166,8263,1.3771355152130127,True
73,8161,8140,8182,8198,8163,8185,8133,8142,8103,8186,8171,8167,8167,8272,1.3853929042816162,True
74,8185,8150,8197,8203,8189,8179,8179,8152,8097,8167,8165,8181,8170,8273,1.3932583332061768,True
75,8203,8154,8204,8217,8175,8192,8152,8158,8120,8184,8181,8201,8196,8301,1.4001860618591309,True
76,8204,8161,8201,8226,8184,8191,8151,8167,8124,8208,8183,8201,8199,8307,1.415358304977417,True
77,8198,8158,8193,8216,8183,8177,8169,8172,8107,8205,8166,8187,8181,8296,1.4172399044036863,True
78,8181,8148,8164,8210,8156,8172,8144,8168,8120,8196,8160,8179,8183,8305,1.443406343460083,True
79,8192,8149,8189,8207,8188,8181,8186,8185,8129,8191,8167,8179,8184,8310,1.444108486175537,True
80,8184,8142,8180,8201,8172,8185,8160,8186,8127,8199,8164,8177,8184,8305,1.451089859008789,True
81,8167,8128,8152,8187,8178,8190,8168,8189,8125,8196,8159,8174,8179,8294,1.4561564922332764,True
82,8186,8127,8174,8182,8186,8188,8189,8189,8119,8178,8165,8178,8172,8287,1.464345932006836,False
83,8185,8134,8174,8195,8152,8181,8137,8168,8123,8174,8165,8177,8174,8286,1.4811596870422363,False
84,8181,8131,8175,8185,8176,8184,8173,8177,8130,8177,8151,8168,8163,8279,1.4821863174438477,False
85,8187,8122,8167,8169,8163,8182,8160,8176,8127,8182,8139,8169,8154,8281,1.4953210353851318,False
86,8188,8133,8170,8188,8164,8177,8148,8173,8118,8185,8150,8176,8159,8284,1.4961121082305908,False
87,8175,8138,8185,8204,8182,8187,8177,8173,8120,8178,8167,8163,8156,8271,1.5042645931243896,False
88,8158,8125,8161,8194,8164,8197,8143,8156,8123,8184,8162,8142,8144,8269,1.5163955688476562,False
89,8185,8137,8179,8196,8198,8192,8178,8162,8103,8184,8152,8151,8139,8278,1.521306037902832,False
90,8189,8153,8181,8207,8175,8169,8161,8146,8085,8167,8161,8163,8147,8277,1.5282166004180908,False
91,8171,8156,8160,8208,8159,8164,8138,8132,8082,8168,8175,8165,8154,8272,1.5463972091674805,False
92,8184,8159,8186,8208,8194,8177,8175,8144,8082,8189,8173,8171,8157,8273,1.5503361225128174,False
93,8168,8152,8174,8200,8177,8177,8148,8144,8095,8196,8161,8170,8167,8271,1.5583484172821045,False
94,8163,8148,8166,8186,8184,8183,8180,8162,8106,8194,8163,8169,8174,8271,1.5662460327148438,False
95,8166,8134,8166,8179,8169,8187,8175,8165,8098,8208,8169,8168,8175,8274,1.5804545879364014,False
96,8135,8115,8143,8160,8160,8184,8158,8156,8090,8202,8161,8153,8164,8255,1.5853402614593506,False
97,8120,8107,8152,8131,8178,8194,8200,8175,8103,8184,8158,8143,8147,8227,1.5902276039123535,False
98,8115,8098,8148,8123,8145,8199,8165,8184,8127,8201,8161,8146,8149,8221,1.5981054306030271,False
99,8129,8104,8158,8138,8161,8196,8188,8192,8134,8206,8160,8161,8156,8229,1.612419843673706,False
100,8141,8119,8172,8148,8156,8194,8186,8184,8128,8190,8166,8171,8166,8243,1.6164181232452393,False
109,8181,8150,8170,8180,8161,8144,8153,8119,8064,8157,8174,8163,8157,8245,1.63222336769104,False
110,8211,8161,8196,8198,8179,8150,8181,8132,8060,8167,8174,8184,8171,8267,1.639176607131958,False
111,8204,8165,8193,8212,8158,8159,8152,8148,8079,8207,8180,8200,8199,8278,1.6451570987701416,False
112,8202,8167,8203,8213,8177,8166,8190,8175,8090,8211,8185,8194,8200,8280,1.6534481048583984,False
113,8183,8150,8180,8199,8150,8156,8161,8160,8083,8190,8173,8181,8197,8280,1.661217451095581,False
114,8143,8116,8145,8166,8147,8156,8153,8157,8077,8190,8154,8166,8191,8267,1.6852378845214844,False
115,8141,8107,8150,8154,8163,8172,8172,8175,8086,8203,8164,8165,8188,8268,1.6862409114837646,False
116,8159,8120,8146,8166,8150,8169,8145,8159,8093,8196,8175,8167,8196,8285,1.6984312534332275,False
117,8178,8127,8169,8164,8174,8153,8189,8165,8073,8176,8172,8166,8191,8291,1.7002558708190918,False
118,8172,8128,8174,8168,8154,8149,8162,8176,8080,8191,8178,8180,8197,8303,1.7174105644226074,False
119,8166,8141,8164,8183,8160,8164,8155,8175,8102,8201,8174,8182,8200,8299,1.7204160690307615,False
120,8166,8139,8171,8175,8176,8160,8185,8167,8087,8165,8157,8158,8171,8262,1.7253708839416504,False
121,8143,8120,8148,8158,8143,8138,8137,8144,8069,8144,8149,8145,8157,8246,1.7534303665161133,False
122,8141,8124,8161,8168,8163,8145,8166,8148,8069,8155,8158,8154,8170,8254,1.7574734687805176,False
123,8150,8129,8176,8190,8156,8166,8161,8146,8078,8175,8176,8173,8190,8263,1.7695178985595703,False
124,8155,8129,8173,8192,8160,8162,8147,8140,8074,8174,8180,8179,8197,8269,1.7764954566955566,False
125,8159,8132,8178,8175,8172,8155,8178,8147,8056,8150,8165,8156,8176,8255,1.7803406715393066,False
126,8140,8126,8153,8163,8133,8155,8142,8145,8061,8164,8163,8140,8176,8244,1.7883706092834473,False
127,8144,8124,8160,8162,8164,8160,8176,8178,8091,8209,8191,8166,8206,8264,1.7954895496368408,False
238,8152,8125,8167,8160,8164,8168,8176,8193,8116,8225,8206,8173,8229,8282,1.8032934665679927,False
0,8140,8123,8153,8159,8138,8171,8149,8187,8125,8217,8182,8146,8226,8273,1.8101885318756104,False
1,8159,8109,8174,8150,8159,8167,8184,8196,8119,8218,8165,8149,8209,8270,1.8182404041290283,False
2,8161,8094,8158,8130,8138,8160,8141,8172,8113,8212,8176,8161,8203,8284,1.8272933959960933,False
3,8149,8105,8150,8118,8148,8158,8154,8150,8100,8184,8174,8144,8191,8270,1.8352138996124268,False
4,8160,8122,8169,8136,8142,8148,8168,8144,8089,8187,8168,8151,8189,8261,1.8474547863006592,False
5,8180,8136,8176,8168,8137,8138,8151,8145,8081,8203,8180,8175,8197,8284,1.850248098373413,False
6,8213,8159,8200,8184,8159,8144,8181,8150,8071,8184,8185,8179,8200,8301,1.8584115505218504,False
7,8206,8158,8173,8182,8106,8134,8119,8127,8077,8197,8183,8181,8223,8303,1.87241005897522,False
8,8200,8151,8170,8185,8131,8131,8141,8135,8079,8221,8194,8191,8240,8299,1.874228239059448,False
9,8227,8165,8216,8198,8183,8138,8200,8157,8072,8199,8200,8191,8232,8302,1.8883469104766848,False
10,8218,8173,8183,8200,8131,8139,8138,8144,8076,8197,8190,8183,8235,8311,1.8890941143035889,False
11,8200,8166,8146,8194,8124,8155,8138,8146,8079,8226,8190,8188,8255,8311,1.8972384929656985,False
12,8203,8156,8164,8191,8158,8169,8179,8157,8081,8228,8190,8189,8260,8304,1.9064149856567385,False
13,8194,8155,8176,8190,8148,8161,8170,8158,8088,8225,8185,8179,8253,8308,1.9133660793304443,False
14,8183,8160,8166,8186,8134,8156,8139,8152,8087,8249,8193,8184,8263,8317,1.921447515487671,False
15,8183,8162,8156,8174,8157,8156,8141,8153,8080,8247,8190,8186,8266,8307,1.9324204921722408,False
16,8184,8154,8157,8160,8161,8153,8162,8164,8075,8224,8173,8171,8240,8293,1.937273979187012,False
17,8165,8135,8138,8158,8118,8147,8126,8156,8083,8216,8162,8152,8214,8298,1.9484272003173828,False
18,8177,8141,8171,8172,8174,8152,8203,8168,8083,8193,8158,8147,8200,8287,1.9534571170806885,False
19,8209,8158,8212,8185,8184,8163,8230,8176,8083,8198,8166,8168,8214,8281,1.9602012634277344,False
20,8203,8161,8164,8200,8112,8168,8113,8158,8108,8242,8181,8191,8248,8310,1.9694364070892327,False
21,8231,8176,8181,8213,8178,8169,8185,8181,8112,8230,8175,8193,8243,8320,1.9902799129486084,False
22,8239,8179,8208,8205,8184,8165,8203,8166,8088,8195,8163,8177,8218,8299,1.9931390285491943,False
22,8239,8179,8208,8205,8184,8165,8203,8166,8088,8195,8163,8177,8218,8299,2.0063161849975586,False
23,8206,8172,8171,8194,8141,8160,8130,8130,8085,8201,8172,8173,8221,8289,2.008390426635742,False
24,8223,8175,8191,8198,8171,8152,8184,8151,8097,8197,8181,8192,8231,8292,2.015357494354248,False
25,8215,8161,8182,8185,8139,8146,8165,8152,8104,8192,8170,8188,8231,8295,2.023380756378174,False
26,8179,8149,8142,8161,8121,8156,8118,8133,8094,8207,8156,8166,8221,8291,2.031522512435913,False
27,8174,8152,8146,8173,8145,8170,8125,8128,8082,8207,8162,8167,8216,8276,2.052508354187012,False
28,8172,8164,8173,8191,8186,8193,8202,8156,8091,8202,8170,8172,8215,8260,2.056389093399048,False
29,8165,8163,8180,8187,8176,8206,8213,8177,8112,8215,8174,8168,8219,8271,2.06318998336792,False
30,8164,8149,8150,8180,8128,8181,8119,8152,8118,8234,8175,8168,8232,8299,2.070366859436035,False
31,8200,8157,8189,8182,8188,8168,8190,8164,8105,8231,8172,8174,8227,8296,2.078557014465332,False
32,8227,8175,8220,8191,8182,8175,8191,8175,8122,8228,8177,8195,8239,8300,2.0904877185821533,False
33,8217,8178,8183,8197,8140,8175,8117,8169,8148,8240,8181,8209,8259,8335,2.094477653503418,False
34,8222,8169,8191,8189,8191,8184,8202,8181,8129,8236,8166,8188,8228,8334,2.1084892749786377,False
35,8212,8156,8182,8187,8165,8185,8182,8162,8115,8228,8153,8166,8210,8310,2.1112868785858154,False
36,8210,8159,8178,8197,8155,8180,8153,8153,8124,8216,8160,8180,8226,8313,2.118407249450684,False
37,8222,8158,8204,8191,8174,8180,8193,8161,8116,8210,8164,8183,8216,8318,2.13618540763855,False
38,8188,8136,8160,8172,8138,8181,8151,8146,8099,8202,8151,8141,8185,8293,2.145451068878174,False
39,8161,8137,8127,8170,8135,8185,8134,8156,8105,8184,8153,8131,8184,8275,2.1544342041015625,False
40,8173,8152,8149,8177,8155,8189,8170,8182,8129,8192,8168,8165,8204,8288,2.160506248474121,False
41,8170,8135,8156,8160,8163,8190,8198,8175,8128,8200,8159,8163,8186,8277,2.1654140949249268,False
42,8130,8104,8117,8132,8124,8173,8134,8131,8111,8190,8139,8124,8155,8237,2.179469108581543,False
43,8129,8120,8121,8135,8146,8160,8146,8131,8112,8190,8145,8127,8157,8236,2.181348323822021,False
52,8154,8113,8144,8126,8150,8183,8160,8163,8136,8187,8156,8146,8180,8281,2.202439069747925,False
53,8140,8117,8131,8129,8148,8187,8156,8164,8133,8191,8153,8153,8175,8273,2.207443952560425,False
54,8150,8131,8170,8134,8192,8193,8226,8176,8120,8184,8153,8146,8157,8261,2.212265491485596,False
55,8135,8120,8149,8135,8139,8188,8136,8151,8120,8192,8157,8142,8156,8264,2.2204389572143555,False
56,8125,8123,8125,8135,8150,8187,8133,8157,8135,8181,8154,8146,8162,8259,2.232522964477539,False
57,8156,8142,8189,8139,8206,8180,8249,8187,8122,8162,8146,8137,8146,8241,2.236497163772583,False
58,8126,8122,8162,8133,8126,8166,8144,8148,8102,8171,8152,8118,8135,8233,2.2472167015075684,False
59,8104,8108,8122,8124,8122,8178,8120,8145,8109,8176,8158,8125,8129,8232,2.252164125442505,False
60,8140,8127,8146,8131,8150,8202,8182,8177,8127,8177,8156,8140,8125,8239,2.266362190246582,False
61,8134,8133,8130,8136,8134,8200,8157,8166,8122,8168,8144,8118,8111,8230,2.2681798934936523,False
62,8114,8111,8130,8118,8166,8190,8182,8163,8102,8138,8136,8091,8088,8203,2.2762577533721924,False
63,8125,8104,8155,8102,8171,8188,8200,8174,8102,8133,8141,8101,8093,8213,2.2932562828063965,False
64,8160,8124,8176,8113,8152,8190,8188,8180,8102,8141,8151,8133,8117,8254,2.2991373538970947,False
65,8164,8134,8156,8132,8125,8188,8135,8171,8102,8139,8166,8149,8144,8275,2.300191879272461,False
66,8145,8139,8153,8144,8177,8187,8174,8184,8116,8154,8169,8139,8151,8265,2.3094184398651123,False
67,8172,8153,8209,8153,8240,8192,8253,8200,8119,8179,8170,8152,8147,8268,2.3151602745056152,False
68,8178,8151,8183,8159,8176,8187,8141,8162,8111,8196,8178,8179,8167,8291,2.3233916759490967,False
69,8163,8140,8157,8160,8187,8185,8139,8160,8094,8181,8178,8170,8173,8284,2.331418037414551,False
70,8160,8134,8180,8156,8198,8177,8194,8167,8087,8171,8170,8155,8160,8264,2.3454031944274902,False
71,8140,8131,8152,8141,8132,8161,8142,8139,8086,8175,8159,8152,8150,8262,2.346111536026001,False
72,8149,8133,8156,8125,8146,8174,8181,8150,8073,8153,8159,8151,8130,8259,2.354370355606079,False
73,8158,8129,8161,8131,8148,8189,8163,8163,8090,8157,8162,8158,8136,8263,2.3622493743896484,False
74,8156,8129,8156,8147,8170,8184,8165,8182,8121,8190,8161,8164,8153,8268,2.3795149326324463,False
75,8168,8132,8164,8147,8165,8182,8191,8194,8126,8195,8161,8152,8151,8261,2.3813905715942383,False
76,8163,8135,8145,8140,8130,8190,8163,8193,8128,8181,8160,8138,8148,8249,2.3864874839782715,False
77,8154,8134,8152,8131,8167,8202,8202,8212,8123,8179,8160,8135,8139,8230,2.394438982009888,False
77,8154,8134,8152,8131,8167,8202,8202,8212,8123,8179,8160,8135,8139,8230,2.4043757915496826,False
78,8138,8110,8149,8128,8146,8196,8166,8187,8106,8184,8162,8131,8133,8229,2.4102797508239746,False
79,8156,8115,8154,8142,8142,8191,8153,8159,8087,8165,8168,8146,8141,8256,2.417283296585083,False
80,8195,8152,8188,8165,8170,8194,8175,8155,8077,8154,8183,8177,8153,8274,2.425388097763061,False
81,8180,8162,8177,8180,8158,8184,8126,8138,8082,8174,8193,8187,8165,8278,2.449432611465454,False
82,8181,8155,8182,8173,8181,8177,8167,8146,8085,8189,8183,8182,8165,8281,2.451388597488404,False
83,8186,8144,8174,8165,8163,8171,8160,8138,8080,8183,8169,8175,8159,8277,2.459376335144043,False
84,8168,8140,8149,8159,8158,8167,8147,8131,8084,8174,8165,8163,8153,8260,2.4653472900390625,False
85,8176,8139,8167,8149,8172,8173,8184,8155,8094,8182,8164,8156,8151,8257,2.473519802093506,False
86,8176,8126,8155,8148,8146,8177,8149,8161,8099,8187,8164,8154,8152,8272,2.4803402423858643,False
87,8176,8120,8159,8144,8162,8174,8175,8166,8098,8161,8159,8150,8133,8261,2.4883084297180176,False
88,8174,8123,8163,8136,8144,8162,8167,8162,8107,8146,8164,8146,8130,8245,2.507427215576172,False
89,8169,8130,8152,8144,8144,8166,8154,8176,8113,8166,8175,8154,8150,8262,2.518354654312134,False
90,8190,8133,8177,8157,8172,8179,8193,8198,8112,8170,8171,8166,8153,8284,2.5202651023864746,False
91,8196,8129,8167,8151,8141,8178,8151,8188,8125,8181,8171,8163,8164,8292,2.538409948348999,False
92,8204,8147,8168,8152,8172,8186,8181,8202,8141,8206,8182,8169,8189,8298,2.5524070262908936,False
93,8202,8155,8180,8167,8179,8188,8186,8201,8140,8210,8178,8173,8194,8296,2.554187536239624,False
94,8174,8137,8149,8156,8147,8175,8133,8161,8121,8186,8158,8149,8170,8274,2.562283515930176,False
95,8183,8149,8153,8156,8171,8174,8167,8151,8095,8166,8168,8144,8166,8261,2.573249578475952,False
96,8209,8175,8169,8179,8156,8174,8155,8155,8106,8178,8184,8165,8194,8281,2.5762388706207275,False
97,8215,8167,8159,8174,8135,8164,8113,8153,8124,8193,8171,8163,8195,8294,2.583259344100952,False
98,8202,8155,8145,8161,8144,8165,8114,8141,8110,8191,8160,8152,8172,8275,2.604414224624634,False
99,8184,8159,8147,8165,8169,8177,8155,8136,8095,8187,8163,8149,8161,8247,2.6083035469055176,False
100,8183,8153,8160,8165,8169,8172,8166,8154,8102,8183,8157,8142,8158,8235,2.6202547550201416,False
101,8185,8145,8149,8156,8138,8161,8130,8163,8118,8181,8147,8143,8159,8246,2.622232675552368,False
102,8205,8152,8182,8147,8191,8175,8225,8179,8109,8174,8152,8148,8144,8253,2.6312811374664307,False
103,8195,8130,8190,8137,8176,8179,8211,8163,8092,8165,8164,8137,8131,8245,2.6454217433929443,False
104,8157,8110,8141,8138,8121,8162,8115,8146,8107,8166,8161,8134,8149,8244,2.652252435684204,False
105,8199,8144,8179,8162,8182,8172,8201,8188,8124,8189,8164,8161,8165,8260,2.654088020324707,False
106,8232,8165,8199,8177,8169,8186,8176,8176,8121,8199,8167,8177,8162,8273,2.662498950958252,False
107,8225,8167,8187,8185,8163,8190,8147,8155,8113,8168,8166,8174,8163,8267,2.676430940628052,False
108,8242,8185,8214,8209,8191,8202,8189,8179,8126,8171,8183,8195,8194,8286,2.6770331859588623,False
109,8237,8186,8194,8228,8174,8202,8151,8185,8143,8209,8189,8209,8220,8313,2.698458909988404,False
110,8222,8177,8188,8214,8198,8198,8186,8188,8137,8199,8169,8185,8199,8278,2.7023234367370605,False
111,8202,8168,8176,8197,8176,8197,8164,8166,8129,8178,8156,8157,8180,8238,2.7091872692108154,False
112,8187,8158,8155,8196,8179,8188,8153,8159,8120,8171,8156,8147,8164,8238,2.717184066772461,False
113,8184,8160,8158,8192,8192,8174,8176,8167,8118,8167,8163,8155,8154,8246,2.7252838611602783,False
114,8152,8147,8132,8173,8162,8167,8132,8152,8128,8178,8160,8143,8158,8231,2.733257532119751,False
115,8129,8114,8130,8138,8176,8167,8165,8150,8104,8160,8138,8107,8137,8202,2.7493233680725098,False
116,8111,8095,8116,8099,8150,8155,8151,8139,8081,8120,8135,8093,8114,8198,2.75126314163208,False
117,8107,8109,8108,8095,8148,8157,8144,8140,8093,8134,8154,8108,8123,8213,2.762174367904663,False
118,8149,8115,8155,8122,8172,8172,8178,8158,8106,8162,8161,8127,8128,8225,2.764263391494751,False
119,8171,8109,8158,8131,8141,8171,8141,8162,8106,8156,8163,8140,8131,8248,2.773350238800049,False
120,8175,8124,8165,8124,8156,8175,8173,8178,8104,8146,8173,8166,8146,8283,2.781282663345337,False
121,8171,8128,8176,8137,8156,8180,8169,8171,8116,8151,8182,8181,8158,8301,2.788266181945801,False
122,8175,8130,8169,8161,8158,8181,8160,8160,8134,8156,8180,8174,8167,8292,2.796342372894287,False
123,8202,8141,8186,8164,8178,8182,8198,8178,8145,8171,8176,8178,8181,8298,2.803286075592041,False
124,8191,8144,8179,8159,8150,8171,8148,8176,8161,8206,8180,8190,8212,8319,2.8113789558410645,False
125,8170,8156,8187,8170,8171,8170,8165,8178,8164,8200,8182,8181,8218,8302,2.8223862648010254,False
126,8168,8151,8182,8165,8159,8163,8167,8166,8147,8177,8170,8160,8197,8272,2.8293399810791016,False
127,8162,8134,8154,8140,8140,8136,8138,8150,8123,8159,8156,8149,8175,8266,2.83640193939209,False
238,8167,8139,8172,8135,8171,8128,8177,8151,8099,8125,8157,8150,8150,8255,2.8443374633789062,False
0,8151,8128,8156,8137,8143,8142,8149,8139,8098,8113,8155,8142,8131,8238,2.851229429244995,False
1,8132,8120,8137,8130,8146,8145,8174,8155,8107,8123,8144,8121,8115,8224,2.8654940128326416,False
2,8120,8120,8148,8126,8142,8145,8181,8156,8104,8127,8152,8116,8110,8211,2.8672032356262207,False
3,8113,8118,8145,8125,8128,8158,8144,8137,8103,8128,8168,8127,8119,8213,2.874293804168701,False
4,8156,8133,8172,8131,8168,8167,8190,8158,8109,8138,8171,8144,8134,8237,2.882373332977295,False
5,8188,8152,8181,8154,8155,8162,8165,8165,8133,8159,8179,8165,8171,8275,2.8933279514312744,False
6,8194,8164,8191,8179,8165,8175,8171,8175,8154,8181,8195,8184,8195,8293,2.9004390239715576,False
7,8191,8167,8205,8189,8179,8195,8187,8187,8159,8201,8196,8181,8206,8296,2.9084455966949463,False
8,8180,8171,8177,8195,8171,8192,8156,8181,8172,8215,8190,8178,8225,8313,2.9144480228424072,False
9,8206,8174,8185,8192,8190,8175,8188,8183,8172,8218,8193,8200,8231,8330,2.9224178791046143,False
10,8211,8168,8178,8175,8149,8154,8155,8169,8156,8214,8188,8201,8229,8325,2.9294300079345703,False
11,8189,8163,8163,8161,8154,8160,8157,8176,8151,8192,8176,8174,8225,8302,2.937384605407715,False
12,8179,8143,8176,8159,8172,8166,8180,8192,8160,8175,8170,8169,8210,8289,2.9564671516418457,False
13,8158,8131,8150,8160,8137,8154,8148,8177,8163,8178,8162,8166,8198,8286,2.961437463760376,False
14,8161,8138,8151,8150,8155,8162,8189,8176,8150,8167,8161,8145,8177,8263,2.975473642349243,False
15,8163,8133,8158,8148,8150,8167,8164,8165,8144,8147,8162,8141,8154,8248,2.9783694744110107,False
16,8155,8137,8154,8142,8158,8155,8150,8157,8135,8142,8157,8141,8140,8253,2.9854304790496826,False
17,8160,8142,8162,8128,8163,8153,8179,8158,8118,8144,8157,8128,8135,8249,2.9994218349456787,False
18,8153,8134,8148,8141,8134,8165,8146,8151,8116,8136,8161,8125,8142,8244,3.000115394592285,False
27,8160,8133,8166,8130,8157,8180,8189,8171,8120,8165,8156,8142,8160,8250,3.024401426315308,False
28,8152,8130,8143,8146,8120,8171,8121,8155,8132,8175,8167,8148,8171,8267,3.0263710021972656,False
29,8156,8125,8139,8139,8156,8181,8153,8161,8133,8164,8160,8144,8167,8256,3.0324296951293945,False
30,8162,8119,8169,8121,8175,8178,8211,8171,8126,8143,8144,8134,8144,8233,3.040462017059326,False
31,8129,8117,8142,8126,8111,8165,8131,8154,8139,8145,8158,8137,8146,8247,3.0614013671875,False
32,8128,8125,8131,8137,8130,8188,8118,8164,8161,8175,8185,8154,8175,8273,3.069167137145996,False
33,8164,8139,8165,8141,8183,8204,8168,8183,8167,8201,8194,8173,8199,8281,3.0784716606140137,False
34,8179,8149,8186,8164,8174,8189,8170,8174,8166,8199,8196,8190,8213,8285,3.080305337905884,False
35,8160,8135,8160,8174,8142,8179,8128,8147,8164,8192,8193,8189,8217,8280,3.0875120162963867,False
36,8155,8133,8156,8143,8187,8185,8177,8156,8157,8185,8180,8172,8203,8261,3.095279693603516,False
37,8185,8150,8195,8138,8205,8193,8217,8177,8167,8199,8185,8178,8207,8277,3.103432893753052,False
38,8160,8138,8147,8155,8113,8197,8104,8172,8198,8229,8194,8186,8234,8301,3.127499580383301,False
39,8136,8129,8137,8140,8156,8217,8183,8212,8198,8219,8173,8162,8219,8276,3.128099203109741,False
40,8169,8142,8198,8133,8185,8224,8259,8232,8187,8211,8163,8157,8198,8271,3.134431838989258,False
41,8155,8135,8162,8147,8098,8199,8124,8185,8191,8220,8174,8168,8210,8291,3.142491340637207,False
42,8131,8119,8147,8128,8142,8199,8172,8190,8172,8196,8169,8154,8196,8259,3.154217004776001,False
43,8129,8107,8162,8097,8153,8210,8210,8201,8164,8180,8157,8140,8178,8235,3.158378839492798,False
44,8122,8111,8128,8105,8094,8197,8124,8190,8191,8201,8154,8138,8182,8259,3.169394493103028,False
45,8135,8126,8137,8122,8127,8197,8153,8201,8211,8209,8163,8143,8175,8259,3.1915175914764404,False
46,8151,8133,8169,8131,8160,8210,8198,8187,8211,8201,8174,8152,8172,8240,3.192270278930664,False
47,8158,8132,8168,8133,8126,8197,8154,8146,8188,8183,8174,8150,8171,8246,3.19743275642395,False
48,8153,8133,8137,8128,8093,8174,8096,8117,8164,8169,8162,8131,8158,8259,3.225510835647583,False
49,8161,8141,8156,8128,8152,8182,8175,8127,8146,8159,8155,8129,8147,8256,3.23050856590271,False
50,8160,8141,8177,8132,8145,8185,8178,8116,8137,8145,8163,8151,8158,8253,3.2374229431152344,False
51,8141,8140,8143,8137,8095,8174,8096,8099,8141,8155,8167,8157,8173,8263,3.2484264373779297,False
52,8170,8143,8183,8126,8176,8184,8216,8139,8135,8167,8159,8144,8155,8261,3.2554376125335693,False
53,8171,8132,8200,8120,8165,8178,8213,8153,8134,8167,8163,8139,8152,8256,3.27042555809021,False
54,8135,8142,8146,8141,8101,8170,8102,8159,8172,8185,8175,8144,8180,8263,3.276510000228882,False
55,8159,8162,8158,8154,8141,8193,8158,8204,8204,8215,8178,8153,8197,8266,3.284385919570923,False
56,8166,8140,8154,8137,8129,8198,8153,8194,8200,8221,8171,8150,8196,8266,3.292433977127075,False
57,8155,8124,8140,8128,8122,8190,8146,8183,8196,8194,8167,8144,8181,8265,3.306185007095337,False
58,8180,8149,8175,8149,8146,8197,8191,8214,8222,8193,8177,8151,8180,8271,3.3211829662323,False
59,8191,8164,8190,8154,8161,8197,8202,8223,8228,8210,8180,8154,8193,8283,3.3262388706207275,False
60,8171,8149,8170,8133,8151,8186,8169,8190,8198,8198,8167,8148,8181,8286,3.3342504501342773,False
61,8144,8126,8134,8124,8130,8192,8129,8158,8179,8175,8154,8145,8157,8270,3.339139938354492,False
62,8155,8131,8161,8126,8165,8206,8207,8180,8169,8167,8156,8148,8151,8254,3.347231388092041,False
63,8157,8151,8172,8136,8125,8192,8169,8173,8160,8172,8169,8148,8163,8267,3.361189126968384,False
64,8146,8165,8141,8155,8126,8174,8126,8150,8146,8166,8170,8142,8165,8276,3.366384267807007,False
65,8188,8169,8202,8163,8222,8182,8258,8171,8120,8139,8167,8154,8153,8256,3.371164560317993,False
66,8181,8154,8202,8155,8153,8187,8184,8158,8126,8133,8176,8167,8170,8255,3.388251781463623,False
67,8138,8153,8140,8154,8108,8183,8091,8147,8148,8145,8182,8159,8187,8267,3.3890559673309326,False
68,8162,8163,8156,8164,8161,8184,8157,8170,8149,8157,8174,8158,8182,8273,3.3952460289001465,False
69,8170,8160,8162,8167,8149,8189,8165,8186,8159,8167,8174,8163,8189,8278,3.402207374572754,False
78,8185,8160,8178,8172,8158,8173,8175,8167,8136,8132,8168,8176,8189,8289,3.421240329742432,False
79,8179,8162,8161,8177,8141,8179,8145,8143,8115,8125,8170,8170,8186,8290,3.4260916709899902,False
80,8204,8178,8180,8183,8170,8188,8185,8156,8117,8140,8186,8184,8213,8308,3.434220314025879,False
81,8212,8181,8194,8196,8150,8172,8158,8173,8147,8153,8196,8199,8238,8316,3.4423210620880127,False
82,8188,8174,8175,8189,8138,8163,8136,8172,8153,8147,8184,8192,8226,8309,3.463378667831421,False
83,8181,8160,8175,8164,8155,8174,8179,8173,8126,8140,8168,8170,8192,8299,3.465235948562622,False
84,8168,8142,8151,8154,8126,8178,8149,8186,8128,8138,8161,8162,8189,8296,3.4962971210479736,False
85,8159,8131,8152,8134,8149,8189,8187,8232,8149,8124,8154,8165,8180,8284,3.4970881938934326,False
86,8146,8111,8150,8100,8139,8198,8188,8233,8159,8115,8148,8152,8158,8271,3.5062673091888428,False
87,8142,8106,8143,8103,8130,8187,8164,8201,8145,8116,8154,8142,8150,8272,3.514122009277344,False
88,8172,8123,8173,8135,8144,8179,8188,8188,8131,8104,8164,8157,8149,8281,3.5223445892333984,False
89,8160,8121,8154,8132,8109,8182,8141,8167,8142,8095,8161,8157,8152,8280,3.528328657150269,False
90,8138,8118,8148,8116,8140,8189,8166,8172,8141,8088,8155,8139,8146,8260,3.543329954147339,False
91,8139,8120,8161,8120,8150,8190,8171,8166,8126,8090,8160,8134,8140,8245,3.544154405593872,False
92,8142,8124,8153,8131,8132,8187,8143,8148,8128,8091,8167,8138,8144,8252,3.552187442779541,False
93,8158,8138,8169,8142,8149,8187,8181,8153,8123,8080,8167,8137,8143,8252,3.5662808418273926,False
94,8146,8148,8156,8152,8120,8179,8146,8133,8112,8085,8169,8135,8144,8238,3.56825590133667,False
95,8162,8161,8170,8155,8136,8181,8164,8130,8121,8100,8184,8156,8162,8257,3.5762996673583984,False
96,8211,8175,8207,8168,8146,8194,8170,8144,8138,8131,8201,8194,8206,8310,3.5842978954315186,False
97,8225,8184,8188,8190,8132,8194,8135,8147,8141,8148,8193,8209,8233,8336,3.5912606716156006,False
98,8228,8182,8190,8182,8157,8186,8182,8171,8137,8137,8176,8206,8229,8329,3.5991909503936768,False
99,8210,8163,8184,8149,8133,8181,8160,8187,8154,8149,8182,8209,8233,8340,3.607233047485352,False
100,8198,8155,8176,8136,8139,8184,8170,8192,8155,8158,8178,8213,8222,8348,3.615055322647095,False
101,8193,8147,8177,8137,8137,8179,8181,8184,8132,8139,8163,8201,8198,8322,3.623241662979126,False
102,8167,8135,8157,8132,8118,8180,8146,8177,8137,8135,8169,8178,8195,8289,3.634305715560913,False
103,8167,8141,8179,8131,8161,8186,8185,8191,8154,8142,8177,8175,8191,8278,3.641296863555908,False
104,8151,8139,8170,8123,8137,8174,8151,8174,8152,8129,8167,8177,8176,8273,3.6471526622772217,False
105,8128,8129,8148,8104,8126,8168,8151,8171,8131,8108,8155,8157,8160,8246,3.655293703079224,False
106,8145,8131,8169,8113,8137,8166,8181,8186,8134,8124,8167,8153,8164,8243,3.6834099292755127,False
107,8152,8141,8162,8146,8121,8168,8149,8186,8167,8153,8181,8173,8188,8276,3.6913464069366455,False
108,8159,8161,8180,8163,8162,8192,8188,8197,8178,8142,8179,8179,8192,8280,3.694392919540405,False
109,8164,8183,8187,8178,8156,8199,8164,8183,8173,8143,8186,8175,8203,8271,3.712356567382813,False
110,8179,8201,8184,8207,8153,8189,8153,8172,8172,8170,8196,8195,8230,8297,3.726158857345581,False
111,8216,8204,8213,8221,8172,8193,8180,8179,8176,8181,8202,8231,8253,8343,3.72805428504944,False
112,8229,8202,8209,8229,8161,8190,8136,8177,8196,8189,8202,8243,8279,8366,3.7472140789031982,False
113,8241,8212,8217,8245,8179,8189,8167,8191,8198,8198,8196,8237,8280,8364,3.7531638145446777,False
114,8236,8201,8202,8244,8150,8186,8153,8186,8182,8185,8188,8229,8267,8369,3.7580511569976807,False
115,8224,8177,8174,8218,8155,8178,8146,8191,8179,8162,8180,8218,8260,8366,3.766083717346192,False
116,8236,8165,8191,8200,8180,8185,8184,8209,8182,8161,8170,8207,8246,8341,3.7731873989105225,False
117,8211,8147,8171,8193,8132,8186,8137,8184,8172,8162,8156,8192,8224,8319,3.7821223735809326,False
125,8162,8109,8159,8191,8136,8193,8131,8125,8141,8145,8183,8183,8194,8267,3.793168544769287,False
126,8183,8125,8186,8187,8166,8176,8172,8133,8135,8124,8175,8182,8186,8264,3.7982449531555176,False
127,8188,8134,8176,8195,8133,8163,8136,8143,8162,8148,8176,8187,8201,8279,3.8040826320648193,False
238,8193,8133,8171,8196,8143,8158,8147,8151,8165,8153,8179,8193,8213,8283,3.812148094177246,False
0,8190,8118,8178,8172,8143,8155,8160,8142,8139,8118,8169,8179,8192,8261,3.821284532546997,False
1,8158,8106,8150,8155,8122,8153,8135,8138,8137,8120,8159,8165,8177,8248,3.828346490859986,False
2,8162,8107,8162,8152,8156,8155,8178,8149,8126,8123,8156,8167,8176,8249,3.836120843887329,False
3,8158,8093,8149,8139,8115,8150,8145,8126,8103,8092,8147,8159,8157,8245,3.8472959995269775,False
4,8135,8070,8128,8121,8105,8156,8156,8132,8101,8060,8135,8137,8117,8228,3.851331233978272,False
5,8138,8072,8150,8123,8194,8173,8183,8161,8125,8076,8151,8148,8124,8223,3.860265254974365,False
6,8154,8099,8161,8149,8305,8192,8155,8178,8162,8135,8184,8184,8183,8246,3.867353439331055,False
7,8186,8115,8186,8172,8346,8219,8197,8206,8185,8161,8196,8206,8205,8275,3.875095844268799,False
8,8191,8102,8183,8179,8214,8223,8169,8201,8196,8149,8188,8207,8200,8295,3.883418321609497,False
9,8183,8100,8174,8167,8141,8206,8163,8195,8188,8134,8178,8208,8196,8303,3.892117500305176,False
10,8179,8097,8176,8147,8145,8190,8179,8194,8172,8131,8172,8206,8187,8303,3.89941143989563,False
11,8158,8084,8146,8140,8118,8177,8136,8172,8174,8137,8177,8194,8186,8301,3.9084012508392334,False
12,8177,8098,8164,8152,8140,8172,8175,8172,8168,8136,8186,8195,8193,8292,3.9151065349578857,False
13,8192,8113,8178,8162,8126,8171,8161,8168,8167,8141,8174,8200,8200,8296,3.929337501525879,False
14,8182,8119,8164,8162,8138,8181,8155,8164,8168,8142,8158,8188,8193,8298,3.9372406005859375,False
15,8180,8120,8169,8157,8155,8186,8183,8164,8149,8137,8159,8176,8177,8279,3.949190855026245,False
16,8165,8107,8154,8156,8114,8169,8140,8151,8132,8124,8158,8165,8177,8266,3.954272985458374,False
17,8176,8108,8171,8159,8132,8157,8175,8176,8137,8117,8156,8162,8180,8265,3.9622995853424072,False
18,8188,8116,8176,8164,8131,8162,8166,8190,8158,8141,8163,8173,8180,8270,3.970252513885498,False
19,8178,8118,8162,8160,8131,8172,8151,8187,8173,8155,8164,8180,8183,8282,3.9913034439086914,False
20,8186,8122,8184,8157,8147,8173,8188,8192,8172,8154,8169,8183,8193,8294,3.993048667907715,False
21,8183,8120,8170,8161,8119,8161,8144,8167,8169,8163,8179,8191,8206,8301,4.002288103103638,False
22,8193,8127,8178,8169,8150,8162,8166,8160,8159,8166,8179,8199,8208,8300,4.009277582168579,False
23,8210,8139,8197,8185,8148,8163,8159,8150,8146,8161,8181,8204,8209,8304,4.023319721221924,False
24,8201,8141,8179,8196,8131,8149,8131,8132,8131,8142,8178,8202,8205,8308,4.025179862976074,False
25,8197,8133,8184,8183,8156,8146,8176,8137,8122,8120,8168,8205,8192,8306,4.051197052001953,False
26,8188,8135,8178,8171,8129,8161,8147,8139,8138,8136,8172,8211,8203,8311,4.0533435344696045,False
27,8203,8164,8191,8187,8143,8182,8170,8155,8146,8152,8180,8209,8217,8313,4.05623722076416,False
28,8226,8174,8202,8203,8153,8184,8176,8161,8145,8150,8185,8211,8219,8314,4.075299739837647,False
29,8212,8163,8175,8194,8147,8180,8145,8162,8158,8165,8181,8210,8214,8312,4.082189798355103,False
30,8203,8167,8181,8186,8168,8181,8183,8178,8157,8156,8168,8193,8195,8296,4.090227127075195,False
31,8194,8163,8170,8196,8134,8164,8150,8164,8148,8134,8165,8177,8198,8295,4.098227024078369,False
32,8210,8157,8176,8199,8145,8156,8166,8170,8144,8147,8177,8187,8212,8310,4.104337692260742,False
33,8216,8158,8188,8183,8147,8167,8179,8189,8155,8171,8176,8199,8217,8311,4.111206293106079,False
34,8171,8147,8144,8163,8120,8169,8145,8182,8171,8163,8155,8181,8212,8298,4.123281240463257,False
35,8167,8139,8152,8160,8146,8167,8188,8190,8175,8149,8156,8168,8196,8290,4.127183198928833,False
36,8176,8133,8165,8164,8131,8158,8156,8184,8175,8168,8167,8169,8189,8286,4.144254684448242,False
36,8176,8133,8165,8164,8131,8158,8156,8184,8175,8168,8167,8169,8189,8286,4.154229402542114,False
37,8174,8130,8163,8158,8146,8157,8157,8179,8169,8164,8162,8171,8181,8273,4.155172109603882,False
38,8190,8143,8181,8165,8153,8176,8180,8186,8164,8136,8162,8182,8181,8281,4.164323329925537,False
39,8196,8162,8178,8189,8128,8183,8141,8184,8171,8147,8178,8196,8204,8307,4.166229486465454,False
40,8195,8168,8190,8191,8166,8173,8177,8183,8167,8169,8187,8207,8210,8310,4.1771650314331055,False
41,8182,8163,8178,8190,8147,8164,8157,8156,8146,8162,8185,8209,8203,8299,4.196311712265015,True
42,8193,8172,8172,8202,8137,8162,8150,8154,8132,8151,8180,8201,8202,8287,4.198216676712036,True
43,8214,8180,8190,8201,8149,8157,8167,8160,8131,8156,8177,8198,8205,8286,4.2062718868255615,True
44,8193,8186,8169,8209,8135,8163,8136,8145,8147,8173,8186,8204,8220,8302,4.217342138290405,True
45,8198,8191,8181,8221,8164,8181,8190,8174,8173,8192,8188,8208,8226,8312,4.223076581954956,True
46,8197,8164,8172,8195,8134,8171,8167,8186,8187,8189,8176,8196,8217,8302,4.231307029724121,True
47,8161,8150,8140,8169,8127,8164,8146,8184,8177,8158,8170,8180,8205,8291,4.237215995788574,True
48,8157,8159,8161,8175,8161,8178,8195,8201,8180,8157,8175,8178,8192,8287,4.245204925537109,True
49,8152,8145,8149,8171,8131,8188,8159,8195,8193,8175,8163,8168,8178,8272,4.262324094772339,True
50,8144,8128,8142,8153,8138,8182,8167,8195,8171,8163,8153,8158,8168,8253,4.266391277313232,True
51,8146,8144,8158,8162,8136,8165,8151,8185,8158,8168,8177,8171,8188,8273,4.274150371551514,True
52,8163,8176,8173,8184,8147,8172,8148,8167,8171,8178,8187,8187,8205,8296,4.2894158363342285,True
61,8212,8187,8181,8185,8158,8151,8165,8154,8145,8139,8162,8183,8174,8301,4.310404777526856,True
62,8179,8182,8148,8183,8135,8152,8133,8157,8144,8133,8163,8178,8176,8282,4.31110692024231,True
63,8167,8174,8154,8171,8154,8161,8181,8176,8141,8145,8159,8172,8161,8257,4.317433834075928,True
64,8150,8164,8155,8152,8125,8152,8153,8166,8139,8157,8171,8175,8165,8265,4.3292763233184814,True
65,8158,8184,8164,8170,8142,8157,8168,8175,8148,8161,8183,8195,8191,8292,4.334332466125488,True
66,8191,8199,8186,8194,8153,8170,8185,8191,8165,8162,8187,8221,8209,8317,4.341371059417725,True
67,8182,8200,8167,8193,8139,8170,8150,8183,8174,8183,8186,8220,8215,8315,4.349170684814453,True
67,8182,8200,8167,8193,8139,8170,8150,8183,8174,8183,8186,8220,8215,8315,4.361173629760742,True
68,8177,8215,8170,8199,8171,8177,8183,8193,8175,8195,8184,8204,8208,8289,4.364115238189697,True
69,8178,8212,8163,8199,8145,8180,8158,8185,8183,8185,8184,8199,8210,8293,4.385394334793091,True
70,8182,8201,8170,8186,8149,8183,8169,8177,8182,8178,8182,8211,8218,8317,4.391181468963623,True
71,8187,8200,8185,8189,8162,8180,8176,8170,8175,8193,8184,8223,8214,8319,4.397172451019287,True
72,8191,8209,8167,8197,8143,8160,8131,8156,8177,8192,8187,8217,8212,8322,4.404194355010986,True
73,8214,8220,8183,8193,8161,8155,8179,8168,8165,8175,8176,8206,8211,8327,4.411141872406006,True
74,8194,8215,8164,8189,8125,8149,8155,8166,8165,8188,8169,8202,8209,8315,4.435481786727905,True
75,8181,8215,8157,8186,8135,8140,8150,8170,8177,8201,8179,8205,8210,8308,4.436171054840088,True
76,8205,8225,8192,8188,8165,8148,8176,8174,8170,8186,8184,8213,8216,8313,4.454167604446411,True
77,8198,8226,8173,8200,8141,8156,8138,8152,8148,8163,8171,8212,8213,8313,4.458236932754517,False
78,8203,8224,8176,8203,8164,8155,8176,8158,8132,8153,8162,8212,8195,8312,4.467385292053223,False
79,8201,8218,8179,8195,8152,8153,8156,8152,8132,8161,8169,8212,8192,8313,4.475317478179932,False
80,8186,8223,8169,8206,8158,8163,8146,8151,8134,8162,8174,8203,8189,8297,4.4963698387146,False
81,8198,8231,8187,8223,8181,8177,8186,8167,8145,8161,8174,8204,8183,8282,4.498324632644653,False
82,8189,8217,8173,8223,8147,8178,8146,8156,8164,8179,8170,8207,8196,8289,4.506368637084961,False
83,8180,8208,8164,8208,8164,8168,8168,8165,8159,8183,8165,8197,8195,8290,4.513441562652588,False
84,8173,8207,8153,8194,8147,8155,8155,8162,8147,8166,8162,8188,8183,8277,4.525394439697266,False
85,8164,8202,8147,8189,8129,8163,8138,8160,8155,8157,8162,8181,8181,8265,4.536418437957764,False
86,8175,8206,8178,8191,8161,8175,8184,8191,8169,8164,8171,8185,8189,8267,4.5392351150512695,False
87,8157,8205,8161,8197,8148,8168,8153,8195,8173,8177,8177,8194,8194,8276,4.546345472335815,False
88,8151,8203,8159,8198,8165,8178,8183,8194,8162,8175,8170,8199,8185,8278,4.55413818359375,False
89,8171,8196,8181,8196,8159,8194,8187,8195,8176,8186,8176,8209,8195,8298,4.565275192260742,False
90,8167,8193,8169,8191,8146,8190,8146,8189,8189,8196,8180,8215,8206,8306,4.569103002548218,False
91,8165,8199,8174,8188,8160,8192,8176,8185,8166,8179,8167,8208,8178,8281,4.583322048187256,False
92,8155,8193,8164,8189,8132,8193,8148,8163,8152,8161,8162,8201,8161,8275,4.5851216316223145,False
93,8152,8197,8169,8190,8162,8184,8163,8165,8155,8143,8181,8209,8173,8294,4.5924391746521,False
94,8169,8213,8191,8206,8174,8175,8165,8158,8152,8145,8196,8227,8193,8310,4.6093714237213135,False
95,8190,8220,8194,8221,8152,8184,8143,8148,8162,8171,8191,8238,8212,8319,4.613401651382446,False
96,8217,8228,8213,8214,8179,8194,8199,8174,8176,8184,8189,8240,8213,8320,4.616344928741455,False
97,8210,8230,8190,8206,8150,8179,8154,8171,8179,8191,8189,8236,8217,8325,4.624377250671387,False
98,8210,8233,8178,8220,8147,8169,8139,8171,8184,8200,8189,8233,8226,8334,4.6353600025177,False
99,8230,8233,8209,8227,8177,8174,8195,8194,8201,8214,8193,8233,8229,8332,4.640408277511597,False
100,8181,8215,8170,8205,8141,8176,8147,8185,8208,8219,8189,8219,8232,8315,4.662426948547363,False
100,8181,8215,8170,8205,8141,8176,8147,8185,8208,8219,8189,8219,8232,8315,4.671231508255005,False
101,8119,8190,8118,8181,8122,8181,8113,8170,8199,8199,8174,8197,8221,8289,4.672195196151733,False
110,8161,8205,8175,8196,8126,8162,8121,8122,8138,8160,8177,8201,8201,8291,4.690503358840942,False
111,8206,8216,8206,8201,8172,8165,8178,8156,8153,8191,8183,8227,8224,8319,4.697329998016357,False
112,8225,8236,8233,8224,8173,8171,8203,8174,8174,8198,8189,8233,8235,8333,4.702382802963257,False
113,8185,8236,8170,8233,8113,8169,8121,8168,8191,8210,8181,8213,8246,8332,4.717393636703491,False
114,8168,8223,8136,8208,8127,8166,8129,8185,8197,8227,8170,8202,8243,8322,4.718059301376343,False
115,8171,8207,8151,8175,8158,8163,8173,8194,8198,8220,8163,8193,8224,8311,4.726431369781494,False
116,8174,8198,8188,8161,8190,8161,8229,8197,8183,8189,8151,8173,8192,8284,4.738344192504883,False
117,8149,8183,8169,8166,8142,8159,8159,8173,8176,8178,8151,8162,8184,8267,4.74221134185791,False
118,8132,8182,8139,8167,8122,8160,8116,8158,8176,8187,8163,8173,8193,8277,4.750429391860962,False
119,8169,8199,8187,8163,8159,8163,8180,8168,8161,8183,8173,8194,8193,8291,4.758205413818359,False
120,8177,8207,8187,8177,8134,8164,8136,8151,8166,8183,8179,8205,8208,8304,4.766418933868408,False
121,8163,8206,8164,8195,8151,8178,8144,8158,8185,8191,8179,8202,8219,8307,4.773392200469971,False
122,8150,8198,8158,8193,8153,8178,8153,8158,8179,8182,8174,8200,8214,8300,4.78136944770813,False
123,8141,8202,8159,8187,8154,8160,8150,8144,8159,8173,8174,8194,8205,8291,4.789451837539673,False
124,8175,8227,8207,8201,8208,8182,8232,8168,8165,8192,8185,8199,8212,8294,4.7972705364227295,False
125,8181,8229,8200,8220,8173,8198,8180,8168,8185,8218,8186,8208,8227,8301,4.8093767166137695,False
126,8171,8221,8167,8221,8152,8166,8136,8158,8178,8201,8182,8204,8222,8291,4.8164145946502686,False
127,8189,8226,8181,8212,8164,8147,8167,8170,8179,8200,8183,8204,8222,8289,4.821228265762329,False
238,8194,8229,8183,8213,8150,8162,8158,8185,8208,8234,8182,8212,8238,8317,4.829268217086792,False
0,8199,8235,8189,8215,8154,8169,8163,8198,8215,8224,8188,8225,8249,8340,4.843408584594727,False
1,8204,8236,8184,8207,8149,8161,8153,8186,8203,8211,8196,8229,8258,8338,4.845353126525879,False
2,8203,8234,8179,8207,8161,8154,8163,8174,8190,8218,8185,8219,8254,8331,4.857280969619751,False
3,8197,8239,8160,8215,8129,8148,8111,8155,8177,8212,8173,8216,8245,8337,4.866386413574219,False
4,8194,8255,8156,8223,8131,8170,8105,8149,8176,8206,8184,8230,8252,8346,4.86807656288147,False
5,8225,8263,8226,8213,8216,8192,8241,8178,8171,8198,8189,8241,8242,8338,4.876359701156616,False
6,8226,8242,8218,8196,8170,8161,8178,8152,8161,8181,8170,8224,8220,8330,4.88416314125061,False
7,8213,8244,8174,8206,8146,8153,8121,8138,8166,8180,8166,8202,8212,8330,4.892257928848267,False
8,8215,8273,8201,8233,8198,8181,8205,8161,8175,8187,8179,8209,8211,8316,4.929383039474487,False
9,8176,8261,8170,8238,8154,8177,8149,8138,8175,8187,8175,8210,8213,8285,4.931145191192627,False
10,8155,8236,8127,8219,8133,8156,8107,8124,8158,8194,8160,8186,8202,8264,4.943402051925659,False
11,8171,8233,8139,8200,8153,8151,8146,8142,8156,8203,8158,8172,8191,8265,4.990337610244751,False
12,8176,8232,8162,8188,8173,8159,8184,8164,8177,8202,8169,8175,8200,8267,4.993376970291138,False
13,8170,8224,8162,8188,8156,8161,8158,8166,8195,8217,8177,8181,8216,8273,4.99836540222168,False
22,8161,8217,8151,8167,8123,8165,8116,8160,8186,8147,8163,8176,8165,8289,5.016336917877197,False
23,8144,8224,8125,8171,8120,8157,8119,8152,8186,8152,8158,8168,8159,8290,5.020336627960205,False
24,8142,8225,8136,8151,8153,8170,8176,8156,8165,8141,8142,8153,8135,8257,5.026230096817017,False
25,8151,8247,8146,8159,8144,8163,8152,8153,8168,8148,8152,8161,8147,8261,5.042490720748901,False
26,8176,8277,8158,8194,8130,8148,8115,8163,8198,8197,8183,8180,8191,8291,5.055544376373291,False
27,8189,8291,8173,8207,8166,8167,8165,8185,8213,8220,8188,8175,8201,8279,5.057297229766846,False
28,8196,8301,8195,8202,8189,8180,8204,8190,8204,8192,8175,8171,8184,8260,5.065264463424683,False
29,8179,8297,8170,8200,8147,8163,8140,8164,8196,8188,8166,8177,8185,8271,5.076278924942017,False
30,8171,8292,8170,8186,8181,8176,8202,8178,8197,8195,8164,8171,8177,8259,5.081197500228882,False
31,8171,8288,8188,8166,8187,8201,8222,8191,8205,8179,8165,8160,8158,8238,5.092397212982178,False
32,8144,8271,8144,8157,8136,8196,8117,8169,8209,8168,8153,8148,8144,8244,5.097155332565308,False
33,8141,8269,8155,8152,8179,8198,8182,8182,8195,8163,8147,8144,8134,8251,5.130098819732666,False
33,8141,8269,8155,8152,8179,8198,8182,8182,8195,8163,8147,8144,8134,8251,5.144321203231812,False
34,8140,8290,8181,8165,8169,8202,8190,8182,8200,8169,8172,8154,8152,8241,5.149348258972168,False
35,8124,8294,8141,8180,8128,8197,8113,8165,8211,8184,8182,8155,8168,8231,5.172338247299194,False
36,8124,8260,8118,8153,8146,8202,8135,8166,8200,8166,8148,8139,8143,8228,5.175206422805786,False
37,8136,8238,8145,8136,8166,8207,8178,8176,8192,8136,8138,8136,8133,8241,5.183105230331421,False
38,8159,8255,8177,8156,8171,8206,8180,8189,8203,8148,8166,8154,8157,8263,5.198348045349121,False
39,8147,8255,8137,8155,8138,8206,8119,8181,8224,8183,8167,8150,8164,8267,5.2032551765441895,False
40,8142,8236,8154,8127,8201,8216,8216,8201,8226,8184,8150,8137,8137,8243,5.207204341888428,False
49,8137,8219,8160,8130,8160,8200,8168,8154,8166,8132,8147,8113,8091,8220,5.235152006149292,False
50,8134,8216,8157,8150,8157,8193,8147,8147,8178,8153,8157,8125,8115,8240,5.24022388458252,False
51,8153,8229,8177,8162,8178,8185,8173,8157,8161,8132,8163,8131,8116,8246,5.252243757247925,False
52,8155,8230,8155,8160,8154,8169,8130,8142,8140,8125,8157,8120,8100,8248,5.2591986656188965,False
53,8158,8235,8161,8162,8186,8163,8162,8153,8156,8148,8157,8122,8103,8251,5.262231111526489,False
54,8153,8230,8176,8156,8191,8176,8171,8164,8178,8168,8165,8132,8120,8248,5.270274877548218,False
55,8124,8218,8147,8135,8171,8185,8143,8160,8172,8165,8157,8119,8114,8238,5.281516313552856,False
56,8110,8212,8147,8127,8193,8187,8184,8172,8169,8152,8146,8097,8092,8222,5.286267995834351,False
57,8102,8200,8141,8130,8175,8186,8157,8169,8196,8160,8150,8095,8098,8216,5.294069051742554,False
58,8121,8213,8148,8125,8191,8191,8173,8179,8206,8172,8164,8111,8114,8228,5.3010969161987305,False
59,8135,8234,8160,8127,8190,8191,8179,8181,8188,8150,8166,8117,8111,8242,5.323281288146973,False
60,8110,8228,8138,8140,8180,8191,8151,8173,8192,8136,8156,8105,8102,8233,5.3252129554748535,False
61,8113,8222,8152,8137,8212,8204,8190,8181,8203,8148,8158,8103,8090,8220,5.33428692817688,False
62,8120,8222,8149,8127,8183,8202,8151,8161,8198,8147,8164,8117,8092,8237,5.342371463775635,False
63,8125,8232,8152,8142,8190,8197,8160,8154,8183,8128,8162,8130,8098,8251,5.350227355957031,False
64,8137,8247,8169,8167,8199,8200,8173,8155,8187,8140,8167,8137,8112,8247,5.357268571853638,False
65,8136,8250,8151,8171,8182,8203,8138,8148,8208,8168,8173,8135,8129,8250,5.3653082847595215,False
66,8161,8254,8168,8166,8214,8203,8192,8178,8208,8165,8164,8136,8129,8256,5.373382806777954,False
67,8161,8258,8171,8171,8194,8194,8167,8182,8213,8175,8164,8137,8138,8252,5.3803911209106445,False
68,8132,8249,8158,8168,8193,8192,8157,8176,8227,8192,8164,8124,8138,8238,5.388322830200195,False
69,8132,8234,8165,8150,8195,8190,8184,8180,8205,8179,8145,8115,8117,8235,5.39622163772583,False
70,8126,8228,8146,8128,8160,8171,8145,8171,8180,8152,8136,8109,8101,8238,5.417184829711914,False
71,8124,8228,8159,8123,8187,8169,8175,8174,8180,8141,8156,8110,8105,8234,5.420074462890625,False
72,8121,8224,8160,8131,8183,8194,8167,8169,8198,8176,8173,8117,8135,8245,5.428194999694824,False
73,8125,8238,8143,8121,8176,8203,8167,8173,8208,8189,8157,8114,8134,8254,5.444161176681519,False
74,8151,8258,8170,8127,8181,8179,8178,8170,8192,8155,8153,8122,8109,8253,5.444932699203491,False
75,8166,8260,8181,8173,8166,8172,8132,8142,8179,8151,8179,8154,8130,8271,5.452247381210327,False
76,8183,8271,8196,8193,8196,8195,8174,8144,8180,8171,8187,8180,8164,8289,5.464149236679077,False
77,8180,8278,8192,8186,8177,8192,8170,8150,8182,8174,8180,8178,8167,8285,5.467138767242432,False
78,8160,8266,8173,8194,8174,8187,8154,8158,8168,8159,8174,8164,8153,8269,5.476236581802368,False
79,8161,8249,8182,8181,8201,8193,8184,8164,8156,8156,8168,8163,8145,8262,5.484110355377197,False
80,8152,8244,8162,8159,8173,8183,8152,8157,8181,8179,8169,8160,8158,8274,5.491315603256226,False
81,8164,8263,8169,8182,8191,8190,8191,8186,8203,8191,8175,8152,8169,8285,5.503249883651733,False
82,8174,8264,8175,8191,8170,8196,8177,8191,8204,8183,8168,8147,8166,8282,5.511250257492065,False
83,8160,8240,8152,8165,8154,8181,8139,8178,8199,8178,8159,8146,8157,8270,5.518065929412842,False
84,8168,8236,8172,8168,8202,8181,8183,8194,8198,8190,8169,8156,8151,8273,5.539461374282837,False
85,8153,8238,8161,8177,8178,8190,8155,8188,8205,8190,8166,8153,8156,8277,5.541352987289429,False
86,8137,8228,8153,8157,8179,8193,8179,8188,8198,8169,8157,8138,8153,8261,5.546485900878906,False
87,8145,8221,8162,8152,8210,8197,8189,8188,8196,8173,8162,8144,8150,8257,5.554411172866821,False
88,8143,8228,8152,8164,8236,8213,8168,8179,8200,8176,8163,8153,8152,8264,5.561186790466309,False
89,8152,8245,8169,8165,8254,8233,8208,8181,8194,8154,8161,8146,8147,8256,5.57037878036499,False
90,8142,8246,8156,8171,8213,8224,8161,8161,8192,8157,8161,8141,8150,8246,5.579407691955566,False
91,8131,8242,8147,8172,8212,8206,8158,8153,8180,8160,8157,8133,8140,8237,5.588337659835815,False
92,8129,8228,8154,8151,8177,8204,8168,8150,8162,8140,8154,8123,8124,8228,5.59347939491272,False
93,8118,8216,8136,8135,8126,8202,8143,8139,8155,8133,8155,8130,8126,8226,5.611180543899536,False
94,8136,8221,8156,8136,8165,8196,8185,8155,8157,8139,8152,8138,8134,8222,5.618308067321777,False
95,8131,8225,8153,8142,8157,8195,8157,8159,8170,8153,8155,8122,8136,8224,5.6254870891571045,False
96,8110,8225,8142,8143,8154,8196,8160,8164,8175,8169,8158,8118,8127,8222,5.641373157501221,False
97,8124,8217,8166,8149,8150,8188,8175,8174,8178,8167,8163,8145,8133,8229,5.642106294631958,False
98,8148,8218,8172,8161,8146,8187,8144,8184,8200,8155,8172,8161,8158,8254,5.651370286941528,False
99,8159,8237,8184,8161,8194,8188,8185,8200,8204,8159,8167,8156,8164,8263,5.659509181976318,False
100,8127,8229,8154,8149,8157,8173,8161,8183,8189,8172,8166,8151,8159,8255,5.677373886108398,False
101,8119,8216,8140,8149,8150,8184,8162,8183,8191,8162,8176,8156,8160,8251,5.6834094524383545,False
102,8163,8225,8187,8172,8196,8210,8196,8197,8206,8158,8177,8176,8166,8263,5.688221454620361,False
103,8169,8232,8180,8191,8180,8195,8141,8171,8197,8171,8175,8186,8184,8281,5.699489831924439,False
104,8161,8238,8151,8192,8166,8178,8127,8149,8176,8157,8182,8172,8192,8280,5.704373598098755,False
105,8172,8247,8148,8201,8169,8184,8128,8147,8186,8156,8188,8173,8190,8272,5.712193727493286,False
106,8186,8250,8165,8193,8190,8184,8170,8159,8186,8171,8175,8177,8181,8269,5.719475746154785,False
107,8186,8233,8183,8163,8168,8167,8200,8156,8154,8154,8160,8159,8164,8259,5.727405309677124,False
108,8167,8218,8164,8168,8115,8158,8139,8138,8153,8146,8165,8151,8165,8248,5.735438823699951,False
109,8174,8233,8173,8202,8144,8176,8170,8161,8171,8155,8178,8165,8173,8250,5.743314266204834,False
110,8181,8232,8187,8195,8156,8184,8199,8179,8167,8159,8167,8166,8170,8251,5.7571680545806885,False
111,8161,8208,8167,8161,8144,8171,8169,8165,8157,8151,8149,8149,8154,8235,5.760464906692505,False
112,8146,8208,8160,8151,8156,8161,8172,8162,8157,8135,8160,8137,8139,8224,5.76626181602478,False
113,8124,8220,8145,8160,8137,8162,8151,8165,8170,8131,8166,8135,8147,8234,5.778233289718628,False
114,8121,8218,8153,8162,8142,8163,8157,8170,8171,8147,8159,8156,8162,8252,5.794341564178467,False
115,8129,8207,8140,8162,8134,8159,8112,8145,8154,8159,8169,8176,8172,8268,5.800343751907349,False
116,8142,8218,8146,8175,8191,8172,8164,8148,8147,8143,8173,8167,8161,8262,5.807092905044556,False
117,8171,8226,8216,8182,8230,8189,8272,8185,8152,8144,8172,8168,8153,8252,5.815280199050903,False
118,8133,8205,8174,8176,8110,8177,8134,8152,8164,8167,8176,8179,8177,8265,5.822220802307129,False
119,8116,8212,8146,8182,8141,8180,8135,8146,8163,8147,8168,8177,8171,8275,5.830058336257935,False
120,8170,8229,8221,8193,8208,8196,8256,8182,8167,8127,8168,8177,8162,8264,5.84419846534729,False
121,8171,8224,8206,8197,8110,8189,8174,8175,8193,8168,8191,8181,8200,8262,5.845131158828735,False
1,8135,8187,8163,8134,8137,8173,8197,8183,8151,8119,8142,8139,8119,8246,5.866279363632202,False
2,8136,8192,8161,8153,8115,8179,8152,8172,8161,8144,8172,8161,8154,8252,5.871192932128906,False
3,8161,8199,8187,8172,8146,8187,8180,8168,8174,8168,8197,8179,8177,8267,5.878227472305298,False
4,8181,8211,8204,8190,8127,8184,8165,8159,8177,8158,8191,8192,8187,8279,5.88918137550354,False
5,8195,8242,8202,8213,8124,8182,8154,8162,8174,8161,8186,8204,8204,8298,5.893115282058716,False
6,8229,8258,8222,8228,8144,8181,8181,8175,8184,8189,8196,8217,8224,8317,5.9002861976623535,False
7,8216,8232,8199,8215,8107,8166,8147,8183,8207,8198,8192,8212,8229,8316,5.909190893173218,False
8,8195,8215,8194,8190,8129,8157,8175,8208,8206,8175,8171,8189,8198,8290,5.916215181350708,False
9,8190,8217,8184,8177,8162,8158,8153,8196,8186,8166,8156,8172,8171,8279,5.925263404846191,False
10,8176,8215,8150,8165,8210,8157,8150,8178,8169,8155,8150,8153,8157,8272,5.934220790863037,False
11,8166,8201,8154,8151,8233,8159,8188,8183,8166,8130,8156,8142,8147,8253,5.94122838973999,False
12,8155,8190,8156,8155,8197,8161,8138,8176,8178,8141,8172,8155,8165,8257,5.948284149169922,False
13,8173,8193,8177,8163,8224,8163,8165,8176,8171,8161,8170,8165,8176,8270,5.955038785934448,False
14,8174,8190,8174,8158,8217,8152,8163,8160,8154,8152,8163,8154,8161,8270,5.974181652069092,False
15,8157,8194,8159,8158,8206,8151,8146,8158,8158,8139,8173,8160,8156,8269,5.979068756103516,False
16,8185,8208,8195,8163,8227,8171,8188,8181,8164,8154,8179,8184,8171,8282,5.988195896148682,False
17,8194,8205,8185,8171,8194,8169,8150,8163,8168,8171,8172,8186,8179,8295,5.998320817947388,False
18,8184,8201,8183,8178,8207,8161,8170,8159,8164,8153,8172,8186,8173,8289,6.005446434020996,False
19,8174,8194,8192,8160,8200,8161,8171,8157,8150,8140,8172,8190,8173,8281,6.012461185455322,False
20,8155,8179,8161,8135,8183,8159,8143,8139,8142,8130,8157,8180,8157,8271,6.019166946411133,False
21,8171,8182,8172,8143,8211,8165,8191,8156,8154,8133,8160,8183,8151,8277,6.048402309417725,False
22,8185,8186,8177,8167,8188,8165,8164,8175,8186,8162,8178,8191,8187,8303,6.050326824188232,False
23,8178,8185,8171,8153,8197,8165,8178,8188,8186,8160,8168,8178,8189,8295,6.059350490570068,False
24,8161,8172,8164,8125,8188,8164,8183,8180,8170,8150,8152,8157,8157,8269,6.0703558921813965,False
25,8155,8174,8151,8139,8173,8158,8150,8172,8188,8181,8169,8154,8166,8271,6.079253911972046,False
26,8183,8203,8182,8174,8217,8167,8191,8194,8208,8195,8187,8168,8188,8281,6.083318710327148,False
27,8163,8202,8170,8173,8198,8176,8149,8179,8210,8179,8181,8170,8188,8274,6.089149475097656,False
28,8149,8184,8159,8154,8204,8175,8150,8164,8194,8177,8174,8166,8186,8270,6.101315259933472,False
29,8181,8188,8183,8162,8213,8168,8174,8160,8170,8169,8171,8178,8184,8290,6.107288599014282,False
30,8180,8201,8171,8172,8202,8165,8144,8155,8161,8152,8164,8179,8171,8301,6.113016366958618,False
31,8178,8196,8176,8166,8235,8174,8179,8172,8162,8156,8161,8170,8151,8286,6.127248048782349,False
32,8162,8166,8158,8165,8213,8181,8150,8156,8166,8159,8165,8169,8155,8270,6.129229068756104,False
33,8145,8158,8147,8156,8215,8189,8157,8147,8164,8147,8163,8165,8159,8268,6.150373697280884,False
34,8172,8177,8178,8156,8224,8198,8189,8160,8174,8173,8168,8165,8160,8270,6.152350902557373,False
35,8184,8191,8174,8185,8223,8205,8154,8166,8196,8213,8184,8171,8183,8266,6.160329103469849,False
36,8190,8198,8185,8201,8296,8203,8184,8180,8193,8196,8185,8180,8195,8275,6.168294668197632,False
37,8198,8197,8182,8189,8305,8181,8154,8166,8176,8187,8180,8184,8197,8298,6.176312208175659,False
38,8199,8198,8172,8189,8308,8172,8152,8167,8176,8211,8182,8181,8202,8300,6.188488721847534,False
39,8198,8194,8189,8192,8316,8177,8183,8193,8189,8209,8183,8182,8209,8289,6.195331573486328,False
40,8185,8180,8167,8175,8263,8172,8135,8178,8189,8195,8163,8177,8205,8285,6.206331014633179,False
41,8195,8179,8168,8169,8271,8178,8172,8170,8163,8187,8151,8165,8175,8275,6.209219217300415,False
42,8187,8182,8170,8174,8265,8182,8167,8166,8152,8187,8163,8166,8164,8280,6.237362623214722,False
43,8164,8174,8154,8165,8254,8179,8158,8171,8164,8183,8164,8173,8174,8290,6.239002466201782,False
44,8178,8165,8173,8151,8264,8180,8193,8186,8165,8179,8165,8177,8177,8285,6.25132417678833,False
45,8186,8165,8165,8159,8248,8175,8153,8176,8163,8194,8179,8185,8184,8300,6.255222320556641,False
46,8196,8179,8180,8176,8285,8175,8180,8169,8158,8190,8180,8190,8180,8319,6.276402711868286,False
47,8193,8183,8181,8173,8265,8180,8151,8152,8162,8193,8181,8182,8185,8312,6.280038595199585,False
48,8187,8186,8162,8168,8253,8179,8133,8153,8173,8218,8182,8175,8201,8296,6.2870612144470215,False
49,8212,8198,8193,8176,8290,8169,8190,8164,8163,8218,8172,8190,8202,8289,6.294129371643066,False
50,8204,8190,8176,8199,8253,8167,8129,8140,8158,8205,8174,8204,8201,8309,6.309150218963623,False
59,8208,8195,8215,8184,8344,8182,8272,8200,8170,8235,8178,8189,8190,8274,6.322110652923584,False
60,8178,8185,8171,8188,8237,8191,8128,8156,8182,8221,8178,8192,8203,8281,6.3291332721710205,False
61,8164,8186,8144,8187,8257,8185,8130,8148,8164,8207,8185,8187,8219,8305,6.335068941116333,False
62,8184,8186,8187,8171,8308,8186,8221,8176,8145,8211,8183,8181,8199,8299,6.343137741088867,False
63,8171,8174,8179,8170,8248,8191,8152,8162,8168,8216,8176,8191,8189,8285,6.354149580001831,False
63,8171,8174,8179,8170,8248,8191,8152,8162,8168,8216,8176,8191,8189,8285,6.380227565765381,False
64,8188,8182,8195,8181,8260,8194,8166,8163,8177,8213,8192,8213,8216,8298,6.381008148193359,False
65,8200,8195,8192,8183,8255,8190,8165,8158,8170,8226,8204,8222,8234,8330,6.392190217971802,False
66,8194,8194,8181,8186,8267,8185,8179,8172,8179,8230,8194,8215,8223,8339,6.398283004760742,False
67,8209,8181,8200,8187,8277,8178,8190,8194,8196,8233,8195,8223,8224,8339,6.412178754806519,False
68,8192,8166,8168,8164,8240,8173,8136,8180,8199,8243,8189,8205,8226,8329,6.427392482757568,False
69,8175,8168,8165,8146,8263,8182,8197,8180,8185,8227,8184,8164,8199,8307,6.43020224571228,False
70,8167,8172,8165,8162,8245,8183,8179,8174,8185,8220,8202,8158,8181,8298,6.437287330627441,False
71,8164,8175,8153,8166,8252,8183,8148,8172,8196,8231,8212,8170,8172,8281,6.444240093231201,False
72,8176,8175,8173,8153,8290,8185,8185,8173,8195,8225,8225,8162,8163,8261,6.452117443084717,False
73,8156,8179,8156,8168,8276,8178,8149,8149,8188,8227,8267,8146,8173,8264,6.460063457489014,False
74,8160,8199,8164,8200,8298,8180,8168,8148,8169,8223,8283,8158,8170,8264,6.481294870376587,False
75,8180,8190,8179,8194,8275,8174,8154,8139,8154,8189,8261,8170,8155,8247,6.497399091720581,False
76,8179,8175,8173,8186,8258,8170,8144,8126,8152,8175,8272,8168,8156,8251,6.510276317596436,False
85,8123,8151,8162,8162,8243,8198,8197,8197,8201,8238,8355,8148,8167,8243,6.528167963027954,False
86,8116,8148,8140,8176,8223,8198,8150,8179,8189,8222,8379,8161,8173,8248,6.549339056015015,False
87,8140,8159,8164,8180,8245,8191,8171,8172,8183,8198,8385,8176,8160,8253,6.568154573440552,False
88,8158,8167,8179,8177,8244,8172,8142,8153,8176,8193,8374,8180,8147,8268,6.574594497680664,False
89,8167,8177,8185,8185,8267,8170,8157,8141,8157,8184,8396,8184,8149,8271,6.575000524520874,False
90,8166,8189,8189,8203,8246,8171,8165,8132,8158,8168,8422,8189,8156,8268,6.6073198318481445,False
91,8149,8176,8159,8185,8199,8153,8124,8122,8155,8148,8410,8184,8163,8273,6.6122145652771,False
92,8167,8154,8176,8153,8235,8145,8168,8133,8133,8116,8395,8174,8142,8263,6.619114875793457,False
93,8166,8156,8176,8162,8232,8154,8154,8132,8142,8126,8393,8165,8122,8252,6.6312949657440186,False
94,8138,8172,8160,8173,8236,8171,8168,8156,8166,8168,8403,8157,8116,8245,6.638068199157715,False
95,8141,8169,8164,8159,8231,8179,8187,8185,8181,8181,8417,8172,8129,8248,6.651297569274902,False
96,8140,8166,8145,8160,8199,8171,8145,8176,8198,8178,8404,8184,8156,8258,6.660202980041504,False
97,8143,8184,8161,8185,8221,8171,8183,8182,8197,8187,8401,8171,8163,8255,6.665194749832153,False
98,8136,8179,8160,8182,8200,8176,8157,8179,8195,8204,8421,8160,8144,8243,6.676297187805176,False
99,8131,8165,8149,8159,8209,8180,8152,8178,8213,8205,8429,8167,8123,8243,6.68120551109314,False
100,8149,8166,8170,8159,8229,8177,8183,8183,8210,8198,8436,8188,8137,8257,6.68923807144165,False
101,8149,8159,8168,8169,8196,8165,8141,8169,8184,8185,8434,8185,8141,8263,6.697287321090698,False
102,8161,8155,8184,8166,8211,8168,8181,8181,8171,8171,8413,8172,8104,8252,6.704216003417969,False
102,8161,8155,8184,8166,8211,8168,8181,8181,8171,8171,8413,8172,8104,8252,6.716436147689819,False
103,8156,8150,8169,8155,8194,8175,8166,8175,8176,8159,8405,8201,8125,8264,6.722198724746704,False
104,8133,8147,8150,8152,8199,8176,8151,8165,8167,8125,8407,8223,8161,8273,6.736304521560669,False
105,8150,8151,8185,8163,8232,8181,8190,8180,8160,8124,8394,8197,8115,8257,6.737073659896851,False
106,8155,8164,8172,8172,8213,8179,8148,8181,8170,8145,8375,8178,8080,8249,6.744153261184692,False
115,8132,8153,8171,8147,8248,8167,8187,8199,8189,8117,8335,8175,8073,8239,6.763406038284302,False
116,8134,8145,8158,8163,8215,8155,8159,8183,8190,8115,8332,8184,8076,8237,6.768182277679443,False
117,8119,8132,8150,8157,8232,8160,8170,8173,8187,8111,8332,8182,8074,8236,6.7894158363342285,False
118,8132,8151,8174,8132,8239,8167,8159,8173,8187,8122,8311,8183,8074,8239,6.791437864303589,False
119,8158,8173,8173,8173,8224,8155,8147,8169,8179,8108,8309,8198,8094,8260,6.799370050430298,False
120,8173,8176,8178,8237,8251,8159,8199,8171,8159,8085,8334,8204,8084,8272,6.8072593212127686,False
121,8155,8160,8157,8220,8226,8169,8151,8165,8168,8115,8321,8195,8082,8277,6.818162202835083,False
122,8153,8144,8158,8191,8218,8171,8154,8181,8188,8131,8297,8190,8107,8278,6.822304010391235,False
123,8161,8132,8176,8221,8226,8169,8186,8191,8192,8108,8297,8188,8105,8276,6.830105781555176,False
124,8148,8131,8154,8235,8224,8165,8151,8180,8201,8115,8290,8184,8093,8274,6.847323179244995,False
125,8135,8139,8132,8226,8235,8157,8140,8182,8211,8130,8275,8179,8083,8258,6.850206613540649,False
126,8113,8132,8112,8238,8225,8159,8126,8172,8219,8133,8279,8167,8079,8242,6.856158256530762,False
127,8133,8135,8144,8271,8259,8178,8186,8189,8224,8140,8284,8181,8096,8253,6.862207174301148,False
238,8174,8144,8191,8285,8260,8187,8222,8207,8216,8147,8273,8204,8118,8265,6.869135141372681,False
0,8146,8136,8164,8264,8204,8176,8149,8177,8204,8133,8267,8187,8101,8248,6.88334846496582,False
1,8127,8135,8146,8255,8202,8164,8132,8153,8193,8110,8266,8185,8095,8250,6.885314226150513,False
2,8155,8141,8156,8262,8203,8155,8134,8144,8189,8114,8259,8211,8125,8284,6.893451929092407,False
3,8190,8150,8190,8264,8261,8166,8199,8164,8189,8126,8258,8212,8109,8292,6.910267114639282,False
4,8205,8159,8226,8279,8287,8182,8232,8179,8188,8126,8265,8215,8088,8290,6.911117315292358,False
5,8184,8159,8192,8295,8203,8169,8131,8148,8192,8127,8258,8231,8121,8311,6.922130823135376,False
6,8177,8155,8170,8274,8199,8159,8142,8144,8187,8124,8242,8228,8134,8313,6.9240593910217285,False
7,8168,8144,8156,8252,8212,8169,8149,8152,8190,8115,8238,8213,8120,8291,6.949309587478638,False
8,8157,8144,8153,8249,8236,8175,8169,8164,8191,8104,8223,8195,8115,8269,6.9500768184661865,False
9,8175,8157,8194,8252,8244,8170,8224,8172,8178,8110,8212,8188,8107,8255,6.97336745262146,False
10,8152,8153,8165,8268,8172,8167,8141,8149,8176,8134,8204,8194,8107,8256,6.974128007888794,False
11,8138,8156,8161,8271,8210,8177,8157,8158,8180,8144,8183,8200,8113,8260,6.990369558334351,False
12,8163,8164,8194,8260,8255,8181,8195,8176,8184,8146,8171,8200,8123,8269,6.995333433151245,False
13,8153,8150,8162,8253,8206,8176,8138,8163,8180,8147,8149,8192,8128,8271,7.004390478134155,False
14,8132,8143,8135,8248,8175,8171,8127,8151,8165,8139,8114,8185,8113,8265,7.021204948425293,False
15,8136,8157,8148,8234,8192,8160,8152,8151,8152,8117,8099,8177,8097,8262,7.022051334381104,False
16,8162,8163,8186,8223,8238,8159,8213,8173,8143,8095,8092,8175,8085,8256,7.027225017547607,False
17,8149,8144,8159,8221,8189,8158,8138,8157,8157,8109,8082,8182,8091,8263,7.035351991653442,False
18,8129,8146,8132,8218,8195,8156,8126,8149,8170,8133,8079,8176,8096,8263,7.044162750244141,False
19,8172,8168,8201,8220,8262,8163,8243,8183,8159,8122,8085,8169,8094,8252,7.051340818405151,False
20,8166,8157,8181,8224,8203,8163,8153,8169,8165,8139,8090,8177,8120,8268,7.059214353561401,False
21,8144,8154,8145,8219,8222,8163,8139,8164,8171,8160,8092,8188,8131,8282,7.077344655990601,False
22,8172,8161,8194,8204,8253,8167,8214,8169,8153,8131,8107,8192,8117,8274,7.083209276199341,False
23,8163,8154,8177,8192,8170,8165,8128,8139,8155,8124,8118,8195,8130,8284,7.090250253677368,False
24,8155,8160,8153,8194,8183,8160,8128,8154,8167,8151,8114,8205,8154,8306,7.098160266876221,False
25,8183,8169,8189,8196,8239,8152,8200,8189,8173,8169,8111,8218,8161,8322,7.115346670150757,False
26,8187,8158,8197,8197,8216,8153,8175,8182,8183,8166,8098,8213,8164,8320,7.116091966629028,False
27,8161,8150,8157,8199,8164,8155,8115,8154,8180,8159,8065,8184,8158,8295,7.140394687652588,False
28,8159,8161,8153,8195,8189,8148,8161,8153,8159,8155,8044,8168,8135,8278,7.143435478210449,False
29,8178,8161,8190,8185,8218,8149,8211,8159,8147,8143,8054,8185,8133,8289,7.145305395126343,False
30,8140,8144,8146,8186,8154,8148,8108,8123,8148,8141,8060,8177,8157,8287,7.160468101501465,False
31,8135,8156,8146,8190,8208,8149,8166,8129,8138,8142,8047,8151,8146,8256,7.161207437515259,False
32,8178,8161,8212,8181,8252,8154,8243,8167,8144,8163,8052,8163,8138,8269,7.17059326171875,False
33,8157,8142,8174,8174,8157,8150,8120,8162,8174,8196,8067,8185,8177,8315,7.181400299072266,False
34,8159,8146,8171,8178,8196,8152,8167,8173,8176,8201,8061,8185,8197,8320,7.187470436096191,False
35,8191,8161,8206,8186,8227,8149,8209,8174,8164,8199,8046,8186,8192,8309,7.19346284866333,False
36,8179,8165,8179,8190,8179,8142,8134,8163,8168,8205,8033,8187,8191,8318,7.201464653015137,False
37,8186,8166,8176,8193,8215,8154,8159,8179,8173,8193,8022,8177,8184,8318,7.208340406417847,False
38,8193,8166,8177,8192,8236,8163,8175,8176,8170,8177,8015,8165,8182,8304,7.225335597991943,True
46,8130,8148,8131,8162,8141,8129,8082,8114,8140,8184,8001,8144,8185,8271,7.2613935470581055,True
47,8134,8142,8153,8141,8220,8146,8214,8185,8154,8159,7986,8130,8170,8263,7.268389940261841,True
48,8119,8106,8152,8109,8167,8131,8180,8183,8156,8161,7984,8113,8156,8248,7.270233869552612,True
49,8100,8091,8124,8113,8108,8116,8097,8155,8159,8180,8003,8129,8171,8251,7.272151708602905,True
50,8127,8119,8155,8137,8159,8135,8167,8185,8163,8186,8018,8154,8190,8266,7.279387474060059,True
51,8142,8135,8172,8151,8176,8149,8185,8194,8170,8188,8009,8154,8193,8269,7.291276931762695,True
52,8147,8137,8169,8160,8159,8141,8144,8168,8165,8185,8011,8156,8186,8267,7.2951884269714355,True
53,8161,8143,8176,8165,8171,8145,8147,8155,8160,8192,8028,8170,8194,8278,7.319358110427856,True
54,8179,8146,8209,8161,8217,8163,8213,8170,8157,8195,8035,8168,8203,8282,7.320120573043823,True
55,8169,8141,8188,8162,8155,8148,8127,8148,8166,8183,8037,8164,8209,8287,7.331477642059326,True
56,8161,8154,8156,8173,8150,8127,8110,8148,8174,8181,8035,8169,8213,8295,7.339454650878906,True
57,8209,8175,8226,8187,8249,8136,8266,8195,8162,8186,8037,8174,8217,8287,7.348169565200806,True
58,8208,8174,8218,8204,8180,8144,8173,8170,8164,8194,8045,8172,8229,8289,7.38344931602478,True
59,8167,8166,8161,8198,8156,8149,8122,8157,8180,8192,8035,8158,8211,8290,7.39829158782959,True
60,8158,8150,8176,8158,8230,8149,8241,8194,8185,8175,8014,8135,8172,8254,7.40016770362854,True
69,8191,8181,8191,8195,8211,8133,8156,8163,8167,8194,8069,8190,8232,8321,7.434514045715332,True
70,8225,8201,8262,8205,8282,8141,8263,8187,8147,8179,8058,8192,8213,8313,7.435318946838379,True
71,8183,8182,8196,8195,8162,8130,8119,8151,8142,8184,8052,8181,8215,8308,7.437478542327881,True
72,8167,8181,8143,8196,8161,8135,8091,8155,8136,8181,8062,8179,8231,8312,7.455384016036987,True
73,8196,8195,8183,8206,8217,8153,8174,8188,8138,8178,8071,8184,8235,8315,7.471380949020386,True
74,8172,8179,8167,8188,8190,8142,8161,8182,8146,8182,8056,8164,8215,8296,7.480363607406616,False
75,8156,8162,8151,8160,8200,8129,8178,8172,8146,8173,8042,8140,8190,8267,7.484351634979248,False
76,8171,8161,8175,8159,8213,8134,8189,8169,8155,8178,8049,8146,8191,8276,7.493249893188477,False
77,8171,8158,8186,8154,8202,8134,8180,8171,8156,8181,8061,8151,8189,8290,7.504329681396484,False
78,8145,8140,8139,8135,8149,8122,8127,8156,8154,8187,8061,8142,8190,8276,7.511288642883301,False
79,8151,8136,8138,8136,8159,8132,8169,8170,8164,8191,8061,8140,8194,8267,7.516424417495727,False
80,8183,8149,8196,8146,8187,8145,8218,8187,8163,8168,8070,8150,8180,8286,7.5241382122039795,False
81,8149,8139,8154,8136,8137,8127,8106,8146,8150,8153,8070,8151,8180,8305,7.532176733016968,False
82,8144,8134,8161,8128,8192,8122,8189,8158,8135,8162,8067,8150,8188,8287,7.539117813110352,False
83,8182,8131,8224,8128,8198,8121,8252,8186,8136,8170,8067,8157,8182,8270,7.5512073040008545,False
84,8152,8114,8167,8123,8102,8095,8095,8146,8142,8167,8064,8150,8172,8273,7.55509090423584,False
85,8132,8125,8138,8126,8128,8099,8112,8135,8128,8153,8064,8136,8164,8260,7.579227685928345,False
86,8145,8144,8163,8135,8166,8122,8175,8148,8120,8156,8065,8129,8170,8251,7.581058740615845,False
87,8152,8141,8166,8135,8178,8116,8166,8149,8119,8160,8067,8134,8178,8257,7.587439298629761,False
88,8145,8126,8155,8125,8175,8103,8133,8133,8113,8140,8073,8148,8176,8255,7.608308792114258,False
89,8138,8122,8157,8106,8183,8121,8169,8136,8117,8131,8084,8149,8183,8251,7.610196828842163,False
90,8171,8139,8209,8110,8197,8135,8249,8166,8129,8157,8092,8147,8194,8259,7.627271413803101,False
91,8168,8143,8194,8135,8121,8119,8144,8139,8134,8170,8089,8151,8202,8277,7.628109693527222,False
92,8160,8144,8175,8139,8136,8117,8134,8134,8123,8151,8091,8166,8205,8295,7.636314153671265,False
93,8183,8140,8202,8128,8168,8137,8202,8165,8127,8168,8101,8181,8216,8312,7.642219543457031,False
94,8175,8136,8176,8146,8127,8144,8147,8166,8161,8196,8102,8174,8229,8325,7.668444871902466,False
95,8179,8151,8180,8162,8172,8136,8177,8175,8169,8165,8098,8173,8219,8325,7.682261228561401,False
96,8173,8147,8174,8145,8177,8134,8161,8168,8157,8158,8100,8179,8217,8323,7.683125972747803,False
97,8157,8141,8154,8140,8166,8157,8160,8174,8166,8199,8105,8174,8226,8316,7.689218997955322,False
98,8174,8150,8183,8154,8170,8163,8196,8189,8180,8213,8106,8162,8225,8308,7.70112419128418,False
99,8170,8144,8169,8149,8139,8139,8140,8171,8181,8202,8100,8152,8223,8303,7.7094807624816895,False
100,8160,8135,8164,8130,8170,8137,8169,8169,8164,8199,8099,8149,8223,8289,7.717385768890381,False
101,8150,8132,8161,8130,8164,8141,8165,8162,8159,8201,8106,8141,8227,8272,7.729140996932983,False
102,8136,8129,8146,8127,8158,8132,8154,8159,8161,8195,8102,8129,8209,8253,7.730202198028564,False
103,8138,8126,8163,8107,8181,8138,8182,8164,8149,8180,8097,8137,8188,8245,7.736215829849243,False
104,8133,8128,8158,8095,8169,8142,8141,8147,8145,8170,8102,8151,8202,8257,7.744429588317871,False
113,8171,8127,8175,8122,8174,8132,8177,8190,8172,8224,8126,8182,8265,8326,7.763105630874634,False
114,8137,8123,8150,8105,8180,8129,8151,8160,8150,8205,8107,8144,8223,8277,7.774516820907593,False
115,8139,8135,8153,8116,8147,8119,8144,8149,8147,8213,8108,8144,8224,8263,7.77719783782959,False
116,8136,8125,8136,8108,8090,8114,8104,8131,8131,8202,8107,8145,8220,8250,7.786371231079102,False
117,8105,8117,8109,8093,8126,8123,8114,8118,8105,8167,8090,8115,8172,8203,7.792272329330444,False
118,8127,8144,8170,8103,8210,8128,8232,8149,8098,8164,8092,8109,8149,8178,7.79948616027832,False
119,8149,8145,8187,8117,8137,8126,8172,8149,8121,8184,8113,8139,8187,8213,7.808171510696411,False
120,8135,8129,8144,8122,8105,8141,8100,8129,8136,8167,8113,8148,8193,8237,7.815455913543701,False
121,8131,8138,8146,8128,8175,8159,8149,8135,8130,8155,8109,8138,8175,8222,7.824154138565063,False
122,8137,8156,8157,8133,8183,8159,8146,8150,8144,8184,8129,8152,8213,8229,7.838423013687134,False
123,8159,8160,8174,8135,8169,8154,8155,8178,8160,8201,8141,8176,8246,8268,7.8401994705200195,False
124,8163,8151,8181,8139,8158,8138,8183,8186,8151,8200,8133,8177,8234,8291,7.847388744354248,False
125,8156,8148,8176,8141,8149,8124,8188,8177,8147,8207,8137,8174,8240,8289,7.856305360794067,False
126,8156,8151,8168,8137,8124,8120,8150,8158,8151,8213,8146,8171,8258,8279,7.864389181137085,False
127,8137,8147,8149,8131,8112,8105,8125,8139,8132,8203,8133,8147,8245,8268,7.87213921546936,False
238,8123,8140,8147,8132,8143,8090,8162,8141,8109,8194,8120,8137,8221,8259,7.878120899200439,False
0,8105,8131,8126,8130,8140,8091,8123,8125,8117,8200,8118,8133,8214,8248,7.886022090911865,False
1,8106,8142,8141,8123,8186,8114,8152,8132,8127,8195,8119,8124,8210,8226,7.894382476806641,False
2,8136,8158,8182,8133,8201,8131,8190,8149,8129,8193,8130,8136,8209,8221,7.902122497558594,False
3,8131,8149,8147,8146,8141,8135,8127,8131,8132,8201,8134,8152,8214,8240,7.916316509246826,False
4,8149,8146,8182,8138,8186,8159,8225,8149,8116,8168,8124,8161,8198,8244,7.919119596481323,False
5,8162,8153,8225,8143,8146,8167,8205,8144,8117,8147,8141,8178,8212,8252,7.92728328704834,False
6,8136,8162,8177,8166,8098,8148,8112,8138,8144,8183,8160,8188,8248,8272,7.938284873962402,False
7,8141,8156,8185,8161,8162,8142,8201,8186,8160,8215,8147,8194,8253,8282,7.945194959640503,False
8,8135,8134,8181,8138,8123,8141,8179,8195,8177,8221,8135,8194,8258,8291,7.950228929519653,False
9,8113,8126,8141,8129,8089,8125,8118,8171,8183,8225,8132,8170,8253,8278,7.964444875717163,False
10,8110,8125,8136,8120,8116,8109,8134,8161,8169,8229,8128,8147,8229,8245,7.965270519256592,False
11,8112,8127,8147,8113,8125,8105,8162,8162,8157,8213,8126,8144,8217,8226,7.974338054656982,False
12,8117,8134,8146,8121,8110,8109,8154,8146,8141,8190,8117,8135,8207,8218,7.981163024902344,False
13,8110,8132,8120,8126,8108,8112,8113,8116,8129,8189,8111,8116,8192,8208,7.995324611663818,False
14,8137,8137,8173,8124,8184,8133,8223,8142,8128,8199,8123,8115,8182,8189,7.997100591659546,False
15,8160,8154,8211,8136,8165,8152,8225,8150,8134,8196,8135,8118,8178,8170,8.011378765106201,False
16,8144,8178,8164,8166,8113,8155,8117,8121,8131,8197,8133,8109,8168,8164,8.017298936843872,False
17,8178,8203,8196,8191,8168,8163,8181,8132,8129,8198,8140,8136,8182,8197,8.020037174224854,False
18,8218,8211,8229,8204,8152,8169,8180,8140,8156,8196,8164,8196,8243,8277,8.029194116592407,False
19,8220,8211,8202,8213,8127,8183,8135,8147,8169,8202,8175,8223,8279,8330,8.043307304382324,False
20,8227,8218,8207,8227,8149,8196,8157,8170,8167,8224,8178,8232,8285,8341,8.046202182769775,False
21,8228,8217,8224,8226,8143,8183,8175,8191,8198,8254,8177,8240,8315,8350,8.052106142044067,False
22,8201,8199,8200,8196,8128,8167,8185,8208,8217,8252,8157,8209,8312,8338,8.060204982757568,False
23,8148,8168,8133,8159,8108,8155,8140,8192,8195,8236,8132,8161,8266,8301,8.067272186279297,False
24,8133,8146,8125,8134,8124,8141,8155,8174,8163,8216,8122,8149,8232,8270,8.076247453689575,False
25,8135,8124,8136,8110,8091,8116,8144,8156,8143,8180,8115,8144,8206,8245,8.083272695541382,False
26,8118,8110,8122,8095,8088,8104,8132,8149,8131,8163,8104,8121,8168,8216,8.091185808181763,False
27,8127,8123,8164,8095,8161,8124,8226,8171,8120,8175,8113,8122,8142,8191,8.103248119354248,False
28,8112,8121,8151,8103,8109,8141,8164,8147,8127,8189,8129,8138,8157,8187,8.107027292251587,False
29,8104,8126,8132,8125,8105,8154,8138,8143,8140,8185,8130,8146,8174,8199,8.116219282150269,False
30,8141,8158,8186,8160,8172,8184,8206,8172,8153,8211,8145,8172,8198,8230,8.123192310333252,False
31,8125,8162,8164,8177,8154,8213,8165,8170,8184,8239,8162,8191,8238,8263,8.130163192749023,False
32,8117,8157,8155,8172,8160,8222,8198,8193,8208,8227,8165,8194,8248,8281,8.145303726196289,False
33,8167,8177,8196,8189,8132,8213,8182,8200,8226,8236,8168,8213,8262,8311,8.148143529891968,False
34,8214,8204,8221,8225,8132,8216,8161,8195,8241,8253,8165,8222,8281,8329,8.157144784927368,False
35,8208,8195,8219,8221,8162,8223,8195,8202,8240,8221,8148,8196,8255,8308,8.182310342788696,False
36,8147,8153,8155,8170,8120,8198,8145,8182,8220,8178,8116,8155,8201,8268,8.197123765945435,False
37,8118,8126,8129,8119,8127,8164,8163,8171,8185,8152,8097,8121,8150,8220,8.198070287704468,False
38,8103,8118,8120,8107,8118,8137,8148,8145,8152,8134,8100,8093,8123,8182,8.201073408126831,False
39,8079,8118,8100,8106,8112,8127,8128,8123,8122,8115,8100,8076,8098,8162,8.2130868434906,False
40,8093,8115,8126,8091,8134,8135,8169,8130,8093,8104,8101,8088,8087,8171,8.222278356552124,False
41,8100,8117,8129,8095,8109,8135,8132,8112,8084,8104,8113,8109,8112,8201,8.230124711990356,False
42,8111,8131,8144,8116,8145,8145,8159,8106,8082,8097,8130,8120,8127,8217,8.23422122001648,False
43,8127,8128,8167,8130,8151,8172,8171,8123,8106,8133,8156,8146,8153,8242,8.243079900741577,False
44,8113,8133,8151,8144,8122,8190,8146,8149,8160,8206,8175,8176,8203,8273,8.252410411834717,False
45,8122,8160,8167,8149,8152,8194,8201,8184,8189,8211,8165,8180,8214,8279,8.260356187820435,False
46,8144,8164,8171,8138,8136,8186,8175,8197,8198,8191,8150,8167,8199,8276,8.269318342208862,False
47,8177,8171,8163,8143,8111,8182,8133,8213,8223,8212,8152,8171,8205,8293,8.273315668106079,False
48,8208,8199,8175,8165,8119,8187,8149,8234,8258,8220,8150,8175,8207,8301,8.280221462249756,False
49,8201,8212,8188,8160,8160,8195,8213,8245,8268,8200,8136,8153,8180,8265,8.29232144355774,False
50,8177,8201,8196,8132,8173,8201,8247,8229,8246,8187,8126,8129,8143,8221,8.29599118232727,False
51,8126,8185,8141,8124,8113,8186,8143,8170,8223,8182,8124,8112,8123,8202,8.305116653442383,False
52,8110,8199,8125,8131,8139,8177,8157,8146,8190,8159,8127,8098,8113,8191,8.313265323638916,False
53,8135,8214,8153,8133,8151,8168,8177,8136,8157,8139,8134,8102,8112,8193,8.321221113204956,False
54,8133,8203,8138,8126,8117,8152,8111,8115,8138,8149,8131,8110,8122,8217,8.32918906211853,False
55,8133,8208,8153,8122,8148,8162,8165,8135,8126,8155,8131,8115,8125,8232,8.337256908416748,False
56,8113,8218,8145,8126,8113,8182,8155,8143,8139,8152,8149,8115,8134,8237,8.347317457199097,False
57,8111,8225,8138,8130,8118,8200,8157,8157,8161,8154,8163,8127,8149,8254,8.354207515716553,False
58,8158,8233,8172,8134,8149,8207,8190,8179,8174,8173,8166,8154,8169,8275,8.360086441040039,False
59,8162,8229,8159,8131,8118,8200,8155,8167,8186,8184,8160,8156,8179,8281,8.367185354232788,False
60,8156,8226,8166,8128,8142,8191,8184,8172,8183,8168,8158,8140,8168,8271,8.375330209732056,False
61,8176,8242,8182,8149,8135,8182,8154,8172,8184,8175,8167,8151,8182,8285,8.383294105529785,False
62,8190,8259,8176,8167,8135,8183,8151,8177,8192,8181,8159,8166,8185,8300,8.39022946357727,False
63,8175,8238,8168,8141,8162,8183,8186,8187,8177,8150,8138,8148,8148,8275,8.398414611816406,False
64,8137,8209,8134,8106,8147,8175,8146,8166,8148,8129,8134,8123,8125,8243,8.406092882156372,False
65,8133,8215,8139,8100,8152,8179,8178,8160,8128,8122,8135,8113,8125,8236,8.414446592330933,False
66,8131,8213,8139,8102,8117,8184,8166,8155,8129,8122,8128,8110,8117,8235,8.422394037246704,False
67,8118,8204,8127,8096,8116,8174,8157,8157,8127,8117,8129,8110,8094,8219,8.431121826171875,False
68,8133,8208,8158,8093,8141,8156,8183,8162,8115,8113,8146,8117,8091,8213,8.438139915466309,False
69,8148,8214,8164,8101,8117,8149,8134,8146,8123,8136,8160,8137,8128,8233,8.449374437332153,False
70,8177,8228,8189,8118,8141,8161,8171,8166,8142,8164,8161,8164,8156,8258,8.454390048980713,False
71,8191,8243,8203,8139,8124,8159,8165,8175,8156,8172,8165,8174,8160,8273,8.469282388687134,False
72,8187,8252,8186,8158,8115,8150,8129,8166,8163,8170,8173,8171,8168,8271,8.470055341720581,False
73,8216,8266,8216,8173,8160,8164,8168,8168,8175,8182,8173,8187,8181,8277,8.4783456325531,False
74,8216,8271,8213,8191,8149,8171,8139,8155,8197,8203,8168,8193,8196,8294,8.485295057296753,False
75,8196,8269,8194,8197,8163,8170,8157,8163,8195,8193,8167,8170,8187,8281,8.49335789680481,False
76,8180,8254,8175,8178,8153,8164,8158,8158,8172,8164,8163,8151,8163,8249,8.502373218536377,False
77,8154,8238,8144,8159,8149,8155,8139,8140,8150,8148,8152,8139,8144,8236,8.509308338165283,False
78,8159,8228,8158,8155,8183,8162,8188,8152,8133,8146,8151,8137,8136,8227,8.517322063446045,False
79,8153,8213,8153,8147,8149,8169,8156,8145,8132,8141,8159,8138,8147,8221,8.524366617202759,False
80,8124,8197,8137,8116,8157,8155,8161,8137,8123,8119,8147,8111,8134,8204,8.548164367675781,False
81,8101,8169,8127,8082,8156,8142,8165,8138,8100,8117,8131,8084,8103,8181,8.549155712127686,False
82,8088,8159,8117,8080,8122,8159,8147,8145,8105,8135,8144,8096,8104,8182,8.561360120773315,False
83,8105,8181,8155,8102,8137,8178,8196,8165,8127,8142,8167,8122,8124,8199,8.576345443725586,False
84,8116,8178,8156,8104,8119,8177,8162,8154,8145,8153,8164,8130,8142,8216,8.58951711654663,False
84,8116,8178,8156,8104,8119,8177,8162,8154,8145,8153,8164,8130,8142,8216,8.59919023513794,False
85,8120,8164,8145,8087,8133,8186,8166,8149,8148,8162,8157,8126,8137,8214,8.607142448425293,False
86,8117,8172,8158,8100,8140,8195,8180,8149,8139,8157,8164,8124,8120,8197,8.61115288734436,False
87,8102,8186,8149,8132,8118,8185,8144,8139,8145,8145,8162,8125,8118,8191,8.620201826095581,False
96,8140,8186,8110,8135,8093,8191,8095,8144,8190,8153,8163,8166,8170,8265,8.64831805229187,False
97,8175,8187,8151,8129,8158,8181,8181,8158,8162,8142,8163,8157,8158,8269,8.65132737159729,False
98,8207,8201,8213,8148,8207,8174,8250,8173,8138,8151,8161,8161,8150,8271,8.662230968475342,False
99,8195,8208,8194,8160,8133,8171,8147,8150,8146,8152,8166,8179,8161,8278,8.666196823120117,False
100,8173,8208,8156,8145,8115,8166,8126,8144,8149,8144,8162,8174,8167,8277,8.680355548858643,False
101,8170,8192,8170,8127,8160,8165,8204,8158,8129,8134,8144,8137,8136,8244,8.685148477554321,False
102,8149,8178,8146,8140,8128,8155,8137,8142,8124,8120,8144,8112,8107,8218,8.696239709854126,False
103,8159,8200,8154,8167,8142,8143,8153,8140,8119,8099,8158,8129,8103,8219,8.700036525726318,False
104,8170,8199,8175,8159,8133,8144,8173,8130,8107,8102,8165,8151,8123,8232,8.706036567687988,False
105,8150,8165,8148,8133,8117,8151,8137,8125,8104,8120,8167,8146,8142,8241,8.714234113693237,False
106,8152,8160,8160,8124,8152,8150,8175,8140,8102,8128,8176,8147,8145,8237,8.72217583656311,False
107,8131,8170,8146,8129,8123,8147,8146,8133,8115,8147,8179,8147,8153,8227,8.743359565734863,False
108,8121,8173,8141,8138,8145,8159,8170,8152,8130,8157,8166,8146,8161,8228,8.746256589889526,False
109,8147,8179,8168,8154,8166,8167,8176,8165,8137,8155,8167,8161,8172,8249,8.753230810165405,False
110,8158,8187,8171,8160,8156,8164,8144,8155,8142,8175,8169,8177,8182,8259,8.764315128326416,False
111,8170,8187,8185,8146,8173,8164,8186,8159,8141,8187,8167,8179,8182,8252,8.771164894104004,False
112,8163,8176,8162,8151,8140,8161,8152,8141,8146,8169,8174,8169,8181,8257,8.783125400543213,False
113,8148,8170,8152,8163,8151,8153,8153,8134,8138,8144,8167,8143,8157,8233,8.791277885437012,False
114,8135,8157,8163,8142,8158,8143,8161,8131,8111,8129,8149,8122,8131,8197,8.791987180709839,False
115,8129,8146,8140,8122,8125,8135,8133,8126,8101,8117,8152,8131,8134,8214,8.816246747970581,False
116,8163,8150,8159,8118,8138,8142,8181,8150,8105,8104,8164,8149,8144,8254,8.817129611968994,False
117,8162,8144,8168,8128,8133,8155,8159,8156,8120,8128,8164,8151,8156,8271,8.825178384780884,False
118,8144,8151,8164,8154,8154,8156,8161,8164,8127,8157,8158,8150,8156,8264,8.83207654953003,False
119,8153,8159,8164,8155,8145,8134,8168,8160,8113,8145,8162,8152,8148,8250,8.840295314788818,False
120,8154,8162,8153,8141,8112,8124,8131,8134,8113,8135,8173,8158,8159,8245,8.848222255706787,False
121,8194,8191,8209,8173,8158,8148,8186,8149,8133,8153,8178,8184,8182,8262,8.866250276565552,False
122,8224,8208,8221,8213,8145,8151,8164,8163,8155,8177,8178,8210,8206,8293,8.899198293685913,False
123,8204,8193,8178,8199,8148,8150,8153,8163,8155,8174,8181,8201,8205,8297,8.90412712097168,False
124,8190,8177,8177,8175,8172,8171,8182,8166,8156,8176,8178,8184,8190,8280,8.910242795944214,False
125,8176,8174,8169,8174,8141,8167,8141,8162,8174,8203,8178,8173,8203,8267,8.91817331314087,False
126,8181,8169,8180,8168,8156,8155,8172,8174,8178,8197,8181,8174,8213,8263,8.919175863265991,False
127,8188,8147,8174,8153,8141,8150,8155,8164,8170,8179,8171,8180,8200,8277,8.935269117355347,False
238,8195,8137,8158,8131,8129,8145,8145,8157,8157,8166,8153,8180,8180,8292,8.936156511306763,False
0,8214,8139,8180,8123,8135,8141,8175,8168,8143,8141,8149,8176,8169,8301,8.942230939865112,False
1,8188,8129,8159,8125,8114,8133,8135,8154,8138,8125,8148,8162,8164,8290,8.9501633644104,False
2,8169,8135,8154,8126,8150,8140,8176,8158,8137,8132,8150,8156,8153,8263,8.958205699920654,False
3,8180,8151,8175,8145,8147,8156,8172,8169,8160,8170,8172,8176,8181,8278,8.969336986541748,False
4,8190,8155,8181,8174,8148,8158,8150,8175,8182,8196,8186,8192,8219,8301,8.984350442886353,False
13,8156,8106,8159,8135,8148,8134,8163,8135,8117,8130,8136,8127,8120,8219,9.010313510894775,False
14,8146,8107,8146,8129,8137,8141,8135,8127,8120,8118,8140,8123,8110,8222,9.013420104980469,False
15,8149,8113,8168,8132,8163,8154,8189,8149,8132,8125,8156,8132,8122,8220,9.022191047668455,False
16,8151,8121,8170,8160,8134,8141,8156,8134,8146,8153,8170,8157,8149,8242,9.02929139137268,False
17,8157,8122,8161,8166,8143,8147,8148,8129,8159,8172,8175,8172,8168,8272,9.040287256240845,False
18,8168,8105,8174,8142,8176,8171,8194,8142,8158,8143,8168,8161,8161,8264,9.0523202419281,False
19,8153,8095,8159,8133,8147,8168,8158,8126,8156,8134,8163,8145,8157,8252,9.055326223373411,False
20,8140,8093,8134,8134,8106,8162,8106,8112,8168,8168,8168,8157,8179,8266,9.090304851531982,False
21,8142,8099,8121,8138,8094,8161,8097,8118,8186,8183,8166,8170,8199,8285,9.093340873718262,False
22,8160,8110,8160,8152,8154,8160,8194,8147,8181,8161,8156,8159,8181,8278,9.111105680465698,False
23,8153,8090,8166,8155,8137,8158,8176,8149,8174,8164,8162,8158,8171,8263,9.116286277770996,False
24,8116,8067,8118,8144,8112,8155,8112,8134,8175,8173,8165,8161,8178,8249,9.125383377075195,False
25,8128,8087,8165,8139,8209,8164,8247,8154,8153,8142,8145,8150,8144,8220,9.131350994110107,False
26,8132,8094,8185,8144,8187,8167,8225,8141,8150,8144,8144,8133,8125,8215,9.155309200286863,False
27,8110,8095,8132,8152,8112,8161,8094,8120,8181,8180,8171,8151,8171,8255,9.156019449234009,False
28,8136,8113,8160,8166,8149,8170,8145,8148,8195,8188,8181,8189,8208,8296,9.163320302963257,False
29,8160,8102,8193,8166,8178,8185,8199,8161,8192,8177,8164,8184,8192,8286,9.1713445186615,False
30,8153,8082,8166,8150,8166,8186,8177,8155,8193,8177,8154,8164,8166,8260,9.179363250732422,False
31,8130,8081,8125,8145,8129,8167,8111,8138,8190,8180,8155,8167,8170,8265,9.18710207939148,False
32,8142,8102,8154,8160,8165,8170,8162,8143,8176,8169,8157,8167,8174,8263,9.19933819770813,False
33,8166,8112,8189,8172,8186,8187,8199,8159,8180,8182,8166,8156,8176,8252,9.207322120666504,False
34,8127,8087,8136,8170,8148,8187,8130,8152,8199,8200,8168,8157,8192,8268,9.218106031417848,False
35,8142,8092,8176,8169,8212,8184,8233,8178,8186,8183,8165,8173,8191,8287,9.219979524612429,False
36,8172,8110,8218,8172,8190,8174,8217,8172,8178,8187,8166,8173,8188,8276,9.226040840148926,False
37,8135,8098,8149,8163,8136,8169,8107,8147,8194,8207,8156,8149,8188,8246,9.235137462615969,False
38,8135,8090,8157,8145,8195,8180,8198,8167,8184,8187,8152,8136,8170,8235,9.243089199066162,False
39,8134,8078,8173,8128,8169,8177,8184,8161,8170,8172,8159,8142,8165,8243,9.256999492645264,False
40,8104,8052,8140,8120,8131,8167,8116,8151,8178,8185,8159,8146,8166,8238,9.2650887966156,False
41,8107,8046,8135,8123,8146,8178,8140,8159,8190,8186,8159,8158,8161,8235,9.265901565551758,False
42,8151,8077,8171,8135,8189,8198,8208,8170,8188,8164,8163,8173,8157,8256,9.27709674835205,False
43,8191,8102,8209,8154,8206,8204,8232,8170,8175,8151,8155,8171,8153,8271,9.282058000564575,False
44,8165,8099,8172,8171,8150,8189,8143,8148,8179,8165,8149,8160,8156,8270,9.29132318496704,False
45,8144,8093,8143,8169,8165,8178,8137,8144,8181,8171,8151,8161,8157,8268,9.299266576766968,False
46,8152,8095,8139,8159,8172,8181,8136,8141,8170,8169,8160,8159,8165,8269,9.310068130493164,False
47,8152,8104,8139,8160,8177,8183,8155,8153,8175,8184,8169,8148,8169,8269,9.316291332244871,False
48,8173,8102,8201,8163,8224,8187,8258,8192,8183,8185,8165,8160,8155,8270,9.321184396743774,False
49,8173,8084,8198,8160,8164,8189,8185,8182,8188,8167,8167,8173,8166,8283,9.329306602478027,False
50,8177,8095,8178,8156,8161,8189,8156,8179,8187,8170,8175,8169,8185,8294,9.338212251663208,False
51,8197,8107,8197,8161,8199,8187,8191,8188,8189,8197,8174,8180,8189,8301,9.347371578216553,False
52,8174,8096,8167,8173,8175,8185,8149,8170,8196,8203,8164,8180,8193,8302,9.362201690673828,False
53,8176,8108,8177,8185,8199,8202,8190,8185,8203,8187,8162,8172,8195,8297,9.370347499847412,False
54,8184,8121,8190,8193,8181,8205,8169,8185,8220,8198,8177,8184,8200,8303,9.376314163208008,False
55,8172,8116,8181,8200,8176,8197,8157,8174,8216,8202,8179,8195,8197,8294,9.383038759231567,False
56,8193,8125,8203,8226,8190,8190,8177,8179,8194,8182,8182,8208,8192,8289,9.39107060432434,False
57,8219,8152,8219,8271,8174,8190,8143,8175,8192,8179,8196,8239,8205,8319,9.399259567260742,False
58,8242,8167,8251,8302,8196,8188,8180,8178,8195,8181,8206,8270,8216,8326,9.4081449508667,False
59,8237,8159,8248,8319,8173,8169,8152,8160,8184,8183,8198,8273,8227,8303,9.419282913208008,False
60,8223,8158,8231,8336,8171,8169,8142,8155,8171,8166,8189,8269,8234,8299,9.423178911209106,False
61,8234,8166,8243,8336,8180,8172,8178,8169,8177,8153,8197,8280,8233,8319,9.43118953704834,False
62,8224,8156,8212,8319,8156,8151,8140,8159,8191,8182,8191,8278,8237,8329,9.442364931106567,False
63,8221,8146,8203,8298,8193,8153,8174,8158,8171,8192,8167,8251,8226,8318,9.446224451065063,False
64,8218,8142,8198,8275,8182,8176,8164,8156,8153,8173,8160,8224,8214,8322,9.454057216644289,False
65,8199,8141,8164,8257,8173,8189,8153,8173,8175,8178,8161,8206,8210,8324,9.46210479736328,False
66,8188,8130,8156,8233,8192,8204,8195,8198,8195,8193,8147,8189,8196,8299,9.470246076583862,False
67,8172,8111,8141,8220,8173,8207,8163,8191,8195,8177,8141,8174,8183,8281,9.479217290878296,False
68,8192,8123,8164,8234,8208,8195,8186,8198,8187,8156,8156,8175,8178,8294,9.486185312271118,False
69,8200,8135,8174,8243,8191,8179,8161,8175,8181,8172,8167,8183,8185,8303,9.494312763214111,False
70,8178,8126,8153,8241,8171,8168,8125,8128,8171,8189,8161,8181,8187,8290,9.505242347717283,False
71,8201,8126,8177,8246,8210,8169,8167,8125,8166,8185,8155,8187,8188,8295,9.509347200393677,False
72,8203,8130,8166,8240,8190,8173,8129,8131,8184,8192,8156,8190,8196,8310,9.521444082260132,False
73,8175,8126,8140,8212,8205,8176,8154,8147,8187,8187,8142,8157,8168,8276,9.525360345840454,False
74,8148,8094,8122,8182,8202,8174,8174,8150,8168,8162,8117,8117,8117,8223,9.533344984054564,False
75,8123,8068,8103,8162,8172,8167,8153,8139,8150,8139,8114,8113,8102,8218,9.544304132461548,False
76,8122,8075,8127,8153,8187,8165,8188,8139,8136,8125,8132,8118,8099,8226,9.55220913887024,False
77,8114,8080,8127,8166,8170,8168,8150,8120,8129,8133,8140,8110,8103,8224,9.559320449829102,False
78,8129,8089,8145,8175,8193,8184,8169,8138,8129,8140,8151,8130,8134,8242,9.566327095031738,False
79,8144,8097,8160,8170,8201,8189,8180,8165,8149,8149,8167,8149,8156,8261,9.57719612121582,False
80,8125,8086,8129,8167,8178,8189,8141,8167,8176,8159,8158,8129,8138,8241,9.584384202957152,False
81,8137,8078,8150,8172,8206,8205,8193,8188,8183,8158,8151,8117,8119,8216,9.595184803009031,False
82,8140,8085,8153,8174,8191,8212,8174,8183,8190,8167,8164,8128,8141,8234,9.596145629882812,False
83,8123,8086,8134,8163,8198,8209,8174,8175,8201,8172,8160,8124,8149,8241,9.613144397735596,False
84,8124,8069,8148,8150,8203,8199,8180,8170,8195,8158,8149,8112,8128,8230,9.616230010986328,False
85,8130,8064,8148,8154,8187,8187,8140,8151,8182,8147,8151,8120,8124,8238,9.62214422225952,False
86,8151,8082,8164,8161,8216,8184,8178,8155,8159,8140,8147,8136,8112,8233,9.630346298217772,False
87,8143,8084,8147,8162,8188,8166,8140,8148,8143,8127,8133,8130,8089,8219,9.636473417282104,False
88,8133,8079,8132,8154,8187,8154,8140,8157,8142,8110,8130,8119,8083,8221,9.644213914871216,False
89,8146,8075,8157,8149,8208,8167,8184,8174,8148,8121,8149,8136,8104,8224,9.65212893486023,False
90,8126,8066,8145,8153,8197,8172,8150,8168,8164,8155,8160,8144,8124,8226,9.660038948059082,False
91,8119,8067,8154,8153,8226,8168,8179,8182,8164,8161,8147,8129,8118,8235,9.668222665786743,False
92,8117,8057,8148,8138,8192,8167,8159,8178,8159,8149,8142,8119,8110,8227,9.679157733917236,False
93,8102,8045,8128,8123,8184,8167,8153,8170,8161,8132,8147,8112,8099,8201,9.686103343963625,False
94,8114,8057,8151,8130,8214,8172,8188,8181,8174,8134,8148,8112,8096,8202,9.69119668006897,False
95,8107,8068,8136,8139,8195,8178,8151,8178,8191,8158,8153,8116,8115,8222,9.69918179512024,False
96,8105,8070,8143,8140,8217,8179,8181,8178,8177,8141,8164,8115,8120,8210,9.72026824951172,False
97,8116,8066,8158,8144,8202,8165,8155,8160,8149,8118,8164,8123,8120,8207,9.723148345947266,False
98,8122,8067,8145,8140,8192,8158,8128,8153,8145,8141,8160,8137,8124,8229,9.73721981048584,False
99,8143,8075,8167,8140,8223,8166,8184,8172,8152,8163,8173,8150,8132,8229,9.737996339797974,False
108,8163,8106,8165,8177,8218,8180,8141,8166,8186,8165,8173,8157,8187,8241,9.75911831855774,False
109,8165,8111,8177,8167,8234,8175,8175,8156,8150,8157,8164,8148,8174,8233,9.762097358703612,False
110,8161,8114,8171,8174,8222,8170,8146,8151,8136,8153,8159,8152,8164,8247,9.770149946212769,False
111,8150,8115,8160,8184,8240,8165,8156,8155,8133,8145,8158,8155,8161,8246,9.78617000579834,False
112,8160,8106,8170,8172,8230,8159,8167,8141,8109,8143,8154,8143,8148,8229,9.78717565536499,False
113,8148,8100,8148,8164,8204,8157,8132,8135,8107,8149,8152,8128,8135,8226,9.793119668960571,False
114,8144,8109,8162,8171,8248,8170,8186,8176,8128,8161,8162,8133,8143,8222,9.802201986312866,False
115,8137,8099,8162,8171,8227,8165,8154,8174,8142,8190,8168,8142,8170,8221,9.810308694839478,False
116,8145,8087,8159,8160,8223,8157,8150,8167,8145,8183,8157,8142,8164,8233,9.817284345626833,False
117,8171,8098,8182,8163,8236,8167,8180,8179,8162,8161,8156,8153,8152,8246,9.825191259384155,False
118,8165,8111,8168,8181,8223,8174,8147,8174,8176,8184,8168,8163,8180,8257,9.836506128311155,False
119,8166,8118,8177,8188,8257,8174,8179,8183,8170,8203,8165,8166,8192,8261,9.840165376663208,False
120,8169,8114,8177,8174,8237,8160,8145,8178,8177,8196,8162,8169,8186,8279,9.848196506500244,False
121,8173,8114,8172,8172,8230,8151,8143,8167,8176,8186,8167,8172,8187,8296,9.856337308883669,False
122,8191,8123,8191,8193,8239,8148,8171,8159,8148,8178,8162,8172,8181,8281,9.864150524139404,False
123,8175,8127,8168,8199,8217,8141,8123,8141,8134,8174,8151,8163,8167,8251,9.872296571731567,False
124,8174,8124,8173,8189,8245,8142,8163,8155,8137,8161,8149,8154,8156,8239,9.883437871932983,False
125,8176,8111,8172,8189,8222,8135,8160,8155,8140,8146,8156,8154,8168,8251,9.888176679611206,False
126,8166,8103,8156,8188,8219,8142,8154,8160,8144,8153,8161,8154,8182,8258,9.896289587020874,False
127,8184,8103,8173,8172,8247,8166,8191,8185,8156,8166,8162,8155,8176,8263,9.917070627212524,False
238,8176,8093,8156,8156,8217,8162,8146,8173,8166,8173,8158,8150,8177,8268,9.929316997528076,False
0,8173,8100,8165,8170,8242,8146,8169,8174,8165,8178,8157,8150,8194,8263,9.937344551086426,False
1,8182,8109,8182,8188,8240,8154,8167,8170,8171,8195,8166,8159,8216,8274,9.94422721862793,False
2,8174,8106,8167,8172,8227,8158,8153,8154,8173,8197,8168,8152,8215,8292,9.95137858390808,False
3,8184,8106,8177,8166,8251,8148,8184,8159,8159,8184,8166,8151,8202,8286,9.960287809371948,False
4,8174,8102,8161,8186,8231,8151,8144,8157,8168,8190,8161,8162,8210,8279,9.967230558395386,False
5,8166,8100,8159,8181,8250,8165,8173,8169,8181,8199,8160,8163,8215,8276,9.97817349433899,False
6,8168,8098,8162,8174,8244,8165,8173,8172,8181,8201,8165,8165,8222,8277,9.982264280319214,False
7,8165,8105,8150,8183,8233,8167,8142,8175,8188,8198,8161,8175,8226,8284,9.990117073059082,False
8,8187,8113,8186,8174,8269,8179,8197,8189,8188,8195,8156,8181,8214,8296,9.99825668334961,False
9,8185,8101,8177,8167,8233,8170,8150,8170,8191,8204,8163,8176,8217,8299,10.006181001663208,False
10,8159,8089,8127,8177,8212,8161,8096,8159,8196,8202,8155,8161,8216,8275,10.014434814453123,False
11,8160,8091,8133,8166,8247,8163,8155,8167,8172,8178,8139,8148,8190,8253,10.022247552871704,False
12,8168,8103,8159,8162,8263,8161,8200,8158,8142,8151,8142,8145,8178,8262,10.030312061309814,False
13,8170,8112,8168,8182,8249,8160,8167,8148,8137,8141,8142,8144,8174,8264,10.037307739257812,False
14,8168,8107,8158,8182,8225,8155,8110,8143,8140,8142,8138,8138,8166,8251,10.045279026031494,False
15,8182,8107,8172,8177,8253,8155,8156,8148,8133,8149,8151,8142,8171,8258,10.054361343383787,False
16,8178,8104,8174,8184,8247,8158,8156,8141,8145,8175,8169,8158,8198,8284,10.068167448043823,False
17,8159,8101,8155,8179,8238,8164,8132,8148,8169,8195,8167,8168,8216,8294,10.076313734054564,False
18,8176,8107,8178,8165,8274,8177,8209,8176,8171,8191,8162,8173,8211,8281,10.077123165130615,False
19,8156,8088,8148,8147,8219,8173,8148,8157,8174,8197,8167,8167,8207,8282,10.088086366653442,False
20,8126,8065,8120,8128,8215,8161,8126,8148,8165,8179,8154,8148,8187,8282,10.107272148132324,False
21,8147,8077,8171,8135,8265,8157,8200,8164,8144,8138,8136,8141,8166,8267,10.11924147605896,False
22,8149,8098,8172,8163,8232,8159,8154,8157,8153,8148,8146,8156,8180,8260,10.126325845718384,False
23,8148,8108,8158,8168,8223,8165,8136,8165,8158,8170,8159,8165,8188,8268,10.132232189178469,False
24,8146,8100,8151,8166,8223,8164,8138,8159,8153,8171,8154,8154,8183,8270,10.140376091003418,False
25,8152,8096,8176,8163,8275,8170,8215,8162,8151,8172,8153,8148,8179,8257,10.148324489593506,False
26,8157,8098,8188,8164,8256,8168,8195,8165,8155,8174,8170,8165,8193,8270,10.157314538955688,False
27,8152,8102,8140,8176,8189,8155,8080,8141,8156,8171,8169,8170,8211,8292,10.164360284805298,True
28,8195,8117,8176,8176,8263,8163,8188,8154,8136,8152,8149,8158,8185,8280,10.17128038406372,True
29,8185,8106,8180,8155,8235,8163,8175,8153,8136,8133,8148,8153,8162,8263,10.179243564605711,True
30,8137,8081,8133,8134,8200,8146,8112,8150,8145,8127,8152,8141,8163,8264,10.196210861206056,True
30,8137,8081,8133,8134,8200,8146,8112,8150,8145,8127,8152,8141,8163,8264,10.210307359695436,True
31,8144,8070,8159,8119,8250,8138,8197,8170,8135,8133,8141,8125,8146,8257,10.212178945541382,True
32,8120,8063,8147,8111,8211,8138,8166,8153,8124,8136,8133,8114,8122,8232,10.220259666442873,True
33,8108,8069,8147,8118,8214,8154,8159,8153,8125,8128,8150,8119,8126,8214,10.227192640304564,True
34,8148,8089,8181,8141,8240,8170,8181,8168,8142,8139,8167,8141,8159,8241,10.23524785041809,True
35,8159,8107,8167,8160,8212,8167,8144,8162,8158,8154,8161,8149,8179,8272,10.24323296546936,True
36,8147,8098,8152,8154,8204,8164,8141,8161,8155,8162,8154,8145,8172,8260,10.258234977722168,True
37,8165,8088,8169,8155,8230,8173,8164,8165,8156,8166,8169,8157,8179,8256,10.264191389083862,True
38,8194,8118,8197,8181,8244,8189,8181,8173,8175,8159,8183,8178,8195,8275,10.266320943832396,True
39,8186,8132,8189,8201,8213,8191,8148,8166,8184,8173,8183,8180,8202,8280,10.274230241775513,True
40,8181,8117,8179,8192,8236,8182,8165,8165,8182,8199,8173,8171,8203,8282,10.288337469100952,True
40,8181,8117,8179,8192,8236,8182,8165,8165,8182,8199,8173,8171,8203,8282,10.30027985572815,True
41,8209,8121,8197,8171,8256,8186,8190,8173,8184,8194,8172,8182,8210,8307,10.301031112670898,True
42,8211,8123,8177,8158,8196,8192,8113,8156,8200,8200,8189,8204,8241,8339,10.307276964187622,True
51,8176,8152,8204,8217,8230,8195,8176,8149,8182,8210,8189,8219,8239,8300,10.323285579681396,True
52,8220,8183,8221,8256,8226,8209,8152,8134,8186,8225,8199,8240,8265,8340,10.332320928573608,True
53,8250,8187,8230,8270,8231,8223,8151,8139,8184,8209,8194,8241,8272,8362,10.343200922012327,True
54,8274,8183,8240,8250,8237,8212,8180,8150,8183,8208,8192,8243,8276,8367,10.347092390060425,True
55,8272,8192,8213,8235,8199,8195,8141,8140,8195,8234,8192,8250,8290,8385,10.353180646896362,True
56,8273,8185,8217,8226,8224,8204,8180,8156,8197,8230,8180,8242,8276,8383,10.361141443252563,True
57,8240,8146,8185,8210,8228,8207,8166,8154,8188,8201,8169,8210,8249,8349,10.372225999832152,True
58,8184,8123,8126,8177,8231,8187,8145,8139,8170,8178,8150,8167,8210,8304,10.377121210098268,True
59,8169,8113,8138,8157,8230,8173,8167,8136,8149,8157,8136,8146,8167,8274,10.386151552200316,True
60,8155,8096,8143,8160,8206,8173,8135,8132,8142,8136,8147,8145,8159,8270,10.395091772079468,True
61,8152,8091,8140,8155,8239,8179,8173,8151,8139,8127,8152,8140,8157,8259,10.401365995407104,True
62,8141,8087,8132,8147,8211,8170,8158,8143,8132,8140,8149,8135,8142,8242,10.408298254013062,True
63,8132,8097,8145,8161,8201,8159,8136,8125,8118,8146,8161,8148,8148,8252,10.416359424591064,True
64,8171,8120,8194,8183,8234,8163,8176,8129,8104,8134,8174,8177,8167,8284,10.427366018295288,True
65,8202,8123,8188,8192,8201,8173,8139,8118,8121,8141,8177,8201,8185,8317,10.432290315628052,True
66,8220,8132,8193,8193,8220,8182,8159,8135,8143,8166,8186,8221,8206,8341,10.450201272964478,False
67,8207,8143,8199,8198,8221,8179,8159,8150,8154,8185,8200,8225,8233,8345,10.455294847488403,False
68,8179,8141,8176,8209,8198,8175,8154,8157,8168,8194,8193,8214,8242,8334,10.474332571029665,False
69,8201,8136,8190,8208,8217,8188,8206,8183,8179,8189,8178,8216,8228,8338,10.482163429260254,False
70,8209,8127,8174,8189,8202,8190,8164,8185,8183,8192,8178,8220,8229,8350,10.489322423934937,False
71,8197,8123,8165,8171,8209,8188,8183,8194,8191,8199,8177,8208,8239,8335,10.495115518569946,False
72,8192,8117,8173,8159,8198,8191,8197,8203,8213,8208,8178,8196,8249,8326,10.504433155059814,False
73,8184,8123,8158,8175,8185,8187,8160,8200,8231,8221,8181,8193,8253,8332,10.516323566436768,False
74,8197,8142,8180,8209,8206,8184,8181,8208,8230,8229,8183,8201,8244,8331,10.5183744430542,False
75,8197,8142,8182,8214,8174,8183,8148,8199,8232,8235,8183,8203,8240,8328,10.526346683502195,False
76,8191,8138,8177,8199,8188,8179,8168,8194,8222,8220,8175,8184,8228,8311,10.53832483291626,False
77,8183,8139,8170,8202,8179,8168,8160,8169,8188,8194,8168,8171,8213,8297,10.542356491088867,False
78,8159,8134,8140,8205,8144,8170,8120,8147,8172,8198,8167,8173,8217,8297,10.556319236755373,False
79,8163,8117,8169,8185,8178,8187,8194,8175,8182,8207,8171,8173,8219,8288,10.558292865753174,False
80,8163,8097,8168,8168,8151,8183,8168,8173,8190,8204,8167,8170,8217,8281,10.566301345825195,False
81,8158,8100,8141,8163,8135,8173,8142,8161,8173,8184,8155,8169,8206,8283,10.580356359481812,False
82,8178,8109,8169,8161,8162,8177,8196,8184,8169,8190,8163,8176,8199,8285,10.580987691879272,False
83,8183,8104,8171,8163,8134,8176,8157,8188,8192,8224,8176,8181,8214,8301,10.593323707580566,False
84,8182,8100,8142,8157,8112,8168,8120,8173,8188,8198,8165,8174,8205,8312,10.599300622940063,False
85,8188,8087,8138,8142,8122,8162,8147,8167,8169,8154,8150,8168,8175,8300,10.606470108032228,False
86,8191,8077,8157,8128,8141,8174,8175,8180,8166,8167,8159,8172,8172,8291,10.624279499053957,False
87,8180,8083,8153,8130,8114,8185,8130,8175,8167,8183,8170,8174,8183,8298,10.633360862731934,False
88,8163,8085,8139,8146,8117,8171,8137,8164,8163,8159,8163,8168,8171,8290,10.658332109451294,False
89,8177,8087,8184,8155,8182,8170,8251,8185,8159,8149,8161,8173,8160,8267,10.660300254821776,False
90,8165,8088,8173,8161,8116,8177,8167,8176,8180,8185,8176,8184,8183,8275,10.677353620529177,False
91,8154,8092,8136,8177,8090,8179,8117,8179,8201,8192,8179,8184,8191,8292,10.68514347076416,False
91,8154,8092,8136,8177,8090,8179,8117,8179,8201,8192,8179,8184,8191,8292,10.695113897323608,False
92,8198,8101,8177,8190,8151,8183,8211,8201,8188,8164,8174,8185,8185,8293,10.696156978607178,False
93,8195,8100,8168,8187,8113,8184,8154,8168,8175,8169,8176,8189,8198,8295,10.70110297203064,False
94,8178,8100,8157,8179,8117,8189,8158,8155,8163,8175,8174,8186,8189,8290,10.70813250541687,False
95,8183,8092,8171,8169,8114,8184,8178,8153,8145,8155,8170,8179,8180,8280,10.715182304382324,False
96,8176,8085,8156,8160,8085,8176,8140,8144,8149,8160,8166,8180,8195,8287,10.723190546035768,False
97,8185,8088,8167,8161,8112,8186,8169,8161,8165,8189,8168,8189,8195,8300,10.731091499328612,False
98,8188,8083,8173,8156,8106,8199,8161,8169,8177,8186,8171,8183,8193,8299,10.739178657531738,False
99,8181,8074,8159,8134,8089,8191,8147,8178,8182,8163,8169,8173,8196,8286,10.747149229049684,False
100,8167,8060,8133,8112,8079,8170,8138,8180,8178,8167,8162,8162,8175,8269,10.761333227157593,False
101,8152,8051,8135,8108,8103,8169,8173,8183,8172,8175,8160,8145,8154,8250,10.76234245300293,False
102,8155,8053,8160,8120,8105,8185,8193,8185,8174,8162,8169,8148,8164,8251,10.77419662475586,False
103,8144,8055,8131,8131,8059,8170,8117,8155,8173,8157,8172,8162,8181,8269,10.78002905845642,False
104,8165,8068,8161,8140,8119,8152,8181,8155,8145,8157,8174,8165,8169,8271,10.788355350494385,False
105,8211,8085,8224,8162,8142,8157,8225,8162,8130,8162,8191,8186,8182,8283,10.797286748886108,False
106,8202,8091,8190,8180,8074,8146,8132,8136,8138,8173,8189,8204,8211,8305,10.80524516105652,False
107,8184,8083,8165,8169,8077,8129,8137,8130,8126,8171,8173,8186,8192,8293,10.810426712036133,False
108,8182,8071,8162,8159,8087,8141,8148,8137,8129,8184,8178,8176,8194,8287,10.818426847457886,False
109,8201,8087,8192,8179,8127,8165,8200,8176,8157,8196,8194,8199,8225,8312,10.82641339302063,False
110,8212,8095,8210,8194,8110,8155,8189,8188,8171,8192,8195,8214,8232,8326,10.833364963531494,False
111,8185,8071,8165,8179,8061,8131,8112,8160,8174,8202,8186,8206,8228,8309,10.842344284057615,False
112,8185,8066,8172,8158,8100,8136,8177,8167,8162,8205,8176,8189,8217,8280,10.863250255584717,False
113,8172,8066,8166,8152,8075,8142,8160,8159,8146,8187,8167,8174,8201,8270,10.867100954055786,False
122,8165,8079,8162,8170,8101,8163,8179,8176,8169,8202,8179,8197,8219,8290,10.882264137268066,False
123,8172,8068,8166,8167,8090,8154,8169,8165,8157,8183,8166,8184,8207,8297,10.889205694198608,False
124,8169,8057,8147,8145,8071,8161,8147,8168,8165,8174,8155,8172,8200,8314,10.896194696426392,False
125,8177,8058,8164,8133,8100,8157,8187,8181,8178,8186,8161,8173,8195,8294,10.90835165977478,False
126,8158,8063,8152,8149,8084,8142,8156,8174,8197,8208,8172,8168,8200,8274,10.912039518356323,False
127,8131,8051,8133,8140,8084,8165,8185,8184,8186,8192,8154,8142,8169,8252,10.924150705337524,False
238,8124,8028,8137,8115,8099,8181,8183,8183,8168,8158,8141,8126,8133,8223,10.92914891242981,False
0,8134,8044,8151,8133,8169,8162,8158,8189,8189,8171,8162,8138,8150,8224,10.936060667037964,False
1,8147,8073,8159,8153,8236,8154,8183,8208,8190,8180,8167,8141,8158,8228,10.944242477416992,False
2,8121,8067,8120,8144,8202,8161,8146,8183,8150,8151,8148,8109,8131,8197,10.95215106010437,False
3,8125,8066,8140,8151,8216,8167,8175,8190,8143,8150,8154,8110,8130,8194,10.980287551879885,False
4,8145,8075,8168,8165,8221,8168,8179,8213,8178,8196,8176,8147,8164,8236,10.986181020736694,False
5,8132,8081,8142,8164,8216,8167,8161,8207,8181,8208,8176,8154,8180,8248,10.992327451705933,True
6,8145,8097,8163,8174,8239,8175,8197,8202,8158,8182,8170,8151,8177,8238,11.02043604850769,True
7,8155,8104,8166,8183,8199,8174,8154,8184,8158,8184,8177,8163,8191,8260,11.022079706192017,True
8,8157,8095,8158,8179,8207,8166,8172,8192,8162,8198,8190,8177,8202,8285,11.030318975448608,True
9,8167,8100,8175,8191,8222,8165,8179,8199,8162,8209,8199,8193,8218,8298,11.038257837295532,True
10,8175,8117,8170,8206,8211,8176,8142,8174,8161,8207,8191,8196,8234,8305,11.046307802200316,True
11,8187,8106,8172,8186,8222,8175,8176,8149,8141,8189,8177,8181,8217,8299,11.055291652679443,True
12,8167,8071,8153,8151,8179,8148,8138,8125,8128,8194,8178,8177,8206,8307,11.062193393707275,True
13,8151,8065,8148,8127,8192,8143,8149,8140,8126,8187,8174,8173,8199,8300,11.070194005966188,True
14,8153,8071,8156,8127,8211,8160,8176,8160,8128,8160,8156,8153,8176,8258,11.077224969863892,True
15,8144,8068,8132,8144,8185,8158,8144,8161,8136,8166,8147,8140,8160,8235,11.085118055343628,True
16,8152,8075,8151,8141,8205,8151,8186,8182,8142,8166,8161,8150,8157,8245,11.10224151611328,True
17,8142,8076,8150,8135,8181,8158,8168,8178,8149,8150,8167,8147,8159,8247,11.10304355621338,True
18,8127,8077,8131,8150,8183,8174,8166,8172,8144,8147,8156,8131,8145,8222,11.1141357421875,True
19,8144,8088,8149,8153,8198,8188,8189,8179,8136,8150,8161,8135,8144,8218,11.117058753967283,True
20,8150,8092,8152,8146,8174,8200,8157,8180,8152,8159,8176,8151,8168,8250,11.126071691513062,True
21,8162,8093,8175,8157,8200,8209,8197,8193,8163,8162,8174,8168,8171,8268,11.134172916412354,True
