COUNTER,F3, FC5,AF3,F7,T7,P7,O1,O2,P8,T8,F8,AF4,FC6,F4,Timestamp,yes_event
111,8180,8180,8110,8199,8105,8138,8174,8183,8196,8199,8135,8164,8240,8309,0.0039231777191162,False
112,8191,8213,8193,8206,8199,8147,8183,8211,8209,8202,8138,8185,8234,8310,0.0109484195709228,False
113,8162,8175,8139,8156,8156,8141,8180,8186,8199,8200,8121,8155,8223,8284,0.0189990997314453,False
114,8139,8167,8155,8140,8174,8140,8173,8171,8177,8190,8083,8153,8191,8256,0.0269496440887451,False
115,8155,8196,8236,8175,8201,8152,8170,8179,8170,8179,8077,8191,8183,8261,0.0350592136383056,False
116,8144,8169,8109,8190,8110,8150,8172,8142,8188,8179,8109,8164,8218,8282,0.043036937713623,False
117,8163,8181,8117,8189,8137,8150,8167,8146,8186,8180,8122,8165,8221,8292,0.0509383678436279,False
118,8192,8209,8174,8202,8144,8160,8176,8164,8170,8181,8134,8184,8214,8298,0.0590910911560058,False
119,8200,8214,8178,8221,8148,8159,8174,8158,8161,8177,8140,8180,8230,8292,0.0671343803405761,False
120,8208,8214,8195,8230,8176,8149,8158,8151,8147,8167,8125,8176,8233,8291,0.0739376544952392,False
121,8208,8215,8177,8219,8164,8136,8162,8143,8136,8162,8119,8179,8225,8314,0.0820925235748291,False
122,8203,8211,8168,8201,8148,8128,8170,8146,8142,8166,8124,8186,8232,8327,0.0901679992675781,False
123,8185,8189,8100,8191,8111,8126,8168,8132,8159,8184,8131,8167,8249,8324,0.098168134689331,False
124,8209,8219,8173,8196,8198,8134,8156,8153,8162,8191,8122,8184,8238,8321,0.1061952114105224,False
125,8239,8250,8307,8190,8267,8157,8166,8206,8179,8185,8109,8212,8225,8323,0.114126443862915,False
126,8182,8197,8176,8155,8149,8174,8201,8188,8219,8200,8098,8160,8220,8309,0.1221928596496582,False
127,8119,8154,8042,8139,8092,8167,8201,8150,8219,8200,8076,8111,8194,8262,0.1301450729370117,False
237,8115,8165,8076,8151,8135,8164,8179,8163,8205,8181,8072,8108,8175,8222,0.1381669044494629,False
0,8148,8201,8175,8163,8184,8186,8182,8199,8215,8180,8071,8133,8163,8213,0.1461915969848632,False
1,8160,8201,8164,8174,8156,8191,8185,8185,8219,8178,8061,8145,8143,8218,0.1530580520629882,False
2,8141,8180,8098,8183,8139,8174,8182,8152,8209,8170,8071,8140,8154,8230,0.1611609458923339,False
3,8173,8227,8240,8194,8252,8176,8182,8195,8197,8183,8105,8192,8192,8262,0.1691997051239013,False
4,8207,8239,8236,8215,8200,8177,8188,8190,8195,8197,8138,8209,8226,8303,0.1769447326660156,False
5,8201,8215,8116,8218,8124,8161,8188,8138,8191,8177,8139,8176,8223,8318,0.1851923465728759,False
6,8215,8234,8187,8205,8195,8158,8193,8172,8198,8172,8133,8184,8212,8323,0.1931402683258056,False
7,8204,8229,8178,8199,8185,8160,8205,8196,8216,8191,8135,8176,8211,8313,0.2009284496307373,False
8,8177,8211,8142,8191,8173,8154,8186,8176,8201,8186,8120,8165,8190,8281,0.2081680297851562,False
9,8176,8196,8142,8176,8157,8147,8177,8168,8181,8179,8124,8163,8185,8279,0.2161638736724853,False
10,8174,8196,8141,8174,8153,8151,8188,8183,8185,8176,8127,8158,8190,8282,0.2242772579193115,False
11,8165,8213,8177,8176,8182,8165,8188,8200,8186,8168,8109,8164,8170,8254,0.2322709560394287,False
12,8146,8199,8137,8173,8161,8174,8201,8191,8198,8178,8129,8156,8181,8263,0.2401561737060547,False
13,8158,8201,8175,8181,8208,8185,8207,8203,8210,8190,8160,8176,8215,8305,0.2481718063354492,False
14,8179,8203,8180,8192,8177,8179,8198,8196,8219,8204,8166,8188,8231,8316,0.2560963630676269,False
15,8178,8211,8148,8192,8152,8167,8187,8182,8242,8227,8166,8176,8236,8302,0.2642011642456054,False
16,8192,8236,8247,8191,8231,8183,8185,8217,8254,8225,8167,8196,8234,8297,0.2720143795013428,False
17,8192,8214,8178,8202,8157,8194,8208,8204,8268,8226,8180,8182,8259,8314,0.279144287109375,False
18,8211,8232,8165,8223,8172,8198,8212,8192,8270,8242,8182,8181,8269,8319,0.2871410846710205,False
19,8234,8261,8244,8231,8228,8211,8203,8200,8250,8235,8176,8194,8242,8299,0.2951793670654297,False
20,8204,8230,8162,8213,8160,8201,8202,8159,8226,8206,8159,8162,8214,8282,0.3031110763549804,False
21,8218,8239,8209,8204,8205,8179,8178,8168,8195,8179,8123,8178,8189,8276,0.3111789226531982,False
22,8253,8248,8245,8216,8208,8178,8173,8199,8189,8179,8130,8205,8188,8298,0.3191759586334228,False
23,8233,8226,8150,8210,8129,8180,8190,8183,8200,8182,8144,8186,8195,8317,0.3269665241241455,False
24,8187,8211,8084,8185,8107,8170,8196,8173,8208,8180,8135,8156,8197,8305,0.3351626396179199,False
25,8182,8220,8134,8182,8193,8175,8197,8191,8216,8191,8146,8159,8210,8293,0.3421850204467773,False
26,8208,8231,8233,8195,8250,8184,8190,8206,8202,8194,8151,8182,8202,8291,0.3501496315002441,False
27,8172,8183,8085,8178,8098,8161,8184,8160,8197,8187,8149,8141,8188,8290,0.358259916305542,False
28,8165,8217,8184,8160,8202,8137,8153,8180,8180,8169,8150,8171,8165,8266,0.365945816040039,False
29,8194,8264,8408,8172,8319,8138,8127,8224,8144,8148,8161,8238,8142,8240,0.3741943836212158,False
30,8143,8174,8124,8192,8057,8141,8165,8155,8166,8168,8196,8169,8174,8258,0.3821492195129394,False
31,8134,8158,8002,8208,8015,8141,8190,8138,8200,8197,8222,8146,8213,8285,0.3901557922363281,False
32,8191,8236,8218,8218,8169,8140,8171,8180,8189,8190,8224,8206,8208,8272,0.3981671333312988,False
33,8218,8261,8240,8248,8158,8139,8164,8167,8177,8182,8232,8218,8208,8260,0.4061677455902099,False
34,8240,8259,8186,8283,8140,8146,8171,8158,8180,8194,8259,8222,8234,8294,0.4130887985229492,False
35,8254,8263,8221,8283,8179,8146,8153,8153,8162,8177,8258,8236,8230,8324,0.4211840629577636,False
36,8247,8264,8247,8261,8187,8135,8118,8138,8123,8137,8214,8233,8184,8309,0.429079532623291,False
37,8223,8228,8140,8246,8123,8129,8123,8122,8122,8135,8200,8194,8178,8305,0.4372336864471435,False
38,8208,8217,8123,8226,8168,8137,8144,8139,8134,8150,8193,8176,8181,8312,0.4451556205749511,False
39,8198,8225,8197,8200,8208,8147,8150,8168,8129,8152,8172,8187,8157,8304,0.4529309272766113,False
40,8171,8195,8119,8185,8108,8144,8159,8163,8143,8159,8174,8162,8166,8299,0.4610824584960937,False
41,8165,8191,8140,8161,8145,8144,8163,8181,8160,8168,8160,8155,8169,8285,0.4689822196960449,False
42,8160,8191,8181,8138,8181,8153,8173,8196,8177,8182,8138,8157,8153,8281,0.4758520126342773,False
43,8133,8177,8119,8133,8149,8158,8181,8175,8194,8191,8130,8136,8146,8272,0.4840924739837646,False
44,8136,8181,8154,8131,8180,8168,8174,8181,8182,8183,8119,8139,8140,8244,0.4920992851257324,False
45,8146,8167,8113,8133,8135,8171,8188,8184,8194,8188,8135,8132,8163,8259,0.5001471042633057,False
46,8177,8206,8180,8160,8188,8157,8175,8205,8207,8192,8142,8162,8172,8292,0.508075475692749,False
47,8210,8245,8267,8192,8223,8143,8139,8201,8186,8189,8132,8196,8162,8298,0.515960693359375,False
48,8204,8219,8141,8191,8141,8143,8136,8139,8168,8185,8140,8174,8175,8311,0.5240597724914551,False
49,8219,8232,8141,8199,8164,8150,8141,8132,8164,8171,8143,8180,8177,8326,0.5319876670837402,False
50,8232,8268,8187,8240,8179,8159,8148,8152,8171,8177,8153,8188,8182,8320,0.5389986038208008,False
51,8229,8281,8196,8254,8196,8172,8164,8169,8172,8193,8165,8186,8199,8310,0.5469763278961182,False
52,8208,8249,8178,8222,8179,8176,8184,8183,8166,8180,8150,8176,8192,8301,0.5549564361572266,False
53,8183,8237,8148,8210,8150,8178,8211,8202,8181,8176,8127,8157,8180,8283,0.5629992485046387,False
54,8221,8282,8243,8222,8215,8194,8220,8244,8203,8200,8130,8186,8195,8279,0.5720565319061279,False
55,8224,8244,8177,8198,8157,8196,8224,8213,8220,8218,8147,8182,8218,8297,0.5790677070617676,False
56,8176,8201,8105,8157,8135,8202,8227,8174,8222,8204,8121,8152,8196,8291,0.5869677066802979,False
57,8156,8212,8153,8136,8163,8204,8225,8191,8225,8186,8083,8145,8159,8263,0.5949537754058838,False
58,8147,8192,8111,8123,8119,8178,8218,8182,8231,8190,8089,8136,8162,8259,0.603013277053833,False
59,8163,8198,8189,8125,8185,8166,8193,8192,8210,8192,8106,8172,8161,8268,0.6099128723144531,False
60,8177,8204,8219,8144,8180,8177,8196,8211,8205,8195,8121,8184,8167,8280,0.617847204208374,False
61,8180,8198,8138,8157,8133,8184,8224,8204,8236,8209,8134,8168,8195,8302,0.62595534324646,False
62,8207,8217,8145,8175,8150,8184,8237,8201,8242,8211,8144,8181,8209,8336,0.6339707374572754,False
63,8224,8228,8154,8200,8149,8179,8240,8195,8219,8195,8152,8180,8195,8346,0.6418437957763672,False
64,8223,8241,8222,8209,8200,8186,8236,8213,8204,8187,8148,8193,8173,8312,0.6500043869018555,False
65,8197,8216,8160,8206,8147,8203,8240,8206,8228,8197,8158,8182,8189,8299,0.65793776512146,False
66,8203,8231,8149,8218,8166,8212,8228,8195,8234,8188,8154,8175,8195,8310,0.6660242080688477,False
67,8246,8283,8296,8242,8253,8215,8201,8211,8197,8166,8130,8201,8168,8307,0.673006534576416,False
68,8211,8253,8193,8255,8160,8212,8208,8181,8187,8178,8144,8177,8177,8298,0.6809923648834229,False
69,8182,8244,8150,8257,8177,8206,8208,8174,8187,8188,8151,8175,8188,8292,0.6890749931335449,False
70,8207,8259,8194,8247,8198,8203,8200,8173,8176,8181,8141,8182,8183,8302,0.6970295906066895,False
71,8221,8253,8155,8232,8166,8210,8205,8160,8180,8183,8145,8167,8185,8312,0.7049384117126465,False
72,8219,8252,8195,8213,8215,8219,8214,8193,8195,8188,8148,8189,8186,8307,0.7131326198577881,False
73,8181,8224,8153,8188,8189,8217,8243,8205,8225,8202,8162,8185,8201,8311,0.7208869457244873,False
74,8182,8239,8180,8190,8206,8231,8266,8218,8237,8209,8168,8186,8202,8320,0.7290256023406982,False
75,8216,8253,8193,8206,8175,8251,8281,8218,8242,8213,8174,8186,8207,8326,0.7360315322875977,False
76,8219,8242,8153,8203,8154,8246,8287,8193,8249,8218,8188,8176,8219,8322,0.7438600063323975,False
77,8228,8249,8239,8194,8232,8233,8268,8207,8232,8210,8189,8203,8217,8315,0.7520103454589844,False
78,8214,8227,8178,8187,8167,8228,8263,8201,8227,8208,8199,8192,8229,8323,0.7601172924041748,False
79,8200,8231,8119,8187,8149,8228,8255,8181,8225,8215,8203,8171,8229,8320,0.7680563926696777,False
80,8215,8265,8185,8205,8215,8232,8239,8188,8232,8217,8194,8181,8218,8314,0.7761247158050537,False
81,8228,8265,8177,8218,8200,8232,8237,8181,8248,8211,8189,8180,8225,8315,0.7841248512268066,False
82,8231,8252,8155,8212,8185,8222,8227,8170,8228,8209,8204,8178,8224,8308,0.7921438217163086,False
83,8221,8248,8142,8214,8192,8217,8220,8171,8208,8215,8240,8176,8223,8310,0.7991447448730469,False
84,8229,8273,8190,8233,8235,8224,8226,8196,8212,8214,8244,8189,8220,8322,0.8071291446685791,True
85,8227,8270,8195,8234,8207,8217,8238,8203,8212,8201,8223,8189,8208,8324,0.8149092197418213,True
86,8197,8245,8146,8204,8179,8208,8246,8185,8198,8192,8215,8167,8192,8313,0.8231613636016846,True
87,8179,8239,8183,8177,8223,8232,8252,8204,8202,8184,8205,8172,8176,8293,0.8309388160705566,True
88,8153,8211,8133,8173,8173,8252,8270,8205,8236,8186,8204,8162,8182,8285,0.8390827178955078,True
89,8149,8213,8154,8171,8204,8239,8265,8205,8241,8191,8204,8175,8184,8291,0.8471028804779053,True
90,8165,8216,8221,8155,8233,8227,8252,8218,8224,8188,8197,8191,8181,8290,0.8550994396209717,True
91,8151,8182,8121,8149,8137,8222,8250,8183,8226,8189,8193,8151,8192,8282,0.8621556758880615,False
92,8172,8213,8178,8162,8202,8217,8222,8175,8208,8189,8189,8166,8186,8287,0.8701236248016357,False
93,8195,8233,8226,8172,8234,8209,8205,8178,8184,8189,8203,8187,8182,8306,0.8781437873840332,False
94,8181,8218,8159,8188,8181,8209,8217,8163,8188,8187,8210,8172,8193,8308,0.8860764503479004,False
95,8189,8230,8170,8213,8176,8217,8222,8167,8195,8185,8208,8178,8196,8299,0.8941006660461426,False
96,8198,8230,8149,8206,8163,8207,8220,8162,8197,8185,8214,8177,8200,8304,0.9022579193115234,False
97,8215,8243,8192,8191,8202,8189,8199,8162,8179,8171,8210,8186,8197,8302,0.9102516174316406,False
98,8228,8250,8183,8211,8175,8181,8185,8140,8158,8172,8213,8186,8199,8303,0.9181320667266846,False
99,8233,8254,8163,8226,8172,8173,8186,8127,8144,8174,8212,8182,8194,8318,0.926276445388794,False
100,8243,8259,8211,8206,8191,8159,8172,8154,8134,8162,8199,8191,8181,8328,0.9331367015838624,False
101,8214,8230,8140,8186,8139,8157,8165,8160,8145,8167,8198,8173,8194,8327,0.9411108493804932,False
102,8199,8235,8202,8175,8222,8168,8163,8188,8149,8171,8182,8189,8188,8313,0.94915771484375,False
103,8189,8215,8219,8158,8198,8173,8178,8198,8160,8173,8162,8191,8176,8310,0.956986665725708,False
104,8152,8184,8097,8160,8117,8173,8202,8180,8194,8187,8165,8161,8195,8322,0.9651830196380616,False
105,8160,8212,8171,8166,8203,8183,8213,8212,8220,8201,8180,8182,8207,8327,0.973109006881714,False
106,8178,8209,8195,8159,8193,8199,8228,8222,8244,8206,8185,8183,8214,8332,0.9809286594390868,False
107,8181,8198,8155,8162,8170,8203,8231,8210,8244,8191,8157,8174,8214,8324,0.9880633354187012,False
108,8171,8201,8162,8165,8183,8184,8217,8203,8218,8173,8139,8178,8197,8298,0.9958417415618896,False
109,8146,8196,8162,8154,8178,8166,8201,8176,8189,8165,8139,8163,8170,8264,1.0039503574371338,False
110,8143,8198,8183,8166,8175,8180,8198,8161,8165,8154,8141,8169,8159,8254,1.0119524002075195,False
111,8148,8191,8135,8193,8126,8192,8210,8152,8169,8154,8173,8178,8192,8283,1.020021915435791,False
112,8179,8214,8194,8187,8182,8185,8189,8175,8172,8167,8184,8196,8202,8298,1.028024435043335,False
113,8194,8214,8209,8171,8183,8178,8178,8179,8162,8172,8154,8183,8174,8275,1.0361552238464355,False
114,8160,8186,8121,8169,8135,8181,8203,8146,8160,8159,8134,8155,8146,8246,1.0440711975097656,False
115,8163,8203,8224,8167,8225,8200,8204,8171,8151,8138,8145,8191,8135,8247,1.0522706508636477,False
116,8170,8189,8206,8168,8190,8214,8217,8181,8164,8151,8183,8188,8163,8280,1.059074640274048,False
117,8161,8172,8123,8171,8140,8213,8239,8164,8183,8172,8191,8164,8175,8291,1.0671207904815674,False
118,8159,8178,8166,8161,8190,8205,8222,8175,8174,8169,8195,8178,8172,8279,1.0750672817230225,False
119,8149,8161,8159,8153,8199,8188,8202,8173,8172,8167,8219,8171,8197,8289,1.0830535888671875,False
120,8148,8164,8187,8168,8198,8176,8204,8181,8177,8173,8206,8175,8188,8300,1.0912342071533203,False
121,8143,8167,8150,8180,8127,8172,8221,8186,8188,8178,8203,8174,8177,8304,1.099217653274536,False
122,8175,8193,8191,8194,8166,8178,8213,8202,8199,8178,8231,8197,8203,8320,1.107090950012207,False
123,8221,8211,8267,8218,8201,8182,8190,8217,8204,8177,8234,8230,8217,8343,1.1150288581848145,False
124,8194,8188,8147,8223,8095,8178,8195,8178,8202,8179,8219,8191,8202,8336,1.1231536865234375,False
125,8178,8206,8171,8209,8143,8178,8203,8169,8175,8169,8201,8177,8172,8289,1.1302204132080078,False
126,8187,8202,8199,8197,8150,8171,8202,8166,8165,8158,8193,8182,8168,8277,1.1381003856658936,False
127,8181,8180,8144,8193,8102,8166,8194,8152,8174,8156,8183,8173,8175,8302,1.1461400985717771,False
237,8174,8181,8166,8179,8111,8174,8198,8170,8167,8147,8166,8174,8162,8304,1.1540257930755615,False
0,8155,8164,8135,8160,8075,8176,8223,8180,8171,8135,8167,8160,8150,8284,1.1621301174163818,False
1,8158,8179,8182,8158,8129,8183,8229,8203,8176,8135,8168,8171,8145,8259,1.1700551509857178,False
2,8152,8178,8186,8157,8138,8190,8228,8205,8178,8151,8172,8166,8155,8247,1.178027629852295,False
3,8137,8155,8145,8141,8114,8171,8215,8188,8176,8160,8168,8151,8149,8253,1.1861062049865725,False
4,8161,8170,8201,8146,8130,8150,8181,8187,8162,8152,8170,8184,8137,8268,1.193108320236206,False
5,8176,8183,8168,8180,8082,8160,8170,8163,8159,8157,8190,8189,8174,8291,1.2010812759399414,False
6,8182,8194,8159,8200,8100,8178,8170,8161,8166,8171,8190,8188,8196,8304,1.209101676940918,False
7,8173,8188,8160,8188,8110,8176,8167,8166,8174,8179,8186,8183,8189,8301,1.2171144485473633,False
8,8172,8200,8167,8186,8130,8180,8163,8160,8176,8175,8178,8180,8187,8286,1.2251029014587402,False
9,8199,8218,8210,8204,8140,8193,8158,8176,8175,8168,8162,8196,8188,8284,1.232987880706787,False
10,8178,8181,8122,8193,8055,8180,8169,8164,8191,8174,8162,8168,8193,8295,1.2411069869995115,False
11,8167,8194,8200,8166,8150,8168,8162,8183,8180,8167,8150,8174,8174,8283,1.249150037765503,False
12,8187,8204,8269,8171,8169,8175,8157,8200,8158,8156,8146,8193,8163,8279,1.256947040557861,False
13,8176,8169,8113,8191,8044,8176,8178,8159,8171,8164,8172,8161,8187,8300,1.2641468048095703,False
14,8178,8196,8150,8200,8110,8180,8184,8165,8179,8164,8169,8167,8184,8294,1.272202730178833,False
15,8182,8214,8200,8210,8141,8188,8193,8182,8179,8164,8148,8181,8171,8281,1.280224084854126,False
16,8166,8195,8141,8216,8111,8188,8206,8171,8179,8167,8135,8166,8176,8280,1.2882542610168457,False
17,8154,8196,8159,8209,8151,8180,8204,8178,8168,8160,8119,8160,8168,8260,1.2961421012878418,False
18,8152,8206,8197,8208,8174,8184,8205,8192,8160,8156,8110,8165,8150,8240,1.3042256832122805,False
19,8183,8214,8228,8225,8161,8206,8215,8208,8175,8171,8123,8189,8161,8270,1.3120689392089844,False
20,8199,8195,8139,8235,8078,8204,8225,8191,8203,8193,8154,8179,8204,8323,1.320190191268921,False
21,8202,8201,8150,8229,8105,8182,8203,8179,8191,8182,8140,8175,8205,8324,1.3271875381469729,False
22,8207,8205,8208,8225,8138,8179,8184,8180,8171,8163,8109,8182,8179,8309,1.3350532054901123,False
23,8179,8182,8120,8219,8091,8170,8191,8151,8178,8165,8111,8155,8176,8312,1.343170166015625,False
24,8176,8209,8196,8213,8161,8163,8176,8162,8154,8160,8116,8178,8167,8306,1.3512015342712402,False
25,8179,8202,8213,8207,8137,8164,8168,8173,8148,8158,8132,8187,8175,8308,1.3589706420898438,False
26,8165,8177,8129,8197,8105,8159,8174,8165,8176,8164,8137,8159,8187,8305,1.3671729564666748,False
27,8160,8193,8157,8200,8138,8157,8171,8170,8177,8172,8123,8163,8176,8287,1.375248670578003,False
28,8161,8195,8159,8211,8118,8172,8169,8160,8173,8180,8125,8167,8185,8290,1.3829729557037354,False
29,8178,8204,8221,8203,8172,8180,8159,8179,8169,8174,8125,8183,8196,8296,1.3911957740783691,False
30,8165,8189,8188,8185,8139,8169,8161,8185,8165,8170,8121,8170,8189,8281,1.39817476272583,False
31,8158,8183,8133,8206,8106,8176,8176,8175,8177,8170,8125,8161,8181,8274,1.4061775207519531,False
32,8207,8210,8192,8238,8137,8188,8174,8197,8201,8173,8149,8201,8197,8308,1.4141390323638916,False
33,8227,8208,8165,8221,8100,8166,8165,8190,8204,8178,8165,8202,8221,8341,1.4231760501861572,False
34,8225,8215,8190,8204,8137,8146,8148,8179,8166,8165,8145,8195,8197,8331,1.4302339553833008,False
35,8226,8215,8192,8226,8135,8154,8156,8171,8161,8165,8165,8193,8189,8335,1.438143253326416,False
36,8231,8226,8198,8248,8153,8164,8175,8179,8185,8178,8199,8196,8214,8344,1.4461445808410645,False
37,8246,8255,8287,8247,8205,8153,8163,8199,8163,8155,8185,8215,8199,8319,1.45314359664917,False
38,8219,8228,8171,8236,8102,8137,8169,8160,8141,8137,8182,8175,8173,8310,1.4611163139343262,False
39,8203,8226,8141,8224,8115,8149,8177,8157,8144,8149,8190,8167,8166,8317,1.4691040515899658,False
40,8202,8220,8177,8210,8130,8156,8166,8169,8156,8154,8178,8177,8180,8322,1.4771502017974854,False
41,8174,8195,8139,8186,8105,8140,8149,8144,8154,8145,8147,8156,8178,8308,1.4850060939788818,False
42,8172,8209,8247,8161,8197,8141,8131,8169,8132,8137,8120,8170,8146,8268,1.4931950569152832,False
43,8153,8190,8204,8169,8144,8150,8138,8175,8149,8153,8139,8158,8159,8251,1.5011165142059326,False
44,8124,8174,8075,8187,8065,8147,8154,8158,8190,8171,8158,8135,8185,8262,1.5089390277862549,False
45,8141,8188,8096,8180,8089,8145,8171,8173,8208,8176,8142,8144,8178,8275,1.5171325206756592,False
46,8178,8205,8179,8176,8157,8157,8185,8205,8212,8178,8134,8171,8177,8291,1.525045394897461,False
47,8178,8202,8207,8181,8166,8167,8195,8228,8212,8176,8152,8182,8178,8287,1.5319008827209473,False
48,8121,8163,8092,8162,8078,8164,8215,8204,8211,8172,8154,8131,8164,8255,1.5400691032409668,False
49,8134,8193,8196,8149,8176,8171,8207,8211,8186,8160,8127,8149,8139,8240,1.5479602813720703,False
50,8195,8224,8306,8176,8205,8183,8199,8221,8165,8153,8137,8207,8150,8272,1.5560064315795898,False
51,8179,8191,8128,8202,8061,8177,8218,8166,8164,8157,8166,8175,8180,8303,1.564070701599121,False
52,8173,8202,8140,8200,8115,8172,8198,8148,8141,8150,8145,8157,8162,8291,1.5721092224121094,False
53,8186,8200,8209,8182,8161,8164,8160,8152,8123,8140,8131,8177,8151,8286,1.580129623413086,False
54,8171,8174,8140,8184,8108,8143,8153,8141,8136,8144,8154,8181,8169,8307,1.5879127979278564,False
55,8188,8195,8179,8207,8140,8140,8154,8153,8147,8147,8162,8185,8168,8319,1.595057725906372,False
56,8222,8213,8222,8212,8165,8158,8151,8167,8151,8149,8162,8192,8172,8320,1.602860450744629,False
57,8223,8210,8193,8202,8146,8166,8145,8174,8161,8156,8159,8197,8179,8309,1.6109201908111572,False
58,8184,8194,8116,8193,8095,8155,8154,8161,8173,8159,8148,8164,8169,8291,1.6189427375793457,False
59,8176,8208,8179,8190,8162,8154,8165,8178,8174,8153,8146,8162,8153,8281,1.6270349025726318,False
60,8193,8215,8249,8189,8216,8172,8182,8217,8189,8161,8173,8198,8169,8302,1.6350212097167969,False
61,8174,8184,8123,8184,8134,8171,8199,8196,8209,8172,8188,8171,8191,8318,1.644012689590454,False
62,8169,8197,8165,8169,8170,8153,8179,8194,8183,8155,8161,8162,8158,8288,1.650963544845581,False
63,8167,8194,8215,8152,8156,8143,8176,8197,8170,8145,8165,8174,8132,8270,1.6580395698547363,False
64,8151,8171,8143,8148,8097,8135,8192,8175,8187,8148,8184,8165,8145,8283,1.6661443710327148,False
65,8144,8173,8149,8147,8122,8130,8182,8173,8174,8147,8163,8159,8148,8277,1.673950433731079,False
66,8124,8170,8125,8149,8127,8136,8178,8171,8168,8151,8150,8140,8143,8255,1.6819851398468018,False
67,8147,8203,8205,8168,8186,8144,8169,8190,8177,8148,8162,8175,8140,8254,1.6899909973144531,False
68,8172,8200,8224,8168,8143,8132,8156,8182,8167,8148,8180,8205,8149,8285,1.6979069709777832,False
69,8166,8178,8135,8152,8098,8121,8160,8148,8158,8155,8188,8179,8156,8309,1.7060918807983398,False
70,8195,8213,8175,8177,8166,8132,8168,8160,8173,8153,8198,8188,8167,8305,1.7140860557556152,False
71,8217,8230,8182,8216,8149,8136,8173,8160,8190,8155,8219,8204,8201,8309,1.7210133075714111,False
72,8223,8238,8216,8209,8169,8128,8165,8160,8172,8157,8200,8216,8196,8320,1.729169845581055,False
73,8216,8216,8192,8186,8142,8116,8155,8162,8157,8154,8167,8192,8161,8305,1.7370667457580566,False
74,8189,8192,8115,8188,8097,8108,8150,8156,8170,8158,8170,8154,8157,8275,1.7451164722442627,False
75,8184,8219,8202,8188,8174,8116,8150,8182,8161,8150,8181,8183,8163,8268,1.7531459331512451,False
76,8151,8182,8155,8146,8138,8116,8171,8168,8145,8133,8176,8170,8155,8280,1.7610018253326416,False
77,8121,8144,8129,8099,8145,8121,8176,8155,8136,8123,8147,8134,8125,8261,1.7695019245147705,False
78,8126,8155,8190,8100,8170,8133,8177,8171,8138,8126,8146,8145,8109,8239,1.7769720554351809,False
79,8130,8158,8136,8125,8115,8129,8183,8160,8150,8132,8181,8159,8127,8246,1.7850260734558103,False
80,8162,8180,8200,8136,8179,8122,8161,8179,8152,8127,8197,8195,8141,8269,1.792069673538208,False
81,8179,8180,8202,8142,8171,8129,8163,8191,8179,8151,8227,8204,8184,8314,1.8000006675720217,False
82,8180,8188,8157,8165,8143,8145,8186,8190,8220,8189,8262,8209,8232,8345,1.80812406539917,False
83,8194,8206,8196,8185,8168,8148,8177,8185,8216,8185,8257,8220,8233,8333,1.8160667419433596,False
84,8199,8205,8187,8178,8169,8142,8166,8156,8188,8162,8242,8202,8218,8324,1.823976755142212,False
85,8217,8221,8212,8174,8182,8142,8166,8158,8166,8161,8241,8211,8211,8327,1.8320915699005127,False
86,8218,8221,8181,8196,8125,8136,8162,8151,8160,8171,8245,8204,8221,8329,1.840070962905884,False
87,8218,8235,8190,8218,8155,8130,8141,8146,8149,8154,8232,8197,8215,8324,1.8480520248413088,False
88,8225,8247,8217,8210,8190,8131,8139,8157,8134,8135,8207,8200,8189,8306,1.8550286293029783,False
89,8191,8212,8135,8187,8138,8135,8165,8151,8141,8145,8192,8167,8173,8278,1.8630497455596924,False
90,8173,8206,8167,8171,8186,8151,8181,8178,8159,8156,8179,8165,8165,8263,1.8710260391235352,False
91,8171,8210,8174,8161,8186,8168,8201,8194,8182,8160,8174,8168,8171,8261,1.8789024353027344,False
92,8152,8207,8153,8159,8185,8181,8214,8184,8197,8162,8167,8159,8170,8250,1.8870699405670168,False
93,8136,8185,8183,8148,8194,8184,8206,8186,8189,8159,8155,8165,8159,8244,1.8950140476226809,False
94,8113,8146,8116,8116,8118,8164,8196,8160,8186,8161,8150,8151,8164,8250,1.9030251502990725,False
95,8109,8158,8140,8109,8138,8147,8173,8149,8180,8155,8144,8159,8158,8244,1.910815477371216,False
96,8114,8158,8128,8127,8122,8149,8167,8139,8180,8151,8154,8152,8152,8251,1.9180259704589844,False
97,8135,8173,8158,8137,8168,8148,8164,8156,8170,8143,8142,8153,8138,8257,1.9259757995605469,False
98,8163,8206,8299,8142,8251,8133,8139,8209,8156,8130,8123,8194,8117,8247,1.9340293407440183,False
99,8131,8164,8168,8147,8121,8120,8151,8181,8188,8137,8153,8172,8139,8257,1.9420404434204104,False
100,8131,8166,8104,8152,8106,8119,8165,8149,8193,8140,8160,8160,8152,8262,1.950013875961304,False
101,8161,8186,8117,8157,8133,8110,8164,8146,8169,8141,8157,8163,8155,8264,1.958018779754639,False
102,8183,8209,8193,8166,8203,8113,8148,8168,8157,8143,8168,8184,8164,8269,1.9659345149993896,False
103,8224,8246,8405,8174,8307,8129,8123,8218,8137,8129,8162,8247,8155,8268,1.974151849746704,False
104,8189,8189,8226,8176,8136,8114,8133,8165,8150,8133,8172,8205,8171,8279,1.9821295738220213,False
105,8159,8181,8115,8177,8125,8099,8127,8137,8160,8146,8167,8169,8175,8273,1.989049196243286,False
106,8187,8212,8215,8169,8205,8110,8121,8174,8158,8159,8163,8192,8175,8274,1.9972467422485352,False
107,8181,8190,8159,8158,8157,8115,8147,8171,8174,8169,8180,8182,8205,8299,2.0051441192626958,False
108,8175,8197,8184,8152,8191,8114,8154,8188,8180,8171,8180,8193,8211,8303,2.0130748748779297,False
109,8157,8191,8154,8157,8154,8119,8161,8182,8189,8182,8174,8178,8210,8283,2.021147489547729,False
110,8138,8186,8130,8159,8152,8124,8167,8169,8197,8189,8158,8160,8202,8260,2.0291683673858643,False
111,8142,8190,8173,8154,8183,8124,8163,8190,8198,8181,8148,8172,8190,8264,2.0369675159454346,False
112,8141,8179,8119,8157,8137,8121,8169,8180,8203,8176,8164,8161,8193,8283,2.0451464653015137,False
113,8142,8173,8056,8166,8096,8119,8185,8155,8205,8175,8181,8144,8192,8283,2.0521576404571533,False
114,8137,8173,8063,8159,8115,8116,8194,8156,8201,8167,8179,8148,8180,8276,2.0601766109466557,False
115,8164,8224,8267,8156,8272,8119,8166,8204,8178,8159,8164,8207,8161,8274,2.0680718421936035,False
116,8187,8239,8366,8165,8287,8125,8140,8220,8163,8162,8179,8235,8162,8278,2.076019287109375,False
117,8146,8171,8116,8158,8074,8119,8163,8153,8179,8175,8214,8172,8194,8296,2.084172487258911,False
118,8117,8148,7970,8139,8023,8105,8169,8114,8188,8178,8223,8137,8207,8309,2.092172622680664,False
119,8160,8201,8169,8136,8208,8105,8135,8160,8161,8163,8199,8178,8181,8294,2.100183725357056,False
120,8178,8213,8264,8142,8246,8116,8135,8186,8139,8153,8177,8192,8166,8274,2.1081762313842773,False
121,8135,8175,8105,8130,8114,8122,8162,8154,8152,8161,8169,8152,8182,8279,2.1159589290618896,False
122,8132,8182,8115,8122,8152,8129,8173,8166,8167,8168,8161,8159,8195,8296,2.123246192932129,False
123,8176,8209,8288,8128,8264,8147,8177,8218,8158,8163,8151,8210,8190,8294,2.131174802780152,False
124,8152,8170,8143,8125,8118,8149,8198,8180,8163,8172,8167,8173,8199,8293,2.1389172077178955,False
125,8132,8176,8075,8126,8114,8140,8193,8159,8170,8174,8178,8143,8191,8289,2.147155523300171,False
126,8164,8217,8290,8135,8279,8145,8167,8209,8151,8157,8165,8188,8156,8264,2.155182361602783,False
127,8135,8164,8176,8130,8152,8137,8171,8174,8159,8162,8179,8164,8165,8260,2.1629350185394287,False
237,8120,8147,8045,8127,8083,8129,8175,8130,8174,8174,8188,8145,8187,8279,2.171180486679077,False
0,8175,8201,8195,8152,8201,8135,8155,8158,8159,8172,8178,8189,8182,8292,2.1781716346740723,False
1,8212,8226,8269,8184,8233,8135,8129,8177,8146,8168,8190,8210,8187,8306,2.186171770095825,False
2,8219,8227,8210,8197,8179,8135,8126,8161,8144,8168,8214,8208,8205,8331,2.19409441947937,False
3,8208,8219,8110,8197,8126,8137,8143,8124,8152,8176,8216,8188,8208,8345,2.2021403312683105,False
4,8210,8228,8179,8185,8196,8143,8136,8141,8146,8168,8185,8189,8172,8325,2.210068225860596,False
5,8179,8189,8170,8148,8156,8138,8143,8167,8137,8152,8170,8165,8141,8291,2.21817684173584,False
6,8128,8150,8098,8108,8117,8131,8171,8172,8145,8158,8165,8133,8135,8264,2.22613263130188,False
7,8138,8176,8209,8117,8225,8151,8173,8205,8158,8163,8143,8167,8124,8253,2.234172344207764,False
8,8142,8159,8183,8128,8187,8169,8185,8202,8178,8161,8149,8161,8134,8263,2.2420217990875244,False
9,8128,8139,8116,8099,8148,8164,8199,8183,8189,8173,8166,8142,8144,8274,2.250166177749634,False
10,8146,8165,8155,8110,8176,8158,8184,8178,8180,8181,8162,8159,8140,8277,2.2571699619293213,False
11,8164,8190,8170,8164,8178,8162,8167,8164,8173,8169,8155,8165,8140,8272,2.265089988708496,False
12,8174,8203,8198,8176,8196,8163,8160,8180,8178,8168,8153,8178,8146,8267,2.2731733322143555,False
13,8175,8194,8152,8171,8159,8158,8164,8180,8196,8190,8169,8180,8169,8290,2.281171560287476,False
14,8188,8215,8194,8198,8206,8158,8162,8176,8188,8189,8173,8200,8184,8312,2.2890424728393555,False
15,8197,8219,8228,8206,8228,8160,8156,8178,8174,8181,8168,8213,8188,8316,2.2971386909484863,False
16,8189,8192,8133,8189,8173,8153,8158,8153,8182,8193,8175,8188,8205,8322,2.305170774459839,False
17,8193,8209,8166,8189,8207,8139,8146,8152,8163,8187,8167,8188,8207,8315,2.3131468296051025,False
18,8168,8206,8172,8192,8181,8134,8142,8157,8149,8177,8155,8178,8194,8291,2.3201839923858643,False
19,8150,8196,8172,8180,8188,8154,8149,8165,8163,8178,8147,8177,8173,8272,2.3281683921813965,False
20,8154,8194,8197,8164,8199,8176,8169,8185,8174,8181,8164,8193,8176,8276,2.336169481277466,False
21,8125,8164,8107,8160,8134,8172,8193,8186,8187,8199,8190,8173,8201,8278,2.3440096378326416,False
22,8119,8176,8151,8165,8189,8178,8200,8209,8196,8209,8177,8175,8184,8252,2.3521153926849365,False
23,8115,8177,8161,8160,8177,8201,8221,8210,8226,8209,8173,8160,8175,8245,2.360172986984253,False
24,8104,8165,8141,8157,8174,8207,8227,8197,8236,8204,8184,8149,8185,8248,2.3680050373077397,False
25,8125,8177,8231,8172,8231,8182,8192,8199,8201,8191,8178,8180,8164,8236,2.376196384429932,False
26,8115,8160,8169,8161,8167,8152,8172,8158,8187,8177,8172,8162,8156,8231,2.383114814758301,False
27,8106,8158,8119,8134,8149,8139,8158,8136,8173,8165,8173,8150,8160,8241,2.3909974098205566,False
28,8129,8160,8129,8137,8151,8131,8136,8130,8137,8157,8187,8160,8146,8255,2.3991377353668213,False
29,8151,8175,8169,8157,8191,8140,8123,8136,8127,8150,8185,8181,8142,8259,2.407165050506592,False
30,8160,8198,8206,8163,8220,8153,8141,8165,8152,8157,8179,8195,8172,8264,2.414947271347046,False
31,8142,8182,8125,8159,8172,8138,8162,8152,8159,8173,8196,8159,8185,8269,2.4231436252593994,False
32,8155,8201,8226,8160,8259,8128,8137,8167,8126,8159,8196,8180,8147,8255,2.431154489517212,False
33,8160,8192,8253,8160,8221,8129,8138,8176,8122,8151,8192,8199,8151,8242,2.439183473587036,False
34,8129,8157,8098,8156,8104,8121,8174,8143,8147,8166,8205,8157,8181,8238,2.4461419582366943,False
35,8134,8186,8149,8168,8183,8123,8167,8160,8156,8174,8209,8161,8164,8239,2.454143762588501,False
36,8146,8200,8193,8192,8210,8137,8153,8174,8158,8179,8221,8177,8171,8252,2.46216344833374,False
37,8152,8191,8160,8189,8168,8139,8157,8163,8160,8183,8232,8179,8189,8259,2.4702019691467285,False
38,8155,8180,8149,8166,8150,8134,8157,8169,8177,8187,8223,8181,8186,8263,2.4781434535980225,False
39,8154,8186,8170,8180,8181,8142,8151,8185,8187,8182,8193,8184,8180,8267,2.4861655235290527,False
40,8159,8194,8203,8206,8206,8152,8148,8185,8167,8176,8165,8181,8167,8253,2.494124412536621,False
41,8139,8166,8118,8199,8149,8151,8163,8155,8167,8182,8172,8153,8165,8250,2.5021657943725586,False
42,8144,8188,8179,8189,8223,8155,8169,8172,8172,8182,8167,8168,8157,8251,2.5101606845855717,False
43,8153,8197,8217,8189,8223,8154,8174,8182,8160,8178,8150,8175,8143,8240,2.516963243484497,False
44,8121,8165,8107,8172,8128,8148,8185,8149,8157,8176,8140,8146,8132,8224,2.5251502990722656,False
45,8136,8190,8203,8168,8215,8156,8183,8178,8170,8168,8138,8177,8130,8225,2.53316593170166,False
46,8160,8184,8212,8184,8204,8159,8189,8193,8193,8174,8160,8182,8162,8252,2.541004180908203,False
47,8151,8166,8118,8192,8146,8152,8186,8165,8191,8182,8167,8155,8179,8269,2.549175977706909,False
48,8157,8191,8136,8200,8184,8156,8171,8158,8174,8171,8159,8166,8171,8271,2.5571696758270264,False
49,8169,8206,8158,8203,8212,8160,8178,8168,8184,8174,8165,8177,8180,8271,2.5651822090148926,False
50,8170,8213,8233,8194,8261,8160,8180,8203,8190,8190,8166,8188,8179,8255,2.573082447052002,False
51,8137,8179,8177,8184,8199,8151,8186,8195,8192,8195,8169,8158,8177,8244,2.580195188522339,False
52,8122,8158,8099,8180,8150,8142,8200,8171,8195,8188,8168,8137,8181,8248,2.5881776809692383,False
53,8140,8178,8148,8178,8171,8148,8199,8172,8183,8180,8161,8164,8169,8246,2.59608006477356,False
54,8140,8186,8162,8175,8185,8145,8181,8157,8175,8175,8163,8166,8158,8240,2.6039879322052,False
55,8146,8193,8203,8170,8233,8130,8155,8156,8168,8165,8152,8174,8153,8236,2.612178325653076,False
56,8141,8169,8158,8163,8163,8123,8149,8148,8163,8169,8155,8171,8162,8251,2.620134830474853,False
57,8140,8178,8150,8166,8168,8141,8139,8152,8169,8184,8175,8176,8172,8269,2.6282455921173096,False
58,8171,8215,8241,8175,8251,8156,8119,8178,8180,8192,8188,8205,8184,8285,2.6361336708068848,False
59,8185,8199,8176,8188,8193,8152,8131,8161,8204,8199,8203,8193,8217,8313,2.6440861225128174,False
60,8218,8211,8213,8199,8212,8156,8142,8170,8201,8189,8202,8208,8217,8330,2.6512434482574463,False
61,8228,8222,8243,8192,8199,8169,8146,8180,8180,8171,8195,8212,8193,8319,2.659241914749145,False
62,8185,8195,8136,8186,8142,8171,8155,8145,8176,8163,8194,8177,8188,8300,2.667158365249634,False
63,8187,8204,8156,8206,8191,8176,8151,8138,8169,8161,8200,8182,8187,8289,2.675262451171875,False
64,8209,8216,8186,8211,8193,8186,8150,8148,8155,8163,8213,8189,8191,8285,2.68316650390625,False
65,8202,8213,8196,8195,8188,8190,8154,8172,8149,8168,8210,8188,8197,8274,2.6911966800689697,False
66,8165,8185,8136,8188,8147,8175,8157,8175,8168,8179,8215,8168,8216,8272,2.699173927307129,False
67,8160,8197,8146,8189,8183,8162,8148,8176,8178,8183,8225,8172,8222,8285,2.705944061279297,False
68,8209,8224,8276,8185,8257,8162,8141,8213,8168,8182,8226,8216,8214,8293,2.713914632797241,False
69,8199,8173,8166,8178,8151,8161,8160,8191,8189,8195,8239,8189,8230,8299,2.721965074539185,False
70,8176,8172,8125,8170,8154,8167,8159,8172,8189,8189,8219,8170,8209,8296,2.7299695014953613,False
71,8190,8197,8209,8167,8189,8170,8153,8185,8162,8168,8188,8190,8169,8284,2.7378995418548584,False
72,8184,8173,8151,8162,8127,8158,8171,8162,8163,8171,8211,8181,8181,8286,2.7459070682525635,False
73,8193,8180,8168,8150,8169,8154,8168,8161,8174,8175,8244,8191,8200,8299,2.7538561820983887,False
74,8207,8180,8188,8140,8171,8163,8158,8170,8182,8170,8243,8195,8204,8303,2.7620089054107666,False
75,8193,8165,8159,8141,8141,8174,8163,8165,8183,8166,8219,8174,8194,8282,2.7698748111724854,False
76,8182,8169,8163,8142,8153,8181,8176,8167,8181,8167,8214,8166,8185,8272,2.77687931060791,False
77,8190,8186,8189,8140,8186,8183,8176,8175,8184,8158,8226,8181,8197,8283,2.7848031520843506,False
78,8190,8185,8207,8136,8188,8179,8161,8169,8180,8144,8224,8190,8206,8282,2.7929580211639404,False
79,8144,8147,8080,8124,8099,8166,8166,8126,8176,8147,8216,8140,8199,8274,2.800852060317993,False
80,8152,8186,8190,8129,8213,8165,8156,8158,8160,8142,8189,8162,8167,8260,2.8088667392730717,False
81,8187,8207,8338,8138,8263,8188,8154,8215,8157,8133,8184,8216,8161,8264,2.816790580749512,False
82,8135,8128,8094,8123,8077,8192,8195,8171,8199,8160,8217,8157,8199,8282,2.824909210205078,False
83,8120,8133,8075,8109,8139,8181,8203,8175,8219,8179,8213,8144,8192,8269,2.8327858448028564,False
84,8130,8153,8193,8101,8200,8177,8196,8207,8208,8167,8192,8164,8161,8242,2.8409602642059326,False
85,8090,8126,8148,8098,8140,8174,8199,8184,8200,8157,8201,8144,8154,8219,2.8480563163757324,False
86,8090,8130,8153,8105,8148,8177,8195,8172,8195,8157,8219,8158,8156,8218,2.856012344360352,False
87,8119,8128,8139,8104,8141,8187,8200,8161,8200,8162,8211,8163,8159,8237,2.8639609813690186,False
88,8136,8131,8185,8097,8193,8194,8184,8166,8186,8153,8177,8162,8148,8235,2.87308120727539,False
89,8124,8129,8162,8108,8163,8177,8155,8150,8173,8144,8176,8149,8142,8219,2.880150556564331,False
90,8116,8143,8128,8122,8135,8167,8143,8129,8165,8140,8182,8138,8130,8203,2.888140916824341,False
91,8127,8170,8192,8110,8167,8185,8144,8142,8142,8128,8164,8147,8110,8199,2.896093368530273,False
92,8105,8155,8137,8090,8137,8185,8151,8136,8144,8126,8170,8129,8126,8214,2.904168128967285,False
93,8109,8164,8173,8103,8196,8180,8148,8160,8159,8136,8185,8150,8145,8224,2.911141395568848,False
94,8132,8170,8201,8125,8173,8190,8158,8184,8181,8150,8200,8172,8152,8241,2.9190118312835693,False
95,8130,8156,8137,8110,8119,8188,8168,8166,8189,8149,8199,8154,8154,8244,2.9271562099456787,False
96,8127,8153,8166,8081,8186,8176,8155,8172,8178,8140,8175,8152,8138,8220,2.935153722763061,False
97,8111,8141,8140,8085,8174,8185,8162,8172,8190,8143,8177,8141,8143,8217,2.942948818206787,False
98,8120,8161,8163,8111,8171,8201,8181,8180,8199,8149,8188,8156,8150,8232,2.951150417327881,False
99,8135,8170,8193,8116,8173,8193,8191,8190,8194,8152,8185,8176,8151,8239,2.9591615200042725,False
100,8122,8150,8152,8101,8157,8186,8185,8181,8202,8158,8196,8163,8162,8245,2.967160940170288,False
101,8126,8145,8143,8104,8154,8195,8169,8174,8213,8162,8209,8160,8169,8253,2.9740993976593018,False
102,8148,8164,8147,8130,8146,8192,8156,8163,8211,8163,8196,8160,8164,8257,2.982048273086548,False
103,8167,8198,8222,8141,8195,8186,8144,8177,8198,8160,8185,8182,8160,8254,2.99026107788086,False
104,8154,8164,8173,8128,8147,8188,8151,8164,8198,8160,8216,8181,8184,8265,2.9981136322021484,False
105,8150,8146,8148,8125,8165,8187,8151,8148,8188,8155,8208,8176,8191,8277,3.006131649017334,False
106,8180,8198,8303,8122,8277,8182,8132,8189,8164,8144,8161,8211,8158,8265,3.01416540145874,False
107,8131,8164,8181,8103,8141,8177,8148,8171,8176,8151,8175,8168,8161,8250,3.022082567214966,False
108,8077,8127,8056,8095,8082,8179,8171,8131,8190,8152,8185,8123,8173,8240,3.0301640033721924,False
109,8124,8164,8185,8107,8191,8182,8167,8151,8177,8145,8147,8161,8151,8237,3.037174940109253,False
110,8151,8166,8176,8113,8163,8183,8177,8164,8188,8156,8147,8162,8137,8240,3.04490327835083,False
111,8128,8164,8129,8119,8145,8185,8185,8174,8214,8161,8185,8145,8142,8239,3.0530779361724854,False
112,8132,8182,8174,8135,8181,8183,8178,8194,8215,8155,8194,8160,8154,8241,3.061166286468506,False
113,8146,8181,8197,8142,8183,8178,8167,8194,8203,8157,8176,8172,8154,8239,3.068936824798584,False
114,8118,8153,8125,8130,8115,8174,8161,8169,8203,8163,8182,8149,8156,8227,3.077162981033325,False
115,8100,8152,8102,8123,8111,8165,8157,8157,8209,8165,8186,8137,8169,8224,3.085162401199341,False
116,8150,8199,8233,8140,8206,8159,8151,8185,8199,8156,8153,8183,8156,8232,3.093284368515014,False
117,8163,8187,8160,8162,8143,8154,8163,8164,8204,8150,8150,8171,8152,8251,3.1011641025543213,False
118,8144,8177,8135,8155,8165,8149,8153,8152,8193,8142,8151,8155,8144,8237,3.108182430267334,False
119,8145,8196,8286,8129,8245,8148,8126,8184,8158,8132,8126,8181,8117,8202,3.1161563396453857,False
120,8128,8168,8161,8135,8123,8138,8141,8138,8168,8145,8145,8155,8141,8225,3.123957395553589,False
121,8140,8170,8080,8155,8108,8139,8148,8116,8193,8159,8169,8151,8176,8259,3.13224458694458,False
122,8144,8181,8149,8139,8142,8156,8142,8149,8192,8158,8144,8153,8159,8231,3.140162706375122,False
123,8108,8176,8182,8112,8152,8159,8154,8159,8174,8143,8108,8134,8112,8189,3.148059129714966,False
124,8102,8175,8201,8103,8181,8157,8169,8169,8155,8138,8100,8145,8099,8189,3.156168222427368,False
125,8091,8141,8121,8095,8115,8160,8191,8178,8178,8158,8130,8147,8137,8219,3.1641950607299805,False
126,8099,8138,8149,8088,8121,8170,8211,8207,8215,8168,8154,8170,8159,8247,3.1710610389709477,False
127,8128,8145,8187,8092,8140,8167,8217,8218,8221,8162,8163,8184,8157,8263,3.179237604141236,False
237,8124,8140,8133,8098,8126,8154,8194,8196,8201,8152,8151,8161,8142,8242,3.187241077423096,False
0,8119,8157,8169,8109,8156,8145,8159,8184,8182,8144,8133,8166,8120,8221,3.1949896812438965,False
1,8130,8164,8182,8123,8145,8134,8154,8167,8182,8146,8147,8176,8128,8246,3.203209638595581,False
2,8160,8183,8190,8137,8153,8143,8155,8168,8179,8149,8157,8184,8147,8274,3.2112720012664795,False
3,8162,8182,8146,8146,8112,8155,8155,8159,8182,8152,8146,8170,8149,8267,3.2190792560577397,False
4,8134,8172,8129,8135,8127,8148,8148,8146,8188,8150,8137,8154,8138,8236,3.2271728515625,False
5,8149,8201,8260,8129,8220,8147,8125,8177,8170,8145,8143,8186,8137,8227,3.235133171081543,False
6,8157,8191,8182,8144,8122,8144,8127,8154,8161,8155,8174,8174,8169,8252,3.242130994796753,False
7,8162,8179,8131,8142,8118,8135,8130,8127,8154,8163,8183,8170,8173,8268,3.2500548362731934,False
8,8180,8190,8238,8130,8207,8121,8116,8152,8150,8161,8174,8200,8155,8275,3.258089780807495,False
9,8161,8181,8168,8141,8133,8115,8126,8149,8174,8166,8187,8177,8172,8277,3.266188621520996,False
10,8139,8183,8116,8155,8104,8133,8149,8150,8188,8169,8199,8151,8181,8258,3.274102210998535,False
11,8131,8175,8137,8140,8136,8148,8165,8170,8187,8165,8199,8146,8169,8245,3.28211522102356,False
12,8135,8177,8193,8119,8189,8150,8161,8193,8190,8163,8186,8167,8156,8245,3.2901852130889893,False
13,8131,8162,8167,8116,8147,8155,8165,8194,8203,8168,8180,8163,8154,8243,3.2979233264923096,False
14,8122,8161,8114,8130,8117,8159,8176,8189,8216,8177,8177,8144,8160,8241,3.304999828338623,False
15,8165,8221,8290,8139,8249,8163,8159,8238,8204,8169,8156,8191,8143,8237,3.313017606735229,False
16,8158,8191,8238,8126,8161,8166,8164,8224,8205,8163,8164,8177,8139,8249,3.320908546447754,False
17,8106,8135,8031,8125,8036,8174,8187,8164,8213,8171,8185,8123,8143,8256,3.3290040493011475,False
26,8119,8195,8147,8123,8131,8163,8163,8163,8163,8164,8157,8155,8181,8248,3.3530445098876958,False
27,8104,8179,8111,8110,8137,8162,8172,8162,8175,8170,8144,8136,8162,8241,3.3539090156555176,False
28,8117,8215,8235,8101,8215,8179,8173,8208,8181,8168,8122,8163,8142,8229,3.3609864711761475,False
29,8124,8212,8176,8114,8144,8198,8198,8209,8213,8182,8138,8158,8159,8254,3.368826150894165,False
30,8142,8218,8124,8132,8122,8193,8206,8195,8228,8191,8156,8159,8170,8277,3.3760581016540527,False
31,8145,8232,8176,8121,8141,8180,8184,8194,8197,8169,8145,8171,8144,8248,3.384026050567627,False
32,8145,8238,8182,8132,8149,8196,8180,8189,8194,8166,8153,8165,8145,8236,3.3920042514801025,False
33,8192,8277,8208,8187,8172,8222,8188,8205,8226,8191,8182,8188,8180,8279,3.3999760150909424,False
34,8200,8278,8154,8196,8108,8223,8184,8182,8233,8194,8195,8187,8198,8302,3.408144235610962,False
35,8186,8277,8181,8162,8148,8231,8159,8161,8199,8171,8183,8186,8183,8280,3.415992259979248,False
36,8197,8290,8211,8178,8173,8242,8154,8160,8188,8176,8200,8191,8205,8299,3.4238951206207275,False
37,8194,8295,8159,8205,8155,8229,8165,8148,8196,8187,8217,8179,8235,8328,3.431928396224976,False
38,8203,8309,8232,8185,8219,8227,8154,8163,8170,8170,8192,8188,8205,8305,3.4390265941619877,False
39,8198,8281,8191,8166,8152,8221,8148,8147,8154,8170,8190,8171,8194,8285,3.4469475746154785,False
40,8173,8265,8148,8150,8131,8202,8145,8125,8145,8161,8169,8155,8178,8270,3.455152988433838,False
41,8152,8259,8185,8108,8168,8194,8152,8140,8118,8131,8106,8149,8123,8236,3.462958812713623,False
42,8136,8231,8139,8090,8132,8198,8168,8147,8119,8133,8106,8127,8110,8214,3.471232891082764,False
43,8156,8247,8181,8118,8155,8205,8156,8168,8146,8161,8160,8158,8143,8230,3.478914499282837,False
44,8170,8258,8178,8138,8137,8217,8148,8177,8186,8185,8202,8180,8193,8273,3.4871609210968018,False
45,8172,8258,8171,8143,8153,8225,8152,8185,8205,8195,8209,8177,8218,8293,3.494900703430176,False
46,8172,8260,8195,8145,8175,8215,8147,8190,8195,8190,8211,8178,8206,8279,3.5029704570770264,False
47,8165,8257,8140,8141,8133,8205,8140,8172,8187,8175,8202,8160,8186,8267,3.5099918842315674,False
48,8187,8273,8177,8145,8162,8219,8138,8178,8188,8166,8183,8164,8173,8258,3.518042802810669,False
49,8180,8253,8150,8144,8139,8230,8164,8162,8200,8180,8204,8157,8184,8256,3.5259151458740234,False
50,8172,8258,8182,8125,8193,8235,8183,8169,8192,8185,8210,8172,8195,8263,3.534001111984253,False
51,8192,8271,8267,8120,8236,8237,8183,8196,8171,8172,8186,8201,8201,8278,3.541832447052002,False
52,8167,8228,8137,8132,8128,8228,8200,8160,8180,8180,8200,8170,8227,8301,3.549914836883545,False
53,8162,8242,8173,8126,8193,8225,8195,8172,8172,8192,8212,8183,8231,8304,3.5578973293304443,False
54,8169,8251,8237,8111,8218,8225,8187,8197,8153,8189,8207,8193,8224,8291,3.565934658050537,False
55,8142,8228,8126,8126,8116,8221,8194,8169,8170,8192,8205,8154,8227,8275,3.5729355812072754,True
56,8131,8243,8131,8141,8137,8232,8188,8171,8191,8192,8186,8152,8207,8255,3.581042766571045,True
57,8136,8246,8173,8133,8169,8250,8189,8178,8195,8188,8168,8158,8195,8254,3.5931198596954346,True
58,8152,8241,8181,8129,8168,8246,8192,8160,8190,8192,8176,8163,8200,8264,3.598099708557129,True
59,8166,8231,8141,8135,8134,8237,8190,8141,8195,8189,8182,8157,8194,8262,3.604981422424317,True
60,8171,8236,8167,8130,8163,8250,8184,8162,8196,8172,8160,8157,8170,8251,3.613157987594605,True
61,8172,8232,8210,8114,8182,8246,8175,8190,8188,8162,8144,8169,8158,8250,3.6209909915924072,True
62,8143,8193,8102,8099,8111,8225,8173,8166,8190,8165,8131,8138,8154,8241,3.629059076309204,True
63,8144,8206,8174,8092,8189,8227,8162,8179,8176,8151,8099,8142,8127,8219,3.6361472606658936,True
64,8157,8216,8236,8094,8200,8226,8159,8193,8166,8148,8118,8162,8132,8232,3.644124984741211,True
65,8137,8189,8114,8095,8113,8204,8163,8152,8170,8161,8157,8146,8163,8265,3.651913642883301,True
66,8153,8201,8159,8098,8175,8202,8148,8152,8155,8157,8152,8167,8170,8276,3.660116195678711,True
67,8176,8215,8190,8115,8193,8203,8147,8154,8141,8156,8162,8177,8181,8279,3.6680524349212646,True
68,8172,8228,8159,8133,8180,8203,8151,8148,8136,8156,8168,8168,8177,8277,3.676028490066528,True
69,8178,8232,8176,8133,8177,8225,8160,8167,8150,8168,8161,8180,8178,8285,3.683939695358277,True
70,8199,8219,8175,8129,8159,8237,8173,8173,8175,8184,8184,8192,8215,8307,3.6911096572875977,False
71,8206,8222,8193,8135,8177,8224,8169,8176,8166,8184,8212,8196,8231,8311,3.6989808082580566,False
72,8162,8207,8148,8124,8159,8212,8170,8174,8162,8184,8216,8167,8221,8298,3.707098007202149,False
73,8146,8209,8169,8106,8196,8216,8175,8189,8176,8177,8199,8163,8205,8281,3.714942693710327,False
74,8166,8218,8193,8106,8188,8214,8168,8183,8168,8172,8176,8167,8182,8263,3.723302364349365,False
75,8146,8202,8130,8100,8145,8198,8165,8157,8159,8176,8163,8144,8163,8243,3.731033563613892,False
76,8125,8215,8195,8096,8217,8201,8165,8189,8166,8175,8162,8159,8155,8223,3.739225387573242,False
77,8119,8206,8167,8116,8167,8214,8176,8194,8183,8182,8180,8154,8175,8229,3.746037483215332,False
78,8136,8205,8124,8132,8150,8218,8181,8175,8194,8200,8200,8153,8200,8257,3.754122734069824,False
79,8165,8221,8178,8136,8178,8218,8174,8192,8207,8205,8214,8182,8218,8282,3.762023448944092,False
80,8169,8222,8143,8155,8130,8214,8173,8184,8221,8206,8230,8172,8240,8300,3.769967555999756,False
81,8206,8266,8255,8172,8248,8223,8166,8202,8202,8201,8223,8192,8230,8295,3.7779929637908936,False
82,8217,8259,8281,8158,8262,8234,8180,8212,8194,8193,8214,8199,8219,8289,3.785891771316528,False
83,8170,8208,8118,8151,8116,8216,8186,8162,8205,8198,8216,8160,8229,8297,3.793898820877075,False
84,8159,8208,8089,8167,8101,8192,8159,8133,8189,8195,8209,8151,8221,8292,3.802003145217896,False
85,8166,8219,8138,8159,8161,8194,8149,8142,8163,8172,8179,8154,8193,8258,3.809896469116211,False
86,8162,8231,8215,8135,8214,8199,8146,8170,8139,8153,8141,8167,8158,8222,3.8181228637695312,False
87,8137,8196,8134,8123,8137,8183,8144,8149,8144,8163,8162,8152,8166,8236,3.8249351978302,False
88,8138,8192,8119,8113,8179,8185,8142,8147,8167,8179,8190,8149,8191,8258,3.833150148391724,False
89,8182,8241,8295,8124,8288,8218,8148,8214,8179,8178,8169,8200,8182,8258,3.8409533500671382,False
90,8162,8216,8181,8149,8149,8222,8181,8199,8203,8187,8168,8174,8190,8266,3.849197387695313,False
91,8138,8205,8104,8148,8137,8213,8182,8173,8202,8191,8170,8149,8196,8259,3.856913566589356,False
92,8153,8227,8199,8139,8210,8219,8167,8190,8184,8186,8164,8172,8190,8253,3.865155935287476,False
93,8144,8216,8161,8151,8155,8222,8191,8182,8190,8188,8171,8165,8202,8279,3.874096155166626,False
94,8137,8206,8121,8153,8141,8217,8205,8177,8191,8182,8168,8154,8201,8286,3.8811209201812735,False
95,8139,8200,8121,8131,8154,8205,8194,8172,8178,8168,8154,8149,8184,8260,3.8880534172058105,False
96,8147,8205,8173,8127,8190,8206,8191,8168,8169,8156,8145,8157,8169,8243,3.896164655685425,False
97,8128,8188,8148,8129,8161,8215,8193,8142,8161,8154,8139,8139,8159,8240,3.903951406478882,False
98,8091,8180,8125,8115,8159,8205,8159,8122,8135,8146,8115,8120,8132,8205,3.9121768474578857,False
99,8102,8196,8190,8114,8189,8189,8129,8146,8124,8138,8105,8148,8114,8185,3.919967889785767,False
100,8123,8180,8123,8126,8126,8187,8135,8143,8153,8155,8127,8143,8133,8218,3.92802095413208,False
101,8146,8198,8184,8132,8192,8201,8111,8157,8152,8161,8129,8160,8135,8241,3.936007261276245,False
102,8152,8215,8260,8138,8205,8209,8097,8183,8147,8163,8139,8189,8140,8251,3.9441540241241455,False
103,8134,8179,8134,8143,8092,8208,8123,8161,8178,8177,8162,8167,8171,8277,3.951888084411621,False
104,8150,8181,8134,8134,8118,8213,8134,8164,8193,8178,8160,8167,8184,8300,3.9591546058654794,False
105,8164,8198,8151,8140,8135,8216,8146,8176,8196,8186,8173,8176,8204,8327,3.966954231262207,False
106,8187,8223,8209,8177,8200,8222,8161,8198,8202,8200,8192,8204,8222,8351,3.975144386291504,False
107,8217,8245,8299,8203,8241,8232,8156,8213,8200,8193,8190,8232,8212,8350,3.9831082820892334,False
108,8196,8225,8179,8206,8126,8236,8159,8174,8203,8186,8196,8196,8226,8346,3.9911532402038574,False
109,8180,8219,8111,8209,8118,8231,8158,8151,8193,8190,8194,8178,8238,8341,3.9989664554595943,False
110,8174,8213,8130,8198,8155,8218,8146,8137,8175,8181,8168,8171,8201,8311,4.007086277008057,False
111,8158,8215,8159,8168,8176,8214,8138,8141,8169,8169,8132,8156,8156,8274,4.014952898025513,False
112,8150,8216,8171,8160,8170,8217,8146,8165,8168,8173,8117,8151,8154,8267,4.02215313911438,False
113,8147,8207,8150,8175,8154,8214,8159,8169,8169,8173,8133,8147,8173,8282,4.029949426651001,False
114,8165,8229,8252,8174,8228,8208,8141,8193,8164,8166,8147,8179,8163,8281,4.038156032562256,False
115,8148,8192,8189,8155,8160,8199,8137,8181,8172,8178,8161,8169,8169,8283,4.045922756195068,False
116,8115,8160,8082,8152,8116,8196,8153,8157,8181,8184,8153,8139,8173,8286,4.0539374351501465,False
117,8125,8185,8172,8151,8182,8191,8144,8174,8159,8167,8129,8154,8151,8274,4.061956644058228,False
118,8130,8180,8162,8149,8140,8182,8144,8164,8151,8164,8142,8152,8162,8281,4.070154190063477,False
119,8157,8203,8179,8173,8164,8195,8160,8170,8165,8171,8154,8172,8173,8301,4.078032732009888,False
120,8192,8223,8220,8194,8188,8211,8169,8182,8174,8175,8149,8193,8172,8313,4.08622932434082,False
121,8189,8214,8177,8197,8151,8206,8164,8161,8169,8179,8144,8176,8176,8311,4.093049764633179,False
122,8178,8218,8169,8196,8153,8200,8154,8155,8160,8172,8139,8168,8169,8290,4.101106405258179,False
123,8171,8216,8151,8203,8154,8204,8163,8160,8174,8168,8148,8171,8170,8282,4.10897707939148,False
124,8191,8238,8213,8226,8195,8215,8170,8179,8191,8180,8160,8200,8183,8304,4.117221832275391,False
125,8195,8238,8187,8234,8140,8212,8174,8170,8199,8192,8177,8195,8202,8329,4.125020503997803,False
126,8184,8234,8168,8214,8146,8192,8166,8157,8185,8184,8173,8175,8195,8314,4.13309383392334,False
127,8194,8245,8287,8201,8233,8183,8142,8179,8146,8161,8125,8193,8148,8269,4.141065835952759,False
237,8146,8184,8153,8189,8102,8173,8141,8140,8137,8154,8101,8144,8124,8249,4.149184226989746,False
0,8109,8154,8060,8163,8076,8163,8138,8115,8142,8146,8108,8109,8125,8250,4.155937433242798,False
1,8143,8195,8189,8156,8175,8165,8128,8155,8129,8137,8112,8146,8117,8253,4.164130926132202,False
2,8146,8192,8167,8166,8130,8169,8133,8152,8123,8144,8118,8148,8111,8254,4.172042608261108,False
3,8123,8164,8111,8159,8107,8167,8136,8131,8120,8140,8118,8141,8104,8249,4.1802167892456055,False
4,8140,8165,8133,8156,8133,8161,8134,8137,8118,8127,8123,8153,8111,8261,4.187962532043457,False
5,8186,8200,8207,8181,8172,8160,8129,8159,8117,8131,8141,8181,8119,8287,4.196144104003906,False
6,8196,8202,8184,8205,8117,8169,8132,8160,8126,8142,8173,8187,8135,8310,4.203943490982056,False
7,8201,8199,8139,8215,8100,8176,8136,8152,8137,8143,8198,8178,8167,8330,4.212013244628906,False
8,8254,8243,8265,8227,8210,8180,8124,8180,8131,8147,8203,8215,8182,8354,4.220094919204712,False
9,8252,8235,8221,8234,8160,8184,8142,8170,8154,8166,8218,8210,8198,8375,4.226942777633667,False
10,8214,8226,8151,8234,8149,8200,8162,8161,8180,8174,8220,8188,8206,8362,4.2349162101745605,False
11,8213,8245,8232,8226,8217,8217,8157,8186,8168,8168,8200,8196,8197,8338,4.243139266967773,False
12,8206,8219,8165,8210,8144,8204,8162,8164,8165,8172,8193,8172,8194,8343,4.2510666847229,False
13,8219,8215,8145,8212,8139,8183,8156,8156,8161,8165,8182,8172,8183,8352,4.259151458740234,False
14,8224,8222,8191,8225,8168,8178,8142,8169,8150,8160,8171,8178,8175,8347,4.2671074867248535,False
15,8195,8216,8194,8213,8171,8176,8139,8167,8148,8165,8153,8170,8166,8321,4.275073051452637,False
16,8187,8200,8168,8190,8159,8171,8141,8165,8159,8163,8147,8164,8159,8303,4.283043622970581,False
17,8182,8173,8108,8184,8128,8171,8138,8156,8163,8160,8154,8145,8166,8310,4.290126800537109,False
18,8183,8195,8190,8189,8173,8175,8122,8167,8149,8157,8137,8165,8160,8308,4.2979607582092285,False
19,8186,8209,8195,8200,8135,8177,8137,8162,8161,8163,8136,8172,8164,8307,4.306098937988281,False
20,8201,8211,8163,8218,8131,8183,8150,8154,8168,8164,8154,8169,8170,8322,4.3140904903411865,False
21,8236,8226,8241,8226,8177,8180,8126,8162,8140,8150,8162,8196,8165,8338,4.322151184082031,False
22,8234,8209,8176,8227,8101,8163,8125,8133,8130,8144,8176,8192,8170,8342,4.334155559539795,False
23,8240,8227,8192,8239,8148,8161,8139,8146,8130,8139,8181,8199,8158,8327,4.338128566741943,False
24,8249,8244,8237,8255,8171,8166,8142,8172,8135,8146,8194,8206,8157,8331,4.346115350723267,False
25,8234,8232,8165,8252,8104,8165,8146,8160,8165,8167,8219,8189,8189,8354,4.353927612304688,False
26,8239,8238,8181,8241,8136,8174,8150,8171,8183,8175,8218,8192,8200,8349,4.361057758331299,False
27,8220,8216,8167,8221,8140,8178,8149,8162,8168,8165,8185,8163,8175,8320,4.3691487312316895,False
28,8179,8192,8151,8187,8134,8161,8132,8145,8127,8142,8144,8139,8132,8290,4.377126216888428,False
29,8153,8179,8134,8162,8099,8146,8129,8143,8100,8128,8133,8142,8121,8276,4.3851399421691895,False
30,8147,8177,8134,8158,8111,8149,8133,8150,8112,8137,8140,8147,8138,8275,4.393097162246704,False
31,8161,8186,8194,8163,8158,8155,8118,8172,8127,8150,8140,8161,8133,8277,4.401149749755859,False
32,8155,8174,8119,8167,8086,8150,8118,8159,8136,8155,8152,8148,8135,8285,4.409068822860718,False
33,8173,8205,8191,8175,8148,8150,8114,8167,8128,8143,8134,8167,8123,8282,4.417150735855103,False
34,8182,8203,8243,8183,8150,8148,8111,8176,8113,8130,8114,8173,8107,8277,4.424160003662109,False
35,8157,8173,8111,8189,8052,8145,8131,8142,8122,8135,8129,8142,8122,8278,4.432116270065308,False
36,8184,8213,8210,8210,8155,8166,8138,8159,8123,8135,8131,8184,8126,8281,4.4400553703308105,False
37,8210,8217,8239,8230,8155,8178,8154,8164,8126,8144,8145,8199,8153,8313,4.448147535324097,False
38,8202,8204,8120,8236,8090,8175,8172,8137,8144,8161,8176,8168,8195,8346,4.455950021743774,False
39,8211,8235,8173,8247,8155,8197,8168,8145,8147,8161,8178,8183,8195,8332,4.464083433151245,False
40,8211,8235,8217,8246,8166,8209,8160,8153,8140,8157,8165,8193,8183,8302,4.472198486328125,False
41,8202,8221,8181,8231,8122,8188,8146,8163,8136,8167,8162,8185,8192,8299,4.480015277862549,False
42,8207,8224,8136,8236,8096,8173,8138,8167,8148,8184,8171,8172,8211,8320,4.488133430480957,False
43,8229,8251,8212,8253,8175,8179,8136,8187,8144,8182,8166,8186,8208,8322,4.4951491355896,False
44,8220,8234,8190,8241,8139,8176,8140,8188,8138,8178,8166,8185,8210,8316,4.5031280517578125,False
45,8181,8191,8083,8210,8079,8169,8143,8163,8148,8180,8154,8155,8214,8307,4.5111846923828125,False
46,8194,8217,8280,8186,8243,8182,8121,8210,8128,8167,8108,8189,8166,8273,4.5190510749816895,False
47,8178,8194,8270,8167,8177,8183,8125,8213,8129,8169,8113,8181,8150,8262,4.527110815048218,False
48,8127,8143,8037,8157,8014,8178,8153,8157,8163,8179,8146,8124,8180,8272,4.535072565078735,False
49,8142,8170,8108,8174,8109,8195,8157,8169,8171,8174,8133,8144,8175,8261,4.543151378631592,False
50,8154,8191,8190,8199,8166,8203,8150,8175,8161,8171,8123,8162,8162,8255,4.5511579513549805,False
51,8149,8197,8182,8199,8143,8194,8143,8158,8142,8169,8130,8162,8164,8261,4.558035373687744,False
52,8158,8206,8167,8200,8110,8195,8148,8151,8132,8162,8147,8166,8177,8276,4.566100120544434,False
53,8170,8224,8176,8240,8136,8205,8151,8143,8125,8155,8170,8177,8191,8296,4.574150800704956,False
54,8187,8229,8210,8272,8152,8209,8147,8139,8105,8148,8176,8189,8191,8297,4.581884145736694,False
55,8188,8209,8170,8251,8088,8203,8155,8128,8093,8141,8167,8177,8185,8290,4.590125560760498,False
56,8203,8234,8204,8246,8119,8193,8146,8138,8084,8136,8158,8193,8175,8294,4.598127603530884,False
57,8216,8248,8207,8281,8129,8188,8145,8146,8092,8145,8175,8202,8191,8307,4.60605001449585,False
58,8212,8233,8182,8281,8127,8204,8168,8164,8117,8164,8198,8196,8224,8315,4.614126205444336,False
59,8225,8247,8252,8256,8172,8216,8171,8211,8135,8176,8208,8220,8231,8317,4.621122598648071,False
60,8225,8240,8196,8269,8113,8200,8160,8211,8158,8187,8218,8209,8239,8326,4.629174709320068,False
61,8222,8234,8189,8280,8128,8195,8152,8213,8172,8189,8200,8208,8233,8319,4.63712215423584,False
62,8199,8199,8179,8232,8109,8207,8163,8204,8172,8183,8171,8200,8211,8300,4.645167350769043,False
63,8167,8175,8131,8190,8098,8207,8170,8176,8165,8174,8146,8170,8188,8285,4.65311861038208,False
64,8192,8219,8283,8206,8223,8206,8145,8205,8138,8159,8120,8205,8161,8271,4.661066770553589,False
65,8177,8192,8218,8215,8127,8195,8132,8175,8134,8163,8136,8193,8177,8271,4.669145107269287,False
66,8142,8161,8039,8206,8021,8181,8126,8106,8146,8181,8161,8149,8213,8294,4.677057981491089,False
67,8182,8205,8105,8223,8117,8191,8111,8114,8137,8188,8163,8175,8222,8330,4.684057235717773,False
68,8228,8233,8209,8240,8178,8210,8108,8145,8133,8186,8160,8205,8212,8349,4.692087650299072,False
69,8226,8219,8209,8226,8132,8216,8120,8155,8148,8191,8150,8196,8214,8343,4.700129985809326,False
70,8178,8181,8093,8194,8052,8208,8150,8129,8158,8194,8137,8150,8217,8320,4.708050966262817,False
71,8169,8210,8206,8182,8172,8210,8160,8152,8137,8174,8105,8169,8180,8283,4.716134071350098,False
72,8187,8222,8300,8179,8183,8218,8156,8185,8125,8164,8094,8190,8158,8268,4.724194049835205,False
73,8147,8154,8067,8156,7986,8201,8165,8137,8136,8167,8116,8121,8168,8255,4.733058452606201,False
74,8138,8154,8063,8139,8033,8181,8156,8134,8111,8142,8103,8108,8137,8223,4.7441246509552,False
75,8175,8185,8205,8149,8130,8182,8144,8170,8096,8137,8097,8145,8118,8242,4.748135805130005,False
76,8183,8176,8168,8161,8095,8190,8141,8171,8131,8165,8140,8160,8158,8298,4.75520133972168,False
77,8180,8181,8173,8164,8097,8194,8125,8182,8157,8169,8166,8175,8183,8308,4.763141393661499,False
78,8191,8195,8213,8172,8111,8202,8112,8189,8161,8163,8160,8181,8183,8303,4.771122455596924,False
79,8199,8189,8196,8174,8106,8206,8118,8170,8162,8168,8150,8179,8170,8308,4.779138088226318,False
80,8165,8156,8097,8161,8048,8201,8142,8126,8165,8164,8142,8153,8160,8289,4.787081241607666,False
81,8150,8166,8137,8150,8093,8204,8146,8125,8149,8156,8128,8153,8149,8263,4.795154333114624,False
82,8175,8179,8228,8160,8132,8208,8137,8159,8139,8162,8139,8180,8150,8273,4.803089380264282,False
83,8163,8149,8133,8170,8061,8204,8154,8155,8164,8182,8174,8171,8181,8304,4.811060667037964,False
84,8174,8178,8197,8171,8137,8210,8149,8176,8170,8193,8190,8194,8198,8309,4.817933082580566,False
85,8195,8191,8244,8170,8133,8210,8131,8186,8158,8196,8199,8200,8199,8306,4.825870513916016,False
86,8174,8158,8118,8168,8037,8201,8141,8158,8169,8198,8201,8165,8204,8317,4.833945274353027,False
87,8167,8174,8136,8167,8083,8209,8156,8165,8177,8193,8176,8168,8190,8317,4.841951847076416,False
88,8157,8180,8151,8153,8100,8210,8164,8172,8171,8187,8155,8158,8169,8300,4.849979639053345,False
89,8159,8178,8181,8143,8137,8210,8168,8194,8168,8189,8149,8163,8164,8285,4.857963562011719,False
90,8155,8164,8161,8146,8117,8216,8185,8204,8188,8204,8151,8166,8179,8287,4.865949392318726,False
91,8128,8148,8119,8139,8094,8198,8184,8186,8189,8201,8128,8137,8159,8270,4.873837947845459,False
92,8139,8164,8217,8134,8156,8183,8167,8204,8160,8178,8099,8151,8119,8242,4.881173849105835,False
93,8133,8144,8155,8141,8085,8188,8186,8186,8166,8179,8113,8150,8131,8244,4.889143705368042,False
94,8123,8145,8139,8136,8089,8192,8189,8174,8169,8179,8108,8145,8125,8241,4.897094249725342,False
95,8140,8151,8180,8122,8090,8185,8170,8181,8154,8163,8083,8144,8090,8230,4.905143022537232,False
96,8143,8142,8111,8135,8033,8178,8167,8165,8161,8163,8089,8129,8094,8236,4.913090705871582,False
97,8165,8174,8203,8159,8129,8186,8173,8192,8168,8170,8108,8171,8115,8244,4.921144008636475,False
98,8172,8162,8216,8153,8114,8198,8182,8194,8176,8184,8136,8181,8141,8249,4.929147243499756,False
99,8149,8136,8114,8144,8039,8196,8170,8150,8175,8188,8140,8142,8150,8242,4.937150716781616,False
100,8132,8142,8101,8141,8053,8186,8158,8128,8165,8182,8122,8126,8138,8235,4.945122718811035,False
101,8126,8148,8140,8123,8103,8194,8166,8139,8172,8192,8121,8134,8141,8238,4.952145099639893,False
102,8144,8163,8232,8113,8154,8201,8156,8171,8170,8197,8129,8169,8145,8231,4.960054874420166,False
103,8148,8161,8200,8134,8094,8179,8153,8165,8175,8196,8152,8167,8156,8239,4.968142747879028,False
104,8148,8165,8140,8154,8073,8166,8172,8163,8200,8206,8171,8150,8177,8272,4.976178646087647,False
105,8144,8153,8124,8136,8076,8160,8178,8183,8203,8206,8163,8149,8184,8280,4.986898899078369,False
106,8120,8136,8120,8115,8070,8149,8173,8182,8181,8196,8144,8148,8173,8255,4.993084907531738,False
107,8118,8149,8188,8114,8116,8161,8174,8189,8168,8193,8120,8161,8147,8233,5.000213146209717,False
108,8105,8120,8120,8099,8057,8176,8180,8166,8172,8186,8111,8133,8137,8229,5.007923126220703,False
109,8105,8126,8133,8094,8080,8166,8169,8161,8154,8166,8118,8137,8127,8215,5.015104293823242,False
110,8138,8164,8263,8115,8148,8154,8166,8194,8126,8157,8123,8180,8112,8203,5.023047685623169,False
111,8129,8130,8150,8125,8047,8148,8183,8161,8131,8163,8132,8146,8122,8211,5.031140089035034,False
112,8125,8132,8111,8143,8042,8152,8172,8134,8138,8169,8143,8142,8132,8222,5.039068222045898,False
113,8157,8181,8195,8183,8090,8154,8161,8151,8135,8180,8164,8184,8149,8250,5.047115325927734,False
114,8182,8199,8193,8203,8093,8155,8167,8155,8139,8181,8171,8190,8168,8283,5.055025100708008,False
115,8192,8204,8197,8196,8103,8170,8154,8152,8147,8185,8172,8186,8169,8290,5.062917947769165,False
116,8189,8202,8176,8191,8054,8178,8153,8139,8154,8198,8185,8177,8178,8287,5.071107387542725,False
117,8193,8206,8210,8181,7930,8171,8151,8149,8131,8178,8164,8181,8172,8272,5.079064130783081,False
118,8174,8178,8156,8168,7910,8163,8147,8148,8120,8161,8142,8167,8157,8260,5.085885047912598,False
119,8145,8159,8112,8155,8087,8165,8151,8155,8141,8176,8138,8149,8146,8256,5.093987703323364,False
120,8154,8175,8246,8142,7824,8171,8153,8191,8136,8170,8120,8165,8118,8241,5.101872682571411,False
121,8126,8139,8171,8131,8376,8147,8150,8159,8111,8148,8105,8136,8094,8218,5.109935283660889,False
122,8079,8102,8079,8103,10943,8114,8121,8135,8101,8134,8095,8112,8074,8190,5.118012428283691,False
123,8066,8087,8144,8070,12721,8100,8100,8161,8112,8131,8105,8125,8074,8175,5.1261632442474365,False
124,8072,8078,8144,8068,12294,8095,8107,8165,8111,8136,8135,8133,8093,8189,5.13504433631897,False
125,8104,8107,8167,8094,11959,8086,8100,8160,8080,8130,8142,8156,8092,8216,5.152912378311157,False
126,8111,8108,8156,8103,12227,8081,8087,8140,8071,8115,8136,8151,8083,8224,5.1569530963897705,False
127,8121,8120,8180,8103,12089,8087,8078,8133,8067,8105,8132,8160,8079,8216,5.164961338043213,False
237,8134,8142,8197,8118,11861,8089,8075,8132,8061,8116,8144,8174,8100,8224,5.172908306121826,False
0,8107,8133,8145,8129,11852,8094,8079,8121,8076,8134,8156,8152,8124,8234,5.181080102920532,False
1,8113,8144,8196,8144,11819,8113,8078,8139,8083,8139,8149,8164,8116,8233,5.188884496688843,False
2,8142,8150,8174,8157,11716,8128,8088,8144,8086,8150,8162,8178,8128,8258,5.197011232376099,False
3,8174,8169,8175,8168,11676,8132,8084,8148,8085,8154,8180,8188,8158,8287,5.20493221282959,False
4,8201,8175,8212,8180,11661,8121,8077,8157,8083,8152,8173,8188,8165,8285,5.211838722229004,False
5,8180,8149,8137,8177,11580,8122,8102,8152,8099,8160,8158,8159,8157,8272,5.219910621643066,False
6,8159,8154,8201,8151,11593,8135,8116,8193,8099,8159,8131,8166,8121,8247,5.227766513824463,False
7,8131,8131,8193,8121,11512,8136,8132,8205,8097,8147,8110,8151,8091,8213,5.2360007762908936,False
8,8098,8106,8108,8106,11409,8140,8158,8170,8111,8145,8097,8124,8082,8186,5.24397349357605,False
9,8094,8102,8141,8081,11399,8146,8151,8156,8115,8139,8090,8128,8066,8179,5.251808881759644,False
10,8097,8080,8140,8058,11353,8130,8121,8149,8112,8127,8098,8120,8060,8185,5.259921789169312,False
11,8114,8088,8194,8066,11333,8125,8094,8166,8103,8115,8100,8142,8057,8182,5.2680439949035645,False
12,8105,8082,8172,8076,11238,8138,8096,8163,8094,8113,8118,8147,8065,8187,5.275089502334595,False
13,8084,8073,8121,8071,11172,8142,8118,8152,8098,8126,8140,8136,8083,8206,5.283158540725708,False
14,8104,8095,8173,8088,11181,8154,8133,8163,8098,8129,8138,8154,8087,8213,5.290891170501709,False
15,8115,8104,8159,8114,11129,8164,8146,8144,8096,8129,8142,8156,8094,8216,5.298727035522461,False
16,8130,8123,8203,8111,11118,8161,8137,8141,8094,8130,8152,8169,8097,8225,5.306810617446899,False
17,8142,8121,8183,8118,11034,8156,8119,8132,8100,8131,8157,8166,8108,8238,5.314997911453247,False
18,8151,8134,8142,8162,10982,8151,8112,8127,8104,8133,8165,8166,8133,8256,5.322939872741699,False
19,8182,8185,8229,8183,11026,8148,8110,8171,8107,8145,8184,8206,8161,8282,5.331001281738281,False
20,8180,8175,8168,8161,10941,8150,8125,8172,8131,8161,8197,8183,8181,8296,5.339025259017944,False
21,8170,8160,8146,8145,10893,8153,8130,8163,8136,8146,8165,8154,8151,8265,5.345969438552856,False
22,8170,8157,8203,8138,10884,8145,8122,8180,8119,8138,8141,8167,8123,8241,5.353894710540772,False
23,8157,8139,8171,8112,10824,8132,8117,8183,8111,8148,8134,8166,8122,8251,5.361897468566895,False
24,8145,8127,8145,8093,10768,8133,8127,8180,8108,8139,8122,8153,8109,8247,5.370040893554688,False
25,8125,8101,8098,8090,10706,8135,8140,8163,8114,8132,8130,8136,8113,8235,5.3778159618377686,False
26,8150,8111,8182,8081,10741,8143,8125,8178,8112,8135,8132,8169,8121,8238,5.385887861251831,False
27,8173,8110,8178,8090,10659,8154,8138,8180,8125,8142,8138,8172,8132,8258,5.393995523452759,False
28,8155,8111,8113,8112,10587,8164,8161,8166,8141,8143,8150,8148,8143,8266,5.402052879333496,False
29,8164,8151,8281,8114,10684,8181,8138,8206,8118,8133,8134,8192,8121,8246,5.408980131149292,False
30,8147,8104,8207,8106,10555,8185,8151,8181,8125,8136,8145,8173,8123,8246,5.417049646377564,False
31,8131,8075,8068,8125,10437,8182,8175,8137,8149,8151,8180,8133,8151,8265,5.424921274185181,False
32,8172,8128,8169,8154,10483,8184,8156,8153,8132,8151,8187,8167,8153,8269,5.432969570159912,False
33,8197,8140,8191,8165,10452,8179,8138,8146,8118,8153,8186,8181,8146,8264,5.440890312194824,False
34,8199,8129,8175,8169,10426,8171,8130,8142,8125,8166,8204,8175,8162,8270,5.449017524719238,False
35,8185,8124,8149,8166,10388,8164,8128,8138,8128,8173,8212,8162,8184,8279,5.456954717636108,False
36,8179,8125,8170,8158,10372,8169,8126,8149,8114,8165,8185,8167,8181,8277,5.465055704116821,False
37,8175,8095,8181,8144,10342,8177,8129,8169,8110,8161,8168,8175,8177,8283,5.473003625869751,False
38,8155,8064,8126,8124,10278,8173,8133,8160,8122,8156,8163,8155,8180,8283,5.479998588562012,False
39,8163,8084,8188,8110,10281,8174,8130,8175,8117,8149,8140,8165,8161,8264,5.487897396087647,False
40,8146,8061,8149,8099,10208,8175,8146,8179,8127,8156,8139,8151,8149,8256,5.496005296707153,False
41,8117,8049,8133,8092,10199,8175,8155,8179,8135,8150,8144,8138,8137,8246,5.503956317901611,False
42,8139,8078,8247,8092,10225,8182,8147,8195,8123,8132,8139,8164,8115,8225,5.512026071548462,False
43,8123,8056,8155,8087,10088,8182,8165,8164,8139,8134,8144,8133,8119,8218,5.519969940185547,False
44,8099,8052,8114,8087,10055,8186,8184,8155,8153,8140,8136,8118,8122,8218,5.527983903884888,False
45,8120,8076,8161,8112,10069,8203,8182,8165,8143,8144,8152,8141,8128,8222,5.535836935043335,False
46,8137,8093,8148,8142,10030,8210,8151,8149,8133,8147,8175,8146,8137,8222,5.543016672134399,False
47,8137,8097,8164,8137,9994,8205,8115,8144,8127,8141,8159,8142,8131,8229,5.550833940505981,False
48,8139,8085,8154,8124,9956,8205,8120,8144,8137,8152,8159,8135,8143,8251,5.558832883834839,False
49,8155,8102,8197,8135,9982,8201,8129,8151,8133,8166,8175,8156,8147,8250,5.566945552825928,False
50,8136,8084,8154,8134,9908,8184,8125,8140,8113,8156,8168,8153,8140,8237,5.574919939041138,False
51,8112,8070,8120,8126,9853,8193,8135,8144,8109,8146,8156,8148,8143,8238,5.582899570465088,False
52,8126,8097,8194,8131,9879,8214,8156,8172,8120,8148,8157,8166,8144,8235,5.590838193893433,False
53,8114,8076,8119,8133,9819,8204,8167,8157,8135,8153,8159,8137,8143,8232,5.599027633666992,False
54,8127,8085,8184,8128,9854,8198,8149,8182,8130,8151,8132,8150,8118,8229,5.607080459594727,False
55,8140,8092,8252,8128,9815,8207,8149,8203,8138,8150,8128,8170,8115,8231,5.61392617225647,False
56,8115,8060,8119,8128,9699,8199,8162,8160,8164,8159,8161,8140,8155,8244,5.622119426727295,False
57,8144,8090,8159,8136,9750,8197,8152,8173,8163,8160,8166,8155,8169,8258,5.630042552947998,False
58,8173,8105,8195,8155,9734,8211,8155,8188,8158,8164,8167,8164,8170,8272,5.637954473495483,False
59,8165,8092,8143,8158,9666,8211,8155,8163,8160,8166,8184,8150,8181,8274,5.646032333374023,False
60,8162,8104,8147,8152,9645,8204,8147,8160,8160,8167,8195,8156,8186,8269,5.653954982757568,False
61,8173,8127,8184,8168,9647,8205,8151,8173,8158,8173,8192,8174,8184,8280,5.661728858947754,False
62,8212,8139,8229,8197,9644,8211,8149,8179,8153,8171,8190,8195,8188,8305,5.668901443481445,False
63,8229,8132,8155,8205,9560,8213,8144,8149,8161,8174,8197,8179,8208,8317,5.6768999099731445,False
64,8209,8145,8173,8179,9577,8214,8127,8140,8145,8167,8167,8169,8184,8290,5.685096025466919,False
65,8167,8120,8189,8146,9556,8207,8122,8141,8117,8156,8139,8156,8147,8261,5.693093061447144,False
66,8121,8071,8102,8110,9478,8200,8141,8126,8115,8148,8128,8117,8137,8241,5.701012134552002,False
67,8117,8086,8202,8078,9533,8207,8142,8171,8098,8131,8093,8138,8096,8207,5.708956480026245,False
68,8108,8077,8198,8075,9460,8202,8150,8194,8099,8139,8108,8151,8092,8211,5.717093467712402,False
69,8100,8062,8091,8103,9363,8197,8165,8172,8137,8158,8166,8137,8145,8240,5.725083351135254,False
70,8120,8074,8124,8121,9408,8218,8162,8171,8159,8159,8170,8140,8163,8240,5.7331061363220215,False
71,8133,8081,8164,8117,9440,8237,8161,8180,8167,8162,8140,8141,8146,8239,5.741052150726318,False
72,8144,8104,8210,8130,9436,8243,8156,8199,8180,8177,8143,8164,8156,8253,5.748167276382446,False
73,8122,8101,8139,8140,9356,8247,8161,8175,8195,8191,8185,8156,8201,8255,5.7559099197387695,False
74,8102,8102,8122,8139,9361,8250,8175,8151,8194,8197,8195,8150,8210,8242,5.763926267623901,False
75,8141,8124,8215,8157,9372,8257,8186,8174,8190,8201,8186,8184,8210,8271,5.771981239318848,False
76,8187,8128,8165,8189,9266,8269,8199,8173,8208,8208,8207,8194,8254,8334,5.779964685440064,False
77,8222,8159,8196,8201,9300,8264,8184,8181,8202,8205,8213,8206,8264,8347,5.7878577709198,False
78,8211,8151,8208,8179,9315,8239,8162,8176,8170,8190,8169,8189,8226,8321,5.795971155166626,False
79,8175,8121,8145,8146,9265,8231,8163,8155,8137,8167,8111,8153,8186,8300,5.802923440933228,False
80,8167,8132,8195,8135,9260,8238,8176,8175,8123,8151,8092,8149,8150,8268,5.810871839523315,False
81,8129,8109,8134,8129,9176,8231,8206,8176,8151,8163,8106,8115,8135,8229,5.819035768508911,False
82,8105,8087,8105,8112,9156,8240,8228,8187,8181,8174,8106,8119,8136,8213,5.827057838439941,False
83,8124,8085,8139,8116,9143,8256,8225,8203,8194,8177,8108,8156,8146,8233,5.835132837295532,False
84,8133,8094,8134,8133,9128,8246,8196,8181,8198,8178,8106,8155,8147,8253,5.843091726303101,False
85,8146,8110,8182,8128,9162,8237,8171,8172,8187,8168,8090,8156,8137,8249,5.851099491119385,False
86,8142,8087,8144,8112,9105,8232,8181,8158,8177,8163,8101,8147,8149,8252,5.8587965965271,False
87,8139,8095,8159,8113,9097,8214,8177,8155,8151,8160,8106,8162,8156,8268,5.866913080215454,False
88,8150,8104,8172,8124,9075,8199,8165,8147,8136,8159,8104,8174,8159,8282,5.873898267745972,False
89,8169,8100,8152,8129,9044,8197,8175,8145,8147,8167,8120,8162,8170,8282,5.8819732666015625,False
90,8187,8116,8215,8132,9058,8199,8178,8172,8142,8166,8126,8175,8161,8278,5.889971256256104,False
91,8161,8100,8147,8139,8991,8193,8176,8148,8134,8160,8129,8166,8159,8290,5.898129940032959,False
92,8173,8123,8205,8159,9041,8199,8157,8161,8138,8161,8130,8179,8157,8297,5.905840158462524,False
93,8193,8150,8261,8185,9026,8214,8158,8203,8168,8183,8146,8185,8169,8290,5.913894414901733,False
94,8145,8125,8097,8189,8901,8223,8194,8178,8209,8212,8168,8136,8207,8283,5.9220130443573,False
95,8131,8128,8113,8176,8947,8235,8195,8179,8206,8211,8156,8141,8199,8263,5.929805755615234,False
96,8138,8120,8150,8153,8931,8228,8179,8190,8189,8197,8130,8144,8161,8248,5.937017917633057,False
97,8137,8127,8149,8143,8898,8213,8178,8186,8177,8186,8113,8133,8131,8242,5.9451048374176025,False
98,8147,8143,8184,8155,8923,8220,8196,8184,8169,8180,8127,8153,8126,8245,5.952969074249268,False
99,8140,8125,8148,8153,8899,8221,8213,8169,8171,8177,8142,8152,8139,8247,5.960961103439331,False
100,8144,8143,8206,8147,8919,8217,8191,8182,8165,8177,8134,8159,8141,8246,5.969022750854492,False
101,8127,8138,8165,8154,8862,8221,8183,8163,8173,8187,8154,8147,8167,8259,5.977080345153809,False
102,8114,8127,8117,8153,8842,8225,8190,8143,8174,8183,8150,8141,8177,8259,5.985054969787598,False
103,8146,8145,8190,8147,8859,8218,8181,8163,8155,8161,8118,8161,8150,8245,5.993054389953613,False
104,8147,8131,8144,8159,8785,8208,8176,8147,8155,8154,8137,8149,8145,8241,5.999990940093994,False
105,8148,8142,8169,8166,8795,8203,8171,8151,8152,8161,8158,8162,8152,8249,6.008138418197632,False
106,8169,8163,8206,8153,8796,8200,8171,8167,8148,8170,8150,8181,8162,8280,6.015876293182373,False
107,8173,8158,8153,8159,8763,8207,8177,8157,8164,8177,8160,8172,8184,8312,6.024031400680542,False
108,8165,8151,8131,8173,8766,8224,8185,8164,8183,8185,8197,8170,8213,8320,6.0319130420684814,False
109,8158,8152,8137,8160,8773,8232,8204,8198,8198,8203,8220,8172,8233,8328,6.039781332015991,False
110,8184,8185,8248,8164,8809,8234,8209,8243,8204,8215,8207,8197,8224,8335,6.048093795776367,False
111,8185,8177,8204,8183,8710,8212,8203,8217,8199,8203,8185,8173,8200,8314,6.055968999862671,False
112,8159,8155,8093,8165,8647,8185,8189,8164,8176,8178,8149,8129,8160,8269,6.063963174819946,False
113,8158,8157,8155,8140,8701,8191,8176,8164,8153,8164,8106,8137,8112,8235,6.071044921875,False
114,8141,8141,8151,8137,8675,8204,8186,8160,8162,8167,8100,8130,8105,8238,6.078934907913208,False
115,8138,8158,8178,8137,8698,8213,8208,8183,8178,8169,8121,8141,8129,8254,6.086876153945923,False
116,8138,8158,8176,8143,8668,8226,8229,8198,8193,8178,8149,8147,8148,8255,6.095073461532593,False
117,8119,8135,8113,8152,8592,8227,8231,8168,8202,8181,8157,8128,8146,8241,6.102826833724976,False
118,8131,8153,8183,8148,8638,8224,8218,8164,8184,8168,8146,8155,8134,8236,6.110979318618774,False
119,8136,8155,8173,8145,8636,8230,8220,8158,8177,8175,8170,8164,8158,8262,6.1190385818481445,False
120,8151,8162,8148,8170,8609,8237,8207,8153,8182,8189,8206,8168,8192,8289,6.126856565475464,False
121,8193,8184,8185,8192,8583,8226,8178,8156,8178,8189,8200,8194,8197,8308,6.133796453475952,False
122,8216,8190,8188,8193,8565,8210,8159,8153,8160,8179,8172,8196,8190,8331,6.141984701156616,False
123,8218,8192,8203,8191,8584,8214,8152,8169,8145,8171,8166,8191,8186,8338,6.14998459815979,False
124,8192,8168,8138,8190,8539,8221,8171,8172,8166,8179,8168,8170,8191,8334,6.157861232757568,False
125,8159,8165,8140,8175,8552,8219,8187,8179,8179,8185,8143,8158,8167,8299,6.165825605392456,False
126,8129,8158,8181,8143,8561,8230,8198,8191,8177,8179,8132,8149,8145,8251,6.174094676971436,False
127,8092,8128,8126,8124,8512,8248,8224,8188,8208,8189,8154,8136,8167,8252,6.181799411773682,False
237,8101,8143,8170,8133,8532,8248,8225,8205,8230,8201,8153,8162,8180,8271,6.190141201019287,False
0,8118,8143,8148,8144,8476,8227,8213,8191,8210,8200,8143,8155,8175,8261,6.196988582611084,False
1,8112,8138,8123,8132,8461,8210,8200,8170,8184,8190,8139,8139,8163,8233,6.205003261566162,False
2,8094,8140,8171,8116,8474,8207,8188,8168,8179,8182,8131,8149,8152,8227,6.212972640991211,False
3,8081,8130,8122,8119,8421,8213,8196,8150,8182,8176,8131,8136,8163,8240,6.221005201339722,False
4,8128,8165,8196,8135,8473,8220,8189,8168,8169,8169,8130,8161,8161,8253,6.228904485702515,False
5,8154,8171,8203,8146,8437,8205,8181,8167,8175,8177,8153,8178,8167,8275,6.236975908279419,False
6,8135,8166,8132,8163,8385,8205,8182,8147,8181,8180,8176,8164,8173,8275,6.244863033294678,False
7,8144,8180,8169,8171,8411,8217,8183,8162,8156,8169,8158,8165,8163,8257,6.252812385559082,False
8,8150,8159,8136,8146,8375,8211,8196,8163,8157,8168,8142,8156,8169,8267,6.260921239852905,False
9,8162,8164,8177,8141,8401,8221,8205,8169,8179,8173,8135,8173,8172,8284,6.267886161804199,False
10,8155,8162,8174,8158,8380,8239,8217,8162,8193,8181,8132,8163,8172,8283,6.276074647903442,False
11,8132,8154,8145,8147,8366,8227,8215,8162,8192,8182,8119,8143,8161,8268,6.283969640731812,False
12,8134,8159,8212,8127,8396,8213,8194,8186,8179,8168,8107,8156,8139,8252,6.291844129562378,False
13,8109,8126,8134,8122,8340,8213,8190,8156,8182,8161,8117,8129,8146,8245,6.3000569343566895,False
14,8103,8130,8140,8117,8357,8211,8189,8152,8182,8165,8124,8137,8153,8247,6.308043241500855,False
15,8125,8147,8188,8121,8316,8197,8187,8171,8172,8172,8139,8171,8159,8268,6.316150903701782,False
16,8130,8151,8142,8150,8254,8193,8182,8153,8171,8179,8157,8164,8173,8280,6.324081897735596,False
17,8151,8182,8205,8176,8343,8209,8177,8172,8182,8181,8161,8171,8177,8266,6.331092596054077,True
18,8164,8193,8205,8187,8340,8212,8189,8181,8199,8184,8169,8175,8184,8266,6.3391618728637695,True
19,8163,8193,8163,8194,8284,8209,8188,8162,8191,8187,8178,8177,8196,8278,6.346992254257202,True
20,8159,8185,8129,8200,8265,8222,8180,8153,8184,8196,8201,8174,8219,8291,6.354916095733643,True
21,8166,8195,8135,8195,8291,8232,8182,8167,8192,8209,8202,8172,8228,8297,6.362986326217651,True
22,8176,8212,8200,8170,8302,8225,8179,8189,8180,8202,8159,8177,8206,8289,6.371045112609863,True
23,8141,8177,8126,8150,8230,8211,8185,8174,8174,8189,8136,8144,8193,8281,6.3790283203125,True
24,8134,8176,8147,8151,8268,8206,8185,8183,8175,8179,8132,8143,8181,8258,6.386948347091675,False
25,8145,8183,8191,8142,8249,8210,8190,8189,8172,8165,8120,8157,8167,8233,6.393946170806885,False
26,8121,8161,8118,8127,8179,8214,8202,8157,8168,8159,8107,8135,8164,8236,6.401983261108398,False
27,8137,8171,8181,8134,8233,8212,8188,8168,8152,8148,8100,8159,8148,8248,6.410073280334473,False
28,8159,8166,8162,8154,8180,8204,8186,8166,8152,8147,8119,8170,8155,8264,6.4179229736328125,False
29,8164,8183,8159,8170,8183,8208,8184,8154,8153,8157,8127,8169,8172,8275,6.426092386245728,False
30,8161,8201,8231,8166,8234,8212,8162,8160,8146,8149,8113,8174,8168,8269,6.434073925018311,False
31,8127,8165,8152,8147,8167,8214,8164,8148,8159,8144,8113,8146,8171,8257,6.442115783691406,False
32,8128,8164,8136,8142,8160,8216,8179,8156,8165,8158,8124,8150,8179,8263,6.449105739593506,False
33,8153,8185,8151,8152,8144,8210,8181,8153,8155,8168,8141,8168,8188,8294,6.457909345626831,False
34,8191,8215,8187,8173,8156,8219,8171,8156,8144,8154,8154,8197,8192,8327,6.465066194534302,False
35,8220,8228,8206,8196,8165,8243,8195,8180,8145,8153,8168,8214,8197,8342,6.473100185394287,False
36,8197,8214,8156,8193,8147,8245,8234,8187,8167,8174,8174,8184,8207,8326,6.481084585189819,False
37,8190,8240,8256,8186,8210,8237,8219,8220,8182,8177,8150,8195,8187,8293,6.490108966827393,False
38,8174,8216,8197,8183,8122,8232,8205,8203,8198,8178,8131,8178,8175,8281,6.497047662734985,False
39,8138,8176,8070,8170,8051,8232,8206,8155,8211,8180,8115,8131,8177,8265,6.505026340484619,False
40,8137,8196,8140,8158,8116,8233,8182,8157,8199,8168,8106,8137,8164,8247,6.5121283531188965,False
41,8141,8197,8152,8160,8112,8231,8161,8151,8174,8164,8124,8149,8164,8245,6.521021366119385,False
42,8150,8208,8200,8167,8138,8234,8148,8153,8141,8161,8126,8175,8164,8245,6.527968406677246,False
43,8147,8209,8204,8180,8113,8243,8160,8161,8144,8157,8123,8178,8162,8262,6.5358970165252686,False
44,8152,8203,8150,8189,8071,8244,8193,8166,8176,8160,8123,8153,8167,8283,6.543904781341553,False
45,8186,8211,8176,8185,8083,8246,8212,8180,8188,8160,8117,8160,8170,8287,6.552083492279053,False
46,8188,8204,8146,8183,8055,8244,8221,8167,8189,8159,8122,8161,8172,8288,6.559986591339111,False
47,8185,8216,8188,8195,8073,8237,8222,8174,8183,8165,8127,8175,8164,8291,6.567910432815552,False
48,8188,8195,8169,8204,8037,8236,8228,8172,8189,8182,8156,8174,8192,8317,6.576125383377075,False
49,8190,8189,8159,8199,8065,8241,8223,8168,8194,8181,8178,8177,8223,8339,6.583097696304321,False
50,8214,8227,8311,8202,8171,8252,8208,8207,8169,8162,8164,8224,8207,8324,6.591984510421753,False
51,8199,8197,8200,8220,8040,8240,8226,8186,8167,8172,8178,8196,8212,8326,6.599014520645142,False
52,8179,8170,8057,8223,7967,8219,8235,8153,8180,8180,8192,8153,8234,8339,6.6069252490997314,False
53,8195,8192,8145,8217,8063,8224,8213,8166,8172,8166,8176,8164,8226,8317,6.615046739578247,False
54,8182,8204,8185,8212,8067,8228,8198,8157,8155,8159,8154,8166,8194,8275,6.62302827835083,False
55,8143,8195,8157,8191,8015,8220,8191,8140,8146,8155,8133,8159,8160,8249,6.631038665771484,False
56,8114,8162,8105,8173,7992,8216,8185,8124,8154,8150,8126,8138,8149,8237,6.638921022415161,False
57,8135,8173,8176,8183,8062,8233,8176,8143,8163,8154,8126,8151,8141,8228,6.645889520645142,False
58,8173,8205,8218,8203,8033,8243,8184,8167,8177,8164,8138,8181,8149,8253,6.654085636138916,False
59,8190,8209,8159,8215,7964,8231,8199,8152,8194,8167,8171,8184,8187,8295,6.66195011138916,False
60,8217,8226,8215,8229,8022,8232,8188,8163,8192,8170,8203,8200,8218,8314,6.669923782348633,False
61,8217,8233,8195,8242,7982,8230,8186,8166,8201,8180,8225,8204,8239,8330,6.678030252456665,False
62,8216,8243,8194,8234,7982,8219,8177,8164,8199,8174,8221,8214,8241,8351,6.685879230499268,False
63,8222,8228,8242,8202,8023,8221,8164,8175,8182,8170,8208,8216,8230,8354,6.693801641464233,False
64,8194,8180,8141,8184,7944,8230,8180,8162,8197,8187,8204,8180,8232,8347,6.70210075378418,False
65,8190,8190,8136,8197,7939,8229,8179,8172,8204,8184,8192,8180,8223,8333,6.710007667541504,False
66,8204,8200,8169,8201,7959,8221,8164,8184,8185,8171,8178,8177,8205,8310,6.718097925186157,False
67,8217,8196,8194,8190,7978,8231,8173,8195,8177,8171,8159,8170,8189,8283,6.72603440284729,False
68,8213,8196,8183,8189,7938,8245,8193,8200,8184,8172,8157,8170,8187,8270,6.733083724975586,False
69,8185,8193,8095,8197,7883,8246,8198,8173,8190,8177,8172,8149,8200,8282,6.740916013717651,False
70,8213,8237,8239,8203,8013,8256,8178,8200,8170,8165,8150,8189,8178,8285,6.74907660484314,False
71,8223,8227,8288,8192,8004,8252,8179,8205,8149,8145,8131,8203,8162,8281,6.7569580078125,False
72,8178,8183,8143,8188,7887,8237,8204,8160,8158,8149,8149,8162,8194,8292,6.765117406845093,False
73,8183,8196,8121,8215,7898,8245,8217,8153,8182,8166,8169,8166,8222,8321,6.7728660106658936,False
74,8209,8218,8117,8238,7917,8245,8203,8146,8194,8171,8173,8180,8235,8345,6.780858278274536,False
75,8233,8256,8230,8242,7987,8221,8149,8160,8168,8161,8154,8215,8226,8343,6.788117170333862,False
76,8250,8258,8264,8252,7961,8208,8128,8169,8172,8173,8169,8226,8240,8359,6.795944452285767,False
77,8251,8232,8148,8252,7891,8211,8148,8157,8206,8194,8204,8206,8279,8392,6.804094552993774,False
78,8256,8244,8159,8237,7918,8210,8147,8173,8201,8199,8195,8208,8285,8392,6.811970233917236,False
79,8236,8235,8165,8223,7908,8207,8136,8172,8187,8196,8163,8184,8255,8364,6.819935321807861,False
80,8209,8220,8178,8211,7913,8205,8130,8169,8179,8175,8129,8165,8199,8321,6.827991247177124,False
81,8188,8202,8148,8202,7878,8196,8150,8163,8175,8164,8117,8151,8175,8284,6.835888862609863,False
82,8187,8210,8136,8201,7884,8208,8179,8164,8175,8176,8114,8146,8180,8264,6.8439226150512695,False
83,8198,8231,8227,8193,7923,8226,8177,8187,8159,8172,8099,8164,8162,8252,6.852074861526489,False
84,8160,8191,8143,8177,7816,8221,8184,8162,8154,8160,8103,8138,8160,8247,6.859922647476196,False
85,8166,8194,8153,8178,7837,8228,8195,8164,8162,8169,8117,8151,8175,8260,6.866896152496338,False
86,8211,8215,8210,8190,7855,8238,8200,8187,8177,8189,8134,8181,8196,8291,6.8748955726623535,False
87,8204,8202,8133,8203,7791,8230,8213,8166,8189,8190,8146,8161,8209,8308,6.882936954498291,False
88,8223,8234,8222,8217,7863,8229,8211,8179,8166,8168,8140,8193,8198,8306,6.891120195388794,False
89,8245,8240,8233,8227,7848,8226,8209,8173,8161,8164,8162,8214,8214,8331,6.899084806442261,False
90,8234,8231,8177,8230,7830,8222,8203,8157,8164,8169,8167,8200,8226,8354,6.906989097595215,False
91,8217,8218,8187,8206,7839,8231,8198,8163,8141,8149,8127,8188,8194,8335,6.915119647979736,False
92,8184,8188,8126,8171,7782,8224,8200,8142,8129,8131,8108,8158,8173,8303,6.922948360443115,False
93,8170,8203,8132,8175,7795,8210,8182,8142,8127,8135,8122,8152,8174,8287,6.930085182189941,False
94,8154,8216,8131,8192,7806,8208,8172,8148,8123,8151,8126,8144,8170,8278,6.93792724609375,False
95,8142,8214,8147,8172,7827,8210,8171,8160,8123,8158,8106,8143,8153,8252,6.945953845977783,False
96,8152,8205,8156,8156,7796,8209,8178,8175,8142,8168,8121,8154,8167,8241,6.954014539718628,False
97,8162,8206,8133,8167,7766,8207,8181,8175,8153,8189,8155,8160,8200,8266,6.961881637573242,False
98,8185,8240,8235,8181,7845,8215,8165,8199,8143,8194,8156,8194,8201,8290,6.969854831695557,False
99,8185,8233,8197,8194,7799,8224,8170,8188,8163,8193,8166,8185,8216,8299,6.97785234451294,False
100,8183,8230,8132,8209,7771,8225,8185,8169,8184,8196,8186,8172,8245,8302,6.984862565994263,False
101,8213,8260,8218,8229,7835,8231,8190,8190,8187,8207,8190,8207,8259,8321,6.993067264556885,False
102,8229,8264,8195,8249,7825,8247,8215,8190,8212,8218,8197,8211,8281,8363,7.001101493835449,False
103,8253,8295,8230,8265,7871,8261,8221,8199,8211,8204,8202,8223,8285,8382,7.008971214294434,False
104,8265,8304,8231,8273,7845,8257,8216,8208,8208,8208,8219,8229,8290,8388,7.016942501068115,False
105,8253,8285,8163,8266,7801,8252,8234,8211,8243,8231,8230,8214,8308,8396,7.024901628494263,False
106,8246,8278,8202,8246,7833,8251,8231,8224,8241,8215,8198,8211,8293,8375,7.0329530239105225,False
107,8204,8239,8149,8207,7771,8226,8198,8187,8199,8188,8153,8172,8253,8333,7.040988206863403,False
108,8163,8220,8139,8167,7777,8200,8160,8155,8176,8189,8113,8156,8211,8294,7.048842668533325,False
109,8143,8202,8143,8151,7794,8201,8148,8145,8187,8202,8110,8156,8206,8278,7.056086778640747,False
110,8136,8190,8126,8149,7788,8213,8146,8142,8192,8208,8123,8148,8222,8278,7.064120292663574,False
111,8155,8199,8197,8134,7807,8212,8137,8161,8181,8212,8117,8171,8220,8287,7.071886777877808,False
112,8153,8183,8157,8119,7754,8198,8144,8156,8184,8216,8121,8167,8220,8304,7.080155611038208,False
113,8163,8200,8151,8142,7763,8202,8151,8158,8187,8205,8122,8166,8213,8304,7.088195323944092,False
114,8188,8218,8160,8174,7760,8219,8175,8168,8204,8210,8133,8179,8213,8307,7.096155405044556,False
115,8203,8218,8152,8181,7760,8230,8207,8181,8218,8221,8176,8185,8229,8325,7.104197025299072,False
116,8218,8238,8232,8184,7811,8230,8212,8211,8202,8202,8206,8198,8221,8324,7.112195491790772,False
117,8202,8234,8195,8190,7763,8232,8227,8194,8198,8188,8212,8180,8215,8311,7.119200944900513,False
118,8186,8231,8152,8199,7747,8244,8242,8175,8204,8189,8212,8171,8218,8312,7.127084970474243,False
119,8186,8220,8149,8207,7744,8229,8227,8171,8187,8167,8214,8171,8204,8316,7.135121822357178,False
120,8183,8217,8153,8196,7747,8196,8197,8158,8155,8135,8209,8167,8178,8298,7.143117427825928,False
121,8195,8238,8205,8180,7770,8199,8189,8171,8140,8133,8203,8174,8164,8275,7.15106725692749,False
122,8180,8214,8121,8185,7711,8220,8209,8167,8159,8151,8219,8144,8184,8274,7.159120321273804,False
123,8176,8217,8178,8182,7794,8220,8199,8182,8165,8156,8207,8160,8185,8266,7.167119979858398,False
124,8183,8223,8271,8161,7831,8204,8184,8202,8159,8162,8178,8189,8169,8265,7.174851417541504,False
125,8142,8183,8115,8156,7701,8194,8199,8166,8182,8186,8177,8138,8189,8266,7.183120489120483,False
126,8139,8202,8132,8176,7736,8201,8196,8174,8205,8204,8172,8141,8202,8252,7.190064907073975,False
127,8165,8220,8193,8194,7759,8206,8202,8197,8228,8220,8180,8175,8217,8276,7.198022365570068,False
237,8175,8204,8143,8197,7726,8212,8225,8191,8250,8234,8210,8183,8256,8330,7.206209897994995,False
0,8193,8213,8188,8199,7777,8232,8234,8203,8250,8237,8224,8203,8282,8346,7.214120388031006,False
1,8201,8219,8207,8212,7784,8240,8237,8201,8246,8235,8215,8209,8275,8336,7.222110271453857,False
2,8213,8227,8190,8230,7763,8238,8245,8195,8249,8232,8211,8211,8263,8346,7.230066537857056,False
3,8217,8227,8148,8237,7733,8235,8258,8182,8251,8225,8210,8195,8276,8371,7.237941741943359,False
4,8220,8234,8175,8243,7759,8230,8257,8182,8235,8210,8184,8194,8279,8372,7.246075630187988,False
5,8231,8237,8221,8249,7763,8225,8242,8192,8209,8193,8171,8212,8262,8355,7.252866506576538,False
6,8199,8200,8148,8225,7711,8208,8232,8173,8185,8175,8160,8181,8237,8326,7.260863780975342,False
7,8165,8187,8182,8184,7759,8180,8207,8178,8145,8145,8110,8164,8192,8286,7.269082069396973,False
8,8152,8170,8164,8167,7727,8166,8191,8167,8135,8141,8085,8151,8173,8268,7.277011632919311,False
9,8145,8180,8118,8184,7721,8182,8197,8158,8174,8167,8101,8146,8189,8266,7.284805536270142,False
10,8155,8214,8204,8207,7798,8194,8195,8196,8200,8186,8117,8181,8202,8259,7.29294753074646,False
11,8146,8193,8136,8207,7724,8180,8177,8178,8210,8200,8142,8175,8220,8278,7.3008363246917725,False
12,8174,8212,8176,8201,7754,8173,8135,8158,8201,8204,8149,8189,8229,8299,7.308928728103638,False
13,8208,8228,8260,8208,7789,8177,8125,8161,8193,8207,8161,8210,8237,8311,7.316956996917725,False
14,8183,8199,8150,8216,7720,8180,8156,8145,8200,8214,8186,8184,8257,8327,7.323856830596924,False
15,8178,8205,8131,8205,7737,8193,8169,8152,8186,8202,8174,8182,8249,8326,7.332046747207642,False
16,8187,8203,8134,8182,7733,8196,8175,8147,8172,8183,8153,8181,8228,8314,7.340001344680786,False
17,8189,8204,8163,8187,7751,8183,8179,8149,8165,8171,8135,8177,8203,8300,7.347758769989014,False
18,8184,8204,8173,8214,7746,8176,8185,8160,8160,8172,8133,8170,8196,8293,7.356038331985474,False
19,8183,8207,8165,8217,7746,8179,8197,8160,8158,8173,8147,8170,8203,8296,7.363834619522095,False
20,8203,8226,8252,8195,7803,8182,8191,8181,8146,8162,8129,8196,8190,8292,7.371850728988647,False
21,8182,8198,8158,8188,7717,8185,8200,8165,8157,8164,8113,8168,8199,8284,7.380024909973144,False
22,8160,8195,8110,8202,7695,8187,8208,8164,8169,8174,8128,8159,8211,8277,7.386949062347412,False
23,8163,8203,8181,8196,7749,8181,8191,8185,8163,8174,8131,8171,8192,8273,7.39498233795166,False
24,8151,8184,8154,8180,7747,8175,8172,8169,8161,8174,8106,8146,8172,8267,7.403036117553711,False
25,8164,8211,8211,8191,7767,8178,8155,8173,8153,8177,8102,8165,8171,8254,7.410971164703369,False
26,8161,8206,8190,8197,7703,8166,8151,8160,8156,8183,8145,8175,8190,8260,7.419126033782959,False
27,8146,8180,8140,8185,7687,8150,8139,8132,8155,8175,8157,8166,8191,8277,7.426837921142578,False
28,8173,8192,8176,8198,7715,8148,8129,8131,8142,8168,8149,8184,8189,8294,7.434931039810181,False
29,8203,8216,8175,8217,7704,8149,8144,8142,8146,8179,8170,8200,8210,8314,7.44291615486145,False
30,8220,8230,8223,8209,7731,8162,8147,8166,8152,8178,8169,8218,8208,8320,7.449883937835693,False
31,8206,8200,8156,8205,7673,8177,8155,8151,8162,8178,8163,8194,8206,8313,7.457985877990723,False
32,8212,8215,8170,8219,7720,8180,8160,8150,8155,8177,8156,8194,8204,8309,7.465962648391724,False
33,8242,8249,8295,8224,7795,8175,8155,8183,8126,8161,8132,8228,8186,8316,7.473983526229858,False
34,8216,8200,8181,8213,7682,8172,8169,8168,8133,8158,8128,8193,8190,8320,7.482049226760864,False
35,8189,8177,8112,8209,7670,8177,8177,8163,8148,8160,8129,8167,8188,8306,7.490021228790283,False
36,8181,8189,8137,8197,7726,8175,8182,8175,8144,8155,8131,8177,8179,8300,7.499043703079224,False
37,8172,8187,8167,8176,7763,8174,8187,8188,8132,8152,8118,8181,8173,8292,7.506076097488403,False
38,8174,8185,8210,8174,7756,8186,8186,8202,8130,8155,8100,8180,8166,8274,7.514105319976807,False
39,8156,8166,8134,8177,7674,8187,8196,8185,8164,8175,8112,8164,8189,8281,7.521159410476685,False
40,8155,8169,8150,8177,7707,8191,8196,8195,8193,8196,8125,8181,8210,8295,7.5289177894592285,False
41,8165,8170,8176,8188,7719,8205,8192,8199,8206,8206,8126,8189,8221,8303,7.537093639373779,False
42,8165,8178,8162,8191,7715,8203,8175,8176,8208,8210,8120,8179,8224,8309,7.545091390609741,False
43,8172,8189,8211,8183,7752,8190,8150,8176,8188,8214,8116,8183,8205,8298,7.552975416183472,False
44,8164,8172,8162,8189,7708,8187,8158,8154,8185,8214,8138,8171,8200,8284,7.561141490936279,False
45,8197,8209,8208,8213,7745,8201,8159,8153,8192,8202,8154,8197,8202,8290,7.569114923477173,False
46,8239,8218,8238,8212,7747,8205,8142,8156,8179,8185,8151,8209,8194,8308,7.5770041942596436,False
47,8228,8181,8144,8196,7679,8192,8145,8130,8157,8172,8152,8173,8180,8311,7.584051132202148,False
48,8238,8201,8178,8213,7710,8192,8170,8145,8161,8164,8168,8190,8184,8315,7.592142343521118,False
49,8246,8214,8181,8234,7725,8200,8190,8156,8174,8160,8181,8201,8197,8330,7.600100755691528,False
50,8236,8204,8194,8213,7757,8203,8178,8162,8149,8146,8158,8195,8172,8315,7.6081976890563965,False
51,8216,8181,8198,8176,7730,8203,8174,8181,8141,8144,8142,8185,8162,8286,7.616042852401733,False
52,8179,8155,8129,8155,7677,8204,8189,8184,8177,8160,8149,8159,8185,8283,7.623934745788574,False
53,8175,8159,8162,8153,7717,8210,8189,8188,8188,8169,8144,8166,8176,8283,7.632069110870361,False
54,8181,8150,8142,8150,7692,8208,8188,8172,8184,8179,8146,8166,8166,8280,7.639806747436523,False
55,8172,8160,8160,8141,7711,8210,8189,8180,8181,8180,8146,8176,8171,8275,7.647072315216064,False
56,8159,8157,8177,8137,7710,8230,8199,8192,8188,8180,8148,8185,8186,8284,7.655051469802856,False
57,8164,8144,8142,8145,7689,8235,8211,8185,8211,8190,8152,8175,8200,8299,7.662970542907715,False
58,8203,8179,8255,8152,7780,8229,8202,8221,8214,8189,8140,8205,8188,8302,7.671074151992798,False
59,8194,8161,8206,8154,7728,8228,8218,8210,8218,8193,8146,8195,8193,8315,7.679012775421143,False
60,8184,8141,8107,8164,7677,8220,8229,8165,8228,8197,8147,8167,8205,8313,7.686957597732544,False
61,8207,8168,8163,8178,7737,8202,8204,8159,8225,8187,8143,8178,8198,8303,7.69487452507019,False
62,8203,8175,8173,8194,7749,8202,8181,8153,8218,8186,8158,8180,8208,8314,7.702835559844971,False
63,8214,8189,8222,8200,7762,8212,8152,8162,8189,8182,8154,8200,8208,8313,7.710951805114746,False
64,8211,8179,8188,8188,7708,8198,8129,8153,8157,8169,8132,8189,8186,8301,7.718195915222168,False
65,8191,8170,8154,8181,7719,8184,8129,8138,8146,8156,8112,8165,8164,8294,7.726179122924805,False
66,8193,8162,8177,8171,7755,8182,8140,8148,8143,8154,8110,8171,8163,8296,7.734019041061401,False
67,8186,8140,8120,8160,7709,8164,8146,8147,8146,8159,8124,8166,8172,8298,7.742057800292969,False
68,8198,8169,8195,8179,7745,8146,8133,8168,8147,8166,8130,8190,8166,8293,7.74997091293335,False
69,8203,8164,8191,8196,7702,8143,8143,8167,8161,8181,8150,8191,8188,8301,7.758111000061035,False
70,8187,8140,8122,8182,7674,8148,8160,8155,8170,8183,8160,8169,8202,8308,7.766067028045654,False
71,8195,8165,8212,8174,7756,8148,8151,8178,8152,8168,8147,8194,8178,8301,7.7740654945373535,False
72,8208,8170,8192,8189,7724,8141,8153,8169,8155,8178,8167,8204,8195,8317,7.782126426696777,False
73,8230,8180,8158,8207,7710,8141,8160,8168,8174,8197,8198,8202,8226,8351,7.789011716842651,False
74,8239,8194,8182,8214,7731,8148,8154,8182,8173,8187,8193,8202,8218,8362,7.796882390975952,False
75,8229,8202,8197,8215,7748,8154,8146,8171,8151,8170,8181,8204,8197,8347,7.804885149002075,False
76,8236,8208,8206,8218,7747,8153,8146,8164,8139,8172,8187,8209,8204,8343,7.812801837921143,False
77,8224,8188,8127,8211,7690,8146,8159,8153,8146,8176,8184,8180,8224,8341,7.82078218460083,False
78,8207,8190,8169,8182,7740,8148,8147,8167,8129,8162,8146,8179,8195,8310,7.828881502151489,False
79,8186,8180,8187,8155,7744,8145,8136,8165,8119,8161,8134,8170,8167,8285,7.836826086044311,False
80,8170,8173,8127,8160,7722,8137,8133,8148,8138,8174,8144,8141,8175,8281,7.843845367431641,False
81,8188,8202,8204,8167,7782,8143,8116,8169,8136,8169,8138,8164,8164,8266,7.851842164993286,False
82,8165,8182,8152,8159,7715,8139,8125,8153,8135,8172,8150,8158,8153,8257,7.859877824783325,False
83,8149,8183,8136,8163,7720,8136,8136,8157,8148,8186,8157,8158,8162,8265,7.868127584457397,False
84,8176,8193,8185,8167,7747,8144,8128,8184,8159,8188,8154,8176,8175,8280,7.876068353652954,False
85,8174,8171,8132,8161,7701,8142,8135,8158,8160,8185,8158,8159,8182,8287,7.884063005447388,False
86,8175,8188,8214,8159,7756,8150,8146,8170,8153,8184,8143,8178,8171,8269,7.891945838928223,False
87,8176,8171,8188,8170,7709,8171,8162,8173,8163,8189,8140,8175,8186,8276,7.900039196014404,False
88,8199,8162,8147,8184,7696,8177,8169,8159,8161,8184,8155,8178,8206,8315,7.906948566436768,False
89,8234,8185,8222,8201,7751,8174,8167,8167,8148,8177,8170,8212,8207,8331,7.915136575698851,False
90,8221,8177,8177,8214,7705,8163,8163,8159,8154,8183,8189,8206,8218,8321,7.923049449920654,False
91,8221,8187,8168,8232,7706,8150,8144,8161,8149,8184,8197,8205,8226,8325,7.931054353713989,False
92,8234,8196,8165,8241,7718,8139,8137,8162,8146,8180,8193,8199,8227,8341,7.93908166885376,False
93,8225,8198,8182,8219,7749,8129,8143,8172,8146,8174,8162,8185,8208,8326,7.947024583816528,False
94,8188,8187,8190,8200,7738,8121,8143,8172,8129,8166,8125,8168,8176,8277,7.954863786697388,False
95,8146,8166,8117,8184,7703,8124,8144,8142,8125,8165,8119,8147,8165,8247,7.962967157363892,False
96,8153,8177,8189,8158,7765,8133,8137,8158,8126,8166,8108,8167,8156,8242,7.971089601516724,False
97,8135,8155,8178,8148,7713,8135,8143,8166,8132,8173,8104,8154,8159,8239,7.978917837142944,False
98,8107,8131,8110,8152,7682,8149,8161,8159,8154,8188,8117,8139,8172,8228,7.986039161682129,False
99,8139,8144,8186,8147,7748,8165,8161,8180,8160,8195,8118,8179,8173,8240,7.993956327438354,False
100,8147,8136,8176,8145,7715,8162,8154,8168,8145,8194,8110,8177,8174,8262,8.00203824043274,False
101,8135,8141,8137,8164,7695,8166,8158,8156,8142,8194,8107,8157,8183,8266,8.009949922561646,False
102,8161,8164,8145,8178,7709,8181,8182,8174,8166,8196,8119,8168,8202,8277,8.017834901809692,False
103,8208,8190,8205,8186,7756,8188,8188,8188,8165,8182,8114,8193,8201,8290,8.02584981918335,False
104,8207,8187,8205,8204,7741,8178,8181,8174,8137,8161,8092,8187,8177,8295,8.033923149108887,False
105,8155,8150,8091,8186,7674,8152,8189,8137,8128,8157,8082,8139,8158,8278,8.040842771530151,False
106,8167,8181,8250,8146,7799,8138,8158,8175,8110,8143,8059,8172,8123,8229,8.048851490020752,False
107,8176,8170,8272,8147,7755,8126,8138,8177,8115,8144,8074,8183,8126,8227,8.057068109512329,False
108,8123,8127,8051,8171,7620,8107,8152,8117,8147,8174,8109,8127,8168,8253,8.064957857131958,False
109,8127,8172,8148,8182,7736,8114,8124,8142,8129,8170,8082,8145,8152,8227,8.073000192642212,False
110,8132,8172,8194,8174,7746,8130,8105,8155,8112,8152,8058,8148,8123,8207,8.080860376358032,False
111,8111,8143,8141,8156,7716,8124,8115,8148,8129,8157,8063,8137,8128,8224,8.089047193527222,False
112,8120,8139,8164,8142,7733,8111,8118,8173,8140,8171,8066,8156,8140,8239,8.097056865692139,False
113,8128,8145,8142,8154,7716,8116,8123,8173,8144,8170,8064,8152,8146,8246,8.104948282241821,False
114,8134,8172,8167,8181,7753,8136,8133,8167,8147,8167,8071,8160,8149,8252,8.111955642700195,False
115,8145,8177,8166,8196,7752,8142,8143,8159,8155,8181,8097,8169,8170,8268,8.120134592056274,False
116,8172,8191,8179,8206,7740,8138,8150,8163,8149,8180,8106,8172,8184,8287,8.128131628036499,False
117,8183,8200,8157,8211,7702,8142,8174,8162,8142,8167,8102,8162,8189,8296,8.13595962524414,False
118,8173,8201,8156,8224,7726,8151,8186,8168,8144,8166,8093,8163,8180,8283,8.144113063812256,False
119,8189,8219,8272,8228,7796,8166,8165,8212,8142,8165,8084,8197,8155,8263,8.151907682418823,False
120,8173,8193,8187,8202,7698,8175,8182,8209,8163,8167,8095,8174,8165,8276,8.160038232803345,False
121,8144,8173,8107,8181,7667,8167,8205,8188,8179,8171,8089,8151,8173,8287,8.167911291122437,False
122,8136,8156,8120,8165,7697,8149,8186,8176,8169,8170,8064,8153,8151,8264,8.175103425979614,False
123,8124,8143,8104,8141,7719,8144,8170,8162,8161,8159,8054,8139,8129,8235,8.183189392089844,False
124,8139,8182,8265,8137,7835,8158,8161,8198,8146,8146,8051,8180,8107,8213,8.191187858581543,False
125,8126,8152,8248,8150,7751,8148,8156,8175,8132,8143,8063,8188,8107,8219,8.199136734008789,False
126,8105,8096,8047,8152,7616,8129,8158,8104,8125,8141,8073,8136,8123,8246,8.207108497619629,False
127,8138,8135,8088,8157,7687,8139,8154,8122,8119,8144,8077,8140,8128,8258,8.2152419090271,False
237,8163,8176,8207,8169,7759,8148,8142,8160,8121,8152,8097,8175,8143,8247,8.223099946975708,False
0,8171,8168,8220,8171,7752,8144,8137,8159,8116,8148,8107,8185,8154,8245,8.231030464172363,False
1,8175,8150,8130,8175,7695,8144,8154,8142,8124,8150,8113,8161,8170,8276,8.238015413284302,False
2,8191,8181,8199,8179,7757,8145,8152,8163,8123,8153,8108,8183,8173,8294,8.246129751205444,False
3,8202,8190,8290,8170,7789,8131,8139,8191,8104,8138,8090,8206,8160,8283,8.254213094711304,False
4,8162,8138,8108,8145,7668,8115,8162,8160,8108,8132,8089,8144,8161,8271,8.261891841888428,False
5,8137,8143,8107,8122,7706,8115,8172,8164,8111,8134,8067,8125,8131,8234,8.270116090774536,False
6,8117,8139,8193,8104,7736,8116,8169,8188,8112,8133,8040,8135,8096,8188,8.27791452407837,False
7,8079,8098,8087,8099,7662,8122,8183,8172,8136,8145,8055,8110,8102,8179,8.286025285720825,False
8,8091,8110,8110,8107,7703,8143,8175,8177,8148,8149,8074,8128,8110,8194,8.293789625167847,False
9,8106,8122,8184,8105,7747,8148,8152,8180,8144,8142,8072,8150,8106,8203,8.302037000656128,False
10,8093,8121,8184,8101,7737,8130,8142,8168,8136,8133,8066,8146,8091,8198,8.308879852294922,False
11,8085,8104,8102,8110,7664,8114,8147,8142,8124,8124,8089,8134,8100,8200,8.316790580749512,False
12,8116,8115,8130,8127,7695,8115,8137,8143,8114,8125,8114,8160,8128,8223,8.32477593421936,False
13,8165,8157,8270,8144,7785,8131,8126,8177,8110,8125,8122,8212,8140,8259,8.332812070846558,False
14,8167,8148,8169,8167,7702,8138,8152,8154,8122,8134,8143,8190,8162,8288,8.34082293510437,False
15,8179,8162,8154,8177,7714,8124,8138,8146,8107,8131,8143,8180,8166,8276,8.349214553833008,False
16,8193,8174,8239,8168,7752,8107,8092,8156,8083,8122,8138,8198,8155,8266,8.356879949569702,False
17,8160,8137,8143,8165,7694,8113,8108,8145,8110,8135,8145,8171,8171,8288,8.365022897720337,False
18,8159,8135,8144,8155,7716,8125,8142,8178,8137,8145,8120,8165,8169,8291,8.37195110321045,False
19,8158,8136,8160,8131,7696,8122,8146,8193,8148,8143,8099,8156,8143,8263,8.380018949508667,False
20,8119,8124,8138,8113,7699,8134,8132,8173,8156,8142,8101,8133,8115,8212,8.387927532196045,False
21,8091,8102,8129,8104,7712,8152,8140,8165,8160,8150,8101,8123,8103,8182,8.396020650863647,False
22,8095,8093,8127,8092,7698,8142,8153,8167,8162,8149,8098,8133,8109,8200,8.404052972793579,False
23,8132,8112,8213,8083,7750,8124,8131,8187,8143,8138,8093,8164,8101,8218,8.411898374557495,False
24,8127,8084,8138,8081,7698,8116,8115,8155,8119,8134,8099,8137,8100,8214,8.41997241973877,False
25,8106,8092,8127,8089,7720,8125,8110,8131,8089,8121,8095,8136,8093,8203,8.427793979644775,False
26,8124,8118,8241,8097,7784,8148,8119,8160,8077,8105,8103,8172,8086,8204,8.436009883880615,False
27,8131,8082,8150,8091,7705,8149,8138,8152,8099,8111,8125,8140,8100,8217,8.442891597747803,False
28,8158,8105,8157,8114,7734,8142,8121,8159,8103,8124,8136,8150,8110,8236,8.450958967208862,False
29,8177,8142,8207,8154,7764,8143,8123,8171,8102,8135,8156,8179,8123,8252,8.45897626876831,False
30,8171,8127,8168,8144,7747,8133,8153,8165,8111,8136,8164,8164,8128,8242,8.466940641403198,False
31,8164,8113,8160,8114,7762,8129,8163,8180,8127,8132,8145,8156,8123,8226,8.474939584732056,False
32,8132,8106,8130,8122,7764,8144,8166,8190,8157,8138,8136,8146,8135,8229,8.482950687408447,False
33,8127,8126,8189,8139,7804,8157,8172,8209,8173,8141,8135,8166,8145,8235,8.490926265716553,False
34,8123,8114,8174,8112,7760,8146,8178,8195,8177,8145,8127,8162,8143,8223,8.498966932296753,False
35,8092,8089,8119,8080,7734,8128,8168,8161,8162,8145,8091,8123,8114,8191,8.505815029144287,False
36,8086,8091,8143,8081,7753,8118,8150,8157,8137,8133,8070,8119,8091,8185,8.513975381851196,False
37,8105,8092,8119,8093,7732,8117,8131,8159,8152,8144,8110,8143,8127,8224,8.521939992904663,False
38,8148,8123,8197,8109,7800,8129,8109,8188,8165,8157,8142,8185,8159,8256,8.529901027679443,False
39,8160,8133,8177,8137,7781,8124,8113,8174,8151,8150,8142,8167,8162,8272,8.537979364395142,False
40,8155,8152,8152,8162,7775,8111,8113,8148,8141,8144,8132,8155,8155,8276,8.545840740203857,False
41,8185,8187,8320,8165,7850,8126,8093,8189,8138,8145,8124,8216,8143,8262,8.55392575263977,False
42,8176,8135,8215,8148,7723,8142,8116,8167,8143,8147,8139,8192,8152,8265,8.56203031539917,False
43,8154,8107,8064,8150,7669,8136,8143,8117,8135,8137,8134,8135,8148,8259,8.568926811218262,False
44,8157,8136,8136,8160,7769,8133,8139,8138,8134,8136,8118,8148,8138,8249,8.577025175094604,False
45,8160,8146,8190,8154,7793,8144,8151,8182,8161,8155,8135,8171,8168,8265,8.584998369216919,False
46,8170,8147,8206,8149,7765,8158,8166,8201,8169,8164,8135,8176,8187,8270,8.592964887619019,False
47,8149,8135,8146,8153,7723,8161,8160,8173,8157,8151,8116,8148,8175,8253,8.600966930389404,False
48,8128,8136,8158,8138,7772,8156,8142,8166,8147,8137,8100,8142,8149,8233,8.608949661254883,False
49,8121,8120,8161,8110,7755,8152,8146,8170,8145,8140,8081,8139,8121,8215,8.61696171760559,False
50,8118,8116,8131,8115,7726,8152,8161,8166,8160,8160,8084,8131,8123,8215,8.625073671340942,False
51,8146,8146,8225,8138,7803,8168,8166,8204,8183,8179,8121,8168,8164,8237,8.632903099060059,False
52,8124,8104,8150,8118,7741,8182,8185,8203,8215,8194,8154,8155,8206,8254,8.640012502670288,False
53,8094,8085,8097,8095,7739,8191,8192,8186,8221,8197,8144,8138,8199,8243,8.64792275428772,False
54,8110,8122,8192,8118,7811,8198,8176,8196,8201,8192,8128,8156,8173,8222,8.65608811378479,False
55,8098,8103,8147,8127,7769,8190,8170,8171,8188,8183,8127,8133,8162,8207,8.664037466049194,False
56,8103,8104,8152,8116,7778,8183,8164,8152,8175,8171,8121,8137,8149,8202,8.672052383422852,False
57,8131,8126,8163,8135,7770,8179,8165,8144,8182,8172,8127,8152,8162,8220,8.68004059791565,False
58,8132,8132,8169,8149,7782,8172,8166,8157,8188,8169,8114,8156,8171,8227,8.688002347946167,False
59,8114,8117,8178,8130,7797,8167,8161,8191,8185,8160,8097,8157,8169,8232,8.695968866348267,False
60,8093,8097,8107,8111,7775,8162,8171,8181,8197,8168,8100,8136,8181,8247,8.702951908111572,False
61,8108,8117,8174,8107,7834,8163,8169,8180,8181,8161,8081,8147,8160,8231,8.710901975631714,False
62,8108,8107,8170,8116,7793,8163,8174,8181,8159,8142,8076,8149,8141,8218,8.718786478042603,False
63,8097,8098,8122,8125,7773,8167,8197,8189,8176,8143,8095,8148,8154,8238,8.726834774017334,False
64,8115,8110,8171,8124,7808,8181,8217,8224,8210,8163,8113,8168,8176,8260,8.734970808029175,False
65,8108,8099,8126,8132,7766,8189,8229,8216,8248,8192,8129,8149,8199,8264,8.742748975753784,False
66,8108,8122,8196,8143,7837,8194,8203,8215,8259,8202,8121,8163,8193,8251,8.750845909118652,False
67,8114,8125,8216,8135,7834,8191,8176,8202,8247,8197,8126,8178,8193,8258,8.758859157562256,False
68,8105,8102,8120,8129,7760,8180,8167,8150,8223,8192,8132,8148,8198,8262,8.765967607498169,False
69,8109,8111,8133,8134,7774,8162,8150,8129,8193,8181,8114,8145,8179,8247,8.773934841156006,False
70,8113,8118,8134,8143,7761,8143,8127,8124,8181,8172,8110,8146,8178,8245,8.78200387954712,False
71,8144,8143,8202,8164,7800,8143,8103,8139,8169,8161,8109,8164,8175,8256,8.789999961853027,False
72,8157,8151,8195,8180,7797,8142,8113,8140,8161,8153,8110,8168,8163,8264,8.798007011413574,False
73,8142,8152,8130,8174,7775,8135,8137,8145,8165,8155,8117,8158,8166,8261,8.806025981903076,False
74,8149,8155,8165,8166,7789,8135,8142,8185,8171,8159,8123,8169,8178,8260,8.81409764289856,False
75,8122,8120,8115,8157,7738,8139,8148,8183,8182,8164,8128,8148,8187,8265,8.822101354598999,False
76,8102,8131,8169,8149,7800,8159,8150,8191,8176,8165,8116,8152,8164,8252,8.829991579055786,False
77,8102,8135,8208,8149,7827,8181,8160,8206,8183,8175,8111,8155,8156,8232,8.83699083328247,False
78,8086,8097,8106,8148,7769,8171,8178,8190,8207,8181,8119,8123,8172,8226,8.845058917999268,False
79,8096,8110,8150,8151,7820,8158,8176,8195,8203,8173,8115,8138,8157,8229,8.852951288223267,False
80,8098,8111,8165,8150,7831,8165,8180,8188,8195,8179,8113,8142,8143,8234,8.860831022262573,False
81,8089,8097,8132,8145,7812,8176,8194,8185,8201,8186,8116,8138,8155,8231,8.869040727615356,False
82,8103,8100,8149,8148,7791,8179,8197,8196,8198,8179,8131,8155,8172,8239,8.87703013420105,False
83,8126,8114,8158,8159,7782,8168,8189,8184,8189,8170,8141,8163,8174,8258,8.884874820709229,False
84,8134,8134,8197,8170,7821,8162,8176,8172,8182,8168,8125,8169,8155,8247,8.892914295196533,False
85,8098,8120,8141,8171,7791,8166,8179,8146,8183,8173,8117,8142,8149,8222,8.899928569793701,False
86,8088,8125,8163,8166,7817,8165,8176,8154,8174,8174,8120,8146,8151,8213,8.908016681671143,False
87,8121,8122,8207,8171,7827,8163,8176,8177,8165,8164,8125,8168,8157,8229,8.915954351425171,False
88,8115,8100,8116,8178,7786,8168,8200,8159,8172,8158,8136,8144,8169,8243,8.924037218093872,False
89,8113,8137,8208,8168,7883,8175,8200,8190,8165,8157,8121,8161,8157,8226,8.931963205337524,False
90,8111,8120,8211,8154,7847,8180,8211,8209,8178,8168,8116,8160,8160,8213,8.939907789230347,False
91,8100,8072,8096,8159,7774,8191,8239,8190,8215,8180,8133,8139,8179,8231,8.947905540466309,False
92,8120,8090,8157,8161,7818,8189,8228,8202,8223,8184,8142,8170,8180,8251,8.95591926574707,False
93,8130,8105,8160,8161,7787,8160,8197,8185,8204,8185,8145,8170,8182,8249,8.964027643203735,False
94,8139,8117,8152,8174,7796,8140,8163,8160,8176,8175,8139,8152,8180,8243,8.970802068710327,False
95,8133,8107,8141,8166,7804,8139,8150,8148,8172,8172,8137,8145,8181,8262,8.978896856307983,False
96,8128,8100,8161,8146,7823,8142,8145,8158,8176,8172,8137,8162,8179,8278,8.98684549331665,False
97,8154,8122,8219,8170,7850,8132,8136,8165,8157,8163,8128,8182,8172,8271,8.994957685470581,False
98,8157,8122,8154,8202,7819,8112,8137,8131,8151,8154,8118,8156,8168,8261,9.002823829650879,False
99,8166,8141,8200,8204,7870,8114,8131,8141,8144,8134,8102,8164,8141,8250,9.010863780975342,False
100,8159,8136,8200,8213,7834,8118,8134,8148,8134,8124,8101,8165,8125,8244,9.018905878067017,False
101,8137,8126,8151,8221,7824,8112,8139,8138,8133,8125,8102,8151,8127,8236,9.025965213775637,False
102,8167,8157,8254,8216,7903,8119,8150,8177,8132,8119,8096,8180,8116,8223,9.033752918243408,False
103,8162,8143,8181,8221,7807,8125,8185,8172,8152,8133,8114,8161,8132,8232,9.041961431503296,False
104,8134,8134,8138,8224,7798,8125,8185,8161,8172,8154,8128,8146,8157,8240,9.049988269805908,False
105,8140,8132,8189,8210,7850,8132,8168,8189,8191,8161,8139,8161,8180,8247,9.05780291557312,False
106,8154,8129,8158,8207,7830,8147,8182,8199,8212,8171,8153,8163,8203,8266,9.06583571434021,False
107,8158,8144,8176,8219,7847,8157,8193,8195,8200,8171,8147,8173,8190,8270,9.073802709579468,False
108,8136,8122,8132,8212,7818,8146,8191,8172,8186,8163,8143,8154,8179,8264,9.081807136535645,False
109,8135,8132,8170,8199,7845,8136,8184,8185,8180,8160,8140,8164,8181,8267,9.089816331863403,False
110,8149,8142,8199,8196,7833,8143,8193,8195,8172,8158,8149,8180,8190,8280,9.096766471862791,False
111,8139,8123,8127,8198,7785,8153,8212,8166,8165,8147,8161,8163,8193,8276,9.104829788208008,False
112,8145,8129,8164,8191,7809,8152,8204,8155,8152,8131,8145,8161,8162,8247,9.112874031066896,False
113,8134,8116,8117,8181,7760,8139,8191,8124,8151,8129,8139,8140,8155,8247,9.120931148529053,False
114,8149,8145,8203,8187,7849,8141,8166,8144,8138,8129,8142,8171,8165,8266,9.128912687301636,False
115,8177,8172,8320,8193,7894,8145,8146,8187,8123,8126,8142,8206,8161,8273,9.136859655380247,False
116,8143,8125,8141,8188,7747,8123,8151,8148,8138,8135,8146,8153,8168,8284,9.145038366317747,False
117,8145,8121,8112,8187,7766,8106,8142,8140,8145,8137,8142,8150,8172,8296,9.152973175048828,False
118,8172,8142,8172,8197,7803,8121,8141,8167,8150,8135,8151,8174,8183,8295,9.160042762756348,False
119,8183,8153,8164,8216,7804,8147,8156,8170,8163,8142,8158,8166,8193,8282,9.167945146560667,False
120,8205,8165,8186,8230,7819,8159,8162,8166,8167,8150,8158,8166,8191,8280,9.17595624923706,False
121,8204,8161,8171,8221,7799,8149,8152,8157,8158,8143,8160,8162,8184,8279,9.183818817138672,False
122,8189,8161,8168,8217,7807,8144,8146,8161,8142,8128,8148,8159,8169,8264,9.192028760910034,False
123,8169,8148,8119,8219,7793,8156,8160,8152,8152,8136,8150,8135,8175,8269,9.199917078018188,False
124,8172,8166,8185,8200,7860,8161,8148,8157,8144,8127,8148,8146,8172,8277,9.20781135559082,False
125,8181,8175,8234,8194,7861,8146,8129,8162,8114,8102,8142,8172,8164,8271,9.214803218841553,False
126,8166,8150,8126,8210,7790,8137,8140,8140,8121,8115,8155,8150,8182,8268,9.223941802978516,False
127,8186,8183,8237,8207,7891,8146,8130,8179,8134,8134,8156,8179,8182,8276,9.230876684188845,False
237,8187,8185,8270,8205,7875,8146,8125,8202,8156,8145,8176,8196,8200,8307,9.238853693008425,False
0,8159,8150,8111,8220,7777,8136,8152,8172,8195,8171,8219,8167,8251,8337,9.246947288513184,False
1,8171,8158,8117,8228,7814,8127,8158,8179,8200,8191,8231,8172,8268,8329,9.254905939102173,False
2,8186,8176,8164,8231,7828,8125,8147,8186,8187,8189,8224,8179,8257,8302,9.262824058532717,False
3,8184,8183,8184,8231,7837,8140,8147,8182,8192,8184,8216,8179,8243,8284,9.27094340324402,False
4,8171,8161,8142,8218,7825,8136,8149,8163,8191,8183,8210,8165,8230,8285,9.278880596160889,False
5,8180,8170,8151,8226,7847,8123,8139,8147,8165,8172,8195,8162,8214,8281,9.286787271499634,True
6,8214,8203,8237,8249,7880,8124,8130,8157,8139,8152,8185,8183,8208,8270,9.293936967849731,True
7,8203,8171,8153,8244,7806,8117,8132,8132,8130,8145,8203,8171,8225,8284,9.301973342895508,True
8,8197,8168,8163,8229,7827,8124,8130,8136,8119,8145,8206,8185,8225,8301,9.30979037284851,True
9,8185,8178,8190,8228,7829,8149,8152,8165,8133,8149,8199,8189,8223,8295,9.31794285774231,True
10,8140,8158,8113,8212,7797,8155,8174,8168,8161,8157,8202,8152,8232,8283,9.325916051864624,True
11,8154,8172,8196,8205,7857,8163,8154,8186,8162,8157,8196,8174,8227,8284,9.333918809890749,True
12,8168,8166,8177,8209,7809,8169,8148,8178,8177,8161,8197,8183,8233,8290,9.340795755386353,True
13,8150,8162,8142,8208,7821,8153,8146,8171,8180,8162,8186,8160,8218,8273,9.349896669387816,False
14,8160,8173,8198,8218,7868,8139,8136,8173,8167,8161,8177,8159,8193,8270,9.35687017440796,False
15,8182,8173,8176,8233,7829,8143,8143,8161,8181,8156,8196,8166,8202,8289,9.364856004714966,False
16,8196,8179,8192,8229,7836,8142,8150,8169,8181,8142,8202,8183,8197,8285,9.372721195220947,False
17,8200,8167,8170,8225,7817,8133,8155,8163,8165,8144,8194,8177,8190,8286,9.380797624588013,False
18,8235,8185,8197,8250,7830,8144,8159,8173,8171,8158,8205,8194,8210,8311,9.388848543167114,False
19,8255,8203,8203,8272,7826,8160,8170,8183,8188,8176,8248,8213,8240,8325,9.397021770477297,False
20,8220,8191,8140,8265,7828,8161,8170,8163,8176,8180,8263,8190,8244,8313,9.404841661453249,False
21,8229,8218,8241,8265,7907,8162,8151,8185,8148,8168,8236,8211,8227,8296,9.412746667861938,False
22,8244,8226,8217,8277,7832,8164,8174,8195,8174,8181,8249,8214,8254,8313,9.420980215072632,False
23,8235,8228,8163,8276,7822,8170,8200,8185,8197,8196,8259,8197,8275,8326,9.427954912185667,False
24,8232,8234,8240,8257,7906,8173,8182,8181,8163,8176,8227,8204,8244,8305,9.43592357635498,False
25,8204,8199,8180,8242,7853,8157,8182,8135,8132,8166,8208,8182,8221,8292,9.444048404693604,False
26,8190,8180,8148,8227,7821,8142,8175,8119,8110,8164,8206,8180,8224,8293,9.45190954208374,False
27,8183,8152,8157,8195,7803,8142,8149,8141,8095,8148,8202,8185,8232,8292,9.460006475448608,False
28,8168,8141,8166,8179,7820,8147,8142,8156,8102,8148,8192,8183,8229,8294,9.467869997024536,False
29,8175,8166,8190,8203,7836,8147,8153,8171,8129,8165,8195,8192,8225,8300,9.475916147232056,False
30,8177,8158,8146,8219,7803,8151,8166,8176,8157,8171,8209,8181,8235,8296,9.483940601348875,False
31,8187,8155,8195,8199,7850,8171,8174,8209,8163,8169,8201,8190,8238,8284,9.490833044052124,False
32,8173,8154,8161,8183,7808,8184,8199,8220,8183,8180,8187,8180,8232,8282,9.498873710632324,False
33,8155,8171,8131,8188,7808,8181,8212,8218,8203,8182,8178,8172,8217,8286,9.507132530212402,False
34,8185,8192,8215,8201,7872,8181,8201,8232,8194,8179,8183,8200,8221,8302,9.515004873275757,False
35,8195,8164,8139,8205,7812,8180,8195,8198,8194,8189,8207,8186,8255,8321,9.523029565811155,False
36,8205,8188,8196,8199,7875,8183,8167,8191,8185,8168,8200,8200,8245,8309,9.532055616378784,False
37,8213,8216,8268,8201,7919,8190,8159,8193,8169,8153,8193,8216,8229,8310,9.538827896118164,False
38,8199,8199,8125,8223,7829,8189,8175,8146,8177,8170,8207,8177,8244,8335,9.54688048362732,False
39,8211,8212,8118,8236,7853,8191,8159,8134,8167,8169,8190,8169,8235,8329,9.553959608078005,False
40,8220,8222,8179,8215,7902,8179,8130,8132,8130,8157,8169,8168,8227,8311,9.562061548233032,False
41,8203,8210,8186,8188,7891,8147,8110,8122,8099,8155,8156,8162,8219,8303,9.57002878189087,False
42,8157,8161,8112,8158,7827,8126,8099,8110,8092,8158,8143,8143,8204,8298,9.577930212020874,False
43,8138,8135,8103,8125,7848,8127,8087,8108,8086,8158,8132,8137,8195,8283,9.585941791534424,False
44,8176,8163,8210,8122,7921,8137,8079,8126,8073,8155,8123,8163,8186,8279,9.59398865699768,False
45,8178,8158,8151,8145,7866,8141,8092,8116,8083,8158,8128,8150,8189,8301,9.601927995681764,False
46,8183,8170,8162,8164,7894,8145,8097,8142,8097,8162,8133,8165,8198,8322,9.609867095947266,False
47,8196,8169,8195,8159,7905,8143,8103,8194,8122,8176,8136,8188,8207,8341,9.61795711517334,False
48,8165,8134,8112,8147,7853,8147,8128,8202,8160,8187,8125,8154,8204,8337,9.624895811080933,False
49,8175,8158,8205,8168,7934,8186,8145,8221,8181,8176,8120,8166,8197,8322,9.632900476455688,False
50,8193,8167,8207,8191,7908,8219,8174,8217,8211,8186,8157,8182,8223,8342,9.641048908233644,False
51,8182,8158,8147,8179,7871,8220,8196,8207,8224,8203,8173,8179,8233,8356,9.649032354354858,False
52,8180,8166,8177,8167,7895,8212,8193,8199,8199,8184,8162,8188,8215,8344,9.65692377090454,False
53,8178,8174,8153,8177,7872,8195,8176,8155,8169,8163,8159,8175,8204,8329,9.665024518966677,False
54,8186,8201,8197,8191,7905,8167,8136,8157,8142,8158,8136,8170,8184,8301,9.673027515411375,False
55,8169,8187,8165,8190,7889,8155,8121,8171,8138,8162,8124,8147,8176,8278,9.681092500686646,False
56,8146,8173,8139,8167,7896,8165,8134,8172,8143,8164,8126,8142,8171,8278,9.688108205795288,False
57,8137,8164,8169,8148,7893,8156,8132,8181,8140,8161,8127,8159,8156,8276,9.696040153503418,False
58,8123,8140,8107,8147,7826,8141,8129,8172,8152,8159,8129,8138,8161,8261,9.70409631729126,False
59,8138,8161,8170,8143,7899,8167,8140,8202,8166,8162,8115,8149,8157,8257,9.712061643600464,False
