COUNTER,F3,FC5,AF3,F7,T7,P7,O1,O2,P8,T8,F8,AF4,FC6,F4,Timestamp
239,8171,8180,8172,8171,8171,8160,8153,8165,8176,8137,8172,8187,8178,8110,0.0070090293884277
0,8126,8158,8163,8155,8167,8136,8150,8159,8105,8151,8178,8156,8170,8088,0.0150084495544433
1,8165,8171,8177,8170,8158,8136,8152,8169,8117,8161,8183,8170,8170,8100,0.0230095386505126
2,8184,8173,8182,8165,8146,8138,8152,8168,8170,8149,8184,8191,8174,8105,0.0300104618072509
3,8141,8142,8161,8150,8158,8135,8155,8154,8069,8158,8193,8147,8164,8087,0.0384423732757568
3,8141,8142,8161,8150,8158,8135,8155,8154,8069,8158,8193,8147,8164,8087,0.0390009880065918
4,8145,8172,8174,8172,8141,8137,8143,8166,8157,8153,8169,8184,8175,8080,0.0466103553771972
5,8155,8156,8164,8167,8140,8135,8161,8168,8108,8164,8165,8157,8171,8077,0.0546150207519531
6,8170,8166,8167,8169,8149,8141,8165,8170,8112,8166,8180,8159,8168,8092,0.0626142024993896
7,8151,8177,8170,8174,8146,8136,8156,8170,8175,8156,8176,8180,8166,8073,0.0703766345977783
8,8153,8152,8150,8172,8158,8136,8178,8156,8064,8169,8168,8139,8160,8050,0.078378677368164
9,8181,8178,8161,8175,8147,8138,8163,8160,8142,8148,8156,8176,8182,8066,0.0864458084106445
10,8153,8163,8157,8162,8149,8124,8152,8160,8108,8158,8181,8161,8178,8065,0.0944480895996093
11,8167,8172,8172,8173,8159,8132,8159,8160,8100,8175,8195,8160,8168,8068,0.1015887260437011
12,8161,8179,8177,8172,8148,8133,8149,8159,8163,8152,8177,8176,8169,8050,0.1095805168151855
13,8129,8141,8144,8158,8150,8121,8147,8151,8039,8157,8186,8134,8162,8036,0.1175870895385742
14,8159,8172,8156,8177,8138,8125,8143,8160,8124,8159,8185,8180,8169,8061,0.1254472732543945
15,8166,8163,8155,8168,8137,8127,8161,8157,8110,8175,8181,8163,8163,8056,0.1334547996520996
16,8167,8156,8149,8163,8142,8135,8164,8154,8058,8171,8174,8145,8169,8052,0.1414549350738525
17,8142,8171,8154,8159,8128,8135,8141,8161,8133,8136,8163,8172,8177,8044,0.149442434310913
18,8123,8141,8136,8146,8138,8136,8152,8161,8048,8158,8170,8132,8155,8032,0.1574084758758545
19,8165,8159,8151,8158,8129,8155,8151,8167,8119,8163,8155,8168,8159,8043,0.1644449234008789
20,8152,8154,8154,8142,8122,8155,8148,8154,8093,8151,8158,8157,8164,8034,0.1719765663146972
21,8134,8155,8155,8145,8133,8156,8145,8151,8037,8149,8166,8134,8165,8032,0.1799821853637695
22,8140,8171,8160,8161,8119,8152,8135,8160,8135,8140,8137,8167,8169,8027,0.1884419918060302
23,8142,8138,8143,8140,8131,8145,8158,8145,8043,8162,8134,8132,8159,8022,0.1964437961578369
24,8150,8164,8160,8143,8139,8168,8149,8149,8098,8148,8136,8163,8171,8034,0.2044322490692138
25,8112,8149,8140,8137,8128,8165,8131,8155,8090,8131,8126,8148,8166,8007,0.2124326229095459
26,8128,8129,8118,8135,8122,8156,8148,8151,8016,8150,8119,8123,8155,8006,0.2204363346099853
27,8153,8159,8147,8140,8114,8164,8153,8158,8129,8146,8120,8178,8168,8029,0.2274422645568847
28,8122,8140,8143,8135,8133,8162,8153,8160,8050,8152,8134,8139,8167,8021,0.2354464530944824
29,8150,8163,8147,8158,8122,8156,8147,8166,8088,8150,8125,8154,8173,8030,0.2434380054473877
30,8154,8159,8140,8144,8111,8145,8156,8163,8115,8150,8133,8164,8172,8035,0.2514524459838867
31,8140,8145,8136,8134,8139,8149,8172,8169,8059,8170,8168,8140,8167,8046,0.2594437599182129
32,8159,8178,8164,8161,8142,8160,8172,8188,8194,8177,8167,8185,8180,8061,0.266972541809082
33,8157,8157,8155,8152,8150,8160,8191,8183,8133,8197,8164,8157,8174,8057,0.2749722003936767
33,8157,8157,8155,8152,8150,8160,8191,8183,8133,8197,8164,8157,8174,8057,0.2759654521942138
34,8170,8173,8160,8157,8143,8160,8182,8182,8148,8184,8161,8172,8173,8058,0.2836291790008545
35,8160,8174,8160,8152,8137,8148,8170,8174,8164,8168,8157,8175,8164,8045,0.29144287109375
36,8164,8151,8155,8138,8154,8142,8181,8157,8058,8173,8161,8144,8156,8045,0.2986016273498535
37,8180,8175,8172,8143,8133,8143,8163,8158,8142,8140,8149,8188,8173,8048,0.3064508438110351
38,8156,8157,8155,8136,8134,8142,8166,8153,8068,8143,8153,8154,8164,8028,0.3144466876983642
39,8180,8175,8168,8153,8146,8155,8168,8162,8093,8156,8149,8167,8163,8045,0.3224353790283203
40,8179,8176,8178,8150,8130,8152,8159,8167,8165,8151,8151,8186,8172,8048,0.3304347991943359
41,8159,8143,8154,8138,8129,8150,8173,8159,8072,8168,8175,8146,8169,8046,0.3384363651275635
42,8175,8176,8164,8149,8123,8157,8167,8169,8162,8161,8168,8183,8177,8058,0.346437931060791
43,8160,8157,8157,8136,8137,8152,8175,8168,8112,8173,8178,8154,8171,8051,0.3543376922607422
44,8162,8155,8159,8143,8151,8157,8179,8169,8112,8177,8192,8160,8172,8055,0.3613455295562744
45,8149,8165,8155,8142,8144,8151,8168,8172,8173,8162,8177,8183,8171,8036,0.3688681125640869
46,8138,8143,8133,8128,8152,8147,8182,8164,8071,8183,8183,8141,8161,8028,0.3774061203002929
47,8155,8171,8153,8142,8149,8157,8182,8176,8175,8178,8190,8183,8176,8055,0.3848931789398193
48,8136,8149,8145,8135,8152,8149,8181,8174,8145,8185,8194,8156,8172,8041,0.3928933143615722
49,8142,8142,8141,8130,8141,8141,8168,8157,8092,8180,8177,8140,8160,8028,0.4008934497833252
50,8135,8156,8149,8131,8124,8130,8153,8155,8143,8153,8162,8170,8162,8024,0.408893346786499
51,8136,8142,8138,8140,8151,8130,8178,8169,8073,8185,8184,8140,8164,8031,0.416893720626831
51,8136,8142,8138,8140,8151,8130,8178,8169,8073,8185,8184,8140,8164,8031,0.4178943634033203
52,8174,8173,8161,8162,8156,8148,8181,8184,8186,8189,8179,8178,8176,8051,0.4248945713043213
53,8137,8155,8158,8148,8154,8141,8172,8169,8151,8176,8175,8160,8164,8023,0.4318933486938476
54,8129,8148,8149,8153,8150,8132,8168,8167,8093,8174,8177,8145,8157,8011,0.4398934841156006
55,8151,8160,8151,8152,8134,8125,8169,8179,8182,8167,8164,8171,8168,8022,0.4478936195373535
56,8140,8131,8140,8130,8154,8125,8187,8165,8089,8181,8172,8129,8161,8022,0.4558963775634765
57,8146,8161,8153,8149,8149,8136,8164,8160,8148,8157,8165,8163,8168,8022,0.4642083644866943
58,8127,8153,8134,8148,8137,8128,8153,8159,8126,8152,8156,8151,8163,8006,0.4722075462341308
59,8157,8148,8135,8151,8156,8140,8176,8168,8093,8188,8166,8138,8166,8024,0.4804408550262451
60,8175,8178,8168,8161,8155,8156,8174,8178,8222,8186,8176,8184,8182,8043,0.4886448383331299
61,8140,8154,8159,8151,8167,8148,8179,8172,8135,8188,8200,8146,8171,8035,0.4954416751861572
62,8156,8176,8171,8174,8164,8145,8169,8180,8185,8181,8195,8173,8173,8043,0.5032317638397217
63,8156,8167,8160,8165,8153,8143,8166,8170,8181,8182,8174,8167,8167,8021,0.5117340087890625
64,8159,8145,8138,8140,8162,8148,8179,8157,8089,8184,8168,8133,8159,8012,0.5197372436523438
65,8152,8163,8155,8142,8157,8154,8165,8165,8175,8155,8164,8175,8168,8018,0.5270791053771973
66,8128,8140,8159,8148,8164,8156,8168,8168,8104,8179,8184,8145,8159,8009,0.5357818603515625
67,8176,8169,8180,8175,8167,8159,8169,8182,8169,8199,8190,8170,8168,8030,0.5430145263671875
68,8183,8168,8175,8162,8167,8136,8168,8178,8197,8191,8182,8176,8170,8034,0.5510149002075195
69,8157,8145,8160,8145,8175,8126,8171,8161,8089,8185,8175,8143,8161,8026,0.5588774681091309
70,8157,8175,8172,8156,8161,8128,8163,8169,8166,8165,8153,8175,8166,8016,0.5665678977966309
71,8148,8151,8156,8148,8174,8115,8178,8168,8093,8180,8164,8139,8160,8007,0.5745792388916016
72,8168,8166,8172,8161,8179,8123,8169,8162,8124,8176,8177,8162,8169,8033,0.5825941562652588
73,8165,8175,8185,8158,8177,8126,8155,8156,8162,8171,8178,8178,8169,8035,0.5904414653778076
74,8162,8156,8173,8152,8190,8117,8162,8151,8063,8188,8181,8139,8154,8029,0.5986120700836182
75,8168,8178,8184,8165,8176,8116,8145,8165,8160,8165,8169,8176,8162,8034,0.606705904006958
76,8158,8157,8173,8161,8187,8111,8152,8169,8114,8184,8180,8148,8166,8029,0.6147117614746094
77,8193,8171,8180,8168,8197,8113,8162,8167,8127,8198,8179,8163,8171,8046,0.6217138767242432
78,8166,8171,8180,8151,8187,8105,8150,8158,8162,8171,8166,8181,8164,8031,0.629417896270752
79,8140,8150,8169,8146,8196,8106,8154,8155,8070,8180,8183,8140,8160,8022,0.6374630928039551
80,8176,8192,8191,8172,8188,8111,8150,8170,8181,8183,8181,8182,8178,8046,0.6454410552978516
81,8162,8164,8181,8156,8200,8095,8166,8169,8134,8197,8190,8161,8174,8042,0.6537265777587891
82,8177,8165,8185,8162,8207,8105,8180,8183,8149,8210,8201,8168,8175,8052,0.6617271900177002
83,8184,8185,8193,8168,8184,8108,8172,8185,8233,8189,8190,8188,8172,8056,0.669440507888794
84,8158,8154,8175,8147,8181,8086,8166,8159,8100,8180,8188,8147,8154,8044,0.6774044036865234
85,8171,8168,8187,8156,8167,8082,8143,8157,8162,8169,8179,8185,8161,8046,0.6854546070098877
86,8170,8152,8179,8151,8171,8090,8145,8154,8139,8184,8195,8160,8160,8042,0.6924235820770264
87,8174,8158,8183,8156,8183,8098,8149,8155,8124,8180,8211,8154,8163,8057,0.7004392147064209
88,8167,8176,8197,8165,8178,8090,8144,8171,8223,8174,8213,8186,8176,8060,0.7084383964538574
89,8171,8152,8184,8159,8192,8092,8168,8175,8145,8217,8230,8150,8167,8060,0.7159488201141357
90,8191,8174,8195,8165,8184,8104,8161,8174,8214,8199,8223,8187,8168,8068,0.7239625453948975
91,8167,8166,8186,8153,8189,8088,8160,8167,8181,8180,8221,8169,8163,8049,0.7324402332305908
92,8187,8173,8192,8160,8204,8084,8177,8169,8140,8190,8219,8150,8160,8062,0.7406649589538574
93,8187,8185,8207,8163,8177,8090,8166,8172,8224,8172,8202,8182,8166,8065,0.7486662864685059
94,8161,8150,8184,8151,8171,8085,8167,8160,8115,8180,8197,8140,8157,8044,0.7546732425689697
94,8161,8150,8184,8151,8171,8085,8167,8160,8115,8180,8197,8140,8157,8044,0.755699872970581
95,8190,8181,8191,8169,8169,8087,8157,8163,8170,8172,8187,8168,8165,8061,0.7634415626525879
96,8174,8172,8186,8164,8173,8076,8154,8168,8169,8166,8196,8168,8164,8068,0.7717080116271973
97,8180,8160,8186,8168,8183,8074,8170,8173,8138,8181,8216,8160,8163,8081,0.7799217700958252
98,8199,8190,8212,8179,8168,8080,8169,8182,8252,8179,8223,8201,8176,8092,0.7874045372009277
99,8166,8161,8196,8162,8174,8080,8175,8177,8146,8195,8236,8155,8166,8072,0.7954413890838623
100,8185,8178,8194,8167,8166,8084,8167,8182,8186,8191,8215,8181,8170,8071,0.8034305572509766
101,8190,8175,8190,8155,8160,8080,8173,8175,8202,8190,8203,8181,8166,8064,0.811438798904419
102,8172,8158,8187,8150,8165,8079,8175,8165,8121,8193,8216,8151,8156,8063,0.8194255828857422
103,8172,8183,8195,8167,8149,8078,8152,8178,8213,8178,8194,8188,8166,8056,0.8264191150665283
104,8177,8160,8173,8158,8162,8079,8172,8173,8137,8208,8193,8149,8162,8040,0.8339900970458984
105,8192,8174,8184,8165,8159,8096,8171,8170,8173,8199,8193,8161,8161,8050,0.8419902324676514
106,8170,8178,8189,8173,8153,8094,8160,8169,8200,8177,8183,8170,8160,8046,0.8504321575164795
107,8185,8166,8185,8181,8176,8101,8175,8173,8139,8200,8193,8151,8159,8059,0.8584127426147461
108,8193,8188,8194,8172,8160,8109,8163,8183,8250,8193,8190,8186,8169,8067,0.866450309753418
109,8159,8164,8174,8150,8158,8100,8181,8183,8185,8209,8193,8143,8166,8050,0.8737740516662598
109,8159,8164,8174,8150,8158,8100,8181,8183,8185,8209,8193,8143,8166,8050,0.8747646808624268
110,8203,8184,8193,8178,8175,8114,8200,8192,8223,8222,8194,8166,8176,8073,0.8827667236328125
111,8206,8183,8197,8172,8172,8115,8186,8184,8257,8205,8191,8183,8173,8069,0.8894405364990234
112,8182,8159,8176,8153,8165,8115,8182,8175,8151,8209,8190,8143,8164,8060,0.8974039554595947
113,8200,8187,8194,8171,8159,8129,8177,8187,8257,8204,8182,8186,8178,8079,0.9057016372680664
114,8173,8157,8176,8153,8176,8125,8189,8182,8189,8206,8189,8149,8165,8061,0.9134278297424316
115,8175,8165,8163,8153,8167,8121,8193,8184,8165,8192,8172,8149,8162,8057,0.9214260578155518
116,8177,8179,8169,8159,8151,8118,8187,8186,8212,8177,8164,8178,8167,8063,0.9294605255126952
117,8164,8152,8166,8151,8166,8123,8189,8174,8118,8196,8182,8140,8157,8060,0.937429428100586
118,8182,8186,8180,8161,8150,8127,8178,8181,8210,8194,8164,8176,8168,8063,0.945420503616333
119,8172,8176,8171,8150,8147,8123,8187,8179,8167,8208,8175,8161,8171,8064,0.9524405002593994
120,8188,8181,8188,8164,8154,8139,8183,8175,8170,8210,8206,8169,8174,8079,0.9604287147521972
121,8197,8192,8207,8168,8143,8141,8164,8174,8245,8190,8199,8188,8172,8068,0.9685168266296388
122,8190,8166,8189,8153,8151,8134,8174,8170,8136,8201,8204,8142,8160,8058,0.9765305519104004
123,8198,8190,8193,8169,8144,8143,8158,8172,8204,8180,8194,8179,8167,8065,0.9846208095550536
124,8166,8160,8168,8152,8145,8130,8142,8149,8125,8153,8168,8151,8161,8033,0.9926881790161132
125,8164,8155,8163,8145,8153,8130,8142,8145,8076,8150,8166,8143,8165,8031,1.000718593597412
126,8165,8185,8187,8166,8138,8138,8144,8173,8201,8163,8180,8181,8171,8047,1.0087151527404783
127,8168,8164,8175,8168,8140,8131,8159,8168,8104,8185,8173,8133,8153,8040,1.0154414176940918
239,8188,8188,8181,8162,8144,8141,8149,8163,8141,8155,8155,8165,8167,8044,1.0234410762786863
0,8170,8179,8177,8150,8164,8150,8163,8174,8156,8166,8190,8164,8177,8046,1.0314559936523438
1,8202,8175,8181,8171,8166,8153,8178,8179,8158,8195,8202,8153,8166,8063,1.039458990097046
2,8205,8191,8189,8173,8137,8143,8157,8169,8223,8164,8172,8184,8162,8059,1.046745777130127
2,8205,8191,8189,8173,8137,8143,8157,8169,8223,8164,8172,8184,8162,8059,1.0477454662322998
3,8165,8165,8171,8151,8154,8132,8164,8163,8116,8171,8194,8148,8161,8051,1.0547692775726318
3,8165,8165,8171,8151,8154,8132,8164,8163,8116,8171,8194,8148,8161,8051,1.0557677745819092
4,8188,8186,8184,8167,8155,8132,8159,8176,8199,8174,8196,8177,8171,8079,1.0634405612945557
5,8175,8172,8179,8154,8143,8129,8150,8166,8180,8160,8177,8159,8162,8070,1.0714411735534668
6,8176,8171,8179,8155,8159,8141,8160,8163,8106,8160,8181,8145,8161,8072,1.079458236694336
7,8188,8197,8188,8165,8151,8134,8156,8165,8204,8142,8173,8191,8171,8082,1.086463451385498
8,8153,8156,8156,8143,8149,8113,8155,8146,8089,8148,8177,8141,8157,8071,1.0944411754608154
9,8171,8178,8176,8159,8139,8124,8141,8163,8140,8148,8180,8170,8169,8086,1.102409601211548
10,8191,8187,8199,8164,8144,8140,8158,8178,8199,8161,8196,8181,8178,8091,1.1101524829864502
11,8198,8173,8202,8161,8174,8158,8182,8169,8160,8182,8216,8153,8170,8106,1.1181514263153076
12,8193,8194,8218,8174,8166,8160,8155,8178,8270,8165,8208,8192,8175,8118,1.1265547275543213
13,8180,8175,8199,8176,8168,8148,8165,8189,8205,8195,8216,8162,8167,8108,1.1345586776733398
14,8209,8195,8199,8185,8168,8161,8179,8186,8248,8211,8213,8177,8173,8121,1.1424405574798584
15,8182,8183,8195,8164,8159,8164,8158,8171,8243,8182,8199,8170,8169,8103,1.1494243144989014
16,8163,8159,8181,8156,8159,8158,8145,8165,8112,8175,8192,8130,8159,8084,1.1574046611785889
17,8185,8193,8192,8173,8150,8161,8141,8172,8205,8168,8181,8175,8170,8088,1.1654422283172607
18,8169,8171,8177,8156,8165,8158,8155,8165,8152,8180,8203,8157,8166,8086,1.173429012298584
19,8188,8182,8196,8164,8156,8159,8148,8170,8173,8179,8212,8180,8176,8112,1.181431531906128
20,8189,8184,8206,8166,8142,8148,8142,8168,8212,8176,8209,8188,8177,8116,1.1894402503967283
21,8172,8161,8185,8160,8163,8145,8151,8154,8114,8183,8225,8147,8162,8104,1.1979403495788574
22,8177,8190,8194,8172,8152,8152,8137,8160,8188,8155,8215,8188,8170,8097,1.2059457302093506
23,8166,8164,8189,8156,8151,8150,8142,8151,8105,8164,8209,8162,8160,8088,1.212954044342041
24,8188,8172,8211,8162,8152,8166,8136,8155,8127,8172,8210,8170,8163,8110,1.220993995666504
25,8196,8189,8229,8175,8138,8175,8140,8178,8233,8173,8216,8189,8179,8122,1.2279903888702393
25,8196,8189,8229,8175,8138,8175,8140,8178,8233,8173,8216,8189,8179,8122,1.228989839553833
26,8208,8172,8224,8180,8159,8182,8174,8176,8161,8205,8238,8154,8170,8139,1.2362003326416016
27,8225,8200,8238,8192,8164,8193,8157,8167,8246,8183,8222,8198,8169,8151,1.2441999912261963
28,8198,8179,8222,8170,8164,8185,8153,8162,8184,8176,8206,8172,8170,8121,1.2524406909942627
29,8213,8180,8232,8176,8164,8186,8170,8169,8162,8181,8220,8171,8174,8124,1.2604484558105469
30,8211,8187,8235,8182,8156,8177,8159,8166,8223,8163,8228,8195,8165,8121,1.2685399055480957
31,8187,8155,8202,8162,8174,8176,8160,8151,8109,8176,8224,8151,8152,8105,1.2755451202392578
32,8208,8182,8221,8172,8168,8190,8163,8170,8215,8186,8214,8194,8172,8130,1.2834365367889404
33,8199,8167,8223,8170,8159,8186,8175,8183,8219,8203,8229,8181,8172,8137,1.2914414405822754
33,8199,8167,8223,8170,8159,8186,8175,8183,8219,8203,8229,8181,8172,8137,1.2924413681030271
34,8207,8164,8216,8174,8156,8186,8171,8178,8178,8195,8224,8167,8165,8131,1.2994298934936523
35,8215,8183,8228,8173,8152,8180,8161,8173,8241,8174,8200,8196,8169,8126,1.307427167892456
36,8209,8157,8227,8167,8175,8175,8178,8162,8145,8199,8217,8159,8164,8135,1.315440654754639
37,8227,8179,8241,8185,8160,8181,8159,8164,8204,8182,8219,8190,8173,8144,1.323469161987305
37,8227,8179,8241,8185,8160,8181,8159,8164,8204,8182,8219,8190,8173,8144,1.324467658996582
38,8210,8165,8229,8170,8151,8178,8145,8158,8164,8173,8211,8174,8165,8120,1.3314857482910156
39,8221,8165,8233,8171,8172,8186,8153,8153,8118,8190,8214,8167,8164,8136,1.3394882678985596
40,8230,8196,8249,8179,8161,8188,8141,8156,8207,8172,8216,8213,8172,8147,1.3464412689208984
41,8212,8172,8236,8162,8162,8178,8153,8158,8110,8176,8232,8172,8161,8136,1.354121446609497
42,8232,8191,8250,8174,8168,8185,8158,8175,8190,8174,8224,8197,8169,8156,1.36211895942688
43,8212,8177,8240,8171,8173,8182,8155,8165,8191,8173,8216,8186,8163,8149,1.3706252574920654
44,8217,8169,8231,8173,8179,8176,8156,8158,8120,8183,8220,8160,8158,8141,1.3786249160766602
45,8229,8198,8243,8176,8168,8172,8150,8179,8233,8176,8210,8205,8175,8139,1.3858237266540527
46,8206,8167,8222,8159,8176,8171,8163,8173,8151,8193,8216,8174,8166,8124,1.3944406509399414
47,8228,8181,8232,8170,8170,8185,8151,8158,8171,8175,8201,8195,8165,8132,1.4025192260742188
48,8213,8176,8229,8164,8160,8183,8141,8156,8155,8158,8188,8185,8160,8130,1.410511493682861
49,8205,8157,8207,8156,8163,8180,8158,8164,8079,8173,8202,8157,8154,8140,1.4175071716308594
50,8210,8173,8210,8158,8154,8181,8161,8175,8210,8169,8205,8202,8171,8148,1.4254412651062012
51,8182,8144,8199,8151,8178,8176,8173,8170,8153,8192,8213,8164,8168,8133,1.433138370513916
52,8208,8171,8213,8167,8186,8186,8169,8178,8176,8192,8200,8181,8165,8141,1.4414408206939695
53,8197,8177,8211,8148,8176,8181,8158,8172,8196,8171,8196,8187,8163,8137,1.4495782852172852
54,8176,8156,8197,8139,8185,8175,8164,8162,8120,8180,8215,8156,8163,8137,1.457582950592041
55,8200,8180,8208,8167,8169,8178,8166,8186,8233,8183,8201,8199,8174,8143,1.466580152511597
56,8197,8160,8186,8151,8173,8182,8189,8196,8174,8211,8200,8166,8165,8135,1.4727177619934082
56,8197,8160,8186,8151,8173,8182,8189,8196,8174,8211,8200,8166,8165,8135,1.4737184047698977
57,8205,8177,8196,8157,8179,8199,8188,8197,8211,8215,8205,8182,8168,8155,1.4807195663452148
58,8194,8177,8203,8165,8170,8194,8171,8188,8253,8194,8199,8192,8166,8149,1.487718105316162
58,8194,8177,8203,8165,8170,8194,8171,8188,8253,8194,8199,8192,8166,8149,1.4887182712554932
59,8184,8147,8175,8150,8177,8192,8177,8178,8121,8193,8197,8147,8157,8136,1.4957196712493896
59,8184,8147,8175,8150,8177,8192,8177,8178,8121,8193,8197,8147,8157,8136,1.4967188835144043
60,8193,8178,8188,8158,8166,8203,8170,8189,8223,8182,8187,8193,8177,8156,1.5037178993225098
60,8193,8178,8188,8158,8166,8203,8170,8189,8223,8182,8187,8193,8177,8156,1.5047190189361572
61,8174,8154,8187,8151,8169,8198,8188,8189,8204,8208,8202,8169,8172,8163,1.51171875
61,8174,8154,8187,8151,8169,8198,8188,8189,8204,8208,8202,8169,8172,8163,1.5127191543579102
62,8179,8153,8176,8144,8157,8202,8186,8181,8169,8196,8190,8159,8157,8158,1.5197193622589111
62,8179,8153,8176,8144,8157,8202,8186,8181,8169,8196,8190,8159,8157,8158,1.520718336105347
63,8158,8164,8162,8129,8136,8191,8157,8167,8174,8151,8160,8168,8155,8122,1.5287189483642578
64,8163,8149,8157,8134,8153,8181,8172,8166,8100,8179,8174,8140,8156,8122,1.5357205867767334
64,8163,8149,8157,8134,8153,8181,8172,8166,8100,8179,8174,8140,8156,8122,1.536719799041748
65,8191,8177,8176,8150,8144,8190,8177,8181,8222,8183,8180,8188,8169,8153,1.5427181720733645
65,8191,8177,8176,8150,8144,8190,8177,8181,8222,8183,8180,8188,8169,8153,1.543718338012695
66,8151,8150,8149,8124,8143,8186,8175,8170,8162,8168,8189,8160,8162,8128,1.5514421463012695
67,8173,8157,8156,8140,8153,8187,8186,8172,8154,8179,8200,8165,8169,8128,1.5592074394226074
68,8206,8178,8187,8154,8142,8179,8190,8185,8256,8190,8200,8205,8180,8151,1.5675435066223145
69,8178,8146,8167,8135,8158,8177,8192,8177,8157,8205,8214,8160,8169,8154,1.5755436420440674
70,8170,8171,8167,8141,8158,8191,8176,8188,8247,8195,8209,8190,8173,8155,1.5834410190582275
71,8152,8153,8160,8132,8147,8179,8191,8199,8231,8210,8210,8176,8169,8133,1.5914413928985596
72,8174,8146,8159,8138,8143,8174,8204,8196,8184,8221,8209,8159,8167,8134,1.5994360446929932
73,8183,8165,8160,8140,8140,8184,8186,8188,8241,8191,8186,8180,8169,8133,1.607405662536621
74,8154,8136,8140,8123,8154,8184,8186,8175,8117,8186,8181,8139,8155,8109,1.614593744277954
75,8153,8154,8146,8133,8135,8174,8161,8173,8150,8160,8175,8170,8158,8089,1.622537612915039
76,8130,8145,8133,8127,8127,8161,8144,8162,8111,8152,8182,8156,8158,8067,1.630540132522583
77,8156,8148,8150,8140,8139,8178,8153,8171,8097,8179,8191,8151,8165,8086,1.6378552913665771
77,8156,8148,8150,8140,8139,8178,8153,8171,8097,8179,8191,8151,8165,8086,1.6388545036315918
78,8179,8169,8173,8148,8127,8189,8158,8189,8234,8184,8191,8193,8177,8103,1.6464407444000244
79,8140,8139,8137,8119,8138,8186,8179,8178,8130,8193,8213,8140,8163,8098,1.6544408798217771
80,8145,8162,8147,8134,8138,8189,8173,8188,8172,8176,8205,8167,8168,8115,1.662797927856445
81,8153,8157,8160,8148,8135,8177,8172,8195,8191,8183,8193,8170,8170,8109,1.6698875427246094
82,8170,8154,8157,8153,8152,8182,8182,8180,8145,8195,8202,8150,8165,8115,1.6768944263458252
83,8175,8182,8172,8158,8154,8193,8166,8179,8235,8164,8196,8188,8168,8123,1.6856122016906738
84,8158,8151,8155,8146,8156,8185,8172,8170,8110,8162,8188,8136,8152,8099,1.6936118602752686
85,8178,8171,8164,8159,8139,8194,8169,8169,8123,8141,8183,8152,8162,8101,1.7014410495758057
86,8162,8175,8177,8159,8142,8202,8166,8171,8163,8133,8197,8170,8171,8105,1.709707498550415
87,8173,8162,8176,8159,8165,8210,8174,8170,8122,8165,8202,8148,8164,8109,1.7173995971679688
88,8189,8182,8185,8164,8152,8218,8165,8175,8231,8165,8199,8184,8175,8111,1.7254900932312012
89,8158,8161,8184,8163,8160,8220,8177,8177,8171,8183,8233,8158,8169,8111,1.733489751815796
90,8195,8186,8206,8188,8167,8234,8179,8189,8217,8184,8235,8179,8170,8129,1.7415740489959717
90,8195,8186,8206,8188,8167,8234,8179,8189,8217,8184,8235,8179,8170,8129,1.7418513298034668
91,8186,8176,8180,8165,8156,8227,8174,8182,8227,8165,8217,8174,8167,8108,1.748575210571289
92,8146,8145,8145,8148,8165,8217,8172,8176,8116,8173,8223,8134,8157,8099,1.756779670715332
93,8169,8184,8163,8178,8158,8220,8159,8189,8224,8163,8204,8178,8163,8122,1.764779567718506
94,8168,8158,8150,8161,8163,8216,8169,8172,8148,8162,8197,8148,8157,8111,1.7724413871765137
95,8155,8148,8146,8147,8153,8218,8158,8161,8121,8138,8188,8153,8159,8095,1.7804405689239502
96,8137,8158,8150,8147,8139,8216,8151,8166,8164,8131,8176,8167,8159,8086,1.7884399890899658
97,8155,8155,8152,8153,8167,8230,8182,8168,8108,8172,8204,8142,8163,8110,1.7968199253082275
97,8155,8155,8152,8153,8167,8230,8182,8168,8108,8172,8204,8142,8163,8110,1.7973401546478271
98,8169,8184,8179,8171,8163,8251,8171,8178,8221,8155,8217,8191,8175,8132,1.8033599853515625
99,8139,8161,8167,8169,8158,8250,8165,8179,8157,8153,8214,8156,8155,8108,1.8113534450531008
100,8171,8173,8174,8181,8162,8255,8170,8181,8157,8170,8202,8159,8157,8118,1.8194420337677
100,8171,8173,8174,8181,8162,8255,8170,8181,8157,8170,8202,8159,8157,8118,1.8198039531707764
101,8172,8183,8187,8169,8155,8247,8162,8173,8225,8154,8203,8186,8171,8127,1.8274056911468504
102,8156,8163,8176,8158,8168,8243,8169,8161,8128,8158,8228,8144,8158,8116,1.8354413509368896
103,8185,8193,8190,8179,8164,8246,8158,8167,8210,8146,8212,8182,8161,8113,1.843440055847168
104,8157,8163,8168,8155,8171,8232,8153,8154,8135,8133,8205,8159,8161,8095,1.8518996238708496
105,8154,8163,8165,8158,8168,8237,8154,8158,8110,8127,8214,8156,8159,8110,1.8589065074920652
105,8154,8163,8165,8158,8168,8237,8154,8158,8110,8127,8214,8156,8159,8110,1.8599073886871336
106,8166,8181,8180,8176,8149,8242,8156,8184,8219,8135,8208,8185,8162,8125,1.8673982620239256
107,8143,8142,8161,8160,8167,8236,8174,8179,8121,8162,8210,8144,8158,8120,1.8757588863372805
108,8141,8163,8166,8163,8166,8230,8166,8179,8187,8145,8199,8181,8168,8127,1.8824403285980225
109,8134,8160,8154,8162,8157,8212,8170,8179,8170,8151,8193,8165,8158,8121,1.8904411792755127
110,8148,8159,8150,8167,8150,8217,8168,8172,8119,8158,8189,8146,8157,8121,1.8984403610229488
111,8138,8170,8159,8165,8138,8226,8148,8168,8173,8136,8179,8174,8167,8100,1.906460285186768
112,8125,8138,8140,8150,8153,8220,8159,8165,8074,8149,8182,8139,8150,8086,1.9144625663757324
113,8153,8161,8154,8156,8151,8229,8157,8172,8161,8147,8174,8185,8162,8117,1.922424077987671
114,8136,8159,8167,8161,8156,8238,8162,8178,8182,8167,8193,8181,8174,8124,1.9304404258728027
115,8157,8163,8177,8182,8170,8238,8171,8180,8142,8180,8198,8156,8164,8130,1.9374041557312007
116,8175,8178,8179,8177,8152,8227,8154,8173,8204,8138,8167,8192,8160,8128,1.945441722869873
117,8148,8144,8163,8153,8166,8231,8164,8163,8102,8147,8177,8163,8157,8115,1.9537382125854488
118,8168,8174,8186,8180,8179,8258,8167,8175,8176,8158,8181,8189,8166,8129,1.9611170291900637
119,8147,8162,8167,8164,8177,8245,8156,8168,8161,8147,8167,8168,8157,8113,1.969410181045532
120,8128,8138,8142,8144,8173,8236,8153,8163,8080,8147,8181,8143,8160,8106,1.9774396419525144
121,8155,8169,8168,8169,8158,8250,8156,8180,8208,8148,8188,8199,8182,8125,1.985440969467163
122,8165,8157,8167,8167,8177,8262,8183,8173,8143,8171,8195,8166,8169,8137,1.9934639930725095
123,8174,8177,8175,8165,8174,8269,8169,8172,8181,8158,8186,8180,8165,8152,2.001464366912842
124,8156,8168,8169,8159,8158,8252,8153,8175,8199,8148,8172,8179,8164,8134,2.0084400177001958
125,8168,8156,8159,8164,8179,8254,8175,8174,8129,8171,8170,8160,8163,8136,2.016508102416992
126,8173,8187,8175,8168,8183,8275,8171,8181,8246,8163,8169,8207,8171,8149,2.0245676040649414
127,8140,8150,8155,8149,8180,8267,8169,8169,8163,8172,8182,8159,8155,8125,2.032557725906372
239,8157,8155,8149,8158,8169,8250,8157,8160,8158,8163,8171,8168,8156,8123,2.0401482582092285
0,8137,8157,8146,8147,8166,8250,8148,8160,8187,8144,8168,8179,8161,8119,2.048184871673584
1,8132,8144,8148,8144,8176,8272,8169,8169,8119,8159,8187,8147,8152,8117,2.0562667846679688
2,8165,8176,8169,8160,8161,8268,8170,8177,8223,8151,8170,8193,8162,8117,2.0642664432525635
3,8133,8148,8145,8139,8173,8246,8170,8164,8139,8158,8172,8160,8163,8102,2.0714423656463623
4,8138,8157,8146,8145,8179,8261,8161,8171,8141,8161,8173,8161,8168,8118,2.079378128051758
5,8154,8169,8154,8152,8159,8257,8154,8175,8190,8149,8154,8177,8164,8120,2.0874040126800537
6,8142,8141,8135,8137,8165,8236,8159,8158,8091,8154,8156,8146,8154,8116,2.0956947803497314
7,8139,8157,8140,8135,8158,8241,8147,8164,8196,8143,8157,8186,8167,8126,2.103440523147583
8,8136,8145,8133,8136,8164,8247,8168,8174,8171,8170,8171,8158,8162,8122,2.1114625930786133
9,8168,8163,8155,8161,8175,8250,8169,8177,8179,8179,8175,8162,8163,8143,2.1194567680358887
10,8135,8164,8160,8154,8170,8238,8137,8166,8233,8151,8165,8179,8169,8139,2.12644100189209
11,8105,8135,8134,8140,8172,8232,8145,8158,8122,8167,8171,8137,8161,8122,2.134440422058105
12,8155,8175,8165,8164,8166,8241,8158,8171,8214,8163,8158,8181,8168,8132,2.142768621444702
13,8144,8155,8169,8152,8182,8233,8170,8160,8175,8151,8154,8160,8160,8125,2.1507680416107178
14,8135,8146,8161,8151,8182,8232,8167,8158,8150,8147,8152,8157,8161,8131,2.1584341526031494
15,8149,8164,8167,8158,8152,8225,8151,8170,8230,8143,8135,8185,8168,8131,2.16644024848938
16,8144,8139,8156,8139,8165,8210,8156,8152,8117,8159,8144,8136,8158,8120,2.174154758453369
17,8144,8163,8167,8145,8166,8211,8150,8150,8184,8140,8143,8172,8170,8119,2.182155132293701
18,8120,8149,8152,8137,8159,8201,8160,8162,8169,8142,8134,8159,8166,8104,2.1904401779174805
19,8127,8140,8140,8129,8160,8201,8158,8165,8121,8146,8119,8144,8159,8116,2.197403907775879
20,8129,8162,8151,8134,8154,8213,8137,8167,8193,8126,8109,8179,8170,8126,2.205440759658813
21,8133,8151,8150,8134,8175,8224,8156,8168,8118,8152,8129,8149,8167,8134,2.213322877883911
22,8162,8174,8161,8134,8165,8228,8152,8168,8194,8145,8122,8181,8171,8156,2.221320629119873
23,8124,8148,8142,8118,8159,8223,8149,8162,8168,8132,8122,8160,8163,8138,2.2294418811798096
24,8141,8150,8148,8149,8184,8244,8180,8175,8141,8156,8136,8143,8160,8146,2.2374041080474854
25,8176,8189,8169,8170,8175,8246,8177,8181,8266,8151,8135,8191,8169,8162,2.245441198348999
26,8144,8153,8147,8143,8172,8221,8163,8163,8160,8155,8154,8155,8162,8153,2.253124713897705
27,8162,8173,8168,8160,8175,8235,8160,8179,8223,8162,8161,8181,8170,8168,2.2611238956451416
28,8166,8171,8170,8160,8178,8240,8177,8183,8249,8176,8159,8174,8167,8154,2.268440723419189
28,8166,8171,8170,8160,8178,8240,8177,8183,8249,8176,8159,8174,8167,8154,2.2691307067871094
29,8144,8154,8149,8147,8174,8220,8176,8167,8144,8169,8153,8145,8159,8129,2.2764370441436768
30,8132,8176,8158,8151,8154,8211,8148,8164,8202,8131,8121,8179,8163,8115,2.284452438354492
31,8119,8149,8136,8132,8166,8219,8163,8149,8110,8143,8114,8135,8152,8101,2.292452096939087
32,8127,8163,8129,8140,8164,8223,8161,8153,8144,8137,8112,8154,8161,8113,2.300440549850464
33,8112,8163,8132,8145,8155,8204,8160,8168,8179,8140,8116,8165,8167,8115,2.3084404468536377
34,8141,8155,8141,8148,8164,8204,8182,8167,8128,8170,8128,8144,8165,8137,2.3164408206939697
35,8158,8184,8158,8154,8150,8205,8158,8163,8235,8145,8127,8187,8171,8154,2.3234424591064453
36,8124,8156,8138,8141,8160,8183,8151,8158,8154,8147,8143,8145,8157,8135,2.3313724994659424
37,8157,8170,8147,8149,8165,8186,8162,8166,8175,8153,8133,8159,8162,8147,2.33937931060791
38,8162,8176,8162,8144,8160,8188,8171,8166,8221,8144,8127,8182,8172,8159,2.3474035263061523
39,8167,8166,8173,8154,8177,8192,8181,8170,8159,8166,8158,8158,8170,8172,2.35493278503418
39,8167,8166,8173,8154,8177,8192,8181,8170,8159,8166,8158,8158,8170,8172,2.3559398651123047
40,8199,8190,8194,8175,8157,8185,8171,8182,8257,8164,8156,8194,8177,8186,2.3629467487335205
40,8199,8190,8194,8175,8157,8185,8171,8182,8257,8164,8156,8194,8177,8186,2.3639419078826904
41,8158,8152,8169,8143,8149,8167,8178,8168,8159,8169,8152,8159,8165,8161,2.3714747428894043
42,8154,8166,8173,8162,8160,8184,8182,8180,8178,8172,8150,8169,8164,8153,2.3794913291931152
43,8170,8183,8183,8188,8163,8188,8185,8194,8266,8167,8147,8184,8165,8147,2.3875317573547363
44,8159,8153,8171,8167,8171,8171,8192,8175,8150,8180,8155,8141,8157,8144,2.3945298194885254
45,8157,8182,8192,8168,8165,8176,8177,8182,8234,8169,8142,8184,8170,8158,2.402530670166016
46,8147,8172,8174,8170,8183,8182,8190,8188,8208,8181,8138,8159,8160,8156,2.410528898239136
47,8154,8168,8156,8172,8183,8186,8185,8179,8185,8174,8137,8155,8158,8159,2.418531894683838
48,8133,8169,8154,8160,8166,8178,8165,8175,8216,8143,8126,8173,8163,8139,2.4265081882476807
49,8130,8151,8146,8156,8186,8178,8181,8166,8113,8156,8127,8135,8154,8140,2.433960437774658
50,8152,8179,8165,8168,8175,8183,8166,8166,8203,8140,8122,8181,8167,8162,2.4419569969177246
51,8125,8152,8155,8153,8155,8173,8152,8163,8158,8138,8126,8161,8164,8138,2.4504411220550537
52,8148,8156,8160,8162,8158,8180,8162,8162,8128,8149,8119,8150,8160,8141,2.4584240913391118
53,8154,8174,8175,8163,8159,8179,8156,8161,8210,8137,8113,8182,8165,8153,2.4654407501220703
54,8127,8139,8157,8151,8172,8172,8160,8158,8113,8151,8132,8142,8157,8146,2.473633050918579
55,8160,8167,8170,8172,8166,8183,8160,8162,8182,8137,8111,8172,8160,8160,2.4814412593841557
56,8157,8162,8163,8161,8172,8183,8169,8150,8153,8125,8104,8160,8157,8153,2.489440679550171
57,8148,8158,8163,8159,8187,8192,8166,8149,8112,8130,8129,8156,8159,8151,2.497713088989258
58,8136,8176,8175,8174,8184,8203,8152,8163,8212,8127,8136,8190,8168,8147,2.5049617290496826
58,8136,8176,8175,8174,8184,8203,8152,8163,8212,8127,8136,8190,8168,8147,2.5059621334075928
59,8127,8156,8164,8177,8204,8205,8174,8167,8145,8160,8140,8147,8158,8140,2.512969732284546
59,8127,8156,8164,8177,8204,8205,8174,8167,8145,8160,8140,8147,8158,8140,2.5139613151550293
60,8165,8185,8178,8192,8205,8221,8179,8182,8239,8170,8135,8179,8170,8160,2.521442413330078
61,8147,8175,8168,8176,8206,8226,8178,8183,8244,8171,8149,8171,8172,8164,2.528759479522705
62,8137,8167,8158,8172,8213,8222,8180,8174,8176,8164,8145,8150,8161,8167,2.536760091781616
63,8149,8186,8166,8175,8195,8215,8168,8172,8255,8134,8108,8187,8165,8164,2.544440746307373
64,8129,8148,8147,8152,8199,8209,8178,8165,8156,8152,8127,8149,8162,8162,2.5517704486846924
64,8129,8148,8147,8152,8199,8209,8178,8165,8156,8152,8127,8149,8162,8162,2.552774667739868
65,8141,8171,8158,8168,8190,8213,8163,8174,8214,8156,8146,8181,8170,8184,2.5607750415802
66,8144,8171,8158,8169,8182,8206,8160,8172,8232,8154,8131,8176,8166,8181,2.568908929824829
67,8158,8152,8156,8161,8188,8208,8182,8166,8157,8159,8131,8152,8162,8189,2.575911045074463
67,8158,8152,8156,8161,8188,8208,8182,8166,8157,8159,8131,8152,8162,8189,2.57690954208374
68,8173,8182,8179,8175,8169,8212,8177,8184,8261,8151,8131,8201,8175,8202,2.583909034729004
69,8162,8167,8170,8177,8186,8216,8192,8184,8190,8181,8139,8165,8164,8193,2.591908693313598
70,8176,8178,8177,8181,8199,8231,8190,8178,8226,8169,8136,8178,8165,8202,2.5989091396331787
71,8153,8164,8173,8164,8186,8219,8172,8169,8237,8145,8125,8179,8163,8181,2.606908798217773
72,8164,8152,8167,8165,8189,8222,8184,8164,8149,8168,8125,8148,8161,8172,2.6159088611602783
73,8181,8186,8187,8183,8185,8242,8186,8175,8261,8167,8127,8198,8178,8190,2.622909545898437
74,8130,8156,8167,8158,8190,8235,8185,8167,8186,8174,8149,8165,8170,8179,2.631441354751587
75,8144,8168,8172,8169,8186,8247,8175,8170,8204,8173,8136,8167,8166,8182,2.639440059661865
76,8161,8176,8172,8180,8186,8259,8183,8178,8257,8172,8111,8177,8163,8179,2.647404670715332
77,8156,8155,8150,8165,8201,8252,8204,8173,8171,8187,8114,8154,8159,8185,2.654440402984619
78,8148,8172,8162,8161,8176,8243,8180,8173,8246,8163,8100,8196,8169,8191,2.662304639816284
79,8115,8150,8150,8152,8173,8236,8175,8164,8161,8159,8107,8157,8160,8163,2.66982102394104
79,8115,8150,8150,8152,8173,8236,8175,8164,8161,8159,8107,8157,8160,8163,2.6708149909973145
80,8150,8171,8164,8181,8184,8246,8191,8171,8181,8163,8119,8166,8168,8180,2.6788218021392822
81,8172,8184,8186,8189,8179,8241,8198,8180,8258,8157,8116,8194,8176,8199,2.686440944671631
82,8177,8160,8188,8180,8189,8235,8206,8179,8174,8186,8127,8168,8168,8203,2.6944408416748047
83,8198,8186,8204,8192,8181,8233,8191,8183,8273,8179,8121,8211,8176,8211,2.7029359340667725
84,8161,8161,8180,8166,8179,8218,8184,8158,8196,8161,8120,8168,8163,8193,2.709937572479248
84,8161,8161,8180,8166,8179,8218,8184,8158,8196,8161,8120,8168,8163,8193,2.7109289169311523
85,8154,8168,8186,8169,8179,8226,8175,8156,8154,8146,8119,8162,8161,8183,2.7185096740722656
86,8162,8184,8203,8182,8173,8221,8169,8169,8227,8145,8116,8196,8170,8173,2.726569175720215
87,8152,8146,8182,8171,8191,8203,8183,8158,8127,8174,8131,8152,8159,8179,2.733579397201538
88,8147,8167,8188,8175,8185,8207,8169,8163,8204,8161,8126,8181,8166,8181,2.7414820194244385
89,8123,8159,8171,8170,8187,8207,8181,8170,8184,8167,8130,8158,8161,8147,2.74953293800354
90,8136,8154,8155,8173,8192,8193,8192,8166,8148,8172,8123,8149,8158,8145,2.757498025894165
91,8119,8157,8149,8163,8170,8168,8166,8156,8191,8142,8107,8179,8168,8139,2.765442132949829
92,8095,8133,8134,8148,8169,8159,8163,8147,8068,8149,8114,8138,8162,8122,2.773442029953003
93,8130,8168,8157,8164,8159,8159,8152,8154,8131,8136,8101,8172,8164,8140,2.781645536422729
94,8114,8157,8154,8155,8162,8148,8158,8152,8115,8131,8110,8161,8158,8136,2.788440465927124
95,8123,8149,8145,8159,8173,8157,8178,8155,8074,8144,8126,8148,8159,8133,2.7967429161071777
96,8145,8168,8160,8164,8155,8152,8169,8156,8152,8126,8112,8182,8168,8131,2.8047382831573486
97,8135,8150,8162,8150,8165,8137,8177,8149,8061,8132,8114,8149,8160,8130,2.812441110610962
98,8161,8180,8185,8171,8166,8150,8176,8167,8152,8130,8114,8182,8171,8151,2.820441246032715
99,8148,8169,8179,8171,8169,8149,8167,8161,8155,8137,8130,8175,8172,8144,2.8284401893615723
100,8149,8166,8185,8182,8195,8152,8170,8150,8099,8158,8162,8166,8171,8154,2.836439847946167
101,8177,8202,8208,8201,8193,8168,8177,8162,8218,8154,8154,8204,8177,8169,2.8444395065307617
102,8167,8170,8191,8188,8198,8173,8203,8159,8129,8165,8149,8153,8161,8157,2.852437734603882
103,8172,8185,8207,8198,8200,8183,8203,8169,8178,8158,8154,8182,8170,8164,2.8590991497039795
104,8163,8185,8202,8189,8197,8177,8205,8180,8206,8165,8154,8185,8173,8160,2.8671088218688965
105,8158,8165,8180,8176,8193,8175,8220,8174,8126,8179,8150,8149,8162,8158,2.875441312789917
106,8143,8181,8183,8178,8170,8171,8205,8173,8200,8152,8134,8186,8167,8150,2.8834407329559326
107,8128,8155,8167,8162,8180,8154,8208,8168,8113,8161,8140,8151,8160,8137,2.891413927078247
108,8157,8171,8182,8167,8174,8158,8198,8166,8146,8152,8143,8170,8163,8160,2.899414539337158
109,8138,8171,8192,8170,8164,8161,8193,8161,8172,8141,8144,8182,8170,8163,2.9074699878692627
109,8138,8171,8192,8170,8164,8161,8193,8161,8172,8141,8144,8182,8170,8163,2.9084889888763428
110,8147,8158,8188,8175,8182,8170,8207,8157,8102,8164,8148,8157,8170,8167,2.915512800216675
111,8177,8190,8208,8188,8177,8174,8189,8160,8205,8147,8138,8199,8174,8182,2.9225122928619385
112,8156,8169,8200,8182,8188,8163,8195,8157,8123,8153,8147,8158,8160,8168,2.9299092292785645
112,8156,8169,8200,8182,8188,8163,8195,8157,8123,8153,8147,8158,8160,8168,2.9309089183807373
113,8181,8180,8209,8190,8190,8164,8203,8164,8139,8163,8141,8164,8168,8171,2.9379093647003174
114,8174,8177,8212,8176,8179,8157,8199,8168,8196,8160,8149,8181,8173,8169,2.946442127227783
115,8159,8160,8199,8178,8191,8160,8208,8169,8123,8178,8172,8152,8166,8173,2.9544782638549805
116,8179,8197,8217,8204,8182,8172,8196,8176,8221,8162,8147,8191,8175,8178,2.962476968765259
117,8155,8168,8201,8189,8193,8161,8198,8162,8136,8161,8140,8156,8164,8158,2.969930648803711
118,8165,8175,8190,8195,8212,8163,8206,8169,8129,8166,8153,8160,8164,8175,2.9784412384033203
119,8155,8184,8191,8196,8204,8174,8210,8181,8216,8165,8160,8181,8169,8178,2.985968589782715
120,8134,8152,8179,8185,8192,8185,8226,8172,8132,8186,8164,8135,8160,8162,2.9932451248168945
121,8150,8174,8183,8188,8170,8184,8209,8173,8201,8166,8130,8167,8167,8165,3.0012447834014893
122,8117,8150,8160,8161,8176,8170,8201,8166,8122,8148,8117,8141,8160,8152,3.0094411373138428
123,8125,8155,8168,8171,8174,8172,8198,8163,8093,8139,8132,8146,8168,8162,3.017327070236206
123,8125,8155,8168,8171,8174,8172,8198,8163,8093,8139,8132,8146,8168,8162,3.018338203430176
124,8150,8176,8178,8182,8151,8162,8191,8162,8173,8135,8132,8185,8175,8173,3.025933265686035
125,8143,8151,8166,8160,8171,8161,8205,8159,8087,8157,8133,8150,8159,8178,3.032935380935669
125,8143,8151,8166,8160,8171,8161,8205,8159,8087,8157,8133,8150,8159,8178,3.033935070037842
126,8150,8172,8189,8168,8169,8180,8196,8173,8166,8137,8122,8182,8164,8185,3.041393518447876
127,8145,8163,8187,8163,8158,8168,8200,8164,8124,8138,8137,8163,8168,8169,3.049504280090332
239,8166,8175,8192,8173,8164,8162,8206,8162,8116,8165,8157,8165,8173,8186,3.0565152168273926
0,8164,8187,8202,8182,8159,8168,8195,8178,8217,8162,8146,8194,8175,8188,3.064661264419556
1,8134,8144,8179,8166,8161,8161,8197,8164,8074,8161,8149,8141,8159,8161,3.0724427700042725
2,8137,8169,8187,8175,8143,8161,8179,8160,8100,8130,8140,8169,8164,8158,3.0804431438446045
3,8123,8159,8171,8165,8142,8163,8185,8160,8082,8119,8129,8153,8163,8145,3.0878047943115234
4,8130,8141,8156,8158,8151,8168,8197,8161,8047,8136,8128,8137,8162,8145,3.096806049346924
5,8120,8162,8165,8167,8134,8158,8179,8165,8144,8129,8125,8177,8168,8146,3.104441404342652
6,8097,8146,8149,8159,8141,8149,8187,8158,8047,8144,8134,8141,8156,8143,3.111910581588745
6,8097,8146,8149,8159,8141,8149,8187,8158,8047,8144,8134,8141,8156,8143,3.1129112243652344
7,8127,8172,8167,8165,8147,8157,8186,8165,8122,8143,8136,8180,8169,8165,3.119441509246826
8,8114,8165,8173,8161,8153,8143,8176,8167,8142,8149,8152,8181,8174,8157,3.127404928207397
9,8132,8163,8169,8176,8154,8134,8179,8170,8081,8159,8148,8158,8164,8162,3.1354308128356934
10,8156,8183,8182,8182,8133,8138,8180,8172,8168,8134,8129,8191,8169,8173,3.1434309482574463
11,8119,8147,8168,8158,8148,8138,8187,8159,8074,8136,8153,8154,8160,8153,3.1514365673065186
12,8143,8177,8187,8179,8149,8147,8176,8173,8118,8135,8153,8168,8167,8156,3.1601035594940186
13,8164,8184,8193,8185,8144,8147,8184,8181,8142,8155,8147,8135,8169,8164,3.166668653488159
14,8164,8163,8189,8184,8162,8156,8197,8174,8089,8179,8174,8092,8167,8177,3.1751859188079834
15,8159,8180,8199,8191,8157,8163,8177,8178,8188,8157,8169,8145,8175,8171,3.1834421157836914
16,8145,8154,8172,8167,8168,8152,8192,8173,8085,8167,8159,8114,8165,8149,3.19044041633606
17,8158,8172,8173,8169,8169,8154,8188,8172,8104,8158,8155,8131,8170,8163,3.1984622478485107
18,8132,8175,8171,8174,8159,8147,8169,8170,8131,8142,8155,8143,8167,8155,3.2064599990844727
19,8141,8157,8162,8181,8174,8148,8186,8164,8049,8162,8162,8116,8163,8158,3.2144408226013184
20,8165,8181,8184,8189,8172,8155,8185,8170,8163,8154,8157,8162,8180,8174,3.222721815109253
21,8136,8155,8177,8173,8173,8144,8187,8170,8102,8161,8160,8130,8169,8159,3.230776071548462
22,8154,8169,8178,8180,8159,8138,8180,8170,8105,8156,8143,8136,8165,8164,3.2387752532958984
23,8142,8171,8172,8171,8142,8131,8169,8162,8137,8145,8137,8149,8167,8160,3.2464425563812256
24,8136,8153,8164,8167,8158,8137,8182,8160,8056,8167,8161,8124,8164,8157,3.2534408569335938
25,8173,8187,8188,8182,8155,8132,8168,8165,8168,8152,8160,8172,8175,8173,3.2614409923553467
26,8151,8157,8178,8162,8151,8109,8160,8148,8101,8148,8169,8138,8170,8163,3.269256114959717
27,8154,8161,8184,8169,8144,8123,8164,8151,8092,8145,8162,8140,8170,8166,3.27719783782959
28,8154,8175,8188,8169,8137,8127,8166,8154,8144,8131,8139,8163,8168,8156,3.2851979732513428
29,8143,8150,8171,8159,8149,8113,8168,8142,8032,8149,8143,8126,8160,8151,3.2934412956237797
30,8164,8175,8189,8175,8132,8116,8151,8159,8122,8138,8126,8161,8174,8168,3.3016130924224854
31,8149,8153,8176,8160,8137,8111,8162,8162,8088,8138,8132,8133,8170,8157,3.309614419937134
32,8141,8152,8172,8162,8151,8108,8164,8154,8070,8146,8151,8132,8162,8152,3.317615032196045
33,8133,8168,8182,8168,8140,8101,8157,8159,8138,8142,8139,8156,8162,8139,3.3246512413024902
34,8138,8149,8170,8155,8155,8101,8181,8160,8059,8162,8144,8123,8162,8140,3.3324413299560547
35,8164,8180,8192,8169,8152,8112,8170,8168,8159,8147,8148,8175,8175,8167,3.3404641151428223
36,8152,8168,8193,8175,8153,8107,8168,8168,8131,8151,8147,8154,8168,8166,3.348463296890259
37,8161,8165,8189,8180,8159,8109,8170,8165,8095,8162,8140,8133,8165,8173,3.356441020965576
38,8151,8174,8194,8176,8143,8108,8151,8166,8175,8143,8132,8171,8171,8166,3.3644416332244877
39,8138,8149,8180,8168,8151,8110,8169,8162,8089,8161,8146,8138,8159,8156,3.372384786605835
40,8166,8187,8199,8182,8152,8121,8173,8168,8179,8163,8154,8170,8169,8177,3.379385709762573
41,8152,8178,8198,8175,8163,8111,8168,8163,8169,8168,8164,8155,8165,8168,3.387399911880493
42,8161,8165,8189,8182,8181,8110,8169,8158,8102,8168,8161,8138,8156,8166,3.3954408168792725
43,8173,8182,8197,8188,8169,8111,8159,8166,8188,8151,8154,8175,8169,8171,3.403441429138184
44,8159,8154,8184,8178,8176,8105,8168,8165,8114,8172,8165,8136,8164,8164,3.411297082901001
44,8159,8154,8184,8178,8176,8105,8168,8165,8114,8172,8165,8136,8164,8164,3.4122979640960693
45,8179,8170,8191,8192,8170,8115,8166,8167,8179,8157,8147,8164,8167,8177,3.41973090171814
46,8153,8157,8173,8175,8161,8104,8166,8158,8158,8141,8144,8154,8161,8167,3.4267325401306152
46,8153,8157,8173,8175,8161,8104,8166,8158,8158,8141,8144,8154,8161,8167,3.42772912979126
47,8149,8152,8161,8177,8166,8095,8173,8155,8080,8156,8155,8132,8158,8161,3.435730218887329
48,8161,8175,8173,8185,8156,8101,8164,8162,8183,8144,8137,8171,8170,8158,3.4427356719970703
49,8127,8135,8148,8150,8160,8107,8165,8145,8080,8149,8135,8129,8158,8144,3.4497311115264893
49,8127,8135,8148,8150,8160,8107,8165,8145,8080,8149,8135,8129,8158,8144,3.450730800628662
50,8147,8155,8157,8159,8148,8113,8149,8143,8100,8135,8129,8154,8159,8151,3.4577670097351074
50,8147,8155,8157,8159,8148,8113,8149,8143,8100,8135,8129,8154,8159,8151,3.458811044692993
51,8151,8162,8170,8169,8146,8109,8150,8147,8131,8127,8138,8159,8166,8152,3.465825080871582
51,8151,8162,8170,8169,8146,8109,8150,8147,8131,8127,8138,8159,8166,8152,3.4668192863464355
52,8159,8153,8176,8166,8160,8122,8167,8152,8097,8161,8166,8137,8172,8168,3.474348783493042
53,8176,8175,8185,8169,8139,8124,8146,8158,8194,8155,8150,8180,8178,8173,3.4824414253234863
54,8141,8136,8164,8153,8146,8101,8135,8135,8062,8134,8133,8139,8151,8144,3.490440845489502
54,8141,8136,8164,8153,8146,8101,8135,8135,8062,8134,8133,8139,8151,8144,3.490900993347168
55,8156,8155,8182,8167,8153,8107,8134,8139,8085,8126,8126,8149,8152,8151,3.498435735702514
56,8170,8175,8181,8161,8145,8114,8140,8150,8150,8142,8124,8160,8163,8151,3.505919933319092
56,8170,8175,8181,8161,8145,8114,8140,8150,8150,8142,8124,8160,8163,8151,3.5069172382354736
57,8164,8154,8155,8141,8157,8110,8147,8139,8049,8143,8132,8129,8161,8150,3.5135421752929688
58,8155,8172,8171,8150,8149,8111,8130,8138,8127,8110,8128,8167,8171,8155,3.521538019180298
59,8131,8151,8162,8149,8154,8111,8140,8138,8075,8132,8131,8135,8162,8135,3.5294406414031982
60,8165,8167,8165,8167,8159,8115,8148,8152,8104,8145,8118,8149,8163,8147,3.537404775619507
61,8181,8168,8171,8163,8164,8101,8157,8163,8162,8141,8119,8168,8171,8165,3.5457656383514404
62,8167,8140,8167,8150,8177,8088,8172,8153,8068,8153,8140,8134,8166,8174,3.5537877082824707
63,8167,8173,8182,8163,8152,8082,8149,8147,8143,8126,8117,8167,8166,8171,3.561784505844116
64,8153,8153,8155,8146,8147,8068,8158,8142,8078,8135,8106,8131,8156,8150,3.569434881210327
65,8168,8151,8154,8147,8152,8066,8164,8144,8076,8136,8111,8139,8161,8158,3.575922727584839
66,8159,8164,8175,8157,8152,8055,8145,8142,8135,8112,8106,8165,8166,8152,3.5839226245880127
67,8170,8157,8175,8162,8180,8051,8164,8139,8053,8146,8116,8128,8161,8157,3.5924413204193115
68,8187,8185,8183,8166,8174,8054,8163,8153,8157,8151,8122,8171,8170,8167,3.6004347801208496
69,8140,8159,8167,8150,8164,8029,8157,8157,8119,8146,8163,8151,8165,8138,3.6084470748901367
70,8166,8170,8181,8169,8173,8024,8170,8166,8124,8158,8213,8156,8171,8157,3.616441011428833
71,8176,8185,8186,8166,8167,8028,8163,8160,8195,8144,8216,8185,8168,8162,3.624440670013428
72,8140,8152,8164,8148,8173,8029,8153,8136,8056,8146,8210,8140,8149,8133,3.6324405670166016
73,8169,8183,8192,8176,8171,8042,8146,8148,8159,8154,8222,8185,8173,8160,3.640440225601196
74,8165,8165,8186,8163,8180,8046,8160,8151,8174,8178,8256,8177,8176,8175,3.647153377532959
75,8148,8151,8173,8146,8183,8048,8156,8145,8122,8175,8262,8159,8163,8164,3.6551549434661865
76,8148,8173,8184,8157,8166,8037,8137,8151,8193,8148,8241,8184,8168,8153,3.6631555557250977
77,8148,8147,8172,8149,8176,8030,8158,8149,8104,8167,8255,8151,8165,8161,3.6716628074646
78,8151,8159,8175,8150,8165,8044,8154,8157,8162,8157,8253,8186,8171,8174,3.67866325378418
78,8151,8159,8175,8150,8165,8044,8154,8157,8162,8157,8253,8186,8171,8174,3.679662704467773
79,8124,8146,8161,8144,8156,8039,8148,8151,8132,8148,8233,8163,8165,8149,3.687663316726685
80,8156,8147,8160,8155,8173,8047,8164,8141,8079,8154,8224,8144,8163,8158,3.6956627368927
81,8168,8174,8174,8155,8171,8067,8164,8150,8180,8128,8210,8186,8167,8166,3.703663110733032
82,8133,8143,8150,8133,8171,8076,8168,8146,8083,8136,8204,8140,8152,8135,3.710663795471192
83,8159,8155,8150,8140,8156,8080,8150,8140,8118,8136,8190,8161,8164,8139,3.7186625003814697
84,8148,8149,8147,8128,8161,8080,8145,8134,8106,8133,8205,8160,8170,8149,3.726663589477539
85,8143,8152,8150,8134,8177,8101,8160,8143,8060,8141,8228,8143,8164,8167,3.7344348430633545
86,8166,8177,8165,8150,8152,8110,8149,8156,8171,8131,8204,8183,8169,8167,3.742441892623901
87,8155,8141,8141,8132,8155,8101,8160,8148,8068,8149,8203,8145,8162,8149,3.750465154647827
88,8165,8160,8151,8138,8160,8114,8163,8152,8116,8147,8214,8169,8169,8166,3.7584829330444336
89,8137,8155,8148,8129,8147,8112,8154,8152,8154,8145,8219,8173,8168,8160,3.7664406299591056
89,8137,8155,8148,8129,8147,8112,8154,8152,8154,8145,8219,8173,8168,8160,3.766806364059448
90,8126,8137,8137,8122,8154,8115,8158,8149,8079,8164,8222,8145,8166,8151,3.773442029953003
91,8148,8174,8160,8138,8152,8132,8159,8160,8186,8151,8213,8187,8178,8157,3.78144121170044
92,8140,8158,8148,8134,8166,8123,8171,8157,8115,8167,8223,8151,8164,8154,3.78999137878418
93,8165,8170,8144,8143,8164,8110,8160,8153,8124,8164,8208,8159,8160,8160,3.7970025539398193
94,8164,8168,8135,8133,8156,8107,8159,8145,8147,8151,8190,8163,8165,8147,3.8054428100585938
95,8153,8154,8129,8124,8172,8129,8176,8145,8077,8172,8210,8137,8165,8153,3.813441276550293
96,8151,8182,8145,8137,8156,8140,8151,8163,8186,8159,8206,8179,8175,8155,3.821822166442871
97,8130,8148,8114,8127,8152,8118,8146,8151,8103,8160,8189,8139,8164,8120,3.829819440841675
98,8151,8156,8110,8133,8154,8131,8156,8147,8115,8164,8187,8153,8166,8133,3.8364412784576416
99,8135,8165,8120,8123,8145,8153,8159,8160,8193,8163,8204,8174,8169,8136,3.844443082809448
99,8135,8165,8120,8123,8145,8153,8159,8160,8193,8163,8204,8174,8169,8136,3.844834089279175
100,8120,8135,8106,8116,8148,8149,8167,8160,8104,8179,8210,8129,8159,8111,3.851842641830444
100,8120,8135,8106,8116,8148,8149,8167,8160,8104,8179,8210,8129,8159,8111,3.852870941162109
101,8144,8159,8114,8133,8131,8142,8149,8154,8179,8157,8184,8167,8168,8110,3.8601267337799072
102,8127,8141,8105,8122,8136,8139,8155,8141,8124,8155,8200,8147,8162,8119,3.868633270263672
103,8144,8154,8114,8132,8145,8145,8166,8154,8126,8163,8221,8154,8159,8136,3.876441240310669
104,8142,8169,8123,8129,8139,8132,8157,8163,8176,8155,8209,8177,8164,8122,3.8844411373138423
105,8123,8143,8108,8122,8150,8127,8164,8151,8071,8167,8215,8141,8163,8120,3.892442226409912
106,8148,8175,8128,8151,8143,8142,8161,8166,8196,8167,8221,8186,8178,8154,3.900442361831665
107,8133,8157,8126,8137,8149,8133,8164,8169,8175,8179,8231,8160,8171,8146,3.9084413051605225
108,8130,8148,8120,8129,8149,8126,8160,8160,8114,8172,8219,8141,8164,8128,3.9154515266418457
109,8135,8158,8117,8125,8138,8128,8155,8160,8172,8156,8200,8172,8167,8115,3.923441648483277
110,8130,8143,8111,8115,8164,8137,8175,8160,8100,8184,8222,8142,8163,8117,3.931443691253662
111,8148,8186,8140,8141,8163,8145,8166,8175,8205,8179,8218,8175,8173,8131,3.939465522766113
112,8140,8170,8127,8135,8161,8134,8166,8168,8176,8175,8199,8155,8165,8107,3.947818756103516
113,8148,8154,8118,8131,8170,8136,8171,8159,8120,8175,8197,8145,8160,8097,3.955441236495972
114,8143,8177,8132,8145,8154,8139,8164,8169,8198,8148,8197,8177,8167,8102,3.9633710384368896
115,8133,8161,8121,8145,8167,8132,8185,8165,8105,8161,8202,8142,8159,8106,3.97090220451355
116,8150,8179,8138,8155,8173,8136,8171,8158,8179,8164,8190,8178,8167,8114,3.978440284729004
117,8129,8161,8132,8146,8172,8140,8160,8156,8179,8172,8196,8162,8164,8096,3.986440896987915
118,8149,8159,8124,8153,8180,8158,8181,8167,8136,8184,8209,8143,8163,8111,3.994792938232422
119,8159,8189,8137,8161,8167,8155,8178,8173,8231,8160,8192,8181,8170,8116,4.002805471420288
120,8133,8161,8119,8150,8167,8133,8175,8153,8117,8169,8183,8136,8159,8093,4.01080322265625
121,8168,8183,8130,8163,8165,8136,8166,8155,8161,8170,8176,8165,8171,8121,4.018808364868164
122,8164,8184,8141,8161,8174,8140,8171,8171,8206,8174,8197,8175,8178,8141,4.026830673217773
123,8161,8170,8144,8164,8191,8146,8186,8181,8179,8194,8209,8152,8170,8145,4.0342652797698975
124,8165,8181,8147,8164,8170,8141,8176,8179,8261,8178,8180,8182,8172,8138,4.041265249252319
125,8135,8149,8128,8151,8169,8128,8187,8171,8153,8186,8190,8145,8164,8129,4.049440622329712
126,8173,8182,8158,8185,8176,8129,8190,8188,8213,8190,8199,8176,8174,8156,4.057408809661865
127,8187,8186,8171,8183,8184,8115,8184,8179,8251,8193,8197,8183,8172,8157,4.065438747406006
239,8170,8161,8155,8167,8195,8113,8191,8166,8168,8205,8203,8151,8162,8147,4.07294511795044
239,8170,8161,8155,8167,8195,8113,8191,8166,8168,8205,8203,8151,8162,8147,4.07393741607666
0,8172,8183,8159,8177,8170,8112,8183,8180,8267,8190,8180,8193,8172,8142,4.0809547901153564
1,8154,8156,8137,8165,8174,8088,8184,8166,8182,8198,8179,8153,8161,8126,4.0890421867370605
2,8160,8169,8139,8172,8175,8083,8166,8158,8180,8184,8175,8163,8159,8130,4.097055196762085
3,8150,8166,8137,8170,8162,8084,8158,8161,8200,8169,8163,8183,8162,8119,4.104055166244507
4,8149,8145,8124,8163,8175,8090,8170,8154,8106,8187,8179,8158,8163,8117,4.112441301345825
5,8161,8178,8147,8176,8169,8096,8155,8159,8195,8164,8173,8196,8175,8124,4.120434999465942
6,8149,8161,8136,8163,8183,8090,8171,8159,8134,8176,8166,8163,8164,8113,4.128440380096436
7,8167,8170,8139,8168,8195,8107,8181,8161,8160,8192,8172,8176,8166,8128,4.136530160903931
8,8163,8180,8149,8176,8182,8118,8172,8168,8231,8187,8176,8192,8174,8128,4.14457106590271
9,8176,8169,8150,8175,8189,8115,8192,8171,8145,8206,8171,8150,8166,8139,4.152516603469849
10,8194,8193,8172,8176,8183,8115,8181,8171,8233,8183,8154,8194,8169,8153,4.160216808319092
11,8151,8163,8156,8162,8188,8122,8174,8161,8172,8176,8160,8169,8157,8127,4.167227506637573
12,8174,8169,8159,8181,8192,8150,8185,8170,8174,8189,8151,8165,8162,8138,4.175853729248047
13,8179,8185,8171,8183,8192,8154,8184,8172,8256,8184,8135,8187,8172,8143,4.183441400527954
14,8151,8161,8155,8171,8212,8139,8189,8161,8159,8193,8148,8155,8163,8132,4.191436767578125
15,8179,8194,8167,8197,8204,8137,8181,8170,8251,8179,8136,8195,8170,8146,4.199445724487305
16,8164,8178,8160,8188,8198,8130,8185,8164,8203,8176,8128,8162,8162,8133,4.207448482513428
17,8160,8171,8162,8179,8196,8136,8179,8158,8156,8178,8130,8164,8158,8124,4.215732336044312
18,8165,8185,8169,8180,8189,8141,8166,8162,8235,8172,8125,8220,8172,8127,4.223732948303223
19,8164,8167,8158,8182,8212,8148,8185,8162,8162,8195,8147,8192,8167,8140,4.231441497802734
20,8186,8195,8176,8196,8203,8155,8171,8166,8243,8172,8141,8219,8164,8146,4.238440275192261
21,8160,8175,8163,8173,8195,8140,8157,8147,8185,8154,8127,8196,8159,8119,4.246441125869751
22,8164,8175,8162,8182,8213,8143,8168,8147,8138,8170,8137,8187,8171,8131,4.254096269607544
22,8164,8175,8162,8182,8213,8143,8168,8147,8138,8170,8137,8187,8171,8131,4.255107879638672
23,8187,8203,8184,8200,8207,8145,8172,8161,8256,8165,8138,8225,8178,8144,4.262422323226929
24,8184,8177,8176,8184,8211,8144,8183,8158,8171,8178,8146,8184,8164,8138,4.270572662353516
25,8199,8204,8203,8202,8213,8158,8184,8179,8254,8187,8153,8214,8182,8163,4.278440475463867
26,8191,8197,8205,8209,8216,8150,8199,8183,8285,8207,8161,8208,8183,8171,4.28644061088562
27,8193,8179,8188,8197,8221,8156,8204,8169,8222,8201,8159,8186,8168,8166,4.294462203979492
28,8186,8194,8188,8194,8208,8176,8194,8179,8299,8169,8135,8214,8172,8155,4.30146074295044
29,8171,8163,8170,8189,8217,8172,8215,8185,8221,8195,8127,8164,8162,8143,4.309440612792969
30,8191,8181,8183,8201,8211,8167,8198,8181,8265,8190,8119,8186,8167,8151,4.317435264587402
31,8169,8183,8180,8190,8210,8162,8183,8169,8261,8183,8138,8191,8172,8139,4.325441837310791
32,8167,8173,8174,8185,8221,8169,8200,8167,8196,8207,8151,8169,8165,8145,4.33346152305603
33,8181,8196,8196,8197,8212,8183,8192,8181,8301,8197,8132,8208,8170,8153,4.341463565826416
34,8170,8175,8185,8192,8227,8186,8196,8176,8221,8209,8140,8172,8166,8141,4.349492788314819
35,8194,8192,8185,8200,8220,8194,8186,8170,8253,8203,8133,8187,8174,8158,4.357404470443726
36,8178,8182,8186,8187,8206,8194,8178,8171,8278,8188,8117,8185,8168,8154,4.364585876464844
37,8171,8164,8184,8188,8221,8203,8188,8166,8187,8195,8117,8151,8160,8145,4.372511386871338
38,8181,8187,8193,8196,8205,8208,8167,8162,8263,8170,8104,8190,8169,8141,4.3805108070373535
39,8150,8150,8168,8170,8202,8200,8161,8153,8170,8173,8109,8155,8156,8117,4.388770580291748
40,8167,8163,8175,8175,8207,8210,8161,8161,8183,8178,8105,8174,8159,8127,4.396782875061035
41,8164,8176,8183,8175,8200,8218,8157,8170,8233,8175,8106,8191,8169,8130,4.404780387878418
42,8159,8158,8172,8178,8207,8232,8171,8163,8154,8186,8124,8156,8168,8126,4.412441253662109
43,8177,8179,8183,8192,8196,8238,8163,8162,8230,8159,8106,8195,8171,8127,4.420811414718628
44,8154,8156,8172,8175,8202,8221,8167,8157,8147,8163,8103,8162,8162,8113,4.4278552532196045
45,8178,8174,8189,8193,8211,8228,8182,8169,8187,8184,8115,8165,8175,8136,4.435938358306885
46,8179,8183,8197,8196,8202,8233,8184,8174,8269,8184,8117,8186,8181,8146,4.442951440811157
46,8179,8183,8197,8196,8202,8233,8184,8174,8269,8184,8117,8186,8181,8146,4.443952560424805
47,8153,8157,8172,8176,8206,8231,8180,8166,8149,8185,8120,8151,8162,8129,4.450921058654785
47,8153,8157,8172,8176,8206,8231,8180,8166,8149,8185,8120,8151,8162,8129,4.451913595199585
48,8173,8188,8183,8189,8196,8237,8165,8179,8236,8167,8109,8188,8166,8131,4.458928108215332
49,8162,8163,8179,8183,8199,8239,8180,8177,8201,8179,8121,8161,8161,8132,4.4669270515441895
50,8166,8164,8181,8184,8199,8250,8184,8178,8183,8179,8119,8165,8161,8142,4.4754414558410645
51,8163,8188,8186,8181,8188,8244,8171,8176,8235,8154,8101,8192,8167,8133,4.483440637588501
52,8154,8162,8174,8178,8207,8240,8180,8162,8137,8169,8119,8149,8159,8130,4.491650342941284
53,8176,8182,8195,8204,8200,8255,8174,8176,8245,8173,8119,8186,8167,8146,4.498633623123169
54,8165,8168,8189,8191,8201,8249,8182,8179,8227,8181,8113,8169,8164,8138,4.505936622619629
55,8176,8174,8186,8190,8203,8238,8182,8171,8189,8178,8116,8167,8162,8149,4.513935089111328
56,8181,8193,8190,8204,8181,8218,8170,8169,8262,8163,8112,8196,8168,8152,4.522436141967773
57,8171,8163,8173,8197,8191,8207,8188,8169,8172,8190,8129,8153,8160,8154,4.53044056892395
58,8178,8180,8188,8202,8185,8221,8176,8178,8245,8177,8128,8187,8166,8164,4.538976669311523
59,8156,8170,8174,8193,8175,8216,8168,8170,8210,8173,8119,8167,8161,8134,4.547057151794434
60,8181,8172,8163,8196,8177,8210,8181,8167,8155,8187,8113,8154,8157,8136,4.554057121276856
60,8181,8172,8163,8196,8177,8210,8181,8167,8155,8187,8113,8154,8157,8136,4.555069446563721
61,8182,8187,8166,8184,8168,8202,8165,8163,8230,8154,8100,8193,8163,8139,4.561262130737305
62,8133,8151,8146,8159,8178,8183,8158,8146,8116,8155,8107,8147,8159,8112,4.569262266159058
63,8152,8172,8156,8176,8168,8165,8145,8157,8171,8163,8093,8170,8166,8118,4.577784538269043
64,8160,8170,8150,8173,8167,8150,8149,8155,8170,8171,8096,8175,8162,8116,4.584784507751465
64,8160,8170,8150,8173,8167,8150,8149,8155,8170,8171,8096,8175,8162,8116,4.58578372001648
65,8161,8166,8158,8180,8186,8161,8161,8144,8114,8178,8118,8167,8163,8118,4.593441247940064
66,8157,8181,8179,8198,8170,8163,8146,8151,8214,8163,8101,8197,8172,8112,4.601800441741943
67,8138,8143,8147,8178,8160,8145,8155,8148,8115,8179,8087,8146,8156,8098,4.609435796737671
68,8151,8163,8147,8178,8153,8154,8154,8153,8152,8177,8088,8171,8162,8115,4.617448568344116
69,8133,8161,8149,8170,8148,8161,8150,8152,8162,8172,8097,8172,8164,8105,4.625448703765869
70,8131,8146,8140,8161,8150,8163,8156,8140,8075,8173,8095,8146,8156,8100,4.632535219192505
71,8132,8171,8153,8170,8138,8166,8143,8145,8163,8153,8084,8188,8165,8104,4.6402342319488525
72,8113,8142,8136,8169,8155,8168,8151,8150,8087,8174,8091,8150,8156,8089,4.64823579788208
73,8147,8158,8137,8176,8158,8181,8151,8155,8117,8173,8078,8166,8161,8098,4.656440734863281
74,8127,8168,8138,8163,8150,8174,8148,8153,8144,8158,8091,8177,8165,8100,4.664428472518921
75,8122,8159,8142,8174,8164,8173,8162,8155,8081,8177,8118,8149,8160,8105,4.672518491744995
76,8170,8186,8162,8193,8165,8188,8163,8167,8197,8171,8092,8185,8168,8115,4.679885625839233
77,8153,8162,8147,8164,8180,8191,8178,8162,8131,8182,8093,8151,8158,8099,4.688440799713135
78,8143,8174,8147,8166,8172,8198,8175,8168,8151,8183,8092,8164,8161,8102,4.695464134216309
79,8130,8171,8131,8157,8150,8188,8167,8165,8167,8166,8061,8169,8161,8092,4.703462362289429
80,8125,8139,8114,8145,8168,8180,8181,8151,8050,8170,8071,8137,8154,8087,4.711690187454224
81,8147,8171,8151,8170,8167,8191,8172,8163,8168,8162,8092,8187,8167,8104,4.719692230224609
82,8148,8161,8150,8165,8168,8194,8174,8162,8132,8181,8107,8161,8165,8104,4.727390289306641
83,8170,8176,8156,8171,8176,8203,8174,8159,8139,8186,8111,8173,8175,8126,4.734865427017212
83,8170,8176,8156,8171,8176,8203,8174,8159,8139,8186,8111,8173,8175,8126,4.735855102539063
84,8160,8178,8168,8180,8181,8204,8177,8169,8217,8179,8108,8196,8182,8131,4.743854284286499
85,8160,8150,8153,8174,8191,8203,8205,8172,8141,8206,8110,8150,8166,8127,4.750853061676025
86,8181,8183,8166,8184,8174,8207,8195,8176,8232,8199,8108,8187,8172,8140,4.758857011795044
86,8181,8183,8166,8184,8174,8207,8195,8176,8232,8199,8108,8187,8172,8140,4.759782314300537
87,8160,8168,8165,8187,8186,8208,8197,8174,8193,8208,8126,8170,8174,8140,4.765787839889526
88,8188,8174,8175,8196,8203,8220,8210,8181,8198,8224,8127,8175,8178,8162,4.774296283721924
89,8183,8182,8175,8180,8176,8215,8194,8180,8262,8207,8118,8196,8174,8150,4.782296657562256
90,8144,8145,8144,8162,8162,8207,8190,8166,8125,8198,8127,8139,8156,8118,4.790296077728272
91,8166,8171,8155,8175,8156,8211,8187,8172,8197,8179,8110,8171,8165,8127,4.79829478263855
92,8152,8161,8157,8160,8171,8202,8197,8169,8195,8195,8116,8165,8167,8125,4.8062965869903564
93,8159,8165,8165,8165,8177,8211,8194,8166,8178,8206,8118,8163,8167,8130,4.81429386138916
94,8175,8187,8175,8175,8159,8218,8186,8171,8250,8181,8100,8193,8171,8134,4.822450637817383
95,8163,8161,8163,8169,8178,8212,8202,8167,8156,8194,8121,8155,8165,8138,4.8290674686431885
96,8166,8186,8181,8189,8181,8214,8186,8176,8243,8192,8119,8182,8175,8144,4.837063312530518
97,8148,8174,8172,8179,8181,8210,8184,8180,8227,8195,8099,8162,8170,8116,4.845434665679932
98,8172,8171,8172,8180,8193,8222,8208,8187,8187,8212,8107,8153,8166,8128,4.853296518325806
99,8192,8197,8194,8190,8187,8219,8205,8189,8290,8197,8110,8193,8172,8147,4.861385583877564
100,8172,8170,8178,8171,8198,8194,8205,8164,8165,8191,8103,8146,8161,8137,4.869378566741943
101,8170,8183,8175,8170,8184,8193,8186,8153,8174,8161,8085,8169,8164,8136,4.877403736114502
102,8137,8170,8160,8161,8174,8195,8177,8157,8160,8152,8093,8161,8160,8115,4.884443044662476
103,8144,8160,8152,8174,8193,8201,8195,8170,8124,8178,8101,8140,8164,8117,4.892439842224121
104,8175,8185,8166,8193,8191,8202,8199,8180,8247,8178,8083,8186,8180,8137,4.9002790451049805
105,8159,8161,8154,8174,8198,8195,8213,8169,8165,8196,8098,8152,8170,8139,4.908279180526733
106,8159,8182,8169,8177,8192,8209,8204,8175,8205,8186,8105,8176,8171,8140,4.91643500328064
107,8151,8178,8167,8179,8184,8212,8200,8177,8214,8178,8094,8173,8167,8122,4.924370050430298
108,8160,8164,8153,8177,8192,8208,8208,8162,8119,8187,8089,8142,8159,8127,4.932369232177734
109,8154,8184,8167,8172,8178,8209,8188,8165,8204,8162,8091,8189,8167,8138,4.94044041633606
110,8129,8158,8160,8159,8191,8210,8203,8171,8147,8184,8119,8160,8166,8128,4.948437690734863
111,8172,8183,8176,8184,8202,8217,8213,8181,8196,8199,8120,8177,8174,8146,4.955448627471924
112,8158,8180,8172,8177,8199,8203,8203,8174,8215,8184,8106,8185,8170,8141,4.963438272476196
113,8135,8152,8150,8161,8199,8199,8207,8164,8124,8192,8103,8146,8159,8131,4.971441268920898
114,8157,8180,8154,8169,8183,8202,8203,8176,8224,8183,8082,8175,8169,8134,4.979440689086914
115,8134,8157,8145,8151,8196,8189,8207,8174,8147,8182,8098,8149,8167,8124,4.987870216369629
116,8148,8175,8173,8174,8201,8203,8204,8179,8174,8179,8115,8178,8171,8142,4.996278762817383
117,8162,8184,8180,8184,8186,8216,8210,8175,8231,8174,8094,8187,8168,8140,5.003305196762085
118,8151,8152,8162,8166,8201,8208,8214,8160,8124,8181,8091,8143,8160,8130,5.011297464370728
119,8155,8179,8190,8178,8204,8189,8179,8173,8224,8173,8103,8193,8179,8142,5.019434928894043
120,8156,8168,8187,8178,8207,8177,8187,8174,8192,8193,8121,8172,8171,8142,5.026439905166626
121,8179,8173,8180,8184,8199,8193,8202,8173,8186,8187,8115,8171,8163,8154,5.034446954727173
122,8156,8178,8177,8175,8183,8191,8187,8177,8221,8161,8094,8181,8166,8139,5.0424416065216064
123,8145,8157,8159,8164,8199,8181,8193,8169,8113,8177,8096,8143,8159,8134,5.050441265106201
124,8172,8185,8177,8178,8195,8182,8188,8169,8202,8160,8106,8190,8174,8155,5.058595180511475
125,8158,8169,8178,8177,8198,8166,8190,8174,8169,8164,8131,8171,8175,8147,5.066596508026123
126,8175,8175,8181,8187,8204,8168,8196,8189,8162,8183,8128,8166,8170,8154,5.073106050491333
127,8157,8181,8179,8179,8189,8170,8186,8186,8230,8178,8114,8189,8169,8148,5.0811285972595215
239,8125,8150,8151,8172,8188,8169,8182,8159,8121,8195,8130,8142,8161,8127,5.089268684387207
0,8156,8182,8161,8188,8176,8178,8165,8161,8199,8184,8119,8180,8171,8138,5.0972819328308105
1,8139,8168,8161,8172,8180,8178,8168,8167,8169,8185,8121,8171,8167,8132,5.105434894561768
2,8139,8162,8159,8174,8182,8186,8174,8172,8127,8193,8129,8158,8164,8126,5.1134421825408936
3,8159,8179,8164,8182,8165,8179,8162,8175,8203,8175,8115,8186,8166,8123,5.121442079544067
4,8145,8149,8155,8166,8185,8169,8168,8161,8095,8176,8124,8147,8158,8131,5.1293652057647705
5,8159,8174,8183,8183,8188,8182,8162,8169,8171,8165,8126,8186,8175,8156,5.137404680252075
6,8163,8170,8181,8187,8190,8188,8175,8177,8188,8187,8132,8178,8175,8149,5.145442247390747
7,8182,8166,8176,8192,8203,8195,8190,8180,8155,8209,8139,8156,8165,8153,5.152414083480835
8,8177,8184,8196,8190,8188,8188,8177,8181,8246,8185,8132,8192,8172,8161,5.1604485511779785
9,8158,8162,8187,8180,8190,8173,8191,8177,8165,8202,8144,8159,8170,8161,5.167446613311768
9,8158,8162,8187,8180,8190,8173,8191,8177,8165,8202,8144,8159,8170,8161,5.168952226638794
10,8194,8186,8201,8202,8184,8176,8191,8187,8233,8208,8131,8186,8176,8178,5.176441192626953
11,8171,8168,8187,8182,8177,8165,8178,8177,8203,8183,8119,8167,8169,8156,5.1844353675842285
12,8149,8154,8173,8167,8185,8164,8172,8168,8102,8171,8137,8139,8161,8145,5.192443609237671
13,8172,8186,8200,8192,8182,8178,8167,8179,8220,8176,8135,8192,8170,8158,5.200441837310791
14,8174,8164,8200,8187,8196,8186,8192,8176,8174,8211,8143,8163,8172,8165,5.2084619998931885
15,8176,8179,8208,8181,8188,8193,8187,8184,8222,8198,8152,8180,8179,8175,5.216440916061401
16,8156,8168,8193,8170,8173,8178,8173,8183,8207,8168,8141,8169,8163,8149,5.223429203033447
17,8163,8152,8179,8172,8185,8172,8179,8167,8105,8169,8122,8138,8150,8141,5.2314293384552
18,8160,8187,8192,8178,8176,8174,8160,8166,8211,8156,8109,8186,8169,8153,5.239440679550171
19,8134,8162,8169,8160,8175,8155,8157,8159,8125,8169,8122,8151,8164,8142,5.247454881668091
20,8169,8169,8180,8174,8176,8155,8156,8164,8140,8164,8126,8177,8168,8157,5.255949258804321
21,8160,8173,8197,8180,8183,8154,8155,8169,8192,8158,8131,8190,8170,8151,5.26344108581543
22,8154,8163,8182,8182,8195,8153,8173,8168,8117,8188,8137,8146,8162,8147,5.271440744400024
23,8185,8196,8185,8196,8167,8162,8171,8180,8223,8185,8142,8189,8182,8168,5.279440641403198
24,8160,8165,8169,8180,8158,8160,8172,8179,8166,8191,8165,8164,8174,8156,5.28644061088562
25,8170,8166,8172,8186,8156,8157,8161,8174,8156,8181,8138,8165,8164,8142,5.294169425964356
26,8171,8178,8174,8179,8154,8156,8160,8171,8204,8172,8123,8183,8173,8140,5.302169322967529
27,8166,8165,8171,8173,8173,8163,8183,8183,8152,8206,8164,8160,8173,8156,5.310183525085449
28,8182,8184,8190,8185,8156,8160,8168,8186,8233,8187,8144,8190,8166,8151,5.318441152572632
29,8151,8154,8171,8166,8158,8151,8162,8152,8122,8174,8127,8153,8152,8116,5.326441526412964
30,8165,8167,8178,8185,8171,8180,8163,8152,8123,8186,8145,8169,8165,8133,5.3344407081604
31,8175,8183,8191,8202,8165,8192,8159,8169,8210,8175,8132,8190,8170,8142,5.342501640319824
32,8169,8159,8183,8188,8181,8183,8180,8167,8115,8183,8133,8142,8160,8143,5.35050106048584
33,8192,8191,8200,8195,8171,8181,8177,8176,8222,8189,8147,8191,8176,8164,5.357404708862305
34,8172,8169,8181,8183,8157,8173,8167,8160,8179,8196,8146,8172,8168,8143,5.365826606750488
35,8173,8166,8177,8191,8158,8171,8158,8150,8123,8174,8124,8153,8157,8128,5.373770475387573
36,8177,8182,8189,8197,8151,8158,8154,8158,8188,8158,8115,8178,8165,8123,5.381770610809326
37,8171,8158,8173,8182,8160,8148,8171,8150,8098,8190,8139,8154,8167,8117,5.388991832733154
38,8196,8191,8198,8207,8160,8160,8161,8162,8194,8181,8143,8197,8178,8119,5.397004842758179
39,8190,8176,8207,8211,8167,8157,8166,8169,8188,8183,8149,8178,8170,8108,5.40544056892395
40,8193,8163,8204,8205,8167,8152,8174,8165,8148,8197,8152,8171,8170,8123,5.412969350814819
41,8197,8185,8210,8208,8165,8147,8168,8173,8241,8192,8152,8204,8183,8135,5.420440912246704
42,8200,8167,8202,8208,8195,8145,8185,8172,8164,8216,8172,8160,8170,8140,5.428513526916504
43,8219,8193,8222,8222,8184,8158,8171,8169,8224,8195,8156,8196,8169,8156,5.436328887939453
44,8199,8188,8215,8217,8179,8164,8169,8165,8214,8187,8144,8188,8165,8143,5.444326400756836
45,8210,8181,8210,8220,8205,8178,8187,8176,8189,8216,8166,8171,8170,8154,5.452440500259399
46,8211,8191,8218,8219,8191,8187,8178,8187,8287,8207,8172,8205,8177,8147,5.460441112518311
47,8189,8160,8194,8210,8183,8192,8186,8178,8174,8210,8167,8163,8163,8116,5.468615531921387
48,8217,8190,8212,8226,8178,8215,8182,8178,8226,8205,8155,8195,8178,8142,5.476656913757324
49,8208,8192,8223,8216,8185,8228,8186,8183,8262,8210,8171,8199,8181,8157,5.4836390018463135
50,8213,8180,8219,8220,8206,8234,8199,8184,8218,8222,8184,8176,8169,8154,5.49164080619812
51,8214,8192,8217,8217,8183,8221,8173,8172,8297,8192,8152,8208,8176,8148,5.498639583587647
51,8214,8192,8217,8217,8183,8221,8173,8172,8297,8192,8152,8208,8176,8148,5.499639987945557
52,8181,8155,8189,8187,8172,8201,8164,8157,8177,8199,8150,8160,8175,8136,5.507640361785889
53,8213,8184,8207,8210,8176,8215,8172,8171,8218,8206,8160,8185,8177,8157,5.515640258789063
54,8205,8195,8219,8219,8185,8224,8175,8174,8263,8201,8157,8198,8174,8155,5.523102760314941
55,8200,8180,8212,8217,8200,8235,8180,8173,8194,8210,8158,8162,8173,8153,5.531116724014282
56,8222,8197,8220,8227,8185,8241,8167,8181,8278,8187,8140,8196,8176,8157,5.539142370223999
57,8182,8157,8192,8201,8182,8227,8166,8160,8166,8176,8128,8161,8153,8127,5.5461907386779785
58,8181,8168,8184,8201,8178,8236,8163,8158,8166,8170,8111,8170,8154,8118,5.554444313049316
59,8184,8171,8181,8196,8171,8233,8162,8169,8200,8173,8109,8179,8166,8117,5.562422752380371
60,8168,8148,8176,8180,8176,8218,8161,8160,8100,8181,8113,8148,8159,8122,5.569934606552124
61,8168,8182,8188,8190,8162,8224,8145,8168,8199,8162,8095,8187,8165,8126,5.5784406661987305
62,8170,8167,8171,8189,8180,8225,8166,8170,8158,8186,8112,8156,8163,8128,5.586441040039063
63,8200,8175,8190,8200,8194,8222,8168,8161,8165,8187,8119,8175,8172,8153,5.5944414138793945
63,8200,8175,8190,8200,8194,8222,8168,8161,8165,8187,8119,8175,8172,8153,5.594968795776367
64,8173,8179,8205,8188,8177,8217,8154,8156,8200,8163,8112,8196,8173,8142,5.602603197097778
65,8149,8160,8181,8179,8178,8221,8165,8163,8110,8188,8131,8156,8157,8132,5.609604358673096
66,8178,8189,8189,8195,8172,8216,8158,8175,8211,8182,8122,8201,8169,8146,5.617632627487183
67,8165,8159,8187,8180,8180,8200,8163,8161,8147,8174,8122,8177,8169,8132,5.625441551208496
68,8169,8157,8196,8182,8180,8209,8160,8163,8129,8174,8131,8173,8171,8140,5.633441209793091
69,8173,8175,8192,8183,8166,8204,8151,8171,8197,8171,8115,8190,8172,8147,5.6414408683776855
70,8177,8157,8172,8172,8182,8196,8168,8161,8101,8190,8114,8150,8165,8151,5.649414777755737
71,8189,8185,8202,8186,8174,8204,8155,8169,8202,8174,8130,8199,8178,8167,5.657416820526123
72,8168,8172,8201,8188,8175,8192,8159,8174,8178,8170,8140,8183,8167,8157,5.665423631668091
73,8196,8174,8191,8194,8187,8186,8171,8169,8141,8178,8116,8165,8162,8167,5.673441886901856
74,8183,8173,8188,8178,8173,8186,8150,8160,8198,8166,8107,8188,8172,8168,5.680441379547119
75,8146,8144,8175,8167,8177,8199,8161,8161,8111,8177,8138,8153,8164,8158,5.688440799713135
76,8187,8190,8208,8195,8174,8221,8173,8182,8216,8169,8130,8189,8167,8174,5.695909023284912
77,8183,8172,8209,8185,8179,8220,8169,8171,8192,8172,8120,8174,8164,8162,5.70392370223999
77,8183,8172,8209,8185,8179,8220,8169,8171,8192,8172,8120,8174,8164,8162,5.704917192459106
78,8170,8153,8193,8183,8184,8229,8162,8164,8134,8172,8129,8166,8163,8155,5.711923122406006
78,8170,8153,8193,8183,8184,8229,8162,8164,8134,8172,8129,8166,8163,8155,5.712919473648071
79,8172,8177,8190,8191,8163,8232,8159,8171,8213,8146,8107,8190,8167,8152,5.719916582107544
80,8155,8151,8173,8176,8173,8225,8171,8161,8103,8156,8101,8140,8160,8143,5.728441476821899
81,8167,8170,8186,8188,8180,8229,8152,8170,8166,8153,8107,8178,8173,8150,5.736479759216309
82,8167,8162,8186,8182,8179,8216,8151,8169,8169,8163,8121,8176,8173,8148,5.743479251861572
83,8176,8157,8189,8180,8180,8209,8158,8152,8106,8180,8127,8153,8165,8163,5.751509428024292
84,8175,8184,8195,8185,8168,8206,8136,8154,8196,8157,8121,8185,8167,8163,5.759441614151001
85,8163,8159,8171,8166,8177,8191,8134,8149,8105,8159,8129,8143,8157,8146,5.767404794692993
86,8184,8176,8191,8178,8175,8189,8125,8155,8148,8153,8117,8169,8168,8154,5.775927543640137
87,8163,8169,8186,8182,8175,8183,8131,8157,8147,8152,8120,8169,8166,8138,5.783441543579102
88,8158,8154,8158,8171,8178,8182,8146,8150,8063,8155,8130,8142,8158,8135,5.791464567184448
89,8169,8174,8167,8167,8155,8180,8130,8150,8153,8126,8104,8179,8168,8139,5.799676418304443
89,8169,8174,8167,8167,8155,8180,8130,8150,8153,8126,8104,8179,8168,8139,5.799805641174316
90,8161,8149,8164,8166,8173,8172,8143,8147,8082,8143,8113,8150,8161,8135,5.8067591190338135
91,8189,8173,8183,8185,8188,8183,8145,8155,8141,8154,8133,8184,8173,8166,5.814760208129883
92,8176,8178,8184,8175,8182,8189,8135,8159,8186,8153,8132,8184,8177,8159,5.8224403858184814
93,8180,8163,8179,8170,8192,8187,8147,8161,8119,8177,8136,8138,8169,8148,5.83078670501709
94,8201,8187,8213,8191,8182,8184,8143,8175,8227,8170,8141,8191,8182,8164,5.837855577468872
95,8181,8167,8215,8191,8185,8186,8155,8177,8171,8184,8157,8174,8178,8162,5.845903158187866
95,8181,8167,8215,8191,8185,8186,8155,8177,8171,8184,8157,8174,8178,8162,5.84685492515564
96,8212,8185,8224,8206,8191,8203,8159,8177,8207,8187,8155,8181,8176,8181,5.853899717330933
97,8208,8184,8219,8193,8188,8195,8150,8169,8241,8177,8149,8185,8173,8182,5.861902713775635
98,8189,8161,8199,8173,8191,8178,8157,8156,8121,8172,8140,8147,8159,8168,5.870410203933716
99,8200,8189,8210,8176,8170,8174,8144,8149,8179,8131,8111,8181,8161,8164,5.8774094581604
100,8181,8161,8197,8166,8176,8173,8151,8151,8123,8144,8126,8151,8159,8153,5.885410308837891
101,8198,8167,8200,8187,8183,8189,8162,8174,8165,8167,8131,8162,8168,8172,5.893409967422485
102,8181,8172,8191,8180,8166,8180,8149,8162,8210,8144,8099,8178,8165,8162,5.901412725448608
103,8153,8142,8173,8159,8164,8165,8140,8136,8067,8130,8102,8139,8150,8140,5.909412860870361
104,8182,8172,8208,8186,8151,8182,8134,8158,8152,8120,8112,8189,8169,8158,5.917819499969482
105,8180,8156,8215,8188,8164,8198,8155,8158,8123,8142,8123,8169,8170,8167,5.924769401550293
106,8178,8161,8214,8183,8169,8205,8148,8148,8113,8141,8123,8164,8163,8162,5.93376088142395
107,8166,8173,8205,8176,8140,8195,8126,8154,8170,8115,8112,8178,8163,8130,5.940441370010376
108,8169,8151,8182,8175,8144,8199,8154,8158,8075,8140,8113,8131,8157,8126,5.948440313339233
109,8208,8184,8198,8191,8148,8216,8168,8172,8189,8153,8107,8178,8168,8164,5.956151247024536
110,8187,8166,8188,8167,8155,8207,8170,8162,8157,8157,8125,8169,8167,8163,5.96443510055542
111,8177,8161,8186,8161,8151,8206,8165,8154,8103,8151,8134,8161,8172,8165,5.972440719604492
112,8173,8179,8197,8173,8126,8201,8150,8170,8188,8141,8122,8184,8175,8164,5.9804604053497314
113,8170,8152,8175,8167,8135,8199,8164,8167,8107,8172,8129,8138,8161,8156,5.98846173286438
114,8199,8171,8183,8169,8130,8216,8165,8159,8177,8166,8123,8177,8170,8171,5.996440887451172
115,8169,8156,8177,8150,8117,8207,8157,8149,8145,8149,8122,8169,8165,8156,6.003441333770752
116,8166,8156,8172,8151,8106,8187,8142,8143,8081,8144,8114,8149,8159,8145,6.011516332626343
117,8179,8180,8178,8158,8091,8176,8127,8141,8149,8121,8087,8181,8167,8144,6.019436836242676
118,8158,8152,8164,8146,8108,8171,8140,8137,8052,8129,8102,8146,8160,8140,6.027452707290649
119,8172,8176,8185,8161,8101,8175,8127,8147,8116,8125,8102,8176,8162,8143,6.035451173782349
120,8180,8167,8190,8153,8097,8163,8130,8144,8113,8129,8090,8173,8159,8131,6.0437400341033936
121,8195,8154,8191,8149,8112,8161,8151,8147,8078,8147,8117,8162,8165,8151,6.051746845245361
122,8197,8176,8205,8164,8105,8167,8139,8161,8199,8144,8135,8203,8177,8167,6.059751987457275
123,8189,8160,8200,8163,8127,8177,8152,8152,8116,8169,8144,8164,8166,8164,6.067793369293213
124,8216,8188,8226,8183,8139,8198,8161,8158,8184,8166,8140,8191,8179,8181,6.074815511703491
125,8199,8182,8218,8180,8126,8192,8158,8165,8210,8151,8135,8177,8179,8160,6.081769704818726
125,8199,8182,8218,8180,8126,8192,8158,8165,8210,8151,8135,8177,8179,8160,6.082776308059692
126,8194,8161,8197,8171,8122,8182,8156,8153,8106,8150,8135,8139,8161,8147,6.09077525138855
127,8193,8176,8200,8169,8108,8179,8142,8151,8173,8131,8118,8185,8164,8153,6.098440170288086
239,8161,8140,8167,8141,8111,8174,8151,8145,8086,8151,8114,8149,8158,8140,6.106441020965576
0,8175,8155,8168,8143,8097,8183,8134,8142,8110,8143,8105,8166,8167,8149,6.114441394805908
1,8171,8160,8172,8145,8088,8185,8120,8140,8140,8124,8100,8178,8167,8155,6.122531414031982
2,8179,8148,8162,8145,8118,8204,8149,8150,8075,8147,8115,8153,8162,8168,6.130528926849365
3,8196,8181,8187,8156,8117,8222,8152,8169,8197,8147,8128,8204,8181,8179,6.137567758560181
4,8174,8155,8192,8157,8114,8202,8152,8163,8151,8166,8138,8173,8173,8165,6.145442247390747
5,8203,8162,8195,8174,8118,8191,8148,8158,8157,8158,8106,8175,8161,8168,6.153743743896484
6,8191,8165,8184,8155,8121,8191,8144,8149,8156,8121,8087,8185,8160,8143,6.161750555038452
7,8161,8138,8176,8146,8127,8195,8154,8151,8057,8134,8112,8156,8160,8128,6.169440984725952
8,8195,8166,8202,8177,8112,8188,8150,8174,8189,8151,8113,8206,8176,8156,6.177404403686523
9,8199,8152,8191,8167,8125,8178,8163,8160,8136,8166,8121,8183,8174,8163,6.185294628143311
9,8199,8152,8191,8167,8125,8178,8163,8160,8136,8166,8121,8183,8174,8163,6.186303615570068
10,8202,8164,8196,8171,8139,8199,8160,8154,8122,8151,8119,8188,8175,8165,6.19344162940979
11,8187,8166,8193,8171,8125,8194,8142,8161,8173,8133,8097,8193,8167,8144,6.2014641761779785
12,8177,8137,8161,8147,8123,8177,8151,8149,8062,8148,8097,8145,8150,8136,6.208462715148926
13,8186,8166,8172,8148,8110,8188,8141,8155,8152,8133,8093,8196,8168,8152,6.216440677642822
14,8157,8143,8161,8135,8113,8184,8142,8161,8126,8144,8102,8175,8173,8142,6.224440574645996
15,8170,8146,8156,8135,8110,8184,8151,8167,8113,8152,8105,8163,8170,8158,6.232441186904907
16,8174,8169,8168,8138,8099,8198,8154,8175,8184,8133,8094,8190,8169,8167,6.240917205810547
17,8170,8146,8160,8138,8121,8204,8171,8171,8093,8150,8105,8159,8162,8158,6.248436689376831
18,8197,8170,8175,8146,8111,8200,8152,8164,8158,8130,8101,8191,8170,8159,6.257023572921753
19,8172,8159,8173,8133,8111,8208,8147,8156,8115,8116,8095,8166,8164,8144,6.2644407749176025
20,8189,8165,8181,8153,8138,8239,8163,8164,8104,8133,8097,8168,8165,8155,6.271440982818604
21,8202,8178,8192,8164,8139,8238,8153,8164,8191,8128,8101,8206,8174,8147,6.279441356658936
22,8169,8146,8176,8147,8139,8234,8155,8151,8084,8141,8122,8157,8163,8131,6.287322044372559
23,8187,8174,8195,8163,8128,8258,8154,8164,8179,8151,8130,8195,8176,8165,6.295321941375732
24,8189,8166,8194,8159,8138,8248,8158,8165,8182,8165,8153,8193,8177,8171,6.303330898284912
25,8206,8162,8197,8162,8155,8236,8167,8163,8128,8162,8164,8170,8167,8163,6.311441421508789
26,8204,8183,8206,8161,8137,8239,8160,8170,8214,8141,8141,8192,8168,8156,6.319441080093384
27,8172,8150,8177,8142,8136,8230,8162,8161,8116,8159,8141,8151,8160,8140,6.327406883239746
28,8195,8173,8189,8158,8133,8217,8151,8164,8175,8153,8141,8186,8171,8148,6.334441184997559
29,8180,8172,8193,8152,8135,8211,8158,8165,8183,8151,8149,8185,8171,8147,6.342441320419312
30,8177,8160,8185,8151,8143,8229,8166,8165,8119,8160,8154,8164,8165,8151,6.350714921951294
31,8198,8183,8195,8167,8130,8233,8149,8173,8207,8144,8134,8205,8175,8154,6.3577165603637695
31,8198,8183,8195,8167,8130,8233,8149,8173,8207,8144,8134,8205,8175,8154,6.358716249465942
32,8187,8164,8191,8158,8146,8226,8168,8170,8140,8174,8153,8173,8175,8162,6.365785360336304
32,8187,8164,8191,8158,8146,8226,8168,8170,8140,8174,8153,8173,8175,8162,6.366748809814453
33,8207,8187,8214,8172,8146,8242,8173,8185,8215,8187,8164,8194,8183,8187,6.37428617477417
34,8197,8171,8203,8163,8132,8230,8163,8180,8211,8161,8145,8187,8172,8159,6.381943941116333
35,8190,8153,8188,8159,8146,8215,8166,8162,8105,8148,8138,8162,8160,8140,6.389944076538086
36,8200,8189,8204,8179,8151,8225,8162,8175,8219,8145,8133,8201,8170,8146,6.397405385971069
37,8172,8153,8173,8156,8154,8230,8172,8178,8145,8164,8140,8154,8161,8126,6.405442714691162
38,8161,8156,8161,8141,8137,8237,8161,8171,8140,8147,8128,8174,8168,8120,6.413441896438599
38,8161,8156,8161,8141,8137,8237,8161,8171,8140,8147,8128,8174,8168,8120,6.413980722427368
39,8155,8172,8162,8138,8139,8234,8161,8167,8182,8148,8127,8197,8177,8130,6.42119836807251
40,8168,8160,8161,8142,8169,8231,8181,8173,8143,8190,8152,8166,8174,8157,6.429202318191528
41,8169,8175,8173,8149,8153,8227,8169,8190,8248,8176,8147,8201,8177,8156,6.437405347824097
42,8150,8154,8152,8136,8155,8221,8184,8184,8171,8180,8143,8165,8161,8137,6.445446968078613
43,8178,8173,8161,8145,8163,8231,8192,8184,8184,8183,8141,8175,8164,8156,6.453252553939819
44,8156,8170,8159,8138,8143,8222,8174,8181,8210,8159,8132,8180,8164,8131,6.46127200126648
45,8137,8137,8124,8128,8144,8213,8172,8162,8065,8150,8110,8131,8144,8099,6.468273401260376
46,8159,8168,8134,8138,8144,8218,8159,8166,8142,8138,8086,8179,8159,8116,6.476283073425293
47,8151,8157,8141,8129,8155,8210,8171,8177,8131,8170,8122,8167,8171,8123,6.484435796737671
48,8181,8172,8158,8149,8164,8219,8188,8186,8169,8189,8151,8181,8178,8149,6.492449760437012
49,8180,8181,8164,8158,8169,8227,8182,8191,8240,8174,8141,8198,8178,8160,6.500447750091553
50,8165,8153,8145,8146,8180,8228,8185,8189,8136,8191,8143,8149,8163,8149,6.508138418197632
51,8185,8177,8152,8149,8153,8237,8175,8190,8205,8173,8131,8183,8166,8146,6.5164408683776855
52,8152,8155,8139,8133,8149,8244,8179,8185,8160,8169,8138,8162,8167,8134,6.524537801742554
53,8164,8163,8145,8146,8171,8254,8182,8195,8165,8190,8152,8163,8175,8144,6.53153657913208
54,8179,8179,8148,8147,8165,8240,8174,8191,8233,8181,8131,8187,8169,8134,6.539535760879517
55,8135,8134,8117,8119,8163,8225,8182,8174,8088,8174,8116,8138,8150,8111,6.547536849975586
56,8130,8154,8127,8129,8146,8230,8175,8201,8167,8163,8114,8173,8169,8118,6.555402517318726
57,8138,8154,8127,8126,8153,8225,8193,8210,8181,8186,8130,8162,8173,8119,6.563736200332642
58,8146,8151,8122,8127,8166,8218,8194,8191,8145,8189,8129,8152,8166,8129,6.571259498596191
59,8125,8152,8119,8129,8143,8197,8165,8183,8188,8156,8115,8176,8166,8122,6.579442977905273
60,8124,8128,8110,8116,8151,8187,8179,8181,8079,8174,8129,8141,8161,8121,6.586796522140503
60,8124,8128,8110,8116,8151,8187,8179,8181,8079,8174,8129,8141,8161,8121,6.5878002643585205
61,8160,8163,8143,8127,8147,8209,8179,8189,8176,8173,8122,8182,8171,8144,6.594816207885742
61,8160,8163,8143,8127,8147,8209,8179,8189,8176,8173,8122,8182,8171,8144,6.595843315124512
62,8140,8152,8136,8122,8139,8209,8176,8188,8184,8168,8115,8171,8166,8125,6.602318525314331
63,8153,8147,8129,8131,8153,8208,8185,8188,8127,8179,8119,8159,8162,8121,6.610063552856445
64,8166,8170,8155,8138,8154,8215,8177,8192,8215,8170,8119,8196,8171,8133,6.618060827255249
65,8122,8133,8134,8121,8155,8220,8180,8183,8125,8179,8131,8146,8162,8116,6.62644100189209
66,8141,8159,8133,8138,8140,8232,8177,8194,8186,8170,8114,8171,8170,8121,6.634440660476685
67,8155,8166,8126,8133,8140,8225,8188,8196,8197,8173,8109,8174,8169,8123,6.642440557479858
68,8150,8147,8116,8128,8148,8217,8195,8179,8122,8178,8128,8150,8161,8119,6.65053129196167
69,8138,8163,8126,8141,8130,8205,8171,8180,8204,8145,8122,8186,8173,8111,6.65858793258667
70,8128,8148,8114,8138,8141,8195,8174,8179,8118,8156,8119,8146,8167,8107,6.665588617324829
71,8163,8166,8121,8145,8144,8205,8173,8177,8159,8155,8106,8165,8164,8130,6.673440933227539
72,8132,8154,8112,8132,8131,8198,8162,8169,8166,8140,8100,8168,8155,8112,6.681345462799072
73,8132,8150,8108,8135,8136,8189,8168,8167,8081,8156,8114,8144,8157,8106,6.689440727233887
74,8175,8185,8131,8153,8130,8188,8158,8167,8174,8135,8102,8190,8171,8111,6.697404384613037
75,8147,8151,8115,8144,8143,8185,8156,8149,8083,8122,8104,8155,8161,8081,6.705663204193115
76,8149,8165,8116,8157,8141,8187,8157,8159,8101,8127,8114,8165,8168,8091,6.713663578033447
77,8136,8169,8109,8145,8126,8175,8152,8169,8141,8130,8112,8167,8169,8102,6.721441030502319
78,8124,8137,8092,8131,8137,8175,8153,8165,8060,8140,8116,8134,8160,8103,6.728440284729004
79,8153,8167,8117,8150,8136,8192,8151,8184,8190,8146,8118,8189,8175,8121,6.736440658569336
80,8151,8157,8116,8143,8148,8189,8169,8186,8155,8173,8132,8162,8171,8127,6.744422912597656
81,8151,8165,8114,8145,8140,8185,8158,8180,8157,8159,8121,8158,8168,8132,6.752417802810669
82,8139,8167,8115,8143,8124,8183,8150,8177,8206,8141,8117,8173,8170,8116,6.760441303253174
83,8145,8148,8120,8147,8141,8188,8172,8181,8127,8166,8142,8147,8164,8118,6.768502712249756
83,8145,8148,8120,8147,8141,8188,8172,8181,8127,8166,8142,8147,8164,8118,6.769012689590454
84,8161,8177,8142,8167,8136,8189,8159,8192,8217,8156,8126,8182,8172,8126,6.776435375213623
85,8137,8153,8115,8147,8140,8179,8163,8179,8154,8165,8124,8148,8169,8101,6.784441232681274
86,8155,8161,8113,8144,8142,8184,8169,8180,8158,8170,8143,8155,8172,8108,6.792440891265869
87,8154,8178,8120,8141,8123,8175,8155,8181,8227,8147,8128,8175,8171,8106,6.799440622329712
88,8130,8145,8099,8123,8124,8162,8151,8159,8095,8142,8112,8128,8157,8087,6.807404041290283
89,8140,8163,8112,8135,8110,8165,8132,8160,8158,8118,8108,8171,8170,8095,6.815441370010376
90,8135,8147,8106,8129,8111,8161,8143,8167,8139,8128,8115,8155,8167,8102,6.823441743850708
91,8146,8145,8105,8123,8121,8178,8154,8164,8117,8137,8103,8146,8163,8116,6.831474304199219
92,8135,8157,8118,8127,8107,8199,8136,8164,8187,8124,8089,8179,8168,8108,6.839682579040527
93,8136,8148,8121,8145,8125,8207,8163,8175,8128,8162,8118,8151,8163,8114,6.847586393356323
94,8168,8185,8144,8166,8132,8219,8172,8190,8238,8162,8120,8182,8171,8133,6.855757474899292
95,8138,8162,8136,8142,8127,8219,8163,8178,8195,8146,8108,8158,8158,8094,6.862740755081177
96,8154,8159,8138,8151,8130,8231,8175,8173,8130,8152,8113,8150,8154,8084,6.8701019287109375
97,8177,8188,8154,8168,8127,8237,8177,8186,8228,8146,8118,8192,8168,8106,6.878060579299927
98,8154,8161,8143,8156,8147,8233,8173,8182,8165,8166,8131,8152,8161,8112,6.886260986328125
99,8166,8175,8153,8162,8143,8238,8152,8174,8232,8162,8116,8179,8165,8123,6.8941426277160645
100,8133,8152,8128,8139,8121,8221,8149,8162,8184,8151,8105,8164,8160,8103,6.902440786361694
101,8124,8139,8109,8132,8115,8223,8155,8164,8107,8155,8107,8145,8159,8099,6.910435676574707
102,8143,8164,8133,8139,8121,8234,8146,8172,8218,8149,8105,8187,8173,8107,6.9184410572052
103,8132,8142,8124,8127,8143,8226,8155,8163,8139,8170,8120,8145,8163,8100,6.926462888717651
104,8161,8175,8136,8151,8134,8240,8154,8175,8196,8171,8113,8172,8166,8119,6.933459043502808
105,8156,8171,8139,8141,8135,8246,8159,8174,8209,8164,8119,8174,8164,8112,6.941456317901611
106,8145,8151,8132,8129,8153,8239,8160,8164,8129,8162,8130,8144,8161,8098,6.949457168579102
107,8165,8185,8143,8156,8137,8231,8149,8178,8232,8145,8110,8184,8174,8109,6.957460403442383
108,8169,8167,8134,8151,8152,8229,8171,8172,8174,8170,8126,8158,8170,8126,6.9654600620269775
109,8181,8183,8150,8149,8165,8237,8167,8170,8220,8173,8142,8182,8179,8145,6.972966432571411
110,8169,8184,8151,8155,8159,8229,8165,8176,8246,8163,8129,8182,8176,8137,6.980966329574585
111,8175,8164,8140,8162,8169,8232,8180,8172,8168,8179,8128,8154,8163,8145,6.987966775894165
112,8176,8187,8151,8167,8161,8241,8158,8179,8273,8168,8136,8194,8174,8151,6.99596643447876
113,8155,8170,8136,8160,8166,8235,8161,8176,8202,8180,8149,8155,8170,8139,7.0039660930633545
114,8184,8187,8149,8174,8166,8233,8171,8174,8211,8182,8136,8172,8163,8161,7.012441635131836
115,8167,8178,8149,8163,8153,8220,8159,8169,8242,8171,8134,8185,8159,8146,7.020443677902222
116,8145,8151,8129,8158,8162,8213,8155,8168,8150,8179,8146,8142,8158,8111,7.028477907180786
117,8170,8188,8141,8176,8157,8216,8150,8180,8244,8169,8125,8178,8166,8109,7.035911321640015
118,8167,8170,8130,8165,8171,8205,8171,8180,8198,8195,8132,8155,8162,8117,7.043911933898926
118,8167,8170,8130,8165,8171,8205,8171,8180,8198,8195,8132,8155,8162,8117,7.044913053512573
119,8192,8174,8143,8173,8178,8204,8176,8184,8225,8205,8145,8168,8176,8145,7.052159070968628
120,8183,8182,8155,8168,8167,8199,8158,8177,8274,8183,8142,8187,8180,8148,7.059178352355957
121,8156,8163,8137,8156,8179,8196,8165,8170,8161,8197,8158,8148,8165,8146,7.067172765731812
122,8170,8191,8151,8173,8166,8201,8159,8187,8255,8189,8150,8185,8171,8149,7.076273441314697
123,8170,8175,8148,8165,8164,8202,8166,8181,8205,8189,8145,8161,8163,8135,7.083441019058228
124,8196,8182,8158,8172,8174,8221,8175,8176,8187,8192,8155,8167,8166,8158,7.091444730758667
125,8183,8193,8166,8173,8176,8227,8172,8191,8274,8185,8157,8194,8179,8157,7.099570274353027
126,8158,8163,8144,8158,8186,8218,8183,8194,8185,8195,8148,8142,8163,8121,7.107561111450195
127,8175,8181,8141,8160,8170,8219,8168,8187,8232,8171,8117,8164,8164,8113,7.115575313568115
239,8144,8161,8121,8147,8171,8214,8159,8166,8170,8169,8122,8146,8168,8108,7.12261962890625
0,8143,8168,8135,8165,8182,8215,8149,8165,8159,8184,8144,8153,8170,8126,7.130441188812256
1,8162,8190,8154,8178,8168,8203,8136,8176,8247,8175,8138,8190,8171,8124,7.138463020324707
2,8154,8156,8116,8154,8169,8194,8155,8167,8122,8184,8126,8141,8159,8105,7.14646315574646
3,8150,8168,8114,8153,8157,8209,8149,8170,8181,8166,8113,8167,8163,8113,7.154440879821777
4,8123,8157,8125,8147,8165,8211,8148,8178,8181,8170,8132,8158,8161,8105,7.162745237350464
5,8157,8170,8140,8165,8188,8209,8164,8192,8166,8199,8141,8154,8164,8115,7.170282125473023
6,8184,8194,8145,8180,8179,8201,8161,8195,8267,8196,8121,8192,8172,8121,7.17828631401062
7,8150,8154,8124,8163,8191,8207,8169,8176,8158,8202,8134,8146,8157,8109,7.18644118309021
8,8167,8182,8143,8173,8191,8222,8167,8186,8215,8193,8131,8170,8167,8123,7.193440914154053
9,8172,8182,8143,8167,8183,8197,8175,8185,8227,8196,8131,8164,8175,8128,7.201441049575806
10,8165,8167,8135,8168,8186,8181,8182,8172,8166,8201,8146,8150,8169,8141,7.209429502487183
11,8157,8188,8142,8175,8177,8179,8161,8179,8249,8178,8133,8186,8171,8141,7.217426300048828
12,8146,8162,8123,8158,8187,8170,8169,8178,8167,8193,8131,8144,8165,8131,7.225441455841064
13,8166,8179,8136,8171,8179,8180,8165,8179,8223,8192,8137,8172,8176,8152,7.23344087600708
14,8158,8178,8143,8174,8180,8188,8165,8179,8242,8199,8147,8177,8173,8153,7.241526126861572
15,8165,8166,8136,8170,8199,8192,8182,8176,8180,8216,8154,8151,8162,8152,7.24944281578064
16,8166,8179,8145,8167,8176,8178,8164,8180,8265,8182,8134,8185,8168,8139,7.256099462509155
17,8149,8153,8132,8156,8174,8155,8162,8175,8164,8186,8126,8144,8158,8111,7.263906717300415
17,8149,8153,8132,8156,8174,8155,8162,8175,8164,8186,8126,8144,8158,8111,7.264912128448486
18,8172,8180,8143,8171,8192,8165,8162,8178,8195,8189,8115,8161,8163,8125,7.272443532943726
19,8149,8174,8135,8164,8196,8170,8164,8182,8235,8184,8119,8170,8166,8125,7.28044319152832
20,8154,8153,8128,8167,8200,8166,8178,8182,8159,8203,8148,8143,8166,8129,7.288835287094116
21,8183,8192,8158,8189,8193,8170,8175,8187,8269,8191,8155,8188,8180,8147,7.295843124389648
21,8183,8192,8158,8189,8193,8170,8175,8187,8269,8191,8155,8188,8180,8147,7.296869277954102
22,8151,8172,8134,8178,8204,8161,8186,8182,8207,8199,8152,8154,8166,8143,7.304919481277466
23,8169,8178,8129,8183,8194,8157,8183,8184,8209,8200,8127,8165,8163,8160,7.312761068344116
24,8171,8180,8148,8178,8169,8155,8174,8183,8247,8186,8125,8185,8167,8159,7.319761514663696
25,8161,8158,8150,8173,8181,8158,8183,8180,8165,8197,8153,8150,8166,8147,7.327404260635376
26,8178,8186,8153,8183,8175,8151,8164,8183,8249,8180,8139,8180,8172,8139,7.33544135093689
27,8150,8168,8134,8164,8171,8139,8158,8165,8164,8177,8133,8150,8158,8118,7.343441247940063
28,8172,8184,8155,8177,8173,8145,8170,8172,8175,8186,8136,8167,8162,8138,7.351413249969482
29,8193,8191,8168,8186,8172,8133,8175,8184,8256,8180,8129,8192,8171,8142,7.359543800354004
30,8175,8154,8150,8176,8180,8127,8180,8173,8145,8184,8143,8148,8163,8122,7.367540836334228
31,8185,8188,8173,8193,8166,8150,8173,8180,8233,8176,8148,8185,8175,8132,7.375441789627075
32,8183,8182,8171,8187,8182,8155,8187,8181,8215,8191,8157,8167,8172,8140,7.38344144821167
33,8189,8174,8166,8186,8195,8151,8180,8181,8193,8190,8156,8162,8167,8146,7.390440464019775
34,8172,8177,8162,8180,8175,8149,8169,8185,8245,8175,8148,8181,8169,8130,7.398682117462158
35,8164,8157,8148,8172,8182,8148,8191,8177,8153,8193,8157,8148,8164,8121,7.406683921813965
36,8178,8184,8163,8183,8165,8151,8172,8178,8226,8176,8141,8191,8175,8134,7.414704084396362
37,8154,8166,8148,8166,8157,8150,8164,8168,8168,8179,8143,8168,8166,8122,7.422712326049805
38,8170,8174,8152,8178,8180,8167,8173,8172,8139,8195,8162,8164,8165,8137,7.430714845657349
39,8182,8193,8169,8193,8181,8173,8163,8185,8248,8179,8153,8200,8172,8140,7.438436269760132
40,8158,8152,8145,8167,8174,8165,8169,8168,8141,8183,8141,8146,8153,8120,7.446171045303345
41,8162,8171,8143,8164,8152,8171,8159,8163,8177,8161,8124,8172,8161,8127,7.453213453292847
42,8151,8171,8141,8162,8162,8169,8168,8174,8172,8170,8130,8169,8172,8126,7.461225509643555
43,8162,8168,8138,8162,8186,8165,8180,8177,8149,8193,8136,8153,8170,8135,7.469413280487059
44,8159,8180,8137,8159,8171,8147,8155,8170,8220,8163,8125,8183,8169,8124,7.477556943893433
45,8142,8150,8123,8149,8172,8127,8157,8161,8106,8164,8139,8147,8159,8107,7.485442161560059
46,8169,8177,8148,8165,8170,8138,8161,8170,8182,8171,8140,8181,8168,8126,7.493819952011108
47,8151,8178,8147,8162,8167,8141,8154,8168,8196,8171,8138,8178,8164,8115,7.501441240310669
48,8153,8163,8133,8167,8172,8133,8153,8167,8115,8172,8151,8160,8157,8109,7.5094404220581055
49,8166,8180,8151,8170,8160,8119,8146,8175,8201,8160,8156,8200,8169,8119,7.5174455642700195
50,8153,8164,8148,8162,8171,8113,8163,8169,8130,8180,8158,8160,8163,8114,7.524447917938232
51,8185,8193,8166,8190,8177,8133,8163,8171,8177,8171,8132,8178,8162,8120,7.532442569732666
52,8157,8177,8163,8179,8176,8132,8148,8163,8172,8150,8135,8175,8157,8107,7.540129899978638
53,8141,8155,8149,8168,8185,8125,8151,8162,8094,8163,8167,8147,8158,8109,7.548214912414551
54,8179,8195,8168,8190,8176,8130,8154,8173,8221,8162,8151,8191,8171,8126,7.556222200393677
55,8168,8175,8169,8181,8188,8136,8173,8167,8164,8183,8156,8161,8163,8125,7.564441680908203
56,8184,8190,8184,8187,8190,8153,8172,8181,8201,8196,8178,8178,8171,8139,7.572333574295044
57,8187,8189,8180,8186,8181,8155,8168,8183,8237,8189,8176,8182,8173,8131,7.579332590103149
58,8174,8170,8169,8185,8196,8155,8179,8166,8141,8192,8167,8150,8159,8126,7.587331295013428
59,8183,8200,8193,8200,8193,8150,8168,8175,8243,8179,8160,8198,8166,8138,7.595330238342285
60,8173,8172,8178,8185,8198,8135,8178,8172,8179,8190,8176,8165,8162,8124,7.603329181671143
61,8186,8173,8177,8190,8189,8144,8172,8165,8168,8185,8170,8169,8164,8124,7.611442565917969
62,8166,8171,8174,8181,8168,8127,8151,8158,8191,8165,8147,8178,8164,8111,7.618770360946655
62,8166,8171,8174,8181,8168,8127,8151,8158,8191,8165,8147,8178,8164,8111,7.619763612747192
63,8146,8150,8149,8160,8176,8106,8152,8150,8067,8161,8138,8135,8156,8100,7.627763032913208
64,8167,8184,8160,8176,8167,8123,8140,8154,8143,8137,8130,8178,8164,8107,7.635441064834595
65,8172,8166,8161,8177,8169,8130,8154,8155,8116,8161,8148,8159,8159,8107,7.64244818687439
66,8183,8167,8167,8179,8171,8134,8162,8169,8145,8177,8148,8164,8164,8127,7.650501489639282
67,8156,8178,8163,8170,8160,8132,8152,8176,8210,8165,8132,8182,8167,8116,7.658526659011841
68,8155,8163,8155,8172,8176,8126,8169,8166,8119,8189,8148,8146,8160,8108,7.6664416790008545
69,8199,8191,8184,8196,8173,8127,8167,8170,8223,8185,8153,8192,8177,8135,7.674440860748291
70,8164,8169,8164,8174,8172,8115,8164,8165,8173,8173,8156,8171,8169,8122,7.682441234588623
71,8155,8169,8151,8177,8175,8115,8158,8163,8127,8162,8153,8161,8157,8108,7.69044041633606
72,8173,8184,8168,8193,8168,8120,8154,8173,8206,8158,8148,8186,8162,8107,7.698546648025513
73,8167,8158,8166,8178,8185,8123,8172,8173,8125,8184,8170,8147,8162,8111,7.706530332565308
74,8173,8188,8182,8187,8177,8121,8159,8177,8203,8170,8166,8182,8170,8118,7.7134363651275635
75,8168,8181,8178,8194,8175,8112,8154,8169,8173,8173,8156,8163,8159,8101,7.72144079208374
76,8191,8177,8184,8206,8188,8125,8156,8161,8145,8186,8162,8152,8159,8115,7.72944188117981
77,8176,8186,8184,8199,8182,8130,8141,8165,8236,8166,8161,8186,8174,8120,7.737333536148071
78,8141,8157,8150,8174,8191,8122,8158,8160,8124,8182,8159,8144,8163,8104,7.745264768600464
79,8167,8188,8167,8186,8182,8118,8163,8166,8178,8172,8145,8173,8168,8118,7.753443956375122
80,8163,8179,8173,8193,8179,8105,8169,8173,8190,8168,8155,8165,8167,8117,7.761440992355347
81,8169,8161,8157,8195,8183,8110,8174,8171,8141,8183,8161,8144,8161,8121,7.769540309906006
82,8160,8176,8149,8178,8163,8114,8150,8166,8200,8157,8141,8173,8162,8115,7.776489973068237
83,8131,8155,8134,8154,8174,8112,8152,8153,8095,8155,8145,8136,8154,8103,7.784409284591675
84,8161,8179,8158,8170,8175,8114,8151,8160,8149,8143,8138,8168,8166,8118,7.792842864990234
85,8150,8166,8163,8169,8167,8093,8145,8155,8144,8131,8133,8165,8165,8099,7.800440788269043
86,8152,8155,8167,8178,8179,8096,8151,8148,8079,8141,8144,8144,8157,8099,7.808440685272217
87,8169,8184,8192,8186,8170,8113,8145,8157,8182,8135,8144,8189,8168,8124,7.816462516784668
88,8149,8157,8178,8166,8184,8111,8159,8162,8114,8159,8166,8155,8165,8123,7.824457168579102
88,8149,8157,8178,8166,8184,8111,8159,8162,8114,8159,8166,8155,8165,8123,7.824794292449951
89,8175,8177,8184,8187,8195,8121,8163,8173,8187,8165,8175,8175,8171,8129,7.831508874893188
90,8169,8178,8182,8185,8188,8129,8168,8170,8223,8160,8171,8176,8169,8118,7.839441299438477
91,8157,8165,8169,8177,8190,8133,8189,8172,8143,8181,8179,8148,8165,8123,7.847467660903931
92,8166,8192,8180,8193,8184,8130,8175,8184,8253,8180,8179,8188,8177,8144,7.855486154556274
93,8141,8156,8163,8171,8195,8121,8166,8158,8164,8177,8191,8151,8165,8130,7.863440990447998
94,8146,8169,8171,8170,8187,8130,8157,8147,8157,8156,8183,8166,8161,8123,7.870976209640503
95,8140,8182,8176,8174,8171,8128,8150,8153,8194,8147,8175,8177,8161,8114,7.878976106643677
96,8143,8164,8166,8173,8181,8131,8154,8155,8119,8167,8190,8143,8154,8116,7.887404441833496
97,8160,8189,8180,8189,8176,8144,8148,8163,8213,8153,8171,8187,8166,8125,7.895900249481201
98,8133,8162,8166,8184,8188,8152,8164,8155,8143,8158,8168,8151,8162,8119,7.903441429138184
99,8150,8168,8171,8189,8187,8179,8162,8164,8158,8162,8175,8154,8164,8134,7.910891771316528
100,8166,8182,8177,8183,8182,8191,8161,8172,8224,8156,8170,8180,8166,8133,7.917758226394653
100,8166,8182,8177,8183,8182,8191,8161,8172,8224,8156,8170,8180,8166,8133,7.918757915496826
101,8156,8163,8171,8174,8206,8183,8179,8155,8126,8167,8171,8143,8159,8137,7.926758050918579
102,8162,8183,8189,8186,8187,8181,8154,8159,8204,8147,8158,8179,8169,8145,7.934440851211548
102,8162,8183,8189,8186,8187,8181,8154,8159,8204,8147,8158,8179,8169,8145,7.934761524200439
103,8156,8161,8169,8178,8178,8176,8155,8160,8144,8154,8158,8160,8160,8122,7.941768884658813
103,8156,8161,8169,8178,8178,8176,8155,8160,8144,8154,8158,8160,8160,8122,7.942790746688843
104,8168,8168,8169,8186,8198,8185,8163,8157,8133,8160,8164,8162,8163,8131,7.949861764907837
104,8168,8168,8169,8186,8198,8185,8163,8157,8133,8160,8164,8162,8163,8131,7.950846195220947
105,8155,8180,8187,8186,8194,8177,8152,8167,8221,8156,8172,8182,8176,8141,7.957860946655273
106,8154,8154,8171,8175,8193,8172,8171,8174,8147,8191,8186,8149,8169,8144,7.966440916061401
107,8157,8170,8167,8178,8179,8200,8170,8176,8214,8176,8163,8178,8168,8148,7.9748101234436035
108,8102,8140,8145,8153,8175,8210,8164,8165,8150,8159,8143,8138,8156,8117,7.981441259384155
109,8115,8143,8140,8152,8175,8200,8164,8161,8115,8163,8145,8133,8159,8114,7.989231824874878
110,8127,8162,8146,8158,8173,8194,8152,8163,8195,8148,8145,8173,8169,8112,7.997231960296631
111,8109,8136,8135,8155,8188,8200,8159,8161,8101,8164,8143,8132,8153,8100,8.00526738166809
112,8148,8170,8161,8175,8171,8196,8158,8167,8176,8159,8128,8172,8159,8116,8.013442754745483
113,8143,8160,8166,8163,8171,8168,8162,8157,8160,8154,8149,8164,8162,8116,8.024964332580566
114,8138,8150,8167,8162,8183,8167,8165,8160,8120,8156,8157,8146,8158,8122,8.028963565826416
114,8138,8150,8167,8162,8183,8167,8165,8160,8120,8156,8157,8146,8158,8122,8.029966354370117
115,8150,8171,8176,8170,8161,8160,8158,8161,8191,8141,8126,8179,8157,8127,8.037572145462036
116,8136,8143,8161,8155,8159,8143,8161,8137,8080,8145,8138,8143,8153,8119,8.044103384017944
117,8141,8163,8176,8163,8152,8159,8143,8150,8155,8133,8143,8172,8165,8126,8.052103281021118
118,8134,8157,8166,8161,8157,8171,8155,8169,8173,8147,8130,8165,8160,8127,8.060111284255981
119,8149,8149,8161,8167,8173,8175,8177,8166,8122,8163,8144,8154,8158,8145,8.06811261177063
120,8148,8166,8177,8170,8152,8166,8156,8167,8221,8139,8147,8189,8168,8144,8.076618671417236
121,8141,8146,8164,8154,8149,8152,8167,8166,8137,8164,8142,8149,8160,8134,8.08462119102478
122,8180,8181,8186,8175,8153,8163,8179,8174,8192,8171,8143,8186,8172,8163,8.092618942260742
123,8155,8169,8182,8173,8155,8162,8179,8168,8201,8154,8146,8178,8165,8144,8.099950075149536
123,8155,8169,8182,8173,8155,8162,8179,8168,8201,8154,8146,8178,8165,8144,8.100949764251709
124,8141,8140,8154,8159,8153,8148,8185,8156,8100,8153,8129,8134,8151,8123,8.107760667800903
125,8153,8163,8155,8155,8128,8140,8173,8155,8167,8135,8112,8176,8164,8131,8.115629434585571
126,8121,8144,8145,8146,8141,8147,8186,8155,8088,8147,8134,8153,8156,8121,8.12363600730896
127,8131,8166,8160,8169,8150,8159,8193,8173,8141,8150,8127,8173,8156,8124,8.131636142730713
239,8138,8169,8159,8166,8142,8139,8190,8175,8172,8147,8116,8175,8162,8120,8.139440774917603
0,8155,8159,8149,8162,8154,8129,8196,8161,8093,8158,8133,8147,8162,8131,8.147659063339233
1,8180,8186,8171,8179,8142,8133,8190,8162,8195,8146,8126,8189,8170,8149,8.155679941177368
2,8154,8157,8163,8160,8146,8121,8205,8157,8115,8158,8140,8151,8163,8137,8.163679838180542
3,8147,8166,8156,8155,8145,8123,8197,8158,8111,8147,8148,8156,8163,8125,8.169927835464478
4,8121,8171,8147,8148,8133,8120,8179,8158,8129,8117,8135,8167,8159,8099,8.178006410598755
5,8117,8152,8146,8153,8152,8117,8199,8157,8038,8133,8142,8139,8157,8097,8.186442136764526
6,8153,8178,8165,8179,8152,8116,8204,8169,8152,8136,8137,8182,8167,8116,8.19408917427063
6,8153,8178,8165,8179,8152,8116,8204,8169,8152,8136,8137,8182,8167,8116,8.195086479187012
7,8148,8152,8145,8168,8149,8103,8203,8158,8096,8146,8148,8157,8156,8109,8.202001333236694
8,8159,8163,8160,8174,8154,8107,8196,8158,8101,8146,8161,8169,8166,8125,8.21000337600708
9,8167,8185,8186,8189,8165,8111,8208,8179,8197,8156,8159,8189,8175,8134,8.218441486358643
10,8176,8162,8169,8187,8177,8108,8236,8177,8132,8184,8156,8149,8162,8135,8.226440906524658
11,8171,8173,8169,8175,8146,8106,8203,8161,8192,8146,8131,8186,8167,8135,8.234437227249146
12,8126,8149,8153,8153,8148,8086,8183,8149,8110,8131,8125,8159,8158,8105,8.241718530654907
13,8161,8161,8160,8178,8164,8085,8193,8158,8095,8144,8129,8159,8156,8109,8.249821424484253
14,8169,8172,8172,8182,8145,8090,8192,8158,8173,8128,8135,8184,8167,8114,8.256831645965576
14,8169,8172,8172,8182,8145,8090,8192,8158,8173,8128,8135,8184,8167,8114,8.257831811904907
15,8134,8147,8156,8166,8153,8085,8198,8150,8081,8141,8154,8140,8164,8108,8.265442132949829
15,8134,8147,8156,8166,8153,8085,8198,8150,8081,8141,8154,8140,8164,8108,8.265902042388916
16,8162,8184,8171,8189,8161,8081,8194,8160,8171,8142,8143,8176,8170,8119,8.273441314697266
17,8147,8169,8164,8183,8167,8069,8205,8156,8136,8142,8137,8159,8160,8110,8.281440734863281
18,8149,8167,8167,8184,8167,8077,8211,8163,8112,8145,8138,8155,8157,8122,8.289503574371338
19,8167,8186,8178,8189,8158,8083,8209,8178,8215,8140,8136,8193,8170,8136,8.297507762908936
20,8153,8155,8157,8168,8171,8083,8225,8171,8120,8158,8148,8155,8164,8135,8.304513216018677
21,8158,8168,8161,8166,8153,8089,8213,8174,8176,8144,8134,8179,8166,8148,8.312441110610962
22,8133,8146,8144,8148,8147,8074,8212,8170,8147,8141,8135,8166,8157,8134,8.320441246032715
23,8134,8142,8140,8154,8164,8077,8224,8171,8094,8150,8140,8154,8156,8130,8.328507661819458
24,8149,8174,8160,8170,8153,8089,8216,8177,8187,8142,8121,8185,8167,8135,8.336514234542847
25,8140,8149,8143,8156,8157,8085,8221,8155,8096,8162,8140,8146,8157,8128,8.344138860702515
26,8157,8174,8158,8170,8160,8084,8211,8159,8157,8153,8149,8181,8163,8140,8.35213303565979
27,8152,8174,8165,8172,8169,8079,8206,8166,8158,8143,8138,8175,8163,8136,8.360441207885742
28,8156,8162,8157,8165,8173,8079,8210,8158,8085,8142,8134,8151,8158,8135,8.368440866470337
29,8157,8184,8164,8172,8149,8073,8201,8166,8164,8121,8124,8187,8161,8127,8.375441074371338
30,8154,8168,8160,8171,8170,8064,8219,8163,8080,8144,8135,8147,8157,8111,8.383091688156128
31,8181,8192,8178,8185,8189,8067,8217,8161,8144,8148,8148,8172,8167,8127,8.391086101531982
32,8152,8180,8165,8173,8185,8047,8214,8163,8167,8136,8145,8172,8162,8119,8.399441003799438
33,8138,8157,8149,8170,8183,8043,8223,8166,8088,8143,8147,8143,8158,8122,8.407187461853027
34,8149,8179,8166,8174,8169,8052,8207,8170,8188,8138,8159,8189,8173,8140,8.415442705154419
35,8135,8152,8148,8151,8178,8040,8219,8164,8117,8163,8176,8157,8162,8141,8.423441410064697
36,8158,8166,8155,8167,8174,8043,8224,8171,8147,8162,8160,8173,8170,8156,8.430370807647705
37,8141,8167,8163,8174,8164,8036,8213,8169,8182,8148,8154,8183,8176,8144,8.438753128051758
38,8140,8153,8158,8168,8179,8024,8221,8164,8111,8165,8167,8148,8162,8141,8.446753740310669
39,8162,8180,8168,8170,8171,8019,8214,8171,8210,8151,8153,8183,8170,8152,8.454442977905273
40,8132,8147,8145,8155,8173,8011,8218,8171,8136,8163,8155,8149,8167,8136,8.462441205978394
41,8152,8151,8145,8164,8168,8018,8220,8176,8137,8174,8143,8157,8164,8138,8.470436573028564
42,8149,8155,8147,8153,8146,8017,8211,8159,8149,8147,8127,8168,8162,8125,8.478005170822144
43,8126,8134,8135,8145,8148,8016,8211,8144,8035,8136,8139,8132,8156,8113,8.486000776290894
44,8146,8167,8154,8168,8149,8024,8202,8161,8130,8130,8133,8178,8172,8120,8.494436264038086
45,8135,8158,8146,8162,8168,8029,8218,8163,8085,8153,8141,8153,8174,8112,8.501441478729248
46,8144,8169,8149,8166,8171,8041,8221,8168,8104,8151,8149,8152,8170,8125,8.509440660476685
47,8141,8168,8148,8161,8164,8037,8220,8172,8155,8129,8141,8167,8163,8118,8.517404556274414
48,8120,8145,8136,8152,8187,8045,8241,8165,8046,8152,8149,8132,8158,8110,8.525237798690796
49,8130,8181,8159,8170,8182,8058,8228,8180,8171,8156,8148,8180,8174,8128,8.53343653678894
50,8127,8155,8148,8158,8177,8039,8229,8179,8145,8158,8150,8153,8167,8123,8.541448831558228
51,8136,8151,8147,8157,8182,8034,8234,8171,8089,8151,8136,8148,8161,8130,8.549448728561401
52,8132,8173,8164,8158,8173,8034,8229,8178,8164,8138,8116,8182,8165,8133,8.557404518127441
53,8133,8150,8164,8148,8170,8034,8240,8170,8089,8155,8131,8141,8160,8140,8.564441204071045
54,8156,8174,8189,8161,8154,8036,8215,8161,8161,8138,8134,8180,8174,8154,8.572059392929077
55,8143,8164,8189,8165,8164,8020,8213,8163,8142,8137,8134,8172,8169,8144,8.580058813095093
55,8143,8164,8189,8165,8164,8020,8213,8163,8142,8137,8134,8172,8169,8144,8.581053733825684
56,8161,8162,8192,8175,8179,8021,8238,8170,8113,8141,8141,8162,8163,8156,8.588084697723389
57,8160,8175,8198,8168,8159,8023,8225,8164,8180,8126,8132,8186,8164,8153,8.596441745758057
58,8145,8149,8185,8153,8171,8015,8212,8157,8086,8146,8137,8150,8157,8142,8.604337930679321
59,8167,8169,8203,8169,8176,8014,8206,8175,8169,8134,8150,8191,8173,8165,8.612364292144775
60,8144,8154,8195,8158,8175,8008,8213,8168,8155,8131,8163,8174,8170,8155,8.620360374450684
61,8155,8154,8193,8157,8181,8008,8215,8150,8081,8142,8144,8148,8159,8149,8.628356218338013
62,8161,8173,8207,8168,8163,7998,8199,8155,8150,8122,8117,8182,8164,8147,8.635355472564697
63,8134,8137,8184,8159,8169,7982,8218,8159,8063,8145,8143,8149,8160,8142,8.64335560798645
64,8162,8162,8186,8167,8172,7998,8228,8164,8140,8147,8152,8176,8171,8162,8.651450157165527
65,8142,8159,8179,8150,8171,8003,8227,8162,8153,8134,8152,8167,8165,8148,8.659477472305298
66,8130,8141,8171,8143,8176,8001,8239,8173,8095,8154,8150,8144,8157,8144,8.667445659637451
67,8153,8157,8184,8152,8157,8001,8238,8185,8207,8157,8132,8189,8176,8166,8.674989223480225
68,8131,8129,8169,8138,8161,7998,8241,8171,8129,8161,8149,8157,8172,8167,8.68344235420227
69,8140,8150,8177,8154,8155,7997,8221,8168,8153,8142,8145,8171,8159,8157,8.691413640975952
70,8146,8153,8171,8152,8146,7986,8213,8157,8136,8127,8116,8167,8150,8135,8.698427438735962
71,8151,8135,8165,8146,8159,7999,8231,8143,8045,8139,8127,8147,8158,8145,8.706462144851685
72,8146,8157,8196,8159,8152,8019,8222,8154,8169,8129,8147,8196,8176,8153,8.714442729949951
73,8129,8141,8187,8151,8162,8019,8227,8157,8115,8140,8156,8154,8161,8133,8.722441673278809
74,8174,8173,8197,8172,8167,8038,8235,8161,8143,8143,8136,8167,8161,8150,8.730413913726807
75,8174,8176,8205,8169,8165,8052,8240,8160,8181,8138,8129,8181,8164,8156,8.738415241241455
76,8147,8146,8182,8152,8176,8049,8244,8157,8103,8148,8142,8136,8158,8145,8.74644160270691
77,8162,8169,8186,8165,8162,8048,8234,8181,8217,8145,8133,8171,8175,8149,8.754506587982178
78,8145,8139,8168,8152,8157,8044,8252,8183,8161,8170,8147,8151,8167,8145,8.761523962020874
79,8138,8146,8162,8154,8145,8044,8251,8180,8166,8171,8152,8159,8161,8154,8.768535137176514
80,8130,8162,8161,8156,8138,8042,8247,8186,8221,8159,8143,8173,8168,8153,8.777405023574829
81,8136,8138,8154,8144,8153,8046,8264,8181,8123,8170,8149,8138,8166,8153,8.78554916381836
81,8136,8138,8154,8144,8153,8046,8264,8181,8123,8170,8149,8138,8166,8153,8.785957336425781
82,8151,8156,8168,8146,8132,8057,8246,8177,8196,8151,8140,8174,8172,8161,8.793518543243408
83,8139,8147,8162,8145,8137,8065,8257,8174,8159,8173,8148,8148,8161,8158,8.80150318145752
84,8167,8168,8179,8161,8157,8089,8278,8193,8188,8198,8158,8157,8163,8175,8.809531927108765
85,8164,8175,8188,8162,8152,8083,8273,8193,8248,8174,8151,8176,8168,8161,8.817541599273682
86,8150,8144,8174,8159,8169,8072,8276,8171,8130,8176,8168,8138,8162,8146,8.82544207572937
87,8168,8170,8195,8173,8169,8089,8256,8180,8223,8172,8177,8189,8175,8163,8.83263874053955
88,8142,8149,8182,8153,8156,8077,8250,8178,8182,8175,8166,8162,8165,8145,8.84004259109497
88,8142,8149,8182,8153,8156,8077,8250,8178,8182,8175,8166,8162,8165,8145,8.841036319732666
89,8153,8146,8169,8149,8138,8064,8251,8165,8125,8168,8142,8144,8159,8139,8.848044395446777
90,8150,8157,8169,8143,8120,8063,8232,8159,8171,8142,8123,8171,8164,8126,8.856441259384155
91,8120,8129,8149,8130,8134,8063,8235,8158,8067,8160,8143,8135,8159,8114,8.86444091796875
92,8133,8164,8162,8150,8131,8068,8241,8177,8151,8163,8145,8172,8170,8132,8.872233390808105
93,8118,8156,8158,8138,8131,8063,8255,8181,8138,8168,8130,8156,8162,8121,8.880435943603516
94,8131,8144,8159,8133,8137,8075,8263,8174,8094,8171,8124,8144,8155,8124,8.888440608978271
95,8131,8157,8173,8139,8122,8078,8245,8168,8168,8146,8127,8181,8164,8130,8.895328044891357
96,8109,8131,8156,8132,8131,8071,8249,8157,8077,8155,8137,8146,8161,8122,8.903327226638794
97,8144,8160,8172,8144,8129,8078,8247,8166,8148,8151,8127,8179,8167,8141,8.91132402420044
98,8135,8152,8170,8132,8125,8072,8242,8164,8135,8151,8141,8170,8162,8140,8.919440746307373
99,8132,8139,8157,8131,8124,8071,8242,8159,8079,8159,8151,8150,8162,8141,8.92735767364502
100,8143,8161,8165,8137,8118,8072,8230,8162,8181,8140,8129,8186,8167,8141,8.935649633407593
101,8126,8144,8162,8130,8144,8067,8238,8156,8086,8152,8144,8146,8158,8129,8.943650960922241
102,8149,8172,8184,8153,8144,8069,8231,8162,8126,8148,8136,8169,8167,8135,8.951441287994385
103,8132,8160,8169,8141,8130,8056,8230,8159,8119,8135,8111,8166,8159,8114,8.959319353103638
104,8124,8144,8153,8130,8143,8060,8255,8162,8055,8152,8123,8147,8152,8113,8.966312646865845
105,8143,8174,8170,8141,8143,8072,8267,8188,8191,8162,8132,8189,8175,8134,8.974438667297363
106,8128,8151,8158,8133,8159,8078,8281,8188,8130,8178,8140,8145,8170,8130,8.982440710067749
107,8135,8172,8168,8150,8164,8094,8268,8182,8148,8167,8128,8162,8164,8126,8.990244626998901
108,8134,8171,8164,8141,8152,8086,8259,8172,8156,8164,8116,8170,8163,8117,8.998481273651123
109,8139,8153,8152,8131,8154,8077,8265,8166,8070,8174,8132,8143,8163,8137,9.0064857006073
110,8148,8183,8174,8153,8145,8079,8252,8177,8171,8148,8133,8185,8168,8151,9.01444149017334
111,8135,8156,8161,8149,8160,8070,8271,8170,8102,8161,8124,8145,8152,8128,9.02146863937378
112,8143,8162,8161,8145,8157,8071,8260,8163,8109,8159,8114,8157,8158,8129,9.029441595077516
113,8123,8166,8158,8145,8136,8070,8237,8166,8148,8144,8126,8174,8165,8117,9.037405729293823
114,8134,8150,8158,8160,8159,8077,8266,8169,8084,8171,8142,8142,8158,8120,9.04544162750244
115,8159,8185,8186,8173,8163,8087,8274,8179,8198,8169,8133,8185,8169,8140,9.05364990234375
116,8135,8167,8171,8153,8159,8077,8269,8177,8146,8170,8139,8159,8164,8133,9.061653852462769
117,8155,8171,8172,8163,8166,8077,8262,8175,8148,8164,8139,8167,8166,8142,9.069441556930542
117,8155,8171,8172,8163,8166,8077,8262,8175,8148,8164,8139,8167,8166,8142,9.070131063461304
118,8151,8172,8174,8165,8165,8083,8259,8173,8190,8159,8139,8182,8166,8139,9.077404260635376
119,8142,8152,8153,8159,8168,8092,8273,8165,8090,8178,8148,8137,8153,8132,9.085759162902832
120,8161,8181,8167,8172,8155,8097,8263,8172,8191,8155,8125,8172,8165,8140,9.09344482421875
121,8127,8152,8156,8156,8165,8085,8267,8170,8146,8154,8125,8151,8166,8118,9.100073099136353
122,8132,8153,8149,8162,8168,8083,8270,8173,8128,8171,8125,8152,8161,8112,9.108074188232422
123,8138,8172,8158,8168,8160,8077,8260,8181,8208,8166,8118,8177,8161,8117,9.117106914520264
123,8138,8172,8158,8168,8160,8077,8260,8181,8208,8166,8118,8177,8161,8117,9.11810564994812
124,8130,8152,8161,8166,8179,8079,8269,8184,8130,8180,8145,8144,8161,8123,9.12410569190979
125,8168,8189,8183,8185,8171,8096,8265,8188,8217,8168,8144,8185,8175,8141,9.13210391998291
126,8159,8176,8175,8169,8174,8106,8265,8169,8176,8164,8129,8171,8168,8137,9.140104055404665
127,8153,8164,8163,8162,8179,8114,8255,8163,8127,8158,8121,8163,8161,8138,9.148104667663574
239,8150,8178,8155,8161,8157,8106,8236,8166,8182,8136,8108,8181,8166,8120,9.15510392189026
0,8136,8163,8152,8158,8175,8115,8255,8162,8097,8162,8130,8147,8166,8112,9.16310715675354
1,8170,8194,8190,8189,8179,8144,8267,8185,8208,8178,8140,8192,8177,8141,9.171614170074465
2,8176,8183,8180,8186,8172,8134,8275,8182,8190,8182,8128,8170,8164,8133,9.179614305496216
3,8172,8182,8174,8181,8181,8136,8270,8163,8125,8177,8127,8151,8160,8129,9.187613487243652
4,8162,8196,8194,8186,8175,8150,8249,8169,8219,8166,8127,8195,8172,8134,9.195613861083984
5,8154,8154,8169,8174,8176,8136,8257,8174,8124,8189,8117,8148,8159,8128,9.20344090461731
6,8173,8170,8165,8174,8168,8134,8250,8176,8169,8175,8100,8166,8165,8137,9.211440563201904
7,8138,8165,8160,8159,8173,8140,8253,8167,8171,8169,8123,8172,8167,8129,9.219440698623655
8,8133,8163,8159,8166,8178,8147,8266,8166,8131,8191,8139,8162,8160,8137,9.226174116134644
9,8154,8185,8172,8175,8156,8146,8242,8169,8218,8172,8107,8188,8167,8138,9.234179735183716
10,8151,8154,8158,8159,8163,8141,8244,8149,8104,8166,8105,8143,8160,8123,9.242435216903688
11,8169,8171,8168,8171,8161,8141,8247,8145,8137,8150,8103,8172,8160,8129,9.2504403591156
12,8136,8166,8161,8161,8152,8126,8235,8143,8138,8140,8098,8173,8158,8105,9.258440732955933
13,8124,8154,8162,8162,8173,8130,8227,8144,8061,8154,8115,8150,8159,8097,9.266461610794067
14,8160,8185,8194,8191,8174,8134,8223,8167,8182,8150,8105,8195,8171,8115,9.273993730545044
15,8170,8169,8188,8186,8187,8113,8251,8170,8132,8174,8107,8159,8165,8124,9.281997442245483
16,8176,8179,8187,8184,8193,8116,8253,8170,8165,8172,8117,8174,8168,8140,9.28900671005249
16,8176,8179,8187,8184,8193,8116,8253,8170,8165,8172,8117,8174,8168,8140,9.290033102035522
17,8145,8172,8169,8174,8187,8129,8251,8179,8195,8163,8126,8177,8165,8126,9.297404766082764
18,8150,8154,8151,8171,8192,8134,8273,8181,8124,8182,8126,8146,8158,8126,9.30570387840271
19,8163,8176,8170,8175,8184,8122,8255,8175,8213,8159,8109,8189,8171,8141,9.313718557357788
20,8135,8153,8165,8165,8202,8102,8251,8168,8145,8173,8130,8161,8169,8130,9.321661949157717
21,8170,8175,8178,8185,8205,8111,8260,8178,8183,8196,8141,8176,8172,8145,9.329508543014526
22,8163,8175,8180,8174,8183,8109,8250,8170,8226,8181,8131,8187,8171,8142,9.33740735054016
22,8163,8175,8180,8174,8183,8109,8250,8170,8226,8181,8131,8187,8171,8142,9.337822675704956
23,8139,8146,8167,8168,8192,8097,8243,8150,8111,8178,8132,8145,8163,8130,9.345481157302856
24,8170,8185,8187,8198,8193,8098,8232,8161,8188,8165,8121,8184,8169,8140,9.3525230884552
25,8161,8174,8184,8186,8195,8099,8244,8166,8145,8182,8136,8164,8157,8137,9.3605055809021
26,8179,8182,8198,8187,8190,8108,8248,8171,8178,8197,8157,8176,8170,8153,9.368441104888916
27,8190,8191,8203,8190,8184,8105,8238,8171,8248,8187,8157,8194,8179,8149,9.376441955566406
28,8183,8172,8193,8189,8208,8120,8254,8171,8145,8193,8161,8155,8156,8138,9.384441614151
29,8201,8206,8219,8212,8209,8154,8267,8190,8252,8193,8159,8202,8165,8159,9.39198875427246
29,8201,8206,8219,8212,8209,8154,8267,8190,8252,8193,8159,8202,8165,8159,9.392985582351685
30,8179,8182,8210,8196,8211,8156,8271,8183,8228,8210,8176,8178,8175,8159,9.40098762512207
31,8180,8177,8206,8196,8209,8164,8264,8180,8198,8207,8179,8167,8176,8156,9.40844202041626
32,8189,8198,8217,8210,8197,8174,8274,8184,8258,8194,8157,8193,8174,8153,9.41643500328064
33,8177,8172,8196,8198,8209,8158,8281,8169,8154,8209,8149,8158,8165,8153,9.423445224761965
34,8182,8184,8197,8198,8202,8144,8231,8176,8230,8191,8136,8194,8169,8155,9.431447267532349
35,8175,8169,8192,8189,8203,8143,8240,8184,8216,8198,8142,8176,8166,8137,9.439441919326782
36,8174,8168,8184,8185,8207,8150,8272,8174,8178,8202,8152,8160,8167,8142,9.447404146194458
37,8144,8169,8171,8167,8179,8136,8240,8157,8220,8160,8134,8182,8166,8128,9.454954862594604
38,8137,8140,8154,8154,8183,8128,8231,8151,8097,8163,8133,8147,8153,8116,9.462960720062256
39,8178,8179,8177,8177,8181,8142,8233,8165,8169,8161,8133,8183,8168,8140,9.47101593017578
40,8168,8173,8173,8176,8177,8151,8246,8164,8177,8162,8142,8173,8169,8132,9.479036331176758
41,8180,8163,8172,8183,8189,8173,8265,8170,8155,8178,8156,8164,8166,8139,9.486033201217651
42,8176,8180,8181,8182,8177,8167,8244,8180,8242,8174,8143,8194,8172,8142,9.494321823120115
43,8145,8150,8149,8157,8175,8154,8240,8165,8120,8190,8134,8140,8160,8117,9.502321720123293
44,8178,8172,8159,8168,8170,8159,8249,8168,8168,8190,8128,8171,8166,8131,9.510441064834597
45,8166,8169,8170,8171,8175,8077,8265,8176,8187,8193,8139,8176,8164,8132,9.51820683479309
46,8160,8158,8162,8174,8187,7944,8272,8174,8117,8198,8145,8144,8158,8127,9.526226282119753
47,8179,8181,8160,8170,8174,7874,8258,8172,8182,8178,8142,8176,8170,8135,9.53466296195984
48,8153,8151,8143,8151,8178,7870,8264,8166,8085,8194,8162,8144,8161,8136,9.542662620544434
49,8160,8168,8152,8169,8160,7890,8253,8183,8140,8192,8149,8163,8164,8141,9.549662351608276
50,8162,8166,8142,8166,8144,7907,8248,8189,8183,8185,8139,8166,8168,8134,9.557405471801758
51,8160,8145,8133,8149,8157,7937,8249,8169,8104,8194,8156,8143,8162,8142,9.565410614013672
52,8157,8168,8152,8157,8147,7956,8223,8173,8184,8173,8143,8181,8167,8134,9.572935581207275
53,8159,8153,8145,8160,8158,7974,8238,8185,8123,8190,8142,8147,8158,8113,9.580869436264038
53,8159,8153,8145,8160,8158,7974,8238,8185,8123,8190,8142,8147,8158,8113,9.58188772201538
54,8198,8168,8165,8174,8161,8017,8249,8183,8159,8188,8143,8169,8161,8134,9.589436054229736
55,8165,8162,8169,8161,8143,8026,8228,8162,8173,8162,8137,8179,8164,8127,9.597452163696287
56,8155,8151,8158,8159,8148,8024,8234,8160,8097,8183,8150,8149,8165,8116,9.605455875396729
