COUNTER,F3, FC5,AF3,F7,T7,P7,O1,O2,P8,T8,F8,AF4,FC6,F4,Timestamp,yes_event
73,8144,8171,8243,8125,8211,8195,8183,8208,8182,8172,8165,8170,8160,8222,0.0058183670043945,False
74,8141,8170,8202,8131,8151,8140,8159,8184,8172,8166,8170,8179,8162,8232,0.0136749744415283,False
75,8120,8154,8143,8125,8118,8142,8171,8155,8160,8157,8155,8162,8162,8234,0.0216577053070068,False
76,8122,8158,8160,8139,8140,8194,8195,8171,8170,8160,8160,8166,8173,8247,0.0297853946685791,False
77,8139,8155,8162,8152,8136,8180,8182,8165,8174,8172,8169,8174,8186,8259,0.0377857685089111,False
78,8164,8168,8211,8146,8171,8161,8167,8170,8164,8181,8169,8186,8190,8264,0.0454902648925781,False
79,8163,8165,8197,8141,8149,8186,8196,8191,8174,8178,8177,8191,8194,8283,0.0527923107147216,False
80,8137,8133,8125,8126,8106,8181,8220,8188,8191,8163,8165,8163,8179,8286,0.0608656406402587,False
81,8128,8128,8142,8104,8133,8161,8219,8187,8192,8162,8144,8151,8161,8272,0.0688762664794921,False
82,8122,8140,8148,8088,8147,8168,8214,8191,8192,8164,8144,8148,8163,8260,0.0768184661865234,False
83,8109,8140,8185,8072,8179,8157,8190,8200,8183,8153,8138,8141,8149,8239,0.0846695899963378,False
84,8105,8109,8156,8076,8122,8133,8171,8179,8187,8159,8141,8151,8146,8246,0.0929057598114013,False
85,8119,8113,8140,8094,8131,8149,8164,8170,8192,8173,8150,8158,8155,8260,0.1017954349517822,False
86,8147,8155,8253,8098,8217,8169,8153,8196,8163,8162,8150,8171,8154,8252,0.1086847782135009,False
87,8150,8144,8181,8104,8114,8146,8156,8164,8146,8153,8167,8175,8172,8270,0.1168901920318603,False
88,8141,8136,8049,8138,8050,8128,8161,8124,8155,8157,8179,8158,8183,8289,0.1237223148345947,False
89,8154,8159,8126,8151,8141,8135,8158,8149,8153,8159,8164,8153,8160,8252,0.1317002773284912,False
90,8169,8168,8246,8139,8202,8148,8164,8189,8148,8157,8166,8170,8157,8230,0.1397020816802978,False
91,8170,8153,8199,8136,8141,8150,8178,8192,8162,8159,8200,8184,8190,8272,0.1486103534698486,False
92,8148,8129,8089,8112,8097,8133,8184,8167,8185,8165,8210,8163,8197,8293,0.1559119224548339,False
93,8137,8146,8238,8091,8244,8144,8165,8206,8175,8167,8179,8163,8160,8255,0.163968801498413,False
94,8133,8138,8291,8102,8217,8172,8172,8231,8173,8172,8182,8192,8166,8250,0.1717677116394043,False
95,8112,8096,8070,8107,8043,8178,8217,8178,8212,8181,8205,8168,8208,8279,0.1798672676086425,False
96,8112,8116,8060,8094,8111,8168,8220,8175,8232,8169,8173,8140,8192,8273,0.1869175434112548,False
97,8120,8136,8174,8091,8196,8152,8188,8200,8209,8161,8140,8150,8153,8252,0.1948561668395996,False
98,8113,8117,8151,8098,8142,8159,8180,8180,8192,8170,8159,8158,8153,8251,0.2027807235717773,False
99,8115,8124,8140,8115,8122,8179,8192,8174,8199,8167,8189,8167,8175,8262,0.2118666172027588,False
100,8129,8160,8190,8143,8169,8162,8189,8182,8194,8170,8197,8172,8187,8268,0.2189290523529052,False
101,8151,8175,8205,8160,8176,8144,8181,8166,8174,8182,8205,8176,8191,8267,0.2268617153167724,False
102,8160,8156,8153,8181,8125,8171,8194,8147,8182,8179,8225,8184,8205,8286,0.2349014282226562,False
103,8167,8179,8203,8211,8170,8166,8180,8172,8184,8169,8236,8199,8213,8303,0.2428426742553711,False
104,8180,8198,8217,8231,8153,8119,8160,8178,8165,8170,8252,8214,8224,8313,0.2507054805755615,False
105,8192,8179,8161,8236,8110,8115,8164,8152,8157,8170,8268,8213,8243,8332,0.257676362991333,False
106,8222,8210,8288,8240,8224,8141,8156,8189,8147,8157,8255,8233,8240,8343,0.265533447265625,False
107,8227,8214,8271,8247,8181,8146,8154,8192,8154,8157,8256,8240,8247,8356,0.2736446857452392,False
108,8204,8180,8110,8257,8084,8140,8164,8149,8167,8173,8263,8206,8258,8355,0.2817239761352539,False
109,8201,8185,8147,8256,8139,8136,8161,8161,8149,8181,8243,8194,8243,8338,0.2896785736083984,False
110,8191,8198,8174,8229,8155,8122,8162,8166,8132,8169,8225,8193,8228,8332,0.2976443767547607,False
111,8166,8190,8188,8199,8186,8119,8155,8168,8121,8154,8193,8180,8186,8302,0.3058018684387207,False
112,8143,8153,8202,8178,8192,8132,8157,8176,8121,8158,8164,8169,8146,8259,0.313687801361084,False
113,8117,8128,8133,8165,8135,8135,8185,8164,8148,8170,8169,8150,8159,8242,0.3208682537078857,False
114,8094,8136,8084,8157,8107,8119,8191,8152,8168,8170,8171,8129,8171,8233,0.3286759853363037,False
115,8092,8141,8091,8147,8125,8106,8175,8146,8161,8165,8163,8123,8158,8231,0.3367912769317627,False
116,8120,8152,8169,8160,8186,8147,8172,8163,8160,8174,8169,8145,8161,8247,0.344714879989624,False
117,8138,8157,8172,8180,8163,8186,8180,8171,8180,8189,8192,8165,8185,8262,0.3527917861938476,False
118,8125,8156,8147,8169,8166,8143,8173,8173,8186,8180,8181,8155,8177,8257,0.3606221675872803,False
119,8128,8147,8223,8154,8213,8097,8148,8189,8167,8166,8157,8159,8158,8256,0.3686423301696777,False
120,8140,8119,8166,8164,8131,8110,8140,8164,8156,8178,8175,8166,8182,8286,0.3767933845520019,False
121,8153,8142,8128,8155,8134,8129,8137,8146,8140,8187,8184,8168,8189,8295,0.383716344833374,False
122,8161,8167,8166,8138,8163,8113,8140,8150,8127,8169,8168,8171,8174,8284,0.3915326595306396,False
123,8154,8148,8149,8144,8136,8112,8142,8148,8137,8163,8167,8161,8180,8287,0.3997318744659424,False
124,8163,8149,8197,8149,8175,8122,8120,8154,8132,8176,8185,8171,8181,8297,0.4077217578887939,False
125,8166,8151,8180,8150,8150,8119,8128,8140,8128,8178,8204,8178,8180,8306,0.4157390594482422,False
126,8150,8152,8132,8163,8135,8128,8171,8158,8152,8166,8201,8164,8187,8299,0.4236974716186523,False
127,8124,8152,8134,8165,8153,8149,8200,8196,8179,8167,8195,8159,8187,8278,0.4316942691802978,False
236,8105,8146,8140,8155,8166,8183,8204,8207,8190,8175,8197,8157,8174,8260,0.4396455287933349,False
0,8110,8147,8179,8164,8197,8214,8206,8216,8194,8176,8189,8162,8159,8250,0.447641372680664,False
1,8094,8130,8134,8163,8157,8194,8213,8187,8199,8173,8171,8150,8151,8236,0.4546165466308594,False
2,8076,8137,8148,8140,8181,8161,8188,8166,8174,8158,8150,8129,8126,8209,0.4626722335815429,False
3,8088,8149,8207,8136,8203,8168,8164,8185,8143,8157,8155,8144,8116,8208,0.4707105159759521,False
4,8096,8133,8145,8153,8141,8186,8174,8170,8151,8170,8179,8160,8141,8234,0.4788334369659424,False
5,8103,8137,8147,8167,8157,8189,8171,8152,8165,8167,8178,8160,8142,8241,0.4867091178894043,False
6,8110,8138,8164,8158,8173,8189,8169,8163,8161,8159,8173,8157,8139,8244,0.4946753978729248,False
7,8114,8135,8153,8154,8178,8181,8183,8181,8151,8162,8177,8159,8158,8253,0.5027852058410645,False
8,8134,8150,8170,8178,8168,8173,8193,8184,8157,8172,8188,8176,8174,8272,0.5106983184814453,False
9,8149,8170,8159,8189,8150,8171,8200,8175,8168,8169,8211,8176,8188,8295,0.5177030563354492,False
10,8142,8174,8191,8169,8192,8174,8195,8191,8157,8158,8212,8167,8186,8281,0.5255913734436035,False
11,8121,8131,8160,8155,8155,8171,8190,8181,8155,8164,8200,8168,8179,8265,0.5338895320892334,False
12,8113,8131,8152,8164,8159,8175,8187,8172,8160,8176,8196,8171,8176,8276,0.5419003963470459,False
13,8107,8166,8202,8172,8198,8187,8191,8199,8159,8173,8193,8171,8175,8271,0.5497422218322754,False
14,8069,8134,8126,8158,8146,8182,8207,8181,8167,8162,8187,8150,8166,8234,0.5587139129638672,False
15,8057,8115,8147,8133,8177,8172,8206,8175,8164,8157,8175,8142,8146,8209,0.5656628608703613,False
16,8080,8127,8195,8139,8179,8185,8208,8192,8169,8163,8180,8160,8151,8227,0.573699951171875,False
17,8078,8125,8137,8155,8139,8208,8220,8182,8182,8176,8180,8152,8159,8234,0.5807743072509766,False
18,8069,8121,8144,8144,8164,8202,8212,8174,8176,8173,8177,8148,8147,8214,0.5886876583099365,False
19,8073,8112,8149,8139,8160,8170,8198,8173,8173,8172,8199,8159,8165,8223,0.5967147350311279,False
20,8094,8127,8160,8163,8167,8168,8190,8176,8167,8182,8209,8170,8191,8260,0.6048429012298584,False
21,8117,8159,8157,8190,8150,8183,8189,8170,8157,8183,8208,8176,8202,8288,0.6127684116363525,False
22,8128,8170,8168,8184,8165,8178,8180,8167,8166,8181,8201,8169,8190,8273,0.6206085681915283,False
23,8141,8151,8209,8162,8189,8172,8165,8173,8167,8179,8192,8174,8178,8256,0.6286253929138184,False
24,8143,8135,8146,8169,8127,8174,8175,8156,8163,8177,8209,8173,8201,8287,0.6366112232208252,False
25,8150,8167,8188,8197,8178,8171,8182,8176,8161,8174,8213,8171,8198,8298,0.6445918083190918,False
26,8151,8166,8234,8196,8202,8155,8185,8187,8147,8171,8190,8179,8172,8273,0.6516883373260498,False
27,8139,8141,8151,8188,8137,8145,8190,8147,8124,8162,8182,8165,8175,8270,0.6596810817718506,False
28,8157,8169,8174,8200,8160,8152,8169,8148,8105,8155,8192,8166,8178,8286,0.66758131980896,False
29,8170,8178,8179,8198,8151,8145,8142,8159,8106,8156,8189,8170,8169,8284,0.6755971908569336,False
30,8157,8171,8149,8193,8148,8138,8150,8162,8116,8154,8178,8162,8169,8272,0.6837732791900635,False
31,8150,8162,8153,8198,8148,8173,8188,8184,8137,8163,8189,8169,8184,8277,0.6916797161102295,False
32,8146,8144,8152,8195,8152,8208,8209,8187,8147,8165,8193,8165,8179,8269,0.6997816562652588,False
33,8133,8153,8214,8180,8223,8181,8194,8182,8120,8156,8162,8154,8141,8229,0.7078087329864502,False
34,8110,8143,8187,8152,8181,8152,8193,8175,8115,8156,8165,8155,8141,8219,0.7146704196929932,False
35,8109,8126,8130,8153,8126,8195,8211,8188,8151,8168,8211,8165,8182,8253,0.7226898670196533,False
36,8124,8137,8142,8186,8138,8230,8218,8197,8178,8176,8225,8172,8198,8275,0.7306270599365234,False
37,8112,8150,8152,8189,8167,8194,8206,8179,8168,8176,8186,8147,8171,8251,0.7386837005615234,False
38,8110,8161,8221,8163,8208,8170,8177,8191,8143,8159,8154,8141,8137,8219,0.7466883659362793,False
39,8115,8136,8161,8155,8110,8180,8163,8165,8137,8141,8175,8159,8140,8234,0.7548220157623291,False
40,8115,8131,8119,8157,8102,8171,8151,8124,8123,8143,8178,8154,8134,8244,0.76267409324646,False
41,8129,8158,8209,8159,8180,8167,8139,8145,8106,8144,8158,8152,8115,8228,0.770850658416748,False
42,8138,8151,8163,8157,8131,8178,8145,8154,8121,8139,8171,8151,8127,8235,0.7785890102386475,False
43,8147,8150,8152,8151,8141,8185,8138,8161,8124,8148,8183,8155,8133,8249,0.785681962966919,False
44,8142,8140,8179,8147,8150,8176,8132,8169,8115,8166,8183,8166,8130,8248,0.7936697006225586,False
45,8128,8126,8160,8143,8133,8170,8137,8166,8133,8165,8196,8162,8145,8246,0.8015577793121338,False
46,8141,8142,8165,8158,8151,8182,8140,8170,8163,8157,8218,8172,8167,8265,0.8097641468048096,False
47,8164,8168,8171,8183,8167,8196,8150,8171,8175,8171,8230,8185,8181,8291,0.8177042007446289,False
48,8181,8187,8216,8184,8192,8196,8154,8182,8163,8181,8234,8193,8188,8296,0.8257749080657959,False
49,8168,8157,8155,8174,8134,8172,8151,8153,8146,8172,8237,8182,8193,8292,0.8337924480438232,False
50,8147,8153,8162,8172,8173,8158,8133,8133,8122,8159,8217,8164,8166,8266,0.8418416976928711,False
51,8149,8174,8274,8162,8236,8161,8118,8170,8112,8155,8194,8177,8125,8236,0.8488917350769043,False
52,8136,8142,8165,8155,8121,8156,8138,8164,8141,8165,8204,8177,8137,8248,0.8567893505096436,False
53,8134,8129,8084,8163,8100,8159,8153,8149,8162,8174,8224,8167,8176,8273,0.864861249923706,False
54,8155,8149,8164,8162,8158,8181,8152,8174,8164,8175,8232,8178,8193,8274,0.8728563785552979,False
55,8163,8161,8188,8178,8162,8195,8160,8184,8174,8174,8224,8177,8188,8269,0.8807649612426758,False
56,8167,8167,8178,8198,8177,8175,8159,8177,8168,8175,8216,8174,8180,8275,0.888765811920166,False
57,8161,8156,8170,8172,8171,8151,8152,8166,8147,8172,8208,8168,8176,8274,0.896613597869873,False
58,8157,8149,8182,8148,8166,8152,8149,8166,8130,8157,8190,8157,8154,8256,0.9047732353210448,False
59,8166,8155,8151,8170,8130,8153,8148,8157,8130,8164,8214,8164,8165,8266,0.911879539489746,False
60,8165,8164,8128,8179,8137,8149,8149,8153,8141,8180,8241,8171,8195,8279,0.9197118282318116,False
61,8163,8157,8179,8159,8184,8169,8159,8170,8144,8168,8211,8171,8178,8267,0.9276812076568604,False
62,8162,8135,8146,8152,8137,8183,8172,8160,8160,8165,8193,8169,8174,8278,0.9356915950775146,False
63,8157,8148,8176,8145,8169,8186,8162,8170,8172,8179,8195,8172,8189,8283,0.943856954574585,False
64,8146,8151,8220,8132,8188,8187,8159,8187,8169,8180,8183,8175,8179,8258,0.9516847133636476,False
65,8141,8124,8138,8136,8110,8162,8170,8160,8166,8170,8201,8172,8185,8272,0.9599816799163818,False
66,8174,8146,8158,8148,8124,8165,8165,8174,8176,8186,8240,8199,8229,8327,0.967850923538208,False
67,8198,8164,8184,8156,8154,8201,8171,8197,8207,8204,8249,8207,8254,8350,0.9758739471435548,False
68,8181,8157,8193,8155,8197,8180,8165,8188,8199,8192,8218,8176,8220,8309,0.9827759265899658,False
69,8156,8145,8191,8141,8180,8140,8149,8172,8168,8172,8196,8170,8179,8271,0.9908440113067628,False
70,8154,8136,8136,8141,8124,8170,8158,8161,8183,8173,8197,8174,8175,8282,0.998668909072876,False
71,8170,8162,8165,8167,8152,8201,8166,8182,8203,8183,8204,8179,8188,8295,1.0066463947296145,False
72,8158,8168,8154,8169,8123,8167,8168,8185,8197,8174,8218,8180,8203,8286,1.014540195465088,False
73,8145,8154,8148,8143,8129,8161,8174,8170,8192,8170,8222,8171,8194,8268,1.0226938724517822,False
74,8154,8131,8162,8126,8147,8176,8169,8155,8190,8182,8218,8171,8176,8267,1.030707836151123,False
75,8151,8116,8134,8125,8122,8150,8147,8128,8167,8182,8208,8160,8177,8269,1.0386881828308103,False
76,8156,8147,8227,8133,8184,8151,8127,8154,8143,8166,8195,8165,8171,8257,1.0458438396453855,False
77,8152,8139,8216,8128,8152,8184,8138,8173,8162,8166,8215,8177,8180,8263,1.0537142753601074,False
78,8130,8128,8122,8123,8112,8182,8148,8163,8180,8182,8219,8156,8182,8261,1.061750411987305,False
79,8140,8167,8163,8147,8153,8164,8149,8185,8178,8184,8195,8158,8169,8247,1.0697956085205078,False
80,8159,8175,8148,8172,8117,8172,8170,8195,8201,8178,8210,8177,8193,8272,1.0777852535247805,False
81,8172,8170,8155,8169,8142,8192,8185,8213,8225,8182,8235,8181,8216,8297,1.085801362991333,False
82,8188,8179,8213,8166,8188,8200,8189,8235,8232,8202,8231,8182,8219,8299,1.0937540531158447,False
83,8201,8183,8193,8171,8151,8181,8175,8210,8229,8206,8208,8174,8211,8300,1.1018104553222656,False
84,8205,8174,8149,8160,8106,8163,8154,8172,8212,8177,8185,8165,8188,8294,1.109800100326538,False
85,8204,8165,8130,8154,8115,8186,8160,8156,8213,8169,8187,8167,8191,8296,1.1169188022613523,False
86,8212,8190,8208,8159,8194,8209,8158,8175,8207,8181,8190,8186,8203,8298,1.1248595714569092,False
87,8192,8181,8183,8147,8150,8198,8149,8158,8182,8178,8186,8179,8194,8289,1.132842779159546,False
88,8154,8150,8124,8119,8127,8186,8151,8134,8162,8160,8169,8147,8171,8262,1.140835523605347,False
89,8146,8151,8201,8099,8193,8179,8146,8167,8153,8151,8157,8156,8155,8237,1.1488590240478516,False
90,8132,8135,8153,8102,8119,8154,8148,8170,8163,8162,8165,8159,8158,8242,1.1566669940948486,False
91,8121,8139,8120,8126,8103,8146,8153,8162,8177,8172,8166,8141,8157,8244,1.1645729541778564,False
92,8140,8156,8168,8145,8140,8179,8159,8173,8188,8173,8179,8156,8167,8246,1.1728878021240234,False
93,8148,8146,8149,8136,8135,8203,8165,8165,8188,8169,8191,8167,8181,8260,1.1796565055847168,False
94,8138,8142,8178,8120,8174,8183,8160,8173,8174,8160,8181,8164,8170,8271,1.187716722488403,False
95,8135,8146,8171,8134,8146,8170,8165,8177,8183,8167,8197,8167,8184,8283,1.1957283020019531,False
96,8152,8157,8142,8164,8117,8200,8175,8172,8198,8182,8220,8172,8210,8296,1.2036755084991455,False
97,8161,8145,8142,8167,8131,8198,8174,8163,8183,8176,8208,8176,8202,8309,1.211885690689087,False
98,8163,8147,8158,8154,8167,8166,8169,8157,8170,8164,8193,8171,8197,8315,1.219846248626709,False
99,8184,8183,8208,8159,8194,8175,8169,8177,8182,8176,8195,8179,8199,8305,1.227890968322754,False
100,8180,8166,8172,8165,8136,8179,8170,8171,8180,8183,8209,8184,8193,8290,1.2358744144439695,False
101,8165,8145,8171,8165,8154,8155,8158,8159,8158,8165,8209,8176,8176,8282,1.2437822818756104,False
102,8175,8161,8203,8176,8174,8152,8150,8157,8157,8157,8194,8177,8165,8281,1.251889944076538,False
103,8168,8156,8134,8181,8121,8163,8151,8142,8166,8170,8197,8166,8170,8276,1.2588460445404053,False
104,8157,8142,8140,8169,8145,8173,8155,8159,8160,8181,8213,8168,8179,8276,1.2668962478637695,False
105,8167,8133,8158,8158,8143,8173,8167,8170,8164,8175,8216,8176,8183,8290,1.2748920917510986,False
106,8173,8152,8164,8157,8149,8156,8161,8168,8160,8157,8185,8165,8158,8278,1.2859623432159424,False
107,8169,8158,8210,8161,8172,8149,8140,8176,8138,8157,8160,8169,8131,8248,1.2909207344055176,False
108,8154,8122,8173,8157,8139,8157,8139,8161,8141,8165,8171,8174,8143,8255,1.2988345623016355,False
109,8147,8117,8157,8140,8155,8148,8137,8160,8152,8161,8171,8169,8156,8262,1.3056442737579346,False
110,8155,8139,8148,8144,8147,8131,8133,8163,8157,8160,8162,8162,8157,8255,1.313805341720581,False
111,8173,8168,8165,8176,8149,8153,8135,8160,8152,8164,8166,8163,8153,8261,1.3218791484832764,False
112,8186,8176,8209,8190,8166,8182,8135,8164,8133,8164,8176,8183,8161,8283,1.329631805419922,False
113,8178,8164,8167,8182,8143,8171,8140,8153,8130,8163,8179,8180,8183,8290,1.337848663330078,False
114,8184,8193,8202,8196,8192,8168,8138,8173,8144,8161,8173,8172,8171,8272,1.3458912372589111,False
115,8185,8192,8198,8206,8164,8175,8145,8186,8157,8162,8185,8182,8167,8276,1.3540301322937012,False
116,8167,8155,8123,8183,8119,8168,8155,8157,8152,8157,8185,8177,8181,8287,1.3618030548095703,False
117,8175,8173,8161,8179,8178,8176,8159,8156,8153,8158,8169,8172,8173,8280,1.369887113571167,False
118,8176,8190,8165,8197,8178,8190,8171,8164,8177,8173,8185,8167,8177,8269,1.3768856525421145,False
119,8170,8182,8183,8196,8192,8181,8156,8169,8177,8184,8205,8174,8198,8269,1.3848912715911863,False
120,8181,8178,8193,8188,8176,8173,8122,8161,8169,8190,8224,8194,8219,8302,1.392885684967041,False
121,8176,8183,8160,8178,8149,8177,8113,8147,8169,8190,8232,8182,8213,8312,1.4009675979614258,False
122,8151,8172,8183,8164,8181,8173,8125,8155,8154,8170,8209,8165,8181,8271,1.4087755680084229,False
123,8122,8137,8127,8153,8149,8166,8146,8146,8159,8159,8191,8158,8170,8249,1.416790246963501,False
124,8131,8151,8144,8153,8177,8186,8164,8170,8172,8172,8196,8164,8173,8258,1.424882173538208,False
125,8156,8173,8197,8160,8193,8197,8186,8201,8186,8176,8214,8176,8184,8270,1.431663990020752,False
126,8162,8160,8148,8168,8155,8179,8201,8182,8199,8174,8216,8166,8192,8279,1.439753532409668,False
127,8169,8164,8177,8173,8179,8169,8190,8185,8197,8177,8207,8171,8188,8282,1.447797775268555,False
236,8176,8183,8193,8200,8165,8157,8168,8183,8196,8176,8222,8193,8201,8294,1.4556879997253418,False
0,8198,8212,8188,8246,8165,8137,8136,8158,8185,8174,8243,8204,8223,8310,1.4637200832366943,False
1,8217,8203,8201,8265,8161,8138,8108,8134,8153,8173,8253,8215,8231,8318,1.471708059310913,False
2,8212,8184,8213,8254,8164,8151,8096,8125,8134,8162,8243,8210,8214,8305,1.479747295379639,False
3,8223,8224,8277,8254,8226,8162,8106,8152,8143,8151,8220,8211,8187,8282,1.4877498149871826,True
4,8227,8222,8219,8273,8172,8173,8149,8161,8163,8161,8223,8215,8198,8294,1.4948749542236328,True
5,8204,8174,8132,8264,8124,8172,8176,8156,8165,8171,8222,8191,8214,8312,1.502683162689209,True
6,8201,8169,8151,8229,8152,8173,8176,8163,8161,8170,8203,8171,8196,8299,1.5108530521392822,True
7,8208,8179,8169,8218,8177,8186,8187,8174,8168,8166,8180,8174,8176,8284,1.518738031387329,True
8,8183,8170,8204,8214,8215,8180,8186,8200,8157,8156,8141,8172,8152,8260,1.5268821716308594,True
9,8140,8143,8135,8182,8146,8165,8196,8187,8157,8146,8123,8142,8138,8242,1.5347776412963867,True
10,8134,8148,8087,8157,8129,8181,8221,8175,8184,8155,8143,8132,8144,8246,1.542649507522583,True
11,8154,8163,8159,8164,8184,8199,8207,8190,8185,8161,8156,8156,8145,8243,1.5507173538208008,True
12,8139,8144,8145,8164,8157,8173,8171,8160,8159,8147,8141,8153,8139,8223,1.5585620403289795,True
13,8129,8147,8144,8158,8167,8153,8146,8140,8154,8145,8128,8140,8135,8223,1.565720558166504,True
14,8143,8150,8146,8163,8163,8162,8138,8152,8183,8166,8146,8144,8157,8250,1.5737221240997314,True
15,8143,8144,8155,8160,8184,8178,8130,8162,8184,8171,8158,8152,8167,8252,1.5816552639007568,True
16,8143,8143,8206,8156,8212,8190,8134,8166,8156,8164,8157,8175,8155,8252,1.5897667407989502,True
17,8143,8147,8172,8164,8158,8188,8165,8151,8167,8166,8164,8178,8163,8271,1.5977249145507812,True
18,8144,8169,8155,8165,8159,8176,8178,8153,8184,8160,8168,8167,8173,8270,1.605818271636963,True
19,8141,8159,8141,8153,8170,8162,8172,8152,8177,8159,8174,8173,8180,8272,1.6138792037963867,True
20,8154,8154,8159,8160,8204,8166,8166,8152,8160,8167,8165,8172,8172,8281,1.620896816253662,True
21,8170,8168,8207,8175,8208,8172,8166,8170,8150,8164,8152,8175,8154,8270,1.6297712326049805,True
22,8149,8153,8143,8166,8130,8153,8169,8159,8159,8153,8155,8167,8158,8262,1.6367614269256592,True
23,8160,8169,8184,8161,8187,8145,8153,8177,8160,8154,8158,8166,8153,8269,1.6447875499725342,True
24,8201,8177,8205,8181,8207,8151,8147,8194,8162,8165,8170,8188,8152,8293,1.652930498123169,True
25,8204,8158,8146,8195,8171,8149,8151,8166,8179,8161,8176,8185,8167,8308,1.6607370376586914,True
26,8196,8171,8221,8183,8224,8159,8145,8179,8188,8156,8153,8177,8158,8300,1.668811321258545,True
27,8177,8161,8190,8149,8169,8170,8144,8175,8192,8159,8138,8162,8142,8284,1.676870822906494,True
28,8151,8125,8085,8124,8111,8165,8153,8142,8190,8156,8130,8140,8137,8269,1.6836512088775637,True
29,8158,8122,8133,8137,8169,8169,8177,8152,8183,8156,8119,8153,8134,8267,1.6926367282867432,True
30,8182,8154,8210,8162,8226,8191,8194,8185,8185,8166,8132,8168,8138,8278,1.700613260269165,True
31,8178,8166,8190,8162,8193,8182,8179,8190,8183,8158,8155,8168,8148,8279,1.7076678276062012,True
32,8147,8147,8104,8153,8125,8144,8158,8154,8172,8148,8161,8158,8158,8277,1.715715408325195,True
33,8158,8181,8225,8163,8236,8154,8137,8183,8157,8156,8147,8163,8141,8260,1.723529815673828,True
34,8178,8195,8292,8160,8246,8182,8139,8220,8174,8167,8152,8179,8131,8252,1.7317016124725342,True
35,8142,8131,8094,8137,8097,8162,8164,8168,8197,8166,8174,8158,8159,8267,1.739680290222168,True
36,8133,8128,8090,8131,8153,8150,8166,8151,8175,8162,8173,8153,8169,8275,1.747657060623169,True
37,8163,8162,8192,8136,8217,8168,8158,8181,8160,8162,8166,8172,8163,8281,1.7556703090667725,True
38,8165,8159,8156,8137,8173,8172,8162,8184,8171,8161,8164,8166,8167,8286,1.7627553939819336,True
39,8165,8151,8138,8141,8162,8156,8171,8171,8174,8164,8157,8158,8169,8282,1.7707011699676514,True
40,8181,8158,8180,8139,8193,8157,8175,8164,8170,8161,8148,8160,8168,8278,1.7786383628845217,True
41,8189,8175,8234,8132,8224,8173,8164,8183,8165,8153,8143,8176,8171,8279,1.7867958545684814,True
42,8175,8164,8165,8146,8160,8183,8169,8180,8185,8162,8164,8180,8200,8292,1.7947428226470947,True
43,8177,8158,8138,8162,8168,8181,8178,8163,8202,8175,8169,8166,8207,8289,1.8027145862579343,True
44,8175,8159,8184,8144,8201,8165,8165,8161,8179,8169,8152,8167,8184,8273,1.810616970062256,True
45,8148,8149,8134,8125,8156,8152,8156,8153,8162,8158,8150,8158,8183,8270,1.8187401294708248,True
46,8174,8170,8191,8135,8206,8164,8153,8176,8164,8158,8153,8163,8187,8273,1.826704740524292,True
47,8204,8163,8217,8144,8188,8174,8161,8180,8166,8166,8168,8186,8197,8289,1.8336782455444336,True
48,8169,8141,8121,8130,8133,8164,8178,8152,8161,8170,8173,8168,8204,8293,1.841779708862305,True
49,8158,8164,8183,8129,8204,8160,8169,8175,8152,8160,8154,8159,8190,8275,1.850743532180786,True
50,8191,8179,8246,8156,8222,8171,8155,8191,8160,8161,8162,8190,8194,8284,1.857849359512329,True
51,8194,8167,8168,8166,8163,8181,8161,8171,8178,8178,8181,8196,8210,8302,1.8658099174499512,True
52,8171,8153,8085,8142,8129,8186,8168,8160,8193,8175,8170,8169,8207,8286,1.873844861984253,True
53,8186,8168,8152,8136,8199,8175,8154,8177,8185,8155,8142,8162,8181,8267,1.8819026947021484,True
54,8212,8186,8215,8164,8239,8159,8160,8191,8164,8159,8149,8186,8181,8287,1.8897807598114007,True
55,8181,8171,8134,8169,8177,8175,8191,8169,8169,8169,8166,8177,8206,8302,1.8968491554260247,True
56,8149,8159,8147,8134,8193,8199,8187,8160,8162,8158,8135,8155,8187,8272,1.904869794845581,True
57,8141,8135,8163,8114,8189,8186,8171,8146,8132,8155,8112,8147,8153,8248,1.912764549255371,True
58,8130,8132,8153,8128,8202,8183,8170,8144,8131,8163,8120,8142,8149,8250,1.92087721824646,True
59,8130,8156,8227,8136,8256,8204,8164,8182,8159,8159,8117,8161,8153,8256,1.928883075714112,True
60,8133,8135,8163,8121,8178,8195,8170,8166,8190,8156,8120,8162,8166,8268,1.936683893203736,True
61,8149,8148,8142,8133,8186,8178,8162,8150,8187,8163,8137,8154,8176,8270,1.9447674751281736,True
62,8161,8179,8209,8170,8219,8180,8143,8170,8162,8168,8147,8172,8171,8269,1.952876329421997,True
63,8158,8160,8161,8164,8164,8169,8147,8157,8159,8164,8142,8171,8169,8280,1.9606804847717283,True
64,8174,8162,8171,8140,8191,8153,8149,8159,8172,8154,8141,8172,8165,8288,1.9678759574890137,True
65,8188,8177,8205,8146,8204,8148,8134,8171,8166,8157,8163,8187,8168,8287,1.9758806228637693,True
66,8179,8174,8182,8159,8188,8144,8127,8161,8144,8173,8182,8187,8181,8281,1.9839253425598145,False
67,8175,8161,8134,8163,8167,8155,8145,8149,8163,8174,8182,8183,8200,8293,1.991872310638428,False
68,8176,8156,8137,8163,8189,8173,8158,8149,8188,8160,8159,8172,8192,8303,1.9998526573181152,False
69,8168,8154,8207,8148,8222,8181,8142,8165,8162,8152,8130,8167,8161,8276,2.007883310317993,False
70,8148,8134,8142,8130,8155,8172,8148,8150,8158,8159,8141,8165,8171,8253,2.015852689743042,False
71,8160,8165,8201,8132,8232,8175,8153,8175,8164,8164,8137,8171,8164,8248,2.023869037628174,False
72,8187,8191,8300,8130,8264,8181,8143,8201,8144,8145,8108,8184,8121,8255,2.030873537063598,False
73,8169,8144,8119,8130,8108,8168,8163,8156,8164,8139,8133,8167,8144,8280,2.0387661457061768,False
74,8156,8139,8068,8147,8137,8174,8189,8166,8216,8168,8173,8172,8199,8302,2.046847581863404,False
75,8159,8165,8170,8151,8215,8187,8197,8200,8224,8189,8166,8192,8211,8299,2.054880380630493,False
76,8153,8169,8180,8141,8199,8179,8189,8188,8194,8173,8138,8181,8194,8283,2.062765121459961,False
77,8172,8173,8183,8153,8196,8177,8186,8187,8195,8164,8150,8190,8205,8290,2.070878267288208,False
78,8196,8186,8187,8184,8199,8187,8189,8180,8215,8188,8179,8204,8237,8320,2.0788705348968506,False
79,8205,8200,8190,8200,8207,8184,8177,8163,8198,8192,8172,8200,8232,8334,2.086820602416992,False
80,8207,8189,8152,8193,8166,8167,8158,8147,8182,8170,8164,8198,8227,8339,2.09488296508789,False
81,8212,8197,8166,8194,8181,8173,8149,8155,8188,8172,8170,8197,8242,8339,2.101860761642456,False
82,8215,8213,8218,8203,8229,8190,8157,8173,8184,8187,8161,8197,8241,8329,2.1097352504730225,False
83,8206,8188,8177,8174,8195,8183,8170,8164,8171,8178,8134,8187,8221,8327,2.117866039276123,False
84,8198,8167,8167,8134,8188,8169,8162,8159,8154,8153,8108,8176,8190,8318,2.125849485397339,False
85,8180,8152,8149,8146,8165,8161,8154,8149,8143,8157,8108,8174,8180,8294,2.1338813304901123,False
86,8161,8137,8129,8163,8176,8163,8159,8152,8151,8172,8114,8172,8195,8275,2.141851663589477,False
87,8165,8143,8187,8147,8221,8178,8165,8180,8169,8170,8116,8183,8205,8282,2.1498804092407227,False
88,8155,8146,8155,8137,8172,8181,8172,8170,8192,8171,8116,8174,8198,8299,2.1578519344329834,False
89,8150,8160,8170,8153,8201,8174,8159,8175,8193,8174,8105,8162,8173,8277,2.164774179458618,False
90,8169,8165,8218,8176,8226,8183,8158,8201,8200,8167,8117,8184,8186,8275,2.173886299133301,False
91,8179,8162,8155,8189,8157,8200,8181,8184,8227,8170,8139,8194,8219,8320,2.180879592895508,False
92,8184,8183,8138,8199,8155,8210,8184,8171,8225,8181,8130,8183,8214,8332,2.188854694366455,False
93,8200,8196,8156,8224,8192,8214,8184,8175,8217,8182,8118,8179,8206,8318,2.1968812942504883,False
94,8208,8198,8204,8228,8246,8215,8185,8180,8211,8178,8105,8181,8189,8306,2.2049262523651123,False
95,8191,8180,8187,8196,8205,8210,8181,8166,8198,8177,8103,8174,8177,8296,2.212689161300659,False
96,8183,8172,8150,8193,8185,8215,8184,8160,8195,8165,8118,8162,8187,8288,2.2207932472229004,False
97,8196,8182,8229,8206,8252,8221,8190,8184,8181,8150,8118,8174,8170,8277,2.228848695755005,False
98,8172,8138,8163,8172,8173,8212,8198,8155,8163,8159,8111,8174,8149,8276,2.2356979846954346,False
99,8145,8121,8090,8151,8144,8211,8195,8137,8161,8156,8099,8151,8151,8274,2.243759155273437,False
100,8152,8159,8150,8166,8199,8205,8185,8165,8164,8137,8084,8145,8140,8258,2.2517178058624268,False
101,8157,8161,8155,8165,8187,8191,8179,8163,8166,8144,8092,8150,8137,8256,2.2597007751464844,False
102,8170,8156,8197,8157,8224,8195,8164,8175,8167,8160,8109,8173,8153,8275,2.267745018005371,False
103,8175,8154,8200,8162,8217,8183,8156,8181,8171,8150,8111,8177,8152,8280,2.2768361568450928,False
104,8159,8154,8129,8164,8169,8171,8167,8160,8173,8138,8100,8145,8138,8261,2.283829689025879,False
105,8169,8154,8116,8171,8160,8198,8171,8160,8181,8146,8102,8148,8148,8262,2.2907485961914062,False
106,8192,8158,8159,8184,8200,8208,8159,8176,8187,8150,8108,8175,8167,8280,2.2987160682678223,False
107,8202,8180,8235,8196,8255,8185,8144,8194,8168,8153,8104,8184,8164,8282,2.30671501159668,False
108,8191,8176,8163,8206,8178,8185,8156,8168,8162,8164,8118,8174,8174,8290,2.3147335052490234,False
109,8192,8186,8140,8198,8187,8203,8161,8150,8165,8161,8134,8177,8183,8299,2.322690725326538,False
110,8208,8201,8246,8190,8257,8206,8144,8172,8159,8157,8139,8198,8177,8288,2.330662488937378,False
111,8182,8169,8157,8201,8174,8203,8159,8160,8164,8160,8151,8176,8189,8285,2.338637113571167,False
112,8162,8162,8102,8202,8174,8206,8180,8156,8163,8162,8148,8153,8191,8290,2.346637725830078,False
113,8186,8180,8179,8191,8225,8209,8185,8173,8157,8163,8135,8175,8186,8300,2.354696750640869,False
114,8191,8177,8182,8184,8210,8211,8181,8168,8151,8161,8130,8179,8178,8297,2.362822294235229,False
115,8164,8166,8137,8180,8178,8206,8170,8151,8147,8160,8119,8155,8161,8271,2.369683265686035,False
116,8155,8168,8131,8178,8177,8187,8162,8149,8161,8163,8116,8147,8164,8265,2.3776843547821045,False
117,8191,8194,8221,8193,8236,8180,8153,8183,8177,8162,8126,8177,8171,8294,2.385671854019165,False
118,8204,8178,8179,8201,8175,8183,8159,8170,8190,8162,8139,8186,8172,8312,2.39378309249878,False
119,8190,8168,8144,8190,8172,8180,8153,8153,8190,8164,8130,8160,8156,8285,2.401682615280152,False
120,8199,8199,8266,8192,8261,8174,8130,8192,8169,8158,8117,8172,8139,8260,2.409705877304077,False
121,8197,8175,8192,8198,8181,8177,8148,8179,8168,8151,8140,8188,8155,8287,2.417769193649292,False
122,8195,8167,8114,8206,8160,8197,8187,8166,8187,8152,8156,8173,8171,8312,2.4246246814727783,False
123,8195,8189,8182,8212,8213,8213,8202,8190,8198,8162,8158,8168,8176,8301,2.432732343673706,False
124,8178,8176,8178,8203,8196,8219,8193,8180,8196,8167,8157,8161,8164,8265,2.4407641887664795,False
125,8175,8173,8161,8194,8185,8203,8183,8175,8184,8148,8140,8155,8134,8246,2.4496755599975586,False
4,8182,8186,8215,8188,8228,8209,8178,8178,8195,8157,8166,8187,8165,8291,2.4587764739990234,False
5,8161,8153,8127,8182,8162,8203,8175,8156,8189,8165,8168,8167,8158,8289,2.4677555561065674,False
6,8170,8169,8153,8196,8179,8198,8167,8167,8183,8161,8173,8160,8161,8286,2.4756453037261963,False
6,8170,8169,8153,8196,8179,8198,8167,8167,8183,8161,8173,8160,8161,8286,2.485526323318481,False
7,8189,8177,8182,8208,8172,8198,8167,8182,8193,8159,8185,8178,8174,8292,2.488577127456665,False
8,8192,8175,8170,8201,8174,8198,8161,8176,8194,8170,8186,8173,8175,8292,2.49582576751709,False
9,8199,8195,8213,8201,8208,8211,8159,8185,8182,8169,8185,8173,8165,8275,2.503682851791382,False
10,8178,8194,8188,8198,8176,8210,8169,8172,8179,8149,8188,8173,8160,8258,2.5116970539093018,False
11,8158,8186,8154,8188,8161,8179,8160,8153,8166,8146,8181,8169,8161,8251,2.5197882652282715,False
12,8173,8184,8136,8206,8144,8160,8154,8138,8156,8162,8192,8175,8181,8270,2.527521133422852,False
13,8206,8199,8200,8230,8196,8173,8154,8148,8156,8160,8202,8190,8186,8289,2.5356597900390625,False
14,8217,8192,8214,8228,8184,8167,8154,8162,8160,8152,8211,8208,8192,8303,2.543760061264038,False
15,8204,8186,8131,8232,8135,8114,8145,8147,8157,8156,8218,8198,8209,8308,2.5517351627349854,False
16,8235,8244,8297,8265,8278,8115,8123,8193,8136,8154,8212,8212,8195,8298,2.558727741241455,False
17,8260,8238,8327,8291,8231,8177,8151,8213,8144,8164,8239,8243,8200,8324,2.566760778427124,False
18,8239,8190,8109,8285,8068,8185,8199,8157,8164,8164,8263,8223,8229,8351,2.5746214389801025,False
19,8234,8208,8117,8257,8134,8149,8189,8142,8145,8136,8232,8196,8217,8329,2.582798480987549,False
20,8235,8228,8202,8246,8209,8157,8167,8156,8132,8135,8208,8194,8197,8304,2.590540647506714,False
21,8248,8233,8241,8261,8226,8186,8161,8170,8134,8153,8212,8207,8184,8308,2.599719762802124,False
22,8254,8220,8234,8263,8200,8168,8151,8162,8136,8141,8211,8208,8175,8313,2.60674786567688,False
23,8224,8195,8158,8248,8157,8149,8149,8140,8142,8135,8205,8176,8181,8293,2.614741086959839,False
24,8223,8214,8130,8254,8151,8160,8155,8153,8153,8161,8213,8165,8199,8295,2.621742248535156,False
25,8256,8240,8149,8265,8166,8171,8152,8165,8166,8168,8221,8182,8213,8327,2.6297411918640137,False
26,8257,8232,8187,8243,8208,8172,8138,8162,8162,8153,8205,8186,8202,8319,2.637691736221313,False
27,8231,8213,8164,8226,8191,8170,8134,8151,8161,8160,8191,8176,8192,8299,2.645798921585083,False
28,8222,8210,8145,8220,8191,8175,8131,8157,8169,8167,8191,8164,8200,8308,2.6537349224090576,False
29,8215,8217,8211,8199,8239,8165,8118,8178,8158,8160,8187,8173,8196,8298,2.6618309020996094,False
30,8195,8204,8169,8199,8180,8146,8130,8165,8159,8172,8203,8184,8206,8295,2.669743299484253,False
31,8210,8213,8139,8223,8167,8169,8153,8170,8186,8183,8213,8187,8232,8324,2.6775708198547363,False
32,8208,8204,8155,8199,8175,8182,8152,8181,8196,8170,8180,8175,8223,8318,2.6856305599212646,False
33,8152,8170,8128,8150,8165,8150,8140,8165,8184,8160,8136,8138,8174,8259,2.692790269851685,False
34,8149,8180,8191,8161,8221,8147,8136,8178,8173,8161,8133,8149,8145,8237,2.700519561767578,False
35,8189,8178,8185,8182,8181,8170,8145,8172,8176,8160,8164,8183,8175,8285,2.708740472793579,False
36,8185,8174,8138,8171,8146,8168,8146,8150,8172,8162,8165,8163,8189,8294,2.716719388961792,False
37,8148,8172,8133,8161,8152,8165,8141,8147,8163,8155,8134,8130,8154,8237,2.7246298789978027,False
38,8130,8164,8130,8156,8156,8177,8144,8145,8161,8137,8128,8125,8132,8207,2.7325496673583984,False
39,8146,8178,8193,8163,8198,8180,8145,8170,8158,8146,8142,8145,8132,8224,2.7406368255615234,False
40,8146,8179,8157,8180,8159,8189,8162,8178,8175,8168,8160,8148,8154,8242,2.7486300468444824,False
41,8151,8195,8176,8186,8192,8201,8154,8183,8186,8163,8155,8146,8164,8236,2.755584478378296,False
42,8185,8206,8258,8190,8218,8184,8117,8190,8181,8155,8152,8176,8159,8251,2.763646364212036,False
43,8186,8177,8152,8191,8127,8168,8128,8157,8202,8168,8173,8178,8172,8279,2.77160382270813,False
44,8157,8167,8091,8176,8138,8180,8157,8144,8196,8165,8155,8146,8165,8258,2.7796106338500977,False
45,8152,8173,8117,8166,8158,8177,8156,8147,8162,8137,8125,8136,8141,8238,2.787626266479492,False
46,8185,8195,8204,8162,8207,8167,8137,8172,8155,8130,8129,8155,8129,8249,2.7956132888793945,False
47,8193,8195,8251,8153,8214,8183,8151,8211,8182,8159,8156,8177,8149,8256,2.8037734031677246,False
48,8156,8164,8126,8156,8122,8186,8180,8188,8202,8174,8163,8157,8175,8253,2.8116772174835205,False
49,8165,8186,8164,8164,8188,8172,8162,8184,8184,8158,8142,8153,8156,8247,2.8197474479675293,False
50,8198,8192,8217,8154,8207,8173,8162,8204,8180,8158,8146,8176,8152,8257,2.826689004898072,False
51,8196,8175,8168,8154,8162,8191,8185,8194,8193,8171,8155,8167,8172,8265,2.835052251815796,False
52,8185,8188,8197,8172,8193,8202,8171,8185,8179,8161,8142,8160,8170,8255,2.842658281326294,False
53,8157,8167,8142,8153,8142,8183,8158,8157,8163,8147,8123,8151,8144,8245,2.850752115249634,False
54,8151,8157,8132,8135,8140,8166,8163,8156,8168,8148,8112,8147,8118,8241,2.8589322566986084,False
55,8184,8191,8209,8167,8201,8173,8164,8183,8180,8160,8133,8171,8140,8250,2.866621255874634,False
56,8184,8196,8174,8189,8174,8183,8160,8174,8186,8164,8158,8172,8179,8263,2.8747270107269287,False
57,8166,8178,8109,8178,8123,8183,8151,8149,8190,8162,8160,8158,8185,8266,2.881925344467163,False
58,8168,8181,8131,8174,8153,8180,8141,8149,8197,8163,8157,8159,8180,8256,2.8898212909698486,False
59,8174,8191,8203,8171,8222,8186,8137,8176,8188,8159,8152,8170,8173,8243,2.8978171348571777,False
60,8170,8174,8182,8156,8175,8186,8156,8171,8182,8158,8151,8175,8167,8258,2.9059269428253174,False
61,8173,8179,8150,8160,8137,8177,8174,8161,8203,8174,8158,8174,8182,8283,2.913783311843872,False
62,8188,8201,8188,8174,8167,8186,8177,8188,8222,8180,8165,8183,8207,8290,2.9217746257781982,False
63,8188,8181,8158,8171,8144,8213,8191,8191,8227,8180,8179,8182,8223,8297,2.9297657012939453,False
64,8175,8173,8165,8159,8182,8221,8193,8191,8219,8188,8167,8169,8206,8283,2.937804937362671,False
65,8162,8173,8182,8142,8192,8184,8175,8189,8206,8177,8146,8166,8181,8260,2.94480037689209,False
66,8167,8168,8145,8141,8151,8170,8169,8177,8207,8168,8159,8170,8198,8275,2.952800750732422,False
67,8192,8191,8194,8162,8182,8209,8173,8193,8210,8178,8164,8180,8211,8291,2.960513114929199,False
68,8166,8172,8164,8153,8139,8185,8156,8172,8186,8176,8131,8163,8177,8262,2.968594551086426,False
69,8141,8142,8125,8125,8114,8134,8123,8134,8149,8151,8105,8143,8136,8233,2.9765217304229736,False
70,8177,8161,8164,8138,8145,8166,8131,8140,8152,8136,8123,8168,8155,8264,2.984830141067505,False
71,8193,8195,8166,8171,8174,8194,8143,8145,8158,8145,8139,8175,8190,8286,2.9926278591156006,False
72,8189,8202,8222,8170,8223,8166,8118,8153,8130,8156,8125,8166,8171,8261,3.000720500946045,False
73,8203,8178,8201,8167,8158,8180,8132,8164,8145,8165,8142,8178,8176,8275,3.008543968200684,False
74,8214,8185,8149,8188,8137,8218,8165,8176,8171,8160,8165,8182,8200,8300,3.0165226459503174,False
75,8193,8201,8160,8200,8177,8197,8159,8179,8163,8153,8154,8172,8192,8274,3.023751735687256,False
76,8180,8194,8157,8185,8172,8175,8153,8173,8168,8156,8142,8161,8181,8258,3.031599521636963,False
77,8206,8210,8233,8165,8216,8186,8156,8202,8163,8158,8131,8170,8166,8260,3.039599895477295,False
78,8197,8188,8203,8155,8165,8185,8163,8193,8160,8160,8138,8170,8160,8258,3.047732353210449,False
79,8171,8159,8130,8149,8121,8183,8175,8163,8186,8157,8150,8155,8168,8258,3.055553913116455,False
80,8186,8188,8183,8143,8173,8189,8184,8191,8199,8158,8151,8169,8176,8261,3.0636110305786133,False
81,8188,8193,8166,8138,8154,8189,8183,8197,8193,8174,8151,8173,8187,8270,3.0717456340789795,False
82,8178,8184,8152,8152,8149,8190,8163,8181,8188,8183,8147,8162,8183,8274,3.0796077251434326,False
83,8185,8207,8178,8185,8152,8195,8157,8177,8186,8171,8158,8173,8186,8280,3.086472511291504,False
84,8183,8211,8174,8189,8157,8195,8169,8173,8176,8158,8164,8175,8195,8275,3.0946948528289795,False
85,8166,8175,8161,8160,8150,8180,8168,8154,8153,8157,8140,8162,8174,8256,3.1026785373687744,False
86,8155,8160,8134,8147,8127,8171,8165,8128,8145,8159,8125,8155,8146,8254,3.110690116882324,False
87,8159,8188,8183,8164,8183,8202,8170,8155,8158,8157,8130,8171,8149,8259,3.118570566177368,False
88,8151,8174,8150,8174,8143,8213,8183,8169,8188,8166,8146,8174,8181,8260,3.126688241958618,False
89,8163,8192,8158,8189,8161,8179,8168,8176,8205,8186,8152,8165,8191,8270,3.134739637374878,False
90,8205,8243,8301,8213,8254,8171,8134,8215,8185,8191,8155,8191,8183,8288,3.142618179321289,False
91,8190,8189,8184,8200,8134,8185,8131,8175,8175,8182,8165,8190,8196,8294,3.14958930015564,False
92,8169,8157,8080,8186,8094,8178,8127,8129,8174,8174,8157,8158,8192,8273,3.157646417617798,False
93,8187,8200,8178,8214,8172,8159,8127,8156,8156,8165,8139,8165,8170,8261,3.165766716003418,False
94,8183,8208,8168,8233,8153,8155,8161,8167,8145,8156,8130,8169,8160,8266,3.173866271972656,False
95,8178,8202,8155,8207,8155,8186,8183,8170,8153,8162,8131,8167,8150,8264,3.181649208068848,False
96,8181,8187,8180,8181,8176,8220,8187,8185,8173,8164,8143,8172,8151,8257,3.189727067947388,False
97,8176,8182,8212,8182,8206,8207,8186,8196,8177,8152,8141,8175,8149,8243,3.197768449783325,False
98,8184,8195,8190,8205,8175,8167,8171,8186,8172,8156,8149,8183,8158,8260,3.2056572437286377,False
99,8202,8202,8135,8219,8146,8158,8156,8162,8177,8179,8172,8180,8186,8294,3.213708877563477,False
100,8212,8207,8159,8207,8176,8177,8162,8168,8187,8182,8171,8173,8197,8301,3.220763921737671,False
101,8215,8220,8147,8206,8148,8175,8177,8174,8202,8178,8166,8173,8201,8302,3.228661060333252,False
102,8221,8245,8214,8224,8215,8155,8159,8190,8185,8182,8157,8179,8186,8288,3.2370009422302246,False
103,8225,8230,8279,8223,8253,8167,8150,8205,8170,8173,8131,8192,8159,8274,3.2447521686553955,False
104,8217,8199,8152,8213,8139,8200,8179,8179,8205,8169,8131,8182,8175,8292,3.252935647964477,False
105,8222,8222,8128,8224,8144,8196,8182,8172,8211,8187,8167,8181,8209,8310,3.260932207107544,False
106,8219,8228,8173,8225,8185,8161,8156,8170,8181,8198,8206,8195,8226,8319,3.268749713897705,False
107,8196,8207,8169,8205,8184,8163,8146,8157,8174,8185,8194,8182,8219,8312,3.276705503463745,False
108,8185,8199,8175,8185,8188,8177,8160,8159,8178,8175,8158,8171,8189,8284,3.2836685180664062,False
109,8189,8190,8172,8174,8182,8157,8180,8167,8178,8168,8141,8176,8168,8282,3.2915613651275635,False
110,8204,8192,8181,8184,8181,8169,8196,8186,8187,8158,8137,8185,8175,8303,3.2997286319732666,False
111,8190,8184,8142,8183,8148,8210,8216,8191,8201,8163,8135,8173,8178,8290,3.3076870441436768,False
112,8167,8171,8149,8161,8175,8204,8212,8196,8198,8164,8121,8151,8146,8251,3.3157496452331543,False
113,8187,8181,8204,8171,8205,8176,8195,8209,8195,8162,8129,8171,8144,8263,3.3237669467926025,False
114,8211,8201,8170,8201,8179,8178,8184,8187,8201,8174,8159,8188,8187,8299,3.331526041030884,False
115,8217,8224,8214,8197,8227,8196,8162,8184,8182,8182,8154,8184,8185,8288,3.3396875858306885,False
116,8196,8202,8210,8183,8193,8174,8154,8173,8163,8171,8138,8175,8162,8272,3.3477587699890137,False
117,8171,8180,8131,8189,8155,8156,8177,8146,8176,8164,8146,8162,8171,8277,3.354618787765503,False
118,8171,8191,8156,8187,8187,8182,8199,8159,8189,8173,8153,8167,8175,8267,3.3627281188964844,False
119,8173,8184,8157,8177,8148,8193,8201,8154,8172,8170,8147,8161,8170,8250,3.3706085681915283,False
120,8187,8204,8192,8186,8186,8186,8184,8152,8155,8154,8149,8165,8171,8256,3.378701686859131,False
121,8191,8207,8185,8184,8200,8181,8182,8162,8181,8161,8160,8186,8176,8281,3.3868162631988525,False
122,8188,8177,8148,8169,8174,8179,8189,8160,8200,8183,8160,8176,8175,8293,3.394564390182495,False
123,8210,8171,8189,8164,8184,8179,8178,8169,8180,8178,8157,8180,8175,8301,3.4027647972106934,False
124,8224,8171,8163,8165,8153,8159,8177,8166,8177,8157,8156,8190,8186,8319,3.4106898307800293,False
125,8216,8182,8173,8157,8176,8143,8177,8178,8180,8154,8135,8174,8169,8315,3.417618751525879,False
126,8193,8161,8136,8148,8137,8158,8179,8170,8180,8164,8133,8159,8161,8303,3.425912380218506,False
127,8183,8157,8134,8155,8155,8172,8184,8158,8174,8163,8134,8158,8163,8297,3.4338812828063965,False
236,8203,8196,8281,8161,8266,8167,8174,8196,8150,8151,8125,8184,8144,8288,3.4418246746063232,False
0,8204,8177,8206,8170,8173,8171,8179,8183,8156,8151,8167,8191,8176,8307,3.4496724605560303,False
1,8195,8159,8083,8189,8114,8174,8184,8142,8182,8166,8202,8173,8221,8320,3.457858800888061,False
2,8207,8193,8161,8203,8192,8166,8179,8161,8189,8180,8194,8183,8219,8308,3.465654134750366,False
3,8212,8210,8200,8202,8206,8178,8180,8177,8191,8181,8191,8186,8213,8299,3.473766565322876,False
4,8209,8204,8172,8201,8196,8190,8171,8168,8198,8167,8189,8182,8213,8301,3.481662511825561,False
5,8208,8192,8158,8202,8198,8192,8167,8164,8209,8171,8186,8189,8214,8312,3.4887173175811768,False
6,8201,8187,8185,8182,8217,8200,8178,8179,8204,8188,8182,8182,8197,8305,3.496635913848877,False
7,8186,8173,8174,8165,8189,8196,8196,8181,8191,8176,8177,8168,8181,8282,3.504884719848633,False
8,8172,8171,8142,8172,8163,8183,8205,8170,8191,8163,8168,8166,8180,8273,3.512812376022339,False
9,8173,8195,8190,8171,8203,8171,8197,8184,8187,8171,8158,8176,8175,8272,3.5206315517425537,False
10,8177,8174,8168,8163,8182,8169,8201,8185,8195,8180,8171,8177,8187,8290,3.528814554214477,False
11,8186,8161,8154,8182,8195,8191,8207,8186,8214,8175,8182,8171,8204,8303,3.5368690490722656,False
12,8195,8198,8212,8200,8211,8215,8197,8190,8212,8173,8174,8181,8199,8289,3.543666362762451,False
13,8188,8198,8168,8191,8146,8218,8191,8160,8203,8177,8171,8177,8193,8281,3.551716089248657,False
14,8193,8182,8167,8186,8174,8190,8177,8155,8187,8177,8165,8170,8189,8280,3.559659242630005,False
15,8198,8188,8171,8192,8194,8161,8164,8149,8171,8172,8166,8174,8194,8289,3.56773328781128,False
16,8193,8211,8173,8193,8217,8181,8166,8142,8159,8158,8171,8174,8197,8290,3.5757830142974854,False
17,8201,8212,8225,8198,8239,8216,8166,8170,8154,8152,8177,8185,8193,8285,3.5835120677948,False
18,8208,8192,8168,8209,8167,8214,8170,8165,8176,8171,8205,8193,8212,8307,3.5916216373443604,False
19,8210,8199,8149,8204,8172,8198,8168,8152,8185,8181,8213,8192,8229,8322,3.5998125076293945,False
20,8206,8194,8171,8192,8184,8184,8167,8154,8173,8178,8201,8188,8233,8316,3.607523679733277,True
21,8194,8188,8170,8184,8189,8187,8173,8179,8191,8184,8197,8181,8234,8312,3.61464524269104,True
22,8186,8192,8194,8176,8211,8214,8184,8212,8221,8191,8195,8182,8222,8311,3.622641086578369,True
23,8161,8165,8137,8165,8167,8209,8199,8196,8222,8180,8180,8168,8199,8291,3.630643844604492,True
24,8150,8165,8156,8155,8198,8199,8201,8197,8202,8175,8152,8157,8174,8256,3.638707637786865,True
25,8152,8179,8191,8141,8205,8218,8212,8209,8208,8181,8147,8163,8166,8241,3.646543264389038,True
26,8133,8172,8133,8128,8161,8204,8220,8183,8216,8163,8156,8153,8155,8237,3.6547484397888175,True
27,8140,8175,8153,8146,8186,8186,8203,8179,8194,8154,8165,8152,8149,8240,3.6626651287078857,True
28,8173,8187,8174,8176,8178,8203,8184,8178,8190,8177,8181,8164,8172,8259,3.670653104782105,True
29,8191,8208,8177,8187,8178,8196,8169,8173,8205,8179,8180,8173,8185,8279,3.677715539932251,True
30,8197,8212,8166,8188,8184,8181,8179,8179,8224,8172,8186,8175,8195,8309,3.685525417327881,True
31,8204,8206,8175,8180,8202,8203,8197,8184,8235,8189,8206,8165,8213,8312,3.693660497665405,True
32,8218,8220,8225,8177,8228,8227,8194,8189,8231,8193,8211,8177,8213,8289,3.7017555236816406,True
33,8208,8218,8165,8187,8178,8210,8187,8157,8222,8175,8206,8182,8211,8294,3.709660053253174,True
34,8192,8222,8177,8187,8209,8181,8162,8150,8186,8172,8200,8164,8203,8289,3.717675685882568,True
35,8182,8225,8203,8178,8208,8173,8144,8160,8159,8180,8198,8167,8202,8275,3.725765228271485,True
36,8173,8215,8139,8188,8172,8183,8153,8139,8170,8167,8190,8166,8206,8281,3.733643531799317,True
37,8186,8223,8210,8194,8240,8201,8149,8165,8176,8154,8180,8170,8181,8275,3.740680694580078,True
38,8178,8206,8204,8168,8190,8191,8159,8183,8190,8173,8196,8173,8177,8273,3.748548030853272,True
39,8164,8186,8123,8148,8148,8170,8189,8169,8216,8195,8208,8163,8203,8293,3.7567989826202393,True
40,8197,8199,8171,8164,8203,8188,8202,8187,8227,8186,8208,8174,8213,8312,3.764848947525024,True
41,8223,8206,8192,8189,8197,8211,8211,8204,8228,8173,8211,8176,8211,8312,3.772615432739258,True
42,8214,8200,8178,8189,8183,8200,8223,8205,8228,8185,8209,8174,8212,8311,3.7807905673980713,True
43,8204,8177,8150,8162,8148,8176,8220,8188,8226,8197,8208,8171,8208,8314,3.7889459133148193,True
44,8209,8184,8171,8156,8171,8187,8198,8185,8210,8181,8208,8158,8189,8299,3.796485185623169,True
45,8202,8192,8188,8173,8196,8204,8186,8181,8193,8166,8210,8162,8182,8288,3.8055765628814697,True
46,8178,8173,8142,8168,8190,8201,8180,8146,8190,8163,8199,8160,8175,8290,3.811557054519653,True
47,8195,8195,8217,8158,8253,8202,8168,8156,8181,8158,8186,8165,8153,8274,3.819589376449585,True
48,8209,8210,8204,8176,8205,8199,8180,8162,8190,8162,8214,8172,8168,8272,3.8276660442352295,True
49,8197,8210,8136,8194,8171,8195,8187,8146,8205,8179,8235,8162,8196,8288,3.8355095386505127,True
50,8207,8224,8204,8199,8233,8197,8164,8152,8187,8184,8222,8172,8200,8287,3.8435544967651367,True
51,8208,8203,8174,8191,8196,8192,8166,8133,8173,8181,8222,8170,8200,8270,3.8518025875091553,True
52,8185,8189,8140,8176,8184,8187,8182,8123,8172,8177,8220,8156,8185,8259,3.8595924377441406,True
53,8170,8174,8160,8156,8182,8183,8186,8137,8166,8170,8210,8158,8171,8266,3.867677927017212,True
54,8171,8162,8187,8135,8201,8171,8184,8168,8166,8164,8208,8156,8167,8265,3.874572277069092,True
55,8175,8178,8224,8136,8228,8167,8188,8209,8180,8170,8210,8166,8162,8254,3.882753372192383,True
56,8162,8171,8149,8147,8164,8176,8205,8198,8196,8173,8214,8167,8180,8264,3.8906521797180176,True
57,8166,8171,8155,8139,8181,8171,8192,8183,8181,8155,8202,8155,8180,8265,3.898769378662109,True
58,8187,8185,8192,8141,8183,8160,8175,8178,8168,8159,8201,8161,8175,8265,3.906855821609497,True
59,8190,8187,8165,8158,8170,8179,8186,8173,8186,8193,8225,8176,8213,8293,3.914722681045532,True
60,8206,8204,8235,8166,8230,8197,8190,8191,8193,8198,8235,8199,8235,8320,3.922518014907837,True
61,8220,8213,8224,8177,8196,8178,8179,8164,8193,8177,8234,8197,8233,8326,3.9308037757873535,True
62,8218,8208,8160,8183,8163,8168,8169,8131,8195,8179,8231,8180,8238,8315,3.937638282775879,True
63,8209,8190,8152,8176,8163,8182,8173,8151,8201,8196,8228,8187,8244,8308,3.945827007293701,True
64,8194,8186,8159,8177,8169,8191,8187,8179,8213,8192,8222,8185,8234,8303,3.953767776489258,True
65,8201,8208,8192,8181,8200,8196,8195,8204,8215,8182,8213,8175,8218,8294,3.9618544578552246,True
66,8214,8205,8172,8164,8182,8195,8197,8206,8216,8186,8220,8170,8219,8296,3.96977972984314,True
67,8210,8203,8171,8159,8190,8187,8199,8207,8210,8184,8228,8175,8218,8297,3.977771043777466,True
68,8196,8202,8181,8175,8191,8180,8215,8209,8192,8167,8223,8178,8214,8286,3.985838651657105,True
69,8197,8201,8187,8186,8202,8180,8224,8194,8177,8166,8231,8178,8219,8285,3.9937353134155273,True
70,8221,8210,8225,8198,8223,8187,8220,8183,8170,8186,8254,8201,8224,8303,4.001781702041626,True
71,8211,8192,8163,8201,8157,8195,8229,8165,8172,8198,8264,8202,8238,8306,4.008854866027832,True
72,8194,8202,8211,8192,8217,8208,8219,8187,8171,8188,8250,8193,8238,8278,4.016809463500977,True
73,8203,8211,8281,8203,8257,8202,8198,8205,8183,8174,8261,8220,8245,8282,4.024643898010254,True
74,8208,8181,8152,8224,8148,8182,8211,8164,8209,8182,8293,8223,8278,8326,4.032691717147827,True
75,8217,8195,8161,8214,8179,8197,8210,8167,8208,8195,8285,8210,8277,8341,4.040889024734497,True
76,8225,8222,8221,8203,8214,8207,8197,8177,8189,8188,8268,8221,8262,8336,4.048580169677734,True
77,8241,8233,8182,8233,8184,8175,8206,8163,8180,8177,8268,8223,8273,8346,4.056857347488403,True
78,8273,8237,8193,8263,8200,8178,8225,8185,8195,8195,8281,8227,8286,8367,4.064826965332031,True
79,8277,8240,8207,8264,8213,8213,8230,8192,8211,8208,8283,8222,8290,8376,4.071858167648315,True
80,8262,8257,8204,8252,8213,8193,8209,8171,8182,8187,8247,8204,8267,8352,4.079840421676636,True
81,8247,8242,8148,8231,8160,8154,8192,8151,8156,8169,8217,8187,8249,8338,4.08785080909729,True
82,8241,8219,8153,8213,8182,8162,8190,8158,8162,8170,8202,8179,8240,8334,4.095809698104858,True
83,8235,8205,8184,8203,8207,8179,8197,8167,8164,8176,8190,8184,8221,8325,4.103826284408569,True
84,8209,8179,8128,8171,8175,8180,8204,8156,8162,8183,8183,8166,8213,8312,4.111831665039063,False
85,8196,8191,8211,8155,8249,8205,8195,8193,8165,8188,8167,8158,8196,8284,4.119822502136231,False
86,8179,8191,8216,8167,8216,8215,8205,8203,8186,8190,8165,8161,8187,8268,4.127765655517578,False
87,8142,8167,8084,8151,8136,8183,8221,8168,8193,8188,8168,8132,8182,8257,4.135857820510864,False
88,8146,8172,8113,8131,8186,8172,8208,8179,8178,8178,8153,8126,8163,8243,4.143825769424439,False
89,8175,8178,8150,8147,8191,8189,8201,8181,8175,8172,8149,8145,8148,8259,4.150781631469727,False
90,8190,8194,8192,8170,8218,8203,8193,8177,8164,8168,8160,8168,8140,8279,4.158858060836792,False
91,8187,8200,8215,8160,8218,8195,8175,8174,8146,8171,8180,8183,8157,8283,4.166801452636719,False
92,8183,8185,8147,8158,8170,8174,8168,8147,8148,8173,8196,8173,8182,8286,4.174633026123047,False
93,8200,8186,8137,8181,8177,8168,8167,8133,8147,8169,8204,8169,8191,8300,4.182833909988403,False
94,8207,8195,8155,8195,8182,8180,8165,8130,8128,8165,8209,8168,8185,8301,4.190831661224365,False
95,8187,8210,8180,8187,8208,8195,8166,8138,8108,8159,8201,8163,8168,8268,4.198841333389282,False
96,8169,8200,8169,8170,8199,8201,8183,8151,8127,8160,8198,8167,8177,8258,4.206586599349976,False
97,8168,8186,8159,8169,8199,8217,8210,8171,8171,8178,8204,8172,8201,8291,4.21388578414917,False
98,8164,8193,8197,8160,8229,8221,8221,8203,8183,8188,8199,8179,8204,8299,4.221794366836548,False
99,8129,8174,8131,8135,8165,8200,8222,8192,8186,8184,8189,8158,8196,8269,4.229829788208008,False
100,8107,8163,8140,8125,8193,8218,8217,8191,8197,8185,8173,8136,8167,8234,4.237837553024292,False
101,8121,8159,8199,8130,8218,8246,8213,8201,8196,8194,8168,8151,8146,8224,4.245893955230713,False
102,8137,8156,8139,8131,8150,8205,8200,8164,8183,8175,8174,8154,8156,8232,4.252775430679321,False
103,8161,8182,8188,8127,8204,8164,8176,8168,8159,8158,8164,8162,8146,8242,4.261859178543091,False
104,8172,8172,8219,8126,8214,8192,8184,8184,8154,8165,8162,8178,8136,8267,4.268792390823364,False
105,8164,8153,8145,8139,8151,8210,8210,8164,8169,8163,8179,8167,8152,8277,4.276623249053955,False
106,8161,8175,8118,8164,8144,8186,8215,8159,8177,8159,8197,8156,8161,8261,4.284804344177246,False
107,8160,8192,8145,8162,8197,8180,8207,8176,8170,8165,8197,8160,8162,8260,4.292841911315918,False
108,8172,8192,8206,8149,8245,8182,8198,8188,8154,8161,8180,8173,8148,8262,4.300604581832886,False
109,8175,8180,8160,8176,8171,8158,8197,8165,8155,8156,8187,8167,8140,8264,4.308557987213135,False
110,8183,8207,8193,8195,8199,8163,8183,8178,8157,8167,8195,8170,8147,8264,4.316689014434815,False
111,8204,8229,8277,8169,8243,8183,8172,8205,8153,8173,8193,8196,8163,8270,4.324674844741821,False
112,8192,8197,8154,8159,8146,8163,8188,8174,8175,8172,8201,8182,8196,8292,4.332615613937378,False
113,8169,8191,8125,8169,8161,8152,8190,8171,8185,8184,8191,8161,8200,8294,4.3396711349487305,False
114,8146,8176,8177,8145,8194,8183,8194,8189,8187,8193,8182,8167,8185,8275,4.347599029541016,False
115,8127,8145,8145,8105,8177,8208,8215,8188,8207,8193,8185,8158,8180,8265,4.355707168579102,False
116,8130,8154,8155,8099,8184,8194,8215,8188,8204,8193,8172,8147,8169,8254,4.363628149032593,False
117,8118,8162,8144,8109,8173,8179,8210,8179,8191,8193,8166,8148,8156,8244,4.371628046035767,False
118,8117,8163,8163,8122,8193,8198,8222,8197,8203,8186,8185,8165,8164,8259,4.379730701446533,False
119,8143,8167,8180,8148,8165,8216,8237,8205,8221,8196,8210,8183,8197,8298,4.387653112411499,False
120,8152,8178,8173,8157,8165,8206,8229,8189,8214,8210,8214,8181,8209,8312,4.395646095275879,False
121,8169,8193,8203,8164,8214,8199,8222,8199,8213,8201,8224,8192,8220,8316,4.402568101882935,False
122,8198,8206,8170,8195,8191,8205,8242,8196,8232,8206,8240,8200,8242,8324,4.410609722137451,False
123,8211,8233,8211,8218,8233,8203,8233,8192,8206,8215,8216,8193,8218,8305,4.418510437011719,False
124,8200,8227,8237,8207,8232,8200,8201,8183,8160,8186,8189,8194,8195,8286,4.426542520523071,False
125,8187,8202,8153,8195,8169,8195,8188,8142,8138,8154,8184,8181,8188,8285,4.434579610824585,False
126,8196,8206,8163,8196,8204,8176,8177,8115,8113,8154,8173,8171,8153,8272,4.442656755447388,False
127,8190,8192,8173,8180,8202,8161,8167,8112,8093,8160,8160,8165,8130,8253,4.4506542682647705,False
236,8165,8176,8166,8150,8188,8164,8160,8138,8088,8149,8138,8147,8116,8226,4.458808660507202,False
0,8145,8166,8161,8124,8181,8163,8163,8159,8101,8155,8132,8136,8107,8210,4.465749502182007,False
1,8145,8162,8141,8125,8179,8163,8178,8166,8141,8180,8163,8146,8146,8234,4.473714351654053,False
2,8152,8183,8162,8132,8183,8169,8180,8196,8172,8193,8185,8173,8184,8262,4.481714248657227,False
3,8125,8160,8118,8115,8142,8146,8175,8193,8181,8202,8185,8165,8180,8259,4.4896509647369385,False
4,8115,8144,8149,8111,8197,8150,8181,8193,8191,8211,8188,8157,8181,8248,4.497601509094238,False
5,8151,8170,8209,8133,8215,8206,8209,8212,8217,8212,8213,8193,8223,8280,4.505748748779297,False
6,8175,8182,8169,8145,8176,8235,8215,8206,8245,8216,8230,8206,8254,8327,4.513692140579224,False
7,8188,8211,8214,8166,8228,8228,8198,8216,8252,8224,8229,8202,8254,8336,4.521684408187866,False
8,8189,8230,8207,8194,8189,8232,8207,8210,8248,8221,8232,8204,8262,8332,4.529741287231445,False
9,8177,8212,8151,8196,8160,8230,8217,8184,8235,8218,8228,8191,8256,8322,4.53672456741333,False
10,8181,8194,8179,8190,8210,8220,8212,8184,8212,8215,8216,8185,8229,8304,4.5446062088012695,False
11,8199,8203,8180,8188,8199,8211,8208,8181,8197,8195,8208,8182,8211,8303,4.552596807479858,False
12,8203,8219,8196,8176,8203,8203,8193,8172,8177,8173,8194,8185,8201,8306,4.560723781585693,False
13,8178,8196,8174,8162,8200,8203,8191,8160,8166,8174,8182,8182,8203,8298,4.568673133850098,False
14,8149,8179,8159,8145,8209,8196,8202,8166,8160,8180,8162,8157,8190,8278,4.576741695404053,False
15,8130,8173,8164,8127,8200,8190,8200,8180,8166,8179,8147,8146,8169,8262,4.584763526916504,False
16,8114,8159,8122,8125,8176,8195,8204,8176,8200,8186,8158,8149,8184,8256,4.592642068862915,False
17,8134,8175,8188,8132,8237,8201,8206,8200,8214,8203,8161,8165,8202,8250,4.599534749984741,False
18,8154,8173,8187,8129,8194,8189,8207,8202,8218,8213,8169,8178,8209,8268,4.607741355895996,False
19,8145,8178,8150,8131,8177,8188,8202,8186,8223,8209,8172,8173,8211,8286,4.615645408630371,False
20,8159,8204,8221,8146,8242,8208,8188,8201,8222,8204,8177,8184,8206,8284,4.623653888702393,False
21,8172,8188,8172,8159,8183,8207,8190,8182,8230,8201,8203,8189,8222,8300,4.631730556488037,False
22,8172,8188,8139,8167,8171,8189,8190,8159,8222,8193,8198,8180,8223,8305,4.639638662338257,False
23,8171,8196,8170,8163,8192,8178,8185,8158,8198,8185,8168,8166,8192,8280,4.647757530212402,False
24,8171,8190,8179,8156,8192,8172,8174,8151,8178,8168,8152,8160,8164,8260,4.655808925628662,False
25,8177,8191,8191,8157,8190,8165,8161,8150,8161,8159,8159,8176,8159,8274,4.6624836921691895,False
26,8170,8193,8151,8160,8156,8168,8172,8143,8165,8174,8176,8175,8179,8287,4.670628070831299,False
27,8170,8210,8188,8167,8205,8187,8182,8166,8176,8183,8178,8173,8190,8279,4.678612470626831,False
28,8172,8192,8181,8164,8188,8190,8200,8186,8190,8190,8190,8189,8225,8297,4.686659097671509,False
29,8167,8173,8143,8149,8171,8183,8216,8191,8208,8208,8206,8189,8256,8320,4.6947784423828125,False
30,8163,8197,8221,8153,8247,8189,8212,8215,8215,8215,8195,8188,8240,8304,4.7025556564331055,False
31,8130,8178,8164,8146,8194,8187,8229,8204,8230,8205,8177,8169,8225,8278,4.710567474365234,False
32,8106,8149,8115,8108,8159,8182,8240,8194,8240,8202,8161,8143,8213,8262,4.7187371253967285,False
33,8121,8150,8172,8100,8195,8184,8230,8199,8238,8204,8154,8161,8203,8270,4.7265238761901855,False
34,8128,8163,8155,8128,8192,8183,8231,8179,8235,8196,8163,8175,8203,8291,4.733739137649536,False
35,8126,8180,8157,8138,8195,8179,8223,8176,8212,8190,8159,8160,8186,8275,4.74165415763855,False
36,8132,8177,8165,8144,8171,8180,8198,8170,8204,8192,8147,8153,8178,8261,4.749668121337891,False
37,8159,8190,8200,8159,8202,8196,8188,8165,8211,8193,8148,8173,8193,8286,4.757744550704956,False
38,8180,8201,8197,8154,8199,8189,8179,8158,8195,8194,8154,8185,8194,8296,4.765659332275391,False
39,8160,8182,8135,8136,8157,8154,8151,8128,8160,8186,8137,8159,8156,8256,4.773580551147461,False
40,8157,8185,8175,8139,8196,8165,8146,8132,8144,8180,8131,8160,8138,8237,4.781731128692627,False
41,8173,8193,8174,8163,8183,8198,8175,8148,8161,8189,8173,8180,8176,8281,4.789636611938477,False
42,8171,8204,8178,8160,8193,8189,8171,8163,8164,8191,8181,8178,8186,8294,4.796534061431885,False
43,8161,8209,8209,8129,8193,8169,8162,8181,8156,8190,8158,8172,8165,8261,4.804559707641602,False
44,8151,8190,8140,8135,8141,8170,8190,8177,8172,8198,8162,8162,8178,8259,4.812599182128906,False
45,8153,8197,8177,8161,8194,8178,8197,8186,8182,8195,8169,8169,8194,8275,4.820584535598755,False
46,8145,8195,8200,8143,8197,8185,8190,8179,8181,8188,8180,8185,8203,8287,4.828619718551636,False
47,8129,8180,8145,8123,8176,8201,8199,8171,8183,8192,8189,8164,8206,8277,4.836722373962402,False
48,8123,8177,8153,8133,8188,8217,8211,8195,8202,8199,8183,8152,8198,8258,4.844649076461792,False
49,8123,8172,8149,8129,8165,8209,8212,8193,8220,8209,8177,8168,8196,8264,4.852687358856201,False
50,8138,8176,8172,8118,8183,8185,8192,8184,8197,8205,8167,8181,8194,8272,4.860738039016724,False
51,8141,8172,8153,8135,8163,8174,8184,8177,8173,8193,8162,8170,8188,8267,4.86764669418335,False
52,8142,8187,8154,8143,8176,8203,8190,8182,8180,8190,8163,8149,8190,8256,4.875759601593018,False
53,8148,8200,8195,8130,8193,8201,8185,8192,8186,8195,8169,8156,8196,8249,4.883680582046509,False
54,8143,8183,8150,8139,8144,8158,8175,8161,8175,8196,8171,8168,8200,8260,4.8915746212005615,False
55,8161,8199,8222,8161,8221,8168,8165,8164,8147,8179,8156,8183,8186,8269,4.899527311325073,False
56,8177,8196,8236,8145,8222,8196,8178,8172,8141,8173,8164,8194,8188,8277,4.907533168792725,False
57,8176,8186,8144,8127,8157,8185,8203,8156,8168,8185,8189,8176,8216,8293,4.9154582023620605,False
58,8182,8211,8183,8153,8189,8187,8206,8180,8192,8197,8188,8178,8232,8304,4.923485517501831,False
59,8161,8198,8168,8167,8176,8208,8203,8187,8204,8207,8169,8181,8237,8295,4.930554866790772,False
60,8151,8195,8167,8144,8192,8193,8192,8181,8195,8212,8160,8171,8229,8278,4.938665628433228,False
61,8165,8195,8149,8130,8155,8167,8188,8168,8187,8202,8177,8166,8232,8287,4.946763753890991,False
62,8162,8197,8166,8139,8187,8178,8184,8176,8182,8190,8175,8158,8225,8286,4.954516649246216,False
63,8164,8215,8294,8141,8291,8189,8177,8223,8163,8191,8150,8176,8193,8257,4.962697505950928,False
64,8141,8175,8169,8122,8153,8178,8196,8182,8169,8192,8167,8170,8197,8258,4.970702171325684,False
65,8114,8153,8052,8120,8090,8168,8199,8134,8184,8187,8188,8139,8207,8265,4.978658437728882,False
66,8139,8187,8151,8143,8186,8168,8197,8167,8191,8196,8193,8152,8210,8271,4.986737012863159,False
67,8170,8218,8189,8165,8196,8180,8210,8186,8201,8208,8190,8169,8219,8286,4.993643045425415,False
68,8178,8231,8200,8170,8188,8208,8203,8190,8205,8201,8179,8176,8207,8290,5.001667737960815,False
69,8175,8211,8189,8168,8177,8217,8207,8193,8213,8199,8193,8180,8212,8297,5.009721517562866,False
70,8169,8202,8158,8165,8170,8191,8218,8180,8213,8211,8199,8171,8230,8293,5.017624378204346,False
71,8165,8211,8143,8157,8157,8163,8193,8158,8187,8207,8169,8164,8206,8267,5.025665044784546,False
72,8166,8201,8163,8157,8160,8166,8164,8151,8162,8192,8156,8165,8172,8259,5.033772945404053,False
73,8161,8179,8184,8158,8169,8188,8174,8158,8155,8182,8164,8165,8167,8263,5.041672468185425,False
74,8141,8166,8148,8138,8147,8189,8193,8149,8147,8176,8152,8151,8167,8250,5.049802541732788,False
75,8138,8170,8166,8119,8173,8174,8184,8151,8129,8180,8142,8153,8160,8248,5.057745933532715,False
76,8163,8173,8186,8144,8169,8176,8179,8160,8134,8197,8170,8180,8180,8281,5.064465284347534,False
77,8174,8182,8148,8178,8148,8181,8191,8165,8164,8203,8189,8182,8206,8297,5.072790145874023,False
78,8162,8203,8182,8174,8199,8184,8193,8191,8179,8196,8181,8174,8196,8279,5.080591440200806,False
79,8148,8188,8160,8158,8167,8194,8195,8190,8191,8193,8187,8172,8199,8285,5.088624715805054,False
80,8152,8186,8152,8160,8165,8200,8191,8186,8198,8195,8187,8172,8210,8300,5.096801519393921,False
81,8162,8207,8219,8180,8211,8191,8189,8197,8193,8189,8173,8173,8195,8286,5.104803085327148,False
82,8160,8198,8167,8194,8175,8183,8206,8176,8197,8178,8174,8156,8186,8271,5.1127800941467285,False
83,8174,8206,8151,8190,8185,8179,8204,8170,8182,8186,8170,8154,8180,8269,5.120640277862549,False
84,8183,8216,8177,8185,8174,8178,8195,8169,8169,8199,8159,8176,8178,8284,5.127640962600708,False
85,8175,8211,8172,8188,8167,8192,8202,8163,8187,8195,8158,8174,8184,8293,5.13567590713501,False
86,8181,8208,8178,8195,8191,8196,8196,8169,8183,8193,8153,8171,8184,8275,5.143667936325073,False
87,8187,8207,8169,8203,8173,8178,8172,8149,8153,8189,8140,8169,8177,8262,5.151530742645264,False
88,8199,8231,8210,8212,8196,8174,8159,8153,8154,8186,8154,8180,8192,8281,5.159559726715088,False
89,8194,8223,8166,8204,8176,8171,8164,8160,8175,8198,8188,8195,8221,8303,5.167839765548706,False
90,8172,8200,8133,8182,8185,8160,8157,8147,8158,8196,8170,8170,8201,8274,5.175701141357422,False
91,8169,8210,8199,8173,8217,8167,8159,8164,8144,8181,8144,8159,8174,8251,5.183659076690674,False
92,8171,8208,8157,8182,8161,8179,8195,8175,8175,8203,8181,8175,8210,8293,5.1918418407440186,False
93,8177,8208,8156,8190,8180,8170,8203,8183,8188,8219,8196,8181,8230,8307,5.198735237121582,False
94,8171,8200,8163,8187,8167,8160,8188,8188,8185,8207,8185,8176,8219,8281,5.206661701202393,False
95,8161,8197,8150,8188,8157,8183,8195,8188,8193,8205,8182,8167,8223,8282,5.21474289894104,False
96,8176,8221,8227,8191,8227,8208,8204,8211,8194,8207,8167,8183,8217,8291,5.22281289100647,False
97,8191,8219,8190,8191,8176,8193,8215,8196,8201,8196,8175,8183,8216,8299,5.230918884277344,False
98,8202,8216,8139,8204,8148,8179,8214,8179,8202,8191,8192,8166,8218,8311,5.238871335983276,False
99,8196,8204,8149,8195,8167,8174,8196,8182,8183,8193,8167,8165,8199,8299,5.246737480163574,False
100,8180,8188,8146,8164,8160,8162,8183,8176,8167,8192,8143,8158,8177,8269,5.254823446273804,False
101,8187,8190,8181,8158,8166,8156,8174,8175,8148,8185,8163,8159,8169,8265,5.261655569076538,False
102,8181,8178,8152,8163,8137,8142,8174,8158,8134,8167,8181,8162,8178,8277,5.26966404914856,False
103,8178,8189,8175,8158,8186,8137,8173,8170,8136,8166,8174,8166,8188,8272,5.277809143066406,False
104,8197,8213,8219,8173,8207,8162,8181,8195,8164,8194,8188,8180,8204,8284,5.285736560821533,False
105,8184,8208,8158,8193,8154,8165,8194,8178,8192,8204,8200,8172,8215,8297,5.293835163116455,False
106,8163,8209,8170,8200,8178,8139,8185,8179,8182,8188,8187,8169,8201,8278,5.30176043510437,False
107,8172,8209,8176,8209,8163,8133,8183,8183,8180,8192,8194,8179,8209,8278,5.309638261795044,False
108,8182,8217,8163,8214,8169,8158,8183,8179,8191,8207,8195,8182,8224,8298,5.317816257476807,False
109,8179,8225,8195,8218,8212,8180,8175,8185,8184,8197,8174,8188,8212,8301,5.325776100158691,False
110,8169,8211,8170,8219,8180,8176,8176,8169,8181,8187,8164,8175,8195,8294,5.332616090774536,False
111,8160,8204,8160,8203,8168,8162,8179,8168,8177,8182,8159,8163,8180,8280,5.3407957553863525,False
112,8144,8194,8142,8187,8155,8157,8186,8176,8174,8179,8160,8165,8177,8281,5.3487842082977295,False
113,8141,8193,8153,8199,8177,8171,8193,8172,8174,8173,8164,8165,8174,8294,5.35693097114563,False
114,8152,8194,8188,8199,8187,8183,8202,8171,8182,8165,8172,8169,8175,8302,5.364768266677856,False
115,8145,8171,8145,8165,8154,8175,8208,8167,8188,8175,8171,8158,8185,8304,5.372694253921509,False
116,8142,8172,8172,8152,8189,8170,8191,8181,8169,8182,8149,8154,8171,8293,5.380841970443726,False
117,8157,8172,8173,8158,8153,8170,8174,8170,8151,8171,8153,8174,8170,8295,5.3877551555633545,False
118,8169,8175,8149,8161,8138,8164,8169,8143,8152,8169,8176,8178,8184,8308,5.395813703536987,False
119,8184,8203,8195,8176,8179,8151,8158,8156,8155,8188,8176,8180,8186,8315,5.404814004898071,False
120,8184,8199,8166,8188,8138,8144,8156,8161,8159,8198,8181,8182,8199,8318,5.413716554641724,False
121,8182,8202,8186,8177,8171,8153,8157,8174,8161,8188,8190,8185,8204,8310,5.419813394546509,False
122,8176,8206,8210,8173,8196,8162,8172,8186,8176,8195,8189,8187,8201,8307,5.427806377410889,False
123,8167,8186,8160,8181,8161,8167,8190,8173,8192,8200,8179,8170,8202,8300,5.435670852661133,False
124,8170,8183,8169,8192,8162,8176,8187,8182,8203,8195,8197,8169,8217,8288,5.443843841552734,False
125,8149,8183,8156,8191,8161,8176,8187,8187,8222,8202,8229,8176,8234,8293,5.451819181442261,False
126,8131,8189,8176,8172,8194,8174,8183,8193,8222,8206,8220,8176,8223,8288,5.458686590194702,False
127,8142,8178,8169,8167,8168,8174,8184,8191,8212,8197,8210,8180,8223,8285,5.466756105422974,False
236,8142,8174,8146,8177,8161,8169,8196,8185,8203,8191,8213,8173,8232,8289,5.474844455718994,False
0,8135,8190,8214,8165,8215,8169,8198,8209,8189,8194,8196,8177,8216,8284,5.482880115509033,False
1,8122,8171,8164,8156,8153,8177,8203,8199,8201,8199,8197,8173,8222,8288,5.490844488143921,False
2,8122,8174,8134,8171,8155,8175,8204,8187,8207,8201,8209,8162,8237,8285,5.498852729797363,False
3,8136,8195,8179,8167,8182,8167,8211,8196,8198,8199,8202,8170,8231,8276,5.506846189498901,False
4,8155,8200,8161,8166,8153,8183,8226,8190,8203,8202,8195,8173,8235,8291,5.514820098876953,False
5,8166,8207,8194,8189,8195,8209,8222,8208,8209,8209,8196,8178,8236,8286,5.521825551986694,False
6,8147,8187,8182,8185,8182,8201,8216,8207,8211,8199,8193,8170,8221,8254,5.529819488525391,False
7,8152,8180,8158,8165,8159,8177,8224,8197,8214,8195,8184,8160,8206,8252,5.537790775299072,False
8,8171,8186,8170,8163,8159,8179,8232,8200,8226,8205,8187,8168,8200,8274,5.545847177505493,False
9,8153,8181,8159,8168,8160,8186,8214,8178,8221,8199,8183,8161,8180,8252,5.553788661956787,False
10,8154,8186,8189,8166,8186,8177,8175,8155,8185,8174,8163,8165,8150,8226,5.561605930328369,False
11,8186,8187,8162,8170,8147,8166,8157,8139,8172,8174,8180,8184,8171,8270,5.569818735122681,False
12,8203,8215,8203,8182,8198,8170,8137,8159,8172,8186,8200,8191,8195,8301,5.577818632125855,False
13,8205,8235,8269,8195,8225,8168,8117,8176,8147,8176,8199,8205,8187,8290,5.5846107006073,False
14,8196,8200,8155,8190,8123,8150,8125,8139,8138,8166,8202,8195,8200,8298,5.592822313308716,False
15,8193,8192,8129,8185,8140,8156,8138,8140,8157,8182,8195,8189,8215,8311,5.600798606872559,False
16,8208,8212,8181,8203,8176,8179,8151,8169,8180,8199,8193,8197,8220,8315,5.608892917633057,False
17,8221,8224,8183,8219,8179,8189,8161,8181,8187,8190,8197,8187,8214,8319,5.616909980773926,False
18,8199,8217,8180,8196,8189,8180,8160,8187,8178,8186,8192,8179,8195,8308,5.624855279922485,False
19,8161,8173,8151,8159,8167,8173,8169,8177,8179,8196,8194,8170,8186,8278,5.632842779159546,False
20,8168,8152,8171,8153,8185,8189,8176,8183,8187,8185,8196,8167,8187,8256,5.639724016189575,False
21,8170,8165,8152,8160,8168,8191,8166,8172,8180,8172,8203,8165,8187,8260,5.647848129272461,False
22,8144,8182,8141,8145,8168,8171,8152,8160,8160,8180,8208,8160,8178,8266,5.655844688415527,False
23,8159,8177,8187,8143,8187,8169,8156,8178,8150,8181,8208,8170,8179,8265,5.663783550262451,False
24,8181,8172,8171,8168,8173,8183,8168,8177,8164,8176,8218,8174,8196,8276,5.671842098236084,False
25,8170,8204,8225,8166,8235,8184,8149,8190,8160,8184,8217,8177,8178,8267,5.679843664169312,False
26,8144,8190,8203,8152,8199,8173,8140,8180,8144,8187,8210,8167,8159,8238,5.687736988067627,False
27,8137,8160,8116,8180,8141,8180,8170,8150,8162,8183,8218,8151,8179,8239,5.695825815200806,False
28,8154,8173,8161,8201,8181,8209,8189,8168,8189,8193,8231,8171,8203,8276,5.7028539180755615,False
29,8160,8178,8162,8181,8175,8215,8181,8168,8187,8200,8230,8173,8199,8294,5.710625171661377,False
30,8177,8206,8219,8170,8237,8194,8161,8176,8160,8188,8210,8166,8171,8264,5.718704462051392,False
31,8182,8205,8258,8167,8229,8187,8169,8198,8155,8185,8210,8189,8173,8262,5.726883172988892,False
32,8146,8155,8123,8152,8119,8198,8193,8169,8173,8189,8221,8174,8196,8282,5.7345263957977295,False
33,8137,8164,8085,8161,8140,8201,8184,8154,8172,8192,8220,8151,8196,8270,5.742616176605225,False
34,8153,8211,8160,8190,8196,8199,8169,8169,8161,8196,8216,8160,8192,8254,5.751509189605713,False
35,8157,8212,8204,8201,8206,8195,8160,8175,8144,8185,8201,8168,8180,8247,5.758502721786499,False
36,8154,8177,8155,8192,8160,8194,8165,8165,8146,8176,8205,8167,8174,8257,5.766541957855225,False
37,8163,8190,8159,8189,8189,8206,8170,8180,8167,8190,8220,8163,8183,8260,5.774508953094482,False
38,8172,8231,8260,8193,8266,8209,8167,8218,8168,8192,8204,8172,8178,8234,5.7818217277526855,False
39,8153,8197,8175,8182,8166,8197,8183,8194,8169,8173,8196,8169,8176,8229,5.789788007736206,False
40,8137,8175,8111,8173,8140,8188,8185,8169,8166,8170,8201,8155,8173,8244,5.797739028930664,False
41,8150,8203,8187,8187,8211,8186,8173,8181,8155,8173,8195,8161,8162,8245,5.805861234664917,False
42,8162,8215,8166,8201,8194,8192,8194,8174,8166,8174,8199,8168,8174,8249,5.813793182373047,False
43,8181,8224,8183,8199,8213,8203,8208,8188,8179,8179,8217,8182,8192,8270,5.821840286254883,False
44,8191,8213,8191,8201,8199,8197,8203,8200,8190,8188,8221,8187,8200,8284,5.829819679260254,False
45,8182,8206,8157,8202,8184,8196,8206,8199,8188,8182,8193,8168,8184,8267,5.837589740753174,False
46,8179,8204,8167,8186,8194,8210,8210,8197,8180,8166,8176,8167,8162,8245,5.845515489578247,False
47,8177,8184,8165,8177,8189,8211,8207,8176,8181,8172,8185,8170,8170,8242,5.852638006210327,False
48,8170,8188,8176,8191,8202,8206,8198,8171,8172,8188,8189,8170,8176,8239,5.86056661605835,False
49,8146,8186,8135,8192,8157,8200,8191,8156,8161,8187,8187,8169,8173,8237,5.868891716003418,False
50,8147,8191,8167,8171,8196,8204,8183,8153,8169,8177,8186,8173,8172,8244,5.876640319824219,False
51,8175,8201,8244,8178,8244,8213,8174,8173,8177,8188,8199,8194,8180,8256,5.884638071060181,False
52,8159,8178,8156,8198,8165,8189,8173,8153,8174,8198,8214,8194,8193,8259,5.892727851867676,False
53,8139,8175,8136,8181,8174,8177,8179,8158,8179,8184,8201,8174,8187,8247,5.900657892227173,False
54,8155,8180,8185,8165,8202,8198,8188,8184,8195,8179,8189,8171,8175,8249,5.90863561630249,True
55,8161,8164,8168,8171,8183,8198,8175,8177,8182,8184,8194,8182,8175,8250,5.915748357772827,True
56,8143,8147,8161,8162,8190,8179,8153,8160,8150,8180,8196,8180,8170,8234,5.923621654510498,True
57,8137,8160,8146,8164,8191,8181,8163,8157,8155,8176,8195,8162,8169,8242,5.931520223617554,True
58,8170,8202,8190,8192,8221,8187,8166,8177,8165,8179,8185,8172,8169,8256,5.939679384231567,True
59,8186,8186,8194,8194,8198,8165,8151,8168,8156,8185,8191,8189,8185,8258,5.9475085735321045,True
60,8169,8167,8163,8182,8200,8146,8133,8162,8152,8187,8213,8176,8200,8262,5.95551872253418,True
61,8182,8202,8205,8195,8227,8151,8120,8188,8153,8179,8220,8183,8198,8272,5.963569641113281,True
62,8202,8193,8171,8197,8161,8163,8134,8176,8169,8185,8217,8188,8199,8285,5.971612930297852,True
63,8191,8168,8169,8179,8182,8169,8147,8179,8175,8192,8195,8167,8187,8269,5.978511810302734,True
64,8158,8172,8164,8168,8183,8162,8158,8201,8172,8185,8180,8161,8175,8245,5.986536741256714,True
65,8143,8172,8131,8159,8152,8153,8166,8186,8175,8175,8183,8149,8166,8235,5.994717121124268,True
66,8165,8167,8206,8151,8206,8153,8151,8181,8155,8167,8179,8156,8142,8228,6.002646207809448,True
67,8154,8154,8163,8154,8176,8156,8149,8162,8146,8167,8189,8162,8146,8239,6.0106360912323,True
68,8131,8168,8138,8160,8188,8168,8152,8149,8148,8170,8194,8161,8158,8248,6.018759250640869,True
69,8153,8166,8188,8158,8196,8180,8147,8157,8143,8170,8193,8179,8164,8253,6.026731967926025,True
70,8177,8159,8168,8171,8167,8178,8150,8155,8139,8168,8200,8178,8182,8268,6.034682750701904,True
71,8174,8193,8197,8197,8207,8189,8154,8183,8144,8186,8209,8177,8196,8273,6.042743682861328,True
72,8163,8185,8175,8202,8181,8201,8160,8194,8170,8201,8219,8183,8214,8283,6.049683809280396,True
73,8184,8172,8173,8192,8192,8197,8159,8190,8187,8189,8213,8187,8221,8306,6.057703018188477,True
74,8209,8186,8198,8209,8207,8188,8153,8194,8187,8192,8207,8196,8220,8320,6.066754102706909,True
75,8186,8174,8147,8220,8168,8185,8149,8184,8189,8202,8209,8176,8221,8298,6.073670148849487,True
76,8163,8170,8165,8201,8196,8184,8146,8193,8191,8192,8207,8168,8211,8271,6.081796646118164,True
77,8168,8183,8169,8205,8184,8172,8150,8178,8191,8186,8201,8180,8201,8290,6.089614152908325,True
78,8173,8188,8165,8208,8181,8161,8146,8154,8165,8180,8177,8172,8174,8285,6.097696542739868,True
79,8164,8165,8201,8179,8211,8173,8153,8172,8146,8170,8162,8169,8147,8245,6.105864524841309,True
80,8139,8138,8166,8168,8193,8184,8181,8187,8171,8178,8173,8169,8158,8238,6.112596273422241,True
81,8135,8147,8134,8187,8173,8172,8193,8188,8199,8192,8170,8169,8182,8263,6.1207427978515625,True
82,8167,8167,8140,8192,8164,8163,8193,8187,8201,8192,8162,8171,8193,8286,6.128635406494141,True
83,8193,8172,8190,8184,8207,8177,8186,8202,8197,8190,8170,8181,8194,8297,6.136863708496094,True
84,8188,8157,8196,8194,8194,8188,8180,8208,8209,8200,8183,8197,8211,8318,6.144706964492798,True
85,8176,8142,8142,8202,8154,8169,8176,8189,8219,8215,8187,8190,8228,8335,6.152631044387817,True
86,8194,8169,8218,8196,8236,8158,8143,8190,8197,8209,8177,8189,8204,8313,6.160598516464233,True
87,8205,8176,8223,8201,8212,8165,8124,8171,8181,8197,8182,8198,8199,8302,6.168585777282715,True
88,8207,8170,8143,8234,8161,8174,8151,8150,8195,8206,8194,8191,8232,8324,6.17670750617981,True
89,8229,8195,8189,8266,8221,8185,8169,8172,8206,8218,8199,8200,8244,8341,6.183635473251343,True
90,8225,8204,8199,8271,8220,8183,8157,8168,8190,8211,8210,8204,8235,8340,6.191604852676392,True
91,8226,8207,8207,8280,8219,8168,8144,8171,8166,8208,8219,8211,8239,8349,6.199655055999756,True
92,8246,8187,8199,8278,8189,8148,8153,8179,8170,8224,8221,8222,8249,8361,6.207683086395264,True
93,8231,8177,8184,8253,8176,8144,8156,8166,8168,8223,8210,8205,8228,8337,6.215738296508789,True
94,8210,8188,8225,8243,8211,8149,8156,8169,8148,8201,8190,8198,8197,8299,6.223654508590698,True
95,8219,8182,8181,8250,8173,8155,8186,8166,8160,8204,8196,8204,8217,8317,6.231630325317383,True
96,8247,8201,8192,8256,8194,8160,8187,8178,8172,8220,8212,8217,8242,8353,6.239760160446167,True
97,8247,8190,8201,8240,8191,8147,8156,8176,8160,8209,8225,8222,8238,8342,6.246702671051025,True
98,8228,8156,8158,8221,8177,8135,8152,8157,8156,8197,8224,8208,8234,8317,6.254637241363525,True
99,8230,8177,8226,8234,8231,8151,8160,8177,8145,8207,8219,8219,8239,8328,6.262669563293457,True
100,8215,8181,8200,8250,8175,8155,8152,8166,8143,8213,8227,8222,8243,8342,6.270749092102051,True
101,8190,8167,8150,8248,8171,8147,8145,8162,8172,8214,8225,8205,8241,8325,6.278782844543457,True
102,8187,8180,8171,8255,8217,8170,8172,8190,8211,8232,8241,8222,8274,8343,6.286741256713867,True
103,8210,8208,8189,8275,8221,8192,8188,8185,8215,8236,8263,8236,8303,8380,6.2946836948394775,True
104,8264,8226,8248,8282,8234,8178,8152,8171,8177,8213,8237,8234,8271,8370,6.302623748779297,True
105,8291,8209,8217,8283,8181,8160,8138,8157,8163,8209,8209,8227,8264,8369,6.310888290405273,True
106,8269,8193,8166,8266,8169,8166,8159,8152,8160,8214,8202,8211,8278,8374,6.317790508270264,True
107,8230,8178,8158,8228,8184,8155,8155,8146,8125,8199,8182,8193,8253,8342,6.325793504714966,True
108,8208,8164,8154,8206,8179,8119,8128,8139,8096,8181,8157,8186,8223,8307,6.33380913734436,True
109,8229,8173,8202,8218,8189,8103,8109,8156,8101,8188,8164,8198,8219,8303,6.341604948043823,True
110,8244,8165,8173,8237,8141,8102,8107,8139,8113,8195,8189,8199,8224,8320,6.34977388381958,True
111,8240,8178,8190,8234,8187,8095,8090,8126,8095,8184,8183,8197,8210,8318,6.357848167419434,True
112,8235,8183,8240,8229,8213,8093,8079,8154,8081,8185,8174,8217,8207,8310,6.365579605102539,True
113,8217,8159,8160,8248,8149,8119,8107,8154,8113,8201,8197,8207,8239,8328,6.3738977909088135,True
114,8203,8183,8174,8258,8205,8152,8117,8163,8138,8195,8207,8198,8250,8332,6.380830764770508,True
115,8183,8189,8179,8229,8201,8146,8102,8163,8126,8183,8198,8199,8239,8310,6.388970613479614,True
116,8181,8177,8143,8214,8165,8124,8087,8148,8096,8182,8189,8186,8231,8298,6.396805286407471,True
117,8224,8203,8225,8236,8218,8124,8072,8165,8091,8178,8192,8206,8228,8321,6.405652284622192,True
118,8248,8208,8233,8254,8198,8125,8070,8172,8118,8180,8204,8225,8237,8346,6.412866115570068,False
119,8240,8188,8162,8248,8150,8113,8082,8152,8126,8187,8201,8204,8230,8331,6.42084550857544,False
120,8222,8171,8112,8227,8153,8115,8094,8125,8120,8171,8184,8174,8212,8304,6.42886209487915,False
121,8209,8173,8152,8220,8218,8127,8090,8139,8118,8164,8163,8168,8201,8296,6.436843395233154,False
122,8216,8179,8194,8228,8215,8124,8096,8166,8108,8185,8166,8185,8205,8306,6.443748474121094,False
123,8218,8179,8147,8210,8157,8101,8116,8150,8100,8181,8162,8171,8203,8302,6.451831817626953,False
124,8214,8198,8200,8183,8228,8096,8099,8168,8093,8145,8121,8155,8164,8277,6.45980978012085,False
125,8214,8188,8200,8190,8215,8104,8083,8189,8100,8151,8120,8166,8163,8282,6.468753814697266,False
126,8200,8162,8106,8188,8145,8109,8090,8168,8111,8176,8138,8160,8186,8297,6.475823640823364,False
127,8186,8177,8147,8167,8195,8114,8084,8167,8107,8169,8118,8156,8165,8284,6.483874559402466,False
236,8186,8182,8164,8173,8199,8104,8071,8158,8116,8172,8111,8163,8159,8285,6.491592645645142,False
0,8191,8168,8151,8180,8187,8106,8070,8150,8131,8181,8126,8167,8177,8289,6.499564409255981,False
1,8185,8152,8159,8151,8171,8132,8086,8156,8142,8173,8126,8165,8173,8281,6.5068678855896,False
2,8173,8140,8148,8126,8164,8130,8094,8153,8151,8166,8113,8154,8154,8272,6.514594793319702,False
3,8167,8137,8164,8125,8178,8130,8103,8160,8148,8172,8111,8153,8139,8260,6.522779703140259,False
4,8149,8124,8123,8129,8140,8153,8136,8167,8156,8169,8126,8148,8139,8250,6.530843734741211,False
5,8138,8139,8151,8134,8185,8161,8142,8193,8160,8160,8131,8147,8147,8251,6.538807392120361,False
6,8130,8141,8192,8134,8203,8144,8124,8203,8151,8165,8131,8157,8158,8263,6.546780824661255,False
7,8119,8116,8129,8121,8157,8121,8112,8171,8132,8168,8133,8149,8149,8254,6.554695129394531,False
8,8133,8132,8159,8116,8181,8100,8104,8168,8101,8152,8114,8143,8112,8222,6.562602996826172,False
9,8139,8139,8158,8115,8140,8100,8120,8170,8117,8144,8105,8138,8101,8219,6.56972861289978,False
10,8131,8128,8137,8106,8142,8138,8151,8185,8171,8158,8116,8137,8113,8234,6.577739715576172,False
11,8137,8115,8170,8109,8200,8169,8165,8214,8203,8165,8128,8155,8125,8235,6.58550238609314,False
12,8131,8104,8144,8114,8195,8182,8181,8215,8205,8172,8134,8152,8144,8236,6.593668699264526,False
13,8124,8122,8165,8101,8207,8201,8200,8223,8195,8184,8130,8152,8154,8238,6.60163140296936,False
14,8120,8126,8157,8096,8174,8199,8204,8208,8192,8180,8135,8158,8151,8230,6.609496831893921,False
15,8113,8117,8155,8111,8175,8189,8191,8187,8185,8168,8142,8153,8141,8218,6.617557525634766,False
16,8116,8107,8182,8114,8196,8202,8189,8186,8184,8168,8155,8161,8147,8234,6.625524520874023,False
17,8111,8119,8146,8101,8189,8200,8193,8179,8199,8165,8167,8164,8154,8252,6.63361382484436,False
18,8101,8142,8186,8096,8225,8171,8172,8193,8184,8158,8140,8159,8127,8226,6.640810012817383,False
19,8097,8111,8175,8109,8167,8163,8181,8187,8158,8159,8119,8154,8121,8215,6.648635625839233,False
20,8109,8101,8129,8124,8139,8183,8212,8173,8165,8157,8135,8154,8144,8243,6.65654730796814,False
21,8115,8123,8163,8108,8195,8186,8210,8188,8177,8162,8143,8162,8145,8252,6.664643526077271,False
22,8099,8109,8149,8093,8178,8179,8211,8185,8173,8168,8130,8157,8139,8245,6.672625780105591,False
23,8116,8124,8183,8130,8184,8197,8226,8191,8172,8159,8124,8165,8135,8246,6.680682897567749,False
24,8131,8143,8191,8158,8174,8202,8224,8191,8181,8160,8134,8175,8138,8252,6.688633680343628,False
25,8110,8119,8151,8137,8176,8185,8214,8177,8178,8164,8138,8161,8146,8243,6.696734189987183,False
26,8110,8106,8169,8137,8206,8191,8216,8187,8182,8163,8150,8165,8161,8237,6.703538417816162,False
27,8122,8110,8151,8164,8175,8202,8229,8188,8209,8172,8169,8174,8183,8248,6.711615085601807,False
28,8132,8131,8179,8161,8196,8202,8235,8201,8215,8186,8166,8173,8187,8250,6.719599723815918,False
29,8144,8139,8183,8152,8180,8203,8244,8211,8220,8190,8182,8174,8195,8268,6.72766900062561,False
30,8164,8146,8172,8173,8183,8213,8239,8207,8232,8194,8196,8170,8208,8288,6.735485792160034,False
31,8179,8160,8223,8182,8232,8215,8209,8197,8204,8181,8167,8175,8185,8271,6.7435622215271,False
32,8149,8137,8152,8160,8170,8201,8197,8151,8167,8162,8151,8168,8162,8244,6.751546621322632,False
33,8133,8139,8156,8150,8186,8198,8183,8147,8156,8165,8152,8154,8155,8228,6.759598970413208,False
34,8156,8151,8218,8177,8196,8197,8179,8173,8162,8175,8149,8161,8160,8230,6.767489433288574,False
35,8166,8148,8163,8198,8145,8171,8209,8172,8184,8177,8155,8164,8178,8258,6.774609327316284,False
36,8170,8162,8154,8168,8163,8162,8232,8185,8195,8179,8162,8163,8183,8270,6.782641172409058,False
37,8168,8151,8153,8136,8150,8188,8240,8192,8188,8186,8161,8161,8177,8255,6.790805339813232,False
38,8154,8137,8167,8139,8174,8196,8230,8185,8177,8180,8152,8159,8164,8241,6.798556566238403,False
39,8132,8137,8163,8145,8184,8174,8214,8168,8177,8166,8161,8164,8162,8249,6.806661367416382,False
40,8117,8133,8132,8128,8170,8167,8201,8150,8171,8159,8177,8155,8169,8253,6.814867496490479,False
41,8141,8132,8193,8128,8209,8160,8185,8161,8139,8155,8173,8159,8160,8246,6.822751760482788,False
42,8158,8131,8183,8144,8176,8149,8187,8152,8133,8159,8172,8167,8164,8264,6.830626010894775,False
43,8151,8149,8168,8145,8178,8166,8187,8145,8151,8160,8169,8161,8159,8270,6.837692499160767,False
44,8148,8150,8192,8141,8196,8167,8170,8155,8148,8151,8161,8162,8133,8248,6.845635652542114,False
45,8150,8134,8152,8151,8159,8142,8167,8152,8146,8160,8176,8161,8140,8247,6.853798389434815,False
46,8176,8161,8194,8171,8194,8165,8184,8185,8168,8178,8202,8182,8181,8277,6.86161208152771,False
47,8187,8166,8194,8172,8196,8190,8197,8199,8197,8174,8204,8196,8200,8301,6.869621515274048,False
48,8174,8145,8159,8161,8190,8169,8174,8170,8194,8163,8182,8172,8171,8281,6.877680540084839,False
49,8184,8155,8187,8164,8183,8160,8156,8160,8172,8163,8182,8170,8157,8265,6.885668516159058,False
50,8194,8160,8175,8162,8171,8175,8175,8166,8167,8165,8188,8180,8178,8280,6.893690347671509,False
51,8191,8155,8194,8163,8219,8185,8189,8186,8181,8171,8174,8184,8178,8283,6.900795221328735,False
52,8188,8147,8172,8173,8171,8201,8199,8186,8214,8176,8180,8180,8175,8285,6.908793449401856,False
53,8189,8154,8156,8165,8154,8213,8200,8176,8213,8165,8184,8166,8179,8285,6.916809797286987,False
54,8184,8151,8188,8141,8202,8194,8181,8175,8177,8155,8169,8166,8161,8271,6.924743175506592,False
55,8164,8135,8146,8129,8173,8184,8184,8165,8180,8166,8170,8159,8151,8262,6.9326252937316895,False
56,8166,8152,8177,8139,8196,8205,8195,8190,8200,8177,8171,8158,8153,8253,6.94075083732605,False
57,8170,8142,8179,8148,8180,8197,8195,8192,8200,8171,8173,8169,8164,8253,6.948592185974121,False
58,8156,8132,8144,8138,8162,8169,8188,8166,8188,8157,8175,8165,8169,8265,6.956602096557617,False
59,8160,8167,8184,8141,8211,8176,8181,8178,8190,8163,8171,8164,8165,8264,6.964678287506104,False
60,8173,8175,8158,8156,8198,8191,8179,8170,8202,8175,8165,8159,8169,8250,6.971583843231201,False
61,8173,8169,8179,8144,8202,8177,8154,8159,8185,8162,8151,8171,8152,8243,6.979679346084595,False
62,8166,8157,8212,8134,8178,8160,8138,8168,8172,8159,8162,8195,8153,8265,6.987707376480103,False
63,8174,8154,8167,8157,8157,8160,8147,8165,8179,8174,8179,8179,8182,8280,6.995631456375122,False
64,8180,8158,8143,8151,8167,8154,8143,8152,8160,8165,8156,8158,8172,8255,7.003645181655884,False
65,8166,8141,8126,8119,8139,8145,8136,8129,8135,8144,8135,8160,8145,8251,7.01154088973999,False
66,8170,8154,8203,8135,8206,8161,8143,8154,8134,8146,8149,8178,8143,8280,7.019721269607544,False
67,8166,8166,8204,8162,8206,8180,8161,8176,8154,8163,8173,8181,8164,8283,7.0275819301605225,False
68,8151,8166,8139,8160,8156,8163,8162,8158,8170,8163,8166,8151,8161,8249,7.034566879272461,False
69,8173,8185,8191,8167,8184,8168,8157,8179,8172,8156,8149,8160,8143,8241,7.042640209197998,False
70,8180,8167,8159,8175,8151,8199,8169,8186,8192,8172,8172,8182,8170,8282,7.050660371780396,False
71,8160,8152,8159,8168,8178,8197,8160,8170,8194,8185,8178,8171,8184,8281,7.058800220489502,False
72,8163,8155,8199,8174,8191,8171,8149,8161,8161,8174,8151,8167,8158,8249,7.066780090332031,False
73,8179,8165,8153,8185,8161,8172,8163,8145,8145,8162,8151,8167,8151,8250,7.074734687805176,False
74,8175,8188,8179,8172,8213,8193,8167,8154,8153,8159,8159,8173,8155,8253,7.0827507972717285,False
75,8128,8170,8156,8159,8187,8194,8172,8150,8160,8155,8151,8165,8151,8245,7.090843915939331,False
76,8127,8157,8146,8165,8181,8186,8172,8154,8156,8154,8140,8155,8138,8249,7.098673582077026,False
77,8187,8163,8191,8165,8218,8167,8159,8173,8163,8162,8157,8186,8140,8277,7.105844736099243,False
78,8194,8153,8170,8159,8210,8149,8155,8172,8175,8174,8179,8197,8156,8294,7.1136696338653564,False
79,8169,8158,8168,8163,8196,8168,8161,8180,8172,8178,8179,8183,8163,8277,7.121672868728638,False
80,8166,8161,8142,8164,8152,8181,8168,8162,8166,8173,8171,8168,8164,8262,7.129645109176636,False
81,8177,8168,8184,8162,8204,8170,8156,8156,8159,8172,8157,8178,8161,8266,7.137866497039795,False
82,8190,8162,8235,8161,8225,8179,8155,8179,8162,8174,8174,8215,8182,8302,7.14564323425293,False
83,8180,8136,8152,8155,8148,8192,8180,8164,8176,8164,8197,8200,8203,8319,7.153684616088867,False
84,8159,8145,8137,8157,8166,8178,8174,8153,8164,8159,8169,8158,8166,8273,7.1616504192352295,False
85,8141,8162,8156,8169,8184,8156,8143,8149,8154,8163,8129,8149,8116,8236,7.168944835662842,False
86,8149,8159,8174,8158,8193,8160,8128,8153,8164,8157,8131,8169,8111,8248,7.176724910736084,False
87,8168,8150,8200,8133,8186,8161,8127,8166,8159,8157,8168,8189,8141,8269,7.184793710708618,False
88,8143,8149,8149,8141,8138,8135,8125,8148,8148,8166,8180,8167,8151,8259,7.192838668823242,False
89,8107,8164,8154,8168,8172,8130,8131,8147,8143,8154,8152,8148,8123,8220,7.200875520706177,False
90,8105,8155,8162,8157,8176,8159,8158,8159,8148,8143,8150,8165,8122,8212,7.208739519119263,False
91,8118,8138,8142,8125,8167,8175,8162,8167,8155,8156,8168,8170,8147,8238,7.216760635375977,False
92,8128,8138,8165,8124,8193,8159,8137,8184,8161,8166,8163,8158,8147,8246,7.224586486816406,False
93,8147,8145,8160,8141,8166,8147,8142,8183,8170,8159,8169,8161,8146,8251,7.231552124023437,False
94,8178,8187,8213,8159,8195,8165,8162,8195,8166,8159,8176,8189,8150,8264,7.239769697189331,False
95,8187,8195,8211,8183,8191,8184,8180,8204,8173,8168,8188,8198,8169,8284,7.247628927230835,False
96,8177,8159,8132,8181,8158,8187,8187,8185,8193,8169,8211,8175,8191,8299,7.255721092224121,False
97,8168,8151,8149,8156,8182,8176,8174,8166,8175,8160,8202,8173,8169,8288,7.263665676116943,False
98,8163,8162,8154,8162,8173,8149,8166,8151,8153,8160,8190,8183,8154,8278,7.2715466022491455,False
99,8194,8185,8216,8199,8218,8142,8161,8190,8162,8169,8210,8199,8179,8293,7.279704570770264,False
100,8211,8173,8241,8202,8209,8166,8166,8217,8174,8172,8226,8210,8194,8303,7.287772655487059,False
101,8163,8150,8140,8170,8146,8168,8166,8170,8166,8175,8206,8179,8167,8275,7.295581579208374,False
102,8132,8162,8126,8157,8178,8158,8158,8148,8156,8179,8202,8165,8151,8253,7.302588701248169,False
103,8135,8150,8133,8164,8181,8165,8165,8152,8162,8174,8218,8170,8172,8266,7.3107991218566895,False
104,8135,8150,8160,8167,8197,8175,8160,8160,8162,8169,8199,8160,8170,8259,7.318743944168091,False
105,8130,8157,8159,8153,8169,8171,8151,8157,8149,8171,8181,8158,8158,8246,7.326802015304565,False
106,8130,8134,8130,8132,8161,8159,8158,8150,8140,8161,8181,8155,8159,8250,7.334768295288086,False
107,8149,8145,8224,8136,8245,8161,8162,8186,8145,8152,8176,8163,8154,8251,7.342830657958984,False
108,8147,8157,8202,8157,8180,8158,8170,8186,8163,8165,8188,8167,8167,8256,7.3507750034332275,False
109,8127,8150,8113,8163,8114,8146,8170,8155,8163,8168,8191,8155,8171,8254,7.358829736709595,False
110,8128,8153,8144,8165,8159,8145,8163,8160,8161,8163,8189,8163,8160,8250,7.36574649810791,False
111,8138,8155,8175,8165,8186,8155,8168,8176,8168,8165,8205,8170,8173,8259,7.373563289642334,False
112,8132,8143,8173,8139,8188,8141,8152,8171,8142,8160,8192,8161,8167,8245,7.381681680679321,False
113,8124,8134,8137,8130,8148,8119,8135,8150,8132,8159,8175,8162,8153,8237,7.389673948287964,False
114,8141,8160,8173,8155,8176,8135,8146,8161,8147,8160,8177,8174,8161,8258,7.39765739440918,False
115,8145,8155,8188,8151,8181,8148,8153,8165,8139,8155,8176,8170,8162,8258,7.405672788619995,False
116,8111,8119,8114,8122,8146,8128,8149,8136,8126,8155,8171,8145,8150,8230,7.41355562210083,False
117,8112,8139,8183,8138,8208,8131,8147,8168,8127,8162,8178,8164,8150,8225,7.421679019927978,False
118,8141,8147,8198,8167,8176,8162,8159,8197,8155,8171,8201,8187,8172,8257,7.4296183586120605,False
119,8149,8138,8155,8154,8162,8167,8157,8185,8174,8171,8199,8168,8172,8261,7.436830997467041,False
120,8140,8143,8173,8144,8179,8146,8145,8183,8171,8158,8189,8166,8164,8243,7.444820404052734,False
121,8125,8144,8146,8159,8153,8153,8155,8176,8178,8169,8203,8170,8181,8245,7.452702760696411,False
122,8149,8183,8272,8160,8270,8197,8160,8218,8171,8188,8206,8185,8172,8246,7.460818767547607,False
123,8165,8152,8258,8139,8226,8200,8170,8209,8164,8177,8204,8194,8168,8256,7.468837261199951,False
124,8136,8094,8119,8123,8130,8175,8168,8155,8168,8160,8195,8166,8165,8254,7.476717233657837,False
125,8138,8135,8198,8130,8195,8189,8159,8176,8163,8166,8179,8168,8144,8241,7.484623670578003,False
126,8134,8152,8178,8138,8165,8187,8168,8171,8155,8164,8182,8169,8148,8248,7.491466760635376,False
127,8115,8127,8143,8130,8161,8160,8151,8151,8141,8155,8190,8161,8150,8245,7.499623537063599,False
236,8123,8128,8188,8121,8172,8163,8131,8164,8139,8161,8208,8172,8150,8242,7.507671594619751,False
0,8138,8139,8155,8124,8139,8169,8135,8153,8145,8161,8217,8167,8159,8252,7.515793800354004,False
1,8150,8131,8127,8135,8143,8148,8134,8134,8135,8155,8200,8160,8159,8254,7.523571491241455,False
2,8160,8132,8151,8140,8162,8145,8129,8132,8133,8163,8200,8168,8160,8263,7.53166389465332,False
3,8159,8161,8171,8143,8165,8167,8130,8141,8141,8152,8218,8172,8160,8267,7.539782285690308,False
4,8142,8142,8091,8155,8109,8162,8134,8118,8143,8145,8219,8155,8165,8250,7.547506809234619,False
5,8142,8135,8144,8158,8184,8158,8126,8142,8135,8165,8202,8155,8167,8232,7.555814743041992,False
6,8162,8172,8308,8148,8280,8184,8123,8221,8131,8172,8199,8186,8165,8246,7.562608003616333,False
7,8153,8161,8200,8146,8144,8171,8147,8208,8156,8172,8230,8183,8192,8278,7.570664167404175,False
8,8142,8135,8045,8161,8057,8159,8168,8160,8182,8186,8248,8162,8230,8288,7.578830003738403,False
9,8145,8132,8112,8163,8143,8192,8173,8180,8182,8181,8227,8163,8218,8268,7.586769580841064,False
10,8137,8135,8195,8147,8194,8195,8165,8203,8169,8159,8190,8151,8167,8229,7.594823598861694,False
11,8133,8140,8172,8139,8159,8158,8147,8185,8165,8158,8180,8149,8150,8215,7.602787971496582,False
12,8145,8137,8121,8145,8124,8144,8147,8160,8164,8168,8195,8166,8168,8248,7.610824346542358,False
13,8176,8157,8216,8159,8216,8157,8146,8185,8141,8156,8186,8180,8150,8269,7.618757247924805,False
14,8196,8169,8265,8165,8211,8156,8134,8193,8114,8145,8176,8185,8134,8267,7.625622034072876,False
15,8179,8148,8129,8163,8104,8137,8143,8138,8118,8142,8178,8162,8144,8260,7.63375973701477,False
16,8171,8157,8116,8161,8176,8136,8154,8130,8125,8132,8165,8145,8129,8244,7.641891717910767,False
17,8182,8165,8182,8160,8248,8147,8152,8145,8111,8134,8165,8159,8122,8244,7.649714946746826,False
18,8181,8149,8161,8159,8218,8132,8146,8127,8093,8145,8180,8168,8143,8262,7.657618284225464,False
19,8164,8138,8161,8147,8224,8115,8144,8132,8093,8139,8178,8169,8151,8269,7.665592193603516,False
20,8146,8129,8170,8133,8238,8133,8153,8154,8103,8137,8172,8170,8154,8271,7.673584938049316,False
21,8144,8135,8166,8135,8225,8147,8158,8160,8108,8147,8177,8174,8165,8278,7.6817626953125,False
22,8147,8139,8139,8147,8184,8123,8147,8147,8116,8153,8188,8176,8171,8287,7.689829111099243,False
23,8156,8146,8172,8154,8222,8096,8121,8160,8121,8156,8188,8172,8172,8278,7.696772575378418,False
24,8164,8153,8202,8159,8246,8101,8111,8180,8132,8156,8186,8176,8178,8261,7.704768896102905,False
25,8154,8144,8141,8160,8209,8124,8118,8169,8143,8151,8186,8175,8178,8266,7.712743520736694,False
26,8164,8145,8197,8150,8264,8126,8110,8188,8129,8150,8167,8178,8151,8266,7.720810890197754,False
27,8182,8146,8211,8140,8248,8107,8124,8193,8141,8155,8158,8178,8141,8262,7.728712558746338,True
28,8175,8151,8126,8139,8198,8117,8145,8167,8170,8150,8164,8166,8146,8266,7.736632585525513,True
29,8163,8143,8145,8134,8232,8136,8132,8168,8149,8141,8153,8157,8130,8247,7.744643449783325,True
30,8140,8114,8135,8118,8229,8117,8119,8158,8125,8139,8143,8145,8126,8218,7.752687215805054,True
31,8134,8132,8153,8124,8253,8112,8123,8163,8131,8150,8151,8158,8134,8219,7.7596564292907715,True
32,8161,8153,8178,8158,8233,8140,8142,8172,8147,8161,8176,8181,8148,8248,7.7677834033966064,True
33,8174,8151,8162,8167,8219,8150,8153,8161,8156,8159,8188,8173,8162,8258,7.775575160980225,True
34,8165,8158,8192,8148,8254,8129,8136,8161,8144,8153,8176,8169,8158,8245,7.783616542816162,True
35,8152,8145,8165,8137,8219,8115,8130,8149,8137,8150,8167,8168,8153,8241,7.791557312011719,True
36,8157,8133,8166,8139,8237,8119,8140,8157,8138,8150,8169,8167,8148,8247,7.799473524093628,True
37,8160,8133,8167,8143,8243,8112,8147,8169,8144,8161,8186,8178,8163,8274,7.807479619979858,True
38,8154,8147,8144,8161,8232,8107,8141,8167,8156,8164,8194,8171,8184,8285,7.815659761428833,True
39,8155,8156,8186,8157,8256,8106,8137,8180,8155,8163,8185,8167,8171,8255,7.822754144668579,True
40,8151,8126,8164,8136,8213,8090,8147,8175,8159,8166,8192,8166,8157,8246,7.830756425857544,True
41,8174,8154,8189,8152,8238,8098,8150,8192,8172,8162,8197,8172,8166,8274,7.838630676269531,True
42,8199,8188,8191,8175,8238,8125,8157,8202,8194,8161,8194,8187,8183,8299,7.846834659576416,True
43,8189,8166,8151,8166,8227,8125,8164,8174,8200,8170,8184,8168,8181,8285,7.854599952697754,True
44,8193,8169,8258,8161,8322,8127,8155,8200,8177,8167,8178,8173,8160,8256,7.862775087356567,True
45,8185,8156,8210,8165,8262,8140,8169,8202,8181,8166,8198,8191,8174,8265,7.870800495147705,True
46,8162,8145,8086,8168,8187,8145,8193,8159,8201,8177,8209,8171,8200,8286,7.878743886947632,True
47,8170,8159,8156,8161,8256,8142,8189,8170,8198,8177,8193,8168,8192,8283,7.886782884597778,True
48,8168,8150,8206,8132,8278,8129,8182,8190,8177,8161,8177,8173,8173,8267,7.893813848495483,True
49,8156,8142,8167,8125,8224,8112,8178,8176,8161,8154,8175,8173,8178,8263,7.901609897613525,True
50,8158,8132,8100,8146,8168,8113,8168,8143,8162,8162,8186,8165,8201,8282,7.909581661224365,True
51,8174,8143,8179,8141,8265,8129,8139,8161,8156,8162,8171,8163,8182,8280,7.917831897735596,True
52,8182,8153,8250,8121,8288,8128,8121,8191,8148,8159,8160,8178,8152,8262,7.925794124603271,True
53,8168,8142,8133,8127,8172,8118,8145,8169,8165,8176,8184,8171,8170,8267,7.933778285980225,True
54,8176,8156,8147,8151,8227,8122,8151,8181,8179,8184,8186,8168,8185,8270,7.941681385040283,True
55,8194,8161,8200,8164,8264,8118,8141,8198,8187,8173,8168,8174,8181,8263,7.949709415435791,True
56,8185,8156,8142,8162,8205,8112,8150,8175,8199,8171,8176,8162,8182,8257,7.956793785095215,True
57,8178,8166,8152,8159,8222,8120,8153,8168,8192,8173,8191,8168,8190,8251,7.964712381362915,True
58,8182,8167,8191,8167,8259,8129,8145,8168,8175,8174,8182,8177,8198,8251,7.972858190536499,True
59,8183,8154,8199,8167,8261,8127,8135,8163,8163,8174,8165,8165,8189,8248,7.980571746826172,True
60,8168,8140,8133,8155,8187,8123,8138,8144,8168,8170,8180,8157,8191,8251,7.988729000091553,True
61,8164,8159,8148,8158,8209,8133,8139,8154,8176,8170,8193,8163,8204,8252,7.996594429016113,True
62,8176,8166,8217,8158,8257,8139,8142,8185,8166,8172,8176,8170,8200,8251,8.004716873168945,True
63,8173,8142,8145,8156,8207,8122,8160,8176,8168,8172,8167,8161,8209,8270,8.012553215026855,True
64,8174,8167,8173,8167,8255,8117,8156,8195,8169,8167,8151,8159,8211,8269,8.019649505615234,True
65,8159,8169,8202,8162,8240,8132,8159,8207,8163,8163,8133,8160,8189,8252,8.027608394622803,True
66,8142,8132,8120,8148,8181,8140,8180,8177,8177,8168,8138,8148,8188,8257,8.035654783248901,True
67,8176,8157,8181,8171,8249,8149,8184,8193,8190,8182,8143,8163,8194,8264,8.043575286865234,True
68,8193,8171,8208,8187,8236,8144,8171,8196,8182,8181,8134,8172,8183,8260,8.051647663116455,True
69,8176,8153,8160,8166,8191,8117,8150,8170,8166,8161,8137,8164,8173,8260,8.059571027755737,True
70,8180,8163,8152,8186,8186,8108,8152,8164,8178,8172,8171,8178,8198,8277,8.067593574523926,True
71,8201,8202,8181,8238,8219,8121,8162,8173,8190,8183,8188,8182,8214,8283,8.075564622879028,True
72,8225,8235,8228,8261,8258,8129,8145,8179,8183,8166,8198,8195,8213,8278,8.083581447601318,True
73,8249,8238,8193,8282,8218,8117,8126,8151,8180,8173,8230,8217,8246,8308,8.090527296066284,True
74,8262,8240,8218,8303,8244,8101,8116,8143,8156,8190,8220,8219,8249,8330,8.098553895950317,True
75,8243,8214,8231,8281,8237,8096,8119,8142,8133,8177,8193,8216,8227,8332,8.106801509857178,True
76,8217,8186,8166,8244,8195,8114,8136,8128,8131,8179,8197,8203,8243,8333,8.11480188369751,True
77,8201,8188,8219,8217,8260,8114,8135,8154,8101,8194,8183,8196,8236,8304,8.122745990753174,True
78,8162,8157,8186,8192,8215,8085,8145,8163,8101,8177,8160,8181,8199,8264,8.130767345428467,True
79,8166,8158,8148,8203,8170,8101,8171,8168,8146,8164,8180,8182,8199,8271,8.138781785964966,True
80,8222,8188,8206,8242,8182,8128,8170,8184,8156,8186,8218,8225,8236,8320,8.146820545196533,True
81,8236,8192,8187,8252,8174,8112,8158,8170,8145,8189,8224,8231,8250,8347,8.154580116271973,True
82,8227,8209,8208,8245,8231,8112,8155,8181,8149,8176,8200,8209,8223,8334,8.161791324615479,True
83,8218,8197,8197,8247,8217,8124,8147,8176,8155,8186,8193,8200,8216,8320,8.169768810272217,True
84,8193,8172,8150,8238,8185,8107,8123,8141,8141,8185,8190,8191,8216,8301,8.177649736404419,True
85,8175,8182,8146,8224,8175,8096,8115,8129,8129,8166,8178,8180,8206,8276,8.185768604278564,True
86,8190,8206,8163,8248,8182,8108,8122,8142,8137,8171,8186,8181,8217,8280,8.193792343139648,True
87,8246,8227,8226,8290,8230,8127,8120,8171,8166,8192,8217,8219,8254,8321,8.20186734199524,True
88,8272,8220,8182,8286,8193,8136,8133,8165,8194,8204,8239,8232,8296,8361,8.20981740951538,True
89,8251,8227,8168,8260,8222,8141,8135,8167,8173,8202,8207,8199,8282,8350,8.217792749404907,True
90,8239,8231,8228,8253,8249,8150,8126,8203,8163,8201,8169,8189,8245,8329,8.224792718887329,True
91,8224,8195,8148,8228,8162,8143,8130,8186,8202,8201,8169,8176,8244,8324,8.232738971710205,False
92,8202,8189,8129,8189,8183,8131,8121,8164,8194,8191,8159,8154,8227,8305,8.240806341171265,False
93,8178,8199,8174,8181,8214,8122,8119,8164,8153,8178,8127,8150,8194,8282,8.248778820037842,False
94,8151,8186,8148,8176,8193,8101,8125,8153,8149,8172,8097,8137,8172,8259,8.256770849227905,False
95,8140,8159,8130,8143,8192,8094,8131,8141,8149,8166,8088,8127,8152,8240,8.264766454696655,False
96,8129,8129,8109,8130,8173,8115,8146,8135,8143,8168,8113,8131,8154,8247,8.272818088531494,False
97,8129,8147,8147,8153,8187,8132,8152,8159,8146,8176,8147,8150,8184,8268,8.280791997909546,False
98,8168,8169,8148,8175,8163,8136,8154,8161,8159,8172,8177,8175,8221,8305,8.28781270980835,False
99,8222,8181,8176,8184,8202,8149,8149,8167,8168,8164,8177,8182,8221,8332,8.295650720596313,False
100,8242,8208,8273,8191,8264,8142,8122,8207,8165,8180,8148,8187,8197,8311,8.303580522537231,False
101,8207,8203,8164,8202,8159,8106,8113,8174,8160,8197,8149,8167,8199,8280,8.3115816116333,False
102,8187,8192,8098,8203,8143,8098,8119,8138,8152,8179,8155,8152,8194,8269,8.319798707962036,False
103,8203,8183,8182,8186,8203,8117,8119,8157,8145,8159,8141,8167,8176,8283,8.327695369720459,False
104,8202,8169,8180,8167,8187,8120,8132,8165,8141,8168,8140,8168,8179,8296,8.335816383361816,False
105,8191,8170,8153,8161,8174,8112,8151,8171,8136,8180,8155,8172,8191,8295,8.34382176399231,False
106,8168,8156,8131,8164,8156,8107,8154,8178,8141,8169,8152,8171,8190,8288,8.35081958770752,False
107,8142,8159,8170,8158,8192,8111,8156,8199,8153,8156,8121,8145,8158,8252,8.358729839324951,False
108,8125,8161,8173,8139,8165,8128,8184,8204,8180,8163,8108,8129,8135,8221,8.366822481155396,False
109,8115,8138,8108,8128,8118,8141,8196,8178,8210,8177,8118,8127,8150,8229,8.374762535095215,False
110,8122,8135,8150,8136,8176,8123,8166,8174,8198,8178,8114,8136,8150,8239,8.382684707641602,False
111,8126,8144,8160,8133,8157,8098,8151,8162,8172,8169,8127,8144,8141,8242,8.390801906585693,False
112,8136,8164,8156,8124,8138,8120,8155,8168,8164,8165,8156,8157,8162,8260,8.398844957351685,False
113,8151,8170,8180,8137,8154,8143,8155,8191,8172,8172,8165,8171,8180,8280,8.405579328536987,False
114,8150,8159,8157,8156,8143,8118,8148,8173,8171,8170,8152,8162,8167,8273,8.414611339569092,False
115,8165,8172,8193,8161,8173,8102,8131,8165,8156,8158,8152,8168,8153,8264,8.421488285064697,False
116,8186,8178,8178,8171,8144,8108,8136,8164,8159,8173,8178,8184,8184,8292,8.429571390151978,False
117,8197,8189,8168,8187,8143,8118,8150,8166,8167,8188,8184,8185,8211,8318,8.437663078308105,False
118,8208,8202,8219,8198,8174,8134,8157,8179,8174,8179,8187,8193,8213,8319,8.445853471755981,False
119,8209,8183,8178,8200,8143,8139,8169,8182,8191,8165,8197,8188,8218,8310,8.453539609909058,False
120,8210,8187,8163,8198,8136,8118,8167,8187,8195,8163,8171,8174,8201,8289,8.461807489395142,False
121,8194,8185,8159,8183,8113,8109,8168,8171,8186,8167,8139,8166,8178,8272,8.468827724456787,False
122,8174,8159,8170,8164,8150,8113,8166,8168,8175,8159,8128,8162,8161,8268,8.47673749923706,False
123,8173,8141,8193,8158,8164,8108,8151,8179,8162,8159,8123,8166,8152,8266,8.484721660614014,False
124,8150,8128,8126,8147,8089,8098,8149,8156,8161,8162,8111,8144,8150,8248,8.492785453796387,False
125,8128,8147,8179,8136,8152,8104,8146,8166,8156,8157,8099,8137,8130,8215,8.500749349594116,False
126,8133,8154,8210,8152,8158,8114,8149,8176,8152,8157,8119,8164,8132,8230,8.508772373199463,False
127,8144,8149,8126,8171,8095,8116,8156,8154,8158,8161,8138,8165,8160,8269,8.516741037368774,False
236,8153,8151,8143,8164,8125,8128,8148,8154,8151,8163,8133,8164,8161,8267,8.524893522262573,False
0,8152,8143,8164,8157,8130,8147,8140,8152,8151,8162,8154,8172,8163,8265,8.532575130462646,False
1,8158,8151,8179,8167,8139,8149,8142,8158,8157,8158,8180,8183,8185,8285,8.54063081741333,False
2,8173,8151,8165,8174,8132,8140,8157,8167,8162,8154,8176,8186,8201,8290,8.548640966415405,False
3,8180,8164,8153,8167,8151,8152,8178,8176,8176,8170,8159,8175,8195,8276,8.555574178695679,False
4,8170,8180,8204,8163,8186,8168,8183,8193,8184,8185,8155,8177,8190,8274,8.563644170761108,False
5,8145,8153,8161,8175,8133,8149,8177,8179,8197,8187,8170,8177,8213,8290,8.57168984413147,False
6,8156,8160,8172,8180,8155,8142,8167,8185,8202,8185,8176,8177,8220,8286,8.579432010650635,False
7,8176,8176,8186,8166,8169,8147,8171,8187,8202,8179,8178,8179,8213,8280,8.587724208831787,False
8,8158,8163,8140,8159,8158,8142,8179,8160,8200,8170,8168,8161,8202,8277,8.595630407333374,False
9,8152,8169,8212,8169,8192,8140,8173,8176,8178,8158,8148,8164,8169,8250,8.603630781173706,False
10,8145,8156,8191,8161,8118,8149,8183,8171,8173,8151,8154,8165,8156,8237,8.610711812973022,False
11,8130,8136,8129,8138,8094,8161,8189,8149,8181,8150,8150,8144,8154,8239,8.618609428405762,False
12,8135,8143,8155,8141,8146,8161,8186,8163,8183,8157,8141,8155,8155,8242,8.626647472381592,False
13,8144,8169,8158,8164,8157,8153,8189,8172,8187,8160,8151,8174,8172,8258,8.634693145751953,False
14,8153,8188,8178,8166,8168,8143,8179,8168,8184,8158,8150,8176,8174,8263,8.642531871795654,False
15,8153,8174,8159,8157,8139,8145,8180,8159,8188,8163,8159,8172,8179,8263,8.650642395019531,False
16,8162,8179,8167,8168,8158,8164,8191,8177,8192,8163,8170,8177,8197,8285,8.65868592262268,False
17,8172,8180,8185,8169,8156,8168,8197,8193,8189,8157,8164,8182,8196,8301,8.666452884674072,False
18,8159,8155,8148,8144,8127,8156,8203,8182,8190,8161,8157,8162,8185,8278,8.674638509750366,False
19,8156,8170,8181,8149,8175,8156,8201,8197,8192,8175,8155,8160,8186,8257,8.681551694869995,False
20,8163,8180,8167,8175,8151,8163,8195,8202,8205,8179,8163,8173,8201,8281,8.689663648605347,False
21,8167,8175,8168,8161,8154,8168,8185,8194,8205,8167,8155,8173,8187,8290,8.69761610031128,False
22,8157,8169,8203,8132,8178,8166,8172,8185,8184,8148,8127,8168,8149,8261,8.705450773239136,False
23,8130,8150,8142,8135,8127,8149,8174,8162,8181,8145,8119,8151,8145,8250,8.713722229003906,False
24,8122,8147,8154,8136,8143,8145,8180,8170,8184,8153,8135,8157,8159,8257,8.721725940704346,False
25,8119,8129,8156,8107,8144,8167,8193,8175,8175,8147,8134,8166,8153,8258,8.729820013046265,False
26,8115,8120,8143,8101,8149,8183,8201,8171,8177,8142,8121,8151,8138,8246,8.73755145072937,False
27,8128,8143,8180,8131,8157,8171,8201,8187,8187,8156,8134,8159,8142,8244,8.744501829147339,False
28,8122,8152,8145,8132,8121,8152,8204,8181,8187,8173,8150,8163,8157,8250,8.752468585968018,False
29,8129,8158,8175,8124,8160,8157,8199,8188,8173,8158,8153,8161,8159,8247,8.76055383682251,False
30,8142,8149,8183,8140,8143,8158,8191,8181,8176,8139,8160,8162,8161,8245,8.768520593643188,False
31,8124,8145,8143,8141,8130,8138,8176,8152,8171,8145,8145,8151,8154,8237,8.776462078094482,False
32,8124,8162,8176,8144,8163,8126,8152,8152,8148,8145,8134,8160,8152,8239,8.78455376625061,False
33,8149,8156,8165,8157,8122,8118,8143,8143,8141,8141,8153,8165,8163,8258,8.79247260093689,False
34,8172,8161,8200,8148,8156,8119,8138,8155,8132,8143,8152,8169,8158,8267,8.800621032714844,False
35,8179,8176,8201,8146,8156,8132,8154,8171,8137,8147,8158,8184,8174,8284,8.808647394180298,False
36,8168,8173,8149,8155,8135,8146,8166,8167,8164,8149,8161,8169,8183,8293,8.81577754020691,False
37,8158,8160,8188,8135,8176,8139,8148,8178,8164,8149,8134,8159,8147,8264,8.823781490325928,False
38,8157,8143,8168,8126,8128,8110,8147,8165,8158,8152,8138,8168,8153,8269,8.831570863723755,False
39,8181,8174,8190,8162,8140,8105,8155,8167,8167,8159,8154,8184,8175,8301,8.839667558670044,False
40,8188,8187,8210,8170,8166,8113,8156,8178,8179,8160,8152,8192,8176,8300,8.847707271575928,False
41,8161,8147,8149,8140,8141,8098,8155,8154,8172,8146,8139,8171,8180,8284,8.855810165405273,False
42,8151,8149,8163,8133,8146,8096,8154,8157,8152,8138,8131,8164,8172,8287,8.863744020462036,False
43,8155,8169,8156,8143,8118,8113,8161,8164,8152,8146,8131,8166,8156,8286,8.87178111076355,False
44,8150,8164,8158,8133,8133,8102,8156,8157,8144,8139,8118,8155,8143,8251,8.878658533096313,False
45,8143,8142,8153,8135,8127,8095,8162,8158,8144,8136,8117,8151,8146,8236,8.886776447296143,False
46,8150,8154,8154,8159,8138,8131,8173,8166,8163,8145,8133,8155,8150,8247,8.894749879837036,False
47,8171,8185,8219,8161,8184,8149,8160,8176,8151,8147,8134,8168,8146,8244,8.902660608291626,False
48,8171,8165,8176,8150,8118,8123,8154,8147,8140,8150,8135,8172,8158,8249,8.910784482955933,False
49,8177,8170,8149,8165,8106,8111,8153,8134,8149,8143,8149,8173,8166,8269,8.91870903968811,False
50,8201,8203,8189,8174,8135,8121,8140,8149,8149,8143,8162,8190,8166,8293,8.926818609237671,False
51,8211,8198,8184,8163,8135,8119,8133,8153,8151,8156,8161,8199,8187,8314,8.934576272964478,False
52,8206,8185,8200,8168,8164,8114,8141,8173,8164,8167,8145,8198,8197,8311,8.941653490066528,False
53,8182,8172,8167,8162,8128,8109,8158,8169,8168,8165,8133,8179,8177,8295,8.949799537658691,False
54,8176,8177,8163,8134,8133,8108,8152,8158,8160,8155,8129,8164,8163,8285,8.95762038230896,False
55,8194,8172,8190,8131,8145,8112,8139,8175,8158,8163,8141,8182,8176,8298,8.966801404953003,False
56,8196,8154,8145,8147,8099,8115,8148,8178,8172,8173,8159,8179,8193,8316,8.973809003829956,False
57,8189,8167,8179,8146,8138,8099,8134,8177,8166,8158,8146,8174,8177,8301,8.981794357299805,False
58,8172,8154,8176,8139,8133,8074,8110,8151,8149,8146,8134,8181,8167,8285,8.989830255508423,False
59,8175,8158,8160,8160,8136,8102,8121,8151,8150,8160,8141,8177,8173,8291,8.997857093811035,False
60,8198,8202,8221,8188,8168,8154,8146,8190,8171,8171,8145,8183,8177,8290,9.005597114562988,False
61,8196,8199,8180,8192,8121,8155,8158,8175,8190,8163,8150,8180,8179,8285,9.012745141983032,False
62,8193,8182,8164,8194,8132,8133,8161,8160,8173,8146,8141,8173,8153,8279,9.020756006240845,False
63,8200,8180,8180,8205,8143,8125,8171,8166,8155,8136,8117,8176,8130,8275,9.02877116203308,False
64,8195,8187,8171,8200,8152,8130,8170,8164,8151,8134,8092,8169,8121,8260,9.03670048713684,False
65,8201,8195,8191,8198,8160,8134,8159,8166,8139,8130,8097,8174,8128,8259,9.04476261138916,False
66,8210,8192,8163,8221,8113,8135,8159,8157,8144,8140,8134,8181,8162,8284,9.05280613899231,False
67,8210,8206,8189,8221,8153,8136,8151,8175,8165,8164,8145,8185,8180,8298,9.06050944328308,False
68,8202,8196,8190,8191,8157,8129,8144,8181,8188,8183,8143,8187,8183,8304,9.068763732910156,False
69,8192,8173,8149,8178,8136,8124,8144,8162,8201,8189,8145,8177,8186,8310,9.075785398483276,False
70,8196,8181,8190,8190,8174,8144,8143,8189,8215,8182,8150,8189,8188,8309,9.083605527877808,False
71,8188,8183,8164,8205,8143,8151,8158,8196,8231,8183,8167,8196,8205,8316,9.091846227645874,False
72,8182,8179,8165,8208,8155,8137,8159,8177,8200,8186,8169,8187,8208,8319,9.099536895751951,False
73,8202,8171,8198,8205,8170,8148,8152,8174,8168,8177,8166,8197,8200,8322,9.107718229293823,False
74,8215,8184,8161,8224,8134,8161,8159,8167,8189,8173,8162,8195,8199,8328,9.115618705749512,False
75,8200,8208,8172,8233,8143,8146,8155,8158,8186,8180,8135,8181,8181,8311,9.123537302017212,False
76,8172,8179,8164,8195,8132,8126,8139,8138,8134,8170,8110,8163,8147,8274,9.13162398338318,False
77,8181,8178,8180,8181,8152,8133,8130,8148,8114,8146,8106,8159,8126,8248,9.139565706253052,False
78,8199,8208,8178,8218,8146,8147,8151,8163,8150,8141,8116,8167,8131,8251,9.146516799926758,False
79,8179,8195,8142,8217,8136,8147,8171,8160,8170,8146,8118,8150,8136,8255,9.154534339904783,False
80,8169,8181,8193,8194,8172,8158,8162,8182,8162,8153,8125,8153,8132,8251,9.16275668144226,False
81,8160,8167,8146,8201,8118,8145,8149,8163,8160,8164,8140,8163,8143,8251,9.170815706253052,False
82,8153,8182,8162,8203,8167,8115,8126,8148,8140,8172,8132,8162,8138,8235,9.178802728652954,False
83,8171,8193,8236,8190,8194,8130,8119,8169,8140,8170,8137,8174,8145,8247,9.186774492263794,False
84,8174,8155,8142,8180,8108,8140,8137,8156,8176,8163,8159,8169,8180,8292,9.19481348991394,False
85,8173,8166,8158,8175,8178,8117,8129,8160,8178,8162,8146,8172,8175,8292,9.202780961990356,False
86,8177,8195,8195,8184,8189,8128,8132,8171,8176,8170,8144,8186,8168,8276,9.209530115127563,False
87,8175,8197,8159,8202,8143,8165,8159,8175,8191,8173,8161,8183,8184,8290,9.217708826065063,False
88,8187,8180,8178,8202,8166,8166,8161,8187,8185,8172,8160,8192,8190,8308,9.22581911087036,False
89,8191,8168,8164,8186,8162,8142,8153,8172,8167,8170,8161,8190,8193,8313,9.233813285827637,False
90,8179,8188,8155,8176,8159,8138,8154,8161,8157,8163,8157,8171,8184,8297,9.241782665252686,False
91,8171,8188,8147,8176,8141,8155,8168,8160,8177,8166,8143,8158,8171,8275,9.249879360198976,False
92,8169,8184,8171,8182,8165,8175,8175,8174,8194,8172,8143,8155,8163,8264,9.257847547531128,False
93,8162,8177,8181,8191,8170,8177,8179,8192,8195,8169,8164,8164,8171,8273,9.265811204910278,False
94,8161,8181,8139,8203,8142,8183,8192,8186,8212,8173,8178,8162,8196,8287,9.273699522018433,False
95,8176,8217,8207,8203,8194,8189,8186,8192,8207,8183,8152,8159,8178,8259,9.280647277832031,False
96,8156,8198,8204,8197,8176,8184,8177,8178,8173,8181,8130,8155,8145,8221,9.288761854171751,False
97,8134,8166,8132,8210,8140,8182,8171,8143,8155,8161,8132,8149,8149,8223,9.296802997589111,False
98,8161,8191,8163,8223,8151,8171,8154,8137,8152,8152,8143,8162,8167,8254,9.30480694770813,False
99,8178,8206,8173,8218,8136,8157,8153,8144,8159,8170,8163,8169,8179,8280,9.312575340270996,False
100,8180,8200,8207,8203,8178,8170,8165,8176,8172,8182,8163,8179,8175,8279,9.320799112319946,False
101,8180,8184,8194,8188,8157,8168,8172,8180,8174,8163,8145,8183,8164,8277,9.328886032104492,False
102,8173,8184,8150,8189,8127,8158,8171,8158,8164,8143,8135,8160,8146,8276,9.336706638336182,False
103,8179,8197,8201,8201,8161,8170,8178,8179,8165,8152,8150,8171,8146,8269,9.34368634223938,False
104,8175,8164,8165,8192,8105,8160,8193,8180,8182,8169,8176,8179,8171,8271,9.351741790771484,False
105,8167,8153,8137,8192,8105,8151,8187,8170,8186,8170,8164,8155,8161,8268,9.359833002090454,False
106,8164,8176,8160,8211,8146,8174,8173,8170,8177,8163,8156,8156,8146,8260,9.36787486076355,False
107,8160,8189,8167,8218,8163,8178,8158,8167,8173,8168,8182,8175,8166,8260,9.375804901123049,False
108,8183,8203,8224,8226,8190,8172,8147,8195,8178,8183,8199,8199,8194,8279,9.383807897567747,False
109,8190,8200,8187,8226,8144,8179,8160,8190,8182,8182,8198,8205,8210,8307,9.391778469085692,False
110,8173,8192,8150,8189,8138,8175,8163,8160,8155,8166,8180,8191,8196,8300,9.399804830551147,False
111,8179,8189,8168,8172,8144,8155,8161,8150,8128,8167,8162,8183,8182,8284,9.40785002708435,False
112,8183,8193,8160,8191,8144,8149,8178,8156,8131,8170,8144,8174,8183,8285,9.414689302444458,False
113,8151,8180,8192,8178,8177,8158,8193,8179,8136,8157,8131,8171,8173,8273,9.422613143920898,False
114,8124,8139,8162,8152,8129,8161,8209,8178,8153,8167,8155,8171,8174,8262,9.430799007415771,False
115,8140,8150,8145,8178,8128,8168,8213,8175,8172,8183,8179,8171,8185,8257,9.4387788772583,False
116,8154,8182,8176,8203,8153,8164,8193,8177,8170,8166,8182,8188,8187,8250,9.446808338165283,False
117,8153,8180,8175,8198,8129,8145,8171,8173,8168,8164,8191,8193,8188,8252,9.454748392105104,False
118,8173,8188,8209,8210,8151,8131,8150,8188,8169,8182,8209,8203,8198,8274,9.462536811828612,False
119,8189,8188,8172,8225,8130,8124,8134,8173,8183,8177,8238,8214,8234,8313,9.469640970230104,False
120,8210,8198,8202,8225,8168,8132,8121,8166,8190,8170,8246,8223,8254,8331,9.477748394012451,False
121,8234,8207,8276,8234,8194,8147,8117,8182,8178,8187,8236,8242,8244,8326,9.485638618469238,False
122,8221,8194,8183,8258,8109,8150,8140,8154,8177,8196,8234,8231,8252,8328,9.493717670440674,False
123,8213,8210,8156,8271,8125,8151,8155,8147,8178,8179,8228,8210,8257,8329,9.501761198043823,False
124,8215,8210,8177,8251,8145,8149,8152,8164,8182,8179,8223,8209,8247,8328,9.50956416130066,False
125,8207,8196,8179,8224,8152,8154,8152,8178,8188,8189,8222,8211,8240,8324,9.517660856246948,False
126,8207,8197,8220,8222,8167,8177,8166,8201,8190,8180,8211,8208,8236,8322,9.525620460510254,False
127,8190,8168,8174,8214,8127,8184,8186,8196,8206,8177,8196,8188,8228,8317,9.533677339553831,False
236,8165,8158,8158,8197,8138,8158,8178,8191,8204,8183,8177,8170,8205,8285,9.54070806503296,True
0,8155,8154,8149,8189,8103,8136,8165,8169,8181,8172,8169,8160,8185,8267,9.548759937286375,True
1,8167,8147,8141,8179,8099,8147,8173,8151,8172,8155,8177,8165,8181,8294,9.556638240814207,True
2,8190,8162,8184,8178,8153,8175,8176,8172,8191,8159,8186,8181,8192,8309,9.564518928527832,True
3,8178,8170,8146,8186,8122,8175,8158,8171,8216,8169,8180,8161,8193,8287,9.572760343551636,True
4,8172,8178,8172,8179,8145,8149,8133,8179,8216,8163,8169,8154,8176,8277,9.580658435821531,True
5,8187,8172,8205,8171,8151,8132,8144,8191,8216,8158,8179,8177,8183,8290,9.588573932647703,True
6,8179,8165,8160,8183,8123,8153,8170,8184,8232,8170,8191,8171,8198,8282,9.596623659133911,True
7,8175,8169,8159,8191,8131,8190,8176,8190,8241,8191,8196,8169,8200,8283,9.60348391532898,True
8,8198,8173,8147,8189,8124,8172,8171,8171,8218,8186,8203,8178,8209,8319,9.61141562461853,True
9,8214,8196,8208,8180,8180,8128,8139,8160,8163,8161,8175,8172,8187,8307,9.619750499725342,True
10,8198,8187,8221,8169,8156,8123,8115,8155,8139,8157,8157,8175,8164,8276,9.627638578414915,True
11,8202,8178,8152,8179,8087,8127,8121,8136,8154,8160,8179,8179,8177,8305,9.63575530052185,True
12,8238,8193,8169,8183,8111,8113,8129,8147,8151,8156,8189,8184,8184,8339,9.64372992515564,True
13,8231,8169,8157,8167,8105,8109,8136,8157,8150,8163,8183,8177,8185,8324,9.65181016921997,True
14,8197,8162,8184,8164,8142,8118,8134,8176,8156,8163,8172,8172,8183,8288,9.659838438034058,True
15,8185,8167,8194,8166,8135,8128,8144,8181,8162,8158,8164,8180,8176,8287,9.66668176651001,True
16,8184,8151,8147,8158,8116,8157,8167,8167,8175,8163,8165,8164,8167,8285,9.67459750175476,True
17,8177,8160,8212,8181,8181,8181,8172,8185,8172,8163,8177,8171,8159,8253,9.6827392578125,True
18,8154,8153,8180,8209,8118,8157,8174,8172,8177,8166,8205,8186,8176,8256,9.69071340560913,True
19,8173,8166,8174,8202,8114,8134,8164,8167,8176,8178,8215,8191,8191,8289,9.69874095916748,True
20,8220,8202,8251,8211,8170,8155,8158,8190,8160,8176,8209,8205,8192,8291,9.706687450408936,True
21,8196,8186,8167,8228,8113,8168,8185,8166,8171,8162,8208,8180,8193,8271,9.71470046043396,True
22,8165,8174,8129,8211,8108,8157,8190,8154,8184,8157,8193,8165,8181,8267,9.722752809524536,True
23,8194,8186,8180,8204,8136,8159,8175,8170,8184,8163,8181,8187,8174,8288,9.729801177978516,True
