COUNTER,F3, FC5,AF3,F7,T7,P7,O1,O2,P8,T8,F8,AF4,FC6,F4,Timestamp,yes_event
88,8244,8189,8131,8285,8145,8145,8175,8152,8166,8202,8176,8211,8213,8338,0.0057554244995117,False
89,8257,8203,8162,8289,8189,8145,8167,8163,8161,8202,8182,8209,8225,8353,0.0138683319091796,False
90,8244,8198,8138,8287,8187,8148,8181,8175,8170,8193,8173,8192,8218,8350,0.0217471122741699,False
91,8240,8212,8239,8265,8270,8157,8194,8205,8162,8178,8116,8181,8171,8318,0.0297343730926513,False
92,8219,8192,8243,8241,8228,8141,8189,8202,8142,8171,8076,8170,8128,8288,0.0378649234771728,False
93,8170,8160,8030,8248,8090,8125,8196,8149,8153,8180,8102,8144,8153,8296,0.0447525978088378,False
94,8180,8189,8064,8258,8165,8147,8187,8147,8153,8181,8118,8152,8178,8298,0.052783727645874,False
95,8220,8207,8175,8266,8232,8163,8158,8155,8138,8178,8113,8171,8181,8294,0.060807466506958,False
96,8238,8224,8186,8284,8222,8149,8126,8143,8131,8180,8122,8177,8187,8310,0.0687532424926757,False
97,8228,8229,8147,8270,8184,8138,8112,8136,8133,8179,8131,8182,8190,8325,0.0767977237701416,False
98,8207,8208,8122,8246,8181,8144,8115,8141,8149,8183,8124,8172,8179,8319,0.0857694149017334,False
99,8218,8219,8204,8256,8245,8153,8123,8179,8173,8194,8119,8178,8169,8316,0.0937471389770507,False
100,8214,8213,8180,8239,8212,8153,8139,8187,8190,8192,8124,8183,8178,8325,0.0997142791748046,False
101,8195,8189,8133,8199,8179,8154,8146,8164,8167,8172,8112,8167,8171,8311,0.1089298725128173,False
102,8199,8177,8115,8185,8154,8137,8150,8150,8132,8155,8103,8159,8146,8302,0.1157984733581543,False
103,8199,8183,8105,8183,8154,8110,8146,8143,8111,8148,8101,8152,8122,8296,0.1236078739166259,False
104,8206,8214,8209,8200,8234,8125,8129,8161,8097,8145,8097,8161,8108,8275,0.1316897869110107,False
105,8211,8204,8181,8214,8199,8150,8143,8161,8106,8147,8118,8173,8125,8281,0.1397297382354736,False
106,8203,8184,8108,8199,8170,8146,8160,8162,8127,8148,8123,8161,8128,8286,0.1478326320648193,False
107,8182,8184,8124,8188,8198,8147,8150,8192,8160,8154,8105,8146,8113,8270,0.1557190418243408,False
108,8156,8181,8121,8184,8188,8155,8138,8195,8180,8160,8093,8135,8112,8251,0.1639266014099121,False
109,8156,8187,8159,8176,8202,8161,8151,8187,8167,8152,8089,8140,8106,8238,0.1709706783294677,False
110,8155,8186,8139,8180,8178,8163,8174,8171,8168,8149,8094,8142,8111,8242,0.1789031028747558,False
111,8157,8199,8144,8194,8187,8166,8163,8157,8167,8149,8091,8146,8116,8253,0.1869158744812011,False
112,8164,8203,8180,8195,8196,8169,8151,8162,8147,8144,8090,8162,8114,8254,0.1949400901794433,False
113,8145,8179,8139,8175,8167,8163,8166,8166,8152,8141,8096,8148,8109,8237,0.2029359340667724,False
114,8144,8181,8184,8151,8218,8158,8166,8183,8162,8134,8078,8137,8080,8214,0.2109253406524658,False
115,8134,8164,8124,8140,8173,8149,8166,8165,8161,8130,8065,8136,8061,8213,0.2189631462097168,False
116,8114,8165,8091,8139,8171,8142,8172,8154,8164,8126,8064,8128,8054,8209,0.2269001007080078,False
117,8128,8195,8210,8136,8235,8157,8172,8192,8167,8120,8068,8139,8050,8199,0.2348268032073974,False
118,8136,8183,8143,8148,8170,8178,8204,8196,8185,8133,8103,8148,8091,8228,0.2419612407684326,False
119,8149,8191,8133,8169,8184,8180,8219,8208,8204,8147,8129,8157,8122,8260,0.250040054321289,False
120,8157,8195,8181,8159,8191,8172,8207,8221,8210,8148,8120,8157,8113,8257,0.2577888965606689,False
121,8138,8177,8132,8142,8165,8180,8213,8198,8214,8146,8110,8142,8099,8241,0.2658758163452148,False
122,8131,8184,8135,8156,8199,8185,8217,8185,8216,8143,8120,8152,8099,8241,0.2740190029144287,False
123,8134,8186,8129,8160,8195,8174,8207,8179,8213,8140,8111,8155,8099,8254,0.2818739414215088,False
124,8150,8193,8183,8139,8222,8167,8183,8187,8197,8135,8079,8145,8072,8246,0.2900285720825195,False
125,8154,8192,8151,8143,8184,8158,8167,8166,8184,8140,8106,8151,8077,8245,0.2980422973632812,False
126,8157,8205,8136,8160,8199,8148,8146,8141,8168,8139,8152,8165,8113,8254,0.3049626350402832,False
127,8171,8218,8252,8149,8273,8154,8127,8166,8154,8131,8141,8179,8114,8249,0.3130133152008056,False
237,8140,8170,8148,8129,8166,8147,8137,8150,8169,8132,8124,8160,8105,8244,0.3210082054138183,False
0,8131,8167,8092,8133,8150,8127,8135,8135,8162,8129,8124,8142,8093,8238,0.3290431499481201,False
1,8146,8192,8173,8139,8213,8140,8130,8163,8145,8121,8118,8153,8076,8228,0.3368816375732422,False
2,8117,8170,8127,8128,8182,8157,8144,8167,8164,8118,8115,8149,8076,8222,0.344970703125,False
3,8129,8181,8154,8130,8203,8154,8154,8184,8180,8123,8117,8152,8090,8235,0.3529200553894043,False
4,8187,8209,8199,8158,8216,8160,8170,8211,8187,8139,8131,8169,8114,8265,0.3609368801116943,False
5,8190,8215,8199,8166,8221,8181,8181,8212,8187,8141,8126,8162,8108,8255,0.3689408302307129,False
6,8146,8192,8143,8140,8178,8186,8184,8185,8172,8124,8122,8144,8089,8232,0.3759670257568359,False
7,8131,8181,8092,8128,8157,8185,8198,8171,8177,8117,8139,8149,8097,8254,0.3837723731994629,False
8,8151,8194,8159,8137,8214,8209,8215,8198,8192,8125,8146,8171,8111,8276,0.3919351100921631,False
9,8147,8184,8133,8142,8174,8234,8234,8196,8209,8142,8170,8175,8147,8291,0.399956464767456,False
10,8152,8207,8169,8149,8204,8240,8227,8188,8203,8152,8188,8184,8172,8298,0.4078302383422851,False
11,8170,8224,8234,8157,8236,8228,8204,8183,8173,8136,8170,8196,8152,8282,0.4159395694732666,False
12,8163,8196,8140,8158,8162,8215,8194,8138,8158,8119,8155,8171,8126,8264,0.4239397048950195,False
13,8186,8212,8157,8166,8179,8204,8174,8126,8142,8112,8148,8166,8113,8255,0.4317307472229004,False
14,8198,8220,8149,8163,8179,8177,8152,8129,8137,8110,8140,8174,8112,8261,0.4398961067199707,False
15,8172,8217,8164,8140,8216,8173,8140,8145,8143,8109,8124,8164,8094,8252,0.4469335079193115,False
16,8154,8221,8214,8138,8229,8200,8159,8186,8158,8112,8133,8166,8096,8239,0.4549417495727539,False
17,8134,8197,8116,8151,8150,8211,8198,8187,8187,8124,8146,8156,8127,8248,0.4628493785858154,False
18,8134,8206,8122,8162,8184,8204,8199,8186,8197,8137,8131,8146,8125,8248,0.4707953929901123,False
19,8150,8224,8158,8170,8198,8207,8191,8189,8201,8146,8141,8156,8128,8254,0.4786524772644043,False
20,8171,8228,8167,8169,8197,8219,8207,8197,8218,8153,8161,8169,8152,8274,0.4869635105133056,False
21,8173,8227,8172,8165,8193,8218,8215,8200,8231,8145,8155,8175,8153,8277,0.4948694705963135,False
22,8155,8220,8136,8160,8174,8208,8201,8175,8217,8127,8144,8160,8133,8261,0.5028493404388428,False
23,8172,8240,8253,8152,8253,8218,8179,8188,8188,8119,8136,8169,8124,8251,0.5097763538360596,False
24,8168,8217,8197,8143,8173,8216,8194,8189,8214,8140,8160,8180,8160,8279,0.5179400444030762,False
25,8146,8202,8072,8151,8110,8204,8214,8167,8252,8157,8187,8174,8192,8304,0.5259637832641602,False
26,8186,8244,8219,8167,8217,8217,8203,8190,8246,8157,8186,8195,8190,8302,0.5336995124816895,False
27,8201,8242,8206,8174,8176,8221,8200,8186,8250,8166,8191,8195,8204,8308,0.5418128967285156,False
28,8168,8222,8103,8162,8133,8195,8189,8156,8238,8153,8174,8168,8190,8289,0.5497677326202393,False
29,8154,8219,8151,8136,8178,8174,8164,8144,8184,8122,8128,8156,8131,8240,0.5577735900878906,False
30,8151,8218,8173,8121,8193,8168,8154,8149,8151,8109,8103,8142,8099,8211,0.5658764839172363,False
31,8148,8204,8142,8108,8170,8168,8160,8156,8153,8105,8108,8133,8101,8211,0.5728209018707275,False
32,8139,8184,8099,8089,8143,8169,8170,8141,8161,8110,8122,8138,8104,8221,0.5807549953460693,False
33,8148,8210,8186,8104,8211,8168,8162,8154,8151,8101,8113,8153,8095,8226,0.5889606475830078,False
34,8156,8222,8167,8145,8172,8174,8173,8171,8173,8093,8130,8154,8119,8247,0.5967848300933838,False
35,8161,8232,8134,8164,8165,8192,8194,8185,8218,8102,8164,8156,8153,8256,0.6048543453216553,False
36,8186,8269,8301,8165,8274,8203,8178,8219,8209,8099,8167,8182,8150,8246,0.6129226684570312,False
37,8156,8233,8188,8170,8167,8193,8166,8179,8192,8097,8178,8179,8168,8262,0.6207098960876465,False
38,8128,8212,8036,8187,8107,8195,8170,8131,8201,8110,8189,8160,8190,8275,0.6287531852722168,False
39,8172,8256,8150,8210,8180,8205,8157,8147,8198,8119,8178,8177,8178,8274,0.6357512474060059,False
40,8204,8274,8194,8222,8169,8199,8140,8149,8188,8118,8181,8188,8181,8289,0.643669605255127,False
41,8201,8281,8182,8229,8175,8207,8140,8143,8177,8111,8189,8190,8188,8290,0.651771068572998,False
42,8186,8278,8158,8219,8186,8217,8158,8146,8174,8095,8173,8173,8168,8269,0.6598339080810547,False
43,8171,8265,8177,8186,8204,8201,8170,8163,8176,8075,8139,8144,8128,8244,0.6677587032318115,False
44,8153,8243,8160,8160,8170,8185,8189,8177,8185,8071,8128,8135,8108,8226,0.6757664680480957,False
45,8135,8232,8110,8152,8148,8191,8207,8178,8193,8076,8129,8137,8110,8212,0.6836953163146973,False
46,8143,8251,8183,8150,8208,8205,8208,8198,8189,8077,8120,8145,8105,8204,0.6918635368347168,False
47,8141,8236,8145,8146,8157,8202,8217,8183,8192,8080,8131,8140,8112,8217,0.6998178958892822,False
48,8146,8238,8144,8151,8169,8194,8200,8162,8173,8070,8133,8139,8103,8216,0.7067408561706543,False
49,8167,8261,8235,8170,8216,8183,8170,8172,8158,8066,8135,8169,8098,8226,0.7158522605895996,False
50,8167,8257,8155,8186,8166,8183,8172,8163,8193,8089,8167,8176,8139,8271,0.722790002822876,False
51,8185,8280,8159,8201,8199,8198,8163,8172,8209,8109,8189,8173,8158,8284,0.7307708263397217,False
52,8189,8293,8164,8221,8181,8195,8144,8171,8196,8109,8205,8175,8171,8270,0.7387130260467529,False
53,8178,8301,8174,8228,8196,8180,8124,8152,8180,8094,8198,8172,8182,8254,0.7467384338378906,False
54,8186,8318,8234,8229,8238,8181,8109,8153,8167,8087,8187,8180,8179,8255,0.754713773727417,False
55,8179,8305,8141,8234,8169,8187,8113,8146,8185,8103,8209,8181,8194,8286,0.7628579139709473,False
56,8194,8310,8150,8236,8185,8195,8115,8155,8207,8112,8222,8185,8207,8301,0.769622802734375,False
57,8209,8306,8177,8219,8187,8198,8131,8155,8208,8107,8197,8184,8200,8295,0.7778933048248291,False
58,8187,8295,8157,8182,8178,8185,8150,8154,8176,8089,8161,8165,8166,8283,0.7857193946838379,False
59,8170,8283,8178,8155,8182,8175,8148,8162,8140,8069,8160,8159,8137,8260,0.7937760353088379,False
60,8157,8252,8115,8161,8132,8174,8157,8147,8137,8070,8166,8153,8139,8242,0.8017680644989014,False
61,8170,8271,8197,8168,8203,8173,8164,8175,8139,8070,8137,8165,8125,8237,0.8096990585327148,False
62,8182,8275,8234,8155,8212,8164,8169,8200,8155,8071,8158,8180,8128,8255,0.8178637027740479,False
63,8163,8246,8116,8150,8137,8163,8184,8178,8186,8082,8212,8167,8160,8265,0.8257808685302734,False
64,8161,8259,8135,8165,8150,8172,8179,8178,8191,8084,8197,8166,8163,8261,0.8335762023925781,False
65,8168,8277,8171,8169,8157,8167,8163,8184,8187,8083,8174,8174,8154,8279,0.8408172130584717,False
66,8169,8283,8189,8171,8179,8169,8160,8188,8190,8084,8200,8178,8162,8296,0.848740816116333,False
67,8156,8273,8150,8191,8153,8181,8169,8173,8190,8083,8220,8176,8177,8291,0.8567147254943848,False
68,8151,8293,8147,8205,8161,8181,8162,8151,8168,8077,8204,8172,8169,8277,0.8648698329925537,False
69,8177,8326,8233,8201,8215,8190,8155,8166,8149,8082,8195,8181,8154,8273,0.8727505207061768,False
70,8181,8302,8160,8206,8164,8203,8178,8179,8175,8099,8220,8177,8182,8295,0.8805811405181885,False
71,8193,8309,8175,8218,8191,8201,8183,8193,8192,8102,8215,8173,8198,8300,0.888840913772583,False
72,8199,8319,8194,8212,8179,8182,8184,8192,8189,8097,8201,8175,8190,8293,0.8967227935791016,False
73,8172,8298,8124,8184,8143,8176,8194,8176,8197,8095,8195,8161,8182,8286,0.9038329124450684,False
74,8172,8300,8216,8162,8225,8186,8180,8192,8188,8085,8159,8158,8150,8257,0.9117348194122314,False
75,8160,8278,8172,8159,8169,8187,8183,8172,8179,8081,8151,8155,8133,8233,0.919851303100586,False
76,8147,8269,8092,8185,8115,8191,8197,8145,8180,8083,8177,8150,8137,8237,0.9277825355529784,False
77,8175,8292,8169,8203,8162,8205,8183,8165,8179,8088,8194,8168,8152,8266,0.9357335567474364,False
78,8203,8306,8198,8197,8179,8209,8171,8183,8190,8103,8211,8189,8179,8298,0.9437403678894044,False
79,8218,8323,8197,8217,8177,8199,8169,8181,8188,8104,8216,8197,8188,8313,0.9517946243286132,False
80,8204,8314,8137,8242,8132,8183,8165,8157,8170,8092,8210,8181,8181,8314,0.9596679210662842,False
81,8199,8318,8184,8229,8186,8175,8152,8166,8165,8090,8208,8184,8178,8306,0.9667527675628662,False
82,8214,8330,8215,8234,8190,8180,8155,8187,8183,8107,8240,8219,8209,8333,0.9747557640075684,False
83,8224,8338,8141,8267,8140,8184,8162,8161,8191,8116,8268,8218,8233,8356,0.9826340675354004,False
84,8248,8371,8251,8275,8227,8194,8143,8169,8176,8108,8250,8207,8198,8323,0.9906859397888184,False
85,8239,8355,8215,8265,8187,8203,8147,8174,8198,8115,8255,8210,8204,8324,0.998659610748291,False
86,8206,8336,8108,8262,8144,8185,8152,8151,8216,8122,8267,8194,8235,8348,1.0066800117492676,False
87,8194,8341,8179,8239,8192,8171,8140,8165,8202,8119,8237,8178,8208,8313,1.014817714691162,False
88,8169,8313,8160,8203,8165,8196,8167,8186,8222,8124,8212,8165,8194,8277,1.0226202011108398,False
89,8154,8308,8142,8199,8178,8215,8196,8202,8233,8125,8224,8159,8207,8283,1.0297415256500244,False
90,8145,8306,8129,8209,8166,8197,8193,8185,8213,8120,8240,8158,8198,8292,1.0377542972564695,False
91,8152,8309,8176,8207,8200,8192,8183,8177,8196,8112,8216,8161,8170,8281,1.0457642078399658,False
92,8182,8318,8239,8193,8226,8200,8190,8199,8198,8111,8211,8181,8177,8283,1.0540673732757568,False
93,8178,8307,8138,8185,8145,8194,8201,8180,8208,8117,8240,8178,8205,8302,1.0617351531982422,False
94,8172,8326,8149,8203,8177,8196,8190,8170,8196,8113,8232,8170,8190,8299,1.0699281692504885,False
95,8178,8332,8152,8221,8165,8197,8190,8169,8190,8113,8230,8173,8188,8310,1.0779054164886477,False
96,8198,8339,8162,8223,8165,8196,8190,8169,8190,8117,8248,8179,8207,8328,1.0858018398284912,False
97,8222,8360,8284,8221,8239,8212,8178,8196,8182,8110,8240,8197,8199,8320,1.0937550067901611,False
98,8198,8337,8175,8234,8154,8216,8185,8172,8186,8112,8226,8177,8192,8311,1.100956678390503,False
99,8188,8342,8139,8248,8156,8205,8172,8145,8167,8112,8209,8160,8179,8295,1.108783483505249,False
100,8200,8345,8221,8224,8206,8190,8140,8150,8142,8100,8205,8176,8163,8279,1.1168863773345947,False
101,8184,8315,8163,8192,8164,8174,8137,8144,8150,8096,8217,8165,8159,8274,1.124814510345459,False
102,8171,8313,8130,8188,8154,8177,8155,8149,8160,8097,8215,8151,8151,8262,1.1328043937683103,False
103,8153,8314,8124,8190,8152,8192,8181,8157,8167,8103,8210,8152,8154,8262,1.140894651412964,False
104,8149,8311,8157,8183,8177,8202,8199,8182,8176,8109,8204,8160,8166,8275,1.1489503383636477,False
105,8164,8305,8132,8187,8162,8207,8211,8201,8189,8111,8219,8170,8182,8286,1.1568799018859863,False
106,8181,8323,8158,8205,8190,8212,8211,8202,8211,8113,8247,8181,8195,8291,1.1637091636657717,False
107,8195,8343,8229,8216,8210,8221,8208,8213,8237,8124,8275,8199,8218,8314,1.1718943119049072,False
108,8186,8325,8130,8212,8138,8217,8219,8194,8252,8138,8289,8185,8246,8335,1.1799094676971436,False
109,8205,8355,8212,8233,8228,8207,8204,8192,8220,8124,8255,8179,8212,8311,1.1877541542053225,False
110,8221,8372,8267,8264,8235,8202,8190,8187,8186,8105,8243,8195,8177,8307,1.196946620941162,False
111,8194,8341,8124,8251,8142,8189,8195,8145,8178,8107,8256,8177,8193,8321,1.2039456367492676,False
112,8192,8351,8170,8236,8194,8173,8175,8146,8154,8111,8236,8168,8188,8297,1.212731122970581,False
113,8193,8355,8188,8249,8172,8162,8167,8150,8143,8114,8242,8174,8181,8288,1.2197105884552002,False
114,8195,8350,8143,8246,8145,8164,8175,8142,8146,8118,8273,8173,8196,8302,1.226840257644653,False
115,8213,8358,8173,8229,8183,8159,8163,8147,8140,8115,8259,8179,8190,8295,1.2347662448883057,False
116,8208,8361,8183,8213,8187,8144,8148,8146,8136,8107,8226,8172,8157,8272,1.242780685424805,False
117,8199,8363,8191,8205,8188,8154,8157,8153,8140,8108,8238,8166,8147,8270,1.2508013248443604,False
118,8184,8344,8127,8212,8163,8177,8200,8163,8173,8123,8266,8170,8181,8291,1.2587904930114746,False
119,8170,8344,8151,8214,8208,8186,8235,8198,8200,8125,8234,8171,8180,8283,1.266850233078003,False
120,8150,8334,8177,8186,8206,8182,8247,8221,8204,8114,8206,8156,8154,8262,1.2747766971588137,False
121,8114,8304,8098,8156,8164,8185,8251,8202,8208,8116,8226,8135,8156,8252,1.2828099727630615,False
122,8115,8325,8198,8152,8241,8184,8234,8216,8194,8114,8230,8150,8149,8230,1.290816307067871,False
123,8130,8329,8208,8170,8192,8167,8215,8202,8178,8111,8228,8169,8157,8247,1.2977697849273682,False
124,8145,8325,8115,8196,8131,8156,8192,8153,8165,8115,8235,8161,8175,8288,1.3057036399841309,False
125,8164,8345,8157,8195,8174,8157,8167,8144,8144,8110,8229,8162,8171,8277,1.313706398010254,False
126,8168,8352,8171,8182,8168,8152,8152,8147,8136,8106,8235,8166,8168,8261,1.3216712474822998,False
127,8198,8383,8209,8209,8196,8157,8142,8160,8142,8108,8256,8183,8177,8287,1.3297796249389648,False
237,8220,8388,8185,8236,8181,8167,8161,8164,8162,8120,8274,8195,8205,8314,1.3378918170928955,False
0,8208,8376,8163,8216,8189,8169,8173,8163,8165,8118,8256,8185,8211,8296,1.3458068370819092,False
1,8203,8375,8221,8194,8231,8174,8165,8174,8153,8109,8236,8188,8194,8276,1.3539607524871826,False
2,8194,8358,8163,8200,8184,8171,8176,8161,8167,8117,8245,8182,8195,8289,1.3608670234680176,False
3,8179,8351,8151,8190,8189,8162,8184,8163,8173,8119,8230,8168,8177,8280,1.36895751953125,False
4,8149,8331,8146,8161,8172,8159,8182,8173,8171,8111,8217,8153,8153,8254,1.3769536018371582,False
5,8137,8323,8143,8151,8175,8164,8185,8187,8186,8111,8223,8147,8165,8255,1.3848628997802734,False
6,8168,8351,8211,8163,8209,8174,8188,8216,8194,8118,8227,8169,8185,8270,1.3928818702697754,False
7,8164,8348,8144,8167,8147,8176,8194,8200,8193,8118,8238,8167,8191,8268,1.4009385108947754,False
8,8154,8351,8159,8158,8189,8171,8183,8185,8176,8108,8235,8157,8184,8262,1.4088315963745115,False
9,8185,8368,8214,8170,8227,8172,8174,8182,8161,8106,8232,8174,8194,8294,1.4168457984924316,False
10,8207,8385,8169,8197,8192,8171,8179,8157,8157,8104,8239,8180,8198,8313,1.424931526184082,False
11,8204,8389,8177,8201,8192,8158,8163,8144,8130,8089,8224,8174,8166,8285,1.431889533996582,False
12,8184,8355,8143,8190,8158,8145,8152,8135,8110,8083,8211,8169,8159,8278,1.4397213459014893,False
13,8190,8351,8177,8184,8193,8149,8149,8146,8102,8083,8211,8172,8167,8280,1.447880506515503,False
14,8208,8360,8197,8191,8185,8145,8154,8147,8098,8081,8227,8185,8164,8275,1.4559593200683594,False
15,8219,8367,8162,8206,8156,8136,8170,8137,8107,8096,8248,8193,8173,8299,1.463787078857422,False
16,8230,8381,8220,8205,8194,8138,8175,8165,8118,8105,8241,8193,8182,8322,1.4719688892364502,False
17,8208,8355,8161,8185,8143,8139,8186,8177,8145,8108,8239,8175,8193,8313,1.4799492359161377,False
18,8214,8371,8187,8196,8185,8148,8192,8197,8167,8121,8263,8186,8207,8306,1.4879181385040283,False
19,8241,8395,8241,8225,8207,8154,8195,8219,8176,8135,8287,8216,8231,8332,1.4948713779449463,False
20,8211,8357,8132,8203,8130,8131,8200,8191,8176,8130,8268,8191,8234,8340,1.5028433799743652,False
21,8182,8347,8162,8168,8175,8121,8195,8190,8165,8115,8232,8173,8198,8305,1.5109288692474363,False
22,8176,8345,8171,8169,8176,8139,8213,8194,8171,8123,8240,8177,8204,8294,1.518850326538086,False
23,8166,8336,8131,8169,8158,8149,8235,8176,8171,8123,8234,8163,8211,8288,1.5269567966461182,False
24,8166,8335,8170,8156,8176,8144,8224,8165,8151,8102,8203,8159,8163,8260,1.5349936485290527,False
25,8171,8330,8176,8149,8175,8142,8199,8153,8143,8101,8209,8161,8156,8260,1.542891502380371,False
26,8178,8340,8191,8148,8187,8147,8185,8153,8142,8112,8224,8173,8190,8285,1.550989866256714,False
27,8170,8329,8126,8144,8124,8137,8180,8137,8141,8105,8222,8174,8194,8299,1.5589911937713623,False
28,8185,8347,8177,8149,8172,8134,8152,8139,8123,8087,8202,8161,8162,8273,1.565859079360962,False
29,8206,8372,8265,8166,8230,8143,8136,8152,8108,8083,8194,8168,8154,8252,1.5739507675170898,False
30,8189,8351,8131,8167,8136,8126,8166,8123,8119,8092,8207,8173,8170,8269,1.5819623470306396,False
31,8217,8367,8164,8163,8159,8117,8173,8136,8117,8095,8212,8187,8167,8294,1.5897769927978516,False
32,8251,8379,8233,8178,8188,8141,8178,8176,8130,8110,8229,8199,8189,8318,1.5979595184326172,False
33,8224,8364,8157,8192,8164,8157,8202,8183,8170,8133,8248,8189,8230,8326,1.6059203147888184,False
34,8216,8381,8171,8204,8190,8159,8208,8201,8196,8142,8254,8193,8256,8327,1.6139185428619385,False
35,8239,8401,8213,8232,8206,8171,8211,8216,8212,8151,8260,8201,8269,8336,1.621914625167847,False
36,8252,8405,8241,8249,8229,8181,8221,8220,8212,8151,8253,8199,8254,8334,1.6289255619049072,False
37,8217,8376,8153,8216,8163,8176,8233,8197,8204,8139,8242,8180,8228,8323,1.6370248794555664,False
38,8179,8362,8117,8179,8154,8172,8229,8170,8185,8124,8209,8148,8189,8287,1.644899845123291,False
39,8181,8372,8191,8190,8214,8181,8228,8183,8177,8118,8190,8145,8168,8258,1.6529529094696045,False
40,8185,8374,8141,8221,8190,8195,8251,8186,8201,8131,8219,8158,8200,8276,1.6609394550323486,False
41,8215,8404,8193,8230,8241,8212,8249,8186,8201,8132,8210,8169,8198,8293,1.6688895225524902,False
42,8250,8411,8224,8232,8223,8207,8225,8178,8192,8127,8201,8176,8194,8310,1.6769206523895264,False
43,8261,8418,8183,8254,8196,8186,8203,8174,8205,8137,8257,8194,8247,8346,1.6849279403686523,False
44,8273,8443,8240,8267,8249,8185,8197,8196,8210,8161,8301,8222,8288,8364,1.6917760372161863,False
45,8250,8409,8152,8244,8186,8206,8237,8176,8226,8180,8312,8211,8308,8370,1.699941635131836,False
46,8231,8398,8163,8223,8224,8230,8260,8181,8234,8178,8304,8202,8312,8365,1.707939386367798,False
47,8234,8405,8257,8218,8265,8234,8246,8207,8220,8172,8291,8214,8306,8350,1.7156774997711182,False
48,8210,8378,8159,8210,8187,8231,8261,8195,8238,8188,8299,8195,8314,8344,1.723935604095459,False
49,8182,8372,8102,8214,8176,8240,8287,8202,8278,8202,8321,8183,8325,8340,1.731924057006836,False
50,8168,8383,8125,8221,8193,8237,8284,8212,8282,8193,8303,8183,8312,8325,1.7407593727111816,False
51,8192,8412,8198,8224,8240,8225,8258,8216,8249,8179,8250,8179,8275,8304,1.7479248046875,False
52,8220,8426,8196,8238,8222,8223,8258,8217,8253,8184,8260,8190,8279,8317,1.7549543380737305,False
53,8227,8430,8184,8258,8221,8236,8277,8216,8280,8188,8286,8205,8299,8347,1.7629640102386477,False
54,8241,8441,8270,8262,8276,8236,8275,8233,8268,8181,8253,8212,8275,8348,1.770843505859375,False
55,8218,8402,8153,8237,8184,8215,8289,8210,8265,8177,8245,8187,8271,8345,1.7789452075958252,False
56,8203,8395,8133,8217,8197,8217,8308,8205,8274,8172,8261,8179,8294,8346,1.7869493961334229,False
57,8228,8414,8238,8222,8247,8234,8309,8229,8269,8174,8264,8209,8301,8356,1.7947986125946045,False
58,8231,8387,8150,8222,8170,8229,8306,8196,8261,8178,8267,8203,8300,8371,1.8029210567474363,False
59,8240,8396,8168,8222,8210,8226,8286,8174,8240,8173,8267,8191,8294,8360,1.8109819889068604,False
60,8254,8415,8224,8233,8237,8228,8264,8177,8235,8176,8264,8206,8299,8357,1.818707704544068,False
61,8245,8406,8180,8239,8196,8221,8246,8169,8247,8182,8256,8208,8305,8378,1.825811624526977,False
62,8233,8392,8135,8237,8168,8227,8251,8165,8257,8184,8263,8188,8310,8385,1.833815336227417,False
63,8235,8400,8148,8233,8196,8228,8269,8176,8268,8188,8273,8178,8313,8371,1.841752529144287,False
64,8251,8419,8238,8232,8256,8212,8264,8202,8268,8183,8266,8199,8295,8361,1.8499605655670168,False
65,8235,8389,8148,8230,8182,8202,8267,8184,8271,8185,8264,8188,8286,8370,1.857921838760376,False
66,8237,8407,8204,8233,8246,8210,8254,8194,8258,8187,8245,8174,8272,8355,1.8659539222717283,False
67,8263,8433,8357,8242,8307,8216,8240,8237,8252,8180,8237,8208,8263,8341,1.873920202255249,False
68,8226,8369,8133,8246,8134,8205,8264,8193,8278,8185,8269,8198,8292,8363,1.8819139003753664,False
69,8205,8357,8028,8248,8126,8194,8260,8154,8270,8187,8275,8165,8294,8357,1.8889479637146,False
70,8232,8400,8178,8253,8215,8192,8221,8171,8236,8173,8261,8184,8271,8340,1.896911859512329,False
71,8238,8399,8212,8247,8208,8195,8217,8179,8228,8161,8266,8204,8262,8350,1.9049224853515625,False
72,8225,8378,8176,8230,8199,8195,8239,8179,8230,8164,8281,8193,8265,8353,1.912933588027954,False
73,8217,8371,8168,8224,8210,8188,8240,8175,8230,8171,8298,8185,8276,8344,1.920714855194092,False
74,8228,8390,8220,8239,8230,8196,8224,8186,8227,8175,8312,8204,8285,8349,1.92894983291626,False
75,8232,8382,8173,8250,8172,8207,8237,8179,8240,8182,8325,8213,8298,8359,1.9369513988494875,False
76,8231,8379,8162,8247,8197,8207,8251,8174,8245,8183,8320,8203,8299,8352,1.9447698593139648,False
77,8246,8395,8249,8247,8261,8211,8244,8193,8227,8175,8308,8214,8291,8355,1.9529550075531008,False
78,8249,8387,8188,8265,8187,8210,8255,8182,8230,8177,8322,8224,8302,8376,1.960953712463379,False
79,8267,8404,8212,8283,8208,8206,8255,8190,8236,8181,8334,8230,8303,8377,1.9677402973175049,False
80,8282,8408,8246,8278,8224,8211,8244,8210,8239,8188,8333,8236,8315,8381,1.976035118103028,False
81,8269,8398,8181,8278,8189,8214,8244,8199,8244,8195,8313,8225,8332,8389,1.9839534759521484,False
82,8267,8407,8204,8289,8200,8210,8232,8188,8225,8184,8291,8227,8312,8367,1.9920878410339355,False
83,8262,8390,8163,8285,8149,8200,8222,8161,8212,8176,8297,8225,8303,8354,1.9999167919158936,False
84,8273,8407,8245,8285,8232,8210,8219,8176,8212,8176,8280,8229,8301,8363,2.00795316696167,False
85,8284,8429,8296,8311,8262,8227,8231,8197,8222,8176,8264,8243,8305,8391,2.015953540802002,False
86,8272,8415,8137,8321,8158,8226,8247,8163,8243,8185,8283,8228,8333,8414,2.0228867530822754,False
87,8290,8421,8131,8303,8185,8217,8237,8159,8247,8195,8276,8210,8339,8404,2.0309512615203857,False
88,8296,8425,8175,8295,8226,8216,8221,8171,8237,8202,8246,8195,8323,8395,2.038895606994629,False
89,8278,8431,8201,8287,8247,8227,8216,8182,8232,8201,8225,8189,8306,8386,2.046875476837158,False
90,8261,8412,8181,8258,8219,8231,8233,8195,8253,8196,8221,8194,8304,8377,2.0547568798065186,False
91,8228,8373,8125,8219,8206,8225,8240,8198,8264,8189,8204,8166,8278,8344,2.062681198120117,False
92,8193,8359,8186,8179,8261,8218,8221,8210,8235,8174,8155,8137,8209,8282,2.070750951766968,False
93,8155,8331,8147,8163,8203,8212,8231,8198,8231,8174,8141,8137,8198,8269,2.078793525695801,False
94,8164,8328,8116,8183,8184,8221,8247,8187,8244,8180,8168,8151,8235,8298,2.085726022720337,False
95,8209,8356,8180,8197,8225,8233,8239,8195,8244,8179,8185,8165,8244,8316,2.0937485694885254,False
96,8218,8357,8157,8193,8200,8227,8235,8183,8243,8178,8183,8168,8245,8326,2.101731538772583,False
97,8229,8361,8178,8198,8212,8214,8221,8184,8238,8179,8175,8178,8251,8338,2.1097846031188965,False
98,8245,8361,8194,8195,8207,8211,8209,8185,8244,8182,8180,8187,8251,8356,2.117778778076172,False
99,8235,8366,8194,8187,8220,8223,8209,8180,8247,8178,8165,8182,8230,8344,2.1258585453033447,False
100,8224,8373,8183,8209,8222,8226,8211,8172,8230,8171,8157,8181,8216,8321,2.1339480876922607,False
101,8233,8382,8150,8245,8203,8215,8204,8163,8234,8184,8187,8183,8239,8333,2.141833782196045,False
102,8271,8426,8261,8266,8277,8216,8183,8194,8256,8197,8200,8202,8256,8351,2.1487505435943604,False
103,8275,8418,8210,8275,8226,8218,8185,8197,8266,8207,8201,8204,8273,8352,2.15676498413086,False
104,8252,8400,8139,8265,8216,8211,8194,8180,8247,8203,8178,8176,8262,8327,2.165860891342163,True
105,8244,8410,8253,8237,8286,8212,8201,8204,8227,8181,8147,8173,8219,8292,2.1727070808410645,True
106,8210,8374,8179,8222,8198,8218,8233,8195,8245,8183,8159,8174,8224,8298,2.180938720703125,True
107,8207,8365,8132,8224,8194,8240,8256,8194,8260,8203,8169,8168,8249,8320,2.1889443397521973,True
108,8223,8355,8162,8202,8217,8261,8267,8204,8260,8196,8155,8159,8240,8315,2.1968648433685303,True
109,8194,8324,8153,8165,8202,8248,8258,8192,8251,8169,8138,8152,8205,8288,2.204936981201172,True
110,8176,8331,8177,8158,8203,8232,8239,8194,8238,8164,8136,8155,8185,8276,2.212888479232788,True
111,8184,8340,8148,8161,8182,8237,8245,8192,8242,8175,8144,8155,8194,8286,2.2197957038879395,True
112,8194,8342,8185,8160,8223,8242,8248,8193,8231,8171,8145,8163,8191,8279,2.227668285369873,True
113,8178,8333,8147,8170,8176,8229,8248,8173,8219,8168,8156,8164,8190,8276,2.235625982284546,True
114,8195,8361,8168,8189,8204,8222,8244,8173,8219,8169,8166,8175,8198,8297,2.243755340576172,True
115,8255,8398,8307,8216,8298,8232,8232,8206,8210,8168,8167,8208,8204,8323,2.251830816268921,True
116,8244,8368,8191,8230,8191,8229,8236,8171,8205,8175,8175,8197,8224,8336,2.259639978408813,True
117,8209,8355,8116,8223,8163,8215,8229,8135,8195,8175,8168,8170,8226,8314,2.2677855491638184,True
118,8201,8362,8172,8217,8219,8214,8217,8156,8194,8174,8168,8176,8226,8287,2.275810718536377,True
119,8194,8363,8164,8219,8216,8224,8225,8170,8211,8180,8176,8171,8235,8278,2.2827706336975098,True
120,8197,8378,8176,8225,8206,8222,8234,8173,8209,8182,8165,8167,8228,8283,2.290821075439453,True
121,8197,8380,8147,8233,8179,8212,8237,8166,8206,8179,8151,8172,8226,8296,2.298894166946411,True
122,8192,8378,8174,8225,8219,8203,8218,8174,8203,8168,8128,8165,8209,8285,2.306947708129883,True
123,8186,8354,8178,8191,8194,8196,8208,8181,8198,8168,8122,8166,8201,8285,2.31492018699646,True
124,8190,8346,8144,8176,8170,8201,8222,8177,8200,8179,8130,8166,8221,8312,2.3226912021636963,True
125,8222,8387,8233,8209,8243,8212,8219,8194,8199,8180,8126,8173,8223,8320,2.331789016723633,True
126,8217,8375,8182,8227,8185,8209,8216,8181,8210,8177,8125,8167,8218,8311,2.338863611221313,True
127,8203,8362,8167,8206,8191,8206,8207,8171,8207,8173,8113,8157,8201,8295,2.346768379211426,True
237,8225,8381,8243,8200,8243,8200,8189,8169,8188,8170,8115,8175,8198,8298,2.3538291454315186,True
0,8230,8378,8147,8220,8170,8189,8183,8132,8187,8175,8142,8173,8226,8326,2.361753225326538,True
1,8226,8387,8143,8227,8184,8198,8178,8133,8187,8173,8132,8169,8226,8326,2.3700499534606934,True
2,8222,8385,8177,8221,8216,8208,8188,8146,8184,8162,8107,8176,8212,8304,2.377873659133911,True
3,8225,8382,8180,8227,8227,8200,8204,8145,8179,8161,8111,8173,8217,8286,2.385848999023437,True
4,8226,8374,8198,8221,8211,8189,8207,8157,8183,8171,8126,8176,8222,8281,2.393946409225464,True
5,8210,8349,8162,8195,8183,8177,8204,8165,8190,8172,8126,8177,8218,8288,2.401913642883301,True
6,8213,8350,8195,8185,8223,8171,8192,8184,8184,8169,8114,8187,8214,8302,2.409908056259156,True
7,8210,8345,8172,8188,8185,8166,8188,8187,8197,8177,8117,8188,8219,8316,2.416729211807251,True
8,8203,8347,8171,8179,8186,8164,8181,8183,8203,8179,8116,8182,8215,8300,2.424679756164551,True
9,8209,8348,8196,8172,8208,8169,8176,8185,8190,8176,8114,8188,8215,8292,2.432912826538086,True
10,8206,8340,8151,8176,8190,8172,8183,8170,8189,8182,8125,8180,8230,8305,2.440824508666992,True
11,8226,8372,8277,8179,8275,8180,8171,8189,8175,8172,8118,8187,8221,8292,2.4487555027008057,True
12,8222,8352,8238,8178,8208,8186,8173,8186,8172,8168,8127,8195,8230,8301,2.4568655490875244,True
13,8192,8317,8105,8169,8148,8180,8180,8150,8170,8174,8130,8176,8233,8322,2.4648327827453613,True
14,8201,8344,8207,8162,8224,8169,8160,8153,8145,8158,8100,8178,8193,8297,2.472827672958374,True
15,8199,8347,8183,8165,8179,8167,8164,8152,8156,8151,8103,8179,8201,8281,2.479793071746826,True
16,8200,8345,8140,8178,8176,8186,8178,8161,8183,8171,8132,8176,8233,8296,2.487701177597046,True
17,8200,8338,8153,8178,8186,8199,8177,8162,8182,8182,8135,8174,8226,8302,2.495826005935669,True
18,8168,8327,8163,8150,8199,8200,8173,8157,8169,8166,8097,8148,8197,8264,2.503825187683105,True
19,8157,8334,8240,8135,8250,8214,8183,8190,8169,8155,8072,8145,8183,8231,2.511889696121216,True
20,8158,8311,8176,8149,8185,8215,8204,8185,8176,8162,8088,8158,8195,8251,2.5197768211364746,True
21,8157,8307,8138,8155,8168,8203,8207,8166,8164,8151,8086,8154,8180,8263,2.527853488922119,True
22,8141,8313,8146,8143,8176,8207,8217,8168,8176,8150,8082,8149,8177,8251,2.5357813835144043,True
23,8135,8316,8147,8146,8188,8217,8223,8179,8209,8167,8092,8156,8194,8246,2.5437941551208496,True
24,8165,8335,8227,8165,8241,8218,8198,8200,8203,8163,8084,8174,8177,8251,2.5507652759552,True
25,8176,8329,8193,8168,8198,8200,8185,8180,8182,8140,8081,8168,8165,8269,2.558802604675293,True
26,8181,8333,8156,8172,8171,8185,8190,8169,8181,8142,8098,8171,8186,8279,2.566933870315552,True
27,8195,8338,8165,8181,8156,8185,8198,8180,8198,8172,8133,8191,8216,8283,2.57487154006958,True
28,8202,8337,8189,8176,8180,8192,8197,8169,8191,8174,8138,8186,8213,8294,2.5829429626464844,True
29,8213,8353,8249,8182,8231,8191,8190,8163,8161,8152,8113,8186,8189,8290,2.5919222831726074,True
30,8198,8341,8164,8191,8165,8176,8183,8147,8163,8152,8118,8177,8191,8274,2.598673343658448,True
31,8181,8334,8153,8180,8178,8173,8160,8147,8175,8163,8133,8167,8199,8267,2.606915235519409,True
32,8182,8339,8198,8171,8217,8165,8132,8158,8175,8165,8131,8176,8203,8273,2.613945960998535,True
33,8177,8333,8146,8176,8188,8149,8118,8150,8176,8169,8125,8170,8203,8268,2.621846437454224,True
34,8173,8336,8185,8169,8210,8160,8119,8162,8176,8174,8120,8162,8198,8252,2.62990951538086,True
35,8154,8322,8184,8148,8195,8172,8143,8167,8175,8173,8120,8160,8206,8244,2.6379573345184326,True
36,8129,8313,8172,8141,8206,8170,8163,8169,8158,8158,8095,8155,8187,8219,2.645928382873535,True
37,8119,8301,8176,8134,8194,8182,8193,8178,8150,8142,8069,8146,8153,8209,2.654864549636841,True
38,8114,8284,8126,8126,8146,8200,8232,8182,8176,8148,8082,8137,8161,8231,2.6619393825531006,False
39,8138,8307,8189,8141,8209,8210,8229,8209,8192,8154,8105,8158,8179,8242,2.6699113845825195,False
40,8150,8312,8179,8159,8209,8209,8210,8205,8201,8157,8133,8178,8195,8255,2.67793083190918,False
41,8149,8313,8151,8164,8195,8190,8187,8182,8200,8162,8150,8166,8196,8259,2.684945821762085,False
42,8179,8326,8207,8173,8199,8171,8160,8183,8181,8156,8148,8173,8187,8260,2.694096565246582,False
43,8203,8327,8184,8195,8168,8163,8160,8174,8178,8151,8159,8199,8207,8304,2.700892448425293,False
44,8201,8338,8202,8195,8209,8160,8151,8169,8171,8149,8148,8206,8208,8328,2.709072589874268,False
45,8176,8313,8169,8168,8177,8156,8147,8156,8159,8146,8110,8180,8180,8297,2.7169549465179443,False
46,8168,8299,8170,8155,8180,8171,8164,8159,8161,8139,8083,8164,8160,8269,2.7247228622436523,False
47,8170,8297,8214,8149,8204,8188,8186,8180,8164,8137,8092,8172,8158,8261,2.731953382492065,False
48,8134,8259,8119,8129,8141,8192,8209,8156,8172,8147,8103,8149,8156,8241,2.739940881729126,False
49,8135,8272,8164,8125,8194,8199,8196,8155,8166,8143,8088,8150,8137,8219,2.747764825820923,False
50,8160,8294,8202,8143,8200,8189,8162,8164,8153,8129,8099,8178,8141,8239,2.7559831142425537,False
51,8165,8292,8147,8162,8165,8161,8143,8152,8160,8134,8127,8178,8166,8270,2.763941764831543,False
52,8177,8311,8191,8181,8198,8143,8131,8165,8186,8157,8138,8188,8186,8283,2.771971702575684,False
53,8172,8321,8175,8190,8185,8146,8124,8178,8212,8176,8153,8198,8210,8290,2.77992582321167,False
54,8167,8330,8180,8197,8211,8169,8134,8200,8227,8180,8153,8190,8219,8279,2.787770986557007,False
55,8169,8323,8180,8212,8203,8184,8168,8207,8239,8183,8149,8176,8221,8276,2.7959535121917725,False
56,8168,8320,8171,8219,8197,8184,8188,8197,8234,8182,8145,8170,8217,8287,2.803707838058472,False
57,8185,8330,8212,8219,8215,8190,8192,8202,8221,8175,8138,8187,8206,8293,2.810913324356079,False
58,8188,8311,8140,8225,8162,8187,8202,8181,8231,8175,8148,8190,8221,8304,2.818929433822632,False
59,8210,8328,8214,8230,8233,8178,8192,8191,8217,8171,8146,8196,8219,8313,2.8299124240875244,False
60,8227,8335,8276,8224,8246,8180,8185,8213,8206,8169,8145,8214,8218,8335,2.834734916687012,False
61,8211,8310,8157,8223,8159,8176,8200,8191,8225,8178,8154,8205,8239,8358,2.842942476272583,False
62,8213,8318,8175,8230,8190,8157,8189,8184,8215,8175,8142,8198,8228,8348,2.8506734371185303,False
63,8215,8316,8170,8225,8189,8149,8173,8179,8202,8169,8132,8194,8222,8337,2.8579418659210205,False
64,8208,8320,8164,8217,8204,8161,8165,8173,8203,8169,8124,8182,8224,8327,2.8667261600494385,False
65,8196,8329,8181,8221,8199,8168,8165,8175,8196,8165,8115,8178,8207,8319,2.8736677169799805,False
66,8176,8316,8152,8217,8177,8160,8167,8172,8190,8157,8100,8168,8182,8305,2.88191556930542,False
67,8168,8307,8191,8197,8210,8154,8160,8173,8176,8150,8080,8164,8161,8272,2.890023231506348,False
68,8153,8288,8148,8187,8160,8151,8169,8155,8173,8155,8089,8161,8168,8256,2.8977675437927246,False
69,8157,8297,8156,8190,8180,8162,8177,8166,8189,8157,8101,8164,8173,8259,2.906017303466797,False
70,8174,8305,8190,8188,8209,8173,8176,8190,8208,8156,8110,8175,8185,8275,2.913743734359741,False
71,8177,8304,8147,8203,8178,8171,8177,8176,8212,8169,8127,8171,8212,8286,2.9220130443573,False
72,8200,8343,8220,8227,8223,8170,8174,8179,8195,8173,8132,8176,8205,8274,2.929840087890625,False
73,8211,8345,8192,8227,8193,8166,8190,8179,8196,8169,8148,8183,8207,8285,2.937763929367065,False
74,8208,8330,8168,8219,8196,8165,8196,8173,8191,8169,8162,8187,8226,8306,2.9449117183685303,False
75,8224,8332,8244,8231,8226,8178,8185,8184,8174,8174,8155,8195,8227,8310,2.952749252319336,False
76,8223,8323,8187,8234,8176,8173,8192,8170,8179,8168,8138,8186,8223,8322,2.9607274532318115,False
77,8215,8328,8178,8212,8193,8149,8195,8168,8170,8148,8123,8188,8214,8330,2.9687211513519287,False
78,8202,8314,8170,8192,8168,8136,8191,8166,8157,8144,8129,8192,8216,8324,2.980720996856689,False
79,8203,8304,8171,8183,8162,8142,8190,8167,8155,8148,8122,8176,8208,8316,2.9849183559417725,False
80,8205,8305,8204,8170,8192,8135,8185,8181,8157,8151,8108,8173,8187,8315,2.992739677429199,False
81,8169,8287,8141,8156,8163,8118,8186,8178,8166,8153,8108,8163,8179,8304,3.000821352005005,False
82,8160,8297,8178,8159,8200,8125,8197,8199,8161,8145,8097,8164,8161,8280,3.007719039916992,False
83,8166,8282,8152,8159,8171,8143,8231,8207,8167,8144,8102,8173,8158,8288,3.015897274017334,False
84,8147,8271,8143,8142,8179,8156,8244,8196,8176,8151,8108,8161,8162,8286,3.023788928985596,False
85,8156,8297,8256,8147,8236,8167,8230,8204,8174,8149,8101,8165,8154,8254,3.031702756881714,False
86,8161,8285,8162,8170,8151,8178,8236,8178,8191,8154,8123,8173,8169,8260,3.0397064685821533,False
87,8166,8291,8139,8185,8162,8178,8224,8157,8186,8157,8139,8182,8174,8273,3.0477468967437744,False
88,8194,8321,8220,8197,8202,8164,8198,8157,8171,8163,8144,8195,8181,8282,3.055696725845337,False
89,8217,8331,8196,8205,8184,8147,8188,8159,8179,8172,8154,8198,8202,8310,3.063571214675904,False
90,8222,8320,8186,8196,8191,8140,8169,8172,8169,8161,8148,8197,8195,8316,3.070744037628174,False
91,8202,8295,8149,8186,8163,8136,8159,8167,8156,8153,8138,8182,8184,8297,3.07869291305542,False
92,8193,8309,8184,8195,8193,8141,8172,8184,8169,8160,8133,8179,8192,8289,3.0867397785186768,False
93,8178,8306,8193,8195,8177,8145,8182,8193,8179,8159,8126,8179,8195,8290,3.0946319103240967,False
94,8152,8286,8154,8179,8158,8142,8171,8170,8159,8145,8113,8162,8172,8271,3.102661371231079,False
95,8181,8309,8213,8194,8211,8158,8167,8175,8150,8148,8116,8178,8174,8283,3.1106841564178467,False
96,8204,8312,8157,8215,8171,8172,8188,8167,8173,8167,8130,8191,8222,8328,3.118669986724853,False
97,8202,8317,8188,8202,8205,8169,8188,8168,8178,8169,8122,8184,8226,8327,3.126837730407715,False
98,8188,8321,8245,8189,8217,8171,8190,8188,8182,8169,8134,8184,8208,8310,3.134666919708252,False
99,8163,8301,8141,8194,8155,8175,8209,8185,8202,8173,8152,8174,8220,8313,3.141631603240967,False
100,8181,8309,8166,8203,8184,8171,8208,8201,8202,8170,8136,8175,8223,8308,3.1498565673828125,False
101,8188,8309,8190,8202,8176,8161,8213,8208,8205,8173,8132,8177,8217,8309,3.157661199569702,False
102,8165,8301,8182,8191,8184,8153,8203,8202,8202,8173,8125,8170,8200,8304,3.16564416885376,False
103,8159,8289,8172,8177,8179,8146,8174,8185,8176,8162,8119,8169,8194,8289,3.173747539520264,False
104,8164,8284,8141,8177,8158,8139,8161,8153,8162,8161,8135,8171,8205,8283,3.1817657947540283,False
105,8175,8309,8210,8190,8205,8146,8159,8153,8163,8165,8140,8182,8197,8275,3.1907308101654053,False
106,8166,8302,8168,8198,8171,8153,8164,8144,8166,8164,8146,8176,8202,8273,3.197630882263184,False
107,8162,8303,8170,8186,8199,8153,8160,8140,8152,8161,8144,8165,8206,8266,3.2047364711761475,False
108,8159,8304,8213,8178,8199,8149,8157,8151,8149,8168,8134,8173,8195,8259,3.212597846984864,False
109,8151,8295,8142,8201,8136,8146,8169,8149,8179,8178,8145,8173,8208,8283,3.2207512855529785,False
110,8196,8333,8246,8218,8234,8149,8158,8183,8185,8175,8145,8188,8216,8303,3.228687286376953,False
111,8208,8320,8237,8193,8197,8147,8158,8190,8176,8171,8136,8194,8208,8305,3.236750602722168,False
112,8168,8284,8126,8175,8124,8144,8181,8175,8186,8171,8132,8173,8194,8291,3.2445878982543945,False
113,8175,8303,8183,8188,8179,8152,8190,8191,8192,8162,8131,8176,8188,8285,3.2527964115142822,False
114,8196,8315,8186,8184,8186,8154,8190,8185,8183,8157,8128,8181,8197,8304,3.260795831680298,False
115,8192,8308,8197,8162,8196,8144,8179,8183,8158,8161,8104,8177,8184,8305,3.267852306365967,False
116,8164,8285,8174,8152,8152,8128,8174,8177,8154,8161,8096,8171,8169,8283,3.276015520095825,False
117,8163,8288,8156,8156,8142,8121,8168,8152,8145,8146,8096,8164,8160,8264,3.283899307250977,False
118,8191,8305,8170,8173,8170,8129,8159,8140,8122,8139,8102,8173,8163,8278,3.2918105125427246,False
119,8180,8296,8130,8179,8171,8138,8172,8140,8145,8154,8119,8172,8177,8292,3.2999308109283447,False
120,8172,8312,8209,8174,8229,8144,8174,8165,8174,8162,8119,8175,8167,8271,3.307727575302124,False
121,8181,8311,8183,8178,8178,8145,8164,8166,8181,8163,8131,8184,8187,8277,3.3157453536987305,False
122,8194,8316,8145,8200,8171,8148,8157,8162,8181,8170,8145,8185,8221,8306,3.3237104415893555,False
123,8200,8330,8245,8206,8247,8152,8163,8192,8175,8177,8144,8196,8218,8307,3.3317995071411133,False
124,8167,8300,8178,8195,8182,8154,8189,8186,8173,8183,8139,8179,8220,8295,3.3390228748321533,False
125,8163,8297,8154,8198,8159,8150,8193,8169,8159,8171,8115,8160,8211,8284,3.3466992378234863,False
126,8184,8302,8194,8197,8177,8133,8187,8159,8150,8160,8103,8172,8198,8286,3.354768991470337,False
127,8175,8288,8178,8189,8179,8129,8188,8160,8162,8163,8113,8175,8199,8284,3.3627755641937256,False
237,8161,8289,8184,8190,8183,8155,8194,8189,8185,8170,8127,8173,8197,8272,3.3707499504089355,False
0,8160,8295,8150,8194,8161,8159,8206,8193,8211,8180,8143,8171,8214,8283,3.3787829875946045,False
1,8190,8316,8209,8191,8217,8143,8192,8197,8209,8181,8138,8183,8226,8299,3.386667251586914,False
2,8187,8295,8184,8174,8193,8142,8180,8195,8203,8179,8135,8191,8223,8301,3.3949639797210693,False
3,8142,8273,8121,8155,8164,8143,8182,8181,8198,8179,8129,8169,8205,8273,3.4017999172210693,False
4,8161,8308,8235,8162,8225,8142,8176,8196,8175,8178,8119,8173,8192,8252,3.4097368717193604,False
5,8192,8311,8180,8189,8167,8145,8181,8181,8171,8183,8146,8194,8224,8304,3.4176249504089355,False
6,8186,8304,8138,8198,8176,8147,8167,8158,8171,8181,8166,8199,8238,8345,3.4256274700164795,False
7,8169,8314,8206,8192,8201,8149,8142,8152,8165,8179,8158,8196,8224,8320,3.433675765991211,False
8,8163,8314,8167,8191,8147,8151,8150,8137,8169,8185,8155,8188,8233,8299,3.441615343093872,False
9,8183,8317,8175,8195,8165,8152,8163,8142,8167,8184,8154,8191,8239,8309,3.449625968933105,False
10,8179,8300,8158,8197,8150,8156,8172,8143,8166,8182,8157,8178,8232,8321,3.4577715396881104,False
11,8163,8296,8169,8187,8173,8167,8177,8156,8162,8182,8155,8168,8221,8302,3.465665102005005,False
12,8156,8301,8185,8173,8183,8167,8184,8180,8158,8179,8147,8179,8220,8283,3.472750663757324,False
13,8154,8298,8153,8171,8169,8155,8188,8179,8164,8174,8145,8172,8218,8273,3.480724811553955,False
14,8177,8316,8214,8190,8204,8154,8177,8186,8152,8169,8146,8168,8204,8272,3.48874568939209,False
15,8169,8304,8152,8190,8137,8159,8181,8176,8144,8177,8155,8170,8213,8291,3.496584415435791,False
16,8154,8312,8185,8168,8194,8172,8177,8185,8142,8181,8139,8173,8208,8267,3.504704236984253,False
17,8168,8326,8280,8173,8240,8178,8162,8204,8142,8173,8124,8179,8194,8232,3.5126798152923584,False
18,8167,8296,8133,8188,8116,8157,8165,8164,8161,8186,8144,8165,8221,8261,3.520735025405884,False
19,8188,8317,8169,8195,8183,8149,8162,8159,8164,8202,8147,8177,8226,8285,3.528751850128174,False
20,8194,8337,8237,8207,8223,8154,8163,8173,8168,8195,8141,8197,8207,8274,3.5357325077056885,False
21,8164,8329,8163,8220,8164,8148,8156,8163,8177,8190,8140,8181,8207,8268,3.54360032081604,False
22,8171,8329,8165,8221,8171,8151,8150,8174,8178,8195,8146,8177,8221,8276,3.5517985820770264,False
23,8189,8325,8155,8222,8183,8161,8171,8175,8189,8202,8166,8184,8239,8295,3.5597400665283203,False
24,8198,8346,8205,8232,8237,8165,8174,8179,8183,8202,8165,8193,8234,8308,3.567778348922729,False
25,8190,8343,8199,8232,8206,8161,8168,8174,8171,8202,8160,8197,8234,8310,3.5757572650909424,False
26,8173,8327,8160,8220,8177,8158,8184,8160,8164,8202,8153,8186,8231,8298,3.583763360977173,False
27,8162,8316,8155,8196,8178,8159,8204,8161,8155,8202,8138,8167,8205,8275,3.591786623001098,False
28,8154,8303,8116,8183,8161,8155,8212,8163,8154,8205,8136,8149,8194,8259,3.598750591278076,False
29,8174,8336,8243,8192,8241,8154,8195,8202,8160,8201,8141,8166,8190,8254,3.606654644012451,False
30,8175,8332,8254,8194,8203,8150,8181,8210,8188,8206,8165,8189,8213,8275,3.614733934402466,False
31,8168,8302,8130,8187,8132,8147,8180,8183,8216,8223,8188,8187,8243,8304,3.622718572616577,False
32,8190,8312,8170,8192,8172,8153,8165,8188,8214,8225,8179,8182,8235,8300,3.630857467651367,False
33,8184,8321,8194,8209,8169,8156,8155,8177,8209,8214,8166,8172,8216,8277,3.638726234436035,False
34,8179,8326,8193,8217,8177,8152,8162,8162,8200,8205,8165,8176,8207,8276,3.6469767093658447,False
35,8186,8312,8154,8201,8162,8146,8176,8154,8189,8211,8173,8184,8218,8310,3.6547117233276367,False
36,8185,8301,8153,8187,8179,8152,8181,8144,8177,8212,8170,8176,8223,8326,3.662810802459717,False
37,8194,8310,8224,8193,8207,8156,8168,8142,8161,8198,8158,8183,8214,8302,3.669663906097412,False
38,8188,8297,8151,8194,8145,8147,8166,8138,8168,8197,8159,8179,8211,8292,3.677949905395508,False
39,8179,8302,8165,8188,8177,8148,8162,8167,8176,8198,8141,8161,8192,8276,3.685753107070923,False
40,8165,8296,8178,8186,8166,8153,8171,8180,8176,8193,8125,8155,8175,8249,3.693726301193237,False
41,8155,8294,8134,8186,8143,8157,8188,8170,8186,8194,8127,8158,8178,8244,3.7018775939941406,False
42,8184,8329,8261,8207,8242,8173,8177,8203,8182,8189,8122,8186,8173,8257,3.709756851196289,False
43,8183,8304,8216,8213,8187,8168,8175,8197,8185,8184,8124,8189,8181,8272,3.717937707901001,False
44,8172,8282,8131,8198,8141,8157,8175,8170,8186,8178,8121,8168,8185,8268,3.725872039794922,False
45,8191,8306,8186,8212,8184,8169,8169,8176,8171,8176,8111,8179,8174,8267,3.732731103897095,False
46,8182,8303,8164,8222,8173,8165,8160,8161,8159,8178,8105,8174,8166,8267,3.7407708168029785,False
47,8161,8284,8158,8194,8177,8150,8138,8149,8151,8176,8094,8157,8147,8249,3.748589277267456,False
48,8151,8266,8141,8176,8165,8157,8142,8146,8159,8174,8090,8156,8143,8238,3.756667375564575,False
49,8164,8283,8183,8186,8202,8177,8162,8157,8162,8171,8096,8163,8152,8232,3.765918970108032,False
50,8177,8291,8208,8192,8193,8182,8174,8176,8172,8175,8123,8173,8168,8247,3.7726705074310303,False
51,8165,8267,8139,8188,8141,8170,8177,8171,8181,8179,8131,8169,8166,8267,3.7807366847991934,False
52,8172,8280,8198,8184,8192,8159,8161,8180,8163,8170,8109,8177,8142,8255,3.788919925689697,False
53,8180,8290,8193,8207,8181,8151,8152,8175,8164,8174,8140,8194,8163,8263,3.796699523925781,False
54,8185,8298,8192,8244,8195,8147,8139,8160,8167,8172,8174,8203,8187,8282,3.8038887977600098,False
55,8217,8306,8261,8254,8203,8145,8128,8164,8151,8167,8174,8224,8183,8301,3.812700510025024,False
56,8239,8298,8212,8271,8140,8145,8141,8151,8153,8183,8192,8238,8214,8341,3.819703340530396,False
57,8231,8316,8229,8295,8198,8152,8143,8139,8151,8190,8196,8236,8231,8334,3.827889204025269,False
58,8203,8316,8201,8287,8197,8149,8144,8124,8142,8182,8183,8213,8221,8298,3.835851430892944,False
59,8203,8316,8190,8280,8197,8145,8146,8142,8143,8181,8167,8202,8218,8299,3.843849897384644,False
60,8209,8316,8249,8284,8223,8151,8144,8183,8147,8180,8154,8216,8213,8311,3.8517794609069824,False
61,8174,8284,8158,8252,8147,8147,8160,8166,8154,8176,8152,8197,8207,8299,3.859835386276245,False
62,8177,8286,8156,8224,8167,8139,8168,8161,8141,8166,8125,8179,8192,8273,3.866746425628662,False
63,8193,8277,8157,8220,8171,8143,8167,8174,8130,8164,8107,8178,8187,8263,3.874725580215454,False
64,8175,8262,8140,8203,8161,8151,8154,8166,8127,8165,8105,8166,8180,8256,3.882679224014282,False
65,8168,8279,8184,8194,8188,8146,8141,8152,8116,8156,8104,8167,8162,8262,3.890880107879639,False
66,8156,8274,8131,8187,8169,8134,8146,8124,8111,8155,8095,8165,8157,8271,3.898884057998657,False
67,8172,8271,8195,8165,8224,8141,8139,8140,8103,8156,8080,8175,8146,8264,3.9068214893341056,False
68,8187,8251,8210,8153,8205,8151,8140,8166,8112,8161,8101,8191,8160,8282,3.914930105209351,False
69,8154,8229,8118,8144,8160,8150,8148,8155,8130,8168,8109,8161,8170,8275,3.922868013381958,False
70,8142,8248,8154,8139,8179,8151,8151,8164,8127,8159,8075,8142,8140,8229,3.930743455886841,False
71,8165,8263,8167,8154,8156,8164,8173,8174,8144,8156,8088,8169,8148,8237,3.937697410583496,False
72,8199,8275,8194,8169,8202,8170,8171,8179,8165,8170,8133,8198,8183,8284,3.9458820819854736,False
73,8207,8273,8189,8174,8205,8145,8127,8163,8157,8183,8139,8194,8202,8309,3.953700065612793,False
74,8205,8281,8175,8193,8183,8125,8097,8143,8132,8176,8132,8186,8209,8314,3.961792707443237,False
75,8219,8298,8229,8205,8210,8136,8103,8151,8113,8166,8142,8198,8198,8302,3.9697558879852295,False
76,8189,8261,8153,8180,8159,8138,8119,8133,8108,8156,8128,8177,8177,8280,3.977928876876831,False
77,8160,8249,8160,8154,8186,8128,8116,8136,8094,8140,8090,8152,8139,8258,3.9858460426330566,False
78,8159,8261,8183,8154,8184,8136,8138,8169,8103,8147,8093,8154,8129,8257,3.9928479194641113,False
79,8150,8263,8128,8165,8159,8162,8183,8184,8149,8160,8113,8150,8149,8262,4.000852346420288,False
80,8144,8271,8219,8163,8249,8179,8181,8203,8166,8151,8089,8162,8132,8238,4.008697271347046,False
81,8130,8241,8183,8148,8208,8167,8160,8181,8158,8152,8079,8168,8111,8223,4.0168540477752686,False
82,8149,8246,8112,8164,8159,8155,8153,8158,8154,8167,8106,8160,8133,8253,4.024904012680054,False
83,8184,8286,8171,8190,8203,8157,8144,8167,8151,8166,8123,8166,8161,8283,4.032736778259277,False
84,8168,8281,8180,8173,8222,8150,8136,8156,8132,8152,8101,8159,8145,8269,4.040939807891846,False
85,8152,8267,8190,8141,8221,8150,8130,8160,8110,8145,8081,8162,8119,8242,4.0487706661224365,False
86,8148,8251,8144,8135,8153,8152,8143,8168,8123,8156,8108,8175,8149,8256,4.05670976638794,False
87,8145,8248,8165,8135,8179,8145,8154,8168,8126,8162,8116,8172,8162,8267,4.063708782196045,False
88,8146,8241,8200,8132,8201,8144,8159,8163,8106,8153,8091,8164,8139,8255,4.07180643081665,False
89,8143,8231,8136,8130,8150,8142,8167,8152,8104,8145,8088,8153,8135,8252,4.079829692840576,False
90,8157,8256,8211,8130,8206,8143,8158,8170,8107,8142,8089,8172,8132,8255,4.087872505187988,False
91,8161,8248,8197,8139,8175,8156,8166,8175,8128,8155,8110,8195,8149,8280,4.095592975616455,False
92,8160,8232,8141,8145,8149,8171,8183,8179,8149,8168,8123,8185,8162,8290,4.103759050369263,False
93,8164,8240,8213,8135,8210,8168,8182,8194,8142,8160,8104,8168,8146,8262,4.111694574356079,False
94,8136,8228,8168,8127,8182,8156,8172,8165,8142,8157,8108,8151,8143,8244,4.119866847991943,False
95,8124,8232,8149,8123,8178,8158,8152,8160,8141,8166,8121,8149,8142,8240,4.1277055740356445,False
96,8140,8236,8166,8122,8169,8157,8149,8172,8141,8173,8117,8160,8144,8249,4.134676456451416,False
97,8156,8236,8186,8129,8176,8148,8153,8170,8144,8167,8108,8163,8158,8257,4.142772912979126,False
98,8163,8238,8203,8134,8173,8148,8154,8178,8143,8161,8110,8165,8163,8252,4.150898456573486,False
99,8144,8228,8123,8131,8131,8146,8169,8170,8154,8167,8113,8160,8164,8247,4.1589648723602295,False
100,8130,8238,8169,8121,8194,8144,8178,8176,8151,8168,8098,8165,8153,8239,4.166929244995117,False
101,8128,8223,8176,8109,8166,8147,8178,8174,8139,8161,8098,8163,8144,8243,4.174846887588501,False
102,8145,8225,8144,8120,8137,8145,8165,8155,8129,8151,8104,8160,8137,8257,4.182810783386231,False
103,8179,8264,8225,8142,8193,8134,8141,8163,8123,8144,8093,8178,8127,8261,4.189714193344116,False
104,8160,8244,8165,8134,8140,8130,8145,8161,8133,8151,8086,8172,8133,8259,4.197695255279541,False
105,8144,8238,8157,8126,8166,8147,8158,8176,8144,8156,8089,8167,8137,8257,4.2057178020477295,False
106,8168,8255,8193,8150,8196,8169,8165,8189,8162,8164,8117,8186,8156,8277,4.213746547698975,False
107,8178,8258,8177,8168,8187,8179,8179,8179,8171,8169,8139,8184,8180,8300,4.221787452697754,False
108,8180,8274,8229,8167,8222,8185,8180,8188,8154,8164,8129,8176,8173,8290,4.229928970336914,False
109,8160,8265,8162,8162,8172,8178,8171,8160,8144,8158,8115,8162,8158,8268,4.2377610206604,False
110,8158,8264,8158,8162,8186,8173,8145,8138,8124,8148,8098,8157,8136,8249,4.245916128158569,False
111,8173,8260,8190,8165,8195,8175,8139,8154,8119,8143,8108,8167,8139,8262,4.252952098846436,False
112,8160,8248,8141,8150,8176,8163,8151,8162,8139,8149,8123,8159,8162,8283,4.260891914367676,False
113,8160,8257,8184,8135,8207,8154,8139,8171,8136,8150,8103,8164,8151,8268,4.269040822982788,False
114,8163,8243,8141,8134,8138,8149,8140,8156,8136,8148,8101,8170,8153,8261,4.277008771896362,False
115,8178,8263,8192,8142,8187,8150,8138,8172,8145,8145,8108,8171,8164,8261,4.284784317016602,False
116,8187,8273,8260,8150,8233,8157,8139,8200,8157,8149,8103,8188,8164,8270,4.293928146362305,False
117,8159,8241,8129,8147,8146,8158,8160,8178,8169,8154,8105,8177,8165,8280,4.301877975463867,False
118,8163,8257,8164,8147,8185,8161,8161,8176,8154,8147,8100,8166,8152,8262,4.308713436126709,False
119,8166,8262,8203,8150,8199,8159,8155,8169,8143,8145,8094,8169,8148,8251,4.316689014434815,False
120,8145,8241,8141,8137,8153,8153,8145,8148,8149,8146,8083,8160,8136,8251,4.323901891708374,False
121,8145,8240,8147,8121,8133,8158,8143,8151,8147,8145,8087,8160,8129,8245,4.332176923751831,False
122,8164,8258,8178,8138,8154,8172,8159,8162,8154,8154,8109,8169,8156,8253,4.340912103652954,False
123,8179,8270,8199,8149,8193,8172,8156,8177,8160,8157,8108,8172,8166,8262,4.347933292388916,False
124,8155,8246,8138,8118,8148,8160,8149,8179,8155,8148,8094,8155,8153,8259,4.355898380279541,False
125,8131,8242,8181,8094,8171,8159,8153,8195,8147,8143,8076,8150,8135,8243,4.363847732543945,False
126,8124,8223,8178,8080,8145,8151,8162,8188,8143,8146,8070,8156,8126,8233,4.371926784515381,False
127,8115,8195,8095,8065,8101,8137,8159,8148,8132,8137,8066,8137,8111,8226,4.379726409912109,False
237,8128,8234,8257,8076,8224,8150,8135,8174,8107,8119,8049,8145,8074,8202,4.386667251586914,False
0,8117,8232,8234,8095,8163,8156,8138,8179,8118,8127,8066,8163,8084,8205,4.394833087921143,False
1,8105,8209,8062,8103,8053,8144,8151,8133,8135,8144,8093,8158,8125,8241,4.40291690826416,False
2,8140,8243,8152,8116,8141,8148,8140,8131,8112,8142,8091,8168,8134,8259,4.410672903060913,False
3,8156,8257,8213,8133,8173,8153,8135,8141,8101,8138,8089,8174,8138,8257,4.418933629989624,False
4,8154,8255,8193,8133,8149,8151,8139,8150,8114,8145,8086,8175,8144,8256,4.42671799659729,False
5,8151,8242,8173,8121,8132,8151,8140,8153,8125,8148,8083,8179,8143,8264,4.434796333312988,False
6,8156,8239,8186,8124,8163,8152,8142,8160,8131,8145,8086,8176,8141,8268,4.442732810974121,False
7,8176,8256,8207,8153,8167,8158,8156,8185,8161,8156,8111,8188,8167,8285,4.449926376342773,False
8,8177,8258,8158,8167,8124,8160,8165,8182,8190,8175,8139,8191,8200,8309,4.457963466644287,False
9,8182,8270,8213,8158,8187,8158,8137,8178,8166,8176,8130,8187,8187,8305,4.465888023376465,False
10,8187,8268,8193,8158,8159,8159,8124,8166,8154,8174,8131,8187,8189,8301,4.473869323730469,False
11,8180,8270,8155,8165,8139,8160,8130,8153,8163,8172,8132,8177,8196,8291,4.481929063796997,False
12,8172,8272,8254,8152,8209,8160,8123,8164,8126,8154,8102,8174,8146,8258,4.4897072315216064,False
13,8132,8225,8156,8126,8133,8168,8147,8145,8115,8140,8093,8168,8121,8255,4.498937845230103,False
14,8115,8212,8098,8112,8115,8185,8179,8146,8149,8140,8105,8165,8139,8265,4.505828619003296,False
15,8132,8225,8162,8118,8136,8187,8191,8179,8169,8149,8113,8163,8145,8259,4.513844728469849,False
16,8129,8225,8170,8127,8136,8169,8178,8185,8166,8152,8108,8153,8134,8245,4.520933389663696,False
17,8141,8239,8218,8131,8172,8149,8138,8176,8140,8143,8105,8173,8133,8250,4.52893590927124,False
18,8169,8242,8176,8143,8127,8148,8128,8150,8134,8154,8130,8189,8168,8292,4.536790609359741,False
19,8194,8260,8183,8150,8153,8166,8133,8163,8147,8172,8137,8183,8188,8314,4.544960021972656,False
20,8192,8256,8201,8136,8173,8159,8118,8178,8148,8163,8116,8183,8170,8298,4.552733421325684,False
21,8178,8236,8155,8126,8151,8132,8105,8153,8136,8146,8098,8176,8149,8285,4.560734272003174,False
22,8185,8249,8198,8133,8176,8134,8113,8160,8129,8146,8088,8171,8135,8276,4.5687785148620605,False
23,8154,8230,8140,8125,8126,8138,8129,8158,8141,8154,8096,8158,8141,8263,4.57692813873291,False
24,8122,8221,8154,8106,8150,8125,8111,8152,8125,8138,8088,8150,8122,8236,4.583963871002197,False
25,8129,8227,8214,8101,8161,8124,8099,8166,8105,8126,8071,8156,8096,8219,4.591901540756226,False
26,8121,8206,8132,8101,8106,8134,8120,8157,8121,8140,8082,8143,8118,8228,4.599809646606445,False
27,8133,8229,8178,8109,8169,8146,8133,8168,8134,8149,8103,8158,8146,8241,4.608009338378906,False
28,8161,8250,8197,8127,8162,8148,8140,8176,8145,8150,8125,8188,8160,8268,4.615716457366943,False
29,8163,8243,8150,8130,8129,8144,8132,8170,8151,8150,8122,8176,8155,8276,4.623924493789673,False
30,8160,8243,8180,8125,8157,8149,8119,8181,8159,8153,8117,8176,8157,8268,4.631718635559082,False
31,8170,8255,8196,8144,8175,8157,8124,8191,8175,8166,8146,8203,8179,8289,4.63985538482666,False
32,8191,8272,8221,8166,8181,8157,8123,8195,8178,8179,8164,8217,8191,8310,4.647731304168701,False
33,8195,8249,8157,8164,8112,8146,8136,8172,8195,8182,8166,8198,8210,8325,4.654924154281616,False
34,8208,8251,8202,8153,8172,8151,8143,8179,8201,8181,8163,8199,8216,8327,4.662707328796387,False
35,8211,8256,8257,8145,8207,8162,8136,8197,8186,8183,8157,8212,8198,8319,4.670934438705444,False
36,8179,8228,8130,8129,8117,8149,8141,8164,8180,8174,8134,8178,8184,8314,4.678731679916382,False
37,8192,8249,8209,8116,8202,8137,8127,8172,8152,8150,8090,8163,8151,8292,4.687675952911377,False
38,8187,8245,8227,8114,8190,8136,8109,8177,8123,8143,8088,8167,8136,8268,4.69469690322876,False
39,8134,8212,8085,8109,8091,8134,8111,8143,8126,8149,8106,8145,8142,8251,4.702899932861328,False
40,8143,8227,8131,8119,8143,8135,8113,8147,8128,8143,8092,8147,8128,8241,4.710957050323486,False
41,8172,8241,8178,8138,8174,8143,8118,8154,8127,8142,8094,8157,8121,8240,4.719000339508057,False
42,8162,8244,8181,8155,8171,8157,8129,8161,8140,8143,8111,8153,8131,8234,4.725767612457275,False
43,8132,8230,8151,8158,8146,8163,8149,8171,8158,8141,8112,8151,8136,8226,4.733896493911743,False
44,8128,8220,8171,8140,8168,8158,8150,8174,8149,8139,8093,8150,8115,8214,4.741702795028687,False
45,8152,8221,8207,8134,8166,8159,8146,8177,8144,8143,8094,8162,8113,8227,4.749898195266724,False
46,8151,8219,8143,8153,8118,8168,8165,8166,8177,8157,8129,8176,8157,8266,4.757730007171631,False
47,8161,8251,8239,8176,8214,8168,8162,8191,8182,8162,8129,8190,8158,8263,4.765662908554077,False
48,8164,8241,8252,8180,8196,8155,8158,8196,8177,8166,8116,8187,8138,8244,4.77386474609375,False
49,8148,8210,8111,8186,8098,8153,8179,8162,8199,8178,8135,8173,8162,8256,4.78191351890564,False
50,8170,8240,8168,8199,8157,8169,8174,8180,8205,8178,8149,8187,8182,8269,4.788814067840576,False
51,8179,8245,8183,8199,8162,8170,8161,8193,8198,8175,8144,8185,8178,8264,4.796894788742065,False
52,8163,8231,8140,8196,8151,8172,8163,8177,8191,8175,8130,8166,8165,8255,4.804733276367188,False
53,8161,8232,8151,8197,8165,8191,8163,8158,8177,8169,8122,8167,8154,8260,4.812729120254517,False
54,8165,8228,8166,8191,8171,8197,8150,8141,8147,8151,8086,8150,8114,8239,4.820861101150513,False
55,8143,8208,8193,8162,8173,8185,8141,8154,8123,8137,8047,8131,8068,8190,4.828916788101196,False
56,8096,8172,8115,8124,8118,8184,8169,8163,8147,8151,8079,8132,8086,8198,4.836916208267212,False
57,8099,8182,8136,8120,8150,8203,8185,8176,8170,8154,8098,8146,8104,8231,4.844908714294434,False
58,8129,8191,8174,8147,8138,8205,8181,8177,8168,8141,8079,8156,8091,8233,4.851714134216309,False
59,8121,8185,8131,8151,8105,8187,8175,8166,8171,8141,8081,8146,8090,8223,4.859860181808472,False
60,8114,8210,8215,8139,8185,8188,8161,8187,8166,8143,8089,8151,8094,8215,4.867698431015015,False
61,8109,8205,8180,8153,8143,8189,8162,8180,8172,8148,8107,8160,8119,8229,4.8758704662323,False
62,8131,8222,8142,8191,8127,8180,8154,8163,8178,8151,8132,8174,8143,8250,4.883738994598389,False
63,8173,8264,8207,8217,8168,8176,8138,8174,8171,8153,8136,8186,8150,8257,4.891815662384033,False
64,8177,8267,8184,8223,8149,8180,8142,8173,8176,8158,8134,8178,8167,8258,4.899747133255005,False
65,8182,8275,8227,8231,8192,8190,8138,8175,8179,8159,8141,8191,8179,8259,4.907922267913818,False
66,8173,8261,8200,8227,8166,8185,8130,8151,8165,8152,8140,8194,8169,8248,4.915658712387085,False
67,8160,8243,8160,8215,8142,8169,8135,8134,8148,8140,8109,8170,8133,8224,4.9226953983306885,False
68,8169,8247,8191,8218,8158,8174,8152,8150,8156,8136,8087,8161,8100,8213,4.93078351020813,False
69,8152,8239,8163,8216,8158,8185,8164,8148,8166,8142,8087,8149,8089,8200,4.939666748046875,True
70,8138,8226,8185,8192,8190,8185,8156,8159,8146,8139,8087,8143,8080,8180,4.946840763092041,True
71,8137,8196,8129,8177,8130,8190,8172,8166,8159,8142,8109,8150,8101,8211,4.9548070430755615,True
72,8151,8223,8190,8188,8183,8202,8188,8183,8185,8141,8105,8158,8106,8233,4.9629645347595215,True
73,8157,8250,8305,8195,8238,8194,8173,8205,8172,8132,8079,8162,8080,8210,4.970992565155029,True
74,8117,8198,8120,8189,8095,8175,8176,8169,8194,8151,8102,8147,8110,8219,4.978774785995483,True
75,8115,8203,8089,8185,8117,8167,8177,8169,8221,8179,8132,8155,8148,8245,4.985876083374023,True
76,8153,8237,8209,8197,8188,8148,8160,8191,8207,8182,8132,8178,8147,8250,4.993814945220947,True
77,8150,8222,8175,8217,8157,8133,8149,8174,8205,8179,8123,8170,8150,8244,5.002734422683716,True
78,8139,8222,8149,8228,8155,8141,8152,8162,8216,8180,8124,8162,8159,8236,5.009703874588013,True
79,8153,8246,8174,8233,8158,8144,8157,8160,8197,8172,8132,8169,8147,8233,5.01760196685791,True
80,8171,8258,8230,8235,8185,8140,8141,8160,8155,8151,8124,8170,8120,8213,5.02570366859436,True
81,8148,8227,8170,8227,8147,8142,8139,8137,8143,8138,8120,8144,8110,8179,5.033719778060913,True
82,8130,8213,8135,8213,8147,8143,8139,8122,8133,8126,8101,8121,8078,8166,5.041679859161377,True
83,8158,8219,8208,8203,8193,8146,8128,8146,8112,8108,8066,8135,8025,8185,5.049711465835571,True
84,8148,8193,8148,8179,8148,8151,8142,8142,8111,8099,8061,8131,8007,8198,5.056579828262329,True
85,8125,8198,8164,8163,8171,8158,8163,8149,8111,8094,8071,8123,8012,8183,5.064686059951782,True
86,8130,8201,8191,8162,8161,8162,8184,8171,8128,8107,8084,8146,8026,8192,5.0726354122161865,True
87,8128,8185,8133,8147,8130,8166,8195,8171,8163,8133,8103,8150,8048,8214,5.0807204246521,True
88,8133,8195,8180,8145,8166,8172,8193,8195,8187,8153,8134,8164,8081,8227,5.0887064933776855,True
89,8130,8190,8150,8164,8120,8171,8203,8209,8219,8174,8180,8186,8147,8263,5.096923828125,True
90,8149,8204,8183,8178,8161,8168,8193,8218,8239,8194,8208,8203,8185,8287,5.104875087738037,True
91,8166,8214,8234,8177,8192,8161,8178,8218,8237,8206,8228,8215,8199,8289,5.11185622215271,True
92,8141,8195,8151,8174,8132,8141,8180,8188,8231,8204,8223,8188,8209,8283,5.119666814804077,True
93,8139,8215,8200,8176,8171,8132,8160,8180,8206,8185,8180,8173,8178,8259,5.127782821655273,True
94,8157,8227,8214,8184,8164,8141,8145,8164,8189,8178,8171,8187,8166,8257,5.135601282119751,True
95,8163,8232,8188,8194,8164,8156,8147,8151,8182,8177,8185,8190,8181,8265,5.143665075302124,True
96,8163,8232,8185,8195,8164,8163,8145,8152,8161,8167,8187,8186,8183,8268,5.151689529418945,True
97,8167,8225,8152,8187,8152,8158,8146,8138,8141,8157,8182,8184,8179,8274,5.159825086593628,True
98,8175,8237,8207,8179,8196,8152,8142,8147,8123,8147,8161,8188,8159,8260,5.167667388916016,True
99,8144,8205,8149,8161,8138,8154,8150,8148,8125,8146,8150,8166,8143,8239,5.17561674118042,True
100,8117,8188,8119,8140,8139,8171,8174,8160,8130,8146,8138,8136,8123,8219,5.183590888977051,True
101,8116,8197,8171,8129,8163,8191,8213,8194,8134,8135,8118,8133,8101,8204,5.190758466720581,True
102,8098,8177,8127,8115,8128,8199,8249,8203,8158,8138,8115,8131,8098,8198,5.198641061782837,True
103,8089,8171,8170,8098,8176,8210,8241,8208,8169,8144,8111,8131,8086,8178,5.206744909286499,True
104,8083,8166,8155,8108,8151,8214,8225,8194,8173,8144,8110,8132,8087,8180,5.214663982391357,True
105,8083,8171,8124,8121,8131,8201,8209,8181,8172,8141,8113,8138,8101,8194,5.222829341888428,True
106,8099,8176,8165,8111,8142,8183,8185,8181,8160,8143,8122,8156,8103,8200,5.2306458950042725,True
107,8116,8174,8156,8117,8140,8170,8172,8165,8152,8147,8135,8155,8107,8216,5.238664150238037,True
108,8140,8199,8215,8139,8194,8170,8154,8173,8141,8143,8130,8166,8112,8235,5.246727228164673,True
109,8130,8190,8162,8130,8120,8170,8146,8163,8140,8141,8142,8184,8133,8255,5.253647565841675,True
110,8138,8197,8161,8121,8117,8173,8144,8153,8135,8147,8168,8189,8151,8268,5.261606931686401,True
111,8184,8226,8291,8145,8194,8180,8137,8174,8129,8160,8186,8213,8175,8286,5.269767284393311,True
112,8163,8191,8170,8148,8098,8169,8143,8153,8147,8177,8202,8203,8216,8308,5.277641296386719,True
113,8140,8190,8147,8138,8115,8160,8133,8152,8148,8181,8196,8181,8213,8289,5.285707712173462,True
114,8168,8220,8260,8155,8184,8167,8125,8187,8146,8178,8186,8192,8195,8276,5.293648719787598,True
115,8167,8210,8197,8169,8130,8175,8149,8196,8174,8182,8181,8189,8205,8299,5.301659345626831,True
116,8147,8195,8105,8152,8088,8174,8174,8195,8200,8191,8172,8172,8218,8307,5.309849977493286,True
117,8129,8190,8097,8130,8112,8169,8183,8183,8204,8190,8165,8150,8207,8275,5.3166351318359375,True
118,8128,8195,8212,8121,8196,8183,8175,8196,8186,8174,8158,8156,8176,8255,5.324696779251099,True
119,8131,8168,8178,8123,8147,8193,8185,8195,8193,8174,8174,8171,8188,8279,5.332916498184204,True
120,8133,8158,8118,8122,8118,8180,8183,8169,8201,8182,8171,8164,8205,8275,5.340674877166748,True
121,8146,8180,8230,8113,8180,8161,8148,8173,8171,8177,8144,8167,8185,8246,5.348923206329346,True
122,8153,8175,8171,8131,8116,8162,8150,8163,8172,8183,8176,8178,8210,8284,5.356734275817871,True
123,8187,8210,8181,8173,8155,8170,8155,8170,8185,8188,8208,8198,8235,8318,5.3649232387542725,True
124,8198,8219,8246,8163,8180,8158,8138,8181,8181,8181,8193,8201,8216,8307,5.372667551040649,True
125,8165,8185,8155,8128,8110,8144,8136,8157,8189,8184,8190,8181,8222,8315,5.379917860031128,True
126,8169,8198,8153,8132,8137,8154,8142,8156,8187,8186,8198,8187,8235,8321,5.387753009796143,True
127,8170,8202,8156,8135,8137,8164,8147,8158,8173,8179,8183,8189,8217,8305,5.395748138427734,True
237,8158,8196,8173,8130,8145,8171,8162,8174,8174,8176,8159,8179,8200,8300,5.403703212738037,True
0,8159,8189,8168,8132,8141,8186,8197,8198,8196,8182,8161,8179,8218,8308,5.411882162094116,True
1,8155,8179,8154,8120,8145,8186,8210,8204,8206,8183,8161,8174,8220,8298,5.419819116592407,True
2,8160,8187,8217,8119,8175,8176,8196,8213,8197,8179,8153,8179,8200,8291,5.427916288375855,True
3,8149,8177,8146,8129,8118,8170,8199,8190,8205,8181,8163,8180,8209,8307,5.435861110687256,True
4,8139,8180,8151,8110,8149,8157,8172,8166,8189,8168,8137,8173,8190,8293,5.442695379257202,False
5,8151,8187,8215,8105,8157,8144,8140,8156,8160,8162,8115,8173,8162,8270,5.45066237449646,False
6,8160,8181,8148,8135,8100,8153,8150,8141,8166,8175,8146,8175,8193,8291,5.45890474319458,False
7,8167,8194,8169,8131,8155,8171,8145,8161,8166,8177,8152,8187,8202,8310,5.466655015945435,False
8,8159,8181,8168,8109,8150,8166,8133,8171,8158,8171,8141,8181,8183,8303,5.4749414920806885,False
9,8160,8183,8160,8126,8139,8170,8143,8172,8167,8175,8152,8167,8190,8295,5.482869625091553,False
10,8164,8202,8187,8142,8158,8192,8165,8177,8178,8178,8147,8176,8199,8299,5.490939140319824,False
11,8149,8196,8149,8128,8146,8188,8175,8166,8183,8179,8132,8169,8193,8302,5.498785734176636,False
12,8166,8216,8208,8134,8182,8180,8166,8181,8181,8185,8152,8177,8200,8302,5.505969524383545,False
13,8173,8217,8190,8153,8135,8180,8165,8174,8181,8192,8181,8193,8221,8321,5.513654470443726,False
14,8149,8205,8152,8145,8130,8175,8163,8155,8172,8186,8156,8178,8207,8313,5.521798849105835,False
15,8151,8205,8190,8129,8158,8179,8161,8170,8165,8181,8136,8168,8189,8288,5.529757261276245,False
16,8156,8195,8138,8134,8113,8184,8175,8174,8183,8188,8158,8170,8212,8303,5.537912130355835,False
17,8155,8210,8202,8139,8176,8179,8171,8189,8184,8183,8148,8185,8205,8317,5.545817852020264,False
18,8138,8200,8198,8127,8155,8166,8167,8185,8178,8176,8126,8183,8179,8295,5.553785800933838,False
19,8126,8185,8123,8119,8107,8167,8174,8167,8179,8173,8107,8155,8167,8264,5.561829566955566,False
20,8147,8199,8184,8127,8174,8184,8174,8185,8177,8175,8098,8157,8170,8260,5.568620204925537,False
21,8151,8189,8165,8126,8169,8184,8171,8170,8164,8172,8120,8169,8180,8270,5.576709985733032,False
22,8146,8191,8207,8124,8184,8170,8143,8148,8122,8151,8110,8171,8151,8259,5.584887742996216,False
23,8143,8196,8234,8145,8172,8169,8129,8157,8123,8154,8101,8180,8151,8276,5.592694044113159,False
24,8139,8193,8151,8159,8130,8184,8147,8160,8168,8183,8126,8184,8202,8309,5.600918292999268,False
25,8155,8198,8133,8157,8131,8183,8159,8159,8179,8191,8138,8185,8218,8311,5.608832597732544,False
26,8160,8196,8136,8160,8137,8180,8159,8154,8168,8186,8135,8178,8210,8310,5.616906404495239,False
27,8164,8212,8216,8159,8202,8198,8147,8163,8157,8179,8128,8178,8194,8290,5.623704195022583,False
28,8152,8196,8158,8145,8149,8196,8157,8153,8160,8176,8134,8171,8195,8281,5.632702827453613,False
29,8146,8192,8132,8139,8161,8182,8160,8157,8157,8177,8124,8163,8198,8295,5.639710426330566,False
30,8174,8232,8323,8140,8280,8194,8131,8206,8145,8176,8109,8190,8185,8296,5.647732973098755,False
31,8140,8196,8190,8133,8145,8198,8144,8181,8164,8186,8128,8179,8203,8301,5.65569543838501,False
32,8096,8164,8025,8132,8074,8194,8171,8138,8178,8190,8127,8144,8208,8291,5.663718223571777,False
33,8128,8194,8159,8135,8176,8203,8161,8158,8167,8173,8111,8159,8179,8271,5.672758102416992,False
34,8157,8206,8214,8130,8190,8207,8152,8178,8175,8175,8137,8180,8189,8290,5.679738283157349,False
35,8154,8198,8176,8131,8166,8196,8158,8179,8186,8194,8163,8183,8217,8317,5.687873363494873,False
36,8136,8187,8131,8137,8135,8181,8156,8156,8181,8192,8140,8167,8199,8292,5.695767641067505,False
37,8136,8205,8183,8141,8181,8183,8144,8165,8163,8176,8114,8159,8169,8261,5.702759027481079,False
38,8151,8208,8208,8146,8193,8196,8159,8194,8168,8186,8133,8176,8197,8293,5.71073842048645,False
39,8159,8198,8151,8159,8157,8191,8181,8183,8196,8208,8154,8185,8235,8329,5.7186455726623535,False
40,8181,8224,8203,8174,8187,8178,8170,8173,8183,8195,8134,8188,8213,8316,5.726875305175781,False
41,8170,8212,8153,8166,8139,8178,8167,8159,8157,8172,8108,8168,8184,8302,5.734737396240234,False
42,8146,8205,8166,8150,8189,8194,8178,8177,8158,8168,8088,8150,8169,8286,5.742783546447754,False
43,8147,8215,8253,8153,8245,8208,8191,8214,8174,8174,8089,8168,8167,8268,5.750827074050903,False
44,8123,8188,8129,8158,8135,8210,8215,8190,8193,8179,8101,8166,8175,8267,5.758689403533936,False
45,8105,8191,8107,8164,8132,8211,8211,8170,8185,8173,8081,8152,8156,8259,5.7667155265808105,False
46,8114,8200,8160,8172,8166,8207,8194,8173,8182,8173,8074,8153,8145,8260,5.773799180984497,False
47,8145,8211,8198,8176,8203,8208,8183,8177,8192,8182,8085,8161,8145,8269,5.781819343566895,False
48,8161,8215,8206,8182,8188,8211,8166,8166,8176,8178,8087,8166,8141,8267,5.789789915084839,False
49,8133,8192,8129,8178,8129,8193,8147,8135,8154,8171,8080,8157,8143,8255,5.797841310501099,False
50,8136,8205,8201,8164,8191,8176,8137,8151,8139,8167,8070,8168,8132,8245,5.805708885192871,False
51,8160,8211,8206,8174,8172,8177,8161,8167,8146,8171,8093,8180,8148,8272,5.81376838684082,False
52,8165,8213,8166,8188,8160,8188,8178,8165,8152,8176,8109,8179,8174,8304,5.821700096130371,False
53,8159,8211,8199,8171,8184,8188,8168,8172,8149,8176,8101,8187,8170,8299,5.829721689224243,False
54,8137,8191,8142,8155,8138,8171,8163,8154,8155,8177,8105,8177,8173,8294,5.837711334228516,False
55,8157,8215,8214,8171,8199,8166,8155,8168,8145,8176,8102,8178,8180,8301,5.84466290473938,False
56,8172,8221,8232,8184,8187,8177,8164,8183,8140,8180,8110,8190,8187,8306,5.852787971496582,False
57,8141,8199,8121,8186,8123,8175,8178,8160,8146,8183,8120,8173,8189,8291,5.860759496688843,False
58,8139,8208,8142,8189,8157,8177,8169,8156,8146,8182,8100,8161,8177,8274,5.868799686431885,False
59,8155,8215,8166,8189,8172,8195,8171,8161,8144,8185,8077,8157,8174,8273,5.876842260360718,False
60,8157,8219,8200,8189,8195,8207,8178,8176,8145,8178,8081,8164,8176,8269,5.884725570678711,False
61,8149,8218,8175,8187,8154,8205,8183,8178,8166,8176,8109,8182,8193,8284,5.892629623413086,False
62,8160,8231,8165,8187,8153,8214,8176,8170,8165,8177,8104,8183,8184,8292,5.900820016860962,False
63,8180,8229,8215,8192,8194,8224,8162,8177,8141,8166,8085,8175,8153,8277,5.907644033432007,False
64,8166,8197,8134,8182,8151,8218,8166,8166,8154,8175,8104,8170,8169,8287,5.915714979171753,False
65,8166,8216,8209,8172,8218,8217,8171,8182,8158,8180,8102,8179,8174,8287,5.92363977432251,False
66,8150,8211,8228,8176,8195,8216,8184,8188,8146,8168,8081,8174,8154,8266,5.931654214859009,False
67,8123,8185,8099,8179,8110,8207,8205,8175,8164,8176,8088,8157,8166,8272,5.939768075942993,False
68,8162,8224,8204,8184,8196,8212,8201,8210,8187,8191,8104,8183,8182,8291,5.9476940631866455,False
69,8181,8222,8215,8182,8180,8208,8212,8222,8204,8194,8119,8196,8188,8299,5.955790519714356,False
70,8147,8191,8115,8165,8122,8201,8235,8207,8205,8193,8112,8170,8177,8287,5.963690519332886,False
71,8137,8195,8130,8157,8144,8208,8234,8197,8189,8186,8092,8156,8157,8269,5.97109842300415,False
72,8144,8201,8173,8149,8174,8203,8208,8176,8167,8170,8083,8152,8150,8258,5.978626012802124,False
73,8151,8203,8203,8143,8169,8185,8174,8172,8143,8168,8090,8164,8151,8266,5.986827850341797,False
74,8150,8199,8141,8162,8111,8175,8164,8159,8145,8179,8116,8176,8173,8293,5.995065212249756,False
75,8169,8221,8189,8177,8179,8174,8142,8158,8153,8175,8111,8182,8179,8294,6.002642631530762,False
76,8184,8213,8195,8163,8163,8168,8131,8169,8160,8172,8100,8188,8172,8286,6.010838270187378,False
77,8175,8194,8132,8162,8113,8165,8148,8171,8170,8180,8115,8175,8171,8288,6.01871919631958,False
78,8199,8238,8284,8180,8231,8175,8145,8197,8154,8175,8116,8184,8156,8275,6.0268731117248535,False
79,8201,8236,8223,8192,8167,8177,8155,8183,8160,8181,8114,8197,8178,8296,6.03458571434021,False
80,8187,8215,8085,8193,8095,8172,8174,8166,8177,8193,8120,8188,8208,8331,6.041701793670654,False
81,8209,8234,8188,8197,8162,8172,8171,8187,8157,8185,8124,8189,8195,8330,6.04982852935791,False
82,8204,8231,8191,8202,8145,8172,8172,8175,8147,8175,8112,8187,8184,8320,6.057770252227783,False
83,8179,8221,8151,8193,8143,8177,8177,8165,8155,8173,8085,8181,8176,8311,6.065764904022217,False
84,8164,8209,8142,8172,8150,8175,8178,8165,8154,8176,8090,8174,8166,8300,6.073654890060425,False
85,8165,8215,8199,8164,8184,8170,8171,8174,8143,8176,8112,8178,8159,8292,6.082800626754761,False
86,8172,8212,8219,8166,8179,8174,8171,8182,8149,8180,8126,8188,8170,8306,6.089744806289673,False
87,8164,8185,8123,8158,8122,8174,8175,8156,8162,8188,8142,8177,8196,8319,6.097741603851318,False
88,8178,8200,8181,8159,8184,8174,8170,8163,8155,8187,8152,8182,8207,8296,6.10480260848999,False
89,8181,8203,8190,8176,8193,8172,8183,8179,8166,8194,8153,8190,8211,8290,6.112759351730347,False
90,8180,8211,8160,8191,8180,8166,8188,8176,8181,8205,8143,8182,8199,8307,6.120938062667847,False
91,8197,8227,8217,8201,8181,8160,8165,8184,8171,8199,8140,8189,8181,8298,6.12880539894104,False
92,8172,8189,8144,8187,8118,8161,8173,8174,8173,8192,8149,8182,8196,8281,6.1367175579071045,False
93,8153,8182,8152,8163,8167,8173,8193,8178,8177,8193,8134,8176,8201,8282,6.144812107086182,False
94,8162,8194,8183,8159,8173,8178,8195,8184,8182,8198,8126,8184,8192,8290,6.152824878692627,False
95,8172,8193,8154,8175,8138,8182,8193,8179,8194,8205,8130,8176,8187,8282,6.160745143890381,False
96,8189,8194,8182,8192,8173,8183,8200,8189,8191,8197,8123,8180,8176,8287,6.168790817260742,False
97,8187,8180,8149,8187,8157,8182,8221,8182,8177,8185,8122,8186,8178,8308,6.175828218460083,False
98,8186,8192,8194,8170,8180,8194,8219,8190,8161,8184,8117,8186,8173,8296,6.183570623397827,False
99,8167,8190,8189,8159,8157,8198,8218,8188,8165,8188,8115,8180,8166,8282,6.191808700561523,False
100,8127,8166,8120,8152,8141,8181,8222,8159,8161,8176,8117,8162,8163,8279,6.199836254119873,False
101,8129,8166,8174,8147,8180,8179,8204,8162,8148,8170,8113,8164,8156,8266,6.207874774932861,False
102,8146,8166,8148,8144,8127,8178,8185,8158,8161,8180,8116,8162,8165,8265,6.215929269790649,False
103,8163,8195,8205,8140,8179,8171,8156,8173,8160,8178,8106,8161,8152,8252,6.223643064498901,False
104,8156,8186,8231,8131,8190,8168,8139,8192,8162,8190,8103,8173,8152,8246,6.230874061584473,False
105,8120,8145,8106,8123,8113,8166,8142,8167,8188,8208,8123,8165,8175,8265,6.238855600357056,False
106,8134,8178,8164,8146,8165,8173,8139,8168,8187,8199,8138,8173,8181,8284,6.24684739112854,False
107,8161,8207,8199,8182,8173,8183,8149,8172,8180,8195,8162,8191,8206,8308,6.254730939865112,False
108,8163,8200,8165,8186,8162,8182,8149,8156,8177,8204,8166,8190,8217,8311,6.262876510620117,False
109,8165,8193,8170,8173,8162,8180,8143,8150,8164,8197,8147,8184,8197,8293,6.270820617675781,False
110,8169,8204,8176,8174,8157,8186,8146,8151,8153,8182,8146,8177,8188,8291,6.278815746307373,False
111,8174,8217,8212,8173,8180,8191,8139,8159,8139,8176,8145,8179,8181,8290,6.286639928817749,False
112,8158,8195,8148,8163,8144,8187,8141,8159,8139,8181,8142,8174,8182,8283,6.294584035873413,False
113,8164,8203,8175,8163,8177,8189,8147,8179,8152,8185,8140,8170,8187,8274,6.302666425704956,False
114,8178,8207,8200,8158,8153,8189,8148,8183,8158,8181,8135,8175,8181,8272,6.309692621231079,False
115,8159,8188,8126,8154,8111,8189,8154,8160,8158,8175,8119,8164,8159,8263,6.317826509475708,False
116,8160,8209,8231,8161,8216,8201,8147,8183,8145,8171,8106,8170,8131,8240,6.325705528259277,False
117,8163,8199,8216,8157,8167,8200,8144,8174,8144,8179,8132,8179,8145,8257,6.3336803913116455,False
118,8162,8183,8128,8156,8103,8186,8147,8143,8151,8183,8146,8177,8174,8289,6.341635704040527,False
119,8172,8199,8175,8174,8168,8186,8149,8165,8153,8178,8144,8188,8179,8280,6.349690198898315,False
120,8170,8204,8186,8185,8177,8179,8144,8174,8151,8182,8154,8189,8175,8258,6.357692718505859,False
121,8187,8209,8219,8189,8177,8161,8132,8171,8132,8181,8155,8195,8170,8266,6.364853858947754,False
122,8203,8204,8170,8202,8142,8157,8146,8161,8134,8179,8159,8209,8182,8293,6.372697830200195,False
123,8220,8231,8205,8226,8192,8163,8146,8164,8144,8172,8156,8211,8181,8293,6.380821943283081,False
124,8241,8253,8289,8242,8199,8154,8127,8172,8135,8166,8157,8227,8179,8293,6.388775110244751,False
125,8226,8226,8183,8236,8103,8136,8137,8146,8135,8173,8170,8225,8203,8325,6.396824359893799,False
126,8226,8241,8224,8227,8171,8141,8135,8165,8131,8175,8155,8221,8197,8330,6.4048614501953125,False
127,8223,8242,8225,8227,8149,8148,8135,8178,8125,8174,8146,8223,8197,8319,6.412581205368042,False
237,8202,8223,8142,8224,8100,8146,8147,8160,8125,8178,8151,8212,8217,8316,6.420607805252075,False
0,8199,8226,8211,8207,8184,8147,8139,8176,8126,8180,8127,8204,8195,8309,6.4276652336120605,False
1,8176,8198,8171,8176,8157,8134,8136,8170,8132,8178,8096,8179,8169,8297,6.435569763183594,False
2,8171,8189,8138,8165,8138,8134,8146,8164,8134,8179,8089,8171,8176,8288,6.443606853485107,False
3,8178,8197,8144,8169,8142,8155,8159,8172,8151,8189,8097,8178,8191,8292,6.4516918659210205,False
4,8148,8191,8141,8153,8160,8172,8161,8170,8172,8192,8090,8168,8179,8273,6.45964241027832,False
5,8122,8189,8173,8141,8185,8178,8162,8182,8183,8191,8094,8170,8170,8249,6.467817544937134,False
6,8125,8185,8130,8159,8147,8176,8173,8189,8205,8205,8131,8173,8199,8265,6.475682973861694,False
7,8148,8202,8163,8170,8176,8177,8174,8198,8208,8214,8133,8175,8203,8276,6.483866453170776,False
8,8153,8199,8172,8158,8175,8187,8177,8186,8192,8207,8122,8180,8194,8274,6.491944074630737,False
9,8156,8197,8153,8156,8172,8194,8176,8168,8187,8201,8131,8178,8198,8279,6.498742580413818,False
10,8175,8213,8208,8173,8205,8188,8165,8172,8181,8202,8132,8184,8192,8282,6.506715297698975,False
11,8164,8199,8141,8188,8138,8167,8159,8137,8168,8205,8132,8176,8200,8285,6.514655351638794,False
12,8173,8220,8200,8184,8192,8151,8138,8134,8141,8200,8115,8176,8196,8282,6.522655963897705,False
13,8191,8230,8264,8164,8216,8147,8140,8164,8135,8201,8111,8198,8191,8296,6.530670404434204,False
14,8166,8193,8125,8153,8132,8156,8170,8148,8163,8207,8132,8188,8211,8313,6.538601636886597,False
15,8163,8201,8156,8151,8176,8171,8167,8155,8167,8201,8111,8169,8196,8279,6.546677589416504,False
16,8165,8202,8191,8141,8175,8167,8164,8183,8173,8198,8082,8164,8164,8255,6.554790019989014,False
17,8144,8179,8139,8129,8148,8165,8180,8203,8206,8202,8091,8163,8164,8272,6.561748504638672,False
18,8140,8173,8130,8124,8161,8180,8192,8212,8232,8205,8106,8164,8189,8279,6.569846630096436,False
19,8153,8188,8160,8125,8187,8189,8192,8199,8228,8207,8089,8160,8185,8257,6.577835559844971,False
20,8177,8206,8225,8139,8215,8191,8187,8186,8188,8199,8078,8176,8157,8258,6.585835933685303,False
21,8186,8193,8151,8157,8154,8197,8201,8162,8170,8201,8112,8189,8186,8305,6.593839883804321,False
22,8195,8215,8181,8164,8202,8208,8200,8172,8178,8209,8124,8195,8217,8320,6.601691961288452,False
23,8200,8229,8239,8173,8220,8205,8181,8190,8185,8208,8118,8204,8212,8303,6.609714031219482,False
24,8191,8202,8133,8182,8149,8195,8181,8165,8190,8209,8120,8182,8206,8301,6.617746114730835,False
25,8216,8215,8202,8174,8208,8192,8174,8182,8175,8200,8100,8176,8188,8297,6.625595808029175,False
26,8213,8209,8218,8152,8183,8182,8171,8197,8166,8187,8089,8180,8176,8293,6.632782459259033,False
27,8171,8186,8144,8137,8154,8168,8176,8181,8165,8182,8089,8166,8164,8283,6.641791105270386,False
28,8164,8183,8168,8132,8187,8159,8177,8179,8166,8183,8086,8163,8149,8271,6.6488683223724365,False
29,8168,8171,8132,8122,8145,8153,8189,8176,8176,8180,8079,8162,8160,8277,6.656891107559204,False
30,8173,8180,8147,8117,8158,8159,8191,8186,8171,8177,8064,8166,8167,8279,6.664881944656372,False
31,8172,8188,8161,8122,8165,8160,8179,8179,8158,8177,8060,8169,8158,8272,6.672913074493408,False
32,8165,8187,8172,8127,8183,8146,8170,8168,8145,8174,8053,8162,8135,8252,6.680912971496582,False
33,8163,8181,8182,8125,8179,8150,8181,8178,8147,8171,8055,8165,8134,8246,6.688910722732544,False
34,8156,8172,8135,8128,8149,8171,8198,8169,8174,8184,8080,8168,8169,8269,6.695913791656494,False
35,8173,8203,8238,8136,8231,8173,8182,8181,8180,8193,8083,8181,8171,8270,6.703807592391968,False
36,8164,8194,8219,8147,8181,8153,8172,8177,8177,8191,8087,8180,8161,8253,6.711880922317505,False
37,8141,8174,8104,8160,8102,8147,8175,8147,8185,8197,8107,8165,8176,8252,6.719908952713013,False
38,8165,8200,8172,8167,8152,8155,8164,8160,8181,8198,8112,8180,8190,8267,6.727652549743652,False
39,8186,8205,8180,8175,8138,8150,8163,8175,8177,8195,8102,8184,8199,8281,6.735766887664795,False
40,8181,8207,8170,8187,8158,8154,8169,8177,8174,8193,8086,8173,8187,8275,6.7438390254974365,False
41,8161,8200,8166,8185,8177,8155,8185,8172,8165,8187,8082,8168,8166,8263,6.751648187637329,False
42,8154,8187,8158,8161,8170,8147,8193,8172,8154,8174,8087,8167,8166,8264,6.758915662765503,False
43,8162,8185,8186,8140,8177,8153,8184,8187,8145,8171,8080,8177,8172,8267,6.766895532608032,False
44,8135,8158,8117,8120,8134,8150,8178,8164,8146,8173,8072,8164,8149,8257,6.774827003479004,False
45,8135,8168,8153,8120,8164,8139,8163,8159,8132,8161,8064,8154,8114,8235,6.782948970794678,False
46,8165,8184,8179,8146,8144,8142,8163,8171,8136,8166,8078,8175,8142,8250,6.790902137756348,False
47,8160,8171,8130,8144,8131,8148,8181,8163,8158,8182,8093,8176,8175,8279,6.798936367034912,False
48,8149,8175,8209,8117,8193,8153,8173,8171,8155,8177,8074,8158,8138,8252,6.8068718910217285,False
49,8142,8179,8170,8137,8128,8163,8159,8157,8164,8181,8080,8152,8135,8228,6.814903259277344,False
50,8152,8209,8154,8189,8151,8175,8150,8159,8176,8191,8104,8173,8176,8255,6.821868896484375,False
51,8158,8212,8178,8190,8179,8173,8144,8176,8171,8184,8094,8183,8181,8280,6.829667806625366,False
52,8141,8179,8131,8161,8136,8169,8145,8165,8162,8174,8061,8154,8155,8253,6.837901592254639,False
53,8153,8204,8232,8165,8213,8176,8146,8181,8145,8170,8046,8155,8134,8215,6.845870494842529,False
54,8142,8206,8216,8168,8195,8169,8163,8179,8146,8175,8076,8168,8141,8228,6.8538079261779785,False
55,8098,8163,8087,8143,8112,8145,8173,8146,8151,8173,8081,8147,8126,8234,6.861903429031372,False
56,8094,8141,8079,8120,8111,8142,8177,8145,8153,8161,8055,8130,8104,8208,6.869902610778809,False
57,8115,8156,8146,8123,8169,8161,8187,8172,8164,8162,8051,8134,8121,8197,6.877726793289185,False
58,8133,8178,8219,8132,8213,8174,8181,8194,8164,8170,8066,8163,8135,8214,6.8857338428497314,False
59,8142,8165,8129,8138,8144,8170,8189,8170,8169,8174,8083,8175,8141,8260,6.8925621509552,False
60,8165,8185,8162,8154,8186,8173,8198,8180,8179,8172,8085,8170,8149,8271,6.900614738464356,False
61,8173,8206,8263,8160,8217,8182,8197,8216,8190,8179,8084,8179,8154,8252,6.908865451812744,False
62,8140,8178,8144,8150,8131,8186,8213,8188,8205,8189,8091,8170,8157,8252,6.916898488998413,False
63,8147,8184,8149,8157,8178,8193,8210,8175,8195,8177,8091,8168,8148,8258,6.924905061721802,False
64,8162,8192,8188,8166,8183,8191,8199,8176,8191,8172,8098,8172,8152,8257,6.932803153991699,False
65,8132,8182,8149,8144,8157,8178,8188,8154,8186,8174,8095,8155,8146,8236,6.9408791065216064,False
66,8117,8178,8182,8127,8190,8167,8168,8153,8158,8163,8083,8159,8124,8220,6.948768138885498,False
67,8124,8168,8174,8140,8171,8163,8165,8166,8161,8161,8092,8167,8136,8233,6.955772876739502,False
68,8133,8175,8175,8155,8176,8168,8176,8182,8188,8168,8097,8162,8144,8234,6.964818000793457,False
69,8118,8163,8119,8160,8138,8174,8189,8172,8196,8171,8102,8153,8144,8230,6.971902847290039,False
70,8119,8171,8151,8156,8168,8182,8176,8170,8180,8168,8092,8157,8142,8230,6.979692459106445,False
71,8143,8192,8251,8144,8207,8185,8163,8187,8172,8162,8080,8167,8121,8224,6.987863302230835,False
72,8134,8171,8142,8148,8126,8175,8184,8161,8187,8163,8098,8147,8120,8222,6.995844841003418,False
73,8151,8194,8184,8165,8185,8181,8182,8173,8175,8162,8097,8153,8126,8226,7.003654479980469,False
74,8173,8202,8241,8160,8192,8187,8172,8198,8170,8164,8101,8182,8138,8249,7.011904239654541,False
75,8158,8166,8140,8149,8131,8173,8181,8171,8186,8174,8114,8169,8147,8262,7.019873857498169,False
76,8156,8173,8158,8161,8181,8176,8173,8167,8180,8172,8094,8156,8138,8241,7.02698826789856,False
77,8155,8176,8158,8161,8168,8173,8154,8161,8161,8159,8076,8161,8134,8238,7.03488826751709,False
78,8160,8174,8177,8136,8167,8150,8138,8150,8138,8145,8068,8168,8119,8239,7.042891979217529,False
79,8164,8173,8174,8134,8152,8147,8149,8152,8131,8148,8058,8162,8113,8231,7.050864934921265,False
80,8156,8179,8152,8150,8151,8162,8165,8159,8145,8157,8053,8157,8132,8238,7.058879137039185,False
81,8167,8187,8202,8155,8194,8166,8158,8176,8150,8155,8067,8178,8142,8252,7.066894769668579,False
82,8178,8171,8158,8149,8158,8161,8153,8160,8148,8155,8088,8182,8145,8263,7.074885606765747,False
83,8187,8183,8175,8158,8169,8163,8151,8155,8141,8158,8087,8177,8149,8262,7.0826520919799805,False
84,8171,8189,8181,8169,8164,8158,8154,8155,8142,8161,8081,8174,8158,8250,7.090854167938232,False
85,8135,8175,8134,8152,8157,8152,8147,8144,8127,8154,8058,8151,8134,8222,7.097903728485107,False
86,8141,8186,8207,8143,8206,8160,8142,8167,8112,8146,8035,8160,8110,8218,7.105818033218384,False
87,8151,8182,8170,8157,8147,8169,8169,8173,8145,8158,8073,8180,8147,8258,7.113893508911133,False
88,8154,8193,8153,8167,8158,8180,8182,8179,8165,8167,8092,8169,8164,8267,7.121878623962402,False
89,8163,8202,8193,8162,8182,8188,8174,8198,8155,8168,8072,8165,8153,8249,7.1298253536224365,False
90,8161,8186,8151,8157,8145,8179,8183,8191,8165,8172,8084,8176,8174,8256,7.137899398803711,False
91,8173,8195,8209,8145,8203,8167,8186,8198,8164,8167,8087,8193,8174,8272,7.145900726318359,False
92,8183,8188,8200,8140,8189,8171,8188,8195,8160,8166,8064,8188,8163,8288,7.153700351715088,False
93,8187,8184,8150,8159,8158,8179,8191,8173,8166,8168,8065,8169,8178,8282,7.160865068435669,False
94,8180,8183,8138,8168,8156,8175,8175,8148,8159,8169,8093,8171,8195,8265,7.168900489807129,False
95,8165,8185,8136,8158,8176,8170,8158,8139,8152,8177,8093,8173,8190,8261,7.176910161972046,False
96,8184,8220,8237,8164,8231,8175,8143,8168,8149,8169,8080,8180,8171,8264,7.1848437786102295,False
97,8188,8203,8173,8174,8147,8172,8140,8153,8151,8169,8114,8180,8189,8282,7.19289755821228,False
98,8183,8190,8140,8171,8168,8173,8137,8140,8147,8189,8126,8180,8208,8292,7.200876474380493,False
99,8194,8209,8234,8170,8242,8175,8136,8173,8138,8189,8098,8193,8197,8281,7.208862781524658,False
100,8165,8188,8149,8161,8151,8163,8156,8168,8146,8161,8083,8169,8182,8256,7.21689772605896,False
101,8143,8178,8144,8148,8154,8160,8167,8171,8150,8147,8071,8153,8158,8231,7.22390079498291,False
102,8154,8179,8192,8152,8183,8158,8176,8189,8153,8166,8081,8170,8163,8244,7.231807470321655,False
103,8149,8175,8153,8152,8165,8151,8188,8187,8157,8184,8090,8167,8181,8261,7.239897966384888,False
104,8136,8170,8149,8134,8165,8155,8194,8191,8160,8176,8072,8155,8166,8246,7.24889612197876,False
105,8133,8160,8159,8126,8167,8153,8199,8189,8160,8164,8055,8146,8144,8233,7.25562596321106,False
106,8145,8174,8202,8131,8190,8155,8201,8196,8155,8165,8053,8151,8129,8223,7.263898611068726,False
107,8133,8163,8105,8129,8128,8166,8212,8177,8169,8175,8061,8147,8137,8224,7.271895170211792,False
108,8140,8177,8134,8134,8190,8169,8191,8164,8160,8172,8056,8148,8137,8229,7.279670000076294,False
109,8190,8215,8308,8157,8270,8173,8150,8182,8123,8171,8059,8189,8134,8238,7.286863803863525,False
110,8196,8199,8175,8179,8132,8174,8147,8142,8133,8191,8099,8192,8171,8276,7.295895576477051,False
111,8198,8211,8102,8198,8134,8161,8142,8112,8147,8190,8119,8172,8202,8300,7.30286431312561,False
112,8215,8233,8194,8195,8202,8141,8123,8126,8127,8179,8111,8180,8198,8294,7.310869693756103,False
113,8202,8216,8179,8169,8172,8141,8118,8137,8121,8193,8110,8183,8189,8290,7.318897247314453,False
114,8184,8205,8171,8154,8179,8156,8119,8155,8129,8201,8108,8175,8185,8286,7.3269007205963135,False
115,8164,8195,8153,8154,8171,8151,8126,8156,8137,8190,8096,8162,8182,8275,7.334823131561279,False
116,8160,8196,8179,8149,8189,8146,8129,8165,8137,8184,8084,8168,8176,8264,7.342875242233276,False
117,8150,8181,8157,8131,8164,8148,8139,8173,8144,8197,8092,8169,8181,8265,7.349690914154053,False
118,8129,8175,8131,8121,8154,8146,8152,8169,8153,8199,8093,8152,8178,8254,7.357774496078491,False
119,8147,8196,8200,8140,8182,8148,8153,8185,8155,8189,8088,8169,8165,8250,7.365691661834717,False
120,8162,8187,8148,8155,8132,8148,8169,8184,8173,8195,8110,8180,8177,8278,7.373638153076172,False
121,8163,8201,8176,8147,8198,8144,8168,8188,8173,8200,8119,8174,8180,8278,7.381699323654175,False
122,8154,8213,8220,8150,8235,8143,8157,8189,8166,8199,8124,8186,8180,8260,7.389712333679199,False
123,8131,8195,8127,8171,8176,8152,8164,8158,8179,8199,8136,8178,8193,8254,7.397634267807007,False
124,8140,8213,8163,8185,8213,8159,8158,8149,8165,8186,8124,8159,8176,8237,7.405665397644043,False
125,8147,8218,8161,8186,8188,8151,8138,8134,8144,8183,8131,8162,8177,8235,7.413752317428589,False
126,8151,8221,8170,8200,8192,8156,8119,8131,8138,8194,8153,8188,8201,8261,7.42088508605957,False
127,8184,8244,8221,8239,8213,8180,8125,8152,8146,8203,8172,8215,8225,8304,7.428870677947998,False
237,8212,8261,8182,8258,8186,8183,8136,8150,8169,8209,8187,8206,8250,8326,7.436868190765381,False
0,8217,8265,8206,8241,8213,8158,8106,8151,8164,8210,8169,8192,8238,8303,7.44586968421936,False
1,8184,8227,8156,8224,8173,8135,8087,8136,8138,8204,8149,8177,8216,8285,7.452869176864624,False
2,8161,8216,8163,8213,8196,8140,8096,8137,8115,8185,8118,8161,8191,8264,7.460812330245972,False
3,8150,8211,8203,8194,8194,8162,8110,8153,8116,8167,8092,8162,8161,8233,7.468871593475342,False
4,8130,8185,8115,8174,8124,8176,8134,8139,8137,8172,8109,8159,8162,8227,7.476878881454468,False
5,8156,8211,8202,8172,8208,8178,8148,8170,8132,8174,8113,8167,8163,8231,7.48381233215332,False
6,8160,8203,8200,8173,8176,8165,8161,8190,8137,8166,8095,8163,8155,8226,7.491861820220947,False
7,8129,8176,8102,8164,8118,8161,8176,8173,8157,8164,8091,8145,8150,8219,7.499846458435059,False
8,8150,8195,8182,8164,8191,8176,8178,8182,8157,8165,8108,8165,8157,8234,7.507633209228516,False
9,8174,8200,8187,8178,8179,8176,8174,8179,8156,8168,8122,8178,8177,8262,7.515646934509277,False
10,8175,8204,8157,8193,8161,8178,8154,8170,8166,8174,8125,8176,8185,8267,7.523825407028198,False
11,8193,8232,8191,8207,8179,8189,8134,8162,8170,8178,8145,8187,8203,8272,7.531675100326538,False
12,8232,8261,8241,8229,8211,8190,8123,8157,8161,8178,8162,8205,8223,8296,7.539639711380005,False
13,8243,8253,8194,8238,8168,8193,8129,8156,8173,8191,8170,8210,8241,8320,7.546815395355225,False
14,8224,8240,8131,8234,8142,8203,8142,8152,8201,8206,8168,8197,8252,8333,7.554705142974853,False
15,8233,8268,8233,8237,8231,8214,8141,8170,8183,8194,8147,8196,8233,8327,7.562795639038086,True
16,8212,8230,8153,8208,8157,8206,8156,8157,8160,8185,8141,8183,8230,8311,7.570730924606323,True
17,8173,8190,8119,8147,8149,8186,8156,8155,8149,8180,8121,8162,8205,8273,7.578745126724243,True
18,8170,8198,8287,8117,8247,8176,8143,8196,8133,8155,8073,8162,8133,8225,7.58668851852417,True
19,8143,8161,8150,8130,8122,8188,8181,8182,8160,8153,8082,8157,8132,8218,7.594749689102173,True
20,8125,8152,8040,8133,8087,8210,8209,8171,8196,8171,8118,8161,8185,8236,7.602742910385132,True
21,8141,8178,8151,8127,8184,8214,8194,8193,8198,8175,8110,8169,8190,8248,7.61080265045166,True
22,8161,8196,8197,8149,8201,8212,8189,8196,8196,8175,8099,8164,8172,8255,7.617719650268555,True
23,8191,8218,8194,8174,8180,8211,8187,8191,8203,8182,8123,8175,8184,8262,7.6256701946258545,True
24,8196,8216,8150,8171,8161,8208,8170,8171,8208,8187,8153,8183,8214,8274,7.633573055267334,True
25,8202,8225,8199,8176,8208,8220,8149,8175,8197,8181,8160,8190,8225,8284,7.641608238220215,True
26,8222,8231,8211,8199,8166,8227,8150,8177,8192,8184,8180,8201,8240,8292,7.649686336517334,True
27,8220,8220,8148,8195,8122,8212,8145,8146,8184,8186,8184,8189,8252,8293,7.657717943191528,True
28,8218,8226,8197,8190,8186,8207,8125,8141,8165,8179,8163,8193,8244,8300,7.665800094604492,True
29,8217,8231,8175,8212,8157,8222,8138,8144,8177,8193,8180,8203,8260,8324,7.673715829849243,True
30,8216,8240,8169,8201,8160,8233,8158,8156,8189,8201,8176,8187,8261,8312,7.680930376052856,True
31,8212,8229,8192,8168,8173,8226,8169,8173,8183,8184,8147,8182,8240,8291,7.68887448310852,True
32,8195,8202,8137,8163,8145,8214,8184,8174,8184,8176,8149,8181,8232,8303,7.696831941604614,True
33,8199,8216,8188,8175,8184,8215,8189,8196,8183,8176,8149,8185,8216,8297,7.704890012741089,True
34,8197,8214,8180,8174,8146,8210,8194,8202,8191,8177,8148,8181,8212,8283,7.712668418884277,True
35,8190,8204,8174,8157,8149,8200,8185,8197,8194,8175,8144,8173,8204,8275,7.720859050750732,True
36,8189,8188,8176,8139,8159,8203,8172,8195,8188,8172,8134,8175,8181,8267,7.728888034820557,True
37,8178,8180,8113,8142,8132,8212,8176,8180,8197,8173,8128,8161,8173,8256,7.736749649047852,True
38,8189,8221,8233,8163,8212,8218,8163,8202,8198,8173,8111,8167,8162,8228,7.744897842407227,True
39,8178,8210,8217,8158,8159,8220,8166,8193,8206,8173,8109,8175,8167,8229,7.751723051071167,True
40,8169,8193,8118,8155,8113,8216,8182,8159,8210,8171,8122,8170,8181,8254,7.759753704071045,True
41,8201,8223,8165,8186,8155,8212,8192,8163,8188,8170,8141,8184,8189,8268,7.767750024795532,True
42,8193,8220,8154,8187,8143,8219,8202,8151,8173,8160,8139,8175,8182,8258,7.775797605514526,True
43,8165,8215,8207,8166,8194,8235,8193,8155,8160,8144,8111,8160,8151,8220,7.783707857131958,True
44,8155,8206,8182,8173,8173,8236,8205,8165,8174,8164,8127,8164,8169,8222,7.79186224937439,True
45,8162,8216,8139,8200,8163,8253,8229,8179,8219,8201,8154,8173,8213,8257,7.799865007400513,True
46,8176,8230,8210,8210,8197,8277,8218,8203,8237,8205,8143,8185,8215,8276,7.8080971240997314,True
47,8170,8207,8175,8198,8160,8264,8206,8180,8234,8193,8131,8181,8212,8287,7.814614295959473,True
48,8161,8207,8141,8181,8169,8251,8205,8157,8230,8192,8120,8176,8209,8283,7.822725296020508,True
49,8137,8193,8121,8158,8148,8252,8196,8151,8215,8185,8100,8162,8181,8254,7.830705881118774,True
50,8111,8165,8139,8131,8154,8236,8174,8156,8183,8167,8070,8142,8145,8217,7.838781118392944,True
51,8101,8157,8171,8112,8174,8224,8176,8168,8178,8158,8050,8145,8133,8203,7.846695899963379,True
52,8084,8147,8113,8103,8129,8230,8200,8169,8206,8164,8059,8140,8138,8212,7.854835987091064,True
53,8098,8161,8176,8112,8169,8239,8206,8200,8209,8164,8074,8146,8129,8216,7.862829446792602,True
54,8113,8159,8183,8126,8155,8235,8218,8205,8206,8169,8092,8161,8138,8227,7.870729207992554,True
55,8109,8159,8135,8128,8143,8222,8217,8176,8204,8173,8094,8153,8157,8229,7.878829002380371,True
56,8128,8179,8216,8124,8191,8216,8192,8184,8190,8164,8088,8163,8151,8222,7.88567852973938,True
57,8135,8174,8164,8142,8123,8212,8188,8176,8194,8172,8117,8180,8165,8244,7.893762588500977,True
58,8145,8191,8161,8166,8143,8211,8188,8160,8184,8172,8141,8185,8179,8260,7.901848554611206,True
59,8161,8206,8201,8165,8180,8212,8188,8157,8168,8163,8136,8184,8179,8260,7.90971040725708,True
60,8158,8207,8196,8164,8187,8208,8188,8164,8173,8164,8124,8176,8177,8267,7.917750358581543,True
61,8166,8216,8263,8171,8220,8207,8182,8188,8171,8167,8126,8188,8176,8268,7.925740957260132,True
62,8141,8181,8145,8162,8130,8206,8194,8163,8176,8167,8145,8175,8189,8257,7.933605432510376,True
63,8114,8171,8082,8157,8117,8209,8194,8145,8180,8165,8137,8147,8177,8241,7.941805601119995,True
64,8125,8186,8152,8161,8143,8211,8179,8157,8180,8170,8128,8154,8162,8239,7.948869943618774,True
65,8136,8189,8177,8145,8156,8209,8173,8159,8173,8168,8123,8165,8155,8231,7.956900119781494,True
66,8141,8201,8238,8139,8209,8212,8167,8181,8159,8154,8113,8173,8141,8217,7.964820384979248,True
67,8131,8180,8163,8157,8138,8214,8177,8176,8177,8161,8131,8168,8162,8237,7.972827434539795,True
68,8136,8178,8130,8161,8134,8208,8175,8161,8174,8168,8124,8156,8169,8234,7.980863571166992,True
69,8140,8193,8184,8142,8176,8189,8156,8158,8137,8150,8097,8154,8136,8196,7.988659620285034,True
70,8137,8191,8160,8153,8138,8187,8157,8148,8138,8141,8115,8161,8135,8201,7.996716260910034,True
71,8160,8201,8173,8188,8146,8208,8171,8158,8157,8157,8134,8183,8157,8244,8.004905939102173,True
72,8162,8194,8153,8175,8154,8204,8172,8154,8153,8158,8121,8182,8164,8263,8.012810945510864,True
73,8150,8200,8172,8150,8186,8195,8156,8155,8144,8147,8113,8174,8159,8252,8.019744873046875,True
74,8164,8220,8211,8172,8188,8211,8162,8175,8153,8157,8140,8190,8172,8262,8.027885437011719,True
75,8174,8223,8166,8199,8158,8216,8184,8176,8164,8174,8153,8189,8193,8276,8.035682916641235,True
76,8178,8223,8195,8193,8190,8204,8188,8193,8165,8177,8129,8183,8185,8267,8.04389214515686,True
77,8163,8202,8159,8175,8143,8205,8202,8200,8177,8172,8132,8179,8187,8282,8.051732063293457,True
78,8153,8206,8178,8167,8170,8213,8216,8196,8178,8156,8127,8174,8179,8278,8.059651851654053,True
79,8160,8204,8242,8163,8208,8203,8200,8193,8169,8145,8089,8175,8154,8244,8.067887306213379,False
80,8151,8166,8125,8154,8110,8180,8191,8164,8171,8153,8090,8166,8157,8256,8.07490348815918,False
81,8171,8183,8145,8155,8135,8173,8181,8171,8157,8153,8118,8176,8165,8288,8.082796096801758,False
82,8193,8202,8194,8168,8161,8176,8173,8181,8150,8154,8134,8190,8174,8291,8.0907883644104,False
83,8180,8195,8167,8167,8159,8176,8173,8170,8156,8155,8121,8175,8163,8270,8.098739624023438,False
84,8183,8203,8214,8165,8180,8173,8164,8182,8145,8144,8107,8173,8139,8264,8.106875658035278,False
85,8200,8206,8189,8180,8142,8180,8173,8180,8152,8149,8127,8183,8159,8290,8.114707469940186,False
86,8218,8220,8173,8193,8150,8198,8182,8167,8169,8158,8143,8192,8189,8309,8.122723817825317,False
87,8224,8225,8154,8209,8128,8192,8170,8143,8170,8161,8149,8202,8209,8316,8.130855798721313,False
88,8229,8241,8184,8223,8155,8171,8144,8140,8149,8164,8148,8202,8210,8307,8.13863492012024,False
89,8236,8243,8218,8212,8172,8163,8128,8153,8127,8162,8149,8199,8201,8299,8.14577841758728,False
90,8220,8216,8136,8200,8116,8163,8138,8135,8138,8153,8148,8193,8209,8321,8.15388536453247,False
91,8238,8249,8258,8206,8228,8177,8141,8169,8140,8149,8123,8211,8201,8330,8.161692142486572,False
92,8243,8247,8269,8201,8219,8192,8171,8206,8142,8164,8131,8218,8203,8328,8.16989016532898,False
93,8195,8196,8079,8182,8096,8179,8215,8181,8166,8170,8155,8183,8221,8324,8.177886962890625,False
94,8183,8211,8138,8172,8153,8170,8223,8197,8178,8163,8151,8177,8219,8312,8.185664176940918,False
95,8191,8224,8188,8177,8185,8189,8237,8229,8197,8175,8148,8188,8219,8315,8.19382929801941,False
96,8172,8215,8143,8187,8173,8207,8257,8227,8213,8182,8129,8173,8206,8301,8.201661348342896,False
97,8137,8215,8135,8185,8162,8203,8260,8205,8214,8171,8108,8154,8178,8254,8.208657026290894,False
98,8141,8231,8171,8188,8179,8204,8247,8192,8211,8174,8115,8151,8175,8233,8.216829299926758,False
99,8182,8250,8214,8214,8205,8225,8241,8209,8206,8184,8129,8180,8198,8271,8.224865198135376,False
100,8185,8244,8122,8232,8157,8239,8254,8194,8221,8185,8152,8194,8233,8323,8.233894348144531,False
100,8185,8244,8122,8232,8157,8239,8254,8194,8221,8185,8152,8194,8233,8323,8.242838382720947,False
101,8207,8274,8174,8245,8206,8236,8247,8187,8225,8187,8169,8204,8243,8336,8.248725891113281,False
102,8248,8293,8242,8265,8200,8229,8236,8199,8217,8197,8169,8222,8243,8336,8.256801843643188,False
103,8246,8285,8161,8281,8150,8229,8250,8191,8235,8210,8177,8216,8265,8356,8.264790773391724,False
104,8260,8313,8249,8295,8250,8235,8250,8204,8247,8209,8190,8224,8273,8378,8.272757291793823,False
105,8267,8306,8244,8297,8224,8220,8234,8192,8246,8213,8192,8227,8278,8389,8.279713153839111,False
106,8254,8288,8146,8287,8161,8209,8223,8171,8246,8224,8183,8209,8282,8382,8.288001775741577,False
107,8273,8302,8173,8281,8184,8218,8225,8185,8251,8219,8174,8216,8284,8381,8.29581332206726,False
108,8282,8298,8183,8266,8190,8215,8237,8201,8251,8213,8155,8213,8278,8382,8.303735971450806,False
109,8258,8286,8203,8231,8198,8196,8235,8209,8229,8202,8123,8187,8240,8349,8.311591625213623,False
110,8228,8267,8157,8216,8146,8185,8238,8192,8221,8188,8124,8171,8219,8328,8.319671869277954,False
111,8222,8270,8161,8225,8163,8192,8242,8197,8227,8186,8132,8182,8223,8329,8.327735900878906,False
112,8223,8270,8194,8221,8171,8191,8242,8215,8233,8194,8129,8191,8217,8327,8.33472990989685,False
113,8212,8251,8140,8217,8128,8182,8250,8201,8245,8195,8134,8175,8213,8330,8.342726230621338,False
114,8225,8273,8203,8222,8189,8189,8247,8210,8243,8193,8130,8180,8211,8332,8.350801944732666,False
115,8223,8281,8188,8223,8160,8194,8253,8200,8237,8200,8134,8183,8218,8333,8.358694314956665,False
116,8212,8283,8158,8229,8156,8189,8255,8176,8226,8192,8125,8168,8210,8321,8.366655111312866,False
117,8221,8291,8233,8233,8213,8193,8244,8186,8213,8178,8100,8175,8198,8310,8.374813795089722,False
118,8202,8262,8161,8220,8155,8199,8249,8173,8222,8185,8108,8175,8214,8320,8.382678985595703,False
119,8192,8266,8153,8223,8155,8201,8246,8171,8225,8198,8127,8172,8225,8319,8.38958215713501,False
120,8207,8274,8181,8241,8156,8210,8252,8178,8229,8206,8129,8180,8234,8309,8.39874792098999,False
121,8216,8270,8173,8237,8157,8214,8262,8176,8243,8207,8115,8184,8245,8309,8.40569519996643,False
122,8218,8270,8197,8226,8176,8210,8262,8180,8248,8204,8111,8188,8245,8325,8.413668394088745,False
123,8206,8252,8146,8216,8141,8200,8275,8178,8253,8195,8119,8177,8236,8326,8.42165756225586,False
124,8207,8256,8193,8210,8182,8201,8273,8199,8242,8181,8101,8171,8205,8296,8.42966628074646,False
125,8191,8251,8181,8220,8166,8201,8254,8192,8240,8180,8088,8166,8194,8280,8.437900304794312,False
126,8165,8246,8145,8208,8172,8181,8230,8169,8239,8182,8083,8157,8189,8273,8.445666551589966,False
127,8182,8244,8226,8168,8209,8167,8215,8195,8225,8172,8074,8174,8169,8267,8.453563928604126,False
237,8174,8212,8137,8160,8104,8167,8228,8193,8236,8169,8078,8169,8168,8285,8.460620403289795,False
0,8157,8227,8153,8184,8148,8178,8226,8186,8229,8164,8059,8150,8147,8272,8.46972918510437,False
1,8166,8238,8233,8182,8217,8174,8221,8199,8214,8163,8049,8160,8128,8249,8.476638793945312,False
2,8174,8216,8146,8175,8150,8167,8242,8195,8232,8173,8078,8169,8156,8277,8.48473334312439,False
3,8185,8239,8142,8198,8134,8185,8257,8191,8244,8183,8105,8178,8186,8301,8.492797613143921,False
4,8182,8263,8159,8219,8155,8185,8247,8171,8236,8188,8121,8179,8203,8292,8.50076937675476,False
5,8192,8271,8215,8217,8216,8165,8212,8165,8219,8179,8118,8181,8205,8278,8.508849859237671,False
6,8216,8259,8199,8227,8157,8171,8215,8168,8229,8190,8138,8200,8228,8306,8.51663088798523,False
7,8225,8264,8148,8249,8122,8186,8236,8155,8236,8211,8159,8206,8263,8344,8.52489972114563,False
8,8223,8288,8238,8239,8220,8173,8210,8160,8199,8193,8122,8198,8236,8319,8.53190279006958,False
9,8189,8252,8170,8207,8161,8153,8203,8155,8191,8182,8105,8179,8216,8290,8.539640188217163,False
10,8181,8243,8159,8189,8157,8166,8225,8178,8212,8194,8109,8175,8221,8291,8.547841787338257,False
11,8184,8246,8213,8174,8194,8178,8234,8205,8210,8191,8095,8180,8212,8290,8.555842638015747,False
12,8141,8204,8117,8150,8138,8164,8235,8186,8208,8183,8085,8156,8203,8282,8.563676118850708,False
13,8136,8202,8153,8150,8162,8167,8231,8195,8208,8182,8075,8156,8187,8272,8.57176661491394,False
14,8161,8222,8182,8179,8158,8192,8240,8201,8214,8182,8072,8170,8176,8270,8.579676628112793,False
15,8162,8232,8152,8192,8156,8198,8244,8191,8217,8178,8073,8161,8167,8264,8.5880446434021,False
16,8151,8222,8140,8177,8150,8181,8243,8194,8214,8173,8067,8153,8162,8254,8.595638275146484,False
17,8153,8212,8132,8180,8141,8175,8254,8195,8219,8174,8063,8153,8163,8246,8.602753400802612,False
18,8181,8242,8210,8201,8200,8194,8252,8202,8220,8179,8081,8164,8164,8247,8.610882997512817,False
19,8186,8249,8186,8194,8170,8198,8241,8178,8210,8182,8102,8168,8172,8271,8.618822574615479,False
20,8184,8250,8170,8193,8175,8186,8220,8158,8197,8175,8101,8169,8174,8282,8.626887798309326,False
21,8203,8267,8205,8236,8201,8182,8204,8170,8204,8183,8120,8181,8202,8290,8.634807348251343,False
22,8207,8267,8164,8257,8168,8179,8205,8162,8208,8193,8141,8178,8239,8310,8.642616510391235,False
23,8217,8279,8233,8234,8219,8169,8201,8173,8176,8182,8126,8183,8220,8313,8.650884628295898,False
24,8218,8263,8210,8218,8191,8166,8212,8187,8175,8184,8127,8190,8208,8311,8.658684968948364,False
25,8193,8237,8128,8196,8150,8178,8230,8188,8193,8191,8133,8171,8215,8291,8.665637254714966,False
26,8166,8226,8166,8161,8176,8174,8239,8204,8186,8180,8112,8156,8193,8262,8.673717737197876,False
27,8139,8210,8148,8149,8166,8155,8247,8197,8188,8174,8097,8148,8170,8256,8.68193769454956,False
28,8140,8221,8175,8151,8188,8154,8234,8187,8178,8169,8084,8152,8141,8238,8.68974232673645,False
29,8140,8209,8156,8142,8137,8155,8214,8166,8162,8149,8087,8152,8121,8220,8.697633981704712,False
30,8145,8207,8142,8142,8136,8147,8202,8147,8155,8139,8110,8156,8131,8235,8.705749273300171,False
31,8183,8244,8210,8176,8190,8145,8181,8147,8140,8147,8122,8184,8148,8263,8.713863372802734,False
32,8198,8253,8160,8202,8142,8142,8160,8133,8146,8155,8131,8188,8166,8284,8.721648693084717,False
33,8205,8263,8193,8203,8174,8149,8144,8154,8164,8160,8144,8187,8177,8291,8.72984790802002,False
34,8204,8257,8198,8214,8168,8156,8152,8167,8178,8176,8163,8200,8197,8298,8.73685908317566,False
35,8189,8254,8152,8235,8153,8151,8155,8144,8181,8185,8158,8191,8203,8293,8.744810342788696,False
36,8202,8278,8228,8250,8213,8157,8132,8162,8177,8181,8144,8189,8199,8283,8.752716302871704,False
37,8197,8262,8187,8250,8179,8160,8128,8165,8183,8187,8147,8190,8217,8301,8.760856628417969,False
38,8187,8254,8177,8242,8191,8149,8135,8158,8179,8183,8130,8185,8204,8306,8.772856712341309,False
39,8185,8255,8196,8223,8189,8150,8159,8170,8178,8174,8124,8185,8185,8292,8.77882432937622,False
40,8164,8245,8153,8215,8155,8154,8188,8174,8180,8172,8126,8173,8188,8272,8.784825325012207,False
41,8154,8240,8167,8218,8172,8147,8188,8172,8154,8162,8096,8169,8163,8252,8.792669773101807,False
42,8154,8221,8134,8206,8149,8138,8180,8152,8135,8153,8074,8159,8129,8246,8.799693584442139,False
43,8163,8224,8177,8196,8186,8142,8174,8153,8121,8142,8063,8154,8108,8226,8.807770729064941,False
44,8148,8220,8174,8189,8169,8139,8160,8147,8102,8132,8057,8156,8099,8206,8.81580114364624,False
45,8131,8211,8114,8181,8137,8121,8135,8128,8098,8136,8062,8147,8099,8204,8.823807001113892,False
46,8163,8232,8211,8186,8195,8119,8125,8167,8117,8147,8082,8167,8115,8214,8.831785678863525,False
47,8170,8224,8175,8194,8148,8121,8152,8176,8141,8148,8116,8182,8151,8236,8.839752197265625,False
48,8161,8226,8154,8188,8163,8116,8154,8153,8119,8133,8097,8168,8138,8237,8.84767460823059,False
49,8173,8242,8210,8188,8195,8109,8141,8155,8101,8132,8074,8168,8118,8243,8.855703592300415,False
50,8166,8233,8152,8204,8132,8098,8153,8150,8127,8151,8113,8169,8154,8263,8.863671779632568,False
51,8154,8236,8173,8203,8163,8096,8148,8153,8129,8151,8127,8171,8162,8245,8.870807647705078,False
52,8146,8224,8171,8190,8171,8101,8142,8152,8114,8146,8106,8173,8148,8234,8.878816366195679,False
53,8170,8237,8177,8196,8177,8107,8151,8170,8129,8158,8108,8180,8164,8268,8.886888980865479,False
54,8192,8246,8205,8200,8183,8111,8153,8197,8163,8173,8137,8197,8194,8290,8.895770788192749,False
55,8154,8214,8146,8180,8154,8109,8154,8186,8176,8179,8142,8183,8202,8269,8.902785301208496,False
56,8124,8210,8187,8164,8197,8107,8150,8187,8157,8173,8110,8166,8174,8247,8.910658597946167,False
57,8123,8202,8162,8158,8167,8111,8160,8178,8165,8166,8100,8162,8167,8257,8.918758869171143,False
58,8137,8212,8149,8158,8168,8125,8161,8171,8178,8164,8110,8161,8168,8253,8.926698684692383,False
59,8147,8236,8214,8170,8187,8129,8163,8182,8164,8165,8118,8173,8150,8236,8.933832883834839,False
60,8126,8215,8146,8172,8124,8122,8184,8164,8166,8171,8130,8174,8156,8241,8.94165849685669,False
61,8127,8209,8171,8169,8166,8126,8183,8162,8165,8164,8129,8180,8165,8247,8.949763774871826,False
62,8134,8201,8188,8170,8163,8123,8173,8168,8163,8154,8134,8179,8161,8245,8.957715272903442,False
63,8132,8201,8159,8180,8140,8115,8177,8170,8173,8161,8151,8170,8153,8233,8.965672492980957,False
64,8169,8236,8220,8216,8154,8120,8174,8181,8177,8177,8178,8194,8167,8244,8.97369647026062,False
65,8209,8266,8215,8276,8131,8118,8161,8168,8184,8187,8222,8216,8224,8295,8.981805801391602,False
66,8218,8286,8234,8301,8184,8115,8134,8171,8189,8185,8238,8224,8249,8316,8.989760637283325,False
67,8191,8259,8206,8271,8165,8119,8128,8173,8187,8182,8223,8222,8230,8304,8.99782109260559,False
68,8171,8232,8171,8244,8134,8115,8139,8165,8172,8174,8192,8202,8204,8289,9.004547834396362,False
69,8178,8224,8215,8232,8164,8102,8151,8178,8155,8158,8168,8189,8191,8276,9.012859344482422,False
70,8162,8188,8158,8214,8132,8106,8185,8180,8170,8162,8183,8188,8213,8284,9.020663261413574,False
71,8157,8184,8186,8198,8180,8130,8205,8196,8179,8164,8177,8203,8210,8283,9.028722047805786,False
72,8164,8191,8190,8192,8161,8132,8200,8193,8168,8151,8136,8194,8176,8263,9.036726236343384,False
73,8162,8194,8139,8191,8121,8116,8190,8169,8157,8151,8121,8165,8161,8250,9.044811487197876,False
74,8181,8211,8226,8204,8191,8123,8177,8191,8150,8162,8150,8188,8181,8269,9.05269479751587,False
75,8184,8198,8177,8216,8157,8136,8180,8185,8164,8178,8184,8207,8225,8307,9.060842990875244,False
76,8191,8210,8147,8208,8160,8129,8163,8156,8168,8189,8179,8194,8238,8313,9.067731380462646,False
77,8216,8227,8202,8209,8190,8114,8128,8143,8162,8189,8166,8199,8237,8313,9.075875282287598,False
78,8213,8213,8175,8210,8168,8112,8117,8135,8165,8180,8160,8200,8246,8333,9.083848714828491,False
79,8203,8212,8177,8208,8167,8119,8130,8157,8177,8187,8154,8191,8249,8340,9.09153699874878,False
80,8188,8214,8137,8214,8139,8125,8151,8165,8199,8205,8158,8176,8248,8324,9.099693298339844,False
81,8182,8223,8170,8209,8186,8135,8151,8180,8199,8197,8144,8174,8231,8302,9.107844591140749,False
82,8179,8209,8181,8180,8178,8137,8159,8203,8194,8192,8137,8183,8227,8312,9.115690231323242,False
83,8159,8183,8127,8160,8147,8131,8186,8194,8212,8198,8140,8170,8234,8321,9.123844146728516,False
84,8152,8189,8205,8163,8209,8134,8188,8190,8200,8184,8118,8160,8203,8284,9.13092565536499,False
85,8127,8161,8150,8147,8146,8115,8179,8154,8165,8169,8108,8147,8179,8250,9.138881206512451,False
86,8105,8150,8114,8123,8133,8092,8158,8119,8139,8165,8116,8137,8177,8240,9.146674633026125,False
87,8121,8169,8187,8127,8166,8101,8129,8119,8125,8162,8130,8157,8179,8246,9.15483331680298,False
88,8138,8171,8143,8147,8113,8103,8122,8112,8120,8153,8141,8165,8184,8261,9.162813663482666,False
89,8165,8196,8178,8163,8157,8088,8122,8135,8111,8146,8134,8168,8173,8268,9.17079782485962,False
90,8176,8215,8200,8181,8177,8083,8128,8170,8129,8163,8142,8177,8185,8282,9.17869257926941,False
91,8170,8227,8191,8192,8172,8093,8125,8185,8156,8179,8145,8176,8203,8293,9.186850547790527,False
92,8178,8225,8187,8187,8158,8090,8117,8178,8166,8170,8131,8172,8196,8286,9.193883895874023,False
93,8176,8207,8135,8189,8130,8089,8124,8154,8177,8170,8122,8162,8181,8275,9.20188307762146,False
94,8176,8226,8193,8199,8183,8114,8132,8162,8182,8181,8125,8171,8178,8271,9.209752559661863,False
95,8174,8222,8153,8194,8161,8126,8149,8162,8195,8184,8153,8176,8211,8292,9.217658042907717,False
96,8184,8226,8180,8181,8212,8120,8142,8169,8179,8171,8151,8166,8200,8288,9.225664854049684,False
97,8181,8235,8283,8175,8247,8106,8119,8188,8141,8159,8121,8162,8147,8249,9.233867645263672,False
98,8117,8178,8111,8138,8104,8082,8133,8158,8155,8161,8124,8134,8146,8239,9.24172067642212,False
99,8096,8166,8071,8107,8114,8074,8147,8163,8170,8157,8125,8126,8151,8242,9.24986481666565,False
100,8123,8197,8180,8133,8169,8082,8141,8187,8158,8148,8124,8152,8135,8237,9.257650136947632,False
101,8118,8202,8177,8156,8161,8083,8131,8175,8149,8146,8125,8149,8122,8225,9.26488995552063,False
102,8104,8192,8157,8145,8157,8086,8130,8175,8143,8145,8111,8140,8114,8216,9.27281618118286,False
103,8104,8187,8131,8143,8137,8090,8144,8174,8144,8145,8108,8142,8122,8225,9.280872106552124,False
104,8124,8214,8188,8166,8184,8097,8148,8186,8154,8150,8125,8153,8133,8233,9.288671255111694,False
105,8138,8216,8183,8178,8162,8109,8153,8186,8175,8165,8155,8164,8153,8247,9.296680927276611,False
106,8140,8211,8151,8175,8141,8110,8161,8175,8185,8175,8169,8168,8167,8262,9.304626703262327,False
107,8141,8219,8192,8161,8174,8107,8161,8191,8184,8174,8166,8173,8161,8268,9.312838077545166,False
108,8137,8207,8152,8156,8151,8114,8167,8193,8199,8181,8170,8166,8165,8273,9.320610523223875,False
109,8155,8224,8211,8170,8202,8129,8159,8197,8207,8180,8159,8171,8159,8260,9.327874422073364,False
110,8146,8220,8208,8165,8169,8124,8154,8198,8211,8177,8157,8169,8155,8249,9.335675239562988,False
111,8121,8201,8109,8159,8102,8108,8169,8193,8222,8182,8156,8150,8167,8257,9.34368109703064,False
112,8141,8219,8184,8158,8173,8108,8183,8213,8222,8174,8129,8158,8159,8256,9.351648807525637,False
113,8123,8198,8162,8131,8164,8116,8200,8195,8221,8164,8117,8141,8135,8226,9.35987639427185,False
114,8072,8173,8127,8101,8152,8119,8197,8173,8205,8160,8110,8109,8099,8176,9.36770749092102,False
115,8061,8178,8164,8100,8153,8103,8173,8166,8182,8157,8110,8127,8085,8166,9.37584137916565,False
116,8081,8186,8146,8124,8133,8086,8154,8131,8169,8153,8133,8150,8105,8193,9.383824586868286,False
117,8118,8212,8179,8151,8163,8095,8132,8125,8161,8151,8161,8164,8129,8209,9.39088010787964,False
118,8131,8214,8165,8159,8150,8108,8115,8131,8171,8161,8174,8178,8150,8225,9.398650884628296,False
119,8138,8228,8201,8157,8178,8115,8102,8146,8177,8170,8161,8184,8151,8243,9.406895875930786,False
120,8146,8240,8188,8177,8150,8121,8119,8155,8190,8178,8164,8178,8168,8259,9.414777994155884,False
121,8140,8232,8137,8181,8134,8120,8136,8149,8203,8187,8170,8166,8193,8263,9.422799348831177,False
122,8160,8240,8274,8159,8237,8115,8121,8179,8178,8172,8137,8185,8166,8249,9.43065619468689,False
123,8149,8209,8211,8149,8154,8111,8139,8174,8171,8158,8126,8181,8148,8254,9.438536882400513,False
124,8115,8190,8073,8150,8086,8105,8167,8153,8191,8161,8140,8148,8157,8264,9.4466073513031,False
125,8133,8215,8154,8146,8159,8096,8150,8169,8184,8161,8135,8152,8143,8264,9.454519271850586,False
126,8164,8226,8192,8157,8164,8092,8143,8169,8177,8157,8131,8168,8141,8269,9.461540937423706,False
127,8165,8228,8190,8166,8167,8098,8147,8160,8181,8155,8131,8164,8147,8253,9.46963620185852,False
237,8139,8210,8166,8136,8155,8089,8129,8140,8174,8154,8124,8145,8131,8225,9.481693506240845,False
0,8119,8197,8175,8113,8170,8074,8104,8120,8149,8147,8111,8138,8106,8206,9.485628128051758,False
1,8123,8200,8181,8143,8156,8080,8108,8107,8146,8141,8120,8158,8110,8214,9.49368953704834,False
2,8131,8210,8141,8165,8134,8091,8123,8089,8168,8146,8133,8160,8121,8229,9.501665592193604,False
3,8142,8227,8208,8145,8204,8098,8115,8110,8162,8142,8119,8155,8096,8216,9.509716987609863,False
4,8123,8196,8161,8139,8155,8101,8136,8123,8167,8147,8133,8158,8108,8215,9.517645120620728,False
5,8114,8201,8151,8156,8159,8109,8156,8133,8195,8162,8150,8163,8144,8239,9.52465271949768,False
6,8132,8237,8247,8157,8209,8112,8134,8157,8186,8167,8131,8175,8143,8249,9.532881259918211,False
7,8108,8200,8123,8144,8115,8104,8141,8147,8186,8167,8137,8167,8160,8260,9.54081106185913,False
8,8115,8195,8145,8146,8173,8121,8165,8178,8208,8173,8156,8169,8181,8261,9.548746824264526,False
9,8134,8199,8206,8145,8201,8131,8171,8194,8211,8172,8134,8160,8157,8240,9.556879043579102,False
10,8110,8175,8136,8132,8149,8107,8165,8160,8185,8156,8098,8129,8113,8220,9.564873218536375,False
11,8107,8179,8166,8130,8173,8101,8161,8159,8168,8151,8115,8145,8118,8226,9.572626113891602,False
12,8104,8177,8146,8125,8161,8108,8156,8140,8167,8160,8152,8161,8151,8224,9.580814361572266,False
13,8109,8184,8211,8107,8213,8098,8127,8126,8133,8145,8145,8163,8127,8190,9.587818145751951,False
14,8126,8167,8213,8102,8171,8096,8120,8129,8121,8140,8157,8181,8130,8220,9.595597743988035,False
15,8143,8166,8119,8124,8110,8118,8134,8123,8155,8166,8195,8191,8184,8286,9.603804111480711,False
16,8155,8208,8168,8138,8174,8131,8131,8134,8169,8178,8193,8195,8198,8284,9.611868381500244,False
17,8131,8195,8162,8120,8173,8119,8130,8130,8172,8177,8189,8185,8203,8264,9.619812488555908,False
18,8145,8199,8209,8125,8201,8117,8121,8148,8171,8186,8204,8192,8218,8283,9.627850770950316,False
19,8189,8228,8219,8159,8179,8119,8126,8170,8186,8204,8214,8202,8237,8320,9.635793209075928,False
20,8184,8219,8153,8150,8151,8119,8143,8171,8215,8209,8200,8182,8247,8318,9.643831968307495,False
21,8158,8192,8201,8111,8199,8127,8144,8200,8224,8199,8179,8177,8227,8281,9.651833534240724,False
22,8127,8153,8157,8089,8144,8123,8159,8204,8216,8187,8167,8161,8194,8262,9.658775568008425,False
23,8091,8133,8081,8070,8109,8118,8187,8182,8202,8171,8121,8121,8141,8234,9.666816473007202,False
24,8070,8122,8105,8050,8154,8136,8202,8178,8198,8161,8080,8105,8106,8191,9.674795866012571,False
25,8072,8127,8164,8061,8197,8152,8200,8188,8201,8166,8102,8129,8120,8193,9.682794332504272,False
26,8095,8142,8181,8076,8173,8141,8199,8196,8198,8169,8141,8159,8140,8231,9.6908597946167,False
27,8105,8131,8100,8066,8100,8130,8205,8174,8202,8159,8143,8148,8133,8248,9.698720932006836,False
28,8110,8148,8180,8067,8175,8139,8184,8169,8176,8138,8115,8138,8095,8217,9.70686650276184,False
29,8106,8150,8231,8078,8178,8134,8155,8161,8142,8135,8126,8156,8097,8208,9.714816093444824,False
30,8104,8139,8124,8087,8096,8112,8140,8133,8151,8147,8159,8161,8141,8251,9.721725225448608,False
