COUNTER,F3,FC5,AF3,F7,T7,P7,O1,O2,P8,T8,F8,AF4,FC6,F4,Timestamp
95,8152,8142,8151,8153,8160,8227,8182,8189,8073,8161,8143,8151,8157,8332,0.003000259399414
96,8161,8172,8159,8161,8128,8208,8158,8185,8187,8143,8124,8184,8153,8320,0.0110001564025878
97,8145,8139,8144,8159,8131,8207,8176,8172,8083,8162,8125,8157,8154,8309,0.0180006027221679
97,8145,8139,8144,8159,8131,8207,8176,8172,8083,8162,8125,8157,8154,8309,0.0190010070800781
98,8168,8154,8166,8169,8139,8212,8180,8182,8131,8160,8135,8175,8164,8337,0.0260026454925537
99,8173,8169,8174,8174,8118,8200,8165,8198,8224,8157,8135,8187,8169,8340,0.0343384742736816
100,8167,8139,8141,8159,8128,8194,8172,8188,8077,8184,8136,8147,8153,8339,0.0419452190399169
101,8160,8166,8141,8156,8112,8184,8143,8173,8168,8145,8122,8180,8148,8333,0.0499584674835205
102,8145,8148,8131,8160,8116,8192,8151,8172,8102,8151,8148,8158,8156,8319,0.057962417602539
103,8181,8160,8139,8173,8112,8204,8166,8191,8117,8183,8147,8167,8155,8339,0.0655887126922607
103,8181,8160,8139,8173,8112,8204,8166,8191,8117,8183,8147,8167,8155,8339,0.0665912628173828
104,8165,8169,8144,8162,8094,8193,8154,8183,8194,8173,8120,8185,8152,8340,0.073620319366455
105,8145,8135,8133,8153,8127,8194,8171,8168,8063,8177,8140,8153,8156,8347,0.081052541732788
106,8169,8171,8156,8174,8122,8189,8164,8184,8191,8155,8133,8188,8160,8362,0.089104413986206
107,8148,8154,8146,8169,8112,8179,8166,8187,8141,8172,8133,8167,8159,8346,0.0971035957336425
108,8151,8149,8133,8164,8107,8166,8161,8182,8091,8162,8118,8162,8153,8339,0.1050457954406738
109,8161,8160,8140,8166,8100,8149,8146,8178,8163,8126,8091,8169,8147,8335,0.1130530834197998
110,8167,8138,8141,8168,8127,8160,8174,8180,8067,8172,8121,8136,8155,8353,0.1210513114929199
111,8177,8180,8164,8178,8106,8159,8169,8202,8218,8176,8140,8185,8169,8371,0.1292395591735839
112,8143,8160,8152,8177,8103,8140,8161,8186,8146,8147,8133,8163,8161,8348,0.1372382640838623
113,8154,8146,8147,8181,8124,8128,8153,8154,8025,8120,8094,8148,8148,8335,0.1450467109680175
114,8152,8166,8157,8169,8111,8120,8132,8155,8108,8091,8092,8175,8156,8325,0.1523261070251464
115,8122,8139,8136,8156,8120,8124,8146,8166,8005,8121,8152,8144,8163,8318,0.1603255271911621
116,8148,8170,8150,8176,8113,8121,8139,8179,8120,8133,8122,8172,8158,8312,0.1680188179016113
117,8161,8166,8165,8183,8138,8126,8150,8179,8136,8176,8097,8166,8156,8307,0.1760566234588623
118,8157,8151,8168,8174,8153,8127,8155,8172,8104,8206,8128,8165,8154,8317,0.1843650341033935
119,8127,8152,8142,8148,8089,8087,8120,8160,8167,8154,8102,8181,8151,8281,0.1923999786376953
120,8104,8112,8096,8119,8067,8070,8130,8143,7961,8139,8077,8128,8148,8258,0.200047492980957
121,8115,8137,8113,8119,8062,8070,8124,8151,8017,8109,8065,8163,8146,8268,0.2080657482147216
122,8083,8124,8107,8114,8058,8051,8110,8153,8006,8089,8073,8156,8145,8244,0.2150638103485107
123,8096,8115,8092,8115,8065,8039,8113,8142,7901,8113,8076,8130,8145,8252,0.2230470180511474
124,8110,8145,8111,8120,8041,8039,8101,8139,8014,8094,8061,8171,8152,8258,0.2306618690490722
125,8076,8100,8091,8103,8039,8041,8106,8132,7879,8088,8078,8143,8148,8232,0.2386541366577148
126,8091,8116,8087,8101,8026,8022,8082,8134,7914,8073,8067,8158,8150,8229,0.2466740608215332
127,8091,8127,8098,8104,8041,8011,8083,8142,7956,8099,8074,8164,8159,8235,0.255192756652832
240,8105,8119,8105,8116,8067,8031,8112,8156,7902,8136,8098,8152,8159,8246,0.2630228996276855
0,8112,8139,8104,8118,8028,8028,8093,8157,8023,8082,8072,8178,8153,8223,0.2711999416351318
1,8081,8102,8083,8099,8034,8009,8083,8135,7873,8078,8077,8134,8144,8198,0.2780203819274902
1,8081,8102,8083,8099,8034,8009,8083,8135,7873,8078,8077,8134,8144,8198,0.2785789966583252
2,8102,8126,8106,8110,8043,8002,8071,8135,7897,8074,8071,8156,8146,8213,0.2860085964202881
3,8095,8127,8101,8108,8032,8013,8072,8128,7934,8045,8060,8165,8145,8203,0.2940216064453125
4,8097,8104,8080,8104,8046,8029,8092,8125,7822,8067,8081,8132,8145,8203,0.3020219802856445
5,8122,8147,8109,8122,8032,8017,8077,8143,7980,8071,8079,8169,8155,8212,0.3100466728210449
6,8091,8124,8099,8113,8049,8017,8085,8129,7893,8080,8083,8140,8149,8193,0.3180093765258789
7,8093,8129,8090,8115,8061,8027,8085,8123,7893,8071,8067,8147,8141,8188,0.3260259628295898
8,8103,8134,8091,8118,8057,8022,8083,8138,7966,8073,8064,8159,8151,8189,0.334059476852417
9,8105,8118,8088,8113,8079,8035,8113,8143,7880,8096,8103,8133,8159,8209,0.3410401344299316
10,8117,8155,8114,8126,8075,8047,8106,8154,8040,8076,8102,8171,8158,8214,0.348569393157959
10,8117,8155,8114,8126,8075,8047,8106,8154,8040,8076,8102,8171,8158,8214,0.3495633602142334
11,8117,8133,8120,8135,8098,8045,8114,8152,7990,8113,8118,8149,8160,8202,0.3575747013092041
12,8150,8161,8149,8156,8125,8051,8130,8166,8034,8146,8146,8168,8172,8230,0.3646290302276611
13,8159,8186,8171,8165,8133,8067,8151,8184,8184,8145,8155,8187,8178,8244,0.3730535507202148
14,8159,8147,8151,8158,8148,8074,8174,8169,8080,8173,8163,8147,8165,8238,0.3813307285308838
15,8168,8176,8164,8167,8127,8049,8142,8167,8165,8149,8149,8176,8154,8221,0.3883309364318847
16,8157,8163,8165,8165,8143,8051,8154,8171,8106,8152,8172,8150,8154,8206,0.3970510959625244
17,8177,8160,8169,8157,8150,8066,8166,8160,8093,8150,8178,8155,8154,8209,0.404402494430542
18,8155,8161,8164,8144,8126,8043,8136,8149,8158,8121,8156,8179,8150,8182,0.411400556564331
19,8143,8134,8149,8148,8152,8037,8145,8158,8024,8151,8169,8144,8152,8180,0.4204120635986328
20,8188,8178,8187,8174,8154,8048,8152,8179,8179,8148,8174,8186,8171,8210,0.4274189472198486
20,8188,8178,8187,8174,8154,8048,8152,8179,8179,8148,8174,8186,8171,8210,0.4284389019012451
21,8186,8169,8199,8181,8167,8055,8177,8178,8196,8173,8206,8178,8182,8219,0.4360518455505371
22,8195,8167,8193,8183,8185,8056,8194,8182,8179,8205,8210,8170,8169,8226,0.4435944557189941
23,8185,8182,8192,8179,8156,8042,8172,8182,8269,8171,8169,8183,8152,8202,0.4516115188598633
23,8185,8182,8192,8179,8156,8042,8172,8182,8269,8171,8169,8183,8152,8202,0.4526071548461914
24,8165,8146,8176,8165,8156,8040,8175,8166,8105,8166,8175,8146,8151,8182,0.4590506553649902
25,8182,8168,8177,8160,8154,8045,8164,8176,8183,8150,8166,8186,8155,8185,0.4670515060424804
26,8162,8158,8161,8152,8163,8053,8172,8181,8172,8162,8156,8172,8151,8181,0.4753007888793945
27,8178,8160,8177,8170,8167,8060,8178,8175,8122,8179,8154,8160,8160,8211,0.4832994937896728
28,8184,8189,8200,8176,8147,8051,8156,8170,8242,8147,8142,8196,8167,8221,0.4910519123077392
29,8163,8154,8171,8160,8174,8058,8173,8165,8122,8156,8173,8160,8160,8205,0.4987120628356933
30,8193,8176,8177,8177,8166,8062,8160,8171,8211,8147,8174,8183,8164,8203,0.5067358016967773
31,8176,8164,8173,8179,8156,8060,8145,8167,8195,8143,8163,8171,8161,8180,0.515052080154419
32,8155,8146,8158,8171,8175,8063,8159,8165,8090,8165,8159,8151,8142,8166,0.5230705738067627
33,8148,8165,8165,8165,8156,8058,8145,8162,8200,8149,8132,8185,8137,8145,0.5310728549957275
34,8139,8129,8162,8151,8168,8062,8153,8152,8080,8169,8147,8156,8152,8139,0.538074254989624
35,8166,8160,8182,8164,8169,8059,8157,8172,8162,8165,8157,8180,8167,8157,0.5455889701843262
36,8146,8168,8176,8170,8163,8062,8167,8177,8182,8152,8161,8171,8161,8130,0.554589033126831
37,8145,8146,8166,8169,8178,8077,8171,8162,8070,8162,8166,8147,8149,8115,0.5615870952606201
37,8145,8146,8166,8169,8178,8077,8171,8162,8070,8162,8166,8147,8149,8115,0.5625872611999512
38,8163,8170,8182,8169,8171,8065,8138,8164,8203,8146,8152,8190,8154,8128,0.5695874691009521
39,8150,8145,8173,8170,8193,8059,8151,8162,8106,8168,8183,8166,8161,8141,0.5775876045227051
40,8172,8167,8185,8189,8175,8067,8154,8173,8156,8163,8175,8188,8157,8151,0.585587739944458
41,8165,8166,8179,8177,8149,8062,8149,8175,8188,8148,8137,8181,8147,8119,0.5935897827148438
41,8165,8166,8179,8177,8149,8062,8149,8175,8188,8148,8137,8181,8147,8119,0.5945894718170166
42,8147,8136,8160,8151,8175,8057,8161,8154,8038,8148,8140,8146,8141,8096,0.601588249206543
43,8142,8161,8177,8155,8165,8051,8138,8156,8147,8112,8151,8189,8149,8081,0.608590841293335
44,8134,8136,8166,8163,8172,8061,8148,8170,8087,8160,8180,8164,8158,8076,0.6165893077850342
45,8165,8154,8163,8168,8178,8067,8156,8173,8124,8175,8168,8174,8157,8096,0.6250529289245605
46,8152,8164,8171,8157,8160,8053,8146,8165,8168,8136,8161,8184,8156,8092,0.6330516338348389
47,8149,8149,8183,8166,8165,8061,8163,8175,8071,8161,8195,8159,8155,8099,0.6410512924194336
48,8187,8185,8209,8192,8165,8074,8168,8198,8241,8170,8180,8195,8154,8104,0.6491961479187012
49,8179,8151,8189,8171,8188,8080,8190,8191,8170,8185,8190,8161,8155,8094,0.657149076461792
50,8167,8152,8181,8154,8173,8085,8184,8185,8150,8162,8200,8165,8163,8108,0.6650524139404297
51,8140,8165,8180,8155,8141,8086,8169,8184,8214,8142,8189,8180,8166,8093,0.6720521450042725
52,8146,8138,8165,8156,8162,8090,8189,8178,8077,8185,8196,8146,8154,8081,0.6800518035888672
53,8163,8165,8176,8153,8145,8080,8175,8180,8174,8158,8163,8180,8150,8084,0.6883447170257568
54,8126,8140,8150,8136,8138,8080,8183,8171,8096,8133,8154,8155,8150,8071,0.6963398456573486
55,8140,8142,8136,8144,8145,8085,8184,8170,8068,8133,8149,8157,8146,8062,0.7040526866912842
55,8140,8142,8136,8144,8145,8085,8184,8170,8068,8133,8149,8157,8146,8062,0.7045724391937256
56,8142,8163,8150,8155,8134,8083,8171,8176,8160,8135,8138,8176,8150,8044,0.7125880718231201
57,8132,8140,8148,8154,8159,8099,8195,8181,8052,8172,8168,8144,8161,8061,0.7195937633514404
58,8156,8166,8155,8152,8151,8091,8180,8189,8173,8156,8157,8179,8165,8072,0.727593183517456
59,8134,8140,8133,8133,8147,8085,8174,8176,8110,8165,8159,8158,8157,8043,0.7345969676971436
60,8145,8149,8138,8154,8151,8101,8186,8176,8076,8189,8170,8158,8153,8057,0.7426009178161621
61,8152,8176,8151,8171,8139,8088,8173,8182,8196,8153,8145,8181,8154,8062,0.7511301040649414
62,8129,8125,8126,8144,8155,8075,8170,8164,8020,8132,8128,8134,8144,8040,0.759052038192749
63,8141,8146,8139,8134,8124,8073,8152,8165,8071,8115,8102,8171,8141,8043,0.7672576904296875
64,8136,8145,8133,8136,8131,8085,8164,8163,8058,8139,8118,8171,8150,8050,0.7742655277252197
64,8136,8145,8133,8136,8131,8085,8164,8163,8058,8139,8118,8171,8150,8050,0.7752587795257568
65,8147,8144,8129,8147,8172,8106,8180,8164,8034,8156,8149,8163,8163,8062,0.783301591873169
66,8150,8165,8145,8149,8139,8107,8165,8177,8176,8127,8142,8183,8162,8057,0.7910513877868652
67,8154,8135,8136,8140,8135,8101,8183,8173,8050,8158,8145,8142,8159,8076,0.7985255718231201
68,8189,8166,8157,8157,8142,8099,8180,8176,8141,8170,8138,8177,8167,8113,0.806119441986084
69,8161,8161,8160,8158,8146,8102,8175,8177,8166,8168,8149,8172,8163,8102,0.8141181468963623
70,8157,8146,8150,8153,8153,8101,8180,8182,8090,8180,8156,8150,8154,8107,0.822052001953125
71,8172,8173,8157,8156,8139,8093,8168,8188,8201,8158,8129,8172,8154,8110,0.8300619125366211
72,8156,8145,8148,8153,8160,8106,8184,8172,8079,8160,8143,8135,8155,8099,0.837601900100708
73,8176,8170,8172,8168,8152,8116,8175,8171,8149,8144,8146,8168,8161,8117,0.8461470603942871
74,8171,8167,8175,8161,8145,8115,8167,8173,8173,8149,8149,8168,8163,8126,0.8540523052215576
75,8168,8144,8160,8140,8150,8122,8177,8167,8063,8165,8156,8137,8154,8124,0.8620514869689941
76,8170,8168,8170,8140,8124,8123,8162,8173,8188,8142,8128,8168,8155,8115,0.8690509796142578
77,8159,8142,8159,8148,8152,8147,8180,8173,8115,8181,8156,8144,8161,8127,0.8770735263824463
78,8176,8167,8175,8169,8168,8171,8171,8179,8198,8180,8178,8171,8165,8147,0.8850729465484619
79,8168,8170,8186,8166,8145,8160,8160,8183,8242,8162,8165,8173,8167,8124,0.8929233551025391
80,8178,8150,8173,8153,8144,8162,8176,8173,8105,8179,8155,8135,8152,8124,0.9012138843536376
81,8173,8176,8163,8149,8134,8174,8157,8170,8201,8142,8134,8165,8144,8120,0.9092116355895996
82,8137,8138,8142,8141,8159,8182,8170,8167,8094,8157,8154,8133,8150,8094,0.9170534610748292
83,8152,8150,8155,8151,8153,8172,8163,8168,8108,8167,8148,8146,8149,8082,0.92505145072937
84,8146,8165,8160,8151,8141,8161,8139,8165,8160,8143,8138,8166,8146,8070,0.9320516586303712
85,8157,8149,8155,8151,8180,8185,8166,8170,8075,8160,8177,8154,8163,8100,0.9400649070739746
86,8187,8185,8183,8165,8162,8183,8166,8185,8249,8163,8183,8188,8177,8133,0.9475152492523192
86,8187,8185,8183,8165,8162,8183,8166,8185,8249,8163,8183,8188,8177,8133,0.9485094547271729
87,8166,8156,8166,8160,8149,8169,8166,8176,8174,8178,8184,8149,8160,8124,0.955510139465332
87,8166,8156,8166,8160,8149,8169,8166,8176,8174,8178,8184,8149,8160,8124,0.9565103054046632
88,8174,8163,8166,8164,8164,8190,8164,8169,8147,8159,8170,8159,8151,8123,0.9640519618988036
89,8163,8180,8187,8167,8177,8211,8162,8168,8212,8146,8154,8170,8162,8101,0.9722929000854492
90,8164,8149,8179,8162,8190,8212,8183,8163,8090,8180,8167,8127,8155,8084,0.980051040649414
91,8186,8172,8175,8162,8147,8188,8169,8167,8192,8131,8142,8164,8138,8071,0.9881150722503662
92,8148,8153,8156,8153,8148,8180,8163,8161,8101,8106,8140,8146,8140,8052,0.9955921173095704
93,8154,8160,8165,8162,8171,8187,8162,8166,8089,8127,8149,8149,8152,8063,1.0025935173034668
93,8154,8160,8165,8162,8171,8187,8162,8166,8089,8127,8149,8149,8152,8063,1.0035860538482666
94,8155,8170,8169,8158,8157,8180,8155,8169,8193,8125,8152,8163,8154,8054,1.0106465816497805
94,8155,8170,8169,8158,8157,8180,8155,8169,8193,8125,8152,8163,8154,8054,1.011668682098389
95,8149,8139,8150,8151,8162,8184,8169,8162,8052,8149,8178,8128,8152,8050,1.0186920166015625
95,8149,8139,8150,8151,8162,8184,8169,8162,8052,8149,8178,8128,8152,8050,1.019685983657837
96,8184,8180,8179,8178,8169,8186,8158,8175,8185,8161,8177,8177,8163,8070,1.0274529457092283
97,8174,8165,8180,8177,8198,8187,8170,8177,8183,8178,8199,8164,8167,8073,1.0346715450286863
98,8174,8153,8169,8160,8182,8182,8175,8172,8125,8159,8190,8145,8154,8073,1.0430519580841064
99,8154,8161,8163,8144,8138,8165,8147,8158,8156,8109,8136,8149,8143,8038,1.051052808761597
100,8130,8130,8140,8138,8166,8162,8154,8141,7986,8122,8140,8116,8144,8013,1.0587029457092283
101,8161,8169,8157,8159,8165,8155,8145,8151,8101,8112,8142,8157,8153,8020,1.0657036304473877
102,8151,8154,8160,8151,8155,8158,8151,8144,8074,8104,8137,8143,8147,8008,1.0740470886230469
103,8151,8145,8162,8148,8165,8169,8158,8142,8001,8106,8138,8138,8149,8011,1.082033395767212
104,8160,8173,8172,8157,8154,8153,8142,8158,8149,8105,8144,8173,8164,8017,1.090130090713501
105,8138,8138,8151,8153,8171,8141,8160,8153,8025,8140,8168,8126,8156,8015,1.098128318786621
106,8144,8160,8161,8163,8159,8145,8158,8157,8079,8109,8149,8147,8147,8007,1.1060526371002195
107,8157,8159,8179,8172,8153,8150,8176,8160,8116,8123,8160,8159,8159,8010,1.114051103591919
108,8185,8157,8197,8181,8181,8143,8182,8160,8101,8181,8196,8160,8170,8047,1.1213502883911133
108,8185,8157,8197,8181,8181,8143,8182,8160,8101,8181,8196,8160,8170,8047,1.1223444938659668
109,8176,8185,8195,8180,8180,8143,8150,8172,8229,8140,8181,8174,8163,8037,1.1303470134735107
110,8163,8150,8166,8174,8201,8169,8180,8175,8107,8149,8199,8131,8155,8020,1.1363937854766846
110,8163,8150,8166,8174,8201,8169,8180,8175,8107,8149,8199,8131,8155,8020,1.1373789310455322
111,8203,8180,8204,8196,8195,8160,8176,8173,8199,8179,8214,8174,8161,8041,1.1450514793395996
112,8198,8182,8217,8192,8184,8133,8149,8161,8220,8170,8215,8167,8161,8026,1.15307354927063
113,8195,8157,8186,8176,8195,8155,8164,8155,8097,8156,8218,8131,8149,8016,1.1610727310180664
114,8182,8180,8182,8177,8172,8168,8159,8162,8214,8127,8194,8169,8144,8012,1.169322490692139
115,8169,8157,8184,8176,8186,8148,8161,8165,8128,8164,8210,8147,8155,8013,1.177316665649414
116,8219,8188,8217,8191,8191,8127,8149,8167,8209,8188,8223,8170,8171,8045,1.1850461959838867
116,8219,8188,8217,8191,8191,8127,8149,8167,8209,8188,8223,8170,8171,8045,1.1853830814361572
117,8195,8185,8202,8189,8177,8127,8141,8150,8227,8174,8219,8167,8166,8032,1.192047119140625
118,8168,8146,8162,8171,8176,8136,8153,8140,8047,8155,8211,8131,8149,8007,1.2004075050354004
119,8187,8177,8178,8174,8157,8116,8141,8152,8162,8119,8194,8171,8153,8005,1.2084169387817385
120,8191,8172,8197,8197,8201,8124,8167,8164,8150,8171,8238,8166,8169,8029,1.216416835784912
121,8229,8194,8221,8223,8223,8155,8187,8187,8256,8210,8250,8184,8173,8055,1.2240524291992188
121,8229,8194,8221,8223,8223,8155,8187,8187,8256,8210,8250,8184,8173,8055,1.224419116973877
122,8221,8186,8215,8198,8203,8139,8174,8185,8304,8186,8231,8178,8158,8030,1.2324397563934326
123,8209,8155,8208,8181,8217,8120,8180,8165,8148,8175,8245,8149,8143,8024,1.2394473552703855
123,8209,8155,8208,8181,8217,8120,8180,8165,8148,8175,8245,8149,8143,8024,1.240440845489502
124,8222,8186,8232,8202,8197,8132,8167,8168,8272,8155,8228,8182,8144,8027,1.2480151653289795
125,8197,8157,8211,8195,8192,8147,8166,8165,8182,8178,8234,8147,8150,8008,1.2556250095367432
126,8206,8165,8199,8185,8197,8129,8156,8166,8161,8168,8226,8160,8148,8014,1.2626395225524902
127,8192,8180,8195,8176,8184,8114,8153,8165,8222,8141,8205,8168,8144,8010,1.2706387042999268
240,8170,8153,8181,8174,8178,8125,8173,8164,8102,8178,8228,8124,8150,8012,1.2790510654449463
0,8187,8182,8201,8189,8161,8106,8146,8177,8220,8160,8212,8166,8157,8016,1.2870521545410156
1,8190,8159,8196,8186,8187,8095,8156,8172,8158,8159,8206,8153,8160,8016,1.295051097869873
2,8204,8168,8193,8192,8185,8101,8166,8170,8170,8168,8223,8158,8164,8040,1.3030836582183838
3,8189,8181,8193,8197,8150,8086,8150,8176,8274,8157,8225,8174,8165,8041,1.3110802173614502
4,8177,8143,8180,8181,8175,8086,8165,8167,8113,8176,8222,8138,8153,8034,1.3190393447875977
5,8185,8176,8203,8179,8153,8089,8154,8171,8190,8142,8197,8172,8144,8032,1.3260529041290283
6,8170,8160,8194,8178,8130,8090,8167,8172,8144,8146,8207,8154,8143,8026,1.3340520858764648
7,8188,8155,8183,8180,8150,8093,8179,8166,8114,8165,8201,8146,8141,8041,1.342041015625
8,8168,8164,8181,8166,8129,8089,8158,8166,8200,8134,8168,8162,8142,8026,1.3505594730377195
9,8142,8133,8159,8152,8114,8093,8172,8170,8052,8148,8185,8123,8143,8017,1.3576154708862305
9,8142,8133,8159,8152,8114,8093,8172,8170,8052,8148,8185,8123,8143,8017,1.3586394786834717
10,8170,8174,8175,8164,8108,8092,8173,8181,8165,8150,8188,8162,8146,8031,1.3660526275634766
11,8145,8153,8164,8151,8139,8095,8173,8176,8152,8157,8191,8153,8148,8017,1.374074935913086
12,8151,8142,8155,8154,8158,8101,8171,8173,8087,8159,8183,8133,8150,8028,1.3820750713348389
13,8175,8178,8179,8172,8129,8099,8166,8181,8214,8143,8173,8161,8158,8037,1.3890514373779297
14,8167,8151,8173,8169,8142,8113,8199,8179,8115,8185,8202,8141,8155,8029,1.3970515727996826
15,8187,8171,8171,8172,8137,8109,8190,8188,8213,8172,8184,8165,8149,8033,1.4050226211547852
16,8169,8164,8164,8163,8145,8093,8181,8184,8198,8151,8185,8146,8151,8032,1.413022756576538
17,8172,8155,8175,8168,8162,8102,8196,8178,8127,8185,8213,8142,8157,8054,1.4210269451141355
18,8178,8175,8185,8169,8131,8095,8178,8175,8254,8176,8186,8178,8151,8045,1.429051399230957
19,8157,8140,8158,8150,8131,8076,8179,8157,8083,8144,8179,8129,8142,8026,1.43707275390625
20,8182,8171,8187,8168,8120,8067,8169,8164,8119,8105,8180,8158,8153,8046,1.4445886611938477
20,8182,8171,8187,8168,8120,8067,8169,8164,8119,8105,8180,8158,8153,8046,1.4455997943878174
21,8194,8175,8220,8179,8136,8063,8169,8171,8182,8140,8202,8178,8160,8060,1.4530515670776367
21,8194,8175,8220,8179,8136,8063,8169,8171,8182,8140,8202,8178,8160,8060,1.4536876678466797
22,8214,8161,8222,8175,8163,8079,8187,8171,8142,8182,8226,8161,8163,8082,1.4600512981414795
23,8214,8195,8217,8178,8124,8075,8173,8179,8271,8140,8206,8179,8164,8079,1.46801495552063
23,8214,8195,8217,8178,8124,8075,8173,8179,8271,8140,8206,8179,8164,8079,1.4687161445617676
24,8191,8166,8203,8176,8142,8070,8181,8174,8145,8148,8222,8142,8158,8071,1.4758989810943604
25,8218,8177,8229,8189,8162,8073,8176,8173,8189,8149,8219,8168,8159,8087,1.4839277267456057
26,8214,8178,8232,8192,8148,8067,8177,8173,8246,8152,8217,8177,8167,8090,1.4920556545257568
27,8221,8170,8226,8202,8165,8076,8194,8179,8184,8189,8245,8156,8158,8112,1.500051736831665
28,8244,8205,8255,8215,8161,8083,8178,8183,8330,8159,8215,8192,8146,8115,1.5080151557922363
29,8221,8167,8238,8196,8164,8094,8196,8167,8202,8154,8200,8152,8151,8088,1.51605224609375
30,8219,8178,8221,8191,8159,8088,8193,8170,8197,8148,8198,8158,8155,8083,1.5229666233062744
31,8205,8186,8213,8191,8156,8070,8173,8171,8237,8128,8198,8165,8152,8066,1.530970335006714
32,8194,8158,8204,8192,8180,8077,8178,8163,8116,8146,8211,8138,8148,8056,1.5389974117279053
33,8187,8181,8212,8190,8167,8081,8159,8166,8252,8139,8191,8170,8146,8051,1.5464825630187988
34,8163,8146,8176,8170,8179,8083,8172,8160,8155,8153,8187,8135,8149,8043,1.5551693439483645
35,8177,8158,8170,8177,8179,8079,8180,8165,8151,8160,8189,8145,8161,8060,1.5631673336029053
36,8164,8177,8184,8182,8158,8084,8182,8182,8252,8171,8199,8162,8166,8062,1.571052074432373
37,8161,8148,8171,8168,8175,8103,8204,8175,8129,8182,8202,8122,8147,8063,1.5790512561798096
38,8168,8174,8170,8165,8163,8084,8175,8166,8213,8133,8165,8154,8142,8051,1.586047887802124
39,8146,8156,8154,8166,8168,8073,8170,8174,8163,8166,8186,8143,8158,8034,1.5940494537353516
40,8180,8169,8164,8180,8177,8087,8185,8183,8184,8196,8195,8149,8156,8053,1.6020517349243164
41,8167,8185,8169,8176,8175,8088,8175,8172,8246,8146,8165,8156,8145,8040,1.6100518703460691
42,8134,8152,8145,8165,8193,8098,8185,8169,8087,8155,8170,8120,8146,8022,1.617546558380127
43,8163,8177,8154,8168,8165,8104,8178,8181,8204,8157,8151,8157,8153,8030,1.6255481243133545
44,8144,8149,8139,8150,8162,8099,8184,8170,8150,8167,8157,8135,8149,8037,1.6335492134094238
45,8143,8152,8134,8159,8168,8094,8185,8171,8102,8174,8162,8129,8140,8045,1.6415493488311768
46,8151,8173,8144,8167,8153,8086,8168,8172,8192,8137,8138,8152,8144,8019,1.6488547325134275
47,8136,8135,8122,8147,8179,8085,8177,8153,8031,8137,8152,8116,8152,8007,1.6568553447723389
48,8143,8163,8114,8147,8163,8084,8161,8165,8110,8122,8130,8143,8146,8007,1.6648547649383545
49,8137,8149,8105,8151,8161,8091,8167,8168,8089,8130,8125,8123,8139,7989,1.6728568077087402
50,8158,8147,8120,8165,8195,8102,8181,8166,8067,8153,8162,8120,8158,8014,1.6808547973632812
51,8154,8178,8139,8174,8182,8107,8181,8184,8223,8154,8164,8156,8171,8027,1.6888556480407717
52,8144,8142,8114,8153,8183,8118,8210,8185,8092,8182,8152,8117,8149,8012,1.6970577239990234
53,8161,8159,8113,8146,8170,8114,8196,8176,8145,8145,8129,8134,8138,8003,1.704883098602295
54,8120,8151,8103,8143,8181,8111,8187,8170,8141,8129,8153,8128,8150,7994,1.7129912376403809
55,8113,8137,8104,8143,8200,8110,8195,8171,8086,8163,8176,8121,8155,8006,1.7199833393096924
56,8130,8154,8123,8148,8166,8087,8169,8176,8211,8148,8149,8149,8150,7996,1.7280161380767822
57,8132,8122,8105,8146,8175,8090,8178,8174,8077,8160,8153,8114,8147,7985,1.7360522747039795
58,8153,8148,8114,8145,8175,8102,8180,8175,8131,8158,8142,8141,8147,8001,1.744365930557251
59,8124,8144,8114,8133,8179,8093,8182,8166,8148,8163,8151,8142,8151,7997,1.7520513534545898
60,8117,8131,8107,8141,8202,8090,8188,8167,8068,8173,8182,8129,8157,8004,1.7600417137145996
61,8131,8167,8118,8150,8171,8082,8167,8179,8204,8132,8159,8163,8156,7994,1.7680385112762451
62,8129,8141,8105,8142,8175,8082,8189,8174,8096,8162,8160,8127,8152,7980,1.7760426998138428
63,8143,8162,8120,8161,8188,8078,8184,8173,8151,8182,8169,8148,8163,7999,1.7830419540405271
64,8117,8157,8113,8152,8179,8064,8165,8157,8165,8163,8166,8147,8166,7988,1.7908480167388916
65,8114,8121,8089,8125,8182,8069,8186,8146,8020,8151,8152,8113,8147,7977,1.7988531589508057
66,8127,8156,8110,8135,8182,8085,8190,8167,8159,8121,8128,8147,8144,7969,1.807044982910156
67,8120,8150,8118,8153,8210,8104,8214,8178,8110,8176,8166,8128,8161,7974,1.8150527477264404
68,8158,8167,8129,8162,8202,8106,8208,8177,8155,8194,8175,8148,8161,8007,1.822460412979126
68,8158,8167,8129,8162,8202,8106,8208,8177,8155,8194,8175,8148,8161,8007,1.8234541416168213
69,8139,8155,8123,8143,8185,8095,8182,8157,8163,8142,8155,8153,8144,7992,1.8304688930511477
69,8139,8155,8123,8143,8185,8095,8182,8157,8163,8142,8155,8153,8144,7992,1.8314712047576904
70,8111,8135,8111,8134,8196,8095,8180,8141,8017,8146,8171,8123,8151,7976,1.8390514850616453
71,8128,8176,8119,8149,8173,8090,8163,8156,8170,8159,8167,8155,8167,7979,1.8470520973205569
72,8121,8142,8096,8141,8188,8096,8178,8159,8094,8177,8173,8127,8157,7979,1.8540513515472408
73,8127,8153,8105,8143,8202,8099,8180,8156,8085,8156,8165,8145,8147,7985,1.8620517253875728
74,8113,8163,8121,8140,8181,8092,8168,8156,8155,8143,8154,8160,8154,7965,1.8700721263885496
75,8128,8132,8121,8135,8191,8113,8191,8153,8046,8180,8170,8126,8155,7968,1.8780717849731443
76,8151,8170,8143,8146,8188,8129,8177,8152,8166,8147,8157,8160,8152,7978,1.886077642440796
77,8116,8146,8128,8144,8198,8132,8177,8145,8076,8139,8170,8129,8151,7960,1.894040584564209
78,8139,8149,8132,8156,8193,8129,8185,8154,8074,8162,8170,8134,8158,7970,1.9020392894744875
79,8148,8175,8156,8163,8182,8119,8172,8156,8185,8153,8163,8165,8162,7975,1.910273551940918
80,8140,8156,8157,8162,8222,8131,8185,8150,8065,8161,8194,8128,8154,7982,1.9166154861450195
81,8164,8182,8171,8164,8209,8132,8180,8161,8184,8147,8186,8151,8152,7994,1.9246299266815183
81,8164,8182,8171,8164,8209,8132,8180,8161,8184,8147,8186,8151,8152,7994,1.9256250858306885
82,8142,8153,8147,8144,8198,8119,8185,8155,8132,8164,8185,8135,8154,7985,1.9326472282409668
83,8151,8158,8140,8156,8210,8122,8193,8156,8101,8172,8190,8137,8160,7994,1.9410514831542969
83,8151,8158,8140,8156,8210,8122,8193,8156,8101,8172,8190,8137,8160,7994,1.941647291183472
84,8157,8190,8158,8174,8196,8117,8187,8162,8217,8155,8192,8160,8163,7997,1.949052333831787
85,8153,8157,8153,8165,8209,8108,8189,8150,8088,8180,8221,8131,8157,8011,1.957077980041504
86,8171,8173,8159,8166,8187,8096,8163,8155,8178,8150,8199,8168,8161,8019,1.965075254440308
87,8145,8158,8146,8161,8187,8100,8178,8158,8146,8149,8186,8149,8163,7993,1.973673105239868
88,8155,8165,8153,8174,8203,8106,8204,8159,8109,8182,8193,8139,8152,7997,1.980949878692627
89,8169,8186,8171,8182,8182,8091,8189,8164,8243,8163,8187,8169,8154,8007,1.987950325012207
90,8150,8145,8150,8162,8195,8092,8198,8161,8112,8187,8211,8134,8156,8012,1.9960522651672363
91,8156,8173,8157,8164,8179,8089,8183,8165,8179,8186,8192,8157,8148,8002,2.004248857498169
92,8138,8162,8145,8159,8167,8080,8176,8162,8158,8161,8181,8148,8149,7981,2.0120530128479004
93,8142,8150,8139,8159,8179,8089,8187,8165,8093,8160,8194,8139,8153,8000,2.0197033882141118
93,8142,8150,8139,8159,8179,8089,8187,8165,8093,8160,8194,8139,8153,8000,2.0206995010375977
94,8146,8175,8152,8162,8162,8086,8180,8165,8222,8162,8178,8163,8149,7994,2.0277962684631348
95,8122,8140,8122,8143,8167,8070,8190,8147,8072,8185,8189,8120,8145,7972,2.035806894302368
96,8134,8168,8126,8151,8148,8053,8166,8149,8118,8153,8181,8142,8150,7981,2.043052196502685
97,8140,8169,8138,8157,8151,8061,8170,8154,8153,8174,8185,8143,8155,7986,2.050833940505981
98,8152,8151,8136,8151,8176,8077,8197,8155,8094,8216,8213,8136,8162,8002,2.059051036834717
99,8148,8178,8148,8159,8151,8062,8172,8165,8219,8162,8197,8175,8165,7996,2.0668442249298096
100,8136,8147,8140,8164,8169,8068,8191,8161,8101,8167,8192,8128,8154,7984,2.0750460624694824
101,8154,8167,8151,8166,8170,8077,8198,8157,8148,8179,8176,8138,8145,7989,2.083051919937134
102,8136,8173,8156,8164,8163,8071,8191,8156,8176,8172,8168,8148,8147,7974,2.0910515785217285
103,8162,8158,8163,8183,8204,8086,8212,8161,8100,8187,8190,8133,8158,7990,2.099042654037476
104,8176,8180,8172,8177,8188,8084,8191,8161,8247,8176,8184,8168,8166,8003,2.106052160263061
105,8130,8142,8144,8144,8166,8076,8178,8143,8117,8197,8188,8134,8150,7981,2.1135969161987305
106,8157,8163,8157,8158,8159,8082,8177,8150,8118,8173,8163,8145,8133,7980,2.1220366954803467
107,8155,8168,8161,8158,8159,8072,8179,8153,8161,8135,8155,8150,8142,7975,2.130054235458374
108,8124,8134,8136,8141,8167,8062,8183,8139,8035,8159,8181,8123,8151,7978,2.1383702754974365
109,8139,8165,8151,8157,8141,8066,8166,8146,8157,8148,8158,8164,8150,7979,2.146052122116089
110,8143,8148,8144,8156,8159,8087,8183,8147,8076,8150,8164,8141,8152,7980,2.154051780700684
111,8156,8161,8142,8152,8169,8092,8181,8142,8094,8164,8175,8152,8160,8002,2.161693334579468
111,8156,8161,8142,8152,8169,8092,8181,8142,8094,8164,8175,8152,8160,8002,2.1626882553100586
112,8147,8166,8150,8149,8165,8075,8169,8143,8176,8164,8162,8162,8161,7994,2.1696934700012207
113,8149,8138,8151,8151,8192,8074,8178,8143,8051,8166,8167,8123,8148,7993,2.1766932010650635
113,8149,8138,8151,8151,8192,8074,8178,8143,8051,8166,8167,8123,8148,7993,2.1776909828186035
114,8164,8173,8161,8167,8165,8067,8160,8149,8161,8134,8147,8155,8144,7989,2.185046911239624
115,8144,8147,8143,8155,8166,8067,8177,8142,8074,8153,8152,8128,8150,7964,2.193281888961792
116,8154,8152,8155,8152,8185,8073,8181,8145,8068,8153,8157,8134,8153,7965,2.201295852661133
117,8145,8174,8170,8165,8174,8066,8163,8156,8183,8132,8150,8159,8153,7960,2.209290027618408
118,8137,8147,8145,8163,8184,8076,8186,8147,8056,8181,8158,8124,8147,7963,2.2170543670654297
119,8155,8178,8150,8162,8172,8081,8174,8147,8157,8168,8141,8160,8146,7972,2.224838972091675
120,8152,8170,8152,8170,8192,8085,8184,8156,8129,8151,8167,8149,8157,7977,2.2328526973724365
121,8179,8178,8160,8186,8209,8091,8197,8158,8115,8151,8183,8147,8159,7996,2.239931106567383
122,8159,8183,8159,8169,8184,8091,8171,8144,8197,8138,8157,8162,8146,7979,2.2480344772338867
122,8159,8183,8159,8169,8184,8091,8171,8144,8197,8138,8157,8162,8146,7979,2.2489473819732666
123,8147,8146,8143,8164,8202,8102,8184,8140,8075,8179,8176,8127,8149,7979,2.2561185359954834
124,8187,8184,8168,8188,8206,8093,8179,8157,8211,8167,8182,8167,8165,8010,2.2640161514282227
125,8171,8170,8165,8177,8209,8090,8177,8158,8195,8176,8195,8156,8159,8015,2.2720518112182617
126,8184,8160,8159,8175,8201,8103,8187,8156,8149,8209,8197,8143,8146,8023,2.280041217803955
127,8175,8178,8164,8172,8174,8093,8170,8148,8242,8172,8177,8163,8149,8008,2.287871599197388
240,8138,8143,8145,8159,8192,8080,8168,8129,8076,8165,8193,8130,8155,7996,2.295868396759033
0,8164,8173,8161,8173,8175,8076,8154,8136,8166,8163,8171,8161,8153,8001,2.303883552551269
1,8156,8165,8163,8169,8170,8083,8170,8142,8178,8176,8165,8144,8149,7994,2.3110523223876958
2,8162,8159,8168,8172,8198,8091,8187,8147,8113,8189,8188,8133,8159,8018,2.3190455436706543
3,8179,8192,8189,8186,8191,8082,8163,8150,8236,8177,8181,8169,8167,8022,2.3270583152771
4,8165,8163,8176,8181,8208,8090,8171,8139,8110,8206,8198,8131,8150,8007,2.335073232650757
5,8185,8193,8194,8187,8206,8101,8169,8147,8190,8187,8192,8158,8144,8017,2.343320369720459
6,8184,8191,8198,8183,8207,8108,8173,8147,8202,8167,8193,8156,8157,8017,2.351358413696289
7,8178,8167,8183,8179,8217,8123,8178,8136,8095,8179,8205,8127,8158,8022,2.3590517044067383
8,8171,8187,8182,8182,8185,8119,8156,8138,8214,8160,8182,8154,8149,8016,2.367074012756348
9,8158,8152,8160,8167,8192,8120,8171,8134,8104,8177,8188,8129,8153,8017,2.374073266983032
10,8172,8172,8165,8176,8195,8120,8163,8146,8154,8170,8188,8159,8160,8040,2.382051944732666
11,8158,8175,8164,8183,8198,8111,8159,8149,8191,8168,8186,8160,8158,8039,2.390256404876709
12,8162,8156,8159,8179,8212,8110,8180,8132,8095,8189,8190,8134,8156,8046,2.398298740386963
13,8167,8184,8168,8176,8180,8096,8158,8130,8214,8148,8169,8167,8157,8039,2.406301021575928
14,8146,8156,8150,8169,8194,8094,8163,8133,8104,8158,8186,8135,8153,8029,2.4140474796295166
15,8170,8176,8179,8184,8208,8104,8168,8146,8162,8183,8193,8158,8158,8056,2.4223546981811523
16,8156,8174,8189,8179,8194,8106,8171,8144,8242,8193,8189,8170,8161,8061,2.4295871257781982
16,8156,8174,8189,8179,8194,8106,8171,8144,8242,8193,8189,8170,8161,8061,2.430595636367798
17,8140,8144,8156,8174,8205,8114,8184,8136,8118,8205,8193,8132,8150,8053,2.438598871231079
18,8158,8182,8167,8186,8193,8112,8164,8148,8227,8171,8175,8162,8150,8044,2.4450523853302
19,8164,8155,8161,8167,8198,8112,8183,8146,8140,8193,8185,8141,8156,8043,2.453052043914795
20,8190,8157,8161,8161,8192,8112,8184,8139,8152,8191,8181,8155,8158,8062,2.461073398590088
21,8174,8168,8166,8170,8193,8111,8166,8140,8227,8166,8179,8168,8164,8053,2.469071388244629
22,8175,8151,8165,8177,8218,8124,8179,8137,8105,8185,8179,8132,8156,8055,2.4770517349243164
23,8197,8187,8190,8191,8188,8121,8155,8128,8195,8151,8116,8162,8140,8052,2.485039710998535
24,8172,8165,8186,8194,8198,8121,8157,8118,8104,8158,8103,8138,8138,8034,2.493032693862915
25,8205,8180,8192,8203,8225,8144,8184,8138,8131,8178,8103,8147,8144,8053,2.501051902770996
26,8212,8199,8200,8203,8212,8149,8188,8152,8252,8161,8087,8165,8148,8055,2.5080156326293945
27,8181,8158,8180,8200,8221,8135,8181,8134,8109,8180,8113,8123,8142,8044,2.51605224609375
27,8181,8158,8180,8200,8221,8135,8181,8134,8109,8180,8113,8123,8142,8044,2.516664981842041
28,8177,8170,8172,8192,8195,8110,8145,8121,8184,8157,8108,8153,8138,8027,2.524052619934082
29,8152,8146,8148,8171,8191,8101,8149,8111,8094,8139,8107,8137,8140,8009,2.532046318054199
30,8173,8155,8159,8185,8203,8104,8154,8115,8047,8130,8114,8141,8143,8034,2.5400490760803223
31,8176,8173,8174,8192,8191,8102,8134,8121,8164,8122,8116,8164,8153,8042,2.5475549697875977
32,8162,8143,8152,8179,8215,8116,8156,8116,8052,8154,8144,8129,8153,8045,2.555717945098877
33,8185,8178,8161,8179,8199,8113,8150,8123,8150,8128,8126,8162,8146,8046,2.56373143196106
34,8172,8160,8165,8168,8191,8096,8150,8119,8098,8118,8117,8147,8141,8020,2.5707309246063232
35,8188,8161,8173,8181,8210,8088,8159,8124,8049,8138,8123,8142,8145,8029,2.5790510177612305
36,8193,8190,8174,8191,8202,8088,8146,8129,8170,8120,8114,8171,8147,8032,2.586761236190796
37,8173,8150,8154,8176,8222,8101,8164,8114,8038,8132,8137,8136,8151,8025,2.594761848449707
38,8200,8179,8186,8196,8218,8095,8166,8128,8156,8139,8139,8172,8165,8050,2.6030519008636475
39,8215,8177,8193,8203,8222,8090,8176,8141,8186,8162,8149,8166,8161,8069,2.6110517978668213
40,8216,8159,8177,8187,8227,8104,8181,8133,8119,8164,8157,8148,8149,8078,2.6190521717071533
41,8183,8175,8178,8183,8197,8091,8158,8133,8222,8125,8134,8171,8146,8059,2.627037763595581
42,8176,8149,8168,8183,8211,8083,8177,8140,8102,8170,8152,8142,8149,8063,2.635051012039185
43,8213,8174,8184,8188,8211,8089,8180,8148,8199,8183,8153,8173,8161,8089,2.642151355743408
44,8179,8166,8178,8186,8209,8091,8178,8144,8221,8166,8159,8160,8161,8072,2.6501777172088623
45,8183,8161,8173,8199,8223,8094,8184,8143,8133,8168,8167,8140,8146,8062,2.6581785678863525
46,8199,8185,8180,8190,8198,8095,8158,8134,8229,8133,8129,8172,8141,8046,2.666053533554077
47,8158,8140,8154,8162,8199,8110,8166,8117,8074,8143,8135,8135,8146,8030,2.6736714839935303
48,8173,8163,8167,8178,8183,8108,8162,8135,8130,8143,8139,8162,8146,8041,2.681666135787964
49,8170,8163,8162,8169,8170,8089,8159,8135,8154,8137,8128,8162,8145,8034,2.690051555633545
50,8145,8129,8134,8152,8181,8096,8166,8115,8012,8135,8128,8128,8148,8037,2.698086977005005
51,8153,8163,8151,8174,8158,8095,8142,8120,8140,8111,8112,8160,8149,8032,2.7049031257629395
52,8167,8149,8152,8178,8178,8080,8153,8117,8063,8150,8130,8138,8153,8031,2.7129056453704834
53,8180,8167,8153,8174,8179,8069,8138,8115,8084,8136,8129,8155,8157,8051,2.7209036350250244
54,8150,8162,8148,8176,8158,8076,8128,8118,8118,8108,8116,8149,8154,8044,2.728947877883911
54,8150,8162,8148,8176,8158,8076,8128,8118,8118,8108,8116,8149,8154,8044,2.729433536529541
55,8166,8140,8150,8178,8176,8098,8160,8120,8028,8147,8129,8122,8153,8057,2.7364392280578613
55,8166,8140,8150,8178,8176,8098,8160,8120,8028,8147,8129,8122,8153,8057,2.737442970275879
56,8188,8179,8173,8176,8163,8089,8143,8126,8184,8135,8131,8170,8158,8065,2.7451860904693604
57,8160,8154,8150,8168,8168,8089,8147,8131,8108,8157,8161,8150,8159,8056,2.753192901611328
58,8181,8163,8149,8176,8167,8098,8156,8137,8132,8174,8159,8161,8163,8078,2.7611916065216064
59,8173,8166,8158,8165,8158,8084,8147,8124,8192,8143,8143,8169,8160,8077,2.768197536468506
60,8164,8139,8146,8157,8181,8086,8159,8118,8056,8153,8159,8135,8149,8076,2.7761924266815186
61,8186,8174,8148,8167,8157,8081,8152,8135,8186,8155,8138,8167,8154,8078,2.784055709838867
62,8168,8149,8126,8153,8153,8069,8162,8126,8103,8162,8139,8135,8151,8063,2.7920522689819336
63,8173,8155,8134,8159,8160,8068,8152,8118,8071,8138,8141,8141,8138,8062,2.800233125686645
64,8159,8167,8147,8162,8146,8066,8130,8121,8154,8119,8127,8167,8149,8045,2.808233499526977
65,8150,8133,8129,8154,8156,8076,8154,8122,8033,8160,8136,8131,8155,8040,2.816232204437256
66,8179,8164,8140,8161,8142,8077,8147,8129,8146,8138,8118,8162,8149,8048,2.824234962463379
67,8167,8146,8134,8147,8157,8076,8145,8117,8079,8132,8123,8149,8152,8045,2.832051992416382
67,8167,8146,8134,8147,8157,8076,8145,8117,8079,8132,8123,8149,8152,8045,2.8324007987976074
68,8166,8146,8140,8143,8160,8082,8142,8109,8048,8146,8131,8153,8155,8060,2.8384063243865967
68,8166,8146,8140,8143,8160,8082,8142,8109,8048,8146,8131,8153,8155,8060,2.839406728744507
69,8156,8164,8148,8158,8131,8075,8128,8121,8158,8131,8118,8174,8153,8059,2.8474271297454834
70,8163,8141,8132,8170,8160,8078,8147,8124,8038,8148,8133,8135,8150,8056,2.8550519943237305
71,8189,8176,8150,8175,8164,8083,8141,8128,8153,8132,8122,8169,8149,8056,2.8629262447357178
72,8152,8152,8140,8151,8158,8086,8144,8127,8110,8141,8126,8153,8147,8040,2.870920419692993
73,8157,8144,8130,8156,8155,8081,8139,8127,8039,8156,8124,8141,8148,8048,2.878913402557373
74,8169,8173,8139,8166,8134,8073,8115,8125,8135,8127,8093,8165,8151,8041,2.887052059173584
75,8151,8137,8128,8147,8159,8091,8133,8115,8004,8138,8111,8136,8148,8037,2.8950514793396
76,8155,8154,8132,8149,8147,8093,8129,8123,8103,8133,8106,8165,8150,8046,2.9020512104034424
77,8134,8138,8105,8148,8136,8084,8134,8123,8079,8130,8096,8143,8151,8027,2.9101881980896
78,8144,8132,8095,8146,8151,8088,8140,8122,7999,8123,8107,8132,8150,8032,2.918189287185669
79,8157,8170,8125,8159,8142,8089,8127,8129,8147,8104,8108,8175,8154,8044,2.92605209350586
80,8154,8145,8125,8163,8163,8100,8156,8120,8047,8143,8127,8139,8149,8049,2.934051513671875
81,8180,8171,8139,8172,8160,8106,8153,8122,8126,8130,8119,8162,8150,8056,2.942052125930786
82,8168,8168,8138,8172,8158,8106,8144,8126,8149,8134,8121,8161,8154,8053,2.9500515460968018
83,8171,8154,8138,8175,8175,8118,8158,8130,8084,8176,8130,8146,8152,8074,2.9575300216674805
84,8173,8175,8150,8169,8156,8119,8149,8135,8207,8141,8117,8176,8150,8074,2.965543270111084
85,8154,8142,8125,8152,8156,8111,8154,8121,8067,8129,8133,8142,8145,8066,2.972543954849243
85,8154,8142,8125,8152,8156,8111,8154,8121,8067,8129,8133,8142,8145,8066,2.97353744506836
86,8173,8167,8136,8159,8136,8095,8131,8116,8089,8112,8114,8169,8142,8071,2.981051445007324
87,8153,8164,8144,8160,8132,8084,8118,8115,8110,8111,8112,8170,8150,8052,2.989051103591919
88,8158,8144,8140,8162,8162,8104,8143,8116,8041,8141,8141,8145,8160,8064,2.9970829486846924
89,8180,8181,8160,8166,8144,8113,8135,8123,8184,8121,8133,8184,8160,8077,3.005052328109741
90,8164,8153,8141,8151,8151,8113,8145,8115,8071,8147,8149,8153,8155,8073,3.013068675994873
91,8183,8161,8135,8149,8149,8110,8142,8119,8098,8146,8132,8161,8151,8082,3.021073579788208
92,8165,8161,8144,8146,8140,8107,8128,8117,8131,8112,8108,8162,8142,8063,3.029049873352051
93,8152,8138,8142,8151,8150,8109,8130,8106,8003,8124,8124,8130,8134,8040,3.0360567569732666
94,8163,8165,8141,8152,8119,8099,8111,8110,8114,8113,8104,8158,8137,8021,3.044108390808105
95,8143,8140,8128,8135,8136,8112,8128,8107,8027,8136,8111,8138,8149,8024,3.0521931648254395
96,8161,8157,8150,8158,8151,8132,8139,8114,8078,8138,8114,8153,8152,8053,3.059649705886841
97,8148,8159,8149,8160,8135,8131,8147,8121,8145,8114,8094,8151,8146,8038,3.0676558017730717
98,8134,8127,8130,8141,8143,8133,8160,8118,7991,8127,8099,8120,8144,8034,3.0758965015411377
99,8156,8163,8151,8153,8128,8115,8120,8118,8112,8106,8073,8156,8146,8041,3.084191083908081
100,8144,8141,8144,8148,8145,8100,8119,8104,8044,8108,8072,8125,8138,8026,3.092118740081787
101,8154,8153,8165,8157,8158,8106,8123,8107,8048,8121,8096,8144,8143,8044,3.1000418663024902
102,8161,8168,8187,8169,8149,8119,8123,8124,8171,8134,8108,8172,8160,8064,3.1070523262023926
103,8162,8127,8163,8161,8170,8137,8165,8117,8056,8158,8114,8130,8152,8065,3.1149938106536865
104,8153,8157,8168,8162,8151,8123,8147,8109,8154,8124,8093,8160,8145,8049,3.12300181388855
105,8132,8151,8169,8160,8151,8097,8117,8105,8092,8122,8112,8143,8148,8041,3.131052255630493
106,8174,8157,8174,8165,8159,8095,8110,8102,8052,8118,8112,8135,8142,8063,3.1390511989593506
107,8167,8159,8166,8159,8142,8099,8108,8092,8126,8095,8083,8150,8137,8043,3.1460518836975098
108,8146,8125,8143,8150,8168,8117,8142,8093,8003,8124,8097,8123,8142,8036,3.1550521850585938
109,8180,8171,8168,8162,8159,8109,8132,8111,8154,8120,8093,8162,8149,8065,3.162039995193481
110,8164,8157,8162,8160,8153,8090,8117,8102,8141,8134,8103,8142,8151,8060,3.170039653778076
111,8166,8147,8156,8168,8171,8108,8126,8105,8100,8145,8106,8135,8152,8064,3.178016424179077
112,8163,8168,8174,8168,8165,8124,8128,8120,8217,8110,8077,8164,8152,8063,3.186052083969116
113,8138,8136,8168,8158,8178,8118,8136,8108,8083,8131,8095,8132,8147,8057,3.1940693855285645
114,8155,8164,8179,8170,8161,8102,8111,8103,8180,8130,8104,8165,8147,8058,3.2020745277404785
115,8149,8152,8170,8167,8160,8110,8113,8097,8158,8119,8113,8156,8146,8047,3.2090518474578857
116,8160,8140,8165,8168,8167,8118,8124,8094,8065,8125,8115,8141,8145,8055,3.217052698135376
117,8162,8163,8172,8166,8139,8097,8098,8095,8168,8112,8096,8164,8148,8053,3.224742889404297
118,8148,8138,8156,8158,8158,8094,8102,8084,8042,8124,8115,8133,8145,8054,3.2327592372894287
119,8169,8169,8173,8174,8159,8095,8097,8093,8118,8093,8109,8163,8147,8063,3.241052865982056
120,8159,8157,8171,8168,8150,8086,8104,8095,8117,8087,8112,8154,8157,8058,3.2490508556365967
121,8167,8142,8168,8168,8160,8096,8112,8091,8052,8130,8130,8135,8155,8079,3.257042407989502
122,8174,8172,8184,8182,8144,8101,8095,8103,8198,8112,8105,8168,8144,8077,3.2650511264801025
123,8163,8149,8174,8175,8178,8117,8127,8111,8103,8128,8119,8143,8150,8073,3.2731869220733643
124,8194,8180,8201,8188,8187,8128,8136,8121,8202,8146,8128,8176,8159,8099,3.2811930179595947
125,8190,8174,8206,8194,8164,8116,8122,8106,8223,8136,8120,8170,8145,8092,3.289194107055664
126,8183,8148,8185,8187,8174,8112,8120,8089,8083,8121,8120,8139,8142,8089,3.296053409576416
127,8189,8188,8196,8191,8171,8104,8105,8110,8229,8109,8110,8184,8159,8094,3.304076194763184
240,8176,8161,8188,8190,8179,8116,8135,8114,8158,8158,8130,8158,8157,8092,3.312074661254883
0,8185,8165,8194,8197,8165,8139,8135,8108,8174,8136,8118,8168,8146,8095,3.320052146911621
1,8179,8173,8205,8199,8167,8131,8120,8116,8220,8122,8114,8180,8155,8092,3.328212261199951
2,8198,8166,8214,8201,8187,8126,8143,8122,8154,8176,8147,8161,8159,8116,3.3362298011779785
3,8198,8190,8225,8201,8147,8128,8125,8118,8268,8136,8129,8185,8149,8111,3.344233274459839
4,8163,8150,8207,8191,8143,8146,8131,8117,8135,8125,8123,8151,8146,8088,3.352313995361328
5,8196,8172,8232,8207,8147,8166,8145,8130,8184,8141,8128,8177,8160,8113,3.359047174453736
6,8201,8187,8252,8210,8132,8172,8144,8130,8299,8143,8131,8196,8165,8123,3.367255926132202
7,8193,8154,8236,8192,8142,8169,8154,8123,8175,8164,8145,8163,8150,8126,3.3752574920654297
8,8205,8188,8250,8199,8123,8145,8133,8123,8272,8130,8127,8198,8147,8127,3.383051633834839
9,8184,8166,8235,8206,8137,8140,8136,8114,8177,8133,8132,8171,8153,8111,3.3913981914520264
10,8207,8169,8228,8207,8142,8156,8139,8131,8175,8150,8134,8174,8158,8116,3.399398803710937
11,8197,8182,8235,8194,8127,8164,8139,8142,8272,8143,8137,8188,8159,8116,3.407435894012451
12,8184,8158,8231,8199,8153,8165,8163,8134,8167,8171,8157,8154,8159,8133,3.415432929992676
13,8208,8188,8239,8209,8139,8153,8142,8141,8299,8165,8133,8189,8163,8149,3.4220521450042725
14,8181,8159,8209,8177,8137,8169,8150,8142,8228,8159,8139,8162,8158,8137,3.430256128311157
15,8184,8156,8196,8172,8144,8186,8167,8141,8182,8151,8133,8151,8149,8136,3.43825626373291
16,8175,8167,8185,8171,8123,8170,8150,8133,8263,8143,8102,8171,8148,8110,3.4460527896881104
17,8140,8127,8153,8150,8131,8164,8152,8116,8108,8165,8120,8135,8145,8090,3.454303741455078
18,8147,8158,8166,8158,8120,8157,8136,8122,8191,8117,8113,8163,8146,8092,3.462035179138184
19,8142,8143,8159,8156,8126,8154,8148,8130,8164,8121,8121,8154,8155,8094,3.470038652420044
20,8162,8144,8156,8158,8133,8167,8163,8144,8162,8177,8142,8157,8158,8115,3.4780094623565674
21,8168,8173,8176,8162,8124,8162,8159,8151,8301,8173,8136,8180,8157,8108,3.4860520362854004
22,8150,8142,8164,8154,8153,8148,8172,8136,8157,8180,8144,8139,8151,8100,3.493051528930664
23,8149,8160,8160,8153,8132,8135,8143,8135,8212,8160,8117,8168,8146,8100,3.501051902770996
24,8126,8143,8143,8135,8120,8136,8145,8137,8184,8158,8110,8154,8146,8082,3.5090723037719727
25,8134,8140,8142,8139,8145,8134,8162,8140,8125,8164,8116,8133,8148,8088,3.517070770263672
26,8130,8162,8148,8150,8132,8123,8144,8142,8230,8135,8093,8157,8148,8078,3.52514910697937
27,8115,8126,8122,8133,8151,8141,8156,8130,8091,8159,8108,8131,8148,8071,3.533157587051392
28,8149,8159,8145,8150,8162,8155,8146,8146,8199,8165,8113,8170,8157,8099,3.541187047958374
29,8147,8163,8157,8169,8168,8149,8157,8159,8245,8178,8122,8164,8161,8110,3.5492663383483887
30,8149,8150,8140,8161,8177,8153,8176,8156,8170,8192,8132,8144,8152,8120,3.5560550689697266
31,8145,8169,8136,8145,8150,8140,8145,8158,8285,8155,8108,8173,8148,8108,3.5643458366394043
32,8115,8131,8115,8127,8159,8129,8146,8144,8140,8168,8118,8134,8144,8086,3.572345495223999
33,8126,8152,8125,8130,8150,8124,8137,8137,8168,8157,8118,8158,8145,8089,3.580024003982544
34,8120,8150,8127,8125,8144,8121,8131,8139,8190,8151,8118,8164,8148,8095,3.588056802749634
35,8121,8124,8116,8119,8152,8133,8145,8137,8088,8169,8122,8141,8145,8108,3.5960335731506348
36,8111,8150,8118,8114,8124,8129,8118,8135,8184,8133,8097,8167,8138,8089,3.604056596755981
37,8101,8130,8103,8114,8151,8129,8126,8137,8075,8151,8121,8139,8141,8081,3.6120738983154297
38,8148,8157,8124,8139,8164,8144,8150,8148,8151,8159,8132,8165,8144,8113,3.619858980178833
39,8126,8161,8137,8143,8145,8142,8149,8144,8209,8137,8133,8171,8145,8107,3.6268584728240967
40,8118,8141,8129,8147,8154,8127,8143,8143,8097,8151,8157,8146,8153,8108,3.635057210922241
41,8149,8169,8132,8149,8142,8110,8130,8150,8219,8148,8138,8175,8156,8109,3.642877101898194
42,8124,8135,8106,8130,8164,8116,8153,8139,8111,8178,8149,8140,8150,8095,3.651057720184326
43,8124,8152,8112,8140,8170,8122,8152,8147,8139,8172,8157,8158,8159,8103,3.659055471420288
44,8127,8162,8121,8143,8147,8114,8144,8155,8217,8149,8145,8168,8164,8100,3.6670596599578857
45,8126,8132,8113,8135,8160,8126,8158,8143,8081,8170,8158,8133,8149,8104,3.675058841705322
46,8130,8166,8133,8145,8147,8138,8144,8149,8204,8159,8149,8172,8148,8106,3.6830551624298096
47,8126,8152,8124,8142,8161,8147,8163,8162,8168,8178,8164,8155,8159,8109,3.690053939819336
48,8143,8155,8112,8144,8159,8140,8160,8161,8178,8169,8158,8156,8148,8129,3.6981139183044434
49,8118,8157,8101,8141,8140,8130,8135,8145,8215,8145,8132,8161,8138,8109,3.706133127212525
50,8124,8137,8096,8142,8170,8145,8157,8144,8074,8182,8151,8135,8151,8106,3.714158296585083
51,8153,8176,8118,8149,8159,8131,8139,8151,8200,8155,8150,8180,8152,8122,3.722165107727051
52,8108,8145,8094,8132,8154,8118,8130,8135,8116,8135,8146,8150,8134,8102,3.7300543785095215
53,8126,8147,8092,8143,8169,8144,8143,8147,8090,8151,8137,8148,8137,8109,3.7379226684570312
54,8148,8171,8116,8160,8168,8143,8142,8162,8228,8145,8146,8184,8159,8127,3.7454655170440674
55,8137,8149,8110,8155,8177,8120,8158,8149,8123,8170,8184,8153,8161,8134,3.7524662017822266
56,8157,8187,8123,8156,8160,8118,8151,8159,8240,8175,8167,8177,8149,8131,3.760599851608277
57,8134,8157,8110,8137,8171,8131,8146,8155,8181,8166,8158,8155,8144,8113,3.768654584884644
58,8133,8143,8102,8135,8180,8130,8141,8140,8096,8143,8153,8144,8146,8113,3.7773611545562735
59,8148,8172,8110,8152,8163,8126,8142,8153,8212,8140,8150,8172,8156,8113,3.786101341247559
60,8136,8145,8096,8150,8181,8141,8164,8162,8124,8184,8182,8143,8154,8122,3.7931082248687744
61,8135,8164,8111,8145,8161,8126,8135,8157,8200,8147,8158,8167,8144,8117,3.801107168197632
62,8120,8148,8094,8132,8161,8114,8130,8137,8120,8128,8141,8155,8137,8085,3.80910849571228
63,8129,8141,8078,8134,8180,8128,8136,8125,8036,8150,8152,8147,8135,8093,3.817107200622559
64,8102,8159,8090,8131,8146,8120,8104,8128,8154,8114,8135,8169,8142,8084,3.824108123779297
65,8073,8124,8071,8116,8149,8112,8118,8131,8014,8106,8132,8130,8144,8065,3.8321123123168954
66,8124,8156,8083,8137,8150,8112,8126,8151,8103,8101,8109,8162,8148,8082,3.8401107788085938
67,8139,8163,8093,8148,8155,8114,8135,8151,8136,8123,8104,8163,8151,8087,3.847625255584717
68,8132,8152,8088,8143,8168,8123,8145,8141,8046,8132,8104,8144,8147,8091,3.855625867843628
69,8118,8167,8089,8136,8140,8120,8115,8148,8132,8088,8065,8171,8144,8076,3.8636281490325928
70,8106,8134,8075,8132,8147,8126,8126,8149,8010,8125,8074,8136,8144,8067,3.871715545654297
71,8149,8170,8103,8153,8148,8125,8132,8153,8105,8142,8087,8164,8151,8091,3.8800458908081055
72,8145,8172,8121,8156,8148,8116,8127,8149,8143,8122,8097,8167,8153,8096,3.88705325126648
73,8138,8148,8118,8160,8161,8129,8136,8144,8038,8134,8113,8144,8151,8106,3.8950703144073486
74,8146,8182,8130,8174,8136,8129,8127,8154,8175,8128,8106,8182,8155,8111,3.903075456619263
75,8134,8155,8115,8167,8152,8115,8140,8161,8094,8155,8127,8152,8155,8111,3.9110515117645264
76,8154,8169,8125,8167,8159,8102,8127,8163,8136,8153,8116,8164,8154,8122,3.9190516471862793
77,8146,8168,8120,8162,8148,8101,8120,8148,8154,8152,8104,8164,8151,8109,3.927074670791626
78,8147,8143,8103,8154,8153,8104,8134,8140,8029,8170,8127,8145,8149,8117,3.9350953102111816
79,8146,8173,8116,8154,8122,8082,8108,8147,8147,8118,8114,8182,8151,8119,3.943135261535645
80,8123,8145,8105,8153,8147,8093,8129,8141,8050,8118,8125,8140,8150,8109,3.95073914527893
81,8141,8153,8107,8160,8169,8124,8144,8143,8068,8134,8125,8139,8143,8122,3.9577524662017822
82,8106,8156,8102,8142,8147,8114,8130,8146,8107,8123,8111,8147,8143,8106,3.965752840042114
83,8101,8144,8097,8143,8157,8097,8133,8150,8003,8149,8130,8127,8147,8108,3.9742841720581055
84,8147,8182,8129,8165,8155,8092,8117,8163,8173,8150,8134,8163,8148,8123,3.9820516109466553
85,8123,8148,8121,8148,8165,8101,8130,8156,8095,8165,8162,8131,8147,8122,3.990372896194458
86,8125,8155,8115,8154,8158,8105,8134,8155,8081,8157,8165,8140,8154,8127,3.998371839523315
87,8126,8166,8117,8165,8150,8097,8123,8155,8166,8133,8141,8156,8156,8112,4.006054878234863
88,8113,8133,8111,8153,8170,8104,8134,8150,8041,8157,8154,8116,8142,8117,4.014051675796509
89,8128,8172,8121,8157,8140,8103,8128,8160,8164,8141,8147,8154,8142,8131,4.021045923233032
90,8119,8157,8097,8154,8147,8104,8141,8152,8105,8138,8152,8139,8143,8113,4.029051303863525
91,8117,8152,8101,8152,8169,8103,8131,8152,8073,8145,8148,8131,8140,8107,4.037070274353027
92,8098,8156,8108,8140,8149,8085,8105,8157,8161,8144,8130,8141,8144,8096,4.045599222183228
93,8087,8118,8079,8123,8144,8088,8122,8138,8001,8146,8133,8101,8140,8086,4.053047180175781
94,8107,8157,8096,8137,8121,8101,8115,8145,8073,8097,8116,8133,8138,8085,4.06105899810791
95,8107,8154,8102,8145,8143,8117,8130,8162,8064,8126,8137,8126,8149,8095,4.069303750991821
96,8130,8152,8104,8152,8172,8129,8142,8162,8070,8166,8162,8131,8154,8129,4.07705283164978
97,8120,8165,8109,8146,8133,8117,8115,8157,8178,8135,8152,8154,8146,8118,4.085078001022339
98,8105,8133,8090,8135,8117,8107,8117,8153,8029,8152,8166,8119,8150,8108,4.092074871063232
99,8135,8167,8116,8153,8119,8107,8113,8165,8139,8155,8164,8166,8172,8137,4.100053548812866
100,8121,8150,8111,8146,8139,8122,8127,8161,8135,8149,8171,8149,8158,8132,4.108081102371216
101,8122,8133,8085,8126,8131,8130,8135,8146,8031,8139,8158,8117,8133,8119,4.116094589233398
102,8111,8159,8090,8125,8101,8128,8113,8146,8129,8118,8135,8154,8143,8117,4.123818635940552
103,8089,8127,8080,8125,8141,8137,8124,8147,8034,8149,8163,8126,8150,8130,4.131823778152466
104,8124,8148,8088,8131,8131,8124,8114,8148,8097,8126,8149,8140,8142,8133,4.140051364898682
105,8121,8156,8101,8134,8120,8121,8125,8147,8099,8129,8163,8147,8152,8129,4.14705228805542
106,8132,8160,8116,8150,8151,8153,8158,8164,8099,8186,8207,8157,8162,8166,4.155052185058594
107,8143,8168,8114,8147,8132,8148,8136,8165,8235,8161,8174,8175,8154,8165,4.163053274154663
108,8123,8121,8093,8129,8133,8130,8134,8143,8061,8141,8169,8129,8150,8139,4.17104697227478
109,8136,8160,8112,8144,8126,8127,8133,8153,8121,8130,8172,8157,8152,8142,4.179098606109619
110,8125,8158,8101,8142,8118,8125,8134,8162,8148,8140,8158,8150,8143,8129,4.186940908432007
111,8132,8132,8098,8136,8140,8144,8148,8165,8061,8173,8169,8133,8146,8142,4.194940805435181
112,8141,8173,8120,8144,8123,8149,8130,8169,8219,8154,8165,8170,8158,8158,4.203051567077637
113,8116,8147,8088,8141,8120,8134,8128,8147,8078,8150,8163,8124,8149,8142,4.211052417755127
114,8125,8154,8087,8145,8101,8124,8108,8140,8061,8127,8141,8138,8139,8129,4.21801495552063
115,8117,8154,8105,8137,8102,8139,8112,8152,8135,8132,8150,8153,8147,8123,4.2259275913238525
116,8122,8135,8100,8132,8135,8167,8140,8159,8082,8172,8175,8129,8153,8144,4.233956575393677
117,8128,8165,8110,8142,8107,8162,8116,8163,8203,8145,8160,8161,8157,8144,4.2420525550842285
118,8113,8141,8106,8141,8114,8165,8132,8158,8110,8165,8182,8136,8159,8137,4.250051259994507
119,8144,8161,8127,8157,8147,8184,8148,8167,8168,8189,8179,8152,8157,8163,4.258055686950684
120,8141,8172,8146,8167,8142,8193,8139,8174,8252,8190,8169,8162,8151,8157,4.265576601028442
121,8134,8147,8137,8162,8148,8198,8148,8164,8122,8204,8195,8130,8143,8152,4.274572610855103
122,8138,8170,8135,8153,8142,8185,8129,8160,8219,8153,8171,8160,8146,8145,4.281051874160767
123,8110,8136,8104,8134,8144,8174,8131,8153,8111,8136,8155,8125,8148,8124,4.289046287536621
124,8128,8147,8104,8139,8125,8167,8128,8149,8090,8145,8159,8135,8146,8136,4.297042608261108
125,8118,8165,8117,8140,8119,8155,8114,8149,8164,8139,8164,8159,8146,8136,4.3050377368927
126,8118,8146,8115,8142,8148,8159,8135,8148,8052,8156,8176,8122,8148,8136,4.313037872314453
127,8150,8184,8134,8160,8122,8156,8130,8153,8183,8140,8160,8153,8153,8147,4.32105278968811
240,8115,8148,8114,8141,8125,8153,8127,8144,8103,8156,8174,8130,8156,8140,4.329052448272705
0,8124,8145,8121,8134,8140,8162,8127,8146,8076,8165,8180,8130,8153,8158,4.33706521987915
1,8131,8168,8144,8138,8119,8161,8123,8150,8191,8139,8166,8154,8149,8159,4.343067407608032
1,8131,8168,8144,8138,8119,8161,8123,8150,8191,8139,8166,8154,8149,8159,4.344573974609375
2,8112,8136,8128,8133,8133,8165,8135,8146,8063,8156,8176,8117,8148,8148,4.351584672927856
3,8128,8167,8142,8138,8124,8167,8122,8151,8155,8138,8150,8147,8144,8145,4.360052108764648
4,8120,8160,8144,8139,8131,8169,8135,8145,8111,8132,8153,8139,8144,8141,4.368015289306641
5,8143,8162,8145,8159,8147,8169,8147,8150,8089,8144,8163,8138,8160,8161,4.376039028167725
6,8144,8175,8154,8157,8138,8161,8138,8162,8212,8149,8153,8155,8162,8162,4.384059190750122
7,8130,8141,8160,8139,8168,8174,8161,8159,8108,8193,8201,8127,8157,8177,4.392051696777344
7,8130,8141,8160,8139,8168,8174,8161,8159,8108,8193,8201,8127,8157,8177,4.392590999603272
8,8167,8180,8192,8160,8167,8180,8155,8177,8242,8174,8206,8166,8165,8201,4.400037288665772
9,8161,8166,8171,8154,8158,8172,8150,8173,8225,8161,8181,8143,8159,8184,4.407129287719727
10,8151,8149,8153,8143,8154,8175,8144,8160,8147,8175,8179,8134,8147,8190,4.415183782577515
11,8156,8179,8176,8151,8134,8173,8134,8170,8278,8163,8178,8171,8151,8194,4.423197507858276
12,8164,8161,8173,8151,8171,8191,8174,8174,8175,8187,8190,8133,8149,8188,4.431051969528198
12,8164,8161,8173,8151,8171,8191,8174,8174,8175,8187,8190,8133,8149,8188,4.431447744369507
13,8177,8186,8183,8160,8179,8208,8175,8180,8263,8177,8174,8157,8147,8189,4.439157009124756
14,8156,8169,8172,8159,8166,8209,8165,8185,8266,8176,8177,8153,8154,8183,4.446670770645142
15,8167,8153,8164,8157,8173,8218,8165,8179,8181,8186,8187,8136,8159,8200,4.454679012298584
16,8168,8186,8179,8163,8167,8228,8150,8179,8311,8169,8171,8167,8160,8199,4.462719202041626
17,8156,8164,8165,8164,8193,8247,8180,8179,8216,8194,8182,8138,8157,8187,4.471052646636963
18,8170,8183,8172,8167,8184,8244,8172,8180,8269,8178,8169,8158,8159,8191,4.478015184402466
19,8148,8167,8168,8154,8166,8233,8156,8172,8255,8166,8164,8155,8158,8179,4.4860520362854
20,8166,8150,8168,8157,8179,8244,8174,8173,8155,8180,8173,8144,8151,8193,4.494051933288574
21,8181,8187,8192,8166,8169,8233,8157,8178,8297,8154,8153,8180,8153,8199,4.502032995223999
22,8148,8152,8171,8155,8189,8230,8161,8176,8207,8194,8177,8142,8157,8191,4.510047912597656
23,8165,8164,8171,8147,8178,8247,8166,8187,8261,8211,8177,8158,8154,8197,4.518084764480591
24,8154,8174,8179,8131,8171,8257,8162,8181,8292,8169,8162,8165,8153,8180,4.526051998138428
25,8166,8161,8185,8143,8207,8271,8178,8179,8199,8182,8182,8144,8160,8193,4.534051895141602
26,8200,8183,8205,8164,8188,8269,8175,8196,8356,8186,8169,8181,8162,8210,4.541045427322388
27,8171,8150,8184,8158,8191,8271,8191,8195,8266,8196,8173,8150,8154,8203,4.548589706420898
28,8176,8170,8181,8173,8208,8282,8189,8198,8292,8199,8169,8156,8152,8204,4.556580066680908
29,8178,8175,8187,8165,8205,8280,8177,8198,8353,8191,8159,8162,8159,8194,4.565051794052124
30,8189,8148,8194,8151,8213,8277,8187,8196,8236,8203,8179,8146,8159,8205,4.573251485824585
31,8208,8182,8215,8178,8193,8263,8170,8199,8360,8176,8178,8189,8156,8204,4.581252574920654
32,8174,8153,8193,8175,8195,8253,8171,8182,8249,8184,8185,8153,8152,8181,4.5890514850616455
33,8183,8163,8193,8163,8190,8250,8168,8181,8225,8188,8165,8157,8149,8190,4.597051382064819
34,8183,8176,8195,8161,8185,8247,8169,8191,8305,8174,8146,8175,8149,8191,4.604241371154785
35,8163,8144,8171,8153,8209,8245,8187,8189,8171,8193,8161,8139,8155,8189,4.612241268157959
36,8174,8177,8183,8155,8183,8230,8171,8199,8287,8170,8145,8177,8162,8192,4.620051860809326
37,8184,8158,8186,8155,8194,8245,8199,8197,8262,8197,8155,8163,8161,8204,4.628015995025635
37,8184,8158,8186,8155,8194,8245,8199,8197,8262,8197,8155,8163,8161,8204,4.628692865371704
38,8194,8162,8190,8162,8209,8253,8198,8186,8253,8206,8151,8161,8155,8217,4.636045932769775
39,8164,8175,8187,8156,8178,8223,8157,8190,8310,8168,8126,8175,8153,8187,4.6430535316467285
39,8164,8175,8187,8156,8178,8223,8157,8190,8310,8168,8126,8175,8153,8187,4.644559621810913
40,8169,8145,8172,8148,8193,8220,8179,8195,8178,8204,8148,8145,8158,8185,4.651566505432129
41,8198,8177,8188,8149,8188,8230,8180,8200,8306,8200,8148,8185,8167,8204,4.660051584243774
42,8168,8156,8179,8141,8183,8232,8174,8195,8260,8187,8159,8165,8164,8188,4.668015480041504
43,8185,8150,8184,8149,8190,8225,8174,8189,8196,8179,8153,8155,8145,8180,4.675058364868164
43,8185,8150,8184,8149,8190,8225,8174,8189,8196,8179,8153,8155,8145,8180,4.675494909286499
44,8180,8173,8191,8144,8178,8201,8152,8176,8253,8140,8116,8175,8136,8156,4.683472633361816
45,8155,8148,8176,8141,8193,8200,8162,8175,8111,8157,8143,8147,8149,8150,4.69148850440979
46,8195,8178,8207,8164,8187,8205,8168,8201,8253,8158,8157,8185,8161,8177,4.698484420776367
46,8195,8178,8207,8164,8187,8205,8168,8201,8253,8158,8157,8185,8161,8177,4.699482202529907
47,8186,8161,8206,8149,8191,8197,8179,8197,8237,8168,8155,8165,8153,8168,4.706506729125977
47,8186,8161,8206,8149,8191,8197,8179,8197,8237,8168,8155,8165,8153,8168,4.7075276374816895
48,8171,8155,8190,8139,8189,8189,8176,8182,8139,8171,8148,8145,8154,8168,4.714625597000122
49,8176,8178,8196,8147,8160,8183,8156,8185,8251,8142,8134,8176,8166,8170,4.722638368606567
50,8169,8141,8179,8141,8188,8192,8181,8183,8138,8169,8160,8145,8156,8172,4.731054067611694
51,8181,8171,8192,8155,8180,8189,8173,8197,8231,8171,8148,8171,8146,8182,4.738018751144409
52,8176,8172,8217,8159,8165,8183,8168,8205,8254,8175,8131,8169,8155,8178,4.746056318283081
53,8182,8156,8242,8151,8183,8185,8182,8202,8181,8180,8135,8157,8158,8189,4.754078388214111
54,8169,8169,8244,8148,8162,8162,8160,8197,8268,8156,8105,8176,8150,8177,4.762349843978882
55,8163,8139,8221,8148,8172,8167,8173,8188,8124,8183,8095,8139,8147,8167,4.770054817199707
56,8201,8177,8255,8175,8177,8181,8171,8201,8214,8170,8094,8178,8161,8190,4.778020143508911
57,8181,8171,8253,8177,8172,8163,8164,8204,8254,8158,8106,8178,8165,8182,4.786057233810425
58,8175,8141,8217,8159,8175,8154,8177,8190,8130,8177,8107,8144,8151,8166,4.793734788894653
59,8186,8181,8237,8164,8165,8159,8170,8195,8249,8158,8094,8183,8149,8159,4.801735162734985
60,8191,8167,8251,8184,8202,8168,8191,8207,8194,8191,8138,8168,8162,8177,4.809053897857666
60,8191,8167,8251,8184,8202,8168,8191,8207,8194,8191,8138,8168,8162,8177,4.809744834899902
61,8224,8182,8265,8201,8197,8167,8187,8218,8271,8215,8141,8190,8167,8204,4.8170905113220215
62,8191,8180,8260,8179,8178,8164,8181,8214,8307,8214,8134,8186,8160,8192,4.825058698654175
63,8181,8159,8243,8172,8203,8165,8197,8210,8214,8222,8153,8155,8154,8195,4.833133220672607
64,8206,8184,8249,8180,8181,8161,8181,8220,8352,8192,8127,8192,8157,8204,4.840665102005005
65,8176,8153,8224,8158,8174,8173,8191,8219,8242,8204,8134,8159,8155,8198,4.848720073699951
66,8189,8173,8234,8164,8182,8162,8192,8226,8263,8213,8152,8168,8158,8205,4.857054233551025
67,8193,8182,8249,8175,8184,8140,8181,8218,8316,8196,8168,8191,8164,8200,4.86479377746582
68,8187,8153,8238,8170,8178,8154,8189,8194,8171,8198,8185,8173,8151,8208,4.871799468994141
69,8199,8181,8251,8174,8144,8150,8167,8196,8264,8177,8159,8193,8141,8204,4.880118370056152
70,8187,8155,8248,8171,8172,8136,8167,8194,8165,8189,8167,8156,8151,8182,4.88782525062561
70,8187,8155,8248,8171,8172,8136,8167,8194,8165,8189,8167,8156,8151,8182,4.888823986053467
71,8203,8168,8258,8182,8184,8139,8165,8194,8174,8168,8172,8172,8164,8194,4.895867824554443
72,8206,8186,8260,8189,8172,8135,8166,8206,8267,8153,8170,8190,8161,8195,4.903866052627564
73,8209,8161,8255,8192,8210,8134,8187,8210,8158,8214,8197,8160,8154,8202,4.9118242263793945
74,8215,8186,8275,8191,8195,8136,8165,8208,8280,8188,8183,8195,8156,8205,4.919822216033936
75,8187,8158,8247,8172,8180,8129,8167,8194,8197,8169,8176,8162,8155,8185,4.927822828292847
76,8196,8159,8236,8177,8187,8119,8171,8200,8167,8196,8174,8163,8159,8191,4.935842275619507
77,8182,8172,8242,8181,8177,8127,8163,8214,8268,8191,8163,8182,8164,8188,4.94282603263855
78,8172,8140,8223,8167,8189,8148,8188,8211,8150,8202,8174,8136,8153,8190,4.950332880020142
78,8172,8140,8223,8167,8189,8148,8188,8211,8150,8202,8174,8136,8153,8190,4.951340913772583
79,8190,8169,8229,8169,8177,8135,8173,8208,8251,8184,8156,8170,8145,8189,4.9593505859375
80,8162,8149,8223,8164,8191,8128,8167,8200,8191,8191,8161,8166,8152,8170,4.967053174972534
81,8170,8153,8233,8170,8210,8145,8169,8196,8154,8186,8173,8160,8154,8173,4.9750518798828125
82,8163,8173,8233,8169,8182,8140,8152,8191,8252,8154,8159,8172,8145,8162,4.983079195022583
83,8151,8137,8203,8165,8186,8143,8166,8190,8106,8187,8173,8144,8151,8164,4.991051197052002
84,8190,8170,8224,8182,8185,8151,8165,8207,8216,8181,8163,8183,8162,8179,4.99882435798645
85,8181,8161,8237,8172,8194,8150,8177,8200,8208,8170,8176,8165,8157,8167,5.00582218170166
86,8179,8156,8243,8169,8200,8161,8185,8190,8148,8176,8205,8160,8153,8178,5.014051675796509
87,8166,8179,8251,8173,8181,8158,8152,8192,8249,8152,8191,8192,8154,8165,5.022022247314453
88,8152,8146,8233,8170,8198,8153,8160,8193,8114,8175,8199,8145,8153,8153,5.030039310455322
89,8199,8182,8251,8182,8179,8154,8162,8206,8220,8182,8204,8172,8162,8182,5.038015365600586
90,8177,8166,8234,8162,8163,8164,8160,8194,8216,8164,8210,8165,8157,8177,5.046051502227783
91,8142,8130,8196,8141,8166,8175,8165,8184,8096,8144,8207,8137,8144,8162,5.0540525913238525
92,8153,8157,8209,8145,8140,8171,8152,8196,8234,8143,8198,8170,8154,8164,5.0607075691223145
93,8160,8144,8216,8149,8166,8179,8166,8192,8162,8186,8227,8147,8159,8175,5.069788217544556
94,8166,8167,8219,8163,8177,8180,8154,8197,8222,8163,8213,8169,8149,8178,5.076780080795288
95,8147,8154,8204,8156,8167,8168,8159,8196,8239,8169,8223,8164,8155,8164,5.085052013397217
96,8159,8138,8207,8147,8174,8164,8178,8175,8152,8194,8257,8145,8156,8176,5.093051433563232
97,8164,8169,8226,8159,8154,8149,8148,8167,8250,8132,8229,8175,8145,8172,5.10108494758606
98,8158,8147,8213,8169,8165,8146,8140,8183,8150,8157,8241,8149,8151,8168,5.10905385017395
99,8187,8171,8231,8174,8160,8157,8136,8200,8229,8174,8258,8178,8165,8187,5.117105722427368
100,8165,8165,8235,8163,8154,8163,8163,8185,8248,8134,8259,8180,8161,8173,5.124412775039673
100,8165,8165,8235,8163,8154,8163,8163,8185,8248,8134,8259,8180,8161,8173,5.125404119491577
101,8175,8146,8227,8174,8178,8156,8178,8176,8137,8167,8271,8154,8152,8179,5.13240647315979
102,8199,8181,8238,8188,8166,8145,8127,8184,8292,8178,8252,8185,8152,8186,5.1400535106658936
103,8164,8146,8217,8168,8177,8160,8140,8181,8191,8173,8269,8150,8154,8173,5.148016691207886
104,8170,8160,8217,8170,8168,8159,8160,8189,8205,8154,8270,8163,8162,8179,5.156054735183716
104,8170,8160,8217,8170,8168,8159,8160,8189,8205,8154,8270,8163,8162,8179,5.156603813171387
105,8163,8164,8206,8161,8150,8127,8135,8182,8236,8137,8247,8165,8160,8161,5.163611888885498
106,8153,8128,8187,8143,8167,8130,8138,8167,8100,8160,8266,8133,8156,8162,5.1720781326293945
107,8158,8157,8202,8150,8150,8149,8153,8190,8258,8156,8268,8173,8161,8167,5.180074453353882
108,8148,8140,8189,8154,8169,8150,8174,8193,8194,8169,8273,8146,8159,8157,5.188015937805176
109,8175,8156,8205,8162,8178,8146,8157,8182,8188,8181,8278,8158,8158,8174,5.195051908493042
109,8175,8156,8205,8162,8178,8146,8157,8182,8188,8181,8278,8158,8158,8174,5.195741891860962
110,8169,8170,8222,8165,8151,8141,8135,8180,8267,8176,8290,8184,8159,8180,5.203052282333374
111,8172,8149,8211,8177,8174,8152,8154,8174,8152,8177,8308,8164,8160,8193,5.211110591888428
111,8172,8149,8211,8177,8174,8152,8154,8174,8152,8177,8308,8164,8160,8193,5.212145090103149
112,8202,8189,8245,8190,8176,8157,8141,8174,8287,8156,8303,8203,8164,8206,5.219147443771362
113,8184,8163,8273,8172,8181,8162,8153,8177,8246,8202,8326,8174,8163,8200,5.22715950012207
114,8207,8160,8303,8177,8194,8174,8173,8189,8242,8212,8319,8175,8159,8212,5.234678506851196
114,8207,8160,8303,8177,8194,8174,8173,8189,8242,8212,8319,8175,8159,8212,5.235674858093262
115,8207,8176,8318,8176,8182,8167,8153,8190,8325,8170,8297,8195,8162,8201,5.243675947189331
116,8177,8150,8296,8152,8173,8168,8146,8177,8176,8196,8311,8155,8153,8181,5.251052141189575
117,8179,8170,8296,8149,8144,8161,8126,8179,8254,8170,8279,8175,8144,8169,5.25896143913269
118,8163,8142,8286,8143,8163,8158,8140,8179,8200,8152,8280,8162,8153,8169,5.265626907348633
119,8179,8147,8291,8154,8174,8164,8153,8178,8185,8164,8299,8169,8159,8192,5.273626804351807
119,8179,8147,8291,8154,8174,8164,8153,8178,8185,8164,8299,8169,8159,8192,5.274622678756714
120,8179,8173,8307,8166,8151,8151,8141,8173,8296,8167,8294,8191,8156,8185,5.282046556472778
121,8169,8143,8305,8160,8187,8155,8169,8179,8178,8210,8320,8153,8153,8183,5.2900474071502686
122,8186,8169,8313,8160,8180,8159,8156,8195,8283,8186,8303,8174,8152,8190,5.2980146408081055
123,8171,8154,8298,8155,8169,8158,8148,8181,8243,8184,8299,8164,8155,8180,5.306683301925659
124,8180,8151,8307,8168,8191,8164,8161,8180,8195,8208,8320,8168,8159,8193,5.31405234336853
125,8185,8176,8322,8172,8174,8158,8152,8192,8310,8168,8300,8189,8159,8182,5.321656227111816
126,8184,8146,8307,8153,8174,8167,8170,8182,8161,8165,8302,8150,8158,8179,5.328657865524292
127,8203,8175,8328,8166,8168,8171,8165,8188,8255,8172,8301,8188,8163,8197,5.336658716201782
127,8203,8175,8328,8166,8168,8171,8165,8188,8255,8172,8301,8188,8163,8197,5.337688207626343
240,8187,8168,8328,8181,8184,8176,8171,8196,8287,8191,8304,8183,8162,8187,5.345046281814575
0,8201,8158,8323,8187,8197,8186,8172,8190,8210,8184,8308,8163,8155,8191,5.353058576583862
1,8203,8185,8331,8183,8160,8172,8148,8191,8309,8148,8296,8188,8151,8180,5.361051797866821
2,8178,8146,8300,8166,8167,8173,8174,8190,8198,8200,8312,8144,8156,8168,5.369070768356323
3,8181,8158,8299,8159,8164,8176,8174,8190,8261,8196,8294,8168,8162,8179,5.377052068710327
4,8156,8153,8303,8154,8160,8175,8172,8193,8259,8159,8291,8174,8159,8173,5.3847386837005615
5,8177,8147,8303,8166,8166,8181,8184,8196,8168,8181,8304,8149,8154,8182,5.392051696777344
5,8177,8147,8303,8166,8166,8181,8184,8196,8168,8181,8304,8149,8154,8182,5.392777681350708
6,8204,8188,8327,8179,8137,8169,8160,8191,8299,8179,8296,8193,8162,8193,5.400036334991455
6,8204,8188,8327,8179,8137,8169,8160,8191,8299,8179,8296,8193,8162,8193,5.401037693023682
7,8179,8165,8323,8179,8146,8166,8165,8177,8194,8184,8322,8172,8166,8199,5.408208131790161
8,8190,8176,8318,8183,8135,8156,8154,8179,8219,8150,8299,8180,8151,8199,5.415445566177368
8,8190,8176,8318,8183,8135,8156,8154,8179,8219,8150,8299,8180,8151,8199,5.416438579559326
9,8176,8164,8308,8162,8122,8142,8140,8174,8212,8135,8273,8180,8149,8180,5.424437999725342
10,8182,8149,8314,8166,8139,8139,8156,8168,8109,8171,8289,8160,8155,8197,5.432047128677368
11,8207,8186,8337,8185,8106,8116,8135,8167,8241,8144,8269,8184,8148,8201,5.440052509307861
12,8182,8151,8315,8169,8096,8095,8112,8143,8088,8131,8276,8155,8146,8179,5.448070764541626
13,8191,8173,8324,8175,8099,8093,8104,8149,8092,8130,8287,8180,8161,8192,5.456098794937134
14,8192,8190,8332,8178,8102,8096,8122,8167,8170,8123,8283,8183,8166,8199,5.4631288051605225
15,8188,8158,8310,8173,8126,8100,8137,8161,8049,8135,8285,8154,8153,8199,5.471520900726318
16,8198,8178,8314,8181,8108,8084,8113,8170,8186,8134,8267,8197,8159,8201,5.479520559310913
17,8180,8149,8294,8162,8113,8080,8139,8182,8145,8178,8283,8158,8163,8200,5.487427234649658
17,8180,8149,8294,8162,8113,8080,8139,8182,8145,8178,8283,8158,8163,8200,5.487645626068115
18,8176,8154,8285,8155,8107,8084,8142,8183,8157,8176,8277,8154,8155,8203,5.494652509689331
19,8151,8154,8272,8152,8093,8077,8123,8168,8175,8130,8242,8167,8150,8172,5.502739191055298
19,8151,8154,8272,8152,8093,8077,8123,8168,8175,8130,8242,8167,8150,8172,5.503650903701782
20,8146,8128,8249,8143,8123,8089,8147,8152,8006,8130,8246,8133,8146,8162,5.510746479034424
21,8159,8165,8265,8151,8100,8089,8127,8154,8120,8101,8231,8168,8148,8164,5.51904559135437
22,8135,8138,8247,8145,8099,8078,8116,8147,8043,8110,8227,8145,8151,8145,5.526050329208374
23,8153,8141,8247,8152,8127,8086,8126,8157,8036,8133,8230,8150,8149,8156,5.534073352813721
24,8156,8158,8261,8160,8125,8097,8135,8175,8163,8139,8229,8172,8149,8160,5.5420520305633545
25,8136,8127,8237,8144,8126,8101,8148,8169,8030,8161,8235,8134,8150,8156,5.549596309661865
26,8143,8164,8238,8138,8103,8097,8127,8177,8127,8136,8211,8167,8153,8157,5.558589696884155
27,8135,8146,8235,8138,8119,8102,8148,8191,8124,8168,8232,8152,8157,8159,5.565598726272583
28,8164,8138,8241,8145,8139,8107,8162,8196,8117,8192,8248,8150,8161,8188,5.574041366577148
29,8151,8163,8235,8138,8116,8100,8129,8182,8180,8137,8220,8174,8161,8180,5.582135438919067
30,8127,8136,8204,8128,8122,8108,8138,8161,7999,8146,8219,8133,8152,8164,5.590136766433716
31,8140,8147,8201,8126,8111,8119,8139,8160,8068,8128,8190,8148,8139,8165,5.597045660018921
32,8091,8116,8170,8102,8112,8126,8136,8152,8018,8092,8179,8128,8138,8143,5.605051755905151
33,8096,8119,8163,8104,8121,8129,8139,8160,7976,8109,8189,8130,8156,8151,5.613053560256958
34,8127,8160,8190,8118,8114,8129,8135,8183,8152,8145,8194,8169,8165,8163,5.6210548877716064
35,8112,8130,8180,8119,8145,8146,8154,8183,8062,8179,8227,8141,8156,8167,5.628653049468994
36,8125,8144,8182,8128,8131,8141,8138,8180,8128,8141,8205,8164,8146,8169,5.636664867401123
37,8121,8128,8169,8111,8121,8133,8138,8172,8093,8138,8183,8144,8138,8148,5.6450514793396
38,8116,8112,8152,8097,8142,8143,8146,8165,8001,8153,8176,8120,8130,8136,5.653052568435669
39,8105,8133,8151,8099,8119,8131,8125,8168,8104,8116,8128,8147,8137,8116,5.66012978553772
39,8105,8133,8151,8099,8119,8131,8125,8168,8104,8116,8128,8147,8137,8116,5.66051459312439
40,8100,8108,8144,8093,8123,8138,8149,8171,7982,8138,8130,8116,8152,8120,5.668092966079712
41,8127,8144,8167,8109,8125,8156,8153,8186,8082,8141,8145,8145,8165,8151,5.676127672195435
42,8116,8142,8160,8108,8135,8146,8156,8184,8120,8141,8151,8145,8162,8148,5.683934211730957
43,8116,8119,8141,8096,8154,8132,8162,8171,8010,8155,8148,8123,8142,8151,5.691932678222656
44,8114,8145,8155,8102,8119,8116,8130,8174,8125,8134,8135,8158,8146,8154,5.700052738189697
44,8114,8145,8155,8102,8119,8116,8130,8174,8125,8134,8135,8158,8146,8154,5.70058798789978
45,8109,8124,8152,8111,8120,8117,8145,8179,8042,8169,8162,8128,8155,8160,5.708016395568848
46,8140,8152,8169,8123,8136,8122,8160,8188,8118,8168,8162,8148,8148,8180,5.715569972991943
47,8117,8148,8161,8105,8143,8122,8156,8182,8157,8147,8159,8155,8152,8172,5.723431587219238
47,8117,8148,8161,8105,8143,8122,8156,8182,8157,8147,8159,8155,8152,8172,5.724424123764038
48,8108,8119,8136,8093,8139,8128,8160,8174,8031,8165,8167,8127,8156,8169,5.730440139770508
48,8108,8119,8136,8093,8139,8128,8160,8174,8031,8165,8167,8127,8156,8169,5.731439828872681
49,8125,8148,8150,8110,8105,8120,8145,8177,8135,8142,8144,8156,8145,8162,5.739051580429077
49,8125,8148,8150,8110,8105,8120,8145,8177,8135,8142,8144,8156,8145,8162,5.739444017410278
50,8116,8121,8144,8116,8134,8123,8162,8168,8036,8147,8163,8132,8145,8151,5.747045516967773
51,8137,8144,8153,8125,8144,8135,8159,8178,8083,8155,8165,8155,8163,8158,5.754552125930786
52,8119,8156,8158,8121,8134,8139,8149,8188,8151,8165,8153,8158,8162,8142,5.762545108795166
53,8114,8134,8153,8124,8160,8150,8172,8181,8051,8186,8168,8126,8150,8145,5.771052122116089
54,8137,8173,8174,8145,8156,8144,8165,8188,8201,8163,8163,8171,8158,8156,5.77855920791626
55,8124,8158,8165,8149,8185,8143,8178,8194,8145,8194,8185,8148,8164,8160,5.787052631378174
56,8142,8162,8164,8152,8192,8143,8170,8185,8155,8201,8178,8151,8152,8173,5.794052362442017
57,8118,8149,8148,8129,8160,8132,8142,8164,8166,8147,8150,8154,8141,8143,5.80237603187561
58,8094,8125,8125,8113,8167,8138,8161,8167,8001,8151,8161,8120,8143,8125,5.809795618057251
58,8094,8125,8125,8113,8167,8138,8161,8167,8001,8151,8161,8120,8143,8125,5.810793161392212
59,8125,8182,8154,8135,8159,8141,8168,8191,8164,8161,8148,8159,8147,8146,5.818115711212158
60,8123,8159,8155,8136,8172,8147,8178,8188,8130,8172,8158,8137,8152,8159,5.826123237609863
61,8141,8153,8159,8144,8177,8164,8187,8199,8118,8164,8170,8145,8162,8177,5.834051370620728
62,8145,8175,8175,8148,8163,8173,8196,8214,8227,8161,8167,8172,8166,8178,5.842052221298218
63,8143,8152,8172,8143,8186,8175,8214,8205,8121,8198,8187,8143,8159,8187,5.850051641464233
64,8163,8182,8189,8156,8177,8162,8182,8201,8233,8174,8178,8172,8160,8191,5.857052803039551
65,8146,8166,8183,8154,8177,8161,8177,8195,8185,8182,8189,8151,8158,8176,5.865099906921387
66,8162,8167,8188,8151,8182,8167,8187,8194,8157,8211,8186,8148,8147,8186,5.873197793960571
67,8162,8179,8196,8150,8175,8164,8182,8192,8251,8178,8162,8163,8142,8170,5.881127595901489
68,8144,8146,8178,8152,8203,8169,8191,8182,8101,8174,8180,8127,8145,8160,5.8887341022491455
68,8144,8146,8178,8152,8203,8169,8191,8182,8101,8174,8180,8127,8145,8160,5.889623641967773
69,8159,8176,8187,8157,8186,8165,8169,8187,8196,8167,8171,8169,8152,8176,5.897623300552368
70,8148,8154,8176,8136,8174,8162,8175,8185,8175,8180,8180,8156,8156,8170,5.904053449630737
71,8160,8154,8179,8145,8187,8174,8190,8188,8137,8186,8197,8142,8160,8182,5.913051128387451
71,8160,8154,8179,8145,8187,8174,8190,8188,8137,8186,8197,8142,8160,8182,5.913645267486572
72,8162,8188,8191,8162,8181,8174,8173,8201,8270,8173,8192,8180,8166,8186,5.920966386795044
73,8149,8151,8171,8151,8203,8169,8181,8202,8148,8221,8210,8152,8158,8184,5.927964925765991
74,8161,8170,8177,8153,8187,8155,8157,8197,8202,8195,8150,8166,8146,8178,5.935967922210693
75,8147,8166,8171,8149,8182,8157,8160,8186,8166,8164,8085,8155,8146,8167,5.942967653274536
76,8179,8167,8186,8161,8210,8184,8199,8200,8139,8201,8102,8163,8160,8207,5.952052593231201
77,8198,8198,8214,8181,8199,8176,8192,8214,8301,8200,8107,8197,8167,8220,5.960235357284546
78,8175,8171,8193,8173,8205,8163,8193,8194,8147,8198,8099,8151,8155,8194,5.967211723327637
79,8196,8194,8201,8171,8189,8157,8178,8191,8194,8187,8091,8178,8149,8187,5.975210905075073
80,8189,8179,8208,8172,8182,8141,8176,8196,8229,8205,8114,8186,8157,8187,5.983269929885864
81,8190,8160,8204,8172,8209,8140,8195,8198,8165,8219,8125,8170,8163,8212,5.990270376205444
81,8190,8160,8204,8172,8209,8140,8195,8198,8165,8219,8125,8170,8163,8212,5.991268873214722
82,8189,8199,8210,8162,8187,8135,8174,8201,8283,8177,8104,8190,8163,8202,5.99927020072937
83,8168,8166,8183,8157,8186,8132,8175,8186,8137,8207,8121,8140,8158,8175,6.006270885467529
83,8168,8166,8183,8157,8186,8132,8175,8186,8137,8207,8121,8140,8158,8175,6.007269620895386
84,8187,8177,8187,8178,8199,8139,8180,8192,8188,8217,8130,8160,8160,8198,6.0152692794799805
84,8187,8177,8187,8178,8199,8139,8180,8192,8188,8217,8130,8160,8160,8198,6.015464067459106
85,8169,8177,8189,8165,8192,8144,8184,8197,8248,8190,8138,8174,8153,8214,6.0224690437316895
85,8169,8177,8189,8165,8192,8144,8184,8197,8248,8190,8138,8174,8153,8214,6.023469924926758
86,8168,8146,8176,8161,8180,8139,8187,8184,8126,8193,8137,8151,8133,8212,6.030477285385132
86,8168,8146,8176,8161,8180,8139,8187,8184,8126,8193,8137,8151,8133,8212,6.03147554397583
87,8183,8165,8184,8185,8165,8122,8169,8184,8219,8177,8100,8172,8143,8196,6.038476228713989
88,8152,8146,8165,8163,8184,8128,8187,8175,8108,8195,8146,8133,8156,8174,6.0470263957977295
89,8155,8176,8163,8152,8165,8137,8181,8171,8134,8177,8216,8155,8148,8171,6.054026365280151
90,8158,8181,8162,8176,8164,8131,8179,8186,8211,8164,8232,8174,8149,8179,6.062052249908447
91,8166,8144,8145,8179,8195,8130,8197,8190,8108,8200,8224,8138,8151,8197,6.070334672927856
92,8165,8171,8152,8161,8159,8122,8170,8180,8212,8180,8213,8162,8151,8178,6.07833456993103
93,8145,8156,8157,8161,8175,8120,8186,8180,8140,8190,8261,8146,8162,8161,6.086051940917969
94,8173,8174,8176,8190,8193,8113,8188,8198,8188,8197,8280,8167,8163,8179,6.094088554382324
95,8164,8177,8168,8180,8167,8102,8164,8190,8242,8182,8261,8174,8143,8152,6.101805686950684
96,8159,8148,8147,8160,8180,8112,8186,8173,8083,8194,8266,8136,8144,8140,6.109812021255493
97,8172,8175,8160,8170,8167,8104,8177,8177,8203,8177,8263,8177,8163,8161,6.116822957992554
98,8145,8145,8152,8162,8176,8105,8169,8172,8139,8191,8304,8164,8161,8164,6.124828338623047
99,8167,8154,8162,8167,8184,8116,8168,8176,8131,8195,8302,8167,8156,8167,6.132833480834961
100,8178,8174,8165,8169,8156,8103,8165,8175,8215,8180,8258,8176,8157,8145,6.141051292419434
101,8168,8144,8149,8157,8176,8100,8181,8158,8074,8201,8289,8140,8154,8144,6.1490514278411865
102,8172,8175,8174,8161,8178,8109,8166,8172,8206,8183,8311,8175,8156,8163,6.156852722167969
103,8165,8161,8166,8164,8176,8122,8186,8194,8200,8204,8314,8156,8159,8158,6.165046215057373
104,8205,8175,8165,8183,8180,8126,8201,8200,8189,8225,8304,8161,8163,8173,6.173052310943604
105,8205,8195,8187,8180,8175,8114,8180,8190,8280,8197,8302,8186,8167,8177,6.18004035949707
106,8180,8153,8180,8165,8194,8118,8190,8173,8137,8216,8327,8146,8160,8174,6.1880388259887695
107,8195,8183,8181,8176,8183,8114,8171,8175,8224,8193,8294,8172,8148,8160,6.196052074432373
108,8163,8165,8154,8154,8190,8106,8168,8170,8165,8175,8278,8150,8144,8127,6.204052448272705
109,8161,8147,8149,8141,8198,8115,8191,8174,8112,8200,8290,8143,8157,8144,6.212030410766602
110,8177,8173,8170,8165,8177,8120,8189,8188,8261,8213,8282,8181,8165,8160,6.219503164291382
110,8177,8173,8170,8165,8177,8120,8189,8188,8261,8213,8282,8181,8165,8160,6.220564603805542
111,8172,8155,8156,8173,8203,8130,8197,8189,8156,8237,8305,8146,8161,8159,6.22834062576294
112,8186,8179,8160,8172,8195,8133,8187,8192,8228,8204,8278,8167,8161,8158,6.236354351043701
113,8160,8155,8151,8156,8185,8133,8188,8175,8185,8186,8260,8158,8159,8134,6.244317531585693
114,8156,8143,8141,8152,8202,8137,8192,8167,8104,8203,8311,8141,8150,8130,6.250552177429199
115,8166,8171,8151,8151,8175,8121,8173,8183,8240,8185,8337,8168,8150,8135,6.258553504943848
116,8156,8136,8140,8136,8166,8115,8179,8177,8110,8204,8339,8136,8158,8146,6.26705265045166
116,8156,8136,8140,8136,8166,8115,8179,8177,8110,8204,8339,8136,8158,8146,6.267553329467773
117,8165,8165,8148,8146,8163,8121,8174,8174,8170,8199,8320,8161,8163,8152,6.275053024291992
118,8154,8168,8148,8152,8182,8124,8190,8172,8194,8192,8331,8162,8161,8141,6.28287148475647
119,8169,8154,8164,8161,8193,8123,8180,8170,8118,8220,8357,8154,8156,8164,6.290881633758545
120,8158,8168,8169,8152,8141,8138,8202,8164,8203,8168,8321,8171,8147,8148,6.299052238464356
121,8136,8134,8133,8129,8156,8172,8311,8157,8044,8146,8308,8128,8145,8119,6.30705189704895
122,8193,8181,8180,8163,8188,8146,8229,8183,8170,8190,8334,8181,8168,8168,6.3135271072387695
123,8190,8193,8212,8184,8185,8086,8078,8191,8293,8238,8371,8192,8178,8190,6.321526765823364
123,8190,8193,8212,8184,8185,8086,8078,8191,8293,8238,8371,8192,8178,8190,6.322519779205322
124,8176,8157,8173,8160,8186,8094,8119,8175,8159,8239,8360,8143,8162,8174,6.329573154449463
125,8181,8180,8167,8151,8168,8123,8165,8170,8245,8191,8317,8176,8155,8168,6.338017702102661
126,8161,8156,8175,8155,8184,8120,8153,8168,8157,8212,8349,8155,8161,8176,6.346127510070801
127,8186,8170,8190,8165,8185,8112,8161,8167,8171,8193,8345,8160,8160,8189,6.354231357574463
240,8183,8170,8183,8156,8182,8123,8183,8159,8191,8165,8317,8172,8154,8175,6.362051963806152
0,8176,8145,8175,8160,8202,8150,8199,8159,8091,8197,8337,8159,8157,8182,6.369716644287109
1,8204,8180,8194,8178,8179,8151,8207,8176,8248,8192,8319,8188,8159,8190,6.3767170906066895
2,8201,8157,8178,8167,8195,8148,8223,8171,8174,8222,8318,8155,8157,8187,6.38505220413208
2,8201,8157,8178,8167,8195,8148,8223,8171,8174,8222,8318,8155,8157,8187,6.386098861694336
3,8190,8163,8174,8164,8200,8150,8191,8168,8180,8217,8313,8165,8157,8198,6.393102645874023
4,8176,8175,8179,8166,8182,8139,8146,8178,8253,8191,8301,8174,8159,8195,6.400628089904785
5,8199,8156,8172,8161,8210,8147,8167,8181,8142,8222,8316,8147,8162,8216,6.409539937973023
6,8204,8183,8177,8161,8195,8152,8173,8176,8249,8197,8294,8178,8161,8211,6.416919708251953
7,8172,8155,8157,8156,8189,8153,8175,8163,8148,8186,8286,8146,8154,8177,6.425052404403687
8,8201,8164,8163,8164,8191,8161,8179,8167,8131,8196,8282,8155,8155,8196,6.433051824569702
9,8185,8172,8165,8151,8173,8151,8174,8163,8214,8193,8267,8174,8165,8198,6.44005823135376
10,8158,8133,8133,8139,8184,8147,8174,8144,8054,8197,8266,8131,8158,8184,6.448076963424683
11,8179,8169,8142,8153,8174,8141,8158,8151,8140,8144,8237,8169,8149,8182,6.456052541732788
12,8167,8154,8149,8156,8195,8142,8181,8158,8113,8164,8250,8164,8157,8194,6.464052200317383
13,8189,8156,8161,8165,8202,8161,8205,8165,8135,8208,8261,8159,8163,8226,6.472137689590454
14,8190,8177,8159,8161,8170,8166,8186,8170,8239,8172,8243,8171,8159,8212,6.4800355434417725
15,8170,8146,8143,8155,8198,8158,8168,8166,8095,8186,8265,8138,8157,8197,6.48799467086792
16,8196,8174,8175,8168,8209,8144,8153,8176,8217,8196,8259,8175,8163,8208,6.496054410934448
17,8182,8159,8175,8156,8206,8150,8187,8171,8190,8195,8263,8163,8164,8202,6.504013776779175
18,8173,8154,8169,8155,8198,8156,8191,8164,8118,8188,8260,8148,8150,8198,6.510727882385254
18,8173,8154,8169,8155,8198,8156,8191,8164,8118,8188,8260,8148,8150,8198,6.511728286743164
19,8174,8175,8180,8159,8177,8142,8151,8160,8210,8156,8224,8165,8143,8180,6.518829107284546
20,8165,8143,8163,8145,8193,8150,8171,8143,8056,8176,8234,8129,8149,8172,6.52681303024292
21,8176,8173,8168,8156,8171,8149,8152,8145,8134,8162,8223,8166,8153,8178,6.5350542068481445
22,8163,8160,8165,8156,8164,8145,8144,8150,8128,8154,8214,8159,8151,8163,6.5430521965026855
23,8178,8147,8166,8153,8186,8159,8172,8143,8053,8172,8223,8141,8158,8168,6.551051378250122
24,8189,8180,8184,8166,8176,8152,8154,8149,8198,8179,8221,8178,8167,8178,6.559231758117676
25,8183,8158,8178,8166,8198,8147,8163,8161,8110,8210,8238,8150,8160,8182,6.567120313644409
26,8190,8175,8176,8163,8191,8149,8163,8169,8165,8176,8217,8166,8157,8175,6.573826313018799
27,8156,8154,8152,8146,8185,8146,8157,8153,8126,8163,8198,8154,8156,8145,6.581984043121338
28,8162,8138,8149,8147,8203,8146,8158,8135,8009,8175,8204,8137,8147,8151,6.590052604675293
29,8177,8178,8179,8165,8182,8137,8143,8149,8153,8150,8198,8179,8155,8161,6.597944498062134
30,8170,8156,8169,8162,8195,8144,8175,8169,8089,8205,8227,8151,8173,8169,6.6059441566467285
31,8188,8171,8164,8158,8187,8146,8181,8171,8157,8202,8218,8165,8169,8181,6.614051580429077
32,8155,8158,8153,8147,8169,8127,8163,8149,8151,8154,8197,8158,8150,8156,6.62160587310791
33,8157,8139,8151,8152,8188,8127,8184,8153,8035,8179,8205,8137,8146,8163,6.629519939422607
34,8177,8178,8172,8154,8169,8125,8181,8167,8176,8175,8194,8177,8156,8172,6.6385133266448975
35,8151,8148,8153,8144,8177,8113,8156,8149,8060,8177,8208,8144,8160,8161,6.645051956176758
36,8183,8167,8158,8167,8186,8113,8132,8154,8093,8182,8199,8161,8164,8180,6.65301513671875
37,8186,8175,8165,8163,8180,8122,8157,8162,8169,8194,8195,8174,8167,8181,6.661052465438843
38,8159,8146,8150,8150,8191,8127,8180,8154,8054,8207,8211,8145,8156,8171,6.669098615646362
39,8171,8178,8163,8174,8166,8119,8144,8164,8180,8178,8178,8177,8152,8163,6.677092790603638
40,8172,8150,8150,8167,8168,8128,8164,8156,8093,8191,8182,8149,8152,8165,6.685052871704102
41,8171,8155,8147,8151,8163,8133,8175,8142,8070,8171,8185,8158,8146,8182,6.693052530288696
42,8149,8167,8142,8149,8144,8117,8154,8145,8105,8132,8165,8170,8143,8168,6.70105242729187
43,8156,8141,8121,8149,8152,8109,8157,8140,7965,8148,8172,8136,8150,8172,6.7080161571502686
44,8171,8166,8131,8144,8126,8099,8137,8141,8085,8133,8163,8172,8155,8176,6.715508222579956
44,8171,8166,8131,8144,8126,8099,8137,8141,8085,8133,8163,8172,8155,8176,6.716514825820923
45,8145,8142,8118,8134,8135,8109,8160,8145,8016,8143,8173,8153,8153,8162,6.723520755767822
45,8145,8142,8118,8134,8135,8109,8160,8145,8016,8143,8173,8153,8153,8162,6.724513053894043
46,8161,8154,8125,8149,8144,8127,8167,8150,8011,8147,8174,8160,8159,8176,6.731523990631104
47,8152,8172,8139,8152,8126,8127,8134,8149,8117,8137,8165,8184,8164,8175,6.740046262741089
48,8147,8147,8131,8143,8151,8145,8146,8148,8018,8178,8176,8156,8160,8174,6.74761962890625
49,8174,8176,8143,8154,8136,8158,8140,8157,8141,8157,8153,8181,8160,8170,6.755616188049316
49,8174,8176,8143,8154,8136,8158,8140,8157,8141,8157,8153,8181,8160,8170,6.7566118240356445
50,8149,8147,8125,8147,8125,8156,8137,8150,8068,8150,8160,8152,8158,8152,6.764052152633667
51,8161,8145,8121,8150,8129,8159,8139,8148,8027,8162,8159,8153,8156,8162,6.772052764892578
52,8156,8166,8130,8153,8123,8164,8136,8150,8121,8141,8133,8176,8157,8157,6.779051303863525
53,8142,8143,8128,8159,8144,8184,8171,8160,8003,8172,8162,8145,8163,8166,6.787052154541016
54,8180,8179,8149,8177,8131,8184,8169,8174,8142,8172,8162,8181,8167,8182,6.795166015625
55,8161,8151,8137,8153,8136,8176,8155,8156,8109,8163,8159,8163,8160,8165,6.803280115127564
56,8151,8137,8127,8142,8140,8186,8156,8155,8047,8172,8157,8154,8156,8168,6.8105199337005615
56,8151,8137,8127,8142,8140,8186,8156,8155,8047,8172,8157,8154,8156,8168,6.811503887176514
57,8159,8171,8130,8152,8113,8178,8155,8165,8168,8158,8137,8180,8159,8168,6.818503856658936
57,8159,8171,8130,8152,8113,8178,8155,8165,8168,8158,8137,8180,8159,8168,6.81950306892395
58,8161,8148,8120,8148,8133,8170,8160,8153,8038,8169,8164,8150,8159,8172,6.82705283164978
59,8177,8171,8140,8165,8122,8170,8126,8156,8121,8153,8160,8185,8161,8178,6.835307836532593
60,8159,8154,8128,8166,8117,8184,8131,8152,8100,8155,8142,8166,8162,8156,6.842281103134155
61,8167,8147,8119,8160,8139,8199,8153,8146,8017,8154,8143,8150,8158,8160,6.8498406410217285
62,8166,8179,8132,8161,8127,8194,8135,8149,8117,8115,8130,8186,8152,8153,6.857833385467529
63,8140,8142,8101,8150,8139,8198,8151,8139,7969,8141,8138,8143,8152,8136,6.86585545539856
64,8143,8162,8071,8150,8120,8184,8144,8152,8040,8139,8126,8160,8160,8140,6.87405252456665
65,8130,8153,8029,8142,8102,8157,8144,8168,8062,8132,8122,8163,8158,8132,6.882231712341309
66,8141,8132,8012,8136,8115,8154,8155,8159,7975,8153,8126,8144,8157,8137,6.890347480773926
67,8137,8164,8033,8135,8100,8144,8131,8162,8113,8148,8114,8178,8165,8136,6.898347616195679
68,8128,8147,8033,8138,8125,8138,8148,8172,8033,8185,8144,8160,8165,8145,6.906360864639282
69,8167,8174,8055,8157,8128,8136,8140,8169,8096,8162,8139,8185,8161,8164,6.913205146789551
70,8146,8164,8057,8149,8106,8127,8113,8147,8081,8129,8122,8176,8164,8143,6.921204090118408
71,8144,8143,8045,8148,8120,8130,8137,8146,7960,8158,8122,8154,8157,8138,6.928919553756714
71,8144,8143,8045,8148,8120,8130,8137,8146,7960,8158,8122,8154,8157,8138,6.929425001144409
72,8161,8177,8060,8151,8115,8124,8142,8156,8101,8128,8093,8190,8148,8135,6.937052249908447
73,8134,8139,8041,8129,8120,8115,8137,8142,7971,8120,8099,8153,8152,8118,6.9451398849487305
74,8152,8150,8049,8137,8106,8117,8125,8149,8002,8137,8101,8179,8162,8132,6.953052282333374
75,8143,8158,8061,8144,8104,8122,8141,8166,8096,8150,8106,8192,8161,8133,6.961262226104736
76,8136,8136,8051,8136,8119,8122,8169,8163,7989,8156,8121,8155,8157,8134,6.968260049819946
77,8156,8167,8064,8145,8090,8102,8141,8162,8101,8124,8106,8192,8162,8138,6.976261138916016
78,8139,8146,8064,8152,8119,8105,8142,8160,8029,8151,8134,8170,8164,8140,6.984260320663452
79,8156,8166,8079,8158,8139,8115,8142,8165,8054,8151,8131,8173,8163,8146,6.992261171340942
80,8156,8173,8080,8146,8123,8105,8126,8157,8099,8118,8106,8186,8161,8127,7.000138998031616
81,8153,8146,8070,8152,8151,8121,8147,8158,7993,8157,8134,8166,8164,8143,7.008137226104736
82,8169,8183,8089,8171,8138,8128,8153,8177,8159,8166,8127,8196,8168,8164,7.01605224609375
83,8138,8148,8064,8143,8125,8108,8155,8159,8055,8151,8109,8152,8151,8130,7.024426460266113
84,8125,8145,8044,8131,8120,8102,8128,8141,7975,8108,8082,8146,8126,8100,7.0314342975616455
84,8125,8145,8044,8131,8120,8102,8128,8141,7975,8108,8082,8146,8126,8100,7.0324366092681885
85,8121,8163,8041,8140,8106,8106,8122,8146,8036,8091,8066,8166,8136,8088,7.039437770843506
86,8141,8142,8043,8141,8134,8112,8168,8153,7949,8145,8103,8144,8161,8115,7.04705286026001
87,8153,8175,8075,8148,8128,8105,8151,8162,8095,8126,8108,8186,8163,8130,7.0543601512908936
87,8153,8175,8075,8148,8128,8105,8151,8162,8095,8126,8108,8186,8163,8130,7.055420398712158
88,8118,8153,8069,8140,8119,8107,8128,8153,8021,8127,8115,8163,8154,8108,7.063419342041016
89,8144,8153,8070,8144,8111,8100,8122,8144,7970,8136,8115,8159,8151,8117,7.073369264602661
90,8143,8170,8081,8138,8103,8086,8117,8147,8072,8110,8113,8187,8159,8121,7.078368425369263
90,8143,8170,8081,8138,8103,8086,8117,8147,8072,8110,8113,8187,8159,8121,7.079368591308594
91,8105,8129,8057,8117,8120,8100,8135,8145,7939,8128,8135,8154,8157,8116,7.087371110916138
92,8113,8153,8053,8120,8083,8092,8113,8146,8015,8104,8095,8174,8147,8107,7.0953686237335205
93,8110,8146,8047,8116,8086,8086,8126,8148,7975,8102,8087,8154,8148,8098,7.102319717407227
94,8134,8153,8064,8127,8120,8102,8153,8169,7982,8141,8112,8161,8158,8119,7.1103270053863525
95,8133,8169,8073,8128,8096,8105,8141,8172,8136,8148,8089,8186,8157,8105,7.117326498031616
95,8133,8169,8073,8128,8096,8105,8141,8172,8136,8148,8089,8186,8157,8105,7.118326425552368
96,8088,8118,8025,8096,8094,8104,8165,8140,7954,8121,8061,8126,8137,8071,7.125326871871948
96,8088,8118,8025,8096,8094,8104,8165,8140,7954,8121,8061,8126,8137,8071,7.126326084136963
97,8090,8143,8028,8098,8086,8089,8157,8145,8007,8066,8051,8157,8146,8074,7.134330749511719
98,8108,8146,8053,8117,8100,8073,8118,8158,8059,8113,8111,8173,8178,8096,7.1413304805755615
98,8108,8146,8053,8117,8100,8073,8118,8158,8059,8113,8111,8173,8178,8096,7.1423304080963135
99,8139,8144,8070,8133,8120,8065,8085,8140,8030,8165,8137,8164,8174,8119,7.149837732315064
100,8130,8168,8091,8138,8102,8060,8076,8136,8138,8120,8099,8194,8155,8110,7.158016681671143
101,8109,8132,8085,8131,8114,8074,8110,8141,8021,8132,8120,8160,8153,8106,7.164927005767822
102,8129,8157,8088,8134,8092,8071,8093,8138,8090,8132,8109,8170,8150,8104,7.173052310943604
103,8105,8146,8062,8119,8073,8051,8089,8123,8044,8105,8077,8153,8139,8065,7.1810407638549805
104,8101,8123,8044,8110,8091,8054,8117,8118,7923,8106,8074,8136,8135,8064,7.189042806625366
105,8090,8143,8048,8095,8073,8054,8096,8119,8042,8080,8066,8171,8145,8062,7.1970531940460205
106,8058,8110,8030,8080,8076,8055,8108,8123,7936,8097,8102,8150,8159,8062,7.205080986022949
107,8092,8137,8050,8105,8068,8062,8119,8147,8030,8098,8118,8177,8164,8090,7.213031768798828
108,8106,8141,8058,8110,8077,8052,8108,8134,8057,8099,8097,8162,8150,8078,7.22113037109375
109,8124,8125,8055,8100,8103,8050,8105,8109,7930,8115,8091,8139,8143,8077,7.229172945022583
110,8122,8152,8064,8101,8062,8052,8091,8116,8050,8063,8082,8180,8147,8072,7.236172914505005
111,8101,8129,8040,8106,8072,8052,8108,8118,7933,8070,8102,8143,8152,8062,7.244046211242676
112,8140,8156,8053,8126,8096,8050,8100,8118,7975,8090,8103,8156,8162,8080,7.252040386199951
113,8118,8151,8054,8108,8082,8038,8081,8114,8031,8074,8097,8161,8159,8065,7.260042667388916
114,8095,8121,8031,8094,8083,8040,8096,8110,7913,8079,8116,8147,8157,8063,7.267406463623047
114,8095,8121,8031,8094,8083,8040,8096,8110,7913,8079,8116,8147,8157,8063,7.268414497375488
115,8117,8160,8051,8114,8072,8046,8093,8115,8055,8076,8112,8189,8169,8072,7.276110649108887
116,8098,8130,8046,8107,8086,8052,8101,8110,7966,8112,8119,8146,8154,8056,7.284114360809326
117,8103,8136,8048,8108,8078,8049,8094,8118,7970,8110,8098,8152,8135,8056,7.292051553726196
118,8117,8155,8066,8118,8070,8060,8108,8130,8074,8101,8100,8175,8150,8078,7.299051523208618
119,8131,8138,8081,8125,8094,8086,8142,8131,8003,8129,8142,8157,8165,8103,7.30774712562561
120,8131,8164,8084,8122,8054,8052,8097,8127,8095,8086,8101,8184,8155,8078,7.314845085144043
121,8110,8135,8058,8112,8045,8029,8087,8109,7962,8081,8088,8156,8149,8063,7.322847127914429
122,8157,8165,8106,8153,8077,8061,8126,8124,8020,8118,8136,8182,8166,8121,7.330960750579834
123,8174,8190,8147,8176,8095,8065,8138,8152,8193,8138,8149,8209,8171,8135,7.339045763015747
124,8148,8142,8108,8143,8098,8040,8123,8132,8006,8135,8122,8156,8142,8106,7.347051382064819
125,8138,8167,8106,8135,8048,8022,8081,8108,8036,8065,8088,8182,8136,8093,7.355026960372925
126,8124,8153,8116,8141,8052,8028,8097,8114,8002,8074,8112,8176,8159,8090,7.362026214599609
127,8147,8150,8116,8142,8070,8031,8109,8121,7989,8104,8107,8170,8152,8099,7.370174884796143
240,8143,8163,8117,8141,8054,8028,8098,8121,8080,8076,8086,8181,8137,8093,7.378180027008057
0,8140,8138,8114,8146,8079,8040,8126,8132,7990,8100,8118,8153,8154,8108,7.386047124862671
1,8169,8168,8131,8147,8070,8036,8112,8137,8111,8112,8109,8189,8169,8120,7.394160270690918
2,8148,8151,8125,8133,8065,8035,8109,8121,8056,8115,8112,8171,8156,8108,7.40216588973999
3,8160,8150,8129,8145,8067,8044,8123,8131,8024,8105,8114,8162,8149,8125,7.41005277633667
4,8165,8166,8127,8141,8055,8033,8101,8135,8137,8075,8092,8189,8159,8125,7.418015480041504
5,8140,8134,8104,8122,8084,8035,8107,8116,7987,8107,8123,8156,8159,8124,7.426052808761597
6,8153,8168,8115,8138,8066,8042,8101,8129,8091,8111,8115,8176,8152,8130,7.433159351348877
7,8128,8141,8078,8122,8053,8046,8101,8124,8053,8095,8090,8151,8150,8093,7.441156387329102
8,8114,8121,8044,8108,8075,8064,8110,8113,7952,8100,8090,8142,8151,8083,7.449175834655762
9,8125,8164,8072,8128,8065,8075,8108,8135,8120,8114,8093,8183,8153,8098,7.457053899765015
10,8122,8142,8069,8127,8083,8094,8130,8139,8036,8155,8118,8139,8148,8102,7.465461015701294
11,8118,8145,8052,8116,8078,8120,8120,8134,8077,8116,8094,8153,8139,8084,7.473192691802978
12,8095,8126,8032,8105,8073,8135,8124,8133,8059,8099,8085,8155,8140,8059,7.481192111968994
13,8114,8126,8045,8112,8091,8137,8136,8139,8013,8137,8120,8149,8159,8086,7.489051580429077
14,8124,8168,8069,8129,8083,8124,8110,8150,8174,8125,8115,8180,8167,8100,7.496058225631714
15,8120,8143,8058,8134,8110,8137,8131,8148,8077,8162,8121,8141,8157,8098,7.504141807556152
16,8161,8168,8090,8145,8116,8157,8156,8161,8178,8181,8123,8166,8160,8123,7.512139797210693
17,8149,8165,8098,8134,8114,8158,8181,8169,8233,8180,8128,8169,8162,8125,7.52013897895813
18,8153,8151,8079,8135,8145,8163,8203,8173,8153,8203,8149,8148,8162,8132,7.528016567230225
18,8153,8151,8079,8135,8145,8163,8203,8173,8153,8203,8149,8148,8162,8132,7.528513431549072
19,8165,8186,8091,8146,8135,8150,8173,8179,8299,8178,8136,8187,8164,8130,7.536054134368896
20,8139,8146,8082,8133,8149,8139,8184,8170,8175,8185,8138,8151,8156,8128,7.544578313827515
21,8165,8162,8098,8147,8170,8143,8198,8177,8218,8187,8135,8164,8157,8153,7.552586555480957
22,8157,8173,8098,8150,8168,8143,8192,8177,8297,8180,8135,8172,8164,8139,7.559602499008179
23,8138,8144,8075,8137,8168,8135,8191,8163,8157,8187,8135,8140,8150,8119,7.567052125930786
24,8147,8169,8093,8147,8153,8120,8168,8173,8268,8167,8116,8179,8145,8123,7.575070858001709
25,8152,8153,8104,8155,8183,8142,8199,8190,8248,8223,8157,8169,8165,8153,7.583074808120727
26,8182,8171,8119,8162,8181,8157,8205,8192,8309,8240,8171,8179,8175,8181,7.590924978256226
27,8150,8166,8103,8142,8155,8132,8174,8173,8319,8184,8137,8169,8159,8151,7.599384307861328
28,8133,8135,8076,8126,8177,8139,8187,8165,8153,8184,8126,8130,8139,8135,7.606392621994018
28,8133,8135,8076,8126,8177,8139,8187,8165,8153,8184,8126,8130,8139,8135,7.607384204864502
29,8158,8174,8097,8133,8162,8149,8171,8168,8284,8178,8112,8172,8143,8137,7.614452123641968
29,8158,8174,8097,8133,8162,8149,8171,8168,8284,8178,8112,8172,8143,8137,7.615472793579102
30,8141,8149,8091,8126,8162,8131,8158,8159,8200,8184,8128,8152,8155,8128,7.622409105300903
31,8150,8154,8086,8133,8172,8117,8159,8165,8177,8179,8113,8154,8151,8132,7.629426717758179
31,8150,8154,8086,8133,8172,8117,8159,8165,8177,8179,8113,8154,8151,8132,7.630419492721558
32,8133,8165,8087,8133,8166,8124,8169,8170,8257,8173,8101,8167,8152,8115,7.638421058654785
33,8122,8134,8075,8129,8179,8135,8182,8164,8135,8205,8134,8137,8159,8120,7.646052598953247
34,8150,8163,8090,8142,8155,8115,8160,8167,8247,8182,8112,8170,8151,8124,7.653926372528076
35,8124,8135,8082,8133,8170,8111,8167,8154,8167,8177,8110,8142,8142,8100,7.662052631378174
36,8115,8138,8086,8135,8183,8122,8167,8155,8133,8175,8117,8143,8154,8112,7.669784069061279
37,8121,8163,8091,8133,8156,8109,8152,8169,8237,8158,8096,8163,8162,8117,7.677815198898315
38,8122,8130,8076,8122,8172,8114,8168,8165,8098,8177,8104,8128,8152,8108,7.685827732086182
39,8124,8158,8084,8132,8166,8126,8147,8165,8198,8155,8088,8164,8152,8101,7.693047285079956
40,8103,8142,8069,8124,8163,8131,8146,8158,8155,8174,8085,8144,8155,8093,7.700870513916016
41,8120,8143,8078,8127,8166,8141,8155,8153,8098,8186,8093,8141,8149,8101,7.708928823471069
42,8132,8171,8105,8146,8159,8148,8147,8162,8231,8145,8091,8181,8154,8096,7.716926574707031
43,8134,8137,8094,8149,8193,8155,8170,8157,8118,8160,8107,8146,8155,8102,7.725052356719971
44,8140,8159,8099,8143,8180,8144,8151,8152,8176,8146,8077,8160,8145,8104,7.732733249664307
45,8110,8151,8094,8134,8179,8151,8151,8149,8145,8142,8069,8156,8148,8089,7.7410523891448975
46,8139,8149,8105,8154,8204,8174,8180,8159,8129,8175,8096,8162,8166,8121,7.749423980712891
47,8163,8181,8130,8164,8186,8160,8163,8164,8285,8174,8090,8188,8169,8134,7.757422208786011
48,8142,8152,8115,8150,8196,8147,8164,8150,8148,8193,8096,8144,8151,8125,7.764046430587768
49,8148,8168,8121,8153,8178,8153,8159,8153,8205,8165,8081,8175,8148,8127,7.772026538848877
50,8129,8155,8115,8140,8180,8168,8166,8164,8206,8149,8082,8176,8158,8113,7.780025959014893
51,8143,8148,8109,8138,8218,8193,8183,8176,8152,8178,8089,8149,8157,8118,7.788015365600586
52,8150,8181,8123,8156,8195,8201,8170,8183,8308,8171,8072,8174,8151,8115,7.795845985412598
52,8150,8181,8123,8156,8195,8201,8170,8183,8308,8171,8072,8174,8151,8115,7.796849966049194
53,8128,8150,8111,8163,8192,8212,8180,8174,8192,8197,8102,8151,8151,8110,7.804052114486694
54,8158,8168,8122,8162,8197,8225,8171,8171,8258,8190,8101,8176,8160,8130,7.812052249908447
55,8136,8154,8115,8142,8195,8229,8162,8160,8273,8175,8085,8167,8163,8121,7.819494962692261
55,8136,8154,8115,8142,8195,8229,8162,8160,8273,8175,8085,8167,8163,8121,7.8204827308654785
56,8130,8141,8107,8151,8201,8234,8167,8155,8146,8196,8093,8143,8153,8117,7.826491594314575
56,8130,8141,8107,8151,8201,8234,8167,8155,8146,8196,8093,8143,8153,8117,7.827483654022217
57,8157,8188,8130,8174,8190,8246,8148,8164,8280,8165,8079,8185,8148,8118,7.835051536560059
58,8151,8157,8130,8163,8214,8273,8168,8163,8199,8171,8100,8160,8158,8130,7.842054128646851
59,8178,8172,8146,8169,8211,8271,8171,8172,8246,8179,8093,8176,8164,8151,7.85057258605957
60,8167,8173,8137,8167,8201,8249,8157,8171,8270,8159,8075,8173,8152,8134,7.859052658081055
61,8161,8148,8115,8161,8216,8262,8169,8167,8146,8162,8097,8147,8151,8138,7.867075681686401
62,8181,8187,8131,8176,8193,8268,8167,8183,8301,8165,8088,8189,8162,8156,7.875076055526733
63,8148,8148,8111,8157,8199,8258,8179,8176,8202,8191,8088,8147,8150,8142,7.883051156997681
64,8137,8143,8099,8145,8195,8254,8166,8169,8187,8164,8080,8147,8144,8126,7.890894174575806
65,8139,8162,8104,8150,8181,8260,8158,8167,8252,8147,8077,8168,8156,8108,7.897907972335815
66,8146,8144,8105,8150,8206,8264,8171,8159,8129,8179,8092,8143,8146,8110,7.905907869338989
67,8149,8167,8125,8149,8185,8239,8143,8161,8231,8151,8073,8174,8139,8112,7.914051055908203
68,8139,8149,8122,8148,8190,8235,8162,8162,8169,8168,8096,8155,8159,8114,7.922128677368164
69,8165,8168,8134,8162,8204,8254,8179,8173,8199,8183,8110,8165,8163,8130,7.929662227630615
70,8149,8168,8135,8152,8188,8244,8161,8176,8264,8157,8092,8173,8148,8112,7.937665939331055
71,8137,8132,8120,8146,8190,8242,8176,8164,8116,8172,8107,8133,8154,8113,7.946052551269531
72,8154,8169,8145,8162,8167,8245,8168,8175,8249,8151,8103,8168,8167,8127,7.952477693557739
72,8154,8169,8145,8162,8167,8245,8168,8175,8249,8151,8103,8168,8167,8127,7.953432083129883
73,8139,8149,8152,8147,8191,8243,8178,8183,8205,8161,8115,8152,8159,8125,7.961386442184448
74,8157,8154,8160,8147,8209,8238,8179,8182,8190,8182,8118,8153,8154,8146,7.968710660934448
75,8154,8175,8156,8157,8172,8228,8153,8180,8289,8158,8095,8171,8162,8140,7.977053880691528
76,8144,8140,8130,8153,8180,8234,8167,8171,8144,8168,8108,8135,8156,8132,7.985049486160278
77,8159,8173,8154,8159,8167,8227,8159,8170,8240,8153,8103,8172,8143,8139,7.993290424346924
78,8147,8165,8154,8159,8161,8219,8163,8171,8208,8169,8112,8157,8148,8135,8.001298427581787
79,8169,8159,8140,8160,8181,8224,8178,8172,8166,8180,8112,8152,8152,8145,8.009297609329224
80,8147,8166,8139,8149,8175,8213,8157,8162,8259,8137,8092,8175,8151,8129,8.016296863555908
80,8147,8166,8139,8149,8175,8213,8157,8162,8259,8137,8092,8175,8151,8129,8.017299890518188
81,8112,8130,8124,8145,8175,8208,8163,8153,8102,8152,8102,8132,8148,8119,8.02329707145691
81,8112,8130,8124,8145,8175,8208,8163,8153,8102,8152,8102,8132,8148,8119,8.02429723739624
82,8147,8164,8133,8165,8148,8207,8156,8165,8182,8143,8087,8160,8143,8136,8.0320463180542
83,8135,8152,8121,8151,8157,8204,8159,8159,8168,8142,8097,8151,8145,8128,8.040051937103271
84,8131,8140,8118,8144,8174,8208,8161,8154,8106,8159,8107,8138,8153,8123,8.047406911849976
84,8131,8140,8118,8144,8174,8208,8161,8154,8106,8159,8107,8138,8153,8123,8.048406839370728
85,8138,8167,8140,8161,8149,8217,8150,8168,8233,8148,8090,8170,8155,8114,8.055406093597412
86,8127,8141,8136,8166,8176,8234,8177,8173,8137,8185,8132,8143,8154,8123,8.064119577407837
87,8151,8176,8155,8172,8177,8231,8174,8189,8268,8194,8140,8173,8168,8152,8.07210922241211
88,8159,8176,8162,8167,8170,8235,8180,8192,8297,8199,8120,8165,8165,8148,8.0796639919281
89,8183,8165,8160,8174,8189,8248,8191,8177,8190,8204,8119,8151,8145,8148,8.086747169494629
90,8171,8187,8164,8174,8162,8228,8152,8161,8275,8150,8105,8178,8147,8137,8.095477819442749
91,8130,8146,8148,8154,8155,8220,8148,8149,8113,8147,8105,8137,8147,8130,8.10248589515686
92,8156,8168,8163,8166,8148,8236,8150,8168,8162,8152,8082,8155,8138,8140,8.111051797866821
93,8144,8161,8149,8156,8151,8243,8159,8169,8185,8143,8077,8147,8138,8116,8.119178295135498
94,8124,8132,8125,8138,8163,8243,8169,8158,8064,8135,8098,8124,8153,8118,8.127163887023926
95,8137,8167,8150,8157,8144,8242,8150,8177,8217,8122,8091,8172,8170,8137,8.135168552398682
96,8151,8150,8153,8168,8166,8263,8178,8192,8181,8180,8105,8147,8162,8144,8.143234491348267
97,8164,8166,8157,8159,8157,8264,8175,8185,8228,8184,8100,8157,8146,8143,8.150047540664673
98,8130,8163,8150,8142,8141,8246,8150,8173,8227,8154,8106,8161,8152,8124,8.158016681671143
99,8153,8156,8154,8160,8179,8261,8176,8187,8152,8188,8134,8147,8161,8146,8.166041612625122
100,8194,8193,8182,8176,8175,8267,8178,8199,8339,8187,8116,8186,8158,8157,8.174034595489502
101,8147,8145,8152,8143,8169,8260,8170,8168,8190,8178,8120,8151,8149,8130,8.182034730911255
101,8147,8145,8152,8143,8169,8260,8170,8168,8190,8178,8120,8151,8149,8130,8.182356119155884
102,8143,8152,8144,8143,8166,8264,8158,8165,8154,8155,8106,8158,8144,8129,8.189362287521362
102,8143,8152,8144,8143,8166,8264,8158,8165,8154,8155,8106,8158,8144,8129,8.190364360809326
103,8152,8170,8156,8155,8163,8269,8168,8181,8240,8149,8084,8166,8146,8127,8.198362588882446
104,8142,8136,8141,8142,8173,8275,8184,8172,8114,8164,8095,8133,8144,8124,8.205365419387817
104,8142,8136,8141,8142,8173,8275,8184,8172,8114,8164,8095,8133,8144,8124,8.206366300582886
105,8144,8157,8143,8145,8144,8275,8151,8172,8212,8127,8073,8168,8143,8119,8.21336317062378
105,8144,8157,8143,8145,8144,8275,8151,8172,8212,8127,8073,8168,8143,8119,8.214362144470215
106,8141,8139,8141,8149,8162,8281,8158,8176,8152,8160,8086,8150,8152,8128,8.221362829208374
107,8160,8161,8163,8161,8178,8278,8163,8178,8184,8177,8103,8163,8158,8154,8.228363513946533
107,8160,8161,8163,8161,8178,8278,8163,8178,8184,8177,8103,8163,8158,8154,8.22936749458313
108,8148,8178,8166,8164,8166,8264,8154,8177,8268,8146,8091,8170,8148,8135,8.236366987228394
108,8148,8178,8166,8164,8166,8264,8154,8177,8268,8146,8091,8170,8148,8135,8.237366676330566
109,8151,8143,8146,8159,8188,8272,8176,8171,8122,8170,8101,8130,8140,8126,8.244872808456421
110,8165,8170,8170,8162,8163,8272,8159,8176,8232,8151,8098,8178,8151,8141,8.253066778182983
111,8134,8150,8172,8159,8158,8268,8160,8173,8184,8154,8120,8167,8159,8142,8.261195182800293
112,8150,8154,8167,8165,8167,8262,8157,8170,8160,8163,8118,8158,8152,8151,8.268593311309814
113,8154,8166,8157,8153,8145,8251,8137,8168,8229,8138,8086,8173,8143,8136,8.276601314544678
114,8158,8137,8146,8146,8161,8269,8170,8170,8108,8177,8104,8143,8153,8140,8.284233093261719
115,8185,8179,8173,8173,8160,8276,8167,8178,8257,8180,8102,8179,8163,8161,8.292239904403687
116,8159,8162,8164,8167,8179,8272,8159,8173,8230,8177,8112,8161,8153,8154,8.300239324569702
117,8163,8154,8159,8165,8191,8287,8168,8185,8197,8181,8122,8155,8158,8166,8.308015584945679
118,8162,8174,8160,8160,8154,8289,8155,8191,8293,8156,8092,8174,8165,8152,8.316056251525879
118,8162,8174,8160,8160,8154,8289,8155,8191,8293,8156,8092,8174,8165,8152,8.31706428527832
119,8142,8134,8127,8134,8160,8293,8165,8168,8114,8163,8095,8134,8152,8134,8.324053287506104
120,8152,8157,8141,8143,8160,8298,8153,8173,8211,8129,8102,8177,8156,8147,8.332104206085205
121,8133,8154,8147,8152,8161,8294,8150,8181,8217,8137,8122,8171,8167,8148,8.34009575843811
122,8151,8155,8142,8152,8165,8293,8161,8181,8152,8189,8123,8151,8154,8160,8.346622705459595
122,8151,8155,8142,8152,8165,8293,8161,8181,8152,8189,8123,8151,8154,8160,8.347617387771606
123,8155,8177,8155,8152,8148,8291,8147,8182,8270,8170,8101,8181,8145,8148,8.355052947998047
124,8130,8140,8153,8165,8170,8298,8157,8173,8147,8162,8127,8148,8150,8133,8.362746715545654
125,8161,8164,8169,8189,8164,8286,8151,8174,8228,8165,8124,8174,8156,8147,8.371052026748657
126,8153,8155,8159,8172,8158,8268,8154,8171,8223,8169,8121,8173,8156,8143,8.37904691696167
127,8135,8140,8140,8163,8157,8263,8152,8167,8107,8137,8120,8157,8144,8145,8.387060403823853
240,8138,8166,8148,8174,8135,8255,8137,8171,8210,8110,8098,8181,8145,8137,8.395053625106812
0,8137,8141,8156,8176,8167,8264,8168,8172,8122,8174,8134,8147,8156,8137,8.403052806854248
1,8158,8170,8199,8191,8169,8269,8162,8181,8222,8165,8137,8177,8155,8151,8.411052227020264
2,8152,8161,8206,8180,8159,8264,8160,8181,8253,8143,8118,8174,8148,8148,8.41802167892456
3,8165,8147,8197,8172,8176,8266,8183,8183,8163,8183,8134,8149,8158,8162,8.426017045974731
4,8175,8185,8222,8191,8158,8258,8169,8197,8314,8176,8134,8190,8169,8168,8.43402886390686
4,8175,8185,8222,8191,8158,8258,8169,8197,8314,8176,8134,8190,8169,8168,8.434736013412476
5,8157,8147,8208,8187,8177,8257,8181,8185,8204,8179,8144,8161,8157,8162,8.442053079605103
6,8163,8157,8203,8175,8181,8253,8171,8173,8210,8157,8127,8167,8148,8154,8.449687004089355
6,8163,8157,8203,8175,8181,8253,8171,8173,8210,8157,8127,8167,8148,8154,8.450603008270264
7,8130,8157,8189,8158,8157,8236,8153,8165,8202,8138,8098,8159,8143,8112,8.457597494125366
8,8121,8128,8167,8154,8164,8225,8157,8162,8048,8150,8089,8129,8133,8101,8.46605372428894
9,8128,8157,8182,8160,8154,8205,8132,8175,8174,8114,8074,8175,8143,8109,8.474052906036377
10,8112,8134,8178,8155,8166,8204,8147,8176,8101,8134,8099,8158,8154,8107,8.482052087783813
11,8153,8154,8196,8171,8162,8212,8158,8175,8135,8153,8094,8171,8147,8124,8.489115238189697
12,8144,8158,8198,8168,8151,8201,8144,8166,8191,8123,8087,8176,8145,8120,8.49713921546936
13,8125,8125,8174,8151,8172,8203,8152,8160,8057,8133,8104,8143,8149,8119,8.50505256652832
14,8144,8160,8182,8152,8150,8201,8141,8167,8174,8121,8078,8178,8146,8121,8.513386011123657
15,8122,8136,8175,8145,8159,8197,8147,8161,8086,8123,8090,8150,8146,8114,8.521384716033936
16,8131,8141,8179,8156,8171,8205,8144,8166,8097,8124,8097,8156,8156,8129,8.529051303863525
17,8140,8161,8184,8158,8157,8213,8136,8182,8209,8133,8087,8175,8156,8133,8.537052869796753
18,8147,8143,8187,8153,8174,8228,8150,8184,8109,8161,8117,8145,8156,8146,8.54532766342163
19,8161,8173,8209,8165,8164,8227,8132,8181,8235,8126,8109,8178,8164,8146,8.55164885520935
19,8161,8173,8209,8165,8164,8227,8132,8181,8235,8126,8109,8178,8164,8146,8.552646160125732
20,8137,8143,8190,8152,8176,8231,8141,8169,8157,8144,8112,8151,8158,8128,8.559728860855103
21,8147,8144,8188,8150,8176,8232,8143,8169,8123,8157,8114,8152,8145,8134,8.567725419998169
22,8140,8156,8188,8145,8144,8222,8122,8165,8204,8115,8088,8169,8144,8109,8.57605266571045
23,8115,8116,8158,8132,8154,8234,8140,8148,8035,8123,8091,8131,8141,8090,8.58376932144165
24,8122,8148,8170,8141,8144,8230,8131,8157,8128,8108,8080,8171,8143,8101,8.591805934906006
25,8114,8141,8170,8140,8154,8219,8140,8163,8099,8116,8089,8157,8153,8104,8.599811315536499
26,8126,8143,8168,8144,8157,8222,8147,8165,8069,8133,8102,8154,8156,8114,8.60780143737793
27,8118,8162,8171,8148,8123,8214,8124,8169,8184,8112,8092,8177,8153,8102,8.614804744720459
28,8111,8125,8152,8137,8149,8213,8139,8165,8048,8133,8099,8127,8146,8097,8.622756958007812
29,8124,8149,8168,8140,8151,8205,8135,8175,8152,8143,8081,8153,8150,8105,8.630770444869995
30,8107,8135,8166,8135,8146,8206,8148,8183,8150,8156,8092,8148,8157,8099,8.639046669006348
31,8130,8134,8166,8135,8157,8225,8160,8179,8082,8143,8104,8134,8154,8115,8.64705204963684
32,8129,8168,8186,8140,8141,8213,8127,8172,8181,8102,8089,8160,8152,8115,8.655040979385376
33,8113,8140,8173,8143,8154,8203,8139,8168,8056,8142,8115,8139,8156,8118,8.662040710449219
34,8160,8172,8201,8161,8140,8217,8155,8181,8157,8150,8110,8173,8155,8140,8.671053886413574
35,8150,8168,8232,8151,8135,8227,8157,8175,8163,8137,8105,8158,8148,8136,8.67800760269165
36,8139,8155,8239,8151,8155,8224,8157,8170,8094,8160,8117,8142,8158,8143,8.686020851135254
37,8155,8183,8243,8170,8152,8223,8154,8181,8251,8159,8115,8182,8166,8146,8.694053173065186
38,8146,8150,8227,8168,8174,8243,8176,8184,8143,8176,8141,8145,8158,8146,8.702043294906616
39,8164,8173,8237,8182,8162,8241,8161,8189,8198,8152,8127,8162,8160,8157,8.70961856842041
40,8156,8169,8223,8178,8154,8221,8158,8176,8198,8143,8112,8163,8163,8144,8.717625379562378
41,8147,8142,8205,8163,8171,8213,8164,8160,8063,8155,8122,8140,8149,8139,8.725881099700928
42,8146,8164,8211,8163,8145,8206,8139,8171,8173,8126,8104,8171,8145,8127,8.732903480529785
43,8145,8141,8202,8162,8159,8221,8174,8179,8102,8165,8125,8147,8155,8127,8.740911483764648
44,8169,8165,8222,8170,8163,8221,8174,8177,8167,8178,8135,8168,8158,8154,8.749052286148071
45,8147,8162,8211,8157,8140,8201,8142,8166,8173,8152,8125,8164,8154,8149,8.757051944732666
46,8156,8146,8194,8153,8150,8214,8163,8161,8055,8167,8122,8138,8148,8154,8.76517629623413
47,8168,8183,8220,8162,8139,8222,8164,8170,8202,8142,8101,8182,8151,8150,8.773177146911621
48,8136,8147,8205,8155,8154,8208,8166,8169,8098,8151,8114,8151,8151,8135,8.781188249588013
49,8170,8162,8199,8166,8158,8203,8162,8175,8114,8153,8105,8156,8144,8149,8.789194583892822
50,8171,8171,8202,8164,8144,8205,8154,8175,8181,8140,8097,8164,8144,8140,8.796392917633057
50,8171,8171,8202,8164,8144,8205,8154,8175,8181,8140,8097,8164,8144,8140,8.79738163948059
51,8156,8137,8196,8157,8152,8211,8161,8174,8067,8169,8124,8142,8152,8143,8.805383682250977
52,8172,8167,8205,8166,8124,8211,8151,8177,8199,8154,8111,8181,8156,8155,8.812052488327026
53,8146,8143,8177,8148,8134,8219,8167,8158,8093,8158,8116,8139,8150,8138,8.820051670074463
54,8158,8151,8178,8151,8147,8222,8165,8164,8091,8171,8117,8140,8160,8141,8.828015089035034
55,8165,8168,8192,8163,8147,8220,8159,8178,8213,8162,8104,8169,8165,8145,8.835935592651367
56,8159,8140,8175,8157,8164,8235,8183,8169,8086,8158,8110,8137,8149,8144,8.84446120262146
57,8183,8171,8182,8158,8133,8230,8169,8176,8190,8129,8089,8167,8152,8137,8.852052211761475
58,8181,8148,8174,8156,8137,8224,8174,8176,8136,8161,8095,8148,8160,8125,8.860052585601807
59,8178,8148,8172,8159,8150,8222,8166,8165,8101,8153,8091,8148,8145,8122,8.868016481399536
60,8154,8161,8169,8146,8128,8200,8140,8160,8165,8110,8066,8164,8142,8098,8.876052379608154
60,8154,8161,8169,8146,8128,8200,8140,8160,8165,8110,8066,8164,8142,8098,8.876521110534668
61,8166,8138,8174,8151,8157,8208,8177,8169,8066,8167,8098,8140,8159,8114,8.883089542388916
62,8207,8176,8215,8183,8166,8222,8183,8190,8237,8178,8106,8180,8164,8145,8.891088008880615
63,8184,8152,8197,8168,8162,8205,8174,8177,8183,8158,8101,8157,8153,8134,8.899105310440063
64,8184,8151,8186,8163,8156,8191,8167,8164,8110,8155,8101,8153,8152,8141,8.907145261764526
65,8186,8176,8202,8174,8137,8196,8157,8179,8237,8149,8096,8175,8157,8139,8.915153503417969
66,8174,8131,8179,8151,8155,8199,8173,8174,8108,8171,8108,8133,8155,8133,8.923385620117188
67,8185,8157,8184,8142,8138,8182,8149,8162,8173,8142,8092,8170,8156,8134,8.930394411087036
67,8185,8157,8184,8142,8138,8182,8149,8162,8173,8142,8092,8170,8156,8134,8.93138599395752
68,8172,8152,8183,8152,8129,8185,8142,8156,8147,8139,8100,8160,8155,8123,8.938016176223755
69,8182,8139,8174,8156,8142,8200,8148,8152,8081,8159,8112,8137,8154,8132,8.946052074432373
70,8166,8154,8177,8143,8131,8191,8125,8147,8183,8137,8097,8162,8158,8126,8.95460319519043
71,8150,8125,8162,8141,8144,8203,8142,8149,8063,8154,8113,8131,8154,8124,8.961700439453125
72,8176,8153,8165,8150,8123,8224,8142,8162,8150,8129,8093,8156,8143,8129,8.969909429550171
72,8176,8153,8165,8150,8123,8224,8142,8162,8150,8129,8093,8156,8143,8129,8.970818519592285
73,8154,8145,8156,8135,8124,8223,8141,8156,8151,8127,8089,8149,8147,8118,8.978025913238525
74,8162,8129,8158,8136,8146,8215,8151,8154,8080,8162,8109,8140,8156,8131,8.985872268676758
75,8161,8143,8167,8139,8117,8201,8124,8147,8173,8116,8085,8172,8146,8112,8.994053602218628
76,8135,8117,8149,8127,8134,8201,8129,8139,8026,8120,8096,8134,8147,8103,9.002052545547485
77,8184,8163,8176,8153,8144,8205,8139,8170,8155,8163,8104,8161,8170,8145,9.009041786193848
78,8186,8159,8186,8158,8138,8193,8146,8178,8221,8177,8111,8167,8165,8145,9.01703929901123
78,8186,8159,8186,8158,8138,8193,8146,8178,8221,8177,8111,8167,8165,8145,9.018033027648926
79,8181,8138,8184,8147,8151,8196,8157,8166,8117,8173,8133,8152,8155,8149,9.025052785873411
80,8191,8175,8202,8152,8130,8190,8136,8170,8248,8141,8118,8181,8164,8158,9.033300876617432
81,8163,8138,8182,8141,8138,8176,8143,8166,8110,8153,8119,8131,8156,8136,9.040297508239746
81,8163,8138,8182,8141,8138,8176,8143,8166,8110,8153,8119,8131,8156,8136,9.041298627853394
82,8185,8151,8183,8150,8148,8176,8153,8174,8137,8153,8109,8149,8146,8131,9.048808097839355
83,8188,8157,8184,8149,8151,8182,8155,8170,8195,8141,8108,8159,8153,8124,9.05680799484253
84,8186,8143,8179,8153,8166,8177,8154,8158,8092,8152,8127,8135,8162,8131,9.064568758010864
85,8192,8177,8195,8165,8143,8156,8133,8166,8225,8147,8113,8176,8162,8134,9.07157564163208
86,8163,8136,8168,8136,8141,8156,8148,8157,8099,8166,8118,8143,8153,8112,9.079569101333618
87,8177,8149,8175,8140,8142,8163,8146,8165,8108,8145,8113,8150,8155,8115,9.087621927261353
88,8197,8179,8201,8163,8157,8171,8159,8194,8241,8158,8129,8172,8170,8135,9.0960853099823
89,8203,8161,8197,8160,8191,8192,8195,8195,8186,8225,8166,8150,8164,8156,9.104084253311155
90,8188,8180,8198,8159,8159,8178,8150,8178,8286,8180,8136,8175,8149,8137,9.11207914352417
91,8181,8153,8190,8169,8161,8174,8146,8172,8178,8164,8130,8149,8154,8130,9.120053052902222
92,8223,8165,8197,8179,8164,8193,8170,8178,8178,8176,8123,8158,8157,8156,9.127674102783203
93,8192,8169,8187,8160,8141,8178,8149,8166,8219,8150,8101,8164,8148,8135,9.134689331054688
94,8170,8145,8179,8166,8164,8176,8141,8160,8087,8168,8131,8138,8156,8139,9.143195390701294
95,8213,8185,8211,8189,8153,8191,8139,8180,8249,8162,8122,8184,8167,8158,9.15064525604248
96,8209,8161,8199,8169,8162,8207,8176,8176,8191,8178,8121,8155,8157,8142,9.15863823890686
97,8205,8162,8197,8166,8170,8210,8174,8168,8161,8176,8128,8154,8154,8146,9.167052745819092
98,8191,8178,8200,8171,8139,8196,8139,8175,8249,8143,8105,8173,8161,8132,9.174724102020264
99,8182,8135,8166,8148,8144,8198,8158,8164,8066,8152,8091,8116,8145,8112,9.18267822265625
100,8184,8155,8170,8134,8132,8197,8148,8152,8127,8116,8073,8144,8138,8112,9.19103741645813
100,8184,8155,8170,8134,8132,8197,8148,8152,8127,8116,8073,8144,8138,8112,9.192037105560305
101,8168,8155,8188,8151,8140,8195,8147,8158,8137,8139,8115,8158,8162,8129,9.199120998382568
102,8212,8172,8213,8194,8161,8188,8154,8179,8181,8191,8146,8169,8176,8166,9.20569634437561
103,8209,8177,8212,8186,8160,8172,8137,8174,8283,8158,8120,8179,8161,8156,9.213841438293455
104,8171,8131,8177,8150,8171,8182,8150,8160,8110,8149,8128,8138,8154,8145,9.221848487854004
105,8209,8176,8201,8173,8147,8182,8146,8171,8222,8156,8128,8175,8164,8169,9.23005199432373
106,8208,8165,8204,8181,8156,8171,8143,8163,8204,8167,8127,8159,8156,8166,9.238015413284302
107,8198,8148,8189,8170,8173,8180,8143,8160,8117,8155,8121,8148,8151,8163,9.246052265167236
108,8207,8178,8205,8176,8151,8191,8142,8182,8265,8156,8123,8185,8162,8169,9.255052089691162
108,8207,8178,8205,8176,8151,8191,8142,8182,8265,8156,8123,8185,8162,8169,9.255499362945557
109,8217,8153,8210,8181,8181,8201,8169,8183,8189,8213,8168,8156,8164,8187,9.262506246566772
110,8233,8183,8221,8194,8175,8190,8149,8174,8265,8178,8160,8182,8160,8189,9.268505334854126
111,8207,8170,8200,8178,8150,8174,8137,8159,8220,8148,8150,8169,8157,8157,9.276504755020142
112,8209,8152,8204,8171,8153,8163,8136,8152,8117,8171,8176,8158,8161,8162,9.284505367279053
113,8221,8192,8242,8197,8137,8159,8115,8163,8266,8147,8178,8199,8166,8156,9.292504787445068
114,8226,8173,8230,8204,8155,8185,8146,8160,8167,8163,8185,8159,8163,8143,9.300504684448242
115,8237,8184,8230,8197,8141,8182,8140,8157,8207,8156,8164,8173,8159,8152,9.308505535125732
115,8237,8184,8230,8197,8141,8182,8140,8157,8207,8156,8164,8173,8159,8152,9.309506177902222
116,8206,8171,8236,8188,8127,8153,8120,8157,8205,8145,8164,8175,8163,8148,9.316506147384644
117,8235,8166,8254,8208,8149,8172,8151,8169,8150,8173,8195,8169,8163,8170,9.324504852294922
118,8254,8200,8275,8220,8127,8183,8145,8175,8314,8164,8188,8203,8159,8176,9.331507444381714
119,8206,8159,8248,8201,8143,8170,8141,8161,8188,8176,8206,8165,8158,8163,9.340051889419556
120,8233,8180,8269,8213,8161,8166,8142,8175,8249,8163,8204,8189,8166,8182,9.348015546798706
121,8251,8187,8284,8217,8149,8164,8151,8184,8310,8159,8193,8191,8168,8186,9.3560528755188
122,8243,8158,8258,8203,8132,8155,8154,8164,8157,8179,8188,8157,8148,8188,9.364052534103394
