COUNTER,F3,FC5,AF3,F7,T7,P7,O1,O2,P8,T8,F8,AF4,FC6,F4,Timestamp
21, 8122, 8154, 8141, 8140, 8099, 8071, 8108, 8112, 8179, 8100, 8094, 8173, 8160, 8091,0.004999876022338867
21, 8122, 8154, 8141, 8140, 8099, 8071, 8108, 8112, 8179, 8100, 8094, 8173, 8160, 8091,0.004999876022338867
22, 8121, 8127, 8133, 8126, 8116, 8089, 8127, 8094, 8043, 8100, 8106, 8138, 8157, 8087,0.012439727783203125
22, 8121, 8127, 8133, 8126, 8116, 8089, 8127, 8094, 8043, 8100, 8106, 8138, 8157, 8087,0.012439727783203125
23, 8141, 8168, 8165, 8152, 8125, 8112, 8136, 8116, 8170, 8105, 8123, 8173, 8164, 8108,0.02044057846069336
23, 8141, 8168, 8165, 8152, 8125, 8112, 8136, 8116, 8170, 8105, 8123, 8173, 8164, 8108,0.02044057846069336
24, 8151, 8163, 8168, 8156, 8134, 8111, 8149, 8132, 8211, 8146, 8129, 8165, 8165, 8121,0.028439760208129883
24, 8151, 8163, 8168, 8156, 8134, 8111, 8149, 8132, 8211, 8146, 8129, 8165, 8165, 8121,0.028439760208129883
25, 8170, 8148, 8159, 8142, 8137, 8110, 8148, 8123, 8165, 8161, 8124, 8149, 8164, 8138,0.03688836097717285
25, 8170, 8148, 8159, 8142, 8137, 8110, 8148, 8123, 8165, 8161, 8124, 8149, 8164, 8138,0.03688836097717285
26, 8145, 8162, 8169, 8147, 8107, 8105, 8120, 8118, 8251, 8115, 8123, 8177, 8164, 8126,0.04417014122009277
26, 8145, 8162, 8169, 8147, 8107, 8105, 8120, 8118, 8251, 8115, 8123, 8177, 8164, 8126,0.04417014122009277
27, 8133, 8130, 8162, 8149, 8124, 8104, 8144, 8115, 8127, 8141, 8147, 8150, 8160, 8117,0.0521697998046875
27, 8133, 8130, 8162, 8149, 8124, 8104, 8144, 8115, 8127, 8141, 8147, 8150, 8160, 8117,0.0521697998046875
28, 8172, 8159, 8172, 8150, 8126, 8111, 8146, 8112, 8198, 8130, 8121, 8166, 8157, 8124,0.060170888900756836
28, 8172, 8159, 8172, 8150, 8126, 8111, 8146, 8112, 8198, 8130, 8121, 8166, 8157, 8124,0.060170888900756836
29, 8144, 8150, 8157, 8132, 8122, 8115, 8131, 8106, 8183, 8099, 8118, 8158, 8160, 8102,0.06809401512145996
29, 8144, 8150, 8157, 8132, 8122, 8115, 8131, 8106, 8183, 8099, 8118, 8158, 8160, 8102,0.06809401512145996
30, 8136, 8138, 8149, 8138, 8133, 8110, 8137, 8118, 8106, 8121, 8134, 8150, 8158, 8104,0.07609176635742188
30, 8136, 8138, 8149, 8138, 8133, 8110, 8137, 8118, 8106, 8121, 8134, 8150, 8158, 8104,0.07609176635742188
31, 8154, 8167, 8169, 8154, 8110, 8100, 8138, 8129, 8243, 8120, 8104, 8178, 8150, 8106,0.08388876914978027
31, 8154, 8167, 8169, 8154, 8110, 8100, 8138, 8129, 8243, 8120, 8104, 8178, 8150, 8106,0.08388876914978027
32, 8150, 8144, 8159, 8148, 8121, 8106, 8160, 8115, 8136, 8124, 8121, 8140, 8150, 8101,0.09188628196716309
32, 8150, 8144, 8159, 8148, 8121, 8106, 8160, 8115, 8136, 8124, 8121, 8140, 8150, 8101,0.09188628196716309
33, 8178, 8172, 8180, 8164, 8122, 8105, 8147, 8115, 8195, 8112, 8143, 8160, 8161, 8121,0.09985613822937012
33, 8178, 8172, 8180, 8164, 8122, 8105, 8147, 8115, 8195, 8112, 8143, 8160, 8161, 8121,0.09985613822937012
34, 8161, 8165, 8179, 8155, 8120, 8095, 8132, 8116, 8230, 8123, 8147, 8172, 8165, 8119,0.1078498363494873
34, 8161, 8165, 8179, 8155, 8120, 8095, 8132, 8116, 8230, 8123, 8147, 8172, 8165, 8119,0.1078498363494873
35, 8137, 8137, 8150, 8139, 8135, 8103, 8142, 8115, 8126, 8133, 8143, 8150, 8153, 8114,0.11494207382202148
35, 8137, 8137, 8150, 8139, 8135, 8103, 8142, 8115, 8126, 8133, 8143, 8150, 8153, 8114,0.11494207382202148
36, 8144, 8169, 8155, 8151, 8109, 8092, 8131, 8125, 8224, 8095, 8121, 8166, 8150, 8112,0.12247133255004883
36, 8144, 8169, 8155, 8151, 8109, 8092, 8131, 8125, 8224, 8095, 8121, 8166, 8150, 8112,0.12247133255004883
37, 8155, 8145, 8148, 8153, 8109, 8080, 8144, 8118, 8127, 8117, 8139, 8141, 8160, 8116,0.13089203834533691
37, 8155, 8145, 8148, 8153, 8109, 8080, 8144, 8118, 8127, 8117, 8139, 8141, 8160, 8116,0.13089203834533691
38, 8173, 8152, 8150, 8147, 8100, 8078, 8127, 8100, 8154, 8122, 8131, 8159, 8156, 8119,0.13892054557800293
38, 8173, 8152, 8150, 8147, 8100, 8078, 8127, 8100, 8154, 8122, 8131, 8159, 8156, 8119,0.13892054557800293
39, 8130, 8145, 8132, 8124, 8082, 8068, 8103, 8089, 8149, 8092, 8113, 8154, 8146, 8089,0.14692068099975586
39, 8130, 8145, 8132, 8124, 8082, 8068, 8103, 8089, 8149, 8092, 8113, 8154, 8146, 8089,0.14692068099975586
40, 8120, 8125, 8110, 8127, 8094, 8078, 8121, 8096, 8019, 8099, 8119, 8130, 8148, 8088,0.1548914909362793
40, 8120, 8125, 8110, 8127, 8094, 8078, 8121, 8096, 8019, 8099, 8119, 8130, 8148, 8088,0.1548914909362793
41, 8158, 8160, 8133, 8145, 8085, 8085, 8122, 8105, 8155, 8101, 8109, 8172, 8157, 8106,0.16223669052124023
41, 8158, 8160, 8133, 8145, 8085, 8085, 8122, 8105, 8155, 8101, 8109, 8172, 8157, 8106,0.1632390022277832
42, 8153, 8137, 8141, 8127, 8109, 8088, 8130, 8095, 8101, 8127, 8142, 8153, 8158, 8116,0.17023921012878418
42, 8153, 8137, 8141, 8127, 8109, 8088, 8130, 8095, 8101, 8127, 8142, 8153, 8158, 8116,0.17023921012878418
43, 8160, 8158, 8158, 8142, 8120, 8096, 8125, 8114, 8151, 8130, 8159, 8159, 8161, 8135,0.17778921127319336
43, 8160, 8158, 8158, 8142, 8120, 8096, 8125, 8114, 8151, 8130, 8159, 8159, 8161, 8135,0.17778921127319336
44, 8157, 8172, 8156, 8151, 8107, 8091, 8131, 8143, 8241, 8129, 8149, 8172, 8164, 8133,0.18585419654846191
44, 8157, 8172, 8156, 8151, 8107, 8091, 8131, 8143, 8241, 8129, 8149, 8172, 8164, 8133,0.1862185001373291
45, 8159, 8142, 8140, 8133, 8118, 8085, 8161, 8151, 8141, 8158, 8167, 8153, 8160, 8138,0.19381117820739746
45, 8159, 8142, 8140, 8133, 8118, 8085, 8161, 8151, 8141, 8158, 8167, 8153, 8160, 8138,0.19381117820739746
46, 8163, 8174, 8164, 8144, 8101, 8080, 8144, 8167, 8273, 8142, 8173, 8188, 8163, 8146,0.20180535316467285
46, 8163, 8174, 8164, 8144, 8101, 8080, 8144, 8167, 8273, 8142, 8173, 8188, 8163, 8146,0.20180535316467285
47, 8146, 8164, 8156, 8151, 8102, 8078, 8149, 8185, 8232, 8168, 8182, 8159, 8164, 8142,0.20988845825195312
47, 8146, 8164, 8156, 8151, 8102, 8078, 8149, 8185, 8232, 8168, 8182, 8159, 8164, 8142,0.20988845825195312
48, 8169, 8164, 8150, 8152, 8108, 8069, 8151, 8190, 8219, 8181, 8165, 8149, 8156, 8141,0.21788740158081055
48, 8169, 8164, 8150, 8152, 8108, 8069, 8151, 8190, 8219, 8181, 8165, 8149, 8156, 8141,0.21788740158081055
49, 8158, 8161, 8149, 8138, 8118, 8063, 8136, 8188, 8260, 8144, 8147, 8161, 8150, 8117,0.22586941719055176
49, 8158, 8161, 8149, 8138, 8118, 8063, 8136, 8188, 8260, 8144, 8147, 8161, 8150, 8117,0.22586941719055176
50, 8135, 8136, 8138, 8126, 8137, 8080, 8152, 8203, 8129, 8135, 8162, 8138, 8154, 8113,0.23389410972595215
50, 8135, 8136, 8138, 8126, 8137, 8080, 8152, 8203, 8129, 8135, 8162, 8138, 8154, 8113,0.23389410972595215
51, 8156, 8175, 8155, 8147, 8104, 8080, 8151, 8233, 8247, 8113, 8136, 8167, 8160, 8116,0.2409060001373291
51, 8156, 8175, 8155, 8147, 8104, 8080, 8151, 8233, 8247, 8113, 8136, 8167, 8160, 8116,0.2409060001373291
52, 8163, 8155, 8149, 8143, 8119, 8075, 8171, 8240, 8202, 8150, 8142, 8152, 8158, 8109,0.24922943115234375
52, 8163, 8155, 8149, 8143, 8119, 8075, 8171, 8240, 8202, 8150, 8142, 8152, 8158, 8109,0.24922943115234375
53, 8172, 8152, 8151, 8138, 8150, 8082, 8176, 8244, 8186, 8173, 8171, 8163, 8157, 8140,0.2572300434112549
53, 8172, 8152, 8151, 8138, 8150, 8082, 8176, 8244, 8186, 8173, 8171, 8163, 8157, 8140,0.2572300434112549
54, 8155, 8167, 8158, 8144, 8135, 8071, 8162, 8263, 8298, 8145, 8174, 8190, 8162, 8151,0.2648887634277344
54, 8155, 8167, 8158, 8144, 8135, 8071, 8162, 8263, 8298, 8145, 8174, 8190, 8162, 8151,0.2648887634277344
55, 8155, 8142, 8153, 8147, 8144, 8068, 8189, 8273, 8209, 8174, 8187, 8154, 8161, 8150,0.2728896141052246
55, 8155, 8142, 8153, 8147, 8144, 8068, 8189, 8273, 8209, 8174, 8187, 8154, 8161, 8150,0.2728896141052246
56, 8173, 8171, 8164, 8146, 8127, 8060, 8171, 8270, 8303, 8163, 8164, 8170, 8161, 8154,0.28095340728759766
56, 8173, 8171, 8164, 8146, 8127, 8060, 8171, 8270, 8303, 8163, 8164, 8170, 8161, 8154,0.28095340728759766
57, 8138, 8144, 8140, 8128, 8124, 8042, 8144, 8256, 8213, 8145, 8160, 8154, 8157, 8136,0.28888630867004395
57, 8138, 8144, 8140, 8128, 8124, 8042, 8144, 8256, 8213, 8145, 8160, 8154, 8157, 8136,0.28888630867004395
58, 8152, 8135, 8137, 8132, 8124, 8039, 8142, 8258, 8128, 8143, 8164, 8146, 8146, 8136,0.2960045337677002
58, 8152, 8135, 8137, 8132, 8124, 8039, 8142, 8258, 8128, 8143, 8164, 8146, 8146, 8136,0.2960045337677002
59, 8155, 8154, 8146, 8116, 8093, 8041, 8133, 8269, 8230, 8128, 8146, 8163, 8146, 8133,0.3048865795135498
59, 8155, 8154, 8146, 8116, 8093, 8041, 8133, 8269, 8230, 8128, 8146, 8163, 8146, 8133,0.3048865795135498
60, 8134, 8131, 8119, 8098, 8112, 8050, 8150, 8278, 8126, 8159, 8165, 8139, 8154, 8134,0.3118603229522705
60, 8134, 8131, 8119, 8098, 8112, 8050, 8150, 8278, 8126, 8159, 8165, 8139, 8154, 8134,0.3118603229522705
61, 8159, 8169, 8135, 8136, 8123, 8050, 8150, 8295, 8226, 8151, 8160, 8166, 8154, 8138,0.31985974311828613
61, 8159, 8169, 8135, 8136, 8123, 8050, 8150, 8295, 8226, 8151, 8160, 8166, 8154, 8138,0.31985974311828613
62, 8140, 8155, 8141, 8139, 8126, 8048, 8153, 8290, 8201, 8142, 8153, 8150, 8152, 8116,0.32788562774658203
62, 8140, 8155, 8141, 8139, 8126, 8048, 8153, 8290, 8201, 8142, 8153, 8150, 8152, 8116,0.32788562774658203
63, 8141, 8144, 8135, 8133, 8136, 8057, 8158, 8287, 8123, 8155, 8146, 8138, 8151, 8113,0.33585357666015625
63, 8141, 8144, 8135, 8133, 8136, 8057, 8158, 8287, 8123, 8155, 8146, 8138, 8151, 8113,0.33585357666015625
64, 8153, 8169, 8147, 8138, 8127, 8061, 8156, 8300, 8239, 8132, 8128, 8171, 8153, 8111,0.3438701629638672
64, 8153, 8169, 8147, 8138, 8127, 8061, 8156, 8300, 8239, 8132, 8128, 8171, 8153, 8111,0.3438701629638672
65, 8129, 8129, 8131, 8124, 8144, 8068, 8177, 8292, 8125, 8135, 8144, 8143, 8153, 8101,0.3508741855621338
65, 8129, 8129, 8131, 8124, 8144, 8068, 8177, 8292, 8125, 8135, 8144, 8143, 8153, 8101,0.3508741855621338
66, 8130, 8144, 8131, 8131, 8128, 8061, 8155, 8290, 8170, 8120, 8122, 8150, 8146, 8097,0.3589622974395752
66, 8130, 8144, 8131, 8131, 8128, 8061, 8155, 8290, 8170, 8120, 8122, 8150, 8146, 8097,0.3589622974395752
67, 8114, 8133, 8117, 8116, 8115, 8060, 8151, 8293, 8157, 8117, 8106, 8137, 8139, 8086,0.3679795265197754
67, 8114, 8133, 8117, 8116, 8115, 8060, 8151, 8293, 8157, 8117, 8106, 8137, 8139, 8086,0.3679795265197754
68, 8127, 8124, 8122, 8112, 8134, 8084, 8175, 8300, 8100, 8137, 8126, 8136, 8151, 8105,0.3748955726623535
68, 8127, 8124, 8122, 8112, 8134, 8084, 8175, 8300, 8100, 8137, 8126, 8136, 8151, 8105,0.3748955726623535
69, 8149, 8167, 8155, 8138, 8125, 8082, 8155, 8304, 8250, 8124, 8127, 8174, 8166, 8115,0.3828868865966797
69, 8149, 8167, 8155, 8138, 8125, 8082, 8155, 8304, 8250, 8124, 8127, 8174, 8166, 8115,0.3828868865966797
70, 8132, 8139, 8134, 8127, 8132, 8075, 8151, 8289, 8137, 8139, 8132, 8137, 8156, 8100,0.3908872604370117
70, 8132, 8139, 8134, 8127, 8132, 8075, 8151, 8289, 8137, 8139, 8132, 8137, 8156, 8100,0.3908872604370117
71, 8132, 8144, 8129, 8121, 8113, 8084, 8147, 8294, 8169, 8127, 8112, 8150, 8153, 8093,0.398730993270874
71, 8132, 8144, 8129, 8121, 8113, 8084, 8147, 8294, 8169, 8127, 8112, 8150, 8153, 8093,0.398730993270874
72, 8125, 8140, 8128, 8119, 8102, 8084, 8157, 8303, 8201, 8125, 8117, 8160, 8161, 8093,0.4067249298095703
72, 8125, 8140, 8128, 8119, 8102, 8084, 8157, 8303, 8201, 8125, 8117, 8160, 8161, 8093,0.4067249298095703
73, 8131, 8123, 8126, 8116, 8123, 8090, 8169, 8295, 8110, 8139, 8133, 8140, 8153, 8110,0.4148883819580078
73, 8131, 8123, 8126, 8116, 8123, 8090, 8169, 8295, 8110, 8139, 8133, 8140, 8153, 8110,0.4148883819580078
74, 8128, 8145, 8145, 8112, 8105, 8093, 8141, 8290, 8204, 8106, 8104, 8161, 8146, 8102,0.42287588119506836
74, 8128, 8145, 8145, 8112, 8105, 8093, 8141, 8290, 8204, 8106, 8104, 8161, 8146, 8102,0.42287588119506836
75, 8118, 8121, 8143, 8110, 8112, 8091, 8154, 8297, 8121, 8139, 8130, 8137, 8157, 8102,0.4298849105834961
75, 8118, 8121, 8143, 8110, 8112, 8091, 8154, 8297, 8121, 8139, 8130, 8137, 8157, 8102,0.4298849105834961
76, 8140, 8144, 8158, 8130, 8110, 8088, 8165, 8318, 8206, 8161, 8150, 8159, 8165, 8126,0.43788599967956543
76, 8140, 8144, 8158, 8130, 8110, 8088, 8165, 8318, 8206, 8161, 8150, 8159, 8165, 8126,0.43788599967956543
77, 8123, 8140, 8147, 8122, 8098, 8095, 8165, 8311, 8253, 8143, 8132, 8163, 8153, 8107,0.445850133895874
77, 8123, 8140, 8147, 8122, 8098, 8095, 8165, 8311, 8253, 8143, 8132, 8163, 8153, 8107,0.445850133895874
78, 8124, 8118, 8136, 8116, 8117, 8109, 8172, 8297, 8126, 8152, 8136, 8135, 8151, 8109,0.4544034004211426
78, 8124, 8118, 8136, 8116, 8117, 8109, 8172, 8297, 8126, 8152, 8136, 8135, 8151, 8109,0.4544034004211426
79, 8142, 8160, 8162, 8133, 8097, 8093, 8149, 8305, 8243, 8145, 8133, 8164, 8167, 8125,0.46250009536743164
79, 8142, 8160, 8162, 8133, 8097, 8093, 8149, 8305, 8243, 8145, 8133, 8164, 8167, 8125,0.46250009536743164
80, 8124, 8136, 8144, 8129, 8094, 8085, 8159, 8296, 8153, 8162, 8136, 8137, 8160, 8110,0.46949267387390137
80, 8124, 8136, 8144, 8129, 8094, 8085, 8159, 8296, 8153, 8162, 8136, 8137, 8160, 8110,0.4704916477203369
81, 8131, 8139, 8137, 8130, 8101, 8092, 8158, 8287, 8147, 8145, 8112, 8141, 8140, 8107,0.47802019119262695
81, 8131, 8139, 8137, 8130, 8101, 8092, 8158, 8287, 8147, 8145, 8112, 8141, 8140, 8107,0.47802019119262695
82, 8110, 8144, 8144, 8123, 8102, 8075, 8139, 8293, 8193, 8120, 8099, 8153, 8143, 8102,0.48601412773132324
82, 8110, 8144, 8144, 8123, 8102, 8075, 8139, 8293, 8193, 8120, 8099, 8153, 8143, 8102,0.48601412773132324
83, 8110, 8129, 8138, 8121, 8116, 8068, 8152, 8294, 8087, 8149, 8120, 8133, 8155, 8106,0.49375224113464355
83, 8110, 8129, 8138, 8121, 8116, 8068, 8152, 8294, 8087, 8149, 8120, 8133, 8155, 8106,0.49375224113464355
84, 8132, 8161, 8147, 8134, 8099, 8078, 8147, 8290, 8209, 8138, 8107, 8164, 8156, 8107,0.5007517337799072
84, 8132, 8161, 8147, 8134, 8099, 8078, 8147, 8290, 8209, 8138, 8107, 8164, 8156, 8107,0.5007517337799072
85, 8105, 8131, 8132, 8120, 8105, 8089, 8153, 8290, 8123, 8136, 8106, 8136, 8149, 8088,0.5088868141174316
85, 8105, 8131, 8132, 8120, 8105, 8089, 8153, 8290, 8123, 8136, 8106, 8136, 8149, 8088,0.5088868141174316
86, 8121, 8135, 8146, 8116, 8098, 8082, 8150, 8292, 8089, 8136, 8091, 8133, 8148, 8089,0.516772985458374
86, 8121, 8135, 8146, 8116, 8098, 8082, 8150, 8292, 8089, 8136, 8091, 8133, 8148, 8089,0.516772985458374
87, 8113, 8144, 8158, 8105, 8075, 8057, 8128, 8278, 8143, 8118, 8070, 8154, 8151, 8074,0.5248222351074219
87, 8113, 8144, 8158, 8105, 8075, 8057, 8128, 8278, 8143, 8118, 8070, 8154, 8151, 8074,0.5248222351074219
88, 8096, 8119, 8149, 8104, 8099, 8061, 8140, 8273, 8027, 8126, 8085, 8135, 8150, 8071,0.5328869819641113
88, 8096, 8119, 8149, 8104, 8099, 8061, 8140, 8273, 8027, 8126, 8085, 8135, 8150, 8071,0.5328869819641113
89, 8122, 8156, 8169, 8127, 8091, 8068, 8142, 8289, 8149, 8108, 8079, 8159, 8147, 8088,0.5406770706176758
89, 8122, 8156, 8169, 8127, 8091, 8068, 8142, 8289, 8149, 8108, 8079, 8159, 8147, 8088,0.5406770706176758
90, 8111, 8137, 8159, 8116, 8094, 8063, 8150, 8281, 8100, 8120, 8096, 8142, 8151, 8092,0.5486738681793213
90, 8111, 8137, 8159, 8116, 8094, 8063, 8150, 8281, 8100, 8120, 8096, 8142, 8151, 8092,0.5486738681793213
91, 8122, 8140, 8161, 8126, 8106, 8066, 8148, 8282, 8094, 8139, 8101, 8151, 8163, 8109,0.5566730499267578
91, 8122, 8140, 8161, 8126, 8106, 8066, 8148, 8282, 8094, 8139, 8101, 8151, 8163, 8109,0.5566730499267578
92, 8132, 8169, 8186, 8150, 8100, 8076, 8147, 8295, 8231, 8135, 8090, 8180, 8164, 8116,0.5656275749206543
92, 8132, 8169, 8186, 8150, 8100, 8076, 8147, 8295, 8231, 8135, 8090, 8180, 8164, 8116,0.5656275749206543
93, 8123, 8142, 8182, 8143, 8128, 8084, 8166, 8289, 8137, 8164, 8118, 8156, 8157, 8126,0.5713515281677246
93, 8123, 8142, 8182, 8143, 8128, 8084, 8166, 8289, 8137, 8164, 8118, 8156, 8157, 8126,0.572343111038208
94, 8132, 8163, 8187, 8143, 8119, 8066, 8143, 8291, 8223, 8150, 8104, 8174, 8158, 8131,0.5798516273498535
94, 8132, 8163, 8187, 8143, 8119, 8066, 8143, 8291, 8223, 8150, 8104, 8174, 8158, 8131,0.5798516273498535
95, 8139, 8149, 8184, 8143, 8113, 8059, 8159, 8291, 8190, 8161, 8104, 8157, 8161, 8129,0.5878880023956299
95, 8139, 8149, 8184, 8143, 8113, 8059, 8159, 8291, 8190, 8161, 8104, 8157, 8161, 8129,0.5878880023956299
96, 8156, 8153, 8203, 8158, 8122, 8069, 8170, 8284, 8142, 8161, 8125, 8158, 8163, 8146,0.5958788394927979
96, 8156, 8153, 8203, 8158, 8122, 8069, 8170, 8284, 8142, 8161, 8125, 8158, 8163, 8146,0.5958788394927979
97, 8149, 8174, 8221, 8164, 8096, 8046, 8129, 8278, 8228, 8119, 8109, 8181, 8160, 8137,0.6036198139190674
97, 8149, 8174, 8221, 8164, 8096, 8046, 8129, 8278, 8228, 8119, 8109, 8181, 8160, 8137,0.6036198139190674
98, 8150, 8136, 8203, 8149, 8099, 8031, 8146, 8279, 8105, 8150, 8108, 8147, 8156, 8135,0.6116135120391846
98, 8150, 8136, 8203, 8149, 8099, 8031, 8146, 8279, 8105, 8150, 8108, 8147, 8156, 8135,0.6116135120391846
99, 8170, 8161, 8216, 8160, 8099, 8048, 8154, 8291, 8193, 8146, 8099, 8170, 8158, 8143,0.6198863983154297
99, 8170, 8161, 8216, 8160, 8099, 8048, 8154, 8291, 8193, 8146, 8099, 8170, 8158, 8143,0.6198863983154297
100, 8144, 8160, 8216, 8162, 8110, 8061, 8148, 8288, 8196, 8134, 8109, 8172, 8160, 8134,0.6278595924377441
100, 8144, 8160, 8216, 8162, 8110, 8061, 8148, 8288, 8196, 8134, 8109, 8172, 8160, 8134,0.6278595924377441
101, 8159, 8155, 8211, 8162, 8113, 8051, 8153, 8279, 8135, 8147, 8111, 8164, 8153, 8146,0.6348683834075928
101, 8159, 8155, 8211, 8162, 8113, 8051, 8153, 8279, 8135, 8147, 8111, 8164, 8153, 8146,0.6348683834075928
102, 8169, 8178, 8229, 8162, 8090, 8036, 8145, 8276, 8225, 8125, 8092, 8184, 8151, 8144,0.6429548263549805
102, 8169, 8178, 8229, 8162, 8090, 8036, 8145, 8276, 8225, 8125, 8092, 8184, 8151, 8144,0.6429548263549805
103, 8145, 8154, 8229, 8159, 8119, 8047, 8150, 8272, 8113, 8143, 8124, 8161, 8158, 8143,0.6509537696838379
103, 8145, 8154, 8229, 8159, 8119, 8047, 8150, 8272, 8113, 8143, 8124, 8161, 8158, 8143,0.6509537696838379
104, 8167, 8179, 8241, 8183, 8115, 8050, 8137, 8278, 8200, 8141, 8115, 8185, 8161, 8157,0.6589620113372803
104, 8167, 8179, 8241, 8183, 8115, 8050, 8137, 8278, 8200, 8141, 8115, 8185, 8161, 8157,0.6589620113372803
105, 8170, 8169, 8233, 8181, 8111, 8041, 8144, 8272, 8193, 8126, 8088, 8175, 8157, 8140,0.666471004486084
105, 8170, 8169, 8233, 8181, 8111, 8041, 8144, 8272, 8193, 8126, 8088, 8175, 8157, 8140,0.666471004486084
106, 8173, 8156, 8236, 8183, 8140, 8046, 8156, 8268, 8094, 8133, 8093, 8162, 8153, 8137,0.6744780540466309
106, 8173, 8156, 8236, 8183, 8140, 8046, 8156, 8268, 8094, 8133, 8093, 8162, 8153, 8137,0.6744780540466309
107, 8174, 8179, 8250, 8196, 8113, 8038, 8135, 8280, 8222, 8117, 8079, 8193, 8155, 8136,0.6828868389129639
107, 8174, 8179, 8250, 8196, 8113, 8038, 8135, 8280, 8222, 8117, 8079, 8193, 8155, 8136,0.6828868389129639
108, 8158, 8138, 8214, 8169, 8104, 8036, 8156, 8279, 8103, 8120, 8077, 8152, 8153, 8127,0.6910140514373779
108, 8158, 8138, 8214, 8169, 8104, 8036, 8156, 8279, 8103, 8120, 8077, 8152, 8153, 8127,0.6910140514373779
109, 8174, 8160, 8216, 8169, 8115, 8043, 8159, 8282, 8142, 8109, 8073, 8164, 8157, 8142,0.6988334655761719
109, 8174, 8160, 8216, 8169, 8115, 8043, 8159, 8282, 8142, 8109, 8073, 8164, 8157, 8142,0.6988334655761719
110, 8162, 8166, 8221, 8179, 8125, 8044, 8155, 8283, 8200, 8124, 8080, 8172, 8160, 8144,0.7053184509277344
110, 8162, 8166, 8221, 8179, 8125, 8044, 8155, 8283, 8200, 8124, 8080, 8172, 8160, 8144,0.7053184509277344
111, 8158, 8143, 8207, 8170, 8127, 8055, 8170, 8268, 8105, 8151, 8086, 8145, 8149, 8138,0.7133185863494873
111, 8158, 8143, 8207, 8170, 8127, 8055, 8170, 8268, 8105, 8151, 8086, 8145, 8149, 8138,0.7133185863494873
112, 8157, 8173, 8216, 8164, 8095, 8055, 8150, 8264, 8192, 8116, 8066, 8172, 8150, 8126,0.7218866348266602
112, 8157, 8173, 8216, 8164, 8095, 8055, 8150, 8264, 8192, 8116, 8066, 8172, 8150, 8126,0.7218866348266602
113, 8146, 8156, 8207, 8166, 8106, 8058, 8155, 8271, 8099, 8124, 8084, 8153, 8161, 8130,0.7297053337097168
113, 8146, 8156, 8207, 8166, 8106, 8058, 8155, 8271, 8099, 8124, 8084, 8153, 8161, 8130,0.7297053337097168
114, 8176, 8171, 8217, 8186, 8110, 8075, 8155, 8279, 8144, 8128, 8082, 8165, 8159, 8150,0.7377047538757324
114, 8176, 8171, 8217, 8186, 8110, 8075, 8155, 8279, 8144, 8128, 8082, 8165, 8159, 8150,0.7377047538757324
115, 8154, 8164, 8210, 8178, 8107, 8083, 8143, 8272, 8193, 8121, 8076, 8172, 8150, 8132,0.7457046508789062
115, 8154, 8164, 8210, 8178, 8107, 8083, 8143, 8272, 8193, 8121, 8076, 8172, 8150, 8132,0.7457046508789062
116, 8149, 8143, 8200, 8170, 8127, 8093, 8152, 8271, 8100, 8149, 8094, 8152, 8153, 8132,0.7537071704864502
116, 8149, 8143, 8200, 8170, 8127, 8093, 8152, 8271, 8100, 8149, 8094, 8152, 8153, 8132,0.7537071704864502
117, 8188, 8184, 8238, 8186, 8113, 8107, 8154, 8285, 8252, 8136, 8084, 8185, 8164, 8151,0.7617135047912598
117, 8188, 8184, 8238, 8186, 8113, 8107, 8154, 8285, 8252, 8136, 8084, 8185, 8164, 8151,0.7617135047912598
118, 8182, 8163, 8239, 8181, 8128, 8126, 8180, 8282, 8201, 8151, 8105, 8162, 8165, 8156,0.7687582969665527
118, 8182, 8163, 8239, 8181, 8128, 8126, 8180, 8282, 8201, 8151, 8105, 8162, 8165, 8156,0.7687582969665527
119, 8194, 8172, 8231, 8190, 8137, 8131, 8185, 8278, 8197, 8140, 8097, 8160, 8156, 8159,0.7762584686279297
119, 8194, 8172, 8231, 8190, 8137, 8131, 8185, 8278, 8197, 8140, 8097, 8160, 8156, 8159,0.7762584686279297
120, 8183, 8172, 8216, 8176, 8115, 8120, 8167, 8262, 8207, 8104, 8064, 8167, 8150, 8137,0.7842617034912109
120, 8183, 8172, 8216, 8176, 8115, 8120, 8167, 8262, 8207, 8104, 8064, 8167, 8150, 8137,0.7842617034912109
121, 8157, 8138, 8198, 8149, 8120, 8121, 8161, 8240, 8053, 8125, 8076, 8143, 8152, 8128,0.7923951148986816
121, 8157, 8138, 8198, 8149, 8120, 8121, 8161, 8240, 8053, 8125, 8076, 8143, 8152, 8128,0.7923951148986816
122, 8152, 8167, 8210, 8165, 8109, 8115, 8138, 8246, 8175, 8113, 8069, 8175, 8152, 8120,0.8003950119018555
122, 8152, 8167, 8210, 8165, 8109, 8115, 8138, 8246, 8175, 8113, 8069, 8175, 8152, 8120,0.8003950119018555
123, 8146, 8152, 8201, 8178, 8125, 8117, 8165, 8260, 8147, 8132, 8080, 8158, 8153, 8120,0.8084583282470703
123, 8146, 8152, 8201, 8178, 8125, 8117, 8165, 8260, 8147, 8132, 8080, 8158, 8153, 8120,0.8084583282470703
124, 8189, 8169, 8227, 8195, 8137, 8119, 8193, 8283, 8183, 8162, 8096, 8165, 8165, 8155,0.816887378692627
124, 8189, 8169, 8227, 8195, 8137, 8119, 8193, 8283, 8183, 8162, 8096, 8165, 8165, 8155,0.816887378692627
125, 8184, 8181, 8234, 8179, 8121, 8093, 8166, 8277, 8253, 8145, 8081, 8174, 8163, 8138,0.8249087333679199
125, 8184, 8181, 8234, 8179, 8121, 8093, 8166, 8277, 8253, 8145, 8081, 8174, 8163, 8138,0.8249087333679199
126, 8135, 8131, 8181, 8138, 8124, 8084, 8151, 8238, 8047, 8125, 8069, 8129, 8138, 8095,0.832904577255249
126, 8135, 8131, 8181, 8138, 8124, 8084, 8151, 8238, 8047, 8125, 8069, 8129, 8138, 8095,0.832904577255249
127, 8122, 8150, 8174, 8150, 8111, 8089, 8139, 8233, 8102, 8084, 8047, 8152, 8138, 8083,0.8398876190185547
127, 8122, 8150, 8174, 8150, 8111, 8089, 8139, 8233, 8102, 8084, 8047, 8152, 8138, 8083,0.8398876190185547
240, 8117, 8143, 8171, 8164, 8135, 8097, 8160, 8247, 8078, 8094, 8057, 8140, 8157, 8078,0.8481214046478271
240, 8117, 8143, 8171, 8164, 8135, 8097, 8160, 8247, 8078, 8094, 8057, 8140, 8157, 8078,0.8481214046478271
0, 8150, 8150, 8177, 8172, 8144, 8102, 8165, 8242, 8052, 8110, 8049, 8141, 8159, 8087,0.8558499813079834
0, 8150, 8150, 8177, 8172, 8144, 8102, 8165, 8242, 8052, 8110, 8049, 8141, 8159, 8087,0.8558499813079834
1, 8168, 8175, 8204, 8179, 8125, 8103, 8155, 8235, 8151, 8103, 8044, 8169, 8158, 8096,0.863886833190918
1, 8168, 8175, 8204, 8179, 8125, 8103, 8155, 8235, 8151, 8103, 8044, 8169, 8158, 8096,0.863886833190918
2, 8163, 8157, 8210, 8186, 8167, 8133, 8191, 8252, 8098, 8143, 8100, 8153, 8165, 8123,0.8718509674072266
2, 8163, 8157, 8210, 8186, 8167, 8133, 8191, 8252, 8098, 8143, 8100, 8153, 8165, 8123,0.8718509674072266
3, 8169, 8176, 8214, 8194, 8159, 8140, 8183, 8273, 8225, 8131, 8092, 8178, 8163, 8132,0.8801696300506592
3, 8169, 8176, 8214, 8194, 8159, 8140, 8183, 8273, 8225, 8131, 8092, 8178, 8163, 8132,0.8801696300506592
4, 8145, 8145, 8185, 8169, 8130, 8112, 8161, 8251, 8148, 8106, 8057, 8155, 8154, 8101,0.8881652355194092
4, 8145, 8145, 8185, 8169, 8130, 8112, 8161, 8251, 8148, 8106, 8057, 8155, 8154, 8101,0.8881652355194092
5, 8139, 8141, 8173, 8165, 8133, 8099, 8155, 8233, 8055, 8100, 8060, 8142, 8150, 8100,0.8961644172668457
5, 8139, 8141, 8173, 8165, 8133, 8099, 8155, 8233, 8055, 8100, 8060, 8142, 8150, 8100,0.8961644172668457
6, 8133, 8172, 8184, 8180, 8116, 8110, 8156, 8249, 8168, 8100, 8071, 8171, 8153, 8109,0.9028863906860352
6, 8133, 8172, 8184, 8180, 8116, 8110, 8156, 8249, 8168, 8100, 8071, 8171, 8153, 8109,0.9028863906860352
7, 8144, 8149, 8183, 8180, 8127, 8128, 8186, 8258, 8102, 8150, 8107, 8156, 8161, 8119,0.9108874797821045
7, 8144, 8149, 8183, 8180, 8127, 8128, 8186, 8258, 8102, 8150, 8107, 8156, 8161, 8119,0.9108874797821045
8, 8181, 8176, 8214, 8190, 8131, 8118, 8170, 8263, 8226, 8154, 8116, 8183, 8167, 8140,0.9189093112945557
8, 8181, 8176, 8214, 8190, 8131, 8118, 8170, 8263, 8226, 8154, 8116, 8183, 8167, 8140,0.9189093112945557
9, 8156, 8160, 8205, 8177, 8135, 8114, 8168, 8255, 8204, 8150, 8114, 8162, 8163, 8126,0.9269099235534668
9, 8156, 8160, 8205, 8177, 8135, 8114, 8168, 8255, 8204, 8150, 8114, 8162, 8163, 8126,0.9269099235534668
10, 8153, 8142, 8186, 8173, 8139, 8124, 8192, 8250, 8110, 8161, 8107, 8141, 8152, 8118,0.9349513053894043
10, 8153, 8142, 8186, 8173, 8139, 8124, 8192, 8250, 8110, 8161, 8107, 8141, 8152, 8118,0.9349513053894043
11, 8152, 8160, 8196, 8180, 8111, 8103, 8171, 8256, 8225, 8141, 8096, 8176, 8150, 8117,0.9429659843444824
11, 8152, 8160, 8196, 8180, 8111, 8103, 8171, 8256, 8225, 8141, 8096, 8176, 8150, 8117,0.9429659843444824
12, 8139, 8135, 8187, 8173, 8118, 8088, 8170, 8253, 8111, 8159, 8125, 8156, 8155, 8118,0.9509541988372803
12, 8139, 8135, 8187, 8173, 8118, 8088, 8170, 8253, 8111, 8159, 8125, 8156, 8155, 8118,0.9509541988372803
13, 8170, 8172, 8205, 8186, 8119, 8097, 8173, 8248, 8169, 8152, 8119, 8172, 8160, 8124,0.9589552879333496
13, 8170, 8172, 8205, 8186, 8119, 8097, 8173, 8248, 8169, 8152, 8119, 8172, 8160, 8124,0.9589552879333496
14, 8154, 8164, 8200, 8170, 8120, 8090, 8172, 8241, 8187, 8153, 8114, 8167, 8159, 8116,0.9658498764038086
14, 8154, 8164, 8200, 8170, 8120, 8090, 8172, 8241, 8187, 8153, 8114, 8167, 8159, 8116,0.9658498764038086
15, 8155, 8136, 8180, 8160, 8132, 8076, 8172, 8245, 8109, 8179, 8134, 8152, 8159, 8130,0.973886251449585
15, 8155, 8136, 8180, 8160, 8132, 8076, 8172, 8245, 8109, 8179, 8134, 8152, 8159, 8130,0.973886251449585
16, 8175, 8169, 8199, 8178, 8118, 8063, 8155, 8248, 8225, 8145, 8126, 8178, 8163, 8127,0.9818861484527588
16, 8175, 8169, 8199, 8178, 8118, 8063, 8155, 8248, 8225, 8145, 8126, 8178, 8163, 8127,0.9818861484527588
17, 8164, 8151, 8196, 8174, 8134, 8058, 8166, 8239, 8119, 8146, 8145, 8153, 8158, 8119,0.989886999130249
17, 8164, 8151, 8196, 8174, 8134, 8058, 8166, 8239, 8119, 8146, 8145, 8153, 8158, 8119,0.989886999130249
18, 8186, 8168, 8210, 8178, 8128, 8065, 8166, 8250, 8176, 8159, 8141, 8177, 8160, 8140,0.9978866577148438
18, 8186, 8168, 8210, 8178, 8128, 8065, 8166, 8250, 8176, 8159, 8141, 8177, 8160, 8140,0.9978866577148438
19, 8170, 8160, 8205, 8169, 8118, 8070, 8170, 8247, 8214, 8160, 8129, 8179, 8164, 8133,1.005906343460083
19, 8170, 8160, 8205, 8169, 8118, 8070, 8170, 8247, 8214, 8160, 8129, 8179, 8164, 8133,1.005906343460083
20, 8157, 8142, 8183, 8174, 8131, 8066, 8177, 8226, 8082, 8157, 8126, 8145, 8153, 8122,1.0139095783233643
20, 8157, 8142, 8183, 8174, 8131, 8066, 8177, 8226, 8082, 8157, 8126, 8145, 8153, 8122,1.0139095783233643
21, 8166, 8176, 8188, 8186, 8111, 8052, 8146, 8228, 8159, 8120, 8087, 8171, 8148, 8113,1.0219697952270508
21, 8166, 8176, 8188, 8186, 8111, 8052, 8146, 8228, 8159, 8120, 8087, 8171, 8148, 8113,1.0219697952270508
22, 8158, 8149, 8181, 8170, 8123, 8052, 8152, 8234, 8086, 8150, 8098, 8160, 8158, 8120,1.0288877487182617
22, 8158, 8149, 8181, 8170, 8123, 8052, 8152, 8234, 8086, 8150, 8098, 8160, 8158, 8120,1.0288877487182617
23, 8170, 8158, 8188, 8174, 8115, 8058, 8152, 8229, 8134, 8162, 8093, 8169, 8165, 8134,1.0370495319366455
23, 8170, 8158, 8188, 8174, 8115, 8058, 8152, 8229, 8134, 8162, 8093, 8169, 8165, 8134,1.0370495319366455
24, 8149, 8155, 8177, 8166, 8095, 8054, 8143, 8215, 8139, 8134, 8052, 8164, 8157, 8102,1.0450475215911865
24, 8149, 8155, 8177, 8166, 8095, 8054, 8143, 8215, 8139, 8134, 8052, 8164, 8157, 8102,1.0450475215911865
25, 8146, 8129, 8162, 8154, 8112, 8054, 8162, 8220, 8004, 8135, 8037, 8139, 8146, 8092,1.053253173828125
25, 8146, 8129, 8162, 8154, 8112, 8054, 8162, 8220, 8004, 8135, 8037, 8139, 8146, 8092,1.053253173828125
26, 8164, 8160, 8177, 8161, 8096, 8056, 8160, 8242, 8135, 8116, 8020, 8166, 8148, 8104,1.0610334873199463
26, 8164, 8160, 8177, 8161, 8096, 8056, 8160, 8242, 8135, 8116, 8020, 8166, 8148, 8104,1.0610334873199463
27, 8148, 8141, 8171, 8161, 8121, 8080, 8185, 8241, 8071, 8135, 8038, 8147, 8156, 8107,1.069037914276123
27, 8148, 8141, 8171, 8161, 8121, 8080, 8185, 8241, 8071, 8135, 8038, 8147, 8156, 8107,1.069037914276123
28, 8179, 8166, 8195, 8194, 8155, 8103, 8196, 8250, 8123, 8158, 8043, 8169, 8164, 8135,1.0768814086914062
28, 8179, 8166, 8195, 8194, 8155, 8103, 8196, 8250, 8123, 8158, 8043, 8169, 8164, 8135,1.0768814086914062
29, 8199, 8184, 8208, 8201, 8142, 8086, 8183, 8260, 8252, 8173, 8043, 8182, 8165, 8149,1.0845015048980713
29, 8199, 8184, 8208, 8201, 8142, 8086, 8183, 8260, 8252, 8173, 8043, 8182, 8165, 8149,1.0855023860931396
30, 8181, 8150, 8188, 8176, 8131, 8075, 8187, 8245, 8131, 8201, 8066, 8146, 8161, 8141,1.0916557312011719
30, 8181, 8150, 8188, 8176, 8131, 8075, 8187, 8245, 8131, 8201, 8066, 8146, 8161, 8141,1.0916557312011719
31, 8177, 8186, 8204, 8188, 8114, 8084, 8180, 8246, 8222, 8173, 8058, 8183, 8160, 8136,1.0996499061584473
31, 8177, 8186, 8204, 8188, 8114, 8084, 8180, 8246, 8222, 8173, 8058, 8183, 8160, 8136,1.0996499061584473
32, 8183, 8169, 8197, 8188, 8137, 8091, 8206, 8253, 8177, 8174, 8067, 8171, 8160, 8145,1.1076593399047852
32, 8183, 8169, 8197, 8188, 8137, 8091, 8206, 8253, 8177, 8174, 8067, 8171, 8160, 8145,1.1076593399047852
33, 8207, 8154, 8195, 8174, 8135, 8076, 8195, 8242, 8152, 8161, 8078, 8168, 8162, 8164,1.115849256515503
33, 8207, 8154, 8195, 8174, 8135, 8076, 8195, 8242, 8152, 8161, 8078, 8168, 8162, 8164,1.115849256515503
34, 8185, 8164, 8198, 8172, 8105, 8054, 8148, 8225, 8199, 8132, 8078, 8180, 8163, 8147,1.123887062072754
34, 8185, 8164, 8198, 8172, 8105, 8054, 8148, 8225, 8199, 8132, 8078, 8180, 8163, 8147,1.123887062072754
35, 8172, 8143, 8180, 8173, 8126, 8066, 8160, 8217, 8060, 8157, 8093, 8150, 8155, 8135,1.1323254108428955
35, 8172, 8143, 8180, 8173, 8126, 8066, 8160, 8217, 8060, 8157, 8093, 8150, 8155, 8135,1.1323254108428955
36, 8184, 8167, 8187, 8172, 8114, 8070, 8167, 8227, 8163, 8145, 8085, 8183, 8157, 8142,1.1398580074310303
36, 8184, 8167, 8187, 8172, 8114, 8070, 8167, 8227, 8163, 8145, 8085, 8183, 8157, 8142,1.1398580074310303
37, 8155, 8146, 8165, 8152, 8106, 8064, 8177, 8236, 8144, 8173, 8107, 8169, 8165, 8137,1.1478581428527832
37, 8155, 8146, 8165, 8152, 8106, 8064, 8177, 8236, 8144, 8173, 8107, 8169, 8165, 8137,1.1478581428527832
38, 8164, 8146, 8149, 8152, 8105, 8067, 8180, 8233, 8107, 8185, 8105, 8148, 8155, 8138,1.1558492183685303
38, 8164, 8146, 8149, 8152, 8105, 8067, 8180, 8233, 8107, 8185, 8105, 8148, 8155, 8138,1.1558492183685303
39, 8152, 8151, 8148, 8145, 8086, 8054, 8162, 8219, 8157, 8128, 8077, 8157, 8144, 8123,1.1627204418182373
39, 8152, 8151, 8148, 8145, 8086, 8054, 8162, 8219, 8157, 8128, 8077, 8157, 8144, 8123,1.1627204418182373
40, 8132, 8123, 8137, 8146, 8111, 8056, 8180, 8223, 8047, 8146, 8108, 8138, 8152, 8126,1.1708869934082031
40, 8132, 8123, 8137, 8146, 8111, 8056, 8180, 8223, 8047, 8146, 8108, 8138, 8152, 8126,1.1708869934082031
41, 8153, 8163, 8156, 8166, 8103, 8061, 8170, 8238, 8173, 8160, 8104, 8166, 8158, 8131,1.178941011428833
41, 8153, 8163, 8156, 8166, 8103, 8061, 8170, 8238, 8173, 8160, 8104, 8166, 8158, 8131,1.178941011428833
42, 8131, 8139, 8142, 8137, 8092, 8054, 8161, 8215, 8115, 8149, 8096, 8149, 8153, 8109,1.1868860721588135
42, 8131, 8139, 8142, 8137, 8092, 8054, 8161, 8215, 8115, 8149, 8096, 8149, 8153, 8109,1.1868860721588135
43, 8144, 8127, 8138, 8133, 8105, 8060, 8175, 8214, 8053, 8152, 8116, 8144, 8157, 8121,1.194901943206787
43, 8144, 8127, 8138, 8133, 8105, 8060, 8175, 8214, 8053, 8152, 8116, 8144, 8157, 8121,1.194901943206787
44, 8162, 8162, 8153, 8158, 8098, 8060, 8179, 8231, 8192, 8154, 8107, 8171, 8162, 8127,1.20290207862854
44, 8162, 8162, 8153, 8158, 8098, 8060, 8179, 8231, 8192, 8154, 8107, 8171, 8162, 8127,1.20290207862854
45, 8136, 8140, 8133, 8146, 8112, 8054, 8182, 8213, 8061, 8178, 8108, 8136, 8155, 8117,1.2109031677246094
45, 8136, 8140, 8133, 8146, 8112, 8054, 8182, 8213, 8061, 8178, 8108, 8136, 8155, 8117,1.2109031677246094
46, 8145, 8162, 8145, 8147, 8100, 8057, 8160, 8219, 8132, 8159, 8112, 8163, 8160, 8126,1.218902587890625
46, 8145, 8162, 8145, 8147, 8100, 8057, 8160, 8219, 8132, 8159, 8112, 8163, 8160, 8126,1.218902587890625
47, 8145, 8155, 8150, 8153, 8104, 8075, 8174, 8228, 8169, 8158, 8144, 8172, 8167, 8124,1.225902795791626
47, 8145, 8155, 8150, 8153, 8104, 8075, 8174, 8228, 8169, 8158, 8144, 8172, 8167, 8124,1.225902795791626
48, 8144, 8149, 8149, 8160, 8121, 8076, 8189, 8213, 8095, 8161, 8149, 8154, 8155, 8121,1.2339529991149902
48, 8144, 8149, 8149, 8160, 8121, 8076, 8189, 8213, 8095, 8161, 8149, 8154, 8155, 8121,1.2339529991149902
49, 8145, 8168, 8149, 8151, 8096, 8046, 8158, 8213, 8163, 8130, 8107, 8162, 8146, 8109,1.2419822216033936
49, 8145, 8168, 8149, 8151, 8096, 8046, 8158, 8213, 8163, 8130, 8107, 8162, 8146, 8109,1.2419822216033936
50, 8144, 8132, 8117, 8131, 8108, 8052, 8177, 8220, 8054, 8165, 8119, 8128, 8155, 8115,1.250107765197754
50, 8144, 8132, 8117, 8131, 8108, 8052, 8177, 8220, 8054, 8165, 8119, 8128, 8155, 8115,1.250107765197754
51, 8153, 8156, 8128, 8148, 8105, 8071, 8184, 8222, 8133, 8169, 8112, 8156, 8163, 8131,1.2578866481781006
51, 8153, 8156, 8128, 8148, 8105, 8071, 8184, 8222, 8133, 8169, 8112, 8156, 8163, 8131,1.2578866481781006
52, 8135, 8156, 8146, 8157, 8101, 8053, 8173, 8220, 8152, 8161, 8088, 8167, 8159, 8122,1.2658495903015137
52, 8135, 8156, 8146, 8157, 8101, 8053, 8173, 8220, 8152, 8161, 8088, 8167, 8159, 8122,1.2658495903015137
53, 8160, 8142, 8142, 8161, 8132, 8047, 8192, 8229, 8094, 8194, 8084, 8153, 8159, 8140,1.2733674049377441
53, 8160, 8142, 8142, 8161, 8132, 8047, 8192, 8229, 8094, 8194, 8084, 8153, 8159, 8140,1.2743711471557617
54, 8177, 8164, 8142, 8167, 8130, 8061, 8194, 8233, 8231, 8177, 8056, 8184, 8166, 8145,1.2821927070617676
54, 8177, 8164, 8142, 8167, 8130, 8061, 8194, 8233, 8231, 8177, 8056, 8184, 8166, 8145,1.2821927070617676
55, 8141, 8127, 8127, 8151, 8135, 8074, 8198, 8216, 8103, 8169, 8044, 8150, 8163, 8126,1.2895612716674805
55, 8141, 8127, 8127, 8151, 8135, 8074, 8198, 8216, 8103, 8169, 8044, 8150, 8163, 8126,1.2895612716674805
56, 8138, 8144, 8135, 8154, 8123, 8071, 8173, 8216, 8115, 8156, 8021, 8156, 8158, 8129,1.296570062637329
56, 8138, 8144, 8135, 8154, 8123, 8071, 8173, 8216, 8115, 8156, 8021, 8156, 8158, 8129,1.296570062637329
57, 8142, 8152, 8140, 8155, 8117, 8061, 8165, 8222, 8165, 8167, 8007, 8167, 8159, 8130,1.304560661315918
57, 8142, 8152, 8140, 8155, 8117, 8061, 8165, 8222, 8165, 8167, 8007, 8167, 8159, 8130,1.304560661315918
58, 8160, 8133, 8138, 8151, 8132, 8063, 8189, 8221, 8087, 8195, 8012, 8148, 8158, 8142,1.312673807144165
58, 8160, 8133, 8138, 8151, 8132, 8063, 8189, 8221, 8087, 8195, 8012, 8148, 8158, 8142,1.312673807144165
59, 8143, 8152, 8132, 8150, 8114, 8055, 8174, 8226, 8184, 8165, 7997, 8169, 8156, 8140,1.320674180984497
59, 8143, 8152, 8132, 8150, 8114, 8055, 8174, 8226, 8184, 8165, 7997, 8169, 8156, 8140,1.320674180984497
60, 8114, 8132, 8106, 8142, 8130, 8059, 8185, 8224, 8083, 8187, 8015, 8146, 8158, 8137,1.3288865089416504
60, 8114, 8132, 8106, 8142, 8130, 8059, 8185, 8224, 8083, 8187, 8015, 8146, 8158, 8137,1.3288865089416504
61, 8164, 8161, 8136, 8160, 8139, 8072, 8193, 8217, 8124, 8190, 8010, 8160, 8161, 8152,1.3367376327514648
61, 8164, 8161, 8136, 8160, 8139, 8072, 8193, 8217, 8124, 8190, 8010, 8160, 8161, 8152,1.3367376327514648
62, 8164, 8168, 8149, 8161, 8137, 8069, 8183, 8209, 8171, 8155, 8000, 8160, 8155, 8133,1.3447561264038086
62, 8164, 8168, 8149, 8161, 8137, 8069, 8183, 8209, 8171, 8155, 8000, 8160, 8155, 8133,1.3447561264038086
63, 8156, 8143, 8131, 8156, 8162, 8068, 8196, 8212, 8065, 8175, 8027, 8138, 8156, 8132,1.352886438369751
63, 8156, 8143, 8131, 8156, 8162, 8068, 8196, 8212, 8065, 8175, 8027, 8138, 8156, 8132,1.352886438369751
64, 8170, 8175, 8151, 8162, 8138, 8061, 8192, 8221, 8205, 8178, 8024, 8181, 8166, 8140,1.3598864078521729
64, 8170, 8175, 8151, 8162, 8138, 8061, 8192, 8221, 8205, 8178, 8024, 8181, 8166, 8140,1.3598864078521729
65, 8141, 8143, 8146, 8148, 8135, 8061, 8199, 8214, 8124, 8186, 8034, 8162, 8162, 8130,1.367476224899292
65, 8141, 8143, 8146, 8148, 8135, 8061, 8199, 8214, 8124, 8186, 8034, 8162, 8162, 8130,1.367476224899292
66, 8164, 8149, 8154, 8168, 8153, 8063, 8190, 8219, 8129, 8190, 8041, 8172, 8159, 8152,1.3758001327514648
66, 8164, 8149, 8154, 8168, 8153, 8063, 8190, 8219, 8129, 8190, 8041, 8172, 8159, 8152,1.3758001327514648
67, 8171, 8159, 8158, 8167, 8148, 8051, 8175, 8220, 8213, 8183, 8045, 8179, 8163, 8152,1.3839669227600098
67, 8171, 8159, 8158, 8167, 8148, 8051, 8175, 8220, 8213, 8183, 8045, 8179, 8163, 8152,1.3839669227600098
68, 8140, 8125, 8130, 8139, 8146, 8048, 8179, 8207, 8064, 8185, 8068, 8134, 8150, 8134,1.3920934200286865
68, 8140, 8125, 8130, 8139, 8146, 8048, 8179, 8207, 8064, 8185, 8068, 8134, 8150, 8134,1.3920934200286865
69, 8147, 8163, 8138, 8156, 8131, 8050, 8171, 8216, 8154, 8154, 8056, 8160, 8146, 8127,1.39986252784729
69, 8147, 8163, 8138, 8156, 8131, 8050, 8171, 8216, 8154, 8154, 8056, 8160, 8146, 8127,1.39986252784729
70, 8149, 8157, 8135, 8165, 8159, 8059, 8199, 8220, 8131, 8176, 8076, 8148, 8158, 8119,1.4078776836395264
70, 8149, 8157, 8135, 8165, 8159, 8059, 8199, 8220, 8131, 8176, 8076, 8148, 8158, 8119,1.4078776836395264
71, 8151, 8154, 8140, 8157, 8164, 8062, 8197, 8207, 8118, 8182, 8088, 8145, 8153, 8117,1.4158854484558105
71, 8151, 8154, 8140, 8157, 8164, 8062, 8197, 8207, 8118, 8182, 8088, 8145, 8153, 8117,1.4158854484558105
72, 8136, 8160, 8146, 8147, 8137, 8054, 8172, 8197, 8174, 8141, 8081, 8166, 8145, 8107,1.4229545593261719
72, 8136, 8160, 8146, 8147, 8137, 8054, 8172, 8197, 8174, 8141, 8081, 8166, 8145, 8107,1.4229545593261719
73, 8139, 8141, 8134, 8154, 8179, 8067, 8196, 8199, 8066, 8164, 8124, 8157, 8160, 8130,1.4309544563293457
73, 8139, 8141, 8134, 8154, 8179, 8067, 8196, 8199, 8066, 8164, 8124, 8157, 8160, 8130,1.4309544563293457
74, 8148, 8167, 8141, 8174, 8180, 8069, 8178, 8203, 8178, 8171, 8130, 8177, 8169, 8146,1.4389526844024658
74, 8148, 8167, 8141, 8174, 8180, 8069, 8178, 8203, 8178, 8171, 8130, 8177, 8169, 8146,1.4389526844024658
75, 8120, 8134, 8115, 8144, 8155, 8064, 8162, 8184, 8112, 8162, 8116, 8144, 8161, 8108,1.4465370178222656
75, 8120, 8134, 8115, 8144, 8155, 8064, 8162, 8184, 8112, 8162, 8116, 8144, 8161, 8108,1.447436809539795
76, 8145, 8138, 8116, 8142, 8163, 8078, 8177, 8194, 8075, 8151, 8119, 8151, 8153, 8102,1.4554424285888672
76, 8145, 8138, 8116, 8142, 8163, 8078, 8177, 8194, 8075, 8151, 8119, 8151, 8153, 8102,1.4554424285888672
77, 8158, 8172, 8142, 8169, 8180, 8076, 8187, 8218, 8179, 8142, 8125, 8180, 8146, 8114,1.4624297618865967
77, 8158, 8172, 8142, 8169, 8180, 8076, 8187, 8218, 8179, 8142, 8125, 8180, 8146, 8114,1.4624297618865967
78, 8162, 8152, 8152, 8174, 8199, 8072, 8200, 8211, 8091, 8168, 8140, 8153, 8148, 8126,1.4708867073059082
78, 8162, 8152, 8152, 8174, 8199, 8072, 8200, 8211, 8091, 8168, 8140, 8153, 8148, 8126,1.4708867073059082
79, 8195, 8184, 8187, 8179, 8184, 8083, 8182, 8205, 8223, 8156, 8142, 8184, 8164, 8143,1.4791946411132812
79, 8195, 8184, 8187, 8179, 8184, 8083, 8182, 8205, 8223, 8156, 8142, 8184, 8164, 8143,1.4791946411132812
80, 8165, 8164, 8181, 8161, 8195, 8089, 8186, 8197, 8197, 8173, 8182, 8169, 8169, 8144,1.4861485958099365
80, 8165, 8164, 8181, 8161, 8195, 8089, 8186, 8197, 8197, 8173, 8182, 8169, 8169, 8144,1.4861485958099365
81, 8158, 8162, 8182, 8168, 8201, 8083, 8194, 8200, 8164, 8189, 8206, 8160, 8164, 8156,1.493922472000122
81, 8158, 8162, 8182, 8168, 8201, 8083, 8194, 8200, 8164, 8189, 8206, 8160, 8164, 8156,1.493922472000122
82, 8182, 8193, 8206, 8193, 8181, 8081, 8187, 8217, 8306, 8173, 8194, 8187, 8166, 8154,1.5014891624450684
82, 8182, 8193, 8206, 8193, 8181, 8081, 8187, 8217, 8306, 8173, 8194, 8187, 8166, 8154,1.5014891624450684
83, 8194, 8158, 8196, 8189, 8207, 8097, 8218, 8217, 8200, 8216, 8221, 8161, 8167, 8159,1.5094890594482422
83, 8194, 8158, 8196, 8189, 8207, 8097, 8218, 8217, 8200, 8216, 8221, 8161, 8167, 8159,1.5094890594482422
84, 8202, 8175, 8208, 8184, 8203, 8078, 8205, 8212, 8273, 8206, 8219, 8183, 8164, 8179,1.5178802013397217
84, 8202, 8175, 8208, 8184, 8203, 8078, 8205, 8212, 8273, 8206, 8219, 8183, 8164, 8179,1.5178802013397217
85, 8171, 8164, 8199, 8175, 8202, 8051, 8188, 8209, 8255, 8177, 8209, 8171, 8160, 8173,1.525886058807373
85, 8171, 8164, 8199, 8175, 8202, 8051, 8188, 8209, 8255, 8177, 8209, 8171, 8160, 8173,1.525886058807373
86, 8177, 8150, 8180, 8183, 8215, 8064, 8200, 8211, 8173, 8183, 8209, 8153, 8161, 8164,1.5338852405548096
86, 8177, 8150, 8180, 8183, 8215, 8064, 8200, 8211, 8173, 8183, 8209, 8153, 8161, 8164,1.5338852405548096
87, 8182, 8164, 8181, 8180, 8190, 8067, 8190, 8210, 8279, 8178, 8201, 8184, 8164, 8148,1.5418877601623535
87, 8182, 8164, 8181, 8180, 8190, 8067, 8190, 8210, 8279, 8178, 8201, 8184, 8164, 8148,1.5418877601623535
88, 8168, 8135, 8179, 8165, 8195, 8063, 8202, 8211, 8189, 8217, 8241, 8165, 8161, 8156,1.5498859882354736
88, 8168, 8135, 8179, 8165, 8195, 8063, 8202, 8211, 8189, 8217, 8241, 8165, 8161, 8156,1.5498859882354736
89, 8206, 8170, 8213, 8189, 8197, 8063, 8197, 8228, 8274, 8212, 8241, 8181, 8160, 8179,1.5562937259674072
89, 8206, 8170, 8213, 8189, 8197, 8063, 8197, 8228, 8274, 8212, 8241, 8181, 8160, 8179,1.5562937259674072
90, 8212, 8169, 8209, 8186, 8193, 8054, 8196, 8216, 8274, 8184, 8212, 8171, 8161, 8160,1.5643162727355957
90, 8212, 8169, 8209, 8186, 8193, 8054, 8196, 8216, 8274, 8184, 8212, 8171, 8161, 8160,1.5653088092803955
91, 8201, 8148, 8181, 8166, 8201, 8054, 8210, 8192, 8140, 8193, 8206, 8150, 8155, 8147,1.5729939937591553
91, 8201, 8148, 8181, 8166, 8201, 8054, 8210, 8192, 8140, 8193, 8206, 8150, 8155, 8147,1.5729939937591553
92, 8190, 8179, 8204, 8178, 8193, 8056, 8191, 8201, 8251, 8181, 8204, 8185, 8153, 8147,1.5808863639831543
92, 8190, 8179, 8204, 8178, 8193, 8056, 8191, 8201, 8251, 8181, 8204, 8185, 8153, 8147,1.5808863639831543
93, 8180, 8159, 8209, 8191, 8219, 8062, 8202, 8219, 8198, 8201, 8237, 8166, 8162, 8163,1.5888874530792236
93, 8180, 8159, 8209, 8191, 8219, 8062, 8202, 8219, 8198, 8201, 8237, 8166, 8162, 8163,1.5888874530792236
94, 8215, 8172, 8209, 8203, 8209, 8071, 8209, 8228, 8254, 8204, 8236, 8173, 8167, 8179,1.5969123840332031
94, 8215, 8172, 8209, 8203, 8209, 8071, 8209, 8228, 8254, 8204, 8236, 8173, 8167, 8179,1.5969123840332031
95, 8216, 8171, 8202, 8187, 8199, 8080, 8208, 8217, 8279, 8204, 8227, 8171, 8161, 8161,1.604909896850586
95, 8216, 8171, 8202, 8187, 8199, 8080, 8208, 8217, 8279, 8204, 8227, 8171, 8161, 8161,1.604909896850586
96, 8208, 8158, 8201, 8182, 8222, 8086, 8211, 8203, 8173, 8218, 8250, 8157, 8157, 8173,1.6128871440887451
96, 8208, 8158, 8201, 8182, 8222, 8086, 8211, 8203, 8173, 8218, 8250, 8157, 8157, 8173,1.6128871440887451
97, 8199, 8190, 8222, 8201, 8199, 8080, 8190, 8207, 8291, 8189, 8242, 8191, 8161, 8184,1.6198861598968506
97, 8199, 8190, 8222, 8201, 8199, 8080, 8190, 8207, 8291, 8189, 8242, 8191, 8161, 8184,1.6198861598968506
98, 8174, 8161, 8212, 8193, 8215, 8083, 8190, 8202, 8205, 8199, 8249, 8164, 8160, 8164,1.6279592514038086
98, 8174, 8161, 8212, 8193, 8215, 8083, 8190, 8202, 8205, 8199, 8249, 8164, 8160, 8164,1.6279592514038086
99, 8204, 8172, 8217, 8189, 8226, 8077, 8170, 8196, 8206, 8196, 8231, 8172, 8156, 8163,1.6360962390899658
99, 8204, 8172, 8217, 8189, 8226, 8077, 8170, 8196, 8206, 8196, 8231, 8172, 8156, 8163,1.6360962390899658
100, 8211, 8179, 8208, 8181, 8207, 8073, 8176, 8199, 8260, 8192, 8218, 8186, 8158, 8165,1.6440930366516113
100, 8211, 8179, 8208, 8181, 8207, 8073, 8176, 8199, 8260, 8192, 8218, 8186, 8158, 8165,1.6440930366516113
101, 8205, 8155, 8197, 8182, 8220, 8097, 8217, 8209, 8182, 8221, 8243, 8169, 8162, 8180,1.651888132095337
101, 8205, 8155, 8197, 8182, 8220, 8097, 8217, 8209, 8182, 8221, 8243, 8169, 8162, 8180,1.651888132095337
102, 8199, 8181, 8218, 8189, 8202, 8095, 8191, 8209, 8282, 8182, 8222, 8195, 8161, 8176,1.6598865985870361
102, 8199, 8181, 8218, 8189, 8202, 8095, 8191, 8209, 8282, 8182, 8222, 8195, 8161, 8176,1.6598865985870361
103, 8175, 8158, 8212, 8168, 8200, 8082, 8177, 8191, 8172, 8171, 8224, 8170, 8160, 8156,1.6678862571716309
103, 8175, 8158, 8212, 8168, 8200, 8082, 8177, 8191, 8172, 8171, 8224, 8170, 8160, 8156,1.6678862571716309
104, 8205, 8168, 8223, 8172, 8198, 8086, 8187, 8193, 8176, 8187, 8233, 8175, 8162, 8173,1.6758463382720947
104, 8205, 8168, 8223, 8172, 8198, 8086, 8187, 8193, 8176, 8187, 8233, 8175, 8162, 8173,1.6758463382720947
105, 8209, 8177, 8220, 8179, 8177, 8086, 8185, 8207, 8276, 8194, 8222, 8184, 8163, 8181,1.683748722076416
105, 8209, 8177, 8220, 8179, 8177, 8086, 8185, 8207, 8276, 8194, 8222, 8184, 8163, 8181,1.683748722076416
106, 8207, 8154, 8212, 8179, 8227, 8100, 8201, 8212, 8202, 8228, 8243, 8159, 8164, 8193,1.6907484531402588
106, 8207, 8154, 8212, 8179, 8227, 8100, 8201, 8212, 8202, 8228, 8243, 8159, 8164, 8193,1.6907484531402588
107, 8215, 8183, 8235, 8176, 8248, 8104, 8192, 8217, 8335, 8210, 8241, 8191, 8163, 8193,1.698974370956421
107, 8215, 8183, 8235, 8176, 8248, 8104, 8192, 8217, 8335, 8210, 8241, 8191, 8163, 8193,1.698974370956421
108, 8184, 8154, 8211, 8154, 8223, 8095, 8197, 8215, 8265, 8212, 8239, 8172, 8159, 8170,1.7069859504699707
108, 8184, 8154, 8211, 8154, 8223, 8095, 8197, 8215, 8265, 8212, 8239, 8172, 8159, 8170,1.7069859504699707
109, 8218, 8160, 8212, 8174, 8212, 8108, 8205, 8216, 8243, 8232, 8253, 8177, 8161, 8187,1.7148876190185547
109, 8218, 8160, 8212, 8174, 8212, 8108, 8205, 8216, 8243, 8232, 8253, 8177, 8161, 8187,1.7148876190185547
110, 8234, 8187, 8236, 8182, 8220, 8119, 8193, 8204, 8340, 8213, 8251, 8196, 8162, 8199,1.722886085510254
110, 8234, 8187, 8236, 8182, 8220, 8119, 8193, 8204, 8340, 8213, 8251, 8196, 8162, 8199,1.722886085510254
111, 8197, 8155, 8220, 8156, 8225, 8111, 8187, 8183, 8181, 8193, 8231, 8158, 8150, 8182,1.7311182022094727
111, 8197, 8155, 8220, 8156, 8225, 8111, 8187, 8183, 8181, 8193, 8231, 8158, 8150, 8182,1.7311182022094727
112, 8200, 8180, 8229, 8172, 8187, 8104, 8178, 8195, 8240, 8169, 8204, 8181, 8157, 8171,1.7391178607940674
112, 8200, 8180, 8229, 8172, 8187, 8104, 8178, 8195, 8240, 8169, 8204, 8181, 8157, 8171,1.7391178607940674
113, 8217, 8173, 8238, 8175, 8198, 8113, 8214, 8214, 8261, 8210, 8244, 8180, 8177, 8191,1.7468805313110352
113, 8217, 8173, 8238, 8175, 8198, 8113, 8214, 8214, 8261, 8210, 8244, 8180, 8177, 8191,1.7468805313110352
114, 8230, 8164, 8238, 8160, 8207, 8111, 8221, 8218, 8268, 8224, 8255, 8179, 8172, 8223,1.7541606426239014
114, 8230, 8164, 8238, 8160, 8207, 8111, 8221, 8218, 8268, 8224, 8255, 8179, 8172, 8223,1.7541606426239014
115, 8205, 8170, 8231, 8160, 8178, 8091, 8182, 8212, 8334, 8188, 8224, 8192, 8162, 8209,1.7618868350982666
115, 8205, 8170, 8231, 8160, 8178, 8091, 8182, 8212, 8334, 8188, 8224, 8192, 8162, 8209,1.7618868350982666
116, 8201, 8149, 8217, 8167, 8193, 8097, 8205, 8204, 8195, 8216, 8245, 8166, 8162, 8203,1.769878625869751
116, 8201, 8149, 8217, 8167, 8193, 8097, 8205, 8204, 8195, 8216, 8245, 8166, 8162, 8203,1.769878625869751
117, 8245, 8187, 8242, 8183, 8185, 8100, 8216, 8206, 8298, 8210, 8244, 8200, 8164, 8224,1.7782258987426758
117, 8245, 8187, 8242, 8183, 8185, 8100, 8216, 8206, 8298, 8210, 8244, 8200, 8164, 8224,1.7782258987426758
118, 8236, 8177, 8249, 8180, 8187, 8093, 8206, 8198, 8301, 8202, 8249, 8198, 8169, 8226,1.785916805267334
118, 8236, 8177, 8249, 8180, 8187, 8093, 8206, 8198, 8301, 8202, 8249, 8198, 8169, 8226,1.785916805267334
119, 8228, 8170, 8248, 8179, 8199, 8099, 8201, 8192, 8235, 8217, 8256, 8181, 8168, 8231,1.7939622402191162
119, 8228, 8170, 8248, 8179, 8199, 8099, 8201, 8192, 8235, 8217, 8256, 8181, 8168, 8231,1.7939622402191162
120, 8228, 8188, 8253, 8182, 8182, 8098, 8196, 8205, 8339, 8216, 8246, 8197, 8163, 8231,1.8020832538604736
120, 8228, 8188, 8253, 8182, 8182, 8098, 8196, 8205, 8339, 8216, 8246, 8197, 8163, 8231,1.8020832538604736
121, 8234, 8153, 8243, 8179, 8199, 8098, 8222, 8214, 8257, 8250, 8267, 8173, 8161, 8237,1.8100829124450684
121, 8234, 8153, 8243, 8179, 8199, 8098, 8222, 8214, 8257, 8250, 8267, 8173, 8161, 8237,1.8100829124450684
122, 8254, 8185, 8259, 8192, 8194, 8089, 8205, 8210, 8333, 8235, 8253, 8195, 8163, 8238,1.816084861755371
122, 8254, 8185, 8259, 8192, 8194, 8089, 8205, 8210, 8333, 8235, 8253, 8195, 8163, 8238,1.8170835971832275
123, 8216, 8179, 8255, 8188, 8185, 8083, 8185, 8195, 8306, 8214, 8250, 8192, 8164, 8215,1.824084758758545
123, 8216, 8179, 8255, 8188, 8185, 8083, 8185, 8195, 8306, 8214, 8250, 8192, 8164, 8215,1.8250837326049805
124, 8220, 8165, 8257, 8195, 8189, 8092, 8201, 8206, 8251, 8243, 8282, 8188, 8170, 8241,1.8330821990966797
124, 8220, 8165, 8257, 8195, 8189, 8092, 8201, 8206, 8251, 8243, 8282, 8188, 8170, 8241,1.8330821990966797
125, 8257, 8200, 8277, 8205, 8174, 8091, 8202, 8220, 8417, 8247, 8279, 8219, 8174, 8268,1.8410842418670654
125, 8257, 8200, 8277, 8205, 8174, 8091, 8202, 8220, 8417, 8247, 8279, 8219, 8174, 8268,1.8410842418670654
126, 8236, 8164, 8246, 8180, 8187, 8101, 8202, 8194, 8283, 8236, 8249, 8177, 8160, 8246,1.8490829467773438
126, 8236, 8164, 8246, 8180, 8187, 8101, 8202, 8194, 8283, 8236, 8249, 8177, 8160, 8246,1.8490829467773438
127, 8215, 8165, 8238, 8183, 8170, 8104, 8168, 8185, 8258, 8204, 8180, 8186, 8156, 8227,1.8570833206176758
127, 8215, 8165, 8238, 8183, 8170, 8104, 8168, 8185, 8258, 8204, 8180, 8186, 8156, 8227,1.8570833206176758
240, 8209, 8168, 8247, 8195, 8164, 8099, 8165, 8199, 8267, 8217, 8153, 8194, 8170, 8222,1.8650860786437988
240, 8209, 8168, 8247, 8195, 8164, 8099, 8165, 8199, 8267, 8217, 8153, 8194, 8170, 8222,1.8650860786437988
0, 8249, 8170, 8256, 8210, 8201, 8114, 8197, 8207, 8224, 8253, 8174, 8181, 8174, 8247,1.873086929321289
0, 8249, 8170, 8256, 8210, 8201, 8114, 8197, 8207, 8224, 8253, 8174, 8181, 8174, 8247,1.873086929321289
1, 8263, 8193, 8266, 8217, 8188, 8109, 8185, 8203, 8358, 8235, 8158, 8207, 8164, 8254,1.8795993328094482
1, 8263, 8193, 8266, 8217, 8188, 8109, 8185, 8203, 8358, 8235, 8158, 8207, 8164, 8254,1.8795993328094482
2, 8229, 8152, 8237, 8194, 8184, 8096, 8187, 8186, 8243, 8249, 8152, 8175, 8159, 8244,1.887880563735962
2, 8229, 8152, 8237, 8194, 8184, 8096, 8187, 8186, 8243, 8249, 8152, 8175, 8159, 8244,1.887880563735962
3, 8243, 8174, 8243, 8193, 8178, 8100, 8186, 8191, 8261, 8239, 8137, 8182, 8162, 8241,1.8954496383666992
3, 8243, 8174, 8243, 8193, 8178, 8100, 8186, 8191, 8261, 8239, 8137, 8182, 8162, 8241,1.8954496383666992
4, 8233, 8182, 8248, 8190, 8164, 8101, 8183, 8199, 8296, 8218, 8135, 8183, 8163, 8223,1.9034488201141357
4, 8233, 8182, 8248, 8190, 8164, 8101, 8183, 8199, 8296, 8218, 8135, 8183, 8163, 8223,1.9034488201141357
5, 8222, 8153, 8232, 8192, 8172, 8092, 8191, 8195, 8189, 8243, 8156, 8156, 8164, 8229,1.911886215209961
5, 8222, 8153, 8232, 8192, 8172, 8092, 8191, 8195, 8189, 8243, 8156, 8156, 8164, 8229,1.911886215209961
6, 8232, 8173, 8234, 8204, 8166, 8080, 8176, 8197, 8292, 8225, 8116, 8176, 8163, 8231,1.9200491905212402
6, 8232, 8173, 8234, 8204, 8166, 8080, 8176, 8197, 8292, 8225, 8116, 8176, 8163, 8231,1.9200491905212402
7, 8223, 8158, 8218, 8196, 8186, 8088, 8189, 8191, 8201, 8229, 8093, 8151, 8154, 8210,1.9278862476348877
7, 8223, 8158, 8218, 8196, 8186, 8088, 8189, 8191, 8201, 8229, 8093, 8151, 8154, 8210,1.9278862476348877
8, 8242, 8183, 8236, 8205, 8180, 8096, 8180, 8186, 8211, 8223, 8093, 8169, 8154, 8216,1.936126947402954
8, 8242, 8183, 8236, 8205, 8180, 8096, 8180, 8186, 8211, 8223, 8093, 8169, 8154, 8216,1.936126947402954
9, 8227, 8181, 8248, 8197, 8162, 8084, 8156, 8185, 8257, 8197, 8094, 8182, 8161, 8218,1.9441289901733398
9, 8227, 8181, 8248, 8197, 8162, 8084, 8156, 8185, 8257, 8197, 8094, 8182, 8161, 8218,1.9441289901733398
10, 8211, 8144, 8223, 8186, 8182, 8087, 8176, 8183, 8137, 8214, 8095, 8152, 8161, 8219,1.9508860111236572
10, 8211, 8144, 8223, 8186, 8182, 8087, 8176, 8183, 8137, 8214, 8095, 8152, 8161, 8219,1.9508860111236572
11, 8207, 8173, 8225, 8195, 8166, 8090, 8164, 8182, 8228, 8192, 8061, 8171, 8159, 8200,1.958888292312622
11, 8207, 8173, 8225, 8195, 8166, 8090, 8164, 8182, 8228, 8192, 8061, 8171, 8159, 8200,1.958888292312622
12, 8190, 8153, 8218, 8187, 8167, 8073, 8159, 8178, 8142, 8186, 8070, 8149, 8158, 8177,1.9668858051300049
12, 8190, 8153, 8218, 8187, 8167, 8073, 8159, 8178, 8142, 8186, 8070, 8149, 8158, 8177,1.9668858051300049
13, 8222, 8157, 8217, 8192, 8174, 8059, 8166, 8188, 8138, 8192, 8075, 8152, 8156, 8190,1.974886417388916
13, 8222, 8157, 8217, 8192, 8174, 8059, 8166, 8188, 8138, 8192, 8075, 8152, 8156, 8190,1.974886417388916
14, 8220, 8172, 8211, 8194, 8171, 8073, 8173, 8189, 8216, 8200, 8055, 8160, 8156, 8187,1.9826083183288574
14, 8220, 8172, 8211, 8194, 8171, 8073, 8173, 8189, 8216, 8200, 8055, 8160, 8156, 8187,1.9826083183288574
15, 8202, 8160, 8215, 8201, 8194, 8090, 8187, 8185, 8122, 8230, 8073, 8134, 8162, 8194,1.9906206130981445
15, 8202, 8160, 8215, 8201, 8194, 8090, 8187, 8185, 8122, 8230, 8073, 8134, 8162, 8194,1.9906206130981445
16, 8217, 8192, 8242, 8221, 8172, 8070, 8168, 8204, 8250, 8208, 8070, 8170, 8165, 8201,1.9988799095153809
16, 8217, 8192, 8242, 8221, 8172, 8070, 8168, 8204, 8250, 8208, 8070, 8170, 8165, 8201,1.9988799095153809
17, 8213, 8159, 8208, 8193, 8174, 8064, 8184, 8201, 8199, 8224, 8072, 8152, 8160, 8186,2.006481885910034
17, 8213, 8159, 8208, 8193, 8174, 8064, 8184, 8201, 8199, 8224, 8072, 8152, 8160, 8186,2.006481885910034
18, 8219, 8156, 8192, 8176, 8195, 8089, 8195, 8188, 8157, 8231, 8072, 8146, 8158, 8195,2.0138864517211914
18, 8219, 8156, 8192, 8176, 8195, 8089, 8195, 8188, 8157, 8231, 8072, 8146, 8158, 8195,2.0138864517211914
19, 8197, 8174, 8210, 8184, 8182, 8083, 8173, 8194, 8241, 8199, 8073, 8169, 8162, 8196,2.021886110305786
19, 8197, 8174, 8210, 8184, 8182, 8083, 8173, 8194, 8241, 8199, 8073, 8169, 8162, 8196,2.021886110305786
20, 8186, 8144, 8194, 8182, 8191, 8075, 8190, 8205, 8135, 8229, 8081, 8146, 8161, 8193,2.0298867225646973
20, 8186, 8144, 8194, 8182, 8191, 8075, 8190, 8205, 8135, 8229, 8081, 8146, 8161, 8193,2.0298867225646973
21, 8214, 8172, 8193, 8186, 8187, 8083, 8184, 8203, 8227, 8230, 8056, 8168, 8159, 8197,2.037888765335083
21, 8214, 8172, 8193, 8186, 8187, 8083, 8184, 8203, 8227, 8230, 8056, 8168, 8159, 8197,2.037888765335083
22, 8195, 8163, 8187, 8177, 8187, 8085, 8178, 8188, 8189, 8217, 8082, 8155, 8164, 8194,2.0460638999938965
22, 8195, 8163, 8187, 8177, 8187, 8085, 8178, 8188, 8189, 8217, 8082, 8155, 8164, 8194,2.0460638999938965
23, 8187, 8159, 8186, 8179, 8181, 8086, 8177, 8193, 8154, 8208, 8116, 8148, 8167, 8202,2.0534145832061768
23, 8187, 8159, 8186, 8179, 8181, 8086, 8177, 8193, 8154, 8208, 8116, 8148, 8167, 8202,2.0534145832061768
24, 8188, 8176, 8181, 8183, 8165, 8087, 8168, 8203, 8246, 8197, 8095, 8165, 8163, 8191,2.0614383220672607
24, 8188, 8176, 8181, 8183, 8165, 8087, 8168, 8203, 8246, 8197, 8095, 8165, 8163, 8191,2.0614383220672607
25, 8187, 8148, 8158, 8177, 8194, 8096, 8187, 8195, 8108, 8221, 8087, 8139, 8154, 8183,2.0698866844177246
25, 8187, 8148, 8158, 8177, 8194, 8096, 8187, 8195, 8108, 8221, 8087, 8139, 8154, 8183,2.0698866844177246
26, 8192, 8167, 8165, 8175, 8180, 8094, 8171, 8194, 8170, 8191, 8073, 8159, 8152, 8181,2.076885938644409
26, 8192, 8167, 8165, 8175, 8180, 8094, 8171, 8194, 8170, 8191, 8073, 8159, 8152, 8181,2.076885938644409
27, 8155, 8151, 8151, 8155, 8176, 8094, 8164, 8195, 8149, 8178, 8082, 8143, 8156, 8163,2.0849082469940186
27, 8155, 8151, 8151, 8155, 8176, 8094, 8164, 8195, 8149, 8178, 8082, 8143, 8156, 8163,2.0849082469940186
28, 8172, 8156, 8150, 8174, 8214, 8113, 8176, 8198, 8110, 8213, 8098, 8140, 8160, 8173,2.0929081439971924
28, 8172, 8156, 8150, 8174, 8214, 8113, 8176, 8198, 8110, 8213, 8098, 8140, 8160, 8173,2.0929081439971924
29, 8205, 8190, 8170, 8201, 8209, 8124, 8168, 8205, 8255, 8220, 8089, 8172, 8165, 8185,2.100536346435547
29, 8205, 8190, 8170, 8201, 8209, 8124, 8168, 8205, 8255, 8220, 8089, 8172, 8165, 8185,2.100536346435547
30, 8192, 8151, 8152, 8182, 8206, 8137, 8184, 8194, 8143, 8222, 8100, 8133, 8157, 8184,2.108881711959839
30, 8192, 8151, 8152, 8182, 8206, 8137, 8184, 8194, 8143, 8222, 8100, 8133, 8157, 8184,2.108881711959839
31, 8191, 8169, 8157, 8179, 8192, 8145, 8179, 8188, 8171, 8189, 8086, 8150, 8148, 8182,2.1169044971466064
31, 8191, 8169, 8157, 8179, 8192, 8145, 8179, 8188, 8171, 8189, 8086, 8150, 8148, 8182,2.1169044971466064
32, 8162, 8164, 8149, 8170, 8191, 8152, 8173, 8194, 8179, 8201, 8102, 8158, 8157, 8173,2.1249046325683594
32, 8162, 8164, 8149, 8170, 8191, 8152, 8173, 8194, 8179, 8201, 8102, 8158, 8157, 8173,2.1249046325683594
33, 8161, 8146, 8141, 8175, 8205, 8161, 8164, 8203, 8150, 8248, 8139, 8146, 8167, 8185,2.133258819580078
33, 8161, 8146, 8141, 8175, 8205, 8161, 8164, 8203, 8150, 8248, 8139, 8146, 8167, 8185,2.133258819580078
34, 8184, 8174, 8160, 8193, 8191, 8158, 8146, 8210, 8287, 8235, 8128, 8167, 8164, 8182,2.1408867835998535
34, 8184, 8174, 8160, 8193, 8191, 8158, 8146, 8210, 8287, 8235, 8128, 8167, 8164, 8182,2.1408867835998535
35, 8179, 8149, 8139, 8168, 8200, 8176, 8189, 8194, 8155, 8232, 8139, 8135, 8156, 8165,2.147885799407959
35, 8179, 8149, 8139, 8168, 8200, 8176, 8189, 8194, 8155, 8232, 8139, 8135, 8156, 8165,2.147885799407959
36, 8177, 8168, 8137, 8164, 8196, 8178, 8187, 8183, 8171, 8207, 8146, 8154, 8158, 8166,2.1558494567871094
36, 8177, 8168, 8137, 8164, 8196, 8178, 8187, 8183, 8171, 8207, 8146, 8154, 8158, 8166,2.1558494567871094
37, 8156, 8166, 8139, 8175, 8199, 8147, 8150, 8190, 8214, 8207, 8162, 8157, 8162, 8168,2.1638777256011963
37, 8156, 8166, 8139, 8175, 8199, 8147, 8150, 8190, 8214, 8207, 8162, 8157, 8162, 8168,2.1638777256011963
38, 8176, 8148, 8137, 8179, 8218, 8150, 8164, 8197, 8160, 8247, 8194, 8135, 8163, 8189,2.1719470024108887
38, 8176, 8148, 8137, 8179, 8218, 8150, 8164, 8197, 8160, 8247, 8194, 8135, 8163, 8189,2.1719470024108887
39, 8194, 8177, 8149, 8180, 8194, 8160, 8171, 8192, 8275, 8221, 8180, 8164, 8162, 8189,2.1800358295440674
39, 8194, 8177, 8149, 8180, 8194, 8160, 8171, 8192, 8275, 8221, 8180, 8164, 8162, 8189,2.1800358295440674
40, 8158, 8144, 8133, 8162, 8201, 8153, 8166, 8176, 8159, 8211, 8190, 8146, 8155, 8165,2.1878857612609863
40, 8158, 8144, 8133, 8162, 8201, 8153, 8166, 8176, 8159, 8211, 8190, 8146, 8155, 8165,2.1878857612609863
41, 8168, 8160, 8141, 8172, 8219, 8151, 8152, 8192, 8204, 8216, 8206, 8160, 8156, 8172,2.195424795150757
41, 8168, 8160, 8141, 8172, 8219, 8151, 8152, 8192, 8204, 8216, 8206, 8160, 8156, 8172,2.195424795150757
42, 8188, 8179, 8150, 8184, 8224, 8160, 8168, 8200, 8280, 8227, 8213, 8166, 8162, 8177,2.2034249305725098
42, 8188, 8179, 8150, 8184, 8224, 8160, 8168, 8200, 8280, 8227, 8213, 8166, 8162, 8177,2.2034249305725098
43, 8199, 8160, 8147, 8186, 8233, 8172, 8184, 8181, 8166, 8238, 8224, 8145, 8158, 8179,2.2114226818084717
43, 8199, 8160, 8147, 8186, 8233, 8172, 8184, 8181, 8166, 8238, 8224, 8145, 8158, 8179,2.2114226818084717
44, 8177, 8171, 8144, 8183, 8209, 8154, 8149, 8175, 8233, 8181, 8200, 8160, 8150, 8153,2.2184829711914062
44, 8177, 8171, 8144, 8183, 8209, 8154, 8149, 8175, 8233, 8181, 8200, 8160, 8150, 8153,2.2184829711914062
45, 8152, 8142, 8122, 8172, 8223, 8128, 8150, 8181, 8135, 8190, 8211, 8134, 8158, 8137,2.2265264987945557
45, 8152, 8142, 8122, 8172, 8223, 8128, 8150, 8181, 8135, 8190, 8211, 8134, 8158, 8137,2.2265264987945557
46, 8203, 8169, 8153, 8191, 8228, 8132, 8156, 8188, 8174, 8225, 8222, 8153, 8168, 8172,2.234515428543091
46, 8203, 8169, 8153, 8191, 8228, 8132, 8156, 8188, 8174, 8225, 8222, 8153, 8168, 8172,2.234515428543091
47, 8190, 8174, 8165, 8184, 8218, 8144, 8147, 8181, 8244, 8199, 8207, 8158, 8161, 8161,2.2425148487091064
47, 8190, 8174, 8165, 8184, 8218, 8144, 8147, 8181, 8244, 8199, 8207, 8158, 8161, 8161,2.2425148487091064
48, 8152, 8142, 8133, 8165, 8240, 8141, 8156, 8176, 8115, 8198, 8205, 8126, 8155, 8140,2.2505149841308594
48, 8152, 8142, 8133, 8165, 8240, 8141, 8156, 8176, 8115, 8198, 8205, 8126, 8155, 8140,2.2505149841308594
49, 8178, 8181, 8131, 8169, 8214, 8123, 8148, 8185, 8221, 8207, 8171, 8153, 8160, 8144,2.258239269256592
49, 8178, 8181, 8131, 8169, 8214, 8123, 8148, 8185, 8221, 8207, 8171, 8153, 8160, 8144,2.258239269256592
50, 8178, 8160, 8112, 8157, 8216, 8128, 8165, 8174, 8140, 8220, 8157, 8129, 8157, 8131,2.2668869495391846
50, 8178, 8160, 8112, 8157, 8216, 8128, 8165, 8174, 8140, 8220, 8157, 8129, 8157, 8131,2.2672910690307617
51, 8177, 8160, 8125, 8166, 8228, 8130, 8162, 8167, 8103, 8199, 8159, 8131, 8154, 8131,2.274329900741577
51, 8177, 8160, 8125, 8166, 8228, 8130, 8162, 8167, 8103, 8199, 8159, 8131, 8154, 8131,2.274329900741577
52, 8172, 8183, 8151, 8174, 8206, 8113, 8136, 8176, 8191, 8187, 8166, 8149, 8163, 8137,2.2813329696655273
52, 8172, 8183, 8151, 8174, 8206, 8113, 8136, 8176, 8191, 8187, 8166, 8149, 8163, 8137,2.2823386192321777
53, 8178, 8158, 8136, 8168, 8218, 8120, 8153, 8178, 8099, 8215, 8180, 8126, 8162, 8145,2.289358377456665
53, 8178, 8158, 8136, 8168, 8218, 8120, 8153, 8178, 8099, 8215, 8180, 8126, 8162, 8145,2.290355920791626
54, 8195, 8178, 8147, 8173, 8209, 8130, 8150, 8181, 8208, 8195, 8166, 8157, 8159, 8149,2.297687530517578
54, 8195, 8178, 8147, 8173, 8209, 8130, 8150, 8181, 8208, 8195, 8166, 8157, 8159, 8149,2.297687530517578
55, 8186, 8171, 8166, 8174, 8218, 8130, 8152, 8181, 8182, 8207, 8195, 8147, 8170, 8163,2.3056960105895996
55, 8186, 8171, 8166, 8174, 8218, 8130, 8152, 8181, 8182, 8207, 8195, 8147, 8170, 8163,2.3056960105895996
56, 8211, 8188, 8187, 8196, 8245, 8131, 8152, 8185, 8185, 8225, 8219, 8155, 8176, 8184,2.313880443572998
56, 8211, 8188, 8187, 8196, 8245, 8131, 8152, 8185, 8185, 8225, 8219, 8155, 8176, 8184,2.313880443572998
57, 8194, 8189, 8177, 8202, 8247, 8129, 8141, 8188, 8280, 8215, 8206, 8168, 8166, 8157,2.3218934535980225
57, 8194, 8189, 8177, 8202, 8247, 8129, 8141, 8188, 8280, 8215, 8206, 8168, 8166, 8157,2.3218934535980225
58, 8171, 8144, 8138, 8180, 8248, 8131, 8162, 8189, 8149, 8234, 8208, 8123, 8155, 8143,2.3298866748809814
58, 8171, 8144, 8138, 8180, 8248, 8131, 8162, 8189, 8149, 8234, 8208, 8123, 8155, 8143,2.3298866748809814
59, 8210, 8180, 8158, 8189, 8220, 8122, 8158, 8196, 8232, 8207, 8190, 8155, 8158, 8170,2.3378870487213135
59, 8210, 8180, 8158, 8189, 8220, 8122, 8158, 8196, 8232, 8207, 8190, 8155, 8158, 8170,2.3378870487213135
60, 8207, 8172, 8173, 8196, 8232, 8112, 8157, 8183, 8209, 8209, 8205, 8161, 8163, 8181,2.3448872566223145
60, 8207, 8172, 8173, 8196, 8232, 8112, 8157, 8183, 8209, 8209, 8205, 8161, 8163, 8181,2.3448872566223145
61, 8193, 8157, 8167, 8188, 8243, 8106, 8148, 8174, 8155, 8223, 8206, 8142, 8155, 8169,2.352855682373047
61, 8193, 8157, 8167, 8188, 8243, 8106, 8148, 8174, 8155, 8223, 8206, 8142, 8155, 8169,2.353853464126587
62, 8182, 8171, 8154, 8169, 8207, 8100, 8135, 8178, 8218, 8192, 8158, 8149, 8157, 8147,2.36086106300354
62, 8182, 8171, 8154, 8169, 8207, 8100, 8135, 8178, 8218, 8192, 8158, 8149, 8157, 8147,2.36086106300354
63, 8191, 8154, 8143, 8169, 8226, 8117, 8166, 8182, 8105, 8218, 8147, 8139, 8173, 8174,2.3688807487487793
63, 8191, 8154, 8143, 8169, 8226, 8117, 8166, 8182, 8105, 8218, 8147, 8139, 8173, 8174,2.3688807487487793
64, 8214, 8193, 8175, 8200, 8229, 8121, 8151, 8188, 8217, 8220, 8102, 8176, 8175, 8201,2.376885414123535
64, 8214, 8193, 8175, 8200, 8229, 8121, 8151, 8188, 8217, 8220, 8102, 8176, 8175, 8201,2.376885414123535
65, 8186, 8175, 8173, 8191, 8217, 8107, 8136, 8181, 8194, 8206, 8052, 8157, 8159, 8163,2.3853800296783447
65, 8186, 8175, 8173, 8191, 8217, 8107, 8136, 8181, 8194, 8206, 8052, 8157, 8159, 8163,2.3853800296783447
66, 8204, 8157, 8161, 8189, 8228, 8119, 8158, 8183, 8114, 8215, 8043, 8139, 8157, 8164,2.39237904548645
66, 8204, 8157, 8161, 8189, 8228, 8119, 8158, 8183, 8114, 8215, 8043, 8139, 8157, 8164,2.39237904548645
67, 8219, 8188, 8170, 8198, 8223, 8130, 8157, 8186, 8237, 8195, 8038, 8166, 8162, 8180,2.4001564979553223
67, 8219, 8188, 8170, 8198, 8223, 8130, 8157, 8186, 8237, 8195, 8038, 8166, 8162, 8180,2.401154041290283
68, 8181, 8161, 8155, 8180, 8233, 8124, 8157, 8168, 8116, 8214, 8057, 8136, 8158, 8162,2.408196449279785
68, 8181, 8161, 8155, 8180, 8233, 8124, 8157, 8168, 8116, 8214, 8057, 8136, 8158, 8162,2.408196449279785
69, 8192, 8183, 8166, 8193, 8215, 8115, 8146, 8172, 8164, 8211, 8049, 8159, 8158, 8155,2.416195869445801
69, 8192, 8183, 8166, 8193, 8215, 8115, 8146, 8172, 8164, 8211, 8049, 8159, 8158, 8155,2.416195869445801
70, 8200, 8181, 8165, 8195, 8216, 8118, 8156, 8179, 8187, 8208, 8048, 8163, 8162, 8158,2.4238884449005127
70, 8200, 8181, 8165, 8195, 8216, 8118, 8156, 8179, 8187, 8208, 8048, 8163, 8162, 8158,2.4238884449005127
71, 8189, 8159, 8154, 8176, 8241, 8130, 8163, 8173, 8119, 8225, 8063, 8136, 8160, 8167,2.4318878650665283
71, 8189, 8159, 8154, 8176, 8241, 8130, 8163, 8173, 8119, 8225, 8063, 8136, 8160, 8167,2.4318878650665283
72, 8174, 8178, 8165, 8174, 8217, 8128, 8138, 8180, 8232, 8201, 8044, 8156, 8160, 8156,2.4398860931396484
72, 8174, 8178, 8165, 8174, 8217, 8128, 8138, 8180, 8232, 8201, 8044, 8156, 8160, 8156,2.4398860931396484
73, 8187, 8163, 8165, 8186, 8221, 8125, 8159, 8188, 8143, 8224, 8062, 8147, 8163, 8163,2.4482481479644775
73, 8187, 8163, 8165, 8186, 8221, 8125, 8159, 8188, 8143, 8224, 8062, 8147, 8163, 8163,2.4482481479644775
74, 8225, 8190, 8178, 8204, 8227, 8120, 8162, 8191, 8212, 8242, 8080, 8172, 8166, 8196,2.4558491706848145
74, 8225, 8190, 8178, 8204, 8227, 8120, 8162, 8191, 8212, 8242, 8080, 8172, 8166, 8196,2.4558491706848145
75, 8174, 8168, 8149, 8179, 8215, 8114, 8139, 8176, 8221, 8221, 8077, 8154, 8165, 8175,2.463892698287964
75, 8174, 8168, 8149, 8179, 8215, 8114, 8139, 8176, 8221, 8221, 8077, 8154, 8165, 8175,2.463892698287964
76, 8154, 8145, 8122, 8175, 8202, 8118, 8143, 8168, 8087, 8200, 8062, 8122, 8152, 8155,2.4718925952911377
76, 8154, 8145, 8122, 8175, 8202, 8118, 8143, 8168, 8087, 8200, 8062, 8122, 8152, 8155,2.4718925952911377
77, 8198, 8191, 8156, 8200, 8185, 8111, 8136, 8175, 8202, 8184, 8038, 8164, 8148, 8161,2.478879928588867
77, 8198, 8191, 8156, 8200, 8185, 8111, 8136, 8175, 8202, 8184, 8038, 8164, 8148, 8161,2.478879928588867
78, 8186, 8160, 8152, 8183, 8210, 8118, 8149, 8167, 8109, 8206, 8064, 8145, 8152, 8160,2.4870574474334717
78, 8186, 8160, 8152, 8183, 8210, 8118, 8149, 8167, 8109, 8206, 8064, 8145, 8152, 8160,2.4870574474334717
79, 8174, 8164, 8145, 8183, 8185, 8125, 8140, 8165, 8114, 8174, 8064, 8149, 8153, 8160,2.495018243789673
79, 8174, 8164, 8145, 8183, 8185, 8125, 8140, 8165, 8114, 8174, 8064, 8149, 8153, 8160,2.495018243789673
80, 8175, 8180, 8147, 8194, 8153, 8108, 8133, 8173, 8169, 8170, 8061, 8162, 8158, 8158,2.5030219554901123
80, 8175, 8180, 8147, 8194, 8153, 8108, 8133, 8173, 8169, 8170, 8061, 8162, 8158, 8158,2.5030219554901123
81, 8196, 8163, 8151, 8196, 8199, 8112, 8151, 8172, 8093, 8219, 8100, 8151, 8164, 8178,2.5108816623687744
81, 8196, 8163, 8151, 8196, 8199, 8112, 8151, 8172, 8093, 8219, 8100, 8151, 8164, 8178,2.5108816623687744
82, 8198, 8183, 8177, 8206, 8212, 8122, 8134, 8176, 8223, 8199, 8105, 8183, 8165, 8189,2.5188803672790527
82, 8198, 8183, 8177, 8206, 8212, 8122, 8134, 8176, 8223, 8199, 8105, 8183, 8165, 8189,2.5188803672790527
83, 8189, 8169, 8173, 8211, 8209, 8125, 8157, 8183, 8179, 8226, 8124, 8168, 8164, 8194,2.5271174907684326
83, 8189, 8169, 8173, 8211, 8209, 8125, 8157, 8183, 8179, 8226, 8124, 8168, 8164, 8194,2.5271174907684326
84, 8234, 8195, 8179, 8220, 8193, 8127, 8177, 8188, 8215, 8243, 8120, 8174, 8164, 8211,2.5351200103759766
84, 8234, 8195, 8179, 8220, 8193, 8127, 8177, 8188, 8215, 8243, 8120, 8174, 8164, 8211,2.5351200103759766
85, 8207, 8187, 8163, 8197, 8185, 8115, 8156, 8176, 8244, 8192, 8104, 8167, 8158, 8188,2.5421199798583984
85, 8207, 8187, 8163, 8197, 8185, 8115, 8156, 8176, 8244, 8192, 8104, 8167, 8158, 8188,2.5421199798583984
86, 8165, 8152, 8132, 8180, 8217, 8114, 8151, 8175, 8104, 8195, 8126, 8139, 8160, 8179,2.549170732498169
86, 8165, 8152, 8132, 8180, 8217, 8114, 8151, 8175, 8104, 8195, 8126, 8139, 8160, 8179,2.5501708984375
87, 8198, 8195, 8155, 8203, 8197, 8112, 8152, 8189, 8239, 8207, 8115, 8181, 8169, 8197,2.558262586593628
87, 8198, 8195, 8155, 8203, 8197, 8112, 8152, 8189, 8239, 8207, 8115, 8181, 8169, 8197,2.558262586593628
88, 8201, 8170, 8149, 8189, 8192, 8115, 8177, 8170, 8170, 8217, 8114, 8158, 8161, 8189,2.5662682056427
88, 8201, 8170, 8149, 8189, 8192, 8115, 8177, 8170, 8170, 8217, 8114, 8158, 8161, 8189,2.5662682056427
89, 8186, 8166, 8137, 8178, 8201, 8122, 8165, 8161, 8119, 8195, 8122, 8147, 8157, 8174,2.5732696056365967
89, 8186, 8166, 8137, 8178, 8201, 8122, 8165, 8161, 8119, 8195, 8122, 8147, 8157, 8174,2.574267864227295
90, 8173, 8188, 8133, 8190, 8188, 8123, 8139, 8177, 8193, 8172, 8115, 8161, 8162, 8156,2.581887722015381
90, 8173, 8188, 8133, 8190, 8188, 8123, 8139, 8177, 8193, 8172, 8115, 8161, 8162, 8156,2.581887722015381
91, 8191, 8161, 8132, 8192, 8197, 8129, 8164, 8178, 8088, 8210, 8120, 8139, 8158, 8170,2.5897717475891113
91, 8191, 8161, 8132, 8192, 8197, 8129, 8164, 8178, 8088, 8210, 8120, 8139, 8158, 8170,2.5897717475891113
92, 8205, 8182, 8159, 8197, 8190, 8125, 8158, 8169, 8191, 8196, 8110, 8174, 8158, 8191,2.5977673530578613
92, 8205, 8182, 8159, 8197, 8190, 8125, 8158, 8169, 8191, 8196, 8110, 8174, 8158, 8191,2.5977673530578613
93, 8177, 8166, 8158, 8191, 8203, 8125, 8156, 8159, 8150, 8180, 8132, 8162, 8165, 8186,2.604887008666992
93, 8177, 8166, 8158, 8191, 8203, 8125, 8156, 8159, 8150, 8180, 8132, 8162, 8165, 8186,2.604887008666992
94, 8205, 8174, 8168, 8204, 8210, 8118, 8159, 8163, 8128, 8186, 8142, 8154, 8165, 8197,2.612783670425415
94, 8205, 8174, 8168, 8204, 8210, 8118, 8159, 8163, 8128, 8186, 8142, 8154, 8165, 8197,2.612783670425415
95, 8217, 8190, 8172, 8204, 8191, 8100, 8148, 8166, 8217, 8187, 8124, 8169, 8161, 8193,2.62091326713562
95, 8217, 8190, 8172, 8204, 8191, 8100, 8148, 8166, 8217, 8187, 8124, 8169, 8161, 8193,2.62091326713562
96, 8186, 8150, 8145, 8180, 8206, 8106, 8159, 8154, 8075, 8201, 8136, 8139, 8158, 8182,2.628908157348633
96, 8186, 8150, 8145, 8180, 8206, 8106, 8159, 8154, 8075, 8201, 8136, 8139, 8158, 8182,2.629910469055176
97, 8188, 8176, 8160, 8193, 8206, 8120, 8149, 8160, 8158, 8163, 8128, 8166, 8159, 8183,2.6371452808380127
97, 8188, 8176, 8160, 8193, 8206, 8120, 8149, 8160, 8158, 8163, 8128, 8166, 8159, 8183,2.6371452808380127
98, 8187, 8177, 8157, 8201, 8218, 8134, 8165, 8175, 8178, 8182, 8140, 8159, 8168, 8193,2.6451528072357178
98, 8187, 8177, 8157, 8201, 8218, 8134, 8165, 8175, 8178, 8182, 8140, 8159, 8168, 8193,2.6451528072357178
99, 8205, 8173, 8144, 8196, 8214, 8146, 8173, 8170, 8153, 8216, 8146, 8147, 8170, 8207,2.653153657913208
99, 8205, 8173, 8144, 8196, 8214, 8146, 8173, 8170, 8153, 8216, 8146, 8147, 8170, 8207,2.653153657913208
100, 8179, 8176, 8145, 8176, 8182, 8141, 8146, 8153, 8195, 8162, 8114, 8162, 8159, 8176,2.66088604927063
100, 8179, 8176, 8145, 8176, 8182, 8141, 8146, 8153, 8195, 8162, 8114, 8162, 8159, 8176,2.66088604927063
101, 8147, 8141, 8132, 8164, 8207, 8137, 8156, 8155, 8047, 8151, 8119, 8133, 8156, 8155,2.6688857078552246
101, 8147, 8141, 8132, 8164, 8207, 8137, 8156, 8155, 8047, 8151, 8119, 8133, 8156, 8155,2.6688857078552246
102, 8177, 8171, 8139, 8183, 8204, 8129, 8149, 8170, 8160, 8154, 8103, 8154, 8158, 8161,2.676215410232544
102, 8177, 8171, 8139, 8183, 8204, 8129, 8149, 8170, 8160, 8154, 8103, 8154, 8158, 8161,2.6767265796661377
103, 8163, 8159, 8130, 8168, 8199, 8131, 8154, 8158, 8160, 8165, 8100, 8148, 8156, 8142,2.6837897300720215
103, 8163, 8159, 8130, 8168, 8199, 8131, 8154, 8158, 8160, 8165, 8100, 8148, 8156, 8142,2.6837897300720215
104, 8155, 8152, 8134, 8174, 8229, 8154, 8172, 8159, 8093, 8185, 8125, 8146, 8159, 8151,2.6919915676116943
104, 8155, 8152, 8134, 8174, 8229, 8154, 8172, 8159, 8093, 8185, 8125, 8146, 8159, 8151,2.6919915676116943
105, 8177, 8185, 8155, 8199, 8226, 8155, 8155, 8178, 8238, 8181, 8117, 8178, 8168, 8161,2.6999893188476562
105, 8177, 8185, 8155, 8199, 8226, 8155, 8155, 8178, 8238, 8181, 8117, 8178, 8168, 8161,2.6999893188476562
106, 8175, 8153, 8135, 8174, 8219, 8138, 8156, 8155, 8113, 8197, 8123, 8142, 8158, 8151,2.7078864574432373
106, 8175, 8153, 8135, 8174, 8219, 8138, 8156, 8155, 8113, 8197, 8123, 8142, 8158, 8151,2.7078864574432373
107, 8182, 8175, 8148, 8184, 8198, 8131, 8151, 8150, 8156, 8181, 8133, 8158, 8156, 8165,2.7158493995666504
107, 8182, 8175, 8148, 8184, 8198, 8131, 8151, 8150, 8156, 8181, 8133, 8158, 8156, 8165,2.7158493995666504
108, 8180, 8185, 8167, 8211, 8213, 8133, 8162, 8168, 8217, 8181, 8145, 8166, 8173, 8174,2.7242307662963867
108, 8180, 8185, 8167, 8211, 8213, 8133, 8162, 8168, 8217, 8181, 8145, 8166, 8173, 8174,2.7242307662963867
109, 8196, 8171, 8166, 8205, 8242, 8139, 8173, 8162, 8143, 8191, 8139, 8150, 8168, 8172,2.7320685386657715
109, 8196, 8171, 8166, 8205, 8242, 8139, 8173, 8162, 8143, 8191, 8139, 8150, 8168, 8172,2.7320685386657715
110, 8191, 8185, 8175, 8185, 8214, 8129, 8147, 8150, 8221, 8162, 8127, 8177, 8161, 8164,2.7390689849853516
110, 8191, 8185, 8175, 8185, 8214, 8129, 8147, 8150, 8221, 8162, 8127, 8177, 8161, 8164,2.7390689849853516
111, 8183, 8162, 8168, 8190, 8222, 8133, 8161, 8157, 8136, 8189, 8168, 8160, 8179, 8182,2.746882438659668
111, 8183, 8162, 8168, 8190, 8222, 8133, 8161, 8157, 8136, 8189, 8168, 8160, 8179, 8182,2.746882438659668
112, 8224, 8191, 8186, 8214, 8220, 8153, 8167, 8166, 8207, 8195, 8161, 8175, 8181, 8200,2.754887819290161
112, 8224, 8191, 8186, 8214, 8220, 8153, 8167, 8166, 8207, 8195, 8161, 8175, 8181, 8200,2.754887819290161
113, 8200, 8188, 8193, 8200, 8206, 8151, 8158, 8156, 8235, 8183, 8148, 8176, 8163, 8176,2.7628846168518066
113, 8200, 8188, 8193, 8200, 8206, 8151, 8158, 8156, 8235, 8183, 8148, 8176, 8163, 8176,2.7628846168518066
114, 8189, 8173, 8188, 8202, 8214, 8146, 8161, 8158, 8157, 8192, 8176, 8160, 8162, 8175,2.7708730697631836
114, 8189, 8173, 8188, 8202, 8214, 8146, 8161, 8158, 8157, 8192, 8176, 8160, 8162, 8175,2.7708730697631836
115, 8216, 8201, 8196, 8207, 8189, 8149, 8146, 8162, 8266, 8168, 8162, 8188, 8170, 8176,2.7789218425750732
115, 8216, 8201, 8196, 8207, 8189, 8149, 8146, 8162, 8266, 8168, 8162, 8188, 8170, 8176,2.7789218425750732
116, 8194, 8158, 8178, 8178, 8196, 8156, 8154, 8142, 8145, 8192, 8169, 8162, 8168, 8170,2.7869200706481934
116, 8194, 8158, 8178, 8178, 8196, 8156, 8154, 8142, 8145, 8192, 8169, 8162, 8168, 8170,2.7869200706481934
117, 8200, 8175, 8196, 8192, 8205, 8160, 8152, 8155, 8195, 8195, 8173, 8177, 8168, 8191,2.7948861122131348
117, 8200, 8175, 8196, 8192, 8205, 8160, 8152, 8155, 8195, 8195, 8173, 8177, 8168, 8191,2.7948861122131348
118, 8213, 8190, 8202, 8198, 8192, 8162, 8151, 8167, 8253, 8170, 8166, 8185, 8165, 8186,2.802886962890625
118, 8213, 8190, 8202, 8198, 8192, 8162, 8151, 8167, 8253, 8170, 8166, 8185, 8165, 8186,2.802886962890625
119, 8217, 8167, 8191, 8190, 8198, 8159, 8157, 8141, 8118, 8188, 8176, 8162, 8158, 8178,2.8098862171173096
119, 8217, 8167, 8191, 8190, 8198, 8159, 8157, 8141, 8118, 8188, 8176, 8162, 8158, 8178,2.8098862171173096
120, 8209, 8201, 8209, 8207, 8187, 8134, 8126, 8138, 8233, 8170, 8165, 8192, 8164, 8173,2.8176157474517822
120, 8209, 8201, 8209, 8207, 8187, 8134, 8126, 8138, 8233, 8170, 8165, 8192, 8164, 8173,2.8176157474517822
121, 8192, 8175, 8189, 8199, 8203, 8141, 8145, 8154, 8160, 8173, 8175, 8164, 8166, 8172,2.825629234313965
121, 8192, 8175, 8189, 8199, 8203, 8141, 8145, 8154, 8160, 8173, 8175, 8164, 8166, 8172,2.825629234313965
122, 8205, 8174, 8187, 8190, 8197, 8165, 8161, 8154, 8143, 8174, 8161, 8163, 8161, 8186,2.833881139755249
122, 8205, 8174, 8187, 8190, 8197, 8165, 8161, 8154, 8143, 8174, 8161, 8163, 8161, 8186,2.833881139755249
123, 8175, 8178, 8190, 8179, 8167, 8157, 8130, 8142, 8189, 8158, 8146, 8175, 8162, 8163,2.841886281967163
123, 8175, 8178, 8190, 8179, 8167, 8157, 8130, 8142, 8189, 8158, 8146, 8175, 8162, 8163,2.842320442199707
124, 8178, 8155, 8166, 8178, 8191, 8162, 8137, 8147, 8088, 8177, 8165, 8155, 8162, 8154,2.850001573562622
124, 8178, 8155, 8166, 8178, 8191, 8162, 8137, 8147, 8088, 8177, 8165, 8155, 8162, 8154,2.850001573562622
125, 8212, 8190, 8176, 8202, 8194, 8177, 8147, 8154, 8219, 8161, 8151, 8185, 8159, 8164,2.858004331588745
125, 8212, 8190, 8176, 8202, 8194, 8177, 8147, 8154, 8219, 8161, 8151, 8185, 8159, 8164,2.858004331588745
126, 8192, 8178, 8186, 8211, 8215, 8187, 8167, 8150, 8189, 8176, 8181, 8171, 8174, 8168,2.865036725997925
126, 8192, 8178, 8186, 8211, 8215, 8187, 8167, 8150, 8189, 8176, 8181, 8171, 8174, 8168,2.865036725997925
127, 8210, 8184, 8194, 8222, 8236, 8198, 8175, 8168, 8224, 8198, 8213, 8176, 8187, 8192,2.872889280319214
127, 8210, 8184, 8194, 8222, 8236, 8198, 8175, 8168, 8224, 8198, 8213, 8176, 8187, 8192,2.872889280319214
240, 8215, 8188, 8182, 8209, 8205, 8182, 8155, 8165, 8313, 8186, 8197, 8189, 8170, 8201,2.8808867931365967
240, 8215, 8188, 8182, 8209, 8205, 8182, 8155, 8165, 8313, 8186, 8197, 8189, 8170, 8201,2.8808867931365967
0, 8197, 8156, 8175, 8199, 8204, 8169, 8159, 8147, 8179, 8210, 8218, 8166, 8158, 8205,2.8888866901397705
0, 8197, 8156, 8175, 8199, 8204, 8169, 8159, 8147, 8179, 8210, 8218, 8166, 8158, 8205,2.8888866901397705
1, 8218, 8189, 8206, 8221, 8211, 8180, 8159, 8170, 8314, 8209, 8222, 8202, 8171, 8207,2.8963723182678223
1, 8218, 8189, 8206, 8221, 8211, 8180, 8159, 8170, 8314, 8209, 8222, 8202, 8171, 8207,2.8963723182678223
2, 8212, 8167, 8185, 8202, 8224, 8192, 8174, 8170, 8296, 8204, 8214, 8183, 8169, 8190,2.9043712615966797
2, 8212, 8167, 8185, 8202, 8224, 8192, 8174, 8170, 8296, 8204, 8214, 8183, 8169, 8190,2.9043712615966797
3, 8204, 8152, 8176, 8183, 8218, 8182, 8160, 8143, 8204, 8175, 8226, 8168, 8156, 8183,2.912372350692749
3, 8204, 8152, 8176, 8183, 8218, 8182, 8160, 8143, 8204, 8175, 8226, 8168, 8156, 8183,2.9133729934692383
4, 8194, 8168, 8200, 8192, 8203, 8172, 8143, 8146, 8260, 8151, 8251, 8180, 8161, 8169,2.9203732013702393
4, 8194, 8168, 8200, 8192, 8203, 8172, 8143, 8146, 8260, 8151, 8251, 8180, 8161, 8169,2.9203732013702393
5, 8211, 8152, 8196, 8196, 8236, 8203, 8188, 8166, 8192, 8200, 8288, 8152, 8158, 8172,2.9283711910247803
5, 8211, 8152, 8196, 8196, 8236, 8203, 8188, 8166, 8192, 8200, 8288, 8152, 8158, 8172,2.9283711910247803
6, 8227, 8187, 8207, 8207, 8227, 8214, 8183, 8168, 8318, 8188, 8285, 8185, 8153, 8182,2.935370922088623
6, 8227, 8187, 8207, 8207, 8227, 8214, 8183, 8168, 8318, 8188, 8285, 8185, 8153, 8182,2.935370922088623
7, 8186, 8171, 8197, 8210, 8214, 8198, 8170, 8156, 8287, 8182, 8310, 8184, 8168, 8174,2.943371057510376
7, 8186, 8171, 8197, 8210, 8214, 8198, 8170, 8156, 8287, 8182, 8310, 8184, 8168, 8174,2.943371057510376
8, 8207, 8165, 8197, 8218, 8224, 8203, 8180, 8170, 8248, 8206, 8336, 8174, 8176, 8196,2.951371431350708
8, 8207, 8165, 8197, 8218, 8224, 8203, 8180, 8170, 8248, 8206, 8336, 8174, 8176, 8196,2.951371431350708
9, 8231, 8186, 8215, 8211, 8215, 8212, 8176, 8189, 8392, 8211, 8340, 8197, 8174, 8211,2.959372043609619
9, 8231, 8186, 8215, 8211, 8215, 8212, 8176, 8189, 8392, 8211, 8340, 8197, 8174, 8211,2.959372043609619
10, 8198, 8149, 8194, 8188, 8216, 8220, 8188, 8184, 8283, 8245, 8370, 8167, 8168, 8202,2.9673774242401123
10, 8198, 8149, 8194, 8188, 8216, 8220, 8188, 8184, 8283, 8245, 8370, 8167, 8168, 8202,2.9673774242401123
11, 8183, 8165, 8191, 8190, 8187, 8207, 8162, 8173, 8313, 8209, 8342, 8176, 8152, 8178,2.975386142730713
11, 8183, 8165, 8191, 8190, 8187, 8207, 8162, 8173, 8313, 8209, 8342, 8176, 8152, 8178,2.975386142730713
12, 8160, 8151, 8179, 8176, 8188, 8187, 8150, 8163, 8256, 8172, 8317, 8163, 8141, 8140,2.983887195587158
12, 8160, 8151, 8179, 8176, 8188, 8187, 8150, 8163, 8256, 8172, 8317, 8163, 8141, 8140,2.983887195587158
13, 8173, 8138, 8166, 8173, 8206, 8201, 8169, 8166, 8171, 8189, 8324, 8152, 8155, 8141,2.990945816040039
13, 8173, 8138, 8166, 8173, 8206, 8201, 8169, 8166, 8171, 8189, 8324, 8152, 8155, 8141,2.990945816040039
14, 8192, 8167, 8176, 8183, 8181, 8221, 8171, 8169, 8295, 8179, 8317, 8177, 8164, 8151,2.998955249786377
14, 8192, 8167, 8176, 8183, 8181, 8221, 8171, 8169, 8295, 8179, 8317, 8177, 8164, 8151,2.998955249786377
15, 8181, 8137, 8165, 8163, 8193, 8222, 8186, 8153, 8178, 8185, 8334, 8150, 8155, 8145,3.006946086883545
15, 8181, 8137, 8165, 8163, 8193, 8222, 8186, 8153, 8178, 8185, 8334, 8150, 8155, 8145,3.006946086883545
16, 8182, 8154, 8169, 8163, 8197, 8201, 8167, 8152, 8207, 8161, 8320, 8170, 8157, 8131,3.0148870944976807
16, 8182, 8154, 8169, 8163, 8197, 8201, 8167, 8152, 8207, 8161, 8320, 8170, 8157, 8131,3.0148870944976807
17, 8165, 8156, 8166, 8162, 8194, 8201, 8165, 8162, 8222, 8158, 8318, 8167, 8159, 8113,3.0230464935302734
17, 8165, 8156, 8166, 8162, 8194, 8201, 8165, 8162, 8222, 8158, 8318, 8167, 8159, 8113,3.0230464935302734
18, 8174, 8147, 8171, 8159, 8206, 8233, 8194, 8169, 8161, 8192, 8343, 8155, 8157, 8126,3.0310463905334473
18, 8174, 8147, 8171, 8159, 8206, 8233, 8194, 8169, 8161, 8192, 8343, 8155, 8157, 8126,3.0310463905334473
19, 8176, 8171, 8176, 8170, 8195, 8220, 8184, 8176, 8281, 8176, 8330, 8185, 8167, 8130,3.039079427719116
19, 8176, 8171, 8176, 8170, 8195, 8220, 8184, 8176, 8281, 8176, 8330, 8185, 8167, 8130,3.039079427719116
20, 8156, 8142, 8146, 8162, 8207, 8195, 8184, 8167, 8167, 8174, 8329, 8146, 8164, 8124,3.046092987060547
20, 8156, 8142, 8146, 8162, 8207, 8195, 8184, 8167, 8167, 8174, 8329, 8146, 8164, 8124,3.046092987060547
21, 8177, 8166, 8164, 8163, 8193, 8217, 8180, 8166, 8211, 8166, 8329, 8156, 8156, 8141,3.0538218021392822
21, 8177, 8166, 8164, 8163, 8193, 8217, 8180, 8166, 8211, 8166, 8329, 8156, 8156, 8141,3.0538218021392822
22, 8174, 8177, 8187, 8171, 8191, 8239, 8182, 8180, 8282, 8186, 8355, 8179, 8173, 8148,3.061992883682251
22, 8174, 8177, 8187, 8171, 8191, 8239, 8182, 8180, 8282, 8186, 8355, 8179, 8173, 8148,3.061992883682251
23, 8196, 8167, 8198, 8199, 8219, 8240, 8198, 8186, 8232, 8236, 8390, 8171, 8184, 8172,3.0700011253356934
23, 8196, 8167, 8198, 8199, 8219, 8240, 8198, 8186, 8232, 8236, 8390, 8171, 8184, 8172,3.0700011253356934
24, 8211, 8182, 8216, 8201, 8187, 8255, 8180, 8170, 8332, 8193, 8365, 8191, 8162, 8169,3.077888011932373
24, 8211, 8182, 8216, 8201, 8187, 8255, 8180, 8170, 8332, 8193, 8365, 8191, 8162, 8169,3.077888011932373
25, 8171, 8145, 8204, 8169, 8187, 8283, 8177, 8148, 8194, 8160, 8365, 8170, 8151, 8149,3.085811138153076
25, 8171, 8145, 8204, 8169, 8187, 8283, 8177, 8148, 8194, 8160, 8365, 8170, 8151, 8149,3.085811138153076
26, 8209, 8189, 8240, 8207, 8203, 8283, 8177, 8167, 8248, 8161, 8371, 8197, 8168, 8173,3.0938055515289307
26, 8209, 8189, 8240, 8207, 8203, 8283, 8177, 8167, 8248, 8161, 8371, 8197, 8168, 8173,3.0938055515289307
27, 8232, 8205, 8259, 8225, 8189, 8274, 8174, 8171, 8324, 8157, 8351, 8202, 8168, 8170,3.101369857788086
27, 8232, 8205, 8259, 8225, 8189, 8274, 8174, 8171, 8324, 8157, 8351, 8202, 8168, 8170,3.101369857788086
28, 8210, 8162, 8235, 8196, 8190, 8283, 8176, 8149, 8170, 8162, 8347, 8165, 8154, 8155,3.109611749649048
28, 8210, 8162, 8235, 8196, 8190, 8283, 8176, 8149, 8170, 8162, 8347, 8165, 8154, 8155,3.109611749649048
29, 8214, 8193, 8250, 8212, 8179, 8275, 8160, 8160, 8279, 8146, 8334, 8196, 8158, 8159,3.116605281829834
29, 8214, 8193, 8250, 8212, 8179, 8275, 8160, 8160, 8279, 8146, 8334, 8196, 8158, 8159,3.116605281829834
30, 8212, 8174, 8237, 8219, 8189, 8274, 8179, 8164, 8219, 8165, 8335, 8168, 8157, 8154,3.1248860359191895
30, 8212, 8174, 8237, 8219, 8189, 8274, 8179, 8164, 8219, 8165, 8335, 8168, 8157, 8154,3.1248860359191895
31, 8215, 8175, 8223, 8202, 8176, 8286, 8189, 8158, 8201, 8157, 8332, 8158, 8155, 8157,3.132856845855713
31, 8215, 8175, 8223, 8202, 8176, 8286, 8189, 8158, 8201, 8157, 8332, 8158, 8155, 8157,3.132856845855713
32, 8186, 8182, 8214, 8182, 8155, 8279, 8188, 8172, 8276, 8135, 8336, 8178, 8165, 8159,3.1408865451812744
32, 8186, 8182, 8214, 8182, 8155, 8279, 8188, 8172, 8276, 8135, 8336, 8178, 8165, 8159,3.1408865451812744
33, 8175, 8149, 8189, 8178, 8162, 8274, 8207, 8187, 8181, 8173, 8348, 8157, 8165, 8168,3.149655342102051
33, 8175, 8149, 8189, 8178, 8162, 8274, 8207, 8187, 8181, 8173, 8348, 8157, 8165, 8168,3.149655342102051
34, 8189, 8175, 8197, 8183, 8131, 8265, 8187, 8186, 8275, 8178, 8332, 8177, 8165, 8172,3.156729221343994
34, 8189, 8175, 8197, 8183, 8131, 8265, 8187, 8186, 8275, 8178, 8332, 8177, 8165, 8172,3.156729221343994
35, 8164, 8161, 8197, 8169, 8141, 8256, 8194, 8179, 8219, 8187, 8359, 8158, 8172, 8173,3.1647703647613525
35, 8164, 8161, 8197, 8169, 8141, 8256, 8194, 8179, 8219, 8187, 8359, 8158, 8172, 8173,3.1647703647613525
36, 8177, 8166, 8202, 8183, 8171, 8268, 8208, 8188, 8222, 8193, 8367, 8162, 8170, 8188,3.1728830337524414
36, 8177, 8166, 8202, 8183, 8171, 8268, 8208, 8188, 8222, 8193, 8367, 8162, 8170, 8188,3.1728830337524414
37, 8186, 8180, 8193, 8186, 8155, 8269, 8193, 8187, 8306, 8199, 8341, 8179, 8164, 8175,3.180772542953491
37, 8186, 8180, 8193, 8186, 8155, 8269, 8193, 8187, 8306, 8199, 8341, 8179, 8164, 8175,3.180772542953491
38, 8165, 8145, 8163, 8162, 8156, 8257, 8189, 8166, 8144, 8206, 8340, 8137, 8150, 8155,3.1878859996795654
38, 8165, 8145, 8163, 8162, 8156, 8257, 8189, 8166, 8144, 8206, 8340, 8137, 8150, 8155,3.1878859996795654
39, 8158, 8166, 8169, 8160, 8146, 8233, 8153, 8157, 8185, 8138, 8305, 8152, 8142, 8141,3.1959078311920166
39, 8158, 8166, 8169, 8160, 8146, 8233, 8153, 8157, 8185, 8138, 8305, 8152, 8142, 8141,3.1959078311920166
40, 8149, 8151, 8156, 8152, 8161, 8229, 8160, 8154, 8140, 8140, 8299, 8144, 8152, 8130,3.2039058208465576
40, 8149, 8151, 8156, 8152, 8161, 8229, 8160, 8154, 8140, 8140, 8299, 8144, 8152, 8130,3.2039058208465576
41, 8154, 8146, 8142, 8147, 8160, 8245, 8178, 8153, 8109, 8165, 8307, 8145, 8150, 8138,3.211467981338501
41, 8154, 8146, 8142, 8147, 8160, 8245, 8178, 8153, 8109, 8165, 8307, 8145, 8150, 8138,3.211467981338501
42, 8133, 8157, 8142, 8145, 8122, 8238, 8160, 8154, 8172, 8130, 8286, 8159, 8143, 8121,3.2194786071777344
42, 8133, 8157, 8142, 8145, 8122, 8238, 8160, 8154, 8172, 8130, 8286, 8159, 8143, 8121,3.2194786071777344
43, 8140, 8135, 8137, 8149, 8150, 8244, 8182, 8154, 8048, 8158, 8304, 8125, 8153, 8116,3.227886438369751
43, 8140, 8135, 8137, 8149, 8150, 8244, 8182, 8154, 8048, 8158, 8304, 8125, 8153, 8116,3.227886438369751
44, 8172, 8172, 8160, 8163, 8161, 8256, 8188, 8169, 8169, 8157, 8312, 8157, 8166, 8126,3.2358498573303223
44, 8172, 8172, 8160, 8163, 8161, 8256, 8188, 8169, 8169, 8157, 8312, 8157, 8166, 8126,3.2358498573303223
45, 8139, 8165, 8152, 8146, 8156, 8257, 8198, 8181, 8176, 8150, 8320, 8155, 8162, 8114,3.2438864707946777
45, 8139, 8165, 8152, 8146, 8156, 8257, 8198, 8181, 8176, 8150, 8320, 8155, 8162, 8114,3.2438864707946777
46, 8154, 8162, 8144, 8150, 8164, 8260, 8213, 8190, 8140, 8187, 8320, 8142, 8160, 8136,3.2518863677978516
46, 8154, 8162, 8144, 8150, 8164, 8260, 8213, 8190, 8140, 8187, 8320, 8142, 8160, 8136,3.2518863677978516
47, 8171, 8178, 8151, 8160, 8154, 8256, 8194, 8183, 8258, 8184, 8301, 8158, 8160, 8146,3.2588751316070557
47, 8171, 8178, 8151, 8160, 8154, 8256, 8194, 8183, 8258, 8184, 8301, 8158, 8160, 8146,3.2588751316070557
48, 8129, 8140, 8132, 8148, 8167, 8251, 8188, 8167, 8127, 8173, 8317, 8126, 8158, 8132,3.2668941020965576
48, 8129, 8140, 8132, 8148, 8167, 8251, 8188, 8167, 8127, 8173, 8317, 8126, 8158, 8132,3.2668941020965576
49, 8137, 8173, 8149, 8166, 8160, 8250, 8183, 8181, 8194, 8161, 8302, 8147, 8161, 8142,3.274883270263672
49, 8137, 8173, 8149, 8166, 8160, 8250, 8183, 8181, 8194, 8161, 8302, 8147, 8161, 8142,3.274883270263672
50, 8160, 8179, 8156, 8169, 8179, 8258, 8204, 8184, 8221, 8186, 8295, 8152, 8160, 8155,3.282390832901001
50, 8160, 8179, 8156, 8169, 8179, 8258, 8204, 8184, 8221, 8186, 8295, 8152, 8160, 8155,3.282390832901001
51, 8168, 8160, 8149, 8160, 8211, 8253, 8212, 8171, 8157, 8195, 8309, 8144, 8159, 8166,3.290390968322754
51, 8168, 8160, 8149, 8160, 8211, 8253, 8212, 8171, 8157, 8195, 8309, 8144, 8159, 8166,3.290390968322754
52, 8148, 8173, 8149, 8155, 8174, 8221, 8179, 8174, 8243, 8157, 8298, 8163, 8162, 8156,3.298394203186035
52, 8148, 8173, 8149, 8155, 8174, 8221, 8179, 8174, 8243, 8157, 8298, 8163, 8162, 8156,3.298394203186035
53, 8144, 8143, 8133, 8144, 8172, 8212, 8192, 8172, 8120, 8185, 8307, 8137, 8162, 8159,3.306962013244629
53, 8144, 8143, 8133, 8144, 8172, 8212, 8192, 8172, 8120, 8185, 8307, 8137, 8162, 8159,3.307368755340576
54, 8180, 8169, 8153, 8156, 8190, 8215, 8197, 8171, 8186, 8185, 8301, 8166, 8163, 8180,3.3151326179504395
54, 8180, 8169, 8153, 8156, 8190, 8215, 8197, 8171, 8186, 8185, 8301, 8166, 8163, 8180,3.3151326179504395
55, 8155, 8166, 8149, 8152, 8191, 8204, 8189, 8169, 8200, 8169, 8302, 8161, 8162, 8157,3.3221471309661865
55, 8155, 8166, 8149, 8152, 8191, 8204, 8189, 8169, 8200, 8169, 8302, 8161, 8162, 8157,3.3231399059295654
56, 8154, 8148, 8128, 8155, 8192, 8204, 8197, 8168, 8100, 8178, 8303, 8134, 8151, 8142,3.330141305923462
56, 8154, 8148, 8128, 8155, 8192, 8204, 8197, 8168, 8100, 8178, 8303, 8134, 8151, 8142,3.330141305923462
57, 8169, 8172, 8138, 8177, 8187, 8199, 8186, 8169, 8226, 8156, 8278, 8163, 8148, 8140,3.337646722793579
57, 8169, 8172, 8138, 8177, 8187, 8199, 8186, 8169, 8226, 8156, 8278, 8163, 8148, 8140,3.337646722793579
58, 8136, 8139, 8128, 8159, 8206, 8197, 8198, 8167, 8129, 8173, 8296, 8139, 8157, 8133,3.345660448074341
58, 8136, 8139, 8128, 8159, 8206, 8197, 8198, 8167, 8129, 8173, 8296, 8139, 8157, 8133,3.345660448074341
59, 8143, 8157, 8132, 8153, 8195, 8206, 8197, 8181, 8161, 8171, 8285, 8149, 8162, 8137,3.3538804054260254
59, 8143, 8157, 8132, 8153, 8195, 8206, 8197, 8181, 8161, 8171, 8285, 8149, 8162, 8137,3.3538804054260254
60, 8145, 8155, 8117, 8154, 8180, 8198, 8195, 8184, 8199, 8160, 8257, 8146, 8158, 8130,3.361886978149414
60, 8145, 8155, 8117, 8154, 8180, 8198, 8195, 8184, 8199, 8160, 8257, 8146, 8158, 8130,3.361886978149414
61, 8152, 8128, 8097, 8138, 8188, 8188, 8208, 8174, 8094, 8188, 8269, 8124, 8157, 8138,3.369856834411621
61, 8152, 8128, 8097, 8138, 8188, 8188, 8208, 8174, 8094, 8188, 8269, 8124, 8157, 8138,3.369856834411621
62, 8151, 8168, 8118, 8139, 8165, 8190, 8200, 8177, 8208, 8178, 8269, 8159, 8162, 8141,3.3773884773254395
62, 8151, 8168, 8118, 8139, 8165, 8190, 8200, 8177, 8208, 8178, 8269, 8159, 8162, 8141,3.3773884773254395
63, 8131, 8155, 8122, 8155, 8184, 8198, 8216, 8177, 8130, 8175, 8277, 8137, 8159, 8133,3.3853843212127686
63, 8131, 8155, 8122, 8155, 8184, 8198, 8216, 8177, 8130, 8175, 8277, 8137, 8159, 8133,3.38638973236084
64, 8169, 8164, 8143, 8174, 8190, 8186, 8209, 8181, 8145, 8165, 8269, 8145, 8160, 8145,3.3923873901367188
64, 8169, 8164, 8143, 8174, 8190, 8186, 8209, 8181, 8145, 8165, 8269, 8145, 8160, 8145,3.3923873901367188
65, 8163, 8162, 8131, 8143, 8184, 8171, 8194, 8178, 8192, 8169, 8271, 8153, 8165, 8142,3.4008870124816895
65, 8163, 8162, 8131, 8143, 8184, 8171, 8194, 8178, 8192, 8169, 8271, 8153, 8165, 8142,3.4008870124816895
66, 8140, 8148, 8110, 8127, 8207, 8184, 8203, 8178, 8102, 8194, 8297, 8132, 8162, 8151,3.4085512161254883
66, 8140, 8148, 8110, 8127, 8207, 8184, 8203, 8178, 8102, 8194, 8297, 8132, 8162, 8151,3.4085512161254883
67, 8175, 8190, 8172, 8186, 8169, 8183, 8182, 8185, 8231, 8154, 8269, 8164, 8158, 8151,3.4165618419647217
67, 8175, 8190, 8172, 8186, 8169, 8183, 8182, 8185, 8231, 8154, 8269, 8164, 8158, 8151,3.4165618419647217
68, 8183, 8164, 8185, 8187, 8181, 8177, 8190, 8166, 8143, 8154, 8260, 8143, 8157, 8131,3.424889326095581
68, 8183, 8164, 8185, 8187, 8181, 8177, 8190, 8166, 8143, 8154, 8260, 8143, 8157, 8131,3.424889326095581
69, 8161, 8161, 8135, 8136, 8229, 8185, 8200, 8168, 8125, 8170, 8275, 8149, 8157, 8135,3.4328877925872803
69, 8161, 8161, 8135, 8136, 8229, 8185, 8200, 8168, 8125, 8170, 8275, 8149, 8157, 8135,3.4328877925872803
70, 8131, 8171, 8104, 8137, 8208, 8193, 8198, 8195, 8211, 8162, 8278, 8165, 8159, 8135,3.440927505493164
70, 8131, 8171, 8104, 8137, 8208, 8193, 8198, 8195, 8211, 8162, 8278, 8165, 8159, 8135,3.440927505493164
71, 8160, 8157, 8120, 8188, 8191, 8198, 8218, 8192, 8118, 8192, 8284, 8135, 8166, 8147,3.448976993560791
71, 8160, 8157, 8120, 8188, 8191, 8198, 8218, 8192, 8118, 8192, 8284, 8135, 8166, 8147,3.448976993560791
72, 8182, 8191, 8146, 8181, 8189, 8177, 8199, 8179, 8222, 8179, 8258, 8157, 8167, 8160,3.455925941467285
72, 8182, 8191, 8146, 8181, 8189, 8177, 8199, 8179, 8222, 8179, 8258, 8157, 8167, 8160,3.455925941467285
73, 8122, 8154, 8107, 8122, 8205, 8160, 8193, 8177, 8141, 8163, 8260, 8136, 8160, 8140,3.463613986968994
73, 8122, 8154, 8107, 8122, 8205, 8160, 8193, 8177, 8141, 8163, 8260, 8136, 8160, 8140,3.463613986968994
74, 8125, 8147, 8093, 8129, 8189, 8173, 8200, 8180, 8091, 8156, 8254, 8133, 8156, 8131,3.4715263843536377
74, 8125, 8147, 8093, 8129, 8189, 8173, 8200, 8180, 8091, 8156, 8254, 8133, 8156, 8131,3.4715263843536377
75, 8142, 8170, 8109, 8138, 8166, 8176, 8184, 8171, 8165, 8148, 8233, 8153, 8158, 8127,3.479887008666992
75, 8142, 8170, 8109, 8138, 8166, 8176, 8184, 8171, 8165, 8148, 8233, 8153, 8158, 8127,3.4803028106689453
76, 8127, 8146, 8105, 8129, 8187, 8163, 8178, 8164, 8053, 8169, 8255, 8129, 8158, 8137,3.4878861904144287
76, 8127, 8146, 8105, 8129, 8187, 8163, 8178, 8164, 8053, 8169, 8255, 8129, 8158, 8137,3.4878861904144287
77, 8150, 8175, 8120, 8162, 8177, 8150, 8171, 8183, 8167, 8151, 8248, 8155, 8160, 8145,3.495850086212158
77, 8150, 8175, 8120, 8162, 8177, 8150, 8171, 8183, 8167, 8151, 8248, 8155, 8160, 8145,3.495850086212158
78, 8166, 8167, 8115, 8171, 8185, 8157, 8201, 8182, 8135, 8158, 8250, 8140, 8162, 8135,3.5038912296295166
78, 8166, 8167, 8115, 8171, 8185, 8157, 8201, 8182, 8135, 8158, 8250, 8140, 8162, 8135,3.5038912296295166
79, 8182, 8171, 8131, 8174, 8195, 8156, 8210, 8176, 8101, 8176, 8265, 8141, 8162, 8148,3.5118749141693115
79, 8182, 8171, 8131, 8174, 8195, 8156, 8210, 8176, 8101, 8176, 8265, 8141, 8162, 8148,3.5118749141693115
80, 8171, 8187, 8150, 8172, 8179, 8132, 8186, 8184, 8230, 8166, 8259, 8166, 8167, 8143,3.5198750495910645
80, 8171, 8187, 8150, 8172, 8179, 8132, 8186, 8184, 8230, 8166, 8259, 8166, 8167, 8143,3.5198750495910645
81, 8161, 8150, 8130, 8160, 8204, 8130, 8204, 8179, 8111, 8191, 8256, 8130, 8164, 8138,3.526886224746704
81, 8161, 8150, 8130, 8160, 8204, 8130, 8204, 8179, 8111, 8191, 8256, 8130, 8164, 8138,3.526886224746704
82, 8170, 8176, 8142, 8181, 8199, 8130, 8188, 8169, 8161, 8162, 8233, 8151, 8154, 8143,3.5348870754241943
82, 8170, 8176, 8142, 8181, 8199, 8130, 8188, 8169, 8161, 8162, 8233, 8151, 8154, 8143,3.5348870754241943
83, 8141, 8165, 8145, 8177, 8193, 8121, 8182, 8170, 8143, 8153, 8251, 8148, 8158, 8131,3.5429184436798096
83, 8141, 8165, 8145, 8177, 8193, 8121, 8182, 8170, 8143, 8153, 8251, 8148, 8158, 8131,3.5429184436798096
84, 8164, 8164, 8149, 8166, 8203, 8127, 8209, 8185, 8115, 8183, 8267, 8142, 8164, 8143,3.5505685806274414
84, 8164, 8164, 8149, 8166, 8203, 8127, 8209, 8185, 8115, 8183, 8267, 8142, 8164, 8143,3.5505685806274414
85, 8183, 8198, 8164, 8170, 8185, 8121, 8201, 8183, 8221, 8163, 8246, 8162, 8162, 8146,3.558565139770508
85, 8183, 8198, 8164, 8170, 8185, 8121, 8201, 8183, 8221, 8163, 8246, 8162, 8162, 8146,3.558565139770508
86, 8154, 8163, 8146, 8168, 8199, 8114, 8200, 8177, 8094, 8169, 8263, 8132, 8157, 8138,3.566563844680786
86, 8154, 8163, 8146, 8168, 8199, 8114, 8200, 8177, 8094, 8169, 8263, 8132, 8157, 8138,3.566563844680786
87, 8166, 8171, 8147, 8176, 8191, 8117, 8192, 8193, 8162, 8156, 8239, 8146, 8150, 8132,3.5748894214630127
87, 8166, 8171, 8147, 8176, 8191, 8117, 8192, 8193, 8162, 8156, 8239, 8146, 8150, 8132,3.5748894214630127
88, 8152, 8158, 8129, 8155, 8180, 8113, 8195, 8181, 8132, 8144, 8210, 8129, 8142, 8109,3.582893133163452
88, 8152, 8158, 8129, 8155, 8180, 8113, 8195, 8181, 8132, 8144, 8210, 8129, 8142, 8109,3.582893133163452
89, 8136, 8152, 8129, 8147, 8188, 8111, 8196, 8170, 8026, 8152, 8223, 8123, 8150, 8116,3.589893341064453
89, 8136, 8152, 8129, 8147, 8188, 8111, 8196, 8170, 8026, 8152, 8223, 8123, 8150, 8116,3.589893341064453
90, 8137, 8179, 8153, 8168, 8177, 8112, 8185, 8187, 8154, 8133, 8222, 8162, 8164, 8121,3.597886085510254
90, 8137, 8179, 8153, 8168, 8177, 8112, 8185, 8187, 8154, 8133, 8222, 8162, 8164, 8121,3.597886085510254
91, 8142, 8149, 8139, 8168, 8192, 8132, 8213, 8183, 8069, 8153, 8228, 8127, 8161, 8111,3.605849266052246
91, 8142, 8149, 8139, 8168, 8192, 8132, 8213, 8183, 8069, 8153, 8228, 8127, 8161, 8111,3.605849266052246
92, 8151, 8169, 8139, 8167, 8172, 8134, 8194, 8169, 8108, 8148, 8212, 8132, 8152, 8111,3.613886833190918
92, 8151, 8169, 8139, 8167, 8172, 8134, 8194, 8169, 8108, 8148, 8212, 8132, 8152, 8111,3.613886833190918
93, 8107, 8156, 8127, 8148, 8152, 8106, 8158, 8160, 8100, 8137, 8208, 8140, 8153, 8099,3.6219494342803955
93, 8107, 8156, 8127, 8148, 8152, 8106, 8158, 8160, 8100, 8137, 8208, 8140, 8153, 8099,3.6219494342803955
94, 8121, 8137, 8127, 8154, 8179, 8107, 8174, 8169, 8025, 8153, 8224, 8134, 8160, 8113,3.6298866271972656
94, 8121, 8137, 8127, 8154, 8179, 8107, 8174, 8169, 8025, 8153, 8224, 8134, 8160, 8113,3.6298866271972656
95, 8168, 8182, 8154, 8184, 8176, 8120, 8186, 8187, 8185, 8143, 8215, 8160, 8165, 8122,3.637861728668213
95, 8168, 8182, 8154, 8184, 8176, 8120, 8186, 8187, 8185, 8143, 8215, 8160, 8165, 8122,3.637861728668213
96, 8151, 8164, 8143, 8177, 8196, 8123, 8203, 8172, 8098, 8165, 8234, 8131, 8158, 8107,3.645857810974121
96, 8151, 8164, 8143, 8177, 8196, 8123, 8203, 8172, 8098, 8165, 8234, 8131, 8158, 8107,3.645857810974121
97, 8142, 8179, 8157, 8184, 8201, 8122, 8183, 8161, 8113, 8149, 8226, 8149, 8157, 8105,3.6538867950439453
97, 8142, 8179, 8157, 8184, 8201, 8122, 8183, 8161, 8113, 8149, 8226, 8149, 8157, 8105,3.6538867950439453
98, 8144, 8186, 8173, 8195, 8188, 8124, 8172, 8169, 8149, 8138, 8212, 8152, 8161, 8093,3.6608872413635254
98, 8144, 8186, 8173, 8195, 8188, 8124, 8172, 8169, 8149, 8138, 8212, 8152, 8161, 8093,3.6608872413635254
99, 8176, 8171, 8166, 8189, 8208, 8140, 8208, 8174, 8066, 8169, 8225, 8120, 8153, 8096,3.6688859462738037
99, 8176, 8171, 8166, 8189, 8208, 8140, 8208, 8174, 8066, 8169, 8225, 8120, 8153, 8096,3.6688859462738037
100, 8178, 8196, 8167, 8182, 8207, 8152, 8207, 8178, 8204, 8142, 8222, 8155, 8160, 8105,3.677422523498535
100, 8178, 8196, 8167, 8182, 8207, 8152, 8207, 8178, 8204, 8142, 8222, 8155, 8160, 8105,3.677422523498535
101, 8133, 8167, 8142, 8176, 8216, 8155, 8202, 8178, 8128, 8156, 8242, 8142, 8175, 8110,3.6848864555358887
101, 8133, 8167, 8142, 8176, 8216, 8155, 8202, 8178, 8128, 8156, 8242, 8142, 8175, 8110,3.6848864555358887
102, 8148, 8174, 8137, 8177, 8206, 8144, 8188, 8175, 8112, 8173, 8219, 8129, 8159, 8115,3.692906618118286
102, 8148, 8174, 8137, 8177, 8206, 8144, 8188, 8175, 8112, 8173, 8219, 8129, 8159, 8115,3.692906618118286
103, 8132, 8168, 8129, 8150, 8192, 8138, 8181, 8158, 8138, 8144, 8192, 8125, 8142, 8096,3.7009084224700928
103, 8132, 8168, 8129, 8150, 8192, 8138, 8181, 8158, 8138, 8144, 8192, 8125, 8142, 8096,3.7009084224700928
104, 8113, 8143, 8115, 8150, 8209, 8152, 8197, 8158, 8039, 8141, 8219, 8118, 8153, 8106,3.7091639041900635
104, 8113, 8143, 8115, 8150, 8209, 8152, 8197, 8158, 8039, 8141, 8219, 8118, 8153, 8106,3.7091639041900635
105, 8149, 8190, 8141, 8185, 8194, 8150, 8176, 8178, 8179, 8133, 8216, 8160, 8173, 8134,3.715850353240967
105, 8149, 8190, 8141, 8185, 8194, 8150, 8176, 8178, 8179, 8133, 8216, 8160, 8173, 8134,3.715850353240967
106, 8153, 8174, 8142, 8175, 8202, 8151, 8172, 8165, 8116, 8162, 8224, 8137, 8176, 8143,3.7238869667053223
106, 8153, 8174, 8142, 8175, 8202, 8151, 8172, 8165, 8116, 8162, 8224, 8137, 8176, 8143,3.7238869667053223
107, 8155, 8177, 8152, 8174, 8205, 8164, 8171, 8162, 8112, 8161, 8226, 8147, 8166, 8145,3.732206106185913
107, 8155, 8177, 8152, 8174, 8205, 8164, 8171, 8162, 8112, 8161, 8226, 8147, 8166, 8145,3.732206106185913
108, 8149, 8189, 8160, 8180, 8193, 8169, 8172, 8183, 8197, 8138, 8208, 8170, 8160, 8123,3.7402477264404297
108, 8149, 8189, 8160, 8180, 8193, 8169, 8172, 8183, 8197, 8138, 8208, 8170, 8160, 8123,3.7402477264404297
109, 8153, 8165, 8151, 8176, 8209, 8178, 8190, 8180, 8081, 8162, 8218, 8139, 8157, 8120,3.7482492923736572
109, 8153, 8165, 8151, 8176, 8209, 8178, 8190, 8180, 8081, 8162, 8218, 8139, 8157, 8120,3.7482492923736572
110, 8163, 8197, 8177, 8190, 8191, 8173, 8164, 8171, 8188, 8141, 8218, 8166, 8160, 8128,3.756249189376831
110, 8163, 8197, 8177, 8190, 8191, 8173, 8164, 8171, 8188, 8141, 8218, 8166, 8160, 8128,3.756249189376831
111, 8146, 8174, 8167, 8188, 8207, 8178, 8175, 8177, 8159, 8149, 8233, 8151, 8164, 8124,3.7638866901397705
111, 8146, 8174, 8167, 8188, 8207, 8178, 8175, 8177, 8159, 8149, 8233, 8151, 8164, 8124,3.7638866901397705
112, 8171, 8178, 8165, 8203, 8233, 8204, 8200, 8188, 8166, 8185, 8239, 8147, 8168, 8142,3.7718863487243652
112, 8171, 8178, 8165, 8203, 8233, 8204, 8200, 8188, 8166, 8185, 8239, 8147, 8168, 8142,3.7718863487243652
113, 8166, 8199, 8184, 8211, 8221, 8199, 8187, 8183, 8272, 8186, 8231, 8163, 8165, 8142,3.7798311710357666
113, 8166, 8199, 8184, 8211, 8221, 8199, 8187, 8183, 8272, 8186, 8231, 8163, 8165, 8142,3.7798311710357666
114, 8159, 8165, 8166, 8189, 8242, 8194, 8201, 8177, 8151, 8190, 8240, 8132, 8163, 8145,3.7868311405181885
114, 8159, 8165, 8166, 8189, 8242, 8194, 8201, 8177, 8151, 8190, 8240, 8132, 8163, 8145,3.7868311405181885
115, 8179, 8186, 8156, 8184, 8220, 8202, 8196, 8177, 8227, 8152, 8210, 8155, 8162, 8149,3.7948923110961914
115, 8179, 8186, 8156, 8184, 8220, 8202, 8196, 8177, 8227, 8152, 8210, 8155, 8162, 8149,3.7948923110961914
116, 8136, 8165, 8137, 8175, 8189, 8199, 8187, 8170, 8175, 8152, 8208, 8143, 8155, 8129,3.802886486053467
116, 8136, 8165, 8137, 8175, 8189, 8199, 8187, 8170, 8175, 8152, 8208, 8143, 8155, 8129,3.802886486053467
117, 8138, 8160, 8138, 8185, 8195, 8194, 8193, 8188, 8147, 8177, 8216, 8141, 8159, 8146,3.8108878135681152
117, 8138, 8160, 8138, 8185, 8195, 8194, 8193, 8188, 8147, 8177, 8216, 8141, 8159, 8146,3.8108878135681152
118, 8160, 8180, 8157, 8189, 8196, 8190, 8191, 8196, 8262, 8155, 8202, 8165, 8168, 8158,3.818887233734131
118, 8160, 8180, 8157, 8189, 8196, 8190, 8191, 8196, 8262, 8155, 8202, 8165, 8168, 8158,3.818887233734131
119, 8145, 8151, 8148, 8177, 8201, 8198, 8206, 8170, 8129, 8159, 8222, 8138, 8162, 8152,3.8268861770629883
119, 8145, 8151, 8148, 8177, 8201, 8198, 8206, 8170, 8129, 8159, 8222, 8138, 8162, 8152,3.8268861770629883
120, 8157, 8175, 8163, 8197, 8182, 8196, 8199, 8176, 8210, 8157, 8207, 8167, 8159, 8161,3.834886312484741
120, 8157, 8175, 8163, 8197, 8182, 8196, 8199, 8176, 8210, 8157, 8207, 8167, 8159, 8161,3.834886312484741
121, 8156, 8164, 8162, 8197, 8190, 8189, 8208, 8187, 8215, 8171, 8196, 8157, 8161, 8163,3.8432259559631348
121, 8156, 8164, 8162, 8197, 8190, 8189, 8208, 8187, 8215, 8171, 8196, 8157, 8161, 8163,3.8432259559631348
122, 8158, 8160, 8164, 8188, 8192, 8197, 8211, 8181, 8162, 8186, 8214, 8141, 8162, 8172,3.8502321243286133
122, 8158, 8160, 8164, 8188, 8192, 8197, 8211, 8181, 8162, 8186, 8214, 8141, 8162, 8172,3.8502321243286133
123, 8149, 8186, 8169, 8190, 8155, 8192, 8188, 8185, 8261, 8163, 8198, 8167, 8161, 8165,3.8580076694488525
123, 8149, 8186, 8169, 8190, 8155, 8192, 8188, 8185, 8261, 8163, 8198, 8167, 8161, 8165,3.8580076694488525
124, 8136, 8156, 8138, 8179, 8173, 8191, 8209, 8182, 8121, 8165, 8188, 8133, 8159, 8156,3.866021156311035
124, 8136, 8156, 8138, 8179, 8173, 8191, 8209, 8182, 8121, 8165, 8188, 8133, 8159, 8156,3.866021156311035
125, 8151, 8181, 8157, 8193, 8188, 8190, 8207, 8179, 8184, 8148, 8190, 8157, 8167, 8167,3.8738880157470703
125, 8151, 8181, 8157, 8193, 8188, 8190, 8207, 8179, 8184, 8148, 8190, 8157, 8167, 8167,3.8738880157470703
126, 8156, 8183, 8179, 8212, 8196, 8187, 8205, 8191, 8242, 8176, 8220, 8170, 8179, 8179,3.881887197494507
126, 8156, 8183, 8179, 8212, 8196, 8187, 8205, 8191, 8242, 8176, 8220, 8170, 8179, 8179,3.881887197494507
127, 8192, 8177, 8183, 8213, 8206, 8189, 8221, 8201, 8194, 8208, 8231, 8154, 8171, 8201,3.8898861408233643
127, 8192, 8177, 8183, 8213, 8206, 8189, 8221, 8201, 8194, 8208, 8231, 8154, 8171, 8201,3.8898861408233643
240, 8180, 8193, 8176, 8192, 8181, 8175, 8196, 8188, 8269, 8166, 8196, 8166, 8157, 8186,3.8982155323028564
240, 8180, 8193, 8176, 8192, 8181, 8175, 8196, 8188, 8269, 8166, 8196, 8166, 8157, 8186,3.8982155323028564
0, 8131, 8150, 8140, 8171, 8189, 8168, 8197, 8172, 8136, 8185, 8209, 8137, 8160, 8172,3.906214475631714
0, 8131, 8150, 8140, 8171, 8189, 8168, 8197, 8172, 8136, 8185, 8209, 8137, 8160, 8172,3.906214475631714
1, 8154, 8171, 8150, 8182, 8181, 8162, 8198, 8183, 8199, 8185, 8202, 8156, 8167, 8191,3.914231061935425
1, 8154, 8171, 8150, 8182, 8181, 8162, 8198, 8183, 8199, 8185, 8202, 8156, 8167, 8191,3.914231061935425
2, 8133, 8166, 8152, 8168, 8166, 8149, 8194, 8180, 8214, 8163, 8182, 8149, 8161, 8173,3.920886516571045
2, 8133, 8166, 8152, 8168, 8166, 8149, 8194, 8180, 8214, 8163, 8182, 8149, 8161, 8173,3.920886516571045
3, 8113, 8140, 8135, 8162, 8165, 8151, 8195, 8174, 8086, 8181, 8182, 8123, 8156, 8162,3.9292428493499756
3, 8113, 8140, 8135, 8162, 8165, 8151, 8195, 8174, 8086, 8181, 8182, 8123, 8156, 8162,3.9292428493499756
4, 8142, 8176, 8148, 8177, 8135, 8147, 8179, 8186, 8195, 8159, 8165, 8155, 8165, 8170,3.937242031097412
4, 8142, 8176, 8148, 8177, 8135, 8147, 8179, 8186, 8195, 8159, 8165, 8155, 8165, 8170,3.937242031097412
5, 8135, 8154, 8141, 8160, 8147, 8137, 8192, 8179, 8113, 8156, 8182, 8138, 8167, 8175,3.944885730743408
5, 8135, 8154, 8141, 8160, 8147, 8137, 8192, 8179, 8113, 8156, 8182, 8138, 8167, 8175,3.944885730743408
6, 8135, 8166, 8149, 8166, 8145, 8126, 8182, 8167, 8127, 8151, 8173, 8152, 8160, 8177,3.9528861045837402
6, 8135, 8166, 8149, 8166, 8145, 8126, 8182, 8167, 8127, 8151, 8173, 8152, 8160, 8177,3.9528861045837402
7, 8131, 8170, 8152, 8164, 8137, 8121, 8172, 8158, 8130, 8142, 8148, 8155, 8158, 8166,3.9608781337738037
7, 8131, 8170, 8152, 8164, 8137, 8121, 8172, 8158, 8130, 8142, 8148, 8155, 8158, 8166,3.9608781337738037
8, 8137, 8151, 8152, 8154, 8170, 8132, 8185, 8160, 8025, 8153, 8162, 8138, 8162, 8177,3.9688808917999268
8, 8137, 8151, 8152, 8154, 8170, 8132, 8185, 8160, 8025, 8153, 8162, 8138, 8162, 8177,3.9688808917999268
9, 8150, 8186, 8181, 8181, 8162, 8135, 8178, 8182, 8190, 8143, 8161, 8177, 8171, 8184,3.9769277572631836
9, 8150, 8186, 8181, 8181, 8162, 8135, 8178, 8182, 8190, 8143, 8161, 8177, 8171, 8184,3.9769277572631836
10, 8150, 8166, 8176, 8191, 8164, 8142, 8201, 8176, 8133, 8176, 8176, 8154, 8173, 8173,3.9840517044067383
10, 8150, 8166, 8176, 8191, 8164, 8142, 8201, 8176, 8133, 8176, 8176, 8154, 8173, 8173,3.9840517044067383
11, 8172, 8175, 8185, 8190, 8173, 8143, 8194, 8165, 8135, 8182, 8169, 8161, 8171, 8186,3.992053270339966
11, 8172, 8175, 8185, 8190, 8173, 8143, 8194, 8165, 8135, 8182, 8169, 8161, 8171, 8186,3.992053270339966
12, 8153, 8184, 8197, 8188, 8173, 8139, 8177, 8177, 8210, 8161, 8156, 8178, 8176, 8190,4.0000529289245605
12, 8153, 8184, 8197, 8188, 8173, 8139, 8177, 8177, 8210, 8161, 8156, 8178, 8176, 8190,4.0000529289245605
13, 8150, 8160, 8181, 8192, 8182, 8141, 8196, 8187, 8116, 8186, 8167, 8153, 8176, 8200,4.008051872253418
13, 8150, 8160, 8181, 8192, 8182, 8141, 8196, 8187, 8116, 8186, 8167, 8153, 8176, 8200,4.008051872253418
14, 8157, 8175, 8173, 8182, 8148, 8131, 8174, 8176, 8199, 8164, 8140, 8176, 8164, 8199,4.016051769256592
14, 8157, 8175, 8173, 8182, 8148, 8131, 8174, 8176, 8199, 8164, 8140, 8176, 8164, 8199,4.016051769256592
15, 8118, 8145, 8155, 8153, 8148, 8139, 8178, 8166, 8106, 8154, 8129, 8148, 8154, 8178,4.024051666259766
15, 8118, 8145, 8155, 8153, 8148, 8139, 8178, 8166, 8106, 8154, 8129, 8148, 8154, 8178,4.024051666259766
16, 8146, 8162, 8174, 8171, 8157, 8159, 8199, 8183, 8112, 8160, 8116, 8147, 8159, 8191,4.032052993774414
16, 8146, 8162, 8174, 8171, 8157, 8159, 8199, 8183, 8112, 8160, 8116, 8147, 8159, 8191,4.032052993774414
17, 8158, 8175, 8179, 8168, 8141, 8154, 8190, 8185, 8199, 8160, 8109, 8163, 8165, 8194,4.040050983428955
17, 8158, 8175, 8179, 8168, 8141, 8154, 8190, 8185, 8199, 8160, 8109, 8163, 8165, 8194,4.040050983428955
18, 8134, 8148, 8160, 8151, 8170, 8169, 8196, 8174, 8087, 8188, 8122, 8143, 8164, 8195,4.047052383422852
18, 8134, 8148, 8160, 8151, 8170, 8169, 8196, 8174, 8087, 8188, 8122, 8143, 8164, 8195,4.047052383422852
19, 8149, 8191, 8191, 8182, 8178, 8184, 8188, 8186, 8217, 8176, 8082, 8179, 8165, 8204,4.055051565170288
19, 8149, 8191, 8191, 8182, 8178, 8184, 8188, 8186, 8217, 8176, 8082, 8179, 8165, 8204,4.055051565170288
20, 8150, 8167, 8178, 8182, 8174, 8177, 8190, 8184, 8169, 8178, 8056, 8156, 8162, 8197,4.062891721725464
20, 8150, 8167, 8178, 8182, 8174, 8177, 8190, 8184, 8169, 8178, 8056, 8156, 8162, 8197,4.062891721725464
21, 8165, 8152, 8162, 8174, 8168, 8176, 8180, 8171, 8100, 8170, 8032, 8147, 8155, 8199,4.070887327194214
21, 8165, 8152, 8162, 8174, 8168, 8176, 8180, 8171, 8100, 8170, 8032, 8147, 8155, 8199,4.070887327194214
22, 8160, 8168, 8177, 8177, 8160, 8174, 8160, 8157, 8157, 8138, 8002, 8169, 8152, 8190,4.078885793685913
22, 8160, 8168, 8177, 8177, 8160, 8174, 8160, 8157, 8157, 8138, 8002, 8169, 8152, 8190,4.078885793685913
23, 8141, 8143, 8173, 8163, 8182, 8175, 8178, 8150, 8038, 8167, 8034, 8146, 8160, 8193,4.086743116378784
23, 8141, 8143, 8173, 8163, 8182, 8175, 8178, 8150, 8038, 8167, 8034, 8146, 8160, 8193,4.086743116378784
24, 8140, 8166, 8179, 8164, 8166, 8183, 8175, 8170, 8157, 8171, 8037, 8168, 8166, 8195,4.094497442245483
24, 8140, 8166, 8179, 8164, 8166, 8183, 8175, 8170, 8157, 8171, 8037, 8168, 8166, 8195,4.094497442245483
25, 8117, 8152, 8171, 8166, 8162, 8194, 8187, 8178, 8147, 8177, 8027, 8149, 8162, 8171,4.102504014968872
25, 8117, 8152, 8171, 8166, 8162, 8194, 8187, 8178, 8147, 8177, 8027, 8149, 8162, 8171,4.102504014968872
26, 8142, 8163, 8184, 8185, 8166, 8185, 8190, 8176, 8099, 8191, 8029, 8142, 8163, 8175,4.110886335372925
26, 8142, 8163, 8184, 8185, 8166, 8185, 8190, 8176, 8099, 8191, 8029, 8142, 8163, 8175,4.110886335372925
27, 8150, 8189, 8194, 8189, 8147, 8163, 8164, 8178, 8202, 8192, 8024, 8172, 8169, 8181,4.1178858280181885
27, 8150, 8189, 8194, 8189, 8147, 8163, 8164, 8178, 8202, 8192, 8024, 8172, 8169, 8181,4.1178858280181885
28, 8136, 8153, 8167, 8168, 8167, 8173, 8184, 8175, 8092, 8216, 8029, 8143, 8163, 8186,4.125849723815918
28, 8136, 8153, 8167, 8168, 8167, 8173, 8184, 8175, 8092, 8216, 8029, 8143, 8163, 8186,4.125849723815918
29, 8164, 8174, 8182, 8175, 8164, 8179, 8183, 8174, 8160, 8177, 8000, 8161, 8162, 8198,4.133885860443115
29, 8164, 8174, 8182, 8175, 8164, 8179, 8183, 8174, 8160, 8177, 8000, 8161, 8162, 8198,4.133885860443115
30, 8148, 8164, 8182, 8167, 8163, 8176, 8176, 8162, 8129, 8156, 7995, 8155, 8163, 8182,4.141886234283447
30, 8148, 8164, 8182, 8167, 8163, 8176, 8176, 8162, 8129, 8156, 7995, 8155, 8163, 8182,4.141886234283447
31, 8140, 8149, 8172, 8157, 8175, 8184, 8183, 8158, 8058, 8176, 8002, 8140, 8152, 8178,4.149932146072388
31, 8140, 8149, 8172, 8157, 8175, 8184, 8183, 8158, 8058, 8176, 8002, 8140, 8152, 8178,4.149932146072388
32, 8144, 8170, 8176, 8157, 8153, 8173, 8166, 8160, 8148, 8152, 7977, 8160, 8144, 8161,4.157886981964111
32, 8144, 8170, 8176, 8157, 8153, 8173, 8166, 8160, 8148, 8152, 7977, 8160, 8144, 8161,4.157886981964111
33, 8131, 8144, 8162, 8153, 8164, 8162, 8171, 8143, 8006, 8159, 7993, 8137, 8153, 8141,4.1658923625946045
33, 8131, 8144, 8162, 8153, 8164, 8162, 8171, 8143, 8006, 8159, 7993, 8137, 8153, 8141,4.1658923625946045
34, 8142, 8170, 8181, 8163, 8162, 8167, 8163, 8146, 8076, 8154, 7993, 8165, 8164, 8153,4.173886775970459
34, 8142, 8170, 8181, 8163, 8162, 8167, 8163, 8146, 8076, 8154, 7993, 8165, 8164, 8153,4.173886775970459
35, 8144, 8170, 8182, 8161, 8161, 8175, 8169, 8164, 8125, 8165, 7990, 8165, 8166, 8163,4.18088698387146
35, 8144, 8170, 8182, 8161, 8161, 8175, 8169, 8164, 8125, 8165, 7990, 8165, 8166, 8163,4.18088698387146
36, 8168, 8153, 8176, 8165, 8174, 8174, 8181, 8167, 8063, 8187, 8003, 8150, 8163, 8174,4.188886642456055
36, 8168, 8153, 8176, 8165, 8174, 8174, 8181, 8167, 8063, 8187, 8003, 8150, 8163, 8174,4.188886642456055
37, 8163, 8173, 8190, 8167, 8154, 8161, 8161, 8163, 8174, 8158, 7997, 8180, 8164, 8164,4.196866989135742
37, 8163, 8173, 8190, 8167, 8154, 8161, 8161, 8163, 8174, 8158, 7997, 8180, 8164, 8164,4.196866989135742
38, 8146, 8148, 8174, 8155, 8170, 8169, 8183, 8162, 8081, 8179, 8016, 8153, 8161, 8168,4.20487380027771
38, 8146, 8148, 8174, 8155, 8170, 8169, 8183, 8162, 8081, 8179, 8016, 8153, 8161, 8168,4.20487380027771
39, 8173, 8175, 8182, 8168, 8166, 8176, 8185, 8166, 8141, 8185, 8023, 8170, 8164, 8189,4.212874889373779
39, 8173, 8175, 8182, 8168, 8166, 8176, 8185, 8166, 8141, 8185, 8023, 8170, 8164, 8189,4.212874889373779
40, 8150, 8173, 8185, 8163, 8152, 8161, 8172, 8163, 8177, 8179, 8034, 8180, 8172, 8172,4.220874547958374
40, 8150, 8173, 8185, 8163, 8152, 8161, 8172, 8163, 8177, 8179, 8034, 8180, 8172, 8172,4.220874547958374
41, 8154, 8158, 8184, 8166, 8170, 8157, 8190, 8164, 8099, 8210, 8042, 8165, 8169, 8179,4.2288854122161865
41, 8154, 8158, 8184, 8166, 8170, 8157, 8190, 8164, 8099, 8210, 8042, 8165, 8169, 8179,4.2288854122161865
42, 8177, 8186, 8200, 8177, 8154, 8155, 8180, 8165, 8218, 8193, 8014, 8189, 8163, 8192,4.2368645668029785
42, 8177, 8186, 8200, 8177, 8154, 8155, 8180, 8165, 8218, 8193, 8014, 8189, 8163, 8192,4.2368645668029785
43, 8137, 8145, 8171, 8150, 8163, 8150, 8179, 8158, 8100, 8186, 8024, 8156, 8156, 8176,4.244861602783203
43, 8137, 8145, 8171, 8150, 8163, 8150, 8179, 8158, 8100, 8186, 8024, 8156, 8156, 8176,4.244861602783203
44, 8146, 8165, 8170, 8159, 8166, 8140, 8175, 8166, 8115, 8186, 8013, 8166, 8148, 8169,4.251886606216431
44, 8146, 8165, 8170, 8159, 8166, 8140, 8175, 8166, 8115, 8186, 8013, 8166, 8148, 8169,4.251886606216431
45, 8156, 8173, 8177, 8164, 8158, 8126, 8170, 8157, 8154, 8182, 7991, 8170, 8147, 8154,4.259933710098267
45, 8156, 8173, 8177, 8164, 8158, 8126, 8170, 8157, 8154, 8182, 7991, 8170, 8147, 8154,4.259933710098267
46, 8136, 8137, 8159, 8143, 8170, 8123, 8176, 8141, 8023, 8178, 8000, 8141, 8150, 8156,4.2679643630981445
46, 8136, 8137, 8159, 8143, 8170, 8123, 8176, 8141, 8023, 8178, 8000, 8141, 8150, 8156,4.2679643630981445
47, 8141, 8173, 8167, 8153, 8148, 8121, 8163, 8160, 8142, 8148, 7986, 8170, 8156, 8162,4.275957822799683
47, 8141, 8173, 8167, 8153, 8148, 8121, 8163, 8160, 8142, 8148, 7986, 8170, 8156, 8162,4.275957822799683
48, 8157, 8159, 8171, 8160, 8167, 8129, 8183, 8166, 8088, 8175, 7994, 8154, 8158, 8163,4.284090280532837
48, 8157, 8159, 8171, 8160, 8167, 8129, 8183, 8166, 8088, 8175, 7994, 8154, 8158, 8163,4.284090280532837
49, 8179, 8164, 8189, 8166, 8186, 8137, 8188, 8161, 8096, 8174, 7995, 8164, 8165, 8170,4.291886806488037
49, 8179, 8164, 8189, 8166, 8186, 8137, 8188, 8161, 8096, 8174, 7995, 8164, 8165, 8170,4.291886806488037
50, 8171, 8179, 8190, 8169, 8174, 8132, 8186, 8170, 8166, 8160, 7994, 8176, 8172, 8161,4.299886703491211
50, 8171, 8179, 8190, 8169, 8174, 8132, 8186, 8170, 8166, 8160, 7994, 8176, 8172, 8161,4.299886703491211
51, 8188, 8164, 8181, 8180, 8193, 8136, 8209, 8170, 8075, 8203, 8020, 8155, 8166, 8174,4.307886362075806
51, 8188, 8164, 8181, 8180, 8193, 8136, 8209, 8170, 8075, 8203, 8020, 8155, 8166, 8174,4.307886362075806
52, 8196, 8185, 8207, 8194, 8192, 8138, 8186, 8165, 8202, 8191, 8020, 8188, 8164, 8183,4.314862012863159
52, 8196, 8185, 8207, 8194, 8192, 8138, 8186, 8165, 8202, 8191, 8020, 8188, 8164, 8183,4.314862012863159
53, 8168, 8164, 8205, 8188, 8203, 8149, 8200, 8175, 8165, 8208, 8046, 8172, 8174, 8178,4.322857856750488
53, 8168, 8164, 8205, 8188, 8203, 8149, 8200, 8175, 8165, 8208, 8046, 8172, 8174, 8178,4.322857856750488
54, 8206, 8189, 8221, 8206, 8218, 8167, 8229, 8190, 8197, 8235, 8064, 8181, 8180, 8209,4.330861806869507
54, 8206, 8189, 8221, 8206, 8218, 8167, 8229, 8190, 8197, 8235, 8064, 8181, 8180, 8209,4.330861806869507
55, 8200, 8204, 8221, 8205, 8220, 8157, 8219, 8176, 8289, 8211, 8054, 8195, 8170, 8211,4.338907480239868
55, 8200, 8204, 8221, 8205, 8220, 8157, 8219, 8176, 8289, 8211, 8054, 8195, 8170, 8211,4.338907480239868
56, 8161, 8159, 8178, 8184, 8228, 8143, 8219, 8166, 8141, 8214, 8055, 8151, 8160, 8191,4.346885919570923
56, 8161, 8159, 8178, 8184, 8228, 8143, 8219, 8166, 8141, 8214, 8055, 8151, 8160, 8191,4.347227096557617
57, 8170, 8181, 8177, 8185, 8196, 8125, 8207, 8176, 8206, 8194, 8026, 8163, 8160, 8177,4.35515284538269
57, 8170, 8181, 8177, 8185, 8196, 8125, 8207, 8176, 8206, 8194, 8026, 8163, 8160, 8177,4.35515284538269
58, 8149, 8165, 8172, 8173, 8206, 8111, 8208, 8163, 8143, 8196, 8033, 8147, 8157, 8158,4.3631768226623535
58, 8149, 8165, 8172, 8173, 8206, 8111, 8208, 8163, 8143, 8196, 8033, 8147, 8157, 8158,4.3631768226623535
59, 8157, 8166, 8170, 8180, 8218, 8116, 8206, 8160, 8116, 8196, 8042, 8154, 8156, 8161,4.371177434921265
59, 8157, 8166, 8170, 8180, 8218, 8116, 8206, 8160, 8116, 8196, 8042, 8154, 8156, 8161,4.371177434921265
60, 8172, 8181, 8175, 8188, 8193, 8117, 8194, 8166, 8209, 8172, 8023, 8178, 8160, 8155,4.378186941146851
60, 8172, 8181, 8175, 8188, 8193, 8117, 8194, 8166, 8209, 8172, 8023, 8178, 8160, 8155,4.379216194152832
61, 8167, 8155, 8169, 8177, 8212, 8119, 8202, 8152, 8084, 8202, 8045, 8149, 8162, 8159,4.385164976119995
61, 8167, 8155, 8169, 8177, 8212, 8119, 8202, 8152, 8084, 8202, 8045, 8149, 8162, 8159,4.38620662689209
62, 8172, 8185, 8191, 8183, 8208, 8118, 8181, 8156, 8179, 8203, 8048, 8183, 8164, 8171,4.394184827804565
62, 8172, 8185, 8191, 8183, 8208, 8118, 8181, 8156, 8179, 8203, 8048, 8183, 8164, 8171,4.394184827804565
63, 8145, 8167, 8183, 8172, 8201, 8117, 8182, 8157, 8150, 8191, 8053, 8175, 8163, 8157,4.401297330856323
63, 8145, 8167, 8183, 8172, 8201, 8117, 8182, 8157, 8150, 8191, 8053, 8175, 8163, 8157,4.402289390563965
64, 8160, 8166, 8179, 8185, 8204, 8115, 8194, 8158, 8100, 8181, 8057, 8166, 8163, 8161,4.409297704696655
64, 8160, 8166, 8179, 8185, 8204, 8115, 8194, 8158, 8100, 8181, 8057, 8166, 8163, 8161,4.410290479660034
65, 8175, 8193, 8185, 8196, 8187, 8097, 8184, 8163, 8201, 8158, 8036, 8186, 8165, 8155,4.417886257171631
65, 8175, 8193, 8185, 8196, 8187, 8097, 8184, 8163, 8201, 8158, 8036, 8186, 8165, 8155,4.417886257171631
66, 8154, 8154, 8164, 8170, 8198, 8088, 8187, 8150, 8052, 8176, 8049, 8150, 8156, 8143,4.425849676132202
66, 8154, 8154, 8164, 8170, 8198, 8088, 8187, 8150, 8052, 8176, 8049, 8150, 8156, 8143,4.426271915435791
67, 8164, 8172, 8180, 8181, 8192, 8083, 8168, 8155, 8112, 8159, 8051, 8177, 8156, 8150,4.434316635131836
67, 8164, 8172, 8180, 8181, 8192, 8083, 8168, 8155, 8112, 8159, 8051, 8177, 8156, 8150,4.434316635131836
68, 8175, 8176, 8181, 8199, 8204, 8086, 8184, 8169, 8142, 8161, 8059, 8179, 8170, 8152,4.441323518753052
68, 8175, 8176, 8181, 8199, 8204, 8086, 8184, 8169, 8142, 8161, 8059, 8179, 8170, 8152,4.441323518753052
69, 8188, 8163, 8176, 8186, 8213, 8101, 8204, 8159, 8098, 8179, 8078, 8165, 8169, 8161,4.44896388053894
69, 8188, 8163, 8176, 8186, 8213, 8101, 8204, 8159, 8098, 8179, 8078, 8165, 8169, 8161,4.44896388053894
70, 8169, 8174, 8188, 8167, 8175, 8093, 8179, 8156, 8199, 8168, 8080, 8192, 8171, 8161,4.456993103027344
70, 8169, 8174, 8188, 8167, 8175, 8093, 8179, 8156, 8199, 8168, 8080, 8192, 8171, 8161,4.456993103027344
71, 8163, 8155, 8179, 8176, 8194, 8091, 8202, 8172, 8112, 8210, 8099, 8162, 8180, 8173,4.465001821517944
