COUNTER,F3,FC5,AF3,F7,T7,P7,O1,O2,P8,T8,F8,AF4,FC6,F4,Timestamp
45, 8146, 8143, 7852, 8161, 8142, 8046, 8150, 8156, 7919, 8123, 7405, 8148, 8164, 8106,0.003003358840942383
45, 8146, 8143, 7852, 8161, 8142, 8046, 8150, 8156, 7919, 8123, 7405, 8148, 8164, 8106,0.003003358840942383
46, 8157, 8151, 7854, 8148, 8125, 8045, 8146, 8155, 7999, 8096, 7366, 8154, 8156, 8096,0.010567188262939453
46, 8157, 8151, 7854, 8148, 8125, 8045, 8146, 8155, 7999, 8096, 7366, 8154, 8156, 8096,0.011567354202270508
47, 8136, 8122, 7843, 8120, 8135, 8061, 8173, 8140, 7858, 8095, 7377, 8124, 8151, 8092,0.018566370010375977
47, 8136, 8122, 7843, 8120, 8135, 8061, 8173, 8140, 7858, 8095, 7377, 8124, 8151, 8092,0.019567012786865234
48, 8149, 8162, 7871, 8159, 8130, 8058, 8160, 8159, 7986, 8104, 7395, 8166, 8167, 8110,0.027645587921142578
48, 8149, 8162, 7871, 8159, 8130, 8058, 8160, 8159, 7986, 8104, 7395, 8166, 8167, 8110,0.027645587921142578
49, 8160, 8153, 7873, 8170, 8149, 8056, 8164, 8175, 8012, 8139, 7406, 8157, 8170, 8120,0.0347447395324707
49, 8160, 8153, 7873, 8170, 8149, 8056, 8164, 8175, 8012, 8139, 7406, 8157, 8170, 8120,0.0347447395324707
50, 8173, 8140, 7865, 8144, 8154, 8076, 8171, 8162, 7950, 8130, 7396, 8138, 8152, 8130,0.04272818565368652
50, 8173, 8140, 7865, 8144, 8154, 8076, 8171, 8162, 7950, 8130, 7396, 8138, 8152, 8130,0.04372978210449219
51, 8140, 8154, 7864, 8132, 8118, 8080, 8144, 8143, 7998, 8067, 7372, 8155, 8143, 8103,0.0497281551361084
51, 8140, 8154, 7864, 8132, 8118, 8080, 8144, 8143, 7998, 8067, 7372, 8155, 8143, 8103,0.0497281551361084
52, 8120, 8123, 7842, 8137, 8142, 8081, 8152, 8144, 7876, 8091, 7389, 8128, 8153, 8084,0.05859804153442383
52, 8120, 8123, 7842, 8137, 8142, 8081, 8152, 8144, 7876, 8091, 7389, 8128, 8153, 8084,0.05859804153442383
53, 8160, 8155, 7859, 8155, 8142, 8090, 8156, 8162, 7989, 8116, 7389, 8157, 8166, 8103,0.0655965805053711
53, 8160, 8155, 7859, 8155, 8142, 8090, 8156, 8162, 7989, 8116, 7389, 8157, 8166, 8103,0.06659674644470215
54, 8144, 8150, 7853, 8136, 8132, 8103, 8160, 8153, 7996, 8119, 7398, 8150, 8158, 8104,0.07422971725463867
54, 8144, 8150, 7853, 8136, 8132, 8103, 8160, 8153, 7996, 8119, 7398, 8150, 8158, 8104,0.07464838027954102
55, 8128, 8135, 7836, 8130, 8148, 8111, 8158, 8141, 7909, 8112, 7403, 8130, 8147, 8102,0.08206677436828613
55, 8128, 8135, 7836, 8130, 8148, 8111, 8158, 8141, 7909, 8112, 7403, 8130, 8147, 8102,0.08206677436828613
56, 8120, 8157, 7846, 8141, 8135, 8105, 8139, 8154, 8011, 8082, 7391, 8153, 8151, 8089,0.0901038646697998
56, 8120, 8157, 7846, 8141, 8135, 8105, 8139, 8154, 8011, 8082, 7391, 8153, 8151, 8089,0.0901038646697998
57, 8112, 8136, 7842, 8134, 8138, 8111, 8168, 8163, 7923, 8102, 7413, 8129, 8159, 8081,0.09811663627624512
57, 8112, 8136, 7842, 8134, 8138, 8111, 8168, 8163, 7923, 8102, 7413, 8129, 8159, 8081,0.09811663627624512
58, 8150, 8166, 7860, 8151, 8138, 8116, 8173, 8159, 7993, 8097, 7398, 8154, 8163, 8090,0.10600519180297852
58, 8150, 8166, 7860, 8151, 8138, 8116, 8173, 8159, 7993, 8097, 7398, 8154, 8163, 8090,0.10600519180297852
59, 8141, 8160, 7858, 8150, 8147, 8104, 8154, 8139, 7991, 8098, 7390, 8156, 8159, 8083,0.1131281852722168
59, 8141, 8160, 7858, 8150, 8147, 8104, 8154, 8139, 7991, 8098, 7390, 8156, 8159, 8083,0.1131281852722168
60, 8135, 8144, 7855, 8149, 8156, 8105, 8154, 8137, 7912, 8122, 7415, 8138, 8157, 8096,0.12112832069396973
60, 8135, 8144, 7855, 8149, 8156, 8105, 8154, 8137, 7912, 8122, 7415, 8138, 8157, 8096,0.12112832069396973
61, 8143, 8169, 7872, 8157, 8132, 8103, 8142, 8153, 8051, 8104, 7420, 8169, 8166, 8105,0.12920880317687988
61, 8143, 8169, 7872, 8157, 8132, 8103, 8142, 8153, 8051, 8104, 7420, 8169, 8166, 8105,0.12920880317687988
62, 8124, 8141, 7853, 8144, 8147, 8094, 8148, 8149, 7954, 8115, 7443, 8145, 8159, 8096,0.1372222900390625
62, 8124, 8141, 7853, 8144, 8147, 8094, 8148, 8149, 7954, 8115, 7443, 8145, 8159, 8096,0.1372222900390625
63, 8135, 8161, 7853, 8153, 8145, 8097, 8139, 8148, 7973, 8095, 7421, 8145, 8144, 8092,0.14522624015808105
63, 8135, 8161, 7853, 8153, 8145, 8097, 8139, 8148, 7973, 8095, 7421, 8145, 8144, 8092,0.14522624015808105
64, 8131, 8153, 7851, 8148, 8132, 8103, 8141, 8142, 7987, 8078, 7400, 8137, 8147, 8076,0.1532280445098877
64, 8131, 8153, 7851, 8148, 8132, 8103, 8141, 8142, 7987, 8078, 7400, 8137, 8147, 8076,0.1532280445098877
65, 8136, 8132, 7853, 8143, 8159, 8107, 8156, 8134, 7908, 8111, 7431, 8130, 8162, 8085,0.16063714027404785
65, 8136, 8132, 7853, 8143, 8159, 8107, 8156, 8134, 7908, 8111, 7431, 8130, 8162, 8085,0.16063714027404785
66, 8139, 8174, 7876, 8161, 8160, 8102, 8135, 8149, 8066, 8105, 7444, 8170, 8164, 8100,0.1696324348449707
66, 8139, 8174, 7876, 8161, 8160, 8102, 8135, 8149, 8066, 8105, 7444, 8170, 8164, 8100,0.1696324348449707
67, 8123, 8147, 7855, 8157, 8162, 8102, 8143, 8146, 7989, 8126, 7455, 8136, 8157, 8094,0.17722487449645996
67, 8123, 8147, 7855, 8157, 8162, 8102, 8143, 8146, 7989, 8126, 7455, 8136, 8157, 8094,0.17722487449645996
68, 8142, 8147, 7853, 8153, 8146, 8100, 8145, 8132, 7979, 8125, 7441, 8135, 8161, 8099,0.18422532081604004
68, 8142, 8147, 7853, 8153, 8146, 8100, 8145, 8132, 7979, 8125, 7441, 8135, 8161, 8099,0.18422532081604004
69, 8123, 8153, 7858, 8136, 8140, 8090, 8138, 8129, 8012, 8096, 7442, 8152, 8166, 8088,0.1923351287841797
69, 8123, 8153, 7858, 8136, 8140, 8090, 8138, 8129, 8012, 8096, 7442, 8152, 8166, 8088,0.1923351287841797
70, 8112, 8139, 7857, 8140, 8166, 8089, 8148, 8146, 7940, 8113, 7470, 8143, 8155, 8092,0.20033740997314453
70, 8112, 8139, 7857, 8140, 8166, 8089, 8148, 8146, 7940, 8113, 7470, 8143, 8155, 8092,0.20033740997314453
71, 8134, 8166, 7870, 8158, 8145, 8079, 8143, 8157, 8065, 8104, 7446, 8163, 8152, 8094,0.20818638801574707
71, 8134, 8166, 7870, 8158, 8145, 8079, 8143, 8157, 8065, 8104, 7446, 8163, 8152, 8094,0.20818638801574707
72, 8132, 8144, 7857, 8138, 8154, 8082, 8169, 8142, 7973, 8115, 7454, 8136, 8163, 8089,0.2163529396057129
72, 8132, 8144, 7857, 8138, 8154, 8082, 8169, 8142, 7973, 8115, 7454, 8136, 8163, 8089,0.2163529396057129
73, 8150, 8166, 7875, 8148, 8172, 8103, 8176, 8152, 8017, 8122, 7487, 8162, 8173, 8122,0.22426533699035645
73, 8150, 8166, 7875, 8148, 8172, 8103, 8176, 8152, 8017, 8122, 7487, 8162, 8173, 8122,0.22426533699035645
74, 8152, 8184, 7896, 8169, 8163, 8101, 8166, 8166, 8144, 8129, 7502, 8182, 8175, 8135,0.23221635818481445
74, 8152, 8184, 7896, 8169, 8163, 8101, 8166, 8166, 8144, 8129, 7502, 8182, 8175, 8135,0.23221635818481445
75, 8164, 8152, 7889, 8165, 8174, 8094, 8176, 8153, 8035, 8159, 7507, 8145, 8161, 8137,0.23923468589782715
75, 8164, 8152, 7889, 8165, 8174, 8094, 8176, 8153, 8035, 8159, 7507, 8145, 8161, 8137,0.23923468589782715
76, 8172, 8170, 7895, 8161, 8159, 8084, 8155, 8151, 8108, 8120, 7485, 8164, 8151, 8129,0.2472372055053711
76, 8172, 8170, 7895, 8161, 8159, 8084, 8155, 8151, 8108, 8120, 7485, 8164, 8151, 8129,0.2472372055053711
77, 8136, 8145, 7869, 8147, 8158, 8083, 8159, 8153, 8027, 8114, 7488, 8133, 8154, 8099,0.25522661209106445
77, 8136, 8145, 7869, 8147, 8158, 8083, 8159, 8153, 8027, 8114, 7488, 8133, 8154, 8099,0.25522661209106445
78, 8143, 8149, 7860, 8151, 8157, 8096, 8160, 8148, 8002, 8118, 7481, 8131, 8159, 8094,0.26322436332702637
78, 8143, 8149, 7860, 8151, 8157, 8096, 8160, 8148, 8002, 8118, 7481, 8131, 8159, 8094,0.26322436332702637
79, 8139, 8157, 7874, 8145, 8150, 8092, 8142, 8143, 8077, 8093, 7476, 8166, 8154, 8094,0.2712242603302002
79, 8139, 8157, 7874, 8145, 8150, 8092, 8142, 8143, 8077, 8093, 7476, 8166, 8154, 8094,0.2712242603302002
80, 8143, 8134, 7873, 8146, 8176, 8084, 8163, 8148, 7992, 8132, 7514, 8143, 8158, 8115,0.2792167663574219
80, 8143, 8134, 7873, 8146, 8176, 8084, 8163, 8148, 7992, 8132, 7514, 8143, 8158, 8115,0.2792167663574219
81, 8180, 8174, 7890, 8165, 8160, 8091, 8166, 8160, 8125, 8144, 7507, 8157, 8169, 8134,0.2872583866119385
81, 8180, 8174, 7890, 8165, 8160, 8091, 8166, 8160, 8125, 8144, 7507, 8157, 8169, 8134,0.2872583866119385
82, 8154, 8154, 7882, 8147, 8153, 8112, 8166, 8149, 8067, 8133, 7501, 8143, 8159, 8119,0.29551076889038086
82, 8154, 8154, 7882, 8147, 8153, 8112, 8166, 8149, 8067, 8133, 7501, 8143, 8159, 8119,0.29551076889038086
83, 8150, 8147, 7878, 8149, 8151, 8117, 8157, 8141, 8009, 8123, 7503, 8145, 8149, 8127,0.3032267093658447
83, 8150, 8147, 7878, 8149, 8151, 8117, 8157, 8141, 8009, 8123, 7503, 8145, 8149, 8127,0.3032267093658447
84, 8164, 8172, 7891, 8166, 8136, 8096, 8141, 8143, 8110, 8113, 7496, 8165, 8153, 8137,0.3102238178253174
84, 8164, 8172, 7891, 8166, 8136, 8096, 8141, 8143, 8110, 8113, 7496, 8165, 8153, 8137,0.3102238178253174
85, 8159, 8148, 7887, 8158, 8166, 8098, 8160, 8142, 8016, 8135, 7523, 8139, 8159, 8144,0.318190336227417
85, 8159, 8148, 7887, 8158, 8166, 8098, 8160, 8142, 8016, 8135, 7523, 8139, 8159, 8144,0.318190336227417
86, 8167, 8172, 7897, 8165, 8155, 8102, 8155, 8156, 8122, 8122, 7519, 8168, 8164, 8149,0.32602477073669434
86, 8167, 8172, 7897, 8165, 8155, 8102, 8155, 8156, 8122, 8122, 7519, 8168, 8164, 8149,0.32602477073669434
87, 8148, 8154, 7870, 8149, 8134, 8089, 8162, 8152, 8089, 8124, 7512, 8154, 8159, 8129,0.33402371406555176
87, 8148, 8154, 7870, 8149, 8134, 8089, 8162, 8152, 8089, 8124, 7512, 8154, 8159, 8129,0.33402371406555176
88, 8145, 8146, 7860, 8142, 8143, 8089, 8170, 8144, 8013, 8127, 7510, 8135, 8152, 8123,0.34201812744140625
88, 8145, 8146, 7860, 8142, 8143, 8089, 8170, 8144, 8013, 8127, 7510, 8135, 8152, 8123,0.34201812744140625
89, 8148, 8169, 7877, 8160, 8145, 8095, 8157, 8154, 8128, 8111, 7508, 8162, 8157, 8120,0.35022711753845215
89, 8148, 8169, 7877, 8160, 8145, 8095, 8157, 8154, 8128, 8111, 7508, 8162, 8157, 8120,0.35022711753845215
90, 8159, 8144, 7867, 8161, 8167, 8107, 8178, 8152, 8047, 8161, 7546, 8143, 8165, 8130,0.35813379287719727
90, 8159, 8144, 7867, 8161, 8167, 8107, 8178, 8152, 8047, 8161, 7546, 8143, 8165, 8130,0.35813379287719727
91, 8178, 8173, 7884, 8161, 8152, 8104, 8167, 8143, 8127, 8158, 7538, 8164, 8166, 8141,0.36612558364868164
91, 8178, 8173, 7884, 8161, 8152, 8104, 8167, 8143, 8127, 8158, 7538, 8164, 8166, 8141,0.36612558364868164
92, 8140, 8160, 7876, 8149, 8140, 8089, 8154, 8141, 8106, 8136, 7522, 8153, 8159, 8121,0.37313055992126465
92, 8140, 8160, 7876, 8149, 8140, 8089, 8154, 8141, 8106, 8136, 7522, 8153, 8159, 8121,0.37313055992126465
93, 8143, 8143, 7857, 8149, 8145, 8097, 8171, 8158, 8032, 8144, 7528, 8138, 8155, 8126,0.3812241554260254
93, 8143, 8143, 7857, 8149, 8145, 8097, 8171, 8158, 8032, 8144, 7528, 8138, 8155, 8126,0.3812241554260254
94, 8148, 8162, 7863, 8142, 8118, 8100, 8169, 8158, 8132, 8127, 7527, 8162, 8158, 8128,0.3892672061920166
94, 8148, 8162, 7863, 8142, 8118, 8100, 8169, 8158, 8132, 8127, 7527, 8162, 8158, 8128,0.3892672061920166
95, 8117, 8134, 7855, 8127, 8130, 8096, 8176, 8137, 8015, 8143, 7557, 8134, 8161, 8123,0.3972175121307373
95, 8117, 8134, 7855, 8127, 8130, 8096, 8176, 8137, 8015, 8143, 7557, 8134, 8161, 8123,0.3972175121307373
96, 8146, 8164, 7870, 8153, 8130, 8101, 8164, 8145, 8089, 8137, 7550, 8150, 8162, 8136,0.4051976203918457
96, 8146, 8164, 7870, 8153, 8130, 8101, 8164, 8145, 8089, 8137, 7550, 8150, 8162, 8136,0.4051976203918457
97, 8160, 8160, 7865, 8154, 8126, 8096, 8162, 8144, 8106, 8134, 7541, 8147, 8160, 8126,0.41319727897644043
97, 8160, 8160, 7865, 8154, 8126, 8096, 8162, 8144, 8106, 8134, 7541, 8147, 8160, 8126,0.41319727897644043
98, 8153, 8139, 7853, 8142, 8143, 8087, 8168, 8135, 8014, 8151, 7568, 8136, 8161, 8123,0.4202158451080322
98, 8153, 8139, 7853, 8142, 8143, 8087, 8168, 8135, 8014, 8151, 7568, 8136, 8161, 8123,0.4202158451080322
99, 8149, 8172, 7871, 8151, 8130, 8090, 8157, 8151, 8150, 8146, 7562, 8170, 8164, 8121,0.42922091484069824
99, 8149, 8172, 7871, 8151, 8130, 8090, 8157, 8151, 8150, 8146, 7562, 8170, 8164, 8121,0.42922091484069824
100, 8149, 8150, 7860, 8145, 8138, 8097, 8182, 8159, 8076, 8177, 7564, 8140, 8162, 8126,0.43624353408813477
100, 8149, 8150, 7860, 8145, 8138, 8097, 8182, 8159, 8076, 8177, 7564, 8140, 8162, 8126,0.43624353408813477
101, 8163, 8157, 7856, 8142, 8128, 8076, 8167, 8152, 8100, 8162, 7554, 8149, 8159, 8138,0.4442427158355713
101, 8163, 8157, 7856, 8142, 8128, 8076, 8167, 8152, 8100, 8162, 7554, 8149, 8159, 8138,0.4442427158355713
102, 8131, 8152, 7853, 8133, 8120, 8065, 8149, 8144, 8112, 8139, 7549, 8152, 8159, 8115,0.4521937370300293
102, 8131, 8152, 7853, 8133, 8120, 8065, 8149, 8144, 8112, 8139, 7549, 8152, 8159, 8115,0.4521937370300293
103, 8148, 8144, 7863, 8141, 8144, 8094, 8182, 8150, 8039, 8160, 7563, 8134, 8162, 8121,0.46022868156433105
103, 8148, 8144, 7863, 8141, 8144, 8094, 8182, 8150, 8039, 8160, 7563, 8134, 8162, 8121,0.46022868156433105
104, 8180, 8179, 7891, 8158, 8134, 8102, 8178, 8159, 8196, 8153, 7562, 8165, 8163, 8148,0.4681863784790039
104, 8180, 8179, 7891, 8158, 8134, 8102, 8178, 8159, 8196, 8153, 7562, 8165, 8163, 8148,0.4681863784790039
105, 8150, 8146, 7871, 8147, 8151, 8099, 8178, 8153, 8118, 8173, 7571, 8138, 8157, 8140,0.47622251510620117
105, 8150, 8146, 7871, 8147, 8151, 8099, 8178, 8153, 8118, 8173, 7571, 8138, 8157, 8140,0.47622251510620117
106, 8159, 8157, 7870, 8154, 8148, 8104, 8179, 8156, 8112, 8164, 7545, 8141, 8156, 8129,0.48369622230529785
106, 8159, 8157, 7870, 8154, 8148, 8104, 8179, 8156, 8112, 8164, 7545, 8141, 8156, 8129,0.48369622230529785
107, 8147, 8160, 7876, 8142, 8129, 8097, 8169, 8154, 8146, 8137, 7542, 8147, 8162, 8118,0.4922199249267578
107, 8147, 8160, 7876, 8142, 8129, 8097, 8169, 8154, 8146, 8137, 7542, 8147, 8162, 8118,0.4922199249267578
108, 8138, 8138, 7878, 8134, 8151, 8104, 8180, 8154, 8065, 8164, 7577, 8131, 8160, 8128,0.4992215633392334
108, 8138, 8138, 7878, 8134, 8151, 8104, 8180, 8154, 8065, 8164, 7577, 8131, 8160, 8128,0.4992215633392334
109, 8168, 8175, 7911, 8159, 8148, 8118, 8188, 8168, 8228, 8168, 7576, 8175, 8166, 8146,0.5072238445281982
109, 8168, 8175, 7911, 8159, 8148, 8118, 8188, 8168, 8228, 8168, 7576, 8175, 8166, 8146,0.5072238445281982
110, 8150, 8148, 7893, 8146, 8153, 8121, 8202, 8162, 8164, 8173, 7582, 8152, 8166, 8145,0.5151882171630859
110, 8150, 8148, 7893, 8146, 8153, 8121, 8202, 8162, 8164, 8173, 7582, 8152, 8166, 8145,0.5151882171630859
111, 8138, 8147, 7869, 8144, 8149, 8121, 8179, 8151, 8117, 8150, 7561, 8136, 8147, 8132,0.5231971740722656
111, 8138, 8147, 7869, 8144, 8149, 8121, 8179, 8151, 8117, 8150, 7561, 8136, 8147, 8132,0.5231971740722656
112, 8138, 8158, 7877, 8149, 8145, 8125, 8171, 8150, 8161, 8135, 7548, 8148, 8145, 8122,0.5312223434448242
112, 8138, 8158, 7877, 8149, 8145, 8125, 8171, 8150, 8161, 8135, 7548, 8148, 8145, 8122,0.5312223434448242
113, 8154, 8137, 7887, 8134, 8173, 8137, 8205, 8164, 8090, 8176, 7587, 8140, 8157, 8155,0.5392613410949707
113, 8154, 8137, 7887, 8134, 8173, 8137, 8205, 8164, 8090, 8176, 7587, 8140, 8157, 8155,0.5392613410949707
114, 8176, 8172, 7898, 8142, 8157, 8131, 8191, 8180, 8236, 8168, 7574, 8172, 8160, 8170,0.5472619533538818
114, 8176, 8172, 7898, 8142, 8157, 8131, 8191, 8180, 8236, 8168, 7574, 8172, 8160, 8170,0.5472619533538818
115, 8158, 8154, 7878, 8154, 8157, 8130, 8197, 8157, 8158, 8164, 7559, 8138, 8148, 8136,0.5553815364837646
115, 8158, 8154, 7878, 8154, 8157, 8130, 8197, 8157, 8158, 8164, 7559, 8138, 8148, 8136,0.5553815364837646
116, 8159, 8151, 7890, 8167, 8168, 8145, 8204, 8136, 8104, 8153, 7564, 8133, 8140, 8128,0.563380241394043
116, 8159, 8151, 7890, 8167, 8168, 8145, 8204, 8136, 8104, 8153, 7564, 8133, 8140, 8128,0.563380241394043
117, 8146, 8158, 7902, 8162, 8154, 8149, 8186, 8150, 8197, 8132, 7569, 8159, 8153, 8121,0.5703845024108887
117, 8146, 8158, 7902, 8162, 8154, 8149, 8186, 8150, 8197, 8132, 7569, 8159, 8153, 8121,0.5703845024108887
118, 8154, 8133, 7882, 8161, 8167, 8155, 8200, 8160, 8099, 8163, 7572, 8134, 8156, 8124,0.5781848430633545
118, 8154, 8133, 7882, 8161, 8167, 8155, 8200, 8160, 8099, 8163, 7572, 8134, 8156, 8124,0.5781848430633545
119, 8175, 8169, 7895, 8174, 8152, 8149, 8178, 8143, 8159, 8133, 7530, 8152, 8145, 8130,0.586216926574707
119, 8175, 8169, 7895, 8174, 8152, 8149, 8178, 8143, 8159, 8133, 7530, 8152, 8145, 8130,0.586216926574707
120, 8135, 8149, 7887, 8159, 8144, 8134, 8163, 8120, 8076, 8109, 7536, 8138, 8147, 8116,0.5942251682281494
120, 8135, 8149, 7887, 8159, 8144, 8134, 8163, 8120, 8076, 8109, 7536, 8138, 8147, 8116,0.594534158706665
121, 8143, 8142, 7875, 8162, 8147, 8137, 8174, 8140, 8059, 8127, 7553, 8141, 8162, 8124,0.6015396118164062
121, 8143, 8142, 7875, 8162, 8147, 8137, 8174, 8140, 8059, 8127, 7553, 8141, 8162, 8124,0.6015396118164062
122, 8164, 8164, 7873, 8166, 8137, 8139, 8182, 8160, 8178, 8128, 7530, 8164, 8158, 8121,0.6095399856567383
122, 8164, 8164, 7873, 8166, 8137, 8139, 8182, 8160, 8178, 8128, 7530, 8164, 8158, 8121,0.6105399131774902
123, 8162, 8141, 7875, 8160, 8161, 8145, 8202, 8149, 8066, 8161, 7557, 8143, 8154, 8128,0.617542028427124
123, 8162, 8141, 7875, 8160, 8161, 8145, 8202, 8149, 8066, 8161, 7557, 8143, 8154, 8128,0.6185402870178223
124, 8176, 8176, 7908, 8176, 8151, 8141, 8180, 8152, 8169, 8152, 7561, 8169, 8165, 8146,0.6255397796630859
124, 8176, 8176, 7908, 8176, 8151, 8141, 8180, 8152, 8169, 8152, 7561, 8169, 8165, 8146,0.6265401840209961
125, 8165, 8168, 7894, 8166, 8148, 8131, 8175, 8149, 8143, 8133, 7543, 8147, 8160, 8127,0.6335406303405762
125, 8165, 8168, 7894, 8166, 8148, 8131, 8175, 8149, 8143, 8133, 7543, 8147, 8160, 8127,0.6345405578613281
126, 8175, 8157, 7882, 8160, 8166, 8143, 8191, 8145, 8076, 8136, 7545, 8137, 8156, 8132,0.6405417919158936
126, 8175, 8157, 7882, 8160, 8166, 8143, 8191, 8145, 8076, 8136, 7545, 8137, 8156, 8132,0.64154052734375
127, 8172, 8168, 7899, 8163, 8150, 8142, 8189, 8157, 8199, 8142, 7549, 8171, 8160, 8142,0.6485404968261719
127, 8172, 8168, 7899, 8163, 8150, 8142, 8189, 8157, 8199, 8142, 7549, 8171, 8160, 8142,0.6495397090911865
240, 8162, 8136, 7886, 8153, 8155, 8142, 8211, 8161, 8100, 8173, 7576, 8142, 8161, 8142,0.6575407981872559
240, 8162, 8136, 7886, 8153, 8155, 8142, 8211, 8161, 8100, 8173, 7576, 8142, 8161, 8142,0.6575407981872559
0, 8190, 8165, 7891, 8161, 8144, 8148, 8202, 8158, 8159, 8149, 7576, 8157, 8164, 8149,0.6655411720275879
0, 8190, 8165, 7891, 8161, 8144, 8148, 8202, 8158, 8159, 8149, 7576, 8157, 8164, 8149,0.6655411720275879
1, 8168, 8156, 7886, 8150, 8142, 8144, 8190, 8143, 8140, 8140, 7576, 8151, 8160, 8138,0.6732966899871826
1, 8168, 8156, 7886, 8150, 8142, 8144, 8190, 8143, 8140, 8140, 7576, 8151, 8160, 8138,0.6732966899871826
2, 8157, 8146, 7886, 8147, 8156, 8144, 8193, 8141, 8062, 8150, 7581, 8141, 8154, 8140,0.6814098358154297
2, 8157, 8146, 7886, 8147, 8156, 8144, 8193, 8141, 8062, 8150, 7581, 8141, 8154, 8140,0.6814098358154297
3, 8171, 8173, 7906, 8165, 8140, 8138, 8173, 8154, 8188, 8125, 7572, 8174, 8161, 8148,0.6894173622131348
3, 8171, 8173, 7906, 8165, 8140, 8138, 8173, 8154, 8188, 8125, 7572, 8174, 8161, 8148,0.6894173622131348
4, 8170, 8145, 7892, 8163, 8144, 8137, 8176, 8146, 8099, 8156, 7588, 8143, 8158, 8153,0.6972217559814453
4, 8170, 8145, 7892, 8163, 8144, 8137, 8176, 8146, 8099, 8156, 7588, 8143, 8158, 8153,0.6972217559814453
5, 8186, 8169, 7895, 8164, 8133, 8138, 8174, 8138, 8146, 8150, 7573, 8155, 8146, 8153,0.7042393684387207
5, 8186, 8169, 7895, 8164, 8133, 8138, 8174, 8138, 8146, 8150, 7573, 8155, 8146, 8153,0.7042393684387207
6, 8164, 8166, 7899, 8152, 8135, 8139, 8180, 8144, 8157, 8137, 7576, 8164, 8154, 8138,0.7122220993041992
6, 8164, 8166, 7899, 8152, 8135, 8139, 8180, 8144, 8157, 8137, 7576, 8164, 8154, 8138,0.7122220993041992
7, 8170, 8150, 7906, 8162, 8158, 8149, 8191, 8151, 8103, 8172, 7607, 8152, 8163, 8152,0.7197740077972412
7, 8170, 8150, 7906, 8162, 8158, 8149, 8191, 8151, 8103, 8172, 7607, 8152, 8163, 8152,0.7197740077972412
8, 8179, 8180, 7928, 8175, 8147, 8143, 8166, 8148, 8245, 8154, 7600, 8174, 8164, 8155,0.7277736663818359
8, 8179, 8180, 7928, 8175, 8147, 8143, 8166, 8148, 8245, 8154, 7600, 8174, 8164, 8155,0.7277736663818359
9, 8143, 8149, 7902, 8153, 8157, 8125, 8163, 8136, 8117, 8139, 7610, 8142, 8156, 8134,0.7362239360809326
9, 8143, 8149, 7902, 8153, 8157, 8125, 8163, 8136, 8117, 8139, 7610, 8142, 8156, 8134,0.7367815971374512
10, 8152, 8155, 7889, 8160, 8144, 8119, 8158, 8135, 8108, 8133, 7589, 8153, 8144, 8130,0.7438440322875977
10, 8152, 8155, 7889, 8160, 8144, 8119, 8158, 8135, 8108, 8133, 7589, 8153, 8144, 8130,0.7448625564575195
11, 8153, 8157, 7894, 8158, 8126, 8128, 8161, 8127, 8145, 8134, 7573, 8159, 8147, 8113,0.7518143653869629
11, 8153, 8157, 7894, 8158, 8126, 8128, 8161, 8127, 8145, 8134, 7573, 8159, 8147, 8113,0.7518143653869629
12, 8156, 8142, 7901, 8151, 8149, 8139, 8177, 8128, 8063, 8137, 7601, 8140, 8153, 8112,0.7597942352294922
12, 8156, 8142, 7901, 8151, 8149, 8139, 8177, 8128, 8063, 8137, 7601, 8140, 8153, 8112,0.7597942352294922
13, 8159, 8176, 7905, 8164, 8133, 8132, 8162, 8134, 8159, 8100, 7587, 8161, 8151, 8110,0.7667956352233887
13, 8159, 8176, 7905, 8164, 8133, 8132, 8162, 8134, 8159, 8100, 7587, 8161, 8151, 8110,0.7677891254425049
14, 8138, 8150, 7875, 8152, 8133, 8137, 8176, 8117, 8047, 8119, 7585, 8129, 8151, 8098,0.7752218246459961
14, 8138, 8150, 7875, 8152, 8133, 8137, 8176, 8117, 8047, 8119, 7585, 8129, 8151, 8098,0.7752218246459961
15, 8145, 8159, 7887, 8152, 8145, 8151, 8186, 8126, 8083, 8133, 7591, 8143, 8152, 8105,0.7832217216491699
15, 8145, 8159, 7887, 8152, 8145, 8151, 8186, 8126, 8083, 8133, 7591, 8143, 8152, 8105,0.7832217216491699
16, 8129, 8159, 7883, 8150, 8145, 8147, 8175, 8146, 8157, 8109, 7584, 8151, 8149, 8094,0.7912209033966064
16, 8129, 8159, 7883, 8150, 8145, 8147, 8175, 8146, 8157, 8109, 7584, 8151, 8149, 8094,0.7912209033966064
17, 8125, 8131, 7860, 8146, 8151, 8136, 8170, 8132, 8021, 8110, 7594, 8123, 8152, 8094,0.7992603778839111
17, 8125, 8131, 7860, 8146, 8151, 8136, 8170, 8132, 8021, 8110, 7594, 8123, 8152, 8094,0.7992603778839111
18, 8139, 8167, 7892, 8161, 8126, 8124, 8139, 8123, 8126, 8122, 7608, 8161, 8164, 8105,0.8071911334991455
18, 8139, 8167, 7892, 8161, 8126, 8124, 8139, 8123, 8126, 8122, 7608, 8161, 8164, 8105,0.8071911334991455
19, 8136, 8151, 7900, 8159, 8143, 8130, 8154, 8126, 8098, 8167, 7639, 8149, 8163, 8111,0.8151874542236328
19, 8136, 8151, 7900, 8159, 8143, 8130, 8154, 8126, 8098, 8167, 7639, 8149, 8163, 8111,0.8151874542236328
20, 8166, 8163, 7899, 8168, 8160, 8149, 8176, 8131, 8118, 8151, 7639, 8153, 8162, 8140,0.8232216835021973
20, 8166, 8163, 7899, 8168, 8160, 8149, 8176, 8131, 8118, 8151, 7639, 8153, 8162, 8140,0.8232216835021973
21, 8156, 8175, 7902, 8172, 8151, 8154, 8171, 8131, 8187, 8118, 7637, 8174, 8166, 8143,0.8302211761474609
21, 8156, 8175, 7902, 8172, 8151, 8154, 8171, 8131, 8187, 8118, 7637, 8174, 8166, 8143,0.8302211761474609
22, 8152, 8148, 7906, 8172, 8165, 8154, 8181, 8124, 8077, 8149, 7657, 8157, 8161, 8139,0.8381848335266113
22, 8152, 8148, 7906, 8172, 8165, 8154, 8181, 8124, 8077, 8149, 7657, 8157, 8161, 8139,0.8381848335266113
23, 8181, 8180, 7937, 8186, 8156, 8146, 8164, 8124, 8185, 8134, 7640, 8179, 8161, 8142,0.8461294174194336
23, 8181, 8180, 7937, 8186, 8156, 8146, 8164, 8124, 8185, 8134, 7640, 8179, 8161, 8142,0.8461294174194336
24, 8161, 8162, 7926, 8177, 8177, 8156, 8175, 8128, 8142, 8148, 7664, 8162, 8165, 8135,0.8541228771209717
24, 8161, 8162, 7926, 8177, 8177, 8156, 8175, 8128, 8142, 8148, 7664, 8162, 8165, 8135,0.8541228771209717
25, 8176, 8162, 7919, 8184, 8187, 8173, 8189, 8137, 8138, 8169, 7677, 8167, 8167, 8144,0.8621187210083008
25, 8176, 8162, 7919, 8184, 8187, 8173, 8189, 8137, 8138, 8169, 7677, 8167, 8167, 8144,0.8621187210083008
26, 8192, 8181, 7930, 8191, 8155, 8152, 8168, 8133, 8225, 8144, 7660, 8179, 8162, 8145,0.8702220916748047
26, 8192, 8181, 7930, 8191, 8155, 8152, 8168, 8133, 8225, 8144, 7660, 8179, 8162, 8145,0.8702220916748047
27, 8182, 8160, 7926, 8189, 8172, 8139, 8168, 8127, 8117, 8163, 7686, 8152, 8160, 8155,0.8781857490539551
27, 8182, 8160, 7926, 8189, 8172, 8139, 8168, 8127, 8117, 8163, 7686, 8152, 8160, 8155,0.8781857490539551
28, 8193, 8183, 7930, 8191, 8171, 8146, 8158, 8133, 8215, 8148, 7673, 8176, 8160, 8156,0.8866498470306396
28, 8193, 8183, 7930, 8191, 8171, 8146, 8158, 8133, 8215, 8148, 7673, 8176, 8160, 8156,0.8866498470306396
29, 8170, 8153, 7902, 8157, 8166, 8156, 8165, 8119, 8141, 8126, 7672, 8155, 8159, 8129,0.8942158222198486
29, 8170, 8153, 7902, 8157, 8166, 8156, 8165, 8119, 8141, 8126, 7672, 8155, 8159, 8129,0.8942158222198486
30, 8171, 8154, 7908, 8167, 8174, 8169, 8168, 8123, 8107, 8140, 7699, 8161, 8165, 8141,0.9012272357940674
30, 8171, 8154, 7908, 8167, 8174, 8169, 8168, 8123, 8107, 8140, 7699, 8161, 8165, 8141,0.9012272357940674
31, 8172, 8181, 7929, 8186, 8163, 8162, 8149, 8135, 8232, 8130, 7688, 8185, 8163, 8146,0.9092216491699219
31, 8172, 8181, 7929, 8186, 8163, 8162, 8149, 8135, 8232, 8130, 7688, 8185, 8163, 8146,0.9092216491699219
32, 8155, 8144, 7904, 8157, 8171, 8149, 8152, 8109, 8072, 8139, 7679, 8137, 8151, 8132,0.917222261428833
32, 8155, 8144, 7904, 8157, 8171, 8149, 8152, 8109, 8072, 8139, 7679, 8137, 8151, 8132,0.917222261428833
33, 8166, 8175, 7921, 8170, 8149, 8147, 8142, 8114, 8148, 8143, 7680, 8164, 8157, 8135,0.9252214431762695
33, 8166, 8175, 7921, 8170, 8149, 8147, 8142, 8114, 8148, 8143, 7680, 8164, 8157, 8135,0.9252214431762695
34, 8164, 8170, 7925, 8187, 8153, 8156, 8168, 8146, 8192, 8153, 7707, 8176, 8168, 8137,0.933222770690918
34, 8164, 8170, 7925, 8187, 8153, 8156, 8168, 8146, 8192, 8153, 7707, 8176, 8168, 8137,0.9336509704589844
35, 8166, 8146, 7906, 8171, 8168, 8153, 8183, 8144, 8124, 8137, 7710, 8159, 8160, 8139,0.9412229061126709
35, 8166, 8146, 7906, 8171, 8168, 8153, 8183, 8144, 8124, 8137, 7710, 8159, 8160, 8139,0.9412229061126709
36, 8148, 8163, 7902, 8159, 8142, 8137, 8155, 8129, 8187, 8119, 7689, 8170, 8158, 8121,0.9492592811584473
36, 8148, 8163, 7902, 8159, 8142, 8137, 8155, 8129, 8187, 8119, 7689, 8170, 8158, 8121,0.9492592811584473
37, 8148, 8153, 7899, 8164, 8159, 8140, 8172, 8132, 8106, 8180, 7721, 8148, 8161, 8123,0.9572579860687256
37, 8148, 8153, 7899, 8164, 8159, 8140, 8172, 8132, 8106, 8180, 7721, 8148, 8161, 8123,0.9572579860687256
38, 8178, 8172, 7921, 8168, 8158, 8134, 8160, 8138, 8181, 8152, 7712, 8167, 8151, 8136,0.9642214775085449
38, 8178, 8172, 7921, 8168, 8158, 8134, 8160, 8138, 8181, 8152, 7712, 8167, 8151, 8136,0.9642214775085449
39, 8136, 8142, 7906, 8142, 8143, 8120, 8136, 8131, 8140, 8113, 7700, 8158, 8150, 8111,0.9722211360931396
39, 8136, 8142, 7906, 8142, 8143, 8120, 8136, 8131, 8140, 8113, 7700, 8158, 8150, 8111,0.9722211360931396
40, 8134, 8136, 7885, 8149, 8148, 8133, 8153, 8138, 8067, 8153, 7715, 8150, 8151, 8112,0.9802992343902588
40, 8134, 8136, 7885, 8149, 8148, 8133, 8153, 8138, 8067, 8153, 7715, 8150, 8151, 8112,0.9802992343902588
41, 8163, 8177, 7900, 8164, 8127, 8141, 8158, 8138, 8186, 8136, 7689, 8176, 8143, 8114,0.9883124828338623
41, 8163, 8177, 7900, 8164, 8127, 8141, 8158, 8138, 8186, 8136, 7689, 8176, 8143, 8114,0.9883124828338623
42, 8141, 8144, 7899, 8148, 8136, 8147, 8173, 8126, 8073, 8127, 7699, 8145, 8147, 8107,0.9965298175811768
42, 8141, 8144, 7899, 8148, 8136, 8147, 8173, 8126, 8073, 8127, 7699, 8145, 8147, 8107,0.9965298175811768
43, 8148, 8160, 7916, 8159, 8139, 8156, 8174, 8147, 8151, 8137, 7717, 8164, 8166, 8130,1.004530906677246
43, 8148, 8160, 7916, 8159, 8139, 8156, 8174, 8147, 8151, 8137, 7717, 8164, 8166, 8130,1.004530906677246
44, 8153, 8161, 7918, 8164, 8143, 8159, 8182, 8153, 8195, 8152, 7716, 8168, 8167, 8131,1.012329339981079
44, 8153, 8161, 7918, 8164, 8143, 8159, 8182, 8153, 8195, 8152, 7716, 8168, 8167, 8131,1.012329339981079
45, 8158, 8146, 7912, 8160, 8152, 8166, 8189, 8138, 8102, 8161, 7712, 8152, 8152, 8122,1.0202221870422363
45, 8158, 8146, 7912, 8160, 8152, 8166, 8189, 8138, 8102, 8161, 7712, 8152, 8152, 8122,1.0202221870422363
46, 8155, 8176, 7924, 8167, 8117, 8156, 8163, 8145, 8233, 8146, 7705, 8185, 8153, 8116,1.0272212028503418
46, 8155, 8176, 7924, 8167, 8117, 8156, 8163, 8145, 8233, 8146, 7705, 8185, 8153, 8116,1.0272212028503418
47, 8143, 8147, 7918, 8162, 8127, 8148, 8172, 8141, 8144, 8169, 7729, 8162, 8155, 8115,1.0351591110229492
47, 8143, 8147, 7918, 8162, 8127, 8148, 8172, 8141, 8144, 8169, 7729, 8162, 8155, 8115,1.0351591110229492
48, 8169, 8162, 7945, 8177, 8143, 8153, 8172, 8137, 8170, 8165, 7726, 8179, 8161, 8128,1.0431544780731201
48, 8169, 8162, 7945, 8177, 8143, 8153, 8172, 8137, 8170, 8165, 7726, 8179, 8161, 8128,1.0431544780731201
49, 8162, 8173, 7963, 8185, 8133, 8143, 8167, 8146, 8231, 8163, 7735, 8196, 8167, 8129,1.0511267185211182
49, 8162, 8173, 7963, 8185, 8133, 8143, 8167, 8146, 8231, 8163, 7735, 8196, 8167, 8129,1.0511267185211182
50, 8170, 8154, 7955, 8181, 8133, 8138, 8182, 8146, 8142, 8189, 7768, 8171, 8159, 8144,1.059140920639038
50, 8170, 8154, 7955, 8181, 8133, 8138, 8182, 8146, 8142, 8189, 7768, 8171, 8159, 8144,1.059140920639038
51, 8174, 8173, 7957, 8170, 8114, 8131, 8160, 8136, 8228, 8156, 7749, 8187, 8156, 8138,1.0672216415405273
51, 8174, 8173, 7957, 8170, 8114, 8131, 8160, 8136, 8228, 8156, 7749, 8187, 8156, 8138,1.0672216415405273
52, 8132, 8139, 7926, 8144, 8119, 8122, 8160, 8120, 8102, 8143, 7739, 8158, 8151, 8107,1.0752284526824951
52, 8132, 8139, 7926, 8144, 8119, 8122, 8160, 8120, 8102, 8143, 7739, 8158, 8151, 8107,1.0752284526824951
53, 8143, 8148, 7925, 8151, 8099, 8120, 8158, 8118, 8077, 8129, 7723, 8158, 8143, 8098,1.083230972290039
53, 8143, 8148, 7925, 8151, 8099, 8120, 8158, 8118, 8077, 8129, 7723, 8158, 8143, 8098,1.083230972290039
54, 8132, 8154, 7938, 8142, 8075, 8121, 8142, 8112, 8122, 8118, 7725, 8170, 8148, 8093,1.0911083221435547
54, 8132, 8154, 7938, 8142, 8075, 8121, 8142, 8112, 8122, 8118, 7725, 8170, 8148, 8093,1.0911083221435547
55, 8124, 8136, 7938, 8146, 8106, 8130, 8151, 8117, 8048, 8150, 7765, 8159, 8161, 8120,1.0981152057647705
55, 8124, 8136, 7938, 8146, 8106, 8130, 8151, 8117, 8048, 8150, 7765, 8159, 8161, 8120,1.0981152057647705
56, 8166, 8174, 7955, 8182, 8103, 8133, 8154, 8141, 8204, 8141, 7759, 8189, 8167, 8134,1.1062414646148682
56, 8166, 8174, 7955, 8182, 8103, 8133, 8154, 8141, 8204, 8141, 7759, 8189, 8167, 8134,1.1062414646148682
57, 8162, 8146, 7939, 8157, 8097, 8146, 8180, 8135, 8137, 8150, 7760, 8160, 8156, 8109,1.1142215728759766
57, 8162, 8146, 7939, 8157, 8097, 8146, 8180, 8135, 8137, 8150, 7760, 8160, 8156, 8109,1.1142215728759766
58, 8142, 8141, 7940, 8137, 8098, 8159, 8165, 8124, 8104, 8145, 7755, 8158, 8143, 8103,1.122469186782837
58, 8142, 8141, 7940, 8137, 8098, 8159, 8165, 8124, 8104, 8145, 7755, 8158, 8143, 8103,1.122469186782837
59, 8122, 8155, 7947, 8154, 8104, 8145, 8133, 8125, 8174, 8120, 7740, 8174, 8143, 8095,1.13022780418396
59, 8122, 8155, 7947, 8154, 8104, 8145, 8133, 8125, 8174, 8120, 7740, 8174, 8143, 8095,1.13022780418396
60, 8136, 8135, 7934, 8157, 8127, 8137, 8149, 8115, 8068, 8142, 7762, 8153, 8155, 8103,1.1382317543029785
60, 8136, 8135, 7934, 8157, 8127, 8137, 8149, 8115, 8068, 8142, 7762, 8153, 8155, 8103,1.1382317543029785
61, 8148, 8160, 7943, 8146, 8097, 8148, 8136, 8107, 8156, 8125, 7761, 8182, 8159, 8116,1.1462218761444092
61, 8148, 8160, 7943, 8146, 8097, 8148, 8136, 8107, 8156, 8125, 7761, 8182, 8159, 8116,1.1462218761444092
62, 8121, 8140, 7930, 8144, 8099, 8163, 8143, 8115, 8101, 8134, 7767, 8163, 8155, 8111,1.15421724319458
62, 8121, 8140, 7930, 8144, 8099, 8163, 8143, 8115, 8101, 8134, 7767, 8163, 8155, 8111,1.15421724319458
63, 8163, 8155, 7946, 8181, 8122, 8160, 8166, 8141, 8128, 8162, 7772, 8166, 8165, 8133,1.161217212677002
63, 8163, 8155, 7946, 8181, 8122, 8160, 8166, 8141, 8128, 8162, 7772, 8166, 8165, 8133,1.161217212677002
64, 8172, 8177, 7973, 8186, 8120, 8158, 8161, 8149, 8280, 8165, 7781, 8196, 8170, 8148,1.169227123260498
64, 8172, 8177, 7973, 8186, 8120, 8158, 8161, 8149, 8280, 8165, 7781, 8196, 8170, 8148,1.169227123260498
65, 8144, 8142, 7964, 8164, 8142, 8187, 8177, 8141, 8174, 8198, 7808, 8166, 8162, 8140,1.1772401332855225
65, 8144, 8142, 7964, 8164, 8142, 8187, 8177, 8141, 8174, 8198, 7808, 8166, 8162, 8140,1.1772401332855225
66, 8169, 8171, 7981, 8177, 8132, 8199, 8171, 8141, 8249, 8181, 7788, 8180, 8160, 8128,1.1856162548065186
66, 8169, 8171, 7981, 8177, 8132, 8199, 8171, 8141, 8249, 8181, 7788, 8180, 8160, 8128,1.1856162548065186
67, 8153, 8155, 7973, 8171, 8135, 8185, 8160, 8123, 8198, 8151, 7788, 8165, 8159, 8111,1.1932213306427002
67, 8153, 8155, 7973, 8171, 8135, 8185, 8160, 8123, 8198, 8151, 7788, 8165, 8159, 8111,1.1932213306427002
68, 8147, 8149, 7963, 8174, 8146, 8187, 8160, 8120, 8129, 8139, 7797, 8164, 8156, 8118,1.2022464275360107
68, 8147, 8149, 7963, 8174, 8146, 8187, 8160, 8120, 8129, 8139, 7797, 8164, 8156, 8118,1.2022464275360107
69, 8171, 8181, 7988, 8183, 8125, 8185, 8163, 8141, 8237, 8141, 7786, 8195, 8160, 8126,1.20924973487854
69, 8171, 8181, 7988, 8183, 8125, 8185, 8163, 8141, 8237, 8141, 7786, 8195, 8160, 8126,1.20924973487854
70, 8179, 8160, 7996, 8177, 8144, 8183, 8177, 8141, 8167, 8188, 7813, 8172, 8165, 8144,1.216839075088501
70, 8179, 8160, 7996, 8177, 8144, 8183, 8177, 8141, 8167, 8188, 7813, 8172, 8165, 8144,1.216839075088501
71, 8180, 8176, 8004, 8189, 8147, 8187, 8158, 8142, 8275, 8179, 7812, 8193, 8166, 8166,1.2239429950714111
71, 8180, 8176, 8004, 8189, 8147, 8187, 8158, 8142, 8275, 8179, 7812, 8193, 8166, 8166,1.2239429950714111
72, 8156, 8157, 7987, 8175, 8136, 8182, 8157, 8135, 8251, 8171, 7812, 8181, 8164, 8148,1.2319390773773193
72, 8156, 8157, 7987, 8175, 8136, 8182, 8157, 8135, 8251, 8171, 7812, 8181, 8164, 8148,1.2319390773773193
73, 8160, 8154, 7980, 8173, 8139, 8168, 8156, 8124, 8166, 8176, 7827, 8169, 8161, 8144,1.2402222156524658
73, 8160, 8154, 7980, 8173, 8139, 8168, 8156, 8124, 8166, 8176, 7827, 8169, 8161, 8144,1.2402222156524658
74, 8176, 8192, 8004, 8201, 8140, 8161, 8140, 8129, 8279, 8155, 7824, 8200, 8164, 8151,1.2481858730316162
74, 8176, 8192, 8004, 8201, 8140, 8161, 8140, 8129, 8279, 8155, 7824, 8200, 8164, 8151,1.2481858730316162
75, 8189, 8162, 8006, 8197, 8166, 8183, 8168, 8136, 8193, 8184, 7844, 8175, 8166, 8164,1.2562220096588135
75, 8189, 8162, 8006, 8197, 8166, 8183, 8168, 8136, 8193, 8184, 7844, 8175, 8166, 8164,1.2562220096588135
76, 8196, 8171, 8007, 8183, 8156, 8177, 8161, 8144, 8253, 8168, 7831, 8189, 8165, 8174,1.2643959522247314
76, 8196, 8171, 8007, 8183, 8156, 8177, 8161, 8144, 8253, 8168, 7831, 8189, 8165, 8174,1.2643959522247314
77, 8156, 8160, 7983, 8178, 8149, 8158, 8156, 8141, 8238, 8145, 7822, 8181, 8161, 8147,1.2722158432006836
77, 8156, 8160, 7983, 8178, 8149, 8158, 8156, 8141, 8238, 8145, 7822, 8181, 8161, 8147,1.2722158432006836
78, 8158, 8152, 7984, 8190, 8160, 8176, 8171, 8134, 8150, 8153, 7827, 8159, 8145, 8135,1.280029058456421
78, 8158, 8152, 7984, 8190, 8160, 8176, 8171, 8134, 8150, 8153, 7827, 8159, 8145, 8135,1.280029058456421
79, 8165, 8180, 8007, 8189, 8141, 8181, 8147, 8131, 8259, 8128, 7811, 8186, 8145, 8130,1.2884843349456787
79, 8165, 8180, 8007, 8189, 8141, 8181, 8147, 8131, 8259, 8128, 7811, 8186, 8145, 8130,1.2884843349456787
80, 8159, 8154, 7996, 8179, 8158, 8182, 8158, 8133, 8168, 8158, 7833, 8173, 8166, 8141,1.2954857349395752
80, 8159, 8154, 7996, 8179, 8158, 8182, 8158, 8133, 8168, 8158, 7833, 8173, 8166, 8141,1.2954857349395752
81, 8199, 8183, 8021, 8209, 8164, 8192, 8161, 8149, 8239, 8164, 7836, 8196, 8174, 8173,1.3032221794128418
81, 8199, 8183, 8021, 8209, 8164, 8192, 8161, 8149, 8239, 8164, 7836, 8196, 8174, 8173,1.3032221794128418
82, 8186, 8185, 8037, 8211, 8163, 8177, 8145, 8148, 8270, 8149, 7832, 8196, 8162, 8160,1.3112215995788574
82, 8186, 8185, 8037, 8211, 8163, 8177, 8145, 8148, 8270, 8149, 7832, 8196, 8162, 8160,1.3112215995788574
83, 8176, 8162, 8019, 8197, 8177, 8166, 8154, 8135, 8169, 8168, 7841, 8171, 8151, 8149,1.3188612461090088
83, 8176, 8162, 8019, 8197, 8177, 8166, 8154, 8135, 8169, 8168, 7841, 8171, 8151, 8149,1.3188612461090088
84, 8178, 8186, 8013, 8195, 8144, 8180, 8146, 8133, 8259, 8143, 7810, 8187, 8150, 8143,1.3268592357635498
84, 8178, 8186, 8013, 8195, 8144, 8180, 8146, 8133, 8259, 8143, 7810, 8187, 8150, 8143,1.3278558254241943
85, 8155, 8154, 7997, 8182, 8148, 8195, 8161, 8136, 8151, 8140, 7810, 8160, 8153, 8132,1.335221290588379
85, 8155, 8154, 7997, 8182, 8148, 8195, 8161, 8136, 8151, 8140, 7810, 8160, 8153, 8132,1.335221290588379
86, 8177, 8170, 8011, 8190, 8159, 8188, 8167, 8143, 8191, 8150, 7810, 8174, 8156, 8137,1.3429498672485352
86, 8177, 8170, 8011, 8190, 8159, 8188, 8167, 8143, 8191, 8150, 7810, 8174, 8156, 8137,1.3429498672485352
87, 8154, 8171, 8007, 8182, 8157, 8179, 8159, 8135, 8229, 8149, 7799, 8177, 8152, 8118,1.351407766342163
87, 8154, 8171, 8007, 8182, 8157, 8179, 8159, 8135, 8229, 8149, 7799, 8177, 8152, 8118,1.351407766342163
88, 8128, 8144, 7994, 8179, 8172, 8194, 8166, 8140, 8106, 8158, 7808, 8155, 8145, 8109,1.3584074974060059
88, 8128, 8144, 7994, 8179, 8172, 8194, 8166, 8140, 8106, 8158, 7808, 8155, 8145, 8109,1.3584074974060059
89, 8162, 8174, 8016, 8198, 8163, 8199, 8165, 8160, 8250, 8163, 7808, 8191, 8158, 8125,1.3662219047546387
89, 8162, 8174, 8016, 8198, 8163, 8199, 8165, 8160, 8250, 8163, 7808, 8191, 8158, 8125,1.3662219047546387
90, 8174, 8162, 8017, 8191, 8192, 8208, 8193, 8164, 8241, 8206, 7846, 8180, 8169, 8141,1.3742215633392334
90, 8174, 8162, 8017, 8191, 8192, 8208, 8193, 8164, 8241, 8206, 7846, 8180, 8169, 8141,1.3742215633392334
91, 8195, 8193, 8042, 8215, 8211, 8228, 8200, 8180, 8302, 8207, 7872, 8196, 8170, 8165,1.3822221755981445
91, 8195, 8193, 8042, 8215, 8211, 8228, 8200, 8180, 8302, 8207, 7872, 8196, 8170, 8165,1.3822221755981445
92, 8197, 8206, 8057, 8231, 8207, 8214, 8193, 8188, 8378, 8197, 7865, 8203, 8169, 8168,1.390216588973999
92, 8197, 8206, 8057, 8231, 8207, 8214, 8193, 8188, 8378, 8197, 7865, 8203, 8169, 8168,1.390216588973999
93, 8186, 8170, 8029, 8212, 8227, 8196, 8204, 8173, 8263, 8227, 7877, 8176, 8169, 8170,1.3981852531433105
93, 8186, 8170, 8029, 8212, 8227, 8196, 8204, 8173, 8263, 8227, 7877, 8176, 8169, 8170,1.3981852531433105
94, 8185, 8198, 8030, 8215, 8206, 8209, 8194, 8175, 8375, 8208, 7870, 8204, 8165, 8162,1.405789852142334
94, 8185, 8198, 8030, 8215, 8206, 8209, 8194, 8175, 8375, 8208, 7870, 8204, 8165, 8162,1.405789852142334
95, 8179, 8184, 8022, 8220, 8203, 8232, 8217, 8170, 8309, 8214, 7872, 8172, 8159, 8151,1.4137837886810303
95, 8179, 8184, 8022, 8220, 8203, 8232, 8217, 8170, 8309, 8214, 7872, 8172, 8159, 8151,1.4147794246673584
96, 8197, 8184, 8029, 8223, 8214, 8238, 8219, 8161, 8276, 8209, 7864, 8169, 8159, 8168,1.4227795600891113
96, 8197, 8184, 8029, 8223, 8214, 8238, 8219, 8161, 8276, 8209, 7864, 8169, 8159, 8168,1.4227795600891113
97, 8173, 8187, 8031, 8218, 8205, 8234, 8196, 8165, 8350, 8185, 7864, 8198, 8162, 8157,1.4292211532592773
97, 8173, 8187, 8031, 8218, 8205, 8234, 8196, 8165, 8350, 8185, 7864, 8198, 8162, 8157,1.4292211532592773
98, 8163, 8163, 8006, 8219, 8225, 8251, 8209, 8165, 8247, 8217, 7889, 8170, 8160, 8152,1.4372215270996094
98, 8163, 8163, 8006, 8219, 8225, 8251, 8209, 8165, 8247, 8217, 7889, 8170, 8160, 8152,1.4372215270996094
99, 8182, 8196, 8019, 8224, 8224, 8256, 8191, 8161, 8333, 8200, 7863, 8182, 8159, 8157,1.4452149868011475
99, 8182, 8196, 8019, 8224, 8224, 8256, 8191, 8161, 8333, 8200, 7863, 8182, 8159, 8157,1.4452149868011475
100, 8150, 8173, 8009, 8196, 8226, 8238, 8181, 8160, 8268, 8193, 7859, 8169, 8158, 8134,1.4531757831573486
100, 8150, 8173, 8009, 8196, 8226, 8238, 8181, 8160, 8268, 8193, 7859, 8169, 8158, 8134,1.4531757831573486
101, 8159, 8163, 7995, 8197, 8214, 8230, 8193, 8172, 8249, 8207, 7863, 8173, 8156, 8137,1.4611835479736328
101, 8159, 8163, 7995, 8197, 8214, 8230, 8193, 8172, 8249, 8207, 7863, 8173, 8156, 8137,1.4611835479736328
102, 8156, 8168, 7995, 8196, 8187, 8228, 8193, 8175, 8343, 8186, 7841, 8181, 8153, 8138,1.4691839218139648
102, 8156, 8168, 7995, 8196, 8187, 8228, 8193, 8175, 8343, 8186, 7841, 8181, 8153, 8138,1.4691839218139648
103, 8129, 8135, 7977, 8175, 8206, 8230, 8209, 8169, 8210, 8205, 7848, 8148, 8156, 8130,1.477222204208374
103, 8129, 8135, 7977, 8175, 8206, 8230, 8209, 8169, 8210, 8205, 7848, 8148, 8156, 8130,1.477222204208374
104, 8152, 8170, 7986, 8188, 8201, 8220, 8198, 8176, 8296, 8206, 7844, 8185, 8167, 8138,1.485222339630127
104, 8152, 8170, 7986, 8188, 8201, 8220, 8198, 8176, 8296, 8206, 7844, 8185, 8167, 8138,1.4855918884277344
105, 8135, 8160, 7977, 8185, 8210, 8224, 8202, 8163, 8251, 8194, 7855, 8177, 8162, 8127,1.4922220706939697
105, 8135, 8160, 7977, 8185, 8210, 8224, 8202, 8163, 8251, 8194, 7855, 8177, 8162, 8127,1.4922220706939697
106, 8124, 8149, 7968, 8180, 8229, 8246, 8211, 8158, 8180, 8195, 7856, 8155, 8149, 8117,1.5002214908599854
106, 8124, 8149, 7968, 8180, 8229, 8246, 8211, 8158, 8180, 8195, 7856, 8155, 8149, 8117,1.5002214908599854
107, 8122, 8160, 7955, 8167, 8204, 8237, 8194, 8171, 8279, 8190, 7827, 8166, 8152, 8102,1.508096694946289
107, 8122, 8160, 7955, 8167, 8204, 8237, 8194, 8171, 8279, 8190, 7827, 8166, 8152, 8102,1.508096694946289
108, 8093, 8120, 7914, 8130, 8205, 8223, 8196, 8161, 8147, 8193, 7829, 8132, 8154, 8089,1.5161054134368896
108, 8093, 8120, 7914, 8130, 8205, 8223, 8196, 8161, 8147, 8193, 7829, 8132, 8154, 8089,1.5161054134368896
109, 8088, 8138, 7917, 8131, 8191, 8213, 8177, 8157, 8191, 8162, 7815, 8149, 8151, 8079,1.524221658706665
109, 8088, 8138, 7917, 8131, 8191, 8213, 8177, 8157, 8191, 8162, 7815, 8149, 8151, 8079,1.524221658706665
110, 8091, 8131, 7918, 8135, 8179, 8210, 8182, 8161, 8187, 8180, 7821, 8150, 8157, 8075,1.5322248935699463
110, 8091, 8131, 7918, 8135, 8179, 8210, 8182, 8161, 8187, 8180, 7821, 8150, 8157, 8075,1.5322248935699463
111, 8113, 8140, 7924, 8143, 8185, 8220, 8193, 8165, 8146, 8204, 7841, 8145, 8163, 8107,1.5403730869293213
111, 8113, 8140, 7924, 8143, 8185, 8220, 8193, 8165, 8146, 8204, 7841, 8145, 8163, 8107,1.5403730869293213
112, 8104, 8175, 7937, 8152, 8178, 8209, 8166, 8165, 8246, 8175, 7834, 8163, 8161, 8110,1.5483672618865967
112, 8104, 8175, 7937, 8152, 8178, 8209, 8166, 8165, 8246, 8175, 7834, 8163, 8161, 8110,1.5483672618865967
113, 8100, 8138, 7920, 8141, 8209, 8200, 8184, 8155, 8121, 8201, 7865, 8130, 8159, 8104,1.5563888549804688
113, 8100, 8138, 7920, 8141, 8209, 8200, 8184, 8155, 8121, 8201, 7865, 8130, 8159, 8104,1.5563888549804688
114, 8116, 8146, 7921, 8137, 8202, 8198, 8182, 8150, 8172, 8182, 7863, 8147, 8156, 8106,1.5633912086486816
114, 8116, 8146, 7921, 8137, 8202, 8198, 8182, 8150, 8172, 8182, 7863, 8147, 8156, 8106,1.5633912086486816
115, 8070, 8131, 7899, 8115, 8185, 8190, 8171, 8151, 8171, 8157, 7836, 8139, 8148, 8078,1.5713965892791748
115, 8070, 8131, 7899, 8115, 8185, 8190, 8171, 8151, 8171, 8157, 7836, 8139, 8148, 8078,1.5713965892791748
116, 8076, 8114, 7889, 8110, 8202, 8196, 8193, 8167, 8104, 8192, 7832, 8119, 8145, 8078,1.579221248626709
116, 8076, 8114, 7889, 8110, 8202, 8196, 8193, 8167, 8104, 8192, 7832, 8119, 8145, 8078,1.579221248626709
117, 8099, 8151, 7910, 8121, 8184, 8198, 8187, 8181, 8233, 8178, 7827, 8155, 8152, 8079,1.5867347717285156
117, 8099, 8151, 7910, 8121, 8184, 8198, 8187, 8181, 8233, 8178, 7827, 8155, 8152, 8079,1.5867347717285156
118, 8082, 8134, 7901, 8119, 8189, 8193, 8178, 8174, 8133, 8185, 7861, 8143, 8159, 8079,1.5952212810516357
118, 8082, 8134, 7901, 8119, 8189, 8193, 8178, 8174, 8133, 8185, 7861, 8143, 8159, 8079,1.5952212810516357
119, 8119, 8156, 7922, 8138, 8190, 8195, 8172, 8175, 8188, 8192, 7865, 8158, 8164, 8109,1.6032228469848633
119, 8119, 8156, 7922, 8138, 8190, 8195, 8172, 8175, 8188, 8192, 7865, 8158, 8164, 8109,1.6032228469848633
120, 8109, 8151, 7925, 8124, 8178, 8200, 8180, 8158, 8190, 8168, 7845, 8153, 8158, 8101,1.6112213134765625
120, 8109, 8151, 7925, 8124, 8178, 8200, 8180, 8158, 8190, 8168, 7845, 8153, 8158, 8101,1.6112213134765625
121, 8082, 8127, 7910, 8104, 8180, 8198, 8175, 8140, 8033, 8146, 7847, 8135, 8147, 8085,1.61928129196167
121, 8082, 8127, 7910, 8104, 8180, 8198, 8175, 8140, 8033, 8146, 7847, 8135, 8147, 8085,1.61928129196167
122, 8101, 8154, 7920, 8119, 8166, 8192, 8155, 8164, 8167, 8131, 7839, 8162, 8149, 8088,1.6262640953063965
122, 8101, 8154, 7920, 8119, 8166, 8192, 8155, 8164, 8167, 8131, 7839, 8162, 8149, 8088,1.6262640953063965
123, 8101, 8125, 7911, 8116, 8187, 8211, 8188, 8178, 8148, 8174, 7849, 8132, 8158, 8092,1.6342270374298096
123, 8101, 8125, 7911, 8116, 8187, 8211, 8188, 8178, 8148, 8174, 7849, 8132, 8158, 8092,1.6342270374298096
124, 8097, 8134, 7922, 8113, 8187, 8223, 8184, 8174, 8169, 8169, 7832, 8139, 8157, 8090,1.6422576904296875
124, 8097, 8134, 7922, 8113, 8187, 8223, 8184, 8174, 8169, 8169, 7832, 8139, 8157, 8090,1.6422576904296875
125, 8081, 8139, 7927, 8113, 8173, 8209, 8164, 8181, 8207, 8152, 7826, 8149, 8156, 8082,1.6502573490142822
125, 8081, 8139, 7927, 8113, 8173, 8209, 8164, 8181, 8207, 8152, 7826, 8149, 8156, 8082,1.6502573490142822
126, 8096, 8125, 7917, 8115, 8193, 8210, 8188, 8188, 8139, 8182, 7853, 8128, 8157, 8101,1.6581885814666748
126, 8096, 8125, 7917, 8115, 8193, 8210, 8188, 8188, 8139, 8182, 7853, 8128, 8157, 8101,1.6581885814666748
127, 8099, 8151, 7923, 8110, 8168, 8199, 8165, 8179, 8241, 8158, 7836, 8154, 8155, 8094,1.6662254333496094
127, 8099, 8151, 7923, 8110, 8168, 8199, 8165, 8179, 8241, 8158, 7836, 8154, 8155, 8094,1.6662254333496094
240, 8065, 8115, 7903, 8082, 8154, 8185, 8153, 8156, 8111, 8151, 7836, 8129, 8153, 8065,1.674225091934204
240, 8065, 8115, 7903, 8082, 8154, 8185, 8153, 8156, 8111, 8151, 7836, 8129, 8153, 8065,1.674225091934204
0, 8087, 8126, 7912, 8091, 8149, 8191, 8158, 8155, 8083, 8148, 7838, 8132, 8155, 8067,1.6813008785247803
0, 8087, 8126, 7912, 8091, 8149, 8191, 8158, 8155, 8083, 8148, 7838, 8132, 8155, 8067,1.6813008785247803
1, 8087, 8148, 7927, 8101, 8142, 8192, 8153, 8159, 8138, 8126, 7837, 8151, 8157, 8056,1.6888511180877686
1, 8087, 8148, 7927, 8101, 8142, 8192, 8153, 8159, 8138, 8126, 7837, 8151, 8157, 8056,1.6898512840270996
2, 8089, 8124, 7915, 8099, 8156, 8195, 8165, 8153, 8027, 8143, 7850, 8125, 8149, 8060,1.696850061416626
2, 8089, 8124, 7915, 8099, 8156, 8195, 8165, 8153, 8027, 8143, 7850, 8125, 8149, 8060,1.696850061416626
3, 8107, 8142, 7923, 8104, 8133, 8197, 8155, 8154, 8136, 8127, 7823, 8142, 8140, 8072,1.7048492431640625
3, 8107, 8142, 7923, 8104, 8133, 8197, 8155, 8154, 8136, 8127, 7823, 8142, 8140, 8072,1.7048492431640625
4, 8071, 8119, 7911, 8095, 8144, 8195, 8155, 8156, 8088, 8134, 7835, 8128, 8143, 8060,1.7128520011901855
4, 8071, 8119, 7911, 8095, 8144, 8195, 8155, 8156, 8088, 8134, 7835, 8128, 8143, 8060,1.7128520011901855
5, 8078, 8131, 7912, 8113, 8157, 8195, 8151, 8166, 8097, 8145, 7849, 8135, 8153, 8074,1.7208492755889893
5, 8078, 8131, 7912, 8113, 8157, 8195, 8151, 8166, 8097, 8145, 7849, 8135, 8153, 8074,1.7215018272399902
6, 8086, 8146, 7912, 8114, 8139, 8198, 8149, 8165, 8184, 8127, 7831, 8147, 8157, 8075,1.7295122146606445
6, 8086, 8146, 7912, 8114, 8139, 8198, 8149, 8165, 8184, 8127, 7831, 8147, 8157, 8075,1.7295122146606445
7, 8073, 8116, 7893, 8098, 8144, 8207, 8167, 8159, 8059, 8137, 7854, 8121, 8157, 8072,1.7365083694458008
7, 8073, 8116, 7893, 8098, 8144, 8207, 8167, 8159, 8059, 8137, 7854, 8121, 8157, 8072,1.7375092506408691
8, 8095, 8149, 7914, 8118, 8126, 8199, 8147, 8175, 8168, 8138, 7865, 8156, 8166, 8092,1.7435104846954346
8, 8095, 8149, 7914, 8118, 8126, 8199, 8147, 8175, 8168, 8138, 7865, 8156, 8166, 8092,1.7445094585418701
9, 8098, 8138, 7920, 8118, 8139, 8197, 8161, 8172, 8146, 8176, 7885, 8146, 8165, 8101,1.7525107860565186
9, 8098, 8138, 7920, 8118, 8139, 8197, 8161, 8172, 8146, 8176, 7885, 8146, 8165, 8101,1.7525107860565186
10, 8111, 8147, 7933, 8122, 8162, 8213, 8182, 8170, 8135, 8191, 7903, 8143, 8155, 8115,1.7595083713531494
10, 8111, 8147, 7933, 8122, 8162, 8213, 8182, 8170, 8135, 8191, 7903, 8143, 8155, 8115,1.7605090141296387
11, 8109, 8170, 7950, 8137, 8148, 8214, 8167, 8183, 8250, 8157, 7897, 8164, 8155, 8110,1.7681903839111328
11, 8109, 8170, 7950, 8137, 8148, 8214, 8167, 8183, 8250, 8157, 7897, 8164, 8155, 8110,1.7681903839111328
12, 8105, 8131, 7931, 8131, 8157, 8218, 8174, 8177, 8123, 8171, 7893, 8131, 8151, 8100,1.776226282119751
12, 8105, 8131, 7931, 8131, 8157, 8218, 8174, 8177, 8123, 8171, 7893, 8131, 8151, 8100,1.776226282119751
13, 8123, 8155, 7932, 8127, 8140, 8221, 8161, 8171, 8191, 8160, 7876, 8153, 8151, 8105,1.7842257022857666
13, 8123, 8155, 7932, 8127, 8140, 8221, 8161, 8171, 8191, 8160, 7876, 8153, 8151, 8105,1.7842257022857666
14, 8106, 8154, 7928, 8121, 8131, 8211, 8154, 8164, 8168, 8152, 7895, 8149, 8158, 8102,1.7926678657531738
14, 8106, 8154, 7928, 8121, 8131, 8211, 8154, 8164, 8168, 8152, 7895, 8149, 8158, 8102,1.7926678657531738
15, 8107, 8150, 7938, 8136, 8145, 8205, 8154, 8160, 8108, 8148, 7902, 8142, 8161, 8112,1.7996673583984375
15, 8107, 8150, 7938, 8136, 8145, 8205, 8154, 8160, 8108, 8148, 7902, 8142, 8161, 8112,1.7996673583984375
16, 8102, 8165, 7955, 8139, 8130, 8205, 8139, 8170, 8198, 8125, 7878, 8163, 8157, 8100,1.8086779117584229
16, 8102, 8165, 7955, 8139, 8130, 8205, 8139, 8170, 8198, 8125, 7878, 8163, 8157, 8100,1.8086779117584229
17, 8103, 8137, 7940, 8132, 8140, 8221, 8154, 8176, 8094, 8156, 7892, 8138, 8154, 8093,1.8152215480804443
17, 8103, 8137, 7940, 8132, 8140, 8221, 8154, 8176, 8094, 8156, 7892, 8138, 8154, 8093,1.8152215480804443
18, 8145, 8170, 7954, 8158, 8144, 8224, 8157, 8181, 8190, 8160, 7890, 8167, 8159, 8115,1.82322096824646
18, 8145, 8170, 7954, 8158, 8144, 8224, 8157, 8181, 8190, 8160, 7890, 8167, 8159, 8115,1.8236944675445557
19, 8136, 8166, 7962, 8151, 8159, 8215, 8165, 8175, 8203, 8165, 7910, 8165, 8160, 8120,1.8312218189239502
19, 8136, 8166, 7962, 8151, 8159, 8215, 8165, 8175, 8203, 8165, 7910, 8165, 8160, 8120,1.8312218189239502
20, 8126, 8152, 7955, 8130, 8163, 8226, 8163, 8171, 8128, 8170, 7936, 8148, 8158, 8122,1.839582920074463
20, 8126, 8152, 7955, 8130, 8163, 8226, 8163, 8171, 8128, 8170, 7936, 8148, 8158, 8122,1.839582920074463
21, 8119, 8168, 7947, 8123, 8126, 8231, 8138, 8169, 8218, 8129, 7912, 8167, 8160, 8105,1.847221851348877
21, 8119, 8168, 7947, 8123, 8126, 8231, 8138, 8169, 8218, 8129, 7912, 8167, 8160, 8105,1.847221851348877
22, 8103, 8135, 7923, 8111, 8142, 8229, 8164, 8167, 8107, 8155, 7917, 8136, 8160, 8094,1.8549778461456299
22, 8103, 8135, 7923, 8111, 8142, 8229, 8164, 8167, 8107, 8155, 7917, 8136, 8160, 8094,1.8549778461456299
23, 8120, 8164, 7950, 8131, 8153, 8235, 8166, 8187, 8194, 8179, 7934, 8162, 8163, 8109,1.8629827499389648
23, 8120, 8164, 7950, 8131, 8153, 8235, 8166, 8187, 8194, 8179, 7934, 8162, 8163, 8109,1.8629827499389648
24, 8109, 8163, 7965, 8139, 8153, 8249, 8158, 8198, 8250, 8184, 7950, 8172, 8170, 8112,1.87101149559021
24, 8109, 8163, 7965, 8139, 8153, 8249, 8158, 8198, 8250, 8184, 7950, 8172, 8170, 8112,1.87101149559021
25, 8117, 8138, 7956, 8131, 8160, 8259, 8165, 8188, 8175, 8201, 7958, 8153, 8168, 8121,1.8787274360656738
25, 8117, 8138, 7956, 8131, 8160, 8259, 8165, 8188, 8175, 8201, 7958, 8153, 8168, 8121,1.8787274360656738
26, 8126, 8159, 7960, 8126, 8135, 8248, 8147, 8185, 8278, 8187, 7947, 8171, 8162, 8115,1.8857362270355225
26, 8126, 8159, 7960, 8126, 8135, 8248, 8147, 8185, 8278, 8187, 7947, 8171, 8162, 8115,1.8857362270355225
27, 8114, 8138, 7943, 8117, 8153, 8260, 8162, 8186, 8178, 8202, 7965, 8143, 8159, 8107,1.894221544265747
27, 8114, 8138, 7943, 8117, 8153, 8260, 8162, 8186, 8178, 8202, 7965, 8143, 8159, 8107,1.894221544265747
28, 8136, 8164, 7961, 8136, 8165, 8281, 8165, 8188, 8216, 8181, 7950, 8158, 8158, 8122,1.902193546295166
28, 8136, 8164, 7961, 8136, 8165, 8281, 8165, 8188, 8216, 8181, 7950, 8158, 8158, 8122,1.902193546295166
29, 8111, 8162, 7966, 8129, 8152, 8270, 8153, 8174, 8228, 8148, 7928, 8157, 8155, 8108,1.9102215766906738
29, 8111, 8162, 7966, 8129, 8152, 8270, 8153, 8174, 8228, 8148, 7928, 8157, 8155, 8108,1.9112505912780762
30, 8103, 8138, 7950, 8116, 8150, 8259, 8157, 8163, 8103, 8160, 7941, 8130, 8152, 8100,1.9182605743408203
30, 8103, 8138, 7950, 8116, 8150, 8259, 8157, 8163, 8103, 8160, 7941, 8130, 8152, 8100,1.919262170791626
31, 8118, 8164, 7964, 8124, 8132, 8250, 8139, 8170, 8206, 8145, 7932, 8168, 8155, 8107,1.9262969493865967
31, 8118, 8164, 7964, 8124, 8132, 8250, 8139, 8170, 8206, 8145, 7932, 8168, 8155, 8107,1.9262969493865967
32, 8090, 8137, 7950, 8111, 8148, 8240, 8144, 8171, 8123, 8153, 7946, 8148, 8158, 8107,1.933807134628296
32, 8090, 8137, 7950, 8111, 8148, 8240, 8144, 8171, 8123, 8153, 7946, 8148, 8158, 8107,1.933807134628296
33, 8098, 8152, 7946, 8113, 8141, 8232, 8142, 8175, 8140, 8156, 7939, 8147, 8160, 8113,1.9418067932128906
33, 8098, 8152, 7946, 8113, 8141, 8232, 8142, 8175, 8140, 8156, 7939, 8147, 8160, 8113,1.942800521850586
34, 8090, 8156, 7942, 8102, 8120, 8227, 8135, 8170, 8182, 8152, 7926, 8155, 8161, 8098,1.9486627578735352
34, 8090, 8156, 7942, 8102, 8120, 8227, 8135, 8170, 8182, 8152, 7926, 8155, 8161, 8098,1.9486627578735352
35, 8081, 8124, 7924, 8097, 8137, 8230, 8148, 8169, 8074, 8166, 7941, 8134, 8152, 8089,1.9576740264892578
35, 8081, 8124, 7924, 8097, 8137, 8230, 8148, 8169, 8074, 8166, 7941, 8134, 8152, 8089,1.9576740264892578
36, 8105, 8156, 7938, 8120, 8126, 8229, 8137, 8188, 8198, 8138, 7921, 8165, 8150, 8088,1.9656744003295898
36, 8105, 8156, 7938, 8120, 8126, 8229, 8137, 8188, 8198, 8138, 7921, 8165, 8150, 8088,1.9656744003295898
37, 8096, 8141, 7936, 8111, 8139, 8231, 8152, 8184, 8148, 8157, 7937, 8151, 8164, 8092,1.972966194152832
37, 8096, 8141, 7936, 8111, 8139, 8231, 8152, 8184, 8148, 8157, 7937, 8151, 8164, 8092,1.973984718322754
38, 8115, 8159, 7954, 8126, 8156, 8242, 8161, 8185, 8181, 8184, 7959, 8160, 8173, 8120,1.9810051918029785
38, 8115, 8159, 7954, 8126, 8156, 8242, 8161, 8185, 8181, 8184, 7959, 8160, 8173, 8120,1.9810051918029785
39, 8132, 8181, 7974, 8147, 8149, 8244, 8161, 8196, 8281, 8185, 7960, 8177, 8164, 8128,1.98909592628479
39, 8132, 8181, 7974, 8147, 8149, 8244, 8161, 8196, 8281, 8185, 7960, 8177, 8164, 8128,1.98909592628479
40, 8131, 8152, 7969, 8135, 8164, 8240, 8174, 8188, 8169, 8203, 7973, 8148, 8156, 8135,1.9972214698791504
40, 8131, 8152, 7969, 8135, 8164, 8240, 8174, 8188, 8169, 8203, 7973, 8148, 8156, 8135,1.9972214698791504
41, 8124, 8167, 7971, 8126, 8147, 8227, 8148, 8184, 8254, 8168, 7951, 8165, 8159, 8127,2.0052216053009033
41, 8124, 8167, 7971, 8126, 8147, 8227, 8148, 8184, 8254, 8168, 7951, 8165, 8159, 8127,2.0052216053009033
42, 8099, 8135, 7944, 8115, 8151, 8221, 8150, 8182, 8175, 8160, 7947, 8141, 8159, 8101,2.0121161937713623
42, 8099, 8135, 7944, 8115, 8151, 8221, 8150, 8182, 8175, 8160, 7947, 8141, 8159, 8101,2.01314640045166
43, 8111, 8142, 7950, 8128, 8164, 8230, 8158, 8187, 8149, 8166, 7956, 8147, 8160, 8114,2.0206356048583984
43, 8111, 8142, 7950, 8128, 8164, 8230, 8158, 8187, 8149, 8166, 7956, 8147, 8160, 8114,2.0206356048583984
44, 8116, 8172, 7969, 8141, 8156, 8233, 8156, 8192, 8267, 8171, 7960, 8172, 8161, 8118,2.0276424884796143
44, 8116, 8172, 7969, 8141, 8156, 8233, 8156, 8192, 8267, 8171, 7960, 8172, 8161, 8118,2.0286359786987305
45, 8125, 8146, 7950, 8138, 8176, 8229, 8174, 8183, 8178, 8212, 7977, 8140, 8159, 8119,2.0356574058532715
45, 8125, 8146, 7950, 8138, 8176, 8229, 8174, 8183, 8178, 8212, 7977, 8140, 8159, 8119,2.0356574058532715
46, 8127, 8162, 7951, 8142, 8158, 8215, 8146, 8178, 8241, 8176, 7959, 8153, 8162, 8124,2.044206142425537
46, 8127, 8162, 7951, 8142, 8158, 8215, 8146, 8178, 8241, 8176, 7959, 8153, 8162, 8124,2.044206142425537
47, 8093, 8146, 7942, 8130, 8152, 8219, 8142, 8180, 8176, 8162, 7959, 8140, 8161, 8107,2.0522139072418213
47, 8093, 8146, 7942, 8130, 8152, 8219, 8142, 8180, 8176, 8162, 7959, 8140, 8161, 8107,2.0522139072418213
48, 8115, 8149, 7945, 8127, 8167, 8226, 8158, 8183, 8149, 8187, 7964, 8142, 8157, 8109,2.060272216796875
48, 8115, 8149, 7945, 8127, 8167, 8226, 8158, 8183, 8149, 8187, 7964, 8142, 8157, 8109,2.060272216796875
49, 8121, 8170, 7959, 8126, 8152, 8200, 8138, 8180, 8248, 8172, 7964, 8163, 8159, 8110,2.068035125732422
49, 8121, 8170, 7959, 8126, 8152, 8200, 8138, 8180, 8248, 8172, 7964, 8163, 8159, 8110,2.068035125732422
50, 8110, 8149, 7958, 8119, 8158, 8189, 8142, 8177, 8138, 8185, 7991, 8135, 8162, 8120,2.0760385990142822
50, 8110, 8149, 7958, 8119, 8158, 8189, 8142, 8177, 8138, 8185, 7991, 8135, 8162, 8120,2.0760385990142822
51, 8135, 8167, 7974, 8119, 8143, 8190, 8134, 8178, 8222, 8178, 7974, 8162, 8160, 8129,2.083221435546875
51, 8135, 8167, 7974, 8119, 8143, 8190, 8134, 8178, 8222, 8178, 7974, 8162, 8160, 8129,2.083221435546875
52, 8111, 8143, 7963, 8106, 8144, 8178, 8136, 8172, 8186, 8173, 7974, 8156, 8157, 8112,2.091219425201416
52, 8111, 8143, 7963, 8106, 8144, 8178, 8136, 8172, 8186, 8173, 7974, 8156, 8157, 8112,2.091219425201416
53, 8116, 8151, 7965, 8128, 8162, 8183, 8157, 8185, 8144, 8182, 7988, 8142, 8161, 8122,2.0992233753204346
53, 8116, 8151, 7965, 8128, 8162, 8183, 8157, 8185, 8144, 8182, 7988, 8142, 8161, 8122,2.0992233753204346
54, 8140, 8182, 7981, 8139, 8156, 8195, 8167, 8200, 8284, 8175, 7968, 8163, 8166, 8132,2.10727858543396
54, 8140, 8182, 7981, 8139, 8156, 8195, 8167, 8200, 8284, 8175, 7968, 8163, 8166, 8132,2.10727858543396
55, 8129, 8148, 7972, 8120, 8179, 8203, 8185, 8192, 8187, 8195, 7998, 8145, 8161, 8133,2.115335464477539
55, 8129, 8148, 7972, 8120, 8179, 8203, 8185, 8192, 8187, 8195, 7998, 8145, 8161, 8133,2.115335464477539
56, 8140, 8184, 7999, 8148, 8183, 8192, 8175, 8202, 8288, 8200, 8023, 8180, 8164, 8148,2.1233315467834473
56, 8140, 8184, 7999, 8148, 8183, 8192, 8175, 8202, 8288, 8200, 8023, 8180, 8164, 8148,2.1233315467834473
57, 8150, 8190, 8007, 8165, 8190, 8186, 8187, 8216, 8338, 8230, 8026, 8180, 8177, 8157,2.131221294403076
57, 8150, 8190, 8007, 8165, 8190, 8186, 8187, 8216, 8338, 8230, 8026, 8180, 8177, 8157,2.131221294403076
58, 8178, 8172, 8004, 8164, 8207, 8205, 8208, 8214, 8275, 8249, 8028, 8159, 8171, 8175,2.1392202377319336
58, 8178, 8172, 8004, 8164, 8207, 8205, 8208, 8214, 8275, 8249, 8028, 8159, 8171, 8175,2.1392202377319336
59, 8171, 8193, 8017, 8166, 8196, 8197, 8182, 8210, 8379, 8205, 8021, 8185, 8159, 8172,2.146245002746582
59, 8171, 8193, 8017, 8166, 8196, 8197, 8182, 8210, 8379, 8205, 8021, 8185, 8159, 8172,2.146245002746582
60, 8141, 8166, 8003, 8158, 8219, 8185, 8186, 8205, 8278, 8218, 8039, 8165, 8159, 8163,2.1542434692382812
60, 8141, 8166, 8003, 8158, 8219, 8185, 8186, 8205, 8278, 8218, 8039, 8165, 8159, 8163,2.1542434692382812
61, 8171, 8182, 8014, 8166, 8214, 8191, 8189, 8212, 8337, 8233, 8040, 8180, 8170, 8174,2.1622233390808105
61, 8171, 8182, 8014, 8166, 8214, 8191, 8189, 8212, 8337, 8233, 8040, 8180, 8170, 8174,2.1622233390808105
62, 8159, 8176, 8013, 8159, 8192, 8181, 8183, 8207, 8352, 8227, 8050, 8175, 8174, 8163,2.1702218055725098
62, 8159, 8176, 8013, 8159, 8192, 8181, 8183, 8207, 8352, 8227, 8050, 8175, 8174, 8163,2.1702218055725098
63, 8159, 8171, 8009, 8168, 8204, 8172, 8182, 8199, 8248, 8235, 8056, 8157, 8161, 8167,2.17818546295166
63, 8159, 8171, 8009, 8168, 8204, 8172, 8182, 8199, 8248, 8235, 8056, 8157, 8161, 8167,2.17818546295166
64, 8197, 8213, 8043, 8187, 8202, 8179, 8176, 8207, 8384, 8227, 8045, 8199, 8167, 8190,2.186405658721924
64, 8197, 8213, 8043, 8187, 8202, 8179, 8176, 8207, 8384, 8227, 8045, 8199, 8167, 8190,2.186405658721924
65, 8198, 8189, 8056, 8181, 8221, 8197, 8199, 8210, 8342, 8255, 8088, 8193, 8182, 8203,2.194420576095581
65, 8198, 8189, 8056, 8181, 8221, 8197, 8199, 8210, 8342, 8255, 8088, 8193, 8182, 8203,2.194420576095581
66, 8215, 8206, 8075, 8199, 8221, 8209, 8187, 8218, 8397, 8254, 8096, 8212, 8178, 8214,2.202439308166504
66, 8215, 8206, 8075, 8199, 8221, 8209, 8187, 8218, 8397, 8254, 8096, 8212, 8178, 8214,2.202439308166504
67, 8212, 8207, 8079, 8198, 8215, 8216, 8171, 8206, 8423, 8247, 8083, 8210, 8173, 8210,2.2088069915771484
67, 8212, 8207, 8079, 8198, 8215, 8216, 8171, 8206, 8423, 8247, 8083, 8210, 8173, 8210,2.2088069915771484
68, 8215, 8182, 8086, 8193, 8233, 8225, 8188, 8195, 8337, 8271, 8109, 8189, 8175, 8229,2.2168025970458984
68, 8215, 8182, 8086, 8193, 8233, 8225, 8188, 8195, 8337, 8271, 8109, 8189, 8175, 8229,2.2168025970458984
69, 8224, 8212, 8110, 8205, 8210, 8220, 8179, 8209, 8466, 8245, 8103, 8216, 8173, 8235,2.2252213954925537
69, 8224, 8212, 8110, 8205, 8210, 8220, 8179, 8209, 8466, 8245, 8103, 8216, 8173, 8235,2.2252213954925537
70, 8206, 8189, 8088, 8186, 8211, 8213, 8180, 8200, 8353, 8249, 8106, 8183, 8168, 8215,2.2332212924957275
70, 8206, 8189, 8088, 8186, 8211, 8213, 8180, 8200, 8353, 8249, 8106, 8183, 8168, 8215,2.2332212924957275
71, 8216, 8203, 8091, 8193, 8216, 8203, 8164, 8192, 8349, 8251, 8105, 8187, 8170, 8218,2.2412428855895996
71, 8216, 8203, 8091, 8193, 8216, 8203, 8164, 8192, 8349, 8251, 8105, 8187, 8170, 8218,2.2412428855895996
72, 8200, 8204, 8097, 8192, 8212, 8199, 8164, 8203, 8420, 8236, 8089, 8197, 8167, 8206,2.2492423057556152
72, 8200, 8204, 8097, 8192, 8212, 8199, 8164, 8203, 8420, 8236, 8089, 8197, 8167, 8206,2.2492423057556152
73, 8192, 8175, 8073, 8172, 8235, 8213, 8200, 8206, 8316, 8256, 8094, 8175, 8168, 8203,2.2572216987609863
73, 8192, 8175, 8073, 8172, 8235, 8213, 8200, 8206, 8316, 8256, 8094, 8175, 8168, 8203,2.257736921310425
74, 8211, 8214, 8082, 8188, 8217, 8208, 8185, 8203, 8418, 8243, 8080, 8204, 8170, 8212,2.2652156352996826
74, 8211, 8214, 8082, 8188, 8217, 8208, 8185, 8203, 8418, 8243, 8080, 8204, 8170, 8212,2.2652156352996826
75, 8204, 8190, 8080, 8192, 8219, 8196, 8181, 8192, 8337, 8247, 8081, 8176, 8157, 8200,2.273221492767334
75, 8204, 8190, 8080, 8192, 8219, 8196, 8181, 8192, 8337, 8247, 8081, 8176, 8157, 8200,2.273221492767334
76, 8210, 8181, 8088, 8180, 8225, 8207, 8174, 8187, 8312, 8237, 8078, 8179, 8157, 8199,2.279801368713379
76, 8210, 8181, 8088, 8180, 8225, 8207, 8174, 8187, 8312, 8237, 8078, 8179, 8157, 8199,2.279801368713379
77, 8196, 8191, 8088, 8171, 8205, 8214, 8155, 8187, 8381, 8225, 8078, 8201, 8168, 8195,2.2886362075805664
77, 8196, 8191, 8088, 8171, 8205, 8214, 8155, 8187, 8381, 8225, 8078, 8201, 8168, 8195,2.2886362075805664
78, 8199, 8170, 8069, 8178, 8211, 8211, 8176, 8185, 8270, 8247, 8090, 8165, 8163, 8200,2.295908212661743
78, 8199, 8170, 8069, 8178, 8211, 8211, 8176, 8185, 8270, 8247, 8090, 8165, 8163, 8200,2.295908212661743
79, 8208, 8192, 8084, 8188, 8203, 8202, 8172, 8184, 8355, 8215, 8065, 8184, 8160, 8192,2.3042237758636475
79, 8208, 8192, 8084, 8188, 8203, 8202, 8172, 8184, 8355, 8215, 8065, 8184, 8160, 8192,2.3042237758636475
80, 8183, 8168, 8062, 8176, 8221, 8210, 8177, 8183, 8301, 8225, 8077, 8176, 8166, 8182,2.3122222423553467
80, 8183, 8168, 8062, 8176, 8221, 8210, 8177, 8183, 8301, 8225, 8077, 8176, 8166, 8182,2.3122222423553467
81, 8217, 8178, 8021, 8187, 8239, 8231, 8194, 8198, 8296, 8248, 8092, 8179, 8168, 8207,2.3203623294830322
81, 8217, 8178, 8021, 8187, 8239, 8231, 8194, 8198, 8296, 8248, 8092, 8179, 8168, 8207,2.3203623294830322
82, 8214, 8194, 7983, 8180, 8223, 8221, 8183, 8200, 8381, 8223, 8083, 8199, 8173, 8206,2.3281848430633545
82, 8214, 8194, 7983, 8180, 8223, 8221, 8183, 8200, 8381, 8223, 8083, 8199, 8173, 8206,2.3281848430633545
83, 8185, 8165, 7958, 8167, 8230, 8209, 8186, 8195, 8266, 8247, 8096, 8172, 8176, 8195,2.3362221717834473
83, 8185, 8165, 7958, 8167, 8230, 8209, 8186, 8195, 8266, 8247, 8096, 8172, 8176, 8195,2.3362221717834473
84, 8208, 8195, 7976, 8188, 8216, 8215, 8184, 8202, 8377, 8249, 8077, 8189, 8163, 8199,2.343247413635254
84, 8208, 8195, 7976, 8188, 8216, 8215, 8184, 8202, 8377, 8249, 8077, 8189, 8163, 8199,2.343247413635254
85, 8185, 8172, 7964, 8174, 8216, 8220, 8182, 8188, 8324, 8239, 8072, 8171, 8152, 8184,2.350855827331543
85, 8185, 8172, 7964, 8174, 8216, 8220, 8182, 8188, 8324, 8239, 8072, 8171, 8152, 8184,2.350855827331543
86, 8179, 8159, 7958, 8163, 8219, 8215, 8167, 8186, 8238, 8238, 8068, 8163, 8159, 8185,2.3588547706604004
86, 8179, 8159, 7958, 8163, 8219, 8215, 8167, 8186, 8238, 8238, 8068, 8163, 8159, 8185,2.3588547706604004
87, 8197, 8184, 7973, 8167, 8202, 8216, 8163, 8202, 8336, 8224, 8047, 8186, 8165, 8184,2.3672218322753906
87, 8197, 8184, 7973, 8167, 8202, 8216, 8163, 8202, 8336, 8224, 8047, 8186, 8165, 8184,2.3672218322753906
88, 8197, 8164, 7974, 8164, 8224, 8245, 8205, 8198, 8266, 8245, 8075, 8172, 8167, 8190,2.3752217292785645
88, 8197, 8164, 7974, 8164, 8224, 8245, 8205, 8198, 8266, 8245, 8075, 8172, 8167, 8190,2.3752217292785645
89, 8202, 8187, 7989, 8175, 8220, 8249, 8191, 8201, 8368, 8234, 8074, 8198, 8171, 8204,2.3832545280456543
89, 8202, 8187, 7989, 8175, 8220, 8249, 8191, 8201, 8368, 8234, 8074, 8198, 8171, 8204,2.3832545280456543
90, 8184, 8172, 7974, 8160, 8219, 8223, 8173, 8199, 8323, 8236, 8058, 8175, 8159, 8185,2.3912994861602783
90, 8184, 8172, 7974, 8160, 8219, 8223, 8173, 8199, 8323, 8236, 8058, 8175, 8159, 8185,2.3912994861602783
91, 8189, 8167, 7974, 8159, 8229, 8224, 8177, 8191, 8240, 8249, 8059, 8165, 8156, 8183,2.399306058883667
91, 8189, 8167, 7974, 8159, 8229, 8224, 8177, 8191, 8240, 8249, 8059, 8165, 8156, 8183,2.399306058883667
92, 8194, 8194, 7996, 8170, 8208, 8240, 8177, 8198, 8364, 8225, 8054, 8201, 8167, 8189,2.4062225818634033
92, 8194, 8194, 7996, 8170, 8208, 8240, 8177, 8198, 8364, 8225, 8054, 8201, 8167, 8189,2.4062225818634033
93, 8187, 8162, 7986, 8150, 8223, 8253, 8206, 8197, 8254, 8241, 8068, 8169, 8164, 8186,2.414222478866577
93, 8187, 8162, 7986, 8150, 8223, 8253, 8206, 8197, 8254, 8241, 8068, 8169, 8164, 8186,2.414222478866577
94, 8189, 8177, 7990, 8146, 8214, 8248, 8183, 8188, 8290, 8228, 8049, 8182, 8158, 8178,2.4222216606140137
94, 8189, 8177, 7990, 8146, 8214, 8248, 8183, 8188, 8290, 8228, 8049, 8182, 8158, 8178,2.4222216606140137
95, 8158, 8167, 7982, 8142, 8194, 8241, 8166, 8182, 8284, 8218, 8043, 8178, 8159, 8157,2.4302215576171875
95, 8158, 8167, 7982, 8142, 8194, 8241, 8166, 8182, 8284, 8218, 8043, 8178, 8159, 8157,2.4302215576171875
96, 8158, 8155, 7974, 8138, 8197, 8254, 8186, 8186, 8210, 8227, 8056, 8158, 8152, 8164,2.4387991428375244
96, 8158, 8155, 7974, 8138, 8197, 8254, 8186, 8186, 8210, 8227, 8056, 8158, 8152, 8164,2.4387991428375244
97, 8155, 8178, 7979, 8141, 8181, 8241, 8164, 8185, 8305, 8198, 8036, 8179, 8147, 8160,2.4467990398406982
97, 8155, 8178, 7979, 8141, 8181, 8241, 8164, 8185, 8305, 8198, 8036, 8179, 8147, 8160,2.4467990398406982
98, 8140, 8145, 7959, 8133, 8194, 8225, 8162, 8178, 8189, 8220, 8041, 8161, 8157, 8156,2.454221487045288
98, 8140, 8145, 7959, 8133, 8194, 8225, 8162, 8178, 8189, 8220, 8041, 8161, 8157, 8156,2.454221487045288
99, 8172, 8171, 7981, 8146, 8192, 8240, 8177, 8193, 8266, 8229, 8040, 8187, 8166, 8180,2.4622225761413574
99, 8172, 8171, 7981, 8146, 8192, 8240, 8177, 8193, 8266, 8229, 8040, 8187, 8166, 8180,2.4622225761413574
100, 8168, 8178, 7995, 8152, 8187, 8248, 8198, 8207, 8336, 8241, 8044, 8188, 8169, 8178,2.4702088832855225
100, 8168, 8178, 7995, 8152, 8187, 8248, 8198, 8207, 8336, 8241, 8044, 8188, 8169, 8178,2.4702088832855225
101, 8175, 8160, 7983, 8153, 8203, 8241, 8209, 8204, 8250, 8258, 8056, 8163, 8167, 8180,2.4772281646728516
101, 8175, 8160, 7983, 8153, 8203, 8241, 8209, 8204, 8250, 8258, 8056, 8163, 8167, 8180,2.4772281646728516
102, 8191, 8188, 7997, 8154, 8187, 8239, 8190, 8199, 8345, 8212, 8040, 8190, 8160, 8187,2.485222101211548
102, 8191, 8188, 7997, 8154, 8187, 8239, 8190, 8199, 8345, 8212, 8040, 8190, 8160, 8187,2.485222101211548
103, 8170, 8160, 7991, 8139, 8194, 8243, 8198, 8193, 8250, 8220, 8054, 8168, 8155, 8183,2.493222236633301
103, 8170, 8160, 7991, 8139, 8194, 8243, 8198, 8193, 8250, 8220, 8054, 8168, 8155, 8183,2.493222236633301
104, 8184, 8174, 7998, 8151, 8186, 8229, 8185, 8192, 8278, 8237, 8043, 8178, 8161, 8186,2.5006985664367676
104, 8184, 8174, 7998, 8151, 8186, 8229, 8185, 8192, 8278, 8237, 8043, 8178, 8161, 8186,2.5006985664367676
105, 8168, 8179, 7998, 8145, 8174, 8216, 8168, 8186, 8301, 8223, 8035, 8186, 8163, 8170,2.509221315383911
105, 8168, 8179, 7998, 8145, 8174, 8216, 8168, 8186, 8301, 8223, 8035, 8186, 8163, 8170,2.509221315383911
106, 8166, 8159, 7995, 8140, 8195, 8226, 8184, 8183, 8188, 8226, 8047, 8166, 8160, 8176,2.5172431468963623
106, 8166, 8159, 7995, 8140, 8195, 8226, 8184, 8183, 8188, 8226, 8047, 8166, 8160, 8176,2.5172431468963623
107, 8188, 8182, 8015, 8150, 8184, 8216, 8170, 8186, 8298, 8209, 8018, 8187, 8164, 8179,2.5252418518066406
107, 8188, 8182, 8015, 8150, 8184, 8216, 8170, 8186, 8298, 8209, 8018, 8187, 8164, 8179,2.5252418518066406
108, 8162, 8151, 8001, 8132, 8189, 8203, 8172, 8178, 8207, 8217, 8027, 8160, 8162, 8164,2.5332224369049072
108, 8162, 8151, 8001, 8132, 8189, 8203, 8172, 8178, 8207, 8217, 8027, 8160, 8162, 8164,2.5332224369049072
109, 8167, 8167, 8002, 8140, 8182, 8198, 8177, 8188, 8219, 8210, 8029, 8165, 8161, 8176,2.540221691131592
109, 8167, 8167, 8002, 8140, 8182, 8198, 8177, 8188, 8219, 8210, 8029, 8165, 8161, 8176,2.540221691131592
110, 8167, 8174, 8003, 8141, 8162, 8181, 8171, 8195, 8286, 8204, 8016, 8179, 8163, 8177,2.548003911972046
110, 8167, 8174, 8003, 8141, 8162, 8181, 8171, 8195, 8286, 8204, 8016, 8179, 8163, 8177,2.548003911972046
111, 8156, 8142, 7996, 8135, 8184, 8189, 8173, 8187, 8176, 8230, 8032, 8161, 8161, 8173,2.5560035705566406
111, 8156, 8142, 7996, 8135, 8184, 8189, 8173, 8187, 8176, 8230, 8032, 8161, 8161, 8173,2.5560035705566406
112, 8171, 8172, 8016, 8151, 8176, 8201, 8159, 8193, 8286, 8202, 8011, 8185, 8164, 8171,2.564547061920166
112, 8171, 8172, 8016, 8151, 8176, 8201, 8159, 8193, 8286, 8202, 8011, 8185, 8164, 8171,2.564547061920166
113, 8172, 8158, 8006, 8140, 8177, 8191, 8176, 8186, 8225, 8213, 8016, 8162, 8171, 8164,2.5725624561309814
113, 8172, 8158, 8006, 8140, 8177, 8191, 8176, 8186, 8225, 8213, 8016, 8162, 8171, 8164,2.5725624561309814
114, 8185, 8170, 8011, 8144, 8176, 8190, 8179, 8184, 8217, 8224, 8025, 8165, 8166, 8168,2.5802247524261475
114, 8185, 8170, 8011, 8144, 8176, 8190, 8179, 8184, 8217, 8224, 8025, 8165, 8166, 8168,2.5802247524261475
115, 8169, 8174, 8017, 8150, 8167, 8195, 8165, 8189, 8283, 8190, 8004, 8172, 8158, 8154,2.58774995803833
115, 8169, 8174, 8017, 8150, 8167, 8195, 8165, 8189, 8283, 8190, 8004, 8172, 8158, 8154,2.58774995803833
116, 8160, 8139, 8005, 8142, 8187, 8203, 8186, 8178, 8154, 8199, 8012, 8143, 8158, 8156,2.596743583679199
116, 8160, 8139, 8005, 8142, 8187, 8203, 8186, 8178, 8154, 8199, 8012, 8143, 8158, 8156,2.596743583679199
117, 8174, 8179, 8030, 8149, 8169, 8207, 8173, 8180, 8257, 8194, 8015, 8183, 8162, 8168,2.6042263507843018
117, 8174, 8179, 8030, 8149, 8169, 8207, 8173, 8180, 8257, 8194, 8015, 8183, 8162, 8168,2.604755401611328
118, 8168, 8166, 8022, 8150, 8176, 8216, 8172, 8189, 8231, 8216, 8026, 8172, 8165, 8161,2.611764430999756
118, 8168, 8166, 8022, 8150, 8176, 8216, 8172, 8189, 8231, 8216, 8026, 8172, 8165, 8161,2.611764430999756
119, 8193, 8159, 8009, 8158, 8188, 8227, 8179, 8188, 8201, 8218, 8019, 8163, 8159, 8168,2.6187822818756104
119, 8193, 8159, 8009, 8158, 8188, 8227, 8179, 8188, 8201, 8218, 8019, 8163, 8159, 8168,2.6197946071624756
120, 8182, 8182, 8024, 8159, 8161, 8229, 8172, 8180, 8268, 8176, 8012, 8191, 8164, 8163,2.627227306365967
120, 8182, 8182, 8024, 8159, 8161, 8229, 8172, 8180, 8268, 8176, 8012, 8191, 8164, 8163,2.627227306365967
121, 8177, 8169, 8037, 8155, 8167, 8242, 8188, 8188, 8172, 8199, 8053, 8179, 8174, 8175,2.635225296020508
121, 8177, 8169, 8037, 8155, 8167, 8242, 8188, 8188, 8172, 8199, 8053, 8179, 8174, 8175,2.635225296020508
122, 8228, 8199, 8066, 8173, 8170, 8243, 8173, 8204, 8315, 8205, 8055, 8205, 8178, 8207,2.643366813659668
122, 8228, 8199, 8066, 8173, 8170, 8243, 8173, 8204, 8315, 8205, 8055, 8205, 8178, 8207,2.643366813659668
123, 8215, 8181, 8059, 8166, 8176, 8234, 8172, 8185, 8291, 8206, 8058, 8188, 8175, 8201,2.651360511779785
123, 8215, 8181, 8059, 8166, 8176, 8234, 8172, 8185, 8291, 8206, 8058, 8188, 8175, 8201,2.651360511779785
124, 8208, 8176, 8057, 8173, 8173, 8230, 8172, 8170, 8210, 8210, 8066, 8182, 8169, 8198,2.659224510192871
124, 8208, 8176, 8057, 8173, 8173, 8230, 8172, 8170, 8210, 8210, 8066, 8182, 8169, 8198,2.659224510192871
125, 8218, 8205, 8076, 8185, 8159, 8206, 8144, 8171, 8297, 8187, 8045, 8208, 8160, 8196,2.667548656463623
125, 8218, 8205, 8076, 8185, 8159, 8206, 8144, 8171, 8297, 8187, 8045, 8208, 8160, 8196,2.667548656463623
126, 8215, 8178, 8073, 8176, 8183, 8204, 8156, 8163, 8176, 8188, 8044, 8180, 8155, 8197,2.673738718032837
126, 8215, 8178, 8073, 8176, 8183, 8204, 8156, 8163, 8176, 8188, 8044, 8180, 8155, 8197,2.674731969833374
127, 8233, 8202, 8085, 8190, 8166, 8224, 8168, 8174, 8249, 8174, 8033, 8198, 8163, 8202,2.6817336082458496
127, 8233, 8202, 8085, 8190, 8166, 8224, 8168, 8174, 8249, 8174, 8033, 8198, 8163, 8202,2.6817336082458496
240, 8223, 8195, 8078, 8188, 8169, 8226, 8176, 8179, 8255, 8188, 8037, 8190, 8163, 8195,2.690225601196289
240, 8223, 8195, 8078, 8188, 8169, 8226, 8176, 8179, 8255, 8188, 8037, 8190, 8163, 8195,2.690643787384033
0, 8216, 8177, 8077, 8184, 8192, 8217, 8167, 8172, 8186, 8188, 8036, 8179, 8158, 8201,2.6981823444366455
0, 8216, 8177, 8077, 8184, 8192, 8217, 8167, 8172, 8186, 8188, 8036, 8179, 8158, 8201,2.6981823444366455
1, 8215, 8195, 8094, 8191, 8160, 8199, 8138, 8168, 8262, 8149, 8013, 8207, 8163, 8191,2.706223964691162
1, 8215, 8195, 8094, 8191, 8160, 8199, 8138, 8168, 8262, 8149, 8013, 8207, 8163, 8191,2.706223964691162
2, 8216, 8174, 8081, 8186, 8162, 8188, 8142, 8151, 8125, 8165, 8017, 8175, 8155, 8181,2.7146928310394287
2, 8216, 8174, 8081, 8186, 8162, 8188, 8142, 8151, 8125, 8165, 8017, 8175, 8155, 8181,2.7146928310394287
3, 8231, 8201, 8096, 8199, 8169, 8193, 8133, 8159, 8192, 8160, 8007, 8195, 8153, 8198,2.7226977348327637
3, 8231, 8201, 8096, 8199, 8169, 8193, 8133, 8159, 8192, 8160, 8007, 8195, 8153, 8198,2.7226977348327637
4, 8210, 8194, 8100, 8196, 8167, 8199, 8134, 8173, 8220, 8159, 8007, 8196, 8159, 8192,2.7297229766845703
4, 8210, 8194, 8100, 8196, 8167, 8199, 8134, 8173, 8220, 8159, 8007, 8196, 8159, 8192,2.7297229766845703
5, 8227, 8182, 8098, 8193, 8178, 8195, 8143, 8163, 8127, 8165, 8008, 8175, 8157, 8189,2.7377195358276367
5, 8227, 8182, 8098, 8193, 8178, 8195, 8143, 8163, 8127, 8165, 8008, 8175, 8157, 8189,2.7377195358276367
6, 8236, 8206, 8113, 8204, 8166, 8188, 8128, 8160, 8233, 8133, 7992, 8205, 8163, 8194,2.7447192668914795
6, 8236, 8206, 8113, 8204, 8166, 8188, 8128, 8160, 8233, 8133, 7992, 8205, 8163, 8194,2.7447192668914795
7, 8213, 8177, 8105, 8210, 8183, 8193, 8147, 8170, 8173, 8166, 8028, 8188, 8176, 8201,2.752718210220337
7, 8213, 8177, 8105, 8210, 8183, 8193, 8147, 8170, 8173, 8166, 8028, 8188, 8176, 8201,2.752718210220337
8, 8243, 8215, 8134, 8234, 8195, 8194, 8146, 8181, 8264, 8200, 8041, 8206, 8174, 8221,2.7612154483795166
8, 8243, 8215, 8134, 8234, 8195, 8194, 8146, 8181, 8264, 8200, 8041, 8206, 8174, 8221,2.7615272998809814
9, 8231, 8222, 8138, 8225, 8187, 8196, 8139, 8174, 8292, 8192, 8030, 8201, 8163, 8208,2.7692155838012695
9, 8231, 8222, 8138, 8225, 8187, 8196, 8139, 8174, 8292, 8192, 8030, 8201, 8163, 8208,2.7692155838012695
10, 8201, 8179, 8101, 8205, 8173, 8212, 8146, 8156, 8145, 8174, 8023, 8166, 8150, 8185,2.777235507965088
10, 8201, 8179, 8101, 8205, 8173, 8212, 8146, 8156, 8145, 8174, 8023, 8166, 8150, 8185,2.777235507965088
11, 8186, 8179, 8081, 8197, 8144, 8191, 8105, 8135, 8181, 8114, 7984, 8186, 8141, 8162,2.7852349281311035
11, 8186, 8179, 8081, 8197, 8144, 8191, 8105, 8135, 8181, 8114, 7984, 8186, 8141, 8162,2.7852349281311035
12, 8169, 8156, 8070, 8184, 8171, 8172, 8100, 8131, 8063, 8116, 7991, 8168, 8147, 8155,2.79274320602417
12, 8169, 8156, 8070, 8184, 8171, 8172, 8100, 8131, 8063, 8116, 7991, 8168, 8147, 8155,2.7935633659362793
13, 8208, 8192, 8105, 8209, 8184, 8200, 8131, 8165, 8154, 8152, 8019, 8189, 8168, 8190,2.8005692958831787
13, 8208, 8192, 8105, 8209, 8184, 8200, 8131, 8165, 8154, 8152, 8019, 8189, 8168, 8190,2.801569700241089
14, 8211, 8198, 8109, 8207, 8166, 8227, 8153, 8172, 8260, 8178, 8041, 8199, 8177, 8193,2.8085711002349854
14, 8211, 8198, 8109, 8207, 8166, 8227, 8153, 8172, 8260, 8178, 8041, 8199, 8177, 8193,2.8085711002349854
15, 8185, 8166, 8085, 8193, 8172, 8230, 8141, 8146, 8130, 8175, 8055, 8171, 8161, 8179,2.8155694007873535
15, 8185, 8166, 8085, 8193, 8172, 8230, 8141, 8146, 8130, 8175, 8055, 8171, 8161, 8179,2.8165698051452637
16, 8180, 8196, 8106, 8208, 8150, 8218, 8100, 8148, 8204, 8124, 8034, 8194, 8163, 8172,2.8235692977905273
16, 8180, 8196, 8106, 8208, 8150, 8218, 8100, 8148, 8204, 8124, 8034, 8194, 8163, 8172,2.8245692253112793
17, 8181, 8178, 8112, 8203, 8166, 8239, 8139, 8170, 8180, 8176, 8062, 8179, 8182, 8189,2.831569194793701
17, 8181, 8178, 8112, 8203, 8166, 8239, 8139, 8170, 8180, 8176, 8062, 8179, 8182, 8189,2.831569194793701
18, 8209, 8182, 8118, 8204, 8179, 8257, 8157, 8177, 8242, 8218, 8073, 8185, 8175, 8215,2.839569330215454
18, 8209, 8182, 8118, 8204, 8179, 8257, 8157, 8177, 8242, 8218, 8073, 8185, 8175, 8215,2.839569330215454
19, 8188, 8182, 8122, 8196, 8157, 8231, 8119, 8159, 8263, 8177, 8053, 8188, 8162, 8188,2.848569393157959
19, 8188, 8182, 8122, 8196, 8157, 8231, 8119, 8159, 8263, 8177, 8053, 8188, 8162, 8188,2.848569393157959
20, 8179, 8163, 8123, 8194, 8167, 8231, 8133, 8158, 8150, 8195, 8083, 8173, 8174, 8195,2.8565690517425537
20, 8179, 8163, 8123, 8194, 8167, 8231, 8133, 8158, 8150, 8195, 8083, 8173, 8174, 8195,2.8565690517425537
21, 8210, 8199, 8137, 8207, 8169, 8248, 8151, 8188, 8325, 8218, 8092, 8207, 8184, 8221,2.864062547683716
21, 8210, 8199, 8137, 8207, 8169, 8248, 8151, 8188, 8325, 8218, 8092, 8207, 8184, 8221,2.864062547683716
22, 8205, 8181, 8124, 8194, 8188, 8252, 8166, 8185, 8285, 8235, 8096, 8182, 8172, 8210,2.871077537536621
22, 8205, 8181, 8124, 8194, 8188, 8252, 8166, 8185, 8285, 8235, 8096, 8182, 8172, 8210,2.871077537536621
23, 8210, 8182, 8130, 8196, 8186, 8252, 8155, 8161, 8237, 8215, 8083, 8180, 8159, 8205,2.879093647003174
23, 8210, 8182, 8130, 8196, 8186, 8252, 8155, 8161, 8237, 8215, 8083, 8180, 8159, 8205,2.879093647003174
24, 8183, 8180, 8126, 8183, 8156, 8238, 8125, 8146, 8270, 8172, 8064, 8187, 8151, 8187,2.8872220516204834
24, 8183, 8180, 8126, 8183, 8156, 8238, 8125, 8146, 8270, 8172, 8064, 8187, 8151, 8187,2.8872220516204834
25, 8171, 8152, 8111, 8171, 8174, 8225, 8132, 8149, 8138, 8196, 8094, 8162, 8160, 8195,2.8951733112335205
25, 8171, 8152, 8111, 8171, 8174, 8225, 8132, 8149, 8138, 8196, 8094, 8162, 8160, 8195,2.8951733112335205
26, 8217, 8199, 8139, 8202, 8179, 8227, 8135, 8173, 8285, 8212, 8091, 8199, 8175, 8229,2.903167486190796
26, 8217, 8199, 8139, 8202, 8179, 8227, 8135, 8173, 8285, 8212, 8091, 8199, 8175, 8229,2.903167486190796
27, 8213, 8179, 8130, 8195, 8187, 8246, 8157, 8178, 8284, 8228, 8090, 8176, 8165, 8223,2.911221981048584
27, 8213, 8179, 8130, 8195, 8187, 8246, 8157, 8178, 8284, 8228, 8090, 8176, 8165, 8223,2.911221981048584
28, 8204, 8163, 8116, 8177, 8195, 8254, 8162, 8165, 8214, 8211, 8093, 8159, 8154, 8208,2.9192214012145996
28, 8204, 8163, 8116, 8177, 8195, 8254, 8162, 8165, 8214, 8211, 8093, 8159, 8154, 8208,2.9192214012145996
29, 8190, 8185, 8127, 8184, 8190, 8242, 8138, 8159, 8280, 8178, 8086, 8186, 8165, 8201,2.9272425174713135
29, 8190, 8185, 8127, 8184, 8190, 8242, 8138, 8159, 8280, 8178, 8086, 8186, 8165, 8201,2.9272425174713135
30, 8184, 8155, 8113, 8182, 8201, 8243, 8145, 8160, 8181, 8215, 8091, 8162, 8161, 8200,2.9342427253723145
30, 8184, 8155, 8113, 8182, 8201, 8243, 8145, 8160, 8181, 8215, 8091, 8162, 8161, 8200,2.9342427253723145
31, 8194, 8166, 8105, 8173, 8163, 8242, 8134, 8163, 8232, 8197, 8058, 8173, 8144, 8186,2.9422218799591064
31, 8194, 8166, 8105, 8173, 8163, 8242, 8134, 8163, 8232, 8197, 8058, 8173, 8144, 8186,2.9422218799591064
32, 8156, 8154, 8092, 8159, 8162, 8235, 8134, 8155, 8148, 8157, 8051, 8155, 8143, 8155,2.950221538543701
32, 8156, 8154, 8092, 8159, 8162, 8235, 8134, 8155, 8148, 8157, 8051, 8155, 8143, 8155,2.950221538543701
33, 8165, 8162, 8095, 8171, 8201, 8252, 8146, 8159, 8099, 8155, 8054, 8150, 8158, 8160,2.9581851959228516
33, 8165, 8162, 8095, 8171, 8201, 8252, 8146, 8159, 8099, 8155, 8054, 8150, 8158, 8160,2.9581851959228516
34, 8182, 8182, 8106, 8175, 8189, 8264, 8143, 8164, 8233, 8159, 8042, 8178, 8164, 8172,2.9658899307250977
34, 8182, 8182, 8106, 8175, 8189, 8264, 8143, 8164, 8233, 8159, 8042, 8178, 8164, 8172,2.9658899307250977
35, 8175, 8149, 8097, 8165, 8192, 8265, 8169, 8167, 8153, 8190, 8078, 8158, 8160, 8184,2.973907947540283
35, 8175, 8149, 8097, 8165, 8192, 8265, 8169, 8167, 8153, 8190, 8078, 8158, 8160, 8184,2.973907947540283
36, 8197, 8177, 8115, 8174, 8191, 8268, 8169, 8191, 8274, 8191, 8080, 8179, 8168, 8204,2.9812214374542236
36, 8197, 8177, 8115, 8174, 8191, 8268, 8169, 8191, 8274, 8191, 8080, 8179, 8168, 8204,2.9812214374542236
37, 8171, 8154, 8096, 8147, 8193, 8278, 8171, 8195, 8279, 8213, 8064, 8164, 8167, 8196,2.9902215003967285
37, 8171, 8154, 8096, 8147, 8193, 8278, 8171, 8195, 8279, 8213, 8064, 8164, 8167, 8196,2.9902215003967285
38, 8155, 8122, 8070, 8129, 8199, 8274, 8182, 8178, 8164, 8219, 8043, 8142, 8147, 8187,2.997478485107422
38, 8155, 8122, 8070, 8129, 8199, 8274, 8182, 8178, 8164, 8219, 8043, 8142, 8147, 8187,2.997478485107422
39, 8144, 8146, 8074, 8136, 8181, 8256, 8167, 8170, 8225, 8163, 8002, 8164, 8147, 8160,3.005208969116211
39, 8144, 8146, 8074, 8136, 8181, 8256, 8167, 8170, 8225, 8163, 8002, 8164, 8147, 8160,3.005208969116211
40, 8126, 8131, 8061, 8130, 8189, 8268, 8180, 8169, 8112, 8176, 8012, 8139, 8157, 8145,3.013209104537964
40, 8126, 8131, 8061, 8130, 8189, 8268, 8180, 8169, 8112, 8176, 8012, 8139, 8157, 8145,3.013209104537964
41, 8165, 8162, 8088, 8148, 8178, 8279, 8182, 8188, 8211, 8197, 8029, 8172, 8164, 8179,3.021226406097412
41, 8165, 8162, 8088, 8148, 8178, 8279, 8182, 8188, 8211, 8197, 8029, 8172, 8164, 8179,3.021226406097412
42, 8177, 8161, 8105, 8143, 8177, 8267, 8184, 8189, 8256, 8199, 8033, 8180, 8169, 8187,3.029221534729004
42, 8177, 8161, 8105, 8143, 8177, 8267, 8184, 8189, 8256, 8199, 8033, 8180, 8169, 8187,3.029221534729004
43, 8170, 8145, 8096, 8137, 8190, 8271, 8181, 8172, 8151, 8197, 8027, 8149, 8164, 8179,3.0373010635375977
43, 8170, 8145, 8096, 8137, 8190, 8271, 8181, 8172, 8151, 8197, 8027, 8149, 8164, 8179,3.0373010635375977
44, 8165, 8169, 8102, 8150, 8160, 8272, 8156, 8176, 8236, 8165, 7999, 8165, 8153, 8165,3.0449163913726807
44, 8165, 8169, 8102, 8150, 8160, 8272, 8156, 8176, 8236, 8165, 7999, 8165, 8153, 8165,3.0449163913726807
45, 8155, 8136, 8083, 8132, 8170, 8272, 8177, 8174, 8141, 8179, 8013, 8143, 8153, 8162,3.052910327911377
45, 8155, 8136, 8083, 8132, 8170, 8272, 8177, 8174, 8141, 8179, 8013, 8143, 8153, 8162,3.052910327911377
46, 8164, 8149, 8084, 8126, 8171, 8284, 8183, 8174, 8192, 8189, 8013, 8160, 8164, 8173,3.0612094402313232
46, 8164, 8149, 8084, 8126, 8171, 8284, 8183, 8174, 8192, 8189, 8013, 8160, 8164, 8173,3.0612094402313232
47, 8143, 8148, 8080, 8123, 8154, 8290, 8174, 8173, 8222, 8194, 8007, 8164, 8163, 8160,3.068208694458008
47, 8143, 8148, 8080, 8123, 8154, 8290, 8174, 8173, 8222, 8194, 8007, 8164, 8163, 8160,3.068208694458008
48, 8140, 8131, 8077, 8125, 8166, 8288, 8176, 8163, 8110, 8201, 8023, 8144, 8159, 8167,3.0762219429016113
48, 8140, 8131, 8077, 8125, 8166, 8288, 8176, 8163, 8110, 8201, 8023, 8144, 8159, 8167,3.0762219429016113
49, 8155, 8169, 8100, 8140, 8163, 8280, 8164, 8169, 8230, 8173, 8018, 8176, 8167, 8180,3.084223985671997
49, 8155, 8169, 8100, 8140, 8163, 8280, 8164, 8169, 8230, 8173, 8018, 8176, 8167, 8180,3.084223985671997
50, 8146, 8144, 8082, 8131, 8185, 8282, 8196, 8175, 8168, 8197, 8033, 8150, 8169, 8174,3.092221975326538
50, 8146, 8144, 8082, 8131, 8185, 8282, 8196, 8175, 8168, 8197, 8033, 8150, 8169, 8174,3.092221975326538
51, 8162, 8150, 8079, 8132, 8190, 8290, 8197, 8178, 8191, 8200, 8032, 8151, 8164, 8173,3.100221633911133
51, 8162, 8150, 8079, 8132, 8190, 8290, 8197, 8178, 8191, 8200, 8032, 8151, 8164, 8173,3.100221633911133
52, 8158, 8160, 8088, 8136, 8183, 8287, 8168, 8175, 8236, 8186, 8029, 8161, 8163, 8163,3.108492851257324
52, 8158, 8160, 8088, 8136, 8183, 8287, 8168, 8175, 8236, 8186, 8029, 8161, 8163, 8163,3.108492851257324
53, 8161, 8144, 8079, 8143, 8206, 8292, 8184, 8172, 8131, 8206, 8042, 8141, 8161, 8163,3.1162173748016357
53, 8161, 8144, 8079, 8143, 8206, 8292, 8184, 8172, 8131, 8206, 8042, 8141, 8161, 8163,3.1162173748016357
54, 8163, 8169, 8088, 8146, 8193, 8283, 8177, 8169, 8231, 8173, 8022, 8168, 8163, 8161,3.1242308616638184
54, 8163, 8169, 8088, 8146, 8193, 8283, 8177, 8169, 8231, 8173, 8022, 8168, 8163, 8161,3.1242308616638184
55, 8139, 8146, 8079, 8132, 8187, 8268, 8179, 8163, 8163, 8191, 8038, 8154, 8172, 8162,3.1312296390533447
55, 8139, 8146, 8079, 8132, 8187, 8268, 8179, 8163, 8163, 8191, 8038, 8154, 8172, 8162,3.1312296390533447
56, 8169, 8157, 8085, 8137, 8180, 8276, 8187, 8172, 8182, 8219, 8041, 8159, 8171, 8182,3.139009714126587
56, 8169, 8157, 8085, 8137, 8180, 8276, 8187, 8172, 8182, 8219, 8041, 8159, 8171, 8182,3.139009714126587
57, 8148, 8156, 8076, 8123, 8167, 8284, 8180, 8167, 8229, 8189, 8024, 8169, 8159, 8163,3.1468448638916016
57, 8148, 8156, 8076, 8123, 8167, 8284, 8180, 8167, 8229, 8189, 8024, 8169, 8159, 8163,3.1468448638916016
58, 8115, 8126, 8060, 8120, 8195, 8278, 8183, 8161, 8107, 8189, 8040, 8146, 8157, 8158,3.1548540592193604
58, 8115, 8126, 8060, 8120, 8195, 8278, 8183, 8161, 8107, 8189, 8040, 8146, 8157, 8158,3.1548540592193604
59, 8150, 8165, 8092, 8149, 8198, 8268, 8180, 8182, 8256, 8195, 8038, 8176, 8171, 8187,3.163222074508667
59, 8150, 8165, 8092, 8149, 8198, 8268, 8180, 8182, 8256, 8195, 8038, 8176, 8171, 8187,3.163222074508667
60, 8147, 8140, 8087, 8129, 8199, 8279, 8200, 8183, 8218, 8209, 8042, 8149, 8171, 8184,3.1712217330932617
60, 8147, 8140, 8087, 8129, 8199, 8279, 8200, 8183, 8218, 8209, 8042, 8149, 8171, 8184,3.1712217330932617
61, 8144, 8135, 8070, 8115, 8183, 8275, 8187, 8169, 8162, 8195, 8026, 8135, 8149, 8166,3.1792221069335938
61, 8144, 8135, 8070, 8115, 8183, 8275, 8187, 8169, 8162, 8195, 8026, 8135, 8149, 8166,3.1792221069335938
62, 8126, 8152, 8061, 8117, 8158, 8244, 8155, 8158, 8206, 8167, 8005, 8149, 8144, 8140,3.1872220039367676
62, 8126, 8152, 8061, 8117, 8158, 8244, 8155, 8158, 8206, 8167, 8005, 8149, 8144, 8140,3.1872220039367676
63, 8115, 8129, 8049, 8114, 8180, 8241, 8170, 8153, 8071, 8171, 8028, 8125, 8155, 8133,3.194284200668335
63, 8115, 8129, 8049, 8114, 8180, 8241, 8170, 8153, 8071, 8171, 8028, 8125, 8155, 8133,3.194284200668335
64, 8143, 8158, 8069, 8130, 8162, 8255, 8170, 8164, 8168, 8155, 8024, 8159, 8165, 8147,3.202270984649658
64, 8143, 8158, 8069, 8130, 8162, 8255, 8170, 8164, 8168, 8155, 8024, 8159, 8165, 8147,3.202270984649658
65, 8138, 8144, 8074, 8128, 8157, 8258, 8178, 8167, 8165, 8202, 8048, 8152, 8170, 8162,3.210222005844116
65, 8138, 8144, 8074, 8128, 8157, 8258, 8178, 8167, 8165, 8202, 8048, 8152, 8170, 8162,3.210222005844116
66, 8142, 8145, 8082, 8131, 8161, 8248, 8172, 8169, 8144, 8220, 8067, 8145, 8169, 8184,3.2181854248046875
66, 8142, 8145, 8082, 8131, 8161, 8248, 8172, 8169, 8144, 8220, 8067, 8145, 8169, 8184,3.2181854248046875
67, 8138, 8164, 8083, 8139, 8144, 8226, 8151, 8171, 8230, 8162, 8046, 8164, 8162, 8178,3.2262980937957764
67, 8138, 8164, 8083, 8139, 8144, 8226, 8151, 8171, 8230, 8162, 8046, 8164, 8162, 8178,3.2262980937957764
68, 8126, 8130, 8061, 8133, 8167, 8227, 8171, 8161, 8118, 8181, 8061, 8143, 8162, 8184,3.2342545986175537
68, 8126, 8130, 8061, 8133, 8167, 8227, 8171, 8161, 8118, 8181, 8061, 8143, 8162, 8184,3.2342545986175537
69, 8134, 8149, 8073, 8141, 8161, 8241, 8167, 8164, 8198, 8194, 8061, 8163, 8171, 8195,3.242258310317993
69, 8134, 8149, 8073, 8141, 8161, 8241, 8167, 8164, 8198, 8194, 8061, 8163, 8171, 8195,3.242258310317993
70, 8126, 8137, 8063, 8132, 8164, 8238, 8166, 8160, 8163, 8183, 8050, 8148, 8160, 8168,3.2502219676971436
70, 8126, 8137, 8063, 8132, 8164, 8238, 8166, 8160, 8163, 8183, 8050, 8148, 8160, 8168,3.2502219676971436
71, 8146, 8136, 8057, 8133, 8184, 8229, 8170, 8151, 8105, 8180, 8050, 8147, 8153, 8169,3.2572226524353027
71, 8146, 8136, 8057, 8133, 8184, 8229, 8170, 8151, 8105, 8180, 8050, 8147, 8153, 8169,3.2572226524353027
72, 8142, 8161, 8070, 8140, 8164, 8215, 8152, 8156, 8208, 8156, 8049, 8173, 8169, 8174,3.265165090560913
72, 8142, 8161, 8070, 8140, 8164, 8215, 8152, 8156, 8208, 8156, 8049, 8173, 8169, 8174,3.265165090560913
73, 8132, 8134, 8049, 8133, 8166, 8208, 8166, 8154, 8071, 8163, 8054, 8132, 8159, 8165,3.2731873989105225
73, 8132, 8134, 8049, 8133, 8166, 8208, 8166, 8154, 8071, 8163, 8054, 8132, 8159, 8165,3.2731873989105225
74, 8162, 8158, 8059, 8143, 8163, 8211, 8159, 8154, 8131, 8160, 8034, 8150, 8147, 8168,3.281221866607666
74, 8162, 8158, 8059, 8143, 8163, 8211, 8159, 8154, 8131, 8160, 8034, 8150, 8147, 8168,3.281221866607666
75, 8140, 8146, 8061, 8140, 8165, 8211, 8159, 8155, 8162, 8167, 8046, 8150, 8162, 8156,3.288785219192505
75, 8140, 8146, 8061, 8140, 8165, 8211, 8159, 8155, 8162, 8167, 8046, 8150, 8162, 8156,3.288785219192505
76, 8138, 8126, 8052, 8129, 8170, 8208, 8178, 8154, 8092, 8173, 8061, 8134, 8165, 8157,3.296782970428467
76, 8138, 8126, 8052, 8129, 8170, 8208, 8178, 8154, 8092, 8173, 8061, 8134, 8165, 8157,3.296782970428467
77, 8147, 8155, 8066, 8128, 8148, 8193, 8161, 8154, 8181, 8154, 8053, 8168, 8167, 8162,3.3052239418029785
77, 8147, 8155, 8066, 8128, 8148, 8193, 8161, 8154, 8181, 8154, 8053, 8168, 8167, 8162,3.3052239418029785
78, 8136, 8140, 8072, 8142, 8159, 8192, 8170, 8163, 8109, 8199, 8103, 8158, 8180, 8179,3.3138415813446045
78, 8136, 8140, 8072, 8142, 8159, 8192, 8170, 8163, 8109, 8199, 8103, 8158, 8180, 8179,3.3138415813446045
79, 8171, 8172, 8104, 8179, 8164, 8203, 8177, 8182, 8227, 8214, 8122, 8182, 8183, 8204,3.3212215900421143
79, 8171, 8172, 8104, 8179, 8164, 8203, 8177, 8182, 8227, 8214, 8122, 8182, 8183, 8204,3.3212215900421143
80, 8164, 8169, 8104, 8165, 8165, 8201, 8176, 8170, 8251, 8195, 8107, 8179, 8170, 8190,3.3282487392425537
80, 8164, 8169, 8104, 8165, 8165, 8201, 8176, 8170, 8251, 8195, 8107, 8179, 8170, 8190,3.3282487392425537
81, 8163, 8151, 8096, 8155, 8172, 8195, 8181, 8159, 8139, 8204, 8108, 8164, 8166, 8193,3.3362443447113037
81, 8163, 8151, 8096, 8155, 8172, 8195, 8181, 8159, 8139, 8204, 8108, 8164, 8166, 8193,3.3362443447113037
82, 8189, 8181, 8121, 8177, 8155, 8175, 8166, 8168, 8261, 8204, 8098, 8196, 8167, 8202,3.343780040740967
82, 8189, 8181, 8121, 8177, 8155, 8175, 8166, 8168, 8261, 8204, 8098, 8196, 8167, 8202,3.343780040740967
83, 8175, 8151, 8113, 8161, 8176, 8169, 8173, 8154, 8167, 8217, 8119, 8165, 8156, 8196,3.351792812347412
83, 8175, 8151, 8113, 8161, 8176, 8169, 8173, 8154, 8167, 8217, 8119, 8165, 8156, 8196,3.351792812347412
84, 8177, 8167, 8117, 8166, 8161, 8169, 8155, 8149, 8189, 8182, 8114, 8176, 8160, 8207,3.3602216243743896
84, 8177, 8167, 8117, 8166, 8161, 8169, 8155, 8149, 8189, 8182, 8114, 8176, 8160, 8207,3.3602216243743896
85, 8183, 8175, 8133, 8175, 8128, 8155, 8141, 8151, 8233, 8166, 8104, 8190, 8179, 8214,3.3681859970092773
85, 8183, 8175, 8133, 8175, 8128, 8155, 8141, 8151, 8233, 8166, 8104, 8190, 8179, 8214,3.3681859970092773
86, 8196, 8156, 8143, 8168, 8145, 8157, 8153, 8145, 8139, 8190, 8127, 8170, 8180, 8226,3.375687599182129
86, 8196, 8156, 8143, 8168, 8145, 8157, 8153, 8145, 8139, 8190, 8127, 8170, 8180, 8226,3.3767075538635254
87, 8187, 8181, 8143, 8171, 8136, 8153, 8138, 8145, 8232, 8156, 8114, 8191, 8164, 8221,3.384441375732422
87, 8187, 8181, 8143, 8171, 8136, 8153, 8138, 8145, 8232, 8156, 8114, 8191, 8164, 8221,3.384441375732422
88, 8160, 8154, 8126, 8167, 8145, 8147, 8150, 8145, 8143, 8175, 8112, 8174, 8161, 8214,3.3909811973571777
88, 8160, 8154, 8126, 8167, 8145, 8147, 8150, 8145, 8143, 8175, 8112, 8174, 8161, 8214,3.3909811973571777
89, 8181, 8161, 8154, 8177, 8147, 8152, 8149, 8154, 8165, 8187, 8101, 8187, 8170, 8226,3.3992209434509277
89, 8181, 8161, 8154, 8177, 8147, 8152, 8149, 8154, 8165, 8187, 8101, 8187, 8170, 8226,3.3992209434509277
90, 8178, 8162, 8165, 8174, 8131, 8141, 8137, 8153, 8198, 8153, 8087, 8189, 8166, 8206,3.407522201538086
90, 8178, 8162, 8165, 8174, 8131, 8141, 8137, 8153, 8198, 8153, 8087, 8189, 8166, 8206,3.407522201538086
91, 8190, 8153, 8156, 8178, 8146, 8128, 8153, 8140, 8082, 8162, 8103, 8170, 8160, 8206,3.4155209064483643
91, 8190, 8153, 8156, 8178, 8146, 8128, 8153, 8140, 8082, 8162, 8103, 8170, 8160, 8206,3.4155209064483643
92, 8208, 8193, 8179, 8195, 8141, 8130, 8137, 8142, 8212, 8149, 8099, 8213, 8168, 8221,3.4232218265533447
92, 8208, 8193, 8179, 8195, 8141, 8130, 8137, 8142, 8212, 8149, 8099, 8213, 8168, 8221,3.4232218265533447
93, 8178, 8159, 8157, 8174, 8150, 8145, 8141, 8147, 8152, 8155, 8115, 8187, 8172, 8208,3.431210517883301
93, 8178, 8159, 8157, 8174, 8150, 8145, 8141, 8147, 8152, 8155, 8115, 8187, 8172, 8208,3.431210517883301
94, 8195, 8161, 8148, 8169, 8148, 8157, 8144, 8147, 8141, 8159, 8114, 8170, 8168, 8210,3.4392197132110596
94, 8195, 8161, 8148, 8169, 8148, 8157, 8144, 8147, 8141, 8159, 8114, 8170, 8168, 8210,3.4392197132110596
95, 8189, 8176, 8160, 8176, 8138, 8154, 8129, 8145, 8219, 8157, 8114, 8186, 8174, 8212,3.4472053050994873
95, 8189, 8176, 8160, 8176, 8138, 8154, 8129, 8145, 8219, 8157, 8114, 8186, 8174, 8212,3.4472053050994873
96, 8174, 8142, 8142, 8163, 8159, 8169, 8151, 8151, 8123, 8197, 8138, 8166, 8176, 8219,3.4555654525756836
96, 8174, 8142, 8142, 8163, 8159, 8169, 8151, 8151, 8123, 8197, 8138, 8166, 8176, 8219,3.4555654525756836
97, 8182, 8167, 8140, 8160, 8145, 8179, 8154, 8163, 8231, 8187, 8118, 8195, 8166, 8225,3.4625658988952637
97, 8182, 8167, 8140, 8160, 8145, 8179, 8154, 8163, 8231, 8187, 8118, 8195, 8166, 8225,3.4625658988952637
98, 8154, 8157, 8137, 8162, 8145, 8172, 8152, 8156, 8183, 8188, 8120, 8186, 8166, 8216,3.4705655574798584
98, 8154, 8157, 8137, 8162, 8145, 8172, 8152, 8156, 8183, 8188, 8120, 8186, 8166, 8216,3.4705655574798584
99, 8181, 8165, 8151, 8169, 8144, 8169, 8148, 8152, 8159, 8184, 8125, 8182, 8171, 8220,3.4781858921051025
99, 8181, 8165, 8151, 8169, 8144, 8169, 8148, 8152, 8159, 8184, 8125, 8182, 8171, 8220,3.4781858921051025
100, 8189, 8174, 8150, 8161, 8137, 8179, 8142, 8152, 8231, 8149, 8111, 8187, 8161, 8206,3.486222505569458
100, 8189, 8174, 8150, 8161, 8137, 8179, 8142, 8152, 8231, 8149, 8111, 8187, 8161, 8206,3.4869253635406494
101, 8159, 8134, 8119, 8168, 8167, 8196, 8160, 8157, 8114, 8176, 8125, 8155, 8157, 8194,3.493929624557495
101, 8159, 8134, 8119, 8168, 8167, 8196, 8160, 8157, 8114, 8176, 8125, 8155, 8157, 8194,3.493929624557495
102, 8174, 8161, 8120, 8191, 8145, 8188, 8143, 8163, 8208, 8185, 8103, 8181, 8168, 8195,3.5022215843200684
102, 8174, 8161, 8120, 8191, 8145, 8188, 8143, 8163, 8208, 8185, 8103, 8181, 8168, 8195,3.5022215843200684
103, 8166, 8153, 8117, 8172, 8138, 8185, 8139, 8143, 8154, 8165, 8102, 8172, 8165, 8185,3.510446310043335
103, 8166, 8153, 8117, 8172, 8138, 8185, 8139, 8143, 8154, 8165, 8102, 8172, 8165, 8185,3.510446310043335
104, 8168, 8166, 8181, 8189, 8175, 8199, 8147, 8147, 8129, 8169, 8129, 8174, 8163, 8198,3.518517017364502
104, 8168, 8166, 8181, 8189, 8175, 8199, 8147, 8147, 8129, 8169, 8129, 8174, 8163, 8198,3.518517017364502
105, 8169, 8194, 8276, 8211, 8173, 8192, 8145, 8168, 8278, 8190, 8127, 8189, 8167, 8197,3.5255203247070312
105, 8169, 8194, 8276, 8211, 8173, 8192, 8145, 8168, 8278, 8190, 8127, 8189, 8167, 8197,3.5255203247070312
106, 8145, 8143, 8276, 8179, 8159, 8192, 8157, 8152, 8157, 8201, 8132, 8147, 8158, 8186,3.5332231521606445
106, 8145, 8143, 8276, 8179, 8159, 8192, 8157, 8152, 8157, 8201, 8132, 8147, 8158, 8186,3.5332231521606445
107, 8133, 8152, 8260, 8170, 8132, 8187, 8131, 8147, 8197, 8155, 8113, 8172, 8156, 8183,3.5415332317352295
107, 8133, 8152, 8260, 8170, 8132, 8187, 8131, 8147, 8197, 8155, 8113, 8172, 8156, 8183,3.542534589767456
108, 8118, 8149, 8259, 8156, 8139, 8171, 8125, 8148, 8169, 8153, 8113, 8166, 8160, 8166,3.5494282245635986
108, 8118, 8149, 8259, 8156, 8139, 8171, 8125, 8148, 8169, 8153, 8113, 8166, 8160, 8166,3.5494282245635986
109, 8137, 8144, 8270, 8164, 8165, 8174, 8137, 8141, 8111, 8173, 8132, 8153, 8163, 8172,3.556931734085083
109, 8137, 8144, 8270, 8164, 8165, 8174, 8137, 8141, 8111, 8173, 8132, 8153, 8163, 8172,3.556931734085083
110, 8149, 8165, 8276, 8184, 8155, 8182, 8128, 8144, 8233, 8162, 8132, 8181, 8162, 8169,3.5650370121002197
110, 8149, 8165, 8276, 8184, 8155, 8182, 8128, 8144, 8233, 8162, 8132, 8181, 8162, 8169,3.5650370121002197
111, 8143, 8144, 8254, 8165, 8171, 8188, 8150, 8152, 8144, 8193, 8162, 8153, 8158, 8159,3.573070764541626
111, 8143, 8144, 8254, 8165, 8171, 8188, 8150, 8152, 8144, 8193, 8162, 8153, 8158, 8159,3.573070764541626
112, 8155, 8170, 8261, 8164, 8165, 8184, 8150, 8167, 8220, 8192, 8164, 8161, 8162, 8163,3.581221342086792
112, 8155, 8170, 8261, 8164, 8165, 8184, 8150, 8167, 8220, 8192, 8164, 8161, 8162, 8163,3.581221342086792
113, 8140, 8152, 8249, 8165, 8158, 8174, 8151, 8168, 8228, 8190, 8153, 8159, 8166, 8155,3.589221239089966
113, 8140, 8152, 8249, 8165, 8158, 8174, 8151, 8168, 8228, 8190, 8153, 8159, 8166, 8155,3.589221239089966
114, 8158, 8157, 8245, 8169, 8175, 8181, 8172, 8168, 8164, 8194, 8165, 8158, 8165, 8172,3.596221685409546
114, 8158, 8157, 8245, 8169, 8175, 8181, 8172, 8168, 8164, 8194, 8165, 8158, 8165, 8172,3.596221685409546
115, 8169, 8196, 8260, 8178, 8165, 8187, 8175, 8182, 8301, 8161, 8188, 8185, 8168, 8180,3.6041159629821777
115, 8169, 8196, 8260, 8178, 8165, 8187, 8175, 8182, 8301, 8161, 8188, 8185, 8168, 8180,3.605114459991455
116, 8140, 8137, 8226, 8168, 8171, 8182, 8184, 8176, 8192, 8191, 8211, 8158, 8164, 8167,3.6116890907287598
116, 8140, 8137, 8226, 8168, 8171, 8182, 8184, 8176, 8192, 8191, 8211, 8158, 8164, 8167,3.6116890907287598
117, 8141, 8143, 8219, 8162, 8156, 8172, 8149, 8152, 8186, 8181, 8188, 8178, 8158, 8161,3.6196954250335693
117, 8141, 8143, 8219, 8162, 8156, 8172, 8149, 8152, 8186, 8181, 8188, 8178, 8158, 8161,3.620683193206787
118, 8129, 8173, 8232, 8157, 8156, 8169, 8139, 8146, 8204, 8157, 8204, 8175, 8163, 8145,3.628185510635376
118, 8129, 8173, 8232, 8157, 8156, 8169, 8139, 8146, 8204, 8157, 8204, 8175, 8163, 8145,3.628185510635376
119, 8151, 8160, 8232, 8167, 8175, 8175, 8173, 8166, 8165, 8199, 8234, 8155, 8158, 8161,3.6362218856811523
119, 8151, 8160, 8232, 8167, 8175, 8175, 8173, 8166, 8165, 8199, 8234, 8155, 8158, 8161,3.6362218856811523
120, 8158, 8156, 8223, 8155, 8148, 8172, 8160, 8161, 8265, 8181, 8201, 8183, 8145, 8162,3.644221782684326
120, 8158, 8156, 8223, 8155, 8148, 8172, 8160, 8161, 8265, 8181, 8201, 8183, 8145, 8162,3.644221782684326
121, 8125, 8129, 8206, 8136, 8160, 8180, 8153, 8141, 8137, 8169, 8208, 8154, 8155, 8136,3.6520698070526123
121, 8125, 8129, 8206, 8136, 8160, 8180, 8153, 8141, 8137, 8169, 8208, 8154, 8155, 8136,3.6520698070526123
122, 8148, 8165, 8220, 8163, 8165, 8190, 8148, 8157, 8176, 8164, 8215, 8158, 8170, 8137,3.659083604812622
122, 8148, 8165, 8220, 8163, 8165, 8190, 8148, 8157, 8176, 8164, 8215, 8158, 8170, 8137,3.659083604812622
123, 8131, 8157, 8200, 8151, 8148, 8187, 8161, 8153, 8195, 8149, 8198, 8161, 8159, 8125,3.667084217071533
123, 8131, 8157, 8200, 8151, 8148, 8187, 8161, 8153, 8195, 8149, 8198, 8161, 8159, 8125,3.667084217071533
124, 8125, 8124, 8180, 8132, 8159, 8191, 8178, 8143, 8085, 8175, 8216, 8146, 8153, 8125,3.6752219200134277
124, 8125, 8124, 8180, 8132, 8159, 8191, 8178, 8143, 8085, 8175, 8216, 8146, 8153, 8125,3.6752219200134277
125, 8161, 8168, 8209, 8158, 8157, 8196, 8135, 8164, 8253, 8187, 8229, 8180, 8167, 8136,3.6832218170166016
125, 8161, 8168, 8209, 8158, 8157, 8196, 8135, 8164, 8253, 8187, 8229, 8180, 8167, 8136,3.6832218170166016
126, 8147, 8157, 8196, 8153, 8173, 8203, 8126, 8165, 8193, 8198, 8242, 8163, 8163, 8139,3.6911840438842773
126, 8147, 8157, 8196, 8153, 8173, 8203, 8126, 8165, 8193, 8198, 8242, 8163, 8163, 8139,3.6911840438842773
127, 8144, 8157, 8186, 8153, 8165, 8207, 8147, 8155, 8174, 8178, 8230, 8168, 8150, 8141,3.6991794109344482
127, 8144, 8157, 8186, 8153, 8165, 8207, 8147, 8155, 8174, 8178, 8230, 8168, 8150, 8141,3.6991794109344482
240, 8150, 8157, 8194, 8159, 8156, 8201, 8152, 8157, 8239, 8176, 8233, 8174, 8167, 8131,3.707224130630493
240, 8150, 8157, 8194, 8159, 8156, 8201, 8152, 8157, 8239, 8176, 8233, 8174, 8167, 8131,3.707224130630493
0, 8155, 8141, 8196, 8155, 8189, 8209, 8162, 8155, 8150, 8197, 8264, 8146, 8181, 8137,3.715221643447876
0, 8155, 8141, 8196, 8155, 8189, 8209, 8162, 8155, 8150, 8197, 8264, 8146, 8181, 8137,3.715221643447876
1, 8144, 8176, 8210, 8166, 8170, 8215, 8155, 8160, 8246, 8161, 8243, 8168, 8169, 8131,3.722221851348877
1, 8144, 8176, 8210, 8166, 8170, 8215, 8155, 8160, 8246, 8161, 8243, 8168, 8169, 8131,3.722221851348877
2, 8130, 8148, 8193, 8161, 8165, 8216, 8169, 8157, 8171, 8181, 8233, 8150, 8156, 8117,3.7302017211914062
2, 8130, 8148, 8193, 8161, 8165, 8216, 8169, 8157, 8171, 8181, 8233, 8150, 8156, 8117,3.7302017211914062
3, 8159, 8143, 8186, 8158, 8171, 8221, 8171, 8155, 8167, 8185, 8233, 8158, 8161, 8130,3.738184928894043
3, 8159, 8143, 8186, 8158, 8171, 8221, 8171, 8155, 8167, 8185, 8233, 8158, 8161, 8130,3.738713502883911
4, 8148, 8162, 8186, 8151, 8148, 8202, 8152, 8158, 8244, 8157, 8238, 8177, 8171, 8126,3.7462360858917236
4, 8148, 8162, 8186, 8151, 8148, 8202, 8152, 8158, 8244, 8157, 8238, 8177, 8171, 8126,3.7462360858917236
5, 8135, 8148, 8171, 8143, 8159, 8194, 8153, 8156, 8127, 8196, 8276, 8148, 8166, 8123,3.7542405128479004
5, 8135, 8148, 8171, 8143, 8159, 8194, 8153, 8156, 8127, 8196, 8276, 8148, 8166, 8123,3.7542405128479004
6, 8149, 8176, 8176, 8159, 8163, 8209, 8142, 8158, 8230, 8187, 8281, 8177, 8166, 8124,3.7622220516204834
6, 8149, 8176, 8176, 8159, 8163, 8209, 8142, 8158, 8230, 8187, 8281, 8177, 8166, 8124,3.7622220516204834
7, 8138, 8156, 8164, 8155, 8174, 8217, 8163, 8157, 8192, 8167, 8284, 8165, 8170, 8118,3.7702417373657227
7, 8138, 8156, 8164, 8155, 8174, 8217, 8163, 8157, 8192, 8167, 8284, 8165, 8170, 8118,3.7702417373657227
8, 8159, 8157, 8170, 8150, 8173, 8204, 8165, 8154, 8158, 8171, 8293, 8156, 8166, 8133,3.7782537937164307
8, 8159, 8157, 8170, 8150, 8173, 8204, 8165, 8154, 8158, 8171, 8293, 8156, 8166, 8133,3.7782537937164307
9, 8148, 8174, 8172, 8152, 8152, 8195, 8129, 8148, 8226, 8168, 8288, 8173, 8159, 8132,3.7852535247802734
9, 8148, 8174, 8172, 8152, 8152, 8195, 8129, 8148, 8226, 8168, 8288, 8173, 8159, 8132,3.7852535247802734
10, 8126, 8148, 8141, 8161, 8175, 8215, 8158, 8148, 8109, 8180, 8281, 8148, 8152, 8128,3.79276180267334
10, 8126, 8148, 8141, 8161, 8175, 8215, 8158, 8148, 8109, 8180, 8281, 8148, 8152, 8128,3.79276180267334
11, 8160, 8171, 8160, 8172, 8183, 8224, 8172, 8164, 8232, 8167, 8262, 8172, 8165, 8138,3.8007652759552
11, 8160, 8171, 8160, 8172, 8183, 8224, 8172, 8164, 8232, 8167, 8262, 8172, 8165, 8138,3.8007652759552
12, 8158, 8152, 8166, 8153, 8186, 8217, 8158, 8163, 8237, 8197, 8294, 8169, 8177, 8135,3.8095149993896484
12, 8158, 8152, 8166, 8153, 8186, 8217, 8158, 8163, 8237, 8197, 8294, 8169, 8177, 8135,3.8095149993896484
13, 8153, 8156, 8146, 8164, 8177, 8218, 8146, 8153, 8170, 8204, 8301, 8160, 8164, 8137,3.8169240951538086
13, 8153, 8156, 8146, 8164, 8177, 8218, 8146, 8153, 8170, 8204, 8301, 8160, 8164, 8137,3.8169240951538086
14, 8138, 8178, 8141, 8163, 8157, 8216, 8145, 8153, 8231, 8155, 8269, 8163, 8160, 8118,3.8249239921569824
14, 8138, 8178, 8141, 8163, 8157, 8216, 8145, 8153, 8231, 8155, 8269, 8163, 8160, 8118,3.8249239921569824
15, 8139, 8145, 8144, 8136, 8186, 8230, 8175, 8158, 8134, 8184, 8295, 8142, 8177, 8119,3.833221435546875
15, 8139, 8145, 8144, 8136, 8186, 8230, 8175, 8158, 8134, 8184, 8295, 8142, 8177, 8119,3.833221435546875
16, 8177, 8172, 8165, 8161, 8180, 8235, 8167, 8169, 8241, 8190, 8292, 8178, 8177, 8145,3.841367244720459
16, 8177, 8172, 8165, 8161, 8180, 8235, 8167, 8169, 8241, 8190, 8292, 8178, 8177, 8145,3.841367244720459
17, 8147, 8159, 8144, 8170, 8174, 8222, 8159, 8157, 8202, 8164, 8267, 8164, 8159, 8124,3.849215507507324
17, 8147, 8159, 8144, 8170, 8174, 8222, 8159, 8157, 8202, 8164, 8267, 8164, 8159, 8124,3.849215507507324
18, 8139, 8154, 8135, 8165, 8188, 8225, 8161, 8152, 8111, 8164, 8263, 8150, 8158, 8127,3.855759382247925
18, 8139, 8154, 8135, 8165, 8188, 8225, 8161, 8152, 8111, 8164, 8263, 8150, 8158, 8127,3.855759382247925
19, 8172, 8186, 8155, 8174, 8171, 8240, 8163, 8179, 8259, 8166, 8272, 8178, 8176, 8148,3.863755702972412
19, 8172, 8186, 8155, 8174, 8171, 8240, 8163, 8179, 8259, 8166, 8272, 8178, 8176, 8148,3.863755702972412
20, 8177, 8150, 8145, 8164, 8191, 8258, 8196, 8183, 8195, 8208, 8315, 8157, 8180, 8156,3.871752977371216
20, 8177, 8150, 8145, 8164, 8191, 8258, 8196, 8183, 8195, 8208, 8315, 8157, 8180, 8156,3.871752977371216
21, 8185, 8174, 8166, 8159, 8186, 8253, 8180, 8172, 8262, 8200, 8313, 8189, 8171, 8166,3.879756212234497
21, 8185, 8174, 8166, 8159, 8186, 8253, 8180, 8172, 8262, 8200, 8313, 8189, 8171, 8166,3.879756212234497
22, 8172, 8179, 8181, 8157, 8157, 8243, 8157, 8168, 8255, 8167, 8308, 8181, 8164, 8153,3.8882651329040527
22, 8172, 8179, 8181, 8157, 8157, 8243, 8157, 8168, 8255, 8167, 8308, 8181, 8164, 8153,3.8882651329040527
23, 8181, 8166, 8168, 8165, 8164, 8254, 8170, 8172, 8161, 8151, 8274, 8187, 8152, 8163,3.896266460418701
23, 8181, 8166, 8168, 8165, 8164, 8254, 8170, 8172, 8161, 8151, 8274, 8187, 8152, 8163,3.896266460418701
24, 8176, 8187, 8160, 8166, 8164, 8260, 8164, 8169, 8267, 8128, 8221, 8234, 8153, 8168,3.904264450073242
24, 8176, 8187, 8160, 8166, 8164, 8260, 8164, 8169, 8267, 8128, 8221, 8234, 8153, 8168,3.904264450073242
25, 8153, 8164, 8152, 8158, 8182, 8271, 8175, 8165, 8177, 8169, 8298, 8160, 8179, 8143,3.912264108657837
25, 8153, 8164, 8152, 8158, 8182, 8271, 8175, 8165, 8177, 8169, 8298, 8160, 8179, 8143,3.912264108657837
26, 8189, 8186, 8171, 8189, 8187, 8284, 8173, 8180, 8247, 8183, 8358, 8146, 8184, 8144,3.9192657470703125
26, 8189, 8186, 8171, 8189, 8187, 8284, 8173, 8180, 8247, 8183, 8358, 8146, 8184, 8144,3.9192657470703125
27, 8183, 8170, 8158, 8174, 8177, 8278, 8168, 8168, 8266, 8164, 8307, 8189, 8149, 8148,3.927265167236328
27, 8183, 8170, 8158, 8174, 8177, 8278, 8168, 8168, 8266, 8164, 8307, 8189, 8149, 8148,3.927265167236328
28, 8165, 8154, 8145, 8154, 8176, 8276, 8179, 8154, 8147, 8168, 8293, 8178, 8142, 8154,3.9352662563323975
28, 8165, 8154, 8145, 8154, 8176, 8276, 8179, 8154, 8147, 8168, 8293, 8178, 8142, 8154,3.9352662563323975
29, 8175, 8206, 8160, 8189, 8156, 8277, 8173, 8168, 8262, 8149, 8322, 8167, 8171, 8144,3.943265199661255
29, 8175, 8206, 8160, 8189, 8156, 8277, 8173, 8168, 8262, 8149, 8322, 8167, 8171, 8144,3.943265199661255
30, 8172, 8175, 8140, 8175, 8175, 8277, 8189, 8162, 8168, 8158, 8334, 8153, 8175, 8130,3.9512224197387695
30, 8172, 8175, 8140, 8175, 8175, 8277, 8189, 8162, 8168, 8158, 8334, 8153, 8175, 8130,3.9512224197387695
31, 8177, 8160, 8140, 8139, 8165, 8275, 8171, 8154, 8175, 8147, 8313, 8182, 8160, 8140,3.959054708480835
31, 8177, 8160, 8140, 8139, 8165, 8275, 8171, 8154, 8175, 8147, 8313, 8182, 8160, 8140,3.959054708480835
32, 8136, 8157, 8133, 8124, 8132, 8275, 8160, 8160, 8227, 8139, 8327, 8173, 8167, 8131,3.967221975326538
32, 8136, 8157, 8133, 8124, 8132, 8275, 8160, 8160, 8227, 8139, 8327, 8173, 8167, 8131,3.967221975326538
33, 8137, 8158, 8118, 8148, 8157, 8295, 8207, 8178, 8165, 8190, 8380, 8139, 8184, 8127,3.9752588272094727
33, 8137, 8158, 8118, 8148, 8157, 8295, 8207, 8178, 8165, 8190, 8380, 8139, 8184, 8127,3.9752588272094727
34, 8182, 8197, 8138, 8171, 8160, 8299, 8205, 8189, 8305, 8190, 8372, 8175, 8177, 8133,3.9822592735290527
34, 8182, 8197, 8138, 8171, 8160, 8299, 8205, 8189, 8305, 8190, 8372, 8175, 8177, 8133,3.9822592735290527
35, 8173, 8152, 8127, 8138, 8158, 8290, 8188, 8169, 8217, 8178, 8335, 8171, 8151, 8145,3.9902212619781494
35, 8173, 8152, 8127, 8138, 8158, 8290, 8188, 8169, 8217, 8178, 8335, 8171, 8151, 8145,3.9902212619781494
36, 8164, 8152, 8125, 8126, 8146, 8295, 8193, 8160, 8196, 8155, 8308, 8174, 8139, 8147,3.998185396194458
36, 8164, 8152, 8125, 8126, 8146, 8295, 8193, 8160, 8196, 8155, 8308, 8174, 8139, 8147,3.998185396194458
37, 8136, 8184, 8113, 8142, 8148, 8293, 8210, 8171, 8244, 8140, 8329, 8157, 8146, 8107,4.006222486495972
37, 8136, 8184, 8113, 8142, 8148, 8293, 8210, 8171, 8244, 8140, 8329, 8157, 8146, 8107,4.006222486495972
38, 8136, 8151, 8085, 8151, 8171, 8278, 8185, 8171, 8133, 8179, 8346, 8117, 8157, 8102,4.014221906661987
38, 8136, 8151, 8085, 8151, 8171, 8278, 8185, 8171, 8133, 8179, 8346, 8117, 8157, 8102,4.014221906661987
39, 8164, 8148, 8113, 8132, 8129, 8276, 8145, 8165, 8228, 8163, 8279, 8172, 8169, 8116,4.022266149520874
39, 8164, 8148, 8113, 8132, 8129, 8276, 8145, 8165, 8228, 8163, 8279, 8172, 8169, 8116,4.022266149520874
40, 8136, 8142, 8117, 8122, 8136, 8317, 8214, 8157, 8163, 8154, 8307, 8170, 8173, 8104,4.030251741409302
40, 8136, 8142, 8117, 8122, 8136, 8317, 8214, 8157, 8163, 8154, 8307, 8170, 8173, 8104,4.030251741409302
41, 8146, 8180, 8116, 8174, 8176, 8337, 8227, 8168, 8179, 8176, 8377, 8151, 8172, 8119,4.038186311721802
41, 8146, 8180, 8116, 8174, 8176, 8337, 8227, 8168, 8179, 8176, 8377, 8151, 8172, 8119,4.038186311721802
42, 8163, 8188, 8120, 8173, 8161, 8321, 8155, 8168, 8269, 8181, 8350, 8166, 8165, 8120,4.0462257862091064
42, 8163, 8188, 8120, 8173, 8161, 8321, 8155, 8168, 8269, 8181, 8350, 8166, 8165, 8120,4.0462257862091064
43, 8145, 8142, 8102, 8132, 8149, 8339, 8173, 8148, 8121, 8172, 8335, 8148, 8156, 8098,4.05329442024231
43, 8145, 8142, 8102, 8132, 8149, 8339, 8173, 8148, 8121, 8172, 8335, 8148, 8156, 8098,4.05329442024231
44, 8145, 8184, 8118, 8154, 8142, 8352, 8192, 8163, 8228, 8145, 8341, 8173, 8166, 8098,4.061291933059692
44, 8145, 8184, 8118, 8154, 8142, 8352, 8192, 8163, 8228, 8145, 8341, 8173, 8166, 8098,4.061291933059692
45, 8150, 8179, 8123, 8160, 8161, 8339, 8172, 8175, 8233, 8183, 8344, 8164, 8170, 8116,4.069211483001709
45, 8150, 8179, 8123, 8160, 8161, 8339, 8172, 8175, 8233, 8183, 8344, 8164, 8170, 8116,4.069211483001709
46, 8164, 8162, 8111, 8144, 8170, 8339, 8168, 8169, 8178, 8182, 8326, 8159, 8159, 8128,4.077208757400513
46, 8164, 8162, 8111, 8144, 8170, 8339, 8168, 8169, 8178, 8182, 8326, 8159, 8159, 8128,4.077208757400513
47, 8151, 8177, 8109, 8149, 8158, 8340, 8181, 8170, 8254, 8154, 8317, 8176, 8167, 8118,4.0852155685424805
47, 8151, 8177, 8109, 8149, 8158, 8340, 8181, 8170, 8254, 8154, 8317, 8176, 8167, 8118,4.0852155685424805
48, 8154, 8165, 8114, 8161, 8176, 8348, 8200, 8171, 8183, 8199, 8331, 8150, 8177, 8125,4.093221664428711
48, 8154, 8165, 8114, 8161, 8176, 8348, 8200, 8171, 8183, 8199, 8331, 8150, 8177, 8125,4.093221664428711
49, 8165, 8188, 8122, 8163, 8163, 8350, 8186, 8174, 8271, 8177, 8300, 8165, 8168, 8128,4.101369619369507
49, 8165, 8188, 8122, 8163, 8163, 8350, 8186, 8174, 8271, 8177, 8300, 8165, 8168, 8128,4.101369619369507
50, 8131, 8161, 8089, 8144, 8160, 8340, 8193, 8171, 8203, 8160, 8284, 8151, 8160, 8114,4.109368562698364
50, 8131, 8161, 8089, 8144, 8160, 8340, 8193, 8171, 8203, 8160, 8284, 8151, 8160, 8114,4.109368562698364
51, 8158, 8167, 8095, 8158, 8172, 8351, 8214, 8174, 8155, 8186, 8276, 8149, 8166, 8131,4.115979194641113
51, 8158, 8167, 8095, 8158, 8172, 8351, 8214, 8174, 8155, 8186, 8276, 8149, 8166, 8131,4.115979194641113
52, 8175, 8197, 8127, 8168, 8164, 8357, 8206, 8176, 8288, 8173, 8256, 8179, 8175, 8134,4.1242125034332275
52, 8175, 8197, 8127, 8168, 8164, 8357, 8206, 8176, 8288, 8173, 8256, 8179, 8175, 8134,4.1242125034332275
53, 8142, 8149, 8102, 8149, 8188, 8353, 8218, 8168, 8175, 8194, 8266, 8147, 8171, 8123,4.132226467132568
53, 8142, 8149, 8102, 8149, 8188, 8353, 8218, 8168, 8175, 8194, 8266, 8147, 8171, 8123,4.132226467132568
54, 8157, 8165, 8102, 8162, 8176, 8343, 8202, 8166, 8227, 8191, 8233, 8160, 8164, 8122,4.140222549438477
54, 8157, 8165, 8102, 8162, 8176, 8343, 8202, 8166, 8227, 8191, 8233, 8160, 8164, 8122,4.140222549438477
55, 8165, 8174, 8114, 8168, 8178, 8337, 8179, 8163, 8211, 8172, 8213, 8160, 8163, 8114,4.14848780632019
55, 8165, 8174, 8114, 8168, 8178, 8337, 8179, 8163, 8211, 8172, 8213, 8160, 8163, 8114,4.14848780632019
56, 8165, 8172, 8114, 8166, 8207, 8346, 8177, 8171, 8149, 8164, 8219, 8156, 8166, 8123,4.156221866607666
56, 8165, 8172, 8114, 8166, 8207, 8346, 8177, 8171, 8149, 8164, 8219, 8156, 8166, 8123,4.156221866607666
57, 8154, 8185, 8105, 8166, 8186, 8333, 8179, 8177, 8259, 8149, 8183, 8175, 8165, 8119,4.164206027984619
57, 8154, 8185, 8105, 8166, 8186, 8333, 8179, 8177, 8259, 8149, 8183, 8175, 8165, 8119,4.164206027984619
58, 8147, 8147, 8082, 8153, 8188, 8323, 8209, 8166, 8144, 8179, 8175, 8142, 8157, 8122,4.172383069992065
58, 8147, 8147, 8082, 8153, 8188, 8323, 8209, 8166, 8144, 8179, 8175, 8142, 8157, 8122,4.172383069992065
59, 8170, 8174, 8110, 8163, 8189, 8330, 8198, 8169, 8211, 8173, 8173, 8171, 8161, 8149,4.180387735366821
59, 8170, 8174, 8110, 8163, 8189, 8330, 8198, 8169, 8211, 8173, 8173, 8171, 8161, 8149,4.180387735366821
60, 8157, 8176, 8115, 8158, 8181, 8326, 8186, 8173, 8241, 8182, 8175, 8182, 8173, 8146,4.187217950820923
60, 8157, 8176, 8115, 8158, 8181, 8326, 8186, 8173, 8241, 8182, 8175, 8182, 8173, 8146,4.187217950820923
61, 8162, 8152, 8091, 8143, 8179, 8323, 8212, 8170, 8142, 8203, 8160, 8158, 8168, 8148,4.195765018463135
61, 8162, 8152, 8091, 8143, 8179, 8323, 8212, 8170, 8142, 8203, 8160, 8158, 8168, 8148,4.195765018463135
62, 8160, 8173, 8094, 8141, 8157, 8325, 8225, 8176, 8227, 8147, 8116, 8178, 8155, 8146,4.202817916870117
62, 8160, 8173, 8094, 8141, 8157, 8325, 8225, 8176, 8227, 8147, 8116, 8178, 8155, 8146,4.203815221786499
63, 8139, 8150, 8092, 8149, 8180, 8322, 8231, 8178, 8141, 8153, 8125, 8155, 8158, 8137,4.211817979812622
63, 8139, 8150, 8092, 8149, 8180, 8322, 8231, 8178, 8141, 8153, 8125, 8155, 8158, 8137,4.211817979812622
64, 8173, 8168, 8108, 8171, 8180, 8301, 8189, 8172, 8195, 8183, 8122, 8172, 8168, 8146,4.2192223072052
64, 8173, 8168, 8108, 8171, 8180, 8301, 8189, 8172, 8195, 8183, 8122, 8172, 8168, 8146,4.2192223072052
65, 8157, 8160, 8104, 8151, 8155, 8277, 8160, 8150, 8192, 8169, 8112, 8179, 8161, 8132,4.22664475440979
65, 8157, 8160, 8104, 8151, 8155, 8277, 8160, 8150, 8192, 8169, 8112, 8179, 8161, 8132,4.227675437927246
66, 8142, 8139, 8100, 8148, 8167, 8272, 8174, 8147, 8076, 8162, 8124, 8159, 8155, 8133,4.2352213859558105
66, 8142, 8139, 8100, 8148, 8167, 8272, 8174, 8147, 8076, 8162, 8124, 8159, 8155, 8133,4.2352213859558105
67, 8175, 8178, 8130, 8181, 8171, 8273, 8166, 8172, 8232, 8168, 8109, 8194, 8172, 8150,4.243208885192871
67, 8175, 8178, 8130, 8181, 8171, 8273, 8166, 8172, 8232, 8168, 8109, 8194, 8172, 8150,4.243208885192871
68, 8172, 8156, 8121, 8172, 8196, 8283, 8181, 8171, 8183, 8209, 8125, 8177, 8180, 8152,4.25020956993103
68, 8172, 8156, 8121, 8172, 8196, 8283, 8181, 8171, 8183, 8209, 8125, 8177, 8180, 8152,4.25020956993103
69, 8178, 8168, 8123, 8172, 8197, 8285, 8184, 8167, 8207, 8197, 8131, 8181, 8172, 8163,4.258244037628174
69, 8178, 8168, 8123, 8172, 8197, 8285, 8184, 8167, 8207, 8197, 8131, 8181, 8172, 8163,4.258244037628174
70, 8162, 8171, 8118, 8169, 8178, 8276, 8171, 8160, 8235, 8156, 8109, 8180, 8165, 8146,4.266256332397461
70, 8162, 8171, 8118, 8169, 8178, 8276, 8171, 8160, 8235, 8156, 8109, 8180, 8165, 8146,4.266256332397461
71, 8148, 8145, 8095, 8158, 8178, 8290, 8187, 8149, 8090, 8157, 8098, 8147, 8157, 8130,4.274357080459595
71, 8148, 8145, 8095, 8158, 8178, 8290, 8187, 8149, 8090, 8157, 8098, 8147, 8157, 8130,4.274357080459595
72, 8156, 8168, 8102, 8169, 8167, 8304, 8183, 8161, 8203, 8157, 8083, 8177, 8155, 8133,4.2823569774627686
72, 8156, 8168, 8102, 8169, 8167, 8304, 8183, 8161, 8203, 8157, 8083, 8177, 8155, 8133,4.2823569774627686
73, 8132, 8130, 8086, 8153, 8190, 8297, 8203, 8166, 8153, 8185, 8100, 8158, 8156, 8134,4.290196657180786
73, 8132, 8130, 8086, 8153, 8190, 8297, 8203, 8166, 8153, 8185, 8100, 8158, 8156, 8134,4.290196657180786
74, 8139, 8135, 8083, 8150, 8187, 8273, 8209, 8166, 8145, 8184, 8097, 8166, 8164, 8142,4.298185586929321
74, 8139, 8135, 8083, 8150, 8187, 8273, 8209, 8166, 8145, 8184, 8097, 8166, 8164, 8142,4.298185586929321
75, 8140, 8153, 8094, 8159, 8165, 8253, 8179, 8164, 8214, 8170, 8088, 8182, 8169, 8139,4.3064210414886475
75, 8140, 8153, 8094, 8159, 8165, 8253, 8179, 8164, 8214, 8170, 8088, 8182, 8169, 8139,4.3064210414886475
76, 8148, 8133, 8096, 8160, 8191, 8259, 8175, 8159, 8123, 8195, 8104, 8157, 8168, 8149,4.314006805419922
76, 8148, 8133, 8096, 8160, 8191, 8259, 8175, 8159, 8123, 8195, 8104, 8157, 8168, 8149,4.314006805419922
77, 8167, 8160, 8109, 8161, 8179, 8242, 8170, 8166, 8219, 8168, 8081, 8187, 8166, 8151,4.321013450622559
77, 8167, 8160, 8109, 8161, 8179, 8242, 8170, 8166, 8219, 8168, 8081, 8187, 8166, 8151,4.321013450622559
78, 8147, 8138, 8092, 8149, 8177, 8216, 8188, 8160, 8144, 8163, 8077, 8170, 8158, 8139,4.329217433929443
78, 8147, 8138, 8092, 8149, 8177, 8216, 8188, 8160, 8144, 8163, 8077, 8170, 8158, 8139,4.329217433929443
79, 8155, 8145, 8093, 8164, 8191, 8215, 8185, 8156, 8139, 8164, 8083, 8175, 8161, 8158,4.337061882019043
79, 8155, 8145, 8093, 8164, 8191, 8215, 8185, 8156, 8139, 8164, 8083, 8175, 8161, 8158,4.338091850280762
80, 8155, 8159, 8106, 8169, 8182, 8208, 8164, 8156, 8231, 8147, 8078, 8197, 8168, 8155,4.344955205917358
80, 8155, 8159, 8106, 8169, 8182, 8208, 8164, 8156, 8231, 8147, 8078, 8197, 8168, 8155,4.344955205917358
81, 8152, 8127, 8097, 8160, 8184, 8193, 8174, 8148, 8093, 8169, 8097, 8166, 8160, 8145,4.352948904037476
81, 8152, 8127, 8097, 8160, 8184, 8193, 8174, 8148, 8093, 8169, 8097, 8166, 8160, 8145,4.352948904037476
82, 8164, 8155, 8109, 8170, 8163, 8192, 8165, 8146, 8163, 8145, 8085, 8186, 8159, 8146,4.361220836639404
82, 8164, 8155, 8109, 8170, 8163, 8192, 8165, 8146, 8163, 8145, 8085, 8186, 8159, 8146,4.361220836639404
83, 8147, 8143, 8098, 8157, 8177, 8206, 8179, 8144, 8137, 8146, 8094, 8177, 8168, 8144,4.369252681732178
83, 8147, 8143, 8098, 8157, 8177, 8206, 8179, 8144, 8137, 8146, 8094, 8177, 8168, 8144,4.369252681732178
84, 8168, 8145, 8102, 8166, 8201, 8208, 8183, 8159, 8141, 8176, 8110, 8174, 8168, 8165,4.376217365264893
84, 8168, 8145, 8102, 8166, 8201, 8208, 8183, 8159, 8141, 8176, 8110, 8174, 8168, 8165,4.376217365264893
85, 8157, 8157, 8104, 8170, 8181, 8191, 8163, 8164, 8215, 8154, 8079, 8182, 8161, 8151,4.383743762969971
85, 8157, 8157, 8104, 8170, 8181, 8191, 8163, 8164, 8215, 8154, 8079, 8182, 8161, 8151,4.384812593460083
86, 8126, 8119, 8073, 8140, 8185, 8192, 8173, 8141, 8034, 8134, 8064, 8152, 8152, 8122,4.392520189285278
86, 8126, 8119, 8073, 8140, 8185, 8192, 8173, 8141, 8034, 8134, 8064, 8152, 8152, 8122,4.392520189285278
87, 8147, 8148, 8086, 8146, 8174, 8192, 8145, 8133, 8104, 8107, 8048, 8181, 8150, 8128,4.400465726852417
87, 8147, 8148, 8086, 8146, 8174, 8192, 8145, 8133, 8104, 8107, 8048, 8181, 8150, 8128,4.400465726852417
88, 8151, 8149, 8095, 8161, 8175, 8180, 8133, 8140, 8112, 8134, 8061, 8171, 8164, 8137,4.408185720443726
88, 8151, 8149, 8095, 8161, 8175, 8180, 8133, 8140, 8112, 8134, 8061, 8171, 8164, 8137,4.408185720443726
89, 8167, 8150, 8102, 8170, 8194, 8187, 8159, 8151, 8079, 8165, 8078, 8166, 8176, 8154,4.416221857070923
89, 8167, 8150, 8102, 8170, 8194, 8187, 8159, 8151, 8079, 8165, 8078, 8166, 8176, 8154,4.416221857070923
90, 8166, 8167, 8116, 8172, 8185, 8188, 8162, 8157, 8204, 8141, 8066, 8194, 8169, 8150,4.424211025238037
90, 8166, 8167, 8116, 8172, 8185, 8188, 8162, 8157, 8204, 8141, 8066, 8194, 8169, 8150,4.424211025238037
91, 8152, 8134, 8094, 8166, 8196, 8177, 8168, 8146, 8093, 8152, 8062, 8160, 8155, 8143,4.432213068008423
91, 8152, 8134, 8094, 8166, 8196, 8177, 8168, 8146, 8093, 8152, 8062, 8160, 8155, 8143,4.432213068008423
92, 8169, 8156, 8102, 8168, 8185, 8166, 8150, 8138, 8127, 8127, 8033, 8179, 8158, 8147,4.439221620559692
92, 8169, 8156, 8102, 8168, 8185, 8166, 8150, 8138, 8127, 8127, 8033, 8179, 8158, 8147,4.439221620559692
93, 8153, 8146, 8107, 8152, 8185, 8161, 8155, 8142, 8120, 8133, 8041, 8185, 8171, 8133,4.447235107421875
93, 8153, 8146, 8107, 8152, 8185, 8161, 8155, 8142, 8120, 8133, 8041, 8185, 8171, 8133,4.447235107421875
94, 8165, 8136, 8108, 8157, 8204, 8169, 8175, 8158, 8087, 8183, 8072, 8175, 8170, 8147,4.455221652984619
94, 8165, 8136, 8108, 8157, 8204, 8169, 8175, 8158, 8087, 8183, 8072, 8175, 8170, 8147,4.455221652984619
95, 8174, 8171, 8116, 8170, 8184, 8171, 8182, 8172, 8217, 8153, 8060, 8198, 8161, 8154,4.463243246078491
