COUNTER,F3,FC5,AF3,F7,T7,P7,O1,O2,P8,T8,F8,AF4,FC6,F4,Timestamp
31, 8170, 8165, 8145, 8163, 8195, 8165, 8154, 8172, 8163, 8168, 8124, 8162, 8166, 8058,0.0272524356842041
32, 8161, 8162, 8151, 8151, 8190, 8162, 8145, 8166, 8149, 8158, 8119, 8169, 8150, 8061,0.0272524356842041
33, 8159, 8162, 8151, 8140, 8199, 8170, 8149, 8175, 8156, 8164, 8114, 8161, 8149, 8063,0.042884111404418945
34, 8164, 8164, 8143, 8161, 8208, 8183, 8162, 8177, 8178, 8183, 8120, 8151, 8160, 8068,0.042884111404418945
35, 8171, 8184, 8188, 8193, 8209, 8192, 8169, 8172, 8179, 8180, 8146, 8181, 8161, 8078,0.05830264091491699
36, 8169, 8185, 8190, 8208, 8212, 8199, 8180, 8167, 8179, 8191, 8171, 8173, 8169, 8080,0.05830264091491699
37, 8167, 8159, 8191, 8185, 8201, 8185, 8172, 8164, 8167, 8200, 8156, 8168, 8156, 8086,0.07399654388427734
38, 8168, 8154, 8186, 8184, 8186, 8166, 8169, 8168, 8171, 8203, 8158, 8176, 8152, 8080,0.07399654388427734
39, 8175, 8156, 8175, 8186, 8181, 8156, 8165, 8166, 8182, 8187, 8189, 8188, 8164, 8081,0.09009766578674316
40, 8188, 8155, 8198, 8168, 8179, 8157, 8153, 8170, 8180, 8172, 8202, 8210, 8167, 8095,0.09009766578674316
41, 8177, 8156, 8168, 8168, 8177, 8155, 8144, 8168, 8179, 8184, 8195, 8185, 8174, 8076,0.10568618774414062
42, 8162, 8158, 8161, 8150, 8176, 8143, 8128, 8164, 8161, 8173, 8187, 8185, 8175, 8065,0.10568618774414062
43, 8179, 8173, 8191, 8159, 8197, 8161, 8144, 8172, 8163, 8174, 8207, 8201, 8192, 8082,0.12087202072143555
44, 8189, 8176, 8185, 8179, 8214, 8182, 8171, 8167, 8167, 8184, 8205, 8179, 8187, 8081,0.12087202072143555
45, 8160, 8154, 8182, 8151, 8191, 8181, 8166, 8164, 8151, 8168, 8161, 8163, 8146, 8072,0.1360177993774414
46, 8154, 8145, 8156, 8140, 8180, 8175, 8159, 8176, 8166, 8174, 8158, 8151, 8161, 8080,0.1360177993774414
47, 8176, 8163, 8169, 8147, 8195, 8157, 8136, 8161, 8154, 8163, 8180, 8169, 8181, 8084,0.15205907821655273
48, 8166, 8173, 8186, 8154, 8197, 8159, 8132, 8131, 8122, 8140, 8171, 8163, 8152, 8063,0.15205907821655273
49, 8143, 8148, 8152, 8145, 8180, 8179, 8162, 8138, 8126, 8145, 8142, 8131, 8119, 8057,0.16727495193481445
50, 8141, 8124, 8149, 8111, 8172, 8179, 8162, 8164, 8133, 8140, 8121, 8142, 8107, 8064,0.16727495193481445
51, 8139, 8124, 8134, 8100, 8177, 8159, 8146, 8158, 8133, 8126, 8132, 8134, 8116, 8038,0.18291735649108887
52, 8139, 8140, 8153, 8102, 8176, 8154, 8145, 8147, 8125, 8120, 8143, 8133, 8111, 8033,0.18291735649108887
53, 8138, 8151, 8187, 8122, 8182, 8187, 8174, 8162, 8135, 8144, 8145, 8138, 8107, 8055,0.1985321044921875
54, 8132, 8138, 8165, 8143, 8191, 8202, 8196, 8182, 8171, 8168, 8147, 8126, 8120, 8068,0.1985321044921875
55, 8150, 8141, 8180, 8130, 8184, 8180, 8186, 8198, 8194, 8163, 8146, 8158, 8139, 8090,0.2143387794494629
56, 8173, 8156, 8175, 8127, 8181, 8170, 8188, 8201, 8209, 8176, 8165, 8166, 8169, 8093,0.2143387794494629
57, 8174, 8151, 8168, 8131, 8189, 8163, 8180, 8185, 8194, 8172, 8176, 8165, 8174, 8086,0.2299485206604004
58, 8175, 8157, 8190, 8136, 8192, 8162, 8170, 8179, 8181, 8151, 8166, 8178, 8166, 8077,0.2299485206604004
59, 8184, 8175, 8183, 8159, 8198, 8174, 8175, 8176, 8182, 8151, 8160, 8166, 8158, 8066,0.2449939250946045
60, 8179, 8180, 8206, 8168, 8203, 8174, 8169, 8164, 8167, 8148, 8160, 8171, 8137, 8068,0.2449939250946045
61, 8153, 8166, 8185, 8160, 8199, 8172, 8170, 8169, 8174, 8160, 8154, 8146, 8128, 8049,0.2605888843536377
62, 8132, 8138, 8153, 8138, 8179, 8161, 8164, 8168, 8179, 8164, 8120, 8117, 8108, 8025,0.2605888843536377
63, 8126, 8133, 8167, 8133, 8168, 8159, 8163, 8163, 8178, 8164, 8107, 8122, 8099, 8038,0.27661633491516113
64, 8128, 8137, 8148, 8139, 8180, 8167, 8177, 8175, 8200, 8186, 8130, 8122, 8135, 8062,0.27661633491516113
65, 8133, 8124, 8146, 8108, 8174, 8154, 8163, 8178, 8196, 8175, 8133, 8141, 8145, 8068,0.2918059825897217
66, 8135, 8126, 8137, 8104, 8160, 8140, 8149, 8174, 8189, 8157, 8129, 8139, 8140, 8052,0.30728936195373535
67, 8144, 8135, 8133, 8119, 8159, 8128, 8135, 8167, 8179, 8148, 8121, 8131, 8145, 8049,0.30728936195373535
68, 8154, 8149, 8171, 8127, 8170, 8133, 8130, 8160, 8161, 8145, 8137, 8162, 8161, 8061,0.32306551933288574
69, 8165, 8169, 8181, 8154, 8181, 8147, 8143, 8146, 8158, 8157, 8182, 8172, 8177, 8063,0.32306551933288574
70, 8171, 8173, 8203, 8159, 8175, 8150, 8142, 8140, 8138, 8145, 8177, 8175, 8153, 8066,0.3381490707397461
71, 8155, 8171, 8191, 8164, 8175, 8166, 8155, 8150, 8138, 8143, 8152, 8149, 8133, 8054,0.3381490707397461
72, 8137, 8160, 8159, 8163, 8179, 8169, 8163, 8149, 8153, 8154, 8149, 8125, 8132, 8046,0.35368800163269043
73, 8141, 8151, 8177, 8151, 8176, 8159, 8156, 8155, 8157, 8161, 8150, 8146, 8134, 8063,0.35368800163269043
74, 8158, 8150, 8162, 8166, 8180, 8164, 8168, 8173, 8181, 8189, 8160, 8145, 8159, 8079,0.36930322647094727
75, 8167, 8150, 8154, 8157, 8182, 8165, 8166, 8178, 8190, 8194, 8165, 8150, 8158, 8094,0.36930322647094727
76, 8159, 8143, 8142, 8128, 8176, 8157, 8154, 8169, 8189, 8177, 8168, 8142, 8146, 8085,0.3848590850830078
77, 8157, 8136, 8130, 8122, 8172, 8140, 8144, 8161, 8180, 8165, 8184, 8142, 8155, 8067,0.3848590850830078
78, 8173, 8155, 8170, 8140, 8170, 8130, 8140, 8161, 8162, 8163, 8203, 8179, 8165, 8069,0.39993810653686523
79, 8182, 8173, 8168, 8166, 8177, 8138, 8149, 8147, 8155, 8161, 8205, 8165, 8157, 8064,0.39993810653686523
80, 8178, 8178, 8178, 8166, 8188, 8144, 8142, 8137, 8130, 8133, 8187, 8159, 8129, 8058,0.41519904136657715
81, 8169, 8186, 8197, 8175, 8190, 8160, 8156, 8160, 8143, 8150, 8195, 8166, 8138, 8059,0.41519904136657715
82, 8162, 8173, 8179, 8188, 8180, 8171, 8180, 8179, 8189, 8199, 8210, 8153, 8162, 8074,0.4308450222015381
83, 8160, 8158, 8189, 8177, 8169, 8165, 8178, 8174, 8191, 8198, 8197, 8157, 8156, 8086,0.4308450222015381
84, 8155, 8160, 8164, 8181, 8176, 8166, 8176, 8172, 8183, 8192, 8192, 8148, 8156, 8074,0.4469425678253174
85, 8160, 8161, 8159, 8171, 8182, 8167, 8167, 8176, 8184, 8187, 8195, 8161, 8156, 8083,0.4469425678253174
86, 8173, 8160, 8169, 8167, 8179, 8173, 8167, 8179, 8190, 8182, 8199, 8169, 8172, 8097,0.46164655685424805
87, 8175, 8160, 8150, 8168, 8177, 8159, 8154, 8169, 8177, 8174, 8207, 8152, 8184, 8092,0.46164655685424805
88, 8176, 8172, 8176, 8154, 8173, 8138, 8127, 8160, 8148, 8153, 8215, 8174, 8169, 8084,0.4768693447113037
89, 8183, 8183, 8173, 8171, 8181, 8140, 8140, 8155, 8148, 8154, 8223, 8170, 8169, 8066,0.4768693447113037
90, 8192, 8178, 8175, 8179, 8182, 8132, 8140, 8139, 8129, 8130, 8205, 8163, 8155, 8064,0.4928896427154541
91, 8185, 8177, 8186, 8172, 8177, 8129, 8127, 8138, 8113, 8109, 8198, 8168, 8144, 8064,0.4928896427154541
92, 8171, 8172, 8160, 8172, 8178, 8136, 8136, 8152, 8136, 8137, 8216, 8154, 8163, 8053,0.5080199241638184
93, 8176, 8173, 8188, 8171, 8173, 8135, 8144, 8155, 8136, 8148, 8212, 8163, 8161, 8064,0.5080199241638184
94, 8178, 8180, 8182, 8191, 8170, 8152, 8159, 8149, 8135, 8151, 8194, 8145, 8151, 8066,0.5242486000061035
95, 8166, 8169, 8164, 8187, 8173, 8166, 8162, 8149, 8141, 8149, 8182, 8138, 8148, 8068,0.5242486000061035
96, 8158, 8162, 8184, 8179, 8177, 8167, 8167, 8158, 8149, 8152, 8188, 8150, 8163, 8080,0.5403275489807129
97, 8168, 8165, 8175, 8198, 8181, 8176, 8183, 8161, 8168, 8181, 8202, 8140, 8188, 8088,0.5403275489807129
98, 8182, 8169, 8185, 8187, 8173, 8179, 8175, 8173, 8181, 8197, 8208, 8171, 8196, 8099,0.5559947490692139
99, 8182, 8166, 8168, 8166, 8165, 8164, 8167, 8183, 8191, 8198, 8224, 8182, 8207, 8094,0.5559947490692139
100, 8189, 8162, 8158, 8162, 8163, 8141, 8155, 8163, 8170, 8180, 8227, 8178, 8201, 8087,0.5718061923980713
101, 8202, 8178, 8190, 8179, 8167, 8151, 8149, 8154, 8150, 8164, 8222, 8194, 8188, 8089,0.5718061923980713
102, 8195, 8187, 8174, 8187, 8173, 8154, 8146, 8154, 8151, 8156, 8229, 8180, 8186, 8078,0.5874316692352295
103, 8180, 8177, 8181, 8164, 8167, 8140, 8131, 8140, 8134, 8134, 8215, 8179, 8169, 8072,0.5874316692352295
104, 8177, 8172, 8183, 8183, 8163, 8164, 8151, 8140, 8151, 8155, 8204, 8166, 8164, 8074,0.6033008098602295
105, 8176, 8171, 8180, 8202, 8163, 8177, 8171, 8164, 8180, 8180, 8207, 8160, 8170, 8087,0.6033008098602295
106, 8176, 8177, 8202, 8192, 8165, 8157, 8165, 8180, 8183, 8169, 8213, 8182, 8179, 8098,0.619053840637207
107, 8192, 8182, 8187, 8196, 8173, 8149, 8162, 8169, 8188, 8168, 8233, 8182, 8205, 8093,0.619053840637207
108, 8204, 8189, 8206, 8200, 8171, 8155, 8150, 8155, 8166, 8155, 8236, 8195, 8195, 8087,0.6340925693511963
109, 8193, 8194, 8212, 8220, 8173, 8168, 8159, 8152, 8149, 8151, 8213, 8177, 8163, 8070,0.6340925693511963
110, 8181, 8176, 8188, 8222, 8178, 8173, 8171, 8148, 8153, 8160, 8192, 8151, 8147, 8067,0.6497204303741455
111, 8177, 8167, 8201, 8200, 8172, 8176, 8173, 8154, 8160, 8159, 8191, 8164, 8148, 8083,0.6497204303741455
112, 8188, 8173, 8192, 8210, 8178, 8178, 8182, 8166, 8184, 8167, 8206, 8163, 8169, 8092,0.665351152420044
113, 8196, 8165, 8195, 8199, 8172, 8154, 8158, 8164, 8179, 8148, 8210, 8175, 8171, 8103,0.665351152420044
114, 8187, 8164, 8187, 8173, 8160, 8135, 8133, 8154, 8165, 8130, 8213, 8174, 8170, 8089,0.6809184551239014
115, 8186, 8175, 8186, 8181, 8164, 8142, 8135, 8150, 8157, 8131, 8209, 8162, 8167, 8078,0.6809184551239014
116, 8196, 8181, 8226, 8205, 8170, 8163, 8150, 8162, 8152, 8135, 8205, 8173, 8160, 8094,0.695976972579956
117, 8182, 8162, 8191, 8210, 8166, 8185, 8175, 8169, 8166, 8163, 8215, 8148, 8165, 8094,0.695976972579956
118, 8163, 8146, 8172, 8180, 8162, 8174, 8172, 8163, 8160, 8163, 8192, 8137, 8140, 8086,0.7112555503845215
119, 8172, 8153, 8182, 8173, 8163, 8158, 8163, 8168, 8167, 8161, 8183, 8148, 8140, 8088,0.7112555503845215
120, 8189, 8154, 8167, 8176, 8154, 8144, 8149, 8171, 8177, 8162, 8215, 8154, 8172, 8094,0.7264366149902344
121, 8191, 8155, 8188, 8159, 8144, 8136, 8128, 8158, 8146, 8133, 8220, 8174, 8160, 8083,0.7264366149902344
122, 8191, 8173, 8193, 8179, 8159, 8150, 8134, 8141, 8133, 8130, 8220, 8167, 8146, 8063,0.7421073913574219
123, 8196, 8187, 8214, 8201, 8168, 8158, 8136, 8140, 8136, 8143, 8234, 8177, 8156, 8079,0.7421073913574219
124, 8184, 8187, 8224, 8205, 8165, 8163, 8144, 8150, 8146, 8152, 8226, 8172, 8161, 8092,0.7572207450866699
125, 8164, 8164, 8187, 8196, 8160, 8173, 8160, 8149, 8156, 8147, 8194, 8127, 8148, 8081,0.7729294300079346
126, 8158, 8146, 8195, 8177, 8156, 8180, 8162, 8161, 8154, 8140, 8187, 8140, 8141, 8091,0.7729294300079346
127, 8169, 8157, 8185, 8187, 8163, 8169, 8165, 8176, 8171, 8165, 8218, 8159, 8168, 8105,0.7881567478179932
237, 8190, 8165, 8189, 8188, 8163, 8147, 8150, 8173, 8172, 8174, 8239, 8184, 8185, 8120,0.7881567478179932
0, 8200, 8172, 8212, 8190, 8157, 8153, 8141, 8172, 8165, 8162, 8247, 8205, 8191, 8122,0.7881567478179932
1, 8195, 8180, 8197, 8201, 8163, 8154, 8138, 8160, 8160, 8146, 8244, 8185, 8185, 8097,0.803973913192749
2, 8195, 8187, 8221, 8198, 8167, 8142, 8132, 8139, 8137, 8127, 8233, 8193, 8162, 8087,0.803973913192749
3, 8194, 8194, 8225, 8221, 8170, 8162, 8154, 8141, 8137, 8144, 8244, 8187, 8167, 8093,0.8192493915557861
4, 8177, 8189, 8218, 8227, 8173, 8177, 8164, 8144, 8132, 8148, 8230, 8168, 8156, 8087,0.8349509239196777
5, 8161, 8180, 8223, 8215, 8176, 8170, 8166, 8145, 8126, 8138, 8202, 8162, 8140, 8081,0.8349509239196777
6, 8158, 8165, 8191, 8206, 8167, 8162, 8174, 8152, 8148, 8154, 8210, 8150, 8158, 8096,0.849961519241333
7, 8167, 8151, 8192, 8172, 8146, 8148, 8164, 8165, 8156, 8159, 8223, 8173, 8174, 8115,0.849961519241333
8, 8173, 8153, 8189, 8166, 8151, 8144, 8156, 8175, 8162, 8163, 8234, 8180, 8195, 8102,0.865863561630249
9, 8171, 8164, 8190, 8180, 8164, 8142, 8140, 8163, 8155, 8151, 8224, 8175, 8188, 8090,0.865863561630249
10, 8175, 8176, 8209, 8171, 8157, 8144, 8130, 8149, 8140, 8136, 8208, 8177, 8162, 8087,0.8812971115112305
11, 8187, 8175, 8191, 8181, 8159, 8151, 8147, 8153, 8148, 8152, 8224, 8164, 8166, 8088,0.8812971115112305
12, 8198, 8169, 8214, 8188, 8168, 8167, 8165, 8169, 8164, 8162, 8228, 8184, 8168, 8110,0.8971920013427734
13, 8193, 8161, 8213, 8178, 8165, 8193, 8196, 8181, 8190, 8175, 8209, 8178, 8165, 8115,0.8971920013427734
14, 8191, 8157, 8198, 8172, 8159, 8186, 8206, 8178, 8188, 8167, 8192, 8166, 8158, 8114,0.912207841873169
15, 8207, 8173, 8220, 8192, 8168, 8172, 8196, 8182, 8178, 8158, 8194, 8193, 8162, 8129,0.912207841873169
16, 8209, 8176, 8188, 8213, 8179, 8173, 8192, 8184, 8195, 8181, 8197, 8181, 8180, 8119,0.9275708198547363
17, 8191, 8159, 8177, 8189, 8167, 8158, 8168, 8173, 8179, 8158, 8179, 8174, 8166, 8100,0.9275708198547363
18, 8182, 8160, 8173, 8184, 8155, 8146, 8157, 8171, 8167, 8130, 8177, 8169, 8156, 8087,0.9431638717651367
19, 8192, 8171, 8170, 8198, 8161, 8145, 8159, 8169, 8176, 8141, 8192, 8170, 8166, 8090,0.9431638717651367
20, 8186, 8181, 8200, 8199, 8174, 8159, 8163, 8159, 8171, 8139, 8184, 8174, 8154, 8093,0.9589877128601074
21, 8151, 8173, 8166, 8202, 8182, 8175, 8189, 8153, 8178, 8146, 8159, 8130, 8132, 8074,0.9589877128601074
22, 8149, 8152, 8150, 8182, 8172, 8172, 8205, 8167, 8191, 8165, 8147, 8127, 8127, 8085,0.9740743637084961
23, 8172, 8152, 8153, 8180, 8166, 8170, 8197, 8182, 8204, 8175, 8173, 8149, 8157, 8097,0.9740743637084961
24, 8175, 8162, 8151, 8187, 8164, 8157, 8168, 8169, 8193, 8152, 8191, 8150, 8165, 8082,0.9893486499786377
25, 8163, 8170, 8181, 8188, 8166, 8159, 8165, 8156, 8173, 8143, 8175, 8152, 8139, 8070,0.9893486499786377
26, 8148, 8158, 8154, 8199, 8178, 8185, 8204, 8163, 8193, 8186, 8170, 8120, 8135, 8065,1.0053901672363281
27, 8145, 8136, 8139, 8177, 8169, 8172, 8202, 8175, 8203, 8196, 8171, 8127, 8142, 8079,1.0053901672363281
28, 8157, 8148, 8155, 8167, 8159, 8149, 8177, 8181, 8200, 8184, 8180, 8154, 8166, 8086,1.0211684703826904
29, 8172, 8168, 8168, 8186, 8171, 8150, 8173, 8175, 8192, 8185, 8188, 8144, 8175, 8079,1.0211684703826904
30, 8167, 8162, 8198, 8188, 8175, 8163, 8179, 8170, 8181, 8182, 8170, 8137, 8139, 8084,1.036428689956665
31, 8155, 8140, 8166, 8190, 8170, 8177, 8195, 8173, 8205, 8202, 8158, 8124, 8139, 8091,1.036428689956665
32, 8171, 8136, 8163, 8177, 8169, 8171, 8191, 8183, 8217, 8202, 8166, 8152, 8167, 8107,1.0523066520690918
33, 8195, 8163, 8199, 8180, 8178, 8165, 8187, 8179, 8205, 8189, 8194, 8180, 8188, 8110,1.0523066520690918
34, 8193, 8176, 8192, 8198, 8185, 8161, 8183, 8156, 8187, 8192, 8202, 8163, 8182, 8095,1.0674819946289062
35, 8177, 8174, 8199, 8188, 8179, 8157, 8162, 8142, 8157, 8180, 8186, 8163, 8151, 8083,1.0674819946289062
36, 8172, 8181, 8186, 8201, 8181, 8171, 8174, 8153, 8174, 8187, 8199, 8153, 8161, 8079,1.0832884311676025
37, 8173, 8176, 8189, 8208, 8188, 8189, 8200, 8173, 8206, 8218, 8206, 8160, 8190, 8100,1.0832884311676025
38, 8163, 8164, 8193, 8192, 8188, 8190, 8212, 8190, 8218, 8242, 8189, 8163, 8192, 8114,1.098576307296753
39, 8159, 8146, 8153, 8178, 8172, 8170, 8202, 8185, 8216, 8219, 8177, 8136, 8175, 8102,1.098576307296753
40, 8163, 8137, 8161, 8159, 8151, 8157, 8180, 8175, 8196, 8174, 8168, 8147, 8164, 8099,1.1138813495635986
41, 8155, 8138, 8148, 8153, 8156, 8162, 8173, 8174, 8195, 8187, 8172, 8143, 8180, 8092,1.1143252849578857
42, 8149, 8130, 8133, 8141, 8166, 8148, 8147, 8162, 8177, 8186, 8175, 8141, 8170, 8081,1.1298682689666748
43, 8157, 8136, 8161, 8143, 8156, 8143, 8135, 8149, 8153, 8154, 8175, 8154, 8149, 8069,1.1298682689666748
44, 8165, 8150, 8165, 8165, 8158, 8162, 8159, 8148, 8153, 8147, 8179, 8139, 8150, 8064,1.145298957824707
45, 8165, 8148, 8186, 8164, 8167, 8176, 8166, 8157, 8149, 8151, 8165, 8139, 8132, 8073,1.145298957824707
46, 8154, 8141, 8167, 8164, 8167, 8193, 8181, 8171, 8182, 8183, 8162, 8126, 8139, 8076,1.1611299514770508
47, 8160, 8147, 8154, 8158, 8165, 8188, 8194, 8185, 8218, 8208, 8179, 8137, 8170, 8093,1.1611299514770508
48, 8176, 8150, 8175, 8145, 8165, 8163, 8188, 8189, 8204, 8204, 8187, 8171, 8186, 8107,1.1766657829284668
49, 8173, 8139, 8151, 8150, 8159, 8150, 8171, 8175, 8177, 8185, 8176, 8155, 8190, 8089,1.1766657829284668
50, 8167, 8150, 8171, 8153, 8145, 8151, 8152, 8167, 8159, 8152, 8141, 8154, 8174, 8086,1.1922826766967773
51, 8171, 8166, 8182, 8160, 8153, 8165, 8166, 8171, 8166, 8158, 8123, 8146, 8162, 8084,1.1922826766967773
52, 8165, 8152, 8159, 8149, 8168, 8171, 8175, 8170, 8164, 8175, 8126, 8132, 8152, 8072,1.208284854888916
53, 8152, 8148, 8173, 8150, 8173, 8186, 8179, 8170, 8158, 8172, 8125, 8138, 8138, 8065,1.208284854888916
54, 8153, 8154, 8167, 8183, 8178, 8203, 8194, 8162, 8164, 8177, 8117, 8115, 8122, 8060,1.2238798141479492
55, 8154, 8142, 8180, 8171, 8170, 8184, 8183, 8151, 8151, 8169, 8108, 8122, 8106, 8065,1.2238798141479492
56, 8151, 8134, 8172, 8155, 8166, 8173, 8174, 8164, 8160, 8177, 8126, 8134, 8132, 8070,1.2394402027130127
57, 8158, 8132, 8150, 8152, 8172, 8175, 8169, 8176, 8174, 8191, 8133, 8130, 8153, 8086,1.2394402027130127
58, 8162, 8141, 8176, 8142, 8172, 8168, 8166, 8173, 8174, 8189, 8128, 8150, 8155, 8099,1.255096197128296
59, 8161, 8158, 8169, 8150, 8167, 8158, 8169, 8175, 8193, 8201, 8158, 8154, 8184, 8095,1.255096197128296
60, 8174, 8154, 8176, 8139, 8165, 8148, 8149, 8176, 8187, 8194, 8187, 8169, 8186, 8105,1.2708001136779785
61, 8185, 8153, 8180, 8134, 8174, 8156, 8145, 8173, 8176, 8193, 8204, 8172, 8180, 8105,1.2708001136779785
62, 8190, 8169, 8177, 8146, 8171, 8158, 8160, 8169, 8180, 8203, 8214, 8167, 8191, 8097,1.2863638401031494
63, 8197, 8180, 8212, 8148, 8159, 8156, 8162, 8170, 8173, 8188, 8211, 8183, 8187, 8108,1.2863638401031494
64, 8196, 8171, 8193, 8159, 8169, 8166, 8164, 8158, 8170, 8182, 8204, 8157, 8180, 8099,1.3021326065063477
65, 8181, 8169, 8193, 8153, 8179, 8170, 8160, 8142, 8147, 8174, 8187, 8142, 8162, 8083,1.3021326065063477
66, 8167, 8174, 8210, 8161, 8179, 8181, 8171, 8149, 8143, 8188, 8184, 8130, 8156, 8084,1.3172340393066406
67, 8163, 8150, 8181, 8163, 8176, 8185, 8180, 8160, 8165, 8207, 8185, 8108, 8166, 8097,1.3172340393066406
68, 8159, 8134, 8184, 8141, 8170, 8179, 8166, 8168, 8171, 8204, 8174, 8125, 8169, 8109,1.333327054977417
69, 8155, 8146, 8178, 8155, 8175, 8179, 8168, 8172, 8185, 8217, 8185, 8121, 8177, 8102,1.333327054977417
70, 8161, 8143, 8184, 8150, 8174, 8169, 8165, 8167, 8184, 8216, 8179, 8117, 8170, 8112,1.3488757610321045
71, 8159, 8129, 8182, 8112, 8158, 8158, 8156, 8170, 8181, 8201, 8153, 8108, 8165, 8122,1.3488757610321045
72, 8153, 8122, 8151, 8104, 8147, 8138, 8142, 8169, 8173, 8172, 8148, 8092, 8164, 8102,1.364077091217041
73, 8170, 8139, 8182, 8132, 8149, 8121, 8120, 8158, 8146, 8136, 8157, 8119, 8157, 8091,1.364077091217041
74, 8193, 8171, 8198, 8169, 8166, 8135, 8135, 8152, 8146, 8149, 8173, 8126, 8171, 8092,1.3800537586212158
75, 8198, 8179, 8208, 8171, 8174, 8147, 8148, 8148, 8134, 8151, 8179, 8127, 8164, 8094,1.3800537586212158
76, 8186, 8171, 8216, 8165, 8168, 8149, 8148, 8143, 8112, 8133, 8175, 8118, 8146, 8080,1.3950650691986084
77, 8171, 8163, 8184, 8170, 8170, 8155, 8156, 8145, 8118, 8147, 8166, 8088, 8160, 8076,1.3950650691986084
78, 8160, 8161, 8194, 8157, 8173, 8164, 8158, 8154, 8127, 8168, 8152, 8098, 8164, 8096,1.410231590270996
79, 8155, 8159, 8181, 8165, 8172, 8170, 8172, 8165, 8146, 8189, 8159, 8086, 8160, 8093,1.4258527755737305
80, 8157, 8150, 8174, 8170, 8167, 8166, 8181, 8173, 8156, 8187, 8161, 8080, 8160, 8095,1.4258527755737305
81, 8161, 8153, 8190, 8163, 8164, 8175, 8188, 8182, 8168, 8184, 8161, 8100, 8172, 8116,1.441396951675415
82, 8161, 8150, 8160, 8150, 8160, 8170, 8182, 8176, 8179, 8188, 8169, 8092, 8184, 8114,1.441396951675415
83, 8164, 8145, 8177, 8131, 8156, 8142, 8159, 8170, 8162, 8162, 8166, 8105, 8175, 8099,1.4566857814788818
84, 8175, 8159, 8188, 8152, 8170, 8146, 8167, 8178, 8164, 8160, 8178, 8112, 8184, 8091,1.4566857814788818
85, 8178, 8163, 8178, 8154, 8170, 8147, 8159, 8157, 8155, 8156, 8175, 8108, 8171, 8087,1.472318172454834
86, 8170, 8161, 8193, 8139, 8154, 8140, 8140, 8138, 8131, 8125, 8152, 8101, 8140, 8069,1.472318172454834
87, 8161, 8172, 8188, 8164, 8160, 8158, 8158, 8154, 8146, 8135, 8159, 8076, 8149, 8054,1.487917184829712
88, 8164, 8187, 8216, 8179, 8172, 8178, 8172, 8172, 8154, 8163, 8169, 8095, 8163, 8075,1.487917184829712
89, 8170, 8188, 8211, 8181, 8180, 8191, 8188, 8173, 8167, 8179, 8173, 8103, 8174, 8094,1.503422737121582
90, 8171, 8167, 8190, 8169, 8179, 8193, 8194, 8172, 8182, 8177, 8165, 8098, 8171, 8100,1.503422737121582
91, 8171, 8156, 8206, 8159, 8168, 8188, 8182, 8177, 8177, 8178, 8148, 8099, 8161, 8105,1.5194966793060303
92, 8166, 8156, 8172, 8165, 8168, 8175, 8175, 8174, 8178, 8188, 8140, 8070, 8164, 8097,1.5194966793060303
93, 8172, 8153, 8169, 8146, 8171, 8160, 8170, 8175, 8181, 8172, 8141, 8089, 8162, 8099,1.5346548557281494
94, 8187, 8157, 8178, 8150, 8170, 8160, 8174, 8183, 8193, 8168, 8154, 8106, 8176, 8100,1.5346548557281494
95, 8192, 8162, 8170, 8166, 8168, 8147, 8149, 8164, 8170, 8152, 8153, 8084, 8170, 8087,1.550325870513916
96, 8189, 8169, 8188, 8165, 8167, 8136, 8124, 8144, 8136, 8122, 8150, 8086, 8146, 8070,1.550325870513916
97, 8184, 8164, 8162, 8173, 8169, 8147, 8140, 8147, 8147, 8142, 8164, 8069, 8162, 8058,1.5661320686340332
98, 8172, 8158, 8166, 8164, 8160, 8143, 8135, 8151, 8137, 8154, 8154, 8069, 8167, 8070,1.5661320686340332
99, 8163, 8173, 8184, 8176, 8165, 8144, 8132, 8154, 8128, 8146, 8153, 8069, 8153, 8074,1.581263542175293
100, 8165, 8170, 8168, 8200, 8174, 8153, 8148, 8151, 8145, 8144, 8166, 8054, 8149, 8075,1.581263542175293
101, 8156, 8145, 8173, 8180, 8164, 8158, 8156, 8147, 8143, 8147, 8141, 8059, 8142, 8083,1.5973119735717773
102, 8153, 8137, 8157, 8172, 8165, 8171, 8169, 8147, 8143, 8166, 8135, 8049, 8155, 8078,1.5973119735717773
103, 8162, 8148, 8166, 8177, 8172, 8174, 8173, 8157, 8145, 8172, 8164, 8063, 8162, 8083,1.6133766174316406
104, 8165, 8152, 8173, 8181, 8171, 8170, 8176, 8173, 8163, 8185, 8182, 8077, 8163, 8093,1.6133766174316406
105, 8180, 8148, 8158, 8176, 8170, 8161, 8165, 8166, 8165, 8182, 8183, 8080, 8173, 8100,1.62929105758667
106, 8199, 8160, 8185, 8167, 8173, 8148, 8140, 8152, 8133, 8139, 8182, 8103, 8174, 8092,1.62929105758667
107, 8184, 8165, 8161, 8178, 8181, 8149, 8143, 8150, 8134, 8148, 8187, 8079, 8172, 8058,1.6444735527038574
108, 8172, 8158, 8153, 8174, 8184, 8146, 8144, 8151, 8146, 8167, 8188, 8066, 8163, 8053,1.6444735527038574
109, 8187, 8176, 8184, 8187, 8185, 8156, 8147, 8153, 8147, 8154, 8197, 8081, 8170, 8064,1.6605167388916016
110, 8193, 8194, 8189, 8218, 8185, 8172, 8160, 8163, 8153, 8164, 8206, 8082, 8181, 8077,1.6605167388916016
111, 8177, 8187, 8207, 8212, 8187, 8179, 8170, 8172, 8156, 8194, 8194, 8091, 8177, 8104,1.6761860847473145
112, 8157, 8167, 8175, 8200, 8189, 8193, 8186, 8168, 8166, 8215, 8179, 8060, 8186, 8100,1.6761860847473145
113, 8156, 8152, 8158, 8189, 8179, 8190, 8185, 8168, 8163, 8205, 8172, 8063, 8182, 8093,1.6912689208984375
114, 8169, 8162, 8178, 8193, 8179, 8186, 8193, 8187, 8182, 8204, 8188, 8097, 8193, 8112,1.6912689208984375
115, 8174, 8164, 8167, 8198, 8189, 8179, 8196, 8188, 8203, 8205, 8185, 8085, 8206, 8110,1.7073709964752197
116, 8164, 8153, 8180, 8172, 8171, 8158, 8170, 8174, 8179, 8176, 8153, 8089, 8178, 8094,1.7073709964752197
117, 8157, 8144, 8164, 8161, 8156, 8146, 8167, 8175, 8173, 8167, 8160, 8079, 8182, 8080,1.7228960990905762
118, 8164, 8150, 8157, 8162, 8164, 8140, 8167, 8178, 8175, 8157, 8180, 8086, 8206, 8080,1.7228960990905762
119, 8182, 8171, 8193, 8175, 8179, 8149, 8164, 8178, 8177, 8160, 8193, 8121, 8216, 8093,1.7384541034698486
120, 8195, 8179, 8194, 8197, 8183, 8154, 8172, 8176, 8195, 8195, 8217, 8118, 8231, 8104,1.7384541034698486
121, 8198, 8181, 8217, 8190, 8175, 8151, 8168, 8176, 8193, 8199, 8226, 8127, 8239, 8121,1.754077434539795
122, 8199, 8187, 8217, 8196, 8184, 8160, 8171, 8169, 8194, 8194, 8227, 8121, 8237, 8118,1.754077434539795
123, 8188, 8178, 8200, 8199, 8193, 8149, 8157, 8147, 8180, 8185, 8213, 8103, 8206, 8100,1.7695035934448242
124, 8164, 8173, 8205, 8191, 8188, 8145, 8145, 8146, 8159, 8175, 8184, 8092, 8177, 8080,1.7695035934448242
125, 8153, 8172, 8184, 8201, 8190, 8169, 8170, 8160, 8162, 8180, 8170, 8065, 8175, 8071,1.7852959632873535
126, 8174, 8164, 8208, 8199, 8189, 8178, 8184, 8155, 8151, 8163, 8158, 8083, 8163, 8090,1.7852959632873535
127, 8191, 8169, 8216, 8207, 8190, 8181, 8190, 8155, 8154, 8165, 8174, 8094, 8174, 8097,1.8002524375915527
237, 8180, 8177, 8192, 8205, 8194, 8181, 8194, 8171, 8171, 8184, 8196, 8084, 8192, 8096,1.8002524375915527
0, 8159, 8162, 8186, 8174, 8187, 8177, 8194, 8186, 8189, 8200, 8186, 8084, 8190, 8099,1.815230131149292
1, 8152, 8133, 8144, 8157, 8175, 8169, 8194, 8190, 8208, 8216, 8170, 8068, 8189, 8087,1.815230131149292
2, 8157, 8128, 8152, 8148, 8170, 8163, 8180, 8194, 8197, 8201, 8169, 8090, 8189, 8087,1.8308794498443604
3, 8157, 8143, 8154, 8154, 8178, 8172, 8185, 8194, 8201, 8195, 8182, 8095, 8204, 8094,1.8308794498443604
4, 8157, 8138, 8133, 8147, 8177, 8161, 8178, 8180, 8202, 8192, 8175, 8081, 8200, 8091,1.8468396663665771
5, 8159, 8145, 8170, 8145, 8172, 8149, 8158, 8171, 8173, 8174, 8174, 8094, 8182, 8078,1.8468396663665771
6, 8160, 8170, 8174, 8179, 8185, 8164, 8167, 8158, 8163, 8161, 8188, 8077, 8176, 8058,1.8629648685455322
7, 8161, 8169, 8179, 8169, 8190, 8166, 8169, 8142, 8145, 8129, 8166, 8072, 8139, 8052,1.8629648685455322
8, 8154, 8158, 8182, 8156, 8182, 8168, 8172, 8151, 8142, 8131, 8147, 8069, 8127, 8044,1.8784940242767334
9, 8149, 8167, 8175, 8183, 8187, 8175, 8177, 8161, 8164, 8172, 8159, 8064, 8157, 8051,1.8784940242767334
10, 8156, 8176, 8199, 8191, 8198, 8182, 8177, 8158, 8173, 8183, 8168, 8085, 8159, 8069,1.8942160606384277
11, 8149, 8153, 8168, 8176, 8195, 8190, 8193, 8161, 8185, 8182, 8169, 8068, 8155, 8068,1.8942160606384277
12, 8134, 8135, 8156, 8160, 8175, 8186, 8195, 8172, 8191, 8185, 8151, 8065, 8160, 8081,1.909562587738037
13, 8141, 8149, 8164, 8169, 8171, 8189, 8198, 8188, 8215, 8211, 8147, 8078, 8175, 8095,1.909562587738037
14, 8160, 8148, 8151, 8170, 8189, 8190, 8204, 8201, 8244, 8233, 8177, 8086, 8199, 8107,1.9248714447021484
15, 8168, 8143, 8179, 8153, 8188, 8173, 8193, 8200, 8232, 8211, 8198, 8118, 8209, 8121,1.9248714447021484
16, 8155, 8145, 8162, 8157, 8180, 8156, 8187, 8178, 8207, 8189, 8195, 8099, 8201, 8091,1.9428932666778564
17, 8150, 8150, 8154, 8151, 8185, 8147, 8170, 8154, 8179, 8162, 8178, 8082, 8167, 8058,1.9428932666778564
18, 8155, 8173, 8180, 8172, 8202, 8165, 8171, 8152, 8183, 8153, 8190, 8094, 8165, 8061,1.9567410945892334
19, 8139, 8172, 8164, 8196, 8196, 8171, 8186, 8154, 8181, 8173, 8191, 8075, 8172, 8070,1.9567410945892334
20, 8121, 8144, 8158, 8160, 8173, 8164, 8190, 8163, 8149, 8180, 8155, 8061, 8146, 8072,1.9732608795166016
21, 8118, 8130, 8129, 8142, 8174, 8175, 8204, 8181, 8163, 8195, 8146, 8049, 8147, 8070,1.9732608795166016
22, 8120, 8122, 8126, 8132, 8175, 8168, 8201, 8185, 8173, 8185, 8137, 8064, 8149, 8077,1.9891302585601807
23, 8131, 8125, 8155, 8126, 8167, 8154, 8186, 8181, 8156, 8173, 8133, 8086, 8155, 8088,1.9891302585601807
24, 8161, 8140, 8149, 8148, 8174, 8158, 8181, 8186, 8160, 8191, 8175, 8094, 8197, 8096,2.010207414627075
25, 8177, 8150, 8173, 8150, 8180, 8159, 8169, 8191, 8158, 8182, 8205, 8130, 8211, 8101,2.010207414627075
26, 8163, 8157, 8174, 8157, 8182, 8161, 8172, 8167, 8145, 8170, 8195, 8114, 8187, 8088,2.010207414627075
27, 8162, 8162, 8181, 8175, 8182, 8168, 8181, 8147, 8130, 8170, 8173, 8091, 8154, 8084,2.0192184448242188
28, 8180, 8155, 8196, 8175, 8178, 8181, 8193, 8172, 8149, 8176, 8166, 8111, 8158, 8095,2.035189390182495
29, 8186, 8149, 8158, 8162, 8181, 8170, 8190, 8184, 8178, 8177, 8180, 8114, 8184, 8094,2.035189390182495
30, 8185, 8163, 8187, 8154, 8184, 8159, 8168, 8163, 8150, 8167, 8185, 8125, 8176, 8091,2.0510146617889404
31, 8180, 8166, 8206, 8179, 8194, 8196, 8193, 8167, 8151, 8195, 8178, 8105, 8170, 8083,2.0510146617889404
32, 8174, 8142, 8171, 8174, 8197, 8203, 8210, 8186, 8180, 8204, 8167, 8093, 8171, 8096,2.0663745403289795
33, 8169, 8140, 8159, 8142, 8184, 8166, 8180, 8180, 8164, 8173, 8170, 8114, 8174, 8103,2.0663745403289795
34, 8172, 8158, 8155, 8151, 8185, 8167, 8173, 8163, 8144, 8170, 8188, 8106, 8189, 8082,2.0823843479156494
35, 8170, 8158, 8192, 8164, 8192, 8189, 8192, 8168, 8149, 8178, 8183, 8113, 8179, 8088,2.0823843479156494
36, 8153, 8140, 8174, 8157, 8178, 8183, 8204, 8181, 8172, 8185, 8165, 8095, 8164, 8091,2.098145008087158
37, 8155, 8130, 8136, 8125, 8159, 8151, 8180, 8177, 8172, 8178, 8165, 8096, 8170, 8083,2.098145008087158
38, 8173, 8151, 8176, 8129, 8174, 8153, 8174, 8174, 8160, 8174, 8195, 8145, 8190, 8088,2.1141109466552734
39, 8167, 8158, 8181, 8171, 8194, 8181, 8211, 8172, 8172, 8198, 8209, 8128, 8191, 8093,2.1141109466552734
40, 8147, 8133, 8166, 8149, 8174, 8178, 8209, 8171, 8171, 8199, 8175, 8105, 8162, 8097,2.1291067600250244
41, 8147, 8129, 8148, 8129, 8162, 8167, 8186, 8177, 8180, 8192, 8174, 8109, 8174, 8086,2.1291067600250244
42, 8165, 8146, 8154, 8154, 8175, 8167, 8176, 8169, 8179, 8185, 8195, 8112, 8188, 8079,2.1454083919525146
43, 8163, 8154, 8184, 8171, 8180, 8180, 8187, 8159, 8168, 8188, 8181, 8110, 8166, 8089,2.1454083919525146
44, 8144, 8139, 8147, 8170, 8179, 8184, 8204, 8170, 8193, 8218, 8177, 8091, 8176, 8092,2.1605570316314697
45, 8146, 8131, 8143, 8149, 8172, 8163, 8179, 8175, 8187, 8204, 8183, 8111, 8181, 8093,2.1605570316314697
46, 8177, 8160, 8169, 8172, 8180, 8157, 8165, 8168, 8172, 8178, 8200, 8129, 8180, 8089,2.1764700412750244
47, 8207, 8184, 8179, 8217, 8202, 8167, 8178, 8170, 8179, 8183, 8223, 8138, 8200, 8104,2.1764700412750244
48, 8200, 8177, 8199, 8208, 8201, 8167, 8174, 8171, 8165, 8182, 8215, 8148, 8192, 8112,2.1928980350494385
49, 8183, 8174, 8170, 8207, 8200, 8181, 8193, 8166, 8169, 8194, 8208, 8117, 8184, 8088,2.1928980350494385
50, 8182, 8181, 8176, 8215, 8203, 8200, 8218, 8168, 8186, 8204, 8209, 8119, 8183, 8088,2.2080273628234863
51, 8103, 8099, 8115, 8130, 8130, 8142, 8155, 8125, 8130, 8138, 8127, 8050, 8106, 8028,2.2080273628234863
52, 7943, 7933, 7938, 7950, 7986, 7991, 7992, 8022, 7985, 7987, 7958, 7886, 7942, 7886,2.223057985305786
53, 7857, 7859, 7877, 7842, 7896, 7897, 7879, 7971, 7888, 7885, 7856, 7829, 7847, 7814,2.2383475303649902
54, 7868, 7880, 7880, 7855, 7897, 7909, 7872, 7999, 7899, 7895, 7878, 7842, 7878, 7823,2.2383475303649902
55, 7875, 7871, 7881, 7833, 7891, 7899, 7852, 8020, 7892, 7885, 7887, 7848, 7884, 7823,2.2383475303649902
56, 7866, 7875, 7897, 7815, 7876, 7885, 7841, 8026, 7879, 7864, 7883, 7851, 7870, 7802,2.253507614135742
57, 7876, 7912, 7908, 7851, 7889, 7910, 7862, 8030, 7892, 7876, 7904, 7852, 7886, 7797,2.269317626953125
58, 7872, 7915, 7933, 7856, 7898, 7922, 7861, 8025, 7875, 7862, 7894, 7853, 7864, 7794,2.269317626953125
59, 7850, 7896, 7912, 7855, 7905, 7930, 7877, 8033, 7878, 7874, 7877, 7819, 7844, 7783,2.2853689193725586
60, 7847, 7895, 7917, 7858, 7907, 7933, 7888, 8047, 7889, 7896, 7871, 7821, 7847, 7799,2.2853689193725586
61, 7867, 7915, 7952, 7871, 7906, 7945, 7891, 8058, 7903, 7903, 7883, 7847, 7865, 7820,2.3009798526763916
62, 7873, 7919, 7935, 7883, 7917, 7952, 7902, 8063, 7929, 7917, 7891, 7838, 7878, 7822,2.3009798526763916
63, 7868, 7921, 7942, 7865, 7923, 7935, 7891, 8083, 7935, 7910, 7878, 7853, 7874, 7828,2.3009798526763916
64, 7881, 7939, 7945, 7874, 7926, 7936, 7892, 8100, 7953, 7917, 7905, 7864, 7906, 7836,2.316039562225342
65, 7890, 7936, 7941, 7869, 7915, 7929, 7885, 8072, 7928, 7903, 7920, 7863, 7906, 7826,2.3311634063720703
66, 7867, 7922, 7946, 7842, 7895, 7913, 7867, 8045, 7877, 7863, 7887, 7853, 7871, 7798,2.3311634063720703
67, 7855, 7919, 7931, 7848, 7890, 7909, 7868, 8047, 7873, 7850, 7874, 7829, 7867, 7781,2.347242832183838
68, 7865, 7927, 7959, 7854, 7894, 7917, 7874, 8057, 7875, 7847, 7876, 7844, 7864, 7798,2.347242832183838
69, 7856, 7930, 7952, 7860, 7902, 7943, 7899, 8067, 7893, 7877, 7871, 7829, 7865, 7806,2.363055467605591
70, 7850, 7918, 7932, 7848, 7907, 7958, 7917, 8080, 7922, 7908, 7860, 7815, 7869, 7812,2.363055467605591
71, 7871, 7924, 7955, 7840, 7912, 7963, 7921, 8097, 7942, 7921, 7866, 7847, 7884, 7832,2.3778719902038574
72, 7888, 7944, 7945, 7864, 7925, 7970, 7931, 8101, 7959, 7946, 7889, 7860, 7913, 7847,2.3778719902038574
73, 7902, 7961, 7969, 7870, 7931, 7972, 7925, 8106, 7960, 7944, 7911, 7890, 7932, 7866,2.3930106163024902
74, 7916, 7978, 7978, 7880, 7939, 7977, 7934, 8113, 7965, 7938, 7938, 7896, 7954, 7861,2.3930106163024902
75, 7920, 7990, 7979, 7898, 7954, 7988, 7952, 8105, 7964, 7944, 7937, 7888, 7951, 7851,2.408860921859741
76, 7926, 8010, 8023, 7924, 7977, 8019, 7980, 8114, 7969, 7967, 7925, 7909, 7946, 7867,2.408860921859741
77, 7934, 8015, 8008, 7954, 7993, 8043, 8020, 8133, 7996, 7996, 7937, 7901, 7966, 7881,2.4250195026397705
78, 7941, 8006, 8008, 7941, 7992, 8037, 8026, 8141, 8003, 7986, 7944, 7919, 7971, 7898,2.4250195026397705
79, 7957, 8023, 8021, 7940, 8001, 8036, 8026, 8156, 8036, 8011, 7965, 7941, 7998, 7910,2.440593719482422
80, 7995, 8046, 8030, 7966, 8018, 8031, 8024, 8165, 8064, 8049, 7999, 7962, 8035, 7926,2.440593719482422
81, 8024, 8066, 8069, 7989, 8027, 8036, 8020, 8154, 8048, 8034, 8013, 7993, 8039, 7942,2.4557759761810303
82, 8032, 8087, 8063, 8012, 8051, 8058, 8031, 8143, 8056, 8030, 8030, 7988, 8049, 7946,2.4557759761810303
83, 8048, 8112, 8094, 8034, 8074, 8076, 8041, 8151, 8069, 8052, 8051, 8012, 8060, 7967,2.4709322452545166
84, 8065, 8130, 8125, 8085, 8081, 8098, 8073, 8167, 8086, 8088, 8063, 8024, 8067, 7983,2.4709322452545166
85, 8070, 8118, 8098, 8101, 8079, 8096, 8087, 8168, 8109, 8105, 8056, 8007, 8075, 7991,2.4862959384918213
86, 8081, 8112, 8106, 8070, 8080, 8087, 8075, 8172, 8113, 8100, 8066, 8040, 8088, 8008,2.4862959384918213
87, 8100, 8135, 8115, 8091, 8098, 8105, 8096, 8179, 8119, 8106, 8118, 8068, 8128, 8015,2.5020108222961426
88, 8112, 8153, 8143, 8121, 8107, 8110, 8107, 8173, 8106, 8093, 8124, 8082, 8161, 8024,2.5020108222961426
89, 8112, 8156, 8153, 8135, 8106, 8115, 8108, 8164, 8108, 8093, 8095, 8068, 8186, 8021,2.5170419216156006
90, 8112, 8150, 8137, 8148, 8114, 8134, 8127, 8173, 8124, 8116, 8097, 8052, 8189, 8018,2.5170419216156006
91, 8114, 8153, 8160, 8149, 8125, 8149, 8150, 8197, 8133, 8135, 8115, 8079, 8171, 8040,2.533506393432617
92, 8126, 8158, 8143, 8159, 8137, 8149, 8164, 8206, 8164, 8164, 8139, 8085, 8202, 8060,2.533506393432617
93, 8157, 8170, 8160, 8164, 8142, 8131, 8151, 8198, 8175, 8165, 8165, 8120, 8245, 8079,2.5491676330566406
94, 8188, 8205, 8209, 8192, 8159, 8147, 8154, 8202, 8180, 8170, 8200, 8164, 8267, 8094,2.5491676330566406
95, 8197, 8226, 8204, 8227, 8188, 8177, 8175, 8200, 8195, 8194, 8213, 8149, 8266, 8097,2.565171718597412
96, 8191, 8228, 8219, 8235, 8198, 8186, 8191, 8195, 8191, 8194, 8191, 8137, 8249, 8099,2.565171718597412
97, 8187, 8231, 8209, 8256, 8204, 8206, 8227, 8207, 8210, 8201, 8192, 8128, 8255, 8105,2.5810153484344482
98, 8200, 8226, 8206, 8254, 8206, 8209, 8231, 8211, 8225, 8213, 8206, 8142, 8244, 8127,2.5810153484344482
99, 8204, 8214, 8205, 8232, 8191, 8191, 8209, 8203, 8220, 8219, 8203, 8152, 8219, 8134,2.5960891246795654
100, 8196, 8206, 8164, 8222, 8184, 8175, 8197, 8194, 8221, 8212, 8196, 8138, 8212, 8116,2.5960891246795654
101, 8206, 8223, 8195, 8222, 8197, 8169, 8181, 8184, 8208, 8182, 8197, 8164, 8206, 8114,2.6116230487823486
102, 8222, 8245, 8216, 8260, 8217, 8188, 8193, 8173, 8204, 8192, 8210, 8159, 8211, 8112,2.6116230487823486
103, 8220, 8243, 8212, 8275, 8223, 8206, 8220, 8178, 8212, 8215, 8210, 8154, 8207, 8126,2.627012014389038
104, 8226, 8241, 8225, 8265, 8229, 8205, 8232, 8202, 8232, 8218, 8216, 8186, 8214, 8155,2.627012014389038
105, 8250, 8244, 8213, 8274, 8242, 8190, 8224, 8200, 8238, 8220, 8237, 8190, 8242, 8156,2.642220973968506
106, 8256, 8246, 8235, 8274, 8236, 8182, 8202, 8177, 8210, 8204, 8245, 8204, 8235, 8147,2.642220973968506
107, 8246, 8253, 8231, 8281, 8231, 8188, 8208, 8177, 8210, 8202, 8257, 8204, 8231, 8138,2.656886100769043
108, 8251, 8257, 8223, 8291, 8236, 8190, 8218, 8180, 8215, 8205, 8258, 8200, 8239, 8144,2.656886100769043
109, 8244, 8250, 8245, 8293, 8234, 8200, 8222, 8179, 8213, 8222, 8246, 8196, 8232, 8151,2.6722824573516846
110, 8223, 8234, 8221, 8293, 8226, 8202, 8228, 8184, 8227, 8251, 8243, 8168, 8226, 8149,2.6722824573516846
111, 8232, 8229, 8227, 8276, 8223, 8193, 8220, 8190, 8222, 8245, 8226, 8189, 8228, 8161,2.6879684925079346
112, 8255, 8240, 8230, 8283, 8232, 8199, 8223, 8188, 8223, 8246, 8218, 8208, 8257, 8167,2.6879684925079346
113, 8258, 8238, 8226, 8286, 8235, 8195, 8211, 8182, 8221, 8238, 8228, 8214, 8268, 8167,2.7039644718170166
114, 8252, 8240, 8248, 8275, 8233, 8186, 8192, 8181, 8211, 8219, 8242, 8233, 8264, 8163,2.7039644718170166
115, 8251, 8245, 8225, 8293, 8238, 8193, 8204, 8178, 8219, 8235, 8254, 8214, 8268, 8149,2.719259262084961
116, 8250, 8249, 8244, 8306, 8237, 8197, 8218, 8178, 8207, 8239, 8242, 8212, 8245, 8156,2.7344343662261963
117, 8245, 8255, 8258, 8315, 8238, 8214, 8238, 8189, 8217, 8239, 8236, 8209, 8239, 8163,2.7344343662261963
118, 8245, 8232, 8220, 8300, 8237, 8218, 8242, 8196, 8248, 8257, 8240, 8197, 8249, 8159,2.750114917755127
119, 8246, 8214, 8219, 8280, 8230, 8206, 8232, 8205, 8256, 8275, 8241, 8214, 8252, 8164,2.750114917755127
120, 8249, 8227, 8209, 8297, 8239, 8205, 8233, 8205, 8258, 8283, 8252, 8208, 8274, 8170,2.765925407409668
121, 8259, 8234, 8216, 8289, 8246, 8200, 8218, 8186, 8237, 8252, 8254, 8214, 8273, 8173,2.765925407409668
122, 8253, 8232, 8209, 8276, 8239, 8193, 8214, 8176, 8218, 8232, 8252, 8208, 8258, 8157,2.765925407409668
123, 8231, 8227, 8194, 8277, 8235, 8190, 8220, 8174, 8212, 8236, 8243, 8184, 8251, 8147,2.781111478805542
124, 8229, 8226, 8225, 8277, 8237, 8207, 8227, 8177, 8208, 8236, 8221, 8188, 8238, 8159,2.7966840267181396
125, 8238, 8221, 8202, 8285, 8243, 8229, 8250, 8184, 8228, 8259, 8217, 8169, 8235, 8166,2.7966840267181396
126, 8232, 8205, 8185, 8256, 8235, 8219, 8249, 8193, 8232, 8256, 8210, 8173, 8233, 8176,2.8129844665527344
127, 8226, 8194, 8187, 8233, 8229, 8210, 8246, 8208, 8243, 8242, 8212, 8190, 8247, 8173,2.8129844665527344
237, 8244, 8196, 8179, 8247, 8237, 8208, 8250, 8201, 8255, 8243, 8229, 8188, 8262, 8163,2.828892707824707
0, 8258, 8215, 8212, 8251, 8239, 8210, 8239, 8183, 8228, 8228, 8227, 8196, 8247, 8163,2.828892707824707
1, 8241, 8223, 8204, 8265, 8248, 8231, 8248, 8182, 8225, 8231, 8215, 8171, 8240, 8155,2.828892707824707
2, 8231, 8212, 8198, 8273, 8257, 8247, 8262, 8195, 8242, 8248, 8203, 8166, 8232, 8162,2.8441309928894043
3, 8236, 8210, 8201, 8263, 8254, 8256, 8275, 8210, 8272, 8274, 8208, 8173, 8239, 8169,2.859785556793213
4, 8233, 8204, 8169, 8240, 8245, 8237, 8271, 8203, 8285, 8279, 8217, 8164, 8255, 8165,2.859785556793213
5, 8234, 8199, 8188, 8230, 8239, 8202, 8246, 8197, 8260, 8248, 8222, 8198, 8257, 8171,2.875345468521118
6, 8256, 8218, 8204, 8265, 8249, 8214, 8257, 8205, 8265, 8249, 8247, 8209, 8273, 8168,2.875345468521118
7, 8265, 8233, 8213, 8268, 8253, 8226, 8255, 8195, 8264, 8248, 8243, 8204, 8261, 8164,2.891201972961426
8, 8247, 8234, 8222, 8254, 8247, 8225, 8239, 8178, 8252, 8235, 8224, 8205, 8239, 8162,2.891201972961426
9, 8243, 8221, 8207, 8270, 8245, 8237, 8259, 8178, 8261, 8251, 8228, 8195, 8242, 8167,2.9058837890625
10, 8244, 8203, 8220, 8253, 8239, 8241, 8270, 8187, 8265, 8255, 8213, 8202, 8232, 8179,2.9058837890625
11, 8221, 8193, 8179, 8228, 8236, 8228, 8253, 8185, 8280, 8249, 8194, 8176, 8231, 8162,2.921968460083008
12, 8223, 8197, 8166, 8223, 8228, 8209, 8223, 8181, 8279, 8237, 8201, 8182, 8245, 8154,2.921968460083008
13, 8255, 8219, 8220, 8239, 8230, 8210, 8227, 8192, 8268, 8243, 8228, 8226, 8262, 8170,2.9370810985565186
14, 8268, 8229, 8214, 8258, 8249, 8217, 8249, 8196, 8274, 8261, 8243, 8214, 8267, 8164,2.9370810985565186
15, 8253, 8228, 8217, 8251, 8251, 8219, 8247, 8190, 8269, 8247, 8225, 8200, 8243, 8148,2.9530277252197266
16, 8228, 8221, 8208, 8254, 8242, 8235, 8256, 8184, 8268, 8245, 8201, 8178, 8222, 8138,2.9530277252197266
17, 8214, 8201, 8190, 8243, 8235, 8231, 8248, 8180, 8262, 8246, 8187, 8166, 8213, 8142,2.968351364135742
18, 8227, 8208, 8204, 8238, 8238, 8226, 8240, 8193, 8264, 8247, 8201, 8184, 8231, 8155,2.968351364135742
19, 8247, 8223, 8189, 8251, 8249, 8228, 8252, 8199, 8279, 8258, 8227, 8189, 8257, 8158,2.984022617340088
20, 8254, 8218, 8209, 8232, 8248, 8213, 8233, 8184, 8255, 8238, 8229, 8215, 8244, 8156,2.984022617340088
21, 8249, 8224, 8221, 8238, 8245, 8216, 8216, 8175, 8243, 8233, 8243, 8212, 8239, 8143,2.999974012374878
22, 8241, 8229, 8214, 8250, 8243, 8231, 8224, 8175, 8251, 8235, 8247, 8193, 8235, 8147,2.999974012374878
23, 8234, 8224, 8230, 8245, 8244, 8239, 8244, 8185, 8255, 8234, 8224, 8195, 8220, 8157,3.0157947540283203
24, 8228, 8213, 8199, 8256, 8250, 8239, 8262, 8193, 8272, 8263, 8218, 8170, 8227, 8144,3.0157947540283203
25, 8227, 8205, 8191, 8238, 8243, 8226, 8251, 8192, 8279, 8266, 8219, 8183, 8231, 8152,3.0308921337127686
26, 8226, 8203, 8185, 8218, 8238, 8220, 8244, 8189, 8283, 8263, 8229, 8204, 8247, 8165,3.0308921337127686
27, 8226, 8197, 8173, 8217, 8239, 8209, 8231, 8175, 8263, 8256, 8239, 8203, 8255, 8151,3.046811819076538
28, 8224, 8205, 8203, 8218, 8234, 8211, 8206, 8163, 8230, 8224, 8234, 8209, 8231, 8127,3.046811819076538
29, 8223, 8218, 8197, 8240, 8243, 8238, 8218, 8161, 8237, 8225, 8233, 8187, 8218, 8116,3.0623326301574707
30, 8226, 8216, 8207, 8246, 8254, 8246, 8238, 8169, 8246, 8249, 8224, 8195, 8216, 8140,3.0623326301574707
31, 8222, 8209, 8201, 8244, 8250, 8240, 8245, 8182, 8261, 8263, 8230, 8200, 8236, 8149,3.0781898498535156
32, 8222, 8202, 8171, 8230, 8240, 8228, 8229, 8186, 8271, 8259, 8244, 8192, 8257, 8143,3.0781898498535156
33, 8227, 8200, 8192, 8195, 8233, 8222, 8214, 8186, 8259, 8251, 8237, 8215, 8249, 8153,3.093726396560669
34, 8225, 8206, 8179, 8198, 8238, 8232, 8236, 8185, 8259, 8256, 8236, 8202, 8252, 8148,3.093726396560669
35, 8231, 8222, 8191, 8224, 8247, 8234, 8237, 8182, 8250, 8241, 8250, 8208, 8257, 8143,3.109097957611084
36, 8241, 8238, 8210, 8248, 8250, 8240, 8229, 8177, 8246, 8237, 8254, 8216, 8253, 8138,3.109097957611084
37, 8222, 8226, 8181, 8242, 8243, 8240, 8230, 8162, 8236, 8229, 8226, 8180, 8224, 8121,3.1251916885375977
38, 8190, 8201, 8186, 8216, 8225, 8229, 8221, 8153, 8208, 8197, 8186, 8160, 8184, 8107,3.1251916885375977
39, 8168, 8179, 8156, 8214, 8211, 8221, 8215, 8151, 8207, 8200, 8171, 8138, 8180, 8091,3.1405797004699707
40, 8147, 8155, 8131, 8193, 8195, 8202, 8193, 8143, 8197, 8199, 8151, 8127, 8158, 8086,3.1405797004699707
41, 8130, 8143, 8129, 8162, 8184, 8197, 8182, 8144, 8187, 8178, 8125, 8111, 8129, 8073,3.155872344970703
42, 8129, 8136, 8107, 8138, 8178, 8186, 8170, 8150, 8188, 8148, 8117, 8092, 8133, 8052,3.155872344970703
43, 8134, 8144, 8133, 8127, 8165, 8163, 8135, 8142, 8155, 8110, 8118, 8110, 8118, 8042,3.1719553470611572
44, 8124, 8155, 8131, 8151, 8163, 8171, 8136, 8123, 8133, 8124, 8118, 8083, 8095, 8028,3.1719553470611572
45, 8109, 8135, 8112, 8132, 8153, 8169, 8144, 8115, 8130, 8141, 8092, 8065, 8078, 8027,3.187488079071045
46, 8099, 8116, 8100, 8091, 8135, 8148, 8125, 8131, 8131, 8122, 8082, 8081, 8080, 8029,3.187488079071045
47, 8102, 8121, 8079, 8097, 8136, 8135, 8097, 8133, 8123, 8095, 8097, 8075, 8086, 8012,3.203336715698242
48, 8104, 8129, 8111, 8108, 8139, 8137, 8089, 8123, 8096, 8079, 8086, 8080, 8064, 8003,3.203336715698242
49, 8092, 8120, 8106, 8109, 8130, 8145, 8117, 8131, 8108, 8105, 8074, 8059, 8064, 8010,3.218953847885132
50, 8095, 8104, 8088, 8088, 8115, 8132, 8113, 8151, 8128, 8111, 8075, 8059, 8076, 8032,3.218953847885132
51, 8120, 8117, 8113, 8081, 8110, 8119, 8092, 8150, 8126, 8089, 8092, 8100, 8084, 8031,3.234046220779419
52, 8119, 8130, 8107, 8101, 8123, 8123, 8100, 8124, 8115, 8087, 8093, 8092, 8082, 8004,3.234046220779419
53, 8101, 8122, 8123, 8093, 8128, 8139, 8115, 8119, 8097, 8085, 8069, 8083, 8056, 8012,3.249220132827759
54, 8106, 8112, 8121, 8094, 8124, 8150, 8134, 8144, 8123, 8101, 8080, 8082, 8066, 8034,3.249220132827759
55, 8118, 8109, 8114, 8093, 8117, 8130, 8123, 8155, 8153, 8110, 8100, 8101, 8095, 8039,3.2644267082214355
56, 8106, 8106, 8124, 8074, 8115, 8120, 8102, 8154, 8142, 8106, 8100, 8115, 8102, 8030,3.2644267082214355
57, 8096, 8108, 8098, 8080, 8126, 8130, 8103, 8152, 8131, 8117, 8111, 8093, 8105, 8022,3.279942274093628
58, 8108, 8126, 8121, 8092, 8134, 8126, 8094, 8145, 8117, 8099, 8109, 8109, 8093, 8024,3.279942274093628
59, 8103, 8131, 8122, 8098, 8127, 8119, 8090, 8135, 8112, 8072, 8085, 8097, 8082, 8003,3.2959988117218018
60, 8089, 8112, 8098, 8083, 8109, 8107, 8078, 8116, 8095, 8061, 8080, 8075, 8070, 7991,3.2959988117218018
61, 8090, 8123, 8126, 8080, 8111, 8112, 8071, 8111, 8080, 8069, 8106, 8101, 8065, 8003,3.311497211456299
62, 8089, 8137, 8116, 8106, 8133, 8136, 8099, 8122, 8099, 8094, 8120, 8086, 8077, 8000,3.311497211456299
63, 8076, 8113, 8113, 8093, 8121, 8137, 8109, 8134, 8106, 8092, 8092, 8069, 8065, 8000,3.326820135116577
64, 8063, 8100, 8098, 8082, 8103, 8132, 8109, 8146, 8117, 8105, 8072, 8058, 8056, 7998,3.326820135116577
65, 8060, 8096, 8066, 8084, 8104, 8128, 8105, 8144, 8121, 8120, 8062, 8043, 8048, 7993,3.3418915271759033
66, 8067, 8094, 8083, 8077, 8099, 8129, 8098, 8144, 8119, 8103, 8058, 8060, 8052, 7996,3.357821226119995
67, 8069, 8099, 8067, 8081, 8100, 8132, 8106, 8156, 8147, 8104, 8084, 8064, 8087, 7994,3.357821226119995
68, 8071, 8094, 8060, 8065, 8100, 8112, 8098, 8163, 8142, 8103, 8085, 8069, 8081, 7999,3.357821226119995
69, 8074, 8094, 8067, 8063, 8096, 8103, 8090, 8159, 8126, 8106, 8076, 8064, 8074, 7995,3.3729681968688965
70, 8086, 8106, 8076, 8076, 8098, 8109, 8083, 8140, 8120, 8100, 8097, 8075, 8095, 7988,3.3883719444274902
71, 8097, 8118, 8107, 8070, 8100, 8112, 8070, 8131, 8101, 8079, 8113, 8102, 8096, 7993,3.3883719444274902
72, 8093, 8111, 8084, 8072, 8097, 8110, 8078, 8136, 8102, 8086, 8116, 8075, 8090, 7987,3.403998851776123
73, 8082, 8102, 8099, 8074, 8087, 8100, 8080, 8133, 8091, 8082, 8098, 8068, 8071, 7981,3.403998851776123
74, 8067, 8108, 8113, 8083, 8085, 8116, 8095, 8133, 8079, 8073, 8071, 8064, 8052, 7976,3.419955253601074
75, 8060, 8097, 8073, 8086, 8092, 8131, 8115, 8146, 8098, 8090, 8056, 8035, 8046, 7981,3.419955253601074
76, 8066, 8078, 8083, 8058, 8084, 8108, 8105, 8161, 8113, 8098, 8055, 8051, 8047, 7999,3.436006784439087
77, 8059, 8064, 8064, 8037, 8065, 8081, 8086, 8152, 8110, 8089, 8054, 8044, 8057, 7986,3.436006784439087
78, 8044, 8054, 8041, 8015, 8048, 8067, 8052, 8130, 8083, 8054, 8033, 8037, 8043, 7973,3.436006784439087
79, 8041, 8067, 8051, 8019, 8049, 8068, 8037, 8126, 8081, 8039, 8036, 8046, 8040, 7971,3.452035427093506
80, 8046, 8087, 8050, 8042, 8062, 8064, 8040, 8121, 8082, 8048, 8060, 8045, 8057, 7962,3.467832088470459
81, 8057, 8104, 8089, 8051, 8073, 8067, 8034, 8114, 8055, 8040, 8070, 8069, 8051, 7964,3.467832088470459
82, 8064, 8115, 8097, 8072, 8077, 8085, 8049, 8117, 8062, 8045, 8090, 8062, 8057, 7964,3.467832088470459
83, 8047, 8097, 8089, 8070, 8057, 8081, 8047, 8115, 8057, 8039, 8084, 8045, 8044, 7966,3.4829089641571045
84, 8023, 8077, 8091, 8059, 8045, 8082, 8040, 8110, 8039, 8036, 8060, 8047, 8018, 7964,3.498861789703369
85, 8036, 8077, 8079, 8071, 8062, 8099, 8058, 8116, 8057, 8062, 8076, 8053, 8033, 7971,3.498861789703369
86, 8063, 8084, 8117, 8062, 8056, 8089, 8053, 8128, 8066, 8067, 8109, 8098, 8062, 7999,3.514075994491577
87, 8069, 8083, 8112, 8058, 8033, 8061, 8032, 8123, 8064, 8065, 8125, 8113, 8084, 8002,3.514075994491577
88, 8073, 8076, 8102, 8052, 8030, 8049, 8008, 8106, 8045, 8042, 8124, 8123, 8081, 7994,3.5296196937561035
89, 8075, 8089, 8128, 8056, 8048, 8059, 8007, 8111, 8033, 8022, 8136, 8146, 8080, 7988,3.5296196937561035
90, 8072, 8100, 8111, 8078, 8047, 8053, 8017, 8115, 8035, 8024, 8145, 8122, 8082, 7973,3.544825792312622
91, 8070, 8095, 8132, 8075, 8022, 8037, 8005, 8102, 8017, 8005, 8125, 8122, 8059, 7970,3.544825792312622
92, 8068, 8104, 8147, 8094, 8024, 8050, 8011, 8092, 8012, 8007, 8122, 8118, 8053, 7970,3.5603888034820557
93, 8068, 8112, 8143, 8109, 8039, 8057, 8015, 8095, 8012, 8009, 8121, 8110, 8051, 7978,3.5603888034820557
94, 8068, 8101, 8149, 8092, 8032, 8056, 8017, 8115, 8018, 8009, 8113, 8119, 8051, 7994,3.5759408473968506
95, 8069, 8081, 8112, 8082, 8030, 8053, 8023, 8128, 8042, 8039, 8127, 8112, 8075, 8002,3.5759408473968506
96, 8077, 8077, 8111, 8063, 8037, 8035, 8008, 8127, 8041, 8047, 8131, 8128, 8083, 8011,3.5919625759124756
97, 8078, 8086, 8102, 8064, 8046, 8043, 8018, 8139, 8057, 8054, 8124, 8119, 8084, 8006,3.5919625759124756
98, 8076, 8082, 8088, 8061, 8050, 8055, 8028, 8144, 8077, 8060, 8117, 8103, 8082, 8002,3.6080219745635986
99, 8086, 8095, 8121, 8058, 8055, 8055, 8022, 8134, 8066, 8051, 8120, 8122, 8083, 8003,3.6080219745635986
100, 8092, 8104, 8110, 8074, 8065, 8072, 8051, 8130, 8076, 8078, 8127, 8105, 8093, 8001,3.624236822128296
101, 8079, 8079, 8101, 8050, 8060, 8087, 8072, 8142, 8088, 8098, 8109, 8095, 8078, 8017,3.624236822128296
102, 8063, 8061, 8088, 8026, 8049, 8084, 8058, 8147, 8092, 8090, 8095, 8087, 8079, 8016,3.63930344581604
103, 8070, 8062, 8070, 8028, 8048, 8066, 8040, 8141, 8091, 8080, 8100, 8090, 8094, 8011,3.63930344581604
104, 8094, 8074, 8102, 8030, 8059, 8063, 8049, 8153, 8094, 8082, 8104, 8116, 8091, 8022,3.6549010276794434
105, 8090, 8076, 8089, 8035, 8065, 8067, 8055, 8151, 8101, 8078, 8103, 8092, 8089, 8003,3.6549010276794434
106, 8061, 8067, 8083, 8019, 8052, 8052, 8019, 8115, 8064, 8040, 8079, 8077, 8067, 7975,3.670893907546997
107, 8040, 8070, 8088, 8023, 8052, 8062, 8020, 8098, 8049, 8038, 8066, 8066, 8046, 7965,3.670893907546997
108, 8037, 8076, 8074, 8040, 8071, 8092, 8051, 8113, 8064, 8061, 8062, 8044, 8032, 7969,3.685961961746216
109, 8035, 8076, 8089, 8031, 8071, 8100, 8054, 8127, 8058, 8053, 8046, 8046, 8018, 7973,3.685961961746216
110, 8025, 8072, 8071, 8035, 8062, 8094, 8055, 8129, 8075, 8068, 8054, 8029, 8031, 7969,3.70156192779541
111, 8026, 8065, 8073, 8034, 8066, 8090, 8060, 8142, 8094, 8088, 8066, 8042, 8040, 7986,3.70156192779541
112, 8024, 8057, 8069, 8021, 8070, 8091, 8078, 8158, 8100, 8094, 8063, 8046, 8043, 7994,3.7171919345855713
113, 8013, 8036, 8029, 7996, 8053, 8068, 8069, 8147, 8090, 8079, 8053, 8023, 8042, 7979,3.7171919345855713
114, 8018, 8033, 8051, 7973, 8030, 8038, 8027, 8138, 8061, 8040, 8050, 8043, 8036, 7977,3.733285903930664
115, 8027, 8047, 8045, 7981, 8029, 8035, 8020, 8136, 8062, 8033, 8065, 8041, 8053, 7965,3.733285903930664
116, 8018, 8049, 8043, 7973, 8030, 8033, 8017, 8123, 8059, 8027, 8052, 8034, 8040, 7952,3.749044179916382
117, 8017, 8049, 8059, 7971, 8030, 8037, 8013, 8120, 8057, 8012, 8036, 8034, 8017, 7945,3.749044179916382
118, 8030, 8054, 8048, 7990, 8033, 8037, 8016, 8120, 8062, 8005, 8041, 8021, 8021, 7944,3.764146566390991
119, 8031, 8063, 8076, 7993, 8026, 8027, 8009, 8110, 8039, 8003, 8037, 8035, 8014, 7954,3.764146566390991
120, 8015, 8059, 8068, 8004, 8027, 8035, 8014, 8110, 8034, 8025, 8034, 8018, 8009, 7950,3.7801992893218994
121, 8004, 8048, 8059, 8002, 8039, 8047, 8015, 8115, 8042, 8033, 8026, 8004, 8004, 7950,3.7801992893218994
122, 7998, 8055, 8073, 8001, 8044, 8060, 8018, 8120, 8055, 8046, 8022, 8015, 8006, 7953,3.7962701320648193
123, 7998, 8047, 8043, 8005, 8039, 8056, 8023, 8125, 8060, 8055, 8028, 8003, 8011, 7952,3.7962701320648193
124, 8008, 8038, 8051, 7985, 8032, 8045, 8016, 8141, 8059, 8031, 8034, 8018, 8008, 7967,3.811915159225464
125, 8008, 8046, 8048, 7987, 8037, 8049, 8028, 8158, 8084, 8036, 8051, 8024, 8028, 7975,3.811915159225464
126, 8004, 8043, 8038, 7983, 8033, 8030, 8013, 8145, 8071, 8033, 8054, 8028, 8032, 7970,3.8270561695098877
127, 8002, 8050, 8055, 7980, 8025, 8015, 7987, 8127, 8043, 8031, 8057, 8040, 8024, 7956,3.8270561695098877
237, 8005, 8064, 8044, 8001, 8040, 8032, 8000, 8125, 8055, 8082, 8076, 8028, 8035, 7942,3.843085527420044
0, 8020, 8063, 8068, 7994, 8044, 8035, 8004, 8130, 8051, 8098, 8078, 8041, 8032, 7950,3.843085527420044
1, 8030, 8064, 8068, 7997, 8035, 8034, 8005, 8126, 8043, 8080, 8076, 8034, 8029, 7950,3.8579626083374023
2, 8023, 8065, 8057, 8014, 8033, 8047, 8015, 8112, 8034, 8059, 8053, 8010, 8009, 7950,3.8579626083374023
3, 8006, 8063, 8075, 8016, 8042, 8065, 8031, 8118, 8031, 8040, 8025, 8003, 7983, 7957,3.8741090297698975
4, 8008, 8064, 8056, 8020, 8054, 8071, 8044, 8138, 8063, 8060, 8035, 7995, 8002, 7965,3.8741090297698975
5, 8024, 8067, 8067, 8009, 8049, 8063, 8038, 8145, 8073, 8083, 8044, 8023, 8017, 7981,3.890054941177368
6, 8026, 8070, 8063, 8008, 8046, 8059, 8049, 8143, 8067, 8095, 8042, 8016, 8025, 7979,3.890054941177368
7, 8025, 8065, 8051, 8009, 8052, 8062, 8054, 8144, 8068, 8093, 8047, 8007, 8035, 7983,3.905191421508789
8, 8033, 8068, 8076, 8004, 8053, 8066, 8044, 8156, 8068, 8088, 8059, 8038, 8042, 7994,3.905191421508789
9, 8037, 8071, 8050, 8004, 8048, 8050, 8034, 8145, 8064, 8083, 8070, 8023, 8049, 7977,3.921081304550171
10, 8037, 8069, 8054, 7994, 8038, 8030, 8014, 8120, 8037, 8045, 8064, 8022, 8034, 7973,3.921081304550171
11, 8031, 8075, 8063, 8009, 8048, 8045, 8019, 8120, 8041, 8035, 8061, 8020, 8029, 7963,3.9358255863189697
12, 8015, 8068, 8036, 8011, 8049, 8037, 8014, 8116, 8040, 8037, 8051, 7991, 8017, 7938,3.9358255863189697
13, 8011, 8065, 8053, 7999, 8030, 8024, 7995, 8100, 8014, 8029, 8044, 7995, 8003, 7940,3.9513044357299805
14, 8021, 8072, 8045, 8028, 8033, 8052, 8009, 8105, 8023, 8043, 8062, 7991, 8015, 7954,3.9513044357299805
15, 8016, 8067, 8040, 8029, 8038, 8054, 8015, 8116, 8019, 8039, 8052, 7989, 8003, 7953,3.966830253601074
16, 8003, 8062, 8036, 8017, 8035, 8045, 8023, 8117, 8018, 8038, 8038, 7979, 7995, 7943,3.966830253601074
17, 8015, 8069, 8031, 8036, 8040, 8065, 8050, 8127, 8043, 8058, 8059, 7986, 8019, 7967,3.9823052883148193
18, 8042, 8090, 8067, 8046, 8056, 8095, 8068, 8152, 8065, 8076, 8083, 8034, 8052, 8009,3.9823052883148193
19, 8044, 8091, 8043, 8047, 8066, 8092, 8066, 8151, 8081, 8094, 8085, 8022, 8064, 8000,3.998218059539795
20, 8040, 8077, 8041, 8038, 8057, 8059, 8042, 8136, 8075, 8086, 8075, 8017, 8049, 7988,3.998218059539795
21, 8072, 8099, 8083, 8059, 8069, 8079, 8063, 8159, 8093, 8098, 8113, 8054, 8082, 8014,4.0190064907073975
22, 8129, 8146, 8108, 8105, 8119, 8125, 8120, 8189, 8135, 8143, 8181, 8094, 8145, 8063,4.0190064907073975
23, 8166, 8188, 8158, 8133, 8156, 8137, 8139, 8194, 8148, 8165, 8219, 8140, 8166, 8093,4.0190064907073975
24, 8165, 8204, 8152, 8160, 8158, 8140, 8141, 8183, 8157, 8173, 8219, 8124, 8163, 8074,4.029057264328003
25, 8149, 8194, 8146, 8159, 8148, 8140, 8133, 8168, 8147, 8162, 8195, 8108, 8142, 8064,4.045033693313599
26, 8133, 8178, 8149, 8149, 8147, 8140, 8133, 8159, 8132, 8158, 8186, 8111, 8131, 8067,4.045033693313599
27, 8121, 8162, 8115, 8143, 8148, 8133, 8132, 8148, 8126, 8154, 8182, 8088, 8131, 8056,4.060612201690674
28, 8108, 8145, 8124, 8124, 8134, 8125, 8120, 8145, 8110, 8119, 8153, 8078, 8102, 8053,4.060612201690674
29, 8091, 8119, 8093, 8112, 8120, 8119, 8121, 8149, 8116, 8118, 8133, 8048, 8083, 8045,4.076586961746216
30, 8093, 8103, 8067, 8079, 8109, 8094, 8105, 8155, 8120, 8131, 8134, 8056, 8092, 8040,4.076586961746216
31, 8110, 8118, 8089, 8068, 8106, 8082, 8091, 8156, 8117, 8126, 8148, 8087, 8111, 8041,4.092131614685059
32, 8116, 8112, 8080, 8084, 8110, 8091, 8094, 8147, 8117, 8122, 8155, 8072, 8112, 8037,4.092131614685059
33, 8118, 8111, 8103, 8078, 8109, 8095, 8095, 8154, 8108, 8117, 8146, 8080, 8098, 8045,4.107302188873291
34, 8129, 8141, 8112, 8100, 8116, 8109, 8111, 8166, 8123, 8134, 8158, 8088, 8117, 8048,4.107302188873291
35, 8135, 8145, 8121, 8117, 8129, 8121, 8110, 8157, 8121, 8132, 8160, 8091, 8116, 8048,4.1233179569244385
36, 8129, 8135, 8143, 8111, 8133, 8131, 8114, 8151, 8112, 8127, 8141, 8086, 8095, 8043,4.1233179569244385
37, 8121, 8130, 8117, 8119, 8129, 8142, 8138, 8161, 8139, 8157, 8142, 8063, 8109, 8042,4.138914108276367
38, 8116, 8120, 8112, 8099, 8119, 8142, 8132, 8164, 8156, 8163, 8137, 8080, 8110, 8056,4.138914108276367
39, 8102, 8110, 8082, 8072, 8115, 8129, 8117, 8154, 8152, 8147, 8128, 8067, 8098, 8039,4.154109716415405
40, 8097, 8102, 8060, 8053, 8111, 8097, 8095, 8141, 8123, 8125, 8128, 8050, 8088, 8018,4.154109716415405
41, 8097, 8109, 8087, 8049, 8103, 8086, 8079, 8137, 8104, 8112, 8130, 8068, 8081, 8009,4.169665575027466
42, 8078, 8107, 8062, 8065, 8099, 8100, 8089, 8130, 8114, 8114, 8124, 8040, 8069, 7992,4.169665575027466
43, 8065, 8095, 8068, 8063, 8097, 8111, 8090, 8134, 8110, 8112, 8111, 8034, 8051, 7997,4.1857075691223145
44, 8069, 8090, 8070, 8066, 8105, 8127, 8100, 8150, 8123, 8138, 8114, 8042, 8067, 8003,4.1857075691223145
45, 8076, 8082, 8053, 8060, 8098, 8118, 8104, 8144, 8131, 8143, 8109, 8041, 8077, 8006,4.201311826705933
46, 8090, 8086, 8075, 8050, 8083, 8103, 8098, 8144, 8128, 8122, 8108, 8062, 8076, 8019,4.201311826705933
47, 8094, 8094, 8061, 8054, 8092, 8102, 8093, 8152, 8140, 8123, 8134, 8060, 8102, 8017,4.217196226119995
48, 8085, 8092, 8070, 8035, 8090, 8084, 8071, 8138, 8113, 8095, 8138, 8071, 8103, 8007,4.217196226119995
49, 8083, 8104, 8082, 8044, 8080, 8075, 8072, 8125, 8091, 8085, 8137, 8068, 8099, 7996,4.233060836791992
50, 8100, 8126, 8086, 8075, 8094, 8087, 8090, 8139, 8110, 8116, 8150, 8064, 8111, 8007,4.233060836791992
51, 8108, 8137, 8126, 8091, 8107, 8104, 8096, 8153, 8128, 8134, 8151, 8093, 8111, 8029,4.247902870178223
52, 8102, 8120, 8106, 8099, 8097, 8110, 8106, 8144, 8136, 8148, 8154, 8080, 8118, 8028,4.263033866882324
53, 8102, 8088, 8089, 8057, 8083, 8099, 8102, 8155, 8134, 8149, 8147, 8084, 8123, 8039,4.263033866882324
54, 8106, 8092, 8090, 8041, 8092, 8102, 8110, 8180, 8148, 8140, 8132, 8093, 8127, 8041,4.2782111167907715
55, 8115, 8121, 8094, 8088, 8098, 8101, 8108, 8156, 8138, 8112, 8126, 8085, 8117, 8023,4.2782111167907715
56, 8117, 8136, 8134, 8116, 8087, 8094, 8088, 8119, 8091, 8079, 8126, 8099, 8095, 8008,4.294113636016846
57, 8095, 8121, 8108, 8109, 8089, 8102, 8100, 8122, 8092, 8094, 8117, 8073, 8093, 7999,4.294113636016846
58, 8087, 8102, 8089, 8083, 8093, 8108, 8115, 8142, 8115, 8110, 8097, 8071, 8094, 8018,4.3091652393341064
59, 8096, 8098, 8087, 8068, 8075, 8090, 8099, 8144, 8124, 8101, 8105, 8084, 8106, 8022,4.3091652393341064
60, 8094, 8100, 8075, 8067, 8063, 8058, 8072, 8129, 8110, 8082, 8117, 8075, 8114, 8002,4.324966669082642
61, 8088, 8120, 8113, 8079, 8079, 8077, 8083, 8132, 8094, 8075, 8098, 8082, 8087, 7999,4.324966669082642
62, 8081, 8116, 8092, 8097, 8091, 8119, 8115, 8145, 8117, 8104, 8094, 8063, 8085, 8002,4.340059280395508
63, 8081, 8092, 8075, 8068, 8075, 8093, 8091, 8137, 8114, 8100, 8104, 8069, 8095, 8010,4.340059280395508
64, 8090, 8103, 8103, 8061, 8068, 8062, 8060, 8118, 8084, 8059, 8113, 8083, 8094, 8000,4.355574131011963
65, 8093, 8120, 8104, 8098, 8084, 8081, 8071, 8111, 8075, 8055, 8108, 8063, 8087, 7983,4.355574131011963
66, 8090, 8113, 8118, 8090, 8084, 8101, 8090, 8132, 8074, 8075, 8095, 8081, 8083, 8006,4.371159315109253
67, 8091, 8103, 8096, 8074, 8077, 8091, 8100, 8146, 8094, 8090, 8112, 8087, 8102, 8025,4.371159315109253
68, 8103, 8106, 8096, 8074, 8076, 8069, 8084, 8131, 8092, 8068, 8126, 8087, 8102, 8015,4.387239933013916
69, 8106, 8122, 8127, 8090, 8077, 8071, 8076, 8128, 8081, 8058, 8124, 8093, 8095, 8002,4.387239933013916
70, 8105, 8127, 8118, 8110, 8076, 8076, 8089, 8133, 8086, 8074, 8127, 8081, 8096, 8006,4.403212308883667
71, 8107, 8120, 8133, 8105, 8068, 8066, 8085, 8125, 8078, 8071, 8115, 8091, 8078, 8023,4.403212308883667
72, 8104, 8115, 8120, 8109, 8075, 8076, 8094, 8122, 8091, 8101, 8113, 8082, 8086, 8025,4.418258905410767
73, 8108, 8115, 8109, 8104, 8082, 8073, 8083, 8124, 8092, 8108, 8115, 8087, 8095, 8027,4.418258905410767
74, 8121, 8126, 8129, 8099, 8077, 8062, 8063, 8120, 8078, 8070, 8113, 8110, 8098, 8029,4.434025287628174
75, 8125, 8134, 8112, 8113, 8081, 8069, 8071, 8119, 8085, 8066, 8127, 8096, 8116, 8022,4.434025287628174
76, 8121, 8132, 8133, 8106, 8080, 8063, 8063, 8118, 8068, 8065, 8136, 8108, 8107, 8022,4.449082136154175
77, 8116, 8138, 8139, 8112, 8076, 8060, 8059, 8115, 8051, 8058, 8133, 8105, 8092, 8012,4.449082136154175
78, 8106, 8138, 8130, 8123, 8081, 8076, 8067, 8109, 8044, 8047, 8109, 8089, 8081, 8005,4.4644317626953125
79, 8090, 8131, 8148, 8133, 8081, 8095, 8078, 8112, 8049, 8051, 8098, 8094, 8073, 8009,4.4644317626953125
80, 8092, 8114, 8125, 8141, 8079, 8096, 8090, 8123, 8075, 8074, 8111, 8084, 8085, 8014,4.480262756347656
81, 8105, 8100, 8132, 8121, 8078, 8077, 8084, 8132, 8083, 8076, 8106, 8102, 8090, 8030,4.480262756347656
82, 8098, 8100, 8122, 8115, 8077, 8070, 8082, 8131, 8086, 8084, 8107, 8089, 8098, 8022,4.495807409286499
83, 8099, 8104, 8105, 8119, 8073, 8059, 8071, 8119, 8075, 8083, 8117, 8075, 8101, 8013,4.495807409286499
84, 8122, 8125, 8144, 8124, 8078, 8054, 8062, 8121, 8060, 8071, 8135, 8112, 8115, 8024,4.511221885681152
85, 8131, 8150, 8147, 8161, 8089, 8064, 8074, 8125, 8076, 8088, 8165, 8108, 8140, 8027,4.511221885681152
86, 8126, 8158, 8163, 8171, 8088, 8080, 8076, 8119, 8067, 8092, 8158, 8095, 8113, 8026,4.526719808578491
87, 8124, 8153, 8160, 8166, 8088, 8105, 8093, 8118, 8058, 8086, 8129, 8078, 8085, 8016,4.526719808578491
88, 8119, 8132, 8129, 8159, 8084, 8103, 8113, 8128, 8072, 8085, 8120, 8070, 8095, 8021,4.542339324951172
89, 8116, 8123, 8138, 8144, 8078, 8095, 8116, 8144, 8084, 8095, 8115, 8085, 8097, 8039,4.542339324951172
90, 8117, 8122, 8108, 8143, 8087, 8102, 8120, 8147, 8100, 8122, 8117, 8067, 8104, 8036,4.55787992477417
91, 8131, 8121, 8117, 8123, 8085, 8092, 8105, 8142, 8090, 8112, 8122, 8089, 8113, 8047,4.55787992477417
92, 8141, 8130, 8140, 8126, 8082, 8087, 8091, 8139, 8082, 8090, 8135, 8111, 8122, 8054,4.573954105377197
93, 8139, 8139, 8130, 8144, 8095, 8082, 8092, 8128, 8084, 8084, 8147, 8102, 8127, 8043,4.573954105377197
94, 8149, 8154, 8162, 8142, 8106, 8082, 8103, 8130, 8075, 8087, 8147, 8119, 8126, 8043,4.589503765106201
95, 8147, 8151, 8152, 8154, 8107, 8101, 8122, 8134, 8077, 8107, 8137, 8099, 8128, 8038,4.589503765106201
96, 8120, 8118, 8133, 8138, 8089, 8109, 8117, 8132, 8082, 8105, 8110, 8073, 8101, 8043,4.605197191238403
97, 8103, 8097, 8125, 8114, 8082, 8103, 8122, 8150, 8111, 8113, 8108, 8073, 8096, 8052,4.605197191238403
98, 8123, 8109, 8108, 8111, 8097, 8099, 8130, 8160, 8126, 8119, 8128, 8084, 8123, 8045,4.620712041854858
99, 8139, 8131, 8141, 8111, 8102, 8106, 8120, 8145, 8101, 8095, 8127, 8100, 8116, 8042,4.620712041854858
100, 8113, 8121, 8128, 8115, 8098, 8121, 8127, 8125, 8093, 8092, 8111, 8061, 8092, 8026,4.6358442306518555
101, 8090, 8109, 8115, 8100, 8096, 8122, 8129, 8115, 8079, 8085, 8083, 8042, 8068, 8017,4.6358442306518555
102, 8091, 8122, 8126, 8096, 8096, 8127, 8135, 8134, 8084, 8086, 8078, 8054, 8077, 8021,4.650991439819336
103, 8105, 8119, 8109, 8103, 8092, 8128, 8143, 8154, 8114, 8109, 8095, 8056, 8109, 8030,4.650991439819336
104, 8122, 8113, 8131, 8087, 8086, 8114, 8124, 8153, 8116, 8111, 8106, 8097, 8120, 8046,4.666257858276367
105, 8124, 8130, 8127, 8089, 8094, 8102, 8119, 8144, 8116, 8115, 8121, 8101, 8131, 8036,4.666257858276367
106, 8123, 8141, 8133, 8095, 8101, 8092, 8116, 8140, 8106, 8101, 8123, 8093, 8123, 8031,4.681683540344238
107, 8130, 8147, 8170, 8110, 8102, 8107, 8122, 8141, 8103, 8089, 8124, 8108, 8113, 8041,4.681683540344238
108, 8128, 8146, 8157, 8137, 8107, 8130, 8138, 8143, 8123, 8115, 8134, 8096, 8119, 8045,4.697144031524658
109, 8109, 8129, 8153, 8120, 8101, 8127, 8130, 8141, 8119, 8124, 8112, 8086, 8102, 8042,4.697144031524658
110, 8095, 8116, 8127, 8104, 8096, 8117, 8130, 8141, 8125, 8123, 8098, 8069, 8101, 8030,4.713028430938721
111, 8107, 8113, 8127, 8099, 8099, 8111, 8130, 8149, 8137, 8122, 8110, 8091, 8115, 8047,4.728160381317139
112, 8121, 8118, 8156, 8096, 8095, 8113, 8122, 8161, 8136, 8120, 8121, 8125, 8119, 8064,4.728160381317139
113, 8132, 8126, 8126, 8100, 8096, 8107, 8118, 8155, 8135, 8112, 8125, 8110, 8122, 8046,4.743338584899902
114, 8140, 8131, 8137, 8088, 8106, 8097, 8110, 8141, 8118, 8081, 8123, 8123, 8115, 8037,4.743338584899902
115, 8129, 8139, 8145, 8109, 8119, 8113, 8119, 8135, 8118, 8094, 8135, 8117, 8114, 8030,4.759021759033203
116, 8109, 8134, 8140, 8124, 8120, 8123, 8123, 8133, 8119, 8119, 8120, 8090, 8093, 8025,4.759021759033203
117, 8094, 8116, 8143, 8097, 8120, 8128, 8127, 8139, 8113, 8107, 8081, 8079, 8062, 8023,4.775153875350952
118, 8080, 8096, 8101, 8090, 8119, 8137, 8135, 8137, 8114, 8103, 8071, 8053, 8060, 8008,4.775153875350952
119, 8083, 8101, 8111, 8097, 8111, 8117, 8120, 8132, 8105, 8106, 8083, 8073, 8069, 8015,4.790550231933594
120, 8093, 8116, 8115, 8103, 8113, 8091, 8118, 8137, 8115, 8117, 8110, 8092, 8093, 8023,4.790550231933594
121, 8092, 8111, 8094, 8093, 8118, 8077, 8119, 8129, 8112, 8110, 8126, 8086, 8101, 8015,4.8066651821136475
122, 8081, 8118, 8119, 8090, 8118, 8090, 8113, 8113, 8086, 8087, 8124, 8087, 8084, 7998,4.8066651821136475
123, 8070, 8123, 8111, 8105, 8120, 8115, 8126, 8109, 8092, 8097, 8114, 8060, 8079, 7982,4.82300591468811
124, 8068, 8112, 8118, 8099, 8119, 8118, 8129, 8130, 8106, 8115, 8095, 8067, 8071, 7998,4.82300591468811
125, 8065, 8110, 8117, 8098, 8117, 8119, 8136, 8153, 8131, 8139, 8099, 8077, 8078, 8013,4.82300591468811
126, 8069, 8111, 8097, 8086, 8115, 8115, 8132, 8150, 8147, 8155, 8113, 8082, 8091, 8026,4.838857650756836
127, 8078, 8111, 8116, 8068, 8110, 8108, 8118, 8142, 8138, 8138, 8110, 8109, 8101, 8038,4.838857650756836
237, 8087, 8113, 8103, 8081, 8116, 8105, 8130, 8142, 8143, 8124, 8117, 8094, 8119, 8026,4.853891372680664
0, 8099, 8121, 8115, 8074, 8119, 8093, 8123, 8139, 8128, 8112, 8128, 8104, 8114, 8022,4.869421005249023
1, 8101, 8130, 8130, 8077, 8115, 8100, 8116, 8135, 8114, 8117, 8133, 8120, 8106, 8018,4.869421005249023
2, 8089, 8120, 8117, 8093, 8113, 8117, 8142, 8142, 8123, 8123, 8122, 8096, 8095, 8015,4.885203838348389
3, 8082, 8110, 8136, 8085, 8110, 8134, 8176, 8171, 8138, 8122, 8105, 8091, 8073, 8027,4.885203838348389
4, 8084, 8110, 8109, 8083, 8112, 8142, 8191, 8187, 8160, 8150, 8106, 8084, 8084, 8029,4.900822877883911
5, 8076, 8094, 8092, 8060, 8100, 8129, 8169, 8163, 8141, 8135, 8090, 8087, 8079, 8031,4.900822877883911
6, 8073, 8085, 8093, 8048, 8094, 8122, 8165, 8159, 8134, 8115, 8080, 8086, 8075, 8028,4.915964126586914
7, 8091, 8105, 8083, 8061, 8110, 8113, 8163, 8177, 8160, 8135, 8110, 8094, 8102, 8026,4.915964126586914
8, 8100, 8125, 8120, 8063, 8107, 8093, 8132, 8166, 8145, 8132, 8132, 8133, 8111, 8033,4.931995391845703
9, 8093, 8119, 8107, 8066, 8098, 8088, 8120, 8140, 8125, 8117, 8127, 8113, 8111, 8018,4.931995391845703
10, 8101, 8112, 8104, 8064, 8103, 8085, 8110, 8133, 8115, 8103, 8115, 8110, 8106, 8009,4.947162628173828
11, 8108, 8130, 8134, 8081, 8110, 8090, 8110, 8134, 8112, 8102, 8122, 8128, 8107, 8007,4.947162628173828
12, 8093, 8127, 8121, 8092, 8108, 8095, 8116, 8118, 8101, 8093, 8114, 8103, 8094, 8000,4.962941408157349
13, 8081, 8116, 8131, 8081, 8104, 8100, 8116, 8111, 8083, 8087, 8091, 8110, 8071, 8007,4.962941408157349
14, 8088, 8124, 8121, 8109, 8118, 8120, 8144, 8128, 8106, 8127, 8106, 8111, 8093, 8018,4.978150367736816
15, 8100, 8127, 8126, 8126, 8125, 8133, 8153, 8148, 8129, 8139, 8119, 8117, 8107, 8031,4.978150367736816
16, 8101, 8125, 8146, 8119, 8122, 8142, 8148, 8159, 8138, 8134, 8117, 8128, 8100, 8034,4.994375228881836
17, 8095, 8114, 8108, 8110, 8123, 8141, 8151, 8154, 8143, 8149, 8119, 8112, 8111, 8031,4.994747161865234
18, 8100, 8109, 8109, 8085, 8117, 8124, 8132, 8146, 8121, 8127, 8109, 8130, 8108, 8034,5.009829998016357
19, 8106, 8123, 8115, 8087, 8119, 8122, 8122, 8138, 8114, 8098, 8111, 8136, 8106, 8013,5.009829998016357
20, 8118, 8136, 8126, 8103, 8129, 8127, 8131, 8127, 8102, 8091, 8125, 8142, 8105, 8011,5.024972438812256
21, 8127, 8144, 8151, 8111, 8128, 8131, 8139, 8125, 8084, 8093, 8124, 8153, 8098, 8024,5.024972438812256
22, 8117, 8138, 8135, 8125, 8127, 8134, 8143, 8129, 8092, 8102, 8111, 8132, 8092, 8021,5.041001558303833
23, 8101, 8129, 8155, 8130, 8132, 8144, 8147, 8141, 8106, 8110, 8100, 8142, 8084, 8029,5.041001558303833
24, 8092, 8125, 8147, 8142, 8138, 8159, 8169, 8150, 8123, 8133, 8103, 8139, 8094, 8034,5.0567522048950195
25, 8097, 8108, 8120, 8126, 8131, 8149, 8168, 8147, 8125, 8138, 8094, 8132, 8095, 8039,5.0567522048950195
26, 8108, 8100, 8130, 8102, 8121, 8133, 8157, 8158, 8128, 8128, 8095, 8155, 8097, 8053,5.071847915649414
27, 8124, 8119, 8119, 8122, 8131, 8131, 8161, 8176, 8145, 8133, 8127, 8163, 8126, 8055,5.071847915649414
28, 8149, 8151, 8156, 8141, 8146, 8138, 8152, 8177, 8138, 8130, 8145, 8193, 8137, 8064,5.0870771408081055
29, 8153, 8172, 8169, 8162, 8153, 8160, 8158, 8164, 8144, 8141, 8149, 8195, 8139, 8067,5.0870771408081055
30, 8145, 8165, 8145, 8175, 8149, 8160, 8168, 8149, 8141, 8141, 8139, 8184, 8130, 8062,5.102288484573364
31, 8143, 8149, 8152, 8164, 8144, 8155, 8173, 8153, 8122, 8130, 8127, 8193, 8117, 8064,5.102288484573364
32, 8137, 8132, 8122, 8156, 8146, 8168, 8187, 8167, 8146, 8154, 8134, 8171, 8135, 8070,5.1178412437438965
33, 8140, 8124, 8122, 8133, 8144, 8156, 8176, 8173, 8159, 8157, 8138, 8190, 8141, 8077,5.1178412437438965
34, 8152, 8131, 8132, 8131, 8145, 8146, 8170, 8172, 8155, 8153, 8148, 8212, 8144, 8066,5.132922649383545
35, 8155, 8135, 8133, 8152, 8150, 8151, 8166, 8161, 8151, 8154, 8155, 8198, 8142, 8060,5.132922649383545
36, 8152, 8147, 8172, 8162, 8152, 8158, 8161, 8155, 8145, 8150, 8148, 8207, 8131, 8075,5.148532152175903
37, 8145, 8149, 8153, 8169, 8155, 8166, 8178, 8157, 8158, 8170, 8158, 8197, 8139, 8077,5.148532152175903
38, 8135, 8132, 8144, 8158, 8148, 8166, 8178, 8159, 8154, 8174, 8150, 8195, 8132, 8080,5.164160966873169
39, 8129, 8122, 8139, 8150, 8136, 8163, 8174, 8161, 8152, 8163, 8132, 8189, 8134, 8076,5.164160966873169
40, 8137, 8118, 8111, 8135, 8135, 8147, 8167, 8152, 8155, 8156, 8145, 8189, 8146, 8066,5.18027925491333
41, 8148, 8133, 8145, 8130, 8139, 8137, 8147, 8143, 8137, 8137, 8158, 8225, 8138, 8064,5.18027925491333
42, 8151, 8148, 8160, 8173, 8145, 8157, 8158, 8144, 8139, 8137, 8156, 8211, 8136, 8063,5.195838451385498
43, 8163, 8149, 8176, 8192, 8148, 8168, 8178, 8159, 8149, 8151, 8151, 8212, 8137, 8086,5.195838451385498
44, 8172, 8150, 8182, 8185, 8155, 8170, 8194, 8172, 8164, 8176, 8161, 8228, 8152, 8099,5.211385726928711
45, 8168, 8139, 8149, 8177, 8154, 8163, 8191, 8167, 8169, 8182, 8159, 8213, 8158, 8092,5.211385726928711
46, 8177, 8138, 8163, 8161, 8144, 8154, 8171, 8167, 8156, 8162, 8151, 8229, 8148, 8100,5.226564168930054
47, 8190, 8160, 8156, 8161, 8149, 8145, 8162, 8162, 8160, 8160, 8163, 8234, 8163, 8092,5.226564168930054
48, 8191, 8169, 8166, 8156, 8148, 8128, 8146, 8147, 8143, 8136, 8161, 8237, 8158, 8084,5.24223256111145
49, 8186, 8167, 8186, 8164, 8143, 8136, 8147, 8147, 8132, 8115, 8155, 8241, 8141, 8079,5.24223256111145
50, 8184, 8166, 8164, 8176, 8152, 8157, 8162, 8151, 8149, 8137, 8163, 8229, 8147, 8069,5.257466077804565
51, 8175, 8168, 8185, 8173, 8150, 8164, 8163, 8145, 8140, 8148, 8154, 8239, 8144, 8075,5.257466077804565
52, 8159, 8160, 8172, 8188, 8147, 8169, 8173, 8145, 8136, 8153, 8138, 8216, 8136, 8076,5.273147344589233
53, 8157, 8139, 8149, 8172, 8146, 8165, 8169, 8150, 8132, 8147, 8124, 8206, 8128, 8082,5.273147344589233
54, 8167, 8134, 8159, 8146, 8140, 8163, 8167, 8160, 8143, 8156, 8134, 8228, 8150, 8089,5.28888201713562
55, 8179, 8140, 8151, 8165, 8143, 8159, 8179, 8173, 8172, 8185, 8167, 8239, 8181, 8098,5.28888201713562
56, 8184, 8147, 8172, 8167, 8147, 8147, 8166, 8179, 8160, 8163, 8173, 8264, 8173, 8109,5.304196119308472
57, 8186, 8150, 8163, 8160, 8152, 8156, 8160, 8169, 8145, 8136, 8172, 8250, 8175, 8090,5.304196119308472
58, 8196, 8151, 8169, 8169, 8165, 8162, 8161, 8150, 8143, 8143, 8179, 8242, 8177, 8081,5.319538354873657
59, 8194, 8160, 8206, 8184, 8176, 8170, 8166, 8147, 8144, 8164, 8179, 8254, 8165, 8086,5.335568428039551
60, 8177, 8160, 8184, 8203, 8179, 8186, 8183, 8145, 8146, 8172, 8170, 8227, 8157, 8073,5.335568428039551
61, 8178, 8153, 8194, 8193, 8173, 8190, 8190, 8147, 8139, 8161, 8157, 8231, 8146, 8073,5.335568428039551
62, 8181, 8146, 8190, 8183, 8177, 8195, 8197, 8156, 8158, 8188, 8159, 8228, 8154, 8082,5.351590871810913
63, 8172, 8138, 8171, 8186, 8177, 8188, 8189, 8151, 8172, 8203, 8160, 8228, 8165, 8091,5.351590871810913
64, 8175, 8156, 8189, 8201, 8171, 8173, 8174, 8150, 8167, 8187, 8166, 8263, 8171, 8094,5.366986274719238
65, 8192, 8167, 8178, 8213, 8174, 8162, 8177, 8165, 8167, 8181, 8183, 8267, 8188, 8094,5.366986274719238
66, 8200, 8158, 8195, 8192, 8175, 8154, 8164, 8169, 8156, 8165, 8189, 8286, 8192, 8108,5.3830156326293945
67, 8204, 8170, 8205, 8202, 8175, 8157, 8161, 8158, 8154, 8161, 8201, 8293, 8199, 8104,5.3830156326293945
68, 8210, 8187, 8205, 8226, 8177, 8157, 8166, 8144, 8139, 8155, 8202, 8277, 8191, 8099,5.398540496826172
69, 8196, 8181, 8219, 8214, 8175, 8164, 8174, 8148, 8127, 8151, 8180, 8271, 8171, 8108,5.398540496826172
70, 8179, 8154, 8170, 8191, 8171, 8173, 8179, 8159, 8156, 8181, 8176, 8247, 8185, 8103,5.414234161376953
71, 8192, 8146, 8173, 8174, 8165, 8158, 8154, 8160, 8158, 8174, 8184, 8263, 8191, 8101,5.414234161376953
72, 8200, 8172, 8202, 8204, 8171, 8161, 8157, 8149, 8145, 8155, 8194, 8264, 8186, 8089,5.430274486541748
73, 8191, 8172, 8191, 8218, 8178, 8183, 8187, 8145, 8148, 8174, 8187, 8241, 8178, 8085,5.430274486541748
74, 8200, 8155, 8197, 8190, 8175, 8196, 8197, 8168, 8159, 8198, 8180, 8263, 8180, 8114,5.4454100131988525
75, 8213, 8159, 8179, 8195, 8182, 8195, 8193, 8174, 8183, 8197, 8202, 8271, 8213, 8122,5.4454100131988525
76, 8205, 8166, 8192, 8201, 8185, 8185, 8182, 8156, 8168, 8163, 8202, 8269, 8204, 8103,5.460538864135742
77, 8184, 8157, 8193, 8199, 8181, 8204, 8206, 8156, 8159, 8167, 8171, 8236, 8167, 8081,5.47610330581665
78, 8169, 8131, 8149, 8185, 8174, 8216, 8223, 8172, 8179, 8189, 8153, 8212, 8164, 8085,5.47610330581665
79, 8185, 8127, 8166, 8165, 8168, 8189, 8200, 8177, 8173, 8172, 8162, 8251, 8185, 8103,5.491116285324097
80, 8213, 8151, 8177, 8183, 8179, 8175, 8190, 8168, 8166, 8164, 8190, 8257, 8206, 8099,5.491116285324097
81, 8212, 8163, 8190, 8184, 8182, 8180, 8181, 8157, 8153, 8155, 8194, 8262, 8196, 8097,5.507178068161011
82, 8189, 8154, 8190, 8178, 8174, 8182, 8177, 8151, 8146, 8154, 8187, 8267, 8185, 8086,5.507178068161011
83, 8182, 8150, 8176, 8198, 8176, 8179, 8189, 8147, 8157, 8177, 8182, 8246, 8181, 8078,5.522947549819946
84, 8190, 8157, 8214, 8202, 8181, 8197, 8204, 8150, 8170, 8189, 8166, 8250, 8169, 8093,5.522947549819946
85, 8184, 8144, 8193, 8195, 8178, 8219, 8215, 8151, 8179, 8198, 8161, 8240, 8175, 8096,5.53805947303772
86, 8180, 8130, 8175, 8183, 8168, 8206, 8202, 8156, 8165, 8189, 8159, 8249, 8169, 8099,5.53805947303772
87, 8184, 8138, 8189, 8181, 8164, 8201, 8194, 8172, 8166, 8180, 8154, 8253, 8163, 8098,5.553183555603027
88, 8181, 8134, 8165, 8179, 8169, 8198, 8191, 8169, 8178, 8187, 8159, 8235, 8181, 8091,5.553183555603027
89, 8188, 8133, 8186, 8165, 8174, 8184, 8177, 8163, 8172, 8194, 8170, 8267, 8201, 8107,5.568477630615234
90, 8206, 8142, 8191, 8177, 8182, 8192, 8189, 8176, 8188, 8206, 8188, 8275, 8218, 8109,5.568477630615234
91, 8222, 8146, 8189, 8175, 8185, 8197, 8188, 8174, 8188, 8185, 8186, 8276, 8207, 8105,5.583943128585815
92, 8231, 8166, 8216, 8187, 8193, 8200, 8188, 8158, 8172, 8174, 8189, 8295, 8205, 8108,5.583943128585815
93, 8234, 8183, 8224, 8231, 8212, 8217, 8218, 8157, 8184, 8210, 8206, 8283, 8224, 8113,5.5993735790252686
94, 8223, 8172, 8237, 8222, 8213, 8232, 8231, 8170, 8193, 8218, 8186, 8279, 8211, 8129,5.5993735790252686
95, 8215, 8162, 8200, 8203, 8203, 8226, 8225, 8180, 8207, 8212, 8169, 8268, 8204, 8132,5.615433931350708
96, 8220, 8167, 8192, 8205, 8203, 8203, 8211, 8174, 8204, 8209, 8186, 8281, 8220, 8129,5.615433931350708
97, 8236, 8184, 8235, 8215, 8214, 8211, 8216, 8170, 8196, 8212, 8209, 8302, 8233, 8124,5.631481170654297
98, 8307, 8195, 8217, 8229, 8224, 8227, 8233, 8169, 8210, 8215, 8211, 8272, 8226, 8118,5.631481170654297
99, 8403, 8199, 8229, 8233, 8221, 8219, 8226, 8162, 8199, 8188, 8183, 8270, 8193, 8121,5.646891117095947
100, 8420, 8193, 8234, 8254, 8223, 8227, 8230, 8159, 8194, 8193, 8170, 8263, 8190, 8114,5.646891117095947
101, 8394, 8179, 8214, 8254, 8225, 8242, 8234, 8165, 8202, 8215, 8165, 8248, 8199, 8119,5.662970542907715
102, 8399, 8178, 8218, 8242, 8220, 8242, 8235, 8173, 8208, 8223, 8161, 8258, 8196, 8135,5.662970542907715
103, 8397, 8176, 8181, 8238, 8222, 8229, 8239, 8169, 8219, 8233, 8172, 8247, 8211, 8130,5.679094076156616
104, 8384, 8171, 8179, 8213, 8221, 8216, 8216, 8166, 8207, 8216, 8183, 8265, 8220, 8130,5.679094076156616
105, 8389, 8180, 8177, 8209, 8221, 8225, 8217, 8171, 8206, 8215, 8200, 8272, 8234, 8126,5.6945812702178955
106, 8390, 8184, 8161, 8217, 8221, 8220, 8227, 8170, 8207, 8220, 8213, 8267, 8236, 8124,5.6945812702178955
107, 8387, 8189, 8188, 8217, 8215, 8206, 8215, 8171, 8200, 8210, 8215, 8284, 8231, 8135,5.710632085800171
108, 8391, 8198, 8195, 8235, 8215, 8215, 8224, 8172, 8210, 8218, 8218, 8273, 8243, 8136,5.710632085800171
109, 8394, 8203, 8217, 8237, 8224, 8232, 8241, 8166, 8206, 8224, 8211, 8278, 8233, 8142,5.726203918457031
110, 8383, 8199, 8212, 8242, 8231, 8249, 8254, 8169, 8218, 8245, 8213, 8266, 8228, 8145,5.726203918457031
111, 8382, 8188, 8184, 8251, 8224, 8244, 8247, 8174, 8231, 8261, 8207, 8247, 8224, 8149,5.741868019104004
112, 8381, 8181, 8198, 8232, 8213, 8230, 8235, 8176, 8220, 8253, 8190, 8271, 8214, 8151,5.741868019104004
113, 8370, 8173, 8176, 8222, 8211, 8230, 8240, 8178, 8233, 8266, 8208, 8269, 8238, 8150,5.756988048553467
114, 8376, 8176, 8185, 8215, 8213, 8227, 8226, 8178, 8239, 8267, 8226, 8282, 8253, 8165,5.756988048553467
115, 8389, 8200, 8199, 8221, 8226, 8221, 8219, 8179, 8238, 8256, 8231, 8297, 8259, 8162,5.773296594619751
116, 8389, 8210, 8191, 8236, 8236, 8217, 8220, 8167, 8229, 8243, 8237, 8288, 8258, 8148,5.773296594619751
117, 8383, 8216, 8237, 8249, 8225, 8221, 8212, 8154, 8205, 8227, 8238, 8300, 8241, 8147,5.788907766342163
118, 8370, 8219, 8226, 8264, 8221, 8231, 8225, 8150, 8205, 8232, 8231, 8281, 8238, 8133,5.788907766342163
119, 8354, 8201, 8205, 8238, 8225, 8232, 8230, 8149, 8198, 8226, 8200, 8262, 8222, 8126,5.804137706756592
120, 8343, 8189, 8208, 8234, 8224, 8244, 8236, 8146, 8192, 8227, 8181, 8246, 8204, 8123,5.804137706756592
121, 8345, 8179, 8192, 8253, 8220, 8245, 8241, 8144, 8203, 8242, 8188, 8233, 8217, 8129,5.820067882537842
122, 8345, 8168, 8205, 8221, 8206, 8224, 8226, 8167, 8211, 8240, 8191, 8265, 8230, 8151,5.820067882537842
123, 8339, 8161, 8183, 8194, 8195, 8213, 8213, 8178, 8225, 8246, 8195, 8259, 8232, 8144,5.835011959075928
124, 8346, 8156, 8182, 8191, 8193, 8197, 8195, 8162, 8209, 8228, 8193, 8259, 8226, 8134,5.835011959075928
125, 8361, 8164, 8207, 8208, 8206, 8196, 8199, 8171, 8205, 8217, 8204, 8284, 8251, 8144,5.851034641265869
126, 8365, 8175, 8193, 8221, 8218, 8210, 8210, 8183, 8230, 8244, 8225, 8284, 8280, 8153,5.851034641265869
127, 8355, 8183, 8212, 8203, 8212, 8212, 8196, 8165, 8209, 8230, 8210, 8287, 8250, 8145,5.866313219070435
237, 8337, 8180, 8207, 8212, 8213, 8221, 8206, 8144, 8187, 8202, 8179, 8246, 8208, 8118,5.866313219070435
0, 8326, 8175, 8207, 8230, 8220, 8230, 8221, 8151, 8187, 8209, 8165, 8228, 8193, 8123,5.8818440437316895
1, 8318, 8173, 8222, 8230, 8222, 8240, 8229, 8163, 8194, 8229, 8170, 8245, 8201, 8136,5.8818440437316895
2, 8297, 8151, 8178, 8209, 8216, 8234, 8227, 8153, 8194, 8214, 8162, 8219, 8195, 8113,5.896946668624878
3, 8289, 8138, 8179, 8185, 8205, 8206, 8210, 8154, 8187, 8194, 8142, 8220, 8179, 8118,5.896946668624878
4, 8303, 8148, 8183, 8202, 8205, 8206, 8224, 8177, 8213, 8228, 8162, 8233, 8213, 8139,5.912984132766724
5, 8315, 8148, 8178, 8192, 8207, 8211, 8228, 8183, 8222, 8235, 8184, 8247, 8235, 8141,5.912984132766724
6, 8313, 8158, 8198, 8175, 8204, 8203, 8210, 8177, 8211, 8208, 8184, 8262, 8228, 8135,5.9281325340271
7, 8321, 8177, 8191, 8199, 8202, 8196, 8202, 8169, 8208, 8213, 8191, 8253, 8237, 8129,5.9281325340271
8, 8326, 8178, 8215, 8201, 8202, 8198, 8197, 8154, 8182, 8205, 8193, 8267, 8225, 8128,5.943957805633545
9, 8315, 8176, 8207, 8200, 8208, 8207, 8203, 8141, 8174, 8199, 8195, 8256, 8217, 8118,5.943957805633545
10, 8317, 8182, 8197, 8214, 8210, 8202, 8200, 8143, 8178, 8203, 8193, 8248, 8220, 8124,5.959718465805054
11, 8319, 8195, 8234, 8224, 8209, 8209, 8202, 8153, 8172, 8204, 8185, 8263, 8207, 8129,5.959718465805054
12, 8305, 8192, 8217, 8230, 8215, 8228, 8226, 8154, 8186, 8220, 8179, 8233, 8202, 8118,5.975299596786499
13, 8302, 8178, 8221, 8213, 8208, 8228, 8232, 8155, 8198, 8223, 8161, 8236, 8200, 8134,5.975299596786499
14, 8314, 8170, 8219, 8213, 8202, 8225, 8229, 8165, 8212, 8236, 8165, 8253, 8214, 8148,5.990881681442261
15, 8318, 8159, 8202, 8203, 8203, 8213, 8217, 8170, 8216, 8249, 8180, 8251, 8227, 8150,5.990881681442261
16, 8311, 8150, 8214, 8172, 8190, 8203, 8204, 8172, 8208, 8235, 8172, 8256, 8222, 8147,6.00597071647644
17, 8304, 8155, 8189, 8174, 8181, 8202, 8204, 8162, 8208, 8218, 8173, 8246, 8223, 8129,6.00597071647644
18, 8314, 8179, 8211, 8188, 8196, 8193, 8198, 8151, 8192, 8204, 8189, 8272, 8224, 8134,6.027066230773926
19, 8320, 8199, 8232, 8202, 8209, 8196, 8204, 8157, 8191, 8227, 8208, 8275, 8236, 8140,6.027066230773926
20, 8295, 8183, 8205, 8195, 8197, 8203, 8202, 8149, 8188, 8228, 8192, 8239, 8216, 8118,6.0380778312683105
21, 8263, 8165, 8207, 8175, 8182, 8203, 8182, 8141, 8170, 8195, 8151, 8226, 8177, 8100,6.0380778312683105
22, 8240, 8146, 8167, 8171, 8174, 8190, 8177, 8142, 8177, 8201, 8135, 8194, 8175, 8085,6.053613901138306
23, 8228, 8120, 8146, 8143, 8158, 8163, 8151, 8133, 8156, 8183, 8118, 8185, 8159, 8072,6.053613901138306
24, 8226, 8112, 8154, 8129, 8153, 8156, 8130, 8125, 8130, 8149, 8116, 8191, 8154, 8056,6.068722724914551
25, 8234, 8128, 8156, 8142, 8163, 8158, 8137, 8126, 8133, 8150, 8140, 8191, 8181, 8063,6.068722724914551
26, 8244, 8149, 8192, 8151, 8169, 8160, 8145, 8132, 8136, 8158, 8149, 8214, 8183, 8083,6.084411382675171
27, 8235, 8147, 8176, 8166, 8174, 8168, 8151, 8134, 8145, 8162, 8142, 8200, 8174, 8073,6.084411382675171
28, 8223, 8139, 8176, 8169, 8167, 8174, 8154, 8133, 8140, 8162, 8129, 8199, 8169, 8076,6.1000988483428955
29, 8234, 8148, 8196, 8179, 8165, 8192, 8170, 8151, 8163, 8194, 8131, 8208, 8180, 8102,6.1000988483428955
30, 8256, 8144, 8175, 8173, 8175, 8187, 8160, 8163, 8194, 8213, 8143, 8204, 8197, 8119,6.115384817123413
31, 8261, 8141, 8192, 8144, 8163, 8161, 8130, 8154, 8174, 8185, 8156, 8237, 8204, 8121,6.115384817123413
32, 8257, 8158, 8191, 8165, 8156, 8163, 8142, 8142, 8161, 8175, 8175, 8235, 8213, 8099,6.131436347961426
33, 8262, 8161, 8193, 8176, 8163, 8168, 8151, 8144, 8157, 8162, 8157, 8219, 8189, 8091,6.131436347961426
34, 8250, 8143, 8194, 8158, 8157, 8164, 8156, 8149, 8150, 8154, 8120, 8200, 8162, 8090,6.146704435348511
35, 8229, 8132, 8166, 8161, 8144, 8165, 8176, 8147, 8152, 8175, 8120, 8181, 8166, 8091,6.162442445755005
36, 8239, 8141, 8191, 8156, 8144, 8169, 8173, 8161, 8154, 8175, 8138, 8220, 8174, 8117,6.162442445755005
37, 8252, 8146, 8179, 8153, 8149, 8170, 8166, 8164, 8160, 8162, 8145, 8220, 8187, 8118,6.177976369857788
38, 8245, 8145, 8168, 8153, 8145, 8149, 8153, 8147, 8141, 8150, 8146, 8208, 8179, 8094,6.177976369857788
39, 8238, 8164, 8198, 8176, 8150, 8151, 8152, 8150, 8139, 8152, 8162, 8223, 8176, 8081,6.177976369857788
40, 8232, 8164, 8182, 8198, 8161, 8180, 8172, 8155, 8163, 8172, 8169, 8203, 8183, 8087,6.194019317626953
41, 8227, 8149, 8183, 8180, 8151, 8186, 8165, 8147, 8153, 8171, 8141, 8207, 8166, 8098,6.194019317626953
42, 8228, 8149, 8168, 8184, 8145, 8179, 8154, 8147, 8156, 8176, 8138, 8207, 8174, 8093,6.2092132568359375
43, 8237, 8148, 8168, 8190, 8147, 8167, 8155, 8149, 8160, 8174, 8156, 8207, 8194, 8104,6.224912166595459
44, 8241, 8150, 8186, 8182, 8150, 8156, 8153, 8144, 8142, 8158, 8166, 8217, 8193, 8109,6.224912166595459
45, 8232, 8164, 8153, 8189, 8161, 8155, 8149, 8144, 8140, 8162, 8172, 8199, 8189, 8085,6.239979982376099
46, 8212, 8169, 8167, 8184, 8160, 8160, 8144, 8155, 8142, 8161, 8155, 8194, 8169, 8075,6.239979982376099
47, 8192, 8153, 8160, 8189, 8158, 8173, 8154, 8157, 8147, 8157, 8131, 8157, 8144, 8064,6.2557759284973145
48, 8192, 8139, 8132, 8196, 8162, 8168, 8150, 8145, 8144, 8146, 8114, 8141, 8128, 8062,6.2557759284973145
49, 8191, 8143, 8150, 8191, 8160, 8165, 8158, 8151, 8156, 8162, 8126, 8182, 8148, 8086,6.2708516120910645
50, 8186, 8138, 8135, 8189, 8153, 8163, 8174, 8164, 8181, 8194, 8155, 8187, 8187, 8098,6.2708516120910645
51, 8200, 8135, 8142, 8178, 8147, 8145, 8145, 8159, 8155, 8163, 8153, 8201, 8183, 8096,6.286864519119263
52, 8202, 8148, 8135, 8180, 8146, 8138, 8129, 8136, 8121, 8132, 8150, 8200, 8170, 8078,6.286864519119263
53, 8194, 8151, 8123, 8177, 8143, 8130, 8126, 8115, 8101, 8129, 8157, 8193, 8163, 8067,6.303004264831543
54, 8203, 8159, 8166, 8180, 8144, 8132, 8118, 8118, 8088, 8128, 8163, 8214, 8152, 8077,6.303004264831543
55, 8215, 8177, 8165, 8226, 8163, 8158, 8134, 8121, 8104, 8147, 8172, 8194, 8155, 8078,6.318949222564697
56, 8211, 8180, 8172, 8237, 8170, 8169, 8141, 8116, 8107, 8152, 8158, 8191, 8142, 8082,6.318949222564697
57, 8187, 8160, 8154, 8209, 8154, 8167, 8148, 8128, 8114, 8158, 8139, 8182, 8127, 8070,6.334483861923218
58, 8168, 8132, 8114, 8184, 8142, 8153, 8146, 8138, 8119, 8161, 8130, 8161, 8123, 8061,6.334483861923218
59, 8177, 8133, 8137, 8178, 8144, 8141, 8140, 8151, 8123, 8153, 8140, 8183, 8133, 8087,6.350041151046753
60, 8195, 8150, 8136, 8190, 8150, 8149, 8153, 8173, 8158, 8173, 8171, 8195, 8171, 8110,6.350041151046753
61, 8197, 8152, 8141, 8173, 8148, 8143, 8135, 8173, 8146, 8165, 8175, 8214, 8177, 8112,6.367377996444702
62, 8192, 8156, 8141, 8171, 8150, 8129, 8119, 8151, 8117, 8155, 8173, 8215, 8175, 8095,6.367377996444702
63, 8198, 8163, 8133, 8187, 8153, 8125, 8129, 8138, 8127, 8168, 8189, 8201, 8187, 8089,6.380880832672119
64, 8197, 8171, 8174, 8190, 8149, 8141, 8128, 8141, 8131, 8158, 8190, 8213, 8174, 8095,6.380880832672119
65, 8191, 8178, 8167, 8211, 8161, 8158, 8132, 8139, 8132, 8154, 8178, 8197, 8166, 8092,6.396808624267578
66, 8193, 8172, 8164, 8213, 8168, 8151, 8136, 8140, 8125, 8152, 8159, 8196, 8152, 8098,6.396808624267578
67, 8187, 8160, 8172, 8206, 8158, 8153, 8145, 8151, 8131, 8149, 8153, 8191, 8141, 8094,6.412195205688477
68, 8180, 8150, 8144, 8199, 8157, 8156, 8151, 8163, 8154, 8152, 8157, 8171, 8151, 8090,6.412195205688477
69, 8187, 8153, 8153, 8175, 8164, 8148, 8147, 8177, 8164, 8158, 8158, 8200, 8169, 8104,6.42726731300354
70, 8188, 8154, 8138, 8175, 8164, 8146, 8152, 8164, 8166, 8175, 8169, 8200, 8185, 8098,6.42726731300354
71, 8195, 8155, 8151, 8179, 8165, 8145, 8145, 8144, 8143, 8161, 8176, 8199, 8179, 8104,6.443288087844849
72, 8214, 8177, 8187, 8184, 8179, 8161, 8149, 8153, 8132, 8143, 8183, 8218, 8182, 8112,6.443288087844849
73, 8207, 8188, 8163, 8193, 8185, 8167, 8149, 8153, 8142, 8152, 8183, 8199, 8180, 8089,6.45932674407959
74, 8187, 8178, 8170, 8190, 8179, 8163, 8147, 8154, 8147, 8168, 8171, 8192, 8163, 8083,6.45932674407959
75, 8183, 8159, 8158, 8189, 8185, 8185, 8185, 8174, 8179, 8197, 8174, 8178, 8175, 8093,6.474797248840332
76, 8179, 8131, 8148, 8158, 8172, 8194, 8203, 8177, 8179, 8192, 8156, 8174, 8163, 8101,6.474797248840332
77, 8173, 8125, 8154, 8142, 8148, 8176, 8185, 8170, 8165, 8180, 8134, 8179, 8146, 8104,6.490155458450317
78, 8183, 8136, 8129, 8160, 8156, 8160, 8175, 8171, 8183, 8191, 8151, 8179, 8178, 8111,6.490155458450317
79, 8194, 8142, 8150, 8146, 8174, 8163, 8162, 8168, 8171, 8166, 8165, 8209, 8191, 8115,6.505284547805786
80, 8176, 8144, 8148, 8148, 8178, 8183, 8171, 8157, 8155, 8153, 8152, 8183, 8165, 8083,6.505284547805786
81, 8162, 8140, 8140, 8169, 8174, 8189, 8185, 8162, 8165, 8167, 8125, 8156, 8137, 8078,6.5209269523620605
82, 8178, 8141, 8155, 8157, 8173, 8188, 8184, 8176, 8185, 8180, 8128, 8183, 8149, 8111,6.5209269523620605
83, 8189, 8133, 8125, 8128, 8171, 8169, 8166, 8163, 8187, 8180, 8156, 8184, 8183, 8100,6.53654932975769
84, 8175, 8130, 8142, 8117, 8167, 8154, 8145, 8140, 8156, 8156, 8152, 8185, 8168, 8069,6.53654932975769
85, 8152, 8149, 8153, 8151, 8177, 8183, 8170, 8139, 8159, 8169, 8139, 8160, 8154, 8059,6.552107095718384
86, 8149, 8142, 8125, 8154, 8181, 8190, 8186, 8154, 8180, 8192, 8137, 8144, 8158, 8078,6.552107095718384
87, 8154, 8129, 8128, 8125, 8172, 8168, 8170, 8170, 8182, 8182, 8145, 8175, 8173, 8089,6.5681047439575195
88, 8153, 8141, 8124, 8140, 8172, 8167, 8169, 8169, 8184, 8173, 8164, 8178, 8186, 8069,6.5681047439575195
89, 8157, 8160, 8158, 8164, 8178, 8185, 8184, 8164, 8171, 8170, 8157, 8181, 8160, 8069,6.5843186378479
90, 8161, 8155, 8156, 8171, 8182, 8210, 8213, 8178, 8192, 8197, 8138, 8167, 8151, 8087,6.5843186378479
91, 8165, 8133, 8127, 8151, 8183, 8201, 8210, 8188, 8218, 8209, 8137, 8160, 8171, 8098,6.600354909896851
92, 8164, 8144, 8149, 8138, 8181, 8171, 8180, 8169, 8196, 8176, 8149, 8186, 8170, 8079,6.600354909896851
93, 8148, 8161, 8134, 8161, 8185, 8171, 8175, 8146, 8176, 8177, 8143, 8158, 8144, 8052,6.616352558135986
94, 8136, 8151, 8145, 8155, 8187, 8191, 8181, 8154, 8173, 8188, 8123, 8155, 8129, 8069,6.616352558135986
95, 8145, 8149, 8154, 8155, 8200, 8200, 8203, 8180, 8193, 8192, 8143, 8173, 8162, 8092,6.632976055145264
96, 8163, 8156, 8138, 8165, 8209, 8183, 8208, 8180, 8201, 8201, 8168, 8173, 8188, 8102,6.632976055145264
97, 8166, 8157, 8156, 8146, 8191, 8174, 8182, 8172, 8191, 8198, 8159, 8185, 8177, 8101,6.648365497589111
98, 8162, 8159, 8141, 8148, 8186, 8178, 8178, 8173, 8198, 8192, 8158, 8176, 8182, 8090,6.648365497589111
99, 8179, 8177, 8166, 8159, 8198, 8167, 8176, 8171, 8189, 8184, 8166, 8197, 8189, 8103,6.6639933586120605
100, 8182, 8193, 8184, 8172, 8202, 8172, 8172, 8162, 8184, 8194, 8169, 8196, 8182, 8101,6.6639933586120605
101, 8155, 8173, 8149, 8174, 8200, 8192, 8178, 8153, 8191, 8199, 8153, 8158, 8167, 8077,6.6793437004089355
102, 8141, 8157, 8157, 8160, 8202, 8205, 8201, 8165, 8189, 8195, 8130, 8165, 8152, 8087,6.6793437004089355
103, 8146, 8160, 8136, 8167, 8204, 8204, 8225, 8171, 8195, 8205, 8137, 8160, 8161, 8098,6.694929361343384
104, 8157, 8161, 8134, 8159, 8194, 8187, 8205, 8161, 8187, 8189, 8150, 8176, 8168, 8108,6.694929361343384
105, 8173, 8169, 8159, 8159, 8195, 8189, 8194, 8178, 8201, 8189, 8158, 8196, 8184, 8114,6.710519552230835
106, 8186, 8176, 8151, 8170, 8203, 8189, 8201, 8191, 8221, 8204, 8171, 8191, 8200, 8108,6.710519552230835
107, 8187, 8184, 8173, 8169, 8198, 8174, 8189, 8181, 8209, 8196, 8185, 8208, 8197, 8105,6.725579023361206
108, 8180, 8195, 8173, 8188, 8206, 8178, 8191, 8177, 8218, 8218, 8212, 8200, 8209, 8100,6.725579023361206
109, 8176, 8196, 8178, 8188, 8217, 8196, 8199, 8171, 8213, 8224, 8212, 8195, 8200, 8104,6.741614580154419
110, 8158, 8188, 8181, 8190, 8214, 8218, 8207, 8162, 8195, 8206, 8186, 8176, 8176, 8091,6.741614580154419
111, 8139, 8177, 8148, 8204, 8214, 8224, 8218, 8164, 8207, 8220, 8174, 8143, 8173, 8077,6.757913112640381
112, 8138, 8165, 8151, 8178, 8213, 8219, 8222, 8176, 8211, 8232, 8163, 8156, 8175, 8091,6.757913112640381
113, 8135, 8144, 8117, 8154, 8206, 8216, 8221, 8175, 8216, 8230, 8150, 8145, 8182, 8093,6.774104118347168
114, 8136, 8140, 8102, 8142, 8192, 8196, 8196, 8162, 8203, 8202, 8133, 8144, 8173, 8093,6.774104118347168
115, 8143, 8156, 8124, 8146, 8187, 8185, 8194, 8158, 8183, 8181, 8117, 8161, 8170, 8095,6.7894487380981445
116, 8154, 8161, 8104, 8163, 8197, 8186, 8211, 8163, 8184, 8188, 8104, 8152, 8190, 8087,6.7894487380981445
117, 8170, 8173, 8133, 8162, 8203, 8194, 8199, 8179, 8192, 8190, 8104, 8179, 8204, 8097,6.805464506149292
118, 8183, 8186, 8147, 8176, 8209, 8204, 8201, 8187, 8212, 8207, 8135, 8193, 8226, 8104,6.805464506149292
119, 8173, 8182, 8137, 8185, 8208, 8193, 8201, 8179, 8204, 8213, 8135, 8181, 8219, 8098,6.821098327636719
120, 8152, 8179, 8147, 8186, 8200, 8199, 8200, 8180, 8196, 8209, 8103, 8166, 8190, 8089,6.821098327636719
121, 8153, 8176, 8133, 8197, 8206, 8225, 8227, 8183, 8214, 8229, 8104, 8140, 8196, 8094,6.837202787399292
122, 8164, 8170, 8155, 8186, 8202, 8216, 8231, 8176, 8204, 8227, 8101, 8152, 8193, 8106,6.837202787399292
123, 8145, 8156, 8132, 8173, 8178, 8190, 8219, 8168, 8195, 8217, 8071, 8127, 8173, 8087,6.852961301803589
124, 8126, 8132, 8092, 8149, 8166, 8177, 8207, 8172, 8208, 8211, 8058, 8108, 8161, 8080,6.852961301803589
125, 8142, 8137, 8122, 8141, 8179, 8181, 8208, 8194, 8234, 8222, 8087, 8158, 8188, 8103,6.86814546585083
126, 8162, 8159, 8130, 8167, 8197, 8193, 8216, 8201, 8258, 8243, 8124, 8171, 8225, 8106,6.86814546585083
127, 8168, 8172, 8153, 8171, 8197, 8183, 8193, 8190, 8237, 8227, 8129, 8179, 8220, 8112,6.883940935134888
237, 8179, 8189, 8161, 8183, 8197, 8173, 8180, 8176, 8218, 8213, 8137, 8188, 8225, 8117,6.883940935134888
0, 8194, 8196, 8161, 8199, 8199, 8179, 8184, 8157, 8203, 8199, 8138, 8184, 8223, 8117,6.89939284324646
1, 8185, 8191, 8188, 8196, 8199, 8198, 8186, 8148, 8178, 8180, 8117, 8180, 8193, 8115,6.89939284324646
2, 8156, 8175, 8153, 8197, 8201, 8211, 8201, 8155, 8185, 8200, 8114, 8147, 8178, 8102,6.91545295715332
3, 8150, 8164, 8149, 8182, 8193, 8203, 8204, 8164, 8193, 8215, 8112, 8149, 8167, 8102,6.91545295715332
4, 8160, 8173, 8165, 8184, 8186, 8204, 8213, 8172, 8208, 8223, 8109, 8142, 8168, 8102,6.93099045753479
5, 8163, 8175, 8151, 8188, 8181, 8203, 8217, 8171, 8218, 8223, 8107, 8132, 8170, 8103,6.93099045753479
6, 8167, 8172, 8164, 8173, 8175, 8200, 8209, 8177, 8206, 8213, 8108, 8163, 8168, 8116,6.946235656738281
7, 8171, 8167, 8140, 8167, 8180, 8201, 8204, 8179, 8205, 8215, 8126, 8160, 8187, 8116,6.946235656738281
8, 8176, 8175, 8145, 8160, 8190, 8184, 8184, 8161, 8186, 8193, 8132, 8169, 8191, 8119,6.962277889251709
9, 8193, 8202, 8173, 8192, 8203, 8183, 8192, 8154, 8186, 8191, 8154, 8186, 8195, 8117,6.962277889251709
10, 8213, 8209, 8179, 8223, 8204, 8188, 8203, 8171, 8209, 8222, 8184, 8188, 8206, 8117,6.978278160095215
11, 8208, 8203, 8210, 8203, 8187, 8180, 8184, 8171, 8197, 8208, 8169, 8201, 8190, 8124,6.978278160095215
12, 8190, 8201, 8190, 8199, 8181, 8185, 8194, 8154, 8188, 8185, 8136, 8167, 8172, 8110,6.993901252746582
13, 8178, 8180, 8172, 8194, 8183, 8197, 8215, 8160, 8184, 8178, 8111, 8153, 8156, 8109,6.994315147399902
14, 8156, 8154, 8160, 8176, 8182, 8208, 8221, 8174, 8188, 8187, 8107, 8157, 8156, 8113,7.010011672973633
15, 8146, 8152, 8132, 8167, 8184, 8199, 8216, 8171, 8203, 8203, 8115, 8141, 8172, 8115,7.010011672973633
16, 8171, 8174, 8167, 8166, 8185, 8182, 8210, 8179, 8211, 8213, 8122, 8167, 8179, 8131,7.025557041168213
17, 8187, 8182, 8158, 8178, 8181, 8179, 8212, 8188, 8225, 8223, 8129, 8170, 8189, 8123,7.025557041168213
18, 8182, 8163, 8141, 8162, 8169, 8169, 8196, 8181, 8214, 8204, 8122, 8165, 8181, 8112,7.041425943374634
19, 8179, 8159, 8159, 8143, 8169, 8165, 8190, 8183, 8203, 8191, 8120, 8167, 8170, 8109,7.041425943374634
20, 8170, 8162, 8150, 8157, 8178, 8167, 8197, 8177, 8199, 8189, 8127, 8149, 8163, 8095,7.057023525238037
21, 8154, 8162, 8174, 8174, 8178, 8179, 8196, 8163, 8175, 8174, 8122, 8153, 8142, 8087,7.057023525238037
22, 8146, 8162, 8175, 8194, 8185, 8200, 8212, 8158, 8171, 8188, 8119, 8140, 8146, 8091,7.072937726974487
23, 8168, 8173, 8181, 8201, 8197, 8199, 8220, 8170, 8181, 8203, 8115, 8154, 8164, 8124,7.072937726974487
24, 8194, 8186, 8207, 8208, 8198, 8201, 8227, 8192, 8207, 8220, 8133, 8190, 8190, 8155,7.088465929031372
25, 8184, 8167, 8176, 8201, 8189, 8201, 8231, 8191, 8228, 8243, 8150, 8174, 8207, 8149,7.088465929031372
26, 8153, 8142, 8153, 8159, 8172, 8184, 8212, 8176, 8205, 8213, 8121, 8160, 8172, 8127,7.10396933555603
27, 8135, 8146, 8128, 8148, 8172, 8175, 8212, 8171, 8195, 8181, 8104, 8141, 8153, 8096,7.10396933555603
28, 8149, 8159, 8140, 8153, 8181, 8164, 8198, 8162, 8188, 8172, 8117, 8148, 8172, 8093,7.119014024734497
29, 8175, 8176, 8178, 8157, 8177, 8155, 8164, 8154, 8170, 8173, 8137, 8187, 8189, 8110,7.119014024734497
30, 8190, 8196, 8177, 8185, 8184, 8168, 8165, 8159, 8179, 8196, 8166, 8195, 8205, 8124,7.134171485900879
31, 8194, 8206, 8219, 8202, 8197, 8183, 8183, 8177, 8199, 8222, 8176, 8217, 8216, 8146,7.134171485900879
32, 8182, 8197, 8213, 8211, 8191, 8202, 8216, 8195, 8228, 8259, 8171, 8209, 8229, 8152,7.150277376174927
33, 8160, 8170, 8165, 8195, 8179, 8212, 8241, 8203, 8240, 8266, 8152, 8174, 8210, 8140,7.150277376174927
34, 8127, 8156, 8153, 8158, 8175, 8208, 8241, 8205, 8234, 8233, 8126, 8144, 8170, 8111,7.165942907333374
35, 8110, 8150, 8118, 8147, 8177, 8195, 8223, 8189, 8234, 8212, 8124, 8109, 8165, 8076,7.165942907333374
36, 8152, 8164, 8155, 8153, 8185, 8176, 8193, 8163, 8205, 8190, 8137, 8154, 8178, 8090,7.181366920471191
37, 8204, 8199, 8215, 8182, 8204, 8178, 8200, 8158, 8193, 8192, 8165, 8201, 8209, 8127,7.181366920471191
38, 8215, 8214, 8233, 8208, 8204, 8183, 8210, 8165, 8194, 8204, 8185, 8205, 8220, 8148,7.196932077407837
39, 8211, 8216, 8259, 8235, 8197, 8186, 8200, 8170, 8187, 8206, 8188, 8227, 8212, 8156,7.196932077407837
40, 8215, 8218, 8242, 8275, 8203, 8191, 8208, 8176, 8211, 8225, 8201, 8227, 8237, 8163,7.21299147605896
41, 8208, 8204, 8234, 8258, 8190, 8186, 8210, 8183, 8221, 8235, 8206, 8239, 8247, 8181,7.21299147605896
42, 8187, 8190, 8213, 8232, 8183, 8187, 8206, 8183, 8216, 8237, 8202, 8231, 8234, 8163,7.2282726764678955
43, 8179, 8189, 8187, 8229, 8190, 8177, 8194, 8171, 8206, 8218, 8196, 8210, 8222, 8129,7.2282726764678955
44, 8187, 8199, 8222, 8215, 8186, 8164, 8181, 8165, 8182, 8190, 8194, 8230, 8213, 8129,7.244110107421875
45, 8195, 8204, 8221, 8225, 8186, 8167, 8189, 8162, 8175, 8189, 8205, 8233, 8229, 8134,7.244110107421875
46, 8209, 8212, 8239, 8238, 8187, 8159, 8180, 8160, 8160, 8168, 8210, 8263, 8232, 8142,7.259695053100586
47, 8215, 8223, 8263, 8250, 8178, 8154, 8169, 8161, 8154, 8160, 8210, 8275, 8226, 8141,7.259695053100586
48, 8206, 8216, 8248, 8260, 8175, 8166, 8185, 8160, 8164, 8184, 8198, 8254, 8219, 8146,7.27581000328064
49, 8212, 8216, 8275, 8263, 8194, 8191, 8213, 8172, 8177, 8198, 8194, 8280, 8219, 8181,7.27581000328064
50, 8227, 8224, 8265, 8283, 8208, 8215, 8228, 8183, 8201, 8219, 8207, 8276, 8236, 8191,7.291889905929565
51, 8220, 8210, 8244, 8258, 8189, 8200, 8205, 8177, 8191, 8206, 8183, 8258, 8218, 8175,7.291889905929565
52, 8201, 8190, 8229, 8222, 8172, 8179, 8204, 8181, 8189, 8195, 8165, 8253, 8210, 8165,7.307950973510742
53, 8199, 8178, 8203, 8225, 8178, 8177, 8220, 8194, 8218, 8224, 8185, 8245, 8234, 8171,7.307950973510742
54, 8201, 8180, 8222, 8222, 8180, 8173, 8205, 8194, 8215, 8230, 8191, 8265, 8237, 8177,7.323381423950195
55, 8188, 8180, 8194, 8219, 8182, 8164, 8204, 8182, 8199, 8211, 8193, 8253, 8239, 8156,7.323381423950195
56, 8184, 8167, 8172, 8201, 8178, 8155, 8198, 8168, 8178, 8183, 8183, 8244, 8230, 8145,7.338943004608154
57, 8181, 8164, 8178, 8190, 8170, 8166, 8199, 8174, 8177, 8177, 8165, 8238, 8221, 8144,7.338943004608154
58, 8177, 8166, 8150, 8194, 8173, 8167, 8206, 8181, 8190, 8183, 8167, 8213, 8224, 8130,7.354034185409546
59, 8186, 8177, 8171, 8187, 8175, 8156, 8185, 8170, 8173, 8167, 8171, 8223, 8217, 8132,7.354034185409546
60, 8201, 8194, 8185, 8211, 8177, 8165, 8182, 8151, 8166, 8168, 8172, 8213, 8211, 8133,7.36950945854187
61, 8216, 8206, 8206, 8237, 8182, 8174, 8188, 8149, 8164, 8172, 8163, 8218, 8205, 8146,7.36950945854187
62, 8227, 8218, 8235, 8252, 8188, 8188, 8193, 8170, 8176, 8185, 8171, 8245, 8214, 8168,7.3849241733551025
63, 8214, 8199, 8192, 8250, 8186, 8195, 8213, 8177, 8197, 8199, 8189, 8227, 8230, 8166,7.3849241733551025
64, 8176, 8156, 8172, 8208, 8174, 8193, 8229, 8171, 8184, 8175, 8164, 8214, 8210, 8155,7.400943040847778
65, 8147, 8137, 8143, 8187, 8167, 8198, 8242, 8174, 8181, 8173, 8136, 8187, 8193, 8135,7.400943040847778
66, 8150, 8138, 8124, 8180, 8167, 8181, 8223, 8180, 8184, 8183, 8135, 8186, 8189, 8131,7.417054653167725
67, 8164, 8145, 8149, 8176, 8173, 8170, 8201, 8188, 8189, 8178, 8147, 8210, 8202, 8130,7.417054653167725
68, 8179, 8152, 8144, 8184, 8181, 8180, 8196, 8185, 8205, 8183, 8165, 8203, 8225, 8128,7.433112382888794
69, 8209, 8172, 8178, 8175, 8175, 8179, 8183, 8178, 8193, 8171, 8170, 8230, 8221, 8143,7.433112382888794
70, 8222, 8187, 8198, 8195, 8175, 8186, 8189, 8176, 8187, 8170, 8170, 8231, 8222, 8133,7.449230432510376
71, 8207, 8183, 8200, 8219, 8191, 8208, 8197, 8176, 8188, 8175, 8167, 8210, 8221, 8124,7.449230432510376
72, 8182, 8181, 8210, 8207, 8191, 8230, 8205, 8175, 8182, 8173, 8156, 8211, 8210, 8131,7.46528434753418
73, 8156, 8167, 8160, 8199, 8178, 8238, 8216, 8158, 8182, 8180, 8142, 8180, 8211, 8115,7.46528434753418
74, 8146, 8153, 8165, 8192, 8178, 8232, 8196, 8142, 8161, 8162, 8132, 8176, 8199, 8112,7.483380556106567
75, 8148, 8166, 8176, 8200, 8183, 8231, 8188, 8143, 8152, 8155, 8143, 8178, 8200, 8116,7.483380556106567
76, 8157, 8167, 8152, 8190, 8174, 8221, 8190, 8147, 8157, 8167, 8142, 8175, 8207, 8120,7.496241331100464
77, 8168, 8159, 8167, 8177, 8169, 8218, 8186, 8160, 8165, 8177, 8132, 8197, 8207, 8126,7.496241331100464
78, 8182, 8163, 8161, 8200, 8176, 8227, 8192, 8174, 8183, 8190, 8145, 8190, 8222, 8134,7.5122504234313965
79, 8195, 8170, 8181, 8194, 8168, 8211, 8180, 8175, 8173, 8175, 8156, 8210, 8227, 8153,7.5122504234313965
80, 8197, 8175, 8183, 8183, 8167, 8205, 8175, 8174, 8177, 8171, 8165, 8224, 8237, 8150,7.528063058853149
81, 8190, 8173, 8155, 8182, 8181, 8211, 8180, 8175, 8191, 8179, 8171, 8214, 8241, 8140,7.528063058853149
82, 8184, 8180, 8179, 8180, 8180, 8201, 8173, 8177, 8182, 8169, 8167, 8226, 8226, 8139,7.5433807373046875
83, 8179, 8193, 8170, 8197, 8179, 8197, 8169, 8162, 8175, 8169, 8171, 8207, 8223, 8114,7.5433807373046875
84, 8182, 8205, 8180, 8202, 8188, 8216, 8166, 8148, 8153, 8155, 8173, 8205, 8209, 8106,7.5589072704315186
85, 8185, 8214, 8200, 8208, 8196, 8243, 8182, 8153, 8154, 8151, 8171, 8206, 8202, 8113,7.5589072704315186
86, 8176, 8201, 8186, 8211, 8191, 8238, 8190, 8154, 8173, 8165, 8158, 8179, 8197, 8108,7.5741894245147705
87, 8162, 8187, 8196, 8196, 8180, 8227, 8178, 8154, 8162, 8163, 8133, 8178, 8173, 8097,7.5741894245147705
88, 8144, 8177, 8164, 8192, 8182, 8241, 8186, 8157, 8158, 8163, 8131, 8156, 8167, 8081,7.590030670166016
89, 8138, 8165, 8156, 8184, 8182, 8241, 8183, 8163, 8159, 8162, 8134, 8153, 8164, 8089,7.590030670166016
90, 8140, 8164, 8164, 8178, 8175, 8226, 8172, 8164, 8162, 8168, 8143, 8171, 8174, 8098,7.605370759963989
91, 8143, 8163, 8136, 8168, 8167, 8200, 8153, 8150, 8147, 8154, 8155, 8171, 8192, 8088,7.605370759963989
92, 8161, 8184, 8169, 8163, 8163, 8191, 8128, 8136, 8117, 8114, 8158, 8197, 8186, 8090,7.621260404586792
93, 8179, 8214, 8191, 8197, 8176, 8220, 8149, 8137, 8131, 8137, 8174, 8200, 8188, 8096,7.621260404586792
94, 8177, 8202, 8193, 8208, 8175, 8213, 8160, 8143, 8139, 8161, 8163, 8201, 8182, 8107,7.6363019943237305
95, 8168, 8179, 8191, 8193, 8157, 8185, 8144, 8153, 8127, 8134, 8142, 8206, 8175, 8107,7.6363019943237305
96, 8177, 8175, 8166, 8164, 8158, 8176, 8142, 8161, 8140, 8120, 8161, 8206, 8191, 8103,7.65181827545166
97, 8178, 8189, 8189, 8140, 8165, 8182, 8138, 8156, 8133, 8119, 8170, 8228, 8187, 8101,7.667315244674683
98, 8153, 8204, 8188, 8193, 8176, 8204, 8147, 8145, 8131, 8138, 8153, 8198, 8172, 8086,7.667315244674683
99, 8155, 8198, 8184, 8230, 8189, 8216, 8157, 8147, 8151, 8162, 8150, 8194, 8174, 8101,7.683359622955322
100, 8181, 8196, 8202, 8216, 8193, 8215, 8161, 8162, 8173, 8175, 8172, 8237, 8205, 8122,7.683359622955322
101, 8188, 8212, 8190, 8228, 8192, 8211, 8153, 8161, 8169, 8162, 8179, 8228, 8219, 8108,7.683359622955322
102, 8180, 8225, 8215, 8241, 8185, 8204, 8137, 8146, 8130, 8121, 8152, 8220, 8176, 8089,7.698923349380493
103, 8169, 8211, 8201, 8246, 8185, 8203, 8149, 8138, 8124, 8118, 8131, 8193, 8148, 8059,7.714205265045166
104, 8158, 8198, 8178, 8253, 8191, 8206, 8156, 8139, 8125, 8119, 8101, 8173, 8136, 8047,7.714205265045166
105, 8141, 8207, 8193, 8263, 8192, 8222, 8163, 8146, 8120, 8113, 8068, 8169, 8119, 8052,7.73016881942749
106, 8123, 8204, 8166, 8279, 8192, 8227, 8178, 8147, 8144, 8138, 8068, 8141, 8118, 8041,7.73016881942749
107, 8120, 8197, 8171, 8282, 8193, 8211, 8162, 8163, 8156, 8145, 8064, 8155, 8118, 8048,7.74590277671814
108, 8123, 8194, 8163, 8280, 8199, 8203, 8147, 8176, 8166, 8137, 8046, 8152, 8125, 8051,7.74590277671814
109, 8127, 8194, 8149, 8273, 8202, 8191, 8133, 8161, 8158, 8127, 8034, 8141, 8116, 8041,7.761466026306152
110, 8128, 8205, 8175, 8275, 8193, 8187, 8122, 8154, 8139, 8112, 8027, 8154, 8098, 8036,7.761466026306152
111, 8126, 8209, 8160, 8294, 8191, 8190, 8122, 8148, 8129, 8096, 8023, 8132, 8095, 8022,7.776893615722656
112, 8125, 8211, 8174, 8298, 8191, 8176, 8106, 8126, 8094, 8059, 7997, 8129, 8066, 8004,7.776893615722656
113, 8105, 8217, 8174, 8314, 8192, 8176, 8102, 8115, 8076, 8054, 7974, 8111, 8042, 7976,7.792985677719116
114, 8081, 8209, 8144, 8317, 8189, 8181, 8107, 8118, 8084, 8061, 7962, 8081, 8034, 7963,7.792985677719116
115, 8081, 8205, 8153, 8307, 8192, 8188, 8117, 8125, 8094, 8067, 7950, 8079, 8029, 7977,7.808241605758667
116, 8083, 8204, 8133, 8327, 8208, 8195, 8137, 8135, 8106, 8087, 7939, 8054, 8032, 7981,7.808241605758667
117, 8076, 8194, 8141, 8321, 8204, 8188, 8129, 8142, 8096, 8072, 7911, 8052, 8018, 7982,7.823273658752441
118, 8076, 8188, 8145, 8307, 8194, 8190, 8131, 8149, 8104, 8078, 7905, 8051, 8026, 7982,7.823273658752441
119, 8083, 8177, 8118, 8301, 8197, 8193, 8139, 8145, 8123, 8110, 7926, 8046, 8046, 7988,7.839111566543579
120, 8086, 8174, 8134, 8282, 8199, 8190, 8133, 8155, 8127, 8116, 7934, 8071, 8046, 7998,7.839111566543579
121, 8089, 8185, 8118, 8289, 8199, 8184, 8136, 8168, 8145, 8117, 7940, 8061, 8056, 7996,7.854353904724121
122, 8096, 8186, 8122, 8287, 8196, 8169, 8124, 8157, 8126, 8099, 7943, 8062, 8059, 7994,7.854353904724121
123, 8088, 8191, 8126, 8280, 8195, 8175, 8111, 8139, 8095, 8080, 7943, 8064, 8054, 7976,7.8698508739471436
124, 8078, 8198, 8106, 8288, 8196, 8181, 8109, 8135, 8085, 8066, 7928, 8038, 8037, 7952,7.8698508739471436
125, 8074, 8196, 8137, 8291, 8199, 8188, 8115, 8147, 8087, 8066, 7909, 8034, 8016, 7955,7.885831594467163
126, 8059, 8184, 8124, 8300, 8209, 8215, 8148, 8163, 8121, 8098, 7913, 8014, 8016, 7957,7.885831594467163
127, 8054, 8178, 8116, 8292, 8212, 8228, 8166, 8169, 8134, 8104, 7912, 8017, 8014, 7969,7.9019153118133545
237, 8059, 8186, 8121, 8289, 8203, 8229, 8171, 8157, 8135, 8101, 7909, 8026, 8021, 7974,7.9019153118133545
0, 8052, 8177, 8088, 8282, 8201, 8226, 8173, 8151, 8150, 8117, 7905, 8013, 8028, 7967,7.917106628417969
1, 8059, 8173, 8106, 8259, 8207, 8218, 8164, 8173, 8151, 8123, 7909, 8035, 8027, 7985,7.917106628417969
2, 8087, 8175, 8101, 8260, 8202, 8210, 8163, 8173, 8152, 8131, 7940, 8038, 8054, 7997,7.933138608932495
3, 8098, 8161, 8095, 8242, 8179, 8190, 8139, 8145, 8129, 8107, 7947, 8048, 8058, 7998,7.933138608932495
4, 8095, 8170, 8119, 8241, 8184, 8192, 8134, 8144, 8115, 8079, 7950, 8065, 8050, 7994,7.948880910873413
5, 8107, 8197, 8122, 8282, 8210, 8210, 8158, 8153, 8129, 8094, 7974, 8055, 8062, 7994,7.948880910873413
6, 8115, 8201, 8146, 8282, 8202, 8212, 8158, 8151, 8120, 8094, 7974, 8067, 8055, 8005,7.964110374450684
7, 8092, 8185, 8129, 8270, 8190, 8210, 8168, 8151, 8117, 8093, 7960, 8045, 8050, 7992,7.964110374450684
8, 8075, 8173, 8120, 8269, 8189, 8205, 8174, 8153, 8121, 8099, 7943, 8025, 8042, 7983,7.9798808097839355
9, 8068, 8168, 8135, 8271, 8185, 8201, 8169, 8151, 8123, 8102, 7940, 8028, 8029, 7981,7.9798808097839355
10, 8059, 8160, 8105, 8274, 8186, 8200, 8170, 8154, 8134, 8106, 7937, 8011, 8025, 7976,7.99541974067688
11, 8055, 8153, 8102, 8236, 8184, 8196, 8165, 8169, 8131, 8084, 7891, 8014, 8002, 7985,7.99541974067688
12, 8057, 8143, 8080, 8204, 8180, 8189, 8168, 8176, 8138, 8078, 7890, 8011, 8010, 7985,8.011399745941162
13, 8080, 8144, 8091, 8208, 8175, 8168, 8155, 8168, 8146, 8094, 7980, 8051, 8058, 7999,8.011399745941162
14, 8107, 8159, 8147, 8224, 8165, 8154, 8137, 8164, 8148, 8108, 8060, 8116, 8098, 8022,8.032883882522583
15, 8121, 8164, 8148, 8226, 8161, 8154, 8137, 8152, 8147, 8112, 8096, 8133, 8128, 8028,8.032883882522583
16, 8135, 8176, 8192, 8212, 8158, 8151, 8127, 8141, 8117, 8090, 8135, 8181, 8146, 8053,8.032883882522583
17, 8151, 8189, 8227, 8230, 8150, 8152, 8132, 8143, 8114, 8100, 8190, 8214, 8170, 8074,8.04192328453064
18, 8161, 8177, 8229, 8232, 8144, 8160, 8141, 8149, 8131, 8132, 8223, 8226, 8184, 8090,8.057024955749512
19, 8170, 8175, 8259, 8213, 8145, 8165, 8143, 8168, 8150, 8162, 8248, 8259, 8203, 8109,8.057024955749512
20, 8181, 8178, 8249, 8218, 8154, 8152, 8157, 8185, 8178, 8187, 8288, 8268, 8241, 8124,8.0732421875
21, 8185, 8160, 8250, 8196, 8144, 8124, 8148, 8182, 8175, 8171, 8300, 8297, 8246, 8141,8.0732421875
22, 8185, 8153, 8247, 8179, 8121, 8119, 8135, 8182, 8169, 8163, 8305, 8307, 8255, 8142,8.088866949081421
23, 8194, 8154, 8240, 8174, 8119, 8112, 8125, 8182, 8163, 8163, 8318, 8303, 8272, 8146,8.088866949081421
24, 8198, 8154, 8262, 8161, 8126, 8106, 8123, 8180, 8155, 8144, 8324, 8324, 8271, 8150,8.103946685791016
25, 8190, 8150, 8227, 8148, 8118, 8120, 8133, 8181, 8175, 8142, 8332, 8307, 8279, 8133,8.103946685791016
26, 8186, 8152, 8225, 8122, 8116, 8136, 8126, 8180, 8161, 8143, 8332, 8300, 8273, 8133,8.11935544013977
27, 8187, 8168, 8240, 8142, 8143, 8157, 8148, 8178, 8150, 8162, 8328, 8291, 8268, 8136,8.11935544013977
28, 8189, 8172, 8229, 8172, 8158, 8167, 8181, 8177, 8176, 8185, 8322, 8275, 8268, 8140,8.135095834732056
29, 8188, 8164, 8240, 8150, 8153, 8174, 8192, 8187, 8197, 8195, 8318, 8292, 8264, 8159,8.135095834732056
30, 8173, 8151, 8196, 8119, 8155, 8180, 8190, 8195, 8212, 8211, 8311, 8271, 8272, 8154,8.151128768920898
31, 8169, 8149, 8179, 8101, 8152, 8171, 8170, 8185, 8199, 8194, 8289, 8264, 8265, 8139,8.151128768920898
32, 8186, 8174, 8201, 8118, 8163, 8187, 8171, 8176, 8189, 8177, 8305, 8276, 8268, 8129,8.166866302490234
33, 8185, 8176, 8187, 8127, 8168, 8195, 8178, 8168, 8180, 8172, 8315, 8258, 8263, 8119,8.166866302490234
34, 8170, 8160, 8201, 8112, 8149, 8177, 8178, 8167, 8166, 8163, 8278, 8249, 8234, 8119,8.182900190353394
35, 8166, 8161, 8192, 8122, 8153, 8181, 8194, 8170, 8191, 8189, 8261, 8233, 8232, 8123,8.182900190353394
36, 8170, 8161, 8183, 8104, 8163, 8183, 8184, 8170, 8195, 8192, 8260, 8247, 8232, 8136,8.198684930801392
37, 8163, 8153, 8175, 8075, 8161, 8170, 8170, 8166, 8182, 8174, 8261, 8261, 8240, 8128,8.198684930801392
38, 8158, 8149, 8161, 8086, 8166, 8165, 8179, 8164, 8176, 8172, 8271, 8246, 8245, 8109,8.21390676498413
39, 8154, 8158, 8198, 8096, 8161, 8174, 8178, 8168, 8158, 8166, 8263, 8242, 8219, 8109,8.21390676498413
40, 8142, 8164, 8184, 8106, 8160, 8192, 8185, 8164, 8161, 8175, 8250, 8209, 8217, 8107,8.22880506515503
41, 8149, 8163, 8176, 8107, 8173, 8196, 8188, 8156, 8163, 8173, 8250, 8218, 8224, 8118,8.22880506515503
42, 8157, 8163, 8188, 8101, 8166, 8189, 8184, 8168, 8170, 8166, 8254, 8239, 8221, 8128,8.244215726852417
43, 8154, 8155, 8155, 8090, 8149, 8176, 8178, 8178, 8184, 8170, 8250, 8216, 8229, 8123,8.244215726852417
44, 8167, 8163, 8178, 8078, 8148, 8163, 8168, 8180, 8177, 8161, 8254, 8244, 8242, 8127,8.260345697402954
45, 8177, 8175, 8189, 8092, 8151, 8163, 8173, 8178, 8184, 8167, 8282, 8255, 8251, 8117,8.260345697402954
46, 8175, 8176, 8187, 8099, 8144, 8165, 8169, 8165, 8174, 8172, 8285, 8242, 8236, 8116,8.275928020477295
47, 8169, 8183, 8205, 8111, 8152, 8179, 8168, 8159, 8158, 8177, 8262, 8240, 8232, 8122,8.275928020477295
48, 8159, 8166, 8176, 8121, 8164, 8187, 8177, 8163, 8177, 8193, 8261, 8216, 8245, 8121,8.291031122207642
49, 8157, 8142, 8176, 8092, 8152, 8173, 8171, 8175, 8202, 8196, 8265, 8225, 8235, 8141,8.291031122207642
50, 8166, 8142, 8163, 8085, 8145, 8168, 8170, 8187, 8222, 8207, 8266, 8228, 8244, 8142,8.30676531791687
51, 8175, 8149, 8164, 8097, 8148, 8158, 8152, 8173, 8205, 8187, 8267, 8232, 8255, 8136,8.30676531791687
52, 8183, 8167, 8204, 8111, 8151, 8156, 8138, 8158, 8183, 8159, 8280, 8253, 8252, 8141,8.321842670440674
53, 8187, 8177, 8191, 8127, 8160, 8174, 8152, 8155, 8194, 8184, 8291, 8240, 8249, 8129,8.337470293045044
54, 8180, 8166, 8198, 8117, 8152, 8182, 8148, 8153, 8182, 8199, 8270, 8237, 8229, 8122,8.337470293045044
55, 8168, 8156, 8192, 8127, 8145, 8186, 8155, 8156, 8181, 8206, 8262, 8220, 8230, 8126,8.337470293045044
56, 8169, 8151, 8180, 8130, 8154, 8176, 8163, 8166, 8199, 8215, 8264, 8217, 8235, 8140,8.352950811386108
57, 8178, 8153, 8194, 8110, 8159, 8165, 8156, 8178, 8208, 8211, 8259, 8242, 8231, 8149,8.352950811386108
58, 8183, 8161, 8170, 8115, 8160, 8159, 8157, 8176, 8209, 8208, 8263, 8227, 8242, 8136,8.368287086486816
59, 8190, 8173, 8190, 8115, 8162, 8152, 8152, 8170, 8184, 8183, 8258, 8235, 8237, 8132,8.383885860443115
60, 8188, 8179, 8202, 8119, 8168, 8167, 8159, 8161, 8174, 8175, 8261, 8232, 8232, 8124,8.383885860443115
61, 8176, 8173, 8191, 8123, 8167, 8172, 8162, 8148, 8177, 8179, 8265, 8219, 8226, 8118,8.399830341339111
62, 8164, 8178, 8219, 8124, 8165, 8168, 8163, 8157, 8181, 8181, 8256, 8239, 8216, 8124,8.399830341339111
63, 8153, 8174, 8197, 8135, 8163, 8175, 8181, 8166, 8199, 8206, 8246, 8218, 8216, 8121,8.41496729850769
64, 8150, 8152, 8184, 8119, 8151, 8175, 8182, 8166, 8199, 8216, 8225, 8210, 8202, 8125,8.41496729850769
65, 8146, 8147, 8175, 8106, 8153, 8175, 8179, 8178, 8209, 8219, 8223, 8211, 8204, 8120,8.430488348007202
66, 8140, 8150, 8153, 8102, 8159, 8165, 8170, 8180, 8206, 8203, 8225, 8202, 8210, 8109,8.430488348007202
67, 8143, 8151, 8167, 8090, 8151, 8152, 8156, 8166, 8176, 8168, 8215, 8216, 8197, 8105,8.445991039276123
68, 8148, 8154, 8146, 8101, 8151, 8154, 8163, 8155, 8177, 8169, 8221, 8205, 8197, 8095,8.445991039276123
69, 8140, 8160, 8157, 8105, 8151, 8157, 8162, 8155, 8166, 8161, 8215, 8210, 8177, 8091,8.461877346038818
70, 8124, 8155, 8169, 8110, 8146, 8161, 8163, 8151, 8152, 8154, 8198, 8197, 8152, 8078,8.461877346038818
71, 8122, 8142, 8145, 8119, 8150, 8163, 8170, 8141, 8165, 8168, 8195, 8177, 8153, 8079,8.477545976638794
72, 8127, 8151, 8171, 8114, 8155, 8166, 8176, 8153, 8178, 8177, 8199, 8215, 8162, 8104,8.477545976638794
73, 8126, 8152, 8150, 8117, 8152, 8165, 8184, 8169, 8193, 8193, 8205, 8240, 8180, 8103,8.493067264556885
74, 8125, 8127, 8127, 8093, 8143, 8144, 8155, 8167, 8185, 8180, 8185, 8269, 8171, 8094,8.493067264556885
75, 8122, 8136, 8137, 8086, 8143, 8133, 8136, 8166, 8178, 8168, 8182, 8293, 8171, 8085,8.508249521255493
76, 8129, 8165, 8135, 8114, 8154, 8142, 8148, 8164, 8182, 8181, 8226, 8307, 8195, 8080,8.508249521255493
77, 8141, 8162, 8164, 8104, 8156, 8155, 8152, 8155, 8166, 8174, 8241, 8346, 8195, 8093,8.52411437034607
78, 8126, 8146, 8156, 8102, 8156, 8167, 8170, 8148, 8166, 8174, 8215, 8323, 8177, 8084,8.52411437034607
79, 8112, 8148, 8159, 8114, 8159, 8170, 8181, 8154, 8164, 8182, 8196, 8315, 8156, 8085,8.539061546325684
80, 8121, 8154, 8169, 8111, 8159, 8183, 8183, 8169, 8170, 8189, 8204, 8353, 8161, 8104,8.539061546325684
81, 8120, 8138, 8132, 8092, 8154, 8180, 8182, 8177, 8190, 8185, 8206, 8348, 8175, 8101,8.55425477027893
82, 8114, 8133, 8141, 8076, 8147, 8157, 8161, 8172, 8180, 8164, 8193, 8352, 8165, 8090,8.55425477027893
83, 8120, 8149, 8138, 8099, 8150, 8153, 8159, 8156, 8176, 8165, 8209, 8358, 8179, 8077,8.57018756866455
84, 8125, 8157, 8145, 8104, 8152, 8147, 8159, 8148, 8170, 8161, 8221, 8370, 8189, 8078,8.57018756866455
85, 8120, 8159, 8177, 8102, 8151, 8145, 8158, 8156, 8170, 8160, 8209, 8377, 8175, 8080,8.585705757141113
86, 8109, 8148, 8152, 8116, 8155, 8153, 8164, 8148, 8178, 8172, 8194, 8349, 8163, 8067,8.585705757141113
87, 8095, 8133, 8146, 8100, 8149, 8144, 8153, 8140, 8169, 8165, 8172, 8347, 8141, 8062,8.60153865814209
88, 8086, 8128, 8125, 8084, 8138, 8129, 8151, 8160, 8184, 8178, 8174, 8342, 8147, 8054,8.60153865814209
89, 8104, 8135, 8124, 8079, 8139, 8121, 8146, 8165, 8186, 8175, 8188, 8349, 8163, 8060,8.616859436035156
90, 8103, 8141, 8159, 8086, 8147, 8132, 8146, 8145, 8158, 8151, 8180, 8352, 8145, 8058,8.616859436035156
91, 8069, 8117, 8131, 8092, 8146, 8140, 8155, 8141, 8162, 8162, 8165, 8320, 8130, 8044,8.632251262664795
92, 8060, 8101, 8129, 8069, 8132, 8129, 8150, 8154, 8170, 8168, 8152, 8331, 8130, 8055,8.632251262664795
93, 8075, 8115, 8127, 8076, 8132, 8132, 8154, 8154, 8180, 8167, 8154, 8331, 8148, 8057,8.648274660110474
94, 8085, 8120, 8116, 8085, 8143, 8131, 8147, 8150, 8181, 8158, 8160, 8332, 8159, 8059,8.648274660110474
95, 8089, 8126, 8142, 8070, 8136, 8126, 8135, 8153, 8168, 8150, 8173, 8357, 8161, 8062,8.663371562957764
96, 8088, 8133, 8127, 8071, 8126, 8124, 8130, 8135, 8159, 8154, 8178, 8327, 8156, 8037,8.663371562957764
97, 8078, 8131, 8138, 8074, 8133, 8121, 8118, 8125, 8142, 8140, 8156, 8317, 8129, 8029,8.679260015487671
98, 8068, 8135, 8141, 8087, 8143, 8140, 8146, 8145, 8156, 8154, 8156, 8322, 8134, 8039,8.679260015487671
99, 8071, 8130, 8118, 8085, 8137, 8144, 8162, 8149, 8174, 8180, 8155, 8311, 8138, 8048,8.694130182266235
100, 8085, 8122, 8134, 8071, 8133, 8130, 8134, 8147, 8168, 8174, 8140, 8321, 8127, 8058,8.694130182266235
101, 8097, 8126, 8122, 8078, 8144, 8121, 8130, 8155, 8177, 8173, 8157, 8323, 8151, 8055,8.7096266746521
102, 8098, 8131, 8137, 8072, 8141, 8116, 8131, 8146, 8154, 8152, 8171, 8335, 8151, 8044,8.7096266746521
103, 8086, 8128, 8143, 8084, 8135, 8130, 8134, 8129, 8126, 8135, 8156, 8312, 8124, 8023,8.72515606880188
104, 8071, 8111, 8117, 8090, 8131, 8137, 8142, 8130, 8126, 8140, 8137, 8281, 8116, 8026,8.72515606880188
105, 8075, 8108, 8130, 8062, 8127, 8120, 8134, 8151, 8138, 8148, 8149, 8314, 8137, 8055,8.741251707077026
106, 8099, 8128, 8125, 8076, 8142, 8113, 8132, 8153, 8144, 8155, 8179, 8324, 8167, 8053,8.741251707077026
107, 8116, 8149, 8155, 8108, 8151, 8121, 8133, 8136, 8124, 8138, 8175, 8330, 8150, 8047,8.756840229034424
108, 8100, 8149, 8162, 8114, 8138, 8137, 8144, 8142, 8135, 8151, 8156, 8318, 8132, 8054,8.756840229034424
109, 8092, 8129, 8122, 8091, 8134, 8134, 8147, 8159, 8155, 8176, 8152, 8298, 8148, 8061,8.772107601165771
110, 8121, 8141, 8154, 8079, 8141, 8114, 8128, 8154, 8135, 8148, 8164, 8336, 8162, 8060,8.772107601165771
111, 8130, 8166, 8165, 8115, 8148, 8112, 8125, 8135, 8125, 8126, 8179, 8332, 8161, 8040,8.787244319915771
112, 8114, 8152, 8168, 8125, 8144, 8126, 8131, 8137, 8124, 8131, 8157, 8314, 8138, 8045,8.787244319915771
113, 8109, 8131, 8171, 8099, 8133, 8139, 8149, 8161, 8143, 8158, 8142, 8321, 8142, 8062,8.803147554397583
114, 8111, 8122, 8135, 8077, 8123, 8128, 8148, 8164, 8161, 8160, 8152, 8314, 8163, 8060,8.803147554397583
115, 8114, 8124, 8146, 8063, 8117, 8113, 8122, 8153, 8146, 8123, 8150, 8327, 8153, 8059,8.818652868270874
116, 8116, 8129, 8147, 8081, 8123, 8119, 8121, 8150, 8148, 8128, 8164, 8321, 8161, 8053,8.818652868270874
117, 8117, 8129, 8153, 8085, 8129, 8109, 8114, 8147, 8146, 8137, 8178, 8323, 8164, 8055,8.834487438201904
118, 8114, 8133, 8167, 8085, 8131, 8102, 8101, 8134, 8125, 8124, 8170, 8326, 8147, 8053,8.834487438201904
119, 8120, 8138, 8158, 8104, 8138, 8114, 8110, 8127, 8120, 8132, 8176, 8313, 8143, 8051,8.849265336990356
120, 8127, 8152, 8192, 8117, 8140, 8128, 8119, 8136, 8121, 8135, 8181, 8322, 8136, 8061,8.864901065826416
121, 8112, 8151, 8167, 8121, 8136, 8135, 8131, 8141, 8144, 8141, 8165, 8286, 8129, 8053,8.864901065826416
122, 8102, 8119, 8133, 8072, 8124, 8127, 8130, 8152, 8163, 8151, 8145, 8275, 8124, 8062,8.880408763885498
123, 8117, 8124, 8158, 8058, 8127, 8136, 8133, 8173, 8175, 8163, 8156, 8311, 8138, 8083,8.880408763885498
124, 8124, 8145, 8149, 8113, 8143, 8143, 8132, 8166, 8181, 8165, 8166, 8299, 8148, 8075,8.896153926849365
125, 8109, 8134, 8149, 8112, 8139, 8122, 8108, 8145, 8151, 8136, 8142, 8297, 8122, 8054,8.896153926849365
126, 8095, 8120, 8135, 8094, 8136, 8111, 8106, 8140, 8140, 8120, 8146, 8289, 8122, 8031,8.911946058273315
127, 8107, 8138, 8142, 8103, 8144, 8109, 8104, 8138, 8133, 8111, 8164, 8294, 8135, 8028,8.911946058273315
237, 8120, 8164, 8182, 8117, 8145, 8125, 8105, 8134, 8127, 8121, 8165, 8311, 8134, 8034,8.927390813827515
0, 8117, 8170, 8172, 8136, 8154, 8154, 8128, 8132, 8144, 8150, 8166, 8288, 8129, 8028,8.927390813827515
1, 8117, 8166, 8192, 8145, 8166, 8158, 8135, 8131, 8141, 8147, 8162, 8287, 8113, 8038,8.943400382995605
2, 8116, 8156, 8179, 8155, 8167, 8149, 8139, 8137, 8141, 8149, 8149, 8274, 8116, 8042,8.943400382995605
3, 8110, 8148, 8149, 8146, 8159, 8142, 8137, 8143, 8146, 8152, 8131, 8263, 8120, 8044,8.959104061126709
4, 8115, 8144, 8164, 8126, 8153, 8140, 8136, 8151, 8145, 8149, 8131, 8282, 8117, 8054,8.959104061126709
5, 8120, 8134, 8143, 8133, 8152, 8133, 8148, 8154, 8162, 8158, 8146, 8272, 8137, 8056,8.974253177642822
6, 8118, 8138, 8150, 8131, 8141, 8122, 8131, 8156, 8154, 8142, 8131, 8280, 8135, 8062,8.974253177642822
