COUNTER,F3,FC5,AF3,F7,T7,P7,O1,O2,P8,T8,F8,AF4,FC6,F4,Timestamp
1, 8150, 8139, 8144, 8154, 8159, 8176, 8169, 8166, 8180, 8199, 8150, 8168, 8168, 8113,0.026729106903076172
2, 8152, 8140, 8132, 8147, 8158, 8172, 8156, 8159, 8175, 8180, 8126, 8159, 8151, 8106,0.026729106903076172
3, 8160, 8138, 8129, 8153, 8164, 8174, 8166, 8155, 8173, 8170, 8135, 8162, 8161, 8104,0.042101383209228516
4, 8165, 8137, 8152, 8147, 8167, 8172, 8177, 8181, 8186, 8185, 8161, 8193, 8192, 8120,0.042101383209228516
5, 8156, 8143, 8131, 8140, 8161, 8157, 8173, 8198, 8203, 8192, 8159, 8176, 8203, 8105,0.057791948318481445
6, 8156, 8158, 8136, 8134, 8157, 8144, 8162, 8181, 8184, 8163, 8150, 8174, 8182, 8088,0.057791948318481445
7, 8166, 8166, 8156, 8143, 8163, 8151, 8165, 8172, 8166, 8163, 8160, 8186, 8171, 8093,0.07335448265075684
8, 8168, 8164, 8154, 8156, 8162, 8150, 8165, 8160, 8163, 8173, 8164, 8174, 8170, 8094,0.07335448265075684
9, 8159, 8165, 8166, 8151, 8154, 8143, 8154, 8146, 8141, 8141, 8156, 8169, 8165, 8087,0.0884857177734375
10, 8152, 8163, 8161, 8160, 8161, 8156, 8156, 8143, 8136, 8141, 8166, 8165, 8178, 8081,0.0884857177734375
11, 8157, 8153, 8169, 8166, 8165, 8171, 8162, 8147, 8147, 8165, 8166, 8167, 8169, 8087,0.10364198684692383
12, 8152, 8142, 8163, 8164, 8160, 8175, 8175, 8163, 8154, 8170, 8147, 8150, 8144, 8089,0.10364198684692383
13, 8142, 8130, 8139, 8162, 8159, 8171, 8190, 8165, 8163, 8169, 8141, 8142, 8146, 8090,0.11971521377563477
14, 8149, 8136, 8150, 8151, 8154, 8166, 8184, 8166, 8180, 8181, 8145, 8171, 8164, 8106,0.11971521377563477
15, 8151, 8145, 8132, 8145, 8147, 8160, 8174, 8180, 8204, 8207, 8153, 8167, 8189, 8112,0.13572144508361816
16, 8153, 8132, 8122, 8127, 8151, 8141, 8154, 8175, 8190, 8195, 8159, 8171, 8199, 8108,0.13572144508361816
17, 8168, 8144, 8151, 8133, 8158, 8136, 8145, 8169, 8164, 8161, 8173, 8195, 8202, 8108,0.15172600746154785
18, 8171, 8173, 8167, 8167, 8163, 8149, 8159, 8161, 8158, 8158, 8181, 8185, 8193, 8103,0.15172600746154785
19, 8153, 8156, 8167, 8163, 8154, 8150, 8165, 8157, 8161, 8174, 8155, 8159, 8168, 8100,0.16695785522460938
20, 8151, 8129, 8149, 8152, 8148, 8143, 8178, 8177, 8191, 8200, 8153, 8156, 8181, 8108,0.16695785522460938
21, 8172, 8138, 8166, 8152, 8151, 8130, 8171, 8180, 8201, 8195, 8175, 8196, 8205, 8119,0.18296265602111816
22, 8174, 8151, 8173, 8147, 8145, 8116, 8143, 8158, 8160, 8149, 8165, 8202, 8186, 8095,0.18296265602111816
23, 8163, 8147, 8148, 8149, 8147, 8118, 8137, 8135, 8128, 8124, 8147, 8166, 8155, 8060,0.19869422912597656
24, 8146, 8158, 8167, 8157, 8155, 8131, 8137, 8125, 8117, 8122, 8136, 8160, 8130, 8059,0.19869422912597656
25, 8127, 8166, 8159, 8163, 8154, 8137, 8136, 8124, 8118, 8128, 8121, 8141, 8118, 8054,0.2137894630432129
26, 8126, 8151, 8147, 8158, 8151, 8131, 8144, 8131, 8125, 8132, 8110, 8131, 8123, 8050,0.2137894630432129
27, 8131, 8144, 8161, 8153, 8152, 8138, 8164, 8156, 8141, 8146, 8108, 8142, 8134, 8071,0.2291121482849121
28, 8125, 8146, 8142, 8160, 8150, 8152, 8178, 8160, 8160, 8168, 8109, 8133, 8142, 8080,0.2291121482849121
29, 8125, 8142, 8138, 8152, 8155, 8150, 8176, 8152, 8165, 8173, 8103, 8135, 8136, 8075,0.245192289352417
30, 8136, 8142, 8130, 8148, 8166, 8141, 8190, 8169, 8185, 8178, 8103, 8139, 8142, 8075,0.245192289352417
31, 8143, 8139, 8124, 8142, 8157, 8135, 8183, 8177, 8192, 8171, 8111, 8152, 8157, 8083,0.2613086700439453
32, 8150, 8145, 8139, 8136, 8152, 8139, 8154, 8169, 8169, 8146, 8123, 8164, 8156, 8076,0.2613086700439453
33, 8152, 8157, 8138, 8151, 8164, 8145, 8151, 8157, 8153, 8140, 8120, 8141, 8141, 8053,0.2768290042877197
34, 8137, 8153, 8150, 8154, 8164, 8153, 8155, 8144, 8131, 8123, 8088, 8132, 8104, 8042,0.2768290042877197
35, 8126, 8150, 8143, 8165, 8160, 8170, 8156, 8134, 8121, 8118, 8080, 8122, 8091, 8045,0.29201507568359375
36, 8137, 8157, 8138, 8182, 8157, 8174, 8157, 8130, 8133, 8148, 8095, 8123, 8105, 8062,0.29201507568359375
37, 8141, 8155, 8152, 8170, 8159, 8172, 8171, 8151, 8151, 8167, 8089, 8136, 8113, 8080,0.30814313888549805
38, 8125, 8139, 8125, 8157, 8164, 8185, 8195, 8167, 8169, 8165, 8088, 8120, 8121, 8074,0.30814313888549805
39, 8120, 8138, 8120, 8154, 8163, 8187, 8192, 8168, 8175, 8162, 8101, 8123, 8128, 8077,0.3236877918243408
40, 8127, 8138, 8120, 8146, 8156, 8173, 8181, 8175, 8184, 8172, 8112, 8131, 8141, 8089,0.3236877918243408
41, 8131, 8124, 8109, 8123, 8153, 8151, 8170, 8170, 8184, 8162, 8116, 8135, 8152, 8087,0.3397867679595947
42, 8133, 8131, 8124, 8110, 8150, 8143, 8159, 8169, 8171, 8152, 8123, 8156, 8156, 8086,0.3397867679595947
43, 8136, 8151, 8125, 8127, 8153, 8147, 8163, 8174, 8182, 8173, 8139, 8159, 8174, 8088,0.3558683395385742
44, 8141, 8152, 8138, 8127, 8159, 8141, 8154, 8162, 8183, 8164, 8144, 8165, 8175, 8085,0.3558683395385742
45, 8140, 8156, 8139, 8123, 8154, 8133, 8134, 8145, 8158, 8135, 8143, 8157, 8154, 8071,0.3710789680480957
46, 8141, 8169, 8139, 8141, 8149, 8130, 8136, 8134, 8137, 8128, 8147, 8150, 8145, 8068,0.3710789680480957
47, 8152, 8178, 8173, 8158, 8154, 8137, 8154, 8142, 8135, 8132, 8144, 8162, 8151, 8085,0.3871176242828369
48, 8150, 8181, 8171, 8176, 8159, 8152, 8166, 8147, 8149, 8148, 8146, 8153, 8155, 8084,0.3871176242828369
49, 8139, 8177, 8166, 8177, 8158, 8155, 8161, 8142, 8147, 8159, 8140, 8148, 8137, 8076,0.4027254581451416
50, 8121, 8150, 8146, 8155, 8154, 8153, 8169, 8156, 8145, 8163, 8121, 8133, 8127, 8077,0.4027254581451416
51, 8104, 8120, 8110, 8132, 8148, 8146, 8181, 8165, 8160, 8157, 8110, 8113, 8132, 8074,0.4180300235748291
52, 8109, 8123, 8121, 8124, 8139, 8135, 8179, 8168, 8167, 8140, 8111, 8128, 8133, 8080,0.4180300235748291
53, 8128, 8135, 8127, 8136, 8145, 8132, 8183, 8189, 8183, 8150, 8128, 8138, 8151, 8093,0.43363022804260254
54, 8138, 8134, 8131, 8124, 8147, 8118, 8167, 8183, 8182, 8149, 8140, 8149, 8161, 8101,0.43363022804260254
55, 8138, 8135, 8134, 8107, 8138, 8104, 8141, 8165, 8162, 8142, 8141, 8155, 8159, 8095,0.44875407218933105
56, 8155, 8143, 8129, 8121, 8146, 8110, 8143, 8172, 8173, 8164, 8160, 8160, 8175, 8099,0.44875407218933105
57, 8169, 8159, 8156, 8134, 8162, 8120, 8151, 8181, 8179, 8160, 8175, 8181, 8176, 8106,0.4641573429107666
58, 8157, 8171, 8158, 8148, 8166, 8130, 8160, 8169, 8166, 8129, 8165, 8167, 8159, 8086,0.4641573429107666
59, 8151, 8167, 8157, 8149, 8158, 8130, 8163, 8153, 8149, 8119, 8148, 8160, 8144, 8079,0.47977733612060547
60, 8156, 8164, 8161, 8137, 8146, 8120, 8158, 8156, 8136, 8125, 8145, 8160, 8135, 8084,0.49516773223876953
61, 8146, 8168, 8152, 8144, 8143, 8112, 8153, 8151, 8129, 8120, 8150, 8141, 8139, 8072,0.49516773223876953
62, 8142, 8172, 8180, 8165, 8149, 8123, 8152, 8139, 8119, 8126, 8155, 8160, 8148, 8079,0.5102221965789795
63, 8161, 8187, 8194, 8190, 8168, 8148, 8170, 8148, 8135, 8162, 8179, 8175, 8166, 8103,0.5102221965789795
64, 8174, 8198, 8198, 8208, 8181, 8153, 8178, 8161, 8160, 8166, 8184, 8172, 8162, 8108,0.5267348289489746
65, 8158, 8196, 8196, 8211, 8176, 8151, 8175, 8169, 8168, 8148, 8146, 8156, 8136, 8093,0.5267348289489746
66, 8145, 8181, 8162, 8197, 8162, 8147, 8184, 8174, 8175, 8180, 8132, 8136, 8137, 8088,0.5425262451171875
67, 8155, 8163, 8162, 8169, 8159, 8129, 8186, 8176, 8179, 8200, 8143, 8148, 8145, 8102,0.5425262451171875
68, 8149, 8154, 8147, 8156, 8167, 8125, 8190, 8174, 8177, 8176, 8137, 8145, 8144, 8098,0.5577390193939209
69, 8136, 8154, 8132, 8153, 8161, 8122, 8182, 8160, 8161, 8163, 8129, 8138, 8143, 8087,0.5577390193939209
70, 8144, 8160, 8147, 8146, 8149, 8103, 8156, 8159, 8156, 8161, 8139, 8153, 8146, 8086,0.5732553005218506
71, 8156, 8167, 8142, 8156, 8152, 8089, 8140, 8153, 8165, 8153, 8156, 8161, 8156, 8079,0.5732553005218506
72, 8169, 8182, 8168, 8168, 8161, 8088, 8139, 8140, 8154, 8146, 8168, 8186, 8158, 8088,0.5889453887939453
73, 8182, 8192, 8191, 8184, 8166, 8091, 8147, 8154, 8145, 8153, 8183, 8191, 8162, 8096,0.5889453887939453
74, 8178, 8186, 8190, 8190, 8165, 8094, 8144, 8155, 8131, 8147, 8186, 8181, 8162, 8081,0.6041543483734131
75, 8173, 8192, 8203, 8186, 8163, 8104, 8145, 8152, 8122, 8144, 8179, 8188, 8158, 8084,0.6041543483734131
76, 8187, 8209, 8202, 8210, 8168, 8115, 8165, 8164, 8149, 8166, 8186, 8184, 8163, 8110,0.6201937198638916
77, 8194, 8205, 8211, 8224, 8168, 8105, 8169, 8169, 8163, 8166, 8180, 8189, 8158, 8122,0.6201937198638916
78, 8183, 8190, 8201, 8213, 8164, 8094, 8172, 8167, 8158, 8170, 8169, 8183, 8156, 8113,0.6357986927032471
79, 8185, 8183, 8187, 8201, 8163, 8100, 8175, 8165, 8167, 8193, 8181, 8181, 8169, 8118,0.6357986927032471
80, 8190, 8186, 8190, 8191, 8164, 8096, 8159, 8169, 8166, 8189, 8193, 8199, 8181, 8130,0.650892972946167
81, 8193, 8185, 8178, 8189, 8159, 8061, 8134, 8157, 8148, 8171, 8206, 8204, 8198, 8115,0.650892972946167
82, 8202, 8187, 8201, 8189, 8152, 8061, 8118, 8136, 8122, 8147, 8218, 8213, 8199, 8104,0.6666784286499023
83, 8206, 8208, 8218, 8203, 8159, 8107, 8126, 8138, 8118, 8134, 8211, 8202, 8182, 8102,0.6666784286499023
84, 8192, 8215, 8203, 8211, 8164, 8122, 8131, 8138, 8130, 8144, 8192, 8180, 8170, 8091,0.6817452907562256
85, 8168, 8201, 8197, 8190, 8157, 8126, 8125, 8138, 8120, 8143, 8170, 8175, 8159, 8077,0.6817452907562256
86, 8154, 8188, 8170, 8180, 8155, 8153, 8141, 8150, 8123, 8147, 8158, 8157, 8153, 8074,0.6972153186798096
87, 8164, 8177, 8165, 8180, 8156, 8157, 8152, 8160, 8149, 8170, 8159, 8161, 8160, 8094,0.6972153186798096
88, 8174, 8166, 8164, 8172, 8150, 8154, 8154, 8172, 8165, 8188, 8172, 8172, 8179, 8111,0.7132217884063721
89, 8177, 8165, 8153, 8166, 8153, 8163, 8156, 8171, 8168, 8179, 8186, 8178, 8193, 8112,0.7132217884063721
90, 8185, 8170, 8172, 8153, 8153, 8148, 8141, 8160, 8156, 8143, 8186, 8196, 8188, 8108,0.7285027503967285
91, 8181, 8162, 8156, 8140, 8148, 8133, 8125, 8145, 8133, 8124, 8175, 8174, 8176, 8081,0.7285027503967285
92, 8165, 8154, 8145, 8121, 8151, 8139, 8117, 8137, 8108, 8111, 8158, 8156, 8148, 8055,0.7437412738800049
93, 8156, 8169, 8171, 8132, 8150, 8145, 8126, 8155, 8115, 8112, 8161, 8164, 8142, 8061,0.7437412738800049
94, 8166, 8191, 8195, 8178, 8151, 8148, 8141, 8164, 8149, 8147, 8188, 8171, 8173, 8090,0.7598514556884766
95, 8170, 8192, 8209, 8184, 8153, 8152, 8145, 8158, 8152, 8167, 8183, 8172, 8170, 8101,0.7598514556884766
96, 8147, 8166, 8176, 8167, 8151, 8170, 8160, 8164, 8152, 8162, 8153, 8135, 8137, 8081,0.7754290103912354
97, 8137, 8148, 8161, 8164, 8153, 8178, 8170, 8170, 8169, 8160, 8137, 8120, 8130, 8073,0.7754290103912354
98, 8138, 8156, 8162, 8160, 8152, 8161, 8160, 8167, 8177, 8164, 8139, 8130, 8145, 8079,0.791172981262207
99, 8135, 8155, 8136, 8148, 8145, 8143, 8143, 8160, 8172, 8156, 8150, 8124, 8151, 8072,0.791172981262207
100, 8147, 8156, 8148, 8143, 8144, 8135, 8124, 8161, 8157, 8145, 8148, 8136, 8148, 8074,0.806797981262207
101, 8159, 8176, 8149, 8161, 8149, 8132, 8115, 8164, 8155, 8150, 8146, 8133, 8164, 8077,0.806797981262207
102, 8154, 8181, 8144, 8158, 8148, 8124, 8109, 8143, 8141, 8129, 8159, 8132, 8167, 8071,0.8223469257354736
103, 8153, 8180, 8159, 8150, 8151, 8128, 8116, 8137, 8129, 8115, 8174, 8153, 8157, 8071,0.8223469257354736
104, 8155, 8193, 8152, 8175, 8157, 8140, 8132, 8140, 8141, 8139, 8175, 8145, 8156, 8073,0.8378500938415527
105, 8143, 8191, 8151, 8169, 8156, 8139, 8133, 8136, 8134, 8138, 8157, 8125, 8142, 8067,0.8378500938415527
106, 8118, 8172, 8133, 8154, 8161, 8150, 8148, 8152, 8139, 8140, 8146, 8100, 8135, 8052,0.8539278507232666
107, 8106, 8155, 8122, 8157, 8162, 8159, 8167, 8165, 8167, 8166, 8147, 8097, 8146, 8055,0.8539278507232666
108, 8112, 8152, 8133, 8149, 8150, 8156, 8164, 8171, 8177, 8183, 8147, 8111, 8155, 8078,0.8696353435516357
109, 8120, 8148, 8117, 8138, 8147, 8153, 8168, 8176, 8177, 8194, 8147, 8106, 8164, 8087,0.8696353435516357
110, 8127, 8136, 8118, 8121, 8147, 8134, 8164, 8175, 8169, 8182, 8141, 8118, 8160, 8087,0.885185956954956
111, 8135, 8137, 8117, 8116, 8138, 8117, 8151, 8174, 8167, 8165, 8147, 8128, 8165, 8092,0.885185956954956
112, 8138, 8140, 8108, 8116, 8125, 8108, 8132, 8162, 8153, 8150, 8156, 8129, 8171, 8088,0.9011526107788086
113, 8131, 8138, 8118, 8105, 8124, 8103, 8120, 8153, 8131, 8127, 8142, 8123, 8157, 8070,0.9011526107788086
114, 8137, 8153, 8123, 8116, 8144, 8106, 8129, 8156, 8137, 8129, 8150, 8117, 8161, 8064,0.9171600341796875
115, 8164, 8177, 8157, 8141, 8152, 8110, 8135, 8157, 8140, 8135, 8179, 8153, 8173, 8080,0.9171600341796875
116, 8161, 8181, 8161, 8143, 8141, 8114, 8137, 8157, 8137, 8134, 8178, 8153, 8166, 8077,0.9330484867095947
117, 8143, 8172, 8141, 8134, 8138, 8114, 8139, 8147, 8137, 8139, 8155, 8125, 8159, 8057,0.9330484867095947
118, 8147, 8175, 8163, 8143, 8156, 8120, 8144, 8142, 8123, 8135, 8140, 8128, 8154, 8056,0.9486048221588135
119, 8151, 8165, 8159, 8137, 8168, 8138, 8168, 8152, 8133, 8147, 8148, 8121, 8155, 8067,0.9486048221588135
120, 8138, 8145, 8155, 8115, 8152, 8137, 8173, 8154, 8150, 8165, 8144, 8111, 8145, 8076,0.9646315574645996
121, 8121, 8147, 8150, 8139, 8136, 8129, 8161, 8151, 8144, 8156, 8112, 8097, 8123, 8062,0.9646315574645996
122, 8123, 8154, 8131, 8169, 8145, 8128, 8159, 8150, 8141, 8142, 8094, 8093, 8118, 8049,0.9800660610198975
123, 8125, 8149, 8135, 8147, 8155, 8128, 8163, 8165, 8157, 8155, 8105, 8114, 8129, 8065,0.9800660610198975
124, 8115, 8141, 8119, 8136, 8148, 8124, 8167, 8172, 8174, 8173, 8117, 8108, 8141, 8066,0.9960763454437256
125, 8121, 8144, 8124, 8136, 8146, 8116, 8151, 8157, 8165, 8160, 8116, 8111, 8150, 8062,0.9960763454437256
126, 8133, 8153, 8135, 8122, 8161, 8114, 8139, 8156, 8155, 8147, 8123, 8123, 8166, 8066,1.0120744705200195
127, 8133, 8157, 8125, 8124, 8166, 8108, 8143, 8150, 8144, 8133, 8131, 8116, 8164, 8049,1.0120744705200195
237, 8125, 8156, 8139, 8123, 8153, 8097, 8130, 8132, 8118, 8108, 8112, 8112, 8136, 8032,1.0277454853057861
0, 8117, 8157, 8137, 8120, 8151, 8092, 8120, 8131, 8121, 8120, 8116, 8097, 8134, 8032,1.0277454853057861
1, 8119, 8159, 8149, 8121, 8156, 8095, 8118, 8134, 8125, 8133, 8126, 8095, 8134, 8034,1.0428543090820312
2, 8117, 8150, 8158, 8134, 8150, 8110, 8126, 8142, 8113, 8136, 8101, 8089, 8118, 8037,1.0428543090820312
3, 8110, 8128, 8135, 8148, 8149, 8125, 8148, 8151, 8136, 8163, 8094, 8078, 8128, 8052,1.0581345558166504
4, 8114, 8122, 8132, 8125, 8153, 8133, 8155, 8167, 8163, 8169, 8110, 8098, 8147, 8065,1.0581345558166504
5, 8126, 8139, 8121, 8114, 8152, 8135, 8151, 8174, 8163, 8152, 8119, 8102, 8158, 8053,1.0730643272399902
6, 8137, 8160, 8137, 8136, 8153, 8128, 8138, 8158, 8147, 8139, 8123, 8112, 8155, 8045,1.0730643272399902
7, 8135, 8174, 8162, 8160, 8168, 8137, 8138, 8154, 8139, 8146, 8131, 8125, 8144, 8050,1.089021921157837
8, 8123, 8175, 8143, 8169, 8171, 8161, 8161, 8152, 8146, 8160, 8129, 8106, 8137, 8051,1.089021921157837
9, 8114, 8161, 8143, 8153, 8160, 8162, 8172, 8150, 8146, 8150, 8109, 8100, 8122, 8056,1.1040797233581543
10, 8108, 8147, 8130, 8141, 8159, 8143, 8174, 8166, 8159, 8158, 8104, 8094, 8127, 8057,1.1040797233581543
11, 8122, 8138, 8119, 8129, 8160, 8133, 8164, 8170, 8166, 8169, 8111, 8108, 8147, 8058,1.11964750289917
12, 8141, 8150, 8136, 8117, 8155, 8135, 8155, 8164, 8151, 8150, 8117, 8131, 8148, 8057,1.11964750289917
13, 8136, 8168, 8135, 8135, 8161, 8134, 8160, 8151, 8146, 8145, 8130, 8116, 8142, 8047,1.1350288391113281
14, 8122, 8173, 8148, 8144, 8174, 8141, 8156, 8141, 8136, 8146, 8125, 8104, 8125, 8048,1.1350288391113281
15, 8112, 8168, 8141, 8141, 8173, 8158, 8160, 8152, 8136, 8137, 8097, 8084, 8103, 8043,1.149980068206787
16, 8106, 8155, 8132, 8142, 8160, 8148, 8171, 8161, 8152, 8140, 8087, 8076, 8095, 8039,1.149980068206787
17, 8110, 8145, 8147, 8136, 8155, 8138, 8184, 8167, 8166, 8163, 8107, 8095, 8110, 8060,1.165757417678833
18, 8122, 8143, 8129, 8123, 8162, 8148, 8192, 8173, 8181, 8180, 8132, 8096, 8138, 8071,1.165757417678833
19, 8127, 8148, 8132, 8100, 8160, 8138, 8167, 8172, 8173, 8156, 8133, 8112, 8143, 8067,1.181121826171875
20, 8134, 8159, 8139, 8108, 8160, 8128, 8150, 8172, 8166, 8145, 8148, 8131, 8150, 8068,1.181121826171875
21, 8146, 8158, 8141, 8127, 8171, 8130, 8151, 8162, 8167, 8157, 8174, 8144, 8160, 8074,1.1967201232910156
22, 8141, 8153, 8158, 8123, 8169, 8124, 8143, 8152, 8156, 8145, 8167, 8149, 8147, 8070,1.211925983428955
23, 8126, 8154, 8142, 8132, 8167, 8129, 8149, 8146, 8148, 8136, 8149, 8116, 8134, 8050,1.211925983428955
24, 8112, 8156, 8145, 8147, 8172, 8147, 8165, 8148, 8145, 8139, 8128, 8101, 8117, 8048,1.2271153926849365
25, 8107, 8154, 8149, 8155, 8172, 8163, 8184, 8166, 8156, 8163, 8120, 8107, 8118, 8065,1.2271153926849365
26, 8114, 8140, 8136, 8141, 8166, 8161, 8181, 8167, 8164, 8182, 8137, 8110, 8134, 8081,1.2421579360961914
27, 8110, 8126, 8138, 8110, 8154, 8141, 8162, 8167, 8154, 8171, 8134, 8116, 8128, 8084,1.2421579360961914
28, 8097, 8117, 8115, 8100, 8147, 8121, 8162, 8174, 8157, 8163, 8116, 8107, 8127, 8069,1.2578790187835693
29, 8112, 8119, 8123, 8095, 8151, 8107, 8153, 8167, 8150, 8146, 8127, 8126, 8138, 8060,1.2578790187835693
30, 8135, 8143, 8145, 8102, 8162, 8113, 8143, 8160, 8136, 8122, 8145, 8130, 8140, 8052,1.2738726139068604
31, 8138, 8160, 8151, 8131, 8164, 8129, 8155, 8151, 8131, 8115, 8137, 8110, 8121, 8045,1.2738726139068604
32, 8131, 8157, 8172, 8142, 8158, 8143, 8173, 8153, 8126, 8122, 8120, 8115, 8108, 8054,1.2890524864196777
33, 8119, 8145, 8148, 8131, 8157, 8145, 8185, 8161, 8136, 8140, 8117, 8103, 8118, 8048,1.2890524864196777
34, 8109, 8137, 8136, 8114, 8144, 8133, 8177, 8157, 8139, 8139, 8106, 8097, 8113, 8044,1.3045966625213623
35, 8114, 8134, 8146, 8118, 8133, 8137, 8171, 8159, 8143, 8132, 8100, 8100, 8112, 8059,1.3045966625213623
36, 8129, 8134, 8135, 8127, 8148, 8135, 8168, 8169, 8165, 8145, 8124, 8117, 8135, 8076,1.319737195968628
37, 8132, 8136, 8140, 8108, 8156, 8112, 8148, 8173, 8167, 8139, 8140, 8146, 8149, 8088,1.319737195968628
38, 8125, 8127, 8130, 8102, 8142, 8105, 8134, 8169, 8155, 8119, 8136, 8130, 8157, 8085,1.3352019786834717
39, 8129, 8123, 8133, 8111, 8142, 8108, 8130, 8162, 8148, 8117, 8133, 8125, 8164, 8080,1.3352019786834717
40, 8139, 8137, 8147, 8119, 8151, 8102, 8131, 8165, 8145, 8127, 8151, 8147, 8169, 8080,1.3513052463531494
41, 8159, 8153, 8151, 8140, 8150, 8098, 8133, 8158, 8141, 8128, 8174, 8151, 8174, 8078,1.3513052463531494
42, 8169, 8164, 8165, 8149, 8150, 8112, 8128, 8149, 8126, 8116, 8159, 8154, 8159, 8074,1.3669240474700928
43, 8155, 8166, 8143, 8150, 8164, 8118, 8136, 8146, 8121, 8122, 8151, 8141, 8150, 8069,1.3669240474700928
44, 8153, 8162, 8146, 8156, 8172, 8114, 8146, 8140, 8120, 8128, 8174, 8142, 8158, 8080,1.382826566696167
45, 8164, 8172, 8173, 8169, 8169, 8130, 8153, 8154, 8126, 8128, 8176, 8147, 8159, 8088,1.382826566696167
46, 8164, 8182, 8155, 8184, 8176, 8149, 8167, 8166, 8144, 8145, 8155, 8133, 8152, 8088,1.3986835479736328
47, 8161, 8170, 8144, 8178, 8181, 8152, 8177, 8161, 8146, 8154, 8145, 8132, 8147, 8094,1.3986835479736328
48, 8151, 8149, 8135, 8163, 8173, 8148, 8186, 8166, 8152, 8153, 8144, 8114, 8149, 8088,1.4142491817474365
49, 8133, 8132, 8123, 8137, 8155, 8133, 8172, 8168, 8158, 8148, 8136, 8103, 8143, 8078,1.4142491817474365
50, 8134, 8131, 8118, 8107, 8143, 8119, 8144, 8165, 8143, 8127, 8129, 8119, 8136, 8079,1.4293978214263916
51, 8143, 8139, 8109, 8108, 8146, 8116, 8141, 8165, 8142, 8112, 8145, 8131, 8153, 8074,1.4293978214263916
52, 8134, 8136, 8122, 8117, 8144, 8107, 8144, 8167, 8154, 8122, 8164, 8145, 8166, 8071,1.4451446533203125
53, 8125, 8136, 8122, 8113, 8139, 8101, 8135, 8174, 8157, 8135, 8169, 8136, 8159, 8073,1.4451446533203125
54, 8137, 8153, 8117, 8122, 8145, 8109, 8131, 8157, 8154, 8130, 8178, 8129, 8163, 8063,1.4610073566436768
55, 8149, 8168, 8147, 8127, 8152, 8098, 8129, 8145, 8134, 8109, 8176, 8144, 8158, 8064,1.4610073566436768
56, 8150, 8184, 8180, 8138, 8149, 8098, 8142, 8166, 8130, 8115, 8178, 8159, 8155, 8086,1.4760565757751465
57, 8150, 8190, 8132, 8194, 8157, 8125, 8184, 8143, 8176, 8170, 8216, 8125, 8186, 8069,1.4760565757751465
58, 8145, 8163, 8141, 8149, 8162, 8113, 8151, 8143, 8129, 8123, 8172, 8132, 8126, 8075,1.491884469985962
59, 8135, 8181, 8226, 8125, 8159, 8142, 8152, 8186, 8106, 8100, 8142, 8173, 8100, 8097,1.491884469985962
60, 8127, 8167, 8080, 8230, 8172, 8173, 8229, 8133, 8221, 8211, 8212, 8066, 8200, 8052,1.5070080757141113
61, 8131, 8113, 8093, 8126, 8147, 8109, 8146, 8144, 8139, 8121, 8136, 8084, 8118, 8088,1.5070080757141113
62, 8135, 8153, 8240, 8074, 8130, 8143, 8131, 8204, 8099, 8078, 8104, 8185, 8080, 8115,1.5224676132202148
63, 8135, 8152, 8103, 8178, 8158, 8189, 8208, 8163, 8222, 8186, 8181, 8099, 8186, 8070,1.5224676132202148
64, 8137, 8112, 8106, 8109, 8145, 8138, 8142, 8167, 8168, 8112, 8142, 8114, 8144, 8094,1.537766933441162
65, 8129, 8125, 8160, 8085, 8139, 8146, 8132, 8179, 8142, 8092, 8139, 8157, 8131, 8089,1.537766933441162
66, 8135, 8126, 8097, 8124, 8159, 8151, 8167, 8158, 8179, 8148, 8167, 8119, 8170, 8073,1.5532283782958984
67, 8160, 8132, 8134, 8117, 8157, 8126, 8151, 8163, 8159, 8120, 8168, 8146, 8168, 8093,1.5532283782958984
68, 8166, 8139, 8157, 8123, 8148, 8117, 8135, 8161, 8140, 8094, 8182, 8158, 8167, 8086,1.5688369274139404
69, 8162, 8145, 8159, 8133, 8151, 8123, 8136, 8153, 8121, 8091, 8186, 8155, 8154, 8078,1.5688369274139404
70, 8163, 8163, 8176, 8155, 8160, 8138, 8152, 8139, 8120, 8096, 8183, 8156, 8143, 8076,1.583977222442627
71, 8169, 8167, 8194, 8171, 8162, 8139, 8151, 8145, 8128, 8092, 8172, 8157, 8138, 8085,1.583977222442627
72, 8172, 8163, 8192, 8193, 8168, 8138, 8149, 8147, 8137, 8114, 8176, 8160, 8150, 8087,1.5996787548065186
73, 8163, 8155, 8185, 8183, 8170, 8149, 8146, 8155, 8132, 8124, 8175, 8160, 8147, 8095,1.5996787548065186
74, 8157, 8147, 8180, 8174, 8160, 8165, 8158, 8175, 8155, 8131, 8175, 8162, 8152, 8108,1.6157186031341553
75, 8169, 8136, 8168, 8178, 8153, 8154, 8167, 8174, 8183, 8147, 8168, 8162, 8165, 8114,1.6157186031341553
76, 8170, 8139, 8168, 8158, 8146, 8135, 8158, 8169, 8165, 8144, 8147, 8160, 8157, 8117,1.630937099456787
77, 8162, 8148, 8157, 8147, 8140, 8129, 8160, 8159, 8160, 8145, 8154, 8156, 8161, 8106,1.630937099456787
78, 8175, 8154, 8162, 8137, 8143, 8112, 8151, 8171, 8150, 8124, 8160, 8173, 8162, 8105,1.6470255851745605
79, 8189, 8162, 8148, 8159, 8150, 8108, 8153, 8165, 8152, 8130, 8178, 8174, 8189, 8093,1.6470255851745605
80, 8190, 8167, 8178, 8147, 8152, 8101, 8134, 8152, 8133, 8116, 8178, 8190, 8181, 8093,1.6630816459655762
81, 8195, 8201, 8203, 8170, 8167, 8121, 8159, 8167, 8146, 8122, 8199, 8198, 8184, 8091,1.6630816459655762
82, 8201, 8206, 8137, 8225, 8185, 8126, 8190, 8137, 8182, 8161, 8228, 8153, 8211, 8071,1.67863130569458
83, 8196, 8189, 8217, 8152, 8165, 8094, 8134, 8163, 8101, 8085, 8159, 8198, 8140, 8108,1.67863130569458
84, 8188, 8203, 8244, 8174, 8161, 8126, 8166, 8185, 8120, 8106, 8178, 8206, 8158, 8102,1.6942179203033447
85, 8194, 8197, 8209, 8210, 8178, 8134, 8194, 8164, 8167, 8155, 8211, 8185, 8186, 8099,1.6942179203033447
86, 8198, 8209, 8239, 8190, 8180, 8146, 8191, 8186, 8168, 8146, 8178, 8200, 8167, 8122,1.71002197265625
87, 8192, 8191, 8183, 8208, 8183, 8161, 8212, 8172, 8208, 8175, 8187, 8167, 8200, 8108,1.71002197265625
88, 8190, 8165, 8225, 8158, 8169, 8128, 8179, 8191, 8167, 8151, 8172, 8205, 8176, 8139,1.7260682582855225
89, 8182, 8180, 8196, 8194, 8170, 8134, 8202, 8185, 8191, 8199, 8200, 8187, 8206, 8112,1.7260682582855225
90, 8170, 8157, 8133, 8184, 8169, 8113, 8180, 8152, 8186, 8189, 8183, 8156, 8200, 8089,1.7420973777770996
91, 8159, 8152, 8182, 8127, 8155, 8101, 8142, 8186, 8142, 8128, 8145, 8188, 8161, 8114,1.7420973777770996
92, 8164, 8157, 8153, 8164, 8164, 8110, 8172, 8177, 8185, 8167, 8187, 8174, 8201, 8099,1.7577664852142334
93, 8181, 8153, 8168, 8144, 8165, 8093, 8155, 8170, 8169, 8148, 8179, 8199, 8191, 8096,1.7577664852142334
94, 8183, 8168, 8173, 8146, 8163, 8098, 8154, 8168, 8156, 8136, 8182, 8203, 8188, 8081,1.7736191749572754
95, 8185, 8167, 8177, 8159, 8162, 8088, 8150, 8154, 8149, 8135, 8196, 8204, 8186, 8076,1.7736191749572754
96, 8191, 8168, 8199, 8159, 8162, 8092, 8143, 8171, 8141, 8125, 8194, 8222, 8176, 8080,1.7887895107269287
97, 8188, 8168, 8182, 8167, 8165, 8108, 8149, 8158, 8142, 8136, 8204, 8203, 8182, 8075,1.7887895107269287
98, 8181, 8176, 8206, 8162, 8158, 8108, 8147, 8144, 8121, 8132, 8190, 8196, 8167, 8084,1.8040380477905273
99, 8192, 8199, 8214, 8196, 8172, 8131, 8177, 8159, 8151, 8157, 8195, 8191, 8174, 8090,1.8040380477905273
100, 8206, 8203, 8222, 8217, 8188, 8163, 8191, 8167, 8171, 8165, 8207, 8202, 8177, 8101,1.819685459136963
101, 8180, 8180, 8215, 8198, 8173, 8182, 8173, 8159, 8151, 8140, 8183, 8189, 8161, 8093,1.819685459136963
102, 8157, 8151, 8183, 8177, 8157, 8186, 8165, 8146, 8149, 8141, 8160, 8164, 8156, 8080,1.8347184658050537
103, 8161, 8136, 8193, 8159, 8154, 8189, 8169, 8152, 8152, 8157, 8158, 8174, 8151, 8090,1.8347184658050537
104, 8160, 8135, 8178, 8160, 8157, 8205, 8187, 8160, 8163, 8177, 8163, 8167, 8154, 8090,1.8503127098083496
105, 8166, 8139, 8177, 8157, 8160, 8203, 8192, 8175, 8177, 8178, 8161, 8178, 8160, 8097,1.8503127098083496
106, 8178, 8141, 8183, 8151, 8162, 8190, 8192, 8194, 8189, 8180, 8173, 8193, 8171, 8110,1.8659050464630127
107, 8174, 8130, 8161, 8149, 8161, 8179, 8179, 8177, 8192, 8183, 8188, 8185, 8175, 8104,1.8810398578643799
108, 8160, 8122, 8161, 8129, 8153, 8167, 8143, 8158, 8169, 8158, 8172, 8187, 8157, 8096,1.8810398578643799
109, 8155, 8118, 8139, 8122, 8139, 8155, 8133, 8165, 8161, 8145, 8158, 8173, 8154, 8084,1.8961632251739502
110, 8164, 8111, 8131, 8117, 8137, 8142, 8134, 8160, 8151, 8132, 8153, 8173, 8153, 8073,1.8961632251739502
111, 8177, 8123, 8148, 8120, 8153, 8145, 8137, 8155, 8138, 8122, 8162, 8188, 8155, 8073,1.9116206169128418
112, 8176, 8138, 8152, 8142, 8162, 8156, 8152, 8155, 8147, 8134, 8191, 8184, 8170, 8068,1.9116206169128418
113, 8169, 8144, 8172, 8149, 8161, 8154, 8158, 8157, 8144, 8127, 8197, 8188, 8166, 8067,1.927295446395874
114, 8168, 8151, 8163, 8155, 8164, 8150, 8161, 8157, 8142, 8124, 8186, 8175, 8159, 8064,1.927295446395874
115, 8167, 8153, 8162, 8163, 8170, 8151, 8154, 8147, 8148, 8139, 8175, 8166, 8156, 8061,1.9430475234985352
116, 8158, 8150, 8175, 8167, 8173, 8170, 8155, 8154, 8149, 8143, 8167, 8161, 8145, 8068,1.9430475234985352
117, 8156, 8151, 8157, 8179, 8170, 8179, 8170, 8161, 8149, 8146, 8169, 8145, 8145, 8074,1.9587035179138184
118, 8165, 8157, 8176, 8180, 8161, 8166, 8173, 8160, 8157, 8161, 8171, 8159, 8152, 8084,1.9587035179138184
119, 8157, 8146, 8168, 8179, 8162, 8161, 8177, 8166, 8175, 8178, 8168, 8157, 8155, 8086,1.9747698307037354
120, 8144, 8122, 8136, 8160, 8164, 8152, 8172, 8157, 8167, 8164, 8151, 8150, 8138, 8083,1.9747698307037354
121, 8146, 8119, 8139, 8142, 8152, 8145, 8165, 8157, 8158, 8159, 8143, 8149, 8134, 8081,1.98990797996521
122, 8156, 8126, 8141, 8150, 8147, 8148, 8174, 8170, 8182, 8188, 8162, 8144, 8163, 8087,1.98990797996521
123, 8170, 8129, 8158, 8144, 8153, 8141, 8172, 8179, 8189, 8185, 8173, 8171, 8178, 8109,2.0126266479492188
124, 8181, 8133, 8150, 8139, 8157, 8132, 8168, 8182, 8190, 8170, 8177, 8178, 8184, 8115,2.0126266479492188
125, 8180, 8124, 8140, 8132, 8155, 8124, 8166, 8180, 8198, 8168, 8182, 8170, 8188, 8103,2.0126266479492188
126, 8168, 8109, 8146, 8108, 8147, 8114, 8165, 8180, 8191, 8150, 8169, 8173, 8170, 8089,2.0206503868103027
127, 8167, 8114, 8135, 8113, 8148, 8115, 8171, 8171, 8175, 8141, 8164, 8165, 8158, 8077,2.0371816158294678
237, 8169, 8126, 8149, 8121, 8158, 8117, 8156, 8157, 8157, 8132, 8162, 8164, 8154, 8075,2.0371816158294678
0, 8158, 8123, 8148, 8114, 8157, 8106, 8147, 8160, 8157, 8124, 8158, 8153, 8154, 8071,2.053290605545044
1, 8158, 8127, 8149, 8114, 8149, 8100, 8152, 8155, 8151, 8124, 8164, 8158, 8154, 8070,2.053290605545044
2, 8164, 8145, 8169, 8127, 8156, 8113, 8147, 8149, 8134, 8122, 8159, 8164, 8143, 8074,2.068937301635742
3, 8149, 8146, 8154, 8138, 8163, 8117, 8144, 8146, 8141, 8125, 8143, 8135, 8138, 8064,2.068937301635742
4, 8138, 8132, 8160, 8127, 8150, 8107, 8140, 8142, 8139, 8121, 8135, 8135, 8130, 8060,2.083949089050293
5, 8147, 8130, 8164, 8129, 8154, 8120, 8160, 8154, 8141, 8127, 8139, 8139, 8132, 8073,2.083949089050293
6, 8146, 8131, 8153, 8137, 8167, 8130, 8178, 8153, 8144, 8130, 8126, 8120, 8131, 8073,2.099159002304077
7, 8124, 8129, 8156, 8128, 8161, 8122, 8166, 8138, 8123, 8117, 8102, 8109, 8103, 8055,2.099159002304077
8, 8122, 8124, 8142, 8128, 8167, 8124, 8173, 8147, 8139, 8141, 8114, 8107, 8111, 8061,2.114691972732544
9, 8144, 8123, 8150, 8119, 8163, 8116, 8178, 8171, 8176, 8174, 8130, 8135, 8137, 8093,2.114691972732544
10, 8153, 8128, 8149, 8119, 8140, 8098, 8162, 8185, 8180, 8172, 8134, 8146, 8137, 8093,2.130781888961792
11, 8154, 8127, 8139, 8126, 8142, 8088, 8148, 8172, 8169, 8160, 8149, 8145, 8139, 8079,2.130781888961792
12, 8155, 8129, 8162, 8116, 8151, 8087, 8142, 8165, 8159, 8154, 8148, 8165, 8154, 8091,2.14601469039917
13, 8161, 8146, 8159, 8132, 8152, 8091, 8135, 8152, 8144, 8151, 8153, 8159, 8163, 8083,2.14601469039917
14, 8171, 8160, 8169, 8145, 8156, 8096, 8125, 8126, 8118, 8124, 8165, 8155, 8147, 8058,2.1616547107696533
15, 8160, 8166, 8179, 8137, 8156, 8114, 8136, 8130, 8116, 8115, 8160, 8149, 8137, 8053,2.1616547107696533
16, 8147, 8158, 8166, 8152, 8154, 8139, 8158, 8153, 8145, 8153, 8161, 8140, 8144, 8072,2.1767561435699463
17, 8153, 8145, 8178, 8157, 8162, 8158, 8175, 8178, 8173, 8187, 8164, 8158, 8151, 8094,2.1767561435699463
18, 8160, 8139, 8158, 8133, 8162, 8160, 8181, 8184, 8195, 8190, 8158, 8156, 8203, 8086,2.192725896835327
19, 8163, 8143, 8153, 8113, 8147, 8136, 8149, 8161, 8170, 8165, 8170, 8170, 8264, 8077,2.192725896835327
20, 8165, 8151, 8177, 8128, 8152, 8125, 8135, 8152, 8132, 8153, 8192, 8185, 8264, 8076,2.2080323696136475
21, 8157, 8155, 8178, 8154, 8164, 8147, 8161, 8155, 8138, 8161, 8184, 8166, 8229, 8068,2.2080323696136475
22, 8164, 8163, 8190, 8160, 8164, 8158, 8177, 8168, 8152, 8168, 8165, 8162, 8212, 8076,2.224092960357666
23, 8176, 8163, 8179, 8170, 8164, 8146, 8190, 8192, 8172, 8195, 8174, 8155, 8231, 8097,2.224092960357666
24, 8183, 8143, 8171, 8159, 8165, 8127, 8184, 8194, 8191, 8202, 8182, 8172, 8248, 8108,2.2401559352874756
25, 8185, 8141, 8171, 8133, 8167, 8121, 8161, 8177, 8183, 8170, 8182, 8188, 8242, 8091,2.2401559352874756
26, 8168, 8153, 8152, 8133, 8167, 8117, 8146, 8158, 8161, 8152, 8182, 8157, 8217, 8061,2.255948781967163
27, 8148, 8164, 8173, 8147, 8159, 8113, 8136, 8151, 8139, 8143, 8152, 8143, 8182, 8057,2.255948781967163
28, 8149, 8166, 8176, 8165, 8159, 8130, 8157, 8155, 8151, 8153, 8143, 8143, 8189, 8064,2.2711100578308105
29, 8165, 8158, 8174, 8167, 8170, 8143, 8180, 8163, 8176, 8177, 8170, 8156, 8215, 8084,2.2711100578308105
30, 8169, 8154, 8186, 8154, 8169, 8140, 8177, 8180, 8186, 8199, 8168, 8168, 8219, 8108,2.2872474193573
31, 8168, 8150, 8169, 8147, 8165, 8126, 8167, 8181, 8180, 8201, 8156, 8167, 8223, 8104,2.2872474193573
32, 8188, 8161, 8190, 8145, 8168, 8111, 8158, 8170, 8157, 8170, 8181, 8205, 8237, 8103,2.302802801132202
33, 8206, 8188, 8210, 8173, 8172, 8110, 8159, 8168, 8157, 8160, 8210, 8216, 8245, 8106,2.302802801132202
34, 8204, 8198, 8207, 8186, 8178, 8110, 8156, 8152, 8153, 8159, 8187, 8189, 8214, 8091,2.317876100540161
35, 8182, 8188, 8201, 8169, 8179, 8112, 8158, 8142, 8147, 8151, 8152, 8170, 8183, 8075,2.317876100540161
36, 8166, 8181, 8186, 8168, 8178, 8119, 8171, 8153, 8168, 8173, 8149, 8159, 8171, 8078,2.3334009647369385
37, 8162, 8180, 8198, 8165, 8174, 8116, 8165, 8159, 8164, 8181, 8142, 8165, 8137, 8090,2.3334009647369385
38, 8151, 8165, 8171, 8154, 8171, 8109, 8163, 8166, 8157, 8172, 8134, 8152, 8126, 8082,2.3487019538879395
39, 8148, 8151, 8146, 8137, 8161, 8097, 8163, 8175, 8183, 8176, 8143, 8155, 8148, 8081,2.3487019538879395
40, 8168, 8159, 8174, 8127, 8150, 8089, 8156, 8194, 8205, 8191, 8160, 8183, 8159, 8100,2.3646769523620605
41, 8180, 8168, 8171, 8143, 8162, 8089, 8153, 8200, 8205, 8190, 8176, 8184, 8166, 8101,2.3646769523620605
42, 8179, 8170, 8171, 8146, 8170, 8085, 8143, 8173, 8181, 8156, 8177, 8192, 8165, 8090,2.379833221435547
43, 8172, 8176, 8176, 8146, 8163, 8085, 8134, 8155, 8161, 8137, 8169, 8181, 8148, 8077,2.379833221435547
44, 8169, 8191, 8185, 8165, 8168, 8089, 8139, 8152, 8147, 8140, 8171, 8170, 8135, 8077,2.395220994949341
45, 8173, 8207, 8214, 8186, 8178, 8092, 8149, 8153, 8140, 8138, 8179, 8193, 8139, 8086,2.395220994949341
46, 8174, 8201, 8206, 8204, 8177, 8104, 8160, 8157, 8154, 8158, 8184, 8188, 8147, 8086,2.4109530448913574
47, 8163, 8171, 8194, 8194, 8172, 8115, 8161, 8157, 8158, 8176, 8169, 8171, 8130, 8090,2.4109530448913574
48, 8148, 8158, 8174, 8166, 8167, 8105, 8157, 8165, 8159, 8170, 8152, 8160, 8120, 8091,2.426975727081299
49, 8162, 8165, 8165, 8165, 8155, 8079, 8144, 8169, 8176, 8173, 8174, 8179, 8149, 8089,2.426975727081299
50, 8193, 8176, 8198, 8184, 8156, 8072, 8133, 8177, 8180, 8181, 8210, 8222, 8182, 8100,2.4426918029785156
51, 8190, 8180, 8185, 8191, 8166, 8086, 8135, 8178, 8172, 8174, 8214, 8212, 8186, 8099,2.4426918029785156
52, 8169, 8171, 8162, 8167, 8157, 8094, 8123, 8155, 8158, 8150, 8199, 8192, 8166, 8078,2.4581458568573
53, 8169, 8174, 8168, 8169, 8151, 8115, 8120, 8146, 8144, 8137, 8202, 8191, 8156, 8066,2.4581458568573
54, 8175, 8185, 8179, 8206, 8158, 8143, 8136, 8150, 8137, 8148, 8214, 8186, 8154, 8068,2.4736993312835693
55, 8162, 8183, 8195, 8221, 8164, 8150, 8135, 8154, 8133, 8155, 8203, 8180, 8139, 8070,2.4736993312835693
56, 8148, 8177, 8183, 8216, 8165, 8152, 8134, 8156, 8138, 8160, 8196, 8168, 8138, 8067,2.4897148609161377
57, 8147, 8178, 8179, 8213, 8158, 8153, 8145, 8149, 8144, 8170, 8199, 8174, 8140, 8073,2.4897148609161377
58, 8150, 8180, 8176, 8223, 8156, 8148, 8149, 8151, 8150, 8171, 8183, 8174, 8130, 8080,2.505256414413452
59, 8156, 8178, 8164, 8234, 8164, 8145, 8144, 8158, 8158, 8173, 8180, 8175, 8139, 8086,2.505256414413452
60, 8165, 8175, 8176, 8216, 8162, 8151, 8139, 8168, 8165, 8183, 8198, 8196, 8158, 8106,2.5205578804016113
61, 8168, 8159, 8162, 8195, 8146, 8146, 8139, 8171, 8161, 8174, 8195, 8188, 8156, 8107,2.5361673831939697
62, 8168, 8153, 8152, 8183, 8142, 8118, 8121, 8150, 8132, 8134, 8175, 8180, 8143, 8088,2.5361673831939697
63, 8172, 8167, 8164, 8185, 8147, 8106, 8103, 8143, 8119, 8121, 8181, 8188, 8150, 8075,2.5361673831939697
64, 8188, 8174, 8175, 8199, 8153, 8115, 8114, 8154, 8138, 8146, 8221, 8202, 8177, 8083,2.5513014793395996
65, 8200, 8177, 8197, 8194, 8154, 8118, 8122, 8153, 8130, 8140, 8235, 8224, 8178, 8099,2.567110300064087
66, 8186, 8186, 8187, 8197, 8160, 8128, 8127, 8145, 8116, 8122, 8218, 8202, 8162, 8087,2.567110300064087
67, 8177, 8194, 8190, 8220, 8172, 8139, 8130, 8138, 8116, 8133, 8208, 8183, 8157, 8075,2.5832149982452393
68, 8186, 8200, 8213, 8235, 8175, 8141, 8140, 8148, 8113, 8155, 8206, 8189, 8158, 8090,2.5832149982452393
69, 8179, 8191, 8190, 8235, 8169, 8153, 8164, 8157, 8130, 8173, 8203, 8176, 8161, 8100,2.5987095832824707
70, 8166, 8170, 8179, 8216, 8162, 8164, 8170, 8161, 8147, 8171, 8189, 8183, 8153, 8099,2.5987095832824707
71, 8165, 8166, 8166, 8203, 8163, 8155, 8170, 8171, 8151, 8173, 8176, 8186, 8155, 8098,2.614156484603882
72, 8174, 8170, 8155, 8197, 8163, 8126, 8161, 8169, 8152, 8175, 8174, 8188, 8165, 8100,2.614156484603882
73, 8177, 8171, 8167, 8186, 8156, 8108, 8141, 8167, 8148, 8156, 8173, 8198, 8166, 8094,2.6301674842834473
74, 8177, 8171, 8157, 8184, 8155, 8113, 8138, 8169, 8151, 8148, 8183, 8196, 8171, 8085,2.6301674842834473
75, 8183, 8171, 8164, 8183, 8159, 8114, 8142, 8163, 8141, 8139, 8185, 8206, 8166, 8085,2.645679235458374
76, 8176, 8170, 8160, 8174, 8161, 8109, 8147, 8162, 8134, 8129, 8177, 8192, 8154, 8075,2.645679235458374
77, 8166, 8177, 8159, 8179, 8159, 8109, 8150, 8158, 8137, 8130, 8181, 8169, 8148, 8069,2.6617579460144043
78, 8171, 8188, 8190, 8195, 8165, 8130, 8157, 8161, 8139, 8121, 8172, 8176, 8139, 8083,2.6617579460144043
79, 8176, 8176, 8179, 8189, 8168, 8150, 8179, 8166, 8151, 8131, 8157, 8168, 8136, 8087,2.6778500080108643
80, 8166, 8160, 8180, 8175, 8162, 8144, 8183, 8159, 8150, 8156, 8156, 8166, 8129, 8091,2.6778500080108643
81, 8156, 8164, 8179, 8200, 8163, 8146, 8183, 8160, 8152, 8178, 8160, 8166, 8131, 8101,2.693408966064453
82, 8165, 8163, 8161, 8215, 8166, 8152, 8193, 8169, 8175, 8184, 8158, 8169, 8140, 8103,2.693408966064453
83, 8171, 8161, 8166, 8184, 8157, 8143, 8193, 8183, 8191, 8183, 8163, 8188, 8145, 8105,2.693408966064453
84, 8166, 8162, 8155, 8181, 8165, 8143, 8180, 8184, 8199, 8192, 8183, 8193, 8161, 8105,2.709073543548584
85, 8171, 8161, 8167, 8186, 8181, 8137, 8161, 8172, 8184, 8172, 8180, 8204, 8166, 8100,2.724653959274292
86, 8171, 8172, 8174, 8169, 8170, 8128, 8163, 8178, 8183, 8154, 8178, 8207, 8163, 8090,2.724653959274292
87, 8166, 8187, 8158, 8164, 8167, 8129, 8168, 8178, 8192, 8164, 8192, 8196, 8162, 8084,2.740654945373535
88, 8156, 8184, 8172, 8164, 8180, 8129, 8161, 8158, 8173, 8157, 8176, 8191, 8143, 8079,2.740654945373535
89, 8139, 8174, 8162, 8175, 8177, 8129, 8169, 8141, 8150, 8154, 8160, 8159, 8130, 8061,2.7567298412323
90, 8130, 8170, 8157, 8173, 8172, 8137, 8166, 8136, 8138, 8156, 8158, 8151, 8124, 8059,2.7567298412323
91, 8136, 8172, 8167, 8166, 8183, 8146, 8169, 8154, 8148, 8152, 8146, 8163, 8123, 8079,2.7567298412323
92, 8141, 8164, 8160, 8176, 8179, 8147, 8188, 8161, 8169, 8160, 8140, 8159, 8127, 8086,2.7719452381134033
93, 8133, 8141, 8146, 8153, 8158, 8148, 8183, 8159, 8166, 8168, 8131, 8147, 8115, 8072,2.786917209625244
94, 8108, 8120, 8108, 8115, 8158, 8146, 8175, 8172, 8164, 8165, 8119, 8120, 8104, 8053,2.786917209625244
95, 8102, 8120, 8105, 8101, 8159, 8131, 8175, 8177, 8169, 8146, 8127, 8132, 8106, 8052,2.802464008331299
96, 8135, 8138, 8126, 8111, 8155, 8119, 8172, 8174, 8161, 8128, 8144, 8163, 8117, 8067,2.802464008331299
97, 8163, 8150, 8138, 8114, 8161, 8116, 8169, 8162, 8143, 8117, 8152, 8169, 8126, 8071,2.817688465118408
98, 8149, 8155, 8156, 8121, 8163, 8124, 8172, 8142, 8124, 8108, 8152, 8169, 8119, 8056,2.8180201053619385
99, 8146, 8168, 8159, 8149, 8167, 8139, 8179, 8136, 8119, 8115, 8152, 8162, 8112, 8054,2.8328990936279297
100, 8170, 8180, 8180, 8167, 8181, 8149, 8183, 8141, 8124, 8127, 8158, 8174, 8118, 8071,2.8328990936279297
101, 8162, 8172, 8179, 8170, 8190, 8156, 8188, 8152, 8146, 8151, 8163, 8169, 8126, 8073,2.8486688137054443
102, 8129, 8154, 8145, 8168, 8190, 8160, 8188, 8154, 8165, 8176, 8150, 8144, 8115, 8068,2.8486688137054443
103, 8129, 8159, 8155, 8158, 8185, 8155, 8184, 8160, 8164, 8169, 8135, 8161, 8112, 8085,2.8642380237579346
104, 8141, 8165, 8147, 8151, 8176, 8146, 8181, 8179, 8174, 8170, 8144, 8167, 8140, 8088,2.8642380237579346
105, 8137, 8151, 8130, 8143, 8168, 8133, 8172, 8182, 8194, 8191, 8163, 8165, 8164, 8082,2.8794162273406982
106, 8147, 8158, 8152, 8137, 8163, 8123, 8164, 8184, 8185, 8189, 8165, 8186, 8165, 8093,2.8794162273406982
107, 8157, 8183, 8150, 8142, 8176, 8118, 8160, 8177, 8166, 8171, 8164, 8181, 8163, 8080,2.8950555324554443
108, 8140, 8179, 8143, 8125, 8183, 8114, 8141, 8146, 8148, 8149, 8162, 8169, 8144, 8055,2.8950555324554443
109, 8132, 8178, 8154, 8127, 8173, 8120, 8137, 8140, 8136, 8138, 8161, 8168, 8135, 8058,2.910627841949463
110, 8150, 8209, 8173, 8167, 8177, 8123, 8149, 8149, 8133, 8146, 8168, 8177, 8148, 8071,2.910627841949463
111, 8145, 8215, 8180, 8166, 8190, 8125, 8152, 8149, 8124, 8150, 8155, 8175, 8133, 8068,2.9266908168792725
112, 8117, 8184, 8149, 8141, 8187, 8140, 8167, 8148, 8133, 8158, 8134, 8146, 8113, 8062,2.9266908168792725
113, 8117, 8178, 8152, 8139, 8182, 8144, 8179, 8155, 8150, 8162, 8121, 8142, 8113, 8076,2.941981792449951
114, 8134, 8199, 8167, 8160, 8188, 8146, 8186, 8178, 8168, 8167, 8126, 8149, 8125, 8094,2.941981792449951
115, 8139, 8189, 8156, 8165, 8185, 8150, 8204, 8179, 8183, 8183, 8138, 8151, 8136, 8093,2.95808744430542
116, 8118, 8159, 8136, 8124, 8166, 8141, 8201, 8169, 8170, 8171, 8103, 8138, 8113, 8074,2.95808744430542
117, 8104, 8151, 8106, 8100, 8157, 8126, 8184, 8167, 8164, 8161, 8086, 8118, 8103, 8056,2.973439931869507
118, 8138, 8163, 8132, 8119, 8166, 8109, 8171, 8166, 8167, 8157, 8137, 8161, 8138, 8073,2.973439931869507
119, 8161, 8169, 8150, 8144, 8176, 8105, 8164, 8168, 8162, 8148, 8176, 8188, 8167, 8086,2.9891936779022217
120, 8144, 8157, 8123, 8140, 8166, 8109, 8155, 8159, 8163, 8148, 8164, 8163, 8162, 8069,2.9891936779022217
121, 8139, 8151, 8130, 8126, 8156, 8098, 8152, 8157, 8165, 8152, 8156, 8171, 8150, 8064,3.005046844482422
122, 8150, 8154, 8131, 8141, 8165, 8098, 8161, 8160, 8168, 8153, 8170, 8173, 8154, 8066,3.005046844482422
123, 8146, 8161, 8137, 8151, 8168, 8111, 8149, 8152, 8149, 8133, 8155, 8164, 8132, 8060,3.0206854343414307
124, 8127, 8163, 8141, 8148, 8157, 8118, 8143, 8153, 8141, 8130, 8134, 8149, 8110, 8052,3.0206854343414307
125, 8127, 8154, 8127, 8155, 8160, 8119, 8157, 8150, 8160, 8154, 8140, 8143, 8121, 8052,3.0369794368743896
126, 8148, 8158, 8156, 8155, 8171, 8132, 8160, 8153, 8164, 8154, 8144, 8165, 8127, 8073,3.0369794368743896
127, 8154, 8171, 8157, 8170, 8171, 8141, 8164, 8161, 8160, 8158, 8149, 8156, 8130, 8080,3.0526418685913086
237, 8136, 8149, 8143, 8165, 8162, 8129, 8161, 8154, 8142, 8149, 8135, 8137, 8113, 8070,3.0526418685913086
0, 8113, 8112, 8128, 8128, 8147, 8131, 8158, 8159, 8137, 8136, 8109, 8121, 8089, 8059,3.0678746700286865
1, 8109, 8092, 8103, 8109, 8135, 8135, 8168, 8171, 8167, 8162, 8114, 8113, 8105, 8061,3.0678746700286865
2, 8122, 8098, 8129, 8113, 8135, 8130, 8172, 8185, 8176, 8182, 8128, 8141, 8127, 8087,3.083036184310913
3, 8130, 8116, 8129, 8129, 8144, 8136, 8177, 8193, 8186, 8180, 8142, 8146, 8133, 8095,3.083036184310913
4, 8136, 8116, 8118, 8118, 8142, 8121, 8161, 8177, 8190, 8162, 8149, 8147, 8134, 8085,3.09822416305542
5, 8144, 8117, 8134, 8106, 8137, 8100, 8141, 8166, 8173, 8149, 8163, 8167, 8154, 8081,3.09822416305542
6, 8147, 8128, 8135, 8128, 8144, 8105, 8140, 8155, 8168, 8153, 8185, 8171, 8180, 8076,3.113922595977783
7, 8148, 8135, 8153, 8127, 8143, 8108, 8130, 8152, 8163, 8152, 8179, 8180, 8169, 8079,3.113922595977783
8, 8156, 8133, 8152, 8121, 8141, 8105, 8132, 8163, 8168, 8162, 8176, 8173, 8159, 8078,3.1290032863616943
9, 8161, 8125, 8148, 8117, 8138, 8108, 8139, 8156, 8164, 8167, 8184, 8170, 8157, 8074,3.1290032863616943
10, 8141, 8134, 8157, 8111, 8132, 8113, 8140, 8152, 8144, 8152, 8169, 8164, 8141, 8066,3.145020008087158
11, 8120, 8148, 8151, 8135, 8140, 8111, 8153, 8151, 8139, 8149, 8146, 8137, 8128, 8051,3.145020008087158
12, 8121, 8149, 8158, 8145, 8150, 8122, 8159, 8151, 8144, 8147, 8127, 8136, 8110, 8053,3.1610753536224365
13, 8127, 8145, 8146, 8140, 8149, 8144, 8164, 8160, 8154, 8154, 8118, 8129, 8105, 8061,3.1610753536224365
14, 8129, 8140, 8144, 8141, 8140, 8147, 8170, 8163, 8154, 8163, 8119, 8127, 8117, 8070,3.177103042602539
15, 8120, 8125, 8149, 8126, 8136, 8134, 8171, 8167, 8153, 8164, 8115, 8134, 8119, 8077,3.177103042602539
16, 8116, 8115, 8122, 8114, 8136, 8128, 8172, 8168, 8165, 8170, 8124, 8133, 8129, 8075,3.192631244659424
17, 8137, 8131, 8146, 8121, 8138, 8121, 8159, 8167, 8162, 8160, 8155, 8168, 8148, 8079,3.192631244659424
18, 8152, 8142, 8163, 8132, 8140, 8117, 8150, 8165, 8158, 8157, 8174, 8177, 8159, 8076,3.208679676055908
19, 8140, 8131, 8143, 8124, 8132, 8113, 8136, 8141, 8151, 8151, 8156, 8156, 8143, 8059,3.208679676055908
20, 8125, 8134, 8153, 8114, 8129, 8112, 8123, 8129, 8121, 8129, 8144, 8155, 8121, 8047,3.2242159843444824
21, 8128, 8150, 8157, 8132, 8143, 8127, 8133, 8135, 8111, 8133, 8177, 8157, 8132, 8046,3.2242159843444824
22, 8143, 8161, 8175, 8146, 8157, 8138, 8139, 8140, 8124, 8145, 8196, 8172, 8140, 8062,3.2398481369018555
23, 8152, 8171, 8191, 8163, 8163, 8146, 8147, 8152, 8143, 8155, 8180, 8165, 8140, 8075,3.2398481369018555
24, 8139, 8161, 8177, 8177, 8156, 8156, 8161, 8154, 8150, 8171, 8160, 8144, 8136, 8071,3.255629777908325
25, 8111, 8132, 8152, 8151, 8135, 8151, 8160, 8154, 8141, 8177, 8127, 8138, 8119, 8068,3.255629777908325
26, 8107, 8127, 8126, 8132, 8130, 8133, 8156, 8167, 8159, 8183, 8124, 8140, 8132, 8078,3.270810127258301
27, 8142, 8150, 8158, 8136, 8147, 8123, 8146, 8173, 8176, 8185, 8168, 8184, 8168, 8096,3.270810127258301
28, 8161, 8173, 8184, 8153, 8160, 8133, 8143, 8173, 8165, 8183, 8198, 8203, 8182, 8090,3.2859418392181396
29, 8149, 8176, 8179, 8173, 8160, 8135, 8148, 8159, 8147, 8179, 8189, 8178, 8166, 8075,3.2859418392181396
30, 8146, 8168, 8192, 8176, 8156, 8134, 8151, 8156, 8141, 8175, 8167, 8172, 8147, 8080,3.301659107208252
31, 8147, 8154, 8170, 8171, 8146, 8142, 8165, 8172, 8163, 8192, 8155, 8159, 8151, 8085,3.301659107208252
32, 8135, 8126, 8151, 8137, 8130, 8130, 8163, 8170, 8162, 8187, 8143, 8158, 8146, 8086,3.3171775341033936
33, 8125, 8111, 8142, 8113, 8125, 8115, 8150, 8168, 8155, 8165, 8145, 8165, 8145, 8079,3.3171775341033936
34, 8136, 8122, 8139, 8125, 8139, 8113, 8141, 8163, 8162, 8167, 8168, 8173, 8164, 8065,3.3328003883361816
35, 8148, 8144, 8171, 8129, 8144, 8115, 8119, 8143, 8137, 8153, 8171, 8187, 8156, 8061,3.3328003883361816
36, 8147, 8152, 8169, 8136, 8142, 8119, 8110, 8122, 8110, 8137, 8164, 8169, 8135, 8064,3.3485090732574463
37, 8155, 8155, 8173, 8146, 8144, 8118, 8115, 8121, 8105, 8141, 8165, 8167, 8128, 8078,3.3485090732574463
38, 8161, 8170, 8190, 8159, 8143, 8130, 8128, 8144, 8108, 8150, 8157, 8176, 8134, 8087,3.3633248805999756
39, 8146, 8157, 8173, 8163, 8134, 8142, 8147, 8146, 8106, 8149, 8135, 8155, 8124, 8071,3.3633248805999756
40, 8123, 8121, 8159, 8132, 8125, 8139, 8159, 8150, 8109, 8148, 8121, 8152, 8101, 8068,3.379178047180176
41, 8121, 8110, 8134, 8117, 8135, 8142, 8172, 8181, 8147, 8178, 8138, 8156, 8123, 8084,3.395012855529785
42, 8138, 8120, 8138, 8126, 8142, 8141, 8169, 8190, 8167, 8184, 8153, 8174, 8155, 8096,3.395012855529785
43, 8134, 8120, 8148, 8121, 8134, 8130, 8152, 8179, 8148, 8157, 8147, 8174, 8144, 8088,3.4098339080810547
44, 8126, 8116, 8122, 8109, 8137, 8120, 8137, 8163, 8137, 8145, 8149, 8150, 8135, 8071,3.4098339080810547
45, 8144, 8128, 8141, 8116, 8147, 8119, 8128, 8164, 8132, 8138, 8164, 8178, 8154, 8079,3.4249837398529053
46, 8152, 8134, 8149, 8137, 8149, 8123, 8128, 8163, 8124, 8135, 8181, 8192, 8162, 8073,3.4249837398529053
47, 8137, 8130, 8139, 8133, 8148, 8117, 8117, 8133, 8100, 8124, 8181, 8169, 8133, 8046,3.4406583309173584
48, 8125, 8139, 8152, 8128, 8145, 8118, 8116, 8115, 8075, 8105, 8158, 8150, 8114, 8035,3.4406583309173584
49, 8120, 8148, 8155, 8155, 8141, 8137, 8135, 8117, 8071, 8106, 8138, 8138, 8125, 8039,3.4571988582611084
50, 8116, 8140, 8164, 8158, 8137, 8140, 8128, 8123, 8067, 8116, 8131, 8144, 8124, 8050,3.4571988582611084
51, 8124, 8134, 8158, 8151, 8143, 8136, 8122, 8135, 8079, 8128, 8139, 8140, 8131, 8051,3.4728667736053467
52, 8136, 8128, 8157, 8159, 8148, 8149, 8140, 8151, 8107, 8148, 8150, 8149, 8156, 8054,3.4728667736053467
53, 8130, 8117, 8157, 8149, 8140, 8162, 8160, 8175, 8134, 8166, 8147, 8159, 8165, 8073,3.488629102706909
54, 8123, 8110, 8120, 8127, 8127, 8153, 8168, 8188, 8162, 8187, 8147, 8148, 8175, 8081,3.488629102706909
55, 8133, 8110, 8128, 8123, 8123, 8140, 8158, 8178, 8161, 8188, 8150, 8161, 8185, 8079,3.5047404766082764
56, 8151, 8119, 8150, 8141, 8131, 8149, 8155, 8174, 8144, 8182, 8158, 8170, 8198, 8091,3.5047404766082764
57, 8164, 8117, 8147, 8139, 8131, 8150, 8153, 8174, 8150, 8190, 8172, 8179, 8216, 8112,3.519946575164795
58, 8162, 8115, 8148, 8128, 8127, 8136, 8140, 8172, 8151, 8184, 8166, 8190, 8213, 8106,3.519946575164795
59, 8155, 8121, 8134, 8142, 8130, 8136, 8133, 8169, 8139, 8159, 8162, 8180, 8204, 8083,3.5357701778411865
60, 8165, 8122, 8135, 8146, 8134, 8142, 8128, 8162, 8136, 8143, 8172, 8187, 8208, 8088,3.5357701778411865
61, 8176, 8123, 8141, 8147, 8140, 8147, 8131, 8166, 8146, 8162, 8174, 8193, 8216, 8104,3.5510880947113037
62, 8179, 8131, 8145, 8160, 8139, 8142, 8134, 8164, 8143, 8176, 8175, 8189, 8223, 8102,3.5510880947113037
63, 8179, 8129, 8148, 8154, 8129, 8127, 8120, 8153, 8124, 8149, 8172, 8190, 8216, 8092,3.567305564880371
64, 8174, 8119, 8139, 8148, 8132, 8131, 8121, 8150, 8115, 8134, 8169, 8176, 8196, 8076,3.567305564880371
65, 8159, 8126, 8160, 8155, 8145, 8144, 8136, 8147, 8110, 8136, 8168, 8173, 8176, 8064,3.58286452293396
66, 8115, 8124, 8154, 8149, 8146, 8155, 8147, 8158, 8117, 8132, 8151, 8160, 8169, 8066,3.58286452293396
67, 8072, 8101, 8122, 8138, 8136, 8159, 8150, 8163, 8131, 8136, 8127, 8139, 8165, 8072,3.598135232925415
68, 8075, 8091, 8129, 8131, 8128, 8154, 8140, 8159, 8134, 8145, 8117, 8143, 8161, 8079,3.598135232925415
69, 8102, 8096, 8125, 8133, 8132, 8154, 8144, 8169, 8147, 8161, 8127, 8143, 8175, 8086,3.6136534214019775
70, 8123, 8091, 8120, 8121, 8136, 8145, 8146, 8175, 8151, 8157, 8132, 8147, 8174, 8094,3.6136534214019775
71, 8119, 8082, 8114, 8097, 8124, 8128, 8137, 8168, 8129, 8129, 8124, 8140, 8154, 8082,3.628814697265625
72, 8108, 8089, 8098, 8092, 8117, 8118, 8133, 8149, 8114, 8109, 8128, 8129, 8145, 8058,3.628814697265625
73, 8115, 8103, 8106, 8091, 8126, 8126, 8135, 8150, 8109, 8100, 8123, 8133, 8133, 8052,3.6439125537872314
74, 8131, 8109, 8106, 8099, 8136, 8130, 8130, 8157, 8105, 8101, 8118, 8126, 8127, 8050,3.6439125537872314
75, 8137, 8119, 8127, 8112, 8134, 8115, 8115, 8138, 8093, 8092, 8127, 8137, 8127, 8051,3.6590988636016846
76, 8135, 8142, 8148, 8132, 8138, 8124, 8125, 8129, 8084, 8098, 8129, 8137, 8117, 8053,3.6590988636016846
77, 8137, 8144, 8137, 8153, 8152, 8145, 8142, 8130, 8091, 8119, 8122, 8114, 8109, 8048,3.674687385559082
78, 8133, 8131, 8152, 8146, 8152, 8152, 8142, 8145, 8103, 8123, 8113, 8124, 8107, 8057,3.674687385559082
79, 8121, 8127, 8139, 8144, 8142, 8156, 8160, 8169, 8134, 8148, 8117, 8117, 8117, 8063,3.6898276805877686
80, 8125, 8115, 8122, 8134, 8138, 8154, 8174, 8174, 8159, 8177, 8110, 8110, 8115, 8067,3.6898276805877686
81, 8136, 8104, 8131, 8114, 8136, 8151, 8170, 8186, 8175, 8181, 8105, 8126, 8124, 8080,3.7059202194213867
82, 8143, 8102, 8117, 8113, 8139, 8140, 8158, 8188, 8190, 8183, 8131, 8139, 8156, 8089,3.7059202194213867
83, 8151, 8110, 8128, 8109, 8140, 8116, 8132, 8176, 8176, 8173, 8146, 8163, 8160, 8092,3.7210826873779297
84, 8147, 8121, 8119, 8113, 8137, 8107, 8129, 8172, 8169, 8153, 8144, 8156, 8152, 8081,3.7210826873779297
85, 8148, 8126, 8116, 8120, 8140, 8114, 8143, 8164, 8167, 8143, 8156, 8152, 8159, 8077,3.736786365509033
86, 8165, 8141, 8153, 8122, 8149, 8115, 8149, 8164, 8159, 8155, 8166, 8177, 8165, 8087,3.736786365509033
87, 8173, 8156, 8146, 8138, 8153, 8112, 8159, 8160, 8165, 8175, 8166, 8168, 8165, 8079,3.7522878646850586
88, 8166, 8160, 8156, 8150, 8157, 8124, 8162, 8152, 8160, 8162, 8161, 8168, 8155, 8077,3.7522878646850586
89, 8157, 8161, 8169, 8169, 8169, 8148, 8169, 8158, 8162, 8170, 8167, 8163, 8158, 8082,3.7681634426116943
90, 8148, 8150, 8159, 8168, 8162, 8150, 8171, 8155, 8166, 8185, 8146, 8140, 8149, 8080,3.7681634426116943
91, 8144, 8137, 8159, 8151, 8150, 8157, 8174, 8159, 8156, 8177, 8117, 8144, 8131, 8088,3.783904790878296
92, 8151, 8128, 8143, 8156, 8157, 8181, 8194, 8176, 8181, 8197, 8146, 8157, 8157, 8103,3.783904790878296
93, 8154, 8117, 8145, 8141, 8153, 8172, 8188, 8182, 8199, 8217, 8165, 8165, 8171, 8114,3.7990567684173584
94, 8151, 8113, 8136, 8122, 8140, 8156, 8172, 8176, 8190, 8216, 8147, 8149, 8158, 8107,3.7990567684173584
95, 8161, 8115, 8124, 8123, 8134, 8150, 8166, 8166, 8183, 8206, 8144, 8150, 8162, 8103,3.814636707305908
96, 8168, 8113, 8134, 8115, 8129, 8136, 8158, 8175, 8180, 8182, 8154, 8172, 8173, 8111,3.814636707305908
97, 8169, 8116, 8124, 8119, 8133, 8135, 8161, 8189, 8193, 8187, 8166, 8169, 8191, 8111,3.8299593925476074
98, 8184, 8135, 8148, 8128, 8143, 8138, 8157, 8184, 8194, 8198, 8173, 8191, 8199, 8118,3.8299593925476074
99, 8189, 8143, 8154, 8131, 8143, 8129, 8148, 8175, 8186, 8190, 8170, 8193, 8194, 8116,3.84503173828125
100, 8179, 8138, 8137, 8130, 8144, 8123, 8151, 8159, 8176, 8177, 8162, 8172, 8182, 8100,3.84503173828125
101, 8175, 8143, 8157, 8117, 8150, 8135, 8163, 8155, 8155, 8167, 8151, 8176, 8161, 8093,3.861051559448242
102, 8161, 8134, 8148, 8122, 8153, 8154, 8169, 8151, 8145, 8160, 8138, 8154, 8144, 8077,3.861051559448242
103, 8140, 8118, 8142, 8122, 8156, 8163, 8161, 8139, 8132, 8142, 8118, 8136, 8124, 8066,3.877328634262085
104, 8135, 8126, 8148, 8124, 8155, 8171, 8175, 8140, 8127, 8145, 8107, 8135, 8119, 8070,3.877328634262085
105, 8141, 8121, 8138, 8131, 8148, 8165, 8182, 8141, 8138, 8164, 8108, 8133, 8131, 8078,3.8929550647735596
106, 8139, 8101, 8137, 8109, 8140, 8153, 8160, 8149, 8142, 8155, 8094, 8133, 8122, 8081,3.8929550647735596
107, 8138, 8106, 8112, 8104, 8145, 8152, 8167, 8163, 8166, 8157, 8095, 8124, 8128, 8079,3.908616065979004
108, 8147, 8120, 8119, 8111, 8146, 8142, 8176, 8168, 8182, 8169, 8108, 8148, 8150, 8093,3.908616065979004
109, 8151, 8119, 8127, 8102, 8143, 8135, 8165, 8168, 8163, 8157, 8105, 8154, 8149, 8089,3.923754930496216
110, 8155, 8114, 8105, 8095, 8147, 8129, 8153, 8155, 8140, 8134, 8108, 8140, 8136, 8069,3.923754930496216
111, 8170, 8131, 8132, 8100, 8153, 8114, 8134, 8147, 8119, 8118, 8127, 8171, 8140, 8078,3.9389100074768066
112, 8183, 8143, 8149, 8119, 8161, 8116, 8131, 8160, 8127, 8130, 8148, 8182, 8161, 8092,3.9389100074768066
113, 8196, 8135, 8162, 8127, 8160, 8121, 8142, 8166, 8151, 8145, 8154, 8185, 8170, 8099,3.9546730518341064
114, 8202, 8139, 8177, 8135, 8161, 8125, 8150, 8162, 8153, 8152, 8156, 8194, 8167, 8106,3.9546730518341064
115, 8196, 8156, 8166, 8151, 8177, 8136, 8157, 8155, 8142, 8167, 8159, 8181, 8156, 8098,3.970205307006836
116, 8186, 8158, 8181, 8153, 8178, 8135, 8159, 8147, 8128, 8163, 8149, 8172, 8141, 8092,3.9858174324035645
117, 8178, 8152, 8185, 8166, 8167, 8129, 8170, 8142, 8132, 8165, 8147, 8159, 8153, 8097,3.9858174324035645
118, 8183, 8157, 8187, 8178, 8166, 8134, 8170, 8142, 8134, 8180, 8143, 8162, 8153, 8102,3.9858174324035645
119, 8185, 8161, 8179, 8163, 8167, 8140, 8162, 8152, 8128, 8177, 8119, 8158, 8124, 8093,4.001024961471558
120, 8169, 8147, 8144, 8153, 8164, 8131, 8174, 8154, 8140, 8166, 8100, 8137, 8112, 8081,4.02282977104187
121, 8160, 8138, 8151, 8153, 8167, 8131, 8186, 8159, 8151, 8172, 8109, 8154, 8124, 8091,4.02282977104187
122, 8168, 8148, 8153, 8160, 8176, 8145, 8197, 8178, 8176, 8207, 8144, 8166, 8154, 8106,4.02282977104187
123, 8178, 8152, 8151, 8154, 8171, 8126, 8194, 8178, 8186, 8216, 8152, 8172, 8169, 8116,4.032867670059204
124, 8179, 8150, 8155, 8140, 8162, 8109, 8188, 8181, 8175, 8193, 8123, 8180, 8157, 8119,4.049466609954834
125, 8179, 8153, 8143, 8149, 8170, 8118, 8183, 8186, 8172, 8186, 8119, 8169, 8159, 8108,4.049466609954834
126, 8182, 8155, 8154, 8152, 8175, 8103, 8165, 8171, 8164, 8170, 8128, 8174, 8159, 8094,4.049466609954834
127, 8176, 8159, 8146, 8159, 8172, 8082, 8158, 8163, 8156, 8149, 8133, 8171, 8156, 8076,4.065580606460571
237, 8174, 8166, 8150, 8167, 8182, 8087, 8157, 8160, 8143, 8144, 8153, 8174, 8162, 8072,4.065580606460571
0, 8184, 8176, 8175, 8169, 8192, 8102, 8156, 8153, 8128, 8148, 8167, 8184, 8164, 8082,4.081244707107544
1, 8185, 8174, 8161, 8183, 8189, 8103, 8161, 8138, 8124, 8154, 8164, 8166, 8158, 8079,4.081244707107544
2, 8184, 8172, 8175, 8192, 8183, 8106, 8160, 8138, 8119, 8156, 8153, 8161, 8148, 8086,4.0968756675720215
3, 8189, 8170, 8187, 8204, 8182, 8129, 8180, 8164, 8137, 8175, 8154, 8155, 8158, 8105,4.0968756675720215
4, 8184, 8154, 8169, 8197, 8172, 8143, 8192, 8166, 8160, 8190, 8151, 8149, 8162, 8107,4.112056255340576
5, 8172, 8141, 8167, 8174, 8166, 8145, 8175, 8161, 8158, 8183, 8131, 8153, 8150, 8103,4.112056255340576
6, 8174, 8140, 8150, 8177, 8166, 8152, 8171, 8171, 8166, 8192, 8128, 8140, 8161, 8103,4.12801456451416
7, 8173, 8129, 8142, 8164, 8160, 8149, 8171, 8175, 8172, 8190, 8132, 8145, 8164, 8105,4.12801456451416
8, 8161, 8119, 8131, 8151, 8159, 8144, 8171, 8176, 8167, 8184, 8125, 8142, 8158, 8096,4.144658327102661
9, 8175, 8134, 8135, 8169, 8162, 8143, 8171, 8169, 8168, 8192, 8127, 8144, 8173, 8096,4.144658327102661
10, 8196, 8158, 8169, 8177, 8159, 8138, 8161, 8163, 8160, 8175, 8144, 8180, 8185, 8100,4.158819913864136
11, 8191, 8167, 8168, 8175, 8162, 8132, 8159, 8159, 8146, 8156, 8161, 8185, 8182, 8088,4.1740076541900635
12, 8184, 8173, 8181, 8186, 8173, 8135, 8156, 8147, 8128, 8164, 8156, 8174, 8162, 8085,4.1740076541900635
13, 8180, 8176, 8181, 8197, 8176, 8147, 8158, 8139, 8122, 8175, 8132, 8145, 8135, 8084,4.189170598983765
14, 8184, 8160, 8158, 8191, 8165, 8140, 8170, 8142, 8136, 8165, 8121, 8133, 8127, 8089,4.189170598983765
15, 8206, 8163, 8174, 8182, 8162, 8127, 8178, 8164, 8155, 8165, 8137, 8175, 8157, 8122,4.204745054244995
16, 8215, 8180, 8170, 8186, 8168, 8125, 8173, 8176, 8168, 8189, 8162, 8191, 8191, 8133,4.204745054244995
17, 8202, 8173, 8163, 8180, 8164, 8113, 8157, 8162, 8157, 8178, 8169, 8186, 8190, 8118,4.220688819885254
18, 8192, 8167, 8163, 8169, 8163, 8108, 8156, 8164, 8148, 8155, 8166, 8183, 8181, 8114,4.220688819885254
19, 8194, 8171, 8157, 8167, 8169, 8107, 8161, 8167, 8151, 8161, 8165, 8176, 8178, 8112,4.236121892929077
20, 8193, 8173, 8176, 8165, 8159, 8099, 8144, 8156, 8131, 8154, 8158, 8169, 8159, 8103,4.236121892929077
21, 8183, 8174, 8173, 8180, 8163, 8113, 8150, 8157, 8127, 8158, 8151, 8149, 8149, 8100,4.251513957977295
22, 8175, 8174, 8167, 8195, 8185, 8140, 8182, 8171, 8164, 8189, 8145, 8156, 8153, 8114,4.251513957977295
23, 8178, 8164, 8162, 8187, 8181, 8137, 8191, 8191, 8196, 8202, 8145, 8176, 8173, 8129,4.267042636871338
24, 8192, 8153, 8149, 8174, 8166, 8113, 8168, 8181, 8183, 8182, 8168, 8181, 8191, 8119,4.267042636871338
25, 8198, 8163, 8172, 8171, 8171, 8108, 8158, 8156, 8141, 8155, 8174, 8189, 8173, 8101,4.281973600387573
26, 8192, 8173, 8174, 8195, 8180, 8126, 8186, 8160, 8140, 8167, 8157, 8172, 8156, 8099,4.281973600387573
27, 8193, 8169, 8167, 8201, 8174, 8135, 8200, 8176, 8164, 8188, 8151, 8171, 8164, 8122,4.297823905944824
28, 8192, 8160, 8163, 8179, 8164, 8126, 8182, 8182, 8168, 8187, 8157, 8182, 8180, 8132,4.297823905944824
29, 8190, 8151, 8141, 8169, 8165, 8107, 8164, 8172, 8161, 8176, 8164, 8177, 8189, 8112,4.313181400299072
30, 8192, 8170, 8165, 8178, 8181, 8099, 8156, 8155, 8140, 8159, 8176, 8197, 8178, 8102,4.313181400299072
31, 8187, 8206, 8189, 8218, 8195, 8114, 8169, 8156, 8136, 8162, 8187, 8194, 8179, 8101,4.329200029373169
32, 8193, 8213, 8202, 8254, 8191, 8125, 8184, 8162, 8144, 8181, 8186, 8183, 8195, 8108,4.329200029373169
33, 8215, 8204, 8213, 8251, 8187, 8125, 8192, 8167, 8144, 8187, 8180, 8192, 8196, 8132,4.345023155212402
34, 8219, 8203, 8194, 8237, 8196, 8126, 8194, 8169, 8152, 8183, 8181, 8190, 8188, 8148,4.345023155212402
35, 8210, 8198, 8189, 8218, 8187, 8107, 8171, 8171, 8160, 8180, 8176, 8195, 8187, 8145,4.360723972320557
36, 8200, 8186, 8167, 8201, 8171, 8076, 8149, 8173, 8155, 8169, 8178, 8183, 8185, 8117,4.360723972320557
37, 8175, 8187, 8152, 8199, 8171, 8063, 8136, 8151, 8125, 8129, 8173, 8161, 8158, 8077,4.375890016555786
38, 8160, 8193, 8174, 8212, 8178, 8093, 8150, 8149, 8113, 8120, 8163, 8157, 8134, 8074,4.375890016555786
39, 8184, 8187, 8179, 8227, 8182, 8118, 8193, 8178, 8152, 8166, 8172, 8165, 8158, 8111,4.391217470169067
40, 8217, 8183, 8193, 8211, 8179, 8093, 8188, 8185, 8166, 8168, 8175, 8197, 8184, 8136,4.391217470169067
41, 8223, 8195, 8195, 8203, 8175, 8075, 8152, 8168, 8145, 8143, 8184, 8205, 8187, 8122,4.4068763256073
42, 8222, 8205, 8201, 8222, 8185, 8091, 8151, 8147, 8134, 8156, 8209, 8195, 8183, 8112,4.4068763256073
43, 8211, 8208, 8222, 8236, 8192, 8116, 8162, 8139, 8126, 8160, 8194, 8182, 8160, 8105,4.422577857971191
44, 8180, 8186, 8182, 8227, 8191, 8137, 8159, 8134, 8121, 8151, 8155, 8144, 8142, 8081,4.422577857971191
45, 8176, 8153, 8160, 8180, 8179, 8139, 8146, 8142, 8122, 8146, 8144, 8153, 8149, 8091,4.438032865524292
46, 8200, 8163, 8174, 8168, 8168, 8128, 8148, 8164, 8129, 8147, 8166, 8181, 8175, 8116,4.438032865524292
47, 8210, 8194, 8186, 8214, 8171, 8127, 8153, 8152, 8121, 8147, 8191, 8184, 8179, 8108,4.453171968460083
48, 8193, 8181, 8200, 8220, 8173, 8148, 8159, 8140, 8107, 8149, 8183, 8178, 8154, 8096,4.453171968460083
49, 8175, 8146, 8172, 8192, 8167, 8166, 8180, 8164, 8134, 8179, 8170, 8158, 8159, 8108,4.469106674194336
50, 8175, 8145, 8166, 8182, 8165, 8170, 8184, 8180, 8160, 8192, 8174, 8170, 8175, 8121,4.469106674194336
51, 8182, 8161, 8177, 8193, 8171, 8180, 8182, 8181, 8165, 8191, 8180, 8180, 8185, 8119,4.483996391296387
52, 8192, 8158, 8166, 8194, 8173, 8164, 8172, 8178, 8171, 8203, 8184, 8175, 8195, 8121,4.483996391296387
53, 8197, 8154, 8174, 8165, 8166, 8128, 8140, 8169, 8159, 8181, 8173, 8189, 8185, 8125,4.500110149383545
54, 8211, 8168, 8174, 8166, 8171, 8131, 8146, 8163, 8157, 8157, 8176, 8191, 8184, 8114,4.500110149383545
55, 8236, 8190, 8198, 8200, 8186, 8152, 8173, 8172, 8173, 8164, 8196, 8209, 8195, 8117,4.515641927719116
56, 8221, 8199, 8202, 8205, 8185, 8155, 8174, 8188, 8179, 8175, 8195, 8210, 8188, 8121,4.515641927719116
57, 8191, 8185, 8179, 8194, 8177, 8160, 8171, 8169, 8167, 8176, 8178, 8180, 8173, 8104,4.531156063079834
58, 8189, 8174, 8200, 8191, 8179, 8175, 8181, 8154, 8154, 8178, 8169, 8185, 8166, 8101,4.531156063079834
59, 8187, 8164, 8190, 8198, 8186, 8181, 8193, 8167, 8165, 8191, 8148, 8163, 8158, 8105,4.54716682434082
60, 8169, 8143, 8170, 8178, 8184, 8172, 8192, 8165, 8168, 8183, 8111, 8132, 8132, 8104,4.54716682434082
61, 8156, 8129, 8165, 8151, 8184, 8169, 8195, 8166, 8169, 8164, 8104, 8137, 8126, 8103,4.562755107879639
62, 8159, 8123, 8143, 8151, 8184, 8162, 8198, 8182, 8191, 8170, 8122, 8144, 8144, 8094,4.562755107879639
63, 8183, 8129, 8156, 8153, 8184, 8149, 8187, 8195, 8198, 8188, 8135, 8168, 8157, 8103,4.578994512557983
64, 8209, 8151, 8162, 8168, 8198, 8149, 8183, 8194, 8204, 8210, 8166, 8183, 8192, 8117,4.578994512557983
65, 8208, 8154, 8163, 8168, 8203, 8134, 8164, 8170, 8190, 8197, 8182, 8185, 8207, 8115,4.5941479206085205
66, 8195, 8153, 8175, 8164, 8198, 8122, 8147, 8153, 8153, 8171, 8161, 8172, 8175, 8103,4.5941479206085205
67, 8185, 8168, 8168, 8191, 8209, 8140, 8160, 8152, 8152, 8182, 8156, 8150, 8160, 8095,4.6102259159088135
68, 8165, 8162, 8174, 8190, 8215, 8152, 8170, 8163, 8162, 8194, 8153, 8148, 8154, 8099,4.6102259159088135
69, 8148, 8140, 8155, 8174, 8204, 8155, 8186, 8174, 8171, 8197, 8133, 8126, 8141, 8095,4.625760793685913
70, 8155, 8138, 8134, 8168, 8198, 8154, 8197, 8168, 8184, 8198, 8121, 8121, 8135, 8092,4.625760793685913
71, 8159, 8142, 8136, 8156, 8202, 8146, 8184, 8172, 8188, 8197, 8122, 8138, 8139, 8099,4.640854597091675
72, 8154, 8125, 8119, 8140, 8193, 8132, 8169, 8176, 8184, 8196, 8131, 8128, 8148, 8097,4.640854597091675
73, 8163, 8126, 8135, 8132, 8183, 8115, 8153, 8164, 8171, 8171, 8136, 8139, 8151, 8091,4.6570117473602295
74, 8170, 8154, 8142, 8147, 8196, 8106, 8150, 8167, 8165, 8161, 8148, 8145, 8163, 8085,4.6570117473602295
75, 8157, 8155, 8131, 8149, 8200, 8099, 8144, 8160, 8156, 8165, 8155, 8135, 8163, 8072,4.672117471694946
76, 8146, 8148, 8146, 8147, 8190, 8107, 8136, 8143, 8143, 8156, 8145, 8122, 8137, 8058,4.672117471694946
77, 8147, 8161, 8153, 8179, 8207, 8138, 8160, 8148, 8156, 8175, 8143, 8109, 8127, 8062,4.687677621841431
78, 8156, 8168, 8175, 8194, 8223, 8152, 8182, 8159, 8168, 8201, 8146, 8125, 8133, 8085,4.70330286026001
79, 8153, 8154, 8170, 8178, 8207, 8155, 8192, 8162, 8174, 8199, 8144, 8122, 8136, 8091,4.70330286026001
80, 8141, 8136, 8146, 8164, 8203, 8161, 8209, 8166, 8183, 8201, 8143, 8110, 8132, 8088,4.70330286026001
81, 8141, 8133, 8141, 8153, 8214, 8158, 8216, 8182, 8196, 8218, 8138, 8126, 8135, 8098,4.718961954116821
82, 8153, 8142, 8128, 8154, 8210, 8147, 8191, 8180, 8210, 8223, 8150, 8137, 8158, 8103,4.718961954116821
83, 8173, 8157, 8152, 8154, 8201, 8129, 8158, 8165, 8195, 8202, 8170, 8157, 8169, 8103,4.734065771102905
84, 8176, 8160, 8158, 8146, 8199, 8119, 8161, 8174, 8186, 8192, 8172, 8161, 8166, 8096,4.750286817550659
85, 8165, 8153, 8141, 8138, 8198, 8127, 8170, 8169, 8190, 8187, 8171, 8155, 8168, 8084,4.750286817550659
86, 8160, 8169, 8169, 8145, 8210, 8150, 8164, 8155, 8180, 8177, 8175, 8173, 8167, 8085,4.766828298568726
87, 8162, 8188, 8183, 8175, 8225, 8164, 8179, 8159, 8182, 8202, 8174, 8161, 8166, 8086,4.766828298568726
88, 8165, 8177, 8186, 8181, 8219, 8171, 8194, 8159, 8185, 8217, 8153, 8140, 8153, 8086,4.766828298568726
89, 8153, 8160, 8179, 8171, 8209, 8182, 8197, 8163, 8187, 8211, 8129, 8124, 8140, 8083,4.7822418212890625
90, 8136, 8145, 8157, 8169, 8201, 8168, 8196, 8164, 8198, 8219, 8128, 8118, 8141, 8077,4.7822418212890625
91, 8138, 8130, 8153, 8145, 8191, 8137, 8181, 8164, 8193, 8216, 8131, 8132, 8138, 8079,4.79825496673584
92, 8144, 8126, 8139, 8130, 8194, 8131, 8170, 8167, 8190, 8201, 8133, 8127, 8145, 8077,4.79825496673584
93, 8151, 8133, 8151, 8134, 8194, 8132, 8161, 8165, 8188, 8185, 8138, 8141, 8151, 8078,4.813083648681641
94, 8151, 8138, 8160, 8131, 8186, 8119, 8157, 8169, 8181, 8173, 8147, 8152, 8147, 8071,4.828691005706787
95, 8143, 8144, 8142, 8130, 8184, 8106, 8152, 8163, 8175, 8168, 8152, 8139, 8148, 8055,4.828691005706787
96, 8146, 8161, 8165, 8145, 8189, 8107, 8127, 8151, 8158, 8158, 8143, 8146, 8138, 8057,4.844011545181274
97, 8152, 8175, 8178, 8171, 8198, 8124, 8128, 8150, 8151, 8161, 8140, 8138, 8130, 8062,4.844011545181274
98, 8148, 8179, 8183, 8174, 8202, 8139, 8164, 8151, 8154, 8178, 8141, 8129, 8123, 8067,4.85971212387085
99, 8136, 8172, 8181, 8158, 8199, 8149, 8190, 8160, 8159, 8188, 8130, 8129, 8115, 8076,4.85971212387085
100, 8131, 8159, 8150, 8153, 8194, 8150, 8195, 8166, 8166, 8184, 8120, 8121, 8116, 8078,4.875317096710205
101, 8138, 8158, 8163, 8148, 8190, 8142, 8204, 8177, 8172, 8181, 8123, 8138, 8126, 8096,4.875317096710205
102, 8152, 8163, 8169, 8151, 8196, 8147, 8223, 8192, 8194, 8208, 8143, 8149, 8156, 8111,4.891016960144043
103, 8160, 8160, 8165, 8152, 8202, 8145, 8206, 8182, 8209, 8217, 8150, 8153, 8170, 8103,4.891016960144043
104, 8154, 8161, 8175, 8135, 8197, 8134, 8177, 8183, 8207, 8202, 8146, 8162, 8167, 8101,4.905903100967407
105, 8163, 8172, 8173, 8136, 8193, 8133, 8179, 8199, 8215, 8216, 8174, 8171, 8193, 8115,4.905903100967407
106, 8179, 8189, 8194, 8148, 8192, 8140, 8171, 8192, 8207, 8212, 8207, 8193, 8209, 8118,4.921918153762817
107, 8170, 8207, 8195, 8164, 8191, 8142, 8166, 8169, 8188, 8179, 8192, 8173, 8192, 8094,4.921918153762817
108, 8162, 8208, 8187, 8171, 8196, 8134, 8176, 8155, 8164, 8152, 8162, 8149, 8164, 8080,4.937852382659912
109, 8165, 8207, 8197, 8175, 8201, 8141, 8178, 8154, 8147, 8157, 8163, 8161, 8152, 8084,4.937852382659912
110, 8167, 8206, 8188, 8189, 8196, 8152, 8181, 8145, 8155, 8184, 8181, 8158, 8160, 8084,4.952742338180542
111, 8167, 8198, 8194, 8174, 8189, 8149, 8183, 8140, 8154, 8184, 8174, 8155, 8157, 8088,4.952742338180542
112, 8151, 8187, 8180, 8163, 8193, 8155, 8184, 8157, 8156, 8188, 8160, 8142, 8149, 8084,4.968055725097656
113, 8137, 8178, 8162, 8169, 8197, 8159, 8181, 8170, 8177, 8211, 8163, 8132, 8147, 8084,4.968055725097656
114, 8139, 8170, 8172, 8162, 8188, 8155, 8193, 8183, 8193, 8224, 8168, 8133, 8147, 8098,4.983239412307739
115, 8139, 8156, 8159, 8158, 8179, 8154, 8211, 8185, 8198, 8233, 8176, 8126, 8160, 8099,4.983239412307739
116, 8143, 8158, 8163, 8152, 8183, 8150, 8199, 8176, 8191, 8227, 8173, 8149, 8166, 8101,4.998948335647583
117, 8153, 8170, 8165, 8156, 8186, 8146, 8194, 8178, 8182, 8206, 8162, 8154, 8164, 8109,4.998948335647583
118, 8151, 8158, 8153, 8146, 8182, 8129, 8189, 8168, 8170, 8188, 8168, 8148, 8164, 8106,5.014074325561523
119, 8146, 8151, 8159, 8122, 8173, 8110, 8164, 8159, 8158, 8178, 8172, 8166, 8172, 8094,5.014074325561523
120, 8153, 8168, 8154, 8128, 8170, 8110, 8153, 8164, 8164, 8169, 8181, 8163, 8190, 8082,5.029803276062012
121, 8159, 8172, 8167, 8138, 8167, 8107, 8146, 8166, 8160, 8156, 8187, 8169, 8186, 8090,5.029803276062012
122, 8162, 8172, 8167, 8141, 8168, 8109, 8146, 8182, 8157, 8163, 8185, 8172, 8181, 8100,5.045469522476196
123, 8173, 8185, 8162, 8150, 8173, 8127, 8156, 8185, 8167, 8171, 8190, 8167, 8181, 8092,5.045469522476196
124, 8163, 8187, 8187, 8150, 8168, 8149, 8161, 8166, 8154, 8159, 8183, 8166, 8154, 8088,5.0613720417022705
125, 8129, 8168, 8165, 8148, 8160, 8166, 8166, 8154, 8143, 8160, 8159, 8132, 8127, 8071,5.0613720417022705
126, 8115, 8157, 8158, 8150, 8154, 8184, 8165, 8147, 8144, 8166, 8142, 8118, 8119, 8059,5.076181173324585
127, 8138, 8170, 8187, 8166, 8161, 8207, 8177, 8159, 8155, 8178, 8159, 8141, 8131, 8078,5.076181173324585
237, 8166, 8174, 8185, 8179, 8169, 8214, 8191, 8177, 8178, 8205, 8187, 8161, 8157, 8103,5.091807842254639
0, 8165, 8151, 8174, 8155, 8154, 8208, 8173, 8178, 8178, 8202, 8180, 8165, 8158, 8104,5.091807842254639
1, 8151, 8138, 8147, 8143, 8145, 8202, 8163, 8174, 8175, 8187, 8171, 8147, 8161, 8091,5.10694432258606
2, 8159, 8153, 8151, 8150, 8156, 8189, 8169, 8176, 8183, 8181, 8186, 8163, 8179, 8105,5.10694432258606
3, 8183, 8168, 8166, 8156, 8158, 8180, 8162, 8175, 8180, 8178, 8207, 8190, 8192, 8116,5.122158527374268
4, 8189, 8166, 8151, 8163, 8148, 8176, 8140, 8150, 8153, 8167, 8207, 8172, 8182, 8096,5.122158527374268
5, 8174, 8169, 8159, 8151, 8150, 8172, 8136, 8141, 8130, 8142, 8184, 8159, 8160, 8084,5.137793302536011
6, 8163, 8180, 8151, 8153, 8165, 8186, 8157, 8149, 8137, 8150, 8193, 8155, 8160, 8085,5.137793302536011
7, 8170, 8187, 8159, 8172, 8167, 8197, 8157, 8139, 8132, 8168, 8224, 8168, 8165, 8088,5.153354167938232
8, 8171, 8191, 8178, 8181, 8152, 8192, 8144, 8140, 8122, 8162, 8221, 8164, 8160, 8086,5.153354167938232
9, 8154, 8178, 8161, 8178, 8148, 8200, 8156, 8150, 8138, 8169, 8202, 8134, 8162, 8079,5.1689324378967285
10, 8150, 8166, 8166, 8163, 8158, 8212, 8168, 8157, 8145, 8181, 8192, 8143, 8161, 8090,5.1689324378967285
11, 8155, 8168, 8161, 8171, 8167, 8211, 8173, 8164, 8151, 8187, 8189, 8144, 8164, 8098,5.184032201766968
12, 8157, 8160, 8145, 8172, 8161, 8198, 8170, 8162, 8163, 8187, 8184, 8138, 8172, 8095,5.184032201766968
13, 8151, 8145, 8137, 8138, 8148, 8188, 8155, 8167, 8171, 8185, 8176, 8143, 8182, 8094,5.199631929397583
14, 8153, 8144, 8129, 8126, 8148, 8183, 8151, 8175, 8184, 8189, 8192, 8146, 8199, 8095,5.215056419372559
15, 8181, 8168, 8168, 8152, 8158, 8178, 8152, 8178, 8179, 8186, 8218, 8182, 8212, 8108,5.215056419372559
16, 8189, 8180, 8170, 8167, 8168, 8179, 8156, 8174, 8156, 8167, 8217, 8187, 8206, 8103,5.231062650680542
17, 8173, 8173, 8153, 8154, 8169, 8175, 8156, 8155, 8142, 8143, 8205, 8164, 8179, 8082,5.231062650680542
18, 8171, 8185, 8178, 8156, 8168, 8178, 8161, 8155, 8140, 8146, 8200, 8160, 8163, 8080,5.231062650680542
19, 8173, 8198, 8179, 8177, 8175, 8193, 8178, 8162, 8148, 8173, 8194, 8149, 8173, 8083,5.247180938720703
20, 8158, 8185, 8180, 8176, 8180, 8197, 8188, 8154, 8146, 8174, 8176, 8147, 8162, 8085,5.247180938720703
21, 8144, 8170, 8161, 8164, 8171, 8198, 8206, 8167, 8162, 8187, 8165, 8135, 8148, 8085,5.2626564502716064
22, 8156, 8170, 8145, 8158, 8154, 8184, 8207, 8186, 8194, 8210, 8181, 8144, 8170, 8099,5.278675556182861
23, 8182, 8185, 8168, 8155, 8157, 8157, 8183, 8191, 8196, 8197, 8203, 8180, 8195, 8116,5.278675556182861
24, 8187, 8191, 8160, 8163, 8166, 8146, 8177, 8183, 8183, 8180, 8211, 8178, 8199, 8104,5.278675556182861
25, 8179, 8178, 8156, 8154, 8159, 8142, 8162, 8164, 8162, 8166, 8199, 8180, 8188, 8093,5.294232130050659
26, 8181, 8178, 8160, 8150, 8160, 8141, 8136, 8155, 8153, 8155, 8205, 8186, 8184, 8091,5.294232130050659
27, 8192, 8199, 8171, 8163, 8166, 8133, 8127, 8145, 8143, 8144, 8215, 8179, 8177, 8088,5.31026816368103
28, 8185, 8204, 8192, 8164, 8161, 8128, 8133, 8143, 8122, 8136, 8192, 8170, 8159, 8084,5.31026816368103
29, 8172, 8189, 8172, 8168, 8164, 8137, 8145, 8157, 8134, 8161, 8180, 8149, 8162, 8081,5.32890510559082
30, 8167, 8184, 8173, 8168, 8167, 8135, 8140, 8155, 8140, 8174, 8184, 8154, 8154, 8086,5.32890510559082
31, 8149, 8176, 8173, 8166, 8150, 8130, 8139, 8142, 8134, 8158, 8173, 8153, 8134, 8080,5.3409130573272705
32, 8134, 8157, 8152, 8162, 8138, 8136, 8150, 8143, 8146, 8160, 8154, 8132, 8129, 8071,5.356842994689941
33, 8138, 8156, 8166, 8153, 8143, 8146, 8154, 8163, 8156, 8177, 8140, 8133, 8125, 8077,5.356842994689941
34, 8147, 8165, 8165, 8176, 8147, 8148, 8163, 8168, 8167, 8191, 8148, 8132, 8128, 8081,5.3718860149383545
35, 8161, 8159, 8167, 8182, 8144, 8137, 8162, 8165, 8171, 8189, 8161, 8150, 8136, 8093,5.3718860149383545
36, 8169, 8152, 8164, 8154, 8139, 8135, 8156, 8181, 8170, 8187, 8154, 8161, 8142, 8103,5.387934684753418
37, 8162, 8147, 8141, 8136, 8134, 8130, 8156, 8172, 8169, 8187, 8147, 8149, 8140, 8089,5.387934684753418
38, 8153, 8139, 8137, 8120, 8129, 8117, 8144, 8161, 8159, 8170, 8150, 8153, 8136, 8077,5.403964042663574
39, 8152, 8137, 8121, 8117, 8131, 8108, 8138, 8175, 8166, 8161, 8158, 8150, 8148, 8078,5.403964042663574
40, 8169, 8158, 8146, 8134, 8142, 8114, 8149, 8185, 8187, 8165, 8172, 8172, 8163, 8094,5.418837308883667
41, 8190, 8188, 8185, 8157, 8155, 8137, 8165, 8194, 8199, 8182, 8191, 8196, 8181, 8108,5.418837308883667
42, 8190, 8195, 8172, 8162, 8157, 8136, 8159, 8181, 8186, 8192, 8206, 8188, 8191, 8100,5.434936285018921
43, 8184, 8192, 8177, 8150, 8153, 8113, 8140, 8159, 8156, 8171, 8201, 8194, 8173, 8092,5.434936285018921
44, 8185, 8206, 8191, 8175, 8163, 8129, 8161, 8156, 8151, 8166, 8194, 8184, 8164, 8089,5.4508092403411865
45, 8181, 8212, 8195, 8193, 8169, 8150, 8170, 8147, 8151, 8169, 8186, 8175, 8162, 8087,5.4508092403411865
46, 8165, 8201, 8181, 8161, 8155, 8137, 8147, 8144, 8140, 8154, 8170, 8169, 8145, 8080,5.46563982963562
47, 8150, 8179, 8157, 8141, 8147, 8132, 8150, 8153, 8144, 8157, 8158, 8142, 8128, 8073,5.46563982963562
48, 8144, 8166, 8171, 8146, 8144, 8143, 8166, 8161, 8157, 8163, 8149, 8144, 8122, 8082,5.480802059173584
49, 8152, 8166, 8157, 8154, 8143, 8139, 8170, 8176, 8190, 8176, 8165, 8151, 8151, 8095,5.480802059173584
50, 8167, 8162, 8142, 8140, 8148, 8119, 8151, 8177, 8195, 8184, 8189, 8164, 8180, 8094,5.497119903564453
51, 8163, 8161, 8157, 8125, 8148, 8111, 8127, 8164, 8162, 8172, 8191, 8176, 8172, 8077,5.497119903564453
52, 8157, 8179, 8166, 8152, 8151, 8126, 8134, 8154, 8154, 8170, 8196, 8163, 8165, 8073,5.511691331863403
53, 8168, 8192, 8199, 8181, 8162, 8145, 8154, 8157, 8166, 8176, 8187, 8163, 8151, 8095,5.511691331863403
54, 8155, 8179, 8182, 8181, 8159, 8148, 8169, 8174, 8183, 8193, 8158, 8149, 8141, 8096,5.527843952178955
55, 8148, 8167, 8153, 8161, 8150, 8130, 8172, 8187, 8200, 8197, 8156, 8152, 8160, 8094,5.528227090835571
56, 8170, 8179, 8182, 8153, 8155, 8115, 8169, 8194, 8199, 8181, 8178, 8186, 8187, 8108,5.54394793510437
57, 8177, 8188, 8183, 8159, 8159, 8107, 8164, 8175, 8178, 8161, 8189, 8184, 8187, 8090,5.54394793510437
58, 8161, 8185, 8186, 8156, 8152, 8118, 8158, 8151, 8148, 8139, 8173, 8169, 8158, 8070,5.55967903137207
59, 8153, 8188, 8189, 8167, 8161, 8169, 8179, 8156, 8159, 8156, 8160, 8147, 8149, 8076,5.55967903137207
60, 8148, 8178, 8175, 8173, 8166, 8208, 8189, 8166, 8194, 8190, 8166, 8151, 8161, 8089,5.57486629486084
61, 8133, 8157, 8172, 8153, 8148, 8213, 8175, 8176, 8198, 8195, 8158, 8168, 8159, 8097,5.57486629486084
62, 8123, 8146, 8147, 8142, 8132, 8213, 8176, 8179, 8200, 8201, 8149, 8149, 8156, 8103,5.590022802352905
63, 8133, 8147, 8143, 8124, 8126, 8211, 8169, 8172, 8202, 8197, 8153, 8153, 8157, 8113,5.590022802352905
64, 8144, 8151, 8143, 8117, 8131, 8213, 8162, 8174, 8200, 8184, 8160, 8164, 8173, 8110,5.606057643890381
65, 8144, 8154, 8143, 8129, 8133, 8202, 8157, 8168, 8185, 8175, 8169, 8165, 8179, 8102,5.606057643890381
66, 8145, 8165, 8163, 8127, 8129, 8185, 8136, 8151, 8150, 8158, 8170, 8174, 8164, 8094,5.621738433837891
67, 8155, 8180, 8160, 8141, 8143, 8197, 8137, 8140, 8141, 8159, 8184, 8171, 8171, 8084,5.621738433837891
68, 8157, 8187, 8175, 8153, 8152, 8201, 8140, 8131, 8137, 8162, 8189, 8176, 8172, 8084,5.636927843093872
69, 8149, 8187, 8180, 8151, 8139, 8180, 8130, 8130, 8123, 8146, 8176, 8163, 8147, 8079,5.636927843093872
70, 8156, 8187, 8175, 8164, 8138, 8178, 8136, 8131, 8127, 8139, 8171, 8150, 8145, 8080,5.653013229370117
71, 8163, 8193, 8197, 8177, 8149, 8201, 8152, 8142, 8143, 8162, 8173, 8168, 8160, 8103,5.653013229370117
72, 8158, 8190, 8177, 8184, 8153, 8214, 8170, 8165, 8170, 8206, 8182, 8166, 8179, 8128,5.668830156326294
73, 8171, 8175, 8164, 8182, 8146, 8195, 8176, 8179, 8185, 8220, 8183, 8177, 8187, 8146,5.668830156326294
74, 8183, 8166, 8168, 8179, 8137, 8184, 8181, 8187, 8190, 8211, 8181, 8187, 8187, 8144,5.684420108795166
75, 8175, 8169, 8156, 8175, 8142, 8192, 8189, 8188, 8208, 8216, 8187, 8171, 8193, 8137,5.684420108795166
76, 8180, 8172, 8168, 8164, 8153, 8194, 8189, 8191, 8217, 8219, 8188, 8183, 8202, 8152,5.699545621871948
77, 8184, 8163, 8152, 8160, 8151, 8185, 8186, 8189, 8206, 8200, 8186, 8183, 8211, 8147,5.699545621871948
78, 8173, 8156, 8142, 8145, 8138, 8165, 8158, 8164, 8170, 8161, 8182, 8173, 8200, 8118,5.71562123298645
79, 8173, 8168, 8155, 8140, 8141, 8155, 8138, 8155, 8158, 8154, 8181, 8170, 8188, 8106,5.71562123298645
80, 8186, 8183, 8156, 8159, 8151, 8158, 8150, 8155, 8174, 8173, 8186, 8166, 8194, 8105,5.731673955917358
81, 8191, 8197, 8190, 8172, 8159, 8174, 8154, 8155, 8171, 8167, 8187, 8179, 8191, 8113,5.731673955917358
82, 8187, 8198, 8197, 8193, 8165, 8193, 8155, 8166, 8177, 8175, 8190, 8171, 8189, 8122,5.747908115386963
83, 8178, 8180, 8180, 8196, 8160, 8199, 8161, 8160, 8179, 8186, 8169, 8155, 8175, 8117,5.747908115386963
84, 8156, 8166, 8169, 8169, 8152, 8205, 8175, 8150, 8159, 8171, 8130, 8135, 8143, 8100,5.76375675201416
85, 8150, 8152, 8149, 8148, 8139, 8199, 8181, 8155, 8156, 8168, 8120, 8119, 8129, 8091,5.76375675201416
86, 8160, 8139, 8152, 8130, 8125, 8170, 8164, 8161, 8159, 8169, 8116, 8131, 8129, 8095,5.779435634613037
87, 8148, 8136, 8133, 8119, 8129, 8154, 8156, 8163, 8156, 8164, 8106, 8118, 8131, 8091,5.779435634613037
88, 8140, 8133, 8125, 8119, 8138, 8155, 8143, 8157, 8149, 8151, 8117, 8121, 8134, 8088,5.795153856277466
89, 8148, 8138, 8148, 8116, 8139, 8148, 8127, 8160, 8150, 8139, 8138, 8142, 8144, 8086,5.795153856277466
90, 8162, 8158, 8149, 8125, 8141, 8148, 8130, 8165, 8168, 8157, 8159, 8150, 8178, 8082,5.810688495635986
91, 8179, 8171, 8169, 8145, 8155, 8168, 8139, 8166, 8173, 8174, 8175, 8178, 8196, 8096,5.810688495635986
92, 8184, 8176, 8176, 8161, 8164, 8181, 8149, 8167, 8159, 8170, 8176, 8176, 8177, 8098,5.826764822006226
93, 8172, 8176, 8180, 8161, 8162, 8177, 8152, 8155, 8147, 8157, 8160, 8153, 8155, 8084,5.826764822006226
94, 8155, 8177, 8194, 8158, 8164, 8192, 8164, 8153, 8151, 8151, 8141, 8150, 8153, 8092,5.842783689498901
95, 8161, 8174, 8182, 8178, 8169, 8214, 8200, 8168, 8171, 8174, 8146, 8145, 8161, 8106,5.842783689498901
96, 8168, 8155, 8189, 8174, 8165, 8203, 8207, 8173, 8177, 8195, 8147, 8152, 8155, 8109,5.8582305908203125
97, 8153, 8134, 8173, 8149, 8162, 8187, 8188, 8175, 8191, 8203, 8137, 8148, 8155, 8107,5.8582305908203125
98, 8151, 8137, 8149, 8142, 8161, 8176, 8176, 8168, 8199, 8200, 8143, 8149, 8165, 8105,5.874111890792847
99, 8174, 8153, 8171, 8148, 8160, 8162, 8171, 8169, 8186, 8177, 8165, 8178, 8174, 8107,5.874111890792847
100, 8185, 8152, 8177, 8156, 8162, 8155, 8166, 8168, 8178, 8164, 8181, 8186, 8186, 8099,5.890026092529297
101, 8183, 8152, 8187, 8148, 8159, 8149, 8152, 8155, 8157, 8156, 8173, 8189, 8173, 8095,5.890026092529297
102, 8183, 8169, 8191, 8158, 8161, 8154, 8156, 8152, 8148, 8154, 8175, 8184, 8165, 8090,5.905883550643921
103, 8178, 8176, 8189, 8184, 8169, 8165, 8166, 8150, 8163, 8159, 8190, 8173, 8172, 8089,5.905883550643921
104, 8172, 8175, 8210, 8187, 8164, 8171, 8159, 8144, 8152, 8162, 8170, 8170, 8156, 8091,5.921067237854004
105, 8167, 8168, 8194, 8187, 8159, 8172, 8159, 8137, 8141, 8170, 8141, 8145, 8143, 8082,5.921067237854004
106, 8160, 8154, 8185, 8174, 8156, 8160, 8163, 8138, 8146, 8160, 8131, 8135, 8134, 8090,5.937097787857056
107, 8149, 8149, 8185, 8165, 8147, 8163, 8164, 8165, 8165, 8162, 8127, 8134, 8136, 8107,5.937097787857056
108, 8155, 8148, 8171, 8161, 8149, 8168, 8167, 8177, 8191, 8190, 8137, 8138, 8158, 8111,5.953215837478638
109, 8165, 8144, 8179, 8138, 8145, 8150, 8161, 8169, 8186, 8187, 8147, 8161, 8168, 8113,5.953215837478638
110, 8159, 8145, 8167, 8140, 8138, 8138, 8156, 8163, 8165, 8157, 8146, 8160, 8166, 8107,5.969045162200928
111, 8167, 8167, 8184, 8157, 8147, 8138, 8152, 8157, 8153, 8144, 8160, 8176, 8169, 8107,5.969045162200928
112, 8190, 8191, 8218, 8169, 8163, 8150, 8169, 8161, 8167, 8163, 8185, 8191, 8180, 8114,5.98396110534668
113, 8188, 8184, 8211, 8182, 8165, 8164, 8188, 8159, 8172, 8171, 8178, 8168, 8164, 8108,5.98396110534668
114, 8163, 8167, 8205, 8176, 8150, 8169, 8181, 8151, 8148, 8148, 8136, 8155, 8130, 8097,5.999945640563965
115, 8149, 8157, 8182, 8168, 8144, 8179, 8190, 8156, 8165, 8166, 8135, 8141, 8143, 8096,5.999945640563965
116, 8151, 8149, 8180, 8157, 8153, 8180, 8197, 8170, 8200, 8200, 8162, 8157, 8173, 8116,6.0150229930877686
117, 8169, 8153, 8192, 8154, 8156, 8160, 8174, 8187, 8200, 8187, 8173, 8187, 8184, 8126,6.0150229930877686
118, 8187, 8170, 8185, 8168, 8147, 8139, 8147, 8175, 8176, 8160, 8188, 8191, 8198, 8115,6.035614490509033
119, 8195, 8195, 8220, 8181, 8154, 8145, 8142, 8159, 8163, 8155, 8206, 8211, 8202, 8117,6.035614490509033
120, 8199, 8212, 8233, 8201, 8171, 8168, 8166, 8162, 8180, 8178, 8213, 8212, 8197, 8121,6.035614490509033
121, 8199, 8204, 8225, 8204, 8168, 8169, 8170, 8153, 8174, 8172, 8189, 8189, 8175, 8107,6.046130418777466
122, 8176, 8189, 8216, 8189, 8162, 8168, 8167, 8154, 8158, 8165, 8157, 8164, 8147, 8096,6.062257289886475
123, 8157, 8181, 8194, 8190, 8165, 8179, 8194, 8176, 8186, 8207, 8159, 8157, 8154, 8104,6.062257289886475
124, 8168, 8174, 8206, 8186, 8163, 8176, 8198, 8183, 8208, 8214, 8156, 8183, 8162, 8118,6.07695460319519
125, 8177, 8168, 8193, 8174, 8161, 8161, 8174, 8172, 8199, 8178, 8140, 8173, 8157, 8111,6.07695460319519
126, 8187, 8172, 8188, 8174, 8162, 8143, 8156, 8163, 8189, 8167, 8146, 8175, 8165, 8108,6.092987060546875
127, 8202, 8186, 8220, 8179, 8161, 8141, 8163, 8169, 8183, 8170, 8173, 8211, 8185, 8117,6.092987060546875
237, 8204, 8202, 8223, 8180, 8168, 8147, 8177, 8168, 8181, 8158, 8187, 8212, 8198, 8115,6.109094858169556
0, 8212, 8225, 8244, 8197, 8179, 8152, 8175, 8157, 8168, 8153, 8177, 8217, 8190, 8121,6.109094858169556
1, 8212, 8236, 8253, 8239, 8176, 8161, 8178, 8156, 8155, 8164, 8174, 8219, 8179, 8127,6.124903440475464
2, 8196, 8220, 8238, 8244, 8167, 8167, 8186, 8148, 8143, 8163, 8174, 8204, 8164, 8121,6.124903440475464
3, 8182, 8201, 8229, 8214, 8166, 8175, 8189, 8151, 8145, 8167, 8163, 8191, 8152, 8116,6.139978647232056
4, 8178, 8184, 8206, 8214, 8166, 8172, 8192, 8166, 8175, 8195, 8171, 8190, 8163, 8121,6.139978647232056
5, 8174, 8167, 8200, 8210, 8157, 8150, 8179, 8162, 8180, 8194, 8184, 8210, 8168, 8128,6.155071973800659
6, 8173, 8160, 8186, 8193, 8150, 8134, 8166, 8161, 8170, 8178, 8179, 8202, 8168, 8117,6.155071973800659
7, 8189, 8174, 8185, 8200, 8163, 8139, 8164, 8168, 8179, 8183, 8196, 8208, 8192, 8116,6.170230865478516
8, 8208, 8197, 8214, 8216, 8179, 8146, 8164, 8172, 8176, 8185, 8235, 8245, 8214, 8138,6.170230865478516
9, 8214, 8207, 8211, 8233, 8172, 8133, 8164, 8161, 8150, 8165, 8243, 8237, 8211, 8131,6.1860480308532715
10, 8201, 8204, 8220, 8234, 8155, 8116, 8149, 8146, 8126, 8144, 8218, 8222, 8186, 8115,6.1860480308532715
11, 8188, 8203, 8222, 8245, 8163, 8135, 8154, 8158, 8141, 8171, 8211, 8212, 8181, 8127,6.201827526092529
12, 8197, 8189, 8204, 8256, 8175, 8165, 8181, 8166, 8166, 8216, 8219, 8205, 8190, 8140,6.201827526092529
13, 8198, 8173, 8202, 8231, 8160, 8163, 8184, 8165, 8165, 8210, 8206, 8213, 8185, 8136,6.216902017593384
14, 8175, 8167, 8176, 8210, 8150, 8151, 8169, 8162, 8164, 8198, 8197, 8195, 8186, 8127,6.216902017593384
15, 8171, 8167, 8169, 8197, 8151, 8145, 8148, 8154, 8156, 8187, 8198, 8198, 8186, 8130,6.233027219772339
16, 8185, 8174, 8175, 8187, 8142, 8131, 8136, 8162, 8146, 8168, 8195, 8208, 8186, 8127,6.233027219772339
17, 8184, 8176, 8165, 8185, 8139, 8111, 8130, 8157, 8139, 8152, 8198, 8195, 8188, 8109,6.249104261398315
18, 8171, 8178, 8182, 8187, 8155, 8119, 8129, 8145, 8122, 8136, 8195, 8187, 8170, 8097,6.249104261398315
19, 8163, 8183, 8179, 8210, 8168, 8155, 8157, 8154, 8134, 8152, 8185, 8173, 8159, 8102,6.264898300170898
20, 8167, 8174, 8174, 8216, 8162, 8166, 8176, 8166, 8165, 8185, 8176, 8180, 8166, 8128,6.264898300170898
21, 8169, 8165, 8163, 8188, 8159, 8153, 8164, 8168, 8172, 8193, 8174, 8186, 8171, 8132,6.281009912490845
22, 8165, 8168, 8145, 8173, 8161, 8139, 8144, 8165, 8169, 8179, 8176, 8176, 8172, 8108,6.281009912490845
23, 8169, 8178, 8164, 8183, 8160, 8129, 8135, 8166, 8169, 8158, 8174, 8188, 8172, 8099,6.296194791793823
24, 8172, 8181, 8160, 8192, 8164, 8146, 8144, 8157, 8162, 8148, 8176, 8184, 8167, 8087,6.296194791793823
25, 8170, 8189, 8168, 8184, 8166, 8167, 8154, 8134, 8136, 8136, 8174, 8183, 8141, 8075,6.311669588088989
26, 8164, 8203, 8196, 8190, 8165, 8173, 8168, 8141, 8136, 8144, 8175, 8188, 8133, 8088,6.311669588088989
27, 8154, 8191, 8185, 8207, 8171, 8176, 8180, 8164, 8170, 8178, 8180, 8173, 8150, 8099,6.327104091644287
28, 8144, 8167, 8178, 8198, 8174, 8184, 8178, 8177, 8180, 8190, 8168, 8170, 8144, 8097,6.3431150913238525
29, 8145, 8162, 8163, 8190, 8167, 8193, 8190, 8186, 8191, 8199, 8167, 8171, 8146, 8101,6.3431150913238525
30, 8152, 8153, 8153, 8178, 8159, 8183, 8191, 8187, 8203, 8203, 8177, 8187, 8161, 8112,6.3431150913238525
31, 8150, 8133, 8150, 8160, 8159, 8163, 8170, 8186, 8192, 8181, 8173, 8195, 8161, 8111,6.3586883544921875
32, 8158, 8138, 8144, 8166, 8163, 8152, 8167, 8174, 8183, 8164, 8175, 8187, 8168, 8105,6.3586883544921875
33, 8170, 8161, 8172, 8164, 8160, 8144, 8161, 8157, 8169, 8158, 8178, 8205, 8173, 8106,6.37470817565918
34, 8161, 8160, 8163, 8155, 8157, 8150, 8152, 8157, 8161, 8164, 8173, 8193, 8165, 8085,6.37470817565918
35, 8156, 8151, 8153, 8165, 8174, 8174, 8154, 8152, 8159, 8164, 8174, 8178, 8153, 8067,6.3899805545806885
36, 8162, 8169, 8185, 8187, 8185, 8203, 8167, 8148, 8151, 8154, 8175, 8191, 8147, 8079,6.3899805545806885
37, 8148, 8176, 8176, 8194, 8173, 8225, 8177, 8142, 8145, 8158, 8174, 8174, 8149, 8081,6.406057596206665
38, 8128, 8154, 8171, 8178, 8165, 8235, 8175, 8136, 8137, 8164, 8158, 8156, 8137, 8077,6.406057596206665
39, 8129, 8142, 8166, 8187, 8170, 8253, 8184, 8150, 8154, 8186, 8146, 8155, 8142, 8085,6.421231508255005
40, 8145, 8155, 8163, 8200, 8183, 8267, 8194, 8171, 8193, 8219, 8165, 8180, 8174, 8101,6.421231508255005
41, 8153, 8172, 8180, 8189, 8187, 8260, 8197, 8188, 8211, 8228, 8183, 8200, 8188, 8110,6.439044713973999
42, 8148, 8159, 8158, 8180, 8177, 8241, 8198, 8181, 8203, 8212, 8177, 8180, 8188, 8095,6.439044713973999
43, 8154, 8153, 8160, 8167, 8165, 8223, 8185, 8165, 8181, 8188, 8171, 8190, 8192, 8089,6.45270037651062
44, 8170, 8182, 8178, 8171, 8173, 8223, 8179, 8175, 8178, 8181, 8187, 8205, 8203, 8100,6.45270037651062
45, 8174, 8190, 8186, 8191, 8183, 8223, 8179, 8172, 8180, 8183, 8201, 8199, 8197, 8099,6.467445373535156
46, 8168, 8178, 8198, 8179, 8174, 8220, 8175, 8160, 8168, 8178, 8196, 8202, 8182, 8091,6.483288288116455
47, 8160, 8179, 8183, 8174, 8179, 8225, 8182, 8158, 8172, 8187, 8188, 8185, 8182, 8082,6.483288288116455
48, 8153, 8178, 8189, 8190, 8182, 8234, 8185, 8154, 8166, 8190, 8167, 8172, 8164, 8082,6.498657703399658
49, 8146, 8167, 8187, 8193, 8172, 8246, 8198, 8159, 8161, 8197, 8157, 8167, 8150, 8091,6.498657703399658
50, 8152, 8154, 8170, 8175, 8173, 8239, 8211, 8167, 8181, 8212, 8175, 8180, 8179, 8103,6.514087438583374
51, 8161, 8145, 8181, 8154, 8174, 8221, 8201, 8177, 8193, 8206, 8183, 8204, 8197, 8105,6.514087438583374
52, 8155, 8142, 8162, 8154, 8168, 8221, 8199, 8184, 8199, 8198, 8173, 8186, 8182, 8090,6.530012607574463
53, 8145, 8139, 8157, 8147, 8166, 8217, 8192, 8174, 8196, 8190, 8167, 8183, 8174, 8087,6.530012607574463
54, 8146, 8149, 8172, 8147, 8177, 8219, 8181, 8168, 8186, 8183, 8174, 8193, 8183, 8082,6.546119451522827
55, 8162, 8172, 8183, 8175, 8183, 8232, 8186, 8167, 8175, 8179, 8195, 8193, 8182, 8079,6.546119451522827
56, 8170, 8184, 8213, 8195, 8185, 8238, 8189, 8166, 8168, 8183, 8199, 8206, 8173, 8088,6.561790704727173
57, 8158, 8181, 8204, 8204, 8193, 8237, 8186, 8160, 8170, 8198, 8190, 8194, 8185, 8085,6.561790704727173
58, 8144, 8173, 8188, 8190, 8189, 8233, 8181, 8148, 8156, 8175, 8169, 8170, 8170, 8076,6.577045917510986
59, 8135, 8161, 8177, 8173, 8180, 8236, 8194, 8157, 8154, 8164, 8146, 8152, 8147, 8077,6.577045917510986
60, 8136, 8144, 8157, 8173, 8183, 8232, 8206, 8168, 8188, 8203, 8150, 8149, 8168, 8084,6.592244386672974
61, 8144, 8131, 8161, 8152, 8180, 8213, 8187, 8164, 8188, 8192, 8152, 8171, 8179, 8087,6.592244386672974
62, 8151, 8131, 8144, 8132, 8169, 8203, 8175, 8155, 8161, 8146, 8153, 8167, 8163, 8073,6.608160972595215
63, 8162, 8152, 8161, 8142, 8176, 8199, 8180, 8151, 8156, 8147, 8170, 8175, 8159, 8070,6.608160972595215
64, 8167, 8177, 8201, 8171, 8189, 8203, 8188, 8156, 8159, 8173, 8186, 8188, 8164, 8084,6.623664617538452
65, 8155, 8162, 8191, 8190, 8184, 8215, 8201, 8158, 8158, 8178, 8178, 8171, 8163, 8088,6.623664617538452
66, 8153, 8140, 8189, 8175, 8175, 8220, 8203, 8173, 8160, 8175, 8163, 8178, 8160, 8099,6.639047861099243
67, 8164, 8145, 8182, 8163, 8169, 8209, 8206, 8193, 8180, 8186, 8172, 8190, 8183, 8110,6.639047861099243
68, 8172, 8141, 8170, 8150, 8156, 8182, 8190, 8177, 8170, 8171, 8180, 8195, 8191, 8100,6.654615163803101
69, 8175, 8141, 8181, 8145, 8151, 8167, 8168, 8159, 8136, 8139, 8173, 8195, 8169, 8080,6.654615163803101
70, 8175, 8171, 8192, 8184, 8166, 8185, 8182, 8162, 8144, 8149, 8180, 8184, 8169, 8078,6.669764041900635
71, 8170, 8188, 8216, 8212, 8181, 8209, 8206, 8174, 8161, 8176, 8193, 8196, 8176, 8103,6.669764041900635
72, 8158, 8166, 8197, 8200, 8193, 8219, 8218, 8184, 8168, 8195, 8182, 8182, 8172, 8103,6.685847043991089
73, 8145, 8145, 8169, 8179, 8191, 8214, 8210, 8173, 8174, 8200, 8151, 8155, 8159, 8079,6.685847043991089
74, 8144, 8147, 8170, 8175, 8180, 8206, 8198, 8168, 8174, 8187, 8133, 8150, 8147, 8077,6.7019548416137695
75, 8152, 8147, 8151, 8177, 8182, 8200, 8193, 8176, 8179, 8183, 8144, 8149, 8156, 8088,6.7019548416137695
76, 8157, 8142, 8157, 8167, 8181, 8187, 8182, 8180, 8180, 8183, 8151, 8168, 8164, 8095,6.717859745025635
77, 8163, 8153, 8161, 8175, 8167, 8176, 8175, 8187, 8190, 8186, 8159, 8172, 8177, 8102,6.718229055404663
78, 8183, 8171, 8170, 8187, 8173, 8169, 8168, 8178, 8191, 8181, 8187, 8184, 8200, 8111,6.732861518859863
79, 8186, 8177, 8188, 8176, 8179, 8166, 8161, 8163, 8167, 8163, 8189, 8202, 8195, 8102,6.732861518859863
80, 8163, 8165, 8161, 8172, 8164, 8164, 8160, 8152, 8151, 8156, 8163, 8174, 8166, 8075,6.7481606006622314
81, 8155, 8166, 8173, 8184, 8166, 8172, 8161, 8145, 8145, 8158, 8159, 8167, 8154, 8077,6.7481606006622314
82, 8163, 8182, 8198, 8205, 8193, 8195, 8183, 8156, 8161, 8182, 8178, 8170, 8167, 8095,6.763628959655762
83, 8168, 8176, 8186, 8203, 8199, 8199, 8202, 8169, 8176, 8199, 8170, 8163, 8168, 8101,6.763628959655762
84, 8161, 8161, 8174, 8181, 8177, 8189, 8202, 8177, 8177, 8185, 8143, 8168, 8156, 8105,6.779736042022705
85, 8152, 8151, 8163, 8187, 8172, 8193, 8208, 8181, 8194, 8193, 8156, 8161, 8173, 8113,6.779736042022705
86, 8169, 8157, 8186, 8197, 8183, 8194, 8215, 8191, 8213, 8223, 8179, 8182, 8198, 8129,6.795827865600586
87, 8178, 8168, 8183, 8183, 8183, 8179, 8210, 8198, 8212, 8228, 8165, 8187, 8196, 8128,6.795827865600586
88, 8153, 8148, 8141, 8158, 8162, 8152, 8180, 8166, 8185, 8187, 8136, 8157, 8172, 8097,6.810976982116699
89, 8141, 8138, 8149, 8143, 8148, 8125, 8149, 8151, 8161, 8151, 8138, 8164, 8166, 8089,6.810976982116699
90, 8162, 8164, 8162, 8162, 8162, 8123, 8159, 8174, 8172, 8168, 8173, 8186, 8199, 8107,6.827061891555786
91, 8176, 8181, 8180, 8174, 8179, 8132, 8170, 8172, 8178, 8180, 8185, 8201, 8207, 8111,6.827061891555786
92, 8176, 8178, 8195, 8178, 8186, 8135, 8164, 8161, 8171, 8170, 8175, 8195, 8195, 8099,6.842848062515259
93, 8179, 8185, 8189, 8193, 8184, 8133, 8162, 8158, 8168, 8173, 8179, 8181, 8195, 8096,6.842848062515259
94, 8169, 8197, 8205, 8198, 8183, 8134, 8159, 8152, 8153, 8169, 8176, 8175, 8183, 8097,6.857937335968018
95, 8149, 8195, 8198, 8214, 8192, 8148, 8171, 8150, 8158, 8177, 8166, 8155, 8177, 8087,6.857937335968018
96, 8164, 8187, 8199, 8224, 8196, 8159, 8188, 8154, 8179, 8200, 8170, 8162, 8185, 8100,6.873180866241455
97, 8175, 8177, 8201, 8213, 8185, 8160, 8194, 8161, 8187, 8208, 8167, 8163, 8183, 8115,6.873180866241455
98, 8162, 8168, 8179, 8206, 8181, 8151, 8194, 8161, 8191, 8202, 8162, 8146, 8180, 8109,6.8887269496917725
99, 8165, 8171, 8192, 8203, 8183, 8145, 8193, 8170, 8198, 8202, 8163, 8166, 8182, 8111,6.8887269496917725
100, 8173, 8173, 8184, 8207, 8183, 8154, 8206, 8180, 8219, 8221, 8171, 8173, 8193, 8117,6.903891563415527
101, 8175, 8172, 8184, 8199, 8182, 8147, 8197, 8176, 8223, 8227, 8176, 8183, 8204, 8123,6.903891563415527
102, 8185, 8174, 8198, 8184, 8177, 8127, 8174, 8183, 8213, 8216, 8176, 8197, 8214, 8122,6.919067621231079
103, 8190, 8180, 8182, 8192, 8178, 8118, 8168, 8181, 8217, 8216, 8190, 8186, 8219, 8113,6.919067621231079
104, 8179, 8191, 8196, 8193, 8181, 8123, 8159, 8165, 8204, 8201, 8199, 8198, 8208, 8108,6.934665679931641
105, 8177, 8194, 8199, 8195, 8177, 8124, 8159, 8159, 8186, 8184, 8201, 8198, 8208, 8095,6.934665679931641
106, 8189, 8187, 8201, 8204, 8176, 8111, 8156, 8154, 8177, 8180, 8209, 8196, 8214, 8092,6.949849367141724
107, 8192, 8200, 8223, 8206, 8187, 8122, 8159, 8158, 8176, 8184, 8214, 8206, 8208, 8108,6.949849367141724
108, 8183, 8214, 8220, 8226, 8195, 8145, 8180, 8167, 8197, 8196, 8202, 8192, 8199, 8113,6.96501898765564
109, 8171, 8206, 8228, 8246, 8190, 8145, 8188, 8162, 8208, 8199, 8181, 8185, 8183, 8109,6.980636119842529
110, 8164, 8193, 8217, 8244, 8186, 8140, 8185, 8161, 8204, 8211, 8182, 8174, 8183, 8106,6.980636119842529
111, 8164, 8178, 8197, 8218, 8177, 8140, 8179, 8157, 8190, 8217, 8184, 8167, 8180, 8109,6.996716022491455
112, 8165, 8174, 8200, 8202, 8167, 8142, 8181, 8161, 8189, 8198, 8165, 8174, 8169, 8117,6.996716022491455
113, 8168, 8173, 8188, 8207, 8176, 8141, 8187, 8174, 8213, 8195, 8166, 8172, 8189, 8120,6.996716022491455
114, 8167, 8166, 8188, 8185, 8179, 8122, 8172, 8176, 8213, 8199, 8173, 8182, 8205, 8127,7.012836217880249
115, 8171, 8175, 8183, 8185, 8172, 8111, 8171, 8176, 8209, 8204, 8173, 8183, 8208, 8125,7.012836217880249
116, 8190, 8184, 8182, 8199, 8178, 8114, 8173, 8175, 8214, 8206, 8185, 8192, 8219, 8125,7.028040647506714
117, 8194, 8174, 8192, 8179, 8181, 8104, 8151, 8172, 8194, 8190, 8185, 8201, 8218, 8123,7.028040647506714
118, 8179, 8172, 8177, 8171, 8173, 8098, 8149, 8160, 8173, 8174, 8181, 8182, 8206, 8105,7.0439982414245605
119, 8186, 8186, 8193, 8177, 8169, 8102, 8159, 8151, 8167, 8158, 8190, 8197, 8202, 8104,7.0439982414245605
120, 8184, 8183, 8197, 8179, 8169, 8103, 8157, 8160, 8169, 8159, 8193, 8198, 8211, 8109,7.059621572494507
121, 8163, 8169, 8188, 8184, 8169, 8096, 8155, 8156, 8169, 8176, 8181, 8173, 8209, 8101,7.059621572494507
122, 8170, 8182, 8223, 8196, 8176, 8103, 8171, 8158, 8169, 8184, 8181, 8189, 8200, 8108,7.074767827987671
123, 8186, 8197, 8225, 8212, 8189, 8120, 8194, 8167, 8185, 8196, 8195, 8194, 8208, 8125,7.089910268783569
124, 8174, 8186, 8217, 8211, 8186, 8114, 8187, 8159, 8186, 8197, 8180, 8184, 8204, 8133,7.089910268783569
125, 8161, 8176, 8211, 8208, 8182, 8119, 8188, 8163, 8184, 8198, 8162, 8173, 8192, 8130,7.105047702789307
126, 8171, 8178, 8197, 8206, 8184, 8136, 8202, 8169, 8194, 8205, 8174, 8173, 8197, 8124,7.105047702789307
127, 8167, 8179, 8207, 8197, 8176, 8135, 8190, 8173, 8186, 8195, 8172, 8178, 8190, 8119,7.120858907699585
237, 8156, 8166, 8190, 8197, 8171, 8132, 8183, 8179, 8192, 8209, 8154, 8155, 8181, 8113,7.120858907699585
0, 8168, 8160, 8187, 8192, 8175, 8139, 8190, 8176, 8204, 8227, 8149, 8161, 8179, 8118,7.135869979858398
1, 8174, 8163, 8195, 8189, 8181, 8143, 8196, 8181, 8201, 8222, 8156, 8176, 8180, 8128,7.135869979858398
2, 8172, 8158, 8183, 8191, 8187, 8143, 8196, 8185, 8204, 8221, 8164, 8177, 8193, 8132,7.15185022354126
3, 8177, 8157, 8192, 8178, 8184, 8148, 8189, 8187, 8207, 8213, 8155, 8183, 8189, 8127,7.15185022354126
4, 8181, 8159, 8184, 8173, 8173, 8146, 8188, 8193, 8218, 8207, 8158, 8174, 8188, 8112,7.166842699050903
5, 8186, 8159, 8186, 8168, 8169, 8131, 8179, 8191, 8214, 8204, 8175, 8188, 8201, 8114,7.166842699050903
6, 8187, 8167, 8185, 8165, 8176, 8138, 8164, 8180, 8199, 8193, 8177, 8200, 8203, 8117,7.1828930377960205
7, 8188, 8170, 8168, 8174, 8167, 8171, 8161, 8168, 8194, 8187, 8190, 8189, 8203, 8106,7.1828930377960205
8, 8194, 8167, 8185, 8170, 8153, 8202, 8164, 8165, 8184, 8180, 8207, 8201, 8201, 8107,7.199034214019775
9, 8189, 8170, 8181, 8169, 8161, 8222, 8166, 8164, 8170, 8171, 8196, 8193, 8192, 8102,7.199034214019775
10, 8178, 8172, 8183, 8180, 8164, 8229, 8160, 8152, 8152, 8154, 8170, 8177, 8166, 8091,7.215100288391113
11, 8166, 8166, 8186, 8183, 8158, 8242, 8168, 8153, 8145, 8152, 8151, 8161, 8145, 8085,7.215100288391113
12, 8150, 8151, 8154, 8183, 8161, 8259, 8190, 8160, 8163, 8180, 8135, 8135, 8141, 8085,7.231065273284912
13, 8150, 8139, 8163, 8176, 8162, 8260, 8190, 8169, 8182, 8194, 8128, 8152, 8141, 8101,7.231065273284912
14, 8163, 8129, 8160, 8169, 8154, 8256, 8193, 8180, 8200, 8198, 8147, 8162, 8157, 8112,7.247306823730469
15, 8166, 8121, 8139, 8155, 8147, 8243, 8191, 8178, 8201, 8197, 8151, 8157, 8166, 8114,7.247306823730469
16, 8172, 8132, 8150, 8153, 8154, 8230, 8178, 8184, 8199, 8197, 8145, 8173, 8169, 8117,7.262397050857544
17, 8194, 8155, 8158, 8174, 8163, 8229, 8174, 8180, 8199, 8197, 8172, 8185, 8183, 8115,7.262397050857544
18, 8201, 8170, 8178, 8174, 8166, 8227, 8172, 8159, 8168, 8175, 8183, 8188, 8172, 8108,7.277832984924316
19, 8177, 8169, 8169, 8174, 8168, 8234, 8181, 8153, 8152, 8170, 8153, 8153, 8148, 8089,7.277832984924316
20, 8162, 8158, 8160, 8186, 8169, 8246, 8188, 8152, 8158, 8175, 8128, 8129, 8132, 8081,7.293925046920776
21, 8163, 8159, 8179, 8183, 8163, 8247, 8194, 8156, 8152, 8164, 8127, 8142, 8125, 8097,7.293925046920776
22, 8158, 8158, 8161, 8175, 8161, 8241, 8208, 8166, 8162, 8171, 8132, 8135, 8133, 8099,7.309892177581787
23, 8153, 8136, 8152, 8155, 8154, 8232, 8198, 8170, 8179, 8177, 8126, 8133, 8131, 8090,7.309892177581787
24, 8155, 8132, 8145, 8149, 8146, 8222, 8179, 8179, 8184, 8174, 8125, 8133, 8134, 8091,7.325408220291138
25, 8163, 8147, 8141, 8153, 8152, 8209, 8167, 8183, 8189, 8179, 8141, 8145, 8157, 8103,7.325408220291138
26, 8173, 8147, 8151, 8140, 8153, 8201, 8160, 8182, 8190, 8176, 8150, 8163, 8164, 8116,7.3406007289886475
27, 8171, 8142, 8134, 8138, 8148, 8209, 8164, 8169, 8179, 8163, 8155, 8147, 8158, 8107,7.3406007289886475
28, 8169, 8154, 8150, 8142, 8149, 8208, 8158, 8151, 8156, 8153, 8160, 8150, 8157, 8092,7.35619330406189
29, 8175, 8175, 8172, 8150, 8160, 8205, 8155, 8158, 8154, 8161, 8169, 8159, 8163, 8093,7.35619330406189
30, 8175, 8178, 8171, 8169, 8177, 8217, 8169, 8159, 8160, 8160, 8169, 8155, 8159, 8101,7.372168064117432
31, 8164, 8171, 8177, 8180, 8182, 8237, 8181, 8153, 8152, 8157, 8152, 8148, 8142, 8099,7.372168064117432
32, 8159, 8160, 8163, 8179, 8171, 8243, 8189, 8161, 8166, 8189, 8145, 8126, 8146, 8095,7.387792110443115
33, 8166, 8151, 8169, 8164, 8158, 8233, 8188, 8165, 8176, 8199, 8153, 8133, 8155, 8103,7.387792110443115
34, 8164, 8147, 8169, 8161, 8165, 8233, 8196, 8176, 8184, 8194, 8154, 8142, 8157, 8108,7.402956008911133
35, 8162, 8141, 8147, 8166, 8171, 8225, 8206, 8188, 8209, 8214, 8152, 8140, 8168, 8105,7.402956008911133
36, 8172, 8142, 8157, 8149, 8165, 8204, 8189, 8193, 8210, 8216, 8157, 8154, 8176, 8110,7.418645858764648
37, 8175, 8149, 8144, 8143, 8160, 8190, 8175, 8185, 8198, 8196, 8169, 8145, 8183, 8107,7.418645858764648
38, 8178, 8153, 8139, 8140, 8158, 8187, 8168, 8168, 8185, 8175, 8173, 8146, 8179, 8098,7.4337158203125
39, 8184, 8156, 8156, 8136, 8159, 8198, 8168, 8167, 8179, 8164, 8176, 8158, 8172, 8090,7.4337158203125
40, 8180, 8158, 8160, 8150, 8159, 8206, 8174, 8163, 8184, 8167, 8187, 8154, 8168, 8083,7.448895215988159
41, 8169, 8165, 8176, 8165, 8159, 8210, 8177, 8162, 8179, 8164, 8177, 8159, 8153, 8088,7.448895215988159
42, 8161, 8165, 8164, 8171, 8163, 8217, 8184, 8165, 8177, 8166, 8163, 8140, 8148, 8081,7.464314222335815
43, 8156, 8145, 8157, 8162, 8160, 8209, 8181, 8156, 8163, 8160, 8151, 8128, 8134, 8072,7.464314222335815
44, 8150, 8138, 8158, 8157, 8154, 8202, 8185, 8150, 8150, 8150, 8137, 8127, 8120, 8072,7.48006534576416
45, 8146, 8146, 8137, 8161, 8161, 8218, 8201, 8154, 8171, 8172, 8143, 8124, 8134, 8074,7.48006534576416
46, 8146, 8148, 8150, 8157, 8164, 8223, 8200, 8172, 8187, 8192, 8155, 8140, 8146, 8084,7.495112657546997
47, 8148, 8146, 8148, 8163, 8165, 8213, 8198, 8187, 8199, 8196, 8157, 8130, 8155, 8090,7.495112657546997
48, 8162, 8147, 8145, 8163, 8172, 8200, 8187, 8185, 8208, 8190, 8160, 8132, 8159, 8090,7.510733127593994
49, 8182, 8159, 8166, 8158, 8170, 8187, 8170, 8185, 8199, 8181, 8174, 8164, 8163, 8086,7.510733127593994
50, 8187, 8172, 8169, 8169, 8172, 8181, 8167, 8176, 8180, 8177, 8200, 8173, 8180, 8083,7.525872468948364
51, 8183, 8172, 8185, 8163, 8174, 8177, 8160, 8160, 8163, 8170, 8210, 8178, 8183, 8091,7.525872468948364
52, 8177, 8173, 8176, 8162, 8168, 8176, 8152, 8161, 8169, 8168, 8198, 8162, 8175, 8082,7.541934251785278
53, 8172, 8181, 8178, 8176, 8172, 8178, 8151, 8161, 8164, 8157, 8179, 8157, 8162, 8073,7.541934251785278
54, 8163, 8181, 8200, 8179, 8181, 8190, 8158, 8163, 8153, 8158, 8176, 8161, 8149, 8078,7.55730414390564
55, 8150, 8167, 8176, 8182, 8180, 8190, 8173, 8166, 8165, 8183, 8175, 8137, 8146, 8073,7.55730414390564
56, 8144, 8156, 8167, 8174, 8177, 8181, 8171, 8164, 8163, 8171, 8149, 8129, 8136, 8070,7.572820663452148
57, 8137, 8138, 8150, 8163, 8171, 8189, 8174, 8168, 8161, 8160, 8138, 8115, 8130, 8069,7.572820663452148
58, 8134, 8119, 8130, 8146, 8155, 8186, 8176, 8162, 8166, 8174, 8146, 8112, 8130, 8065,7.588688135147095
59, 8139, 8131, 8140, 8131, 8158, 8173, 8172, 8165, 8162, 8176, 8148, 8129, 8139, 8072,7.588688135147095
60, 8154, 8142, 8131, 8142, 8169, 8172, 8175, 8177, 8174, 8177, 8163, 8134, 8166, 8082,7.604098081588745
61, 8163, 8137, 8145, 8140, 8159, 8171, 8165, 8175, 8178, 8169, 8170, 8155, 8166, 8093,7.604098081588745
62, 8159, 8142, 8150, 8125, 8159, 8170, 8158, 8175, 8177, 8164, 8166, 8159, 8161, 8092,7.619963884353638
63, 8162, 8147, 8134, 8121, 8161, 8155, 8139, 8161, 8164, 8155, 8170, 8147, 8164, 8078,7.619963884353638
64, 8163, 8148, 8145, 8124, 8149, 8139, 8118, 8145, 8133, 8141, 8169, 8156, 8157, 8061,7.6360087394714355
65, 8157, 8153, 8148, 8143, 8151, 8147, 8131, 8153, 8134, 8156, 8182, 8160, 8165, 8057,7.6360087394714355
66, 8171, 8160, 8169, 8145, 8160, 8151, 8130, 8156, 8139, 8160, 8197, 8177, 8173, 8073,7.65113639831543
67, 8185, 8170, 8176, 8152, 8162, 8152, 8125, 8146, 8132, 8149, 8195, 8181, 8172, 8075,7.65113639831543
68, 8182, 8180, 8179, 8180, 8178, 8167, 8144, 8148, 8146, 8166, 8198, 8178, 8180, 8079,7.667052984237671
69, 8178, 8189, 8205, 8186, 8194, 8188, 8157, 8166, 8156, 8183, 8197, 8184, 8181, 8093,7.667052984237671
70, 8177, 8184, 8184, 8185, 8193, 8195, 8174, 8169, 8162, 8192, 8182, 8159, 8175, 8090,7.682017803192139
71, 8179, 8166, 8182, 8182, 8186, 8185, 8191, 8169, 8177, 8206, 8167, 8163, 8172, 8095,7.682017803192139
72, 8185, 8151, 8188, 8171, 8177, 8179, 8186, 8185, 8191, 8212, 8171, 8184, 8182, 8112,7.697235345840454
73, 8192, 8150, 8163, 8156, 8174, 8170, 8163, 8177, 8175, 8183, 8178, 8181, 8190, 8109,7.713085889816284
74, 8195, 8167, 8172, 8152, 8173, 8156, 8149, 8164, 8153, 8151, 8180, 8190, 8188, 8095,7.713085889816284
75, 8186, 8185, 8180, 8176, 8176, 8172, 8163, 8165, 8163, 8174, 8186, 8183, 8186, 8081,7.729045867919922
76, 8174, 8184, 8187, 8188, 8183, 8196, 8183, 8167, 8177, 8206, 8185, 8176, 8173, 8089,7.729045867919922
77, 8164, 8168, 8173, 8181, 8179, 8195, 8201, 8184, 8192, 8206, 8181, 8169, 8173, 8108,7.729045867919922
78, 8164, 8151, 8139, 8167, 8172, 8178, 8199, 8191, 8202, 8197, 8187, 8166, 8193, 8108,7.7441086769104
79, 8182, 8154, 8152, 8148, 8166, 8161, 8170, 8183, 8179, 8182, 8189, 8193, 8197, 8107,7.759666204452515
80, 8188, 8172, 8157, 8165, 8165, 8151, 8159, 8178, 8165, 8180, 8197, 8189, 8193, 8100,7.759666204452515
81, 8176, 8177, 8166, 8189, 8176, 8158, 8174, 8173, 8165, 8181, 8204, 8174, 8184, 8095,7.7751624584198
82, 8169, 8173, 8172, 8189, 8185, 8181, 8195, 8177, 8175, 8191, 8190, 8172, 8174, 8104,7.7751624584198
83, 8174, 8167, 8151, 8188, 8170, 8180, 8198, 8171, 8181, 8204, 8181, 8169, 8171, 8104,7.791198492050171
84, 8185, 8167, 8166, 8193, 8153, 8162, 8188, 8158, 8161, 8198, 8183, 8182, 8170, 8105,7.791198492050171
85, 8186, 8168, 8166, 8207, 8169, 8174, 8214, 8172, 8174, 8215, 8189, 8172, 8181, 8114,7.807213306427002
86, 8182, 8156, 8152, 8190, 8183, 8178, 8224, 8183, 8194, 8219, 8183, 8168, 8179, 8116,7.807213306427002
87, 8175, 8143, 8141, 8155, 8174, 8149, 8190, 8176, 8174, 8181, 8166, 8171, 8157, 8095,7.822940349578857
88, 8172, 8146, 8119, 8159, 8163, 8124, 8169, 8167, 8165, 8168, 8176, 8161, 8162, 8074,7.822940349578857
89, 8182, 8156, 8134, 8166, 8155, 8114, 8163, 8162, 8161, 8158, 8194, 8178, 8173, 8077,7.838625192642212
90, 8181, 8167, 8137, 8164, 8157, 8111, 8161, 8162, 8146, 8140, 8192, 8178, 8168, 8074,7.838625192642212
91, 8174, 8176, 8145, 8172, 8171, 8118, 8164, 8159, 8136, 8146, 8182, 8165, 8158, 8066,7.85417366027832
92, 8171, 8181, 8166, 8192, 8181, 8144, 8187, 8166, 8146, 8170, 8180, 8158, 8148, 8069,7.85417366027832
93, 8172, 8171, 8153, 8209, 8182, 8157, 8209, 8171, 8176, 8192, 8183, 8143, 8149, 8078,7.869841575622559
94, 8173, 8154, 8157, 8195, 8172, 8150, 8194, 8177, 8187, 8199, 8172, 8155, 8149, 8087,7.869841575622559
95, 8171, 8145, 8148, 8182, 8163, 8144, 8182, 8189, 8190, 8202, 8167, 8156, 8154, 8088,7.884936571121216
96, 8182, 8146, 8137, 8180, 8169, 8130, 8183, 8188, 8202, 8200, 8189, 8161, 8176, 8097,7.884936571121216
97, 8189, 8154, 8155, 8175, 8178, 8121, 8171, 8184, 8206, 8196, 8195, 8182, 8194, 8103,7.900212287902832
98, 8189, 8157, 8144, 8174, 8172, 8120, 8156, 8172, 8183, 8181, 8185, 8172, 8184, 8079,7.900212287902832
99, 8195, 8165, 8159, 8171, 8161, 8109, 8153, 8159, 8154, 8147, 8193, 8181, 8163, 8067,7.915837287902832
100, 8199, 8187, 8178, 8189, 8174, 8116, 8170, 8177, 8165, 8151, 8207, 8190, 8160, 8073,7.915837287902832
101, 8192, 8189, 8171, 8215, 8184, 8135, 8188, 8184, 8175, 8167, 8190, 8178, 8152, 8074,7.931104421615601
102, 8178, 8165, 8169, 8204, 8170, 8136, 8196, 8177, 8168, 8168, 8162, 8169, 8133, 8077,7.931104421615601
103, 8183, 8153, 8148, 8180, 8165, 8126, 8196, 8175, 8184, 8181, 8181, 8166, 8154, 8083,7.946815729141235
104, 8200, 8170, 8153, 8171, 8172, 8114, 8179, 8174, 8195, 8169, 8199, 8193, 8182, 8095,7.946815729141235
105, 8203, 8183, 8166, 8189, 8175, 8112, 8169, 8181, 8187, 8148, 8190, 8204, 8186, 8092,7.962620735168457
106, 8200, 8184, 8172, 8204, 8179, 8115, 8159, 8171, 8174, 8150, 8194, 8197, 8178, 8080,7.962620735168457
107, 8198, 8195, 8191, 8204, 8183, 8117, 8152, 8159, 8160, 8157, 8202, 8204, 8164, 8080,7.977777004241943
108, 8185, 8189, 8174, 8215, 8188, 8128, 8176, 8166, 8170, 8179, 8188, 8185, 8162, 8077,7.977777004241943
109, 8165, 8159, 8163, 8210, 8181, 8132, 8186, 8169, 8176, 8190, 8167, 8172, 8152, 8074,7.993892669677734
110, 8165, 8155, 8155, 8198, 8173, 8129, 8180, 8171, 8170, 8176, 8170, 8179, 8144, 8076,7.993892669677734
111, 8187, 8167, 8146, 8198, 8178, 8119, 8174, 8168, 8170, 8167, 8191, 8191, 8164, 8075,8.00928783416748
112, 8195, 8170, 8167, 8194, 8181, 8098, 8150, 8168, 8163, 8162, 8203, 8210, 8181, 8076,8.00928783416748
113, 8189, 8175, 8165, 8203, 8177, 8085, 8139, 8167, 8158, 8153, 8210, 8202, 8180, 8074,8.024420976638794
114, 8192, 8185, 8179, 8219, 8169, 8091, 8141, 8153, 8143, 8143, 8203, 8201, 8158, 8073,8.024420976638794
115, 8193, 8193, 8202, 8240, 8172, 8107, 8153, 8158, 8142, 8155, 8194, 8201, 8147, 8075,8.04510760307312
116, 8190, 8187, 8189, 8251, 8179, 8118, 8176, 8171, 8165, 8175, 8194, 8192, 8157, 8079,8.04510760307312
117, 8191, 8174, 8186, 8229, 8177, 8122, 8185, 8170, 8169, 8166, 8183, 8201, 8154, 8090,8.04510760307312
118, 8190, 8159, 8167, 8216, 8168, 8120, 8182, 8172, 8175, 8171, 8184, 8199, 8163, 8101,8.055233478546143
119, 8194, 8154, 8167, 8211, 8160, 8104, 8164, 8172, 8180, 8186, 8202, 8213, 8187, 8103,8.070452213287354
120, 8208, 8162, 8185, 8201, 8161, 8099, 8150, 8168, 8166, 8175, 8218, 8230, 8196, 8089,8.070452213287354
121, 8223, 8172, 8190, 8214, 8172, 8113, 8152, 8161, 8153, 8167, 8242, 8232, 8205, 8084,8.086167812347412
122, 8230, 8191, 8222, 8244, 8183, 8119, 8145, 8151, 8135, 8161, 8241, 8248, 8198, 8093,8.086167812347412
123, 8222, 8207, 8224, 8266, 8184, 8119, 8141, 8142, 8115, 8145, 8219, 8230, 8179, 8082,8.101754188537598
124, 8223, 8204, 8228, 8274, 8178, 8132, 8155, 8150, 8110, 8139, 8222, 8225, 8175, 8078,8.101754188537598
125, 8228, 8198, 8242, 8279, 8190, 8155, 8185, 8173, 8130, 8159, 8227, 8234, 8177, 8095,8.117177486419678
126, 8212, 8186, 8203, 8268, 8190, 8154, 8194, 8173, 8154, 8183, 8206, 8212, 8175, 8094,8.117177486419678
127, 8198, 8166, 8187, 8224, 8166, 8128, 8169, 8171, 8153, 8172, 8188, 8216, 8175, 8095,8.133043050765991
237, 8210, 8161, 8188, 8212, 8161, 8121, 8165, 8194, 8167, 8166, 8201, 8221, 8191, 8101,8.133043050765991
0, 8233, 8169, 8198, 8232, 8167, 8117, 8167, 8197, 8187, 8178, 8219, 8235, 8201, 8108,8.148210763931274
1, 8242, 8176, 8220, 8232, 8159, 8105, 8145, 8182, 8175, 8171, 8226, 8265, 8207, 8113,8.148576974868774
2, 8248, 8188, 8216, 8240, 8169, 8109, 8146, 8167, 8166, 8158, 8243, 8271, 8227, 8112,8.16334867477417
3, 8266, 8206, 8245, 8257, 8184, 8119, 8156, 8161, 8159, 8147, 8250, 8280, 8225, 8118,8.16334867477417
4, 8257, 8208, 8254, 8268, 8176, 8130, 8161, 8170, 8156, 8163, 8250, 8271, 8214, 8113,8.179021120071411
5, 8234, 8184, 8233, 8266, 8164, 8143, 8171, 8172, 8160, 8181, 8247, 8256, 8209, 8103,8.179021120071411
6, 8234, 8171, 8234, 8258, 8167, 8155, 8183, 8176, 8169, 8187, 8230, 8255, 8210, 8111,8.195027112960815
7, 8235, 8172, 8214, 8249, 8170, 8155, 8187, 8184, 8191, 8203, 8225, 8246, 8223, 8117,8.195027112960815
8, 8235, 8173, 8218, 8227, 8168, 8143, 8172, 8186, 8193, 8193, 8239, 8266, 8224, 8112,8.210728883743286
9, 8239, 8182, 8221, 8225, 8169, 8140, 8170, 8184, 8184, 8169, 8252, 8268, 8221, 8098,8.210728883743286
10, 8224, 8185, 8207, 8231, 8164, 8136, 8166, 8166, 8179, 8160, 8233, 8234, 8207, 8074,8.226180076599121
11, 8194, 8177, 8207, 8219, 8161, 8137, 8160, 8164, 8180, 8160, 8196, 8223, 8184, 8070,8.226180076599121
12, 8178, 8159, 8185, 8213, 8167, 8152, 8176, 8172, 8187, 8170, 8185, 8215, 8181, 8074,8.241463899612427
13, 8168, 8142, 8177, 8201, 8167, 8159, 8191, 8171, 8179, 8172, 8175, 8203, 8173, 8071,8.257192611694336
14, 8150, 8129, 8150, 8177, 8155, 8159, 8190, 8183, 8186, 8171, 8152, 8178, 8160, 8059,8.257192611694336
15, 8153, 8117, 8124, 8152, 8147, 8160, 8168, 8183, 8201, 8165, 8153, 8180, 8170, 8054,8.257192611694336
16, 8169, 8134, 8160, 8151, 8156, 8186, 8161, 8175, 8196, 8155, 8176, 8220, 8181, 8060,8.272856712341309
17, 8171, 8170, 8169, 8195, 8178, 8235, 8186, 8176, 8196, 8169, 8184, 8206, 8177, 8054,8.287904500961304
18, 8164, 8173, 8165, 8211, 8184, 8269, 8193, 8166, 8188, 8168, 8161, 8177, 8151, 8046,8.287904500961304
19, 8154, 8147, 8161, 8185, 8174, 8287, 8196, 8161, 8180, 8153, 8133, 8162, 8130, 8043,8.303042650222778
20, 8150, 8127, 8139, 8169, 8163, 8287, 8217, 8163, 8192, 8168, 8122, 8150, 8137, 8052,8.303042650222778
21, 8156, 8120, 8137, 8155, 8158, 8275, 8214, 8169, 8193, 8182, 8114, 8158, 8147, 8063,8.31870174407959
22, 8152, 8115, 8115, 8145, 8160, 8262, 8192, 8179, 8198, 8172, 8118, 8153, 8156, 8054,8.31870174407959
23, 8143, 8109, 8113, 8130, 8154, 8245, 8172, 8174, 8202, 8152, 8128, 8164, 8165, 8050,8.333775043487549
24, 8160, 8122, 8130, 8125, 8152, 8238, 8177, 8175, 8195, 8152, 8145, 8186, 8183, 8066,8.333775043487549
25, 8192, 8154, 8137, 8157, 8166, 8237, 8192, 8172, 8190, 8165, 8174, 8191, 8196, 8075,8.348936080932617
26, 8197, 8171, 8165, 8168, 8169, 8237, 8180, 8161, 8177, 8151, 8175, 8199, 8175, 8075,8.348936080932617
27, 8176, 8169, 8164, 8173, 8168, 8260, 8186, 8168, 8184, 8152, 8155, 8179, 8168, 8075,8.36407732963562
28, 8175, 8165, 8166, 8195, 8181, 8280, 8214, 8179, 8200, 8187, 8146, 8173, 8170, 8088,8.36407732963562
29, 8178, 8158, 8175, 8190, 8180, 8275, 8223, 8178, 8195, 8202, 8135, 8177, 8152, 8093,8.379782915115356
30, 8169, 8139, 8151, 8163, 8161, 8270, 8216, 8176, 8193, 8192, 8125, 8165, 8146, 8089,8.379782915115356
31, 8172, 8131, 8151, 8141, 8155, 8257, 8205, 8187, 8205, 8182, 8124, 8177, 8163, 8101,8.39542841911316
32, 8177, 8140, 8140, 8142, 8158, 8240, 8198, 8196, 8221, 8187, 8138, 8183, 8180, 8096,8.39542841911316
33, 8177, 8146, 8132, 8138, 8152, 8227, 8179, 8182, 8204, 8174, 8150, 8185, 8177, 8073,8.411406755447388
34, 8173, 8152, 8149, 8132, 8153, 8220, 8163, 8175, 8175, 8146, 8150, 8184, 8165, 8065,8.411406755447388
35, 8168, 8161, 8144, 8149, 8165, 8222, 8171, 8166, 8168, 8146, 8154, 8169, 8160, 8064,8.42685580253601
36, 8163, 8160, 8155, 8156, 8161, 8229, 8165, 8147, 8154, 8139, 8143, 8167, 8140, 8053,8.42685580253601
37, 8154, 8151, 8151, 8155, 8157, 8239, 8165, 8146, 8144, 8128, 8124, 8145, 8125, 8040,8.442789793014526
38, 8149, 8149, 8149, 8154, 8167, 8239, 8186, 8160, 8160, 8146, 8131, 8135, 8131, 8047,8.442789793014526
39, 8140, 8145, 8155, 8154, 8162, 8237, 8200, 8178, 8180, 8173, 8134, 8145, 8133, 8057,8.457884550094604
40, 8127, 8121, 8122, 8147, 8146, 8238, 8202, 8178, 8192, 8184, 8119, 8130, 8131, 8047,8.457884550094604
41, 8130, 8108, 8123, 8118, 8144, 8231, 8189, 8179, 8195, 8178, 8117, 8136, 8138, 8056,8.473440885543823
42, 8150, 8127, 8132, 8114, 8148, 8221, 8186, 8191, 8203, 8182, 8132, 8145, 8156, 8072,8.473440885543823
43, 8164, 8135, 8127, 8121, 8147, 8207, 8181, 8170, 8194, 8166, 8132, 8153, 8156, 8063,8.488584995269775
44, 8161, 8140, 8134, 8113, 8147, 8198, 8167, 8153, 8166, 8130, 8130, 8168, 8145, 8047,8.488584995269775
45, 8160, 8161, 8133, 8131, 8156, 8205, 8167, 8166, 8169, 8137, 8151, 8153, 8158, 8044,8.504669666290283
46, 8166, 8170, 8164, 8146, 8160, 8219, 8176, 8166, 8177, 8150, 8155, 8149, 8152, 8058,8.504669666290283
47, 8154, 8159, 8173, 8146, 8164, 8237, 8184, 8159, 8169, 8152, 8143, 8144, 8126, 8059,8.52072548866272
48, 8140, 8144, 8150, 8143, 8163, 8241, 8184, 8159, 8166, 8158, 8127, 8128, 8115, 8047,8.52072548866272
49, 8138, 8136, 8148, 8134, 8152, 8226, 8190, 8169, 8180, 8161, 8108, 8123, 8113, 8053,8.536765336990356
50, 8142, 8127, 8130, 8128, 8153, 8212, 8194, 8175, 8204, 8172, 8127, 8121, 8136, 8067,8.536765336990356
51, 8155, 8121, 8132, 8109, 8152, 8194, 8165, 8170, 8193, 8166, 8144, 8145, 8155, 8072,8.552005767822266
52, 8161, 8123, 8132, 8099, 8138, 8173, 8146, 8166, 8168, 8145, 8124, 8148, 8142, 8060,8.552005767822266
53, 8151, 8132, 8122, 8110, 8133, 8164, 8140, 8157, 8163, 8131, 8120, 8133, 8126, 8050,8.567164897918701
54, 8152, 8157, 8155, 8122, 8153, 8176, 8134, 8155, 8156, 8125, 8145, 8154, 8136, 8055,8.567164897918701
55, 8165, 8181, 8165, 8146, 8175, 8194, 8160, 8162, 8160, 8135, 8170, 8162, 8157, 8057,8.583204507827759
56, 8171, 8181, 8168, 8155, 8171, 8186, 8165, 8154, 8150, 8134, 8160, 8156, 8141, 8053,8.583204507827759
57, 8152, 8172, 8170, 8150, 8154, 8180, 8142, 8146, 8131, 8125, 8130, 8135, 8114, 8041,8.598430395126343
58, 8126, 8152, 8146, 8144, 8147, 8193, 8150, 8146, 8131, 8125, 8117, 8107, 8109, 8030,8.598430395126343
59, 8113, 8132, 8139, 8127, 8151, 8200, 8169, 8155, 8140, 8128, 8108, 8107, 8105, 8034,8.613652229309082
60, 8121, 8134, 8134, 8134, 8156, 8201, 8179, 8168, 8164, 8148, 8112, 8101, 8115, 8041,8.613652229309082
61, 8135, 8141, 8143, 8140, 8156, 8196, 8178, 8168, 8180, 8164, 8128, 8119, 8128, 8051,8.628810167312622
62, 8131, 8141, 8134, 8117, 8152, 8192, 8177, 8168, 8184, 8161, 8129, 8132, 8131, 8055,8.628810167312622
63, 8126, 8139, 8111, 8104, 8151, 8182, 8168, 8162, 8184, 8157, 8130, 8121, 8141, 8047,8.64401388168335
64, 8145, 8152, 8141, 8107, 8151, 8164, 8148, 8159, 8173, 8147, 8144, 8141, 8144, 8051,8.64401388168335
65, 8156, 8158, 8134, 8113, 8153, 8163, 8149, 8157, 8174, 8147, 8150, 8144, 8140, 8048,8.659645318984985
66, 8150, 8156, 8123, 8111, 8154, 8173, 8156, 8146, 8171, 8133, 8144, 8138, 8133, 8040,8.659645318984985
67, 8154, 8174, 8153, 8120, 8157, 8176, 8165, 8155, 8164, 8120, 8148, 8144, 8133, 8045,8.674662828445435
68, 8155, 8186, 8153, 8144, 8159, 8172, 8173, 8156, 8168, 8141, 8161, 8138, 8140, 8042,8.674662828445435
69, 8146, 8178, 8158, 8148, 8154, 8173, 8163, 8145, 8158, 8151, 8159, 8147, 8128, 8041,8.690700769424438
70, 8148, 8177, 8154, 8149, 8158, 8186, 8162, 8145, 8158, 8155, 8154, 8139, 8130, 8045,8.690700769424438
71, 8148, 8181, 8151, 8149, 8161, 8183, 8162, 8139, 8156, 8158, 8145, 8130, 8137, 8049,8.70671820640564
72, 8130, 8173, 8156, 8139, 8151, 8176, 8165, 8141, 8143, 8148, 8125, 8122, 8126, 8045,8.70671820640564
73, 8123, 8161, 8129, 8134, 8148, 8177, 8174, 8158, 8161, 8152, 8124, 8109, 8133, 8042,8.722001314163208
74, 8137, 8163, 8123, 8118, 8149, 8160, 8165, 8171, 8183, 8158, 8133, 8133, 8153, 8049,8.722001314163208
75, 8141, 8172, 8121, 8111, 8143, 8129, 8160, 8174, 8189, 8163, 8148, 8150, 8170, 8048,8.737078428268433
76, 8141, 8171, 8129, 8117, 8144, 8108, 8158, 8169, 8189, 8167, 8165, 8157, 8177, 8050,8.75184416770935
77, 8142, 8173, 8145, 8117, 8150, 8111, 8143, 8164, 8173, 8144, 8160, 8160, 8169, 8048,8.75184416770935
78, 8136, 8175, 8124, 8119, 8145, 8117, 8144, 8146, 8149, 8122, 8149, 8140, 8153, 8021,8.7672278881073
79, 8131, 8173, 8141, 8117, 8134, 8111, 8146, 8133, 8133, 8126, 8149, 8143, 8138, 8011,8.7672278881073
80, 8129, 8176, 8161, 8135, 8141, 8126, 8152, 8151, 8155, 8150, 8159, 8140, 8139, 8020,8.78288745880127
81, 8133, 8178, 8157, 8157, 8157, 8155, 8167, 8162, 8178, 8160, 8153, 8127, 8135, 8027,8.78288745880127
82, 8140, 8169, 8163, 8148, 8160, 8163, 8175, 8170, 8183, 8166, 8134, 8131, 8126, 8039,8.798128366470337
83, 8151, 8167, 8151, 8141, 8159, 8152, 8178, 8187, 8207, 8190, 8155, 8139, 8155, 8058,8.798128366470337
84, 8177, 8184, 8165, 8144, 8157, 8145, 8171, 8183, 8211, 8182, 8192, 8180, 8188, 8076,8.813630819320679
85, 8190, 8201, 8176, 8158, 8164, 8144, 8169, 8170, 8190, 8172, 8198, 8193, 8186, 8072,8.813630819320679
86, 8177, 8205, 8179, 8179, 8176, 8143, 8175, 8163, 8186, 8189, 8181, 8171, 8169, 8061,8.829689025878906
87, 8161, 8194, 8193, 8185, 8175, 8150, 8181, 8162, 8179, 8186, 8159, 8164, 8152, 8064,8.829689025878906
88, 8147, 8170, 8152, 8177, 8163, 8157, 8186, 8156, 8174, 8181, 8154, 8142, 8146, 8062,8.844760179519653
89, 8150, 8158, 8137, 8155, 8157, 8141, 8167, 8152, 8174, 8178, 8157, 8142, 8148, 8065,8.844760179519653
90, 8169, 8179, 8153, 8153, 8159, 8122, 8149, 8162, 8179, 8171, 8169, 8165, 8166, 8064,8.859940767288208
91, 8177, 8198, 8147, 8171, 8161, 8119, 8146, 8149, 8168, 8160, 8185, 8174, 8179, 8051,8.859940767288208
92, 8166, 8205, 8169, 8187, 8169, 8130, 8147, 8133, 8142, 8145, 8178, 8173, 8152, 8046,8.875879764556885
93, 8150, 8200, 8171, 8206, 8178, 8151, 8156, 8137, 8142, 8154, 8167, 8145, 8132, 8046,8.875879764556885
94, 8145, 8187, 8164, 8198, 8174, 8160, 8155, 8131, 8135, 8157, 8162, 8140, 8132, 8047,8.891151428222656
95, 8147, 8192, 8165, 8187, 8171, 8170, 8161, 8135, 8134, 8155, 8159, 8148, 8137, 8050,8.891151428222656
96, 8143, 8186, 8157, 8194, 8166, 8172, 8170, 8145, 8153, 8167, 8154, 8135, 8143, 8051,8.90681767463684
97, 8138, 8162, 8169, 8180, 8162, 8164, 8163, 8147, 8154, 8173, 8136, 8133, 8136, 8053,8.90681767463684
98, 8138, 8152, 8150, 8174, 8166, 8164, 8169, 8151, 8152, 8178, 8126, 8124, 8133, 8048,8.921961307525635
99, 8142, 8156, 8143, 8175, 8160, 8151, 8163, 8152, 8153, 8163, 8131, 8131, 8135, 8054,8.921961307525635
100, 8147, 8154, 8149, 8163, 8156, 8146, 8149, 8158, 8161, 8160, 8145, 8147, 8151, 8069,8.936996698379517
101, 8161, 8150, 8135, 8160, 8162, 8157, 8153, 8169, 8182, 8186, 8162, 8152, 8177, 8071,8.936996698379517
102, 8179, 8162, 8153, 8161, 8160, 8156, 8154, 8174, 8183, 8185, 8170, 8174, 8186, 8073,8.95177149772644
103, 8180, 8181, 8153, 8174, 8164, 8151, 8152, 8167, 8169, 8170, 8178, 8171, 8185, 8071,8.95177149772644
104, 8185, 8193, 8160, 8183, 8172, 8158, 8151, 8151, 8157, 8165, 8181, 8170, 8179, 8065,8.967919111251831
105, 8188, 8199, 8179, 8186, 8169, 8167, 8151, 8144, 8148, 8158, 8179, 8175, 8176, 8059,8.967919111251831
106, 8183, 8200, 8170, 8197, 8174, 8168, 8160, 8136, 8151, 8156, 8184, 8165, 8184, 8054,8.983091354370117
