COUNTER,F3,FC5,AF3,F7,T7,P7,O1,O2,P8,T8,F8,AF4,FC6,F4,Timestamp
8, 8163, 8174, 8145, 8158, 8142, 8180, 8178, 8165, 8172, 8185, 8141, 8160, 8160, 8100,0.026598453521728516
9, 8151, 8164, 8149, 8136, 8135, 8172, 8175, 8172, 8166, 8185, 8122, 8157, 8144, 8095,0.026598453521728516
10, 8148, 8157, 8131, 8139, 8137, 8170, 8175, 8175, 8173, 8196, 8123, 8146, 8151, 8095,0.041628122329711914
11, 8154, 8152, 8135, 8137, 8139, 8155, 8165, 8167, 8170, 8182, 8135, 8158, 8161, 8109,0.041628122329711914
12, 8154, 8161, 8143, 8125, 8137, 8155, 8160, 8171, 8164, 8153, 8138, 8173, 8163, 8116,0.05763101577758789
13, 8157, 8165, 8124, 8125, 8142, 8159, 8163, 8169, 8166, 8145, 8145, 8168, 8170, 8104,0.05763101577758789
14, 8165, 8168, 8158, 8116, 8142, 8150, 8143, 8171, 8153, 8145, 8150, 8190, 8168, 8097,0.07302975654602051
15, 8167, 8171, 8150, 8119, 8136, 8144, 8134, 8174, 8164, 8163, 8157, 8183, 8176, 8089,0.07302975654602051
16, 8167, 8172, 8140, 8114, 8135, 8136, 8134, 8162, 8163, 8162, 8150, 8166, 8172, 8089,0.08815836906433105
17, 8159, 8182, 8156, 8116, 8141, 8140, 8145, 8160, 8142, 8149, 8144, 8166, 8157, 8088,0.08815836906433105
18, 8151, 8182, 8137, 8124, 8148, 8154, 8156, 8163, 8141, 8150, 8147, 8162, 8156, 8078,0.10387444496154785
19, 8154, 8183, 8154, 8116, 8153, 8160, 8153, 8172, 8146, 8139, 8132, 8172, 8147, 8085,0.10387444496154785
20, 8157, 8188, 8159, 8135, 8164, 8170, 8175, 8180, 8166, 8156, 8131, 8157, 8143, 8097,0.11911630630493164
21, 8159, 8174, 8157, 8141, 8164, 8175, 8183, 8178, 8176, 8177, 8147, 8156, 8150, 8103,0.11911630630493164
22, 8170, 8162, 8162, 8128, 8154, 8167, 8168, 8188, 8187, 8173, 8148, 8179, 8169, 8111,0.13431286811828613
23, 8183, 8168, 8152, 8131, 8153, 8146, 8158, 8192, 8200, 8165, 8157, 8188, 8190, 8118,0.13431286811828613
24, 8191, 8181, 8178, 8127, 8151, 8138, 8137, 8172, 8171, 8147, 8167, 8206, 8180, 8114,0.14995121955871582
25, 8180, 8185, 8171, 8136, 8156, 8160, 8139, 8156, 8156, 8150, 8165, 8189, 8162, 8100,0.14995121955871582
26, 8171, 8180, 8173, 8149, 8163, 8180, 8159, 8161, 8171, 8165, 8158, 8175, 8155, 8104,0.16559338569641113
27, 8170, 8173, 8190, 8151, 8159, 8185, 8169, 8180, 8186, 8175, 8156, 8184, 8167, 8118,0.16559338569641113
28, 8164, 8155, 8156, 8142, 8152, 8175, 8171, 8189, 8205, 8196, 8163, 8174, 8186, 8118,0.18097352981567383
29, 8168, 8155, 8166, 8118, 8147, 8157, 8160, 8191, 8213, 8199, 8168, 8187, 8187, 8126,0.18097352981567383
30, 8175, 8170, 8163, 8115, 8149, 8149, 8159, 8189, 8207, 8181, 8167, 8183, 8185, 8115,0.1969738006591797
31, 8179, 8165, 8147, 8118, 8148, 8142, 8150, 8169, 8185, 8162, 8163, 8177, 8181, 8095,0.1969738006591797
32, 8175, 8158, 8157, 8105, 8146, 8147, 8135, 8158, 8159, 8161, 8161, 8189, 8172, 8092,0.21319103240966797
33, 8166, 8166, 8145, 8112, 8153, 8148, 8138, 8156, 8154, 8166, 8163, 8175, 8171, 8080,0.21319103240966797
34, 8170, 8177, 8170, 8120, 8148, 8141, 8137, 8147, 8152, 8152, 8163, 8178, 8165, 8074,0.2287917137145996
35, 8163, 8178, 8167, 8115, 8140, 8149, 8134, 8150, 8166, 8157, 8173, 8175, 8162, 8071,0.2287917137145996
36, 8149, 8181, 8154, 8118, 8151, 8162, 8140, 8161, 8177, 8169, 8168, 8163, 8163, 8070,0.24501967430114746
37, 8150, 8193, 8181, 8141, 8173, 8179, 8163, 8173, 8178, 8174, 8153, 8172, 8165, 8081,0.24501967430114746
38, 8149, 8184, 8154, 8152, 8168, 8183, 8177, 8170, 8181, 8185, 8151, 8157, 8167, 8079,0.2609670162200928
39, 8135, 8173, 8151, 8129, 8148, 8175, 8159, 8169, 8179, 8183, 8150, 8154, 8157, 8081,0.2609670162200928
40, 8137, 8182, 8163, 8136, 8159, 8181, 8167, 8186, 8209, 8206, 8163, 8164, 8168, 8098,0.2763967514038086
41, 8166, 8186, 8156, 8153, 8165, 8182, 8180, 8185, 8229, 8236, 8181, 8180, 8191, 8116,0.2763967514038086
42, 8169, 8179, 8162, 8129, 8143, 8168, 8155, 8175, 8207, 8219, 8170, 8194, 8183, 8119,0.2927858829498291
43, 8142, 8165, 8136, 8114, 8138, 8151, 8134, 8165, 8192, 8203, 8159, 8172, 8174, 8098,0.2927858829498291
44, 8148, 8164, 8142, 8110, 8145, 8145, 8131, 8161, 8184, 8199, 8163, 8180, 8179, 8097,0.30865955352783203
45, 8176, 8184, 8155, 8114, 8151, 8156, 8137, 8172, 8185, 8196, 8180, 8199, 8192, 8109,0.30865955352783203
46, 8180, 8190, 8150, 8119, 8154, 8152, 8130, 8170, 8183, 8183, 8187, 8200, 8193, 8108,0.3238942623138428
47, 8177, 8191, 8178, 8122, 8151, 8140, 8112, 8167, 8166, 8166, 8186, 8213, 8189, 8108,0.3238942623138428
48, 8188, 8205, 8179, 8147, 8157, 8143, 8122, 8172, 8165, 8164, 8193, 8203, 8198, 8103,0.33901262283325195
49, 8188, 8206, 8187, 8151, 8166, 8148, 8123, 8160, 8141, 8149, 8181, 8198, 8172, 8096,0.33901262283325195
50, 8172, 8194, 8188, 8146, 8171, 8157, 8120, 8143, 8119, 8146, 8165, 8189, 8150, 8089,0.35464906692504883
51, 8166, 8190, 8172, 8152, 8173, 8165, 8132, 8139, 8135, 8167, 8167, 8173, 8159, 8092,0.35464906692504883
52, 8172, 8198, 8196, 8158, 8173, 8172, 8140, 8149, 8149, 8178, 8171, 8187, 8166, 8106,0.3707420825958252
53, 8170, 8196, 8186, 8169, 8168, 8182, 8157, 8158, 8157, 8197, 8178, 8179, 8182, 8107,0.3707420825958252
54, 8168, 8184, 8181, 8154, 8160, 8181, 8160, 8156, 8157, 8201, 8172, 8180, 8184, 8107,0.3866429328918457
55, 8169, 8183, 8187, 8149, 8166, 8180, 8159, 8163, 8163, 8198, 8163, 8191, 8184, 8110,0.3866429328918457
56, 8161, 8176, 8170, 8155, 8164, 8177, 8159, 8171, 8184, 8214, 8170, 8184, 8201, 8114,0.4018518924713135
57, 8154, 8171, 8177, 8131, 8149, 8171, 8153, 8174, 8189, 8216, 8172, 8190, 8197, 8112,0.4018518924713135
58, 8158, 8179, 8161, 8129, 8159, 8172, 8158, 8178, 8198, 8205, 8173, 8190, 8197, 8107,0.4170079231262207
59, 8177, 8188, 8178, 8144, 8169, 8168, 8154, 8182, 8203, 8204, 8186, 8214, 8226, 8126,0.4170079231262207
60, 8186, 8191, 8195, 8140, 8153, 8164, 8145, 8191, 8203, 8221, 8205, 8231, 8241, 8129,0.43310999870300293
61, 8177, 8189, 8156, 8126, 8149, 8151, 8139, 8175, 8194, 8211, 8198, 8208, 8217, 8105,0.43310999870300293
62, 8175, 8201, 8173, 8120, 8153, 8135, 8135, 8156, 8171, 8170, 8176, 8213, 8188, 8099,0.4486703872680664
63, 8179, 8206, 8183, 8131, 8154, 8137, 8136, 8155, 8171, 8171, 8184, 8216, 8200, 8099,0.4486703872680664
64, 8196, 8205, 8186, 8139, 8165, 8142, 8125, 8154, 8175, 8185, 8207, 8229, 8217, 8101,0.4646031856536865
65, 8208, 8222, 8206, 8158, 8182, 8155, 8131, 8163, 8181, 8182, 8213, 8241, 8219, 8107,0.4646031856536865
66, 8190, 8222, 8187, 8172, 8183, 8161, 8140, 8174, 8189, 8176, 8197, 8215, 8211, 8099,0.4806830883026123
67, 8169, 8208, 8198, 8156, 8172, 8160, 8123, 8167, 8172, 8156, 8179, 8225, 8194, 8090,0.4806830883026123
68, 8162, 8204, 8186, 8154, 8179, 8171, 8136, 8161, 8174, 8166, 8185, 8223, 8192, 8084,0.49678874015808105
69, 8169, 8204, 8175, 8163, 8182, 8173, 8151, 8164, 8179, 8175, 8185, 8203, 8188, 8089,0.49678874015808105
70, 8165, 8209, 8195, 8174, 8175, 8169, 8136, 8163, 8167, 8169, 8174, 8199, 8184, 8092,0.511967658996582
71, 8158, 8198, 8178, 8181, 8182, 8173, 8143, 8152, 8178, 8186, 8177, 8188, 8189, 8091,0.511967658996582
72, 8158, 8182, 8178, 8167, 8179, 8176, 8152, 8150, 8179, 8182, 8162, 8188, 8170, 8094,0.5272724628448486
73, 8144, 8179, 8152, 8162, 8165, 8176, 8151, 8147, 8164, 8160, 8133, 8163, 8154, 8075,0.5272724628448486
74, 8133, 8164, 8129, 8134, 8156, 8173, 8151, 8152, 8157, 8159, 8129, 8148, 8155, 8067,0.5429039001464844
75, 8138, 8151, 8144, 8106, 8151, 8174, 8149, 8171, 8171, 8174, 8138, 8160, 8160, 8084,0.5429039001464844
76, 8147, 8166, 8125, 8142, 8155, 8171, 8144, 8178, 8197, 8192, 8141, 8154, 8171, 8089,0.5579884052276611
77, 8173, 8200, 8160, 8179, 8167, 8160, 8131, 8178, 8205, 8204, 8155, 8193, 8191, 8103,0.5579884052276611
78, 8202, 8219, 8191, 8189, 8189, 8160, 8136, 8186, 8212, 8221, 8194, 8230, 8220, 8119,0.5736403465270996
79, 8208, 8217, 8170, 8184, 8189, 8153, 8140, 8175, 8196, 8198, 8206, 8213, 8223, 8109,0.5736403465270996
80, 8191, 8209, 8166, 8164, 8163, 8147, 8129, 8162, 8158, 8147, 8180, 8195, 8198, 8092,0.5897319316864014
81, 8175, 8198, 8154, 8166, 8157, 8153, 8129, 8152, 8138, 8137, 8176, 8183, 8192, 8081,0.5897319316864014
82, 8177, 8204, 8176, 8183, 8168, 8156, 8125, 8134, 8120, 8147, 8196, 8194, 8191, 8077,0.6049089431762695
83, 8185, 8222, 8195, 8196, 8176, 8166, 8132, 8143, 8129, 8166, 8210, 8199, 8195, 8080,0.6049089431762695
84, 8187, 8227, 8192, 8205, 8183, 8173, 8145, 8155, 8157, 8187, 8207, 8189, 8201, 8086,0.6209902763366699
85, 8186, 8229, 8209, 8211, 8189, 8179, 8154, 8160, 8166, 8184, 8196, 8193, 8200, 8097,0.6209902763366699
86, 8187, 8225, 8191, 8221, 8188, 8183, 8166, 8166, 8170, 8183, 8193, 8188, 8209, 8110,0.6366050243377686
87, 8187, 8212, 8188, 8210, 8174, 8176, 8160, 8160, 8148, 8180, 8178, 8194, 8199, 8116,0.6366050243377686
88, 8177, 8203, 8183, 8197, 8164, 8171, 8158, 8156, 8131, 8168, 8163, 8189, 8175, 8109,0.6516435146331787
89, 8173, 8198, 8159, 8182, 8162, 8170, 8166, 8159, 8150, 8162, 8169, 8180, 8175, 8105,0.6516435146331787
90, 8187, 8203, 8179, 8161, 8161, 8162, 8161, 8173, 8168, 8170, 8183, 8207, 8198, 8110,0.6666836738586426
91, 8199, 8206, 8181, 8168, 8161, 8147, 8146, 8180, 8171, 8182, 8204, 8215, 8223, 8111,0.6666836738586426
92, 8203, 8212, 8186, 8169, 8157, 8137, 8121, 8171, 8153, 8159, 8208, 8222, 8218, 8114,0.681767463684082
93, 8206, 8223, 8193, 8168, 8156, 8141, 8119, 8169, 8147, 8141, 8190, 8220, 8201, 8114,0.681767463684082
94, 8197, 8218, 8181, 8178, 8164, 8137, 8127, 8166, 8153, 8150, 8172, 8193, 8186, 8099,0.6969039440155029
95, 8171, 8209, 8189, 8163, 8160, 8137, 8116, 8154, 8136, 8141, 8155, 8178, 8154, 8078,0.7130093574523926
96, 8150, 8203, 8163, 8162, 8156, 8159, 8132, 8150, 8133, 8148, 8147, 8157, 8139, 8061,0.7130093574523926
97, 8164, 8203, 8172, 8180, 8163, 8173, 8163, 8156, 8146, 8167, 8144, 8167, 8144, 8079,0.7283148765563965
98, 8175, 8207, 8196, 8186, 8168, 8181, 8170, 8167, 8152, 8173, 8137, 8179, 8146, 8097,0.7283148765563965
99, 8166, 8191, 8162, 8172, 8156, 8175, 8163, 8173, 8154, 8158, 8137, 8157, 8151, 8090,0.7439422607421875
100, 8174, 8177, 8167, 8149, 8139, 8156, 8152, 8179, 8152, 8135, 8146, 8172, 8160, 8104,0.7439422607421875
101, 8176, 8172, 8155, 8135, 8137, 8145, 8146, 8182, 8169, 8156, 8154, 8176, 8175, 8114,0.7600100040435791
102, 8155, 8161, 8136, 8112, 8133, 8134, 8126, 8167, 8171, 8171, 8138, 8165, 8167, 8092,0.7600100040435791
103, 8142, 8162, 8139, 8103, 8129, 8128, 8112, 8153, 8141, 8144, 8120, 8164, 8139, 8064,0.7757689952850342
104, 8148, 8181, 8132, 8114, 8138, 8128, 8119, 8143, 8120, 8124, 8126, 8155, 8134, 8050,0.7757689952850342
105, 8163, 8203, 8169, 8120, 8144, 8132, 8121, 8147, 8124, 8138, 8148, 8177, 8149, 8065,0.7757689952850342
106, 8169, 8208, 8174, 8139, 8143, 8148, 8134, 8163, 8146, 8173, 8170, 8190, 8171, 8077,0.7909789085388184
107, 8163, 8196, 8165, 8151, 8147, 8162, 8143, 8161, 8143, 8158, 8166, 8180, 8162, 8072,0.8070714473724365
108, 8152, 8194, 8180, 8150, 8168, 8178, 8148, 8158, 8135, 8126, 8140, 8164, 8137, 8059,0.8070714473724365
109, 8143, 8186, 8160, 8155, 8173, 8187, 8160, 8159, 8151, 8140, 8121, 8141, 8130, 8053,0.8228914737701416
110, 8137, 8170, 8158, 8141, 8146, 8171, 8155, 8156, 8148, 8152, 8116, 8153, 8125, 8063,0.8228914737701416
111, 8137, 8170, 8147, 8134, 8144, 8161, 8159, 8168, 8155, 8166, 8126, 8152, 8137, 8073,0.8387095928192139
112, 8160, 8170, 8148, 8128, 8152, 8164, 8160, 8178, 8169, 8183, 8125, 8153, 8153, 8084,0.8387095928192139
113, 8166, 8161, 8162, 8107, 8136, 8159, 8144, 8177, 8161, 8162, 8114, 8169, 8151, 8077,0.85373854637146
114, 8144, 8156, 8130, 8100, 8138, 8142, 8138, 8168, 8146, 8122, 8114, 8146, 8129, 8044,0.85373854637146
115, 8141, 8170, 8149, 8111, 8154, 8138, 8132, 8159, 8125, 8099, 8111, 8148, 8101, 8033,0.8697738647460938
116, 8149, 8184, 8172, 8143, 8153, 8159, 8139, 8156, 8129, 8118, 8109, 8152, 8103, 8046,0.8697738647460938
117, 8146, 8179, 8164, 8153, 8155, 8168, 8156, 8161, 8142, 8137, 8109, 8136, 8116, 8055,0.8856596946716309
118, 8145, 8180, 8176, 8139, 8169, 8175, 8174, 8175, 8138, 8146, 8110, 8145, 8120, 8063,0.8856596946716309
119, 8152, 8179, 8159, 8148, 8179, 8187, 8182, 8175, 8147, 8166, 8120, 8149, 8129, 8069,0.9010744094848633
120, 8158, 8164, 8160, 8144, 8165, 8179, 8166, 8172, 8158, 8162, 8118, 8157, 8131, 8078,0.9010744094848633
121, 8152, 8160, 8151, 8129, 8150, 8168, 8162, 8185, 8175, 8155, 8112, 8154, 8140, 8078,0.9170913696289062
122, 8158, 8171, 8133, 8124, 8151, 8159, 8155, 8185, 8181, 8156, 8129, 8163, 8159, 8073,0.9170913696289062
123, 8173, 8177, 8154, 8118, 8161, 8149, 8133, 8177, 8163, 8146, 8140, 8193, 8159, 8061,0.9342677593231201
124, 8172, 8171, 8151, 8130, 8172, 8155, 8143, 8170, 8155, 8149, 8136, 8173, 8146, 8050,0.9342677593231201
125, 8169, 8183, 8172, 8155, 8166, 8174, 8166, 8167, 8152, 8149, 8124, 8156, 8133, 8069,0.9342677593231201
126, 8170, 8183, 8180, 8167, 8162, 8187, 8178, 8183, 8176, 8169, 8121, 8156, 8146, 8085,0.9482996463775635
127, 8173, 8141, 8143, 8140, 8164, 8171, 8167, 8188, 8203, 8196, 8119, 8163, 8168, 8080,0.9636597633361816
237, 8167, 8139, 8147, 8110, 8156, 8155, 8143, 8176, 8189, 8171, 8113, 8180, 8171, 8080,0.9636597633361816
0, 8154, 8168, 8141, 8125, 8154, 8147, 8135, 8165, 8169, 8137, 8125, 8166, 8164, 8064,0.9787170886993408
1, 8164, 8165, 8159, 8139, 8162, 8144, 8134, 8156, 8146, 8135, 8128, 8161, 8139, 8056,0.9787170886993408
2, 8170, 8166, 8172, 8147, 8169, 8161, 8152, 8158, 8142, 8156, 8117, 8158, 8128, 8071,0.9939332008361816
3, 8149, 8166, 8141, 8147, 8156, 8172, 8167, 8163, 8166, 8165, 8107, 8141, 8138, 8074,0.9939332008361816
4, 8152, 8148, 8158, 8127, 8143, 8166, 8158, 8175, 8180, 8156, 8116, 8167, 8147, 8075,1.009477138519287
5, 8183, 8145, 8164, 8127, 8157, 8156, 8155, 8175, 8174, 8151, 8147, 8184, 8167, 8075,1.009477138519287
6, 8193, 8167, 8173, 8142, 8169, 8155, 8148, 8154, 8139, 8132, 8160, 8189, 8167, 8070,1.0247724056243896
7, 8180, 8190, 8190, 8172, 8177, 8176, 8152, 8154, 8131, 8143, 8154, 8190, 8158, 8074,1.0247724056243896
8, 8184, 8194, 8187, 8198, 8183, 8182, 8171, 8168, 8157, 8184, 8160, 8178, 8166, 8089,1.0408694744110107
9, 8196, 8190, 8207, 8188, 8178, 8174, 8170, 8175, 8160, 8189, 8156, 8181, 8163, 8097,1.0408694744110107
10, 8176, 8165, 8168, 8174, 8173, 8179, 8177, 8181, 8169, 8178, 8133, 8154, 8160, 8083,1.0569374561309814
11, 8159, 8130, 8136, 8153, 8157, 8175, 8184, 8187, 8182, 8175, 8118, 8141, 8163, 8083,1.0569374561309814
12, 8165, 8122, 8144, 8131, 8139, 8160, 8176, 8189, 8183, 8180, 8131, 8157, 8172, 8088,1.072038173675537
13, 8174, 8126, 8132, 8130, 8141, 8149, 8166, 8180, 8183, 8184, 8146, 8161, 8180, 8083,1.072038173675537
14, 8181, 8134, 8152, 8125, 8148, 8144, 8148, 8177, 8175, 8168, 8150, 8185, 8188, 8092,1.0876588821411133
15, 8188, 8148, 8156, 8138, 8157, 8152, 8147, 8181, 8173, 8174, 8172, 8198, 8216, 8094,1.0876588821411133
16, 8194, 8160, 8157, 8150, 8161, 8158, 8147, 8170, 8163, 8175, 8183, 8199, 8229, 8084,1.102917194366455
17, 8196, 8171, 8181, 8162, 8166, 8168, 8154, 8163, 8157, 8163, 8179, 8197, 8222, 8092,1.102917194366455
18, 8204, 8179, 8178, 8190, 8178, 8173, 8172, 8168, 8166, 8167, 8185, 8183, 8218, 8110,1.118732213973999
19, 8201, 8176, 8190, 8184, 8169, 8169, 8165, 8173, 8153, 8160, 8171, 8196, 8202, 8116,1.118732213973999
20, 8184, 8155, 8163, 8167, 8158, 8177, 8170, 8176, 8155, 8165, 8151, 8185, 8200, 8111,1.134035587310791
21, 8187, 8138, 8139, 8156, 8164, 8178, 8179, 8178, 8177, 8187, 8159, 8177, 8217, 8116,1.134035587310791
22, 8205, 8152, 8168, 8146, 8166, 8160, 8166, 8181, 8186, 8193, 8181, 8212, 8230, 8121,1.149620771408081
23, 8224, 8171, 8175, 8153, 8158, 8141, 8151, 8173, 8176, 8173, 8192, 8224, 8235, 8115,1.149620771408081
24, 8231, 8178, 8196, 8159, 8148, 8138, 8144, 8167, 8153, 8150, 8184, 8221, 8218, 8113,1.164999008178711
25, 8216, 8183, 8193, 8169, 8156, 8159, 8163, 8176, 8157, 8167, 8178, 8199, 8207, 8107,1.164999008178711
26, 8199, 8184, 8182, 8172, 8167, 8175, 8179, 8178, 8172, 8184, 8178, 8188, 8209, 8111,1.1801483631134033
27, 8193, 8173, 8196, 8169, 8162, 8178, 8172, 8175, 8174, 8187, 8166, 8191, 8206, 8119,1.1801483631134033
28, 8191, 8146, 8163, 8163, 8151, 8175, 8171, 8179, 8184, 8202, 8157, 8171, 8206, 8112,1.1957340240478516
29, 8201, 8137, 8163, 8146, 8143, 8164, 8163, 8174, 8184, 8190, 8161, 8190, 8208, 8117,1.1957340240478516
30, 8203, 8147, 8164, 8138, 8141, 8159, 8149, 8165, 8175, 8166, 8161, 8192, 8214, 8116,1.2108354568481445
31, 8187, 8142, 8139, 8124, 8142, 8154, 8137, 8160, 8165, 8156, 8145, 8166, 8203, 8090,1.2108354568481445
32, 8182, 8143, 8156, 8113, 8149, 8146, 8133, 8161, 8142, 8136, 8138, 8175, 8178, 8078,1.226062297821045
33, 8179, 8154, 8155, 8131, 8154, 8152, 8136, 8152, 8121, 8116, 8144, 8162, 8163, 8074,1.226062297821045
34, 8173, 8164, 8173, 8148, 8155, 8171, 8139, 8149, 8114, 8123, 8137, 8157, 8159, 8073,1.2410407066345215
35, 8179, 8176, 8185, 8165, 8169, 8188, 8168, 8173, 8143, 8153, 8134, 8164, 8168, 8090,1.2567057609558105
36, 8187, 8175, 8172, 8171, 8180, 8192, 8186, 8185, 8170, 8164, 8141, 8166, 8175, 8115,1.2567057609558105
37, 8186, 8158, 8182, 8158, 8170, 8203, 8174, 8181, 8172, 8164, 8140, 8173, 8169, 8123,1.2567057609558105
38, 8174, 8142, 8155, 8164, 8151, 8208, 8178, 8179, 8186, 8189, 8141, 8154, 8169, 8113,1.2713863849639893
39, 8170, 8144, 8154, 8155, 8149, 8183, 8177, 8178, 8196, 8195, 8142, 8160, 8167, 8121,1.2870941162109375
40, 8168, 8160, 8165, 8142, 8154, 8170, 8166, 8185, 8200, 8194, 8149, 8174, 8169, 8125,1.2870941162109375
41, 8169, 8146, 8142, 8143, 8122, 8166, 8154, 8180, 8188, 8185, 8155, 8165, 8171, 8102,1.3029670715332031
42, 8185, 8134, 8161, 8131, 8105, 8148, 8134, 8162, 8148, 8142, 8157, 8186, 8160, 8100,1.3029670715332031
43, 8196, 8168, 8187, 8145, 8153, 8143, 8129, 8161, 8126, 8130, 8171, 8204, 8160, 8110,1.3185789585113525
44, 8187, 8188, 8151, 8209, 8193, 8164, 8155, 8129, 8146, 8178, 8198, 8166, 8177, 8087,1.3185789585113525
45, 8180, 8164, 8165, 8181, 8167, 8154, 8132, 8134, 8104, 8146, 8155, 8152, 8129, 8101,1.333735466003418
46, 8180, 8195, 8288, 8128, 8142, 8172, 8113, 8209, 8060, 8097, 8104, 8213, 8088, 8138,1.333735466003418
47, 8151, 8189, 8058, 8288, 8195, 8217, 8241, 8099, 8233, 8270, 8211, 8083, 8223, 8038,1.3488123416900635
48, 8154, 8082, 8001, 8181, 8160, 8121, 8153, 8107, 8169, 8201, 8135, 8064, 8151, 8086,1.3488123416900635
49, 8184, 8165, 8490, 7949, 8080, 8141, 8008, 8351, 7966, 7986, 7986, 8347, 7986, 8251,1.3640453815460205
50, 8157, 8238, 8303, 8186, 8162, 8263, 8212, 8239, 8204, 8219, 8168, 8223, 8190, 8106,1.364443063735962
51, 8159, 8126, 7975, 8247, 8184, 8162, 8224, 8091, 8265, 8282, 8210, 8046, 8245, 8034,1.3799874782562256
52, 8184, 8136, 8200, 8091, 8128, 8106, 8087, 8196, 8103, 8114, 8103, 8196, 8121, 8129,1.3799874782562256
53, 8164, 8164, 8184, 8123, 8148, 8153, 8133, 8191, 8159, 8154, 8144, 8178, 8158, 8085,1.3950443267822266
54, 8160, 8138, 8111, 8135, 8156, 8144, 8147, 8155, 8183, 8172, 8160, 8132, 8165, 8063,1.3950443267822266
55, 8179, 8166, 8173, 8157, 8156, 8148, 8143, 8164, 8155, 8154, 8162, 8168, 8148, 8090,1.4105966091156006
56, 8180, 8174, 8192, 8159, 8169, 8164, 8162, 8167, 8147, 8153, 8168, 8167, 8148, 8101,1.4105966091156006
57, 8166, 8161, 8185, 8148, 8179, 8179, 8180, 8161, 8154, 8166, 8162, 8151, 8149, 8096,1.4256541728973389
58, 8162, 8170, 8182, 8184, 8185, 8181, 8175, 8168, 8155, 8176, 8144, 8144, 8136, 8104,1.4256541728973389
59, 8167, 8187, 8193, 8224, 8193, 8189, 8178, 8175, 8165, 8179, 8134, 8152, 8128, 8114,1.4407122135162354
60, 8154, 8168, 8160, 8213, 8190, 8185, 8183, 8163, 8179, 8183, 8121, 8127, 8129, 8098,1.4407122135162354
61, 8148, 8160, 8157, 8178, 8168, 8170, 8155, 8184, 8163, 8181, 8102, 8127, 8117, 8095,1.4560651779174805
62, 8166, 8173, 8158, 8197, 8172, 8162, 8152, 8178, 8182, 8203, 8138, 8154, 8144, 8097,1.4560651779174805
63, 8177, 8166, 8156, 8171, 8179, 8148, 8144, 8177, 8181, 8177, 8143, 8169, 8150, 8104,1.471580982208252
64, 8174, 8173, 8164, 8149, 8177, 8157, 8144, 8175, 8162, 8147, 8125, 8163, 8141, 8086,1.471580982208252
65, 8180, 8186, 8155, 8166, 8180, 8164, 8149, 8154, 8150, 8152, 8139, 8147, 8143, 8066,1.4869391918182373
66, 8190, 8198, 8183, 8170, 8186, 8161, 8141, 8167, 8131, 8146, 8143, 8155, 8130, 8083,1.4869391918182373
67, 8180, 8200, 8188, 8199, 8196, 8173, 8164, 8150, 8133, 8158, 8139, 8137, 8130, 8072,1.5030200481414795
68, 8164, 8184, 8174, 8194, 8187, 8185, 8167, 8145, 8117, 8157, 8113, 8120, 8119, 8074,1.5030200481414795
69, 8156, 8180, 8175, 8196, 8188, 8202, 8170, 8164, 8138, 8178, 8116, 8135, 8123, 8096,1.518219232559204
70, 8158, 8171, 8167, 8206, 8197, 8196, 8179, 8159, 8173, 8209, 8128, 8133, 8138, 8100,1.518219232559204
71, 8164, 8165, 8179, 8172, 8179, 8179, 8158, 8179, 8152, 8182, 8103, 8133, 8123, 8104,1.533012866973877
72, 8156, 8162, 8153, 8172, 8169, 8177, 8156, 8171, 8162, 8177, 8112, 8126, 8134, 8088,1.533012866973877
73, 8160, 8155, 8137, 8165, 8170, 8164, 8152, 8171, 8175, 8185, 8121, 8135, 8148, 8102,1.5490303039550781
74, 8179, 8170, 8159, 8157, 8176, 8158, 8143, 8183, 8175, 8190, 8131, 8164, 8164, 8120,1.5490303039550781
75, 8183, 8178, 8145, 8175, 8189, 8151, 8136, 8159, 8182, 8187, 8146, 8158, 8171, 8097,1.5647408962249756
76, 8179, 8186, 8155, 8171, 8190, 8147, 8120, 8167, 8157, 8154, 8133, 8154, 8143, 8091,1.5647408962249756
77, 8179, 8203, 8160, 8185, 8189, 8157, 8133, 8154, 8158, 8163, 8152, 8149, 8151, 8084,1.5798897743225098
78, 8170, 8199, 8157, 8175, 8183, 8149, 8130, 8138, 8149, 8158, 8147, 8136, 8143, 8081,1.5798897743225098
79, 8168, 8208, 8183, 8176, 8182, 8156, 8131, 8152, 8131, 8141, 8122, 8138, 8121, 8086,1.595688819885254
80, 8183, 8214, 8186, 8215, 8191, 8172, 8154, 8141, 8146, 8163, 8133, 8127, 8126, 8083,1.595688819885254
81, 8180, 8207, 8194, 8217, 8189, 8182, 8154, 8158, 8140, 8159, 8128, 8119, 8111, 8090,1.6108403205871582
82, 8159, 8197, 8176, 8219, 8192, 8205, 8178, 8155, 8150, 8169, 8110, 8105, 8107, 8081,1.6264362335205078
83, 8155, 8171, 8142, 8188, 8187, 8204, 8188, 8154, 8156, 8175, 8086, 8093, 8103, 8082,1.6264362335205078
84, 8163, 8172, 8146, 8174, 8176, 8198, 8185, 8185, 8172, 8185, 8115, 8116, 8125, 8104,1.6427874565124512
85, 8164, 8174, 8130, 8191, 8175, 8182, 8178, 8178, 8207, 8218, 8170, 8129, 8177, 8112,1.6427874565124512
86, 8164, 8157, 8135, 8136, 8158, 8158, 8145, 8190, 8182, 8192, 8145, 8139, 8164, 8126,1.6427874565124512
87, 8159, 8154, 8106, 8123, 8156, 8168, 8160, 8165, 8189, 8188, 8149, 8123, 8163, 8095,1.658081293106079
88, 8158, 8157, 8078, 8131, 8146, 8151, 8147, 8125, 8169, 8168, 8161, 8106, 8156, 8067,1.6737487316131592
89, 8169, 8185, 8125, 8138, 8157, 8146, 8115, 8147, 8132, 8138, 8160, 8139, 8141, 8082,1.6737487316131592
90, 8180, 8184, 8178, 8144, 8174, 8157, 8113, 8163, 8133, 8137, 8164, 8168, 8131, 8090,1.6887567043304443
91, 8176, 8189, 8177, 8157, 8151, 8169, 8142, 8155, 8135, 8146, 8163, 8140, 8117, 8070,1.6887567043304443
92, 8167, 8197, 8087, 8201, 8164, 8161, 8179, 8104, 8157, 8183, 8179, 8072, 8135, 8047,1.704097032546997
93, 8174, 8203, 8201, 8133, 8185, 8155, 8130, 8176, 8104, 8125, 8136, 8151, 8099, 8114,1.704097032546997
94, 8161, 8214, 8168, 8201, 8219, 8216, 8190, 8169, 8174, 8198, 8188, 8133, 8164, 8089,1.7196660041809082
95, 8147, 8160, 8062, 8214, 8197, 8176, 8189, 8094, 8174, 8214, 8187, 8059, 8155, 8064,1.7196660041809082
96, 8156, 8177, 8226, 8094, 8143, 8159, 8113, 8198, 8081, 8101, 8099, 8161, 8058, 8143,1.7351057529449463
97, 8157, 8187, 8132, 8164, 8163, 8198, 8185, 8180, 8199, 8193, 8164, 8131, 8160, 8108,1.7351057529449463
98, 8163, 8147, 8093, 8140, 8150, 8152, 8165, 8166, 8188, 8187, 8161, 8120, 8176, 8113,1.751129388809204
99, 8156, 8172, 8167, 8111, 8139, 8160, 8157, 8213, 8154, 8159, 8144, 8151, 8148, 8129,1.751129388809204
100, 8147, 8154, 8110, 8136, 8146, 8161, 8180, 8176, 8195, 8201, 8172, 8118, 8178, 8101,1.7666351795196533
101, 8158, 8150, 8138, 8110, 8143, 8151, 8155, 8189, 8169, 8172, 8164, 8155, 8175, 8123,1.7666351795196533
102, 8161, 8179, 8131, 8125, 8153, 8158, 8167, 8174, 8172, 8168, 8183, 8153, 8185, 8103,1.7817740440368652
103, 8164, 8195, 8143, 8125, 8149, 8146, 8152, 8162, 8163, 8152, 8175, 8147, 8172, 8096,1.7817740440368652
104, 8161, 8207, 8149, 8155, 8151, 8152, 8132, 8169, 8163, 8151, 8177, 8145, 8176, 8099,1.797837495803833
105, 8165, 8202, 8156, 8155, 8151, 8151, 8124, 8164, 8158, 8139, 8176, 8150, 8168, 8098,1.797837495803833
106, 8172, 8194, 8157, 8131, 8149, 8160, 8143, 8170, 8159, 8145, 8172, 8152, 8170, 8107,1.8129959106445312
107, 8162, 8180, 8141, 8140, 8149, 8168, 8148, 8158, 8151, 8160, 8182, 8142, 8177, 8109,1.8129959106445312
108, 8150, 8188, 8168, 8147, 8145, 8160, 8115, 8147, 8110, 8134, 8167, 8150, 8144, 8098,1.8291854858398438
109, 8153, 8199, 8159, 8167, 8151, 8154, 8116, 8134, 8111, 8137, 8162, 8134, 8131, 8079,1.8291854858398438
110, 8166, 8189, 8175, 8173, 8154, 8165, 8126, 8130, 8122, 8154, 8168, 8144, 8138, 8095,1.8444817066192627
111, 8172, 8182, 8184, 8167, 8152, 8187, 8139, 8158, 8132, 8167, 8163, 8153, 8143, 8118,1.8444817066192627
112, 8169, 8175, 8147, 8158, 8149, 8176, 8149, 8166, 8156, 8171, 8151, 8146, 8145, 8117,1.860185146331787
113, 8165, 8167, 8156, 8136, 8142, 8163, 8139, 8161, 8155, 8157, 8145, 8164, 8146, 8119,1.860185146331787
114, 8154, 8150, 8137, 8126, 8138, 8178, 8142, 8167, 8147, 8158, 8154, 8146, 8155, 8113,1.875394344329834
115, 8156, 8149, 8134, 8128, 8136, 8176, 8140, 8161, 8138, 8147, 8150, 8138, 8143, 8108,1.875394344329834
116, 8170, 8179, 8155, 8152, 8146, 8163, 8138, 8157, 8133, 8138, 8149, 8151, 8136, 8111,1.8910622596740723
117, 8174, 8183, 8145, 8151, 8147, 8144, 8138, 8157, 8134, 8146, 8154, 8139, 8152, 8105,1.8910622596740723
118, 8167, 8168, 8156, 8116, 8131, 8139, 8127, 8160, 8122, 8142, 8149, 8136, 8142, 8096,1.906968593597412
119, 8153, 8170, 8144, 8128, 8136, 8153, 8135, 8156, 8125, 8140, 8157, 8125, 8129, 8084,1.906968593597412
120, 8144, 8178, 8146, 8139, 8145, 8150, 8138, 8148, 8120, 8126, 8162, 8124, 8130, 8078,1.9229998588562012
121, 8139, 8176, 8159, 8127, 8142, 8146, 8133, 8152, 8109, 8113, 8151, 8121, 8121, 8077,1.9229998588562012
122, 8131, 8161, 8147, 8140, 8144, 8161, 8138, 8150, 8115, 8123, 8135, 8102, 8106, 8076,1.939049482345581
123, 8135, 8161, 8168, 8153, 8147, 8171, 8139, 8153, 8115, 8130, 8128, 8109, 8097, 8093,1.939049482345581
124, 8147, 8181, 8167, 8161, 8150, 8157, 8132, 8159, 8119, 8136, 8142, 8112, 8109, 8099,1.954573154449463
125, 8152, 8186, 8174, 8165, 8152, 8138, 8113, 8149, 8110, 8130, 8140, 8122, 8108, 8098,1.954573154449463
126, 8135, 8176, 8182, 8163, 8148, 8149, 8117, 8150, 8112, 8139, 8128, 8129, 8107, 8105,1.970590591430664
127, 8123, 8167, 8153, 8177, 8148, 8166, 8140, 8154, 8139, 8171, 8149, 8117, 8131, 8111,1.970590591430664
237, 8143, 8175, 8176, 8184, 8157, 8169, 8134, 8157, 8135, 8173, 8170, 8140, 8141, 8121,1.9859459400177002
0, 8148, 8182, 8175, 8182, 8174, 8178, 8136, 8161, 8129, 8171, 8171, 8151, 8143, 8121,1.9859459400177002
1, 8136, 8173, 8156, 8177, 8181, 8182, 8148, 8162, 8142, 8173, 8161, 8145, 8139, 8122,2.0066466331481934
2, 8138, 8175, 8170, 8179, 8176, 8171, 8142, 8173, 8150, 8160, 8152, 8148, 8134, 8130,2.0066466331481934
3, 8161, 8177, 8162, 8177, 8177, 8147, 8131, 8172, 8154, 8160, 8168, 8153, 8154, 8129,2.007645845413208
4, 8174, 8175, 8173, 8152, 8166, 8132, 8109, 8161, 8150, 8163, 8186, 8179, 8165, 8128,2.0176665782928467
5, 8152, 8175, 8163, 8157, 8154, 8141, 8104, 8170, 8155, 8171, 8179, 8173, 8159, 8124,2.033118724822998
6, 8136, 8172, 8152, 8167, 8159, 8148, 8109, 8169, 8152, 8172, 8173, 8161, 8156, 8122,2.033118724822998
7, 8141, 8175, 8166, 8161, 8172, 8155, 8105, 8159, 8139, 8159, 8182, 8168, 8154, 8117,2.0491909980773926
8, 8141, 8191, 8155, 8182, 8191, 8173, 8121, 8157, 8143, 8160, 8178, 8148, 8144, 8106,2.0491909980773926
9, 8144, 8208, 8189, 8207, 8197, 8185, 8140, 8161, 8143, 8171, 8161, 8143, 8130, 8111,2.064636707305908
10, 8141, 8200, 8197, 8210, 8192, 8183, 8148, 8167, 8155, 8188, 8163, 8134, 8136, 8115,2.064636707305908
11, 8135, 8175, 8168, 8188, 8180, 8176, 8144, 8166, 8163, 8193, 8162, 8136, 8143, 8118,2.0798306465148926
12, 8141, 8170, 8168, 8165, 8167, 8174, 8141, 8173, 8161, 8183, 8149, 8156, 8146, 8124,2.0798306465148926
13, 8143, 8170, 8147, 8160, 8158, 8159, 8131, 8169, 8166, 8174, 8148, 8136, 8156, 8114,2.0959372520446777
14, 8150, 8171, 8167, 8162, 8155, 8142, 8112, 8164, 8157, 8158, 8168, 8152, 8163, 8118,2.0959372520446777
15, 8163, 8184, 8191, 8184, 8170, 8153, 8122, 8169, 8153, 8169, 8189, 8179, 8178, 8122,2.1111955642700195
16, 8164, 8195, 8186, 8194, 8177, 8170, 8131, 8163, 8156, 8182, 8171, 8163, 8167, 8112,2.1111955642700195
17, 8145, 8189, 8187, 8176, 8166, 8176, 8132, 8170, 8158, 8179, 8136, 8146, 8136, 8115,2.1265976428985596
18, 8129, 8166, 8146, 8161, 8153, 8173, 8148, 8175, 8173, 8192, 8135, 8127, 8140, 8116,2.1265976428985596
19, 8127, 8150, 8136, 8139, 8147, 8164, 8146, 8170, 8174, 8193, 8135, 8130, 8143, 8110,2.1426708698272705
20, 8119, 8151, 8129, 8122, 8157, 8171, 8148, 8179, 8180, 8188, 8127, 8126, 8137, 8106,2.1426708698272705
21, 8127, 8151, 8122, 8116, 8163, 8172, 8154, 8177, 8187, 8189, 8141, 8132, 8156, 8112,2.157829761505127
22, 8150, 8167, 8163, 8123, 8159, 8163, 8135, 8167, 8159, 8172, 8160, 8168, 8172, 8122,2.157829761505127
23, 8149, 8187, 8156, 8144, 8158, 8168, 8121, 8167, 8147, 8172, 8171, 8159, 8165, 8114,2.1741456985473633
24, 8131, 8178, 8143, 8116, 8155, 8166, 8124, 8163, 8150, 8172, 8165, 8139, 8144, 8100,2.1741456985473633
25, 8124, 8173, 8145, 8100, 8164, 8162, 8133, 8160, 8132, 8161, 8153, 8128, 8139, 8090,2.1896238327026367
26, 8132, 8196, 8152, 8148, 8169, 8163, 8127, 8155, 8113, 8169, 8152, 8123, 8142, 8092,2.1896238327026367
27, 8139, 8213, 8182, 8176, 8159, 8177, 8121, 8157, 8116, 8187, 8146, 8141, 8132, 8108,2.205678939819336
28, 8141, 8197, 8163, 8177, 8160, 8189, 8149, 8170, 8138, 8196, 8148, 8136, 8135, 8121,2.205678939819336
29, 8137, 8177, 8161, 8159, 8158, 8181, 8155, 8165, 8125, 8176, 8146, 8137, 8135, 8121,2.2217977046966553
30, 8133, 8183, 8180, 8147, 8144, 8176, 8139, 8160, 8110, 8174, 8137, 8135, 8128, 8114,2.2217977046966553
31, 8143, 8179, 8164, 8151, 8145, 8179, 8149, 8177, 8132, 8192, 8140, 8129, 8133, 8124,2.2378957271575928
32, 8150, 8163, 8166, 8139, 8150, 8183, 8163, 8192, 8146, 8188, 8139, 8152, 8141, 8140,2.2378957271575928
33, 8138, 8160, 8148, 8127, 8144, 8188, 8168, 8183, 8145, 8198, 8142, 8152, 8155, 8131,2.2541213035583496
34, 8138, 8165, 8149, 8120, 8137, 8176, 8156, 8175, 8142, 8203, 8143, 8155, 8157, 8133,2.2541213035583496
35, 8145, 8163, 8156, 8117, 8130, 8155, 8145, 8186, 8145, 8180, 8130, 8157, 8146, 8142,2.2696022987365723
36, 8137, 8155, 8125, 8113, 8122, 8141, 8133, 8174, 8141, 8161, 8126, 8138, 8145, 8119,2.2696022987365723
37, 8137, 8162, 8143, 8106, 8122, 8142, 8108, 8159, 8118, 8163, 8139, 8155, 8152, 8109,2.2847979068756104
38, 8152, 8178, 8155, 8126, 8140, 8145, 8107, 8165, 8120, 8173, 8162, 8165, 8171, 8123,2.2847979068756104
39, 8169, 8186, 8164, 8141, 8151, 8145, 8118, 8162, 8115, 8151, 8166, 8168, 8171, 8131,2.3008954524993896
40, 8157, 8188, 8170, 8127, 8149, 8156, 8119, 8150, 8094, 8127, 8151, 8167, 8145, 8118,2.3008954524993896
41, 8132, 8190, 8149, 8128, 8152, 8159, 8125, 8147, 8100, 8143, 8141, 8140, 8129, 8090,2.316014289855957
42, 8135, 8205, 8182, 8144, 8153, 8155, 8134, 8163, 8118, 8160, 8144, 8143, 8132, 8089,2.316014289855957
43, 8142, 8202, 8178, 8148, 8152, 8166, 8145, 8171, 8130, 8161, 8149, 8141, 8141, 8105,2.3316259384155273
44, 8131, 8176, 8152, 8129, 8147, 8171, 8131, 8145, 8109, 8152, 8133, 8129, 8131, 8106,2.3316259384155273
45, 8121, 8165, 8166, 8123, 8145, 8176, 8125, 8142, 8094, 8146, 8118, 8124, 8129, 8095,2.3468234539031982
46, 8119, 8168, 8152, 8136, 8148, 8182, 8139, 8156, 8111, 8144, 8114, 8107, 8141, 8084,2.3468234539031982
47, 8116, 8170, 8154, 8128, 8143, 8174, 8131, 8153, 8110, 8132, 8095, 8110, 8131, 8086,2.36204195022583
48, 8116, 8171, 8152, 8135, 8140, 8175, 8127, 8162, 8119, 8159, 8102, 8115, 8147, 8097,2.36204195022583
49, 8133, 8170, 8155, 8149, 8137, 8181, 8140, 8172, 8148, 8197, 8134, 8135, 8188, 8118,2.37773060798645
50, 8139, 8173, 8169, 8142, 8127, 8177, 8145, 8169, 8148, 8184, 8132, 8148, 8192, 8123,2.37773060798645
51, 8130, 8168, 8143, 8138, 8128, 8165, 8123, 8163, 8137, 8167, 8117, 8125, 8181, 8105,2.3932383060455322
52, 8133, 8161, 8149, 8126, 8132, 8156, 8096, 8163, 8137, 8168, 8125, 8145, 8188, 8111,2.3932383060455322
53, 8133, 8162, 8142, 8117, 8124, 8148, 8102, 8170, 8141, 8179, 8141, 8154, 8203, 8119,2.4089365005493164
54, 8127, 8161, 8124, 8112, 8114, 8131, 8102, 8160, 8122, 8153, 8135, 8135, 8194, 8102,2.4089365005493164
55, 8138, 8165, 8149, 8111, 8118, 8136, 8092, 8156, 8114, 8117, 8120, 8145, 8178, 8094,2.4240381717681885
56, 8151, 8174, 8145, 8123, 8134, 8155, 8113, 8164, 8139, 8133, 8138, 8154, 8188, 8107,2.4240381717681885
57, 8148, 8185, 8162, 8119, 8144, 8157, 8120, 8165, 8134, 8146, 8162, 8167, 8206, 8118,2.4393703937530518
58, 8148, 8190, 8173, 8129, 8147, 8151, 8118, 8167, 8134, 8152, 8173, 8167, 8218, 8111,2.4393703937530518
59, 8164, 8187, 8170, 8148, 8140, 8145, 8124, 8162, 8146, 8161, 8172, 8165, 8208, 8111,2.4550552368164062
60, 8170, 8200, 8194, 8144, 8129, 8147, 8116, 8159, 8123, 8147, 8160, 8178, 8188, 8119,2.4550552368164062
61, 8149, 8200, 8174, 8136, 8137, 8152, 8117, 8155, 8111, 8143, 8156, 8157, 8185, 8110,2.4705617427825928
62, 8140, 8186, 8177, 8133, 8139, 8151, 8126, 8150, 8114, 8139, 8150, 8148, 8173, 8107,2.4858012199401855
63, 8151, 8199, 8197, 8155, 8139, 8166, 8138, 8154, 8117, 8143, 8152, 8155, 8164, 8111,2.4858012199401855
64, 8151, 8211, 8186, 8171, 8143, 8179, 8144, 8156, 8128, 8163, 8156, 8152, 8167, 8114,2.501879930496216
65, 8144, 8204, 8193, 8161, 8141, 8178, 8145, 8164, 8140, 8174, 8159, 8161, 8169, 8126,2.501879930496216
66, 8156, 8205, 8189, 8185, 8149, 8189, 8160, 8174, 8160, 8188, 8178, 8161, 8187, 8142,2.501879930496216
67, 8174, 8209, 8198, 8202, 8155, 8202, 8164, 8176, 8165, 8202, 8182, 8179, 8197, 8153,2.5179402828216553
68, 8158, 8194, 8184, 8170, 8142, 8193, 8159, 8173, 8161, 8199, 8165, 8177, 8185, 8140,2.5336952209472656
69, 8132, 8170, 8145, 8136, 8123, 8173, 8156, 8167, 8155, 8177, 8158, 8154, 8183, 8128,2.5336952209472656
70, 8138, 8170, 8164, 8139, 8126, 8178, 8160, 8178, 8152, 8167, 8167, 8173, 8183, 8143,2.548445701599121
71, 8144, 8176, 8157, 8154, 8141, 8187, 8157, 8190, 8169, 8187, 8169, 8167, 8176, 8141,2.548445701599121
72, 8143, 8177, 8155, 8138, 8131, 8161, 8121, 8168, 8160, 8169, 8166, 8158, 8164, 8124,2.5636889934539795
73, 8158, 8190, 8180, 8139, 8127, 8141, 8101, 8154, 8136, 8144, 8180, 8183, 8172, 8132,2.5636889934539795
74, 8179, 8201, 8181, 8166, 8145, 8140, 8108, 8162, 8139, 8165, 8205, 8205, 8195, 8147,2.5787551403045654
75, 8190, 8209, 8200, 8169, 8143, 8142, 8103, 8164, 8132, 8174, 8217, 8225, 8198, 8155,2.5787551403045654
76, 8197, 8218, 8201, 8177, 8132, 8143, 8105, 8157, 8115, 8154, 8216, 8214, 8192, 8150,2.593926429748535
77, 8205, 8223, 8212, 8188, 8140, 8140, 8106, 8151, 8106, 8139, 8209, 8208, 8179, 8149,2.593926429748535
78, 8197, 8228, 8221, 8187, 8150, 8149, 8105, 8154, 8111, 8145, 8208, 8209, 8168, 8149,2.610039710998535
79, 8178, 8222, 8193, 8184, 8146, 8152, 8109, 8140, 8110, 8142, 8200, 8183, 8154, 8133,2.610039710998535
80, 8173, 8215, 8210, 8182, 8141, 8153, 8108, 8134, 8095, 8121, 8182, 8178, 8135, 8126,2.6256558895111084
81, 8170, 8213, 8204, 8193, 8155, 8170, 8123, 8155, 8108, 8139, 8179, 8173, 8139, 8133,2.6256558895111084
82, 8159, 8199, 8176, 8187, 8156, 8175, 8134, 8157, 8124, 8159, 8173, 8164, 8140, 8138,2.640737533569336
83, 8148, 8186, 8171, 8171, 8136, 8171, 8138, 8159, 8125, 8154, 8157, 8159, 8140, 8137,2.640737533569336
84, 8148, 8177, 8158, 8171, 8123, 8169, 8143, 8168, 8130, 8156, 8155, 8156, 8150, 8135,2.65678334236145
85, 8155, 8177, 8176, 8157, 8122, 8156, 8130, 8165, 8123, 8153, 8148, 8174, 8143, 8139,2.65678334236145
86, 8153, 8179, 8156, 8153, 8131, 8152, 8129, 8166, 8130, 8159, 8147, 8160, 8148, 8133,2.671962022781372
87, 8149, 8175, 8120, 8153, 8131, 8156, 8133, 8170, 8139, 8159, 8155, 8152, 8159, 8121,2.671962022781372
88, 8150, 8175, 8134, 8134, 8120, 8153, 8120, 8170, 8130, 8135, 8138, 8162, 8145, 8112,2.6875829696655273
89, 8153, 8181, 8131, 8134, 8127, 8147, 8106, 8157, 8127, 8121, 8120, 8142, 8133, 8104,2.6875829696655273
90, 8156, 8190, 8144, 8139, 8143, 8154, 8108, 8154, 8121, 8118, 8128, 8144, 8129, 8105,2.7027230262756348
91, 8153, 8191, 8145, 8142, 8152, 8173, 8130, 8158, 8131, 8138, 8141, 8141, 8128, 8104,2.7027230262756348
92, 8151, 8183, 8150, 8151, 8153, 8187, 8137, 8141, 8138, 8151, 8134, 8131, 8124, 8105,2.7180700302124023
93, 8139, 8181, 8169, 8157, 8151, 8199, 8133, 8139, 8131, 8137, 8113, 8129, 8110, 8103,2.7180700302124023
94, 8115, 8177, 8133, 8152, 8155, 8198, 8152, 8156, 8138, 8149, 8106, 8100, 8094, 8090,2.7335867881774902
95, 8112, 8170, 8134, 8138, 8150, 8187, 8160, 8155, 8127, 8165, 8101, 8099, 8077, 8091,2.7335867881774902
96, 8118, 8162, 8139, 8142, 8142, 8197, 8158, 8147, 8122, 8157, 8090, 8103, 8075, 8091,2.7491419315338135
97, 8114, 8150, 8114, 8133, 8142, 8205, 8161, 8156, 8147, 8155, 8081, 8094, 8087, 8089,2.7491419315338135
98, 8110, 8155, 8116, 8108, 8146, 8198, 8159, 8182, 8157, 8168, 8085, 8109, 8094, 8102,2.7648725509643555
99, 8114, 8164, 8100, 8118, 8148, 8184, 8156, 8188, 8155, 8174, 8101, 8108, 8107, 8105,2.7648725509643555
100, 8118, 8153, 8110, 8115, 8139, 8165, 8138, 8175, 8158, 8153, 8101, 8112, 8114, 8106,2.7803285121917725
101, 8119, 8152, 8118, 8098, 8135, 8159, 8132, 8181, 8173, 8154, 8107, 8120, 8127, 8107,2.7803285121917725
102, 8131, 8168, 8114, 8108, 8143, 8157, 8136, 8175, 8166, 8161, 8127, 8124, 8132, 8101,2.796003818511963
103, 8133, 8186, 8144, 8125, 8149, 8152, 8128, 8151, 8136, 8131, 8124, 8137, 8118, 8090,2.796003818511963
104, 8125, 8194, 8136, 8136, 8154, 8160, 8125, 8136, 8129, 8116, 8117, 8129, 8115, 8081,2.8110475540161133
105, 8137, 8202, 8146, 8130, 8159, 8174, 8125, 8133, 8123, 8118, 8119, 8137, 8111, 8086,2.8110475540161133
106, 8138, 8210, 8158, 8138, 8171, 8179, 8128, 8144, 8122, 8128, 8115, 8134, 8097, 8083,2.8265976905822754
107, 8113, 8199, 8142, 8151, 8169, 8172, 8130, 8146, 8135, 8144, 8098, 8104, 8083, 8079,2.8265976905822754
108, 8108, 8180, 8155, 8135, 8148, 8178, 8131, 8149, 8142, 8146, 8081, 8105, 8075, 8099,2.841956615447998
109, 8115, 8159, 8127, 8113, 8143, 8185, 8139, 8158, 8152, 8147, 8083, 8106, 8093, 8104,2.841956615447998
110, 8115, 8153, 8112, 8088, 8145, 8163, 8121, 8156, 8148, 8130, 8087, 8122, 8103, 8092,2.8580117225646973
111, 8129, 8175, 8139, 8097, 8142, 8155, 8112, 8164, 8149, 8127, 8101, 8147, 8109, 8100,2.8580117225646973
112, 8150, 8181, 8142, 8126, 8151, 8166, 8134, 8173, 8166, 8155, 8126, 8151, 8134, 8120,2.873776912689209
113, 8140, 8166, 8148, 8109, 8151, 8160, 8127, 8163, 8159, 8151, 8122, 8154, 8129, 8114,2.873776912689209
114, 8120, 8157, 8126, 8093, 8131, 8149, 8108, 8148, 8140, 8125, 8102, 8126, 8093, 8081,2.8897922039031982
115, 8133, 8173, 8133, 8105, 8131, 8159, 8111, 8146, 8131, 8123, 8105, 8122, 8085, 8074,2.8897922039031982
116, 8141, 8199, 8161, 8122, 8163, 8178, 8127, 8165, 8144, 8141, 8122, 8139, 8109, 8092,2.905349016189575
117, 8120, 8195, 8144, 8132, 8171, 8181, 8135, 8165, 8158, 8148, 8123, 8122, 8113, 8088,2.905349016189575
118, 8112, 8175, 8148, 8123, 8147, 8176, 8133, 8151, 8141, 8140, 8103, 8123, 8091, 8086,2.921022415161133
119, 8119, 8177, 8144, 8138, 8150, 8186, 8150, 8156, 8140, 8155, 8098, 8123, 8095, 8100,2.921022415161133
120, 8121, 8187, 8146, 8153, 8165, 8196, 8154, 8162, 8148, 8161, 8100, 8117, 8106, 8105,2.9366466999053955
121, 8110, 8168, 8146, 8133, 8157, 8198, 8147, 8166, 8152, 8160, 8092, 8115, 8104, 8090,2.9366466999053955
122, 8102, 8146, 8105, 8107, 8149, 8184, 8145, 8165, 8169, 8173, 8095, 8114, 8115, 8087,2.953225612640381
123, 8118, 8165, 8124, 8102, 8153, 8171, 8126, 8164, 8169, 8152, 8107, 8143, 8123, 8106,2.953225612640381
124, 8132, 8179, 8137, 8118, 8155, 8174, 8119, 8170, 8169, 8134, 8117, 8144, 8132, 8102,2.9682836532592773
125, 8119, 8153, 8119, 8104, 8142, 8159, 8119, 8166, 8166, 8142, 8112, 8132, 8133, 8084,2.9682836532592773
126, 8114, 8145, 8124, 8083, 8134, 8143, 8115, 8159, 8153, 8142, 8104, 8138, 8119, 8088,2.9839649200439453
127, 8123, 8162, 8117, 8102, 8143, 8144, 8117, 8153, 8144, 8136, 8111, 8122, 8111, 8086,2.9839649200439453
237, 8122, 8171, 8140, 8117, 8141, 8145, 8113, 8149, 8127, 8123, 8107, 8121, 8103, 8079,2.999434232711792
0, 8110, 8167, 8140, 8117, 8140, 8168, 8122, 8149, 8125, 8118, 8099, 8110, 8101, 8071,2.999434232711792
1, 8113, 8162, 8130, 8118, 8151, 8186, 8137, 8146, 8135, 8113, 8102, 8101, 8100, 8074,3.0151872634887695
2, 8114, 8164, 8149, 8121, 8153, 8188, 8141, 8159, 8139, 8121, 8105, 8116, 8098, 8085,3.0151872634887695
3, 8103, 8160, 8131, 8128, 8157, 8190, 8141, 8165, 8145, 8137, 8102, 8109, 8092, 8077,3.0338921546936035
4, 8110, 8163, 8148, 8138, 8165, 8188, 8131, 8155, 8136, 8124, 8099, 8119, 8082, 8077,3.0338921546936035
5, 8126, 8180, 8163, 8162, 8176, 8192, 8141, 8157, 8138, 8130, 8117, 8132, 8102, 8094,3.045876979827881
6, 8122, 8170, 8149, 8157, 8172, 8191, 8153, 8159, 8149, 8149, 8120, 8130, 8112, 8104,3.062088966369629
7, 8116, 8151, 8148, 8133, 8160, 8189, 8150, 8167, 8151, 8154, 8103, 8136, 8104, 8112,3.062088966369629
8, 8126, 8158, 8127, 8142, 8162, 8190, 8151, 8176, 8172, 8180, 8115, 8126, 8129, 8122,3.062088966369629
9, 8131, 8160, 8135, 8137, 8157, 8186, 8137, 8173, 8177, 8179, 8123, 8130, 8136, 8128,3.0769832134246826
10, 8118, 8149, 8133, 8121, 8146, 8177, 8131, 8175, 8172, 8162, 8115, 8133, 8125, 8116,3.094229221343994
11, 8130, 8159, 8125, 8123, 8149, 8161, 8132, 8173, 8175, 8174, 8131, 8148, 8146, 8117,3.094229221343994
12, 8152, 8179, 8157, 8126, 8155, 8156, 8116, 8170, 8171, 8179, 8154, 8178, 8165, 8130,3.094229221343994
13, 8152, 8174, 8143, 8132, 8154, 8154, 8105, 8168, 8171, 8166, 8155, 8159, 8157, 8120,3.1078977584838867
14, 8158, 8179, 8149, 8130, 8151, 8148, 8107, 8164, 8166, 8143, 8148, 8160, 8141, 8111,3.123790979385376
15, 8157, 8195, 8163, 8132, 8152, 8158, 8118, 8166, 8157, 8135, 8148, 8166, 8136, 8099,3.123790979385376
16, 8125, 8176, 8137, 8131, 8148, 8162, 8112, 8153, 8135, 8140, 8133, 8137, 8124, 8078,3.139432430267334
17, 8112, 8166, 8153, 8127, 8148, 8164, 8102, 8145, 8116, 8142, 8115, 8139, 8109, 8092,3.139432430267334
18, 8129, 8178, 8156, 8149, 8159, 8175, 8131, 8157, 8146, 8161, 8124, 8145, 8121, 8116,3.15549635887146
19, 8134, 8167, 8149, 8145, 8152, 8178, 8146, 8174, 8171, 8173, 8135, 8152, 8139, 8122,3.15549635887146
20, 8132, 8153, 8145, 8124, 8141, 8170, 8128, 8188, 8170, 8171, 8144, 8171, 8157, 8129,3.1706721782684326
21, 8155, 8166, 8149, 8139, 8145, 8152, 8113, 8178, 8166, 8166, 8168, 8192, 8173, 8136,3.1706721782684326
22, 8172, 8191, 8191, 8163, 8158, 8148, 8110, 8163, 8149, 8166, 8179, 8208, 8170, 8141,3.185910940170288
23, 8153, 8189, 8173, 8172, 8172, 8169, 8131, 8157, 8134, 8176, 8166, 8173, 8162, 8132,3.185910940170288
24, 8139, 8163, 8152, 8160, 8162, 8174, 8142, 8149, 8121, 8161, 8139, 8154, 8137, 8125,3.202004909515381
25, 8151, 8159, 8161, 8156, 8147, 8163, 8131, 8157, 8125, 8149, 8128, 8170, 8130, 8128,3.202004909515381
26, 8164, 8172, 8149, 8165, 8156, 8162, 8125, 8169, 8153, 8174, 8158, 8188, 8172, 8137,3.217346429824829
27, 8176, 8187, 8172, 8162, 8171, 8172, 8127, 8177, 8169, 8189, 8189, 8220, 8201, 8152,3.217346429824829
28, 8177, 8192, 8174, 8180, 8177, 8185, 8131, 8179, 8178, 8186, 8192, 8201, 8189, 8143,3.232937812805176
29, 8156, 8185, 8162, 8189, 8174, 8188, 8123, 8163, 8163, 8179, 8162, 8164, 8156, 8124,3.232937812805176
30, 8131, 8169, 8152, 8170, 8171, 8189, 8130, 8154, 8144, 8184, 8132, 8151, 8137, 8122,3.2481446266174316
31, 8130, 8148, 8123, 8155, 8168, 8183, 8150, 8160, 8155, 8205, 8129, 8143, 8147, 8134,3.2481446266174316
32, 8149, 8160, 8145, 8148, 8158, 8172, 8137, 8165, 8155, 8192, 8147, 8166, 8159, 8145,3.2639589309692383
33, 8156, 8182, 8147, 8156, 8154, 8162, 8126, 8163, 8146, 8165, 8169, 8173, 8167, 8133,3.26435923576355
34, 8164, 8183, 8141, 8161, 8164, 8144, 8116, 8154, 8135, 8157, 8176, 8174, 8166, 8121,3.2799577713012695
35, 8166, 8186, 8166, 8159, 8170, 8149, 8105, 8155, 8130, 8167, 8167, 8185, 8159, 8119,3.2799577713012695
36, 8148, 8181, 8154, 8167, 8169, 8174, 8121, 8160, 8151, 8192, 8155, 8162, 8156, 8118,3.294633626937866
37, 8137, 8168, 8156, 8166, 8170, 8189, 8137, 8164, 8163, 8194, 8140, 8156, 8150, 8132,3.294633626937866
38, 8135, 8162, 8141, 8162, 8170, 8188, 8142, 8173, 8174, 8204, 8138, 8155, 8153, 8140,3.310056209564209
39, 8140, 8157, 8130, 8149, 8162, 8180, 8132, 8174, 8189, 8218, 8145, 8158, 8162, 8144,3.310056209564209
40, 8152, 8157, 8149, 8140, 8156, 8171, 8120, 8176, 8191, 8209, 8150, 8179, 8172, 8151,3.3259477615356445
41, 8163, 8162, 8136, 8144, 8157, 8152, 8121, 8170, 8191, 8205, 8172, 8181, 8192, 8150,3.3259477615356445
42, 8170, 8174, 8157, 8138, 8152, 8140, 8113, 8159, 8172, 8192, 8184, 8195, 8194, 8148,3.341492176055908
43, 8169, 8192, 8171, 8160, 8163, 8155, 8112, 8156, 8152, 8173, 8166, 8185, 8176, 8131,3.341492176055908
44, 8156, 8189, 8160, 8172, 8174, 8161, 8108, 8135, 8126, 8145, 8142, 8155, 8146, 8102,3.3571486473083496
45, 8132, 8178, 8167, 8147, 8159, 8162, 8102, 8129, 8110, 8134, 8127, 8143, 8123, 8085,3.3571486473083496
46, 8108, 8174, 8138, 8150, 8156, 8179, 8120, 8147, 8133, 8150, 8115, 8121, 8126, 8083,3.372824192047119
47, 8110, 8171, 8137, 8158, 8164, 8186, 8125, 8153, 8133, 8152, 8101, 8120, 8120, 8094,3.372824192047119
48, 8123, 8175, 8143, 8156, 8165, 8182, 8131, 8154, 8124, 8162, 8105, 8126, 8125, 8106,3.3881125450134277
49, 8132, 8178, 8130, 8156, 8159, 8172, 8141, 8162, 8138, 8177, 8119, 8134, 8155, 8116,3.3881125450134277
50, 8144, 8168, 8137, 8138, 8150, 8169, 8139, 8175, 8158, 8176, 8120, 8155, 8168, 8126,3.4037227630615234
51, 8149, 8161, 8122, 8127, 8153, 8172, 8138, 8176, 8181, 8191, 8128, 8149, 8172, 8118,3.4037227630615234
52, 8143, 8165, 8131, 8123, 8150, 8158, 8127, 8169, 8179, 8189, 8136, 8155, 8167, 8111,3.4191741943359375
53, 8133, 8159, 8128, 8120, 8143, 8144, 8115, 8164, 8159, 8165, 8134, 8155, 8157, 8104,3.4191741943359375
54, 8125, 8146, 8102, 8114, 8138, 8138, 8100, 8146, 8136, 8143, 8121, 8135, 8143, 8081,3.4347212314605713
55, 8117, 8160, 8133, 8109, 8133, 8137, 8090, 8140, 8125, 8134, 8114, 8143, 8131, 8075,3.4347212314605713
56, 8121, 8178, 8144, 8135, 8145, 8138, 8105, 8145, 8141, 8153, 8137, 8145, 8144, 8083,3.450294256210327
57, 8132, 8182, 8156, 8152, 8163, 8141, 8112, 8138, 8144, 8166, 8156, 8154, 8156, 8097,3.450294256210327
58, 8124, 8186, 8163, 8154, 8169, 8158, 8114, 8146, 8142, 8170, 8144, 8155, 8154, 8105,3.4659931659698486
59, 8116, 8174, 8142, 8159, 8163, 8164, 8123, 8153, 8141, 8172, 8119, 8131, 8140, 8095,3.4659931659698486
60, 8122, 8163, 8154, 8151, 8161, 8168, 8132, 8153, 8131, 8170, 8114, 8136, 8135, 8104,3.481135606765747
61, 8124, 8164, 8143, 8154, 8163, 8181, 8148, 8168, 8157, 8199, 8142, 8143, 8167, 8130,3.481135606765747
62, 8133, 8161, 8145, 8154, 8159, 8182, 8148, 8180, 8185, 8212, 8156, 8162, 8185, 8139,3.496741771697998
63, 8149, 8156, 8154, 8145, 8155, 8174, 8137, 8174, 8174, 8182, 8141, 8171, 8174, 8126,3.496741771697998
64, 8155, 8160, 8136, 8143, 8151, 8153, 8124, 8161, 8158, 8171, 8148, 8166, 8179, 8123,3.512868881225586
65, 8158, 8176, 8162, 8150, 8152, 8136, 8114, 8159, 8149, 8168, 8172, 8192, 8194, 8133,3.512868881225586
66, 8166, 8184, 8161, 8167, 8163, 8150, 8127, 8162, 8153, 8161, 8184, 8191, 8200, 8128,3.5284111499786377
67, 8176, 8178, 8156, 8156, 8165, 8159, 8127, 8154, 8148, 8151, 8176, 8185, 8186, 8123,3.5284111499786377
68, 8159, 8176, 8164, 8138, 8162, 8152, 8115, 8156, 8135, 8146, 8164, 8177, 8164, 8115,3.5437800884246826
69, 8131, 8180, 8150, 8156, 8170, 8157, 8121, 8154, 8132, 8148, 8168, 8150, 8160, 8099,3.544177293777466
70, 8136, 8189, 8178, 8172, 8176, 8173, 8129, 8149, 8125, 8145, 8167, 8164, 8158, 8107,3.558880567550659
71, 8149, 8187, 8178, 8184, 8177, 8181, 8138, 8152, 8140, 8163, 8161, 8170, 8162, 8121,3.558880567550659
72, 8148, 8177, 8167, 8180, 8166, 8174, 8133, 8142, 8149, 8169, 8154, 8158, 8158, 8125,3.574592351913452
73, 8137, 8168, 8170, 8160, 8147, 8168, 8133, 8138, 8134, 8159, 8144, 8157, 8147, 8117,3.574592351913452
74, 8128, 8147, 8137, 8149, 8142, 8160, 8144, 8145, 8134, 8158, 8140, 8148, 8147, 8111,3.5900940895080566
75, 8141, 8146, 8152, 8141, 8141, 8154, 8129, 8149, 8148, 8150, 8135, 8166, 8154, 8128,3.5900940895080566
76, 8168, 8175, 8169, 8158, 8149, 8155, 8125, 8160, 8171, 8158, 8151, 8182, 8172, 8144,3.605893135070801
77, 8180, 8182, 8164, 8168, 8157, 8144, 8130, 8162, 8167, 8159, 8165, 8191, 8180, 8144,3.605893135070801
78, 8167, 8170, 8168, 8152, 8150, 8137, 8116, 8161, 8146, 8141, 8161, 8196, 8180, 8140,3.6210522651672363
79, 8161, 8163, 8158, 8150, 8149, 8143, 8107, 8157, 8150, 8140, 8171, 8188, 8189, 8138,3.6210522651672363
80, 8177, 8171, 8184, 8157, 8161, 8145, 8102, 8152, 8153, 8138, 8178, 8209, 8183, 8134,3.636605978012085
81, 8179, 8182, 8181, 8170, 8174, 8146, 8109, 8151, 8155, 8141, 8175, 8201, 8174, 8121,3.652214527130127
82, 8161, 8175, 8165, 8167, 8168, 8147, 8109, 8142, 8145, 8141, 8166, 8176, 8163, 8111,3.652214527130127
83, 8150, 8174, 8189, 8155, 8161, 8157, 8105, 8133, 8123, 8136, 8155, 8184, 8145, 8113,3.652214527130127
84, 8156, 8184, 8177, 8171, 8170, 8174, 8124, 8132, 8128, 8140, 8156, 8177, 8148, 8114,3.6675922870635986
85, 8162, 8187, 8186, 8184, 8177, 8184, 8131, 8144, 8143, 8145, 8160, 8179, 8155, 8128,3.682737112045288
86, 8152, 8183, 8184, 8188, 8175, 8178, 8135, 8161, 8150, 8165, 8158, 8177, 8158, 8135,3.682737112045288
87, 8139, 8167, 8154, 8174, 8162, 8164, 8145, 8151, 8145, 8170, 8149, 8163, 8152, 8125,3.698429584503174
88, 8142, 8154, 8160, 8151, 8147, 8169, 8149, 8152, 8152, 8164, 8143, 8168, 8152, 8135,3.698429584503174
89, 8142, 8140, 8140, 8145, 8144, 8173, 8146, 8167, 8180, 8178, 8144, 8156, 8167, 8139,3.7136361598968506
90, 8133, 8132, 8132, 8130, 8138, 8148, 8128, 8161, 8171, 8164, 8133, 8152, 8167, 8125,3.7136361598968506
91, 8124, 8141, 8130, 8130, 8135, 8143, 8126, 8164, 8167, 8149, 8134, 8149, 8177, 8120,3.729581356048584
92, 8134, 8146, 8118, 8145, 8144, 8156, 8132, 8172, 8192, 8167, 8158, 8152, 8200, 8128,3.729581356048584
93, 8151, 8147, 8137, 8134, 8145, 8155, 8127, 8170, 8189, 8164, 8166, 8172, 8197, 8129,3.7461445331573486
94, 8148, 8146, 8123, 8129, 8144, 8147, 8128, 8164, 8175, 8151, 8159, 8158, 8192, 8107,3.747152090072632
95, 8143, 8148, 8125, 8129, 8148, 8144, 8122, 8158, 8165, 8145, 8156, 8153, 8189, 8098,3.747152090072632
96, 8145, 8164, 8140, 8132, 8151, 8154, 8120, 8153, 8161, 8139, 8164, 8152, 8177, 8097,3.761671304702759
97, 8145, 8174, 8134, 8144, 8149, 8157, 8121, 8138, 8155, 8137, 8162, 8135, 8159, 8086,3.7773263454437256
98, 8134, 8180, 8155, 8153, 8153, 8156, 8121, 8141, 8143, 8142, 8147, 8145, 8151, 8089,3.7773263454437256
99, 8126, 8184, 8143, 8163, 8163, 8170, 8140, 8156, 8151, 8155, 8146, 8136, 8153, 8095,3.7929952144622803
100, 8129, 8178, 8137, 8151, 8158, 8175, 8144, 8154, 8147, 8150, 8140, 8121, 8137, 8098,3.7929952144622803
101, 8130, 8176, 8144, 8149, 8152, 8181, 8147, 8158, 8146, 8156, 8135, 8119, 8136, 8101,3.808149814605713
102, 8134, 8179, 8128, 8162, 8157, 8192, 8162, 8167, 8173, 8181, 8142, 8117, 8159, 8103,3.808149814605713
103, 8136, 8173, 8135, 8149, 8151, 8196, 8153, 8168, 8183, 8178, 8130, 8126, 8148, 8105,3.8236708641052246
104, 8122, 8151, 8110, 8140, 8144, 8186, 8141, 8163, 8176, 8172, 8114, 8107, 8135, 8100,3.8236708641052246
105, 8119, 8144, 8111, 8142, 8148, 8176, 8140, 8157, 8163, 8172, 8122, 8105, 8136, 8103,3.8396639823913574
106, 8124, 8159, 8138, 8144, 8149, 8187, 8148, 8161, 8161, 8170, 8135, 8116, 8136, 8108,3.8396639823913574
107, 8129, 8160, 8115, 8144, 8147, 8187, 8143, 8162, 8169, 8170, 8136, 8116, 8149, 8109,3.855727434158325
108, 8145, 8160, 8124, 8130, 8146, 8161, 8121, 8162, 8160, 8156, 8149, 8149, 8166, 8122,3.855727434158325
109, 8160, 8174, 8136, 8144, 8153, 8150, 8118, 8155, 8147, 8146, 8174, 8157, 8166, 8116,3.8709218502044678
110, 8164, 8184, 8156, 8171, 8155, 8160, 8119, 8139, 8134, 8140, 8178, 8181, 8154, 8102,3.8709218502044678
111, 8167, 8193, 8183, 8173, 8155, 8173, 8129, 8157, 8137, 8145, 8188, 8264, 8165, 8109,3.8869659900665283
112, 8172, 8196, 8168, 8173, 8160, 8171, 8143, 8173, 8152, 8156, 8210, 8289, 8179, 8118,3.8869659900665283
113, 8168, 8191, 8185, 8183, 8164, 8159, 8125, 8152, 8130, 8137, 8205, 8250, 8154, 8108,3.903266429901123
114, 8155, 8184, 8188, 8205, 8169, 8159, 8116, 8135, 8117, 8126, 8195, 8206, 8143, 8092,3.903266429901123
115, 8151, 8185, 8181, 8215, 8166, 8167, 8128, 8137, 8129, 8129, 8201, 8208, 8157, 8099,3.918854236602783
116, 8155, 8198, 8198, 8223, 8163, 8178, 8134, 8152, 8140, 8139, 8207, 8221, 8163, 8114,3.918854236602783
117, 8159, 8203, 8195, 8248, 8174, 8181, 8143, 8154, 8144, 8161, 8210, 8206, 8167, 8111,3.9341652393341064
118, 8166, 8204, 8220, 8258, 8176, 8176, 8141, 8143, 8129, 8155, 8206, 8218, 8164, 8113,3.9341652393341064
119, 8166, 8212, 8226, 8265, 8172, 8177, 8141, 8141, 8121, 8141, 8206, 8221, 8166, 8114,3.950103521347046
120, 8172, 8212, 8219, 8261, 8168, 8169, 8146, 8143, 8111, 8137, 8211, 8220, 8163, 8115,3.950103521347046
121, 8184, 8202, 8234, 8250, 8157, 8166, 8153, 8158, 8104, 8135, 8205, 8231, 8157, 8129,3.9656894207000732
122, 8182, 8188, 8207, 8256, 8158, 8172, 8165, 8176, 8142, 8162, 8214, 8224, 8177, 8141,3.9656894207000732
123, 8184, 8184, 8212, 8252, 8171, 8183, 8169, 8185, 8174, 8180, 8224, 8233, 8194, 8150,3.9817874431610107
124, 8183, 8189, 8212, 8246, 8179, 8199, 8176, 8179, 8175, 8185, 8217, 8224, 8191, 8143,3.9817874431610107
125, 8172, 8178, 8187, 8232, 8176, 8191, 8166, 8162, 8168, 8186, 8215, 8212, 8185, 8133,3.9966158866882324
126, 8175, 8178, 8200, 8213, 8171, 8175, 8147, 8171, 8167, 8186, 8223, 8228, 8191, 8140,3.9966158866882324
127, 8183, 8184, 8183, 8211, 8171, 8176, 8156, 8183, 8179, 8196, 8226, 8214, 8203, 8134,4.017880916595459
237, 8171, 8169, 8171, 8192, 8165, 8171, 8156, 8170, 8171, 8176, 8209, 8200, 8194, 8123,4.017880916595459
0, 8156, 8155, 8161, 8168, 8164, 8162, 8152, 8166, 8168, 8161, 8202, 8195, 8187, 8112,4.017880916595459
1, 8160, 8162, 8144, 8161, 8164, 8162, 8158, 8177, 8179, 8175, 8209, 8190, 8190, 8100,4.028062582015991
2, 8162, 8177, 8165, 8162, 8162, 8172, 8163, 8186, 8180, 8191, 8210, 8201, 8190, 8105,4.043237924575806
3, 8156, 8176, 8157, 8174, 8174, 8177, 8166, 8181, 8178, 8195, 8218, 8189, 8202, 8107,4.043237924575806
4, 8168, 8175, 8164, 8164, 8178, 8167, 8143, 8163, 8159, 8177, 8220, 8197, 8199, 8102,4.058970928192139
5, 8170, 8187, 8171, 8153, 8172, 8168, 8128, 8162, 8156, 8173, 8217, 8198, 8188, 8097,4.058970928192139
6, 8151, 8181, 8156, 8164, 8167, 8170, 8132, 8163, 8157, 8173, 8204, 8161, 8175, 8089,4.074660301208496
7, 8145, 8182, 8176, 8165, 8164, 8167, 8130, 8158, 8141, 8159, 8181, 8154, 8158, 8083,4.074660301208496
8, 8152, 8193, 8168, 8167, 8169, 8171, 8141, 8159, 8151, 8167, 8184, 8152, 8163, 8080,4.089829444885254
9, 8156, 8189, 8176, 8166, 8170, 8172, 8151, 8155, 8152, 8180, 8202, 8161, 8167, 8088,4.089829444885254
10, 8154, 8181, 8191, 8172, 8168, 8189, 8174, 8154, 8143, 8192, 8200, 8165, 8168, 8091,4.105890989303589
11, 8145, 8177, 8165, 8177, 8175, 8206, 8198, 8157, 8155, 8199, 8185, 8144, 8171, 8091,4.105890989303589
12, 8127, 8171, 8167, 8156, 8171, 8199, 8181, 8163, 8156, 8173, 8161, 8137, 8156, 8089,4.1219635009765625
13, 8119, 8155, 8148, 8148, 8153, 8195, 8173, 8175, 8162, 8173, 8154, 8124, 8149, 8082,4.1219635009765625
14, 8134, 8152, 8145, 8148, 8148, 8193, 8175, 8187, 8183, 8199, 8169, 8137, 8157, 8094,4.138075351715088
15, 8136, 8156, 8146, 8133, 8153, 8183, 8163, 8192, 8194, 8203, 8179, 8149, 8159, 8101,4.138075351715088
16, 8125, 8143, 8113, 8119, 8149, 8166, 8149, 8175, 8185, 8188, 8169, 8128, 8153, 8088,4.155842542648315
17, 8134, 8149, 8136, 8118, 8146, 8158, 8148, 8168, 8174, 8177, 8162, 8140, 8154, 8087,4.155842542648315
18, 8148, 8171, 8144, 8135, 8154, 8158, 8162, 8179, 8185, 8192, 8177, 8145, 8176, 8090,4.168768644332886
19, 8145, 8174, 8138, 8123, 8152, 8149, 8150, 8167, 8171, 8185, 8175, 8142, 8177, 8086,4.168768644332886
20, 8146, 8187, 8156, 8116, 8154, 8149, 8136, 8160, 8150, 8157, 8165, 8152, 8161, 8082,4.184012413024902
21, 8154, 8210, 8153, 8150, 8174, 8155, 8148, 8166, 8158, 8161, 8175, 8146, 8161, 8078,4.184012413024902
22, 8148, 8213, 8171, 8164, 8170, 8158, 8148, 8163, 8157, 8165, 8170, 8141, 8155, 8078,4.199707508087158
23, 8137, 8204, 8166, 8162, 8155, 8162, 8150, 8162, 8156, 8164, 8157, 8128, 8154, 8082,4.199707508087158
24, 8138, 8190, 8158, 8155, 8153, 8163, 8154, 8162, 8160, 8167, 8149, 8129, 8152, 8090,4.214866638183594
25, 8136, 8176, 8161, 8144, 8150, 8170, 8158, 8164, 8155, 8172, 8139, 8135, 8139, 8089,4.214866638183594
26, 8126, 8170, 8135, 8154, 8147, 8178, 8172, 8162, 8164, 8180, 8136, 8117, 8139, 8078,4.230879306793213
27, 8141, 8174, 8152, 8151, 8145, 8182, 8173, 8166, 8172, 8182, 8136, 8127, 8150, 8090,4.230879306793213
28, 8147, 8170, 8149, 8140, 8140, 8180, 8170, 8174, 8179, 8197, 8140, 8127, 8153, 8101,4.246631145477295
29, 8134, 8152, 8126, 8133, 8128, 8166, 8161, 8163, 8169, 8190, 8129, 8112, 8135, 8092,4.246631145477295
30, 8140, 8150, 8140, 8136, 8122, 8168, 8158, 8164, 8160, 8172, 8120, 8118, 8129, 8094,4.261967182159424
31, 8153, 8149, 8129, 8143, 8128, 8172, 8162, 8172, 8179, 8181, 8147, 8121, 8152, 8106,4.261967182159424
32, 8157, 8146, 8145, 8128, 8132, 8154, 8142, 8177, 8180, 8182, 8172, 8152, 8167, 8115,4.2775819301605225
33, 8151, 8158, 8149, 8129, 8138, 8145, 8135, 8179, 8169, 8178, 8175, 8151, 8169, 8096,4.2775819301605225
34, 8141, 8166, 8135, 8140, 8144, 8145, 8134, 8168, 8161, 8165, 8164, 8116, 8145, 8068,4.293205976486206
35, 8141, 8173, 8157, 8149, 8150, 8164, 8139, 8165, 8156, 8149, 8154, 8113, 8116, 8071,4.293205976486206
36, 8146, 8176, 8148, 8170, 8161, 8190, 8173, 8170, 8175, 8175, 8146, 8108, 8131, 8081,4.307950973510742
37, 8142, 8164, 8148, 8154, 8155, 8192, 8179, 8174, 8184, 8200, 8142, 8119, 8151, 8094,4.307950973510742
38, 8138, 8151, 8137, 8128, 8143, 8175, 8155, 8180, 8189, 8197, 8157, 8121, 8156, 8096,4.323567628860474
39, 8161, 8158, 8123, 8133, 8140, 8150, 8130, 8168, 8184, 8177, 8173, 8121, 8155, 8088,4.323567628860474
40, 8172, 8178, 8149, 8141, 8144, 8143, 8113, 8152, 8160, 8155, 8172, 8141, 8152, 8086,4.339659690856934
41, 8151, 8188, 8140, 8147, 8153, 8145, 8113, 8144, 8150, 8149, 8181, 8123, 8153, 8075,4.339659690856934
42, 8148, 8191, 8156, 8154, 8154, 8145, 8120, 8139, 8141, 8144, 8184, 8114, 8139, 8073,4.355243682861328
43, 8153, 8194, 8168, 8172, 8163, 8167, 8145, 8148, 8145, 8153, 8163, 8113, 8130, 8080,4.355243682861328
44, 8154, 8191, 8148, 8180, 8175, 8179, 8163, 8162, 8172, 8172, 8154, 8103, 8143, 8087,4.370966911315918
45, 8160, 8185, 8166, 8167, 8165, 8162, 8162, 8180, 8185, 8181, 8164, 8113, 8157, 8107,4.370966911315918
46, 8156, 8176, 8155, 8164, 8155, 8162, 8163, 8184, 8180, 8186, 8165, 8105, 8166, 8110,4.386600494384766
47, 8149, 8173, 8152, 8158, 8154, 8175, 8158, 8165, 8164, 8167, 8155, 8109, 8161, 8101,4.386600494384766
48, 8151, 8179, 8162, 8159, 8151, 8167, 8156, 8164, 8159, 8155, 8156, 8113, 8157, 8105,4.401697158813477
49, 8161, 8171, 8146, 8155, 8145, 8140, 8145, 8173, 8153, 8159, 8165, 8103, 8161, 8107,4.401697158813477
50, 8169, 8172, 8162, 8137, 8142, 8131, 8123, 8175, 8147, 8145, 8170, 8122, 8171, 8101,4.416910648345947
51, 8183, 8183, 8165, 8151, 8146, 8139, 8129, 8176, 8167, 8146, 8189, 8134, 8190, 8104,4.416910648345947
52, 8200, 8187, 8184, 8170, 8148, 8139, 8130, 8165, 8162, 8155, 8202, 8147, 8189, 8116,4.4329993724823
53, 8196, 8197, 8197, 8171, 8154, 8141, 8123, 8159, 8142, 8151, 8203, 8155, 8181, 8112,4.4329993724823
54, 8187, 8204, 8174, 8176, 8156, 8139, 8124, 8157, 8141, 8142, 8210, 8142, 8188, 8106,4.447845935821533
55, 8197, 8215, 8206, 8194, 8155, 8141, 8124, 8152, 8128, 8136, 8215, 8151, 8188, 8117,4.4640514850616455
56, 8200, 8223, 8217, 8220, 8169, 8159, 8140, 8152, 8119, 8153, 8212, 8142, 8178, 8115,4.4640514850616455
57, 8176, 8203, 8203, 8222, 8183, 8165, 8145, 8148, 8121, 8147, 8193, 8124, 8154, 8107,4.478737115859985
58, 8153, 8186, 8201, 8209, 8180, 8164, 8133, 8152, 8120, 8131, 8178, 8105, 8141, 8098,4.478737115859985
59, 8159, 8193, 8192, 8209, 8158, 8169, 8140, 8160, 8128, 8149, 8185, 8069, 8159, 8093,4.494644403457642
60, 8172, 8196, 8206, 8200, 8147, 8175, 8150, 8162, 8135, 8165, 8184, 8050, 8167, 8105,4.494644403457642
61, 8157, 8179, 8175, 8200, 8170, 8178, 8164, 8160, 8141, 8169, 8178, 8016, 8153, 8097,4.509785890579224
62, 8139, 8169, 8154, 8199, 8182, 8175, 8175, 8164, 8138, 8158, 8165, 7993, 8133, 8084,4.509785890579224
63, 8147, 8178, 8178, 8191, 8170, 8178, 8177, 8173, 8143, 8151, 8149, 7993, 8130, 8093,4.525225877761841
64, 8158, 8178, 8168, 8203, 8181, 8185, 8181, 8172, 8167, 8173, 8163, 7984, 8156, 8104,4.525225877761841
65, 8158, 8174, 8172, 8196, 8180, 8185, 8173, 8172, 8162, 8176, 8179, 8000, 8158, 8111,4.5410239696502686
66, 8152, 8177, 8154, 8166, 8147, 8178, 8167, 8176, 8153, 8164, 8166, 7988, 8144, 8106,4.5410239696502686
67, 8151, 8169, 8136, 8138, 8132, 8159, 8154, 8165, 8152, 8154, 8141, 7966, 8145, 8098,4.55682373046875
68, 8164, 8163, 8153, 8142, 8153, 8155, 8145, 8160, 8147, 8156, 8149, 7984, 8158, 8105,4.55682373046875
69, 8179, 8165, 8140, 8175, 8166, 8167, 8157, 8169, 8159, 8173, 8179, 7997, 8176, 8120,4.571953296661377
70, 8179, 8162, 8149, 8165, 8153, 8161, 8158, 8171, 8157, 8158, 8170, 8008, 8173, 8115,4.571953296661377
71, 8159, 8148, 8138, 8131, 8149, 8157, 8155, 8170, 8160, 8134, 8147, 7993, 8171, 8085,4.587762355804443
72, 8157, 8138, 8126, 8116, 8142, 8156, 8148, 8170, 8165, 8135, 8144, 7993, 8170, 8079,4.587762355804443
73, 8184, 8157, 8163, 8127, 8131, 8151, 8139, 8176, 8157, 8142, 8148, 8030, 8164, 8098,4.60404109954834
74, 8188, 8166, 8158, 8148, 8152, 8157, 8147, 8172, 8158, 8145, 8157, 8027, 8173, 8091,4.60404109954834
75, 8170, 8164, 8158, 8145, 8172, 8166, 8144, 8160, 8149, 8139, 8162, 8015, 8164, 8077,4.620044946670532
76, 8170, 8180, 8162, 8158, 8172, 8167, 8148, 8160, 8152, 8146, 8159, 8005, 8146, 8076,4.620044946670532
77, 8179, 8187, 8156, 8178, 8171, 8166, 8146, 8150, 8151, 8137, 8153, 7996, 8136, 8076,4.6356611251831055
78, 8167, 8181, 8168, 8174, 8168, 8183, 8140, 8144, 8127, 8114, 8139, 8001, 8131, 8075,4.6356611251831055
79, 8143, 8170, 8134, 8173, 8171, 8189, 8155, 8140, 8122, 8128, 8123, 7979, 8129, 8064,4.651199817657471
80, 8137, 8162, 8135, 8160, 8174, 8180, 8155, 8141, 8129, 8140, 8110, 7977, 8118, 8063,4.651199817657471
81, 8137, 8155, 8149, 8153, 8150, 8195, 8156, 8160, 8147, 8152, 8118, 7988, 8125, 8071,4.666780233383179
82, 8130, 8141, 8122, 8149, 8135, 8198, 8159, 8160, 8156, 8159, 8122, 7989, 8135, 8074,4.666780233383179
83, 8137, 8137, 8124, 8115, 8158, 8174, 8142, 8154, 8156, 8138, 8108, 8005, 8128, 8078,4.682875394821167
84, 8152, 8145, 8114, 8119, 8183, 8168, 8146, 8174, 8182, 8150, 8127, 8011, 8147, 8084,4.682875394821167
85, 8164, 8153, 8128, 8140, 8175, 8179, 8158, 8189, 8190, 8171, 8151, 8033, 8165, 8094,4.698622703552246
86, 8166, 8155, 8138, 8123, 8163, 8181, 8158, 8182, 8177, 8166, 8149, 8046, 8161, 8086,4.698622703552246
87, 8161, 8156, 8122, 8120, 8168, 8174, 8153, 8166, 8173, 8154, 8158, 8040, 8164, 8072,4.7138519287109375
88, 8154, 8173, 8150, 8158, 8175, 8181, 8146, 8160, 8157, 8141, 8169, 8059, 8158, 8081,4.7138519287109375
89, 8144, 8185, 8149, 8185, 8174, 8199, 8148, 8156, 8145, 8147, 8163, 8048, 8145, 8078,4.728921413421631
90, 8146, 8177, 8155, 8163, 8160, 8202, 8146, 8149, 8144, 8161, 8152, 8040, 8140, 8071,4.728921413421631
91, 8151, 8182, 8170, 8169, 8167, 8201, 8153, 8162, 8159, 8165, 8161, 8044, 8145, 8076,4.744862079620361
92, 8140, 8174, 8143, 8186, 8185, 8197, 8159, 8165, 8168, 8157, 8159, 8023, 8137, 8073,4.744862079620361
93, 8121, 8143, 8134, 8140, 8167, 8200, 8157, 8157, 8150, 8149, 8127, 8010, 8111, 8063,4.760282039642334
94, 8105, 8128, 8107, 8120, 8154, 8208, 8165, 8151, 8143, 8146, 8110, 7994, 8100, 8055,4.760282039642334
95, 8108, 8136, 8104, 8148, 8162, 8201, 8160, 8147, 8142, 8133, 8101, 7999, 8098, 8060,4.776061773300171
96, 8114, 8144, 8117, 8174, 8171, 8197, 8160, 8163, 8158, 8143, 8099, 8007, 8102, 8068,4.776061773300171
97, 8115, 8134, 8091, 8168, 8173, 8194, 8171, 8173, 8179, 8170, 8122, 8035, 8115, 8065,4.791702508926392
98, 8124, 8132, 8108, 8144, 8166, 8187, 8165, 8173, 8169, 8168, 8133, 8117, 8119, 8070,4.791702508926392
99, 8133, 8139, 8107, 8147, 8165, 8188, 8164, 8175, 8173, 8168, 8125, 8128, 8127, 8068,4.806786060333252
100, 8142, 8136, 8100, 8149, 8163, 8179, 8153, 8170, 8178, 8159, 8133, 8094, 8130, 8066,4.806786060333252
101, 8146, 8148, 8124, 8146, 8163, 8170, 8136, 8173, 8165, 8140, 8154, 8097, 8133, 8072,4.822830438613892
102, 8151, 8163, 8124, 8159, 8171, 8174, 8149, 8174, 8170, 8149, 8157, 8084, 8144, 8073,4.822830438613892
103, 8161, 8160, 8143, 8163, 8174, 8179, 8154, 8164, 8170, 8153, 8152, 8081, 8142, 8080,4.838047504425049
104, 8157, 8149, 8133, 8165, 8176, 8179, 8139, 8153, 8152, 8139, 8156, 8075, 8134, 8072,4.838047504425049
105, 8137, 8147, 8119, 8165, 8173, 8174, 8134, 8140, 8127, 8119, 8141, 8057, 8111, 8056,4.852832555770874
106, 8123, 8145, 8136, 8163, 8162, 8181, 8150, 8147, 8128, 8110, 8120, 8053, 8089, 8060,4.852832555770874
107, 8124, 8114, 8107, 8157, 8150, 8179, 8150, 8162, 8147, 8123, 8119, 8040, 8088, 8066,4.868199825286865
108, 8125, 8091, 8096, 8124, 8139, 8164, 8127, 8165, 8138, 8108, 8107, 8044, 8073, 8059,4.868199825286865
109, 8120, 8098, 8088, 8107, 8139, 8173, 8143, 8170, 8138, 8093, 8098, 8045, 8057, 8048,4.884108304977417
110, 8127, 8103, 8092, 8118, 8137, 8175, 8160, 8174, 8153, 8099, 8097, 8040, 8054, 8054,4.884108304977417
111, 8133, 8103, 8118, 8116, 8134, 8162, 8146, 8181, 8154, 8108, 8100, 8050, 8059, 8064,4.8990747928619385
112, 8131, 8104, 8103, 8111, 8143, 8167, 8149, 8179, 8156, 8122, 8131, 8064, 8078, 8066,4.8990747928619385
113, 8140, 8118, 8121, 8111, 8141, 8171, 8145, 8162, 8143, 8108, 8144, 8087, 8076, 8068,4.914705276489258
114, 8141, 8124, 8132, 8123, 8138, 8165, 8139, 8148, 8134, 8095, 8122, 8064, 8061, 8053,4.914705276489258
115, 8126, 8113, 8118, 8134, 8149, 8170, 8144, 8143, 8143, 8109, 8119, 8036, 8059, 8046,4.92987585067749
116, 8117, 8115, 8130, 8141, 8161, 8181, 8145, 8147, 8144, 8119, 8128, 8049, 8058, 8054,4.92987585067749
117, 8120, 8120, 8115, 8157, 8160, 8180, 8144, 8144, 8140, 8117, 8112, 8036, 8052, 8047,4.945589065551758
118, 8132, 8122, 8134, 8157, 8159, 8178, 8147, 8144, 8135, 8115, 8095, 8040, 8052, 8059,4.945589065551758
119, 8149, 8126, 8151, 8161, 8170, 8183, 8159, 8166, 8159, 8146, 8121, 8067, 8092, 8092,4.961054563522339
120, 8158, 8120, 8129, 8155, 8163, 8164, 8139, 8172, 8164, 8150, 8143, 8076, 8124, 8093,4.961054563522339
121, 8155, 8126, 8143, 8133, 8148, 8146, 8109, 8156, 8128, 8108, 8127, 8083, 8104, 8067,4.977078914642334
122, 8150, 8145, 8149, 8155, 8156, 8162, 8125, 8150, 8132, 8110, 8143, 8085, 8106, 8056,4.977078914642334
123, 8154, 8138, 8164, 8161, 8160, 8166, 8128, 8147, 8142, 8130, 8171, 8099, 8123, 8069,4.992794752120972
124, 8153, 8125, 8162, 8151, 8154, 8162, 8133, 8155, 8134, 8135, 8156, 8088, 8119, 8075,4.992794752120972
125, 8151, 8128, 8141, 8168, 8157, 8174, 8159, 8162, 8146, 8146, 8136, 8063, 8117, 8077,5.008582353591919
126, 8156, 8124, 8164, 8166, 8154, 8174, 8151, 8157, 8156, 8150, 8146, 8082, 8128, 8085,5.008582353591919
127, 8146, 8110, 8143, 8146, 8142, 8156, 8133, 8153, 8159, 8149, 8152, 8081, 8136, 8078,5.023835897445679
237, 8136, 8104, 8127, 8131, 8134, 8146, 8126, 8155, 8153, 8138, 8135, 8079, 8128, 8073,5.039378643035889
0, 8144, 8118, 8143, 8140, 8143, 8161, 8128, 8167, 8152, 8133, 8142, 8091, 8137, 8076,5.039378643035889
1, 8160, 8139, 8146, 8155, 8164, 8165, 8137, 8167, 8155, 8148, 8162, 8086, 8150, 8071,5.054628610610962
2, 8162, 8152, 8170, 8151, 8162, 8159, 8135, 8157, 8141, 8152, 8159, 8092, 8129, 8065,5.054628610610962
3, 8144, 8143, 8153, 8162, 8153, 8160, 8129, 8147, 8134, 8146, 8143, 8067, 8110, 8049,5.054628610610962
4, 8139, 8135, 8148, 8173, 8157, 8164, 8130, 8143, 8139, 8142, 8135, 8056, 8110, 8049,5.070659875869751
5, 8148, 8135, 8159, 8163, 8146, 8177, 8154, 8161, 8164, 8164, 8146, 8077, 8125, 8073,5.070659875869751
6, 8148, 8120, 8130, 8153, 8137, 8175, 8168, 8169, 8182, 8190, 8152, 8076, 8136, 8087,5.087038278579712
7, 8149, 8112, 8136, 8142, 8145, 8155, 8150, 8163, 8161, 8165, 8132, 8084, 8123, 8083,5.087038278579712
8, 8145, 8113, 8125, 8132, 8138, 8138, 8139, 8167, 8151, 8141, 8122, 8080, 8115, 8063,5.101607322692871
9, 8148, 8116, 8123, 8119, 8128, 8132, 8123, 8167, 8152, 8137, 8139, 8095, 8125, 8058,5.117579698562622
10, 8152, 8130, 8147, 8125, 8151, 8146, 8112, 8164, 8143, 8137, 8155, 8116, 8133, 8061,5.117579698562622
11, 8146, 8132, 8132, 8134, 8166, 8150, 8117, 8153, 8137, 8137, 8154, 8092, 8124, 8046,5.117579698562622
12, 8144, 8140, 8154, 8133, 8157, 8142, 8121, 8151, 8125, 8129, 8144, 8089, 8099, 8047,5.132726430892944
13, 8147, 8160, 8167, 8163, 8165, 8146, 8132, 8155, 8127, 8137, 8148, 8080, 8097, 8056,5.148301601409912
14, 8137, 8147, 8157, 8178, 8158, 8148, 8125, 8143, 8124, 8140, 8139, 8057, 8089, 8043,5.148301601409912
15, 8119, 8120, 8152, 8157, 8140, 8151, 8115, 8145, 8121, 8151, 8120, 8053, 8074, 8032,5.1636035442352295
16, 8114, 8108, 8117, 8143, 8147, 8157, 8126, 8156, 8144, 8175, 8130, 8055, 8089, 8038,5.1636035442352295
17, 8118, 8108, 8122, 8127, 8151, 8155, 8122, 8156, 8147, 8167, 8138, 8078, 8105, 8052,5.179610967636108
18, 8132, 8119, 8130, 8132, 8148, 8149, 8116, 8164, 8142, 8162, 8144, 8086, 8121, 8062,5.179610967636108
19, 8168, 8136, 8147, 8151, 8150, 8138, 8117, 8166, 8141, 8169, 8176, 8104, 8145, 8075,5.195580244064331
20, 8191, 8156, 8186, 8166, 8162, 8145, 8125, 8161, 8140, 8166, 8200, 8137, 8154, 8081,5.195580244064331
21, 8167, 8158, 8165, 8180, 8176, 8165, 8141, 8156, 8141, 8172, 8190, 8104, 8138, 8065,5.210790634155273
22, 8142, 8145, 8164, 8169, 8171, 8166, 8135, 8151, 8128, 8172, 8161, 8074, 8109, 8062,5.210790634155273
23, 8147, 8144, 8171, 8173, 8170, 8165, 8131, 8157, 8135, 8171, 8155, 8077, 8107, 8068,5.226469993591309
24, 8157, 8144, 8165, 8190, 8177, 8168, 8137, 8157, 8149, 8177, 8156, 8089, 8109, 8069,5.226469993591309
25, 8154, 8138, 8176, 8172, 8166, 8170, 8141, 8162, 8148, 8190, 8150, 8099, 8104, 8076,5.241575002670288
26, 8146, 8129, 8148, 8153, 8154, 8169, 8143, 8171, 8162, 8206, 8156, 8086, 8118, 8080,5.241575002670288
27, 8145, 8124, 8151, 8145, 8147, 8156, 8127, 8165, 8163, 8187, 8159, 8096, 8119, 8074,5.256930112838745
28, 8156, 8129, 8167, 8153, 8149, 8155, 8128, 8165, 8167, 8180, 8161, 8106, 8121, 8067,5.256930112838745
29, 8181, 8150, 8173, 8171, 8164, 8159, 8137, 8167, 8181, 8192, 8176, 8123, 8143, 8082,5.272933483123779
30, 8197, 8177, 8201, 8175, 8175, 8163, 8123, 8170, 8172, 8179, 8185, 8148, 8148, 8101,5.272933483123779
31, 8183, 8176, 8179, 8180, 8174, 8162, 8118, 8161, 8156, 8175, 8187, 8117, 8136, 8083,5.2886974811553955
32, 8172, 8162, 8177, 8178, 8169, 8155, 8116, 8150, 8135, 8161, 8179, 8102, 8119, 8063,5.2886974811553955
33, 8173, 8162, 8182, 8184, 8170, 8165, 8127, 8158, 8134, 8145, 8166, 8094, 8116, 8063,5.3038811683654785
34, 8162, 8145, 8151, 8184, 8164, 8176, 8148, 8158, 8146, 8164, 8154, 8063, 8113, 8067,5.3038811683654785
35, 8140, 8125, 8144, 8166, 8153, 8175, 8151, 8153, 8142, 8182, 8143, 8067, 8100, 8074,5.319894313812256
36, 8135, 8127, 8126, 8166, 8154, 8159, 8149, 8160, 8153, 8191, 8143, 8065, 8104, 8076,5.319894313812256
37, 8163, 8143, 8141, 8169, 8149, 8143, 8138, 8171, 8174, 8195, 8148, 8078, 8125, 8087,5.335331916809082
38, 8181, 8153, 8158, 8167, 8140, 8146, 8128, 8175, 8184, 8194, 8161, 8098, 8149, 8095,5.335331916809082
39, 8177, 8144, 8130, 8163, 8145, 8140, 8120, 8163, 8178, 8179, 8174, 8092, 8152, 8084,5.351380109786987
40, 8168, 8145, 8138, 8142, 8143, 8129, 8109, 8158, 8154, 8155, 8165, 8090, 8134, 8068,5.351380109786987
41, 8157, 8162, 8135, 8144, 8140, 8138, 8115, 8154, 8144, 8152, 8155, 8072, 8127, 8054,5.367014646530151
42, 8171, 8179, 8157, 8176, 8159, 8155, 8133, 8144, 8146, 8158, 8161, 8081, 8129, 8071,5.367014646530151
43, 8187, 8190, 8180, 8202, 8174, 8180, 8158, 8158, 8167, 8187, 8167, 8094, 8130, 8097,5.382144212722778
44, 8176, 8169, 8143, 8183, 8158, 8181, 8157, 8171, 8190, 8207, 8161, 8071, 8133, 8098,5.382144212722778
45, 8173, 8155, 8141, 8141, 8132, 8148, 8117, 8171, 8179, 8174, 8159, 8084, 8138, 8095,5.3980958461761475
46, 8186, 8172, 8142, 8147, 8140, 8137, 8110, 8166, 8168, 8159, 8180, 8098, 8153, 8086,5.3980958461761475
47, 8183, 8178, 8146, 8164, 8153, 8155, 8133, 8154, 8151, 8159, 8176, 8086, 8138, 8077,5.413719892501831
48, 8157, 8160, 8147, 8158, 8139, 8168, 8151, 8158, 8147, 8158, 8133, 8061, 8105, 8077,5.413719892501831
49, 8149, 8133, 8112, 8142, 8126, 8160, 8156, 8167, 8177, 8176, 8123, 8049, 8119, 8079,5.4294867515563965
50, 8171, 8135, 8129, 8125, 8132, 8148, 8136, 8172, 8186, 8174, 8157, 8089, 8157, 8087,5.4294867515563965
51, 8182, 8165, 8146, 8148, 8152, 8147, 8127, 8168, 8181, 8163, 8186, 8106, 8168, 8083,5.4453113079071045
52, 8172, 8173, 8156, 8173, 8153, 8149, 8134, 8155, 8174, 8164, 8161, 8089, 8133, 8075,5.4453113079071045
53, 8157, 8152, 8158, 8158, 8139, 8158, 8143, 8160, 8170, 8167, 8125, 8067, 8108, 8078,5.460922479629517
54, 8152, 8131, 8119, 8141, 8134, 8156, 8142, 8172, 8176, 8170, 8137, 8059, 8136, 8078,5.460922479629517
55, 8159, 8141, 8138, 8135, 8137, 8153, 8123, 8164, 8168, 8151, 8152, 8092, 8144, 8073,5.477055072784424
56, 8169, 8156, 8155, 8159, 8146, 8165, 8122, 8149, 8156, 8136, 8155, 8089, 8147, 8061,5.477055072784424
57, 8169, 8156, 8152, 8172, 8147, 8163, 8121, 8138, 8141, 8129, 8153, 8066, 8181, 8057,5.492056369781494
58, 8161, 8158, 8169, 8162, 8145, 8165, 8120, 8147, 8138, 8135, 8156, 8075, 8218, 8066,5.492056369781494
59, 8156, 8151, 8152, 8174, 8155, 8186, 8145, 8161, 8168, 8159, 8160, 8067, 8233, 8072,5.508031368255615
60, 8157, 8145, 8159, 8185, 8166, 8197, 8158, 8162, 8179, 8162, 8146, 8063, 8224, 8080,5.508031368255615
61, 8155, 8151, 8152, 8191, 8168, 8195, 8158, 8162, 8179, 8168, 8132, 8054, 8224, 8081,5.523822546005249
62, 8159, 8145, 8135, 8183, 8159, 8181, 8152, 8162, 8184, 8176, 8128, 8053, 8228, 8082,5.523822546005249
63, 8167, 8139, 8156, 8167, 8149, 8176, 8150, 8171, 8193, 8165, 8132, 8073, 8233, 8093,5.538998126983643
64, 8165, 8137, 8140, 8162, 8155, 8176, 8149, 8177, 8215, 8176, 8151, 8071, 8257, 8095,5.538998126983643
65, 8169, 8138, 8148, 8148, 8153, 8158, 8126, 8168, 8202, 8186, 8165, 8092, 8270, 8101,5.554664373397827
66, 8183, 8147, 8161, 8156, 8152, 8144, 8115, 8161, 8181, 8173, 8175, 8111, 8268, 8106,5.554664373397827
67, 8197, 8153, 8157, 8178, 8165, 8148, 8114, 8150, 8171, 8144, 8178, 8106, 8255, 8098,5.569751501083374
68, 8200, 8159, 8175, 8179, 8175, 8166, 8113, 8145, 8151, 8132, 8171, 8110, 8238, 8093,5.569751501083374
69, 8184, 8159, 8158, 8176, 8181, 8177, 8125, 8140, 8134, 8144, 8163, 8087, 8233, 8081,5.58491587638855
70, 8171, 8159, 8164, 8175, 8173, 8165, 8122, 8132, 8120, 8132, 8148, 8076, 8213, 8068,5.58491587638855
71, 8173, 8161, 8173, 8188, 8167, 8165, 8128, 8145, 8134, 8133, 8141, 8075, 8198, 8066,5.6006178855896
72, 8173, 8149, 8158, 8190, 8174, 8183, 8152, 8152, 8156, 8159, 8150, 8073, 8212, 8078,5.6006178855896
73, 8165, 8132, 8166, 8171, 8175, 8192, 8160, 8157, 8160, 8165, 8145, 8084, 8214, 8093,5.615752220153809
74, 8149, 8116, 8130, 8166, 8169, 8193, 8165, 8169, 8172, 8174, 8129, 8056, 8204, 8078,5.615752220153809
75, 8144, 8107, 8119, 8152, 8163, 8194, 8165, 8169, 8176, 8180, 8125, 8047, 8199, 8069,5.631789922714233
76, 8146, 8111, 8132, 8141, 8166, 8190, 8166, 8165, 8181, 8185, 8137, 8063, 8208, 8073,5.631789922714233
77, 8138, 8109, 8116, 8141, 8164, 8173, 8161, 8162, 8192, 8192, 8146, 8063, 8213, 8074,5.647876501083374
78, 8143, 8109, 8130, 8132, 8158, 8174, 8153, 8171, 8195, 8193, 8142, 8078, 8214, 8087,5.647876501083374
79, 8162, 8119, 8126, 8138, 8171, 8181, 8160, 8179, 8208, 8198, 8148, 8087, 8232, 8092,5.663260459899902
80, 8177, 8125, 8134, 8141, 8177, 8171, 8149, 8172, 8206, 8184, 8158, 8104, 8240, 8084,5.663260459899902
81, 8174, 8126, 8145, 8135, 8170, 8175, 8142, 8173, 8195, 8172, 8157, 8102, 8231, 8077,5.6788787841796875
82, 8165, 8130, 8129, 8142, 8170, 8180, 8156, 8175, 8197, 8175, 8149, 8087, 8221, 8071,5.6788787841796875
83, 8171, 8138, 8153, 8141, 8171, 8174, 8153, 8172, 8184, 8158, 8142, 8115, 8210, 8070,5.694559812545776
84, 8178, 8146, 8152, 8146, 8175, 8174, 8154, 8162, 8171, 8145, 8151, 8113, 8217, 8067,5.694559812545776
85, 8180, 8156, 8153, 8151, 8176, 8172, 8151, 8149, 8161, 8142, 8153, 8104, 8214, 8073,5.709704160690308
86, 8170, 8165, 8167, 8154, 8177, 8172, 8145, 8149, 8154, 8147, 8145, 8113, 8196, 8073,5.709704160690308
87, 8167, 8160, 8155, 8172, 8183, 8177, 8153, 8155, 8163, 8162, 8150, 8104, 8193, 8066,5.724931955337524
88, 8171, 8156, 8181, 8183, 8181, 8182, 8153, 8158, 8163, 8154, 8149, 8121, 8192, 8074,5.724931955337524
89, 8152, 8152, 8164, 8180, 8174, 8187, 8163, 8154, 8162, 8147, 8139, 8118, 8187, 8075,5.740585803985596
90, 8138, 8136, 8134, 8157, 8171, 8184, 8174, 8149, 8165, 8164, 8132, 8103, 8184, 8073,5.740585803985596
91, 8146, 8126, 8146, 8155, 8171, 8191, 8180, 8160, 8176, 8194, 8139, 8118, 8195, 8084,5.755685091018677
92, 8152, 8122, 8138, 8173, 8176, 8190, 8186, 8169, 8189, 8206, 8149, 8131, 8207, 8089,5.771285057067871
93, 8157, 8130, 8151, 8164, 8179, 8169, 8177, 8178, 8188, 8192, 8146, 8149, 8201, 8095,5.771285057067871
94, 8165, 8144, 8150, 8165, 8181, 8165, 8171, 8186, 8199, 8199, 8159, 8157, 8217, 8103,5.787048101425171
95, 8168, 8140, 8142, 8168, 8168, 8157, 8156, 8172, 8191, 8197, 8173, 8166, 8227, 8102,5.787048101425171
96, 8173, 8135, 8148, 8158, 8163, 8146, 8147, 8168, 8173, 8173, 8166, 8171, 8216, 8091,5.803075313568115
97, 8182, 8136, 8135, 8162, 8182, 8159, 8164, 8177, 8189, 8176, 8163, 8163, 8220, 8084,5.803075313568115
98, 8182, 8135, 8152, 8157, 8181, 8163, 8165, 8171, 8186, 8169, 8151, 8181, 8206, 8082,5.8187079429626465
99, 8173, 8142, 8145, 8162, 8173, 8153, 8163, 8163, 8176, 8160, 8145, 8172, 8187, 8068,5.8187079429626465
100, 8175, 8157, 8134, 8177, 8184, 8151, 8169, 8157, 8180, 8165, 8167, 8166, 8197, 8067,5.834888219833374
101, 8177, 8165, 8160, 8179, 8194, 8156, 8166, 8159, 8178, 8163, 8186, 8193, 8208, 8083,5.834888219833374
102, 8158, 8156, 8146, 8191, 8188, 8153, 8161, 8158, 8177, 8167, 8173, 8169, 8191, 8070,5.834888219833374
103, 8138, 8141, 8144, 8190, 8177, 8160, 8166, 8156, 8175, 8170, 8140, 8140, 8158, 8060,5.850525856018066
104, 8141, 8137, 8131, 8175, 8179, 8178, 8194, 8173, 8198, 8188, 8136, 8140, 8166, 8075,5.850525856018066
105, 8156, 8140, 8115, 8174, 8183, 8171, 8200, 8178, 8220, 8211, 8150, 8159, 8192, 8090,5.865715026855469
106, 8156, 8146, 8138, 8178, 8178, 8168, 8180, 8176, 8213, 8208, 8148, 8182, 8191, 8096,5.880796432495117
107, 8150, 8142, 8114, 8178, 8174, 8179, 8181, 8181, 8219, 8208, 8145, 8170, 8184, 8098,5.880796432495117
108, 8170, 8141, 8116, 8167, 8171, 8171, 8181, 8182, 8226, 8202, 8145, 8176, 8185, 8108,5.8960347175598145
109, 8178, 8150, 8127, 8162, 8173, 8158, 8177, 8174, 8229, 8200, 8153, 8189, 8194, 8108,5.8960347175598145
110, 8166, 8133, 8101, 8150, 8171, 8145, 8174, 8165, 8218, 8194, 8162, 8185, 8196, 8101,5.9116363525390625
111, 8167, 8118, 8109, 8128, 8160, 8144, 8164, 8169, 8194, 8170, 8153, 8195, 8185, 8097,5.9116363525390625
112, 8170, 8126, 8101, 8136, 8160, 8151, 8156, 8164, 8188, 8166, 8152, 8187, 8181, 8084,5.9268715381622314
113, 8172, 8140, 8118, 8144, 8169, 8145, 8145, 8150, 8178, 8169, 8164, 8198, 8178, 8083,5.9268715381622314
114, 8173, 8152, 8145, 8153, 8178, 8151, 8147, 8154, 8171, 8170, 8169, 8212, 8175, 8089,5.943121433258057
115, 8176, 8151, 8133, 8170, 8179, 8157, 8152, 8154, 8176, 8170, 8170, 8209, 8177, 8084,5.943121433258057
116, 8178, 8148, 8145, 8166, 8171, 8148, 8143, 8148, 8171, 8164, 8173, 8219, 8179, 8086,5.958664655685425
117, 8175, 8154, 8146, 8176, 8175, 8151, 8150, 8150, 8178, 8172, 8187, 8216, 8187, 8091,5.958664655685425
118, 8188, 8173, 8170, 8204, 8193, 8173, 8166, 8153, 8188, 8179, 8195, 8234, 8188, 8105,5.973846673965454
119, 8199, 8182, 8194, 8224, 8207, 8186, 8186, 8162, 8198, 8192, 8182, 8243, 8186, 8116,5.973846673965454
120, 8191, 8150, 8169, 8220, 8190, 8173, 8189, 8165, 8200, 8199, 8173, 8219, 8189, 8115,5.989881992340088
121, 8197, 8131, 8180, 8206, 8171, 8175, 8179, 8172, 8194, 8191, 8193, 8241, 8193, 8125,5.989881992340088
122, 8210, 8141, 8183, 8221, 8182, 8201, 8196, 8181, 8210, 8208, 8215, 8262, 8213, 8134,6.005577802658081
123, 8206, 8134, 8177, 8218, 8179, 8196, 8188, 8170, 8209, 8206, 8198, 8262, 8211, 8130,6.005577802658081
124, 8197, 8126, 8174, 8204, 8161, 8169, 8159, 8168, 8190, 8174, 8195, 8268, 8205, 8127,6.025681018829346
125, 8205, 8129, 8156, 8210, 8165, 8161, 8162, 8169, 8190, 8173, 8217, 8272, 8229, 8123,6.025681018829346
126, 8208, 8134, 8173, 8205, 8171, 8162, 8166, 8162, 8191, 8183, 8212, 8286, 8232, 8122,6.025681018829346
127, 8209, 8137, 8165, 8208, 8171, 8161, 8169, 8165, 8204, 8187, 8211, 8280, 8226, 8125,6.036735773086548
237, 8226, 8136, 8170, 8208, 8175, 8161, 8175, 8170, 8208, 8180, 8222, 8286, 8235, 8133,6.052769422531128
0, 8226, 8134, 8188, 8196, 8180, 8171, 8174, 8171, 8197, 8171, 8217, 8296, 8239, 8128,6.052769422531128
1, 8208, 8133, 8157, 8195, 8179, 8169, 8163, 8160, 8183, 8170, 8210, 8265, 8226, 8102,6.067960739135742
2, 8198, 8140, 8165, 8192, 8172, 8169, 8150, 8149, 8155, 8152, 8198, 8250, 8195, 8089,6.067960739135742
3, 8186, 8148, 8163, 8194, 8182, 8185, 8169, 8151, 8151, 8154, 8179, 8233, 8180, 8078,6.083069562911987
4, 8172, 8145, 8153, 8186, 8190, 8182, 8179, 8147, 8152, 8166, 8170, 8222, 8179, 8070,6.083069562911987
5, 8162, 8138, 8164, 8173, 8182, 8173, 8162, 8152, 8141, 8154, 8167, 8225, 8178, 8074,6.098618507385254
6, 8152, 8133, 8140, 8176, 8177, 8180, 8159, 8157, 8148, 8150, 8162, 8206, 8181, 8071,6.098618507385254
7, 8144, 8141, 8145, 8169, 8181, 8190, 8168, 8156, 8154, 8157, 8145, 8204, 8167, 8066,6.113842248916626
8, 8134, 8144, 8134, 8171, 8181, 8200, 8188, 8165, 8158, 8166, 8126, 8193, 8153, 8058,6.113842248916626
9, 8133, 8127, 8114, 8173, 8173, 8200, 8191, 8165, 8153, 8160, 8119, 8189, 8147, 8064,6.128923177719116
10, 8144, 8128, 8139, 8163, 8179, 8205, 8192, 8175, 8155, 8166, 8125, 8210, 8154, 8084,6.128923177719116
11, 8147, 8134, 8123, 8159, 8195, 8213, 8215, 8190, 8200, 8200, 8141, 8204, 8175, 8087,6.144590377807617
12, 8142, 8123, 8115, 8137, 8186, 8203, 8211, 8189, 8224, 8198, 8139, 8202, 8170, 8083,6.144590377807617
13, 8146, 8124, 8112, 8131, 8175, 8191, 8195, 8185, 8219, 8180, 8129, 8201, 8165, 8080,6.159643888473511
14, 8160, 8132, 8110, 8138, 8179, 8181, 8183, 8174, 8209, 8175, 8135, 8206, 8181, 8084,6.159643888473511
15, 8170, 8135, 8138, 8132, 8175, 8176, 8170, 8164, 8191, 8163, 8146, 8228, 8187, 8090,6.174974679946899
16, 8166, 8134, 8132, 8137, 8173, 8179, 8170, 8162, 8183, 8156, 8159, 8221, 8178, 8083,6.174974679946899
17, 8169, 8141, 8148, 8132, 8175, 8184, 8170, 8163, 8178, 8150, 8158, 8225, 8164, 8081,6.1910645961761475
18, 8165, 8149, 8152, 8133, 8174, 8192, 8170, 8162, 8172, 8160, 8150, 8220, 8160, 8078,6.1910645961761475
19, 8148, 8148, 8137, 8151, 8175, 8192, 8169, 8150, 8161, 8169, 8146, 8201, 8155, 8073,6.206624269485474
20, 8145, 8162, 8169, 8169, 8185, 8207, 8178, 8155, 8159, 8170, 8142, 8214, 8152, 8090,6.206624269485474
21, 8155, 8167, 8169, 8186, 8193, 8228, 8202, 8167, 8174, 8190, 8144, 8211, 8165, 8105,6.221883773803711
22, 8163, 8158, 8177, 8186, 8184, 8222, 8198, 8164, 8168, 8195, 8143, 8220, 8170, 8107,6.221883773803711
23, 8157, 8155, 8178, 8178, 8177, 8211, 8187, 8165, 8166, 8189, 8143, 8223, 8166, 8104,6.237037658691406
24, 8151, 8149, 8148, 8166, 8172, 8202, 8183, 8166, 8172, 8188, 8148, 8205, 8168, 8098,6.237037658691406
25, 8157, 8147, 8160, 8152, 8166, 8202, 8174, 8171, 8169, 8181, 8154, 8230, 8177, 8105,6.252660512924194
26, 8158, 8146, 8150, 8157, 8175, 8205, 8175, 8177, 8180, 8184, 8171, 8244, 8197, 8110,6.269566297531128
27, 8158, 8144, 8151, 8150, 8177, 8187, 8159, 8168, 8168, 8169, 8175, 8240, 8190, 8099,6.269566297531128
28, 8160, 8152, 8163, 8142, 8170, 8181, 8147, 8159, 8151, 8151, 8171, 8236, 8175, 8078,6.269566297531128
29, 8165, 8166, 8157, 8156, 8176, 8198, 8159, 8159, 8165, 8151, 8185, 8241, 8188, 8080,6.28413724899292
30, 8173, 8174, 8179, 8161, 8179, 8206, 8163, 8166, 8165, 8146, 8196, 8263, 8198, 8103,6.300020456314087
31, 8168, 8173, 8169, 8156, 8170, 8194, 8160, 8157, 8159, 8147, 8185, 8243, 8185, 8094,6.300020456314087
32, 8158, 8172, 8172, 8147, 8161, 8189, 8154, 8139, 8145, 8141, 8163, 8226, 8152, 8077,6.300020456314087
33, 8151, 8177, 8189, 8157, 8165, 8213, 8169, 8148, 8137, 8134, 8155, 8224, 8134, 8076,6.315408229827881
34, 8153, 8175, 8181, 8176, 8174, 8229, 8182, 8159, 8153, 8144, 8156, 8213, 8135, 8076,6.316408395767212
35, 8163, 8177, 8202, 8177, 8174, 8224, 8178, 8159, 8165, 8151, 8147, 8227, 8129, 8088,6.331199645996094
36, 8164, 8180, 8191, 8183, 8176, 8227, 8201, 8158, 8166, 8158, 8143, 8223, 8128, 8093,6.331199645996094
37, 8166, 8176, 8189, 8187, 8178, 8231, 8210, 8154, 8152, 8153, 8141, 8222, 8119, 8092,6.346074342727661
38, 8177, 8184, 8212, 8196, 8179, 8235, 8192, 8161, 8154, 8159, 8148, 8234, 8109, 8100,6.361647844314575
39, 8175, 8185, 8187, 8214, 8183, 8237, 8198, 8167, 8169, 8176, 8158, 8217, 8109, 8101,6.361647844314575
40, 8168, 8178, 8186, 8208, 8181, 8232, 8210, 8169, 8167, 8174, 8146, 8212, 8106, 8101,6.376927137374878
41, 8171, 8181, 8186, 8211, 8177, 8229, 8200, 8174, 8171, 8173, 8145, 8216, 8113, 8101,6.376927137374878
42, 8172, 8179, 8185, 8208, 8174, 8221, 8183, 8165, 8167, 8158, 8155, 8223, 8113, 8099,6.392789840698242
43, 8168, 8177, 8191, 8193, 8173, 8218, 8190, 8159, 8164, 8150, 8148, 8208, 8106, 8099,6.392789840698242
44, 8174, 8184, 8170, 8210, 8176, 8219, 8202, 8166, 8187, 8180, 8152, 8172, 8113, 8100,6.407721757888794
45, 8182, 8192, 8177, 8211, 8171, 8216, 8185, 8169, 8164, 8187, 8167, 8191, 8117, 8106,6.407721757888794
46, 8171, 8191, 8158, 8196, 8169, 8223, 8175, 8165, 8109, 8174, 8163, 8204, 8119, 8101,6.422791481018066
47, 8165, 8185, 8138, 8198, 8172, 8218, 8176, 8155, 8083, 8168, 8143, 8186, 8110, 8096,6.422791481018066
48, 8170, 8181, 8153, 8202, 8163, 8199, 8166, 8156, 8078, 8153, 8135, 8183, 8098, 8092,6.4385926723480225
49, 8171, 8175, 8136, 8200, 8157, 8186, 8156, 8157, 8076, 8146, 8146, 8182, 8107, 8088,6.4385926723480225
50, 8179, 8179, 8157, 8191, 8160, 8188, 8154, 8158, 8069, 8143, 8153, 8206, 8118, 8107,6.4546427726745605
51, 8192, 8188, 8169, 8202, 8172, 8192, 8171, 8169, 8083, 8154, 8168, 8213, 8129, 8120,6.4546427726745605
52, 8199, 8181, 8148, 8198, 8171, 8176, 8167, 8164, 8084, 8155, 8180, 8211, 8140, 8114,6.470657110214233
53, 8194, 8186, 8164, 8174, 8158, 8169, 8146, 8154, 8061, 8133, 8171, 8222, 8134, 8100,6.470657110214233
54, 8187, 8191, 8155, 8177, 8160, 8177, 8148, 8152, 8061, 8130, 8164, 8199, 8129, 8084,6.48675274848938
55, 8195, 8182, 8159, 8176, 8165, 8175, 8142, 8155, 8058, 8130, 8163, 8197, 8120, 8087,6.48675274848938
56, 8196, 8193, 8162, 8181, 8168, 8175, 8145, 8158, 8056, 8132, 8172, 8206, 8114, 8089,6.502835035324097
57, 8188, 8205, 8163, 8200, 8175, 8194, 8169, 8150, 8069, 8146, 8174, 8196, 8106, 8085,6.502835035324097
58, 8185, 8194, 8188, 8204, 8181, 8221, 8193, 8161, 8076, 8160, 8161, 8197, 8095, 8101,6.517995595932007
59, 8180, 8169, 8158, 8196, 8182, 8223, 8204, 8175, 8093, 8170, 8161, 8173, 8104, 8107,6.517995595932007
60, 8174, 8153, 8149, 8174, 8176, 8210, 8195, 8176, 8107, 8167, 8162, 8168, 8113, 8099,6.533614873886108
61, 8174, 8155, 8161, 8175, 8180, 8211, 8198, 8189, 8126, 8175, 8169, 8189, 8127, 8103,6.533614873886108
62, 8191, 8163, 8158, 8187, 8182, 8199, 8193, 8190, 8133, 8173, 8187, 8204, 8150, 8112,6.549191951751709
63, 8210, 8175, 8183, 8170, 8179, 8182, 8167, 8176, 8110, 8147, 8189, 8218, 8147, 8104,6.549191951751709
64, 8198, 8178, 8168, 8172, 8188, 8188, 8165, 8161, 8098, 8141, 8178, 8191, 8126, 8080,6.564902305603027
65, 8183, 8179, 8164, 8190, 8194, 8200, 8169, 8148, 8090, 8138, 8174, 8176, 8113, 8076,6.564902305603027
66, 8182, 8191, 8181, 8209, 8205, 8216, 8179, 8157, 8093, 8150, 8174, 8177, 8119, 8084,6.58000636100769
67, 8182, 8184, 8169, 8214, 8213, 8228, 8197, 8167, 8112, 8180, 8159, 8160, 8120, 8083,6.58000636100769
68, 8176, 8159, 8168, 8185, 8194, 8221, 8195, 8174, 8115, 8169, 8137, 8159, 8101, 8091,6.595627069473267
69, 8174, 8148, 8151, 8185, 8185, 8220, 8200, 8176, 8126, 8161, 8147, 8156, 8110, 8102,6.595627069473267
70, 8179, 8157, 8155, 8198, 8195, 8224, 8209, 8170, 8132, 8167, 8151, 8164, 8124, 8103,6.610649585723877
71, 8178, 8162, 8158, 8181, 8193, 8220, 8204, 8177, 8132, 8161, 8133, 8159, 8121, 8097,6.610649585723877
72, 8173, 8145, 8131, 8162, 8183, 8208, 8199, 8188, 8149, 8164, 8135, 8144, 8132, 8095,6.626610517501831
73, 8178, 8140, 8152, 8166, 8176, 8198, 8199, 8190, 8159, 8171, 8147, 8175, 8139, 8104,6.626610517501831
74, 8176, 8146, 8149, 8172, 8178, 8203, 8205, 8183, 8154, 8179, 8148, 8174, 8144, 8102,6.642827033996582
75, 8168, 8144, 8140, 8150, 8177, 8196, 8189, 8170, 8134, 8168, 8156, 8169, 8153, 8092,6.642827033996582
76, 8171, 8144, 8155, 8148, 8173, 8184, 8173, 8175, 8137, 8157, 8177, 8193, 8169, 8091,6.658471584320068
77, 8183, 8148, 8136, 8169, 8170, 8175, 8177, 8178, 8154, 8158, 8185, 8198, 8177, 8088,6.658471584320068
78, 8187, 8162, 8143, 8167, 8171, 8167, 8167, 8166, 8134, 8142, 8174, 8204, 8161, 8086,6.673742055892944
79, 8175, 8167, 8132, 8166, 8177, 8172, 8167, 8160, 8121, 8142, 8175, 8189, 8152, 8072,6.674139022827148
80, 8174, 8153, 8128, 8157, 8177, 8172, 8171, 8161, 8120, 8148, 8179, 8182, 8153, 8072,6.689777135848999
81, 8183, 8158, 8158, 8159, 8175, 8179, 8179, 8170, 8121, 8143, 8180, 8195, 8157, 8084,6.689777135848999
82, 8191, 8178, 8152, 8195, 8186, 8189, 8197, 8172, 8131, 8150, 8186, 8181, 8152, 8082,6.705692529678345
83, 8199, 8182, 8173, 8191, 8185, 8184, 8192, 8162, 8122, 8147, 8185, 8181, 8143, 8082,6.705692529678345
84, 8183, 8172, 8164, 8166, 8171, 8182, 8191, 8158, 8115, 8141, 8177, 8176, 8148, 8075,6.720911026000977
85, 8167, 8170, 8149, 8181, 8177, 8190, 8205, 8157, 8116, 8134, 8170, 8170, 8140, 8076,6.720911026000977
86, 8176, 8188, 8179, 8211, 8201, 8206, 8217, 8165, 8123, 8145, 8171, 8179, 8131, 8091,6.736091375350952
87, 8182, 8182, 8172, 8210, 8207, 8207, 8225, 8169, 8150, 8169, 8181, 8172, 8142, 8095,6.736091375350952
88, 8177, 8161, 8188, 8187, 8195, 8195, 8220, 8175, 8156, 8159, 8177, 8187, 8137, 8104,6.752121210098267
89, 8176, 8156, 8186, 8197, 8199, 8198, 8224, 8177, 8147, 8154, 8166, 8176, 8131, 8102,6.752121210098267
90, 8177, 8140, 8156, 8201, 8197, 8202, 8219, 8166, 8145, 8168, 8159, 8151, 8128, 8093,6.767907381057739
91, 8177, 8125, 8173, 8188, 8191, 8209, 8216, 8172, 8148, 8173, 8159, 8168, 8120, 8104,6.767907381057739
92, 8179, 8128, 8165, 8197, 8197, 8210, 8232, 8179, 8163, 8179, 8167, 8169, 8134, 8115,6.782952308654785
93, 8178, 8125, 8156, 8188, 8186, 8203, 8225, 8174, 8163, 8168, 8157, 8169, 8136, 8119,6.782952308654785
94, 8176, 8114, 8151, 8176, 8177, 8210, 8225, 8182, 8172, 8171, 8160, 8171, 8135, 8115,6.798624038696289
95, 8177, 8108, 8144, 8176, 8185, 8205, 8233, 8185, 8182, 8188, 8182, 8178, 8157, 8115,6.798624038696289
96, 8165, 8101, 8148, 8161, 8180, 8185, 8216, 8177, 8161, 8166, 8167, 8185, 8157, 8115,6.813734769821167
97, 8153, 8085, 8121, 8151, 8165, 8172, 8195, 8166, 8146, 8142, 8136, 8154, 8135, 8095,6.813734769821167
98, 8170, 8090, 8142, 8146, 8164, 8170, 8191, 8172, 8153, 8154, 8142, 8158, 8138, 8104,6.828878879547119
99, 8190, 8110, 8165, 8151, 8175, 8181, 8205, 8193, 8171, 8184, 8181, 8184, 8177, 8132,6.828878879547119
100, 8193, 8117, 8154, 8167, 8179, 8184, 8202, 8177, 8163, 8177, 8203, 8185, 8189, 8121,6.845001459121704
101, 8195, 8138, 8187, 8178, 8179, 8181, 8189, 8157, 8137, 8147, 8191, 8195, 8161, 8099,6.845001459121704
102, 8201, 8157, 8189, 8194, 8190, 8183, 8205, 8168, 8149, 8157, 8183, 8186, 8161, 8105,6.861126184463501
103, 8203, 8148, 8187, 8192, 8188, 8187, 8210, 8170, 8146, 8162, 8178, 8178, 8166, 8117,6.861126184463501
104, 8182, 8139, 8180, 8181, 8178, 8194, 8204, 8155, 8124, 8146, 8160, 8161, 8143, 8102,6.877222537994385
105, 8164, 8135, 8157, 8178, 8177, 8198, 8211, 8154, 8129, 8139, 8142, 8146, 8127, 8094,6.877222537994385
106, 8175, 8137, 8179, 8173, 8178, 8206, 8213, 8172, 8140, 8149, 8137, 8163, 8132, 8108,6.892758846282959
107, 8183, 8142, 8175, 8192, 8184, 8218, 8218, 8180, 8155, 8174, 8148, 8155, 8146, 8114,6.892758846282959
108, 8180, 8134, 8170, 8200, 8181, 8206, 8215, 8172, 8160, 8174, 8146, 8153, 8142, 8117,6.907580375671387
109, 8182, 8121, 8171, 8189, 8170, 8194, 8210, 8175, 8169, 8176, 8146, 8162, 8146, 8114,6.907580375671387
110, 8193, 8122, 8153, 8187, 8175, 8196, 8214, 8181, 8191, 8196, 8165, 8157, 8168, 8115,6.923037052154541
111, 8198, 8130, 8173, 8182, 8179, 8197, 8209, 8183, 8190, 8190, 8175, 8178, 8171, 8133,6.923037052154541
112, 8191, 8123, 8164, 8184, 8179, 8190, 8202, 8180, 8181, 8179, 8177, 8184, 8174, 8130,6.93887996673584
113, 8185, 8114, 8152, 8181, 8178, 8173, 8185, 8168, 8171, 8168, 8174, 8176, 8173, 8113,6.93887996673584
114, 8184, 8125, 8157, 8173, 8173, 8166, 8179, 8171, 8166, 8158, 8177, 8176, 8166, 8107,6.95457911491394
115, 8187, 8135, 8142, 8177, 8173, 8169, 8191, 8168, 8167, 8161, 8190, 8169, 8170, 8097,6.95457911491394
116, 8192, 8141, 8169, 8182, 8177, 8177, 8196, 8151, 8158, 8154, 8187, 8180, 8160, 8096,6.969613790512085
117, 8187, 8157, 8197, 8195, 8182, 8195, 8205, 8160, 8158, 8144, 8169, 8175, 8134, 8114,6.969613790512085
118, 8167, 8161, 8148, 8222, 8188, 8215, 8236, 8145, 8196, 8179, 8182, 8136, 8145, 8096,6.985022783279419
119, 8162, 8126, 8099, 8186, 8175, 8192, 8222, 8132, 8196, 8178, 8167, 8114, 8143, 8083,7.000987768173218
120, 8180, 8135, 8240, 8093, 8138, 8181, 8162, 8224, 8120, 8096, 8099, 8200, 8087, 8149,7.000987768173218
121, 8181, 8176, 8116, 8253, 8191, 8237, 8283, 8154, 8267, 8242, 8225, 8145, 8226, 8097,7.016737699508667
122, 8203, 8102, 7890, 8295, 8219, 8157, 8283, 8062, 8320, 8295, 8276, 8050, 8281, 8077,7.016737699508667
123, 8247, 8134, 8278, 8039, 8132, 8108, 8078, 8259, 8069, 8038, 8108, 8285, 8089, 8224,7.031886339187622
124, 8221, 8237, 8329, 8154, 8167, 8220, 8171, 8234, 8133, 8107, 8181, 8269, 8151, 8141,7.031886339187622
125, 8186, 8174, 8061, 8270, 8217, 8200, 8252, 8086, 8213, 8200, 8235, 8077, 8205, 8047,7.047043800354004
126, 8186, 8159, 8196, 8166, 8179, 8179, 8181, 8171, 8111, 8105, 8140, 8155, 8109, 8123,7.047043800354004
127, 8181, 8183, 8198, 8201, 8182, 8222, 8218, 8189, 8169, 8164, 8156, 8155, 8143, 8115,7.063250780105591
237, 8195, 8156, 8141, 8204, 8189, 8201, 8236, 8163, 8211, 8195, 8165, 8135, 8164, 8111,7.063250780105591
0, 8203, 8153, 8159, 8175, 8186, 8186, 8230, 8180, 8218, 8182, 8162, 8166, 8164, 8126,7.0790674686431885
1, 8192, 8154, 8142, 8159, 8174, 8168, 8201, 8194, 8218, 8173, 8161, 8166, 8178, 8128,7.0790674686431885
2, 8190, 8152, 8147, 8164, 8166, 8153, 8185, 8181, 8205, 8165, 8171, 8178, 8199, 8119,7.094607353210449
3, 8202, 8153, 8153, 8165, 8172, 8148, 8182, 8170, 8184, 8152, 8181, 8186, 8202, 8116,7.094607353210449
4, 8210, 8183, 8184, 8172, 8182, 8167, 8174, 8168, 8161, 8133, 8182, 8195, 8181, 8114,7.110107660293579
5, 8200, 8197, 8174, 8205, 8192, 8181, 8184, 8143, 8165, 8148, 8189, 8173, 8177, 8094,7.110107660293579
6, 8190, 8194, 8185, 8200, 8187, 8188, 8193, 8163, 8159, 8154, 8169, 8160, 8166, 8107,7.125781774520874
7, 8187, 8199, 8188, 8226, 8203, 8218, 8229, 8166, 8182, 8178, 8162, 8149, 8170, 8111,7.125781774520874
8, 8177, 8171, 8156, 8217, 8207, 8219, 8229, 8161, 8177, 8174, 8140, 8135, 8155, 8106,7.14093804359436
9, 8159, 8150, 8140, 8179, 8183, 8204, 8210, 8176, 8173, 8167, 8135, 8138, 8153, 8108,7.14093804359436
10, 8158, 8146, 8126, 8174, 8172, 8184, 8205, 8161, 8194, 8176, 8157, 8141, 8181, 8105,7.156101226806641
11, 8176, 8153, 8145, 8156, 8168, 8162, 8180, 8167, 8167, 8137, 8152, 8163, 8174, 8108,7.156101226806641
12, 8189, 8173, 8147, 8167, 8176, 8162, 8172, 8159, 8165, 8131, 8176, 8174, 8186, 8094,7.171675682067871
13, 8196, 8187, 8152, 8175, 8183, 8162, 8160, 8155, 8167, 8138, 8195, 8175, 8194, 8100,7.171675682067871
14, 8202, 8211, 8188, 8185, 8191, 8170, 8157, 8168, 8148, 8125, 8198, 8183, 8183, 8110,7.187067031860352
14, 8202, 8211, 8188, 8185, 8191, 8170, 8157, 8168, 8148, 8125, 8198, 8183, 8183, 8110,7.187067031860352
15, 8199, 8215, 8183, 8214, 8201, 8175, 8167, 8146, 8148, 8135, 8207, 8167, 8180, 8100,7.202781915664673
16, 8193, 8199, 8185, 8205, 8198, 8183, 8166, 8162, 8144, 8144, 8190, 8164, 8158, 8110,7.202781915664673
17, 8186, 8187, 8175, 8206, 8199, 8208, 8198, 8168, 8169, 8173, 8183, 8156, 8159, 8107,7.218060255050659
18, 8180, 8162, 8152, 8186, 8191, 8201, 8204, 8172, 8189, 8181, 8168, 8139, 8163, 8115,7.218060255050659
19, 8176, 8151, 8151, 8163, 8178, 8183, 8184, 8197, 8198, 8175, 8165, 8147, 8172, 8119,7.233670234680176
20, 8177, 8156, 8132, 8176, 8183, 8170, 8180, 8169, 8200, 8174, 8190, 8150, 8190, 8091,7.233670234680176
21, 8185, 8176, 8151, 8170, 8188, 8165, 8167, 8166, 8158, 8134, 8186, 8164, 8171, 8091,7.249477863311768
22, 8190, 8198, 8173, 8191, 8196, 8180, 8176, 8164, 8156, 8139, 8199, 8168, 8172, 8091,7.249477863311768
23, 8187, 8191, 8174, 8209, 8198, 8182, 8177, 8146, 8168, 8154, 8196, 8148, 8167, 8086,7.265005826950073
24, 8175, 8189, 8189, 8213, 8198, 8199, 8184, 8162, 8173, 8154, 8173, 8141, 8149, 8100,7.265005826950073
25, 8162, 8171, 8158, 8213, 8196, 8209, 8212, 8164, 8199, 8187, 8176, 8130, 8159, 8099,7.280925512313843
26, 8166, 8143, 8145, 8169, 8174, 8185, 8203, 8183, 8196, 8190, 8157, 8130, 8150, 8109,7.280925512313843
27, 8164, 8146, 8145, 8163, 8170, 8180, 8205, 8187, 8210, 8199, 8155, 8133, 8162, 8111,7.2969443798065186
28, 8156, 8141, 8127, 8157, 8174, 8171, 8197, 8181, 8208, 8184, 8163, 8135, 8173, 8105,7.2969443798065186
29, 8168, 8145, 8142, 8138, 8169, 8161, 8173, 8186, 8177, 8143, 8174, 8150, 8172, 8105,7.31207799911499
30, 8182, 8160, 8148, 8155, 8178, 8164, 8172, 8150, 8181, 8148, 8198, 8142, 8183, 8090,7.31207799911499
31, 8177, 8180, 8162, 8168, 8191, 8170, 8173, 8152, 8170, 8147, 8186, 8137, 8157, 8089,7.327565908432007
32, 8176, 8193, 8190, 8189, 8197, 8175, 8170, 8159, 8153, 8146, 8176, 8143, 8132, 8093,7.327565908432007
33, 8178, 8202, 8248, 8202, 8191, 8190, 8169, 8179, 8144, 8145, 8176, 8168, 8130, 8115,7.34271502494812
34, 8152, 8180, 8062, 8306, 8218, 8215, 8263, 8111, 8266, 8263, 8247, 8078, 8226, 8073,7.34271502494812
35, 8168, 8104, 8040, 8206, 8185, 8135, 8197, 8109, 8218, 8203, 8188, 8092, 8170, 8112,7.358155012130737
36, 8200, 8170, 8365, 8053, 8129, 8145, 8095, 8277, 8082, 8056, 8101, 8277, 8070, 8208,7.358155012130737
37, 8172, 8210, 8198, 8232, 8187, 8222, 8233, 8185, 8244, 8217, 8241, 8172, 8231, 8104,7.3738555908203125
38, 8176, 8131, 8082, 8210, 8183, 8153, 8207, 8126, 8226, 8199, 8224, 8118, 8225, 8096,7.3738555908203125
39, 8195, 8165, 8243, 8128, 8158, 8157, 8153, 8218, 8146, 8114, 8172, 8213, 8154, 8148,7.388921737670898
40, 8184, 8202, 8179, 8220, 8191, 8187, 8210, 8157, 8219, 8194, 8246, 8165, 8215, 8096,7.388921737670898
41, 8187, 8204, 8196, 8206, 8183, 8164, 8175, 8157, 8181, 8172, 8224, 8170, 8187, 8117,7.404159307479858
42, 8176, 8207, 8211, 8207, 8179, 8180, 8171, 8169, 8173, 8171, 8207, 8166, 8170, 8117,7.404159307479858
43, 8156, 8177, 8181, 8210, 8182, 8189, 8184, 8150, 8179, 8180, 8195, 8136, 8165, 8096,7.419779062271118
44, 8147, 8154, 8163, 8194, 8179, 8191, 8193, 8159, 8180, 8176, 8171, 8126, 8161, 8100,7.419779062271118
45, 8150, 8142, 8157, 8171, 8172, 8181, 8195, 8172, 8192, 8178, 8163, 8134, 8166, 8114,7.435204744338989
46, 8149, 8140, 8150, 8156, 8167, 8184, 8208, 8193, 8202, 8187, 8171, 8137, 8174, 8119,7.435204744338989
47, 8143, 8133, 8133, 8145, 8158, 8176, 8216, 8189, 8197, 8175, 8175, 8124, 8173, 8110,7.450688600540161
48, 8140, 8137, 8145, 8125, 8147, 8159, 8201, 8177, 8182, 8147, 8169, 8134, 8158, 8103,7.450688600540161
49, 8143, 8145, 8122, 8139, 8153, 8164, 8203, 8171, 8192, 8153, 8178, 8124, 8165, 8087,7.4663074016571045
50, 8154, 8149, 8150, 8146, 8154, 8156, 8190, 8169, 8178, 8148, 8175, 8133, 8154, 8087,7.481916189193726
51, 8161, 8165, 8176, 8155, 8156, 8142, 8173, 8168, 8169, 8146, 8176, 8140, 8145, 8099,7.481916189193726
52, 8169, 8178, 8163, 8174, 8175, 8153, 8173, 8166, 8172, 8164, 8190, 8134, 8155, 8107,7.481916189193726
53, 8170, 8178, 8172, 8186, 8182, 8178, 8180, 8164, 8171, 8177, 8190, 8128, 8159, 8104,7.497299432754517
54, 8153, 8168, 8141, 8188, 8175, 8179, 8192, 8157, 8177, 8173, 8176, 8094, 8151, 8092,7.5121073722839355
55, 8146, 8158, 8155, 8168, 8173, 8179, 8204, 8169, 8161, 8159, 8168, 8110, 8135, 8102,7.5121073722839355
56, 8144, 8152, 8161, 8162, 8176, 8201, 8225, 8182, 8165, 8168, 8162, 8116, 8141, 8101,7.527827501296997
57, 8138, 8134, 8097, 8167, 8171, 8194, 8231, 8159, 8186, 8179, 8149, 8072, 8150, 8083,7.527827501296997
58, 8147, 8135, 8133, 8155, 8163, 8178, 8213, 8162, 8166, 8161, 8143, 8102, 8139, 8102,7.5435895919799805
59, 8156, 8149, 8172, 8159, 8170, 8192, 8218, 8192, 8167, 8168, 8156, 8131, 8151, 8121,7.5435895919799805
60, 8155, 8142, 8146, 8163, 8168, 8186, 8220, 8185, 8193, 8185, 8159, 8109, 8170, 8114,7.558946847915649
61, 8155, 8139, 8145, 8157, 8166, 8172, 8208, 8182, 8198, 8185, 8153, 8104, 8169, 8115,7.558946847915649
62, 8156, 8144, 8147, 8161, 8177, 8175, 8205, 8188, 8200, 8187, 8154, 8107, 8167, 8118,7.574275970458984
63, 8162, 8143, 8154, 8149, 8167, 8165, 8189, 8183, 8191, 8163, 8141, 8119, 8158, 8118,7.574275970458984
64, 8166, 8140, 8145, 8138, 8152, 8149, 8180, 8183, 8181, 8151, 8148, 8122, 8162, 8113,7.589997053146362
65, 8159, 8135, 8141, 8138, 8151, 8145, 8176, 8175, 8176, 8160, 8168, 8113, 8170, 8108,7.589997053146362
66, 8147, 8130, 8144, 8130, 8149, 8146, 8167, 8176, 8169, 8150, 8151, 8102, 8155, 8103,7.6055827140808105
67, 8156, 8135, 8132, 8137, 8152, 8140, 8166, 8174, 8173, 8148, 8143, 8098, 8154, 8093,7.6055827140808105
68, 8173, 8167, 8167, 8154, 8167, 8140, 8170, 8159, 8170, 8146, 8168, 8126, 8163, 8096,7.6206583976745605
69, 8169, 8191, 8179, 8177, 8184, 8161, 8185, 8158, 8162, 8154, 8182, 8117, 8158, 8097,7.6206583976745605
70, 8158, 8173, 8169, 8180, 8187, 8172, 8187, 8154, 8150, 8159, 8162, 8091, 8136, 8089,7.6357927322387695
71, 8143, 8151, 8166, 8169, 8181, 8176, 8188, 8154, 8148, 8150, 8142, 8082, 8121, 8080,7.6357927322387695
72, 8130, 8147, 8138, 8173, 8178, 8179, 8208, 8167, 8174, 8169, 8146, 8072, 8135, 8081,7.651418209075928
73, 8135, 8151, 8150, 8164, 8177, 8166, 8210, 8187, 8189, 8190, 8156, 8095, 8153, 8103,7.651418209075928
74, 8148, 8160, 8151, 8163, 8174, 8158, 8200, 8188, 8187, 8177, 8170, 8103, 8167, 8111,7.666649341583252
75, 8167, 8170, 8146, 8174, 8175, 8159, 8188, 8176, 8175, 8153, 8180, 8110, 8174, 8104,7.666649341583252
76, 8175, 8182, 8172, 8178, 8181, 8156, 8188, 8178, 8166, 8147, 8185, 8129, 8169, 8097,7.6827232837677
77, 8159, 8186, 8162, 8188, 8184, 8156, 8199, 8175, 8162, 8147, 8188, 8110, 8160, 8088,7.6827232837677
78, 8151, 8188, 8178, 8199, 8182, 8171, 8199, 8165, 8149, 8140, 8181, 8111, 8146, 8092,7.698842525482178
79, 8146, 8186, 8183, 8212, 8187, 8186, 8203, 8169, 8158, 8155, 8172, 8100, 8141, 8092,7.698842525482178
80, 8136, 8169, 8161, 8209, 8183, 8178, 8201, 8164, 8168, 8161, 8154, 8072, 8132, 8080,7.714070081710815
81, 8132, 8165, 8164, 8200, 8179, 8174, 8195, 8158, 8161, 8157, 8142, 8086, 8125, 8084,7.714070081710815
82, 8135, 8169, 8154, 8210, 8191, 8186, 8210, 8166, 8171, 8181, 8162, 8096, 8142, 8101,7.730093717575073
83, 8143, 8169, 8168, 8210, 8192, 8188, 8210, 8173, 8181, 8185, 8180, 8107, 8155, 8111,7.730093717575073
84, 8154, 8175, 8173, 8217, 8189, 8183, 8206, 8180, 8195, 8195, 8198, 8118, 8170, 8117,7.745993375778198
85, 8170, 8182, 8174, 8222, 8189, 8175, 8213, 8181, 8198, 8217, 8205, 8125, 8178, 8128,7.745993375778198
86, 8179, 8178, 8195, 8198, 8181, 8170, 8209, 8176, 8177, 8203, 8181, 8130, 8166, 8125,7.761526584625244
87, 8177, 8171, 8170, 8193, 8174, 8161, 8198, 8170, 8176, 8180, 8175, 8123, 8170, 8111,7.761526584625244
88, 8185, 8190, 8183, 8211, 8178, 8152, 8184, 8171, 8179, 8171, 8209, 8153, 8189, 8119,7.776738882064819
89, 8200, 8215, 8198, 8237, 8191, 8163, 8190, 8175, 8184, 8182, 8232, 8159, 8208, 8126,7.776738882064819
90, 8204, 8208, 8184, 8234, 8193, 8162, 8190, 8175, 8186, 8181, 8219, 8148, 8205, 8124,7.792971611022949
91, 8191, 8198, 8190, 8220, 8185, 8154, 8181, 8178, 8178, 8167, 8212, 8167, 8196, 8122,7.792971611022949
92, 8185, 8197, 8165, 8220, 8189, 8154, 8184, 8172, 8166, 8152, 8218, 8153, 8197, 8110,7.808069229125977
93, 8196, 8201, 8182, 8207, 8193, 8148, 8181, 8158, 8143, 8125, 8206, 8152, 8187, 8106,7.808069229125977
94, 8193, 8206, 8198, 8209, 8198, 8160, 8193, 8165, 8157, 8142, 8201, 8150, 8189, 8105,7.824102163314819
95, 8182, 8199, 8181, 8215, 8207, 8171, 8206, 8175, 8176, 8175, 8206, 8130, 8197, 8101,7.824102163314819
96, 8185, 8207, 8208, 8221, 8211, 8173, 8211, 8170, 8171, 8170, 8209, 8146, 8198, 8110,7.83958625793457
97, 8185, 8218, 8197, 8241, 8212, 8178, 8221, 8168, 8179, 8176, 8211, 8143, 8204, 8115,7.83958625793457
98, 8167, 8200, 8185, 8220, 8207, 8175, 8205, 8167, 8166, 8171, 8194, 8131, 8183, 8105,7.8556718826293945
99, 8146, 8186, 8183, 8198, 8205, 8178, 8205, 8169, 8159, 8161, 8176, 8121, 8162, 8091,7.8556718826293945
100, 8143, 8174, 8146, 8204, 8199, 8175, 8229, 8176, 8195, 8186, 8169, 8101, 8173, 8095,7.871756553649902
101, 8153, 8154, 8151, 8181, 8172, 8157, 8213, 8185, 8203, 8186, 8158, 8110, 8171, 8107,7.871756553649902
102, 8149, 8145, 8148, 8162, 8166, 8147, 8200, 8189, 8194, 8174, 8163, 8117, 8171, 8101,7.886934280395508
103, 8143, 8152, 8138, 8167, 8180, 8152, 8212, 8182, 8202, 8185, 8176, 8121, 8183, 8103,7.886934280395508
104, 8146, 8151, 8144, 8162, 8178, 8155, 8202, 8183, 8203, 8182, 8172, 8122, 8183, 8103,7.903031587600708
105, 8145, 8145, 8127, 8152, 8165, 8141, 8176, 8168, 8180, 8145, 8170, 8112, 8177, 8083,7.903031587600708
106, 8152, 8163, 8151, 8144, 8158, 8135, 8160, 8155, 8157, 8126, 8173, 8132, 8175, 8088,7.917942047119141
107, 8166, 8181, 8164, 8159, 8174, 8154, 8171, 8164, 8168, 8155, 8184, 8138, 8183, 8098,7.917942047119141
108, 8169, 8176, 8153, 8171, 8184, 8157, 8175, 8160, 8173, 8168, 8200, 8132, 8178, 8086,7.933131217956543
109, 8158, 8175, 8165, 8165, 8176, 8152, 8170, 8160, 8161, 8154, 8197, 8139, 8162, 8080,7.933131217956543
110, 8153, 8182, 8168, 8173, 8179, 8161, 8181, 8164, 8168, 8150, 8184, 8129, 8164, 8081,7.948634147644043
111, 8158, 8182, 8183, 8171, 8184, 8164, 8180, 8159, 8166, 8144, 8182, 8136, 8168, 8085,7.948634147644043
112, 8154, 8180, 8172, 8162, 8176, 8165, 8179, 8157, 8162, 8152, 8185, 8132, 8164, 8088,7.96375584602356
113, 8145, 8178, 8166, 8167, 8176, 8174, 8186, 8165, 8170, 8163, 8175, 8118, 8152, 8090,7.96375584602356
114, 8144, 8186, 8184, 8176, 8184, 8189, 8199, 8179, 8176, 8161, 8163, 8119, 8144, 8095,7.9787232875823975
115, 8151, 8197, 8168, 8185, 8191, 8196, 8218, 8177, 8188, 8169, 8172, 8114, 8160, 8096,7.9939658641815186
116, 8161, 8201, 8191, 8190, 8193, 8191, 8220, 8170, 8190, 8173, 8182, 8134, 8168, 8105,7.9939658641815186
117, 8161, 8191, 8191, 8206, 8189, 8191, 8218, 8178, 8199, 8186, 8175, 8127, 8161, 8109,8.009916305541992
118, 8166, 8179, 8167, 8211, 8182, 8186, 8216, 8179, 8214, 8200, 8170, 8109, 8164, 8108,8.009916305541992
119, 8162, 8177, 8177, 8194, 8177, 8182, 8208, 8175, 8207, 8194, 8174, 8116, 8166, 8108,8.009916305541992
120, 8143, 8172, 8156, 8186, 8176, 8181, 8212, 8178, 8208, 8201, 8181, 8107, 8168, 8103,8.031070470809937
121, 8153, 8173, 8159, 8177, 8172, 8172, 8208, 8186, 8214, 8197, 8179, 8122, 8174, 8107,8.031070470809937
122, 8168, 8177, 8153, 8173, 8174, 8158, 8194, 8186, 8209, 8177, 8176, 8126, 8183, 8100,8.040586709976196
123, 8163, 8167, 8129, 8161, 8175, 8146, 8177, 8165, 8191, 8167, 8174, 8112, 8178, 8085,8.055769205093384
124, 8168, 8175, 8161, 8161, 8180, 8165, 8185, 8172, 8200, 8182, 8188, 8134, 8188, 8109,8.055769205093384
125, 8195, 8197, 8171, 8194, 8190, 8185, 8209, 8201, 8237, 8210, 8217, 8151, 8224, 8137,8.071871757507324
126, 8202, 8198, 8171, 8191, 8181, 8166, 8193, 8193, 8224, 8202, 8218, 8159, 8221, 8133,8.071871757507324
127, 8185, 8186, 8157, 8168, 8173, 8158, 8186, 8177, 8196, 8185, 8203, 8146, 8207, 8110,8.087018251419067
237, 8174, 8172, 8145, 8153, 8176, 8163, 8194, 8171, 8187, 8168, 8199, 8129, 8205, 8101,8.087018251419067
0, 8165, 8171, 8162, 8140, 8172, 8156, 8178, 8165, 8177, 8153, 8197, 8137, 8186, 8096,8.10304856300354
1, 8156, 8180, 8146, 8154, 8171, 8146, 8170, 8165, 8186, 8170, 8209, 8140, 8183, 8089,8.10304856300354
2, 8176, 8198, 8170, 8168, 8173, 8149, 8172, 8178, 8193, 8178, 8215, 8161, 8192, 8112,8.118898391723633
3, 8199, 8215, 8190, 8179, 8177, 8156, 8184, 8182, 8198, 8181, 8210, 8158, 8195, 8123,8.118898391723633
4, 8196, 8212, 8183, 8192, 8178, 8147, 8188, 8169, 8194, 8186, 8220, 8139, 8188, 8109,8.134571552276611
5, 8189, 8207, 8205, 8191, 8180, 8147, 8187, 8160, 8180, 8178, 8226, 8154, 8184, 8111,8.134571552276611
6, 8180, 8198, 8178, 8180, 8186, 8162, 8203, 8156, 8183, 8173, 8214, 8136, 8186, 8111,8.149729490280151
7, 8169, 8190, 8174, 8165, 8185, 8170, 8204, 8152, 8171, 8160, 8198, 8132, 8167, 8108,8.149729490280151
8, 8164, 8194, 8192, 8178, 8189, 8175, 8206, 8156, 8166, 8162, 8187, 8140, 8156, 8105,8.165215253829956
9, 8162, 8186, 8172, 8194, 8192, 8173, 8217, 8164, 8188, 8187, 8183, 8127, 8170, 8108,8.165215253829956
10, 8166, 8178, 8184, 8182, 8183, 8176, 8219, 8184, 8200, 8192, 8191, 8143, 8178, 8125,8.181171178817749
11, 8167, 8177, 8178, 8182, 8182, 8186, 8230, 8192, 8215, 8203, 8196, 8141, 8187, 8131,8.181171178817749
12, 8172, 8174, 8173, 8189, 8182, 8179, 8239, 8180, 8225, 8218, 8184, 8130, 8185, 8127,8.196075677871704
13, 8171, 8175, 8178, 8183, 8174, 8175, 8236, 8183, 8224, 8221, 8190, 8129, 8181, 8130,8.196075677871704
14, 8162, 8161, 8151, 8165, 8174, 8178, 8224, 8180, 8209, 8205, 8192, 8112, 8179, 8123,8.211611986160278
15, 8150, 8151, 8154, 8148, 8175, 8174, 8214, 8171, 8186, 8173, 8159, 8103, 8160, 8098,8.211611986160278
16, 8148, 8166, 8146, 8154, 8178, 8176, 8222, 8178, 8195, 8173, 8158, 8104, 8163, 8091,8.22675085067749
17, 8179, 8185, 8164, 8154, 8181, 8169, 8219, 8178, 8199, 8173, 8197, 8141, 8190, 8116,8.22675085067749
18, 8204, 8200, 8206, 8158, 8182, 8156, 8212, 8169, 8184, 8156, 8215, 8169, 8203, 8123,8.24190640449524
19, 8192, 8197, 8181, 8176, 8184, 8158, 8227, 8164, 8190, 8162, 8206, 8145, 8196, 8104,8.24190640449524
20, 8181, 8185, 8184, 8165, 8179, 8165, 8230, 8173, 8189, 8158, 8189, 8141, 8185, 8108,8.257602214813232
21, 8183, 8190, 8201, 8168, 8179, 8164, 8231, 8185, 8186, 8151, 8193, 8142, 8195, 8112,8.257602214813232
22, 8180, 8191, 8199, 8181, 8181, 8163, 8234, 8176, 8182, 8164, 8203, 8140, 8195, 8106,8.272798776626587
23, 8169, 8186, 8197, 8177, 8186, 8174, 8231, 8172, 8171, 8176, 8192, 8142, 8182, 8107,8.272798776626587
24, 8166, 8188, 8182, 8191, 8191, 8174, 8227, 8175, 8178, 8182, 8196, 8124, 8194, 8111,8.287949800491333
25, 8165, 8194, 8200, 8196, 8182, 8164, 8218, 8164, 8176, 8174, 8208, 8125, 8198, 8108,8.287949800491333
26, 8154, 8198, 8195, 8193, 8177, 8165, 8225, 8153, 8161, 8167, 8207, 8134, 8186, 8099,8.303252458572388
27, 8157, 8195, 8184, 8197, 8187, 8165, 8226, 8144, 8147, 8159, 8197, 8139, 8182, 8097,8.303252458572388
28, 8172, 8190, 8207, 8195, 8191, 8170, 8218, 8152, 8148, 8159, 8187, 8137, 8182, 8108,8.31899905204773
29, 8174, 8187, 8191, 8198, 8184, 8170, 8229, 8170, 8171, 8183, 8188, 8119, 8189, 8111,8.31899905204773
30, 8179, 8196, 8193, 8203, 8177, 8163, 8235, 8181, 8187, 8189, 8200, 8149, 8209, 8120,8.334600448608398
31, 8187, 8193, 8200, 8211, 8183, 8169, 8240, 8184, 8201, 8187, 8215, 8162, 8224, 8134,8.334600448608398
32, 8182, 8173, 8190, 8195, 8181, 8170, 8239, 8175, 8203, 8181, 8205, 8138, 8206, 8135,8.350545883178711
33, 8169, 8171, 8195, 8170, 8169, 8159, 8228, 8175, 8199, 8176, 8184, 8143, 8195, 8127,8.350545883178711
34, 8162, 8174, 8169, 8175, 8172, 8147, 8217, 8171, 8200, 8187, 8188, 8143, 8205, 8112,8.366038084030151
35, 8164, 8165, 8173, 8168, 8172, 8138, 8196, 8161, 8183, 8180, 8191, 8148, 8200, 8108,8.366038084030151
36, 8168, 8163, 8176, 8164, 8167, 8142, 8198, 8174, 8190, 8181, 8202, 8148, 8208, 8111,8.381678581237793
37, 8179, 8168, 8171, 8178, 8176, 8142, 8213, 8180, 8212, 8192, 8226, 8149, 8225, 8110,8.381678581237793
38, 8189, 8179, 8200, 8185, 8185, 8134, 8207, 8173, 8198, 8181, 8232, 8167, 8218, 8107,8.396682977676392
39, 8188, 8181, 8185, 8189, 8181, 8135, 8200, 8170, 8183, 8170, 8228, 8151, 8218, 8099,8.411840438842773
40, 8197, 8179, 8194, 8177, 8172, 8133, 8193, 8164, 8177, 8169, 8227, 8153, 8217, 8104,8.411840438842773
41, 8209, 8189, 8219, 8183, 8183, 8138, 8204, 8166, 8179, 8175, 8239, 8165, 8220, 8112,8.411840438842773
42, 8211, 8199, 8217, 8207, 8195, 8155, 8219, 8167, 8172, 8165, 8246, 8162, 8230, 8115,8.427031755447388
43, 8208, 8205, 8234, 8207, 8191, 8164, 8208, 8168, 8151, 8148, 8228, 8163, 8213, 8119,8.443198204040527
44, 8209, 8208, 8218, 8204, 8191, 8162, 8208, 8170, 8166, 8172, 8214, 8142, 8205, 8114,8.443704605102539
45, 8207, 8207, 8215, 8201, 8192, 8166, 8209, 8161, 8177, 8188, 8212, 8135, 8199, 8112,8.45900273323059
46, 8192, 8205, 8212, 8200, 8188, 8177, 8207, 8159, 8160, 8169, 8202, 8119, 8170, 8102,8.45900273323059
47, 8181, 8200, 8185, 8195, 8186, 8167, 8211, 8163, 8159, 8152, 8180, 8087, 8156, 8085,8.475026607513428
48, 8186, 8197, 8205, 8184, 8186, 8164, 8218, 8173, 8169, 8151, 8165, 8099, 8167, 8092,8.475026607513428
49, 8184, 8187, 8193, 8192, 8193, 8180, 8225, 8176, 8179, 8176, 8170, 8101, 8176, 8100,8.475026607513428
50, 8182, 8176, 8181, 8191, 8193, 8176, 8214, 8162, 8178, 8179, 8170, 8100, 8167, 8101,8.49057149887085
51, 8183, 8176, 8193, 8176, 8185, 8174, 8212, 8165, 8185, 8167, 8166, 8109, 8166, 8103,8.505661964416504
52, 8182, 8179, 8181, 8178, 8186, 8187, 8228, 8179, 8200, 8183, 8170, 8105, 8177, 8110,8.505661964416504
53, 8186, 8179, 8193, 8180, 8189, 8190, 8236, 8187, 8203, 8186, 8165, 8112, 8174, 8126,8.520819187164307
54, 8175, 8165, 8167, 8165, 8188, 8180, 8232, 8179, 8214, 8179, 8152, 8092, 8169, 8117,8.520819187164307
55, 8167, 8154, 8145, 8142, 8177, 8165, 8211, 8172, 8211, 8170, 8155, 8087, 8165, 8103,8.536409616470337
56, 8175, 8173, 8160, 8152, 8173, 8167, 8203, 8181, 8205, 8175, 8178, 8109, 8177, 8111,8.536409616470337
57, 8175, 8176, 8144, 8167, 8175, 8169, 8208, 8180, 8212, 8187, 8186, 8105, 8185, 8106,8.551662921905518
58, 8169, 8158, 8150, 8142, 8172, 8158, 8199, 8178, 8203, 8175, 8172, 8106, 8168, 8099,8.551662921905518
59, 8175, 8159, 8147, 8143, 8178, 8155, 8203, 8195, 8208, 8176, 8182, 8102, 8168, 8099,8.56762981414795
60, 8193, 8169, 8159, 8164, 8182, 8153, 8200, 8189, 8212, 8176, 8196, 8111, 8174, 8100,8.56762981414795
61, 8205, 8190, 8197, 8178, 8187, 8164, 8191, 8172, 8198, 8164, 8202, 8135, 8174, 8104,8.583173513412476
62, 8200, 8208, 8182, 8197, 8195, 8174, 8200, 8170, 8196, 8162, 8206, 8121, 8173, 8097,8.583173513412476
63, 8185, 8204, 8178, 8179, 8191, 8167, 8194, 8170, 8193, 8160, 8197, 8113, 8157, 8086,8.59916377067566
64, 8182, 8199, 8176, 8176, 8193, 8174, 8199, 8166, 8194, 8165, 8199, 8111, 8157, 8087,8.59916377067566
65, 8196, 8208, 8191, 8203, 8202, 8190, 8215, 8166, 8188, 8167, 8207, 8112, 8166, 8102,8.614688634872437
66, 8191, 8208, 8214, 8193, 8195, 8188, 8217, 8172, 8181, 8172, 8208, 8119, 8162, 8108,8.614688634872437
67, 8175, 8185, 8189, 8179, 8186, 8173, 8214, 8170, 8186, 8192, 8210, 8109, 8162, 8106,8.630014896392822
68, 8187, 8191, 8210, 8214, 8194, 8174, 8215, 8165, 8186, 8193, 8208, 8126, 8165, 8117,8.630014896392822
69, 8206, 8222, 8226, 8273, 8208, 8192, 8229, 8179, 8204, 8200, 8220, 8139, 8182, 8128,8.645944118499756
70, 8209, 8220, 8226, 8279, 8204, 8188, 8223, 8190, 8218, 8207, 8239, 8148, 8189, 8144,8.645944118499756
71, 8212, 8212, 8250, 8268, 8191, 8181, 8213, 8194, 8219, 8210, 8244, 8168, 8188, 8154,8.661027431488037
72, 8215, 8210, 8224, 8280, 8189, 8181, 8216, 8192, 8228, 8221, 8246, 8155, 8195, 8145,8.661027431488037
73, 8206, 8196, 8211, 8255, 8184, 8161, 8194, 8178, 8206, 8191, 8231, 8157, 8174, 8137,8.676665782928467
74, 8190, 8183, 8198, 8234, 8177, 8144, 8182, 8162, 8189, 8157, 8213, 8152, 8162, 8119,8.676665782928467
75, 8191, 8178, 8182, 8228, 8173, 8144, 8189, 8158, 8191, 8156, 8211, 8141, 8174, 8112,8.692058086395264
76, 8204, 8189, 8212, 8216, 8174, 8154, 8184, 8176, 8182, 8154, 8209, 8157, 8171, 8123,8.692058086395264
77, 8199, 8187, 8189, 8210, 8177, 8154, 8184, 8180, 8186, 8155, 8217, 8145, 8171, 8112,8.707724809646606
78, 8196, 8180, 8186, 8206, 8175, 8140, 8175, 8162, 8185, 8154, 8229, 8145, 8175, 8098,8.707724809646606
79, 8203, 8202, 8224, 8225, 8192, 8152, 8179, 8166, 8181, 8164, 8222, 8150, 8168, 8106,8.72289228439331
80, 8197, 8207, 8217, 8235, 8205, 8174, 8202, 8172, 8187, 8185, 8209, 8127, 8161, 8113,8.72289228439331
81, 8176, 8176, 8190, 8201, 8185, 8182, 8211, 8174, 8189, 8190, 8193, 8114, 8156, 8112,8.738677024841309
82, 8159, 8154, 8152, 8172, 8172, 8183, 8211, 8178, 8198, 8186, 8182, 8103, 8159, 8107,8.738677024841309
83, 8166, 8154, 8155, 8153, 8168, 8167, 8189, 8171, 8194, 8169, 8180, 8115, 8155, 8101,8.753730297088623
84, 8175, 8159, 8167, 8143, 8163, 8152, 8169, 8170, 8183, 8156, 8188, 8130, 8154, 8091,8.753730297088623
85, 8179, 8175, 8168, 8166, 8177, 8158, 8176, 8169, 8179, 8155, 8204, 8128, 8163, 8081,8.769608974456787
86, 8175, 8192, 8199, 8191, 8192, 8175, 8187, 8161, 8164, 8153, 8199, 8127, 8149, 8085,8.769608974456787
87, 8161, 8185, 8174, 8202, 8190, 8185, 8202, 8161, 8169, 8178, 8174, 8097, 8131, 8086,8.784838676452637
88, 8163, 8167, 8159, 8188, 8180, 8179, 8200, 8177, 8189, 8198, 8163, 8100, 8138, 8095,8.784838676452637
89, 8169, 8159, 8167, 8158, 8171, 8160, 8190, 8187, 8188, 8184, 8181, 8125, 8157, 8104,8.799996852874756
90, 8170, 8159, 8146, 8146, 8171, 8134, 8184, 8173, 8179, 8161, 8200, 8126, 8170, 8098,8.799996852874756
91, 8181, 8173, 8168, 8155, 8178, 8140, 8177, 8166, 8176, 8147, 8197, 8139, 8174, 8096,8.815613746643066
92, 8177, 8181, 8167, 8171, 8187, 8159, 8179, 8166, 8175, 8153, 8185, 8121, 8168, 8083,8.815613746643066
93, 8168, 8175, 8167, 8163, 8178, 8147, 8170, 8151, 8152, 8151, 8170, 8119, 8149, 8075,8.83171010017395
94, 8176, 8184, 8196, 8164, 8175, 8155, 8173, 8155, 8153, 8163, 8184, 8147, 8160, 8089,8.83171010017395
95, 8180, 8195, 8189, 8192, 8197, 8176, 8185, 8163, 8172, 8188, 8209, 8139, 8180, 8096,8.846909046173096
96, 8174, 8197, 8201, 8194, 8204, 8178, 8184, 8155, 8157, 8174, 8193, 8131, 8161, 8092,8.846909046173096
97, 8173, 8183, 8187, 8190, 8188, 8181, 8195, 8159, 8167, 8180, 8174, 8117, 8156, 8090,8.862076759338379
98, 8170, 8156, 8163, 8170, 8169, 8166, 8191, 8170, 8185, 8199, 8174, 8113, 8166, 8097,8.862076759338379
99, 8166, 8151, 8170, 8140, 8160, 8139, 8167, 8178, 8182, 8182, 8179, 8127, 8172, 8098,8.877670288085938
100, 8172, 8159, 8163, 8140, 8156, 8132, 8160, 8171, 8177, 8155, 8185, 8128, 8179, 8085,8.877670288085938
101, 8180, 8168, 8181, 8140, 8157, 8145, 8160, 8155, 8157, 8136, 8174, 8137, 8158, 8076,8.892956972122192
102, 8172, 8179, 8179, 8150, 8178, 8164, 8164, 8159, 8159, 8143, 8168, 8129, 8148, 8074,8.892956972122192
103, 8172, 8182, 8182, 8168, 8193, 8172, 8166, 8170, 8178, 8162, 8186, 8134, 8162, 8082,8.908639192581177
104, 8172, 8182, 8205, 8177, 8191, 8182, 8179, 8175, 8183, 8170, 8200, 8146, 8165, 8087,8.908639192581177
105, 8161, 8172, 8174, 8176, 8187, 8199, 8200, 8163, 8184, 8175, 8188, 8113, 8156, 8079,8.923934698104858
106, 8154, 8171, 8176, 8165, 8186, 8202, 8194, 8163, 8180, 8182, 8164, 8108, 8146, 8088,8.923934698104858
107, 8153, 8181, 8184, 8176, 8193, 8198, 8197, 8178, 8188, 8205, 8170, 8118, 8159, 8097,8.939069032669067
108, 8158, 8170, 8166, 8173, 8190, 8193, 8204, 8175, 8196, 8217, 8187, 8126, 8171, 8098,8.954720497131348
109, 8168, 8162, 8168, 8146, 8180, 8190, 8195, 8177, 8194, 8212, 8189, 8144, 8171, 8110,8.954720497131348
110, 8178, 8171, 8154, 8147, 8183, 8174, 8181, 8178, 8189, 8206, 8199, 8142, 8179, 8104,8.969883680343628
111, 8177, 8176, 8167, 8143, 8176, 8148, 8156, 8172, 8177, 8178, 8199, 8153, 8181, 8088,8.969883680343628
