COUNTER,F3,FC5,AF3,F7,T7,P7,O1,O2,P8,T8,F8,AF4,FC6,F4,Timestamp,word
53, 8134, 8169, 8173, 8165, 8139, 8131, 8138, 8135, 8126, 8120, 8141, 8159, 8181, 8127,0.005048036575317383,XXXXX
54, 8123, 8154, 8162, 8146, 8135, 8126, 8136, 8135, 8125, 8126, 8137, 8154, 8178, 8119,0.012878179550170898,XXXXX
55, 8142, 8159, 8173, 8158, 8149, 8149, 8148, 8145, 8135, 8135, 8141, 8168, 8165, 8132,0.02083110809326172,XXXXX
56, 8153, 8182, 8186, 8174, 8150, 8148, 8152, 8155, 8143, 8132, 8144, 8184, 8186, 8152,0.02863001823425293,XXXXX
57, 8135, 8157, 8173, 8153, 8139, 8130, 8146, 8156, 8140, 8133, 8135, 8162, 8156, 8127,0.03650927543640137,XXXXX
58, 8133, 8155, 8164, 8138, 8133, 8131, 8152, 8159, 8137, 8133, 8130, 8153, 8171, 8130,0.04430079460144043,XXXXX
59, 8155, 8171, 8170, 8153, 8142, 8145, 8166, 8168, 8147, 8135, 8132, 8162, 8170, 8148,0.052084922790527344,XXXXX
60, 8160, 8168, 8176, 8155, 8147, 8148, 8170, 8166, 8152, 8138, 8127, 8160, 8153, 8140,0.05985569953918457,XXXXX
61, 8155, 8179, 8176, 8145, 8149, 8157, 8175, 8169, 8155, 8144, 8133, 8167, 8186, 8159,0.06750822067260742,XXXXX
62, 8175, 8178, 8183, 8156, 8153, 8174, 8188, 8184, 8165, 8159, 8153, 8182, 8178, 8172,0.07684636116027832,XXXXX
63, 8193, 8188, 8204, 8169, 8149, 8166, 8186, 8182, 8161, 8161, 8164, 8200, 8198, 8185,0.08329296112060547,XXXXX
64, 8185, 8188, 8204, 8163, 8149, 8157, 8178, 8171, 8153, 8150, 8161, 8195, 8194, 8183,0.0911552906036377,XXXXX
65, 8168, 8167, 8182, 8150, 8148, 8158, 8175, 8161, 8144, 8141, 8145, 8179, 8167, 8155,0.09915971755981445,XXXXX
66, 8176, 8179, 8182, 8150, 8143, 8152, 8169, 8146, 8133, 8139, 8137, 8186, 8201, 8164,0.10680580139160156,XXXXX
67, 8195, 8182, 8206, 8160, 8161, 8158, 8173, 8156, 8150, 8150, 8152, 8198, 8186, 8170,0.11453080177307129,XXXXX
68, 8202, 8193, 8216, 8175, 8177, 8162, 8182, 8179, 8168, 8151, 8171, 8211, 8193, 8176,0.12229251861572266,XXXXX
69, 8195, 8198, 8203, 8174, 8169, 8153, 8176, 8171, 8163, 8149, 8168, 8205, 8198, 8175,0.13044214248657227,XXXXX
70, 8180, 8177, 8197, 8162, 8163, 8143, 8168, 8151, 8154, 8157, 8162, 8183, 8169, 8150,0.13933992385864258,XXXXX
71, 8171, 8184, 8196, 8161, 8163, 8136, 8168, 8147, 8147, 8147, 8162, 8183, 8188, 8149,0.14580297470092773,XXXXX
72, 8172, 8179, 8188, 8157, 8166, 8142, 8170, 8155, 8149, 8139, 8161, 8185, 8169, 8149,0.15384173393249512,XXXXX
73, 8173, 8172, 8186, 8146, 8162, 8139, 8169, 8160, 8154, 8145, 8162, 8191, 8176, 8155,0.16179323196411133,XXXXX
74, 8166, 8175, 8183, 8139, 8150, 8125, 8168, 8163, 8153, 8155, 8150, 8186, 8191, 8159,0.1697371006011963,XXXXX
75, 8160, 8158, 8169, 8136, 8147, 8119, 8159, 8163, 8148, 8152, 8134, 8164, 8166, 8132,0.17775464057922363,XXXXX
76, 8158, 8169, 8169, 8130, 8146, 8126, 8155, 8149, 8138, 8132, 8131, 8170, 8191, 8135,0.18565773963928223,XXXXX
77, 8162, 8173, 8179, 8127, 8155, 8140, 8165, 8146, 8144, 8135, 8136, 8179, 8175, 8143,0.19373464584350586,XXXXX
78, 8169, 8171, 8181, 8134, 8161, 8135, 8162, 8154, 8149, 8150, 8144, 8185, 8177, 8151,0.20150470733642578,XXXXX
79, 8165, 8183, 8182, 8130, 8158, 8127, 8151, 8153, 8144, 8149, 8145, 8187, 8197, 8163,0.20929193496704102,XXXXX
80, 8158, 8170, 8178, 8126, 8150, 8134, 8153, 8143, 8134, 8138, 8136, 8174, 8158, 8139,0.21723484992980957,XXXXX
81, 8158, 8174, 8174, 8137, 8144, 8137, 8148, 8133, 8114, 8129, 8131, 8176, 8177, 8137,0.22504425048828125,XXXXX
82, 8165, 8174, 8170, 8141, 8150, 8137, 8138, 8130, 8116, 8136, 8137, 8178, 8173, 8143,0.2330617904663086,XXXXX
83, 8162, 8164, 8170, 8134, 8152, 8130, 8140, 8127, 8124, 8134, 8134, 8173, 8161, 8134,0.24105286598205566,XXXXX
84, 8154, 8170, 8171, 8134, 8144, 8122, 8142, 8127, 8115, 8124, 8128, 8171, 8178, 8137,0.24873590469360352,XXXXX
85, 8159, 8164, 8167, 8126, 8146, 8139, 8151, 8142, 8126, 8142, 8131, 8170, 8159, 8142,0.2565793991088867,XXXXX
86, 8170, 8177, 8174, 8118, 8158, 8152, 8166, 8152, 8147, 8158, 8136, 8183, 8188, 8162,0.26450061798095703,XXXXX
87, 8164, 8174, 8177, 8127, 8163, 8145, 8164, 8150, 8147, 8154, 8139, 8179, 8176, 8151,0.272442102432251,XXXXX
88, 8149, 8154, 8155, 8123, 8149, 8137, 8150, 8130, 8123, 8131, 8132, 8156, 8146, 8126,0.2797365188598633,XXXXX
89, 8135, 8158, 8131, 8098, 8139, 8139, 8146, 8113, 8108, 8108, 8113, 8142, 8171, 8135,0.28755688667297363,XXXXX
90, 8136, 8146, 8125, 8088, 8147, 8146, 8154, 8122, 8122, 8108, 8097, 8135, 8158, 8127,0.29531145095825195,XXXXX
91, 8153, 8163, 8146, 8106, 8152, 8147, 8161, 8147, 8137, 8125, 8111, 8157, 8176, 8139,0.30478739738464355,XXXXX
92, 8171, 8185, 8163, 8126, 8159, 8161, 8175, 8169, 8151, 8153, 8137, 8174, 8179, 8164,0.31260180473327637,XXXXX
93, 8169, 8174, 8157, 8126, 8165, 8168, 8181, 8175, 8159, 8163, 8134, 8166, 8171, 8158,0.32067370414733887,XXXXX
94, 8172, 8180, 8163, 8128, 8172, 8171, 8187, 8177, 8166, 8161, 8135, 8174, 8201, 8168,0.3283693790435791,XXXXX
95, 8188, 8186, 8182, 8147, 8187, 8195, 8203, 8190, 8183, 8174, 8164, 8187, 8177, 8170,0.33621764183044434,XXXXX
96, 8179, 8190, 8176, 8153, 8183, 8186, 8189, 8175, 8170, 8167, 8163, 8184, 8183, 8154,0.3425331115722656,XXXXX
97, 8148, 8168, 8141, 8121, 8157, 8152, 8161, 8147, 8146, 8147, 8127, 8163, 8177, 8132,0.3503396511077881,XXXXX
98, 8134, 8146, 8128, 8100, 8147, 8149, 8166, 8149, 8149, 8140, 8125, 8149, 8152, 8118,0.3599395751953125,XXXXX
99, 8137, 8161, 8135, 8102, 8150, 8163, 8181, 8163, 8159, 8133, 8130, 8148, 8179, 8132,0.3678586483001709,XXXXX
100, 8131, 8146, 8117, 8094, 8150, 8170, 8181, 8162, 8158, 8133, 8105, 8128, 8152, 8111,0.374727725982666,XXXXX
101, 8129, 8148, 8111, 8099, 8155, 8172, 8185, 8159, 8158, 8142, 8108, 8130, 8164, 8111,0.3824918270111084,XXXXX
102, 8147, 8172, 8131, 8116, 8162, 8177, 8192, 8174, 8170, 8150, 8138, 8147, 8184, 8150,0.39028406143188477,XXXXX
103, 8160, 8162, 8139, 8112, 8155, 8172, 8183, 8183, 8174, 8152, 8136, 8146, 8153, 8149,0.3984544277191162,XXXXX
104, 8160, 8166, 8141, 8112, 8145, 8157, 8167, 8176, 8163, 8141, 8121, 8152, 8174, 8149,0.4064633846282959,XXXXX
105, 8160, 8167, 8145, 8115, 8157, 8164, 8169, 8174, 8167, 8139, 8128, 8158, 8163, 8152,0.4145951271057129,XXXXX
106, 8167, 8167, 8145, 8110, 8164, 8170, 8177, 8174, 8171, 8143, 8133, 8163, 8166, 8158,0.4226109981536865,XXXXX
107, 8166, 8173, 8146, 8112, 8159, 8167, 8175, 8171, 8169, 8142, 8127, 8165, 8178, 8160,0.43055033683776855,XXXXX
108, 8160, 8161, 8154, 8117, 8159, 8170, 8175, 8161, 8170, 8148, 8125, 8160, 8152, 8141,0.43835902214050293,XXXXX
109, 8171, 8172, 8160, 8116, 8155, 8172, 8177, 8150, 8167, 8162, 8139, 8177, 8178, 8157,0.4464139938354492,XXXXX
110, 8187, 8174, 8166, 8123, 8158, 8179, 8174, 8156, 8172, 8168, 8161, 8191, 8176, 8164,0.45432400703430176,XXXXX
111, 8177, 8165, 8170, 8126, 8164, 8173, 8161, 8163, 8174, 8157, 8166, 8187, 8176, 8147,0.46213579177856445,XXXXX
112, 8154, 8164, 8155, 8114, 8161, 8160, 8153, 8159, 8172, 8166, 8160, 8174, 8187, 8145,0.4700503349304199,XXXXX
113, 8152, 8154, 8143, 8113, 8156, 8162, 8152, 8162, 8184, 8188, 8162, 8164, 8159, 8138,0.4766843318939209,XXXXX
114, 8161, 8173, 8154, 8124, 8155, 8160, 8150, 8167, 8182, 8176, 8162, 8175, 8186, 8148,0.4857945442199707,XXXXX
115, 8160, 8175, 8161, 8128, 8164, 8156, 8153, 8157, 8173, 8169, 8156, 8171, 8173, 8145,0.493516206741333,XXXXX
116, 8158, 8170, 8160, 8133, 8163, 8152, 8157, 8144, 8170, 8176, 8154, 8165, 8161, 8136,0.5014081001281738,XXXXX
117, 8157, 8190, 8161, 8142, 8164, 8159, 8165, 8148, 8170, 8174, 8163, 8175, 8191, 8151,0.5092322826385498,XXXXX
118, 8162, 8181, 8156, 8142, 8181, 8174, 8171, 8159, 8178, 8177, 8166, 8169, 8164, 8142,0.5169038772583008,XXXXX
119, 8161, 8182, 8156, 8139, 8180, 8167, 8166, 8155, 8175, 8172, 8152, 8166, 8174, 8139,0.5246460437774658,XXXXX
120, 8145, 8180, 8148, 8132, 8169, 8159, 8166, 8147, 8167, 8163, 8131, 8156, 8166, 8131,0.5324599742889404,XXXXX
121, 8133, 8159, 8134, 8124, 8165, 8160, 8161, 8144, 8160, 8162, 8125, 8145, 8149, 8111,0.5405349731445312,XXXXX
122, 8130, 8155, 8135, 8116, 8155, 8152, 8147, 8144, 8156, 8161, 8139, 8149, 8175, 8121,0.5484366416931152,XXXXX
123, 8134, 8147, 8142, 8113, 8149, 8149, 8148, 8156, 8167, 8165, 8153, 8149, 8154, 8118,0.5561399459838867,XXXXX
124, 8144, 8167, 8146, 8124, 8150, 8153, 8160, 8157, 8166, 8165, 8156, 8161, 8174, 8124,0.5638518333435059,XXXXX
125, 8155, 8171, 8150, 8130, 8153, 8153, 8158, 8146, 8159, 8165, 8155, 8171, 8177, 8135,0.5714733600616455,XXXXX
126, 8160, 8160, 8159, 8130, 8163, 8159, 8152, 8147, 8159, 8163, 8159, 8179, 8158, 8136,0.5808300971984863,XXXXX
127, 8154, 8179, 8162, 8131, 8165, 8164, 8149, 8145, 8150, 8156, 8162, 8185, 8185, 8151,0.5887556076049805,XXXXX
240, 8147, 8163, 8148, 8124, 8156, 8160, 8141, 8139, 8142, 8154, 8155, 8168, 8165, 8134,0.5964975357055664,XXXXX
0, 8154, 8156, 8149, 8120, 8155, 8155, 8143, 8145, 8155, 8157, 8158, 8171, 8180, 8134,0.6029088497161865,XXXXX
1, 8165, 8165, 8156, 8123, 8164, 8166, 8154, 8150, 8171, 8163, 8168, 8184, 8182, 8153,0.6107604503631592,XXXXX
2, 8160, 8157, 8152, 8126, 8153, 8166, 8153, 8148, 8162, 8163, 8161, 8173, 8153, 8144,0.6186270713806152,XXXXX
3, 8156, 8173, 8150, 8127, 8146, 8157, 8151, 8165, 8164, 8166, 8162, 8173, 8188, 8156,0.6267566680908203,XXXXX
4, 8166, 8172, 8152, 8131, 8167, 8173, 8168, 8194, 8195, 8181, 8178, 8181, 8176, 8158,0.6347606182098389,XXXXX
5, 8169, 8171, 8153, 8135, 8169, 8177, 8176, 8189, 8187, 8171, 8173, 8183, 8170, 8155,0.6425228118896484,XXXXX
6, 8166, 8177, 8155, 8134, 8152, 8168, 8170, 8171, 8159, 8149, 8156, 8180, 8176, 8165,0.65045166015625,XXXXX
7, 8168, 8157, 8154, 8121, 8148, 8166, 8178, 8160, 8156, 8137, 8153, 8174, 8151, 8156,0.658306360244751,XXXXX
8, 8158, 8155, 8140, 8113, 8153, 8168, 8182, 8153, 8145, 8123, 8143, 8164, 8169, 8151,0.6658127307891846,XXXXX
9, 8141, 8149, 8130, 8115, 8156, 8181, 8179, 8165, 8139, 8132, 8127, 8145, 8154, 8137,0.6736571788787842,XXXXX
10, 8133, 8149, 8138, 8114, 8150, 8181, 8180, 8180, 8157, 8149, 8137, 8149, 8163, 8141,0.6817889213562012,XXXXX
11, 8136, 8161, 8144, 8115, 8145, 8167, 8174, 8176, 8168, 8158, 8161, 8161, 8179, 8153,0.6896979808807373,XXXXX
12, 8147, 8154, 8143, 8133, 8149, 8168, 8166, 8174, 8159, 8161, 8169, 8162, 8153, 8140,0.6976866722106934,XXXXX
13, 8158, 8164, 8146, 8141, 8146, 8170, 8165, 8174, 8147, 8148, 8166, 8172, 8179, 8149,0.7054519653320312,XXXXX
14, 8155, 8166, 8151, 8128, 8146, 8167, 8173, 8173, 8154, 8149, 8170, 8170, 8167, 8145,0.7135300636291504,XXXXX
15, 8157, 8168, 8165, 8129, 8154, 8172, 8173, 8180, 8165, 8165, 8180, 8178, 8168, 8142,0.7214312553405762,XXXXX
16, 8171, 8178, 8168, 8140, 8155, 8178, 8167, 8176, 8162, 8165, 8175, 8188, 8192, 8163,0.7295849323272705,XXXXX
17, 8158, 8153, 8146, 8125, 8143, 8171, 8169, 8159, 8160, 8152, 8157, 8163, 8157, 8143,0.7375144958496094,XXXXX
18, 8133, 8151, 8133, 8107, 8140, 8162, 8177, 8159, 8157, 8148, 8148, 8149, 8172, 8132,0.7456471920013428,XXXXX
19, 8139, 8154, 8137, 8108, 8149, 8174, 8187, 8184, 8172, 8166, 8156, 8161, 8173, 8142,0.7536511421203613,XXXXX
20, 8150, 8149, 8141, 8112, 8149, 8182, 8188, 8192, 8186, 8176, 8164, 8170, 8174, 8145,0.7616827487945557,XXXXX
21, 8142, 8158, 8145, 8113, 8148, 8176, 8182, 8182, 8178, 8178, 8159, 8164, 8190, 8147,0.7695789337158203,XXXXX
22, 8136, 8149, 8145, 8112, 8152, 8173, 8187, 8188, 8176, 8185, 8160, 8148, 8157, 8132,0.7776625156402588,XXXXX
23, 8139, 8158, 8138, 8113, 8146, 8167, 8188, 8190, 8183, 8186, 8170, 8156, 8183, 8139,0.7856719493865967,XXXXX
24, 8136, 8156, 8134, 8113, 8141, 8165, 8180, 8180, 8185, 8185, 8164, 8159, 8187, 8143,0.7939960956573486,XXXXX
25, 8141, 8142, 8139, 8110, 8142, 8164, 8176, 8171, 8166, 8171, 8157, 8158, 8169, 8139,0.7997674942016602,XXXXX
26, 8161, 8166, 8160, 8118, 8151, 8165, 8185, 8177, 8158, 8159, 8175, 8179, 8197, 8166,0.8076786994934082,XXXXX
27, 8172, 8169, 8173, 8134, 8164, 8173, 8188, 8190, 8180, 8179, 8191, 8189, 8176, 8164,0.8155527114868164,XXXXX
28, 8164, 8169, 8162, 8139, 8157, 8173, 8185, 8188, 8184, 8187, 8185, 8185, 8187, 8158,0.8246245384216309,XXXXX
29, 8159, 8167, 8146, 8128, 8147, 8175, 8187, 8183, 8174, 8179, 8181, 8177, 8189, 8164,0.8324193954467773,XXXXX
30, 8170, 8161, 8160, 8132, 8161, 8179, 8192, 8187, 8182, 8185, 8190, 8181, 8174, 8161,0.8401191234588623,XXXXX
31, 8174, 8180, 8174, 8142, 8167, 8177, 8189, 8190, 8187, 8191, 8188, 8192, 8201, 8174,0.8478240966796875,XXXXX
32, 8153, 8158, 8149, 8128, 8154, 8171, 8172, 8177, 8169, 8172, 8170, 8165, 8169, 8146,0.8555634021759033,XXXXX
33, 8128, 8134, 8128, 8103, 8141, 8150, 8150, 8150, 8139, 8141, 8153, 8146, 8163, 8123,0.8633363246917725,XXXXX
34, 8137, 8147, 8136, 8104, 8145, 8147, 8148, 8141, 8138, 8146, 8153, 8159, 8170, 8139,0.8715908527374268,XXXXX
35, 8165, 8162, 8156, 8128, 8154, 8163, 8158, 8153, 8152, 8166, 8172, 8171, 8158, 8149,0.8793210983276367,XXXXX
36, 8168, 8180, 8171, 8135, 8152, 8158, 8158, 8155, 8148, 8157, 8186, 8178, 8188, 8162,0.8871314525604248,XXXXX
37, 8161, 8166, 8174, 8129, 8159, 8156, 8165, 8162, 8152, 8163, 8184, 8177, 8168, 8160,0.8948378562927246,XXXXX
38, 8175, 8169, 8171, 8137, 8164, 8160, 8177, 8173, 8162, 8183, 8181, 8181, 8177, 8161,0.90262770652771,XXXXX
39, 8186, 8187, 8176, 8153, 8162, 8165, 8180, 8177, 8168, 8184, 8189, 8186, 8195, 8170,0.9103696346282959,XXXXX
40, 8184, 8177, 8186, 8164, 8166, 8170, 8183, 8183, 8174, 8181, 8192, 8188, 8172, 8162,0.9187707901000977,XXXXX
41, 8185, 8184, 8186, 8166, 8166, 8161, 8181, 8186, 8173, 8181, 8189, 8198, 8192, 8175,0.9268510341644287,XXXXX
42, 8186, 8178, 8185, 8161, 8165, 8156, 8173, 8188, 8178, 8186, 8191, 8195, 8170, 8170,0.9346141815185547,XXXXX
43, 8186, 8172, 8196, 8151, 8161, 8158, 8176, 8194, 8177, 8182, 8190, 8195, 8173, 8166,0.9424352645874023,XXXXX
44, 8191, 8182, 8198, 8146, 8159, 8165, 8186, 8193, 8175, 8183, 8191, 8202, 8196, 8177,0.9503295421600342,XXXXX
45, 8188, 8172, 8183, 8158, 8166, 8170, 8180, 8182, 8176, 8185, 8192, 8190, 8164, 8155,0.9580554962158203,XXXXX
46, 8169, 8179, 8176, 8170, 8165, 8152, 8153, 8157, 8152, 8159, 8178, 8183, 8179, 8148,0.965712308883667,XXXXX
47, 8160, 8172, 8176, 8163, 8160, 8134, 8141, 8149, 8140, 8146, 8160, 8175, 8168, 8148,0.9736342430114746,XXXXX
48, 8165, 8164, 8170, 8153, 8161, 8130, 8147, 8161, 8152, 8157, 8164, 8174, 8168, 8147,0.9814858436584473,XXXXX
49, 8165, 8171, 8154, 8144, 8160, 8128, 8152, 8159, 8153, 8161, 8168, 8170, 8188, 8154,0.9894387722015381,XXXXX
50, 8162, 8158, 8152, 8141, 8158, 8133, 8152, 8154, 8149, 8157, 8159, 8160, 8154, 8139,0.9972522258758545,XXXXX
51, 8164, 8173, 8170, 8156, 8170, 8140, 8156, 8161, 8154, 8160, 8164, 8175, 8172, 8152,1.0051958560943604,XXXXX
52, 8161, 8177, 8170, 8163, 8184, 8145, 8165, 8158, 8159, 8164, 8171, 8172, 8169, 8148,1.0132224559783936,XXXXX
53, 8157, 8169, 8155, 8157, 8176, 8144, 8163, 8147, 8158, 8157, 8164, 8162, 8161, 8126,1.0210990905761719,XXXXX
54, 8154, 8177, 8156, 8161, 8173, 8144, 8160, 8154, 8161, 8153, 8159, 8169, 8181, 8140,1.0290350914001465,XXXXX
55, 8145, 8158, 8154, 8160, 8183, 8149, 8167, 8159, 8163, 8160, 8162, 8161, 8150, 8132,1.0368902683258057,XXXXX
56, 8148, 8163, 8153, 8162, 8177, 8149, 8166, 8151, 8156, 8155, 8165, 8162, 8176, 8132,1.0447883605957031,XXXXX
57, 8161, 8178, 8165, 8173, 8173, 8156, 8167, 8167, 8164, 8160, 8172, 8173, 8183, 8146,1.0524840354919434,XXXXX
58, 8157, 8163, 8166, 8164, 8174, 8157, 8181, 8183, 8170, 8170, 8173, 8169, 8157, 8138,1.0604448318481445,XXXXX
59, 8133, 8152, 8144, 8137, 8160, 8141, 8180, 8168, 8155, 8151, 8165, 8152, 8180, 8130,1.068378210067749,XXXXX
60, 8113, 8134, 8122, 8127, 8148, 8134, 8163, 8152, 8151, 8137, 8156, 8135, 8159, 8113,1.0762901306152344,XXXXX
61, 8112, 8136, 8124, 8133, 8146, 8130, 8157, 8152, 8154, 8140, 8151, 8138, 8168, 8118,1.0842633247375488,XXXXX
62, 8116, 8139, 8136, 8137, 8159, 8140, 8164, 8165, 8154, 8153, 8156, 8140, 8172, 8126,1.0923802852630615,XXXXX
63, 8123, 8132, 8142, 8136, 8170, 8158, 8170, 8166, 8157, 8161, 8160, 8138, 8152, 8116,1.1003501415252686,XXXXX
64, 8124, 8150, 8134, 8130, 8161, 8161, 8169, 8152, 8150, 8143, 8142, 8142, 8170, 8131,1.1081547737121582,XXXXX
65, 8115, 8142, 8124, 8123, 8155, 8159, 8170, 8148, 8135, 8125, 8122, 8131, 8145, 8125,1.1158702373504639,XXXXX
66, 8110, 8142, 8131, 8129, 8153, 8151, 8166, 8142, 8119, 8125, 8121, 8133, 8162, 8117,1.1236355304718018,XXXXX
67, 8128, 8164, 8148, 8147, 8158, 8148, 8164, 8139, 8126, 8138, 8140, 8152, 8176, 8133,1.1313791275024414,XXXXX
68, 8150, 8164, 8160, 8160, 8168, 8156, 8165, 8144, 8138, 8140, 8158, 8163, 8156, 8138,1.1392245292663574,XXXXX
69, 8144, 8167, 8161, 8165, 8162, 8154, 8157, 8141, 8126, 8131, 8157, 8167, 8182, 8144,1.1469991207122803,XXXXX
70, 8132, 8150, 8141, 8148, 8153, 8148, 8145, 8134, 8120, 8141, 8140, 8149, 8156, 8128,1.1548397541046143,XXXXX
71, 8124, 8142, 8125, 8131, 8152, 8142, 8144, 8138, 8122, 8140, 8130, 8134, 8154, 8125,1.162505865097046,XXXXX
72, 8125, 8153, 8136, 8144, 8164, 8149, 8156, 8157, 8139, 8143, 8145, 8143, 8176, 8142,1.1717557907104492,XXXXX
73, 8144, 8153, 8153, 8162, 8176, 8167, 8170, 8173, 8165, 8177, 8167, 8161, 8159, 8138,1.17958402633667,XXXXX
74, 8159, 8166, 8155, 8158, 8176, 8176, 8178, 8176, 8169, 8189, 8170, 8177, 8179, 8151,1.1875495910644531,XXXXX
75, 8153, 8154, 8149, 8148, 8176, 8179, 8178, 8173, 8170, 8175, 8161, 8169, 8163, 8147,1.1939079761505127,XXXXX
76, 8140, 8150, 8152, 8154, 8174, 8165, 8164, 8158, 8170, 8172, 8167, 8167, 8169, 8136,1.2018749713897705,XXXXX
77, 8140, 8163, 8151, 8147, 8165, 8150, 8146, 8142, 8160, 8176, 8174, 8175, 8185, 8141,1.209733009338379,XXXXX
78, 8139, 8148, 8142, 8130, 8166, 8157, 8152, 8148, 8163, 8173, 8169, 8170, 8158, 8134,1.2176690101623535,XXXXX
79, 8137, 8156, 8146, 8131, 8173, 8166, 8171, 8158, 8166, 8170, 8166, 8174, 8192, 8151,1.2255284786224365,XXXXX
80, 8136, 8153, 8144, 8123, 8171, 8167, 8169, 8154, 8155, 8167, 8162, 8160, 8177, 8145,1.2334837913513184,XXXXX
81, 8132, 8147, 8137, 8110, 8158, 8158, 8148, 8145, 8140, 8156, 8157, 8147, 8151, 8124,1.2429728507995605,XXXXX
82, 8133, 8164, 8145, 8120, 8156, 8158, 8149, 8150, 8143, 8154, 8158, 8160, 8175, 8141,1.2493531703948975,XXXXX
83, 8142, 8157, 8151, 8136, 8167, 8172, 8178, 8158, 8165, 8164, 8160, 8164, 8157, 8145,1.2585375308990479,XXXXX
84, 8142, 8161, 8152, 8133, 8169, 8172, 8183, 8156, 8164, 8161, 8158, 8161, 8170, 8146,1.2648284435272217,XXXXX
85, 8134, 8163, 8147, 8126, 8167, 8168, 8167, 8154, 8153, 8161, 8157, 8159, 8160, 8138,1.2725107669830322,XXXXX
86, 8137, 8154, 8138, 8120, 8167, 8174, 8169, 8154, 8150, 8163, 8156, 8159, 8153, 8130,1.281968355178833,XXXXX
87, 8141, 8166, 8141, 8119, 8172, 8184, 8184, 8159, 8155, 8161, 8159, 8161, 8182, 8154,1.2899744510650635,XXXXX
88, 8138, 8158, 8150, 8116, 8176, 8194, 8190, 8167, 8165, 8167, 8162, 8158, 8157, 8152,1.2963619232177734,XXXXX
89, 8140, 8156, 8145, 8109, 8169, 8190, 8178, 8163, 8161, 8162, 8159, 8161, 8172, 8148,1.3057847023010254,XXXXX
90, 8140, 8154, 8129, 8111, 8168, 8184, 8175, 8163, 8157, 8156, 8156, 8151, 8166, 8148,1.3138751983642578,XXXXX
91, 8139, 8146, 8129, 8117, 8168, 8172, 8185, 8162, 8154, 8155, 8154, 8143, 8146, 8138,1.320483684539795,XXXXX
92, 8151, 8166, 8143, 8125, 8161, 8167, 8185, 8157, 8156, 8154, 8156, 8158, 8180, 8153,1.327834129333496,XXXXX
93, 8165, 8159, 8143, 8124, 8158, 8176, 8173, 8161, 8167, 8165, 8162, 8161, 8160, 8153,1.3356263637542725,XXXXX
94, 8147, 8148, 8126, 8117, 8146, 8167, 8159, 8155, 8159, 8167, 8160, 8153, 8163, 8140,1.3435111045837402,XXXXX
95, 8127, 8152, 8125, 8124, 8144, 8159, 8163, 8155, 8154, 8162, 8155, 8150, 8170, 8132,1.3514764308929443,XXXXX
96, 8144, 8155, 8149, 8146, 8160, 8166, 8179, 8174, 8165, 8164, 8158, 8158, 8157, 8137,1.3594238758087158,XXXXX
97, 8162, 8169, 8159, 8155, 8162, 8166, 8176, 8171, 8160, 8167, 8158, 8174, 8175, 8160,1.368659496307373,XXXXX
98, 8158, 8155, 8153, 8146, 8160, 8167, 8167, 8158, 8149, 8164, 8157, 8176, 8151, 8145,1.376753568649292,XXXXX
99, 8156, 8158, 8162, 8154, 8169, 8172, 8172, 8166, 8151, 8164, 8163, 8185, 8170, 8146,1.3846638202667236,XXXXX
100, 8163, 8169, 8166, 8157, 8173, 8182, 8180, 8171, 8160, 8177, 8166, 8185, 8182, 8165,1.3925588130950928,XXXXX
101, 8164, 8157, 8161, 8150, 8170, 8191, 8184, 8174, 8164, 8179, 8163, 8173, 8153, 8147,1.398932933807373,XXXXX
102, 8163, 8166, 8165, 8153, 8168, 8179, 8183, 8176, 8162, 8166, 8164, 8182, 8182, 8149,1.4069077968597412,XXXXX
103, 8157, 8155, 8156, 8143, 8168, 8170, 8179, 8172, 8164, 8163, 8165, 8178, 8165, 8149,1.4146552085876465,XXXXX
104, 8155, 8151, 8147, 8134, 8163, 8174, 8177, 8170, 8162, 8164, 8161, 8172, 8167, 8144,1.422640323638916,XXXXX
105, 8159, 8165, 8156, 8140, 8165, 8177, 8180, 8174, 8158, 8166, 8161, 8178, 8182, 8153,1.4307105541229248,XXXXX
106, 8162, 8149, 8154, 8137, 8170, 8174, 8182, 8176, 8158, 8164, 8158, 8172, 8154, 8141,1.438591718673706,XXXXX
107, 8169, 8162, 8156, 8137, 8173, 8173, 8176, 8175, 8158, 8155, 8157, 8177, 8182, 8156,1.4464197158813477,XXXXX
108, 8171, 8167, 8167, 8148, 8174, 8174, 8168, 8175, 8164, 8164, 8165, 8176, 8170, 8158,1.4557814598083496,XXXXX
109, 8161, 8158, 8166, 8148, 8166, 8164, 8165, 8172, 8160, 8170, 8168, 8181, 8164, 8145,1.4620628356933594,XXXXX
110, 8161, 8172, 8165, 8144, 8164, 8168, 8169, 8174, 8153, 8162, 8165, 8198, 8185, 8156,1.4703636169433594,XXXXX
111, 8166, 8170, 8172, 8162, 8167, 8176, 8167, 8176, 8157, 8161, 8162, 8188, 8160, 8147,1.478454351425171,XXXXX
112, 8162, 8171, 8177, 8169, 8163, 8168, 8164, 8162, 8152, 8156, 8154, 8183, 8184, 8153,1.4865028858184814,XXXXX
113, 8173, 8176, 8181, 8156, 8176, 8186, 8187, 8169, 8159, 8166, 8156, 8197, 8181, 8167,1.494553804397583,XXXXX
114, 8195, 8188, 8195, 8165, 8194, 8207, 8214, 8195, 8172, 8179, 8174, 8214, 8176, 8174,1.5025660991668701,XXXXX
115, 8195, 8202, 8198, 8178, 8195, 8200, 8214, 8198, 8176, 8177, 8182, 8213, 8199, 8180,1.51045560836792,XXXXX
116, 8186, 8179, 8179, 8172, 8187, 8190, 8202, 8185, 8177, 8185, 8167, 8199, 8171, 8162,1.5183606147766113,XXXXX
117, 8187, 8182, 8176, 8163, 8179, 8181, 8197, 8176, 8161, 8175, 8160, 8203, 8183, 8167,1.5245473384857178,XXXXX
118, 8198, 8187, 8184, 8165, 8182, 8175, 8203, 8183, 8158, 8161, 8177, 8208, 8179, 8171,1.5324530601501465,XXXXX
119, 8188, 8175, 8171, 8158, 8176, 8167, 8192, 8184, 8164, 8168, 8183, 8203, 8171, 8153,1.5420341491699219,XXXXX
120, 8160, 8173, 8150, 8138, 8159, 8153, 8166, 8177, 8157, 8172, 8164, 8191, 8191, 8144,1.549988031387329,XXXXX
121, 8150, 8153, 8145, 8127, 8164, 8162, 8173, 8182, 8160, 8167, 8152, 8177, 8156, 8133,1.5564579963684082,XXXXX
122, 8161, 8161, 8152, 8134, 8170, 8178, 8191, 8182, 8161, 8155, 8155, 8184, 8170, 8147,1.5652997493743896,XXXXX
123, 8164, 8172, 8156, 8142, 8166, 8178, 8182, 8168, 8150, 8155, 8157, 8190, 8179, 8148,1.573084831237793,XXXXX
124, 8159, 8162, 8160, 8150, 8168, 8170, 8172, 8153, 8137, 8158, 8158, 8190, 8162, 8131,1.581028699874878,XXXXX
125, 8159, 8176, 8162, 8157, 8179, 8172, 8185, 8158, 8139, 8154, 8159, 8195, 8179, 8152,1.5887486934661865,XXXXX
126, 8162, 8172, 8156, 8163, 8184, 8189, 8200, 8175, 8151, 8153, 8157, 8184, 8148, 8148,1.596627950668335,XXXXX
127, 8163, 8171, 8154, 8166, 8176, 8188, 8190, 8172, 8149, 8150, 8159, 8180, 8164, 8140,1.6045594215393066,XXXXX
240, 8157, 8174, 8153, 8158, 8174, 8181, 8174, 8162, 8145, 8148, 8156, 8181, 8176, 8148,1.6125719547271729,XXXXX
0, 8158, 8167, 8159, 8155, 8179, 8192, 8174, 8170, 8149, 8149, 8152, 8177, 8154, 8144,1.6205368041992188,XXXXX
1, 8171, 8179, 8170, 8166, 8183, 8196, 8179, 8180, 8150, 8153, 8162, 8187, 8183, 8156,1.6284267902374268,XXXXX
2, 8159, 8155, 8156, 8153, 8175, 8181, 8171, 8162, 8147, 8159, 8155, 8177, 8160, 8139,1.6346619129180908,XXXXX
3, 8133, 8148, 8141, 8134, 8162, 8168, 8157, 8146, 8142, 8155, 8139, 8168, 8157, 8129,1.6441547870635986,XXXXX
4, 8142, 8175, 8148, 8148, 8171, 8182, 8162, 8159, 8149, 8158, 8150, 8177, 8173, 8145,1.6503994464874268,XXXXX
5, 8163, 8164, 8154, 8160, 8181, 8188, 8161, 8160, 8149, 8169, 8163, 8182, 8157, 8137,1.6600620746612549,XXXXX
6, 8158, 8160, 8153, 8151, 8173, 8176, 8151, 8149, 8141, 8165, 8158, 8186, 8183, 8148,1.6673831939697266,XXXXX
7, 8154, 8160, 8154, 8144, 8179, 8188, 8162, 8166, 8159, 8167, 8160, 8182, 8167, 8156,1.6751203536987305,XXXXX
8, 8161, 8162, 8151, 8144, 8186, 8190, 8169, 8177, 8170, 8170, 8166, 8181, 8172, 8154,1.6827867031097412,XXXXX
9, 8158, 8161, 8143, 8144, 8175, 8168, 8159, 8160, 8158, 8161, 8156, 8175, 8179, 8145,1.6905169486999512,XXXXX
10, 8159, 8150, 8145, 8150, 8174, 8173, 8167, 8160, 8159, 8165, 8154, 8171, 8151, 8126,1.6998271942138672,XXXXX
11, 8168, 8171, 8155, 8156, 8181, 8190, 8178, 8173, 8160, 8172, 8166, 8189, 8189, 8151,1.706374168395996,XXXXX
12, 8164, 8172, 8153, 8153, 8178, 8188, 8167, 8171, 8154, 8173, 8164, 8190, 8175, 8158,1.7143292427062988,XXXXX
13, 8160, 8167, 8152, 8158, 8173, 8180, 8160, 8165, 8153, 8175, 8159, 8189, 8162, 8143,1.7221057415008545,XXXXX
14, 8157, 8179, 8152, 8161, 8176, 8180, 8158, 8154, 8155, 8175, 8159, 8187, 8185, 8148,1.729994297027588,XXXXX
15, 8155, 8164, 8150, 8158, 8179, 8177, 8155, 8155, 8167, 8172, 8159, 8171, 8165, 8142,1.7377822399139404,XXXXX
16, 8159, 8170, 8162, 8163, 8177, 8175, 8164, 8170, 8179, 8176, 8171, 8186, 8190, 8163,1.745521068572998,XXXXX
17, 8167, 8174, 8171, 8168, 8184, 8184, 8178, 8182, 8188, 8195, 8189, 8204, 8181, 8177,1.7535855770111084,XXXXX
18, 8172, 8171, 8172, 8169, 8189, 8186, 8172, 8181, 8191, 8198, 8196, 8195, 8170, 8166,1.7614574432373047,XXXXX
19, 8160, 8172, 8165, 8165, 8177, 8171, 8156, 8177, 8183, 8188, 8188, 8182, 8190, 8160,1.7693212032318115,XXXXX
20, 8140, 8141, 8142, 8154, 8171, 8163, 8155, 8169, 8174, 8187, 8160, 8165, 8154, 8131,1.7769756317138672,XXXXX
21, 8127, 8140, 8125, 8135, 8163, 8157, 8150, 8143, 8148, 8165, 8129, 8149, 8160, 8116,1.784698247909546,XXXXX
22, 8121, 8145, 8121, 8121, 8157, 8158, 8137, 8134, 8137, 8143, 8135, 8142, 8159, 8116,1.7925527095794678,XXXXX
23, 8123, 8138, 8127, 8125, 8161, 8163, 8137, 8142, 8142, 8145, 8160, 8154, 8156, 8119,1.801806926727295,XXXXX
24, 8128, 8155, 8139, 8131, 8167, 8161, 8141, 8145, 8142, 8153, 8161, 8170, 8182, 8140,1.8096354007720947,XXXXX
25, 8138, 8158, 8151, 8132, 8169, 8167, 8143, 8148, 8151, 8158, 8162, 8168, 8157, 8139,1.8176302909851074,XXXXX
26, 8136, 8163, 8151, 8128, 8166, 8168, 8137, 8146, 8147, 8149, 8166, 8182, 8175, 8142,1.8257088661193848,XXXXX
27, 8137, 8164, 8147, 8136, 8172, 8174, 8140, 8143, 8142, 8152, 8165, 8192, 8181, 8144,1.8336701393127441,XXXXX
28, 8158, 8163, 8162, 8159, 8178, 8192, 8153, 8148, 8151, 8168, 8178, 8194, 8167, 8146,1.8415660858154297,XXXXX
29, 8164, 8175, 8169, 8153, 8180, 8198, 8155, 8151, 8153, 8164, 8178, 8199, 8193, 8168,1.8495385646820068,XXXXX
30, 8148, 8157, 8149, 8125, 8181, 8194, 8152, 8153, 8148, 8153, 8154, 8179, 8158, 8147,1.8556842803955078,XXXXX
31, 8143, 8164, 8151, 8140, 8173, 8188, 8154, 8152, 8144, 8157, 8152, 8178, 8165, 8135,1.8633971214294434,XXXXX
32, 8146, 8179, 8168, 8169, 8175, 8190, 8152, 8143, 8143, 8161, 8162, 8188, 8177, 8146,1.8726162910461426,XXXXX
33, 8133, 8156, 8156, 8154, 8176, 8187, 8132, 8127, 8128, 8145, 8146, 8173, 8147, 8129,1.880610704421997,XXXXX
34, 8122, 8156, 8138, 8140, 8158, 8168, 8117, 8114, 8113, 8125, 8131, 8166, 8176, 8125,1.8885695934295654,XXXXX
35, 8125, 8156, 8138, 8148, 8151, 8169, 8131, 8119, 8123, 8137, 8135, 8166, 8165, 8124,1.8964598178863525,XXXXX
36, 8129, 8162, 8147, 8154, 8164, 8185, 8147, 8135, 8132, 8153, 8147, 8175, 8163, 8138,1.9043595790863037,XXXXX
37, 8135, 8172, 8152, 8159, 8175, 8193, 8147, 8138, 8130, 8148, 8159, 8182, 8174, 8159,1.912381887435913,XXXXX
38, 8137, 8152, 8152, 8157, 8174, 8187, 8143, 8125, 8126, 8140, 8162, 8179, 8161, 8146,1.9185943603515625,XXXXX
39, 8128, 8153, 8149, 8151, 8164, 8184, 8148, 8119, 8117, 8136, 8157, 8175, 8183, 8150,1.9265549182891846,XXXXX
40, 8132, 8155, 8153, 8155, 8173, 8205, 8166, 8140, 8127, 8153, 8162, 8171, 8161, 8153,1.9342820644378662,XXXXX
41, 8153, 8168, 8164, 8166, 8190, 8212, 8180, 8162, 8147, 8162, 8167, 8187, 8167, 8159,1.9423370361328125,XXXXX
42, 8154, 8177, 8167, 8166, 8182, 8200, 8182, 8160, 8148, 8153, 8172, 8197, 8184, 8170,1.951317310333252,XXXXX
43, 8145, 8156, 8165, 8161, 8169, 8205, 8183, 8155, 8143, 8161, 8182, 8180, 8156, 8152,1.9591684341430664,XXXXX
44, 8154, 8163, 8169, 8153, 8166, 8210, 8181, 8166, 8147, 8168, 8179, 8185, 8183, 8163,1.9669218063354492,XXXXX
45, 8157, 8157, 8161, 8133, 8161, 8201, 8171, 8172, 8158, 8162, 8169, 8185, 8164, 8162,1.9747369289398193,XXXXX
46, 8144, 8143, 8147, 8130, 8149, 8184, 8157, 8157, 8150, 8147, 8162, 8172, 8149, 8143,1.9825160503387451,XXXXX
47, 8150, 8161, 8148, 8152, 8156, 8185, 8155, 8151, 8141, 8145, 8165, 8177, 8180, 8158,1.990283489227295,XXXXX
48, 8163, 8161, 8157, 8161, 8162, 8191, 8160, 8163, 8148, 8157, 8172, 8182, 8162, 8159,1.9980177879333496,XXXXX
49, 8159, 8163, 8162, 8153, 8146, 8179, 8154, 8154, 8135, 8148, 8174, 8186, 8178, 8166,2.0058741569519043,XXXXX
50, 8160, 8161, 8163, 8154, 8148, 8178, 8148, 8144, 8130, 8152, 8174, 8190, 8173, 8168,2.0135557651519775,XXXXX
51, 8165, 8162, 8163, 8166, 8161, 8184, 8151, 8152, 8140, 8156, 8175, 8192, 8162, 8158,2.021379232406616,XXXXX
52, 8164, 8176, 8167, 8165, 8159, 8185, 8159, 8156, 8141, 8148, 8181, 8191, 8179, 8165,2.0309982299804688,XXXXX
53, 8165, 8163, 8168, 8158, 8160, 8192, 8165, 8157, 8149, 8157, 8186, 8192, 8152, 8157,2.0373921394348145,XXXXX
54, 8169, 8175, 8176, 8173, 8163, 8194, 8166, 8158, 8159, 8159, 8187, 8215, 8174, 8171,2.0453295707702637,XXXXX
55, 8165, 8179, 8182, 8191, 8163, 8185, 8160, 8154, 8150, 8149, 8180, 8210, 8171, 8170,2.0534183979034424,XXXXX
56, 8155, 8162, 8175, 8192, 8159, 8165, 8148, 8142, 8131, 8142, 8170, 8188, 8149, 8134,2.06132435798645,XXXXX
57, 8156, 8176, 8176, 8196, 8160, 8162, 8142, 8141, 8131, 8144, 8169, 8199, 8176, 8142,2.0692574977874756,XXXXX
58, 8166, 8170, 8181, 8194, 8169, 8179, 8154, 8157, 8143, 8146, 8167, 8197, 8154, 8149,2.0772714614868164,XXXXX
59, 8155, 8157, 8165, 8173, 8163, 8173, 8156, 8159, 8134, 8138, 8158, 8176, 8164, 8138,2.0846869945526123,XXXXX
60, 8137, 8154, 8148, 8171, 8161, 8165, 8158, 8167, 8141, 8145, 8157, 8170, 8166, 8130,2.092644691467285,XXXXX
61, 8148, 8156, 8161, 8186, 8170, 8172, 8170, 8185, 8165, 8159, 8159, 8183, 8152, 8133,2.10064959526062,XXXXX
62, 8159, 8174, 8167, 8181, 8176, 8173, 8170, 8181, 8161, 8160, 8158, 8187, 8185, 8150,2.108685255050659,XXXXX
63, 8160, 8163, 8165, 8181, 8181, 8185, 8175, 8184, 8164, 8165, 8174, 8181, 8167, 8150,2.1162688732147217,XXXXX
64, 8173, 8171, 8191, 8198, 8181, 8191, 8189, 8201, 8179, 8168, 8200, 8206, 8180, 8170,2.1242663860321045,XXXXX
65, 8186, 8187, 8205, 8199, 8180, 8179, 8189, 8208, 8178, 8171, 8198, 8225, 8188, 8187,2.1321988105773926,XXXXX
66, 8175, 8164, 8184, 8184, 8176, 8170, 8181, 8201, 8167, 8167, 8185, 8211, 8158, 8165,2.140043258666992,XXXXX
67, 8159, 8165, 8177, 8180, 8171, 8175, 8186, 8189, 8156, 8155, 8185, 8201, 8174, 8161,2.14798641204834,XXXXX
68, 8156, 8164, 8177, 8184, 8175, 8182, 8200, 8186, 8159, 8163, 8191, 8195, 8150, 8151,2.1559643745422363,XXXXX
69, 8162, 8166, 8174, 8189, 8175, 8180, 8201, 8186, 8159, 8172, 8187, 8202, 8158, 8151,2.1638271808624268,XXXXX
70, 8180, 8179, 8194, 8188, 8174, 8178, 8198, 8186, 8164, 8173, 8189, 8217, 8181, 8173,2.171725273132324,XXXXX
71, 8194, 8173, 8213, 8190, 8180, 8181, 8203, 8195, 8173, 8184, 8208, 8228, 8164, 8173,2.1798148155212402,XXXXX
72, 8191, 8184, 8207, 8198, 8181, 8177, 8198, 8201, 8168, 8183, 8218, 8235, 8187, 8179,2.1878206729888916,XXXXX
73, 8185, 8170, 8197, 8188, 8174, 8178, 8188, 8196, 8172, 8171, 8205, 8225, 8166, 8168,2.195885181427002,XXXXX
74, 8187, 8162, 8199, 8172, 8168, 8179, 8183, 8190, 8174, 8161, 8193, 8219, 8165, 8160,2.2036328315734863,XXXXX
75, 8184, 8176, 8195, 8180, 8173, 8184, 8183, 8186, 8166, 8167, 8198, 8216, 8184, 8168,2.211648464202881,XXXXX
76, 8174, 8161, 8181, 8179, 8175, 8197, 8184, 8174, 8162, 8173, 8192, 8201, 8150, 8154,2.219454526901245,XXXXX
77, 8166, 8164, 8174, 8166, 8164, 8191, 8178, 8162, 8155, 8157, 8172, 8202, 8169, 8160,2.227151870727539,XXXXX
78, 8162, 8167, 8172, 8165, 8161, 8185, 8172, 8167, 8155, 8152, 8172, 8200, 8165, 8158,2.234870433807373,XXXXX
79, 8170, 8168, 8175, 8174, 8175, 8191, 8178, 8172, 8156, 8158, 8184, 8200, 8166, 8154,2.241351366043091,XXXXX
80, 8179, 8183, 8179, 8181, 8186, 8196, 8187, 8178, 8161, 8159, 8184, 8211, 8179, 8174,2.250352621078491,XXXXX
81, 8178, 8175, 8173, 8174, 8184, 8194, 8181, 8183, 8170, 8165, 8180, 8207, 8146, 8166,2.258593797683716,XXXXX
82, 8182, 8183, 8179, 8178, 8177, 8185, 8168, 8171, 8161, 8177, 8193, 8217, 8180, 8174,2.266300916671753,XXXXX
83, 8197, 8187, 8199, 8195, 8181, 8188, 8169, 8170, 8158, 8183, 8205, 8231, 8180, 8191,2.274094343185425,XXXXX
84, 8198, 8178, 8206, 8197, 8177, 8191, 8177, 8173, 8164, 8167, 8197, 8229, 8158, 8180,2.281881809234619,XXXXX
85, 8188, 8185, 8190, 8182, 8168, 8183, 8172, 8171, 8163, 8160, 8190, 8223, 8181, 8170,2.289824962615967,XXXXX
86, 8192, 8179, 8183, 8188, 8180, 8192, 8174, 8176, 8167, 8175, 8195, 8218, 8159, 8160,2.2977757453918457,XXXXX
87, 8197, 8188, 8196, 8203, 8191, 8196, 8181, 8175, 8164, 8176, 8197, 8222, 8173, 8179,2.3058745861053467,XXXXX
88, 8193, 8181, 8193, 8194, 8183, 8184, 8174, 8165, 8162, 8172, 8184, 8211, 8167, 8180,2.313835620880127,XXXXX
89, 8190, 8171, 8189, 8187, 8176, 8182, 8168, 8171, 8176, 8181, 8184, 8202, 8153, 8162,2.3202834129333496,XXXXX
90, 8196, 8196, 8201, 8197, 8182, 8193, 8177, 8187, 8186, 8189, 8198, 8218, 8187, 8181,2.32977294921875,XXXXX
91, 8193, 8189, 8200, 8203, 8192, 8197, 8183, 8185, 8181, 8191, 8194, 8213, 8166, 8169,2.3378405570983887,XXXXX
92, 8189, 8187, 8197, 8200, 8184, 8185, 8177, 8171, 8170, 8184, 8183, 8206, 8180, 8161,2.345867395401001,XXXXX
93, 8200, 8195, 8209, 8208, 8185, 8188, 8186, 8179, 8190, 8191, 8192, 8214, 8190, 8181,2.353917121887207,XXXXX
94, 8204, 8181, 8212, 8217, 8191, 8194, 8189, 8187, 8202, 8205, 8203, 8219, 8172, 8178,2.361647605895996,XXXXX
95, 8194, 8189, 8198, 8206, 8183, 8189, 8179, 8175, 8179, 8190, 8193, 8211, 8190, 8175,2.3696558475494385,XXXXX
96, 8196, 8188, 8195, 8187, 8187, 8192, 8186, 8172, 8171, 8173, 8180, 8201, 8166, 8161,2.375927686691284,XXXXX
97, 8197, 8185, 8201, 8181, 8191, 8187, 8185, 8176, 8176, 8166, 8175, 8211, 8175, 8160,2.3839516639709473,XXXXX
98, 8192, 8184, 8194, 8186, 8187, 8189, 8175, 8176, 8181, 8169, 8186, 8212, 8181, 8168,2.391822338104248,XXXXX
99, 8191, 8174, 8182, 8180, 8190, 8199, 8179, 8178, 8179, 8173, 8185, 8201, 8152, 8152,2.399824857711792,XXXXX
100, 8183, 8179, 8180, 8169, 8187, 8185, 8176, 8171, 8166, 8158, 8163, 8198, 8175, 8151,2.4077911376953125,XXXXX
101, 8179, 8173, 8181, 8165, 8181, 8177, 8169, 8166, 8169, 8164, 8172, 8194, 8164, 8148,2.415846109390259,XXXXX
102, 8193, 8187, 8196, 8177, 8182, 8189, 8177, 8171, 8177, 8179, 8191, 8211, 8176, 8162,2.4244115352630615,XXXXX
103, 8200, 8200, 8210, 8186, 8182, 8191, 8186, 8176, 8172, 8172, 8178, 8220, 8190, 8176,2.4321296215057373,XXXXX
104, 8192, 8171, 8192, 8177, 8174, 8179, 8181, 8176, 8170, 8165, 8165, 8197, 8160, 8157,2.439809799194336,XXXXX
105, 8177, 8171, 8168, 8164, 8167, 8170, 8169, 8171, 8169, 8166, 8176, 8194, 8183, 8157,2.447516441345215,XXXXX
106, 8168, 8172, 8176, 8162, 8181, 8184, 8169, 8172, 8171, 8172, 8184, 8194, 8166, 8155,2.455237865447998,XXXXX
107, 8181, 8177, 8201, 8175, 8196, 8193, 8175, 8168, 8167, 8169, 8180, 8197, 8165, 8157,2.462876558303833,XXXXX
108, 8186, 8192, 8192, 8169, 8190, 8176, 8171, 8153, 8151, 8163, 8171, 8200, 8183, 8162,2.4706716537475586,XXXXX
109, 8182, 8181, 8178, 8163, 8183, 8171, 8169, 8152, 8149, 8168, 8172, 8197, 8151, 8152,2.4787404537200928,XXXXX
110, 8198, 8198, 8203, 8187, 8190, 8188, 8178, 8175, 8161, 8184, 8195, 8214, 8183, 8182,2.486586809158325,XXXXX
111, 8205, 8194, 8209, 8191, 8188, 8191, 8179, 8184, 8170, 8197, 8196, 8212, 8183, 8185,2.4945271015167236,XXXXX
112, 8187, 8168, 8181, 8164, 8167, 8165, 8158, 8161, 8157, 8182, 8180, 8193, 8168, 8152,2.502323627471924,XXXXX
113, 8179, 8178, 8180, 8157, 8164, 8156, 8147, 8150, 8144, 8168, 8186, 8197, 8183, 8162,2.5100841522216797,XXXXX
114, 8189, 8175, 8187, 8167, 8180, 8171, 8163, 8160, 8159, 8182, 8193, 8194, 8160, 8159,2.5178942680358887,XXXXX
115, 8183, 8174, 8176, 8168, 8183, 8175, 8173, 8154, 8164, 8187, 8186, 8184, 8187, 8150,2.525686025619507,XXXXX
116, 8167, 8172, 8168, 8166, 8184, 8182, 8169, 8152, 8159, 8179, 8176, 8176, 8179, 8145,2.533386468887329,XXXXX
117, 8166, 8167, 8173, 8165, 8186, 8188, 8175, 8166, 8163, 8175, 8168, 8176, 8158, 8139,2.5414552688598633,XXXXX
118, 8169, 8182, 8181, 8167, 8186, 8183, 8186, 8176, 8175, 8184, 8176, 8182, 8185, 8156,2.5494470596313477,XXXXX
119, 8169, 8177, 8181, 8179, 8186, 8179, 8178, 8174, 8181, 8195, 8193, 8175, 8171, 8154,2.558319091796875,XXXXX
120, 8170, 8173, 8175, 8179, 8175, 8168, 8162, 8160, 8165, 8188, 8187, 8173, 8185, 8155,2.566046714782715,XXXXX
121, 8170, 8165, 8170, 8162, 8168, 8167, 8163, 8152, 8160, 8177, 8171, 8169, 8178, 8157,2.5741591453552246,XXXXX
122, 8173, 8161, 8176, 8158, 8173, 8171, 8174, 8166, 8168, 8176, 8174, 8166, 8168, 8159,2.5819451808929443,XXXXX
123, 8185, 8182, 8185, 8173, 8177, 8168, 8173, 8179, 8180, 8180, 8190, 8176, 8205, 8185,2.5883259773254395,XXXXX
124, 8192, 8174, 8185, 8178, 8179, 8177, 8168, 8181, 8197, 8196, 8205, 8183, 8183, 8172,2.597726345062256,XXXXX
125, 8193, 8186, 8199, 8188, 8188, 8189, 8176, 8181, 8198, 8204, 8220, 8198, 8198, 8170,2.6043241024017334,XXXXX
126, 8200, 8204, 8214, 8202, 8202, 8192, 8188, 8183, 8193, 8211, 8231, 8208, 8211, 8191,2.613837242126465,XXXXX
127, 8205, 8191, 8223, 8198, 8193, 8191, 8183, 8180, 8192, 8216, 8233, 8212, 8192, 8182,2.6202893257141113,XXXXX
240, 8210, 8194, 8228, 8196, 8176, 8189, 8171, 8176, 8190, 8202, 8237, 8223, 8219, 8183,2.629758596420288,XXXXX
0, 8215, 8185, 8226, 8199, 8189, 8189, 8175, 8186, 8194, 8201, 8245, 8217, 8192, 8180,2.6378965377807617,XXXXX
1, 8214, 8191, 8229, 8198, 8195, 8184, 8180, 8193, 8193, 8209, 8241, 8222, 8188, 8187,2.6443142890930176,XXXXX
2, 8216, 8196, 8228, 8195, 8182, 8184, 8181, 8196, 8195, 8208, 8230, 8227, 8201, 8194,2.6524338722229004,XXXXX
3, 8222, 8174, 8224, 8198, 8186, 8197, 8187, 8206, 8205, 8206, 8230, 8220, 8185, 8181,2.660292625427246,XXXXX
4, 8211, 8184, 8223, 8195, 8194, 8198, 8188, 8202, 8200, 8203, 8229, 8221, 8206, 8187,2.668351888656616,XXXXX
5, 8195, 8180, 8212, 8189, 8187, 8195, 8187, 8183, 8185, 8195, 8204, 8208, 8176, 8172,2.6762895584106445,XXXXX
6, 8190, 8167, 8200, 8194, 8175, 8188, 8180, 8163, 8171, 8176, 8184, 8191, 8172, 8156,2.6843044757843018,XXXXX
7, 8187, 8172, 8198, 8191, 8177, 8187, 8173, 8167, 8176, 8183, 8189, 8185, 8183, 8155,2.692291736602783,XXXXX
8, 8185, 8168, 8191, 8184, 8183, 8196, 8173, 8180, 8185, 8196, 8194, 8182, 8160, 8147,2.700340986251831,XXXXX
9, 8188, 8187, 8185, 8191, 8177, 8192, 8176, 8181, 8170, 8172, 8190, 8186, 8191, 8162,2.7066917419433594,XXXXX
10, 8186, 8182, 8182, 8193, 8176, 8190, 8183, 8182, 8171, 8156, 8183, 8177, 8172, 8154,2.7148656845092773,XXXXX
11, 8182, 8166, 8174, 8179, 8171, 8190, 8185, 8183, 8185, 8162, 8181, 8179, 8166, 8143,2.722933292388916,XXXXX
12, 8187, 8176, 8175, 8171, 8161, 8186, 8189, 8185, 8179, 8163, 8191, 8194, 8192, 8163,2.7322170734405518,XXXXX
13, 8197, 8173, 8188, 8181, 8167, 8183, 8197, 8191, 8178, 8165, 8204, 8193, 8168, 8166,2.738508939743042,XXXXX
14, 8209, 8188, 8202, 8190, 8178, 8178, 8195, 8192, 8188, 8173, 8216, 8201, 8198, 8184,2.7464499473571777,XXXXX
15, 8226, 8190, 8212, 8192, 8181, 8190, 8199, 8200, 8202, 8189, 8231, 8213, 8197, 8197,2.7551910877227783,XXXXX
16, 8221, 8179, 8212, 8194, 8178, 8197, 8205, 8205, 8199, 8195, 8233, 8216, 8181, 8188,2.7632791996002197,XXXXX
17, 8198, 8183, 8198, 8192, 8176, 8189, 8192, 8184, 8182, 8178, 8219, 8210, 8192, 8182,2.771178960800171,XXXXX
18, 8193, 8172, 8195, 8189, 8180, 8188, 8183, 8173, 8180, 8170, 8216, 8198, 8169, 8162,2.7774338722229004,XXXXX
19, 8201, 8185, 8204, 8196, 8178, 8189, 8187, 8189, 8189, 8179, 8219, 8206, 8191, 8174,2.786740303039551,XXXXX
20, 8193, 8182, 8198, 8192, 8175, 8188, 8181, 8192, 8189, 8190, 8205, 8203, 8177, 8179,2.7945327758789062,XXXXX
21, 8183, 8168, 8190, 8182, 8176, 8188, 8177, 8179, 8180, 8181, 8191, 8192, 8164, 8156,2.802324056625366,XXXXX
22, 8188, 8188, 8194, 8187, 8181, 8190, 8185, 8179, 8184, 8169, 8196, 8200, 8204, 8167,2.810196876525879,XXXXX
23, 8191, 8178, 8190, 8187, 8181, 8199, 8190, 8186, 8195, 8177, 8200, 8196, 8185, 8161,2.8179914951324463,XXXXX
24, 8181, 8169, 8177, 8171, 8169, 8189, 8182, 8175, 8174, 8167, 8186, 8186, 8191, 8149,2.825761556625366,XXXXX
25, 8168, 8171, 8166, 8161, 8168, 8178, 8177, 8161, 8151, 8149, 8167, 8174, 8179, 8143,2.8336217403411865,XXXXX
26, 8158, 8164, 8162, 8160, 8169, 8180, 8178, 8147, 8151, 8148, 8159, 8164, 8154, 8128,2.841482400894165,XXXXX
27, 8168, 8180, 8171, 8168, 8167, 8189, 8186, 8153, 8158, 8154, 8176, 8178, 8184, 8144,2.8492255210876465,XXXXX
28, 8194, 8179, 8185, 8179, 8180, 8199, 8194, 8178, 8177, 8170, 8200, 8193, 8170, 8156,2.8577075004577637,XXXXX
29, 8196, 8182, 8193, 8177, 8185, 8189, 8185, 8185, 8182, 8175, 8203, 8198, 8179, 8166,2.8656036853790283,XXXXX
30, 8173, 8182, 8180, 8163, 8173, 8178, 8173, 8174, 8170, 8171, 8182, 8179, 8178, 8156,2.8735833168029785,XXXXX
31, 8157, 8161, 8161, 8157, 8166, 8174, 8162, 8162, 8162, 8160, 8165, 8161, 8152, 8128,2.8816709518432617,XXXXX
32, 8159, 8164, 8168, 8165, 8166, 8167, 8156, 8158, 8159, 8150, 8175, 8178, 8185, 8141,2.8896288871765137,XXXXX
33, 8169, 8161, 8179, 8169, 8168, 8168, 8167, 8167, 8168, 8159, 8194, 8185, 8173, 8144,2.897315263748169,XXXXX
34, 8171, 8172, 8176, 8171, 8166, 8166, 8175, 8167, 8164, 8160, 8189, 8187, 8171, 8148,2.9036965370178223,XXXXX
35, 8163, 8180, 8170, 8174, 8172, 8164, 8168, 8155, 8156, 8154, 8169, 8187, 8171, 8155,2.9115540981292725,XXXXX
36, 8163, 8156, 8167, 8173, 8176, 8167, 8159, 8152, 8161, 8157, 8161, 8175, 8143, 8138,2.9211809635162354,XXXXX
37, 8162, 8163, 8166, 8168, 8163, 8162, 8158, 8157, 8162, 8153, 8162, 8174, 8169, 8141,2.927574872970581,XXXXX
38, 8158, 8166, 8165, 8165, 8158, 8161, 8161, 8162, 8168, 8149, 8163, 8173, 8153, 8139,2.935767889022827,XXXXX
39, 8174, 8167, 8172, 8172, 8167, 8170, 8171, 8170, 8172, 8154, 8172, 8179, 8162, 8145,2.943556547164917,XXXXX
40, 8188, 8175, 8185, 8180, 8175, 8181, 8175, 8176, 8175, 8161, 8190, 8189, 8183, 8168,2.9517273902893066,XXXXX
41, 8174, 8163, 8188, 8174, 8173, 8178, 8174, 8183, 8176, 8155, 8189, 8185, 8153, 8159,2.9593989849090576,XXXXX
42, 8160, 8170, 8169, 8161, 8160, 8172, 8169, 8179, 8166, 8144, 8168, 8176, 8177, 8152,2.9673361778259277,XXXXX
43, 8159, 8164, 8154, 8157, 8163, 8179, 8172, 8171, 8166, 8151, 8162, 8160, 8159, 8142,2.975281000137329,XXXXX
44, 8146, 8154, 8159, 8162, 8163, 8174, 8171, 8167, 8165, 8141, 8155, 8155, 8136, 8130,2.9832663536071777,XXXXX
45, 8134, 8158, 8155, 8158, 8152, 8172, 8161, 8156, 8153, 8124, 8139, 8151, 8148, 8132,2.9912140369415283,XXXXX
46, 8145, 8152, 8152, 8157, 8160, 8191, 8164, 8151, 8156, 8141, 8141, 8143, 8133, 8120,2.99924373626709,XXXXX
47, 8159, 8172, 8167, 8164, 8170, 8192, 8171, 8155, 8163, 8158, 8160, 8158, 8167, 8131,3.0072734355926514,XXXXX
48, 8153, 8167, 8169, 8162, 8163, 8180, 8169, 8150, 8167, 8149, 8159, 8161, 8156, 8136,3.015270471572876,XXXXX
49, 8141, 8150, 8163, 8154, 8158, 8180, 8168, 8142, 8159, 8137, 8138, 8148, 8141, 8127,3.0227291584014893,XXXXX
50, 8141, 8165, 8166, 8154, 8167, 8187, 8178, 8151, 8157, 8141, 8139, 8148, 8168, 8141,3.030513286590576,XXXXX
51, 8146, 8159, 8166, 8158, 8174, 8194, 8181, 8175, 8169, 8148, 8162, 8151, 8148, 8136,3.038357734680176,XXXXX
52, 8152, 8163, 8164, 8155, 8170, 8182, 8173, 8176, 8168, 8135, 8167, 8156, 8165, 8142,3.045950412750244,XXXXX
53, 8148, 8162, 8162, 8154, 8172, 8175, 8167, 8156, 8161, 8129, 8143, 8152, 8154, 8144,3.053659439086914,XXXXX
54, 8139, 8152, 8160, 8160, 8172, 8180, 8163, 8143, 8154, 8136, 8136, 8151, 8141, 8133,3.0614306926727295,XXXXX
55, 8146, 8171, 8167, 8161, 8166, 8178, 8161, 8148, 8150, 8139, 8159, 8160, 8172, 8151,3.070676565170288,XXXXX
56, 8163, 8165, 8168, 8159, 8164, 8184, 8171, 8166, 8167, 8151, 8168, 8158, 8150, 8150,3.078519821166992,XXXXX
57, 8163, 8165, 8167, 8164, 8161, 8184, 8170, 8172, 8180, 8154, 8160, 8165, 8168, 8155,3.0862390995025635,XXXXX
58, 8157, 8173, 8172, 8163, 8167, 8185, 8166, 8173, 8183, 8157, 8161, 8170, 8173, 8166,3.094048023223877,XXXXX
59, 8178, 8171, 8174, 8161, 8175, 8195, 8176, 8177, 8187, 8170, 8167, 8168, 8155, 8161,3.1004478931427,XXXXX
60, 8186, 8184, 8177, 8172, 8168, 8194, 8179, 8175, 8190, 8176, 8168, 8173, 8180, 8176,3.1084060668945312,XXXXX
61, 8172, 8172, 8177, 8176, 8164, 8190, 8179, 8180, 8199, 8186, 8177, 8171, 8157, 8165,3.1164445877075195,XXXXX
62, 8166, 8170, 8176, 8173, 8168, 8183, 8179, 8179, 8202, 8183, 8185, 8174, 8166, 8159,3.124523401260376,XXXXX
63, 8168, 8173, 8174, 8172, 8170, 8178, 8175, 8175, 8197, 8173, 8180, 8173, 8166, 8166,3.132401466369629,XXXXX
64, 8176, 8161, 8171, 8171, 8172, 8180, 8173, 8179, 8196, 8175, 8174, 8172, 8142, 8160,3.1404099464416504,XXXXX
65, 8188, 8178, 8176, 8164, 8174, 8183, 8181, 8181, 8193, 8177, 8183, 8186, 8175, 8178,3.149940252304077,XXXXX
66, 8195, 8170, 8179, 8161, 8177, 8192, 8199, 8185, 8201, 8184, 8192, 8180, 8160, 8180,3.1578922271728516,XXXXX
67, 8188, 8163, 8174, 8161, 8172, 8198, 8207, 8192, 8207, 8184, 8176, 8177, 8161, 8178,3.164212703704834,XXXXX
68, 8196, 8179, 8175, 8161, 8174, 8201, 8205, 8202, 8209, 8184, 8175, 8192, 8174, 8186,3.1723146438598633,XXXXX
69, 8214, 8178, 8188, 8168, 8188, 8205, 8208, 8205, 8216, 8192, 8190, 8198, 8155, 8180,3.1797218322753906,XXXXX
70, 8205, 8182, 8195, 8170, 8181, 8201, 8206, 8192, 8207, 8183, 8177, 8193, 8181, 8185,3.1878366470336914,XXXXX
71, 8190, 8168, 8181, 8162, 8174, 8200, 8201, 8184, 8198, 8171, 8154, 8177, 8155, 8168,3.1969261169433594,XXXXX
72, 8192, 8159, 8172, 8154, 8174, 8190, 8194, 8182, 8191, 8164, 8161, 8170, 8148, 8153,3.2050509452819824,XXXXX
73, 8184, 8158, 8163, 8147, 8165, 8182, 8185, 8174, 8183, 8156, 8159, 8161, 8164, 8159,3.211620569229126,XXXXX
74, 8162, 8143, 8152, 8136, 8160, 8187, 8175, 8168, 8179, 8153, 8136, 8137, 8135, 8145,3.2197482585906982,XXXXX
75, 8169, 8163, 8158, 8144, 8169, 8188, 8178, 8169, 8170, 8157, 8140, 8145, 8162, 8159,3.2275264263153076,XXXXX
76, 8192, 8165, 8171, 8159, 8179, 8191, 8195, 8175, 8183, 8173, 8160, 8156, 8157, 8169,3.2352797985076904,XXXXX
77, 8177, 8155, 8169, 8160, 8177, 8190, 8193, 8179, 8194, 8176, 8162, 8150, 8146, 8153,3.2433340549468994,XXXXX
78, 8157, 8167, 8155, 8159, 8180, 8189, 8184, 8181, 8186, 8172, 8156, 8147, 8162, 8154,3.2516086101531982,XXXXX
79, 8175, 8161, 8157, 8164, 8192, 8198, 8194, 8183, 8186, 8179, 8162, 8147, 8143, 8154,3.259329319000244,XXXXX
80, 8187, 8166, 8170, 8169, 8182, 8188, 8193, 8178, 8188, 8175, 8167, 8155, 8167, 8162,3.267094612121582,XXXXX
81, 8162, 8149, 8158, 8157, 8163, 8168, 8173, 8170, 8187, 8176, 8160, 8143, 8151, 8148,3.2747530937194824,XXXXX
82, 8154, 8133, 8140, 8142, 8160, 8164, 8169, 8171, 8186, 8181, 8158, 8136, 8141, 8134,3.2824575901031494,XXXXX
83, 8168, 8162, 8150, 8149, 8169, 8179, 8185, 8178, 8190, 8175, 8166, 8150, 8174, 8152,3.2920031547546387,XXXXX
84, 8164, 8158, 8151, 8155, 8173, 8191, 8192, 8172, 8193, 8165, 8162, 8134, 8140, 8142,3.298478126525879,XXXXX
85, 8152, 8147, 8137, 8151, 8162, 8182, 8180, 8160, 8182, 8157, 8150, 8117, 8150, 8136,3.3061816692352295,XXXXX
86, 8162, 8156, 8141, 8155, 8162, 8179, 8177, 8171, 8181, 8167, 8157, 8126, 8153, 8145,3.314990997314453,XXXXX
87, 8168, 8161, 8147, 8158, 8169, 8184, 8184, 8175, 8184, 8169, 8162, 8136, 8140, 8145,3.3214964866638184,XXXXX
88, 8150, 8160, 8131, 8143, 8159, 8179, 8177, 8156, 8167, 8146, 8134, 8123, 8162, 8143,3.330303430557251,XXXXX
89, 8129, 8133, 8110, 8127, 8146, 8172, 8163, 8149, 8157, 8134, 8106, 8095, 8134, 8114,3.3380792140960693,XXXXX
90, 8129, 8138, 8119, 8133, 8142, 8167, 8162, 8147, 8155, 8142, 8113, 8103, 8147, 8121,3.345902919769287,XXXXX
91, 8143, 8152, 8140, 8143, 8148, 8177, 8170, 8147, 8160, 8151, 8132, 8123, 8156, 8147,3.353945732116699,XXXXX
92, 8156, 8146, 8146, 8140, 8145, 8178, 8164, 8157, 8171, 8155, 8135, 8122, 8140, 8135,3.3617660999298096,XXXXX
93, 8159, 8157, 8147, 8137, 8140, 8160, 8150, 8154, 8167, 8158, 8130, 8119, 8160, 8137,3.369462728500366,XXXXX
94, 8149, 8145, 8142, 8137, 8145, 8161, 8148, 8145, 8154, 8151, 8124, 8106, 8129, 8131,3.377265691757202,XXXXX
95, 8135, 8143, 8139, 8136, 8140, 8157, 8151, 8140, 8144, 8128, 8120, 8106, 8139, 8128,3.385115385055542,XXXXX
96, 8138, 8158, 8139, 8143, 8140, 8149, 8159, 8147, 8156, 8132, 8124, 8113, 8153, 8134,3.3933305740356445,XXXXX
97, 8151, 8152, 8138, 8149, 8146, 8156, 8164, 8152, 8168, 8149, 8129, 8111, 8137, 8130,3.4014313220977783,XXXXX
98, 8147, 8156, 8141, 8147, 8144, 8158, 8154, 8150, 8158, 8140, 8122, 8114, 8163, 8142,3.4095587730407715,XXXXX
99, 8139, 8151, 8140, 8140, 8144, 8155, 8157, 8152, 8154, 8138, 8111, 8107, 8135, 8133,3.417471170425415,XXXXX
100, 8142, 8158, 8138, 8141, 8151, 8156, 8168, 8148, 8148, 8134, 8104, 8107, 8134, 8127,3.4255456924438477,XXXXX
101, 8140, 8166, 8137, 8150, 8156, 8162, 8166, 8141, 8148, 8129, 8112, 8108, 8154, 8139,3.431882619857788,XXXXX
102, 8142, 8154, 8138, 8161, 8160, 8171, 8170, 8157, 8167, 8145, 8125, 8104, 8134, 8132,3.439746856689453,XXXXX
103, 8156, 8172, 8144, 8163, 8153, 8164, 8173, 8173, 8172, 8155, 8128, 8115, 8162, 8150,3.4495580196380615,XXXXX
104, 8163, 8171, 8146, 8158, 8157, 8167, 8172, 8173, 8175, 8159, 8128, 8120, 8152, 8153,3.45684814453125,XXXXX
105, 8163, 8170, 8147, 8164, 8171, 8181, 8185, 8176, 8178, 8161, 8131, 8124, 8151, 8147,3.4645233154296875,XXXXX
106, 8163, 8172, 8144, 8161, 8168, 8177, 8188, 8170, 8171, 8155, 8129, 8123, 8167, 8150,3.472412586212158,XXXXX
107, 8159, 8148, 8136, 8151, 8157, 8164, 8168, 8152, 8160, 8149, 8119, 8108, 8141, 8132,3.4806673526763916,XXXXX
108, 8172, 8173, 8148, 8173, 8163, 8176, 8174, 8162, 8164, 8160, 8129, 8128, 8169, 8155,3.4887442588806152,XXXXX
109, 8195, 8195, 8167, 8195, 8185, 8202, 8203, 8191, 8184, 8176, 8140, 8153, 8165, 8172,3.4950783252716064,XXXXX
110, 8193, 8180, 8170, 8179, 8185, 8192, 8191, 8196, 8188, 8168, 8133, 8152, 8170, 8163,3.5030548572540283,XXXXX
111, 8186, 8186, 8172, 8170, 8176, 8183, 8183, 8202, 8187, 8176, 8140, 8151, 8210, 8171,3.511171340942383,XXXXX
112, 8191, 8182, 8175, 8184, 8177, 8192, 8202, 8204, 8193, 8195, 8158, 8150, 8192, 8159,3.519120216369629,XXXXX
113, 8191, 8190, 8172, 8186, 8174, 8179, 8184, 8179, 8186, 8172, 8156, 8148, 8211, 8161,3.5272209644317627,XXXXX
114, 8182, 8190, 8171, 8181, 8177, 8170, 8163, 8174, 8188, 8160, 8155, 8141, 8209, 8167,3.535137891769409,XXXXX
115, 8168, 8168, 8166, 8173, 8169, 8166, 8172, 8186, 8193, 8176, 8159, 8132, 8200, 8150,3.5431582927703857,XXXXX
116, 8153, 8165, 8149, 8157, 8150, 8157, 8169, 8178, 8179, 8179, 8144, 8125, 8231, 8144,3.5510802268981934,XXXXX
117, 8163, 8165, 8149, 8165, 8162, 8169, 8169, 8178, 8180, 8180, 8142, 8118, 8240, 8145,3.557687282562256,XXXXX
118, 8185, 8186, 8171, 8189, 8188, 8180, 8180, 8186, 8187, 8184, 8157, 8135, 8300, 8170,3.566711187362671,XXXXX
119, 8193, 8193, 8179, 8189, 8190, 8176, 8173, 8180, 8192, 8190, 8160, 8147, 8316, 8180,3.5748181343078613,XXXXX
120, 8197, 8188, 8183, 8193, 8176, 8169, 8172, 8180, 8206, 8199, 8170, 8156, 8310, 8170,3.5828030109405518,XXXXX
121, 8190, 8201, 8180, 8200, 8177, 8165, 8181, 8187, 8209, 8200, 8168, 8158, 8337, 8174,3.5908994674682617,XXXXX
122, 8178, 8178, 8159, 8179, 8185, 8175, 8178, 8185, 8197, 8183, 8138, 8129, 8286, 8150,3.5987939834594727,XXXXX
123, 8182, 8174, 8159, 8166, 8177, 8168, 8172, 8173, 8188, 8164, 8138, 8128, 8285, 8148,3.6065924167633057,XXXXX
124, 8193, 8185, 8174, 8182, 8171, 8147, 8173, 8176, 8197, 8174, 8170, 8143, 8305, 8171,3.614241361618042,XXXXX
125, 8193, 8170, 8176, 8184, 8169, 8147, 8173, 8181, 8195, 8178, 8176, 8137, 8287, 8169,3.6220951080322266,XXXXX
126, 8192, 8179, 8178, 8179, 8173, 8160, 8178, 8175, 8182, 8165, 8161, 8137, 8295, 8171,3.6283419132232666,XXXXX
127, 8191, 8176, 8177, 8187, 8189, 8171, 8191, 8184, 8194, 8178, 8159, 8136, 8272, 8158,3.6363749504089355,XXXXX
240, 8188, 8172, 8173, 8182, 8186, 8166, 8189, 8197, 8202, 8190, 8163, 8134, 8294, 8164,3.6443169116973877,XXXXX
0, 8184, 8169, 8171, 8167, 8173, 8162, 8174, 8190, 8196, 8178, 8166, 8136, 8297, 8172,3.653696060180664,XXXXX
1, 8180, 8161, 8169, 8169, 8175, 8170, 8171, 8176, 8190, 8173, 8166, 8134, 8262, 8153,3.661461591720581,XXXXX
2, 8181, 8174, 8164, 8171, 8171, 8176, 8178, 8171, 8180, 8171, 8162, 8136, 8298, 8160,3.6691977977752686,XXXXX
3, 8186, 8162, 8162, 8158, 8165, 8175, 8177, 8171, 8180, 8163, 8161, 8126, 8278, 8158,3.677138566970825,XXXXX
4, 8192, 8158, 8173, 8163, 8171, 8170, 8171, 8168, 8179, 8158, 8162, 8133, 8272, 8153,3.685148000717163,XXXXX
5, 8190, 8166, 8168, 8170, 8173, 8167, 8167, 8168, 8176, 8158, 8166, 8140, 8294, 8159,3.6913902759552,XXXXX
6, 8173, 8141, 8142, 8149, 8157, 8153, 8156, 8156, 8164, 8151, 8153, 8116, 8263, 8133,3.699397087097168,XXXXX
7, 8161, 8147, 8137, 8146, 8148, 8139, 8146, 8149, 8146, 8137, 8132, 8112, 8277, 8135,3.70879864692688,XXXXX
8, 8168, 8152, 8144, 8157, 8158, 8154, 8154, 8167, 8159, 8152, 8134, 8124, 8277, 8143,3.7165634632110596,XXXXX
9, 8169, 8142, 8140, 8146, 8158, 8161, 8157, 8169, 8173, 8159, 8141, 8126, 8278, 8139,3.7243549823760986,XXXXX
10, 8162, 8146, 8140, 8135, 8151, 8153, 8149, 8159, 8171, 8148, 8141, 8123, 8277, 8145,3.7325239181518555,XXXXX
11, 8167, 8148, 8144, 8147, 8152, 8161, 8154, 8173, 8183, 8159, 8146, 8121, 8257, 8137,3.740417718887329,XXXXX
12, 8182, 8163, 8151, 8161, 8153, 8165, 8154, 8183, 8192, 8165, 8147, 8131, 8301, 8145,3.748439073562622,XXXXX
13, 8187, 8151, 8152, 8149, 8151, 8161, 8144, 8167, 8180, 8158, 8135, 8124, 8275, 8145,3.75467586517334,XXXXX
14, 8173, 8137, 8138, 8134, 8144, 8156, 8139, 8151, 8162, 8148, 8127, 8114, 8247, 8135,3.7624919414520264,XXXXX
15, 8162, 8154, 8127, 8142, 8146, 8153, 8145, 8156, 8158, 8149, 8126, 8115, 8287, 8146,3.7719547748565674,XXXXX
16, 8176, 8155, 8140, 8159, 8165, 8157, 8154, 8171, 8174, 8162, 8133, 8121, 8277, 8148,3.7786645889282227,XXXXX
17, 8196, 8173, 8165, 8173, 8166, 8154, 8158, 8177, 8188, 8167, 8157, 8145, 8288, 8166,3.7877016067504883,XXXXX
18, 8194, 8175, 8163, 8173, 8160, 8159, 8163, 8180, 8190, 8172, 8169, 8148, 8284, 8164,3.7957234382629395,XXXXX
19, 8171, 8152, 8139, 8160, 8159, 8154, 8159, 8168, 8170, 8167, 8146, 8119, 8279, 8132,3.8038523197174072,XXXXX
20, 8152, 8156, 8127, 8148, 8152, 8139, 8146, 8147, 8154, 8145, 8126, 8106, 8290, 8131,3.8119611740112305,XXXXX
21, 8161, 8156, 8139, 8158, 8161, 8150, 8150, 8163, 8173, 8154, 8135, 8118, 8256, 8138,3.8183188438415527,XXXXX
22, 8176, 8162, 8155, 8170, 8167, 8158, 8155, 8178, 8179, 8167, 8140, 8138, 8285, 8159,3.826200485229492,XXXXX
23, 8167, 8153, 8146, 8155, 8156, 8148, 8146, 8159, 8162, 8150, 8125, 8126, 8281, 8154,3.8339133262634277,XXXXX
24, 8162, 8145, 8141, 8143, 8152, 8146, 8145, 8158, 8160, 8139, 8123, 8118, 8246, 8134,3.8418989181518555,XXXXX
25, 8165, 8160, 8147, 8145, 8158, 8154, 8155, 8167, 8168, 8157, 8130, 8127, 8275, 8153,3.849782943725586,XXXXX
26, 8161, 8146, 8145, 8152, 8157, 8156, 8161, 8158, 8173, 8163, 8127, 8122, 8263, 8148,3.8580594062805176,XXXXX
27, 8172, 8152, 8148, 8152, 8155, 8150, 8166, 8164, 8176, 8159, 8140, 8136, 8272, 8151,3.8654606342315674,XXXXX
28, 8186, 8166, 8157, 8150, 8170, 8153, 8163, 8183, 8187, 8180, 8164, 8150, 8268, 8165,3.8747105598449707,XXXXX
29, 8174, 8158, 8163, 8174, 8180, 8153, 8155, 8177, 8186, 8182, 8159, 8144, 8250, 8155,3.8827528953552246,XXXXX
30, 8162, 8174, 8164, 8199, 8173, 8148, 8149, 8166, 8174, 8158, 8139, 8146, 8287, 8161,3.889200210571289,XXXXX
31, 8160, 8168, 8151, 8182, 8163, 8148, 8144, 8170, 8172, 8156, 8137, 8135, 8254, 8143,3.897071123123169,XXXXX
32, 8152, 8162, 8141, 8166, 8160, 8143, 8136, 8166, 8166, 8153, 8134, 8120, 8239, 8129,3.9049792289733887,XXXXX
33, 8147, 8167, 8141, 8176, 8166, 8147, 8144, 8161, 8166, 8144, 8129, 8118, 8260, 8142,3.912912130355835,XXXXX
34, 8153, 8154, 8136, 8172, 8166, 8150, 8152, 8156, 8165, 8151, 8134, 8119, 8252, 8137,3.9209001064300537,XXXXX
35, 8158, 8171, 8136, 8168, 8157, 8147, 8153, 8150, 8147, 8144, 8136, 8124, 8259, 8141,3.9287056922912598,XXXXX
36, 8164, 8175, 8147, 8183, 8166, 8167, 8169, 8156, 8154, 8139, 8133, 8122, 8233, 8136,3.936580181121826,XXXXX
37, 8153, 8163, 8139, 8175, 8171, 8176, 8167, 8154, 8163, 8144, 8126, 8113, 8251, 8126,3.9444820880889893,XXXXX
38, 8128, 8158, 8116, 8152, 8158, 8155, 8143, 8140, 8144, 8136, 8124, 8101, 8270, 8125,3.952467441558838,XXXXX
39, 8133, 8153, 8124, 8160, 8153, 8144, 8135, 8135, 8138, 8134, 8136, 8100, 8226, 8120,3.960254430770874,XXXXX
40, 8149, 8170, 8144, 8175, 8154, 8146, 8135, 8132, 8140, 8131, 8125, 8111, 8239, 8135,3.96793794631958,XXXXX
41, 8142, 8156, 8123, 8161, 8159, 8159, 8136, 8138, 8144, 8126, 8095, 8093, 8231, 8125,3.975991725921631,XXXXX
42, 8132, 8148, 8102, 8155, 8160, 8168, 8141, 8146, 8144, 8122, 8108, 8081, 8231, 8115,3.984337568283081,XXXXX
43, 8139, 8168, 8118, 8163, 8163, 8173, 8160, 8153, 8146, 8124, 8134, 8104, 8240, 8133,3.992259979248047,XXXXX
44, 8141, 8156, 8125, 8158, 8173, 8180, 8183, 8162, 8156, 8129, 8111, 8111, 8206, 8132,4.00031042098999,XXXXX
45, 8133, 8153, 8112, 8148, 8168, 8170, 8175, 8155, 8151, 8123, 8091, 8104, 8239, 8131,4.008223295211792,XXXXX
46, 8132, 8148, 8109, 8146, 8162, 8158, 8149, 8144, 8146, 8123, 8106, 8091, 8237, 8126,4.016332387924194,XXXXX
47, 8138, 8146, 8117, 8153, 8162, 8160, 8147, 8149, 8150, 8129, 8120, 8095, 8212, 8129,4.022696495056152,XXXXX
48, 8142, 8165, 8127, 8168, 8166, 8161, 8153, 8158, 8158, 8135, 8129, 8111, 8222, 8154,4.030754566192627,XXXXX
49, 8134, 8146, 8120, 8163, 8164, 8148, 8142, 8152, 8156, 8133, 8129, 8093, 8205, 8129,4.038529872894287,XXXXX
50, 8120, 8138, 8105, 8138, 8152, 8135, 8139, 8142, 8144, 8119, 8121, 8083, 8241, 8119,4.046534299850464,XXXXX
51, 8129, 8147, 8112, 8137, 8156, 8151, 8161, 8157, 8162, 8132, 8132, 8098, 8237, 8146,4.054497003555298,XXXXX
52, 8141, 8148, 8127, 8158, 8165, 8161, 8168, 8167, 8170, 8141, 8139, 8104, 8203, 8148,4.0634801387786865,XXXXX
53, 8131, 8159, 8123, 8167, 8161, 8152, 8153, 8145, 8140, 8124, 8129, 8100, 8219, 8144,4.071298122406006,XXXXX
54, 8147, 8157, 8126, 8163, 8168, 8165, 8166, 8153, 8138, 8132, 8141, 8114, 8216, 8146,4.079387903213501,XXXXX
55, 8184, 8171, 8156, 8168, 8175, 8171, 8181, 8176, 8160, 8149, 8155, 8146, 8253, 8170,4.0856592655181885,XXXXX
56, 8173, 8168, 8157, 8182, 8161, 8149, 8154, 8151, 8149, 8139, 8146, 8128, 8232, 8159,4.09375,XXXXX
57, 8141, 8146, 8135, 8191, 8140, 8128, 8123, 8112, 8120, 8120, 8133, 8096, 8182, 8123,4.101637363433838,XXXXX
58, 8150, 8162, 8137, 8192, 8142, 8124, 8127, 8116, 8124, 8114, 8128, 8105, 8216, 8134,4.109606742858887,XXXXX
59, 8169, 8166, 8153, 8188, 8158, 8137, 8139, 8146, 8159, 8128, 8134, 8112, 8223, 8138,4.117722034454346,XXXXX
60, 8167, 8176, 8169, 8200, 8164, 8151, 8150, 8167, 8183, 8148, 8155, 8126, 8241, 8157,4.125735521316528,XXXXX
61, 8169, 8181, 8170, 8207, 8172, 8162, 8166, 8174, 8187, 8161, 8167, 8132, 8222, 8173,4.133861541748047,XXXXX
62, 8166, 8166, 8153, 8200, 8173, 8162, 8162, 8159, 8172, 8150, 8154, 8114, 8187, 8143,4.141799449920654,XXXXX
63, 8158, 8179, 8146, 8204, 8172, 8156, 8154, 8146, 8159, 8132, 8149, 8110, 8233, 8139,4.149518013000488,XXXXX
64, 8161, 8173, 8150, 8207, 8180, 8170, 8170, 8161, 8172, 8149, 8159, 8112, 8228, 8143,4.157244920730591,XXXXX
65, 8165, 8170, 8148, 8195, 8175, 8175, 8177, 8167, 8175, 8156, 8153, 8114, 8217, 8149,4.165025949478149,XXXXX
66, 8159, 8172, 8141, 8182, 8170, 8163, 8164, 8151, 8168, 8133, 8142, 8106, 8207, 8149,4.172792196273804,XXXXX
67, 8157, 8161, 8149, 8190, 8177, 8162, 8164, 8155, 8180, 8138, 8149, 8102, 8195, 8138,4.180471897125244,XXXXX
68, 8164, 8175, 8159, 8198, 8179, 8180, 8174, 8178, 8193, 8165, 8166, 8122, 8245, 8162,4.189948081970215,XXXXX
69, 8164, 8164, 8148, 8188, 8173, 8186, 8175, 8185, 8194, 8168, 8160, 8124, 8231, 8160,4.196326494216919,XXXXX
70, 8162, 8154, 8149, 8188, 8170, 8168, 8179, 8184, 8187, 8152, 8145, 8120, 8210, 8153,4.204345941543579,XXXXX
71, 8174, 8174, 8164, 8191, 8176, 8164, 8182, 8193, 8187, 8155, 8142, 8127, 8207, 8169,4.213530540466309,XXXXX
72, 8186, 8175, 8165, 8191, 8180, 8168, 8182, 8195, 8191, 8166, 8142, 8129, 8193, 8161,4.219813823699951,XXXXX
73, 8195, 8187, 8177, 8206, 8177, 8172, 8180, 8183, 8190, 8166, 8152, 8147, 8246, 8175,4.22748327255249,XXXXX
74, 8200, 8186, 8189, 8220, 8185, 8188, 8180, 8179, 8191, 8169, 8164, 8154, 8237, 8183,4.235558271408081,XXXXX
75, 8183, 8172, 8170, 8202, 8185, 8179, 8168, 8161, 8172, 8149, 8154, 8141, 8206, 8165,4.245022773742676,XXXXX
76, 8158, 8166, 8144, 8187, 8171, 8156, 8157, 8139, 8154, 8131, 8137, 8125, 8208, 8157,4.251379013061523,XXXXX
77, 8155, 8154, 8144, 8181, 8171, 8153, 8162, 8144, 8162, 8140, 8130, 8116, 8182, 8140,4.2606565952301025,XXXXX
78, 8160, 8158, 8148, 8167, 8164, 8145, 8152, 8147, 8156, 8134, 8129, 8124, 8216, 8142,4.268672943115234,XXXXX
79, 8156, 8147, 8139, 8162, 8151, 8136, 8135, 8139, 8149, 8128, 8129, 8121, 8218, 8139,4.2766032218933105,XXXXX
80, 8157, 8146, 8137, 8164, 8152, 8141, 8141, 8140, 8152, 8132, 8119, 8112, 8189, 8132,4.284748792648315,XXXXX
81, 8163, 8174, 8146, 8169, 8160, 8149, 8155, 8153, 8160, 8140, 8114, 8121, 8191, 8151,4.291149616241455,XXXXX
82, 8170, 8171, 8158, 8183, 8167, 8162, 8157, 8164, 8176, 8159, 8133, 8133, 8182, 8154,4.299004554748535,XXXXX
83, 8169, 8174, 8164, 8182, 8164, 8159, 8150, 8155, 8172, 8162, 8151, 8146, 8229, 8158,4.306879758834839,XXXXX
84, 8159, 8165, 8154, 8158, 8160, 8157, 8150, 8149, 8169, 8161, 8157, 8141, 8226, 8157,4.314988374710083,XXXXX
85, 8153, 8147, 8146, 8154, 8155, 8162, 8152, 8157, 8179, 8165, 8156, 8133, 8192, 8143,4.322922945022583,XXXXX
86, 8153, 8161, 8149, 8166, 8152, 8159, 8151, 8164, 8186, 8166, 8149, 8138, 8197, 8146,4.330775737762451,XXXXX
87, 8152, 8155, 8144, 8156, 8157, 8169, 8159, 8171, 8193, 8174, 8148, 8133, 8171, 8138,4.338683843612671,XXXXX
88, 8151, 8154, 8141, 8148, 8155, 8174, 8171, 8173, 8188, 8169, 8162, 8139, 8211, 8147,4.346707344055176,XXXXX
89, 8153, 8159, 8149, 8153, 8154, 8168, 8173, 8170, 8182, 8160, 8167, 8145, 8227, 8152,4.354640007019043,XXXXX
90, 8150, 8146, 8147, 8149, 8153, 8165, 8162, 8168, 8177, 8160, 8157, 8133, 8198, 8132,4.362670660018921,XXXXX
91, 8137, 8148, 8134, 8141, 8143, 8156, 8144, 8157, 8163, 8150, 8143, 8125, 8203, 8131,4.370599269866943,XXXXX
92, 8130, 8144, 8132, 8154, 8144, 8156, 8138, 8149, 8160, 8140, 8136, 8122, 8165, 8121,4.378668546676636,XXXXX
93, 8147, 8162, 8148, 8172, 8153, 8162, 8145, 8151, 8163, 8146, 8151, 8135, 8193, 8134,4.386409044265747,XXXXX
94, 8163, 8169, 8152, 8163, 8156, 8169, 8153, 8150, 8160, 8152, 8153, 8138, 8226, 8149,4.392601728439331,XXXXX
95, 8158, 8154, 8149, 8153, 8158, 8167, 8165, 8145, 8159, 8149, 8140, 8128, 8204, 8134,4.4020984172821045,XXXXX
96, 8161, 8178, 8159, 8167, 8166, 8169, 8176, 8151, 8170, 8155, 8154, 8140, 8227, 8153,4.41004753112793,XXXXX
97, 8169, 8175, 8157, 8168, 8172, 8178, 8176, 8160, 8177, 8167, 8161, 8145, 8189, 8150,4.417997360229492,XXXXX
98, 8151, 8162, 8140, 8158, 8164, 8164, 8162, 8153, 8167, 8152, 8138, 8135, 8170, 8136,4.424451112747192,XXXXX
99, 8131, 8163, 8136, 8157, 8155, 8153, 8160, 8150, 8166, 8140, 8128, 8122, 8198, 8145,4.433913230895996,XXXXX
100, 8135, 8148, 8132, 8148, 8150, 8162, 8160, 8157, 8172, 8145, 8129, 8111, 8198, 8132,4.44164776802063,XXXXX
101, 8145, 8163, 8124, 8144, 8149, 8160, 8145, 8153, 8163, 8143, 8125, 8122, 8220, 8138,4.449316024780273,XXXXX
102, 8160, 8171, 8138, 8161, 8162, 8160, 8144, 8151, 8173, 8155, 8140, 8135, 8202, 8156,4.457111358642578,XXXXX
103, 8171, 8172, 8164, 8176, 8172, 8167, 8155, 8153, 8185, 8169, 8156, 8148, 8193, 8168,4.463339805603027,XXXXX
104, 8167, 8179, 8165, 8176, 8170, 8171, 8159, 8156, 8177, 8176, 8152, 8157, 8175, 8167,4.474481821060181,XXXXX
105, 8170, 8169, 8166, 8177, 8167, 8171, 8167, 8171, 8186, 8188, 8170, 8164, 8132, 8159,4.480244398117065,XXXXX
106, 8190, 8182, 8186, 8190, 8170, 8170, 8176, 8186, 8204, 8190, 8196, 8181, 8168, 8183,4.488123655319214,XXXXX
107, 8189, 8177, 8182, 8189, 8179, 8179, 8176, 8182, 8198, 8190, 8182, 8169, 8150, 8176,4.495877504348755,XXXXX
108, 8172, 8162, 8169, 8169, 8173, 8176, 8170, 8170, 8186, 8188, 8164, 8156, 8128, 8158,4.503795385360718,XXXXX
109, 8165, 8174, 8175, 8160, 8163, 8161, 8171, 8173, 8192, 8183, 8170, 8167, 8147, 8170,4.511777639389038,XXXXX
110, 8170, 8168, 8177, 8172, 8171, 8161, 8171, 8173, 8192, 8181, 8168, 8162, 8119, 8156,4.519613265991211,XXXXX
111, 8168, 8173, 8171, 8174, 8167, 8159, 8160, 8143, 8166, 8166, 8154, 8152, 8132, 8151,4.5273401737213135,XXXXX
112, 8154, 8162, 8156, 8160, 8155, 8151, 8148, 8124, 8153, 8152, 8140, 8141, 8119, 8143,4.535197019577026,XXXXX
113, 8140, 8145, 8144, 8154, 8154, 8143, 8145, 8131, 8153, 8151, 8133, 8140, 8105, 8123,4.543045282363892,XXXXX
114, 8140, 8159, 8145, 8151, 8154, 8142, 8148, 8142, 8156, 8158, 8145, 8141, 8136, 8130,4.55090594291687,XXXXX
115, 8153, 8157, 8151, 8152, 8164, 8155, 8157, 8156, 8176, 8176, 8161, 8138, 8123, 8129,4.558703660964966,XXXXX
116, 8159, 8168, 8151, 8162, 8170, 8155, 8157, 8158, 8181, 8184, 8157, 8151, 8143, 8142,4.5665459632873535,XXXXX
117, 8152, 8173, 8147, 8163, 8159, 8147, 8156, 8154, 8175, 8180, 8159, 8150, 8135, 8147,4.574448347091675,XXXXX
118, 8156, 8166, 8157, 8163, 8158, 8156, 8169, 8161, 8182, 8176, 8173, 8145, 8120, 8145,4.582430362701416,XXXXX
119, 8167, 8183, 8164, 8175, 8172, 8173, 8181, 8168, 8189, 8181, 8175, 8161, 8150, 8171,4.591881275177002,XXXXX
120, 8170, 8172, 8156, 8175, 8174, 8178, 8178, 8162, 8186, 8191, 8176, 8163, 8123, 8166,4.598477602005005,XXXXX
121, 8164, 8168, 8157, 8166, 8163, 8163, 8167, 8151, 8178, 8187, 8183, 8164, 8133, 8162,4.607539415359497,XXXXX
122, 8163, 8172, 8162, 8168, 8169, 8161, 8166, 8149, 8184, 8184, 8179, 8167, 8136, 8165,4.613853216171265,XXXXX
123, 8162, 8157, 8153, 8167, 8161, 8167, 8165, 8150, 8179, 8179, 8167, 8158, 8112, 8143,4.621671199798584,XXXXX
124, 8147, 8156, 8141, 8155, 8139, 8157, 8150, 8143, 8155, 8157, 8162, 8147, 8130, 8137,4.629558086395264,XXXXX
125, 8131, 8146, 8134, 8149, 8143, 8153, 8141, 8135, 8154, 8152, 8159, 8130, 8103, 8125,4.637459754943848,XXXXX
126, 8131, 8155, 8135, 8155, 8144, 8152, 8139, 8131, 8153, 8152, 8156, 8132, 8116, 8126,4.645455837249756,XXXXX
127, 8139, 8165, 8140, 8157, 8144, 8158, 8143, 8133, 8145, 8148, 8158, 8144, 8125, 8138,4.6548752784729,XXXXX
240, 8142, 8151, 8132, 8148, 8156, 8165, 8151, 8134, 8153, 8148, 8154, 8149, 8103, 8134,4.66144323348999,XXXXX
0, 8138, 8163, 8129, 8146, 8158, 8160, 8151, 8132, 8157, 8151, 8153, 8154, 8136, 8144,4.6708455085754395,XXXXX
1, 8135, 8155, 8136, 8146, 8157, 8159, 8152, 8133, 8157, 8166, 8161, 8142, 8121, 8137,4.6773011684417725,XXXXX
2, 8130, 8144, 8131, 8141, 8150, 8148, 8150, 8127, 8148, 8157, 8153, 8137, 8120, 8129,4.685251474380493,XXXXX
3, 8128, 8149, 8128, 8142, 8145, 8139, 8139, 8124, 8144, 8141, 8141, 8142, 8134, 8139,4.6931657791137695,XXXXX
4, 8144, 8154, 8147, 8161, 8155, 8146, 8139, 8140, 8157, 8158, 8151, 8145, 8123, 8138,4.7011120319366455,XXXXX
5, 8151, 8176, 8162, 8170, 8161, 8148, 8144, 8142, 8150, 8164, 8164, 8156, 8154, 8152,4.709001541137695,XXXXX
6, 8137, 8158, 8145, 8153, 8155, 8145, 8139, 8125, 8137, 8142, 8157, 8148, 8122, 8138,4.717109680175781,XXXXX
7, 8145, 8152, 8145, 8155, 8150, 8140, 8138, 8121, 8142, 8139, 8155, 8149, 8118, 8132,4.724823236465454,XXXXX
8, 8169, 8186, 8172, 8178, 8167, 8148, 8156, 8139, 8156, 8167, 8170, 8172, 8156, 8162,4.7325053215026855,XXXXX
9, 8166, 8172, 8173, 8180, 8179, 8164, 8160, 8148, 8160, 8175, 8173, 8171, 8133, 8153,4.740255832672119,XXXXX
10, 8154, 8157, 8157, 8162, 8165, 8166, 8157, 8139, 8154, 8159, 8165, 8160, 8145, 8148,4.747952938079834,XXXXX
11, 8159, 8147, 8154, 8155, 8161, 8161, 8164, 8138, 8155, 8159, 8163, 8153, 8135, 8149,4.755823850631714,XXXXX
12, 8160, 8150, 8164, 8160, 8163, 8155, 8160, 8139, 8151, 8158, 8162, 8156, 8131, 8147,4.763534307479858,XXXXX
13, 8157, 8166, 8162, 8158, 8158, 8161, 8156, 8140, 8151, 8154, 8160, 8164, 8150, 8160,4.772860050201416,XXXXX
14, 8164, 8157, 8159, 8160, 8163, 8177, 8169, 8148, 8161, 8165, 8160, 8165, 8121, 8155,4.780564069747925,XXXXX
15, 8169, 8165, 8164, 8169, 8169, 8172, 8176, 8146, 8152, 8158, 8149, 8172, 8139, 8165,4.7883384227752686,XXXXX
16, 8167, 8169, 8156, 8165, 8165, 8163, 8167, 8140, 8143, 8148, 8141, 8163, 8131, 8164,4.796259164810181,XXXXX
17, 8167, 8159, 8152, 8161, 8164, 8164, 8161, 8146, 8146, 8154, 8152, 8157, 8124, 8154,4.804240465164185,XXXXX
18, 8162, 8162, 8154, 8159, 8163, 8163, 8163, 8152, 8145, 8158, 8161, 8159, 8146, 8164,4.810556888580322,XXXXX
19, 8159, 8151, 8149, 8155, 8164, 8163, 8171, 8150, 8150, 8157, 8154, 8154, 8115, 8156,4.818565607070923,XXXXX
20, 8166, 8164, 8156, 8163, 8162, 8157, 8176, 8147, 8156, 8166, 8157, 8172, 8142, 8167,4.8264384269714355,XXXXX
21, 8171, 8170, 8169, 8167, 8156, 8152, 8173, 8156, 8163, 8185, 8174, 8181, 8150, 8175,4.834485054016113,XXXXX
22, 8170, 8159, 8171, 8161, 8157, 8150, 8165, 8166, 8175, 8192, 8180, 8174, 8131, 8165,4.842341184616089,XXXXX
23, 8165, 8169, 8167, 8160, 8161, 8144, 8159, 8170, 8184, 8187, 8172, 8176, 8155, 8172,4.850475311279297,XXXXX
24, 8163, 8159, 8164, 8161, 8158, 8142, 8166, 8169, 8181, 8185, 8162, 8167, 8135, 8162,4.859629392623901,XXXXX
25, 8165, 8161, 8164, 8158, 8156, 8142, 8166, 8159, 8166, 8172, 8164, 8166, 8149, 8166,4.866329669952393,XXXXX
26, 8170, 8172, 8171, 8166, 8167, 8148, 8160, 8159, 8172, 8174, 8180, 8176, 8153, 8180,4.874220371246338,XXXXX
27, 8180, 8169, 8182, 8182, 8168, 8156, 8173, 8172, 8186, 8192, 8196, 8185, 8145, 8175,4.882278919219971,XXXXX
28, 8193, 8187, 8193, 8190, 8168, 8158, 8186, 8183, 8190, 8200, 8199, 8201, 8183, 8196,4.890276193618774,XXXXX
29, 8204, 8180, 8198, 8191, 8181, 8165, 8183, 8184, 8197, 8206, 8193, 8201, 8156, 8196,4.898222208023071,XXXXX
30, 8207, 8177, 8202, 8191, 8176, 8164, 8182, 8183, 8192, 8198, 8188, 8200, 8157, 8186,4.906140327453613,XXXXX
31, 8213, 8189, 8207, 8191, 8176, 8164, 8194, 8193, 8188, 8193, 8186, 8208, 8166, 8192,4.914153099060059,XXXXX
32, 8223, 8180, 8210, 8182, 8186, 8169, 8200, 8201, 8198, 8204, 8189, 8209, 8140, 8185,4.922163009643555,XXXXX
33, 8214, 8188, 8200, 8179, 8174, 8157, 8182, 8186, 8185, 8197, 8184, 8203, 8162, 8186,4.9302637577056885,XXXXX
34, 8194, 8173, 8184, 8174, 8160, 8147, 8168, 8171, 8169, 8182, 8167, 8189, 8143, 8170,4.9367616176605225,XXXXX
35, 8191, 8165, 8189, 8170, 8161, 8146, 8178, 8168, 8171, 8180, 8161, 8192, 8145, 8165,4.945575475692749,XXXXX
36, 8203, 8178, 8198, 8178, 8168, 8149, 8185, 8170, 8185, 8191, 8180, 8202, 8163, 8183,4.953260183334351,XXXXX
37, 8197, 8163, 8185, 8180, 8160, 8141, 8169, 8174, 8180, 8195, 8187, 8190, 8144, 8165,4.960926055908203,XXXXX
38, 8184, 8169, 8174, 8177, 8147, 8125, 8151, 8170, 8167, 8181, 8173, 8183, 8165, 8160,4.968545198440552,XXXXX
39, 8188, 8174, 8178, 8179, 8161, 8138, 8162, 8169, 8184, 8185, 8174, 8181, 8144, 8165,4.976439476013184,XXXXX
40, 8196, 8173, 8186, 8185, 8177, 8156, 8179, 8175, 8197, 8202, 8187, 8193, 8145, 8166,4.985952615737915,XXXXX
41, 8200, 8181, 8186, 8185, 8178, 8161, 8188, 8184, 8194, 8210, 8188, 8202, 8173, 8174,4.992393255233765,XXXXX
42, 8202, 8175, 8184, 8179, 8177, 8164, 8196, 8190, 8198, 8214, 8188, 8194, 8148, 8166,5.000251531600952,XXXXX
43, 8198, 8184, 8185, 8181, 8175, 8154, 8186, 8181, 8197, 8205, 8193, 8197, 8164, 8173,5.007984399795532,XXXXX
44, 8192, 8177, 8185, 8182, 8174, 8154, 8171, 8173, 8192, 8200, 8197, 8194, 8147, 8164,5.015628337860107,XXXXX
45, 8190, 8166, 8187, 8178, 8171, 8159, 8170, 8172, 8188, 8196, 8203, 8193, 8144, 8161,5.023392677307129,XXXXX
46, 8191, 8172, 8186, 8171, 8164, 8150, 8169, 8171, 8192, 8196, 8204, 8200, 8179, 8177,5.032696723937988,XXXXX
47, 8194, 8162, 8186, 8181, 8169, 8147, 8174, 8180, 8204, 8213, 8207, 8203, 8150, 8165,5.04052996635437,XXXXX
48, 8195, 8176, 8200, 8194, 8177, 8149, 8176, 8180, 8197, 8215, 8214, 8210, 8163, 8172,5.048230409622192,XXXXX
49, 8196, 8184, 8210, 8189, 8181, 8151, 8169, 8166, 8187, 8203, 8211, 8209, 8159, 8179,5.056278705596924,XXXXX
50, 8210, 8176, 8211, 8193, 8179, 8153, 8173, 8164, 8189, 8203, 8213, 8217, 8149, 8176,5.064059495925903,XXXXX
51, 8223, 8189, 8219, 8200, 8178, 8155, 8181, 8180, 8192, 8210, 8227, 8234, 8172, 8195,5.070419788360596,XXXXX
52, 8211, 8179, 8215, 8198, 8182, 8161, 8184, 8187, 8195, 8211, 8230, 8225, 8142, 8177,5.0799455642700195,XXXXX
53, 8195, 8169, 8201, 8194, 8173, 8160, 8178, 8170, 8185, 8195, 8211, 8210, 8158, 8163,5.086416482925415,XXXXX
54, 8195, 8170, 8200, 8191, 8169, 8163, 8178, 8169, 8185, 8194, 8209, 8205, 8165, 8168,5.0959038734436035,XXXXX
55, 8199, 8169, 8200, 8188, 8178, 8162, 8182, 8184, 8196, 8201, 8217, 8204, 8146, 8157,5.103901386260986,XXXXX
56, 8181, 8167, 8181, 8173, 8168, 8152, 8171, 8172, 8186, 8191, 8194, 8192, 8160, 8148,5.111877679824829,XXXXX
57, 8162, 8137, 8163, 8158, 8152, 8153, 8165, 8152, 8177, 8188, 8170, 8168, 8138, 8129,5.119930028915405,XXXXX
58, 8166, 8149, 8169, 8161, 8157, 8160, 8176, 8156, 8179, 8185, 8176, 8177, 8159, 8139,5.127896547317505,XXXXX
59, 8173, 8164, 8168, 8164, 8171, 8164, 8177, 8161, 8183, 8179, 8176, 8181, 8152, 8150,5.134256362915039,XXXXX
60, 8173, 8144, 8160, 8152, 8167, 8160, 8166, 8147, 8182, 8178, 8160, 8167, 8122, 8132,5.1419572830200195,XXXXX
61, 8184, 8169, 8176, 8165, 8169, 8158, 8167, 8152, 8181, 8185, 8171, 8182, 8160, 8148,5.149730205535889,XXXXX
62, 8200, 8177, 8189, 8183, 8189, 8172, 8177, 8178, 8190, 8193, 8186, 8188, 8143, 8158,5.157530784606934,XXXXX
63, 8190, 8164, 8181, 8176, 8186, 8173, 8170, 8175, 8186, 8183, 8176, 8181, 8142, 8156,5.165713310241699,XXXXX
64, 8172, 8171, 8179, 8176, 8174, 8165, 8168, 8167, 8185, 8184, 8168, 8178, 8153, 8154,5.173407793045044,XXXXX
65, 8164, 8170, 8179, 8183, 8177, 8171, 8176, 8176, 8195, 8192, 8163, 8164, 8134, 8138,5.181429386138916,XXXXX
66, 8161, 8171, 8172, 8180, 8171, 8175, 8173, 8168, 8187, 8169, 8155, 8151, 8157, 8140,0.006044149398803711,XXXXX
67, 8164, 8160, 8166, 8172, 8164, 8171, 8168, 8152, 8183, 8156, 8152, 8150, 8131, 8138,0.013961553573608398,SQUEEZE
68, 8167, 8163, 8168, 8175, 8169, 8160, 8163, 8152, 8186, 8168, 8159, 8163, 8132, 8141,0.021930694580078125,SQUEEZE
69, 8163, 8174, 8171, 8182, 8180, 8162, 8160, 8159, 8185, 8174, 8162, 8165, 8150, 8147,0.02984166145324707,SQUEEZE
70, 8159, 8163, 8169, 8184, 8186, 8173, 8159, 8158, 8184, 8168, 8155, 8151, 8118, 8129,0.037757158279418945,SQUEEZE
71, 8161, 8174, 8171, 8184, 8180, 8165, 8150, 8147, 8182, 8175, 8158, 8159, 8141, 8144,0.0455014705657959,SQUEEZE
72, 8163, 8169, 8170, 8182, 8178, 8153, 8142, 8147, 8185, 8188, 8168, 8165, 8137, 8150,0.05321240425109863,SQUEEZE
73, 8156, 8163, 8169, 8184, 8174, 8152, 8146, 8157, 8183, 8175, 8166, 8160, 8138, 8138,0.061185359954833984,SQUEEZE
74, 8159, 8177, 8172, 8185, 8177, 8166, 8160, 8166, 8192, 8174, 8160, 8167, 8160, 8150,0.06904840469360352,SQUEEZE
75, 8174, 8175, 8183, 8190, 8193, 8181, 8170, 8174, 8210, 8201, 8174, 8176, 8141, 8158,0.07837104797363281,SQUEEZE
76, 8175, 8183, 8193, 8196, 8186, 8165, 8158, 8168, 8197, 8190, 8184, 8183, 8162, 8169,0.0842289924621582,SQUEEZE
77, 8159, 8170, 8179, 8186, 8165, 8152, 8143, 8150, 8183, 8167, 8172, 8166, 8145, 8154,0.0921335220336914,SQUEEZE
78, 8158, 8158, 8168, 8176, 8157, 8156, 8144, 8141, 8186, 8179, 8161, 8156, 8137, 8141,0.10141563415527344,SQUEEZE
79, 8162, 8174, 8176, 8178, 8164, 8161, 8152, 8146, 8189, 8186, 8160, 8166, 8161, 8155,0.10801815986633301,SQUEEZE
80, 8164, 8164, 8185, 8185, 8172, 8169, 8148, 8156, 8192, 8181, 8173, 8170, 8134, 8147,0.11735701560974121,SQUEEZE
81, 8177, 8171, 8193, 8191, 8176, 8173, 8149, 8167, 8201, 8185, 8195, 8196, 8163, 8171,0.12516546249389648,SQUEEZE
82, 8180, 8173, 8188, 8188, 8178, 8174, 8160, 8179, 8211, 8194, 8204, 8203, 8167, 8183,0.13301515579223633,SQUEEZE
83, 8164, 8154, 8177, 8181, 8173, 8166, 8163, 8181, 8211, 8191, 8192, 8182, 8141, 8156,0.14075422286987305,SQUEEZE
84, 8143, 8158, 8165, 8170, 8160, 8155, 8158, 8171, 8205, 8180, 8175, 8163, 8151, 8148,0.14851665496826172,SQUEEZE
85, 8127, 8145, 8144, 8159, 8150, 8153, 8157, 8165, 8199, 8174, 8163, 8141, 8128, 8136,0.15649676322937012,SQUEEZE
86, 8135, 8156, 8146, 8171, 8151, 8157, 8155, 8161, 8190, 8166, 8163, 8144, 8154, 8144,0.16426467895507812,SQUEEZE
87, 8155, 8175, 8168, 8193, 8171, 8166, 8154, 8155, 8188, 8170, 8166, 8157, 8150, 8153,0.1722266674041748,SQUEEZE
88, 8148, 8163, 8167, 8198, 8174, 8166, 8154, 8152, 8181, 8172, 8154, 8152, 8120, 8131,0.18015313148498535,SQUEEZE
89, 8131, 8160, 8151, 8189, 8154, 8157, 8143, 8148, 8163, 8151, 8141, 8145, 8146, 8133,0.18828868865966797,SQUEEZE
90, 8133, 8146, 8144, 8177, 8145, 8150, 8129, 8143, 8162, 8136, 8132, 8136, 8122, 8130,0.19617056846618652,SQUEEZE
91, 8135, 8151, 8144, 8177, 8148, 8139, 8124, 8138, 8163, 8139, 8132, 8138, 8127, 8131,0.2041022777557373,SQUEEZE
92, 8132, 8162, 8148, 8189, 8150, 8144, 8130, 8141, 8162, 8150, 8148, 8149, 8138, 8136,0.21227169036865234,SQUEEZE
93, 8136, 8157, 8157, 8187, 8149, 8154, 8128, 8143, 8163, 8148, 8157, 8157, 8127, 8132,0.21880364418029785,SQUEEZE
94, 8140, 8172, 8162, 8181, 8150, 8151, 8123, 8142, 8163, 8141, 8152, 8163, 8154, 8149,0.22674012184143066,SQUEEZE
95, 8141, 8166, 8165, 8183, 8163, 8163, 8147, 8163, 8180, 8165, 8156, 8160, 8131, 8149,0.23464417457580566,SQUEEZE
96, 8137, 8160, 8169, 8175, 8162, 8164, 8160, 8175, 8187, 8170, 8166, 8167, 8141, 8147,0.24251317977905273,SQUEEZE
97, 8137, 8159, 8157, 8169, 8146, 8148, 8142, 8159, 8168, 8151, 8159, 8164, 8154, 8151,0.25056934356689453,SQUEEZE
98, 8150, 8154, 8155, 8179, 8141, 8141, 8141, 8146, 8160, 8148, 8156, 8159, 8131, 8145,0.2585315704345703,SQUEEZE
99, 8165, 8183, 8177, 8192, 8158, 8146, 8157, 8152, 8164, 8160, 8176, 8180, 8162, 8171,0.26637816429138184,SQUEEZE
100, 8175, 8181, 8187, 8195, 8178, 8156, 8164, 8161, 8173, 8173, 8194, 8180, 8147, 8179,0.27429699897766113,SQUEEZE
101, 8186, 8174, 8187, 8200, 8178, 8156, 8168, 8159, 8171, 8170, 8192, 8176, 8150, 8176,0.28220582008361816,SQUEEZE
102, 8195, 8190, 8190, 8215, 8177, 8155, 8175, 8158, 8170, 8163, 8180, 8188, 8166, 8187,0.28987646102905273,SQUEEZE
103, 8193, 8183, 8188, 8218, 8183, 8162, 8168, 8157, 8178, 8164, 8175, 8186, 8132, 8170,0.29767704010009766,SQUEEZE
104, 8189, 8186, 8189, 8211, 8179, 8156, 8154, 8156, 8182, 8170, 8184, 8187, 8160, 8171,0.3056304454803467,SQUEEZE
105, 8194, 8183, 8188, 8209, 8176, 8159, 8164, 8172, 8194, 8186, 8196, 8189, 8160, 8175,0.31345295906066895,SQUEEZE
106, 8187, 8174, 8180, 8207, 8175, 8161, 8172, 8181, 8199, 8182, 8190, 8187, 8151, 8169,0.32104063034057617,SQUEEZE
107, 8167, 8173, 8171, 8189, 8170, 8148, 8156, 8168, 8190, 8166, 8169, 8182, 8153, 8169,0.33026576042175293,SQUEEZE
108, 8157, 8156, 8161, 8185, 8171, 8140, 8147, 8159, 8184, 8165, 8156, 8168, 8124, 8146,0.33795881271362305,SQUEEZE
109, 8161, 8163, 8163, 8195, 8169, 8136, 8145, 8151, 8167, 8161, 8152, 8166, 8152, 8146,0.3458588123321533,SQUEEZE
110, 8154, 8162, 8168, 8190, 8164, 8132, 8138, 8139, 8155, 8159, 8154, 8167, 8142, 8148,0.3520822525024414,SQUEEZE
111, 8157, 8160, 8169, 8190, 8166, 8132, 8144, 8138, 8159, 8162, 8163, 8180, 8133, 8148,0.3601257801055908,SQUEEZE
112, 8173, 8181, 8178, 8203, 8177, 8139, 8157, 8150, 8171, 8157, 8179, 8195, 8165, 8169,0.36964869499206543,SQUEEZE
113, 8176, 8169, 8186, 8203, 8180, 8145, 8157, 8155, 8184, 8163, 8190, 8192, 8144, 8161,0.3759748935699463,SQUEEZE
114, 8176, 8175, 8192, 8208, 8171, 8145, 8152, 8158, 8185, 8179, 8192, 8202, 8162, 8167,0.38514256477355957,SQUEEZE
115, 8184, 8189, 8192, 8217, 8178, 8156, 8157, 8175, 8192, 8187, 8196, 8203, 8160, 8175,0.3929409980773926,SQUEEZE
116, 8176, 8173, 8182, 8209, 8182, 8159, 8156, 8169, 8190, 8171, 8190, 8184, 8139, 8158,0.4007241725921631,SQUEEZE
117, 8149, 8158, 8160, 8189, 8160, 8140, 8145, 8136, 8164, 8154, 8163, 8164, 8153, 8149,0.40700292587280273,SQUEEZE
118, 8145, 8147, 8147, 8180, 8159, 8140, 8148, 8145, 8167, 8159, 8149, 8150, 8131, 8135,0.4152345657348633,SQUEEZE
119, 8162, 8167, 8157, 8185, 8171, 8148, 8156, 8169, 8180, 8162, 8156, 8163, 8149, 8152,0.42307591438293457,SQUEEZE
120, 8164, 8167, 8156, 8186, 8162, 8148, 8151, 8159, 8172, 8157, 8148, 8165, 8144, 8164,0.43230557441711426,SQUEEZE
121, 8161, 8148, 8148, 8179, 8158, 8149, 8148, 8151, 8169, 8154, 8139, 8153, 8125, 8147,0.4401857852935791,SQUEEZE
122, 8164, 8164, 8153, 8179, 8175, 8152, 8157, 8161, 8174, 8155, 8141, 8156, 8161, 8155,0.4480469226837158,SQUEEZE
123, 8169, 8162, 8156, 8188, 8182, 8157, 8166, 8166, 8176, 8168, 8136, 8157, 8138, 8156,0.4563276767730713,SQUEEZE
124, 8170, 8163, 8158, 8193, 8171, 8157, 8165, 8163, 8171, 8166, 8138, 8167, 8145, 8161,0.46409058570861816,SQUEEZE
125, 8165, 8165, 8161, 8188, 8169, 8161, 8163, 8168, 8176, 8157, 8162, 8173, 8162, 8165,0.4722764492034912,SQUEEZE
126, 8161, 8149, 8161, 8190, 8171, 8166, 8160, 8170, 8183, 8171, 8176, 8174, 8144, 8155,0.47876715660095215,SQUEEZE
127, 8171, 8163, 8170, 8196, 8165, 8166, 8156, 8163, 8175, 8182, 8175, 8191, 8170, 8175,0.4869098663330078,SQUEEZE
240, 8189, 8167, 8182, 8192, 8166, 8165, 8163, 8163, 8174, 8182, 8183, 8198, 8151, 8178,0.4949350357055664,SQUEEZE
0, 8186, 8171, 8179, 8191, 8169, 8162, 8173, 8168, 8175, 8179, 8189, 8200, 8155, 8169,0.5027880668640137,SQUEEZE
1, 8167, 8173, 8167, 8193, 8164, 8169, 8167, 8166, 8177, 8173, 8178, 8190, 8160, 8163,0.5106940269470215,SQUEEZE
2, 8153, 8141, 8153, 8179, 8149, 8162, 8147, 8153, 8162, 8151, 8159, 8160, 8124, 8143,0.518599271774292,SQUEEZE
3, 8154, 8147, 8141, 8170, 8142, 8143, 8139, 8140, 8140, 8134, 8153, 8162, 8146, 8150,0.5265548229217529,SQUEEZE
4, 8163, 8164, 8149, 8187, 8161, 8159, 8162, 8155, 8154, 8153, 8156, 8177, 8140, 8155,0.534409761428833,SQUEEZE
5, 8163, 8168, 8167, 8200, 8170, 8172, 8177, 8169, 8169, 8167, 8158, 8182, 8143, 8157,0.5423204898834229,SQUEEZE
6, 8160, 8174, 8166, 8189, 8169, 8158, 8165, 8168, 8159, 8161, 8157, 8184, 8152, 8166,0.5501885414123535,SQUEEZE
7, 8164, 8165, 8161, 8188, 8177, 8155, 8161, 8168, 8154, 8157, 8154, 8183, 8129, 8154,0.5581879615783691,SQUEEZE
8, 8165, 8177, 8167, 8197, 8180, 8159, 8165, 8161, 8154, 8155, 8155, 8186, 8160, 8163,0.5660674571990967,SQUEEZE
9, 8161, 8171, 8162, 8193, 8177, 8159, 8169, 8161, 8160, 8157, 8154, 8180, 8140, 8156,0.5739097595214844,SQUEEZE
10, 8158, 8162, 8161, 8191, 8176, 8157, 8169, 8169, 8159, 8154, 8149, 8183, 8133, 8141,0.5818674564361572,SQUEEZE
11, 8163, 8180, 8172, 8197, 8182, 8161, 8168, 8164, 8159, 8156, 8154, 8196, 8166, 8162,0.5895435810089111,SQUEEZE
12, 8177, 8175, 8174, 8193, 8182, 8161, 8170, 8157, 8165, 8168, 8168, 8197, 8142, 8163,0.5975768566131592,SQUEEZE
13, 8190, 8183, 8183, 8198, 8175, 8153, 8175, 8168, 8163, 8169, 8181, 8214, 8166, 8176,0.6054956912994385,SQUEEZE
14, 8192, 8183, 8195, 8208, 8181, 8163, 8180, 8183, 8175, 8184, 8188, 8220, 8163, 8184,0.6135494709014893,SQUEEZE
15, 8188, 8176, 8187, 8201, 8181, 8168, 8172, 8180, 8186, 8193, 8188, 8210, 8145, 8164,0.6200871467590332,SQUEEZE
16, 8186, 8185, 8182, 8201, 8170, 8153, 8164, 8177, 8176, 8176, 8186, 8209, 8162, 8159,0.6282021999359131,SQUEEZE
17, 8180, 8168, 8182, 8207, 8175, 8148, 8164, 8179, 8170, 8175, 8189, 8205, 8137, 8153,0.6373355388641357,SQUEEZE
18, 8171, 8169, 8176, 8198, 8177, 8152, 8163, 8169, 8164, 8175, 8185, 8196, 8154, 8152,0.6453225612640381,SQUEEZE
19, 8165, 8174, 8165, 8189, 8169, 8161, 8169, 8162, 8165, 8166, 8173, 8180, 8147, 8140,0.653174877166748,SQUEEZE
20, 8159, 8164, 8163, 8192, 8167, 8160, 8170, 8166, 8170, 8164, 8165, 8172, 8126, 8129,0.6609776020050049,SQUEEZE
21, 8159, 8168, 8161, 8197, 8165, 8148, 8154, 8162, 8168, 8170, 8161, 8175, 8150, 8142,0.6687185764312744,SQUEEZE
22, 8161, 8159, 8152, 8196, 8160, 8145, 8150, 8154, 8166, 8177, 8163, 8163, 8128, 8124,0.676668643951416,SQUEEZE
23, 8138, 8154, 8144, 8187, 8147, 8135, 8144, 8144, 8151, 8149, 8153, 8156, 8137, 8110,0.6830933094024658,SQUEEZE
24, 8120, 8142, 8136, 8172, 8140, 8130, 8127, 8141, 8140, 8126, 8134, 8153, 8132, 8114,0.6924490928649902,SQUEEZE
25, 8141, 8134, 8136, 8167, 8144, 8135, 8132, 8149, 8149, 8140, 8138, 8157, 8119, 8121,0.7001817226409912,SQUEEZE
26, 8150, 8154, 8143, 8176, 8144, 8135, 8142, 8148, 8150, 8148, 8146, 8167, 8154, 8142,0.7075064182281494,SQUEEZE
27, 8141, 8146, 8148, 8184, 8152, 8145, 8143, 8148, 8150, 8150, 8142, 8163, 8132, 8133,0.7151696681976318,SQUEEZE
28, 8157, 8157, 8164, 8196, 8170, 8164, 8161, 8164, 8164, 8165, 8152, 8177, 8149, 8148,0.7230870723724365,SQUEEZE
29, 8163, 8172, 8167, 8196, 8175, 8171, 8175, 8172, 8176, 8174, 8162, 8182, 8159, 8164,0.7324569225311279,SQUEEZE
30, 8136, 8145, 8147, 8172, 8157, 8154, 8158, 8151, 8163, 8156, 8136, 8155, 8118, 8127,0.7388103008270264,SQUEEZE
31, 8130, 8151, 8147, 8163, 8147, 8141, 8138, 8138, 8146, 8143, 8124, 8159, 8141, 8130,0.7467794418334961,SQUEEZE
32, 8144, 8152, 8158, 8166, 8151, 8150, 8141, 8148, 8150, 8155, 8148, 8173, 8130, 8143,0.7547695636749268,SQUEEZE
33, 8139, 8145, 8150, 8170, 8149, 8149, 8142, 8151, 8153, 8158, 8152, 8168, 8133, 8135,0.7626998424530029,SQUEEZE
34, 8132, 8155, 8143, 8172, 8153, 8146, 8138, 8151, 8157, 8160, 8144, 8161, 8148, 8138,0.7705655097961426,SQUEEZE
35, 8136, 8144, 8151, 8170, 8156, 8155, 8142, 8153, 8164, 8169, 8152, 8163, 8128, 8136,0.7784280776977539,SQUEEZE
36, 8145, 8153, 8156, 8172, 8154, 8155, 8150, 8150, 8160, 8176, 8163, 8178, 8148, 8150,0.7862429618835449,SQUEEZE
37, 8156, 8162, 8156, 8189, 8169, 8166, 8169, 8157, 8159, 8183, 8161, 8178, 8129, 8153,0.7957799434661865,SQUEEZE
38, 8162, 8172, 8168, 8201, 8181, 8176, 8176, 8166, 8163, 8178, 8159, 8180, 8136, 8156,0.8024907112121582,SQUEEZE
39, 8162, 8181, 8177, 8193, 8178, 8176, 8173, 8172, 8172, 8177, 8172, 8187, 8165, 8166,0.8099641799926758,SQUEEZE
40, 8166, 8166, 8174, 8187, 8182, 8183, 8180, 8185, 8182, 8193, 8179, 8183, 8143, 8155,0.8179569244384766,SQUEEZE
41, 8162, 8172, 8168, 8192, 8178, 8176, 8181, 8183, 8175, 8188, 8170, 8185, 8161, 8162,0.8258562088012695,SQUEEZE
42, 8160, 8167, 8165, 8188, 8173, 8159, 8174, 8175, 8179, 8179, 8164, 8185, 8147, 8164,0.833726167678833,SQUEEZE
43, 8180, 8169, 8182, 8191, 8185, 8161, 8176, 8192, 8192, 8196, 8190, 8205, 8152, 8178,0.8417050838470459,SQUEEZE
44, 8199, 8191, 8206, 8207, 8193, 8175, 8189, 8208, 8192, 8215, 8218, 8226, 8181, 8204,0.8496041297912598,SQUEEZE
45, 8195, 8177, 8208, 8210, 8187, 8177, 8191, 8206, 8195, 8213, 8216, 8214, 8147, 8183,0.8576312065124512,SQUEEZE
46, 8196, 8183, 8204, 8208, 8183, 8176, 8187, 8201, 8200, 8204, 8213, 8223, 8165, 8185,0.8655698299407959,SQUEEZE
47, 8205, 8183, 8207, 8216, 8188, 8185, 8187, 8209, 8202, 8217, 8225, 8232, 8161, 8191,0.8734819889068604,SQUEEZE
48, 8200, 8168, 8207, 8209, 8185, 8183, 8182, 8211, 8198, 8221, 8223, 8220, 8148, 8176,0.8814609050750732,SQUEEZE
49, 8189, 8168, 8194, 8190, 8179, 8176, 8180, 8202, 8193, 8202, 8205, 8214, 8169, 8181,0.8893418312072754,SQUEEZE
50, 8183, 8153, 8176, 8188, 8177, 8175, 8185, 8193, 8187, 8187, 8195, 8201, 8139, 8169,0.8973371982574463,SQUEEZE
51, 8172, 8158, 8169, 8192, 8166, 8167, 8171, 8180, 8166, 8168, 8185, 8185, 8146, 8160,0.9053430557250977,SQUEEZE
52, 8157, 8159, 8158, 8186, 8164, 8175, 8160, 8174, 8158, 8160, 8165, 8171, 8135, 8148,0.9134612083435059,SQUEEZE
53, 8143, 8145, 8143, 8183, 8172, 8183, 8166, 8170, 8157, 8164, 8156, 8168, 8116, 8128,0.9213240146636963,SQUEEZE
54, 8132, 8154, 8143, 8178, 8167, 8174, 8171, 8168, 8151, 8152, 8155, 8168, 8151, 8140,0.9291257858276367,SQUEEZE
55, 8135, 8142, 8145, 8164, 8165, 8172, 8165, 8161, 8166, 8144, 8147, 8158, 8132, 8141,0.9353222846984863,SQUEEZE
56, 8137, 8140, 8138, 8158, 8162, 8161, 8154, 8150, 8181, 8147, 8142, 8158, 8137, 8139,0.9431178569793701,SQUEEZE
57, 8130, 8145, 8136, 8161, 8153, 8152, 8156, 8160, 8191, 8150, 8151, 8158, 8136, 8140,0.9510762691497803,SQUEEZE
58, 8138, 8144, 8145, 8166, 8159, 8162, 8167, 8177, 8199, 8156, 8162, 8163, 8128, 8139,0.9599080085754395,SQUEEZE
59, 8161, 8168, 8161, 8178, 8171, 8176, 8171, 8178, 8195, 8172, 8165, 8184, 8166, 8165,0.9676086902618408,SQUEEZE
60, 8171, 8162, 8170, 8178, 8170, 8188, 8171, 8180, 8201, 8181, 8160, 8182, 8142, 8158,0.9754893779754639,SQUEEZE
61, 8162, 8157, 8174, 8176, 8159, 8184, 8171, 8187, 8203, 8170, 8165, 8185, 8146, 8151,0.9832019805908203,SQUEEZE
62, 8163, 8175, 8180, 8188, 8172, 8186, 8174, 8193, 8205, 8179, 8178, 8202, 8163, 8171,0.9911670684814453,SQUEEZE
63, 8170, 8170, 8177, 8189, 8183, 8192, 8170, 8186, 8202, 8185, 8173, 8200, 8139, 8162,0.9984228610992432,SQUEEZE
64, 8151, 8166, 8156, 8165, 8171, 8173, 8158, 8158, 8173, 8155, 8156, 8182, 8152, 8148,1.0068483352661133,SQUEEZE
65, 8138, 8157, 8147, 8159, 8171, 8165, 8160, 8151, 8161, 8151, 8155, 8167, 8136, 8138,1.0147738456726074,SQUEEZE
66, 8156, 8167, 8168, 8175, 8179, 8180, 8175, 8171, 8176, 8171, 8167, 8181, 8154, 8153,1.0226800441741943,SQUEEZE
67, 8157, 8168, 8168, 8169, 8174, 8182, 8174, 8177, 8178, 8168, 8166, 8183, 8166, 8165,1.0305125713348389,SQUEEZE
68, 8139, 8145, 8148, 8152, 8165, 8171, 8170, 8172, 8164, 8159, 8154, 8164, 8130, 8139,1.0386548042297363,SQUEEZE
69, 8151, 8165, 8160, 8161, 8167, 8176, 8172, 8174, 8169, 8160, 8157, 8175, 8163, 8149,1.0465445518493652,SQUEEZE
70, 8174, 8174, 8181, 8179, 8180, 8193, 8173, 8186, 8197, 8177, 8185, 8193, 8163, 8173,1.0545756816864014,SQUEEZE
71, 8168, 8166, 8180, 8183, 8177, 8183, 8165, 8193, 8200, 8187, 8196, 8199, 8163, 8180,1.0622715950012207,SQUEEZE
72, 8161, 8171, 8174, 8178, 8168, 8163, 8162, 8188, 8187, 8179, 8179, 8195, 8175, 8176,1.0702807903289795,SQUEEZE
73, 8160, 8154, 8166, 8162, 8173, 8163, 8168, 8183, 8180, 8168, 8168, 8180, 8139, 8149,1.0781922340393066,SQUEEZE
74, 8143, 8147, 8150, 8142, 8164, 8156, 8160, 8170, 8158, 8153, 8156, 8172, 8155, 8144,1.086169958114624,SQUEEZE
75, 8128, 8139, 8143, 8140, 8147, 8151, 8145, 8148, 8144, 8153, 8142, 8157, 8139, 8135,1.093848705291748,SQUEEZE
76, 8140, 8151, 8159, 8161, 8149, 8154, 8146, 8145, 8152, 8155, 8154, 8162, 8133, 8139,1.1018176078796387,SQUEEZE
77, 8158, 8173, 8177, 8169, 8157, 8162, 8160, 8168, 8163, 8154, 8171, 8186, 8165, 8171,1.1097617149353027,SQUEEZE
78, 8164, 8157, 8178, 8162, 8160, 8174, 8173, 8182, 8169, 8164, 8166, 8182, 8140, 8168,1.117640733718872,SQUEEZE
79, 8160, 8166, 8175, 8164, 8156, 8172, 8171, 8178, 8162, 8160, 8165, 8178, 8153, 8167,1.1254031658172607,SQUEEZE
80, 8149, 8166, 8168, 8162, 8152, 8164, 8159, 8175, 8160, 8155, 8172, 8171, 8147, 8163,1.133286476135254,SQUEEZE
81, 8135, 8145, 8161, 8152, 8147, 8159, 8153, 8164, 8161, 8161, 8168, 8162, 8137, 8147,1.141223669052124,SQUEEZE
82, 8130, 8151, 8155, 8151, 8148, 8151, 8147, 8148, 8149, 8157, 8164, 8159, 8159, 8149,1.1492931842803955,SQUEEZE
83, 8132, 8143, 8153, 8146, 8153, 8149, 8142, 8144, 8141, 8150, 8166, 8145, 8130, 8136,1.1571826934814453,SQUEEZE
84, 8130, 8144, 8152, 8135, 8145, 8143, 8137, 8138, 8131, 8136, 8164, 8141, 8145, 8133,1.1651854515075684,SQUEEZE
85, 8126, 8142, 8147, 8135, 8136, 8135, 8133, 8134, 8117, 8127, 8151, 8141, 8138, 8131,1.172870397567749,SQUEEZE
86, 8130, 8140, 8157, 8153, 8138, 8139, 8143, 8142, 8121, 8138, 8152, 8150, 8123, 8126,1.1809556484222412,SQUEEZE
87, 8137, 8171, 8168, 8166, 8148, 8153, 8151, 8152, 8143, 8156, 8181, 8172, 8165, 8156,1.1886396408081055,SQUEEZE
88, 8134, 8162, 8159, 8158, 8153, 8156, 8145, 8157, 8154, 8166, 8187, 8162, 8144, 8154,1.1965692043304443,SQUEEZE
89, 8130, 8153, 8161, 8161, 8146, 8144, 8135, 8158, 8144, 8161, 8166, 8156, 8142, 8147,1.204174518585205,SQUEEZE
90, 8141, 8169, 8179, 8182, 8152, 8149, 8143, 8164, 8150, 8160, 8169, 8167, 8143, 8158,1.2119522094726562,SQUEEZE
91, 8148, 8170, 8180, 8187, 8157, 8159, 8153, 8165, 8161, 8163, 8178, 8165, 8130, 8146,1.2197201251983643,SQUEEZE
92, 8139, 8175, 8175, 8177, 8148, 8155, 8145, 8163, 8153, 8157, 8168, 8168, 8163, 8154,1.228074312210083,SQUEEZE
93, 8135, 8161, 8176, 8175, 8146, 8151, 8141, 8169, 8150, 8152, 8167, 8168, 8143, 8153,1.235320806503296,SQUEEZE
94, 8136, 8153, 8168, 8166, 8142, 8139, 8136, 8160, 8148, 8148, 8173, 8162, 8144, 8142,1.243180751800537,SQUEEZE
95, 8133, 8154, 8158, 8146, 8131, 8138, 8132, 8150, 8149, 8158, 8168, 8159, 8151, 8144,1.2509934902191162,SQUEEZE
96, 8131, 8149, 8164, 8151, 8138, 8143, 8140, 8153, 8151, 8164, 8165, 8159, 8134, 8143,1.2603890895843506,SQUEEZE
97, 8129, 8161, 8168, 8169, 8148, 8135, 8142, 8149, 8137, 8153, 8161, 8159, 8162, 8153,1.2666008472442627,SQUEEZE
98, 8125, 8147, 8153, 8160, 8146, 8143, 8141, 8147, 8136, 8158, 8163, 8146, 8142, 8141,1.274916648864746,SQUEEZE
99, 8126, 8139, 8143, 8141, 8137, 8146, 8140, 8153, 8134, 8150, 8162, 8148, 8144, 8132,1.2829594612121582,SQUEEZE
100, 8120, 8149, 8134, 8139, 8129, 8129, 8135, 8147, 8119, 8129, 8141, 8144, 8152, 8132,1.2907965183258057,SQUEEZE
101, 8101, 8136, 8125, 8138, 8126, 8131, 8132, 8137, 8118, 8132, 8130, 8130, 8123, 8112,1.298454999923706,SQUEEZE
102, 8098, 8151, 8140, 8144, 8132, 8148, 8135, 8140, 8129, 8142, 8146, 8144, 8162, 8127,1.3061976432800293,SQUEEZE
103, 8118, 8154, 8151, 8150, 8144, 8161, 8147, 8153, 8141, 8149, 8157, 8150, 8159, 8140,1.3157153129577637,SQUEEZE
104, 8137, 8143, 8146, 8145, 8142, 8164, 8154, 8162, 8140, 8153, 8158, 8145, 8150, 8143,1.3238043785095215,SQUEEZE
105, 8129, 8149, 8147, 8139, 8137, 8160, 8154, 8151, 8126, 8152, 8162, 8140, 8166, 8156,1.330207347869873,SQUEEZE
106, 8110, 8135, 8144, 8138, 8143, 8162, 8151, 8137, 8119, 8143, 8149, 8129, 8134, 8136,1.3381545543670654,SQUEEZE
107, 8116, 8147, 8143, 8139, 8146, 8162, 8148, 8138, 8120, 8136, 8143, 8137, 8154, 8133,1.345515251159668,SQUEEZE
108, 8128, 8156, 8149, 8136, 8152, 8168, 8144, 8146, 8132, 8148, 8153, 8141, 8156, 8138,1.3532392978668213,SQUEEZE
109, 8112, 8140, 8144, 8135, 8147, 8163, 8141, 8137, 8129, 8142, 8143, 8126, 8145, 8127,1.3610732555389404,SQUEEZE
110, 8092, 8137, 8136, 8132, 8140, 8156, 8145, 8135, 8121, 8125, 8121, 8116, 8153, 8128,1.3704619407653809,SQUEEZE
111, 8106, 8131, 8139, 8127, 8148, 8161, 8156, 8149, 8133, 8143, 8126, 8123, 8129, 8125,1.3781287670135498,SQUEEZE
112, 8129, 8151, 8145, 8136, 8150, 8160, 8150, 8159, 8142, 8165, 8147, 8149, 8164, 8149,1.3862099647521973,SQUEEZE
113, 8137, 8161, 8150, 8146, 8151, 8161, 8144, 8168, 8146, 8165, 8160, 8156, 8171, 8161,1.3926129341125488,SQUEEZE
114, 8136, 8153, 8157, 8145, 8162, 8164, 8151, 8161, 8140, 8156, 8160, 8146, 8154, 8149,1.4006774425506592,SQUEEZE
115, 8135, 8160, 8159, 8147, 8167, 8162, 8162, 8156, 8133, 8153, 8156, 8152, 8178, 8167,1.408433198928833,SQUEEZE
116, 8136, 8149, 8155, 8151, 8164, 8165, 8163, 8169, 8145, 8163, 8162, 8156, 8155, 8163,1.4162428379058838,SQUEEZE
117, 8132, 8153, 8150, 8143, 8153, 8160, 8157, 8159, 8136, 8157, 8163, 8152, 8171, 8153,1.4241719245910645,SQUEEZE
118, 8129, 8151, 8144, 8135, 8150, 8157, 8161, 8148, 8127, 8147, 8147, 8139, 8166, 8152,1.4321391582489014,SQUEEZE
119, 8134, 8142, 8151, 8141, 8160, 8163, 8163, 8166, 8146, 8154, 8135, 8143, 8140, 8150,1.4401159286499023,SQUEEZE
120, 8138, 8155, 8159, 8141, 8161, 8164, 8157, 8178, 8149, 8157, 8134, 8151, 8163, 8163,1.4482026100158691,SQUEEZE
121, 8127, 8129, 8141, 8123, 8149, 8159, 8156, 8167, 8137, 8145, 8128, 8126, 8131, 8139,1.456106185913086,SQUEEZE
122, 8110, 8116, 8125, 8113, 8138, 8145, 8149, 8155, 8133, 8129, 8113, 8117, 8134, 8127,1.4643445014953613,SQUEEZE
123, 8100, 8126, 8121, 8110, 8139, 8141, 8139, 8148, 8133, 8131, 8097, 8117, 8142, 8132,1.472193717956543,SQUEEZE
124, 8101, 8125, 8123, 8117, 8144, 8150, 8141, 8151, 8128, 8139, 8099, 8108, 8128, 8124,1.4799950122833252,SQUEEZE
125, 8111, 8146, 8137, 8137, 8149, 8157, 8150, 8157, 8130, 8141, 8124, 8122, 8166, 8139,1.4876234531402588,SQUEEZE
126, 8119, 8145, 8153, 8154, 8158, 8162, 8150, 8161, 8148, 8154, 8147, 8133, 8153, 8133,1.495452880859375,SQUEEZE
127, 8135, 8153, 8183, 8180, 8164, 8154, 8154, 8163, 8152, 8161, 8165, 8155, 8162, 8141,1.5031721591949463,SQUEEZE
240, 8156, 8182, 8215, 8211, 8162, 8148, 8159, 8164, 8146, 8154, 8183, 8187, 8171, 8170,1.5125644207000732,SQUEEZE
0, 8168, 8184, 8231, 8223, 8158, 8154, 8156, 8171, 8145, 8153, 8192, 8202, 8152, 8168,1.5204293727874756,SQUEEZE
1, 8178, 8199, 8252, 8236, 8165, 8160, 8155, 8178, 8150, 8159, 8210, 8222, 8188, 8184,1.5267455577850342,SQUEEZE
2, 8192, 8205, 8270, 8250, 8182, 8173, 8168, 8182, 8164, 8170, 8234, 8232, 8170, 8191,1.5346593856811523,SQUEEZE
3, 8190, 8202, 8269, 8245, 8173, 8171, 8171, 8177, 8161, 8171, 8229, 8231, 8166, 8185,1.5426273345947266,SQUEEZE
4, 8184, 8207, 8263, 8237, 8163, 8167, 8165, 8176, 8155, 8165, 8215, 8230, 8188, 8201,1.5508365631103516,SQUEEZE
5, 8210, 8200, 8269, 8238, 8191, 8186, 8177, 8187, 8172, 8173, 8236, 8233, 8170, 8215,1.5588135719299316,SQUEEZE
6, 8226, 8215, 8277, 8236, 8204, 8199, 8189, 8196, 8181, 8187, 8257, 8250, 8193, 8231,1.566462516784668,SQUEEZE
7, 8205, 8206, 8271, 8231, 8189, 8193, 8181, 8191, 8171, 8198, 8240, 8242, 8176, 8219,1.574681282043457,SQUEEZE
8, 8204, 8196, 8265, 8229, 8189, 8180, 8178, 8180, 8165, 8188, 8221, 8230, 8169, 8206,1.5826504230499268,SQUEEZE
9, 8222, 8205, 8264, 8225, 8201, 8179, 8183, 8182, 8174, 8188, 8225, 8240, 8188, 8216,1.5891103744506836,SQUEEZE
10, 8208, 8182, 8251, 8210, 8195, 8182, 8184, 8188, 8178, 8209, 8232, 8230, 8161, 8200,1.5986406803131104,SQUEEZE
11, 8182, 8181, 8234, 8201, 8178, 8177, 8178, 8174, 8167, 8199, 8218, 8211, 8183, 8188,1.6066489219665527,SQUEEZE
12, 8187, 8182, 8233, 8204, 8181, 8184, 8182, 8174, 8179, 8189, 8207, 8203, 8178, 8180,1.614567518234253,SQUEEZE
13, 8195, 8174, 8241, 8205, 8177, 8191, 8183, 8201, 8194, 8201, 8222, 8215, 8167, 8180,1.6211481094360352,SQUEEZE
14, 8177, 8178, 8228, 8194, 8158, 8179, 8168, 8196, 8185, 8205, 8226, 8208, 8198, 8189,1.6293830871582031,SQUEEZE
15, 8160, 8156, 8203, 8177, 8146, 8169, 8160, 8164, 8175, 8193, 8197, 8169, 8194, 8160,1.638441562652588,SQUEEZE
16, 8155, 8150, 8198, 8171, 8140, 8161, 8154, 8157, 8163, 8164, 8179, 8162, 8228, 8151,1.6464147567749023,SQUEEZE
17, 8151, 8152, 8199, 8169, 8139, 8160, 8147, 8170, 8159, 8161, 8189, 8168, 8232, 8155,1.6544089317321777,SQUEEZE
18, 8154, 8154, 8201, 8174, 8140, 8162, 8147, 8169, 8163, 8179, 8192, 8163, 8234, 8149,1.6606061458587646,SQUEEZE
19, 8156, 8165, 8199, 8176, 8135, 8157, 8151, 8161, 8162, 8172, 8187, 8166, 8272, 8162,1.6682984828948975,SQUEEZE
20, 8144, 8147, 8190, 8164, 8130, 8152, 8151, 8170, 8161, 8160, 8185, 8157, 8242, 8150,1.6761407852172852,SQUEEZE
21, 8140, 8152, 8194, 8164, 8133, 8150, 8151, 8175, 8163, 8169, 8187, 8156, 8260, 8154,1.6841094493865967,SQUEEZE
22, 8161, 8171, 8208, 8180, 8147, 8167, 8165, 8181, 8178, 8186, 8199, 8170, 8277, 8170,1.6923000812530518,SQUEEZE
23, 8165, 8168, 8206, 8186, 8148, 8176, 8166, 8187, 8181, 8180, 8202, 8172, 8252, 8157,1.7004334926605225,SQUEEZE
24, 8138, 8165, 8190, 8164, 8135, 8160, 8145, 8164, 8151, 8157, 8181, 8158, 8256, 8152,1.7081189155578613,SQUEEZE
25, 8139, 8155, 8181, 8152, 8143, 8168, 8146, 8152, 8148, 8161, 8173, 8152, 8215, 8141,1.7161147594451904,SQUEEZE
26, 8155, 8167, 8186, 8170, 8153, 8189, 8168, 8172, 8168, 8179, 8182, 8169, 8215, 8144,1.7256503105163574,SQUEEZE
27, 8144, 8168, 8183, 8171, 8149, 8185, 8172, 8182, 8168, 8178, 8168, 8157, 8231, 8144,1.7319960594177246,SQUEEZE
28, 8134, 8142, 8173, 8157, 8144, 8175, 8164, 8173, 8163, 8167, 8154, 8134, 8230, 8129,1.7399163246154785,SQUEEZE
29, 8151, 8163, 8183, 8168, 8146, 8182, 8168, 8175, 8168, 8172, 8174, 8155, 8257, 8153,1.7477571964263916,SQUEEZE
30, 8179, 8180, 8205, 8189, 8161, 8196, 8181, 8188, 8182, 8199, 8199, 8177, 8227, 8175,1.7555372714996338,SQUEEZE
31, 8197, 8189, 8219, 8191, 8169, 8193, 8189, 8191, 8187, 8211, 8208, 8189, 8241, 8191,1.7633335590362549,SQUEEZE
32, 8193, 8196, 8215, 8188, 8165, 8186, 8185, 8190, 8184, 8202, 8211, 8194, 8263, 8195,1.7710645198822021,SQUEEZE
33, 8191, 8180, 8211, 8191, 8170, 8192, 8188, 8193, 8188, 8200, 8208, 8192, 8229, 8183,1.7806603908538818,SQUEEZE
34, 8209, 8187, 8219, 8179, 8176, 8199, 8205, 8205, 8197, 8208, 8201, 8210, 8245, 8211,1.786893367767334,SQUEEZE
35, 8213, 8182, 8221, 8169, 8170, 8201, 8207, 8207, 8201, 8204, 8199, 8213, 8227, 8212,1.7945926189422607,SQUEEZE
36, 8195, 8176, 8214, 8187, 8162, 8193, 8186, 8183, 8183, 8170, 8185, 8194, 8216, 8179,1.8023126125335693,SQUEEZE
37, 8183, 8185, 8200, 8195, 8167, 8188, 8180, 8167, 8171, 8156, 8159, 8177, 8220, 8173,1.8102688789367676,SQUEEZE
38, 8168, 8166, 8175, 8167, 8166, 8186, 8178, 8162, 8174, 8167, 8140, 8152, 8185, 8153,1.8181054592132568,SQUEEZE
39, 8142, 8158, 8144, 8134, 8145, 8171, 8163, 8148, 8158, 8144, 8121, 8129, 8195, 8132,1.826103687286377,SQUEEZE
40, 8121, 8140, 8125, 8126, 8142, 8164, 8159, 8148, 8149, 8123, 8099, 8104, 8173, 8109,1.8356213569641113,SQUEEZE
41, 8111, 8128, 8121, 8130, 8152, 8162, 8155, 8152, 8152, 8131, 8087, 8093, 8164, 8100,1.8421070575714111,SQUEEZE
42, 8105, 8140, 8123, 8130, 8158, 8162, 8154, 8148, 8154, 8145, 8091, 8097, 8191, 8119,1.85001802444458,SQUEEZE
43, 8115, 8130, 8120, 8129, 8159, 8169, 8165, 8151, 8166, 8149, 8098, 8093, 8163, 8116,1.8579819202423096,SQUEEZE
44, 8120, 8136, 8116, 8134, 8146, 8160, 8159, 8155, 8163, 8137, 8095, 8093, 8177, 8119,1.8657457828521729,SQUEEZE
45, 8119, 8140, 8117, 8135, 8152, 8161, 8156, 8163, 8163, 8144, 8095, 8093, 8174, 8120,1.8736555576324463,SQUEEZE
46, 8130, 8141, 8128, 8134, 8167, 8177, 8179, 8178, 8174, 8172, 8113, 8106, 8177, 8125,1.8814277648925781,SQUEEZE
47, 8131, 8155, 8131, 8137, 8160, 8179, 8184, 8183, 8176, 8177, 8122, 8118, 8204, 8142,1.8893635272979736,SQUEEZE
48, 8110, 8135, 8117, 8125, 8144, 8170, 8166, 8168, 8171, 8163, 8101, 8103, 8173, 8121,1.8971831798553467,SQUEEZE
49, 8105, 8132, 8118, 8115, 8138, 8164, 8170, 8162, 8165, 8157, 8096, 8101, 8189, 8126,1.9051282405853271,SQUEEZE
50, 8117, 8133, 8124, 8121, 8146, 8174, 8185, 8173, 8172, 8167, 8111, 8101, 8184, 8140,1.9143671989440918,SQUEEZE
51, 8107, 8120, 8116, 8119, 8147, 8171, 8182, 8176, 8169, 8164, 8106, 8090, 8163, 8124,1.9208135604858398,SQUEEZE
52, 8100, 8134, 8110, 8112, 8141, 8164, 8180, 8171, 8155, 8154, 8104, 8092, 8188, 8129,1.9286973476409912,SQUEEZE
53, 8118, 8134, 8116, 8120, 8150, 8176, 8194, 8180, 8164, 8171, 8130, 8099, 8167, 8131,1.936572551727295,SQUEEZE
54, 8135, 8143, 8127, 8129, 8158, 8183, 8193, 8186, 8173, 8177, 8133, 8117, 8190, 8142,1.9443910121917725,SQUEEZE
55, 8127, 8140, 8120, 8116, 8150, 8178, 8176, 8171, 8162, 8155, 8103, 8115, 8183, 8143,1.9523811340332031,SQUEEZE
56, 8121, 8121, 8112, 8104, 8142, 8166, 8171, 8153, 8150, 8149, 8100, 8107, 8157, 8131,1.9604506492614746,SQUEEZE
57, 8144, 8151, 8133, 8121, 8151, 8170, 8181, 8161, 8160, 8170, 8132, 8134, 8211, 8158,1.9680089950561523,SQUEEZE
58, 8170, 8166, 8158, 8144, 8172, 8196, 8205, 8194, 8184, 8190, 8148, 8148, 8204, 8171,1.9764487743377686,SQUEEZE
59, 8168, 8160, 8155, 8149, 8175, 8196, 8220, 8203, 8192, 8177, 8139, 8142, 8189, 8169,1.9842054843902588,SQUEEZE
60, 8148, 8148, 8134, 8128, 8165, 8180, 8215, 8198, 8192, 8169, 8135, 8131, 8174, 8162,1.9921612739562988,SQUEEZE
61, 8137, 8134, 8121, 8108, 8163, 8184, 8210, 8208, 8192, 8177, 8136, 8118, 8129, 8137,2.0001890659332275,SQUEEZE
62, 8128, 8148, 8118, 8103, 8157, 8189, 8209, 8199, 8183, 8167, 8122, 8113, 8122, 8135,2.0078985691070557,SQUEEZE
63, 8124, 8139, 8115, 8101, 8161, 8188, 8209, 8188, 8183, 8164, 8112, 8104, 8086, 8127,2.0160748958587646,SQUEEZE
64, 8129, 8132, 8112, 8101, 8167, 8184, 8207, 8196, 8185, 8177, 8126, 8110, 8098, 8127,2.0235538482666016,SQUEEZE
65, 8119, 8138, 8102, 8100, 8157, 8175, 8203, 8197, 8183, 8177, 8123, 8111, 8110, 8135,2.0313363075256348,SQUEEZE
66, 8099, 8122, 8088, 8097, 8144, 8170, 8191, 8184, 8180, 8160, 8094, 8089, 8071, 8115,2.039111614227295,SQUEEZE
67, 8103, 8130, 8092, 8096, 8143, 8168, 8182, 8175, 8177, 8157, 8100, 8094, 8105, 8123,2.0469114780426025,SQUEEZE
68, 8129, 8139, 8110, 8107, 8156, 8178, 8191, 8180, 8191, 8191, 8131, 8111, 8110, 8140,2.054664373397827,SQUEEZE
69, 8149, 8155, 8133, 8130, 8170, 8188, 8201, 8189, 8201, 8207, 8151, 8126, 8120, 8157,2.0630075931549072,SQUEEZE
70, 8174, 8182, 8156, 8152, 8187, 8196, 8211, 8208, 8208, 8212, 8167, 8143, 8150, 8186,2.0708303451538086,SQUEEZE
71, 8195, 8177, 8169, 8161, 8200, 8204, 8222, 8224, 8225, 8236, 8175, 8153, 8127, 8187,2.0786144733428955,SQUEEZE
72, 8182, 8177, 8164, 8149, 8184, 8191, 8206, 8210, 8214, 8221, 8164, 8152, 8143, 8185,2.086357831954956,SQUEEZE
73, 8164, 8159, 8152, 8133, 8169, 8179, 8187, 8188, 8194, 8190, 8160, 8137, 8134, 8170,2.094104766845703,SQUEEZE
74, 8168, 8149, 8150, 8131, 8169, 8174, 8189, 8182, 8187, 8188, 8162, 8135, 8129, 8160,2.103330135345459,SQUEEZE
75, 8173, 8168, 8156, 8137, 8171, 8171, 8187, 8181, 8183, 8190, 8153, 8136, 8139, 8171,2.1094908714294434,SQUEEZE
76, 8155, 8152, 8151, 8130, 8166, 8170, 8170, 8172, 8173, 8176, 8150, 8122, 8111, 8150,2.117156744003296,SQUEEZE
77, 8139, 8153, 8141, 8125, 8162, 8158, 8154, 8163, 8158, 8164, 8158, 8126, 8140, 8144,2.1264684200286865,SQUEEZE
78, 8157, 8165, 8146, 8139, 8173, 8164, 8166, 8172, 8168, 8182, 8167, 8139, 8143, 8154,2.1330506801605225,XXXXX
79, 8173, 8168, 8158, 8147, 8182, 8180, 8185, 8183, 8181, 8193, 8172, 8149, 8133, 8164,2.141021728515625,XXXXX
80, 8158, 8167, 8149, 8134, 8176, 8174, 8176, 8167, 8164, 8174, 8153, 8149, 8150, 8170,2.15041446685791,XXXXX
81, 8153, 8144, 8134, 8125, 8171, 8164, 8164, 8152, 8148, 8165, 8133, 8136, 8121, 8149,2.1584246158599854,XXXXX
82, 8168, 8160, 8153, 8138, 8176, 8172, 8176, 8161, 8155, 8174, 8144, 8146, 8147, 8161,2.166177988052368,XXXXX
83, 8171, 8173, 8161, 8142, 8180, 8191, 8183, 8175, 8170, 8185, 8156, 8151, 8159, 8170,2.173952102661133,XXXXX
84, 8160, 8150, 8136, 8127, 8169, 8182, 8164, 8163, 8164, 8182, 8142, 8133, 8146, 8146,2.1816318035125732,XXXXX
85, 8152, 8147, 8129, 8122, 8158, 8160, 8154, 8154, 8154, 8176, 8142, 8134, 8165, 8151,2.1897075176239014,XXXXX
86, 8163, 8153, 8156, 8135, 8168, 8171, 8175, 8174, 8171, 8189, 8175, 8145, 8132, 8155,2.1961162090301514,XXXXX
87, 8172, 8171, 8175, 8157, 8180, 8184, 8183, 8180, 8175, 8195, 8184, 8157, 8142, 8161,2.2042577266693115,XXXXX
88, 8155, 8166, 8158, 8156, 8170, 8173, 8165, 8164, 8161, 8186, 8165, 8146, 8140, 8151,2.213141679763794,XXXXX
89, 8140, 8140, 8136, 8136, 8148, 8153, 8153, 8163, 8157, 8182, 8156, 8127, 8109, 8125,2.221235752105713,XXXXX
90, 8146, 8154, 8135, 8134, 8147, 8147, 8154, 8166, 8161, 8184, 8157, 8131, 8138, 8140,2.229215145111084,XXXXX
91, 8144, 8148, 8129, 8133, 8157, 8154, 8157, 8159, 8166, 8190, 8150, 8124, 8124, 8133,2.237276792526245,XXXXX
92, 8128, 8136, 8122, 8120, 8147, 8151, 8153, 8153, 8157, 8181, 8141, 8112, 8128, 8121,2.245198965072632,XXXXX
93, 8130, 8147, 8132, 8119, 8142, 8152, 8152, 8157, 8153, 8174, 8145, 8118, 8133, 8133,2.25152850151062,XXXXX
94, 8151, 8155, 8151, 8137, 8153, 8163, 8155, 8162, 8160, 8180, 8158, 8135, 8129, 8140,2.259310245513916,XXXXX
95, 8161, 8170, 8155, 8142, 8150, 8155, 8154, 8155, 8163, 8184, 8166, 8154, 8164, 8155,2.2671635150909424,XXXXX
96, 8155, 8152, 8141, 8126, 8147, 8149, 8156, 8151, 8160, 8184, 8161, 8140, 8121, 8143,2.2765963077545166,XXXXX
97, 8150, 8146, 8135, 8120, 8152, 8150, 8163, 8155, 8155, 8179, 8154, 8128, 8114, 8136,2.2847464084625244,XXXXX
98, 8162, 8170, 8150, 8139, 8165, 8159, 8173, 8174, 8170, 8195, 8165, 8145, 8146, 8162,2.291059970855713,XXXXX
99, 8169, 8169, 8164, 8150, 8171, 8162, 8177, 8186, 8191, 8212, 8173, 8158, 8126, 8162,2.2990400791168213,XXXXX
100, 8161, 8168, 8155, 8134, 8152, 8151, 8170, 8171, 8183, 8193, 8166, 8153, 8140, 8154,2.3083598613739014,XXXXX
101, 8154, 8160, 8143, 8131, 8152, 8155, 8171, 8173, 8186, 8195, 8174, 8139, 8125, 8149,2.314633369445801,XXXXX
102, 8165, 8165, 8162, 8158, 8169, 8162, 8180, 8190, 8198, 8220, 8191, 8154, 8124, 8161,2.32234525680542,XXXXX
103, 8184, 8180, 8172, 8165, 8169, 8165, 8189, 8201, 8208, 8228, 8194, 8172, 8139, 8180,2.3301970958709717,XXXXX
104, 8182, 8162, 8160, 8138, 8166, 8172, 8195, 8211, 8219, 8226, 8194, 8163, 8109, 8161,2.338081121444702,XXXXX
105, 8179, 8172, 8176, 8147, 8168, 8168, 8190, 8209, 8211, 8220, 8200, 8173, 8133, 8167,2.347039222717285,XXXXX
106, 8183, 8181, 8191, 8176, 8168, 8170, 8183, 8196, 8196, 8211, 8192, 8177, 8125, 8173,2.354823589324951,XXXXX
107, 8174, 8173, 8172, 8174, 8162, 8176, 8179, 8181, 8186, 8191, 8168, 8156, 8110, 8154,2.3625893592834473,XXXXX
108, 8158, 8182, 8165, 8170, 8168, 8173, 8176, 8166, 8176, 8173, 8156, 8147, 8124, 8144,2.3715622425079346,XXXXX
109, 8163, 8171, 8180, 8179, 8179, 8179, 8179, 8158, 8174, 8181, 8158, 8152, 8101, 8130,2.3773927688598633,XXXXX
110, 8175, 8181, 8178, 8178, 8170, 8189, 8179, 8157, 8170, 8191, 8164, 8162, 8126, 8152,2.3851141929626465,XXXXX
111, 8168, 8179, 8163, 8167, 8162, 8181, 8169, 8150, 8163, 8183, 8154, 8148, 8116, 8161,2.3944106101989746,XXXXX
112, 8158, 8150, 8154, 8162, 8160, 8163, 8151, 8146, 8158, 8162, 8131, 8134, 8098, 8134,2.4022305011749268,XXXXX
113, 8156, 8155, 8151, 8157, 8158, 8164, 8151, 8164, 8164, 8162, 8124, 8143, 8129, 8141,2.410179615020752,XXXXX
114, 8164, 8156, 8146, 8154, 8162, 8175, 8172, 8176, 8181, 8188, 8142, 8137, 8107, 8149,2.418057918548584,XXXXX
115, 8174, 8166, 8152, 8158, 8164, 8166, 8177, 8175, 8181, 8193, 8158, 8139, 8127, 8159,2.4260318279266357,XXXXX
116, 8185, 8169, 8164, 8162, 8169, 8168, 8171, 8194, 8178, 8190, 8161, 8157, 8137, 8166,2.4338817596435547,XXXXX
117, 8189, 8168, 8171, 8170, 8174, 8180, 8175, 8206, 8184, 8199, 8166, 8162, 8120, 8164,2.440168857574463,XXXXX
118, 8170, 8185, 8167, 8165, 8165, 8173, 8179, 8194, 8183, 8194, 8165, 8153, 8139, 8172,2.4481143951416016,XXXXX
119, 8161, 8174, 8157, 8154, 8163, 8169, 8182, 8200, 8186, 8189, 8158, 8146, 8114, 8155,2.4560911655426025,XXXXX
120, 8181, 8185, 8174, 8170, 8176, 8177, 8197, 8215, 8195, 8197, 8172, 8169, 8135, 8165,2.4640820026397705,XXXXX
121, 8198, 8201, 8198, 8189, 8188, 8186, 8209, 8216, 8199, 8204, 8192, 8180, 8150, 8184,2.473661422729492,XXXXX
122, 8194, 8187, 8197, 8194, 8184, 8182, 8199, 8205, 8195, 8200, 8184, 8167, 8130, 8170,2.4815866947174072,XXXXX
123, 8181, 8188, 8183, 8196, 8173, 8164, 8179, 8190, 8180, 8191, 8167, 8166, 8149, 8168,2.489645481109619,XXXXX
124, 8161, 8169, 8173, 8182, 8168, 8153, 8169, 8174, 8164, 8183, 8164, 8148, 8112, 8147,2.4960522651672363,XXXXX
125, 8151, 8168, 8169, 8172, 8168, 8152, 8168, 8168, 8154, 8172, 8157, 8139, 8116, 8139,2.503927707672119,XXXXX
126, 8171, 8192, 8173, 8199, 8184, 8162, 8172, 8175, 8164, 8182, 8157, 8156, 8141, 8166,2.5116257667541504,XXXXX
127, 8196, 8193, 8194, 8221, 8203, 8169, 8178, 8185, 8184, 8200, 8181, 8174, 8127, 8179,2.5194272994995117,XXXXX
240, 8190, 8195, 8202, 8201, 8194, 8158, 8177, 8181, 8183, 8192, 8187, 8184, 8145, 8183,2.527451515197754,XXXXX
0, 8172, 8179, 8180, 8184, 8178, 8153, 8169, 8176, 8171, 8179, 8161, 8169, 8119, 8161,2.535606861114502,XXXXX
1, 8176, 8179, 8178, 8194, 8181, 8154, 8168, 8176, 8158, 8176, 8154, 8165, 8120, 8158,2.5433671474456787,XXXXX
2, 8183, 8194, 8193, 8195, 8194, 8164, 8182, 8180, 8162, 8180, 8169, 8179, 8142, 8177,2.551157236099243,XXXXX
3, 8180, 8177, 8185, 8183, 8190, 8173, 8187, 8187, 8172, 8184, 8168, 8178, 8117, 8164,2.5605809688568115,XXXXX
4, 8180, 8179, 8175, 8194, 8173, 8160, 8169, 8180, 8156, 8171, 8155, 8172, 8129, 8166,2.5671143531799316,XXXXX
5, 8183, 8182, 8184, 8211, 8178, 8152, 8163, 8169, 8146, 8166, 8155, 8168, 8113, 8164,2.57483172416687,XXXXX
6, 8186, 8184, 8188, 8211, 8191, 8162, 8174, 8175, 8157, 8177, 8165, 8179, 8124, 8160,2.582785129547119,XXXXX
7, 8185, 8194, 8185, 8209, 8189, 8169, 8177, 8191, 8169, 8186, 8170, 8184, 8152, 8175,2.590430974960327,XXXXX
8, 8172, 8177, 8177, 8201, 8176, 8152, 8164, 8178, 8167, 8178, 8164, 8162, 8113, 8153,2.5982513427734375,XXXXX
9, 8155, 8177, 8168, 8192, 8167, 8128, 8154, 8151, 8149, 8160, 8165, 8157, 8128, 8141,2.606088399887085,XXXXX
10, 8157, 8178, 8165, 8194, 8178, 8139, 8164, 8161, 8147, 8164, 8168, 8158, 8129, 8140,2.614125967025757,XXXXX
11, 8161, 8180, 8173, 8199, 8182, 8154, 8176, 8173, 8153, 8167, 8161, 8152, 8118, 8132,2.6223316192626953,XXXXX
12, 8161, 8197, 8184, 8205, 8183, 8149, 8181, 8168, 8157, 8165, 8168, 8163, 8136, 8148,2.630237340927124,XXXXX
13, 8163, 8179, 8185, 8208, 8192, 8150, 8177, 8176, 8171, 8183, 8185, 8170, 8116, 8148,2.6395773887634277,XXXXX
14, 8152, 8173, 8171, 8197, 8181, 8144, 8163, 8173, 8166, 8183, 8174, 8163, 8139, 8137,2.645832061767578,XXXXX
15, 8148, 8181, 8165, 8193, 8174, 8144, 8164, 8161, 8164, 8181, 8159, 8152, 8132, 8125,2.6535489559173584,XXXXX
16, 8164, 8190, 8188, 8209, 8191, 8157, 8184, 8174, 8182, 8196, 8176, 8169, 8118, 8144,2.6613733768463135,XXXXX
17, 8171, 8204, 8198, 8205, 8195, 8158, 8185, 8184, 8178, 8195, 8190, 8185, 8147, 8175,2.669158458709717,XXXXX
18, 8160, 8183, 8178, 8186, 8182, 8155, 8175, 8170, 8162, 8182, 8180, 8170, 8122, 8148,2.677022933959961,XXXXX
19, 8158, 8187, 8184, 8204, 8176, 8153, 8173, 8159, 8162, 8181, 8174, 8175, 8135, 8147,2.686293363571167,XXXXX
20, 8170, 8196, 8202, 8220, 8182, 8151, 8168, 8168, 8175, 8190, 8174, 8183, 8138, 8172,2.6942696571350098,XXXXX
21, 8178, 8186, 8196, 8205, 8179, 8150, 8167, 8176, 8170, 8188, 8174, 8182, 8127, 8165,2.702211618423462,XXXXX
22, 8184, 8204, 8205, 8208, 8171, 8155, 8171, 8176, 8162, 8186, 8184, 8195, 8157, 8178,2.7086076736450195,XXXXX
23, 8186, 8195, 8215, 8218, 8179, 8167, 8179, 8173, 8175, 8202, 8197, 8191, 8126, 8179,2.7165820598602295,XXXXX
24, 8170, 8183, 8187, 8206, 8187, 8168, 8182, 8164, 8167, 8188, 8188, 8177, 8128, 8161,2.7244222164154053,XXXXX
25, 8162, 8187, 8169, 8199, 8188, 8168, 8182, 8165, 8150, 8172, 8167, 8173, 8134, 8153,2.7324483394622803,XXXXX
26, 8178, 8180, 8186, 8206, 8188, 8168, 8173, 8168, 8157, 8183, 8165, 8181, 8113, 8153,2.74045729637146,XXXXX
27, 8176, 8180, 8190, 8192, 8179, 8156, 8159, 8158, 8161, 8178, 8169, 8188, 8148, 8163,2.748319625854492,XXXXX
28, 8158, 8171, 8173, 8183, 8183, 8158, 8166, 8167, 8161, 8179, 8165, 8178, 8145, 8150,2.7563159465789795,XXXXX
29, 8158, 8176, 8173, 8190, 8190, 8155, 8178, 8184, 8165, 8188, 8163, 8179, 8159, 8151,2.764143943786621,XXXXX
30, 8160, 8169, 8165, 8170, 8180, 8149, 8176, 8175, 8172, 8185, 8165, 8175, 8168, 8155,2.77219557762146,XXXXX
31, 8153, 8143, 8153, 8157, 8181, 8160, 8170, 8159, 8170, 8185, 8164, 8156, 8143, 8140,2.780087471008301,XXXXX
32, 8157, 8169, 8169, 8180, 8192, 8165, 8170, 8153, 8159, 8186, 8165, 8165, 8170, 8162,2.788045883178711,XXXXX
33, 8167, 8178, 8182, 8194, 8190, 8159, 8169, 8159, 8161, 8179, 8162, 8175, 8150, 8162,2.7959365844726562,XXXXX
34, 8171, 8170, 8182, 8189, 8186, 8157, 8164, 8170, 8168, 8169, 8161, 8182, 8147, 8153,2.803872585296631,XXXXX
35, 8173, 8180, 8183, 8184, 8192, 8164, 8170, 8176, 8175, 8175, 8168, 8187, 8162, 8171,2.811762809753418,XXXXX
36, 8166, 8168, 8174, 8170, 8185, 8163, 8182, 8174, 8174, 8183, 8167, 8172, 8129, 8156,2.8200039863586426,XXXXX
37, 8162, 8169, 8168, 8160, 8171, 8156, 8182, 8168, 8170, 8184, 8161, 8169, 8154, 8152,2.828012704849243,XXXXX
38, 8171, 8171, 8176, 8168, 8183, 8163, 8179, 8170, 8185, 8197, 8167, 8179, 8154, 8161,2.8360021114349365,XXXXX
39, 8181, 8178, 8182, 8176, 8197, 8166, 8178, 8163, 8190, 8198, 8173, 8192, 8150, 8168,2.842252016067505,XXXXX
40, 8182, 8191, 8178, 8170, 8192, 8166, 8181, 8149, 8175, 8178, 8167, 8190, 8153, 8170,2.850008726119995,XXXXX
41, 8170, 8171, 8170, 8160, 8180, 8172, 8187, 8157, 8166, 8169, 8153, 8168, 8123, 8140,2.8592581748962402,XXXXX
42, 8163, 8174, 8169, 8163, 8176, 8170, 8183, 8172, 8167, 8173, 8149, 8169, 8160, 8144,2.8670647144317627,XXXXX
43, 8164, 8172, 8173, 8169, 8186, 8168, 8180, 8180, 8182, 8188, 8159, 8172, 8160, 8157,2.874781847000122,XXXXX
44, 8162, 8152, 8168, 8160, 8183, 8164, 8181, 8175, 8185, 8185, 8154, 8154, 8139, 8145,2.8827412128448486,XXXXX
45, 8157, 8156, 8154, 8148, 8173, 8157, 8177, 8169, 8170, 8172, 8138, 8143, 8152, 8147,2.890498399734497,XXXXX
46, 8160, 8156, 8153, 8153, 8178, 8162, 8177, 8176, 8173, 8175, 8136, 8149, 8130, 8146,2.898437738418579,XXXXX
47, 8164, 8171, 8164, 8163, 8180, 8166, 8185, 8176, 8175, 8168, 8139, 8160, 8152, 8157,2.9066030979156494,XXXXX
48, 8164, 8170, 8160, 8163, 8180, 8174, 8193, 8168, 8167, 8165, 8137, 8146, 8149, 8157,2.914414882659912,XXXXX
49, 8163, 8159, 8151, 8155, 8178, 8172, 8184, 8165, 8161, 8170, 8137, 8135, 8137, 8146,2.9221980571746826,XXXXX
50, 8159, 8172, 8152, 8149, 8174, 8163, 8177, 8169, 8162, 8168, 8136, 8147, 8161, 8155,2.92997145652771,XXXXX
51, 8164, 8164, 8152, 8147, 8181, 8175, 8191, 8182, 8178, 8175, 8146, 8153, 8136, 8150,2.9376933574676514,XXXXX
52, 8166, 8165, 8158, 8150, 8177, 8173, 8189, 8176, 8178, 8172, 8156, 8157, 8158, 8158,2.9454240798950195,XXXXX
53, 8162, 8172, 8164, 8155, 8168, 8160, 8172, 8160, 8168, 8165, 8156, 8158, 8159, 8165,2.9531941413879395,XXXXX
54, 8159, 8161, 8162, 8150, 8169, 8164, 8170, 8161, 8165, 8167, 8154, 8155, 8127, 8145,2.961160898208618,XXXXX
55, 8148, 8168, 8158, 8140, 8170, 8166, 8174, 8167, 8164, 8167, 8145, 8158, 8155, 8144,2.970588445663452,XXXXX
56, 8133, 8152, 8146, 8136, 8165, 8164, 8176, 8160, 8171, 8161, 8130, 8139, 8136, 8126,2.977071762084961,XXXXX
57, 8124, 8148, 8135, 8141, 8158, 8160, 8175, 8151, 8164, 8157, 8128, 8123, 8136, 8114,2.9849743843078613,XXXXX
58, 8125, 8153, 8137, 8140, 8164, 8160, 8170, 8156, 8153, 8156, 8137, 8125, 8142, 8120,2.992795944213867,XXXXX
59, 8129, 8147, 8148, 8135, 8176, 8161, 8169, 8156, 8157, 8157, 8136, 8136, 8129, 8117,3.0007076263427734,XXXXX
60, 8135, 8166, 8152, 8146, 8169, 8164, 8177, 8154, 8157, 8157, 8131, 8150, 8161, 8136,3.0087642669677734,XXXXX
61, 8145, 8162, 8152, 8152, 8162, 8169, 8191, 8169, 8162, 8160, 8143, 8147, 8147, 8142,3.0167253017425537,XXXXX
62, 8160, 8165, 8171, 8149, 8168, 8168, 8196, 8185, 8180, 8169, 8170, 8165, 8159, 8153,3.024676561355591,XXXXX
63, 8161, 8174, 8177, 8146, 8171, 8166, 8194, 8186, 8189, 8185, 8177, 8177, 8171, 8158,3.032716989517212,XXXXX
64, 8141, 8150, 8154, 8142, 8164, 8163, 8189, 8181, 8174, 8183, 8160, 8152, 8132, 8123,3.0392062664031982,XXXXX
65, 8127, 8153, 8143, 8133, 8162, 8155, 8183, 8181, 8166, 8164, 8152, 8143, 8146, 8124,3.0471596717834473,XXXXX
66, 8133, 8150, 8148, 8124, 8167, 8157, 8178, 8179, 8177, 8172, 8161, 8145, 8136, 8134,3.055147647857666,XXXXX
67, 8144, 8153, 8155, 8133, 8163, 8153, 8175, 8167, 8170, 8179, 8173, 8150, 8146, 8132,3.06315279006958,XXXXX
68, 8139, 8169, 8155, 8143, 8159, 8146, 8181, 8163, 8156, 8164, 8173, 8151, 8159, 8131,3.0726585388183594,XXXXX
69, 8130, 8152, 8148, 8133, 8159, 8150, 8185, 8169, 8162, 8170, 8160, 8144, 8129, 8120,3.0791308879852295,XXXXX
70, 8132, 8151, 8148, 8128, 8151, 8152, 8177, 8173, 8171, 8184, 8164, 8153, 8163, 8136,3.087139844894409,XXXXX
71, 8140, 8155, 8153, 8138, 8154, 8153, 8169, 8174, 8175, 8183, 8172, 8151, 8154, 8137,3.0962328910827637,XXXXX
72, 8148, 8162, 8162, 8154, 8163, 8156, 8174, 8178, 8175, 8175, 8173, 8148, 8139, 8130,3.104154586791992,XXXXX
73, 8156, 8179, 8171, 8158, 8163, 8161, 8188, 8190, 8185, 8184, 8181, 8159, 8166, 8151,3.110325574874878,XXXXX
74, 8161, 8173, 8176, 8160, 8165, 8170, 8206, 8208, 8204, 8200, 8193, 8167, 8147, 8150,3.1197006702423096,XXXXX
75, 8169, 8187, 8190, 8177, 8174, 8181, 8218, 8218, 8209, 8202, 8201, 8179, 8170, 8162,3.1276397705078125,XXXXX
76, 8175, 8186, 8191, 8184, 8181, 8186, 8216, 8208, 8201, 8197, 8194, 8176, 8163, 8161,3.134124994277954,XXXXX
77, 8156, 8164, 8172, 8170, 8166, 8166, 8194, 8173, 8175, 8169, 8169, 8163, 8142, 8134,3.1420884132385254,XXXXX
78, 8142, 8164, 8168, 8155, 8149, 8148, 8177, 8150, 8157, 8154, 8160, 8167, 8164, 8141,3.151514768600464,XXXXX
79, 8161, 8161, 8184, 8160, 8164, 8161, 8187, 8176, 8180, 8184, 8176, 8173, 8151, 8149,3.159259557723999,XXXXX
80, 8166, 8168, 8185, 8168, 8172, 8161, 8185, 8196, 8187, 8185, 8175, 8174, 8167, 8155,3.165651559829712,XXXXX
81, 8138, 8159, 8161, 8151, 8154, 8145, 8165, 8182, 8175, 8163, 8153, 8150, 8150, 8139,3.173450231552124,XXXXX
82, 8132, 8145, 8146, 8133, 8146, 8149, 8167, 8171, 8175, 8165, 8151, 8128, 8132, 8119,3.181391716003418,XXXXX
83, 8152, 8163, 8162, 8142, 8157, 8163, 8183, 8170, 8174, 8170, 8159, 8144, 8170, 8144,3.1905181407928467,XXXXX
84, 8153, 8160, 8178, 8159, 8161, 8164, 8183, 8167, 8168, 8175, 8163, 8160, 8148, 8149,3.1970643997192383,XXXXX
85, 8143, 8169, 8178, 8161, 8149, 8144, 8172, 8156, 8159, 8176, 8161, 8158, 8153, 8141,3.205796480178833,XXXXX
86, 8141, 8174, 8174, 8156, 8147, 8136, 8169, 8153, 8160, 8170, 8161, 8152, 8152, 8140,3.2135825157165527,XXXXX
87, 8138, 8151, 8175, 8156, 8150, 8139, 8161, 8148, 8162, 8160, 8155, 8150, 8136, 8134,3.221332550048828,XXXXX
