COUNTER,F3,FC5,AF3,F7,T7,P7,O1,O2,P8,T8,F8,AF4,FC6,F4,Timestamp
41,8210,8182,8196,8190,8214,8165,8178,8165,8157,8203,8169,8173,8168,8151,0.0049977302551269
42,8199,8183,8190,8188,8205,8170,8189,8153,8157,8204,8171,8169,8167,8147,0.014000654220581
43,8206,8169,8183,8172,8187,8175,8161,8186,8128,8171,8179,8200,8192,8146,0.0210046768188476
44,8187,8158,8178,8174,8181,8157,8146,8153,8128,8163,8155,8159,8162,8121,0.0280051231384277
45,8204,8155,8181,8168,8176,8178,8148,8168,8138,8175,8173,8188,8171,8126,0.0365235805511474
46,8192,8140,8177,8163,8179,8163,8151,8156,8125,8181,8168,8183,8162,8131,0.0439424514770507
47,8181,8126,8175,8161,8174,8157,8140,8155,8105,8168,8153,8165,8158,8134,0.0519499778747558
48,8188,8116,8175,8144,8150,8179,8120,8190,8094,8146,8159,8185,8179,8119,0.0599510669708251
49,8163,8110,8167,8146,8145,8165,8114,8137,8096,8147,8143,8140,8143,8080,0.0684397220611572
50,8181,8112,8167,8154,8150,8174,8112,8150,8094,8145,8161,8173,8165,8089,0.0764470100402832
51,8183,8120,8170,8156,8164,8171,8125,8160,8113,8153,8163,8187,8175,8111,0.0844490528106689
52,8175,8116,8169,8149,8177,8164,8132,8143,8121,8156,8159,8163,8154,8115,0.0922167301177978
53,8193,8114,8169,8150,8182,8171,8135,8183,8108,8144,8178,8192,8181,8123,0.0992085933685302
54,8178,8123,8175,8171,8193,8159,8153,8167,8127,8160,8164,8166,8174,8123,0.1074757575988769
55,8190,8117,8172,8165,8182,8174,8138,8176,8122,8154,8166,8170,8177,8114,0.1152665615081787
56,8190,8115,8171,8159,8177,8169,8122,8172,8115,8141,8159,8166,8167,8095,0.1232814788818359
57,8181,8130,8181,8175,8178,8168,8132,8153,8139,8163,8157,8163,8162,8101,0.1310758590698242
58,8196,8127,8180,8171,8174,8183,8130,8180,8137,8174,8179,8203,8186,8116,0.1390411853790283
59,8178,8119,8188,8180,8204,8164,8145,8140,8147,8187,8164,8165,8151,8117,0.1474635601043701
60,8197,8123,8199,8194,8220,8181,8160,8165,8162,8196,8178,8192,8173,8146,0.1544950008392334
61,8201,8122,8186,8190,8207,8177,8147,8195,8150,8184,8180,8205,8190,8148,0.162492036819458
62,8181,8123,8181,8194,8209,8154,8144,8154,8145,8174,8161,8150,8150,8125,0.1704828739166259
63,8204,8123,8191,8191,8203,8177,8143,8180,8150,8171,8182,8188,8177,8128,0.1784789562225341
64,8180,8114,8180,8181,8196,8161,8142,8148,8168,8184,8157,8153,8151,8106,0.1864871978759765
65,8174,8113,8163,8177,8192,8163,8137,8141,8160,8171,8148,8134,8135,8100,0.1940116882324218
66,8188,8123,8162,8179,8191,8174,8137,8184,8137,8149,8173,8179,8180,8112,0.2020189762115478
67,8167,8128,8166,8185,8216,8158,8152,8157,8153,8166,8156,8143,8160,8099,0.2104833126068115
68,8193,8130,8178,8188,8214,8182,8149,8177,8167,8173,8168,8167,8166,8106,0.2178823947906494
68,8193,8130,8178,8188,8214,8182,8149,8177,8167,8173,8168,8167,8166,8106,0.2188825607299804
69,8199,8135,8186,8199,8203,8174,8167,8162,8163,8189,8176,8175,8167,8122,0.2248828411102295
69,8199,8135,8186,8199,8203,8174,8167,8162,8163,8189,8176,8175,8167,8122,0.2258827686309814
70,8205,8136,8190,8210,8221,8167,8187,8158,8157,8210,8184,8178,8174,8153,0.2333998680114746
71,8224,8137,8205,8210,8214,8175,8164,8186,8157,8202,8191,8210,8195,8163,0.2414000034332275
72,8200,8140,8208,8211,8207,8157,8174,8146,8186,8219,8172,8167,8154,8142,0.2493979930877685
73,8217,8132,8191,8198,8222,8184,8194,8181,8186,8220,8197,8195,8179,8160,0.2573983669281006
74,8204,8118,8179,8190,8227,8174,8183,8185,8162,8192,8176,8190,8179,8153,0.2653977870941162
75,8171,8101,8172,8188,8201,8155,8168,8145,8156,8182,8137,8135,8131,8114,0.27339768409729
76,8202,8091,8175,8179,8177,8187,8166,8180,8151,8184,8178,8181,8168,8116,0.2815608978271484
77,8205,8108,8179,8194,8210,8176,8193,8178,8165,8209,8195,8186,8182,8145,0.2885608673095703
78,8199,8115,8176,8196,8235,8170,8197,8188,8169,8211,8186,8180,8187,8155,0.2965610027313232
79,8184,8098,8169,8175,8214,8175,8182,8183,8156,8193,8172,8159,8175,8121,0.3045599460601806
80,8169,8101,8157,8167,8190,8172,8180,8167,8156,8197,8166,8140,8153,8105,0.3126249313354492
81,8183,8109,8149,8162,8185,8179,8179,8189,8145,8185,8174,8177,8169,8102,0.3198413848876953
81,8183,8109,8149,8162,8185,8179,8179,8189,8145,8185,8174,8177,8169,8102,0.3208475112915039
82,8166,8097,8150,8158,8200,8166,8185,8153,8148,8173,8152,8151,8146,8083,0.3278474807739258
83,8182,8093,8155,8149,8184,8183,8169,8164,8144,8179,8172,8175,8173,8103,0.3363754749298095
84,8176,8095,8150,8148,8166,8175,8153,8164,8121,8182,8179,8180,8181,8114,0.3447906970977783
85,8153,8094,8138,8151,8183,8163,8157,8148,8113,8164,8163,8141,8151,8107,0.3527908325195312
86,8189,8112,8153,8163,8192,8184,8165,8196,8119,8157,8188,8187,8193,8127,0.3596687316894531
86,8189,8112,8153,8163,8192,8184,8165,8196,8119,8157,8188,8187,8193,8127,0.3598799705505371
87,8188,8139,8177,8198,8217,8156,8189,8170,8151,8202,8180,8161,8177,8134,0.3668932914733886
87,8188,8139,8177,8198,8217,8156,8189,8170,8151,8202,8180,8161,8177,8134,0.3678858280181885
88,8202,8137,8188,8203,8234,8165,8191,8186,8170,8227,8189,8174,8179,8149,0.3748881816864013
88,8202,8137,8188,8203,8234,8165,8191,8186,8170,8227,8189,8174,8179,8149,0.3758859634399414
89,8199,8120,8179,8178,8218,8175,8188,8186,8175,8222,8184,8182,8177,8146,0.383059024810791
90,8178,8115,8166,8173,8203,8167,8193,8141,8178,8222,8161,8138,8148,8128,0.3913381099700928
91,8196,8112,8160,8177,8195,8181,8171,8183,8150,8187,8187,8182,8187,8124,0.3993382453918457
92,8166,8113,8157,8165,8218,8161,8161,8158,8145,8178,8169,8144,8158,8096,0.4074852466583252
93,8179,8110,8163,8151,8215,8180,8157,8156,8151,8181,8166,8148,8154,8092,0.4153585433959961
94,8204,8101,8171,8177,8193,8182,8160,8173,8151,8179,8179,8187,8178,8110,0.4235780239105224
95,8193,8113,8174,8207,8209,8158,8180,8148,8164,8190,8170,8159,8165,8132,0.430574893951416
96,8209,8114,8178,8182,8210,8183,8165,8199,8153,8176,8192,8193,8195,8136,0.4384481906890869
97,8184,8106,8178,8176,8215,8173,8161,8170,8157,8185,8165,8146,8154,8098,0.446483850479126
98,8197,8116,8185,8198,8221,8187,8175,8159,8168,8201,8168,8152,8154,8112,0.4549057483673095
99,8204,8119,8184,8188,8211,8187,8170,8179,8152,8190,8190,8204,8194,8134,0.4624505043029785
100,8178,8124,8179,8190,8225,8159,8171,8151,8155,8196,8166,8156,8160,8125,0.4708411693572998
101,8213,8130,8187,8200,8235,8194,8169,8197,8172,8197,8190,8200,8188,8136,0.4788458347320556
102,8196,8125,8180,8191,8230,8180,8180,8166,8192,8211,8179,8179,8175,8134,0.4864835739135742
103,8188,8130,8174,8176,8213,8173,8179,8159,8177,8213,8172,8156,8164,8139,0.4932577610015869
104,8208,8146,8185,8182,8215,8193,8168,8205,8162,8201,8195,8193,8190,8140,0.5014855861663818
105,8193,8148,8189,8198,8246,8181,8184,8145,8193,8219,8169,8147,8151,8126,0.5092682838439941
106,8215,8143,8190,8185,8238,8191,8179,8164,8183,8208,8194,8186,8184,8137,0.5174829959869385
107,8204,8153,8197,8189,8237,8162,8187,8174,8183,8205,8186,8173,8176,8132,0.5254709720611572
108,8209,8171,8216,8204,8252,8171,8205,8169,8216,8230,8180,8156,8152,8152,0.5335583686828613
109,8226,8166,8224,8209,8249,8197,8191,8194,8210,8221,8213,8209,8189,8179,0.5414609909057617
110,8196,8157,8211,8223,8248,8169,8189,8154,8204,8208,8176,8144,8155,8148,0.549483060836792
111,8225,8152,8206,8211,8223,8187,8184,8183,8193,8211,8188,8167,8173,8139,0.5575606822967529
112,8215,8147,8206,8199,8228,8174,8189,8171,8193,8237,8200,8181,8181,8153,0.5645229816436768
113,8200,8152,8215,8205,8251,8166,8201,8163,8217,8258,8187,8156,8168,8170,0.5725235939025879
114,8224,8156,8220,8205,8233,8188,8199,8203,8229,8254,8203,8201,8189,8171,0.5804746150970459
115,8193,8156,8203,8209,8238,8169,8213,8142,8237,8258,8174,8157,8139,8157,0.5885307788848877
116,8212,8157,8194,8189,8244,8190,8196,8169,8203,8225,8190,8185,8174,8174,0.5965244770050049
117,8208,8161,8193,8177,8224,8176,8177,8180,8175,8201,8183,8187,8186,8157,0.6045486927032471
118,8187,8154,8191,8206,8218,8162,8188,8144,8189,8222,8156,8143,8140,8132,0.6124811172485352
119,8202,8141,8185,8205,8213,8187,8181,8175,8179,8208,8187,8194,8173,8138,0.6195456981658936
120,8173,8135,8173,8188,8216,8158,8176,8147,8163,8185,8168,8151,8161,8128,0.6274809837341309
121,8194,8140,8182,8189,8212,8173,8154,8182,8154,8175,8175,8161,8173,8132,0.6354806423187256
122,8200,8157,8195,8187,8220,8180,8160,8181,8173,8193,8170,8170,8162,8133,0.6434803009033203
123,8181,8162,8193,8205,8239,8164,8191,8137,8199,8220,8160,8143,8146,8139,0.6514804363250732
124,8204,8144,8184,8229,8217,8178,8173,8187,8184,8201,8186,8193,8201,8149,0.65903639793396
125,8183,8143,8188,8231,8217,8160,8170,8157,8197,8211,8160,8151,8162,8132,0.6670348644256592
126,8196,8152,8197,8225,8243,8180,8180,8157,8202,8229,8180,8180,8166,8145,0.6754753589630127
127,8188,8132,8172,8218,8227,8170,8164,8170,8175,8210,8175,8184,8180,8139,0.6824800968170166
241,8164,8122,8163,8194,8181,8148,8137,8152,8151,8185,8151,8129,8145,8103,0.6904466152191162
0,8202,8142,8188,8186,8178,8185,8130,8184,8140,8170,8177,8186,8170,8109,0.6983761787414551
1,8192,8159,8199,8241,8237,8165,8177,8147,8180,8197,8164,8162,8156,8138,0.7064602375030518
2,8198,8155,8190,8253,8227,8170,8168,8171,8182,8191,8179,8173,8183,8150,0.7144649028778076
3,8197,8149,8182,8220,8195,8177,8137,8177,8160,8170,8170,8181,8178,8118,0.7224810123443604
4,8189,8165,8203,8242,8243,8166,8190,8132,8193,8210,8168,8161,8138,8137,0.7305018901824951
5,8228,8176,8221,8256,8259,8191,8204,8194,8195,8221,8212,8224,8196,8190,0.7386109828948975
6,8202,8176,8206,8246,8238,8162,8164,8171,8177,8208,8174,8171,8165,8151,0.7464802265167236
7,8202,8169,8196,8252,8230,8169,8163,8154,8183,8194,8174,8179,8155,8133,0.7534806728363037
8,8210,8154,8192,8253,8232,8174,8185,8171,8178,8175,8184,8211,8182,8151,0.7614710330963135
9,8183,8149,8184,8247,8240,8141,8169,8148,8165,8187,8162,8158,8157,8139,0.7694721221923828
10,8213,8151,8184,8239,8221,8177,8132,8191,8159,8184,8181,8198,8191,8132,0.777552604675293
11,8201,8155,8185,8239,8220,8176,8155,8157,8187,8195,8154,8171,8162,8119,0.785480260848999
12,8200,8151,8190,8220,8224,8175,8166,8152,8189,8195,8165,8173,8163,8132,0.7939481735229492
13,8220,8152,8184,8214,8211,8186,8148,8188,8170,8167,8182,8196,8190,8130,0.800945520401001
13,8220,8152,8184,8214,8211,8186,8148,8188,8170,8167,8182,8196,8190,8130,0.8019449710845947
14,8192,8172,8178,8249,8225,8168,8177,8143,8202,8192,8157,8142,8150,8117,0.8091068267822266
15,8201,8167,8190,8243,8231,8186,8179,8186,8208,8209,8191,8210,8189,8146,0.8164811134338379
16,8182,8159,8198,8224,8236,8162,8167,8183,8213,8221,8182,8202,8171,8144,0.8244552612304688
17,8189,8179,8199,8242,8241,8169,8176,8165,8242,8236,8182,8180,8157,8146,0.8325099945068359
18,8213,8169,8193,8235,8234,8190,8173,8193,8222,8217,8195,8214,8192,8157,0.8405916690826416
19,8174,8153,8187,8227,8234,8158,8172,8151,8198,8202,8159,8155,8152,8129,0.8485884666442871
20,8198,8172,8196,8235,8225,8183,8169,8173,8187,8191,8179,8193,8175,8126,0.856482744216919
21,8191,8174,8194,8228,8229,8166,8180,8163,8181,8189,8178,8197,8172,8142,0.8644812107086182
22,8168,8151,8185,8217,8227,8154,8178,8161,8176,8182,8171,8170,8159,8144,0.872481107711792
23,8191,8140,8184,8219,8213,8187,8171,8201,8180,8183,8183,8207,8182,8121,0.8805015087127686
24,8174,8148,8185,8233,8250,8166,8193,8138,8207,8208,8159,8165,8145,8115,0.8875017166137695
24,8174,8148,8185,8233,8250,8166,8193,8138,8207,8208,8159,8165,8145,8115,0.8885016441345215
25,8190,8148,8186,8224,8263,8182,8166,8164,8178,8174,8179,8201,8177,8136,0.8955056667327881
26,8178,8139,8183,8215,8225,8174,8132,8176,8161,8150,8168,8191,8172,8104,0.902961015701294
27,8174,8141,8194,8229,8205,8163,8157,8138,8198,8186,8169,8161,8148,8103,0.9110183715820312
28,8211,8157,8206,8245,8209,8178,8164,8187,8200,8199,8205,8227,8194,8158,0.9190270900726318
29,8184,8173,8207,8261,8237,8150,8157,8166,8214,8221,8175,8178,8161,8154,0.9274826049804688
30,8199,8163,8213,8253,8224,8179,8152,8169,8223,8231,8188,8194,8165,8142,0.9356281757354736
31,8197,8142,8202,8238,8204,8179,8156,8162,8201,8211,8187,8209,8170,8140,0.9436218738555908
32,8172,8143,8189,8243,8208,8158,8141,8136,8175,8184,8164,8163,8147,8122,0.9506218433380128
33,8197,8145,8191,8242,8186,8181,8115,8176,8142,8153,8189,8210,8177,8108,0.9586210250854492
34,8179,8139,8191,8244,8200,8153,8141,8141,8153,8175,8174,8184,8152,8113,0.966621160507202
35,8192,8137,8198,8241,8217,8172,8143,8176,8171,8189,8180,8199,8170,8139,0.9745490550994872
36,8192,8139,8205,8233,8198,8182,8130,8190,8185,8185,8174,8202,8171,8119,0.9818642139434814
36,8192,8139,8205,8233,8198,8182,8130,8190,8185,8185,8174,8202,8171,8119,0.9829096794128418
37,8179,8143,8209,8243,8199,8162,8159,8133,8209,8201,8167,8163,8137,8110,0.9900691509246826
38,8223,8143,8218,8245,8210,8183,8155,8188,8194,8198,8210,8227,8194,8146,0.9980690479278564
39,8203,8156,8222,8256,8213,8158,8149,8167,8193,8209,8183,8188,8169,8134,1.00603985786438
40,8211,8170,8224,8265,8191,8175,8164,8155,8199,8224,8184,8192,8161,8135,1.0146660804748535
41,8233,8165,8222,8255,8200,8185,8176,8172,8197,8230,8204,8234,8180,8158,1.0217769145965576
42,8211,8158,8220,8260,8242,8161,8184,8137,8203,8228,8186,8193,8145,8166,1.028777837753296
42,8211,8158,8220,8260,8242,8161,8184,8137,8203,8228,8186,8193,8145,8166,1.029776096343994
43,8229,8153,8219,8260,8220,8189,8142,8181,8165,8178,8202,8230,8189,8166,1.0374815464019775
44,8202,8144,8206,8260,8190,8170,8118,8158,8146,8172,8179,8197,8178,8126,1.045245885848999
45,8196,8131,8197,8251,8199,8176,8137,8149,8166,8212,8186,8188,8165,8113,1.053483247756958
46,8200,8116,8194,8234,8209,8182,8149,8172,8154,8207,8199,8221,8186,8131,1.0613629817962646
47,8168,8117,8193,8241,8195,8153,8148,8145,8132,8181,8172,8185,8157,8126,1.068361520767212
48,8205,8130,8203,8249,8157,8186,8131,8188,8128,8167,8190,8226,8183,8119,1.076446294784546
49,8205,8144,8212,8265,8187,8173,8145,8157,8167,8201,8184,8200,8166,8126,1.0845553874969482
50,8207,8151,8230,8286,8230,8165,8156,8144,8195,8226,8204,8207,8166,8168,1.0925540924072266
51,8217,8139,8228,8276,8196,8177,8122,8195,8180,8193,8214,8247,8197,8158,1.100480318069458
52,8181,8127,8207,8261,8169,8155,8111,8153,8173,8176,8172,8173,8154,8104,1.1084446907043457
53,8204,8127,8202,8249,8164,8188,8108,8158,8137,8161,8189,8204,8172,8115,1.116061449050903
53,8204,8127,8202,8249,8164,8188,8108,8158,8137,8161,8189,8204,8172,8115,1.1170547008514404
54,8192,8124,8197,8246,8175,8172,8124,8147,8109,8155,8185,8199,8165,8128,1.1240534782409668
55,8189,8123,8197,8245,8172,8163,8125,8159,8124,8170,8187,8177,8160,8123,1.1324803829193115
56,8222,8135,8202,8237,8146,8187,8096,8194,8151,8184,8204,8220,8188,8125,1.1394801139831543
57,8196,8152,8210,8253,8172,8157,8113,8130,8183,8227,8185,8190,8151,8142,1.1477830410003662
58,8220,8150,8222,8259,8191,8177,8119,8171,8159,8231,8211,8231,8188,8175,1.1557860374450684
59,8212,8144,8211,8248,8164,8175,8112,8182,8136,8201,8193,8204,8176,8141,1.1634809970855713
60,8187,8146,8196,8239,8152,8170,8132,8138,8150,8192,8173,8158,8140,8115,1.1714746952056885
61,8212,8136,8193,8220,8163,8189,8135,8181,8139,8181,8199,8207,8184,8137,1.1797749996185305
62,8190,8138,8199,8231,8171,8155,8130,8161,8154,8195,8181,8162,8153,8119,1.1877827644348145
63,8208,8157,8216,8251,8160,8176,8118,8168,8176,8219,8198,8196,8171,8128,1.1957838535308838
64,8213,8162,8221,8250,8176,8172,8135,8170,8179,8239,8208,8221,8189,8166,1.2036960124969482
65,8200,8155,8216,8249,8196,8152,8142,8164,8185,8245,8197,8186,8162,8167,1.2106962203979492
66,8219,8139,8207,8240,8173,8180,8106,8202,8172,8220,8201,8213,8177,8138,1.2187013626098633
67,8186,8135,8201,8236,8180,8163,8131,8150,8178,8237,8176,8164,8151,8128,1.2264811992645264
68,8205,8137,8203,8226,8191,8180,8147,8171,8178,8227,8189,8184,8173,8147,1.2341439723968506
69,8216,8139,8202,8227,8164,8184,8127,8181,8180,8199,8179,8201,8170,8126,1.2420740127563477
70,8193,8148,8209,8244,8160,8181,8134,8123,8195,8215,8173,8172,8141,8121,1.2504827976226809
71,8210,8138,8204,8219,8192,8219,8117,8168,8154,8177,8209,8215,8188,8129,1.2584443092346191
72,8187,8138,8198,8214,8232,8197,8118,8152,8149,8172,8180,8171,8158,8106,1.2664802074432373
73,8220,8166,8230,8257,8210,8217,8147,8162,8186,8231,8198,8203,8167,8156,1.2744803428649902
74,8247,8171,8250,8270,8175,8219,8155,8193,8194,8249,8219,8237,8191,8199,1.281480312347412
75,8220,8165,8242,8259,8195,8186,8146,8158,8207,8241,8190,8175,8145,8178,1.289480686187744
76,8241,8166,8236,8249,8195,8219,8125,8181,8201,8231,8205,8224,8176,8183,1.2975823879241943
77,8220,8160,8227,8249,8195,8197,8124,8156,8197,8239,8184,8207,8170,8185,1.3055860996246338
78,8221,8143,8217,8235,8183,8197,8110,8167,8198,8209,8176,8188,8167,8165,1.3136324882507324
79,8223,8131,8199,8208,8157,8212,8108,8182,8198,8172,8179,8199,8170,8129,1.321481227874756
80,8184,8137,8187,8206,8188,8193,8151,8136,8200,8185,8157,8156,8141,8120,1.329519510269165
81,8214,8149,8201,8218,8203,8217,8152,8189,8168,8172,8178,8199,8178,8130,1.3370261192321775
82,8215,8158,8209,8234,8193,8193,8155,8167,8188,8181,8170,8174,8156,8118,1.3440256118774414
83,8224,8161,8216,8235,8194,8194,8164,8145,8212,8200,8184,8187,8160,8155,1.3520257472991943
84,8250,8172,8240,8240,8207,8206,8139,8179,8168,8190,8205,8248,8193,8191,1.3600261211395264
85,8240,8205,8261,8289,8241,8182,8133,8133,8154,8206,8184,8198,8146,8186,1.368075609207153
86,8261,8202,8247,8293,8223,8214,8129,8160,8152,8194,8200,8216,8169,8186,1.376025915145874
87,8217,8159,8213,8248,8187,8187,8128,8167,8160,8170,8175,8183,8164,8155,1.384026050567627
88,8203,8139,8204,8234,8190,8174,8121,8169,8181,8177,8168,8158,8150,8130,1.3920257091522217
89,8233,8143,8202,8234,8199,8202,8104,8198,8198,8197,8189,8198,8174,8128,1.400028944015503
90,8195,8144,8195,8234,8199,8179,8119,8138,8209,8198,8158,8156,8140,8122,1.4074814319610596
91,8208,8129,8197,8222,8174,8200,8108,8163,8159,8141,8176,8196,8169,8131,1.415480613708496
92,8208,8132,8195,8221,8174,8187,8099,8162,8129,8117,8181,8192,8171,8123,1.423858404159546
93,8210,8160,8210,8243,8183,8178,8115,8136,8140,8134,8175,8166,8154,8122,1.4308671951293943
94,8235,8171,8226,8250,8171,8197,8107,8171,8106,8121,8186,8211,8183,8129,1.4394798278808594
95,8213,8179,8231,8270,8195,8164,8116,8133,8089,8138,8169,8183,8150,8138,1.4474806785583496
96,8256,8197,8252,8298,8203,8196,8124,8161,8108,8174,8200,8235,8174,8189,1.455554723739624
97,8259,8199,8258,8308,8199,8195,8127,8173,8150,8206,8196,8241,8178,8206,1.4635536670684814
98,8229,8177,8236,8290,8218,8175,8116,8150,8174,8208,8172,8192,8153,8185,1.4715566635131836
99,8252,8157,8212,8263,8200,8192,8082,8192,8142,8157,8185,8216,8188,8163,1.478562355041504
100,8220,8157,8196,8269,8180,8167,8105,8155,8157,8163,8155,8160,8152,8124,1.4864749908447266
101,8219,8151,8189,8257,8187,8192,8127,8161,8181,8180,8169,8175,8159,8117,1.4941940307617188
102,8221,8151,8192,8250,8205,8187,8132,8167,8169,8158,8182,8192,8177,8130,1.5022072792053225
103,8206,8170,8204,8288,8214,8170,8145,8144,8163,8160,8166,8161,8150,8131,1.5104756355285645
104,8234,8182,8212,8300,8228,8205,8125,8179,8143,8149,8175,8209,8169,8118,1.5184440612792969
105,8211,8190,8214,8298,8268,8170,8129,8130,8136,8155,8160,8177,8148,8112,1.526925802230835
106,8228,8202,8223,8308,8252,8176,8131,8150,8130,8149,8182,8188,8173,8137,1.5339655876159668
106,8228,8202,8223,8308,8252,8176,8131,8150,8130,8149,8182,8188,8173,8137,1.5349650382995603
107,8244,8211,8229,8315,8235,8186,8131,8187,8159,8152,8190,8208,8182,8144,1.5413320064544678
108,8225,8215,8236,8321,8267,8165,8153,8159,8214,8198,8177,8179,8145,8167,1.5493693351745603
109,8249,8204,8235,8305,8240,8187,8133,8210,8197,8186,8192,8217,8182,8192,1.5574541091918943
110,8213,8187,8206,8287,8203,8169,8127,8172,8186,8172,8154,8165,8144,8138,1.5654540061950684
111,8206,8158,8174,8256,8205,8186,8140,8145,8193,8178,8159,8163,8138,8108,1.5734810829162598
112,8207,8125,8157,8219,8213,8187,8151,8174,8178,8166,8174,8193,8179,8109,1.5814802646636963
113,8173,8130,8165,8228,8224,8159,8166,8148,8183,8157,8150,8147,8155,8084,1.5894854068756104
114,8212,8157,8187,8248,8225,8197,8161,8168,8182,8145,8174,8197,8173,8089,1.5974974632263184
115,8209,8174,8198,8273,8261,8171,8179,8138,8184,8172,8169,8187,8155,8114,1.6040005683898926
116,8213,8183,8211,8294,8275,8173,8179,8148,8172,8187,8166,8185,8166,8153,1.611992359161377
117,8234,8186,8215,8287,8225,8199,8152,8191,8153,8169,8175,8207,8191,8157,1.62048077583313
118,8219,8198,8207,8304,8232,8177,8169,8152,8185,8185,8164,8152,8141,8132,1.628448486328125
119,8244,8193,8200,8298,8262,8194,8185,8187,8209,8185,8180,8196,8171,8151,1.6364850997924805
120,8211,8172,8186,8257,8261,8164,8197,8179,8203,8167,8150,8183,8174,8151,1.6443328857421875
121,8203,8174,8182,8254,8250,8170,8197,8166,8180,8148,8143,8153,8158,8122,1.6523277759552002
122,8237,8176,8184,8264,8235,8199,8197,8191,8177,8142,8167,8182,8167,8110,1.6604835987091064
123,8207,8171,8188,8263,8240,8169,8231,8142,8219,8187,8160,8153,8146,8134,1.6674859523773191
124,8229,8181,8214,8266,8235,8185,8212,8181,8203,8197,8183,8199,8198,8162,1.675485610961914
125,8228,8207,8225,8291,8239,8169,8186,8173,8189,8193,8170,8187,8181,8136,1.6834843158721924
126,8225,8212,8221,8299,8257,8170,8193,8135,8213,8212,8167,8166,8149,8143,1.6910364627838137
127,8247,8185,8217,8273,8259,8187,8176,8176,8186,8200,8194,8214,8193,8174,1.69903826713562
127,8247,8185,8217,8273,8259,8187,8176,8176,8186,8200,8194,8214,8193,8174,1.700031042098999
241,8209,8177,8210,8274,8240,8156,8162,8149,8173,8205,8164,8165,8163,8158,1.707040309906006
241,8209,8177,8210,8274,8240,8156,8162,8149,8173,8205,8164,8165,8163,8158,1.708069086074829
0,8227,8183,8209,8277,8191,8191,8156,8167,8189,8205,8170,8188,8169,8158,1.7150838375091553
0,8227,8183,8209,8277,8191,8191,8156,8167,8189,8205,8170,8188,8169,8158,1.716092586517334
1,8225,8180,8198,8256,8195,8180,8176,8175,8216,8200,8170,8192,8174,8160,1.723484754562378
2,8204,8174,8185,8238,8220,8163,8182,8172,8231,8189,8160,8157,8161,8145,1.7314844131469729
3,8215,8161,8173,8220,8186,8192,8156,8199,8203,8156,8168,8191,8177,8119,1.738456964492798
4,8183,8156,8170,8225,8186,8163,8172,8130,8183,8157,8146,8154,8136,8100,1.7464516162872314
5,8202,8158,8177,8222,8198,8179,8161,8159,8138,8125,8168,8180,8167,8120,1.7544856071472168
6,8200,8156,8177,8210,8169,8179,8128,8179,8103,8098,8159,8182,8176,8105,1.7624657154083252
7,8183,8144,8180,8209,8144,8167,8130,8124,8110,8125,8142,8142,8137,8088,1.7704601287841797
8,8209,8134,8179,8198,8144,8187,8128,8166,8105,8134,8184,8198,8181,8117,1.7784454822540283
9,8188,8154,8182,8220,8185,8154,8142,8159,8138,8159,8168,8169,8165,8126,1.786482334136963
10,8212,8171,8200,8238,8184,8178,8151,8167,8174,8174,8167,8176,8165,8137,1.793990135192871
11,8215,8165,8197,8210,8169,8181,8156,8175,8175,8169,8180,8196,8179,8148,1.800990104675293
12,8183,8161,8180,8201,8203,8155,8165,8153,8184,8175,8169,8160,8155,8139,1.8094804286956787
13,8211,8164,8179,8217,8197,8186,8143,8190,8190,8168,8175,8198,8177,8118,1.8174808025360107
14,8198,8187,8193,8237,8179,8166,8162,8148,8209,8182,8160,8169,8158,8126,1.825446367263794
15,8205,8193,8192,8221,8186,8171,8179,8163,8183,8156,8171,8167,8168,8153,1.833791732788086
16,8199,8162,8164,8201,8195,8176,8160,8193,8138,8106,8161,8169,8171,8112,1.841792583465576
17,8171,8153,8162,8214,8203,8163,8174,8134,8149,8124,8142,8130,8141,8085,1.849479913711548
18,8205,8169,8180,8209,8187,8189,8175,8165,8137,8141,8178,8182,8182,8116,1.85748028755188
19,8180,8175,8172,8209,8196,8157,8172,8156,8125,8148,8160,8149,8157,8103,1.8644804954528809
20,8180,8173,8169,8220,8199,8170,8182,8155,8146,8158,8154,8147,8150,8092,1.8724799156188965
21,8197,8165,8170,8207,8179,8186,8190,8176,8160,8151,8170,8188,8179,8109,1.880528688430786
22,8166,8157,8160,8204,8184,8152,8179,8144,8161,8156,8157,8151,8150,8109,1.8885200023651123
23,8185,8165,8158,8218,8186,8179,8140,8187,8150,8161,8174,8186,8174,8105,1.8964810371398928
24,8163,8170,8155,8231,8214,8169,8155,8155,8172,8178,8153,8162,8158,8095,1.9044809341430664
24,8163,8170,8155,8231,8214,8169,8155,8155,8172,8178,8153,8162,8158,8095,1.9050450325012207
25,8162,8158,8152,8216,8219,8172,8177,8137,8165,8162,8155,8147,8151,8101,1.912480592727661
26,8188,8164,8149,8188,8179,8179,8154,8185,8122,8125,8169,8175,8180,8096,1.920515775680542
27,8163,8188,8150,8211,8186,8152,8162,8146,8140,8157,8143,8128,8141,8070,1.9285173416137693
28,8186,8175,8150,8227,8206,8186,8179,8171,8141,8163,8172,8171,8170,8090,1.93648099899292
29,8170,8162,8147,8205,8216,8167,8196,8172,8129,8143,8168,8162,8176,8104,1.943480491638184
30,8155,8180,8153,8198,8215,8161,8194,8152,8139,8163,8145,8134,8150,8086,1.9514811038970947
31,8180,8175,8150,8199,8200,8189,8180,8168,8137,8175,8159,8174,8168,8077,1.959480047225952
32,8172,8176,8159,8220,8217,8159,8207,8142,8156,8191,8162,8145,8155,8100,1.967500925064087
33,8211,8205,8188,8234,8227,8179,8212,8198,8183,8205,8192,8188,8185,8148,1.9754962921142576
34,8194,8199,8183,8216,8216,8171,8197,8187,8203,8222,8181,8191,8169,8140,1.983494997024536
35,8163,8165,8158,8194,8210,8159,8185,8148,8193,8219,8164,8153,8147,8122,1.99149489402771
36,8187,8164,8154,8179,8213,8180,8174,8196,8157,8177,8169,8180,8182,8119,1.998494863510132
37,8165,8185,8149,8190,8225,8157,8198,8148,8160,8169,8139,8138,8135,8094,2.006474494934082
38,8179,8182,8141,8192,8208,8183,8203,8154,8154,8167,8159,8164,8155,8096,2.014583110809326
39,8177,8177,8141,8192,8215,8173,8210,8175,8154,8174,8163,8170,8183,8089,2.0225350856781006
40,8159,8174,8137,8188,8238,8149,8221,8145,8166,8168,8137,8132,8149,8068,2.0305335521698
41,8182,8165,8131,8163,8211,8175,8201,8175,8147,8144,8153,8179,8171,8081,2.0385704040527344
42,8160,8181,8144,8171,8209,8157,8214,8159,8188,8204,8155,8155,8163,8108,2.0465688705444336
43,8173,8180,8154,8155,8212,8177,8196,8186,8228,8237,8165,8162,8175,8116,2.05456805229187
44,8168,8156,8131,8121,8194,8172,8152,8194,8210,8196,8149,8154,8165,8073,2.0615780353546143
45,8154,8167,8130,8154,8203,8156,8177,8148,8225,8205,8140,8119,8139,8066,2.0688304901123047
45,8154,8167,8130,8154,8203,8156,8177,8148,8225,8205,8140,8119,8139,8066,2.069832324981689
46,8185,8170,8144,8161,8209,8189,8203,8180,8233,8207,8172,8184,8187,8105,2.0768299102783203
46,8185,8170,8144,8161,8209,8189,8203,8180,8233,8207,8172,8184,8187,8105,2.077829360961914
47,8149,8153,8121,8120,8213,8157,8200,8153,8192,8171,8140,8150,8156,8080,2.0854804515838623
48,8153,8157,8112,8117,8200,8167,8170,8158,8123,8116,8135,8135,8144,8041,2.093481540679932
49,8174,8177,8141,8146,8188,8179,8173,8164,8118,8114,8158,8164,8162,8054,2.10148024559021
50,8162,8198,8159,8152,8211,8158,8209,8123,8174,8170,8154,8144,8146,8092,2.1094794273376465
51,8183,8184,8132,8127,8202,8177,8190,8174,8161,8164,8166,8176,8182,8086,2.117470979690552
52,8146,8156,8103,8117,8188,8154,8177,8160,8162,8147,8136,8128,8152,8027,2.125481605529785
52,8146,8156,8103,8117,8188,8154,8177,8160,8162,8147,8136,8128,8152,8027,2.1258554458618164
53,8149,8155,8111,8109,8170,8171,8184,8159,8203,8152,8140,8125,8147,8031,2.1324880123138428
54,8170,8161,8116,8097,8165,8173,8187,8198,8213,8156,8161,8169,8181,8071,2.140453815460205
55,8140,8155,8107,8103,8186,8141,8192,8163,8220,8175,8137,8122,8149,8067,2.148451566696167
56,8167,8155,8108,8101,8160,8185,8177,8180,8219,8167,8150,8146,8165,8058,2.156480550765991
57,8161,8170,8115,8121,8167,8171,8192,8149,8236,8186,8151,8142,8158,8067,2.164481401443481
58,8159,8172,8129,8139,8210,8162,8195,8148,8229,8179,8153,8143,8166,8087,2.1724729537963867
59,8169,8172,8134,8124,8201,8175,8167,8188,8190,8135,8154,8162,8180,8069,2.180481433868408
60,8132,8169,8120,8118,8180,8156,8170,8127,8182,8153,8128,8112,8131,8040,2.1884443759918213
61,8145,8140,8110,8089,8163,8181,8159,8148,8151,8145,8148,8158,8165,8052,2.1956844329833984
62,8127,8138,8109,8066,8157,8157,8145,8159,8133,8117,8140,8145,8170,8044,2.2036852836608887
63,8124,8152,8107,8088,8144,8158,8146,8152,8160,8130,8139,8122,8153,8037,2.2114808559417725
64,8145,8128,8102,8095,8141,8179,8152,8189,8181,8144,8156,8169,8180,8043,2.219480514526367
65,8108,8110,8091,8077,8179,8148,8166,8159,8201,8139,8134,8125,8152,8024,2.2277188301086426
66,8126,8119,8088,8050,8164,8173,8142,8183,8189,8095,8145,8143,8161,8002,2.235809803009033
67,8116,8120,8090,8042,8131,8164,8136,8165,8176,8084,8133,8139,8155,7993,2.243481159210205
68,8100,8123,8099,8067,8134,8159,8160,8145,8174,8102,8128,8120,8153,8015,2.2514820098876958
69,8131,8134,8102,8069,8129,8183,8153,8185,8162,8092,8151,8160,8180,8029,2.2588207721710205
69,8131,8134,8102,8069,8129,8183,8153,8185,8162,8092,8151,8160,8180,8029,2.259821653366089
70,8116,8142,8101,8067,8144,8149,8164,8138,8179,8116,8143,8129,8147,8029,2.2668228149414062
71,8139,8147,8114,8084,8158,8168,8168,8173,8171,8137,8166,8165,8178,8057,2.274481296539306
72,8131,8145,8113,8092,8147,8168,8153,8187,8154,8131,8153,8156,8173,8042,2.2824807167053223
73,8113,8137,8104,8078,8134,8165,8157,8141,8164,8125,8137,8117,8135,8028,2.2900116443634038
73,8113,8137,8104,8078,8134,8165,8157,8141,8164,8125,8137,8117,8135,8028,2.2910046577453613
74,8142,8137,8102,8046,8126,8189,8163,8178,8156,8110,8163,8173,8184,8051,2.298006057739258
75,8117,8155,8112,8069,8156,8155,8193,8163,8181,8138,8142,8139,8168,8047,2.3062756061553955
76,8130,8157,8124,8105,8166,8178,8209,8186,8218,8169,8150,8147,8164,8054,2.31429386138916
77,8126,8142,8112,8081,8155,8178,8203,8191,8230,8171,8157,8159,8174,8063,2.322307825088501
78,8100,8144,8105,8055,8161,8158,8200,8158,8231,8160,8143,8117,8160,8048,2.3294801712036133
79,8127,8151,8112,8055,8154,8193,8185,8197,8223,8154,8156,8147,8179,8038,2.337822198867798
80,8095,8147,8103,8065,8154,8172,8195,8160,8231,8177,8145,8122,8141,8031,2.345456600189209
81,8105,8135,8099,8054,8149,8176,8182,8168,8206,8165,8160,8137,8157,8040,2.353450059890747
82,8127,8145,8116,8052,8147,8176,8169,8192,8197,8150,8163,8151,8178,8037,2.361479997634888
83,8111,8168,8128,8088,8159,8162,8204,8149,8237,8187,8148,8117,8146,8041,2.369480609893799
84,8127,8149,8114,8085,8140,8190,8195,8180,8207,8172,8168,8157,8178,8052,2.377676248550415
85,8087,8119,8091,8053,8133,8163,8166,8159,8165,8134,8142,8115,8160,8017,2.3855576515197754
86,8095,8132,8101,8064,8138,8180,8168,8162,8178,8145,8147,8116,8154,8010,2.3924782276153564
87,8128,8158,8124,8100,8153,8190,8203,8189,8210,8181,8171,8164,8175,8049,2.400391101837158
88,8104,8158,8121,8091,8172,8155,8217,8162,8226,8201,8158,8134,8156,8060,2.4114272594451904
89,8121,8147,8111,8070,8146,8187,8178,8198,8210,8172,8167,8163,8183,8052,2.416428327560425
90,8110,8160,8119,8094,8148,8172,8190,8169,8243,8184,8158,8147,8161,8055,2.424428224563598
91,8107,8161,8122,8085,8164,8165,8188,8162,8256,8200,8161,8140,8161,8069,2.431934118270874
92,8099,8138,8105,8052,8138,8176,8152,8185,8207,8163,8159,8151,8186,8044,2.439938545227051
92,8099,8138,8105,8052,8138,8176,8152,8185,8207,8163,8159,8151,8186,8044,2.440934419631958
93,8076,8145,8108,8080,8142,8163,8190,8132,8217,8180,8143,8109,8146,8032,2.4479336738586426
94,8112,8155,8116,8077,8147,8185,8199,8171,8211,8180,8171,8150,8170,8063,2.4549355506896973
95,8084,8144,8096,8047,8141,8157,8173,8173,8181,8149,8153,8127,8163,8044,2.4629335403442383
96,8075,8146,8094,8056,8138,8168,8180,8157,8196,8160,8152,8119,8151,8036,2.4709343910217285
97,8102,8148,8101,8060,8114,8189,8183,8180,8203,8177,8170,8161,8176,8055,2.478935480117798
98,8074,8141,8091,8054,8113,8149,8171,8144,8191,8180,8145,8111,8151,8045,2.486933469772339
99,8094,8139,8094,8040,8121,8175,8141,8180,8167,8148,8161,8147,8177,8051,2.495481014251709
100,8081,8135,8101,8055,8123,8163,8132,8171,8173,8141,8156,8143,8165,8040,2.503474473953247
101,8072,8132,8104,8084,8125,8152,8133,8147,8185,8159,8150,8114,8143,8037,2.5114803314208984
102,8110,8149,8111,8072,8112,8180,8134,8178,8180,8161,8171,8159,8171,8056,2.517889976501465
102,8110,8149,8111,8072,8112,8180,8134,8178,8180,8161,8171,8159,8171,8056,2.518883466720581
103,8080,8162,8109,8071,8100,8158,8166,8136,8193,8169,8153,8128,8142,8054,2.5258898735046387
103,8080,8162,8109,8071,8100,8158,8166,8136,8193,8169,8153,8128,8142,8054,2.5268826484680176
104,8077,8139,8102,8075,8094,8170,8170,8165,8170,8128,8156,8140,8166,8047,2.53389573097229
104,8077,8139,8102,8075,8094,8170,8170,8165,8170,8128,8156,8140,8166,8047,2.5348997116088867
105,8072,8116,8095,8053,8116,8157,8166,8174,8152,8115,8146,8131,8170,8033,2.5424745082855225
106,8064,8124,8097,8035,8117,8152,8162,8149,8150,8152,8141,8109,8146,8033,2.550488233566284
107,8087,8126,8100,8043,8085,8176,8128,8186,8130,8146,8159,8152,8172,8028,2.5584869384765625
108,8065,8130,8103,8072,8104,8151,8132,8145,8153,8151,8146,8120,8143,8020,2.566272258758545
109,8081,8122,8097,8056,8093,8168,8125,8156,8140,8132,8158,8141,8156,8041,2.57448148727417
110,8069,8107,8077,8028,8073,8158,8094,8170,8091,8098,8145,8141,8162,8018,2.582483053207397
111,8054,8119,8079,8058,8112,8152,8092,8141,8112,8121,8130,8105,8141,7995,2.5897390842437744
112,8090,8119,8086,8058,8104,8182,8085,8164,8120,8122,8155,8147,8170,8008,2.59773850440979
113,8046,8091,8068,8023,8063,8140,8070,8125,8081,8088,8131,8104,8139,7986,2.6054811477661133
114,8042,8081,8064,8012,8050,8154,8048,8149,8047,8052,8132,8108,8151,7972,2.613483190536499
115,8066,8096,8073,8031,8071,8169,8058,8178,8077,8062,8143,8132,8168,7978,2.621645927429199
116,8054,8115,8086,8051,8090,8150,8089,8137,8119,8103,8137,8099,8135,7981,2.629645586013794
117,8069,8100,8083,8034,8073,8175,8072,8169,8082,8087,8154,8138,8162,7988,2.637480497360229
118,8041,8079,8061,8020,8079,8149,8068,8149,8060,8070,8135,8112,8149,7982,2.6454756259918213
119,8057,8091,8063,8002,8063,8161,8064,8154,8067,8065,8137,8111,8153,7981,2.65247654914856
120,8071,8101,8079,7999,8040,8169,8059,8168,8076,8064,8149,8137,8169,7978,2.660172462463379
120,8071,8101,8079,7999,8040,8169,8059,8168,8076,8064,8149,8137,8169,7978,2.661171197891236
121,8049,8094,8085,8038,8070,8143,8090,8130,8099,8093,8144,8121,8147,7994,2.668532371520996
122,8071,8088,8083,8037,8062,8170,8080,8184,8070,8082,8154,8154,8172,8008,2.676539897918701
123,8045,8101,8077,8008,8048,8152,8065,8162,8059,8076,8127,8101,8149,7977,2.684480667114258
124,8052,8108,8075,8016,8072,8161,8080,8130,8082,8087,8140,8106,8151,7984,2.6928517818450928
125,8067,8099,8057,8029,8093,8168,8077,8164,8080,8078,8155,8153,8181,8001,2.7008533477783203
126,8032,8102,8034,8026,8092,8142,8065,8145,8079,8074,8127,8091,8146,7972,2.708869218826294
127,8067,8117,8040,8039,8074,8175,8070,8170,8083,8073,8154,8116,8164,7978,2.716480493545532
241,8069,8135,8061,8075,8094,8158,8107,8154,8106,8107,8161,8128,8168,8016,2.723327398300171
0,8065,8126,8067,8077,8103,8158,8099,8155,8108,8129,8151,8118,8162,8027,2.7313857078552246
1,8083,8110,8052,8039,8066,8178,8071,8175,8086,8105,8152,8125,8166,8010,2.739475727081299
2,8058,8124,8043,8034,8065,8145,8100,8131,8096,8102,8143,8087,8139,8004,2.7474822998046875
3,8071,8117,8043,8047,8069,8164,8090,8175,8089,8084,8160,8121,8172,8000,2.75551438331604
4,8056,8097,8031,8049,8071,8155,8078,8161,8096,8081,8142,8101,8155,7969,2.763603448867798
5,8054,8103,8032,8054,8087,8156,8102,8134,8112,8101,8141,8088,8144,7983,2.7714648246765137
6,8075,8117,8041,8041,8087,8176,8100,8179,8095,8094,8160,8131,8183,8001,2.7784152030944824
7,8044,8121,8043,8039,8084,8153,8116,8142,8112,8115,8140,8086,8144,7979,2.786415100097656
8,8075,8124,8058,8064,8090,8179,8131,8167,8135,8133,8162,8118,8165,8015,2.794480800628662
9,8082,8129,8069,8088,8121,8162,8131,8179,8148,8140,8165,8132,8177,8042,2.802480459213257
10,8076,8140,8073,8085,8128,8151,8133,8151,8161,8154,8150,8112,8154,8036,2.8105831146240234
11,8102,8153,8076,8070,8108,8177,8121,8178,8135,8141,8166,8153,8181,8043,2.818593263626098
12,8071,8156,8073,8094,8120,8145,8112,8144,8109,8128,8156,8114,8154,8034,2.8264763355255127
13,8090,8145,8080,8102,8107,8167,8093,8154,8092,8116,8160,8124,8161,8026,2.834707021713257
14,8097,8142,8091,8093,8113,8167,8113,8157,8108,8133,8162,8139,8165,8042,2.8427093029022217
15,8084,8158,8096,8111,8146,8149,8143,8146,8139,8150,8166,8117,8148,8068,2.8504817485809326
16,8115,8164,8094,8113,8122,8176,8120,8189,8133,8124,8178,8148,8175,8056,2.8574819564819336
17,8101,8168,8102,8126,8126,8154,8138,8149,8159,8162,8158,8120,8153,8044,2.865473985671997
18,8124,8184,8117,8146,8156,8169,8166,8170,8175,8195,8175,8143,8170,8084,2.873892545700073
19,8124,8185,8106,8141,8154,8173,8159,8182,8159,8167,8169,8149,8169,8073,2.8809001445770264
20,8087,8169,8090,8130,8151,8159,8158,8125,8156,8157,8146,8102,8132,8045,2.8894803524017334
21,8104,8150,8083,8110,8132,8178,8143,8171,8126,8147,8170,8136,8173,8064,2.897480726242065
22,8078,8156,8078,8111,8125,8146,8149,8166,8121,8155,8155,8107,8158,8053,2.9054808616638184
23,8086,8166,8076,8109,8124,8161,8154,8155,8131,8153,8149,8117,8153,8041,2.9118099212646484
23,8086,8166,8076,8109,8124,8161,8154,8155,8131,8153,8149,8117,8153,8041,2.912816286087036
24,8104,8158,8076,8096,8128,8169,8149,8169,8128,8143,8159,8140,8174,8049,2.9198288917541504
24,8104,8158,8076,8096,8128,8169,8149,8169,8128,8143,8159,8140,8174,8049,2.9208216667175293
25,8082,8156,8080,8112,8132,8147,8152,8149,8149,8158,8152,8093,8148,8040,2.928443670272827
26,8107,8156,8077,8119,8105,8176,8135,8176,8148,8136,8161,8127,8167,8035,2.936831474304199
27,8092,8161,8080,8110,8128,8151,8155,8144,8158,8145,8153,8130,8161,8052,2.944481134414673
28,8098,8168,8098,8101,8140,8155,8157,8164,8155,8162,8168,8147,8170,8081,2.9524805545806885
29,8113,8160,8104,8109,8091,8168,8127,8190,8129,8137,8172,8165,8175,8069,2.960213661193848
30,8097,8168,8112,8144,8110,8143,8145,8129,8153,8146,8153,8123,8142,8073,2.968207597732544
31,8131,8188,8123,8141,8143,8172,8143,8179,8153,8154,8180,8161,8182,8109,2.9764811992645264
32,8108,8190,8118,8132,8126,8159,8126,8173,8141,8169,8170,8125,8162,8083,2.983480930328369
33,8101,8175,8114,8148,8117,8163,8134,8138,8154,8197,8171,8105,8144,8076,2.991480827331543
34,8119,8155,8099,8124,8123,8171,8139,8181,8156,8193,8191,8144,8181,8096,2.9994750022888184
35,8080,8149,8076,8092,8124,8138,8134,8167,8156,8179,8164,8086,8154,8071,3.0076019763946533
36,8108,8159,8091,8099,8115,8174,8126,8183,8149,8165,8168,8102,8168,8068,3.015594720840454
37,8107,8175,8110,8117,8133,8163,8149,8163,8167,8185,8165,8108,8165,8084,3.023600578308105
38,8091,8174,8101,8110,8139,8153,8144,8157,8171,8175,8159,8094,8154,8081,3.0316004753112797
39,8118,8181,8112,8115,8138,8176,8126,8192,8164,8151,8178,8127,8177,8075,3.039690971374512
40,8121,8212,8145,8163,8160,8150,8170,8145,8194,8203,8176,8108,8156,8107,3.0466909408569336
41,8147,8211,8151,8166,8141,8167,8176,8177,8176,8204,8187,8145,8176,8140,3.054848909378052
42,8126,8188,8132,8150,8143,8154,8151,8178,8159,8164,8165,8126,8161,8109,3.0618529319763184
42,8126,8188,8132,8150,8143,8154,8151,8178,8159,8164,8165,8126,8161,8109,3.062861680984497
43,8112,8184,8131,8163,8174,8151,8162,8145,8174,8167,8158,8092,8142,8095,3.0706675052642822
44,8131,8176,8130,8151,8154,8175,8163,8185,8148,8166,8183,8139,8179,8108,3.0785939693450928
45,8096,8170,8119,8136,8147,8144,8156,8157,8156,8172,8158,8102,8151,8092,3.0864815711975098
46,8119,8168,8123,8140,8152,8168,8141,8177,8184,8183,8156,8113,8159,8090,3.094682455062866
47,8125,8168,8126,8149,8171,8167,8162,8177,8190,8216,8162,8114,8168,8097,3.102682113647461
48,8103,8174,8122,8145,8195,8154,8193,8146,8196,8242,8160,8087,8157,8109,3.110692977905273
49,8119,8168,8113,8122,8164,8180,8174,8192,8186,8209,8168,8124,8186,8115,3.117720365524292
50,8088,8159,8106,8133,8151,8152,8177,8170,8190,8190,8146,8082,8160,8093,3.125481367111206
51,8109,8169,8121,8147,8167,8168,8179,8181,8190,8188,8157,8090,8166,8083,3.1337215900421143
52,8122,8179,8134,8131,8172,8172,8171,8174,8196,8196,8159,8107,8166,8078,3.140726327896118
52,8122,8179,8134,8131,8172,8172,8171,8174,8196,8196,8159,8107,8166,8078,3.141726493835449
53,8099,8163,8133,8128,8178,8152,8179,8132,8192,8202,8147,8088,8145,8088,3.1497273445129395
54,8121,8149,8126,8134,8170,8165,8158,8184,8140,8161,8168,8124,8185,8102,3.1574809551239014
55,8102,8171,8134,8149,8164,8139,8155,8163,8146,8167,8152,8089,8158,8085,3.165128469467163
56,8120,8185,8154,8154,8152,8169,8165,8155,8177,8192,8159,8103,8152,8099,3.173147201538086
57,8123,8168,8149,8150,8164,8179,8158,8171,8165,8180,8169,8121,8175,8120,3.1801464557647705
58,8090,8165,8137,8155,8183,8151,8152,8144,8159,8177,8153,8070,8150,8101,3.188445806503296
59,8123,8177,8143,8142,8153,8178,8139,8179,8159,8175,8166,8097,8167,8085,3.196481466293335
60,8120,8182,8151,8137,8153,8151,8160,8153,8174,8189,8164,8089,8155,8096,3.2044811248779297
61,8134,8178,8163,8143,8185,8154,8167,8159,8162,8192,8176,8108,8164,8136,3.212184190750122
62,8141,8175,8166,8139,8186,8168,8141,8193,8127,8176,8180,8127,8180,8134,3.220199584960937
63,8109,8184,8165,8147,8158,8151,8141,8154,8129,8184,8161,8086,8149,8106,3.2281713485717773
64,8143,8185,8174,8146,8124,8179,8137,8168,8133,8177,8182,8133,8175,8125,3.236195802688598
64,8143,8185,8174,8146,8124,8179,8137,8168,8133,8177,8182,8133,8175,8125,3.237187147140503
65,8135,8178,8175,8142,8150,8148,8149,8145,8135,8184,8175,8121,8165,8136,3.243482112884521
66,8133,8191,8184,8158,8180,8146,8154,8158,8131,8189,8184,8107,8166,8137,3.2515668869018555
67,8157,8215,8204,8180,8170,8171,8148,8195,8130,8195,8200,8145,8191,8143,3.259556770324707
68,8150,8236,8224,8209,8187,8151,8185,8149,8166,8244,8194,8133,8160,8172,3.2675821781158447
68,8150,8236,8224,8209,8187,8151,8185,8149,8166,8244,8194,8133,8160,8172,3.268582582473755
69,8182,8235,8237,8207,8179,8169,8186,8182,8164,8236,8214,8166,8188,8208,3.2755868434906006
70,8162,8226,8230,8203,8170,8149,8172,8176,8152,8218,8192,8138,8174,8182,3.283455610275269
71,8155,8217,8217,8213,8190,8157,8172,8148,8154,8231,8185,8129,8145,8160,3.2914812564849854
72,8172,8191,8201,8197,8176,8176,8163,8169,8138,8203,8204,8171,8173,8168,3.299503803253174
73,8137,8188,8203,8194,8157,8141,8165,8152,8156,8190,8186,8126,8161,8164,3.307503700256348
74,8158,8195,8211,8201,8147,8171,8147,8185,8165,8205,8189,8142,8177,8158,3.314481258392334
74,8158,8195,8211,8201,8147,8171,8147,8185,8165,8205,8189,8142,8177,8158,3.315119981765747
75,8153,8184,8202,8197,8167,8162,8149,8155,8135,8227,8182,8140,8161,8151,3.322613000869751
76,8144,8184,8210,8197,8176,8143,8159,8136,8103,8220,8181,8124,8152,8166,3.330608367919922
77,8174,8194,8222,8201,8159,8167,8155,8195,8115,8199,8194,8163,8190,8177,3.338797092437744
78,8163,8200,8231,8221,8181,8153,8181,8151,8170,8234,8180,8136,8160,8173,3.3468332290649414
78,8163,8200,8231,8221,8181,8153,8181,8151,8170,8234,8180,8136,8160,8173,3.346962213516236
79,8189,8198,8242,8215,8187,8171,8174,8161,8155,8224,8195,8161,8172,8192,3.3549013137817383
80,8176,8194,8228,8197,8177,8154,8138,8179,8133,8176,8193,8154,8175,8175,3.362579822540283
80,8176,8194,8228,8197,8177,8154,8138,8179,8133,8176,8193,8154,8175,8175,3.36311936378479
81,8160,8187,8222,8205,8175,8151,8131,8151,8171,8202,8189,8128,8150,8160,3.370133638381958
82,8186,8171,8226,8197,8162,8187,8139,8172,8164,8233,8210,8178,8182,8190,3.377474784851074
83,8150,8167,8217,8185,8158,8152,8144,8144,8146,8213,8191,8145,8167,8190,3.385481357574463
84,8165,8167,8214,8181,8141,8167,8118,8166,8151,8189,8195,8154,8174,8180,3.3934803009033203
84,8165,8167,8214,8181,8141,8167,8118,8166,8151,8189,8195,8154,8174,8180,3.393996000289917
85,8177,8171,8213,8181,8138,8167,8106,8168,8154,8211,8198,8174,8173,8172,3.4020066261291504
86,8153,8177,8207,8176,8161,8145,8120,8130,8140,8217,8184,8148,8153,8167,3.410006046295166
87,8166,8175,8201,8163,8138,8178,8097,8170,8105,8163,8192,8163,8175,8154,3.4177610874176025
88,8140,8178,8203,8173,8128,8160,8100,8141,8125,8174,8174,8122,8144,8137,3.4256293773651123
89,8158,8171,8204,8166,8153,8168,8110,8150,8133,8187,8181,8145,8166,8163,3.4338419437408447
90,8160,8152,8190,8140,8145,8167,8102,8175,8120,8161,8180,8160,8183,8158,3.440842866897583
91,8130,8152,8188,8141,8126,8150,8122,8139,8158,8182,8163,8115,8140,8131,3.448444604873657
92,8158,8159,8198,8147,8127,8178,8133,8176,8158,8179,8190,8157,8174,8148,3.456890106201172
93,8145,8168,8206,8167,8159,8150,8129,8162,8155,8162,8186,8140,8174,8155,3.464928150177002
94,8155,8171,8208,8173,8155,8167,8109,8152,8166,8180,8188,8140,8163,8154,3.472480773925781
95,8168,8158,8200,8150,8126,8180,8104,8166,8153,8197,8193,8160,8168,8153,3.479989528656006
96,8139,8148,8195,8152,8134,8144,8114,8145,8143,8184,8171,8119,8153,8149,3.4899845123291016
96,8139,8148,8195,8152,8134,8144,8114,8145,8143,8184,8171,8119,8153,8149,3.490985631942749
97,8150,8152,8187,8157,8130,8173,8082,8179,8118,8148,8177,8146,8179,8143,3.496682643890381
98,8117,8142,8165,8144,8134,8160,8081,8140,8113,8150,8166,8125,8156,8116,3.5046889781951904
99,8107,8111,8156,8122,8131,8163,8095,8140,8112,8135,8168,8111,8152,8102,3.5116889476776123
100,8123,8108,8163,8103,8110,8175,8093,8182,8108,8121,8175,8133,8172,8101,3.519695281982422
101,8108,8151,8185,8130,8141,8150,8120,8136,8139,8164,8172,8120,8147,8125,3.5276944637298584
102,8142,8182,8209,8164,8157,8178,8123,8172,8149,8158,8200,8175,8179,8159,3.5351996421813965
103,8130,8183,8211,8176,8150,8165,8128,8175,8181,8166,8185,8160,8172,8154,3.543201208114624
104,8129,8181,8202,8178,8164,8163,8139,8157,8213,8210,8183,8140,8167,8166,3.55120062828064
105,8151,8181,8192,8178,8174,8175,8120,8182,8182,8192,8201,8169,8192,8174,3.559199571609497
106,8123,8179,8193,8187,8177,8151,8118,8145,8159,8166,8174,8123,8150,8144,3.5672006607055664
107,8145,8171,8190,8175,8160,8182,8110,8165,8142,8148,8179,8143,8160,8133,3.57448148727417
108,8141,8168,8178,8169,8165,8165,8123,8150,8138,8149,8173,8140,8159,8138,3.5827338695526123
109,8133,8174,8184,8183,8163,8157,8141,8132,8139,8156,8168,8126,8147,8151,3.5907318592071533
110,8152,8169,8187,8174,8153,8177,8131,8179,8141,8148,8188,8176,8186,8155,3.5984444618225098
111,8130,8179,8184,8187,8190,8147,8156,8162,8196,8172,8184,8149,8168,8158,3.605846643447876
111,8130,8179,8184,8187,8190,8147,8156,8162,8196,8172,8184,8149,8168,8158,3.6068434715271
112,8160,8202,8198,8212,8195,8178,8164,8193,8223,8190,8200,8163,8177,8176,3.614845991134644
113,8159,8206,8204,8212,8184,8173,8154,8183,8202,8199,8192,8172,8173,8169,3.622480154037476
114,8148,8206,8206,8212,8178,8154,8164,8142,8190,8202,8176,8129,8151,8163,3.6299233436584473
115,8178,8205,8208,8210,8177,8179,8152,8168,8168,8173,8186,8102,8173,8169,3.6380114555358887
115,8178,8205,8208,8210,8177,8179,8152,8168,8168,8173,8186,8102,8173,8169,3.6390111446380615
116,8145,8197,8199,8208,8218,8154,8147,8127,8148,8158,8166,8046,8147,8160,3.645076751708984
116,8145,8197,8199,8208,8218,8154,8147,8127,8148,8158,8166,8046,8147,8160,3.646141767501831
117,8151,8176,8185,8189,8212,8169,8127,8155,8107,8122,8171,8087,8162,8157,3.6534810066223145
118,8149,8169,8174,8174,8184,8168,8110,8172,8104,8110,8169,8105,8167,8129,3.661482572555542
119,8127,8183,8172,8188,8189,8164,8125,8126,8146,8145,8160,8075,8139,8107,3.6695961952209473
120,8148,8177,8168,8180,8172,8190,8130,8162,8133,8132,8178,8122,8174,8123,3.677592277526856
121,8126,8172,8167,8172,8166,8153,8148,8161,8141,8127,8167,8093,8161,8118,3.685480356216431
122,8147,8183,8181,8177,8163,8171,8150,8178,8174,8153,8172,8101,8162,8113,3.6934871673583984
123,8166,8201,8200,8193,8170,8177,8147,8177,8189,8179,8176,8130,8173,8133,3.701481342315674
124,8146,8213,8212,8217,8213,8154,8151,8145,8185,8190,8171,8108,8156,8157,3.708522081375122
124,8146,8213,8212,8217,8213,8154,8151,8145,8185,8190,8171,8108,8156,8157,3.7095208168029785
125,8163,8202,8212,8208,8206,8182,8113,8183,8155,8154,8186,8144,8178,8156,3.716470003128052
126,8150,8197,8208,8211,8174,8156,8108,8142,8157,8149,8168,8127,8151,8144,3.7244873046875
127,8168,8207,8216,8223,8177,8164,8123,8147,8161,8160,8178,8137,8166,8168,3.732481241226196
241,8168,8196,8212,8206,8174,8169,8120,8179,8145,8143,8183,8141,8185,8159,3.740942478179932
0,8129,8171,8190,8185,8158,8147,8124,8134,8132,8138,8151,8088,8139,8117,3.74851131439209
1,8154,8162,8183,8169,8152,8174,8123,8179,8119,8126,8167,8129,8171,8128,3.756511211395264
2,8137,8174,8185,8175,8173,8159,8147,8181,8151,8143,8167,8117,8167,8127,3.764481067657471
3,8139,8176,8183,8174,8174,8172,8152,8164,8171,8168,8165,8111,8151,8113,3.7724804878234863
4,8160,8171,8184,8167,8169,8172,8140,8185,8155,8163,8171,8145,8177,8126,3.779597282409668
5,8145,8193,8205,8199,8186,8138,8164,8159,8176,8170,8164,8116,8161,8149,3.787508249282837
6,8173,8210,8213,8215,8175,8175,8154,8178,8176,8159,8184,8150,8176,8156,3.795481204986572
7,8154,8202,8201,8198,8180,8162,8132,8149,8149,8163,8177,8137,8166,8148,3.803745269775391
8,8154,8206,8214,8203,8189,8161,8116,8150,8145,8173,8184,8124,8167,8173,3.812099695205689
9,8187,8223,8230,8227,8177,8184,8101,8184,8164,8167,8200,8161,8182,8187,3.819114208221436
10,8162,8227,8222,8232,8192,8156,8115,8126,8180,8186,8175,8126,8149,8171,3.826480388641357
11,8160,8203,8195,8195,8187,8176,8117,8158,8138,8159,8177,8136,8178,8155,3.8344805240631104
12,8125,8175,8161,8166,8165,8168,8138,8169,8127,8134,8165,8108,8170,8106,3.8424813747406006
13,8108,8164,8152,8159,8160,8167,8170,8156,8162,8148,8156,8083,8147,8085,3.85073447227478
14,8130,8161,8158,8146,8150,8180,8171,8194,8150,8132,8163,8122,8174,8094,3.858783006668091
15,8106,8170,8165,8153,8132,8148,8161,8159,8149,8128,8149,8091,8147,8087,3.8667821884155273
16,8134,8179,8181,8162,8117,8179,8132,8171,8150,8126,8174,8124,8169,8110,3.874475479125977
17,8144,8196,8199,8184,8151,8165,8126,8162,8140,8125,8177,8138,8177,8141,3.8824808597564697
18,8143,8218,8215,8221,8186,8148,8114,8139,8129,8123,8168,8121,8160,8143,3.889538288116455
19,8178,8213,8220,8222,8166,8182,8077,8176,8102,8111,8186,8156,8181,8133,3.897538185119629
20,8160,8218,8224,8231,8180,8162,8091,8137,8123,8153,8179,8135,8160,8152,3.905482292175293
21,8175,8231,8229,8249,8201,8180,8096,8161,8136,8176,8189,8158,8179,8185,3.913480758666992
22,8167,8222,8214,8241,8188,8170,8093,8172,8130,8171,8174,8143,8169,8156,3.921480178833008
23,8143,8209,8189,8218,8168,8154,8133,8133,8141,8166,8155,8090,8140,8128,3.929605484008789
24,8152,8190,8157,8178,8138,8177,8145,8182,8124,8116,8165,8113,8178,8120,3.93769121170044
25,8108,8162,8135,8156,8141,8153,8142,8171,8133,8098,8135,8075,8155,8074,3.9457082748413086
26,8127,8160,8147,8160,8136,8180,8157,8175,8160,8116,8147,8095,8157,8073,3.953041315078736
27,8148,8195,8165,8173,8137,8180,8181,8184,8174,8141,8170,8129,8175,8118,3.96104907989502
28,8132,8218,8179,8197,8163,8151,8183,8158,8178,8159,8157,8104,8157,8134,3.9684438705444336
29,8165,8222,8197,8210,8165,8181,8145,8181,8156,8146,8170,8147,8181,8135,3.9764809608459473
30,8161,8241,8211,8234,8199,8165,8143,8141,8162,8173,8173,8144,8170,8162,3.984476327896118
31,8171,8249,8215,8253,8221,8175,8124,8158,8157,8188,8181,8146,8177,8190,3.992483377456665
32,8160,8230,8201,8240,8182,8175,8077,8174,8130,8169,8169,8141,8176,8150,4.000006437301636
32,8160,8230,8201,8240,8182,8175,8077,8174,8130,8169,8169,8141,8176,8150,4.000997543334961
33,8122,8214,8180,8223,8160,8154,8086,8120,8113,8167,8148,8097,8141,8119,4.007997512817383
33,8122,8214,8180,8223,8160,8154,8086,8120,8113,8167,8148,8097,8141,8119,4.0089967250823975
34,8143,8190,8157,8182,8149,8180,8104,8164,8063,8131,8165,8120,8169,8125,4.016480684280396
35,8117,8171,8135,8150,8137,8153,8129,8156,8060,8107,8143,8092,8151,8083,4.024041175842285
36,8113,8166,8127,8145,8125,8163,8159,8152,8089,8105,8136,8119,8149,8057,4.031552076339722
37,8127,8157,8133,8145,8130,8175,8179,8181,8088,8101,8149,8184,8180,8079,4.039587736129761
38,8112,8163,8145,8158,8144,8151,8188,8152,8104,8117,8144,8153,8154,8089,4.047596454620361
39,8149,8174,8155,8156,8126,8178,8157,8177,8124,8119,8165,8178,8171,8098,4.055501461029053
40,8145,8197,8174,8181,8149,8154,8163,8159,8150,8148,8165,8180,8167,8127,4.063501358032227
41,8152,8238,8199,8206,8171,8160,8165,8159,8151,8164,8176,8183,8166,8161,4.07150149345398
42,8175,8244,8202,8189,8156,8180,8123,8182,8133,8152,8189,8203,8185,8156,4.079501390457153
43,8152,8231,8199,8221,8187,8148,8122,8139,8155,8175,8168,8156,8157,8148,4.087501049041748
44,8167,8226,8195,8238,8208,8173,8123,8183,8147,8163,8174,8180,8181,8156,4.095482349395752
45,8143,8213,8170,8171,8194,8166,8135,8173,8132,8134,8150,8157,8163,8113,4.102684736251831
46,8125,8176,8143,8129,8162,8169,8168,8141,8127,8108,8133,8121,8133,8071,4.110475063323975
47,8137,8155,8129,8151,8143,8179,8188,8183,8106,8076,8146,8149,8169,8072,4.118761777877808
48,8120,8183,8142,8175,8194,8143,8222,8168,8126,8101,8138,8124,8163,8084,4.126092910766602
49,8159,8201,8160,8170,8215,8173,8227,8192,8141,8128,8164,8160,8181,8103,4.134613037109375
50,8147,8190,8156,8169,8174,8169,8210,8173,8133,8127,8161,8159,8168,8089,4.142481088638306
51,8132,8186,8164,8192,8155,8164,8188,8134,8139,8137,8152,8136,8145,8085,4.149761915206909
52,8170,8195,8183,8218,8178,8184,8174,8169,8141,8156,8185,8190,8181,8124,4.158759832382202
53,8157,8211,8190,8236,8216,8150,8195,8147,8145,8180,8182,8176,8166,8144,4.165801048278809
54,8179,8228,8191,8236,8216,8170,8175,8179,8146,8181,8182,8190,8177,8150,4.1731116771698
55,8170,8224,8180,8230,8211,8165,8166,8182,8179,8178,8170,8176,8164,8140,4.181128025054932
56,8135,8183,8150,8186,8209,8151,8203,8149,8187,8159,8148,8129,8144,8114,4.189474821090698
57,8147,8153,8119,8130,8168,8178,8201,8198,8135,8104,8152,8151,8181,8083,4.19748067855835
58,8121,8167,8114,8154,8133,8155,8197,8164,8140,8103,8135,8116,8148,8059,4.205469608306885
59,8133,8167,8127,8167,8129,8178,8207,8157,8141,8112,8148,8137,8158,8081,4.21346926689148
60,8146,8159,8140,8148,8169,8176,8220,8173,8125,8113,8165,8167,8190,8099,4.221185922622681
60,8146,8159,8140,8148,8169,8176,8220,8173,8125,8113,8165,8167,8190,8099,4.22187066078186
61,8129,8179,8147,8164,8189,8151,8200,8142,8139,8133,8159,8136,8163,8093,4.229665040969849
62,8143,8186,8141,8170,8127,8178,8142,8157,8101,8093,8160,8155,8173,8089,4.236750841140747
63,8133,8189,8152,8181,8143,8159,8149,8133,8094,8109,8153,8143,8167,8107,4.244751691818237
64,8167,8207,8184,8187,8207,8173,8161,8173,8155,8180,8181,8174,8185,8150,4.252480745315552
65,8171,8204,8174,8181,8186,8178,8142,8195,8203,8190,8179,8171,8175,8127,4.260474920272827
66,8129,8179,8143,8193,8150,8156,8162,8138,8202,8158,8148,8113,8139,8089,4.2684855461120605
67,8146,8163,8135,8168,8129,8173,8183,8180,8148,8111,8167,8162,8184,8094,4.276487350463867
68,8119,8164,8128,8135,8132,8146,8192,8168,8118,8094,8148,8132,8154,8058,4.284481763839722
69,8112,8152,8111,8134,8124,8166,8183,8148,8102,8071,8135,8105,8130,8030,4.292505502700806
70,8120,8136,8107,8124,8105,8174,8174,8162,8073,8056,8145,8139,8171,8047,4.299501180648804
71,8100,8152,8121,8115,8119,8142,8171,8131,8065,8078,8139,8123,8164,8057,4.307539939880371
72,8130,8162,8124,8124,8122,8179,8138,8160,8052,8072,8158,8151,8175,8051,4.315480947494507
73,8121,8164,8125,8155,8128,8162,8138,8136,8071,8096,8157,8131,8161,8051,4.322932958602905
74,8137,8198,8157,8180,8153,8155,8145,8146,8106,8139,8176,8140,8179,8103,4.33092999458313
75,8159,8216,8178,8185,8172,8171,8127,8195,8130,8156,8190,8178,8196,8125,4.338924407958984
76,8115,8184,8154,8182,8167,8158,8155,8149,8175,8171,8153,8125,8137,8081,4.347702026367188
76,8115,8184,8154,8182,8167,8158,8155,8149,8175,8171,8153,8125,8137,8081,4.347867965698242
77,8121,8154,8119,8155,8123,8189,8181,8167,8159,8127,8155,8140,8157,8060,4.355472087860107
78,8102,8147,8107,8113,8110,8164,8193,8163,8118,8078,8142,8127,8165,8049,4.362468242645264
79,8097,8143,8113,8101,8100,8159,8188,8152,8106,8075,8136,8108,8154,8030,4.37048077583313
80,8133,8156,8120,8119,8085,8183,8186,8176,8104,8080,8157,8148,8170,8030,4.378444910049439
81,8121,8187,8127,8142,8117,8150,8209,8132,8113,8087,8148,8125,8151,8059,4.386252641677856
82,8139,8188,8138,8142,8126,8167,8177,8170,8083,8061,8161,8150,8188,8083,4.394244909286499
82,8139,8188,8138,8142,8126,8167,8177,8170,8083,8061,8161,8150,8188,8083,4.39517068862915
83,8135,8187,8145,8169,8136,8163,8141,8170,8075,8065,8158,8147,8180,8062,4.402182579040527
84,8147,8213,8161,8211,8168,8164,8150,8135,8107,8104,8159,8143,8154,8083,4.4108476638793945
85,8179,8220,8178,8196,8171,8178,8147,8175,8118,8122,8188,8194,8198,8136,4.418863773345947
86,8139,8210,8176,8186,8164,8142,8137,8153,8140,8143,8173,8151,8178,8116,4.424871206283569
86,8139,8210,8176,8186,8164,8142,8137,8153,8140,8143,8173,8151,8178,8116,4.425863027572632
87,8144,8197,8163,8184,8140,8174,8137,8163,8138,8127,8164,8154,8165,8079,4.433704853057861
88,8139,8179,8148,8136,8123,8173,8182,8155,8120,8096,8151,8151,8162,8075,4.44148063659668
89,8109,8154,8127,8104,8110,8155,8194,8144,8101,8067,8139,8116,8152,8067,4.449234485626221
90,8113,8129,8102,8107,8080,8175,8142,8184,8069,8025,8143,8138,8170,8024,4.457231760025024
91,8102,8141,8112,8117,8102,8150,8171,8135,8087,8046,8130,8108,8142,8016,4.465259075164795
92,8138,8160,8143,8115,8124,8170,8192,8159,8097,8068,8155,8135,8168,8065,4.473481893539429
93,8137,8165,8147,8138,8110,8167,8134,8176,8072,8045,8155,8139,8179,8053,4.48169469833374
94,8126,8186,8159,8161,8122,8159,8125,8125,8078,8057,8141,8109,8145,8042,4.489684343338013
95,8166,8190,8174,8136,8136,8182,8130,8161,8082,8077,8169,8167,8182,8085,4.496482849121094
96,8139,8166,8160,8141,8139,8141,8093,8150,8086,8099,8157,8139,8173,8076,4.504482984542847
97,8140,8159,8147,8155,8123,8160,8062,8155,8085,8112,8158,8131,8172,8061,4.512603521347046
98,8144,8164,8141,8134,8106,8169,8114,8167,8100,8121,8163,8152,8179,8074,4.520159721374512
99,8112,8149,8127,8116,8105,8140,8178,8150,8124,8122,8139,8112,8153,8058,4.528165817260742
100,8127,8129,8107,8087,8089,8169,8161,8194,8107,8077,8142,8130,8171,8021,4.53648042678833
101,8111,8138,8105,8093,8097,8158,8172,8154,8128,8080,8136,8114,8144,8006,4.544481515884399
102,8117,8143,8115,8107,8106,8164,8186,8152,8139,8096,8146,8130,8154,8030,4.552470207214356
103,8123,8139,8111,8080,8103,8163,8154,8182,8107,8078,8154,8150,8181,8028,4.559472560882568
104,8104,8149,8108,8070,8105,8145,8134,8132,8106,8091,8140,8105,8146,8006,4.5675599575042725
105,8134,8154,8113,8094,8103,8173,8110,8159,8106,8106,8157,8141,8175,8026,4.575597286224365
106,8116,8169,8122,8131,8142,8146,8101,8156,8124,8130,8149,8128,8172,8042,4.583572149276733
107,8123,8192,8133,8138,8151,8160,8085,8151,8143,8141,8154,8119,8156,8048,4.591572523117065
108,8145,8180,8128,8109,8121,8181,8088,8171,8141,8131,8162,8152,8179,8053,4.59957218170166
109,8109,8155,8107,8101,8141,8144,8139,8149,8151,8142,8134,8110,8165,8040,4.607570648193359
110,8117,8144,8087,8074,8130,8165,8154,8188,8140,8128,8144,8120,8174,8020,4.615570545196533
111,8093,8132,8073,8034,8105,8154,8169,8164,8152,8123,8134,8096,8145,7998,4.622575283050537
112,8090,8122,8072,8043,8119,8158,8195,8150,8169,8124,8133,8093,8152,8018,4.63057541847229
113,8118,8131,8087,8075,8126,8177,8195,8191,8151,8105,8157,8142,8194,8041,4.638083934783936
114,8096,8154,8110,8090,8125,8153,8194,8152,8162,8126,8146,8112,8153,8036,4.646081924438477
115,8125,8162,8125,8080,8118,8179,8179,8171,8177,8140,8157,8140,8167,8059,4.65408182144165
116,8130,8167,8124,8089,8138,8165,8186,8159,8177,8141,8155,8141,8173,8076,4.662081241607666
117,8127,8179,8128,8111,8165,8158,8194,8137,8172,8160,8158,8131,8162,8092,4.670480251312256
118,8141,8172,8127,8093,8165,8173,8161,8182,8163,8167,8170,8162,8188,8092,4.678444623947144
119,8111,8163,8116,8079,8172,8142,8152,8153,8196,8175,8141,8107,8162,8064,4.68610692024231
120,8124,8149,8100,8069,8147,8173,8157,8179,8199,8139,8138,8111,8170,8038,4.694475889205933
121,8098,8120,8071,8049,8111,8173,8174,8178,8174,8105,8124,8099,8152,7990,4.70149040222168
122,8079,8121,8053,8041,8108,8158,8203,8142,8178,8114,8119,8071,8130,7980,4.709488868713379
123,8115,8130,8056,8038,8116,8174,8216,8179,8181,8114,8145,8119,8172,8011,4.7174811363220215
124,8090,8127,8069,8031,8135,8144,8229,8156,8183,8122,8137,8094,8161,8022,4.725469589233398
125,8108,8138,8091,8013,8116,8165,8203,8180,8162,8112,8154,8117,8180,8041,4.733010292053223
126,8126,8160,8109,8045,8109,8167,8176,8182,8172,8122,8155,8139,8179,8043,4.741480588912964
127,8115,8160,8113,8101,8142,8158,8184,8135,8208,8160,8143,8113,8146,8037,4.749023199081421
127,8115,8160,8113,8101,8142,8158,8184,8135,8208,8160,8143,8113,8146,8037,4.750035285949707
241,8128,8149,8100,8086,8138,8176,8164,8173,8170,8148,8164,8148,8183,8042,4.75636625289917
0,8099,8154,8091,8060,8129,8139,8149,8154,8139,8141,8144,8115,8164,8024,4.764387369155884
1,8107,8147,8092,8060,8110,8166,8143,8166,8147,8133,8141,8121,8155,8010,4.7724769115448
2,8102,8128,8080,8049,8100,8175,8150,8180,8161,8115,8141,8135,8164,8003,4.780480623245239
3,8066,8127,8061,8042,8117,8151,8167,8150,8165,8099,8125,8090,8146,7991,4.788446187973023
4,8080,8113,8046,8026,8087,8178,8150,8181,8144,8066,8133,8110,8162,7959,4.796733617782593
5,8058,8097,8037,8009,8070,8149,8155,8137,8153,8078,8119,8087,8135,7936,4.804736137390137
6,8067,8099,8045,8010,8091,8151,8163,8141,8150,8080,8136,8110,8156,7971,4.812751531600952
7,8079,8102,8050,8016,8098,8161,8150,8177,8126,8062,8147,8133,8183,7973,4.819483757019043
8,8062,8116,8058,8024,8085,8147,8157,8137,8143,8085,8127,8088,8146,7956,4.827846050262451
9,8099,8135,8075,8024,8074,8173,8149,8168,8146,8086,8149,8135,8176,7989,4.835393905639648
10,8086,8137,8087,8048,8108,8148,8148,8157,8152,8091,8143,8132,8165,8002,4.843393325805664
11,8091,8134,8091,8056,8134,8162,8158,8154,8175,8112,8141,8133,8150,8004,4.851721048355103
12,8105,8131,8081,8025,8119,8175,8163,8175,8174,8109,8150,8152,8170,8008,4.859480619430542
12,8105,8131,8081,8025,8119,8175,8163,8175,8174,8109,8150,8152,8170,8008,4.860110759735107
13,8074,8135,8074,8029,8101,8143,8168,8143,8173,8097,8133,8102,8154,7996,4.867117643356323
13,8074,8135,8074,8029,8101,8143,8168,8143,8173,8097,8133,8102,8154,7996,4.868126630783081
14,8107,8146,8082,8046,8096,8172,8157,8184,8182,8091,8151,8138,8173,8004,4.875482082366943
15,8102,8150,8087,8051,8121,8156,8173,8162,8200,8126,8143,8133,8161,8019,4.883139610290527
15,8102,8150,8087,8051,8121,8156,8173,8162,8200,8126,8143,8133,8161,8019,4.884138584136963
16,8090,8135,8081,8045,8118,8152,8163,8151,8179,8131,8138,8109,8163,8018,4.890284776687622
17,8106,8134,8081,8038,8095,8171,8145,8189,8175,8112,8155,8134,8179,8003,4.898281812667847
18,8095,8158,8094,8066,8123,8152,8192,8144,8224,8149,8152,8116,8146,8021,4.906480312347412
19,8118,8149,8090,8062,8132,8170,8184,8174,8192,8135,8163,8148,8177,8049,4.914560317993164
20,8102,8147,8087,8035,8121,8151,8148,8177,8165,8105,8143,8137,8174,8026,4.921936750411987
20,8102,8147,8087,8035,8121,8151,8148,8177,8165,8105,8143,8137,8174,8026,4.922931671142578
21,8102,8176,8115,8061,8130,8157,8175,8153,8211,8142,8149,8143,8154,8036,4.929935216903687
22,8130,8184,8126,8099,8132,8179,8197,8182,8221,8160,8169,8187,8183,8080,4.938444375991821
23,8113,8179,8116,8097,8137,8148,8180,8146,8216,8146,8142,8136,8154,8068,4.946454286575317
24,8138,8175,8115,8070,8119,8176,8152,8154,8206,8124,8150,8155,8162,8048,4.95348072052002
24,8138,8175,8115,8070,8119,8176,8152,8154,8206,8124,8150,8155,8162,8048,4.953857898712158
25,8127,8168,8117,8074,8117,8161,8175,8153,8196,8130,8157,8162,8170,8053,4.9614808559417725
26,8108,8161,8109,8090,8128,8144,8185,8153,8191,8139,8152,8133,8163,8059,4.969077825546265
26,8108,8161,8109,8090,8128,8144,8185,8153,8191,8139,8152,8133,8163,8059,4.970072984695435
27,8124,8149,8100,8073,8111,8172,8147,8185,8176,8111,8155,8155,8177,8042,4.977071762084961
28,8092,8147,8103,8062,8120,8146,8156,8133,8184,8111,8137,8122,8148,8031,4.9850804805755615
29,8104,8155,8100,8065,8119,8164,8144,8165,8162,8096,8146,8143,8173,8043,4.993480920791626
30,8106,8157,8086,8078,8101,8160,8120,8176,8142,8091,8138,8144,8170,8022,5.001480579376221
31,8097,8156,8092,8083,8112,8145,8139,8135,8164,8122,8134,8118,8142,8018,5.009480714797974
32,8122,8153,8100,8063,8122,8164,8137,8179,8157,8112,8158,8155,8182,8035,5.017506122589111
33,8098,8161,8095,8073,8128,8144,8137,8155,8170,8120,8140,8114,8155,8010,5.0245091915130615
34,8123,8175,8110,8100,8125,8171,8160,8162,8198,8151,8157,8135,8161,8032,5.03248143196106
35,8135,8184,8123,8101,8143,8167,8179,8178,8198,8155,8168,8164,8179,8070,5.040537357330322
36,8103,8182,8115,8093,8152,8149,8165,8145,8179,8133,8147,8129,8148,8045,5.048444986343384
36,8103,8182,8115,8093,8152,8149,8165,8145,8179,8133,8147,8129,8148,8045,5.048900127410889
37,8125,8167,8106,8088,8128,8180,8148,8169,8166,8106,8157,8169,8172,8032,5.055907964706421
38,8111,8172,8112,8111,8158,8149,8189,8155,8197,8132,8154,8160,8163,8060,5.063915014266968
38,8111,8172,8112,8111,8158,8149,8189,8155,8197,8132,8154,8160,8163,8060,5.064907073974609
39,8113,8191,8117,8119,8177,8155,8197,8178,8211,8153,8160,8156,8169,8075,5.071990966796875
40,8123,8191,8113,8098,8149,8165,8186,8180,8209,8160,8155,8155,8173,8057,5.080833673477173
41,8118,8183,8125,8110,8157,8145,8218,8135,8228,8190,8153,8133,8144,8077,5.087833642959595
42,8145,8179,8138,8119,8154,8168,8207,8187,8197,8175,8176,8177,8173,8098,5.095480918884277
42,8145,8179,8138,8119,8154,8168,8207,8187,8197,8175,8176,8177,8173,8098,5.095845460891724
43,8125,8187,8138,8128,8149,8148,8200,8164,8187,8176,8156,8151,8164,8079,5.102881669998169
44,8150,8200,8146,8133,8167,8160,8220,8152,8227,8199,8165,8160,8167,8104,5.110886812210083
44,8150,8200,8146,8133,8167,8160,8220,8152,8227,8199,8165,8160,8167,8104,5.111883640289307
45,8168,8190,8148,8122,8174,8167,8219,8185,8238,8197,8178,8185,8176,8111,5.118894338607788
45,8168,8190,8148,8122,8174,8167,8219,8185,8238,8197,8178,8185,8176,8111,5.119892835617065
46,8124,8185,8143,8130,8182,8139,8213,8156,8237,8212,8155,8141,8143,8081,5.126894474029541
47,8151,8205,8157,8135,8178,8175,8212,8183,8241,8223,8177,8184,8173,8102,5.1355485916137695
48,8154,8211,8173,8151,8190,8161,8247,8162,8274,8241,8180,8184,8162,8134,5.143480539321899
49,8145,8185,8157,8157,8196,8153,8254,8151,8266,8230,8173,8163,8157,8136,5.14996075630188
50,8139,8167,8123,8128,8175,8163,8219,8181,8222,8194,8168,8163,8178,8101,5.157958030700684
50,8139,8167,8123,8128,8175,8163,8219,8181,8222,8194,8168,8163,8178,8101,5.158950328826904
51,8116,8186,8124,8138,8184,8142,8225,8143,8253,8208,8151,8128,8149,8080,5.166481971740723
52,8147,8187,8139,8145,8187,8170,8226,8169,8262,8205,8165,8164,8171,8100,5.17448091506958
53,8135,8176,8130,8122,8186,8154,8222,8160,8231,8196,8161,8150,8161,8100,5.182482004165649
54,8132,8186,8131,8131,8188,8150,8228,8146,8222,8194,8165,8140,8152,8109,5.190480470657349
55,8154,8186,8141,8151,8190,8159,8220,8179,8225,8170,8172,8176,8182,8119,5.198445796966553
56,8139,8189,8153,8163,8214,8134,8227,8147,8254,8201,8154,8151,8153,8117,5.20656156539917
57,8175,8207,8171,8170,8211,8169,8228,8174,8263,8238,8181,8190,8164,8148,5.2135748863220215
58,8167,8203,8175,8174,8202,8153,8230,8170,8267,8238,8181,8180,8167,8157,5.221519947052002
59,8154,8187,8165,8172,8203,8138,8227,8155,8279,8238,8164,8146,8160,8143,5.229524850845337
60,8190,8199,8165,8178,8201,8175,8218,8188,8288,8246,8179,8182,8181,8143,5.237481355667114
61,8167,8220,8178,8196,8221,8155,8246,8138,8303,8251,8170,8161,8153,8153,5.245483160018921
62,8168,8198,8169,8179,8214,8162,8230,8162,8262,8214,8175,8179,8174,8154,5.253480672836304
63,8156,8172,8145,8163,8197,8149,8201,8175,8227,8197,8160,8167,8167,8124,5.260964393615723
64,8140,8181,8145,8171,8208,8149,8209,8140,8243,8201,8152,8138,8144,8120,5.268959045410156
65,8165,8188,8153,8162,8195,8182,8199,8177,8226,8168,8170,8175,8182,8133,5.2774810791015625
66,8137,8183,8150,8167,8180,8150,8186,8149,8210,8170,8150,8135,8159,8107,5.284476041793823
67,8151,8173,8148,8165,8173,8168,8186,8156,8214,8177,8154,8145,8163,8098,5.292481184005737
68,8167,8176,8156,8146,8194,8169,8216,8172,8228,8185,8160,8173,8179,8123,5.30022406578064
69,8153,8196,8175,8160,8218,8147,8231,8165,8239,8212,8166,8158,8167,8147,5.308143615722656
70,8171,8193,8177,8180,8197,8172,8202,8198,8234,8207,8184,8173,8183,8143,5.3164825439453125
71,8160,8191,8171,8195,8203,8154,8217,8154,8259,8223,8168,8150,8161,8138,5.3244805335998535
72,8184,8203,8184,8192,8215,8165,8225,8165,8250,8241,8180,8183,8179,8164,5.332379817962647
73,8183,8192,8186,8173,8202,8170,8203,8186,8228,8223,8176,8184,8185,8146,5.340172052383423
74,8159,8184,8176,8172,8205,8157,8213,8147,8255,8221,8165,8140,8149,8119,5.347170829772949
75,8193,8196,8176,8170,8211,8172,8213,8183,8250,8227,8190,8190,8175,8146,5.355412483215332
76,8168,8197,8175,8172,8219,8142,8209,8173,8243,8236,8175,8166,8171,8152,5.363481521606445
77,8161,8185,8167,8163,8199,8166,8208,8171,8250,8217,8165,8145,8170,8134,5.371480703353882
78,8173,8180,8157,8141,8177,8175,8208,8174,8234,8202,8167,8158,8171,8124,5.379477500915527
79,8154,8186,8161,8139,8196,8143,8205,8147,8215,8214,8157,8137,8154,8125,5.387480974197388
80,8176,8184,8164,8137,8190,8176,8165,8191,8190,8175,8164,8165,8185,8118,5.395494222640991
81,8168,8186,8162,8140,8181,8159,8169,8162,8195,8161,8155,8148,8165,8101,5.403307914733887
82,8179,8194,8174,8150,8181,8159,8191,8159,8209,8192,8171,8162,8166,8126,5.410307884216309
83,8191,8187,8184,8150,8172,8183,8170,8203,8211,8199,8184,8187,8189,8143,5.418437957763672
84,8169,8193,8200,8167,8188,8170,8172,8166,8238,8216,8173,8159,8164,8133,5.426451444625855
85,8200,8203,8211,8170,8184,8186,8182,8187,8243,8229,8187,8198,8188,8152,5.433987855911255
85,8200,8203,8211,8170,8184,8186,8182,8187,8243,8229,8187,8198,8188,8152,5.434980154037476
86,8181,8196,8197,8165,8180,8166,8195,8183,8239,8233,8174,8178,8177,8155,5.442635774612427
87,8166,8195,8187,8175,8189,8174,8201,8174,8239,8234,8176,8163,8170,8147,5.450742959976196
88,8189,8201,8185,8174,8197,8182,8196,8192,8224,8222,8190,8189,8190,8144,5.458743333816528
89,8169,8196,8177,8172,8226,8146,8202,8161,8218,8222,8174,8148,8168,8138,5.46648097038269
90,8183,8187,8172,8164,8216,8177,8176,8193,8206,8199,8179,8162,8186,8140,5.474214553833008
91,8174,8207,8182,8181,8201,8175,8179,8177,8233,8219,8171,8163,8177,8135,5.481480598449707
92,8178,8227,8194,8210,8230,8168,8216,8163,8258,8266,8180,8175,8173,8158,5.489695072174072
93,8204,8218,8197,8199,8242,8175,8217,8214,8230,8259,8198,8211,8205,8178,5.497480869293213
94,8171,8216,8197,8185,8237,8150,8230,8178,8244,8274,8175,8166,8168,8164,5.50571870803833
95,8182,8211,8188,8172,8231,8183,8237,8182,8268,8285,8178,8177,8164,8163,5.513757944107056
96,8181,8197,8177,8160,8230,8172,8223,8184,8260,8277,8180,8179,8171,8165,5.521697521209717
97,8173,8197,8186,8168,8216,8154,8215,8169,8260,8273,8182,8165,8165,8171,5.529697179794312
98,8186,8196,8185,8162,8212,8179,8213,8192,8261,8251,8180,8187,8176,8160,5.53748083114624
99,8152,8190,8170,8155,8252,8153,8231,8151,8271,8260,8155,8146,8148,8142,5.544225692749023
100,8174,8190,8176,8155,8250,8172,8225,8174,8257,8265,8177,8165,8168,8157,5.552220582962036
101,8191,8202,8188,8170,8227,8175,8228,8183,8244,8257,8183,8181,8173,8158,5.560481071472168
102,8177,8214,8190,8190,8240,8160,8247,8150,8263,8260,8165,8152,8151,8160,5.568086624145508
103,8193,8205,8191,8180,8243,8184,8228,8197,8257,8251,8179,8172,8177,8172,5.576475143432617
104,8172,8202,8196,8178,8236,8164,8230,8166,8260,8267,8175,8154,8154,8160,5.584481239318848
105,8192,8205,8192,8176,8221,8172,8227,8153,8239,8268,8173,8168,8158,8164,5.592487335205078
106,8202,8200,8188,8165,8225,8169,8208,8179,8221,8254,8172,8179,8173,8171,5.600482940673828
107,8184,8212,8204,8176,8241,8159,8211,8162,8260,8265,8173,8154,8153,8164,5.608500242233276
108,8212,8222,8206,8180,8214,8192,8206,8179,8251,8261,8182,8181,8171,8159,5.615505456924439
109,8191,8219,8198,8195,8222,8162,8217,8157,8234,8274,8171,8164,8158,8167,5.623480796813965
110,8193,8216,8210,8209,8248,8165,8216,8180,8251,8281,8182,8181,8165,8194,5.630492687225342
111,8204,8218,8213,8204,8244,8179,8205,8203,8254,8272,8185,8197,8177,8186,5.639069557189941
112,8183,8213,8202,8207,8249,8158,8217,8151,8248,8266,8167,8154,8152,8161,5.64707612991333
113,8199,8200,8194,8195,8231,8175,8212,8178,8226,8228,8174,8178,8173,8165,5.6554811000823975
114,8174,8197,8189,8182,8220,8154,8206,8176,8220,8215,8164,8163,8165,8154,5.663901567459106
115,8173,8198,8180,8177,8218,8170,8184,8170,8207,8214,8159,8149,8155,8126,5.670480489730835
116,8191,8191,8178,8174,8186,8188,8168,8181,8194,8202,8158,8169,8167,8121,5.67892861366272
116,8191,8191,8178,8174,8186,8188,8168,8181,8194,8202,8158,8169,8167,8121,5.682939052581787
117,8176,8195,8195,8193,8198,8159,8186,8148,8202,8223,8157,8166,8157,8147,5.685936450958252
118,8204,8204,8210,8204,8237,8178,8171,8193,8193,8209,8184,8207,8182,8164,5.69393515586853
119,8199,8213,8220,8210,8234,8166,8185,8180,8234,8217,8179,8195,8171,8162,5.701934099197388
120,8208,8230,8244,8229,8200,8171,8235,8160,8281,8271,8185,8203,8171,8201,5.709936618804932
121,8231,8234,8256,8239,8213,8183,8230,8203,8251,8269,8202,8233,8194,8222,5.717936992645264
122,8193,8226,8244,8246,8254,8156,8197,8167,8231,8240,8184,8183,8161,8183,5.725937366485596
123,8202,8214,8236,8237,8227,8185,8179,8175,8232,8244,8194,8197,8176,8180,5.73444390296936
124,8204,8210,8238,8229,8213,8170,8200,8178,8244,8281,8199,8205,8181,8204,5.741443634033203
125,8203,8212,8241,8233,8218,8158,8205,8169,8246,8279,8200,8193,8173,8209,5.7494447231292725
126,8208,8198,8231,8216,8184,8182,8172,8187,8219,8248,8197,8198,8182,8186,5.757443428039551
127,8175,8183,8224,8203,8175,8158,8176,8142,8213,8254,8176,8166,8147,8162,5.76548171043396
241,8207,8197,8234,8210,8170,8180,8181,8167,8221,8238,8192,8202,8168,8180,5.773481369018555
0,8220,8227,8256,8235,8177,8177,8193,8178,8241,8247,8204,8218,8188,8209,5.7814812660217285
1,8205,8220,8269,8239,8205,8161,8212,8166,8246,8281,8210,8202,8178,8232,5.789474725723267
2,8211,8193,8256,8214,8205,8171,8184,8195,8222,8245,8213,8215,8191,8223,5.79770565032959
3,8186,8205,8254,8221,8196,8149,8175,8161,8233,8232,8199,8188,8171,8201,5.804707765579224
4,8209,8208,8262,8222,8174,8176,8178,8181,8230,8253,8210,8201,8178,8204,5.812724590301514
5,8208,8191,8255,8214,8175,8173,8183,8173,8214,8260,8204,8205,8168,8193,5.820365905761719
6,8190,8201,8261,8235,8187,8162,8192,8133,8219,8258,8191,8194,8151,8197,5.82848596572876
7,8212,8195,8258,8226,8168,8187,8163,8179,8190,8223,8194,8219,8179,8200,5.836015224456787
8,8191,8189,8243,8221,8168,8156,8157,8160,8189,8202,8179,8188,8161,8172,5.844481706619263
9,8201,8196,8242,8221,8157,8170,8168,8160,8199,8185,8181,8191,8167,8173,5.852480411529541
10,8195,8184,8237,8205,8145,8170,8147,8174,8168,8162,8174,8187,8174,8170,5.860007762908936
10,8195,8184,8237,8205,8145,8170,8147,8174,8168,8162,8174,8187,8174,8170,5.86106538772583
11,8168,8179,8235,8212,8175,8150,8126,8151,8156,8166,8169,8167,8154,8145,5.867018461227417
11,8168,8179,8235,8212,8175,8150,8126,8151,8156,8166,8169,8167,8154,8145,5.868028163909912
12,8193,8182,8238,8212,8166,8184,8123,8175,8163,8154,8184,8200,8174,8141,5.87530255317688
13,8175,8184,8241,8217,8148,8157,8149,8145,8179,8159,8175,8181,8162,8160,5.883301019668579
14,8183,8198,8251,8238,8152,8154,8134,8155,8163,8168,8184,8194,8165,8180,5.891480922698975
15,8193,8200,8250,8235,8137,8166,8105,8170,8138,8160,8185,8204,8166,8161,5.899479389190674
16,8168,8176,8242,8215,8142,8145,8117,8133,8145,8162,8166,8166,8148,8143,5.90748143196106
17,8186,8170,8233,8214,8167,8163,8107,8174,8130,8145,8178,8194,8179,8153,5.915547132492065
18,8173,8203,8239,8244,8180,8147,8114,8152,8133,8151,8181,8186,8165,8151,5.923466205596924
19,8185,8215,8253,8251,8168,8163,8140,8139,8151,8162,8186,8188,8161,8162,5.930476427078247
19,8185,8215,8253,8251,8168,8163,8140,8139,8151,8162,8186,8188,8161,8162,5.931982040405273
20,8203,8205,8245,8235,8173,8173,8149,8177,8154,8156,8186,8205,8176,8174,5.93844485282898
21,8185,8211,8240,8247,8207,8145,8157,8151,8167,8172,8180,8183,8156,8175,5.94648027420044
22,8212,8220,8256,8259,8214,8166,8151,8172,8162,8160,8192,8211,8179,8192,5.95458722114563
23,8201,8227,8267,8268,8212,8153,8157,8171,8177,8169,8186,8204,8172,8196,5.962585687637329
24,8202,8238,8266,8281,8201,8166,8177,8168,8212,8216,8192,8205,8166,8210,5.97059965133667
25,8222,8236,8269,8276,8203,8180,8195,8179,8216,8227,8198,8229,8187,8221,5.97868013381958
26,8190,8227,8275,8271,8238,8148,8204,8141,8208,8222,8183,8199,8163,8207,5.986481189727783
27,8196,8212,8259,8262,8213,8175,8180,8168,8185,8206,8187,8206,8165,8194,5.994503021240234
28,8184,8197,8239,8255,8183,8162,8189,8160,8188,8200,8176,8194,8160,8188,6.001502275466919
29,8175,8186,8237,8252,8199,8153,8195,8150,8195,8193,8170,8187,8158,8188,6.009390592575073
30,8188,8175,8233,8238,8204,8172,8155,8179,8175,8170,8175,8201,8164,8170,6.017632961273193
31,8168,8181,8226,8239,8226,8144,8154,8131,8184,8173,8165,8172,8143,8160,6.025624513626099
32,8191,8199,8232,8247,8220,8165,8161,8153,8179,8154,8167,8194,8167,8173,6.033638000488281
33,8186,8207,8234,8257,8190,8157,8159,8149,8166,8153,8160,8187,8155,8161,6.041481256484985
34,8170,8190,8219,8249,8197,8140,8169,8111,8170,8186,8160,8160,8129,8163,6.049479007720947
35,8195,8172,8204,8226,8215,8163,8168,8164,8167,8187,8173,8186,8163,8177,6.057478427886963
36,8180,8179,8213,8247,8225,8150,8177,8156,8195,8194,8162,8174,8152,8162,6.065480947494507
37,8194,8176,8220,8249,8198,8172,8166,8152,8191,8181,8169,8188,8150,8158,6.072086572647095
38,8194,8168,8221,8232,8183,8160,8152,8152,8167,8168,8171,8194,8161,8163,6.080100059509277
39,8184,8183,8228,8252,8204,8145,8159,8139,8193,8183,8169,8183,8159,8170,6.0881006717681885
40,8208,8187,8229,8257,8201,8177,8158,8168,8199,8168,8183,8208,8168,8176,6.096106290817261
41,8182,8187,8235,8258,8207,8151,8165,8144,8197,8163,8180,8196,8154,8183,6.103930473327637
42,8186,8181,8229,8258,8208,8164,8138,8157,8176,8158,8179,8202,8166,8177,6.1119384765625
43,8189,8166,8206,8238,8195,8169,8124,8150,8158,8156,8166,8195,8158,8149,6.12048077583313
44,8183,8188,8214,8247,8199,8151,8154,8119,8170,8171,8166,8185,8149,8169,6.128443717956543
45,8210,8209,8230,8260,8196,8172,8133,8165,8152,8142,8179,8215,8177,8183,6.135488510131836
46,8172,8194,8215,8244,8201,8144,8106,8138,8146,8125,8158,8178,8147,8138,6.143487453460693
47,8173,8183,8204,8227,8189,8156,8121,8135,8158,8144,8160,8180,8149,8134,6.151481866836548
48,8198,8191,8207,8239,8183,8164,8150,8166,8173,8171,8174,8205,8175,8168,6.159482717514038
49,8183,8195,8215,8254,8209,8144,8173,8152,8194,8191,8176,8190,8161,8175,6.167482137680054
50,8197,8193,8220,8236,8209,8171,8169,8179,8189,8170,8184,8205,8169,8156,6.175482034683228
51,8185,8198,8221,8240,8210,8155,8192,8145,8202,8175,8173,8186,8156,8153,6.183481216430664
52,8210,8210,8244,8263,8215,8159,8212,8151,8218,8206,8185,8208,8172,8203,6.191480398178101
53,8240,8232,8276,8286,8227,8160,8193,8190,8224,8224,8202,8250,8192,8246,6.198444128036499
54,8220,8253,8284,8318,8254,8146,8175,8146,8223,8241,8195,8228,8157,8237,6.206481218338013
55,8229,8244,8263,8314,8237,8174,8153,8156,8177,8211,8190,8232,8165,8222,6.214294195175171
56,8205,8231,8251,8298,8229,8145,8174,8147,8165,8192,8180,8217,8163,8218,6.22198224067688
57,8199,8222,8248,8284,8252,8150,8201,8158,8178,8181,8183,8214,8164,8216,6.22996997833252
58,8208,8207,8226,8262,8237,8165,8189,8189,8167,8153,8183,8218,8178,8193,6.23844575881958
59,8182,8211,8220,8268,8205,8135,8206,8158,8197,8189,8172,8191,8163,8173,6.24648118019104
60,8198,8211,8220,8262,8198,8163,8231,8181,8233,8223,8178,8216,8176,8181,6.253988742828369
61,8183,8195,8207,8241,8226,8154,8246,8172,8242,8207,8171,8203,8168,8180,6.26098895072937
62,8182,8193,8210,8251,8234,8159,8225,8167,8236,8184,8174,8192,8164,8176,6.269988775253296
63,8216,8206,8227,8276,8219,8179,8197,8183,8235,8191,8185,8227,8181,8187,6.277476072311401
64,8208,8213,8238,8285,8230,8145,8214,8135,8250,8228,8182,8220,8164,8210,6.285490274429321
65,8230,8209,8234,8281,8220,8161,8174,8167,8216,8199,8193,8223,8179,8219,6.293490648269653
66,8231,8223,8236,8281,8206,8152,8128,8171,8185,8170,8189,8214,8174,8204,6.301480770111084
67,8238,8232,8250,8271,8209,8152,8157,8143,8190,8196,8184,8218,8162,8221,6.309481382369995
68,8253,8214,8245,8269,8207,8173,8181,8172,8173,8187,8181,8231,8177,8234,6.317503452301025
69,8207,8205,8223,8297,8229,8139,8172,8150,8158,8165,8168,8187,8154,8199,6.325510501861572
70,8212,8204,8207,8273,8218,8158,8159,8162,8141,8145,8168,8195,8154,8181,6.332343101501465
71,8210,8191,8209,8231,8209,8158,8198,8167,8146,8140,8159,8199,8157,8179,6.340352773666382
72,8183,8179,8206,8237,8226,8152,8230,8164,8168,8145,8158,8179,8158,8166,6.34855318069458
73,8190,8174,8185,8215,8209,8180,8209,8197,8164,8151,8169,8189,8177,8143,6.356482267379761
74,8180,8194,8190,8211,8221,8158,8222,8157,8201,8203,8168,8176,8163,8159,6.364565134048462
75,8209,8216,8215,8256,8228,8168,8218,8172,8222,8211,8181,8198,8180,8201,6.372572422027588
76,8212,8209,8221,8274,8199,8165,8186,8186,8199,8188,8186,8203,8182,8193,6.3805482387542725
77,8203,8218,8239,8284,8229,8156,8196,8147,8212,8225,8189,8202,8164,8208,6.388438940048218
78,8244,8239,8260,8309,8285,8175,8209,8173,8217,8245,8201,8243,8189,8255,6.396481275558472
79,8217,8224,8241,8313,8273,8146,8198,8156,8190,8223,8184,8216,8171,8232,6.403585195541382
80,8203,8198,8212,8274,8218,8170,8176,8153,8153,8179,8172,8196,8160,8179,6.411580562591553
81,8205,8205,8204,8265,8226,8174,8198,8170,8157,8167,8167,8193,8167,8172,6.419873237609863
82,8186,8213,8194,8275,8248,8146,8241,8160,8181,8183,8160,8171,8154,8174,6.426880598068237
82,8186,8213,8194,8275,8248,8146,8241,8160,8181,8183,8160,8171,8154,8174,6.42787504196167
83,8200,8192,8173,8247,8216,8177,8232,8188,8165,8157,8164,8190,8163,8145,6.435878276824951
84,8188,8185,8174,8237,8220,8160,8243,8164,8187,8159,8162,8180,8152,8134,6.443479776382446
85,8201,8187,8183,8240,8231,8159,8251,8181,8223,8181,8174,8181,8166,8158,6.451481580734253
86,8205,8186,8180,8234,8209,8171,8225,8206,8219,8193,8176,8191,8175,8153,6.459480047225952
87,8188,8198,8190,8251,8215,8159,8224,8154,8217,8221,8168,8177,8153,8148,6.466556072235107
88,8222,8205,8201,8251,8211,8179,8210,8173,8188,8209,8182,8204,8176,8171,6.4748241901397705
89,8203,8211,8206,8248,8221,8155,8185,8161,8173,8200,8178,8196,8168,8169,6.481828212738037
89,8203,8211,8206,8248,8221,8155,8185,8161,8173,8200,8178,8196,8168,8169,6.482820510864258
90,8195,8216,8201,8261,8233,8165,8164,8145,8160,8192,8171,8189,8158,8159,6.490548610687256
91,8202,8192,8177,8239,8202,8179,8151,8166,8107,8151,8172,8199,8170,8151,6.498666763305664
92,8173,8175,8169,8224,8192,8155,8163,8149,8100,8142,8163,8184,8155,8132,6.506702661514282
93,8193,8175,8175,8223,8199,8187,8177,8190,8146,8151,8163,8201,8159,8121,6.513784408569336
93,8193,8175,8175,8223,8199,8187,8177,8190,8146,8151,8163,8201,8159,8121,6.514783143997192
94,8189,8179,8174,8215,8204,8172,8221,8185,8199,8169,8159,8188,8157,8122,6.522151947021484
95,8185,8186,8174,8199,8198,8166,8235,8168,8194,8164,8162,8184,8162,8126,6.529143571853638
96,8206,8185,8181,8184,8190,8185,8205,8194,8169,8154,8170,8208,8173,8119,6.537476778030396
97,8199,8194,8204,8221,8211,8157,8225,8168,8208,8199,8177,8198,8160,8141,6.5454699993133545
98,8223,8210,8223,8254,8204,8174,8227,8190,8220,8209,8189,8217,8178,8174,6.553471326828003
99,8223,8233,8227,8253,8197,8177,8204,8176,8216,8206,8180,8216,8175,8173,6.561467885971069
100,8225,8246,8235,8248,8209,8183,8200,8150,8217,8222,8178,8210,8166,8179,6.569076299667358
100,8225,8246,8235,8248,8209,8183,8200,8150,8217,8222,8178,8210,8166,8179,6.570075273513794
101,8237,8222,8231,8248,8223,8186,8192,8177,8172,8194,8184,8220,8178,8177,6.577730894088745
102,8205,8211,8220,8261,8235,8157,8205,8144,8146,8169,8173,8191,8156,8154,6.583743333816528
102,8205,8211,8220,8261,8235,8157,8205,8144,8146,8169,8173,8191,8156,8154,6.584732294082642
103,8219,8211,8208,8241,8205,8188,8211,8165,8153,8166,8174,8202,8169,8155,6.592730283737183
104,8212,8200,8199,8213,8198,8178,8225,8190,8190,8183,8172,8205,8179,8156,6.600464344024658
105,8194,8192,8205,8228,8213,8169,8248,8183,8229,8193,8170,8195,8160,8139,6.608833074569702
106,8210,8184,8202,8234,8188,8201,8238,8199,8224,8169,8171,8214,8167,8129,6.615844249725342
106,8210,8184,8202,8234,8188,8201,8238,8199,8224,8169,8171,8214,8167,8129,6.616833209991455
107,8190,8185,8201,8218,8188,8172,8229,8169,8221,8170,8164,8196,8161,8134,6.624475002288818
108,8209,8199,8219,8209,8203,8181,8215,8193,8205,8176,8173,8205,8178,8145,6.631491184234619
109,8210,8209,8226,8224,8197,8184,8214,8189,8188,8175,8171,8208,8175,8135,6.64048171043396
110,8195,8208,8217,8241,8190,8172,8218,8152,8182,8173,8167,8194,8152,8131,6.6474809646606445
111,8223,8214,8222,8235,8185,8191,8190,8189,8161,8149,8184,8216,8174,8152,6.655503749847412
112,8205,8220,8233,8231,8195,8167,8177,8167,8162,8153,8184,8208,8170,8160,6.663501739501953
113,8211,8208,8218,8213,8178,8182,8163,8158,8150,8153,8174,8209,8169,8142,6.671480655670166
114,8218,8192,8204,8205,8157,8180,8159,8164,8128,8141,8160,8206,8170,8120,6.679536104202271
115,8205,8191,8217,8206,8171,8160,8189,8155,8141,8152,8162,8197,8160,8132,6.687481164932251
116,8217,8191,8213,8172,8164,8186,8203,8199,8146,8142,8178,8218,8176,8139,6.695478677749634
117,8186,8184,8195,8176,8161,8173,8216,8178,8167,8155,8168,8191,8162,8117,6.703477144241333
118,8187,8167,8192,8205,8161,8182,8212,8173,8185,8166,8164,8179,8165,8120,6.7115561962127686
118,8187,8167,8192,8205,8161,8182,8212,8173,8185,8166,8164,8179,8165,8120,6.7121262550354
119,8191,8162,8190,8189,8157,8179,8184,8183,8181,8140,8165,8185,8170,8120,6.719506740570068
120,8166,8170,8187,8171,8162,8163,8170,8140,8176,8129,8156,8171,8149,8099,6.7265143394470215
121,8184,8158,8176,8161,8127,8183,8143,8161,8136,8107,8158,8187,8167,8093,6.734535455703735
122,8171,8164,8179,8174,8120,8152,8134,8154,8123,8095,8165,8181,8169,8092,6.74259352684021
123,8179,8188,8201,8192,8156,8167,8140,8153,8145,8103,8172,8192,8166,8100,6.750484228134155
124,8185,8171,8195,8157,8146,8188,8128,8163,8121,8102,8160,8196,8168,8099,6.7582688331604
125,8154,8152,8176,8149,8128,8154,8121,8133,8094,8112,8155,8163,8157,8088,6.766263008117676
126,8184,8168,8185,8192,8145,8175,8124,8173,8108,8115,8172,8185,8177,8092,6.774254560470581
126,8184,8168,8185,8192,8145,8175,8124,8173,8108,8115,8172,8185,8177,8092,6.774739980697632
127,8184,8187,8205,8204,8178,8173,8167,8163,8151,8136,8165,8188,8165,8099,6.781745433807373
127,8184,8187,8205,8204,8178,8173,8167,8163,8151,8136,8165,8188,8165,8099,6.782745361328125
241,8174,8177,8194,8171,8167,8166,8196,8152,8149,8137,8158,8181,8157,8107,6.788745880126953
241,8174,8177,8194,8171,8167,8166,8196,8152,8149,8137,8158,8181,8157,8107,6.789745807647705
0,8182,8167,8175,8156,8143,8172,8182,8192,8123,8112,8166,8196,8173,8100,6.796745538711548
0,8182,8167,8175,8156,8143,8172,8182,8192,8123,8112,8166,8196,8173,8100,6.797745943069458
1,8158,8176,8188,8177,8162,8157,8196,8160,8159,8138,8166,8176,8157,8092,6.805747270584106
2,8177,8174,8196,8174,8155,8183,8193,8167,8167,8140,8173,8186,8166,8100,6.813746452331543
3,8175,8164,8183,8168,8151,8164,8178,8165,8150,8124,8170,8184,8166,8095,6.821749687194824
4,8166,8166,8178,8176,8172,8158,8177,8147,8158,8144,8168,8177,8161,8091,6.828748464584351
4,8166,8166,8178,8176,8172,8158,8177,8147,8158,8144,8168,8177,8161,8091,6.829748392105103
5,8188,8175,8182,8184,8176,8184,8194,8172,8162,8165,8174,8204,8178,8094,6.836909294128418
6,8173,8186,8180,8196,8193,8157,8226,8155,8172,8175,8167,8192,8166,8096,6.84490966796875
7,8184,8187,8175,8188,8200,8173,8213,8180,8164,8154,8165,8199,8177,8096,6.853475570678711
8,8175,8189,8188,8194,8194,8175,8200,8187,8166,8161,8171,8200,8176,8095,6.860482215881348
9,8165,8189,8196,8210,8183,8173,8201,8162,8182,8190,8174,8186,8161,8102,6.868492364883423
10,8188,8170,8179,8191,8163,8193,8187,8179,8165,8165,8173,8200,8177,8099,6.876481533050537
11,8176,8175,8179,8190,8171,8164,8208,8157,8167,8150,8165,8189,8171,8096,6.884483337402344
12,8196,8180,8188,8188,8159,8177,8216,8181,8161,8133,8167,8199,8177,8105,6.892558336257935
13,8192,8158,8185,8168,8138,8178,8193,8192,8146,8111,8165,8196,8179,8086,6.900563955307007
14,8167,8161,8181,8169,8150,8171,8186,8161,8153,8120,8166,8176,8163,8066,6.908583641052246
15,8192,8177,8176,8165,8148,8201,8184,8186,8146,8122,8168,8194,8171,8072,6.915942430496216
16,8186,8174,8184,8163,8146,8175,8203,8167,8149,8130,8158,8191,8166,8089,6.923048257827759
17,8198,8173,8207,8169,8151,8184,8199,8189,8145,8124,8173,8206,8182,8111,6.93105673789978
18,8207,8196,8217,8186,8155,8190,8175,8208,8144,8129,8189,8221,8192,8121,6.939481019973755
19,8195,8215,8216,8206,8158,8170,8176,8169,8156,8160,8179,8204,8175,8127,6.947481393814087
20,8209,8194,8206,8186,8150,8191,8157,8201,8129,8137,8170,8206,8190,8121,6.955469846725464
21,8180,8172,8193,8167,8149,8176,8147,8188,8122,8117,8161,8188,8179,8097,6.963725328445435
22,8174,8167,8174,8155,8115,8186,8144,8171,8123,8107,8158,8182,8169,8078,6.9717936515808105
23,8169,8154,8154,8133,8097,8184,8137,8184,8106,8094,8158,8179,8177,8060,6.979482173919678
24,8146,8155,8161,8137,8135,8161,8158,8177,8127,8109,8164,8169,8174,8059,6.987539291381836
25,8177,8170,8178,8156,8138,8196,8179,8209,8148,8112,8174,8201,8184,8073,6.994438886642456
26,8163,8179,8176,8161,8138,8175,8200,8179,8159,8128,8166,8191,8169,8079,7.002481460571289
27,8161,8186,8176,8166,8164,8167,8207,8181,8165,8144,8176,8188,8172,8100,7.010536670684815
28,8188,8213,8197,8188,8177,8182,8205,8215,8183,8160,8187,8212,8184,8120,7.018642425537109
29,8180,8231,8215,8215,8185,8163,8220,8167,8215,8194,8179,8202,8164,8135,7.026546716690064
30,8205,8224,8216,8214,8189,8177,8211,8186,8203,8196,8188,8221,8183,8164,7.033968687057495
31,8197,8232,8218,8217,8196,8154,8205,8188,8198,8196,8189,8223,8182,8173,7.041982889175415
32,8194,8243,8217,8229,8200,8163,8214,8171,8215,8208,8182,8217,8164,8163,7.048974752426148
33,8203,8222,8208,8220,8216,8187,8232,8189,8211,8202,8181,8216,8174,8153,7.05748176574707
34,8175,8213,8209,8218,8239,8158,8261,8167,8222,8203,8178,8186,8168,8152,7.065481185913086
35,8201,8220,8209,8213,8204,8177,8250,8190,8226,8204,8184,8203,8177,8157,7.073503494262695
36,8201,8203,8193,8191,8181,8170,8246,8179,8223,8222,8177,8203,8174,8148,7.08153772354126
37,8200,8197,8197,8189,8212,8167,8267,8163,8233,8239,8176,8196,8172,8159,7.089531898498535
38,8242,8224,8223,8211,8226,8186,8266,8204,8235,8233,8188,8223,8193,8184,7.097475051879883
39,8275,8255,8245,8249,8244,8167,8281,8186,8260,8264,8197,8226,8182,8202,7.105487108230591
40,8340,8258,8245,8255,8250,8190,8278,8188,8269,8288,8206,8237,8183,8218,7.113487243652344
41,8349,8243,8236,8234,8240,8173,8256,8177,8255,8279,8201,8224,8177,8221,7.120481967926025
42,8343,8246,8243,8242,8248,8157,8238,8166,8245,8269,8199,8210,8170,8222,7.127902507781982
42,8343,8246,8243,8242,8248,8157,8238,8166,8245,8269,8199,8210,8170,8222,7.12889575958252
43,8358,8241,8233,8245,8235,8185,8212,8194,8219,8242,8193,8217,8182,8201,7.135922431945801
43,8358,8241,8233,8245,8235,8185,8212,8194,8219,8242,8193,8217,8182,8201,7.1369147300720215
44,8291,8213,8204,8224,8208,8163,8234,8161,8229,8238,8172,8181,8157,8156,7.14491868019104
45,8255,8182,8185,8185,8194,8178,8256,8191,8241,8225,8173,8179,8163,8138,7.1524810791015625
46,8244,8185,8190,8177,8210,8180,8262,8210,8253,8225,8178,8190,8176,8143,7.160480737686157
47,8227,8203,8196,8196,8219,8174,8277,8169,8271,8255,8175,8190,8165,8150,7.168445110321045
48,8233,8178,8174,8168,8179,8196,8253,8192,8227,8221,8169,8196,8168,8126,7.176951885223389
49,8205,8172,8171,8163,8186,8156,8242,8180,8210,8203,8167,8176,8157,8108,7.183481454849243
50,8227,8220,8207,8207,8225,8164,8252,8182,8242,8240,8190,8202,8175,8154,7.19148063659668
51,8243,8248,8227,8241,8232,8174,8253,8176,8243,8259,8196,8221,8177,8192,7.199526071548462
52,8217,8231,8219,8243,8229,8147,8230,8137,8213,8245,8185,8192,8155,8185,7.207524061203003
53,8234,8221,8216,8226,8219,8170,8190,8166,8186,8219,8187,8196,8174,8169,7.215660333633423
54,8220,8246,8226,8242,8238,8156,8212,8138,8222,8251,8185,8190,8162,8181,7.223669052124023
55,8223,8237,8221,8243,8233,8158,8236,8143,8245,8275,8180,8190,8154,8206,7.231610298156738
56,8226,8185,8192,8198,8198,8161,8232,8190,8235,8255,8169,8184,8162,8178,7.239145278930664
57,8195,8178,8178,8181,8210,8148,8267,8168,8265,8258,8164,8161,8147,8151,7.246144533157349
58,8211,8195,8182,8191,8215,8190,8282,8187,8262,8229,8165,8173,8159,8152,7.254343509674072
59,8203,8192,8184,8204,8224,8176,8281,8180,8254,8216,8159,8161,8159,8135,7.262789249420166
60,8210,8191,8188,8205,8248,8170,8292,8168,8276,8241,8165,8170,8157,8136,7.27080512046814
61,8231,8206,8205,8209,8252,8176,8295,8174,8276,8252,8176,8199,8164,8156,7.278444528579712
62,8219,8226,8227,8245,8274,8146,8303,8142,8286,8273,8181,8188,8158,8183,7.286480188369751
63,8249,8239,8231,8262,8282,8179,8276,8177,8269,8256,8186,8199,8173,8194,7.2945027351379395
64,8252,8260,8238,8273,8280,8174,8252,8172,8247,8245,8183,8207,8164,8187,7.302499294281006
65,8258,8269,8259,8297,8291,8166,8254,8147,8260,8278,8194,8224,8161,8215,7.310480833053589
66,8272,8251,8261,8293,8296,8177,8251,8169,8270,8300,8202,8234,8179,8237,7.317430019378662
67,8237,8252,8243,8287,8301,8144,8261,8150,8268,8298,8188,8200,8168,8213,7.32528829574585
68,8253,8251,8229,8283,8286,8166,8265,8174,8243,8267,8178,8205,8171,8188,7.333292007446289
69,8243,8226,8225,8267,8286,8156,8292,8177,8259,8266,8179,8206,8166,8193,7.341480731964111
70,8216,8209,8220,8249,8279,8155,8308,8176,8289,8271,8185,8199,8166,8197,7.349476337432861
71,8228,8209,8216,8228,8256,8193,8296,8207,8287,8248,8189,8209,8178,8179,7.357480764389038
72,8226,8214,8226,8235,8292,8178,8329,8182,8314,8275,8189,8204,8175,8193,7.365545749664307
73,8264,8214,8242,8244,8294,8201,8325,8218,8310,8273,8201,8230,8199,8211,7.373553276062012
74,8258,8227,8254,8226,8260,8188,8299,8218,8303,8257,8204,8235,8191,8196,7.380492925643921
75,8230,8241,8255,8226,8273,8163,8311,8185,8327,8296,8211,8237,8177,8215,7.388440132141113
76,8236,8228,8245,8254,8282,8171,8294,8213,8312,8302,8215,8252,8196,8236,7.396541595458984
77,8196,8215,8231,8265,8273,8136,8263,8174,8292,8284,8199,8220,8177,8211,7.404257774353027
78,8192,8208,8217,8231,8257,8150,8239,8164,8271,8273,8194,8213,8172,8194,7.412258625030518
79,8179,8201,8203,8221,8263,8132,8245,8161,8261,8272,8187,8204,8171,8196,7.420481443405151
80,8157,8204,8193,8236,8273,8112,8276,8147,8280,8266,8178,8176,8160,8188,7.428445100784302
81,8170,8194,8175,8199,8265,8140,8293,8179,8281,8239,8171,8173,8169,8164,7.436455965042114
82,8139,8172,8153,8178,8280,8114,8311,8151,8292,8237,8160,8158,8153,8150,7.444481372833252
83,8155,8167,8141,8186,8266,8136,8299,8162,8294,8234,8168,8175,8154,8165,7.451505184173584
84,8174,8192,8145,8195,8249,8140,8308,8170,8302,8253,8181,8194,8170,8186,7.459501981735229
85,8167,8218,8159,8220,8287,8120,8346,8150,8327,8290,8187,8190,8173,8208,7.467481136322021
86,8197,8207,8155,8239,8290,8150,8317,8179,8310,8270,8191,8203,8178,8206,7.475480794906616
87,8193,8207,8153,8254,8265,8131,8289,8144,8295,8275,8190,8193,8157,8207,7.48348069190979
87,8193,8207,8153,8254,8265,8131,8289,8144,8295,8275,8190,8193,8157,8207,7.484054088592529
88,8206,8218,8160,8258,8256,8135,8278,8149,8271,8277,8192,8202,8162,8228,7.492067337036133
89,8204,8216,8152,8251,8260,8139,8265,8163,8246,8250,8181,8202,8166,8211,7.499067306518555
90,8184,8217,8146,8255,8272,8146,8273,8128,8253,8258,8169,8179,8144,8181,7.507103204727173
91,8208,8202,8139,8231,8262,8184,8260,8156,8220,8241,8171,8188,8153,8173,7.514491319656372
92,8189,8183,8127,8205,8253,8154,8254,8144,8194,8215,8164,8173,8152,8161,7.5221052169799805
93,8193,8175,8122,8204,8245,8171,8255,8145,8205,8213,8165,8171,8156,8151,7.530104875564575
94,8193,8160,8108,8200,8236,8184,8248,8165,8218,8217,8168,8178,8164,8141,7.538444995880127
95,8157,8149,8092,8192,8227,8154,8236,8146,8228,8216,8161,8153,8147,8126,7.546482563018799
96,8173,8150,8090,8166,8201,8176,8213,8166,8215,8198,8156,8154,8151,8113,7.554406642913818
97,8155,8155,8098,8165,8231,8155,8243,8144,8234,8227,8165,8152,8150,8125,7.562009572982788
98,8166,8155,8104,8192,8257,8158,8249,8155,8252,8242,8179,8163,8163,8147,7.570024251937866
99,8198,8167,8107,8206,8239,8171,8218,8175,8245,8213,8174,8177,8171,8144,7.577022790908813
100,8180,8189,8124,8216,8252,8149,8244,8129,8250,8225,8165,8168,8149,8148,7.586056709289551
101,8199,8177,8131,8195,8240,8171,8251,8166,8219,8223,8173,8188,8166,8154,7.5938355922698975
102,8188,8156,8120,8194,8223,8158,8248,8180,8212,8204,8169,8178,8166,8136,7.600835800170898
102,8188,8156,8120,8194,8223,8158,8248,8180,8212,8204,8169,8178,8166,8136,7.601835489273071
103,8192,8170,8128,8219,8228,8168,8267,8161,8235,8213,8166,8175,8154,8140,7.608972787857056
103,8192,8170,8128,8219,8228,8168,8267,8161,8235,8213,8166,8175,8154,8140,7.609848737716675
104,8214,8174,8133,8188,8221,8183,8256,8173,8217,8211,8169,8194,8163,8152,7.617790460586548
105,8184,8155,8127,8161,8213,8149,8239,8148,8205,8190,8162,8171,8156,8138,7.625794172286987
106,8198,8152,8120,8187,8196,8172,8231,8165,8200,8184,8166,8176,8164,8133,7.633481502532959
107,8189,8157,8106,8190,8185,8162,8237,8150,8197,8208,8163,8174,8155,8127,7.640504837036133
108,8175,8141,8093,8149,8177,8156,8221,8138,8190,8187,8150,8152,8146,8099,7.648498773574829
109,8181,8114,8077,8135,8166,8176,8195,8174,8177,8137,8152,8153,8159,8066,7.656481266021728
110,8142,8101,8064,8141,8155,8150,8197,8137,8168,8144,8146,8136,8138,8049,7.664481163024902
111,8149,8092,8057,8096,8120,8173,8177,8137,8122,8115,8139,8142,8146,8037,7.672677993774414
112,8159,8089,8063,8089,8127,8163,8178,8148,8114,8093,8144,8150,8164,8036,7.68048095703125
113,8152,8091,8073,8133,8146,8148,8184,8149,8146,8114,8155,8145,8157,8056,7.688505887985229
114,8159,8101,8072,8121,8107,8176,8143,8174,8124,8095,8153,8147,8157,8043,7.696498394012451
115,8150,8138,8092,8120,8119,8162,8156,8135,8134,8117,8154,8142,8148,8039,7.704481840133667
116,8192,8153,8117,8159,8163,8178,8195,8152,8167,8161,8171,8173,8163,8089,7.711480617523193
117,8202,8147,8121,8169,8180,8168,8200,8174,8178,8171,8173,8186,8168,8108,7.719516038894653
118,8190,8160,8123,8169,8178,8161,8194,8145,8194,8187,8170,8166,8153,8091,7.727515935897827
119,8221,8161,8118,8174,8157,8186,8195,8161,8194,8183,8174,8177,8164,8098,7.735476732254028
120,8197,8146,8109,8175,8169,8154,8213,8144,8196,8175,8164,8159,8158,8102,7.743123769760132
121,8188,8133,8097,8150,8165,8177,8195,8151,8168,8154,8155,8147,8153,8077,7.751116991043091
122,8189,8135,8097,8138,8156,8185,8202,8163,8162,8159,8159,8164,8155,8074,7.759480714797974
123,8182,8148,8112,8164,8180,8167,8244,8152,8203,8189,8163,8165,8150,8097,7.767480850219727
124,8201,8140,8108,8159,8163,8195,8222,8189,8189,8167,8161,8164,8167,8081,7.775481224060059
125,8177,8127,8094,8137,8149,8177,8208,8165,8177,8165,8152,8148,8158,8065,7.782190322875977
126,8188,8130,8104,8126,8147,8184,8209,8170,8188,8163,8154,8162,8157,8083,7.790184020996094
126,8188,8130,8104,8126,8147,8184,8209,8170,8188,8163,8154,8162,8157,8083,7.791183948516846
127,8203,8143,8117,8133,8136,8194,8183,8194,8170,8143,8164,8178,8163,8079,7.798438310623169
241,8190,8150,8123,8154,8139,8183,8175,8158,8151,8157,8165,8167,8152,8073,7.806652069091797
0,8214,8138,8127,8140,8130,8206,8167,8183,8137,8148,8166,8181,8172,8092,7.814645051956177
1,8193,8149,8140,8145,8131,8175,8173,8183,8162,8153,8173,8170,8171,8103,7.82248067855835
2,8203,8184,8156,8172,8139,8184,8189,8182,8192,8183,8187,8172,8165,8120,7.830480575561523
3,8218,8189,8145,8166,8157,8199,8202,8199,8195,8199,8179,8183,8175,8131,7.8377392292022705
4,8179,8172,8126,8153,8182,8174,8228,8171,8196,8206,8160,8160,8161,8110,7.845739364624023
5,8191,8157,8112,8135,8161,8201,8241,8191,8174,8173,8163,8168,8160,8080,7.852738857269287
5,8191,8157,8112,8135,8161,8201,8241,8191,8174,8173,8163,8168,8160,8080,7.85373854637146
6,8182,8154,8103,8128,8147,8182,8254,8182,8171,8146,8164,8165,8156,8067,7.861739158630371
7,8178,8163,8116,8137,8171,8176,8250,8183,8187,8160,8167,8163,8163,8073,7.869738817214966
8,8204,8180,8135,8151,8178,8195,8244,8221,8201,8202,8177,8188,8180,8095,7.876816749572754
8,8204,8180,8135,8151,8178,8195,8244,8221,8201,8202,8177,8188,8180,8095,7.877816677093506
9,8195,8191,8150,8176,8173,8172,8257,8192,8222,8221,8181,8187,8169,8122,7.884817123413086
9,8195,8191,8150,8176,8173,8172,8257,8192,8222,8221,8181,8187,8169,8122,7.885989665985107
10,8212,8180,8160,8176,8149,8190,8214,8197,8187,8176,8186,8200,8180,8122,7.893041372299194
11,8219,8190,8173,8183,8151,8188,8189,8187,8175,8189,8189,8213,8181,8123,7.90099573135376
12,8242,8218,8190,8211,8186,8197,8214,8179,8212,8241,8189,8218,8175,8157,7.907996892929077
12,8242,8218,8190,8211,8186,8197,8214,8179,8212,8241,8189,8218,8175,8157,7.908997535705566
13,8261,8210,8183,8202,8187,8211,8206,8207,8207,8216,8187,8210,8187,8161,7.915996313095093
14,8224,8182,8162,8177,8161,8187,8192,8173,8182,8185,8175,8174,8170,8123,7.924000263214111
14,8224,8182,8162,8177,8161,8187,8192,8173,8182,8185,8175,8174,8170,8123,7.924702167510986
15,8234,8165,8138,8156,8138,8215,8194,8182,8155,8169,8162,8173,8166,8088,7.932490110397339
16,8229,8169,8129,8145,8154,8211,8221,8190,8160,8164,8156,8163,8169,8074,7.940480947494507
17,8212,8176,8139,8147,8164,8204,8243,8188,8177,8161,8162,8148,8169,8083,7.947879552841186
18,8218,8169,8136,8138,8148,8216,8227,8226,8166,8128,8165,8170,8182,8080,7.956873893737793
19,8197,8175,8140,8147,8171,8191,8221,8198,8181,8131,8157,8164,8168,8063,7.963932037353516
19,8197,8175,8140,8147,8171,8191,8221,8198,8181,8131,8157,8164,8168,8063,7.9649529457092285
20,8224,8198,8160,8167,8171,8212,8209,8194,8192,8166,8169,8172,8174,8070,7.971971035003662
21,8238,8219,8185,8196,8169,8207,8215,8202,8201,8211,8187,8196,8185,8105,7.97945761680603
22,8238,8239,8213,8231,8207,8197,8237,8191,8223,8234,8190,8207,8180,8150,7.987451791763306
23,8266,8240,8218,8228,8222,8212,8227,8211,8211,8208,8198,8221,8194,8175,7.995481014251709
24,8241,8231,8211,8223,8208,8184,8210,8182,8195,8214,8199,8204,8182,8164,8.003809213638306
25,8236,8224,8206,8225,8178,8209,8179,8184,8183,8214,8192,8200,8172,8146,8.01146936416626
26,8230,8221,8200,8220,8197,8212,8177,8195,8194,8192,8188,8199,8175,8142,8.019488096237183
27,8211,8217,8194,8216,8240,8181,8197,8175,8214,8197,8186,8177,8169,8139,8.02753210067749
28,8215,8195,8167,8191,8202,8197,8175,8191,8171,8170,8178,8174,8173,8108,8.03403353691101
29,8175,8182,8144,8182,8164,8180,8177,8168,8141,8136,8164,8155,8155,8069,8.042481422424316
30,8172,8183,8139,8181,8178,8185,8188,8173,8146,8123,8160,8155,8154,8060,8.050468683242798
31,8178,8178,8131,8167,8201,8181,8185,8182,8158,8136,8155,8161,8159,8062,8.058465003967285
32,8165,8193,8148,8184,8223,8156,8217,8152,8189,8169,8164,8159,8154,8082,8.0664803981781
33,8200,8229,8181,8224,8238,8170,8239,8187,8207,8200,8193,8194,8178,8133,8.07448148727417
34,8197,8247,8193,8252,8262,8144,8242,8163,8233,8254,8198,8194,8169,8173,8.082517385482788
35,8192,8236,8192,8248,8268,8139,8235,8136,8243,8263,8191,8182,8162,8186,8.090514421463013
36,8200,8229,8201,8242,8256,8152,8227,8162,8227,8225,8191,8197,8174,8191,8.098618507385254
37,8202,8237,8214,8264,8262,8161,8235,8151,8230,8238,8189,8198,8161,8195,8.105541229248047
38,8233,8229,8207,8261,8261,8198,8230,8176,8224,8239,8192,8204,8173,8190,8.113542556762695
39,8216,8224,8194,8248,8265,8170,8230,8172,8232,8228,8189,8185,8177,8173,8.121480703353882
40,8205,8230,8191,8250,8269,8166,8238,8161,8240,8237,8182,8177,8165,8164,8.129150390625
41,8203,8214,8175,8231,8276,8180,8247,8174,8228,8221,8173,8184,8161,8143,8.137568473815918
42,8166,8195,8160,8212,8302,8147,8263,8152,8228,8191,8160,8160,8150,8115,8.145570993423462
43,8177,8204,8160,8219,8290,8160,8262,8170,8222,8180,8165,8170,8161,8114,8.153481245040894
44,8180,8222,8175,8242,8284,8156,8282,8152,8239,8221,8179,8181,8163,8134,8.161482095718384
44,8180,8222,8175,8242,8284,8156,8282,8152,8239,8221,8179,8181,8163,8134,8.162102699279785
45,8199,8233,8198,8257,8302,8154,8303,8138,8256,8254,8192,8194,8167,8175,8.168445110321045
46,8233,8241,8220,8277,8296,8163,8287,8178,8246,8246,8203,8228,8183,8206,8.1764817237854
47,8217,8256,8249,8313,8299,8146,8281,8156,8259,8262,8212,8229,8169,8218,8.184481620788574
48,8240,8250,8252,8303,8297,8174,8274,8160,8252,8256,8212,8232,8171,8228,8.192889213562012
49,8249,8233,8229,8280,8291,8168,8269,8165,8227,8239,8198,8224,8176,8224,8.199904918670654
49,8249,8233,8229,8280,8291,8168,8269,8165,8227,8239,8198,8224,8176,8224,8.20091462135315
50,8236,8228,8229,8298,8293,8169,8257,8166,8229,8250,8196,8216,8170,8214,8.207916021347046
50,8236,8228,8229,8298,8293,8169,8257,8166,8229,8250,8196,8216,8170,8214,8.208918571472168
51,8242,8220,8222,8292,8278,8203,8226,8192,8233,8249,8194,8226,8174,8186,8.215916633605957
51,8242,8220,8222,8292,8278,8203,8226,8192,8233,8249,8194,8226,8174,8186,8.216914653778076
52,8217,8204,8198,8264,8273,8183,8243,8164,8239,8229,8170,8203,8166,8150,8.224480867385864
53,8216,8188,8178,8239,8267,8186,8266,8190,8236,8191,8162,8193,8173,8133,8.23150086402893
54,8198,8185,8175,8229,8263,8177,8269,8199,8244,8184,8164,8188,8167,8121,8.239006996154785
55,8178,8187,8174,8233,8274,8164,8266,8157,8252,8195,8169,8180,8156,8116,8.247010946273804
56,8195,8176,8165,8225,8269,8173,8252,8179,8230,8174,8179,8200,8175,8125,8.255011081695557
56,8195,8176,8165,8225,8269,8173,8252,8179,8230,8174,8179,8200,8175,8125,8.256009817123413
57,8186,8190,8179,8239,8269,8149,8261,8163,8242,8184,8178,8195,8165,8139,8.263474702835083
58,8210,8216,8198,8258,8269,8160,8252,8159,8247,8205,8184,8203,8167,8163,8.271491289138794
59,8220,8217,8204,8259,8272,8154,8228,8167,8222,8220,8194,8221,8180,8184,8.27948808670044
60,8213,8221,8224,8283,8282,8150,8234,8146,8234,8253,8196,8223,8169,8196,8.287481784820557
61,8239,8225,8236,8300,8278,8180,8230,8162,8241,8250,8200,8235,8174,8201,8.29448390007019
62,8215,8215,8225,8295,8293,8154,8230,8154,8253,8245,8199,8219,8168,8202,8.302480936050415
63,8213,8198,8207,8276,8296,8165,8240,8172,8263,8252,8195,8215,8167,8199,8.310584545135498
64,8221,8189,8194,8261,8284,8184,8266,8188,8267,8253,8190,8215,8169,8179,8.318592548370361
65,8198,8184,8185,8257,8281,8173,8296,8159,8279,8249,8181,8191,8155,8160,8.326482772827148
65,8198,8184,8185,8257,8281,8173,8296,8159,8279,8249,8181,8191,8155,8160,8.326898097991943
66,8209,8166,8168,8233,8265,8189,8284,8177,8265,8217,8172,8195,8165,8154,8.334234237670898
67,8198,8160,8164,8222,8268,8164,8273,8166,8259,8205,8163,8191,8165,8140,8.3424813747406
68,8201,8166,8175,8232,8267,8172,8263,8164,8249,8207,8172,8201,8161,8130,8.350627660751343
69,8216,8178,8190,8248,8265,8189,8253,8171,8235,8212,8185,8224,8166,8144,8.35806655883789
70,8208,8192,8205,8264,8284,8165,8277,8140,8231,8233,8185,8215,8165,8175,8.365983009338379
70,8208,8192,8205,8264,8284,8165,8277,8140,8231,8233,8185,8215,8165,8175,8.366981983184814
71,8230,8192,8208,8252,8277,8179,8275,8169,8203,8216,8188,8221,8177,8181,8.37348222732544
71,8230,8192,8208,8252,8277,8179,8275,8169,8203,8216,8188,8221,8177,8181,8.37399411201477
72,8220,8201,8212,8268,8274,8165,8264,8166,8220,8227,8191,8222,8169,8177,8.381573677062988
73,8219,8215,8220,8294,8288,8165,8271,8150,8264,8274,8189,8227,8167,8193,8.389425039291382
74,8225,8205,8213,8270,8274,8179,8271,8175,8255,8268,8185,8234,8178,8189,8.397432804107666
75,8182,8181,8194,8246,8265,8161,8259,8163,8246,8247,8180,8210,8159,8155,8.405481338500977
76,8182,8168,8173,8240,8260,8175,8243,8183,8266,8230,8174,8209,8164,8139,8.413480758666992
77,8181,8165,8165,8238,8250,8161,8269,8179,8277,8224,8165,8204,8168,8138,8.421627521514893
78,8174,8154,8167,8223,8239,8166,8278,8166,8248,8216,8169,8198,8159,8127,8.42862606048584
79,8181,8139,8160,8197,8227,8186,8242,8181,8211,8188,8172,8204,8165,8108,8.43663477897644
80,8172,8148,8162,8203,8227,8165,8237,8148,8207,8182,8159,8183,8157,8105,8.444492101669312
80,8172,8148,8162,8203,8227,8165,8237,8148,8207,8182,8159,8183,8157,8105,8.44549298286438
81,8192,8160,8173,8205,8214,8185,8226,8163,8173,8167,8164,8191,8166,8115,8.4524827003479
82,8192,8164,8182,8205,8214,8187,8216,8163,8152,8165,8177,8204,8162,8111,8.460202932357788
83,8197,8181,8188,8218,8229,8184,8236,8143,8171,8189,8176,8203,8158,8122,8.468443870544434
84,8211,8177,8181,8210,8211,8193,8236,8174,8164,8175,8174,8206,8181,8138,8.476628303527832
85,8180,8159,8186,8201,8206,8162,8228,8163,8167,8164,8170,8187,8168,8119,8.484631299972534
86,8196,8157,8187,8206,8220,8180,8216,8174,8185,8169,8170,8194,8157,8105,8.492466449737549
87,8199,8154,8172,8204,8211,8182,8224,8178,8210,8194,8174,8199,8161,8110,8.499101400375366
88,8176,8137,8163,8178,8177,8173,8232,8167,8234,8207,8170,8184,8166,8102,8.507110118865967
88,8176,8137,8163,8178,8177,8173,8232,8167,8234,8207,8170,8184,8166,8102,8.50810170173645
89,8184,8127,8155,8149,8156,8195,8209,8192,8213,8183,8168,8183,8176,8076,8.515475034713745
90,8168,8138,8150,8163,8186,8177,8222,8163,8199,8179,8167,8165,8161,8066,8.52363920211792
91,8172,8141,8142,8175,8192,8177,8224,8168,8190,8161,8168,8180,8168,8075,8.531639575958252
92,8166,8140,8139,8156,8177,8172,8204,8185,8177,8154,8168,8196,8175,8068,8.53987717628479
93,8164,8160,8155,8138,8205,8168,8223,8156,8181,8188,8171,8185,8162,8080,8.547972440719604
94,8197,8180,8170,8151,8225,8191,8242,8180,8177,8189,8178,8198,8177,8104,8.555477619171143
95,8177,8193,8176,8208,8232,8172,8244,8174,8195,8192,8171,8197,8172,8103,8.562475681304932
96,8189,8198,8182,8225,8232,8180,8244,8170,8225,8207,8175,8200,8168,8111,8.570636987686157
97,8212,8201,8189,8188,8242,8179,8255,8184,8232,8216,8177,8206,8175,8122,8.578637599945068
98,8196,8211,8195,8208,8268,8162,8267,8175,8243,8244,8173,8195,8172,8130,8.586679458618164
99,8199,8197,8187,8225,8238,8184,8256,8199,8252,8244,8177,8203,8178,8141,8.593935251235962
99,8199,8197,8187,8225,8238,8184,8256,8199,8252,8244,8177,8203,8178,8141,8.594927787780762
100,8178,8167,8178,8191,8205,8166,8245,8177,8260,8227,8169,8194,8166,8133,8.601937294006348
100,8178,8167,8178,8191,8205,8166,8245,8177,8260,8227,8169,8194,8166,8133,8.60292673110962
101,8181,8158,8173,8178,8213,8175,8237,8178,8255,8221,8159,8193,8164,8116,8.609937906265259
101,8181,8158,8173,8178,8213,8175,8237,8178,8255,8221,8159,8193,8164,8116,8.610950231552124
102,8198,8176,8167,8194,8236,8188,8253,8198,8268,8241,8170,8209,8174,8123,8.61867618560791
103,8186,8184,8163,8194,8249,8163,8268,8160,8281,8260,8175,8196,8164,8136,8.626676082611084
104,8189,8149,8136,8146,8202,8177,8222,8173,8207,8206,8164,8186,8166,8101,8.633189678192139
105,8166,8134,8117,8112,8164,8168,8210,8170,8172,8171,8151,8169,8160,8063,8.641480684280396
106,8176,8163,8143,8139,8191,8176,8250,8170,8227,8202,8157,8180,8165,8090,8.649481058120728
107,8211,8181,8164,8178,8233,8188,8257,8195,8242,8226,8167,8206,8182,8115,8.657143115997314
107,8211,8181,8164,8178,8233,8188,8257,8195,8242,8226,8167,8206,8182,8115,8.65806531906128
108,8189,8174,8155,8181,8239,8164,8246,8176,8219,8225,8164,8188,8172,8097,8.665067672729492
109,8193,8164,8148,8155,8211,8182,8235,8202,8219,8208,8166,8195,8181,8091,8.673480987548828
110,8202,8178,8166,8164,8217,8182,8251,8200,8270,8226,8164,8210,8179,8111,8.681474447250366
111,8201,8183,8164,8168,8216,8191,8262,8184,8285,8256,8158,8206,8167,8122,8.689487934112549
112,8189,8153,8140,8136,8184,8198,8238,8206,8242,8238,8160,8202,8174,8103,8.696487665176392
113,8167,8162,8150,8130,8202,8170,8252,8179,8263,8230,8160,8184,8165,8089,8.704481601715088
114,8197,8197,8161,8132,8220,8196,8271,8184,8293,8233,8165,8197,8170,8103,8.712481021881104
115,8185,8178,8147,8143,8221,8182,8269,8184,8275,8232,8160,8192,8172,8097,8.720096349716187
115,8185,8178,8147,8143,8221,8182,8269,8184,8275,8232,8160,8192,8172,8097,8.721091032028198
116,8164,8152,8140,8164,8218,8158,8275,8169,8256,8230,8155,8170,8160,8080,8.72808837890625
117,8194,8174,8142,8150,8210,8174,8280,8178,8251,8224,8163,8184,8169,8083,8.73648190498352
118,8184,8182,8144,8138,8229,8157,8289,8152,8254,8244,8167,8182,8159,8094,8.744480848312378
119,8186,8162,8151,8146,8237,8169,8279,8177,8246,8245,8169,8192,8162,8099,8.752481460571289
120,8189,8182,8162,8149,8229,8170,8283,8183,8271,8243,8165,8196,8164,8101,8.759480714797974
121,8180,8196,8159,8135,8222,8160,8288,8153,8293,8239,8158,8178,8155,8113,8.767481088638306
122,8191,8163,8150,8117,8201,8173,8254,8184,8258,8219,8160,8186,8168,8110,8.775743246078491
123,8176,8154,8159,8132,8197,8159,8250,8168,8256,8239,8160,8184,8159,8099,8.783741474151611
124,8190,8170,8166,8141,8206,8175,8260,8166,8266,8247,8163,8198,8165,8118,8.791481256484985
125,8194,8182,8166,8140,8218,8172,8262,8179,8258,8236,8159,8205,8170,8135,8.799480199813843
126,8181,8185,8171,8154,8218,8161,8265,8156,8266,8242,8155,8182,8150,8124,8.807480812072754
127,8194,8178,8162,8139,8194,8182,8242,8170,8254,8231,8162,8180,8162,8109,8.815468072891235
241,8169,8174,8156,8133,8191,8159,8229,8159,8242,8223,8161,8170,8165,8104,8.823486566543579
0,8183,8186,8174,8156,8213,8172,8242,8173,8257,8227,8163,8189,8165,8116,8.830481052398682
1,8215,8207,8196,8159,8244,8179,8267,8188,8272,8244,8171,8209,8170,8138,8.838511228561401
2,8200,8211,8200,8164,8248,8161,8266,8164,8269,8265,8175,8193,8162,8146,8.846527814865112
3,8200,8186,8186,8175,8202,8184,8232,8187,8246,8232,8172,8199,8171,8124,8.854480981826782
4,8183,8172,8181,8172,8187,8169,8233,8171,8245,8208,8165,8189,8167,8112,8.862537145614624
5,8193,8172,8177,8142,8192,8170,8232,8168,8248,8226,8174,8188,8173,8124,8.870561838150024
6,8203,8162,8170,8124,8178,8177,8211,8186,8232,8235,8176,8200,8177,8115,8.877924919128418
7,8176,8153,8171,8138,8168,8165,8215,8160,8219,8228,8164,8185,8158,8101,8.88592529296875
7,8176,8153,8171,8138,8168,8165,8215,8160,8219,8228,8164,8185,8158,8101,8.886918783187866
8,8189,8156,8168,8122,8157,8187,8205,8186,8206,8204,8166,8193,8169,8105,8.893481016159058
9,8192,8180,8181,8113,8170,8178,8209,8185,8240,8222,8168,8196,8167,8112,8.901930809020996
10,8202,8192,8194,8138,8178,8183,8219,8174,8257,8240,8172,8198,8164,8124,8.909945964813232
11,8205,8168,8183,8149,8162,8191,8196,8194,8217,8216,8179,8203,8178,8122,8.91747522354126
12,8188,8177,8190,8157,8177,8176,8198,8176,8225,8236,8179,8195,8167,8116,8.925469875335693
13,8213,8202,8206,8157,8190,8199,8220,8192,8248,8242,8174,8214,8173,8134,8.933993816375732
14,8199,8184,8196,8153,8183,8178,8219,8186,8224,8206,8163,8201,8175,8129,8.943774223327637
15,8198,8183,8193,8157,8187,8176,8205,8182,8202,8211,8166,8193,8171,8117,8.948774337768555
16,8230,8205,8209,8147,8182,8206,8210,8202,8213,8249,8177,8225,8178,8131,8.955773115158081
16,8230,8205,8209,8147,8182,8206,8210,8202,8213,8249,8177,8225,8178,8131,8.956773519515991
17,8207,8195,8205,8147,8176,8186,8219,8172,8225,8243,8170,8211,8171,8130,8.96377420425415
17,8207,8195,8205,8147,8176,8186,8219,8172,8225,8243,8170,8211,8171,8130,8.964773654937744
18,8209,8183,8188,8162,8177,8188,8193,8197,8204,8192,8170,8203,8179,8111,8.972773313522339
19,8211,8201,8194,8169,8175,8185,8196,8197,8210,8210,8173,8205,8174,8105,8.979772806167603
19,8211,8201,8194,8169,8175,8185,8196,8197,8210,8210,8173,8205,8174,8105,8.980773448944092
20,8205,8206,8199,8151,8154,8184,8210,8171,8215,8243,8171,8200,8165,8118,8.987772941589355
21,8209,8180,8178,8127,8139,8192,8182,8199,8177,8184,8169,8199,8173,8105,8.995773077011108
21,8209,8180,8178,8127,8139,8192,8182,8199,8177,8184,8169,8199,8173,8105,8.996763706207275
22,8183,8168,8169,8128,8171,8172,8185,8179,8180,8165,8159,8176,8160,8079,9.003769159317017
22,8183,8168,8169,8128,8171,8172,8185,8179,8180,8165,8159,8176,8160,8079,9.004769563674927
23,8182,8165,8166,8122,8168,8181,8190,8177,8188,8202,8158,8179,8167,8082,9.01276969909668
24,8170,8160,8161,8109,8135,8160,8169,8177,8172,8214,8160,8185,8169,8078,9.019774436950684
25,8168,8166,8170,8104,8151,8152,8171,8166,8182,8198,8158,8187,8160,8076,9.027781248092651
26,8192,8170,8176,8117,8173,8183,8191,8196,8189,8176,8158,8200,8172,8081,9.035481214523315
27,8172,8186,8183,8160,8176,8165,8221,8172,8215,8197,8156,8178,8158,8083,9.043481826782228
28,8185,8198,8191,8154,8168,8171,8229,8172,8234,8214,8163,8188,8159,8100,9.051469802856444
29,8199,8197,8195,8133,8188,8163,8233,8183,8234,8222,8170,8206,8172,8120,9.059470891952516
30,8184,8194,8192,8155,8204,8149,8232,8162,8234,8224,8169,8184,8166,8122,9.067481756210327
31,8198,8185,8181,8146,8182,8176,8203,8180,8216,8197,8169,8185,8176,8107,9.07552194595337
32,8188,8191,8186,8132,8195,8157,8209,8165,8228,8213,8169,8189,8168,8099,9.08354425430298
33,8197,8202,8192,8151,8201,8164,8220,8167,8239,8239,8171,8194,8161,8109,9.09053635597229
34,8202,8193,8179,8155,8169,8175,8206,8177,8218,8228,8168,8188,8162,8107,9.098264694213867
35,8188,8179,8182,8141,8165,8166,8203,8163,8211,8216,8169,8177,8160,8101,9.10626482963562
36,8211,8185,8199,8144,8173,8178,8204,8186,8213,8212,8172,8198,8173,8108,9.114481925964355
37,8199,8206,8200,8172,8199,8157,8226,8161,8235,8231,8166,8194,8165,8121,9.122480869293211
38,8193,8201,8188,8160,8198,8164,8228,8160,8233,8221,8171,8195,8170,8130,9.130683422088625
39,8191,8177,8182,8123,8146,8171,8195,8182,8205,8185,8174,8200,8176,8103,9.138220071792604
40,8174,8176,8182,8133,8140,8159,8194,8153,8209,8202,8160,8180,8155,8076,9.146306991577148
41,8195,8171,8176,8128,8155,8181,8195,8174,8206,8214,8158,8188,8166,8087,9.154370069503784
42,8179,8158,8172,8108,8140,8163,8184,8172,8195,8198,8161,8183,8170,8091,9.161370038986206
43,8174,8153,8171,8111,8121,8162,8172,8169,8182,8188,8161,8177,8168,8075,9.16948103904724
44,8196,8153,8170,8108,8127,8177,8170,8183,8176,8191,8161,8184,8171,8067,9.17781949043274
45,8192,8164,8182,8118,8157,8160,8194,8155,8202,8213,8162,8180,8163,8086,9.1858229637146
46,8208,8176,8190,8131,8159,8175,8191,8185,8203,8206,8174,8201,8178,8106,9.193483591079712
47,8198,8175,8194,8138,8157,8168,8185,8181,8198,8196,8180,8193,8172,8102,9.201516389846802
48,8202,8175,8197,8133,8152,8173,8184,8156,8200,8202,8182,8177,8156,8105,9.2095148563385
49,8222,8175,8184,8113,8122,8181,8159,8176,8178,8183,8178,8191,8167,8101,9.21748113632202
50,8202,8159,8176,8113,8113,8152,8143,8159,8165,8165,8162,8179,8164,8081,9.224478006362917
51,8232,8153,8189,8129,8124,8178,8147,8174,8168,8167,8163,8182,8172,8081,9.232470273971558
52,8252,8178,8213,8149,8147,8179,8180,8172,8188,8207,8172,8184,8172,8105,9.240012884140016
53,8255,8197,8219,8157,8158,8168,8188,8170,8195,8226,8182,8187,8169,8128,9.248023986816406
53,8255,8197,8219,8157,8158,8168,8188,8170,8195,8226,8182,8187,8169,8128,9.249053716659546
54,8281,8193,8205,8143,8159,8186,8168,8193,8187,8202,8182,8203,8184,8123,9.256476402282717
55,8274,8194,8206,8147,8177,8169,8190,8156,8205,8217,8169,8188,8172,8117,9.264557600021362
56,8279,8200,8213,8155,8164,8180,8205,8176,8198,8216,8173,8200,8174,8137,9.272672414779665
57,8257,8203,8214,8158,8164,8173,8202,8194,8197,8214,8187,8211,8177,8143,9.2806715965271
58,8229,8214,8222,8170,8189,8165,8213,8166,8225,8245,8188,8204,8169,8142,9.287671327590942
59,8234,8207,8222,8170,8188,8185,8202,8184,8208,8222,8178,8213,8177,8139,9.295671939849854
60,8209,8199,8213,8168,8193,8170,8192,8175,8186,8201,8171,8195,8161,8120,9.303692102432253
61,8216,8198,8207,8166,8178,8183,8183,8173,8181,8213,8175,8199,8164,8111,9.311639308929443
62,8212,8193,8202,8165,8144,8172,8171,8167,8167,8200,8172,8201,8175,8110,9.319289922714232
63,8189,8191,8197,8148,8138,8157,8162,8154,8152,8164,8167,8178,8163,8099,9.327285528182983
64,8203,8194,8199,8127,8149,8180,8161,8187,8147,8153,8173,8189,8171,8097,9.334813356399536
64,8203,8194,8199,8127,8149,8180,8161,8187,8147,8153,8173,8189,8171,8097,9.335812330245972
65,8192,8207,8212,8156,8176,8163,8185,8169,8168,8192,8173,8190,8170,8116,9.342482328414915
66,8197,8199,8207,8170,8176,8169,8180,8165,8155,8185,8176,8185,8169,8120,9.350663185119627
67,8196,8178,8196,8136,8149,8168,8163,8178,8136,8164,8170,8183,8171,8102,9.35853362083435
68,8181,8181,8208,8131,8143,8152,8175,8160,8163,8202,8159,8181,8163,8104,9.366565227508543
69,8199,8184,8200,8145,8140,8171,8171,8176,8167,8209,8169,8196,8169,8109,9.374481678009031
70,8180,8169,8184,8142,8146,8153,8178,8157,8158,8189,8171,8184,8163,8097,9.38248085975647
71,8183,8166,8192,8131,8147,8159,8180,8165,8150,8176,8163,8190,8171,8102,9.390498399734495
72,8193,8182,8201,8137,8137,8172,8167,8181,8148,8170,8168,8201,8175,8109,9.398508071899414
73,8174,8186,8195,8150,8148,8153,8172,8145,8163,8180,8170,8180,8155,8105,9.405481576919556
74,8202,8173,8192,8145,8146,8166,8161,8166,8142,8165,8168,8188,8172,8100,9.413476705551147
75,8201,8185,8202,8159,8147,8152,8159,8161,8127,8152,8164,8184,8166,8090,9.421481132507324
76,8190,8187,8202,8164,8153,8155,8168,8153,8136,8151,8168,8180,8156,8096,9.429403305053713
77,8189,8164,8188,8138,8142,8166,8154,8174,8135,8154,8166,8192,8171,8103,9.437126874923706
78,8175,8173,8192,8139,8138,8153,8142,8154,8139,8173,8162,8187,8168,8096,9.44512391090393
79,8203,8189,8206,8152,8129,8178,8139,8173,8132,8163,8169,8203,8174,8100,9.453481197357178
80,8200,8175,8217,8153,8134,8163,8156,8171,8136,8162,8171,8199,8170,8116,9.461727380752563
