COUNTER,F3,FC5,AF3,F7,T7,P7,O1,O2,P8,T8,F8,AF4,FC6,F4,Timestamp,word
72, 7695, 6837, 6794, 6811, 9026, 6649, 7073, 7613, 7849, 8176, 7480, 7247, 7612, 8595,0.0046465396881103516,XXXXX
73, 8117, 8609, 9088, 9035, 8155, 8658, 8483, 8164, 8498, 8381, 8593, 8452, 8554, 8962,0.011225461959838867,XXXXX
74, 8260, 8280, 8242, 8419, 8088, 8159, 8203, 8160, 8285, 8273, 8454, 8887, 8351, 8875,0.01921391487121582,XXXXX
75, 8277, 8007, 8003, 7639, 8692, 7697, 7860, 7978, 8040, 8122, 7966, 8111, 8028, 8736,0.027083396911621094,XXXXX
76, 8146, 8190, 8402, 8215, 7763, 8252, 8259, 8381, 8225, 8224, 8239, 8300, 8344, 8750,0.035043954849243164,SQUEEZE
77, 7976, 8038, 8269, 8223, 8362, 8053, 8005, 8204, 8075, 8240, 8272, 8444, 8116, 8585,0.04281973838806152,SQUEEZE
78, 8392, 8312, 8305, 7888, 8595, 8083, 8203, 8344, 8190, 8193, 8117, 7824, 8325, 8954,0.0505979061126709,SQUEEZE
79, 7910, 7969, 8277, 7958, 8577, 8083, 8082, 8160, 8150, 8177, 8268, 8046, 8166, 8520,0.05835723876953125,SQUEEZE
80, 7964, 8096, 8302, 8168, 8593, 8141, 8080, 8078, 8081, 8099, 8291, 8545, 8112, 8473,0.06619405746459961,SQUEEZE
81, 8633, 8586, 8608, 8412, 8234, 8407, 8586, 8252, 8220, 8147, 8307, 8413, 8482, 9142,0.07556867599487305,SQUEEZE
82, 7638, 7465, 7692, 7704, 8264, 7680, 7751, 8141, 8048, 8292, 7975, 7835, 8002, 8281,0.08190751075744629,SQUEEZE
83, 7786, 8074, 8474, 8218, 8881, 8359, 8111, 8272, 8145, 8122, 8207, 8019, 8107, 8228,0.08969640731811523,SQUEEZE
84, 9631, 10147, 10054, 9824, 7651, 9719, 10033, 8447, 8194, 7897, 8794, 9306, 8796, 9730,0.09747791290283203,SQUEEZE
85, 8792, 7305, 6649, 7250, 6991, 6740, 8400, 8192, 7977, 8434, 7129, 7430, 7941, 9099,0.10683894157409668,SQUEEZE
86, 7540, 6970, 7504, 8222, 8858, 7285, 7247, 7952, 8490, 8596, 8187, 8646, 7785, 7860,0.11454033851623535,SQUEEZE
87, 7422, 8178, 8325, 8285, 9351, 8211, 7729, 8130, 8137, 7989, 8512, 9911, 8251, 7473,0.12231564521789551,SQUEEZE
88, 8243, 7438, 6721, 6309, 7871, 6990, 8060, 8509, 7637, 7971, 7017, 7108, 8286, 8314,0.1301283836364746,SQUEEZE
89, 8452, 8540, 8898, 9082, 8170, 8774, 8356, 8010, 8231, 8268, 8766, 8725, 8261, 8505,0.13816189765930176,SQUEEZE
90, 7525, 8313, 8435, 8549, 8645, 8344, 7829, 7802, 8173, 8327, 8192, 8987, 8041, 7509,0.14618873596191406,SQUEEZE
91, 8348, 8498, 8307, 8002, 7670, 8155, 8495, 8336, 8027, 8220, 7691, 7841, 8363, 8189,0.15253710746765137,SQUEEZE
92, 8394, 8409, 8449, 8513, 8081, 8403, 8412, 8166, 7912, 8041, 8536, 8785, 8180, 8161,0.1604321002960205,SQUEEZE
93, 7953, 7787, 7610, 7601, 8633, 7877, 7986, 8200, 7842, 8039, 7966, 8270, 8047, 7883,0.16833782196044922,SQUEEZE
94, 8262, 8493, 8476, 8532, 8099, 8647, 8377, 8300, 8102, 8145, 8440, 8538, 8237, 8352,0.17731475830078125,SQUEEZE
95, 7937, 8261, 8209, 8313, 8038, 8212, 8037, 8007, 8098, 8222, 8300, 9104, 8068, 8066,0.18508434295654297,SQUEEZE
96, 7827, 7568, 7103, 6682, 8109, 7302, 7720, 8228, 7887, 8234, 7130, 7437, 7927, 7953,0.1929786205291748,SQUEEZE
97, 8562, 9194, 9529, 9831, 8152, 9566, 8663, 8110, 8247, 8210, 9225, 8546, 8311, 8531,0.20108890533447266,SQUEEZE
98, 8104, 8615, 8571, 10146, 7680, 8875, 8187, 8362, 8652, 8248, 9942, 11440, 8690, 8146,0.20835614204406738,SQUEEZE
99, 6455, 4166, 2678, 3012, 9251, 3450, 5561, 8148, 7554, 8291, 5719, 7485, 7418, 7254,0.21625304222106934,SQUEEZE
100, 7928, 7221, 7234, 6419, 10125, 7007, 7597, 7791, 7892, 8297, 7347, 6528, 7821, 9001,0.2244100570678711,SQUEEZE
101, 8857, 9969, 10751, 10994, 8307, 10343, 9457, 8407, 8697, 8178, 9739, 9667, 8861, 9558,0.23199868202209473,SQUEEZE
102, 7668, 7168, 7089, 7258, 8208, 7043, 7558, 8133, 7895, 8130, 7578, 8252, 7966, 8448,0.2398087978363037,SQUEEZE
103, 8313, 8118, 8233, 7771, 8563, 7916, 8111, 7971, 8178, 8234, 8096, 7839, 8247, 9254,0.2475898265838623,SQUEEZE
104, 8317, 8552, 8868, 8955, 8319, 8674, 8577, 8227, 8295, 8172, 8505, 8606, 8480, 9185,0.25530314445495605,SQUEEZE
105, 7979, 7950, 8218, 8213, 8590, 7978, 8071, 8068, 8022, 8149, 8146, 8324, 8108, 8793,0.2632415294647217,SQUEEZE
106, 8400, 8294, 8372, 8015, 8508, 8149, 8285, 8233, 8282, 8205, 8244, 7769, 8379, 9227,0.27258729934692383,SQUEEZE
107, 8053, 8083, 8404, 8220, 8794, 8181, 8193, 7962, 8127, 8164, 8244, 8038, 8224, 8861,0.2804744243621826,SQUEEZE
108, 8174, 8184, 8327, 8121, 8718, 8165, 8234, 8025, 8165, 8183, 8264, 8350, 8226, 8923,0.28683996200561523,SQUEEZE
109, 8466, 8249, 8289, 7909, 8276, 8035, 8237, 8299, 8244, 8205, 8207, 8089, 8351, 9305,0.29481959342956543,SQUEEZE
110, 7805, 7961, 8374, 8195, 8361, 8225, 8180, 8029, 8059, 8157, 8297, 8240, 8069, 8575,0.3028256893157959,SQUEEZE
111, 8363, 8220, 8217, 8060, 8382, 8203, 8432, 8119, 8223, 8202, 8162, 8155, 8329, 9120,0.3107948303222656,SQUEEZE
112, 8680, 8479, 8438, 8247, 8476, 8189, 8254, 8021, 8215, 8200, 8308, 8071, 8363, 9578,0.3196747303009033,SQUEEZE
113, 7617, 7783, 8098, 8075, 8640, 8018, 7927, 8187, 8067, 8164, 8116, 8242, 8071, 8478,0.3276088237762451,SQUEEZE
114, 8463, 8466, 8605, 8177, 8031, 8354, 8713, 8333, 8245, 8190, 8264, 8536, 8406, 9147,0.33542346954345703,SQUEEZE
115, 8261, 8137, 8069, 8091, 7941, 8007, 7932, 7941, 8095, 8143, 8226, 8117, 8145, 9143,0.3418595790863037,SQUEEZE
116, 7328, 7459, 7683, 7965, 8976, 7662, 7485, 8061, 8164, 8249, 7932, 7696, 8116, 8369,0.3496084213256836,SQUEEZE
117, 9254, 9800, 10251, 9772, 7349, 9511, 10198, 8288, 8284, 8099, 8758, 8944, 8688, 9202,0.3575127124786377,SQUEEZE
118, 9182, 8563, 8621, 8683, 6535, 8378, 9107, 8188, 8008, 7946, 8106, 8665, 8201, 8671,0.36534690856933594,SQUEEZE
119, 7636, 6932, 7426, 7674, 8706, 7180, 7148, 8288, 8241, 8303, 7707, 7741, 8037, 7910,0.3732335567474365,SQUEEZE
120, 8344, 8708, 9345, 9005, 8196, 8673, 8992, 8424, 8349, 8288, 8545, 8515, 8386, 8597,0.38248467445373535,SQUEEZE
121, 8827, 7973, 8311, 8069, 6879, 7644, 8945, 8458, 8182, 8181, 7878, 8261, 8174, 8839,0.3903074264526367,SQUEEZE
122, 7927, 7270, 7793, 7625, 8592, 7247, 7590, 7884, 8140, 8252, 7832, 7921, 7967, 7844,0.39804959297180176,SQUEEZE
123, 8688, 9948, 9947, 9356, 7930, 9760, 9421, 8030, 8351, 8086, 8900, 8728, 8756, 8504,0.40599775314331055,SQUEEZE
124, 9406, 9816, 9165, 8767, 6196, 9490, 9854, 8506, 8509, 8174, 8676, 8533, 8998, 10051,0.41217613220214844,SQUEEZE
125, 8040, 7338, 7412, 7479, 8584, 7265, 7390, 7896, 8100, 8216, 7971, 7755, 8017, 9312,0.421858549118042,SQUEEZE
126, 7984, 8099, 8569, 8513, 8743, 7996, 7994, 8111, 8172, 8162, 8091, 7902, 8217, 8693,0.4282834529876709,SQUEEZE
127, 8276, 8495, 8490, 8667, 7718, 8525, 8542, 8375, 8306, 8246, 8295, 8674, 8395, 9016,0.4363093376159668,SQUEEZE
238, 8273, 7994, 7974, 7754, 8670, 7761, 7816, 7941, 8156, 8206, 8179, 8250, 8178, 9233,0.4455716609954834,SQUEEZE
0, 8305, 8248, 8455, 8184, 7978, 8137, 8336, 8151, 8230, 8188, 8095, 7825, 8399, 9038,0.4535057544708252,SQUEEZE
1, 7890, 7998, 8226, 8341, 8121, 8158, 8078, 8039, 8152, 8195, 8222, 8350, 8161, 8728,0.4612140655517578,SQUEEZE
2, 8350, 8277, 8342, 7984, 8726, 8049, 8178, 8215, 8268, 8193, 8251, 8060, 8375, 9261,0.4689829349517822,SQUEEZE
3, 8144, 8157, 8343, 7960, 8837, 8180, 8263, 8197, 8187, 8157, 8193, 7899, 8372, 9013,0.475161075592041,SQUEEZE
4, 8016, 8135, 8420, 8330, 8747, 8189, 8152, 7939, 8108, 8164, 8227, 8413, 8151, 8753,0.48461413383483887,SQUEEZE
5, 8414, 8291, 8313, 8116, 8376, 8144, 8348, 8218, 8371, 8243, 8191, 8250, 8416, 9242,0.49252915382385254,SQUEEZE
6, 7839, 7726, 7925, 7688, 8850, 7804, 7946, 8094, 8125, 8168, 7981, 7832, 8137, 8824,0.5005543231964111,SQUEEZE
7, 8214, 8306, 8629, 8442, 8911, 8393, 8312, 8182, 8149, 8101, 8291, 8175, 8248, 8908,0.5084419250488281,SQUEEZE
8, 8727, 9002, 9091, 8999, 8166, 8878, 8800, 8196, 8403, 8149, 8736, 8989, 8697, 9415,0.5165441036224365,SQUEEZE
9, 7029, 5992, 5787, 5521, 8087, 5914, 6847, 7820, 7708, 8277, 6527, 5897, 7637, 8349,0.5237858295440674,SQUEEZE
10, 8066, 7876, 9105, 8773, 8276, 8409, 7820, 8077, 7929, 8018, 8201, 7221, 7850, 8810,0.531501293182373,SQUEEZE
11, 9448, 10954, 12101, 12309, 8047, 11306, 9651, 8285, 8325, 7772, 10505, 11427, 8813, 9092,0.5393640995025635,SQUEEZE
12, 7843, 7280, 6523, 6606, 8126, 6938, 7813, 8360, 7744, 8190, 7215, 7726, 8204, 7948,0.5471537113189697,SQUEEZE
13, 7861, 7432, 7458, 7234, 8461, 7467, 7719, 8195, 8025, 8302, 7714, 7280, 8009, 8140,0.5548324584960938,SQUEEZE
14, 8182, 9037, 9411, 9452, 8198, 9175, 8481, 7973, 8270, 8206, 8813, 9234, 8150, 7979,0.5628800392150879,SQUEEZE
15, 8217, 8262, 7916, 7873, 7686, 7975, 8413, 8355, 8148, 8299, 7763, 8015, 8297, 8124,0.5707571506500244,SQUEEZE
16, 8246, 8244, 8094, 8086, 8205, 7983, 8357, 8246, 7988, 8113, 8368, 8479, 8176, 8244,0.5788657665252686,SQUEEZE
17, 7974, 7973, 7804, 7909, 8550, 7857, 8202, 8154, 7900, 8087, 8160, 8281, 8067, 7931,0.5865530967712402,SQUEEZE
18, 8314, 8378, 8314, 8363, 8224, 8397, 8415, 8267, 8142, 8238, 8092, 8221, 8289, 8228,0.5943362712860107,SQUEEZE
19, 8122, 8269, 8206, 8260, 8192, 8277, 8082, 8078, 8064, 8267, 8027, 8260, 7964, 8002,0.603510856628418,SQUEEZE
20, 8293, 8337, 8242, 8347, 7986, 8286, 8323, 8444, 8175, 8222, 8157, 8235, 8149, 8167,0.6113474369049072,SQUEEZE
21, 8182, 8266, 8227, 8429, 8086, 8191, 8343, 8365, 7956, 8057, 8310, 8570, 8122, 8074,0.6175425052642822,SQUEEZE
22, 8005, 8096, 7911, 8040, 8049, 7957, 8161, 8137, 7817, 8075, 7947, 8132, 7982, 7899,0.6254656314849854,SQUEEZE
23, 8149, 8317, 8080, 8099, 8098, 8283, 8223, 8289, 8105, 8243, 8010, 7961, 8168, 8106,0.6333568096160889,SQUEEZE
24, 8360, 8957, 9079, 9232, 8266, 9058, 8422, 8172, 8214, 8233, 8774, 9187, 8200, 8381,0.6413106918334961,SQUEEZE
25, 7900, 7567, 7115, 7313, 8072, 7413, 7872, 8405, 7836, 8122, 7407, 7958, 7854, 7847,0.6492171287536621,SQUEEZE
26, 8055, 7623, 7728, 7507, 8510, 7673, 8047, 8202, 7720, 8117, 7667, 6576, 7945, 7898,0.6570174694061279,SQUEEZE
27, 9744, 11792, 13436, 13673, 7345, 12270, 10217, 8209, 9001, 8202, 11673, 11187, 9400, 9577,0.6648502349853516,SQUEEZE
28, 8739, 9250, 9397, 9817, 6206, 9051, 8772, 8468, 8516, 8128, 8950, 10066, 8683, 8989,0.6727795600891113,SQUEEZE
29, 7745, 6477, 5909, 5520, 8080, 5956, 7153, 7903, 7554, 8132, 6415, 6078, 7454, 8388,0.6805582046508789,SQUEEZE
30, 8676, 9140, 9579, 9457, 8765, 9115, 8749, 8062, 8462, 8228, 9097, 8628, 8563, 9187,0.6885538101196289,SQUEEZE
31, 8030, 8231, 8404, 8684, 8208, 8234, 8256, 8206, 8205, 8146, 8296, 8712, 8361, 8594,0.6962578296661377,SQUEEZE
32, 8043, 7778, 7794, 7498, 8317, 7609, 7921, 8043, 7982, 8162, 7788, 7604, 8012, 8697,0.7042257785797119,SQUEEZE
33, 8271, 8365, 8486, 8163, 8713, 8289, 8357, 8295, 8297, 8196, 8333, 8391, 8415, 8854,0.7134449481964111,SQUEEZE
34, 7955, 8034, 8292, 8338, 8973, 8063, 8100, 8010, 8059, 8145, 8162, 8491, 8117, 8502,0.7211532592773438,SQUEEZE
35, 8292, 8341, 8434, 8377, 8510, 8247, 8339, 8100, 8231, 8178, 8314, 8222, 8277, 8793,0.729149341583252,SQUEEZE
36, 8097, 7987, 8083, 7836, 8747, 7944, 8157, 8150, 8151, 8174, 8043, 7922, 8242, 8660,0.7355225086212158,SQUEEZE
37, 7792, 7706, 7996, 7702, 9313, 7839, 7940, 8093, 7958, 8176, 7879, 7818, 7939, 8239,0.7433497905731201,SQUEEZE
38, 8789, 9195, 9492, 9367, 8659, 9193, 8910, 8283, 8502, 8191, 9011, 9113, 8630, 9133,0.7513699531555176,SQUEEZE
39, 7599, 7234, 7024, 7066, 8314, 7080, 7645, 7894, 7904, 8128, 7422, 7485, 7935, 8164,0.7592072486877441,SQUEEZE
40, 6812, 5585, 5998, 5533, 8486, 5875, 6646, 7939, 7412, 8332, 6029, 4976, 7133, 7445,0.7671799659729004,SQUEEZE
41, 9239, 10221, 11748, 11449, 7876, 10742, 9243, 8326, 8574, 8423, 9923, 9794, 8646, 9297,0.7766721248626709,SQUEEZE
42, 8613, 9107, 8988, 9202, 7623, 8964, 8716, 8296, 8167, 8111, 8799, 9788, 8573, 8473,0.7845771312713623,SQUEEZE
43, 7528, 6561, 6007, 5886, 8279, 6393, 7367, 8258, 7778, 8177, 6787, 6690, 7870, 7740,0.7924308776855469,SQUEEZE
44, 8173, 8718, 9184, 9038, 8584, 8869, 8279, 7977, 8295, 8300, 8826, 8913, 8178, 8185,0.8003931045532227,SQUEEZE
45, 8153, 8560, 8483, 8496, 8027, 8452, 8351, 8177, 8000, 8130, 8165, 8563, 8256, 8011,0.8067483901977539,SQUEEZE
46, 8317, 8199, 8115, 8073, 7968, 8136, 8346, 8379, 7977, 8134, 8061, 8134, 8280, 8397,0.8146204948425293,SQUEEZE
47, 7999, 8040, 8016, 8126, 8503, 8098, 8204, 8190, 8019, 8269, 8196, 8430, 8041, 8045,0.8225643634796143,SQUEEZE
48, 8245, 8196, 8070, 8188, 8362, 8186, 8428, 8318, 8176, 8323, 7995, 8116, 8287, 8111,0.8307216167449951,SQUEEZE
49, 8277, 8352, 8396, 8437, 8244, 8352, 8269, 8086, 7999, 8156, 8285, 8412, 8114, 8077,0.8384108543395996,SQUEEZE
50, 8155, 8158, 8117, 8069, 8018, 8165, 8103, 8167, 7830, 8043, 8089, 8138, 7954, 7958,0.8462598323822021,SQUEEZE
51, 8318, 8509, 8421, 8453, 7892, 8509, 8408, 8449, 8108, 8161, 8283, 8313, 8215, 8172,0.8555495738983154,SQUEEZE
52, 8094, 8546, 8446, 8999, 8229, 8616, 8351, 8143, 8202, 8301, 8474, 8963, 8114, 7964,0.8632886409759521,SQUEEZE
53, 7937, 7679, 7151, 7103, 8266, 7488, 8027, 8249, 8027, 8372, 7293, 7617, 8043, 7883,0.86952805519104,SQUEEZE
54, 8414, 8689, 8881, 8359, 8501, 8654, 8457, 8164, 7894, 8060, 8458, 7826, 8182, 8279,0.8773438930511475,SQUEEZE
55, 8529, 9761, 10264, 12040, 7988, 10310, 8791, 8228, 8526, 7920, 10899, 11958, 8549, 8279,0.885223388671875,SQUEEZE
56, 6843, 5373, 4193, 6398, 8307, 5509, 6412, 8260, 8063, 8342, 7232, 9087, 7542, 7243,0.8931779861450195,SQUEEZE
57, 7648, 6237, 5872, 5557, 9499, 5958, 6998, 7825, 7665, 8256, 6613, 6327, 7419, 8170,0.9024786949157715,SQUEEZE
58, 9035, 10096, 10938, 10403, 8707, 10034, 9334, 8206, 8495, 8040, 9594, 9385, 8764, 9266,0.9102747440338135,SQUEEZE
59, 7761, 7627, 7649, 7945, 8136, 7636, 7945, 8187, 8105, 8177, 8037, 8543, 8188, 8360,0.9180183410644531,SQUEEZE
60, 8100, 7669, 7745, 7441, 8442, 7564, 7904, 8003, 7997, 8151, 7836, 7775, 8014, 8713,0.9259006977081299,SQUEEZE
61, 8377, 8669, 8962, 8825, 8933, 8616, 8561, 8223, 8317, 8170, 8489, 8542, 8490, 8910,0.9337029457092285,SQUEEZE
62, 7938, 7944, 8212, 8493, 8957, 8029, 8104, 7969, 8040, 8188, 8132, 8322, 8070, 8403,0.9415485858917236,SQUEEZE
63, 8305, 8224, 8388, 8050, 8295, 8123, 8290, 8217, 8206, 8214, 8194, 7968, 8216, 8727,0.9493396282196045,SQUEEZE
64, 8113, 8098, 8380, 7984, 8948, 8071, 8208, 8201, 8130, 8195, 8209, 8038, 8217, 8649,0.9572048187255859,SQUEEZE
65, 8102, 8213, 8524, 8442, 9213, 8268, 8249, 7984, 8033, 8138, 8336, 8451, 8060, 8410,0.9649734497070312,SQUEEZE
66, 8495, 8431, 8461, 8326, 8242, 8305, 8471, 8157, 8251, 8195, 8319, 8349, 8367, 8801,0.9728231430053711,SQUEEZE
67, 7739, 7455, 7502, 7248, 8718, 7479, 7823, 8123, 7984, 8214, 7760, 7620, 7965, 8241,0.9806277751922607,SQUEEZE
68, 8241, 8416, 9065, 8702, 9335, 8666, 8450, 8209, 8217, 8172, 8483, 8311, 8069, 8433,0.9885430335998535,SQUEEZE
69, 9214, 9524, 9511, 9355, 8189, 9235, 9197, 8229, 8432, 8053, 9188, 9328, 8843, 9304,0.9963395595550537,SQUEEZE
70, 7348, 5388, 3604, 3297, 7742, 4659, 6866, 8259, 7488, 8171, 6021, 5160, 8128, 8199,1.0043244361877441,SQUEEZE
71, 7914, 6809, 6491, 6054, 8127, 6834, 7533, 8436, 7707, 8057, 7429, 6535, 8102, 8342,1.012242317199707,SQUEEZE
72, 9034, 10209, 11013, 11143, 8076, 10465, 9221, 8189, 8233, 7939, 9838, 10764, 8558, 8609,1.0200822353363037,SQUEEZE
73, 8089, 7527, 7112, 7179, 7859, 7312, 7945, 8373, 7878, 8275, 7267, 7640, 8253, 8297,1.0281250476837158,SQUEEZE
74, 8176, 7627, 7602, 7415, 8047, 7661, 7787, 8282, 8017, 8241, 7918, 7725, 8040, 8470,1.0361528396606445,SQUEEZE
75, 7905, 8676, 8866, 8935, 8189, 8766, 8070, 7956, 8153, 8197, 8579, 8966, 7844, 7788,1.044198751449585,SQUEEZE
76, 8033, 8564, 8393, 8487, 7832, 8383, 8313, 8344, 8158, 8280, 7956, 8092, 8179, 8069,1.0520715713500977,SQUEEZE
77, 8100, 8389, 8275, 8431, 8205, 8239, 8210, 8262, 7889, 8121, 8268, 8412, 8108, 8172,1.060032844543457,SQUEEZE
78, 8068, 8061, 7937, 8135, 8441, 8021, 8131, 8253, 7875, 8101, 8099, 8100, 8109, 8041,1.0681734085083008,SQUEEZE
79, 8348, 8406, 8498, 8700, 8373, 8446, 8438, 8385, 8104, 8111, 8409, 8480, 8301, 8209,1.07450270652771,SQUEEZE
80, 8043, 8178, 8228, 8465, 8249, 8223, 8175, 8119, 7954, 8129, 8213, 8577, 7981, 7860,1.0823431015014648,SQUEEZE
81, 8113, 7969, 7674, 7511, 7940, 7886, 8087, 8402, 8100, 8307, 7646, 7655, 8027, 7993,1.090141773223877,SQUEEZE
82, 8346, 8772, 8879, 9049, 8366, 8910, 8448, 8241, 8308, 8341, 8738, 8633, 8249, 8295,1.0997624397277832,SQUEEZE
83, 8115, 8514, 8348, 9022, 8009, 8636, 8409, 8156, 8086, 8154, 8297, 9231, 8313, 7956,1.1061604022979736,SQUEEZE
84, 7723, 6067, 5232, 3925, 8968, 5655, 7193, 8114, 7344, 8161, 5151, 4482, 7595, 7603,1.1142971515655518,SQUEEZE
85, 9087, 8936, 9788, 7674, 10079, 8907, 8660, 7985, 8257, 8370, 8257, 5860, 8301, 9219,1.1234161853790283,SQUEEZE
86, 8852, 10102, 11048, 11163, 8415, 10410, 9342, 8481, 8901, 8264, 10265, 10279, 8943, 9236,1.1312274932861328,SQUEEZE
87, 7386, 6673, 6324, 6752, 8045, 6580, 7417, 8156, 7713, 8077, 7038, 7791, 7766, 8078,1.1375303268432617,SQUEEZE
88, 8554, 8320, 8576, 7974, 8784, 8162, 8325, 7947, 8161, 8213, 8195, 7738, 8249, 9235,1.145484447479248,SQUEEZE
89, 8377, 8740, 9158, 9104, 8623, 8786, 8639, 8283, 8436, 8212, 8827, 9021, 8579, 9050,1.1532790660858154,SQUEEZE
90, 7832, 7672, 7814, 7811, 8405, 7719, 7982, 8112, 7948, 8132, 7950, 8270, 8018, 8569,1.161268949508667,SQUEEZE
91, 8480, 8382, 8510, 7897, 8497, 8267, 8405, 8232, 8282, 8206, 8298, 7978, 8366, 9150,1.169172763824463,SQUEEZE
92, 8095, 8094, 8384, 8109, 8995, 8151, 8213, 8031, 8143, 8169, 8233, 8080, 8254, 8782,1.1771790981292725,SQUEEZE
93, 8132, 8208, 8445, 8290, 8872, 8231, 8244, 8018, 8144, 8166, 8316, 8349, 8184, 8742,1.1864044666290283,SQUEEZE
94, 8540, 8396, 8405, 8024, 8283, 8212, 8435, 8301, 8300, 8217, 8257, 8150, 8416, 9187,1.194143295288086,SQUEEZE
95, 7967, 7711, 7871, 7651, 8220, 7749, 8036, 8065, 7978, 8148, 7997, 7861, 8003, 8621,1.2003519535064697,SQUEEZE
96, 8214, 8433, 8922, 8584, 9226, 8520, 8358, 8092, 8295, 8191, 8488, 8448, 8291, 8767,1.2082312107086182,SQUEEZE
97, 9175, 9115, 9043, 8818, 7880, 8735, 8972, 8279, 8423, 8226, 8641, 8757, 8721, 9831,1.2175397872924805,SQUEEZE
98, 8574, 6436, 5480, 5331, 5393, 5902, 7949, 8193, 7616, 8118, 6691, 5969, 7710, 9331,1.2253847122192383,SQUEEZE
99, 8994, 8253, 8396, 7866, 6189, 8170, 8769, 8228, 8305, 8083, 8762, 7871, 8216, 9311,1.233177900314331,SQUEEZE
100, 8617, 9675, 9749, 9252, 8652, 9496, 8933, 8362, 8600, 8046, 9524, 9796, 8832, 8473,1.2411067485809326,SQUEEZE
101, 8002, 7469, 6826, 6591, 8553, 7235, 7875, 8554, 7962, 8182, 7248, 7219, 8332, 8113,1.2488386631011963,SQUEEZE
102, 8554, 8559, 8804, 8964, 7814, 8744, 8486, 7940, 8113, 8228, 8780, 8828, 8281, 8654,1.256777048110962,SQUEEZE
103, 7981, 8498, 8578, 8594, 8266, 8452, 8331, 7769, 7849, 8072, 8304, 8720, 8253, 7826,1.264608383178711,SQUEEZE
104, 8434, 8141, 8135, 7741, 8004, 7945, 8402, 8449, 8014, 8201, 7696, 7644, 8590, 8349,1.2726714611053467,SQUEEZE
105, 8379, 8134, 8370, 8265, 7975, 8101, 8149, 8176, 8145, 8268, 8413, 8725, 8219, 8303,1.2805209159851074,SQUEEZE
106, 7880, 7799, 7666, 7690, 8089, 7746, 7943, 8121, 7916, 8130, 7908, 8082, 7950, 7829,1.2886242866516113,SQUEEZE
107, 8236, 8605, 8496, 8722, 7855, 8711, 8437, 8333, 7981, 8021, 8576, 8485, 8280, 8279,1.2966043949127197,SQUEEZE
108, 8036, 8320, 8211, 8509, 8286, 8398, 8097, 8108, 7930, 8120, 8287, 8881, 8055, 8025,1.3031635284423828,SQUEEZE
109, 7932, 7512, 7222, 7152, 8598, 7368, 7776, 8297, 7972, 8318, 7176, 7080, 7965, 7948,1.311295747756958,SQUEEZE
110, 8477, 9095, 9704, 9911, 8444, 9374, 8606, 8104, 8411, 8295, 9390, 9058, 8402, 8387,1.3192744255065918,SQUEEZE
111, 8075, 8492, 8364, 9314, 7690, 8654, 8178, 8208, 8409, 8173, 9421, 11577, 8252, 7832,1.3288030624389648,SQUEEZE
112, 6531, 3974, 2271, 2161, 9604, 3325, 5678, 8147, 7157, 8148, 4808, 6069, 6747, 7026,1.3352794647216797,SQUEEZE
113, 7893, 7064, 7277, 6393, 10831, 6949, 7618, 8018, 7843, 8257, 7278, 5509, 7660, 8926,1.3431267738342285,SQUEEZE
114, 8770, 9956, 10963, 11143, 8534, 10362, 9459, 8519, 8784, 8210, 9998, 9660, 8945, 9399,1.351158857345581,SQUEEZE
115, 7796, 7211, 7032, 7096, 8132, 7088, 7714, 8190, 7844, 8122, 7414, 8169, 7881, 8367,1.3591547012329102,SQUEEZE
116, 8454, 8137, 8268, 7783, 8895, 7923, 8229, 8103, 8159, 8219, 8067, 7779, 8200, 9262,1.3669829368591309,SQUEEZE
117, 8267, 8573, 9037, 9125, 8560, 8692, 8627, 8284, 8359, 8186, 8638, 8699, 8530, 9071,1.3747339248657227,SQUEEZE
118, 8094, 8039, 8277, 8366, 8327, 8045, 8191, 7957, 8047, 8154, 8168, 8410, 8082, 8818,1.3825571537017822,SQUEEZE
119, 8447, 8298, 8403, 7974, 8661, 8152, 8378, 8181, 8277, 8202, 8257, 7900, 8354, 9224,1.3903069496154785,SQUEEZE
120, 8117, 8103, 8478, 8067, 9056, 8193, 8305, 8128, 8117, 8162, 8251, 8195, 8227, 8869,1.3981552124023438,SQUEEZE
121, 8309, 8235, 8305, 8165, 8551, 8188, 8344, 8176, 8160, 8179, 8267, 8426, 8201, 8971,1.4062049388885498,SQUEEZE
122, 8445, 8209, 8133, 8014, 8316, 8084, 8376, 8185, 8231, 8197, 8171, 8062, 8340, 9191,1.4138286113739014,SQUEEZE
123, 7897, 7855, 8201, 7965, 9108, 7984, 8043, 7871, 8042, 8158, 8189, 8093, 8041, 8584,1.4217946529388428,SQUEEZE
124, 8551, 8614, 8940, 8332, 8790, 8487, 8572, 8207, 8337, 8222, 8409, 8267, 8433, 9135,1.4296481609344482,SQUEEZE
125, 8726, 8522, 8552, 8245, 7142, 8309, 8638, 8239, 8178, 8161, 8358, 8242, 8386, 9464,1.4374115467071533,SQUEEZE
126, 6876, 6417, 6853, 6788, 8141, 6793, 6969, 7970, 7795, 8141, 7474, 7362, 7522, 7797,1.4455065727233887,SQUEEZE
127, 8170, 9613, 10854, 10389, 9281, 10043, 8643, 8177, 8679, 8243, 9333, 9568, 8740, 8500,1.4533793926239014,SQUEEZE
238, 9532, 10780, 10863, 11187, 7732, 10691, 9898, 8253, 8449, 8089, 9216, 10275, 9096, 9137,1.4611883163452148,SQUEEZE
0, 8304, 7432, 7078, 7982, 7315, 7498, 8076, 8248, 7808, 8069, 7550, 8395, 7716, 8214,1.4689435958862305,SQUEEZE
1, 7790, 7932, 8407, 8624, 8578, 8110, 7737, 8224, 8199, 8140, 8583, 9476, 7658, 7940,1.4768106937408447,SQUEEZE
2, 8330, 8451, 8199, 7782, 8106, 8144, 8429, 8502, 8020, 8137, 7576, 8083, 8305, 8316,1.4846863746643066,SQUEEZE
3, 9018, 8704, 8615, 8643, 7476, 8728, 8860, 8352, 8212, 8289, 8170, 8178, 8577, 9017,1.4925544261932373,SQUEEZE
4, 7738, 8242, 8516, 8813, 8710, 8444, 7812, 7678, 8139, 8257, 8635, 9196, 7920, 7704,1.5004019737243652,SQUEEZE
5, 7810, 8227, 8010, 7705, 8366, 7920, 8004, 8085, 7901, 8158, 7502, 7558, 8140, 7621,1.5084316730499268,SQUEEZE
6, 8751, 8972, 8867, 8816, 7582, 8716, 8776, 8210, 8096, 8143, 8640, 8726, 8527, 8486,1.5162670612335205,SQUEEZE
7, 7838, 7702, 7477, 7617, 8245, 7547, 7856, 7832, 7890, 8122, 8124, 8565, 7920, 7725,1.5242323875427246,SQUEEZE
8, 7982, 7865, 7651, 7604, 8264, 7845, 8112, 8121, 7969, 8142, 7697, 7552, 8074, 8056,1.5319733619689941,SQUEEZE
9, 8305, 8915, 9272, 9605, 8309, 9228, 8636, 8041, 8205, 8170, 9253, 9539, 8276, 8399,1.5397872924804688,SQUEEZE
10, 7632, 7472, 7078, 7283, 8252, 7356, 7759, 8194, 8124, 8400, 7732, 8801, 7942, 7841,1.5474891662597656,SQUEEZE
11, 7757, 7094, 6670, 5967, 8711, 6896, 7634, 8281, 7820, 8346, 6176, 5543, 7753, 7870,1.5553674697875977,SQUEEZE
12, 9757, 11806, 13402, 13286, 7437, 12484, 10507, 8406, 8663, 7924, 10502, 9387, 9092, 9230,1.563417911529541,SQUEEZE
13, 9205, 10337, 10977, 11736, 5937, 10502, 9656, 8593, 8798, 8115, 10181, 11054, 9060, 9006,1.5713660717010498,SQUEEZE
14, 7829, 6402, 5660, 5357, 8100, 5672, 7028, 7846, 7700, 8311, 6579, 6903, 7529, 8297,1.5791826248168945,SQUEEZE
15, 8736, 8860, 9117, 8683, 9083, 8691, 8543, 7975, 8189, 8129, 8487, 8100, 8238, 8961,1.5886292457580566,SQUEEZE
16, 8229, 8575, 8933, 9237, 8050, 8740, 8573, 8326, 8303, 8161, 8708, 8948, 8443, 8528,1.5947859287261963,SQUEEZE
17, 7977, 7660, 7720, 7443, 8147, 7478, 7854, 8030, 7935, 8197, 7807, 7802, 7937, 8478,1.6025111675262451,SQUEEZE
18, 8335, 8371, 8479, 7950, 8836, 8228, 8362, 8234, 8242, 8194, 8262, 8261, 8351, 8874,1.6101961135864258,SQUEEZE
19, 7974, 8083, 8381, 8269, 8875, 8138, 8209, 8046, 8068, 8138, 8258, 8456, 8151, 8507,1.619553565979004,SQUEEZE
20, 8237, 8218, 8348, 8154, 8403, 8102, 8249, 8068, 8113, 8153, 8251, 8076, 8127, 8637,1.6274397373199463,SQUEEZE
21, 8208, 8151, 8363, 7978, 8893, 8133, 8295, 8214, 8129, 8201, 8130, 8030, 8210, 8642,1.6353981494903564,SQUEEZE
22, 8066, 8159, 8405, 8210, 9073, 8206, 8242, 8101, 8021, 8140, 8213, 8378, 8052, 8448,1.6430861949920654,SQUEEZE
23, 8336, 8194, 8103, 7995, 8358, 8051, 8292, 8302, 8230, 8183, 8171, 7977, 8268, 8734,1.6507995128631592,SQUEEZE
24, 8087, 8140, 8379, 8206, 8931, 8217, 8245, 7979, 8125, 8151, 8340, 8168, 8131, 8522,1.6586244106292725,SQUEEZE
25, 8148, 8176, 8397, 8046, 9131, 8195, 8317, 7985, 8138, 8183, 8229, 8295, 8137, 8472,1.6665725708007812,SQUEEZE
26, 8468, 8270, 8382, 7945, 8246, 8046, 8283, 8256, 8190, 8221, 8155, 8147, 8262, 8838,1.6745076179504395,SQUEEZE
27, 7737, 7942, 8390, 8205, 8333, 8257, 8208, 8034, 7972, 8131, 8254, 8243, 7923, 8073,1.6824865341186523,SQUEEZE
28, 8150, 8063, 8103, 7990, 8496, 8167, 8401, 8165, 8140, 8179, 8110, 8054, 8119, 8342,1.690385341644287,SQUEEZE
29, 8653, 8482, 8407, 8284, 8475, 8154, 8253, 8019, 8105, 8114, 8298, 8053, 8154, 8752,1.6983492374420166,SQUEEZE
30, 7778, 7973, 8246, 8248, 8487, 8095, 8067, 8088, 8036, 8112, 8166, 8261, 8000, 7963,1.7062320709228516,SQUEEZE
31, 8365, 8280, 8394, 8059, 8006, 8203, 8469, 8284, 8180, 8188, 8193, 8226, 8226, 8476,1.7142374515533447,SQUEEZE
32, 8169, 8006, 8106, 8022, 8093, 7907, 7944, 7961, 8000, 8178, 8173, 8025, 7943, 8246,1.7221217155456543,SQUEEZE
33, 7806, 8014, 8290, 8258, 8546, 8115, 8192, 8135, 8091, 8186, 8033, 8165, 8068, 7891,1.7285466194152832,SQUEEZE
34, 9001, 9217, 9146, 8826, 7122, 8981, 9242, 8097, 8127, 8108, 8515, 8590, 8335, 8717,1.7363483905792236,SQUEEZE
35, 7773, 6438, 6458, 6691, 7409, 6526, 6651, 8029, 7951, 8307, 7555, 7496, 7589, 7982,1.7444641590118408,SQUEEZE
36, 6876, 6104, 7055, 7252, 9467, 6672, 6264, 8360, 8067, 8255, 7527, 7804, 7668, 7575,1.7537386417388916,SQUEEZE
37, 8690, 9989, 10123, 10046, 7999, 9786, 9827, 8187, 8274, 8031, 9104, 9477, 8749, 8850,1.7617583274841309,SQUEEZE
38, 8976, 8127, 7561, 7952, 6358, 7580, 8795, 8012, 8025, 8110, 7755, 8384, 8361, 8913,1.7694745063781738,SQUEEZE
39, 7072, 4606, 5720, 6056, 9278, 5106, 5506, 7839, 7667, 8223, 6550, 7216, 7149, 7598,1.777550458908081,SQUEEZE
40, 7376, 7394, 8704, 8557, 9880, 7902, 7494, 8239, 8216, 8339, 8228, 8487, 7973, 8159,1.785444974899292,SQUEEZE
41, 8958, 9594, 9282, 9213, 7681, 9301, 9602, 8514, 8388, 8147, 8734, 8743, 8752, 9360,1.7917072772979736,SQUEEZE
42, 8451, 7866, 7832, 7787, 8325, 7688, 7960, 7806, 8030, 8130, 8058, 7831, 8052, 8987,1.7995531558990479,SQUEEZE
43, 7988, 7806, 8410, 8187, 8269, 7920, 7946, 8020, 8225, 8267, 8118, 7905, 8138, 8646,1.8074121475219727,SQUEEZE
44, 8149, 8355, 8384, 8640, 8229, 8408, 8440, 8254, 8159, 8132, 8332, 8882, 8233, 8691,1.8151988983154297,SQUEEZE
45, 8519, 8301, 8178, 8111, 9189, 8015, 8178, 8038, 8163, 8187, 8269, 8356, 8212, 9148,1.824415922164917,SQUEEZE
46, 8286, 8172, 8424, 8101, 8031, 8184, 8367, 8279, 8232, 8197, 8142, 7737, 8321, 8896,1.8322553634643555,SQUEEZE
47, 7886, 7942, 8290, 8243, 8128, 8131, 8098, 8036, 8065, 8145, 8285, 8450, 8075, 8512,1.8402659893035889,SQUEEZE
48, 8496, 8368, 8372, 7998, 8881, 8137, 8365, 8158, 8233, 8204, 8239, 8182, 8367, 9231,1.8481414318084717,SQUEEZE
49, 8103, 8125, 8434, 7977, 8801, 8173, 8301, 8246, 8186, 8186, 8230, 7908, 8315, 8865,1.8560059070587158,SQUEEZE
50, 8071, 8166, 8432, 8270, 8441, 8202, 8237, 8018, 8122, 8169, 8374, 8515, 8142, 8721,1.862287998199463,SQUEEZE
51, 8534, 8365, 8272, 8123, 8320, 8204, 8476, 8194, 8296, 8215, 8234, 8307, 8412, 9238,1.8702950477600098,SQUEEZE
52, 7872, 7720, 7925, 7661, 8678, 7803, 7973, 8090, 7997, 8147, 7950, 7800, 8061, 8622,1.879828929901123,SQUEEZE
53, 8351, 8397, 8687, 8427, 8670, 8447, 8410, 8244, 8215, 8183, 8477, 8211, 8253, 8953,1.886406660079956,SQUEEZE
54, 8820, 9059, 9112, 9008, 7986, 8913, 8968, 8236, 8479, 8238, 8820, 8934, 8647, 9462,1.894160270690918,SQUEEZE
55, 7128, 5900, 5644, 5179, 8025, 5749, 6801, 7865, 7465, 8055, 6279, 5703, 7437, 8027,1.9034295082092285,SQUEEZE
56, 8409, 8028, 9064, 8353, 8440, 8383, 7868, 8068, 8016, 8025, 8507, 7400, 8070, 9011,1.9111332893371582,SQUEEZE
57, 9665, 11185, 12159, 12217, 8186, 11422, 9901, 8121, 8672, 8048, 10958, 11576, 9141, 9510,1.9176394939422607,SQUEEZE
58, 7763, 7259, 6552, 6754, 7895, 7025, 7780, 8264, 7703, 8129, 7055, 7634, 8091, 7700,1.9255318641662598,SQUEEZE
59, 7820, 7392, 7443, 7235, 8145, 7469, 7604, 8317, 7937, 8270, 7640, 7253, 7936, 8014,1.9336459636688232,SQUEEZE
60, 8241, 9060, 9380, 9384, 8188, 9127, 8570, 8102, 8074, 8112, 9013, 9186, 8198, 8077,1.941399335861206,SQUEEZE
61, 8288, 8210, 7957, 8013, 7833, 8038, 8425, 8361, 7885, 8082, 7877, 8120, 8268, 8073,1.9492902755737305,SQUEEZE
62, 8296, 8125, 8116, 8098, 8294, 8109, 8157, 8222, 8104, 8268, 8202, 8362, 8102, 8197,1.9587018489837646,SQUEEZE
63, 8033, 7993, 7919, 7889, 8452, 8036, 8027, 8237, 8149, 8373, 7964, 8038, 8027, 7957,1.9665660858154297,SQUEEZE
64, 8365, 8386, 8386, 8462, 8029, 8405, 8466, 8387, 8145, 8263, 8214, 8265, 8325, 8337,1.9744141101837158,SQUEEZE
65, 8146, 8161, 8158, 8292, 8138, 8151, 8228, 8147, 7839, 8065, 8273, 8270, 7991, 8047,1.9824137687683105,SQUEEZE
66, 8346, 8357, 8278, 8246, 8017, 8318, 8300, 8434, 8030, 8124, 8230, 8175, 8143, 8144,1.9887101650238037,SQUEEZE
67, 8236, 8372, 8286, 8250, 8311, 8324, 8164, 8320, 8118, 8263, 8182, 8486, 8118, 8051,1.9965903759002686,SQUEEZE
68, 8059, 8092, 7895, 7953, 8446, 8056, 8181, 8160, 8072, 8307, 7853, 7944, 8093, 7952,2.004321813583374,SQUEEZE
69, 8295, 8208, 8123, 8200, 8244, 8246, 8466, 8360, 8100, 8160, 8151, 7854, 8362, 8161,2.0122852325439453,SQUEEZE
70, 8514, 8883, 9221, 9422, 8015, 8927, 8567, 8220, 8095, 8104, 8920, 9331, 8324, 8253,2.0202760696411133,SQUEEZE
71, 7901, 7617, 7031, 7160, 7936, 7444, 7894, 8438, 7870, 8227, 7224, 7688, 7846, 7656,2.028162717819214,SQUEEZE
72, 8127, 7965, 7801, 7465, 8448, 7940, 8030, 8290, 7831, 8167, 7704, 6221, 7924, 8054,2.0374228954315186,SQUEEZE
73, 9825, 11994, 13742, 13944, 7015, 12236, 9970, 8224, 8985, 8091, 12006, 11716, 9322, 9702,2.045156240463257,SQUEEZE
74, 8626, 9041, 9365, 9792, 5929, 8863, 8669, 8341, 8427, 8100, 8892, 10830, 8537, 8689,2.051321268081665,SQUEEZE
75, 7698, 6402, 5806, 5398, 8021, 6114, 7390, 7870, 7560, 8170, 6296, 6560, 7455, 8157,2.059176445007324,SQUEEZE
76, 8748, 9213, 9644, 9469, 8668, 9206, 8852, 8127, 8467, 8211, 9165, 8754, 8565, 9148,2.067322254180908,SQUEEZE
77, 8070, 8233, 8477, 8689, 8122, 8196, 8275, 8195, 8185, 8138, 8294, 8738, 8302, 8464,2.075254201889038,SQUEEZE
78, 8081, 7794, 7817, 7477, 8230, 7687, 8075, 7983, 7996, 8174, 7759, 7715, 8014, 8570,2.0845580101013184,SQUEEZE
79, 8358, 8398, 8517, 8151, 8301, 8308, 8467, 8276, 8302, 8202, 8337, 8297, 8387, 8794,2.092351198196411,SQUEEZE
80, 8009, 8068, 8352, 8339, 8651, 8055, 8150, 8055, 8057, 8153, 8200, 8461, 8086, 8385,2.100088357925415,SQUEEZE
81, 8369, 8409, 8515, 8403, 8557, 8340, 8455, 8121, 8247, 8174, 8375, 8331, 8263, 8667,2.108048915863037,SQUEEZE
82, 8190, 8015, 8127, 7910, 8562, 7935, 8216, 8140, 8147, 8167, 8027, 7862, 8192, 8564,2.1145522594451904,SQUEEZE
83, 7813, 7681, 7903, 7643, 8909, 7768, 7945, 8068, 7945, 8164, 7876, 7648, 7896, 8140,2.12227463722229,SQUEEZE
84, 8875, 9336, 9630, 9409, 8347, 9348, 9042, 8333, 8537, 8194, 9195, 9352, 8634, 9070,2.1302902698516846,XXXXX
85, 7652, 7097, 6776, 6814, 7957, 6855, 7671, 8013, 7843, 8141, 7138, 7373, 7860, 8027,2.1398160457611084,XXXXX
86, 6743, 5069, 5042, 4763, 8316, 5094, 6409, 7974, 7344, 8333, 5376, 4160, 7119, 7361,2.1476731300354004,XXXXX
87, 9128, 9919, 11111, 10910, 8286, 10215, 9007, 8212, 8707, 8490, 9643, 9133, 8734, 9324,2.1543173789978027,XXXXX
88, 8673, 9231, 9177, 9344, 7996, 9142, 8847, 8221, 8355, 8260, 8795, 9687, 8625, 8512,2.163341522216797,XXXXX
89, 7620, 6664, 6225, 6147, 8050, 6580, 7466, 8288, 7725, 8183, 6853, 6867, 7857, 7723,2.1712286472320557,XXXXX
90, 8010, 8571, 8945, 8867, 8181, 8671, 8042, 7924, 8116, 8183, 8760, 8458, 8057, 8030,2.1791467666625977,XXXXX
91, 8039, 8628, 8550, 8519, 7812, 8547, 8307, 8038, 8094, 8178, 8152, 8357, 8208, 7880,2.1854805946350098,XXXXX
92, 8327, 8178, 8291, 8044, 8107, 8111, 8295, 8132, 8108, 8235, 8063, 8301, 8207, 8248,2.1933507919311523,XXXXX
93, 8036, 7790, 7923, 7781, 8499, 7774, 7965, 7926, 7910, 8144, 8147, 8068, 7794, 7926,2.2012722492218018,XXXXX
94, 8301, 8208, 8048, 8205, 7880, 8213, 8332, 8308, 8132, 8161, 8176, 8161, 8129, 8180,2.21062970161438,XXXXX
95, 8186, 8379, 8237, 8469, 8151, 8429, 8243, 8155, 8081, 8184, 8294, 8406, 8129, 8082,2.2185938358306885,XXXXX
96, 8060, 8160, 8043, 8162, 8373, 8157, 8185, 8144, 7969, 8150, 8047, 7900, 8123, 7960,2.2262909412384033,XXXXX
97, 8368, 8331, 8387, 8479, 8029, 8361, 8461, 8351, 8208, 8221, 8223, 8314, 8319, 8224,2.2343578338623047,XXXXX
98, 8193, 8029, 8080, 8138, 8155, 8135, 8227, 8096, 8061, 8258, 7991, 8033, 8005, 7916,2.2422597408294678,XXXXX
99, 8365, 8373, 8276, 8215, 7979, 8383, 8437, 8317, 8124, 8190, 8102, 7899, 8227, 8085,2.2485013008117676,XXXXX
100, 8221, 8626, 8695, 8899, 8152, 8692, 8367, 8234, 8066, 8062, 8665, 8757, 8199, 8074,2.2562878131866455,XXXXX
101, 8017, 8078, 8008, 8118, 8273, 8003, 8059, 8222, 7984, 8182, 7962, 8305, 8026, 7870,2.264310598373413,XXXXX
102, 8136, 7675, 7530, 6860, 8305, 7529, 8050, 8453, 7957, 8304, 7213, 6543, 8148, 8076,2.2721951007843018,XXXXX
103, 8766, 9655, 10470, 11380, 8277, 10173, 9016, 8139, 8445, 8004, 10569, 10927, 8551, 8526,2.2801809310913086,XXXXX
104, 7628, 7201, 6704, 9366, 8243, 7544, 7733, 8093, 8438, 8162, 9431, 11975, 7961, 7655,2.288184404373169,XXXXX
105, 6635, 3956, 2486, 3047, 9459, 3632, 6033, 7962, 7430, 8398, 5235, 6047, 6957, 7332,2.2977914810180664,XXXXX
106, 8642, 8763, 9358, 8433, 9276, 8728, 8578, 8189, 8090, 8064, 8480, 7912, 8247, 9066,2.3058371543884277,XXXXX
107, 8606, 9386, 9973, 10212, 8124, 9458, 8978, 8369, 8528, 8090, 9271, 9731, 8673, 8944,2.3135557174682617,XXXXX
108, 7784, 7024, 6837, 6971, 8477, 6889, 7641, 7827, 7916, 8221, 7373, 7584, 7836, 8280,2.319715738296509,XXXXX
109, 8573, 8573, 8845, 8338, 8249, 8462, 8546, 8122, 8271, 8188, 8391, 8174, 8354, 8968,2.3275485038757324,XXXXX
110, 8183, 8306, 8652, 8742, 8150, 8319, 8382, 8314, 8208, 8229, 8263, 8452, 8251, 8626,2.3352861404418945,XXXXX
111, 8129, 8051, 8232, 8235, 8631, 8029, 8220, 8065, 8069, 8205, 8108, 8179, 8045, 8326,2.343193531036377,XXXXX
112, 8731, 8553, 8608, 8183, 8261, 8372, 8712, 8186, 8221, 8164, 8218, 7813, 8373, 8887,2.3524322509765625,XXXXX
113, 7943, 7826, 8145, 8070, 8156, 7975, 7948, 8067, 8009, 8117, 8115, 8090, 8045, 8432,2.3602397441864014,XXXXX
114, 7881, 7914, 8143, 7869, 8923, 8019, 8045, 8279, 8242, 8210, 8156, 8346, 8212, 8308,2.3679330348968506,XXXXX
115, 9789, 9627, 9761, 9014, 7576, 9105, 9851, 8143, 8217, 8075, 8564, 8276, 8540, 9443,2.3758857250213623,XXXXX
116, 8372, 7326, 7814, 7780, 7155, 7414, 7860, 7930, 7824, 8154, 7760, 7546, 7672, 8364,2.382172107696533,XXXXX
117, 6819, 6469, 7570, 7523, 9511, 7019, 6478, 8326, 8202, 8311, 7839, 7978, 7859, 7387,2.3915445804595947,XXXXX
118, 8536, 9068, 9607, 9088, 8625, 8653, 8998, 8162, 8265, 8132, 8593, 8814, 8589, 8386,2.399338722229004,XXXXX
119, 9085, 8265, 8218, 7783, 6753, 7575, 9068, 7706, 7882, 8125, 7501, 7462, 7938, 8603,2.407301187515259,XXXXX
120, 8243, 8578, 9158, 9297, 7869, 8849, 8135, 7939, 8218, 8087, 8593, 8964, 8117, 8090,2.4150748252868652,XXXXX
121, 7738, 8634, 8616, 9206, 8499, 8798, 8310, 8343, 8283, 8182, 8604, 9436, 8404, 7940,2.422956943511963,XXXXX
122, 8262, 7965, 7746, 7678, 7770, 7599, 8492, 8230, 8002, 8221, 7404, 7638, 7997, 8401,2.4308712482452393,XXXXX
123, 8350, 8623, 8868, 8955, 7971, 8911, 8104, 7973, 8219, 8079, 8848, 9060, 8172, 8309,2.438765287399292,XXXXX
124, 7804, 7707, 7353, 7705, 8795, 7859, 7611, 8234, 8293, 8250, 8250, 8909, 8308, 8007,2.44535756111145,XXXXX
125, 8192, 7767, 7396, 6947, 8166, 7472, 8310, 8148, 7826, 8240, 6898, 6979, 7985, 8319,2.4544312953948975,XXXXX
126, 8351, 8683, 8876, 8760, 7696, 9240, 8567, 7918, 8082, 8138, 8266, 8052, 8204, 8247,2.4623472690582275,XXXXX
127, 8260, 8417, 8594, 8985, 8163, 8945, 8317, 8323, 8643, 8236, 8978, 9236, 8786, 8191,2.4704344272613525,XXXXX
238, 8596, 8438, 8540, 8421, 8094, 8055, 8605, 8198, 8137, 8172, 8087, 8362, 8277, 8242,2.4783077239990234,XXXXX
0, 8921, 8979, 9299, 9305, 7099, 8624, 9034, 8345, 8077, 8161, 8025, 8321, 8111, 8419,2.4863734245300293,XXXXX
1, 7898, 7433, 7694, 8185, 8581, 7591, 7681, 8531, 8230, 8276, 8045, 9121, 8086, 8107,2.4943604469299316,XXXXX
2, 8355, 9003, 9251, 8824, 8689, 8927, 8536, 8202, 8078, 8033, 8633, 9145, 8369, 8316,2.5025408267974854,XXXXX
3, 9526, 10791, 10496, 10260, 5009, 10571, 10167, 8620, 8386, 7999, 9219, 8696, 9084, 9162,2.509809732437134,XXXXX
4, 8038, 7386, 7120, 7569, 6974, 7308, 7782, 8094, 8115, 8254, 7997, 7791, 7917, 8253,2.5174169540405273,XXXXX
5, 8000, 7661, 8011, 7768, 10057, 7410, 7709, 7811, 8063, 8198, 7908, 8152, 7850, 8147,2.5249850749969482,XXXXX
6, 8699, 9008, 9170, 9024, 8191, 8984, 8957, 8368, 8227, 8137, 8537, 8527, 8493, 8733,2.5327322483062744,XXXXX
7, 8019, 7792, 7926, 7942, 8043, 7794, 7990, 8094, 8003, 8182, 8185, 8108, 7954, 8128,2.540377140045166,XXXXX
8, 8355, 8193, 8364, 7956, 8792, 8003, 8291, 8221, 8161, 8187, 8094, 8148, 8194, 8409,2.548243284225464,XXXXX
9, 8279, 8231, 8456, 8326, 8826, 8289, 8342, 8063, 8141, 8159, 8298, 8457, 8154, 8339,2.5574331283569336,XXXXX
10, 8211, 8174, 8365, 8148, 8647, 8083, 8232, 7947, 8161, 8161, 8227, 8131, 8114, 8117,2.5654213428497314,XXXXX
11, 8388, 8225, 8332, 7880, 8719, 8124, 8372, 8251, 8224, 8199, 8200, 7865, 8296, 8461,2.5734164714813232,XXXXX
12, 8078, 8131, 8418, 8201, 9305, 8176, 8182, 8045, 8041, 8181, 8310, 8312, 8043, 8083,2.5799193382263184,XXXXX
13, 8393, 8253, 8344, 8145, 8699, 8119, 8444, 8185, 8212, 8230, 8161, 8276, 8257, 8365,2.5878052711486816,XXXXX
14, 8442, 8284, 8518, 8281, 8145, 8243, 8395, 8048, 8159, 8165, 8258, 8275, 8212, 8429,2.595647096633911,XXXXX
15, 7670, 7835, 8034, 8038, 9485, 8084, 7862, 7993, 8053, 8164, 8145, 8104, 7977, 7427,2.603358268737793,XXXXX
16, 8660, 8418, 8544, 8166, 8915, 8237, 8740, 8306, 8203, 8205, 8228, 8031, 8307, 8173,2.6112618446350098,XXXXX
17, 8961, 8812, 9222, 8750, 6446, 8596, 8902, 7989, 8035, 8099, 8380, 8428, 8185, 8494,2.620511054992676,XXXXX
18, 7015, 7266, 7548, 7784, 8259, 7530, 7226, 8019, 8093, 8293, 7773, 7933, 7959, 7577,2.62827205657959,XXXXX
19, 7494, 7619, 8046, 8087, 9525, 7645, 7645, 8415, 8134, 8290, 7995, 8144, 8090, 7827,2.6361029148101807,XXXXX
20, 8253, 8241, 8711, 8422, 7565, 8208, 8270, 8461, 7981, 8116, 8121, 8276, 8023, 8265,2.643965244293213,XXXXX
21, 7789, 7673, 7968, 7790, 7674, 7748, 7776, 8195, 8135, 8239, 7885, 7898, 8099, 8349,2.650135040283203,XXXXX
22, 8058, 8073, 8490, 8306, 8464, 8039, 8024, 7857, 8140, 8234, 8190, 8359, 8099, 7969,2.659389019012451,XXXXX
23, 8075, 7999, 8311, 8085, 8247, 7955, 8057, 8135, 8148, 8198, 8021, 8070, 8102, 8076,2.6670925617218018,XXXXX
24, 8234, 8034, 8446, 8079, 8115, 7970, 8138, 8266, 8146, 8153, 8162, 8045, 8167, 8481,2.674898386001587,XXXXX
25, 8312, 8234, 8575, 8411, 8141, 8180, 8261, 8153, 8136, 8138, 8306, 8369, 8165, 8400,2.6830122470855713,XXXXX
26, 8040, 7852, 8126, 8104, 8205, 7842, 7970, 8272, 8252, 8214, 8019, 8108, 8241, 8543,2.691009283065796,XXXXX
27, 8194, 8121, 8598, 8279, 8467, 8068, 8105, 8028, 8159, 8133, 8309, 8332, 8177, 8466,2.698960065841675,XXXXX
28, 8736, 8569, 8740, 8315, 7492, 8380, 8714, 8244, 8206, 8078, 8329, 8220, 8356, 8554,2.707022190093994,XXXXX
29, 7630, 7685, 7652, 7791, 8837, 7732, 7660, 8235, 8149, 8160, 8031, 7915, 8133, 8485,2.713383436203003,XXXXX
30, 7426, 7625, 7911, 8036, 10275, 7573, 7481, 8049, 8157, 8247, 8177, 8055, 8029, 8685,2.7212464809417725,XXXXX
31, 8973, 8626, 8998, 8610, 7448, 8436, 8898, 8541, 8305, 8178, 8239, 8178, 8427, 9028,2.7292897701263428,XXXXX
32, 8236, 8192, 8307, 8206, 7826, 8270, 8203, 8118, 8080, 8108, 8196, 8206, 8165, 8774,2.7388157844543457,XXXXX
33, 7990, 7979, 8056, 8011, 9244, 7887, 8024, 8031, 8180, 8219, 8085, 8204, 8219, 9046,2.745278835296631,XXXXX
34, 8504, 8302, 8616, 8468, 8237, 8287, 8498, 8341, 8291, 8210, 8108, 8435, 8317, 8819,2.7532918453216553,XXXXX
35, 8150, 8199, 8422, 8234, 8444, 8200, 8164, 7974, 8174, 8137, 8281, 8319, 8153, 8373,2.7628133296966553,XXXXX
36, 8335, 8165, 8259, 7932, 8971, 8069, 8358, 8148, 8233, 8173, 8142, 7976, 8339, 8837,2.76941180229187,XXXXX
37, 8244, 8188, 8431, 8266, 9013, 8226, 8289, 8126, 8111, 8162, 8184, 8321, 8162, 8388,2.7768635749816895,XXXXX
38, 8271, 8216, 8383, 8100, 8473, 8115, 8270, 8183, 8196, 8203, 8151, 8280, 8184, 8236,2.784759521484375,XXXXX
39, 8306, 8153, 8339, 7949, 8929, 8149, 8321, 8218, 8255, 8196, 8152, 8177, 8295, 8986,2.792543888092041,XXXXX
40, 8256, 8279, 8498, 8343, 8933, 8207, 8228, 7934, 8114, 8112, 8319, 8352, 8182, 8543,2.800591230392456,XXXXX
41, 8311, 8164, 8297, 8134, 8549, 8087, 8316, 8267, 8245, 8186, 8104, 8072, 8317, 8656,2.8084542751312256,XXXXX
42, 8217, 8163, 8454, 8173, 9005, 8183, 8273, 8234, 8205, 8198, 8215, 8334, 8209, 8980,2.8163061141967773,XXXXX
43, 8285, 8239, 8384, 8145, 8656, 8093, 8251, 8074, 8213, 8201, 8190, 8347, 8208, 8529,2.824326515197754,XXXXX
44, 8252, 8100, 8277, 8130, 8796, 8168, 8322, 8198, 8236, 8208, 8099, 8224, 8286, 8774,2.832913637161255,XXXXX
45, 8246, 8255, 8503, 8327, 8917, 8210, 8240, 8113, 8085, 8145, 8244, 8321, 8143, 8615,2.8392508029937744,XXXXX
46, 8310, 8174, 8232, 7986, 8649, 8065, 8284, 8346, 8217, 8208, 8050, 8119, 8277, 8639,2.8472774028778076,XXXXX
47, 8239, 8181, 8400, 8169, 8911, 8239, 8298, 8118, 8223, 8183, 8244, 8424, 8240, 8632,2.855327606201172,XXXXX
48, 8279, 8251, 8436, 8290, 8744, 8093, 8231, 7989, 8193, 8151, 8256, 8232, 8214, 8386,2.864213466644287,XXXXX
49, 8281, 8111, 8254, 8157, 8759, 8135, 8319, 8292, 8187, 8175, 8069, 8087, 8273, 8672,2.8718810081481934,XXXXX
50, 8224, 8217, 8466, 8319, 8878, 8261, 8254, 8128, 8108, 8153, 8250, 8336, 8149, 8329,2.879709243774414,XXXXX
51, 8281, 8140, 8255, 7964, 8693, 8050, 8264, 8273, 8290, 8230, 8099, 8047, 8299, 8459,2.887561321258545,XXXXX
52, 8287, 8188, 8397, 8133, 8832, 8219, 8302, 8165, 8239, 8217, 8181, 8270, 8251, 8617,2.8953607082366943,XXXXX
53, 8234, 8238, 8456, 8333, 8786, 8172, 8226, 8030, 8205, 8202, 8228, 8217, 8199, 8483,2.9032394886016846,XXXXX
54, 8321, 8105, 8261, 8131, 8722, 8082, 8290, 8324, 8297, 8197, 8170, 8128, 8328, 8713,2.9111368656158447,XXXXX
55, 8285, 8241, 8471, 8293, 8821, 8219, 8255, 8105, 8165, 8138, 8301, 8359, 8191, 8397,2.919041633605957,XXXXX
56, 8216, 8136, 8286, 8022, 8726, 8104, 8272, 8187, 8227, 8221, 8089, 8040, 8243, 8574,2.9268219470977783,XXXXX
57, 8339, 8165, 8384, 8091, 8779, 8182, 8291, 8270, 8184, 8192, 8183, 8209, 8225, 8665,2.9345719814300537,XXXXX
58, 8259, 8241, 8423, 8335, 8795, 8190, 8240, 8205, 8136, 8164, 8124, 8153, 8194, 8433,2.9423530101776123,XXXXX
59, 8246, 8091, 8241, 8207, 8723, 8102, 8296, 8332, 8235, 8232, 8072, 8032, 8307, 8675,2.95165753364563,XXXXX
60, 8297, 8233, 8511, 8327, 8788, 8211, 8244, 7983, 8165, 8171, 8267, 8341, 8162, 8453,2.95943546295166,XXXXX
61, 8237, 8153, 8276, 8039, 8731, 8118, 8272, 8127, 8230, 8153, 8056, 8103, 8253, 8570,2.9677298069000244,XXXXX
62, 8294, 8141, 8321, 8087, 8744, 8162, 8288, 8292, 8164, 8134, 8245, 8169, 8272, 8702,2.9735023975372314,XXXXX
63, 8235, 8236, 8438, 8343, 8789, 8217, 8231, 8123, 8139, 8162, 8152, 8143, 8154, 8480,2.981513023376465,XXXXX
64, 8259, 8100, 8214, 8141, 8704, 8102, 8289, 8328, 8322, 8235, 8050, 8047, 8300, 8697,2.989377021789551,XXXXX
65, 8290, 8247, 8483, 8311, 8750, 8189, 8245, 8096, 8213, 8166, 8339, 8302, 8197, 8499,2.998893976211548,XXXXX
66, 8213, 8183, 8310, 8147, 8739, 8148, 8268, 8153, 8178, 8185, 8049, 8030, 8190, 8522,3.0068509578704834,XXXXX
67, 8282, 8126, 8308, 8151, 8716, 8148, 8279, 8290, 8151, 8195, 8146, 8107, 8222, 8692,3.013258695602417,XXXXX
68, 8226, 8233, 8439, 8302, 8755, 8199, 8224, 8098, 8130, 8132, 8226, 8203, 8144, 8560,3.0212454795837402,XXXXX
69, 8249, 8119, 8203, 7985, 8707, 8114, 8303, 8311, 8262, 8162, 8088, 8044, 8323, 8769,3.0292019844055176,XXXXX
70, 8288, 8244, 8440, 8257, 8747, 8204, 8242, 8148, 8185, 8151, 8278, 8245, 8234, 8468,3.0370163917541504,XXXXX
71, 8201, 8177, 8310, 8285, 8723, 8156, 8245, 8217, 8210, 8179, 8113, 8083, 8181, 8425,3.0450117588043213,XXXXX
72, 8293, 8126, 8304, 8183, 8697, 8131, 8301, 8339, 8198, 8175, 8178, 8135, 8246, 8697,3.0529940128326416,XXXXX
73, 8223, 8256, 8449, 8281, 8745, 8207, 8223, 7997, 8112, 8141, 8230, 8206, 8139, 8550,3.060932159423828,XXXXX
74, 8223, 8104, 8180, 8038, 8693, 8122, 8291, 8215, 8213, 8214, 8050, 8017, 8268, 8727,3.068847894668579,XXXXX
75, 8289, 8217, 8416, 8295, 8720, 8192, 8249, 8197, 8167, 8182, 8233, 8230, 8228, 8484,3.0764920711517334,XXXXX
76, 8176, 8205, 8336, 8213, 8714, 8173, 8225, 8236, 8187, 8159, 8149, 8114, 8199, 8428,3.084352970123291,XXXXX
77, 8283, 8135, 8266, 8033, 8697, 8138, 8304, 8341, 8162, 8163, 8139, 8088, 8261, 8733,3.092264413833618,XXXXX
78, 8239, 8264, 8431, 8331, 8735, 8202, 8212, 7997, 8109, 8134, 8241, 8221, 8122, 8538,3.1002492904663086,XXXXX
79, 8209, 8123, 8183, 8174, 8678, 8128, 8274, 8229, 8291, 8211, 8093, 8065, 8265, 8668,3.10823392868042,XXXXX
80, 8278, 8192, 8379, 8270, 8704, 8193, 8248, 8229, 8229, 8200, 8212, 8225, 8260, 8519,3.1161770820617676,XXXXX
81, 8171, 8187, 8320, 8185, 8703, 8179, 8202, 8230, 8166, 8178, 8161, 8141, 8171, 8455,3.1239702701568604,XXXXX
82, 8296, 8143, 8233, 8005, 8686, 8156, 8324, 8391, 8193, 8177, 8122, 8083, 8247, 8754,3.132016181945801,XXXXX
83, 8223, 8261, 8458, 8330, 8712, 8208, 8189, 7994, 8131, 8143, 8308, 8261, 8150, 8537,3.1399729251861572,XXXXX
84, 8188, 8130, 8209, 8231, 8676, 8127, 8270, 8164, 8207, 8211, 8087, 8059, 8235, 8645,3.1478841304779053,XXXXX
85, 8302, 8210, 8353, 8288, 8700, 8190, 8302, 8273, 8201, 8235, 8125, 8162, 8225, 8561,3.155789852142334,XXXXX
86, 8138, 8188, 8353, 8207, 8669, 8162, 8156, 8286, 8182, 8192, 8275, 8203, 8168, 8499,3.1636574268341064,XXXXX
87, 8303, 8154, 8183, 8029, 8694, 8157, 8334, 8401, 8134, 8098, 8078, 8060, 8256, 8807,3.1713645458221436,XXXXX
88, 8241, 8251, 8390, 8340, 8703, 8203, 8193, 8004, 8168, 8179, 8295, 8259, 8212, 8540,3.179168224334717,XXXXX
89, 8143, 8105, 8226, 8155, 8642, 8115, 8217, 8247, 8223, 8232, 8184, 8100, 8217, 8621,3.186898708343506,XXXXX
90, 8348, 8241, 8340, 8197, 8719, 8217, 8363, 8362, 8088, 8108, 8032, 8090, 8144, 8731,3.195430278778076,XXXXX
91, 8137, 8200, 8358, 8314, 8651, 8166, 8146, 8101, 8308, 8318, 8371, 8286, 8253, 8366,3.2033071517944336,XXXXX
92, 8230, 8106, 8172, 8130, 8640, 8129, 8282, 8293, 8273, 8247, 8190, 8135, 8306, 8435,3.211013078689575,XXXXX
93, 8304, 8289, 8372, 8324, 8723, 8239, 8270, 8189, 8010, 8008, 8128, 8088, 8073, 8565,3.2184128761291504,XXXXX
94, 8171, 8122, 8226, 8128, 8634, 8131, 8212, 8307, 8248, 8219, 8242, 8056, 8243, 8691,3.226308822631836,XXXXX
95, 8299, 8186, 8347, 8188, 8672, 8182, 8298, 8228, 8218, 8225, 8205, 8156, 8259, 8411,3.2344675064086914,XXXXX
96, 8250, 8291, 8426, 8381, 8724, 8228, 8238, 8091, 8071, 8117, 8136, 8066, 8049, 8232,3.2420058250427246,XXXXX
97, 8420, 8136, 8209, 8162, 8660, 8154, 8325, 8394, 8211, 8222, 8110, 8020, 8160, 8626,3.2500524520874023,XXXXX
98, 8424, 8254, 8412, 8328, 8685, 8232, 8253, 8152, 8132, 8177, 8201, 8324, 8109, 8486,3.259458065032959,XXXXX
99, 8181, 8179, 8260, 8180, 8668, 8172, 8252, 8316, 8077, 8108, 8001, 8106, 8148, 8667,3.265794277191162,BRIGHT
100, 8255, 8154, 8298, 8223, 8626, 8149, 8257, 8392, 8191, 8205, 8172, 8092, 8258, 8703,3.273679494857788,BRIGHT
101, 8221, 8264, 8395, 8358, 8663, 8212, 8197, 8059, 8173, 8200, 8254, 8221, 8164, 8251,3.2816154956817627,BRIGHT
102, 8225, 8121, 8167, 8027, 8629, 8135, 8291, 8399, 8199, 8183, 8061, 8083, 8235, 8639,3.2893216609954834,BRIGHT
103, 8259, 8203, 8408, 8264, 8637, 8184, 8209, 8308, 8154, 8180, 8248, 8202, 8127, 8665,3.297344207763672,BRIGHT
104, 8243, 8171, 8268, 8262, 8653, 8176, 8254, 8283, 8129, 8171, 8097, 8051, 8095, 8624,3.305332660675049,BRIGHT
105, 8300, 8129, 8210, 8218, 8613, 8148, 8257, 8405, 8220, 8221, 8113, 8098, 8225, 8680,3.3134334087371826,BRIGHT
106, 8256, 8272, 8419, 8347, 8671, 8230, 8216, 8036, 8072, 8127, 8208, 8268, 8096, 8461,3.3213884830474854,BRIGHT
107, 8255, 8134, 8215, 8032, 8640, 8156, 8316, 8163, 8158, 8186, 8011, 8027, 8171, 8682,3.3294057846069336,BRIGHT
108, 8239, 8201, 8397, 8263, 8620, 8180, 8214, 8329, 8228, 8257, 8214, 8144, 8166, 8542,3.3373584747314453,BRIGHT
109, 8245, 8216, 8320, 8293, 8651, 8191, 8271, 8375, 8083, 8143, 8180, 8161, 8141, 8535,3.3454909324645996,BRIGHT
110, 8232, 8122, 8189, 8210, 8606, 8144, 8256, 8190, 8164, 8169, 8061, 8083, 8239, 8715,3.351729393005371,BRIGHT
111, 8146, 8232, 8412, 8344, 8649, 8220, 8166, 7961, 8130, 8177, 8244, 8205, 8149, 8478,3.3612430095672607,BRIGHT
112, 8262, 8140, 8218, 8027, 8624, 8157, 8297, 8378, 8158, 8150, 8105, 8063, 8251, 8693,3.367527723312378,BRIGHT
113, 8272, 8209, 8355, 8258, 8599, 8171, 8189, 8222, 8185, 8142, 8220, 8224, 8214, 8668,3.375305414199829,BRIGHT
114, 8181, 8214, 8374, 8295, 8641, 8194, 8216, 8022, 8118, 8166, 8261, 8233, 8146, 8604,3.3833835124969482,BRIGHT
115, 8244, 8123, 8214, 8087, 8606, 8151, 8301, 8278, 8188, 8227, 7998, 8004, 8209, 8684,3.391202926635742,BRIGHT
116, 8170, 8221, 8421, 8312, 8613, 8205, 8163, 8215, 8127, 8186, 8232, 8186, 8102, 8438,3.400822639465332,BRIGHT
117, 8212, 8134, 8236, 8146, 8599, 8152, 8269, 8451, 8146, 8150, 8162, 8102, 8226, 8726,3.408822774887085,BRIGHT
118, 8273, 8217, 8317, 8298, 8596, 8183, 8229, 8151, 8174, 8150, 8143, 8177, 8251, 8726,3.4153130054473877,BRIGHT
119, 8150, 8206, 8379, 8243, 8606, 8191, 8169, 7952, 8148, 8189, 8299, 8242, 8187, 8568,3.4230926036834717,BRIGHT
120, 8267, 8131, 8217, 7983, 8595, 8149, 8320, 8338, 8151, 8162, 8016, 8002, 8195, 8743,3.4310097694396973,BRIGHT
121, 8219, 8239, 8421, 8290, 8610, 8200, 8194, 8276, 8172, 8202, 8259, 8263, 8152, 8513,3.4387927055358887,BRIGHT
122, 8167, 8129, 8240, 8205, 8584, 8148, 8236, 8463, 8231, 8249, 8213, 8168, 8249, 8656,3.446593999862671,BRIGHT
123, 8267, 8203, 8289, 8285, 8594, 8195, 8264, 8268, 8135, 8154, 8047, 8059, 8186, 8776,3.454361915588379,BRIGHT
124, 8155, 8201, 8411, 8239, 8593, 8194, 8166, 7954, 8242, 8270, 8330, 8253, 8244, 8466,3.462204694747925,BRIGHT
125, 8262, 8140, 8241, 7957, 8587, 8156, 8311, 8382, 8238, 8219, 8118, 8086, 8275, 8552,3.471611738204956,BRIGHT
126, 8209, 8247, 8431, 8304, 8581, 8196, 8180, 8391, 8097, 8129, 8235, 8244, 8121, 8662,3.4796090126037598,BRIGHT
127, 8157, 8130, 8295, 8266, 8560, 8140, 8221, 8308, 8241, 8243, 8284, 8216, 8260, 8723,3.4875385761260986,BRIGHT
238, 8300, 8188, 8309, 8231, 8598, 8193, 8296, 8153, 8160, 8149, 8157, 8133, 8217, 8502,3.4938249588012695,BRIGHT
0, 8130, 8171, 8400, 8249, 8558, 8168, 8125, 8057, 8124, 8170, 8287, 8255, 8168, 8378,3.501610517501831,BRIGHT
1, 8237, 8133, 8219, 8067, 8578, 8149, 8301, 8344, 8209, 8206, 8147, 8114, 8268, 8661,3.5094385147094727,BRIGHT
2, 8238, 8260, 8415, 8333, 8598, 8213, 8201, 8179, 8143, 8158, 8281, 8245, 8172, 8486,3.5172362327575684,BRIGHT
3, 8134, 8123, 8279, 8172, 8538, 8131, 8184, 8237, 8194, 8202, 8209, 8167, 8229, 8536,3.5264434814453125,BRIGHT
4, 8301, 8195, 8306, 8134, 8589, 8188, 8306, 8259, 8171, 8165, 8204, 8202, 8225, 8649,3.5351386070251465,BRIGHT
5, 8146, 8210, 8422, 8314, 8560, 8185, 8133, 8049, 8145, 8179, 8361, 8344, 8162, 8437,3.542522430419922,BRIGHT
6, 8224, 8121, 8200, 8134, 8550, 8140, 8291, 8322, 8188, 8180, 8144, 8125, 8256, 8650,3.55029559135437,BRIGHT
7, 8246, 8244, 8429, 8331, 8579, 8206, 8204, 8181, 8154, 8170, 8324, 8290, 8191, 8517,3.5580031871795654,BRIGHT
8, 8128, 8142, 8315, 8176, 8545, 8150, 8168, 8223, 8184, 8194, 8235, 8205, 8204, 8586,3.5642924308776855,BRIGHT
9, 8290, 8188, 8288, 8129, 8581, 8181, 8309, 8284, 8163, 8153, 8181, 8178, 8226, 8636,3.572327136993408,BRIGHT
10, 8128, 8208, 8431, 8345, 8548, 8174, 8126, 8034, 8172, 8205, 8364, 8329, 8160, 8300,3.5816121101379395,BRIGHT
11, 8229, 8129, 8208, 8121, 8552, 8149, 8297, 8300, 8179, 8163, 8155, 8133, 8239, 8609,3.5895161628723145,BRIGHT
12, 8270, 8234, 8413, 8287, 8561, 8208, 8210, 8177, 8140, 8168, 8327, 8310, 8197, 8600,3.597410202026367,BRIGHT
13, 8108, 8138, 8300, 8230, 8521, 8143, 8132, 8140, 8207, 8239, 8249, 8222, 8185, 8555,3.605211019515991,BRIGHT
14, 8289, 8189, 8269, 8173, 8580, 8191, 8327, 8327, 8130, 8102, 8176, 8152, 8246, 8632,3.613243579864502,BRIGHT
15, 8083, 8212, 8446, 8349, 8531, 8183, 8123, 8156, 8173, 8236, 8377, 8322, 8245, 8348,3.620514154434204,BRIGHT
16, 8123, 8118, 8198, 8103, 8532, 8142, 8276, 8313, 8207, 8179, 8150, 8127, 8322, 8616,3.6282401084899902,BRIGHT
17, 8219, 8226, 8403, 8273, 8562, 8208, 8231, 8148, 8113, 8109, 8312, 8306, 8229, 8569,3.6360280513763428,BRIGHT
18, 8071, 8146, 8311, 8232, 8509, 8147, 8107, 8133, 8224, 8302, 8284, 8251, 8198, 8485,3.6437668800354004,BRIGHT
19, 8299, 8188, 8207, 8126, 8564, 8194, 8321, 8371, 8151, 8052, 8166, 8132, 8275, 8651,3.65183162689209,BRIGHT
20, 8094, 8204, 8421, 8328, 8505, 8179, 8086, 8138, 8160, 8305, 8378, 8327, 8216, 8381,3.6596367359161377,BRIGHT
21, 8145, 8153, 8209, 8105, 8530, 8155, 8271, 8279, 8207, 8106, 8163, 8135, 8282, 8602,3.667588472366333,BRIGHT
22, 8261, 8246, 8361, 8256, 8548, 8211, 8271, 8221, 8119, 8042, 8301, 8283, 8229, 8567,3.6754865646362305,BRIGHT
23, 8006, 8104, 8294, 8221, 8455, 8116, 8039, 8197, 8223, 8674, 8313, 8273, 8168, 8446,3.6833713054656982,BRIGHT
24, 8335, 8235, 8202, 8102, 8603, 8232, 8362, 8370, 8127, 7647, 8129, 8117, 8286, 8669,3.691220760345459,BRIGHT
25, 8154, 8224, 8390, 8312, 8498, 8196, 8135, 8039, 8149, 8172, 8342, 8335, 8223, 8396,3.6992030143737793,BRIGHT
26, 8005, 8058, 8169, 8079, 8452, 8089, 8121, 8227, 8244, 8823, 8160, 8146, 8214, 8552,3.7071473598480225,BRIGHT
27, 8302, 8273, 8332, 8230, 8594, 8229, 8240, 8325, 8124, 7730, 8266, 8247, 8208, 8556,3.715313196182251,BRIGHT
28, 8188, 8160, 8259, 8226, 8471, 8149, 8105, 8200, 8196, 8304, 8322, 8319, 8135, 8406,3.7231602668762207,BRIGHT
29, 8247, 8158, 8242, 8084, 8546, 8182, 8275, 8312, 8180, 8334, 8105, 8142, 8179, 8626,3.7310662269592285,BRIGHT
30, 8226, 8205, 8354, 8300, 8486, 8182, 8069, 8059, 8164, 8109, 8375, 8363, 8201, 8396,3.738790988922119,BRIGHT
31, 8240, 8084, 8059, 8055, 8440, 8120, 8155, 8228, 8202, 8351, 8214, 8178, 8191, 8531,3.746562957763672,BRIGHT
32, 8306, 8301, 8490, 8300, 8626, 8277, 8313, 8348, 8151, 8116, 8185, 8224, 8165, 8639,3.7543022632598877,BRIGHT
33, 8115, 8142, 8177, 8303, 8440, 8130, 8104, 8200, 8195, 8318, 8358, 8378, 8286, 8426,3.7623393535614014,BRIGHT
34, 8180, 8060, 7930, 7985, 8439, 8102, 8202, 8374, 8158, 8177, 8192, 8160, 8274, 8577,3.7700815200805664,BRIGHT
35, 8166, 8252, 8447, 8348, 8547, 8230, 8142, 8244, 8163, 8267, 8357, 8349, 8135, 8509,3.7779242992401123,BRIGHT
36, 8135, 8112, 8020, 8140, 8466, 8132, 8210, 8331, 8188, 8272, 8240, 8247, 8273, 8619,3.7856404781341553,BRIGHT
37, 8178, 8169, 8182, 8161, 8486, 8167, 8211, 8365, 8149, 8201, 8246, 8254, 8256, 8577,3.793628215789795,BRIGHT
38, 8103, 8196, 8305, 8315, 8479, 8179, 8116, 8185, 8183, 8349, 8367, 8357, 8175, 8389,3.8015129566192627,BRIGHT
39, 8220, 8142, 8054, 8076, 8508, 8169, 8308, 8383, 8156, 8146, 8178, 8158, 8263, 8665,3.8094286918640137,BRIGHT
40, 8161, 8210, 8339, 8325, 8478, 8193, 8137, 8262, 8166, 8329, 8401, 8385, 8208, 8496,3.8172872066497803,BRIGHT
41, 8145, 8153, 8130, 8176, 8477, 8158, 8208, 8334, 8175, 8200, 8252, 8260, 8213, 8472,3.8251495361328125,BRIGHT
42, 8254, 8188, 8195, 8166, 8497, 8181, 8254, 8375, 8147, 8126, 8208, 8230, 8246, 8629,3.8331010341644287,BRIGHT
43, 8119, 8194, 8284, 8319, 8451, 8175, 8086, 8152, 8185, 8383, 8393, 8372, 8189, 8531,3.841092586517334,BRIGHT
44, 8240, 8163, 8079, 8084, 8506, 8176, 8308, 8430, 8159, 8142, 8175, 8168, 8249, 8713,3.849231243133545,BRIGHT
45, 8182, 8200, 8302, 8303, 8454, 8173, 8142, 8273, 8165, 8281, 8384, 8385, 8207, 8426,3.8565635681152344,BRIGHT
46, 8134, 8179, 8183, 8210, 8483, 8170, 8190, 8257, 8170, 8221, 8283, 8278, 8185, 8405,3.864292621612549,BRIGHT
47, 8290, 8181, 8147, 8141, 8499, 8183, 8285, 8437, 8158, 8197, 8221, 8230, 8271, 8666,3.8721554279327393,BRIGHT
48, 8124, 8182, 8269, 8319, 8442, 8168, 8096, 8185, 8190, 8373, 8423, 8401, 8180, 8504,3.8815252780914307,BRIGHT
49, 8225, 8180, 8137, 8107, 8513, 8183, 8305, 8406, 8144, 8009, 8167, 8171, 8228, 8685,3.8892099857330322,BRIGHT
50, 8207, 8189, 8274, 8273, 8440, 8169, 8145, 8329, 8170, 8196, 8353, 8371, 8243, 8485,3.8954572677612305,BRIGHT
51, 8117, 8173, 8171, 8221, 8473, 8175, 8182, 8268, 8185, 8295, 8325, 8308, 8186, 8412,3.90327787399292,BRIGHT
52, 8274, 8187, 8161, 8139, 8514, 8194, 8309, 8422, 8144, 8232, 8222, 8217, 8271, 8676,3.9111554622650146,BRIGHT
53, 8126, 8177, 8259, 8322, 8420, 8166, 8075, 8185, 8196, 8354, 8415, 8419, 8200, 8472,3.9206576347351074,BRIGHT
54, 8200, 8178, 8098, 8106, 8500, 8187, 8295, 8394, 8160, 7960, 8172, 8190, 8223, 8621,3.928678035736084,BRIGHT
55, 8207, 8195, 8280, 8261, 8446, 8177, 8162, 8283, 8162, 8163, 8336, 8348, 8252, 8544,3.936504602432251,BRIGHT
56, 8115, 8169, 8198, 8247, 8437, 8168, 8125, 8196, 8184, 8318, 8323, 8317, 8200, 8476,3.944632053375244,BRIGHT
57, 8260, 8185, 8156, 8126, 8494, 8191, 8312, 8452, 8136, 8173, 8191, 8192, 8269, 8693,3.9520511627197266,BRIGHT
58, 8117, 8185, 8302, 8327, 8412, 8160, 8091, 8191, 8191, 8330, 8435, 8421, 8176, 8422,3.9583394527435303,BRIGHT
59, 8247, 8181, 8119, 8126, 8491, 8186, 8275, 8371, 8148, 8004, 8184, 8194, 8211, 8561,3.966397285461426,BRIGHT
60, 8291, 8191, 8230, 8232, 8444, 8175, 8183, 8358, 8139, 8140, 8293, 8309, 8272, 8613,3.974336862564087,BRIGHT
61, 8122, 8166, 8179, 8234, 8419, 8145, 8122, 8199, 8193, 8347, 8344, 8328, 8180, 8557,3.982537031173706,BRIGHT
62, 8320, 8196, 8168, 8104, 8500, 8199, 8327, 8445, 8130, 8163, 8170, 8171, 8240, 8719,3.991403579711914,BRIGHT
63, 8194, 8189, 8290, 8307, 8409, 8178, 8090, 8238, 8180, 8271, 8418, 8409, 8190, 8379,3.9994466304779053,BRIGHT
64, 8204, 8160, 8079, 8090, 8478, 8172, 8274, 8359, 8180, 8026, 8220, 8216, 8200, 8520,4.007408857345581,BRIGHT
65, 8285, 8197, 8272, 8198, 8473, 8190, 8233, 8357, 8163, 8135, 8292, 8304, 8244, 8650,4.015139102935791,BRIGHT
66, 8100, 8183, 8241, 8267, 8421, 8173, 8106, 8210, 8180, 8328, 8359, 8354, 8176, 8524,4.022966623306274,BRIGHT
67, 8270, 8162, 8058, 8079, 8459, 8173, 8324, 8452, 8106, 8114, 8159, 8182, 8264, 8687,4.029191255569458,BRIGHT
68, 8186, 8203, 8363, 8341, 8416, 8180, 8109, 8217, 8261, 8257, 8399, 8383, 8200, 8406,4.038532972335815,BRIGHT
69, 8153, 8176, 8185, 8162, 8464, 8182, 8228, 8282, 8151, 8196, 8218, 8181, 8174, 8509,4.04632043838501,BRIGHT
70, 8325, 8165, 8139, 8172, 8419, 8164, 8246, 8408, 8004, 8127, 8278, 8271, 8237, 8644,4.054218292236328,BRIGHT
71, 8231, 8268, 8391, 8369, 8477, 8220, 8177, 8256, 8294, 8002, 8373, 8339, 8143, 8488,4.061753273010254,BRIGHT
72, 8310, 8184, 8136, 8129, 8475, 8189, 8344, 8384, 8187, 8123, 8128, 8125, 8174, 8689,4.069587469100952,BRIGHT
73, 8184, 8104, 8136, 8258, 8318, 8118, 8070, 8248, 8128, 8452, 8385, 8380, 8186, 8512,4.077438831329346,BRIGHT
74, 8219, 8239, 8269, 8219, 8503, 8220, 8234, 8356, 8161, 7976, 8236, 8207, 8211, 8591,4.085245847702026,BRIGHT
75, 8325, 8207, 8242, 8216, 8465, 8190, 8289, 8374, 8096, 8035, 8240, 8218, 8225, 8678,4.09312105178833,BRIGHT
76, 8005, 8086, 8117, 8250, 8315, 8099, 8073, 8226, 8319, 8594, 8400, 8365, 8151, 8414,4.1027257442474365,BRIGHT
77, 8283, 8214, 8164, 8112, 8503, 8220, 8319, 8435, 8086, 8205, 8133, 8143, 8247, 8643,4.109058141708374,BRIGHT
78, 8270, 8223, 8328, 8317, 8421, 8197, 8141, 8244, 8068, 8100, 8348, 8341, 8219, 8581,4.116978645324707,BRIGHT
79, 8036, 8097, 8065, 8124, 8366, 8118, 8181, 8317, 8271, 8256, 8258, 8227, 8193, 8645,4.124819040298462,BRIGHT
80, 8306, 8207, 8237, 8172, 8472, 8206, 8269, 8430, 8087, 8318, 8206, 8214, 8246, 8677,4.132695913314819,BRIGHT
81, 8112, 8172, 8219, 8301, 8379, 8162, 8069, 8195, 8170, 8289, 8407, 8411, 8176, 8325,4.140644788742065,BRIGHT
82, 8183, 8147, 8052, 8028, 8439, 8166, 8324, 8399, 8171, 7880, 8178, 8176, 8235, 8615,4.148732900619507,BRIGHT
83, 8224, 8219, 8359, 8235, 8423, 8194, 8172, 8261, 8173, 8200, 8356, 8331, 8211, 8607,4.155244588851929,BRIGHT
84, 8100, 8138, 8093, 8131, 8392, 8155, 8166, 8244, 8188, 8253, 8289, 8267, 8181, 8590,4.163267374038696,BRIGHT
85, 8291, 8186, 8170, 8118, 8449, 8197, 8297, 8401, 8114, 7977, 8196, 8204, 8262, 8681,4.171285629272461,BRIGHT
86, 8072, 8176, 8320, 8289, 8361, 8157, 8073, 8171, 8212, 8295, 8403, 8366, 8184, 8335,4.179271936416626,BRIGHT
87, 8208, 8164, 8094, 8055, 8449, 8176, 8315, 8381, 8111, 8093, 8180, 8149, 8231, 8596,4.188805103302002,BRIGHT
88, 8230, 8199, 8280, 8223, 8412, 8180, 8192, 8292, 8164, 8210, 8356, 8343, 8237, 8617,4.196807146072388,BRIGHT
89, 8075, 8156, 8181, 8171, 8388, 8156, 8157, 8196, 8178, 8167, 8309, 8299, 8178, 8532,4.203257322311401,BRIGHT
90, 8303, 8189, 8158, 8094, 8443, 8194, 8321, 8393, 8118, 7947, 8161, 8180, 8263, 8651,4.211144924163818,BRIGHT
91, 8080, 8171, 8300, 8278, 8346, 8154, 8077, 8178, 8221, 8295, 8412, 8380, 8211, 8376,4.219052076339722,BRIGHT
92, 8210, 8173, 8113, 8074, 8435, 8180, 8280, 8381, 8120, 8182, 8205, 8161, 8214, 8614,4.22691798210144,BRIGHT
93, 8286, 8204, 8246, 8207, 8397, 8184, 8204, 8327, 8170, 8210, 8340, 8311, 8220, 8637,4.234938621520996,BRIGHT
94, 8027, 8160, 8239, 8180, 8371, 8155, 8155, 8172, 8176, 8147, 8352, 8311, 8189, 8458,4.2429327964782715,BRIGHT
95, 8358, 8160, 8074, 8040, 8421, 8179, 8330, 8439, 8174, 7988, 8191, 8178, 8217, 8639,4.250890493392944,BRIGHT
96, 8371, 8224, 8330, 8319, 8394, 8193, 8081, 8156, 8131, 8268, 8421, 8381, 8035, 8517,4.258718729019165,BRIGHT
97, 8335, 8127, 8100, 8060, 8392, 8140, 8225, 8294, 8187, 8265, 8190, 8163, 7929, 8668,4.266763210296631,BRIGHT
98, 8526, 8142, 8149, 8155, 8340, 8150, 8200, 8420, 8272, 8178, 8305, 8301, 7989, 8583,4.2746922969818115,BRIGHT
99, 8544, 8407, 8600, 8482, 8560, 8326, 8218, 8192, 7701, 7829, 8364, 8337, 8068, 8411,4.282679557800293,BRIGHT
100, 8437, 8187, 8096, 8160, 8439, 8183, 8360, 8400, 8119, 8228, 8151, 8136, 8108, 8716,4.2905707359313965,BRIGHT
101, 8270, 8116, 8138, 8254, 8301, 8126, 8106, 8182, 8316, 7981, 8430, 8399, 8098, 8626,4.298460960388184,BRIGHT
102, 8395, 8321, 8451, 8253, 8551, 8284, 8285, 8284, 7793, 7355, 8229, 8216, 8204, 8667,4.306213140487671,BRIGHT
103, 8215, 8110, 8201, 8186, 8322, 8119, 8181, 8418, 8356, 8637, 8239, 8249, 8195, 8664,4.314035892486572,BRIGHT
104, 8133, 8147, 8222, 8296, 8336, 8147, 8102, 8171, 8203, 8369, 8383, 8368, 8155, 8582,4.321857690811157,BRIGHT
105, 8413, 8264, 8233, 8161, 8513, 8248, 8355, 8400, 7965, 7572, 8192, 8170, 8221, 8770,4.329656362533569,BRIGHT
106, 8081, 8095, 8247, 8246, 8269, 8094, 8067, 8269, 8391, 8740, 8403, 8371, 8162, 8494,4.337403774261475,BRIGHT
107, 8184, 8176, 8238, 8180, 8408, 8179, 8230, 8279, 8118, 8339, 8229, 8233, 8202, 8579,4.345208168029785,BRIGHT
108, 8364, 8260, 8283, 8250, 8471, 8244, 8269, 8340, 8062, 7564, 8230, 8240, 8268, 8727,4.3529441356658936,BRIGHT
109, 7876, 7972, 7989, 8157, 8178, 8019, 8013, 8238, 8467, 8979, 8370, 8334, 8206, 8579,4.3606977462768555,BRIGHT
110, 8064, 8105, 8060, 8026, 8365, 8135, 8294, 8450, 8249, 8789, 8137, 8126, 8293, 8788,4.368563413619995,BRIGHT
111, 8151, 8306, 8440, 8343, 8447, 8251, 8150, 8234, 8067, 7857, 8370, 8384, 8356, 8511,4.3765246868133545,BRIGHT
112, 7922, 8081, 7999, 8062, 8317, 8114, 8191, 8315, 8303, 8457, 8261, 8283, 8393, 8514,4.384341716766357,BRIGHT
113, 7934, 8170, 8186, 8083, 8401, 8180, 8288, 8353, 8180, 8499, 8218, 8235, 8444, 8769,4.3922953605651855,BRIGHT
114, 7960, 8192, 8238, 8245, 8350, 8169, 8087, 8136, 8200, 8178, 8377, 8374, 8324, 8617,4.400272846221924,BRIGHT
115, 8206, 8142, 8000, 8032, 8385, 8167, 8304, 8393, 8203, 7838, 8140, 8172, 8339, 8777,4.408194541931152,BRIGHT
116, 8010, 8200, 8385, 8271, 8358, 8187, 8138, 8239, 8136, 8103, 8351, 8366, 8310, 8577,4.416154146194458,BRIGHT
117, 8050, 8155, 8153, 8139, 8361, 8166, 8195, 8266, 8212, 8277, 8283, 8261, 8235, 8565,4.423948287963867,BRIGHT
118, 8287, 8191, 8101, 8099, 8409, 8195, 8311, 8368, 8145, 8101, 8242, 8224, 8307, 8770,4.4318060874938965,BRIGHT
119, 7985, 8172, 8275, 8273, 8327, 8158, 8077, 8116, 8187, 8259, 8424, 8388, 8227, 8516,4.439653158187866,BRIGHT
120, 8214, 8173, 8137, 8074, 8411, 8188, 8309, 8381, 8158, 7931, 8137, 8146, 8242, 8689,4.447530746459961,BRIGHT
121, 8243, 8188, 8274, 8249, 8342, 8171, 8148, 8278, 8155, 8162, 8340, 8345, 8239, 8655,4.455428838729858,BRIGHT
122, 8069, 8149, 8124, 8160, 8331, 8144, 8134, 8217, 8198, 8333, 8323, 8278, 8150, 8616,4.4632720947265625,BRIGHT
123, 8353, 8177, 8147, 8073, 8386, 8183, 8300, 8453, 8188, 8098, 8212, 8191, 8202, 8740,4.473076820373535,BRIGHT
124, 8201, 8208, 8357, 8321, 8353, 8184, 8117, 8132, 8119, 8139, 8428, 8410, 8134, 8430,4.480543851852417,BRIGHT
125, 8198, 8122, 8017, 8025, 8359, 8138, 8297, 8290, 8117, 8156, 8178, 8174, 8132, 8611,4.486870765686035,BRIGHT
126, 8390, 8174, 8216, 8174, 8324, 8160, 8168, 8338, 8230, 8281, 8336, 8315, 8146, 8657,4.495035171508789,BRIGHT
127, 8329, 8314, 8405, 8362, 8470, 8267, 8202, 8163, 8033, 8026, 8325, 8283, 8133, 8641,4.502530813217163,BRIGHT
238, 8191, 8093, 7996, 8088, 8316, 8121, 8316, 8420, 8156, 8199, 8161, 8165, 8223, 8784,4.510346174240112,BRIGHT
0, 8200, 8188, 8278, 8311, 8301, 8164, 8083, 8241, 8145, 7825, 8418, 8413, 8206, 8453,4.518287658691406,BRIGHT
1, 8355, 8313, 8343, 8229, 8509, 8273, 8288, 8331, 7989, 7788, 8187, 8175, 8224, 8621,4.527571439743042,BRIGHT
2, 8073, 8060, 8122, 8171, 8248, 8085, 8154, 8356, 8341, 8909, 8307, 8287, 8220, 8761,4.535496950149536,BRIGHT
3, 8179, 8212, 8273, 8301, 8378, 8205, 8149, 8185, 8093, 7935, 8374, 8345, 8204, 8631,4.543560266494751,BRIGHT
4, 8417, 8264, 8278, 8193, 8474, 8250, 8323, 8431, 7992, 7540, 8162, 8168, 8260, 8764,4.549893140792847,BRIGHT
5, 7926, 8014, 8171, 8243, 8160, 8039, 8006, 8290, 8507, 9080, 8399, 8382, 8172, 8647,4.557731628417969,BRIGHT
6, 8255, 8249, 8267, 8223, 8445, 8239, 8285, 8280, 7993, 8156, 8232, 8216, 8258, 8839,4.565531015396118,BRIGHT
7, 8433, 8318, 8362, 8321, 8474, 8274, 8293, 8331, 7884, 6972, 8316, 8301, 8291, 8660,4.573256492614746,BRIGHT
8, 7742, 7872, 7803, 8036, 8068, 7945, 8073, 8299, 8805, 8250, 8401, 8359, 8133, 8403,4.582704305648804,BRIGHT
9, 8024, 8169, 8197, 8043, 8382, 8182, 8366, 8223, 8150, 8381, 8157, 8164, 8397, 8796,4.590573787689209,BRIGHT
10, 8166, 8381, 8447, 8359, 8472, 8305, 8138, 8044, 7773, 7956, 8371, 8415, 8541, 8608,4.59834885597229,BRIGHT
11, 7913, 8026, 7785, 7955, 8242, 8081, 8170, 8380, 8438, 8359, 8226, 8263, 8390, 8626,4.606233835220337,BRIGHT
12, 7994, 8183, 8424, 8159, 8352, 8179, 8245, 8240, 8132, 8352, 8273, 8278, 8341, 8735,4.612501382827759,BRIGHT
13, 8024, 8205, 8284, 8265, 8342, 8177, 8101, 8087, 8084, 8322, 8384, 8378, 8252, 8466,4.620386362075806,BRIGHT
14, 8285, 8152, 7869, 7996, 8374, 8166, 8330, 8373, 8192, 7984, 8155, 8194, 8304, 8686,4.62829852104187,BRIGHT
15, 8068, 8201, 8392, 8246, 8322, 8175, 8107, 8105, 8173, 8199, 8396, 8384, 8262, 8610,4.6361658573150635,BRIGHT
16, 8089, 8157, 8226, 8126, 8357, 8177, 8194, 8222, 8156, 8173, 8240, 8208, 8214, 8699,4.6454243659973145,BRIGHT
17, 8314, 8195, 8150, 8142, 8370, 8196, 8259, 8356, 8109, 7950, 8225, 8240, 8286, 8700,4.653198957443237,BRIGHT
18, 8016, 8171, 8183, 8248, 8286, 8149, 8073, 8119, 8215, 8205, 8414, 8396, 8190, 8379,4.660948276519775,BRIGHT
19, 8274, 8187, 8155, 8062, 8402, 8202, 8337, 8327, 8117, 8049, 8183, 8162, 8231, 8674,4.668785810470581,BRIGHT
20, 8226, 8175, 8316, 8236, 8314, 8178, 8135, 8153, 8191, 8250, 8387, 8355, 8212, 8621,4.676772117614746,BRIGHT
21, 8068, 8149, 8114, 8116, 8324, 8163, 8187, 8161, 8197, 8100, 8261, 8227, 8162, 8639,4.684717893600464,BRIGHT
22, 8405, 8184, 8124, 8110, 8344, 8188, 8281, 8408, 8166, 7967, 8206, 8206, 8237, 8706,4.692705392837524,BRIGHT
23, 8225, 8231, 8367, 8346, 8335, 8199, 8087, 8062, 8038, 8197, 8415, 8366, 8156, 8379,4.700730323791504,BRIGHT
24, 8167, 8051, 7957, 7929, 8271, 8094, 8281, 8370, 8374, 8243, 8161, 8111, 8061, 8650,4.708696603775024,BRIGHT
25, 8527, 8199, 8263, 8198, 8304, 8189, 8194, 8371, 8303, 8106, 8358, 8345, 8019, 8688,4.71679162979126,BRIGHT
26, 8624, 8487, 8620, 8512, 8591, 8393, 8280, 8086, 7526, 7966, 8288, 8290, 8108, 8610,4.72406268119812,BRIGHT
27, 8240, 8057, 7917, 8111, 8258, 8092, 8249, 8407, 8274, 8691, 8173, 8170, 8153, 8708,4.732049226760864,BRIGHT
28, 8191, 8134, 8207, 8276, 8260, 8146, 8093, 8166, 8270, 7731, 8395, 8370, 8123, 8556,4.738216400146484,BRIGHT
29, 8425, 8336, 8407, 8244, 8506, 8297, 8323, 8311, 7802, 7493, 8142, 8155, 8235, 8734,4.7462756633758545,BRIGHT
30, 8091, 8062, 8080, 8215, 8191, 8074, 8101, 8400, 8425, 8946, 8322, 8325, 8204, 8696,4.7542808055877686,BRIGHT
31, 8169, 8209, 8270, 8285, 8353, 8203, 8190, 8230, 8088, 7916, 8333, 8315, 8184, 8662,4.762276649475098,BRIGHT
32, 8338, 8208, 8218, 8140, 8388, 8209, 8305, 8438, 8088, 7906, 8183, 8181, 8236, 8807,4.771337985992432,BRIGHT
33, 8057, 8114, 8222, 8288, 8231, 8114, 8039, 8148, 8332, 8679, 8418, 8392, 8171, 8603,4.779364347457886,BRIGHT
34, 8268, 8226, 8225, 8180, 8415, 8223, 8295, 8293, 8002, 7794, 8181, 8185, 8234, 8768,4.787240982055664,BRIGHT
35, 8182, 8141, 8205, 8237, 8271, 8143, 8154, 8412, 8258, 8248, 8282, 8301, 8238, 8749,4.795243263244629,BRIGHT
36, 8025, 8108, 8160, 8236, 8252, 8127, 8098, 8241, 8317, 8720, 8320, 8309, 8203, 8702,4.802508354187012,BRIGHT
37, 8453, 8342, 8367, 8236, 8509, 8309, 8377, 8328, 7820, 7382, 8188, 8175, 8310, 8834,4.810415506362915,BRIGHT
38, 7891, 7995, 8012, 8169, 8117, 8017, 8024, 8286, 8565, 8448, 8411, 8373, 8150, 8453,4.8183465003967285,BRIGHT
39, 7865, 7931, 7779, 7948, 8142, 8007, 8208, 8423, 8640, 9400, 8161, 8162, 8228, 8714,4.826160669326782,BRIGHT
40, 8478, 8450, 8554, 8369, 8542, 8370, 8292, 8226, 7646, 7773, 8241, 8289, 8485, 8803,4.834270715713501,BRIGHT
41, 7984, 8127, 8098, 8132, 8257, 8130, 8055, 8226, 8288, 8139, 8330, 8344, 8338, 8500,4.842225074768066,BRIGHT
42, 7910, 8063, 8036, 7952, 8276, 8115, 8295, 8377, 8355, 8644, 8152, 8155, 8354, 8762,4.850146532058716,BRIGHT
43, 8031, 8267, 8423, 8330, 8355, 8238, 8140, 8127, 7966, 8292, 8385, 8380, 8384, 8585,4.858148097991943,BRIGHT
44, 8078, 8122, 7930, 8044, 8298, 8152, 8250, 8313, 8239, 8081, 8213, 8225, 8337, 8635,4.8653764724731445,BRIGHT
45, 8087, 8193, 8267, 8148, 8334, 8180, 8248, 8233, 8140, 7961, 8270, 8289, 8343, 8689,4.873295307159424,BRIGHT
46, 7970, 8161, 8303, 8209, 8282, 8156, 8072, 8116, 8194, 8302, 8347, 8335, 8237, 8531,4.881105899810791,BRIGHT
47, 8252, 8177, 8056, 8048, 8361, 8192, 8311, 8376, 8122, 8031, 8122, 8134, 8305, 8779,4.889065980911255,BRIGHT
48, 8057, 8184, 8237, 8281, 8268, 8163, 8105, 8164, 8173, 8140, 8395, 8381, 8268, 8551,4.896880865097046,BRIGHT
49, 8115, 8157, 8143, 8123, 8323, 8176, 8237, 8251, 8166, 8079, 8265, 8222, 8217, 8571,4.9053239822387695,BRIGHT
50, 8277, 8188, 8252, 8128, 8344, 8186, 8266, 8306, 8134, 8109, 8253, 8228, 8268, 8723,4.913025379180908,BRIGHT
51, 8030, 8159, 8219, 8218, 8264, 8138, 8075, 8049, 8218, 8227, 8375, 8359, 8195, 8602,4.920844078063965,BRIGHT
52, 8253, 8158, 8025, 8030, 8330, 8173, 8310, 8354, 8188, 7952, 8142, 8161, 8246, 8772,4.928577423095703,BRIGHT
53, 8284, 8226, 8346, 8323, 8301, 8206, 8123, 8185, 8101, 8161, 8399, 8366, 8232, 8502,4.936430931091309,BRIGHT
54, 8109, 8150, 8170, 8135, 8295, 8152, 8181, 8167, 8139, 8224, 8271, 8203, 8152, 8505,4.944323301315308,BRIGHT
55, 8225, 8056, 7969, 7960, 8210, 8091, 8229, 8488, 8457, 8281, 8220, 8208, 8130, 8762,4.952333211898804,BRIGHT
56, 8565, 8425, 8592, 8502, 8481, 8351, 8159, 8073, 7744, 8076, 8423, 8419, 8140, 8618,4.9600913524627686,BRIGHT
57, 8425, 8260, 8204, 8228, 8432, 8237, 8319, 8260, 7848, 8446, 8136, 8135, 8163, 8735,4.967861652374268,BRIGHT
58, 8057, 7996, 7955, 8138, 8116, 8029, 8083, 8305, 8501, 8250, 8337, 8315, 8112, 8671,4.975782632827759,BRIGHT
59, 8396, 8346, 8422, 8354, 8459, 8298, 8227, 8152, 7806, 7163, 8300, 8284, 8209, 8696,4.9838433265686035,BRIGHT
60, 8258, 8159, 8150, 8174, 8312, 8162, 8231, 8429, 8189, 8534, 8199, 8208, 8236, 8795,4.991581916809082,BRIGHT
61, 8017, 8102, 8186, 8297, 8190, 8111, 8055, 8197, 8346, 8517, 8408, 8398, 8169, 8645,4.999388217926025,BRIGHT
62, 8343, 8263, 8253, 8189, 8421, 8250, 8323, 8356, 7935, 7515, 8173, 8173, 8254, 8830,5.00739049911499,BRIGHT
63, 8130, 8107, 8167, 8238, 8217, 8116, 8091, 8308, 8345, 8638, 8347, 8331, 8221, 8726,5.01540994644165,BRIGHT
64, 8134, 8184, 8225, 8268, 8305, 8186, 8142, 8127, 8131, 8258, 8302, 8297, 8217, 8671,5.023218393325806,BRIGHT
65, 8356, 8227, 8249, 8189, 8371, 8225, 8292, 8414, 8039, 7665, 8167, 8189, 8261, 8857,5.031168699264526,BRIGHT
66, 7931, 8039, 8132, 8265, 8133, 8059, 7996, 8341, 8508, 8891, 8414, 8402, 8169, 8709,5.038869380950928,BRIGHT
67, 8287, 8251, 8218, 8218, 8409, 8240, 8308, 8299, 7971, 8144, 8197, 8204, 8277, 8916,5.046785116195679,BRIGHT
68, 8329, 8256, 8322, 8294, 8350, 8224, 8228, 8286, 8008, 7131, 8333, 8333, 8262, 8639,5.054579019546509,BRIGHT
69, 7576, 7797, 7697, 7906, 7966, 7897, 8077, 8436, 8975, 8618, 8345, 8306, 8135, 8516,5.062627077102661,BRIGHT
70, 8207, 8223, 8202, 8116, 8377, 8222, 8395, 8208, 8045, 8215, 8182, 8213, 8379, 8927,5.070555925369263,BRIGHT
71, 8307, 8366, 8466, 8413, 8402, 8291, 8107, 7979, 7778, 7778, 8387, 8436, 8353, 8534,5.078540563583374,BRIGHT
72, 7910, 8006, 7885, 7941, 8172, 8063, 8188, 8399, 8491, 8595, 8157, 8166, 8251, 8610,5.086413621902466,BRIGHT
73, 8128, 8212, 8367, 8213, 8309, 8202, 8258, 8160, 8075, 8449, 8270, 8243, 8339, 8776,5.094356536865234,BRIGHT
74, 8085, 8191, 8192, 8205, 8296, 8181, 8150, 8085, 8109, 8265, 8322, 8296, 8257, 8603,5.102073669433594,BRIGHT
75, 8250, 8162, 8003, 8026, 8318, 8174, 8310, 8350, 8187, 7898, 8143, 8168, 8299, 8742,5.10987663269043,BRIGHT
76, 8078, 8186, 8314, 8278, 8246, 8161, 8072, 8067, 8182, 8184, 8392, 8378, 8259, 8522,5.11757755279541,BRIGHT
77, 8120, 8155, 8136, 8085, 8312, 8168, 8249, 8220, 8156, 8189, 8197, 8168, 8240, 8683,5.125381231307983,BRIGHT
78, 8239, 8189, 8210, 8177, 8294, 8182, 8230, 8282, 8122, 8105, 8264, 8263, 8284, 8747,5.13478684425354,BRIGHT
79, 8036, 8153, 8167, 8224, 8235, 8147, 8088, 8125, 8202, 8183, 8366, 8341, 8201, 8521,5.141278028488159,BRIGHT
80, 8272, 8187, 8122, 8054, 8344, 8194, 8330, 8323, 8100, 7871, 8150, 8138, 8268, 8737,5.149099588394165,BRIGHT
81, 8119, 8168, 8281, 8234, 8245, 8160, 8098, 8117, 8227, 8201, 8387, 8365, 8234, 8650,5.1569435596466064,BRIGHT
82, 8123, 8160, 8109, 8099, 8301, 8173, 8235, 8179, 8176, 8242, 8221, 8213, 8209, 8754,5.164642095565796,BRIGHT
83, 8337, 8195, 8177, 8159, 8303, 8190, 8281, 8295, 8121, 8171, 8234, 8229, 8252, 8732,5.17243504524231,BRIGHT
84, 8139, 8186, 8266, 8257, 8272, 8176, 8135, 8066, 8123, 8142, 8355, 8299, 8189, 8481,5.180163383483887,BRIGHT
85, 8179, 8074, 7996, 7943, 8237, 8113, 8299, 8399, 8335, 8135, 8130, 8114, 8185, 8742,5.189575910568237,BRIGHT
86, 8399, 8264, 8399, 8346, 8305, 8225, 8139, 8140, 8041, 8278, 8383, 8379, 8153, 8667,5.197360277175903,BRIGHT
87, 8429, 8343, 8362, 8354, 8445, 8292, 8264, 8022, 7714, 8193, 8231, 8212, 8154, 8685,5.203601360321045,BRIGHT
88, 8107, 7974, 7834, 7977, 8115, 8030, 8215, 8464, 8546, 8305, 8194, 8184, 8138, 8773,5.211318254470825,BRIGHT
89, 8290, 8249, 8361, 8345, 8309, 8222, 8131, 8117, 8059, 7335, 8395, 8372, 8171, 8558,5.219296455383301,BRIGHT
90, 8387, 8291, 8308, 8243, 8440, 8267, 8297, 8305, 7842, 7921, 8126, 8122, 8265, 8743,5.228491306304932,BRIGHT
91, 7969, 8017, 8005, 8179, 8107, 8049, 8065, 8376, 8535, 8946, 8329, 8324, 8203, 8835,5.236475706100464,BRIGHT
92, 8278, 8273, 8253, 8269, 8372, 8247, 8275, 8193, 7972, 7574, 8283, 8287, 8238, 8900,5.244303464889526,BRIGHT
93, 8265, 8190, 8213, 8181, 8320, 8189, 8258, 8436, 8148, 8116, 8210, 8217, 8270, 8848,5.252346992492676,BRIGHT
94, 7993, 8108, 8209, 8304, 8178, 8119, 8022, 8202, 8356, 8663, 8392, 8378, 8204, 8622,5.260079860687256,BRIGHT
95, 8341, 8248, 8158, 8165, 8386, 8241, 8341, 8348, 7955, 7659, 8143, 8158, 8276, 8899,5.267867803573608,BRIGHT
96, 8119, 8131, 8162, 8240, 8216, 8129, 8127, 8405, 8316, 8372, 8330, 8326, 8241, 8834,5.275677919387817,BRIGHT
97, 8023, 8135, 8158, 8221, 8241, 8141, 8136, 8234, 8264, 8575, 8297, 8286, 8219, 8802,5.282308340072632,BRIGHT
98, 8478, 8325, 8337, 8266, 8431, 8285, 8364, 8272, 7816, 7366, 8206, 8223, 8286, 8899,5.2915520668029785,BRIGHT
99, 7924, 7990, 7960, 8159, 8079, 8022, 8010, 8418, 8670, 8764, 8405, 8385, 8103, 8524,5.299588680267334,BRIGHT
100, 7975, 8034, 7913, 7974, 8200, 8087, 8195, 8312, 8465, 9378, 8138, 8142, 8200, 8802,5.3074634075164795,BRIGHT
101, 8448, 8424, 8548, 8392, 8453, 8341, 8196, 7844, 7584, 7835, 8281, 8327, 8383, 8823,5.315368413925171,BRIGHT
102, 7965, 8070, 7991, 8076, 8170, 8090, 8092, 8287, 8395, 8375, 8258, 8294, 8262, 8650,5.323423385620117,BRIGHT
103, 8022, 8100, 8133, 8016, 8240, 8137, 8319, 8356, 8309, 8548, 8130, 8148, 8328, 8844,5.331375360488892,BRIGHT
104, 8109, 8257, 8396, 8333, 8285, 8226, 8132, 7938, 7973, 8072, 8393, 8384, 8302, 8565,5.337535619735718,BRIGHT
105, 8161, 8126, 7905, 8004, 8262, 8154, 8301, 8303, 8239, 7970, 8163, 8191, 8268, 8735,5.34533429145813,BRIGHT
106, 8171, 8196, 8300, 8194, 8272, 8180, 8237, 8176, 8160, 8105, 8279, 8292, 8296, 8768,5.353281021118164,BRIGHT
107, 8016, 8160, 8287, 8199, 8248, 8158, 8127, 8087, 8191, 8273, 8319, 8279, 8219, 8638,5.361460208892822,BRIGHT
108, 8282, 8183, 8071, 8063, 8318, 8194, 8335, 8320, 8105, 7846, 8133, 8133, 8299, 8849,5.369601726531982,BRIGHT
109, 8079, 8171, 8195, 8269, 8216, 8154, 8101, 8114, 8206, 8166, 8383, 8374, 8247, 8557,5.378814458847046,XXXXX
110, 8134, 8170, 8147, 8092, 8295, 8178, 8290, 8234, 8132, 8150, 8192, 8180, 8232, 8666,5.38516092300415,XXXXX
111, 8267, 8205, 8281, 8167, 8279, 8193, 8252, 8216, 8129, 8146, 8254, 8254, 8268, 8773,5.394635200500488,XXXXX
112, 8051, 8160, 8156, 8190, 8233, 8158, 8115, 8041, 8225, 8158, 8320, 8302, 8181, 8668,5.4010725021362305,XXXXX
113, 8301, 8154, 8012, 8025, 8288, 8175, 8317, 8383, 8191, 7997, 8116, 8128, 8249, 8832,5.40902853012085,XXXXX
114, 8284, 8253, 8408, 8359, 8277, 8216, 8130, 8036, 8012, 8143, 8377, 8354, 8221, 8531,5.416981220245361,XXXXX
115, 8095, 8129, 8098, 8081, 8245, 8136, 8245, 8106, 8225, 8150, 8209, 8154, 8090, 8606,5.424875974655151,XXXXX
116, 8172, 7969, 7802, 7882, 8080, 8028, 8156, 8546, 8694, 8504, 8237, 8208, 8057, 8794,5.433184385299683,XXXXX
117, 8349, 8302, 8411, 8335, 8348, 8264, 8093, 8036, 7831, 8356, 8359, 8337, 8166, 8656,5.440507888793945,XXXXX
118, 8200, 8153, 8117, 8135, 8295, 8159, 8262, 8371, 8128, 8946, 8132, 8128, 8229, 8782,5.448293209075928,XXXXX
119, 8018, 8013, 7986, 8190, 8075, 8051, 8049, 8446, 8642, 8631, 8389, 8381, 8160, 8684,5.4576404094696045,XXXXX
120, 8353, 8322, 8341, 8300, 8408, 8294, 8256, 8189, 7776, 7295, 8249, 8242, 8265, 8764,5.465430736541748,XXXXX
121, 8186, 8128, 8149, 8161, 8228, 8132, 8209, 8463, 8278, 8541, 8225, 8211, 8269, 8882,5.47188925743103,XXXXX
122, 8025, 8127, 8214, 8291, 8180, 8127, 8093, 8197, 8318, 8422, 8406, 8384, 8182, 8811,5.479565858840942,XXXXX
123, 8348, 8241, 8181, 8163, 8367, 8244, 8342, 8345, 7932, 7590, 8163, 8166, 8276, 8941,5.4874608516693115,XXXXX
124, 8114, 8108, 8150, 8258, 8168, 8120, 8063, 8294, 8355, 8599, 8370, 8343, 8247, 8691,5.496201753616333,XXXXX
125, 8142, 8201, 8229, 8247, 8290, 8194, 8172, 8169, 8107, 8129, 8264, 8252, 8238, 8730,5.5041680335998535,XXXXX
126, 8317, 8234, 8274, 8225, 8315, 8214, 8268, 8381, 8028, 7599, 8207, 8226, 8279, 8912,5.512016534805298,XXXXX
127, 7901, 8028, 8044, 8222, 8089, 8049, 8003, 8310, 8496, 8961, 8391, 8389, 8185, 8745,5.519944429397583,XXXXX
238, 8419, 8326, 8285, 8275, 8442, 8297, 8373, 8310, 7860, 7789, 8173, 8199, 8311, 8972,5.527951717376709,XXXXX
0, 8429, 8351, 8487, 8439, 8378, 8290, 8291, 8145, 7815, 6288, 8396, 8393, 8302, 8653,5.534318447113037,XXXXX
1, 7744, 7898, 7811, 7959, 8031, 7975, 8210, 8226, 8678, 7913, 8311, 8279, 8208, 8627,5.543633699417114,XXXXX
2, 8266, 8277, 8288, 8170, 8369, 8253, 8366, 8080, 7914, 8248, 8189, 8221, 8416, 8940,5.55152153968811,XXXXX
3, 8201, 8285, 8306, 8333, 8295, 8236, 8047, 8025, 7920, 8059, 8393, 8422, 8326, 8502,5.559277057647705,XXXXX
4, 7998, 8029, 7901, 7938, 8173, 8092, 8251, 8390, 8422, 8264, 8166, 8173, 8271, 8683,5.567046642303467,XXXXX
5, 8108, 8236, 8460, 8266, 8278, 8215, 8205, 8078, 8050, 8358, 8326, 8326, 8327, 8776,5.574782848358154,XXXXX
6, 8062, 8165, 8117, 8160, 8239, 8160, 8137, 8109, 8167, 8408, 8288, 8296, 8228, 8672,5.582895517349243,XXXXX
7, 8289, 8179, 8021, 8066, 8284, 8176, 8305, 8312, 8149, 7880, 8173, 8204, 8303, 8777,5.590511083602905,XXXXX
8, 8026, 8173, 8312, 8269, 8205, 8151, 8047, 8047, 8197, 8252, 8409, 8386, 8252, 8489,5.598361968994141,XXXXX
9, 8162, 8161, 8157, 8075, 8281, 8177, 8263, 8252, 8131, 8197, 8161, 8148, 8246, 8721,5.606103181838989,XXXXX
10, 8222, 8183, 8217, 8209, 8228, 8171, 8186, 8233, 8125, 8110, 8300, 8313, 8273, 8763,5.614019870758057,XXXXX
11, 8033, 8152, 8126, 8187, 8224, 8152, 8137, 8120, 8201, 8115, 8342, 8329, 8209, 8596,5.621725559234619,XXXXX
12, 8333, 8195, 8150, 8072, 8316, 8203, 8332, 8299, 8102, 7984, 8161, 8161, 8276, 8762,5.629507780075073,XXXXX
13, 8150, 8184, 8303, 8270, 8219, 8169, 8083, 8022, 8155, 8234, 8393, 8357, 8211, 8602,5.637353420257568,XXXXX
14, 8116, 8115, 8001, 8014, 8240, 8140, 8255, 8269, 8274, 8081, 8180, 8150, 8197, 8766,5.6454174518585205,XXXXX
15, 8394, 8206, 8218, 8187, 8261, 8196, 8208, 8322, 8153, 7986, 8279, 8281, 8238, 8738,5.653269052505493,XXXXX
16, 8260, 8283, 8415, 8347, 8324, 8240, 8125, 7931, 7805, 8056, 8339, 8307, 8167, 8503,5.661215305328369,XXXXX
17, 7896, 7847, 7612, 7734, 8013, 7940, 8200, 8518, 8742, 8728, 8133, 8092, 8099, 8714,5.669153690338135,XXXXX
18, 8069, 8037, 8022, 8077, 8086, 8071, 8052, 8431, 8639, 8283, 8393, 8366, 8130, 8723,5.677246809005737,XXXXX
19, 8434, 8377, 8462, 8342, 8457, 8326, 8257, 8252, 7713, 7956, 8174, 8195, 8280, 8819,5.684497594833374,XXXXX
20, 8016, 7988, 7927, 8092, 8089, 8028, 8119, 8478, 8525, 9158, 8220, 8231, 8230, 8796,5.692384719848633,XXXXX
21, 8111, 8185, 8224, 8272, 8234, 8181, 8129, 8206, 8231, 7879, 8372, 8342, 8190, 8731,5.701846361160278,XXXXX
22, 8478, 8261, 8255, 8262, 8360, 8259, 8303, 8385, 7930, 7684, 8145, 8141, 8290, 8915,5.708363056182861,XXXXX
23, 7976, 8083, 8202, 8220, 8114, 8085, 8057, 8228, 8402, 8744, 8390, 8379, 8230, 8742,5.717679977416992,XXXXX
24, 8130, 8231, 8273, 8084, 8316, 8207, 8245, 8233, 8046, 7795, 8237, 8239, 8241, 8863,5.725400686264038,XXXXX
25, 8477, 8148, 8166, 8328, 8242, 8190, 8189, 8407, 8155, 8088, 8214, 8213, 8262, 8923,5.73316764831543,XXXXX
26, 7936, 8148, 8291, 8214, 8206, 8146, 8083, 8138, 8251, 8367, 8356, 8355, 8247, 8742,5.739423751831055,XXXXX
27, 8222, 8225, 8230, 8079, 8313, 8197, 8298, 8368, 8057, 7755, 8142, 8160, 8276, 8977,5.747162818908691,XXXXX
28, 8306, 8112, 8271, 8332, 8146, 8128, 8061, 8337, 8289, 8382, 8375, 8366, 8221, 8848,5.756664276123047,XXXXX
29, 8037, 8199, 8285, 8026, 8303, 8203, 8237, 8263, 8134, 8288, 8241, 8270, 8286, 8920,5.764560222625732,XXXXX
30, 8447, 8327, 8361, 8322, 8374, 8293, 8325, 8271, 7889, 7230, 8202, 8242, 8289, 9014,5.772414445877075,XXXXX
31, 8103, 7917, 8004, 7968, 7982, 7952, 7985, 8307, 8630, 8919, 8418, 8384, 8167, 8680,5.780216455459595,XXXXX
32, 8432, 8299, 8315, 8183, 8425, 8297, 8360, 8136, 7864, 9024, 8146, 8143, 8343, 8957,5.788107395172119,XXXXX
33, 8483, 8555, 8658, 8699, 8521, 8428, 8186, 7906, 7381, 7709, 8258, 8312, 8395, 8903,5.794227123260498,XXXXX
34, 7989, 7890, 7798, 7754, 7991, 7920, 8039, 8390, 8617, 8576, 8225, 8259, 8267, 8802,5.803625106811523,XXXXX
35, 8360, 8164, 8258, 8212, 8295, 8232, 8347, 8153, 8182, 8443, 8220, 8218, 8328, 8899,5.811506032943726,XXXXX
36, 8155, 8284, 8387, 8339, 8285, 8205, 8088, 7954, 7947, 8068, 8393, 8391, 8342, 8630,5.819746494293213,XXXXX
37, 8289, 8075, 7824, 7938, 8184, 8087, 8246, 8368, 8299, 7841, 8132, 8172, 8321, 8862,5.826272249221802,XXXXX
38, 8220, 8205, 8334, 8328, 8259, 8226, 8169, 8077, 8118, 7923, 8320, 8342, 8289, 8868,5.835489988327026,XXXXX
39, 8027, 8141, 8228, 8077, 8192, 8092, 8137, 8140, 8191, 8294, 8296, 8279, 8266, 8835,5.843356132507324,XXXXX
40, 8388, 8205, 8067, 8167, 8299, 8215, 8345, 8287, 8116, 8057, 8178, 8189, 8298, 8942,5.8513641357421875,XXXXX
41, 8195, 8169, 8208, 8229, 8190, 8159, 8063, 8050, 8189, 8215, 8402, 8411, 8216, 8614,5.857768535614014,XXXXX
42, 8350, 8149, 8095, 8051, 8241, 8141, 8241, 8303, 8165, 7950, 8163, 8183, 8217, 8830,5.865817070007324,XXXXX
43, 8269, 8227, 8289, 8280, 8271, 8209, 8164, 8162, 8098, 8091, 8323, 8335, 8246, 8912,5.873135805130005,XXXXX
44, 8092, 8172, 8168, 8152, 8226, 8150, 8144, 7995, 8138, 8246, 8311, 8304, 8217, 8807,5.882405996322632,XXXXX
45, 8388, 8078, 7911, 8017, 8188, 8131, 8293, 8464, 8393, 8190, 8150, 8134, 8226, 8919,5.890131950378418,XXXXX
46, 8239, 8313, 8499, 8398, 8307, 8248, 8107, 8067, 7909, 8160, 8402, 8397, 8258, 8784,5.897980451583862,XXXXX
47, 8187, 8262, 8280, 8196, 8351, 8231, 8313, 8015, 7786, 8208, 8128, 8191, 8248, 8903,5.90588903427124,XXXXX
48, 8289, 7983, 7857, 7971, 8062, 8042, 8196, 8345, 8568, 8184, 8266, 8301, 8183, 8966,5.913916349411011,XXXXX
49, 8320, 8318, 8369, 8328, 8339, 8256, 8167, 8019, 7945, 7454, 8340, 8351, 8271, 8948,5.921862602233887,XXXXX
50, 8248, 8210, 8217, 8128, 8317, 8200, 8282, 8318, 8015, 8434, 8142, 8152, 8307, 9081,5.928559064865112,XXXXX
51, 8120, 8025, 8151, 8110, 8057, 8071, 8074, 8309, 8456, 8537, 8409, 8421, 8237, 9063,5.937335729598999,XXXXX
52, 8361, 8308, 8268, 8256, 8386, 8271, 8300, 8239, 7949, 7495, 8137, 8248, 8295, 9175,5.94510817527771,XXXXX
53, 8169, 8198, 8162, 8064, 8272, 8139, 8200, 8304, 8228, 8486, 8139, 8264, 8243, 9057,5.953126907348633,XXXXX
54, 8127, 8029, 8238, 8190, 8078, 8156, 8128, 8177, 8250, 8224, 8410, 8399, 8286, 9114,5.961042881011963,XXXXX
55, 8503, 8134, 8206, 8218, 8234, 8212, 8293, 8462, 8148, 7943, 8244, 8225, 8357, 9477,5.969069242477417,XXXXX
56, 8166, 8239, 8260, 8143, 8234, 8110, 8052, 8141, 8235, 8413, 8286, 8352, 8200, 9268,5.9772279262542725,XXXXX
57, 8204, 8144, 8115, 8096, 8227, 8181, 8235, 8190, 8114, 8004, 8147, 8190, 8221, 9310,5.9845194816589355,XXXXX
58, 8349, 8136, 8276, 8174, 8210, 8157, 8230, 8367, 8211, 8204, 8302, 8262, 8266, 9384,5.9922990798950195,XXXXX
59, 8115, 8188, 8284, 8204, 8205, 8144, 8099, 8133, 8185, 8203, 8312, 8366, 8212, 9179,6.000012397766113,XXXXX
60, 8330, 8174, 8019, 8081, 8285, 8180, 8308, 8371, 8145, 8077, 7973, 8150, 8277, 9413,6.007779121398926,XXXXX
61, 8150, 8171, 8276, 8186, 8209, 8140, 8100, 8150, 8208, 8242, 8291, 8380, 8250, 9316,6.015709161758423,XXXXX
62, 8163, 8158, 8169, 8133, 8247, 8182, 8209, 8205, 8167, 8134, 8273, 8258, 8248, 9322,6.023513078689575,XXXXX
63, 8305, 8204, 8168, 8137, 8249, 8166, 8234, 8357, 8174, 8144, 8239, 8237, 8293, 9434,6.031702995300293,XXXXX
64, 8021, 8169, 8285, 8215, 8174, 8147, 8041, 8087, 8194, 8200, 8342, 8395, 8230, 9240,6.039579153060913,XXXXX
65, 8272, 8169, 8136, 8092, 8268, 8193, 8282, 8273, 8157, 8119, 8058, 8166, 8262, 9441,6.047233581542969,XXXXX
66, 8206, 8186, 8289, 8186, 8191, 8150, 8122, 8173, 8183, 8173, 8311, 8371, 8267, 9329,6.05662202835083,XXXXX
67, 8148, 8139, 8167, 8150, 8223, 8173, 8186, 8218, 8171, 8165, 8270, 8279, 8214, 9292,6.0627760887146,XXXXX
68, 8359, 8163, 8215, 8122, 8232, 8168, 8253, 8334, 8178, 8137, 8219, 8199, 8264, 9462,6.070779800415039,XXXXX
69, 8121, 8169, 8316, 8221, 8176, 8154, 8043, 8068, 8188, 8188, 8361, 8431, 8237, 9247,6.078673362731934,XXXXX
70, 8273, 8159, 8099, 8094, 8262, 8185, 8292, 8321, 8163, 8142, 8041, 8192, 8253, 9391,6.086642503738403,XXXXX
71, 8211, 8166, 8301, 8188, 8181, 8146, 8140, 8233, 8201, 8170, 8270, 8334, 8272, 9342,6.096075773239136,XXXXX
72, 8124, 8169, 8182, 8170, 8242, 8179, 8155, 8137, 8159, 8158, 8331, 8341, 8226, 9278,6.102606296539307,XXXXX
73, 8324, 8183, 8126, 8092, 8231, 8160, 8273, 8334, 8175, 8149, 8203, 8235, 8305, 9441,6.110665798187256,XXXXX
74, 8087, 8175, 8287, 8207, 8189, 8155, 8044, 8091, 8192, 8200, 8333, 8390, 8245, 9257,6.119187831878662,XXXXX
75, 8277, 8151, 8099, 8108, 8271, 8197, 8262, 8295, 8149, 8135, 8145, 8186, 8250, 9423,6.126495599746704,XXXXX
76, 8276, 8180, 8322, 8186, 8169, 8135, 8120, 8283, 8203, 8181, 8376, 8385, 8308, 9389,6.134258985519409,XXXXX
77, 8063, 8211, 8235, 8147, 8269, 8174, 8120, 8104, 8142, 8168, 8221, 8276, 8171, 9263,6.142019033432007,XXXXX
78, 8328, 8105, 8097, 8097, 8185, 8173, 8300, 8388, 8189, 8144, 8037, 8088, 8285, 9452,6.149929523468018,XXXXX
79, 8185, 8169, 8322, 8223, 8175, 8140, 8044, 8195, 8209, 8200, 8431, 8443, 8274, 9199,6.157589912414551,XXXXX
80, 8204, 8248, 8129, 8052, 8350, 8182, 8267, 8227, 8106, 8131, 8186, 8240, 8160, 9158,6.1655027866363525,XXXXX
81, 8247, 8112, 8265, 8172, 8119, 8151, 8172, 8326, 8213, 8189, 8256, 8334, 8296, 9277,6.173436880111694,XXXXX
82, 8139, 8155, 8245, 8184, 8215, 8180, 8083, 8219, 8169, 8175, 8338, 8282, 8236, 9213,6.1814539432525635,XXXXX
83, 8363, 8210, 8153, 8096, 8284, 8181, 8301, 8380, 8154, 8129, 8185, 8054, 8215, 9288,6.189338684082031,XXXXX
84, 8227, 8135, 8331, 8213, 8169, 8162, 8080, 8211, 8220, 8203, 8436, 8397, 8146, 9262,6.197296142578125,XXXXX
85, 8320, 8163, 8132, 8094, 8268, 8192, 8245, 8325, 8146, 8135, 8185, 8239, 8084, 9312,6.205324649810791,XXXXX
86, 8360, 8198, 8302, 8217, 8181, 8158, 8175, 8324, 8194, 8165, 8232, 8260, 8227, 9310,6.2135419845581055,XXXXX
87, 8159, 8155, 8210, 8175, 8243, 8186, 8078, 8156, 8168, 8184, 8351, 8275, 8180, 9303,6.221280336380005,XXXXX
88, 8374, 8175, 8090, 8116, 8235, 8177, 8313, 8418, 8165, 8136, 8171, 8042, 8216, 9369,6.229480028152466,XXXXX
89, 8191, 8184, 8324, 8255, 8177, 8155, 8084, 8194, 8204, 8187, 8397, 8305, 8224, 9417,6.237462997436523,XXXXX
90, 8250, 8136, 8068, 8091, 8279, 8193, 8222, 8279, 8148, 8139, 8195, 8212, 8211, 9577,6.245424509048462,XXXXX
91, 8341, 8191, 8192, 8183, 8177, 8161, 8221, 8362, 8187, 8162, 8244, 8274, 8286, 9440,6.251746416091919,XXXXX
92, 8122, 8170, 8172, 8159, 8241, 8191, 8104, 8167, 8171, 8189, 8356, 8254, 8203, 9440,6.259764194488525,XXXXX
93, 8363, 8152, 8079, 8091, 8253, 8173, 8305, 8436, 8166, 8133, 8129, 7950, 8258, 9665,6.267727851867676,XXXXX
94, 8188, 8192, 8323, 8259, 8167, 8153, 8082, 8220, 8197, 8185, 8376, 8283, 8266, 9412,6.275519609451294,XXXXX
95, 8197, 8160, 8065, 8108, 8264, 8202, 8207, 8269, 8153, 8157, 8226, 8265, 8233, 9468,6.283266544342041,XXXXX
96, 8342, 8177, 8168, 8145, 8192, 8153, 8229, 8364, 8186, 8150, 8232, 8240, 8280, 9595,6.292582035064697,XXXXX
97, 8121, 8181, 8234, 8194, 8241, 8181, 8087, 8119, 8175, 8185, 8384, 8291, 8224, 9376,6.300273895263672,XXXXX
98, 8366, 8169, 8063, 8111, 8218, 8173, 8303, 8404, 8160, 8136, 8127, 8063, 8288, 9543,6.308082818984985,XXXXX
99, 8222, 8172, 8270, 8240, 8215, 8157, 8073, 8256, 8189, 8182, 8351, 8308, 8253, 9524,6.3157641887664795,XXXXX
100, 8172, 8154, 8111, 8127, 8302, 8192, 8166, 8254, 8157, 8167, 8262, 8135, 8225, 9508,6.322272062301636,XXXXX
101, 8358, 8179, 8162, 8138, 8105, 8142, 8256, 8367, 8183, 8137, 8238, 8126, 8326, 9653,6.330975770950317,XXXXX
102, 8126, 8179, 8246, 8224, 8351, 8217, 8087, 8124, 8174, 8171, 8388, 8394, 8221, 9517,6.338701248168945,XXXXX
103, 8329, 8145, 8055, 8095, 8265, 8159, 8266, 8381, 8167, 8150, 8115, 8175, 8264, 9736,6.346769094467163,XXXXX
104, 8261, 8170, 8241, 8199, 8060, 8135, 8089, 8214, 8194, 8178, 8337, 8367, 8299, 9521,6.354725122451782,XXXXX
105, 8195, 8185, 8133, 8157, 8381, 8240, 8176, 8199, 8147, 8148, 8265, 8156, 8216, 9291,6.3623998165130615,XXXXX
106, 8373, 8163, 8130, 8130, 8161, 8111, 8251, 8423, 8179, 8151, 8180, 8024, 8292, 9642,6.370382308959961,XXXXX
107, 8141, 8165, 8260, 8238, 8225, 8177, 8056, 8162, 8189, 8193, 8408, 8394, 8251, 9360,6.378265380859375,XXXXX
108, 8318, 8196, 8088, 8085, 8258, 8192, 8271, 8354, 8148, 8133, 8157, 8247, 8243, 9366,6.386168956756592,XXXXX
109, 8236, 8154, 8205, 8177, 8142, 8124, 8111, 8261, 8182, 8175, 8319, 8362, 8273, 9490,6.394046068191528,XXXXX
110, 8203, 8118, 8156, 8220, 8364, 8227, 8141, 8256, 8200, 8185, 8327, 8255, 8340, 9431,6.4021759033203125,XXXXX
111, 8361, 8271, 8150, 8021, 8055, 8120, 8275, 8420, 8147, 8128, 8130, 8071, 8345, 9505,6.410090684890747,XXXXX
112, 7943, 8213, 8256, 8154, 8346, 8154, 8062, 8089, 8121, 8155, 8298, 8290, 8255, 9272,6.418202638626099,XXXXX
113, 8269, 8086, 8072, 8181, 8248, 8184, 8254, 8382, 8195, 8160, 8177, 8130, 8390, 9596,6.426138401031494,XXXXX
114, 8356, 8200, 8131, 8124, 7994, 8128, 8150, 8331, 8188, 8170, 8309, 8258, 8287, 9588,6.434257507324219,XXXXX
115, 8097, 8171, 8148, 8161, 8592, 8207, 8119, 8145, 8138, 8156, 8270, 8305, 8183, 9369,6.441963195800781,XXXXX
116, 8393, 8158, 8246, 8160, 7813, 8114, 8261, 8418, 8203, 8161, 8145, 8239, 8342, 9670,6.449909687042236,XXXXX
117, 8137, 8159, 8213, 8194, 8338, 8182, 8037, 8153, 8170, 8178, 8374, 8379, 8219, 9439,6.45623779296875,XXXXX
118, 8216, 8148, 7962, 8104, 8728, 8215, 8220, 8321, 8144, 8133, 8153, 8051, 8240, 9519,6.4644365310668945,XXXXX
119, 8290, 8218, 8255, 8190, 7462, 8110, 8160, 8317, 8207, 8175, 8281, 8191, 8328, 9611,6.473255157470703,XXXXX
120, 8086, 8149, 8205, 8178, 8382, 8191, 8076, 8144, 8155, 8163, 8339, 8363, 8204, 9392,6.481191396713257,XXXXX
121, 8341, 8175, 8086, 8090, 8359, 8171, 8269, 8380, 8169, 8141, 8130, 8196, 8307, 9595,6.488914728164673,XXXXX
122, 8140, 8201, 8232, 8229, 7794, 8169, 8083, 8116, 8188, 8189, 8360, 8340, 8285, 9453,6.496920108795166,XXXXX
123, 8213, 8138, 8038, 8099, 8349, 8162, 8218, 8303, 8149, 8141, 8159, 8116, 8245, 9480,6.50491738319397,XXXXX
124, 8312, 8191, 8261, 8171, 8183, 8163, 8172, 8342, 8199, 8165, 8251, 8250, 8331, 9596,6.5129170417785645,SPEAK
125, 8087, 8177, 8201, 8182, 8068, 8199, 8073, 8038, 8153, 8166, 8341, 8331, 8200, 9317,6.519288063049316,SPEAK
126, 8350, 8136, 8018, 8095, 8024, 8129, 8289, 8321, 8179, 8155, 8136, 8059, 8302, 9559,6.528644561767578,SPEAK
127, 8193, 8200, 8286, 8232, 8376, 8178, 8049, 8248, 8191, 8195, 8383, 8355, 8282, 9404,6.536428928375244,SPEAK
238, 8173, 8187, 8058, 8044, 8373, 8168, 8157, 8290, 8113, 8130, 8155, 8251, 8170, 9268,6.54429292678833,SPEAK
0, 8346, 8106, 8154, 8216, 8142, 8181, 8216, 8239, 8232, 8179, 8278, 8333, 8370, 9487,6.55202579498291,SPEAK
1, 8140, 8142, 8258, 8240, 8363, 8182, 8014, 8031, 8188, 8183, 8414, 8378, 8247, 9103,6.559839725494385,SPEAK
2, 8293, 8223, 8083, 8030, 8183, 8113, 8258, 8311, 8129, 8124, 8082, 7993, 8215, 9143,6.56757664680481,SPEAK
3, 8239, 8178, 8241, 8271, 8078, 8211, 8137, 8199, 8206, 8191, 8386, 8346, 8285, 9158,6.575520992279053,SPEAK
4, 8257, 8081, 7995, 8053, 8408, 8110, 8085, 8265, 8147, 8149, 8220, 8294, 8201, 9065,6.583315849304199,SPEAK
5, 8310, 8204, 8191, 8132, 8323, 8136, 8234, 8234, 8191, 8160, 8202, 8293, 8310, 9146,6.591153621673584,SPEAK
6, 8087, 8207, 8278, 8252, 7922, 8245, 8127, 7936, 8185, 8188, 8406, 8391, 8239, 8882,6.599085807800293,SPEAK
7, 8306, 8109, 8000, 8035, 8113, 8082, 8218, 8292, 8156, 8136, 8112, 8021, 8252, 9045,6.6068925857543945,SPEAK
8, 8228, 8209, 8283, 8260, 8227, 8187, 8169, 8270, 8205, 8180, 8371, 8371, 8283, 9039,6.614902019500732,SPEAK
9, 8236, 8139, 8070, 8097, 7901, 8158, 8191, 8197, 8150, 8161, 8282, 8338, 8187, 8987,6.622605323791504,SPEAK
10, 8369, 8163, 8188, 8131, 8077, 8084, 8244, 8270, 8173, 8158, 8210, 8236, 8290, 9070,6.63031530380249,SPEAK
11, 8043, 8178, 8258, 8236, 8315, 8226, 8118, 8135, 8167, 8187, 8389, 8430, 8221, 8762,6.638286828994751,SPEAK
12, 8254, 8120, 7957, 8036, 8065, 8101, 8265, 8387, 8162, 8148, 8129, 8152, 8265, 8968,6.646219253540039,SPEAK
13, 8287, 8218, 8305, 8255, 8060, 8156, 8172, 8190, 8201, 8180, 8371, 8380, 8297, 9016,6.65413236618042,SPEAK
14, 8252, 8134, 8150, 8123, 8046, 8185, 8166, 8105, 8157, 8169, 8305, 8341, 8197, 8932,6.662068605422974,SPEAK
15, 8360, 8175, 8130, 8112, 7964, 8077, 8293, 8332, 8185, 8151, 8193, 8238, 8304, 9038,6.670057773590088,SPEAK
16, 8001, 8175, 8197, 8209, 8285, 8180, 8132, 8180, 8172, 8184, 8398, 8454, 8222, 8712,6.677937984466553,SPEAK
17, 8225, 8117, 8014, 8045, 8090, 8119, 8281, 8353, 8161, 8153, 8144, 8197, 8256, 8887,6.686047792434692,SPEAK
18, 8324, 8222, 8309, 8254, 8079, 8158, 8187, 8130, 8191, 8168, 8339, 8362, 8302, 8999,6.693995237350464,SPEAK
19, 8191, 8131, 8100, 8139, 8173, 8160, 8122, 8024, 8153, 8168, 8308, 8326, 8205, 8869,6.701916933059692,SPEAK
20, 8334, 8172, 8117, 8122, 7957, 8087, 8322, 8370, 8189, 8153, 8171, 8233, 8311, 8999,6.709748029708862,SPEAK
21, 8075, 8225, 8345, 8274, 8112, 8208, 8160, 8193, 8191, 8188, 8427, 8507, 8240, 8758,6.716308832168579,SPEAK
22, 8216, 8095, 7985, 8010, 8141, 8086, 8226, 8275, 8156, 8158, 8152, 8210, 8219, 8854,6.724902629852295,SPEAK
23, 8304, 8166, 8182, 8176, 8157, 8131, 8213, 8205, 8183, 8165, 8269, 8355, 8271, 8968,6.732880115509033,SPEAK
24, 8171, 8306, 8389, 8336, 7805, 8270, 8327, 8095, 8202, 8192, 8390, 8420, 8278, 8837,6.7405853271484375,SPEAK
25, 8272, 7962, 7818, 7874, 8228, 7933, 8109, 8325, 8120, 8127, 8093, 8153, 8184, 8844,6.748693943023682,SPEAK
26, 8023, 7855, 7832, 7883, 9264, 7971, 7776, 8208, 8094, 8144, 8258, 8302, 8078, 8835,6.756590366363525,SPEAK
27, 8393, 8379, 8407, 8336, 7395, 8189, 8350, 8490, 8231, 8194, 8294, 8184, 8348, 9253,6.764578580856323,SPEAK
28, 8483, 8203, 8212, 8203, 7371, 8105, 8161, 8217, 8173, 8164, 8299, 8247, 8232, 9249,6.772484302520752,SPEAK
29, 8055, 8059, 8060, 8067, 9055, 8186, 8113, 7814, 8131, 8164, 8251, 8344, 8135, 9097,6.77970552444458,SPEAK
30, 8350, 8331, 8327, 8263, 8089, 8076, 8232, 8370, 8231, 8173, 8169, 8249, 8374, 9474,6.787622690200806,SPEAK
31, 8237, 8078, 8089, 8129, 8211, 8195, 7982, 8310, 8146, 8156, 8358, 8381, 8159, 9444,6.795488119125366,SPEAK
32, 8258, 8148, 8079, 8091, 8518, 8258, 8330, 8249, 8161, 8152, 8179, 8207, 8239, 9512,6.803401470184326,SPEAK
33, 8348, 8317, 8361, 8284, 7968, 7988, 8030, 8255, 8225, 8176, 8250, 8308, 8356, 9467,6.811368465423584,SPEAK
34, 8097, 8054, 7990, 8070, 8283, 8176, 8068, 8158, 8135, 8157, 8312, 8386, 8143, 9163,6.819279909133911,SPEAK
35, 8388, 8180, 8096, 8092, 8303, 8225, 8366, 8392, 8172, 8147, 8112, 8225, 8375, 9452,6.828436851501465,SPEAK
36, 8150, 8264, 8318, 8281, 8317, 8135, 7977, 8017, 8198, 8183, 8347, 8441, 8365, 9110,6.836184978485107,SPEAK
37, 8198, 8082, 7933, 8027, 8070, 8106, 8178, 8118, 8153, 8146, 8185, 8190, 8242, 8990,6.843939542770386,SPEAK
38, 8368, 8216, 8255, 8169, 8097, 8178, 8275, 8363, 8188, 8157, 8218, 8181, 8389, 9247,6.850260496139526,SPEAK
39, 7986, 8180, 8200, 8199, 8195, 8193, 8054, 8157, 8168, 8186, 8357, 8462, 8211, 8772,6.8598792552948,SPEAK
40, 8301, 8132, 8041, 8071, 7917, 8060, 8212, 8335, 8184, 8158, 8110, 8251, 8291, 9017,6.8661580085754395,SPEAK
41, 8256, 8205, 8317, 8242, 8184, 8236, 8154, 8028, 8188, 8178, 8328, 8398, 8335, 9086,6.875458002090454,SPEAK
42, 8252, 8121, 8022, 8088, 8142, 8124, 8125, 8078, 8150, 8169, 8215, 8287, 8176, 8973,6.883281469345093,SPEAK
43, 8367, 8185, 8199, 8160, 8011, 8096, 8209, 8358, 8184, 8172, 8192, 8272, 8255, 9093,6.891256332397461,SPEAK
44, 7990, 8191, 8309, 8229, 8192, 8228, 8084, 8157, 8162, 8177, 8363, 8404, 8197, 8780,6.898986339569092,SPEAK
45, 8274, 8134, 7995, 8065, 8017, 8056, 8208, 8296, 8163, 8145, 8109, 8139, 8215, 8976,6.906907796859741,SPEAK
46, 8289, 8180, 8255, 8233, 8265, 8187, 8148, 8067, 8174, 8178, 8315, 8381, 8201, 9058,6.913294076919556,SPEAK
47, 8240, 8167, 8227, 8146, 8168, 8165, 8133, 8052, 8154, 8174, 8242, 8324, 8178, 8985,6.922861099243164,SPEAK
48, 8372, 8112, 8018, 8085, 8016, 8057, 8204, 8316, 8176, 8154, 8134, 8220, 8205, 9053,6.92928409576416,SPEAK
49, 8031, 8238, 8360, 8329, 8215, 8191, 8014, 8121, 8186, 8187, 8399, 8444, 8221, 8979,6.937353849411011,SPEAK
50, 8210, 8161, 8151, 8089, 8058, 8190, 8284, 8264, 8162, 8152, 8154, 8176, 8240, 9032,6.945474624633789,SPEAK
51, 8386, 8061, 8048, 8109, 8505, 8083, 8119, 8218, 8163, 8159, 8257, 8332, 8146, 9281,6.954632997512817,SPEAK
52, 8259, 8313, 8370, 8340, 8334, 7957, 7931, 8223, 8207, 8196, 8298, 8327, 8333, 9552,6.962400197982788,SPEAK
53, 8300, 8178, 8095, 8095, 7930, 8272, 8347, 8292, 8173, 8157, 8168, 8230, 8306, 9423,6.970190048217773,SPEAK
54, 8228, 8061, 8129, 8114, 8367, 8161, 8008, 7983, 8149, 8165, 8368, 8421, 8132, 9457,6.978195905685425,SPEAK
55, 8379, 8300, 8275, 8238, 8117, 7954, 8083, 8243, 8215, 8179, 8165, 8110, 8377, 9799,6.98460054397583,SPEAK
56, 8213, 8184, 8093, 8172, 8017, 8355, 8271, 8304, 8166, 8170, 8278, 8279, 8271, 9469,6.992605924606323,SPEAK
57, 8197, 8072, 8066, 8087, 8458, 8149, 7976, 8243, 8139, 8161, 8311, 8368, 8153, 9317,7.000494956970215,SPEAK
58, 8443, 8400, 8391, 8298, 8168, 8180, 8350, 8338, 8264, 8191, 8213, 8219, 8464, 9758,7.008487701416016,SPEAK
59, 8062, 7881, 7765, 7821, 7900, 7947, 8083, 8007, 8026, 8135, 8150, 8115, 8059, 9260,7.016351699829102,SPEAK
60, 8273, 8147, 8247, 8287, 8425, 8346, 8004, 8221, 8224, 8158, 8359, 8453, 8239, 9169,7.024178743362427,SPEAK
61, 8366, 8879, 8869, 8784, 8147, 8700, 8620, 8407, 8432, 8273, 8588, 8677, 8760, 9545,7.033661842346191,SPEAK
62, 8010, 6716, 6429, 6381, 7912, 6334, 7912, 8038, 7449, 7949, 7051, 6717, 7301, 8702,7.040300130844116,SPEAK
63, 8158, 7578, 8698, 8524, 8807, 8307, 7588, 8007, 8306, 8053, 8669, 9129, 7788, 8296,7.048528432846069,SPEAK
64, 7920, 8996, 9542, 9556, 8837, 9519, 8163, 8123, 8703, 8286, 9305, 10261, 8664, 8014,7.0558013916015625,SPEAK
65, 8250, 7527, 6774, 6847, 7880, 6902, 8282, 8333, 7567, 8051, 6809, 6627, 7847, 8351,7.064117431640625,SPEAK
66, 8241, 8140, 8446, 8345, 8142, 8301, 8001, 7988, 8310, 8220, 8305, 8229, 8264, 8370,7.071632146835327,SPEAK
67, 7846, 8578, 8727, 8732, 8621, 8756, 8091, 7859, 8396, 8277, 8440, 8724, 8446, 7712,7.079536437988281,SPEAK
68, 8329, 8457, 8392, 8273, 8211, 7972, 8427, 8343, 8135, 8241, 7699, 7716, 8385, 8397,7.08739161491394,SPEAK
69, 8038, 8059, 8284, 8173, 8391, 7956, 7948, 8019, 8314, 8283, 8429, 8517, 8005, 8202,7.095254421234131,SPEAK
70, 7972, 7814, 7673, 7742, 8192, 7958, 7993, 8088, 8055, 8087, 7943, 7902, 7877, 7915,7.1031129360198975,SPEAK
71, 8219, 8503, 8382, 8470, 7934, 8658, 8271, 8435, 8174, 8055, 8422, 8452, 8419, 8353,7.110906600952148,SPEAK
72, 7853, 8187, 8126, 8170, 8458, 8165, 7975, 8193, 8112, 8157, 8309, 8397, 8076, 8127,7.1188013553619385,SPEAK
73, 8059, 7815, 7625, 7602, 8466, 7577, 8204, 8286, 7835, 8082, 7286, 7070, 7829, 8112,7.126574277877808,SPEAK
74, 8142, 8793, 9191, 9096, 8261, 9069, 8284, 8103, 8413, 8162, 8920, 8969, 8443, 8266,7.134284496307373,SPEAK
75, 7953, 8372, 8212, 8368, 8134, 8574, 8272, 8269, 8708, 8322, 9284, 9924, 8368, 8008,7.143660068511963,SPEAK
76, 8021, 5746, 4765, 4743, 8309, 4630, 8082, 8317, 7093, 7970, 5696, 5415, 6703, 7867,7.151486158370972,SPEAK
77, 8383, 8310, 9082, 8458, 7112, 7528, 8633, 8011, 7830, 8081, 7601, 7195, 8034, 9345,7.159247398376465,SPEAK
78, 8597, 10067, 10597, 10474, 7062, 10352, 9015, 8445, 9056, 8350, 9982, 10552, 9370, 9693,7.166938781738281,SPEAK
79, 8364, 7278, 6759, 6930, 8761, 7153, 7762, 8454, 7789, 8076, 7550, 7572, 7739, 9306,7.173335313796997,SPEAK
80, 8303, 8098, 8361, 8175, 8319, 7817, 7967, 8324, 8068, 8135, 8029, 7912, 8202, 10084,7.182156324386597,SPEAK
81, 8330, 8710, 8749, 8715, 8780, 8858, 8543, 8300, 8402, 8195, 8688, 8959, 8608, 9570,7.190068960189819,SPEAK
82, 8218, 7909, 7931, 7862, 8907, 7953, 7975, 8060, 8035, 8132, 8160, 8192, 8038, 9381,7.197883367538452,SPEAK
83, 8374, 8289, 8346, 8236, 7610, 8095, 8229, 8326, 8235, 8177, 8246, 8292, 8387, 9980,7.205866098403931,SPEAK
84, 8263, 8144, 8116, 8118, 8832, 8265, 8166, 8169, 8127, 8162, 8277, 8417, 8244, 9451,7.213857889175415,SPEAK
85, 8238, 8119, 8198, 8124, 9171, 8177, 8073, 8129, 8140, 8161, 8254, 8207, 8194, 9379,7.221346378326416,SPEAK
86, 8426, 8410, 8573, 8354, 6825, 8118, 8439, 8414, 8269, 8194, 8254, 8056, 8464, 10080,7.23072075843811,SPEAK
87, 8144, 7998, 7962, 8021, 7890, 8201, 7958, 8145, 8097, 8159, 8343, 8328, 8118, 9092,7.238621950149536,SPEAK
88, 8380, 8051, 7933, 7975, 9726, 8193, 8133, 8281, 8135, 8142, 8091, 8221, 8221, 9037,7.2449541091918945,SPEAK
89, 8471, 8992, 9383, 8978, 6902, 8469, 9020, 8295, 8403, 8268, 8479, 8535, 8712, 10106,7.252712249755859,SPEAK
90, 8120, 8476, 8667, 8573, 6542, 8438, 8624, 8199, 8249, 8217, 8482, 8462, 8330, 9214,7.26040244102478,SPEAK
91, 8266, 8344, 8250, 8354, 8411, 8564, 8124, 8358, 8320, 8188, 8526, 8611, 8513, 8907,7.268290996551514,SPEAK
92, 8467, 7947, 7729, 7550, 7548, 7450, 8499, 8304, 7941, 8169, 7748, 7580, 8127, 8880,7.27627158164978,SPEAK
93, 8641, 8252, 9264, 8919, 7088, 8446, 8307, 8194, 8258, 8174, 8533, 8705, 8047, 8501,7.284260034561157,SPEAK
94, 7716, 9305, 10718, 10700, 8878, 10467, 7458, 7797, 8863, 8225, 10319, 11408, 8771, 7884,7.293565034866333,SPEAK
95, 7522, 7328, 6672, 6902, 9195, 7190, 7672, 7856, 7456, 7973, 7122, 7236, 7646, 7609,7.301630020141602,SPEAK
96, 8574, 7666, 7459, 7332, 7659, 7254, 8414, 8311, 7915, 8203, 7171, 6733, 7936, 8652,7.307886362075806,SPEAK
97, 8001, 8868, 9373, 9343, 8569, 9340, 8024, 8011, 8734, 8324, 9474, 9811, 8650, 8048,7.315880060195923,SPEAK
98, 7919, 8083, 7770, 7772, 8886, 7680, 8214, 8201, 7669, 7954, 7485, 7451, 8080, 7776,7.323625564575195,SPEAK
99, 8547, 8562, 8648, 8472, 7651, 8076, 8593, 8353, 8205, 8232, 8139, 7915, 8383, 8458,7.33158016204834,SPEAK
100, 8015, 8266, 8213, 8342, 8141, 8489, 8030, 8021, 8623, 8348, 9037, 9405, 8293, 8011,7.339419364929199,SPEAK
101, 7938, 7211, 6647, 6701, 8308, 6680, 7981, 8172, 7270, 7894, 6150, 5870, 7635, 7903,7.347395420074463,SPEAK
102, 8454, 9113, 9969, 9556, 7256, 8934, 8403, 8112, 7854, 8157, 7381, 6743, 8601, 8664,7.3553221225738525,SPEAK
103, 8371, 10230, 10982, 10970, 7638, 11056, 8502, 8246, 9375, 8576, 10407, 10860, 9626, 8959,7.363910913467407,SPEAK
104, 8276, 7760, 7234, 7310, 8071, 7515, 8438, 8424, 8118, 8161, 8145, 8440, 8110, 8873,7.3712921142578125,SPEAK
105, 8721, 8100, 8398, 8053, 6941, 7656, 8584, 8308, 7809, 8073, 7696, 7500, 7950, 9300,7.379012823104858,SPEAK
106, 8523, 8683, 8873, 8885, 7830, 9023, 8341, 8355, 8552, 8266, 8909, 9152, 8656, 9034,7.386884689331055,SPEAK
107, 7933, 7844, 7775, 7705, 8683, 7713, 8200, 8121, 8062, 8158, 8171, 8261, 8077, 8574,7.394690275192261,SPEAK
108, 8304, 8782, 9123, 8810, 7161, 8442, 8856, 8346, 8298, 8233, 8444, 8461, 8472, 8920,7.402381658554077,SPEAK
109, 8297, 7700, 7462, 7610, 9263, 7856, 7704, 8311, 8100, 8138, 8143, 8333, 8085, 8861,7.410181760787964,SPEAK
110, 7723, 7310, 7203, 7318, 11329, 7374, 7079, 8001, 7922, 8083, 7946, 8060, 7838, 9147,7.419433116912842,SPEAK
111, 8330, 8658, 8800, 8622, 8776, 8472, 8684, 8455, 8320, 8216, 8341, 8282, 8538, 9711,7.427174091339111,SPEAK
112, 8441, 8216, 8238, 8191, 8118, 8283, 8253, 8107, 8155, 8171, 8352, 8344, 8215, 9539,7.434908390045166,SPEAK
113, 8123, 7965, 7929, 7931, 8469, 7841, 7825, 8004, 8131, 8154, 8163, 8250, 8176, 9724,7.4413511753082275,SPEAK
114, 8409, 8337, 8378, 8302, 8408, 8275, 8406, 8423, 8221, 8187, 8241, 8366, 8397, 9736,7.450634479522705,SPEAK
115, 8191, 8118, 8203, 8160, 9315, 8314, 8080, 8135, 8127, 8169, 8364, 8391, 8168, 9270,7.458447456359863,SPEAK
116, 8358, 8240, 8279, 8158, 7832, 7988, 8260, 8333, 8222, 8183, 8176, 8066, 8348, 9791,7.466202974319458,SPEAK
117, 8260, 8177, 8226, 8175, 7828, 8158, 8095, 8251, 8172, 8177, 8330, 8288, 8253, 9546,7.4742186069488525,SPEAK
118, 8230, 8004, 7924, 7986, 9772, 8284, 8097, 8235, 8087, 8141, 8204, 8336, 8121, 9086,7.482110023498535,SPEAK
119, 8451, 8453, 8603, 8420, 8469, 8136, 8497, 8305, 8286, 8205, 8258, 8350, 8488, 9742,7.490079164505005,SPEAK
120, 8028, 8128, 8169, 8136, 7442, 8000, 7878, 7972, 8162, 8184, 8368, 8375, 8211, 9246,7.497835874557495,SPEAK
121, 8207, 7905, 7683, 7822, 8821, 8081, 7962, 8249, 8077, 8123, 8057, 8078, 8129, 9002,7.504286050796509,SPEAK
122, 8328, 8881, 9198, 8955, 7582, 8645, 8950, 8317, 8372, 8250, 8604, 8664, 8614, 9284,7.513740539550781,SPEAK
123, 7943, 8362, 8431, 8347, 7106, 8310, 8520, 8059, 8227, 8211, 8431, 8513, 8323, 8668,7.520131826400757,SPEAK
124, 8216, 7963, 7876, 7886, 8279, 7992, 8109, 8251, 8122, 8147, 8125, 8272, 8234, 8826,7.529293775558472,SPEAK
125, 8600, 8511, 8670, 8563, 7497, 8446, 8557, 8426, 8248, 8220, 8555, 8665, 8380, 9053,7.537294149398804,SPEAK
126, 8551, 8100, 7991, 8013, 7404, 8086, 8389, 8468, 8173, 8173, 8178, 8142, 8242, 8922,7.545199871063232,SPEAK
127, 8085, 8202, 8363, 8230, 8346, 8166, 8233, 8084, 8180, 8178, 8335, 8389, 8306, 8764,7.553017616271973,SPEAK
238, 8044, 8282, 8380, 8301, 8166, 8290, 8422, 8023, 8180, 8194, 8404, 8551, 8263, 8623,7.5610668659210205,SPEAK
0, 8364, 8057, 7971, 7980, 7955, 7981, 8347, 8373, 8176, 8163, 8143, 8207, 8252, 8825,7.567462921142578,SPEAK
1, 8250, 8350, 8530, 8416, 8072, 8311, 8313, 8232, 8208, 8193, 8498, 8547, 8295, 8760,7.5752880573272705,SPEAK
2, 8297, 8227, 8247, 8173, 7916, 8181, 8486, 8261, 8183, 8185, 8253, 8381, 8290, 8783,7.583424806594849,SPEAK
3, 8263, 7818, 7841, 7807, 8306, 7829, 8000, 8191, 8101, 8147, 8152, 8299, 8129, 8744,7.591344356536865,SPEAK
4, 8230, 8427, 8614, 8484, 7939, 8366, 8395, 8206, 8219, 8203, 8469, 8453, 8324, 8801,7.599317312240601,SPEAK
5, 8661, 8543, 8540, 8481, 6837, 8451, 8761, 8541, 8280, 8215, 8304, 8174, 8458, 9164,7.607266664505005,SPEAK
6, 8129, 7688, 7617, 7682, 8508, 7731, 7567, 8087, 8064, 8144, 8147, 8118, 8016, 8960,7.615175247192383,SPEAK
7, 8196, 8153, 8165, 8107, 8578, 8011, 8047, 8259, 8165, 8170, 8190, 8359, 8241, 9043,7.624599933624268,SPEAK
8, 8419, 8281, 8275, 8283, 8190, 8380, 8356, 8262, 8188, 8174, 8286, 8434, 8291, 9281,7.630850553512573,SPEAK
9, 7884, 7993, 7984, 8005, 8978, 7979, 7928, 7806, 8131, 8163, 8224, 8222, 8157, 9488,7.63850474357605,SPEAK
10, 8262, 8326, 8354, 8258, 8399, 8143, 8372, 8328, 8230, 8182, 8168, 8232, 8388, 9529,7.646313190460205,SPEAK
11, 8296, 8099, 8148, 8157, 8860, 8311, 8051, 8287, 8126, 8161, 8335, 8424, 8163, 9405,7.655539512634277,SPEAK
12, 8222, 8220, 8200, 8179, 8356, 8046, 8223, 8194, 8191, 8189, 8219, 8183, 8300, 9982,7.663437604904175,SPEAK
13, 8312, 8298, 8246, 8189, 7794, 8084, 8345, 8289, 8195, 8190, 8224, 8157, 8356, 9783,7.671107769012451,SPEAK
14, 8195, 7768, 7751, 7775, 9453, 8101, 7896, 8214, 8017, 8136, 8203, 8265, 7972, 8838,7.678833723068237,SPEAK
15, 8384, 8689, 8916, 8801, 9411, 8650, 8434, 8382, 8406, 8221, 8519, 8705, 8612, 9647,7.686534404754639,SPEAK
16, 8143, 8261, 7989, 7987, 7643, 7717, 8364, 8130, 8089, 8176, 8045, 8023, 8279, 9731,7.694328308105469,SPEAK
17, 8194, 6811, 6772, 6861, 7965, 7154, 7046, 7957, 7777, 8057, 7684, 7528, 7531, 8191,7.702176570892334,SPEAK
18, 8059, 8988, 10112, 10090, 9424, 10389, 7201, 8094, 8890, 8262, 9925, 10721, 9023, 7687,7.709942579269409,SPEAK
19, 7516, 8443, 8181, 8333, 9149, 8486, 8018, 8126, 8029, 8119, 8079, 8620, 8412, 7808,7.717760801315308,SPEAK
20, 8248, 7163, 6605, 6595, 7935, 6515, 8183, 8261, 7493, 8040, 6513, 6138, 7483, 8588,7.725687742233276,SPEAK
21, 8308, 8696, 9234, 9155, 7911, 9122, 8161, 7936, 8643, 8338, 9001, 9188, 8515, 8158,7.733428955078125,SPEAK
22, 8191, 8350, 8198, 8223, 8153, 8250, 8462, 8133, 8164, 8256, 7898, 8099, 8297, 7555,7.741249084472656,SPEAK
23, 8495, 8182, 8181, 7901, 8060, 7731, 8599, 8450, 8138, 8226, 7787, 7652, 8056, 8503,7.750533580780029,SPEAK
24, 7959, 8441, 8672, 8545, 8253, 8778, 8123, 8068, 8415, 8174, 9086, 9216, 8203, 8339,7.75832724571228,SPEAK
25, 7876, 7417, 6960, 7056, 8105, 7214, 8061, 8112, 7652, 7967, 7270, 7288, 7742, 7976,7.766300916671753,SPEAK
26, 8305, 8509, 9026, 8857, 7954, 8569, 8488, 8081, 8303, 8201, 8437, 8234, 8150, 8329,7.772733926773071,SPEAK
27, 8042, 10200, 10913, 11191, 8499, 11685, 8532, 8157, 9724, 8594, 11389, 11807, 9434, 8466,7.780566215515137,SPEAK
28, 7748, 7103, 6024, 6746, 9207, 7607, 7299, 8138, 8206, 8262, 8265, 8486, 8159, 8065,7.788676977157593,SPEAK
29, 7747, 6192, 5813, 5846, 9290, 5692, 6803, 7570, 7143, 7884, 6548, 6266, 7124, 8064,7.796354055404663,SPEAK
30, 8103, 8823, 9199, 9167, 8956, 9129, 8209, 8237, 8720, 8396, 9078, 9245, 8660, 8582,7.804282188415527,SPEAK
31, 8066, 7748, 7342, 7614, 9428, 7876, 7824, 8445, 8360, 8453, 8260, 8243, 8247, 8639,7.812274694442749,SPEAK
32, 8098, 7776, 7811, 7733, 8449, 7353, 7681, 8107, 7807, 8050, 7689, 7619, 7924, 9045,7.820281982421875,SPEAK
33, 8376, 8537, 8604, 8539, 8050, 8452, 8452, 8328, 8269, 8133, 8320, 8417, 8422, 9167,7.828166723251343,SPEAK
34, 8174, 8017, 7990, 8031, 8097, 8035, 7910, 8053, 8140, 8194, 8164, 8171, 8176, 9112,7.835606575012207,SPEAK
35, 8201, 8212, 8209, 8173, 7737, 7927, 8032, 8153, 8203, 8182, 8104, 8143, 8301, 9393,7.843369722366333,SPEAK
36, 8227, 8199, 8169, 8161, 9114, 8268, 8245, 8269, 8177, 8201, 8156, 8215, 8236, 9028,7.851277112960815,SPEAK
37, 8069, 8095, 8152, 8112, 8822, 8117, 8005, 8171, 8144, 8205, 8205, 8272, 8128, 8896,7.8592917919158936,SPEAK
38, 8363, 8208, 8178, 8138, 7654, 8004, 8186, 8325, 8219, 8207, 8067, 8065, 8339, 9368,7.867284297943115,SPEAK
39, 8107, 8113, 8103, 8139, 9516, 8310, 8050, 8132, 8081, 8108, 8217, 8291, 8178, 8854,7.8752992153167725,SPEAK
40, 8223, 8182, 8165, 8139, 9176, 8139, 8221, 8341, 8168, 8156, 8108, 8163, 8258, 8759,7.883341550827026,SPEAK
41, 8282, 8240, 8330, 8249, 7305, 8065, 8151, 8267, 8233, 8239, 8169, 8198, 8294, 8887,7.891218662261963,SPEAK
42, 8067, 7956, 7845, 7972, 9014, 8318, 7961, 8060, 8110, 8206, 8156, 8255, 8043, 8270,7.899156093597412,SPEAK
43, 8372, 8353, 8263, 8277, 9450, 8286, 8430, 8367, 8249, 8200, 8077, 8148, 8379, 8785,7.906834840774536,SPEAK
44, 8044, 8075, 8104, 8064, 7643, 7877, 8037, 8188, 8158, 8198, 8183, 8212, 8150, 8665,7.914665699005127,SPEAK
45, 8051, 7568, 7455, 7615, 8459, 7986, 7557, 8264, 8080, 8175, 7997, 8028, 7914, 7985,7.922419786453247,SPEAK
46, 8551, 8943, 8920, 8926, 7996, 8857, 8574, 8443, 8310, 8139, 8465, 8638, 8676, 8684,7.930439472198486,SPEAK
47, 8110, 7395, 7263, 7118, 7063, 6892, 8438, 8004, 7852, 8112, 7640, 7470, 7843, 8341,7.939781665802002,SPEAK
48, 7623, 6685, 7404, 7175, 8691, 7298, 7414, 7956, 7953, 8011, 8110, 8190, 7631, 7664,7.946288347244263,SPEAK
49, 7738, 8507, 8821, 8870, 9515, 9126, 7980, 8415, 8289, 8114, 8966, 9676, 8504, 7982,7.955477952957153,SPEAK
50, 8506, 7960, 7222, 7301, 8083, 7121, 8613, 8573, 7740, 8228, 6883, 6889, 7818, 8679,7.961815118789673,SPEAK
51, 8355, 8307, 8644, 8531, 7956, 8247, 8196, 8040, 8189, 8148, 8066, 8069, 8039, 8487,7.969541788101196,SPEAK
52, 7720, 8615, 8855, 8973, 8676, 9246, 8014, 7881, 8469, 8191, 9068, 9468, 8528, 7759,7.9775707721710205,SPEAK
53, 8309, 7858, 7476, 7289, 7952, 6955, 8398, 8318, 7754, 8169, 6917, 6815, 7891, 8297,7.985363721847534,SPEAK
54, 8395, 8870, 9338, 9131, 7640, 8712, 8435, 8063, 8271, 8136, 8602, 8531, 8153, 8453,7.993273735046387,SPEAK
55, 7701, 8554, 8590, 9043, 8771, 10156, 8083, 7936, 9114, 8366, 10362, 10844, 8912, 8098,8.001265048980713,SPEAK
56, 7814, 5800, 5059, 5202, 9049, 6247, 7469, 8161, 8040, 8343, 7498, 7595, 7764, 8202,8.01062536239624,SPEAK
57, 8116, 6979, 7331, 6844, 8512, 6594, 7729, 8125, 7525, 8006, 7069, 6960, 7376, 8365,8.018362760543823,SPEAK
58, 8418, 9319, 9512, 9613, 8328, 9629, 8641, 8503, 8489, 8082, 9016, 9358, 8759, 8702,8.024496793746948,SPEAK
59, 8050, 7504, 7117, 7310, 8832, 7528, 7762, 8054, 8157, 8231, 8163, 8175, 8172, 8335,8.032215118408203,SPEAK
60, 8028, 7890, 8141, 7871, 7902, 7599, 7914, 7883, 7943, 8112, 7967, 7943, 7984, 8375,8.041528463363647,SPEAK
61, 8369, 8448, 8338, 8441, 8701, 8610, 8363, 8381, 8206, 8141, 8336, 8564, 8330, 8814,8.049588203430176,SPEAK
62, 8092, 7721, 7625, 7710, 10120, 7739, 7661, 8206, 8053, 8172, 8137, 8168, 8015, 9112,8.057538032531738,SPEAK
63, 8373, 8508, 8605, 8463, 8364, 8188, 8361, 8391, 8197, 8156, 8310, 8369, 8443, 9532,8.065455675125122,SPEAK
64, 8319, 8156, 8075, 8086, 8411, 8335, 8293, 8131, 8057, 8095, 8226, 8348, 8166, 9252,8.07326626777649,SPEAK
65, 8086, 7720, 7797, 7763, 9603, 7763, 7738, 7937, 8070, 8104, 8149, 8030, 7968, 9033,8.080941915512085,SPEAK
66, 8458, 9087, 9197, 9120, 7207, 8800, 8668, 8441, 8415, 8186, 8634, 8650, 8759, 9454,8.088855504989624,SPEAK
67, 8133, 7504, 7057, 7167, 6657, 7422, 8051, 8247, 7942, 8257, 7685, 7720, 7856, 8767,8.096790552139282,SPEAK
68, 7984, 6218, 6631, 6410, 8965, 6477, 6800, 8017, 7917, 8172, 7463, 7396, 7208, 7943,8.104779958724976,SPEAK
69, 8206, 8878, 9790, 9498, 8769, 9201, 7976, 8307, 8404, 8027, 9054, 9544, 8552, 7899,8.112653970718384,SPEAK
70, 8781, 8956, 8324, 8497, 7054, 8504, 9287, 8761, 7772, 8060, 7535, 7751, 8522, 8442,8.120539426803589,SPEAK
71, 8994, 8533, 8582, 8566, 7392, 8622, 8700, 8563, 8240, 8247, 8019, 8247, 8390, 9133,8.12820553779602,SPEAK
72, 7970, 8467, 9017, 8882, 8638, 8854, 7881, 7868, 8583, 8328, 8908, 9237, 8422, 8250,8.136070251464844,SPEAK
73, 8436, 8005, 7662, 7673, 8075, 7600, 8597, 8430, 7868, 8119, 7472, 7303, 8230, 8216,8.14386773109436,SPEAK
74, 8626, 8300, 8232, 8222, 7835, 8286, 8623, 8520, 8149, 8094, 8396, 8493, 8191, 8465,8.151771068572998,SPEAK
75, 7782, 7759, 7584, 7678, 8651, 7963, 7850, 8005, 8221, 8273, 8154, 8217, 7760, 7802,8.159736156463623,SPEAK
76, 8150, 8300, 8223, 8276, 8397, 8406, 8322, 8315, 8154, 8204, 7940, 7935, 8237, 8291,8.166146278381348,SPEAK
77, 8032, 8207, 8361, 8335, 8413, 8399, 8301, 8070, 8003, 8047, 8337, 8358, 8146, 8054,8.175586700439453,SPEAK
78, 8006, 8006, 7927, 7999, 8149, 8109, 8278, 8138, 8062, 8083, 8031, 7969, 8034, 7958,8.18362045288086,SPEAK
79, 8161, 8414, 8278, 8445, 7979, 8542, 8244, 8347, 8333, 8244, 8275, 8434, 8252, 8275,8.191476583480835,SPEAK
80, 7941, 8172, 8060, 8148, 8497, 8133, 7928, 8124, 8079, 8226, 7949, 7962, 7956, 8097,8.199402332305908,SPEAK
81, 8213, 8349, 8310, 8290, 8294, 8208, 8330, 8306, 8075, 8159, 7864, 7786, 8176, 8218,8.207082748413086,SPEAK
82, 8075, 8394, 8596, 8591, 8123, 8755, 8350, 8085, 8193, 8170, 8667, 8825, 8279, 8033,8.215137004852295,SPEAK
83, 7790, 7689, 7556, 7600, 8293, 7760, 8090, 8039, 7935, 8127, 7938, 7898, 7884, 7848,8.222978591918945,SPEAK
84, 8343, 8297, 8066, 8062, 7581, 7682, 8304, 8206, 7681, 7988, 7209, 6800, 7893, 8256,8.229305267333984,SPEAK
85, 8320, 9608, 10005, 10317, 7708, 10877, 8418, 8108, 8927, 8293, 10115, 10740, 8962, 8483,8.237231731414795,SPEAK
86, 7393, 6988, 6856, 7057, 9545, 8285, 7996, 8204, 8849, 8548, 9178, 9829, 8412, 8162,8.246448516845703,SPEAK
87, 7947, 6212, 6449, 5798, 8536, 5452, 8171, 8202, 7343, 8014, 6583, 6155, 7304, 8388,8.254154443740845,SPEAK
88, 8773, 8617, 9280, 8897, 7430, 8612, 8255, 8370, 8055, 7921, 8576, 8733, 8294, 8835,8.261994361877441,SPEAK
89, 8067, 7732, 7654, 7667, 8817, 8222, 7979, 8299, 8300, 8200, 8575, 8889, 8267, 8348,8.269699335098267,SPEAK
90, 7886, 7870, 8234, 7818, 8186, 7547, 8615, 8151, 7868, 8084, 8003, 7853, 8002, 8248,8.277777433395386,SPEAK
91, 8346, 8307, 8589, 8285, 7882, 8174, 8496, 8485, 8147, 8101, 8370, 8607, 8351, 8485,8.285760879516602,SPEAK
92, 8082, 7212, 7267, 7124, 9235, 7383, 7515, 8273, 8006, 8139, 8159, 8353, 7923, 8539,8.293617248535156,SPEAK
93, 8455, 9052, 9427, 9168, 6606, 8676, 8991, 8371, 8272, 8112, 8757, 8586, 8547, 9153,8.301342725753784,SPEAK
94, 8956, 9200, 9101, 9172, 5544, 9029, 9306, 8654, 8317, 8179, 8447, 8246, 8641, 9421,8.309293270111084,SPEAK
95, 8071, 7396, 7304, 7368, 9218, 7604, 7381, 8271, 8036, 8180, 8022, 8070, 7904, 9034,8.31707763671875,SPEAK
96, 8309, 8288, 8435, 8247, 8674, 8026, 8204, 8407, 8251, 8139, 8296, 8461, 8396, 9412,8.32579755783081,SPEAK
97, 8347, 8436, 8405, 8432, 8177, 8503, 8504, 8121, 8188, 8121, 8392, 8420, 8335, 9120,8.33370041847229,SPEAK
98, 7874, 7890, 7861, 7858, 9750, 7999, 7886, 8001, 8103, 8186, 8124, 8167, 8052, 8735,8.34027886390686,SPEAK
99, 8442, 8490, 8622, 8442, 7632, 8129, 8468, 8387, 8283, 8253, 8184, 8398, 8413, 9244,8.349695205688477,SPEAK
100, 8302, 7945, 7865, 7964, 7099, 8134, 7936, 8148, 8124, 8219, 8231, 8342, 8075, 8756,8.356085300445557,SPEAK
101, 8204, 7863, 7755, 7796, 9025, 8215, 8067, 8284, 8109, 8162, 8029, 7972, 8104, 8573,8.363750696182251,SPEAK
102, 8337, 8879, 9150, 8909, 7654, 8553, 8759, 8206, 8258, 8137, 8455, 8442, 8517, 8731,8.371588706970215,SPEAK
103, 7922, 7480, 7287, 7389, 7330, 7449, 7750, 8052, 8068, 8211, 7988, 8082, 7924, 8207,8.379413843154907,SPEAK
104, 7827, 7188, 7085, 7071, 9380, 7374, 7649, 8377, 8039, 8198, 7876, 7992, 7874, 8398,8.38728642463684,SPEAK
105, 8237, 8812, 9269, 8899, 8156, 8620, 8964, 8477, 8247, 8175, 8678, 8915, 8414, 8595,8.396762132644653,SPEAK
