COUNTER,F3, FC5,AF3,F7,T7,P7,O1,O2,P8,T8,F8,AF4,FC6,F4,Timestamp
125, 8223, 8203, 8158, 8221, 8195, 8186, 8150, 8148, 8191, 8152, 8150, 8119, 8167, 8288,0.006852149963378906
126, 8227, 8195, 8180, 8212, 8218, 8181, 8208, 8185, 8189, 8152, 8149, 8128, 8152, 8293,0.01490020751953125
127, 8225, 8188, 8164, 8197, 8175, 8172, 8143, 8189, 8204, 8167, 8164, 8135, 8182, 8316,0.02282571792602539
238, 8216, 8175, 8162, 8190, 8192, 8169, 8172, 8196, 8203, 8155, 8181, 8137, 8196, 8324,0.031003952026367188
0, 8200, 8175, 8165, 8193, 8205, 8175, 8185, 8205, 8208, 8157, 8174, 8138, 8185, 8320,0.03789854049682617
1, 8187, 8185, 8155, 8197, 8190, 8175, 8166, 8206, 8215, 8178, 8158, 8134, 8189, 8318,0.045790672302246094
2, 8194, 8173, 8181, 8192, 8203, 8167, 8191, 8202, 8195, 8162, 8154, 8135, 8184, 8313,0.05390310287475586
3, 8174, 8160, 8152, 8185, 8177, 8161, 8128, 8177, 8179, 8145, 8148, 8119, 8163, 8304,0.061807870864868164
4, 8168, 8179, 8150, 8196, 8196, 8169, 8183, 8185, 8179, 8155, 8146, 8114, 8161, 8292,0.06984210014343262
5, 8192, 8188, 8173, 8220, 8180, 8172, 8176, 8185, 8179, 8159, 8154, 8135, 8192, 8297,0.07790374755859375
6, 8196, 8187, 8157, 8225, 8165, 8165, 8129, 8162, 8179, 8160, 8157, 8141, 8213, 8301,0.08483338356018066
7, 8194, 8198, 8182, 8209, 8218, 8172, 8211, 8175, 8182, 8178, 8168, 8128, 8203, 8278,0.09370708465576172
8, 8182, 8201, 8167, 8216, 8174, 8178, 8128, 8170, 8198, 8195, 8176, 8121, 8211, 8268,0.10190987586975098
9, 8213, 8214, 8184, 8249, 8190, 8182, 8167, 8173, 8205, 8199, 8182, 8153, 8226, 8297,0.10888791084289551
10, 8275, 8233, 8252, 8264, 8251, 8193, 8277, 8193, 8207, 8203, 8189, 8188, 8228, 8326,0.11693620681762695
11, 8263, 8226, 8217, 8261, 8199, 8198, 8167, 8184, 8229, 8213, 8184, 8175, 8241, 8340,0.12483429908752441
12, 8224, 8210, 8165, 8253, 8156, 8191, 8101, 8173, 8239, 8222, 8169, 8157, 8251, 8344,0.13287878036499023
13, 8211, 8200, 8136, 8229, 8146, 8174, 8107, 8166, 8224, 8228, 8156, 8145, 8244, 8336,0.14091205596923828
14, 8217, 8189, 8159, 8204, 8192, 8167, 8208, 8177, 8199, 8208, 8153, 8133, 8218, 8307,0.14892292022705078
15, 8209, 8176, 8182, 8209, 8183, 8170, 8196, 8181, 8183, 8182, 8158, 8127, 8201, 8286,0.15694665908813477
16, 8177, 8171, 8146, 8227, 8141, 8166, 8109, 8168, 8183, 8187, 8161, 8119, 8206, 8288,0.16496849060058594
17, 8189, 8184, 8165, 8223, 8183, 8168, 8173, 8179, 8182, 8194, 8157, 8129, 8200, 8293,0.17173409461975098
18, 8213, 8194, 8169, 8221, 8165, 8164, 8133, 8175, 8184, 8186, 8152, 8139, 8196, 8308,0.17994308471679688
19, 8219, 8193, 8170, 8240, 8166, 8157, 8151, 8186, 8187, 8177, 8153, 8143, 8207, 8319,0.18795204162597656
20, 8203, 8185, 8177, 8244, 8173, 8160, 8181, 8196, 8185, 8177, 8152, 8142, 8207, 8299,0.19571447372436523
21, 8168, 8184, 8140, 8225, 8151, 8166, 8132, 8170, 8180, 8174, 8147, 8125, 8189, 8267,0.20395684242248535
22, 8196, 8200, 8196, 8233, 8216, 8181, 8231, 8182, 8167, 8160, 8155, 8141, 8169, 8258,0.21193313598632812
23, 8212, 8203, 8209, 8257, 8185, 8184, 8166, 8179, 8165, 8169, 8163, 8152, 8178, 8273,0.21971535682678223
24, 8188, 8201, 8154, 8255, 8144, 8178, 8103, 8161, 8178, 8189, 8167, 8133, 8204, 8290,0.22796201705932617
25, 8205, 8219, 8182, 8249, 8194, 8194, 8199, 8179, 8194, 8203, 8178, 8147, 8225, 8305,0.23496603965759277
26, 8209, 8221, 8179, 8262, 8178, 8212, 8160, 8190, 8212, 8222, 8182, 8157, 8237, 8310,0.24296784400939941
27, 8183, 8200, 8158, 8255, 8175, 8218, 8151, 8210, 8230, 8222, 8173, 8144, 8231, 8303,0.2508978843688965
28, 8158, 8180, 8151, 8230, 8176, 8218, 8161, 8223, 8244, 8221, 8160, 8133, 8226, 8296,0.2589607238769531
29, 8136, 8170, 8141, 8219, 8180, 8221, 8177, 8216, 8239, 8231, 8151, 8129, 8215, 8271,0.2669541835784912
30, 8129, 8160, 8144, 8214, 8186, 8216, 8176, 8202, 8220, 8215, 8150, 8128, 8201, 8250,0.2748081684112549
31, 8121, 8158, 8124, 8212, 8160, 8192, 8116, 8178, 8209, 8198, 8150, 8126, 8207, 8270,0.28278613090515137
32, 8144, 8170, 8164, 8209, 8202, 8184, 8217, 8186, 8198, 8205, 8148, 8137, 8202, 8280,0.2909660339355469
33, 8165, 8171, 8174, 8210, 8186, 8190, 8189, 8179, 8188, 8204, 8144, 8139, 8188, 8267,0.2977423667907715
34, 8158, 8179, 8140, 8224, 8168, 8194, 8136, 8171, 8191, 8175, 8150, 8135, 8186, 8269,0.30573391914367676
35, 8162, 8190, 8187, 8226, 8216, 8200, 8239, 8191, 8189, 8158, 8154, 8140, 8179, 8266,0.3136897087097168
36, 8159, 8173, 8179, 8212, 8180, 8215, 8169, 8181, 8196, 8186, 8151, 8131, 8184, 8261,0.32177209854125977
37, 8182, 8178, 8168, 8220, 8190, 8235, 8153, 8189, 8216, 8206, 8162, 8146, 8211, 8287,0.32978105545043945
38, 8218, 8203, 8199, 8250, 8199, 8233, 8164, 8199, 8226, 8217, 8180, 8177, 8236, 8330,0.3377988338470459
39, 8210, 8203, 8181, 8253, 8168, 8221, 8132, 8173, 8217, 8229, 8182, 8169, 8241, 8337,0.34575915336608887
40, 8201, 8188, 8182, 8227, 8195, 8218, 8195, 8155, 8195, 8205, 8167, 8158, 8219, 8310,0.3537881374359131
41, 8184, 8184, 8172, 8224, 8185, 8203, 8152, 8142, 8185, 8183, 8151, 8155, 8197, 8294,0.36177849769592285
42, 8172, 8185, 8171, 8241, 8196, 8197, 8148, 8151, 8182, 8190, 8157, 8148, 8195, 8293,0.3688044548034668
43, 8170, 8178, 8155, 8234, 8180, 8203, 8120, 8159, 8175, 8195, 8166, 8136, 8204, 8285,0.37685155868530273
44, 8159, 8169, 8132, 8210, 8171, 8193, 8117, 8168, 8176, 8196, 8164, 8134, 8199, 8280,0.38480162620544434
45, 8181, 8173, 8207, 8207, 8247, 8189, 8253, 8216, 8190, 8203, 8169, 8162, 8192, 8292,0.3927743434906006
46, 8181, 8162, 8187, 8202, 8175, 8190, 8155, 8214, 8200, 8198, 8170, 8157, 8192, 8303,0.4009099006652832
47, 8168, 8143, 8135, 8179, 8095, 8182, 8128, 8186, 8174, 8170, 8161, 8135, 8173, 8291,0.40878820419311523
48, 8208, 8156, 8208, 8192, 8115, 8175, 8239, 8200, 8152, 8170, 8163, 8158, 8166, 8299,0.4170365333557129
49, 8231, 8182, 8220, 8232, 8121, 8170, 8166, 8210, 8170, 8206, 8167, 8170, 8196, 8337,0.42495226860046387
50, 8227, 8187, 8187, 8235, 8175, 8170, 8142, 8206, 8177, 8219, 8157, 8164, 8206, 8346,0.43203067779541016
51, 8218, 8172, 8169, 8213, 8191, 8187, 8141, 8190, 8175, 8208, 8150, 8159, 8200, 8332,0.4399139881134033
52, 8230, 8177, 8188, 8215, 8190, 8197, 8183, 8194, 8177, 8206, 8163, 8157, 8201, 8328,0.44776248931884766
53, 8241, 8196, 8198, 8234, 8171, 8175, 8159, 8178, 8165, 8208, 8168, 8157, 8203, 8333,0.45565295219421387
54, 8205, 8192, 8155, 8229, 8166, 8168, 8110, 8141, 8150, 8199, 8156, 8152, 8209, 8323,0.46390342712402344
55, 8209, 8186, 8200, 8216, 8233, 8184, 8238, 8172, 8142, 8187, 8151, 8156, 8192, 8298,0.4727351665496826
56, 8225, 8196, 8197, 8239, 8166, 8170, 8138, 8174, 8147, 8202, 8156, 8154, 8184, 8304,0.47986888885498047
57, 8215, 8202, 8149, 8259, 8145, 8165, 8094, 8146, 8148, 8205, 8151, 8151, 8187, 8319,0.4879157543182373
58, 8201, 8188, 8178, 8227, 8206, 8181, 8231, 8159, 8134, 8177, 8144, 8154, 8167, 8303,0.4960002899169922
59, 8163, 8168, 8153, 8203, 8149, 8171, 8150, 8156, 8129, 8172, 8152, 8141, 8170, 8292,0.5026819705963135
60, 8156, 8159, 8152, 8205, 8158, 8173, 8156, 8157, 8131, 8193, 8170, 8144, 8189, 8293,0.510875940322876
61, 8176, 8155, 8183, 8199, 8203, 8192, 8214, 8176, 8144, 8214, 8183, 8159, 8198, 8294,0.5187745094299316
62, 8169, 8172, 8158, 8205, 8177, 8179, 8166, 8189, 8169, 8211, 8185, 8159, 8202, 8298,0.5268540382385254
63, 8155, 8184, 8139, 8224, 8155, 8159, 8118, 8195, 8176, 8196, 8184, 8146, 8202, 8289,0.5348155498504639
64, 8160, 8170, 8145, 8220, 8169, 8162, 8118, 8197, 8175, 8205, 8175, 8131, 8199, 8279,0.5428075790405273
65, 8196, 8178, 8193, 8213, 8213, 8177, 8208, 8219, 8183, 8210, 8173, 8152, 8202, 8297,0.5508735179901123
66, 8205, 8196, 8195, 8222, 8180, 8188, 8164, 8201, 8182, 8202, 8181, 8170, 8215, 8316,0.5587835311889648
67, 8180, 8182, 8175, 8228, 8175, 8190, 8153, 8167, 8161, 8189, 8173, 8149, 8207, 8289,0.5656955242156982
68, 8181, 8175, 8210, 8226, 8196, 8181, 8210, 8165, 8127, 8170, 8167, 8145, 8183, 8258,0.5737249851226807
69, 8175, 8187, 8170, 8225, 8115, 8164, 8094, 8145, 8109, 8168, 8168, 8154, 8191, 8275,0.5818092823028564
70, 8195, 8203, 8178, 8241, 8170, 8176, 8193, 8166, 8112, 8173, 8168, 8167, 8209, 8305,0.589707612991333
71, 8217, 8201, 8226, 8248, 8226, 8200, 8267, 8199, 8129, 8180, 8169, 8171, 8215, 8307,0.5977771282196045
72, 8172, 8178, 8161, 8232, 8141, 8198, 8105, 8176, 8145, 8201, 8176, 8149, 8215, 8291,0.6057031154632568
73, 8155, 8163, 8138, 8213, 8142, 8186, 8122, 8164, 8140, 8210, 8171, 8142, 8208, 8274,0.6138162612915039
74, 8159, 8150, 8154, 8197, 8176, 8176, 8177, 8163, 8128, 8194, 8156, 8140, 8194, 8262,0.621957540512085
75, 8151, 8148, 8160, 8185, 8191, 8176, 8181, 8165, 8119, 8182, 8162, 8138, 8183, 8270,0.6297292709350586
76, 8168, 8160, 8169, 8189, 8188, 8182, 8157, 8161, 8121, 8196, 8164, 8156, 8194, 8308,0.6367690563201904
77, 8187, 8165, 8162, 8200, 8187, 8187, 8158, 8157, 8138, 8213, 8154, 8166, 8212, 8329,0.6447579860687256
78, 8185, 8159, 8169, 8196, 8188, 8189, 8175, 8173, 8141, 8216, 8160, 8161, 8214, 8306,0.6528325080871582
79, 8168, 8158, 8154, 8203, 8154, 8168, 8104, 8170, 8136, 8209, 8166, 8151, 8216, 8304,0.6608226299285889
80, 8192, 8178, 8197, 8230, 8215, 8160, 8213, 8185, 8144, 8199, 8167, 8168, 8214, 8330,0.6688241958618164
81, 8217, 8196, 8231, 8249, 8205, 8166, 8205, 8186, 8158, 8211, 8177, 8188, 8227, 8332,0.6767444610595703
82, 8201, 8210, 8174, 8265, 8139, 8160, 8065, 8159, 8163, 8235, 8182, 8184, 8258, 8331,0.6847717761993408
83, 8224, 8226, 8219, 8271, 8233, 8172, 8230, 8177, 8147, 8226, 8172, 8197, 8255, 8341,0.6925780773162842
84, 8222, 8219, 8227, 8266, 8221, 8189, 8217, 8171, 8139, 8214, 8159, 8195, 8240, 8338,0.699683427810669
85, 8180, 8212, 8152, 8266, 8161, 8185, 8095, 8147, 8144, 8223, 8147, 8171, 8246, 8320,0.7077295780181885
86, 8186, 8211, 8168, 8266, 8203, 8180, 8156, 8157, 8139, 8229, 8147, 8174, 8246, 8322,0.7157914638519287
87, 8192, 8197, 8178, 8255, 8195, 8171, 8150, 8152, 8131, 8220, 8145, 8172, 8242, 8335,0.7236874103546143
88, 8184, 8198, 8174, 8246, 8201, 8165, 8173, 8158, 8125, 8206, 8139, 8157, 8229, 8314,0.73183274269104
89, 8177, 8198, 8166, 8241, 8201, 8177, 8173, 8168, 8133, 8213, 8137, 8143, 8214, 8278,0.7396492958068848
90, 8159, 8168, 8157, 8220, 8188, 8194, 8166, 8171, 8139, 8218, 8136, 8130, 8209, 8269,0.7477924823760986
91, 8154, 8153, 8154, 8208, 8178, 8193, 8149, 8174, 8144, 8211, 8144, 8136, 8214, 8290,0.755739688873291
92, 8173, 8178, 8142, 8217, 8188, 8195, 8139, 8175, 8154, 8218, 8163, 8151, 8221, 8302,0.7627432346343994
93, 8216, 8191, 8207, 8227, 8241, 8205, 8245, 8195, 8145, 8212, 8178, 8178, 8216, 8302,0.7708151340484619
94, 8213, 8169, 8202, 8221, 8169, 8192, 8142, 8179, 8136, 8198, 8165, 8180, 8220, 8325,0.7788059711456299
95, 8177, 8158, 8140, 8201, 8136, 8179, 8098, 8153, 8133, 8192, 8143, 8156, 8205, 8322,0.7867922782897949
96, 8202, 8185, 8201, 8212, 8222, 8185, 8251, 8168, 8120, 8174, 8150, 8166, 8183, 8294,0.7948286533355713
97, 8228, 8212, 8216, 8263, 8192, 8187, 8169, 8162, 8133, 8183, 8169, 8188, 8222, 8326,0.8028290271759033
98, 8235, 8225, 8190, 8293, 8175, 8185, 8140, 8158, 8145, 8212, 8171, 8199, 8257, 8368,0.8108069896697998
99, 8227, 8219, 8195, 8288, 8192, 8178, 8198, 8159, 8119, 8215, 8157, 8196, 8235, 8340,0.8186149597167969
100, 8198, 8214, 8178, 8279, 8178, 8169, 8160, 8151, 8107, 8207, 8152, 8187, 8220, 8310,0.8256783485412598
101, 8196, 8212, 8178, 8268, 8176, 8169, 8148, 8164, 8124, 8209, 8159, 8188, 8237, 8332,0.833977460861206
102, 8200, 8196, 8161, 8255, 8159, 8172, 8146, 8171, 8128, 8204, 8154, 8175, 8238, 8340,0.8416581153869629
103, 8189, 8184, 8161, 8240, 8196, 8178, 8209, 8175, 8117, 8183, 8140, 8154, 8201, 8291,0.8496649265289307
104, 8154, 8169, 8144, 8219, 8177, 8180, 8139, 8161, 8120, 8173, 8138, 8128, 8159, 8235,0.8579001426696777
105, 8131, 8154, 8119, 8205, 8146, 8178, 8116, 8152, 8128, 8162, 8139, 8117, 8140, 8227,0.8657417297363281
106, 8165, 8157, 8181, 8196, 8194, 8188, 8257, 8181, 8122, 8151, 8146, 8143, 8144, 8242,0.8738024234771729
107, 8163, 8159, 8165, 8192, 8152, 8200, 8154, 8177, 8136, 8179, 8154, 8152, 8170, 8250,0.8817284107208252
108, 8153, 8161, 8147, 8200, 8157, 8202, 8153, 8173, 8143, 8193, 8150, 8152, 8179, 8254,0.8899099826812744
109, 8177, 8169, 8199, 8216, 8186, 8197, 8230, 8177, 8135, 8183, 8143, 8167, 8173, 8269,0.897061824798584
110, 8180, 8177, 8176, 8227, 8149, 8187, 8136, 8154, 8142, 8193, 8153, 8173, 8186, 8291,0.9047353267669678
111, 8197, 8191, 8180, 8233, 8180, 8196, 8165, 8159, 8140, 8204, 8173, 8195, 8209, 8304,0.9129183292388916
112, 8221, 8208, 8208, 8259, 8180, 8207, 8158, 8160, 8133, 8215, 8182, 8222, 8244, 8337,0.9208991527557373
113, 8238, 8218, 8215, 8294, 8168, 8194, 8129, 8162, 8146, 8227, 8187, 8233, 8272, 8388,0.9286949634552002
114, 8255, 8212, 8210, 8287, 8170, 8171, 8144, 8178, 8158, 8221, 8185, 8225, 8271, 8397,0.9368777275085449
115, 8236, 8200, 8169, 8257, 8163, 8159, 8142, 8186, 8154, 8222, 8175, 8201, 8258, 8364,0.9446024894714355
116, 8222, 8202, 8174, 8242, 8181, 8162, 8175, 8189, 8147, 8222, 8169, 8193, 8236, 8344,0.9528553485870361
117, 8205, 8192, 8160, 8228, 8139, 8160, 8121, 8168, 8148, 8208, 8157, 8179, 8212, 8324,0.9599003791809082
118, 8185, 8173, 8145, 8208, 8159, 8176, 8173, 8179, 8138, 8186, 8144, 8155, 8183, 8275,0.9679932594299316
119, 8178, 8164, 8161, 8203, 8193, 8204, 8202, 8202, 8144, 8182, 8144, 8154, 8169, 8259,0.9757757186889648
120, 8158, 8163, 8143, 8205, 8153, 8202, 8118, 8192, 8174, 8203, 8155, 8166, 8193, 8289,0.983881950378418
121, 8167, 8170, 8192, 8213, 8205, 8193, 8224, 8199, 8161, 8191, 8164, 8176, 8189, 8277,0.9917614459991455
122, 8177, 8176, 8197, 8229, 8204, 8198, 8193, 8186, 8136, 8163, 8159, 8162, 8156, 8252,0.9997200965881348
123, 8161, 8179, 8142, 8215, 8171, 8212, 8112, 8168, 8158, 8180, 8157, 8156, 8160, 8277,1.0076854228973389
124, 8174, 8180, 8175, 8208, 8196, 8212, 8175, 8173, 8175, 8204, 8172, 8190, 8193, 8309,1.0167479515075684
125, 8194, 8192, 8190, 8247, 8173, 8192, 8141, 8159, 8163, 8206, 8181, 8213, 8226, 8328,1.0237715244293213
126, 8213, 8214, 8211, 8266, 8196, 8189, 8195, 8168, 8162, 8219, 8181, 8218, 8254, 8349,1.0309028625488281
127, 8216, 8208, 8212, 8250, 8189, 8189, 8190, 8174, 8183, 8250, 8182, 8220, 8277, 8370,1.0386428833007812
238, 8213, 8195, 8171, 8246, 8147, 8174, 8130, 8160, 8185, 8246, 8182, 8215, 8271, 8368,1.0467476844787598
0, 8232, 8191, 8182, 8231, 8156, 8148, 8170, 8169, 8161, 8220, 8186, 8209, 8251, 8346,1.0546884536743164
1, 8208, 8170, 8157, 8194, 8153, 8125, 8154, 8176, 8146, 8216, 8183, 8194, 8248, 8329,1.0627832412719727
2, 8168, 8148, 8145, 8178, 8174, 8143, 8190, 8191, 8149, 8207, 8167, 8186, 8226, 8309,1.0708205699920654
3, 8161, 8155, 8156, 8203, 8127, 8167, 8131, 8195, 8171, 8204, 8168, 8187, 8207, 8297,1.0788564682006836
4, 8178, 8178, 8175, 8212, 8118, 8155, 8136, 8195, 8186, 8220, 8179, 8186, 8213, 8300,1.0867183208465576
5, 8194, 8173, 8224, 8155, 8195, 8166, 8274, 8217, 8180, 8218, 8175, 8190, 8203, 8287,1.0938026905059814
6, 8151, 8141, 8161, 8148, 8135, 8193, 8142, 8188, 8177, 8201, 8164, 8171, 8187, 8265,1.1017627716064453
7, 8133, 8146, 8135, 8225, 8133, 8178, 8129, 8164, 8161, 8182, 8164, 8157, 8169, 8249,1.109788179397583
8, 8165, 8171, 8203, 8236, 8195, 8154, 8246, 8171, 8132, 8167, 8168, 8171, 8153, 8242,1.1177148818969727
9, 8148, 8163, 8194, 8191, 8173, 8159, 8204, 8156, 8121, 8169, 8181, 8180, 8160, 8259,1.125730276107788
10, 8128, 8164, 8172, 8215, 8143, 8163, 8149, 8152, 8137, 8195, 8199, 8189, 8194, 8276,1.1338350772857666
11, 8134, 8186, 8143, 8265, 8108, 8166, 8068, 8152, 8170, 8233, 8195, 8197, 8235, 8287,1.1419878005981445
12, 8170, 8207, 8166, 8275, 8168, 8180, 8141, 8162, 8184, 8247, 8195, 8220, 8259, 8325,1.1496498584747314
13, 8202, 8213, 8198, 8287, 8200, 8164, 8171, 8149, 8166, 8245, 8196, 8231, 8272, 8363,1.1578395366668701
14, 8187, 8204, 8160, 8300, 8161, 8155, 8103, 8129, 8162, 8249, 8176, 8197, 8263, 8342,1.1648046970367432
15, 8201, 8207, 8193, 8306, 8193, 8187, 8209, 8167, 8158, 8237, 8166, 8183, 8227, 8305,1.1729164123535156
16, 8213, 8206, 8186, 8307, 8157, 8173, 8184, 8171, 8140, 8217, 8166, 8178, 8204, 8307,1.1807186603546143
17, 8179, 8171, 8140, 8278, 8145, 8142, 8145, 8156, 8131, 8190, 8147, 8152, 8178, 8286,1.1889276504516602
18, 8148, 8141, 8163, 8249, 8184, 8158, 8192, 8173, 8131, 8166, 8139, 8138, 8141, 8234,1.196784257888794
19, 8136, 8139, 8154, 8246, 8159, 8167, 8157, 8180, 8145, 8184, 8168, 8148, 8149, 8235,1.2047698497772217
20, 8162, 8146, 8152, 8248, 8156, 8155, 8149, 8176, 8149, 8198, 8187, 8172, 8174, 8272,1.21290922164917
21, 8182, 8147, 8163, 8251, 8157, 8155, 8122, 8162, 8136, 8165, 8162, 8171, 8158, 8274,1.2207822799682617
22, 8167, 8151, 8160, 8250, 8183, 8167, 8168, 8168, 8126, 8137, 8149, 8158, 8127, 8252,1.2277696132659912
23, 8159, 8154, 8164, 8243, 8181, 8170, 8182, 8172, 8124, 8157, 8177, 8175, 8143, 8263,1.2359139919281006
24, 8162, 8164, 8159, 8259, 8143, 8163, 8113, 8144, 8118, 8177, 8192, 8191, 8181, 8283,1.2438437938690186
25, 8196, 8196, 8214, 8297, 8189, 8162, 8210, 8148, 8106, 8178, 8194, 8208, 8200, 8285,1.2518458366394043
26, 8213, 8210, 8220, 8310, 8165, 8157, 8170, 8149, 8110, 8204, 8209, 8234, 8246, 8320,1.2598321437835693
27, 8215, 8226, 8198, 8325, 8140, 8145, 8123, 8137, 8115, 8230, 8213, 8252, 8301, 8376,1.2679040431976318
28, 8257, 8258, 8245, 8364, 8185, 8135, 8209, 8143, 8106, 8241, 8197, 8260, 8313, 8387,1.2759199142456055
29, 8254, 8259, 8210, 8372, 8153, 8126, 8147, 8117, 8095, 8240, 8177, 8238, 8299, 8358,1.283860683441162
30, 8229, 8244, 8192, 8353, 8165, 8125, 8178, 8116, 8076, 8209, 8177, 8223, 8285, 8340,1.2908246517181396
31, 8228, 8235, 8209, 8349, 8166, 8130, 8192, 8141, 8068, 8203, 8180, 8218, 8285, 8341,1.2990021705627441
32, 8217, 8231, 8180, 8348, 8139, 8135, 8128, 8153, 8075, 8226, 8172, 8206, 8280, 8333,1.3067524433135986
33, 8220, 8233, 8188, 8340, 8174, 8140, 8162, 8166, 8074, 8222, 8175, 8214, 8260, 8330,1.3150315284729004
34, 8213, 8218, 8180, 8317, 8165, 8145, 8153, 8162, 8065, 8199, 8177, 8211, 8252, 8335,1.3227670192718506
35, 8200, 8195, 8171, 8284, 8156, 8160, 8174, 8169, 8048, 8193, 8168, 8192, 8248, 8324,1.33079195022583
36, 8189, 8185, 8166, 8274, 8163, 8171, 8157, 8172, 8038, 8191, 8157, 8189, 8237, 8314,1.338855266571045
37, 8188, 8191, 8164, 8283, 8203, 8163, 8165, 8177, 8041, 8189, 8162, 8201, 8236, 8322,1.3455941677093506
38, 8215, 8198, 8198, 8278, 8223, 8157, 8198, 8193, 8042, 8201, 8167, 8208, 8235, 8320,1.3542084693908691
39, 8210, 8189, 8175, 8272, 8153, 8161, 8098, 8183, 8050, 8216, 8155, 8193, 8229, 8317,1.3617684841156006
40, 8212, 8188, 8187, 8281, 8196, 8168, 8176, 8201, 8048, 8194, 8159, 8200, 8221, 8321,1.3697476387023926
41, 8226, 8197, 8209, 8277, 8217, 8164, 8203, 8207, 8027, 8175, 8165, 8208, 8214, 8317,1.3776729106903076
42, 8205, 8195, 8164, 8255, 8163, 8146, 8106, 8180, 8017, 8199, 8158, 8191, 8216, 8307,1.385648250579834
43, 8215, 8194, 8198, 8244, 8211, 8134, 8198, 8190, 8003, 8198, 8167, 8205, 8222, 8311,1.3936054706573486
44, 8216, 8197, 8201, 8252, 8207, 8135, 8164, 8170, 7972, 8174, 8177, 8208, 8227, 8322,1.4016997814178467
45, 8187, 8195, 8158, 8254, 8187, 8149, 8110, 8139, 7946, 8175, 8171, 8186, 8220, 8309,1.408848762512207
46, 8183, 8191, 8160, 8239, 8203, 8144, 8143, 8157, 7937, 8195, 8173, 8194, 8227, 8296,1.4167735576629639
47, 8198, 8193, 8158, 8230, 8200, 8129, 8144, 8175, 7935, 8206, 8174, 8205, 8253, 8322,1.4247698783874512
48, 8206, 8186, 8181, 8222, 8238, 8151, 8199, 8181, 7934, 8195, 8154, 8192, 8231, 8333,1.4328687191009521
49, 8183, 8171, 8167, 8212, 8220, 8161, 8149, 8165, 7933, 8188, 8144, 8173, 8198, 8307,1.4408822059631348
50, 8175, 8176, 8167, 8208, 8223, 8145, 8177, 8171, 7927, 8185, 8151, 8187, 8207, 8300,1.4488732814788818
51, 8181, 8170, 8183, 8202, 8225, 8154, 8198, 8179, 7934, 8193, 8152, 8197, 8211, 8314,1.456772804260254
52, 8157, 8152, 8136, 8198, 8190, 8176, 8136, 8173, 7957, 8191, 8136, 8160, 8172, 8296,1.4648466110229492
53, 8175, 8152, 8193, 8181, 8259, 8189, 8292, 8209, 7941, 8153, 8139, 8161, 8130, 8262,1.4728941917419434
54, 8195, 8143, 8238, 8165, 8234, 8193, 8270, 8206, 7930, 8145, 8158, 8191, 8153, 8272,1.4808626174926758
55, 8169, 8137, 8161, 8176, 8154, 8203, 8111, 8167, 7968, 8172, 8156, 8173, 8183, 8288,1.4879302978515625
56, 8159, 8148, 8139, 8184, 8176, 8212, 8146, 8160, 7966, 8171, 8142, 8150, 8159, 8270,1.4956555366516113
57, 8168, 8152, 8163, 8171, 8195, 8202, 8178, 8149, 7910, 8155, 8150, 8170, 8155, 8268,1.5037212371826172
58, 8195, 8148, 8193, 8165, 8212, 8189, 8195, 8141, 7880, 8156, 8172, 8194, 8182, 8294,1.5118567943572998
59, 8195, 8145, 8165, 8175, 8170, 8189, 8122, 8133, 7895, 8172, 8171, 8175, 8181, 8303,1.5199027061462402
60, 8164, 8134, 8124, 8162, 8156, 8198, 8116, 8145, 7905, 8174, 8154, 8150, 8160, 8286,1.528057336807251
61, 8167, 8126, 8146, 8138, 8184, 8203, 8164, 8177, 7919, 8162, 8145, 8171, 8163, 8299,1.5357944965362549
62, 8186, 8139, 8150, 8138, 8175, 8201, 8135, 8184, 7954, 8166, 8147, 8187, 8167, 8332,1.5437393188476562
63, 8198, 8150, 8172, 8150, 8208, 8205, 8204, 8188, 7963, 8176, 8147, 8168, 8143, 8309,1.5509419441223145
64, 8178, 8137, 8152, 8159, 8186, 8209, 8148, 8180, 7968, 8183, 8144, 8152, 8150, 8279,1.5588312149047852
65, 8181, 8134, 8143, 8159, 8197, 8211, 8152, 8183, 7979, 8179, 8158, 8183, 8177, 8314,1.5667545795440674
66, 8232, 8151, 8226, 8151, 8247, 8216, 8274, 8194, 7953, 8159, 8165, 8212, 8161, 8351,1.5749473571777344
67, 8220, 8154, 8193, 8152, 8173, 8214, 8137, 8162, 7925, 8146, 8154, 8176, 8150, 8334,1.5828704833984375
68, 8191, 8159, 8151, 8164, 8188, 8226, 8144, 8161, 7931, 8140, 8159, 8160, 8161, 8301,1.5908176898956299
69, 8197, 8156, 8172, 8159, 8214, 8238, 8211, 8175, 7948, 8151, 8170, 8186, 8165, 8299,1.5989811420440674
70, 8164, 8128, 8137, 8132, 8160, 8221, 8135, 8156, 7950, 8166, 8158, 8167, 8155, 8297,1.6067733764648438
71, 8133, 8123, 8143, 8133, 8185, 8207, 8173, 8166, 7946, 8156, 8149, 8135, 8136, 8262,1.6139733791351318
72, 8149, 8147, 8171, 8159, 8195, 8218, 8175, 8180, 7977, 8168, 8161, 8154, 8152, 8266,1.6218416690826416
73, 8190, 8160, 8179, 8172, 8172, 8230, 8145, 8180, 8015, 8205, 8173, 8197, 8194, 8323,1.629730463027954
74, 8191, 8151, 8147, 8164, 8127, 8212, 8093, 8166, 8007, 8188, 8164, 8181, 8191, 8325,1.637887954711914
75, 8153, 8134, 8121, 8134, 8154, 8198, 8142, 8160, 7976, 8139, 8145, 8129, 8142, 8268,1.6459004878997803
76, 8154, 8126, 8172, 8113, 8222, 8211, 8253, 8174, 7958, 8132, 8152, 8146, 8121, 8250,1.654083013534546
77, 8157, 8132, 8150, 8131, 8147, 8201, 8126, 8151, 7962, 8153, 8169, 8181, 8143, 8277,1.6618273258209229
78, 8162, 8148, 8155, 8143, 8169, 8188, 8180, 8160, 7956, 8137, 8163, 8178, 8138, 8272,1.6697793006896973
79, 8161, 8147, 8214, 8128, 8233, 8191, 8275, 8181, 7936, 8112, 8146, 8162, 8110, 8234,1.6779227256774902
80, 8135, 8140, 8167, 8142, 8165, 8187, 8118, 8150, 7948, 8127, 8148, 8157, 8114, 8232,1.6847074031829834
81, 8168, 8163, 8165, 8183, 8166, 8197, 8121, 8164, 7989, 8147, 8183, 8194, 8156, 8276,1.6929030418395996
82, 8198, 8176, 8197, 8194, 8175, 8216, 8161, 8185, 8019, 8160, 8197, 8216, 8194, 8307,1.7008213996887207
83, 8173, 8164, 8173, 8173, 8155, 8212, 8140, 8177, 8021, 8180, 8174, 8194, 8198, 8297,1.7086961269378662
84, 8171, 8156, 8163, 8158, 8159, 8199, 8155, 8174, 8021, 8201, 8167, 8181, 8195, 8295,1.716827630996704
85, 8181, 8159, 8161, 8165, 8161, 8201, 8167, 8168, 8024, 8197, 8181, 8182, 8199, 8304,1.7249703407287598
86, 8189, 8165, 8183, 8176, 8173, 8207, 8194, 8161, 8004, 8173, 8173, 8184, 8188, 8301,1.7326610088348389
87, 8178, 8158, 8160, 8166, 8123, 8191, 8108, 8146, 7988, 8179, 8157, 8177, 8190, 8311,1.740861415863037
88, 8150, 8146, 8144, 8139, 8138, 8185, 8161, 8161, 7989, 8186, 8159, 8166, 8182, 8305,1.74891996383667
89, 8133, 8137, 8175, 8119, 8182, 8201, 8241, 8173, 7985, 8146, 8154, 8155, 8136, 8265,1.7558176517486572
90, 8106, 8126, 8134, 8109, 8127, 8193, 8132, 8140, 7981, 8126, 8137, 8143, 8115, 8249,1.763683795928955
91, 8113, 8131, 8156, 8101, 8151, 8179, 8210, 8166, 7989, 8147, 8148, 8158, 8128, 8258,1.7717785835266113
92, 8134, 8131, 8202, 8111, 8159, 8184, 8218, 8198, 8019, 8170, 8169, 8173, 8152, 8270,1.7798871994018555
93, 8128, 8129, 8162, 8128, 8123, 8188, 8105, 8174, 8046, 8177, 8171, 8170, 8183, 8286,1.7878286838531494
94, 8143, 8138, 8157, 8132, 8127, 8197, 8133, 8177, 8055, 8185, 8183, 8182, 8194, 8296,1.7957539558410645
95, 8153, 8151, 8155, 8142, 8112, 8220, 8138, 8191, 8059, 8196, 8190, 8190, 8186, 8294,1.8039219379425049
96, 8146, 8157, 8175, 8146, 8160, 8226, 8218, 8195, 8044, 8172, 8175, 8176, 8170, 8275,1.8118696212768555
97, 8130, 8147, 8180, 8131, 8157, 8204, 8213, 8178, 8033, 8148, 8164, 8160, 8161, 8251,1.8189074993133545
98, 8117, 8143, 8144, 8132, 8113, 8196, 8139, 8156, 8039, 8158, 8167, 8152, 8154, 8243,1.8268721103668213
99, 8133, 8165, 8150, 8148, 8130, 8206, 8165, 8156, 8038, 8164, 8171, 8166, 8151, 8244,1.8349049091339111
100, 8137, 8180, 8152, 8162, 8117, 8203, 8135, 8150, 8045, 8168, 8174, 8179, 8162, 8249,1.8427467346191406
101, 8156, 8192, 8183, 8180, 8135, 8205, 8166, 8156, 8051, 8185, 8180, 8186, 8172, 8261,1.8507757186889648
102, 8160, 8196, 8174, 8181, 8129, 8206, 8143, 8141, 8050, 8200, 8174, 8177, 8182, 8278,1.8588907718658447
103, 8138, 8175, 8140, 8161, 8136, 8196, 8155, 8125, 8047, 8190, 8162, 8161, 8181, 8275,1.866917610168457
104, 8165, 8160, 8215, 8146, 8193, 8188, 8272, 8147, 8034, 8161, 8170, 8181, 8161, 8259,1.874826431274414
105, 8167, 8164, 8198, 8145, 8122, 8183, 8127, 8135, 8035, 8153, 8184, 8183, 8166, 8265,1.8826723098754883
106, 8146, 8170, 8154, 8151, 8130, 8190, 8127, 8140, 8043, 8155, 8178, 8165, 8172, 8270,1.889920949935913
107, 8169, 8168, 8216, 8151, 8211, 8184, 8277, 8168, 8035, 8146, 8167, 8173, 8148, 8261,1.8978612422943115
108, 8171, 8153, 8203, 8142, 8161, 8166, 8176, 8158, 8035, 8150, 8171, 8179, 8144, 8268,1.9058091640472412
109, 8149, 8147, 8147, 8138, 8118, 8171, 8083, 8154, 8045, 8155, 8174, 8178, 8168, 8287,1.913893222808838
110, 8138, 8157, 8127, 8142, 8130, 8178, 8101, 8166, 8055, 8163, 8163, 8177, 8184, 8295,1.9218780994415283
111, 8150, 8163, 8161, 8146, 8180, 8172, 8201, 8187, 8060, 8164, 8163, 8182, 8172, 8284,1.92991304397583
112, 8171, 8155, 8179, 8150, 8161, 8171, 8160, 8177, 8065, 8154, 8174, 8180, 8165, 8285,1.9376952648162842
113, 8187, 8171, 8163, 8162, 8131, 8167, 8096, 8154, 8070, 8154, 8181, 8180, 8189, 8311,1.944565773010254
114, 8211, 8198, 8218, 8178, 8193, 8167, 8224, 8175, 8060, 8160, 8188, 8213, 8206, 8324,1.9527747631072998
115, 8185, 8173, 8189, 8166, 8146, 8171, 8156, 8161, 8054, 8163, 8179, 8208, 8206, 8314,1.9606637954711914
116, 8153, 8147, 8142, 8135, 8131, 8173, 8141, 8140, 8048, 8155, 8161, 8174, 8187, 8295,1.9688498973846436
117, 8173, 8170, 8194, 8152, 8181, 8173, 8218, 8148, 8039, 8159, 8168, 8185, 8174, 8281,1.9767200946807861
118, 8165, 8186, 8176, 8198, 8138, 8172, 8124, 8137, 8051, 8174, 8180, 8192, 8190, 8281,1.984842300415039
119, 8154, 8179, 8162, 8188, 8146, 8183, 8161, 8153, 8070, 8178, 8181, 8185, 8196, 8282,1.9927051067352295
120, 8153, 8163, 8171, 8150, 8156, 8197, 8185, 8171, 8079, 8180, 8178, 8181, 8182, 8280,2.000945568084717
121, 8135, 8149, 8153, 8148, 8140, 8196, 8149, 8167, 8085, 8171, 8178, 8167, 8171, 8262,2.0087509155273438
122, 8129, 8146, 8153, 8153, 8146, 8197, 8173, 8177, 8090, 8163, 8166, 8160, 8168, 8246,2.015944480895996
123, 8132, 8149, 8141, 8140, 8130, 8196, 8157, 8176, 8085, 8166, 8155, 8160, 8166, 8258,2.023787260055542
124, 8137, 8135, 8158, 8113, 8143, 8178, 8193, 8181, 8069, 8154, 8164, 8162, 8152, 8258,2.0318033695220947
125, 8113, 8114, 8139, 8101, 8109, 8157, 8139, 8174, 8073, 8144, 8162, 8157, 8145, 8246,2.039832592010498
126, 8110, 8127, 8131, 8110, 8111, 8163, 8163, 8181, 8083, 8149, 8153, 8165, 8142, 8257,2.0478715896606445
127, 8179, 8159, 8224, 8133, 8169, 8182, 8283, 8212, 8078, 8143, 8171, 8189, 8142, 8279,2.0558841228485107
238, 8208, 8173, 8228, 8157, 8128, 8175, 8187, 8193, 8078, 8130, 8183, 8185, 8159, 8277,2.0639147758483887
0, 8184, 8179, 8188, 8160, 8117, 8176, 8160, 8183, 8083, 8128, 8174, 8172, 8159, 8256,2.0719077587127686
1, 8163, 8177, 8177, 8158, 8116, 8184, 8158, 8181, 8081, 8130, 8173, 8171, 8143, 8252,2.0789201259613037
2, 8158, 8175, 8158, 8168, 8109, 8179, 8125, 8151, 8065, 8123, 8176, 8167, 8149, 8262,2.086826801300049
3, 8180, 8191, 8178, 8189, 8144, 8181, 8170, 8148, 8064, 8126, 8180, 8183, 8179, 8275,2.0949361324310303
4, 8170, 8202, 8164, 8200, 8129, 8181, 8129, 8156, 8092, 8167, 8189, 8197, 8208, 8289,2.10296368598938
5, 8147, 8196, 8159, 8184, 8155, 8172, 8168, 8153, 8092, 8181, 8182, 8190, 8196, 8281,2.110870361328125
6, 8153, 8174, 8171, 8154, 8146, 8166, 8179, 8134, 8066, 8147, 8170, 8178, 8170, 8263,2.1189467906951904
7, 8158, 8157, 8153, 8138, 8098, 8172, 8133, 8130, 8070, 8134, 8171, 8182, 8176, 8271,2.126938819885254
8, 8148, 8159, 8162, 8137, 8111, 8182, 8167, 8154, 8080, 8143, 8179, 8190, 8183, 8277,2.13468861579895
9, 8112, 8148, 8139, 8125, 8099, 8188, 8123, 8153, 8080, 8142, 8178, 8166, 8167, 8256,2.141904354095459
10, 8119, 8147, 8156, 8126, 8133, 8192, 8172, 8173, 8096, 8143, 8180, 8164, 8154, 8255,2.1499369144439697
11, 8153, 8160, 8185, 8140, 8138, 8189, 8173, 8186, 8117, 8154, 8177, 8187, 8162, 8283,2.1577141284942627
12, 8139, 8157, 8149, 8143, 8100, 8183, 8108, 8175, 8129, 8153, 8182, 8174, 8179, 8290,2.1659016609191895
13, 8150, 8157, 8189, 8155, 8139, 8187, 8213, 8197, 8130, 8153, 8202, 8173, 8180, 8277,2.1738979816436768
14, 8166, 8161, 8191, 8164, 8109, 8180, 8170, 8180, 8126, 8151, 8190, 8171, 8165, 8275,2.181950807571411
15, 8146, 8154, 8135, 8142, 8084, 8164, 8129, 8138, 8103, 8109, 8157, 8149, 8138, 8256,2.1898245811462402
16, 8131, 8137, 8152, 8118, 8099, 8162, 8181, 8132, 8072, 8081, 8166, 8148, 8114, 8222,2.1978344917297363
17, 8136, 8146, 8172, 8141, 8085, 8172, 8136, 8140, 8082, 8123, 8200, 8172, 8127, 8236,2.2059080600738525
18, 8179, 8180, 8193, 8186, 8105, 8180, 8147, 8164, 8121, 8157, 8214, 8208, 8173, 8292,2.212827444076538
19, 8194, 8180, 8181, 8197, 8085, 8169, 8126, 8167, 8149, 8167, 8206, 8215, 8208, 8310,2.220903158187866
20, 8180, 8169, 8178, 8176, 8125, 8166, 8172, 8163, 8142, 8181, 8195, 8191, 8190, 8279,2.2288756370544434
21, 8187, 8177, 8185, 8160, 8146, 8171, 8184, 8169, 8130, 8177, 8189, 8180, 8170, 8267,2.2367122173309326
22, 8168, 8169, 8132, 8152, 8055, 8166, 8108, 8170, 8141, 8167, 8183, 8169, 8183, 8271,2.2448489665985107
23, 8153, 8158, 8180, 8134, 8107, 8176, 8261, 8198, 8139, 8156, 8179, 8171, 8164, 8250,2.2528905868530273
24, 8145, 8154, 8212, 8132, 8140, 8186, 8223, 8182, 8127, 8151, 8178, 8176, 8141, 8243,2.2607405185699463
25, 8129, 8151, 8148, 8156, 8095, 8178, 8079, 8159, 8139, 8163, 8191, 8173, 8169, 8265,2.2687926292419434
26, 8142, 8156, 8164, 8157, 8126, 8191, 8175, 8194, 8153, 8173, 8206, 8186, 8191, 8276,2.275571823120117
27, 8143, 8147, 8170, 8134, 8123, 8194, 8173, 8196, 8149, 8166, 8189, 8185, 8173, 8278,2.2837271690368652
28, 8150, 8137, 8159, 8128, 8110, 8167, 8150, 8170, 8134, 8149, 8166, 8171, 8152, 8272,2.291795015335083
29, 8169, 8153, 8167, 8137, 8105, 8144, 8161, 8155, 8121, 8143, 8167, 8166, 8148, 8260,2.2997522354125977
30, 8168, 8168, 8165, 8132, 8122, 8152, 8178, 8159, 8113, 8128, 8174, 8170, 8148, 8266,2.3077898025512695
31, 8175, 8162, 8177, 8136, 8134, 8171, 8175, 8164, 8128, 8139, 8187, 8188, 8158, 8291,2.3158345222473145
32, 8178, 8173, 8164, 8170, 8104, 8170, 8113, 8146, 8152, 8182, 8197, 8193, 8176, 8311,2.323753833770752
33, 8193, 8190, 8207, 8184, 8150, 8169, 8231, 8164, 8138, 8175, 8189, 8197, 8169, 8301,2.3318517208099365
34, 8196, 8172, 8205, 8165, 8121, 8163, 8194, 8165, 8129, 8149, 8179, 8197, 8164, 8291,2.339872121810913
35, 8181, 8170, 8147, 8155, 8100, 8152, 8115, 8151, 8146, 8159, 8175, 8186, 8172, 8293,2.3468425273895264
36, 8198, 8189, 8212, 8164, 8195, 8159, 8265, 8190, 8146, 8168, 8175, 8194, 8161, 8281,2.3547611236572266
37, 8184, 8173, 8204, 8165, 8143, 8172, 8187, 8194, 8151, 8162, 8169, 8183, 8161, 8271,2.362718105316162
38, 8145, 8147, 8126, 8145, 8096, 8171, 8105, 8165, 8150, 8144, 8156, 8156, 8146, 8260,2.370711326599121
39, 8141, 8142, 8140, 8122, 8138, 8155, 8157, 8152, 8125, 8126, 8151, 8148, 8110, 8241,2.3787102699279785
40, 8148, 8149, 8162, 8125, 8139, 8157, 8155, 8162, 8131, 8131, 8164, 8157, 8114, 8241,2.386854410171509
41, 8166, 8164, 8181, 8150, 8149, 8185, 8184, 8192, 8158, 8149, 8174, 8180, 8142, 8260,2.3948378562927246
42, 8170, 8169, 8172, 8165, 8129, 8195, 8149, 8187, 8165, 8168, 8171, 8192, 8163, 8278,2.4027462005615234
43, 8165, 8161, 8163, 8159, 8123, 8188, 8150, 8176, 8161, 8157, 8172, 8186, 8165, 8273,2.4097392559051514
44, 8165, 8154, 8156, 8148, 8116, 8194, 8135, 8170, 8158, 8135, 8168, 8177, 8155, 8261,2.417759418487549
45, 8181, 8167, 8162, 8157, 8140, 8213, 8157, 8173, 8160, 8152, 8163, 8180, 8156, 8275,2.425764799118042
46, 8207, 8184, 8214, 8175, 8178, 8219, 8230, 8204, 8165, 8176, 8175, 8197, 8166, 8294,2.433682918548584
47, 8178, 8172, 8163, 8171, 8104, 8196, 8089, 8178, 8167, 8172, 8177, 8185, 8175, 8291,2.441862106323242
48, 8173, 8169, 8147, 8154, 8139, 8188, 8150, 8162, 8152, 8163, 8176, 8173, 8167, 8280,2.449665069580078
49, 8226, 8180, 8240, 8155, 8197, 8202, 8301, 8188, 8133, 8161, 8186, 8191, 8149, 8283,2.457868814468384
50, 8200, 8174, 8193, 8163, 8097, 8195, 8133, 8161, 8135, 8153, 8183, 8185, 8155, 8284,2.4657042026519775
51, 8152, 8172, 8128, 8162, 8085, 8190, 8080, 8136, 8135, 8145, 8167, 8167, 8164, 8271,2.4738168716430664
52, 8166, 8178, 8158, 8158, 8121, 8209, 8149, 8150, 8139, 8156, 8154, 8176, 8162, 8278,2.4809463024139404
53, 8191, 8179, 8189, 8161, 8128, 8221, 8184, 8167, 8157, 8172, 8161, 8195, 8165, 8297,2.4888713359832764
54, 8190, 8184, 8179, 8167, 8137, 8201, 8163, 8162, 8158, 8157, 8167, 8199, 8175, 8294,2.4968011379241943
55, 8166, 8183, 8139, 8153, 8134, 8174, 8112, 8143, 8138, 8134, 8158, 8176, 8163, 8275,2.5048956871032715
56, 8166, 8171, 8167, 8127, 8161, 8182, 8179, 8153, 8129, 8142, 8155, 8170, 8137, 8267,2.512727737426758
57, 8159, 8158, 8151, 8125, 8119, 8196, 8116, 8150, 8144, 8152, 8156, 8169, 8143, 8270,2.5209527015686035
58, 8142, 8158, 8128, 8129, 8140, 8197, 8143, 8158, 8144, 8127, 8154, 8165, 8148, 8259,2.528676986694336
59, 8180, 8177, 8206, 8127, 8195, 8199, 8261, 8180, 8140, 8121, 8164, 8189, 8143, 8262,2.5368521213531494
60, 8194, 8183, 8188, 8145, 8111, 8189, 8134, 8154, 8163, 8163, 8169, 8193, 8166, 8291,2.5439391136169434
61, 8176, 8168, 8165, 8155, 8127, 8186, 8181, 8161, 8163, 8163, 8156, 8171, 8157, 8277,2.5516281127929688
62, 8172, 8164, 8202, 8140, 8163, 8191, 8247, 8184, 8149, 8144, 8160, 8169, 8141, 8251,2.5599570274353027
63, 8179, 8180, 8185, 8154, 8101, 8182, 8135, 8160, 8161, 8164, 8169, 8186, 8167, 8278,2.567816972732544
64, 8189, 8173, 8177, 8158, 8107, 8174, 8161, 8154, 8161, 8154, 8156, 8185, 8156, 8285,2.575723171234131
65, 8147, 8138, 8159, 8113, 8124, 8179, 8192, 8161, 8150, 8124, 8149, 8148, 8128, 8234,2.5837841033935547
66, 8112, 8133, 8141, 8097, 8103, 8182, 8137, 8153, 8157, 8142, 8169, 8150, 8165, 8224,2.591815710067749
67, 8139, 8150, 8132, 8132, 8073, 8170, 8058, 8128, 8162, 8173, 8179, 8187, 8207, 8280,2.599729537963867
68, 8169, 8148, 8144, 8137, 8112, 8168, 8132, 8130, 8148, 8154, 8165, 8180, 8175, 8293,2.606755495071411
69, 8162, 8141, 8183, 8118, 8145, 8171, 8229, 8146, 8133, 8128, 8161, 8159, 8140, 8241,2.61488676071167
70, 8137, 8144, 8152, 8139, 8085, 8163, 8129, 8123, 8132, 8146, 8173, 8166, 8167, 8227,2.6227166652679443
71, 8174, 8164, 8176, 8165, 8129, 8174, 8193, 8129, 8129, 8156, 8182, 8195, 8179, 8273,2.6309878826141357
72, 8194, 8166, 8195, 8145, 8135, 8181, 8206, 8141, 8125, 8138, 8167, 8187, 8150, 8292,2.638897657394409
73, 8132, 8144, 8131, 8122, 8079, 8163, 8114, 8135, 8133, 8132, 8151, 8152, 8145, 8249,2.6468398571014404
74, 8136, 8158, 8176, 8140, 8134, 8158, 8211, 8161, 8139, 8140, 8166, 8175, 8161, 8216,2.6549761295318604
75, 8175, 8175, 8199, 8159, 8116, 8168, 8158, 8161, 8157, 8159, 8178, 8198, 8170, 8249,2.662856101989746
76, 8155, 8154, 8146, 8135, 8104, 8180, 8126, 8167, 8184, 8167, 8168, 8171, 8161, 8276,2.6697466373443604
77, 8112, 8126, 8131, 8106, 8134, 8191, 8182, 8195, 8192, 8160, 8162, 8148, 8158, 8251,2.677647590637207
78, 8089, 8122, 8133, 8112, 8132, 8204, 8157, 8198, 8198, 8174, 8171, 8160, 8172, 8233,2.685811758041382
79, 8114, 8126, 8173, 8114, 8160, 8215, 8199, 8191, 8190, 8167, 8178, 8189, 8165, 8242,2.6938281059265137
80, 8128, 8123, 8157, 8100, 8135, 8207, 8152, 8158, 8172, 8128, 8170, 8176, 8142, 8256,2.7018182277679443
81, 8117, 8137, 8139, 8111, 8142, 8194, 8150, 8144, 8163, 8117, 8161, 8145, 8132, 8255,2.709702491760254
82, 8108, 8145, 8165, 8124, 8153, 8183, 8155, 8146, 8164, 8140, 8170, 8150, 8145, 8238,2.717841863632202
83, 8106, 8132, 8148, 8117, 8131, 8177, 8105, 8123, 8159, 8142, 8177, 8176, 8154, 8231,2.7258052825927734
84, 8151, 8131, 8180, 8115, 8200, 8184, 8222, 8140, 8135, 8109, 8174, 8187, 8133, 8255,2.733771324157715
85, 8162, 8145, 8172, 8125, 8176, 8185, 8180, 8144, 8133, 8102, 8163, 8163, 8126, 8275,2.740786075592041
86, 8134, 8161, 8150, 8139, 8142, 8179, 8135, 8130, 8144, 8127, 8164, 8160, 8145, 8246,2.7487564086914062
87, 8156, 8173, 8212, 8156, 8178, 8194, 8203, 8150, 8155, 8158, 8186, 8210, 8172, 8232,2.756793260574341
88, 8184, 8181, 8193, 8172, 8139, 8207, 8129, 8154, 8177, 8174, 8194, 8227, 8196, 8281,2.7647488117218018
89, 8194, 8186, 8172, 8173, 8147, 8203, 8159, 8164, 8190, 8165, 8179, 8200, 8187, 8310,2.7728726863861084
90, 8187, 8183, 8181, 8176, 8157, 8198, 8163, 8177, 8209, 8177, 8166, 8180, 8190, 8295,2.7808127403259277
91, 8171, 8182, 8172, 8168, 8159, 8201, 8154, 8187, 8219, 8193, 8173, 8192, 8215, 8279,2.7887003421783447
92, 8170, 8179, 8191, 8144, 8198, 8208, 8224, 8186, 8194, 8164, 8177, 8200, 8195, 8265,2.796842336654663
93, 8133, 8156, 8154, 8123, 8173, 8206, 8151, 8153, 8174, 8136, 8150, 8150, 8152, 8236,2.8038032054901123
94, 8112, 8142, 8127, 8113, 8155, 8203, 8132, 8147, 8175, 8133, 8138, 8132, 8145, 8226,2.8119547367095947
95, 8140, 8152, 8136, 8128, 8132, 8202, 8124, 8158, 8183, 8140, 8164, 8179, 8173, 8255,2.819812536239624
96, 8168, 8165, 8165, 8136, 8161, 8209, 8163, 8168, 8185, 8151, 8180, 8204, 8188, 8284,2.8279361724853516
97, 8183, 8167, 8211, 8130, 8203, 8225, 8230, 8180, 8181, 8152, 8178, 8201, 8182, 8295,2.8358867168426514
98, 8156, 8166, 8170, 8141, 8135, 8210, 8118, 8162, 8186, 8150, 8180, 8191, 8190, 8305,2.843832492828369
99, 8149, 8181, 8174, 8157, 8164, 8195, 8162, 8160, 8182, 8155, 8178, 8200, 8209, 8312,2.8518905639648438
100, 8184, 8183, 8215, 8161, 8193, 8216, 8203, 8158, 8165, 8163, 8166, 8218, 8220, 8316,2.859943389892578
101, 8201, 8178, 8180, 8169, 8140, 8228, 8111, 8144, 8171, 8163, 8174, 8217, 8227, 8332,2.8667025566101074
102, 8220, 8205, 8185, 8193, 8171, 8225, 8143, 8163, 8198, 8173, 8195, 8230, 8257, 8352,2.8747787475585938
103, 8214, 8214, 8193, 8206, 8186, 8220, 8151, 8170, 8219, 8210, 8182, 8234, 8280, 8348,2.8829519748687744
104, 8191, 8193, 8177, 8195, 8182, 8212, 8176, 8161, 8207, 8204, 8165, 8206, 8227, 8308,2.890697956085205
105, 8172, 8178, 8160, 8173, 8172, 8192, 8167, 8153, 8187, 8176, 8179, 8176, 8157, 8268,2.898895740509033
106, 8150, 8176, 8145, 8157, 8169, 8191, 8137, 8161, 8198, 8189, 8223, 8173, 8166, 8259,2.906893730163574
107, 8162, 8180, 8177, 8161, 8201, 8218, 8183, 8190, 8219, 8194, 8292, 8195, 8206, 8267,2.9147369861602783
108, 8164, 8186, 8152, 8174, 8170, 8219, 8119, 8172, 8219, 8170, 8326, 8193, 8203, 8271,2.922797918319702
109, 8165, 8189, 8167, 8170, 8216, 8214, 8212, 8174, 8197, 8154, 8316, 8179, 8148, 8254,2.930873394012451
110, 8160, 8173, 8219, 8147, 8226, 8220, 8259, 8192, 8177, 8157, 8345, 8181, 8108, 8231,2.9379639625549316
111, 8113, 8154, 8148, 8145, 8130, 8216, 8087, 8157, 8179, 8163, 8400, 8181, 8143, 8228,2.9458115100860596
112, 8116, 8160, 8136, 8159, 8156, 8230, 8139, 8153, 8185, 8169, 8412, 8196, 8173, 8230,2.9536640644073486
113, 8159, 8174, 8177, 8162, 8170, 8238, 8182, 8164, 8182, 8175, 8399, 8201, 8152, 8247,2.961683988571167
114, 8177, 8185, 8176, 8174, 8147, 8222, 8145, 8155, 8181, 8166, 8391, 8199, 8134, 8275,2.96968936920166
115, 8185, 8187, 8179, 8195, 8152, 8221, 8160, 8152, 8187, 8170, 8388, 8221, 8159, 8293,2.9776668548583984
116, 8184, 8187, 8171, 8203, 8152, 8240, 8159, 8157, 8199, 8200, 8389, 8250, 8208, 8315,2.9856088161468506
117, 8193, 8204, 8204, 8203, 8198, 8248, 8222, 8181, 8202, 8212, 8377, 8259, 8215, 8329,2.993654489517212
118, 8193, 8208, 8195, 8200, 8185, 8233, 8175, 8172, 8196, 8204, 8335, 8226, 8184, 8318,3.000547170639038
119, 8187, 8208, 8167, 8203, 8171, 8226, 8158, 8165, 8197, 8215, 8318, 8205, 8177, 8313,3.008599042892456
120, 8202, 8217, 8183, 8218, 8164, 8222, 8159, 8182, 8218, 8227, 8328, 8232, 8201, 8328,3.016690492630005
121, 8189, 8202, 8148, 8197, 8129, 8209, 8093, 8169, 8230, 8209, 8288, 8227, 8194, 8320,3.024592876434326
122, 8177, 8184, 8166, 8143, 8191, 8202, 8216, 8170, 8204, 8180, 8233, 8201, 8145, 8288,3.0326385498046875
123, 8168, 8184, 8189, 8137, 8184, 8206, 8194, 8167, 8194, 8184, 8224, 8209, 8147, 8289,3.0407443046569824
124, 8150, 8187, 8155, 8161, 8149, 8215, 8106, 8158, 8210, 8193, 8218, 8222, 8172, 8294,3.048654079437256
125, 8171, 8192, 8173, 8164, 8196, 8218, 8189, 8168, 8208, 8174, 8190, 8220, 8157, 8280,3.056736946105957
126, 8186, 8197, 8163, 8173, 8178, 8204, 8149, 8151, 8201, 8173, 8169, 8211, 8161, 8307,3.064629316329956
127, 8201, 8204, 8188, 8189, 8199, 8196, 8195, 8155, 8194, 8178, 8156, 8225, 8183, 8335,3.071840286254883
238, 8221, 8218, 8223, 8196, 8210, 8202, 8221, 8167, 8191, 8171, 8141, 8237, 8175, 8313,3.0797300338745117
0, 8215, 8230, 8209, 8197, 8199, 8201, 8193, 8166, 8196, 8151, 8129, 8221, 8156, 8288,3.0876426696777344
1, 8194, 8216, 8207, 8196, 8196, 8200, 8184, 8163, 8187, 8141, 8119, 8205, 8151, 8290,3.0959548950195312
2, 8171, 8202, 8153, 8194, 8139, 8210, 8077, 8154, 8194, 8176, 8112, 8193, 8172, 8314,3.1037802696228027
3, 8214, 8218, 8194, 8194, 8218, 8220, 8232, 8197, 8208, 8189, 8116, 8216, 8184, 8329,3.1116292476654053
4, 8228, 8212, 8233, 8190, 8226, 8208, 8254, 8201, 8196, 8158, 8116, 8226, 8170, 8317,3.119816541671753
5, 8169, 8198, 8147, 8188, 8123, 8195, 8058, 8156, 8197, 8162, 8110, 8202, 8169, 8301,3.1267526149749756
6, 8183, 8213, 8161, 8194, 8165, 8197, 8139, 8173, 8212, 8190, 8109, 8212, 8179, 8306,3.1347739696502686
7, 8207, 8213, 8191, 8193, 8203, 8184, 8214, 8185, 8224, 8185, 8110, 8221, 8176, 8305,3.1428284645080566
8, 8188, 8205, 8206, 8186, 8232, 8183, 8267, 8185, 8218, 8155, 8118, 8206, 8155, 8273,3.1506688594818115
9, 8157, 8194, 8199, 8177, 8194, 8194, 8188, 8169, 8207, 8143, 8113, 8197, 8151, 8256,3.1586055755615234
10, 8120, 8173, 8135, 8161, 8142, 8187, 8085, 8134, 8194, 8141, 8088, 8191, 8160, 8270,3.166673421859741
11, 8133, 8170, 8158, 8153, 8193, 8187, 8199, 8139, 8164, 8123, 8077, 8197, 8147, 8273,3.1747937202453613
12, 8152, 8176, 8174, 8173, 8169, 8190, 8155, 8134, 8152, 8120, 8082, 8198, 8145, 8264,3.1826484203338623
13, 8133, 8176, 8114, 8188, 8124, 8178, 8035, 8115, 8160, 8125, 8087, 8190, 8157, 8269,3.190749168395996
14, 8138, 8187, 8093, 8188, 8127, 8171, 8049, 8126, 8172, 8137, 8093, 8200, 8181, 8293,3.197866201400757
15, 8181, 8208, 8159, 8203, 8183, 8179, 8196, 8160, 8178, 8151, 8101, 8214, 8199, 8300,3.2058398723602295
16, 8225, 8218, 8259, 8212, 8253, 8186, 8327, 8184, 8169, 8125, 8108, 8224, 8187, 8285,3.2138724327087402
17, 8211, 8214, 8214, 8210, 8169, 8172, 8144, 8157, 8182, 8121, 8116, 8220, 8198, 8300,3.2218434810638428
18, 8181, 8211, 8137, 8209, 8121, 8163, 8071, 8148, 8201, 8154, 8111, 8203, 8210, 8311,3.2298574447631836
19, 8181, 8207, 8163, 8201, 8182, 8168, 8202, 8173, 8189, 8147, 8088, 8186, 8178, 8273,3.23785138130188
20, 8175, 8192, 8171, 8189, 8176, 8175, 8174, 8169, 8183, 8116, 8088, 8187, 8170, 8264,3.2457804679870605
21, 8178, 8185, 8165, 8185, 8149, 8176, 8132, 8167, 8202, 8118, 8103, 8208, 8199, 8298,3.2539258003234863
22, 8171, 8190, 8151, 8180, 8142, 8168, 8131, 8170, 8206, 8131, 8092, 8193, 8185, 8292,3.260920524597168
23, 8167, 8199, 8167, 8179, 8188, 8173, 8206, 8184, 8197, 8125, 8091, 8181, 8155, 8263,3.2686522006988525
24, 8199, 8193, 8214, 8183, 8213, 8181, 8245, 8196, 8209, 8139, 8109, 8214, 8176, 8289,3.2768056392669678
25, 8180, 8163, 8160, 8169, 8136, 8172, 8118, 8167, 8221, 8158, 8100, 8200, 8197, 8311,3.284728527069092
26, 8139, 8151, 8125, 8151, 8146, 8175, 8143, 8161, 8212, 8137, 8095, 8162, 8174, 8263,3.2926418781280518
27, 8153, 8165, 8173, 8161, 8192, 8195, 8207, 8175, 8209, 8128, 8117, 8187, 8172, 8250,3.300940990447998
28, 8181, 8185, 8200, 8191, 8184, 8197, 8182, 8173, 8210, 8148, 8127, 8219, 8202, 8305,3.3089075088500977
29, 8171, 8186, 8174, 8194, 8157, 8179, 8150, 8164, 8200, 8140, 8123, 8199, 8195, 8312,3.3167061805725098
30, 8135, 8170, 8116, 8174, 8133, 8165, 8115, 8154, 8201, 8128, 8116, 8166, 8166, 8270,3.324903726577759
31, 8162, 8182, 8179, 8179, 8208, 8170, 8251, 8193, 8209, 8140, 8114, 8191, 8167, 8273,3.3318262100219727
32, 8195, 8197, 8236, 8202, 8209, 8178, 8237, 8216, 8215, 8157, 8123, 8220, 8192, 8311,3.3398802280426025
33, 8163, 8177, 8159, 8190, 8132, 8172, 8103, 8183, 8224, 8146, 8122, 8194, 8187, 8308,3.347893476486206
34, 8154, 8169, 8148, 8164, 8151, 8178, 8157, 8178, 8224, 8119, 8119, 8185, 8159, 8286,3.3559319972991943
35, 8170, 8190, 8172, 8171, 8168, 8186, 8166, 8188, 8228, 8121, 8119, 8197, 8164, 8300,3.3640153408050537
36, 8178, 8199, 8179, 8181, 8194, 8187, 8190, 8187, 8225, 8133, 8119, 8190, 8167, 8298,3.3719751834869385
37, 8171, 8182, 8179, 8168, 8186, 8190, 8182, 8163, 8203, 8117, 8114, 8171, 8146, 8264,3.3798863887786865
38, 8160, 8167, 8160, 8158, 8151, 8190, 8130, 8148, 8190, 8099, 8117, 8173, 8151, 8278,3.3879334926605225
39, 8175, 8166, 8171, 8164, 8164, 8189, 8146, 8166, 8196, 8110, 8131, 8198, 8172, 8322,3.3958399295806885
40, 8173, 8163, 8152, 8160, 8154, 8190, 8110, 8165, 8206, 8126, 8126, 8192, 8172, 8313,3.4026434421539307
41, 8167, 8175, 8163, 8152, 8186, 8185, 8171, 8175, 8198, 8127, 8112, 8182, 8159, 8282,3.410721778869629
42, 8166, 8181, 8174, 8154, 8174, 8174, 8161, 8168, 8191, 8124, 8114, 8189, 8165, 8292,3.4186604022979736
43, 8145, 8159, 8138, 8144, 8149, 8174, 8122, 8148, 8191, 8106, 8116, 8171, 8165, 8287,3.4268438816070557
44, 8167, 8158, 8201, 8132, 8222, 8188, 8265, 8181, 8189, 8101, 8124, 8169, 8150, 8257,3.4348909854888916
45, 8199, 8182, 8220, 8153, 8179, 8192, 8182, 8191, 8216, 8147, 8137, 8197, 8184, 8289,3.4427154064178467
46, 8197, 8192, 8166, 8183, 8132, 8192, 8087, 8179, 8249, 8183, 8145, 8215, 8228, 8336,3.4507691860198975
47, 8197, 8194, 8173, 8180, 8193, 8201, 8180, 8187, 8255, 8177, 8136, 8209, 8224, 8330,3.4577934741973877
48, 8198, 8198, 8170, 8163, 8215, 8204, 8191, 8187, 8252, 8165, 8119, 8186, 8204, 8307,3.465883255004883
49, 8211, 8198, 8183, 8159, 8221, 8195, 8206, 8188, 8237, 8148, 8122, 8187, 8192, 8298,3.4737000465393066
50, 8204, 8184, 8178, 8162, 8190, 8187, 8162, 8173, 8230, 8148, 8144, 8196, 8197, 8310,3.4817378520965576
51, 8185, 8178, 8159, 8156, 8193, 8194, 8154, 8170, 8246, 8183, 8153, 8195, 8216, 8326,3.489741325378418
52, 8193, 8191, 8171, 8156, 8208, 8205, 8177, 8184, 8256, 8205, 8151, 8198, 8240, 8319,3.4977357387542725
53, 8193, 8198, 8155, 8169, 8189, 8204, 8153, 8179, 8261, 8203, 8151, 8198, 8262, 8319,3.5057437419891357
54, 8202, 8191, 8187, 8160, 8231, 8215, 8241, 8193, 8258, 8194, 8149, 8204, 8253, 8331,3.5136184692382812
55, 8191, 8175, 8183, 8136, 8197, 8216, 8172, 8180, 8246, 8189, 8140, 8194, 8227, 8312,3.5217838287353516
56, 8174, 8181, 8162, 8144, 8185, 8206, 8147, 8169, 8254, 8191, 8144, 8186, 8224, 8287,3.52871036529541
57, 8198, 8182, 8206, 8155, 8229, 8200, 8242, 8199, 8280, 8198, 8158, 8208, 8240, 8306,3.5367252826690674
58, 8187, 8170, 8171, 8141, 8164, 8177, 8134, 8182, 8281, 8203, 8152, 8206, 8252, 8336,3.5448310375213623
59, 8173, 8181, 8153, 8141, 8168, 8178, 8143, 8170, 8261, 8200, 8142, 8191, 8249, 8325,3.5528459548950195
60, 8181, 8182, 8175, 8161, 8189, 8202, 8164, 8180, 8268, 8200, 8150, 8191, 8248, 8302,3.5608983039855957
61, 8181, 8169, 8172, 8163, 8183, 8201, 8157, 8187, 8277, 8185, 8158, 8191, 8239, 8301,3.5687689781188965
62, 8187, 8174, 8194, 8155, 8197, 8196, 8228, 8203, 8250, 8163, 8155, 8187, 8213, 8304,3.5767953395843506
63, 8164, 8183, 8159, 8159, 8146, 8195, 8156, 8190, 8243, 8179, 8151, 8183, 8218, 8300,3.5849204063415527
64, 8167, 8188, 8175, 8161, 8178, 8191, 8193, 8191, 8257, 8189, 8149, 8205, 8234, 8293,3.591937780380249
65, 8188, 8179, 8205, 8149, 8193, 8181, 8203, 8173, 8241, 8173, 8142, 8208, 8221, 8289,3.599907636642456
66, 8170, 8158, 8171, 8137, 8171, 8175, 8171, 8144, 8211, 8156, 8138, 8186, 8204, 8283,3.607879877090454
67, 8172, 8163, 8194, 8145, 8194, 8182, 8212, 8158, 8212, 8158, 8153, 8203, 8216, 8285,3.615920305252075
68, 8196, 8185, 8191, 8178, 8154, 8185, 8107, 8161, 8248, 8197, 8165, 8221, 8261, 8314,3.623906135559082
69, 8220, 8197, 8191, 8195, 8191, 8179, 8162, 8165, 8250, 8208, 8155, 8217, 8266, 8331,3.631969451904297
70, 8215, 8199, 8213, 8184, 8228, 8165, 8242, 8173, 8223, 8175, 8143, 8207, 8235, 8307,3.6397955417633057
71, 8179, 8198, 8173, 8177, 8164, 8166, 8121, 8161, 8232, 8188, 8149, 8197, 8248, 8297,3.6476962566375732
72, 8189, 8199, 8154, 8188, 8154, 8187, 8093, 8161, 8254, 8217, 8163, 8212, 8268, 8321,3.6559369564056396
73, 8208, 8197, 8153, 8199, 8174, 8193, 8138, 8167, 8256, 8211, 8156, 8221, 8258, 8334,3.6629724502563477
74, 8197, 8193, 8162, 8183, 8198, 8186, 8198, 8178, 8239, 8197, 8140, 8209, 8245, 8319,3.670687198638916
75, 8193, 8189, 8179, 8167, 8175, 8180, 8168, 8171, 8233, 8196, 8144, 8208, 8247, 8311,3.678852081298828
76, 8200, 8190, 8173, 8177, 8153, 8179, 8136, 8160, 8244, 8187, 8156, 8209, 8242, 8308,3.686903715133667
77, 8195, 8186, 8173, 8182, 8175, 8189, 8182, 8182, 8253, 8184, 8150, 8203, 8231, 8299,3.694667100906372
78, 8156, 8167, 8129, 8158, 8131, 8189, 8107, 8183, 8254, 8189, 8129, 8187, 8227, 8295,3.702833652496338
79, 8152, 8165, 8147, 8144, 8164, 8182, 8181, 8181, 8231, 8153, 8126, 8180, 8196, 8280,3.7107203006744385
80, 8192, 8177, 8215, 8161, 8213, 8185, 8252, 8186, 8213, 8131, 8135, 8188, 8166, 8266,3.718719244003296
81, 8171, 8172, 8162, 8164, 8149, 8188, 8117, 8166, 8226, 8171, 8138, 8181, 8188, 8269,3.7259607315063477
82, 8163, 8172, 8163, 8151, 8175, 8187, 8175, 8178, 8235, 8198, 8154, 8199, 8226, 8277,3.7339112758636475
83, 8203, 8190, 8215, 8171, 8193, 8175, 8192, 8177, 8235, 8188, 8159, 8217, 8232, 8292,3.7417726516723633
84, 8215, 8207, 8190, 8193, 8155, 8168, 8115, 8148, 8233, 8180, 8143, 8194, 8206, 8295,3.749861240386963
85, 8197, 8204, 8155, 8179, 8136, 8184, 8120, 8149, 8224, 8181, 8142, 8184, 8206, 8281,3.7575979232788086
86, 8176, 8191, 8144, 8173, 8141, 8193, 8137, 8163, 8228, 8198, 8159, 8202, 8247, 8292,3.765909433364868
87, 8195, 8199, 8199, 8194, 8200, 8185, 8224, 8179, 8228, 8195, 8166, 8222, 8246, 8322,3.7737677097320557
88, 8207, 8207, 8199, 8195, 8173, 8179, 8171, 8155, 8208, 8162, 8155, 8208, 8214, 8329,3.781841516494751
89, 8186, 8192, 8161, 8168, 8147, 8184, 8144, 8143, 8199, 8162, 8153, 8187, 8218, 8303,3.788912057876587
90, 8152, 8162, 8155, 8143, 8150, 8180, 8174, 8161, 8208, 8191, 8157, 8194, 8234, 8277,3.796679973602295
91, 8119, 8150, 8117, 8138, 8125, 8176, 8113, 8154, 8210, 8191, 8159, 8190, 8235, 8283,3.8048343658447266
92, 8160, 8181, 8185, 8154, 8215, 8190, 8245, 8172, 8189, 8159, 8163, 8187, 8207, 8286,3.8129987716674805
93, 8179, 8188, 8218, 8164, 8209, 8181, 8227, 8174, 8190, 8166, 8158, 8179, 8185, 8265,3.820861339569092
94, 8121, 8154, 8127, 8153, 8117, 8163, 8082, 8153, 8219, 8193, 8155, 8165, 8202, 8253,3.828904867172241
95, 8119, 8152, 8145, 8151, 8156, 8184, 8157, 8172, 8227, 8184, 8168, 8184, 8224, 8261,3.8367254734039307
96, 8147, 8176, 8174, 8162, 8184, 8202, 8173, 8171, 8226, 8184, 8167, 8191, 8224, 8272,3.844712257385254
97, 8145, 8178, 8160, 8162, 8185, 8190, 8189, 8172, 8234, 8198, 8157, 8174, 8205, 8266,3.85172700881958
98, 8135, 8162, 8158, 8151, 8156, 8179, 8181, 8177, 8237, 8194, 8165, 8170, 8209, 8256,3.859731674194336
99, 8142, 8163, 8160, 8151, 8136, 8183, 8149, 8158, 8226, 8184, 8167, 8182, 8228, 8261,3.8676915168762207
100, 8168, 8181, 8184, 8166, 8168, 8178, 8187, 8148, 8208, 8171, 8151, 8196, 8211, 8288,3.8758277893066406
101, 8156, 8175, 8157, 8165, 8156, 8165, 8157, 8134, 8207, 8147, 8146, 8179, 8175, 8300,3.8835933208465576
102, 8140, 8159, 8151, 8139, 8164, 8173, 8183, 8138, 8215, 8148, 8159, 8164, 8175, 8269,3.8917698860168457
103, 8146, 8159, 8159, 8130, 8133, 8177, 8136, 8142, 8220, 8183, 8164, 8172, 8205, 8250,3.8996880054473877
104, 8148, 8165, 8153, 8136, 8130, 8167, 8142, 8145, 8217, 8181, 8157, 8173, 8197, 8263,3.9077534675598145
105, 8163, 8162, 8215, 8134, 8219, 8174, 8310, 8175, 8211, 8154, 8158, 8179, 8171, 8257,3.9156150817871094
106, 8145, 8151, 8189, 8130, 8160, 8178, 8185, 8160, 8220, 8166, 8155, 8168, 8177, 8230,3.9228031635284424
107, 8130, 8157, 8138, 8135, 8117, 8174, 8094, 8151, 8227, 8169, 8148, 8167, 8187, 8223,3.9307303428649902
108, 8151, 8168, 8179, 8139, 8158, 8175, 8179, 8177, 8235, 8164, 8162, 8198, 8198, 8249,3.9390058517456055
109, 8146, 8159, 8171, 8140, 8136, 8166, 8149, 8176, 8250, 8183, 8163, 8211, 8228, 8280,3.9467194080352783
110, 8140, 8151, 8157, 8138, 8131, 8162, 8164, 8172, 8236, 8172, 8152, 8199, 8228, 8275,3.954782009124756
111, 8145, 8160, 8167, 8142, 8126, 8163, 8169, 8171, 8218, 8157, 8161, 8187, 8213, 8243,3.962867021560669
112, 8139, 8169, 8170, 8149, 8140, 8159, 8167, 8167, 8219, 8167, 8165, 8176, 8189, 8222,3.970571279525757
113, 8137, 8168, 8156, 8156, 8147, 8157, 8150, 8151, 8213, 8164, 8185, 8176, 8165, 8237,3.9789059162139893
114, 8166, 8188, 8164, 8179, 8153, 8163, 8155, 8148, 8215, 8171, 8282, 8216, 8217, 8287,3.986922025680542
115, 8207, 8216, 8221, 8208, 8195, 8179, 8231, 8189, 8230, 8196, 8404, 8249, 8279, 8312,3.9938411712646484
116, 8180, 8211, 8168, 8199, 8142, 8181, 8125, 8188, 8250, 8222, 8461, 8216, 8254, 8301,4.001964569091797
117, 8146, 8201, 8141, 8163, 8163, 8180, 8180, 8177, 8253, 8238, 8493, 8202, 8210, 8291,4.009569883346558
118, 8161, 8189, 8222, 8154, 8224, 8191, 8304, 8196, 8244, 8249, 8539, 8239, 8227, 8298,4.0178844928741455
119, 8138, 8175, 8177, 8167, 8141, 8188, 8132, 8179, 8262, 8265, 8543, 8229, 8253, 8303,4.025834798812866
120, 8119, 8178, 8139, 8167, 8138, 8181, 8124, 8172, 8272, 8267, 8517, 8209, 8224, 8279,4.033872127532959
121, 8136, 8173, 8175, 8158, 8181, 8185, 8199, 8186, 8269, 8259, 8493, 8221, 8208, 8255,4.041821718215942
122, 8136, 8163, 8156, 8156, 8158, 8189, 8162, 8186, 8276, 8256, 8466, 8201, 8207, 8242,4.049854040145874
123, 8134, 8179, 8148, 8174, 8133, 8179, 8145, 8171, 8266, 8228, 8434, 8172, 8172, 8222,4.056865215301514
124, 8148, 8204, 8168, 8207, 8127, 8169, 8135, 8154, 8246, 8204, 8404, 8179, 8148, 8221,4.064909219741821
125, 8175, 8212, 8199, 8226, 8171, 8176, 8188, 8167, 8246, 8209, 8377, 8208, 8158, 8251,4.072674036026001
126, 8175, 8206, 8178, 8222, 8150, 8180, 8134, 8162, 8250, 8212, 8345, 8215, 8156, 8274,4.080883502960205
127, 8170, 8211, 8173, 8226, 8150, 8176, 8137, 8153, 8222, 8192, 8311, 8205, 8147, 8276,4.088807582855225
238, 8191, 8228, 8218, 8232, 8188, 8164, 8210, 8157, 8188, 8171, 8265, 8204, 8147, 8274,4.096776008605957
0, 8180, 8222, 8169, 8228, 8131, 8145, 8119, 8128, 8177, 8167, 8208, 8188, 8146, 8270,4.104828357696533
1, 8190, 8218, 8175, 8222, 8165, 8144, 8188, 8144, 8169, 8174, 8178, 8192, 8152, 8277,4.111868619918823
2, 8207, 8225, 8218, 8218, 8202, 8158, 8228, 8169, 8174, 8188, 8168, 8213, 8187, 8306,4.120938539505005
3, 8166, 8207, 8159, 8208, 8143, 8153, 8130, 8147, 8190, 8195, 8138, 8202, 8207, 8312,4.127895355224609
4, 8137, 8184, 8149, 8189, 8138, 8144, 8174, 8158, 8193, 8205, 8113, 8189, 8193, 8284,4.1358420848846436
5, 8132, 8183, 8160, 8189, 8118, 8151, 8156, 8181, 8210, 8229, 8107, 8174, 8186, 8267,4.143911361694336
6, 8137, 8196, 8161, 8209, 8131, 8175, 8164, 8206, 8246, 8238, 8104, 8164, 8177, 8249,4.15182900428772
7, 8132, 8190, 8163, 8203, 8147, 8185, 8186, 8213, 8266, 8235, 8091, 8156, 8147, 8206,4.159887075424194
8, 8116, 8180, 8145, 8194, 8128, 8168, 8149, 8183, 8256, 8222, 8074, 8138, 8127, 8170,4.166810989379883
9, 8145, 8201, 8175, 8229, 8137, 8155, 8169, 8173, 8238, 8215, 8079, 8160, 8143, 8182,4.1748223304748535
10, 8183, 8230, 8191, 8262, 8114, 8140, 8135, 8163, 8225, 8215, 8089, 8206, 8181, 8249,4.182802200317383
11, 8209, 8241, 8211, 8255, 8141, 8130, 8181, 8157, 8204, 8174, 8082, 8238, 8193, 8317,4.190924644470215
12, 8226, 8242, 8227, 8263, 8150, 8136, 8177, 8162, 8200, 8155, 8075, 8257, 8212, 8357,4.198760271072388
13, 8221, 8250, 8200, 8288, 8125, 8136, 8126, 8165, 8217, 8189, 8080, 8254, 8254, 8374,4.206892251968384
14, 8233, 8254, 8228, 8281, 8174, 8133, 8239, 8176, 8202, 8186, 8082, 8250, 8250, 8367,4.2148942947387695
15, 8231, 8243, 8213, 8267, 8134, 8119, 8175, 8155, 8178, 8158, 8069, 8239, 8218, 8348,4.222708225250244
16, 8197, 8229, 8164, 8254, 8099, 8104, 8116, 8139, 8177, 8159, 8057, 8213, 8194, 8312,4.23069953918457
17, 8182, 8215, 8179, 8234, 8134, 8101, 8188, 8147, 8182, 8172, 8057, 8193, 8186, 8272,4.23891019821167
18, 8174, 8210, 8169, 8226, 8122, 8100, 8155, 8144, 8189, 8176, 8068, 8187, 8204, 8270,4.246945381164551
19, 8182, 8220, 8182, 8224, 8143, 8109, 8201, 8167, 8187, 8149, 8073, 8199, 8203, 8281,4.253911256790161
20, 8184, 8208, 8190, 8209, 8128, 8111, 8190, 8165, 8178, 8126, 8066, 8201, 8183, 8275,4.261813402175903
21, 8157, 8177, 8154, 8192, 8092, 8106, 8133, 8143, 8177, 8142, 8060, 8184, 8183, 8267,4.269914150238037
22, 8140, 8181, 8145, 8190, 8103, 8113, 8144, 8154, 8195, 8156, 8073, 8175, 8193, 8273,4.277885675430298
23, 8140, 8197, 8147, 8206, 8113, 8123, 8143, 8167, 8214, 8155, 8085, 8179, 8196, 8280,4.285917520523071
24, 8157, 8198, 8185, 8219, 8153, 8126, 8220, 8190, 8210, 8165, 8088, 8200, 8197, 8274,4.293844699859619
25, 8156, 8197, 8174, 8219, 8120, 8133, 8167, 8185, 8211, 8177, 8092, 8200, 8209, 8268,4.301744222640991
26, 8158, 8213, 8154, 8220, 8120, 8142, 8159, 8171, 8217, 8164, 8105, 8189, 8212, 8267,4.309944152832031
27, 8185, 8232, 8219, 8230, 8183, 8129, 8267, 8177, 8201, 8151, 8108, 8202, 8198, 8269,4.316885471343994
28, 8166, 8221, 8193, 8229, 8126, 8121, 8162, 8149, 8195, 8150, 8094, 8187, 8184, 8259,4.324652194976807
29, 8163, 8222, 8159, 8230, 8114, 8137, 8131, 8142, 8197, 8138, 8097, 8172, 8179, 8253,4.3328773975372314
30, 8209, 8253, 8200, 8256, 8156, 8137, 8176, 8151, 8183, 8130, 8114, 8205, 8189, 8280,4.340843439102173
31, 8225, 8273, 8202, 8275, 8153, 8115, 8142, 8140, 8170, 8123, 8118, 8227, 8200, 8321,4.348638296127319
32, 8208, 8250, 8182, 8251, 8143, 8109, 8145, 8139, 8157, 8092, 8116, 8216, 8182, 8326,4.356821537017822
33, 8175, 8214, 8154, 8206, 8128, 8111, 8132, 8141, 8147, 8081, 8122, 8196, 8161, 8303,4.36473822593689
34, 8155, 8199, 8156, 8169, 8170, 8123, 8198, 8168, 8162, 8100, 8121, 8189, 8156, 8281,4.372937917709351
35, 8135, 8177, 8138, 8140, 8146, 8141, 8176, 8179, 8183, 8104, 8111, 8178, 8150, 8262,4.379855632781982
36, 8115, 8155, 8105, 8125, 8122, 8141, 8146, 8167, 8180, 8102, 8113, 8162, 8146, 8254,4.38771915435791
37, 8139, 8159, 8166, 8124, 8205, 8149, 8241, 8182, 8184, 8123, 8131, 8178, 8159, 8263,4.395756006240845
38, 8141, 8168, 8165, 8136, 8175, 8171, 8155, 8189, 8224, 8170, 8141, 8187, 8190, 8282,4.403827667236328
39, 8125, 8172, 8145, 8152, 8158, 8189, 8169, 8200, 8250, 8184, 8139, 8179, 8195, 8279,4.411738634109497
40, 8143, 8178, 8186, 8162, 8195, 8194, 8229, 8203, 8261, 8179, 8145, 8178, 8193, 8264,4.419593811035156
41, 8138, 8186, 8161, 8164, 8158, 8201, 8130, 8178, 8278, 8202, 8146, 8169, 8202, 8252,4.427807569503784
42, 8117, 8187, 8148, 8163, 8152, 8214, 8161, 8172, 8258, 8196, 8141, 8164, 8176, 8216,4.4357383251190186
43, 8104, 8174, 8143, 8165, 8131, 8207, 8154, 8144, 8213, 8148, 8135, 8165, 8143, 8196,4.4437291622161865
44, 8111, 8174, 8145, 8159, 8144, 8206, 8167, 8136, 8201, 8114, 8137, 8177, 8138, 8225,4.450685977935791
45, 8137, 8182, 8171, 8137, 8172, 8219, 8202, 8176, 8218, 8112, 8147, 8194, 8154, 8268,4.458724021911621
46, 8125, 8165, 8135, 8103, 8146, 8207, 8136, 8194, 8231, 8126, 8150, 8183, 8177, 8295,4.466658353805542
47, 8119, 8143, 8137, 8092, 8166, 8184, 8171, 8203, 8235, 8141, 8146, 8174, 8177, 8299,4.474661827087402
48, 8123, 8132, 8145, 8101, 8147, 8186, 8139, 8196, 8244, 8144, 8144, 8168, 8168, 8285,4.482662916183472
49, 8118, 8126, 8150, 8102, 8157, 8201, 8161, 8201, 8243, 8143, 8151, 8165, 8167, 8272,4.490699529647827
50, 8127, 8126, 8181, 8095, 8167, 8189, 8217, 8200, 8233, 8165, 8153, 8177, 8168, 8281,4.498777151107788
51, 8133, 8134, 8154, 8100, 8110, 8163, 8126, 8159, 8242, 8187, 8146, 8178, 8181, 8298,4.50684380531311
52, 8159, 8158, 8178, 8119, 8154, 8167, 8181, 8162, 8253, 8184, 8153, 8188, 8186, 8307,4.513834238052368
53, 8174, 8170, 8197, 8132, 8163, 8177, 8188, 8169, 8251, 8187, 8162, 8197, 8192, 8315,4.521837472915649
54, 8160, 8169, 8163, 8145, 8130, 8176, 8136, 8148, 8240, 8186, 8157, 8188, 8197, 8309,4.529761791229248
55, 8165, 8173, 8178, 8160, 8154, 8175, 8177, 8142, 8222, 8169, 8149, 8185, 8189, 8286,4.537644147872925
56, 8156, 8168, 8172, 8153, 8149, 8172, 8160, 8141, 8221, 8172, 8149, 8172, 8176, 8267,4.545703411102295
57, 8133, 8162, 8155, 8132, 8152, 8177, 8177, 8154, 8219, 8162, 8168, 8155, 8166, 8238,4.553743600845337
58, 8107, 8154, 8134, 8129, 8120, 8168, 8138, 8154, 8212, 8144, 8178, 8154, 8174, 8224,4.561610221862793
59, 8108, 8151, 8143, 8129, 8137, 8149, 8176, 8160, 8213, 8149, 8168, 8170, 8174, 8246,4.569643974304199
60, 8139, 8152, 8189, 8125, 8167, 8166, 8221, 8184, 8221, 8163, 8173, 8191, 8172, 8271,4.5776283740997314
61, 8124, 8147, 8147, 8130, 8109, 8181, 8108, 8180, 8239, 8182, 8177, 8182, 8195, 8275,4.584579706192017
62, 8110, 8141, 8168, 8118, 8177, 8163, 8240, 8194, 8232, 8181, 8157, 8167, 8177, 8244,4.592740535736084
63, 8113, 8134, 8211, 8104, 8200, 8159, 8260, 8193, 8216, 8184, 8150, 8153, 8142, 8217,4.60067081451416
64, 8090, 8131, 8133, 8109, 8095, 8179, 8057, 8163, 8235, 8207, 8164, 8138, 8166, 8232,4.608825445175171
65, 8095, 8142, 8116, 8105, 8108, 8185, 8116, 8172, 8251, 8213, 8173, 8148, 8202, 8260,4.616746425628662
66, 8113, 8147, 8153, 8105, 8140, 8171, 8177, 8171, 8227, 8197, 8162, 8153, 8192, 8261,4.624589443206787
67, 8132, 8158, 8177, 8143, 8142, 8172, 8158, 8157, 8206, 8190, 8164, 8161, 8181, 8262,4.632674217224121
68, 8160, 8181, 8180, 8183, 8141, 8193, 8138, 8152, 8227, 8209, 8177, 8183, 8200, 8301,4.640618085861206
69, 8168, 8194, 8177, 8179, 8168, 8207, 8176, 8168, 8250, 8211, 8174, 8187, 8197, 8318,4.64768385887146
70, 8176, 8186, 8219, 8158, 8201, 8207, 8246, 8187, 8236, 8186, 8168, 8180, 8166, 8276,4.655657768249512
71, 8169, 8174, 8189, 8166, 8136, 8189, 8131, 8152, 8221, 8178, 8167, 8175, 8166, 8266,4.663717031478882
72, 8174, 8181, 8178, 8186, 8156, 8179, 8160, 8145, 8214, 8174, 8171, 8186, 8179, 8305,4.671581029891968
73, 8186, 8185, 8208, 8171, 8180, 8176, 8204, 8161, 8211, 8156, 8170, 8195, 8177, 8309,4.679713010787964
74, 8163, 8173, 8156, 8152, 8116, 8164, 8104, 8153, 8211, 8162, 8168, 8182, 8189, 8299,4.687728404998779
75, 8156, 8170, 8161, 8150, 8162, 8168, 8197, 8178, 8200, 8181, 8173, 8185, 8185, 8300,4.695658445358276
76, 8137, 8157, 8165, 8127, 8175, 8170, 8195, 8180, 8193, 8168, 8169, 8178, 8161, 8280,4.703795671463013
77, 8112, 8142, 8128, 8104, 8133, 8160, 8105, 8155, 8192, 8154, 8168, 8162, 8170, 8260,4.7117369174957275
78, 8139, 8152, 8150, 8124, 8126, 8162, 8102, 8170, 8198, 8192, 8177, 8186, 8212, 8291,4.718658208847046
79, 8184, 8176, 8184, 8162, 8153, 8167, 8152, 8197, 8227, 8232, 8192, 8217, 8250, 8337,4.726775169372559
80, 8210, 8187, 8220, 8178, 8190, 8174, 8225, 8203, 8246, 8215, 8201, 8220, 8254, 8341,4.734755516052246
81, 8175, 8185, 8176, 8179, 8133, 8178, 8106, 8174, 8244, 8201, 8190, 8189, 8240, 8323,4.742729187011719
82, 8153, 8198, 8181, 8174, 8205, 8191, 8216, 8189, 8243, 8208, 8174, 8169, 8207, 8294,4.7506327629089355
83, 8179, 8206, 8261, 8171, 8273, 8190, 8352, 8209, 8240, 8190, 8161, 8173, 8182, 8260,4.758858919143677
84, 8157, 8190, 8187, 8174, 8124, 8177, 8084, 8153, 8235, 8179, 8156, 8148, 8200, 8251,4.766764879226685
85, 8133, 8180, 8107, 8165, 8103, 8189, 8031, 8128, 8228, 8171, 8167, 8132, 8196, 8258,4.7737648487091064
86, 8140, 8168, 8120, 8142, 8171, 8188, 8158, 8134, 8213, 8135, 8173, 8152, 8165, 8262,4.781835556030273
87, 8140, 8166, 8152, 8135, 8178, 8156, 8204, 8127, 8184, 8103, 8159, 8171, 8159, 8262,4.789757966995239
88, 8147, 8179, 8184, 8134, 8171, 8132, 8207, 8128, 8139, 8089, 8150, 8172, 8151, 8262,4.797835350036621
89, 8139, 8163, 8146, 8124, 8129, 8135, 8115, 8113, 8118, 8061, 8147, 8158, 8123, 8268,4.805848121643066
90, 8132, 8157, 8141, 8133, 8138, 8141, 8141, 8108, 8107, 8026, 8141, 8169, 8099, 8264,4.8139002323150635
91, 8137, 8185, 8175, 8163, 8148, 8130, 8169, 8106, 8079, 8033, 8143, 8191, 8106, 8267,4.821908473968506
92, 8149, 8202, 8176, 8182, 8145, 8117, 8155, 8118, 8075, 8059, 8156, 8201, 8134, 8289,4.829833984375
93, 8165, 8198, 8183, 8181, 8155, 8114, 8183, 8150, 8104, 8075, 8165, 8208, 8154, 8307,4.837881565093994
94, 8150, 8191, 8172, 8183, 8132, 8123, 8149, 8156, 8142, 8113, 8163, 8200, 8170, 8310,4.84591269493103
95, 8142, 8186, 8169, 8186, 8138, 8143, 8156, 8169, 8175, 8159, 8165, 8199, 8191, 8319,4.85266900062561
96, 8159, 8189, 8163, 8197, 8147, 8151, 8142, 8193, 8210, 8188, 8175, 8212, 8218, 8337,4.860802173614502
97, 8164, 8204, 8168, 8217, 8172, 8153, 8167, 8203, 8231, 8198, 8175, 8205, 8220, 8326,4.8689024448394775
98, 8170, 8208, 8207, 8226, 8180, 8173, 8214, 8194, 8228, 8194, 8170, 8198, 8205, 8299,4.876648426055908
99, 8157, 8200, 8162, 8228, 8115, 8170, 8114, 8159, 8220, 8193, 8171, 8198, 8206, 8300,4.884941816329956
100, 8153, 8212, 8175, 8226, 8193, 8154, 8223, 8173, 8192, 8168, 8167, 8201, 8187, 8295,4.892855405807495
101, 8164, 8215, 8233, 8225, 8233, 8164, 8273, 8206, 8189, 8136, 8162, 8198, 8161, 8274,4.900862455368042
102, 8122, 8183, 8153, 8202, 8137, 8171, 8108, 8201, 8218, 8138, 8155, 8169, 8158, 8258,4.907846450805664
103, 8075, 8148, 8108, 8146, 8148, 8172, 8155, 8208, 8211, 8142, 8143, 8136, 8133, 8227,4.915881395339966
104, 8053, 8127, 8121, 8102, 8155, 8176, 8190, 8207, 8189, 8125, 8134, 8112, 8094, 8191,4.92384934425354
105, 8050, 8120, 8118, 8094, 8127, 8171, 8158, 8194, 8189, 8118, 8134, 8107, 8086, 8184,4.931766033172607
106, 8065, 8113, 8121, 8098, 8122, 8161, 8152, 8185, 8194, 8126, 8137, 8125, 8099, 8198,4.939849138259888
107, 8081, 8110, 8128, 8100, 8131, 8162, 8149, 8171, 8186, 8132, 8138, 8141, 8109, 8219,4.947906970977783
108, 8121, 8125, 8165, 8113, 8150, 8166, 8164, 8169, 8170, 8131, 8151, 8163, 8122, 8251,4.955827236175537
109, 8135, 8139, 8157, 8122, 8107, 8157, 8088, 8147, 8167, 8122, 8159, 8171, 8135, 8272,4.963903903961182
110, 8136, 8150, 8170, 8127, 8147, 8160, 8176, 8148, 8165, 8108, 8156, 8176, 8131, 8266,4.971834182739258
111, 8167, 8170, 8211, 8150, 8186, 8173, 8221, 8164, 8159, 8118, 8154, 8202, 8138, 8279,4.978809356689453
112, 8178, 8176, 8178, 8169, 8139, 8170, 8119, 8148, 8159, 8142, 8156, 8217, 8168, 8313,4.986806631088257
113, 8182, 8167, 8211, 8165, 8189, 8164, 8239, 8162, 8155, 8130, 8169, 8226, 8164, 8317,4.994913578033447
114, 8171, 8167, 8224, 8166, 8178, 8157, 8215, 8168, 8150, 8114, 8174, 8220, 8146, 8299,5.002745866775513
115, 8136, 8170, 8150, 8168, 8117, 8155, 8095, 8148, 8147, 8117, 8159, 8195, 8146, 8280,5.010893821716309
116, 8113, 8164, 8132, 8159, 8138, 8162, 8153, 8149, 8141, 8119, 8147, 8182, 8138, 8263,5.018780469894409
117, 8108, 8160, 8144, 8158, 8148, 8170, 8171, 8158, 8149, 8121, 8156, 8173, 8134, 8262,5.026771068572998
118, 8133, 8170, 8183, 8165, 8180, 8177, 8210, 8184, 8164, 8123, 8170, 8179, 8140, 8258,5.034850358963013
119, 8134, 8172, 8183, 8165, 8162, 8174, 8179, 8189, 8176, 8146, 8165, 8184, 8151, 8245,5.041907787322998
120, 8108, 8170, 8149, 8165, 8138, 8174, 8144, 8189, 8194, 8167, 8155, 8169, 8163, 8239,5.0496392250061035
121, 8106, 8173, 8156, 8166, 8159, 8188, 8170, 8195, 8207, 8169, 8152, 8152, 8152, 8229,5.057726144790649
122, 8096, 8171, 8144, 8160, 8153, 8187, 8142, 8175, 8203, 8175, 8150, 8142, 8132, 8219,5.065741777420044
123, 8103, 8167, 8169, 8159, 8185, 8179, 8207, 8182, 8191, 8165, 8155, 8153, 8135, 8233,5.07391357421875
124, 8132, 8164, 8185, 8174, 8170, 8187, 8185, 8185, 8191, 8156, 8160, 8173, 8160, 8260,5.08184552192688
125, 8158, 8182, 8175, 8192, 8165, 8199, 8166, 8177, 8197, 8169, 8160, 8188, 8173, 8279,5.090918064117432
126, 8190, 8212, 8224, 8210, 8200, 8199, 8243, 8192, 8192, 8179, 8165, 8202, 8170, 8291,5.097919225692749
127, 8185, 8211, 8204, 8229, 8148, 8193, 8152, 8178, 8189, 8177, 8176, 8196, 8183, 8300,5.105709791183472
238, 8168, 8196, 8179, 8217, 8169, 8195, 8180, 8167, 8177, 8162, 8178, 8198, 8178, 8289,5.112745761871338
0, 8162, 8188, 8184, 8187, 8170, 8195, 8185, 8162, 8172, 8144, 8161, 8203, 8165, 8286,5.1209046840667725
1, 8153, 8191, 8160, 8185, 8129, 8190, 8118, 8151, 8182, 8147, 8155, 8196, 8173, 8305,5.128669500350952
2, 8176, 8195, 8199, 8184, 8187, 8186, 8220, 8176, 8176, 8168, 8172, 8211, 8180, 8309,5.1368865966796875
3, 8172, 8177, 8191, 8163, 8174, 8175, 8187, 8181, 8179, 8181, 8183, 8214, 8194, 8308,5.144916772842407
4, 8139, 8168, 8141, 8152, 8131, 8176, 8121, 8176, 8200, 8199, 8191, 8200, 8212, 8306,5.153039455413818
5, 8139, 8179, 8136, 8155, 8111, 8182, 8097, 8178, 8217, 8229, 8198, 8201, 8233, 8306,5.160907983779907
6, 8142, 8182, 8154, 8149, 8151, 8188, 8158, 8191, 8221, 8229, 8185, 8197, 8242, 8309,5.16899561882019
7, 8143, 8178, 8201, 8139, 8212, 8209, 8268, 8213, 8223, 8221, 8182, 8188, 8229, 8292,5.1757729053497314
8, 8138, 8175, 8164, 8144, 8124, 8205, 8112, 8188, 8241, 8251, 8182, 8176, 8228, 8282,5.1838719844818115
9, 8151, 8184, 8147, 8153, 8119, 8194, 8122, 8180, 8238, 8250, 8167, 8187, 8228, 8297,5.191896438598633
10, 8178, 8190, 8201, 8158, 8177, 8200, 8246, 8196, 8208, 8209, 8166, 8217, 8222, 8308,5.199909448623657
11, 8166, 8186, 8170, 8156, 8117, 8190, 8144, 8173, 8192, 8201, 8171, 8202, 8219, 8302,5.207832098007202
12, 8158, 8186, 8150, 8153, 8111, 8177, 8130, 8171, 8196, 8203, 8167, 8179, 8206, 8297,5.215909719467163
13, 8157, 8177, 8161, 8153, 8147, 8194, 8168, 8187, 8200, 8185, 8166, 8184, 8196, 8298,5.223881483078003
14, 8147, 8170, 8156, 8152, 8155, 8211, 8170, 8194, 8195, 8176, 8167, 8190, 8197, 8294,5.231645107269287
15, 8153, 8184, 8160, 8161, 8138, 8202, 8157, 8200, 8201, 8193, 8172, 8192, 8210, 8300,5.23886775970459
16, 8153, 8188, 8144, 8158, 8123, 8198, 8147, 8195, 8222, 8214, 8176, 8179, 8224, 8297,5.246971607208252
17, 8136, 8173, 8156, 8134, 8153, 8206, 8200, 8187, 8218, 8203, 8176, 8168, 8206, 8271,5.254685878753662
18, 8102, 8164, 8143, 8124, 8116, 8192, 8118, 8156, 8198, 8186, 8171, 8160, 8184, 8252,5.262907981872559
19, 8100, 8166, 8143, 8127, 8132, 8176, 8144, 8155, 8199, 8194, 8171, 8156, 8182, 8253,5.270904302597046
20, 8132, 8164, 8190, 8123, 8176, 8177, 8230, 8183, 8215, 8219, 8180, 8172, 8192, 8260,5.278936862945557
21, 8133, 8167, 8170, 8139, 8129, 8179, 8127, 8169, 8229, 8233, 8183, 8191, 8217, 8285,5.286941289901733
22, 8155, 8191, 8192, 8166, 8174, 8183, 8195, 8175, 8222, 8202, 8174, 8206, 8222, 8305,5.294906854629517
23, 8165, 8189, 8204, 8154, 8175, 8186, 8217, 8175, 8208, 8176, 8163, 8193, 8199, 8299,5.302982807159424
24, 8133, 8171, 8147, 8141, 8110, 8183, 8115, 8155, 8211, 8191, 8164, 8170, 8193, 8300,5.309821367263794
25, 8153, 8188, 8169, 8172, 8131, 8186, 8133, 8165, 8218, 8198, 8174, 8181, 8203, 8312,5.317853927612305
26, 8182, 8212, 8188, 8201, 8142, 8197, 8128, 8167, 8217, 8197, 8173, 8196, 8212, 8312,5.3259055614471436
27, 8187, 8211, 8198, 8196, 8170, 8204, 8195, 8173, 8205, 8193, 8172, 8204, 8213, 8308,5.333700656890869
28, 8197, 8200, 8208, 8190, 8158, 8200, 8180, 8162, 8191, 8177, 8176, 8212, 8222, 8324,5.341879844665527
29, 8203, 8200, 8182, 8198, 8134, 8204, 8121, 8145, 8189, 8170, 8175, 8204, 8228, 8342,5.349873781204224
30, 8192, 8198, 8165, 8185, 8150, 8214, 8171, 8165, 8195, 8181, 8158, 8192, 8220, 8335,5.357823848724365
31, 8149, 8181, 8129, 8160, 8124, 8200, 8142, 8175, 8207, 8199, 8149, 8170, 8216, 8317,5.365732908248901
32, 8142, 8181, 8156, 8154, 8165, 8197, 8198, 8191, 8216, 8215, 8162, 8159, 8212, 8299,5.372888088226318
33, 8157, 8184, 8179, 8153, 8172, 8214, 8188, 8196, 8232, 8226, 8166, 8164, 8213, 8298,5.380663871765137
34, 8137, 8166, 8137, 8140, 8139, 8219, 8130, 8193, 8258, 8242, 8161, 8164, 8227, 8308,5.388816595077515
35, 8139, 8157, 8172, 8130, 8186, 8224, 8215, 8208, 8260, 8241, 8172, 8173, 8224, 8307,5.396754026412964
36, 8129, 8156, 8163, 8135, 8160, 8223, 8147, 8187, 8250, 8223, 8170, 8164, 8208, 8301,5.404724597930908
37, 8122, 8158, 8143, 8141, 8166, 8225, 8151, 8183, 8248, 8216, 8161, 8158, 8200, 8295,5.412822961807251
38, 8169, 8171, 8194, 8155, 8189, 8239, 8204, 8198, 8252, 8243, 8175, 8186, 8223, 8317,5.420742511749268
39, 8196, 8192, 8195, 8185, 8158, 8244, 8140, 8180, 8248, 8256, 8188, 8201, 8242, 8351,5.428815126419067
40, 8186, 8212, 8191, 8200, 8188, 8239, 8175, 8179, 8230, 8222, 8181, 8192, 8221, 8345,5.43578577041626
41, 8174, 8214, 8178, 8200, 8184, 8238, 8156, 8171, 8215, 8200, 8174, 8178, 8217, 8329,5.443863391876221
42, 8184, 8213, 8182, 8200, 8184, 8247, 8166, 8144, 8188, 8173, 8171, 8181, 8218, 8332,5.451909065246582
43, 8194, 8212, 8187, 8198, 8179, 8245, 8161, 8134, 8168, 8144, 8172, 8196, 8208, 8351,5.459865093231201
44, 8189, 8207, 8151, 8193, 8161, 8224, 8136, 8148, 8180, 8160, 8178, 8194, 8213, 8369,5.4676759243011475
45, 8206, 8204, 8203, 8186, 8223, 8212, 8269, 8174, 8171, 8176, 8175, 8197, 8204, 8357,5.4757513999938965
46, 8190, 8190, 8200, 8176, 8188, 8206, 8182, 8144, 8156, 8175, 8156, 8182, 8187, 8331,5.483757019042969
47, 8140, 8174, 8128, 8157, 8154, 8199, 8103, 8131, 8171, 8188, 8146, 8154, 8185, 8315,5.491628885269165
48, 8136, 8164, 8161, 8140, 8204, 8204, 8218, 8175, 8193, 8204, 8160, 8161, 8188, 8314,5.498752117156982
49, 8147, 8166, 8180, 8150, 8183, 8208, 8175, 8181, 8200, 8201, 8176, 8174, 8197, 8335,5.506640911102295
50, 8165, 8182, 8161, 8171, 8147, 8207, 8125, 8173, 8205, 8205, 8179, 8175, 8208, 8357,5.514748573303223
51, 8174, 8180, 8152, 8171, 8118, 8206, 8133, 8180, 8213, 8224, 8168, 8171, 8206, 8346,5.522770643234253
52, 8163, 8165, 8161, 8154, 8133, 8208, 8177, 8185, 8208, 8222, 8162, 8168, 8194, 8324,5.530972003936768
53, 8160, 8165, 8166, 8157, 8145, 8210, 8175, 8182, 8205, 8208, 8174, 8168, 8193, 8333,5.5417609214782715
54, 8138, 8161, 8125, 8161, 8120, 8220, 8127, 8174, 8216, 8202, 8174, 8156, 8190, 8334,5.546692132949829
55, 8142, 8160, 8162, 8154, 8179, 8245, 8231, 8180, 8205, 8184, 8170, 8164, 8172, 8305,5.554799795150757
56, 8168, 8173, 8189, 8170, 8167, 8249, 8165, 8145, 8174, 8168, 8182, 8185, 8182, 8314,5.56272554397583
57, 8190, 8189, 8179, 8198, 8168, 8239, 8138, 8129, 8154, 8147, 8185, 8199, 8201, 8350,5.569713830947876
58, 8215, 8201, 8237, 8201, 8238, 8246, 8273, 8160, 8130, 8111, 8173, 8206, 8178, 8339,5.577582359313965
59, 8193, 8191, 8200, 8191, 8164, 8231, 8140, 8129, 8115, 8115, 8166, 8188, 8170, 8322,5.585663080215454
60, 8172, 8185, 8149, 8192, 8130, 8213, 8096, 8119, 8125, 8147, 8173, 8180, 8194, 8341,5.593578577041626
61, 8176, 8190, 8172, 8188, 8181, 8229, 8193, 8157, 8146, 8159, 8169, 8180, 8196, 8349,5.601722717285156
62, 8152, 8183, 8160, 8168, 8183, 8238, 8177, 8165, 8167, 8178, 8161, 8164, 8183, 8326,5.609737157821655
63, 8148, 8172, 8154, 8161, 8165, 8227, 8145, 8170, 8189, 8208, 8173, 8179, 8206, 8322,5.61769962310791
64, 8169, 8177, 8148, 8168, 8156, 8226, 8131, 8188, 8218, 8215, 8172, 8189, 8233, 8340,5.625574350357056
65, 8179, 8186, 8171, 8162, 8203, 8226, 8218, 8209, 8223, 8207, 8166, 8173, 8214, 8334,5.63266134262085
66, 8170, 8177, 8182, 8160, 8166, 8203, 8160, 8196, 8213, 8222, 8179, 8175, 8200, 8321,5.640794992446899
67, 8177, 8178, 8166, 8186, 8127, 8195, 8100, 8185, 8220, 8241, 8186, 8198, 8224, 8335,5.64862060546875
68, 8213, 8191, 8200, 8196, 8174, 8208, 8185, 8203, 8218, 8222, 8180, 8218, 8229, 8351,5.656554698944092
69, 8211, 8191, 8180, 8190, 8142, 8202, 8101, 8181, 8216, 8211, 8183, 8223, 8230, 8371,5.6646811962127686
70, 8231, 8201, 8213, 8206, 8192, 8204, 8190, 8184, 8216, 8213, 8190, 8241, 8245, 8389,5.672565460205078
71, 8267, 8209, 8273, 8210, 8228, 8205, 8281, 8199, 8191, 8198, 8183, 8244, 8238, 8376,5.680583953857422
72, 8209, 8192, 8180, 8193, 8130, 8184, 8110, 8164, 8166, 8159, 8173, 8194, 8214, 8343,5.688617706298828
73, 8174, 8189, 8151, 8186, 8151, 8192, 8141, 8163, 8153, 8126, 8174, 8175, 8191, 8320,5.6966352462768555
74, 8211, 8200, 8189, 8193, 8182, 8211, 8178, 8168, 8156, 8147, 8175, 8201, 8200, 8327,5.70353102684021
75, 8225, 8196, 8185, 8193, 8171, 8210, 8157, 8165, 8163, 8157, 8177, 8211, 8217, 8339,5.711597681045532
76, 8193, 8171, 8162, 8175, 8164, 8209, 8154, 8174, 8169, 8143, 8183, 8197, 8209, 8325,5.719695329666138
77, 8159, 8156, 8138, 8148, 8171, 8213, 8163, 8192, 8188, 8171, 8186, 8188, 8207, 8307,5.727774620056152
78, 8165, 8158, 8184, 8131, 8212, 8223, 8236, 8232, 8219, 8208, 8182, 8199, 8211, 8300,5.735742568969727
79, 8143, 8137, 8143, 8131, 8142, 8228, 8102, 8220, 8250, 8222, 8176, 8180, 8217, 8306,5.74375581741333
80, 8142, 8133, 8147, 8127, 8193, 8222, 8202, 8216, 8241, 8224, 8189, 8177, 8214, 8308,5.7517266273498535
81, 8198, 8162, 8251, 8127, 8262, 8209, 8340, 8227, 8216, 8219, 8203, 8217, 8222, 8317,5.759676456451416
82, 8182, 8163, 8194, 8141, 8146, 8190, 8116, 8178, 8221, 8219, 8184, 8203, 8241, 8328,5.767009735107422
83, 8166, 8160, 8167, 8150, 8166, 8184, 8146, 8176, 8229, 8225, 8170, 8180, 8232, 8324,5.7747814655303955
84, 8193, 8173, 8210, 8166, 8196, 8184, 8206, 8193, 8239, 8236, 8177, 8196, 8228, 8328,5.782711744308472
85, 8175, 8172, 8152, 8171, 8122, 8175, 8074, 8167, 8248, 8236, 8173, 8183, 8226, 8324,5.79081654548645
86, 8157, 8168, 8117, 8148, 8121, 8178, 8087, 8161, 8240, 8216, 8165, 8159, 8196, 8303,5.798742771148682
87, 8178, 8178, 8171, 8145, 8181, 8192, 8213, 8175, 8229, 8188, 8169, 8161, 8170, 8293,5.806607484817505
88, 8210, 8190, 8258, 8183, 8237, 8194, 8310, 8186, 8199, 8150, 8172, 8181, 8150, 8288,5.814621925354004
89, 8192, 8194, 8219, 8207, 8154, 8171, 8140, 8153, 8163, 8121, 8159, 8181, 8137, 8282,5.822767734527588
90, 8165, 8198, 8155, 8197, 8123, 8164, 8096, 8139, 8149, 8107, 8152, 8173, 8134, 8279,5.829559326171875
91, 8186, 8192, 8207, 8193, 8194, 8189, 8233, 8170, 8145, 8115, 8161, 8187, 8139, 8279,5.8377532958984375
92, 8165, 8169, 8170, 8196, 8135, 8191, 8099, 8154, 8155, 8132, 8154, 8181, 8151, 8279,5.845702409744263
93, 8117, 8160, 8091, 8187, 8096, 8176, 8034, 8142, 8177, 8132, 8143, 8157, 8151, 8268,5.853519678115845
94, 8123, 8173, 8112, 8188, 8136, 8184, 8143, 8179, 8196, 8151, 8154, 8153, 8158, 8264,5.861815929412842
95, 8150, 8178, 8151, 8188, 8163, 8199, 8198, 8211, 8206, 8178, 8162, 8162, 8164, 8271,5.8697614669799805
96, 8159, 8167, 8170, 8176, 8177, 8194, 8209, 8209, 8202, 8165, 8157, 8168, 8146, 8264,5.877735614776611
97, 8153, 8166, 8157, 8178, 8156, 8190, 8149, 8186, 8195, 8146, 8155, 8156, 8144, 8258,5.885746955871582
98, 8158, 8191, 8157, 8194, 8160, 8210, 8151, 8191, 8195, 8160, 8156, 8154, 8158, 8266,5.893688917160034
99, 8154, 8199, 8153, 8198, 8151, 8213, 8146, 8196, 8199, 8169, 8151, 8154, 8147, 8262,5.90079402923584
100, 8140, 8190, 8152, 8193, 8162, 8206, 8176, 8188, 8185, 8134, 8149, 8137, 8118, 8235,5.908711910247803
101, 8141, 8191, 8174, 8194, 8174, 8216, 8197, 8178, 8158, 8097, 8151, 8135, 8106, 8213,5.916903495788574
102, 8125, 8186, 8129, 8199, 8122, 8205, 8095, 8151, 8153, 8106, 8148, 8141, 8123, 8215,5.924833536148071
103, 8149, 8192, 8187, 8201, 8213, 8183, 8275, 8174, 8152, 8109, 8152, 8161, 8124, 8225,5.932792663574219
104, 8189, 8201, 8270, 8193, 8247, 8176, 8328, 8186, 8152, 8099, 8159, 8183, 8114, 8245,5.94074559211731
105, 8144, 8179, 8149, 8171, 8090, 8166, 8015, 8137, 8159, 8125, 8151, 8167, 8129, 8266,5.948822736740112
106, 8107, 8158, 8081, 8159, 8086, 8152, 8022, 8130, 8146, 8127, 8141, 8152, 8127, 8253,5.956712245941162
107, 8120, 8154, 8136, 8155, 8171, 8141, 8179, 8136, 8126, 8092, 8142, 8151, 8108, 8227,5.963773250579834
108, 8148, 8157, 8180, 8157, 8206, 8143, 8217, 8139, 8122, 8103, 8151, 8164, 8107, 8239,5.97171950340271
109, 8181, 8168, 8200, 8170, 8199, 8160, 8188, 8162, 8135, 8144, 8155, 8188, 8120, 8273,5.979662179946899
110, 8173, 8187, 8178, 8193, 8177, 8158, 8140, 8170, 8163, 8147, 8153, 8185, 8128, 8278,5.987736225128174
111, 8170, 8197, 8186, 8210, 8198, 8154, 8187, 8176, 8170, 8125, 8161, 8174, 8127, 8264,5.995727300643921
112, 8190, 8192, 8189, 8208, 8170, 8177, 8155, 8180, 8162, 8127, 8168, 8174, 8132, 8275,6.003673553466797
113, 8199, 8202, 8178, 8214, 8161, 8195, 8139, 8181, 8163, 8124, 8171, 8171, 8134, 8287,6.0116517543792725
114, 8198, 8215, 8198, 8230, 8197, 8183, 8177, 8174, 8152, 8097, 8177, 8176, 8130, 8274,6.019759893417358
115, 8189, 8206, 8183, 8226, 8194, 8171, 8143, 8156, 8128, 8094, 8172, 8190, 8138, 8280,6.026855945587158
116, 8195, 8202, 8171, 8217, 8197, 8177, 8149, 8159, 8128, 8119, 8178, 8211, 8167, 8313,6.034639120101929
117, 8197, 8210, 8155, 8220, 8171, 8184, 8124, 8162, 8148, 8143, 8194, 8220, 8206, 8334,6.042884111404419
118, 8193, 8206, 8169, 8207, 8195, 8187, 8184, 8182, 8153, 8157, 8190, 8217, 8220, 8327,6.050817251205444
119, 8199, 8183, 8200, 8178, 8216, 8181, 8238, 8205, 8157, 8164, 8179, 8211, 8215, 8318,6.058858394622803
120, 8180, 8172, 8146, 8177, 8150, 8164, 8125, 8186, 8186, 8184, 8176, 8203, 8230, 8338,6.066778182983398
121, 8198, 8190, 8188, 8190, 8205, 8174, 8220, 8206, 8200, 8211, 8180, 8228, 8248, 8360,6.074964284896851
122, 8233, 8196, 8246, 8193, 8228, 8190, 8238, 8225, 8203, 8230, 8184, 8238, 8256, 8353,6.082805633544922
123, 8210, 8187, 8171, 8204, 8156, 8188, 8112, 8202, 8223, 8237, 8188, 8206, 8262, 8343,6.090687274932861
124, 8188, 8188, 8161, 8209, 8162, 8194, 8156, 8210, 8234, 8236, 8191, 8208, 8265, 8360,6.09797739982605
125, 8194, 8182, 8184, 8203, 8155, 8196, 8166, 8209, 8225, 8232, 8180, 8227, 8261, 8378,6.105870962142944
126, 8204, 8181, 8172, 8201, 8150, 8193, 8179, 8197, 8210, 8199, 8172, 8214, 8235, 8359,6.113787889480591
127, 8194, 8196, 8160, 8206, 8143, 8190, 8150, 8188, 8202, 8173, 8172, 8194, 8214, 8338,6.121888160705566
238, 8180, 8197, 8165, 8209, 8153, 8197, 8154, 8179, 8189, 8170, 8162, 8188, 8203, 8326,6.129847764968872
0, 8204, 8185, 8199, 8211, 8182, 8219, 8215, 8173, 8165, 8159, 8157, 8194, 8188, 8314,6.137698411941528
1, 8209, 8193, 8170, 8222, 8137, 8223, 8111, 8146, 8170, 8167, 8169, 8190, 8198, 8331,6.145877122879028
2, 8213, 8216, 8183, 8229, 8180, 8215, 8189, 8165, 8184, 8188, 8177, 8197, 8202, 8338,6.153879165649414
3, 8218, 8214, 8215, 8220, 8195, 8211, 8248, 8185, 8184, 8189, 8168, 8205, 8190, 8313,6.160619497299194
4, 8179, 8192, 8152, 8208, 8128, 8203, 8113, 8158, 8198, 8186, 8166, 8175, 8198, 8294,6.16879940032959
5, 8167, 8182, 8151, 8195, 8157, 8196, 8152, 8167, 8202, 8196, 8166, 8160, 8195, 8282,6.176745891571045
6, 8171, 8173, 8157, 8178, 8153, 8189, 8166, 8182, 8194, 8210, 8156, 8163, 8186, 8270,6.184742450714111
7, 8150, 8159, 8133, 8156, 8154, 8184, 8162, 8181, 8192, 8203, 8159, 8156, 8183, 8264,6.192680358886719
8, 8136, 8148, 8139, 8145, 8171, 8180, 8171, 8176, 8182, 8184, 8164, 8153, 8170, 8261,6.20071005821228
9, 8137, 8149, 8137, 8153, 8142, 8182, 8128, 8171, 8174, 8182, 8156, 8160, 8164, 8264,6.208869934082031
10, 8156, 8160, 8164, 8161, 8160, 8199, 8176, 8183, 8185, 8198, 8163, 8178, 8180, 8283,6.216822624206543
11, 8158, 8164, 8161, 8167, 8156, 8202, 8160, 8169, 8195, 8194, 8177, 8183, 8193, 8300,6.22389817237854
12, 8161, 8167, 8166, 8179, 8166, 8189, 8181, 8161, 8177, 8166, 8176, 8178, 8186, 8289,6.231822967529297
13, 8172, 8171, 8178, 8191, 8159, 8181, 8172, 8160, 8157, 8156, 8174, 8177, 8178, 8279,6.239671468734741
14, 8163, 8174, 8145, 8194, 8142, 8185, 8132, 8151, 8162, 8162, 8175, 8170, 8179, 8284,6.247871398925781
15, 8181, 8185, 8203, 8188, 8205, 8196, 8265, 8177, 8163, 8158, 8170, 8180, 8166, 8280,6.255837678909302
16, 8187, 8185, 8214, 8190, 8143, 8186, 8171, 8174, 8173, 8172, 8169, 8185, 8166, 8286,6.263699293136597
17, 8177, 8182, 8155, 8190, 8108, 8177, 8104, 8160, 8192, 8178, 8178, 8171, 8183, 8299,6.271871328353882
18, 8194, 8181, 8192, 8179, 8187, 8180, 8247, 8183, 8186, 8165, 8173, 8178, 8180, 8289,6.279833078384399
19, 8180, 8169, 8196, 8177, 8148, 8175, 8176, 8176, 8181, 8181, 8156, 8178, 8169, 8275,6.287633895874023
20, 8161, 8168, 8157, 8182, 8114, 8178, 8114, 8170, 8189, 8192, 8160, 8171, 8162, 8276,6.294811487197876
21, 8157, 8162, 8139, 8171, 8136, 8185, 8138, 8172, 8186, 8182, 8170, 8170, 8159, 8274,6.302743911743164
22, 8144, 8148, 8147, 8153, 8160, 8181, 8174, 8170, 8175, 8170, 8165, 8165, 8153, 8260,6.31099796295166
23, 8141, 8149, 8168, 8152, 8148, 8182, 8153, 8172, 8174, 8160, 8169, 8167, 8145, 8265,6.318790674209595
24, 8138, 8153, 8143, 8149, 8125, 8188, 8100, 8166, 8171, 8161, 8174, 8166, 8147, 8275,6.326849699020386
25, 8141, 8151, 8157, 8137, 8168, 8187, 8194, 8182, 8161, 8156, 8171, 8171, 8140, 8261,6.334890365600586
26, 8138, 8150, 8153, 8147, 8132, 8182, 8136, 8183, 8166, 8151, 8168, 8174, 8150, 8260,6.342827081680298
27, 8142, 8158, 8143, 8161, 8136, 8181, 8118, 8174, 8164, 8147, 8164, 8172, 8150, 8269,6.350923538208008
28, 8170, 8174, 8210, 8162, 8213, 8189, 8267, 8191, 8153, 8127, 8166, 8180, 8122, 8265,6.357839584350586
29, 8164, 8182, 8187, 8178, 8152, 8196, 8167, 8190, 8181, 8142, 8173, 8175, 8142, 8278,6.365789413452148
30, 8159, 8185, 8156, 8197, 8143, 8211, 8141, 8198, 8203, 8181, 8173, 8171, 8183, 8288,6.373866558074951
31, 8174, 8185, 8184, 8198, 8148, 8227, 8205, 8202, 8195, 8192, 8170, 8173, 8178, 8269,6.381864547729492
32, 8162, 8182, 8159, 8192, 8062, 8223, 8148, 8184, 8202, 8192, 8174, 8162, 8167, 8268,6.389662742614746
33, 8150, 8165, 8153, 8175, 8058, 8210, 8158, 8180, 8202, 8195, 8170, 8153, 8160, 8276,6.397903680801392
34, 8135, 8140, 8148, 8143, 8108, 8193, 8150, 8157, 8168, 8182, 8151, 8138, 8139, 8251,6.40581750869751
35, 8131, 8139, 8148, 8124, 8156, 8178, 8163, 8146, 8148, 8164, 8153, 8138, 8130, 8238,6.41380763053894
36, 8149, 8146, 8149, 8136, 8139, 8177, 8135, 8159, 8174, 8178, 8175, 8155, 8145, 8257,6.420730113983154
37, 8150, 8146, 8143, 8155, 8135, 8185, 8134, 8168, 8188, 8171, 8175, 8152, 8145, 8259,6.428815126419067
38, 8159, 8154, 8183, 8157, 8187, 8177, 8211, 8174, 8157, 8133, 8167, 8152, 8127, 8251,6.436852931976318
39, 8156, 8155, 8158, 8148, 8129, 8155, 8104, 8150, 8138, 8137, 8167, 8154, 8136, 8262,6.444812059402466
40, 8158, 8160, 8161, 8151, 8157, 8157, 8165, 8160, 8138, 8149, 8171, 8161, 8146, 8264,6.45284628868103
41, 8174, 8174, 8221, 8167, 8226, 8164, 8254, 8181, 8135, 8134, 8177, 8173, 8142, 8261,6.460895538330078
42, 8148, 8168, 8172, 8168, 8152, 8160, 8103, 8148, 8143, 8131, 8173, 8159, 8149, 8267,6.468830108642578
43, 8139, 8152, 8148, 8153, 8145, 8185, 8129, 8156, 8155, 8143, 8157, 8148, 8146, 8259,6.476727247238159
44, 8167, 8158, 8169, 8160, 8179, 8203, 8181, 8182, 8184, 8168, 8151, 8164, 8156, 8273,6.4849021434783936
45, 8191, 8182, 8180, 8188, 8193, 8192, 8179, 8186, 8226, 8190, 8164, 8186, 8185, 8303,6.491659164428711
46, 8198, 8189, 8204, 8201, 8200, 8194, 8190, 8191, 8239, 8193, 8166, 8190, 8196, 8303,6.499986410140991
47, 8176, 8172, 8177, 8193, 8180, 8197, 8152, 8181, 8232, 8202, 8156, 8174, 8194, 8293,6.507751941680908
48, 8174, 8169, 8167, 8190, 8186, 8186, 8176, 8179, 8220, 8209, 8152, 8174, 8187, 8290,6.515794992446899
49, 8166, 8159, 8150, 8172, 8140, 8175, 8107, 8171, 8211, 8188, 8131, 8159, 8158, 8277,6.523891448974609
50, 8145, 8135, 8145, 8133, 8157, 8176, 8135, 8176, 8198, 8158, 8119, 8131, 8116, 8250,6.531893014907837
51, 8145, 8126, 8178, 8119, 8205, 8185, 8213, 8184, 8192, 8158, 8140, 8139, 8123, 8247,6.539689302444458
52, 8134, 8128, 8146, 8131, 8157, 8188, 8122, 8161, 8200, 8170, 8159, 8154, 8165, 8259,6.5478596687316895
53, 8164, 8140, 8181, 8138, 8192, 8187, 8204, 8177, 8195, 8162, 8164, 8178, 8172, 8271,6.555888891220093
54, 8207, 8150, 8221, 8143, 8190, 8182, 8216, 8180, 8183, 8163, 8162, 8193, 8171, 8292,6.56284761428833
55, 8185, 8155, 8162, 8148, 8141, 8179, 8123, 8149, 8176, 8161, 8152, 8171, 8182, 8299,6.570888996124268
56, 8168, 8168, 8165, 8159, 8178, 8180, 8173, 8148, 8171, 8143, 8159, 8175, 8185, 8285,6.578858137130737
57, 8180, 8178, 8180, 8184, 8179, 8175, 8167, 8150, 8181, 8158, 8175, 8201, 8198, 8293,6.586930274963379
58, 8212, 8190, 8196, 8189, 8196, 8181, 8203, 8166, 8196, 8194, 8173, 8209, 8209, 8320,6.59496808052063
59, 8227, 8193, 8196, 8170, 8179, 8174, 8188, 8165, 8194, 8198, 8158, 8198, 8208, 8317,6.602888107299805
60, 8199, 8177, 8164, 8167, 8150, 8154, 8137, 8156, 8190, 8184, 8156, 8185, 8201, 8293,6.610896110534668
61, 8159, 8153, 8156, 8151, 8188, 8156, 8178, 8173, 8192, 8180, 8155, 8172, 8178, 8273,6.61880350112915
62, 8112, 8131, 8117, 8113, 8185, 8170, 8155, 8180, 8203, 8181, 8149, 8148, 8159, 8264,6.6268956661224365
63, 8105, 8126, 8126, 8106, 8196, 8177, 8199, 8199, 8218, 8177, 8157, 8141, 8156, 8256,6.633893251419067
64, 8118, 8125, 8151, 8124, 8180, 8168, 8166, 8199, 8230, 8183, 8168, 8145, 8162, 8245,6.641678810119629
65, 8117, 8132, 8141, 8127, 8187, 8172, 8151, 8187, 8229, 8196, 8158, 8146, 8167, 8242,6.649688243865967
66, 8148, 8149, 8201, 8137, 8243, 8205, 8276, 8215, 8225, 8195, 8152, 8168, 8164, 8247,6.6576831340789795
67, 8170, 8157, 8200, 8161, 8164, 8205, 8149, 8209, 8245, 8207, 8165, 8183, 8190, 8276,6.665652751922607
68, 8176, 8167, 8170, 8168, 8142, 8176, 8101, 8181, 8236, 8208, 8175, 8186, 8209, 8305,6.673769235610962
69, 8180, 8169, 8193, 8155, 8198, 8167, 8199, 8166, 8178, 8165, 8164, 8185, 8188, 8294,6.68160605430603
70, 8162, 8153, 8169, 8146, 8165, 8154, 8146, 8138, 8150, 8135, 8152, 8168, 8164, 8271,6.688709735870361
71, 8174, 8155, 8163, 8152, 8149, 8142, 8124, 8134, 8159, 8143, 8161, 8167, 8162, 8279,6.69676399230957
72, 8198, 8163, 8176, 8164, 8154, 8148, 8123, 8148, 8170, 8156, 8171, 8185, 8182, 8311,6.7046520709991455
73, 8194, 8154, 8183, 8159, 8176, 8161, 8182, 8166, 8177, 8160, 8170, 8199, 8198, 8319,6.712885618209839
74, 8185, 8142, 8184, 8156, 8165, 8163, 8175, 8166, 8190, 8184, 8169, 8199, 8200, 8311,6.720785617828369
75, 8168, 8140, 8160, 8162, 8149, 8158, 8123, 8154, 8198, 8194, 8154, 8178, 8194, 8297,6.728836536407471
76, 8172, 8144, 8194, 8157, 8206, 8169, 8228, 8170, 8185, 8165, 8144, 8172, 8174, 8267,6.736871004104614
77, 8172, 8147, 8183, 8155, 8166, 8169, 8154, 8159, 8191, 8169, 8161, 8176, 8180, 8265,6.744865894317627
78, 8176, 8159, 8170, 8162, 8178, 8151, 8139, 8157, 8208, 8201, 8176, 8190, 8207, 8290,6.75190281867981
79, 8207, 8169, 8227, 8165, 8240, 8155, 8246, 8182, 8200, 8197, 8177, 8211, 8212, 8296,6.759857892990112
80, 8192, 8157, 8179, 8165, 8161, 8169, 8130, 8157, 8192, 8177, 8177, 8196, 8208, 8285,6.767767667770386
81, 8181, 8158, 8161, 8178, 8162, 8173, 8130, 8146, 8193, 8175, 8187, 8192, 8204, 8286,6.775901556015015
82, 8203, 8179, 8204, 8196, 8207, 8175, 8187, 8157, 8192, 8185, 8184, 8208, 8206, 8295,6.783872842788696
83, 8204, 8186, 8202, 8196, 8225, 8190, 8201, 8161, 8181, 8172, 8163, 8200, 8196, 8290,6.7917633056640625
84, 8192, 8176, 8192, 8192, 8213, 8194, 8182, 8163, 8169, 8155, 8153, 8189, 8177, 8285,6.799901485443115
85, 8184, 8178, 8157, 8199, 8161, 8178, 8097, 8145, 8172, 8162, 8150, 8185, 8178, 8294,6.807887554168701
86, 8201, 8183, 8175, 8194, 8207, 8184, 8195, 8166, 8176, 8163, 8151, 8191, 8195, 8296,6.815672397613525
87, 8186, 8159, 8171, 8170, 8198, 8190, 8179, 8184, 8184, 8178, 8161, 8186, 8216, 8300,6.822879076004028
88, 8145, 8147, 8135, 8159, 8160, 8186, 8115, 8173, 8202, 8209, 8171, 8167, 8215, 8301,6.8309855461120605
89, 8160, 8154, 8166, 8163, 8189, 8190, 8177, 8168, 8211, 8208, 8174, 8173, 8208, 8291,6.83889365196228
90, 8166, 8142, 8151, 8163, 8177, 8200, 8137, 8146, 8206, 8201, 8171, 8182, 8219, 8288,6.846867322921753
91, 8157, 8140, 8158, 8158, 8211, 8206, 8194, 8157, 8195, 8206, 8177, 8179, 8219, 8283,6.8548266887664795
92, 8163, 8152, 8187, 8161, 8205, 8194, 8204, 8177, 8195, 8196, 8176, 8166, 8203, 8269,6.862881898880005
93, 8163, 8156, 8162, 8168, 8162, 8185, 8130, 8165, 8200, 8187, 8170, 8162, 8200, 8271,6.8697593212127686
94, 8171, 8150, 8168, 8161, 8188, 8191, 8171, 8159, 8190, 8197, 8180, 8181, 8204, 8287,6.87883448600769
95, 8163, 8141, 8163, 8150, 8168, 8185, 8159, 8156, 8186, 8198, 8183, 8174, 8194, 8286,6.885725736618042
96, 8167, 8150, 8182, 8169, 8175, 8184, 8195, 8169, 8179, 8167, 8174, 8168, 8177, 8263,6.893781661987305
97, 8203, 8181, 8228, 8218, 8192, 8187, 8190, 8155, 8157, 8151, 8180, 8209, 8184, 8276,6.901734828948975
98, 8218, 8204, 8222, 8254, 8178, 8178, 8133, 8125, 8142, 8154, 8205, 8241, 8214, 8311,6.909760236740112
99, 8212, 8202, 8226, 8246, 8187, 8197, 8160, 8140, 8140, 8125, 8203, 8236, 8206, 8292,6.917720317840576
100, 8194, 8194, 8209, 8233, 8155, 8210, 8113, 8145, 8135, 8109, 8181, 8225, 8182, 8269,6.925752401351929
101, 8214, 8211, 8232, 8264, 8179, 8184, 8178, 8158, 8129, 8126, 8192, 8253, 8192, 8295,6.933669090270996
102, 8242, 8223, 8260, 8303, 8187, 8176, 8202, 8175, 8144, 8135, 8204, 8276, 8219, 8310,6.940691709518433
103, 8209, 8195, 8198, 8292, 8155, 8198, 8118, 8165, 8164, 8145, 8187, 8245, 8231, 8283,6.9486305713653564
104, 8211, 8186, 8212, 8265, 8194, 8193, 8202, 8170, 8152, 8158, 8182, 8232, 8221, 8273,6.956722021102905
105, 8238, 8195, 8220, 8259, 8161, 8164, 8162, 8167, 8148, 8172, 8185, 8244, 8219, 8298,6.964677095413208
106, 8222, 8187, 8166, 8243, 8142, 8171, 8113, 8169, 8166, 8177, 8174, 8229, 8217, 8310,6.97275447845459
107, 8195, 8171, 8159, 8204, 8170, 8190, 8168, 8181, 8171, 8182, 8162, 8200, 8211, 8295,6.98063325881958
108, 8183, 8157, 8158, 8188, 8153, 8192, 8147, 8181, 8172, 8188, 8157, 8185, 8206, 8292,6.988641738891602
109, 8192, 8162, 8165, 8204, 8161, 8197, 8155, 8181, 8173, 8170, 8158, 8193, 8192, 8300,6.996822357177734
110, 8184, 8162, 8146, 8200, 8149, 8202, 8123, 8147, 8169, 8158, 8159, 8185, 8185, 8288,7.004725456237793
111, 8174, 8156, 8154, 8189, 8172, 8210, 8172, 8129, 8165, 8165, 8154, 8171, 8180, 8269,7.01271915435791
112, 8182, 8154, 8178, 8209, 8181, 8211, 8192, 8133, 8161, 8154, 8155, 8174, 8172, 8271,7.019700288772583
113, 8172, 8152, 8134, 8214, 8142, 8202, 8124, 8123, 8158, 8123, 8156, 8167, 8167, 8282,7.027695178985596
114, 8193, 8152, 8181, 8182, 8219, 8215, 8270, 8160, 8146, 8120, 8152, 8176, 8162, 8275,7.0355846881866455
115, 8209, 8151, 8214, 8168, 8205, 8226, 8226, 8176, 8146, 8149, 8156, 8186, 8178, 8276,7.043736219406128
116, 8170, 8140, 8136, 8162, 8128, 8209, 8085, 8143, 8146, 8145, 8153, 8162, 8181, 8276,7.051685333251953
117, 8149, 8113, 8128, 8126, 8165, 8195, 8168, 8142, 8125, 8120, 8143, 8145, 8149, 8244,7.059672594070435
118, 8157, 8102, 8146, 8131, 8169, 8188, 8167, 8150, 8126, 8149, 8154, 8159, 8158, 8240,7.067666530609131
119, 8183, 8132, 8174, 8174, 8172, 8175, 8167, 8143, 8139, 8176, 8173, 8188, 8196, 8274,7.075787544250488
120, 8207, 8156, 8194, 8187, 8173, 8165, 8168, 8132, 8141, 8169, 8178, 8207, 8212, 8303,7.083840370178223
121, 8212, 8148, 8176, 8178, 8163, 8172, 8155, 8164, 8163, 8187, 8175, 8209, 8220, 8322,7.090851306915283
122, 8222, 8141, 8175, 8185, 8160, 8186, 8158, 8206, 8191, 8208, 8180, 8209, 8228, 8336,7.098804950714111
123, 8224, 8155, 8170, 8209, 8154, 8193, 8121, 8202, 8206, 8198, 8178, 8197, 8235, 8335,7.106889963150024
124, 8239, 8184, 8213, 8221, 8225, 8206, 8230, 8206, 8215, 8186, 8175, 8201, 8232, 8326,7.114876985549927
125, 8241, 8196, 8208, 8229, 8197, 8208, 8188, 8179, 8212, 8190, 8181, 8212, 8231, 8340,7.12265157699585
126, 8227, 8196, 8169, 8243, 8160, 8189, 8133, 8139, 8175, 8164, 8182, 8197, 8229, 8346,7.1307713985443115
127, 8245, 8195, 8237, 8240, 8232, 8178, 8270, 8149, 8123, 8118, 8180, 8192, 8208, 8321,7.138707637786865
238, 8232, 8183, 8210, 8222, 8171, 8169, 8161, 8128, 8111, 8116, 8182, 8190, 8206, 8310,7.145590782165527
0, 8204, 8188, 8154, 8222, 8134, 8168, 8105, 8119, 8128, 8147, 8189, 8185, 8219, 8312,7.153722524642944
1, 8200, 8193, 8184, 8222, 8170, 8187, 8180, 8156, 8152, 8170, 8185, 8182, 8219, 8299,7.161834955215454
2, 8190, 8175, 8169, 8196, 8165, 8200, 8159, 8162, 8175, 8170, 8169, 8176, 8221, 8295,7.169672727584839
3, 8199, 8171, 8167, 8191, 8198, 8188, 8184, 8165, 8182, 8176, 8178, 8188, 8230, 8309,7.177744626998901
4, 8194, 8175, 8168, 8199, 8191, 8172, 8156, 8173, 8193, 8203, 8192, 8188, 8232, 8307,7.185823202133179
5, 8174, 8173, 8164, 8188, 8172, 8180, 8157, 8179, 8203, 8208, 8185, 8172, 8223, 8283,7.193612575531006
6, 8183, 8167, 8160, 8178, 8168, 8193, 8144, 8177, 8201, 8195, 8171, 8175, 8231, 8285,7.201889991760254
7, 8198, 8175, 8158, 8184, 8193, 8190, 8143, 8185, 8203, 8208, 8170, 8187, 8246, 8305,7.208829402923584
8, 8206, 8187, 8192, 8192, 8228, 8190, 8220, 8210, 8211, 8215, 8175, 8190, 8235, 8305,7.216888189315796
9, 8188, 8174, 8161, 8201, 8165, 8185, 8125, 8186, 8216, 8197, 8164, 8173, 8225, 8303,7.224794864654541
10, 8203, 8173, 8174, 8196, 8199, 8192, 8179, 8186, 8208, 8184, 8160, 8176, 8227, 8313,7.232696056365967
11, 8243, 8196, 8249, 8190, 8256, 8209, 8286, 8213, 8196, 8184, 8174, 8197, 8225, 8318,7.240882635116577
12, 8218, 8197, 8198, 8206, 8170, 8208, 8140, 8180, 8202, 8180, 8171, 8181, 8216, 8303,7.248821496963501
13, 8202, 8192, 8161, 8213, 8163, 8219, 8122, 8170, 8209, 8164, 8161, 8175, 8204, 8291,7.25669527053833
14, 8205, 8199, 8166, 8200, 8184, 8227, 8147, 8178, 8203, 8168, 8163, 8180, 8202, 8297,7.264706134796143
15, 8187, 8195, 8159, 8192, 8198, 8216, 8166, 8162, 8180, 8170, 8168, 8160, 8192, 8288,7.272818088531494
16, 8194, 8196, 8186, 8196, 8220, 8224, 8207, 8150, 8155, 8144, 8163, 8160, 8177, 8278,7.279902458190918
17, 8203, 8205, 8169, 8198, 8194, 8239, 8142, 8148, 8166, 8141, 8165, 8171, 8188, 8301,7.287823438644409
18, 8185, 8190, 8146, 8180, 8197, 8231, 8140, 8161, 8181, 8163, 8170, 8160, 8191, 8307,7.2956225872039795
19, 8162, 8163, 8140, 8166, 8174, 8213, 8122, 8163, 8179, 8182, 8162, 8143, 8182, 8289,7.303854703903198
20, 8172, 8166, 8155, 8162, 8190, 8211, 8176, 8179, 8184, 8182, 8160, 8154, 8186, 8293,7.311676263809204
21, 8190, 8164, 8178, 8148, 8216, 8217, 8221, 8196, 8203, 8185, 8168, 8172, 8193, 8299,7.319732427597046
22, 8157, 8142, 8137, 8141, 8173, 8215, 8120, 8177, 8222, 8198, 8161, 8150, 8193, 8284,7.327574729919434
23, 8167, 8153, 8177, 8149, 8232, 8216, 8230, 8204, 8222, 8196, 8161, 8150, 8195, 8281,7.335612535476685
24, 8213, 8173, 8220, 8146, 8233, 8219, 8244, 8223, 8234, 8205, 8176, 8181, 8206, 8309,7.3436243534088135
25, 8194, 8163, 8157, 8136, 8165, 8222, 8117, 8192, 8247, 8203, 8167, 8176, 8195, 8319,7.350844383239746
26, 8162, 8145, 8148, 8133, 8191, 8222, 8166, 8178, 8221, 8159, 8143, 8149, 8153, 8278,7.358524322509766
27, 8161, 8142, 8150, 8133, 8182, 8207, 8170, 8157, 8180, 8135, 8136, 8133, 8133, 8250,7.366970539093018
28, 8181, 8151, 8159, 8143, 8190, 8200, 8195, 8151, 8153, 8136, 8150, 8150, 8125, 8256,7.374845027923584
29, 8192, 8157, 8184, 8152, 8203, 8202, 8186, 8158, 8147, 8127, 8164, 8171, 8121, 8272,7.382864236831665
30, 8195, 8164, 8178, 8154, 8194, 8209, 8149, 8156, 8163, 8124, 8162, 8169, 8140, 8293,7.390955686569214
31, 8213, 8167, 8179, 8163, 8199, 8215, 8172, 8169, 8173, 8146, 8159, 8170, 8154, 8304,7.3987860679626465
32, 8185, 8144, 8139, 8144, 8158, 8213, 8106, 8173, 8172, 8156, 8150, 8155, 8143, 8291,7.406718730926514
33, 8148, 8129, 8145, 8100, 8192, 8233, 8170, 8192, 8180, 8143, 8139, 8140, 8129, 8266,7.4139509201049805
34, 8149, 8139, 8165, 8097, 8216, 8247, 8206, 8196, 8197, 8149, 8145, 8139, 8135, 8254,7.421788930892944
35, 8138, 8133, 8125, 8107, 8191, 8227, 8148, 8179, 8202, 8165, 8156, 8132, 8138, 8251,7.429849863052368
36, 8139, 8121, 8154, 8090, 8225, 8212, 8224, 8207, 8201, 8165, 8165, 8150, 8132, 8258,7.437841176986694
37, 8164, 8138, 8184, 8108, 8196, 8207, 8186, 8214, 8213, 8184, 8177, 8177, 8153, 8282,7.4456627368927
38, 8187, 8160, 8181, 8144, 8179, 8204, 8153, 8192, 8202, 8188, 8180, 8176, 8163, 8288,7.453762769699097
39, 8180, 8146, 8173, 8127, 8191, 8206, 8160, 8184, 8190, 8156, 8172, 8160, 8149, 8282,7.461836576461792
40, 8170, 8136, 8151, 8112, 8173, 8202, 8136, 8192, 8213, 8167, 8179, 8158, 8158, 8287,7.4696478843688965
41, 8211, 8170, 8203, 8149, 8202, 8201, 8227, 8211, 8212, 8186, 8189, 8179, 8167, 8293,7.476885557174683
42, 8219, 8178, 8203, 8173, 8171, 8212, 8176, 8194, 8192, 8162, 8183, 8178, 8169, 8296,7.484772205352783
43, 8183, 8154, 8154, 8153, 8156, 8221, 8127, 8183, 8191, 8153, 8183, 8169, 8175, 8297,7.492577791213989
44, 8183, 8150, 8166, 8137, 8186, 8215, 8159, 8180, 8190, 8165, 8188, 8178, 8169, 8293,7.500608205795288
45, 8188, 8159, 8161, 8145, 8191, 8209, 8146, 8159, 8178, 8158, 8181, 8172, 8160, 8290,7.508745193481445
46, 8186, 8164, 8182, 8151, 8226, 8210, 8216, 8171, 8168, 8148, 8177, 8166, 8155, 8281,7.516714334487915
47, 8169, 8153, 8172, 8143, 8177, 8200, 8139, 8178, 8182, 8163, 8173, 8169, 8168, 8281,7.524808883666992
48, 8163, 8153, 8155, 8141, 8179, 8201, 8140, 8182, 8204, 8177, 8163, 8173, 8170, 8285,7.532712459564209
49, 8188, 8158, 8196, 8152, 8229, 8209, 8230, 8198, 8195, 8167, 8170, 8179, 8149, 8280,7.540882587432861
50, 8171, 8137, 8160, 8141, 8173, 8201, 8128, 8182, 8178, 8148, 8179, 8165, 8146, 8269,7.547663688659668
51, 8164, 8131, 8163, 8121, 8202, 8209, 8182, 8190, 8183, 8147, 8181, 8164, 8155, 8262,7.555950880050659
52, 8181, 8152, 8192, 8137, 8223, 8217, 8212, 8200, 8204, 8176, 8177, 8172, 8163, 8260,7.563838005065918
53, 8176, 8176, 8162, 8164, 8180, 8210, 8140, 8189, 8217, 8185, 8177, 8174, 8172, 8265,7.571644067764282
54, 8181, 8181, 8168, 8165, 8187, 8210, 8161, 8184, 8203, 8162, 8184, 8185, 8180, 8274,7.579877138137817
55, 8179, 8161, 8168, 8156, 8189, 8196, 8161, 8151, 8181, 8165, 8180, 8172, 8177, 8272,7.587801933288574
56, 8175, 8150, 8174, 8156, 8207, 8171, 8199, 8130, 8154, 8159, 8171, 8156, 8159, 8257,7.595679521560669
57, 8161, 8153, 8139, 8155, 8143, 8162, 8093, 8119, 8139, 8136, 8171, 8157, 8161, 8259,7.60385537147522
58, 8157, 8158, 8140, 8144, 8176, 8173, 8162, 8139, 8140, 8137, 8178, 8158, 8168, 8261,7.610855340957642
59, 8186, 8158, 8258, 8129, 8307, 8183, 8406, 8188, 8132, 8139, 8184, 8163, 8141, 8238,7.618870973587036
60, 8144, 8137, 8218, 8124, 8195, 8172, 8187, 8168, 8138, 8146, 8172, 8142, 8123, 8221,7.626819372177124
61, 8099, 8130, 8104, 8125, 8093, 8168, 8000, 8148, 8159, 8154, 8161, 8124, 8129, 8229,7.634769916534424
62, 8133, 8142, 8125, 8124, 8149, 8179, 8130, 8175, 8174, 8159, 8170, 8143, 8144, 8249,7.642715215682983
63, 8148, 8139, 8157, 8125, 8164, 8177, 8178, 8194, 8189, 8162, 8173, 8157, 8159, 8264,7.650760173797607
64, 8145, 8132, 8155, 8133, 8157, 8168, 8146, 8200, 8200, 8160, 8164, 8156, 8166, 8267,7.658715009689331
65, 8156, 8138, 8138, 8133, 8162, 8167, 8132, 8193, 8199, 8161, 8161, 8152, 8161, 8264,7.6668701171875
66, 8167, 8140, 8156, 8120, 8193, 8176, 8196, 8196, 8186, 8158, 8171, 8162, 8150, 8266,7.674827814102173
67, 8177, 8146, 8178, 8130, 8182, 8176, 8176, 8182, 8175, 8172, 8179, 8182, 8169, 8282,7.68174409866333
68, 8186, 8165, 8165, 8159, 8186, 8163, 8161, 8157, 8168, 8182, 8182, 8189, 8196, 8293,7.689697742462158
69, 8197, 8166, 8183, 8156, 8210, 8161, 8223, 8165, 8153, 8160, 8177, 8183, 8182, 8276,7.697645425796509
70, 8184, 8150, 8158, 8138, 8136, 8155, 8108, 8161, 8161, 8167, 8166, 8165, 8171, 8274,7.705821990966797
71, 8174, 8153, 8152, 8136, 8166, 8152, 8147, 8160, 8168, 8181, 8161, 8149, 8170, 8276,7.713715314865112
72, 8165, 8144, 8181, 8122, 8216, 8162, 8227, 8156, 8140, 8153, 8161, 8139, 8149, 8248,7.72163987159729
73, 8135, 8114, 8137, 8105, 8146, 8167, 8106, 8136, 8130, 8144, 8161, 8135, 8155, 8246,7.729682207107544
74, 8149, 8121, 8156, 8114, 8171, 8172, 8165, 8170, 8155, 8173, 8171, 8153, 8176, 8270,7.736611366271973
75, 8161, 8137, 8177, 8117, 8190, 8179, 8187, 8188, 8173, 8193, 8176, 8153, 8172, 8270,7.744638681411743
76, 8131, 8120, 8135, 8103, 8173, 8168, 8138, 8173, 8177, 8195, 8178, 8138, 8164, 8250,7.752695083618164
77, 8112, 8092, 8119, 8091, 8171, 8156, 8153, 8178, 8180, 8179, 8180, 8132, 8148, 8229,7.76072883605957
78, 8107, 8087, 8110, 8086, 8160, 8161, 8148, 8184, 8179, 8161, 8167, 8121, 8121, 8212,7.768946647644043
79, 8131, 8102, 8152, 8082, 8195, 8165, 8218, 8206, 8177, 8154, 8163, 8132, 8115, 8220,7.776647090911865
80, 8134, 8101, 8164, 8085, 8165, 8151, 8183, 8206, 8189, 8153, 8177, 8143, 8138, 8239,7.78476619720459
81, 8122, 8108, 8152, 8116, 8148, 8158, 8161, 8195, 8195, 8149, 8180, 8140, 8145, 8234,7.792722940444946
82, 8154, 8141, 8181, 8151, 8159, 8182, 8160, 8200, 8198, 8166, 8181, 8154, 8155, 8244,7.80078649520874
83, 8168, 8157, 8156, 8153, 8131, 8171, 8087, 8188, 8211, 8180, 8182, 8161, 8184, 8265,7.807726144790649
84, 8167, 8154, 8185, 8139, 8211, 8156, 8222, 8188, 8196, 8166, 8175, 8165, 8176, 8254,7.8156983852386475
85, 8174, 8149, 8221, 8144, 8218, 8163, 8224, 8175, 8180, 8168, 8177, 8178, 8169, 8259,7.823610305786133
86, 8170, 8152, 8174, 8157, 8152, 8163, 8114, 8151, 8182, 8176, 8188, 8179, 8192, 8291,7.831868410110474
87, 8184, 8163, 8192, 8158, 8199, 8157, 8210, 8163, 8158, 8166, 8178, 8185, 8195, 8290,7.839698076248169
88, 8181, 8159, 8208, 8150, 8199, 8152, 8206, 8167, 8145, 8159, 8158, 8175, 8180, 8275,7.84771990776062
89, 8147, 8141, 8180, 8135, 8167, 8145, 8169, 8159, 8147, 8150, 8157, 8149, 8160, 8262,7.8557963371276855
90, 8122, 8125, 8142, 8125, 8142, 8141, 8132, 8146, 8147, 8171, 8167, 8141, 8162, 8249,7.866624355316162
91, 8119, 8124, 8123, 8109, 8156, 8157, 8148, 8155, 8160, 8208, 8175, 8146, 8175, 8248,7.870627164840698
92, 8131, 8129, 8161, 8096, 8185, 8171, 8212, 8179, 8179, 8198, 8174, 8149, 8169, 8237,7.878605604171753
93, 8133, 8133, 8142, 8120, 8135, 8159, 8113, 8164, 8187, 8187, 8162, 8143, 8177, 8243,7.8866188526153564
94, 8154, 8150, 8147, 8142, 8164, 8165, 8151, 8184, 8193, 8211, 8162, 8156, 8195, 8278,7.894695520401001
95, 8163, 8159, 8162, 8141, 8159, 8181, 8156, 8200, 8206, 8219, 8169, 8163, 8197, 8295,7.902606964111328
96, 8142, 8146, 8134, 8132, 8135, 8172, 8125, 8183, 8207, 8203, 8164, 8148, 8193, 8284,7.9106714725494385
97, 8158, 8137, 8200, 8124, 8230, 8158, 8288, 8198, 8187, 8182, 8160, 8153, 8173, 8263,7.918699264526367
98, 8153, 8139, 8200, 8136, 8189, 8145, 8195, 8170, 8176, 8174, 8159, 8150, 8153, 8248,7.9267578125
99, 8131, 8154, 8134, 8162, 8122, 8145, 8077, 8134, 8173, 8174, 8167, 8141, 8154, 8247,7.934768199920654
100, 8151, 8169, 8153, 8170, 8170, 8154, 8159, 8150, 8166, 8180, 8181, 8151, 8168, 8260,7.941742897033691
101, 8153, 8170, 8171, 8169, 8193, 8146, 8181, 8151, 8164, 8179, 8180, 8142, 8169, 8257,7.9496541023254395
102, 8132, 8154, 8155, 8164, 8164, 8139, 8149, 8131, 8155, 8164, 8178, 8129, 8156, 8233,7.957716464996338
103, 8126, 8136, 8134, 8146, 8130, 8137, 8119, 8124, 8137, 8155, 8176, 8132, 8153, 8230,7.965714931488037
104, 8153, 8136, 8173, 8137, 8172, 8135, 8190, 8155, 8140, 8158, 8170, 8149, 8156, 8252,7.973658084869385
105, 8165, 8143, 8181, 8147, 8165, 8133, 8157, 8170, 8163, 8180, 8171, 8157, 8166, 8263,7.9817893505096436
106, 8143, 8144, 8127, 8151, 8134, 8134, 8105, 8159, 8171, 8204, 8175, 8139, 8176, 8253,7.989636659622192
107, 8154, 8150, 8174, 8147, 8204, 8141, 8243, 8178, 8155, 8194, 8174, 8140, 8166, 8247,7.99785304069519
108, 8140, 8143, 8160, 8143, 8167, 8140, 8165, 8180, 8169, 8194, 8164, 8139, 8168, 8251,8.004767894744873
109, 8103, 8128, 8112, 8127, 8156, 8147, 8160, 8190, 8192, 8203, 8157, 8117, 8164, 8242,8.012749910354614
110, 8123, 8127, 8188, 8114, 8218, 8153, 8293, 8215, 8185, 8191, 8167, 8126, 8149, 8234,8.020870923995972
111, 8128, 8136, 8185, 8134, 8162, 8150, 8152, 8188, 8183, 8194, 8176, 8143, 8167, 8246,8.028695344924927
112, 8123, 8149, 8134, 8159, 8150, 8149, 8095, 8165, 8187, 8203, 8173, 8146, 8182, 8247,8.036686182022095
113, 8144, 8166, 8152, 8166, 8179, 8140, 8155, 8161, 8188, 8202, 8173, 8147, 8184, 8255,8.044870376586914
114, 8158, 8181, 8189, 8178, 8188, 8139, 8188, 8157, 8181, 8200, 8185, 8164, 8203, 8287,8.052825689315796
115, 8168, 8186, 8200, 8190, 8191, 8148, 8186, 8147, 8166, 8189, 8177, 8178, 8210, 8301,8.060742616653442
116, 8155, 8168, 8151, 8175, 8166, 8134, 8122, 8120, 8166, 8185, 8152, 8150, 8184, 8276,8.067831993103027
117, 8142, 8143, 8151, 8141, 8189, 8127, 8179, 8121, 8155, 8187, 8158, 8128, 8154, 8240,8.07564663887024
118, 8142, 8126, 8156, 8127, 8171, 8131, 8162, 8118, 8140, 8172, 8171, 8134, 8150, 8236,8.083799839019775
119, 8143, 8125, 8149, 8128, 8173, 8120, 8170, 8129, 8141, 8151, 8159, 8138, 8147, 8242,8.091572761535645
120, 8145, 8129, 8172, 8120, 8195, 8111, 8223, 8165, 8141, 8158, 8149, 8139, 8143, 8237,8.09960651397705
121, 8123, 8124, 8129, 8116, 8136, 8108, 8122, 8152, 8135, 8184, 8159, 8136, 8157, 8251,8.107789039611816
122, 8138, 8128, 8155, 8127, 8181, 8107, 8209, 8156, 8129, 8180, 8170, 8145, 8161, 8263,8.11562728881836
123, 8166, 8129, 8206, 8126, 8201, 8108, 8241, 8177, 8129, 8166, 8164, 8145, 8151, 8254,8.123753547668457
124, 8134, 8119, 8140, 8111, 8130, 8107, 8108, 8163, 8135, 8171, 8150, 8122, 8142, 8243,8.131683111190796
125, 8115, 8125, 8129, 8117, 8142, 8112, 8138, 8164, 8131, 8163, 8152, 8119, 8130, 8227,8.138666152954102
126, 8125, 8130, 8151, 8129, 8146, 8116, 8143, 8167, 8128, 8137, 8162, 8125, 8129, 8212,8.146693229675293
127, 8148, 8134, 8166, 8133, 8176, 8118, 8182, 8170, 8125, 8119, 8164, 8130, 8123, 8213,8.154746532440186
238, 8158, 8141, 8184, 8151, 8197, 8112, 8202, 8164, 8123, 8129, 8167, 8141, 8117, 8227,8.162665128707886
0, 8157, 8155, 8175, 8177, 8169, 8113, 8148, 8156, 8134, 8142, 8175, 8146, 8135, 8249,8.170708656311035
1, 8177, 8174, 8183, 8193, 8162, 8118, 8144, 8157, 8135, 8133, 8168, 8156, 8149, 8256,8.178672313690186
2, 8174, 8179, 8171, 8201, 8151, 8112, 8120, 8139, 8123, 8137, 8152, 8162, 8147, 8249,8.186810731887817
3, 8168, 8179, 8195, 8200, 8198, 8116, 8222, 8148, 8113, 8148, 8161, 8165, 8144, 8244,8.194745779037476
4, 8165, 8170, 8192, 8192, 8178, 8122, 8202, 8152, 8120, 8161, 8169, 8160, 8153, 8247,8.20161747932434
5, 8149, 8158, 8132, 8190, 8134, 8110, 8108, 8140, 8143, 8184, 8155, 8150, 8171, 8250,8.209890842437744
6, 8180, 8167, 8204, 8194, 8220, 8103, 8266, 8170, 8146, 8189, 8164, 8176, 8169, 8261,8.217792987823486
7, 8211, 8169, 8245, 8199, 8189, 8105, 8215, 8171, 8140, 8191, 8183, 8195, 8166, 8293,8.22565746307373
8, 8198, 8158, 8171, 8200, 8118, 8100, 8072, 8149, 8145, 8184, 8168, 8181, 8183, 8315,8.23389720916748
9, 8187, 8154, 8151, 8198, 8161, 8098, 8124, 8161, 8146, 8163, 8149, 8170, 8181, 8305,8.241729259490967
10, 8176, 8150, 8163, 8193, 8189, 8108, 8174, 8166, 8128, 8146, 8146, 8158, 8138, 8281,8.249685764312744
11, 8187, 8144, 8191, 8177, 8196, 8122, 8215, 8179, 8113, 8128, 8149, 8154, 8108, 8263,8.2576425075531
12, 8199, 8139, 8182, 8174, 8170, 8129, 8159, 8191, 8127, 8124, 8159, 8154, 8129, 8273,8.265822649002075
13, 8185, 8142, 8166, 8186, 8186, 8138, 8167, 8200, 8142, 8121, 8167, 8149, 8140, 8280,8.272894382476807
14, 8184, 8155, 8182, 8190, 8184, 8149, 8176, 8197, 8155, 8127, 8172, 8158, 8129, 8275,8.280792951583862
15, 8188, 8164, 8155, 8194, 8144, 8145, 8103, 8166, 8164, 8132, 8165, 8153, 8127, 8267,8.288717031478882
16, 8191, 8163, 8175, 8196, 8220, 8137, 8212, 8159, 8132, 8101, 8153, 8139, 8104, 8239,8.296878099441528
17, 8162, 8142, 8166, 8175, 8218, 8135, 8175, 8151, 8115, 8093, 8149, 8124, 8091, 8208,8.30467176437378
18, 8131, 8124, 8128, 8149, 8200, 8147, 8129, 8159, 8148, 8126, 8157, 8119, 8112, 8199,8.312835693359375
19, 8151, 8120, 8181, 8153, 8257, 8152, 8239, 8189, 8165, 8147, 8161, 8141, 8124, 8218,8.320717096328735
20, 8135, 8115, 8165, 8163, 8219, 8135, 8152, 8170, 8163, 8156, 8153, 8144, 8130, 8243,8.328712463378906
21, 8117, 8114, 8135, 8153, 8215, 8133, 8132, 8170, 8165, 8162, 8161, 8142, 8132, 8235,8.335958003997803
22, 8143, 8115, 8155, 8155, 8224, 8141, 8156, 8185, 8173, 8174, 8175, 8151, 8143, 8233,8.343789100646973
23, 8167, 8136, 8163, 8181, 8222, 8149, 8151, 8183, 8185, 8193, 8177, 8155, 8165, 8264,8.35166072845459
24, 8179, 8159, 8191, 8199, 8260, 8174, 8210, 8198, 8194, 8189, 8172, 8157, 8162, 8272,8.359878063201904
25, 8158, 8143, 8170, 8194, 8231, 8183, 8150, 8189, 8193, 8166, 8162, 8140, 8142, 8248,8.367661476135254
26, 8143, 8125, 8148, 8187, 8226, 8167, 8143, 8171, 8179, 8163, 8163, 8133, 8137, 8241,8.375663042068481
27, 8151, 8132, 8143, 8179, 8228, 8161, 8145, 8160, 8156, 8154, 8170, 8143, 8139, 8243,8.383612394332886
28, 8146, 8135, 8138, 8167, 8229, 8166, 8158, 8147, 8124, 8107, 8154, 8129, 8101, 8213,8.391668319702148
29, 8150, 8126, 8174, 8164, 8241, 8161, 8209, 8142, 8100, 8062, 8131, 8109, 8057, 8188,8.398937940597534
30, 8131, 8109, 8145, 8152, 8183, 8138, 8121, 8118, 8089, 8065, 8127, 8104, 8065, 8196,8.406784534454346
31, 8112, 8105, 8137, 8128, 8213, 8135, 8177, 8128, 8071, 8070, 8137, 8111, 8071, 8199,8.414797067642212
32, 8107, 8108, 8164, 8120, 8240, 8141, 8215, 8148, 8077, 8072, 8142, 8109, 8067, 8190,8.422851324081421
33, 8078, 8094, 8127, 8128, 8191, 8127, 8121, 8138, 8108, 8099, 8144, 8097, 8094, 8177,8.430654287338257
34, 8075, 8097, 8147, 8137, 8210, 8114, 8172, 8145, 8107, 8115, 8156, 8116, 8103, 8174,8.438735485076904
35, 8113, 8124, 8175, 8151, 8198, 8109, 8162, 8154, 8108, 8125, 8165, 8144, 8101, 8205,8.446675300598145
36, 8167, 8149, 8187, 8172, 8205, 8122, 8162, 8178, 8146, 8152, 8170, 8164, 8135, 8242,8.454889297485352
37, 8196, 8155, 8208, 8187, 8242, 8141, 8172, 8196, 8175, 8172, 8175, 8180, 8169, 8257,8.461913824081421
38, 8183, 8159, 8187, 8205, 8247, 8146, 8123, 8181, 8178, 8181, 8177, 8180, 8172, 8271,8.46982192993164
39, 8187, 8170, 8190, 8222, 8249, 8149, 8153, 8180, 8166, 8169, 8173, 8179, 8154, 8270,8.477625370025635
40, 8184, 8174, 8171, 8227, 8198, 8145, 8108, 8164, 8147, 8135, 8160, 8161, 8134, 8246,8.485542297363281
41, 8181, 8183, 8178, 8230, 8240, 8135, 8186, 8152, 8115, 8096, 8153, 8148, 8103, 8226,8.493510246276855
42, 8195, 8185, 8218, 8224, 8275, 8129, 8226, 8142, 8078, 8088, 8156, 8157, 8087, 8221,8.501516342163086
43, 8175, 8170, 8167, 8209, 8202, 8124, 8083, 8109, 8058, 8098, 8155, 8149, 8103, 8222,8.509677171707153
44, 8165, 8160, 8164, 8195, 8244, 8123, 8164, 8113, 8040, 8080, 8151, 8148, 8110, 8224,8.517585515975952
45, 8170, 8152, 8179, 8182, 8259, 8118, 8197, 8124, 8043, 8080, 8152, 8154, 8120, 8231,8.524563312530518
46, 8150, 8143, 8142, 8166, 8209, 8115, 8120, 8129, 8072, 8114, 8159, 8148, 8145, 8244,8.532564163208008
47, 8135, 8136, 8145, 8158, 8227, 8129, 8149, 8155, 8100, 8130, 8161, 8147, 8145, 8252,8.540613174438477
48, 8123, 8126, 8146, 8158, 8242, 8141, 8162, 8168, 8119, 8134, 8154, 8139, 8134, 8235,8.548636436462402
49, 8131, 8129, 8169, 8160, 8247, 8151, 8197, 8184, 8132, 8155, 8164, 8141, 8146, 8217,8.556577205657959
50, 8150, 8134, 8180, 8175, 8201, 8166, 8140, 8187, 8152, 8186, 8185, 8161, 8177, 8246,8.564861059188843
51, 8170, 8141, 8182, 8193, 8202, 8173, 8144, 8197, 8172, 8189, 8193, 8178, 8190, 8288,8.572719097137451
52, 8188, 8159, 8204, 8194, 8238, 8158, 8206, 8209, 8181, 8183, 8189, 8185, 8184, 8295,8.580795049667358
53, 8170, 8160, 8162, 8200, 8201, 8157, 8128, 8186, 8183, 8190, 8180, 8176, 8187, 8291,8.588785886764526
54, 8187, 8163, 8203, 8216, 8259, 8184, 8242, 8201, 8166, 8170, 8183, 8196, 8187, 8295,8.595826625823975
55, 8225, 8183, 8267, 8230, 8270, 8179, 8267, 8211, 8153, 8144, 8197, 8218, 8196, 8312,8.60373306274414
56, 8204, 8192, 8201, 8232, 8193, 8156, 8114, 8170, 8159, 8151, 8197, 8191, 8204, 8316,8.611878395080566
57, 8188, 8182, 8177, 8221, 8212, 8171, 8163, 8163, 8150, 8159, 8193, 8173, 8188, 8280,8.619545936584473
58, 8194, 8187, 8188, 8229, 8218, 8181, 8186, 8170, 8142, 8168, 8201, 8180, 8197, 8265,8.627630949020386
59, 8201, 8200, 8190, 8236, 8217, 8155, 8181, 8176, 8142, 8180, 8202, 8181, 8219, 8283,8.635698795318604
60, 8181, 8179, 8156, 8195, 8172, 8131, 8115, 8164, 8131, 8182, 8175, 8151, 8211, 8277,8.643857479095459
61, 8149, 8159, 8149, 8163, 8201, 8129, 8185, 8170, 8128, 8167, 8148, 8130, 8178, 8244,8.651611804962158
62, 8166, 8166, 8234, 8181, 8283, 8138, 8322, 8206, 8139, 8157, 8147, 8157, 8154, 8237,8.659598588943481
63, 8154, 8163, 8183, 8203, 8185, 8131, 8108, 8173, 8163, 8183, 8154, 8154, 8167, 8266,8.666570663452148
64, 8150, 8163, 8161, 8208, 8203, 8122, 8135, 8166, 8164, 8186, 8162, 8137, 8165, 8266,8.67470645904541
65, 8185, 8172, 8221, 8208, 8248, 8116, 8226, 8183, 8145, 8160, 8165, 8151, 8154, 8253,8.682609796524048
66, 8184, 8169, 8153, 8215, 8145, 8112, 8042, 8150, 8143, 8161, 8152, 8154, 8166, 8275,8.690876960754395
67, 8195, 8170, 8134, 8221, 8155, 8117, 8080, 8147, 8138, 8159, 8148, 8152, 8162, 8289,8.698633432388306
68, 8206, 8168, 8174, 8209, 8192, 8118, 8169, 8161, 8128, 8139, 8150, 8153, 8137, 8277,8.706701755523682
69, 8187, 8168, 8172, 8197, 8183, 8130, 8159, 8161, 8121, 8126, 8149, 8150, 8122, 8274,8.714653015136719
70, 8189, 8171, 8162, 8215, 8169, 8152, 8126, 8150, 8112, 8126, 8153, 8155, 8134, 8283,8.722793817520142
71, 8200, 8163, 8160, 8218, 8182, 8159, 8146, 8148, 8101, 8117, 8155, 8148, 8145, 8268,8.72964358329773
72, 8184, 8156, 8176, 8191, 8210, 8153, 8207, 8169, 8095, 8100, 8156, 8138, 8130, 8242,8.737741231918335
73, 8158, 8165, 8161, 8194, 8180, 8148, 8154, 8169, 8100, 8085, 8164, 8140, 8122, 8240,8.745658159255981
74, 8167, 8171, 8172, 8208, 8189, 8166, 8172, 8167, 8099, 8076, 8168, 8149, 8130, 8243,8.753727912902832
75, 8158, 8156, 8162, 8199, 8176, 8187, 8145, 8159, 8106, 8093, 8158, 8143, 8135, 8237,8.761672019958496
76, 8110, 8136, 8112, 8185, 8157, 8175, 8116, 8146, 8125, 8117, 8147, 8124, 8126, 8225,8.769665002822876
77, 8130, 8135, 8189, 8174, 8249, 8158, 8301, 8171, 8126, 8113, 8150, 8132, 8107, 8207,8.777559518814087
78, 8146, 8139, 8210, 8170, 8208, 8143, 8204, 8158, 8120, 8134, 8153, 8135, 8113, 8202,8.785675287246704
79, 8103, 8142, 8127, 8172, 8139, 8124, 8049, 8121, 8114, 8168, 8154, 8126, 8130, 8219,8.792667865753174
80, 8116, 8148, 8151, 8178, 8186, 8115, 8162, 8138, 8105, 8160, 8167, 8142, 8139, 8244,8.800633907318115
81, 8170, 8161, 8182, 8198, 8182, 8111, 8158, 8156, 8116, 8162, 8177, 8161, 8167, 8274,8.808638334274292
82, 8196, 8181, 8183, 8222, 8193, 8118, 8143, 8175, 8136, 8190, 8178, 8177, 8191, 8296,8.816555976867676
83, 8185, 8187, 8179, 8227, 8195, 8124, 8153, 8187, 8156, 8203, 8181, 8180, 8195, 8305,8.824661016464233
84, 8179, 8190, 8187, 8223, 8197, 8132, 8183, 8186, 8173, 8192, 8182, 8172, 8204, 8304,8.83262586593628
85, 8193, 8196, 8215, 8227, 8220, 8138, 8216, 8182, 8167, 8175, 8182, 8178, 8212, 8300,8.84064769744873
86, 8174, 8183, 8180, 8223, 8187, 8131, 8147, 8155, 8152, 8160, 8178, 8176, 8194, 8296,8.848842144012451
87, 8151, 8182, 8156, 8215, 8174, 8142, 8140, 8142, 8151, 8146, 8172, 8164, 8168, 8288,8.85660982131958
88, 8158, 8199, 8162, 8223, 8172, 8169, 8114, 8147, 8164, 8152, 8174, 8154, 8177, 8286,8.863710165023804
89, 8178, 8202, 8183, 8228, 8216, 8180, 8163, 8166, 8166, 8160, 8177, 8154, 8193, 8280,8.871658563613892
90, 8187, 8188, 8204, 8209, 8247, 8171, 8215, 8182, 8151, 8162, 8172, 8162, 8177, 8275,8.879593133926392
91, 8157, 8175, 8148, 8196, 8179, 8170, 8111, 8162, 8162, 8165, 8164, 8145, 8171, 8278,8.887763261795044
92, 8153, 8171, 8176, 8186, 8233, 8182, 8255, 8190, 8173, 8161, 8172, 8143, 8174, 8262,8.896854639053345
93, 8157, 8160, 8229, 8162, 8259, 8177, 8284, 8213, 8178, 8175, 8180, 8158, 8176, 8253,8.903682470321655
94, 8137, 8158, 8155, 8168, 8167, 8170, 8059, 8171, 8200, 8211, 8173, 8155, 8197, 8286,8.911772012710571
95, 8161, 8176, 8154, 8192, 8197, 8181, 8129, 8171, 8207, 8219, 8173, 8168, 8216, 8308,8.919726133346558
96, 8169, 8173, 8187, 8177, 8239, 8182, 8232, 8192, 8192, 8198, 8169, 8176, 8202, 8285,8.92671823501587
97, 8150, 8160, 8175, 8158, 8230, 8178, 8190, 8189, 8188, 8181, 8158, 8163, 8173, 8264,8.934794425964355
98, 8164, 8164, 8167, 8188, 8200, 8176, 8119, 8167, 8192, 8185, 8156, 8169, 8178, 8282,8.94283390045166
99, 8173, 8179, 8157, 8219, 8193, 8165, 8124, 8153, 8184, 8187, 8156, 8177, 8196, 8300,8.950634002685547
100, 8179, 8196, 8185, 8220, 8239, 8160, 8213, 8165, 8164, 8154, 8155, 8174, 8176, 8291,8.958771467208862
