COUNTER,F3, FC5,AF3,F7,T7,P7,O1,O2,P8,T8,F8,AF4,FC6,F4,Timestamp
26, 8176, 8163, 8159, 8189, 8186, 8178, 8191, 8157, 8140, 8285, 8442, 8183, 8195, 8302,0.006120920181274414
27, 8189, 8175, 8166, 8198, 8213, 8184, 8184, 8168, 8135, 8275, 8437, 8191, 8192, 8303,0.013071775436401367
28, 8188, 8167, 8160, 8182, 8217, 8184, 8185, 8174, 8134, 8270, 8433, 8175, 8183, 8291,0.02105545997619629
29, 8187, 8168, 8178, 8173, 8222, 8189, 8198, 8185, 8156, 8291, 8420, 8177, 8191, 8303,0.029122591018676758
30, 8178, 8166, 8156, 8174, 8206, 8188, 8202, 8173, 8170, 8294, 8402, 8177, 8193, 8307,0.03698587417602539
31, 8173, 8165, 8160, 8159, 8244, 8183, 8187, 8162, 8154, 8270, 8373, 8164, 8167, 8274,0.04502439498901367
32, 8169, 8152, 8160, 8133, 8216, 8177, 8178, 8146, 8129, 8262, 8344, 8150, 8140, 8255,0.05316591262817383
33, 8153, 8125, 8120, 8122, 8170, 8171, 8180, 8123, 8125, 8261, 8327, 8141, 8127, 8253,0.06115555763244629
34, 8156, 8141, 8202, 8125, 8272, 8169, 8167, 8157, 8124, 8248, 8317, 8164, 8114, 8241,0.0689859390258789
35, 8154, 8141, 8199, 8136, 8245, 8164, 8170, 8165, 8134, 8263, 8328, 8163, 8127, 8250,0.07613801956176758
36, 8151, 8140, 8120, 8154, 8173, 8165, 8191, 8145, 8154, 8276, 8335, 8150, 8143, 8266,0.08426165580749512
37, 8174, 8172, 8180, 8165, 8250, 8177, 8191, 8170, 8151, 8266, 8330, 8168, 8139, 8260,0.09195613861083984
38, 8175, 8168, 8191, 8160, 8253, 8180, 8176, 8174, 8141, 8280, 8349, 8169, 8153, 8260,0.10017275810241699
39, 8181, 8159, 8156, 8164, 8203, 8169, 8162, 8153, 8142, 8299, 8365, 8172, 8177, 8296,0.10804915428161621
40, 8212, 8172, 8171, 8183, 8203, 8164, 8167, 8153, 8153, 8298, 8361, 8193, 8189, 8329,0.11604595184326172
41, 8217, 8175, 8189, 8192, 8243, 8170, 8179, 8168, 8156, 8300, 8352, 8198, 8187, 8322,0.12411355972290039
42, 8201, 8169, 8183, 8192, 8244, 8171, 8180, 8170, 8155, 8303, 8348, 8190, 8185, 8304,0.1321570873260498
43, 8196, 8176, 8152, 8193, 8205, 8157, 8175, 8164, 8164, 8304, 8348, 8175, 8193, 8308,0.13916563987731934
44, 8198, 8181, 8168, 8176, 8225, 8150, 8174, 8187, 8163, 8306, 8324, 8169, 8184, 8295,0.1470632553100586
45, 8170, 8146, 8151, 8154, 8204, 8163, 8192, 8194, 8163, 8310, 8303, 8164, 8174, 8268,0.15517258644104004
46, 8153, 8140, 8140, 8151, 8204, 8174, 8204, 8186, 8159, 8300, 8299, 8166, 8168, 8272,0.16321992874145508
47, 8171, 8155, 8182, 8143, 8254, 8170, 8188, 8190, 8137, 8278, 8279, 8174, 8148, 8276,0.1710376739501953
48, 8154, 8124, 8125, 8139, 8213, 8164, 8189, 8164, 8133, 8270, 8266, 8153, 8146, 8262,0.1792469024658203
49, 8145, 8138, 8151, 8158, 8235, 8172, 8196, 8165, 8143, 8282, 8251, 8161, 8150, 8261,0.1871640682220459
50, 8162, 8161, 8213, 8161, 8260, 8177, 8181, 8176, 8141, 8293, 8213, 8177, 8152, 8276,0.1949782371520996
51, 8148, 8126, 8135, 8147, 8204, 8167, 8164, 8147, 8135, 8281, 8160, 8153, 8161, 8281,0.20314788818359375
52, 8141, 8118, 8121, 8153, 8214, 8167, 8162, 8142, 8135, 8266, 8110, 8149, 8153, 8269,0.21116280555725098
53, 8159, 8141, 8160, 8160, 8239, 8180, 8179, 8160, 8154, 8289, 8089, 8160, 8151, 8275,0.2181859016418457
54, 8179, 8160, 8184, 8166, 8256, 8189, 8193, 8188, 8171, 8308, 8080, 8178, 8170, 8298,0.2271873950958252
55, 8176, 8151, 8174, 8182, 8236, 8179, 8190, 8195, 8172, 8296, 8065, 8181, 8180, 8304,0.23414087295532227
56, 8173, 8146, 8156, 8179, 8226, 8163, 8176, 8168, 8169, 8294, 8040, 8167, 8170, 8293,0.24219703674316406
57, 8193, 8171, 8195, 8167, 8259, 8169, 8165, 8161, 8156, 8299, 8015, 8176, 8161, 8296,0.2501394748687744
58, 8187, 8159, 8161, 8168, 8219, 8175, 8162, 8144, 8142, 8298, 8016, 8175, 8171, 8304,0.25824928283691406
59, 8174, 8160, 8175, 8166, 8244, 8169, 8139, 8141, 8127, 8283, 8009, 8174, 8163, 8281,0.2661726474761963
60, 8173, 8165, 8209, 8160, 8258, 8170, 8128, 8156, 8120, 8277, 7986, 8176, 8149, 8264,0.2741219997406006
61, 8141, 8129, 8120, 8150, 8190, 8179, 8158, 8143, 8131, 8292, 7967, 8151, 8158, 8268,0.28107333183288574
62, 8115, 8118, 8128, 8133, 8236, 8182, 8177, 8163, 8137, 8292, 7941, 8142, 8153, 8251,0.2892441749572754
63, 8109, 8120, 8162, 8126, 8250, 8182, 8189, 8192, 8153, 8289, 7927, 8140, 8131, 8226,0.29698848724365234
64, 8103, 8124, 8128, 8138, 8197, 8183, 8205, 8189, 8165, 8294, 7922, 8131, 8117, 8214,0.30521678924560547
65, 8105, 8133, 8132, 8152, 8205, 8183, 8208, 8181, 8157, 8297, 7925, 8136, 8124, 8209,0.3131711483001709
66, 8110, 8134, 8145, 8154, 8236, 8184, 8203, 8176, 8153, 8296, 7938, 8141, 8137, 8213,0.3210105895996094
67, 8125, 8160, 8181, 8163, 8245, 8187, 8192, 8190, 8159, 8292, 7938, 8153, 8134, 8228,0.3291933536529541
68, 8134, 8161, 8168, 8185, 8193, 8190, 8199, 8182, 8180, 8308, 7956, 8166, 8155, 8256,0.3372054100036621
69, 8136, 8141, 8157, 8185, 8218, 8193, 8206, 8174, 8197, 8317, 7974, 8178, 8180, 8288,0.34514713287353516
70, 8146, 8141, 8184, 8154, 8243, 8188, 8183, 8174, 8183, 8308, 7960, 8183, 8172, 8304,0.3520843982696533
71, 8159, 8149, 8160, 8143, 8189, 8174, 8160, 8151, 8164, 8307, 7965, 8180, 8182, 8315,0.36016082763671875
72, 8201, 8185, 8224, 8182, 8239, 8176, 8161, 8169, 8158, 8305, 8004, 8221, 8218, 8338,0.36821651458740234
73, 8217, 8194, 8234, 8203, 8232, 8178, 8166, 8171, 8152, 8303, 8018, 8228, 8230, 8346,0.3761007785797119
74, 8179, 8166, 8137, 8179, 8172, 8175, 8155, 8135, 8138, 8303, 7985, 8173, 8198, 8314,0.3842015266418457
75, 8168, 8162, 8153, 8159, 8219, 8191, 8152, 8147, 8138, 8305, 7965, 8167, 8175, 8293,0.3921942710876465
76, 8170, 8161, 8168, 8156, 8223, 8192, 8164, 8161, 8141, 8308, 7971, 8184, 8185, 8312,0.4001026153564453
77, 8154, 8161, 8163, 8145, 8224, 8177, 8166, 8157, 8124, 8291, 7951, 8177, 8171, 8305,0.4071626663208008
78, 8126, 8143, 8149, 8124, 8222, 8177, 8172, 8148, 8118, 8275, 7924, 8151, 8139, 8266,0.4152066707611084
79, 8118, 8129, 8131, 8124, 8206, 8179, 8177, 8156, 8131, 8281, 7914, 8137, 8123, 8244,0.42298126220703125
80, 8146, 8134, 8177, 8129, 8231, 8176, 8169, 8192, 8140, 8285, 7915, 8164, 8127, 8255,0.43106961250305176
81, 8146, 8122, 8155, 8123, 8214, 8200, 8184, 8194, 8156, 8282, 7924, 8162, 8137, 8269,0.4391815662384033
82, 8130, 8137, 8142, 8124, 8213, 8234, 8206, 8197, 8175, 8284, 7908, 8141, 8121, 8242,0.4470353126525879
83, 8125, 8155, 8152, 8133, 8200, 8224, 8209, 8199, 8191, 8291, 7891, 8138, 8105, 8223,0.4551727771759033
84, 8131, 8154, 8140, 8135, 8203, 8207, 8201, 8180, 8203, 8294, 7919, 8154, 8132, 8262,0.4630899429321289
85, 8156, 8164, 8195, 8134, 8255, 8222, 8184, 8174, 8189, 8285, 7946, 8180, 8149, 8291,0.4711182117462158
86, 8153, 8153, 8175, 8146, 8189, 8212, 8166, 8140, 8170, 8278, 7943, 8168, 8147, 8271,0.4791543483734131
87, 8155, 8162, 8157, 8162, 8171, 8187, 8152, 8121, 8159, 8280, 7942, 8169, 8150, 8268,0.48612451553344727
88, 8175, 8164, 8187, 8166, 8213, 8198, 8159, 8148, 8154, 8296, 7971, 8196, 8166, 8303,0.49402832984924316
89, 8161, 8141, 8147, 8155, 8197, 8216, 8182, 8163, 8170, 8316, 7981, 8189, 8178, 8313,0.5021541118621826
90, 8149, 8152, 8156, 8148, 8221, 8212, 8183, 8168, 8175, 8313, 7957, 8177, 8170, 8285,0.5100111961364746
91, 8157, 8157, 8170, 8159, 8224, 8206, 8184, 8161, 8174, 8305, 8021, 8170, 8168, 8276,0.5181179046630859
92, 8153, 8156, 8172, 8159, 8221, 8211, 8195, 8176, 8181, 8310, 8160, 8167, 8169, 8282,0.5260734558105469
93, 8126, 8139, 8163, 8134, 8209, 8215, 8199, 8184, 8182, 8311, 8245, 8159, 8157, 8266,0.5340571403503418
94, 8119, 8121, 8134, 8129, 8189, 8204, 8187, 8163, 8173, 8302, 8286, 8150, 8146, 8256,0.5410935878753662
95, 8175, 8171, 8203, 8159, 8229, 8199, 8174, 8182, 8166, 8300, 8345, 8182, 8154, 8284,0.5489704608917236
96, 8198, 8188, 8201, 8169, 8202, 8205, 8182, 8182, 8176, 8311, 8399, 8187, 8176, 8307,0.5569460391998291
97, 8171, 8173, 8165, 8159, 8205, 8209, 8188, 8167, 8174, 8301, 8412, 8169, 8170, 8294,0.5650467872619629
98, 8178, 8189, 8199, 8159, 8235, 8200, 8185, 8180, 8164, 8284, 8424, 8183, 8156, 8291,0.5729465484619141
99, 8187, 8180, 8165, 8162, 8209, 8195, 8192, 8172, 8162, 8293, 8435, 8175, 8160, 8300,0.5810513496398926
100, 8179, 8171, 8170, 8167, 8250, 8210, 8190, 8167, 8143, 8292, 8423, 8161, 8140, 8280,0.5890471935272217
101, 8165, 8170, 8179, 8159, 8238, 8204, 8175, 8154, 8127, 8278, 8424, 8162, 8124, 8257,0.5968911647796631
102, 8160, 8163, 8152, 8135, 8194, 8177, 8163, 8135, 8132, 8280, 8444, 8166, 8148, 8269,0.6051156520843506
103, 8164, 8162, 8158, 8139, 8190, 8171, 8158, 8153, 8139, 8284, 8458, 8167, 8162, 8287,0.6121110916137695
104, 8141, 8156, 8137, 8145, 8166, 8171, 8159, 8161, 8139, 8284, 8451, 8148, 8145, 8263,0.6199374198913574
105, 8129, 8155, 8156, 8127, 8205, 8174, 8159, 8158, 8130, 8268, 8429, 8146, 8119, 8226,0.6279840469360352
106, 8153, 8154, 8163, 8138, 8212, 8193, 8176, 8161, 8144, 8264, 8447, 8160, 8128, 8254,0.6360421180725098
107, 8181, 8170, 8168, 8173, 8208, 8216, 8198, 8176, 8175, 8294, 8482, 8180, 8156, 8304,0.6438791751861572
108, 8179, 8178, 8198, 8170, 8235, 8221, 8197, 8187, 8179, 8302, 8471, 8193, 8151, 8293,0.651986837387085
109, 8153, 8152, 8148, 8148, 8197, 8209, 8197, 8167, 8168, 8284, 8463, 8170, 8143, 8271,0.6600496768951416
110, 8169, 8167, 8171, 8151, 8209, 8204, 8191, 8175, 8155, 8275, 8464, 8170, 8143, 8283,0.667879581451416
111, 8188, 8172, 8191, 8159, 8201, 8200, 8180, 8178, 8146, 8278, 8446, 8174, 8129, 8290,0.6750984191894531
112, 8173, 8153, 8136, 8154, 8176, 8193, 8174, 8158, 8148, 8272, 8440, 8159, 8128, 8286,0.6828577518463135
113, 8181, 8176, 8178, 8160, 8223, 8188, 8156, 8166, 8142, 8266, 8451, 8169, 8138, 8290,0.6910431385040283
114, 8198, 8187, 8179, 8175, 8202, 8184, 8145, 8153, 8135, 8277, 8452, 8167, 8144, 8294,0.6990087032318115
115, 8204, 8192, 8156, 8182, 8196, 8187, 8138, 8141, 8132, 8282, 8440, 8164, 8150, 8301,0.7069041728973389
116, 8209, 8200, 8179, 8189, 8214, 8197, 8136, 8146, 8132, 8282, 8458, 8182, 8174, 8316,0.7150704860687256
117, 8203, 8198, 8175, 8200, 8193, 8195, 8143, 8145, 8136, 8285, 8448, 8187, 8182, 8315,0.7229681015014648
118, 8196, 8193, 8175, 8186, 8192, 8178, 8137, 8150, 8127, 8279, 8362, 8177, 8151, 8294,0.7311360836029053
119, 8177, 8159, 8145, 8148, 8171, 8167, 8135, 8141, 8120, 8282, 8306, 8160, 8143, 8287,0.7379329204559326
120, 8160, 8154, 8159, 8136, 8195, 8175, 8145, 8155, 8124, 8289, 8298, 8166, 8148, 8280,0.7460501194000244
121, 8143, 8156, 8166, 8150, 8183, 8186, 8169, 8175, 8141, 8289, 8301, 8163, 8143, 8264,0.7540929317474365
122, 8128, 8142, 8122, 8151, 8154, 8193, 8195, 8175, 8167, 8296, 8307, 8143, 8141, 8262,0.7620389461517334
123, 8150, 8163, 8196, 8145, 8235, 8209, 8191, 8203, 8171, 8296, 8301, 8161, 8125, 8259,0.7700257301330566
124, 8150, 8159, 8200, 8146, 8209, 8216, 8185, 8198, 8179, 8300, 8310, 8168, 8134, 8263,0.7780721187591553
125, 8137, 8151, 8130, 8165, 8152, 8209, 8192, 8179, 8193, 8312, 8335, 8160, 8171, 8287,0.7860443592071533
126, 8165, 8176, 8164, 8180, 8195, 8217, 8190, 8190, 8183, 8312, 8339, 8175, 8176, 8302,0.7939231395721436
127, 8169, 8177, 8173, 8167, 8211, 8236, 8181, 8168, 8166, 8298, 8329, 8168, 8155, 8288,0.8020241260528564
237, 8148, 8175, 8164, 8159, 8215, 8238, 8164, 8144, 8146, 8285, 8324, 8157, 8141, 8259,0.8089852333068848
0, 8153, 8186, 8156, 8191, 8189, 8212, 8159, 8141, 8132, 8297, 8325, 8169, 8145, 8250,0.8170461654663086
1, 8190, 8211, 8186, 8226, 8210, 8195, 8156, 8140, 8128, 8301, 8341, 8193, 8157, 8269,0.8249340057373047
2, 8217, 8220, 8217, 8226, 8246, 8200, 8145, 8135, 8124, 8300, 8370, 8203, 8182, 8305,0.833078145980835
3, 8205, 8203, 8170, 8206, 8217, 8198, 8144, 8125, 8116, 8318, 8387, 8197, 8215, 8336,0.8410089015960693
4, 8205, 8225, 8200, 8200, 8238, 8190, 8147, 8145, 8117, 8324, 8384, 8215, 8229, 8346,0.848942756652832
5, 8203, 8220, 8201, 8208, 8207, 8186, 8154, 8148, 8142, 8320, 8385, 8202, 8232, 8340,0.8571159839630127
6, 8183, 8186, 8159, 8202, 8189, 8192, 8156, 8148, 8150, 8323, 8365, 8175, 8206, 8317,0.8650562763214111
7, 8181, 8184, 8201, 8184, 8228, 8193, 8151, 8179, 8130, 8322, 8336, 8193, 8180, 8308,0.8719401359558105
8, 8182, 8176, 8179, 8177, 8184, 8184, 8161, 8182, 8144, 8326, 8355, 8194, 8206, 8326,0.8801882266998291
9, 8190, 8173, 8151, 8173, 8175, 8195, 8178, 8189, 8172, 8333, 8376, 8181, 8223, 8334,0.8880589008331299
10, 8192, 8171, 8159, 8159, 8178, 8215, 8197, 8199, 8176, 8339, 8364, 8180, 8209, 8327,0.8961451053619385
11, 8177, 8169, 8167, 8158, 8167, 8210, 8193, 8192, 8170, 8338, 8346, 8176, 8197, 8314,0.903958797454834
12, 8172, 8165, 8184, 8159, 8179, 8208, 8170, 8191, 8162, 8326, 8325, 8169, 8182, 8293,0.9120566844940186
13, 8179, 8166, 8157, 8165, 8170, 8226, 8174, 8180, 8166, 8318, 8315, 8162, 8176, 8299,0.920046329498291
14, 8196, 8203, 8185, 8191, 8200, 8238, 8181, 8189, 8184, 8320, 8324, 8178, 8179, 8316,0.9282851219177246
15, 8196, 8204, 8188, 8197, 8176, 8234, 8173, 8190, 8200, 8326, 8346, 8184, 8188, 8305,0.9348862171173096
16, 8190, 8188, 8150, 8187, 8161, 8230, 8164, 8161, 8182, 8310, 8341, 8179, 8187, 8297,0.9430344104766846
17, 8202, 8200, 8191, 8192, 8214, 8241, 8164, 8152, 8153, 8294, 8318, 8196, 8178, 8309,0.9509415626525879
18, 8189, 8185, 8163, 8191, 8180, 8255, 8182, 8151, 8182, 8324, 8331, 8187, 8195, 8321,0.9589712619781494
19, 8185, 8193, 8169, 8185, 8198, 8251, 8177, 8179, 8201, 8331, 8336, 8190, 8206, 8328,0.9669308662414551
20, 8201, 8208, 8212, 8188, 8217, 8239, 8163, 8198, 8179, 8305, 8326, 8202, 8198, 8334,0.9751017093658447
21, 8185, 8193, 8152, 8180, 8168, 8239, 8182, 8189, 8181, 8322, 8332, 8172, 8193, 8322,0.9829480648040771
22, 8165, 8184, 8158, 8157, 8189, 8244, 8192, 8210, 8180, 8325, 8300, 8156, 8167, 8285,0.9909353256225586
23, 8145, 8156, 8153, 8133, 8169, 8229, 8180, 8199, 8168, 8286, 8247, 8145, 8135, 8263,0.9978554248809814
24, 8130, 8162, 8143, 8117, 8170, 8221, 8177, 8184, 8175, 8280, 8250, 8134, 8121, 8252,1.006068229675293
25, 8124, 8186, 8160, 8132, 8188, 8235, 8196, 8201, 8193, 8307, 8286, 8136, 8125, 8244,1.0140435695648193
26, 8103, 8168, 8127, 8157, 8159, 8232, 8205, 8186, 8186, 8310, 8276, 8136, 8130, 8241,1.0220255851745605
27, 8128, 8182, 8184, 8138, 8190, 8225, 8189, 8172, 8152, 8284, 8250, 8156, 8119, 8250,1.0300371646881104
28, 8174, 8211, 8188, 8120, 8169, 8221, 8182, 8154, 8137, 8278, 8273, 8156, 8121, 8266,1.0379202365875244
29, 8186, 8218, 8171, 8138, 8186, 8230, 8174, 8153, 8130, 8284, 8290, 8156, 8134, 8268,1.0458974838256836
30, 8173, 8187, 8207, 8102, 8213, 8241, 8171, 8164, 8128, 8296, 8288, 8176, 8149, 8264,1.0539202690124512
31, 8152, 8145, 8154, 8071, 8158, 8227, 8177, 8139, 8152, 8319, 8304, 8169, 8164, 8273,1.0620265007019043
32, 8172, 8189, 8179, 8185, 8204, 8215, 8161, 8149, 8169, 8327, 8317, 8182, 8176, 8288,1.0700712203979492
33, 8192, 8234, 8218, 8304, 8224, 8215, 8142, 8164, 8159, 8321, 8320, 8197, 8192, 8298,1.076967716217041
34, 8181, 8210, 8186, 8290, 8190, 8216, 8142, 8157, 8151, 8317, 8317, 8185, 8191, 8299,1.0850794315338135
35, 8176, 8171, 8169, 8276, 8179, 8213, 8151, 8158, 8149, 8315, 8304, 8175, 8175, 8301,1.0930418968200684
36, 8154, 8155, 8123, 8314, 8157, 8207, 8159, 8157, 8138, 8310, 8288, 8156, 8170, 8293,1.1009421348571777
37, 8136, 8176, 8157, 8330, 8212, 8202, 8153, 8189, 8133, 8289, 8259, 8155, 8155, 8266,1.1090772151947021
38, 8135, 8156, 8206, 8341, 8232, 8207, 8154, 8213, 8145, 8284, 8241, 8158, 8135, 8252,1.1169939041137695
39, 8116, 8103, 8155, 8346, 8178, 8230, 8181, 8202, 8160, 8288, 8238, 8133, 8127, 8245,1.1238443851470947
40, 8090, 8085, 8095, 8340, 8143, 8224, 8190, 8199, 8174, 8276, 8224, 8114, 8117, 8223,1.1320133209228516
41, 8107, 8105, 8112, 8369, 8163, 8195, 8175, 8206, 8187, 8272, 8232, 8132, 8121, 8231,1.1399545669555664
42, 8161, 8148, 8218, 8404, 8240, 8209, 8185, 8228, 8188, 8280, 8256, 8174, 8139, 8266,1.1481647491455078
43, 8153, 8126, 8189, 8389, 8196, 8227, 8212, 8212, 8194, 8285, 8263, 8165, 8152, 8267,1.1560938358306885
44, 8108, 8090, 8121, 8362, 8161, 8212, 8205, 8179, 8194, 8283, 8247, 8140, 8145, 8235,1.164177656173706
45, 8128, 8123, 8199, 8371, 8218, 8208, 8186, 8190, 8168, 8274, 8238, 8166, 8137, 8234,1.1720757484436035
46, 8173, 8134, 8217, 8388, 8189, 8211, 8181, 8171, 8154, 8274, 8263, 8186, 8164, 8271,1.180069923400879
47, 8193, 8133, 8181, 8391, 8176, 8199, 8165, 8134, 8152, 8280, 8275, 8182, 8184, 8290,1.1880381107330322
48, 8200, 8160, 8166, 8396, 8179, 8199, 8156, 8127, 8157, 8285, 8274, 8180, 8189, 8287,1.1950428485870361
49, 8226, 8192, 8195, 8405, 8181, 8205, 8154, 8141, 8168, 8292, 8294, 8200, 8216, 8311,1.2029850482940674
50, 8263, 8200, 8247, 8411, 8202, 8191, 8130, 8152, 8152, 8303, 8315, 8232, 8244, 8352,1.211092472076416
51, 8267, 8195, 8202, 8408, 8181, 8172, 8104, 8127, 8124, 8310, 8310, 8216, 8254, 8365,1.219111442565918
52, 8262, 8208, 8197, 8391, 8211, 8164, 8083, 8139, 8119, 8305, 8289, 8196, 8250, 8355,1.2270309925079346
53, 8247, 8176, 8197, 8339, 8209, 8149, 8084, 8159, 8121, 8294, 8279, 8192, 8248, 8350,1.2351367473602295
54, 8212, 8140, 8148, 8280, 8184, 8137, 8098, 8143, 8098, 8284, 8263, 8174, 8230, 8338,1.243157148361206
55, 8207, 8168, 8196, 8265, 8221, 8149, 8102, 8169, 8097, 8295, 8236, 8173, 8203, 8314,1.250213384628296
56, 8186, 8152, 8177, 8258, 8174, 8165, 8131, 8196, 8159, 8317, 8229, 8159, 8203, 8300,1.2581572532653809
57, 8150, 8114, 8129, 8226, 8152, 8169, 8159, 8189, 8173, 8294, 8220, 8147, 8194, 8285,1.2661123275756836
58, 8158, 8131, 8165, 8214, 8180, 8169, 8159, 8191, 8140, 8273, 8220, 8164, 8190, 8282,1.2739732265472412
59, 8173, 8150, 8166, 8236, 8161, 8175, 8175, 8204, 8168, 8295, 8231, 8169, 8206, 8296,1.282113790512085
60, 8167, 8147, 8166, 8236, 8166, 8186, 8196, 8219, 8204, 8295, 8208, 8166, 8191, 8287,1.2901134490966797
61, 8147, 8130, 8147, 8211, 8143, 8189, 8202, 8199, 8190, 8271, 8193, 8154, 8168, 8262,1.2981877326965332
62, 8143, 8141, 8158, 8211, 8144, 8182, 8196, 8173, 8164, 8265, 8204, 8160, 8164, 8254,1.3059790134429932
63, 8173, 8160, 8196, 8234, 8157, 8177, 8193, 8169, 8154, 8261, 8208, 8183, 8161, 8274,1.3142073154449463
64, 8200, 8162, 8174, 8247, 8133, 8184, 8191, 8161, 8156, 8251, 8201, 8180, 8165, 8296,1.3220345973968506
65, 8215, 8183, 8196, 8249, 8163, 8182, 8169, 8170, 8153, 8251, 8194, 8184, 8169, 8293,1.3299469947814941
66, 8210, 8176, 8184, 8245, 8149, 8155, 8157, 8168, 8156, 8266, 8217, 8189, 8187, 8299,1.3371620178222656
67, 8211, 8166, 8174, 8238, 8161, 8144, 8172, 8179, 8169, 8280, 8236, 8195, 8214, 8325,1.3451037406921387
68, 8210, 8174, 8226, 8229, 8192, 8155, 8171, 8196, 8167, 8281, 8209, 8200, 8208, 8320,1.3529887199401855
69, 8182, 8163, 8182, 8213, 8133, 8141, 8141, 8159, 8156, 8271, 8184, 8171, 8182, 8284,1.3611621856689453
70, 8191, 8176, 8175, 8212, 8143, 8126, 8125, 8162, 8161, 8256, 8198, 8173, 8184, 8287,1.3689749240875244
71, 8213, 8173, 8198, 8222, 8156, 8151, 8150, 8197, 8185, 8271, 8226, 8197, 8215, 8322,1.3772833347320557
72, 8197, 8153, 8165, 8210, 8137, 8170, 8170, 8193, 8200, 8291, 8216, 8180, 8220, 8324,1.3849868774414062
73, 8176, 8156, 8156, 8178, 8143, 8160, 8162, 8178, 8189, 8271, 8179, 8158, 8179, 8289,1.3931889533996582
74, 8157, 8146, 8138, 8171, 8120, 8153, 8171, 8159, 8175, 8258, 8161, 8151, 8151, 8261,1.4001638889312744
75, 8165, 8147, 8166, 8186, 8135, 8160, 8178, 8171, 8173, 8257, 8155, 8157, 8159, 8253,1.4081676006317139
76, 8185, 8157, 8173, 8191, 8116, 8158, 8162, 8173, 8171, 8245, 8141, 8156, 8169, 8264,1.4161722660064697
77, 8189, 8174, 8162, 8184, 8112, 8153, 8149, 8152, 8146, 8237, 8093, 8161, 8162, 8271,1.4242448806762695
78, 8196, 8179, 8195, 8172, 8156, 8161, 8150, 8158, 8127, 8243, 8035, 8178, 8168, 8283,1.4320616722106934
79, 8182, 8148, 8142, 8153, 8135, 8163, 8159, 8162, 8151, 8251, 8002, 8154, 8187, 8296,1.4402344226837158
80, 8171, 8157, 8169, 8139, 8177, 8169, 8153, 8187, 8157, 8246, 7949, 8152, 8164, 8280,1.4481446743011475
81, 8178, 8163, 8226, 8137, 8173, 8176, 8152, 8198, 8143, 8241, 7898, 8176, 8142, 8274,1.4560422897338867
82, 8162, 8135, 8140, 8132, 8102, 8173, 8178, 8168, 8160, 8245, 7884, 8157, 8152, 8280,1.4642705917358398
83, 8138, 8142, 8115, 8112, 8128, 8177, 8188, 8165, 8156, 8230, 7846, 8129, 8127, 8250,1.471036672592163
84, 8119, 8139, 8134, 8080, 8129, 8178, 8177, 8164, 8139, 8213, 7801, 8122, 8099, 8220,1.4790270328521729
85, 8117, 8126, 8146, 8065, 8120, 8176, 8168, 8164, 8143, 8216, 7800, 8135, 8103, 8222,1.4872088432312012
86, 8125, 8126, 8156, 8082, 8120, 8178, 8172, 8174, 8154, 8222, 7813, 8142, 8105, 8225,1.4961788654327393
87, 8126, 8120, 8143, 8099, 8109, 8176, 8169, 8169, 8158, 8222, 7810, 8140, 8104, 8227,1.5032594203948975
88, 8138, 8137, 8181, 8097, 8153, 8175, 8149, 8170, 8158, 8229, 7808, 8164, 8114, 8240,1.5111515522003174
89, 8148, 8155, 8168, 8110, 8158, 8174, 8141, 8156, 8172, 8243, 7826, 8167, 8137, 8256,1.5191123485565186
90, 8159, 8164, 8162, 8144, 8160, 8175, 8131, 8147, 8171, 8238, 7831, 8161, 8147, 8266,1.5271422863006592
91, 8160, 8169, 8181, 8146, 8145, 8180, 8136, 8153, 8149, 8234, 7819, 8167, 8147, 8265,1.534134864807129
92, 8139, 8155, 8139, 8101, 8118, 8178, 8165, 8144, 8135, 8236, 7803, 8148, 8142, 8251,1.542050838470459
93, 8145, 8145, 8174, 8076, 8175, 8176, 8174, 8165, 8125, 8220, 7779, 8139, 8127, 8247,1.5499942302703857
94, 8145, 8121, 8174, 8089, 8152, 8179, 8177, 8181, 8139, 8222, 7776, 8137, 8134, 8257,1.5581064224243164
95, 8114, 8105, 8126, 8078, 8114, 8184, 8198, 8187, 8160, 8237, 7781, 8127, 8138, 8250,1.5660395622253418
96, 8101, 8099, 8150, 8046, 8143, 8185, 8213, 8207, 8163, 8230, 7781, 8129, 8119, 8237,1.5741045475006104
97, 8094, 8072, 8131, 8021, 8130, 8176, 8205, 8195, 8160, 8219, 7774, 8115, 8102, 8233,1.5820271968841553
98, 8083, 8074, 8138, 8013, 8140, 8184, 8182, 8176, 8151, 8206, 7752, 8110, 8074, 8208,1.590174913406372
99, 8075, 8088, 8152, 8030, 8116, 8200, 8193, 8160, 8159, 8216, 7762, 8124, 8072, 8197,1.5972177982330322
100, 8088, 8110, 8156, 8059, 8120, 8196, 8204, 8158, 8181, 8245, 7800, 8144, 8113, 8227,1.604942798614502
101, 8123, 8138, 8197, 8087, 8178, 8178, 8169, 8158, 8178, 8249, 7818, 8157, 8131, 8242,1.6131668090820312
102, 8130, 8142, 8176, 8112, 8162, 8171, 8139, 8125, 8158, 8242, 7838, 8147, 8128, 8237,1.6211295127868652
103, 8137, 8168, 8188, 8141, 8169, 8178, 8136, 8122, 8149, 8256, 7864, 8163, 8144, 8249,1.629133701324463
104, 8157, 8183, 8186, 8157, 8158, 8177, 8147, 8135, 8162, 8273, 7881, 8172, 8175, 8277,1.6371662616729736
105, 8175, 8197, 8175, 8157, 8167, 8182, 8164, 8160, 8176, 8281, 7885, 8168, 8185, 8292,1.6451733112335205
106, 8194, 8211, 8226, 8154, 8206, 8192, 8182, 8193, 8175, 8287, 7876, 8187, 8175, 8286,1.652881145477295
107, 8169, 8172, 8176, 8142, 8155, 8171, 8191, 8151, 8152, 8279, 7862, 8173, 8173, 8283,1.6601133346557617
108, 8141, 8159, 8145, 8125, 8162, 8151, 8171, 8118, 8106, 8252, 7846, 8157, 8171, 8282,1.6679348945617676
109, 8141, 8166, 8160, 8110, 8166, 8157, 8166, 8136, 8085, 8243, 7847, 8159, 8171, 8278,1.6760172843933105
110, 8136, 8154, 8142, 8104, 8135, 8156, 8186, 8148, 8097, 8241, 7827, 8144, 8152, 8269,1.6840362548828125
111, 8121, 8150, 8160, 8091, 8158, 8143, 8182, 8158, 8095, 8224, 7783, 8138, 8112, 8254,1.6920316219329834
112, 8096, 8132, 8139, 8062, 8134, 8134, 8168, 8162, 8096, 8223, 7847, 8131, 8111, 8239,1.7001450061798096
113, 8091, 8128, 8143, 8057, 8130, 8144, 8175, 8184, 8123, 8238, 8009, 8133, 8131, 8231,1.7079591751098633
114, 8105, 8135, 8156, 8084, 8125, 8165, 8207, 8195, 8160, 8254, 8131, 8149, 8143, 8256,1.716200351715088
115, 8129, 8147, 8153, 8102, 8139, 8184, 8233, 8196, 8194, 8281, 8197, 8179, 8174, 8303,1.7240595817565918
116, 8161, 8169, 8218, 8107, 8200, 8190, 8231, 8220, 8202, 8284, 8246, 8204, 8205, 8321,1.7309505939483643
117, 8160, 8163, 8195, 8126, 8154, 8180, 8233, 8196, 8193, 8263, 8274, 8178, 8203, 8313,1.7391629219055176
118, 8177, 8185, 8182, 8155, 8156, 8182, 8234, 8173, 8179, 8259, 8302, 8180, 8198, 8325,1.7470800876617432
119, 8228, 8224, 8233, 8166, 8202, 8187, 8214, 8196, 8170, 8274, 8357, 8228, 8227, 8364,1.7550582885742188
120, 8232, 8217, 8193, 8174, 8157, 8167, 8195, 8184, 8154, 8266, 8370, 8213, 8232, 8362,1.7631123065948486
121, 8202, 8203, 8159, 8175, 8128, 8141, 8182, 8158, 8114, 8237, 8329, 8169, 8190, 8314,1.7711541652679443
122, 8173, 8191, 8149, 8154, 8125, 8121, 8164, 8141, 8090, 8238, 8326, 8151, 8174, 8285,1.779151439666748
123, 8151, 8190, 8167, 8124, 8162, 8108, 8149, 8136, 8089, 8241, 8332, 8156, 8169, 8271,1.7871174812316895
124, 8127, 8177, 8168, 8100, 8156, 8111, 8145, 8129, 8086, 8226, 8324, 8153, 8153, 8251,1.7941997051239014
125, 8098, 8151, 8123, 8093, 8115, 8139, 8151, 8125, 8102, 8241, 8351, 8147, 8177, 8256,1.802267074584961
126, 8119, 8166, 8167, 8118, 8166, 8172, 8169, 8164, 8146, 8272, 8399, 8177, 8219, 8296,1.8099956512451172
127, 8130, 8166, 8160, 8137, 8162, 8172, 8191, 8177, 8189, 8284, 8412, 8177, 8229, 8310,1.818199872970581
237, 8097, 8157, 8129, 8120, 8148, 8168, 8193, 8167, 8194, 8281, 8393, 8158, 8213, 8281,1.8259515762329102
0, 8096, 8164, 8159, 8111, 8163, 8194, 8201, 8182, 8191, 8283, 8392, 8163, 8204, 8268,1.8347103595733643
1, 8126, 8154, 8137, 8116, 8141, 8206, 8218, 8171, 8195, 8278, 8394, 8154, 8203, 8296,1.8419427871704102
2, 8169, 8167, 8189, 8118, 8192, 8192, 8195, 8169, 8167, 8250, 8366, 8167, 8193, 8325,1.8500778675079346
3, 8202, 8181, 8226, 8127, 8188, 8188, 8181, 8167, 8140, 8240, 8368, 8190, 8207, 8337,1.856928825378418
4, 8202, 8187, 8175, 8134, 8148, 8184, 8200, 8158, 8140, 8249, 8392, 8188, 8219, 8342,1.8651366233825684
5, 8186, 8188, 8162, 8134, 8160, 8160, 8197, 8169, 8137, 8251, 8384, 8180, 8204, 8340,1.8729023933410645
6, 8171, 8185, 8153, 8141, 8164, 8144, 8186, 8178, 8143, 8260, 8374, 8170, 8215, 8345,1.8808927536010742
7, 8173, 8203, 8194, 8147, 8213, 8156, 8176, 8198, 8147, 8261, 8372, 8177, 8224, 8342,1.8891077041625977
8, 8134, 8161, 8141, 8123, 8158, 8154, 8169, 8174, 8140, 8255, 8364, 8151, 8211, 8320,1.8969967365264893
9, 8099, 8152, 8123, 8103, 8164, 8140, 8167, 8160, 8140, 8259, 8341, 8130, 8189, 8287,1.9052021503448486
10, 8124, 8202, 8261, 8110, 8258, 8149, 8162, 8204, 8148, 8258, 8328, 8161, 8167, 8255,1.9131176471710205
11, 8117, 8161, 8185, 8109, 8148, 8164, 8177, 8172, 8157, 8264, 8354, 8147, 8186, 8255,1.9215459823608398
12, 8102, 8136, 8077, 8104, 8097, 8177, 8198, 8144, 8156, 8274, 8360, 8121, 8211, 8263,1.9281940460205078
13, 8126, 8179, 8138, 8117, 8170, 8200, 8219, 8189, 8172, 8288, 8351, 8134, 8206, 8264,1.9362125396728516
14, 8133, 8188, 8159, 8133, 8184, 8228, 8244, 8207, 8205, 8291, 8362, 8139, 8199, 8262,1.9440488815307617
15, 8130, 8190, 8155, 8148, 8178, 8242, 8251, 8194, 8205, 8263, 8344, 8137, 8178, 8252,1.9520368576049805
16, 8150, 8204, 8162, 8163, 8172, 8243, 8257, 8180, 8196, 8250, 8319, 8147, 8154, 8260,1.960160732269287
17, 8180, 8204, 8182, 8156, 8196, 8250, 8254, 8176, 8192, 8259, 8334, 8172, 8163, 8292,1.9681763648986816
18, 8184, 8182, 8169, 8136, 8182, 8243, 8222, 8156, 8167, 8245, 8349, 8174, 8183, 8307,1.976156234741211
19, 8171, 8176, 8154, 8128, 8169, 8219, 8172, 8130, 8122, 8217, 8330, 8157, 8165, 8289,1.9839484691619873
20, 8168, 8191, 8194, 8115, 8205, 8214, 8145, 8138, 8087, 8207, 8305, 8158, 8134, 8280,1.9910459518432617
21, 8156, 8174, 8168, 8095, 8175, 8213, 8150, 8140, 8082, 8220, 8301, 8151, 8137, 8295,1.9990205764770508
22, 8152, 8160, 8141, 8094, 8145, 8190, 8156, 8150, 8092, 8237, 8307, 8144, 8152, 8297,2.006925106048584
23, 8167, 8170, 8161, 8110, 8149, 8180, 8162, 8167, 8108, 8252, 8328, 8147, 8171, 8293,2.0149524211883545
24, 8177, 8181, 8162, 8122, 8163, 8196, 8164, 8178, 8132, 8258, 8345, 8155, 8190, 8309,2.0229294300079346
25, 8206, 8215, 8216, 8131, 8200, 8212, 8164, 8213, 8152, 8259, 8344, 8187, 8197, 8333,2.030992269515991
26, 8214, 8212, 8197, 8131, 8145, 8202, 8185, 8213, 8170, 8273, 8352, 8189, 8211, 8349,2.0391016006469727
27, 8201, 8202, 8162, 8136, 8140, 8189, 8193, 8201, 8183, 8285, 8358, 8178, 8222, 8356,2.046999931335449
28, 8209, 8208, 8201, 8144, 8179, 8183, 8174, 8205, 8183, 8286, 8355, 8183, 8219, 8348,2.0550146102905273
29, 8192, 8186, 8166, 8122, 8136, 8169, 8158, 8165, 8164, 8270, 8337, 8157, 8194, 8316,2.062095880508423
30, 8174, 8187, 8174, 8104, 8165, 8173, 8152, 8147, 8136, 8249, 8307, 8148, 8156, 8290,2.070026397705078
31, 8176, 8191, 8183, 8120, 8166, 8191, 8161, 8150, 8132, 8245, 8310, 8156, 8158, 8300,2.0780208110809326
32, 8180, 8196, 8155, 8142, 8139, 8198, 8173, 8146, 8135, 8234, 8315, 8146, 8167, 8290,2.085994005203247
33, 8172, 8204, 8162, 8142, 8159, 8204, 8173, 8141, 8120, 8226, 8293, 8134, 8143, 8250,2.094151020050049
34, 8137, 8184, 8134, 8133, 8153, 8211, 8178, 8121, 8113, 8239, 8278, 8121, 8134, 8238,2.1022088527679443
35, 8119, 8179, 8157, 8126, 8177, 8212, 8179, 8127, 8105, 8225, 8263, 8124, 8121, 8234,2.1101038455963135
36, 8100, 8160, 8148, 8110, 8156, 8214, 8183, 8133, 8105, 8208, 8263, 8121, 8102, 8209,2.1172072887420654
37, 8078, 8150, 8127, 8095, 8159, 8224, 8193, 8152, 8123, 8232, 8280, 8119, 8113, 8191,2.1252012252807617
38, 8088, 8165, 8176, 8100, 8188, 8226, 8191, 8186, 8145, 8251, 8287, 8137, 8133, 8213,2.1329615116119385
39, 8102, 8156, 8149, 8115, 8131, 8206, 8183, 8171, 8160, 8251, 8292, 8136, 8147, 8239,2.141186475753784
40, 8117, 8156, 8141, 8110, 8133, 8194, 8168, 8168, 8152, 8246, 8288, 8138, 8144, 8240,2.149200439453125
41, 8129, 8163, 8167, 8107, 8147, 8196, 8165, 8181, 8147, 8249, 8292, 8151, 8146, 8256,2.1570780277252197
42, 8147, 8178, 8175, 8131, 8144, 8197, 8168, 8183, 8163, 8258, 8315, 8160, 8175, 8274,2.165102481842041
43, 8175, 8194, 8184, 8143, 8162, 8188, 8160, 8182, 8162, 8256, 8324, 8171, 8192, 8280,2.1732077598571777
44, 8190, 8180, 8154, 8126, 8146, 8172, 8167, 8166, 8154, 8254, 8319, 8169, 8182, 8300,2.181199789047241
45, 8206, 8185, 8192, 8122, 8173, 8166, 8176, 8171, 8151, 8242, 8307, 8175, 8171, 8310,2.188086986541748
46, 8211, 8205, 8210, 8148, 8175, 8167, 8172, 8170, 8140, 8233, 8294, 8174, 8174, 8298,2.1962270736694336
47, 8196, 8214, 8159, 8155, 8154, 8170, 8164, 8147, 8135, 8247, 8290, 8162, 8173, 8289,2.2039783000946045
48, 8197, 8225, 8176, 8156, 8172, 8170, 8162, 8144, 8132, 8258, 8295, 8170, 8165, 8287,2.211949110031128
49, 8195, 8217, 8165, 8177, 8141, 8161, 8163, 8126, 8121, 8247, 8291, 8164, 8163, 8289,2.2201926708221436
50, 8186, 8205, 8174, 8174, 8169, 8161, 8149, 8123, 8106, 8236, 8270, 8163, 8150, 8292,2.228206157684326
51, 8172, 8180, 8189, 8130, 8179, 8174, 8147, 8152, 8117, 8248, 8254, 8163, 8140, 8279,2.2360119819641113
52, 8149, 8164, 8133, 8112, 8130, 8185, 8167, 8173, 8141, 8262, 8260, 8143, 8156, 8269,2.2442421913146973
53, 8163, 8193, 8164, 8143, 8150, 8194, 8171, 8200, 8147, 8254, 8268, 8159, 8172, 8273,2.2512214183807373
54, 8168, 8187, 8168, 8137, 8129, 8193, 8173, 8196, 8157, 8252, 8260, 8158, 8168, 8271,2.258972406387329
55, 8143, 8174, 8136, 8105, 8130, 8184, 8171, 8180, 8170, 8259, 8243, 8138, 8152, 8259,2.2671267986297607
56, 8152, 8185, 8160, 8118, 8166, 8175, 8158, 8171, 8163, 8252, 8254, 8156, 8154, 8267,2.2752809524536133
57, 8180, 8180, 8164, 8135, 8144, 8159, 8151, 8141, 8139, 8239, 8280, 8177, 8163, 8277,2.2832400798797607
58, 8186, 8182, 8179, 8118, 8145, 8151, 8147, 8133, 8118, 8233, 8264, 8174, 8148, 8267,2.2912065982818604
59, 8180, 8181, 8168, 8111, 8144, 8170, 8166, 8148, 8135, 8249, 8252, 8156, 8160, 8275,2.299197196960449
60, 8188, 8196, 8188, 8136, 8178, 8189, 8188, 8187, 8167, 8270, 8272, 8165, 8191, 8300,2.3072776794433594
61, 8189, 8190, 8179, 8140, 8153, 8179, 8192, 8201, 8183, 8284, 8296, 8181, 8209, 8313,2.3151323795318604
62, 8190, 8185, 8161, 8128, 8142, 8164, 8174, 8188, 8190, 8288, 8304, 8192, 8224, 8328,2.3222384452819824
63, 8242, 8238, 8313, 8153, 8268, 8171, 8138, 8220, 8160, 8262, 8278, 8228, 8212, 8338,2.3301632404327393
64, 8246, 8225, 8247, 8175, 8160, 8164, 8139, 8176, 8143, 8260, 8282, 8206, 8217, 8351,2.3380210399627686
65, 8215, 8204, 8099, 8175, 8078, 8161, 8160, 8117, 8159, 8278, 8294, 8172, 8234, 8360,2.346200942993164
66, 8227, 8234, 8230, 8166, 8231, 8184, 8164, 8167, 8145, 8254, 8252, 8191, 8195, 8331,2.353928327560425
67, 8188, 8197, 8208, 8144, 8176, 8188, 8190, 8172, 8122, 8230, 8208, 8154, 8145, 8270,2.3619582653045654
68, 8119, 8150, 8067, 8112, 8075, 8180, 8228, 8141, 8125, 8235, 8188, 8105, 8122, 8223,2.370023250579834
69, 8112, 8157, 8118, 8098, 8157, 8189, 8241, 8174, 8137, 8237, 8184, 8129, 8114, 8225,2.3779237270355225
70, 8132, 8162, 8178, 8097, 8201, 8192, 8236, 8196, 8141, 8234, 8196, 8155, 8121, 8256,2.3849406242370605
71, 8150, 8168, 8156, 8098, 8154, 8189, 8227, 8173, 8143, 8244, 8214, 8151, 8142, 8273,2.393104314804077
72, 8156, 8189, 8148, 8109, 8149, 8180, 8201, 8153, 8145, 8260, 8228, 8148, 8158, 8265,2.400959014892578
73, 8159, 8214, 8175, 8127, 8181, 8158, 8159, 8149, 8134, 8258, 8237, 8156, 8161, 8261,2.4090709686279297
74, 8180, 8215, 8176, 8149, 8153, 8150, 8132, 8139, 8123, 8255, 8245, 8170, 8181, 8286,2.416926145553589
75, 8206, 8219, 8181, 8169, 8148, 8171, 8131, 8148, 8128, 8259, 8252, 8189, 8203, 8315,2.4250168800354004
76, 8216, 8242, 8203, 8174, 8169, 8175, 8128, 8159, 8130, 8257, 8263, 8197, 8204, 8325,2.4329802989959717
77, 8210, 8238, 8160, 8174, 8123, 8150, 8120, 8132, 8118, 8259, 8264, 8179, 8205, 8324,2.4410560131073
78, 8217, 8235, 8162, 8187, 8133, 8150, 8124, 8142, 8118, 8262, 8251, 8190, 8209, 8332,2.4489386081695557
79, 8228, 8234, 8188, 8199, 8164, 8164, 8144, 8178, 8144, 8275, 8258, 8202, 8221, 8354,2.4560420513153076
80, 8228, 8230, 8173, 8194, 8162, 8159, 8163, 8176, 8154, 8286, 8254, 8183, 8222, 8350,2.4639415740966797
81, 8227, 8239, 8193, 8180, 8174, 8155, 8161, 8170, 8133, 8263, 8217, 8182, 8196, 8318,2.4720919132232666
82, 8201, 8222, 8146, 8169, 8143, 8148, 8156, 8162, 8133, 8252, 8211, 8178, 8185, 8310,2.4798154830932617
83, 8189, 8207, 8149, 8151, 8169, 8138, 8149, 8167, 8132, 8253, 8216, 8175, 8185, 8319,2.488041877746582
84, 8193, 8199, 8180, 8132, 8152, 8142, 8149, 8162, 8111, 8237, 8199, 8169, 8171, 8307,2.4959893226623535
85, 8174, 8200, 8139, 8136, 8113, 8155, 8155, 8147, 8106, 8227, 8182, 8156, 8156, 8286,2.504110097885132
86, 8165, 8216, 8173, 8148, 8175, 8160, 8148, 8164, 8107, 8238, 8174, 8169, 8159, 8276,2.512028217315674
87, 8158, 8191, 8157, 8134, 8150, 8156, 8159, 8163, 8115, 8256, 8192, 8159, 8179, 8274,2.51910138130188
88, 8154, 8189, 8146, 8127, 8155, 8164, 8169, 8170, 8128, 8253, 8194, 8153, 8168, 8263,2.5269925594329834
89, 8160, 8212, 8199, 8146, 8198, 8172, 8166, 8194, 8129, 8246, 8164, 8162, 8139, 8253,2.5350849628448486
90, 8164, 8198, 8162, 8154, 8141, 8165, 8187, 8183, 8146, 8262, 8172, 8152, 8163, 8266,2.543074607849121
91, 8187, 8201, 8164, 8160, 8149, 8161, 8197, 8181, 8166, 8278, 8209, 8167, 8195, 8289,2.551002025604248
92, 8191, 8214, 8177, 8174, 8182, 8168, 8180, 8167, 8159, 8273, 8209, 8172, 8184, 8289,2.5590062141418457
93, 8185, 8239, 8178, 8179, 8195, 8179, 8177, 8151, 8145, 8270, 8186, 8163, 8176, 8273,2.5671324729919434
94, 8206, 8260, 8207, 8176, 8188, 8176, 8190, 8160, 8147, 8279, 8193, 8176, 8186, 8273,2.5749945640563965
95, 8197, 8233, 8168, 8166, 8142, 8152, 8181, 8140, 8138, 8261, 8190, 8163, 8164, 8261,2.58301043510437
96, 8178, 8221, 8160, 8157, 8157, 8138, 8163, 8130, 8104, 8234, 8165, 8152, 8140, 8245,2.5900092124938965
97, 8179, 8220, 8169, 8155, 8157, 8140, 8162, 8140, 8085, 8243, 8166, 8163, 8158, 8260,2.598059892654419
98, 8187, 8223, 8197, 8151, 8185, 8129, 8145, 8154, 8077, 8233, 8165, 8170, 8157, 8274,2.606017589569092
99, 8187, 8211, 8215, 8134, 8185, 8118, 8137, 8160, 8078, 8219, 8155, 8165, 8141, 8276,2.6140518188476562
100, 8164, 8191, 8129, 8122, 8113, 8131, 8163, 8141, 8107, 8244, 8160, 8153, 8155, 8278,2.622073173522949
101, 8175, 8236, 8183, 8131, 8188, 8155, 8160, 8178, 8118, 8252, 8154, 8171, 8160, 8271,2.6300220489501953
102, 8196, 8247, 8217, 8151, 8188, 8155, 8157, 8203, 8121, 8256, 8172, 8177, 8171, 8283,2.6378960609436035
103, 8181, 8211, 8120, 8153, 8110, 8141, 8181, 8171, 8139, 8274, 8202, 8160, 8188, 8315,2.6451401710510254
104, 8184, 8235, 8159, 8149, 8177, 8153, 8192, 8188, 8151, 8266, 8200, 8179, 8188, 8330,2.653146266937256
105, 8189, 8256, 8198, 8162, 8190, 8168, 8195, 8206, 8162, 8267, 8218, 8193, 8213, 8338,2.6611342430114746
106, 8181, 8250, 8155, 8182, 8137, 8168, 8190, 8186, 8167, 8288, 8238, 8183, 8234, 8336,2.6690478324890137
107, 8188, 8257, 8136, 8202, 8137, 8165, 8170, 8163, 8158, 8284, 8230, 8177, 8225, 8322,2.677147388458252
108, 8213, 8285, 8189, 8209, 8196, 8170, 8154, 8168, 8141, 8275, 8238, 8188, 8225, 8322,2.6851627826690674
109, 8226, 8294, 8218, 8205, 8179, 8183, 8156, 8170, 8142, 8289, 8254, 8199, 8238, 8333,2.6929376125335693
110, 8217, 8280, 8153, 8203, 8109, 8195, 8174, 8150, 8162, 8300, 8251, 8190, 8251, 8350,2.7012522220611572
111, 8232, 8306, 8202, 8210, 8180, 8200, 8181, 8180, 8150, 8290, 8234, 8200, 8247, 8359,2.7091591358184814
112, 8226, 8287, 8224, 8193, 8178, 8186, 8178, 8181, 8125, 8280, 8219, 8199, 8232, 8345,2.716116428375244
113, 8192, 8237, 8130, 8154, 8104, 8172, 8180, 8136, 8131, 8275, 8200, 8166, 8223, 8318,2.7240123748779297
114, 8195, 8255, 8162, 8135, 8157, 8180, 8180, 8156, 8142, 8270, 8179, 8164, 8210, 8306,2.731994390487671
115, 8187, 8247, 8163, 8128, 8141, 8176, 8179, 8175, 8144, 8285, 8184, 8160, 8200, 8311,2.739961862564087
116, 8169, 8220, 8136, 8120, 8122, 8154, 8161, 8166, 8135, 8275, 8173, 8153, 8178, 8299,2.7481887340545654
117, 8177, 8218, 8178, 8106, 8137, 8151, 8150, 8164, 8119, 8242, 8154, 8166, 8161, 8289,2.756016254425049
118, 8182, 8208, 8168, 8095, 8110, 8171, 8173, 8157, 8124, 8250, 8173, 8170, 8178, 8311,2.764017105102539
119, 8186, 8214, 8179, 8104, 8133, 8179, 8181, 8172, 8130, 8259, 8182, 8176, 8180, 8319,2.7720870971679688
120, 8180, 8220, 8169, 8130, 8117, 8159, 8172, 8168, 8132, 8247, 8169, 8163, 8160, 8296,2.779109239578247
121, 8179, 8225, 8149, 8151, 8098, 8147, 8178, 8153, 8131, 8245, 8173, 8154, 8155, 8282,2.787101984024048
122, 8194, 8232, 8159, 8153, 8109, 8151, 8185, 8156, 8125, 8247, 8187, 8174, 8164, 8294,2.795095682144165
123, 8196, 8254, 8167, 8172, 8131, 8145, 8161, 8163, 8122, 8241, 8188, 8180, 8166, 8292,2.8031253814697266
124, 8205, 8295, 8228, 8203, 8185, 8149, 8142, 8192, 8124, 8239, 8199, 8193, 8179, 8289,2.811208963394165
125, 8199, 8281, 8197, 8212, 8137, 8160, 8167, 8182, 8141, 8261, 8224, 8190, 8205, 8303,2.8189549446105957
126, 8172, 8257, 8171, 8192, 8139, 8147, 8169, 8154, 8133, 8265, 8193, 8168, 8180, 8287,2.8268625736236572
127, 8152, 8239, 8184, 8168, 8150, 8119, 8138, 8142, 8100, 8249, 8151, 8147, 8146, 8256,2.8349196910858154
237, 8140, 8221, 8120, 8154, 8106, 8110, 8137, 8118, 8088, 8244, 8167, 8138, 8164, 8259,2.842993974685669
0, 8176, 8253, 8215, 8150, 8206, 8133, 8145, 8154, 8071, 8233, 8167, 8179, 8159, 8266,2.8498854637145996
1, 8183, 8233, 8249, 8145, 8186, 8142, 8157, 8182, 8073, 8223, 8145, 8177, 8135, 8252,2.857851266860962
2, 8115, 8169, 8074, 8123, 8046, 8133, 8173, 8149, 8114, 8231, 8147, 8122, 8146, 8242,2.8659801483154297
3, 8090, 8176, 8054, 8104, 8078, 8124, 8163, 8145, 8133, 8246, 8161, 8125, 8158, 8244,2.8742380142211914
4, 8129, 8198, 8156, 8098, 8141, 8118, 8148, 8167, 8125, 8247, 8166, 8157, 8152, 8258,2.881927728652954
5, 8162, 8198, 8204, 8098, 8150, 8126, 8159, 8187, 8128, 8236, 8158, 8171, 8147, 8272,2.88993763923645
6, 8156, 8187, 8163, 8111, 8122, 8137, 8188, 8181, 8136, 8234, 8157, 8162, 8150, 8274,2.8980977535247803
7, 8157, 8202, 8154, 8137, 8133, 8144, 8200, 8178, 8134, 8233, 8171, 8158, 8155, 8269,2.904984951019287
8, 8177, 8222, 8204, 8144, 8163, 8154, 8200, 8191, 8132, 8227, 8171, 8175, 8154, 8267,2.912933349609375
9, 8168, 8206, 8171, 8136, 8132, 8156, 8199, 8171, 8139, 8234, 8175, 8174, 8166, 8278,2.921052932739258
10, 8174, 8226, 8182, 8167, 8150, 8155, 8176, 8165, 8143, 8236, 8191, 8181, 8186, 8293,2.929037570953369
11, 8202, 8251, 8201, 8217, 8141, 8158, 8162, 8166, 8160, 8249, 8206, 8189, 8215, 8309,2.9369869232177734
12, 8213, 8258, 8190, 8225, 8140, 8156, 8166, 8156, 8174, 8271, 8206, 8185, 8228, 8320,2.9450905323028564
13, 8203, 8265, 8239, 8193, 8197, 8142, 8142, 8165, 8143, 8257, 8182, 8185, 8196, 8303,2.9529857635498047
14, 8163, 8219, 8177, 8164, 8127, 8127, 8131, 8144, 8112, 8230, 8159, 8156, 8168, 8278,2.9611799716949463
15, 8133, 8182, 8091, 8152, 8070, 8117, 8159, 8123, 8114, 8229, 8150, 8138, 8165, 8264,2.9691579341888428
16, 8148, 8207, 8121, 8158, 8113, 8116, 8180, 8148, 8129, 8231, 8156, 8155, 8171, 8265,2.9761481285095215
17, 8184, 8240, 8199, 8178, 8166, 8126, 8175, 8183, 8132, 8229, 8159, 8178, 8167, 8279,2.984179735183716
18, 8212, 8233, 8219, 8191, 8146, 8130, 8174, 8182, 8138, 8238, 8161, 8198, 8164, 8301,2.992112636566162
19, 8205, 8207, 8136, 8184, 8086, 8127, 8193, 8150, 8160, 8249, 8174, 8196, 8186, 8325,3.0002455711364746
20, 8231, 8252, 8242, 8194, 8222, 8140, 8181, 8193, 8148, 8237, 8160, 8221, 8181, 8324,3.008176326751709
21, 8259, 8276, 8343, 8223, 8249, 8138, 8163, 8216, 8125, 8223, 8159, 8241, 8168, 8318,3.016141653060913
22, 8227, 8229, 8175, 8228, 8058, 8106, 8175, 8144, 8137, 8231, 8196, 8206, 8202, 8333,3.02398943901062
23, 8218, 8230, 8113, 8229, 8057, 8100, 8176, 8137, 8145, 8236, 8205, 8201, 8227, 8344,3.032322645187378
24, 8245, 8261, 8202, 8253, 8161, 8113, 8166, 8165, 8131, 8230, 8188, 8223, 8212, 8338,3.039947271347046
25, 8258, 8268, 8229, 8270, 8182, 8113, 8157, 8150, 8117, 8223, 8175, 8220, 8194, 8330,3.0470011234283447
26, 8255, 8271, 8234, 8259, 8177, 8119, 8147, 8152, 8107, 8229, 8167, 8212, 8198, 8324,3.054938793182373
27, 8243, 8266, 8212, 8256, 8166, 8124, 8145, 8151, 8113, 8235, 8179, 8211, 8223, 8329,3.06284499168396
28, 8234, 8267, 8174, 8269, 8170, 8113, 8148, 8139, 8123, 8239, 8186, 8209, 8243, 8342,3.0709588527679443
29, 8214, 8253, 8128, 8245, 8150, 8109, 8154, 8141, 8120, 8257, 8162, 8182, 8236, 8324,3.0790889263153076
30, 8181, 8235, 8130, 8202, 8153, 8121, 8165, 8164, 8121, 8249, 8125, 8158, 8206, 8282,3.0869596004486084
31, 8154, 8215, 8154, 8179, 8176, 8128, 8174, 8170, 8132, 8226, 8106, 8156, 8182, 8270,3.094975709915161
32, 8136, 8191, 8141, 8168, 8178, 8123, 8167, 8155, 8131, 8231, 8102, 8149, 8177, 8271,3.1029908657073975
33, 8146, 8204, 8191, 8150, 8216, 8125, 8145, 8175, 8122, 8232, 8090, 8157, 8165, 8254,3.1100170612335205
34, 8150, 8189, 8165, 8136, 8174, 8119, 8142, 8178, 8139, 8231, 8091, 8154, 8165, 8264,3.1180412769317627
35, 8136, 8162, 8091, 8129, 8147, 8112, 8151, 8167, 8160, 8246, 8099, 8144, 8176, 8298,3.126225233078003
36, 8152, 8183, 8156, 8146, 8205, 8121, 8150, 8195, 8154, 8243, 8093, 8161, 8169, 8303,3.134244203567505
37, 8160, 8195, 8168, 8167, 8186, 8123, 8152, 8192, 8155, 8236, 8089, 8161, 8164, 8288,3.1420295238494873
38, 8158, 8199, 8150, 8165, 8193, 8120, 8150, 8170, 8148, 8242, 8082, 8158, 8165, 8283,3.15004825592041
39, 8164, 8196, 8159, 8166, 8183, 8112, 8138, 8147, 8130, 8240, 8086, 8161, 8176, 8287,3.1581380367279053
40, 8184, 8206, 8164, 8192, 8149, 8112, 8132, 8136, 8133, 8248, 8100, 8170, 8201, 8299,3.16593074798584
41, 8224, 8241, 8198, 8220, 8166, 8121, 8145, 8158, 8151, 8272, 8084, 8191, 8221, 8323,3.1730663776397705
42, 8246, 8248, 8182, 8232, 8159, 8117, 8161, 8163, 8164, 8287, 8038, 8191, 8231, 8340,3.1811304092407227
43, 8250, 8246, 8198, 8229, 8182, 8116, 8157, 8169, 8157, 8280, 7989, 8193, 8221, 8335,3.189314603805542
44, 8231, 8222, 8154, 8205, 8141, 8126, 8160, 8151, 8149, 8266, 7952, 8177, 8207, 8324,3.197195291519165
45, 8217, 8222, 8160, 8177, 8190, 8137, 8157, 8159, 8138, 8247, 7897, 8167, 8182, 8304,3.2050788402557373
46, 8226, 8230, 8294, 8165, 8281, 8142, 8142, 8221, 8130, 8238, 7850, 8192, 8154, 8293,3.213186502456665
47, 8185, 8159, 8155, 8148, 8123, 8134, 8172, 8183, 8160, 8260, 7852, 8153, 8166, 8303,3.220949649810791
48, 8158, 8151, 8070, 8125, 8124, 8141, 8201, 8159, 8170, 8250, 7813, 8118, 8143, 8276,3.229119300842285
49, 8170, 8179, 8208, 8109, 8251, 8167, 8202, 8209, 8158, 8215, 7756, 8144, 8086, 8236,3.236973524093628
50, 8140, 8125, 8153, 8099, 8160, 8170, 8214, 8187, 8173, 8227, 7782, 8137, 8097, 8251,3.243964195251465
51, 8122, 8115, 8088, 8101, 8121, 8158, 8207, 8157, 8177, 8245, 7817, 8127, 8129, 8274,3.252290725708008
52, 8150, 8156, 8161, 8121, 8182, 8156, 8189, 8182, 8161, 8229, 7808, 8146, 8129, 8269,3.2600624561309814
53, 8152, 8148, 8154, 8126, 8155, 8155, 8196, 8181, 8158, 8223, 7807, 8149, 8133, 8262,3.26798677444458
54, 8133, 8120, 8064, 8115, 8092, 8149, 8207, 8147, 8167, 8245, 7834, 8134, 8153, 8271,3.2761285305023193
55, 8154, 8158, 8141, 8120, 8190, 8151, 8195, 8168, 8155, 8240, 7831, 8156, 8148, 8277,3.283982992172241
56, 8191, 8200, 8308, 8135, 8278, 8156, 8186, 8215, 8132, 8213, 7807, 8200, 8121, 8276,3.2920877933502197
57, 8161, 8158, 8181, 8144, 8114, 8148, 8214, 8169, 8147, 8237, 7835, 8169, 8141, 8288,3.3000688552856445
58, 8151, 8168, 8120, 8165, 8122, 8157, 8218, 8160, 8182, 8258, 7870, 8153, 8173, 8296,3.307188034057617
59, 8193, 8197, 8237, 8179, 8235, 8172, 8200, 8201, 8193, 8248, 7868, 8189, 8182, 8291,3.3149771690368652
60, 8185, 8161, 8159, 8156, 8151, 8164, 8204, 8167, 8196, 8256, 7858, 8173, 8179, 8296,3.3232126235961914
61, 8179, 8177, 8145, 8148, 8174, 8157, 8195, 8172, 8195, 8260, 7843, 8165, 8158, 8299,3.331052303314209
62, 8200, 8195, 8213, 8162, 8220, 8157, 8192, 8210, 8199, 8262, 7847, 8180, 8164, 8301,3.3391754627227783
63, 8173, 8146, 8103, 8146, 8118, 8154, 8214, 8174, 8207, 8279, 7854, 8148, 8185, 8302,3.3469583988189697
64, 8149, 8140, 8057, 8120, 8123, 8150, 8207, 8148, 8183, 8265, 7830, 8128, 8167, 8291,3.3550565242767334
65, 8179, 8189, 8187, 8131, 8246, 8154, 8176, 8182, 8159, 8229, 7822, 8160, 8144, 8282,3.3630149364471436
66, 8186, 8175, 8207, 8143, 8223, 8161, 8174, 8188, 8170, 8230, 7845, 8175, 8151, 8284,3.369898796081543
67, 8156, 8118, 8088, 8130, 8114, 8164, 8188, 8147, 8174, 8248, 7858, 8141, 8160, 8285,3.3779776096343994
68, 8172, 8153, 8136, 8138, 8190, 8169, 8169, 8168, 8150, 8230, 7840, 8144, 8145, 8276,3.3861680030822754
69, 8190, 8195, 8211, 8144, 8241, 8172, 8156, 8208, 8156, 8226, 7840, 8166, 8148, 8279,3.3939836025238037
70, 8148, 8151, 8138, 8131, 8174, 8164, 8182, 8187, 8188, 8251, 7862, 8152, 8168, 8292,3.4021823406219482
71, 8138, 8144, 8182, 8121, 8229, 8158, 8188, 8186, 8167, 8236, 7853, 8161, 8154, 8282,3.4100053310394287
72, 8156, 8160, 8218, 8122, 8216, 8152, 8174, 8182, 8140, 8213, 7836, 8167, 8137, 8267,3.4179296493530273
73, 8144, 8140, 8108, 8141, 8114, 8142, 8176, 8137, 8155, 8238, 7850, 8142, 8157, 8269,3.4261343479156494
74, 8143, 8152, 8105, 8163, 8150, 8146, 8177, 8135, 8164, 8256, 7871, 8149, 8170, 8272,3.434157609939575
75, 8144, 8165, 8136, 8152, 8178, 8151, 8174, 8155, 8163, 8245, 7863, 8155, 8161, 8264,3.441063404083252
76, 8165, 8183, 8195, 8142, 8209, 8145, 8167, 8185, 8161, 8241, 7858, 8168, 8163, 8264,3.4491806030273438
77, 8202, 8197, 8268, 8160, 8240, 8145, 8169, 8211, 8170, 8260, 7928, 8197, 8187, 8288,3.4569780826568604
78, 8188, 8171, 8185, 8163, 8173, 8156, 8191, 8187, 8198, 8282, 8050, 8180, 8207, 8309,3.465191125869751
79, 8166, 8156, 8100, 8164, 8134, 8155, 8203, 8168, 8207, 8282, 8140, 8154, 8209, 8310,3.4729580879211426
80, 8174, 8158, 8146, 8165, 8181, 8145, 8179, 8178, 8185, 8264, 8175, 8167, 8195, 8297,3.481170654296875
81, 8177, 8150, 8209, 8136, 8218, 8145, 8147, 8184, 8162, 8245, 8182, 8175, 8167, 8283,3.489109754562378
82, 8159, 8127, 8122, 8130, 8130, 8140, 8154, 8150, 8165, 8248, 8213, 8148, 8169, 8284,3.4970195293426514
83, 8164, 8156, 8124, 8148, 8168, 8134, 8160, 8153, 8160, 8249, 8240, 8152, 8177, 8277,3.5038962364196777
84, 8204, 8213, 8324, 8151, 8303, 8144, 8141, 8214, 8131, 8232, 8228, 8200, 8148, 8265,3.512178659439087
85, 8193, 8171, 8216, 8162, 8144, 8135, 8158, 8167, 8140, 8253, 8257, 8180, 8172, 8301,3.5199198722839355
86, 8189, 8161, 8096, 8178, 8106, 8124, 8166, 8128, 8155, 8275, 8298, 8171, 8214, 8334,3.5281801223754883
87, 8229, 8203, 8254, 8173, 8259, 8140, 8145, 8188, 8145, 8262, 8295, 8212, 8204, 8332,3.5361061096191406
88, 8209, 8164, 8195, 8169, 8169, 8145, 8166, 8174, 8165, 8274, 8307, 8183, 8214, 8337,3.5441319942474365
89, 8180, 8163, 8082, 8192, 8118, 8143, 8182, 8131, 8175, 8289, 8326, 8154, 8226, 8321,3.5521252155303955
90, 8216, 8229, 8189, 8227, 8228, 8154, 8163, 8150, 8149, 8278, 8320, 8190, 8206, 8297,3.560185670852661
91, 8241, 8230, 8227, 8238, 8220, 8146, 8167, 8169, 8151, 8277, 8322, 8206, 8207, 8322,3.568075656890869
92, 8212, 8183, 8130, 8208, 8141, 8117, 8183, 8163, 8166, 8281, 8334, 8176, 8216, 8343,3.57515287399292
93, 8192, 8179, 8143, 8177, 8187, 8111, 8172, 8173, 8144, 8262, 8314, 8158, 8193, 8326,3.5829684734344482
94, 8195, 8178, 8195, 8168, 8209, 8120, 8165, 8180, 8126, 8244, 8283, 8163, 8172, 8303,3.591184377670288
95, 8152, 8135, 8080, 8158, 8106, 8113, 8170, 8135, 8136, 8248, 8272, 8129, 8152, 8259,3.5991086959838867
96, 8131, 8154, 8125, 8151, 8185, 8118, 8151, 8145, 8122, 8240, 8261, 8131, 8117, 8217,3.6072487831115723
97, 8163, 8181, 8285, 8145, 8273, 8141, 8147, 8205, 8116, 8233, 8266, 8184, 8128, 8239,3.615154504776001
98, 8138, 8118, 8149, 8136, 8115, 8139, 8179, 8177, 8162, 8261, 8292, 8157, 8174, 8264,3.622950792312622
99, 8105, 8097, 8051, 8126, 8095, 8115, 8174, 8142, 8172, 8270, 8279, 8122, 8160, 8240,3.6309773921966553
100, 8135, 8145, 8180, 8120, 8211, 8113, 8152, 8172, 8149, 8248, 8262, 8156, 8132, 8237,3.6381821632385254
101, 8170, 8168, 8210, 8147, 8198, 8135, 8175, 8186, 8174, 8254, 8300, 8180, 8164, 8267,3.645948648452759
102, 8178, 8149, 8152, 8172, 8156, 8144, 8200, 8167, 8203, 8281, 8326, 8175, 8195, 8280,3.654231548309326
103, 8176, 8135, 8138, 8162, 8161, 8147, 8199, 8149, 8191, 8291, 8323, 8178, 8197, 8295,3.661942481994629
104, 8195, 8164, 8194, 8169, 8198, 8172, 8192, 8166, 8184, 8287, 8332, 8200, 8207, 8314,3.6699440479278564
105, 8204, 8164, 8185, 8193, 8173, 8176, 8186, 8165, 8206, 8296, 8346, 8194, 8233, 8315,3.6781420707702637
106, 8204, 8172, 8182, 8195, 8186, 8150, 8165, 8153, 8206, 8294, 8329, 8185, 8232, 8307,3.6861865520477295
107, 8218, 8209, 8229, 8198, 8211, 8138, 8154, 8167, 8183, 8284, 8302, 8194, 8207, 8303,3.6939475536346436
108, 8198, 8186, 8154, 8205, 8131, 8135, 8167, 8154, 8188, 8290, 8310, 8171, 8203, 8302,3.7021610736846924
109, 8175, 8160, 8135, 8189, 8156, 8132, 8173, 8160, 8199, 8294, 8311, 8166, 8206, 8305,3.7091283798217773
110, 8169, 8138, 8131, 8166, 8170, 8139, 8184, 8160, 8189, 8287, 8290, 8159, 8205, 8308,3.71718430519104
111, 8163, 8130, 8122, 8150, 8182, 8149, 8185, 8158, 8167, 8266, 8259, 8136, 8181, 8284,3.7251930236816406
112, 8167, 8163, 8267, 8134, 8284, 8155, 8157, 8213, 8147, 8246, 8241, 8164, 8146, 8248,3.733126640319824
113, 8136, 8120, 8203, 8112, 8171, 8144, 8165, 8194, 8166, 8258, 8263, 8155, 8156, 8247,3.7411324977874756
114, 8109, 8068, 8034, 8109, 8056, 8132, 8185, 8126, 8186, 8260, 8253, 8102, 8150, 8242,3.749154806137085
115, 8130, 8105, 8103, 8127, 8149, 8141, 8172, 8140, 8168, 8234, 8223, 8109, 8108, 8218,3.757139205932617
116, 8138, 8137, 8190, 8131, 8191, 8157, 8175, 8176, 8162, 8237, 8247, 8154, 8135, 8234,3.7651708126068115
117, 8135, 8124, 8170, 8140, 8150, 8170, 8204, 8181, 8185, 8266, 8288, 8173, 8191, 8274,3.7719852924346924
118, 8135, 8119, 8139, 8172, 8144, 8173, 8208, 8159, 8196, 8276, 8281, 8153, 8183, 8271,3.7801730632781982
119, 8160, 8170, 8236, 8195, 8252, 8176, 8186, 8177, 8182, 8265, 8263, 8169, 8161, 8255,3.7881507873535156
120, 8185, 8184, 8237, 8193, 8205, 8172, 8194, 8182, 8189, 8273, 8288, 8189, 8192, 8280,3.795933961868286
121, 8167, 8157, 8118, 8191, 8111, 8159, 8201, 8154, 8214, 8288, 8260, 8166, 8219, 8300,3.804126262664795
122, 8178, 8186, 8226, 8196, 8239, 8161, 8167, 8205, 8212, 8279, 8109, 8193, 8209, 8293,3.812154769897461
123, 8191, 8174, 8229, 8207, 8203, 8161, 8172, 8222, 8223, 8291, 7976, 8204, 8233, 8315,3.820080041885376
124, 8187, 8156, 8126, 8219, 8129, 8145, 8191, 8189, 8233, 8307, 7916, 8173, 8243, 8331,3.8281383514404297
125, 8193, 8187, 8206, 8208, 8206, 8142, 8169, 8200, 8199, 8274, 7865, 8172, 8195, 8294,3.836153030395508
126, 8161, 8162, 8180, 8169, 8166, 8158, 8178, 8184, 8187, 8250, 7845, 8161, 8183, 8269,3.8431689739227295
127, 8130, 8128, 8111, 8139, 8139, 8169, 8209, 8169, 8204, 8254, 7849, 8152, 8196, 8287,3.851101875305176
237, 8141, 8125, 8129, 8141, 8165, 8166, 8200, 8166, 8197, 8247, 7824, 8155, 8178, 8298,3.8591692447662354
0, 8173, 8153, 8211, 8159, 8222, 8159, 8167, 8171, 8154, 8218, 7739, 8172, 8143, 8279,3.867156744003296
1, 8170, 8148, 8209, 8162, 8187, 8137, 8164, 8164, 8126, 8202, 7656, 8174, 8137, 8276,3.87495756149292
2, 8139, 8112, 8100, 8142, 8100, 8117, 8177, 8137, 8138, 8209, 7632, 8153, 8156, 8297,3.8820455074310303
3, 8178, 8155, 8175, 8158, 8183, 8135, 8160, 8165, 8139, 8203, 7612, 8184, 8155, 8314,3.891181468963623
4, 8213, 8169, 8215, 8191, 8192, 8153, 8160, 8177, 8137, 8209, 7592, 8200, 8169, 8329,3.8979132175445557
5, 8167, 8121, 8113, 8158, 8125, 8143, 8179, 8145, 8145, 8229, 7583, 8165, 8185, 8320,3.906181812286377
6, 8161, 8129, 8176, 8125, 8201, 8140, 8164, 8156, 8132, 8224, 7562, 8179, 8166, 8297,3.9140849113464355
7, 8199, 8152, 8239, 8156, 8209, 8147, 8158, 8163, 8125, 8223, 7555, 8202, 8169, 8318,3.92208194732666
8, 8191, 8137, 8128, 8187, 8107, 8144, 8171, 8131, 8144, 8239, 7564, 8168, 8191, 8343,3.930109977722168
9, 8181, 8146, 8117, 8176, 8142, 8141, 8164, 8148, 8159, 8240, 7555, 8154, 8182, 8324,3.9381887912750244
10, 8193, 8163, 8199, 8169, 8209, 8143, 8152, 8186, 8170, 8241, 7551, 8181, 8181, 8315,3.9459638595581055
11, 8180, 8148, 8139, 8183, 8144, 8134, 8157, 8163, 8184, 8256, 7569, 8179, 8206, 8331,3.954200267791748
12, 8181, 8151, 8097, 8184, 8139, 8123, 8164, 8151, 8188, 8254, 7577, 8169, 8211, 8332,3.962096929550171
13, 8207, 8165, 8181, 8172, 8221, 8126, 8169, 8184, 8179, 8245, 7574, 8187, 8204, 8314,3.969181776046753
14, 8199, 8147, 8192, 8173, 8210, 8140, 8177, 8178, 8174, 8254, 7579, 8199, 8213, 8317,3.977163791656494
15, 8189, 8151, 8178, 8191, 8206, 8149, 8170, 8167, 8174, 8252, 7583, 8199, 8216, 8343,3.9852054119110107
16, 8210, 8179, 8221, 8195, 8233, 8139, 8165, 8187, 8170, 8240, 7583, 8199, 8206, 8337,3.993006706237793
17, 8185, 8153, 8142, 8175, 8158, 8124, 8173, 8157, 8169, 8255, 7587, 8166, 8209, 8302,4.0010387897491455
18, 8154, 8149, 8146, 8166, 8196, 8130, 8159, 8150, 8163, 8267, 7586, 8173, 8212, 8297,4.009149074554443
19, 8164, 8163, 8205, 8175, 8208, 8136, 8149, 8165, 8155, 8275, 7602, 8198, 8221, 8325,4.016175746917725
20, 8174, 8154, 8135, 8190, 8140, 8124, 8152, 8134, 8146, 8282, 7611, 8169, 8221, 8320,4.023926019668579
21, 8212, 8196, 8228, 8202, 8246, 8125, 8141, 8166, 8130, 8254, 7590, 8187, 8192, 8295,4.032198190689087
22, 8229, 8199, 8259, 8217, 8224, 8134, 8148, 8186, 8135, 8248, 7620, 8211, 8212, 8314,4.039991617202759
23, 8186, 8150, 8090, 8225, 8084, 8131, 8167, 8133, 8141, 8277, 7668, 8174, 8251, 8337,4.047963857650757
24, 8162, 8159, 8096, 8220, 8139, 8139, 8167, 8144, 8143, 8283, 7662, 8167, 8240, 8330,4.056094408035278
25, 8181, 8198, 8219, 8216, 8249, 8152, 8171, 8208, 8169, 8274, 7655, 8201, 8231, 8333,4.064208269119263
26, 8196, 8203, 8206, 8211, 8222, 8151, 8174, 8210, 8189, 8275, 7660, 8206, 8243, 8341,4.071977376937866
27, 8185, 8173, 8111, 8208, 8146, 8142, 8167, 8157, 8192, 8276, 7655, 8178, 8240, 8334,4.080061197280884
28, 8210, 8198, 8208, 8225, 8249, 8146, 8152, 8181, 8194, 8270, 7653, 8193, 8223, 8329,4.088109970092773
29, 8235, 8204, 8266, 8227, 8266, 8157, 8158, 8215, 8198, 8266, 7665, 8207, 8225, 8343,4.095215320587158
30, 8189, 8145, 8119, 8193, 8148, 8152, 8178, 8172, 8199, 8263, 7673, 8180, 8239, 8353,4.1031317710876465
31, 8178, 8160, 8182, 8176, 8228, 8144, 8171, 8185, 8177, 8247, 7713, 8200, 8214, 8342,4.110959768295288
32, 8179, 8158, 8208, 8183, 8207, 8126, 8167, 8183, 8158, 8233, 7831, 8194, 8191, 8332,4.118894577026367
33, 8144, 8129, 8096, 8170, 8119, 8106, 8171, 8135, 8142, 8222, 7925, 8149, 8184, 8307,4.126993894577026
34, 8142, 8150, 8174, 8149, 8194, 8110, 8152, 8157, 8120, 8201, 7952, 8165, 8168, 8274,4.134909391403198
35, 8142, 8135, 8181, 8158, 8171, 8113, 8155, 8161, 8143, 8211, 8015, 8173, 8183, 8273,4.142902851104736
36, 8143, 8136, 8139, 8197, 8162, 8111, 8157, 8153, 8165, 8234, 8076, 8163, 8194, 8271,4.150975704193115
37, 8154, 8162, 8164, 8210, 8202, 8120, 8147, 8168, 8155, 8228, 8091, 8161, 8180, 8256,4.158918142318726
38, 8153, 8170, 8176, 8199, 8208, 8129, 8163, 8178, 8161, 8225, 8113, 8164, 8178, 8245,4.166081190109253
39, 8151, 8174, 8203, 8213, 8222, 8131, 8180, 8181, 8170, 8226, 8131, 8169, 8173, 8229,4.17408013343811
40, 8136, 8173, 8179, 8222, 8199, 8135, 8177, 8157, 8155, 8214, 8127, 8152, 8161, 8228,4.182095050811768
41, 8123, 8163, 8129, 8202, 8174, 8145, 8177, 8143, 8150, 8205, 8145, 8157, 8175, 8264,4.190121173858643
42, 8145, 8154, 8133, 8202, 8175, 8149, 8190, 8157, 8178, 8222, 8186, 8189, 8210, 8304,4.197982549667358
43, 8180, 8173, 8168, 8225, 8200, 8148, 8193, 8175, 8197, 8236, 8196, 8195, 8219, 8322,4.206059217453003
44, 8173, 8180, 8169, 8211, 8207, 8137, 8190, 8187, 8194, 8230, 8187, 8178, 8205, 8320,4.214012384414673
45, 8130, 8144, 8135, 8163, 8186, 8120, 8194, 8188, 8196, 8225, 8195, 8166, 8202, 8300,4.22190260887146
46, 8119, 8134, 8145, 8153, 8202, 8114, 8184, 8184, 8191, 8231, 8213, 8171, 8214, 8299,4.228956937789917
47, 8151, 8164, 8158, 8191, 8201, 8116, 8171, 8176, 8199, 8251, 8244, 8181, 8232, 8328,4.237132787704468
48, 8176, 8199, 8161, 8224, 8216, 8120, 8168, 8184, 8224, 8258, 8264, 8187, 8240, 8332,4.245007514953613
49, 8170, 8203, 8179, 8213, 8241, 8122, 8155, 8187, 8221, 8242, 8242, 8176, 8217, 8289,4.253062009811401
50, 8140, 8165, 8126, 8183, 8200, 8111, 8135, 8144, 8187, 8230, 8207, 8134, 8178, 8242,4.260971784591675
51, 8138, 8172, 8156, 8174, 8243, 8116, 8131, 8143, 8159, 8208, 8181, 8126, 8135, 8205,4.268957138061523
52, 8152, 8192, 8222, 8169, 8272, 8145, 8155, 8179, 8161, 8189, 8176, 8140, 8118, 8183,4.276924133300781
53, 8132, 8156, 8156, 8162, 8202, 8144, 8169, 8159, 8159, 8182, 8173, 8118, 8114, 8181,4.284976243972778
54, 8114, 8131, 8124, 8158, 8195, 8126, 8156, 8134, 8131, 8160, 8139, 8103, 8076, 8171,4.291838884353638
55, 8111, 8134, 8124, 8154, 8191, 8137, 8159, 8123, 8119, 8139, 8125, 8106, 8045, 8162,4.299929618835449
56, 8132, 8153, 8171, 8159, 8215, 8162, 8169, 8148, 8117, 8129, 8153, 8140, 8059, 8194,4.308076620101929
57, 8154, 8154, 8221, 8163, 8225, 8158, 8163, 8176, 8111, 8129, 8182, 8175, 8094, 8249,4.315970420837402
58, 8131, 8130, 8137, 8149, 8152, 8149, 8168, 8155, 8127, 8149, 8194, 8162, 8121, 8275,4.3239428997039795
59, 8115, 8136, 8128, 8129, 8177, 8167, 8174, 8164, 8149, 8171, 8192, 8161, 8124, 8269,4.332135438919067
60, 8116, 8134, 8182, 8120, 8220, 8180, 8176, 8192, 8161, 8179, 8196, 8165, 8135, 8260,4.340004920959473
61, 8113, 8120, 8157, 8125, 8192, 8179, 8186, 8194, 8183, 8195, 8195, 8146, 8146, 8259,4.347833871841431
62, 8119, 8121, 8128, 8129, 8160, 8167, 8187, 8186, 8197, 8216, 8187, 8143, 8143, 8266,4.356078624725342
63, 8115, 8127, 8138, 8122, 8172, 8157, 8179, 8185, 8198, 8221, 8189, 8156, 8148, 8265,4.363034248352051
64, 8121, 8152, 8205, 8124, 8235, 8171, 8188, 8215, 8209, 8219, 8182, 8171, 8148, 8255,4.371097564697266
65, 8124, 8138, 8159, 8140, 8188, 8180, 8216, 8209, 8228, 8224, 8186, 8156, 8142, 8259,4.379056453704834
66, 8120, 8126, 8129, 8145, 8199, 8171, 8224, 8197, 8221, 8212, 8185, 8148, 8134, 8255,4.387199640274048
67, 8125, 8145, 8203, 8134, 8257, 8177, 8225, 8214, 8188, 8189, 8132, 8162, 8119, 8239,4.395160436630249
68, 8120, 8124, 8143, 8122, 8159, 8181, 8230, 8172, 8168, 8187, 8070, 8144, 8107, 8231,4.402980327606201
69, 8152, 8142, 8171, 8139, 8186, 8165, 8196, 8150, 8147, 8175, 8032, 8156, 8098, 8237,4.411051511764526
70, 8190, 8172, 8254, 8166, 8249, 8151, 8161, 8169, 8134, 8175, 8016, 8183, 8111, 8253,4.419179439544678
71, 8155, 8139, 8143, 8151, 8155, 8137, 8151, 8142, 8138, 8196, 8006, 8151, 8126, 8254,4.425915479660034
72, 8128, 8119, 8083, 8129, 8123, 8119, 8133, 8119, 8122, 8187, 7991, 8137, 8124, 8245,4.4340410232543945
73, 8158, 8137, 8169, 8137, 8177, 8114, 8126, 8139, 8104, 8179, 7984, 8164, 8137, 8260,4.441972017288208
74, 8182, 8152, 8233, 8138, 8210, 8132, 8138, 8176, 8121, 8200, 7969, 8184, 8153, 8279,4.450270175933838
75, 8154, 8123, 8110, 8134, 8133, 8143, 8165, 8154, 8169, 8231, 7974, 8159, 8181, 8294,4.45795202255249
76, 8156, 8141, 8110, 8157, 8194, 8141, 8168, 8151, 8183, 8238, 7980, 8164, 8198, 8305,4.46598482131958
77, 8212, 8202, 8322, 8169, 8323, 8141, 8139, 8208, 8149, 8214, 7959, 8221, 8170, 8292,4.4739158153533936
78, 8194, 8158, 8232, 8155, 8174, 8132, 8145, 8172, 8158, 8218, 7965, 8198, 8177, 8285,4.4820661544799805
79, 8151, 8115, 8055, 8162, 8077, 8117, 8165, 8118, 8186, 8244, 7987, 8153, 8214, 8302,4.488969802856445
80, 8164, 8150, 8136, 8174, 8173, 8114, 8146, 8138, 8164, 8236, 7968, 8173, 8197, 8300,4.497018098831177
81, 8178, 8167, 8199, 8168, 8201, 8121, 8131, 8141, 8142, 8215, 7943, 8194, 8167, 8296,4.505054235458374
82, 8182, 8167, 8196, 8183, 8207, 8125, 8140, 8145, 8141, 8199, 7949, 8199, 8176, 8302,4.513009548187256
83, 8176, 8159, 8184, 8188, 8205, 8112, 8138, 8153, 8131, 8175, 7944, 8184, 8166, 8284,4.520907402038574
84, 8154, 8145, 8164, 8151, 8184, 8091, 8119, 8145, 8108, 8154, 7906, 8153, 8125, 8255,4.529042720794678
85, 8134, 8128, 8134, 8130, 8152, 8092, 8130, 8141, 8108, 8163, 7894, 8134, 8120, 8244,4.537019729614258
86, 8140, 8133, 8129, 8154, 8168, 8119, 8168, 8165, 8141, 8188, 7913, 8136, 8141, 8247,4.545071125030518
87, 8152, 8149, 8167, 8170, 8209, 8133, 8172, 8185, 8159, 8196, 7910, 8154, 8147, 8253,4.552932977676392
88, 8134, 8137, 8133, 8156, 8174, 8117, 8155, 8155, 8157, 8192, 7917, 8155, 8160, 8265,4.560015678405762
89, 8145, 8164, 8175, 8154, 8226, 8124, 8157, 8162, 8152, 8190, 7938, 8169, 8164, 8274,4.567999601364136
90, 8181, 8178, 8255, 8157, 8266, 8153, 8167, 8194, 8156, 8198, 7936, 8188, 8158, 8277,4.575957775115967
91, 8165, 8129, 8162, 8159, 8163, 8148, 8168, 8161, 8166, 8205, 7937, 8162, 8175, 8283,4.58406662940979
92, 8161, 8136, 8134, 8176, 8147, 8124, 8149, 8152, 8159, 8197, 7939, 8157, 8187, 8286,4.592012166976929
93, 8194, 8169, 8156, 8207, 8157, 8126, 8146, 8158, 8162, 8195, 7950, 8179, 8188, 8301,4.599926233291626
94, 8220, 8201, 8210, 8226, 8220, 8144, 8141, 8168, 8160, 8192, 7963, 8211, 8186, 8315,4.60815954208374
95, 8225, 8220, 8290, 8222, 8281, 8142, 8126, 8189, 8142, 8189, 7965, 8232, 8187, 8321,4.616175174713135
96, 8185, 8162, 8174, 8199, 8175, 8118, 8131, 8151, 8145, 8196, 7963, 8188, 8203, 8328,4.622971057891846
97, 8153, 8126, 8075, 8174, 8123, 8110, 8137, 8129, 8149, 8198, 7947, 8146, 8194, 8305,4.6311633586883545
98, 8165, 8158, 8134, 8172, 8167, 8118, 8143, 8167, 8151, 8206, 7939, 8151, 8177, 8273,4.639101505279541
99, 8185, 8178, 8187, 8185, 8208, 8123, 8158, 8196, 8165, 8211, 7933, 8171, 8180, 8276,4.647174119949341
100, 8196, 8156, 8167, 8189, 8196, 8135, 8170, 8188, 8172, 8194, 7928, 8178, 8181, 8296,4.655070781707764
101, 8190, 8151, 8145, 8184, 8181, 8143, 8174, 8176, 8165, 8190, 7952, 8173, 8185, 8303,4.663161754608154
102, 8192, 8190, 8256, 8173, 8274, 8148, 8165, 8215, 8150, 8192, 7965, 8202, 8180, 8295,4.671090841293335
103, 8180, 8146, 8206, 8164, 8200, 8149, 8169, 8191, 8154, 8194, 7966, 8185, 8187, 8299,4.679090261459351
104, 8171, 8119, 8106, 8177, 8142, 8134, 8166, 8142, 8153, 8193, 7957, 8144, 8191, 8293,4.687114477157593
105, 8207, 8186, 8244, 8194, 8256, 8126, 8139, 8181, 8128, 8177, 7937, 8178, 8169, 8284,4.694174528121948
106, 8211, 8173, 8212, 8197, 8170, 8134, 8144, 8168, 8134, 8180, 7944, 8185, 8176, 8299,4.701954364776611
107, 8195, 8161, 8119, 8216, 8120, 8134, 8151, 8126, 8147, 8188, 7966, 8176, 8195, 8309,4.710050582885742
108, 8195, 8198, 8224, 8223, 8240, 8114, 8120, 8148, 8114, 8161, 7967, 8201, 8176, 8301,4.718146324157715
109, 8160, 8152, 8185, 8190, 8186, 8098, 8114, 8142, 8094, 8151, 7961, 8179, 8156, 8299,4.726010084152222
110, 8137, 8120, 8061, 8186, 8094, 8100, 8133, 8121, 8119, 8176, 7974, 8151, 8176, 8307,4.734131097793579
111, 8161, 8177, 8129, 8201, 8185, 8112, 8136, 8159, 8139, 8187, 7971, 8175, 8191, 8300,4.742160320281982
112, 8178, 8184, 8227, 8169, 8257, 8130, 8142, 8208, 8147, 8178, 7950, 8190, 8177, 8286,4.750240325927734
113, 8149, 8111, 8109, 8154, 8129, 8127, 8161, 8174, 8167, 8194, 8026, 8157, 8189, 8287,4.757237195968628
114, 8138, 8137, 8102, 8183, 8157, 8116, 8146, 8166, 8169, 8197, 8176, 8156, 8203, 8282,4.765120506286621
115, 8181, 8209, 8305, 8181, 8309, 8136, 8125, 8234, 8156, 8188, 8272, 8202, 8188, 8280,4.773242235183716
116, 8189, 8155, 8218, 8167, 8170, 8152, 8158, 8203, 8178, 8211, 8330, 8186, 8206, 8313,4.781130790710449
117, 8176, 8125, 8092, 8184, 8098, 8151, 8173, 8147, 8179, 8206, 8364, 8164, 8226, 8325,4.790242433547974
118, 8195, 8176, 8209, 8191, 8218, 8148, 8145, 8170, 8144, 8169, 8371, 8187, 8195, 8293,4.797087669372559
119, 8190, 8158, 8184, 8184, 8164, 8138, 8142, 8159, 8150, 8176, 8410, 8167, 8184, 8285,4.804976940155029
120, 8186, 8140, 8120, 8193, 8131, 8134, 8148, 8133, 8170, 8193, 8452, 8156, 8205, 8304,4.8131468296051025
121, 8221, 8182, 8207, 8199, 8214, 8147, 8141, 8151, 8161, 8183, 8461, 8195, 8213, 8319,4.821141719818115
122, 8251, 8194, 8232, 8201, 8216, 8150, 8144, 8164, 8154, 8185, 8479, 8211, 8216, 8339,4.827959060668945
123, 8249, 8164, 8149, 8204, 8152, 8128, 8147, 8141, 8150, 8195, 8501, 8192, 8224, 8359,4.836202383041382
124, 8233, 8161, 8127, 8197, 8154, 8109, 8136, 8135, 8133, 8176, 8500, 8186, 8223, 8353,4.844051122665405
125, 8220, 8177, 8182, 8190, 8197, 8106, 8127, 8170, 8122, 8150, 8476, 8187, 8193, 8320,4.851945638656616
126, 8194, 8175, 8178, 8194, 8189, 8100, 8135, 8182, 8121, 8149, 8453, 8168, 8156, 8281,4.860241174697876
127, 8168, 8174, 8167, 8181, 8191, 8098, 8143, 8183, 8119, 8154, 8445, 8158, 8142, 8260,4.868173122406006
237, 8151, 8154, 8139, 8160, 8148, 8109, 8155, 8177, 8143, 8168, 8470, 8157, 8169, 8268,4.876270055770874
0, 8146, 8135, 8101, 8163, 8124, 8110, 8154, 8154, 8170, 8196, 8498, 8153, 8206, 8285,4.883116245269775
1, 8191, 8169, 8246, 8170, 8251, 8109, 8130, 8193, 8150, 8188, 8474, 8191, 8198, 8304,4.891129016876221
2, 8205, 8140, 8239, 8167, 8180, 8118, 8145, 8198, 8146, 8171, 8466, 8189, 8194, 8328,4.899175405502319
3, 8174, 8127, 8115, 8180, 8101, 8121, 8165, 8164, 8169, 8182, 8485, 8161, 8199, 8318,4.90691351890564
4, 8198, 8197, 8243, 8207, 8242, 8120, 8136, 8208, 8166, 8187, 8483, 8200, 8194, 8299,4.915253162384033
5, 8214, 8166, 8233, 8192, 8171, 8118, 8135, 8207, 8184, 8202, 8512, 8205, 8235, 8330,4.923141241073608
6, 8199, 8104, 8065, 8152, 8053, 8116, 8165, 8157, 8211, 8220, 8543, 8176, 8271, 8357,4.931093454360962
7, 8210, 8127, 8110, 8143, 8166, 8118, 8159, 8168, 8185, 8200, 8508, 8184, 8244, 8337,4.939165830612183
8, 8217, 8147, 8225, 8145, 8246, 8120, 8134, 8187, 8137, 8179, 8466, 8189, 8213, 8319,4.947240114212036
9, 8182, 8124, 8175, 8140, 8160, 8125, 8140, 8164, 8130, 8188, 8484, 8165, 8210, 8309,4.9549150466918945
10, 8145, 8108, 8076, 8138, 8105, 8131, 8162, 8151, 8148, 8194, 8493, 8146, 8202, 8296,4.962102651596069
11, 8153, 8136, 8147, 8134, 8190, 8128, 8155, 8182, 8139, 8179, 8461, 8161, 8177, 8279,4.970191240310669
12, 8166, 8143, 8184, 8126, 8178, 8116, 8140, 8180, 8131, 8179, 8463, 8163, 8177, 8268,4.977970600128174
13, 8170, 8133, 8131, 8138, 8141, 8117, 8145, 8170, 8153, 8195, 8481, 8154, 8198, 8283,4.986110687255859
14, 8196, 8140, 8192, 8150, 8219, 8134, 8140, 8206, 8157, 8193, 8469, 8177, 8200, 8304,4.9941136837005615
15, 8188, 8118, 8201, 8134, 8196, 8143, 8135, 8198, 8148, 8181, 8458, 8176, 8195, 8307,5.002230644226074
16, 8152, 8099, 8112, 8121, 8132, 8139, 8148, 8166, 8154, 8175, 8452, 8150, 8194, 8298,5.01016640663147
17, 8152, 8116, 8136, 8118, 8186, 8141, 8153, 8173, 8156, 8172, 8436, 8155, 8181, 8287,5.017125129699707
18, 8158, 8121, 8180, 8104, 8221, 8145, 8146, 8159, 8135, 8162, 8425, 8160, 8163, 8277,5.02513861656189
19, 8160, 8117, 8168, 8103, 8185, 8145, 8146, 8120, 8098, 8149, 8419, 8158, 8152, 8272,5.033048868179321
20, 8166, 8105, 8126, 8122, 8143, 8138, 8147, 8102, 8084, 8149, 8418, 8157, 8151, 8278,5.041019678115845
21, 8178, 8121, 8187, 8130, 8221, 8141, 8123, 8145, 8101, 8144, 8415, 8172, 8138, 8273,5.049093961715698
22, 8176, 8143, 8219, 8129, 8224, 8151, 8119, 8181, 8136, 8149, 8414, 8173, 8130, 8265,5.0569374561309814
23, 8141, 8122, 8107, 8131, 8132, 8146, 8145, 8166, 8169, 8170, 8414, 8136, 8149, 8257,5.06491494178772
24, 8125, 8119, 8133, 8126, 8197, 8134, 8134, 8185, 8162, 8170, 8399, 8137, 8147, 8243,5.073009729385376
25, 8120, 8111, 8166, 8115, 8210, 8130, 8134, 8199, 8158, 8173, 8401, 8154, 8148, 8248,5.080950975418091
26, 8126, 8111, 8116, 8123, 8164, 8133, 8163, 8187, 8188, 8194, 8423, 8157, 8181, 8274,5.087971448898315
27, 8158, 8140, 8151, 8147, 8189, 8124, 8161, 8192, 8195, 8193, 8448, 8172, 8206, 8289,5.096037864685059
28, 8173, 8147, 8188, 8159, 8196, 8116, 8149, 8185, 8179, 8182, 8475, 8186, 8210, 8297,5.103976011276245
29, 8186, 8154, 8230, 8161, 8225, 8143, 8160, 8190, 8173, 8189, 8482, 8207, 8207, 8310,5.112091302871704
30, 8184, 8143, 8180, 8163, 8181, 8161, 8175, 8174, 8189, 8213, 8488, 8194, 8227, 8313,5.120108604431152
31, 8162, 8136, 8129, 8170, 8156, 8147, 8168, 8167, 8208, 8223, 8498, 8174, 8246, 8304,5.128153562545776
32, 8156, 8147, 8168, 8170, 8180, 8148, 8175, 8201, 8220, 8225, 8494, 8181, 8244, 8300,5.136106252670288
33, 8154, 8152, 8146, 8157, 8158, 8151, 8191, 8194, 8214, 8226, 8477, 8169, 8228, 8304,5.14404034614563
34, 8168, 8178, 8200, 8147, 8217, 8123, 8158, 8189, 8176, 8196, 8436, 8172, 8195, 8289,5.150894641876221
35, 8171, 8161, 8226, 8136, 8218, 8100, 8134, 8183, 8158, 8168, 8407, 8175, 8171, 8274,5.159048318862915
36, 8150, 8121, 8157, 8116, 8181, 8112, 8160, 8164, 8167, 8172, 8411, 8150, 8166, 8274,5.166834354400635
37, 8139, 8114, 8152, 8113, 8197, 8110, 8161, 8172, 8166, 8168, 8410, 8145, 8160, 8266,5.17494797706604
38, 8126, 8102, 8105, 8124, 8161, 8085, 8141, 8153, 8174, 8160, 8397, 8137, 8163, 8262,5.182862043380737
39, 8143, 8134, 8175, 8121, 8236, 8096, 8126, 8154, 8160, 8152, 8370, 8150, 8143, 8254,5.190917015075684
40, 8153, 8140, 8244, 8118, 8251, 8117, 8124, 8163, 8136, 8153, 8365, 8161, 8131, 8242,5.198928356170654
41, 8112, 8099, 8105, 8126, 8120, 8112, 8143, 8134, 8163, 8170, 8405, 8134, 8172, 8246,5.2068772315979
42, 8098, 8094, 8047, 8112, 8128, 8112, 8153, 8133, 8196, 8184, 8417, 8130, 8191, 8250,5.21401834487915
43, 8122, 8115, 8133, 8100, 8209, 8121, 8150, 8162, 8189, 8188, 8395, 8150, 8174, 8249,5.221991300582886
44, 8156, 8151, 8217, 8144, 8240, 8137, 8153, 8184, 8180, 8185, 8385, 8172, 8177, 8261,5.229963302612305
45, 8165, 8150, 8179, 8183, 8185, 8155, 8157, 8170, 8190, 8186, 8395, 8171, 8191, 8276,5.238126754760742
46, 8157, 8139, 8139, 8170, 8181, 8148, 8142, 8157, 8184, 8188, 8384, 8165, 8179, 8277,5.246137857437134
47, 8181, 8177, 8234, 8164, 8260, 8137, 8124, 8179, 8158, 8176, 8358, 8186, 8168, 8283,5.254148244857788
48, 8173, 8161, 8198, 8171, 8203, 8145, 8129, 8157, 8152, 8172, 8366, 8166, 8179, 8283,5.262171268463135
49, 8136, 8126, 8109, 8163, 8157, 8145, 8125, 8133, 8151, 8168, 8361, 8130, 8161, 8243,5.270080327987671
50, 8139, 8155, 8171, 8158, 8222, 8138, 8118, 8165, 8151, 8163, 8339, 8142, 8142, 8218,5.278119802474976
51, 8142, 8147, 8176, 8149, 8205, 8142, 8138, 8177, 8175, 8182, 8344, 8149, 8167, 8244,5.285056829452515
52, 8124, 8106, 8121, 8144, 8166, 8151, 8155, 8172, 8198, 8204, 8351, 8141, 8183, 8259,5.292969465255737
53, 8123, 8121, 8153, 8155, 8195, 8154, 8158, 8173, 8190, 8190, 8341, 8147, 8168, 8237,5.301102161407471
54, 8131, 8136, 8190, 8150, 8211, 8154, 8174, 8170, 8166, 8164, 8326, 8153, 8150, 8227,5.309115409851074
55, 8129, 8112, 8152, 8127, 8164, 8148, 8192, 8166, 8166, 8174, 8314, 8149, 8150, 8248,5.31704044342041
56, 8133, 8122, 8153, 8135, 8175, 8151, 8197, 8186, 8187, 8193, 8312, 8150, 8157, 8253,5.325188398361206
57, 8141, 8144, 8207, 8154, 8204, 8161, 8185, 8196, 8190, 8178, 8315, 8153, 8146, 8229,5.333064556121826
58, 8115, 8095, 8095, 8133, 8082, 8151, 8176, 8127, 8185, 8167, 8318, 8118, 8147, 8224,5.341118335723877
59, 8129, 8121, 8149, 8127, 8154, 8156, 8162, 8129, 8170, 8165, 8300, 8139, 8146, 8231,5.348015546798706
60, 8175, 8176, 8332, 8154, 8259, 8178, 8154, 8196, 8152, 8150, 8263, 8198, 8138, 8232,5.356000185012817
61, 8140, 8119, 8159, 8157, 8065, 8162, 8177, 8137, 8158, 8150, 8233, 8155, 8153, 8241,5.3640220165252686
62, 8124, 8106, 8039, 8146, 8025, 8144, 8175, 8097, 8162, 8158, 8200, 8124, 8156, 8251,5.371957302093506
63, 8171, 8149, 8159, 8155, 8145, 8153, 8152, 8153, 8169, 8174, 8176, 8163, 8162, 8262,5.379853963851929
64, 8171, 8139, 8182, 8155, 8150, 8152, 8152, 8172, 8190, 8193, 8157, 8174, 8184, 8266,5.388164281845093
65, 8150, 8127, 8168, 8143, 8136, 8146, 8156, 8169, 8195, 8189, 8124, 8164, 8179, 8253,5.39604377746582
66, 8153, 8129, 8170, 8143, 8143, 8150, 8160, 8178, 8199, 8178, 8093, 8161, 8159, 8253,5.404219388961792
67, 8162, 8134, 8186, 8136, 8161, 8149, 8161, 8192, 8203, 8176, 8065, 8163, 8153, 8254,5.411118268966675
68, 8147, 8120, 8154, 8139, 8109, 8144, 8167, 8176, 8198, 8179, 8053, 8150, 8161, 8239,5.419077396392822
69, 8144, 8129, 8141, 8165, 8107, 8156, 8176, 8169, 8194, 8172, 8052, 8149, 8161, 8233,5.427024841308594
70, 8156, 8143, 8157, 8172, 8144, 8174, 8188, 8177, 8209, 8175, 8052, 8163, 8160, 8245,5.43508243560791
71, 8150, 8128, 8115, 8161, 8123, 8178, 8202, 8148, 8225, 8196, 8054, 8150, 8175, 8249,5.4428675174713135
72, 8179, 8176, 8235, 8170, 8224, 8190, 8186, 8169, 8197, 8181, 8032, 8176, 8163, 8235,5.450828790664673
73, 8193, 8183, 8289, 8188, 8210, 8197, 8179, 8189, 8182, 8158, 8036, 8191, 8152, 8245,5.458926677703857
74, 8139, 8109, 8096, 8191, 8035, 8180, 8194, 8137, 8205, 8172, 8055, 8138, 8165, 8261,5.4668543338775635
75, 8115, 8093, 8070, 8163, 8055, 8167, 8186, 8121, 8191, 8165, 8021, 8124, 8148, 8237,5.4748899936676025
76, 8125, 8107, 8145, 8129, 8130, 8167, 8176, 8147, 8174, 8147, 7991, 8142, 8127, 8220,5.481908798217773
77, 8143, 8125, 8185, 8130, 8162, 8167, 8179, 8192, 8200, 8156, 7995, 8154, 8127, 8229,5.489881753921509
78, 8145, 8132, 8197, 8135, 8144, 8175, 8193, 8203, 8222, 8167, 7991, 8151, 8128, 8222,5.497953653335571
79, 8112, 8107, 8145, 8124, 8087, 8177, 8206, 8161, 8214, 8165, 7986, 8131, 8126, 8200,5.505996465682983
80, 8102, 8095, 8129, 8123, 8079, 8174, 8201, 8142, 8195, 8164, 7996, 8138, 8129, 8201,5.514136791229248
81, 8124, 8104, 8133, 8128, 8074, 8183, 8190, 8145, 8196, 8176, 8002, 8150, 8140, 8222,5.521848440170288
82, 8147, 8123, 8169, 8137, 8103, 8195, 8180, 8165, 8211, 8186, 8005, 8160, 8150, 8234,5.529922008514404
83, 8163, 8126, 8186, 8167, 8098, 8189, 8173, 8169, 8218, 8199, 8042, 8172, 8181, 8252,5.538009881973267
84, 8171, 8130, 8160, 8189, 8076, 8176, 8154, 8136, 8198, 8195, 8067, 8176, 8198, 8270,5.544870615005493
85, 8193, 8174, 8225, 8191, 8145, 8173, 8123, 8131, 8163, 8167, 8028, 8188, 8169, 8263,5.553072929382324
86, 8199, 8175, 8223, 8194, 8129, 8174, 8123, 8135, 8159, 8172, 8010, 8178, 8156, 8251,5.560961723327637
87, 8187, 8136, 8151, 8185, 8075, 8175, 8145, 8123, 8161, 8187, 8030, 8158, 8161, 8250,5.568918943405151
88, 8181, 8125, 8134, 8179, 8082, 8164, 8152, 8121, 8145, 8171, 8034, 8160, 8151, 8258,5.577007532119751
89, 8178, 8134, 8140, 8187, 8110, 8151, 8155, 8145, 8157, 8169, 8026, 8168, 8154, 8270,5.5849244594573975
90, 8186, 8164, 8209, 8176, 8165, 8159, 8153, 8201, 8170, 8167, 8004, 8175, 8142, 8263,5.592923641204834
91, 8171, 8160, 8197, 8157, 8121, 8164, 8153, 8195, 8168, 8148, 7991, 8156, 8117, 8238,5.600992679595947
92, 8143, 8128, 8107, 8158, 8056, 8166, 8162, 8141, 8177, 8159, 8020, 8135, 8131, 8231,5.607954740524292
93, 8149, 8124, 8124, 8168, 8086, 8188, 8165, 8138, 8176, 8184, 8052, 8152, 8165, 8241,5.616092920303345
94, 8172, 8141, 8199, 8168, 8130, 8196, 8162, 8158, 8148, 8171, 8037, 8178, 8170, 8257,5.62397837638855
95, 8192, 8143, 8228, 8165, 8121, 8176, 8163, 8156, 8134, 8155, 8025, 8197, 8167, 8280,5.631836652755737
96, 8186, 8112, 8112, 8170, 8027, 8169, 8190, 8127, 8182, 8190, 8070, 8186, 8207, 8308,5.640055894851685
97, 8212, 8161, 8159, 8206, 8126, 8195, 8193, 8174, 8232, 8227, 8102, 8204, 8241, 8324,5.648000240325928
98, 8263, 8216, 8349, 8237, 8248, 8210, 8170, 8250, 8245, 8225, 8082, 8251, 8238, 8335,5.6561126708984375
99, 8224, 8140, 8196, 8208, 8074, 8184, 8187, 8186, 8252, 8219, 8099, 8204, 8234, 8336,5.664046287536621
100, 8178, 8116, 8059, 8177, 8031, 8174, 8200, 8130, 8237, 8209, 8176, 8152, 8217, 8305,5.670991897583008
101, 8191, 8166, 8159, 8197, 8139, 8197, 8185, 8158, 8210, 8196, 8255, 8166, 8190, 8276,5.679126977920532
102, 8179, 8162, 8173, 8207, 8133, 8192, 8183, 8164, 8192, 8182, 8291, 8164, 8167, 8263,5.687052488327026
103, 8166, 8152, 8154, 8187, 8120, 8161, 8180, 8155, 8160, 8157, 8297, 8151, 8140, 8246,5.6948888301849365
104, 8178, 8159, 8157, 8179, 8099, 8154, 8170, 8149, 8132, 8151, 8296, 8152, 8144, 8246,5.702949047088623
105, 8183, 8162, 8158, 8194, 8087, 8172, 8170, 8158, 8146, 8172, 8257, 8162, 8170, 8267,5.710980176925659
106, 8177, 8142, 8135, 8198, 8084, 8174, 8165, 8160, 8175, 8184, 8199, 8155, 8169, 8272,5.719050168991089
107, 8170, 8125, 8131, 8168, 8092, 8161, 8149, 8144, 8181, 8171, 8149, 8144, 8146, 8248,5.727184534072876
108, 8173, 8133, 8178, 8139, 8108, 8174, 8149, 8154, 8180, 8170, 8126, 8156, 8141, 8245,5.734872341156006
109, 8177, 8122, 8174, 8146, 8084, 8189, 8173, 8175, 8200, 8189, 8131, 8163, 8155, 8270,5.742009162902832
110, 8181, 8117, 8174, 8146, 8089, 8179, 8178, 8184, 8210, 8187, 8117, 8163, 8153, 8271,5.75015926361084
111, 8168, 8117, 8165, 8124, 8066, 8168, 8170, 8158, 8193, 8180, 8098, 8158, 8151, 8260,5.757961273193359
112, 8161, 8113, 8129, 8131, 8047, 8178, 8178, 8132, 8185, 8187, 8104, 8152, 8166, 8269,5.766042232513428
113, 8196, 8142, 8184, 8162, 8116, 8194, 8187, 8151, 8182, 8181, 8100, 8173, 8169, 8276,5.774128198623657
114, 8203, 8151, 8171, 8179, 8093, 8184, 8190, 8139, 8178, 8170, 8098, 8172, 8175, 8272,5.782145738601685
115, 8181, 8148, 8156, 8188, 8097, 8168, 8177, 8134, 8172, 8169, 8098, 8168, 8180, 8272,5.79000186920166
116, 8188, 8169, 8247, 8189, 8165, 8163, 8158, 8175, 8170, 8173, 8083, 8195, 8173, 8268,5.798201560974121
117, 8189, 8159, 8209, 8186, 8099, 8151, 8157, 8165, 8183, 8183, 8090, 8188, 8185, 8274,5.806043863296509
118, 8177, 8134, 8105, 8193, 8038, 8140, 8156, 8139, 8186, 8187, 8109, 8165, 8199, 8286,5.813069105148315
119, 8179, 8142, 8121, 8191, 8078, 8153, 8163, 8173, 8180, 8184, 8100, 8167, 8191, 8286,5.820973634719849
120, 8193, 8165, 8219, 8168, 8148, 8177, 8179, 8224, 8179, 8173, 8073, 8185, 8172, 8271,5.829123258590698
121, 8173, 8117, 8165, 8151, 8069, 8171, 8182, 8190, 8181, 8166, 8070, 8171, 8171, 8267,5.837116718292236
122, 8139, 8079, 8072, 8163, 8025, 8160, 8163, 8136, 8161, 8167, 8080, 8148, 8172, 8268,5.845134258270264
123, 8179, 8150, 8273, 8199, 8203, 8178, 8141, 8195, 8129, 8144, 8077, 8203, 8163, 8262,5.853062391281128
124, 8212, 8157, 8317, 8222, 8159, 8186, 8156, 8208, 8155, 8149, 8118, 8234, 8200, 8285,5.860889673233032
125, 8192, 8113, 8115, 8222, 8002, 8176, 8164, 8129, 8187, 8188, 8160, 8197, 8240, 8318,5.8691246509552
126, 8213, 8149, 8136, 8236, 8072, 8168, 8138, 8129, 8164, 8182, 8142, 8205, 8230, 8325,5.87617301940918
127, 8242, 8178, 8215, 8260, 8113, 8154, 8135, 8166, 8153, 8169, 8140, 8228, 8230, 8329,5.88395619392395
237, 8237, 8173, 8189, 8248, 8080, 8152, 8149, 8173, 8174, 8194, 8151, 8226, 8248, 8338,5.892118453979492
0, 8231, 8166, 8177, 8217, 8098, 8164, 8147, 8174, 8184, 8206, 8133, 8220, 8243, 8336,5.900165319442749
1, 8239, 8174, 8221, 8231, 8147, 8168, 8139, 8180, 8181, 8191, 8165, 8223, 8232, 8330,5.908165693283081
2, 8253, 8174, 8212, 8260, 8114, 8171, 8159, 8185, 8185, 8191, 8287, 8225, 8241, 8352,5.916105508804321
3, 8253, 8162, 8133, 8234, 8062, 8172, 8190, 8178, 8187, 8200, 8375, 8207, 8246, 8373,5.924142122268677
4, 8268, 8194, 8215, 8198, 8159, 8157, 8174, 8203, 8155, 8177, 8370, 8201, 8213, 8346,5.932064533233643
5, 8256, 8174, 8213, 8187, 8134, 8140, 8154, 8187, 8142, 8170, 8384, 8180, 8188, 8311,5.940052509307861
6, 8218, 8130, 8115, 8171, 8081, 8137, 8155, 8154, 8163, 8188, 8413, 8158, 8174, 8304,5.947016954421997
7, 8220, 8157, 8218, 8156, 8182, 8144, 8140, 8193, 8162, 8190, 8400, 8177, 8145, 8287,5.954969882965088
8, 8199, 8133, 8187, 8150, 8113, 8160, 8140, 8182, 8170, 8190, 8420, 8153, 8156, 8273,5.96316933631897
9, 8166, 8085, 8054, 8149, 8021, 8166, 8154, 8137, 8188, 8201, 8459, 8124, 8177, 8280,5.97102689743042
10, 8186, 8098, 8101, 8154, 8069, 8151, 8152, 8143, 8182, 8198, 8465, 8151, 8166, 8295,5.979063987731934
11, 8214, 8133, 8178, 8158, 8117, 8142, 8152, 8169, 8174, 8192, 8465, 8172, 8167, 8304,5.986967325210571
12, 8220, 8153, 8206, 8170, 8139, 8155, 8164, 8190, 8176, 8194, 8481, 8182, 8186, 8313,5.995026588439941
13, 8205, 8135, 8160, 8184, 8104, 8156, 8169, 8167, 8171, 8197, 8503, 8178, 8195, 8321,6.002211093902588
14, 8193, 8128, 8144, 8175, 8108, 8136, 8151, 8151, 8157, 8193, 8502, 8174, 8183, 8309,6.009920835494995
15, 8190, 8136, 8155, 8161, 8113, 8125, 8144, 8164, 8162, 8194, 8496, 8172, 8178, 8298,6.018044710159302
16, 8190, 8148, 8153, 8175, 8112, 8137, 8160, 8191, 8179, 8199, 8496, 8167, 8180, 8298,6.025978088378906
17, 8194, 8159, 8188, 8177, 8150, 8149, 8163, 8219, 8169, 8184, 8480, 8172, 8158, 8277,6.034302473068237
18, 8170, 8130, 8155, 8149, 8112, 8143, 8164, 8191, 8147, 8166, 8457, 8147, 8129, 8240,6.042207479476929
19, 8142, 8113, 8113, 8134, 8092, 8153, 8185, 8168, 8148, 8164, 8445, 8126, 8118, 8226,6.050235033035278
20, 8133, 8116, 8126, 8137, 8130, 8168, 8205, 8180, 8161, 8165, 8444, 8133, 8117, 8227,6.058109998703003
21, 8130, 8103, 8125, 8135, 8132, 8155, 8195, 8169, 8168, 8166, 8440, 8131, 8119, 8219,6.0661890506744385
22, 8155, 8120, 8184, 8118, 8150, 8146, 8162, 8177, 8154, 8164, 8434, 8146, 8112, 8218,6.072993278503418
23, 8169, 8129, 8190, 8104, 8116, 8153, 8160, 8189, 8154, 8168, 8452, 8161, 8122, 8246,6.081110715866089
24, 8162, 8112, 8140, 8114, 8096, 8154, 8180, 8181, 8174, 8183, 8480, 8159, 8154, 8275,6.0890052318573
25, 8171, 8116, 8159, 8131, 8134, 8160, 8184, 8183, 8176, 8195, 8484, 8167, 8172, 8280,6.097009181976318
26, 8169, 8129, 8171, 8132, 8140, 8171, 8181, 8183, 8164, 8187, 8473, 8170, 8171, 8275,6.105132102966309
27, 8159, 8133, 8167, 8124, 8140, 8179, 8187, 8183, 8164, 8181, 8472, 8167, 8172, 8279,6.112872838973999
28, 8152, 8113, 8111, 8137, 8103, 8190, 8214, 8177, 8193, 8211, 8496, 8157, 8194, 8293,6.1211631298065186
29, 8180, 8158, 8189, 8171, 8189, 8200, 8218, 8212, 8212, 8212, 8501, 8180, 8192, 8293,6.129167556762695
30, 8211, 8192, 8282, 8200, 8222, 8191, 8204, 8238, 8215, 8194, 8481, 8202, 8182, 8290,6.135948657989502
31, 8174, 8131, 8117, 8185, 8077, 8171, 8221, 8188, 8237, 8216, 8487, 8160, 8208, 8295,6.14415431022644
32, 8171, 8150, 8161, 8158, 8157, 8171, 8219, 8217, 8231, 8213, 8475, 8162, 8194, 8279,6.152165412902832
33, 8182, 8159, 8233, 8147, 8170, 8164, 8211, 8233, 8215, 8199, 8452, 8165, 8162, 8256,6.160203695297241
34, 8156, 8114, 8105, 8142, 8063, 8144, 8206, 8169, 8212, 8207, 8438, 8127, 8157, 8245,6.168164253234863
35, 8174, 8144, 8175, 8150, 8157, 8148, 8179, 8178, 8180, 8178, 8416, 8148, 8134, 8240,6.176169157028198
36, 8176, 8152, 8205, 8150, 8154, 8145, 8160, 8181, 8148, 8149, 8415, 8150, 8121, 8240,6.18416166305542
37, 8129, 8102, 8047, 8134, 8037, 8134, 8160, 8122, 8134, 8159, 8418, 8114, 8138, 8238,6.1921000480651855
38, 8132, 8111, 8067, 8127, 8096, 8145, 8153, 8121, 8124, 8154, 8411, 8134, 8139, 8236,6.200147867202759
39, 8169, 8156, 8230, 8138, 8213, 8172, 8155, 8181, 8129, 8152, 8421, 8176, 8135, 8248,6.2072319984436035
40, 8165, 8129, 8181, 8157, 8138, 8187, 8179, 8182, 8168, 8193, 8454, 8167, 8164, 8273,6.215034008026123
41, 8152, 8108, 8068, 8164, 8075, 8181, 8178, 8150, 8193, 8206, 8472, 8153, 8185, 8289,6.22295069694519
42, 8200, 8186, 8245, 8173, 8234, 8178, 8147, 8209, 8177, 8169, 8463, 8207, 8177, 8296,6.230947732925415
43, 8223, 8199, 8325, 8183, 8234, 8174, 8147, 8233, 8173, 8173, 8473, 8222, 8192, 8302,6.238972187042236
44, 8171, 8123, 8116, 8188, 8068, 8168, 8172, 8156, 8185, 8203, 8478, 8149, 8206, 8294,6.247019290924072
45, 8160, 8137, 8056, 8192, 8079, 8173, 8173, 8141, 8180, 8195, 8444, 8124, 8182, 8271,6.257979393005371
46, 8194, 8184, 8152, 8189, 8143, 8175, 8167, 8174, 8168, 8185, 8423, 8150, 8160, 8260,6.262977361679077
47, 8190, 8169, 8193, 8169, 8169, 8167, 8160, 8169, 8151, 8171, 8409, 8153, 8139, 8244,6.269927740097046
48, 8149, 8148, 8196, 8146, 8179, 8156, 8153, 8164, 8129, 8146, 8380, 8140, 8110, 8211,6.277963161468506
49, 8124, 8140, 8154, 8136, 8136, 8145, 8166, 8166, 8141, 8151, 8388, 8135, 8117, 8205,6.285992383956909
50, 8137, 8121, 8142, 8113, 8132, 8144, 8171, 8165, 8150, 8160, 8390, 8145, 8130, 8229,6.2940874099731445
51, 8133, 8093, 8115, 8099, 8132, 8158, 8167, 8150, 8146, 8155, 8341, 8134, 8125, 8236,6.301989316940308
52, 8126, 8121, 8131, 8126, 8167, 8178, 8165, 8158, 8151, 8152, 8301, 8134, 8123, 8216,6.30998969078064
53, 8142, 8162, 8174, 8155, 8183, 8194, 8172, 8166, 8151, 8154, 8316, 8157, 8143, 8215,6.318093538284302
54, 8158, 8166, 8150, 8164, 8166, 8200, 8187, 8145, 8147, 8170, 8332, 8167, 8173, 8245,6.326164484024048
55, 8169, 8179, 8188, 8165, 8217, 8200, 8184, 8172, 8150, 8173, 8314, 8177, 8171, 8256,6.333120107650757
56, 8156, 8161, 8187, 8165, 8182, 8191, 8174, 8196, 8166, 8164, 8308, 8174, 8175, 8263,6.341119050979614
57, 8158, 8139, 8159, 8170, 8144, 8165, 8172, 8187, 8176, 8180, 8315, 8181, 8202, 8295,6.3491668701171875
58, 8187, 8141, 8158, 8175, 8133, 8152, 8176, 8178, 8193, 8216, 8322, 8192, 8219, 8315,6.357158422470093
59, 8193, 8150, 8135, 8164, 8121, 8167, 8176, 8172, 8200, 8211, 8312, 8174, 8203, 8291,6.365067005157471
60, 8213, 8193, 8259, 8161, 8243, 8178, 8145, 8221, 8162, 8164, 8272, 8196, 8163, 8266,6.373156547546387
61, 8220, 8173, 8277, 8165, 8223, 8156, 8137, 8228, 8154, 8164, 8279, 8210, 8174, 8286,6.381229639053345
62, 8177, 8115, 8091, 8154, 8077, 8145, 8179, 8162, 8185, 8197, 8316, 8162, 8210, 8295,6.388914346694946
63, 8163, 8138, 8072, 8149, 8116, 8165, 8203, 8160, 8184, 8197, 8307, 8146, 8188, 8264,6.397159576416016
64, 8175, 8168, 8197, 8154, 8224, 8175, 8185, 8203, 8166, 8180, 8275, 8168, 8150, 8241,6.404132843017578
65, 8165, 8154, 8213, 8154, 8203, 8173, 8177, 8209, 8179, 8177, 8265, 8170, 8154, 8238,6.412336587905884
66, 8145, 8132, 8091, 8164, 8089, 8172, 8202, 8166, 8207, 8187, 8290, 8146, 8181, 8244,6.4200873374938965
67, 8156, 8162, 8134, 8173, 8161, 8172, 8194, 8160, 8194, 8189, 8305, 8161, 8174, 8243,6.428126573562622
68, 8170, 8176, 8256, 8160, 8246, 8175, 8160, 8172, 8151, 8177, 8285, 8185, 8149, 8239,6.436138391494751
69, 8142, 8119, 8137, 8145, 8121, 8161, 8165, 8135, 8146, 8174, 8284, 8150, 8160, 8248,6.4441163539886475
70, 8150, 8133, 8153, 8146, 8158, 8150, 8162, 8162, 8156, 8172, 8303, 8163, 8166, 8260,6.452128887176514
71, 8175, 8167, 8269, 8151, 8221, 8159, 8153, 8206, 8156, 8173, 8300, 8190, 8153, 8257,6.460159063339233
72, 8137, 8122, 8113, 8148, 8072, 8164, 8183, 8161, 8173, 8181, 8283, 8135, 8152, 8241,6.467105388641357
73, 8131, 8119, 8054, 8149, 8068, 8168, 8200, 8155, 8188, 8175, 8280, 8125, 8149, 8246,6.475141286849976
74, 8172, 8152, 8193, 8143, 8179, 8177, 8181, 8191, 8179, 8167, 8295, 8168, 8144, 8262,6.483155012130737
75, 8181, 8148, 8219, 8144, 8169, 8178, 8171, 8179, 8161, 8165, 8297, 8171, 8152, 8254,6.491022825241089
76, 8166, 8135, 8133, 8160, 8103, 8171, 8180, 8147, 8165, 8179, 8306, 8159, 8177, 8255,6.499018907546997
77, 8166, 8156, 8141, 8156, 8135, 8164, 8168, 8148, 8164, 8196, 8323, 8179, 8196, 8280,6.507153749465942
78, 8176, 8167, 8188, 8142, 8152, 8158, 8151, 8150, 8135, 8183, 8311, 8186, 8179, 8282,6.515065670013428
79, 8163, 8145, 8113, 8151, 8093, 8164, 8159, 8120, 8131, 8170, 8291, 8155, 8159, 8262,6.523155927658081
80, 8169, 8176, 8196, 8168, 8216, 8196, 8159, 8163, 8144, 8177, 8283, 8179, 8149, 8253,6.531166076660156
81, 8156, 8174, 8287, 8147, 8253, 8211, 8169, 8209, 8152, 8193, 8290, 8201, 8155, 8252,6.538114309310913
82, 8093, 8102, 8097, 8112, 8071, 8201, 8208, 8154, 8172, 8202, 8301, 8140, 8166, 8251,6.546034097671509
83, 8095, 8112, 8049, 8120, 8092, 8211, 8209, 8149, 8187, 8205, 8294, 8125, 8163, 8253,6.554158449172974
84, 8129, 8142, 8163, 8137, 8187, 8215, 8179, 8189, 8184, 8213, 8291, 8159, 8169, 8261,6.562082529067993
85, 8117, 8126, 8167, 8126, 8174, 8199, 8177, 8191, 8189, 8223, 8301, 8160, 8188, 8271,6.5700976848602295
86, 8122, 8139, 8163, 8139, 8176, 8198, 8184, 8193, 8202, 8232, 8306, 8155, 8191, 8276,6.5782318115234375
87, 8147, 8170, 8180, 8183, 8186, 8210, 8173, 8191, 8194, 8235, 8305, 8160, 8186, 8277,6.586188316345215
88, 8155, 8168, 8163, 8186, 8154, 8212, 8160, 8165, 8171, 8225, 8299, 8156, 8180, 8270,6.594231605529785
89, 8142, 8142, 8111, 8151, 8098, 8204, 8151, 8125, 8155, 8200, 8273, 8125, 8152, 8247,6.601232051849365
90, 8133, 8147, 8142, 8145, 8149, 8194, 8132, 8117, 8125, 8173, 8230, 8113, 8100, 8206,6.609156131744385
91, 8142, 8153, 8205, 8155, 8210, 8201, 8135, 8139, 8111, 8177, 8231, 8144, 8092, 8208,6.617084980010986
92, 8154, 8140, 8172, 8148, 8162, 8227, 8174, 8154, 8146, 8208, 8280, 8158, 8139, 8261,6.625225305557251
93, 8170, 8158, 8166, 8153, 8165, 8245, 8195, 8182, 8171, 8213, 8291, 8164, 8160, 8283,6.633106708526611
94, 8178, 8161, 8159, 8165, 8169, 8234, 8195, 8193, 8179, 8213, 8286, 8174, 8171, 8292,6.64089822769165
95, 8193, 8168, 8163, 8169, 8161, 8229, 8199, 8206, 8210, 8230, 8304, 8185, 8192, 8327,6.649180173873901
96, 8218, 8180, 8205, 8175, 8164, 8250, 8202, 8229, 8242, 8240, 8325, 8196, 8200, 8345,6.657149314880371
97, 8205, 8162, 8165, 8165, 8152, 8244, 8199, 8207, 8253, 8247, 8341, 8187, 8211, 8331,6.66397500038147
98, 8201, 8197, 8245, 8160, 8245, 8218, 8178, 8224, 8227, 8228, 8315, 8200, 8191, 8309,6.672126531600952
99, 8192, 8197, 8262, 8184, 8202, 8205, 8175, 8220, 8202, 8208, 8298, 8193, 8169, 8293,6.680150747299194
100, 8142, 8126, 8084, 8178, 8060, 8188, 8188, 8138, 8191, 8206, 8304, 8139, 8170, 8274,6.688225030899048
101, 8128, 8127, 8062, 8140, 8091, 8175, 8176, 8110, 8151, 8182, 8275, 8121, 8131, 8248,6.696150779724121
102, 8139, 8159, 8142, 8145, 8153, 8188, 8169, 8138, 8128, 8165, 8257, 8137, 8100, 8224,6.704156160354614
103, 8133, 8163, 8191, 8171, 8188, 8192, 8148, 8152, 8131, 8175, 8272, 8151, 8113, 8207,6.71220326423645
104, 8109, 8145, 8147, 8165, 8138, 8169, 8115, 8116, 8118, 8174, 8284, 8138, 8121, 8213,6.720106840133667
105, 8125, 8178, 8154, 8174, 8153, 8171, 8123, 8122, 8118, 8175, 8295, 8149, 8129, 8249,6.727120876312256
106, 8180, 8230, 8285, 8199, 8243, 8193, 8151, 8198, 8142, 8203, 8322, 8203, 8165, 8284,6.735149621963501
107, 8157, 8176, 8185, 8193, 8134, 8192, 8164, 8186, 8173, 8231, 8354, 8187, 8209, 8307,6.742982864379883
108, 8130, 8139, 8067, 8188, 8086, 8192, 8157, 8158, 8202, 8244, 8365, 8166, 8232, 8336,6.751164197921753
109, 8177, 8179, 8164, 8195, 8194, 8200, 8158, 8199, 8212, 8250, 8356, 8196, 8231, 8355,6.759093999862671
110, 8192, 8182, 8181, 8192, 8194, 8211, 8192, 8216, 8231, 8256, 8357, 8197, 8233, 8350,6.766897678375244
111, 8179, 8182, 8154, 8202, 8180, 8235, 8216, 8220, 8271, 8264, 8373, 8193, 8250, 8349,6.7751545906066895
112, 8200, 8207, 8202, 8232, 8220, 8240, 8207, 8225, 8276, 8268, 8368, 8202, 8257, 8354,6.782227277755737
113, 8219, 8194, 8192, 8239, 8205, 8223, 8201, 8195, 8239, 8256, 8358, 8190, 8245, 8345,6.791103363037109
114, 8206, 8162, 8132, 8219, 8162, 8210, 8198, 8157, 8220, 8240, 8356, 8172, 8232, 8331,6.798066139221191
115, 8196, 8181, 8160, 8214, 8199, 8192, 8165, 8152, 8198, 8222, 8322, 8170, 8202, 8314,6.806222677230835
116, 8200, 8193, 8206, 8213, 8221, 8180, 8145, 8154, 8159, 8209, 8295, 8172, 8173, 8296,6.814102649688721
117, 8167, 8139, 8109, 8185, 8131, 8179, 8167, 8124, 8149, 8216, 8315, 8140, 8180, 8291,6.822099685668945
118, 8151, 8146, 8134, 8159, 8184, 8176, 8164, 8143, 8136, 8195, 8297, 8140, 8167, 8284,6.829887866973877
119, 8175, 8162, 8231, 8154, 8224, 8175, 8152, 8182, 8121, 8167, 8270, 8166, 8146, 8280,6.837869644165039
120, 8160, 8105, 8119, 8152, 8104, 8165, 8175, 8147, 8145, 8185, 8300, 8146, 8175, 8294,6.84613299369812
121, 8157, 8132, 8155, 8164, 8173, 8160, 8172, 8168, 8153, 8193, 8309, 8163, 8182, 8303,6.853969573974609
122, 8184, 8181, 8257, 8187, 8224, 8168, 8162, 8211, 8144, 8190, 8315, 8201, 8182, 8312,6.86100435256958
123, 8167, 8138, 8137, 8195, 8106, 8175, 8183, 8175, 8165, 8206, 8355, 8178, 8215, 8324,6.869021654129028
124, 8151, 8120, 8093, 8190, 8104, 8175, 8199, 8165, 8190, 8218, 8365, 8166, 8236, 8329,6.87686562538147
125, 8189, 8173, 8203, 8213, 8195, 8179, 8198, 8212, 8228, 8243, 8373, 8214, 8260, 8364,6.885064601898193
126, 8231, 8203, 8251, 8252, 8214, 8180, 8185, 8226, 8251, 8265, 8407, 8251, 8291, 8409,6.892932176589966
127, 8223, 8167, 8124, 8261, 8111, 8160, 8167, 8159, 8234, 8261, 8419, 8210, 8301, 8409,6.900946617126465
237, 8232, 8197, 8159, 8261, 8181, 8140, 8137, 8150, 8202, 8233, 8384, 8197, 8277, 8375,6.90895938873291
0, 8260, 8243, 8325, 8259, 8292, 8137, 8116, 8199, 8171, 8210, 8354, 8227, 8248, 8338,6.916853666305542
1, 8222, 8181, 8193, 8244, 8150, 8139, 8138, 8163, 8170, 8222, 8346, 8184, 8242, 8320,6.925184011459351
2, 8196, 8147, 8061, 8232, 8101, 8143, 8163, 8140, 8171, 8225, 8317, 8140, 8230, 8320,6.93214225769043
3, 8206, 8170, 8137, 8215, 8183, 8148, 8166, 8177, 8150, 8192, 8282, 8153, 8196, 8308,6.93984580039978
4, 8185, 8159, 8164, 8187, 8161, 8142, 8161, 8177, 8127, 8173, 8278, 8155, 8177, 8282,6.948002338409424
5, 8186, 8159, 8162, 8185, 8140, 8141, 8159, 8174, 8130, 8185, 8287, 8169, 8192, 8286,6.9558494091033936
6, 8216, 8168, 8172, 8199, 8166, 8165, 8171, 8181, 8152, 8200, 8300, 8192, 8214, 8326,6.96389365196228
7, 8232, 8165, 8214, 8189, 8206, 8184, 8172, 8191, 8153, 8199, 8297, 8203, 8207, 8342,6.972075700759888
8, 8230, 8158, 8230, 8186, 8172, 8176, 8156, 8188, 8157, 8194, 8295, 8207, 8212, 8335,6.979953050613403
9, 8210, 8159, 8165, 8201, 8105, 8170, 8148, 8158, 8169, 8197, 8301, 8194, 8237, 8335,6.986971378326416
10, 8196, 8164, 8128, 8204, 8110, 8190, 8150, 8144, 8169, 8203, 8296, 8176, 8229, 8339,6.99496603012085
11, 8204, 8165, 8146, 8193, 8148, 8204, 8144, 8150, 8169, 8199, 8300, 8177, 8215, 8335,7.003025054931641
12, 8219, 8189, 8216, 8194, 8200, 8197, 8124, 8158, 8149, 8178, 8307, 8200, 8216, 8318,7.011117458343506
13, 8205, 8192, 8201, 8216, 8160, 8180, 8125, 8146, 8125, 8177, 8289, 8189, 8213, 8303,7.0189337730407715
14, 8182, 8178, 8113, 8224, 8115, 8170, 8145, 8136, 8135, 8182, 8266, 8147, 8201, 8287,7.027100563049316
15, 8192, 8196, 8159, 8210, 8180, 8167, 8142, 8166, 8131, 8170, 8267, 8151, 8185, 8263,7.035048961639404
16, 8175, 8175, 8145, 8191, 8152, 8155, 8143, 8160, 8118, 8176, 8283, 8155, 8187, 8265,7.043049335479736
17, 8164, 8168, 8158, 8181, 8187, 8160, 8144, 8179, 8131, 8179, 8261, 8170, 8180, 8287,7.050908088684082
18, 8196, 8182, 8265, 8188, 8260, 8174, 8138, 8212, 8132, 8162, 8241, 8202, 8163, 8295,7.05906343460083
19, 8176, 8140, 8168, 8184, 8149, 8165, 8155, 8158, 8128, 8166, 8272, 8169, 8178, 8287,7.066136121749878
20, 8132, 8118, 8057, 8151, 8097, 8171, 8164, 8133, 8149, 8177, 8291, 8139, 8190, 8274,7.073941230773926
21, 8136, 8126, 8110, 8122, 8167, 8197, 8159, 8169, 8166, 8174, 8278, 8165, 8175, 8273,7.081965446472168
22, 8160, 8138, 8194, 8134, 8231, 8203, 8167, 8194, 8168, 8180, 8278, 8190, 8176, 8296,7.089910268783569
23, 8142, 8125, 8141, 8147, 8168, 8190, 8180, 8177, 8183, 8197, 8302, 8168, 8201, 8312,7.0980610847473145
24, 8120, 8123, 8095, 8148, 8144, 8186, 8171, 8157, 8184, 8191, 8313, 8146, 8207, 8297,7.105973720550537
25, 8177, 8186, 8278, 8171, 8290, 8192, 8146, 8194, 8146, 8168, 8297, 8193, 8189, 8277,7.1139914989471436
26, 8186, 8175, 8233, 8194, 8210, 8185, 8150, 8166, 8148, 8181, 8310, 8188, 8201, 8277,7.121838331222534
27, 8154, 8157, 8098, 8208, 8129, 8183, 8150, 8131, 8176, 8206, 8334, 8159, 8221, 8285,7.128940105438232
28, 8204, 8222, 8254, 8233, 8264, 8202, 8141, 8192, 8175, 8205, 8342, 8209, 8229, 8306,7.136974334716797
29, 8242, 8217, 8243, 8257, 8201, 8213, 8173, 8193, 8199, 8218, 8359, 8215, 8259, 8336,7.144915342330933
30, 8212, 8166, 8070, 8242, 8094, 8200, 8193, 8140, 8206, 8213, 8351, 8162, 8248, 8328,7.153061866760254
31, 8176, 8160, 8107, 8186, 8181, 8182, 8171, 8151, 8145, 8164, 8294, 8150, 8173, 8281,7.160833835601807
32, 8154, 8146, 8198, 8138, 8236, 8178, 8168, 8182, 8106, 8140, 8243, 8158, 8126, 8246,7.168880462646484
33, 8131, 8101, 8126, 8110, 8147, 8181, 8192, 8163, 8133, 8161, 8241, 8134, 8136, 8244,7.177055597305298
34, 8093, 8085, 8042, 8098, 8108, 8179, 8196, 8139, 8151, 8168, 8245, 8107, 8141, 8233,7.18485426902771
35, 8085, 8113, 8144, 8086, 8201, 8175, 8171, 8175, 8125, 8138, 8209, 8126, 8104, 8205,7.192978858947754
36, 8092, 8097, 8165, 8071, 8165, 8173, 8178, 8182, 8136, 8139, 8218, 8131, 8100, 8219,7.2000205516815186
37, 8079, 8078, 8098, 8064, 8123, 8172, 8200, 8163, 8172, 8170, 8263, 8121, 8129, 8247,7.2081077098846436
38, 8082, 8106, 8168, 8086, 8199, 8168, 8182, 8183, 8170, 8167, 8263, 8145, 8129, 8240,7.216094493865967
39, 8091, 8113, 8160, 8113, 8156, 8158, 8171, 8168, 8157, 8153, 8263, 8146, 8134, 8241,7.223989486694336
40, 8088, 8132, 8132, 8118, 8140, 8166, 8172, 8139, 8139, 8139, 8262, 8135, 8126, 8233,7.232216119766235
41, 8090, 8138, 8159, 8114, 8165, 8172, 8165, 8134, 8127, 8129, 8249, 8137, 8104, 8207,7.240094900131226
42, 8109, 8128, 8154, 8134, 8167, 8155, 8161, 8136, 8134, 8140, 8264, 8146, 8122, 8213,7.248003959655762
43, 8154, 8179, 8240, 8190, 8231, 8159, 8155, 8172, 8134, 8154, 8301, 8191, 8158, 8248,7.2550952434539795
44, 8173, 8203, 8228, 8222, 8189, 8165, 8147, 8166, 8140, 8174, 8336, 8198, 8188, 8284,7.264111757278442
45, 8169, 8180, 8125, 8194, 8136, 8146, 8132, 8138, 8147, 8185, 8337, 8169, 8192, 8298,7.27088475227356
46, 8176, 8184, 8142, 8174, 8165, 8131, 8124, 8151, 8132, 8170, 8306, 8168, 8168, 8282,7.279012441635132
47, 8159, 8188, 8172, 8172, 8169, 8119, 8132, 8156, 8114, 8144, 8246, 8158, 8140, 8254,7.286974668502808
48, 8129, 8157, 8139, 8148, 8167, 8124, 8153, 8152, 8111, 8136, 8176, 8131, 8114, 8235,7.295072317123413
49, 8125, 8137, 8119, 8134, 8185, 8161, 8183, 8165, 8127, 8160, 8170, 8136, 8123, 8245,7.302990913391113
50, 8161, 8190, 8226, 8159, 8260, 8195, 8199, 8210, 8150, 8187, 8224, 8193, 8170, 8278,7.3108437061309814
51, 8179, 8194, 8230, 8175, 8216, 8186, 8208, 8209, 8175, 8193, 8257, 8206, 8211, 8312,7.318965196609497
52, 8150, 8134, 8106, 8150, 8144, 8163, 8201, 8170, 8185, 8189, 8238, 8164, 8208, 8312,7.325998306274414
53, 8157, 8156, 8215, 8130, 8254, 8166, 8167, 8200, 8162, 8187, 8218, 8191, 8185, 8300,7.333967924118042
54, 8165, 8155, 8222, 8135, 8204, 8156, 8161, 8179, 8161, 8198, 8253, 8202, 8211, 8322,7.341988801956177
55, 8152, 8136, 8112, 8145, 8146, 8138, 8164, 8132, 8184, 8205, 8293, 8170, 8230, 8330,7.3499979972839355
56, 8160, 8173, 8202, 8155, 8258, 8149, 8141, 8170, 8192, 8205, 8293, 8186, 8210, 8301,7.358022212982178
57, 8143, 8155, 8176, 8148, 8206, 8153, 8145, 8165, 8190, 8210, 8295, 8180, 8219, 8293,7.366000413894653
58, 8132, 8118, 8068, 8134, 8126, 8134, 8169, 8130, 8178, 8198, 8298, 8151, 8227, 8305,7.374042987823486
59, 8145, 8136, 8109, 8137, 8185, 8131, 8176, 8149, 8158, 8184, 8287, 8157, 8198, 8297,7.381986856460571
60, 8144, 8160, 8188, 8149, 8249, 8154, 8185, 8180, 8141, 8176, 8275, 8170, 8175, 8277,7.388977289199829
61, 8122, 8132, 8164, 8132, 8207, 8156, 8209, 8178, 8128, 8162, 8262, 8156, 8168, 8262,7.396914482116699
62, 8115, 8117, 8126, 8113, 8178, 8146, 8223, 8169, 8128, 8161, 8263, 8145, 8160, 8257,7.40498161315918
63, 8150, 8161, 8202, 8132, 8244, 8159, 8202, 8188, 8143, 8170, 8273, 8176, 8165, 8268,7.412992000579834
64, 8160, 8164, 8195, 8151, 8213, 8172, 8175, 8168, 8163, 8181, 8283, 8182, 8183, 8282,7.420908212661743
65, 8146, 8154, 8151, 8158, 8190, 8172, 8162, 8146, 8169, 8188, 8282, 8168, 8188, 8286,7.429050445556641
66, 8161, 8180, 8207, 8164, 8257, 8179, 8156, 8175, 8166, 8190, 8270, 8177, 8183, 8292,7.437196493148804
67, 8156, 8166, 8170, 8155, 8213, 8184, 8167, 8173, 8178, 8189, 8265, 8154, 8187, 8296,7.445007801055908
68, 8137, 8154, 8124, 8140, 8178, 8169, 8167, 8149, 8173, 8175, 8254, 8140, 8172, 8287,7.4521167278289795
69, 8154, 8178, 8197, 8132, 8219, 8154, 8142, 8156, 8133, 8154, 8239, 8170, 8150, 8280,7.460103750228882
70, 8168, 8175, 8189, 8131, 8180, 8152, 8137, 8148, 8109, 8143, 8240, 8166, 8148, 8278,7.468112945556641
71, 8159, 8166, 8122, 8142, 8132, 8153, 8150, 8126, 8109, 8147, 8244, 8142, 8147, 8274,7.47708797454834
72, 8152, 8174, 8129, 8154, 8166, 8144, 8146, 8124, 8103, 8152, 8239, 8149, 8147, 8273,7.484239339828491
73, 8162, 8181, 8208, 8142, 8241, 8141, 8130, 8159, 8084, 8144, 8228, 8174, 8150, 8275,7.492124795913696
74, 8166, 8164, 8188, 8125, 8185, 8151, 8147, 8165, 8091, 8146, 8238, 8164, 8164, 8286,7.500180959701538
75, 8159, 8168, 8128, 8136, 8143, 8155, 8165, 8154, 8117, 8158, 8249, 8149, 8174, 8291,7.508154392242432
76, 8152, 8192, 8192, 8135, 8240, 8153, 8155, 8191, 8120, 8155, 8241, 8177, 8168, 8279,7.516003608703613
77, 8115, 8140, 8154, 8103, 8201, 8164, 8174, 8194, 8132, 8157, 8238, 8160, 8169, 8278,7.522956371307373
78, 8102, 8117, 8096, 8103, 8151, 8180, 8196, 8174, 8160, 8165, 8204, 8122, 8163, 8273,7.531148433685303
79, 8135, 8169, 8154, 8130, 8193, 8182, 8184, 8188, 8174, 8176, 8163, 8142, 8159, 8256,7.539214372634888
80, 8133, 8173, 8149, 8136, 8189, 8175, 8173, 8186, 8177, 8195, 8169, 8164, 8177, 8266,7.546932220458984
81, 8130, 8164, 8171, 8136, 8212, 8175, 8175, 8190, 8171, 8199, 8184, 8173, 8186, 8285,7.555097579956055
82, 8154, 8174, 8196, 8159, 8201, 8179, 8168, 8180, 8163, 8191, 8185, 8177, 8193, 8299,7.563159227371216
83, 8166, 8170, 8170, 8168, 8180, 8182, 8157, 8160, 8159, 8192, 8188, 8175, 8210, 8310,7.570880651473999
84, 8162, 8158, 8149, 8148, 8178, 8189, 8165, 8154, 8157, 8200, 8185, 8165, 8201, 8305,7.57893967628479
85, 8156, 8177, 8158, 8127, 8191, 8191, 8169, 8158, 8147, 8192, 8174, 8159, 8181, 8295,7.586236238479614
86, 8165, 8192, 8209, 8130, 8223, 8197, 8164, 8183, 8129, 8170, 8166, 8174, 8181, 8298,7.594173431396484
87, 8155, 8145, 8152, 8148, 8171, 8202, 8188, 8179, 8141, 8178, 8170, 8160, 8195, 8301,7.602214097976685
88, 8158, 8162, 8162, 8149, 8206, 8213, 8199, 8190, 8161, 8197, 8178, 8163, 8199, 8303,7.610086679458618
89, 8184, 8212, 8255, 8145, 8253, 8219, 8181, 8217, 8161, 8203, 8192, 8201, 8209, 8321,7.618138790130615
90, 8166, 8170, 8149, 8162, 8145, 8206, 8191, 8177, 8170, 8214, 8204, 8178, 8234, 8328,7.6258766651153564
91, 8143, 8154, 8088, 8168, 8151, 8205, 8203, 8154, 8174, 8211, 8188, 8148, 8224, 8306,7.634155750274658
92, 8137, 8173, 8152, 8134, 8213, 8210, 8181, 8160, 8157, 8190, 8171, 8150, 8195, 8279,7.64205002784729
93, 8127, 8165, 8161, 8124, 8207, 8207, 8169, 8156, 8142, 8178, 8162, 8139, 8171, 8265,7.649017095565796
94, 8143, 8178, 8190, 8172, 8236, 8220, 8179, 8179, 8146, 8177, 8151, 8150, 8153, 8261,7.6571972370147705
95, 8165, 8190, 8193, 8193, 8225, 8228, 8191, 8199, 8171, 8197, 8170, 8172, 8178, 8279,7.66512656211853
96, 8169, 8171, 8164, 8150, 8190, 8218, 8188, 8187, 8174, 8207, 8190, 8173, 8200, 8291,7.673099756240845
97, 8145, 8143, 8108, 8128, 8157, 8202, 8174, 8140, 8145, 8187, 8183, 8144, 8185, 8277,7.681136131286621
98, 8147, 8178, 8172, 8166, 8244, 8200, 8149, 8145, 8114, 8177, 8174, 8160, 8168, 8268,7.688931226730347
99, 8174, 8198, 8279, 8169, 8282, 8221, 8141, 8197, 8116, 8179, 8178, 8197, 8171, 8280,7.696929216384888
100, 8135, 8127, 8128, 8118, 8129, 8226, 8169, 8153, 8142, 8168, 8169, 8145, 8184, 8281,7.704902648925781
101, 8128, 8150, 8147, 8117, 8213, 8213, 8164, 8154, 8125, 8155, 8119, 8144, 8171, 8260,7.71316123008728
102, 8164, 8185, 8246, 8167, 8255, 8207, 8164, 8201, 8126, 8186, 8101, 8191, 8186, 8291,7.720172882080078
103, 8153, 8149, 8132, 8183, 8128, 8206, 8194, 8179, 8172, 8219, 8096, 8170, 8225, 8335,7.728092908859253
104, 8152, 8176, 8176, 8177, 8209, 8203, 8187, 8195, 8180, 8198, 8029, 8165, 8202, 8310,7.736170530319214
105, 8143, 8177, 8198, 8180, 8230, 8198, 8181, 8196, 8175, 8188, 7988, 8160, 8181, 8283,7.744125843048096
106, 8111, 8127, 8075, 8171, 8136, 8202, 8195, 8148, 8193, 8205, 8005, 8137, 8205, 8298,7.752050399780273
107, 8119, 8138, 8101, 8157, 8170, 8207, 8182, 8156, 8199, 8201, 8007, 8155, 8215, 8307,7.760138034820557
108, 8152, 8183, 8215, 8166, 8258, 8214, 8160, 8199, 8195, 8185, 7986, 8184, 8204, 8299,7.767940998077393
109, 8153, 8176, 8178, 8186, 8217, 8220, 8163, 8184, 8204, 8194, 7985, 8167, 8207, 8307,7.776105880737305
110, 8120, 8151, 8081, 8180, 8169, 8209, 8167, 8140, 8199, 8198, 7984, 8133, 8202, 8301,7.783202171325684
111, 8129, 8188, 8218, 8168, 8304, 8207, 8154, 8185, 8164, 8166, 7940, 8162, 8157, 8266,7.791116237640381
112, 8157, 8200, 8297, 8181, 8299, 8212, 8169, 8212, 8147, 8159, 7914, 8183, 8146, 8258,7.7988855838775635
113, 8138, 8162, 8120, 8201, 8126, 8206, 8208, 8158, 8173, 8191, 7951, 8141, 8185, 8280,7.807134389877319
114, 8116, 8155, 8068, 8193, 8140, 8211, 8220, 8150, 8189, 8192, 7973, 8126, 8184, 8270,7.814934253692627
115, 8123, 8164, 8155, 8179, 8222, 8231, 8219, 8181, 8191, 8169, 7936, 8142, 8153, 8247,7.822940826416016
116, 8135, 8178, 8179, 8193, 8230, 8242, 8225, 8194, 8197, 8169, 7912, 8145, 8154, 8253,7.830928087234497
117, 8141, 8188, 8195, 8191, 8233, 8230, 8203, 8187, 8172, 8169, 7947, 8160, 8155, 8257,7.839137315750122
118, 8141, 8159, 8182, 8165, 8192, 8209, 8166, 8151, 8145, 8170, 8001, 8169, 8159, 8258,7.8462138175964355
119, 8156, 8151, 8172, 8168, 8177, 8198, 8147, 8138, 8159, 8188, 8016, 8176, 8183, 8283,7.8541436195373535
120, 8164, 8167, 8158, 8189, 8176, 8186, 8148, 8144, 8182, 8203, 8006, 8174, 8209, 8304,7.862102746963501
121, 8157, 8174, 8144, 8192, 8173, 8176, 8150, 8141, 8167, 8185, 7985, 8159, 8208, 8290,7.870140075683594
122, 8157, 8165, 8154, 8191, 8187, 8178, 8155, 8142, 8148, 8161, 7963, 8157, 8182, 8284,7.877917051315308
123, 8152, 8152, 8158, 8181, 8205, 8179, 8171, 8155, 8165, 8170, 7959, 8166, 8173, 8303,7.886144399642944
124, 8159, 8173, 8223, 8165, 8247, 8177, 8182, 8191, 8170, 8164, 7944, 8186, 8170, 8303,7.893942832946777
125, 8168, 8161, 8187, 8167, 8175, 8169, 8189, 8175, 8162, 8155, 7929, 8169, 8168, 8299,7.902130842208862
126, 8167, 8146, 8145, 8170, 8168, 8151, 8173, 8156, 8158, 8165, 7925, 8148, 8163, 8297,7.9100868701934814
127, 8171, 8162, 8208, 8160, 8216, 8137, 8147, 8183, 8160, 8163, 7939, 8166, 8168, 8283,7.917169570922852
237, 8148, 8140, 8131, 8158, 8144, 8149, 8156, 8161, 8183, 8179, 7970, 8149, 8187, 8278,7.924888372421265
0, 8146, 8160, 8166, 8159, 8226, 8177, 8153, 8169, 8172, 8191, 7947, 8151, 8160, 8260,7.933170795440674
1, 8151, 8185, 8258, 8156, 8259, 8165, 8144, 8198, 8140, 8175, 7907, 8168, 8134, 8234,7.941060304641724
2, 8115, 8138, 8115, 8158, 8107, 8130, 8164, 8158, 8159, 8173, 7924, 8139, 8169, 8248,7.948998689651489
3, 8114, 8131, 8054, 8163, 8117, 8147, 8174, 8139, 8182, 8177, 7944, 8129, 8189, 8271,7.957211971282959
4, 8155, 8175, 8175, 8176, 8222, 8177, 8169, 8172, 8160, 8163, 7925, 8159, 8169, 8267,7.965211629867554
5, 8188, 8196, 8250, 8193, 8231, 8166, 8163, 8197, 8154, 8166, 7938, 8191, 8172, 8285,7.9729790687561035
6, 8193, 8171, 8162, 8196, 8137, 8151, 8178, 8179, 8194, 8194, 8053, 8191, 8208, 8332,7.980102777481079
7, 8197, 8181, 8161, 8187, 8181, 8166, 8195, 8184, 8195, 8185, 8163, 8193, 8201, 8329,7.98803448677063
8, 8218, 8206, 8301, 8186, 8287, 8185, 8183, 8218, 8149, 8157, 8190, 8211, 8162, 8296,7.996177434921265
9, 8202, 8151, 8202, 8178, 8168, 8179, 8182, 8175, 8152, 8169, 8230, 8171, 8170, 8302,8.003911256790161
10, 8193, 8136, 8125, 8164, 8138, 8171, 8188, 8153, 8169, 8174, 8274, 8150, 8173, 8305,8.012134313583374
11, 8207, 8167, 8229, 8163, 8232, 8177, 8182, 8192, 8154, 8170, 8262, 8177, 8154, 8289,8.01995038986206
12, 8177, 8141, 8162, 8153, 8156, 8170, 8180, 8169, 8157, 8180, 8218, 8152, 8166, 8290,8.028155088424683
13, 8162, 8137, 8102, 8133, 8116, 8159, 8170, 8146, 8166, 8173, 8161, 8142, 8179, 8305,8.035943508148193
14, 8172, 8163, 8164, 8139, 8167, 8158, 8165, 8177, 8161, 8172, 8132, 8175, 8184, 8308,8.044138193130493
15, 8160, 8167, 8153, 8164, 8166, 8158, 8179, 8189, 8173, 8194, 8137, 8170, 8200, 8295,8.050929546356201
16, 8155, 8160, 8123, 8165, 8156, 8169, 8189, 8182, 8191, 8195, 8115, 8149, 8211, 8293,8.059102773666382
17, 8159, 8152, 8162, 8150, 8180, 8172, 8172, 8188, 8178, 8182, 8068, 8157, 8188, 8294,8.066999435424805
18, 8151, 8150, 8176, 8164, 8162, 8150, 8155, 8191, 8158, 8178, 7992, 8166, 8156, 8280,8.074881315231323
19, 8147, 8153, 8109, 8196, 8109, 8141, 8160, 8162, 8165, 8171, 7858, 8146, 8160, 8272,8.082961320877075
20, 8186, 8199, 8209, 8197, 8218, 8173, 8154, 8185, 8157, 8153, 7703, 8164, 8156, 8274,8.091139554977417
21, 8193, 8187, 8261, 8170, 8213, 8190, 8156, 8199, 8147, 8154, 7648, 8182, 8146, 8279,8.098906993865967
22, 8140, 8113, 8095, 8153, 8077, 8169, 8173, 8141, 8165, 8180, 7695, 8145, 8171, 8283,8.1070716381073
23, 8149, 8150, 8179, 8158, 8195, 8171, 8154, 8165, 8169, 8186, 7720, 8163, 8184, 8271,8.114088773727417
24, 8162, 8176, 8218, 8174, 8187, 8178, 8153, 8172, 8178, 8194, 7700, 8166, 8179, 8260,8.12220811843872
25, 8139, 8154, 8097, 8185, 8097, 8159, 8166, 8121, 8175, 8195, 7648, 8131, 8167, 8258,8.129895210266113
26, 8164, 8187, 8191, 8184, 8211, 8157, 8136, 8150, 8144, 8173, 7602, 8162, 8161, 8272,8.137804985046387
27, 8176, 8185, 8209, 8177, 8213, 8168, 8121, 8169, 8160, 8182, 7617, 8177, 8199, 8308,8.14580488204956
28, 8166, 8171, 8138, 8183, 8161, 8171, 8138, 8160, 8191, 8203, 7621, 8164, 8223, 8324,8.153890132904053
29, 8166, 8178, 8130, 8196, 8158, 8164, 8160, 8167, 8192, 8216, 7590, 8160, 8214, 8311,8.161800861358643
30, 8165, 8190, 8185, 8183, 8227, 8160, 8177, 8201, 8198, 8222, 7575, 8171, 8208, 8302,8.169729232788086
31, 8153, 8173, 8216, 8160, 8243, 8163, 8186, 8223, 8203, 8206, 7576, 8174, 8197, 8292,8.176958322525024
32, 8126, 8140, 8127, 8157, 8151, 8166, 8213, 8202, 8185, 8194, 7574, 8140, 8189, 8270,8.184808492660522
33, 8126, 8149, 8139, 8156, 8190, 8178, 8228, 8214, 8141, 8196, 7568, 8141, 8180, 8248,8.1928129196167
34, 8112, 8134, 8165, 8144, 8199, 8181, 8224, 8208, 8101, 8191, 7578, 8152, 8169, 8231,8.200886487960815
35, 8071, 8104, 8070, 8152, 8102, 8178, 8240, 8160, 8106, 8187, 7581, 8119, 8161, 8206,8.20889949798584
36, 8085, 8130, 8089, 8166, 8147, 8193, 8253, 8162, 8125, 8189, 7571, 8107, 8149, 8182,8.216906070709229
37, 8120, 8151, 8179, 8161, 8228, 8206, 8227, 8172, 8114, 8182, 7573, 8115, 8133, 8168,8.224873542785645
38, 8117, 8141, 8160, 8159, 8192, 8193, 8189, 8140, 8080, 8158, 7564, 8111, 8110, 8154,8.233141899108887
39, 8121, 8139, 8122, 8163, 8146, 8171, 8164, 8113, 8055, 8126, 7548, 8120, 8090, 8169,8.240885257720947
40, 8153, 8159, 8168, 8169, 8179, 8160, 8139, 8112, 8039, 8092, 7562, 8150, 8082, 8215,8.24793529510498
41, 8168, 8158, 8185, 8173, 8185, 8150, 8120, 8103, 8021, 8084, 7591, 8168, 8083, 8246,8.25588607788086
42, 8145, 8140, 8116, 8163, 8148, 8144, 8124, 8098, 8025, 8108, 7609, 8158, 8095, 8239,8.263936042785645
43, 8133, 8166, 8161, 8153, 8215, 8156, 8130, 8147, 8046, 8125, 7607, 8153, 8103, 8210,8.271850109100342
44, 8136, 8177, 8205, 8164, 8230, 8155, 8140, 8176, 8068, 8150, 7618, 8149, 8118, 8204,8.28000259399414
45, 8127, 8146, 8126, 8158, 8170, 8143, 8148, 8159, 8089, 8191, 7648, 8137, 8147, 8234,8.288034200668335
46, 8140, 8161, 8163, 8138, 8215, 8155, 8142, 8184, 8101, 8199, 7669, 8159, 8165, 8254,8.295953035354614
47, 8146, 8175, 8188, 8138, 8197, 8167, 8149, 8187, 8114, 8197, 7702, 8168, 8186, 8256,8.304023742675781
48, 8138, 8164, 8132, 8158, 8143, 8166, 8160, 8159, 8122, 8215, 7731, 8156, 8209, 8268,8.311954498291016
49, 8155, 8179, 8150, 8182, 8171, 8174, 8156, 8164, 8121, 8226, 7739, 8164, 8212, 8282,8.318973302841187
50, 8170, 8202, 8179, 8179, 8192, 8187, 8152, 8169, 8124, 8214, 7746, 8170, 8199, 8273,8.326911926269531
51, 8169, 8203, 8194, 8170, 8199, 8197, 8155, 8173, 8121, 8198, 7752, 8176, 8190, 8260,8.335031747817993
52, 8149, 8179, 8155, 8180, 8172, 8208, 8166, 8170, 8118, 8196, 7759, 8163, 8202, 8269,8.342812299728394
53, 8142, 8188, 8155, 8180, 8198, 8214, 8170, 8178, 8123, 8196, 7771, 8160, 8207, 8282,8.350871801376343
54, 8154, 8202, 8189, 8170, 8218, 8210, 8165, 8191, 8131, 8200, 7782, 8180, 8209, 8286,8.359013319015503
55, 8143, 8185, 8139, 8185, 8179, 8200, 8167, 8178, 8146, 8216, 7804, 8173, 8226, 8295,8.366886615753174
56, 8145, 8200, 8166, 8199, 8211, 8207, 8174, 8196, 8153, 8219, 7816, 8172, 8224, 8304,8.373805284500122
57, 8144, 8197, 8171, 8170, 8176, 8215, 8182, 8196, 8154, 8210, 7806, 8164, 8211, 8298,8.38196063041687
58, 8135, 8187, 8149, 8157, 8177, 8204, 8178, 8179, 8149, 8199, 7787, 8155, 8197, 8280,8.389858484268188
59, 8158, 8208, 8220, 8175, 8259, 8202, 8170, 8199, 8139, 8193, 7784, 8167, 8187, 8264,8.398011922836304
60, 8155, 8185, 8169, 8171, 8195, 8200, 8181, 8182, 8142, 8203, 7797, 8146, 8199, 8262,8.406050205230713
61, 8137, 8177, 8141, 8159, 8177, 8183, 8173, 8168, 8132, 8200, 7792, 8141, 8187, 8262,8.414101839065552
62, 8131, 8178, 8177, 8150, 8196, 8165, 8150, 8173, 8116, 8192, 7793, 8161, 8163, 8266,8.422053575515747
63, 8124, 8150, 8151, 8138, 8170, 8162, 8136, 8156, 8110, 8193, 7813, 8153, 8158, 8261,8.430086612701416
64, 8129, 8146, 8158, 8128, 8172, 8165, 8130, 8144, 8101, 8181, 7818, 8145, 8152, 8251,8.437906742095947
65, 8132, 8154, 8146, 8133, 8158, 8153, 8135, 8133, 8107, 8174, 7820, 8144, 8153, 8265,8.4451003074646
66, 8157, 8176, 8189, 8156, 8208, 8151, 8136, 8149, 8110, 8176, 7888, 8166, 8166, 8284,8.452905893325806
67, 8172, 8178, 8205, 8185, 8202, 8152, 8132, 8158, 8107, 8174, 8042, 8173, 8178, 8284,8.460976123809814
68, 8148, 8175, 8145, 8186, 8152, 8144, 8136, 8148, 8105, 8173, 8154, 8145, 8182, 8270,8.469063758850098
69, 8144, 8177, 8157, 8166, 8170, 8152, 8137, 8165, 8108, 8177, 8188, 8150, 8184, 8269,8.476985454559326
70, 8157, 8156, 8149, 8179, 8156, 8167, 8141, 8167, 8124, 8187, 8244, 8164, 8198, 8291,8.485121965408325
71, 8172, 8174, 8179, 8200, 8195, 8179, 8144, 8174, 8132, 8190, 8297, 8175, 8197, 8297,8.493094205856323
72, 8176, 8193, 8203, 8194, 8210, 8188, 8158, 8185, 8141, 8205, 8309, 8174, 8188, 8286,8.501220941543579
73, 8170, 8173, 8156, 8190, 8166, 8185, 8174, 8174, 8169, 8223, 8339, 8161, 8198, 8291,8.507903575897217
74, 8176, 8168, 8175, 8191, 8191, 8175, 8167, 8181, 8172, 8216, 8367, 8170, 8203, 8292,8.516134023666382
75, 8172, 8176, 8177, 8191, 8190, 8173, 8159, 8172, 8146, 8210, 8367, 8164, 8194, 8273,8.523937940597534
76, 8166, 8195, 8164, 8205, 8175, 8169, 8141, 8147, 8125, 8208, 8372, 8152, 8186, 8261,8.53193473815918
77, 8160, 8185, 8158, 8194, 8162, 8153, 8111, 8134, 8120, 8186, 8389, 8155, 8189, 8273,8.539927244186401
78, 8144, 8157, 8141, 8154, 8168, 8157, 8116, 8140, 8125, 8176, 8401, 8157, 8194, 8293,8.547945499420166
79, 8149, 8165, 8191, 8156, 8208, 8186, 8138, 8169, 8121, 8187, 8401, 8171, 8186, 8298,8.556053876876831
80, 8143, 8152, 8163, 8176, 8153, 8188, 8149, 8151, 8125, 8195, 8416, 8167, 8193, 8296,8.564075469970703
81, 8138, 8148, 8146, 8163, 8162, 8176, 8144, 8144, 8143, 8191, 8434, 8172, 8206, 8305,8.572000980377197
82, 8150, 8168, 8205, 8152, 8205, 8179, 8142, 8174, 8151, 8188, 8433, 8184, 8192, 8312,8.57903790473938
83, 8144, 8159, 8151, 8155, 8151, 8182, 8149, 8159, 8142, 8192, 8427, 8154, 8177, 8299,8.586842775344849
84, 8157, 8175, 8155, 8168, 8178, 8169, 8132, 8152, 8123, 8186, 8420, 8155, 8170, 8283,8.594995737075806
85, 8190, 8194, 8204, 8202, 8188, 8148, 8114, 8160, 8123, 8184, 8447, 8185, 8192, 8308,8.60292673110962
86, 8208, 8195, 8187, 8221, 8158, 8152, 8120, 8154, 8130, 8197, 8487, 8193, 8223, 8345,8.611055612564087
87, 8209, 8203, 8174, 8211, 8182, 8179, 8130, 8152, 8131, 8200, 8494, 8189, 8219, 8345,8.618853330612183
88, 8201, 8197, 8166, 8206, 8199, 8197, 8135, 8149, 8145, 8190, 8487, 8179, 8210, 8333,8.62715458869934
89, 8221, 8204, 8210, 8217, 8223, 8204, 8144, 8172, 8160, 8191, 8485, 8191, 8209, 8336,8.634939432144165
90, 8226, 8192, 8184, 8221, 8187, 8205, 8163, 8172, 8168, 8199, 8487, 8184, 8202, 8341,8.642112731933594
91, 8205, 8182, 8160, 8216, 8197, 8190, 8151, 8163, 8163, 8180, 8475, 8169, 8185, 8327,8.64988112449646
92, 8203, 8189, 8213, 8209, 8235, 8172, 8130, 8179, 8155, 8170, 8470, 8185, 8189, 8322,8.658026218414307
93, 8193, 8175, 8160, 8203, 8170, 8157, 8140, 8152, 8159, 8192, 8488, 8177, 8211, 8329,8.665958166122437
94, 8199, 8193, 8182, 8197, 8205, 8147, 8126, 8147, 8137, 8177, 8472, 8173, 8185, 8317,8.673982620239258
95, 8224, 8202, 8226, 8191, 8227, 8134, 8103, 8163, 8118, 8156, 8464, 8183, 8171, 8320,8.68205189704895
96, 8222, 8179, 8157, 8207, 8171, 8123, 8112, 8152, 8142, 8182, 8501, 8186, 8212, 8349,8.689986228942871
97, 8215, 8186, 8162, 8233, 8184, 8135, 8121, 8157, 8164, 8198, 8515, 8196, 8229, 8351,8.698055744171143
98, 8199, 8196, 8170, 8237, 8189, 8148, 8121, 8160, 8164, 8191, 8487, 8175, 8202, 8319,8.704881191253662
99, 8185, 8209, 8176, 8233, 8218, 8146, 8127, 8167, 8154, 8179, 8453, 8153, 8163, 8291,8.713013887405396
100, 8183, 8213, 8165, 8244, 8206, 8146, 8141, 8166, 8154, 8168, 8450, 8150, 8154, 8283,8.721095561981201
101, 8176, 8204, 8134, 8242, 8192, 8156, 8141, 8154, 8159, 8167, 8452, 8142, 8164, 8278,8.728918552398682
102, 8180, 8205, 8187, 8221, 8242, 8169, 8134, 8174, 8149, 8166, 8437, 8152, 8151, 8267,8.737041711807251
103, 8171, 8196, 8168, 8213, 8202, 8170, 8152, 8175, 8155, 8168, 8448, 8149, 8148, 8268,8.744995594024658
104, 8161, 8198, 8141, 8214, 8193, 8172, 8163, 8170, 8166, 8170, 8468, 8145, 8164, 8274,8.753165483474731
105, 8168, 8194, 8142, 8214, 8197, 8175, 8160, 8175, 8170, 8181, 8482, 8151, 8179, 8281,8.7611243724823
106, 8172, 8189, 8136, 8220, 8198, 8179, 8179, 8181, 8177, 8191, 8487, 8159, 8181, 8292,8.769026041030884
107, 8184, 8209, 8219, 8226, 8281, 8188, 8197, 8216, 8173, 8173, 8473, 8181, 8169, 8291,8.775905132293701
108, 8165, 8182, 8190, 8215, 8249, 8186, 8212, 8211, 8178, 8173, 8474, 8163, 8167, 8274,8.784046649932861
109, 8129, 8163, 8105, 8196, 8198, 8181, 8228, 8184, 8191, 8189, 8482, 8136, 8165, 8260,8.791906118392944
110, 8133, 8183, 8127, 8194, 8237, 8184, 8224, 8187, 8191, 8185, 8479, 8148, 8160, 8268,8.800092697143555
111, 8149, 8183, 8147, 8209, 8247, 8188, 8212, 8182, 8190, 8183, 8474, 8157, 8165, 8278,8.808053016662598
112, 8160, 8194, 8174, 8217, 8257, 8193, 8202, 8170, 8186, 8188, 8469, 8166, 8164, 8271,8.816158771514893
113, 8153, 8184, 8153, 8208, 8246, 8185, 8195, 8143, 8177, 8190, 8467, 8154, 8161, 8270,8.824129104614258
114, 8149, 8158, 8146, 8194, 8256, 8170, 8179, 8137, 8162, 8184, 8465, 8145, 8155, 8270,8.832034349441528
115, 8153, 8161, 8176, 8197, 8261, 8169, 8167, 8142, 8148, 8176, 8464, 8153, 8150, 8264,8.83889627456665
116, 8144, 8177, 8149, 8208, 8240, 8165, 8158, 8124, 8150, 8174, 8469, 8144, 8154, 8256,8.847104787826538
117, 8156, 8192, 8172, 8211, 8263, 8153, 8138, 8137, 8156, 8175, 8472, 8153, 8150, 8254,8.854918718338013
118, 8155, 8178, 8156, 8200, 8216, 8149, 8143, 8141, 8175, 8184, 8481, 8158, 8160, 8266,8.86301875114441
119, 8146, 8189, 8152, 8194, 8233, 8154, 8165, 8158, 8186, 8190, 8473, 8155, 8172, 8276,8.871052265167236
120, 8172, 8206, 8233, 8196, 8296, 8162, 8175, 8202, 8176, 8190, 8460, 8174, 8169, 8283,8.879207611083984
121, 8166, 8168, 8177, 8178, 8211, 8167, 8186, 8183, 8169, 8195, 8469, 8166, 8172, 8294,8.88709807395935
122, 8146, 8165, 8130, 8156, 8181, 8164, 8184, 8161, 8164, 8188, 8463, 8149, 8168, 8298,8.89506220817566
123, 8158, 8182, 8155, 8150, 8204, 8160, 8181, 8159, 8162, 8186, 8450, 8152, 8162, 8297,8.902007579803467
124, 8173, 8181, 8161, 8160, 8219, 8166, 8182, 8153, 8161, 8187, 8449, 8157, 8159, 8292,8.909975051879883
125, 8168, 8181, 8180, 8166, 8228, 8173, 8176, 8168, 8171, 8182, 8453, 8159, 8156, 8284,8.91797137260437
126, 8158, 8170, 8156, 8162, 8196, 8177, 8182, 8175, 8202, 8194, 8475, 8153, 8177, 8298,8.925952434539795
127, 8169, 8184, 8172, 8169, 8230, 8180, 8183, 8182, 8208, 8203, 8479, 8166, 8188, 8305,8.934023380279541
237, 8164, 8182, 8168, 8175, 8231, 8183, 8180, 8173, 8185, 8190, 8472, 8160, 8176, 8284,8.942007541656494
0, 8157, 8184, 8152, 8186, 8223, 8189, 8184, 8168, 8179, 8180, 8482, 8152, 8177, 8280,8.949819326400757
1, 8184, 8210, 8201, 8205, 8257, 8188, 8178, 8172, 8170, 8177, 8478, 8175, 8180, 8296,8.957880973815918
