COUNTER,F3, FC5,AF3,F7,T7,P7,O1,O2,P8,T8,F8,AF4,FC6,F4,Timestamp
44, 8106, 8160, 8146, 8174, 8090, 8145, 8166, 8160, 8101, 8114, 8155, 8166, 8128, 8243,0.006467580795288086
45, 8140, 8192, 8186, 8216, 8116, 8170, 8193, 8184, 8140, 8177, 8193, 8198, 8172, 8279,0.014422178268432617
46, 8163, 8218, 8176, 8233, 8103, 8167, 8132, 8181, 8179, 8219, 8198, 8203, 8216, 8315,0.022383928298950195
47, 8195, 8227, 8203, 8233, 8138, 8161, 8222, 8197, 8172, 8208, 8181, 8189, 8212, 8307,0.03037548065185547
48, 8212, 8211, 8190, 8227, 8094, 8160, 8161, 8194, 8175, 8207, 8174, 8169, 8198, 8280,0.03841233253479004
49, 8220, 8209, 8181, 8213, 8102, 8158, 8147, 8198, 8202, 8215, 8167, 8165, 8200, 8275,0.04644656181335449
50, 8225, 8209, 8209, 8200, 8139, 8152, 8209, 8207, 8198, 8205, 8155, 8171, 8188, 8270,0.05442690849304199
51, 8182, 8170, 8153, 8175, 8085, 8133, 8133, 8168, 8169, 8182, 8146, 8142, 8161, 8244,0.061514854431152344
52, 8157, 8132, 8146, 8142, 8103, 8108, 8167, 8144, 8124, 8136, 8138, 8131, 8128, 8214,0.06961727142333984
53, 8152, 8127, 8150, 8127, 8101, 8093, 8139, 8128, 8093, 8116, 8126, 8138, 8105, 8209,0.07735610008239746
54, 8130, 8131, 8125, 8127, 8101, 8097, 8139, 8133, 8093, 8124, 8120, 8123, 8090, 8200,0.08563590049743652
55, 8123, 8126, 8135, 8123, 8107, 8092, 8176, 8150, 8090, 8115, 8125, 8119, 8078, 8174,0.09362649917602539
56, 8129, 8132, 8128, 8130, 8081, 8076, 8120, 8138, 8081, 8105, 8134, 8136, 8083, 8189,0.10158848762512207
57, 8176, 8168, 8204, 8169, 8169, 8086, 8239, 8161, 8073, 8108, 8154, 8176, 8092, 8225,0.10961771011352539
58, 8199, 8195, 8233, 8210, 8163, 8095, 8199, 8163, 8080, 8126, 8171, 8200, 8120, 8246,0.1175990104675293
59, 8202, 8211, 8219, 8230, 8142, 8098, 8179, 8159, 8089, 8136, 8174, 8203, 8149, 8252,0.12433481216430664
60, 8229, 8222, 8263, 8239, 8164, 8104, 8253, 8169, 8082, 8130, 8175, 8213, 8149, 8264,0.1323833465576172
61, 8200, 8215, 8190, 8249, 8062, 8089, 8065, 8125, 8079, 8136, 8175, 8200, 8157, 8279,0.1405787467956543
62, 8179, 8232, 8133, 8261, 8064, 8076, 8065, 8110, 8075, 8137, 8174, 8187, 8166, 8277,0.1486194133758545
63, 8208, 8260, 8170, 8284, 8116, 8081, 8168, 8126, 8065, 8133, 8179, 8191, 8177, 8287,0.15655040740966797
64, 8223, 8260, 8184, 8289, 8125, 8077, 8177, 8131, 8049, 8136, 8189, 8196, 8194, 8304,0.16461682319641113
65, 8227, 8251, 8208, 8261, 8161, 8062, 8227, 8142, 8033, 8131, 8188, 8195, 8184, 8291,0.17258286476135254
66, 8212, 8247, 8192, 8251, 8120, 8046, 8155, 8128, 8027, 8123, 8174, 8173, 8162, 8270,0.18042993545532227
67, 8199, 8244, 8170, 8259, 8104, 8041, 8132, 8129, 8033, 8124, 8172, 8163, 8160, 8267,0.1886148452758789
68, 8208, 8238, 8171, 8247, 8122, 8039, 8160, 8144, 8053, 8137, 8164, 8175, 8177, 8274,0.19560575485229492
69, 8209, 8226, 8164, 8233, 8117, 8032, 8163, 8140, 8061, 8138, 8142, 8170, 8164, 8270,0.20339417457580566
70, 8203, 8214, 8159, 8223, 8106, 8037, 8155, 8141, 8052, 8120, 8136, 8155, 8130, 8259,0.21167254447937012
71, 8214, 8221, 8151, 8221, 8097, 8064, 8124, 8157, 8071, 8124, 8151, 8161, 8137, 8267,0.21971964836120605
72, 8253, 8243, 8198, 8240, 8155, 8091, 8209, 8179, 8096, 8142, 8166, 8200, 8163, 8293,0.22765254974365234
73, 8269, 8241, 8217, 8251, 8127, 8086, 8154, 8156, 8088, 8142, 8170, 8218, 8175, 8302,0.23566675186157227
74, 8252, 8233, 8180, 8247, 8088, 8077, 8095, 8135, 8077, 8135, 8173, 8203, 8185, 8294,0.2433927059173584
75, 8268, 8249, 8231, 8252, 8167, 8098, 8245, 8171, 8085, 8135, 8179, 8214, 8191, 8294,0.2504615783691406
76, 8249, 8250, 8215, 8261, 8128, 8093, 8156, 8148, 8097, 8139, 8182, 8220, 8200, 8303,0.25842785835266113
77, 8227, 8244, 8194, 8277, 8121, 8076, 8137, 8131, 8088, 8134, 8184, 8222, 8207, 8305,0.26639819145202637
78, 8269, 8260, 8262, 8309, 8166, 8091, 8240, 8168, 8081, 8136, 8192, 8253, 8225, 8321,0.2744104862213135
79, 8281, 8266, 8237, 8315, 8115, 8093, 8149, 8169, 8100, 8152, 8187, 8264, 8239, 8351,0.28241968154907227
80, 8252, 8238, 8187, 8285, 8105, 8080, 8127, 8163, 8097, 8141, 8174, 8246, 8210, 8341,0.2903108596801758
81, 8218, 8202, 8169, 8257, 8104, 8088, 8132, 8159, 8074, 8108, 8168, 8222, 8176, 8301,0.2985396385192871
82, 8208, 8197, 8171, 8238, 8130, 8106, 8186, 8166, 8070, 8089, 8168, 8212, 8160, 8281,0.30656862258911133
83, 8217, 8201, 8172, 8218, 8140, 8108, 8200, 8175, 8082, 8098, 8169, 8210, 8156, 8290,0.3146071434020996
84, 8213, 8188, 8149, 8199, 8114, 8108, 8142, 8168, 8095, 8116, 8168, 8197, 8167, 8303,0.32158637046813965
85, 8230, 8190, 8185, 8199, 8155, 8123, 8207, 8178, 8105, 8127, 8171, 8198, 8176, 8306,0.32944178581237793
86, 8236, 8202, 8172, 8215, 8131, 8118, 8136, 8157, 8117, 8147, 8169, 8197, 8188, 8316,0.3375523090362549
87, 8243, 8212, 8160, 8225, 8132, 8118, 8147, 8143, 8115, 8145, 8167, 8192, 8189, 8324,0.34559130668640137
88, 8264, 8217, 8205, 8222, 8147, 8131, 8209, 8138, 8110, 8138, 8174, 8198, 8189, 8327,0.3536102771759033
89, 8244, 8218, 8170, 8211, 8119, 8140, 8124, 8112, 8124, 8159, 8172, 8187, 8205, 8333,0.3615224361419678
90, 8253, 8225, 8201, 8195, 8210, 8158, 8241, 8149, 8124, 8145, 8175, 8194, 8204, 8331,0.3694939613342285
91, 8272, 8216, 8232, 8186, 8206, 8165, 8233, 8179, 8122, 8130, 8178, 8203, 8194, 8331,0.37756919860839844
92, 8236, 8191, 8163, 8172, 8138, 8158, 8124, 8164, 8138, 8150, 8162, 8180, 8187, 8326,0.3845045566558838
93, 8208, 8177, 8144, 8141, 8171, 8149, 8168, 8164, 8136, 8153, 8147, 8169, 8165, 8310,0.3922913074493408
94, 8191, 8166, 8134, 8127, 8172, 8138, 8149, 8151, 8115, 8128, 8144, 8160, 8140, 8291,0.40041232109069824
95, 8184, 8152, 8147, 8128, 8172, 8148, 8187, 8147, 8097, 8106, 8137, 8148, 8114, 8271,0.40848255157470703
96, 8175, 8138, 8138, 8119, 8125, 8158, 8140, 8134, 8101, 8102, 8131, 8138, 8111, 8266,0.4163320064544678
97, 8151, 8130, 8098, 8115, 8111, 8143, 8098, 8125, 8117, 8108, 8144, 8134, 8126, 8268,0.4244394302368164
98, 8148, 8134, 8123, 8113, 8151, 8145, 8161, 8157, 8130, 8122, 8159, 8146, 8129, 8258,0.432356595993042
99, 8148, 8137, 8127, 8110, 8117, 8173, 8125, 8185, 8160, 8137, 8157, 8149, 8135, 8261,0.4402506351470947
100, 8165, 8143, 8157, 8117, 8174, 8192, 8221, 8213, 8191, 8134, 8158, 8157, 8135, 8265,0.44745564460754395
101, 8176, 8149, 8174, 8127, 8188, 8187, 8213, 8192, 8201, 8146, 8160, 8164, 8126, 8263,0.4554104804992676
102, 8160, 8151, 8133, 8128, 8125, 8185, 8115, 8144, 8192, 8158, 8157, 8150, 8128, 8267,0.46349573135375977
103, 8172, 8165, 8167, 8140, 8168, 8187, 8210, 8153, 8176, 8133, 8157, 8160, 8132, 8269,0.4714622497558594
104, 8180, 8181, 8179, 8166, 8175, 8171, 8178, 8154, 8170, 8123, 8161, 8171, 8133, 8275,0.47954511642456055
105, 8181, 8187, 8171, 8169, 8182, 8165, 8153, 8146, 8148, 8132, 8166, 8168, 8137, 8289,0.487520694732666
106, 8183, 8181, 8172, 8162, 8187, 8175, 8172, 8140, 8119, 8117, 8161, 8165, 8146, 8293,0.495434045791626
107, 8168, 8179, 8150, 8167, 8178, 8169, 8165, 8143, 8123, 8112, 8161, 8161, 8144, 8281,0.5034575462341309
108, 8165, 8180, 8168, 8167, 8185, 8170, 8183, 8174, 8136, 8131, 8169, 8162, 8135, 8269,0.5113563537597656
109, 8153, 8166, 8152, 8151, 8130, 8183, 8104, 8173, 8148, 8135, 8163, 8154, 8139, 8267,0.518420934677124
110, 8148, 8159, 8156, 8134, 8159, 8191, 8172, 8179, 8161, 8117, 8162, 8153, 8136, 8258,0.5262930393218994
111, 8142, 8151, 8158, 8121, 8169, 8176, 8178, 8179, 8167, 8115, 8168, 8149, 8124, 8245,0.5345611572265625
112, 8117, 8134, 8118, 8111, 8138, 8157, 8121, 8158, 8152, 8123, 8152, 8128, 8119, 8230,0.5423569679260254
113, 8139, 8136, 8190, 8106, 8221, 8168, 8291, 8185, 8132, 8107, 8142, 8135, 8097, 8204,0.5504534244537354
114, 8155, 8136, 8206, 8114, 8182, 8176, 8209, 8178, 8143, 8109, 8160, 8143, 8100, 8206,0.5583465099334717
115, 8144, 8136, 8137, 8121, 8125, 8162, 8078, 8143, 8157, 8131, 8174, 8140, 8132, 8240,0.5664107799530029
116, 8168, 8155, 8170, 8132, 8182, 8163, 8174, 8153, 8150, 8136, 8182, 8155, 8140, 8263,0.5744409561157227
117, 8189, 8177, 8197, 8157, 8190, 8179, 8181, 8163, 8152, 8146, 8186, 8162, 8144, 8272,0.581350564956665
118, 8183, 8180, 8171, 8165, 8165, 8185, 8149, 8158, 8161, 8164, 8179, 8166, 8156, 8283,0.5895609855651855
119, 8170, 8168, 8140, 8161, 8124, 8171, 8110, 8148, 8171, 8167, 8172, 8176, 8168, 8299,0.597559928894043
120, 8181, 8179, 8177, 8171, 8180, 8170, 8198, 8174, 8175, 8154, 8172, 8187, 8163, 8299,0.605513334274292
121, 8193, 8186, 8193, 8176, 8228, 8173, 8196, 8179, 8173, 8152, 8174, 8183, 8157, 8294,0.6135311126708984
122, 8166, 8164, 8127, 8169, 8212, 8166, 8101, 8147, 8174, 8163, 8168, 8166, 8166, 8296,0.6214301586151123
123, 8172, 8160, 8180, 8166, 8257, 8167, 8255, 8176, 8167, 8155, 8168, 8180, 8162, 8289,0.6294400691986084
124, 8173, 8172, 8187, 8168, 8163, 8163, 8187, 8176, 8173, 8161, 8169, 8183, 8160, 8288,0.6375820636749268
125, 8146, 8173, 8121, 8169, 8125, 8161, 8106, 8152, 8179, 8168, 8162, 8160, 8158, 8283,0.6454348564147949
126, 8162, 8174, 8185, 8169, 8236, 8170, 8256, 8179, 8155, 8145, 8164, 8167, 8148, 8269,0.6524050235748291
127, 8157, 8167, 8186, 8162, 8184, 8160, 8171, 8165, 8147, 8142, 8170, 8169, 8156, 8271,0.6605095863342285
238, 8145, 8167, 8137, 8159, 8129, 8158, 8101, 8145, 8158, 8158, 8171, 8158, 8166, 8286,0.668440580368042
0, 8168, 8178, 8156, 8162, 8163, 8168, 8152, 8154, 8162, 8159, 8171, 8161, 8168, 8297,0.676471471786499
1, 8176, 8176, 8176, 8163, 8186, 8169, 8184, 8160, 8160, 8161, 8173, 8168, 8170, 8296,0.6845228672027588
2, 8169, 8168, 8172, 8163, 8178, 8170, 8175, 8155, 8154, 8157, 8172, 8175, 8166, 8291,0.6925709247589111
3, 8170, 8169, 8144, 8158, 8148, 8169, 8120, 8140, 8151, 8137, 8170, 8169, 8164, 8297,0.7006394863128662
4, 8188, 8182, 8179, 8156, 8201, 8181, 8205, 8160, 8155, 8136, 8176, 8171, 8168, 8298,0.7073194980621338
5, 8172, 8185, 8185, 8167, 8195, 8191, 8176, 8161, 8158, 8154, 8167, 8172, 8167, 8279,0.7155029773712158
6, 8141, 8167, 8143, 8168, 8173, 8181, 8144, 8143, 8141, 8135, 8151, 8157, 8142, 8264,0.723585844039917
7, 8150, 8155, 8169, 8151, 8208, 8170, 8231, 8161, 8130, 8108, 8154, 8155, 8113, 8254,0.7313430309295654
8, 8127, 8149, 8134, 8141, 8161, 8161, 8123, 8152, 8151, 8126, 8157, 8145, 8119, 8242,0.7396116256713867
9, 8126, 8154, 8147, 8151, 8204, 8164, 8182, 8160, 8153, 8132, 8160, 8151, 8130, 8242,0.7474474906921387
10, 8176, 8168, 8222, 8171, 8225, 8168, 8246, 8168, 8137, 8130, 8169, 8173, 8129, 8264,0.7555952072143555
11, 8188, 8185, 8191, 8190, 8157, 8167, 8121, 8153, 8160, 8159, 8172, 8177, 8147, 8290,0.7636244297027588
12, 8188, 8200, 8179, 8195, 8187, 8184, 8149, 8170, 8189, 8176, 8174, 8191, 8175, 8300,0.7712950706481934
13, 8182, 8193, 8172, 8193, 8185, 8191, 8135, 8165, 8179, 8172, 8173, 8188, 8183, 8306,0.7794787883758545
14, 8188, 8190, 8176, 8192, 8205, 8178, 8187, 8163, 8151, 8153, 8165, 8172, 8157, 8296,0.7864768505096436
15, 8205, 8195, 8203, 8188, 8250, 8176, 8224, 8187, 8150, 8153, 8171, 8182, 8149, 8285,0.7942101955413818
16, 8178, 8179, 8164, 8176, 8262, 8186, 8117, 8189, 8170, 8174, 8186, 8175, 8170, 8284,0.8025074005126953
17, 8148, 8157, 8140, 8161, 8299, 8183, 8123, 8179, 8161, 8158, 8181, 8143, 8158, 8266,0.8104574680328369
18, 8143, 8158, 8128, 8158, 8287, 8174, 8127, 8168, 8150, 8146, 8170, 8137, 8148, 8258,0.8183012008666992
19, 8153, 8181, 8160, 8173, 8333, 8188, 8209, 8184, 8163, 8170, 8178, 8166, 8160, 8267,0.8264963626861572
20, 8144, 8178, 8185, 8181, 8342, 8198, 8204, 8174, 8172, 8179, 8182, 8170, 8163, 8257,0.8343625068664551
21, 8124, 8167, 8136, 8179, 8272, 8184, 8099, 8135, 8173, 8168, 8168, 8152, 8163, 8245,0.8425760269165039
22, 8171, 8188, 8190, 8185, 8324, 8178, 8241, 8161, 8159, 8163, 8179, 8177, 8162, 8261,0.8494095802307129
23, 8201, 8203, 8230, 8205, 8311, 8168, 8221, 8166, 8144, 8165, 8200, 8193, 8173, 8286,0.8572704792022705
24, 8189, 8213, 8177, 8224, 8249, 8155, 8080, 8137, 8145, 8171, 8198, 8183, 8206, 8307,0.8655416965484619
25, 8203, 8217, 8162, 8222, 8259, 8161, 8102, 8139, 8151, 8179, 8185, 8191, 8215, 8329,0.8734557628631592
26, 8189, 8192, 8146, 8201, 8271, 8172, 8163, 8150, 8142, 8149, 8165, 8179, 8173, 8315,0.8813271522521973
27, 8172, 8175, 8172, 8181, 8302, 8187, 8243, 8166, 8125, 8110, 8156, 8157, 8125, 8248,0.8895089626312256
28, 8169, 8182, 8171, 8191, 8258, 8188, 8135, 8147, 8129, 8121, 8158, 8156, 8123, 8220,0.897458553314209
29, 8174, 8186, 8166, 8212, 8255, 8188, 8151, 8146, 8138, 8139, 8168, 8174, 8137, 8262,0.9052891731262207
30, 8191, 8183, 8204, 8216, 8250, 8195, 8232, 8170, 8138, 8139, 8175, 8192, 8147, 8300,0.9123339653015137
31, 8175, 8192, 8159, 8228, 8150, 8186, 8096, 8151, 8153, 8160, 8179, 8184, 8177, 8300,0.9205846786499023
32, 8175, 8211, 8165, 8251, 8198, 8187, 8170, 8166, 8168, 8176, 8195, 8195, 8194, 8281,0.9284369945526123
33, 8181, 8205, 8185, 8255, 8216, 8191, 8192, 8179, 8172, 8181, 8199, 8213, 8195, 8280,0.936586856842041
34, 8174, 8203, 8155, 8260, 8176, 8182, 8121, 8164, 8175, 8189, 8187, 8198, 8206, 8302,0.9445724487304688
35, 8207, 8221, 8201, 8266, 8227, 8174, 8224, 8171, 8173, 8190, 8185, 8196, 8211, 8324,0.9525048732757568
36, 8212, 8220, 8197, 8251, 8203, 8168, 8191, 8160, 8179, 8194, 8188, 8201, 8213, 8326,0.9604177474975586
37, 8179, 8208, 8155, 8234, 8170, 8166, 8139, 8157, 8173, 8181, 8175, 8184, 8202, 8300,0.9684107303619385
38, 8173, 8199, 8143, 8233, 8154, 8164, 8112, 8154, 8162, 8162, 8160, 8157, 8187, 8284,0.9756083488464355
39, 8191, 8197, 8152, 8226, 8180, 8167, 8161, 8152, 8163, 8165, 8162, 8151, 8180, 8293,0.9834392070770264
40, 8199, 8199, 8195, 8215, 8225, 8175, 8248, 8172, 8152, 8164, 8171, 8166, 8176, 8291,0.9913711547851562
41, 8165, 8187, 8159, 8207, 8158, 8168, 8143, 8155, 8147, 8157, 8170, 8160, 8181, 8273,0.9993653297424316
42, 8143, 8175, 8131, 8194, 8148, 8152, 8147, 8135, 8145, 8148, 8163, 8150, 8161, 8258,1.0074548721313477
43, 8145, 8172, 8140, 8192, 8149, 8150, 8137, 8132, 8147, 8153, 8169, 8152, 8144, 8261,1.0154063701629639
44, 8142, 8177, 8136, 8197, 8147, 8154, 8117, 8141, 8161, 8161, 8183, 8147, 8158, 8267,1.0235157012939453
45, 8162, 8181, 8185, 8198, 8205, 8158, 8233, 8165, 8159, 8160, 8189, 8164, 8165, 8266,1.0314152240753174
46, 8151, 8172, 8159, 8193, 8154, 8158, 8132, 8146, 8157, 8166, 8181, 8167, 8164, 8267,1.0385205745697021
47, 8142, 8178, 8148, 8191, 8168, 8151, 8139, 8139, 8157, 8145, 8176, 8146, 8150, 8251,1.046675443649292
48, 8156, 8179, 8186, 8189, 8205, 8146, 8216, 8143, 8150, 8120, 8175, 8142, 8134, 8228,1.0545635223388672
49, 8130, 8148, 8146, 8169, 8166, 8152, 8140, 8127, 8144, 8133, 8166, 8145, 8141, 8230,1.0623888969421387
50, 8132, 8146, 8149, 8155, 8187, 8152, 8157, 8142, 8137, 8142, 8165, 8154, 8150, 8254,1.0705647468566895
51, 8162, 8162, 8158, 8170, 8172, 8125, 8132, 8148, 8143, 8135, 8168, 8155, 8160, 8274,1.078416347503662
52, 8171, 8159, 8167, 8189, 8178, 8116, 8172, 8160, 8154, 8146, 8171, 8161, 8167, 8268,1.0863807201385498
53, 8154, 8155, 8164, 8187, 8168, 8131, 8156, 8174, 8159, 8172, 8180, 8166, 8177, 8260,1.094402551651001
54, 8139, 8165, 8137, 8176, 8161, 8139, 8129, 8173, 8161, 8165, 8178, 8157, 8185, 8274,1.102787971496582
55, 8169, 8176, 8217, 8167, 8250, 8152, 8305, 8194, 8151, 8131, 8161, 8159, 8156, 8271,1.1095201969146729
56, 8163, 8162, 8211, 8173, 8182, 8152, 8184, 8164, 8157, 8150, 8158, 8151, 8148, 8252,1.1175572872161865
57, 8134, 8157, 8129, 8191, 8112, 8148, 8060, 8135, 8183, 8198, 8175, 8158, 8192, 8260,1.1254026889801025
58, 8150, 8177, 8149, 8197, 8135, 8162, 8153, 8154, 8191, 8192, 8170, 8181, 8210, 8284,1.1336338520050049
59, 8151, 8191, 8154, 8195, 8108, 8170, 8135, 8157, 8188, 8179, 8146, 8168, 8194, 8297,1.14139723777771
60, 8148, 8188, 8166, 8194, 8138, 8172, 8189, 8173, 8189, 8193, 8152, 8158, 8188, 8284,1.1496787071228027
61, 8144, 8174, 8171, 8193, 8142, 8167, 8179, 8177, 8203, 8198, 8162, 8166, 8204, 8268,1.1574633121490479
62, 8121, 8162, 8138, 8189, 8117, 8144, 8124, 8156, 8190, 8185, 8146, 8158, 8197, 8261,1.1655480861663818
63, 8122, 8158, 8139, 8182, 8125, 8137, 8147, 8145, 8153, 8172, 8138, 8155, 8167, 8265,1.17228364944458
64, 8138, 8167, 8150, 8181, 8132, 8157, 8158, 8155, 8175, 8188, 8150, 8164, 8175, 8283,1.1805381774902344
65, 8158, 8176, 8179, 8187, 8154, 8173, 8196, 8180, 8218, 8204, 8157, 8179, 8200, 8284,1.1884489059448242
66, 8162, 8174, 8170, 8201, 8123, 8160, 8128, 8155, 8193, 8192, 8152, 8176, 8190, 8266,1.1965022087097168
67, 8161, 8170, 8163, 8197, 8144, 8157, 8167, 8135, 8152, 8166, 8153, 8157, 8159, 8249,1.2045207023620605
68, 8161, 8155, 8182, 8163, 8159, 8175, 8223, 8171, 8170, 8156, 8157, 8155, 8154, 8256,1.2124662399291992
69, 8140, 8148, 8132, 8167, 8084, 8175, 8098, 8172, 8202, 8179, 8156, 8158, 8173, 8283,1.2203855514526367
70, 8160, 8174, 8175, 8205, 8160, 8159, 8212, 8171, 8185, 8180, 8163, 8179, 8172, 8286,1.2286126613616943
71, 8169, 8183, 8216, 8209, 8183, 8138, 8233, 8163, 8155, 8146, 8172, 8189, 8167, 8276,1.2364602088928223
72, 8138, 8166, 8141, 8189, 8105, 8135, 8099, 8139, 8141, 8134, 8164, 8159, 8163, 8268,1.2436234951019287
73, 8145, 8159, 8149, 8177, 8134, 8146, 8171, 8145, 8137, 8152, 8149, 8150, 8149, 8253,1.2514052391052246
74, 8150, 8158, 8169, 8176, 8129, 8137, 8176, 8150, 8151, 8163, 8161, 8160, 8166, 8258,1.2594566345214844
75, 8158, 8173, 8176, 8194, 8124, 8142, 8176, 8164, 8167, 8164, 8197, 8171, 8198, 8287,1.2673842906951904
76, 8177, 8187, 8175, 8219, 8121, 8162, 8151, 8162, 8184, 8180, 8199, 8177, 8209, 8303,1.2755696773529053
77, 8171, 8184, 8151, 8222, 8124, 8161, 8128, 8154, 8198, 8194, 8177, 8166, 8211, 8288,1.283381700515747
78, 8168, 8180, 8171, 8218, 8145, 8145, 8172, 8161, 8179, 8174, 8181, 8161, 8202, 8264,1.2915964126586914
79, 8165, 8183, 8169, 8224, 8107, 8123, 8108, 8130, 8157, 8153, 8199, 8164, 8190, 8260,1.2994158267974854
80, 8197, 8209, 8215, 8236, 8156, 8117, 8188, 8121, 8143, 8164, 8202, 8192, 8188, 8280,1.3064754009246826
81, 8235, 8228, 8236, 8260, 8153, 8123, 8190, 8125, 8129, 8189, 8191, 8215, 8209, 8304,1.314387321472168
82, 8206, 8206, 8164, 8259, 8105, 8129, 8114, 8118, 8143, 8182, 8182, 8196, 8224, 8301,1.3223495483398438
83, 8207, 8193, 8203, 8229, 8183, 8137, 8247, 8150, 8156, 8159, 8181, 8200, 8213, 8295,1.3304097652435303
84, 8233, 8201, 8225, 8228, 8151, 8131, 8172, 8149, 8156, 8182, 8185, 8219, 8222, 8332,1.338428020477295
85, 8233, 8211, 8194, 8253, 8115, 8129, 8123, 8159, 8175, 8215, 8194, 8220, 8241, 8355,1.3463993072509766
86, 8229, 8223, 8207, 8257, 8146, 8142, 8191, 8196, 8201, 8219, 8195, 8215, 8242, 8331,1.3543057441711426
87, 8217, 8231, 8184, 8257, 8129, 8138, 8149, 8181, 8205, 8219, 8193, 8209, 8243, 8337,1.3625049591064453
88, 8226, 8228, 8195, 8262, 8154, 8138, 8201, 8172, 8188, 8198, 8195, 8215, 8235, 8362,1.3705565929412842
89, 8223, 8207, 8190, 8237, 8136, 8150, 8165, 8162, 8181, 8186, 8184, 8209, 8222, 8354,1.377399206161499
90, 8204, 8205, 8164, 8220, 8137, 8151, 8130, 8150, 8179, 8198, 8182, 8202, 8223, 8334,1.385636329650879
91, 8191, 8213, 8167, 8238, 8179, 8151, 8164, 8149, 8181, 8186, 8186, 8194, 8212, 8317,1.3934378623962402
92, 8170, 8196, 8145, 8231, 8181, 8144, 8169, 8142, 8181, 8153, 8161, 8158, 8175, 8284,1.4015696048736572
93, 8191, 8187, 8184, 8207, 8199, 8132, 8225, 8155, 8158, 8148, 8157, 8162, 8163, 8268,1.4094560146331787
94, 8208, 8198, 8187, 8221, 8154, 8137, 8125, 8149, 8161, 8196, 8190, 8201, 8220, 8308,1.417463779449463
95, 8212, 8211, 8193, 8234, 8208, 8150, 8206, 8160, 8168, 8201, 8189, 8219, 8235, 8325,1.425321102142334
96, 8242, 8214, 8259, 8221, 8269, 8129, 8333, 8189, 8152, 8176, 8175, 8220, 8200, 8298,1.4334301948547363
97, 8221, 8214, 8192, 8232, 8149, 8102, 8101, 8166, 8160, 8201, 8180, 8196, 8221, 8307,1.440359354019165
98, 8181, 8212, 8139, 8230, 8157, 8125, 8095, 8154, 8170, 8196, 8178, 8174, 8230, 8323,1.448436975479126
99, 8176, 8188, 8170, 8182, 8229, 8140, 8221, 8164, 8171, 8163, 8168, 8164, 8198, 8303,1.4564497470855713
100, 8182, 8171, 8175, 8162, 8224, 8127, 8198, 8169, 8171, 8178, 8169, 8159, 8186, 8289,1.4644896984100342
101, 8188, 8181, 8177, 8190, 8216, 8134, 8154, 8170, 8174, 8213, 8184, 8169, 8203, 8308,1.472564697265625
102, 8165, 8177, 8136, 8192, 8188, 8151, 8095, 8154, 8195, 8222, 8189, 8172, 8220, 8326,1.4805359840393066
103, 8146, 8152, 8128, 8159, 8212, 8167, 8166, 8161, 8206, 8213, 8173, 8161, 8200, 8302,1.4884262084960938
104, 8145, 8150, 8133, 8154, 8208, 8183, 8153, 8169, 8207, 8216, 8162, 8150, 8180, 8274,1.4964470863342285
105, 8143, 8169, 8134, 8164, 8229, 8195, 8172, 8187, 8219, 8218, 8172, 8150, 8190, 8281,1.5035529136657715
106, 8151, 8164, 8173, 8153, 8252, 8195, 8243, 8212, 8226, 8222, 8181, 8159, 8198, 8296,1.511596918106079
107, 8138, 8145, 8140, 8150, 8173, 8180, 8119, 8176, 8217, 8222, 8169, 8152, 8197, 8300,1.5195164680480957
108, 8142, 8153, 8162, 8143, 8243, 8189, 8220, 8175, 8208, 8208, 8171, 8155, 8179, 8285,1.527613878250122
109, 8148, 8144, 8197, 8114, 8275, 8203, 8268, 8199, 8211, 8206, 8185, 8157, 8162, 8266,1.5355093479156494
110, 8119, 8120, 8125, 8109, 8173, 8190, 8106, 8182, 8223, 8215, 8184, 8137, 8175, 8260,1.5435099601745605
111, 8122, 8130, 8126, 8125, 8186, 8185, 8128, 8177, 8225, 8203, 8175, 8142, 8184, 8269,1.551563024520874
112, 8123, 8140, 8148, 8116, 8206, 8183, 8148, 8168, 8222, 8201, 8168, 8150, 8173, 8267,1.5596072673797607
113, 8128, 8146, 8162, 8115, 8219, 8186, 8190, 8165, 8209, 8200, 8167, 8151, 8157, 8251,1.5663528442382812
114, 8147, 8156, 8174, 8130, 8197, 8188, 8173, 8152, 8192, 8177, 8161, 8158, 8147, 8259,1.5746030807495117
115, 8131, 8145, 8142, 8115, 8171, 8183, 8126, 8127, 8178, 8157, 8155, 8145, 8134, 8270,1.5825507640838623
116, 8132, 8136, 8157, 8104, 8210, 8191, 8194, 8142, 8166, 8150, 8162, 8143, 8131, 8265,1.5905365943908691
117, 8143, 8140, 8152, 8130, 8188, 8191, 8145, 8149, 8180, 8165, 8167, 8157, 8157, 8278,1.598602294921875
118, 8156, 8144, 8162, 8134, 8191, 8189, 8193, 8171, 8197, 8176, 8166, 8174, 8167, 8292,1.6066811084747314
119, 8165, 8137, 8179, 8118, 8157, 8195, 8187, 8186, 8204, 8184, 8175, 8178, 8164, 8294,1.6144905090332031
120, 8153, 8134, 8144, 8130, 8119, 8195, 8097, 8180, 8224, 8203, 8182, 8163, 8180, 8301,1.6226439476013184
121, 8175, 8147, 8197, 8143, 8217, 8197, 8247, 8210, 8240, 8196, 8181, 8170, 8189, 8302,1.6305429935455322
122, 8175, 8151, 8199, 8143, 8199, 8203, 8215, 8208, 8250, 8197, 8181, 8176, 8198, 8299,1.637728214263916
123, 8144, 8154, 8148, 8148, 8157, 8206, 8126, 8188, 8256, 8217, 8181, 8163, 8200, 8294,1.645385980606079
124, 8149, 8154, 8163, 8149, 8169, 8186, 8145, 8182, 8243, 8208, 8179, 8153, 8179, 8275,1.6534533500671387
125, 8168, 8149, 8156, 8146, 8147, 8166, 8125, 8162, 8217, 8172, 8179, 8149, 8160, 8267,1.6615469455718994
126, 8195, 8155, 8184, 8147, 8195, 8182, 8211, 8168, 8200, 8159, 8176, 8165, 8156, 8274,1.6696009635925293
127, 8170, 8146, 8174, 8139, 8177, 8188, 8173, 8158, 8203, 8174, 8158, 8152, 8154, 8272,1.6775586605072021
238, 8111, 8121, 8125, 8122, 8147, 8169, 8138, 8136, 8199, 8164, 8150, 8127, 8139, 8253,1.6855723857879639
0, 8110, 8117, 8131, 8121, 8151, 8163, 8147, 8136, 8184, 8144, 8161, 8143, 8140, 8252,1.6935222148895264
1, 8136, 8142, 8137, 8132, 8134, 8167, 8103, 8138, 8191, 8164, 8167, 8163, 8164, 8288,1.7005915641784668
2, 8162, 8158, 8192, 8132, 8201, 8165, 8238, 8161, 8189, 8170, 8166, 8173, 8159, 8297,1.708444356918335
3, 8150, 8134, 8181, 8125, 8179, 8157, 8192, 8158, 8185, 8148, 8162, 8165, 8159, 8278,1.716585636138916
4, 8138, 8132, 8141, 8127, 8149, 8163, 8126, 8164, 8211, 8164, 8164, 8155, 8182, 8286,1.7244341373443604
5, 8171, 8163, 8201, 8152, 8191, 8173, 8211, 8196, 8227, 8198, 8163, 8174, 8182, 8305,1.7326040267944336
6, 8169, 8166, 8184, 8174, 8150, 8160, 8123, 8180, 8224, 8195, 8155, 8177, 8181, 8313,1.7404437065124512
7, 8170, 8158, 8168, 8170, 8158, 8155, 8144, 8180, 8223, 8179, 8159, 8165, 8185, 8314,1.748598575592041
8, 8192, 8156, 8190, 8158, 8164, 8163, 8179, 8185, 8223, 8183, 8162, 8165, 8173, 8311,1.7565155029296875
9, 8189, 8144, 8166, 8155, 8143, 8160, 8132, 8157, 8211, 8183, 8149, 8161, 8164, 8296,1.764439344406128
10, 8179, 8137, 8163, 8154, 8164, 8150, 8161, 8149, 8202, 8167, 8149, 8153, 8163, 8280,1.771366834640503
11, 8156, 8138, 8152, 8151, 8174, 8145, 8169, 8145, 8205, 8158, 8156, 8141, 8153, 8271,1.779608964920044
12, 8160, 8148, 8174, 8150, 8206, 8155, 8225, 8148, 8192, 8148, 8148, 8148, 8142, 8266,1.7874248027801514
13, 8183, 8165, 8173, 8167, 8143, 8164, 8133, 8137, 8183, 8152, 8149, 8162, 8150, 8277,1.7955431938171387
14, 8193, 8179, 8160, 8185, 8136, 8159, 8125, 8140, 8193, 8171, 8156, 8169, 8159, 8289,1.8034451007843018
15, 8209, 8177, 8225, 8173, 8236, 8158, 8280, 8170, 8186, 8174, 8153, 8185, 8159, 8285,1.8116023540496826
16, 8169, 8156, 8178, 8158, 8179, 8159, 8133, 8150, 8183, 8175, 8153, 8172, 8164, 8275,1.8195157051086426
17, 8134, 8153, 8136, 8161, 8183, 8171, 8118, 8156, 8195, 8177, 8168, 8154, 8161, 8267,1.8275790214538574
18, 8162, 8154, 8188, 8158, 8235, 8172, 8222, 8187, 8203, 8170, 8168, 8158, 8152, 8273,1.8344008922576904
19, 8144, 8126, 8149, 8124, 8173, 8156, 8139, 8173, 8197, 8147, 8145, 8139, 8128, 8258,1.842458724975586
20, 8098, 8101, 8116, 8090, 8172, 8160, 8137, 8168, 8187, 8127, 8143, 8118, 8098, 8228,1.85054612159729
21, 8085, 8111, 8125, 8102, 8192, 8165, 8142, 8170, 8205, 8137, 8156, 8118, 8114, 8229,1.858623743057251
22, 8108, 8142, 8157, 8138, 8207, 8156, 8182, 8183, 8222, 8143, 8160, 8132, 8134, 8236,1.8664352893829346
23, 8129, 8153, 8168, 8159, 8179, 8144, 8138, 8183, 8213, 8152, 8166, 8145, 8129, 8240,1.8745920658111572
24, 8137, 8146, 8148, 8155, 8159, 8128, 8098, 8160, 8195, 8168, 8174, 8151, 8144, 8260,1.8825011253356934
25, 8169, 8152, 8193, 8150, 8205, 8120, 8210, 8160, 8175, 8152, 8170, 8163, 8151, 8270,1.8903264999389648
26, 8170, 8160, 8174, 8177, 8148, 8126, 8113, 8144, 8171, 8147, 8166, 8168, 8152, 8270,1.8975505828857422
27, 8166, 8166, 8176, 8191, 8180, 8151, 8158, 8145, 8172, 8164, 8175, 8175, 8158, 8272,1.9055664539337158
28, 8170, 8157, 8225, 8167, 8239, 8166, 8260, 8152, 8164, 8156, 8184, 8177, 8154, 8260,1.9135618209838867
29, 8140, 8152, 8167, 8171, 8169, 8150, 8116, 8112, 8167, 8155, 8180, 8160, 8155, 8254,1.9216022491455078
30, 8160, 8170, 8181, 8206, 8199, 8150, 8152, 8117, 8162, 8165, 8186, 8174, 8162, 8271,1.929520845413208
31, 8198, 8175, 8209, 8198, 8213, 8162, 8170, 8131, 8155, 8173, 8199, 8190, 8191, 8307,1.9375996589660645
32, 8188, 8164, 8173, 8166, 8205, 8164, 8157, 8132, 8154, 8165, 8187, 8175, 8200, 8311,1.945537805557251
33, 8162, 8152, 8165, 8160, 8203, 8161, 8174, 8140, 8138, 8154, 8175, 8151, 8154, 8262,1.953568458557129
34, 8124, 8131, 8135, 8149, 8155, 8156, 8112, 8133, 8131, 8150, 8168, 8123, 8119, 8229,1.9616529941558838
35, 8116, 8116, 8147, 8125, 8188, 8156, 8198, 8156, 8146, 8130, 8154, 8126, 8112, 8222,1.9695777893066406
36, 8107, 8106, 8144, 8121, 8185, 8145, 8185, 8165, 8165, 8123, 8144, 8133, 8116, 8218,1.97652006149292
37, 8094, 8104, 8133, 8125, 8194, 8143, 8161, 8174, 8172, 8143, 8158, 8126, 8125, 8223,1.9846670627593994
38, 8121, 8114, 8167, 8120, 8207, 8149, 8175, 8193, 8184, 8159, 8180, 8134, 8140, 8246,1.9923391342163086
39, 8137, 8134, 8146, 8132, 8155, 8142, 8100, 8185, 8206, 8164, 8178, 8144, 8160, 8266,2.000598430633545
40, 8149, 8155, 8191, 8156, 8228, 8151, 8227, 8198, 8197, 8157, 8172, 8154, 8146, 8247,2.0083725452423096
41, 8142, 8144, 8214, 8157, 8227, 8162, 8215, 8175, 8175, 8149, 8166, 8143, 8121, 8222,2.015202045440674
42, 8126, 8137, 8154, 8146, 8159, 8151, 8110, 8137, 8173, 8144, 8168, 8136, 8135, 8240,2.023634433746338
43, 8157, 8160, 8171, 8159, 8199, 8138, 8179, 8151, 8181, 8152, 8179, 8170, 8169, 8279,2.031581401824951
44, 8169, 8165, 8176, 8178, 8197, 8145, 8153, 8149, 8189, 8177, 8185, 8180, 8188, 8301,2.0394997596740723
45, 8177, 8169, 8183, 8182, 8196, 8160, 8172, 8147, 8181, 8191, 8191, 8176, 8194, 8307,2.047574043273926
46, 8204, 8190, 8202, 8199, 8178, 8148, 8164, 8149, 8176, 8199, 8197, 8198, 8225, 8323,2.055555820465088
47, 8204, 8197, 8187, 8219, 8166, 8132, 8131, 8142, 8178, 8206, 8195, 8204, 8242, 8338,2.0635461807250977
48, 8184, 8178, 8181, 8203, 8189, 8142, 8168, 8145, 8175, 8200, 8191, 8181, 8221, 8328,2.071470260620117
49, 8158, 8149, 8139, 8168, 8165, 8150, 8142, 8159, 8187, 8201, 8181, 8161, 8220, 8314,2.0795421600341797
50, 8167, 8149, 8167, 8158, 8206, 8153, 8233, 8199, 8201, 8207, 8175, 8167, 8220, 8303,2.087489128112793
51, 8161, 8152, 8187, 8165, 8196, 8152, 8173, 8188, 8198, 8191, 8173, 8161, 8195, 8284,2.094526529312134
52, 8126, 8134, 8140, 8155, 8184, 8155, 8110, 8169, 8193, 8161, 8167, 8142, 8168, 8263,2.1023175716400146
53, 8154, 8141, 8208, 8144, 8273, 8162, 8294, 8216, 8187, 8156, 8165, 8165, 8164, 8256,2.110442876815796
54, 8172, 8154, 8214, 8161, 8205, 8153, 8189, 8201, 8190, 8187, 8178, 8175, 8186, 8280,2.1182985305786133
55, 8150, 8140, 8139, 8169, 8133, 8142, 8063, 8156, 8193, 8183, 8185, 8155, 8183, 8289,2.1263949871063232
56, 8148, 8123, 8142, 8141, 8169, 8141, 8138, 8167, 8182, 8143, 8164, 8147, 8150, 8270,2.1344261169433594
57, 8144, 8137, 8156, 8126, 8190, 8143, 8172, 8185, 8185, 8139, 8150, 8144, 8136, 8259,2.142406463623047
58, 8139, 8144, 8172, 8135, 8202, 8151, 8193, 8195, 8192, 8151, 8163, 8152, 8137, 8255,2.150512456893921
59, 8126, 8122, 8155, 8132, 8165, 8139, 8127, 8183, 8189, 8148, 8166, 8146, 8133, 8238,2.1584012508392334
60, 8138, 8144, 8176, 8145, 8194, 8120, 8181, 8168, 8171, 8139, 8160, 8138, 8125, 8220,2.1655189990997314
61, 8174, 8181, 8200, 8174, 8185, 8119, 8174, 8139, 8144, 8137, 8173, 8162, 8137, 8244,2.1734938621520996
62, 8173, 8168, 8159, 8176, 8124, 8117, 8081, 8110, 8129, 8137, 8188, 8179, 8168, 8278,2.181394100189209
63, 8183, 8153, 8196, 8178, 8191, 8114, 8198, 8146, 8131, 8150, 8191, 8194, 8184, 8286,2.189424514770508
64, 8185, 8161, 8192, 8198, 8179, 8117, 8148, 8154, 8151, 8186, 8191, 8201, 8206, 8299,2.197556972503662
65, 8172, 8162, 8154, 8181, 8150, 8119, 8112, 8131, 8141, 8180, 8181, 8189, 8211, 8300,2.2054615020751953
66, 8183, 8155, 8196, 8152, 8190, 8125, 8212, 8140, 8116, 8153, 8179, 8190, 8197, 8285,2.213620901107788
67, 8176, 8156, 8177, 8167, 8158, 8126, 8140, 8148, 8140, 8174, 8183, 8189, 8210, 8301,2.2216029167175293
68, 8178, 8162, 8167, 8181, 8176, 8124, 8165, 8170, 8162, 8178, 8176, 8182, 8205, 8318,2.2282707691192627
69, 8189, 8163, 8194, 8181, 8197, 8124, 8210, 8184, 8161, 8163, 8166, 8181, 8184, 8306,2.2364468574523926
70, 8188, 8168, 8207, 8190, 8191, 8134, 8202, 8194, 8176, 8177, 8166, 8192, 8194, 8308,2.2443480491638184
71, 8190, 8171, 8193, 8187, 8156, 8146, 8137, 8208, 8203, 8195, 8177, 8200, 8217, 8334,2.2524468898773193
72, 8165, 8168, 8128, 8177, 8127, 8144, 8080, 8197, 8217, 8192, 8174, 8178, 8216, 8333,2.2606003284454346
73, 8159, 8174, 8169, 8176, 8213, 8148, 8255, 8213, 8203, 8177, 8162, 8163, 8180, 8292,2.268587589263916
74, 8165, 8173, 8188, 8177, 8168, 8143, 8181, 8202, 8202, 8172, 8168, 8165, 8175, 8281,2.2766056060791016
75, 8158, 8159, 8132, 8166, 8113, 8135, 8072, 8178, 8206, 8158, 8175, 8161, 8190, 8304,2.284579277038574
76, 8168, 8154, 8160, 8155, 8172, 8139, 8200, 8184, 8172, 8130, 8166, 8154, 8168, 8300,2.2923171520233154
77, 8167, 8159, 8158, 8163, 8132, 8130, 8140, 8164, 8154, 8135, 8163, 8149, 8155, 8293,2.2994487285614014
78, 8188, 8168, 8181, 8183, 8156, 8126, 8171, 8171, 8166, 8147, 8178, 8180, 8179, 8314,2.307372808456421
79, 8201, 8167, 8197, 8196, 8169, 8132, 8190, 8181, 8175, 8149, 8179, 8197, 8199, 8327,2.3154044151306152
80, 8174, 8170, 8156, 8192, 8144, 8140, 8134, 8174, 8179, 8162, 8173, 8172, 8196, 8310,2.3234007358551025
81, 8178, 8178, 8186, 8189, 8193, 8148, 8197, 8197, 8188, 8172, 8181, 8173, 8196, 8296,2.331413507461548
82, 8177, 8168, 8181, 8191, 8170, 8140, 8150, 8188, 8194, 8177, 8186, 8181, 8203, 8301,2.339423894882202
83, 8172, 8160, 8160, 8191, 8153, 8136, 8142, 8177, 8194, 8184, 8193, 8174, 8199, 8301,2.3473639488220215
84, 8181, 8160, 8168, 8183, 8153, 8130, 8153, 8178, 8198, 8179, 8202, 8170, 8187, 8301,2.3553929328918457
85, 8184, 8158, 8171, 8169, 8165, 8119, 8172, 8173, 8195, 8158, 8197, 8168, 8176, 8303,2.362332344055176
86, 8192, 8162, 8192, 8172, 8190, 8121, 8205, 8177, 8183, 8161, 8188, 8173, 8172, 8296,2.3703091144561768
87, 8179, 8153, 8150, 8172, 8133, 8135, 8094, 8172, 8190, 8183, 8181, 8167, 8184, 8307,2.378391981124878
88, 8188, 8153, 8176, 8165, 8225, 8152, 8211, 8203, 8193, 8163, 8184, 8177, 8189, 8319,2.386359214782715
89, 8199, 8169, 8200, 8176, 8284, 8146, 8219, 8212, 8191, 8160, 8186, 8192, 8204, 8323,2.394465208053589
90, 8176, 8169, 8141, 8180, 8219, 8133, 8114, 8192, 8201, 8196, 8182, 8182, 8227, 8330,2.4023430347442627
91, 8209, 8168, 8230, 8167, 8256, 8156, 8329, 8227, 8198, 8185, 8184, 8196, 8210, 8327,2.4103763103485107
92, 8218, 8170, 8257, 8178, 8188, 8173, 8258, 8211, 8190, 8169, 8187, 8206, 8203, 8330,2.41833233833313
93, 8176, 8179, 8136, 8202, 8088, 8160, 8019, 8156, 8195, 8192, 8193, 8182, 8227, 8340,2.426473617553711
94, 8170, 8172, 8103, 8186, 8110, 8152, 8053, 8152, 8197, 8196, 8197, 8163, 8229, 8328,2.4334301948547363
95, 8165, 8153, 8135, 8159, 8148, 8159, 8153, 8167, 8196, 8173, 8176, 8156, 8203, 8302,2.4414291381835938
96, 8156, 8153, 8164, 8156, 8165, 8170, 8188, 8170, 8187, 8156, 8158, 8158, 8181, 8289,2.4494881629943848
97, 8140, 8148, 8134, 8161, 8133, 8174, 8118, 8140, 8179, 8154, 8164, 8144, 8177, 8289,2.457397222518921
98, 8148, 8149, 8169, 8157, 8194, 8186, 8230, 8152, 8175, 8140, 8171, 8140, 8167, 8279,2.4654269218444824
99, 8164, 8159, 8196, 8162, 8175, 8196, 8197, 8169, 8186, 8131, 8174, 8156, 8168, 8281,2.473506212234497
100, 8157, 8163, 8132, 8181, 8113, 8183, 8081, 8150, 8193, 8144, 8175, 8155, 8174, 8297,2.4815707206726074
101, 8199, 8169, 8230, 8177, 8248, 8183, 8337, 8182, 8167, 8151, 8180, 8175, 8160, 8294,2.4896888732910156
102, 8212, 8164, 8265, 8170, 8198, 8187, 8245, 8183, 8174, 8164, 8185, 8192, 8181, 8294,2.4964118003845215
103, 8164, 8160, 8121, 8192, 8052, 8182, 7983, 8139, 8203, 8173, 8172, 8159, 8202, 8297,2.5045902729034424
104, 8168, 8161, 8129, 8189, 8135, 8187, 8152, 8149, 8182, 8161, 8165, 8145, 8171, 8290,2.5125443935394287
105, 8182, 8154, 8197, 8156, 8195, 8195, 8244, 8163, 8165, 8160, 8172, 8165, 8168, 8302,2.520325183868408
106, 8178, 8156, 8194, 8154, 8174, 8201, 8174, 8167, 8186, 8173, 8176, 8177, 8203, 8321,2.5285348892211914
107, 8168, 8155, 8151, 8168, 8127, 8196, 8086, 8160, 8196, 8185, 8161, 8164, 8204, 8317,2.5365922451019287
108, 8143, 8133, 8128, 8153, 8133, 8184, 8114, 8158, 8183, 8172, 8146, 8143, 8166, 8293,2.5443665981292725
109, 8130, 8126, 8151, 8144, 8218, 8188, 8181, 8180, 8189, 8145, 8152, 8143, 8157, 8277,2.5525665283203125
110, 8136, 8145, 8155, 8166, 8300, 8197, 8151, 8183, 8197, 8146, 8161, 8154, 8177, 8281,2.559518337249756
111, 8153, 8154, 8176, 8175, 8363, 8196, 8189, 8174, 8172, 8152, 8167, 8162, 8168, 8287,2.567568302154541
112, 8140, 8141, 8153, 8161, 8312, 8182, 8127, 8153, 8163, 8152, 8165, 8149, 8154, 8279,2.57558012008667
113, 8130, 8147, 8141, 8166, 8245, 8181, 8131, 8152, 8175, 8156, 8164, 8139, 8161, 8264,2.583561420440674
114, 8168, 8175, 8217, 8184, 8199, 8186, 8247, 8170, 8161, 8153, 8172, 8163, 8159, 8265,2.5915961265563965
115, 8162, 8172, 8175, 8187, 8095, 8165, 8123, 8142, 8151, 8154, 8170, 8159, 8156, 8277,2.5993661880493164
116, 8148, 8157, 8155, 8177, 8156, 8155, 8157, 8145, 8158, 8161, 8167, 8147, 8157, 8270,2.607560157775879
117, 8167, 8164, 8201, 8173, 8190, 8168, 8212, 8161, 8163, 8172, 8175, 8156, 8168, 8262,2.6154675483703613
118, 8160, 8182, 8159, 8178, 8118, 8175, 8120, 8146, 8165, 8163, 8169, 8153, 8172, 8267,2.6224167346954346
119, 8174, 8188, 8167, 8184, 8163, 8173, 8183, 8158, 8153, 8150, 8160, 8156, 8157, 8272,2.630429983139038
120, 8185, 8169, 8184, 8176, 8167, 8168, 8170, 8163, 8147, 8156, 8167, 8154, 8153, 8271,2.638326644897461
121, 8166, 8157, 8156, 8159, 8159, 8165, 8137, 8156, 8150, 8141, 8174, 8143, 8154, 8259,2.646484136581421
122, 8158, 8160, 8137, 8157, 8177, 8164, 8135, 8147, 8158, 8125, 8170, 8144, 8149, 8260,2.654538869857788
123, 8167, 8168, 8151, 8168, 8201, 8176, 8177, 8159, 8180, 8154, 8173, 8148, 8157, 8276,2.6624436378479004
124, 8175, 8168, 8196, 8169, 8230, 8185, 8239, 8185, 8191, 8178, 8175, 8156, 8169, 8273,2.670393228530884
125, 8143, 8155, 8145, 8163, 8161, 8172, 8097, 8153, 8193, 8177, 8167, 8147, 8183, 8261,2.678363084793091
126, 8160, 8157, 8164, 8160, 8196, 8168, 8191, 8159, 8186, 8171, 8169, 8148, 8177, 8266,2.6854355335235596
127, 8188, 8153, 8230, 8153, 8221, 8169, 8274, 8185, 8166, 8152, 8163, 8157, 8148, 8270,2.693312406539917
238, 8117, 8129, 8137, 8135, 8117, 8158, 8080, 8136, 8156, 8139, 8151, 8140, 8137, 8251,2.701409339904785
0, 8086, 8121, 8117, 8121, 8125, 8174, 8119, 8127, 8155, 8147, 8166, 8150, 8145, 8223,2.709381341934204
1, 8143, 8135, 8176, 8133, 8151, 8194, 8172, 8153, 8165, 8158, 8181, 8179, 8163, 8237,2.7172293663024902
2, 8175, 8147, 8174, 8157, 8163, 8183, 8154, 8153, 8165, 8160, 8172, 8182, 8165, 8275,2.7254607677459717
3, 8156, 8140, 8158, 8156, 8160, 8172, 8165, 8147, 8159, 8155, 8163, 8172, 8150, 8278,2.7334492206573486
4, 8133, 8129, 8143, 8140, 8126, 8171, 8151, 8143, 8151, 8141, 8156, 8164, 8153, 8254,2.741305351257324
5, 8163, 8143, 8177, 8138, 8152, 8167, 8202, 8154, 8134, 8131, 8149, 8172, 8157, 8245,2.7483222484588623
6, 8174, 8150, 8160, 8142, 8123, 8163, 8129, 8150, 8139, 8158, 8152, 8162, 8160, 8271,2.7562530040740967
7, 8138, 8129, 8146, 8128, 8142, 8172, 8178, 8160, 8147, 8167, 8161, 8140, 8153, 8278,2.7643775939941406
8, 8121, 8121, 8181, 8121, 8146, 8172, 8216, 8167, 8141, 8144, 8160, 8144, 8135, 8239,2.7723376750946045
9, 8114, 8136, 8139, 8137, 8075, 8157, 8074, 8147, 8153, 8155, 8158, 8145, 8149, 8216,2.78033447265625
10, 8143, 8141, 8177, 8133, 8165, 8171, 8224, 8183, 8156, 8160, 8164, 8140, 8149, 8224,2.788355588912964
11, 8146, 8110, 8201, 8098, 8178, 8195, 8236, 8195, 8154, 8154, 8154, 8129, 8127, 8240,2.7964141368865967
12, 8092, 8092, 8124, 8091, 8121, 8191, 8076, 8170, 8170, 8171, 8151, 8127, 8138, 8248,2.8043642044067383
13, 8103, 8115, 8147, 8124, 8186, 8188, 8164, 8174, 8168, 8173, 8180, 8151, 8160, 8241,2.8123748302459717
14, 8131, 8129, 8165, 8141, 8191, 8191, 8195, 8156, 8153, 8170, 8191, 8150, 8159, 8245,2.8193554878234863
15, 8124, 8125, 8156, 8132, 8179, 8187, 8183, 8146, 8157, 8174, 8170, 8129, 8140, 8243,2.827442169189453
16, 8109, 8126, 8144, 8137, 8153, 8176, 8119, 8143, 8165, 8179, 8166, 8122, 8145, 8226,2.835404396057129
17, 8123, 8140, 8145, 8146, 8165, 8176, 8152, 8142, 8157, 8167, 8166, 8136, 8153, 8220,2.8432953357696533
18, 8143, 8142, 8176, 8133, 8192, 8183, 8213, 8150, 8143, 8144, 8150, 8148, 8134, 8224,2.851442337036133
19, 8109, 8127, 8136, 8127, 8138, 8180, 8114, 8139, 8146, 8150, 8146, 8129, 8128, 8225,2.8594391345977783
20, 8124, 8147, 8189, 8148, 8202, 8184, 8244, 8176, 8155, 8163, 8167, 8140, 8135, 8224,2.867368221282959
21, 8161, 8156, 8222, 8159, 8198, 8176, 8213, 8186, 8164, 8163, 8171, 8163, 8147, 8236,2.8754897117614746
22, 8125, 8126, 8124, 8137, 8122, 8166, 8053, 8149, 8161, 8155, 8151, 8140, 8144, 8242,2.8834068775177
23, 8112, 8117, 8155, 8112, 8193, 8188, 8222, 8170, 8143, 8138, 8156, 8130, 8116, 8237,2.8904342651367188
24, 8116, 8126, 8190, 8114, 8161, 8193, 8210, 8195, 8158, 8136, 8172, 8133, 8121, 8243,2.8984627723693848
25, 8108, 8132, 8143, 8126, 8094, 8173, 8102, 8200, 8189, 8155, 8171, 8131, 8146, 8238,2.9064362049102783
26, 8112, 8128, 8143, 8134, 8126, 8173, 8154, 8203, 8198, 8175, 8176, 8145, 8157, 8232,2.9142704010009766
27, 8107, 8114, 8159, 8133, 8148, 8196, 8195, 8187, 8192, 8173, 8182, 8148, 8158, 8236,2.9223315715789795
28, 8091, 8106, 8153, 8123, 8126, 8203, 8160, 8161, 8173, 8162, 8180, 8135, 8154, 8234,2.9305293560028076
29, 8081, 8110, 8114, 8127, 8088, 8181, 8089, 8140, 8164, 8165, 8182, 8125, 8155, 8231,2.938340663909912
30, 8115, 8125, 8156, 8136, 8149, 8182, 8204, 8163, 8178, 8159, 8186, 8146, 8155, 8247,2.946509599685669
31, 8140, 8134, 8196, 8141, 8145, 8200, 8193, 8167, 8194, 8162, 8179, 8165, 8164, 8263,2.953458309173584
32, 8118, 8135, 8155, 8154, 8113, 8196, 8111, 8150, 8191, 8184, 8176, 8144, 8172, 8255,2.9624102115631104
33, 8131, 8137, 8189, 8157, 8175, 8185, 8228, 8181, 8179, 8178, 8189, 8138, 8166, 8240,2.9695072174072266
34, 8118, 8119, 8155, 8138, 8100, 8171, 8119, 8176, 8184, 8163, 8187, 8143, 8167, 8241,2.977475643157959
35, 8096, 8111, 8129, 8122, 8098, 8166, 8128, 8167, 8175, 8155, 8176, 8140, 8162, 8241,2.9864864349365234
36, 8131, 8127, 8214, 8133, 8182, 8169, 8268, 8188, 8155, 8151, 8169, 8147, 8150, 8234,2.9934349060058594
37, 8137, 8131, 8182, 8148, 8123, 8161, 8136, 8175, 8172, 8160, 8164, 8144, 8162, 8248,3.001490831375122
38, 8131, 8127, 8146, 8143, 8104, 8168, 8111, 8179, 8188, 8167, 8168, 8153, 8178, 8266,3.009398937225342
39, 8128, 8124, 8153, 8132, 8104, 8172, 8134, 8184, 8179, 8162, 8171, 8156, 8180, 8269,3.0175487995147705
40, 8120, 8124, 8153, 8131, 8122, 8157, 8166, 8189, 8160, 8149, 8168, 8152, 8160, 8256,3.0243537425994873
41, 8121, 8126, 8164, 8134, 8147, 8156, 8186, 8210, 8154, 8150, 8175, 8160, 8149, 8248,3.0323381423950195
42, 8112, 8129, 8146, 8129, 8123, 8164, 8127, 8209, 8179, 8165, 8182, 8157, 8170, 8259,3.0404255390167236
43, 8130, 8142, 8182, 8140, 8166, 8167, 8205, 8209, 8193, 8167, 8180, 8164, 8176, 8257,3.052452802658081
44, 8144, 8147, 8178, 8165, 8156, 8160, 8163, 8187, 8185, 8162, 8176, 8169, 8167, 8246,3.056431770324707
45, 8139, 8148, 8157, 8165, 8152, 8156, 8159, 8172, 8169, 8163, 8179, 8160, 8165, 8250,3.064338207244873
46, 8153, 8145, 8199, 8157, 8180, 8167, 8236, 8185, 8164, 8167, 8184, 8164, 8166, 8255,3.0724735260009766
47, 8149, 8137, 8166, 8159, 8124, 8169, 8127, 8171, 8182, 8168, 8181, 8167, 8184, 8260,3.079439640045166
48, 8162, 8142, 8179, 8159, 8157, 8169, 8181, 8185, 8190, 8171, 8185, 8176, 8198, 8276,3.0873897075653076
49, 8178, 8149, 8212, 8159, 8165, 8167, 8195, 8192, 8186, 8188, 8192, 8179, 8202, 8302,3.095451593399048
50, 8157, 8142, 8164, 8159, 8124, 8155, 8124, 8166, 8174, 8189, 8183, 8164, 8200, 8297,3.103449821472168
51, 8151, 8135, 8159, 8154, 8141, 8145, 8164, 8172, 8164, 8164, 8182, 8158, 8192, 8281,3.111440896987915
52, 8143, 8137, 8148, 8159, 8124, 8154, 8128, 8176, 8177, 8165, 8186, 8156, 8198, 8298,3.119249105453491
53, 8139, 8143, 8168, 8156, 8161, 8172, 8204, 8188, 8183, 8168, 8176, 8154, 8187, 8287,3.1275107860565186
54, 8137, 8135, 8174, 8140, 8136, 8166, 8176, 8184, 8176, 8163, 8169, 8151, 8169, 8255,3.13552188873291
55, 8130, 8131, 8147, 8141, 8105, 8158, 8112, 8175, 8183, 8176, 8175, 8155, 8180, 8269,3.1434102058410645
56, 8157, 8151, 8192, 8164, 8165, 8175, 8205, 8193, 8189, 8183, 8180, 8185, 8198, 8302,3.1503162384033203
57, 8152, 8152, 8168, 8175, 8135, 8174, 8135, 8178, 8193, 8178, 8170, 8187, 8199, 8298,3.1583454608917236
58, 8137, 8139, 8157, 8155, 8155, 8159, 8181, 8175, 8185, 8155, 8166, 8172, 8181, 8267,3.166447639465332
59, 8138, 8126, 8183, 8134, 8148, 8150, 8214, 8168, 8172, 8148, 8159, 8170, 8170, 8257,3.1743476390838623
60, 8131, 8127, 8160, 8144, 8098, 8152, 8151, 8154, 8166, 8152, 8152, 8166, 8169, 8269,3.182356119155884
61, 8149, 8144, 8191, 8169, 8144, 8168, 8202, 8168, 8165, 8139, 8166, 8176, 8168, 8271,3.190652370452881
62, 8139, 8144, 8174, 8173, 8120, 8172, 8116, 8151, 8181, 8152, 8175, 8180, 8186, 8271,3.198490858078003
63, 8124, 8140, 8150, 8164, 8132, 8173, 8138, 8148, 8192, 8168, 8168, 8168, 8188, 8268,3.2063732147216797
64, 8139, 8141, 8181, 8161, 8174, 8176, 8212, 8169, 8185, 8158, 8174, 8165, 8173, 8261,3.213416814804077
65, 8137, 8146, 8169, 8162, 8153, 8171, 8148, 8170, 8194, 8166, 8181, 8171, 8189, 8273,3.2213034629821777
66, 8138, 8154, 8166, 8160, 8160, 8173, 8161, 8184, 8204, 8185, 8177, 8177, 8202, 8293,3.2294540405273438
67, 8128, 8139, 8145, 8145, 8141, 8181, 8138, 8185, 8198, 8177, 8172, 8166, 8200, 8296,3.2374353408813477
68, 8117, 8125, 8147, 8130, 8163, 8187, 8185, 8185, 8190, 8159, 8171, 8172, 8188, 8287,3.2453060150146484
69, 8126, 8136, 8172, 8135, 8165, 8181, 8188, 8181, 8187, 8157, 8172, 8184, 8175, 8283,3.253340005874634
70, 8129, 8154, 8148, 8153, 8133, 8172, 8113, 8164, 8190, 8165, 8180, 8169, 8183, 8293,3.2613470554351807
71, 8163, 8172, 8198, 8172, 8203, 8176, 8240, 8191, 8187, 8182, 8186, 8177, 8196, 8296,3.2694597244262695
72, 8181, 8176, 8215, 8188, 8180, 8171, 8206, 8192, 8192, 8188, 8179, 8185, 8202, 8286,3.277486562728882
73, 8160, 8166, 8168, 8188, 8128, 8162, 8117, 8165, 8196, 8165, 8174, 8172, 8202, 8279,3.2843008041381836
74, 8163, 8162, 8193, 8180, 8169, 8169, 8189, 8167, 8186, 8155, 8179, 8176, 8198, 8283,3.292281150817871
75, 8157, 8165, 8184, 8187, 8178, 8171, 8162, 8163, 8183, 8173, 8179, 8173, 8198, 8286,3.3003196716308594
76, 8150, 8166, 8166, 8186, 8188, 8165, 8156, 8161, 8182, 8168, 8174, 8161, 8189, 8273,3.308321952819824
77, 8147, 8160, 8153, 8172, 8152, 8162, 8121, 8150, 8182, 8163, 8169, 8158, 8190, 8271,3.316316843032837
78, 8140, 8156, 8157, 8174, 8166, 8168, 8162, 8161, 8179, 8173, 8173, 8158, 8192, 8276,3.3243260383605957
79, 8136, 8162, 8168, 8186, 8197, 8166, 8184, 8172, 8180, 8165, 8170, 8161, 8187, 8277,3.3323142528533936
80, 8135, 8168, 8139, 8178, 8173, 8153, 8128, 8158, 8189, 8164, 8159, 8157, 8193, 8286,3.3402724266052246
81, 8177, 8167, 8220, 8153, 8261, 8167, 8308, 8187, 8178, 8157, 8162, 8173, 8186, 8284,3.3472580909729004
82, 8158, 8152, 8202, 8142, 8213, 8182, 8197, 8182, 8175, 8142, 8164, 8173, 8178, 8278,3.355316400527954
83, 8099, 8144, 8097, 8137, 8150, 8174, 8056, 8153, 8180, 8144, 8161, 8146, 8180, 8274,3.3634324073791504
84, 8139, 8154, 8186, 8134, 8242, 8174, 8244, 8183, 8165, 8154, 8168, 8157, 8177, 8268,3.371356964111328
85, 8153, 8147, 8201, 8144, 8198, 8173, 8178, 8177, 8165, 8166, 8172, 8168, 8183, 8280,3.3793604373931885
86, 8123, 8140, 8133, 8154, 8171, 8164, 8114, 8163, 8169, 8161, 8168, 8161, 8183, 8289,3.3874142169952393
87, 8133, 8145, 8142, 8158, 8209, 8160, 8156, 8174, 8163, 8155, 8161, 8162, 8179, 8279,3.3955109119415283
88, 8154, 8158, 8173, 8159, 8236, 8171, 8187, 8178, 8175, 8164, 8156, 8171, 8181, 8279,3.4034156799316406
89, 8171, 8177, 8210, 8172, 8262, 8192, 8236, 8186, 8191, 8177, 8171, 8181, 8183, 8298,3.4104151725769043
90, 8159, 8177, 8182, 8179, 8228, 8190, 8171, 8171, 8190, 8188, 8184, 8172, 8201, 8307,3.418282985687256
91, 8157, 8169, 8196, 8165, 8257, 8180, 8226, 8170, 8180, 8182, 8177, 8174, 8209, 8293,3.4273715019226074
92, 8160, 8169, 8180, 8165, 8199, 8165, 8119, 8153, 8180, 8186, 8174, 8176, 8213, 8296,3.434300422668457
93, 8159, 8186, 8143, 8187, 8173, 8148, 8084, 8143, 8186, 8189, 8173, 8167, 8212, 8309,3.4423563480377197
94, 8196, 8202, 8243, 8202, 8281, 8154, 8317, 8190, 8177, 8174, 8166, 8187, 8192, 8292,3.4504382610321045
95, 8182, 8186, 8218, 8196, 8211, 8166, 8180, 8186, 8183, 8180, 8164, 8186, 8194, 8287,3.4583492279052734
96, 8156, 8176, 8161, 8180, 8194, 8176, 8135, 8184, 8196, 8176, 8173, 8169, 8201, 8295,3.4663021564483643
97, 8146, 8171, 8181, 8166, 8218, 8170, 8207, 8187, 8191, 8152, 8165, 8164, 8179, 8285,3.4732022285461426
98, 8115, 8156, 8144, 8156, 8174, 8166, 8126, 8156, 8178, 8149, 8143, 8153, 8154, 8266,3.481462001800537
99, 8131, 8150, 8171, 8142, 8219, 8196, 8198, 8167, 8165, 8147, 8151, 8159, 8150, 8245,3.4894261360168457
100, 8129, 8126, 8146, 8121, 8172, 8206, 8127, 8153, 8162, 8148, 8155, 8153, 8162, 8246,3.4972522258758545
101, 8086, 8107, 8071, 8112, 8126, 8184, 8053, 8128, 8163, 8148, 8136, 8134, 8153, 8253,3.5054280757904053
102, 8112, 8130, 8116, 8128, 8196, 8184, 8159, 8154, 8176, 8149, 8145, 8153, 8152, 8262,3.513381242752075
103, 8170, 8157, 8184, 8153, 8246, 8201, 8219, 8188, 8196, 8171, 8178, 8185, 8186, 8287,3.5213711261749268
104, 8171, 8160, 8173, 8165, 8216, 8204, 8159, 8185, 8203, 8195, 8181, 8191, 8211, 8311,3.529447317123413
105, 8130, 8162, 8110, 8166, 8175, 8197, 8080, 8163, 8211, 8208, 8169, 8176, 8216, 8316,3.5374341011047363
106, 8155, 8180, 8192, 8170, 8300, 8214, 8313, 8198, 8195, 8188, 8172, 8181, 8198, 8297,3.544361114501953
107, 8196, 8175, 8291, 8159, 8314, 8220, 8367, 8200, 8150, 8153, 8173, 8191, 8179, 8282,3.552300214767456
108, 8143, 8154, 8170, 8140, 8121, 8173, 8052, 8128, 8134, 8153, 8156, 8165, 8188, 8288,3.560373067855835
109, 8114, 8151, 8109, 8140, 8111, 8138, 8071, 8119, 8129, 8163, 8146, 8147, 8176, 8290,3.5683233737945557
110, 8137, 8138, 8159, 8138, 8160, 8143, 8183, 8142, 8110, 8141, 8149, 8148, 8142, 8271,3.5762362480163574
111, 8144, 8133, 8190, 8125, 8172, 8154, 8228, 8161, 8119, 8120, 8155, 8149, 8136, 8247,3.584369421005249
112, 8134, 8146, 8206, 8126, 8172, 8162, 8227, 8190, 8157, 8146, 8154, 8154, 8150, 8242,3.592430353164673
113, 8098, 8147, 8141, 8136, 8112, 8163, 8093, 8186, 8185, 8174, 8154, 8140, 8157, 8245,3.6005284786224365
114, 8112, 8144, 8154, 8131, 8155, 8161, 8180, 8203, 8189, 8162, 8162, 8142, 8143, 8238,3.6084585189819336
115, 8145, 8146, 8196, 8128, 8162, 8162, 8203, 8212, 8193, 8170, 8161, 8161, 8148, 8246,3.61539363861084
116, 8117, 8153, 8142, 8145, 8109, 8165, 8075, 8187, 8202, 8197, 8160, 8160, 8176, 8261,3.6232473850250244
117, 8098, 8161, 8116, 8162, 8124, 8158, 8089, 8175, 8200, 8191, 8169, 8153, 8183, 8253,3.6314079761505127
118, 8110, 8156, 8123, 8161, 8147, 8145, 8141, 8165, 8189, 8176, 8166, 8151, 8180, 8251,3.639410972595215
119, 8133, 8161, 8157, 8157, 8190, 8153, 8206, 8157, 8165, 8160, 8162, 8161, 8177, 8264,3.6475484371185303
120, 8141, 8179, 8160, 8165, 8177, 8157, 8152, 8141, 8150, 8157, 8171, 8163, 8169, 8269,3.6553196907043457
121, 8150, 8185, 8164, 8186, 8170, 8158, 8158, 8139, 8154, 8167, 8175, 8164, 8170, 8263,3.6633830070495605
122, 8177, 8187, 8224, 8200, 8206, 8175, 8248, 8157, 8151, 8157, 8178, 8185, 8181, 8268,3.670361280441284
123, 8166, 8183, 8198, 8192, 8162, 8182, 8140, 8150, 8157, 8158, 8185, 8187, 8192, 8282,3.678323745727539
124, 8151, 8176, 8157, 8174, 8160, 8176, 8121, 8152, 8168, 8180, 8179, 8171, 8185, 8273,3.6865739822387695
125, 8150, 8160, 8164, 8166, 8169, 8156, 8164, 8151, 8154, 8179, 8166, 8170, 8175, 8248,3.6943469047546387
126, 8140, 8145, 8163, 8160, 8149, 8134, 8156, 8140, 8127, 8159, 8163, 8162, 8166, 8241,3.7024431228637695
127, 8136, 8141, 8173, 8147, 8167, 8140, 8186, 8151, 8116, 8157, 8171, 8156, 8156, 8245,3.7105441093444824
238, 8123, 8147, 8149, 8149, 8144, 8151, 8136, 8153, 8135, 8171, 8166, 8155, 8165, 8242,3.7184948921203613
0, 8128, 8153, 8168, 8157, 8164, 8150, 8181, 8166, 8150, 8171, 8164, 8158, 8164, 8240,3.7266628742218018
1, 8125, 8142, 8175, 8149, 8158, 8146, 8155, 8162, 8153, 8168, 8165, 8157, 8156, 8242,3.7345330715179443
2, 8119, 8143, 8155, 8150, 8155, 8147, 8138, 8153, 8162, 8170, 8160, 8150, 8164, 8243,3.7415518760681152
3, 8163, 8162, 8213, 8157, 8210, 8150, 8255, 8189, 8165, 8180, 8167, 8169, 8181, 8259,3.749544620513916
4, 8156, 8153, 8174, 8148, 8147, 8147, 8127, 8180, 8169, 8195, 8179, 8173, 8198, 8283,3.7574775218963623
5, 8119, 8136, 8137, 8139, 8169, 8153, 8137, 8168, 8170, 8179, 8178, 8162, 8186, 8269,3.7655766010284424
6, 8145, 8146, 8196, 8152, 8222, 8155, 8228, 8191, 8171, 8173, 8180, 8169, 8170, 8254,3.773577928543091
7, 8165, 8155, 8178, 8162, 8161, 8141, 8116, 8179, 8179, 8199, 8187, 8176, 8187, 8278,3.781374216079712
8, 8166, 8153, 8179, 8157, 8182, 8140, 8156, 8167, 8177, 8187, 8188, 8186, 8196, 8287,3.7893996238708496
9, 8162, 8154, 8187, 8161, 8177, 8137, 8155, 8150, 8174, 8166, 8178, 8181, 8192, 8281,3.7977592945098877
10, 8163, 8164, 8171, 8166, 8160, 8127, 8131, 8133, 8165, 8173, 8170, 8176, 8189, 8285,3.8055624961853027
11, 8172, 8167, 8172, 8163, 8173, 8135, 8165, 8132, 8159, 8183, 8178, 8193, 8189, 8290,3.8126235008239746
12, 8157, 8155, 8154, 8155, 8172, 8144, 8153, 8133, 8162, 8185, 8176, 8181, 8181, 8279,3.8204522132873535
13, 8158, 8149, 8184, 8155, 8212, 8149, 8201, 8164, 8161, 8169, 8159, 8161, 8164, 8267,3.828315019607544
14, 8166, 8146, 8184, 8159, 8171, 8148, 8126, 8178, 8185, 8177, 8165, 8165, 8183, 8282,3.8364973068237305
15, 8166, 8144, 8168, 8143, 8176, 8147, 8151, 8197, 8218, 8215, 8189, 8176, 8206, 8290,3.844393253326416
16, 8157, 8139, 8189, 8126, 8213, 8153, 8227, 8218, 8225, 8230, 8179, 8165, 8190, 8263,3.852618455886841
17, 8105, 8131, 8136, 8135, 8159, 8161, 8119, 8190, 8226, 8220, 8152, 8130, 8172, 8235,3.8605380058288574
18, 8108, 8138, 8164, 8140, 8213, 8172, 8217, 8200, 8225, 8209, 8156, 8136, 8163, 8224,3.8685317039489746
19, 8150, 8139, 8223, 8134, 8228, 8167, 8242, 8204, 8213, 8207, 8168, 8166, 8176, 8235,3.875556468963623
20, 8140, 8139, 8176, 8146, 8146, 8160, 8099, 8159, 8209, 8213, 8166, 8167, 8196, 8247,3.88348388671875
21, 8127, 8156, 8155, 8168, 8147, 8155, 8107, 8147, 8206, 8202, 8161, 8166, 8188, 8236,3.891569137573242
22, 8138, 8160, 8164, 8172, 8173, 8131, 8149, 8147, 8188, 8166, 8154, 8176, 8200, 8241,3.8995282649993896
23, 8162, 8155, 8194, 8162, 8204, 8122, 8214, 8148, 8158, 8142, 8155, 8188, 8220, 8261,3.907546043395996
24, 8158, 8165, 8180, 8170, 8165, 8134, 8135, 8130, 8154, 8165, 8179, 8179, 8188, 8256,3.91556715965271
25, 8149, 8190, 8165, 8197, 8164, 8141, 8128, 8127, 8165, 8194, 8211, 8162, 8152, 8246,3.9234728813171387
26, 8182, 8197, 8218, 8204, 8202, 8131, 8223, 8148, 8154, 8190, 8247, 8191, 8196, 8267,3.9313690662384033
27, 8173, 8168, 8166, 8177, 8137, 8123, 8117, 8144, 8158, 8193, 8292, 8211, 8270, 8294,3.9385766983032227
28, 8150, 8149, 8160, 8148, 8199, 8148, 8229, 8184, 8186, 8215, 8353, 8201, 8255, 8286,3.946507215499878
29, 8135, 8134, 8200, 8133, 8218, 8165, 8263, 8201, 8197, 8224, 8405, 8185, 8204, 8259,3.954368829727173
30, 8100, 8117, 8141, 8127, 8137, 8149, 8094, 8164, 8196, 8221, 8445, 8166, 8194, 8244,3.9625654220581055
31, 8118, 8126, 8149, 8133, 8176, 8143, 8152, 8180, 8202, 8224, 8497, 8178, 8194, 8253,3.970571756362915
32, 8140, 8136, 8157, 8143, 8168, 8154, 8157, 8201, 8227, 8241, 8521, 8183, 8182, 8266,3.9786276817321777
33, 8145, 8147, 8171, 8157, 8184, 8149, 8177, 8205, 8231, 8240, 8508, 8184, 8172, 8265,3.986602783203125
34, 8164, 8162, 8203, 8166, 8217, 8133, 8179, 8193, 8215, 8244, 8509, 8200, 8188, 8283,3.9945828914642334
35, 8163, 8161, 8167, 8163, 8199, 8138, 8120, 8172, 8216, 8247, 8512, 8198, 8204, 8294,4.001549959182739
36, 8161, 8166, 8168, 8164, 8221, 8154, 8176, 8167, 8204, 8222, 8487, 8192, 8178, 8263,4.009464740753174
37, 8164, 8186, 8173, 8193, 8212, 8157, 8143, 8150, 8189, 8218, 8455, 8176, 8157, 8236,4.017744541168213
38, 8177, 8198, 8188, 8218, 8238, 8163, 8174, 8156, 8187, 8214, 8436, 8168, 8156, 8235,4.025579452514648
39, 8170, 8193, 8184, 8209, 8220, 8157, 8156, 8157, 8189, 8193, 8401, 8175, 8160, 8243,4.033501625061035
40, 8149, 8195, 8146, 8196, 8194, 8141, 8111, 8138, 8194, 8196, 8352, 8179, 8163, 8253,4.041577577590942
41, 8188, 8210, 8216, 8198, 8280, 8151, 8262, 8160, 8186, 8203, 8325, 8194, 8151, 8243,4.049636125564575
42, 8192, 8205, 8218, 8200, 8228, 8150, 8173, 8154, 8190, 8215, 8303, 8192, 8161, 8240,4.057359457015991
43, 8151, 8187, 8148, 8194, 8181, 8141, 8088, 8143, 8201, 8230, 8249, 8183, 8187, 8254,4.065326452255249
44, 8149, 8175, 8158, 8181, 8229, 8162, 8160, 8162, 8193, 8228, 8195, 8187, 8184, 8246,4.072664499282837
45, 8146, 8168, 8159, 8170, 8220, 8177, 8145, 8163, 8182, 8223, 8175, 8178, 8169, 8234,4.080360412597656
46, 8153, 8168, 8188, 8165, 8241, 8175, 8215, 8174, 8192, 8224, 8167, 8174, 8165, 8243,4.08858060836792
47, 8152, 8154, 8179, 8156, 8215, 8173, 8171, 8163, 8215, 8229, 8142, 8174, 8169, 8260,4.096574783325195
48, 8124, 8135, 8129, 8134, 8191, 8170, 8119, 8154, 8219, 8226, 8130, 8161, 8163, 8256,4.104627370834351
49, 8119, 8135, 8137, 8128, 8197, 8171, 8146, 8176, 8220, 8220, 8137, 8161, 8162, 8250,4.112396001815796
50, 8140, 8149, 8153, 8148, 8184, 8178, 8132, 8176, 8239, 8206, 8126, 8173, 8174, 8275,4.1205737590789795
51, 8171, 8157, 8195, 8160, 8228, 8182, 8209, 8175, 8231, 8187, 8113, 8192, 8175, 8301,4.128535270690918
52, 8164, 8153, 8172, 8179, 8200, 8169, 8144, 8162, 8215, 8203, 8113, 8198, 8195, 8308,4.135537147521973
53, 8160, 8173, 8163, 8205, 8218, 8165, 8171, 8169, 8221, 8212, 8097, 8194, 8208, 8299,4.1435630321502686
54, 8201, 8202, 8248, 8201, 8277, 8168, 8305, 8196, 8210, 8174, 8076, 8206, 8188, 8286,4.151576042175293
55, 8193, 8193, 8208, 8202, 8184, 8142, 8141, 8170, 8199, 8167, 8074, 8208, 8207, 8300,4.159539461135864
56, 8178, 8196, 8164, 8226, 8175, 8122, 8100, 8161, 8200, 8194, 8082, 8210, 8249, 8320,4.167646408081055
57, 8202, 8216, 8206, 8229, 8221, 8130, 8184, 8174, 8196, 8202, 8078, 8209, 8249, 8312,4.17547345161438
58, 8218, 8219, 8210, 8229, 8201, 8136, 8165, 8166, 8188, 8187, 8074, 8202, 8227, 8305,4.1834681034088135
59, 8225, 8221, 8198, 8249, 8195, 8137, 8156, 8164, 8187, 8168, 8076, 8204, 8226, 8319,4.191397428512573
60, 8213, 8222, 8170, 8240, 8186, 8133, 8136, 8164, 8189, 8168, 8068, 8186, 8224, 8311,4.199605941772461
61, 8203, 8215, 8180, 8215, 8211, 8127, 8197, 8168, 8166, 8158, 8060, 8172, 8195, 8276,4.206406116485596
62, 8203, 8206, 8176, 8217, 8177, 8129, 8148, 8143, 8144, 8140, 8070, 8176, 8181, 8275,4.214518308639526
63, 8205, 8212, 8167, 8225, 8181, 8146, 8146, 8145, 8152, 8148, 8092, 8179, 8196, 8291,4.22254204750061
64, 8225, 8221, 8214, 8225, 8246, 8155, 8236, 8183, 8164, 8163, 8096, 8193, 8199, 8282,4.2306599617004395
65, 8211, 8213, 8167, 8223, 8181, 8138, 8103, 8156, 8169, 8169, 8089, 8190, 8206, 8285,4.238586664199829
66, 8215, 8209, 8180, 8216, 8213, 8146, 8197, 8168, 8173, 8164, 8103, 8193, 8211, 8293,4.246576309204102
67, 8237, 8213, 8258, 8214, 8303, 8164, 8288, 8203, 8181, 8175, 8106, 8217, 8211, 8299,4.25437331199646
68, 8210, 8214, 8196, 8224, 8314, 8150, 8107, 8168, 8190, 8190, 8095, 8216, 8234, 8325,4.262642860412598
69, 8207, 8218, 8156, 8226, 8366, 8144, 8111, 8165, 8205, 8185, 8104, 8211, 8258, 8352,4.269723653793335
70, 8221, 8216, 8162, 8228, 8343, 8141, 8143, 8187, 8219, 8192, 8114, 8211, 8262, 8359,4.277552843093872
71, 8230, 8218, 8188, 8234, 8282, 8136, 8194, 8196, 8206, 8199, 8109, 8217, 8251, 8360,4.285473823547363
72, 8245, 8227, 8213, 8231, 8212, 8148, 8185, 8191, 8197, 8193, 8112, 8220, 8253, 8372,4.293522119522095
73, 8229, 8230, 8172, 8225, 8201, 8160, 8115, 8179, 8208, 8186, 8104, 8198, 8259, 8362,4.301248073577881
74, 8215, 8221, 8179, 8223, 8292, 8164, 8204, 8191, 8194, 8173, 8092, 8192, 8233, 8326,4.309452295303345
75, 8205, 8203, 8172, 8218, 8224, 8155, 8165, 8181, 8183, 8165, 8100, 8198, 8216, 8316,4.317376613616943
76, 8200, 8207, 8165, 8219, 8156, 8152, 8154, 8169, 8187, 8163, 8110, 8189, 8215, 8313,4.3252246379852295
77, 8194, 8212, 8177, 8216, 8182, 8165, 8170, 8162, 8182, 8158, 8112, 8179, 8208, 8290,4.333280801773071
78, 8160, 8191, 8140, 8197, 8189, 8172, 8142, 8142, 8184, 8147, 8103, 8172, 8192, 8270,4.340557336807251
79, 8171, 8187, 8188, 8184, 8221, 8162, 8263, 8157, 8173, 8143, 8102, 8185, 8169, 8262,4.3485636711120605
80, 8194, 8201, 8202, 8196, 8131, 8148, 8171, 8158, 8177, 8174, 8120, 8193, 8192, 8280,4.356445550918579
81, 8184, 8209, 8152, 8202, 8086, 8160, 8102, 8159, 8214, 8210, 8133, 8188, 8233, 8308,4.364352226257324
82, 8180, 8201, 8165, 8193, 8138, 8164, 8183, 8176, 8213, 8201, 8119, 8182, 8217, 8303,4.3725974559783936
83, 8171, 8191, 8152, 8192, 8109, 8146, 8129, 8175, 8197, 8191, 8119, 8173, 8206, 8289,4.380361795425415
84, 8189, 8190, 8179, 8194, 8148, 8155, 8201, 8193, 8207, 8195, 8138, 8177, 8213, 8289,4.388451099395752
85, 8197, 8177, 8189, 8183, 8157, 8169, 8197, 8180, 8209, 8193, 8133, 8171, 8201, 8289,4.396317481994629
86, 8169, 8172, 8142, 8183, 8121, 8166, 8120, 8151, 8195, 8187, 8127, 8163, 8205, 8291,4.403367519378662
87, 8162, 8183, 8150, 8187, 8123, 8176, 8138, 8157, 8205, 8187, 8136, 8175, 8224, 8292,4.4114086627960205
88, 8154, 8181, 8140, 8172, 8120, 8183, 8130, 8163, 8225, 8190, 8128, 8151, 8211, 8282,4.4194605350494385
89, 8164, 8178, 8169, 8163, 8186, 8182, 8238, 8187, 8210, 8165, 8122, 8132, 8173, 8264,4.427339553833008
90, 8164, 8171, 8174, 8163, 8148, 8169, 8181, 8186, 8193, 8137, 8131, 8146, 8168, 8268,4.435482501983643
91, 8131, 8152, 8130, 8137, 8097, 8156, 8117, 8169, 8191, 8129, 8136, 8147, 8163, 8273,4.44330620765686
92, 8132, 8149, 8165, 8117, 8155, 8169, 8227, 8180, 8184, 8129, 8132, 8143, 8134, 8253,4.451367378234863
93, 8123, 8158, 8146, 8133, 8122, 8181, 8146, 8162, 8188, 8135, 8125, 8139, 8129, 8242,4.459427833557129
94, 8127, 8159, 8151, 8122, 8132, 8182, 8180, 8160, 8184, 8122, 8126, 8149, 8127, 8249,4.466427564620972
95, 8153, 8149, 8197, 8100, 8156, 8185, 8227, 8172, 8182, 8126, 8137, 8165, 8129, 8265,4.474345684051514
96, 8149, 8150, 8166, 8114, 8122, 8180, 8133, 8162, 8208, 8158, 8139, 8165, 8153, 8282,4.482263803482056
97, 8137, 8169, 8149, 8137, 8107, 8164, 8120, 8162, 8223, 8170, 8139, 8168, 8173, 8283,4.490443229675293
98, 8134, 8179, 8148, 8150, 8098, 8153, 8121, 8159, 8219, 8167, 8141, 8173, 8172, 8275,4.498441219329834
99, 8168, 8190, 8200, 8164, 8178, 8164, 8227, 8176, 8214, 8160, 8137, 8180, 8154, 8269,4.506377935409546
100, 8186, 8192, 8199, 8168, 8155, 8169, 8159, 8173, 8219, 8151, 8141, 8177, 8158, 8279,4.514299392700195
101, 8173, 8187, 8147, 8158, 8121, 8176, 8087, 8159, 8218, 8144, 8143, 8169, 8174, 8296,4.522258043289185
102, 8218, 8190, 8216, 8153, 8238, 8197, 8260, 8192, 8209, 8148, 8143, 8190, 8167, 8307,4.530337810516357
103, 8228, 8181, 8209, 8146, 8207, 8187, 8181, 8180, 8212, 8162, 8139, 8191, 8170, 8320,4.5374367237091064
104, 8188, 8171, 8164, 8135, 8176, 8175, 8150, 8164, 8209, 8155, 8134, 8171, 8169, 8314,4.545424699783325
105, 8171, 8171, 8199, 8133, 8226, 8189, 8244, 8193, 8205, 8158, 8144, 8173, 8161, 8296,4.553240537643433
106, 8140, 8162, 8163, 8135, 8182, 8195, 8150, 8195, 8219, 8175, 8146, 8158, 8168, 8282,4.561567306518555
107, 8122, 8153, 8126, 8131, 8150, 8190, 8107, 8186, 8231, 8178, 8139, 8147, 8176, 8281,4.569282531738281
108, 8133, 8159, 8130, 8137, 8160, 8193, 8126, 8179, 8237, 8188, 8140, 8158, 8182, 8293,4.57738184928894
109, 8160, 8180, 8171, 8157, 8214, 8211, 8201, 8198, 8247, 8190, 8147, 8182, 8193, 8304,4.584279298782349
110, 8178, 8195, 8163, 8175, 8162, 8218, 8105, 8195, 8262, 8187, 8151, 8191, 8213, 8311,4.5932934284210205
111, 8188, 8191, 8139, 8170, 8153, 8211, 8112, 8174, 8254, 8183, 8139, 8176, 8196, 8293,4.60024619102478
112, 8233, 8182, 8276, 8148, 8316, 8212, 8408, 8212, 8226, 8161, 8133, 8194, 8152, 8272,4.6083221435546875
113, 8205, 8169, 8251, 8152, 8231, 8199, 8193, 8189, 8238, 8175, 8143, 8202, 8184, 8308,4.616373538970947
114, 8161, 8180, 8149, 8175, 8163, 8188, 8042, 8159, 8258, 8206, 8156, 8188, 8232, 8337,4.624425888061523
115, 8195, 8193, 8220, 8169, 8257, 8196, 8246, 8184, 8238, 8199, 8160, 8195, 8207, 8312,4.632349252700806
116, 8182, 8177, 8187, 8155, 8187, 8188, 8126, 8160, 8237, 8181, 8152, 8185, 8189, 8304,4.640520811080933
117, 8152, 8180, 8122, 8166, 8155, 8179, 8064, 8157, 8239, 8174, 8147, 8170, 8198, 8310,4.648400068283081
118, 8159, 8187, 8148, 8164, 8199, 8182, 8157, 8184, 8219, 8170, 8140, 8166, 8198, 8305,4.656573057174683
119, 8132, 8162, 8138, 8137, 8199, 8177, 8159, 8185, 8214, 8166, 8141, 8160, 8190, 8295,4.663303375244141
120, 8085, 8133, 8106, 8113, 8188, 8179, 8135, 8185, 8231, 8159, 8146, 8150, 8169, 8271,4.67146110534668
121, 8063, 8136, 8112, 8112, 8194, 8204, 8156, 8207, 8257, 8180, 8144, 8150, 8168, 8252,4.679320812225342
122, 8063, 8161, 8152, 8132, 8223, 8229, 8210, 8224, 8277, 8208, 8150, 8164, 8191, 8242,4.687391757965088
123, 8054, 8171, 8132, 8151, 8192, 8236, 8132, 8195, 8287, 8203, 8155, 8152, 8185, 8217,4.695400238037109
124, 8083, 8184, 8147, 8170, 8203, 8243, 8178, 8193, 8290, 8192, 8153, 8141, 8152, 8202,4.703538417816162
125, 8161, 8203, 8242, 8193, 8246, 8250, 8298, 8215, 8282, 8195, 8156, 8175, 8156, 8235,4.7114012241363525
126, 8186, 8211, 8225, 8202, 8194, 8236, 8185, 8182, 8269, 8191, 8158, 8201, 8198, 8285,4.719446897506714
127, 8195, 8213, 8207, 8187, 8209, 8224, 8192, 8161, 8235, 8165, 8160, 8203, 8211, 8294,4.727430105209351
238, 8211, 8206, 8204, 8177, 8189, 8207, 8166, 8145, 8204, 8157, 8156, 8200, 8213, 8300,4.7342565059661865
0, 8189, 8192, 8135, 8173, 8129, 8174, 8064, 8110, 8186, 8170, 8150, 8188, 8234, 8330,4.742369651794434
1, 8187, 8188, 8149, 8153, 8185, 8150, 8171, 8121, 8157, 8155, 8148, 8191, 8229, 8342,4.750542640686035
2, 8181, 8176, 8163, 8132, 8182, 8133, 8182, 8139, 8148, 8142, 8146, 8190, 8211, 8333,4.758547306060791
3, 8148, 8158, 8145, 8119, 8161, 8128, 8167, 8156, 8165, 8149, 8145, 8177, 8202, 8321,4.766517877578735
4, 8136, 8159, 8146, 8124, 8153, 8140, 8155, 8173, 8183, 8155, 8147, 8174, 8203, 8308,4.774570465087891
5, 8161, 8174, 8168, 8139, 8167, 8139, 8159, 8190, 8189, 8156, 8154, 8180, 8204, 8302,4.781524896621704
6, 8204, 8187, 8207, 8155, 8188, 8124, 8189, 8209, 8188, 8168, 8164, 8195, 8194, 8313,4.79056978225708
7, 8206, 8192, 8175, 8166, 8125, 8126, 8107, 8185, 8197, 8189, 8173, 8192, 8208, 8331,4.7975804805755615
8, 8218, 8197, 8207, 8164, 8200, 8152, 8215, 8185, 8200, 8184, 8178, 8193, 8217, 8322,4.805394172668457
9, 8221, 8192, 8227, 8160, 8305, 8151, 8199, 8176, 8186, 8168, 8168, 8188, 8191, 8294,4.813348293304443
10, 8173, 8189, 8138, 8171, 8338, 8126, 8070, 8131, 8169, 8147, 8156, 8158, 8163, 8272,4.821330547332764
11, 8190, 8208, 8187, 8188, 8422, 8139, 8242, 8147, 8150, 8128, 8167, 8170, 8149, 8260,4.829571485519409
12, 8224, 8225, 8227, 8200, 8380, 8164, 8206, 8159, 8152, 8148, 8179, 8187, 8164, 8274,4.8372886180877686
13, 8214, 8238, 8170, 8215, 8340, 8172, 8090, 8150, 8168, 8163, 8180, 8182, 8187, 8298,4.84557032585144
14, 8199, 8231, 8161, 8222, 8376, 8179, 8148, 8158, 8172, 8154, 8182, 8181, 8191, 8292,4.853482007980347
15, 8168, 8206, 8155, 8200, 8376, 8185, 8163, 8163, 8176, 8168, 8177, 8168, 8194, 8275,4.860321760177612
16, 8156, 8206, 8169, 8177, 8387, 8189, 8187, 8168, 8170, 8178, 8170, 8161, 8200, 8277,4.868518114089966
17, 8155, 8200, 8158, 8169, 8340, 8179, 8132, 8149, 8145, 8144, 8167, 8160, 8196, 8290,4.876545667648315
18, 8152, 8180, 8154, 8153, 8348, 8174, 8168, 8152, 8119, 8113, 8162, 8164, 8180, 8289,4.884536981582642
19, 8151, 8176, 8172, 8132, 8357, 8175, 8190, 8166, 8115, 8136, 8160, 8169, 8186, 8292,4.89254093170166
20, 8140, 8181, 8133, 8137, 8310, 8172, 8099, 8156, 8138, 8168, 8159, 8152, 8202, 8300,4.900354862213135
21, 8163, 8192, 8168, 8160, 8361, 8180, 8188, 8172, 8140, 8150, 8167, 8150, 8182, 8288,4.908549547195435
22, 8176, 8200, 8189, 8171, 8351, 8180, 8158, 8167, 8138, 8139, 8170, 8160, 8176, 8285,4.916366338729858
23, 8168, 8197, 8170, 8165, 8358, 8183, 8146, 8161, 8154, 8158, 8163, 8168, 8188, 8306,4.9232892990112305
24, 8197, 8196, 8214, 8160, 8410, 8200, 8234, 8186, 8162, 8155, 8166, 8190, 8190, 8324,4.931310176849365
25, 8212, 8205, 8193, 8169, 8339, 8203, 8120, 8170, 8168, 8150, 8179, 8199, 8205, 8345,4.939477920532227
26, 8217, 8214, 8186, 8181, 8337, 8199, 8151, 8167, 8167, 8155, 8179, 8196, 8208, 8344,4.94743800163269
27, 8200, 8208, 8190, 8179, 8347, 8204, 8197, 8171, 8165, 8158, 8162, 8182, 8190, 8304,4.95528244972229
28, 8158, 8197, 8152, 8165, 8320, 8208, 8154, 8150, 8162, 8141, 8156, 8161, 8181, 8269,4.963419198989868
29, 8167, 8185, 8169, 8152, 8332, 8200, 8168, 8147, 8152, 8127, 8174, 8160, 8182, 8278,4.971392631530762
30, 8191, 8183, 8174, 8145, 8315, 8195, 8132, 8149, 8145, 8146, 8179, 8166, 8193, 8312,4.9792869091033936
31, 8199, 8188, 8174, 8135, 8329, 8206, 8185, 8153, 8125, 8146, 8159, 8169, 8188, 8310,4.987327337265015
32, 8161, 8159, 8136, 8110, 8295, 8201, 8151, 8133, 8099, 8115, 8142, 8138, 8153, 8260,4.994419097900391
33, 8102, 8124, 8099, 8088, 8287, 8184, 8133, 8132, 8089, 8098, 8139, 8100, 8117, 8214,5.002361059188843
34, 8110, 8125, 8159, 8078, 8343, 8202, 8221, 8174, 8101, 8109, 8138, 8115, 8110, 8218,5.010298728942871
35, 8133, 8137, 8157, 8100, 8299, 8220, 8129, 8177, 8135, 8134, 8140, 8138, 8136, 8252,5.01846718788147
36, 8173, 8167, 8184, 8144, 8333, 8221, 8201, 8185, 8150, 8145, 8160, 8158, 8152, 8273,5.026346921920776
37, 8205, 8201, 8225, 8167, 8350, 8222, 8235, 8190, 8152, 8155, 8172, 8180, 8169, 8290,5.0344154834747314
38, 8170, 8204, 8164, 8172, 8294, 8214, 8121, 8169, 8166, 8171, 8163, 8178, 8193, 8301,5.042306184768677
39, 8172, 8200, 8199, 8183, 8350, 8218, 8235, 8175, 8157, 8158, 8167, 8188, 8181, 8291,5.050304174423218
40, 8195, 8202, 8228, 8193, 8335, 8220, 8209, 8153, 8139, 8151, 8169, 8197, 8173, 8294,5.057418346405029
41, 8179, 8209, 8171, 8188, 8283, 8210, 8104, 8133, 8141, 8169, 8163, 8183, 8190, 8306,5.065434217453003
42, 8175, 8220, 8150, 8192, 8284, 8208, 8110, 8129, 8145, 8165, 8169, 8177, 8204, 8302,5.073487281799316
43, 8210, 8225, 8178, 8201, 8311, 8211, 8164, 8120, 8141, 8149, 8184, 8185, 8207, 8303,5.081370115280151
44, 8243, 8223, 8214, 8198, 8324, 8207, 8184, 8129, 8130, 8157, 8188, 8197, 8201, 8315,5.089387893676758
45, 8206, 8210, 8160, 8189, 8267, 8200, 8067, 8123, 8128, 8183, 8182, 8188, 8209, 8332,5.097381353378296
46, 8184, 8201, 8177, 8170, 8330, 8214, 8213, 8156, 8133, 8180, 8189, 8183, 8219, 8338,5.1054911613464355
47, 8210, 8190, 8227, 8149, 8340, 8220, 8257, 8207, 8153, 8176, 8200, 8181, 8222, 8331,5.113288164138794
48, 8181, 8171, 8137, 8137, 8235, 8207, 8060, 8208, 8177, 8184, 8179, 8148, 8206, 8313,5.120511531829834
49, 8159, 8166, 8146, 8120, 8316, 8209, 8207, 8211, 8155, 8143, 8151, 8128, 8148, 8269,5.1285240650177
50, 8157, 8158, 8195, 8108, 8355, 8208, 8261, 8198, 8127, 8108, 8158, 8130, 8120, 8237,5.1363444328308105
51, 8134, 8149, 8144, 8116, 8277, 8198, 8117, 8179, 8135, 8126, 8172, 8132, 8145, 8249,5.144509792327881
52, 8135, 8155, 8128, 8123, 8256, 8189, 8109, 8177, 8140, 8137, 8166, 8138, 8153, 8270,5.152489185333252
53, 8162, 8176, 8156, 8142, 8282, 8181, 8150, 8165, 8136, 8142, 8161, 8140, 8146, 8270,5.160543203353882
54, 8192, 8203, 8202, 8176, 8330, 8183, 8201, 8163, 8135, 8150, 8168, 8151, 8152, 8258,5.168405771255493
55, 8179, 8205, 8171, 8181, 8292, 8188, 8120, 8147, 8139, 8151, 8178, 8157, 8170, 8259,5.176364421844482
56, 8168, 8195, 8165, 8166, 8314, 8207, 8170, 8157, 8141, 8152, 8191, 8169, 8186, 8275,5.184328317642212
57, 8192, 8204, 8212, 8172, 8338, 8218, 8220, 8178, 8150, 8184, 8195, 8190, 8212, 8303,5.191290378570557
58, 8184, 8219, 8159, 8190, 8268, 8208, 8084, 8148, 8163, 8210, 8177, 8180, 8236, 8320,5.199371814727783
59, 8208, 8221, 8190, 8184, 8333, 8220, 8206, 8153, 8159, 8190, 8173, 8183, 8226, 8320,5.207368850708008
60, 8243, 8202, 8225, 8161, 8331, 8218, 8209, 8166, 8163, 8184, 8177, 8199, 8220, 8344,5.2153284549713135
61, 8212, 8179, 8153, 8136, 8269, 8179, 8101, 8152, 8154, 8180, 8154, 8175, 8205, 8353,5.223554849624634
62, 8175, 8172, 8159, 8127, 8306, 8167, 8186, 8164, 8121, 8139, 8133, 8150, 8158, 8305,5.231494188308716
63, 8154, 8165, 8164, 8130, 8279, 8176, 8160, 8178, 8123, 8128, 8136, 8146, 8145, 8279,5.239508390426636
64, 8168, 8157, 8169, 8119, 8292, 8186, 8184, 8202, 8143, 8150, 8142, 8158, 8156, 8293,5.247540235519409
65, 8181, 8159, 8166, 8120, 8284, 8189, 8170, 8195, 8139, 8147, 8144, 8159, 8147, 8292,5.255425214767456
66, 8167, 8171, 8142, 8131, 8256, 8178, 8140, 8172, 8132, 8125, 8155, 8149, 8131, 8273,5.262556552886963
67, 8173, 8173, 8182, 8130, 8290, 8179, 8205, 8182, 8132, 8132, 8172, 8161, 8137, 8261,5.270411491394043
68, 8169, 8165, 8179, 8136, 8264, 8193, 8147, 8172, 8130, 8149, 8170, 8170, 8161, 8266,5.278346538543701
69, 8183, 8188, 8187, 8159, 8273, 8192, 8180, 8173, 8126, 8136, 8169, 8179, 8159, 8283,5.286359786987305
70, 8196, 8207, 8188, 8181, 8257, 8172, 8157, 8163, 8122, 8141, 8168, 8186, 8148, 8297,5.294427871704102
71, 8180, 8211, 8159, 8197, 8250, 8185, 8139, 8154, 8135, 8166, 8159, 8176, 8164, 8288,5.302380800247192
72, 8204, 8225, 8224, 8208, 8316, 8225, 8265, 8189, 8160, 8179, 8167, 8187, 8188, 8274,5.31056809425354
73, 8204, 8219, 8207, 8207, 8262, 8226, 8160, 8186, 8185, 8198, 8183, 8187, 8211, 8286,5.317456007003784
74, 8184, 8213, 8166, 8208, 8248, 8219, 8146, 8168, 8176, 8202, 8187, 8180, 8211, 8296,5.325362920761108
75, 8196, 8216, 8187, 8190, 8260, 8224, 8193, 8153, 8147, 8183, 8185, 8184, 8192, 8298,5.333340406417847
76, 8195, 8194, 8161, 8146, 8230, 8206, 8129, 8128, 8137, 8170, 8168, 8170, 8173, 8310,5.341439962387085
77, 8197, 8175, 8177, 8131, 8261, 8189, 8189, 8141, 8127, 8150, 8153, 8159, 8161, 8304,5.349356174468994
78, 8192, 8182, 8177, 8147, 8221, 8182, 8157, 8158, 8126, 8144, 8162, 8155, 8165, 8290,5.3573853969573975
79, 8171, 8182, 8141, 8139, 8190, 8172, 8128, 8161, 8126, 8132, 8174, 8152, 8140, 8281,5.365311622619629
80, 8154, 8165, 8130, 8120, 8205, 8164, 8128, 8155, 8116, 8100, 8166, 8153, 8114, 8278,5.3734588623046875
81, 8149, 8158, 8143, 8122, 8230, 8169, 8159, 8161, 8121, 8105, 8154, 8151, 8132, 8271,5.381369113922119
82, 8173, 8166, 8203, 8125, 8268, 8173, 8252, 8193, 8124, 8125, 8156, 8153, 8135, 8244,5.389272928237915
83, 8166, 8178, 8160, 8140, 8179, 8164, 8095, 8172, 8126, 8130, 8158, 8145, 8127, 8235,5.396462917327881
84, 8171, 8201, 8157, 8159, 8209, 8175, 8146, 8167, 8128, 8122, 8165, 8155, 8144, 8263,5.404388666152954
85, 8212, 8224, 8255, 8166, 8300, 8194, 8297, 8197, 8125, 8117, 8176, 8186, 8154, 8287,5.412411451339722
86, 8180, 8220, 8199, 8182, 8216, 8187, 8116, 8166, 8128, 8125, 8173, 8172, 8149, 8276,5.420480489730835
87, 8158, 8211, 8153, 8197, 8203, 8189, 8104, 8157, 8131, 8133, 8170, 8151, 8147, 8258,5.428414344787598
88, 8182, 8213, 8181, 8191, 8225, 8196, 8164, 8168, 8141, 8151, 8174, 8160, 8164, 8267,5.436529159545898
89, 8154, 8214, 8160, 8177, 8219, 8192, 8139, 8157, 8156, 8161, 8173, 8157, 8167, 8260,5.444472312927246
90, 8102, 8187, 8139, 8155, 8234, 8199, 8157, 8155, 8172, 8163, 8165, 8137, 8153, 8227,5.451470136642456
91, 8083, 8163, 8122, 8136, 8224, 8206, 8157, 8146, 8177, 8175, 8161, 8133, 8158, 8216,5.45955491065979
92, 8119, 8189, 8158, 8150, 8235, 8199, 8184, 8137, 8157, 8173, 8168, 8157, 8173, 8239,5.467414379119873
93, 8148, 8205, 8160, 8177, 8198, 8185, 8101, 8123, 8159, 8163, 8165, 8157, 8187, 8275,5.475585460662842
94, 8154, 8183, 8158, 8165, 8224, 8184, 8161, 8145, 8177, 8160, 8149, 8138, 8182, 8284,5.483522891998291
95, 8158, 8165, 8197, 8137, 8252, 8178, 8237, 8172, 8169, 8162, 8148, 8145, 8160, 8256,5.491322755813599
96, 8130, 8163, 8145, 8141, 8172, 8150, 8082, 8151, 8168, 8168, 8152, 8147, 8163, 8254,5.499519109725952
97, 8158, 8182, 8187, 8158, 8228, 8149, 8215, 8176, 8171, 8149, 8146, 8163, 8161, 8289,5.5075531005859375
98, 8212, 8195, 8255, 8165, 8244, 8160, 8273, 8193, 8155, 8120, 8144, 8177, 8141, 8307,5.515423774719238
99, 8200, 8192, 8186, 8166, 8168, 8154, 8096, 8157, 8141, 8116, 8152, 8163, 8134, 8295,5.52250337600708
100, 8191, 8197, 8166, 8174, 8187, 8150, 8112, 8154, 8137, 8122, 8161, 8172, 8146, 8284,5.530449628829956
101, 8186, 8203, 8173, 8190, 8193, 8159, 8133, 8152, 8127, 8102, 8152, 8175, 8148, 8277,5.538516998291016
102, 8198, 8209, 8203, 8194, 8242, 8177, 8207, 8162, 8110, 8065, 8141, 8164, 8118, 8266,5.546300888061523
103, 8219, 8220, 8213, 8197, 8247, 8184, 8192, 8174, 8122, 8084, 8149, 8171, 8116, 8290,5.554265022277832
104, 8210, 8230, 8177, 8205, 8215, 8192, 8130, 8169, 8140, 8120, 8164, 8173, 8153, 8313,5.562253952026367
105, 8181, 8215, 8181, 8195, 8247, 8210, 8188, 8175, 8137, 8120, 8166, 8159, 8160, 8270,5.570288419723511
106, 8115, 8178, 8133, 8160, 8231, 8211, 8151, 8166, 8163, 8147, 8155, 8142, 8154, 8232,5.578238010406494
107, 8093, 8164, 8131, 8150, 8249, 8209, 8198, 8171, 8191, 8190, 8161, 8155, 8168, 8251,5.585270404815674
108, 8113, 8165, 8145, 8148, 8210, 8197, 8140, 8161, 8182, 8192, 8175, 8161, 8188, 8272,5.593288898468018
109, 8110, 8163, 8118, 8132, 8178, 8174, 8082, 8149, 8178, 8185, 8172, 8144, 8193, 8263,5.601269960403442
110, 8129, 8165, 8195, 8131, 8280, 8185, 8276, 8189, 8192, 8203, 8170, 8160, 8190, 8257,5.609256744384766
111, 8128, 8155, 8195, 8143, 8234, 8199, 8197, 8186, 8212, 8226, 8170, 8165, 8201, 8269,5.617321968078613
112, 8117, 8158, 8141, 8147, 8176, 8186, 8086, 8166, 8225, 8225, 8173, 8156, 8203, 8282,5.625285387039185
113, 8137, 8183, 8156, 8159, 8216, 8171, 8130, 8172, 8233, 8221, 8178, 8171, 8199, 8290,5.633205890655518
114, 8155, 8200, 8172, 8185, 8252, 8176, 8173, 8174, 8233, 8216, 8168, 8178, 8189, 8284,5.641418695449829
115, 8187, 8216, 8226, 8204, 8276, 8191, 8233, 8175, 8202, 8182, 8149, 8165, 8132, 8238,5.64825701713562
116, 8180, 8216, 8188, 8216, 8197, 8188, 8091, 8136, 8166, 8137, 8145, 8132, 8088, 8204,5.656252861022949
117, 8191, 8223, 8210, 8223, 8272, 8184, 8221, 8146, 8134, 8094, 8162, 8137, 8097, 8223,5.664263010025024
118, 8240, 8247, 8299, 8234, 8303, 8189, 8303, 8167, 8108, 8066, 8182, 8184, 8134, 8279,5.672264575958252
119, 8223, 8257, 8205, 8254, 8151, 8182, 8058, 8117, 8104, 8069, 8180, 8198, 8166, 8333,5.680325031280518
120, 8218, 8247, 8191, 8251, 8217, 8187, 8190, 8126, 8094, 8068, 8178, 8207, 8155, 8332,5.6884765625
121, 8207, 8224, 8224, 8222, 8265, 8198, 8244, 8144, 8106, 8094, 8182, 8208, 8153, 8308,5.696499824523926
122, 8141, 8203, 8138, 8202, 8186, 8191, 8063, 8127, 8148, 8152, 8174, 8174, 8176, 8297,5.704493999481201
123, 8126, 8198, 8117, 8192, 8202, 8175, 8095, 8151, 8176, 8185, 8170, 8160, 8181, 8282,5.712566137313843
124, 8147, 8190, 8158, 8171, 8242, 8169, 8195, 8177, 8188, 8199, 8175, 8172, 8183, 8274,5.719409704208374
125, 8159, 8172, 8185, 8150, 8250, 8171, 8226, 8178, 8195, 8211, 8178, 8176, 8196, 8285,5.72741961479187
126, 8140, 8153, 8135, 8143, 8199, 8162, 8118, 8156, 8204, 8233, 8172, 8158, 8207, 8294,5.73549222946167
127, 8130, 8150, 8140, 8140, 8236, 8166, 8190, 8175, 8199, 8235, 8170, 8146, 8192, 8270,5.743443489074707
238, 8137, 8166, 8193, 8148, 8246, 8182, 8227, 8196, 8194, 8218, 8179, 8148, 8181, 8246,5.75141978263855
0, 8126, 8180, 8142, 8173, 8170, 8178, 8074, 8168, 8213, 8229, 8179, 8142, 8195, 8248,5.75935173034668
1, 8171, 8194, 8190, 8189, 8252, 8185, 8222, 8185, 8218, 8236, 8178, 8165, 8191, 8252,5.767307996749878
2, 8208, 8189, 8229, 8193, 8249, 8194, 8223, 8190, 8206, 8217, 8176, 8181, 8180, 8272,5.775254964828491
3, 8173, 8182, 8171, 8194, 8195, 8191, 8111, 8170, 8200, 8201, 8170, 8160, 8189, 8297,5.782443523406982
4, 8171, 8192, 8199, 8192, 8250, 8193, 8213, 8187, 8192, 8200, 8175, 8165, 8202, 8305,5.79033637046814
5, 8171, 8196, 8172, 8196, 8214, 8192, 8154, 8175, 8194, 8202, 8185, 8168, 8214, 8316,5.798420667648315
6, 8163, 8200, 8144, 8194, 8215, 8190, 8164, 8170, 8197, 8184, 8175, 8149, 8195, 8310,5.806366205215454
7, 8160, 8187, 8173, 8176, 8229, 8182, 8201, 8173, 8188, 8163, 8153, 8139, 8163, 8284,5.814425230026245
8, 8123, 8162, 8116, 8157, 8164, 8167, 8069, 8142, 8179, 8160, 8146, 8125, 8154, 8267,5.822443723678589
9, 8087, 8160, 8054, 8157, 8139, 8161, 8019, 8125, 8172, 8156, 8144, 8105, 8141, 8243,5.8304054737091064
10, 8099, 8178, 8091, 8167, 8181, 8170, 8118, 8137, 8158, 8140, 8142, 8106, 8120, 8225,5.838383674621582
11, 8138, 8183, 8169, 8161, 8234, 8178, 8228, 8155, 8140, 8133, 8159, 8133, 8119, 8234,5.846477270126343
12, 8136, 8167, 8157, 8144, 8203, 8169, 8161, 8145, 8141, 8152, 8172, 8143, 8135, 8249,5.853253602981567
13, 8122, 8163, 8143, 8144, 8194, 8165, 8157, 8141, 8146, 8149, 8170, 8139, 8132, 8236,5.8613810539245605
14, 8140, 8173, 8191, 8153, 8211, 8173, 8208, 8139, 8132, 8113, 8174, 8158, 8118, 8221,5.8694987297058105
15, 8133, 8183, 8151, 8176, 8158, 8169, 8090, 8113, 8131, 8125, 8183, 8172, 8141, 8248,5.877439260482788
16, 8170, 8212, 8216, 8202, 8263, 8172, 8281, 8155, 8142, 8157, 8196, 8199, 8165, 8285,5.88547682762146
17, 8223, 8229, 8322, 8206, 8307, 8177, 8367, 8182, 8139, 8151, 8210, 8225, 8164, 8291,5.893319606781006
18, 8168, 8208, 8181, 8191, 8135, 8161, 8028, 8117, 8131, 8132, 8193, 8184, 8155, 8276,5.901427268981934
19, 8144, 8202, 8110, 8186, 8141, 8158, 8062, 8120, 8117, 8124, 8174, 8154, 8148, 8269,5.909394979476929
20, 8176, 8211, 8173, 8196, 8205, 8173, 8213, 8164, 8122, 8139, 8179, 8168, 8163, 8288,5.916409969329834
21, 8173, 8210, 8173, 8187, 8188, 8178, 8178, 8171, 8141, 8154, 8179, 8170, 8168, 8300,5.924440383911133
22, 8169, 8201, 8161, 8167, 8171, 8174, 8156, 8176, 8149, 8157, 8173, 8158, 8154, 8290,5.932419300079346
23, 8159, 8187, 8157, 8155, 8157, 8162, 8157, 8184, 8155, 8172, 8180, 8161, 8167, 8278,5.940363168716431
24, 8145, 8173, 8158, 8142, 8154, 8155, 8165, 8189, 8160, 8174, 8182, 8173, 8178, 8270,5.948519229888916
25, 8137, 8154, 8123, 8127, 8120, 8158, 8103, 8179, 8173, 8163, 8176, 8163, 8179, 8277,5.9565160274505615
26, 8160, 8152, 8169, 8127, 8189, 8171, 8226, 8201, 8181, 8168, 8187, 8168, 8195, 8295,5.964523077011108
27, 8174, 8165, 8227, 8129, 8208, 8176, 8254, 8214, 8186, 8190, 8195, 8193, 8217, 8303,5.97247576713562
28, 8139, 8159, 8144, 8124, 8113, 8165, 8065, 8174, 8196, 8199, 8189, 8179, 8230, 8305,5.980499267578125
29, 8151, 8159, 8165, 8141, 8176, 8171, 8167, 8174, 8182, 8177, 8192, 8177, 8222, 8309,5.987452030181885
30, 8175, 8173, 8216, 8165, 8195, 8175, 8195, 8171, 8165, 8168, 8193, 8194, 8221, 8316,5.995304107666016
31, 8159, 8180, 8168, 8161, 8151, 8162, 8129, 8139, 8157, 8164, 8190, 8187, 8217, 8308,6.003445863723755
32, 8169, 8176, 8183, 8151, 8182, 8163, 8203, 8144, 8148, 8145, 8190, 8184, 8201, 8303,6.011373996734619
33, 8174, 8182, 8187, 8161, 8165, 8162, 8162, 8156, 8153, 8146, 8187, 8181, 8204, 8326,6.019274711608887
34, 8159, 8189, 8169, 8161, 8164, 8155, 8156, 8160, 8161, 8160, 8194, 8176, 8209, 8328,6.0275022983551025
35, 8149, 8167, 8157, 8142, 8161, 8161, 8161, 8160, 8171, 8168, 8204, 8177, 8211, 8304,6.0352466106414795
36, 8152, 8157, 8156, 8144, 8162, 8181, 8176, 8178, 8201, 8171, 8195, 8177, 8205, 8297,6.043200254440308
37, 8154, 8167, 8173, 8151, 8168, 8184, 8177, 8201, 8228, 8183, 8182, 8174, 8193, 8296,6.050483465194702
38, 8127, 8157, 8140, 8141, 8132, 8162, 8095, 8183, 8222, 8195, 8182, 8154, 8192, 8278,6.058298587799072
39, 8138, 8149, 8169, 8136, 8175, 8166, 8195, 8184, 8205, 8184, 8190, 8163, 8195, 8266,6.066379547119141
40, 8162, 8149, 8178, 8140, 8155, 8176, 8165, 8186, 8220, 8191, 8195, 8184, 8207, 8285,6.074481248855591
41, 8152, 8147, 8144, 8135, 8142, 8161, 8126, 8189, 8232, 8203, 8193, 8175, 8207, 8284,6.082463502883911
42, 8168, 8147, 8218, 8126, 8222, 8145, 8277, 8203, 8193, 8177, 8188, 8169, 8176, 8253,6.090390920639038
43, 8152, 8138, 8199, 8129, 8148, 8132, 8148, 8159, 8166, 8159, 8185, 8169, 8175, 8260,6.0984508991241455
44, 8138, 8137, 8146, 8143, 8106, 8145, 8087, 8152, 8179, 8164, 8192, 8181, 8205, 8288,6.106402158737183
45, 8173, 8159, 8190, 8169, 8147, 8164, 8168, 8179, 8186, 8169, 8207, 8200, 8222, 8299,6.113389730453491
46, 8198, 8187, 8214, 8203, 8146, 8162, 8150, 8172, 8182, 8175, 8211, 8212, 8235, 8313,6.121305227279663
47, 8215, 8202, 8239, 8222, 8164, 8161, 8180, 8168, 8171, 8175, 8211, 8233, 8244, 8320,6.1294097900390625
48, 8209, 8194, 8210, 8225, 8143, 8168, 8139, 8151, 8170, 8176, 8211, 8237, 8251, 8317,6.137373447418213
49, 8216, 8207, 8212, 8240, 8172, 8172, 8174, 8160, 8184, 8173, 8210, 8242, 8267, 8326,6.1452977657318115
50, 8238, 8233, 8243, 8266, 8175, 8169, 8157, 8176, 8201, 8183, 8215, 8259, 8288, 8344,6.153425693511963
51, 8222, 8217, 8209, 8255, 8148, 8170, 8116, 8160, 8200, 8201, 8210, 8249, 8276, 8339,6.161390066146851
52, 8212, 8193, 8219, 8228, 8196, 8180, 8217, 8164, 8183, 8181, 8203, 8241, 8247, 8324,6.169294595718384
53, 8207, 8200, 8192, 8233, 8164, 8178, 8116, 8168, 8200, 8176, 8203, 8236, 8266, 8335,6.1765289306640625
54, 8208, 8217, 8187, 8236, 8192, 8171, 8154, 8184, 8216, 8202, 8202, 8226, 8266, 8337,6.184417247772217
55, 8211, 8204, 8226, 8215, 8226, 8172, 8257, 8195, 8199, 8193, 8191, 8222, 8227, 8313,6.192339658737183
56, 8181, 8183, 8160, 8204, 8153, 8180, 8114, 8173, 8207, 8173, 8181, 8207, 8234, 8308,6.200486183166504
57, 8193, 8196, 8166, 8210, 8181, 8191, 8147, 8187, 8232, 8197, 8192, 8204, 8254, 8319,6.208513259887695
58, 8215, 8210, 8198, 8217, 8167, 8176, 8175, 8189, 8234, 8227, 8191, 8194, 8242, 8317,6.216412305831909
59, 8201, 8204, 8171, 8215, 8141, 8157, 8153, 8171, 8221, 8207, 8172, 8180, 8220, 8304,6.224424123764038
60, 8201, 8202, 8170, 8214, 8177, 8165, 8155, 8170, 8216, 8185, 8175, 8187, 8215, 8305,6.2322752475738525
61, 8198, 8212, 8161, 8217, 8184, 8169, 8122, 8159, 8216, 8200, 8188, 8184, 8227, 8312,6.2393529415130615
62, 8200, 8217, 8174, 8206, 8199, 8154, 8182, 8163, 8196, 8202, 8185, 8179, 8222, 8303,6.24734354019165
63, 8186, 8195, 8138, 8180, 8138, 8133, 8119, 8143, 8160, 8172, 8170, 8162, 8188, 8279,6.255258083343506
64, 8171, 8175, 8133, 8166, 8140, 8139, 8163, 8131, 8132, 8137, 8168, 8146, 8152, 8244,6.263388395309448
65, 8171, 8168, 8182, 8161, 8152, 8154, 8215, 8137, 8122, 8136, 8180, 8151, 8156, 8229,6.271292209625244
66, 8143, 8161, 8123, 8145, 8072, 8137, 8076, 8106, 8117, 8151, 8177, 8142, 8176, 8252,6.279414892196655
67, 8159, 8162, 8153, 8123, 8143, 8135, 8207, 8119, 8099, 8126, 8169, 8140, 8149, 8262,6.287414789199829
68, 8178, 8158, 8204, 8127, 8162, 8153, 8225, 8144, 8107, 8117, 8164, 8145, 8127, 8256,6.295367240905762
69, 8165, 8165, 8158, 8151, 8097, 8155, 8102, 8158, 8150, 8157, 8165, 8148, 8161, 8273,6.303561210632324
70, 8172, 8178, 8164, 8150, 8123, 8139, 8160, 8200, 8183, 8179, 8181, 8158, 8190, 8289,6.310577869415283
71, 8150, 8170, 8159, 8136, 8120, 8136, 8151, 8216, 8200, 8181, 8185, 8142, 8188, 8276,6.3185343742370605
72, 8143, 8179, 8178, 8149, 8156, 8159, 8209, 8224, 8202, 8189, 8177, 8140, 8177, 8254,6.326515436172485
73, 8165, 8189, 8186, 8158, 8151, 8169, 8185, 8212, 8212, 8193, 8174, 8165, 8185, 8265,6.334471702575684
74, 8162, 8173, 8149, 8148, 8111, 8172, 8113, 8177, 8220, 8180, 8174, 8164, 8189, 8290,6.342359304428101
75, 8161, 8166, 8165, 8148, 8132, 8181, 8174, 8160, 8192, 8161, 8167, 8147, 8151, 8270,6.3505144119262695
76, 8162, 8181, 8159, 8165, 8120, 8172, 8149, 8142, 8169, 8158, 8158, 8141, 8128, 8241,6.3585240840911865
77, 8186, 8193, 8185, 8168, 8151, 8168, 8205, 8158, 8173, 8151, 8170, 8167, 8148, 8256,6.366431713104248
78, 8188, 8179, 8184, 8155, 8120, 8178, 8171, 8165, 8183, 8159, 8183, 8183, 8185, 8298,6.373307466506958
79, 8151, 8161, 8134, 8139, 8095, 8165, 8128, 8147, 8164, 8157, 8165, 8166, 8176, 8296,6.381424427032471
80, 8158, 8163, 8197, 8126, 8178, 8161, 8273, 8170, 8127, 8113, 8152, 8169, 8128, 8256,6.389389753341675
81, 8166, 8171, 8211, 8136, 8132, 8177, 8186, 8180, 8145, 8121, 8173, 8177, 8150, 8271,6.397467851638794
82, 8143, 8169, 8144, 8150, 8078, 8179, 8102, 8180, 8188, 8163, 8180, 8162, 8181, 8296,6.405418157577515
83, 8124, 8150, 8124, 8137, 8079, 8173, 8135, 8182, 8187, 8159, 8162, 8146, 8148, 8268,6.413544178009033
84, 8127, 8147, 8143, 8130, 8098, 8183, 8152, 8194, 8190, 8169, 8165, 8153, 8149, 8252,6.421417713165283
85, 8166, 8172, 8205, 8152, 8186, 8201, 8214, 8226, 8220, 8207, 8187, 8180, 8194, 8286,6.42957067489624
86, 8169, 8171, 8186, 8164, 8179, 8204, 8143, 8212, 8240, 8208, 8190, 8185, 8212, 8315,6.437496900558472
87, 8146, 8150, 8149, 8147, 8154, 8204, 8147, 8195, 8232, 8187, 8175, 8171, 8194, 8301,6.444465637207031
88, 8150, 8151, 8165, 8141, 8167, 8212, 8174, 8190, 8217, 8207, 8169, 8172, 8187, 8284,6.452519178390503
89, 8162, 8168, 8166, 8162, 8180, 8208, 8149, 8172, 8206, 8205, 8180, 8177, 8196, 8293,6.4605138301849365
90, 8193, 8173, 8209, 8181, 8216, 8203, 8233, 8177, 8194, 8159, 8183, 8188, 8189, 8292,6.468541622161865
91, 8187, 8159, 8187, 8175, 8156, 8187, 8143, 8155, 8188, 8161, 8166, 8181, 8171, 8283,6.476515531539917
92, 8172, 8167, 8162, 8160, 8168, 8184, 8147, 8153, 8172, 8180, 8162, 8174, 8162, 8283,6.484507322311401
93, 8195, 8180, 8205, 8163, 8215, 8195, 8230, 8178, 8161, 8168, 8174, 8187, 8176, 8287,6.492532968521118
94, 8187, 8166, 8174, 8167, 8159, 8194, 8127, 8171, 8184, 8168, 8180, 8186, 8185, 8299,6.500326633453369
95, 8199, 8175, 8185, 8165, 8193, 8195, 8181, 8191, 8202, 8183, 8191, 8198, 8190, 8318,6.507402420043945
96, 8212, 8194, 8190, 8177, 8182, 8198, 8177, 8194, 8195, 8201, 8197, 8207, 8224, 8336,6.515555143356323
97, 8188, 8175, 8152, 8167, 8150, 8194, 8146, 8170, 8180, 8205, 8191, 8195, 8224, 8326,6.523390054702759
98, 8182, 8146, 8177, 8133, 8181, 8185, 8207, 8177, 8175, 8205, 8186, 8202, 8197, 8307,6.531532287597656
99, 8167, 8142, 8166, 8137, 8156, 8186, 8140, 8184, 8195, 8226, 8187, 8204, 8220, 8314,6.539390563964844
100, 8162, 8156, 8161, 8162, 8168, 8209, 8158, 8198, 8226, 8236, 8198, 8197, 8240, 8324,6.547334432601929
101, 8170, 8164, 8154, 8163, 8163, 8214, 8150, 8195, 8250, 8241, 8198, 8197, 8237, 8332,6.555513381958008
102, 8169, 8162, 8155, 8153, 8193, 8203, 8194, 8192, 8245, 8253, 8178, 8192, 8233, 8325,6.563527822494507
103, 8185, 8164, 8204, 8158, 8232, 8207, 8249, 8203, 8222, 8238, 8176, 8189, 8219, 8306,6.5715813636779785
104, 8182, 8166, 8166, 8169, 8167, 8212, 8110, 8178, 8230, 8233, 8177, 8181, 8220, 8314,6.578481435775757
105, 8185, 8171, 8177, 8170, 8209, 8208, 8200, 8189, 8233, 8245, 8170, 8192, 8224, 8324,6.586557865142822
106, 8191, 8166, 8207, 8165, 8212, 8197, 8246, 8208, 8221, 8242, 8178, 8204, 8219, 8310,6.594312906265259
107, 8166, 8154, 8152, 8162, 8138, 8194, 8130, 8185, 8228, 8231, 8180, 8182, 8214, 8295,6.6023924350738525
108, 8152, 8154, 8149, 8152, 8156, 8213, 8151, 8173, 8221, 8219, 8163, 8169, 8204, 8281,6.61031174659729
109, 8139, 8151, 8140, 8135, 8159, 8212, 8141, 8155, 8190, 8200, 8161, 8165, 8188, 8270,6.618347406387329
110, 8135, 8147, 8149, 8129, 8173, 8195, 8190, 8152, 8170, 8185, 8169, 8165, 8165, 8266,6.626362562179565
111, 8132, 8137, 8157, 8131, 8155, 8192, 8159, 8150, 8182, 8187, 8153, 8157, 8146, 8260,6.63435173034668
112, 8131, 8137, 8147, 8134, 8162, 8204, 8143, 8161, 8210, 8190, 8144, 8153, 8147, 8252,6.6413023471832275
113, 8179, 8161, 8208, 8155, 8208, 8214, 8226, 8198, 8230, 8211, 8169, 8190, 8177, 8279,6.649295330047607
114, 8184, 8163, 8179, 8172, 8134, 8199, 8102, 8184, 8249, 8254, 8178, 8198, 8208, 8315,6.65741753578186
115, 8169, 8153, 8162, 8157, 8168, 8199, 8173, 8175, 8237, 8240, 8166, 8183, 8185, 8291,6.66551399230957
116, 8191, 8166, 8213, 8155, 8205, 8208, 8245, 8190, 8224, 8211, 8173, 8196, 8170, 8276,6.673327684402466
117, 8190, 8186, 8178, 8179, 8130, 8191, 8104, 8181, 8234, 8246, 8190, 8207, 8218, 8309,6.681501626968384
118, 8197, 8189, 8184, 8183, 8161, 8186, 8171, 8187, 8224, 8264, 8189, 8207, 8229, 8317,6.689627408981323
119, 8190, 8168, 8187, 8160, 8169, 8198, 8192, 8181, 8210, 8234, 8171, 8190, 8187, 8301,6.697568655014038
120, 8169, 8153, 8157, 8136, 8158, 8195, 8163, 8178, 8213, 8214, 8161, 8176, 8176, 8297,6.7045183181762695
121, 8164, 8153, 8141, 8132, 8156, 8182, 8138, 8178, 8211, 8204, 8172, 8179, 8193, 8290,6.712550163269043
122, 8153, 8154, 8140, 8140, 8168, 8194, 8146, 8174, 8211, 8208, 8188, 8182, 8191, 8277,6.720552682876587
123, 8179, 8159, 8208, 8137, 8215, 8223, 8260, 8200, 8218, 8227, 8199, 8200, 8183, 8279,6.728519678115845
124, 8184, 8153, 8182, 8129, 8140, 8218, 8143, 8188, 8228, 8244, 8200, 8203, 8218, 8301,6.73657751083374
125, 8174, 8145, 8172, 8141, 8168, 8212, 8180, 8186, 8222, 8232, 8201, 8194, 8225, 8301,6.744553327560425
126, 8183, 8148, 8225, 8159, 8208, 8230, 8228, 8192, 8212, 8241, 8203, 8196, 8209, 8282,6.752513408660889
127, 8163, 8164, 8169, 8146, 8134, 8230, 8073, 8168, 8232, 8278, 8188, 8185, 8224, 8281,6.760551452636719
238, 8158, 8169, 8174, 8128, 8195, 8229, 8190, 8186, 8236, 8248, 8172, 8183, 8203, 8276,6.767547369003296
0, 8146, 8133, 8173, 8127, 8189, 8237, 8185, 8191, 8227, 8234, 8179, 8180, 8177, 8266,6.776642084121704
1, 8138, 8129, 8123, 8128, 8131, 8236, 8077, 8183, 8249, 8276, 8202, 8178, 8209, 8274,6.7836010456085205
2, 8172, 8166, 8155, 8136, 8181, 8233, 8157, 8203, 8273, 8276, 8205, 8190, 8221, 8285,6.791550636291504
3, 8174, 8158, 8159, 8153, 8201, 8229, 8179, 8197, 8266, 8267, 8187, 8184, 8185, 8282,6.799330711364746
4, 8160, 8135, 8166, 8163, 8212, 8221, 8199, 8206, 8252, 8277, 8195, 8184, 8166, 8269,6.807441473007202
5, 8156, 8139, 8176, 8162, 8195, 8215, 8162, 8216, 8258, 8261, 8223, 8182, 8180, 8252,6.815550088882446
6, 8139, 8134, 8149, 8149, 8190, 8226, 8148, 8199, 8261, 8242, 8224, 8157, 8178, 8238,6.823589324951172
7, 8138, 8123, 8147, 8143, 8203, 8236, 8172, 8184, 8246, 8266, 8212, 8157, 8169, 8253,6.831515789031982
8, 8150, 8135, 8156, 8161, 8181, 8227, 8144, 8169, 8224, 8271, 8217, 8176, 8182, 8273,6.838517904281616
9, 8159, 8140, 8188, 8157, 8214, 8215, 8212, 8162, 8196, 8242, 8227, 8178, 8185, 8258,6.846516132354736
10, 8141, 8120, 8157, 8124, 8185, 8186, 8143, 8137, 8190, 8250, 8218, 8172, 8181, 8260,6.854545831680298
11, 8136, 8122, 8129, 8134, 8182, 8175, 8136, 8142, 8203, 8258, 8202, 8177, 8186, 8283,6.862548351287842
12, 8175, 8143, 8215, 8157, 8262, 8203, 8287, 8191, 8207, 8247, 8204, 8189, 8181, 8279,6.870474815368652
13, 8163, 8138, 8192, 8149, 8190, 8203, 8149, 8182, 8219, 8271, 8212, 8180, 8194, 8292,6.8783347606658936
14, 8142, 8125, 8147, 8139, 8161, 8185, 8117, 8176, 8230, 8285, 8210, 8174, 8212, 8306,6.886368274688721
15, 8149, 8123, 8172, 8138, 8192, 8194, 8196, 8192, 8229, 8278, 8199, 8175, 8197, 8278,6.894618511199951
16, 8129, 8123, 8147, 8133, 8170, 8205, 8147, 8185, 8226, 8272, 8179, 8164, 8167, 8256,6.901313543319702
17, 8123, 8121, 8144, 8126, 8175, 8199, 8160, 8177, 8218, 8259, 8173, 8165, 8168, 8261,6.909519672393799
18, 8128, 8125, 8150, 8127, 8170, 8186, 8160, 8166, 8217, 8249, 8180, 8166, 8197, 8264,6.917546987533569
19, 8157, 8144, 8180, 8153, 8202, 8184, 8194, 8171, 8216, 8234, 8186, 8180, 8197, 8272,6.925302028656006
20, 8191, 8143, 8186, 8181, 8180, 8188, 8138, 8164, 8213, 8235, 8186, 8201, 8195, 8302,6.933544397354126
21, 8176, 8143, 8158, 8185, 8167, 8192, 8126, 8154, 8219, 8253, 8178, 8198, 8208, 8309,6.941543340682983
22, 8167, 8175, 8200, 8187, 8224, 8198, 8226, 8179, 8219, 8260, 8174, 8200, 8212, 8284,6.949426651000977
23, 8159, 8177, 8170, 8192, 8164, 8197, 8108, 8167, 8221, 8271, 8165, 8198, 8225, 8284,6.957490682601929
24, 8174, 8160, 8168, 8180, 8175, 8194, 8163, 8164, 8218, 8264, 8164, 8198, 8230, 8294,6.964523553848267
25, 8201, 8162, 8226, 8174, 8206, 8186, 8243, 8185, 8212, 8265, 8174, 8213, 8235, 8300,6.972522735595703
26, 8170, 8161, 8171, 8182, 8139, 8165, 8095, 8175, 8217, 8289, 8170, 8214, 8249, 8318,6.980448961257935
27, 8155, 8163, 8155, 8183, 8165, 8160, 8142, 8173, 8211, 8282, 8165, 8207, 8238, 8309,6.9885358810424805
28, 8158, 8164, 8167, 8179, 8166, 8154, 8160, 8157, 8193, 8253, 8156, 8182, 8221, 8276,6.996502161026001
29, 8154, 8159, 8154, 8166, 8150, 8134, 8136, 8143, 8180, 8251, 8140, 8170, 8212, 8272,7.004499673843384
30, 8175, 8155, 8170, 8153, 8160, 8133, 8174, 8155, 8178, 8259, 8138, 8187, 8209, 8297,7.012516498565674
31, 8202, 8171, 8176, 8176, 8150, 8148, 8148, 8157, 8190, 8249, 8149, 8193, 8222, 8307,7.020551681518555
32, 8231, 8193, 8209, 8206, 8189, 8165, 8183, 8169, 8186, 8243, 8153, 8206, 8225, 8319,7.028336763381958
33, 8210, 8175, 8175, 8191, 8167, 8164, 8142, 8157, 8175, 8227, 8146, 8204, 8207, 8336,7.0353662967681885
34, 8184, 8157, 8162, 8166, 8168, 8157, 8189, 8152, 8164, 8198, 8153, 8191, 8198, 8315,7.043395280838013
35, 8213, 8176, 8218, 8194, 8172, 8143, 8200, 8161, 8145, 8195, 8169, 8204, 8217, 8303,7.051311492919922
36, 8220, 8195, 8176, 8233, 8127, 8133, 8079, 8141, 8139, 8205, 8170, 8206, 8231, 8328,7.059467077255249
37, 8226, 8190, 8194, 8216, 8202, 8161, 8220, 8161, 8141, 8190, 8160, 8198, 8192, 8325,7.067512273788452
38, 8237, 8192, 8222, 8199, 8188, 8171, 8197, 8176, 8168, 8205, 8155, 8200, 8184, 8315,7.075377941131592
39, 8221, 8210, 8166, 8216, 8138, 8158, 8085, 8166, 8203, 8245, 8155, 8199, 8239, 8332,7.083447217941284
40, 8207, 8212, 8170, 8209, 8193, 8162, 8180, 8165, 8198, 8240, 8152, 8189, 8247, 8325,7.091468334197998
41, 8184, 8196, 8158, 8186, 8180, 8165, 8154, 8152, 8198, 8243, 8146, 8172, 8216, 8310,7.098485708236694
42, 8193, 8191, 8177, 8198, 8201, 8158, 8195, 8179, 8219, 8269, 8156, 8188, 8218, 8323,7.106467247009277
43, 8211, 8197, 8198, 8218, 8194, 8143, 8187, 8189, 8215, 8274, 8166, 8209, 8238, 8331,7.114478826522827
44, 8189, 8198, 8154, 8204, 8157, 8136, 8121, 8167, 8194, 8252, 8153, 8191, 8219, 8309,7.122492790222168
45, 8194, 8201, 8166, 8188, 8184, 8150, 8157, 8181, 8200, 8232, 8144, 8181, 8193, 8290,7.131555557250977
46, 8206, 8206, 8172, 8205, 8185, 8164, 8132, 8185, 8212, 8243, 8151, 8190, 8211, 8305,7.1383912563323975
47, 8207, 8209, 8190, 8215, 8224, 8166, 8217, 8195, 8199, 8238, 8162, 8197, 8208, 8305,7.146337270736694
48, 8193, 8193, 8175, 8195, 8184, 8159, 8178, 8191, 8200, 8213, 8160, 8180, 8175, 8279,7.154283761978149
49, 8176, 8179, 8132, 8191, 8155, 8163, 8119, 8168, 8200, 8205, 8150, 8159, 8170, 8261,7.162453651428223
50, 8204, 8183, 8197, 8190, 8241, 8184, 8268, 8181, 8180, 8216, 8157, 8175, 8182, 8269,7.169236898422241
51, 8194, 8167, 8185, 8163, 8184, 8186, 8179, 8171, 8180, 8212, 8173, 8175, 8187, 8280,7.177345275878906
52, 8162, 8159, 8135, 8167, 8143, 8175, 8108, 8152, 8182, 8188, 8173, 8163, 8173, 8271,7.185509920120239
53, 8167, 8169, 8154, 8190, 8175, 8180, 8157, 8149, 8178, 8195, 8156, 8170, 8160, 8258,7.1933324337005615
54, 8184, 8173, 8166, 8173, 8176, 8192, 8163, 8166, 8203, 8225, 8153, 8170, 8178, 8274,7.201266527175903
55, 8198, 8174, 8172, 8153, 8184, 8195, 8182, 8196, 8226, 8236, 8172, 8174, 8202, 8301,7.2094550132751465
56, 8167, 8156, 8124, 8148, 8147, 8194, 8119, 8191, 8229, 8239, 8179, 8170, 8196, 8301,7.217401027679443
57, 8154, 8138, 8150, 8128, 8186, 8209, 8215, 8203, 8221, 8226, 8169, 8167, 8172, 8278,7.225352048873901
58, 8168, 8143, 8188, 8126, 8179, 8210, 8205, 8201, 8212, 8209, 8177, 8172, 8180, 8281,7.232518672943115
59, 8154, 8145, 8122, 8143, 8119, 8199, 8086, 8178, 8212, 8219, 8183, 8173, 8198, 8314,7.24039363861084
60, 8163, 8135, 8143, 8119, 8174, 8203, 8212, 8202, 8202, 8219, 8161, 8175, 8171, 8315,7.248492240905762
61, 8153, 8131, 8149, 8107, 8141, 8194, 8165, 8189, 8193, 8202, 8137, 8150, 8151, 8278,7.256296873092651
62, 8148, 8156, 8143, 8149, 8134, 8188, 8150, 8177, 8197, 8195, 8140, 8136, 8159, 8256,7.2644336223602295
63, 8177, 8169, 8195, 8164, 8189, 8205, 8254, 8202, 8205, 8193, 8150, 8158, 8158, 8272,7.27250075340271
64, 8149, 8140, 8155, 8128, 8151, 8214, 8181, 8182, 8203, 8190, 8138, 8141, 8135, 8275,7.280389070510864
65, 8116, 8135, 8136, 8113, 8144, 8197, 8176, 8156, 8170, 8155, 8122, 8112, 8098, 8233,7.288234710693359
66, 8126, 8158, 8145, 8134, 8121, 8185, 8134, 8137, 8143, 8126, 8131, 8118, 8095, 8217,7.29537034034729
67, 8141, 8162, 8133, 8137, 8120, 8201, 8122, 8131, 8143, 8139, 8149, 8137, 8124, 8246,7.303418397903442
68, 8148, 8156, 8142, 8131, 8147, 8215, 8166, 8144, 8152, 8165, 8151, 8148, 8136, 8266,7.311280965805054
69, 8139, 8157, 8136, 8137, 8133, 8203, 8143, 8152, 8171, 8164, 8142, 8140, 8135, 8264,7.319370985031128
70, 8163, 8160, 8181, 8141, 8170, 8196, 8217, 8176, 8182, 8162, 8146, 8157, 8142, 8273,7.3273091316223145
71, 8177, 8155, 8169, 8141, 8138, 8201, 8152, 8176, 8185, 8186, 8152, 8168, 8162, 8298,7.335240125656128
72, 8145, 8153, 8132, 8135, 8142, 8200, 8159, 8183, 8188, 8179, 8151, 8141, 8157, 8287,7.343223333358765
73, 8131, 8144, 8180, 8126, 8199, 8200, 8257, 8210, 8189, 8168, 8149, 8130, 8132, 8249,7.350293397903442
74, 8127, 8132, 8151, 8129, 8130, 8191, 8127, 8195, 8200, 8196, 8142, 8139, 8140, 8260,7.358284950256348
75, 8138, 8142, 8140, 8123, 8140, 8196, 8173, 8203, 8199, 8189, 8140, 8144, 8143, 8272,7.3664350509643555
76, 8125, 8143, 8159, 8106, 8170, 8205, 8225, 8198, 8187, 8163, 8135, 8121, 8121, 8230,7.3743650913238525
77, 8080, 8125, 8122, 8100, 8147, 8184, 8153, 8154, 8170, 8156, 8126, 8093, 8106, 8190,7.382339715957642
78, 8093, 8119, 8137, 8098, 8133, 8177, 8164, 8150, 8158, 8138, 8138, 8122, 8112, 8214,7.390298128128052
79, 8122, 8127, 8135, 8097, 8088, 8187, 8135, 8155, 8157, 8132, 8151, 8149, 8133, 8260,7.398257732391357
80, 8145, 8148, 8163, 8111, 8150, 8186, 8209, 8160, 8138, 8133, 8150, 8145, 8126, 8260,7.4062957763671875
81, 8160, 8167, 8191, 8136, 8166, 8166, 8175, 8149, 8126, 8134, 8150, 8146, 8123, 8255,7.414390563964844
82, 8162, 8175, 8168, 8153, 8127, 8155, 8128, 8139, 8137, 8149, 8161, 8162, 8151, 8280,7.422313690185547
83, 8180, 8174, 8186, 8146, 8155, 8159, 8211, 8152, 8131, 8143, 8169, 8180, 8155, 8303,7.4292566776275635
84, 8164, 8169, 8148, 8133, 8131, 8156, 8121, 8143, 8132, 8132, 8163, 8165, 8147, 8307,7.43733286857605
85, 8172, 8182, 8183, 8148, 8201, 8167, 8222, 8185, 8159, 8155, 8171, 8165, 8163, 8298,7.445358514785767
86, 8194, 8189, 8240, 8175, 8236, 8191, 8278, 8219, 8180, 8184, 8183, 8183, 8194, 8297,7.453511953353882
87, 8153, 8170, 8174, 8168, 8192, 8200, 8158, 8194, 8181, 8171, 8163, 8163, 8183, 8292,7.461572885513306
88, 8141, 8157, 8179, 8144, 8225, 8194, 8225, 8197, 8168, 8149, 8142, 8140, 8132, 8262,7.469388961791992
89, 8144, 8150, 8167, 8148, 8152, 8184, 8147, 8189, 8169, 8158, 8149, 8134, 8129, 8255,7.477411270141602
90, 8128, 8148, 8118, 8148, 8090, 8183, 8068, 8173, 8180, 8157, 8157, 8140, 8156, 8279,7.484509229660034
91, 8129, 8151, 8117, 8124, 8109, 8181, 8111, 8171, 8188, 8158, 8155, 8149, 8160, 8284,7.4935126304626465
92, 8148, 8148, 8142, 8125, 8152, 8181, 8169, 8179, 8191, 8182, 8166, 8158, 8162, 8282,7.50053858757019
93, 8174, 8160, 8192, 8155, 8183, 8188, 8211, 8194, 8170, 8172, 8178, 8178, 8173, 8294,7.508349418640137
94, 8155, 8169, 8153, 8165, 8122, 8181, 8096, 8166, 8142, 8139, 8158, 8163, 8170, 8299,7.516402721405029
95, 8153, 8168, 8155, 8157, 8179, 8173, 8179, 8166, 8140, 8140, 8150, 8146, 8146, 8283,7.524560928344727
96, 8177, 8167, 8192, 8154, 8214, 8173, 8215, 8189, 8173, 8165, 8171, 8166, 8164, 8284,7.532473087310791
97, 8155, 8166, 8135, 8148, 8148, 8161, 8095, 8180, 8193, 8158, 8166, 8170, 8195, 8303,7.540427923202515
98, 8159, 8172, 8183, 8136, 8225, 8170, 8262, 8209, 8165, 8131, 8147, 8164, 8163, 8290,7.548512697219849
99, 8175, 8174, 8218, 8144, 8217, 8188, 8247, 8225, 8169, 8149, 8150, 8165, 8148, 8281,7.555365562438965
100, 8152, 8178, 8134, 8170, 8125, 8180, 8076, 8203, 8207, 8177, 8153, 8161, 8182, 8294,7.563466548919678
101, 8147, 8176, 8122, 8162, 8147, 8162, 8126, 8189, 8194, 8166, 8148, 8158, 8177, 8297,7.571540832519531
102, 8160, 8168, 8153, 8137, 8175, 8152, 8179, 8169, 8162, 8149, 8146, 8161, 8157, 8301,7.579348087310791
103, 8179, 8180, 8171, 8146, 8181, 8158, 8184, 8170, 8160, 8147, 8152, 8176, 8176, 8309,7.587521076202393
104, 8175, 8176, 8151, 8153, 8158, 8153, 8134, 8159, 8163, 8161, 8155, 8174, 8185, 8305,7.595540285110474
105, 8160, 8153, 8150, 8137, 8187, 8153, 8179, 8146, 8148, 8159, 8147, 8161, 8161, 8288,7.603693723678589
106, 8162, 8159, 8169, 8145, 8195, 8166, 8177, 8151, 8143, 8148, 8141, 8162, 8154, 8281,7.611518144607544
107, 8149, 8173, 8136, 8150, 8160, 8163, 8096, 8148, 8153, 8159, 8145, 8153, 8167, 8281,7.619559049606323
108, 8162, 8160, 8188, 8131, 8235, 8158, 8249, 8168, 8137, 8138, 8154, 8156, 8142, 8271,7.626347780227661
109, 8161, 8147, 8185, 8140, 8193, 8161, 8183, 8156, 8131, 8111, 8152, 8164, 8135, 8273,7.634388446807861
110, 8145, 8163, 8127, 8155, 8165, 8175, 8122, 8154, 8154, 8140, 8159, 8161, 8173, 8289,7.64242148399353
111, 8183, 8180, 8212, 8151, 8274, 8193, 8298, 8213, 8170, 8173, 8185, 8175, 8187, 8298,7.650530099868774
112, 8170, 8173, 8197, 8159, 8208, 8187, 8162, 8211, 8185, 8181, 8188, 8172, 8185, 8300,7.65835428237915
113, 8126, 8166, 8120, 8161, 8153, 8178, 8086, 8185, 8188, 8183, 8176, 8163, 8183, 8293,7.6662774085998535
114, 8144, 8161, 8152, 8157, 8200, 8187, 8185, 8198, 8178, 8187, 8173, 8175, 8191, 8297,7.67447829246521
115, 8176, 8168, 8187, 8164, 8222, 8192, 8188, 8211, 8180, 8177, 8178, 8182, 8198, 8306,7.68242621421814
116, 8170, 8180, 8179, 8165, 8211, 8186, 8168, 8203, 8174, 8158, 8171, 8171, 8182, 8289,7.68946385383606
117, 8126, 8169, 8125, 8160, 8166, 8181, 8114, 8175, 8161, 8161, 8155, 8143, 8168, 8264,7.697272062301636
118, 8124, 8161, 8146, 8159, 8201, 8179, 8176, 8180, 8157, 8170, 8159, 8146, 8160, 8258,7.705378293991089
119, 8155, 8170, 8165, 8160, 8206, 8163, 8164, 8177, 8157, 8161, 8171, 8167, 8169, 8271,7.7134175300598145
120, 8168, 8185, 8147, 8163, 8210, 8153, 8168, 8169, 8153, 8152, 8170, 8169, 8184, 8277,7.721433877944946
121, 8175, 8189, 8190, 8156, 8251, 8161, 8249, 8180, 8139, 8152, 8161, 8170, 8164, 8265,7.729468107223511
122, 8138, 8164, 8140, 8141, 8175, 8154, 8094, 8147, 8132, 8153, 8157, 8157, 8151, 8263,7.737446069717407
123, 8135, 8164, 8145, 8151, 8205, 8149, 8163, 8151, 8124, 8145, 8165, 8170, 8169, 8273,7.745400905609131
124, 8187, 8188, 8240, 8181, 8261, 8161, 8280, 8194, 8129, 8156, 8174, 8204, 8186, 8287,7.752370119094849
125, 8188, 8200, 8196, 8199, 8181, 8173, 8109, 8193, 8156, 8180, 8172, 8196, 8195, 8310,7.760309934616089
126, 8176, 8202, 8158, 8188, 8189, 8176, 8131, 8196, 8161, 8172, 8160, 8184, 8193, 8313,7.768519639968872
127, 8151, 8166, 8152, 8150, 8210, 8153, 8202, 8189, 8142, 8155, 8153, 8169, 8174, 8279,7.77660608291626
238, 8134, 8128, 8170, 8136, 8225, 8138, 8241, 8183, 8131, 8153, 8160, 8154, 8151, 8247,7.7843568325042725
0, 8135, 8133, 8161, 8155, 8166, 8151, 8115, 8168, 8135, 8160, 8163, 8156, 8154, 8258,7.792625904083252
1, 8127, 8156, 8122, 8159, 8184, 8154, 8085, 8160, 8137, 8155, 8155, 8161, 8163, 8277,7.800518751144409
2, 8164, 8165, 8228, 8153, 8359, 8150, 8356, 8202, 8125, 8130, 8161, 8177, 8144, 8255,7.808422327041626
3, 8156, 8143, 8200, 8159, 8241, 8140, 8163, 8169, 8135, 8136, 8170, 8168, 8161, 8245,7.8165283203125
4, 8129, 8128, 8123, 8140, 8163, 8151, 8079, 8147, 8142, 8153, 8167, 8158, 8179, 8267,7.823618173599243
5, 8165, 8134, 8202, 8124, 8265, 8168, 8261, 8189, 8131, 8149, 8171, 8181, 8165, 8285,7.831334114074707
6, 8165, 8154, 8167, 8168, 8190, 8157, 8079, 8155, 8147, 8163, 8180, 8183, 8179, 8296,7.83967661857605
7, 8162, 8175, 8126, 8204, 8170, 8158, 8063, 8132, 8146, 8165, 8174, 8182, 8192, 8291,7.847538471221924
8, 8195, 8176, 8187, 8196, 8240, 8175, 8208, 8153, 8118, 8139, 8165, 8190, 8177, 8286,7.8555684089660645
9, 8192, 8174, 8185, 8194, 8237, 8174, 8156, 8151, 8114, 8131, 8164, 8178, 8159, 8293,7.863525629043579
10, 8145, 8170, 8129, 8201, 8208, 8163, 8083, 8138, 8119, 8125, 8159, 8159, 8148, 8278,7.871321439743042
11, 8125, 8155, 8134, 8194, 8240, 8157, 8163, 8155, 8108, 8106, 8152, 8158, 8139, 8253,7.879536867141724
12, 8151, 8146, 8181, 8181, 8269, 8152, 8231, 8177, 8104, 8101, 8153, 8166, 8131, 8257,7.886530876159668
13, 8143, 8139, 8142, 8160, 8209, 8138, 8127, 8157, 8108, 8109, 8148, 8157, 8129, 8265,7.89453649520874
14, 8114, 8138, 8126, 8141, 8219, 8134, 8162, 8162, 8103, 8103, 8150, 8150, 8119, 8247,7.90247106552124
15, 8138, 8147, 8187, 8155, 8261, 8142, 8215, 8188, 8115, 8116, 8165, 8173, 8126, 8257,7.9104602336883545
16, 8165, 8147, 8162, 8176, 8222, 8144, 8107, 8160, 8142, 8155, 8161, 8187, 8153, 8307,7.91832709312439
17, 8189, 8151, 8175, 8178, 8255, 8150, 8216, 8156, 8127, 8131, 8157, 8187, 8150, 8314,7.9265711307525635
18, 8206, 8165, 8216, 8186, 8237, 8162, 8224, 8177, 8110, 8098, 8165, 8183, 8150, 8298,7.934352159500122
19, 8188, 8167, 8167, 8195, 8189, 8162, 8116, 8173, 8120, 8112, 8158, 8168, 8161, 8300,7.942547559738159
20, 8178, 8150, 8169, 8176, 8240, 8162, 8198, 8173, 8111, 8107, 8143, 8158, 8133, 8286,7.950412750244141
21, 8160, 8136, 8156, 8161, 8211, 8160, 8148, 8163, 8103, 8086, 8148, 8143, 8119, 8269,7.957343101501465
22, 8169, 8148, 8164, 8170, 8217, 8155, 8161, 8171, 8120, 8092, 8163, 8157, 8144, 8275,7.965532302856445
23, 8188, 8167, 8191, 8179, 8225, 8148, 8180, 8168, 8134, 8116, 8166, 8181, 8156, 8296,7.9735424518585205
24, 8164, 8167, 8160, 8190, 8195, 8149, 8129, 8137, 8124, 8095, 8150, 8155, 8135, 8287,7.981320858001709
25, 8149, 8153, 8164, 8185, 8228, 8152, 8192, 8134, 8100, 8061, 8151, 8136, 8119, 8246,7.989520072937012
26, 8127, 8134, 8140, 8164, 8208, 8139, 8159, 8139, 8101, 8090, 8169, 8146, 8134, 8238,7.997306823730469
27, 8139, 8146, 8162, 8164, 8224, 8136, 8183, 8160, 8107, 8125, 8177, 8164, 8153, 8272,8.005468845367432
28, 8184, 8170, 8199, 8188, 8217, 8134, 8151, 8160, 8102, 8120, 8178, 8179, 8176, 8306,8.013283252716064
29, 8190, 8171, 8171, 8194, 8196, 8110, 8116, 8150, 8103, 8123, 8171, 8187, 8198, 8320,8.020446062088013
30, 8205, 8174, 8215, 8183, 8252, 8103, 8246, 8185, 8103, 8137, 8164, 8207, 8188, 8316,8.028522968292236
31, 8191, 8167, 8195, 8183, 8193, 8103, 8144, 8177, 8105, 8128, 8158, 8196, 8174, 8310,8.036364316940308
32, 8158, 8154, 8151, 8181, 8180, 8107, 8126, 8161, 8106, 8103, 8144, 8168, 8158, 8291,8.044398546218872
33, 8161, 8163, 8175, 8176, 8215, 8123, 8194, 8167, 8107, 8102, 8140, 8164, 8135, 8266,8.052454471588135
34, 8156, 8163, 8151, 8167, 8173, 8128, 8113, 8153, 8111, 8109, 8144, 8152, 8122, 8254,8.060308456420898
35, 8167, 8147, 8168, 8154, 8205, 8133, 8186, 8169, 8109, 8089, 8148, 8145, 8117, 8259,8.068411827087402
36, 8173, 8144, 8175, 8158, 8199, 8149, 8184, 8183, 8122, 8103, 8153, 8152, 8130, 8270,8.07640027999878
37, 8153, 8165, 8152, 8180, 8180, 8159, 8136, 8182, 8136, 8129, 8154, 8151, 8133, 8261,8.08427619934082
38, 8141, 8167, 8157, 8189, 8201, 8147, 8142, 8177, 8119, 8103, 8150, 8138, 8115, 8241,8.091275691986084
39, 8123, 8145, 8135, 8170, 8203, 8134, 8131, 8160, 8103, 8094, 8147, 8128, 8121, 8240,8.099388122558594
40, 8129, 8147, 8164, 8164, 8242, 8144, 8208, 8174, 8121, 8116, 8152, 8143, 8134, 8241,8.107298851013184
41, 8135, 8156, 8161, 8184, 8206, 8136, 8137, 8165, 8143, 8128, 8154, 8146, 8141, 8243,8.115630149841309
42, 8146, 8153, 8155, 8181, 8209, 8120, 8165, 8160, 8123, 8120, 8156, 8143, 8139, 8248,8.123300790786743
43, 8180, 8157, 8209, 8166, 8239, 8129, 8250, 8178, 8091, 8099, 8154, 8160, 8135, 8258,8.131510257720947
44, 8173, 8164, 8176, 8181, 8168, 8130, 8106, 8158, 8108, 8105, 8156, 8164, 8158, 8279,8.139334678649902
45, 8188, 8172, 8194, 8207, 8212, 8137, 8178, 8165, 8122, 8132, 8169, 8183, 8182, 8298,8.147468566894531
46, 8214, 8176, 8236, 8204, 8237, 8151, 8242, 8179, 8101, 8135, 8162, 8199, 8179, 8304,8.154350757598877
47, 8188, 8182, 8180, 8200, 8175, 8153, 8135, 8160, 8095, 8123, 8155, 8181, 8181, 8300,8.162304878234863
48, 8180, 8192, 8162, 8209, 8189, 8151, 8132, 8159, 8117, 8137, 8164, 8176, 8199, 8310,8.170190811157227
49, 8183, 8188, 8171, 8205, 8215, 8145, 8156, 8165, 8125, 8147, 8160, 8170, 8196, 8306,8.178437948226929
50, 8178, 8184, 8188, 8198, 8230, 8141, 8213, 8173, 8113, 8119, 8159, 8159, 8164, 8270,8.186343431472778
51, 8154, 8184, 8153, 8201, 8180, 8136, 8142, 8171, 8129, 8111, 8171, 8156, 8163, 8260,8.194337606430054
52, 8145, 8188, 8145, 8204, 8207, 8142, 8173, 8191, 8152, 8131, 8185, 8159, 8179, 8273,8.20215106010437
53, 8181, 8200, 8223, 8220, 8251, 8152, 8255, 8214, 8145, 8133, 8200, 8180, 8176, 8268,8.210449695587158
54, 8183, 8209, 8191, 8249, 8155, 8148, 8080, 8187, 8153, 8136, 8208, 8191, 8193, 8281,8.21845006942749
55, 8200, 8213, 8198, 8255, 8195, 8145, 8152, 8195, 8157, 8148, 8200, 8206, 8212, 8314,8.22538423538208
56, 8233, 8207, 8252, 8263, 8217, 8136, 8219, 8201, 8133, 8145, 8190, 8227, 8208, 8327,8.23324704170227
57, 8228, 8210, 8215, 8288, 8152, 8128, 8102, 8165, 8118, 8126, 8183, 8230, 8207, 8330,8.241417169570923
58, 8245, 8224, 8232, 8297, 8202, 8127, 8172, 8162, 8105, 8111, 8184, 8232, 8209, 8327,8.249380111694336
59, 8240, 8215, 8215, 8284, 8178, 8109, 8157, 8146, 8093, 8116, 8180, 8222, 8211, 8320,8.257340908050537
60, 8222, 8214, 8194, 8279, 8170, 8101, 8170, 8139, 8084, 8094, 8171, 8215, 8197, 8313,8.265432596206665
61, 8234, 8227, 8224, 8293, 8193, 8118, 8178, 8151, 8084, 8087, 8175, 8223, 8193, 8325,8.273344993591309
62, 8236, 8224, 8197, 8290, 8166, 8118, 8124, 8149, 8097, 8117, 8164, 8211, 8202, 8332,8.280202627182007
63, 8237, 8219, 8192, 8266, 8176, 8113, 8189, 8166, 8101, 8098, 8136, 8191, 8172, 8309,8.288472652435303
64, 8221, 8216, 8167, 8253, 8161, 8118, 8151, 8164, 8106, 8078, 8140, 8172, 8153, 8299,8.29620885848999
65, 8213, 8213, 8178, 8247, 8207, 8138, 8202, 8171, 8122, 8110, 8160, 8172, 8164, 8307,8.304357290267944
66, 8198, 8191, 8185, 8232, 8191, 8144, 8180, 8170, 8134, 8131, 8154, 8170, 8164, 8298,8.312379121780396
67, 8138, 8159, 8107, 8212, 8131, 8124, 8071, 8141, 8130, 8116, 8141, 8135, 8147, 8271,8.320162773132324
68, 8138, 8162, 8147, 8192, 8228, 8138, 8239, 8168, 8119, 8108, 8148, 8138, 8134, 8248,8.328351974487305
69, 8160, 8170, 8180, 8187, 8210, 8159, 8208, 8185, 8138, 8133, 8153, 8164, 8154, 8254,8.336273193359375
70, 8144, 8167, 8131, 8205, 8136, 8140, 8086, 8174, 8162, 8143, 8149, 8159, 8169, 8277,8.344248294830322
71, 8133, 8162, 8139, 8207, 8173, 8124, 8162, 8174, 8150, 8139, 8149, 8148, 8150, 8273,8.3511643409729
72, 8126, 8153, 8153, 8183, 8192, 8137, 8195, 8159, 8118, 8112, 8147, 8137, 8129, 8245,8.359259843826294
73, 8133, 8147, 8166, 8164, 8182, 8137, 8183, 8139, 8085, 8069, 8146, 8132, 8116, 8226,8.367329120635986
74, 8132, 8143, 8134, 8160, 8126, 8102, 8092, 8109, 8069, 8080, 8151, 8133, 8129, 8238,8.375240802764893
75, 8165, 8160, 8170, 8175, 8178, 8103, 8198, 8130, 8066, 8112, 8164, 8155, 8147, 8266,8.383228778839111
76, 8212, 8177, 8244, 8185, 8220, 8123, 8266, 8175, 8070, 8112, 8168, 8174, 8145, 8285,8.391310453414917
77, 8171, 8159, 8159, 8175, 8129, 8114, 8087, 8173, 8102, 8120, 8149, 8148, 8154, 8288,8.399276494979858
78, 8131, 8138, 8120, 8153, 8142, 8123, 8140, 8205, 8136, 8142, 8141, 8137, 8166, 8280,8.407281398773193
79, 8115, 8129, 8122, 8135, 8132, 8139, 8144, 8219, 8148, 8139, 8149, 8137, 8163, 8273,8.414254665374756
80, 8114, 8131, 8126, 8133, 8143, 8140, 8155, 8200, 8149, 8125, 8158, 8134, 8157, 8268,8.422247886657715
81, 8167, 8136, 8221, 8132, 8213, 8156, 8289, 8211, 8156, 8129, 8165, 8166, 8149, 8274,8.430305242538452
82, 8173, 8134, 8195, 8142, 8138, 8161, 8152, 8191, 8176, 8150, 8157, 8168, 8151, 8287,8.438434839248657
83, 8148, 8155, 8141, 8168, 8126, 8148, 8099, 8165, 8170, 8147, 8147, 8142, 8151, 8270,8.446166276931763
84, 8150, 8182, 8155, 8191, 8166, 8151, 8141, 8155, 8154, 8130, 8155, 8139, 8146, 8248,8.454491376876831
85, 8165, 8180, 8177, 8196, 8200, 8158, 8205, 8158, 8149, 8124, 8165, 8153, 8133, 8256,8.46243929862976
86, 8178, 8164, 8204, 8183, 8208, 8145, 8231, 8156, 8126, 8115, 8160, 8159, 8123, 8261,8.470532655715942
87, 8147, 8156, 8153, 8170, 8155, 8124, 8112, 8126, 8108, 8099, 8146, 8137, 8126, 8241,8.477561473846436
88, 8165, 8180, 8211, 8177, 8257, 8130, 8276, 8150, 8100, 8075, 8146, 8148, 8109, 8221,8.485326528549194
89, 8190, 8194, 8243, 8195, 8243, 8135, 8234, 8154, 8095, 8084, 8157, 8168, 8116, 8239,8.494384527206421
90, 8138, 8166, 8126, 8177, 8130, 8123, 8028, 8116, 8094, 8115, 8162, 8146, 8151, 8262,8.501447439193726
91, 8129, 8142, 8134, 8156, 8197, 8123, 8163, 8142, 8101, 8106, 8165, 8144, 8143, 8252,8.509499311447144
92, 8148, 8147, 8166, 8165, 8209, 8129, 8197, 8173, 8126, 8109, 8166, 8156, 8148, 8262,8.517304182052612
93, 8174, 8161, 8201, 8166, 8207, 8130, 8239, 8203, 8131, 8133, 8174, 8161, 8174, 8284,8.525234460830688
94, 8185, 8159, 8212, 8155, 8171, 8119, 8195, 8204, 8123, 8136, 8181, 8156, 8165, 8280,8.533445358276367
95, 8155, 8156, 8146, 8157, 8127, 8119, 8090, 8177, 8133, 8128, 8174, 8142, 8148, 8264,8.541399717330933
96, 8165, 8153, 8186, 8160, 8194, 8138, 8221, 8192, 8137, 8126, 8170, 8149, 8141, 8241,8.548333406448364
97, 8183, 8135, 8202, 8167, 8162, 8138, 8175, 8183, 8137, 8135, 8176, 8148, 8146, 8239,8.556304693222046
98, 8161, 8135, 8118, 8164, 8095, 8131, 8041, 8161, 8150, 8139, 8172, 8134, 8153, 8258,8.56429123878479
99, 8151, 8146, 8097, 8154, 8128, 8133, 8084, 8162, 8155, 8134, 8162, 8136, 8154, 8270,8.572343349456787
100, 8181, 8161, 8154, 8186, 8179, 8133, 8169, 8156, 8144, 8134, 8167, 8156, 8158, 8271,8.580363512039185
101, 8223, 8188, 8198, 8231, 8180, 8140, 8181, 8164, 8140, 8150, 8177, 8181, 8177, 8288,8.588289976119995
102, 8227, 8195, 8173, 8235, 8142, 8141, 8108, 8170, 8152, 8164, 8175, 8182, 8206, 8322,8.596481800079346
103, 8224, 8180, 8182, 8222, 8176, 8120, 8176, 8177, 8150, 8151, 8182, 8178, 8213, 8331,8.604473114013672
104, 8222, 8166, 8199, 8214, 8173, 8116, 8189, 8179, 8149, 8169, 8196, 8189, 8220, 8325,8.611326694488525
105, 8196, 8173, 8157, 8221, 8149, 8136, 8123, 8181, 8171, 8210, 8195, 8188, 8234, 8335,8.619404077529907
106, 8210, 8191, 8199, 8232, 8220, 8144, 8238, 8205, 8167, 8200, 8182, 8185, 8221, 8333,8.62739610671997
107, 8218, 8173, 8204, 8218, 8178, 8127, 8193, 8185, 8156, 8176, 8164, 8173, 8205, 8313,8.635354280471802
108, 8183, 8144, 8167, 8188, 8150, 8129, 8158, 8168, 8161, 8170, 8147, 8147, 8184, 8282,8.643443584442139
109, 8152, 8141, 8180, 8175, 8184, 8144, 8203, 8178, 8160, 8152, 8145, 8139, 8146, 8253,8.651601552963257
110, 8112, 8135, 8126, 8176, 8115, 8133, 8084, 8158, 8160, 8138, 8146, 8127, 8144, 8243,8.659509420394897
111, 8104, 8125, 8118, 8183, 8130, 8126, 8121, 8167, 8168, 8139, 8147, 8117, 8158, 8237,8.667463302612305
112, 8107, 8124, 8140, 8194, 8159, 8131, 8166, 8182, 8177, 8150, 8152, 8114, 8146, 8217,8.675499677658081
113, 8108, 8130, 8141, 8196, 8152, 8139, 8163, 8177, 8173, 8151, 8163, 8122, 8127, 8206,8.683501720428467
114, 8135, 8145, 8165, 8214, 8153, 8144, 8168, 8170, 8163, 8144, 8171, 8137, 8144, 8216,8.690419435501099
115, 8134, 8159, 8140, 8236, 8136, 8144, 8121, 8155, 8173, 8161, 8165, 8132, 8168, 8223,8.698346138000488
116, 8149, 8163, 8191, 8222, 8208, 8155, 8253, 8170, 8166, 8151, 8164, 8146, 8156, 8221,8.706462860107422
117, 8184, 8163, 8224, 8221, 8184, 8161, 8189, 8153, 8151, 8132, 8176, 8168, 8172, 8264,8.714312076568604
118, 8200, 8173, 8178, 8242, 8131, 8144, 8092, 8122, 8145, 8140, 8180, 8173, 8206, 8310,8.722250699996948
119, 8215, 8174, 8213, 8240, 8188, 8125, 8242, 8143, 8126, 8135, 8174, 8181, 8195, 8288,8.73030400276184
120, 8183, 8153, 8201, 8222, 8155, 8122, 8184, 8148, 8126, 8128, 8167, 8167, 8182, 8264,8.738303184509277
121, 8159, 8155, 8162, 8220, 8135, 8127, 8118, 8145, 8145, 8135, 8168, 8155, 8191, 8286,8.745307445526123
122, 8172, 8162, 8154, 8229, 8135, 8112, 8127, 8146, 8150, 8163, 8171, 8169, 8200, 8301,8.75338077545166
123, 8177, 8144, 8151, 8223, 8138, 8093, 8155, 8147, 8142, 8176, 8164, 8169, 8200, 8285,8.7612783908844
124, 8177, 8130, 8186, 8206, 8154, 8093, 8195, 8164, 8133, 8155, 8154, 8162, 8185, 8268,8.769301652908325
125, 8156, 8125, 8157, 8194, 8101, 8085, 8113, 8166, 8140, 8155, 8155, 8157, 8174, 8273,8.777525424957275
126, 8160, 8124, 8171, 8186, 8151, 8095, 8215, 8192, 8151, 8177, 8168, 8167, 8181, 8288,8.785478591918945
127, 8165, 8109, 8178, 8176, 8147, 8119, 8184, 8193, 8168, 8192, 8174, 8172, 8191, 8293,8.793326616287231
238, 8145, 8092, 8140, 8170, 8113, 8122, 8104, 8177, 8187, 8190, 8167, 8160, 8186, 8282,8.8013596534729
0, 8187, 8112, 8222, 8180, 8203, 8130, 8283, 8205, 8185, 8181, 8176, 8175, 8170, 8268,8.809353113174438
1, 8197, 8130, 8205, 8196, 8149, 8140, 8178, 8173, 8180, 8183, 8181, 8164, 8169, 8257,8.816335201263428
2, 8152, 8121, 8129, 8192, 8102, 8133, 8082, 8127, 8165, 8149, 8154, 8123, 8148, 8225,8.824357271194458
3, 8144, 8105, 8169, 8175, 8156, 8127, 8204, 8137, 8133, 8092, 8137, 8116, 8113, 8195,8.832435846328735
4, 8156, 8106, 8190, 8177, 8158, 8140, 8209, 8134, 8119, 8084, 8148, 8131, 8107, 8205,8.840330362319946
5, 8162, 8114, 8179, 8185, 8143, 8156, 8162, 8121, 8123, 8100, 8149, 8134, 8103, 8216,8.848413705825806
6, 8141, 8105, 8143, 8182, 8112, 8140, 8095, 8108, 8120, 8091, 8141, 8113, 8106, 8203,8.85642957687378
7, 8141, 8108, 8187, 8183, 8173, 8138, 8219, 8132, 8103, 8083, 8155, 8117, 8110, 8181,8.864363193511963
8, 8138, 8113, 8180, 8200, 8133, 8150, 8146, 8138, 8109, 8111, 8163, 8127, 8119, 8182,8.872416734695435
9, 8111, 8105, 8093, 8193, 8074, 8148, 8042, 8132, 8129, 8134, 8146, 8115, 8129, 8205,8.87948489189148
10, 8159, 8109, 8207, 8164, 8227, 8162, 8314, 8196, 8117, 8118, 8150, 8144, 8128, 8221,8.887563467025757
11, 8174, 8105, 8221, 8161, 8180, 8160, 8189, 8191, 8125, 8129, 8163, 8166, 8159, 8244,8.895449876785278
12, 8129, 8094, 8091, 8177, 8060, 8134, 7985, 8140, 8138, 8151, 8157, 8144, 8187, 8267,8.903412103652954
13, 8139, 8094, 8124, 8162, 8109, 8134, 8136, 8150, 8115, 8125, 8151, 8144, 8163, 8265,8.91144585609436
14, 8151, 8084, 8163, 8129, 8117, 8140, 8165, 8157, 8110, 8101, 8147, 8148, 8141, 8256,8.919490814208984
15, 8156, 8073, 8162, 8132, 8131, 8136, 8159, 8168, 8130, 8114, 8149, 8148, 8147, 8259,8.927595615386963
16, 8157, 8084, 8163, 8159, 8127, 8148, 8143, 8178, 8149, 8139, 8153, 8152, 8155, 8270,8.935561180114746
17, 8142, 8108, 8167, 8170, 8118, 8168, 8158, 8182, 8167, 8148, 8151, 8148, 8143, 8252,8.942439317703247
18, 8147, 8116, 8181, 8166, 8123, 8173, 8177, 8189, 8188, 8144, 8162, 8150, 8133, 8233,8.950525283813477
19, 8169, 8115, 8178, 8174, 8128, 8168, 8148, 8188, 8192, 8149, 8177, 8153, 8148, 8255,8.958482027053833
