COUNTER,F3, FC5,AF3,F7,T7,P7,O1,O2,P8,T8,F8,AF4,FC6,F4,Timestamp,goodbye_event
72,8169,8176,8137,8191,8141,8152,8123,8166,8156,8196,8160,8176,8192,8327,0.0017976760864257,False
73,8186,8183,8160,8191,8191,8170,8229,8189,8174,8199,8158,8179,8186,8324,0.0098695755004882,False
74,8219,8202,8267,8188,8246,8176,8327,8214,8178,8193,8170,8209,8186,8312,0.0179638862609863,False
75,8183,8194,8176,8194,8114,8134,8069,8156,8177,8202,8175,8194,8202,8327,0.0257322788238525,False
76,8165,8184,8119,8212,8107,8120,8078,8138,8172,8203,8171,8180,8207,8338,0.0339250564575195,False
77,8184,8187,8152,8226,8137,8156,8123,8162,8179,8217,8170,8187,8222,8337,0.0419919490814209,False
78,8189,8200,8169,8229,8162,8179,8158,8178,8195,8243,8177,8189,8232,8335,0.0497374534606933,False
79,8219,8208,8245,8216,8234,8173,8319,8202,8182,8236,8185,8200,8210,8333,0.0579729080200195,False
80,8211,8196,8206,8204,8166,8158,8184,8180,8181,8227,8174,8189,8205,8338,0.0649716854095459,False
81,8194,8195,8185,8201,8175,8166,8172,8173,8186,8222,8167,8181,8206,8327,0.0728869438171386,False
82,8210,8192,8212,8204,8188,8174,8195,8182,8170,8209,8171,8187,8208,8323,0.0810399055480957,False
83,8204,8178,8145,8202,8109,8162,8083,8166,8173,8215,8172,8185,8228,8354,0.0889821052551269,False
84,8182,8180,8099,8193,8094,8158,8054,8164,8202,8239,8176,8183,8231,8357,0.0969605445861816,False
85,8161,8185,8096,8189,8117,8161,8064,8160,8199,8238,8173,8169,8216,8311,0.1048440933227539,False
86,8208,8190,8218,8187,8234,8167,8307,8186,8146,8190,8170,8183,8183,8276,0.1129684448242187,False
87,8231,8187,8237,8187,8192,8159,8235,8181,8126,8173,8162,8197,8158,8295,0.1208693981170654,False
88,8169,8172,8106,8188,8092,8145,8022,8140,8143,8190,8161,8179,8174,8316,0.1289489269256591,False
89,8174,8176,8172,8198,8193,8158,8222,8161,8140,8180,8181,8198,8196,8297,0.1358582973480224,False
90,8201,8197,8205,8225,8168,8171,8170,8164,8156,8192,8188,8215,8220,8312,0.1439871788024902,False
91,8221,8227,8172,8253,8145,8176,8110,8165,8172,8227,8177,8216,8234,8358,0.1517119407653808,False
92,8250,8228,8217,8253,8210,8184,8243,8188,8158,8221,8173,8221,8228,8357,0.1598827838897705,False
93,8213,8196,8177,8226,8158,8178,8163,8169,8159,8208,8175,8203,8233,8334,0.1679794788360595,False
94,8184,8187,8141,8206,8137,8174,8110,8159,8171,8223,8175,8195,8243,8339,0.1757910251617431,False
95,8202,8197,8153,8211,8161,8181,8134,8167,8176,8233,8165,8196,8243,8344,0.1838927268981933,False
96,8213,8197,8170,8217,8185,8185,8196,8181,8174,8221,8167,8189,8219,8315,0.1920084953308105,False
97,8190,8178,8151,8208,8141,8177,8136,8182,8173,8215,8176,8179,8214,8296,0.1989133358001709,False
98,8168,8158,8125,8189,8118,8168,8100,8179,8181,8214,8164,8174,8225,8307,0.20701265335083,False
99,8197,8158,8196,8162,8196,8177,8250,8201,8183,8200,8154,8191,8206,8321,0.2149028778076172,False
100,8203,8164,8178,8157,8144,8174,8145,8187,8180,8202,8164,8206,8213,8338,0.2229573726654052,False
101,8201,8175,8157,8178,8142,8173,8146,8181,8181,8206,8174,8217,8242,8349,0.2307620048522949,False
102,8217,8187,8217,8199,8177,8181,8221,8194,8182,8205,8174,8221,8241,8345,0.2388980388641357,False
103,8203,8199,8165,8217,8112,8172,8088,8151,8180,8220,8174,8206,8238,8345,0.2468245029449463,False
104,8234,8219,8198,8230,8187,8164,8226,8128,8143,8192,8177,8219,8227,8340,0.2549850940704345,False
105,8243,8213,8218,8225,8180,8141,8210,8109,8096,8147,8167,8214,8195,8321,0.2618272304534912,False
106,8182,8194,8132,8217,8106,8121,8055,8091,8091,8151,8158,8179,8180,8294,0.2699258327484131,False
107,8186,8201,8157,8224,8168,8136,8145,8128,8122,8187,8171,8193,8205,8300,0.2778902053833008,False
108,8222,8208,8196,8230,8203,8157,8200,8171,8162,8216,8182,8217,8240,8345,0.2858588695526123,False
109,8222,8206,8216,8230,8212,8176,8239,8203,8177,8215,8175,8216,8228,8351,0.2939140796661377,False
110,8165,8191,8134,8220,8130,8182,8078,8174,8181,8216,8161,8183,8206,8316,0.3019320964813232,False
111,8151,8173,8134,8199,8180,8193,8176,8173,8183,8208,8159,8167,8189,8285,0.3097250461578369,False
112,8205,8168,8248,8182,8251,8208,8326,8214,8172,8193,8158,8184,8167,8274,0.3181271553039551,False
113,8167,8158,8135,8173,8104,8192,8045,8172,8174,8196,8150,8156,8172,8274,0.3249571323394775,False
114,8153,8157,8148,8173,8176,8183,8210,8183,8176,8182,8162,8159,8164,8262,0.332951545715332,False
115,8187,8167,8244,8184,8224,8195,8297,8221,8185,8186,8176,8196,8174,8278,0.3409669399261474,False
116,8157,8175,8124,8203,8088,8195,7997,8180,8204,8221,8170,8187,8218,8315,0.3489394187927246,False
117,8166,8183,8112,8216,8127,8190,8085,8173,8209,8223,8177,8193,8226,8319,0.3568434715270996,False
118,8200,8192,8191,8229,8187,8185,8210,8184,8207,8213,8186,8214,8223,8320,0.3649330139160156,False
119,8204,8200,8192,8233,8177,8178,8148,8170,8191,8213,8182,8218,8242,8337,0.3729720115661621,False
120,8203,8192,8156,8227,8149,8167,8092,8163,8184,8211,8179,8216,8249,8341,0.3810756206512451,False
121,8205,8185,8163,8226,8169,8168,8171,8181,8195,8215,8181,8213,8233,8339,0.3890008926391601,False
122,8197,8180,8187,8214,8188,8172,8193,8186,8195,8219,8180,8211,8227,8339,0.3959403038024902,False
123,8165,8168,8148,8197,8145,8171,8076,8161,8191,8211,8174,8197,8232,8324,0.4038352966308594,True
124,8173,8176,8169,8198,8188,8180,8178,8173,8185,8193,8169,8180,8207,8297,0.4118437767028808,True
125,8187,8185,8182,8205,8193,8178,8206,8179,8177,8193,8158,8162,8179,8289,0.4197866916656494,True
126,8157,8176,8127,8197,8150,8167,8121,8165,8175,8194,8147,8157,8182,8293,0.4277682304382324,True
127,8159,8175,8178,8186,8207,8175,8219,8191,8169,8182,8157,8176,8175,8280,0.4357199668884277,True
238,8155,8173,8172,8192,8175,8183,8138,8183,8168,8183,8162,8164,8160,8265,0.4439756870269775,True
0,8128,8166,8137,8191,8174,8188,8146,8171,8173,8183,8154,8152,8156,8257,0.4519085884094238,True
1,8108,8162,8161,8180,8197,8194,8203,8178,8170,8182,8153,8160,8160,8259,0.4589166641235351,True
2,8100,8168,8134,8180,8154,8185,8113,8165,8174,8197,8159,8162,8182,8278,0.4669468402862549,True
3,8159,8185,8187,8186,8205,8182,8212,8183,8178,8207,8177,8201,8211,8307,0.4749431610107422,True
4,8190,8182,8199,8185,8182,8182,8161,8173,8174,8206,8176,8221,8228,8333,0.482743501663208,True
5,8183,8178,8165,8187,8156,8174,8121,8147,8165,8195,8156,8203,8218,8336,0.4909713268280029,True
6,8195,8192,8183,8198,8183,8163,8189,8156,8161,8187,8146,8194,8201,8317,0.4988815784454345,True
7,8189,8193,8169,8203,8171,8145,8155,8160,8165,8189,8146,8180,8192,8301,0.5068082809448242,True
8,8189,8182,8196,8198,8202,8145,8216,8176,8162,8178,8144,8180,8179,8290,0.5149116516113281,True
9,8160,8156,8148,8183,8154,8150,8135,8159,8158,8166,8127,8161,8169,8271,0.5229215621948242,True
10,8131,8139,8131,8165,8186,8149,8188,8144,8132,8149,8112,8134,8143,8231,0.5297648906707764,True
11,8142,8141,8197,8155,8242,8165,8276,8167,8121,8141,8114,8141,8123,8212,0.5378761291503906,True
12,8116,8142,8133,8158,8156,8180,8111,8165,8162,8173,8119,8145,8163,8236,0.5459365844726562,True
13,8110,8148,8154,8167,8202,8189,8207,8181,8170,8186,8120,8154,8186,8242,0.553746223449707,True
14,8121,8158,8188,8190,8202,8183,8203,8184,8161,8184,8114,8158,8181,8232,0.5617296695709229,True
15,8123,8191,8149,8242,8150,8169,8102,8167,8184,8208,8112,8158,8203,8247,0.5699145793914795,True
16,8149,8228,8195,8286,8197,8172,8175,8172,8188,8221,8117,8175,8217,8264,0.5779151916503906,True
17,8148,8229,8196,8293,8200,8171,8157,8157,8182,8215,8112,8171,8211,8272,0.5859198570251465,True
18,8147,8216,8169,8279,8212,8173,8162,8137,8168,8201,8101,8161,8204,8274,0.593073844909668,True
19,8145,8204,8136,8268,8190,8179,8081,8107,8139,8182,8091,8155,8195,8263,0.6009511947631836,True
20,8134,8196,8157,8253,8236,8178,8166,8120,8125,8159,8088,8149,8163,8243,0.6089110374450684,True
21,8154,8197,8226,8242,8274,8171,8267,8164,8122,8150,8099,8162,8150,8248,0.617058515548706,True
22,8143,8192,8148,8247,8158,8165,8059,8135,8118,8159,8104,8162,8179,8279,0.624922513961792,True
23,8141,8182,8169,8240,8223,8187,8214,8148,8108,8146,8102,8165,8166,8268,0.6329574584960938,True
24,8139,8166,8229,8225,8258,8203,8298,8195,8122,8144,8099,8155,8138,8241,0.6408522129058838,True
25,8103,8147,8130,8220,8150,8201,8077,8188,8153,8161,8090,8124,8141,8236,0.6489002704620361,True
26,8113,8148,8127,8211,8192,8216,8137,8198,8173,8152,8091,8130,8139,8226,0.6568820476531982,True
27,8135,8167,8169,8217,8219,8222,8179,8207,8188,8162,8109,8151,8154,8232,0.6639847755432129,True
28,8159,8189,8191,8245,8212,8218,8176,8195,8183,8192,8130,8176,8188,8261,0.6720178127288818,True
29,8185,8197,8197,8254,8210,8221,8168,8172,8153,8193,8124,8189,8200,8285,0.679987907409668,True
30,8185,8193,8173,8236,8211,8208,8157,8148,8131,8163,8105,8170,8179,8286,0.6878306865692139,True
31,8188,8190,8187,8222,8212,8181,8181,8145,8123,8146,8105,8164,8153,8260,0.6958355903625488,True
32,8171,8183,8154,8221,8146,8178,8081,8130,8128,8157,8114,8162,8161,8241,0.703942060470581,True
33,8188,8206,8195,8245,8206,8195,8181,8153,8140,8162,8124,8179,8183,8261,0.7121412754058838,True
34,8210,8231,8228,8285,8216,8197,8191,8168,8149,8163,8128,8197,8191,8289,0.7200613021850586,True
35,8181,8218,8160,8292,8159,8182,8097,8138,8138,8154,8118,8185,8184,8277,0.7269949913024902,True
36,8197,8205,8229,8264,8248,8171,8267,8160,8113,8128,8122,8199,8172,8254,0.7348744869232178,True
37,8204,8205,8237,8251,8203,8157,8166,8171,8119,8134,8134,8215,8192,8274,0.7429885864257812,True
38,8176,8204,8158,8259,8139,8170,8068,8161,8132,8153,8135,8204,8202,8287,0.7508761882781982,True
39,8182,8196,8193,8253,8203,8188,8206,8188,8127,8152,8126,8203,8187,8268,0.7587716579437256,True
40,8192,8186,8206,8237,8201,8174,8197,8211,8144,8167,8118,8208,8204,8272,0.7668280601501465,True
41,8194,8197,8195,8237,8192,8181,8171,8216,8172,8195,8131,8213,8221,8294,0.7748227119445801,True
42,8181,8210,8158,8250,8184,8211,8108,8197,8198,8225,8144,8205,8235,8311,0.7828881740570068,True
43,8206,8227,8186,8271,8240,8229,8191,8214,8222,8254,8147,8212,8264,8328,0.7898337841033936,True
44,8246,8245,8230,8281,8237,8238,8201,8229,8239,8278,8156,8235,8290,8355,0.7979414463043213,True
45,8224,8240,8161,8267,8168,8242,8082,8200,8254,8292,8152,8221,8301,8376,0.8058516979217529,True
46,8230,8232,8198,8240,8256,8243,8263,8218,8240,8265,8133,8208,8276,8363,0.8138666152954102,True
47,8228,8216,8184,8215,8207,8223,8187,8197,8214,8233,8123,8187,8246,8338,0.8218226432800293,True
48,8192,8202,8117,8198,8153,8207,8087,8154,8201,8227,8127,8167,8231,8324,0.8298876285552979,True
49,8200,8198,8200,8179,8276,8197,8293,8164,8172,8209,8121,8172,8201,8296,0.8379533290863037,True
50,8173,8184,8176,8162,8247,8160,8207,8131,8135,8169,8097,8146,8160,8262,0.8458247184753418,True
51,8145,8182,8119,8159,8192,8144,8101,8106,8107,8138,8097,8130,8138,8249,0.8529582023620605,False
52,8164,8186,8133,8168,8187,8154,8095,8115,8093,8143,8114,8133,8144,8253,0.8608810901641846,False
53,8172,8188,8143,8172,8213,8152,8150,8122,8086,8152,8117,8128,8149,8251,0.8689491748809814,False
54,8170,8191,8173,8173,8230,8157,8197,8141,8093,8152,8125,8144,8156,8252,0.8768620491027832,False
55,8163,8200,8161,8195,8183,8182,8101,8161,8137,8184,8141,8171,8185,8288,0.88478684425354,False
56,8175,8214,8201,8219,8239,8218,8193,8208,8180,8229,8161,8210,8221,8324,0.8929140567779541,False
57,8156,8211,8179,8221,8220,8234,8146,8232,8218,8262,8170,8223,8267,8332,0.9009382724761964,False
58,8146,8211,8122,8218,8197,8242,8109,8226,8249,8278,8169,8208,8302,8339,0.9087629318237304,False
59,8232,8245,8215,8231,8269,8251,8266,8234,8247,8276,8172,8223,8297,8365,0.916815996170044,False
60,8293,8274,8223,8257,8194,8243,8131,8208,8247,8296,8176,8237,8315,8406,0.9238908290863036,False
61,8318,8276,8239,8273,8211,8253,8173,8204,8251,8301,8181,8252,8333,8419,0.9318368434906006,False
62,8327,8265,8267,8271,8240,8268,8232,8210,8255,8279,8174,8250,8309,8405,0.9398562908172609,False
63,8286,8263,8182,8264,8174,8242,8110,8189,8263,8266,8154,8200,8272,8375,0.9478588104248048,False
64,8265,8258,8190,8250,8207,8219,8184,8189,8239,8235,8143,8170,8228,8317,0.9558966159820556,False
65,8237,8229,8185,8234,8198,8219,8151,8158,8192,8185,8135,8160,8190,8262,0.964033842086792,False
66,8221,8224,8165,8231,8201,8208,8149,8141,8161,8152,8133,8160,8157,8244,0.971956729888916,False
67,8227,8246,8185,8251,8204,8187,8169,8146,8160,8151,8136,8169,8144,8253,0.9798901081085204,False
68,8204,8246,8177,8274,8185,8179,8147,8134,8155,8144,8142,8178,8148,8250,0.9877188205718994,False
69,8199,8230,8212,8272,8225,8171,8214,8144,8136,8133,8153,8207,8150,8225,0.9948582649230956,False
70,8200,8219,8192,8261,8172,8148,8106,8141,8143,8148,8162,8221,8170,8240,1.0030114650726318,False
71,8209,8227,8201,8254,8183,8155,8159,8163,8150,8150,8171,8227,8181,8290,1.0108356475830078,False
72,8205,8232,8221,8255,8214,8186,8209,8181,8143,8148,8173,8236,8186,8317,1.0189096927642822,False
73,8166,8219,8156,8255,8181,8195,8116,8155,8152,8164,8166,8223,8199,8298,1.0267176628112793,False
74,8195,8218,8217,8256,8238,8204,8253,8175,8159,8153,8169,8234,8198,8285,1.034945011138916,False
75,8227,8224,8224,8265,8193,8202,8180,8178,8172,8158,8169,8240,8219,8327,1.0429513454437256,False
76,8213,8218,8163,8251,8171,8192,8125,8163,8189,8192,8168,8221,8237,8342,1.0508522987365725,False
77,8206,8202,8180,8229,8207,8199,8182,8174,8199,8203,8174,8204,8227,8320,1.058030605316162,False
78,8184,8194,8141,8228,8183,8194,8128,8171,8206,8203,8168,8180,8228,8332,1.0659799575805664,False
79,8172,8199,8162,8219,8241,8182,8237,8185,8182,8195,8146,8166,8210,8324,1.0739479064941406,False
80,8143,8186,8142,8184,8188,8166,8123,8178,8168,8195,8138,8141,8191,8282,1.0820424556732178,False
81,8141,8176,8146,8147,8207,8165,8168,8188,8173,8204,8159,8138,8196,8273,1.0901353359222412,False
82,8183,8181,8242,8150,8284,8169,8325,8206,8159,8197,8168,8169,8194,8291,1.097853660583496,False
83,8154,8182,8145,8176,8150,8154,8051,8158,8159,8206,8145,8156,8201,8306,1.106009006500244,False
84,8138,8192,8074,8177,8119,8161,8002,8145,8176,8219,8146,8144,8212,8319,1.1139180660247805,False
85,8157,8195,8121,8166,8176,8169,8134,8152,8169,8208,8162,8150,8199,8300,1.1210739612579346,False
86,8150,8190,8148,8185,8217,8152,8203,8133,8138,8176,8151,8132,8155,8240,1.1289761066436768,False
87,8159,8198,8168,8201,8225,8149,8202,8123,8129,8159,8141,8113,8127,8218,1.1370716094970703,False
88,8168,8211,8148,8204,8178,8167,8106,8122,8157,8185,8161,8121,8163,8282,1.144991397857666,False
89,8187,8225,8181,8232,8229,8182,8188,8149,8175,8208,8179,8168,8215,8353,1.1531367301940918,False
90,8190,8229,8180,8248,8225,8173,8182,8153,8158,8186,8167,8192,8226,8376,1.1608214378356934,False
91,8159,8222,8146,8222,8188,8146,8144,8144,8137,8152,8153,8178,8206,8380,1.1688499450683594,False
92,8123,8202,8145,8191,8195,8131,8171,8153,8128,8154,8155,8160,8193,8364,1.1768836975097656,False
93,8073,8163,8080,8160,8153,8143,8120,8150,8148,8178,8144,8134,8194,8339,1.1850261688232422,False
94,8075,8146,8129,8131,8213,8169,8264,8190,8181,8182,8146,8143,8179,8324,1.1918232440948486,False
95,8085,8147,8165,8130,8200,8167,8188,8200,8199,8192,8158,8151,8174,8316,1.2000236511230469,False
96,8064,8149,8111,8133,8158,8157,8075,8166,8194,8199,8148,8123,8168,8299,1.2078959941864014,False
97,8104,8166,8187,8126,8238,8163,8256,8177,8171,8175,8145,8129,8124,8274,1.2161369323730469,False
98,8122,8171,8178,8149,8176,8153,8138,8154,8159,8164,8148,8129,8103,8260,1.2238750457763672,False
99,8111,8169,8136,8170,8165,8154,8104,8130,8138,8155,8138,8113,8098,8232,1.232006549835205,False
100,8133,8183,8185,8167,8222,8169,8214,8149,8125,8149,8138,8118,8081,8226,1.2399230003356934,False
101,8152,8196,8179,8178,8185,8164,8144,8150,8142,8153,8147,8123,8086,8261,1.246837139129639,False
102,8170,8199,8171,8194,8178,8174,8136,8141,8150,8144,8153,8132,8111,8287,1.255159616470337,False
103,8171,8202,8166,8202,8196,8190,8151,8139,8161,8153,8159,8144,8145,8301,1.2630510330200195,False
104,8180,8210,8195,8205,8231,8179,8218,8160,8165,8167,8171,8160,8167,8315,1.2708919048309326,False
105,8184,8204,8184,8199,8164,8167,8114,8158,8162,8164,8174,8169,8180,8328,1.2789528369903564,False
106,8176,8208,8148,8200,8147,8177,8082,8158,8182,8173,8172,8169,8199,8332,1.286853313446045,False
107,8205,8226,8231,8220,8253,8183,8285,8206,8205,8198,8175,8188,8214,8334,1.2949202060699463,False
108,8186,8217,8188,8222,8169,8163,8137,8198,8219,8217,8164,8181,8226,8346,1.302825689315796,False
109,8164,8207,8148,8202,8170,8162,8141,8190,8210,8204,8145,8170,8215,8338,1.3097965717315674,False
110,8183,8207,8223,8199,8245,8168,8273,8205,8183,8185,8140,8181,8189,8317,1.3178904056549072,False
111,8156,8194,8156,8198,8154,8146,8099,8163,8171,8190,8143,8168,8191,8321,1.3260626792907717,False
112,8155,8188,8149,8187,8169,8135,8133,8155,8163,8185,8151,8172,8195,8332,1.33384370803833,False
113,8181,8186,8191,8187,8182,8138,8165,8159,8151,8172,8151,8185,8193,8339,1.342038869857788,False
114,8193,8193,8190,8193,8172,8140,8169,8145,8136,8155,8146,8179,8182,8335,1.3498785495758057,False
115,8209,8198,8207,8188,8179,8146,8182,8135,8119,8136,8146,8181,8165,8318,1.3580317497253418,False
116,8193,8183,8172,8187,8145,8163,8101,8120,8119,8140,8148,8178,8169,8311,1.3658368587493896,False
117,8199,8198,8212,8212,8200,8181,8209,8140,8124,8142,8155,8185,8170,8316,1.3740103244781494,False
118,8210,8216,8197,8223,8172,8164,8144,8136,8131,8142,8154,8174,8178,8339,1.3807575702667236,False
119,8202,8203,8170,8198,8184,8154,8165,8144,8142,8138,8146,8165,8179,8350,1.3887672424316406,False
120,8197,8192,8214,8186,8225,8173,8248,8182,8150,8140,8149,8180,8175,8338,1.3968091011047363,False
121,8154,8187,8132,8190,8135,8160,8068,8167,8166,8162,8148,8158,8198,8337,1.4049065113067627,False
122,8144,8181,8131,8172,8176,8141,8169,8181,8169,8163,8144,8142,8190,8331,1.4129571914672852,False
123,8151,8166,8173,8159,8192,8149,8222,8198,8167,8156,8147,8148,8169,8317,1.420921802520752,False
124,8117,8150,8123,8161,8142,8154,8118,8164,8167,8157,8144,8141,8171,8307,1.4288992881774902,False
125,8128,8159,8140,8158,8167,8156,8151,8150,8151,8146,8147,8146,8169,8306,1.4368886947631836,False
126,8163,8187,8165,8179,8158,8154,8134,8157,8153,8158,8156,8170,8188,8336,1.44486665725708,False
127,8193,8203,8202,8199,8195,8160,8213,8181,8175,8181,8164,8199,8208,8356,1.4520151615142822,False
238,8191,8197,8198,8192,8181,8158,8183,8169,8182,8177,8164,8191,8195,8340,1.4598770141601562,False
0,8182,8208,8169,8204,8149,8142,8111,8143,8166,8162,8161,8174,8173,8329,1.467921018600464,False
1,8220,8225,8208,8224,8197,8155,8190,8167,8170,8167,8164,8203,8179,8354,1.475846290588379,False
2,8236,8223,8189,8231,8202,8187,8175,8176,8207,8190,8166,8214,8210,8380,1.484004020690918,False
3,8223,8227,8193,8252,8218,8201,8205,8167,8197,8180,8167,8202,8213,8358,1.4918973445892334,False
4,8197,8228,8185,8271,8158,8186,8105,8146,8164,8162,8161,8187,8193,8325,1.4998090267181396,False
5,8179,8224,8151,8256,8144,8175,8093,8136,8166,8155,8152,8168,8171,8313,1.5078697204589844,False
6,8201,8221,8223,8232,8254,8176,8311,8146,8150,8136,8147,8176,8147,8289,1.514772891998291,False
7,8170,8201,8182,8215,8174,8159,8171,8116,8121,8129,8139,8161,8142,8272,1.5228123664855957,False
8,8134,8191,8120,8199,8115,8137,8074,8112,8113,8126,8142,8134,8144,8276,1.5307681560516355,False
9,8133,8188,8133,8185,8160,8119,8141,8132,8118,8124,8142,8124,8141,8279,1.5389399528503418,False
10,8118,8166,8126,8168,8180,8128,8184,8145,8136,8134,8138,8125,8133,8268,1.5469541549682615,False
11,8125,8149,8168,8148,8191,8167,8231,8187,8166,8146,8147,8142,8129,8260,1.555034875869751,False
12,8111,8140,8137,8138,8132,8181,8094,8190,8195,8161,8148,8135,8141,8262,1.5630414485931396,False
13,8115,8142,8174,8133,8205,8196,8229,8211,8201,8161,8142,8141,8129,8256,1.5710012912750244,False
14,8126,8134,8190,8119,8189,8220,8209,8229,8217,8164,8141,8152,8123,8267,1.579160451889038,False
15,8101,8115,8100,8108,8124,8219,8065,8200,8236,8162,8137,8130,8134,8287,1.585845708847046,False
16,8145,8123,8222,8115,8276,8222,8348,8224,8215,8139,8149,8151,8106,8275,1.5938847064971924,False
17,8149,8134,8232,8132,8183,8230,8202,8214,8222,8153,8162,8168,8115,8272,1.6019947528839111,False
18,8095,8141,8076,8148,8034,8224,7952,8165,8243,8170,8151,8146,8154,8287,1.6100449562072754,False
19,8120,8148,8115,8150,8139,8213,8143,8153,8201,8132,8142,8145,8137,8283,1.6178350448608398,False
20,8142,8133,8174,8139,8186,8194,8194,8125,8151,8099,8141,8143,8104,8269,1.6259796619415283,False
21,8124,8125,8157,8127,8148,8173,8131,8114,8136,8094,8135,8134,8092,8254,1.633908748626709,False
22,8105,8126,8116,8122,8111,8156,8094,8130,8127,8089,8129,8130,8093,8244,1.6418802738189695,False
23,8102,8120,8137,8113,8163,8161,8193,8155,8121,8094,8138,8140,8104,8241,1.6488239765167236,False
24,8104,8121,8181,8095,8191,8167,8234,8171,8132,8121,8147,8149,8119,8249,1.6568429470062256,False
25,8091,8119,8143,8085,8126,8141,8123,8161,8150,8148,8140,8132,8126,8257,1.6649863719940186,False
26,8094,8108,8136,8088,8138,8132,8145,8164,8161,8149,8140,8130,8125,8249,1.6729495525360107,False
27,8083,8103,8126,8097,8138,8156,8132,8171,8180,8157,8143,8142,8139,8250,1.6807904243469238,False
28,8081,8119,8144,8105,8166,8165,8202,8193,8189,8166,8147,8152,8146,8263,1.6887178421020508,False
29,8111,8139,8209,8123,8192,8153,8237,8203,8180,8159,8153,8168,8139,8266,1.6967887878417969,False
30,8100,8139,8149,8141,8118,8141,8054,8169,8188,8163,8148,8158,8146,8261,1.7050318717956543,False
31,8112,8141,8167,8134,8178,8162,8193,8190,8189,8155,8146,8159,8139,8258,1.7118370532989502,False
32,8141,8146,8211,8131,8179,8185,8232,8200,8181,8137,8152,8167,8127,8268,1.7198140621185305,False
33,8140,8161,8165,8154,8117,8186,8105,8173,8189,8137,8153,8165,8139,8278,1.7279727458953855,False
34,8147,8176,8177,8181,8152,8195,8151,8181,8199,8150,8151,8171,8155,8272,1.7360186576843262,False
35,8131,8176,8155,8198,8140,8206,8125,8171,8206,8157,8149,8163,8161,8273,1.7440531253814695,False
36,8162,8187,8211,8203,8206,8221,8256,8189,8209,8147,8157,8176,8157,8292,1.7521445751190186,False
37,8190,8186,8240,8193,8199,8227,8221,8196,8211,8155,8157,8187,8171,8304,1.7599620819091797,False
38,8137,8163,8143,8168,8130,8205,8094,8153,8196,8162,8150,8156,8167,8280,1.7680530548095703,False
39,8116,8151,8138,8136,8150,8169,8178,8146,8165,8138,8153,8138,8125,8248,1.7759830951690674,False
40,8110,8138,8107,8106,8103,8154,8099,8150,8171,8136,8149,8130,8118,8243,1.782989263534546,False
41,8112,8128,8133,8091,8163,8178,8197,8177,8180,8145,8146,8136,8128,8238,1.7910432815551758,False
42,8116,8117,8190,8086,8198,8182,8247,8190,8163,8149,8152,8145,8118,8231,1.798845291137695,False
43,8083,8100,8121,8074,8112,8154,8085,8164,8154,8155,8149,8129,8117,8237,1.806968212127685,False
44,8077,8096,8123,8060,8137,8147,8145,8176,8161,8155,8149,8136,8127,8234,1.8149995803833008,False
45,8086,8100,8155,8074,8150,8153,8168,8193,8186,8165,8152,8151,8141,8238,1.8228435516357424,False
46,8099,8108,8156,8105,8141,8162,8154,8198,8205,8175,8149,8158,8151,8261,1.83087158203125,False
47,8117,8123,8144,8117,8132,8169,8142,8198,8207,8176,8158,8166,8171,8284,1.8390183448791504,False
48,8113,8131,8130,8116,8141,8174,8166,8197,8210,8171,8174,8160,8189,8283,1.8458869457244875,False
49,8111,8128,8177,8119,8192,8191,8246,8200,8200,8153,8174,8160,8180,8260,1.853995561599732,False
50,8103,8128,8158,8138,8153,8202,8135,8178,8193,8156,8165,8159,8189,8265,1.8620779514312744,False
51,8123,8149,8174,8161,8184,8214,8200,8189,8197,8170,8171,8173,8206,8282,1.8701083660125728,False
52,8149,8159,8205,8169,8178,8225,8205,8195,8215,8174,8177,8184,8207,8278,1.8781523704528809,False
53,8133,8155,8148,8168,8118,8217,8076,8168,8240,8192,8172,8167,8226,8289,1.8861241340637207,False
54,8151,8172,8217,8163,8225,8211,8275,8192,8228,8196,8173,8174,8228,8291,1.8941466808319087,False
55,8135,8167,8203,8147,8177,8191,8200,8182,8208,8181,8166,8159,8193,8259,1.90213680267334,False
56,8093,8137,8107,8126,8083,8176,8040,8154,8217,8178,8151,8132,8168,8240,1.910149097442627,False
57,8127,8128,8155,8127,8142,8187,8157,8179,8222,8183,8156,8155,8186,8273,1.91711688041687,False
58,8157,8139,8175,8139,8157,8190,8184,8180,8211,8182,8162,8166,8206,8303,1.9249372482299805,False
59,8157,8143,8187,8134,8179,8190,8214,8168,8186,8167,8155,8157,8181,8284,1.933013200759888,False
60,8130,8127,8166,8127,8154,8192,8153,8147,8170,8155,8143,8144,8159,8266,1.941064596176148,False
61,8110,8125,8136,8130,8139,8183,8158,8137,8161,8137,8139,8135,8144,8258,1.9488883018493648,False
62,8129,8138,8159,8134,8134,8179,8190,8146,8143,8123,8152,8149,8132,8253,1.9570581912994385,False
63,8132,8139,8146,8138,8103,8186,8118,8136,8136,8140,8162,8163,8155,8269,1.9649677276611328,False
64,8157,8148,8192,8158,8160,8196,8206,8155,8148,8155,8168,8187,8177,8287,1.971764326095581,False
65,8176,8161,8193,8189,8113,8192,8116,8149,8159,8160,8167,8190,8188,8301,1.980130910873413,False
66,8181,8173,8181,8200,8111,8188,8125,8121,8139,8150,8168,8184,8195,8312,1.9881503582000728,False
67,8201,8175,8251,8181,8202,8191,8291,8135,8112,8145,8178,8193,8197,8301,1.9962680339813232,False
68,8163,8153,8179,8166,8125,8183,8121,8138,8128,8175,8170,8168,8207,8284,2.005134344100952,False
69,8142,8145,8144,8160,8131,8180,8138,8161,8145,8185,8163,8156,8205,8275,2.0119690895080566,False
70,8140,8140,8169,8140,8164,8176,8201,8170,8146,8172,8166,8162,8190,8266,2.0200674533843994,False
71,8108,8122,8126,8121,8127,8169,8125,8155,8158,8178,8161,8143,8184,8255,2.0280098915100098,False
72,8117,8117,8156,8122,8154,8171,8192,8177,8170,8184,8154,8139,8173,8244,2.0360257625579834,False
73,8127,8113,8157,8127,8129,8168,8150,8177,8178,8183,8158,8142,8163,8246,2.0430424213409424,False
74,8120,8112,8148,8129,8126,8176,8145,8173,8181,8181,8170,8147,8167,8238,2.050964832305908,False
75,8117,8115,8140,8131,8119,8183,8134,8181,8188,8193,8174,8154,8184,8237,2.0590250492095947,False
76,8129,8119,8137,8131,8135,8185,8175,8191,8191,8201,8173,8158,8191,8259,2.0670647621154785,False
77,8161,8129,8204,8143,8184,8192,8253,8197,8178,8185,8175,8174,8174,8271,2.074876308441162,False
78,8148,8134,8158,8164,8121,8180,8091,8163,8183,8181,8165,8159,8164,8267,2.083093643188477,False
79,8158,8149,8181,8162,8184,8170,8222,8174,8175,8166,8166,8160,8145,8254,2.091066837310791,False
80,8205,8175,8265,8179,8201,8173,8272,8180,8146,8149,8182,8195,8149,8265,2.098970651626587,False
81,8211,8199,8200,8230,8094,8171,8045,8129,8137,8158,8189,8200,8192,8302,2.106050491333008,False
82,8235,8217,8199,8257,8144,8172,8144,8137,8116,8151,8195,8207,8202,8317,2.114144802093506,False
83,8236,8209,8205,8239,8154,8164,8172,8150,8086,8129,8196,8203,8184,8313,2.122011184692383,False
84,8192,8174,8170,8203,8141,8151,8139,8135,8061,8101,8180,8174,8150,8294,2.130047082901001,False
85,8157,8140,8159,8169,8156,8143,8181,8131,8047,8086,8170,8162,8129,8263,2.138031005859375,False
86,8144,8136,8137,8159,8140,8146,8170,8143,8078,8122,8175,8166,8166,8255,2.146050214767456,False
87,8165,8148,8167,8157,8158,8160,8195,8176,8131,8176,8182,8171,8185,8270,2.1540069580078125,False
88,8150,8132,8139,8140,8129,8158,8108,8171,8156,8197,8175,8155,8168,8273,2.1620051860809326,False
89,8151,8122,8162,8129,8182,8151,8218,8182,8144,8183,8177,8163,8169,8263,2.1690826416015625,False
90,8184,8129,8214,8128,8182,8158,8244,8213,8148,8179,8186,8182,8183,8272,2.1770472526550293,False
91,8155,8125,8140,8127,8094,8169,8082,8202,8176,8192,8179,8165,8180,8280,2.18501353263855,False
92,8148,8124,8182,8138,8188,8194,8250,8229,8179,8198,8183,8174,8169,8262,2.193042278289795,False
93,8159,8124,8208,8151,8177,8215,8200,8245,8193,8214,8197,8185,8187,8266,2.2009849548339844,False
94,8155,8134,8147,8165,8111,8216,8068,8218,8226,8218,8200,8174,8197,8275,2.2090542316436768,False
95,8170,8153,8168,8185,8170,8215,8180,8192,8220,8194,8189,8171,8178,8259,2.217012405395508,False
96,8155,8147,8159,8183,8179,8220,8177,8162,8194,8176,8177,8155,8162,8242,2.224891662597656,False
97,8150,8140,8180,8170,8197,8237,8210,8169,8180,8149,8182,8157,8147,8233,2.233067512512207,False
98,8158,8144,8181,8175,8157,8235,8150,8172,8182,8130,8183,8160,8150,8235,2.2400662899017334,False
99,8149,8141,8151,8178,8143,8211,8140,8168,8182,8138,8179,8147,8155,8230,2.2480673789978027,False
100,8142,8137,8168,8160,8172,8203,8178,8168,8175,8141,8174,8145,8133,8213,2.2560434341430664,False
101,8121,8132,8140,8141,8135,8197,8097,8149,8173,8137,8168,8143,8130,8210,2.2640469074249268,False
102,8133,8132,8178,8134,8178,8183,8205,8168,8164,8133,8174,8152,8139,8213,2.272067070007324,False
103,8143,8125,8179,8136,8140,8170,8141,8164,8166,8143,8169,8153,8141,8210,2.2798008918762207,False
104,8135,8118,8145,8136,8114,8178,8096,8162,8178,8156,8161,8151,8150,8224,2.2880609035491943,False
105,8164,8123,8219,8132,8185,8181,8266,8207,8177,8164,8174,8180,8171,8256,2.2960848808288574,False
106,8160,8119,8184,8145,8116,8155,8150,8192,8187,8187,8181,8188,8193,8277,2.302980661392212,False
107,8162,8129,8167,8162,8127,8171,8150,8186,8203,8202,8184,8199,8209,8294,2.3110504150390625,False
108,8195,8148,8207,8166,8158,8206,8201,8210,8215,8217,8201,8221,8242,8323,2.319068431854248,False
109,8213,8158,8189,8183,8124,8198,8148,8207,8231,8235,8212,8229,8275,8351,2.32686448097229,False
110,8242,8174,8222,8216,8163,8195,8204,8207,8234,8233,8204,8232,8280,8353,2.334846258163452,False
111,8240,8180,8196,8222,8138,8201,8146,8187,8228,8226,8201,8207,8276,8344,2.3429224491119385,False
112,8230,8180,8175,8202,8146,8198,8177,8188,8219,8221,8199,8191,8260,8329,2.3509438037872314,False
113,8209,8166,8164,8191,8138,8191,8140,8194,8223,8222,8183,8184,8248,8321,2.358821392059326,False
114,8168,8145,8134,8180,8137,8187,8124,8180,8221,8211,8170,8156,8221,8298,2.3668367862701416,False
115,8171,8145,8203,8156,8207,8198,8289,8192,8183,8172,8181,8153,8166,8258,2.3738231658935547,False
116,8140,8132,8153,8136,8125,8194,8135,8172,8173,8161,8196,8145,8156,8245,2.381897687911988,False
117,8104,8109,8106,8123,8125,8173,8135,8155,8178,8156,8202,8127,8155,8222,2.389975309371948,False
118,8123,8107,8170,8124,8184,8160,8254,8164,8158,8133,8216,8137,8121,8193,2.397881269454956,False
119,8123,8127,8146,8149,8134,8156,8146,8160,8157,8141,8234,8148,8122,8214,2.405879259109497,False
120,8131,8138,8163,8159,8157,8164,8185,8180,8175,8160,8251,8157,8128,8233,2.413861989974976,False
121,8149,8136,8185,8165,8146,8169,8164,8178,8187,8172,8257,8161,8127,8233,2.421891927719116,False
122,8186,8158,8209,8200,8155,8180,8182,8173,8187,8180,8267,8190,8157,8266,2.429975748062134,False
123,8214,8177,8217,8227,8140,8180,8143,8168,8191,8192,8287,8225,8203,8304,2.4369404315948486,False
124,8194,8186,8166,8239,8109,8176,8075,8142,8199,8203,8288,8217,8231,8304,2.445140600204468,False
125,8224,8201,8232,8254,8202,8199,8245,8155,8194,8210,8292,8229,8226,8298,2.45281720161438,False
126,8246,8192,8214,8261,8141,8214,8130,8161,8217,8246,8298,8240,8235,8335,2.4610698223114014,False
127,8247,8186,8178,8258,8118,8214,8114,8178,8236,8254,8293,8240,8254,8367,2.4690279960632324,False
238,8265,8187,8237,8250,8184,8210,8252,8192,8203,8221,8277,8236,8239,8346,2.4769654273986816,False
0,8217,8160,8162,8220,8122,8196,8112,8149,8171,8209,8266,8195,8203,8312,2.485025405883789,False
1,8166,8122,8109,8163,8133,8189,8121,8154,8166,8204,8268,8167,8182,8293,2.493131399154663,False
2,8157,8106,8122,8129,8147,8184,8151,8174,8160,8183,8262,8158,8181,8280,2.5008347034454346,False
3,8149,8123,8131,8144,8142,8174,8142,8159,8151,8171,8247,8137,8144,8247,2.5080294609069824,False
4,8134,8134,8142,8166,8163,8160,8163,8144,8158,8182,8231,8123,8101,8210,2.5160903930664062,False
5,8115,8114,8121,8163,8155,8150,8143,8142,8182,8192,8218,8126,8108,8209,2.524038791656494,False
6,8120,8103,8149,8151,8169,8155,8204,8177,8195,8183,8230,8152,8110,8223,2.531959056854248,False
7,8115,8105,8135,8154,8128,8161,8134,8182,8211,8186,8241,8166,8115,8242,2.540065050125122,False
8,8123,8106,8138,8159,8165,8166,8189,8177,8216,8183,8225,8169,8128,8240,2.5480496883392334,False
9,8155,8111,8205,8156,8197,8175,8258,8192,8197,8167,8218,8183,8108,8213,2.5560414791107178,False
10,8149,8112,8153,8167,8091,8167,8069,8175,8198,8173,8224,8174,8091,8219,2.5630385875701904,False
11,8188,8121,8205,8182,8171,8168,8230,8183,8192,8164,8227,8200,8092,8254,2.5710415840148926,False
12,8222,8133,8265,8197,8203,8185,8278,8184,8185,8159,8228,8235,8126,8289,2.579996109008789,False
13,8191,8147,8168,8220,8113,8202,8083,8165,8209,8186,8233,8218,8174,8324,2.5870378017425537,False
14,8222,8176,8181,8253,8159,8217,8161,8190,8221,8204,8237,8221,8187,8357,2.594970226287842,False
15,8264,8194,8202,8275,8162,8219,8171,8195,8211,8201,8229,8228,8191,8370,2.60280990600586,False
16,8258,8184,8194,8251,8170,8224,8194,8192,8182,8166,8213,8205,8169,8336,2.6110680103302,False
17,8213,8146,8167,8196,8153,8212,8161,8178,8151,8127,8190,8166,8120,8282,2.619065284729004,False
18,8131,8107,8105,8155,8128,8181,8117,8142,8137,8114,8177,8126,8085,8232,2.6269025802612305,False
19,8086,8088,8125,8128,8171,8168,8201,8140,8128,8113,8179,8113,8063,8188,2.6340317726135254,False
20,8069,8074,8112,8111,8135,8153,8130,8135,8129,8125,8174,8110,8060,8168,2.642015218734741,False
21,8077,8079,8123,8113,8145,8142,8173,8147,8141,8149,8175,8128,8075,8172,2.6500725746154785,False
22,8082,8088,8135,8118,8135,8145,8158,8154,8159,8173,8176,8141,8096,8191,2.658058881759644,False
23,8094,8093,8125,8124,8134,8145,8135,8156,8174,8177,8166,8143,8109,8212,2.6660759449005127,False
24,8169,8113,8235,8147,8227,8156,8312,8197,8178,8173,8169,8186,8116,8226,2.6740636825561523,False
25,8184,8118,8219,8163,8155,8169,8169,8184,8199,8195,8178,8204,8141,8246,2.681982517242432,False
26,8160,8126,8154,8184,8121,8178,8094,8170,8228,8225,8174,8193,8165,8262,2.689828395843506,False
27,8184,8145,8193,8220,8172,8185,8184,8196,8249,8240,8163,8201,8178,8263,2.696720123291016,False
28,8193,8147,8184,8234,8145,8188,8143,8189,8256,8238,8149,8205,8183,8267,2.7048239707946777,False
29,8220,8163,8219,8248,8173,8193,8190,8183,8250,8231,8149,8231,8192,8300,2.712724208831787,False
30,8250,8195,8227,8287,8156,8192,8128,8179,8252,8229,8148,8249,8220,8341,2.720752239227295,False
31,8249,8200,8201,8297,8154,8189,8134,8184,8247,8208,8127,8226,8212,8326,2.7288031578063965,False
32,8244,8199,8198,8284,8180,8193,8185,8181,8226,8186,8110,8205,8186,8296,2.7367918491363525,False
33,8245,8219,8176,8295,8176,8198,8156,8165,8210,8197,8110,8205,8206,8310,2.744804620742798,False
34,8266,8223,8231,8293,8217,8188,8257,8193,8199,8207,8118,8224,8221,8322,2.7527456283569336,False
35,8237,8198,8192,8271,8142,8155,8136,8177,8207,8219,8106,8209,8224,8319,2.7607500553131104,False
36,8207,8191,8153,8256,8155,8143,8156,8160,8214,8225,8085,8189,8235,8310,2.767957925796509,False
37,8231,8194,8235,8247,8239,8155,8299,8193,8210,8220,8085,8204,8240,8292,2.7758665084838867,False
38,8205,8189,8187,8253,8156,8144,8126,8181,8230,8237,8089,8196,8247,8289,2.784003973007202,False
39,8190,8199,8160,8256,8153,8142,8118,8171,8236,8242,8081,8182,8232,8290,2.7918572425842285,False
40,8202,8186,8145,8238,8135,8146,8094,8164,8225,8230,8072,8171,8228,8293,2.800060510635376,False
41,8220,8177,8185,8235,8193,8150,8233,8186,8220,8220,8079,8183,8239,8302,2.8080289363861084,False
42,8247,8192,8286,8237,8265,8171,8362,8211,8215,8206,8103,8217,8235,8305,2.816058874130249,False
43,8210,8181,8177,8225,8135,8167,8081,8156,8221,8209,8109,8207,8245,8310,2.8240621089935303,False
44,8216,8174,8173,8235,8161,8156,8161,8152,8204,8191,8109,8215,8251,8307,2.830972194671631,False
45,8249,8179,8237,8256,8171,8156,8213,8154,8174,8156,8114,8229,8248,8307,2.8391027450561523,False
46,8232,8179,8151,8257,8081,8145,8018,8108,8161,8141,8108,8206,8243,8325,2.8470571041107178,False
47,8246,8187,8128,8265,8095,8131,8062,8115,8138,8129,8096,8204,8238,8338,2.8548662662506104,False
48,8244,8181,8133,8256,8117,8125,8151,8141,8105,8095,8083,8189,8222,8322,2.862755060195923,False
49,8214,8163,8164,8213,8188,8127,8261,8156,8076,8054,8088,8161,8176,8287,2.87095308303833,False
50,8198,8156,8183,8203,8197,8123,8225,8151,8072,8064,8099,8168,8167,8271,2.8788092136383057,False
51,8178,8155,8142,8228,8140,8123,8120,8147,8096,8100,8104,8176,8203,8270,2.8869309425354004,False
52,8151,8148,8125,8215,8135,8129,8119,8158,8120,8112,8110,8165,8212,8255,2.894054651260376,False
53,8141,8145,8121,8192,8147,8123,8125,8158,8144,8138,8112,8153,8211,8250,2.902129650115967,False
54,8178,8159,8182,8199,8212,8132,8256,8185,8166,8172,8120,8175,8226,8263,2.90999722480774,False
55,8176,8166,8188,8212,8175,8133,8196,8192,8173,8191,8124,8186,8238,8276,2.917926073074341,False
56,8135,8164,8118,8209,8118,8110,8079,8168,8186,8211,8121,8170,8250,8277,2.9260623455047607,False
57,8167,8175,8194,8211,8210,8110,8259,8188,8200,8221,8131,8191,8258,8275,2.933993101119995,False
58,8198,8192,8227,8236,8194,8118,8225,8185,8201,8216,8143,8209,8264,8274,2.9420623779296875,False
59,8198,8207,8179,8255,8139,8117,8126,8152,8189,8208,8144,8194,8257,8262,2.9500646591186523,False
60,8203,8204,8147,8253,8109,8115,8082,8124,8181,8199,8135,8178,8246,8263,2.9579837322235107,False
61,8203,8199,8136,8252,8114,8122,8106,8115,8170,8187,8126,8182,8253,8288,2.965057849884033,False
62,8236,8213,8223,8259,8202,8135,8279,8156,8154,8170,8132,8210,8254,8308,2.973132610321045,False
63,8229,8205,8194,8257,8141,8135,8142,8168,8174,8169,8133,8196,8246,8310,2.980895757675171,False
64,8180,8176,8120,8221,8108,8145,8088,8168,8192,8160,8119,8163,8219,8280,2.98905873298645,False
65,8161,8158,8143,8187,8158,8157,8196,8194,8185,8151,8116,8157,8197,8244,2.9970264434814453,False
66,8153,8160,8139,8189,8157,8154,8183,8200,8192,8164,8123,8151,8208,8238,3.0049755573272705,False
67,8157,8161,8155,8191,8176,8151,8213,8201,8195,8163,8124,8157,8210,8230,3.013043165206909,False
68,8136,8141,8132,8177,8142,8150,8139,8192,8198,8161,8123,8154,8204,8219,3.021014928817749,False
69,8130,8131,8144,8167,8171,8159,8198,8208,8213,8171,8137,8156,8201,8221,3.0280652046203613,False
70,8144,8137,8176,8170,8167,8164,8199,8215,8227,8197,8148,8178,8214,8231,3.036044120788574,False
71,8124,8144,8128,8184,8106,8156,8087,8185,8237,8216,8139,8181,8235,8240,3.044032573699951,False
72,8169,8162,8221,8192,8221,8164,8298,8206,8219,8196,8140,8200,8225,8238,3.0520617961883545,False
73,8210,8167,8239,8192,8185,8154,8204,8180,8187,8188,8146,8211,8223,8250,3.0600156784057617,False
74,8193,8167,8142,8207,8096,8117,8037,8124,8169,8192,8140,8194,8227,8266,3.067992687225342,False
75,8211,8187,8185,8221,8161,8113,8186,8137,8161,8165,8137,8191,8209,8266,3.0760483741760254,False
76,8211,8190,8177,8205,8138,8117,8153,8142,8158,8148,8141,8180,8217,8275,3.084013700485229,False
77,8178,8172,8133,8183,8137,8107,8133,8131,8146,8151,8142,8163,8226,8265,3.091057062149048,False
78,8150,8156,8125,8177,8154,8112,8149,8124,8138,8144,8131,8138,8199,8224,3.0990536212921143,False
79,8153,8157,8145,8170,8174,8139,8192,8146,8137,8123,8121,8128,8171,8201,3.1069583892822266,False
80,8174,8157,8180,8162,8188,8160,8211,8172,8136,8114,8130,8149,8164,8212,3.1149816513061523,False
81,8147,8133,8136,8158,8135,8164,8118,8160,8155,8130,8140,8149,8179,8220,3.1230251789093018,False
82,8138,8129,8167,8158,8181,8167,8224,8181,8171,8148,8143,8153,8188,8213,3.1308956146240234,False
83,8133,8143,8160,8159,8148,8163,8136,8182,8190,8173,8139,8164,8201,8224,3.138918876647949,False
84,8130,8147,8131,8161,8141,8171,8115,8179,8218,8198,8140,8173,8219,8239,3.1470630168914795,False
85,8181,8154,8247,8168,8241,8186,8327,8219,8225,8209,8153,8206,8232,8241,3.1541049480438232,False
86,8177,8150,8207,8173,8154,8167,8139,8188,8226,8222,8153,8200,8260,8247,3.1620421409606934,False
87,8151,8148,8127,8171,8121,8155,8070,8157,8220,8215,8151,8180,8260,8243,3.1700644493103027,False
88,8188,8164,8174,8188,8162,8164,8184,8182,8216,8201,8154,8196,8237,8254,3.177947759628296,False
89,8220,8179,8191,8210,8149,8158,8160,8177,8214,8195,8151,8203,8235,8282,3.1859383583068848,False
90,8227,8181,8204,8200,8174,8147,8174,8157,8190,8176,8151,8196,8238,8287,3.1940605640411377,False
91,8206,8177,8174,8193,8170,8146,8131,8137,8169,8164,8146,8181,8229,8276,3.202056646347046,False
92,8189,8186,8163,8207,8185,8153,8172,8139,8157,8151,8137,8167,8202,8248,3.2100210189819336,False
93,8169,8173,8147,8191,8141,8156,8139,8141,8156,8134,8133,8143,8180,8205,3.217914342880249,False
94,8143,8145,8116,8161,8112,8154,8121,8137,8167,8134,8129,8121,8170,8177,3.2248284816741943,False
95,8157,8147,8168,8163,8171,8160,8217,8161,8164,8144,8136,8146,8168,8182,3.2328176498413086,False
96,8148,8150,8141,8169,8120,8156,8091,8165,8167,8165,8145,8162,8191,8206,3.240945816040039,False
97,8143,8143,8156,8167,8149,8151,8165,8176,8180,8167,8152,8163,8200,8214,3.2488853931427,False
98,8157,8140,8211,8181,8187,8156,8231,8186,8190,8173,8157,8173,8202,8209,3.2568700313568115,True
99,8133,8150,8152,8196,8131,8158,8092,8177,8200,8198,8159,8173,8220,8209,3.2650516033172607,True
100,8150,8166,8194,8199,8183,8163,8199,8199,8198,8196,8171,8197,8219,8212,3.2730531692504883,True
101,8168,8162,8203,8214,8149,8156,8141,8178,8190,8178,8174,8209,8220,8234,3.2808632850646973,True
102,8178,8173,8182,8235,8139,8154,8130,8156,8173,8158,8172,8214,8224,8253,3.2890586853027344,True
103,8224,8208,8256,8257,8188,8163,8236,8173,8153,8143,8183,8245,8223,8259,3.296051502227783,True
104,8239,8226,8239,8293,8129,8157,8104,8159,8159,8156,8190,8262,8248,8293,3.3041248321533203,True
105,8248,8238,8205,8314,8129,8150,8105,8166,8173,8181,8186,8270,8283,8331,3.311998128890991,True
106,8247,8241,8172,8298,8130,8160,8143,8177,8183,8191,8177,8255,8302,8327,3.3200533390045166,True
107,8240,8235,8184,8273,8168,8178,8214,8184,8173,8172,8165,8225,8274,8292,3.328059434890747,True
108,8236,8217,8207,8258,8180,8167,8204,8175,8142,8144,8149,8196,8225,8263,3.3359806537628174,True
109,8188,8186,8115,8228,8113,8129,8088,8144,8127,8129,8136,8152,8199,8242,3.3441250324249268,True
110,8170,8167,8148,8189,8195,8137,8269,8173,8126,8120,8134,8143,8178,8215,3.352123737335205,True
111,8165,8160,8180,8182,8191,8161,8224,8185,8147,8145,8137,8156,8182,8226,3.3589797019958496,True
112,8148,8162,8117,8191,8126,8160,8100,8172,8181,8185,8152,8162,8219,8263,3.3670597076416016,True
113,8163,8167,8147,8187,8167,8166,8206,8195,8190,8199,8163,8174,8240,8273,3.375083446502685,True
114,8167,8168,8156,8188,8156,8172,8158,8190,8190,8203,8150,8168,8234,8268,3.3828394412994385,True
115,8201,8183,8179,8203,8170,8166,8171,8185,8186,8197,8148,8185,8218,8282,3.390898942947388,True
116,8243,8199,8192,8222,8146,8154,8154,8171,8167,8181,8155,8209,8214,8307,3.399777889251709,True
117,8228,8209,8170,8229,8134,8150,8133,8137,8139,8165,8152,8190,8217,8303,3.406862497329712,True
118,8218,8217,8185,8224,8177,8161,8184,8134,8127,8150,8151,8169,8208,8281,3.414859771728516,True
119,8208,8210,8137,8225,8145,8170,8130,8138,8149,8155,8149,8159,8212,8286,3.4227962493896484,True
120,8210,8207,8173,8227,8207,8192,8262,8178,8170,8167,8152,8167,8213,8286,3.4298174381256104,True
121,8198,8200,8193,8215,8186,8205,8210,8201,8181,8172,8156,8163,8210,8261,3.437889814376831,True
122,8159,8164,8117,8178,8127,8198,8113,8202,8189,8151,8141,8134,8188,8233,3.446049928665161,True
123,8150,8128,8157,8125,8205,8196,8274,8224,8182,8118,8123,8127,8136,8197,3.4540581703186035,True
124,8130,8115,8142,8106,8147,8178,8149,8184,8181,8130,8122,8114,8120,8181,3.462020874023437,True
125,8127,8129,8117,8122,8124,8162,8116,8138,8173,8142,8132,8116,8135,8191,3.470031499862671,True
126,8134,8133,8152,8126,8176,8168,8204,8131,8162,8132,8138,8133,8140,8194,3.47805404663086,True
127,8109,8128,8142,8125,8168,8169,8174,8127,8165,8145,8142,8131,8148,8180,3.485996961593628,True
238,8124,8141,8169,8137,8157,8167,8167,8143,8166,8162,8153,8155,8160,8184,3.4930243492126465,True
0,8135,8150,8136,8148,8099,8159,8052,8145,8181,8172,8149,8165,8170,8221,3.5010244846343994,True
1,8155,8150,8171,8145,8174,8158,8203,8173,8188,8162,8140,8160,8152,8232,3.508875608444214,True
2,8171,8142,8223,8140,8184,8162,8242,8180,8170,8146,8144,8159,8139,8216,3.5170023441314697,True
3,8150,8144,8142,8152,8083,8163,8046,8142,8170,8157,8153,8159,8169,8234,3.525054216384888,True
4,8189,8176,8159,8185,8146,8182,8124,8155,8183,8171,8163,8186,8196,8282,3.532869815826416,True
5,8215,8186,8177,8201,8167,8194,8131,8155,8173,8160,8158,8190,8200,8302,3.541060447692871,True
6,8197,8166,8185,8187,8183,8189,8200,8144,8143,8127,8151,8181,8182,8280,3.549058437347412,True
7,8202,8159,8211,8183,8194,8179,8253,8159,8137,8123,8156,8194,8175,8280,3.557089567184448,True
8,8199,8173,8155,8196,8148,8181,8131,8154,8153,8146,8157,8184,8193,8299,3.564006805419922,True
9,8199,8185,8171,8191,8179,8187,8181,8155,8145,8137,8153,8167,8186,8278,3.572056770324707,True
10,8173,8163,8160,8171,8146,8175,8141,8147,8141,8128,8148,8156,8175,8246,3.580085515975952,True
11,8141,8135,8129,8146,8160,8165,8158,8151,8141,8130,8145,8144,8161,8221,3.588024616241455,True
12,8135,8128,8158,8123,8199,8162,8208,8159,8130,8122,8144,8127,8126,8184,3.5960702896118164,True
13,8118,8120,8128,8116,8136,8148,8101,8141,8143,8128,8143,8118,8118,8166,3.604061603546143,True
14,8127,8117,8149,8118,8165,8147,8173,8157,8162,8141,8150,8141,8139,8185,3.611862182617188,True
15,8137,8125,8146,8132,8169,8163,8153,8168,8180,8167,8157,8139,8156,8209,3.6190593242645264,True
16,8154,8149,8154,8163,8199,8176,8189,8187,8196,8188,8163,8137,8149,8216,3.627066612243652,True
17,8189,8171,8223,8186,8231,8181,8266,8215,8199,8194,8173,8174,8163,8231,3.63495135307312,True
18,8168,8169,8165,8187,8150,8179,8114,8185,8210,8209,8176,8177,8209,8264,3.643026351928711,True
19,8180,8173,8173,8185,8191,8191,8199,8181,8214,8205,8176,8177,8215,8266,3.651012659072876,True
20,8219,8183,8217,8193,8193,8199,8223,8188,8209,8198,8173,8189,8208,8266,3.6588191986083984,True
21,8205,8181,8163,8197,8133,8202,8102,8169,8215,8212,8174,8193,8227,8298,3.666929244995117,True
22,8177,8167,8139,8183,8157,8206,8138,8170,8220,8209,8177,8187,8231,8298,3.675093412399292,True
23,8148,8149,8129,8163,8162,8199,8166,8180,8218,8184,8160,8159,8207,8253,3.682071685791016,True
24,8151,8154,8170,8159,8185,8214,8227,8197,8212,8163,8146,8152,8175,8227,3.6899993419647217,True
25,8155,8158,8157,8164,8155,8227,8140,8183,8207,8160,8148,8154,8168,8242,3.698055028915405,True
26,8140,8156,8132,8161,8176,8217,8168,8172,8198,8157,8153,8145,8177,8244,3.706069231033325,True
27,8151,8166,8193,8160,8214,8211,8257,8187,8187,8156,8156,8155,8172,8228,3.713938236236572,True
28,8130,8156,8135,8150,8109,8194,8060,8144,8183,8162,8147,8142,8157,8223,3.721846580505371,True
29,8128,8145,8150,8125,8177,8178,8195,8141,8162,8144,8137,8128,8125,8203,3.7300524711608887,False
30,8135,8152,8208,8124,8222,8173,8271,8169,8153,8141,8142,8131,8115,8181,3.738004684448242,False
31,8102,8158,8133,8137,8126,8178,8081,8154,8168,8170,8154,8131,8138,8186,3.74605655670166,False
32,8121,8154,8151,8137,8158,8194,8157,8162,8171,8180,8160,8155,8144,8201,3.753055095672608,False
33,8149,8151,8168,8142,8162,8191,8159,8159,8174,8168,8158,8174,8150,8219,3.760854482650757,False
34,8161,8166,8165,8157,8177,8189,8165,8154,8178,8156,8167,8179,8158,8236,3.7691168785095215,False
35,8175,8175,8186,8161,8184,8198,8174,8159,8179,8159,8175,8184,8162,8253,3.777050018310547,False
36,8171,8181,8164,8161,8151,8194,8143,8156,8189,8163,8168,8186,8181,8271,3.784825325012207,False
37,8177,8186,8172,8162,8162,8214,8172,8170,8198,8166,8172,8193,8200,8281,3.792936086654663,False
38,8158,8165,8135,8158,8121,8247,8072,8163,8207,8190,8175,8174,8207,8279,3.801053285598755,False
39,8145,8162,8157,8157,8169,8246,8186,8168,8197,8185,8168,8158,8181,8244,3.809057235717773,False
40,8146,8168,8180,8151,8167,8227,8211,8162,8186,8160,8158,8156,8160,8218,3.8160572052001953,False
41,8125,8158,8113,8136,8103,8235,8089,8143,8210,8174,8149,8146,8177,8234,3.824097633361816,False
42,8127,8161,8173,8127,8205,8258,8262,8173,8216,8176,8157,8154,8165,8214,3.832061290740967,False
43,8110,8160,8172,8129,8186,8243,8191,8159,8209,8166,8154,8139,8135,8171,3.839848756790161,False
44,8098,8152,8117,8127,8133,8224,8094,8141,8222,8179,8136,8123,8135,8178,3.848025798797608,False
45,8122,8156,8158,8113,8159,8227,8177,8170,8244,8196,8150,8146,8153,8210,3.855827569961548,False
46,8121,8154,8150,8111,8135,8223,8141,8176,8258,8205,8174,8156,8163,8226,3.8639907836914062,False
47,8155,8164,8187,8132,8170,8218,8198,8198,8255,8210,8168,8175,8169,8241,3.872050046920776,False
48,8172,8181,8189,8161,8150,8209,8139,8193,8253,8220,8158,8185,8188,8261,3.8800342082977295,False
49,8150,8175,8158,8158,8154,8214,8140,8154,8231,8196,8171,8169,8187,8251,3.886838912963867,False
50,8174,8170,8183,8156,8184,8209,8205,8127,8179,8146,8179,8176,8174,8247,3.894867658615112,False
51,8186,8190,8159,8189,8147,8179,8137,8108,8148,8124,8167,8177,8170,8262,3.9030234813690186,False
52,8179,8194,8183,8196,8185,8187,8205,8138,8148,8130,8170,8173,8156,8251,3.9108245372772217,False
53,8154,8167,8163,8170,8154,8217,8119,8154,8162,8143,8181,8168,8155,8236,3.9190361499786377,False
54,8140,8164,8153,8151,8174,8224,8155,8161,8170,8142,8180,8168,8163,8226,3.927023887634277,False
55,8152,8174,8226,8134,8246,8219,8310,8193,8179,8146,8177,8170,8150,8210,3.934937953948975,False
56,8122,8157,8156,8128,8149,8205,8127,8184,8211,8177,8173,8144,8146,8204,3.943022966384888,False
57,8118,8158,8129,8150,8140,8199,8120,8177,8236,8213,8186,8153,8172,8217,3.9500248432159424,False
58,8140,8168,8173,8165,8174,8203,8184,8178,8247,8243,8200,8181,8200,8235,3.958028554916382,False
59,8136,8164,8152,8155,8157,8199,8145,8175,8271,8255,8197,8173,8205,8245,3.965999364852905,False
60,8145,8172,8158,8160,8161,8206,8144,8181,8282,8254,8195,8161,8189,8246,3.974055290222168,False
61,8153,8182,8151,8176,8139,8211,8091,8168,8277,8263,8202,8162,8194,8255,3.982056140899658,False
62,8173,8184,8188,8174,8192,8202,8197,8170,8271,8252,8209,8174,8199,8259,3.990012168884277,False
63,8174,8177,8182,8161,8181,8204,8184,8156,8274,8246,8208,8169,8200,8255,3.998047113418579,False
64,8168,8186,8152,8171,8163,8210,8146,8148,8272,8256,8215,8173,8212,8270,4.006051301956177,False
65,8198,8205,8209,8193,8202,8199,8225,8170,8244,8239,8222,8195,8212,8284,4.013962268829346,False
66,8172,8185,8153,8181,8136,8187,8111,8149,8233,8230,8210,8169,8215,8285,4.020994663238525,False
67,8154,8170,8163,8155,8194,8203,8228,8160,8224,8225,8200,8161,8199,8265,4.029052972793579,False
68,8179,8183,8236,8163,8234,8193,8272,8176,8196,8192,8190,8184,8164,8242,4.036862134933472,False
69,8157,8179,8156,8165,8132,8164,8062,8135,8185,8166,8181,8157,8150,8240,4.044980764389038,False
70,8136,8147,8119,8118,8145,8178,8113,8134,8196,8171,8186,8137,8150,8234,4.053033113479614,False
71,8124,8129,8126,8092,8163,8191,8160,8142,8207,8191,8186,8145,8157,8226,4.060715913772583,False
72,8133,8148,8170,8120,8199,8182,8220,8143,8196,8184,8177,8155,8145,8220,4.068005561828613,False
73,8153,8160,8194,8140,8188,8183,8194,8149,8200,8180,8177,8159,8143,8225,4.075923442840576,False
74,8138,8158,8133,8139,8142,8195,8110,8150,8230,8210,8179,8157,8175,8248,4.083957672119141,False
75,8159,8170,8175,8146,8201,8196,8220,8172,8227,8227,8183,8183,8189,8262,4.092055082321167,False
76,8199,8190,8201,8173,8166,8170,8144,8173,8225,8230,8183,8203,8194,8284,4.099866628646851,False
77,8217,8206,8191,8198,8149,8157,8142,8177,8237,8231,8178,8202,8205,8310,4.108006000518799,False
78,8213,8203,8195,8197,8172,8160,8186,8170,8226,8217,8174,8199,8211,8316,4.115871429443359,False
79,8198,8201,8165,8190,8162,8152,8133,8146,8211,8207,8168,8195,8219,8315,4.123824119567871,False
80,8233,8224,8233,8210,8218,8152,8256,8175,8202,8199,8169,8212,8218,8318,4.131784677505493,False
81,8236,8228,8221,8230,8153,8153,8154,8174,8197,8194,8168,8213,8227,8328,4.139972448348999,False
82,8220,8217,8171,8223,8125,8149,8092,8157,8190,8188,8160,8201,8232,8335,4.147809028625488,False
83,8243,8219,8202,8216,8145,8139,8157,8168,8170,8174,8151,8204,8209,8328,4.154892921447754,False
84,8225,8215,8164,8211,8100,8122,8105,8157,8163,8166,8145,8187,8193,8321,4.16288948059082,False
85,8213,8211,8201,8195,8178,8135,8232,8165,8160,8159,8153,8189,8189,8315,4.170850038528442,False
86,8197,8198,8213,8186,8166,8149,8166,8146,8153,8155,8155,8192,8198,8310,4.178829669952393,False
87,8159,8179,8149,8185,8119,8140,8083,8121,8148,8155,8151,8175,8205,8296,4.186843395233154,False
88,8149,8175,8143,8182,8145,8140,8161,8138,8158,8167,8158,8173,8201,8281,4.194853067398071,False
89,8151,8179,8133,8187,8120,8143,8136,8139,8176,8184,8164,8174,8207,8281,4.202908992767334,False
90,8177,8190,8198,8193,8179,8135,8232,8156,8168,8168,8162,8187,8202,8272,4.211132049560547,False
91,8164,8182,8189,8191,8182,8121,8158,8157,8165,8165,8151,8178,8192,8261,4.217923879623413,False
92,8137,8175,8140,8192,8180,8125,8115,8141,8178,8181,8151,8164,8187,8257,4.225851774215698,False
93,8168,8195,8210,8194,8242,8138,8240,8152,8168,8164,8160,8183,8182,8257,4.233846187591553,False
94,8162,8209,8179,8203,8191,8140,8121,8138,8168,8153,8157,8182,8196,8277,4.241926670074463,False
95,8161,8217,8166,8223,8212,8147,8156,8137,8174,8159,8165,8187,8211,8299,4.249857902526856,False
96,8196,8223,8225,8230,8253,8137,8246,8158,8164,8157,8178,8208,8211,8304,4.257842063903809,False
97,8203,8222,8212,8216,8217,8134,8172,8172,8164,8155,8175,8206,8218,8312,4.265905141830444,False
98,8202,8220,8171,8220,8187,8154,8108,8180,8200,8176,8173,8207,8242,8340,4.273966073989868,False
99,8191,8219,8124,8229,8188,8165,8109,8177,8233,8212,8172,8198,8259,8357,4.280841827392578,False
100,8210,8219,8205,8205,8300,8177,8314,8220,8228,8213,8170,8204,8238,8330,4.288893938064575,False
101,8210,8205,8213,8186,8238,8175,8181,8219,8229,8204,8159,8203,8225,8306,4.296945571899414,False
102,8173,8200,8125,8198,8160,8160,8040,8166,8227,8198,8150,8172,8216,8297,4.304832220077515,False
103,8200,8214,8213,8203,8289,8166,8285,8176,8198,8183,8162,8183,8181,8286,4.312778472900391,False
104,8205,8213,8207,8194,8244,8156,8172,8165,8195,8190,8169,8195,8183,8292,4.321142196655273,False
105,8173,8203,8149,8192,8199,8149,8108,8157,8189,8174,8151,8175,8182,8280,4.329005718231201,False
106,8158,8196,8189,8188,8249,8171,8228,8186,8172,8152,8142,8154,8151,8248,4.336942911148071,False
107,8140,8194,8162,8175,8226,8175,8168,8199,8202,8171,8153,8148,8156,8249,4.343969821929932,False
108,8145,8187,8134,8152,8205,8160,8136,8199,8212,8167,8157,8154,8163,8260,4.351742744445801,False
109,8152,8171,8122,8140,8185,8159,8111,8164,8172,8135,8143,8142,8145,8250,4.359729528427124,False
110,8155,8174,8170,8147,8256,8181,8231,8148,8150,8123,8138,8132,8121,8236,4.367990732192993,False
111,8142,8174,8181,8141,8253,8195,8191,8143,8161,8132,8148,8134,8118,8236,4.3757922649383545,False
112,8112,8150,8112,8121,8186,8187,8060,8126,8170,8143,8149,8129,8135,8239,4.383687257766724,False
113,8133,8153,8157,8123,8232,8191,8183,8156,8180,8155,8154,8147,8148,8246,4.391839265823364,False
114,8143,8166,8155,8141,8189,8197,8119,8166,8213,8177,8167,8160,8172,8279,4.399816513061523,False
115,8155,8164,8170,8135,8233,8198,8200,8172,8219,8170,8167,8167,8170,8295,4.406885147094727,False
116,8181,8160,8233,8123,8283,8193,8273,8183,8204,8164,8156,8173,8150,8278,4.414960622787476,False
117,8148,8160,8151,8130,8186,8186,8076,8161,8212,8176,8149,8155,8154,8270,4.422946214675903,False
118,8153,8168,8182,8136,8255,8198,8217,8177,8197,8150,8154,8171,8142,8261,4.430828094482422,False
119,8171,8162,8230,8122,8271,8195,8252,8173,8162,8122,8147,8176,8118,8255,4.438726425170898,False
120,8130,8145,8150,8109,8185,8169,8095,8146,8153,8135,8143,8147,8121,8257,4.446871042251587,False
121,8113,8142,8124,8110,8178,8158,8078,8159,8162,8147,8151,8147,8138,8264,4.454930305480957,False
122,8127,8142,8125,8107,8190,8160,8100,8165,8168,8137,8148,8154,8143,8270,4.46283745765686,False
123,8147,8147,8163,8108,8228,8159,8197,8170,8159,8132,8153,8158,8147,8264,4.470857620239258,False
124,8133,8152,8146,8121,8185,8147,8123,8155,8152,8145,8166,8141,8167,8253,4.47778844833374,False
125,8122,8149,8140,8118,8202,8152,8160,8159,8157,8141,8160,8129,8157,8228,4.486836194992065,False
126,8131,8139,8180,8097,8235,8168,8231,8182,8171,8124,8144,8141,8123,8208,4.49385142326355,False
127,8099,8130,8123,8096,8157,8161,8073,8161,8190,8134,8142,8133,8134,8225,4.501937627792358,False
238,8128,8147,8186,8120,8248,8178,8236,8186,8187,8148,8160,8150,8150,8250,4.509938716888428,False
0,8189,8165,8269,8138,8291,8194,8306,8214,8187,8159,8171,8185,8154,8267,4.517786026000977,False
1,8165,8160,8188,8141,8173,8166,8088,8173,8205,8173,8168,8177,8171,8287,4.525690793991089,False
2,8140,8145,8158,8132,8174,8152,8113,8145,8198,8163,8162,8162,8173,8289,4.534024953842163,False
3,8146,8148,8172,8130,8218,8158,8202,8150,8174,8135,8150,8155,8152,8272,4.540836811065674,False
4,8160,8160,8206,8131,8243,8153,8245,8165,8150,8107,8141,8161,8118,8253,4.548882007598877,False
5,8148,8150,8163,8132,8159,8145,8086,8140,8142,8109,8143,8158,8113,8260,4.556995391845703,False
6,8157,8162,8145,8151,8174,8152,8120,8149,8156,8125,8158,8166,8141,8290,4.564817428588867,False
7,8204,8189,8241,8161,8284,8160,8311,8204,8157,8123,8171,8189,8153,8302,4.572814226150513,False
8,8175,8176,8160,8151,8178,8147,8095,8181,8155,8139,8162,8160,8166,8300,4.581072807312012,False
9,8144,8155,8106,8132,8158,8146,8092,8161,8151,8143,8152,8138,8163,8294,4.588905572891235,False
10,8137,8141,8138,8115,8189,8153,8163,8160,8144,8126,8151,8140,8138,8281,4.596933841705322,False
11,8102,8135,8111,8104,8184,8161,8134,8154,8145,8127,8150,8129,8127,8260,4.604826927185059,False
12,8119,8147,8187,8102,8258,8179,8274,8192,8146,8137,8157,8143,8133,8239,4.612040996551514,False
13,8123,8145,8185,8112,8209,8181,8165,8179,8155,8150,8152,8141,8142,8241,4.619782209396362,False
14,8111,8142,8120,8125,8170,8182,8083,8151,8164,8155,8146,8139,8142,8255,4.6280364990234375,False
15,8138,8158,8138,8134,8183,8180,8131,8163,8169,8165,8160,8170,8159,8277,4.635855913162232,False
16,8160,8166,8169,8141,8195,8165,8159,8165,8164,8167,8165,8183,8173,8296,4.643901109695435,False
17,8179,8176,8202,8158,8220,8165,8195,8159,8145,8155,8161,8181,8153,8296,4.651727914810181,False
18,8172,8175,8162,8166,8164,8169,8095,8141,8139,8155,8162,8176,8145,8293,4.660084247589111,False
19,8155,8156,8162,8142,8185,8167,8161,8143,8130,8145,8165,8169,8142,8287,4.667793035507202,False
20,8154,8150,8190,8133,8189,8170,8195,8155,8125,8132,8164,8165,8135,8279,4.674837350845337,False
21,8149,8158,8136,8154,8129,8170,8097,8144,8134,8134,8158,8155,8135,8265,4.682856321334839,False
22,8166,8165,8172,8163,8184,8170,8208,8158,8126,8132,8162,8157,8130,8239,4.690853595733643,False
23,8153,8170,8175,8159,8154,8175,8129,8163,8131,8139,8164,8153,8144,8247,4.698804616928101,False
24,8138,8169,8167,8156,8161,8190,8142,8180,8151,8144,8163,8161,8158,8266,4.70698618888855,False
25,8164,8152,8223,8152,8228,8200,8274,8204,8146,8134,8166,8176,8147,8254,4.715032339096069,False
26,8152,8144,8160,8162,8155,8184,8112,8175,8145,8140,8168,8158,8146,8251,4.723056316375732,False
27,8156,8165,8141,8168,8172,8180,8118,8174,8158,8157,8171,8160,8154,8268,4.730785131454468,False
28,8171,8169,8167,8148,8214,8192,8175,8177,8166,8169,8171,8171,8160,8272,4.7388596534729,False
29,8164,8157,8173,8142,8204,8202,8183,8168,8162,8165,8174,8167,8155,8270,4.745795011520386,False
30,8166,8160,8196,8159,8188,8198,8186,8170,8155,8149,8177,8175,8142,8276,4.7540483474731445,False
31,8160,8168,8157,8165,8148,8184,8104,8149,8151,8147,8176,8172,8149,8273,4.761906623840332,False
32,8164,8181,8176,8159,8195,8191,8197,8146,8125,8130,8174,8166,8136,8251,4.76993727684021,False
33,8155,8172,8179,8155,8178,8181,8179,8136,8105,8099,8162,8152,8100,8239,4.777923107147217,False
34,8143,8159,8155,8151,8168,8175,8164,8137,8115,8091,8165,8146,8096,8233,4.786029100418091,False
35,8156,8160,8182,8149,8196,8200,8200,8161,8123,8106,8179,8160,8121,8230,4.793933868408203,False
36,8143,8154,8133,8151,8146,8199,8096,8151,8135,8123,8177,8159,8146,8249,4.802016973495483,False
37,8162,8168,8183,8158,8228,8183,8260,8171,8143,8126,8179,8175,8146,8261,4.808881759643555,False
38,8170,8178,8225,8160,8227,8185,8242,8178,8143,8137,8184,8171,8140,8257,4.816845417022705,False
39,8116,8155,8131,8138,8138,8190,8068,8143,8146,8146,8172,8135,8135,8253,4.8247904777526855,False
40,8114,8146,8149,8120,8194,8193,8192,8158,8150,8139,8173,8149,8126,8244,4.833034992218018,False
41,8138,8166,8180,8141,8195,8196,8184,8183,8172,8161,8185,8170,8143,8255,4.840842247009277,False
42,8156,8183,8175,8158,8180,8196,8144,8183,8186,8182,8184,8165,8156,8277,4.849021911621094,False
43,8171,8184,8167,8153,8163,8194,8109,8151,8173,8168,8184,8159,8160,8284,4.856828927993774,False
44,8179,8203,8173,8168,8163,8208,8114,8139,8157,8157,8197,8177,8172,8293,4.864967346191406,False
45,8209,8225,8221,8190,8200,8215,8199,8179,8155,8171,8208,8211,8189,8308,4.871809720993042,False
46,8203,8211,8160,8181,8151,8185,8111,8167,8153,8178,8198,8192,8205,8319,4.880031585693359,False
47,8200,8202,8176,8163,8213,8170,8229,8153,8116,8142,8182,8169,8171,8293,4.887895584106445,False
48,8204,8208,8224,8160,8219,8174,8228,8152,8094,8117,8177,8167,8128,8259,4.895906448364258,False
49,8165,8202,8144,8159,8147,8165,8092,8144,8117,8131,8168,8136,8125,8243,4.903976202011108,False
50,8160,8185,8172,8145,8218,8164,8245,8177,8122,8127,8163,8127,8120,8229,4.912035703659058,False
51,8144,8168,8164,8131,8174,8167,8157,8174,8133,8137,8171,8139,8139,8234,4.919793367385864,False
52,8135,8175,8143,8144,8163,8184,8128,8169,8163,8166,8184,8149,8172,8252,4.928036212921143,False
53,8167,8192,8196,8160,8213,8205,8223,8188,8178,8178,8189,8166,8173,8271,4.934815883636475,False
54,8157,8189,8159,8148,8166,8199,8118,8166,8180,8183,8185,8170,8175,8278,4.942796230316162,False
55,8144,8177,8145,8134,8182,8187,8142,8157,8169,8175,8183,8166,8181,8262,4.95087742805481,False
56,8139,8168,8139,8138,8191,8189,8155,8165,8169,8178,8179,8158,8181,8262,4.959068059921265,False
57,8151,8173,8162,8133,8217,8197,8204,8179,8172,8181,8189,8176,8179,8292,4.967084169387817,False
58,8174,8184,8183,8141,8189,8202,8135,8168,8166,8181,8195,8196,8185,8313,4.975038766860962,False
59,8166,8187,8137,8163,8155,8209,8057,8148,8163,8174,8181,8176,8177,8297,4.983041286468506,False
60,8190,8189,8220,8152,8268,8220,8295,8188,8150,8138,8179,8179,8136,8263,4.991037845611572,False
61,8176,8174,8212,8131,8202,8222,8191,8187,8153,8127,8183,8172,8127,8252,4.99896240234375,False
62,8122,8158,8104,8129,8123,8225,8045,8156,8178,8148,8176,8133,8132,8245,5.006092309951782,False
63,8125,8161,8151,8125,8214,8230,8208,8181,8181,8154,8170,8127,8111,8220,5.013807535171509,False
64,8128,8156,8175,8125,8200,8217,8188,8184,8177,8159,8171,8133,8114,8217,5.0219361782073975,False
65,8125,8163,8154,8137,8156,8208,8129,8169,8178,8181,8185,8143,8140,8237,5.030052661895752,False
66,8128,8182,8132,8144,8139,8205,8084,8147,8179,8201,8191,8150,8162,8252,5.038036823272705,False
67,8143,8185,8158,8135,8187,8190,8181,8138,8164,8177,8184,8152,8160,8251,5.045874834060669,False
68,8163,8173,8213,8134,8214,8170,8259,8144,8145,8148,8180,8161,8149,8254,5.054003477096558,False
69,8147,8165,8161,8149,8152,8163,8118,8143,8163,8172,8182,8158,8171,8275,5.062049150466919,False
70,8153,8173,8169,8160,8192,8193,8174,8173,8185,8192,8187,8165,8186,8281,5.068788528442383,False
71,8161,8181,8163,8162,8156,8196,8132,8164,8180,8185,8185,8166,8178,8275,5.076928853988648,False
72,8165,8187,8153,8169,8151,8164,8145,8151,8161,8178,8185,8166,8180,8273,5.0850348472595215,False
73,8196,8182,8249,8167,8251,8167,8307,8184,8149,8170,8190,8186,8169,8270,5.09297776222229,False
74,8171,8163,8191,8156,8161,8173,8124,8155,8153,8163,8181,8167,8156,8277,5.1010353565216064,False
75,8157,8176,8142,8162,8137,8161,8108,8135,8148,8156,8182,8152,8163,8276,5.108974456787109,False
76,8179,8194,8187,8178,8187,8163,8193,8159,8152,8161,8187,8170,8183,8270,5.117035150527954,False
77,8156,8185,8162,8170,8163,8169,8136,8168,8166,8171,8177,8162,8178,8269,5.124983310699463,False
78,8140,8174,8157,8149,8173,8173,8173,8180,8168,8180,8175,8146,8157,8259,5.1330342292785645,False
79,8144,8174,8145,8153,8164,8190,8145,8185,8194,8204,8183,8144,8174,8259,5.139969825744629,False
80,8153,8183,8163,8166,8188,8204,8181,8195,8221,8208,8183,8164,8188,8272,5.147979497909546,False
81,8137,8171,8155,8148,8176,8186,8162,8187,8212,8188,8177,8158,8166,8275,5.156006336212158,False
82,8115,8149,8128,8120,8175,8177,8161,8180,8200,8183,8179,8135,8149,8264,5.1640379428863525,False
83,8139,8153,8183,8124,8201,8192,8229,8202,8204,8183,8181,8153,8158,8264,5.171898603439331,False
84,8142,8157,8142,8139,8113,8188,8089,8176,8212,8182,8177,8157,8172,8285,5.180001974105835,False
85,8168,8163,8181,8141,8196,8183,8248,8175,8196,8161,8182,8165,8153,8278,5.18799901008606,False
86,8198,8174,8270,8148,8257,8182,8324,8184,8173,8138,8188,8184,8136,8258,5.195836544036865,False
87,8162,8184,8170,8173,8128,8172,8056,8132,8184,8149,8178,8167,8150,8268,5.202970743179321,False
88,8172,8205,8147,8189,8140,8186,8106,8128,8191,8162,8185,8168,8157,8282,5.211036443710327,False
89,8180,8203,8175,8178,8170,8198,8170,8142,8170,8150,8199,8166,8154,8270,5.218865394592285,False
90,8138,8171,8149,8149,8175,8192,8161,8133,8135,8116,8185,8130,8124,8230,5.227007150650024,False
91,8138,8153,8152,8136,8158,8193,8148,8131,8115,8091,8175,8117,8085,8205,5.234966516494751,False
92,8166,8163,8156,8148,8132,8197,8123,8137,8121,8111,8185,8138,8097,8231,5.2430078983306885,False
93,8179,8179,8187,8158,8195,8202,8203,8162,8142,8145,8193,8161,8129,8259,5.250993967056274,False
94,8151,8174,8146,8165,8157,8198,8101,8166,8175,8167,8196,8150,8157,8266,5.259007215499878,False
95,8156,8167,8166,8165,8167,8205,8161,8191,8191,8170,8207,8156,8167,8273,5.265978574752808,False
96,8193,8169,8232,8163,8198,8213,8218,8219,8198,8183,8209,8181,8173,8280,5.273806810379028,False
97,8163,8177,8152,8179,8142,8202,8073,8196,8223,8207,8197,8168,8189,8284,5.281999111175537,False
98,8167,8184,8199,8184,8217,8205,8238,8214,8223,8198,8207,8176,8181,8283,5.290043354034424,False
99,8188,8166,8242,8166,8204,8204,8213,8217,8218,8186,8209,8185,8173,8283,5.2979607582092285,False
100,8157,8159,8149,8168,8140,8194,8055,8188,8226,8189,8192,8165,8178,8278,5.3060302734375,False
101,8158,8179,8148,8188,8187,8203,8134,8187,8214,8181,8193,8175,8177,8279,5.314009666442871,False
102,8170,8186,8165,8187,8178,8200,8153,8175,8191,8160,8201,8183,8167,8295,5.321817874908447,False
103,8186,8189,8209,8179,8206,8189,8233,8195,8178,8127,8197,8186,8146,8298,5.330008029937744,False
104,8186,8190,8200,8181,8188,8191,8178,8213,8186,8111,8192,8188,8172,8301,5.337028503417969,False
105,8163,8175,8142,8166,8154,8200,8129,8198,8182,8115,8196,8167,8188,8297,5.344764947891235,False
106,8148,8160,8156,8144,8173,8208,8181,8187,8155,8125,8197,8135,8116,8261,5.3530378341674805,False
107,8133,8165,8147,8154,8152,8205,8101,8173,8155,8135,8204,8121,8084,8239,5.360798358917236,False
108,8155,8186,8183,8157,8193,8211,8177,8198,8178,8145,8242,8151,8138,8251,5.36869215965271,False
109,8151,8178,8159,8122,8153,8216,8149,8205,8205,8179,8268,8158,8169,8264,5.376798629760742,False
110,8120,8148,8117,8129,8147,8211,8150,8196,8215,8204,8278,8142,8148,8257,5.384701013565064,False
111,8153,8140,8219,8175,8237,8206,8303,8220,8197,8183,8299,8163,8142,8251,5.392791509628296,False
112,8162,8148,8196,8166,8148,8191,8133,8194,8198,8181,8303,8174,8158,8271,5.399786949157715,False
113,8157,8167,8145,8153,8133,8194,8107,8180,8212,8194,8308,8180,8151,8286,5.407764196395874,False
114,8169,8177,8162,8200,8173,8196,8157,8189,8207,8190,8330,8190,8156,8299,5.415682554244995,False
115,8184,8180,8178,8192,8178,8187,8150,8181,8196,8188,8337,8183,8168,8305,5.423741340637207,False
116,8223,8193,8243,8146,8234,8195,8267,8198,8188,8173,8323,8198,8153,8296,5.431800603866577,False
117,8191,8187,8182,8195,8178,8194,8161,8187,8193,8161,8305,8194,8144,8299,5.439865827560425,False
118,8164,8180,8172,8263,8199,8184,8191,8182,8174,8136,8303,8180,8126,8294,5.447777271270752,False
119,8177,8179,8194,8256,8190,8181,8170,8174,8148,8116,8296,8174,8122,8282,5.455957889556885,False
120,8149,8177,8127,8244,8153,8190,8105,8161,8152,8124,8272,8160,8146,8280,5.462863445281982,False
121,8154,8180,8195,8255,8243,8208,8282,8197,8159,8117,8272,8170,8119,8266,5.470752239227295,False
122,8168,8176,8198,8256,8191,8204,8161,8185,8175,8125,8280,8161,8095,8254,5.4789581298828125,False
123,8172,8184,8173,8266,8207,8204,8174,8180,8188,8161,8272,8163,8132,8254,5.487021446228027,False
124,8183,8197,8228,8278,8264,8213,8273,8204,8191,8199,8265,8189,8154,8256,5.495193243026733,False
125,8164,8197,8172,8288,8162,8198,8080,8178,8202,8210,8259,8168,8122,8259,5.502946615219116,False
126,8160,8196,8129,8299,8140,8189,8055,8166,8210,8203,8248,8159,8112,8261,5.510778427124023,False
127,8174,8180,8149,8283,8170,8191,8115,8177,8224,8219,8249,8188,8166,8281,5.518937826156616,False
238,8205,8183,8177,8304,8178,8192,8137,8191,8250,8244,8266,8212,8203,8324,5.525767087936401,False
0,8240,8229,8180,8342,8152,8194,8108,8189,8260,8255,8265,8216,8190,8352,5.533748865127564,False
1,8247,8258,8180,8324,8172,8198,8142,8176,8243,8235,8241,8217,8168,8352,5.541814565658569,False
2,8269,8251,8248,8335,8254,8210,8272,8182,8225,8198,8224,8224,8144,8338,5.549813270568848,False
3,8263,8237,8201,8408,8190,8210,8131,8156,8219,8180,8224,8204,8144,8325,5.557702541351318,False
4,8222,8227,8141,8401,8181,8202,8146,8136,8184,8151,8217,8181,8133,8302,5.56602668762207,False
5,8199,8206,8183,8320,8243,8203,8267,8141,8130,8098,8204,8176,8083,8284,5.57377290725708,False
6,8170,8189,8145,8312,8190,8191,8128,8108,8103,8063,8197,8153,8046,8265,5.58201265335083,False
7,8172,8191,8161,8334,8220,8172,8191,8112,8080,8039,8191,8157,8040,8231,5.5900702476501465,False
8,8161,8165,8150,8319,8192,8162,8164,8129,8079,8050,8182,8171,8067,8232,5.596760749816895,False
9,8154,8146,8156,8301,8211,8172,8219,8155,8107,8096,8192,8171,8086,8255,5.605026006698608,False
10,8198,8174,8260,8308,8277,8190,8338,8193,8128,8138,8216,8194,8096,8277,5.612972497940064,False
11,8171,8176,8175,8321,8165,8183,8106,8167,8161,8187,8205,8184,8135,8302,5.62104344367981,False
12,8165,8156,8153,8307,8185,8187,8163,8178,8195,8222,8191,8172,8147,8301,5.629008054733276,False
13,8212,8168,8212,8323,8204,8210,8190,8204,8228,8250,8196,8190,8154,8311,5.637007236480713,False
14,8195,8190,8131,8353,8122,8215,8010,8192,8253,8277,8196,8195,8192,8347,5.644999265670776,False
15,8171,8179,8095,8324,8149,8206,8087,8192,8249,8278,8187,8192,8194,8342,5.652921915054321,False
16,8191,8168,8140,8297,8208,8198,8205,8188,8239,8257,8177,8184,8160,8314,5.659879446029663,False
17,8232,8188,8205,8330,8245,8200,8268,8196,8229,8234,8178,8199,8157,8322,5.668017864227295,False
18,8226,8202,8184,8358,8184,8202,8170,8185,8227,8239,8179,8207,8184,8345,5.675946950912476,False
19,8198,8206,8155,8344,8169,8209,8141,8156,8216,8223,8172,8194,8176,8339,5.684004545211792,False
20,8212,8213,8211,8345,8221,8214,8215,8146,8175,8154,8156,8190,8131,8304,5.69203519821167,False
21,8205,8203,8175,8351,8169,8204,8126,8128,8153,8114,8143,8176,8111,8281,5.699931144714356,False
22,8172,8183,8143,8323,8186,8222,8167,8134,8152,8110,8147,8165,8098,8257,5.708035707473755,False
23,8142,8165,8164,8282,8216,8234,8196,8136,8132,8081,8135,8146,8062,8217,5.716099500656128,False
24,8127,8153,8135,8256,8160,8208,8117,8125,8115,8064,8111,8120,8029,8196,5.723808526992798,False
25,8143,8156,8135,8253,8173,8204,8159,8142,8132,8092,8118,8136,8031,8205,5.730987787246704,False
26,8132,8161,8133,8271,8185,8212,8139,8139,8160,8124,8135,8148,8056,8217,5.739008665084839,False
27,8130,8161,8163,8275,8205,8204,8199,8148,8170,8133,8136,8141,8049,8207,5.747082710266113,False
28,8146,8152,8160,8255,8155,8201,8138,8175,8188,8155,8135,8147,8044,8216,5.754913568496704,False
29,8148,8157,8125,8245,8142,8201,8091,8187,8223,8185,8149,8163,8084,8254,5.7630345821380615,False
30,8188,8181,8231,8252,8257,8194,8307,8213,8234,8193,8173,8198,8124,8273,5.771028995513916,False
31,8195,8188,8211,8261,8181,8180,8169,8196,8245,8210,8180,8205,8167,8298,5.779020547866821,False
32,8189,8194,8144,8277,8145,8188,8080,8177,8255,8227,8175,8201,8198,8326,5.787006616592407,False
33,8234,8220,8219,8303,8215,8199,8206,8188,8251,8223,8180,8222,8199,8333,5.794006586074829,False
34,8249,8237,8216,8325,8176,8191,8140,8179,8254,8225,8183,8229,8218,8354,5.801931619644165,False
35,8241,8228,8186,8322,8183,8198,8152,8192,8249,8215,8183,8224,8233,8367,5.810071229934692,False
36,8210,8198,8162,8284,8184,8215,8146,8187,8234,8187,8172,8202,8209,8333,5.8179895877838135,False
37,8190,8184,8171,8255,8195,8216,8176,8173,8213,8155,8156,8180,8168,8288,5.825808763504028,False
38,8198,8183,8180,8252,8181,8197,8161,8167,8188,8133,8151,8176,8151,8274,5.834024667739868,False
39,8159,8163,8108,8227,8136,8182,8083,8156,8181,8121,8152,8155,8162,8270,5.842026710510254,False
40,8132,8145,8152,8186,8216,8196,8245,8184,8186,8110,8158,8147,8162,8255,5.84981107711792,False
41,8125,8133,8150,8162,8176,8192,8172,8174,8197,8134,8153,8136,8161,8251,5.857053756713867,False
42,8128,8127,8122,8139,8162,8182,8163,8163,8203,8168,8148,8136,8160,8245,5.865001678466797,False
43,8154,8134,8209,8123,8239,8200,8301,8202,8215,8185,8155,8170,8165,8252,5.873150825500488,False
44,8135,8139,8160,8144,8151,8206,8099,8192,8245,8212,8151,8164,8187,8278,5.881030321121216,False
45,8144,8151,8126,8165,8140,8194,8082,8175,8251,8223,8143,8153,8185,8287,5.889030933380127,False
46,8180,8153,8168,8161,8172,8190,8165,8178,8241,8220,8143,8172,8182,8295,5.896789789199829,False
47,8174,8148,8163,8164,8165,8201,8158,8180,8243,8219,8141,8183,8198,8319,5.904979228973389,False
48,8184,8160,8183,8174,8189,8201,8201,8182,8227,8192,8127,8183,8198,8328,5.912868976593018,False
49,8202,8165,8172,8180,8161,8181,8155,8158,8205,8157,8118,8176,8189,8335,5.920991897583008,False
50,8213,8165,8188,8178,8181,8190,8207,8170,8204,8136,8128,8187,8185,8343,5.9279725551605225,False
51,8187,8158,8175,8166,8167,8208,8161,8182,8210,8131,8125,8179,8184,8332,5.936027765274048,False
52,8166,8162,8155,8165,8167,8200,8161,8175,8191,8107,8101,8154,8164,8294,5.944063425064087,False
53,8186,8178,8202,8167,8199,8193,8257,8181,8164,8068,8091,8156,8134,8265,5.951815366744995,False
54,8135,8154,8129,8136,8131,8190,8114,8148,8162,8062,8090,8135,8124,8258,5.960026502609253,False
55,8089,8120,8122,8088,8163,8185,8194,8142,8143,8059,8086,8113,8101,8228,5.968096971511841,False
56,8108,8113,8177,8071,8136,8170,8240,8147,8127,8056,8080,8117,8083,8196,5.975772380828857,False
57,8110,8121,8119,8081,8025,8163,8106,8134,8159,8093,8089,8123,8120,8213,5.983991384506226,False
58,8112,8130,8133,8092,8064,8177,8183,8156,8184,8156,8112,8143,8159,8240,5.991040229797363,False
59,8114,8129,8149,8101,8081,8179,8169,8157,8198,8191,8115,8147,8177,8251,5.999100923538208,False
60,8133,8128,8160,8096,8100,8185,8190,8165,8213,8179,8111,8154,8189,8266,6.00701379776001,False
61,8152,8122,8169,8090,8070,8201,8163,8184,8212,8178,8116,8172,8202,8291,6.014971017837524,False
62,8147,8135,8151,8119,8029,8202,8086,8176,8205,8197,8115,8174,8214,8311,6.0230913162231445,False
63,8191,8173,8207,8161,8097,8199,8185,8190,8219,8195,8116,8192,8224,8330,6.030962944030762,False
64,8217,8183,8188,8169,8077,8195,8157,8186,8237,8199,8120,8199,8242,8352,6.038965463638306,True
65,8194,8175,8170,8156,8078,8193,8210,8179,8211,8191,8116,8185,8236,8336,6.04702615737915,True
66,8173,8180,8179,8160,8061,8189,8174,8171,8176,8158,8108,8171,8216,8305,6.053966283798218,True
67,8165,8185,8141,8157,8023,8182,8077,8150,8165,8136,8111,8164,8210,8306,6.0620317459106445,True
68,8176,8169,8218,8125,8142,8195,8286,8163,8142,8119,8116,8179,8187,8291,6.070026636123657,True
69,8128,8130,8188,8098,8111,8182,8199,8141,8125,8108,8098,8148,8163,8249,6.077798843383789,True
70,8080,8113,8096,8084,8052,8158,8083,8123,8125,8094,8082,8105,8142,8221,6.08600115776062,True
71,8098,8117,8143,8072,8108,8175,8190,8145,8127,8090,8099,8121,8134,8217,6.094001770019531,True
72,8090,8114,8140,8067,8090,8189,8150,8145,8138,8119,8111,8127,8148,8219,6.101822853088379,True
73,8102,8124,8152,8081,8107,8176,8197,8160,8154,8129,8108,8122,8148,8217,6.109994649887085,True
74,8124,8137,8158,8101,8087,8170,8156,8177,8183,8138,8111,8129,8159,8238,6.118005752563477,True
75,8127,8133,8147,8098,8075,8184,8149,8193,8214,8173,8118,8146,8186,8268,6.124983549118042,True
76,8144,8133,8171,8093,8079,8177,8191,8197,8222,8199,8118,8159,8205,8286,6.132989406585693,True
77,8155,8157,8148,8122,8062,8165,8139,8179,8238,8210,8127,8154,8227,8301,6.140979051589966,True
78,8206,8187,8228,8149,8177,8192,8307,8213,8239,8206,8146,8191,8232,8314,6.148982048034668,True
79,8230,8177,8240,8147,8130,8192,8219,8205,8224,8195,8139,8216,8238,8339,6.157013416290283,True
80,8197,8162,8155,8141,8035,8171,8093,8160,8207,8174,8125,8190,8238,8351,6.165039539337158,True
81,8195,8165,8181,8130,8102,8193,8211,8170,8172,8141,8126,8174,8209,8321,6.173011064529419,True
82,8167,8147,8156,8110,8095,8205,8156,8154,8144,8122,8118,8160,8190,8284,6.180997848510742,True
83,8136,8128,8135,8096,8089,8192,8168,8147,8140,8116,8120,8150,8186,8267,6.188027381896973,True
84,8139,8128,8149,8091,8081,8182,8144,8162,8154,8121,8125,8140,8180,8262,6.196090221405029,True
85,8135,8126,8153,8079,8085,8172,8126,8157,8152,8126,8116,8128,8158,8248,6.203938722610474,True
86,8130,8116,8172,8065,8108,8163,8194,8147,8136,8122,8112,8137,8146,8239,6.212022542953491,True
87,8117,8114,8127,8066,8073,8167,8140,8140,8161,8145,8120,8145,8171,8265,6.220024347305298,True
88,8151,8135,8175,8073,8140,8190,8249,8178,8186,8172,8135,8157,8185,8288,6.227926731109619,True
89,8174,8134,8195,8072,8114,8186,8197,8181,8175,8167,8137,8161,8180,8291,6.236026048660278,True
90,8155,8121,8133,8081,8063,8166,8117,8169,8179,8157,8135,8158,8200,8303,6.244035482406616,True
91,8177,8139,8197,8100,8135,8183,8245,8213,8203,8179,8148,8185,8225,8323,6.251861810684204,True
92,8185,8157,8191,8122,8081,8196,8122,8207,8206,8210,8152,8193,8231,8337,6.259003400802612,True
93,8195,8169,8177,8141,8087,8181,8142,8183,8182,8185,8145,8190,8217,8333,6.267030954360962,True
94,8215,8176,8210,8147,8132,8175,8227,8175,8169,8149,8144,8197,8210,8320,6.2750244140625,True
95,8197,8173,8171,8145,8098,8177,8148,8149,8160,8139,8143,8184,8207,8310,6.282993078231812,True
96,8200,8178,8182,8145,8106,8179,8171,8148,8139,8118,8135,8182,8181,8300,6.29105019569397,True
97,8189,8177,8159,8141,8071,8185,8105,8141,8129,8094,8123,8169,8159,8296,6.299025058746338,True
98,8169,8164,8158,8124,8118,8192,8180,8132,8107,8064,8124,8156,8146,8270,6.306934833526611,True
99,8167,8151,8187,8114,8140,8173,8221,8117,8072,8055,8138,8161,8145,8243,6.315084218978882,True
100,8149,8146,8142,8108,8083,8151,8124,8105,8079,8082,8144,8156,8156,8253,6.322096586227417,True
101,8152,8143,8152,8100,8127,8167,8157,8135,8112,8103,8145,8156,8162,8263,6.329917192459106,True
102,8157,8143,8136,8114,8134,8172,8072,8145,8146,8133,8146,8156,8190,8270,6.338024377822876,True
103,8187,8168,8185,8133,8209,8159,8198,8182,8173,8170,8147,8184,8208,8290,6.345989465713501,True
104,8215,8177,8254,8136,8239,8157,8288,8220,8202,8191,8152,8208,8203,8308,6.35379958152771,True
105,8166,8153,8149,8127,8137,8164,8085,8186,8231,8203,8149,8174,8217,8311,6.362089395523071,True
106,8167,8154,8144,8126,8182,8175,8173,8187,8228,8201,8144,8168,8223,8301,6.370022773742676,True
107,8204,8167,8187,8137,8189,8173,8200,8200,8225,8198,8143,8187,8211,8304,6.377853870391846,True
108,8202,8165,8164,8136,8155,8178,8137,8189,8229,8189,8144,8186,8193,8304,6.385913610458374,True
109,8206,8166,8174,8135,8176,8194,8181,8192,8219,8176,8147,8182,8190,8295,6.393011569976807,True
110,8204,8180,8168,8154,8160,8191,8164,8194,8221,8169,8148,8171,8205,8290,6.401022911071777,True
111,8206,8194,8186,8169,8176,8187,8193,8188,8217,8149,8151,8178,8200,8293,6.409026622772217,True
112,8190,8189,8160,8165,8172,8194,8130,8138,8195,8129,8148,8181,8186,8302,6.417017459869385,True
113,8184,8186,8167,8160,8228,8203,8198,8119,8174,8120,8145,8177,8179,8298,6.425104141235352,True
114,8201,8187,8203,8152,8216,8198,8201,8141,8172,8124,8148,8177,8184,8289,6.432748794555664,True
115,8182,8179,8129,8149,8122,8181,8037,8133,8186,8143,8147,8163,8205,8301,6.440868377685547,True
116,8206,8187,8206,8151,8262,8191,8273,8169,8181,8145,8153,8181,8196,8300,6.448994159698486,True
117,8209,8186,8250,8143,8278,8188,8271,8182,8176,8145,8152,8180,8179,8280,6.455945014953613,True
118,8151,8169,8124,8129,8144,8151,8034,8146,8186,8154,8143,8150,8187,8283,6.463876485824585,True
119,8164,8165,8135,8131,8182,8147,8135,8166,8187,8162,8147,8169,8203,8303,6.471989154815674,True
120,8202,8176,8174,8152,8210,8171,8183,8193,8200,8184,8151,8187,8222,8315,6.479803800582886,True
121,8205,8179,8181,8153,8212,8180,8194,8205,8215,8200,8156,8185,8234,8315,6.487895011901856,True
122,8198,8168,8173,8134,8177,8168,8159,8202,8219,8201,8162,8189,8238,8325,6.49585485458374,True
123,8205,8172,8165,8139,8176,8167,8167,8191,8217,8192,8157,8185,8231,8332,6.503912925720215,True
124,8210,8186,8192,8158,8215,8181,8214,8184,8205,8179,8148,8175,8209,8312,6.512019157409668,True
125,8175,8175,8137,8152,8159,8178,8088,8157,8205,8178,8144,8160,8208,8299,6.520049810409546,True
126,8192,8181,8174,8150,8202,8183,8202,8178,8205,8165,8146,8176,8213,8309,6.5269951820373535,True
127,8214,8188,8204,8158,8201,8194,8202,8187,8197,8145,8145,8178,8195,8316,6.534991264343262,True
237,8169,8171,8127,8142,8161,8180,8109,8162,8187,8143,8143,8148,8179,8294,6.54296350479126,True
0,8173,8171,8190,8127,8245,8172,8273,8189,8182,8145,8150,8168,8183,8281,6.5510218143463135,True
1,8184,8183,8199,8135,8204,8177,8172,8182,8195,8155,8152,8186,8209,8313,6.558955430984497,True
2,8169,8182,8141,8138,8167,8176,8092,8153,8184,8148,8144,8168,8208,8317,6.566937208175659,True
3,8162,8169,8143,8120,8163,8166,8127,8149,8156,8132,8135,8143,8180,8278,6.574814081192017,True
4,8159,8160,8139,8105,8138,8159,8116,8153,8160,8145,8133,8134,8174,8273,6.582894802093506,True
5,8184,8160,8183,8102,8194,8163,8218,8182,8181,8165,8144,8166,8187,8302,6.589844703674316,True
6,8168,8148,8159,8105,8159,8162,8158,8179,8202,8188,8148,8177,8213,8315,6.5977537631988525,True
7,8148,8143,8143,8106,8151,8166,8149,8174,8193,8192,8143,8160,8215,8306,6.605828046798706,True
8,8174,8153,8171,8110,8163,8165,8143,8179,8171,8183,8145,8158,8209,8312,6.613795280456543,True
9,8184,8158,8161,8119,8141,8160,8102,8173,8179,8192,8149,8171,8218,8331,6.622011423110962,True
10,8195,8166,8207,8128,8204,8171,8229,8189,8187,8201,8155,8190,8208,8327,6.629797697067261,True
11,8178,8167,8166,8136,8177,8168,8140,8170,8185,8199,8155,8168,8202,8311,6.638017892837524,True
12,8172,8167,8154,8137,8190,8163,8180,8164,8169,8166,8153,8150,8193,8287,6.644987344741821,True
13,8196,8165,8245,8131,8239,8172,8313,8190,8137,8129,8152,8168,8166,8267,6.653030872344971,True
14,8165,8154,8182,8126,8154,8164,8133,8166,8130,8134,8144,8156,8158,8266,6.660998344421387,True
15,8147,8167,8140,8130,8157,8166,8124,8163,8143,8139,8148,8144,8163,8259,6.668984889984131,True
16,8151,8176,8158,8131,8171,8180,8150,8170,8147,8136,8152,8150,8170,8251,6.677029371261597,True
17,8147,8166,8154,8123,8174,8179,8141,8163,8149,8163,8150,8160,8180,8262,6.684952259063721,True
18,8174,8173,8173,8140,8183,8179,8151,8171,8173,8211,8164,8176,8207,8278,6.693058490753174,True
19,8184,8197,8154,8164,8158,8183,8106,8171,8200,8237,8174,8178,8240,8293,6.701032161712647,True
20,8197,8206,8184,8166,8211,8186,8194,8181,8191,8228,8167,8186,8239,8310,6.708782911300659,True
21,8219,8197,8179,8177,8178,8176,8112,8179,8187,8228,8158,8192,8231,8332,6.716019153594971,True
22,8236,8202,8176,8192,8182,8176,8131,8196,8205,8233,8160,8193,8232,8338,6.724025011062622,True
23,8244,8205,8228,8174,8239,8195,8240,8214,8207,8226,8161,8193,8222,8328,6.731851577758789,True
24,8215,8184,8165,8158,8177,8185,8108,8174,8199,8220,8151,8172,8218,8330,6.739986181259155,True
25,8239,8178,8186,8162,8217,8169,8229,8177,8178,8191,8148,8181,8201,8336,6.7480456829071045,True
26,8255,8171,8218,8147,8202,8175,8230,8182,8153,8166,8149,8183,8186,8336,6.75580096244812,True
27,8207,8161,8142,8127,8126,8180,8063,8152,8142,8168,8149,8150,8198,8327,6.764020919799805,True
28,8205,8168,8145,8134,8163,8179,8141,8154,8138,8173,8152,8154,8206,8313,6.772086381912232,True
29,8213,8158,8142,8121,8164,8177,8174,8153,8125,8148,8142,8160,8196,8310,6.779039621353149,False
30,8208,8144,8166,8094,8192,8182,8222,8161,8108,8117,8142,8163,8189,8317,6.787016868591309,False
31,8202,8153,8169,8115,8172,8182,8167,8170,8130,8154,8163,8178,8220,8324,6.794991493225098,False
32,8190,8165,8132,8137,8154,8183,8138,8171,8172,8216,8170,8168,8240,8306,6.8031005859375,False
33,8185,8160,8167,8111,8203,8198,8217,8184,8175,8219,8157,8150,8205,8272,6.810948133468628,False
34,8146,8151,8118,8093,8143,8188,8088,8165,8166,8209,8154,8134,8198,8263,6.819021940231323,False
35,8156,8163,8147,8097,8194,8179,8200,8182,8163,8212,8172,8152,8214,8263,6.8268208503723145,False
36,8194,8177,8222,8110,8238,8190,8244,8201,8167,8208,8174,8167,8206,8270,6.833935022354126,False
37,8160,8172,8148,8122,8168,8186,8077,8163,8176,8201,8148,8142,8185,8278,6.8420164585113525,False
38,8147,8158,8142,8109,8200,8175,8179,8170,8157,8177,8135,8132,8155,8249,6.850055694580078,False
39,8165,8150,8156,8101,8187,8177,8174,8194,8166,8179,8147,8141,8159,8248,6.857944488525391,False
40,8183,8162,8170,8127,8192,8194,8171,8206,8196,8193,8160,8161,8181,8286,6.866018295288086,False
41,8188,8164,8184,8130,8202,8194,8181,8202,8177,8175,8152,8162,8169,8288,6.873979806900024,False
42,8166,8153,8136,8106,8178,8186,8130,8191,8159,8162,8145,8138,8156,8267,6.881823778152466,False
43,8174,8155,8174,8100,8218,8206,8217,8223,8181,8171,8167,8157,8183,8274,6.88994288444519,False
44,8163,8152,8170,8108,8170,8206,8140,8216,8200,8191,8177,8170,8213,8295,6.897957801818848,False
45,8147,8151,8156,8115,8174,8192,8153,8186,8169,8189,8171,8159,8190,8290,6.905780792236328,False
46,8174,8165,8182,8131,8186,8188,8169,8179,8151,8192,8180,8176,8195,8292,6.912938594818115,False
47,8178,8181,8145,8152,8136,8173,8084,8170,8175,8226,8188,8186,8250,8310,6.920993804931641,False
48,8186,8201,8205,8173,8226,8163,8248,8185,8166,8238,8194,8195,8257,8306,6.92906928062439,False
49,8189,8204,8220,8190,8217,8152,8191,8169,8153,8243,8201,8204,8257,8308,6.936973571777344,False
50,8191,8196,8166,8186,8165,8145,8104,8163,8177,8266,8201,8209,8284,8322,6.944965124130249,False
51,8212,8196,8192,8174,8189,8152,8176,8181,8188,8260,8201,8210,8277,8318,6.952988862991333,False
52,8207,8206,8176,8196,8170,8158,8114,8162,8169,8230,8197,8192,8256,8318,6.960774421691895,False
53,8219,8221,8201,8216,8224,8173,8207,8174,8162,8226,8194,8196,8254,8325,6.968825340270996,False
54,8212,8216,8202,8201,8221,8191,8212,8183,8177,8231,8191,8188,8248,8314,6.976929903030396,False
55,8186,8204,8153,8198,8181,8186,8135,8179,8186,8215,8197,8166,8233,8305,6.983768939971924,False
56,8199,8203,8165,8214,8195,8173,8143,8188,8189,8214,8206,8168,8236,8318,6.99188756942749,False
57,8205,8207,8163,8210,8187,8184,8128,8177,8190,8231,8200,8177,8251,8333,6.99992299079895,False
58,8215,8204,8206,8200,8229,8197,8239,8197,8182,8224,8194,8197,8246,8335,7.007837295532227,False
59,8198,8174,8156,8181,8167,8165,8133,8198,8190,8218,8191,8188,8244,8339,7.015885829925537,False
60,8179,8161,8124,8136,8184,8142,8163,8192,8189,8208,8197,8173,8243,8334,7.023858308792114,False
61,8211,8180,8250,8129,8288,8163,8357,8214,8158,8192,8199,8201,8226,8317,7.031901836395264,False
62,8182,8175,8186,8169,8169,8159,8112,8181,8169,8218,8183,8197,8233,8329,7.039756774902344,False
63,8141,8160,8102,8157,8139,8140,8063,8163,8193,8236,8186,8179,8236,8323,7.046843767166138,False
64,8158,8163,8155,8121,8201,8138,8205,8174,8179,8227,8202,8185,8229,8298,7.0546979904174805,False
65,8173,8173,8168,8143,8188,8131,8168,8157,8160,8227,8207,8182,8238,8305,7.062891483306885,False
66,8179,8180,8162,8173,8172,8125,8129,8144,8146,8224,8212,8181,8240,8318,7.070787191390991,False
67,8178,8184,8144,8174,8150,8130,8112,8134,8142,8211,8212,8182,8228,8313,7.078927040100098,False
68,8221,8206,8208,8197,8230,8148,8257,8157,8147,8189,8207,8199,8210,8319,7.086845874786377,False
69,8232,8212,8199,8217,8200,8152,8162,8162,8156,8191,8204,8195,8212,8343,7.094906568527222,False
70,8184,8185,8131,8196,8152,8155,8096,8150,8161,8189,8191,8164,8209,8324,7.103100538253784,False
71,8192,8182,8210,8187,8237,8180,8278,8175,8155,8160,8182,8180,8179,8288,7.110804080963135,False
72,8181,8189,8175,8201,8179,8187,8131,8164,8162,8165,8188,8184,8183,8300,7.117905616760254,False
73,8169,8181,8164,8199,8203,8188,8191,8176,8157,8178,8193,8171,8201,8305,7.126011610031128,False
74,8186,8169,8230,8180,8253,8181,8288,8197,8155,8181,8185,8173,8206,8284,7.13387393951416,False
75,8157,8172,8137,8166,8157,8159,8066,8165,8179,8202,8175,8152,8208,8274,7.141862154006958,False
76,8131,8187,8106,8160,8160,8163,8084,8163,8173,8197,8173,8139,8185,8266,7.149877548217773,False
77,8124,8172,8135,8158,8181,8167,8152,8169,8152,8190,8170,8140,8175,8257,7.157846689224243,False
78,8134,8156,8153,8154,8184,8150,8181,8172,8158,8215,8171,8156,8196,8262,7.166041374206543,False
79,8158,8162,8171,8155,8147,8142,8153,8173,8171,8228,8174,8182,8217,8281,7.172783613204956,False
80,8169,8175,8167,8170,8132,8157,8114,8165,8176,8222,8169,8193,8234,8310,7.180834770202637,False
81,8204,8192,8208,8188,8190,8163,8193,8175,8170,8212,8164,8209,8234,8324,7.188883543014526,False
82,8227,8200,8189,8200,8134,8134,8125,8160,8163,8208,8156,8213,8234,8337,7.196733474731445,False
83,8239,8203,8196,8207,8141,8122,8168,8161,8154,8212,8152,8227,8248,8366,7.205024003982544,False
84,8251,8208,8225,8215,8185,8138,8194,8175,8151,8216,8152,8241,8264,8385,7.212753534317017,False
85,8238,8216,8166,8225,8160,8135,8107,8157,8146,8195,8141,8217,8255,8391,7.22074031829834,False
86,8258,8223,8224,8216,8234,8142,8271,8182,8126,8162,8140,8218,8224,8391,7.228840351104736,False
87,8248,8207,8235,8201,8195,8155,8185,8186,8140,8179,8149,8225,8230,8383,7.236784934997559,False
88,8187,8190,8138,8194,8119,8141,8045,8153,8163,8182,8137,8197,8239,8347,7.243741989135742,False
89,8183,8192,8145,8192,8162,8126,8165,8158,8146,8146,8132,8180,8215,8312,7.251874685287476,False
90,8181,8184,8151,8189,8174,8137,8179,8169,8139,8150,8138,8171,8200,8305,7.259896278381348,False
91,8179,8181,8184,8179,8211,8157,8224,8192,8157,8178,8141,8180,8196,8296,7.267965078353882,False
92,8178,8196,8163,8191,8163,8156,8119,8193,8179,8198,8138,8185,8214,8296,7.275912284851074,False
93,8190,8209,8168,8217,8189,8163,8180,8202,8185,8208,8144,8192,8231,8306,7.283904552459717,False
94,8226,8207,8273,8210,8268,8174,8340,8233,8183,8214,8157,8223,8227,8318,7.291861772537231,False
95,8208,8193,8201,8195,8157,8153,8110,8212,8203,8232,8151,8221,8246,8335,7.299951553344727,False
96,8213,8193,8152,8198,8143,8149,8102,8201,8209,8230,8147,8217,8255,8345,7.307051420211792,False
97,8243,8199,8175,8202,8156,8155,8142,8185,8193,8216,8157,8233,8251,8379,7.314930438995361,False
98,8254,8213,8167,8211,8146,8145,8109,8167,8184,8216,8164,8248,8268,8427,7.322965860366821,False
99,8290,8232,8241,8222,8216,8142,8241,8182,8165,8206,8160,8257,8268,8427,7.331017732620239,False
100,8271,8215,8219,8208,8176,8129,8161,8151,8141,8190,8153,8229,8247,8403,7.33898115158081,False
101,8222,8179,8143,8173,8137,8118,8090,8129,8129,8170,8147,8203,8230,8385,7.346788644790649,False
102,8212,8162,8130,8159,8143,8129,8113,8152,8136,8150,8141,8195,8219,8367,7.3548877239227295,False
103,8216,8180,8158,8173,8182,8131,8174,8175,8153,8151,8147,8195,8217,8357,7.362942695617676,False
104,8216,8190,8193,8182,8205,8116,8199,8189,8166,8173,8158,8204,8225,8352,7.370824098587036,False
105,8193,8175,8148,8180,8135,8116,8091,8189,8191,8203,8161,8190,8246,8339,7.377821683883667,False
106,8194,8185,8173,8180,8192,8134,8207,8212,8206,8210,8168,8189,8242,8323,7.385819911956787,False
107,8190,8192,8185,8185,8200,8137,8183,8208,8204,8215,8163,8197,8234,8326,7.393953561782837,False
108,8167,8176,8123,8181,8139,8125,8074,8182,8203,8220,8151,8181,8241,8333,7.401837110519409,False
109,8205,8186,8195,8175,8205,8126,8232,8209,8197,8211,8159,8192,8233,8323,7.4098615646362305,False
110,8211,8200,8180,8176,8157,8124,8134,8194,8201,8211,8156,8193,8232,8317,7.417747735977173,False
111,8182,8190,8145,8162,8163,8129,8142,8176,8188,8192,8142,8183,8218,8305,7.426053047180176,False
112,8194,8184,8208,8162,8233,8142,8262,8184,8160,8172,8147,8194,8192,8291,7.433914661407471,False
113,8183,8189,8163,8181,8161,8144,8117,8157,8163,8174,8147,8187,8194,8292,7.440952777862549,False
114,8152,8183,8123,8168,8142,8155,8109,8153,8182,8166,8146,8175,8196,8283,7.449038982391357,False
115,8137,8163,8126,8146,8166,8163,8160,8161,8187,8163,8154,8167,8182,8275,7.457007884979248,False
116,8151,8160,8157,8152,8209,8168,8219,8173,8181,8154,8151,8173,8163,8269,7.464975595474243,False
117,8138,8160,8151,8150,8189,8176,8182,8178,8183,8130,8143,8170,8149,8241,7.472860336303711,False
118,8086,8144,8090,8126,8147,8182,8129,8169,8191,8123,8141,8142,8137,8209,7.480796575546265,False
119,8113,8146,8168,8125,8221,8198,8277,8199,8190,8134,8147,8154,8125,8208,7.488939046859741,False
120,8122,8136,8157,8129,8155,8204,8132,8196,8203,8151,8144,8156,8132,8219,7.496836185455322,False
121,8090,8112,8113,8102,8144,8192,8137,8189,8210,8155,8144,8138,8124,8201,7.504009962081909,False
122,8122,8120,8200,8093,8213,8175,8288,8205,8209,8155,8148,8156,8120,8199,7.511915445327759,False
123,8136,8137,8156,8116,8122,8168,8088,8181,8229,8187,8148,8166,8156,8246,7.520054578781128,False
124,8143,8141,8133,8129,8148,8191,8135,8199,8248,8215,8157,8171,8176,8281,7.528010129928589,False
125,8154,8133,8177,8126,8199,8197,8234,8226,8254,8201,8157,8176,8169,8278,7.535840511322021,False
126,8145,8140,8161,8126,8168,8177,8164,8200,8244,8177,8147,8173,8160,8270,7.544023752212524,False
127,8153,8162,8152,8135,8155,8182,8150,8180,8219,8181,8149,8178,8146,8274,7.552016258239746,False
237,8160,8167,8140,8135,8155,8189,8149,8172,8209,8179,8152,8167,8139,8287,7.5599963665008545,False
0,8181,8161,8179,8124,8209,8173,8241,8174,8180,8134,8144,8164,8122,8289,7.567997455596924,False
1,8174,8158,8160,8129,8165,8167,8158,8153,8150,8109,8133,8159,8103,8280,7.575016498565674,False
2,8150,8167,8139,8135,8168,8184,8163,8160,8164,8122,8138,8152,8095,8265,7.583010196685791,False
3,8156,8163,8178,8120,8189,8179,8220,8193,8187,8122,8151,8162,8105,8258,7.590946674346924,False
4,8138,8147,8116,8114,8100,8148,8077,8164,8190,8126,8149,8163,8136,8267,7.599011421203613,False
5,8165,8159,8182,8128,8202,8159,8261,8172,8171,8125,8153,8184,8127,8264,7.606888294219971,False
6,8202,8168,8247,8134,8229,8173,8268,8189,8170,8122,8163,8196,8114,8257,7.614979267120361,False
7,8153,8153,8126,8130,8101,8153,8035,8157,8189,8137,8156,8171,8140,8262,7.622745990753174,False
8,8125,8144,8129,8119,8144,8155,8147,8163,8186,8156,8157,8179,8157,8262,7.630743741989136,False
9,8151,8145,8179,8115,8179,8169,8189,8176,8192,8176,8166,8200,8169,8279,7.637789249420166,False
10,8187,8164,8180,8141,8169,8161,8158,8179,8213,8184,8168,8209,8188,8299,7.645766973495483,False
11,8190,8182,8169,8168,8167,8149,8152,8177,8216,8188,8165,8211,8196,8304,7.653731346130371,False
12,8183,8185,8165,8165,8179,8164,8168,8182,8213,8199,8170,8212,8207,8326,7.661825180053711,False
13,8210,8200,8199,8162,8188,8177,8183,8202,8221,8201,8174,8217,8218,8348,7.669876337051392,False
14,8202,8208,8160,8173,8142,8160,8092,8189,8225,8198,8162,8190,8200,8330,7.677905321121216,False
15,8187,8200,8179,8164,8212,8162,8229,8198,8203,8176,8157,8171,8154,8289,7.68586802482605,False
16,8171,8177,8188,8140,8177,8171,8187,8186,8181,8158,8156,8174,8144,8266,7.694003105163574,False
17,8131,8149,8105,8125,8084,8151,8039,8138,8172,8152,8147,8160,8155,8257,7.701805114746094,False
18,8150,8145,8186,8114,8226,8153,8293,8163,8150,8128,8148,8169,8127,8240,7.709059238433838,False
19,8144,8147,8208,8109,8226,8164,8253,8171,8147,8134,8150,8171,8118,8223,7.716995239257812,False
20,8099,8147,8126,8108,8133,8152,8088,8142,8154,8153,8145,8146,8135,8199,7.72501277923584,False
21,8112,8147,8139,8109,8152,8143,8136,8142,8151,8144,8145,8144,8137,8194,7.73302149772644,False
22,8143,8147,8149,8120,8171,8153,8140,8149,8163,8148,8152,8163,8150,8231,7.740949392318726,False
23,8162,8158,8174,8130,8198,8174,8184,8168,8172,8162,8158,8188,8164,8258,7.748921394348144,False
24,8143,8163,8150,8136,8155,8181,8121,8166,8181,8167,8157,8182,8165,8258,7.757007122039795,False
25,8141,8165,8144,8146,8168,8190,8160,8181,8204,8172,8165,8179,8169,8262,7.7639312744140625,False
26,8182,8168,8180,8157,8170,8199,8170,8208,8233,8187,8175,8202,8183,8288,7.771982908248901,False
27,8182,8167,8145,8157,8120,8180,8086,8193,8230,8185,8161,8195,8185,8305,7.780050277709961,False
28,8193,8177,8205,8156,8208,8169,8256,8204,8199,8163,8158,8200,8163,8294,7.7877912521362305,False
29,8198,8175,8198,8165,8176,8173,8169,8201,8210,8173,8171,8208,8179,8307,7.795823097229004,False
30,8184,8174,8154,8166,8157,8178,8137,8193,8218,8174,8163,8199,8194,8313,7.804007768630981,False
31,8187,8173,8206,8150,8210,8177,8267,8196,8177,8156,8154,8194,8167,8279,7.811808824539185,False
32,8143,8149,8136,8130,8127,8164,8105,8153,8165,8156,8160,8171,8163,8255,7.819954633712768,False
33,8118,8142,8111,8122,8143,8153,8128,8141,8166,8137,8161,8164,8153,8238,7.82779598236084,False
34,8119,8142,8148,8123,8167,8138,8171,8135,8135,8125,8157,8166,8128,8221,7.834868669509888,False
35,8118,8141,8140,8126,8144,8137,8133,8129,8133,8150,8166,8168,8139,8234,7.843015432357788,True
36,8145,8155,8170,8130,8176,8161,8173,8162,8163,8172,8178,8188,8169,8262,7.850998163223267,True
37,8140,8159,8148,8132,8159,8166,8111,8170,8176,8183,8176,8187,8184,8275,7.859068155288696,True
38,8146,8155,8168,8139,8200,8164,8194,8184,8164,8188,8180,8190,8188,8282,7.866750240325928,True
39,8167,8166,8184,8150,8190,8168,8176,8188,8165,8185,8175,8197,8195,8298,7.874826192855835,True
40,8174,8185,8163,8158,8160,8171,8126,8180,8177,8187,8171,8198,8196,8301,7.882949590682983,True
41,8182,8184,8179,8175,8186,8182,8184,8187,8185,8192,8181,8200,8199,8293,7.890780210494995,True
42,8164,8175,8130,8193,8146,8190,8121,8179,8195,8185,8175,8182,8198,8294,7.897995948791504,True
43,8188,8191,8190,8194,8201,8197,8258,8199,8184,8164,8173,8202,8180,8293,7.906029939651489,True
44,8207,8197,8250,8192,8200,8202,8244,8201,8178,8168,8185,8234,8196,8300,7.913804054260254,True
45,8166,8187,8167,8197,8141,8195,8090,8167,8186,8173,8182,8209,8221,8310,7.92178201675415,True
46,8163,8182,8164,8184,8192,8180,8189,8175,8173,8153,8169,8183,8192,8291,7.92985200881958,True
47,8161,8165,8151,8165,8162,8155,8143,8178,8164,8163,8168,8181,8181,8276,7.937782049179077,True
48,8158,8162,8160,8158,8177,8151,8170,8176,8155,8169,8176,8197,8188,8283,7.946004390716553,True
49,8174,8178,8198,8164,8189,8148,8204,8168,8136,8151,8170,8205,8180,8283,7.953805208206177,True
50,8162,8179,8155,8179,8141,8128,8105,8142,8136,8154,8162,8185,8178,8276,7.962011098861694,True
51,8150,8165,8139,8165,8164,8115,8132,8142,8134,8157,8171,8174,8171,8268,7.969040870666504,True
52,8136,8149,8113,8135,8159,8107,8125,8135,8118,8152,8177,8170,8160,8270,7.977009057998657,True
53,8156,8159,8161,8141,8212,8118,8216,8155,8107,8140,8174,8186,8146,8278,7.984806537628174,True
54,8182,8172,8208,8165,8184,8130,8153,8170,8106,8137,8181,8205,8150,8285,7.992852210998535,True
55,8166,8168,8148,8171,8114,8128,8051,8154,8112,8144,8179,8193,8175,8292,8.000793218612671,True
56,8190,8170,8203,8177,8225,8146,8268,8179,8113,8130,8175,8200,8176,8299,8.009068489074707,True
57,8203,8180,8211,8198,8208,8161,8191,8179,8126,8145,8187,8207,8197,8318,8.01677656173706,True
58,8182,8188,8153,8207,8151,8162,8088,8171,8152,8180,8193,8198,8222,8324,8.025007486343384,True
59,8180,8181,8162,8199,8188,8161,8179,8182,8159,8164,8175,8190,8199,8312,8.032085657119751,True
60,8172,8165,8149,8193,8173,8148,8161,8170,8153,8150,8163,8181,8190,8303,8.039903402328491,True
61,8187,8167,8190,8185,8185,8138,8222,8183,8143,8163,8180,8201,8206,8290,8.047917366027832,True
62,8186,8168,8187,8171,8151,8129,8158,8178,8139,8158,8176,8201,8196,8279,8.056086540222168,True
63,8163,8154,8152,8156,8149,8131,8146,8163,8131,8139,8156,8177,8164,8259,8.064279079437256,True
64,8138,8134,8155,8143,8162,8138,8185,8167,8123,8146,8161,8172,8150,8236,8.072084188461304,True
65,8110,8132,8119,8142,8133,8134,8117,8158,8139,8159,8172,8170,8162,8246,8.079906702041626,True
66,8160,8157,8203,8154,8218,8144,8250,8183,8146,8153,8178,8200,8167,8268,8.088081359863281,True
67,8188,8164,8221,8162,8177,8158,8165,8181,8147,8159,8176,8211,8170,8277,8.094796180725098,True
68,8148,8156,8137,8154,8120,8158,8089,8161,8145,8157,8175,8184,8178,8280,8.10297679901123,True
69,8145,8167,8173,8151,8179,8168,8227,8180,8141,8148,8182,8191,8173,8279,8.11080288887024,True
70,8148,8179,8174,8172,8139,8187,8144,8186,8163,8165,8180,8199,8177,8289,8.118953227996826,True
71,8165,8180,8169,8179,8157,8212,8164,8203,8169,8162,8179,8197,8194,8303,8.126978158950806,True
72,8186,8169,8163,8167,8165,8223,8182,8210,8160,8149,8179,8195,8193,8310,8.135007381439209,True
73,8177,8172,8145,8173,8150,8222,8169,8202,8174,8150,8183,8194,8167,8300,8.142886638641357,True
74,8172,8178,8190,8182,8187,8226,8223,8206,8186,8161,8197,8200,8169,8286,8.150986194610596,True
75,8158,8169,8164,8181,8158,8225,8136,8170,8188,8190,8204,8188,8202,8285,8.158917665481567,True
76,8168,8183,8167,8189,8168,8224,8175,8145,8176,8195,8203,8189,8194,8289,8.165810823440552,True
77,8178,8189,8176,8192,8137,8201,8134,8133,8163,8183,8201,8193,8183,8287,8.173831224441528,True
78,8169,8175,8160,8184,8142,8166,8119,8131,8158,8183,8201,8188,8188,8276,8.181997776031494,True
79,8191,8180,8215,8179,8222,8169,8242,8157,8148,8180,8209,8197,8175,8275,8.189769268035889,True
80,8171,8172,8161,8167,8143,8171,8109,8145,8147,8180,8211,8185,8177,8289,8.197956800460815,True
81,8157,8156,8151,8147,8154,8159,8164,8157,8146,8177,8214,8190,8181,8297,8.205950260162354,True
82,8198,8172,8215,8159,8208,8165,8232,8184,8147,8178,8227,8217,8188,8318,8.214022159576416,True
83,8211,8193,8176,8187,8154,8174,8103,8169,8142,8180,8228,8211,8201,8347,8.221901655197144,True
84,8217,8188,8176,8182,8160,8171,8166,8170,8120,8167,8212,8201,8175,8341,8.228953838348389,True
85,8197,8178,8164,8166,8155,8163,8168,8171,8112,8160,8208,8187,8152,8312,8.236759901046753,True
86,8167,8184,8150,8172,8168,8174,8162,8169,8118,8161,8221,8179,8163,8289,8.244761943817139,True
87,8168,8193,8158,8192,8161,8190,8136,8164,8128,8177,8225,8192,8185,8291,8.252690315246582,True
88,8192,8200,8154,8208,8157,8196,8140,8175,8149,8188,8218,8198,8200,8318,8.26067328453064,True
89,8222,8211,8206,8213,8210,8199,8239,8206,8157,8182,8215,8206,8195,8322,8.268767833709717,True
90,8186,8197,8158,8202,8147,8196,8094,8180,8161,8196,8208,8194,8194,8305,8.27666163444519,True
91,8168,8186,8155,8174,8180,8188,8184,8183,8161,8204,8207,8188,8195,8287,8.284637451171875,True
92,8201,8191,8225,8168,8209,8173,8266,8209,8150,8189,8210,8203,8197,8289,8.292719602584839,True
92,8201,8191,8225,8168,8209,8173,8266,8209,8150,8189,8210,8203,8197,8289,8.301763772964478,True
93,8186,8191,8156,8186,8109,8167,8053,8175,8152,8202,8205,8196,8214,8319,8.307670593261719,True
94,8193,8199,8188,8197,8187,8188,8203,8188,8153,8215,8212,8205,8221,8323,8.315765380859375,True
95,8199,8200,8231,8197,8218,8192,8276,8210,8157,8208,8209,8215,8221,8313,8.32390284538269,True
96,8163,8183,8175,8189,8158,8183,8159,8195,8173,8205,8193,8203,8221,8324,8.331650972366333,True
97,8147,8169,8148,8183,8126,8177,8109,8189,8180,8200,8186,8188,8212,8330,8.340107440948486,True
98,8138,8174,8120,8181,8113,8167,8103,8177,8163,8176,8177,8170,8185,8304,8.347731113433838,True
99,8166,8194,8191,8173,8202,8179,8264,8183,8133,8143,8178,8181,8146,8272,8.356005430221558,True
100,8171,8189,8175,8175,8141,8177,8138,8154,8138,8138,8184,8179,8158,8288,8.362953424453735,True
101,8185,8187,8180,8188,8160,8155,8189,8142,8138,8131,8186,8184,8177,8311,8.370954751968384,True
102,8236,8197,8274,8191,8223,8152,8310,8167,8109,8125,8189,8216,8166,8318,8.37881088256836,True
103,8209,8183,8172,8180,8091,8140,8055,8139,8115,8147,8185,8202,8176,8331,8.38700819015503,True
104,8193,8174,8163,8167,8141,8139,8162,8157,8133,8160,8184,8196,8178,8323,8.39494276046753,True
105,8182,8167,8187,8154,8156,8147,8193,8173,8141,8174,8180,8195,8174,8302,8.406001806259155,True
106,8114,8148,8066,8142,8046,8141,7993,8138,8155,8188,8172,8158,8189,8287,8.410722732543945,True
107,8090,8151,8064,8149,8083,8153,8078,8150,8160,8180,8179,8145,8190,8265,8.418719291687012,True
108,8119,8179,8139,8178,8142,8182,8189,8184,8165,8200,8196,8159,8195,8253,8.425684213638306,True
109,8141,8197,8169,8193,8164,8203,8218,8202,8181,8238,8201,8177,8216,8261,8.43378233909607,True
110,8136,8193,8144,8196,8152,8214,8159,8196,8204,8243,8195,8186,8236,8282,8.441736936569214,True
111,8145,8196,8154,8208,8161,8231,8176,8199,8205,8230,8198,8196,8244,8306,8.44998025894165,True
112,8167,8196,8186,8204,8152,8231,8196,8196,8188,8223,8195,8211,8241,8327,8.457907915115356,True
113,8153,8168,8149,8158,8116,8208,8123,8165,8184,8220,8177,8200,8233,8341,8.46605634689331,True
114,8155,8142,8162,8117,8158,8202,8199,8171,8164,8196,8169,8182,8201,8327,8.473941564559937,True
115,8155,8137,8146,8125,8096,8179,8116,8166,8136,8163,8164,8157,8167,8292,8.4820396900177,True
116,8144,8142,8121,8135,8085,8137,8103,8143,8126,8145,8154,8146,8141,8265,8.488924264907837,True
117,8183,8150,8242,8114,8226,8134,8346,8175,8107,8127,8162,8181,8120,8256,8.496862173080444,True
118,8173,8142,8207,8099,8143,8138,8172,8172,8101,8137,8171,8180,8138,8268,8.505971670150757,True
119,8124,8134,8090,8104,8069,8129,8017,8143,8111,8157,8172,8152,8145,8276,8.513032674789429,True
120,8125,8139,8111,8109,8123,8143,8097,8139,8123,8166,8176,8164,8144,8282,8.520917654037476,True
121,8136,8149,8145,8104,8143,8167,8153,8157,8147,8181,8181,8195,8180,8303,8.532967329025269,True
122,8148,8155,8201,8096,8197,8187,8277,8204,8165,8199,8191,8219,8204,8315,8.536935806274414,True
123,8122,8135,8167,8094,8159,8203,8170,8204,8192,8231,8198,8209,8223,8332,8.544751644134521,True
124,8098,8122,8120,8111,8137,8221,8101,8201,8233,8254,8205,8205,8259,8356,8.552995681762695,True
125,8112,8132,8137,8134,8173,8239,8152,8227,8262,8260,8208,8220,8276,8370,8.5600004196167,True
126,8124,8140,8138,8137,8197,8253,8184,8240,8280,8269,8205,8224,8268,8381,8.567745685577393,True
127,8153,8151,8192,8139,8224,8256,8265,8255,8287,8262,8203,8235,8272,8390,8.5760657787323,True
237,8156,8164,8162,8160,8131,8234,8115,8237,8298,8270,8201,8230,8306,8403,8.583932399749756,True
0,8152,8174,8164,8171,8165,8228,8184,8240,8298,8281,8195,8227,8303,8399,8.592081546783447,True
1,8162,8164,8236,8150,8226,8230,8306,8253,8282,8256,8186,8231,8263,8372,8.599959135055542,True
2,8134,8136,8158,8129,8109,8208,8092,8203,8262,8226,8175,8194,8253,8344,8.610994338989258,True
3,8130,8134,8131,8130,8117,8199,8103,8174,8235,8218,8177,8178,8249,8322,8.621965169906616,True
4,8129,8136,8149,8127,8159,8194,8164,8164,8217,8226,8177,8176,8229,8306,8.623925685882568,True
5,8117,8130,8150,8110,8170,8179,8188,8160,8201,8225,8163,8160,8209,8292,8.630982637405396,True
6,8138,8136,8182,8111,8179,8170,8209,8162,8192,8218,8157,8162,8195,8290,8.639013051986694,True
7,8137,8138,8152,8126,8143,8165,8141,8140,8194,8216,8159,8172,8185,8301,8.646957159042358,True
8,8145,8131,8168,8122,8176,8176,8212,8158,8189,8210,8171,8186,8190,8310,8.655001878738403,True
9,8164,8127,8161,8121,8140,8185,8132,8173,8203,8219,8178,8197,8222,8330,8.662927389144897,True
10,8179,8145,8161,8134,8155,8192,8163,8178,8221,8225,8175,8200,8215,8341,8.67090368270874,True
11,8209,8173,8231,8138,8205,8202,8268,8187,8209,8213,8181,8203,8177,8326,8.678781270980835,True
12,8205,8177,8172,8146,8127,8190,8092,8157,8198,8194,8176,8176,8178,8316,8.685723304748535,True
13,8209,8176,8171,8158,8179,8171,8177,8166,8178,8164,8164,8168,8167,8302,8.693815469741821,True
14,8202,8176,8194,8162,8190,8151,8208,8178,8153,8160,8161,8167,8138,8280,8.70190167427063,True
15,8171,8180,8143,8163,8139,8142,8105,8161,8155,8166,8165,8149,8142,8266,8.710750818252563,True
16,8168,8185,8167,8168,8183,8157,8174,8167,8159,8156,8166,8150,8145,8245,8.717842102050781,True
17,8128,8166,8131,8155,8160,8159,8122,8150,8155,8167,8158,8136,8129,8217,8.72587537765503,True
18,8104,8154,8127,8127,8181,8150,8189,8151,8151,8169,8164,8135,8113,8204,8.733765602111816,True
19,8125,8159,8151,8123,8168,8157,8173,8166,8170,8165,8173,8157,8130,8224,8.741992235183716,True
20,8137,8170,8137,8150,8154,8187,8122,8175,8193,8182,8170,8162,8161,8250,8.74999189376831,True
21,8155,8181,8177,8162,8204,8204,8200,8186,8186,8184,8173,8163,8166,8259,8.756807565689087,True
22,8156,8180,8145,8157,8146,8185,8114,8150,8179,8172,8174,8154,8174,8269,8.764994859695435,True
23,8196,8196,8205,8178,8204,8180,8258,8151,8172,8169,8175,8177,8172,8275,8.772814273834229,True
24,8222,8203,8259,8196,8219,8177,8260,8157,8174,8191,8174,8199,8171,8286,8.78084945678711,True
25,8176,8182,8146,8181,8116,8164,8052,8130,8189,8213,8172,8180,8189,8299,8.789000988006592,True
26,8173,8169,8160,8160,8166,8172,8185,8159,8180,8190,8176,8178,8177,8292,8.796873569488525,True
27,8171,8167,8189,8163,8171,8164,8201,8185,8175,8178,8174,8183,8167,8289,8.804970741271973,True
28,8144,8174,8148,8168,8142,8151,8120,8188,8192,8204,8178,8182,8189,8298,8.812992572784424,True
29,8133,8170,8118,8150,8144,8163,8100,8188,8200,8212,8177,8169,8200,8294,8.819815158843994,True
30,8137,8158,8122,8144,8178,8169,8155,8187,8195,8196,8166,8159,8188,8282,8.82796835899353,True
31,8178,8171,8214,8158,8234,8170,8271,8212,8191,8194,8170,8195,8190,8290,8.835978031158447,True
32,8191,8177,8191,8166,8151,8176,8131,8191,8197,8209,8171,8201,8209,8314,8.843925476074219,True
33,8199,8174,8165,8172,8148,8182,8155,8162,8193,8203,8167,8182,8199,8305,8.85199499130249,True
34,8225,8183,8198,8191,8161,8185,8192,8152,8193,8202,8173,8196,8188,8284,8.860010147094727,True
35,8207,8191,8157,8201,8115,8184,8090,8134,8203,8206,8171,8186,8196,8288,8.867977142333984,True
36,8218,8197,8212,8193,8213,8189,8263,8157,8192,8197,8164,8179,8185,8290,8.87598204612732,True
37,8222,8190,8208,8184,8179,8176,8192,8152,8186,8199,8160,8180,8182,8281,8.883973836898804,True
38,8183,8173,8131,8167,8116,8163,8065,8128,8174,8174,8153,8161,8164,8262,8.891004085540771,True
39,8181,8167,8169,8159,8178,8166,8169,8144,8144,8142,8150,8158,8143,8257,8.898941993713379,True
40,8181,8170,8178,8169,8160,8162,8151,8153,8148,8157,8153,8163,8163,8269,8.90699577331543,True
41,8173,8163,8161,8173,8137,8163,8150,8167,8161,8162,8148,8162,8159,8260,8.914960384368896,True
42,8173,8154,8151,8181,8134,8171,8138,8179,8163,8153,8138,8158,8147,8260,8.922875165939331,True
43,8180,8163,8170,8194,8171,8171,8183,8186,8166,8160,8141,8168,8173,8287,8.930882215499878,True
44,8188,8165,8187,8192,8173,8165,8199,8182,8164,8162,8146,8186,8189,8291,8.939019918441772,True
45,8184,8163,8146,8194,8133,8163,8122,8161,8161,8169,8138,8182,8185,8287,8.946810483932495,True
46,8213,8184,8193,8205,8201,8166,8224,8180,8163,8187,8141,8193,8186,8306,8.953964948654175,True
47,8208,8183,8176,8209,8175,8162,8148,8166,8164,8187,8148,8188,8201,8320,8.961948156356812,True
48,8192,8168,8147,8204,8180,8164,8172,8141,8146,8170,8138,8175,8195,8306,8.969730138778687,True
49,8238,8179,8258,8200,8260,8171,8344,8166,8121,8164,8139,8191,8170,8290,8.97799015045166,True
50,8227,8176,8205,8199,8143,8147,8123,8150,8124,8167,8142,8176,8164,8288,8.985991477966309,True
51,8185,8162,8121,8184,8104,8128,8078,8133,8117,8144,8130,8156,8149,8276,8.99407410621643,True
52,8174,8152,8148,8154,8148,8140,8187,8143,8092,8128,8124,8150,8130,8259,9.002930402755737,True
53,8164,8140,8155,8142,8147,8146,8173,8148,8095,8141,8136,8140,8138,8254,9.009975671768188,True
54,8177,8142,8174,8157,8179,8137,8207,8156,8113,8144,8147,8157,8149,8261,9.018079280853271,True
55,8178,8150,8149,8167,8148,8134,8162,8148,8120,8143,8138,8163,8154,8277,9.0249502658844,True
56,8179,8148,8158,8155,8146,8152,8194,8159,8107,8132,8133,8159,8150,8279,9.03302550315857,True
57,8191,8145,8170,8152,8121,8163,8139,8160,8098,8121,8133,8164,8149,8288,9.04102349281311,True
58,8212,8168,8170,8174,8126,8160,8137,8160,8113,8144,8145,8185,8184,8329,9.04893159866333,True
59,8258,8200,8234,8202,8180,8179,8225,8189,8136,8174,8174,8224,8228,8360,9.056988000869753,True
60,8245,8191,8175,8201,8108,8192,8053,8174,8155,8191,8173,8212,8237,8357,9.06506848335266,True
61,8235,8182,8188,8180,8176,8182,8192,8182,8136,8173,8150,8191,8194,8325,9.072779417037964,True
62,8256,8189,8264,8185,8224,8162,8300,8191,8120,8156,8146,8196,8168,8304,9.079976320266724,True
63,8226,8188,8166,8194,8109,8162,8073,8158,8142,8167,8148,8176,8183,8315,9.087984085083008,True
64,8209,8179,8139,8172,8138,8178,8124,8169,8140,8151,8147,8167,8172,8305,9.09587550163269,True
65,8201,8158,8158,8153,8170,8173,8163,8177,8126,8133,8148,8170,8157,8286,9.10390019416809,True
66,8195,8158,8159,8155,8173,8181,8175,8184,8143,8153,8155,8173,8171,8291,9.112008094787598,True
67,8203,8180,8175,8157,8162,8196,8184,8204,8165,8166,8155,8181,8182,8299,9.119940280914308,True
68,8203,8187,8162,8167,8153,8193,8129,8208,8179,8159,8149,8186,8183,8309,9.127938032150269,True
69,8224,8192,8196,8186,8206,8206,8200,8236,8198,8174,8162,8199,8191,8326,9.13594937324524,True
70,8205,8195,8165,8198,8147,8216,8141,8247,8222,8203,8171,8191,8208,8327,9.144009113311768,True
71,8178,8187,8150,8193,8152,8209,8180,8243,8218,8192,8157,8177,8191,8300,9.15074348449707,True
72,8186,8166,8170,8171,8184,8202,8217,8220,8190,8170,8140,8163,8162,8276,9.158821105957031,True
73,8177,8158,8123,8157,8134,8186,8129,8164,8153,8165,8138,8139,8152,8270,9.166969537734984,True
74,8187,8178,8188,8165,8203,8173,8254,8156,8101,8132,8144,8154,8126,8257,9.174895763397217,True
75,8176,8172,8195,8158,8187,8159,8177,8141,8074,8105,8136,8152,8109,8244,9.182965993881226,True
76,8161,8149,8126,8139,8133,8154,8091,8121,8087,8105,8135,8129,8116,8241,9.190985679626465,True
77,8186,8153,8164,8140,8173,8176,8172,8149,8114,8113,8144,8141,8123,8247,9.198899030685425,True
78,8170,8150,8154,8139,8175,8186,8128,8153,8129,8125,8145,8140,8128,8254,9.206969976425173,True
79,8170,8136,8167,8121,8200,8176,8199,8166,8125,8115,8147,8141,8124,8251,9.21497130393982,True
80,8196,8143,8166,8137,8144,8176,8125,8183,8145,8123,8150,8154,8142,8271,9.226020097732544,True
81,8207,8171,8188,8164,8180,8195,8167,8208,8168,8150,8150,8166,8161,8288,9.229809045791626,True
82,8220,8182,8268,8161,8268,8201,8317,8224,8155,8146,8153,8191,8148,8284,9.23783254623413,True
83,8199,8176,8178,8172,8151,8183,8093,8181,8160,8150,8151,8193,8162,8306,9.245841979980469,True
84,8199,8187,8139,8195,8149,8184,8091,8176,8175,8169,8155,8185,8190,8321,9.253880262374878,True
85,8217,8192,8179,8192,8193,8193,8183,8189,8172,8181,8156,8185,8192,8311,9.26198148727417,True
86,8218,8191,8179,8187,8179,8192,8173,8185,8169,8177,8153,8200,8183,8314,9.27000617980957,True
87,8229,8187,8225,8187,8209,8191,8238,8197,8164,8166,8156,8217,8177,8322,9.277941942214966,True
88,8200,8153,8175,8164,8154,8174,8143,8170,8162,8161,8149,8188,8174,8307,9.28499460220337,True
89,8182,8141,8137,8147,8152,8161,8148,8150,8150,8148,8149,8170,8150,8273,9.292960405349731,True
90,8197,8159,8173,8163,8186,8165,8179,8156,8140,8144,8163,8180,8141,8260,9.300776958465576,True
91,8188,8156,8171,8164,8189,8167,8167,8165,8151,8152,8165,8175,8154,8274,9.30899953842163,True
92,8187,8145,8193,8156,8195,8173,8191,8178,8157,8154,8167,8191,8164,8279,9.31700325012207,True
93,8196,8155,8189,8185,8146,8177,8092,8170,8163,8165,8172,8211,8191,8288,9.324907302856444,True
94,8214,8176,8204,8219,8181,8179,8154,8177,8171,8176,8183,8221,8218,8305,9.3330717086792,True
95,8215,8180,8210,8223,8197,8185,8177,8177,8183,8201,8201,8230,8246,8326,9.340999364852903,True
96,8206,8180,8187,8218,8182,8187,8140,8172,8194,8214,8203,8231,8265,8336,9.348872661590576,True
97,8231,8181,8234,8217,8225,8187,8239,8192,8188,8192,8191,8246,8251,8330,9.355882167816162,True
98,8218,8172,8195,8214,8156,8178,8120,8178,8189,8194,8186,8245,8256,8337,9.36399793624878,True
99,8222,8190,8208,8225,8192,8183,8183,8192,8191,8209,8202,8253,8279,8351,9.3720440864563,True
100,8267,8219,8276,8248,8243,8191,8274,8216,8183,8203,8210,8272,8292,8363,9.379996061325071,True
101,8264,8221,8199,8257,8157,8176,8117,8170,8173,8199,8189,8257,8301,8377,9.387969970703123,True
102,8267,8218,8193,8248,8179,8175,8164,8156,8150,8193,8171,8244,8279,8380,9.396005868911743,True
103,8265,8207,8198,8240,8184,8184,8153,8164,8144,8176,8170,8227,8245,8372,9.402912855148315,True
104,8250,8187,8187,8224,8194,8179,8183,8170,8159,8152,8168,8208,8230,8348,9.410999298095703,True
105,8247,8175,8206,8193,8197,8162,8215,8176,8162,8149,8153,8200,8215,8315,9.418994188308716,True
106,8214,8169,8151,8184,8136,8152,8102,8168,8171,8166,8153,8182,8206,8307,9.426922082901,True
107,8203,8165,8150,8180,8159,8170,8141,8180,8178,8159,8170,8184,8205,8318,9.434930086135864,True
108,8205,8161,8147,8161,8143,8179,8105,8161,8164,8150,8169,8186,8204,8324,9.442991971969604,True
109,8214,8172,8165,8168,8184,8178,8182,8146,8142,8151,8168,8185,8199,8317,9.450838565826416,True
110,8215,8183,8207,8189,8209,8178,8216,8158,8146,8144,8173,8187,8198,8309,9.458855390548706,True
111,8184,8174,8144,8177,8129,8177,8060,8140,8166,8150,8163,8174,8194,8312,9.467071771621704,True
112,8211,8178,8194,8170,8213,8186,8224,8152,8166,8161,8171,8193,8183,8318,9.473866939544678,True
113,8232,8186,8234,8194,8231,8176,8226,8160,8177,8175,8181,8200,8209,8330,9.48195767402649,True
114,8195,8182,8154,8199,8166,8168,8084,8160,8203,8186,8173,8174,8233,8336,9.490081310272217,True
115,8194,8179,8146,8181,8189,8187,8159,8189,8204,8193,8174,8174,8220,8329,9.498064994812012,True
116,8187,8165,8139,8171,8179,8192,8166,8180,8181,8195,8165,8169,8211,8310,9.505957126617432,True
117,8169,8150,8147,8151,8192,8187,8189,8173,8148,8171,8153,8155,8200,8293,9.51389503479004,True
118,8159,8137,8130,8128,8173,8190,8137,8176,8133,8156,8162,8150,8191,8296,9.5219886302948,True
119,8162,8126,8127,8123,8178,8193,8165,8174,8131,8162,8163,8156,8186,8300,9.529978513717651,True
120,8188,8136,8184,8129,8198,8189,8210,8173,8129,8156,8156,8172,8182,8303,9.53803253173828,True
121,8174,8152,8137,8146,8153,8190,8082,8160,8157,8164,8163,8165,8198,8313,9.545016288757324,True
122,8175,8162,8184,8151,8258,8213,8261,8198,8173,8176,8173,8173,8191,8293,9.55285930633545,True
123,8182,8151,8225,8141,8242,8215,8243,8195,8166,8180,8166,8178,8178,8282,9.56102180480957,True
124,8165,8143,8138,8143,8131,8209,8046,8152,8183,8182,8163,8162,8195,8310,9.568995714187622,True
125,8184,8163,8172,8165,8207,8244,8192,8187,8206,8184,8175,8181,8201,8317,9.576735019683838,True
126,8180,8179,8185,8185,8220,8264,8180,8199,8218,8199,8176,8190,8215,8313,9.584777593612673,True
127,8181,8187,8169,8192,8199,8244,8138,8177,8204,8198,8176,8187,8232,8323,9.591989278793337,True
237,8208,8183,8180,8197,8182,8226,8159,8169,8179,8186,8176,8199,8223,8323,9.599791049957275,True
0,8193,8170,8153,8188,8170,8222,8153,8160,8166,8183,8161,8190,8203,8306,9.608914852142334,True
1,8182,8159,8159,8169,8195,8213,8172,8156,8146,8165,8151,8172,8184,8286,9.61601495742798,True
2,8172,8139,8127,8159,8143,8197,8084,8147,8139,8154,8154,8153,8176,8270,9.62401843070984,True
3,8173,8140,8166,8155,8187,8204,8210,8176,8148,8147,8163,8160,8165,8258,9.63197374343872,True
4,8171,8156,8192,8157,8178,8210,8189,8184,8159,8148,8160,8167,8163,8260,9.639912605285645,True
5,8149,8162,8139,8164,8130,8195,8072,8158,8169,8166,8157,8157,8174,8261,9.647965908050535,True
6,8182,8167,8224,8165,8244,8202,8275,8190,8168,8168,8173,8185,8177,8253,9.655953407287598,True
7,8190,8166,8213,8162,8198,8213,8180,8192,8182,8171,8177,8194,8192,8278,9.663931608200071,True
8,8165,8168,8130,8172,8140,8210,8085,8172,8195,8182,8169,8178,8192,8299,9.671987295150757,True
9,8178,8167,8159,8182,8199,8222,8192,8183,8193,8188,8166,8181,8181,8283,9.678871393203735,True
10,8194,8171,8156,8191,8188,8234,8141,8183,8200,8195,8167,8186,8202,8288,9.686975717544556,True
11,8208,8190,8181,8210,8214,8235,8176,8193,8206,8203,8177,8197,8219,8306,9.69497537612915,True
12,8194,8192,8182,8217,8201,8223,8163,8187,8206,8212,8180,8195,8221,8308,9.702821016311646,True
13,8186,8190,8167,8217,8188,8220,8158,8183,8209,8213,8174,8190,8228,8312,9.71098804473877,True
14,8203,8204,8180,8230,8198,8233,8164,8184,8225,8224,8179,8194,8243,8328,9.718987226486206,True
15,8185,8197,8148,8220,8198,8233,8156,8173,8225,8230,8177,8177,8238,8327,9.726887464523315,True
16,8175,8160,8168,8162,8232,8225,8255,8188,8192,8183,8153,8153,8187,8289,9.734928846359251,True
