COUNTER,F3,FC5,AF3,F7,T7,P7,O1,O2,P8,T8,F8,AF4,FC6,F4,Timestamp,word
22, 8261, 8187, 8142, 8096, 8158, 8155, 8155, 8169, 8174, 8182, 8125, 8165, 8295, 9700,0.0055043697357177734,XXXXX
23, 8156, 8173, 8187, 8187, 8168, 8163, 8162, 8167, 8176, 8183, 8201, 8205, 8283, 9649,0.011952638626098633,XXXXX
24, 8077, 8154, 8191, 8206, 8168, 8175, 8171, 8176, 8183, 8188, 8223, 8202, 8271, 9618,0.019704818725585938,XXXXX
25, 8275, 8199, 8144, 8087, 8162, 8150, 8157, 8180, 8160, 8183, 8093, 8139, 8305, 9750,0.027481555938720703,XXXXX
26, 8046, 8153, 8211, 8233, 8181, 8185, 8175, 8168, 8194, 8192, 8249, 8226, 8262, 9566,0.03522014617919922,XXXXX
27, 8246, 8185, 8155, 8119, 8166, 8160, 8163, 8180, 8180, 8188, 8137, 8164, 8291, 9695,0.04324173927307129,XXXXX
28, 8175, 8180, 8190, 8179, 8175, 8170, 8164, 8173, 8168, 8184, 8172, 8171, 8289, 9683,0.05206489562988281,XXXXX
29, 8098, 8158, 8196, 8219, 8181, 8181, 8173, 8171, 8187, 8184, 8210, 8187, 8265, 9622,0.060079097747802734,XXXXX
30, 8339, 8200, 8129, 8090, 8168, 8149, 8156, 8174, 8168, 8183, 8073, 8124, 8302, 9724,0.06795835494995117,XXXXX
31, 8061, 8147, 8205, 8236, 8180, 8188, 8169, 8163, 8191, 8193, 8238, 8214, 8265, 9515,0.07450056076049805,XXXXX
32, 8204, 8177, 8151, 8115, 8163, 8160, 8166, 8176, 8183, 8181, 8136, 8171, 8288, 9647,0.08231139183044434,XXXXX
33, 8210, 8184, 8151, 8128, 8162, 8153, 8163, 8168, 8173, 8178, 8128, 8169, 8291, 9665,0.09018588066101074,XXXXX
34, 8080, 8144, 8170, 8204, 8169, 8179, 8165, 8162, 8186, 8186, 8212, 8209, 8261, 9554,0.0994715690612793,XXXXX
35, 8289, 8195, 8137, 8092, 8156, 8154, 8153, 8176, 8162, 8179, 8106, 8156, 8303, 9700,0.10730123519897461,XXXXX
36, 8050, 8159, 8221, 8247, 8170, 8178, 8171, 8176, 8188, 8190, 8245, 8219, 8269, 9567,0.11503052711486816,XXXXX
37, 8199, 8175, 8150, 8137, 8166, 8159, 8163, 8175, 8174, 8187, 8134, 8162, 8283, 9652,0.12284088134765625,XXXXX
38, 8218, 8187, 8138, 8114, 8164, 8160, 8161, 8163, 8161, 8183, 8134, 8173, 8297, 9632,0.1305689811706543,XXXXX
39, 8040, 8147, 8193, 8219, 8168, 8183, 8171, 8166, 8197, 8189, 8254, 8229, 8265, 9523,0.13862133026123047,XXXXX
40, 8310, 8193, 8145, 8104, 8162, 8150, 8156, 8179, 8168, 8179, 8088, 8135, 8301, 9732,0.14635443687438965,XXXXX
41, 8100, 8156, 8195, 8226, 8180, 8188, 8176, 8171, 8177, 8184, 8193, 8192, 8271, 9584,0.15413451194763184,XXXXX
42, 8169, 8173, 8145, 8131, 8163, 8172, 8164, 8177, 8183, 8189, 8151, 8183, 8285, 9618,0.16186046600341797,XXXXX
43, 8225, 8193, 8150, 8116, 8161, 8149, 8150, 8171, 8168, 8185, 8143, 8180, 8298, 9666,0.1697089672088623,XXXXX
44, 8017, 8141, 8210, 8248, 8180, 8178, 8170, 8166, 8190, 8188, 8253, 8220, 8255, 9537,0.17745327949523926,XXXXX
45, 8311, 8190, 8141, 8100, 8164, 8153, 8161, 8176, 8170, 8183, 8084, 8130, 8298, 9734,0.1852736473083496,XXXXX
46, 8175, 8167, 8189, 8208, 8174, 8185, 8171, 8165, 8185, 8188, 8189, 8194, 8275, 9636,0.19313669204711914,XXXXX
47, 8191, 8169, 8154, 8150, 8170, 8174, 8166, 8177, 8184, 8185, 8147, 8174, 8278, 9642,0.2011430263519287,XXXXX
48, 8263, 8190, 8139, 8104, 8164, 8148, 8154, 8180, 8164, 8181, 8096, 8143, 8301, 9681,0.20911240577697754,XXXXX
49, 8048, 8143, 8198, 8236, 8171, 8183, 8172, 8165, 8195, 8184, 8247, 8221, 8259, 9523,0.21718931198120117,XXXXX
50, 8273, 8192, 8126, 8076, 8156, 8151, 8159, 8171, 8169, 8179, 8102, 8158, 8296, 9693,0.22515249252319336,XXXXX
51, 8090, 8168, 8180, 8177, 8172, 8166, 8163, 8167, 8169, 8188, 8196, 8202, 8276, 9585,0.23328161239624023,XXXXX
52, 8132, 8158, 8173, 8172, 8172, 8170, 8166, 8173, 8181, 8188, 8183, 8181, 8275, 9594,0.24109864234924316,XXXXX
53, 8319, 8189, 8142, 8109, 8164, 8157, 8161, 8170, 8164, 8182, 8089, 8140, 8308, 9703,0.24906206130981445,XXXXX
54, 8047, 8144, 8197, 8234, 8177, 8186, 8174, 8160, 8186, 8195, 8236, 8221, 8261, 9530,0.25694918632507324,XXXXX
55, 8244, 8191, 8130, 8081, 8161, 8146, 8155, 8173, 8167, 8189, 8102, 8157, 8292, 9688,0.26490044593811035,XXXXX
56, 8134, 8171, 8184, 8183, 8161, 8168, 8165, 8167, 8178, 8189, 8181, 8196, 8277, 9613,0.27298474311828613,XXXXX
57, 8119, 8153, 8185, 8197, 8162, 8181, 8170, 8173, 8194, 8190, 8192, 8187, 8265, 9588,0.27936482429504395,XXXXX
58, 8309, 8200, 8134, 8089, 8166, 8151, 8154, 8176, 8168, 8184, 8072, 8129, 8304, 9716,0.2871847152709961,XXXXX
59, 8039, 8154, 8196, 8228, 8176, 8184, 8171, 8163, 8186, 8191, 8233, 8219, 8263, 9531,0.29517555236816406,XXXXX
60, 8244, 8187, 8141, 8101, 8156, 8154, 8162, 8177, 8165, 8181, 8127, 8162, 8289, 9675,0.30307865142822266,XXXXX
61, 8178, 8180, 8179, 8170, 8176, 8163, 8164, 8173, 8173, 8184, 8176, 8178, 8285, 9638,0.3110804557800293,XXXXX
62, 8089, 8156, 8181, 8207, 8179, 8181, 8169, 8169, 8195, 8191, 8207, 8197, 8266, 9567,0.3198208808898926,XXXXX
63, 8325, 8196, 8123, 8084, 8155, 8156, 8158, 8170, 8163, 8179, 8074, 8140, 8300, 9718,0.32834672927856445,XXXXX
64, 8091, 8147, 8189, 8220, 8172, 8189, 8173, 8165, 8187, 8185, 8219, 8213, 8263, 9570,0.3339862823486328,XXXXX
65, 8232, 8177, 8135, 8101, 8169, 8157, 8159, 8175, 8176, 8187, 8121, 8160, 8294, 9677,0.3426859378814697,XXXXX
66, 8168, 8179, 8168, 8148, 8167, 8162, 8158, 8166, 8167, 8184, 8177, 8182, 8294, 9619,0.35047340393066406,XXXXX
67, 8037, 8151, 8197, 8216, 8167, 8186, 8168, 8167, 8192, 8184, 8252, 8221, 8263, 9526,0.35818982124328613,XXXXX
68, 8280, 8200, 8137, 8090, 8160, 8150, 8158, 8178, 8170, 8183, 8096, 8152, 8302, 9732,0.3659782409667969,XXXXX
69, 8069, 8153, 8198, 8232, 8179, 8178, 8175, 8171, 8186, 8196, 8235, 8214, 8266, 9592,0.37523341178894043,XXXXX
70, 8224, 8177, 8150, 8130, 8168, 8158, 8162, 8179, 8176, 8189, 8148, 8168, 8284, 9671,0.3829350471496582,XXXXX
71, 8209, 8193, 8167, 8148, 8170, 8158, 8155, 8172, 8166, 8186, 8152, 8175, 8293, 9676,0.39118099212646484,XXXXX
72, 8042, 8153, 8204, 8237, 8176, 8186, 8168, 8169, 8188, 8189, 8243, 8209, 8261, 9564,0.39891576766967773,XXXXX
73, 8326, 8194, 8139, 8096, 8159, 8157, 8158, 8174, 8164, 8179, 8087, 8130, 8297, 9720,0.4052402973175049,XXXXX
74, 8137, 8157, 8190, 8218, 8172, 8185, 8171, 8164, 8182, 8188, 8213, 8206, 8271, 9589,0.41320109367370605,XXXXX
75, 8217, 8174, 8139, 8124, 8161, 8169, 8160, 8174, 8182, 8185, 8135, 8171, 8290, 9665,0.4225926399230957,XXXXX
76, 8221, 8181, 8150, 8120, 8162, 8162, 8155, 8168, 8172, 8178, 8110, 8151, 8295, 9660,0.4304955005645752,XXXXX
77, 8032, 8134, 8202, 8228, 8176, 8184, 8170, 8163, 8193, 8188, 8235, 8207, 8254, 9521,0.43840527534484863,XXXXX
78, 8295, 8193, 8136, 8080, 8160, 8140, 8152, 8177, 8163, 8184, 8098, 8145, 8303, 9718,0.44633054733276367,XXXXX
79, 8091, 8162, 8206, 8222, 8170, 8176, 8165, 8169, 8179, 8188, 8221, 8209, 8276, 9589,0.4544095993041992,XXXXX
80, 8166, 8165, 8167, 8168, 8165, 8174, 8169, 8171, 8185, 8187, 8154, 8169, 8279, 9634,0.46230435371398926,XXXXX
81, 8268, 8192, 8134, 8106, 8166, 8150, 8162, 8166, 8168, 8183, 8088, 8141, 8301, 9689,0.4687364101409912,XXXXX
82, 8045, 8148, 8187, 8219, 8176, 8179, 8171, 8167, 8191, 8189, 8234, 8220, 8256, 9517,0.476642370223999,XXXXX
83, 8272, 8194, 8138, 8089, 8157, 8150, 8153, 8187, 8165, 8180, 8112, 8158, 8295, 9693,0.48432493209838867,XXXXX
84, 8089, 8167, 8206, 8221, 8168, 8173, 8167, 8175, 8173, 8185, 8223, 8206, 8279, 9603,0.49221158027648926,XXXXX
85, 8130, 8163, 8181, 8183, 8170, 8171, 8172, 8167, 8180, 8188, 8175, 8179, 8276, 9616,0.5001459121704102,XXXXX
86, 8289, 8195, 8141, 8095, 8171, 8157, 8159, 8163, 8162, 8184, 8083, 8140, 8299, 9692,0.5080020427703857,XXXXX
87, 8044, 8149, 8190, 8219, 8177, 8192, 8170, 8166, 8193, 8189, 8236, 8219, 8257, 9521,0.5160424709320068,XXXXX
88, 8257, 8194, 8133, 8095, 8158, 8158, 8156, 8176, 8173, 8179, 8111, 8157, 8298, 9689,0.5254580974578857,XXXXX
89, 8117, 8167, 8195, 8203, 8172, 8172, 8163, 8162, 8173, 8181, 8197, 8195, 8283, 9616,0.5320014953613281,XXXXX
90, 8111, 8154, 8177, 8189, 8174, 8176, 8165, 8175, 8180, 8186, 8188, 8180, 8266, 9608,0.5398223400115967,XXXXX
91, 8301, 8197, 8135, 8099, 8162, 8156, 8158, 8187, 8161, 8186, 8092, 8139, 8300, 9702,0.547996997833252,XXXXX
92, 8035, 8148, 8207, 8236, 8172, 8186, 8177, 8170, 8197, 8195, 8247, 8226, 8265, 9504,0.5558938980102539,XXXXX
93, 8261, 8185, 8134, 8083, 8160, 8150, 8160, 8169, 8178, 8187, 8107, 8150, 8289, 9678,0.5639035701751709,XXXXX
94, 8206, 8174, 8165, 8162, 8174, 8167, 8161, 8164, 8172, 8189, 8162, 8174, 8278, 9653,0.5717923641204834,XXXXX
95, 8111, 8156, 8167, 8187, 8172, 8179, 8167, 8169, 8191, 8192, 8192, 8195, 8272, 9584,0.5795760154724121,XXXXX
96, 8276, 8200, 8117, 8060, 8153, 8146, 8156, 8171, 8168, 8183, 8081, 8143, 8309, 9696,0.5873119831085205,XXXXX
97, 8050, 8154, 8189, 8206, 8169, 8182, 8173, 8161, 8187, 8187, 8237, 8216, 8266, 9544,0.5953311920166016,XXXXX
98, 8233, 8187, 8137, 8103, 8162, 8155, 8157, 8175, 8173, 8182, 8118, 8163, 8295, 9673,0.6031436920166016,XXXXX
99, 8136, 8180, 8175, 8168, 8169, 8159, 8158, 8171, 8175, 8182, 8171, 8190, 8285, 9616,0.610952615737915,XXXXX
100, 8045, 8147, 8197, 8216, 8174, 8182, 8173, 8172, 8192, 8187, 8239, 8207, 8261, 9559,0.6189267635345459,XXXXX
101, 8316, 8197, 8140, 8089, 8163, 8153, 8161, 8180, 8165, 8186, 8079, 8127, 8309, 9750,0.6269717216491699,XXXXX
102, 8058, 8155, 8207, 8243, 8175, 8184, 8172, 8168, 8190, 8195, 8219, 8206, 8265, 9563,0.6349902153015137,XXXXX
103, 8193, 8177, 8153, 8132, 8162, 8168, 8162, 8168, 8180, 8188, 8155, 8175, 8281, 9634,0.6426668167114258,XXXXX
104, 8213, 8182, 8160, 8136, 8168, 8172, 8162, 8163, 8170, 8187, 8168, 8183, 8295, 9651,0.650749921798706,XXXXX
105, 8088, 8152, 8181, 8200, 8175, 8185, 8170, 8174, 8194, 8196, 8223, 8210, 8271, 9579,0.6588687896728516,XXXXX
106, 8279, 8201, 8123, 8075, 8163, 8144, 8155, 8185, 8165, 8184, 8084, 8141, 8305, 9728,0.66536545753479,XXXXX
107, 8018, 8155, 8202, 8239, 8178, 8178, 8171, 8166, 8181, 8185, 8246, 8216, 8269, 9548,0.6744132041931152,XXXXX
108, 8186, 8172, 8172, 8164, 8168, 8168, 8165, 8174, 8182, 8185, 8160, 8171, 8290, 9644,0.6823303699493408,XXXXX
109, 8263, 8187, 8170, 8150, 8170, 8163, 8165, 8174, 8172, 8186, 8126, 8159, 8302, 9706,0.690363883972168,XXXXX
110, 8081, 8146, 8192, 8229, 8183, 8185, 8177, 8170, 8190, 8191, 8214, 8199, 8265, 9592,0.6983757019042969,XXXXX
111, 8312, 8198, 8124, 8088, 8167, 8151, 8158, 8175, 8165, 8182, 8056, 8120, 8305, 9730,0.7064073085784912,XXXXX
112, 8085, 8162, 8187, 8216, 8176, 8186, 8171, 8161, 8188, 8190, 8200, 8204, 8277, 9553,0.714385986328125,XXXXX
113, 8167, 8167, 8153, 8142, 8166, 8170, 8167, 8170, 8185, 8187, 8167, 8190, 8286, 9606,0.7211477756500244,XXXXX
114, 8247, 8186, 8162, 8131, 8163, 8151, 8158, 8177, 8160, 8181, 8134, 8164, 8300, 9681,0.7284853458404541,XXXXX
115, 8035, 8145, 8209, 8245, 8173, 8186, 8172, 8172, 8190, 8192, 8240, 8212, 8259, 9551,0.7363297939300537,XXXXX
116, 8262, 8198, 8121, 8068, 8158, 8154, 8160, 8173, 8175, 8184, 8083, 8143, 8300, 9700,0.7440624237060547,XXXXX
117, 8070, 8163, 8186, 8191, 8173, 8174, 8171, 8164, 8183, 8185, 8217, 8215, 8276, 9555,0.7533354759216309,XXXXX
118, 8144, 8157, 8183, 8177, 8171, 8170, 8172, 8176, 8182, 8187, 8190, 8190, 8276, 9607,0.7611498832702637,XXXXX
119, 8292, 8189, 8159, 8124, 8170, 8153, 8163, 8178, 8165, 8182, 8098, 8139, 8303, 9717,0.7690784931182861,XXXXX
120, 8036, 8147, 8198, 8237, 8178, 8184, 8175, 8171, 8192, 8188, 8229, 8211, 8264, 9538,0.7767648696899414,XXXXX
121, 8245, 8190, 8134, 8087, 8155, 8155, 8156, 8174, 8166, 8186, 8113, 8165, 8302, 9682,0.7846450805664062,XXXXX
122, 8123, 8164, 8189, 8187, 8168, 8176, 8165, 8162, 8174, 8190, 8218, 8219, 8280, 9613,0.7923638820648193,XXXXX
123, 8150, 8161, 8173, 8170, 8168, 8169, 8169, 8170, 8183, 8185, 8196, 8195, 8271, 9629,0.8002028465270996,XXXXX
124, 8281, 8198, 8152, 8110, 8162, 8149, 8160, 8175, 8158, 8180, 8098, 8141, 8304, 9709,0.8080883026123047,XXXXX
125, 8018, 8143, 8213, 8250, 8180, 8190, 8176, 8169, 8183, 8192, 8238, 8213, 8267, 9532,0.8160796165466309,XXXXX
126, 8259, 8186, 8131, 8088, 8161, 8156, 8162, 8180, 8164, 8183, 8099, 8149, 8299, 9684,0.8238747119903564,XXXXX
127, 8154, 8176, 8172, 8165, 8165, 8168, 8172, 8168, 8170, 8184, 8187, 8194, 8282, 9582,0.8317677974700928,XXXXX
238, 8096, 8157, 8175, 8185, 8171, 8177, 8171, 8169, 8187, 8190, 8207, 8196, 8272, 9550,0.8395895957946777,XXXXX
0, 8281, 8201, 8138, 8094, 8169, 8153, 8150, 8177, 8160, 8185, 8086, 8135, 8306, 9718,0.8475604057312012,XXXXX
1, 8048, 8159, 8210, 8242, 8178, 8193, 8167, 8168, 8186, 8193, 8231, 8210, 8261, 9563,0.8553726673126221,XXXXX
2, 8256, 8188, 8137, 8101, 8157, 8159, 8161, 8175, 8170, 8185, 8104, 8149, 8294, 9674,0.8633944988250732,XXXXX
3, 8150, 8172, 8171, 8165, 8166, 8158, 8167, 8167, 8167, 8183, 8180, 8188, 8289, 9606,0.8712754249572754,XXXXX
4, 8059, 8152, 8191, 8215, 8171, 8173, 8172, 8169, 8189, 8189, 8233, 8208, 8266, 9559,0.8785984516143799,XXXXX
5, 8315, 8203, 8130, 8088, 8163, 8150, 8151, 8177, 8167, 8186, 8073, 8130, 8306, 9715,0.886375904083252,XXXXX
6, 8073, 8152, 8186, 8221, 8179, 8189, 8170, 8171, 8189, 8190, 8215, 8209, 8268, 9530,0.8942399024963379,XXXXX
7, 8211, 8178, 8141, 8113, 8161, 8164, 8167, 8181, 8175, 8183, 8138, 8171, 8286, 9647,0.9020988941192627,XXXXX
8, 8174, 8182, 8181, 8168, 8162, 8161, 8162, 8175, 8165, 8186, 8172, 8181, 8288, 9656,0.9100532531738281,XXXXX
9, 8060, 8152, 8194, 8230, 8170, 8181, 8167, 8170, 8185, 8188, 8221, 8199, 8268, 9574,0.9193277359008789,XXXXX
10, 8283, 8197, 8117, 8077, 8164, 8152, 8157, 8170, 8161, 8176, 8084, 8138, 8303, 9702,0.9272375106811523,XXXXX
11, 8034, 8154, 8193, 8213, 8178, 8180, 8174, 8162, 8183, 8187, 8250, 8225, 8266, 9511,0.9334061145782471,XXXXX
12, 8189, 8177, 8167, 8140, 8164, 8158, 8164, 8176, 8180, 8188, 8159, 8175, 8290, 9634,0.9411582946777344,XXXXX
13, 8223, 8179, 8174, 8166, 8167, 8160, 8158, 8169, 8173, 8183, 8136, 8162, 8298, 9701,0.9504833221435547,XXXXX
14, 8045, 8139, 8187, 8235, 8176, 8187, 8166, 8170, 8189, 8187, 8219, 8202, 8261, 9578,0.9584391117095947,XXXXX
15, 8279, 8200, 8123, 8084, 8158, 8150, 8157, 8184, 8163, 8181, 8080, 8140, 8303, 9696,0.9664757251739502,XXXXX
16, 8081, 8167, 8198, 8220, 8167, 8177, 8174, 8169, 8190, 8190, 8227, 8216, 8269, 9541,0.9743733406066895,XXXXX
17, 8171, 8172, 8153, 8138, 8161, 8162, 8163, 8169, 8185, 8189, 8163, 8184, 8276, 9619,0.9823184013366699,XXXXX
18, 8194, 8187, 8145, 8123, 8166, 8157, 8161, 8167, 8162, 8183, 8135, 8174, 8292, 9650,0.9904305934906006,XXXXX
19, 8018, 8146, 8198, 8231, 8178, 8186, 8178, 8172, 8188, 8186, 8251, 8226, 8260, 9530,0.9962389469146729,XXXXX
20, 8304, 8193, 8144, 8093, 8159, 8144, 8156, 8180, 8163, 8178, 8102, 8144, 8304, 9729,1.0042273998260498,XXXXX
21, 8102, 8157, 8205, 8227, 8171, 8179, 8168, 8162, 8174, 8189, 8216, 8198, 8278, 9590,1.0120813846588135,XXXXX
22, 8144, 8163, 8159, 8153, 8168, 8175, 8172, 8171, 8180, 8189, 8158, 8173, 8283, 9607,1.0216643810272217,XXXXX
23, 8249, 8192, 8131, 8086, 8163, 8146, 8160, 8172, 8165, 8179, 8106, 8160, 8301, 9669,1.0295765399932861,XXXXX
24, 8037, 8151, 8188, 8211, 8171, 8181, 8168, 8163, 8190, 8186, 8256, 8238, 8260, 9514,1.0361497402191162,XXXXX
25, 8282, 8201, 8136, 8085, 8159, 8160, 8155, 8179, 8167, 8181, 8108, 8158, 8307, 9700,1.0453341007232666,XXXXX
26, 8115, 8166, 8197, 8215, 8174, 8176, 8167, 8172, 8174, 8185, 8195, 8188, 8286, 9615,1.0534124374389648,XXXXX
27, 8133, 8155, 8161, 8177, 8171, 8171, 8170, 8170, 8181, 8185, 8171, 8169, 8275, 9612,1.0598220825195312,XXXXX
28, 8273, 8196, 8125, 8085, 8163, 8155, 8160, 8172, 8162, 8183, 8105, 8150, 8303, 9675,1.067742109298706,XXXXX
29, 8021, 8151, 8206, 8233, 8174, 8183, 8171, 8171, 8186, 8191, 8263, 8239, 8269, 9507,1.075643539428711,XXXXX
30, 8272, 8187, 8158, 8119, 8164, 8151, 8156, 8180, 8163, 8181, 8118, 8160, 8305, 9714,1.0836336612701416,XXXXX
31, 8178, 8166, 8200, 8209, 8177, 8175, 8168, 8170, 8172, 8181, 8178, 8180, 8283, 9675,1.0913350582122803,XXXXX
32, 8141, 8160, 8176, 8183, 8172, 8178, 8173, 8178, 8184, 8185, 8169, 8170, 8272, 9644,1.099210500717163,XXXXX
33, 8293, 8198, 8136, 8098, 8162, 8151, 8161, 8183, 8161, 8184, 8077, 8132, 8306, 9716,1.1069955825805664,XXXXX
34, 8036, 8145, 8208, 8247, 8173, 8189, 8174, 8171, 8191, 8191, 8237, 8225, 8263, 9516,1.1164355278015137,XXXXX
35, 8239, 8183, 8138, 8085, 8154, 8157, 8158, 8177, 8176, 8185, 8098, 8159, 8297, 9667,1.122683048248291,XXXXX
36, 8149, 8168, 8164, 8147, 8165, 8165, 8164, 8168, 8176, 8190, 8166, 8183, 8294, 9616,1.1305301189422607,XXXXX
37, 8085, 8146, 8173, 8191, 8174, 8174, 8171, 8171, 8187, 8189, 8226, 8204, 8274, 9571,1.1395659446716309,XXXXX
38, 8270, 8194, 8143, 8096, 8160, 8148, 8153, 8177, 8158, 8177, 8119, 8159, 8306, 9717,1.1475629806518555,XXXXX
39, 8006, 8148, 8218, 8248, 8170, 8186, 8169, 8169, 8182, 8189, 8263, 8235, 8270, 9549,1.155350685119629,XXXXX
40, 8212, 8179, 8150, 8120, 8162, 8154, 8161, 8179, 8172, 8189, 8127, 8162, 8297, 9687,1.1633586883544922,XXXXX
41, 8186, 8180, 8168, 8159, 8176, 8161, 8163, 8171, 8168, 8190, 8148, 8172, 8290, 9668,1.1711540222167969,XXXXX
42, 8088, 8149, 8183, 8207, 8176, 8191, 8171, 8170, 8187, 8194, 8204, 8200, 8267, 9580,1.1791272163391113,XXXXX
43, 8316, 8191, 8124, 8080, 8155, 8157, 8154, 8174, 8164, 8185, 8067, 8136, 8309, 9719,1.1868908405303955,XXXXX
44, 8072, 8150, 8191, 8221, 8173, 8180, 8171, 8161, 8183, 8188, 8219, 8212, 8269, 9555,1.1934025287628174,XXXXX
45, 8210, 8177, 8145, 8117, 8166, 8159, 8165, 8167, 8171, 8187, 8139, 8170, 8287, 9643,1.201287031173706,XXXXX
46, 8179, 8181, 8165, 8146, 8167, 8161, 8161, 8165, 8163, 8190, 8172, 8192, 8291, 9621,1.2092511653900146,XXXXX
47, 8040, 8143, 8195, 8225, 8175, 8182, 8171, 8171, 8188, 8193, 8249, 8223, 8264, 9548,1.217139720916748,XXXXX
48, 8311, 8193, 8132, 8086, 8166, 8152, 8160, 8174, 8164, 8180, 8080, 8130, 8308, 9731,1.2266104221343994,XXXXX
49, 8083, 8151, 8191, 8221, 8178, 8187, 8170, 8159, 8186, 8187, 8217, 8206, 8272, 9548,1.2346272468566895,XXXXX
50, 8181, 8163, 8142, 8128, 8163, 8162, 8159, 8173, 8183, 8188, 8152, 8187, 8288, 9609,1.2424099445343018,XXXXX
51, 8207, 8178, 8157, 8127, 8162, 8151, 8158, 8173, 8169, 8185, 8147, 8180, 8299, 9647,1.2504479885101318,XXXXX
52, 8026, 8143, 8205, 8236, 8172, 8183, 8173, 8170, 8189, 8186, 8249, 8215, 8260, 9538,1.2585093975067139,XXXXX
53, 8293, 8203, 8132, 8094, 8165, 8155, 8157, 8177, 8163, 8181, 8078, 8133, 8305, 9722,1.265038251876831,XXXXX
54, 8103, 8166, 8188, 8217, 8179, 8184, 8172, 8162, 8184, 8196, 8195, 8199, 8279, 9573,1.272679328918457,XXXXX
55, 8170, 8161, 8152, 8140, 8160, 8169, 8167, 8167, 8183, 8193, 8162, 8179, 8281, 9607,1.2805943489074707,XXXXX
56, 8221, 8181, 8155, 8119, 8153, 8154, 8155, 8172, 8156, 8181, 8135, 8164, 8302, 9674,1.288416862487793,XXXXX
57, 8010, 8144, 8209, 8250, 8172, 8185, 8173, 8174, 8180, 8184, 8242, 8218, 8269, 9547,1.2962310314178467,XXXXX
58, 8279, 8196, 8123, 8088, 8165, 8151, 8160, 8178, 8163, 8181, 8080, 8144, 8304, 9698,1.3040997982025146,XXXXX
59, 8104, 8164, 8177, 8189, 8173, 8174, 8167, 8158, 8178, 8189, 8208, 8209, 8275, 9553,1.3134994506835938,XXXXX
60, 8144, 8165, 8167, 8154, 8161, 8171, 8161, 8174, 8182, 8186, 8184, 8189, 8281, 9595,1.3198413848876953,XXXXX
61, 8271, 8191, 8152, 8122, 8163, 8154, 8153, 8189, 8164, 8183, 8102, 8151, 8308, 9708,1.327807903289795,XXXXX
62, 8026, 8143, 8204, 8261, 8184, 8188, 8171, 8177, 8196, 8196, 8229, 8217, 8266, 9551,1.3358056545257568,XXXXX
63, 8264, 8195, 8126, 8091, 8161, 8153, 8158, 8179, 8178, 8186, 8077, 8140, 8309, 9715,1.34358549118042,XXXXX
64, 8127, 8173, 8173, 8175, 8163, 8165, 8166, 8170, 8180, 8184, 8177, 8186, 8290, 9603,1.352602481842041,XXXXX
65, 8109, 8157, 8177, 8182, 8168, 8167, 8166, 8172, 8187, 8187, 8204, 8198, 8270, 9580,1.360292673110962,XXXXX
66, 8278, 8195, 8163, 8132, 8171, 8150, 8155, 8169, 8166, 8187, 8132, 8173, 8299, 9724,1.3682103157043457,XXXXX
67, 8051, 8155, 8211, 8253, 8178, 8187, 8171, 8166, 8193, 8197, 8254, 8233, 8270, 9594,1.3759162425994873,XXXXX
68, 8252, 8196, 8126, 8088, 8159, 8154, 8154, 8180, 8164, 8184, 8091, 8144, 8301, 9723,1.383831262588501,XXXXX
69, 8125, 8173, 8182, 8188, 8177, 8172, 8163, 8172, 8165, 8180, 8169, 8184, 8278, 9628,1.3900246620178223,XXXXX
70, 8094, 8157, 8192, 8208, 8180, 8179, 8170, 8172, 8191, 8190, 8199, 8200, 8267, 9592,1.3992571830749512,XXXXX
71, 8306, 8203, 8129, 8074, 8164, 8146, 8156, 8169, 8171, 8186, 8073, 8139, 8305, 9705,1.4070236682891846,XXXXX
72, 8041, 8145, 8183, 8211, 8179, 8185, 8174, 8162, 8191, 8188, 8222, 8214, 8263, 9512,1.4149651527404785,XXXXX
73, 8238, 8176, 8131, 8105, 8163, 8158, 8162, 8174, 8172, 8183, 8125, 8169, 8299, 9665,1.4229366779327393,XXXXX
74, 8181, 8178, 8173, 8167, 8164, 8164, 8160, 8160, 8168, 8189, 8189, 8203, 8294, 9642,1.4310975074768066,XXXXX
75, 8056, 8149, 8180, 8201, 8169, 8181, 8168, 8168, 8188, 8190, 8236, 8215, 8266, 9569,1.439018964767456,XXXXX
76, 8244, 8194, 8123, 8082, 8158, 8151, 8158, 8187, 8168, 8179, 8103, 8141, 8305, 9721,1.4468693733215332,XXXXX
77, 8019, 8160, 8197, 8230, 8171, 8184, 8169, 8170, 8188, 8189, 8250, 8220, 8264, 9560,1.4531683921813965,XXXXX
78, 8226, 8183, 8156, 8130, 8161, 8161, 8164, 8170, 8176, 8187, 8146, 8172, 8283, 9678,1.4611518383026123,XXXXX
79, 8220, 8172, 8183, 8177, 8169, 8165, 8171, 8173, 8174, 8186, 8163, 8173, 8294, 9689,1.4705805778503418,XXXXX
80, 8072, 8148, 8193, 8230, 8177, 8184, 8176, 8176, 8189, 8188, 8224, 8197, 8272, 9608,1.477065086364746,XXXXX
81, 8271, 8205, 8130, 8087, 8162, 8151, 8157, 8179, 8154, 8176, 8083, 8138, 8302, 9736,1.4863536357879639,XXXXX
82, 8041, 8155, 8209, 8233, 8172, 8186, 8170, 8168, 8178, 8184, 8240, 8221, 8266, 9554,1.4942386150360107,XXXXX
83, 8203, 8172, 8150, 8127, 8167, 8163, 8165, 8176, 8182, 8188, 8154, 8174, 8286, 9634,1.5020930767059326,XXXXX
84, 8199, 8182, 8146, 8135, 8173, 8155, 8167, 8172, 8174, 8190, 8147, 8177, 8292, 9632,1.5100412368774414,XXXXX
85, 8013, 8144, 8193, 8232, 8176, 8182, 8178, 8173, 8190, 8192, 8240, 8224, 8261, 9541,1.5162086486816406,XXXXX
86, 8275, 8198, 8145, 8095, 8161, 8151, 8159, 8182, 8158, 8177, 8083, 8142, 8307, 9743,1.5240516662597656,XXXXX
87, 8068, 8154, 8208, 8237, 8177, 8181, 8172, 8170, 8181, 8185, 8219, 8202, 8272, 9585,1.5321605205535889,XXXXX
88, 8187, 8158, 8157, 8159, 8169, 8170, 8169, 8175, 8183, 8192, 8149, 8160, 8279, 9637,1.540975570678711,XXXXX
89, 8258, 8187, 8144, 8123, 8172, 8160, 8164, 8173, 8164, 8190, 8114, 8153, 8294, 9661,1.5487701892852783,XXXXX
90, 8030, 8155, 8187, 8217, 8177, 8185, 8176, 8174, 8191, 8190, 8252, 8235, 8259, 9492,1.5566253662109375,XXXXX
91, 8277, 8197, 8127, 8069, 8153, 8152, 8154, 8184, 8168, 8180, 8110, 8163, 8304, 9690,1.5644488334655762,XXXXX
92, 8120, 8157, 8187, 8191, 8172, 8176, 8166, 8166, 8177, 8187, 8213, 8204, 8275, 9607,1.572376012802124,XXXXX
93, 8166, 8161, 8153, 8141, 8172, 8164, 8169, 8171, 8178, 8188, 8169, 8181, 8276, 9623,1.5803463459014893,XXXXX
94, 8234, 8191, 8153, 8118, 8165, 8155, 8161, 8176, 8161, 8191, 8130, 8167, 8299, 9670,1.588209629058838,XXXXX
95, 8017, 8149, 8223, 8258, 8182, 8195, 8175, 8173, 8192, 8198, 8265, 8230, 8257, 9540,1.5960984230041504,XXXXX
96, 8286, 8197, 8136, 8091, 8168, 8155, 8160, 8176, 8168, 8182, 8087, 8140, 8298, 9731,1.6040220260620117,XXXXX
97, 8135, 8165, 8171, 8184, 8170, 8173, 8168, 8159, 8171, 8189, 8169, 8181, 8281, 9611,1.6119036674499512,XXXXX
98, 8127, 8154, 8167, 8169, 8163, 8173, 8170, 8172, 8186, 8194, 8185, 8188, 8271, 9580,1.619819164276123,XXXXX
99, 8234, 8189, 8156, 8108, 8158, 8149, 8158, 8183, 8171, 8181, 8133, 8171, 8297, 9668,1.6277735233306885,XXXXX
100, 8003, 8142, 8214, 8258, 8174, 8185, 8168, 8172, 8187, 8186, 8263, 8235, 8266, 9538,1.6341373920440674,XXXXX
101, 8273, 8187, 8136, 8109, 8169, 8156, 8158, 8172, 8166, 8184, 8089, 8143, 8299, 9705,1.6435012817382812,XXXXX
102, 8156, 8172, 8172, 8168, 8177, 8170, 8173, 8165, 8180, 8188, 8164, 8183, 8277, 9589,1.6513915061950684,XXXXX
103, 8095, 8158, 8167, 8171, 8162, 8173, 8171, 8176, 8189, 8189, 8205, 8203, 8274, 9559,1.6591951847076416,XXXXX
104, 8265, 8196, 8144, 8103, 8157, 8150, 8155, 8177, 8158, 8183, 8118, 8159, 8314, 9714,1.6671936511993408,XXXXX
105, 8033, 8142, 8217, 8253, 8179, 8187, 8175, 8167, 8182, 8191, 8245, 8218, 8262, 9564,1.675112009048462,XXXXX
106, 8251, 8177, 8139, 8106, 8161, 8156, 8163, 8177, 8169, 8191, 8101, 8148, 8291, 9687,1.682936191558838,XXXXX
107, 8158, 8175, 8159, 8155, 8166, 8167, 8166, 8164, 8175, 8197, 8172, 8189, 8291, 9593,1.6908338069915771,XXXXX
108, 8084, 8156, 8180, 8188, 8175, 8180, 8174, 8168, 8194, 8194, 8220, 8214, 8269, 9548,1.6988317966461182,XXXXX
109, 8324, 8198, 8156, 8111, 8168, 8150, 8162, 8184, 8158, 8183, 8097, 8152, 8301, 9752,1.7067296504974365,XXXXX
110, 8078, 8151, 8220, 8261, 8181, 8188, 8173, 8176, 8179, 8195, 8233, 8211, 8268, 9608,1.7147464752197266,XXXXX
111, 8228, 8183, 8141, 8109, 8166, 8165, 8154, 8172, 8174, 8190, 8098, 8136, 8295, 9696,1.7211105823516846,XXXXX
112, 8180, 8180, 8168, 8157, 8168, 8169, 8157, 8163, 8170, 8186, 8139, 8161, 8290, 9638,1.729149341583252,XXXXX
113, 8076, 8145, 8191, 8220, 8171, 8190, 8177, 8171, 8188, 8192, 8222, 8207, 8264, 9545,1.7372164726257324,XXXXX
114, 8309, 8197, 8117, 8070, 8157, 8155, 8159, 8174, 8163, 8183, 8070, 8137, 8303, 9703,1.7452406883239746,XXXXX
115, 8051, 8159, 8180, 8213, 8170, 8179, 8166, 8162, 8188, 8186, 8218, 8211, 8264, 9535,1.7543566226959229,XXXXX
116, 8194, 8175, 8157, 8139, 8161, 8158, 8161, 8176, 8183, 8186, 8165, 8184, 8285, 9634,1.762010097503662,XXXXX
117, 8220, 8176, 8182, 8156, 8163, 8160, 8160, 8172, 8172, 8190, 8178, 8195, 8295, 9667,1.769432544708252,XXXXX
118, 8069, 8151, 8189, 8206, 8170, 8177, 8168, 8174, 8190, 8190, 8236, 8217, 8269, 9582,1.7775909900665283,XXXXX
119, 8275, 8206, 8124, 8084, 8163, 8143, 8160, 8183, 8164, 8178, 8085, 8142, 8309, 9727,1.7853248119354248,XXXXX
120, 8042, 8151, 8207, 8252, 8181, 8185, 8177, 8164, 8187, 8191, 8232, 8216, 8267, 9549,1.7930707931518555,XXXXX
121, 8204, 8161, 8157, 8146, 8168, 8175, 8167, 8173, 8180, 8196, 8138, 8165, 8280, 9642,1.801060438156128,XXXXX
122, 8265, 8190, 8145, 8115, 8168, 8161, 8166, 8179, 8162, 8191, 8097, 8148, 8300, 9700,1.8088743686676025,XXXXX
123, 8038, 8152, 8190, 8226, 8177, 8186, 8181, 8171, 8189, 8190, 8221, 8215, 8263, 9552,1.816779613494873,XXXXX
124, 8290, 8196, 8129, 8084, 8163, 8157, 8157, 8169, 8164, 8184, 8094, 8154, 8298, 9699,1.824664831161499,XXXXX
125, 8123, 8158, 8180, 8194, 8178, 8183, 8168, 8160, 8181, 8193, 8218, 8213, 8265, 9570,1.832425594329834,XXXXX
126, 8196, 8169, 8133, 8115, 8165, 8164, 8167, 8176, 8182, 8188, 8147, 8178, 8274, 9629,1.840541124343872,XXXXX
127, 8243, 8193, 8130, 8093, 8161, 8150, 8155, 8178, 8163, 8180, 8108, 8162, 8300, 9661,1.8484151363372803,XXXXX
238, 7989, 8141, 8200, 8236, 8180, 8187, 8169, 8170, 8193, 8190, 8255, 8233, 8261, 9497,1.8564140796661377,XXXXX
0, 8247, 8187, 8137, 8086, 8158, 8148, 8159, 8179, 8170, 8182, 8105, 8158, 8296, 9706,1.8643910884857178,XXXXX
1, 8102, 8165, 8187, 8183, 8162, 8166, 8169, 8167, 8178, 8188, 8218, 8211, 8272, 9605,1.8723945617675781,XXXXX
2, 8135, 8169, 8165, 8153, 8165, 8165, 8169, 8168, 8185, 8190, 8205, 8198, 8273, 9606,1.8800384998321533,XXXXX
3, 8262, 8196, 8155, 8118, 8162, 8148, 8156, 8171, 8161, 8180, 8132, 8167, 8296, 9707,1.8878185749053955,XXXXX
4, 8039, 8143, 8204, 8245, 8171, 8182, 8166, 8170, 8182, 8182, 8258, 8231, 8258, 9564,1.8955483436584473,XXXXX
5, 8256, 8189, 8118, 8078, 8164, 8153, 8154, 8178, 8164, 8180, 8114, 8157, 8301, 9703,1.903398036956787,XXXXX
6, 8092, 8170, 8187, 8192, 8175, 8173, 8167, 8167, 8173, 8188, 8210, 8203, 8280, 9597,1.9111144542694092,XXXXX
7, 8115, 8159, 8193, 8196, 8168, 8173, 8166, 8168, 8182, 8189, 8187, 8188, 8270, 9610,1.918968677520752,XXXXX
8, 8300, 8195, 8143, 8100, 8166, 8152, 8152, 8164, 8163, 8181, 8083, 8141, 8305, 9701,1.9269874095916748,XXXXX
9, 8029, 8151, 8194, 8232, 8179, 8185, 8170, 8155, 8192, 8188, 8252, 8230, 8260, 9494,1.9347484111785889,XXXXX
10, 8239, 8198, 8128, 8082, 8157, 8151, 8156, 8172, 8174, 8182, 8113, 8161, 8297, 9666,1.94242525100708,XXXXX
11, 8131, 8178, 8169, 8159, 8172, 8169, 8164, 8167, 8173, 8187, 8167, 8185, 8291, 9612,1.9502325057983398,XXXXX
12, 8073, 8148, 8186, 8201, 8179, 8181, 8168, 8169, 8182, 8192, 8213, 8202, 8268, 9564,1.959496259689331,XXXXX
13, 8304, 8196, 8149, 8109, 8167, 8155, 8153, 8181, 8157, 8184, 8101, 8145, 8301, 9734,1.9673058986663818,XXXXX
14, 8095, 8150, 8198, 8235, 8182, 8190, 8175, 8178, 8185, 8190, 8218, 8203, 8264, 9597,1.9756648540496826,XXXXX
15, 8283, 8177, 8128, 8095, 8169, 8157, 8164, 8176, 8171, 8187, 8083, 8138, 8287, 9698,1.9821922779083252,XXXXX
16, 8195, 8171, 8165, 8165, 8174, 8165, 8165, 8163, 8168, 8192, 8142, 8168, 8283, 9628,1.9901480674743652,XXXXX
17, 8083, 8149, 8176, 8209, 8176, 8187, 8176, 8169, 8186, 8193, 8209, 8200, 8265, 9557,1.998227596282959,XXXXX
18, 8289, 8198, 8118, 8071, 8159, 8152, 8159, 8172, 8160, 8179, 8093, 8153, 8300, 9686,2.006089687347412,XXXXX
19, 8036, 8152, 8199, 8220, 8171, 8178, 8168, 8158, 8186, 8186, 8254, 8234, 8261, 9510,2.014209508895874,XXXXX
20, 8214, 8175, 8157, 8126, 8162, 8155, 8160, 8171, 8175, 8188, 8144, 8165, 8293, 9652,2.022174835205078,XXXXX
21, 8215, 8177, 8167, 8155, 8169, 8160, 8163, 8170, 8166, 8189, 8138, 8159, 8296, 9663,2.0301873683929443,XXXXX
22, 8084, 8148, 8180, 8212, 8174, 8183, 8173, 8162, 8190, 8193, 8206, 8197, 8261, 9560,2.038118839263916,XXXXX
23, 8301, 8197, 8127, 8080, 8157, 8149, 8156, 8162, 8162, 8186, 8089, 8147, 8299, 9696,2.046215295791626,XXXXX
24, 8047, 8151, 8209, 8231, 8169, 8179, 8165, 8164, 8179, 8191, 8253, 8229, 8267, 9531,2.0527403354644775,XXXXX
25, 8187, 8172, 8161, 8140, 8164, 8162, 8161, 8182, 8175, 8186, 8149, 8168, 8291, 9648,2.060607433319092,XXXXX
26, 8229, 8188, 8157, 8140, 8173, 8159, 8162, 8170, 8166, 8182, 8118, 8154, 8296, 9677,2.0685133934020996,XXXXX
27, 8060, 8148, 8186, 8215, 8177, 8182, 8171, 8166, 8190, 8188, 8223, 8218, 8255, 9528,2.0764923095703125,XXXXX
28, 8297, 8198, 8130, 8073, 8160, 8153, 8153, 8180, 8163, 8183, 8089, 8154, 8300, 9691,2.0845305919647217,XXXXX
29, 8049, 8155, 8212, 8240, 8176, 8186, 8161, 8168, 8179, 8191, 8234, 8207, 8270, 9564,2.092618703842163,XXXXX
30, 8135, 8161, 8176, 8175, 8168, 8167, 8154, 8177, 8176, 8192, 8167, 8163, 8279, 9657,2.1006288528442383,XXXXX
31, 8260, 8190, 8154, 8126, 8169, 8155, 8157, 8178, 8159, 8187, 8109, 8150, 8300, 9740,2.107391357421875,XXXXX
32, 8079, 8156, 8189, 8226, 8180, 8191, 8178, 8171, 8187, 8190, 8222, 8214, 8259, 9573,2.1161646842956543,XXXXX
33, 8314, 8197, 8133, 8090, 8163, 8155, 8157, 8179, 8163, 8182, 8086, 8138, 8298, 9720,2.124267578125,XXXXX
34, 8125, 8153, 8208, 8224, 8182, 8180, 8167, 8165, 8176, 8190, 8201, 8193, 8272, 9618,2.1321892738342285,XXXXX
35, 8169, 8163, 8167, 8174, 8177, 8175, 8170, 8172, 8182, 8189, 8145, 8167, 8268, 9659,2.1402413845062256,XXXXX
36, 8279, 8200, 8135, 8114, 8163, 8155, 8161, 8178, 8164, 8185, 8087, 8140, 8290, 9721,2.148130416870117,XXXXX
37, 8060, 8144, 8198, 8235, 8174, 8188, 8176, 8173, 8191, 8195, 8240, 8214, 8258, 9556,2.15594220161438,XXXXX
38, 8311, 8184, 8138, 8095, 8163, 8158, 8162, 8176, 8166, 8187, 8090, 8143, 8297, 9729,2.163942575454712,XXXXX
39, 8157, 8163, 8183, 8202, 8173, 8175, 8169, 8163, 8170, 8190, 8170, 8184, 8271, 9622,2.172170639038086,XXXXX
40, 8159, 8159, 8159, 8168, 8169, 8175, 8165, 8166, 8182, 8193, 8162, 8171, 8270, 9616,2.178514242172241,XXXXX
41, 8310, 8194, 8135, 8091, 8162, 8156, 8154, 8171, 8161, 8188, 8100, 8144, 8306, 9713,2.1865086555480957,XXXXX
42, 8057, 8148, 8208, 8239, 8175, 8185, 8173, 8171, 8179, 8191, 8244, 8224, 8268, 9555,2.1944162845611572,XXXXX
43, 8278, 8188, 8137, 8104, 8161, 8152, 8158, 8181, 8164, 8182, 8080, 8134, 8300, 9734,2.202700138092041,XXXXX
44, 8172, 8168, 8174, 8183, 8166, 8177, 8166, 8167, 8179, 8187, 8155, 8162, 8283, 9649,2.2107582092285156,XXXXX
45, 8153, 8158, 8170, 8174, 8165, 8180, 8176, 8169, 8189, 8189, 8181, 8182, 8275, 9603,2.219113349914551,XXXXX
46, 8334, 8198, 8134, 8088, 8160, 8148, 8166, 8172, 8156, 8179, 8082, 8147, 8308, 9737,2.227149486541748,XXXXX
47, 8069, 8138, 8201, 8247, 8176, 8189, 8175, 8162, 8184, 8187, 8228, 8212, 8264, 9594,2.2348031997680664,XXXXX
48, 8262, 8177, 8134, 8100, 8163, 8158, 8157, 8175, 8172, 8181, 8086, 8132, 8298, 9720,2.241401195526123,XXXXX
49, 8159, 8176, 8167, 8150, 8169, 8164, 8165, 8169, 8170, 8183, 8153, 8177, 8289, 9594,2.249579429626465,XXXXX
50, 8064, 8147, 8180, 8186, 8161, 8181, 8170, 8171, 8182, 8190, 8234, 8230, 8269, 9513,2.2572031021118164,XXXXX
51, 8286, 8190, 8141, 8084, 8151, 8149, 8149, 8173, 8158, 8187, 8123, 8172, 8309, 9714,2.2661662101745605,XXXXX
52, 8056, 8149, 8207, 8225, 8173, 8176, 8170, 8161, 8185, 8194, 8249, 8225, 8268, 9582,2.2738583087921143,XXXXX
53, 8224, 8179, 8137, 8096, 8162, 8149, 8166, 8174, 8170, 8184, 8121, 8165, 8288, 9675,2.2817702293395996,XXXXX
54, 8154, 8174, 8180, 8161, 8169, 8157, 8162, 8171, 8163, 8181, 8168, 8188, 8285, 9620,2.2894601821899414,XXXXX
55, 8046, 8144, 8226, 8248, 8179, 8182, 8167, 8169, 8192, 8190, 8244, 8214, 8259, 9556,2.2973227500915527,XXXXX
56, 8325, 8198, 8149, 8107, 8167, 8152, 8159, 8172, 8168, 8184, 8080, 8134, 8302, 9760,2.305143117904663,XXXXX
57, 8104, 8155, 8186, 8225, 8177, 8183, 8178, 8165, 8181, 8187, 8198, 8193, 8268, 9607,2.3129427433013916,XXXXX
58, 8253, 8178, 8148, 8127, 8167, 8161, 8167, 8172, 8173, 8185, 8115, 8144, 8287, 9683,2.320671796798706,XXXXX
59, 8259, 8183, 8175, 8152, 8173, 8162, 8164, 8168, 8171, 8188, 8137, 8166, 8293, 9676,2.3285741806030273,XXXXX
60, 8074, 8142, 8199, 8231, 8179, 8189, 8172, 8172, 8191, 8191, 8225, 8219, 8263, 9571,2.336282730102539,XXXXX
61, 8306, 8191, 8132, 8084, 8167, 8157, 8156, 8181, 8163, 8179, 8066, 8133, 8304, 9748,2.3443057537078857,XXXXX
62, 8102, 8150, 8189, 8212, 8180, 8190, 8175, 8169, 8188, 8186, 8202, 8198, 8270, 9586,2.3521649837493896,XXXXX
63, 8229, 8164, 8144, 8128, 8166, 8171, 8166, 8172, 8185, 8186, 8132, 8168, 8285, 9647,2.3600895404815674,XXXXX
64, 8283, 8183, 8158, 8130, 8167, 8160, 8157, 8167, 8165, 8189, 8109, 8158, 8298, 9699,2.3681538105010986,XXXXX
65, 8068, 8140, 8205, 8239, 8180, 8193, 8173, 8164, 8188, 8194, 8218, 8201, 8258, 9578,2.3757309913635254,XXXXX
66, 8287, 8192, 8127, 8077, 8159, 8158, 8160, 8172, 8165, 8176, 8067, 8122, 8301, 9731,2.3835229873657227,XXXXX
67, 8104, 8163, 8187, 8198, 8170, 8180, 8171, 8162, 8182, 8180, 8196, 8190, 8273, 9590,2.391493558883667,XXXXX
68, 8203, 8174, 8154, 8139, 8166, 8167, 8170, 8172, 8186, 8187, 8147, 8170, 8279, 9629,2.3993523120880127,XXXXX
69, 8250, 8196, 8135, 8100, 8162, 8152, 8159, 8170, 8165, 8182, 8105, 8154, 8303, 9661,2.40730357170105,XXXXX
70, 8003, 8141, 8195, 8228, 8176, 8182, 8167, 8165, 8186, 8182, 8260, 8229, 8261, 9515,2.415092706680298,XXXXX
71, 8281, 8186, 8145, 8096, 8162, 8147, 8157, 8175, 8163, 8180, 8116, 8155, 8296, 9709,2.4230093955993652,XXXXX
72, 8122, 8162, 8209, 8217, 8169, 8174, 8171, 8164, 8177, 8192, 8202, 8188, 8278, 9601,2.432494640350342,XXXXX
73, 8142, 8160, 8168, 8170, 8168, 8174, 8167, 8173, 8183, 8192, 8164, 8161, 8282, 9621,2.4388058185577393,XXXXX
74, 8272, 8195, 8121, 8089, 8168, 8153, 8156, 8173, 8162, 8186, 8089, 8140, 8303, 9688,2.446612596511841,XXXXX
75, 8035, 8153, 8191, 8223, 8176, 8185, 8175, 8161, 8191, 8190, 8241, 8226, 8258, 9500,2.454643964767456,XXXXX
76, 8283, 8188, 8146, 8098, 8156, 8157, 8162, 8175, 8171, 8182, 8122, 8157, 8297, 9697,2.4624922275543213,XXXXX
77, 8143, 8156, 8205, 8212, 8172, 8172, 8166, 8173, 8173, 8189, 8221, 8201, 8283, 9637,2.470395088195801,XXXXX
78, 8093, 8153, 8189, 8195, 8171, 8168, 8165, 8176, 8179, 8192, 8199, 8194, 8275, 9627,2.478285312652588,XXXXX
79, 8271, 8202, 8144, 8094, 8159, 8148, 8154, 8171, 8156, 8183, 8081, 8142, 8303, 9758,2.4864542484283447,XXXXX
80, 8057, 8147, 8211, 8247, 8175, 8188, 8174, 8162, 8188, 8193, 8245, 8217, 8257, 9569,2.4941511154174805,XXXXX
81, 8271, 8186, 8155, 8124, 8166, 8155, 8161, 8180, 8171, 8186, 8122, 8147, 8293, 9702,2.501887798309326,XXXXX
82, 8173, 8176, 8187, 8193, 8175, 8168, 8169, 8176, 8169, 8184, 8178, 8175, 8290, 9679,2.5098421573638916,XXXXX
83, 8130, 8153, 8173, 8189, 8172, 8183, 8174, 8177, 8188, 8191, 8197, 8191, 8272, 9628,2.517908811569214,XXXXX
84, 8302, 8199, 8129, 8071, 8161, 8151, 8157, 8177, 8164, 8185, 8076, 8140, 8300, 9676,2.5258357524871826,XXXXX
85, 8014, 8146, 8203, 8230, 8179, 8184, 8172, 8164, 8185, 8190, 8238, 8216, 8261, 9481,2.5339181423187256,XXXXX
86, 8224, 8172, 8136, 8109, 8169, 8159, 8163, 8168, 8170, 8184, 8129, 8156, 8293, 9664,2.541820526123047,XXXXX
87, 8174, 8176, 8165, 8151, 8173, 8164, 8164, 8162, 8166, 8184, 8169, 8191, 8284, 9633,2.5499279499053955,XXXXX
88, 8056, 8159, 8187, 8190, 8169, 8178, 8170, 8169, 8183, 8186, 8226, 8222, 8262, 9551,2.5579185485839844,XXXXX
89, 8298, 8198, 8142, 8085, 8158, 8150, 8158, 8180, 8156, 8179, 8101, 8146, 8312, 9719,2.5660369396209717,XXXXX
90, 8056, 8145, 8224, 8261, 8178, 8188, 8177, 8169, 8183, 8193, 8247, 8214, 8271, 9548,2.572371244430542,XXXXX
91, 8217, 8177, 8164, 8145, 8166, 8166, 8166, 8171, 8180, 8194, 8126, 8155, 8284, 9670,2.580609083175659,XXXXX
92, 8247, 8185, 8156, 8139, 8169, 8163, 8165, 8167, 8173, 8195, 8118, 8149, 8293, 9706,2.5897796154022217,XXXXX
93, 8109, 8148, 8178, 8203, 8180, 8186, 8174, 8168, 8190, 8199, 8200, 8193, 8267, 9584,2.597545862197876,XXXXX
94, 8331, 8195, 8127, 8083, 8162, 8155, 8157, 8171, 8161, 8187, 8079, 8143, 8301, 9714,2.605621099472046,XXXXX
95, 8115, 8153, 8188, 8218, 8170, 8180, 8170, 8161, 8178, 8190, 8220, 8208, 8269, 9587,2.613147497177124,XXXXX
96, 8215, 8175, 8137, 8116, 8165, 8156, 8167, 8172, 8177, 8189, 8130, 8159, 8293, 9666,2.620546579360962,XXXXX
97, 8183, 8190, 8157, 8125, 8168, 8162, 8169, 8166, 8173, 8190, 8144, 8179, 8297, 9618,2.628627061843872,XXXXX
98, 8005, 8144, 8204, 8236, 8173, 8195, 8177, 8166, 8195, 8191, 8270, 8238, 8257, 9488,2.6363120079040527,XXXXX
99, 8304, 8192, 8139, 8099, 8160, 8148, 8149, 8179, 8165, 8183, 8103, 8143, 8308, 9739,2.6439666748046875,XXXXX
100, 8111, 8158, 8202, 8228, 8178, 8174, 8161, 8167, 8177, 8195, 8215, 8197, 8281, 9637,2.65163254737854,XXXXX
101, 8189, 8167, 8167, 8158, 8169, 8167, 8166, 8172, 8170, 8193, 8159, 8172, 8283, 9671,2.6595070362091064,XXXXX
102, 8254, 8191, 8162, 8136, 8166, 8155, 8162, 8173, 8157, 8187, 8123, 8158, 8294, 9689,2.667346954345703,XXXXX
103, 8042, 8151, 8207, 8241, 8173, 8185, 8173, 8168, 8195, 8193, 8241, 8215, 8259, 9537,2.675351858139038,XXXXX
104, 8309, 8196, 8130, 8080, 8158, 8155, 8157, 8173, 8171, 8189, 8076, 8136, 8306, 9736,2.683049440383911,XXXXX
105, 8139, 8164, 8181, 8205, 8178, 8178, 8170, 8163, 8176, 8190, 8173, 8186, 8280, 9620,2.6911134719848633,XXXXX
106, 8179, 8165, 8148, 8160, 8177, 8168, 8168, 8174, 8183, 8188, 8139, 8167, 8279, 9622,2.700413227081299,XXXXX
107, 8301, 8189, 8130, 8099, 8169, 8154, 8156, 8174, 8167, 8188, 8100, 8151, 8307, 9693,2.7067017555236816,XXXXX
108, 8062, 8147, 8194, 8233, 8177, 8192, 8171, 8164, 8189, 8197, 8248, 8221, 8266, 9548,2.7146358489990234,XXXXX
109, 8284, 8198, 8128, 8091, 8160, 8158, 8162, 8175, 8166, 8187, 8083, 8138, 8300, 9719,2.7227272987365723,XXXXX
110, 8143, 8164, 8174, 8182, 8168, 8176, 8176, 8164, 8183, 8189, 8170, 8189, 8283, 9603,2.7306292057037354,XXXXX
111, 8159, 8153, 8153, 8150, 8165, 8176, 8175, 8163, 8190, 8187, 8176, 8199, 8281, 9585,2.7385056018829346,XXXXX
112, 8304, 8194, 8132, 8089, 8161, 8151, 8156, 8171, 8160, 8181, 8107, 8159, 8308, 9696,2.7461907863616943,XXXXX
113, 8051, 8142, 8203, 8238, 8177, 8182, 8170, 8172, 8190, 8194, 8244, 8213, 8264, 9560,2.754300594329834,XXXXX
114, 8256, 8187, 8122, 8078, 8161, 8153, 8162, 8178, 8177, 8189, 8088, 8138, 8304, 9697,2.7621543407440186,XXXXX
115, 8110, 8173, 8167, 8163, 8166, 8170, 8167, 8165, 8178, 8190, 8187, 8199, 8290, 9561,2.770186424255371,XXXXX
116, 8092, 8156, 8189, 8196, 8165, 8175, 8167, 8169, 8187, 8190, 8226, 8213, 8272, 9550,2.778317928314209,XXXXX
117, 8310, 8202, 8148, 8108, 8165, 8152, 8153, 8173, 8159, 8178, 8087, 8135, 8306, 9728,2.7856497764587402,XXXXX
118, 8055, 8152, 8196, 8241, 8184, 8187, 8169, 8165, 8186, 8188, 8219, 8200, 8264, 9546,2.793654441833496,XXXXX
119, 8243, 8183, 8134, 8094, 8163, 8153, 8157, 8176, 8173, 8189, 8117, 8160, 8289, 9650,2.80173659324646,XXXXX
120, 8138, 8177, 8182, 8162, 8165, 8165, 8163, 8168, 8170, 8186, 8201, 8204, 8285, 9596,2.809774398803711,XXXXX
121, 8062, 8157, 8186, 8209, 8170, 8183, 8168, 8169, 8187, 8184, 8240, 8210, 8274, 9565,2.8176722526550293,XXXXX
122, 8318, 8202, 8125, 8089, 8164, 8148, 8157, 8172, 8162, 8182, 8080, 8131, 8313, 9720,2.8255019187927246,XXXXX
123, 8054, 8150, 8200, 8231, 8182, 8183, 8178, 8162, 8184, 8195, 8222, 8208, 8267, 9518,2.8329293727874756,XXXXX
124, 8214, 8177, 8145, 8107, 8165, 8161, 8162, 8171, 8173, 8187, 8132, 8162, 8290, 9635,2.841007709503174,XXXXX
125, 8232, 8183, 8156, 8131, 8160, 8161, 8156, 8167, 8169, 8184, 8157, 8177, 8294, 9667,2.848783493041992,XXXXX
126, 8106, 8155, 8173, 8187, 8164, 8178, 8170, 8170, 8191, 8189, 8212, 8206, 8271, 9586,2.856616258621216,XXXXX
127, 8269, 8199, 8123, 8066, 8159, 8144, 8161, 8178, 8167, 8180, 8087, 8143, 8310, 9686,2.8645107746124268,XXXXX
238, 8011, 8153, 8200, 8221, 8171, 8175, 8173, 8163, 8187, 8192, 8258, 8227, 8268, 9496,2.872321844100952,XXXXX
0, 8197, 8175, 8162, 8136, 8161, 8159, 8162, 8173, 8177, 8188, 8165, 8181, 8281, 9651,2.8804712295532227,XXXXX
1, 8238, 8187, 8179, 8165, 8174, 8161, 8160, 8176, 8166, 8178, 8151, 8174, 8295, 9719,2.888305425643921,XXXXX
2, 8056, 8151, 8208, 8246, 8180, 8186, 8170, 8173, 8187, 8190, 8239, 8213, 8270, 9594,2.896355152130127,XXXXX
3, 8287, 8198, 8142, 8096, 8162, 8152, 8157, 8179, 8157, 8191, 8088, 8139, 8305, 9747,2.904325008392334,XXXXX
4, 8078, 8159, 8205, 8228, 8181, 8182, 8176, 8172, 8177, 8188, 8224, 8209, 8265, 9596,2.912438154220581,XXXXX
5, 8198, 8176, 8165, 8154, 8173, 8169, 8170, 8175, 8179, 8182, 8161, 8175, 8287, 9661,2.9204845428466797,XXXXX
6, 8265, 8192, 8171, 8153, 8167, 8162, 8163, 8165, 8166, 8185, 8127, 8155, 8306, 9714,2.928858995437622,XXXXX
7, 8066, 8149, 8209, 8250, 8177, 8187, 8177, 8165, 8191, 8189, 8223, 8200, 8264, 9587,2.9355926513671875,XXXXX
8, 8306, 8199, 8132, 8085, 8169, 8150, 8161, 8176, 8165, 8179, 8071, 8129, 8303, 9742,2.9434351921081543,XXXXX
9, 8102, 8161, 8198, 8220, 8181, 8181, 8172, 8165, 8178, 8191, 8209, 8196, 8273, 9599,2.95127534866333,XXXXX
10, 8159, 8167, 8174, 8176, 8173, 8174, 8169, 8177, 8177, 8192, 8168, 8172, 8280, 9650,2.95974063873291,XXXXX
11, 8269, 8196, 8156, 8126, 8168, 8159, 8158, 8176, 8158, 8185, 8099, 8144, 8310, 9732,2.9667656421661377,XXXXX
12, 8073, 8144, 8199, 8242, 8178, 8190, 8173, 8165, 8189, 8192, 8224, 8201, 8269, 9582,2.9751670360565186,XXXXX
13, 8318, 8190, 8125, 8093, 8164, 8151, 8160, 8178, 8164, 8191, 8077, 8122, 8302, 9729,2.9830996990203857,XXXXX
14, 8117, 8167, 8186, 8201, 8177, 8172, 8171, 8173, 8175, 8198, 8190, 8187, 8281, 9582,2.9912967681884766,XXXXX
15, 8115, 8161, 8178, 8172, 8169, 8177, 8172, 8170, 8187, 8192, 8202, 8203, 8273, 9581,2.9995522499084473,XXXXX
16, 8262, 8193, 8152, 8105, 8161, 8156, 8157, 8165, 8165, 8186, 8146, 8174, 8296, 9688,3.007631778717041,XXXXX
17, 8052, 8152, 8202, 8228, 8177, 8181, 8171, 8167, 8187, 8197, 8261, 8224, 8263, 9555,3.0154976844787598,XXXXX
18, 8278, 8194, 8135, 8092, 8162, 8144, 8159, 8179, 8164, 8188, 8096, 8138, 8302, 9728,3.0233466625213623,XXXXX
19, 8098, 8168, 8199, 8216, 8172, 8170, 8164, 8169, 8167, 8191, 8203, 8191, 8278, 9613,3.0310959815979004,XXXXX
20, 8081, 8161, 8195, 8215, 8176, 8182, 8165, 8176, 8184, 8196, 8206, 8189, 8267, 9600,3.037540912628174,XXXXX
21, 8305, 8207, 8141, 8099, 8166, 8151, 8159, 8173, 8165, 8185, 8075, 8125, 8302, 9756,3.045233726501465,XXXXX
22, 8059, 8155, 8206, 8236, 8175, 8179, 8176, 8160, 8187, 8190, 8235, 8201, 8260, 9577,3.0536651611328125,XXXXX
23, 8263, 8192, 8153, 8114, 8164, 8152, 8158, 8180, 8168, 8191, 8119, 8144, 8293, 9712,3.061474561691284,XXXXX
24, 8197, 8184, 8187, 8190, 8177, 8170, 8167, 8176, 8173, 8193, 8159, 8176, 8285, 9681,3.0693676471710205,XXXXX
25, 8152, 8164, 8177, 8198, 8177, 8177, 8174, 8171, 8185, 8190, 8171, 8185, 8273, 9632,3.0770931243896484,XXXXX
26, 8334, 8200, 8135, 8086, 8161, 8144, 8155, 8173, 8157, 8185, 8075, 8129, 8310, 9708,3.0866668224334717,XXXXX
27, 8035, 8141, 8214, 8244, 8170, 8185, 8167, 8163, 8189, 8202, 8258, 8214, 8262, 9500,3.093292474746704,XXXXX
28, 8226, 8180, 8140, 8104, 8157, 8158, 8160, 8170, 8178, 8193, 8130, 8163, 8286, 9663,3.101398229598999,XXXXX
29, 8218, 8191, 8149, 8129, 8168, 8160, 8169, 8169, 8170, 8182, 8133, 8181, 8291, 9662,3.109297752380371,XXXXX
30, 8102, 8160, 8164, 8177, 8171, 8181, 8177, 8173, 8189, 8187, 8189, 8197, 8270, 9565,3.117443799972534,XXXXX
31, 8303, 8192, 8122, 8068, 8154, 8152, 8157, 8173, 8164, 8184, 8088, 8142, 8304, 9699,3.125321626663208,XXXXX
32, 8068, 8142, 8202, 8229, 8174, 8180, 8172, 8163, 8182, 8193, 8252, 8229, 8260, 9563,3.133392572402954,XXXXX
33, 8205, 8177, 8137, 8107, 8167, 8158, 8165, 8180, 8172, 8188, 8128, 8162, 8285, 9668,3.141270637512207,XXXXX
34, 8154, 8185, 8146, 8117, 8162, 8164, 8157, 8172, 8169, 8184, 8138, 8167, 8296, 9610,3.149506092071533,XXXXX
35, 8039, 8146, 8194, 8215, 8165, 8188, 8166, 8164, 8191, 8190, 8247, 8225, 8264, 9512,3.1575734615325928,XXXXX
36, 8321, 8194, 8149, 8103, 8161, 8156, 8161, 8171, 8165, 8186, 8099, 8141, 8303, 9723,3.16373348236084,XXXXX
37, 8067, 8152, 8207, 8238, 8181, 8187, 8173, 8163, 8190, 8191, 8220, 8190, 8270, 9566,3.171642541885376,XXXXX
38, 8173, 8171, 8149, 8139, 8163, 8164, 8159, 8176, 8183, 8184, 8141, 8163, 8281, 9619,3.179763078689575,XXXXX
39, 8221, 8187, 8153, 8130, 8159, 8152, 8161, 8174, 8164, 8182, 8131, 8175, 8290, 9631,3.1879849433898926,XXXXX
40, 8047, 8143, 8196, 8218, 8166, 8179, 8179, 8167, 8192, 8192, 8240, 8221, 8258, 9516,3.196012496948242,XXXXX
41, 8274, 8197, 8129, 8078, 8154, 8144, 8159, 8176, 8164, 8184, 8095, 8143, 8300, 9709,3.2039620876312256,XXXXX
42, 8045, 8170, 8189, 8223, 8175, 8175, 8170, 8168, 8171, 8182, 8219, 8202, 8270, 9572,3.212023973464966,XXXXX
43, 8177, 8171, 8164, 8164, 8171, 8170, 8171, 8175, 8177, 8180, 8157, 8170, 8280, 9626,3.2199764251708984,XXXXX
44, 8318, 8186, 8161, 8126, 8165, 8160, 8163, 8178, 8166, 8187, 8114, 8153, 8301, 9708,3.2266085147857666,XXXXX
45, 8080, 8146, 8188, 8226, 8173, 8190, 8174, 8171, 8185, 8196, 8227, 8208, 8264, 9572,3.2346386909484863,XXXXX
46, 8285, 8193, 8112, 8071, 8163, 8153, 8158, 8172, 8164, 8183, 8069, 8135, 8300, 9730,3.242706298828125,XXXXX
47, 8105, 8155, 8188, 8193, 8176, 8175, 8168, 8165, 8184, 8186, 8192, 8204, 8272, 9580,3.251612663269043,XXXXX
48, 8154, 8157, 8162, 8153, 8160, 8171, 8169, 8173, 8185, 8187, 8176, 8195, 8275, 9591,3.259664535522461,XXXXX
49, 8297, 8193, 8131, 8096, 8153, 8151, 8162, 8166, 8160, 8187, 8107, 8157, 8301, 9713,3.266355514526367,XXXXX
50, 8058, 8145, 8192, 8231, 8176, 8179, 8173, 8161, 8192, 8195, 8233, 8212, 8257, 9572,3.275620222091675,XXXXX
51, 8267, 8192, 8122, 8081, 8165, 8148, 8160, 8177, 8174, 8183, 8085, 8138, 8298, 9707,3.283191680908203,XXXXX
52, 8139, 8169, 8165, 8164, 8168, 8171, 8177, 8162, 8180, 8186, 8182, 8195, 8283, 9594,3.2908899784088135,XXXXX
53, 8157, 8160, 8160, 8144, 8163, 8170, 8175, 8170, 8187, 8188, 8180, 8196, 8272, 9597,3.298449754714966,XXXXX
54, 8273, 8193, 8145, 8098, 8158, 8150, 8156, 8181, 8166, 8180, 8114, 8159, 8297, 9692,3.306649923324585,XXXXX
55, 7989, 8138, 8213, 8250, 8172, 8186, 8171, 8168, 8195, 8189, 8279, 8236, 8254, 9520,3.313462257385254,XXXXX
56, 8238, 8186, 8136, 8081, 8161, 8152, 8159, 8175, 8171, 8184, 8121, 8159, 8293, 9700,3.3227379322052,XXXXX
57, 8144, 8183, 8171, 8160, 8171, 8171, 8163, 8172, 8170, 8185, 8192, 8200, 8283, 9624,3.329315185546875,XXXXX
58, 8079, 8160, 8180, 8192, 8164, 8180, 8167, 8174, 8187, 8189, 8241, 8219, 8267, 9577,3.3373279571533203,XXXXX
59, 8278, 8191, 8142, 8094, 8159, 8145, 8158, 8175, 8166, 8179, 8115, 8152, 8303, 9725,3.3465073108673096,XXXXX
60, 8048, 8143, 8201, 8232, 8183, 8176, 8175, 8164, 8188, 8183, 8245, 8216, 8265, 9560,3.3543975353240967,XXXXX
61, 8247, 8183, 8139, 8101, 8164, 8154, 8160, 8169, 8169, 8184, 8132, 8165, 8292, 9693,3.3608782291412354,XXXXX
62, 8166, 8179, 8181, 8164, 8165, 8167, 8163, 8165, 8167, 8185, 8191, 8201, 8283, 9653,3.368802309036255,XXXXX
63, 8068, 8154, 8199, 8209, 8173, 8177, 8174, 8178, 8186, 8184, 8235, 8218, 8266, 9591,3.376580238342285,XXXXX
64, 8286, 8200, 8144, 8097, 8166, 8140, 8159, 8184, 8162, 8180, 8096, 8144, 8310, 9743,3.3845930099487305,XXXXX
65, 8053, 8154, 8210, 8245, 8182, 8178, 8172, 8166, 8186, 8190, 8239, 8210, 8268, 9575,3.39201021194458,XXXXX
66, 8241, 8181, 8154, 8130, 8164, 8158, 8164, 8170, 8177, 8182, 8134, 8156, 8289, 9698,3.4014124870300293,XXXXX
67, 8215, 8180, 8181, 8169, 8162, 8157, 8165, 8172, 8173, 8183, 8162, 8172, 8291, 9692,3.4091684818267822,XXXXX
68, 8065, 8147, 8205, 8239, 8171, 8181, 8171, 8176, 8195, 8191, 8226, 8200, 8265, 9598,3.4173266887664795,XXXXX
69, 8297, 8197, 8135, 8095, 8164, 8156, 8160, 8175, 8169, 8181, 8076, 8125, 8302, 9751,3.4231090545654297,XXXXX
70, 8079, 8155, 8198, 8226, 8181, 8183, 8179, 8161, 8188, 8190, 8224, 8203, 8263, 9583,3.431117296218872,XXXXX
71, 8234, 8177, 8161, 8142, 8171, 8165, 8169, 8175, 8180, 8188, 8142, 8165, 8288, 9673,3.440439224243164,XXXXX
72, 8252, 8185, 8180, 8166, 8171, 8168, 8161, 8174, 8170, 8182, 8138, 8162, 8300, 9697,3.4482343196868896,XXXXX
73, 8064, 8147, 8202, 8240, 8177, 8187, 8170, 8166, 8194, 8184, 8221, 8197, 8264, 9590,3.4560301303863525,XXXXX
74, 8310, 8199, 8126, 8078, 8164, 8150, 8155, 8172, 8166, 8182, 8066, 8119, 8303, 9740,3.463866710662842,XXXXX
75, 8112, 8158, 8198, 8222, 8175, 8187, 8171, 8166, 8186, 8192, 8214, 8195, 8272, 9582,3.4721338748931885,XXXXX
76, 8215, 8170, 8162, 8158, 8166, 8171, 8163, 8176, 8184, 8184, 8152, 8169, 8280, 9669,3.4799461364746094,XXXXX
77, 8267, 8193, 8153, 8133, 8169, 8160, 8154, 8168, 8166, 8176, 8106, 8151, 8296, 9718,3.4876484870910645,XXXXX
78, 8072, 8147, 8190, 8219, 8181, 8189, 8170, 8162, 8193, 8189, 8212, 8197, 8265, 9562,3.4940550327301025,XXXXX
79, 8330, 8188, 8119, 8063, 8162, 8148, 8159, 8173, 8167, 8184, 8076, 8132, 8302, 9718,3.503737688064575,XXXXX
80, 8127, 8161, 8185, 8208, 8173, 8177, 8172, 8162, 8176, 8185, 8212, 8207, 8267, 9602,3.5102083683013916,XXXXX
81, 8158, 8175, 8153, 8155, 8167, 8172, 8169, 8171, 8178, 8188, 8156, 8179, 8271, 9636,3.5197205543518066,XXXXX
82, 8228, 8198, 8135, 8092, 8162, 8145, 8156, 8168, 8160, 8185, 8102, 8154, 8298, 9656,3.5261499881744385,XXXXX
83, 8013, 8139, 8206, 8232, 8174, 8176, 8169, 8158, 8189, 8187, 8266, 8234, 8257, 9497,3.5342907905578613,XXXXX
84, 8285, 8187, 8151, 8111, 8163, 8153, 8159, 8173, 8165, 8179, 8109, 8151, 8294, 9709,3.542419195175171,XXXXX
85, 8132, 8171, 8192, 8212, 8176, 8176, 8169, 8166, 8172, 8187, 8177, 8182, 8279, 9607,3.5502655506134033,XXXXX
86, 8144, 8172, 8160, 8158, 8166, 8169, 8165, 8170, 8184, 8184, 8169, 8184, 8279, 9581,3.5579566955566406,XXXXX
87, 8247, 8199, 8146, 8092, 8153, 8147, 8154, 8174, 8166, 8180, 8127, 8166, 8300, 9658,3.5662167072296143,XXXXX
88, 7997, 8140, 8218, 8251, 8171, 8187, 8171, 8171, 8185, 8192, 8276, 8221, 8254, 9525,3.5746357440948486,XXXXX
89, 8283, 8186, 8136, 8104, 8168, 8159, 8157, 8173, 8166, 8184, 8093, 8129, 8294, 9712,3.5823187828063965,XXXXX
90, 8156, 8170, 8165, 8175, 8176, 8170, 8163, 8160, 8182, 8186, 8164, 8187, 8279, 9587,3.5897505283355713,XXXXX
91, 8082, 8154, 8167, 8173, 8167, 8171, 8163, 8167, 8187, 8190, 8214, 8213, 8268, 9544,3.5977931022644043,XXXXX
92, 8277, 8197, 8140, 8079, 8159, 8151, 8153, 8173, 8156, 8182, 8126, 8159, 8306, 9722,3.606027126312256,XXXXX
93, 8050, 8155, 8198, 8215, 8174, 8186, 8174, 8167, 8192, 8185, 8255, 8223, 8269, 9573,3.613983631134033,XXXXX
94, 8253, 8190, 8135, 8101, 8163, 8153, 8158, 8175, 8181, 8174, 8114, 8159, 8300, 9699,3.620267391204834,XXXXX
95, 8180, 8174, 8187, 8195, 8176, 8171, 8164, 8166, 8174, 8181, 8174, 8183, 8284, 9649,3.628133535385132,XXXXX
96, 8131, 8152, 8187, 8198, 8176, 8185, 8178, 8174, 8190, 8191, 8192, 8181, 8265, 9605,3.6364035606384277,XXXXX
97, 8334, 8197, 8129, 8069, 8161, 8149, 8163, 8179, 8164, 8182, 8063, 8123, 8313, 9730,3.6452550888061523,XXXXX
98, 8040, 8147, 8208, 8242, 8179, 8183, 8173, 8161, 8182, 8192, 8235, 8215, 8271, 9536,3.653310537338257,XXXXX
99, 8214, 8177, 8150, 8121, 8163, 8158, 8163, 8172, 8172, 8191, 8126, 8157, 8282, 9667,3.6612985134124756,XXXXX
100, 8214, 8180, 8159, 8135, 8167, 8161, 8167, 8172, 8171, 8185, 8142, 8173, 8284, 9651,3.669329881668091,XXXXX
101, 8106, 8154, 8174, 8178, 8176, 8184, 8175, 8168, 8191, 8184, 8205, 8214, 8270, 9560,3.677217721939087,XXXXX
102, 8317, 8195, 8127, 8073, 8160, 8150, 8161, 8171, 8168, 8181, 8088, 8149, 8302, 9714,3.685169219970703,XXXXX
103, 8068, 8145, 8201, 8231, 8172, 8175, 8173, 8169, 8187, 8192, 8242, 8213, 8258, 9561,3.6915247440338135,XXXXX
104, 8214, 8175, 8141, 8108, 8168, 8154, 8164, 8182, 8171, 8191, 8136, 8169, 8287, 9662,3.6995720863342285,XXXXX
105, 8214, 8185, 8147, 8115, 8171, 8158, 8168, 8171, 8165, 8192, 8147, 8185, 8294, 9648,3.707367181777954,XXXXX
106, 8062, 8148, 8183, 8205, 8172, 8181, 8175, 8162, 8193, 8193, 8249, 8228, 8258, 9537,3.7152903079986572,XXXXX
107, 8290, 8195, 8131, 8081, 8158, 8146, 8153, 8167, 8166, 8179, 8104, 8150, 8301, 9716,3.724705457687378,XXXXX
108, 8060, 8153, 8194, 8221, 8174, 8178, 8167, 8162, 8184, 8190, 8234, 8216, 8270, 9565,3.7311859130859375,XXXXX
109, 8180, 8168, 8148, 8130, 8162, 8161, 8162, 8177, 8178, 8191, 8165, 8186, 8285, 9630,3.7405881881713867,XXXXX
110, 8214, 8183, 8150, 8118, 8163, 8157, 8162, 8173, 8160, 8182, 8149, 8180, 8300, 9671,3.748420476913452,XXXXX
111, 8043, 8141, 8190, 8216, 8174, 8187, 8177, 8168, 8188, 8191, 8250, 8218, 8265, 9568,3.754852294921875,XXXXX
112, 8288, 8195, 8134, 8081, 8162, 8154, 8156, 8178, 8166, 8192, 8095, 8140, 8299, 9713,3.762722969055176,XXXXX
113, 8074, 8163, 8203, 8226, 8181, 8184, 8167, 8170, 8181, 8192, 8217, 8210, 8266, 9549,3.770536184310913,XXXXX
114, 8191, 8169, 8164, 8163, 8172, 8168, 8166, 8181, 8182, 8185, 8153, 8175, 8281, 9622,3.7784080505371094,XXXXX
115, 8287, 8192, 8151, 8118, 8164, 8149, 8155, 8182, 8166, 8185, 8104, 8148, 8305, 9683,3.7862250804901123,XXXXX
116, 8043, 8145, 8199, 8223, 8174, 8183, 8165, 8166, 8194, 8190, 8240, 8210, 8263, 9517,3.7953197956085205,XXXXX
117, 8264, 8186, 8127, 8073, 8159, 8153, 8152, 8165, 8170, 8179, 8111, 8146, 8302, 9682,3.803151845932007,XXXXX
118, 8081, 8159, 8193, 8200, 8171, 8172, 8166, 8163, 8176, 8188, 8236, 8222, 8280, 9568,3.811044931411743,XXXXX
119, 8136, 8166, 8178, 8175, 8170, 8170, 8165, 8175, 8178, 8190, 8191, 8203, 8280, 9607,3.8189234733581543,XXXXX
120, 8288, 8194, 8147, 8116, 8167, 8161, 8153, 8172, 8158, 8183, 8095, 8144, 8305, 9712,3.8251750469207764,XXXXX
121, 8055, 8140, 8194, 8230, 8178, 8191, 8168, 8164, 8187, 8191, 8226, 8203, 8263, 9542,3.833026647567749,XXXXX
122, 8278, 8191, 8130, 8078, 8158, 8149, 8160, 8175, 8168, 8185, 8098, 8149, 8297, 9673,3.8422181606292725,XXXXX
123, 8122, 8177, 8189, 8189, 8161, 8168, 8168, 8168, 8175, 8188, 8214, 8209, 8278, 9566,3.849936008453369,XXXXX
124, 8094, 8165, 8175, 8176, 8165, 8175, 8168, 8174, 8186, 8188, 8209, 8200, 8271, 9572,3.8579797744750977,XXXXX
125, 8247, 8195, 8136, 8088, 8169, 8153, 8164, 8168, 8165, 8180, 8097, 8147, 8302, 9700,3.866100549697876,XXXXX
126, 8017, 8142, 8208, 8244, 8178, 8189, 8179, 8160, 8190, 8188, 8245, 8217, 8263, 9542,3.874037981033325,XXXXX
127, 8265, 8187, 8146, 8118, 8160, 8155, 8158, 8180, 8169, 8183, 8106, 8144, 8301, 9700,3.880384683609009,XXXXX
238, 8172, 8180, 8179, 8189, 8175, 8170, 8166, 8174, 8171, 8188, 8159, 8172, 8291, 9637,3.8882791996002197,XXXXX
0, 8098, 8159, 8169, 8185, 8174, 8177, 8172, 8170, 8186, 8190, 8182, 8184, 8270, 9589,3.896127223968506,XXXXX
1, 8260, 8198, 8121, 8064, 8163, 8139, 8155, 8171, 8163, 8182, 8088, 8148, 8304, 9686,3.905834674835205,XXXXX
2, 8011, 8145, 8197, 8219, 8178, 8177, 8175, 8162, 8190, 8190, 8257, 8237, 8266, 9504,3.9121196269989014,XXXXX
3, 8249, 8180, 8150, 8123, 8166, 8162, 8167, 8169, 8173, 8182, 8119, 8159, 8296, 9681,3.9202260971069336,XXXXX
4, 8207, 8182, 8178, 8184, 8176, 8168, 8164, 8161, 8169, 8181, 8143, 8164, 8295, 9664,3.929574489593506,XXXXX
5, 8077, 8151, 8180, 8201, 8174, 8175, 8166, 8167, 8189, 8188, 8213, 8197, 8270, 9558,3.936152696609497,XXXXX
6, 8266, 8189, 8128, 8073, 8152, 8145, 8152, 8173, 8165, 8183, 8112, 8152, 8301, 9687,3.9449164867401123,XXXXX
7, 8026, 8150, 8208, 8234, 8173, 8182, 8171, 8170, 8186, 8186, 8259, 8230, 8265, 9541,3.951270818710327,XXXXX
8, 8218, 8187, 8152, 8126, 8175, 8161, 8164, 8187, 8176, 8182, 8125, 8164, 8297, 9670,3.9591264724731445,XXXXX
9, 8225, 8187, 8159, 8147, 8178, 8165, 8166, 8174, 8171, 8185, 8128, 8164, 8296, 9652,3.968961000442505,XXXXX
10, 8081, 8146, 8179, 8207, 8174, 8183, 8174, 8164, 8190, 8192, 8216, 8204, 8259, 9539,3.975277900695801,XXXXX
11, 8285, 8190, 8135, 8082, 8160, 8144, 8156, 8179, 8161, 8181, 8102, 8148, 8301, 9698,3.98327374458313,XXXXX
12, 8034, 8148, 8224, 8246, 8177, 8176, 8167, 8175, 8180, 8185, 8259, 8223, 8275, 9558,3.9911177158355713,XXXXX
13, 8173, 8175, 8168, 8153, 8169, 8162, 8160, 8177, 8174, 8184, 8155, 8170, 8297, 9665,4.000545501708984,XXXXX
14, 8204, 8186, 8159, 8147, 8171, 8158, 8164, 8167, 8164, 8182, 8129, 8164, 8301, 9677,4.008514881134033,XXXXX
15, 8042, 8144, 8206, 8236, 8177, 8185, 8176, 8164, 8190, 8186, 8230, 8205, 8261, 9551,4.015160322189331,XXXXX
16, 8312, 8193, 8151, 8097, 8162, 8156, 8155, 8179, 8160, 8185, 8079, 8123, 8305, 9728,4.022767543792725,XXXXX
17, 8094, 8154, 8194, 8225, 8174, 8182, 8173, 8171, 8181, 8198, 8210, 8197, 8275, 9569,4.030749320983887,XXXXX
18, 8156, 8168, 8138, 8132, 8164, 8159, 8170, 8170, 8188, 8190, 8159, 8179, 8281, 9601,4.039925575256348,XXXXX
19, 8216, 8188, 8150, 8105, 8162, 8153, 8155, 8165, 8167, 8183, 8135, 8173, 8293, 9634,4.048218488693237,XXXXX
20, 8034, 8140, 8200, 8224, 8174, 8186, 8165, 8163, 8189, 8194, 8251, 8229, 8257, 9518,4.0544703006744385,XXXXX
21, 8287, 8191, 8127, 8092, 8163, 8147, 8156, 8173, 8168, 8182, 8096, 8143, 8307, 9716,4.062738418579102,XXXXX
22, 8081, 8163, 8201, 8234, 8179, 8179, 8169, 8167, 8181, 8184, 8207, 8196, 8279, 9586,4.0707526206970215,XXXXX
23, 8140, 8163, 8170, 8173, 8172, 8179, 8166, 8177, 8181, 8186, 8149, 8174, 8272, 9620,4.0789878368377686,XXXXX
24, 8275, 8190, 8136, 8102, 8167, 8152, 8160, 8173, 8162, 8181, 8081, 8141, 8297, 9707,4.0857484340667725,XXXXX
25, 8035, 8143, 8197, 8234, 8181, 8187, 8176, 8164, 8190, 8189, 8235, 8210, 8263, 9534,4.094304323196411,XXXXX
26, 8279, 8188, 8139, 8092, 8164, 8161, 8162, 8173, 8172, 8185, 8106, 8149, 8296, 9694,4.1024041175842285,XXXXX
27, 8147, 8168, 8176, 8177, 8173, 8171, 8170, 8168, 8182, 8187, 8191, 8198, 8278, 9604,4.110325813293457,XXXXX
28, 8138, 8168, 8143, 8142, 8167, 8162, 8168, 8172, 8185, 8185, 8167, 8189, 8281, 9601,4.118000745773315,XXXXX
29, 8278, 8196, 8124, 8079, 8159, 8148, 8154, 8171, 8162, 8179, 8108, 8162, 8308, 9694,4.126088857650757,XXXXX
30, 8041, 8139, 8204, 8228, 8172, 8187, 8170, 8164, 8192, 8188, 8266, 8237, 8264, 9537,4.133946180343628,XXXXX
31, 8254, 8183, 8142, 8092, 8157, 8156, 8159, 8173, 8172, 8180, 8108, 8162, 8301, 9705,4.14188289642334,XXXXX
32, 8129, 8171, 8174, 8172, 8169, 8170, 8165, 8167, 8172, 8184, 8182, 8203, 8281, 9619,4.148299932479858,XXXXX
33, 8109, 8156, 8165, 8167, 8171, 8173, 8164, 8174, 8184, 8192, 8214, 8209, 8267, 9581,4.156677007675171,XXXXX
34, 8300, 8193, 8132, 8084, 8156, 8144, 8156, 8169, 8156, 8183, 8116, 8155, 8308, 9722,4.163968086242676,XXXXX
35, 8029, 8142, 8206, 8244, 8172, 8181, 8176, 8158, 8180, 8184, 8262, 8227, 8268, 9564,4.17325758934021,XXXXX
36, 8212, 8185, 8145, 8103, 8164, 8154, 8153, 8177, 8169, 8179, 8127, 8163, 8297, 9701,4.180891036987305,XXXXX
37, 8141, 8179, 8175, 8158, 8167, 8162, 8155, 8170, 8174, 8185, 8181, 8198, 8289, 9630,4.188704490661621,XXXXX
38, 8092, 8153, 8180, 8197, 8165, 8174, 8170, 8167, 8192, 8188, 8228, 8221, 8269, 9570,4.196620941162109,XXXXX
39, 8306, 8195, 8140, 8099, 8164, 8143, 8156, 8173, 8163, 8178, 8110, 8156, 8306, 9737,4.204458951950073,XXXXX
40, 8035, 8149, 8216, 8251, 8182, 8180, 8168, 8166, 8183, 8186, 8260, 8224, 8265, 9580,4.212215185165405,XXXXX
41, 8207, 8184, 8148, 8121, 8161, 8155, 8162, 8175, 8172, 8185, 8135, 8166, 8290, 9690,4.21997857093811,XXXXX
42, 8179, 8184, 8170, 8164, 8165, 8157, 8170, 8167, 8169, 8186, 8169, 8192, 8290, 9660,4.227925062179565,XXXXX
43, 8068, 8151, 8195, 8221, 8172, 8177, 8174, 8165, 8189, 8186, 8247, 8224, 8264, 9581,4.236060380935669,XXXXX
44, 8285, 8199, 8129, 8079, 8160, 8147, 8155, 8173, 8167, 8182, 8093, 8143, 8307, 9720,0.003040313720703125,XXXXX
45, 8028, 8156, 8201, 8236, 8179, 8180, 8173, 8166, 8191, 8196, 8231, 8206, 8273, 9541,0.01104283332824707,yellow
46, 8212, 8178, 8163, 8148, 8168, 8164, 8168, 8170, 8178, 8185, 8140, 8160, 8291, 9669,0.018916606903076172,yellow
47, 8262, 8188, 8169, 8144, 8165, 8165, 8163, 8164, 8164, 8177, 8130, 8167, 8297, 9704,0.026833295822143555,yellow
48, 8088, 8150, 8197, 8226, 8170, 8184, 8171, 8171, 8188, 8191, 8215, 8203, 8271, 9586,0.03485107421875,yellow
49, 8302, 8194, 8140, 8106, 8164, 8147, 8161, 8180, 8164, 8190, 8073, 8121, 8312, 9744,0.042995452880859375,yellow
50, 8100, 8156, 8196, 8222, 8183, 8182, 8180, 8165, 8183, 8196, 8205, 8190, 8272, 9606,0.04940938949584961,yellow
51, 8221, 8177, 8146, 8118, 8167, 8165, 8169, 8172, 8181, 8191, 8132, 8162, 8289, 9655,0.05743765830993652,yellow
52, 8226, 8187, 8155, 8126, 8162, 8154, 8155, 8168, 8166, 8183, 8125, 8160, 8305, 9644,0.06629800796508789,yellow
53, 8025, 8139, 8203, 8236, 8173, 8183, 8164, 8163, 8195, 8187, 8244, 8220, 8263, 9521,0.0742194652557373,yellow
54, 8287, 8194, 8140, 8083, 8164, 8145, 8153, 8175, 8173, 8179, 8096, 8148, 8302, 9715,0.08220958709716797,yellow
55, 8081, 8164, 8206, 8222, 8184, 8173, 8171, 8169, 8182, 8186, 8218, 8206, 8275, 9580,0.09036135673522949,yellow
56, 8171, 8167, 8161, 8162, 8173, 8169, 8167, 8175, 8180, 8187, 8149, 8171, 8281, 9627,0.09821915626525879,yellow
57, 8279, 8187, 8139, 8109, 8161, 8152, 8155, 8169, 8168, 8184, 8087, 8142, 8303, 9679,0.10448956489562988,yellow
58, 8043, 8132, 8197, 8224, 8173, 8181, 8177, 8161, 8197, 8190, 8235, 8214, 8264, 9512,0.1123499870300293,yellow
59, 8267, 8181, 8137, 8083, 8160, 8148, 8165, 8177, 8169, 8180, 8116, 8155, 8298, 9686,0.12030673027038574,yellow
60, 8104, 8166, 8201, 8214, 8169, 8175, 8166, 8168, 8176, 8187, 8216, 8206, 8279, 9591,0.12989282608032227,yellow
61, 8144, 8165, 8168, 8179, 8169, 8179, 8164, 8167, 8186, 8190, 8156, 8176, 8281, 9612,0.13788628578186035,yellow
62, 8265, 8193, 8130, 8097, 8168, 8154, 8159, 8169, 8167, 8181, 8093, 8142, 8300, 9676,0.1443490982055664,yellow
63, 8021, 8144, 8194, 8224, 8176, 8177, 8169, 8168, 8189, 8185, 8268, 8226, 8260, 9503,0.15232539176940918,yellow
64, 8260, 8185, 8142, 8091, 8163, 8143, 8150, 8178, 8165, 8181, 8112, 8155, 8302, 9694,0.16164112091064453,yellow
65, 8111, 8165, 8203, 8206, 8173, 8169, 8165, 8168, 8171, 8189, 8186, 8193, 8282, 9620,0.16809868812561035,yellow
66, 8087, 8160, 8184, 8195, 8168, 8177, 8173, 8173, 8179, 8190, 8195, 8186, 8273, 9599,0.17537283897399902,yellow
67, 8283, 8196, 8127, 8082, 8167, 8155, 8157, 8175, 8160, 8183, 8081, 8133, 8305, 9703,0.18471789360046387,yellow
68, 8042, 8143, 8190, 8216, 8178, 8187, 8169, 8160, 8192, 8190, 8228, 8209, 8257, 9515,0.19252443313598633,yellow
69, 8249, 8186, 8147, 8109, 8152, 8155, 8159, 8168, 8171, 8186, 8131, 8158, 8288, 9676,0.20054960250854492,yellow
70, 8167, 8169, 8180, 8191, 8162, 8168, 8167, 8166, 8171, 8188, 8201, 8200, 8284, 9650,0.20811223983764648,yellow
71, 8103, 8143, 8167, 8179, 8170, 8173, 8167, 8173, 8187, 8189, 8209, 8203, 8275, 9604,0.2159252166748047,yellow
72, 8270, 8193, 8138, 8079, 8159, 8142, 8147, 8176, 8160, 8184, 8104, 8147, 8310, 9705,0.22360491752624512,yellow
73, 8012, 8148, 8219, 8255, 8177, 8183, 8167, 8164, 8184, 8194, 8261, 8231, 8265, 9518,0.2313246726989746,yellow
74, 8250, 8178, 8148, 8125, 8169, 8157, 8160, 8175, 8176, 8187, 8111, 8154, 8291, 9682,0.23913168907165527,yellow
75, 8232, 8177, 8173, 8163, 8174, 8165, 8161, 8176, 8176, 8183, 8140, 8157, 8293, 9691,0.2470259666442871,yellow
76, 8116, 8154, 8185, 8207, 8175, 8181, 8166, 8178, 8189, 8188, 8202, 8190, 8270, 9605,0.2547624111175537,yellow
77, 8320, 8197, 8123, 8081, 8160, 8146, 8154, 8172, 8159, 8182, 8075, 8138, 8299, 9705,0.2625434398651123,yellow
78, 8065, 8146, 8196, 8228, 8173, 8182, 8174, 8159, 8189, 8187, 8236, 8214, 8257, 9534,0.2703578472137451,yellow
79, 8204, 8177, 8137, 8107, 8163, 8160, 8164, 8176, 8182, 8186, 8129, 8167, 8284, 9659,0.27846622467041016,yellow
80, 8169, 8189, 8143, 8119, 8171, 8160, 8162, 8170, 8171, 8189, 8136, 8183, 8291, 9619,0.28639721870422363,yellow
81, 8044, 8147, 8188, 8209, 8178, 8185, 8169, 8169, 8190, 8192, 8235, 8215, 8266, 9515,0.29436182975769043,yellow
82, 8307, 8188, 8149, 8108, 8163, 8153, 8152, 8180, 8160, 8180, 8097, 8136, 8312, 9727,0.3021819591522217,yellow
83, 8064, 8149, 8209, 8253, 8175, 8182, 8170, 8166, 8183, 8187, 8223, 8204, 8273, 9575,0.3099205493927002,yellow
84, 8171, 8174, 8145, 8135, 8166, 8161, 8161, 8170, 8184, 8185, 8144, 8165, 8285, 9623,0.31769490242004395,yellow
85, 8211, 8186, 8148, 8117, 8170, 8153, 8152, 8168, 8170, 8187, 8144, 8173, 8298, 9642,0.3255429267883301,yellow
86, 8051, 8148, 8194, 8218, 8176, 8178, 8168, 8168, 8191, 8195, 8245, 8234, 8264, 9538,0.3333771228790283,yellow
87, 8286, 8199, 8139, 8090, 8159, 8147, 8160, 8174, 8164, 8183, 8092, 8144, 8305, 9715,0.3416109085083008,yellow
88, 8057, 8155, 8205, 8232, 8177, 8180, 8170, 8165, 8178, 8187, 8213, 8192, 8275, 9573,0.3492898941040039,yellow
89, 8165, 8163, 8166, 8156, 8169, 8165, 8162, 8178, 8180, 8189, 8155, 8179, 8278, 9620,0.35710620880126953,yellow
90, 8287, 8192, 8149, 8106, 8158, 8149, 8161, 8170, 8167, 8190, 8122, 8173, 8297, 9674,0.3648359775543213,yellow
91, 8081, 8145, 8185, 8203, 8168, 8179, 8179, 8158, 8192, 8195, 8235, 8215, 8267, 9552,0.3726003170013428,yellow
92, 8272, 8186, 8117, 8064, 8161, 8147, 8162, 8177, 8165, 8182, 8080, 8136, 8303, 9715,0.38060426712036133,yellow
93, 8061, 8160, 8185, 8205, 8176, 8172, 8166, 8177, 8175, 8184, 8205, 8202, 8272, 9565,0.38864898681640625,yellow
94, 8155, 8164, 8170, 8172, 8169, 8170, 8163, 8177, 8180, 8188, 8174, 8182, 8279, 9603,0.39644813537597656,yellow
95, 8326, 8192, 8150, 8116, 8165, 8157, 8161, 8170, 8162, 8187, 8109, 8153, 8304, 9718,0.4042680263519287,yellow
96, 8080, 8148, 8194, 8229, 8178, 8185, 8175, 8165, 8186, 8191, 8233, 8214, 8261, 9571,0.4136784076690674,yellow
97, 8260, 8191, 8117, 8074, 8160, 8146, 8157, 8178, 8166, 8186, 8071, 8128, 8300, 9701,0.42168545722961426,yellow
98, 8094, 8163, 8176, 8184, 8169, 8167, 8169, 8169, 8179, 8191, 8191, 8195, 8275, 9559,0.4281017780303955,yellow
99, 8129, 8159, 8175, 8178, 8165, 8175, 8166, 8170, 8183, 8187, 8213, 8210, 8268, 9573,0.43616199493408203,yellow
100, 8288, 8189, 8154, 8119, 8162, 8157, 8150, 8170, 8154, 8186, 8109, 8155, 8306, 9719,0.44393062591552734,yellow
101, 8036, 8140, 8206, 8252, 8177, 8189, 8173, 8163, 8188, 8200, 8224, 8203, 8262, 9552,0.45186305046081543,yellow
102, 8255, 8198, 8117, 8080, 8163, 8154, 8160, 8170, 8175, 8184, 8086, 8135, 8292, 9675,0.45973896980285645,yellow
103, 8124, 8179, 8170, 8169, 8174, 8171, 8161, 8162, 8173, 8180, 8195, 8199, 8281, 9577,0.46770548820495605,yellow
104, 8092, 8153, 8191, 8202, 8175, 8179, 8167, 8174, 8183, 8188, 8222, 8210, 8272, 9570,0.47557616233825684,yellow
105, 8309, 8197, 8150, 8109, 8167, 8150, 8156, 8180, 8161, 8181, 8079, 8130, 8308, 9730,0.48352646827697754,yellow
106, 8059, 8147, 8200, 8239, 8182, 8184, 8171, 8165, 8188, 8188, 8212, 8198, 8266, 9550,0.4913599491119385,yellow
107, 8232, 8182, 8130, 8094, 8164, 8153, 8161, 8172, 8170, 8182, 8110, 8161, 8292, 9662,0.4994628429412842,yellow
108, 8134, 8175, 8185, 8172, 8166, 8164, 8166, 8176, 8170, 8182, 8197, 8207, 8285, 9601,0.5077683925628662,yellow
109, 8046, 8145, 8206, 8223, 8166, 8181, 8168, 8184, 8189, 8187, 8245, 8217, 8266, 9556,0.5158038139343262,yellow
110, 8275, 8195, 8141, 8088, 8161, 8149, 8152, 8176, 8165, 8182, 8089, 8138, 8303, 9735,0.5236706733703613,yellow
111, 8032, 8157, 8200, 8229, 8182, 8181, 8173, 8161, 8187, 8187, 8225, 8209, 8263, 9563,0.5317864418029785,yellow
112, 8237, 8181, 8144, 8129, 8165, 8161, 8167, 8183, 8173, 8180, 8125, 8159, 8291, 9668,0.5397398471832275,yellow
113, 8252, 8175, 8163, 8158, 8163, 8171, 8166, 8180, 8172, 8184, 8153, 8180, 8294, 9665,0.5477430820465088,yellow
114, 8099, 8149, 8180, 8198, 8172, 8188, 8172, 8173, 8197, 8193, 8205, 8203, 8267, 9585,0.5557470321655273,yellow
115, 8290, 8202, 8123, 8068, 8161, 8146, 8158, 8178, 8166, 8187, 8056, 8120, 8308, 9728,0.5637376308441162,yellow
116, 8057, 8154, 8188, 8216, 8178, 8177, 8170, 8167, 8182, 8193, 8222, 8205, 8270, 9535,0.570091962814331,yellow
117, 8213, 8172, 8135, 8112, 8164, 8163, 8159, 8170, 8181, 8185, 8155, 8183, 8282, 9620,0.578148365020752,yellow
118, 8235, 8183, 8149, 8124, 8158, 8158, 8159, 8166, 8171, 8179, 8147, 8180, 8290, 9664,0.5860476493835449,yellow
119, 8052, 8148, 8190, 8213, 8170, 8175, 8172, 8170, 8187, 8188, 8224, 8210, 8260, 9562,0.5940461158752441,yellow
120, 8266, 8196, 8130, 8070, 8160, 8143, 8158, 8177, 8164, 8182, 8088, 8143, 8301, 9703,0.601931095123291,yellow
121, 8060, 8159, 8190, 8198, 8165, 8177, 8174, 8165, 8186, 8183, 8232, 8215, 8273, 9555,0.6100113391876221,yellow
122, 8188, 8177, 8150, 8122, 8158, 8162, 8163, 8172, 8180, 8181, 8156, 8174, 8288, 9640,0.6178767681121826,yellow
123, 8210, 8189, 8161, 8136, 8173, 8155, 8154, 8170, 8167, 8186, 8138, 8170, 8296, 9663,0.6258525848388672,yellow
124, 7995, 8139, 8211, 8253, 8179, 8186, 8172, 8172, 8194, 8193, 8253, 8220, 8262, 9532,0.6322977542877197,yellow
125, 8278, 8192, 8138, 8091, 8160, 8153, 8161, 8181, 8166, 8178, 8083, 8132, 8306, 9737,0.6403725147247314,yellow
126, 8100, 8158, 8200, 8215, 8183, 8181, 8171, 8168, 8179, 8184, 8205, 8197, 8275, 9608,0.6494505405426025,yellow
127, 8155, 8163, 8170, 8168, 8174, 8168, 8167, 8180, 8183, 8190, 8166, 8173, 8281, 9649,0.657402753829956,yellow
238, 8244, 8199, 8149, 8122, 8164, 8152, 8162, 8182, 8163, 8184, 8095, 8141, 8301, 9718,0.6654222011566162,yellow
0, 8035, 8152, 8204, 8235, 8179, 8190, 8177, 8165, 8191, 8189, 8221, 8204, 8262, 9539,0.6735146045684814,yellow
1, 8316, 8189, 8136, 8084, 8164, 8159, 8164, 8171, 8169, 8183, 8087, 8138, 8308, 9705,0.681544303894043,yellow
2, 8158, 8164, 8182, 8194, 8169, 8177, 8172, 8168, 8180, 8187, 8192, 8191, 8281, 9617,0.6878650188446045,yellow
3, 8138, 8167, 8161, 8168, 8168, 8169, 8168, 8172, 8189, 8190, 8160, 8179, 8271, 9620,0.695629358291626,yellow
4, 8268, 8196, 8137, 8096, 8163, 8148, 8153, 8169, 8165, 8186, 8080, 8149, 8307, 9694,0.7034633159637451,yellow
5, 8051, 8142, 8183, 8212, 8168, 8187, 8171, 8165, 8191, 8190, 8233, 8223, 8266, 9528,0.7112996578216553,yellow
6, 8284, 8186, 8114, 8071, 8158, 8155, 8165, 8183, 8168, 8185, 8106, 8157, 8294, 9691,0.7207410335540771,yellow
7, 8137, 8171, 8181, 8185, 8176, 8167, 8169, 8180, 8170, 8191, 8205, 8208, 8285, 9605,0.7285363674163818,yellow
8, 8094, 8160, 8177, 8182, 8169, 8171, 8165, 8176, 8185, 8185, 8207, 8212, 8276, 9594,0.7364232540130615,yellow
9, 8258, 8194, 8134, 8081, 8154, 8150, 8157, 8171, 8164, 8175, 8095, 8156, 8302, 9714,0.7441892623901367,yellow
10, 8025, 8143, 8204, 8225, 8175, 8181, 8176, 8168, 8187, 8190, 8259, 8231, 8263, 9532,0.7519965171813965,yellow
11, 8249, 8187, 8146, 8100, 8169, 8148, 8160, 8181, 8172, 8188, 8135, 8170, 8297, 9691,0.7582745552062988,yellow
12, 8153, 8179, 8185, 8180, 8172, 8164, 8167, 8164, 8178, 8188, 8183, 8194, 8286, 9658,0.7677905559539795,yellow
13, 8104, 8154, 8185, 8204, 8169, 8177, 8174, 8165, 8189, 8188, 8206, 8201, 8269, 9608,0.7757353782653809,yellow
14, 8306, 8198, 8140, 8102, 8161, 8151, 8156, 8184, 8160, 8181, 8086, 8139, 8304, 9723,0.7837042808532715,yellow
15, 8021, 8152, 8214, 8257, 8175, 8189, 8172, 8180, 8195, 8192, 8241, 8213, 8261, 9539,0.7915604114532471,yellow
16, 8223, 8184, 8147, 8119, 8159, 8158, 8163, 8176, 8188, 8186, 8123, 8163, 8289, 9666,0.7995235919952393,yellow
17, 8224, 8178, 8152, 8140, 8169, 8163, 8164, 8164, 8175, 8182, 8149, 8191, 8288, 9643,0.8075315952301025,yellow
18, 8117, 8146, 8167, 8183, 8177, 8184, 8169, 8172, 8186, 8188, 8207, 8211, 8265, 9573,0.8152985572814941,yellow
19, 8282, 8191, 8139, 8088, 8161, 8150, 8153, 8176, 8162, 8188, 8095, 8145, 8307, 9709,0.8215878009796143,yellow
20, 8015, 8148, 8214, 8256, 8175, 8182, 8172, 8161, 8187, 8197, 8250, 8219, 8268, 9547,0.8295283317565918,yellow
21, 8211, 8182, 8137, 8126, 8163, 8164, 8167, 8172, 8177, 8188, 8124, 8157, 8286, 9662,0.83736252784729,yellow
22, 8215, 8184, 8145, 8125, 8163, 8162, 8165, 8166, 8172, 8186, 8138, 8176, 8290, 9623,0.8454487323760986,yellow
23, 8052, 8143, 8189, 8210, 8172, 8178, 8175, 8165, 8193, 8193, 8249, 8230, 8258, 9515,0.8533403873443604,yellow
24, 8294, 8199, 8142, 8094, 8165, 8146, 8159, 8174, 8161, 8183, 8097, 8141, 8301, 9719,0.8613381385803223,yellow
25, 8065, 8155, 8206, 8237, 8179, 8182, 8171, 8166, 8184, 8190, 8211, 8200, 8268, 9573,0.8692810535430908,yellow
26, 8189, 8168, 8145, 8131, 8164, 8161, 8164, 8177, 8181, 8194, 8131, 8176, 8285, 9633,0.8788547515869141,yellow
27, 8219, 8187, 8147, 8121, 8161, 8150, 8161, 8174, 8165, 8190, 8145, 8184, 8298, 9635,0.8867785930633545,yellow
28, 8012, 8147, 8208, 8235, 8171, 8179, 8174, 8172, 8189, 8191, 8264, 8232, 8261, 9511,0.8932337760925293,yellow
29, 8266, 8196, 8149, 8104, 8162, 8148, 8160, 8182, 8162, 8183, 8096, 8146, 8301, 9733,0.9011588096618652,yellow
30, 8098, 8165, 8200, 8231, 8177, 8180, 8170, 8170, 8176, 8188, 8214, 8198, 8273, 9631,0.9092097282409668,yellow
31, 8191, 8170, 8162, 8154, 8168, 8171, 8163, 8177, 8175, 8185, 8159, 8166, 8284, 9665,0.9167053699493408,yellow
32, 8262, 8190, 8163, 8123, 8170, 8159, 8158, 8174, 8158, 8184, 8112, 8149, 8304, 9704,0.9247958660125732,yellow
33, 8047, 8150, 8206, 8242, 8176, 8188, 8175, 8167, 8185, 8194, 8226, 8208, 8265, 9561,0.9322879314422607,yellow
34, 8280, 8192, 8122, 8082, 8155, 8147, 8156, 8178, 8168, 8184, 8081, 8141, 8299, 9698,0.9417986869812012,yellow
35, 8091, 8159, 8182, 8187, 8174, 8172, 8165, 8170, 8186, 8187, 8212, 8212, 8272, 9540,0.9497342109680176,yellow
36, 8136, 8169, 8159, 8145, 8172, 8173, 8168, 8175, 8186, 8190, 8186, 8194, 8278, 9584,0.9562206268310547,yellow
37, 8246, 8200, 8138, 8104, 8163, 8150, 8162, 8178, 8160, 8183, 8114, 8154, 8301, 9692,0.9640562534332275,yellow
38, 7988, 8144, 8212, 8262, 8177, 8180, 8174, 8170, 8186, 8187, 8255, 8219, 8258, 9528,0.9720478057861328,yellow
39, 8247, 8190, 8151, 8112, 8164, 8148, 8158, 8179, 8169, 8181, 8100, 8140, 8300, 9721,0.979860782623291,yellow
40, 8140, 8173, 8181, 8184, 8174, 8166, 8170, 8174, 8174, 8189, 8171, 8181, 8278, 9651,0.9878554344177246,yellow
41, 8146, 8158, 8166, 8178, 8175, 8168, 8173, 8175, 8180, 8192, 8169, 8180, 8268, 9622,0.9956414699554443,yellow
42, 8319, 8190, 8152, 8121, 8168, 8153, 8161, 8169, 8165, 8189, 8094, 8141, 8308, 9717,1.0036499500274658,yellow
43, 8071, 8148, 8203, 8241, 8178, 8187, 8176, 8169, 8199, 8197, 8234, 8212, 8268, 9557,1.0114760398864746,yellow
44, 8275, 8190, 8117, 8072, 8162, 8153, 8161, 8182, 8176, 8187, 8084, 8141, 8294, 9701,1.0195350646972656,yellow
45, 8162, 8172, 8165, 8156, 8167, 8171, 8166, 8164, 8174, 8188, 8165, 8186, 8282, 9609,1.0272836685180664,yellow
46, 8100, 8153, 8174, 8179, 8163, 8176, 8169, 8164, 8189, 8191, 8206, 8210, 8268, 9567,1.0353941917419434,yellow
47, 8291, 8193, 8129, 8078, 8152, 8142, 8159, 8172, 8164, 8181, 8096, 8156, 8299, 9708,1.0429835319519043,red
48, 8051, 8147, 8191, 8219, 8168, 8179, 8177, 8164, 8189, 8189, 8249, 8222, 8257, 9536,1.0509939193725586,red
49, 8232, 8189, 8128, 8085, 8155, 8156, 8163, 8171, 8172, 8187, 8135, 8166, 8290, 9667,1.0588266849517822,red
50, 8153, 8181, 8161, 8145, 8163, 8163, 8164, 8167, 8170, 8187, 8179, 8200, 8290, 9631,1.066866397857666,red
51, 8081, 8149, 8176, 8190, 8169, 8172, 8172, 8173, 8189, 8189, 8223, 8212, 8269, 9576,1.0746245384216309,red
52, 8289, 8195, 8136, 8094, 8161, 8142, 8157, 8175, 8165, 8182, 8102, 8145, 8302, 9716,1.0824353694915771,red
53, 8034, 8149, 8219, 8259, 8181, 8182, 8174, 8162, 8189, 8189, 8253, 8222, 8261, 9546,1.090350866317749,red
54, 8238, 8181, 8149, 8125, 8167, 8163, 8169, 8177, 8176, 8186, 8116, 8149, 8289, 9685,1.098336935043335,red
55, 8219, 8187, 8156, 8147, 8167, 8166, 8165, 8177, 8167, 8186, 8112, 8151, 8295, 9675,1.1061668395996094,red
56, 8059, 8147, 8195, 8227, 8175, 8185, 8171, 8172, 8187, 8190, 8213, 8207, 8261, 9553,1.1139631271362305,red
57, 8303, 8190, 8133, 8083, 8159, 8150, 8159, 8173, 8162, 8185, 8103, 8155, 8291, 9695,1.1217987537384033,red
58, 8097, 8155, 8180, 8194, 8165, 8179, 8174, 8166, 8184, 8195, 8231, 8213, 8258, 9553,1.1296443939208984,red
59, 8201, 8183, 8136, 8097, 8153, 8159, 8163, 8179, 8174, 8193, 8131, 8165, 8292, 9648,1.1374444961547852,red
60, 8165, 8187, 8158, 8128, 8158, 8161, 8160, 8165, 8163, 8189, 8153, 8185, 8301, 9633,1.1469666957855225,red
61, 8021, 8144, 8197, 8232, 8170, 8186, 8170, 8162, 8188, 8189, 8257, 8231, 8258, 9527,1.1532244682312012,red
62, 8301, 8194, 8146, 8103, 8163, 8146, 8157, 8186, 8162, 8183, 8093, 8138, 8297, 9724,1.1610987186431885,red
63, 8067, 8154, 8216, 8241, 8176, 8177, 8172, 8178, 8181, 8196, 8219, 8200, 8268, 9582,1.1687960624694824,red
64, 8162, 8169, 8157, 8152, 8161, 8167, 8165, 8168, 8186, 8190, 8142, 8172, 8280, 9630,1.176616907119751,red
65, 8234, 8191, 8142, 8112, 8162, 8157, 8162, 8160, 8172, 8184, 8115, 8168, 8295, 9640,1.1843292713165283,red
66, 8035, 8142, 8195, 8209, 8175, 8186, 8177, 8164, 8188, 8197, 8254, 8231, 8261, 9502,1.193648338317871,red
67, 8298, 8189, 8143, 8082, 8160, 8153, 8155, 8178, 8162, 8186, 8095, 8144, 8304, 9716,1.2015106678009033,red
68, 8113, 8160, 8203, 8228, 8178, 8185, 8166, 8165, 8184, 8185, 8195, 8191, 8277, 9596,1.2092781066894531,red
69, 8145, 8168, 8154, 8151, 8168, 8174, 8168, 8169, 8190, 8189, 8169, 8179, 8277, 9592,1.2169723510742188,red
70, 8225, 8193, 8144, 8088, 8160, 8146, 8156, 8174, 8165, 8185, 8139, 8167, 8298, 9653,1.2233445644378662,red
71, 8023, 8142, 8218, 8241, 8177, 8181, 8169, 8170, 8187, 8189, 8262, 8227, 8262, 9533,1.2325553894042969,red
72, 8300, 8191, 8139, 8101, 8163, 8153, 8155, 8173, 8164, 8184, 8089, 8135, 8300, 9710,1.2403576374053955,red
73, 8136, 8170, 8175, 8183, 8169, 8167, 8162, 8162, 8175, 8188, 8191, 8192, 8276, 9573,1.2480814456939697,red
74, 8116, 8162, 8165, 8157, 8166, 8164, 8167, 8170, 8183, 8187, 8192, 8202, 8271, 9572,1.2558608055114746,red
75, 8247, 8190, 8151, 8110, 8159, 8155, 8160, 8174, 8159, 8183, 8118, 8159, 8298, 9693,1.2635498046875,red
76, 8021, 8142, 8210, 8245, 8169, 8193, 8170, 8167, 8189, 8193, 8248, 8212, 8257, 9535,1.271489143371582,red
77, 8268, 8189, 8130, 8087, 8162, 8155, 8156, 8175, 8173, 8186, 8086, 8137, 8294, 9692,1.2795186042785645,red
78, 8163, 8176, 8167, 8174, 8176, 8172, 8170, 8165, 8172, 8187, 8169, 8184, 8279, 9611,1.2874853610992432,red
79, 8127, 8158, 8164, 8176, 8169, 8178, 8171, 8168, 8183, 8183, 8199, 8195, 8271, 9580,1.2954161167144775,red
80, 8270, 8187, 8147, 8103, 8165, 8150, 8156, 8172, 8164, 8177, 8108, 8155, 8303, 9703,1.303337812423706,red
81, 8018, 8142, 8225, 8261, 8181, 8183, 8175, 8171, 8190, 8191, 8253, 8221, 8257, 9552,1.3113369941711426,red
82, 8259, 8192, 8136, 8101, 8165, 8158, 8161, 8182, 8175, 8185, 8099, 8146, 8290, 9683,1.3194317817687988,red
83, 8172, 8180, 8150, 8146, 8174, 8171, 8165, 8166, 8181, 8184, 8156, 8187, 8285, 9588,1.327319860458374,red
84, 8084, 8152, 8174, 8182, 8172, 8175, 8172, 8169, 8193, 8188, 8221, 8209, 8265, 9543,1.3354032039642334,red
85, 8296, 8199, 8145, 8094, 8157, 8145, 8155, 8177, 8159, 8180, 8105, 8143, 8305, 9724,1.343336582183838,red
86, 8034, 8151, 8207, 8259, 8177, 8189, 8170, 8167, 8187, 8188, 8236, 8209, 8267, 9567,1.349860429763794,red
87, 8215, 8183, 8139, 8124, 8170, 8163, 8165, 8176, 8180, 8189, 8106, 8146, 8288, 9678,1.3579204082489014,red
88, 8193, 8181, 8164, 8143, 8171, 8160, 8164, 8168, 8170, 8190, 8152, 8174, 8284, 9624,1.3659145832061768,red
89, 8072, 8146, 8182, 8200, 8168, 8180, 8169, 8166, 8187, 8189, 8238, 8217, 8263, 9539,1.3738443851470947,red
90, 8292, 8196, 8133, 8097, 8155, 8152, 8160, 8169, 8167, 8174, 8098, 8145, 8303, 9723,1.381864070892334,red
91, 8056, 8157, 8207, 8248, 8177, 8182, 8179, 8160, 8188, 8184, 8221, 8207, 8265, 9562,1.389683485031128,red
92, 8212, 8179, 8146, 8118, 8169, 8160, 8165, 8174, 8176, 8189, 8112, 8157, 8287, 9644,1.3978478908538818,red
93, 8227, 8183, 8148, 8117, 8165, 8159, 8157, 8171, 8169, 8185, 8124, 8164, 8292, 9656,1.4053573608398438,red
94, 8065, 8148, 8180, 8202, 8171, 8181, 8170, 8165, 8192, 8185, 8223, 8212, 8260, 9549,1.4134411811828613,red
95, 8266, 8193, 8124, 8078, 8161, 8145, 8156, 8172, 8161, 8185, 8095, 8151, 8303, 9689,1.421417236328125,red
96, 8035, 8149, 8191, 8218, 8173, 8176, 8164, 8169, 8177, 8196, 8243, 8221, 8268, 9537,1.4295086860656738,red
97, 8184, 8167, 8161, 8147, 8165, 8167, 8158, 8178, 8177, 8187, 8161, 8175, 8286, 9636,1.4369628429412842,red
98, 8242, 8184, 8178, 8159, 8173, 8168, 8161, 8171, 8169, 8186, 8130, 8157, 8305, 9683,1.4449453353881836,red
99, 8035, 8144, 8204, 8242, 8182, 8190, 8174, 8164, 8194, 8194, 8232, 8202, 8266, 9555,1.4527559280395508,red
100, 8274, 8197, 8117, 8069, 8163, 8142, 8156, 8170, 8167, 8181, 8076, 8136, 8303, 9699,1.4606409072875977,red
101, 8090, 8160, 8187, 8198, 8177, 8171, 8169, 8162, 8185, 8185, 8209, 8214, 8272, 9533,1.4683890342712402,red
102, 8169, 8163, 8167, 8146, 8166, 8169, 8164, 8172, 8186, 8186, 8177, 8189, 8279, 9590,1.4764909744262695,red
103, 8225, 8187, 8151, 8116, 8159, 8152, 8156, 8169, 8164, 8185, 8133, 8160, 8301, 9674,1.4840950965881348,red
104, 8002, 8141, 8199, 8241, 8171, 8179, 8172, 8165, 8187, 8195, 8248, 8214, 8262, 9533,1.4919793605804443,red
105, 8274, 8191, 8141, 8099, 8162, 8149, 8152, 8178, 8165, 8188, 8095, 8142, 8302, 9711,1.4998090267181396,red
106, 8118, 8168, 8198, 8210, 8181, 8180, 8163, 8166, 8179, 8190, 8201, 8201, 8279, 9603,1.5084140300750732,red
107, 8154, 8168, 8159, 8163, 8177, 8178, 8170, 8169, 8186, 8186, 8163, 8178, 8282, 9626,1.5161757469177246,red
108, 8291, 8199, 8126, 8098, 8168, 8155, 8164, 8169, 8165, 8181, 8083, 8135, 8308, 9707,1.5239958763122559,red
109, 8051, 8150, 8190, 8229, 8178, 8184, 8178, 8162, 8190, 8194, 8223, 8213, 8264, 9527,1.531874179840088,red
110, 8262, 8192, 8132, 8086, 8157, 8151, 8162, 8175, 8170, 8190, 8094, 8157, 8301, 9677,1.5398766994476318,red
111, 8110, 8169, 8189, 8192, 8162, 8173, 8167, 8171, 8179, 8190, 8206, 8207, 8285, 9583,1.547325849533081,red
112, 8095, 8160, 8175, 8179, 8165, 8173, 8166, 8172, 8189, 8192, 8208, 8198, 8276, 9580,1.5552446842193604,red
113, 8249, 8200, 8134, 8089, 8164, 8144, 8154, 8169, 8166, 8186, 8106, 8153, 8305, 9702,1.563020944595337,red
114, 8024, 8153, 8205, 8236, 8178, 8180, 8173, 8168, 8188, 8190, 8257, 8226, 8264, 9539,1.5710434913635254,red
115, 8281, 8191, 8153, 8109, 8168, 8155, 8158, 8183, 8166, 8181, 8113, 8146, 8298, 9690,1.5789494514465332,red
116, 8175, 8168, 8191, 8190, 8176, 8167, 8163, 8166, 8169, 8187, 8168, 8177, 8286, 9615,1.5870387554168701,red
117, 8087, 8151, 8177, 8185, 8167, 8174, 8170, 8164, 8183, 8196, 8204, 8196, 8268, 9568,1.5949432849884033,red
118, 8266, 8203, 8130, 8069, 8157, 8147, 8157, 8173, 8158, 8187, 8108, 8151, 8302, 9698,1.6028251647949219,red
119, 8034, 8155, 8206, 8231, 8176, 8183, 8173, 8167, 8191, 8192, 8254, 8228, 8263, 9530,1.6106767654418945,red
120, 8256, 8184, 8140, 8104, 8163, 8156, 8160, 8175, 8179, 8186, 8107, 8154, 8294, 9667,1.618739128112793,red
121, 8185, 8173, 8159, 8148, 8168, 8167, 8164, 8168, 8168, 8187, 8146, 8172, 8291, 9626,1.6253547668457031,red
122, 8061, 8143, 8183, 8203, 8173, 8178, 8171, 8168, 8184, 8188, 8219, 8203, 8265, 9557,1.6346125602722168,red
123, 8296, 8194, 8148, 8098, 8162, 8142, 8159, 8174, 8161, 8178, 8097, 8144, 8304, 9714,1.642305612564087,red
124, 8071, 8147, 8213, 8237, 8174, 8182, 8177, 8167, 8185, 8189, 8236, 8214, 8271, 9550,1.650298833847046,red
125, 8214, 8174, 8140, 8108, 8161, 8161, 8165, 8172, 8176, 8188, 8127, 8160, 8292, 9647,1.6582770347595215,red
126, 8175, 8185, 8157, 8137, 8169, 8158, 8164, 8164, 8175, 8185, 8163, 8178, 8288, 9617,1.666330337524414,red
127, 8036, 8152, 8190, 8216, 8180, 8183, 8173, 8172, 8196, 8188, 8251, 8224, 8265, 9532,1.6740965843200684,red
238, 8272, 8196, 8135, 8088, 8163, 8152, 8154, 8185, 8160, 8179, 8100, 8152, 8311, 9726,1.6804618835449219,red
0, 8049, 8161, 8205, 8231, 8172, 8182, 8166, 8170, 8176, 8182, 8237, 8213, 8271, 9574,1.688396692276001,red
1, 8207, 8178, 8162, 8137, 8171, 8164, 8163, 8174, 8178, 8184, 8153, 8164, 8285, 9644,1.6962039470672607,red
2, 8245, 8179, 8161, 8133, 8179, 8162, 8162, 8174, 8169, 8188, 8136, 8165, 8297, 9656,1.7056403160095215,red
3, 8062, 8143, 8186, 8216, 8176, 8186, 8173, 8168, 8190, 8189, 8225, 8214, 8261, 9537,1.7133781909942627,red
4, 8305, 8199, 8121, 8076, 8154, 8145, 8156, 8169, 8166, 8183, 8074, 8136, 8306, 9710,1.7212302684783936,red
5, 8083, 8155, 8192, 8213, 8173, 8172, 8165, 8164, 8187, 8196, 8219, 8205, 8278, 9558,1.7291841506958008,red
6, 8149, 8165, 8157, 8141, 8167, 8164, 8158, 8177, 8183, 8188, 8181, 8185, 8285, 9610,1.7370350360870361,red
7, 8217, 8197, 8158, 8129, 8164, 8156, 8155, 8170, 8160, 8180, 8155, 8173, 8297, 9672,1.7432899475097656,red
8, 8037, 8155, 8209, 8246, 8178, 8186, 8171, 8172, 8190, 8192, 8258, 8224, 8259, 9552,1.7512726783752441,red
9, 8297, 8195, 8137, 8100, 8164, 8153, 8158, 8187, 8169, 8182, 8090, 8142, 8300, 9730,1.7608330249786377,red
10, 8106, 8163, 8196, 8220, 8178, 8178, 8172, 8168, 8175, 8184, 8203, 8196, 8275, 9597,1.7687861919403076,red
11, 8154, 8165, 8168, 8164, 8171, 8168, 8169, 8170, 8177, 8194, 8169, 8174, 8281, 9618,1.7767441272735596,red
12, 8275, 8188, 8146, 8115, 8161, 8154, 8156, 8178, 8164, 8190, 8110, 8150, 8300, 9681,1.7846934795379639,red
13, 8048, 8145, 8194, 8236, 8168, 8190, 8171, 8171, 8192, 8191, 8241, 8221, 8256, 9524,1.7926626205444336,red
14, 8259, 8201, 8123, 8072, 8162, 8151, 8156, 8173, 8165, 8184, 8097, 8147, 8301, 9694,1.8006746768951416,red
15, 8084, 8173, 8185, 8187, 8178, 8167, 8159, 8164, 8176, 8188, 8209, 8197, 8283, 9581,1.8069241046905518,red
16, 8106, 8160, 8178, 8183, 8167, 8174, 8161, 8175, 8184, 8187, 8197, 8190, 8273, 9594,1.8149611949920654,red
17, 8273, 8198, 8151, 8108, 8156, 8156, 8159, 8180, 8158, 8182, 8104, 8145, 8303, 9732,1.822930097579956,red
18, 8034, 8150, 8206, 8241, 8177, 8186, 8174, 8172, 8184, 8196, 8241, 8207, 8266, 9574,1.8306000232696533,red
19, 8268, 8194, 8130, 8094, 8164, 8155, 8158, 8176, 8170, 8191, 8097, 8142, 8301, 9688,1.8383376598358154,red
20, 8130, 8177, 8174, 8172, 8166, 8170, 8170, 8163, 8181, 8188, 8199, 8202, 8286, 9558,1.8462707996368408,red
21, 8070, 8155, 8179, 8183, 8164, 8172, 8174, 8168, 8192, 8185, 8239, 8213, 8271, 9545,1.8557517528533936,red
22, 8291, 8199, 8136, 8091, 8158, 8148, 8155, 8174, 8160, 8179, 8110, 8150, 8308, 9741,1.8632876873016357,red
23, 8061, 8156, 8200, 8238, 8174, 8187, 8173, 8168, 8185, 8189, 8244, 8223, 8274, 9584,1.8715295791625977,red
24, 8246, 8183, 8151, 8118, 8162, 8156, 8161, 8179, 8175, 8183, 8136, 8162, 8300, 9701,1.8778481483459473,red
25, 8171, 8170, 8186, 8182, 8173, 8166, 8162, 8178, 8173, 8186, 8191, 8179, 8283, 9653,1.885594129562378,red
26, 8100, 8157, 8186, 8199, 8176, 8183, 8173, 8182, 8186, 8190, 8212, 8191, 8266, 9600,1.8933463096618652,red
27, 8322, 8207, 8146, 8093, 8164, 8153, 8159, 8175, 8165, 8182, 8079, 8140, 8308, 9751,1.9013392925262451,red
28, 8081, 8153, 8215, 8257, 8183, 8183, 8166, 8160, 8189, 8189, 8224, 8212, 8263, 9590,1.9106347560882568,red
29, 8251, 8180, 8139, 8124, 8166, 8156, 8159, 8178, 8175, 8183, 8099, 8138, 8287, 9703,1.9186811447143555,red
30, 8216, 8182, 8168, 8155, 8162, 8168, 8170, 8178, 8170, 8182, 8138, 8157, 8291, 9674,1.926612377166748,red
31, 8095, 8155, 8198, 8221, 8173, 8190, 8172, 8177, 8189, 8186, 8224, 8200, 8268, 9591,1.9345965385437012,red
32, 8303, 8203, 8119, 8078, 8164, 8149, 8153, 8181, 8164, 8180, 8077, 8132, 8308, 9721,1.9409046173095703,red
33, 8055, 8152, 8181, 8211, 8165, 8180, 8177, 8164, 8187, 8190, 8217, 8206, 8272, 9536,1.9487314224243164,red
34, 8208, 8169, 8154, 8126, 8155, 8161, 8169, 8170, 8176, 8187, 8151, 8171, 8290, 9646,1.9566166400909424,red
35, 8193, 8179, 8177, 8158, 8170, 8157, 8160, 8173, 8165, 8188, 8173, 8184, 8294, 9664,1.964641809463501,red
36, 8030, 8147, 8198, 8230, 8173, 8183, 8170, 8171, 8192, 8199, 8245, 8219, 8263, 9560,1.9727153778076172,red
37, 8289, 8193, 8127, 8073, 8159, 8153, 8156, 8172, 8165, 8188, 8079, 8139, 8309, 9706,1.980614423751831,red
38, 8068, 8147, 8194, 8209, 8178, 8180, 8171, 8163, 8182, 8187, 8224, 8215, 8271, 9529,1.9885666370391846,red
39, 8175, 8169, 8158, 8138, 8167, 8164, 8166, 8172, 8179, 8187, 8166, 8182, 8280, 9613,1.9966654777526855,red
40, 8218, 8196, 8161, 8139, 8168, 8163, 8157, 8169, 8161, 8186, 8134, 8159, 8299, 9678,2.0044753551483154,red
41, 8027, 8150, 8200, 8242, 8178, 8191, 8169, 8170, 8187, 8192, 8231, 8204, 8266, 9547,2.0124292373657227,red
42, 8296, 8193, 8134, 8075, 8161, 8152, 8157, 8181, 8168, 8186, 8088, 8142, 8305, 9691,2.020493268966675,red
43, 8094, 8162, 8190, 8189, 8177, 8180, 8168, 8163, 8183, 8195, 8230, 8217, 8273, 9539,2.028480052947998,red
44, 8155, 8173, 8161, 8154, 8168, 8167, 8166, 8166, 8184, 8189, 8187, 8188, 8277, 9609,2.0364177227020264,red
45, 8282, 8197, 8171, 8146, 8162, 8147, 8159, 8172, 8166, 8179, 8127, 8155, 8297, 9724,2.0443384647369385,red
46, 8072, 8149, 8216, 8251, 8180, 8180, 8169, 8175, 8190, 8191, 8238, 8208, 8261, 9587,2.052391767501831,red
47, 8296, 8199, 8116, 8080, 8167, 8151, 8153, 8184, 8162, 8188, 8070, 8125, 8305, 9743,2.060326337814331,red
48, 8118, 8171, 8180, 8205, 8173, 8177, 8165, 8165, 8170, 8190, 8184, 8186, 8282, 9602,2.0667970180511475,red
49, 8139, 8160, 8179, 8183, 8174, 8174, 8166, 8168, 8183, 8189, 8185, 8192, 8276, 9589,2.0747201442718506,red
50, 8293, 8193, 8136, 8095, 8172, 8153, 8158, 8176, 8169, 8185, 8111, 8166, 8299, 9689,2.0826241970062256,red
51, 8062, 8151, 8179, 8207, 8173, 8189, 8174, 8168, 8192, 8194, 8237, 8230, 8258, 9536,2.090587854385376,red
52, 8280, 8189, 8122, 8069, 8151, 8154, 8155, 8173, 8166, 8185, 8094, 8153, 8296, 9694,2.0985875129699707,red
53, 8135, 8159, 8179, 8186, 8168, 8165, 8163, 8166, 8174, 8185, 8203, 8201, 8279, 9609,2.1066339015960693,red
54, 8102, 8154, 8169, 8185, 8171, 8170, 8167, 8170, 8187, 8190, 8213, 8203, 8271, 9605,2.1147029399871826,red
55, 8269, 8200, 8131, 8081, 8155, 8152, 8155, 8173, 8160, 8188, 8097, 8157, 8303, 9722,2.122504472732544,red
56, 8031, 8149, 8189, 8217, 8165, 8188, 8167, 8171, 8185, 8190, 8247, 8237, 8260, 9533,2.1305835247039795,red
57, 8248, 8190, 8133, 8090, 8161, 8153, 8156, 8177, 8168, 8181, 8139, 8172, 8293, 9678,2.138465642929077,red
58, 8155, 8174, 8189, 8179, 8176, 8162, 8165, 8164, 8169, 8187, 8206, 8195, 8285, 9641,2.146461248397827,red
59, 8098, 8150, 8182, 8198, 8172, 8173, 8170, 8178, 8190, 8189, 8214, 8200, 8267, 9614,2.1543619632720947,red
60, 8269, 8203, 8124, 8078, 8161, 8145, 8154, 8183, 8164, 8182, 8094, 8151, 8303, 9721,2.1628313064575195,red
61, 7996, 8155, 8208, 8236, 8182, 8179, 8170, 8160, 8181, 8193, 8261, 8236, 8266, 9512,2.1705822944641113,green
62, 8247, 8179, 8160, 8132, 8167, 8158, 8157, 8170, 8172, 8189, 8131, 8165, 8293, 9674,2.1786937713623047,green
63, 8244, 8182, 8177, 8177, 8169, 8171, 8164, 8176, 8173, 8190, 8142, 8163, 8289, 9680,2.1865720748901367,green
64, 8118, 8158, 8179, 8205, 8175, 8183, 8178, 8172, 8185, 8195, 8189, 8183, 8268, 9598,2.1945693492889404,green
65, 8333, 8197, 8125, 8077, 8167, 8149, 8155, 8166, 8159, 8181, 8063, 8134, 8306, 9743,2.20098614692688,green
66, 8088, 8151, 8203, 8233, 8181, 8188, 8167, 8160, 8185, 8181, 8227, 8213, 8265, 9576,2.2088265419006348,green
67, 8238, 8181, 8152, 8126, 8162, 8162, 8168, 8178, 8173, 8183, 8129, 8147, 8290, 9680,2.2165751457214355,green
68, 8240, 8187, 8155, 8136, 8166, 8157, 8166, 8169, 8169, 8191, 8129, 8150, 8294, 9674,2.224432945251465,green
69, 8102, 8151, 8171, 8193, 8178, 8183, 8169, 8162, 8197, 8192, 8210, 8206, 8262, 9556,2.232280731201172,green
70, 8331, 8196, 8117, 8063, 8158, 8150, 8157, 8169, 8163, 8181, 8084, 8151, 8307, 9703,2.240276575088501,green
71, 8088, 8149, 8195, 8229, 8169, 8179, 8174, 8160, 8184, 8195, 8235, 8213, 8271, 9574,2.2496321201324463,green
72, 8182, 8171, 8150, 8137, 8166, 8161, 8165, 8172, 8184, 8188, 8148, 8162, 8279, 9665,2.2580740451812744,green
73, 8187, 8189, 8154, 8116, 8164, 8154, 8166, 8172, 8165, 8177, 8138, 8172, 8294, 9652,2.265394449234009,green
74, 8033, 8147, 8197, 8222, 8167, 8182, 8176, 8170, 8188, 8188, 8254, 8233, 8266, 9529,2.2717456817626953,green
75, 8284, 8196, 8134, 8099, 8162, 8152, 8155, 8178, 8169, 8185, 8097, 8146, 8302, 9717,2.2796268463134766,green
76, 8059, 8162, 8199, 8229, 8180, 8178, 8173, 8169, 8183, 8188, 8213, 8196, 8268, 9580,2.2875568866729736,green
77, 8181, 8169, 8162, 8146, 8169, 8165, 8171, 8180, 8175, 8186, 8151, 8168, 8284, 9634,2.2956786155700684,green
78, 8263, 8189, 8154, 8119, 8163, 8159, 8157, 8181, 8162, 8186, 8121, 8164, 8300, 9656,2.303518295288086,green
79, 8028, 8147, 8200, 8240, 8172, 8189, 8170, 8171, 8193, 8193, 8260, 8234, 8259, 9506,2.3113903999328613,green
80, 8276, 8197, 8131, 8085, 8161, 8146, 8159, 8175, 8168, 8187, 8104, 8154, 8302, 9707,2.319455862045288,green
81, 8115, 8165, 8190, 8197, 8184, 8174, 8171, 8166, 8179, 8194, 8192, 8197, 8273, 9585,2.3273231983184814,green
82, 8162, 8162, 8161, 8149, 8173, 8172, 8166, 8168, 8181, 8191, 8154, 8177, 8271, 9591,2.3353049755096436,green
83, 8255, 8189, 8141, 8105, 8156, 8149, 8153, 8167, 8155, 8179, 8115, 8156, 8302, 9679,2.3432278633117676,green
84, 8015, 8144, 8205, 8249, 8175, 8181, 8174, 8170, 8182, 8189, 8261, 8224, 8266, 9539,2.3512418270111084,green
85, 8277, 8191, 8133, 8092, 8168, 8152, 8161, 8180, 8168, 8189, 8093, 8140, 8300, 9694,2.359161615371704,green
86, 8138, 8163, 8176, 8174, 8169, 8165, 8165, 8163, 8178, 8190, 8188, 8188, 8281, 9568,2.367184638977051,green
87, 8120, 8157, 8170, 8166, 8162, 8164, 8167, 8169, 8182, 8190, 8205, 8197, 8275, 9575,2.375117540359497,green
88, 8274, 8205, 8147, 8115, 8164, 8156, 8158, 8178, 8155, 8188, 8108, 8152, 8301, 9716,2.3831968307495117,green
89, 8043, 8153, 8194, 8244, 8178, 8194, 8172, 8170, 8188, 8197, 8225, 8204, 8263, 9545,2.3911561965942383,green
90, 8256, 8184, 8122, 8080, 8160, 8151, 8160, 8178, 8172, 8189, 8099, 8138, 8299, 9668,2.3974921703338623,green
91, 8114, 8165, 8182, 8177, 8172, 8165, 8166, 8175, 8173, 8192, 8209, 8201, 8280, 9588,2.405367851257324,green
92, 8072, 8153, 8189, 8205, 8172, 8179, 8164, 8180, 8184, 8196, 8223, 8209, 8270, 9575,2.413365364074707,green
93, 8316, 8201, 8133, 8093, 8165, 8153, 8155, 8174, 8160, 8191, 8084, 8137, 8311, 9730,2.4213497638702393,green
94, 8090, 8152, 8186, 8218, 8179, 8183, 8174, 8162, 8190, 8196, 8233, 8211, 8263, 9563,2.4293549060821533,green
95, 8246, 8182, 8131, 8092, 8154, 8153, 8157, 8177, 8174, 8183, 8125, 8158, 8290, 9681,2.438690662384033,green
96, 8136, 8175, 8189, 8184, 8160, 8165, 8161, 8173, 8173, 8182, 8191, 8192, 8291, 9620,2.446676731109619,green
97, 8061, 8157, 8197, 8223, 8172, 8179, 8171, 8172, 8192, 8188, 8226, 8208, 8269, 9567,2.4546756744384766,green
98, 8313, 8205, 8121, 8072, 8167, 8146, 8157, 8173, 8168, 8181, 8064, 8127, 8306, 9727,2.462674379348755,green
99, 8080, 8150, 8187, 8206, 8180, 8185, 8174, 8165, 8188, 8188, 8211, 8200, 8268, 9550,2.469048023223877,green
100, 8229, 8175, 8149, 8110, 8162, 8164, 8163, 8177, 8170, 8185, 8131, 8163, 8290, 9652,2.4769127368927,green
101, 8164, 8174, 8181, 8166, 8164, 8160, 8159, 8167, 8167, 8187, 8178, 8186, 8290, 9638,2.484959125518799,green
102, 8032, 8147, 8199, 8228, 8174, 8178, 8170, 8167, 8192, 8187, 8249, 8213, 8267, 9565,2.4929299354553223,green
103, 8286, 8203, 8132, 8090, 8164, 8152, 8159, 8178, 8165, 8177, 8095, 8146, 8309, 9724,2.500871181488037,green
104, 8065, 8154, 8198, 8230, 8179, 8187, 8171, 8165, 8182, 8195, 8227, 8212, 8267, 9551,2.5091707706451416,green
105, 8224, 8175, 8151, 8122, 8167, 8164, 8163, 8171, 8175, 8191, 8124, 8149, 8278, 9646,2.5164437294006348,green
106, 8238, 8190, 8154, 8126, 8162, 8159, 8160, 8168, 8165, 8181, 8125, 8156, 8290, 9649,2.524357795715332,green
107, 8039, 8148, 8188, 8214, 8169, 8182, 8166, 8165, 8190, 8194, 8244, 8223, 8264, 9519,2.532278537750244,green
108, 8261, 8192, 8141, 8081, 8160, 8148, 8155, 8177, 8163, 8191, 8118, 8155, 8300, 9694,2.5402133464813232,green
109, 8059, 8158, 8214, 8226, 8171, 8180, 8174, 8173, 8178, 8190, 8250, 8212, 8263, 9564,2.5480575561523438,green
110, 8190, 8176, 8163, 8149, 8162, 8167, 8165, 8175, 8179, 8190, 8161, 8168, 8284, 9640,2.5559215545654297,green
111, 8265, 8194, 8144, 8124, 8170, 8159, 8159, 8166, 8166, 8191, 8113, 8151, 8301, 9676,2.56376051902771,green
112, 8059, 8148, 8184, 8219, 8179, 8186, 8175, 8165, 8187, 8194, 8225, 8209, 8259, 9529,2.571610689163208,green
113, 8282, 8193, 8128, 8074, 8158, 8149, 8157, 8180, 8160, 8184, 8089, 8144, 8305, 9687,2.579284429550171,green
114, 8082, 8160, 8201, 8208, 8172, 8179, 8169, 8171, 8177, 8188, 8221, 8208, 8278, 9555,2.587362766265869,green
115, 8143, 8169, 8170, 8155, 8167, 8169, 8169, 8173, 8183, 8187, 8178, 8185, 8275, 9613,2.5947842597961426,green
116, 8236, 8198, 8150, 8109, 8167, 8146, 8157, 8168, 8165, 8190, 8118, 8159, 8296, 9689,2.6025683879852295,green
117, 8032, 8151, 8203, 8232, 8182, 8186, 8173, 8166, 8188, 8197, 8241, 8216, 8260, 9525,2.610280990600586,green
118, 8309, 8191, 8130, 8082, 8160, 8161, 8167, 8177, 8166, 8182, 8089, 8146, 8303, 9694,2.619680166244507,green
119, 8140, 8160, 8175, 8186, 8165, 8170, 8174, 8163, 8181, 8193, 8191, 8205, 8281, 9592,2.627462863922119,green
120, 8111, 8160, 8152, 8149, 8165, 8165, 8170, 8170, 8184, 8201, 8173, 8185, 8272, 9594,2.635383367538452,green
121, 8228, 8195, 8135, 8081, 8164, 8153, 8158, 8174, 8154, 8185, 8112, 8155, 8298, 9676,2.6431682109832764,green
122, 8009, 8141, 8211, 8238, 8180, 8186, 8168, 8164, 8184, 8187, 8272, 8242, 8259, 9517,2.6510229110717773,green
123, 8267, 8186, 8145, 8115, 8171, 8151, 8160, 8173, 8170, 8185, 8114, 8157, 8293, 9708,2.6587302684783936,green
124, 8147, 8173, 8186, 8201, 8176, 8170, 8176, 8169, 8171, 8184, 8178, 8182, 8278, 9641,2.6665725708007812,green
125, 8127, 8169, 8173, 8181, 8169, 8173, 8177, 8177, 8179, 8184, 8186, 8187, 8269, 9602,2.674330234527588,green
126, 8304, 8206, 8137, 8090, 8162, 8149, 8158, 8172, 8162, 8187, 8100, 8145, 8301, 9687,2.682386636734009,green
127, 8035, 8140, 8210, 8242, 8171, 8191, 8171, 8157, 8195, 8198, 8271, 8231, 8263, 9505,2.6902387142181396,green
238, 8220, 8178, 8132, 8092, 8153, 8154, 8156, 8172, 8173, 8187, 8129, 8166, 8299, 9666,2.6981146335601807,green
0, 8128, 8183, 8155, 8150, 8168, 8162, 8167, 8172, 8171, 8188, 8171, 8184, 8285, 9620,2.705813407897949,green
1, 8091, 8158, 8176, 8193, 8174, 8182, 8178, 8172, 8188, 8192, 8213, 8198, 8265, 9574,2.7138986587524414,green
2, 8327, 8190, 8145, 8105, 8165, 8153, 8157, 8171, 8161, 8184, 8092, 8141, 8305, 9722,2.721717596054077,green
3, 8063, 8146, 8202, 8242, 8179, 8182, 8170, 8159, 8187, 8193, 8228, 8205, 8264, 9552,2.729708433151245,green
4, 8208, 8185, 8130, 8091, 8158, 8151, 8164, 8173, 8178, 8188, 8120, 8151, 8285, 9656,2.7376346588134766,green
5, 8150, 8180, 8167, 8139, 8166, 8155, 8163, 8175, 8175, 8188, 8182, 8191, 8281, 9610,2.7455391883850098,green
6, 8065, 8149, 8195, 8211, 8177, 8178, 8165, 8173, 8193, 8191, 8238, 8215, 8263, 9548,2.7534375190734863,green
7, 8322, 8198, 8132, 8089, 8161, 8150, 8158, 8173, 8164, 8182, 8068, 8123, 8306, 9724,2.7611522674560547,green
8, 8075, 8150, 8191, 8229, 8171, 8180, 8185, 8164, 8187, 8188, 8208, 8192, 8263, 9549,2.769127130508423,green
9, 8191, 8169, 8148, 8126, 8163, 8157, 8169, 8177, 8178, 8189, 8148, 8170, 8282, 9632,2.7771389484405518,green
10, 8177, 8181, 8172, 8152, 8172, 8162, 8156, 8176, 8165, 8193, 8169, 8190, 8293, 9643,2.784954071044922,green
11, 8053, 8153, 8197, 8227, 8180, 8185, 8171, 8172, 8190, 8193, 8226, 8217, 8265, 9550,2.7913758754730225,green
12, 8311, 8195, 8126, 8083, 8166, 8149, 8161, 8171, 8176, 8180, 8068, 8136, 8298, 9710,2.7992916107177734,green
13, 8078, 8148, 8185, 8208, 8179, 8177, 8167, 8159, 8190, 8190, 8220, 8210, 8263, 9554,2.8086278438568115,green
14, 8183, 8168, 8152, 8129, 8167, 8163, 8158, 8176, 8171, 8188, 8164, 8181, 8285, 9637,2.8165574073791504,green
15, 8214, 8183, 8174, 8152, 8166, 8164, 8158, 8177, 8160, 8185, 8147, 8178, 8296, 9668,2.824505567550659,green
16, 8019, 8142, 8210, 8246, 8175, 8192, 8172, 8169, 8194, 8195, 8235, 8215, 8256, 9537,2.8324368000030518,green
17, 8297, 8194, 8125, 8084, 8164, 8151, 8155, 8172, 8166, 8183, 8080, 8133, 8300, 9717,2.8405423164367676,green
18, 8138, 8162, 8173, 8198, 8176, 8177, 8168, 8160, 8181, 8187, 8204, 8202, 8274, 9587,2.848276138305664,green
19, 8205, 8171, 8126, 8115, 8161, 8167, 8165, 8169, 8187, 8188, 8128, 8163, 8281, 9626,2.8547749519348145,green
20, 8240, 8195, 8127, 8096, 8158, 8155, 8162, 8170, 8168, 8181, 8092, 8145, 8301, 9659,2.862626314163208,green
21, 8020, 8148, 8194, 8241, 8174, 8182, 8178, 8166, 8187, 8190, 8256, 8226, 8261, 9514,2.8703551292419434,green
22, 8272, 8193, 8132, 8092, 8161, 8141, 8155, 8174, 8166, 8189, 8118, 8149, 8299, 9703,2.878340244293213,green
23, 8075, 8164, 8200, 8210, 8176, 8171, 8161, 8166, 8181, 8189, 8226, 8203, 8277, 9570,2.886326789855957,green
24, 8135, 8168, 8178, 8180, 8175, 8179, 8168, 8174, 8182, 8186, 8183, 8192, 8278, 9602,2.894334554672241,green
25, 8302, 8198, 8145, 8115, 8164, 8160, 8164, 8170, 8164, 8184, 8090, 8146, 8304, 9732,2.9023191928863525,green
26, 8052, 8145, 8201, 8242, 8175, 8187, 8172, 8162, 8196, 8190, 8222, 8201, 8261, 9572,2.9103288650512695,green
27, 8266, 8194, 8129, 8090, 8164, 8156, 8156, 8179, 8171, 8182, 8089, 8139, 8294, 9689,2.9183738231658936,green
28, 8138, 8170, 8177, 8185, 8169, 8172, 8168, 8175, 8171, 8188, 8195, 8198, 8282, 9576,2.9263010025024414,green
29, 8123, 8158, 8168, 8163, 8162, 8168, 8166, 8172, 8186, 8190, 8186, 8191, 8277, 9589,2.9342854022979736,green
30, 8254, 8207, 8126, 8067, 8163, 8149, 8157, 8167, 8168, 8181, 8076, 8146, 8303, 9692,2.942232370376587,green
31, 8021, 8155, 8190, 8224, 8182, 8184, 8176, 8159, 8188, 8188, 8240, 8230, 8264, 9507,2.9502954483032227,green
32, 8265, 8183, 8149, 8122, 8162, 8151, 8158, 8170, 8164, 8184, 8133, 8163, 8301, 9686,2.9582247734069824,green
33, 8142, 8174, 8197, 8207, 8167, 8173, 8163, 8169, 8166, 8188, 8194, 8191, 8283, 9650,2.9662609100341797,green
34, 8082, 8162, 8182, 8202, 8165, 8186, 8170, 8182, 8184, 8189, 8192, 8200, 8268, 9601,2.97406005859375,green
35, 8302, 8194, 8131, 8082, 8161, 8153, 8157, 8177, 8164, 8185, 8074, 8145, 8307, 9702,2.981844186782837,green
36, 8061, 8138, 8195, 8219, 8179, 8187, 8172, 8156, 8189, 8198, 8240, 8214, 8260, 9515,2.9896042346954346,green
37, 8240, 8177, 8133, 8093, 8159, 8161, 8161, 8169, 8165, 8188, 8123, 8156, 8291, 9658,2.9975242614746094,green
38, 8160, 8177, 8165, 8153, 8163, 8164, 8166, 8167, 8162, 8181, 8167, 8191, 8290, 9626,3.0052871704101562,green
39, 8051, 8154, 8174, 8191, 8171, 8175, 8173, 8170, 8192, 8188, 8232, 8222, 8264, 9555,3.0135769844055176,green
40, 8261, 8199, 8129, 8080, 8162, 8147, 8156, 8180, 8166, 8184, 8118, 8160, 8300, 9714,3.0213019847869873,green
41, 8025, 8147, 8214, 8243, 8179, 8189, 8171, 8171, 8181, 8191, 8260, 8228, 8261, 9556,3.029177665710449,green
42, 8228, 8175, 8161, 8134, 8171, 8170, 8163, 8179, 8175, 8185, 8137, 8163, 8289, 9683,3.0369131565093994,green
43, 8240, 8183, 8178, 8166, 8173, 8168, 8164, 8178, 8171, 8183, 8144, 8166, 8296, 9699,3.0435118675231934,green
44, 8093, 8151, 8198, 8231, 8175, 8187, 8173, 8173, 8189, 8188, 8207, 8194, 8264, 9606,3.052260398864746,green
45, 8320, 8197, 8127, 8088, 8163, 8155, 8157, 8175, 8166, 8181, 8068, 8127, 8300, 9755,3.0605242252349854,green
46, 8103, 8152, 8193, 8227, 8181, 8187, 8173, 8172, 8187, 8189, 8222, 8207, 8266, 9588,3.068319797515869,green
47, 8233, 8171, 8150, 8135, 8172, 8171, 8167, 8181, 8176, 8187, 8131, 8160, 8285, 9663,3.0763700008392334,green
48, 8241, 8181, 8151, 8140, 8170, 8163, 8164, 8169, 8170, 8185, 8117, 8155, 8293, 9671,3.0841989517211914,green
49, 8068, 8143, 8184, 8218, 8176, 8185, 8172, 8166, 8199, 8189, 8220, 8211, 8257, 9554,3.0922515392303467,green
50, 8296, 8190, 8125, 8074, 8161, 8153, 8157, 8172, 8164, 8181, 8083, 8148, 8301, 9696,3.100152015686035,green
51, 8059, 8152, 8196, 8224, 8171, 8181, 8172, 8164, 8175, 8189, 8229, 8211, 8272, 9535,3.1076693534851074,green
52, 8164, 8170, 8164, 8156, 8162, 8165, 8166, 8178, 8182, 8184, 8168, 8175, 8279, 9627,3.1156678199768066,green
53, 8246, 8192, 8155, 8124, 8167, 8156, 8159, 8170, 8170, 8182, 8121, 8167, 8292, 9677,3.1237926483154297,green
54, 8050, 8147, 8191, 8227, 8180, 8186, 8173, 8162, 8189, 8192, 8234, 8225, 8257, 9521,3.1316921710968018,green
55, 8286, 8199, 8128, 8084, 8156, 8149, 8153, 8182, 8163, 8182, 8090, 8143, 8300, 9693,3.1403748989105225,green
56, 8082, 8167, 8192, 8207, 8167, 8175, 8163, 8173, 8178, 8185, 8218, 8203, 8273, 9577,3.146695137023926,green
57, 8150, 8167, 8159, 8159, 8167, 8169, 8166, 8170, 8183, 8185, 8184, 8186, 8278, 9614,3.1547064781188965,green
58, 8279, 8194, 8149, 8117, 8164, 8153, 8159, 8171, 8165, 8181, 8117, 8156, 8303, 9678,3.162536859512329,green
59, 8053, 8143, 8202, 8232, 8168, 8186, 8172, 8167, 8191, 8189, 8239, 8216, 8261, 9519,3.170463800430298,green
60, 8272, 8186, 8129, 8083, 8153, 8153, 8160, 8174, 8168, 8183, 8104, 8146, 8298, 9696,3.1783499717712402,green
61, 8090, 8166, 8198, 8207, 8176, 8172, 8172, 8164, 8181, 8184, 8224, 8202, 8276, 9594,3.1862685680389404,green
62, 8105, 8163, 8182, 8176, 8178, 8166, 8172, 8166, 8186, 8186, 8192, 8186, 8272, 9608,3.194085121154785,green
63, 8272, 8198, 8146, 8096, 8162, 8151, 8158, 8170, 8161, 8184, 8085, 8143, 8301, 9726,3.202148914337158,green
64, 8026, 8150, 8214, 8250, 8173, 8197, 8170, 8171, 8190, 8192, 8234, 8214, 8256, 9548,3.2093262672424316,green
65, 8267, 8187, 8142, 8105, 8161, 8161, 8160, 8176, 8173, 8189, 8091, 8134, 8291, 9694,3.2185568809509277,green
66, 8183, 8166, 8170, 8173, 8166, 8165, 8171, 8164, 8179, 8190, 8167, 8178, 8282, 9626,3.226231098175049,green
67, 8142, 8167, 8160, 8169, 8165, 8171, 8172, 8176, 8187, 8188, 8182, 8192, 8272, 9600,3.2346365451812744,green
68, 8285, 8207, 8122, 8079, 8160, 8148, 8155, 8177, 8159, 8183, 8081, 8143, 8302, 9697,3.241332769393921,green
69, 8002, 8134, 8195, 8235, 8170, 8180, 8173, 8160, 8190, 8191, 8253, 8225, 8258, 9512,3.2494564056396484,green
70, 8203, 8170, 8147, 8107, 8155, 8148, 8161, 8175, 8175, 8182, 8146, 8173, 8289, 9673,3.2568321228027344,green
71, 8154, 8179, 8177, 8158, 8171, 8159, 8161, 8171, 8172, 8184, 8189, 8199, 8282, 9638,3.26499605178833,green
72, 8102, 8160, 8171, 8184, 8172, 8174, 8166, 8170, 8190, 8191, 8210, 8204, 8267, 9581,3.272381067276001,green
73, 8293, 8201, 8132, 8099, 8162, 8148, 8154, 8174, 8161, 8185, 8089, 8141, 8305, 9715,3.280453681945801,green
74, 8021, 8152, 8220, 8269, 8180, 8189, 8173, 8162, 8182, 8195, 8239, 8213, 8259, 9546,3.290149688720703,blue
75, 8227, 8181, 8156, 8129, 8163, 8167, 8165, 8173, 8176, 8190, 8106, 8147, 8284, 9689,3.2975525856018066,blue
76, 8225, 8181, 8161, 8147, 8170, 8169, 8161, 8171, 8172, 8188, 8129, 8162, 8293, 9688,3.305407762527466,blue
77, 8104, 8153, 8179, 8205, 8181, 8183, 8164, 8171, 8184, 8194, 8204, 8196, 8269, 9590,3.3124964237213135,blue
78, 8305, 8196, 8124, 8080, 8164, 8150, 8157, 8174, 8162, 8183, 8073, 8127, 8300, 9694,3.319800853729248,blue
79, 8053, 8145, 8190, 8225, 8172, 8180, 8179, 8165, 8190, 8188, 8227, 8213, 8260, 9508,3.32773756980896,blue
80, 8202, 8169, 8146, 8130, 8166, 8157, 8162, 8172, 8175, 8186, 8151, 8184, 8283, 9639,3.3356685638427734,blue
81, 8188, 8183, 8171, 8148, 8168, 8160, 8152, 8165, 8161, 8183, 8167, 8185, 8290, 9663,3.3438570499420166,blue
82, 8026, 8153, 8203, 8223, 8172, 8189, 8168, 8165, 8192, 8186, 8246, 8216, 8260, 9541,3.3515355587005615,blue
83, 8314, 8201, 8134, 8090, 8164, 8156, 8163, 8176, 8170, 8184, 8085, 8146, 8297, 9711,3.3593645095825195,blue
84, 8121, 8153, 8186, 8218, 8182, 8182, 8177, 8167, 8185, 8194, 8211, 8212, 8261, 9573,3.3673312664031982,blue
85, 8218, 8169, 8131, 8109, 8170, 8164, 8163, 8172, 8178, 8187, 8124, 8163, 8281, 9641,3.3767452239990234,blue
86, 8245, 8187, 8137, 8107, 8164, 8158, 8156, 8167, 8164, 8186, 8111, 8159, 8301, 9661,3.3829691410064697,blue
87, 8023, 8141, 8191, 8232, 8168, 8181, 8171, 8163, 8190, 8197, 8254, 8224, 8260, 9526,3.390765428543091,blue
88, 8255, 8192, 8128, 8079, 8157, 8144, 8156, 8168, 8167, 8183, 8112, 8154, 8295, 9704,3.398555040359497,blue
89, 8082, 8161, 8185, 8193, 8176, 8178, 8169, 8162, 8181, 8182, 8225, 8215, 8265, 9577,3.4062914848327637,blue
90, 8167, 8167, 8150, 8142, 8168, 8168, 8167, 8177, 8177, 8182, 8173, 8181, 8275, 9628,3.4155099391937256,blue
91, 8239, 8195, 8147, 8127, 8168, 8152, 8155, 8174, 8159, 8179, 8118, 8157, 8301, 9689,3.4235925674438477,blue
92, 8035, 8152, 8206, 8250, 8180, 8190, 8169, 8165, 8190, 8187, 8229, 8220, 8262, 9534,3.4314026832580566,blue
93, 8280, 8191, 8133, 8085, 8157, 8151, 8158, 8177, 8170, 8181, 8089, 8145, 8297, 9682,3.439296007156372,blue
94, 8077, 8155, 8189, 8195, 8165, 8166, 8168, 8173, 8179, 8185, 8227, 8203, 8272, 9550,3.4455065727233887,blue
95, 8119, 8161, 8171, 8171, 8163, 8164, 8166, 8179, 8182, 8186, 8199, 8191, 8275, 9590,3.453427791595459,blue
96, 8273, 8200, 8144, 8108, 8165, 8148, 8158, 8174, 8166, 8183, 8098, 8150, 8306, 9703,3.461352825164795,blue
97, 8052, 8146, 8197, 8232, 8184, 8187, 8172, 8165, 8194, 8191, 8225, 8207, 8264, 9541,3.4708330631256104,blue
98, 8289, 8186, 8127, 8085, 8165, 8156, 8154, 8181, 8168, 8181, 8088, 8137, 8299, 9687,3.4787955284118652,blue
99, 8118, 8171, 8183, 8186, 8167, 8171, 8163, 8172, 8174, 8182, 8200, 8199, 8282, 9578,3.486772060394287,blue
100, 8090, 8164, 8179, 8180, 8168, 8169, 8169, 8169, 8188, 8193, 8203, 8200, 8275, 9576,3.4946277141571045,blue
101, 8297, 8198, 8142, 8095, 8165, 8143, 8158, 8171, 8170, 8193, 8086, 8143, 8304, 9703,3.5025975704193115,blue
102, 8065, 8145, 8199, 8227, 8175, 8181, 8170, 8166, 8197, 8193, 8240, 8220, 8259, 9514,3.5105395317077637,blue
103, 8251, 8187, 8134, 8086, 8161, 8153, 8159, 8179, 8171, 8182, 8118, 8161, 8291, 9659,3.5170207023620605,blue
104, 8135, 8176, 8182, 8182, 8173, 8167, 8169, 8172, 8165, 8186, 8180, 8188, 8284, 9631,3.524465322494507,blue
105, 8093, 8156, 8189, 8210, 8172, 8177, 8175, 8177, 8183, 8187, 8199, 8188, 8274, 9602,3.5324478149414062,blue
106, 8306, 8197, 8140, 8086, 8160, 8149, 8160, 8176, 8161, 8178, 8086, 8137, 8307, 9695,3.540273427963257,blue
107, 8040, 8141, 8205, 8221, 8173, 8181, 8170, 8161, 8187, 8187, 8249, 8223, 8258, 9504,3.5483529567718506,blue
108, 8228, 8176, 8148, 8111, 8160, 8155, 8158, 8176, 8174, 8183, 8129, 8158, 8291, 9674,3.5572092533111572,blue
109, 8187, 8177, 8186, 8184, 8172, 8169, 8166, 8177, 8173, 8189, 8163, 8174, 8292, 9653,3.565202474594116,blue
110, 8077, 8152, 8188, 8211, 8177, 8184, 8175, 8172, 8191, 8195, 8197, 8198, 8263, 9558,3.5731637477874756,blue
111, 8295, 8200, 8116, 8065, 8165, 8143, 8153, 8172, 8163, 8181, 8057, 8133, 8301, 9714,3.579477310180664,blue
112, 8065, 8154, 8191, 8230, 8181, 8179, 8169, 8165, 8188, 8187, 8225, 8216, 8272, 9555,3.5873465538024902,blue
113, 8203, 8178, 8146, 8124, 8163, 8161, 8167, 8172, 8182, 8188, 8141, 8177, 8294, 9635,3.595480442047119,blue
114, 8166, 8186, 8157, 8127, 8160, 8157, 8162, 8163, 8171, 8187, 8158, 8185, 8287, 9607,3.6034436225891113,blue
115, 8057, 8153, 8188, 8210, 8173, 8181, 8167, 8169, 8188, 8187, 8238, 8217, 8259, 9532,3.6124067306518555,blue
116, 8310, 8188, 8144, 8110, 8162, 8155, 8155, 8183, 8165, 8183, 8091, 8140, 8309, 9728,3.6203112602233887,blue
117, 8062, 8142, 8209, 8251, 8172, 8181, 8174, 8171, 8187, 8196, 8220, 8195, 8273, 9576,3.628384828567505,blue
118, 8197, 8174, 8148, 8129, 8163, 8156, 8163, 8178, 8180, 8191, 8135, 8156, 8284, 9635,3.6362054347991943,blue
119, 8238, 8192, 8145, 8112, 8165, 8156, 8158, 8177, 8169, 8186, 8131, 8173, 8293, 9628,3.644179105758667,blue
120, 8047, 8145, 8186, 8217, 8171, 8179, 8173, 8166, 8190, 8193, 8243, 8224, 8260, 9508,3.6503889560699463,blue
121, 8273, 8193, 8138, 8093, 8162, 8140, 8154, 8169, 8160, 8184, 8099, 8142, 8303, 9708,3.6584885120391846,blue
122, 8054, 8157, 8210, 8229, 8180, 8181, 8162, 8166, 8177, 8190, 8229, 8206, 8273, 9581,3.6663589477539062,blue
123, 8159, 8169, 8164, 8156, 8170, 8172, 8164, 8176, 8177, 8189, 8167, 8172, 8276, 9635,3.6743290424346924,blue
124, 8261, 8191, 8153, 8127, 8169, 8155, 8166, 8173, 8159, 8186, 8119, 8151, 8290, 9682,3.6822495460510254,blue
125, 8041, 8144, 8206, 8229, 8177, 8187, 8176, 8169, 8188, 8196, 8236, 8211, 8257, 9523,3.690474510192871,blue
126, 8271, 8192, 8130, 8074, 8155, 8151, 8156, 8172, 8171, 8188, 8088, 8140, 8300, 9691,3.69923996925354,blue
127, 8116, 8164, 8177, 8191, 8168, 8169, 8172, 8158, 8181, 8186, 8207, 8203, 8272, 9584,3.7071406841278076,blue
238, 8162, 8167, 8156, 8147, 8166, 8164, 8168, 8171, 8180, 8186, 8177, 8190, 8276, 9607,3.7134478092193604,blue
0, 8237, 8197, 8155, 8113, 8160, 8152, 8151, 8173, 8162, 8181, 8126, 8164, 8306, 9675,3.7229113578796387,blue
1, 8004, 8146, 8215, 8256, 8171, 8185, 8168, 8164, 8194, 8184, 8258, 8228, 8263, 9537,3.729384660720825,blue
2, 8278, 8189, 8133, 8098, 8163, 8150, 8164, 8177, 8170, 8180, 8090, 8145, 8295, 9711,3.7373642921447754,blue
3, 8143, 8166, 8178, 8186, 8183, 8172, 8174, 8168, 8174, 8187, 8179, 8187, 8279, 9602,3.746183395385742,blue
4, 8141, 8157, 8160, 8166, 8176, 8173, 8170, 8169, 8185, 8188, 8161, 8177, 8274, 9607,3.7540009021759033,blue
5, 8280, 8190, 8127, 8094, 8162, 8149, 8155, 8169, 8166, 8180, 8077, 8139, 8299, 9692,3.76175594329834,blue
6, 8009, 8142, 8196, 8234, 8173, 8181, 8169, 8163, 8192, 8186, 8252, 8221, 8259, 9506,3.7696235179901123,blue
7, 8216, 8186, 8138, 8086, 8163, 8147, 8157, 8176, 8170, 8181, 8127, 8154, 8296, 9685,3.777573347091675,blue
8, 8109, 8170, 8184, 8176, 8176, 8162, 8164, 8169, 8171, 8188, 8196, 8199, 8276, 9604,3.785445213317871,blue
9, 8097, 8155, 8182, 8196, 8172, 8172, 8160, 8170, 8185, 8191, 8207, 8209, 8267, 9563,3.793201446533203,blue
10, 8308, 8196, 8146, 8103, 8160, 8147, 8145, 8171, 8157, 8183, 8095, 8140, 8316, 9734,3.801084518432617,blue
11, 8053, 8145, 8211, 8248, 8177, 8185, 8172, 8163, 8181, 8191, 8237, 8199, 8272, 9585,3.8088061809539795,blue
12, 8250, 8184, 8135, 8109, 8164, 8161, 8165, 8174, 8172, 8185, 8093, 8140, 8291, 9695,3.8165881633758545,blue
13, 8182, 8177, 8164, 8164, 8165, 8166, 8162, 8172, 8175, 8188, 8146, 8178, 8283, 9619,3.8242833614349365,blue
14, 8084, 8150, 8182, 8197, 8167, 8173, 8166, 8173, 8189, 8192, 8215, 8207, 8267, 9551,3.832329273223877,blue
15, 8268, 8195, 8131, 8080, 8163, 8143, 8152, 8171, 8165, 8179, 8101, 8155, 8305, 9698,3.8402040004730225,blue
16, 8028, 8152, 8199, 8239, 8183, 8179, 8170, 8166, 8191, 8185, 8246, 8223, 8265, 9542,3.8479745388031006,blue
17, 8235, 8182, 8157, 8137, 8169, 8159, 8162, 8183, 8176, 8183, 8132, 8152, 8295, 9674,3.8555996417999268,blue
18, 8217, 8178, 8182, 8174, 8169, 8172, 8162, 8171, 8173, 8185, 8149, 8166, 8296, 9662,3.863562822341919,blue
19, 8074, 8148, 8181, 8208, 8171, 8190, 8169, 8166, 8193, 8191, 8210, 8206, 8265, 9569,3.871431589126587,blue
20, 8267, 8198, 8117, 8059, 8157, 8144, 8158, 8174, 8160, 8182, 8091, 8147, 8302, 9689,3.879361629486084,blue
21, 8028, 8148, 8205, 8216, 8175, 8174, 8174, 8162, 8180, 8189, 8256, 8227, 8267, 9514,3.8873417377471924,blue
22, 8217, 8173, 8164, 8135, 8173, 8164, 8160, 8170, 8174, 8185, 8144, 8176, 8288, 9648,3.8954102993011475,blue
23, 8248, 8189, 8161, 8147, 8174, 8166, 8157, 8170, 8165, 8184, 8119, 8162, 8296, 9678,3.903261184692383,blue
24, 8051, 8150, 8187, 8215, 8169, 8185, 8169, 8166, 8189, 8193, 8222, 8209, 8261, 9533,3.9111430644989014,blue
25, 8259, 8196, 8133, 8069, 8154, 8147, 8153, 8169, 8164, 8183, 8105, 8160, 8300, 9670,3.9190969467163086,blue
26, 8045, 8159, 8206, 8225, 8180, 8178, 8165, 8167, 8183, 8184, 8250, 8232, 8269, 9539,3.9272053241729736,blue
27, 8180, 8171, 8157, 8154, 8174, 8167, 8158, 8180, 8180, 8186, 8154, 8172, 8283, 9634,3.93514347076416,blue
28, 8251, 8186, 8143, 8121, 8166, 8159, 8160, 8171, 8165, 8183, 8103, 8154, 8297, 9660,3.943232536315918,blue
29, 8042, 8144, 8190, 8216, 8171, 8182, 8180, 8168, 8191, 8185, 8238, 8226, 8261, 9513,3.9511454105377197,blue
30, 8275, 8192, 8146, 8089, 8156, 8142, 8156, 8177, 8166, 8180, 8115, 8150, 8303, 9711,3.959306001663208,blue
31, 8078, 8152, 8214, 8226, 8169, 8173, 8163, 8161, 8177, 8187, 8231, 8200, 8278, 9593,3.967278480529785,blue
32, 8148, 8165, 8162, 8157, 8168, 8171, 8167, 8170, 8182, 8186, 8169, 8174, 8287, 9626,3.975294589996338,blue
33, 8258, 8201, 8139, 8106, 8172, 8155, 8162, 8173, 8170, 8184, 8104, 8149, 8305, 9697,3.98154616355896,blue
34, 8050, 8149, 8205, 8234, 8181, 8184, 8170, 8164, 8195, 8189, 8228, 8208, 8258, 9541,3.9894216060638428,blue
35, 8311, 8189, 8136, 8087, 8161, 8152, 8156, 8170, 8164, 8180, 8088, 8140, 8294, 9704,3.997354030609131,blue
36, 8144, 8164, 8178, 8189, 8167, 8178, 8172, 8163, 8175, 8190, 8208, 8210, 8276, 9597,4.006812572479248,blue
37, 8120, 8162, 8159, 8153, 8162, 8170, 8171, 8170, 8186, 8192, 8185, 8201, 8276, 9606,4.014557361602783,blue
38, 8232, 8191, 8140, 8092, 8162, 8140, 8154, 8171, 8162, 8183, 8108, 8160, 8302, 9690,4.022560119628906,blue
39, 8017, 8142, 8202, 8232, 8179, 8176, 8170, 8167, 8184, 8190, 8265, 8229, 8258, 9525,4.030528783798218,blue
40, 8261, 8191, 8142, 8098, 8161, 8154, 8164, 8181, 8163, 8185, 8119, 8154, 8294, 9695,4.036957025527954,blue
41, 8101, 8173, 8199, 8208, 8171, 8175, 8172, 8172, 8170, 8190, 8197, 8197, 8282, 9613,4.044834613800049,blue
42, 8072, 8158, 8187, 8201, 8172, 8177, 8169, 8172, 8180, 8192, 8202, 8196, 8275, 9603,4.052699327468872,blue
43, 8286, 8193, 8149, 8104, 8164, 8154, 8157, 8175, 8158, 8183, 8099, 8139, 8305, 9724,4.0604088306427,blue
44, 8044, 8145, 8222, 8254, 8179, 8192, 8171, 8167, 8186, 8188, 8249, 8212, 8261, 9533,4.068449974060059,blue
45, 8263, 8188, 8151, 8115, 8164, 8163, 8152, 8173, 8171, 8181, 8103, 8150, 8302, 9693,4.077372312545776,blue
46, 8214, 8180, 8172, 8173, 8173, 8174, 8160, 8164, 8175, 8184, 8146, 8172, 8299, 9670,4.085247039794922,blue
47, 8145, 8156, 8172, 8187, 8176, 8181, 8174, 8168, 8187, 8189, 8183, 8179, 8272, 9609,4.0931994915008545,blue
48, 8319, 8196, 8131, 8077, 8169, 8151, 8161, 8177, 8160, 8181, 8075, 8132, 8304, 9727,4.101261377334595,blue
49, 8066, 8146, 8197, 8226, 8180, 8186, 8172, 8171, 8191, 8189, 8226, 8212, 8269, 9566,4.1075708866119385,blue
50, 8245, 8178, 8135, 8096, 8161, 8157, 8161, 8176, 8181, 8186, 8109, 8152, 8293, 9686,4.1155431270599365,blue
51, 8176, 8179, 8163, 8142, 8164, 8165, 8166, 8166, 8171, 8185, 8152, 8180, 8283, 9613,4.1233437061309814,blue
52, 8065, 8150, 8176, 8196, 8171, 8184, 8172, 8165, 8187, 8189, 8217, 8215, 8263, 9522,4.132696866989136,blue
53, 8305, 8196, 8122, 8067, 8161, 8146, 8150, 8172, 8162, 8176, 8090, 8150, 8307, 9712,4.140516519546509,blue
54, 8056, 8151, 8197, 8217, 8176, 8180, 8168, 8164, 8184, 8181, 8244, 8230, 8267, 9568,4.148592710494995,blue
55, 8183, 8175, 8149, 8124, 8163, 8164, 8166, 8174, 8176, 8183, 8149, 8184, 8290, 9659,4.1564781665802,blue
56, 8181, 8180, 8163, 8141, 8160, 8163, 8168, 8168, 8169, 8186, 8168, 8188, 8296, 9645,4.164316892623901,blue
57, 8067, 8152, 8190, 8197, 8168, 8179, 8178, 8164, 8191, 8190, 8252, 8226, 8263, 9552,4.1705310344696045,blue
58, 8282, 8208, 8129, 8056, 8163, 8143, 8158, 8171, 8163, 8181, 8093, 8144, 8308, 9709,4.178307294845581,blue
59, 8023, 8159, 8204, 8222, 8178, 8174, 8168, 8164, 8180, 8189, 8233, 8208, 8274, 9540,4.187565326690674,blue
60, 8195, 8170, 8171, 8157, 8166, 8162, 8168, 8174, 8179, 8185, 8163, 8174, 8278, 9640,4.195453405380249,blue
61, 8270, 8189, 8171, 8146, 8171, 8159, 8167, 8169, 8172, 8182, 8136, 8168, 8293, 9693,4.203435659408569,blue
62, 8059, 8149, 8197, 8222, 8179, 8185, 8172, 8165, 8197, 8191, 8213, 8210, 8270, 9564,4.211450815200806,blue
63, 8289, 8192, 8123, 8074, 8160, 8148, 8157, 8174, 8166, 8181, 8052, 8129, 8306, 9711,4.21930193901062,blue
