COUNTER,F3,FC5,AF3,F7,T7,P7,O1,O2,P8,T8,F8,AF4,FC6,F4,Timestamp,word
112, 6334, 6229, 6277, 6704, 6236, 6264, 6259, 6222, 6229, 6223, 6244, 6253, 6416, 8009,0.005814075469970703,XXXXX
113, 6256, 6247, 6280, 6760, 6271, 6280, 6266, 6214, 6224, 6226, 6233, 6223, 6370, 7946,0.013451576232910156,SQUEEZE
114, 6409, 6241, 6193, 6727, 6193, 6201, 6167, 6285, 6249, 6235, 6260, 6285, 6516, 8133,0.021224021911621094,SQUEEZE
115, 6247, 6245, 6336, 6921, 6270, 6300, 6277, 6185, 6214, 6222, 6239, 6228, 6339, 7885,0.029180049896240234,SQUEEZE
116, 6366, 6248, 6199, 6683, 6226, 6195, 6178, 6271, 6253, 6235, 6252, 6264, 6464, 8076,0.038472652435302734,SQUEEZE
117, 6349, 6226, 6230, 6787, 6229, 6256, 6232, 6230, 6232, 6232, 6259, 6259, 6445, 8033,0.04642343521118164,SQUEEZE
118, 6256, 6235, 6265, 6930, 6272, 6283, 6272, 6194, 6221, 6231, 6242, 6230, 6365, 7929,0.0541989803314209,SQUEEZE
119, 6417, 6251, 6203, 6704, 6217, 6212, 6202, 6295, 6268, 6246, 6265, 6289, 6526, 8139,0.060461997985839844,SQUEEZE
120, 6268, 6259, 6348, 6790, 6290, 6330, 6305, 6212, 6230, 6232, 6250, 6231, 6373, 7921,0.06824684143066406,SQUEEZE
121, 6368, 6259, 6224, 6682, 6239, 6217, 6186, 6283, 6259, 6240, 6264, 6276, 6476, 8078,0.07764410972595215,SQUEEZE
122, 6363, 6247, 6267, 6842, 6229, 6243, 6224, 6255, 6261, 6245, 6267, 6282, 6466, 8036,0.08545184135437012,SQUEEZE
123, 6235, 6256, 6314, 6961, 6280, 6290, 6282, 6201, 6236, 6240, 6246, 6229, 6354, 7896,0.09326839447021484,SQUEEZE
124, 6419, 6253, 6188, 6674, 6211, 6193, 6180, 6305, 6269, 6256, 6276, 6297, 6528, 8147,0.1010441780090332,SQUEEZE
125, 6287, 6251, 6333, 6783, 6283, 6314, 6308, 6214, 6234, 6250, 6260, 6249, 6376, 7921,0.1088716983795166,SQUEEZE
126, 6348, 6267, 6246, 6730, 6259, 6248, 6238, 6280, 6258, 6252, 6263, 6271, 6452, 8042,0.1166532039642334,SQUEEZE
127, 6387, 6261, 6263, 6819, 6243, 6254, 6228, 6293, 6263, 6255, 6276, 6291, 6495, 8083,0.12444400787353516,SQUEEZE
239, 6263, 6263, 6341, 6957, 6301, 6291, 6274, 6227, 6245, 6254, 6259, 6242, 6369, 7909,0.13228678703308105,SQUEEZE
0, 6440, 6267, 6204, 6699, 6224, 6195, 6177, 6314, 6282, 6263, 6285, 6308, 6533, 8144,0.140153169631958,SQUEEZE
1, 6286, 6261, 6311, 6835, 6286, 6339, 6312, 6210, 6240, 6250, 6266, 6257, 6387, 7942,0.14812636375427246,SQUEEZE
2, 6322, 6267, 6244, 6778, 6269, 6266, 6249, 6259, 6266, 6261, 6268, 6268, 6442, 8030,0.1559462547302246,SQUEEZE
3, 6421, 6275, 6277, 6772, 6239, 6238, 6227, 6301, 6290, 6263, 6289, 6308, 6519, 8103,0.16367411613464355,SQUEEZE
4, 6264, 6283, 6371, 6887, 6312, 6326, 6314, 6233, 6251, 6251, 6265, 6251, 6361, 7888,0.1714773178100586,SQUEEZE
5, 6420, 6271, 6201, 6681, 6234, 6214, 6190, 6325, 6285, 6272, 6291, 6305, 6526, 8125,0.17956042289733887,SQUEEZE
6, 6317, 6259, 6311, 6931, 6282, 6300, 6280, 6234, 6259, 6268, 6282, 6273, 6415, 7963,0.18724799156188965,SQUEEZE
7, 6328, 6273, 6277, 6903, 6289, 6264, 6253, 6267, 6272, 6266, 6276, 6280, 6436, 8014,0.1950693130493164,SQUEEZE
8, 6431, 6279, 6258, 6715, 6255, 6265, 6244, 6317, 6289, 6272, 6301, 6315, 6534, 8128,0.20302271842956543,SQUEEZE
9, 6271, 6282, 6358, 6834, 6328, 6355, 6338, 6232, 6253, 6262, 6277, 6259, 6376, 7906,0.21087908744812012,SQUEEZE
10, 6428, 6278, 6225, 6728, 6249, 6225, 6208, 6333, 6299, 6276, 6291, 6325, 6538, 8140,0.21884679794311523,SQUEEZE
11, 6336, 6280, 6351, 6933, 6291, 6318, 6295, 6263, 6274, 6271, 6291, 6290, 6441, 7985,0.22672390937805176,SQUEEZE
12, 6321, 6294, 6310, 6867, 6304, 6288, 6274, 6272, 6269, 6274, 6293, 6277, 6425, 7979,0.23623299598693848,SQUEEZE
13, 6455, 6278, 6229, 6699, 6241, 6239, 6229, 6317, 6289, 6287, 6312, 6329, 6545, 8147,0.242171049118042,SQUEEZE
14, 6272, 6279, 6351, 6904, 6324, 6357, 6350, 6212, 6257, 6277, 6282, 6264, 6383, 7917,0.2519032955169678,SQUEEZE
15, 6410, 6294, 6241, 6764, 6271, 6247, 6235, 6324, 6303, 6289, 6303, 6322, 6536, 8128,0.2582271099090576,SQUEEZE
16, 6361, 6291, 6347, 6850, 6296, 6314, 6294, 6285, 6287, 6288, 6306, 6308, 6467, 8013,0.2662622928619385,SQUEEZE
17, 6315, 6295, 6330, 6801, 6317, 6311, 6291, 6269, 6281, 6287, 6294, 6283, 6426, 7966,0.27400660514831543,SQUEEZE
18, 6460, 6293, 6240, 6726, 6255, 6250, 6229, 6336, 6312, 6296, 6315, 6340, 6569, 8153,0.28179216384887695,SQUEEZE
19, 6284, 6291, 6369, 7031, 6333, 6364, 6354, 6242, 6268, 6286, 6294, 6282, 6396, 7911,0.28949999809265137,SQUEEZE
20, 6415, 6295, 6247, 6802, 6281, 6258, 6251, 6328, 6300, 6294, 6313, 6329, 6525, 8110,0.2973337173461914,SQUEEZE
21, 6401, 6303, 6332, 6770, 6298, 6317, 6303, 6296, 6300, 6295, 6312, 6322, 6489, 8049,0.3050987720489502,SQUEEZE
22, 6314, 6313, 6359, 6823, 6338, 6336, 6321, 6284, 6297, 6301, 6296, 6292, 6420, 7960,0.31447649002075195,SQUEEZE
23, 6464, 6304, 6257, 6752, 6266, 6253, 6231, 6365, 6326, 6314, 6323, 6352, 6575, 8161,0.32074952125549316,SQUEEZE
24, 6301, 6308, 6380, 7027, 6338, 6360, 6341, 6254, 6283, 6295, 6301, 6290, 6409, 7912,0.3286170959472656,SQUEEZE
25, 6413, 6307, 6266, 6828, 6292, 6263, 6247, 6329, 6312, 6304, 6315, 6327, 6523, 8090,0.3365178108215332,SQUEEZE
26, 6419, 6301, 6324, 6746, 6299, 6318, 6296, 6312, 6309, 6306, 6325, 6332, 6518, 8080,0.3442716598510742,SQUEEZE
27, 6298, 6315, 6369, 6832, 6355, 6361, 6346, 6269, 6292, 6298, 6305, 6293, 6414, 7943,0.35213303565979004,SQUEEZE
28, 6469, 6321, 6263, 6767, 6281, 6267, 6244, 6366, 6333, 6310, 6332, 6357, 6589, 8168,0.3615248203277588,SQUEEZE
29, 6328, 6319, 6398, 6980, 6347, 6375, 6347, 6274, 6299, 6303, 6314, 6302, 6433, 7945,0.3693387508392334,SQUEEZE
30, 6406, 6315, 6279, 6786, 6306, 6278, 6258, 6337, 6323, 6310, 6317, 6331, 6507, 8071,0.37712526321411133,SQUEEZE
31, 6436, 6315, 6307, 6784, 6294, 6305, 6295, 6323, 6318, 6312, 6326, 6345, 6536, 8083,0.3850400447845459,SQUEEZE
32, 6296, 6324, 6388, 6942, 6361, 6370, 6366, 6257, 6294, 6305, 6307, 6293, 6410, 7921,0.39129161834716797,SQUEEZE
33, 6471, 6321, 6259, 6755, 6289, 6270, 6250, 6377, 6343, 6317, 6338, 6364, 6582, 8171,0.3990976810455322,SQUEEZE
34, 6345, 6328, 6387, 6903, 6353, 6392, 6365, 6298, 6309, 6308, 6324, 6319, 6451, 7970,0.4071540832519531,SQUEEZE
35, 6395, 6334, 6309, 6791, 6326, 6314, 6295, 6341, 6325, 6319, 6323, 6332, 6507, 8054,0.41641807556152344,SQUEEZE
36, 6458, 6318, 6310, 6817, 6293, 6298, 6281, 6354, 6334, 6326, 6341, 6360, 6553, 8102,0.42429351806640625,SQUEEZE
37, 6303, 6330, 6397, 7017, 6366, 6375, 6360, 6278, 6305, 6315, 6323, 6305, 6409, 7918,0.43210721015930176,SQUEEZE
38, 6481, 6337, 6264, 6766, 6294, 6280, 6266, 6379, 6345, 6328, 6347, 6371, 6595, 8182,0.43990635871887207,SQUEEZE
39, 6369, 6327, 6384, 6853, 6351, 6395, 6388, 6299, 6309, 6325, 6339, 6329, 6474, 7997,0.44768238067626953,SQUEEZE
40, 6381, 6335, 6328, 6813, 6352, 6338, 6330, 6330, 6327, 6331, 6339, 6331, 6494, 8042,0.4542551040649414,SQUEEZE
41, 6477, 6336, 6310, 6833, 6310, 6309, 6292, 6363, 6348, 6338, 6353, 6375, 6580, 8143,0.4622507095336914,SQUEEZE
42, 6323, 6341, 6415, 7015, 6375, 6395, 6380, 6288, 6314, 6329, 6326, 6322, 6428, 7925,0.4710521697998047,SQUEEZE
43, 6483, 6338, 6277, 6760, 6302, 6284, 6261, 6390, 6352, 6338, 6353, 6375, 6596, 8165,0.47860217094421387,SQUEEZE
44, 6381, 6330, 6378, 6880, 6351, 6384, 6363, 6298, 6322, 6328, 6346, 6335, 6489, 8018,0.48636674880981445,SQUEEZE
45, 6372, 6340, 6338, 6888, 6360, 6348, 6343, 6313, 6331, 6333, 6337, 6337, 6484, 8030,0.49410581588745117,SQUEEZE
46, 6502, 6348, 6308, 6806, 6307, 6305, 6289, 6388, 6359, 6345, 6364, 6394, 6607, 8172,0.5033838748931885,SQUEEZE
47, 6326, 6355, 6438, 6914, 6390, 6417, 6396, 6301, 6324, 6338, 6343, 6327, 6443, 7938,0.5110926628112793,SQUEEZE
48, 6471, 6352, 6292, 6727, 6321, 6305, 6289, 6389, 6362, 6349, 6361, 6377, 6587, 8158,0.5173261165618896,SQUEEZE
49, 6412, 6344, 6376, 6995, 6339, 6364, 6347, 6322, 6339, 6344, 6363, 6360, 6508, 8042,0.5251963138580322,SQUEEZE
50, 6370, 6351, 6359, 7027, 6362, 6349, 6328, 6325, 6336, 6347, 6357, 6345, 6484, 8020,0.5331010818481445,SQUEEZE
51, 6519, 6355, 6300, 6750, 6321, 6318, 6298, 6408, 6369, 6353, 6378, 6400, 6626, 8199,0.5424013137817383,SQUEEZE
52, 6353, 6359, 6434, 6887, 6405, 6440, 6433, 6315, 6334, 6338, 6353, 6336, 6454, 7954,0.550182580947876,SQUEEZE
53, 6482, 6354, 6301, 6785, 6332, 6315, 6308, 6398, 6368, 6353, 6371, 6383, 6591, 8155,0.5579092502593994,SQUEEZE
54, 6441, 6350, 6386, 6926, 6347, 6375, 6359, 6352, 6357, 6354, 6371, 6373, 6540, 8064,0.5657515525817871,SQUEEZE
55, 6359, 6366, 6395, 6936, 6393, 6389, 6370, 6333, 6350, 6353, 6357, 6346, 6472, 7987,0.5736532211303711,SQUEEZE
56, 6523, 6366, 6293, 6762, 6319, 6308, 6291, 6404, 6377, 6363, 6383, 6411, 6630, 8210,0.5816795825958252,SQUEEZE
57, 6364, 6360, 6422, 6998, 6390, 6424, 6427, 6298, 6335, 6349, 6358, 6351, 6465, 7972,0.5882449150085449,SQUEEZE
58, 6474, 6363, 6309, 6857, 6354, 6329, 6329, 6392, 6371, 6359, 6371, 6389, 6588, 8134,0.5962486267089844,SQUEEZE
59, 6470, 6365, 6377, 6841, 6360, 6374, 6350, 6379, 6366, 6359, 6378, 6394, 6574, 8091,0.6056480407714844,SQUEEZE
60, 6364, 6375, 6412, 6868, 6397, 6396, 6369, 6337, 6354, 6357, 6363, 6357, 6469, 7973,0.6121957302093506,SQUEEZE
61, 6531, 6370, 6303, 6773, 6322, 6306, 6281, 6423, 6392, 6375, 6390, 6413, 6632, 8191,0.6202292442321777,SQUEEZE
62, 6371, 6366, 6441, 7062, 6396, 6427, 6411, 6321, 6347, 6362, 6367, 6353, 6476, 7959,0.6295351982116699,SQUEEZE
63, 6461, 6376, 6334, 6892, 6362, 6341, 6330, 6389, 6377, 6368, 6378, 6387, 6573, 8113,0.6375687122344971,SQUEEZE
64, 6502, 6376, 6375, 6824, 6364, 6383, 6367, 6389, 6379, 6373, 6399, 6399, 6594, 8133,0.6454150676727295,SQUEEZE
65, 6367, 6381, 6446, 6903, 6428, 6442, 6435, 6344, 6352, 6366, 6380, 6354, 6472, 7979,0.6517021656036377,SQUEEZE
66, 6522, 6378, 6317, 6774, 6336, 6316, 6302, 6430, 6392, 6380, 6399, 6426, 6637, 8194,0.6594619750976562,SQUEEZE
67, 6385, 6374, 6435, 7044, 6382, 6403, 6382, 6314, 6361, 6377, 6381, 6380, 6487, 7966,0.6672868728637695,SQUEEZE
68, 6455, 6385, 6348, 6920, 6363, 6347, 6331, 6373, 6383, 6380, 6389, 6399, 6556, 8087,0.6756534576416016,SQUEEZE
69, 6514, 6381, 6365, 6805, 6358, 6385, 6375, 6393, 6388, 6378, 6405, 6415, 6610, 8148,0.683164119720459,SQUEEZE
70, 6360, 6380, 6443, 6925, 6428, 6451, 6445, 6328, 6361, 6374, 6375, 6362, 6471, 7957,0.6918618679046631,SQUEEZE
71, 6531, 6387, 6316, 6805, 6345, 6327, 6306, 6449, 6411, 6389, 6397, 6436, 6642, 8193,0.699263334274292,SQUEEZE
72, 6412, 6395, 6460, 7000, 6406, 6440, 6418, 6367, 6379, 6379, 6391, 6386, 6510, 7999,0.7088017463684082,SQUEEZE
73, 6444, 6398, 6394, 6874, 6404, 6375, 6370, 6392, 6384, 6388, 6396, 6390, 6551, 8066,0.7153255939483643,SQUEEZE
74, 6533, 6384, 6365, 6840, 6367, 6354, 6347, 6414, 6399, 6394, 6413, 6431, 6635, 8159,0.7229259014129639,SQUEEZE
75, 6359, 6390, 6452, 7068, 6437, 6455, 6442, 6329, 6367, 6379, 6380, 6367, 6471, 7943,0.7309887409210205,SQUEEZE
76, 6527, 6402, 6328, 6842, 6362, 6351, 6328, 6439, 6403, 6396, 6404, 6432, 6643, 8185,0.7386789321899414,SQUEEZE
77, 6441, 6403, 6468, 6923, 6418, 6452, 6429, 6376, 6379, 6395, 6406, 6408, 6552, 8033,0.7465360164642334,SQUEEZE
78, 6440, 6406, 6407, 6868, 6422, 6406, 6392, 6393, 6391, 6393, 6403, 6403, 6550, 8061,0.7549591064453125,SQUEEZE
79, 6547, 6392, 6343, 6856, 6357, 6353, 6338, 6424, 6410, 6398, 6421, 6437, 6638, 8179,0.7621395587921143,SQUEEZE
80, 6369, 6391, 6460, 7103, 6432, 6446, 6437, 6333, 6375, 6391, 6388, 6375, 6475, 7946,0.771676778793335,SQUEEZE
81, 6542, 6404, 6337, 6853, 6378, 6353, 6344, 6447, 6411, 6403, 6409, 6443, 6646, 8191,0.7778332233428955,SQUEEZE
82, 6478, 6404, 6446, 6895, 6420, 6460, 6451, 6379, 6384, 6397, 6413, 6418, 6565, 8064,0.7852702140808105,SQUEEZE
83, 6423, 6410, 6422, 6901, 6432, 6434, 6422, 6374, 6397, 6398, 6406, 6394, 6544, 8039,0.7945773601531982,SQUEEZE
84, 6555, 6413, 6366, 6854, 6366, 6365, 6340, 6450, 6436, 6407, 6425, 6449, 6667, 8208,0.8023788928985596,SQUEEZE
85, 6390, 6424, 6496, 7063, 6447, 6465, 6447, 6364, 6391, 6397, 6402, 6394, 6487, 7969,0.8102207183837891,SQUEEZE
86, 6535, 6417, 6353, 6830, 6387, 6351, 6344, 6447, 6418, 6409, 6428, 6446, 6639, 8183,0.818051815032959,SQUEEZE
87, 6486, 6395, 6428, 6916, 6408, 6433, 6430, 6387, 6396, 6407, 6427, 6428, 6591, 8093,0.8257884979248047,SQUEEZE
88, 6409, 6413, 6440, 6973, 6449, 6450, 6447, 6380, 6401, 6409, 6407, 6405, 6530, 8021,0.8335859775543213,SQUEEZE
89, 6566, 6425, 6374, 6841, 6382, 6378, 6360, 6465, 6442, 6419, 6435, 6468, 6675, 8217,0.841360330581665,SQUEEZE
90, 6405, 6424, 6507, 7011, 6454, 6478, 6458, 6365, 6398, 6409, 6419, 6403, 6509, 7983,0.8491532802581787,SQUEEZE
91, 6528, 6421, 6370, 6825, 6400, 6371, 6357, 6449, 6428, 6425, 6433, 6445, 6633, 8167,0.857064962387085,SQUEEZE
92, 6513, 6409, 6420, 6943, 6401, 6422, 6412, 6406, 6413, 6422, 6432, 6446, 6602, 8118,0.864924430847168,SQUEEZE
93, 6415, 6422, 6440, 7053, 6448, 6442, 6436, 6372, 6397, 6410, 6416, 6410, 6525, 8018,0.8726041316986084,SQUEEZE
94, 6583, 6427, 6355, 6827, 6389, 6379, 6361, 6471, 6439, 6422, 6445, 6470, 6695, 8233,0.8806710243225098,SQUEEZE
95, 6421, 6427, 6509, 6960, 6465, 6508, 6492, 6371, 6403, 6417, 6425, 6410, 6522, 7999,0.8884196281433105,SQUEEZE
96, 6521, 6431, 6390, 6848, 6411, 6392, 6385, 6442, 6432, 6429, 6435, 6448, 6622, 8150,0.8967928886413574,SQUEEZE
97, 6541, 6426, 6428, 6925, 6403, 6416, 6406, 6434, 6429, 6429, 6445, 6457, 6637, 8128,0.9044017791748047,SQUEEZE
98, 6411, 6434, 6485, 7017, 6464, 6466, 6451, 6384, 6411, 6421, 6424, 6405, 6522, 7985,0.9124128818511963,SQUEEZE
99, 6586, 6433, 6363, 6811, 6387, 6374, 6354, 6482, 6446, 6436, 6451, 6473, 6692, 8231,0.9204132556915283,SQUEEZE
100, 6437, 6431, 6496, 7003, 6466, 6507, 6501, 6390, 6401, 6429, 6438, 6425, 6544, 8011,0.9284842014312744,SQUEEZE
101, 6501, 6440, 6409, 6904, 6446, 6425, 6417, 6453, 6428, 6433, 6445, 6451, 6619, 8128,0.9365806579589844,SQUEEZE
102, 6561, 6436, 6436, 6911, 6418, 6418, 6387, 6464, 6445, 6431, 6456, 6475, 6656, 8171,0.944110631942749,SQUEEZE
103, 6416, 6442, 6508, 6994, 6478, 6482, 6461, 6400, 6420, 6425, 6431, 6422, 6520, 7987,0.9519658088684082,SQUEEZE
104, 6580, 6438, 6368, 6803, 6393, 6380, 6376, 6488, 6452, 6440, 6455, 6487, 6693, 8217,0.9599204063415527,SQUEEZE
105, 6455, 6435, 6492, 7096, 6452, 6488, 6477, 6389, 6419, 6429, 6444, 6440, 6553, 8020,0.9677081108093262,SQUEEZE
106, 6502, 6448, 6422, 7013, 6451, 6428, 6410, 6441, 6443, 6437, 6448, 6452, 6603, 8105,0.9755828380584717,SQUEEZE
107, 6587, 6450, 6421, 6853, 6423, 6432, 6418, 6474, 6457, 6449, 6463, 6485, 6683, 8187,0.983604907989502,SQUEEZE
108, 6420, 6455, 6516, 6995, 6496, 6518, 6514, 6397, 6423, 6437, 6438, 6424, 6524, 7983,0.9915561676025391,SQUEEZE
109, 6588, 6452, 6384, 6853, 6413, 6386, 6374, 6499, 6463, 6447, 6470, 6492, 6686, 8219,0.9993829727172852,SQUEEZE
110, 6483, 6447, 6503, 7020, 6456, 6476, 6454, 6414, 6436, 6442, 6457, 6457, 6574, 8040,1.0075559616088867,SQUEEZE
111, 6484, 6456, 6446, 6953, 6467, 6450, 6429, 6439, 6449, 6447, 6449, 6455, 6595, 8078,1.0151140689849854,SQUEEZE
112, 6600, 6452, 6415, 6877, 6426, 6435, 6425, 6484, 6466, 6451, 6478, 6496, 6695, 8202,1.0233025550842285,SQUEEZE
113, 6434, 6456, 6526, 7058, 6496, 6521, 6516, 6397, 6424, 6443, 6454, 6433, 6531, 7980,1.0312073230743408,SQUEEZE
114, 6589, 6461, 6397, 6876, 6416, 6400, 6371, 6502, 6465, 6461, 6469, 6494, 6695, 8216,1.0390963554382324,SQUEEZE
115, 6506, 6464, 6515, 6994, 6456, 6490, 6461, 6439, 6452, 6458, 6465, 6466, 6603, 8071,1.0455420017242432,SQUEEZE
116, 6483, 6471, 6483, 6942, 6479, 6463, 6455, 6444, 6459, 6456, 6462, 6452, 6588, 8065,1.0533440113067627,SQUEEZE
117, 6620, 6454, 6406, 6878, 6424, 6418, 6403, 6489, 6470, 6464, 6484, 6509, 6713, 8229,1.0611956119537354,SQUEEZE
118, 6435, 6453, 6513, 7141, 6504, 6536, 6521, 6388, 6423, 6456, 6454, 6447, 6538, 7985,1.0695109367370605,SQUEEZE
119, 6582, 6467, 6398, 6911, 6446, 6434, 6420, 6498, 6474, 6469, 6474, 6492, 6693, 8201,1.0773346424102783,SQUEEZE
120, 6543, 6473, 6512, 6948, 6478, 6507, 6490, 6457, 6462, 6463, 6477, 6474, 6633, 8114,1.0867137908935547,SQUEEZE
121, 6482, 6483, 6494, 6954, 6496, 6486, 6478, 6448, 6450, 6459, 6465, 6459, 6581, 8063,1.0945541858673096,SQUEEZE
122, 6631, 6474, 6409, 6861, 6419, 6414, 6399, 6507, 6481, 6472, 6487, 6518, 6723, 8235,1.1025090217590332,SQUEEZE
123, 6456, 6469, 6549, 7119, 6503, 6529, 6508, 6404, 6446, 6462, 6463, 6450, 6551, 7993,1.1087260246276855,SQUEEZE
124, 6583, 6470, 6409, 6913, 6447, 6421, 6407, 6509, 6476, 6469, 6481, 6502, 6690, 8205,1.1165056228637695,SQUEEZE
125, 6564, 6477, 6484, 6924, 6461, 6494, 6481, 6477, 6467, 6468, 6487, 6500, 6659, 8141,1.1243000030517578,SQUEEZE
126, 6478, 6487, 6521, 6984, 6505, 6518, 6499, 6448, 6464, 6466, 6474, 6463, 6586, 8039,1.1323091983795166,SQUEEZE
127, 6642, 6469, 6422, 6885, 6427, 6427, 6402, 6534, 6495, 6476, 6496, 6522, 6741, 8246,1.1401829719543457,SQUEEZE
239, 6467, 6475, 6556, 7116, 6507, 6537, 6521, 6431, 6452, 6469, 6471, 6457, 6560, 7999,1.1481587886810303,SQUEEZE
0, 6579, 6487, 6442, 6921, 6464, 6440, 6423, 6508, 6486, 6481, 6489, 6497, 6675, 8177,1.1577036380767822,SQUEEZE
1, 6599, 6469, 6481, 6931, 6462, 6487, 6466, 6484, 6476, 6474, 6499, 6508, 6678, 8170,1.1642274856567383,SQUEEZE
2, 6465, 6472, 6518, 7042, 6520, 6529, 6517, 6438, 6455, 6469, 6475, 6464, 6569, 8033,1.1720881462097168,SQUEEZE
3, 6630, 6487, 6422, 6877, 6445, 6432, 6415, 6545, 6503, 6492, 6499, 6529, 6741, 8264,1.179851770401001,SQUEEZE
4, 6494, 6499, 6577, 7045, 6511, 6544, 6519, 6455, 6474, 6482, 6483, 6476, 6586, 8039,1.1878478527069092,SQUEEZE
5, 6583, 6499, 6465, 6900, 6473, 6451, 6429, 6515, 6498, 6485, 6493, 6507, 6669, 8163,1.1959643363952637,SQUEEZE
6, 6612, 6481, 6475, 6972, 6456, 6470, 6452, 6505, 6494, 6488, 6507, 6522, 6699, 8177,1.2038979530334473,SQUEEZE
7, 6461, 6482, 6551, 7142, 6528, 6539, 6524, 6436, 6464, 6483, 6483, 6469, 6568, 8003,1.2119617462158203,SQUEEZE
8, 6649, 6490, 6431, 6878, 6459, 6437, 6420, 6535, 6505, 6493, 6509, 6537, 6738, 8262,1.2200655937194824,SQUEEZE
9, 6527, 6496, 6557, 6999, 6522, 6546, 6532, 6453, 6475, 6484, 6496, 6492, 6608, 8078,1.2280995845794678,SQUEEZE
10, 6566, 6495, 6476, 6935, 6498, 6481, 6460, 6505, 6499, 6496, 6498, 6508, 6670, 8150,1.2361454963684082,SQUEEZE
11, 6622, 6488, 6478, 6965, 6465, 6482, 6453, 6516, 6503, 6502, 6512, 6526, 6714, 8185,1.2421138286590576,SQUEEZE
12, 6470, 6500, 6562, 7128, 6537, 6551, 6535, 6444, 6469, 6489, 6494, 6468, 6565, 8000,1.2515017986297607,SQUEEZE
13, 6658, 6503, 6432, 6892, 6464, 6441, 6428, 6551, 6516, 6499, 6522, 6546, 6758, 8257,1.2595200538635254,SQUEEZE
14, 6536, 6495, 6549, 7031, 6521, 6559, 6547, 6462, 6483, 6492, 6504, 6506, 6633, 8067,1.2673935890197754,SQUEEZE
15, 6544, 6499, 6483, 6987, 6517, 6500, 6491, 6492, 6491, 6500, 6501, 6499, 6644, 8116,1.2752270698547363,SQUEEZE
16, 6658, 6506, 6484, 6937, 6473, 6463, 6437, 6539, 6519, 6509, 6524, 6540, 6738, 8233,1.2829720973968506,SQUEEZE
17, 6485, 6517, 6598, 7073, 6549, 6560, 6542, 6460, 6488, 6497, 6498, 6483, 6582, 8005,1.2908046245574951,SQUEEZE
18, 6648, 6504, 6427, 6865, 6467, 6450, 6440, 6549, 6516, 6511, 6519, 6544, 6745, 8229,1.2986931800842285,SQUEEZE
19, 6559, 6489, 6529, 7090, 6511, 6543, 6528, 6463, 6487, 6503, 6509, 6512, 6641, 8084,1.3051300048828125,SQUEEZE
20, 6528, 6506, 6516, 7092, 6531, 6516, 6501, 6487, 6501, 6502, 6501, 6511, 6636, 8101,1.3143932819366455,SQUEEZE
21, 6664, 6519, 6473, 6929, 6471, 6479, 6462, 6556, 6527, 6515, 6529, 6563, 6765, 8253,1.3225812911987305,SQUEEZE
22, 6498, 6519, 6591, 7070, 6552, 6584, 6573, 6459, 6488, 6506, 6509, 6490, 6588, 8012,1.3305540084838867,SQUEEZE
23, 6642, 6510, 6457, 6906, 6490, 6456, 6442, 6555, 6530, 6513, 6530, 6542, 6733, 8222,1.3385257720947266,SQUEEZE
24, 6584, 6504, 6540, 7088, 6510, 6516, 6502, 6496, 6509, 6509, 6526, 6533, 6676, 8118,1.3464186191558838,SQUEEZE
25, 6528, 6515, 6520, 7110, 6537, 6521, 6509, 6481, 6501, 6512, 6508, 6512, 6640, 8080,1.3542444705963135,SQUEEZE
26, 6684, 6514, 6460, 6905, 6486, 6487, 6473, 6557, 6532, 6524, 6539, 6561, 6781, 8253,1.362215518951416,SQUEEZE
27, 6522, 6519, 6595, 7062, 6568, 6603, 6596, 6471, 6494, 6519, 6522, 6497, 6610, 8021,1.3696999549865723,SQUEEZE
28, 6639, 6525, 6462, 6944, 6504, 6481, 6470, 6555, 6527, 6527, 6532, 6548, 6736, 8219,1.377610683441162,SQUEEZE
29, 6605, 6523, 6548, 7069, 6518, 6530, 6513, 6513, 6518, 6517, 6535, 6542, 6693, 8144,1.3853602409362793,SQUEEZE
30, 6530, 6535, 6561, 7062, 6559, 6541, 6529, 6499, 6511, 6521, 6525, 6507, 6629, 8065,1.393174409866333,SQUEEZE
31, 6685, 6526, 6453, 6918, 6486, 6479, 6463, 6569, 6538, 6539, 6546, 6571, 6774, 8259,1.401031494140625,SQUEEZE
32, 6514, 6519, 6577, 7187, 6558, 6594, 6584, 6459, 6499, 6519, 6522, 6522, 6603, 8015,1.4088890552520752,SQUEEZE
33, 6635, 6533, 6471, 7001, 6505, 6481, 6473, 6554, 6541, 6523, 6542, 6561, 6739, 8203,1.4168262481689453,SQUEEZE
34, 6631, 6535, 6554, 7000, 6515, 6540, 6520, 6541, 6535, 6531, 6548, 6550, 6721, 8174,1.4242467880249023,SQUEEZE
35, 6522, 6539, 6588, 7069, 6571, 6574, 6558, 6504, 6516, 6530, 6526, 6516, 6615, 8046,1.4323368072509766,SQUEEZE
36, 6700, 6532, 6461, 6922, 6487, 6465, 6452, 6586, 6553, 6538, 6552, 6587, 6789, 8264,1.4402315616607666,SQUEEZE
37, 6523, 6525, 6581, 7168, 6556, 6579, 6569, 6473, 6507, 6525, 6530, 6520, 6631, 8031,1.4481596946716309,SQUEEZE
38, 6611, 6529, 6478, 7003, 6524, 6504, 6492, 6546, 6529, 6539, 6547, 6559, 6730, 8190,1.4561004638671875,SQUEEZE
39, 6657, 6533, 6544, 6969, 6523, 6547, 6531, 6547, 6538, 6544, 6563, 6577, 6743, 8199,1.4642090797424316,SQUEEZE
40, 6516, 6549, 6611, 7088, 6587, 6593, 6584, 6491, 6522, 6534, 6531, 6516, 6610, 8028,1.4721379280090332,SQUEEZE
41, 6692, 6545, 6469, 6929, 6498, 6473, 6456, 6597, 6560, 6548, 6552, 6586, 6789, 8273,1.4802916049957275,SQUEEZE
42, 6561, 6537, 6598, 7135, 6560, 6581, 6559, 6506, 6524, 6542, 6548, 6542, 6649, 8060,1.4881839752197266,SQUEEZE
43, 6618, 6545, 6516, 7016, 6542, 6510, 6490, 6549, 6543, 6545, 6554, 6552, 6720, 8158,1.4966139793395996,SQUEEZE
44, 6670, 6539, 6528, 6950, 6521, 6534, 6516, 6562, 6538, 6542, 6559, 6572, 6765, 8220,1.5031969547271729,SQUEEZE
45, 6518, 6547, 6607, 7088, 6593, 6617, 6604, 6498, 6510, 6539, 6533, 6525, 6619, 8039,1.5107812881469727,SQUEEZE
46, 6706, 6557, 6476, 6940, 6508, 6495, 6475, 6601, 6568, 6559, 6566, 6595, 6807, 8283,1.5189270973205566,SQUEEZE
47, 6578, 6556, 6620, 7118, 6573, 6601, 6583, 6519, 6542, 6549, 6553, 6546, 6669, 8081,1.5274357795715332,SQUEEZE
48, 6587, 6557, 6550, 6984, 6577, 6551, 6541, 6561, 6550, 6555, 6553, 6547, 6681, 8127,1.5356965065002441,SQUEEZE
49, 6687, 6544, 6504, 7005, 6514, 6519, 6508, 6579, 6560, 6561, 6575, 6589, 6776, 8239,1.5432641506195068,SQUEEZE
50, 6527, 6552, 6603, 7287, 6580, 6595, 6587, 6481, 6525, 6546, 6544, 6533, 6635, 8039,1.5511670112609863,SQUEEZE
51, 6693, 6561, 6486, 6984, 6528, 6501, 6488, 6595, 6570, 6557, 6568, 6594, 6796, 8263,1.5591838359832764,SQUEEZE
52, 6595, 6566, 6606, 7020, 6581, 6614, 6603, 6533, 6542, 6556, 6566, 6556, 6687, 8109,1.566948413848877,SQUEEZE
53, 6591, 6577, 6560, 7049, 6575, 6568, 6559, 6550, 6548, 6559, 6559, 6554, 6696, 8139,1.5731468200683594,SQUEEZE
54, 6713, 6561, 6523, 7015, 6519, 6522, 6505, 6604, 6571, 6560, 6577, 6609, 6801, 8267,1.5827829837799072,SQUEEZE
55, 6525, 6562, 6636, 7122, 6609, 6620, 6606, 6510, 6531, 6551, 6550, 6543, 6620, 8023,1.5890915393829346,SQUEEZE
56, 6677, 6568, 6496, 6913, 6546, 6513, 6500, 6596, 6571, 6573, 6574, 6596, 6777, 8258,1.5984911918640137,SQUEEZE
57, 6626, 6562, 6594, 7141, 6577, 6609, 6596, 6538, 6556, 6568, 6571, 6577, 6718, 8165,1.6064426898956299,SQUEEZE
58, 6593, 6571, 6575, 7168, 6595, 6589, 6577, 6554, 6557, 6563, 6562, 6569, 6705, 8148,1.614330768585205,SQUEEZE
59, 6719, 6565, 6525, 6975, 6532, 6530, 6511, 6610, 6582, 6575, 6585, 6617, 6816, 8284,1.6223030090332031,SQUEEZE
60, 6527, 6572, 6652, 7123, 6626, 6637, 6621, 6507, 6546, 6566, 6557, 6542, 6623, 8021,1.6285266876220703,SQUEEZE
61, 6681, 6575, 6506, 6954, 6559, 6529, 6514, 6612, 6586, 6575, 6581, 6603, 6784, 8256,1.6364974975585938,SQUEEZE
62, 6650, 6565, 6583, 7113, 6569, 6598, 6586, 6558, 6560, 6569, 6586, 6594, 6743, 8187,1.6442959308624268,SQUEEZE
63, 6561, 6575, 6590, 7161, 6609, 6590, 6580, 6532, 6548, 6569, 6565, 6555, 6674, 8100,1.6521878242492676,SQUEEZE
64, 6733, 6582, 6524, 6968, 6534, 6525, 6504, 6630, 6596, 6584, 6594, 6622, 6826, 8298,1.6614880561828613,SQUEEZE
65, 6573, 6593, 6670, 7129, 6622, 6657, 6638, 6542, 6565, 6571, 6574, 6564, 6656, 8073,1.6692616939544678,SQUEEZE
66, 6682, 6586, 6526, 6971, 6569, 6537, 6524, 6611, 6593, 6579, 6589, 6601, 6782, 8246,1.6770904064178467,SQUEEZE
67, 6671, 6572, 6575, 7080, 6561, 6566, 6551, 6572, 6579, 6580, 6597, 6599, 6760, 8189,1.6849141120910645,SQUEEZE
68, 6567, 6590, 6606, 7174, 6615, 6602, 6591, 6543, 6567, 6580, 6576, 6561, 6664, 8083,1.692657709121704,SQUEEZE
69, 6752, 6588, 6501, 6941, 6534, 6527, 6518, 6637, 6606, 6590, 6604, 6634, 6843, 8318,1.7005455493927002,SQUEEZE
70, 6594, 6589, 6646, 7095, 6613, 6653, 6644, 6529, 6561, 6575, 6581, 6573, 6687, 8079,1.7084288597106934,SQUEEZE
71, 6676, 6600, 6547, 7013, 6590, 6565, 6552, 6607, 6593, 6584, 6594, 6600, 6781, 8211,1.7165577411651611,SQUEEZE
72, 6709, 6590, 6581, 7101, 6572, 6583, 6567, 6608, 6605, 6588, 6608, 6616, 6799, 8227,1.7244009971618652,SQUEEZE
73, 6572, 6589, 6631, 7178, 6628, 6619, 6608, 6534, 6575, 6577, 6570, 6567, 6662, 8062,1.7323729991912842,SQUEEZE
74, 6779, 6579, 6504, 6926, 6529, 6498, 6480, 6636, 6609, 6591, 6611, 6655, 6859, 8304,1.7400774955749512,SQUEEZE
75, 6635, 6585, 6648, 7158, 6612, 6655, 6640, 6542, 6571, 6587, 6599, 6591, 6724, 8115,1.7478046417236328,SQUEEZE
76, 6622, 6604, 6578, 7115, 6627, 6620, 6598, 6583, 6588, 6594, 6585, 6576, 6738, 8158,1.7557213306427002,SQUEEZE
77, 6811, 6590, 6558, 7071, 6532, 6547, 6525, 6645, 6614, 6605, 6624, 6658, 6879, 8291,1.7637591361999512,SQUEEZE
78, 6633, 6606, 6682, 7218, 6647, 6664, 6655, 6546, 6580, 6585, 6576, 6569, 6702, 8085,1.77020263671875,SQUEEZE
79, 6654, 6611, 6573, 7109, 6637, 6588, 6558, 6600, 6608, 6586, 6581, 6580, 6765, 8200,1.7785723209381104,SQUEEZE
80, 6744, 6580, 6594, 7309, 6573, 6581, 6562, 6581, 6586, 6599, 6612, 6630, 6816, 8239,1.787179946899414,SQUEEZE
81, 6761, 6594, 6567, 7280, 6586, 6579, 6578, 6611, 6589, 6608, 6604, 6623, 6834, 8265,1.795011043548584,SQUEEZE
82, 6767, 6612, 6601, 7069, 6602, 6602, 6589, 6630, 6612, 6605, 6614, 6628, 6843, 8238,1.803145170211792,SQUEEZE
83, 6677, 6616, 6669, 7127, 6660, 6677, 6670, 6561, 6585, 6596, 6588, 6579, 6748, 8154,1.8110764026641846,SQUEEZE
84, 6788, 6604, 6555, 7107, 6588, 6565, 6542, 6649, 6617, 6612, 6614, 6629, 6871, 8295,1.8189773559570312,SQUEEZE
85, 6755, 6602, 6658, 7311, 6607, 6625, 6599, 6587, 6598, 6604, 6615, 6622, 6808, 8138,1.8268439769744873,SQUEEZE
86, 6663, 6627, 6645, 7310, 6699, 6670, 6650, 6560, 6589, 6591, 6572, 6560, 6728, 8176,1.8333070278167725,SQUEEZE
87, 6672, 6613, 6599, 7227, 6658, 6627, 6602, 6608, 6607, 6601, 6606, 6605, 6799, 8310,1.8423025608062744,SQUEEZE
88, 6620, 6617, 6684, 7421, 6729, 6725, 6718, 6525, 6570, 6598, 6582, 6544, 6698, 8137,1.8503005504608154,SQUEEZE
89, 6788, 6645, 6596, 7298, 6724, 6651, 6630, 6602, 6603, 6605, 6585, 6558, 6775, 8199,1.858436107635498,SQUEEZE
90, 6612, 6660, 6719, 7346, 6757, 6720, 6691, 6547, 6589, 6600, 6574, 6539, 6665, 8030,1.8663365840911865,SQUEEZE
91, 6518, 6679, 6709, 7361, 6838, 6755, 6725, 6510, 6579, 6599, 6530, 6468, 6608, 8088,1.8745112419128418,SQUEEZE
92, 6791, 6662, 6618, 7393, 6748, 6652, 6605, 6589, 6609, 6611, 6587, 6555, 6797, 8283,1.8832836151123047,SQUEEZE
93, 6572, 6670, 6727, 7580, 6832, 6770, 6751, 6484, 6567, 6594, 6556, 6492, 6611, 7998,1.889178991317749,SQUEEZE
94, 6721, 6676, 6593, 7305, 6775, 6645, 6626, 6599, 6619, 6610, 6576, 6547, 6784, 8154,1.8969740867614746,SQUEEZE
95, 6940, 6652, 6642, 7471, 6675, 6625, 6604, 6638, 6632, 6622, 6634, 6650, 6952, 8190,1.9047727584838867,SQUEEZE
96, 6917, 6655, 6648, 7534, 6713, 6674, 6670, 6599, 6612, 6617, 6604, 6604, 6862, 8143,1.9126131534576416,SQUEEZE
97, 7154, 6622, 6543, 7221, 6591, 6541, 6530, 6679, 6650, 6631, 6644, 6672, 7032, 8263,1.920475959777832,SQUEEZE
98, 6994, 6617, 6667, 7380, 6650, 6654, 6645, 6581, 6613, 6614, 6617, 6610, 6902, 8012,1.9282593727111816,SQUEEZE
99, 7051, 6634, 6563, 7273, 6621, 6583, 6573, 6670, 6643, 6626, 6630, 6657, 7013, 8229,1.9362130165100098,SQUEEZE
100, 7099, 6617, 6631, 7392, 6597, 6625, 6627, 6657, 6633, 6641, 6656, 6696, 7058, 8225,1.9455244541168213,SQUEEZE
101, 7022, 6635, 6660, 7465, 6689, 6698, 6699, 6589, 6612, 6625, 6614, 6603, 6940, 8060,1.95224928855896,SQUEEZE
102, 7319, 6635, 6552, 7290, 6558, 6540, 6526, 6708, 6664, 6638, 6669, 6704, 7134, 8284,1.9594805240631104,SQUEEZE
103, 7107, 6631, 6692, 7509, 6634, 6662, 6657, 6604, 6617, 6632, 6634, 6641, 6952, 8086,1.9673550128936768,SQUEEZE
104, 7150, 6625, 6570, 7340, 6622, 6589, 6581, 6654, 6635, 6637, 6638, 6654, 7097, 8237,1.9765889644622803,SQUEEZE
105, 7233, 6604, 6600, 7342, 6567, 6600, 6606, 6646, 6632, 6639, 6670, 6702, 7186, 8206,1.9843299388885498,SQUEEZE
106, 7102, 6618, 6646, 7450, 6670, 6686, 6704, 6582, 6604, 6631, 6620, 6615, 6969, 7971,1.9923946857452393,SQUEEZE
107, 7401, 6621, 6545, 7265, 6560, 6548, 6550, 6718, 6660, 6651, 6675, 6716, 7150, 8273,2.0003018379211426,SQUEEZE
108, 7211, 6632, 6713, 7551, 6644, 6695, 6696, 6617, 6621, 6635, 6653, 6651, 7003, 8167,2.008044481277466,SQUEEZE
109, 7219, 6637, 6605, 7436, 6638, 6621, 6618, 6671, 6647, 6637, 6646, 6655, 7136, 8266,2.015897512435913,SQUEEZE
110, 7325, 6622, 6609, 7307, 6561, 6599, 6600, 6683, 6657, 6651, 6672, 6715, 7236, 8199,2.0240530967712402,SQUEEZE
111, 7142, 6635, 6674, 7412, 6676, 6702, 6708, 6575, 6612, 6641, 6622, 6617, 6991, 7903,2.030439615249634,SQUEEZE
112, 7413, 6627, 6542, 7283, 6576, 6560, 6561, 6709, 6671, 6652, 6677, 6709, 7195, 8261,2.0383174419403076,SQUEEZE
113, 7288, 6633, 6702, 7568, 6646, 6722, 6739, 6624, 6634, 6639, 6654, 6661, 7091, 8197,2.0463335514068604,SQUEEZE
114, 7216, 6653, 6628, 7482, 6658, 6662, 6667, 6653, 6643, 6647, 6643, 6656, 7123, 8197,2.05424427986145,SQUEEZE
115, 7273, 6639, 6608, 7357, 6571, 6573, 6565, 6701, 6674, 6657, 6682, 6724, 7222, 8232,2.062448263168335,SQUEEZE
116, 7174, 6646, 6700, 7493, 6679, 6698, 6716, 6594, 6633, 6637, 6628, 6631, 7020, 8022,2.0714683532714844,SQUEEZE
117, 7499, 6640, 6561, 7301, 6586, 6579, 6601, 6713, 6675, 6652, 6679, 6718, 7234, 8298,2.079115390777588,SQUEEZE
118, 7333, 6636, 6689, 7521, 6641, 6707, 6731, 6626, 6639, 6647, 6665, 6673, 7130, 8132,2.086796998977661,SQUEEZE
119, 7184, 6654, 6646, 7477, 6670, 6677, 6698, 6640, 6646, 6647, 6636, 6654, 7100, 8085,2.094557523727417,SQUEEZE
120, 7327, 6650, 6624, 7351, 6594, 6604, 6612, 6721, 6683, 6660, 6680, 6732, 7205, 8268,2.1023759841918945,SQUEEZE
121, 7199, 6657, 6737, 7575, 6716, 6735, 6749, 6612, 6635, 6649, 6637, 6632, 7022, 8132,2.110487222671509,SQUEEZE
122, 7385, 6649, 6589, 7378, 6619, 6586, 6592, 6710, 6673, 6665, 6678, 6710, 7262, 8326,2.118396520614624,SQUEEZE
123, 7261, 6640, 6688, 7453, 6646, 6676, 6691, 6626, 6644, 6662, 6664, 6677, 7177, 8071,2.1263577938079834,SQUEEZE
124, 7205, 6659, 6650, 7424, 6684, 6669, 6690, 6623, 6641, 6662, 6638, 6642, 7058, 8002,2.1343348026275635,SQUEEZE
125, 7417, 6656, 6606, 7385, 6602, 6605, 6619, 6711, 6677, 6671, 6698, 6732, 7172, 8312,2.142253875732422,SQUEEZE
126, 7209, 6672, 6745, 7677, 6731, 6761, 6780, 6601, 6635, 6656, 6647, 6630, 7030, 8131,2.150383234024048,SQUEEZE
127, 7270, 6676, 6618, 7427, 6649, 6620, 6620, 6719, 6688, 6674, 6674, 6702, 7269, 8262,2.1585566997528076,SQUEEZE
239, 7180, 6659, 6704, 7419, 6655, 6696, 6703, 6654, 6666, 6666, 6677, 6692, 7185, 8135,2.165116548538208,SQUEEZE
0, 7217, 6667, 6676, 7443, 6714, 6705, 6727, 6618, 6646, 6657, 6645, 6638, 7030, 8069,2.1729736328125,SQUEEZE
1, 7494, 6662, 6601, 7366, 6621, 6615, 6631, 6722, 6689, 6680, 6702, 6733, 7211, 8315,2.1809048652648926,SQUEEZE
2, 7197, 6668, 6736, 7617, 6735, 6781, 6800, 6601, 6642, 6669, 6662, 6643, 7059, 8046,2.189150333404541,SQUEEZE
3, 7225, 6677, 6610, 7405, 6669, 6633, 6647, 6691, 6681, 6677, 6680, 6701, 7187, 8178,2.1968421936035156,SQUEEZE
4, 7251, 6678, 6701, 7460, 6668, 6684, 6705, 6669, 6674, 6674, 6681, 6702, 7115, 8215,2.2041852474212646,SQUEEZE
5, 7197, 6686, 6714, 7562, 6734, 6729, 6748, 6639, 6654, 6666, 6653, 6642, 7038, 8162,2.2134718894958496,SQUEEZE
6, 7385, 6671, 6608, 7362, 6640, 6617, 6626, 6721, 6687, 6681, 6704, 6732, 7290, 8297,2.221256732940674,SQUEEZE
7, 7147, 6665, 6736, 7522, 6742, 6781, 6803, 6590, 6636, 6667, 6657, 6647, 7052, 7918,2.2275264263153076,SQUEEZE
8, 7209, 6678, 6620, 7374, 6683, 6650, 6655, 6701, 6684, 6681, 6681, 6700, 7076, 8105,2.235499858856201,SQUEEZE
9, 7249, 6694, 6709, 7507, 6692, 6698, 6713, 6693, 6688, 6684, 6692, 6704, 7072, 8283,2.243518590927124,SQUEEZE
10, 7111, 6703, 6755, 7690, 6778, 6783, 6820, 6615, 6660, 6674, 6649, 6634, 7002, 8128,2.2514941692352295,SQUEEZE
11, 7234, 6684, 6604, 7401, 6656, 6611, 6616, 6727, 6705, 6690, 6698, 6725, 7264, 8263,2.259247064590454,SQUEEZE
12, 7057, 6685, 6752, 7525, 6746, 6762, 6786, 6609, 6651, 6674, 6656, 6642, 7028, 8007,2.2671148777008057,SQUEEZE
13, 7188, 6704, 6670, 7457, 6723, 6690, 6733, 6674, 6685, 6684, 6675, 6686, 7028, 8138,2.2763562202453613,SQUEEZE
14, 7218, 6698, 6687, 7530, 6713, 6717, 6757, 6682, 6695, 6689, 6696, 6705, 7082, 8235,2.28414249420166,SQUEEZE
15, 6989, 6710, 6772, 7680, 6818, 6852, 6892, 6605, 6653, 6674, 6646, 6616, 6982, 8032,2.2904293537139893,SQUEEZE
16, 7196, 6723, 6651, 7432, 6710, 6668, 6692, 6743, 6708, 6696, 6702, 6721, 7227, 8243,2.2993407249450684,SQUEEZE
17, 7066, 6710, 6757, 7615, 6770, 6778, 6822, 6637, 6665, 6685, 6671, 6648, 7023, 8078,2.3071539402008057,SQUEEZE
18, 7051, 6706, 6682, 7528, 6758, 6733, 6768, 6661, 6676, 6686, 6669, 6655, 7053, 8191,2.3149468898773193,SQUEEZE
19, 7102, 6706, 6682, 7478, 6721, 6694, 6730, 6689, 6696, 6694, 6694, 6708, 7201, 8304,2.3227620124816895,SQUEEZE
20, 6967, 6710, 6746, 7629, 6807, 6817, 6883, 6605, 6661, 6683, 6653, 6627, 6999, 8035,2.330853223800659,SQUEEZE
21, 7239, 6709, 6629, 7411, 6694, 6687, 6740, 6736, 6708, 6702, 6706, 6727, 7131, 8241,2.3388781547546387,SQUEEZE
22, 7099, 6722, 6774, 7648, 6772, 6831, 6873, 6644, 6677, 6694, 6674, 6675, 7006, 8115,2.346832275390625,SQUEEZE
23, 7008, 6726, 6714, 7622, 6769, 6769, 6812, 6677, 6698, 6698, 6680, 6677, 7101, 8155,2.3531084060668945,SQUEEZE
24, 7125, 6700, 6671, 7458, 6678, 6667, 6728, 6727, 6712, 6706, 6721, 6747, 7288, 8232,2.3613338470458984,SQUEEZE
25, 6945, 6710, 6749, 7542, 6801, 6807, 6865, 6610, 6660, 6695, 6668, 6632, 7005, 7957,2.370333671569824,SQUEEZE
26, 7202, 6717, 6630, 7378, 6687, 6692, 6723, 6745, 6723, 6720, 6725, 6736, 7111, 8245,2.3781628608703613,SQUEEZE
27, 7144, 6715, 6741, 7664, 6721, 6812, 6855, 6683, 6697, 6711, 6706, 6718, 7081, 8164,2.3858799934387207,SQUEEZE
28, 7081, 6725, 6705, 7650, 6767, 6774, 6807, 6693, 6698, 6705, 6688, 6674, 7131, 8096,2.3936948776245117,SQUEEZE
29, 7283, 6723, 6676, 7429, 6656, 6674, 6713, 6760, 6724, 6716, 6732, 6761, 7308, 8254,2.4013888835906982,SQUEEZE
30, 7073, 6726, 6760, 7582, 6769, 6798, 6836, 6645, 6682, 6704, 6691, 6667, 7046, 8071,2.409398078918457,SQUEEZE
31, 7305, 6705, 6622, 7405, 6690, 6672, 6693, 6764, 6732, 6719, 6738, 6745, 7160, 8291,2.417715072631836,SQUEEZE
32, 7309, 6701, 6733, 7541, 6717, 6799, 6845, 6695, 6697, 6711, 6717, 6737, 7134, 8111,2.4255669116973877,SQUEEZE
33, 7191, 6723, 6715, 7544, 6784, 6775, 6810, 6686, 6694, 6710, 6699, 6683, 7105, 8007,2.4332823753356934,SQUEEZE
34, 7403, 6719, 6658, 7409, 6663, 6661, 6699, 6778, 6733, 6722, 6745, 6778, 7268, 8299,2.4407496452331543,SQUEEZE
35, 7209, 6734, 6805, 7653, 6773, 6825, 6861, 6660, 6691, 6707, 6695, 6685, 7048, 8146,2.448671817779541,SQUEEZE
36, 7404, 6725, 6671, 7442, 6702, 6682, 6700, 6769, 6740, 6724, 6737, 6750, 7238, 8307,2.456693649291992,SQUEEZE
37, 7419, 6707, 6715, 7434, 6685, 6755, 6788, 6710, 6710, 6718, 6731, 6750, 7226, 8114,2.4645042419433594,SQUEEZE
38, 7212, 6724, 6735, 7447, 6766, 6779, 6795, 6667, 6698, 6712, 6708, 6685, 7063, 7945,2.4723775386810303,SQUEEZE
39, 7439, 6715, 6651, 7378, 6668, 6657, 6680, 6789, 6748, 6732, 6760, 6790, 7265, 8306,2.4815115928649902,SQUEEZE
40, 7303, 6725, 6784, 7701, 6772, 6827, 6868, 6677, 6697, 6721, 6710, 6713, 7107, 8174,2.487746477127075,SQUEEZE
41, 7363, 6726, 6682, 7475, 6705, 6693, 6711, 6758, 6738, 6734, 6735, 6765, 7223, 8269,2.4956655502319336,SQUEEZE
42, 7345, 6710, 6713, 7404, 6676, 6719, 6744, 6731, 6737, 6730, 6741, 6769, 7225, 8178,2.5034496784210205,SQUEEZE
43, 7275, 6736, 6758, 7492, 6770, 6786, 6810, 6680, 6719, 6718, 6714, 6697, 7090, 8028,2.5111730098724365,SQUEEZE
44, 7574, 6719, 6656, 7359, 6658, 6665, 6683, 6800, 6756, 6738, 6764, 6806, 7317, 8326,2.5192456245422363,SQUEEZE
45, 7359, 6714, 6767, 7593, 6750, 6816, 6845, 6675, 6702, 6729, 6725, 6725, 7145, 8122,2.528097629547119,SQUEEZE
46, 7345, 6735, 6684, 7445, 6709, 6708, 6727, 6749, 6738, 6738, 6749, 6760, 7217, 8202,2.5359530448913574,SQUEEZE
47, 7392, 6721, 6719, 7439, 6666, 6735, 6758, 6769, 6741, 6736, 6756, 6791, 7257, 8259,2.5479769706726074,SQUEEZE
48, 7292, 6725, 6778, 7604, 6773, 6814, 6831, 6696, 6712, 6726, 6717, 6708, 7111, 8135,2.5506441593170166,SQUEEZE
49, 7578, 6725, 6656, 7383, 6657, 6653, 6665, 6812, 6762, 6746, 6775, 6819, 7367, 8352,2.558645725250244,SQUEEZE
50, 7367, 6716, 6761, 7469, 6731, 6816, 6848, 6690, 6711, 6730, 6735, 6748, 7190, 8052,2.566622257232666,SQUEEZE
51, 7361, 6722, 6687, 7365, 6722, 6730, 6760, 6745, 6732, 6733, 6744, 6758, 7179, 8113,2.5746939182281494,SQUEEZE
52, 7498, 6733, 6713, 7478, 6671, 6705, 6730, 6789, 6754, 6742, 6772, 6809, 7273, 8312,2.5824368000030518,SQUEEZE
53, 7339, 6741, 6791, 7682, 6775, 6825, 6841, 6700, 6721, 6730, 6732, 6724, 7143, 8172,2.5904059410095215,SQUEEZE
54, 7555, 6727, 6657, 7354, 6651, 6664, 6671, 6822, 6766, 6745, 6778, 6823, 7371, 8339,2.5991873741149902,SQUEEZE
55, 7393, 6726, 6769, 7459, 6718, 6796, 6815, 6717, 6725, 6736, 6742, 6752, 7202, 8059,2.606998920440674,SQUEEZE
56, 7388, 6728, 6706, 7429, 6734, 6744, 6769, 6734, 6736, 6746, 6747, 6747, 7203, 8101,2.613205671310425,SQUEEZE
57, 7581, 6719, 6699, 7388, 6658, 6719, 6754, 6786, 6757, 6755, 6779, 6822, 7359, 8327,2.621192455291748,SQUEEZE
58, 7365, 6739, 6804, 7569, 6782, 6874, 6903, 6698, 6721, 6735, 6731, 6731, 7153, 8122,2.6304290294647217,SQUEEZE
59, 7476, 6742, 6678, 7350, 6688, 6690, 6702, 6824, 6776, 6754, 6782, 6820, 7308, 8296,2.6381590366363525,SQUEEZE
60, 7369, 6741, 6792, 7540, 6723, 6793, 6816, 6735, 6743, 6752, 6758, 6772, 7201, 8147,2.646019697189331,SQUEEZE
61, 7459, 6752, 6749, 7531, 6747, 6776, 6802, 6751, 6747, 6748, 6748, 6759, 7230, 8174,2.6542320251464844,SQUEEZE
62, 7681, 6731, 6680, 7363, 6663, 6692, 6727, 6808, 6771, 6756, 6783, 6835, 7416, 8335,2.661616563796997,SQUEEZE
63, 7377, 6732, 6781, 7514, 6774, 6837, 6886, 6675, 6716, 6746, 6738, 6735, 7160, 8030,2.670567274093628,SQUEEZE
64, 7484, 6745, 6680, 7370, 6682, 6699, 6732, 6810, 6766, 6766, 6787, 6823, 7273, 8244,2.678335189819336,SQUEEZE
65, 7439, 6740, 6792, 7614, 6718, 6801, 6825, 6757, 6751, 6761, 6771, 6792, 7202, 8243,2.686058282852173,SQUEEZE
66, 7461, 6746, 6774, 7620, 6767, 6788, 6814, 6739, 6751, 6759, 6753, 6751, 7217, 8240,2.6922240257263184,SQUEEZE
67, 7705, 6735, 6687, 7348, 6662, 6690, 6732, 6822, 6782, 6768, 6801, 6843, 7459, 8320,2.700134515762329,SQUEEZE
68, 7396, 6743, 6810, 7509, 6775, 6852, 6897, 6702, 6733, 6752, 6758, 6752, 7180, 7938,2.7095072269439697,SQUEEZE
69, 7470, 6757, 6702, 7384, 6709, 6701, 6724, 6812, 6777, 6768, 6783, 6813, 7230, 8200,2.71762752532959,SQUEEZE
70, 7530, 6751, 6766, 7540, 6719, 6769, 6805, 6769, 6761, 6763, 6777, 6802, 7241, 8305,2.7255663871765137,SQUEEZE
71, 7454, 6756, 6774, 7583, 6772, 6793, 6824, 6746, 6755, 6763, 6766, 6771, 7223, 8197,2.733389377593994,SQUEEZE
72, 7543, 6751, 6692, 7365, 6665, 6691, 6698, 6851, 6791, 6785, 6805, 6859, 7370, 8310,2.741072177886963,SQUEEZE
73, 7349, 6760, 6833, 7581, 6780, 6852, 6867, 6721, 6739, 6764, 6756, 6753, 7128, 8059,2.747542381286621,SQUEEZE
74, 7592, 6763, 6726, 7437, 6722, 6709, 6736, 6808, 6783, 6767, 6793, 6813, 7311, 8268,2.755462884902954,SQUEEZE
75, 7613, 6750, 6755, 7446, 6713, 6772, 6812, 6777, 6765, 6770, 6796, 6818, 7347, 8264,2.763326406478882,SQUEEZE
76, 7375, 6766, 6796, 7490, 6791, 6828, 6858, 6718, 6738, 6766, 6757, 6752, 7157, 8066,2.771282911300659,SQUEEZE
77, 7513, 6763, 6710, 7377, 6688, 6695, 6716, 6842, 6799, 6777, 6802, 6844, 7296, 8298,2.780278205871582,SQUEEZE
78, 7367, 6768, 6842, 7692, 6800, 6859, 6889, 6743, 6760, 6764, 6768, 6762, 7133, 8177,2.788025379180908,SQUEEZE
79, 7539, 6781, 6736, 7506, 6757, 6742, 6767, 6808, 6781, 6777, 6788, 6811, 7301, 8315,2.795822858810425,SQUEEZE
80, 7575, 6759, 6748, 7400, 6719, 6762, 6792, 6780, 6772, 6777, 6791, 6822, 7344, 8200,2.80361008644104,SQUEEZE
81, 7335, 6768, 6811, 7513, 6815, 6830, 6857, 6704, 6742, 6767, 6756, 6747, 7109, 7946,2.8115956783294678,SQUEEZE
82, 7549, 6775, 6709, 7391, 6714, 6700, 6722, 6840, 6793, 6789, 6807, 6852, 7274, 8302,2.8194386959075928,SQUEEZE
83, 7432, 6785, 6839, 7638, 6811, 6864, 6899, 6736, 6753, 6776, 6765, 6767, 7151, 8203,2.8272628784179688,SQUEEZE
84, 7425, 6793, 6752, 7485, 6786, 6759, 6783, 6792, 6781, 6781, 6779, 6794, 7249, 8238,2.834968328475952,SQUEEZE
85, 7421, 6766, 6744, 7414, 6722, 6750, 6772, 6810, 6793, 6787, 6806, 6841, 7290, 8238,2.8427767753601074,SQUEEZE
86, 7328, 6781, 6827, 7592, 6819, 6838, 6860, 6720, 6757, 6777, 6762, 6752, 7098, 8039,2.8504812717437744,SQUEEZE
87, 7667, 6784, 6706, 7392, 6717, 6701, 6718, 6844, 6807, 6795, 6816, 6849, 7362, 8327,2.8585457801818848,SQUEEZE
88, 7472, 6773, 6822, 7522, 6803, 6863, 6895, 6743, 6764, 6778, 6791, 6793, 7231, 8158,2.8663275241851807,SQUEEZE
89, 7375, 6781, 6762, 7435, 6792, 6769, 6796, 6786, 6780, 6779, 6788, 6803, 7193, 8165,2.8742871284484863,SQUEEZE
90, 7501, 6774, 6745, 7469, 6708, 6738, 6763, 6842, 6807, 6797, 6817, 6855, 7284, 8299,2.8822364807128906,SQUEEZE
91, 7365, 6797, 6858, 7700, 6830, 6873, 6896, 6748, 6764, 6788, 6774, 6766, 7128, 8153,2.8904523849487305,SQUEEZE
92, 7592, 6780, 6716, 7388, 6720, 6709, 6723, 6855, 6803, 6795, 6815, 6863, 7363, 8367,2.89839506149292,SQUEEZE
93, 7443, 6760, 6798, 7459, 6760, 6828, 6853, 6742, 6770, 6783, 6790, 6808, 7228, 8091,2.906438112258911,SQUEEZE
94, 7379, 6789, 6764, 7448, 6792, 6788, 6808, 6768, 6782, 6793, 6789, 6796, 7173, 8068,2.9143848419189453,SQUEEZE
95, 7534, 6783, 6740, 7443, 6726, 6761, 6790, 6854, 6804, 6806, 6830, 6870, 7307, 8356,2.922376871109009,SQUEEZE
96, 7343, 6796, 6870, 7685, 6845, 6915, 6948, 6739, 6763, 6786, 6785, 6774, 7117, 8172,2.9303457736968994,SQUEEZE
97, 7475, 6803, 6733, 7402, 6753, 6730, 6733, 6837, 6817, 6799, 6817, 6846, 7291, 8306,2.9386322498321533,SQUEEZE
98, 7357, 6795, 6818, 7493, 6787, 6813, 6823, 6764, 6785, 6796, 6794, 6814, 7185, 8132,2.946047067642212,SQUEEZE
99, 7381, 6812, 6813, 7548, 6827, 6810, 6830, 6770, 6779, 6794, 6785, 6791, 7142, 8107,2.952491521835327,SQUEEZE
100, 7618, 6798, 6743, 7418, 6750, 6760, 6775, 6843, 6808, 6805, 6824, 6859, 7330, 8342,2.9602527618408203,SQUEEZE
101, 7325, 6804, 6868, 7583, 6869, 6909, 6928, 6720, 6759, 6792, 6778, 6769, 7108, 8098,2.9682273864746094,SQUEEZE
102, 7382, 6814, 6752, 7410, 6779, 6733, 6751, 6843, 6813, 6806, 6813, 6847, 7239, 8265,2.9776976108551025,SQUEEZE
103, 7379, 6808, 6828, 7584, 6789, 6803, 6828, 6804, 6806, 6801, 6806, 6822, 7198, 8231,2.9841206073760986,SQUEEZE
104, 7319, 6821, 6837, 7604, 6836, 6820, 6839, 6781, 6796, 6802, 6791, 6791, 7124, 8189,2.9936115741729736,SQUEEZE
105, 7488, 6802, 6736, 7352, 6745, 6742, 6765, 6858, 6822, 6818, 6831, 6882, 7301, 8343,3.0010945796966553,SQUEEZE
106, 7283, 6804, 6865, 7522, 6862, 6889, 6913, 6728, 6770, 6799, 6792, 6785, 7099, 8018,3.0082976818084717,SQUEEZE
107, 7386, 6818, 6758, 7388, 6780, 6729, 6735, 6848, 6822, 6815, 6832, 6851, 7246, 8235,3.0160276889801025,SQUEEZE
108, 7395, 6810, 6812, 7587, 6767, 6802, 6822, 6830, 6814, 6815, 6829, 6856, 7242, 8317,3.023709774017334,SQUEEZE
109, 7293, 6819, 6844, 7694, 6840, 6840, 6861, 6775, 6793, 6806, 6797, 6797, 7103, 8215,3.0314438343048096,SQUEEZE
110, 7461, 6803, 6727, 7359, 6737, 6717, 6725, 6865, 6829, 6822, 6837, 6876, 7287, 8349,3.0391228199005127,SQUEEZE
111, 7264, 6803, 6859, 7500, 6832, 6865, 6872, 6749, 6779, 6807, 6800, 6790, 7101, 8010,3.0485923290252686,SQUEEZE
112, 7405, 6813, 6770, 7424, 6789, 6756, 6757, 6844, 6817, 6818, 6825, 6842, 7202, 8193,3.0562400817871094,SQUEEZE
113, 7443, 6807, 6802, 7487, 6785, 6822, 6836, 6831, 6817, 6822, 6834, 6859, 7226, 8344,3.0640673637390137,SQUEEZE
114, 7234, 6823, 6853, 7558, 6866, 6873, 6882, 6773, 6789, 6814, 6805, 6798, 7088, 8161,3.071810483932495,SQUEEZE
115, 7458, 6815, 6744, 7366, 6754, 6724, 6722, 6885, 6833, 6830, 6842, 6886, 7282, 8317,3.078151226043701,SQUEEZE
116, 7318, 6817, 6882, 7626, 6842, 6863, 6865, 6765, 6797, 6819, 6807, 6805, 7096, 8151,3.087414503097534,SQUEEZE
117, 7304, 6828, 6796, 7491, 6806, 6763, 6758, 6836, 6830, 6826, 6831, 6843, 7181, 8300,3.095142364501953,SQUEEZE
118, 7302, 6809, 6792, 7402, 6769, 6802, 6811, 6837, 6824, 6825, 6843, 6876, 7249, 8296,3.1028175354003906,SQUEEZE
119, 7213, 6814, 6856, 7497, 6867, 6885, 6903, 6754, 6790, 6815, 6806, 6798, 7074, 8031,3.1106247901916504,SQUEEZE
120, 7528, 6825, 6763, 7359, 6769, 6727, 6725, 6892, 6849, 6830, 6854, 6886, 7272, 8323,3.1184334754943848,SQUEEZE
121, 7335, 6829, 6902, 7678, 6843, 6884, 6872, 6793, 6810, 6818, 6827, 6825, 7115, 8244,3.1262454986572266,SQUEEZE
122, 7240, 6827, 6807, 7546, 6827, 6807, 6801, 6830, 6827, 6829, 6835, 6843, 7150, 8296,3.1356663703918457,SQUEEZE
123, 7361, 6819, 6793, 7350, 6780, 6782, 6799, 6855, 6836, 6834, 6851, 6882, 7239, 8268,3.142158031463623,SQUEEZE
124, 7215, 6834, 6894, 7520, 6885, 6900, 6913, 6760, 6797, 6814, 6805, 6793, 7044, 7977,3.1500680446624756,SQUEEZE
125, 7373, 6825, 6757, 7389, 6777, 6762, 6750, 6886, 6847, 6834, 6849, 6891, 7248, 8330,3.1580660343170166,SQUEEZE
126, 7238, 6827, 6874, 7579, 6842, 6888, 6888, 6801, 6816, 6833, 6826, 6847, 7137, 8288,3.1660704612731934,SQUEEZE
127, 7281, 6854, 6840, 7504, 6856, 6828, 6829, 6834, 6834, 6832, 6829, 6834, 7142, 8229,3.174039363861084,SQUEEZE
239, 7443, 6836, 6805, 7415, 6776, 6780, 6776, 6882, 6846, 6834, 6866, 6890, 7258, 8307,3.1820242404937744,SQUEEZE
0, 7178, 6833, 6892, 7630, 6882, 6899, 6905, 6764, 6799, 6825, 6821, 6807, 7046, 8130,3.1899476051330566,SQUEEZE
1, 7308, 6832, 6767, 7400, 6790, 6754, 6760, 6885, 6856, 6844, 6862, 6895, 7250, 8375,3.1976795196533203,SQUEEZE
2, 7222, 6824, 6875, 7475, 6844, 6884, 6901, 6807, 6824, 6828, 6845, 6844, 7154, 8182,3.2054173946380615,SQUEEZE
3, 7249, 6841, 6831, 7441, 6884, 6854, 6863, 6815, 6820, 6825, 6829, 6816, 7096, 8110,3.21325421333313,SQUEEZE
4, 7513, 6838, 6795, 7424, 6772, 6771, 6753, 6902, 6860, 6846, 6873, 6917, 7274, 8367,3.2210259437561035,SQUEEZE
5, 7208, 6861, 6947, 7736, 6915, 6941, 6902, 6761, 6817, 6835, 6820, 6797, 7033, 8209,3.229133129119873,SPEAK
6, 7327, 6847, 6744, 7425, 6794, 6738, 6749, 6921, 6862, 6852, 6864, 6893, 7243, 8383,3.2370734214782715,SPEAK
7, 7360, 6819, 6823, 7403, 6759, 6811, 6843, 6855, 6834, 6847, 6869, 6908, 7249, 8202,3.2448649406433105,SPEAK
8, 7340, 6861, 6932, 7533, 6958, 6947, 6903, 6699, 6806, 6835, 6803, 6757, 7083, 8066,3.253061532974243,SPEAK
9, 7671, 6853, 6793, 7509, 6843, 6800, 6787, 6890, 6867, 6855, 6856, 6886, 7349, 8328,3.2605714797973633,SPEAK
10, 7451, 6853, 6887, 7715, 6856, 6887, 6898, 6857, 6838, 6841, 6848, 6873, 7262, 8175,3.268418312072754,SPEAK
11, 7466, 6862, 6832, 7484, 6836, 6810, 6791, 6872, 6863, 6849, 6861, 6867, 7373, 8323,3.2764627933502197,SPEAK
12, 7486, 6837, 6854, 7530, 6815, 6848, 6860, 6845, 6848, 6862, 6865, 6879, 7343, 8173,3.2845253944396973,SPEAK
13, 7420, 6848, 6846, 7593, 6881, 6875, 6876, 6808, 6833, 6851, 6837, 6837, 7238, 8038,3.2927145957946777,SPEAK
14, 7638, 6836, 6766, 7427, 6769, 6770, 6764, 6918, 6879, 6859, 6889, 6931, 7486, 8359,3.30014705657959,SPEAK
15, 7416, 6845, 6912, 7631, 6873, 6940, 6946, 6807, 6829, 6852, 6852, 6847, 7271, 8170,3.3078994750976562,SPEAK
16, 7536, 6862, 6813, 7459, 6848, 6821, 6811, 6892, 6865, 6864, 6863, 6880, 7336, 8262,3.315912961959839,SPEAK
17, 7617, 6850, 6860, 7542, 6804, 6832, 6823, 6882, 6874, 6858, 6880, 6908, 7371, 8246,3.324554920196533,SPEAK
18, 7429, 6865, 6893, 7686, 6895, 6900, 6895, 6812, 6844, 6847, 6842, 6831, 7249, 8124,3.3321304321289062,SPEAK
19, 7587, 6851, 6775, 7433, 6777, 6771, 6776, 6939, 6876, 6865, 6897, 6939, 7480, 8371,3.338346242904663,SPEAK
20, 7415, 6848, 6913, 7557, 6877, 6940, 6953, 6807, 6829, 6850, 6855, 6858, 7276, 8105,3.346208333969116,SPEAK
21, 7588, 6856, 6812, 7432, 6853, 6827, 6830, 6879, 6863, 6860, 6867, 6887, 7357, 8191,3.3556039333343506,SPEAK
22, 7710, 6851, 6854, 7569, 6793, 6811, 6814, 6909, 6871, 6869, 6899, 6937, 7439, 8320,3.363424777984619,SPEAK
23, 7439, 6880, 6928, 7785, 6910, 6916, 6911, 6826, 6846, 6859, 6846, 6838, 7268, 8213,3.3711838722229004,SPEAK
24, 7570, 6857, 6792, 7451, 6787, 6785, 6771, 6949, 6898, 6872, 6900, 6944, 7482, 8380,3.3790814876556396,SPEAK
25, 7431, 6845, 6911, 7559, 6860, 6940, 6937, 6823, 6844, 6857, 6869, 6875, 7293, 8029,3.386986255645752,SPEAK
26, 7582, 6870, 6833, 7535, 6870, 6858, 6860, 6867, 6858, 6867, 6865, 6874, 7347, 8103,3.394885540008545,SPEAK
27, 7758, 6860, 6830, 7544, 6799, 6830, 6840, 6915, 6877, 6876, 6907, 6947, 7508, 8354,3.40278959274292,SPEAK
28, 7450, 6874, 6907, 7665, 6897, 6946, 6958, 6829, 6845, 6858, 6858, 6866, 7291, 8190,3.410181999206543,SPEAK
29, 7575, 6877, 6826, 7456, 6821, 6808, 6789, 6917, 6895, 6873, 6889, 6927, 7416, 8317,3.41819429397583,SPEAK
30, 7541, 6861, 6890, 7666, 6851, 6889, 6911, 6860, 6863, 6870, 6870, 6886, 7345, 8106,3.426058053970337,SPEAK
31, 7559, 6851, 6776, 7525, 6779, 6781, 6828, 6955, 6881, 6879, 6894, 6941, 7392, 8246,3.433790922164917,SPEAK
32, 7500, 6844, 6880, 7371, 6805, 6847, 6839, 6877, 6882, 6876, 6906, 6928, 7337, 8427,3.4415366649627686,SPEAK
33, 7251, 6870, 6947, 7540, 6965, 6989, 7016, 6766, 6841, 6856, 6832, 6805, 7084, 8093,3.44926381111145,SPEAK
34, 7617, 6868, 6772, 7356, 6779, 6754, 6779, 6984, 6908, 6882, 6913, 6970, 7372, 8300,3.457096815109253,SPEAK
35, 7502, 6872, 6957, 7646, 6864, 6918, 6903, 6849, 6866, 6873, 6889, 6891, 7235, 8286,3.4664032459259033,SPEAK
36, 7333, 6889, 6880, 7648, 6904, 6881, 6893, 6869, 6871, 6870, 6862, 6864, 7189, 8309,3.472764730453491,SPEAK
37, 7464, 6862, 6816, 7389, 6775, 6775, 6791, 6949, 6903, 6882, 6924, 6970, 7381, 8349,3.481659412384033,SPEAK
38, 7299, 6864, 6933, 7552, 6906, 6954, 6972, 6800, 6846, 6866, 6868, 6850, 7146, 7993,3.489137887954712,SPEAK
39, 7593, 6873, 6811, 7422, 6829, 6815, 6832, 6931, 6896, 6885, 6907, 6935, 7322, 8285,3.4971296787261963,SPEAK
40, 7523, 6870, 6920, 7589, 6856, 6912, 6946, 6881, 6884, 6884, 6898, 6920, 7272, 8324,3.504420518875122,SPEAK
41, 7316, 6886, 6895, 7594, 6911, 6916, 6949, 6867, 6883, 6882, 6865, 6872, 7190, 8240,3.5122487545013428,SPEAK
42, 7491, 6871, 6829, 7420, 6801, 6793, 6810, 6946, 6911, 6897, 6924, 6964, 7367, 8344,3.52009654045105,SPEAK
43, 7354, 6870, 6936, 7644, 6896, 6926, 6965, 6814, 6856, 6879, 6882, 6872, 7165, 8078,3.5294976234436035,SPEAK
44, 7514, 6882, 6821, 7464, 6832, 6802, 6837, 6922, 6901, 6891, 6905, 6932, 7327, 8316,3.537231206893921,SPEAK
45, 7454, 6878, 6904, 7497, 6849, 6901, 6944, 6887, 6885, 6889, 6902, 6931, 7308, 8294,3.5434799194335938,SPEAK
46, 7346, 6888, 6900, 7514, 6923, 6936, 6974, 6849, 6867, 6884, 6879, 6882, 7190, 8146,3.551213026046753,SPEAK
47, 7608, 6879, 6825, 7435, 6806, 6796, 6814, 6959, 6915, 6903, 6934, 6977, 7385, 8359,3.5607166290283203,SPEAK
48, 7402, 6885, 6955, 7756, 6907, 6951, 6989, 6845, 6866, 6884, 6881, 6880, 7187, 8202,3.567206621170044,SPEAK
49, 7442, 6894, 6843, 7513, 6863, 6835, 6866, 6931, 6904, 6890, 6911, 6933, 7310, 8362,3.5752227306365967,SPEAK
50, 7427, 6879, 6890, 7458, 6838, 6883, 6915, 6908, 6906, 6893, 6925, 6953, 7322, 8239,3.5832371711730957,SPEAK
51, 7371, 6891, 6914, 7528, 6921, 6946, 6986, 6851, 6876, 6887, 6882, 6878, 7183, 8049,3.592439889907837,SPEAK
52, 7686, 6886, 6823, 7403, 6822, 6820, 6850, 6961, 6914, 6899, 6934, 6969, 7403, 8391,3.5989127159118652,SPEAK
53, 7438, 6897, 6963, 7735, 6921, 6979, 7016, 6856, 6876, 6887, 6896, 6890, 7225, 8267,3.6070845127105713,SPEAK
54, 7406, 6913, 6874, 7557, 6882, 6857, 6876, 6947, 6910, 6904, 6912, 6931, 7311, 8350,3.615262985229492,SPEAK
55, 7461, 6889, 6885, 7456, 6839, 6862, 6880, 6928, 6905, 6913, 6921, 6956, 7344, 8270,3.623399496078491,SPEAK
56, 7362, 6896, 6926, 7583, 6934, 6943, 6971, 6833, 6874, 6902, 6878, 6877, 7168, 8055,3.6312601566314697,SPEAK
57, 7615, 6897, 6827, 7440, 6829, 6811, 6837, 6961, 6921, 6910, 6932, 6975, 7390, 8390,3.6391708850860596,SPEAK
58, 7406, 6898, 6957, 7655, 6923, 6980, 7022, 6852, 6873, 6894, 6899, 6899, 7229, 8246,3.6469225883483887,SPEAK
59, 7421, 6902, 6888, 7503, 6907, 6886, 6912, 6907, 6905, 6907, 6918, 6922, 7282, 8271,3.654742956161499,SPEAK
60, 7535, 6891, 6894, 7489, 6841, 6857, 6881, 6941, 6920, 6914, 6935, 6961, 7354, 8328,3.6624693870544434,SPEAK
61, 7357, 6921, 6966, 7705, 6948, 6953, 6980, 6857, 6882, 6900, 6882, 6866, 7163, 8165,3.670346975326538,SPEAK
62, 7537, 6911, 6840, 7469, 6847, 6815, 6827, 6963, 6930, 6916, 6936, 6966, 7378, 8398,3.678123950958252,SPEAK
63, 7380, 6888, 6938, 7571, 6918, 6968, 6997, 6848, 6883, 6903, 6907, 6910, 7232, 8155,3.6859090328216553,SPEAK
64, 7440, 6912, 6893, 7491, 6928, 6900, 6923, 6902, 6901, 6910, 6907, 6915, 7251, 8178,3.6936731338500977,SPEAK
65, 7607, 6921, 6900, 7540, 6866, 6870, 6893, 6963, 6930, 6920, 6937, 6972, 7372, 8392,3.7017741203308105,SPEAK
66, 7344, 6930, 6987, 7784, 6973, 6990, 7015, 6853, 6887, 6901, 6889, 6881, 7170, 8243,3.7097396850585938,SPEAK
67, 7462, 6910, 6847, 7459, 6857, 6830, 6847, 6969, 6930, 6919, 6936, 6972, 7365, 8395,3.7176895141601562,SPEAK
68, 7356, 6903, 6948, 7525, 6916, 6960, 7004, 6876, 6896, 6909, 6913, 6914, 7234, 8110,3.7254514694213867,SPEAK
69, 7414, 6925, 6919, 7531, 6958, 6921, 6960, 6884, 6903, 6910, 6905, 6896, 7206, 8110,3.7334177494049072,SPEAK
70, 7602, 6910, 6874, 7484, 6871, 6876, 6908, 6952, 6929, 6929, 6938, 6976, 7373, 8406,3.7412209510803223,SPEAK
71, 7323, 6932, 6986, 7690, 6991, 7021, 7061, 6849, 6890, 6913, 6891, 6882, 7176, 8196,3.749211311340332,SPEAK
72, 7469, 6929, 6876, 7484, 6897, 6851, 6877, 6968, 6935, 6924, 6939, 6960, 7343, 8326,3.7571375370025635,SPEAK
73, 7420, 6910, 6950, 7630, 6908, 6942, 6976, 6885, 6900, 6917, 6920, 6922, 7249, 8219,3.765507221221924,SPEAK
74, 7362, 6934, 6930, 7627, 6960, 6932, 6951, 6878, 6905, 6912, 6905, 6896, 7198, 8218,3.7731664180755615,SPEAK
75, 7513, 6916, 6877, 7440, 6881, 6871, 6898, 6968, 6937, 6926, 6946, 6986, 7373, 8385,3.781121253967285,SPEAK
76, 7284, 6929, 6993, 7603, 6993, 7026, 7074, 6843, 6879, 6917, 6891, 6879, 7148, 8076,3.7891457080841064,SPEAK
77, 7496, 6948, 6877, 7452, 6909, 6866, 6884, 6951, 6937, 6930, 6939, 6944, 7313, 8277,3.7972445487976074,SPEAK
78, 7499, 6938, 6953, 7686, 6930, 6952, 6973, 6917, 6933, 6924, 6931, 6937, 7280, 8314,3.803515672683716,SPEAK
79, 7326, 6950, 6964, 7738, 7002, 6966, 6986, 6900, 6914, 6927, 6902, 6893, 7178, 8268,3.8113656044006348,SPEAK
80, 7459, 6927, 6871, 7429, 6884, 6852, 6866, 6980, 6940, 6939, 6956, 6984, 7364, 8365,3.820967435836792,SPEAK
81, 7304, 6930, 6979, 7593, 6987, 7004, 7032, 6840, 6891, 6917, 6906, 6893, 7151, 7995,3.8286612033843994,SPEAK
82, 7531, 6941, 6889, 7484, 6929, 6875, 6893, 6953, 6935, 6935, 6934, 6953, 7291, 8235,3.836419105529785,SPEAK
83, 7532, 6935, 6958, 7614, 6926, 6955, 6981, 6943, 6927, 6938, 6942, 6959, 7304, 8361,3.8442349433898926,SPEAK
84, 7303, 6956, 6981, 7682, 7009, 6995, 7011, 6889, 6914, 6926, 6912, 6899, 7169, 8213,3.8520078659057617,SPEAK
85, 7489, 6940, 6879, 7454, 6882, 6847, 6851, 6987, 6959, 6942, 6961, 6996, 7357, 8345,3.860032796859741,SPEAK
86, 7346, 6942, 6992, 7676, 6977, 7000, 7017, 6868, 6903, 6931, 6915, 6905, 7160, 8093,3.866368532180786,SPEAK
87, 7468, 6947, 6893, 7534, 6941, 6898, 6907, 6956, 6936, 6938, 6946, 6949, 7274, 8276,3.8742294311523438,SPEAK
88, 7487, 6935, 6929, 7539, 6914, 6945, 6965, 6946, 6936, 6935, 6960, 6975, 7320, 8331,3.8822314739227295,SPEAK
89, 7310, 6958, 6983, 7631, 7007, 7004, 7016, 6876, 6907, 6928, 6916, 6900, 7163, 8127,3.8918511867523193,SPEAK
90, 7574, 6949, 6884, 7464, 6881, 6847, 6842, 7003, 6958, 6946, 6964, 6998, 7370, 8356,3.898750066757202,SPEAK
91, 7412, 6950, 7008, 7743, 6966, 6988, 6998, 6893, 6921, 6931, 6921, 6920, 7191, 8223,3.9062159061431885,SPEAK
92, 7400, 6955, 6924, 7579, 6955, 6895, 6905, 6949, 6944, 6942, 6934, 6946, 7267, 8331,3.9142332077026367,SPEAK
93, 7431, 6937, 6922, 7457, 6905, 6919, 6947, 6955, 6940, 6951, 6953, 6982, 7342, 8286,3.9237377643585205,SPEAK
94, 7311, 6961, 6992, 7585, 7010, 7015, 7038, 6872, 6909, 6935, 6918, 6899, 7145, 8023,3.9299585819244385,SPEAK
95, 7634, 6953, 6894, 7470, 6902, 6866, 6875, 7003, 6973, 6954, 6977, 7009, 7363, 8359,3.9377503395080566,SPEAK
96, 7456, 6951, 7011, 7746, 6976, 7020, 7043, 6903, 6930, 6945, 6939, 6944, 7234, 8281,3.945633888244629,SPEAK
97, 7358, 6966, 6939, 7609, 6976, 6937, 6939, 6945, 6940, 6943, 6944, 6942, 7253, 8298,3.953409433364868,SPEAK
98, 7466, 6936, 6914, 7469, 6896, 6889, 6896, 6976, 6957, 6953, 6972, 7000, 7343, 8299,3.961334228515625,SPEAK
99, 7339, 6953, 6998, 7653, 7007, 7006, 7030, 6872, 6922, 6946, 6921, 6909, 7151, 8047,3.969104051589966,SPEAK
100, 7573, 6963, 6897, 7465, 6919, 6889, 6903, 7001, 6969, 6960, 6966, 6996, 7364, 8360,3.978450298309326,SPEAK
101, 7424, 6955, 7000, 7615, 6982, 7027, 7043, 6911, 6927, 6945, 6940, 6944, 7241, 8257,3.98649525642395,SPEAK
102, 7393, 6964, 6944, 7566, 6992, 6948, 6951, 6935, 6939, 6950, 6943, 6942, 7239, 8219,3.9922685623168945,SPEAK
103, 7566, 6942, 6912, 7525, 6895, 6886, 6906, 6992, 6968, 6965, 6981, 7010, 7381, 8351,4.000223159790039,SPEAK
104, 7336, 6961, 7017, 7754, 7015, 7025, 7050, 6875, 6922, 6946, 6927, 6904, 7160, 8170,4.008139610290527,SPEAK
105, 7466, 6965, 6896, 7496, 6922, 6869, 6876, 7000, 6967, 6960, 6971, 6994, 7347, 8387,4.0175416469573975,SPEAK
106, 7375, 6954, 6981, 7552, 6960, 6988, 7023, 6933, 6938, 6953, 6955, 6968, 7268, 8196,4.025272607803345,SPEAK
107, 7408, 6970, 6965, 7529, 7014, 6983, 7016, 6927, 6943, 6952, 6944, 6939, 7223, 8137,4.033325433731079,SPEAK
108, 7661, 6955, 6917, 7520, 6908, 6904, 6925, 6999, 6973, 6963, 6985, 7021, 7388, 8393,4.041263103485107,SPEAK
109, 7371, 6967, 7022, 7802, 7014, 7031, 7059, 6890, 6932, 6951, 6929, 6924, 7177, 8235,4.049584150314331,SPEAK
110, 7439, 6968, 6912, 7490, 6937, 6880, 6893, 7004, 6979, 6965, 6974, 6991, 7349, 8391,4.057365417480469,SPEAK
111, 7412, 6955, 6986, 7515, 6954, 6987, 7003, 6933, 6949, 6957, 6968, 6973, 7289, 8164,4.06369686126709,SPEAK
112, 7404, 6969, 6965, 7588, 7012, 6993, 7006, 6904, 6938, 6957, 6938, 6940, 7194, 8068,4.07166862487793,SPEAK
113, 7644, 6960, 6904, 7462, 6903, 6882, 6911, 7016, 6979, 6975, 6987, 7036, 7395, 8423,4.079406499862671,SPEAK
114, 7376, 6983, 7050, 7665, 7025, 7053, 7099, 6912, 6934, 6960, 6944, 6931, 7200, 8242,4.087251424789429,SPEAK
115, 7472, 6984, 6938, 7487, 6961, 6922, 6925, 7008, 6981, 6972, 6978, 6989, 7331, 8336,4.0967183113098145,SPEAK
116, 7506, 6958, 6970, 7607, 6938, 6953, 6955, 6966, 6967, 6968, 6969, 6998, 7308, 8258,4.103123426437378,SPEAK
117, 7392, 6979, 6985, 7675, 7014, 6976, 6992, 6923, 6947, 6961, 6940, 6937, 7189, 8170,4.1126017570495605,SPEAK
118, 7561, 6963, 6905, 7433, 6911, 6888, 6899, 7027, 6994, 6980, 7006, 7032, 7400, 8421,4.120670557022095,SPEAK
119, 7353, 6965, 7020, 7603, 7016, 7060, 7082, 6896, 6938, 6966, 6961, 6950, 7212, 8161,4.12704062461853,SPEAK
120, 7522, 6981, 6924, 7470, 6968, 6923, 6932, 6984, 6968, 6970, 6975, 6992, 7318, 8271,4.135509014129639,SPEAK
121, 7605, 6970, 6974, 7624, 6939, 6953, 6960, 6990, 6979, 6971, 6985, 7007, 7344, 8345,4.143515348434448,SPEAK
122, 7370, 6994, 7025, 7773, 7035, 7017, 7019, 6929, 6963, 6968, 6953, 6944, 7204, 8261,4.151471138000488,SPEAK
123, 7486, 6979, 6915, 7445, 6916, 6886, 6887, 7025, 6997, 6983, 7003, 7040, 7411, 8415,4.159265041351318,SPEAK
124, 7344, 6968, 7017, 7578, 7002, 7034, 7045, 6894, 6940, 6967, 6959, 6952, 7212, 8066,4.167268753051758,SPEAK
125, 7533, 6979, 6940, 7523, 6980, 6925, 6921, 6974, 6977, 6978, 6981, 6992, 7295, 8216,4.1751179695129395,SPEAK
126, 7611, 6973, 6973, 7581, 6940, 6953, 6984, 7005, 6989, 6981, 6999, 7030, 7376, 8406,4.182656764984131,SPEAK
127, 7332, 6995, 7036, 7688, 7051, 7060, 7098, 6928, 6954, 6966, 6948, 6932, 7190, 8243,4.189177751541138,SPEAK
239, 7533, 6978, 6917, 7445, 6930, 6900, 6897, 7040, 7000, 6988, 6998, 7034, 7395, 8391,4.1988232135772705,SPEAK
0, 7433, 6975, 7029, 7664, 6999, 7019, 7014, 6928, 6962, 6979, 6967, 6971, 7244, 8119,4.20514178276062,SPEAK
1, 7480, 6995, 6964, 7582, 7001, 6946, 6940, 6981, 6989, 6985, 6977, 6978, 7284, 8222,4.213138580322266,SPEAK
2, 7564, 6976, 6956, 7499, 6939, 6954, 6972, 7011, 6993, 6995, 7005, 7032, 7387, 8406,4.222529411315918,SPEAK
3, 7354, 6988, 7034, 7622, 7047, 7061, 7080, 6912, 6944, 6979, 6964, 6942, 7200, 8179,4.2304065227508545,SPEAK
4, 7614, 6985, 6926, 7459, 6939, 6893, 6882, 7043, 7001, 6990, 7012, 7032, 7403, 8363,4.238137483596802,SPEAK
5, 7509, 6987, 7043, 7743, 7003, 7024, 7020, 6955, 6974, 6982, 6973, 6981, 7267, 8254,4.246040344238281,SPEAK
6, 7428, 6996, 6988, 7649, 7017, 6974, 6976, 6978, 6982, 6985, 6976, 6983, 7267, 8312,4.253766059875488,SPEAK
7, 7493, 6965, 6936, 7435, 6930, 6938, 6956, 7022, 6993, 6991, 7020, 7047, 7401, 8363,4.260153293609619,SPEAK
8, 7348, 6980, 7028, 7607, 7051, 7066, 7085, 6902, 6952, 6982, 6968, 6945, 7195, 8061,4.26942777633667,SPEAK
9, 7677, 6992, 6933, 7482, 6959, 6918, 6915, 7031, 7006, 7001, 7007, 7031, 7388, 8343,4.276731491088867,SPEAK
10, 7563, 7000, 7039, 7684, 7007, 7042, 7043, 6977, 6979, 6987, 6989, 6997, 7300, 8319,4.284752130508423,SPEAK
11, 7393, 7015, 7005, 7628, 7039, 7003, 6995, 6983, 6988, 6989, 6987, 6982, 7272, 8301,4.292652606964111,SPEAK
12, 7532, 6979, 6946, 7472, 6927, 6919, 6936, 7037, 7011, 7004, 7025, 7057, 7425, 8362,4.300708293914795,SPEAK
13, 7369, 6996, 7051, 7701, 7051, 7064, 7097, 6915, 6957, 6985, 6967, 6952, 7195, 8044,4.308904409408569,SPEAK
14, 7586, 7015, 6944, 7512, 6978, 6930, 6929, 7039, 7008, 6999, 7017, 7031, 7375, 8327,4.316928148269653,SPEAK
15, 7522, 7002, 7029, 7586, 6989, 7029, 7039, 6989, 6988, 6998, 7010, 7015, 7330, 8338,4.323348760604858,SPEAK
16, 7415, 7011, 7021, 7575, 7046, 7029, 7041, 6967, 6982, 6993, 6985, 6973, 7249, 8227,4.3310723304748535,SPEAK
17, 7626, 6997, 6954, 7504, 6951, 6937, 6940, 7052, 7021, 7004, 7028, 7057, 7423, 8365,4.3406081199646,SPEAK
18, 7422, 7010, 7072, 7796, 7054, 7073, 7077, 6937, 6971, 6992, 6974, 6966, 7211, 8163,4.348810434341431,SPEAK
19, 7515, 7001, 6949, 7526, 6970, 6920, 6920, 7035, 7010, 7010, 7006, 7036, 7362, 8371,4.35662579536438,SPEAK
20, 7466, 6980, 6993, 7513, 6980, 6998, 7027, 6984, 6993, 7001, 7009, 7028, 7343, 8276,4.3638916015625,SPEAK
21, 7426, 7011, 7021, 7585, 7065, 7037, 7054, 6951, 6980, 6989, 6985, 6970, 7233, 8127,4.371660232543945,SPEAK
22, 7723, 7005, 6960, 7513, 6947, 6931, 6928, 7068, 7025, 7009, 7031, 7066, 7434, 8399,4.379390239715576,SPEAK
23, 7460, 7011, 7077, 7802, 7051, 7079, 7086, 6950, 6977, 6998, 6983, 6977, 7234, 8260,4.387384414672852,SPEAK
24, 7469, 7011, 6965, 7556, 7004, 6946, 6945, 7035, 7011, 7007, 7012, 7031, 7353, 8393,4.395345211029053,SPEAK
25, 7484, 6986, 7003, 7512, 6976, 6999, 7010, 7008, 6998, 7008, 7015, 7041, 7367, 8239,4.403544664382935,SPEAK
26, 7419, 7004, 7037, 7647, 7060, 7057, 7064, 6948, 6977, 7002, 6986, 6966, 7218, 8031,4.411398649215698,SPEAK
27, 7703, 7000, 6936, 7481, 6953, 6933, 6932, 7072, 7030, 7018, 7044, 7071, 7433, 8401,4.418110132217407,SPEAK
28, 7468, 7021, 7072, 7650, 7057, 7093, 7102, 6965, 6986, 7005, 7000, 6998, 7265, 8282,4.427022695541382,SPEAK
29, 7483, 7037, 7000, 7523, 7014, 6979, 6968, 7041, 7015, 7011, 7020, 7031, 7350, 8326,4.434898376464844,SPEAK
30, 7570, 7005, 7009, 7614, 6961, 6985, 6986, 7028, 7018, 7013, 7030, 7052, 7388, 8301,4.442593336105347,SPEAK
31, 7409, 7014, 7052, 7757, 7071, 7056, 7066, 6937, 6990, 7007, 6985, 6972, 7215, 8148,4.450429916381836,SPEAK
32, 7590, 7007, 6945, 7475, 6959, 6923, 6932, 7063, 7027, 7021, 7044, 7077, 7439, 8418,4.45822286605835,SPEAK
33, 7430, 7007, 7055, 7616, 7041, 7087, 7111, 6958, 6981, 7000, 7012, 7005, 7282, 8197,4.46618914604187,SPEAK
34, 7536, 7017, 6981, 7517, 7033, 6999, 6997, 7016, 7020, 7015, 7020, 7020, 7329, 8241,4.47402286529541,SPEAK
35, 7672, 7008, 6993, 7602, 6968, 6981, 6972, 7057, 7035, 7034, 7039, 7070, 7418, 8377,4.481663942337036,SPEAK
36, 7416, 7037, 7079, 7821, 7080, 7086, 7085, 6966, 6988, 7018, 6994, 6981, 7226, 8248,4.489382028579712,SPEAK
37, 7542, 7020, 6949, 7475, 6967, 6931, 6935, 7072, 7035, 7027, 7049, 7075, 7431, 8427,4.497153282165527,SPEAK
38, 7423, 7004, 7040, 7578, 7025, 7058, 7077, 6962, 6999, 7017, 7013, 7017, 7295, 8124,4.506463527679443,SPEAK
39, 7531, 7024, 7004, 7583, 7042, 7011, 7003, 7005, 7011, 7025, 7013, 7018, 7313, 8171,4.514314413070679,SPEAK
40, 7702, 7014, 7003, 7571, 6975, 6996, 6986, 7068, 7032, 7034, 7052, 7076, 7442, 8429,4.522425651550293,SPEAK
41, 7409, 7031, 7082, 7721, 7090, 7114, 7113, 6962, 6997, 7018, 7003, 6980, 7240, 8255,4.52886176109314,SPEAK
42, 7569, 7022, 6949, 7473, 6971, 6931, 6924, 7075, 7048, 7031, 7047, 7078, 7429, 8403,4.53676176071167,SPEAK
43, 7517, 7011, 7041, 7658, 7012, 7033, 7041, 6991, 7010, 7021, 7022, 7031, 7312, 8180,4.5447633266448975,SPEAK
44, 7488, 7025, 7009, 7635, 7051, 7011, 7013, 6999, 7014, 7028, 7015, 7008, 7294, 8192,4.552560567855835,SPEAK
45, 7598, 7010, 6979, 7478, 6968, 6979, 6993, 7059, 7041, 7040, 7052, 7090, 7457, 8428,4.560354948043823,SPEAK
46, 7387, 7041, 7088, 7627, 7098, 7123, 7140, 6951, 6998, 7020, 6998, 6995, 7242, 8197,4.568207502365112,SPEAK
47, 7650, 7045, 6970, 7474, 7001, 6950, 6945, 7076, 7049, 7034, 7044, 7072, 7421, 8367,4.576264142990112,SPEAK
48, 7600, 7027, 7052, 7735, 7011, 7040, 7035, 7010, 7024, 7034, 7029, 7039, 7347, 8295,4.585571527481079,SPEAK
49, 7430, 7042, 7041, 7712, 7065, 7044, 7019, 7007, 7022, 7034, 7011, 7006, 7286, 8280,4.591924667358398,SPEAK
50, 7549, 7020, 6981, 7432, 6967, 6960, 6964, 7091, 7054, 7040, 7061, 7098, 7469, 8416,4.599871873855591,SPEAK
51, 7392, 7036, 7083, 7624, 7085, 7103, 7138, 6956, 6998, 7023, 7011, 6995, 7249, 8096,4.6079936027526855,SPEAK
52, 7667, 7046, 6979, 7507, 7016, 6975, 6964, 7070, 7046, 7043, 7049, 7065, 7402, 8317,4.615918397903442,SPEAK
53, 7646, 7036, 7069, 7673, 7029, 7070, 7054, 7045, 7038, 7037, 7050, 7060, 7383, 8368,4.623899698257446,SPEAK
54, 7433, 7056, 7071, 7705, 7095, 7082, 7077, 7016, 7029, 7028, 7022, 7008, 7292, 8307,4.631793975830078,SPEAK
55, 7608, 7028, 6977, 7467, 6969, 6958, 6964, 7099, 7064, 7047, 7066, 7106, 7480, 8410,4.639659404754639,SPEAK
56, 7444, 7030, 7089, 7686, 7081, 7106, 7126, 6966, 7008, 7031, 7012, 7011, 7259, 8068,4.6477649211883545,SPEAK
57, 7579, 7042, 6990, 7559, 7028, 6982, 6974, 7065, 7047, 7046, 7047, 7064, 7388, 8298,4.654383182525635,SPEAK
58, 7571, 7032, 7042, 7588, 7009, 7049, 7052, 7044, 7040, 7052, 7056, 7080, 7410, 8401,4.662228107452393,SPEAK
59, 7447, 7056, 7067, 7618, 7098, 7092, 7112, 6989, 7017, 7034, 7017, 7013, 7275, 8239,4.671003103256226,SPEAK
60, 7708, 7040, 6981, 7484, 6972, 6948, 6953, 7103, 7063, 7046, 7070, 7105, 7476, 8398,4.678349018096924,SPEAK
61, 7497, 7044, 7100, 7795, 7071, 7098, 7101, 6987, 7022, 7040, 7026, 7017, 7284, 8192,4.686272144317627,SPEAK
62, 7516, 7053, 7002, 7601, 7038, 6986, 6995, 7062, 7052, 7048, 7048, 7059, 7383, 8344,4.694310665130615,SPEAK
63, 7527, 7030, 7031, 7517, 6998, 7018, 7056, 7058, 7043, 7047, 7068, 7090, 7428, 8343,4.702735900878906,SPEAK
64, 7435, 7051, 7080, 7639, 7105, 7105, 7129, 6989, 7015, 7040, 7027, 7014, 7264, 8123,4.710330963134766,SPEAK
65, 7774, 7056, 6993, 7523, 6991, 6969, 6958, 7114, 7065, 7060, 7076, 7115, 7481, 8390,4.7179811000823975,SPEAK
66, 7553, 7065, 7114, 7797, 7075, 7113, 7100, 7006, 7026, 7045, 7033, 7033, 7311, 8291,4.725968599319458,SPEAK
67, 7483, 7063, 7017, 7628, 7055, 7010, 6997, 7059, 7056, 7051, 7052, 7058, 7370, 8386,4.733813524246216,SPEAK
68, 7566, 7027, 7012, 7519, 6989, 6998, 7011, 7065, 7058, 7057, 7078, 7110, 7443, 8304,4.741504430770874,SPEAK
69, 7451, 7046, 7084, 7696, 7096, 7094, 7104, 6978, 7014, 7047, 7024, 7017, 7249, 8019,4.74928879737854,SPEAK
70, 7703, 7045, 6985, 7521, 6992, 6968, 6964, 7115, 7068, 7064, 7080, 7112, 7470, 8391,4.757388353347778,SPEAK
71, 7519, 7055, 7097, 7655, 7076, 7127, 7140, 7013, 7036, 7051, 7052, 7053, 7338, 8325,4.765419960021973,SPEAK
72, 7506, 7070, 7031, 7543, 7078, 7043, 7035, 7044, 7054, 7053, 7049, 7061, 7356, 8302,4.7733330726623535,SPEAK
73, 7652, 7045, 7021, 7587, 6991, 6997, 6986, 7090, 7069, 7059, 7076, 7112, 7455, 8345,4.781302452087402,SPEAK
74, 7446, 7068, 7109, 7832, 7113, 7116, 7121, 6993, 7027, 7049, 7031, 7009, 7254, 8145,4.789197206497192,SPEAK
75, 7603, 7060, 6993, 7531, 7010, 6977, 6985, 7110, 7075, 7069, 7089, 7107, 7466, 8403,4.797086238861084,SPEAK
76, 7480, 7047, 7090, 7608, 7062, 7112, 7140, 7013, 7036, 7055, 7061, 7062, 7351, 8240,4.804928541183472,SPEAK
77, 7538, 7071, 7054, 7567, 7095, 7065, 7075, 7036, 7041, 7055, 7051, 7047, 7330, 8201,4.812800645828247,SPEAK
78, 7748, 7061, 7032, 7566, 7011, 7011, 7010, 7103, 7068, 7069, 7089, 7115, 7469, 8390,4.820526123046875,SPEAK
79, 7447, 7077, 7128, 7837, 7133, 7139, 7142, 6993, 7029, 7058, 7032, 7016, 7259, 8253,4.828320026397705,SPEAK
80, 7534, 7064, 6998, 7543, 7028, 6981, 6979, 7110, 7084, 7072, 7076, 7105, 7450, 8433,4.836148023605347,SPEAK
81, 7484, 7054, 7083, 7614, 7053, 7089, 7100, 7027, 7055, 7062, 7059, 7074, 7359, 8175,4.845571041107178,SPEAK
82, 7527, 7075, 7069, 7649, 7105, 7076, 7076, 7018, 7052, 7062, 7046, 7040, 7306, 8121,4.8517515659332275,SPEAK
83, 7745, 7055, 7021, 7556, 7014, 7018, 7010, 7113, 7084, 7074, 7089, 7123, 7482, 8436,4.860015630722046,SPEAK
84, 7451, 7083, 7139, 7745, 7146, 7168, 7156, 7011, 7037, 7057, 7037, 7034, 7268, 8258,4.867996454238892,SPEAK
85, 7569, 7089, 7031, 7519, 7050, 7004, 6994, 7119, 7086, 7076, 7086, 7112, 7438, 8389,4.875854253768921,SPEAK
86, 7566, 7066, 7089, 7659, 7047, 7078, 7101, 7047, 7062, 7072, 7079, 7079, 7376, 8232,4.883389234542847,SPEAK
87, 7472, 7078, 7076, 7719, 7121, 7088, 7087, 7022, 7047, 7060, 7049, 7033, 7273, 8158,4.891148090362549,SPEAK
88, 7633, 7058, 7008, 7505, 7016, 7003, 6997, 7130, 7083, 7074, 7099, 7145, 7492, 8435,4.900421857833862,SPEAK
89, 7427, 7075, 7138, 7651, 7133, 7168, 7188, 7004, 7037, 7061, 7051, 7045, 7300, 8211,4.908462285995483,SPEAK
90, 7641, 7088, 7032, 7506, 7062, 7020, 7018, 7100, 7085, 7076, 7083, 7097, 7426, 8350,4.914784669876099,SPEAK
91, 7672, 7068, 7082, 7717, 7042, 7072, 7064, 7073, 7074, 7077, 7079, 7101, 7411, 8332,4.92306113243103,SPEAK
92, 7447, 7081, 7105, 7803, 7128, 7115, 7102, 7022, 7052, 7069, 7045, 7039, 7289, 8236,4.930906057357788,SPEAK
93, 7588, 7059, 6998, 7472, 7009, 7000, 6987, 7125, 7089, 7081, 7106, 7136, 7499, 8430,4.938955068588257,SPEAK
94, 7448, 7068, 7106, 7635, 7114, 7152, 7162, 7000, 7040, 7067, 7062, 7045, 7306, 8134,4.9470415115356445,SPEAK
95, 7653, 7086, 7041, 7555, 7077, 7035, 7032, 7090, 7084, 7083, 7082, 7092, 7414, 8289,4.954436779022217,SPEAK
96, 7690, 7073, 7092, 7640, 7050, 7082, 7076, 7101, 7084, 7085, 7094, 7118, 7447, 8402,4.962407827377319,SPEAK
97, 7440, 7088, 7117, 7717, 7143, 7139, 7135, 7038, 7053, 7072, 7058, 7045, 7299, 8306,4.970402717590332,SPEAK
98, 7639, 7069, 7000, 7480, 7009, 6976, 6974, 7138, 7100, 7091, 7108, 7142, 7505, 8454,4.978153467178345,SPEAK
99, 7500, 7074, 7120, 7718, 7093, 7121, 7131, 7015, 7052, 7081, 7059, 7064, 7308, 8096,4.986107110977173,SPEAK
100, 7570, 7084, 7048, 7604, 7080, 7048, 7038, 7086, 7078, 7087, 7080, 7096, 7380, 8227,4.994112968444824,SPEAK
101, 7623, 7068, 7062, 7545, 7043, 7077, 7083, 7106, 7092, 7091, 7105, 7130, 7471, 8438,5.002092361450195,SPEAK
102, 7443, 7095, 7127, 7649, 7152, 7161, 7175, 7023, 7062, 7082, 7061, 7049, 7296, 8265,5.010000228881836,SPEAK
103, 7717, 7080, 7025, 7498, 7021, 6994, 6987, 7147, 7108, 7096, 7113, 7151, 7499, 8411,5.018249273300171,SPEAK
104, 7562, 7083, 7135, 7805, 7098, 7128, 7130, 7040, 7069, 7080, 7073, 7068, 7343, 8209,5.026201248168945,SPEAK
105, 7503, 7103, 7066, 7684, 7105, 7058, 7054, 7091, 7090, 7084, 7085, 7081, 7379, 8301,5.034234046936035,SPEAK
106, 7563, 7074, 7049, 7520, 7028, 7044, 7053, 7124, 7098, 7095, 7115, 7148, 7486, 8398,5.042129278182983,SPEAK
107, 7447, 7085, 7126, 7675, 7150, 7161, 7179, 7011, 7056, 7084, 7060, 7050, 7292, 8144,5.048481702804565,SPEAK
108, 7786, 7086, 7031, 7535, 7054, 7016, 7006, 7145, 7113, 7100, 7114, 7144, 7498, 8378,5.056533336639404,SPEAK
109, 7619, 7095, 7143, 7771, 7109, 7145, 7129, 7068, 7080, 7092, 7090, 7093, 7370, 8327,5.065438985824585,SPEAK
110, 7476, 7107, 7090, 7675, 7113, 7077, 7061, 7083, 7086, 7096, 7087, 7085, 7369, 8381,5.073134422302246,SPEAK
111, 7616, 7081, 7057, 7528, 7021, 7022, 7028, 7127, 7104, 7098, 7120, 7153, 7504, 8373,5.080933332443237,SPEAK
112, 7464, 7103, 7145, 7746, 7155, 7161, 7176, 7017, 7061, 7078, 7067, 7054, 7285, 8030,5.088672637939453,SPEAK
113, 7675, 7101, 7029, 7556, 7067, 7032, 7024, 7142, 7106, 7100, 7116, 7145, 7484, 8359,5.096771478652954,SPEAK
114, 7560, 7093, 7129, 7652, 7106, 7156, 7157, 7073, 7075, 7093, 7093, 7108, 7400, 8368,5.104559898376465,SPEAK
115, 7515, 7113, 7109, 7602, 7136, 7113, 7108, 7086, 7090, 7096, 7083, 7078, 7356, 8303,5.112441778182983,SPEAK
116, 7723, 7094, 7062, 7567, 7030, 7028, 7026, 7156, 7121, 7117, 7128, 7155, 7519, 8394,5.120142221450806,SPEAK
117, 7478, 7107, 7157, 7852, 7163, 7176, 7179, 7030, 7063, 7095, 7072, 7057, 7297, 8146,5.127970933914185,SPEAK
118, 7583, 7102, 7044, 7570, 7074, 7030, 7025, 7141, 7108, 7099, 7116, 7142, 7467, 8386,5.135875701904297,SPEAK
119, 7521, 7090, 7120, 7594, 7087, 7124, 7142, 7075, 7089, 7096, 7108, 7115, 7415, 8318,5.143783807754517,SPEAK
120, 7524, 7114, 7106, 7624, 7157, 7130, 7137, 7057, 7084, 7095, 7085, 7071, 7338, 8207,5.151480674743652,SPEAK
121, 7801, 7099, 7049, 7567, 7042, 7036, 7042, 7152, 7121, 7109, 7133, 7173, 7525, 8419,5.159287452697754,SPEAK
122, 7505, 7112, 7168, 7854, 7153, 7184, 7191, 7031, 7076, 7098, 7076, 7069, 7310, 8271,5.168656826019287,SPEAK
123, 7545, 7106, 7048, 7583, 7082, 7038, 7023, 7134, 7117, 7108, 7110, 7124, 7456, 8438,5.175046443939209,SPEAK
124, 7562, 7082, 7101, 7586, 7082, 7103, 7115, 7089, 7092, 7104, 7113, 7128, 7431, 8259,5.182758092880249,SPEAK
125, 7530, 7113, 7123, 7693, 7160, 7133, 7145, 7051, 7080, 7103, 7086, 7084, 7320, 8106,5.19056248664856,SPEAK
126, 7766, 7104, 7050, 7563, 7040, 7029, 7034, 7166, 7135, 7118, 7139, 7180, 7533, 8446,5.198312520980835,SPEAK
127, 7492, 7111, 7173, 7754, 7158, 7188, 7211, 7043, 7084, 7097, 7089, 7076, 7323, 8296,5.206484317779541,SPEAK
239, 7568, 7120, 7075, 7553, 7104, 7053, 7057, 7132, 7116, 7109, 7118, 7127, 7432, 8391,5.214358329772949,SPEAK
0, 7642, 7105, 7105, 7635, 7069, 7083, 7081, 7115, 7112, 7114, 7127, 7151, 7453, 8286,5.2222418785095215,SPEAK
1, 7500, 7120, 7133, 7778, 7164, 7135, 7127, 7051, 7088, 7104, 7086, 7074, 7310, 8113,5.231511354446411,SPEAK
2, 7664, 7097, 7036, 7530, 7045, 7022, 7026, 7170, 7129, 7123, 7142, 7168, 7526, 8441,5.239416599273682,SPEAK
3, 7461, 7109, 7156, 7657, 7154, 7196, 7228, 7051, 7082, 7107, 7098, 7089, 7340, 8271,5.245808124542236,SPEAK
4, 7621, 7130, 7089, 7538, 7135, 7090, 7093, 7120, 7117, 7112, 7114, 7125, 7421, 8325,5.253876686096191,SPEAK
5, 7743, 7117, 7116, 7685, 7076, 7083, 7074, 7136, 7120, 7119, 7126, 7147, 7479, 8364,5.261617422103882,SPEAK
6, 7475, 7136, 7160, 7867, 7168, 7148, 7145, 7059, 7090, 7107, 7082, 7062, 7306, 8232,5.269660234451294,SPEAK
7, 7605, 7106, 7039, 7516, 7054, 7021, 7027, 7158, 7131, 7118, 7142, 7170, 7516, 8446,5.277623653411865,SPEAK
8, 7488, 7097, 7144, 7643, 7144, 7177, 7193, 7043, 7078, 7107, 7106, 7100, 7355, 8175,5.285638809204102,SPEAK
9, 7634, 7124, 7084, 7613, 7128, 7090, 7079, 7116, 7111, 7122, 7122, 7122, 7410, 8247,5.293504953384399,SPEAK
10, 7739, 7114, 7099, 7600, 7064, 7089, 7089, 7149, 7136, 7130, 7144, 7169, 7503, 8425,5.301525831222534,SPEAK
11, 7442, 7126, 7172, 7722, 7191, 7190, 7203, 7049, 7095, 7119, 7092, 7073, 7307, 8286,5.3095574378967285,SPEAK
12, 7636, 7118, 7055, 7524, 7065, 7023, 7016, 7172, 7135, 7132, 7149, 7173, 7516, 8454,5.317431688308716,SPEAK
13, 7555, 7111, 7148, 7755, 7114, 7149, 7150, 7070, 7096, 7115, 7116, 7114, 7376, 8153,5.3252692222595215,SPEAK
14, 7567, 7116, 7089, 7659, 7141, 7097, 7098, 7099, 7112, 7123, 7116, 7115, 7386, 8186,5.333288908004761,SPEAK
15, 7683, 7106, 7079, 7521, 7079, 7094, 7107, 7149, 7127, 7130, 7150, 7181, 7522, 8450,5.341390132904053,SPEAK
16, 7464, 7138, 7179, 7691, 7197, 7216, 7232, 7045, 7083, 7110, 7099, 7081, 7313, 8255,5.348832130432129,SPEAK
17, 7710, 7131, 7067, 7539, 7075, 7034, 7018, 7183, 7142, 7134, 7151, 7171, 7502, 8401,5.356578350067139,SPEAK
18, 7631, 7130, 7162, 7816, 7121, 7149, 7129, 7110, 7114, 7131, 7122, 7129, 7397, 8266,5.364551782608032,SPEAK
19, 7521, 7148, 7127, 7765, 7164, 7126, 7108, 7105, 7114, 7128, 7112, 7115, 7369, 8295,5.372418403625488,SPEAK
20, 7614, 7108, 7078, 7515, 7067, 7070, 7076, 7157, 7138, 7139, 7156, 7191, 7527, 8436,5.380218744277954,SPEAK
21, 7452, 7118, 7169, 7698, 7184, 7202, 7219, 7038, 7090, 7122, 7102, 7085, 7312, 8144,5.387963771820068,SPEAK
22, 7771, 7131, 7066, 7555, 7089, 7051, 7039, 7172, 7143, 7134, 7144, 7176, 7495, 8362,5.395848274230957,SPEAK
23, 7695, 7135, 7173, 7705, 7126, 7160, 7155, 7123, 7128, 7132, 7131, 7151, 7429, 8362,5.403624057769775,SPEAK
24, 7475, 7154, 7158, 7697, 7188, 7152, 7143, 7105, 7125, 7130, 7119, 7100, 7359, 8349,5.411438226699829,SPEAK
25, 7647, 7115, 7068, 7543, 7058, 7041, 7035, 7176, 7151, 7141, 7167, 7190, 7532, 8422,5.419157028198242,SPEAK
26, 7505, 7117, 7166, 7773, 7165, 7177, 7186, 7043, 7097, 7125, 7108, 7097, 7317, 8055,5.427119731903076,SPEAK
27, 7674, 7131, 7076, 7561, 7109, 7076, 7072, 7153, 7145, 7142, 7150, 7160, 7487, 8325,5.435151100158691,SPEAK
28, 7624, 7132, 7159, 7596, 7133, 7183, 7182, 7135, 7138, 7140, 7146, 7153, 7466, 8416,5.442965507507324,SPEAK
29, 7513, 7156, 7172, 7632, 7199, 7176, 7169, 7119, 7126, 7130, 7116, 7114, 7360, 8297,5.45077657699585,SPEAK
30, 7756, 7132, 7090, 7562, 7062, 7047, 7051, 7202, 7159, 7143, 7167, 7209, 7545, 8420,5.4586451053619385,SPEAK
31, 7529, 7142, 7190, 7864, 7177, 7199, 7210, 7062, 7108, 7132, 7112, 7102, 7327, 8170,5.466393232345581,SPEAK
32, 7572, 7145, 7086, 7591, 7121, 7070, 7062, 7164, 7146, 7146, 7146, 7163, 7468, 8375,5.474217414855957,SPEAK
33, 7556, 7123, 7138, 7557, 7101, 7138, 7153, 7137, 7133, 7143, 7156, 7175, 7478, 8371,5.48211407661438,SPEAK
34, 7519, 7147, 7161, 7681, 7200, 7184, 7195, 7075, 7115, 7136, 7116, 7104, 7326, 8191,5.491700172424316,SPEAK
35, 7850, 7136, 7064, 7549, 7074, 7045, 7045, 7207, 7164, 7156, 7166, 7208, 7542, 8427,5.4982099533081055,SPEAK
36, 7569, 7145, 7193, 7816, 7177, 7200, 7217, 7099, 7114, 7140, 7122, 7122, 7359, 8267,5.5059754848480225,SPEAK
37, 7532, 7153, 7109, 7636, 7144, 7088, 7084, 7162, 7144, 7147, 7147, 7160, 7449, 8392,5.5138750076293945,SPEAK
38, 7609, 7128, 7114, 7582, 7094, 7102, 7106, 7141, 7140, 7147, 7158, 7183, 7493, 8338,5.522027492523193,SPEAK
39, 7520, 7142, 7158, 7735, 7194, 7182, 7192, 7069, 7110, 7141, 7114, 7103, 7331, 8115,5.529575347900391,SPEAK
40, 7776, 7130, 7078, 7557, 7078, 7064, 7053, 7207, 7163, 7162, 7169, 7209, 7552, 8429,5.537603139877319,SPEAK
41, 7549, 7143, 7204, 7698, 7172, 7215, 7212, 7102, 7124, 7144, 7129, 7134, 7384, 8322,5.546661853790283,SPEAK
42, 7558, 7165, 7124, 7564, 7157, 7114, 7109, 7155, 7149, 7149, 7141, 7153, 7434, 8383,5.554605007171631,SPEAK
43, 7697, 7138, 7117, 7648, 7089, 7099, 7097, 7171, 7157, 7156, 7162, 7191, 7512, 8348,5.562640428543091,SPEAK
44, 7518, 7148, 7180, 7843, 7194, 7188, 7187, 7074, 7122, 7142, 7124, 7104, 7328, 8102,5.569021463394165,SPEAK
45, 7660, 7137, 7077, 7524, 7087, 7059, 7067, 7199, 7171, 7156, 7183, 7209, 7544, 8427,5.577094554901123,SPEAK
46, 7499, 7142, 7188, 7657, 7173, 7213, 7247, 7105, 7127, 7146, 7142, 7146, 7405, 8320,5.584780216217041,SPEAK
47, 7609, 7162, 7140, 7619, 7180, 7137, 7140, 7147, 7147, 7153, 7145, 7150, 7415, 8304,5.592716217041016,SPEAK
48, 7799, 7142, 7135, 7648, 7094, 7096, 7080, 7195, 7175, 7166, 7179, 7209, 7525, 8399,5.6001036167144775,SPEAK
49, 7502, 7166, 7213, 7886, 7211, 7208, 7190, 7093, 7130, 7152, 7126, 7114, 7333, 8241,5.608094930648804,SPEAK
50, 7614, 7156, 7087, 7574, 7103, 7063, 7059, 7206, 7171, 7162, 7177, 7216, 7543, 8457,5.617593765258789,SPEAK
51, 7535, 7141, 7178, 7646, 7159, 7195, 7237, 7113, 7138, 7150, 7152, 7166, 7420, 8224,5.625725984573364,SPEAK
52, 7579, 7160, 7150, 7643, 7194, 7159, 7170, 7133, 7148, 7151, 7146, 7139, 7389, 8201,5.633151531219482,SPEAK
53, 7749, 7154, 7126, 7612, 7102, 7113, 7087, 7208, 7174, 7164, 7186, 7208, 7546, 8443,5.639405012130737,SPEAK
54, 7489, 7181, 7224, 7799, 7219, 7245, 7230, 7107, 7134, 7153, 7132, 7119, 7352, 8296,5.64720892906189,SPEAK
55, 7670, 7166, 7104, 7538, 7110, 7085, 7077, 7212, 7183, 7165, 7180, 7208, 7535, 8456,5.655145645141602,SPEAK
56, 7621, 7141, 7176, 7717, 7141, 7182, 7198, 7122, 7148, 7155, 7162, 7165, 7439, 8212,5.663151264190674,SPEAK
57, 7537, 7166, 7157, 7766, 7201, 7171, 7173, 7122, 7147, 7159, 7143, 7134, 7375, 8164,5.672539472579956,SPEAK
58, 7688, 7152, 7110, 7570, 7093, 7107, 7092, 7213, 7178, 7173, 7191, 7233, 7559, 8476,5.68052339553833,SPEAK
59, 7485, 7158, 7214, 7697, 7213, 7252, 7253, 7088, 7124, 7152, 7143, 7132, 7349, 8276,5.688289403915405,SPEAK
60, 7724, 7157, 7113, 7537, 7132, 7095, 7085, 7199, 7171, 7170, 7182, 7196, 7512, 8401,5.696022033691406,SPEAK
61, 7709, 7153, 7187, 7777, 7137, 7165, 7153, 7157, 7157, 7167, 7162, 7182, 7467, 8311,5.702229261398315,SPEAK
62, 7502, 7171, 7173, 7811, 7204, 7167, 7158, 7130, 7147, 7158, 7133, 7138, 7371, 8247,5.710119962692261,SPEAK
63, 7641, 7147, 7101, 7506, 7091, 7071, 7088, 7225, 7182, 7173, 7196, 7231, 7569, 8455,5.7194504737854,SPEAK
64, 7493, 7166, 7227, 7666, 7211, 7242, 7276, 7097, 7135, 7160, 7150, 7133, 7359, 8189,5.727492570877075,SPEAK
65, 7713, 7173, 7123, 7559, 7148, 7117, 7110, 7197, 7176, 7172, 7180, 7196, 7485, 8351,5.73540186882019,SPEAK
66, 7708, 7156, 7170, 7735, 7129, 7165, 7156, 7178, 7166, 7169, 7179, 7202, 7490, 8404,5.7432873249053955,SPEAK
67, 7494, 7184, 7207, 7803, 7218, 7199, 7192, 7133, 7154, 7166, 7145, 7138, 7375, 8342,5.751161813735962,SPEAK
68, 7715, 7164, 7121, 7505, 7102, 7076, 7068, 7228, 7200, 7186, 7197, 7233, 7570, 8469,5.7589194774627686,SPEAK
69, 7562, 7161, 7215, 7726, 7201, 7218, 7225, 7091, 7140, 7166, 7151, 7139, 7362, 8106,5.765279293060303,SPEAK
70, 7630, 7171, 7125, 7649, 7154, 7105, 7099, 7181, 7173, 7173, 7181, 7191, 7478, 8302,5.773112773895264,SPEAK
71, 7626, 7162, 7166, 7626, 7132, 7162, 7171, 7197, 7180, 7179, 7193, 7218, 7520, 8469,5.782646417617798,SPEAK
72, 7499, 7190, 7213, 7651, 7242, 7240, 7248, 7127, 7152, 7169, 7150, 7135, 7358, 8314,5.790572643280029,SPEAK
73, 7811, 7175, 7121, 7524, 7110, 7087, 7073, 7233, 7199, 7183, 7199, 7229, 7570, 8456,5.798603057861328,SPEAK
74, 7609, 7178, 7226, 7860, 7194, 7206, 7203, 7123, 7157, 7168, 7149, 7152, 7387, 8196,5.806447267532349,SPEAK
75, 7564, 7180, 7136, 7685, 7174, 7116, 7113, 7191, 7179, 7175, 7169, 7188, 7454, 8322,5.814316987991333,SPEAK
76, 7624, 7152, 7143, 7558, 7124, 7155, 7172, 7195, 7177, 7186, 7197, 7229, 7542, 8435,5.8221755027771,SPEAK
77, 7520, 7182, 7209, 7697, 7242, 7247, 7262, 7105, 7149, 7178, 7152, 7137, 7361, 8225,5.830136060714722,SPEAK
78, 7825, 7182, 7120, 7539, 7122, 7089, 7080, 7241, 7206, 7191, 7202, 7237, 7563, 8436,5.83633279800415,SPEAK
79, 7615, 7186, 7241, 7798, 7200, 7234, 7227, 7145, 7166, 7179, 7165, 7172, 7417, 8308,5.844200134277344,SPEAK
80, 7554, 7200, 7172, 7680, 7200, 7166, 7142, 7182, 7185, 7186, 7176, 7184, 7456, 8389,5.852133274078369,SPEAK
81, 7690, 7170, 7141, 7562, 7116, 7130, 7129, 7195, 7189, 7188, 7207, 7237, 7553, 8404,5.861741781234741,SPEAK
82, 7521, 7184, 7217, 7784, 7235, 7229, 7240, 7090, 7145, 7176, 7155, 7139, 7342, 8114,5.8692286014556885,SPEAK
83, 7737, 7185, 7126, 7615, 7142, 7105, 7088, 7243, 7203, 7199, 7208, 7237, 7562, 8420,5.877216577529907,SPEAK
84, 7594, 7189, 7230, 7705, 7214, 7250, 7245, 7158, 7169, 7187, 7181, 7182, 7449, 8385,5.884896278381348,SPEAK
85, 7580, 7197, 7173, 7593, 7220, 7174, 7163, 7168, 7183, 7188, 7181, 7172, 7437, 8380,5.8929266929626465,SPEAK
86, 7774, 7170, 7141, 7602, 7105, 7101, 7087, 7225, 7209, 7194, 7213, 7243, 7565, 8417,5.900804281234741,SPEAK
87, 7527, 7191, 7237, 7882, 7234, 7236, 7235, 7109, 7159, 7172, 7158, 7141, 7345, 8139,5.90887713432312,SPEAK
88, 7632, 7182, 7123, 7580, 7146, 7110, 7113, 7220, 7203, 7191, 7213, 7231, 7545, 8417,5.916774034500122,SPEAK
89, 7536, 7172, 7204, 7631, 7186, 7238, 7254, 7151, 7173, 7191, 7188, 7196, 7464, 8354,5.924631595611572,SPEAK
90, 7609, 7200, 7189, 7648, 7237, 7221, 7208, 7167, 7172, 7186, 7173, 7169, 7416, 8284,5.932359457015991,SPEAK
91, 7864, 7194, 7161, 7622, 7133, 7138, 7124, 7245, 7210, 7196, 7219, 7251, 7578, 8438,5.940133571624756,SPEAK
92, 7526, 7210, 7262, 7882, 7245, 7262, 7258, 7126, 7169, 7188, 7160, 7154, 7358, 8248,5.947846412658691,SPEAK
93, 7600, 7191, 7130, 7599, 7152, 7115, 7091, 7233, 7206, 7203, 7205, 7230, 7534, 8453,5.955612897872925,SPEAK
94, 7599, 7172, 7189, 7669, 7166, 7202, 7205, 7159, 7175, 7196, 7197, 7204, 7477, 8289,5.963371515274048,SPEAK
95, 7584, 7200, 7198, 7745, 7237, 7207, 7211, 7139, 7171, 7193, 7170, 7161, 7383, 8168,5.971278190612793,SPEAK
96, 7803, 7189, 7148, 7595, 7132, 7133, 7120, 7259, 7215, 7207, 7220, 7262, 7583, 8460,5.979001045227051,SPEAK
97, 7524, 7207, 7260, 7769, 7254, 7287, 7280, 7148, 7170, 7190, 7177, 7170, 7381, 8322,5.986830949783325,SPEAK
98, 7630, 7209, 7151, 7573, 7188, 7136, 7132, 7229, 7209, 7204, 7213, 7228, 7510, 8446,5.994688987731934,SPEAK
99, 7669, 7183, 7190, 7713, 7173, 7188, 7204, 7181, 7193, 7203, 7203, 7221, 7498, 8266,6.002543210983276,SPEAK
100, 7537, 7196, 7203, 7811, 7243, 7218, 7218, 7138, 7173, 7192, 7171, 7164, 7388, 8118,6.010467767715454,SPEAK
101, 7684, 7185, 7130, 7569, 7129, 7116, 7110, 7242, 7212, 7203, 7232, 7266, 7585, 8468,6.01848030090332,SPEAK
102, 7501, 7200, 7245, 7717, 7248, 7277, 7292, 7132, 7168, 7191, 7184, 7178, 7390, 8309,6.026188850402832,SPEAK
103, 7720, 7203, 7154, 7568, 7195, 7156, 7149, 7228, 7210, 7201, 7207, 7227, 7504, 8378,6.0341150760650635,SPEAK
104, 7774, 7194, 7200, 7710, 7161, 7185, 7176, 7216, 7206, 7199, 7215, 7235, 7517, 8354,6.0415565967559814,SPEAK
105, 7502, 7223, 7236, 7855, 7256, 7235, 7223, 7154, 7186, 7192, 7179, 7155, 7372, 8243,6.049421072006226,SPEAK
106, 7655, 7198, 7132, 7561, 7128, 7111, 7095, 7257, 7229, 7209, 7236, 7262, 7591, 8468,6.058797121047974,SPEAK
107, 7532, 7193, 7240, 7716, 7228, 7266, 7273, 7129, 7171, 7193, 7197, 7187, 7408, 8201,6.066729307174683,SPEAK
108, 7693, 7210, 7165, 7622, 7211, 7171, 7170, 7208, 7200, 7200, 7217, 7221, 7489, 8308,6.073127269744873,SPEAK
109, 7756, 7206, 7200, 7657, 7170, 7198, 7191, 7223, 7212, 7202, 7223, 7249, 7541, 8441,6.082751274108887,SPEAK
110, 7491, 7225, 7256, 7766, 7276, 7269, 7255, 7145, 7186, 7192, 7176, 7169, 7369, 8328,6.091136693954468,SPEAK
111, 7714, 7196, 7126, 7529, 7136, 7107, 7101, 7269, 7230, 7217, 7238, 7276, 7607, 8485,6.0982139110565186,SPEAK
112, 7590, 7196, 7231, 7789, 7216, 7251, 7274, 7146, 7174, 7204, 7197, 7189, 7430, 8135,6.104914903640747,SPEAK
113, 7597, 7217, 7181, 7701, 7223, 7182, 7179, 7199, 7200, 7207, 7205, 7199, 7448, 8234,6.112344264984131,SPEAK
114, 7677, 7204, 7187, 7588, 7159, 7181, 7172, 7251, 7226, 7216, 7240, 7261, 7563, 8482,6.120367765426636,SPEAK
115, 7515, 7228, 7262, 7711, 7270, 7279, 7276, 7154, 7186, 7206, 7193, 7172, 7388, 8314,6.128587961196899,SPEAK
116, 7811, 7209, 7148, 7553, 7146, 7113, 7092, 7270, 7234, 7226, 7237, 7263, 7590, 8474,6.136469125747681,SPEAK
117, 7658, 7200, 7247, 7860, 7214, 7239, 7227, 7177, 7199, 7214, 7198, 7202, 7442, 8239,6.144261121749878,SPEAK
118, 7553, 7223, 7194, 7775, 7236, 7192, 7175, 7202, 7205, 7212, 7206, 7210, 7450, 8284,6.153757333755493,SPEAK
119, 7653, 7191, 7164, 7556, 7151, 7165, 7165, 7234, 7218, 7222, 7247, 7276, 7580, 8463,6.161038637161255,SPEAK
120, 7504, 7204, 7253, 7703, 7274, 7284, 7294, 7125, 7179, 7210, 7188, 7169, 7372, 8234,6.16751503944397,SPEAK
121, 7823, 7224, 7161, 7573, 7168, 7129, 7111, 7274, 7237, 7226, 7235, 7264, 7584, 8437,6.176542282104492,SPEAK
122, 7706, 7232, 7270, 7826, 7220, 7256, 7240, 7206, 7212, 7222, 7212, 7225, 7478, 8323,6.184234142303467,SPEAK
123, 7528, 7235, 7224, 7762, 7255, 7223, 7202, 7200, 7211, 7223, 7204, 7201, 7437, 8328,6.1919450759887695,SPEAK
124, 7664, 7195, 7159, 7557, 7141, 7138, 7133, 7249, 7224, 7229, 7243, 7274, 7596, 8464,6.19974946975708,SPEAK
125, 7524, 7206, 7255, 7801, 7270, 7270, 7279, 7133, 7181, 7212, 7189, 7174, 7372, 8160,6.207563638687134,SPEAK
126, 7760, 7213, 7156, 7623, 7193, 7152, 7133, 7263, 7236, 7229, 7241, 7264, 7556, 8384,6.215267181396484,SPEAK
127, 7658, 7219, 7245, 7664, 7221, 7268, 7263, 7198, 7204, 7222, 7228, 7243, 7500, 8399,6.224363565444946,SPEAK
239, 7534, 7246, 7235, 7653, 7276, 7244, 7239, 7182, 7203, 7219, 7202, 7196, 7418, 8388,6.232062101364136,SPEAK
0, 7785, 7210, 7168, 7627, 7143, 7132, 7117, 7279, 7252, 7233, 7247, 7281, 7593, 8459,6.238304615020752,SPEAK
1, 7577, 7213, 7266, 7911, 7251, 7274, 7265, 7158, 7195, 7215, 7193, 7185, 7392, 8093,6.247705936431885,SPEAK
2, 7632, 7220, 7156, 7618, 7198, 7154, 7142, 7255, 7227, 7231, 7234, 7255, 7560, 8361,6.2555296421051025,SPEAK
3, 7567, 7206, 7220, 7627, 7210, 7249, 7261, 7204, 7215, 7228, 7232, 7244, 7526, 8453,6.263267278671265,SPEAK
4, 7572, 7231, 7234, 7678, 7276, 7263, 7267, 7172, 7205, 7220, 7199, 7189, 7411, 8324,6.271139144897461,SPEAK
5, 7894, 7222, 7176, 7575, 7154, 7139, 7123, 7290, 7246, 7238, 7246, 7288, 7609, 8472,6.278869390487671,SPEAK
6, 7578, 7239, 7300, 7922, 7286, 7296, 7282, 7171, 7200, 7223, 7193, 7184, 7388, 8244,6.286678075790405,SPEAK
7, 7595, 7231, 7162, 7677, 7199, 7147, 7140, 7280, 7243, 7235, 7236, 7258, 7545, 8413,6.293146848678589,SPEAK
8, 7636, 7202, 7211, 7586, 7166, 7203, 7206, 7217, 7222, 7234, 7247, 7270, 7556, 8390,6.302635669708252,SPEAK
9, 7527, 7247, 7285, 7717, 7338, 7304, 7277, 7096, 7191, 7219, 7186, 7147, 7313, 8168,6.310512065887451,SPEAK
10, 7884, 7214, 7098, 7636, 7090, 7066, 7102, 7397, 7281, 7249, 7278, 7347, 7676, 8378,6.3171374797821045,SPEAK
11, 7760, 7200, 7235, 7929, 7128, 7230, 7275, 7306, 7231, 7238, 7259, 7304, 7628, 8261,6.326105356216431,SPEAK
12, 7727, 7238, 7259, 7782, 7279, 7269, 7225, 7175, 7216, 7225, 7226, 7200, 7553, 8386,6.334225416183472,SPEAK
13, 7752, 7215, 7206, 7692, 7203, 7201, 7204, 7236, 7236, 7233, 7245, 7249, 7601, 8301,6.3416218757629395,SPEAK
14, 7647, 7229, 7243, 7816, 7252, 7236, 7242, 7194, 7213, 7233, 7216, 7209, 7498, 8059,6.3495800495147705,SPEAK
15, 7863, 7231, 7180, 7673, 7196, 7168, 7147, 7253, 7241, 7245, 7254, 7276, 7674, 8384,6.356994152069092,SPEAK
16, 7649, 7242, 7275, 7832, 7289, 7318, 7329, 7162, 7199, 7231, 7221, 7213, 7512, 8294,6.365068435668945,SPEAK
17, 7723, 7258, 7215, 7668, 7267, 7221, 7206, 7231, 7233, 7239, 7231, 7234, 7576, 8345,6.373074054718018,SPEAK
18, 7877, 7233, 7227, 7772, 7182, 7192, 7169, 7272, 7256, 7247, 7252, 7283, 7669, 8329,6.380974769592285,SPEAK
19, 7639, 7259, 7296, 8023, 7305, 7290, 7272, 7169, 7215, 7229, 7204, 7191, 7462, 8111,6.38884425163269,SPEAK
20, 7757, 7242, 7165, 7660, 7184, 7140, 7134, 7290, 7252, 7245, 7260, 7296, 7675, 8418,6.396798133850098,SPEAK
21, 7616, 7227, 7264, 7747, 7252, 7277, 7294, 7177, 7211, 7239, 7226, 7227, 7536, 8270,6.404601812362671,SPEAK
22, 7772, 7247, 7217, 7750, 7267, 7218, 7213, 7217, 7235, 7244, 7230, 7230, 7551, 8247,6.412247657775879,SPEAK
23, 7977, 7239, 7213, 7741, 7185, 7198, 7187, 7280, 7259, 7247, 7265, 7303, 7684, 8373,6.421553611755371,SPEAK
24, 7631, 7268, 7299, 7887, 7324, 7323, 7318, 7167, 7217, 7231, 7208, 7193, 7468, 8232,6.427796840667725,SPEAK
25, 7753, 7244, 7163, 7632, 7189, 7140, 7134, 7293, 7266, 7253, 7264, 7294, 7671, 8441,6.435680150985718,SPEAK
26, 7701, 7225, 7261, 7830, 7231, 7257, 7260, 7189, 7223, 7245, 7237, 7245, 7551, 8183,6.443729877471924,SPEAK
27, 7723, 7250, 7230, 7814, 7279, 7242, 7234, 7209, 7231, 7241, 7230, 7224, 7530, 8157,6.451501131057739,SPEAK
28, 7887, 7235, 7194, 7648, 7176, 7200, 7202, 7292, 7263, 7253, 7278, 7305, 7703, 8415,6.459396839141846,SPEAK
29, 7627, 7255, 7297, 7780, 7315, 7334, 7344, 7159, 7213, 7239, 7216, 7199, 7480, 8260,6.46770453453064,XXXXX
30, 7819, 7246, 7185, 7614, 7214, 7165, 7162, 7292, 7263, 7252, 7262, 7295, 7666, 8426,6.475494861602783,XXXXX
31, 7786, 7240, 7277, 7904, 7236, 7261, 7261, 7233, 7238, 7248, 7243, 7265, 7589, 8194,6.4831695556640625,XXXXX
32, 7667, 7264, 7249, 7902, 7285, 7238, 7228, 7217, 7235, 7254, 7227, 7220, 7529, 8137,6.490984201431274,XXXXX
33, 7778, 7226, 7179, 7613, 7166, 7161, 7171, 7282, 7258, 7263, 7285, 7306, 7710, 8442,6.4987359046936035,XXXXX
34, 7597, 7243, 7298, 7805, 7316, 7331, 7354, 7141, 7204, 7240, 7227, 7197, 7470, 8235,6.506744623184204,XXXXX
35, 7894, 7261, 7192, 7693, 7231, 7181, 7168, 7297, 7265, 7262, 7266, 7289, 7644, 8363,6.514543294906616,XXXXX
36, 7872, 7256, 7269, 7861, 7223, 7264, 7248, 7265, 7249, 7258, 7260, 7281, 7617, 8273,6.522456884384155,XXXXX
37, 7632, 7276, 7276, 7870, 7307, 7280, 7266, 7210, 7234, 7244, 7230, 7217, 7507, 8206,6.53024959564209,XXXXX
38, 7795, 7243, 7187, 7617, 7176, 7154, 7150, 7304, 7277, 7260, 7287, 7316, 7708, 8438,6.538155794143677,XXXXX
39, 7648, 7246, 7289, 7852, 7298, 7311, 7318, 7172, 7223, 7246, 7234, 7216, 7496, 8171,6.5475547313690186,XXXXX
40, 7850, 7251, 7181, 7719, 7239, 7190, 7193, 7282, 7263, 7260, 7268, 7284, 7639, 8298,6.553951025009155,XXXXX
41, 7843, 7246, 7246, 7747, 7230, 7257, 7271, 7255, 7256, 7261, 7268, 7289, 7630, 8361,6.561668157577515,XXXXX
42, 7639, 7277, 7282, 7774, 7330, 7300, 7300, 7200, 7233, 7251, 7230, 7217, 7495, 8327,6.5696446895599365,XXXXX
43, 7873, 7250, 7188, 7635, 7181, 7164, 7158, 7330, 7277, 7272, 7291, 7324, 7720, 8452,6.577555894851685,XXXXX
44, 7697, 7255, 7306, 7955, 7283, 7315, 7319, 7195, 7230, 7260, 7236, 7220, 7496, 8069,6.585855484008789,XXXXX
45, 7746, 7267, 7212, 7756, 7240, 7188, 7185, 7274, 7266, 7268, 7256, 7269, 7597, 8252,6.593698978424072,XXXXX
46, 7762, 7245, 7245, 7666, 7211, 7234, 7247, 7268, 7264, 7269, 7273, 7300, 7658, 8425,6.601853847503662,XXXXX
47, 7652, 7267, 7290, 7773, 7328, 7323, 7330, 7193, 7233, 7256, 7232, 7208, 7494, 8270,6.60979700088501,XXXXX
48, 7960, 7258, 7191, 7651, 7186, 7174, 7168, 7330, 7282, 7270, 7288, 7319, 7718, 8418,6.617977857589722,XXXXX
49, 7733, 7267, 7317, 7949, 7293, 7324, 7325, 7205, 7236, 7254, 7239, 7237, 7528, 8166,6.625452518463135,XXXXX
50, 7689, 7264, 7223, 7781, 7275, 7219, 7211, 7258, 7264, 7260, 7258, 7263, 7584, 8300,6.633366823196411,XXXXX
51, 7765, 7230, 7215, 7662, 7194, 7212, 7220, 7270, 7269, 7266, 7284, 7313, 7675, 8413,6.6411097049713135,XXXXX
52, 7651, 7265, 7287, 7834, 7320, 7316, 7322, 7182, 7231, 7257, 7231, 7216, 7488, 8187,6.648926258087158,XXXXX
53, 7965, 7256, 7187, 7663, 7206, 7180, 7167, 7324, 7289, 7276, 7291, 7324, 7714, 8393,6.656721115112305,XXXXX
54, 7775, 7258, 7309, 7820, 7294, 7335, 7329, 7211, 7247, 7260, 7253, 7256, 7565, 8279,6.664536714553833,XXXXX
55, 7701, 7279, 7249, 7708, 7292, 7253, 7241, 7267, 7263, 7266, 7257, 7260, 7590, 8371,6.672257423400879,XXXXX
56, 7838, 7245, 7228, 7721, 7195, 7205, 7194, 7312, 7278, 7273, 7290, 7316, 7701, 8388,6.680158615112305,XXXXX
57, 7666, 7266, 7310, 7957, 7326, 7321, 7309, 7182, 7236, 7252, 7235, 7211, 7488, 8085,6.68812894821167,XXXXX
58, 7863, 7261, 7192, 7668, 7206, 7177, 7177, 7319, 7290, 7277, 7295, 7320, 7707, 8379,6.696013450622559,XXXXX
59, 7723, 7255, 7291, 7751, 7266, 7313, 7337, 7230, 7246, 7272, 7267, 7269, 7585, 8349,6.70379376411438,XXXXX
60, 7735, 7279, 7258, 7707, 7305, 7268, 7270, 7254, 7256, 7264, 7255, 7258, 7578, 8353,6.7117791175842285,XXXXX
61, 7943, 7266, 7246, 7735, 7202, 7217, 7198, 7333, 7293, 7272, 7294, 7337, 7736, 8387,6.719702959060669,XXXXX
62, 7681, 7285, 7334, 8018, 7326, 7330, 7308, 7209, 7244, 7263, 7239, 7225, 7507, 8105,6.727602958679199,XXXXX
63, 7778, 7264, 7196, 7680, 7211, 7160, 7153, 7327, 7286, 7281, 7292, 7320, 7696, 8394,6.735346078872681,XXXXX
64, 7679, 7250, 7293, 7727, 7257, 7298, 7323, 7238, 7259, 7271, 7270, 7282, 7595, 8331,6.743424415588379,XXXXX
65, 7737, 7286, 7280, 7795, 7322, 7298, 7302, 7236, 7266, 7273, 7258, 7248, 7539, 8248,6.751370429992676,XXXXX
66, 8012, 7270, 7232, 7726, 7208, 7217, 7200, 7332, 7298, 7283, 7307, 7340, 7737, 8402,6.759227514266968,XXXXX
67, 7696, 7289, 7338, 7901, 7336, 7353, 7341, 7201, 7247, 7265, 7243, 7232, 7520, 8217,6.766993999481201,XXXXX
68, 7767, 7284, 7212, 7654, 7228, 7184, 7177, 7314, 7293, 7285, 7293, 7317, 7676, 8433,6.774888515472412,XXXXX
69, 7745, 7264, 7282, 7809, 7244, 7284, 7286, 7249, 7262, 7275, 7284, 7297, 7609, 8289,6.782794713973999,XXXXX
70, 7709, 7287, 7283, 7888, 7326, 7304, 7296, 7230, 7253, 7267, 7251, 7247, 7526, 8154,6.790642499923706,XXXXX
71, 7930, 7265, 7213, 7670, 7192, 7193, 7212, 7340, 7300, 7289, 7311, 7351, 7736, 8424,6.7984490394592285,XXXXX
72, 7660, 7278, 7334, 7807, 7332, 7358, 7391, 7194, 7246, 7274, 7259, 7240, 7501, 8290,6.80639386177063,XXXXX
73, 7797, 7284, 7233, 7653, 7267, 7221, 7212, 7312, 7288, 7284, 7292, 7308, 7652, 8432,6.814236879348755,XXXXX
74, 7855, 7279, 7289, 7875, 7234, 7263, 7244, 7295, 7279, 7286, 7292, 7316, 7662, 8261,6.822125673294067,XXXXX
75, 7690, 7303, 7300, 7976, 7317, 7290, 7274, 7230, 7259, 7282, 7257, 7250, 7520, 8102,6.829860687255859,XXXXX
76, 7807, 7263, 7207, 7630, 7200, 7184, 7181, 7326, 7296, 7295, 7310, 7350, 7721, 8441,6.837814807891846,XXXXX
77, 7621, 7267, 7326, 7796, 7332, 7359, 7373, 7199, 7248, 7278, 7264, 7247, 7524, 8272,6.845543384552002,XXXXX
78, 7867, 7285, 7229, 7728, 7276, 7236, 7228, 7305, 7290, 7291, 7295, 7306, 7645, 8338,6.853394269943237,XXXXX
79, 7929, 7280, 7275, 7789, 7234, 7275, 7259, 7292, 7283, 7288, 7300, 7330, 7665, 8322,6.861275911331177,XXXXX
80, 7637, 7305, 7321, 7846, 7346, 7336, 7321, 7221, 7262, 7274, 7256, 7245, 7501, 8215,6.869604110717773,XXXXX
81, 7797, 7273, 7208, 7635, 7210, 7180, 7174, 7348, 7313, 7298, 7319, 7351, 7726, 8457,6.878555536270142,XXXXX
82, 7664, 7278, 7318, 7904, 7309, 7332, 7336, 7212, 7254, 7288, 7272, 7262, 7531, 8185,6.885079622268677,XXXXX
83, 7798, 7292, 7250, 7780, 7286, 7249, 7240, 7288, 7280, 7290, 7288, 7299, 7615, 8253,6.892927408218384,XXXXX
84, 7875, 7274, 7279, 7707, 7239, 7275, 7279, 7307, 7294, 7289, 7305, 7339, 7694, 8393,6.900983810424805,XXXXX
85, 7633, 7309, 7337, 7808, 7366, 7362, 7358, 7219, 7263, 7280, 7260, 7239, 7498, 8304,6.908913850784302,XXXXX
86, 7865, 7294, 7222, 7665, 7225, 7198, 7176, 7357, 7315, 7304, 7324, 7344, 7720, 8460,6.917013645172119,XXXXX
87, 7749, 7288, 7333, 7993, 7306, 7325, 7316, 7236, 7274, 7289, 7275, 7270, 7561, 8110,6.925001859664917,XXXXX
88, 7733, 7295, 7258, 7837, 7300, 7241, 7232, 7286, 7293, 7290, 7280, 7288, 7593, 8197,6.932768106460571,XXXXX
89, 7777, 7270, 7249, 7664, 7228, 7252, 7256, 7318, 7297, 7297, 7318, 7342, 7698, 8441,6.940520763397217,XXXXX
90, 7623, 7299, 7329, 7834, 7368, 7373, 7378, 7201, 7255, 7284, 7263, 7243, 7505, 8252,6.948404788970947,XXXXX
91, 7959, 7295, 7223, 7678, 7235, 7209, 7193, 7352, 7319, 7298, 7317, 7353, 7725, 8411,6.956394672393799,XXXXX
92, 7807, 7299, 7341, 7920, 7304, 7346, 7329, 7264, 7281, 7286, 7287, 7286, 7578, 8225,6.964366674423218,XXXXX
93, 7680, 7309, 7281, 7825, 7329, 7284, 7268, 7279, 7284, 7294, 7286, 7278, 7577, 8276,6.972243785858154,XXXXX
94, 7792, 7273, 7243, 7665, 7223, 7230, 7233, 7322, 7307, 7308, 7323, 7355, 7719, 8421,6.980395793914795,XXXXX
95, 7636, 7299, 7342, 7893, 7366, 7363, 7363, 7203, 7263, 7291, 7267, 7245, 7501, 8152,6.987955570220947,XXXXX
96, 7930, 7299, 7222, 7720, 7255, 7208, 7199, 7348, 7317, 7309, 7319, 7347, 7714, 8355,6.9960503578186035,XXXXX
97, 7809, 7296, 7328, 7821, 7292, 7333, 7345, 7265, 7291, 7304, 7291, 7309, 7600, 8305,7.00400972366333,XXXXX
98, 7673, 7325, 7312, 7755, 7344, 7314, 7305, 7268, 7294, 7302, 7277, 7273, 7555, 8342,7.011926174163818,XXXXX
99, 7863, 7301, 7254, 7710, 7231, 7237, 7212, 7358, 7321, 7310, 7326, 7354, 7742, 8429,7.01823878288269,XXXXX
100, 7673, 7308, 7352, 7997, 7356, 7366, 7354, 7229, 7273, 7293, 7265, 7254, 7509, 8083,7.026227235794067,XXXXX
101, 7838, 7302, 7242, 7710, 7255, 7217, 7210, 7346, 7321, 7313, 7312, 7346, 7695, 8335,7.035079002380371,XXXXX
102, 7770, 7299, 7320, 7747, 7282, 7331, 7335, 7273, 7288, 7306, 7304, 7315, 7647, 8367,7.043047189712524,XXXXX
103, 7705, 7321, 7307, 7777, 7352, 7326, 7318, 7255, 7283, 7300, 7285, 7269, 7559, 8327,7.050889492034912,XXXXX
104, 7952, 7294, 7255, 7719, 7223, 7219, 7203, 7365, 7330, 7313, 7338, 7371, 7749, 8421,7.058669567108154,XXXXX
105, 7708, 7320, 7374, 8022, 7358, 7366, 7356, 7236, 7281, 7298, 7276, 7265, 7530, 8102,7.066429376602173,XXXXX
106, 7766, 7314, 7243, 7739, 7279, 7221, 7218, 7343, 7320, 7313, 7314, 7336, 7677, 8355,7.074493408203125,XXXXX
107, 7734, 7282, 7293, 7719, 7268, 7302, 7324, 7286, 7295, 7310, 7319, 7329, 7648, 8397,7.082286596298218,XXXXX
108, 7713, 7309, 7308, 7827, 7361, 7333, 7338, 7237, 7276, 7302, 7290, 7267, 7537, 8245,7.090294122695923,XXXXX
109, 8007, 7301, 7238, 7697, 7241, 7228, 7219, 7370, 7329, 7317, 7340, 7373, 7759, 8414,7.098283290863037,XXXXX
110, 7724, 7319, 7373, 7876, 7370, 7392, 7389, 7244, 7286, 7306, 7288, 7270, 7550, 8231,7.1062986850738525,XXXXX
111, 7756, 7315, 7267, 7676, 7299, 7254, 7236, 7330, 7318, 7323, 7327, 7331, 7664, 8407,7.114028692245483,XXXXX
112, 7813, 7293, 7292, 7785, 7251, 7288, 7290, 7310, 7303, 7316, 7327, 7349, 7663, 8343,7.121959209442139,XXXXX
113, 7687, 7315, 7324, 7920, 7359, 7339, 7343, 7242, 7280, 7302, 7278, 7264, 7509, 8134,7.129903078079224,XXXXX
114, 7887, 7289, 7232, 7649, 7236, 7217, 7214, 7360, 7330, 7324, 7342, 7371, 7755, 8407,7.1379969120025635,XXXXX
115, 7683, 7309, 7353, 7797, 7355, 7391, 7397, 7238, 7279, 7307, 7298, 7286, 7566, 8305,7.1442224979400635,XXXXX
116, 7809, 7328, 7270, 7682, 7322, 7276, 7265, 7337, 7310, 7314, 7316, 7326, 7641, 8431,7.153851270675659,XXXXX
117, 7919, 7298, 7300, 7827, 7262, 7275, 7264, 7344, 7319, 7323, 7326, 7356, 7699, 8329,7.161523342132568,XXXXX
118, 7676, 7321, 7358, 8025, 7376, 7350, 7342, 7242, 7297, 7309, 7283, 7267, 7521, 8073,7.169006586074829,XXXXX
119, 7804, 7305, 7237, 7662, 7234, 7207, 7206, 7366, 7343, 7324, 7354, 7377, 7744, 8425,7.176794052124023,XXXXX
120, 7656, 7300, 7335, 7781, 7321, 7358, 7376, 7243, 7282, 7314, 7312, 7294, 7574, 8321,7.184624910354614,XXXXX
121, 7834, 7315, 7277, 7769, 7321, 7283, 7285, 7312, 7309, 7319, 7313, 7313, 7625, 8324,7.192406177520752,XXXXX
122, 7981, 7309, 7304, 7782, 7260, 7289, 7285, 7355, 7330, 7325, 7340, 7366, 7730, 8356,7.200405120849609,XXXXX
123, 7650, 7338, 7374, 7892, 7390, 7381, 7375, 7248, 7292, 7316, 7290, 7267, 7532, 8199,7.208360195159912,XXXXX
124, 7809, 7304, 7238, 7658, 7239, 7197, 7190, 7378, 7342, 7330, 7346, 7377, 7742, 8461,7.216775894165039,XXXXX
125, 7737, 7293, 7350, 7908, 7305, 7334, 7335, 7269, 7293, 7313, 7309, 7310, 7588, 8252,7.22409200668335,XXXXX
126, 7768, 7327, 7301, 7852, 7343, 7295, 7281, 7303, 7309, 7320, 7312, 7310, 7602, 8236,7.232091903686523,XXXXX
127, 7888, 7312, 7269, 7706, 7254, 7273, 7269, 7361, 7332, 7331, 7348, 7384, 7744, 8417,7.239906072616577,XXXXX
239, 7666, 7333, 7363, 7828, 7384, 7400, 7401, 7253, 7285, 7314, 7287, 7275, 7534, 8302,7.247728586196899,XXXXX
0, 7905, 7321, 7262, 7652, 7271, 7241, 7225, 7387, 7343, 7337, 7343, 7371, 7743, 8478,7.25554633140564,XXXXX
1, 7809, 7315, 7357, 7947, 7320, 7356, 7350, 7282, 7320, 7326, 7318, 7321, 7612, 8179,7.263678073883057,XXXXX
2, 7689, 7332, 7308, 7909, 7355, 7308, 7303, 7283, 7323, 7316, 7305, 7300, 7565, 8163,7.2717742919921875,XXXXX
3, 7790, 7297, 7261, 7662, 7239, 7235, 7241, 7363, 7343, 7331, 7353, 7387, 7746, 8465,7.279358863830566,XXXXX
4, 7641, 7316, 7365, 7841, 7372, 7381, 7392, 7237, 7286, 7324, 7302, 7282, 7533, 8283,7.286861896514893,XXXXX
5, 7971, 7326, 7266, 7709, 7284, 7248, 7240, 7366, 7334, 7337, 7350, 7367, 7712, 8416,7.294644355773926,XXXXX
6, 7902, 7325, 7366, 7887, 7320, 7358, 7350, 7314, 7314, 7326, 7331, 7335, 7650, 8264,7.302379131317139,XXXXX
7, 7675, 7341, 7336, 7846, 7372, 7340, 7328, 7299, 7312, 7326, 7304, 7302, 7582, 8232,7.310328722000122,XXXXX
8, 7827, 7311, 7264, 7656, 7248, 7243, 7252, 7370, 7343, 7342, 7349, 7395, 7751, 8463,7.318257808685303,XXXXX
9, 7683, 7330, 7376, 7925, 7384, 7394, 7408, 7233, 7293, 7326, 7294, 7284, 7523, 8205,7.326377630233765,XXXXX
10, 7867, 7334, 7268, 7761, 7296, 7255, 7243, 7365, 7345, 7338, 7342, 7365, 7697, 8349,7.335359334945679,XXXXX
11, 7815, 7327, 7335, 7785, 7300, 7339, 7344, 7323, 7328, 7329, 7336, 7355, 7687, 8371,7.341963529586792,XXXXX
12, 7695, 7345, 7339, 7777, 7384, 7361, 7366, 7276, 7310, 7327, 7301, 7291, 7575, 8353,7.349267244338989,XXXXX
13, 7946, 7313, 7260, 7687, 7244, 7240, 7239, 7386, 7353, 7349, 7358, 7393, 7752, 8456,7.357153415679932,XXXXX
14, 7725, 7332, 7376, 8015, 7366, 7383, 7392, 7255, 7306, 7326, 7306, 7293, 7534, 8098,7.36642861366272,XXXXX
15, 7763, 7338, 7277, 7770, 7315, 7259, 7262, 7350, 7340, 7334, 7339, 7346, 7689, 8310,7.374192476272583,XXXXX
16, 7743, 7311, 7316, 7711, 7295, 7325, 7342, 7320, 7320, 7341, 7345, 7353, 7702, 8427,7.382262468338013,XXXXX
17, 7709, 7341, 7337, 7806, 7392, 7380, 7383, 7263, 7302, 7331, 7308, 7288, 7547, 8303,7.390296697616577,XXXXX
18, 8046, 7329, 7260, 7694, 7257, 7251, 7234, 7404, 7362, 7340, 7363, 7398, 7771, 8448,7.398000717163086,XXXXX
19, 7762, 7342, 7399, 7965, 7370, 7399, 7387, 7282, 7315, 7329, 7310, 7304, 7582, 8184,7.405958414077759,XXXXX
20, 7722, 7348, 7301, 7759, 7328, 7277, 7261, 7350, 7339, 7344, 7338, 7349, 7669, 8342,7.412236213684082,XXXXX
21, 7807, 7319, 7309, 7721, 7280, 7302, 7299, 7336, 7334, 7345, 7357, 7380, 7705, 8415,7.420126438140869,XXXXX
22, 7701, 7345, 7363, 7902, 7406, 7383, 7374, 7260, 7310, 7334, 7307, 7292, 7542, 8208,7.429258823394775,XXXXX
23, 7931, 7328, 7269, 7720, 7270, 7252, 7237, 7400, 7364, 7352, 7362, 7398, 7773, 8416,7.43705677986145,XXXXX
24, 7710, 7339, 7384, 7856, 7366, 7403, 7401, 7275, 7315, 7334, 7320, 7310, 7580, 8302,7.444821119308472,XXXXX
25, 7756, 7358, 7311, 7705, 7358, 7300, 7289, 7337, 7338, 7336, 7333, 7332, 7630, 8420,7.452680349349976,XXXXX
26, 7909, 7325, 7309, 7776, 7272, 7283, 7281, 7363, 7343, 7347, 7356, 7380, 7727, 8373,7.4605231285095215,XXXXX
27, 7691, 7341, 7369, 7993, 7384, 7369, 7362, 7263, 7307, 7339, 7309, 7283, 7547, 8096,7.468838214874268,XXXXX
28, 7812, 7331, 7266, 7686, 7272, 7244, 7235, 7395, 7363, 7351, 7368, 7394, 7772, 8420,7.475215673446655,XXXXX
29, 7664, 7331, 7383, 7803, 7368, 7412, 7420, 7279, 7320, 7332, 7326, 7330, 7609, 8348,7.4833292961120605,XXXXX
30, 7819, 7344, 7317, 7747, 7368, 7325, 7315, 7330, 7340, 7344, 7331, 7337, 7618, 8376,7.491122007369995,XXXXX
31, 8010, 7325, 7303, 7769, 7270, 7279, 7273, 7392, 7362, 7361, 7367, 7400, 7740, 8396,7.500486373901367,XXXXX
32, 7661, 7360, 7400, 7995, 7409, 7398, 7391, 7267, 7317, 7342, 7306, 7290, 7528, 8123,7.508211374282837,XXXXX
33, 7789, 7344, 7272, 7682, 7289, 7240, 7226, 7386, 7363, 7358, 7357, 7387, 7741, 8418,7.516016483306885,XXXXX
34, 7739, 7328, 7358, 7800, 7345, 7371, 7370, 7287, 7320, 7349, 7335, 7338, 7628, 8337,7.523914575576782,XXXXX
35, 7773, 7357, 7335, 7830, 7382, 7345, 7329, 7311, 7332, 7346, 7334, 7330, 7609, 8276,7.531832695007324,XXXXX
36, 7938, 7345, 7316, 7745, 7277, 7299, 7287, 7400, 7365, 7355, 7371, 7403, 7771, 8407,7.538219928741455,XXXXX
37, 7671, 7368, 7415, 7885, 7418, 7429, 7422, 7283, 7319, 7340, 7314, 7290, 7551, 8260,7.54653525352478,XXXXX
38, 7856, 7355, 7285, 7677, 7305, 7257, 7244, 7402, 7369, 7361, 7366, 7390, 7729, 8472,7.555917024612427,XXXXX
39, 7812, 7334, 7364, 7904, 7326, 7349, 7353, 7311, 7334, 7353, 7344, 7358, 7631, 8260,7.563545227050781,XXXXX
40, 7707, 7351, 7345, 7902, 7389, 7347, 7339, 7299, 7327, 7346, 7329, 7318, 7574, 8182,7.571303367614746,XXXXX
41, 7849, 7336, 7292, 7672, 7281, 7286, 7280, 7398, 7368, 7360, 7381, 7408, 7768, 8450,7.579380512237549,XXXXX
42, 7664, 7362, 7409, 7842, 7420, 7430, 7431, 7269, 7324, 7348, 7327, 7309, 7544, 8306,7.587335586547852,XXXXX
43, 7919, 7354, 7298, 7690, 7326, 7274, 7260, 7391, 7364, 7367, 7367, 7392, 7715, 8469,7.595208406448364,XXXXX
44, 7891, 7337, 7364, 7908, 7320, 7356, 7352, 7339, 7340, 7360, 7355, 7372, 7683, 8275,7.603261232376099,XXXXX
45, 7685, 7365, 7364, 7936, 7395, 7364, 7354, 7311, 7335, 7349, 7330, 7316, 7577, 8158,7.6096436977386475,XXXXX
46, 7844, 7334, 7287, 7636, 7273, 7267, 7262, 7411, 7374, 7362, 7383, 7415, 7770, 8472,7.6174328327178955,XXXXX
47, 7685, 7346, 7403, 7840, 7403, 7425, 7433, 7272, 7319, 7348, 7330, 7316, 7564, 8288,7.625208854675293,XXXXX
48, 7890, 7364, 7304, 7742, 7331, 7279, 7278, 7389, 7367, 7362, 7368, 7382, 7710, 8391,7.634604454040527,XXXXX
49, 7890, 7353, 7362, 7840, 7313, 7339, 7336, 7367, 7360, 7360, 7368, 7385, 7703, 8360,7.642450332641602,XXXXX
50, 7676, 7370, 7385, 7872, 7416, 7391, 7371, 7305, 7339, 7356, 7330, 7315, 7558, 8278,7.650299787521362,XXXXX
51, 7901, 7342, 7286, 7650, 7282, 7265, 7254, 7412, 7383, 7374, 7384, 7418, 7768, 8478,7.6581971645355225,XXXXX
52, 7732, 7350, 7400, 7921, 7395, 7409, 7415, 7279, 7330, 7354, 7338, 7325, 7573, 8187,7.666102409362793,XXXXX
53, 7776, 7356, 7309, 7786, 7352, 7300, 7286, 7374, 7364, 7362, 7369, 7385, 7688, 8311,7.672410488128662,XXXXX
54, 7776, 7340, 7343, 7751, 7316, 7348, 7347, 7365, 7363, 7365, 7377, 7406, 7724, 8425,7.6804656982421875,XXXXX
55, 7686, 7376, 7389, 7808, 7429, 7412, 7411, 7284, 7335, 7356, 7327, 7314, 7548, 8333,7.6882829666137695,XXXXX
56, 8010, 7358, 7288, 7673, 7290, 7261, 7249, 7419, 7383, 7374, 7381, 7423, 7766, 8472,7.697007894515991,XXXXX
57, 7773, 7360, 7409, 8026, 7387, 7404, 7401, 7300, 7340, 7362, 7339, 7339, 7590, 8134,7.705024003982544,XXXXX
58, 7720, 7370, 7331, 7848, 7368, 7317, 7302, 7366, 7369, 7367, 7355, 7365, 7662, 8270,7.71285343170166,XXXXX
59, 7809, 7347, 7333, 7677, 7307, 7336, 7331, 7377, 7366, 7367, 7377, 7410, 7744, 8466,7.720862150192261,XXXXX
60, 7694, 7375, 7398, 7820, 7434, 7428, 7423, 7280, 7329, 7356, 7338, 7320, 7553, 8282,7.7287375926971436,XXXXX
61, 7978, 7367, 7303, 7714, 7303, 7275, 7259, 7427, 7393, 7375, 7392, 7427, 7776, 8443,7.735134840011597,XXXXX
62, 7785, 7373, 7423, 7969, 7381, 7410, 7404, 7319, 7354, 7362, 7342, 7355, 7620, 8255,7.744468450546265,XXXXX
63, 7742, 7376, 7341, 7800, 7378, 7327, 7319, 7352, 7363, 7372, 7355, 7365, 7645, 8346,7.75264310836792,XXXXX
64, 7884, 7333, 7308, 7677, 7282, 7301, 7307, 7381, 7372, 7376, 7396, 7427, 7760, 8450,7.76034688949585,XXXXX
65, 7694, 7366, 7401, 7931, 7425, 7424, 7421, 7276, 7334, 7358, 7336, 7322, 7548, 8179,7.768165588378906,XXXXX
66, 7882, 7371, 7308, 7754, 7324, 7292, 7274, 7433, 7389, 7382, 7386, 7419, 7766, 8397,7.77605938911438,XXXXX
67, 7744, 7370, 7411, 7838, 7384, 7425, 7423, 7339, 7351, 7375, 7357, 7363, 7650, 8352,7.783857107162476,XXXXX
68, 7769, 7388, 7362, 7740, 7403, 7363, 7355, 7349, 7366, 7370, 7354, 7353, 7632, 8412,7.791667938232422,XXXXX
69, 7982, 7357, 7328, 7765, 7293, 7296, 7292, 7411, 7388, 7378, 7395, 7427, 7763, 8415,7.799760580062866,XXXXX
70, 7704, 7379, 7417, 8054, 7428, 7417, 7405, 7294, 7336, 7369, 7334, 7319, 7540, 8074,7.807021141052246,XXXXX
71, 7806, 7367, 7297, 7736, 7322, 7281, 7262, 7420, 7387, 7386, 7384, 7418, 7752, 8390,7.815115451812744,XXXXX
72, 7734, 7354, 7389, 7768, 7364, 7411, 7418, 7328, 7358, 7376, 7371, 7380, 7668, 8400,7.823051452636719,XXXXX
73, 7789, 7390, 7365, 7787, 7410, 7377, 7370, 7329, 7361, 7374, 7354, 7347, 7610, 8335,7.831045627593994,XXXXX
74, 8030, 7365, 7319, 7773, 7284, 7291, 7276, 7424, 7393, 7387, 7394, 7443, 7783, 8427,7.838976860046387,XXXXX
75, 7697, 7376, 7434, 8022, 7432, 7441, 7431, 7291, 7345, 7370, 7340, 7339, 7557, 8192,7.84695029258728,XXXXX
76, 7795, 7371, 7313, 7706, 7344, 7294, 7285, 7406, 7391, 7382, 7388, 7412, 7730, 8437,7.855085849761963,XXXXX
77, 7827, 7357, 7369, 7770, 7345, 7377, 7388, 7343, 7362, 7376, 7376, 7385, 7678, 8364,7.8624351024627686,XXXXX
78, 7746, 7381, 7367, 7877, 7421, 7388, 7389, 7325, 7353, 7375, 7351, 7343, 7589, 8239,7.870155572891235,XXXXX
79, 7888, 7366, 7324, 7718, 7305, 7308, 7308, 7450, 7399, 7391, 7406, 7450, 7803, 8453,7.878009557723999,XXXXX
80, 7681, 7388, 7445, 7841, 7439, 7463, 7464, 7320, 7351, 7368, 7352, 7335, 7590, 8312,7.88593053817749,XXXXX
81, 7912, 7378, 7311, 7651, 7352, 7303, 7292, 7412, 7385, 7380, 7386, 7402, 7722, 8479,7.893905162811279,XXXXX
82, 7926, 7356, 7366, 7866, 7335, 7351, 7350, 7369, 7368, 7385, 7385, 7414, 7701, 8309,7.901625156402588,XXXXX
83, 7697, 7392, 7398, 7976, 7440, 7402, 7388, 7319, 7356, 7382, 7352, 7345, 7584, 8143,7.9095704555511475,XXXXX
84, 7847, 7372, 7311, 7679, 7302, 7305, 7301, 7436, 7400, 7393, 7411, 7447, 7809, 8468,7.917490720748901,XXXXX
85, 7687, 7386, 7430, 7831, 7421, 7457, 7467, 7307, 7349, 7374, 7360, 7356, 7600, 8331,7.925447940826416,XXXXX
86, 7922, 7390, 7339, 7720, 7370, 7321, 7311, 7412, 7391, 7391, 7387, 7411, 7711, 8433,7.933343410491943,XXXXX
87, 7986, 7372, 7379, 7877, 7321, 7351, 7341, 7406, 7393, 7395, 7397, 7424, 7742, 8333,7.941422700881958,XXXXX
88, 7699, 7403, 7413, 7989, 7432, 7412, 7392, 7325, 7365, 7380, 7354, 7338, 7580, 8161,7.949381589889526,XXXXX
89, 7859, 7364, 7301, 7642, 7300, 7283, 7274, 7435, 7398, 7393, 7416, 7450, 7797, 8491,7.9572155475616455,XXXXX
90, 7723, 7365, 7408, 7835, 7409, 7438, 7448, 7302, 7342, 7375, 7371, 7362, 7609, 8309,7.965155601501465,XXXXX
91, 7865, 7388, 7331, 7797, 7379, 7335, 7330, 7394, 7384, 7385, 7386, 7397, 7694, 8343,7.973039627075195,XXXXX
92, 7938, 7371, 7371, 7768, 7313, 7353, 7345, 7416, 7394, 7394, 7405, 7436, 7758, 8392,7.980888366699219,XXXXX
93, 7685, 7401, 7432, 7824, 7453, 7435, 7418, 7317, 7356, 7381, 7353, 7334, 7559, 8271,7.988904714584351,XXXXX
94, 7939, 7378, 7300, 7666, 7317, 7270, 7264, 7448, 7409, 7399, 7415, 7443, 7790, 8492,7.996612548828125,XXXXX
95, 7825, 7373, 7408, 7983, 7384, 7416, 7420, 7326, 7364, 7389, 7379, 7371, 7630, 8226,8.004395484924316,XXXXX
96, 7773, 7390, 7353, 7852, 7394, 7363, 7345, 7375, 7380, 7396, 7382, 7381, 7662, 8271,8.012338638305664,XXXXX
97, 7810, 7372, 7354, 7704, 7332, 7360, 7361, 7419, 7397, 7401, 7414, 7439, 7778, 8453,8.020088911056519,XXXXX
98, 7698, 7404, 7434, 7842, 7460, 7455, 7457, 7319, 7362, 7381, 7362, 7344, 7585, 8323,8.027956485748291,XXXXX
99, 8058, 7386, 7323, 7695, 7324, 7295, 7275, 7454, 7410, 7398, 7413, 7451, 7799, 8487,8.035890817642212,XXXXX
100, 7868, 7380, 7420, 8008, 7391, 7429, 7419, 7339, 7367, 7394, 7381, 7382, 7650, 8207,8.043838024139404,XXXXX
101, 7711, 7402, 7358, 7909, 7415, 7371, 7362, 7359, 7380, 7395, 7378, 7369, 7648, 8247,8.051769256591797,XXXXX
102, 7866, 7365, 7332, 7657, 7311, 7326, 7334, 7422, 7400, 7400, 7417, 7448, 7794, 8486,8.059464931488037,XXXXX
103, 7725, 7382, 7429, 7817, 7451, 7456, 7474, 7311, 7353, 7387, 7366, 7350, 7580, 8271,8.067421197891235,XXXXX
104, 7955, 7393, 7323, 7720, 7341, 7313, 7314, 7449, 7412, 7403, 7422, 7449, 7789, 8428,8.075422048568726,XXXXX
105, 7827, 7398, 7425, 7957, 7387, 7430, 7422, 7360, 7380, 7392, 7394, 7401, 7681, 8300,8.083270788192749,XXXXX
106, 7751, 7410, 7383, 7877, 7431, 7394, 7377, 7364, 7377, 7398, 7376, 7375, 7630, 8316,8.091093301773071,XXXXX
107, 7965, 7385, 7337, 7684, 7315, 7327, 7322, 7444, 7409, 7415, 7421, 7461, 7795, 8471,8.098942995071411,XXXXX
108, 7737, 7418, 7447, 7929, 7458, 7465, 7459, 7306, 7361, 7389, 7365, 7343, 7563, 8177,8.106866598129272,XXXXX
109, 7840, 7403, 7322, 7751, 7357, 7314, 7299, 7432, 7409, 7402, 7416, 7428, 7754, 8377,8.114888191223145,XXXXX
110, 7767, 7383, 7412, 7830, 7378, 7423, 7424, 7381, 7386, 7403, 7403, 7411, 7711, 8390,8.122814655303955,XXXXX
111, 7787, 7419, 7420, 7806, 7445, 7426, 7412, 7375, 7386, 7399, 7378, 7371, 7633, 8393,8.129126787185669,XXXXX
112, 8064, 7391, 7352, 7728, 7310, 7323, 7305, 7463, 7422, 7410, 7430, 7458, 7805, 8464,8.138228178024292,XXXXX
113, 7746, 7398, 7448, 8063, 7444, 7461, 7452, 7312, 7363, 7396, 7371, 7349, 7565, 8086,8.146013498306274,XXXXX
114, 7807, 7402, 7330, 7798, 7363, 7316, 7314, 7437, 7408, 7409, 7405, 7432, 7739, 8351,8.1538245677948,XXXXX
115, 7809, 7396, 7408, 7732, 7364, 7404, 7416, 7402, 7397, 7403, 7409, 7428, 7733, 8444,8.16159701347351,XXXXX
116, 7755, 7417, 7430, 7760, 7461, 7442, 7433, 7350, 7383, 7398, 7381, 7362, 7603, 8322,8.16938066482544,XXXXX
117, 8045, 7393, 7341, 7720, 7320, 7321, 7300, 7461, 7426, 7413, 7425, 7470, 7807, 8450,8.177213191986084,XXXXX
118, 7774, 7412, 7451, 8088, 7439, 7455, 7443, 7331, 7377, 7396, 7375, 7371, 7609, 8194,8.18659782409668,XXXXX
119, 7796, 7405, 7348, 7820, 7381, 7327, 7314, 7430, 7413, 7412, 7415, 7428, 7737, 8391,8.194554567337036,XXXXX
120, 7848, 7377, 7391, 7689, 7352, 7389, 7388, 7409, 7403, 7412, 7416, 7441, 7737, 8418,8.200755834579468,XXXXX
121, 7751, 7405, 7421, 7791, 7461, 7445, 7437, 7345, 7375, 7402, 7374, 7363, 7576, 8232,8.208768129348755,XXXXX
122, 7958, 7394, 7328, 7731, 7332, 7320, 7314, 7468, 7421, 7419, 7439, 7472, 7810, 8447,8.217552900314331,XXXXX
123, 7737, 7407, 7460, 7987, 7448, 7484, 7484, 7342, 7382, 7403, 7394, 7384, 7632, 8319,8.225180387496948,XXXXX
124, 7871, 7407, 7374, 7741, 7404, 7369, 7354, 7426, 7418, 7412, 7408, 7422, 7715, 8453,8.233013153076172,XXXXX
125, 7982, 7386, 7387, 7767, 7340, 7365, 7356, 7421, 7408, 7413, 7420, 7442, 7745, 8371,8.241046905517578,XXXXX
126, 7713, 7424, 7437, 8004, 7461, 7434, 7418, 7334, 7377, 7399, 7378, 7354, 7569, 8131,8.248822450637817,XXXXX
127, 7858, 7407, 7330, 7719, 7332, 7315, 7304, 7471, 7433, 7421, 7441, 7477, 7821, 8457,8.256749629974365,XXXXX
239, 7732, 7405, 7444, 7798, 7428, 7477, 7485, 7346, 7382, 7412, 7394, 7400, 7653, 8361,8.264513492584229,XXXXX
0, 7879, 7422, 7373, 7719, 7410, 7374, 7360, 7411, 7408, 7415, 7401, 7415, 7696, 8414,8.272331237792969,XXXXX
1, 8003, 7411, 7385, 7837, 7334, 7351, 7337, 7451, 7426, 7417, 7430, 7457, 7787, 8392,8.280230522155762,XXXXX
2, 7707, 7435, 7461, 8060, 7471, 7456, 7455, 7340, 7387, 7406, 7379, 7356, 7579, 8152,8.28787636756897,XXXXX
3, 7896, 7394, 7329, 7711, 7340, 7306, 7313, 7456, 7428, 7427, 7438, 7464, 7801, 8465,8.295666217803955,XXXXX
4, 7806, 7389, 7430, 7783, 7418, 7438, 7446, 7339, 7382, 7409, 7404, 7391, 7654, 8338,8.30342173576355,XXXXX
5, 7802, 7423, 7390, 7773, 7445, 7391, 7375, 7389, 7408, 7412, 7402, 7392, 7664, 8314,8.31112265586853,XXXXX
6, 7905, 7403, 7389, 7800, 7357, 7377, 7369, 7459, 7435, 7427, 7442, 7474, 7808, 8431,8.319444179534912,XXXXX
7, 7701, 7429, 7471, 7962, 7493, 7488, 7484, 7348, 7386, 7410, 7388, 7373, 7599, 8280,8.326891422271729,XXXXX
8, 7977, 7418, 7338, 7688, 7357, 7308, 7294, 7473, 7434, 7426, 7432, 7462, 7793, 8494,8.33500862121582,XXXXX
9, 7870, 7405, 7435, 7921, 7402, 7427, 7424, 7362, 7399, 7418, 7404, 7411, 7667, 8263,8.342999458312988,XXXXX
10, 7745, 7423, 7403, 7918, 7457, 7410, 7407, 7372, 7405, 7412, 7402, 7395, 7644, 8228,8.35078763961792,XXXXX
11, 7860, 7409, 7368, 7716, 7353, 7365, 7367, 7464, 7432, 7424, 7447, 7480, 7820, 8469,8.358496189117432,XXXXX
12, 7695, 7441, 7470, 7859, 7485, 7500, 7492, 7346, 7388, 7417, 7386, 7370, 7593, 8326,8.366338014602661,XXXXX
13, 8022, 7429, 7355, 7699, 7368, 7333, 7313, 7469, 7441, 7433, 7433, 7461, 7780, 8500,8.375858783721924,XXXXX
14, 7943, 7411, 7443, 7966, 7393, 7417, 7417, 7391, 7412, 7420, 7420, 7432, 7704, 8266,8.383248567581177,XXXXX
15, 7715, 7436, 7415, 7975, 7462, 7409, 7409, 7376, 7404, 7419, 7403, 7387, 7634, 8192,8.3912034034729,XXXXX
16, 7876, 7403, 7344, 7669, 7336, 7337, 7344, 7462, 7435, 7434, 7453, 7478, 7824, 8489,8.397431373596191,XXXXX
17, 7730, 7413, 7462, 7834, 7469, 7489, 7493, 7326, 7385, 7413, 7392, 7374, 7596, 8294,8.405137538909912,XXXXX
18, 7944, 7426, 7365, 7739, 7389, 7353, 7336, 7460, 7436, 7426, 7428, 7454, 7762, 8420,8.41440749168396,XXXXX
