COUNTER,F3,FC5,AF3,F7,T7,P7,O1,O2,P8,T8,F8,AF4,FC6,F4,Timestamp
85, 8133, 8148, 8142, 8134, 8159, 8168, 8163, 8164, 8153, 8169, 8113, 8115, 8133, 8124,0.04055213928222656
86, 8119, 8132, 8123, 8120, 8142, 8157, 8155, 8156, 8139, 8152, 8097, 8092, 8124, 8120,0.04055213928222656
87, 8128, 8136, 8170, 8095, 8133, 8166, 8139, 8166, 8134, 8139, 8090, 8099, 8117, 8130,0.056308746337890625
88, 8135, 8136, 8113, 8105, 8140, 8151, 8139, 8154, 8151, 8152, 8109, 8096, 8127, 8128,0.056308746337890625
89, 8136, 8141, 8182, 8103, 8130, 8131, 8131, 8159, 8144, 8138, 8118, 8116, 8125, 8132,0.07149124145507812
90, 8132, 8146, 8152, 8109, 8130, 8139, 8135, 8158, 8144, 8129, 8114, 8114, 8123, 8122,0.07149124145507812
91, 8146, 8152, 8134, 8114, 8140, 8144, 8127, 8161, 8143, 8136, 8122, 8114, 8132, 8113,0.08723950386047363
92, 8163, 8177, 8200, 8117, 8140, 8146, 8116, 8174, 8138, 8143, 8151, 8145, 8145, 8120,0.08723950386047363
93, 8153, 8179, 8137, 8133, 8145, 8140, 8127, 8154, 8140, 8146, 8164, 8136, 8148, 8120,0.10312199592590332
94, 8143, 8176, 8190, 8135, 8156, 8147, 8130, 8160, 8121, 8132, 8138, 8138, 8129, 8126,0.10312199592590332
95, 8137, 8169, 8166, 8145, 8164, 8166, 8146, 8166, 8122, 8146, 8120, 8136, 8126, 8129,0.1191411018371582
96, 8139, 8146, 8132, 8134, 8155, 8164, 8154, 8162, 8142, 8160, 8116, 8119, 8131, 8131,0.1191411018371582
97, 8157, 8151, 8201, 8122, 8150, 8175, 8155, 8175, 8173, 8177, 8130, 8144, 8147, 8149,0.1341872215270996
98, 8159, 8158, 8138, 8138, 8160, 8166, 8161, 8165, 8202, 8206, 8154, 8150, 8171, 8143,0.1341872215270996
99, 8150, 8157, 8177, 8121, 8152, 8142, 8133, 8165, 8167, 8174, 8145, 8148, 8158, 8124,0.14993500709533691
100, 8152, 8167, 8174, 8119, 8152, 8144, 8129, 8158, 8140, 8152, 8150, 8151, 8155, 8122,0.14993500709533691
101, 8166, 8179, 8145, 8137, 8165, 8144, 8138, 8149, 8133, 8153, 8162, 8158, 8163, 8127,0.16550111770629883
102, 8170, 8186, 8217, 8131, 8160, 8142, 8125, 8160, 8109, 8132, 8151, 8170, 8142, 8122,0.16550111770629883
103, 8158, 8169, 8152, 8141, 8157, 8140, 8132, 8153, 8112, 8131, 8153, 8141, 8136, 8114,0.18112754821777344
104, 8150, 8163, 8175, 8148, 8159, 8149, 8140, 8166, 8122, 8138, 8148, 8135, 8145, 8125,0.18112754821777344
105, 8136, 8162, 8169, 8152, 8161, 8162, 8150, 8169, 8135, 8161, 8134, 8129, 8148, 8125,0.19679999351501465
106, 8132, 8150, 8127, 8155, 8156, 8153, 8150, 8156, 8134, 8166, 8121, 8100, 8138, 8109,0.19679999351501465
107, 8141, 8163, 8201, 8158, 8151, 8160, 8147, 8167, 8116, 8144, 8110, 8110, 8130, 8116,0.21278977394104004
108, 8138, 8164, 8136, 8170, 8160, 8168, 8164, 8162, 8139, 8169, 8119, 8108, 8137, 8125,0.21278977394104004
109, 8147, 8159, 8159, 8152, 8158, 8162, 8157, 8167, 8144, 8180, 8128, 8114, 8139, 8133,0.22768712043762207
110, 8156, 8172, 8182, 8157, 8160, 8168, 8154, 8168, 8137, 8167, 8134, 8130, 8147, 8141,0.22768712043762207
111, 8156, 8163, 8132, 8174, 8163, 8162, 8165, 8153, 8146, 8166, 8133, 8121, 8154, 8140,0.2428419589996338
112, 8161, 8163, 8200, 8152, 8153, 8154, 8154, 8165, 8135, 8162, 8126, 8127, 8147, 8145,0.2428419589996338
113, 8165, 8170, 8145, 8154, 8157, 8150, 8149, 8152, 8137, 8179, 8134, 8118, 8159, 8144,0.2588620185852051
114, 8179, 8174, 8167, 8159, 8159, 8150, 8137, 8155, 8146, 8182, 8140, 8129, 8165, 8149,0.2588620185852051
115, 8183, 8186, 8198, 8163, 8164, 8157, 8128, 8169, 8156, 8173, 8154, 8147, 8167, 8152,0.2749805450439453
116, 8178, 8179, 8131, 8163, 8165, 8145, 8128, 8159, 8159, 8175, 8166, 8123, 8176, 8148,0.2749805450439453
117, 8178, 8174, 8200, 8136, 8153, 8141, 8123, 8169, 8143, 8169, 8161, 8128, 8175, 8151,0.29001522064208984
118, 8170, 8170, 8153, 8138, 8159, 8148, 8142, 8163, 8163, 8188, 8162, 8126, 8179, 8145,0.29001522064208984
119, 8171, 8171, 8157, 8147, 8165, 8142, 8139, 8167, 8172, 8189, 8159, 8121, 8173, 8145,0.3061189651489258
120, 8186, 8193, 8210, 8162, 8163, 8146, 8123, 8173, 8151, 8172, 8166, 8133, 8171, 8148,0.3061189651489258
121, 8197, 8200, 8152, 8174, 8171, 8146, 8128, 8152, 8140, 8167, 8180, 8125, 8183, 8143,0.3217315673828125
122, 8189, 8197, 8207, 8149, 8176, 8151, 8126, 8161, 8128, 8154, 8169, 8133, 8181, 8142,0.3217315673828125
123, 8174, 8190, 8165, 8154, 8182, 8157, 8134, 8159, 8135, 8164, 8172, 8124, 8180, 8136,0.3371908664703369
124, 8179, 8192, 8162, 8167, 8184, 8146, 8128, 8159, 8129, 8168, 8179, 8117, 8176, 8134,0.3371908664703369
125, 8180, 8204, 8214, 8166, 8184, 8149, 8122, 8173, 8122, 8160, 8169, 8128, 8167, 8135,0.35315632820129395
126, 8172, 8197, 8147, 8167, 8178, 8143, 8125, 8162, 8127, 8157, 8161, 8107, 8163, 8123,0.35315632820129395
127, 8182, 8203, 8204, 8161, 8172, 8146, 8109, 8163, 8107, 8149, 8161, 8111, 8157, 8120,0.36783766746520996
236, 8182, 8208, 8179, 8175, 8187, 8166, 8118, 8155, 8117, 8177, 8177, 8116, 8172, 8122,0.36783766746520996
0, 8180, 8203, 8166, 8179, 8198, 8161, 8130, 8159, 8131, 8189, 8185, 8119, 8182, 8130,0.38389110565185547
1, 8189, 8215, 8219, 8177, 8195, 8161, 8135, 8179, 8126, 8168, 8177, 8131, 8179, 8138,0.38389110565185547
2, 8182, 8204, 8141, 8187, 8193, 8160, 8140, 8168, 8127, 8155, 8167, 8104, 8172, 8127,0.39893579483032227
3, 8178, 8195, 8198, 8165, 8186, 8159, 8131, 8173, 8116, 8138, 8158, 8112, 8159, 8128,0.39893579483032227
4, 8184, 8200, 8188, 8168, 8192, 8165, 8149, 8169, 8128, 8157, 8170, 8125, 8168, 8136,0.41469645500183105
5, 8178, 8189, 8149, 8181, 8192, 8161, 8158, 8161, 8132, 8172, 8166, 8102, 8167, 8129,0.41469645500183105
6, 8167, 8182, 8206, 8160, 8185, 8166, 8142, 8166, 8113, 8153, 8148, 8094, 8148, 8122,0.42980313301086426
7, 8154, 8171, 8135, 8150, 8186, 8158, 8142, 8152, 8125, 8154, 8154, 8073, 8143, 8112,0.43015122413635254
8, 8146, 8165, 8172, 8140, 8167, 8151, 8133, 8168, 8128, 8149, 8148, 8074, 8138, 8117,0.44597530364990234
9, 8140, 8175, 8167, 8149, 8165, 8163, 8143, 8175, 8128, 8154, 8140, 8078, 8141, 8121,0.46104931831359863
10, 8144, 8174, 8131, 8149, 8184, 8164, 8154, 8158, 8132, 8168, 8147, 8071, 8153, 8122,0.46104931831359863
11, 8157, 8170, 8199, 8130, 8181, 8171, 8134, 8159, 8118, 8156, 8141, 8079, 8146, 8125,0.4762144088745117
12, 8159, 8165, 8142, 8150, 8185, 8179, 8137, 8155, 8118, 8156, 8129, 8061, 8136, 8118,0.4762144088745117
13, 8169, 8175, 8183, 8155, 8196, 8189, 8154, 8172, 8119, 8163, 8125, 8067, 8141, 8126,0.49179697036743164
14, 8167, 8182, 8181, 8149, 8196, 8199, 8179, 8176, 8136, 8176, 8145, 8069, 8159, 8136,0.49179697036743164
15, 8153, 8158, 8125, 8145, 8189, 8181, 8195, 8169, 8159, 8180, 8142, 8038, 8154, 8130,0.5088889598846436
16, 8161, 8161, 8206, 8151, 8194, 8184, 8201, 8188, 8179, 8181, 8131, 8045, 8150, 8140,0.5088889598846436
17, 8172, 8169, 8160, 8174, 8200, 8194, 8224, 8183, 8212, 8212, 8153, 8040, 8185, 8156,0.5246367454528809
18, 8164, 8155, 8173, 8145, 8173, 8179, 8214, 8178, 8184, 8191, 8146, 8020, 8184, 8155,0.5246367454528809
19, 8149, 8150, 8179, 8126, 8167, 8178, 8205, 8171, 8158, 8166, 8134, 8005, 8164, 8146,0.5246367454528809
20, 8161, 8149, 8132, 8144, 8189, 8182, 8214, 8162, 8179, 8189, 8151, 7990, 8175, 8153,0.539376974105835
21, 8172, 8152, 8204, 8136, 8183, 8182, 8201, 8177, 8173, 8184, 8145, 7999, 8174, 8161,0.5549092292785645
22, 8149, 8134, 8138, 8122, 8169, 8169, 8191, 8158, 8159, 8172, 8120, 7969, 8156, 8136,0.5549092292785645
23, 8145, 8124, 8153, 8102, 8167, 8161, 8183, 8156, 8158, 8160, 8114, 7952, 8148, 8132,0.5700075626373291
24, 8165, 8146, 8199, 8110, 8170, 8179, 8195, 8179, 8184, 8163, 8133, 7974, 8165, 8149,0.5700075626373291
25, 8174, 8149, 8142, 8136, 8167, 8170, 8194, 8169, 8199, 8181, 8145, 7973, 8179, 8147,0.585482120513916
26, 8181, 8159, 8211, 8136, 8166, 8157, 8164, 8169, 8174, 8178, 8157, 7985, 8182, 8157,0.585482120513916
27, 8176, 8167, 8170, 8145, 8181, 8160, 8167, 8157, 8166, 8177, 8174, 7970, 8186, 8160,0.6011838912963867
28, 8166, 8154, 8163, 8129, 8173, 8155, 8164, 8160, 8156, 8161, 8161, 7952, 8175, 8145,0.6011838912963867
29, 8154, 8150, 8188, 8106, 8157, 8162, 8156, 8172, 8152, 8157, 8153, 7955, 8172, 8136,0.6167550086975098
30, 8145, 8147, 8120, 8111, 8158, 8153, 8165, 8160, 8164, 8167, 8160, 7937, 8179, 8128,0.6167550086975098
31, 8147, 8149, 8187, 8102, 8149, 8138, 8155, 8169, 8154, 8153, 8148, 7945, 8170, 8121,0.6328012943267822
32, 8146, 8146, 8151, 8098, 8146, 8138, 8158, 8164, 8167, 8168, 8145, 7937, 8174, 8117,0.6328012943267822
33, 8147, 8148, 8147, 8098, 8150, 8131, 8153, 8164, 8160, 8164, 8142, 7919, 8170, 8121,0.6488356590270996
34, 8138, 8162, 8200, 8112, 8152, 8134, 8133, 8170, 8125, 8133, 8137, 7923, 8147, 8110,0.6488356590270996
35, 8137, 8158, 8133, 8135, 8153, 8135, 8131, 8149, 8124, 8138, 8148, 7910, 8149, 8103,0.6640863418579102
36, 8160, 8166, 8205, 8123, 8150, 8144, 8135, 8161, 8127, 8147, 8152, 7924, 8156, 8129,0.6640863418579102
37, 8168, 8171, 8191, 8128, 8158, 8155, 8151, 8164, 8133, 8156, 8165, 7932, 8168, 8141,0.6799347400665283
38, 8175, 8170, 8173, 8149, 8172, 8150, 8149, 8157, 8134, 8149, 8179, 7927, 8177, 8136,0.6799347400665283
39, 8188, 8188, 8230, 8163, 8178, 8162, 8142, 8163, 8130, 8148, 8177, 7940, 8175, 8143,0.6952223777770996
40, 8176, 8181, 8161, 8174, 8178, 8158, 8145, 8146, 8138, 8170, 8179, 7929, 8179, 8137,0.6952223777770996
41, 8163, 8177, 8211, 8165, 8180, 8149, 8129, 8152, 8123, 8156, 8179, 7932, 8176, 8125,0.7110922336578369
42, 8154, 8182, 8193, 8183, 8188, 8164, 8148, 8160, 8123, 8149, 8173, 7915, 8164, 8115,0.7110922336578369
43, 8142, 8163, 8151, 8192, 8172, 8171, 8183, 8165, 8131, 8159, 8156, 7888, 8150, 8115,0.7261021137237549
44, 8138, 8155, 8203, 8170, 8158, 8180, 8197, 8180, 8145, 8175, 8151, 7895, 8158, 8136,0.7261021137237549
45, 8138, 8148, 8131, 8166, 8166, 8182, 8205, 8170, 8188, 8207, 8164, 7885, 8187, 8143,0.7422230243682861
46, 8145, 8138, 8168, 8152, 8154, 8168, 8180, 8176, 8187, 8193, 8158, 7894, 8181, 8137,0.7422230243682861
47, 8150, 8135, 8164, 8149, 8151, 8155, 8162, 8173, 8174, 8175, 8157, 7901, 8171, 8130,0.7581136226654053
48, 8156, 8140, 8128, 8147, 8163, 8151, 8166, 8164, 8173, 8177, 8166, 7895, 8176, 8132,0.7581136226654053
49, 8169, 8163, 8207, 8137, 8164, 8171, 8173, 8176, 8160, 8160, 8168, 7916, 8170, 8139,0.772984504699707
50, 8170, 8164, 8156, 8165, 8169, 8170, 8188, 8164, 8151, 8150, 8162, 7902, 8156, 8130,0.772984504699707
51, 8177, 8168, 8189, 8184, 8177, 8168, 8176, 8167, 8131, 8137, 8149, 7897, 8142, 8132,0.7890627384185791
52, 8185, 8186, 8201, 8198, 8190, 8192, 8178, 8171, 8140, 8156, 8165, 7909, 8159, 8153,0.7890627384185791
53, 8185, 8180, 8157, 8209, 8198, 8188, 8186, 8163, 8169, 8193, 8188, 7905, 8188, 8168,0.8045783042907715
54, 8191, 8178, 8224, 8212, 8195, 8181, 8181, 8175, 8179, 8209, 8181, 7924, 8200, 8180,0.8045783042907715
55, 8188, 8171, 8162, 8215, 8194, 8181, 8195, 8169, 8207, 8228, 8184, 7916, 8211, 8179,0.8198361396789551
56, 8174, 8154, 8171, 8167, 8177, 8169, 8183, 8173, 8202, 8207, 8178, 7902, 8196, 8166,0.8198361396789551
57, 8153, 8156, 8179, 8142, 8170, 8167, 8175, 8174, 8177, 8179, 8165, 7901, 8179, 8140,0.834831953048706
58, 8152, 8163, 8127, 8160, 8181, 8166, 8185, 8164, 8169, 8175, 8173, 7897, 8179, 8128,0.834831953048706
59, 8169, 8175, 8202, 8161, 8182, 8173, 8174, 8179, 8161, 8171, 8191, 7920, 8181, 8141,0.850924015045166
60, 8163, 8176, 8150, 8179, 8196, 8177, 8179, 8170, 8175, 8185, 8202, 7910, 8192, 8138,0.850924015045166
61, 8152, 8175, 8172, 8190, 8203, 8181, 8188, 8172, 8166, 8182, 8176, 7898, 8180, 8135,0.8662929534912109
62, 8155, 8177, 8206, 8190, 8189, 8191, 8189, 8173, 8155, 8182, 8149, 7899, 8162, 8142,0.8662929534912109
63, 8165, 8161, 8133, 8187, 8182, 8177, 8194, 8155, 8171, 8197, 8159, 7889, 8172, 8149,0.881188154220581
64, 8181, 8167, 8205, 8177, 8179, 8178, 8193, 8173, 8181, 8195, 8177, 7920, 8187, 8173,0.881188154220581
65, 8182, 8169, 8169, 8187, 8176, 8183, 8196, 8169, 8203, 8214, 8190, 7929, 8203, 8181,0.8967840671539307
66, 8192, 8167, 8169, 8182, 8173, 8167, 8181, 8161, 8204, 8209, 8196, 7931, 8209, 8172,0.8967840671539307
67, 8208, 8192, 8222, 8174, 8185, 8175, 8171, 8169, 8187, 8180, 8206, 7953, 8204, 8168,0.9119853973388672
68, 8189, 8187, 8158, 8180, 8194, 8175, 8170, 8164, 8174, 8174, 8202, 7935, 8186, 8147,0.9119853973388672
69, 8163, 8174, 8207, 8173, 8182, 8172, 8159, 8173, 8153, 8164, 8172, 7920, 8161, 8124,0.9274580478668213
70, 8146, 8167, 8161, 8189, 8188, 8179, 8176, 8169, 8164, 8174, 8167, 7903, 8165, 8113,0.9274580478668213
71, 8146, 8148, 8147, 8187, 8191, 8177, 8183, 8170, 8175, 8187, 8169, 7900, 8173, 8127,0.9432244300842285
72, 8155, 8144, 8202, 8175, 8181, 8188, 8185, 8175, 8181, 8200, 8166, 7915, 8182, 8152,0.9432244300842285
73, 8160, 8144, 8137, 8191, 8183, 8187, 8203, 8158, 8205, 8220, 8174, 7909, 8202, 8154,0.9599151611328125
74, 8164, 8144, 8190, 8174, 8180, 8174, 8189, 8168, 8201, 8206, 8174, 7935, 8203, 8156,0.9599151611328125
75, 8163, 8137, 8170, 8150, 8170, 8171, 8183, 8166, 8193, 8197, 8181, 7947, 8202, 8159,0.9740869998931885
76, 8173, 8141, 8158, 8141, 8160, 8169, 8183, 8164, 8186, 8186, 8187, 7937, 8196, 8157,0.9740869998931885
77, 8190, 8174, 8223, 8150, 8161, 8173, 8176, 8178, 8187, 8175, 8191, 7961, 8192, 8158,0.991194486618042
78, 8208, 8191, 8171, 8190, 8182, 8168, 8187, 8167, 8206, 8198, 8210, 7975, 8212, 8173,0.991194486618042
79, 8219, 8200, 8233, 8204, 8195, 8171, 8186, 8175, 8188, 8203, 8212, 7988, 8212, 8194,1.0070924758911133
80, 8211, 8203, 8212, 8217, 8203, 8191, 8200, 8175, 8192, 8218, 8214, 7980, 8201, 8187,1.0070924758911133
81, 8209, 8188, 8173, 8225, 8198, 8193, 8206, 8170, 8218, 8232, 8218, 7967, 8204, 8177,1.0201668739318848
82, 8198, 8183, 8237, 8211, 8189, 8198, 8200, 8187, 8211, 8220, 8205, 7976, 8210, 8180,1.0213234424591064
83, 8170, 8167, 8155, 8202, 8194, 8197, 8210, 8176, 8214, 8226, 8191, 7950, 8209, 8165,1.037930965423584
84, 8168, 8154, 8184, 8178, 8190, 8193, 8200, 8175, 8214, 8221, 8179, 7948, 8200, 8156,1.037930965423584
85, 8181, 8162, 8191, 8184, 8191, 8200, 8203, 8174, 8225, 8226, 8194, 7969, 8216, 8169,1.0514984130859375
86, 8185, 8164, 8156, 8188, 8194, 8184, 8201, 8164, 8222, 8232, 8214, 7978, 8231, 8182,1.0671579837799072
87, 8190, 8172, 8218, 8171, 8181, 8172, 8185, 8173, 8205, 8215, 8213, 8001, 8226, 8184,1.0671579837799072
88, 8192, 8170, 8168, 8184, 8183, 8172, 8202, 8168, 8219, 8212, 8217, 7998, 8231, 8168,1.0837435722351074
89, 8199, 8172, 8221, 8182, 8185, 8176, 8202, 8176, 8208, 8197, 8219, 8008, 8219, 8169,1.0847444534301758
90, 8190, 8177, 8222, 8177, 8175, 8175, 8189, 8173, 8186, 8182, 8211, 8005, 8198, 8165,1.0981693267822266
91, 8174, 8154, 8149, 8164, 8162, 8159, 8190, 8165, 8186, 8181, 8186, 7968, 8185, 8147,1.0981693267822266
92, 8171, 8144, 8212, 8145, 8156, 8174, 8191, 8179, 8182, 8177, 8169, 7968, 8173, 8153,1.1140224933624268
93, 8161, 8146, 8154, 8180, 8165, 8186, 8195, 8164, 8189, 8190, 8167, 7958, 8171, 8152,1.1140224933624268
94, 8176, 8158, 8184, 8203, 8173, 8182, 8194, 8168, 8200, 8201, 8159, 7967, 8183, 8157,1.1292815208435059
95, 8199, 8176, 8219, 8204, 8183, 8191, 8205, 8179, 8236, 8228, 8182, 7998, 8215, 8179,1.1292815208435059
96, 8188, 8165, 8152, 8195, 8184, 8174, 8195, 8163, 8246, 8231, 8203, 7982, 8224, 8176,1.14522385597229
97, 8171, 8159, 8207, 8170, 8173, 8164, 8167, 8169, 8207, 8191, 8177, 7959, 8197, 8152,1.14522385597229
98, 8163, 8155, 8154, 8168, 8179, 8175, 8182, 8165, 8199, 8184, 8170, 7923, 8192, 8131,1.1611201763153076
99, 8161, 8154, 8162, 8157, 8178, 8175, 8182, 8167, 8189, 8172, 8178, 7901, 8187, 8122,1.1611201763153076
100, 8153, 8169, 8195, 8158, 8180, 8177, 8177, 8172, 8182, 8167, 8177, 7879, 8181, 8113,1.1769285202026367
101, 8150, 8167, 8137, 8175, 8189, 8173, 8187, 8160, 8195, 8183, 8175, 7833, 8184, 8117,1.1769285202026367
102, 8157, 8170, 8205, 8174, 8182, 8178, 8179, 8171, 8179, 8165, 8163, 7823, 8181, 8136,1.192082166671753
103, 8154, 8166, 8164, 8188, 8183, 8187, 8193, 8168, 8186, 8182, 8162, 7790, 8187, 8140,1.192082166671753
104, 8157, 8153, 8159, 8184, 8185, 8190, 8202, 8172, 8203, 8209, 8162, 7749, 8186, 8145,1.2081542015075684
105, 8160, 8163, 8200, 8172, 8183, 8207, 8197, 8178, 8209, 8210, 8160, 7742, 8186, 8157,1.2081542015075684
106, 8161, 8168, 8140, 8189, 8189, 8200, 8200, 8160, 8222, 8222, 8167, 7727, 8199, 8158,1.223830223083496
107, 8182, 8173, 8212, 8189, 8189, 8185, 8199, 8178, 8225, 8223, 8165, 7729, 8204, 8168,1.223830223083496
108, 8195, 8171, 8183, 8186, 8188, 8180, 8208, 8179, 8246, 8226, 8179, 7716, 8212, 8176,1.2402098178863525
109, 8197, 8167, 8173, 8187, 8183, 8171, 8198, 8170, 8250, 8227, 8202, 7707, 8220, 8177,1.2402098178863525
110, 8191, 8175, 8218, 8189, 8185, 8181, 8180, 8179, 8232, 8223, 8203, 7706, 8220, 8174,1.2557487487792969
111, 8177, 8166, 8139, 8192, 8192, 8186, 8182, 8169, 8229, 8211, 8189, 7662, 8220, 8154,1.2557487487792969
112, 8176, 8169, 8193, 8178, 8184, 8181, 8173, 8175, 8218, 8177, 8176, 7656, 8209, 8142,1.2707781791687012
113, 8177, 8177, 8176, 8198, 8190, 8181, 8180, 8171, 8227, 8188, 8183, 7658, 8206, 8138,1.2707781791687012
114, 8176, 8171, 8154, 8212, 8200, 8177, 8178, 8164, 8222, 8204, 8179, 7635, 8196, 8131,1.2868573665618896
115, 8169, 8176, 8205, 8201, 8201, 8188, 8164, 8172, 8202, 8189, 8171, 7633, 8180, 8128,1.2868573665618896
116, 8156, 8171, 8134, 8211, 8205, 8191, 8175, 8159, 8217, 8198, 8175, 7621, 8184, 8127,1.3020780086517334
117, 8158, 8168, 8184, 8205, 8200, 8198, 8178, 8168, 8212, 8200, 8166, 7622, 8179, 8139,1.3020780086517334
118, 8157, 8158, 8169, 8199, 8196, 8207, 8187, 8169, 8202, 8210, 8163, 7614, 8173, 8137,1.317188024520874
119, 8154, 8140, 8131, 8192, 8192, 8192, 8184, 8164, 8208, 8215, 8156, 7604, 8174, 8135,1.317188024520874
120, 8167, 8156, 8202, 8191, 8189, 8191, 8169, 8178, 8218, 8212, 8155, 7629, 8184, 8157,1.3332335948944092
121, 8178, 8160, 8144, 8206, 8189, 8188, 8164, 8166, 8234, 8227, 8177, 7634, 8205, 8162,1.3332335948944092
122, 8186, 8152, 8187, 8189, 8173, 8167, 8146, 8167, 8221, 8212, 8179, 7657, 8215, 8161,1.3488149642944336
123, 8190, 8167, 8204, 8193, 8173, 8169, 8157, 8169, 8227, 8208, 8194, 7686, 8228, 8171,1.3488149642944336
124, 8204, 8190, 8175, 8213, 8179, 8171, 8167, 8166, 8240, 8228, 8232, 7702, 8240, 8179,1.3642017841339111
125, 8220, 8213, 8241, 8220, 8174, 8167, 8151, 8179, 8217, 8216, 8246, 7739, 8236, 8175,1.3642017841339111
126, 8217, 8214, 8182, 8253, 8183, 8161, 8161, 8162, 8210, 8205, 8248, 7743, 8228, 8164,1.379875898361206
127, 8209, 8211, 8226, 8263, 8186, 8159, 8159, 8167, 8200, 8193, 8252, 7752, 8214, 8166,1.379875898361206
236, 8202, 8218, 8242, 8278, 8187, 8166, 8157, 8175, 8201, 8196, 8264, 7769, 8218, 8163,1.3949816226959229
0, 8211, 8212, 8192, 8305, 8192, 8158, 8162, 8165, 8201, 8195, 8264, 7761, 8220, 8159,1.3949816226959229
1, 8219, 8218, 8264, 8302, 8191, 8162, 8153, 8174, 8179, 8178, 8248, 7778, 8203, 8170,1.4102826118469238
2, 8206, 8217, 8205, 8316, 8193, 8170, 8162, 8162, 8188, 8190, 8247, 7773, 8212, 8173,1.4102826118469238
3, 8214, 8212, 8226, 8325, 8192, 8171, 8177, 8166, 8194, 8192, 8241, 7781, 8221, 8183,1.4262590408325195
4, 8231, 8218, 8256, 8324, 8191, 8178, 8185, 8177, 8194, 8197, 8246, 7807, 8218, 8193,1.4262590408325195
5, 8224, 8204, 8193, 8313, 8185, 8156, 8169, 8162, 8190, 8200, 8248, 7799, 8213, 8179,1.4417989253997803
6, 8222, 8199, 8254, 8296, 8178, 8147, 8148, 8165, 8180, 8183, 8228, 7813, 8209, 8173,1.4417989253997803
7, 8226, 8198, 8207, 8308, 8187, 8155, 8165, 8164, 8204, 8205, 8229, 7822, 8226, 8182,1.4571552276611328
8, 8233, 8199, 8215, 8288, 8187, 8146, 8157, 8175, 8203, 8205, 8241, 7840, 8239, 8193,1.4571552276611328
9, 8241, 8208, 8244, 8266, 8188, 8144, 8145, 8180, 8192, 8190, 8250, 7860, 8245, 8189,1.4728105068206787
10, 8241, 8197, 8177, 8274, 8198, 8138, 8151, 8161, 8204, 8200, 8252, 7846, 8246, 8168,1.4728105068206787
11, 8228, 8194, 8241, 8253, 8193, 8141, 8137, 8172, 8191, 8182, 8245, 7855, 8234, 8171,1.4878404140472412
12, 8204, 8186, 8190, 8230, 8194, 8151, 8149, 8168, 8192, 8181, 8243, 7843, 8235, 8170,1.4878404140472412
13, 8200, 8182, 8178, 8218, 8193, 8142, 8153, 8162, 8191, 8186, 8223, 7826, 8223, 8150,1.5037310123443604
14, 8202, 8196, 8223, 8226, 8189, 8146, 8138, 8166, 8174, 8177, 8210, 7836, 8204, 8143,1.5037310123443604
15, 8198, 8187, 8161, 8235, 8200, 8149, 8146, 8157, 8170, 8182, 8227, 7838, 8212, 8152,1.518796682357788
16, 8203, 8192, 8231, 8221, 8200, 8148, 8145, 8173, 8160, 8184, 8222, 7855, 8209, 8160,1.518796682357788
17, 8203, 8203, 8202, 8234, 8194, 8143, 8145, 8166, 8161, 8188, 8209, 7849, 8200, 8152,1.5340449810028076
18, 8206, 8192, 8177, 8231, 8191, 8140, 8141, 8159, 8145, 8176, 8207, 7845, 8196, 8158,1.5490014553070068
19, 8210, 8192, 8221, 8226, 8193, 8159, 8136, 8171, 8129, 8175, 8208, 7867, 8200, 8165,1.5490014553070068
20, 8202, 8196, 8155, 8241, 8198, 8163, 8145, 8156, 8144, 8195, 8204, 7854, 8207, 8152,1.5490014553070068
21, 8199, 8202, 8210, 8184, 8196, 8169, 8146, 8169, 8152, 8195, 8194, 7860, 8205, 8157,1.5649347305297852
22, 8191, 8190, 8178, 8085, 8200, 8186, 8173, 8176, 8173, 8211, 8198, 7865, 8210, 8159,1.581130027770996
23, 8172, 8160, 8139, 8009, 8191, 8172, 8180, 8169, 8175, 8211, 8182, 7853, 8202, 8155,1.581130027770996
24, 8162, 8152, 8190, 7969, 8177, 8163, 8159, 8176, 8163, 8192, 8159, 7856, 8195, 8159,1.581130027770996
25, 8148, 8137, 8115, 7936, 8173, 8163, 8161, 8164, 8176, 8199, 8160, 7840, 8201, 8146,1.5971975326538086
26, 8136, 8126, 8164, 7886, 8160, 8160, 8153, 8171, 8173, 8188, 8163, 7854, 8193, 8134,1.5971975326538086
27, 8140, 8139, 8165, 7891, 8159, 8162, 8161, 8168, 8182, 8188, 8164, 7866, 8188, 8135,1.6122071743011475
28, 8155, 8144, 8130, 7903, 8163, 8150, 8163, 8160, 8186, 8184, 8155, 7860, 8183, 8133,1.6277756690979004
29, 8166, 8150, 8190, 7883, 8160, 8151, 8152, 8172, 8173, 8159, 8156, 7890, 8182, 8133,1.6277756690979004
30, 8174, 8156, 8139, 7894, 8174, 8156, 8168, 8167, 8186, 8171, 8182, 7909, 8203, 8144,1.6277756690979004
31, 8193, 8171, 8197, 7896, 8181, 8157, 8167, 8178, 8190, 8173, 8189, 7926, 8205, 8162,1.643714189529419
32, 8192, 8179, 8200, 7888, 8184, 8162, 8165, 8177, 8195, 8168, 8180, 7927, 8196, 8155,1.643714189529419
33, 8185, 8172, 8154, 7890, 8189, 8155, 8164, 8163, 8192, 8172, 8178, 7924, 8197, 8140,1.6597480773925781
34, 8200, 8194, 8231, 7897, 8188, 8165, 8160, 8173, 8174, 8172, 8189, 7959, 8201, 8149,1.6750938892364502
35, 8202, 8197, 8170, 7917, 8194, 8173, 8178, 8169, 8192, 8188, 8201, 7958, 8209, 8153,1.6750938892364502
36, 8186, 8185, 8188, 7912, 8196, 8169, 8181, 8182, 8199, 8182, 8184, 7955, 8202, 8147,1.6750938892364502
37, 8167, 8186, 8199, 7909, 8191, 8174, 8180, 8185, 8198, 8183, 8180, 7963, 8195, 8139,1.6910455226898193
38, 8162, 8173, 8148, 7910, 8187, 8175, 8180, 8168, 8199, 8199, 8189, 7952, 8191, 8139,1.6910455226898193
39, 8171, 8172, 8213, 7906, 8185, 8191, 8178, 8178, 8189, 8191, 8177, 7966, 8188, 8150,1.7072396278381348
40, 8165, 8173, 8158, 7922, 8187, 8192, 8188, 8166, 8197, 8194, 8169, 7959, 8199, 8141,1.7228333950042725
41, 8156, 8167, 8172, 7908, 8175, 8175, 8179, 8164, 8182, 8190, 8152, 7955, 8174, 8136,1.7228333950042725
42, 8157, 8159, 8186, 7886, 8164, 8180, 8177, 8176, 8178, 8196, 8139, 7969, 8175, 8150,1.7228333950042725
43, 8169, 8151, 8132, 7888, 8165, 8172, 8171, 8168, 8197, 8200, 8148, 7978, 8271, 8160,1.7369880676269531
44, 8193, 8169, 8220, 7878, 8159, 8159, 8140, 8174, 8178, 8173, 8154, 8018, 8347, 8166,1.7535619735717773
45, 8195, 8172, 8174, 7891, 8165, 8152, 8137, 8157, 8163, 8170, 8167, 8028, 8339, 8154,1.7535619735717773
46, 8187, 8170, 8173, 7909, 8170, 8153, 8136, 8152, 8149, 8154, 8169, 8022, 8303, 8139,1.7535619735717773
47, 8187, 8194, 8218, 7926, 8183, 8176, 8144, 8165, 8149, 8143, 8164, 8030, 8266, 8137,1.769099473953247
48, 8179, 8192, 8151, 7942, 8196, 8182, 8157, 8156, 8162, 8165, 8158, 8012, 8199, 8130,1.7874271869659424
49, 8159, 8176, 8200, 7931, 8182, 8182, 8143, 8159, 8146, 8158, 8138, 8019, 8145, 8126,1.7874271869659424
50, 8144, 8166, 8157, 7942, 8180, 8184, 8154, 8156, 8153, 8166, 8139, 8017, 8160, 8124,1.7874271869659424
51, 8153, 8156, 8149, 7939, 8184, 8178, 8174, 8173, 8177, 8194, 8151, 8018, 8175, 8133,1.7999629974365234
52, 8151, 8160, 8185, 7937, 8181, 8189, 8182, 8188, 8196, 8211, 8148, 8032, 8165, 8137,1.8159987926483154
53, 8137, 8160, 8121, 7962, 8180, 8186, 8187, 8165, 8207, 8208, 8146, 8020, 8160, 8128,1.8159987926483154
54, 8155, 8163, 8189, 7948, 8180, 8178, 8186, 8178, 8200, 8194, 8160, 8050, 8169, 8142,1.8330395221710205
55, 8179, 8164, 8155, 7949, 8191, 8178, 8196, 8175, 8215, 8207, 8181, 8072, 8197, 8157,1.8330395221710205
56, 8187, 8165, 8145, 7967, 8190, 8164, 8179, 8159, 8211, 8204, 8177, 8079, 8199, 8159,1.8330395221710205
57, 8194, 8181, 8218, 7977, 8184, 8157, 8162, 8168, 8196, 8196, 8186, 8115, 8194, 8165,1.849959373474121
58, 8199, 8175, 8149, 7978, 8183, 8144, 8168, 8162, 8196, 8207, 8207, 8117, 8203, 8163,1.849959373474121
59, 8207, 8179, 8202, 7964, 8166, 8133, 8141, 8169, 8163, 8171, 8195, 8122, 8190, 8159,1.8632993698120117
60, 8212, 8196, 8198, 7988, 8160, 8136, 8129, 8166, 8148, 8158, 8193, 8129, 8184, 8154,1.8804593086242676
61, 8214, 8192, 8176, 8005, 8173, 8141, 8147, 8157, 8149, 8181, 8192, 8127, 8186, 8158,1.8804593086242676
62, 8203, 8190, 8218, 7999, 8182, 8168, 8167, 8164, 8131, 8176, 8171, 8124, 8177, 8157,1.8940885066986084
63, 8177, 8174, 8133, 8011, 8177, 8174, 8183, 8155, 8127, 8164, 8161, 8099, 8171, 8134,1.8940885066986084
64, 8162, 8154, 8167, 7991, 8157, 8158, 8171, 8167, 8134, 8155, 8147, 8107, 8157, 8126,1.9096105098724365
65, 8159, 8151, 8155, 7976, 8154, 8157, 8179, 8173, 8170, 8185, 8145, 8116, 8171, 8135,1.9096105098724365
66, 8173, 8159, 8134, 7986, 8159, 8148, 8183, 8172, 8192, 8202, 8164, 8117, 8202, 8150,1.9251549243927002
67, 8185, 8174, 8215, 7989, 8151, 8134, 8155, 8177, 8172, 8173, 8179, 8154, 8202, 8153,1.9251549243927002
68, 8179, 8161, 8152, 8001, 8148, 8125, 8145, 8159, 8167, 8172, 8186, 8162, 8189, 8135,1.941511869430542
69, 8192, 8174, 8199, 8017, 8158, 8140, 8142, 8170, 8158, 8172, 8185, 8171, 8186, 8143,1.941511869430542
70, 8197, 8211, 8214, 8053, 8184, 8161, 8152, 8175, 8150, 8170, 8187, 8175, 8188, 8154,1.9565749168395996
71, 8196, 8202, 8168, 8067, 8189, 8151, 8159, 8158, 8138, 8168, 8178, 8159, 8178, 8146,1.9565749168395996
72, 8221, 8192, 8241, 8060, 8172, 8162, 8167, 8166, 8123, 8168, 8170, 8190, 8177, 8168,1.9724650382995605
73, 8235, 8191, 8187, 8075, 8171, 8173, 8187, 8160, 8136, 8180, 8186, 8210, 8196, 8197,1.9724650382995605
74, 8227, 8186, 8203, 8050, 8166, 8158, 8166, 8161, 8130, 8159, 8186, 8211, 8198, 8194,1.9880051612854004
75, 8219, 8180, 8209, 8036, 8169, 8160, 8157, 8161, 8132, 8149, 8179, 8195, 8193, 8168,1.9880051612854004
76, 8224, 8179, 8159, 8055, 8185, 8158, 8170, 8155, 8149, 8165, 8186, 8184, 8190, 8158,2.0095226764678955
77, 8226, 8200, 8230, 8051, 8188, 8159, 8166, 8176, 8146, 8169, 8194, 8221, 8186, 8172,2.010025978088379
78, 8200, 8203, 8170, 8058, 8193, 8168, 8175, 8170, 8159, 8177, 8198, 8208, 8191, 8164,2.010025978088379
79, 8183, 8193, 8182, 8063, 8189, 8167, 8167, 8175, 8152, 8157, 8177, 8178, 8179, 8146,2.019937038421631
80, 8186, 8197, 8200, 8061, 8183, 8168, 8168, 8179, 8144, 8151, 8162, 8178, 8165, 8145,2.035109281539917
81, 8187, 8189, 8142, 8065, 8190, 8166, 8192, 8171, 8166, 8178, 8158, 8174, 8168, 8154,2.035109281539917
82, 8188, 8188, 8221, 8062, 8193, 8184, 8202, 8187, 8179, 8186, 8149, 8192, 8168, 8166,2.0497756004333496
83, 8185, 8182, 8167, 8070, 8195, 8192, 8212, 8169, 8189, 8206, 8160, 8188, 8175, 8158,2.0497756004333496
84, 8187, 8170, 8162, 8060, 8188, 8178, 8205, 8162, 8180, 8211, 8158, 8189, 8175, 8158,2.0649309158325195
85, 8193, 8176, 8206, 8054, 8179, 8180, 8204, 8178, 8183, 8204, 8147, 8213, 8176, 8181,2.0649309158325195
86, 8198, 8169, 8143, 8059, 8174, 8175, 8209, 8163, 8195, 8209, 8154, 8213, 8187, 8190,2.0802316665649414
87, 8204, 8167, 8203, 8048, 8165, 8166, 8186, 8162, 8168, 8189, 8148, 8221, 8179, 8181,2.0802316665649414
88, 8195, 8171, 8171, 8063, 8169, 8155, 8179, 8158, 8163, 8184, 8145, 8216, 8181, 8161,2.0962297916412354
89, 8190, 8174, 8166, 8063, 8168, 8141, 8173, 8164, 8169, 8175, 8148, 8221, 8177, 8157,2.0962297916412354
90, 8193, 8180, 8203, 8051, 8167, 8151, 8168, 8175, 8162, 8157, 8156, 8246, 8173, 8158,2.1117653846740723
91, 8191, 8179, 8136, 8066, 8181, 8152, 8182, 8162, 8160, 8169, 8175, 8237, 8200, 8149,2.1117653846740723
92, 8197, 8204, 8213, 8081, 8185, 8158, 8184, 8179, 8160, 8179, 8182, 8252, 8219, 8158,2.1268458366394043
93, 8196, 8215, 8195, 8107, 8188, 8175, 8194, 8178, 8180, 8184, 8181, 8253, 8218, 8163,2.1268458366394043
94, 8191, 8202, 8169, 8113, 8197, 8178, 8188, 8160, 8169, 8174, 8172, 8243, 8209, 8157,2.1419787406921387
95, 8189, 8211, 8215, 8113, 8209, 8184, 8181, 8161, 8148, 8178, 8166, 8252, 8206, 8157,2.1419787406921387
96, 8184, 8197, 8142, 8122, 8212, 8181, 8201, 8158, 8169, 8202, 8160, 8233, 8206, 8155,2.1575775146484375
97, 8182, 8175, 8185, 8092, 8191, 8178, 8198, 8176, 8172, 8181, 8132, 8227, 8185, 8157,2.1575775146484375
98, 8170, 8171, 8163, 8085, 8183, 8179, 8190, 8169, 8165, 8163, 8113, 8218, 8164, 8150,2.1737256050109863
99, 8164, 8163, 8138, 8096, 8183, 8172, 8185, 8156, 8155, 8168, 8102, 8212, 8146, 8147,2.1737256050109863
100, 8163, 8160, 8198, 8081, 8184, 8190, 8185, 8168, 8147, 8179, 8102, 8233, 8141, 8152,2.1892611980438232
101, 8162, 8157, 8130, 8076, 8189, 8193, 8197, 8156, 8165, 8196, 8123, 8224, 8150, 8145,2.1892611980438232
102, 8173, 8167, 8181, 8074, 8178, 8174, 8185, 8158, 8174, 8179, 8129, 8237, 8146, 8146,2.205042600631714
103, 8169, 8175, 8178, 8100, 8180, 8178, 8189, 8166, 8199, 8189, 8137, 8259, 8162, 8152,2.205042600631714
104, 8173, 8165, 8146, 8114, 8190, 8178, 8201, 8176, 8224, 8218, 8154, 8267, 8188, 8155,2.2210562229156494
105, 8194, 8176, 8220, 8087, 8181, 8171, 8195, 8188, 8218, 8199, 8161, 8293, 8185, 8163,2.2210562229156494
106, 8193, 8184, 8156, 8096, 8175, 8159, 8199, 8172, 8215, 8181, 8167, 8289, 8181, 8157,2.236830711364746
107, 8201, 8191, 8193, 8114, 8181, 8160, 8188, 8182, 8202, 8175, 8169, 8298, 8177, 8159,2.236830711364746
108, 8218, 8207, 8212, 8134, 8198, 8178, 8185, 8178, 8196, 8178, 8175, 8308, 8172, 8161,2.2525219917297363
109, 8214, 8202, 8172, 8139, 8211, 8177, 8189, 8157, 8192, 8179, 8178, 8295, 8167, 8155,2.2525219917297363
110, 8200, 8196, 8229, 8124, 8207, 8181, 8184, 8175, 8180, 8181, 8171, 8302, 8165, 8159,2.268232583999634
111, 8192, 8187, 8162, 8140, 8205, 8188, 8196, 8175, 8199, 8212, 8166, 8286, 8171, 8159,2.268232583999634
112, 8191, 8188, 8192, 8148, 8204, 8195, 8201, 8178, 8204, 8206, 8148, 8286, 8163, 8161,2.283745527267456
113, 8190, 8195, 8208, 8165, 8215, 8215, 8220, 8182, 8203, 8198, 8137, 8294, 8155, 8162,2.283745527267456
114, 8192, 8180, 8149, 8168, 8211, 8207, 8227, 8171, 8210, 8215, 8136, 8279, 8156, 8159,2.299265146255493
115, 8187, 8172, 8215, 8132, 8189, 8192, 8203, 8175, 8198, 8207, 8130, 8293, 8155, 8164,2.299265146255493
116, 8174, 8166, 8162, 8129, 8197, 8196, 8210, 8161, 8199, 8206, 8131, 8289, 8162, 8158,2.3149962425231934
117, 8179, 8169, 8174, 8140, 8212, 8203, 8214, 8168, 8194, 8199, 8118, 8293, 8154, 8149,2.3149962425231934
118, 8190, 8182, 8202, 8147, 8214, 8206, 8214, 8184, 8216, 8213, 8129, 8317, 8167, 8155,2.3305726051330566
119, 8191, 8165, 8141, 8132, 8201, 8185, 8223, 8174, 8258, 8238, 8158, 8318, 8193, 8165,2.3305726051330566
120, 8183, 8166, 8207, 8116, 8183, 8179, 8208, 8183, 8243, 8214, 8147, 8323, 8176, 8166,2.345366954803467
121, 8171, 8184, 8167, 8156, 8197, 8181, 8202, 8177, 8216, 8193, 8132, 8308, 8150, 8148,2.345366954803467
122, 8178, 8190, 8168, 8170, 8210, 8168, 8191, 8168, 8180, 8159, 8125, 8302, 8128, 8139,2.3609864711761475
123, 8178, 8197, 8197, 8159, 8202, 8172, 8187, 8167, 8158, 8138, 8129, 8315, 8121, 8135,2.377023935317993
124, 8163, 8188, 8133, 8170, 8200, 8170, 8195, 8159, 8163, 8159, 8129, 8297, 8125, 8124,2.377023935317993
125, 8167, 8187, 8198, 8163, 8202, 8170, 8194, 8176, 8158, 8165, 8113, 8300, 8113, 8131,2.392101287841797
126, 8167, 8184, 8158, 8166, 8203, 8179, 8207, 8168, 8177, 8182, 8118, 8297, 8115, 8129,2.392101287841797
127, 8158, 8175, 8155, 8175, 8196, 8176, 8195, 8162, 8189, 8187, 8122, 8293, 8120, 8122,2.407625436782837
236, 8161, 8179, 8209, 8175, 8199, 8189, 8179, 8176, 8187, 8184, 8116, 8311, 8119, 8132,2.407625436782837
0, 8161, 8169, 8128, 8175, 8206, 8190, 8198, 8166, 8197, 8202, 8115, 8304, 8126, 8138,2.407625436782837
1, 8163, 8166, 8177, 8166, 8197, 8186, 8212, 8181, 8199, 8212, 8123, 8322, 8141, 8154,2.423236608505249
2, 8164, 8171, 8164, 8183, 8199, 8196, 8226, 8182, 8219, 8228, 8148, 8334, 8162, 8159,2.424236536026001
3, 8166, 8168, 8151, 8191, 8210, 8196, 8227, 8175, 8233, 8234, 8147, 8323, 8160, 8152,2.4392893314361572
4, 8161, 8170, 8197, 8170, 8207, 8196, 8225, 8183, 8225, 8223, 8128, 8322, 8145, 8150,2.455259323120117
5, 8157, 8162, 8129, 8165, 8199, 8189, 8237, 8174, 8231, 8215, 8132, 8312, 8149, 8148,2.455259323120117
6, 8182, 8172, 8194, 8161, 8191, 8188, 8237, 8186, 8230, 8202, 8139, 8342, 8161, 8164,2.471804141998291
7, 8190, 8182, 8177, 8168, 8192, 8182, 8240, 8178, 8230, 8215, 8142, 8348, 8170, 8169,2.471804141998291
8, 8179, 8168, 8144, 8163, 8189, 8156, 8219, 8165, 8214, 8212, 8150, 8330, 8167, 8157,2.471804141998291
9, 8187, 8179, 8219, 8163, 8190, 8165, 8193, 8181, 8201, 8198, 8170, 8363, 8176, 8167,2.4869754314422607
10, 8199, 8186, 8161, 8190, 8205, 8176, 8196, 8169, 8225, 8213, 8179, 8371, 8187, 8172,2.4869754314422607
11, 8192, 8182, 8199, 8180, 8200, 8157, 8170, 8170, 8212, 8188, 8158, 8358, 8158, 8151,2.5011355876922607
12, 8183, 8191, 8193, 8184, 8199, 8156, 8161, 8169, 8194, 8171, 8158, 8350, 8148, 8138,2.5172135829925537
13, 8203, 8201, 8168, 8201, 8209, 8168, 8177, 8161, 8201, 8184, 8182, 8367, 8171, 8160,2.5172135829925537
14, 8212, 8210, 8240, 8204, 8210, 8175, 8178, 8174, 8190, 8183, 8183, 8388, 8171, 8175,2.532816171646118
15, 8185, 8196, 8168, 8216, 8213, 8170, 8191, 8167, 8183, 8187, 8164, 8348, 8157, 8150,2.532816171646118
16, 8175, 8191, 8194, 8203, 8206, 8179, 8196, 8175, 8172, 8167, 8143, 8338, 8143, 8141,2.5497188568115234
17, 8179, 8195, 8201, 8211, 8207, 8199, 8212, 8179, 8187, 8168, 8152, 8355, 8149, 8149,2.5497188568115234
18, 8174, 8182, 8155, 8233, 8217, 8194, 8226, 8174, 8209, 8205, 8163, 8344, 8163, 8152,2.5497188568115234
19, 8175, 8185, 8221, 8218, 8217, 8200, 8224, 8186, 8204, 8215, 8146, 8355, 8159, 8160,2.5667879581451416
20, 8169, 8175, 8155, 8209, 8218, 8199, 8239, 8172, 8217, 8213, 8138, 8347, 8154, 8154,2.5667879581451416
21, 8162, 8155, 8171, 8195, 8205, 8185, 8238, 8174, 8220, 8202, 8134, 8336, 8140, 8145,2.57985782623291
22, 8159, 8153, 8186, 8184, 8190, 8189, 8235, 8176, 8222, 8207, 8138, 8341, 8142, 8148,2.595273733139038
23, 8159, 8148, 8129, 8164, 8184, 8173, 8226, 8163, 8223, 8207, 8135, 8338, 8153, 8145,2.595273733139038
24, 8166, 8157, 8204, 8148, 8181, 8166, 8193, 8175, 8201, 8181, 8124, 8360, 8141, 8142,2.610974073410034
25, 8175, 8168, 8164, 8182, 8197, 8170, 8188, 8166, 8212, 8196, 8154, 8364, 8149, 8141,2.610974073410034
26, 8189, 8177, 8184, 8196, 8204, 8160, 8182, 8169, 8222, 8217, 8197, 8389, 8175, 8160,2.6260666847229004
27, 8200, 8195, 8223, 8199, 8198, 8158, 8180, 8177, 8215, 8223, 8215, 8422, 8196, 8174,2.6260666847229004
28, 8200, 8196, 8172, 8221, 8195, 8147, 8192, 8167, 8207, 8216, 8205, 8401, 8183, 8164,2.641231060028076
29, 8192, 8200, 8231, 8207, 8190, 8147, 8189, 8179, 8190, 8186, 8185, 8395, 8151, 8151,2.641231060028076
30, 8171, 8190, 8174, 8199, 8185, 8156, 8198, 8171, 8201, 8191, 8186, 8385, 8151, 8133,2.656895637512207
31, 8166, 8174, 8176, 8204, 8178, 8153, 8195, 8171, 8196, 8194, 8175, 8374, 8152, 8134,2.656895637512207
32, 8166, 8179, 8221, 8213, 8183, 8166, 8192, 8182, 8188, 8198, 8159, 8376, 8150, 8150,2.6719353199005127
33, 8168, 8175, 8161, 8223, 8191, 8179, 8200, 8166, 8191, 8214, 8163, 8369, 8155, 8154,2.6719353199005127
34, 8185, 8172, 8223, 8209, 8178, 8184, 8200, 8170, 8180, 8198, 8162, 8388, 8151, 8165,2.6871304512023926
35, 8189, 8168, 8177, 8208, 8174, 8175, 8215, 8168, 8198, 8198, 8164, 8390, 8166, 8171,2.6871304512023926
36, 8186, 8167, 8167, 8202, 8179, 8158, 8207, 8170, 8202, 8194, 8172, 8392, 8178, 8167,2.7029314041137695
37, 8192, 8187, 8231, 8201, 8189, 8166, 8195, 8176, 8188, 8179, 8180, 8419, 8168, 8162,2.7029314041137695
38, 8202, 8196, 8166, 8218, 8203, 8166, 8211, 8166, 8200, 8189, 8191, 8412, 8172, 8155,2.719036102294922
39, 8214, 8205, 8221, 8211, 8199, 8167, 8213, 8187, 8199, 8189, 8195, 8419, 8181, 8163,2.719036102294922
40, 8206, 8205, 8203, 8233, 8201, 8178, 8218, 8187, 8215, 8205, 8202, 8416, 8186, 8169,2.733830213546753
41, 8192, 8188, 8182, 8241, 8201, 8172, 8222, 8177, 8226, 8217, 8187, 8395, 8176, 8165,2.733830213546753
42, 8190, 8186, 8222, 8217, 8197, 8178, 8226, 8186, 8217, 8216, 8167, 8391, 8170, 8165,2.7492527961730957
43, 8183, 8177, 8140, 8216, 8196, 8173, 8225, 8173, 8227, 8231, 8174, 8374, 8180, 8159,2.7492527961730957
44, 8184, 8176, 8200, 8205, 8188, 8163, 8197, 8178, 8222, 8216, 8176, 8390, 8176, 8154,2.7644805908203125
45, 8193, 8190, 8197, 8208, 8193, 8163, 8194, 8175, 8228, 8204, 8186, 8403, 8177, 8147,2.7644805908203125
46, 8198, 8192, 8165, 8207, 8191, 8148, 8188, 8166, 8219, 8199, 8196, 8399, 8182, 8148,2.7801811695098877
47, 8193, 8196, 8228, 8200, 8181, 8156, 8176, 8178, 8180, 8187, 8194, 8408, 8166, 8147,2.7801811695098877
48, 8181, 8187, 8161, 8224, 8196, 8175, 8200, 8168, 8178, 8198, 8184, 8377, 8151, 8130,2.795762777328491
49, 8182, 8178, 8204, 8215, 8195, 8182, 8202, 8173, 8185, 8196, 8157, 8367, 8147, 8137,2.795762777328491
50, 8183, 8179, 8202, 8201, 8180, 8177, 8201, 8173, 8207, 8203, 8153, 8387, 8166, 8156,2.810976505279541
51, 8193, 8181, 8164, 8201, 8176, 8154, 8203, 8169, 8220, 8208, 8174, 8402, 8179, 8165,2.810976505279541
52, 8204, 8203, 8241, 8203, 8180, 8156, 8187, 8182, 8202, 8192, 8193, 8428, 8182, 8172,2.827414035797119
53, 8204, 8211, 8191, 8227, 8189, 8165, 8188, 8170, 8205, 8205, 8210, 8424, 8194, 8164,2.827414035797119
54, 8213, 8212, 8226, 8229, 8187, 8167, 8177, 8175, 8196, 8204, 8200, 8424, 8182, 8163,2.841567039489746
55, 8203, 8209, 8225, 8224, 8188, 8173, 8179, 8176, 8180, 8184, 8182, 8408, 8157, 8156,2.841567039489746
56, 8175, 8184, 8157, 8224, 8187, 8171, 8197, 8164, 8168, 8177, 8166, 8370, 8143, 8138,2.8581655025482178
57, 8167, 8171, 8213, 8209, 8176, 8184, 8206, 8183, 8177, 8189, 8155, 8383, 8146, 8139,2.8581655025482178
58, 8166, 8160, 8156, 8206, 8177, 8189, 8228, 8178, 8213, 8213, 8166, 8381, 8166, 8144,2.8727314472198486
59, 8163, 8153, 8180, 8193, 8171, 8173, 8218, 8174, 8202, 8193, 8163, 8372, 8163, 8143,2.8727314472198486
60, 8160, 8155, 8194, 8193, 8160, 8171, 8193, 8170, 8185, 8182, 8151, 8370, 8149, 8135,2.8888070583343506
61, 8172, 8147, 8138, 8192, 8156, 8160, 8179, 8158, 8192, 8198, 8157, 8362, 8158, 8131,2.8888070583343506
62, 8186, 8165, 8212, 8188, 8156, 8156, 8168, 8170, 8176, 8186, 8166, 8384, 8164, 8138,2.9041337966918945
63, 8177, 8180, 8161, 8211, 8167, 8164, 8177, 8163, 8176, 8188, 8176, 8380, 8160, 8129,2.9200704097747803
64, 8180, 8189, 8181, 8218, 8175, 8169, 8174, 8169, 8180, 8185, 8175, 8378, 8156, 8122,2.9200704097747803
65, 8196, 8210, 8226, 8242, 8189, 8186, 8183, 8179, 8183, 8190, 8183, 8385, 8171, 8132,2.9200704097747803
66, 8195, 8200, 8162, 8267, 8202, 8185, 8197, 8167, 8190, 8214, 8191, 8372, 8179, 8146,2.935222625732422
67, 8197, 8193, 8223, 8247, 8190, 8183, 8184, 8180, 8178, 8214, 8190, 8397, 8177, 8167,2.9362242221832275
68, 8195, 8192, 8179, 8250, 8183, 8184, 8188, 8172, 8190, 8224, 8198, 8405, 8198, 8172,2.951148509979248
69, 8191, 8181, 8178, 8251, 8181, 8177, 8189, 8170, 8210, 8227, 8197, 8397, 8204, 8168,2.9522955417633057
70, 8197, 8184, 8222, 8235, 8179, 8179, 8186, 8181, 8228, 8228, 8207, 8413, 8202, 8169,2.967803955078125
71, 8203, 8185, 8162, 8238, 8177, 8166, 8196, 8169, 8231, 8233, 8227, 8410, 8207, 8164,2.967803955078125
72, 8205, 8196, 8225, 8232, 8174, 8163, 8184, 8178, 8203, 8203, 8213, 8416, 8187, 8157,2.9837820529937744
73, 8191, 8195, 8183, 8233, 8186, 8169, 8183, 8176, 8198, 8193, 8196, 8397, 8171, 8138,2.9837820529937744
74, 8174, 8179, 8166, 8225, 8186, 8162, 8181, 8172, 8187, 8191, 8185, 8370, 8158, 8128,2.9977993965148926
75, 8171, 8192, 8220, 8230, 8184, 8181, 8185, 8179, 8171, 8189, 8176, 8377, 8152, 8134,3.0153472423553467
76, 8177, 8196, 8157, 8261, 8200, 8194, 8201, 8166, 8186, 8212, 8180, 8376, 8167, 8140,3.0153472423553467
77, 8182, 8181, 8210, 8254, 8198, 8183, 8189, 8175, 8192, 8218, 8181, 8393, 8172, 8156,3.0163466930389404
78, 8176, 8168, 8182, 8244, 8190, 8172, 8182, 8170, 8214, 8228, 8190, 8396, 8183, 8164,3.028977155685425
79, 8188, 8176, 8170, 8243, 8190, 8163, 8166, 8166, 8218, 8226, 8203, 8398, 8195, 8164,3.0441486835479736
80, 8204, 8198, 8235, 8244, 8192, 8158, 8146, 8175, 8188, 8203, 8211, 8424, 8189, 8162,3.0441486835479736
81, 8192, 8190, 8168, 8252, 8196, 8151, 8158, 8159, 8174, 8203, 8216, 8403, 8183, 8149,3.0601983070373535
82, 8176, 8182, 8214, 8237, 8193, 8164, 8159, 8168, 8164, 8198, 8196, 8388, 8167, 8149,3.060702323913574
83, 8167, 8181, 8195, 8237, 8183, 8182, 8169, 8168, 8173, 8196, 8172, 8380, 8151, 8149,3.0757346153259277
84, 8166, 8163, 8159, 8231, 8165, 8166, 8175, 8165, 8179, 8193, 8162, 8366, 8149, 8149,3.0757346153259277
85, 8172, 8163, 8221, 8208, 8161, 8157, 8174, 8183, 8183, 8197, 8173, 8386, 8167, 8162,3.0909650325775146
86, 8177, 8169, 8158, 8212, 8176, 8149, 8180, 8171, 8201, 8213, 8198, 8394, 8183, 8162,3.0909650325775146
87, 8185, 8183, 8209, 8217, 8171, 8142, 8159, 8173, 8176, 8184, 8190, 8402, 8165, 8153,3.1065661907196045
88, 8171, 8190, 8213, 8239, 8173, 8157, 8152, 8174, 8160, 8173, 8186, 8389, 8152, 8139,3.1065661907196045
89, 8155, 8175, 8166, 8253, 8185, 8165, 8159, 8164, 8168, 8194, 8186, 8366, 8153, 8132,3.1222033500671387
90, 8164, 8174, 8228, 8239, 8177, 8174, 8163, 8174, 8167, 8198, 8173, 8384, 8149, 8148,3.1222033500671387
91, 8167, 8162, 8165, 8232, 8172, 8170, 8178, 8161, 8181, 8213, 8178, 8376, 8162, 8150,3.1377151012420654
92, 8166, 8157, 8196, 8221, 8168, 8157, 8156, 8161, 8179, 8206, 8185, 8384, 8172, 8137,3.1377151012420654
93, 8167, 8172, 8211, 8225, 8168, 8158, 8134, 8167, 8181, 8200, 8200, 8403, 8179, 8129,3.1533939838409424
94, 8167, 8168, 8160, 8218, 8171, 8146, 8129, 8165, 8181, 8197, 8214, 8386, 8179, 8132,3.1533939838409424
95, 8168, 8181, 8222, 8226, 8179, 8155, 8135, 8178, 8157, 8176, 8200, 8383, 8160, 8140,3.169067621231079
96, 8154, 8185, 8163, 8273, 8191, 8177, 8170, 8168, 8169, 8188, 8173, 8360, 8150, 8132,3.169067621231079
97, 8147, 8165, 8182, 8260, 8177, 8182, 8178, 8172, 8191, 8206, 8159, 8350, 8154, 8137,3.184957265853882
98, 8152, 8161, 8203, 8233, 8171, 8183, 8179, 8179, 8211, 8231, 8183, 8361, 8175, 8154,3.184957265853882
99, 8158, 8166, 8147, 8243, 8184, 8172, 8192, 8168, 8226, 8248, 8200, 8354, 8186, 8161,3.2007720470428467
100, 8177, 8177, 8219, 8231, 8183, 8174, 8186, 8182, 8218, 8229, 8192, 8381, 8185, 8170,3.2007720470428467
101, 8197, 8186, 8178, 8234, 8183, 8169, 8182, 8174, 8218, 8231, 8212, 8400, 8202, 8172,3.2165777683258057
102, 8206, 8195, 8197, 8241, 8178, 8150, 8167, 8172, 8200, 8216, 8221, 8408, 8197, 8168,3.2165777683258057
103, 8192, 8200, 8231, 8237, 8177, 8159, 8153, 8177, 8190, 8192, 8206, 8397, 8176, 8153,3.2326834201812744
104, 8184, 8194, 8166, 8251, 8187, 8168, 8159, 8166, 8197, 8193, 8203, 8374, 8178, 8145,3.2326834201812744
105, 8202, 8207, 8241, 8258, 8191, 8177, 8173, 8183, 8191, 8189, 8210, 8401, 8180, 8163,3.2478578090667725
106, 8194, 8210, 8196, 8262, 8194, 8189, 8197, 8173, 8195, 8194, 8205, 8381, 8175, 8158,3.2478578090667725
107, 8174, 8192, 8170, 8248, 8192, 8196, 8191, 8164, 8175, 8175, 8175, 8342, 8158, 8139,3.2637510299682617
108, 8164, 8179, 8197, 8237, 8187, 8205, 8189, 8177, 8164, 8155, 8156, 8351, 8148, 8137,3.2637510299682617
109, 8158, 8156, 8133, 8233, 8186, 8193, 8209, 8172, 8192, 8182, 8158, 8344, 8157, 8141,3.279102087020874
110, 8159, 8162, 8200, 8208, 8180, 8190, 8208, 8181, 8194, 8202, 8151, 8347, 8160, 8155,3.279102087020874
111, 8160, 8175, 8171, 8215, 8182, 8189, 8222, 8179, 8212, 8215, 8164, 8356, 8173, 8159,3.295203685760498
112, 8170, 8167, 8161, 8216, 8174, 8170, 8218, 8179, 8227, 8213, 8186, 8372, 8184, 8158,3.295203685760498
113, 8180, 8177, 8217, 8213, 8170, 8170, 8190, 8182, 8213, 8207, 8192, 8398, 8185, 8164,3.310849666595459
114, 8178, 8172, 8151, 8225, 8176, 8160, 8179, 8158, 8207, 8207, 8192, 8384, 8188, 8155,3.310849666595459
115, 8184, 8169, 8209, 8208, 8167, 8151, 8165, 8168, 8193, 8178, 8194, 8393, 8176, 8147,3.3260302543640137
116, 8189, 8187, 8199, 8224, 8174, 8159, 8167, 8170, 8191, 8176, 8207, 8401, 8173, 8144,3.3260302543640137
117, 8182, 8187, 8179, 8244, 8183, 8148, 8158, 8155, 8178, 8174, 8197, 8383, 8163, 8136,3.342029094696045
118, 8178, 8196, 8230, 8242, 8178, 8149, 8155, 8163, 8162, 8158, 8179, 8384, 8142, 8129,3.342029094696045
119, 8179, 8202, 8166, 8261, 8194, 8172, 8191, 8165, 8186, 8175, 8180, 8365, 8144, 8128,3.356680154800415
120, 8176, 8196, 8214, 8255, 8200, 8181, 8201, 8177, 8187, 8177, 8169, 8362, 8141, 8133,3.356680154800415
121, 8153, 8174, 8185, 8234, 8186, 8179, 8198, 8166, 8183, 8180, 8160, 8352, 8140, 8123,3.3727610111236572
122, 8136, 8154, 8137, 8218, 8172, 8176, 8193, 8161, 8184, 8183, 8154, 8334, 8141, 8116,3.3727610111236572
123, 8155, 8168, 8210, 8217, 8172, 8188, 8192, 8184, 8190, 8188, 8154, 8355, 8146, 8137,3.3893332481384277
124, 8179, 8174, 8160, 8236, 8184, 8182, 8212, 8174, 8222, 8219, 8178, 8365, 8179, 8162,3.3893332481384277
125, 8193, 8178, 8210, 8233, 8187, 8165, 8203, 8178, 8227, 8224, 8189, 8387, 8196, 8182,3.4048948287963867
126, 8194, 8187, 8214, 8239, 8184, 8166, 8195, 8178, 8226, 8222, 8191, 8395, 8197, 8181,3.4048948287963867
127, 8201, 8181, 8171, 8246, 8180, 8167, 8197, 8170, 8236, 8224, 8198, 8384, 8205, 8178,3.42010235786438
236, 8209, 8186, 8239, 8237, 8184, 8175, 8193, 8181, 8233, 8218, 8203, 8404, 8212, 8191,3.42010235786438
0, 8208, 8188, 8171, 8253, 8195, 8163, 8193, 8165, 8232, 8215, 8211, 8395, 8207, 8183,3.4360878467559814
1, 8218, 8189, 8191, 8247, 8181, 8144, 8175, 8166, 8198, 8177, 8199, 8390, 8183, 8169,3.4360878467559814
2, 8209, 8185, 8201, 8236, 8176, 8156, 8177, 8172, 8182, 8155, 8183, 8386, 8173, 8156,3.451936721801758
3, 8195, 8175, 8150, 8239, 8189, 8160, 8189, 8161, 8190, 8169, 8187, 8366, 8169, 8141,3.451936721801758
4, 8192, 8190, 8219, 8229, 8182, 8161, 8178, 8167, 8170, 8165, 8190, 8372, 8153, 8132,3.467782497406006
5, 8176, 8186, 8159, 8228, 8179, 8163, 8178, 8158, 8162, 8160, 8185, 8352, 8145, 8121,3.467782497406006
6, 8174, 8176, 8178, 8224, 8187, 8168, 8181, 8171, 8162, 8157, 8171, 8345, 8140, 8124,3.482957363128662
7, 8192, 8193, 8210, 8245, 8194, 8188, 8200, 8185, 8184, 8178, 8181, 8367, 8156, 8137,3.482957363128662
8, 8197, 8196, 8159, 8267, 8198, 8182, 8218, 8173, 8206, 8199, 8197, 8365, 8173, 8146,3.499004364013672
9, 8196, 8193, 8229, 8246, 8196, 8183, 8208, 8183, 8194, 8182, 8187, 8371, 8165, 8159,3.499004364013672
10, 8191, 8182, 8176, 8242, 8196, 8196, 8211, 8175, 8199, 8195, 8186, 8361, 8169, 8161,3.514758825302124
11, 8185, 8173, 8176, 8236, 8182, 8193, 8202, 8173, 8197, 8204, 8186, 8362, 8174, 8161,3.514758825302124
12, 8177, 8177, 8201, 8228, 8173, 8191, 8202, 8180, 8195, 8199, 8181, 8364, 8168, 8162,3.5300965309143066
13, 8175, 8161, 8135, 8227, 8177, 8184, 8224, 8167, 8207, 8216, 8171, 8337, 8170, 8160,3.5300965309143066
14, 8186, 8160, 8208, 8217, 8169, 8189, 8217, 8176, 8196, 8215, 8160, 8350, 8166, 8165,3.545743465423584
15, 8186, 8160, 8167, 8221, 8167, 8188, 8210, 8167, 8191, 8197, 8170, 8347, 8157, 8153,3.545743465423584
16, 8182, 8159, 8153, 8210, 8171, 8174, 8200, 8167, 8180, 8173, 8171, 8334, 8153, 8143,3.560925006866455
17, 8185, 8177, 8203, 8215, 8182, 8194, 8208, 8184, 8191, 8191, 8173, 8348, 8166, 8151,3.560925006866455
18, 8192, 8175, 8153, 8238, 8192, 8201, 8225, 8177, 8227, 8231, 8198, 8351, 8181, 8155,3.5770299434661865
19, 8205, 8173, 8218, 8221, 8182, 8186, 8212, 8186, 8225, 8213, 8208, 8373, 8182, 8161,3.5770299434661865
20, 8204, 8180, 8183, 8226, 8185, 8179, 8222, 8173, 8223, 8205, 8206, 8374, 8194, 8160,3.5928187370300293
21, 8197, 8174, 8171, 8227, 8183, 8171, 8223, 8163, 8220, 8208, 8201, 8365, 8192, 8158,3.5928187370300293
22, 8193, 8164, 8220, 8195, 8163, 8178, 8194, 8176, 8208, 8199, 8199, 8372, 8178, 8160,3.608853340148926
23, 8183, 8151, 8139, 8178, 8153, 8169, 8180, 8164, 8207, 8196, 8201, 8358, 8180, 8148,3.608853340148926
24, 8185, 8167, 8199, 8181, 8158, 8156, 8172, 8166, 8187, 8173, 8196, 8372, 8178, 8148,3.6248295307159424
25, 8193, 8185, 8195, 8209, 8181, 8159, 8183, 8168, 8195, 8178, 8210, 8379, 8186, 8157,3.6248295307159424
26, 8207, 8177, 8173, 8213, 8190, 8160, 8184, 8175, 8217, 8197, 8226, 8375, 8196, 8168,3.63993501663208
27, 8220, 8186, 8233, 8207, 8183, 8173, 8181, 8182, 8208, 8191, 8225, 8395, 8191, 8174,3.63993501663208
28, 8213, 8194, 8161, 8230, 8191, 8170, 8188, 8161, 8195, 8182, 8215, 8380, 8177, 8157,3.6559736728668213
29, 8205, 8201, 8206, 8226, 8197, 8165, 8172, 8172, 8176, 8162, 8197, 8368, 8157, 8148,3.6559736728668213
30, 8196, 8201, 8203, 8235, 8201, 8177, 8183, 8175, 8183, 8167, 8202, 8364, 8158, 8147,3.6719276905059814
31, 8193, 8187, 8174, 8249, 8193, 8180, 8208, 8167, 8186, 8168, 8206, 8355, 8163, 8145,3.6719276905059814
32, 8191, 8188, 8233, 8232, 8182, 8183, 8205, 8182, 8165, 8149, 8189, 8358, 8147, 8137,3.687258720397949
33, 8180, 8177, 8161, 8234, 8189, 8177, 8206, 8174, 8173, 8163, 8193, 8339, 8150, 8132,3.687258720397949
34, 8189, 8172, 8207, 8240, 8192, 8180, 8205, 8183, 8180, 8179, 8207, 8357, 8171, 8153,3.7028884887695312
35, 8200, 8180, 8216, 8254, 8200, 8201, 8218, 8181, 8198, 8195, 8212, 8374, 8189, 8167,3.7028884887695312
36, 8198, 8180, 8169, 8262, 8210, 8197, 8227, 8164, 8212, 8207, 8207, 8357, 8188, 8167,3.718038320541382
37, 8203, 8188, 8236, 8252, 8204, 8194, 8224, 8175, 8216, 8213, 8202, 8372, 8186, 8178,3.718038320541382
38, 8207, 8181, 8177, 8248, 8194, 8185, 8232, 8173, 8246, 8234, 8207, 8371, 8203, 8186,3.7341413497924805
39, 8217, 8172, 8204, 8222, 8182, 8164, 8209, 8178, 8244, 8216, 8202, 8378, 8204, 8195,3.7341413497924805
40, 8229, 8185, 8226, 8220, 8183, 8162, 8189, 8177, 8233, 8196, 8217, 8400, 8205, 8195,3.750206470489502
41, 8234, 8196, 8192, 8243, 8191, 8151, 8178, 8167, 8232, 8195, 8230, 8397, 8211, 8184,3.750206470489502
42, 8234, 8207, 8264, 8239, 8187, 8148, 8156, 8178, 8211, 8181, 8213, 8402, 8195, 8178,3.766336679458618
43, 8223, 8204, 8203, 8249, 8188, 8155, 8161, 8162, 8205, 8185, 8213, 8385, 8186, 8166,3.766336679458618
44, 8217, 8201, 8210, 8244, 8185, 8151, 8163, 8163, 8190, 8168, 8211, 8378, 8178, 8156,3.7822554111480713
45, 8202, 8203, 8229, 8231, 8183, 8154, 8176, 8179, 8180, 8158, 8196, 8369, 8172, 8149,3.7822554111480713
46, 8190, 8190, 8175, 8235, 8186, 8155, 8185, 8172, 8188, 8176, 8185, 8341, 8178, 8136,3.797821283340454
47, 8199, 8197, 8239, 8234, 8187, 8159, 8180, 8180, 8192, 8172, 8179, 8355, 8176, 8143,3.797821283340454
48, 8192, 8198, 8186, 8239, 8196, 8160, 8195, 8173, 8208, 8179, 8186, 8347, 8173, 8147,3.812997341156006
49, 8190, 8194, 8200, 8236, 8194, 8158, 8185, 8172, 8192, 8175, 8183, 8339, 8170, 8141,3.812997341156006
50, 8205, 8209, 8241, 8253, 8199, 8166, 8180, 8177, 8171, 8171, 8186, 8358, 8178, 8149,3.829040050506592
51, 8205, 8199, 8174, 8267, 8209, 8159, 8195, 8165, 8172, 8175, 8186, 8342, 8180, 8158,3.829040050506592
52, 8203, 8196, 8243, 8250, 8205, 8172, 8188, 8178, 8172, 8160, 8179, 8338, 8171, 8157,3.84475040435791
53, 8215, 8208, 8222, 8272, 8212, 8194, 8195, 8173, 8202, 8180, 8199, 8350, 8195, 8159,3.84475040435791
54, 8227, 8214, 8218, 8280, 8213, 8179, 8198, 8172, 8218, 8205, 8207, 8367, 8213, 8175,3.859855890274048
55, 8228, 8223, 8254, 8269, 8214, 8177, 8193, 8182, 8216, 8215, 8204, 8376, 8211, 8183,3.859855890274048
56, 8223, 8215, 8185, 8273, 8222, 8184, 8201, 8166, 8216, 8220, 8209, 8350, 8210, 8166,3.8758134841918945
57, 8210, 8201, 8237, 8251, 8211, 8184, 8191, 8168, 8190, 8195, 8193, 8345, 8194, 8156,3.8758134841918945
58, 8197, 8195, 8209, 8248, 8204, 8185, 8193, 8170, 8199, 8201, 8193, 8343, 8192, 8155,3.8909494876861572
59, 8205, 8192, 8196, 8246, 8206, 8186, 8201, 8177, 8213, 8223, 8211, 8350, 8208, 8165,3.8909494876861572
60, 8203, 8189, 8235, 8230, 8205, 8199, 8202, 8184, 8202, 8229, 8208, 8364, 8215, 8171,3.907180070877075
61, 8181, 8170, 8156, 8228, 8200, 8193, 8205, 8168, 8207, 8233, 8199, 8329, 8206, 8154,3.907180070877075
62, 8176, 8169, 8216, 8214, 8191, 8191, 8192, 8183, 8206, 8210, 8185, 8320, 8186, 8143,3.921762228012085
63, 8173, 8176, 8194, 8220, 8194, 8199, 8195, 8175, 8209, 8197, 8170, 8315, 8177, 8137,3.921762228012085
64, 8159, 8161, 8145, 8205, 8189, 8186, 8195, 8159, 8196, 8190, 8149, 8286, 8161, 8128,3.9371562004089355
65, 8145, 8154, 8200, 8174, 8174, 8187, 8189, 8174, 8181, 8184, 8140, 8292, 8154, 8130,3.952556610107422
66, 8151, 8153, 8147, 8201, 8188, 8190, 8200, 8166, 8201, 8193, 8151, 8296, 8173, 8138,3.952556610107422
67, 8182, 8171, 8205, 8229, 8201, 8193, 8194, 8173, 8203, 8187, 8158, 8323, 8182, 8159,3.96812105178833
68, 8189, 8180, 8209, 8242, 8200, 8199, 8195, 8179, 8205, 8205, 8179, 8337, 8196, 8167,3.96812105178833
69, 8177, 8168, 8174, 8251, 8201, 8188, 8192, 8169, 8207, 8227, 8194, 8322, 8200, 8160,3.98417329788208
70, 8187, 8184, 8235, 8257, 8215, 8195, 8192, 8173, 8194, 8226, 8185, 8331, 8189, 8163,3.98417329788208
71, 8192, 8184, 8171, 8261, 8221, 8203, 8221, 8165, 8203, 8237, 8186, 8319, 8201, 8164,3.98417329788208
72, 8182, 8166, 8200, 8236, 8197, 8191, 8221, 8175, 8197, 8212, 8180, 8322, 8202, 8165,4.0001935958862305
73, 8166, 8163, 8183, 8230, 8191, 8184, 8215, 8176, 8192, 8190, 8171, 8319, 8187, 8156,4.0001935958862305
74, 8157, 8156, 8125, 8230, 8203, 8178, 8220, 8167, 8210, 8207, 8168, 8290, 8184, 8144,4.021141290664673
75, 8159, 8161, 8200, 8217, 8201, 8185, 8219, 8181, 8220, 8213, 8168, 8293, 8187, 8145,4.021141290664673
76, 8152, 8156, 8144, 8216, 8192, 8179, 8220, 8172, 8222, 8211, 8163, 8286, 8192, 8138,4.031727075576782
77, 8151, 8148, 8163, 8192, 8173, 8157, 8196, 8175, 8198, 8197, 8151, 8292, 8188, 8143,4.031727075576782
78, 8155, 8162, 8178, 8188, 8170, 8158, 8194, 8176, 8193, 8193, 8169, 8305, 8197, 8158,4.047222137451172
79, 8169, 8176, 8136, 8209, 8181, 8164, 8213, 8168, 8199, 8200, 8187, 8301, 8212, 8165,4.063671112060547
80, 8190, 8188, 8217, 8204, 8176, 8176, 8204, 8180, 8183, 8191, 8177, 8320, 8203, 8175,4.063671112060547
81, 8184, 8185, 8161, 8215, 8176, 8176, 8195, 8168, 8203, 8207, 8176, 8308, 8197, 8172,4.063671112060547
82, 8186, 8187, 8177, 8225, 8182, 8166, 8185, 8171, 8217, 8210, 8185, 8311, 8199, 8172,4.0792529582977295
83, 8202, 8202, 8220, 8232, 8188, 8177, 8186, 8179, 8221, 8214, 8202, 8336, 8208, 8185,4.0792529582977295
84, 8197, 8199, 8161, 8240, 8194, 8172, 8186, 8166, 8223, 8228, 8202, 8320, 8204, 8179,4.0947651863098145
85, 8188, 8205, 8217, 8231, 8187, 8171, 8170, 8175, 8202, 8212, 8190, 8319, 8187, 8167,4.0947651863098145
86, 8184, 8199, 8169, 8227, 8179, 8178, 8185, 8163, 8208, 8207, 8202, 8316, 8194, 8158,4.112917423248291
87, 8180, 8179, 8167, 8197, 8169, 8163, 8191, 8160, 8194, 8179, 8183, 8308, 8184, 8148,4.112917423248291
88, 8170, 8180, 8196, 8186, 8165, 8160, 8193, 8171, 8174, 8162, 8159, 8310, 8166, 8136,4.1262524127960205
89, 8162, 8177, 8135, 8202, 8165, 8163, 8205, 8167, 8200, 8184, 8175, 8301, 8175, 8132,4.141149997711182
90, 8162, 8176, 8205, 8183, 8159, 8160, 8184, 8182, 8204, 8165, 8175, 8312, 8166, 8135,4.141149997711182
91, 8161, 8172, 8168, 8179, 8163, 8158, 8179, 8178, 8199, 8155, 8167, 8307, 8160, 8124,4.157701253890991
92, 8180, 8171, 8171, 8186, 8164, 8157, 8181, 8172, 8200, 8162, 8174, 8309, 8168, 8125,4.157701253890991
93, 8196, 8189, 8233, 8197, 8163, 8169, 8181, 8179, 8200, 8161, 8182, 8329, 8173, 8146,4.174100399017334
94, 8194, 8195, 8173, 8217, 8171, 8164, 8190, 8167, 8204, 8162, 8191, 8327, 8174, 8154,4.174100399017334
95, 8213, 8208, 8237, 8221, 8176, 8164, 8180, 8175, 8204, 8164, 8202, 8352, 8183, 8166,4.174100399017334
96, 8225, 8208, 8215, 8242, 8188, 8176, 8174, 8173, 8224, 8186, 8205, 8354, 8200, 8170,4.189028978347778
97, 8222, 8198, 8192, 8245, 8189, 8165, 8156, 8165, 8213, 8187, 8195, 8345, 8187, 8166,4.189028978347778
98, 8224, 8214, 8244, 8231, 8187, 8160, 8141, 8174, 8187, 8173, 8203, 8360, 8173, 8167,4.204440116882324
99, 8209, 8205, 8171, 8237, 8195, 8159, 8151, 8161, 8181, 8174, 8201, 8325, 8172, 8149,4.204440116882324
100, 8182, 8185, 8206, 8216, 8184, 8167, 8154, 8165, 8152, 8156, 8162, 8299, 8146, 8132,4.218776226043701
101, 8158, 8178, 8170, 8197, 8177, 8181, 8173, 8165, 8147, 8147, 8137, 8286, 8123, 8119,4.234175443649292
102, 8154, 8165, 8132, 8185, 8182, 8179, 8197, 8171, 8160, 8141, 8119, 8262, 8121, 8116,4.234175443649292
103, 8153, 8166, 8192, 8173, 8178, 8194, 8216, 8188, 8167, 8141, 8101, 8262, 8124, 8123,4.249693155288696
104, 8134, 8151, 8115, 8169, 8169, 8190, 8222, 8170, 8182, 8157, 8098, 8238, 8121, 8120,4.249693155288696
105, 8120, 8132, 8145, 8142, 8155, 8173, 8201, 8178, 8176, 8147, 8083, 8227, 8116, 8119,4.265745401382446
106, 8127, 8142, 8150, 8147, 8161, 8180, 8216, 8181, 8190, 8162, 8087, 8236, 8133, 8125,4.265745401382446
107, 8156, 8156, 8134, 8168, 8169, 8177, 8230, 8170, 8207, 8178, 8110, 8252, 8152, 8144,4.280896425247192
108, 8172, 8166, 8208, 8156, 8164, 8175, 8219, 8184, 8197, 8154, 8119, 8279, 8157, 8164,4.280896425247192
109, 8167, 8158, 8143, 8152, 8164, 8168, 8224, 8174, 8199, 8162, 8122, 8261, 8163, 8158,4.297002792358398
110, 8178, 8164, 8181, 8147, 8167, 8158, 8199, 8178, 8188, 8168, 8119, 8271, 8154, 8155,4.297002792358398
111, 8199, 8184, 8199, 8176, 8180, 8156, 8181, 8180, 8193, 8167, 8135, 8296, 8162, 8165,4.312146902084351
112, 8217, 8185, 8166, 8205, 8191, 8145, 8180, 8168, 8212, 8172, 8167, 8294, 8183, 8171,4.312146902084351
113, 8225, 8198, 8241, 8194, 8190, 8152, 8157, 8174, 8195, 8170, 8181, 8321, 8185, 8175,4.327729940414429
114, 8211, 8200, 8181, 8204, 8197, 8155, 8158, 8168, 8182, 8179, 8176, 8315, 8185, 8158,4.327729940414429
115, 8196, 8186, 8196, 8188, 8191, 8139, 8170, 8176, 8177, 8164, 8156, 8286, 8178, 8137,4.342913627624512
116, 8185, 8179, 8203, 8158, 8181, 8140, 8190, 8175, 8186, 8158, 8153, 8273, 8174, 8129,4.342913627624512
117, 8178, 8177, 8149, 8166, 8185, 8144, 8209, 8168, 8201, 8167, 8161, 8271, 8181, 8133,4.358047246932983
118, 8173, 8186, 8223, 8174, 8184, 8158, 8207, 8190, 8196, 8158, 8158, 8281, 8175, 8140,4.358047246932983
119, 8162, 8179, 8165, 8174, 8183, 8163, 8203, 8179, 8195, 8165, 8160, 8255, 8174, 8130,4.373993635177612
120, 8171, 8179, 8185, 8167, 8179, 8148, 8189, 8172, 8172, 8160, 8157, 8256, 8174, 8133,4.373993635177612
121, 8184, 8198, 8225, 8182, 8186, 8145, 8191, 8177, 8158, 8154, 8151, 8278, 8163, 8149,4.3890159130096436
122, 8182, 8193, 8159, 8190, 8188, 8135, 8191, 8168, 8159, 8158, 8149, 8256, 8157, 8152,4.3890159130096436
123, 8195, 8201, 8233, 8176, 8181, 8147, 8178, 8178, 8139, 8143, 8153, 8270, 8164, 8165,4.4042274951934814
124, 8211, 8210, 8206, 8202, 8194, 8174, 8199, 8173, 8157, 8153, 8171, 8285, 8183, 8168,4.4042274951934814
125, 8212, 8201, 8201, 8208, 8196, 8173, 8198, 8173, 8170, 8167, 8170, 8276, 8174, 8160,4.419843673706055
126, 8196, 8201, 8227, 8197, 8189, 8176, 8180, 8176, 8157, 8166, 8150, 8263, 8155, 8153,4.419843673706055
127, 8183, 8196, 8166, 8210, 8199, 8181, 8179, 8162, 8162, 8178, 8144, 8251, 8163, 8151,4.435756206512451
236, 8189, 8197, 8236, 8206, 8198, 8185, 8172, 8176, 8169, 8195, 8156, 8281, 8185, 8169,4.435756206512451
0, 8184, 8196, 8200, 8211, 8196, 8182, 8184, 8175, 8184, 8225, 8178, 8277, 8204, 8167,4.450740098953247
1, 8174, 8183, 8185, 8204, 8199, 8178, 8202, 8172, 8176, 8209, 8160, 8251, 8187, 8146,4.450740098953247
2, 8169, 8176, 8229, 8186, 8193, 8192, 8219, 8181, 8178, 8188, 8138, 8260, 8174, 8147,4.466305732727051
3, 8160, 8163, 8157, 8189, 8182, 8187, 8232, 8175, 8217, 8217, 8156, 8255, 8192, 8157,4.466305732727051
4, 8158, 8164, 8204, 8176, 8167, 8170, 8214, 8190, 8225, 8220, 8158, 8257, 8193, 8159,4.482030391693115
5, 8164, 8165, 8179, 8176, 8166, 8168, 8212, 8184, 8231, 8220, 8162, 8259, 8197, 8160,4.482030391693115
6, 8180, 8163, 8169, 8181, 8162, 8168, 8214, 8172, 8227, 8224, 8175, 8265, 8201, 8178,4.497499227523804
7, 8197, 8174, 8227, 8182, 8160, 8181, 8212, 8179, 8201, 8207, 8171, 8277, 8195, 8194,4.497499227523804
8, 8208, 8169, 8158, 8191, 8171, 8179, 8217, 8165, 8186, 8188, 8166, 8258, 8195, 8189,4.513219594955444
9, 8225, 8176, 8217, 8181, 8170, 8168, 8192, 8177, 8168, 8166, 8172, 8278, 8186, 8191,4.513219594955444
10, 8233, 8201, 8215, 8202, 8178, 8164, 8175, 8178, 8172, 8169, 8195, 8294, 8183, 8190,4.528860569000244
11, 8237, 8205, 8192, 8226, 8187, 8161, 8169, 8169, 8177, 8171, 8198, 8283, 8179, 8182,4.528860569000244
12, 8241, 8217, 8257, 8226, 8190, 8183, 8160, 8182, 8169, 8168, 8198, 8298, 8171, 8183,4.543912649154663
13, 8235, 8226, 8192, 8249, 8205, 8185, 8174, 8168, 8183, 8188, 8218, 8294, 8182, 8184,4.543912649154663
14, 8225, 8219, 8229, 8256, 8206, 8179, 8183, 8168, 8176, 8183, 8212, 8288, 8187, 8190,4.55973744392395
15, 8196, 8194, 8206, 8246, 8197, 8193, 8197, 8166, 8171, 8190, 8191, 8265, 8179, 8183,4.55973744392395
16, 8170, 8172, 8146, 8217, 8186, 8185, 8206, 8161, 8177, 8202, 8175, 8234, 8164, 8163,4.574416399002075
17, 8171, 8175, 8209, 8193, 8179, 8189, 8212, 8182, 8188, 8189, 8164, 8242, 8157, 8160,4.5912744998931885
18, 8162, 8155, 8146, 8195, 8182, 8197, 8234, 8182, 8219, 8203, 8168, 8226, 8170, 8158,4.5912744998931885
19, 8162, 8147, 8183, 8176, 8171, 8180, 8219, 8185, 8223, 8210, 8175, 8232, 8177, 8165,4.5912744998931885
20, 8177, 8167, 8204, 8181, 8162, 8169, 8208, 8179, 8224, 8208, 8187, 8255, 8186, 8174,4.6049416065216064
21, 8190, 8166, 8160, 8192, 8162, 8163, 8206, 8169, 8224, 8204, 8191, 8248, 8191, 8180,4.6210761070251465
22, 8203, 8172, 8230, 8170, 8162, 8167, 8190, 8182, 8208, 8186, 8192, 8267, 8190, 8196,4.6210761070251465
23, 8211, 8183, 8181, 8179, 8175, 8165, 8199, 8171, 8216, 8194, 8213, 8272, 8201, 8201,4.640194416046143
24, 8218, 8188, 8204, 8184, 8185, 8161, 8202, 8175, 8205, 8187, 8215, 8265, 8196, 8197,4.640589237213135
25, 8220, 8193, 8221, 8187, 8192, 8175, 8206, 8181, 8195, 8189, 8212, 8262, 8187, 8192,4.640589237213135
26, 8227, 8197, 8173, 8206, 8194, 8166, 8206, 8166, 8202, 8205, 8224, 8262, 8198, 8190,4.654768228530884
27, 8240, 8215, 8252, 8211, 8190, 8159, 8170, 8172, 8178, 8184, 8221, 8282, 8192, 8192,4.654768228530884
28, 8221, 8202, 8192, 8215, 8192, 8163, 8142, 8158, 8157, 8167, 8210, 8258, 8171, 8168,4.670782804489136
29, 8196, 8179, 8186, 8202, 8192, 8163, 8138, 8159, 8145, 8171, 8201, 8241, 8159, 8153,4.670782804489136
30, 8187, 8189, 8218, 8210, 8205, 8179, 8170, 8176, 8156, 8192, 8206, 8253, 8169, 8155,4.686261415481567
31, 8180, 8179, 8160, 8229, 8217, 8189, 8202, 8170, 8179, 8200, 8199, 8227, 8170, 8152,4.686261415481567
32, 8169, 8162, 8216, 8206, 8200, 8199, 8200, 8181, 8174, 8182, 8174, 8220, 8148, 8157,4.7019736766815186
33, 8168, 8162, 8169, 8200, 8195, 8198, 8218, 8181, 8198, 8205, 8185, 8225, 8158, 8160,4.7019736766815186
34, 8181, 8158, 8176, 8193, 8191, 8186, 8220, 8182, 8205, 8207, 8187, 8234, 8169, 8159,4.717100620269775
35, 8172, 8148, 8211, 8175, 8176, 8193, 8202, 8179, 8179, 8176, 8160, 8230, 8158, 8160,4.717100620269775
36, 8157, 8132, 8128, 8156, 8171, 8186, 8191, 8158, 8175, 8173, 8144, 8203, 8158, 8159,4.732183218002319
37, 8169, 8138, 8193, 8128, 8169, 8171, 8166, 8172, 8164, 8161, 8146, 8229, 8159, 8159,4.732183218002319
38, 8188, 8155, 8180, 8147, 8178, 8170, 8165, 8175, 8178, 8172, 8180, 8249, 8176, 8171,4.749131679534912
39, 8219, 8166, 8190, 8166, 8183, 8174, 8174, 8179, 8206, 8201, 8209, 8268, 8203, 8209,4.749131679534912
40, 8244, 8179, 8253, 8169, 8178, 8175, 8167, 8187, 8216, 8208, 8218, 8302, 8217, 8223,4.764214515686035
41, 8237, 8181, 8188, 8200, 8178, 8158, 8155, 8168, 8213, 8206, 8226, 8280, 8210, 8192,4.764214515686035
42, 8225, 8197, 8236, 8215, 8179, 8158, 8132, 8173, 8192, 8197, 8231, 8271, 8192, 8180,4.777956008911133
43, 8209, 8197, 8201, 8215, 8191, 8171, 8130, 8162, 8192, 8207, 8235, 8269, 8195, 8180,4.7940287590026855
44, 8190, 8181, 8181, 8204, 8194, 8166, 8130, 8153, 8182, 8199, 8226, 8259, 8193, 8167,4.7940287590026855
45, 8193, 8194, 8243, 8210, 8195, 8183, 8153, 8173, 8165, 8183, 8216, 8262, 8174, 8169,4.809234142303467
46, 8195, 8187, 8170, 8228, 8206, 8203, 8197, 8168, 8180, 8195, 8207, 8239, 8169, 8163,4.809234142303467
47, 8182, 8171, 8204, 8203, 8194, 8207, 8202, 8173, 8179, 8188, 8182, 8234, 8158, 8151,4.825205326080322
48, 8161, 8156, 8177, 8182, 8178, 8203, 8209, 8172, 8178, 8185, 8172, 8218, 8148, 8145,4.825205326080322
49, 8155, 8134, 8139, 8162, 8163, 8186, 8214, 8169, 8173, 8180, 8159, 8192, 8139, 8145,4.840752601623535
50, 8161, 8142, 8201, 8139, 8152, 8190, 8202, 8184, 8167, 8168, 8139, 8201, 8134, 8151,4.840752601623535
51, 8159, 8142, 8140, 8145, 8152, 8186, 8196, 8170, 8183, 8182, 8141, 8189, 8142, 8149,4.856802701950073
52, 8168, 8138, 8192, 8137, 8153, 8171, 8183, 8173, 8176, 8175, 8140, 8193, 8142, 8157,4.856802701950073
53, 8180, 8145, 8200, 8141, 8160, 8174, 8189, 8176, 8177, 8176, 8152, 8212, 8154, 8163,4.872357130050659
54, 8191, 8145, 8161, 8147, 8160, 8162, 8183, 8173, 8179, 8178, 8169, 8218, 8165, 8164,4.872357130050659
55, 8209, 8158, 8237, 8139, 8152, 8161, 8163, 8185, 8171, 8171, 8170, 8247, 8169, 8175,4.887932777404785
56, 8216, 8164, 8186, 8162, 8165, 8166, 8181, 8170, 8189, 8198, 8187, 8258, 8187, 8184,4.887932777404785
57, 8224, 8171, 8221, 8174, 8179, 8161, 8181, 8174, 8186, 8203, 8209, 8274, 8187, 8194,4.9040305614471436
58, 8221, 8183, 8229, 8180, 8181, 8163, 8166, 8178, 8176, 8202, 8218, 8277, 8186, 8184,4.9040305614471436
59, 8199, 8171, 8165, 8173, 8171, 8148, 8155, 8158, 8162, 8190, 8201, 8245, 8174, 8152,4.92012619972229
60, 8176, 8165, 8217, 8145, 8156, 8142, 8141, 8162, 8138, 8157, 8175, 8233, 8142, 8132,4.92012619972229
61, 8158, 8164, 8158, 8154, 8164, 8158, 8158, 8161, 8152, 8175, 8180, 8212, 8141, 8124,4.935570478439331
62, 8163, 8164, 8187, 8166, 8179, 8174, 8165, 8172, 8161, 8182, 8181, 8216, 8151, 8128,4.935570478439331
63, 8160, 8160, 8208, 8168, 8181, 8184, 8166, 8173, 8159, 8165, 8179, 8225, 8148, 8124,4.950780630111694
64, 8144, 8141, 8145, 8164, 8167, 8173, 8174, 8157, 8152, 8159, 8177, 8196, 8142, 8108,4.950780630111694
65, 8143, 8144, 8208, 8146, 8154, 8176, 8173, 8169, 8128, 8143, 8156, 8195, 8130, 8111,4.96634316444397
66, 8147, 8144, 8156, 8154, 8164, 8184, 8187, 8165, 8148, 8157, 8144, 8190, 8127, 8123,4.96634316444397
67, 8162, 8136, 8175, 8146, 8156, 8167, 8175, 8171, 8163, 8162, 8145, 8197, 8134, 8137,4.981444358825684
68, 8177, 8146, 8218, 8134, 8139, 8154, 8153, 8173, 8146, 8149, 8159, 8223, 8150, 8145,4.981444358825684
69, 8182, 8152, 8158, 8149, 8149, 8156, 8156, 8153, 8146, 8153, 8175, 8225, 8165, 8146,4.997066497802734
70, 8180, 8159, 8223, 8152, 8157, 8173, 8149, 8162, 8144, 8154, 8172, 8235, 8166, 8150,4.997066497802734
71, 8167, 8157, 8184, 8164, 8157, 8166, 8146, 8156, 8147, 8153, 8172, 8226, 8172, 8139,5.012933731079102
72, 8169, 8157, 8183, 8156, 8150, 8143, 8133, 8159, 8133, 8136, 8178, 8226, 8165, 8134,5.012933731079102
73, 8171, 8174, 8219, 8155, 8154, 8156, 8131, 8175, 8129, 8134, 8191, 8239, 8156, 8134,5.028022289276123
74, 8158, 8173, 8153, 8182, 8164, 8157, 8141, 8163, 8133, 8141, 8193, 8219, 8153, 8117,5.028022289276123
75, 8159, 8171, 8220, 8186, 8155, 8150, 8128, 8172, 8107, 8120, 8178, 8231, 8142, 8117,5.043733835220337
76, 8156, 8164, 8184, 8200, 8151, 8159, 8138, 8168, 8112, 8128, 8183, 8228, 8143, 8118,5.043733835220337
77, 8144, 8149, 8163, 8210, 8145, 8153, 8136, 8160, 8109, 8129, 8186, 8205, 8136, 8105,5.058996915817261
78, 8141, 8159, 8221, 8220, 8136, 8158, 8125, 8169, 8093, 8117, 8187, 8215, 8129, 8099,5.058996915817261
79, 8155, 8163, 8166, 8251, 8142, 8159, 8134, 8159, 8112, 8136, 8203, 8221, 8152, 8115,5.074132919311523
80, 8179, 8172, 8234, 8262, 8138, 8166, 8134, 8169, 8116, 8141, 8209, 8250, 8168, 8147,5.074132919311523
81, 8194, 8178, 8222, 8276, 8134, 8176, 8150, 8166, 8128, 8153, 8226, 8263, 8177, 8164,5.089207172393799
82, 8207, 8174, 8199, 8278, 8136, 8166, 8152, 8164, 8137, 8157, 8240, 8269, 8182, 8167,5.089207172393799
83, 8222, 8190, 8257, 8282, 8145, 8173, 8139, 8177, 8131, 8147, 8238, 8297, 8182, 8172,5.10421347618103
84, 8229, 8196, 8205, 8308, 8156, 8167, 8139, 8159, 8133, 8143, 8245, 8291, 8185, 8171,5.10421347618103
85, 8230, 8194, 8258, 8286, 8147, 8144, 8127, 8161, 8112, 8114, 8240, 8292, 8179, 8167,5.120068311691284
86, 8208, 8182, 8225, 8266, 8140, 8139, 8129, 8157, 8096, 8104, 8233, 8285, 8175, 8144,5.120068311691284
87, 8191, 8170, 8177, 8261, 8136, 8144, 8127, 8151, 8084, 8101, 8230, 8266, 8162, 8123,5.135332822799683
88, 8193, 8190, 8249, 8252, 8136, 8160, 8127, 8164, 8080, 8086, 8228, 8273, 8154, 8127,5.135332822799683
89, 8198, 8195, 8190, 8273, 8153, 8163, 8147, 8160, 8102, 8107, 8241, 8262, 8171, 8134,5.151973247528076
90, 8198, 8190, 8229, 8270, 8153, 8160, 8133, 8170, 8102, 8123, 8249, 8268, 8174, 8146,5.151973247528076
91, 8179, 8191, 8227, 8260, 8151, 8169, 8121, 8166, 8109, 8131, 8250, 8262, 8173, 8142,5.166528940200806
92, 8166, 8179, 8182, 8257, 8147, 8162, 8130, 8157, 8112, 8128, 8228, 8226, 8166, 8128,5.182131052017212
93, 8183, 8191, 8248, 8256, 8138, 8165, 8139, 8170, 8088, 8109, 8197, 8227, 8146, 8142,5.182131052017212
94, 8196, 8213, 8188, 8267, 8151, 8171, 8158, 8159, 8095, 8118, 8200, 8224, 8149, 8158,5.182131052017212
95, 8195, 8212, 8211, 8247, 8164, 8167, 8153, 8165, 8101, 8122, 8209, 8220, 8152, 8158,5.19752311706543
96, 8187, 8205, 8216, 8251, 8166, 8173, 8145, 8171, 8104, 8132, 8218, 8221, 8154, 8154,5.19752311706543
97, 8187, 8200, 8168, 8265, 8166, 8175, 8145, 8162, 8112, 8147, 8221, 8216, 8159, 8154,5.213614225387573
98, 8190, 8201, 8231, 8239, 8160, 8181, 8141, 8171, 8104, 8137, 8207, 8225, 8159, 8156,5.229155540466309
99, 8165, 8175, 8154, 8217, 8155, 8173, 8147, 8155, 8101, 8135, 8198, 8190, 8157, 8136,5.229155540466309
100, 8153, 8162, 8163, 8193, 8143, 8164, 8136, 8153, 8088, 8121, 8185, 8180, 8149, 8129,5.229720115661621
101, 8160, 8178, 8191, 8192, 8148, 8175, 8143, 8168, 8098, 8120, 8177, 8201, 8154, 8137,5.245732307434082
102, 8157, 8165, 8131, 8199, 8159, 8165, 8156, 8167, 8125, 8138, 8171, 8181, 8158, 8134,5.245732307434082
103, 8157, 8160, 8199, 8180, 8154, 8162, 8145, 8178, 8130, 8140, 8166, 8186, 8151, 8138,5.260873079299927
104, 8154, 8160, 8150, 8175, 8149, 8170, 8153, 8167, 8145, 8150, 8176, 8189, 8158, 8138,5.260873079299927
105, 8156, 8150, 8154, 8158, 8141, 8162, 8151, 8167, 8137, 8137, 8171, 8191, 8161, 8138,5.276916265487671
106, 8165, 8160, 8193, 8157, 8144, 8163, 8150, 8175, 8133, 8124, 8166, 8200, 8159, 8147,5.276916265487671
107, 8176, 8168, 8140, 8179, 8150, 8151, 8165, 8165, 8146, 8133, 8166, 8191, 8161, 8156,5.292747974395752
108, 8188, 8171, 8205, 8169, 8141, 8141, 8166, 8176, 8121, 8120, 8157, 8202, 8153, 8162,5.292747974395752
109, 8192, 8169, 8165, 8181, 8150, 8149, 8168, 8166, 8116, 8128, 8179, 8198, 8161, 8157,5.30776572227478
110, 8206, 8180, 8175, 8199, 8168, 8153, 8146, 8158, 8125, 8142, 8207, 8211, 8178, 8162,5.309269905090332
111, 8204, 8197, 8224, 8205, 8174, 8158, 8120, 8164, 8117, 8141, 8219, 8238, 8182, 8161,5.323796033859253
112, 8179, 8180, 8147, 8209, 8170, 8153, 8114, 8153, 8112, 8136, 8215, 8211, 8168, 8133,5.323796033859253
113, 8168, 8175, 8203, 8196, 8168, 8158, 8103, 8163, 8109, 8117, 8198, 8200, 8139, 8115,5.340219259262085
114, 8164, 8182, 8170, 8199, 8183, 8161, 8121, 8160, 8130, 8129, 8202, 8194, 8143, 8113,5.355435371398926
115, 8154, 8162, 8148, 8190, 8181, 8153, 8138, 8165, 8122, 8130, 8202, 8176, 8148, 8111,5.355435371398926
116, 8140, 8146, 8194, 8179, 8163, 8174, 8150, 8179, 8111, 8125, 8180, 8165, 8132, 8112,5.35643744468689
117, 8131, 8132, 8125, 8189, 8165, 8179, 8165, 8162, 8137, 8150, 8164, 8134, 8138, 8110,5.370884656906128
118, 8134, 8127, 8177, 8176, 8159, 8167, 8151, 8172, 8141, 8149, 8157, 8141, 8155, 8118,5.386929035186768
119, 8137, 8126, 8154, 8169, 8152, 8175, 8160, 8178, 8164, 8164, 8168, 8156, 8171, 8127,5.386929035186768
120, 8145, 8124, 8133, 8162, 8153, 8171, 8171, 8175, 8180, 8171, 8161, 8156, 8171, 8133,5.386929035186768
121, 8156, 8134, 8192, 8153, 8145, 8164, 8161, 8179, 8155, 8144, 8139, 8172, 8167, 8136,5.401979446411133
122, 8159, 8123, 8124, 8156, 8139, 8151, 8155, 8163, 8147, 8135, 8142, 8163, 8170, 8132,5.417136192321777
123, 8171, 8127, 8179, 8142, 8140, 8148, 8130, 8170, 8129, 8109, 8140, 8170, 8157, 8132,5.417136192321777
124, 8181, 8153, 8180, 8157, 8145, 8159, 8123, 8163, 8111, 8093, 8147, 8179, 8157, 8132,5.4329986572265625
125, 8187, 8170, 8156, 8178, 8149, 8155, 8119, 8152, 8101, 8113, 8174, 8182, 8166, 8133,5.4329986572265625
126, 8184, 8187, 8223, 8186, 8171, 8166, 8108, 8173, 8097, 8134, 8191, 8199, 8169, 8139,5.4329986572265625
127, 8163, 8171, 8147, 8207, 8198, 8171, 8121, 8161, 8111, 8148, 8188, 8176, 8173, 8130,5.4481306076049805
236, 8148, 8147, 8172, 8182, 8182, 8162, 8114, 8156, 8104, 8135, 8175, 8166, 8166, 8124,5.463120222091675
0, 8136, 8142, 8169, 8161, 8165, 8166, 8119, 8161, 8104, 8138, 8169, 8154, 8166, 8111,5.463120222091675
1, 8123, 8137, 8126, 8180, 8167, 8170, 8145, 8161, 8120, 8152, 8151, 8128, 8160, 8101,5.4791200160980225
2, 8125, 8141, 8189, 8183, 8164, 8180, 8161, 8174, 8143, 8165, 8145, 8142, 8161, 8112,5.4791200160980225
3, 8129, 8128, 8122, 8179, 8171, 8176, 8174, 8171, 8175, 8201, 8167, 8137, 8187, 8116,5.494183540344238
4, 8133, 8119, 8161, 8164, 8175, 8161, 8162, 8181, 8155, 8188, 8155, 8136, 8187, 8120,5.494183540344238
5, 8135, 8130, 8187, 8174, 8167, 8165, 8162, 8177, 8141, 8168, 8144, 8144, 8183, 8128,5.509853363037109
6, 8146, 8127, 8135, 8179, 8161, 8161, 8165, 8159, 8161, 8182, 8162, 8142, 8193, 8138,5.509853363037109
7, 8171, 8129, 8207, 8155, 8156, 8163, 8148, 8171, 8157, 8179, 8171, 8170, 8196, 8157,5.525052309036255
8, 8182, 8130, 8158, 8170, 8163, 8166, 8147, 8159, 8158, 8177, 8170, 8172, 8208, 8158,5.525052309036255
9, 8188, 8140, 8178, 8191, 8171, 8169, 8142, 8164, 8157, 8172, 8162, 8171, 8210, 8155,5.540191650390625
10, 8188, 8157, 8207, 8201, 8180, 8182, 8149, 8173, 8158, 8188, 8165, 8173, 8206, 8155,5.540191650390625
11, 8177, 8147, 8148, 8197, 8184, 8168, 8157, 8161, 8163, 8202, 8164, 8150, 8208, 8142,5.555875778198242
12, 8168, 8145, 8204, 8172, 8173, 8164, 8148, 8174, 8162, 8189, 8153, 8162, 8200, 8138,5.555875778198242
13, 8158, 8141, 8147, 8172, 8171, 8171, 8157, 8164, 8179, 8197, 8156, 8153, 8197, 8132,5.571965932846069
14, 8146, 8131, 8147, 8156, 8158, 8156, 8146, 8159, 8162, 8181, 8140, 8128, 8179, 8111,5.571965932846069
15, 8131, 8135, 8170, 8136, 8150, 8154, 8143, 8168, 8147, 8156, 8123, 8126, 8161, 8092,5.588050842285156
16, 8121, 8127, 8102, 8145, 8158, 8156, 8166, 8163, 8166, 8162, 8128, 8120, 8168, 8092,5.588050842285156
17, 8119, 8129, 8171, 8150, 8154, 8165, 8164, 8181, 8164, 8163, 8128, 8135, 8173, 8111,5.603840589523315
18, 8108, 8133, 8130, 8163, 8160, 8167, 8166, 8172, 8169, 8169, 8133, 8127, 8173, 8103,5.603840589523315
19, 8117, 8127, 8128, 8143, 8159, 8153, 8161, 8159, 8165, 8163, 8134, 8126, 8168, 8094,5.618887186050415
20, 8137, 8137, 8180, 8127, 8146, 8149, 8146, 8168, 8154, 8158, 8135, 8149, 8172, 8110,5.618887186050415
21, 8155, 8147, 8122, 8148, 8146, 8142, 8144, 8165, 8160, 8162, 8152, 8154, 8184, 8125,5.634767770767212
22, 8175, 8159, 8194, 8146, 8158, 8146, 8135, 8174, 8149, 8144, 8159, 8177, 8183, 8139,5.634767770767212
23, 8175, 8160, 8170, 8149, 8178, 8150, 8129, 8163, 8152, 8152, 8160, 8176, 8188, 8140,5.65080714225769
24, 8175, 8156, 8152, 8154, 8179, 8136, 8111, 8161, 8156, 8159, 8164, 8177, 8189, 8141,5.65080714225769
25, 8186, 8170, 8207, 8156, 8168, 8139, 8106, 8175, 8158, 8154, 8175, 8206, 8194, 8151,5.666858434677124
26, 8182, 8164, 8144, 8160, 8165, 8136, 8117, 8165, 8171, 8169, 8180, 8187, 8203, 8147,5.666858434677124
27, 8171, 8164, 8199, 8137, 8159, 8137, 8107, 8174, 8149, 8159, 8163, 8173, 8188, 8135,5.682335615158081
28, 8154, 8168, 8170, 8145, 8167, 8153, 8124, 8166, 8139, 8154, 8154, 8162, 8176, 8111,5.682335615158081
29, 8142, 8155, 8131, 8150, 8173, 8152, 8141, 8158, 8149, 8158, 8156, 8149, 8172, 8095,5.698182582855225
30, 8141, 8164, 8192, 8140, 8168, 8161, 8137, 8174, 8148, 8162, 8165, 8164, 8169, 8102,5.698182582855225
31, 8147, 8177, 8139, 8165, 8182, 8169, 8158, 8166, 8161, 8184, 8176, 8156, 8184, 8114,5.713849306106567
32, 8160, 8186, 8197, 8172, 8194, 8166, 8161, 8176, 8156, 8176, 8163, 8157, 8183, 8127,5.713849306106567
33, 8146, 8177, 8179, 8171, 8190, 8166, 8159, 8175, 8152, 8161, 8152, 8145, 8166, 8117,5.728827714920044
34, 8121, 8148, 8123, 8162, 8168, 8163, 8160, 8156, 8137, 8146, 8129, 8112, 8145, 8098,5.728827714920044
35, 8124, 8145, 8184, 8141, 8155, 8174, 8163, 8164, 8123, 8140, 8104, 8119, 8140, 8109,5.7442028522491455
36, 8139, 8148, 8134, 8143, 8168, 8177, 8183, 8161, 8154, 8179, 8116, 8119, 8162, 8126,5.7442028522491455
37, 8152, 8159, 8182, 8147, 8170, 8167, 8173, 8168, 8150, 8182, 8121, 8124, 8162, 8130,5.760233402252197
38, 8154, 8168, 8187, 8162, 8168, 8169, 8170, 8165, 8137, 8165, 8123, 8134, 8162, 8130,5.760233402252197
39, 8152, 8149, 8146, 8153, 8168, 8166, 8177, 8158, 8155, 8172, 8130, 8142, 8173, 8137,5.775809288024902
40, 8150, 8149, 8212, 8130, 8165, 8171, 8166, 8172, 8165, 8181, 8121, 8153, 8162, 8141,5.775809288024902
41, 8140, 8152, 8137, 8150, 8168, 8173, 8165, 8164, 8174, 8183, 8114, 8125, 8149, 8121,5.790979385375977
42, 8133, 8145, 8158, 8139, 8163, 8175, 8153, 8173, 8175, 8155, 8098, 8124, 8140, 8114,5.790979385375977
43, 8126, 8138, 8173, 8111, 8163, 8183, 8161, 8177, 8193, 8159, 8097, 8135, 8149, 8117,5.806074380874634
44, 8133, 8134, 8122, 8121, 8169, 8171, 8180, 8169, 8209, 8188, 8113, 8125, 8162, 8122,5.806074380874634
45, 8152, 8157, 8201, 8137, 8174, 8178, 8179, 8179, 8204, 8183, 8125, 8155, 8166, 8143,5.821202516555786
46, 8150, 8165, 8156, 8142, 8188, 8179, 8175, 8164, 8204, 8173, 8137, 8159, 8164, 8135,5.821202516555786
47, 8153, 8166, 8171, 8129, 8192, 8162, 8169, 8169, 8182, 8158, 8139, 8153, 8153, 8120,5.836733818054199
48, 8166, 8176, 8191, 8137, 8190, 8173, 8189, 8180, 8181, 8161, 8140, 8163, 8154, 8129,5.836733818054199
49, 8158, 8162, 8134, 8135, 8185, 8164, 8184, 8162, 8193, 8162, 8129, 8147, 8146, 8128,5.853310585021973
50, 8156, 8166, 8210, 8117, 8179, 8149, 8142, 8170, 8176, 8147, 8117, 8157, 8125, 8121,5.853310585021973
51, 8169, 8180, 8169, 8144, 8194, 8156, 8152, 8170, 8182, 8168, 8133, 8161, 8138, 8120,5.867883682250977
52, 8175, 8176, 8167, 8144, 8198, 8155, 8162, 8171, 8179, 8163, 8135, 8163, 8147, 8133,5.883911609649658
53, 8167, 8181, 8205, 8134, 8189, 8158, 8148, 8176, 8173, 8150, 8134, 8182, 8149, 8138,5.883911609649658
54, 8168, 8187, 8158, 8162, 8197, 8162, 8150, 8162, 8184, 8170, 8153, 8183, 8163, 8131,5.883911609649658
55, 8171, 8183, 8217, 8152, 8200, 8170, 8148, 8175, 8171, 8168, 8152, 8187, 8159, 8138,5.900433778762817
56, 8142, 8164, 8160, 8135, 8197, 8169, 8148, 8167, 8165, 8160, 8135, 8156, 8140, 8130,5.900433778762817
57, 8123, 8156, 8147, 8119, 8184, 8158, 8137, 8158, 8146, 8140, 8107, 8134, 8120, 8112,5.9160475730896
58, 8125, 8161, 8191, 8106, 8184, 8170, 8143, 8171, 8139, 8139, 8095, 8148, 8120, 8110,5.9160475730896
59, 8117, 8147, 8126, 8130, 8200, 8174, 8169, 8165, 8160, 8160, 8101, 8134, 8127, 8112,5.931990623474121
60, 8108, 8147, 8181, 8136, 8190, 8170, 8161, 8169, 8151, 8134, 8083, 8128, 8107, 8116,5.931990623474121
61, 8102, 8140, 8142, 8119, 8177, 8170, 8168, 8163, 8161, 8131, 8067, 8111, 8102, 8113,5.948037385940552
62, 8106, 8119, 8120, 8098, 8176, 8168, 8184, 8165, 8183, 8148, 8062, 8100, 8113, 8116,5.948037385940552
63, 8110, 8131, 8172, 8103, 8177, 8176, 8182, 8175, 8174, 8141, 8062, 8115, 8114, 8126,5.962310791015625
64, 8110, 8135, 8107, 8120, 8179, 8164, 8175, 8159, 8160, 8142, 8069, 8107, 8113, 8124,5.962310791015625
65, 8124, 8138, 8171, 8106, 8178, 8161, 8157, 8166, 8144, 8134, 8069, 8128, 8115, 8131,5.978137493133545
66, 8138, 8154, 8164, 8121, 8185, 8175, 8158, 8166, 8150, 8128, 8080, 8142, 8125, 8131,5.978137493133545
67, 8142, 8152, 8135, 8124, 8180, 8157, 8146, 8163, 8151, 8126, 8092, 8135, 8127, 8123,5.994760274887085
68, 8138, 8147, 8192, 8111, 8174, 8150, 8125, 8172, 8145, 8126, 8105, 8158, 8128, 8127,5.994760274887085
69, 8139, 8141, 8131, 8130, 8182, 8151, 8133, 8154, 8164, 8139, 8120, 8157, 8135, 8128,6.009786367416382
70, 8151, 8141, 8179, 8125, 8170, 8146, 8130, 8160, 8156, 8124, 8115, 8159, 8127, 8123,6.009786367416382
71, 8147, 8142, 8172, 8130, 8176, 8158, 8140, 8170, 8162, 8127, 8120, 8160, 8134, 8120,6.032199382781982
72, 8133, 8135, 8136, 8132, 8193, 8163, 8157, 8172, 8185, 8143, 8130, 8155, 8138, 8127,6.034200429916382
73, 8135, 8136, 8193, 8105, 8181, 8162, 8156, 8184, 8177, 8131, 8124, 8164, 8124, 8130,6.041062116622925
74, 8131, 8125, 8118, 8103, 8161, 8148, 8157, 8169, 8170, 8128, 8124, 8146, 8127, 8119,6.041062116622925
75, 8132, 8129, 8164, 8100, 8156, 8143, 8147, 8173, 8153, 8116, 8117, 8153, 8123, 8125,6.056262731552124
76, 8140, 8146, 8186, 8110, 8165, 8158, 8158, 8172, 8150, 8113, 8116, 8163, 8119, 8136,6.056262731552124
77, 8145, 8142, 8148, 8126, 8166, 8152, 8158, 8160, 8154, 8127, 8128, 8152, 8129, 8136,6.072817087173462
78, 8148, 8150, 8215, 8118, 8162, 8155, 8138, 8172, 8145, 8132, 8134, 8167, 8130, 8137,6.072817087173462
79, 8139, 8142, 8146, 8118, 8164, 8161, 8151, 8160, 8150, 8132, 8130, 8153, 8120, 8126,6.088977336883545
80, 8136, 8135, 8167, 8119, 8161, 8156, 8150, 8159, 8137, 8098, 8112, 8149, 8101, 8121,6.088977336883545
81, 8126, 8148, 8182, 8133, 8165, 8158, 8140, 8163, 8129, 8094, 8115, 8155, 8097, 8116,6.10217547416687
82, 8108, 8134, 8119, 8133, 8166, 8151, 8136, 8151, 8119, 8106, 8111, 8126, 8092, 8091,6.117226600646973
83, 8103, 8121, 8182, 8122, 8151, 8157, 8129, 8157, 8094, 8080, 8077, 8118, 8069, 8087,6.117226600646973
84, 8104, 8127, 8133, 8150, 8155, 8172, 8153, 8154, 8122, 8100, 8080, 8124, 8081, 8107,6.133134126663208
85, 8118, 8139, 8149, 8156, 8162, 8180, 8176, 8175, 8163, 8149, 8101, 8144, 8112, 8135,6.133134126663208
86, 8128, 8138, 8171, 8142, 8160, 8181, 8183, 8186, 8184, 8174, 8106, 8149, 8129, 8154,6.149172306060791
87, 8128, 8115, 8112, 8130, 8154, 8157, 8171, 8159, 8188, 8167, 8107, 8131, 8134, 8151,6.149172306060791
88, 8133, 8118, 8180, 8099, 8139, 8149, 8149, 8165, 8167, 8140, 8112, 8154, 8131, 8149,6.164759397506714
89, 8131, 8122, 8130, 8097, 8140, 8150, 8162, 8167, 8169, 8146, 8125, 8153, 8141, 8148,6.164759397506714
90, 8142, 8122, 8140, 8104, 8141, 8136, 8162, 8171, 8157, 8143, 8128, 8156, 8147, 8160,6.180774927139282
91, 8158, 8135, 8187, 8107, 8135, 8139, 8153, 8176, 8137, 8130, 8130, 8180, 8141, 8163,6.180774927139282
92, 8156, 8137, 8122, 8109, 8139, 8142, 8154, 8160, 8139, 8135, 8130, 8159, 8130, 8145,6.195899724960327
93, 8155, 8150, 8191, 8099, 8141, 8147, 8144, 8168, 8133, 8132, 8132, 8160, 8124, 8141,6.195899724960327
94, 8152, 8149, 8161, 8119, 8147, 8152, 8146, 8159, 8133, 8139, 8153, 8163, 8133, 8132,6.211440324783325
95, 8148, 8141, 8149, 8119, 8150, 8142, 8131, 8154, 8118, 8121, 8155, 8147, 8124, 8119,6.211440324783325
96, 8140, 8161, 8191, 8114, 8155, 8149, 8121, 8166, 8112, 8112, 8147, 8140, 8112, 8118,6.22705864906311
97, 8133, 8161, 8126, 8146, 8165, 8163, 8147, 8167, 8138, 8149, 8151, 8125, 8124, 8120,6.22705864906311
98, 8135, 8153, 8182, 8154, 8166, 8180, 8161, 8184, 8143, 8158, 8148, 8147, 8131, 8142,6.242670059204102
99, 8120, 8145, 8147, 8147, 8163, 8186, 8176, 8176, 8158, 8156, 8145, 8147, 8140, 8152,6.242670059204102
100, 8106, 8124, 8120, 8129, 8155, 8174, 8190, 8172, 8176, 8160, 8134, 8123, 8142, 8146,6.257562875747681
101, 8121, 8130, 8176, 8123, 8149, 8185, 8204, 8187, 8185, 8172, 8135, 8141, 8146, 8155,6.257562875747681
102, 8141, 8130, 8123, 8132, 8144, 8182, 8206, 8170, 8194, 8179, 8153, 8154, 8164, 8168,6.2728612422943115
103, 8149, 8124, 8180, 8106, 8134, 8158, 8163, 8171, 8166, 8152, 8155, 8176, 8158, 8166,6.2728612422943115
104, 8146, 8138, 8162, 8114, 8150, 8154, 8155, 8169, 8156, 8155, 8168, 8179, 8159, 8152,6.289029836654663
105, 8157, 8157, 8145, 8139, 8159, 8151, 8159, 8165, 8161, 8162, 8186, 8178, 8168, 8156,6.289029836654663
106, 8178, 8172, 8222, 8136, 8152, 8156, 8144, 8174, 8149, 8143, 8185, 8201, 8164, 8170,6.304546356201172
107, 8170, 8163, 8149, 8142, 8162, 8160, 8154, 8156, 8145, 8150, 8180, 8181, 8157, 8158,6.304546356201172
108, 8146, 8160, 8176, 8139, 8155, 8162, 8155, 8159, 8128, 8147, 8163, 8163, 8142, 8143,6.319774627685547
109, 8126, 8153, 8164, 8141, 8140, 8170, 8163, 8167, 8136, 8147, 8152, 8153, 8137, 8133,6.319774627685547
110, 8125, 8124, 8124, 8131, 8140, 8167, 8175, 8167, 8144, 8150, 8140, 8136, 8132, 8127,6.335761308670044
111, 8135, 8126, 8190, 8121, 8144, 8177, 8171, 8179, 8130, 8148, 8122, 8145, 8123, 8135,6.335761308670044
112, 8132, 8132, 8126, 8142, 8143, 8179, 8171, 8167, 8148, 8176, 8135, 8140, 8135, 8148,6.350743532180786
113, 8132, 8124, 8156, 8127, 8129, 8173, 8162, 8173, 8156, 8185, 8149, 8148, 8147, 8160,6.350743532180786
114, 8134, 8122, 8167, 8116, 8131, 8174, 8168, 8171, 8160, 8183, 8146, 8154, 8154, 8159,6.366944074630737
115, 8147, 8130, 8131, 8132, 8134, 8154, 8162, 8154, 8169, 8180, 8140, 8147, 8159, 8160,6.366944074630737
116, 8172, 8148, 8208, 8135, 8129, 8148, 8142, 8170, 8162, 8167, 8150, 8175, 8169, 8178,6.3825483322143555
117, 8175, 8140, 8151, 8138, 8138, 8156, 8154, 8167, 8164, 8175, 8168, 8176, 8179, 8180,6.3825483322143555
118, 8168, 8133, 8172, 8125, 8134, 8152, 8143, 8165, 8136, 8150, 8148, 8170, 8160, 8170,6.398269176483154
119, 8167, 8145, 8185, 8123, 8131, 8146, 8129, 8162, 8115, 8131, 8140, 8181, 8151, 8161,6.398269176483154
120, 8177, 8147, 8141, 8129, 8146, 8135, 8136, 8161, 8127, 8148, 8159, 8181, 8161, 8160,6.414152145385742
121, 8185, 8163, 8224, 8137, 8152, 8150, 8137, 8179, 8125, 8143, 8157, 8194, 8157, 8162,6.414152145385742
122, 8171, 8164, 8164, 8164, 8148, 8161, 8146, 8155, 8121, 8139, 8151, 8171, 8153, 8146,6.429207801818848
123, 8152, 8148, 8162, 8144, 8143, 8153, 8142, 8152, 8106, 8135, 8144, 8160, 8144, 8141,6.429207801818848
124, 8137, 8152, 8181, 8129, 8146, 8162, 8147, 8170, 8109, 8140, 8143, 8167, 8138, 8142,6.44520115852356
125, 8142, 8154, 8121, 8165, 8153, 8169, 8161, 8164, 8132, 8156, 8152, 8155, 8148, 8144,6.44520115852356
126, 8164, 8163, 8203, 8180, 8158, 8181, 8162, 8177, 8141, 8160, 8163, 8178, 8158, 8169,6.459939002990723
127, 8168, 8169, 8172, 8188, 8175, 8189, 8179, 8175, 8158, 8186, 8173, 8175, 8169, 8174,6.459939002990723
236, 8156, 8160, 8166, 8177, 8170, 8182, 8179, 8176, 8158, 8185, 8157, 8158, 8162, 8162,6.475755453109741
0, 8141, 8145, 8189, 8162, 8154, 8192, 8178, 8178, 8158, 8165, 8148, 8163, 8157, 8163,6.475755453109741
1, 8143, 8135, 8127, 8168, 8153, 8186, 8183, 8162, 8165, 8175, 8158, 8155, 8169, 8163,6.491138458251953
2, 8156, 8148, 8201, 8157, 8144, 8173, 8163, 8176, 8149, 8177, 8152, 8172, 8162, 8171,6.491138458251953
3, 8144, 8141, 8162, 8154, 8139, 8166, 8150, 8165, 8154, 8175, 8147, 8168, 8157, 8166,6.507198095321655
4, 8144, 8129, 8150, 8145, 8140, 8154, 8136, 8154, 8158, 8152, 8152, 8159, 8156, 8148,6.507198095321655
5, 8165, 8151, 8203, 8142, 8141, 8159, 8141, 8166, 8153, 8134, 8163, 8180, 8158, 8143,6.523431777954102
6, 8161, 8150, 8136, 8149, 8148, 8159, 8161, 8157, 8162, 8144, 8172, 8176, 8155, 8142,6.523431777954102
7, 8162, 8156, 8203, 8140, 8157, 8161, 8150, 8168, 8155, 8142, 8173, 8193, 8155, 8152,6.53882622718811
8, 8170, 8175, 8188, 8163, 8169, 8164, 8156, 8168, 8170, 8156, 8190, 8198, 8175, 8162,6.53882622718811
9, 8163, 8166, 8161, 8174, 8164, 8159, 8160, 8169, 8173, 8165, 8183, 8179, 8168, 8163,6.553972959518433
10, 8155, 8165, 8207, 8164, 8160, 8180, 8157, 8179, 8160, 8173, 8159, 8177, 8153, 8162,6.553972959518433
11, 8153, 8149, 8136, 8171, 8162, 8185, 8172, 8163, 8179, 8197, 8161, 8159, 8165, 8159,6.570156812667847
12, 8154, 8139, 8184, 8159, 8148, 8172, 8163, 8173, 8186, 8187, 8159, 8169, 8165, 8166,6.570156812667847
13, 8163, 8156, 8175, 8166, 8157, 8182, 8172, 8177, 8209, 8203, 8168, 8187, 8183, 8181,6.586236238479614
14, 8181, 8166, 8160, 8170, 8171, 8174, 8181, 8167, 8224, 8219, 8188, 8194, 8209, 8195,6.586236238479614
15, 8184, 8170, 8224, 8159, 8158, 8164, 8158, 8173, 8200, 8193, 8202, 8215, 8201, 8196,6.6019532680511475
16, 8179, 8174, 8161, 8185, 8158, 8157, 8146, 8161, 8189, 8186, 8214, 8215, 8192, 8181,6.6019532680511475
17, 8189, 8191, 8211, 8192, 8160, 8149, 8130, 8164, 8161, 8171, 8203, 8228, 8190, 8174,6.617046356201172
18, 8180, 8189, 8193, 8187, 8155, 8148, 8115, 8162, 8140, 8159, 8193, 8218, 8180, 8160,6.617046356201172
19, 8158, 8165, 8136, 8188, 8159, 8154, 8111, 8155, 8136, 8151, 8182, 8179, 8158, 8140,6.632441997528076
20, 8146, 8168, 8204, 8182, 8168, 8185, 8135, 8167, 8131, 8144, 8162, 8172, 8144, 8136,6.632441997528076
21, 8139, 8164, 8145, 8198, 8169, 8196, 8177, 8161, 8153, 8173, 8162, 8158, 8160, 8138,6.648035287857056
22, 8153, 8161, 8179, 8204, 8160, 8189, 8181, 8178, 8173, 8185, 8175, 8170, 8175, 8158,6.664444208145142
23, 8158, 8165, 8184, 8201, 8166, 8193, 8185, 8184, 8195, 8194, 8190, 8187, 8193, 8169,6.664444208145142
24, 8148, 8163, 8136, 8196, 8169, 8189, 8191, 8169, 8208, 8213, 8194, 8181, 8209, 8170,6.664444208145142
25, 8161, 8171, 8212, 8193, 8160, 8192, 8182, 8181, 8204, 8211, 8194, 8198, 8212, 8190,6.679721832275391
26, 8173, 8165, 8158, 8207, 8162, 8186, 8192, 8175, 8211, 8209, 8202, 8190, 8213, 8194,6.68007493019104
27, 8175, 8164, 8174, 8195, 8155, 8175, 8185, 8177, 8194, 8190, 8193, 8192, 8195, 8186,6.694862604141235
28, 8167, 8174, 8186, 8184, 8149, 8180, 8168, 8174, 8188, 8190, 8183, 8197, 8185, 8177,6.694862604141235
29, 8167, 8164, 8136, 8185, 8157, 8168, 8160, 8161, 8204, 8211, 8193, 8184, 8201, 8175,6.712036609649658
30, 8192, 8183, 8220, 8190, 8162, 8167, 8155, 8177, 8201, 8207, 8215, 8223, 8222, 8199,6.712036609649658
31, 8207, 8209, 8176, 8215, 8169, 8168, 8160, 8168, 8202, 8201, 8235, 8235, 8231, 8200,6.725210428237915
32, 8191, 8197, 8181, 8192, 8156, 8151, 8133, 8159, 8174, 8168, 8217, 8210, 8198, 8169,6.742091655731201
33, 8168, 8179, 8202, 8167, 8146, 8150, 8127, 8158, 8145, 8147, 8194, 8195, 8170, 8146,6.742091655731201
34, 8172, 8180, 8143, 8186, 8159, 8154, 8158, 8155, 8156, 8165, 8204, 8194, 8185, 8153,6.742091655731201
35, 8180, 8198, 8209, 8184, 8165, 8164, 8163, 8177, 8163, 8168, 8209, 8219, 8193, 8163,6.755984783172607
36, 8160, 8184, 8156, 8181, 8165, 8169, 8165, 8165, 8169, 8169, 8196, 8196, 8180, 8146,6.772089242935181
37, 8151, 8165, 8161, 8169, 8159, 8158, 8156, 8154, 8148, 8149, 8173, 8173, 8162, 8139,6.772089242935181
38, 8155, 8183, 8205, 8165, 8155, 8165, 8152, 8164, 8129, 8134, 8167, 8186, 8158, 8145,6.788183689117432
39, 8153, 8183, 8134, 8185, 8163, 8171, 8166, 8164, 8138, 8145, 8173, 8169, 8159, 8144,6.788183689117432
40, 8152, 8173, 8199, 8181, 8164, 8182, 8168, 8180, 8133, 8140, 8158, 8171, 8150, 8157,6.803802967071533
41, 8143, 8163, 8162, 8176, 8160, 8187, 8177, 8167, 8142, 8147, 8149, 8167, 8151, 8158,6.804804563522339
42, 8136, 8154, 8144, 8162, 8149, 8172, 8169, 8161, 8152, 8157, 8147, 8164, 8153, 8152,6.804804563522339
43, 8147, 8165, 8203, 8166, 8152, 8178, 8156, 8179, 8158, 8172, 8160, 8178, 8159, 8161,6.819024085998535
44, 8161, 8169, 8149, 8194, 8169, 8185, 8161, 8160, 8166, 8191, 8174, 8170, 8166, 8166,6.8351240158081055
45, 8171, 8177, 8201, 8185, 8168, 8181, 8142, 8160, 8148, 8165, 8153, 8183, 8157, 8168,6.8351240158081055
46, 8160, 8169, 8166, 8180, 8165, 8175, 8126, 8165, 8157, 8155, 8147, 8178, 8163, 8160,6.850325345993042
47, 8145, 8146, 8139, 8166, 8158, 8159, 8114, 8166, 8171, 8166, 8155, 8161, 8168, 8152,6.850325345993042
48, 8144, 8151, 8193, 8153, 8154, 8170, 8131, 8169, 8164, 8168, 8149, 8175, 8160, 8159,6.866227149963379
49, 8135, 8143, 8122, 8160, 8157, 8180, 8162, 8151, 8162, 8174, 8138, 8158, 8160, 8152,6.866227149963379
50, 8127, 8132, 8170, 8137, 8139, 8172, 8146, 8160, 8139, 8162, 8121, 8153, 8150, 8143,6.8821282386779785
51, 8130, 8140, 8157, 8140, 8141, 8174, 8155, 8164, 8150, 8167, 8133, 8161, 8153, 8147,6.8821282386779785
52, 8145, 8141, 8135, 8152, 8155, 8178, 8183, 8163, 8174, 8174, 8150, 8164, 8163, 8160,6.8977508544921875
53, 8147, 8147, 8208, 8142, 8148, 8183, 8172, 8177, 8175, 8174, 8146, 8181, 8162, 8165,6.8977508544921875
54, 8143, 8146, 8143, 8149, 8146, 8170, 8158, 8165, 8194, 8196, 8156, 8177, 8178, 8166,6.913172483444214
55, 8167, 8151, 8189, 8147, 8147, 8161, 8143, 8168, 8187, 8197, 8173, 8195, 8189, 8181,6.913172483444214
56, 8176, 8160, 8191, 8151, 8147, 8165, 8149, 8163, 8166, 8195, 8181, 8200, 8186, 8173,6.929187059402466
57, 8166, 8155, 8144, 8153, 8141, 8154, 8152, 8152, 8155, 8181, 8163, 8183, 8173, 8159,6.929187059402466
58, 8166, 8155, 8198, 8136, 8132, 8157, 8133, 8162, 8139, 8140, 8149, 8200, 8157, 8163,6.943998336791992
59, 8162, 8144, 8133, 8137, 8134, 8157, 8124, 8148, 8132, 8134, 8158, 8192, 8159, 8152,6.943998336791992
60, 8160, 8152, 8178, 8131, 8138, 8149, 8120, 8157, 8130, 8138, 8157, 8193, 8162, 8152,6.9592673778533936
61, 8161, 8170, 8192, 8136, 8152, 8162, 8145, 8164, 8160, 8164, 8168, 8206, 8171, 8163,6.9592673778533936
62, 8166, 8164, 8140, 8151, 8156, 8161, 8159, 8158, 8173, 8188, 8185, 8196, 8179, 8160,6.975190877914429
63, 8174, 8177, 8216, 8156, 8152, 8165, 8149, 8181, 8148, 8173, 8183, 8205, 8175, 8160,6.975190877914429
64, 8174, 8182, 8168, 8167, 8159, 8170, 8173, 8171, 8163, 8178, 8189, 8197, 8178, 8158,6.990756511688232
65, 8181, 8171, 8190, 8151, 8157, 8160, 8169, 8162, 8169, 8168, 8182, 8192, 8168, 8157,6.990756511688232
66, 8183, 8176, 8211, 8153, 8154, 8164, 8154, 8168, 8160, 8160, 8162, 8193, 8157, 8153,7.006295442581177
67, 8170, 8173, 8150, 8171, 8159, 8172, 8169, 8168, 8158, 8167, 8147, 8171, 8149, 8144,7.006295442581177
68, 8161, 8170, 8206, 8156, 8158, 8186, 8177, 8177, 8144, 8157, 8145, 8178, 8143, 8149,7.021836757659912
69, 8165, 8172, 8158, 8163, 8164, 8184, 8186, 8160, 8161, 8172, 8169, 8183, 8167, 8157,7.021836757659912
70, 8174, 8177, 8184, 8165, 8159, 8170, 8178, 8164, 8173, 8188, 8176, 8194, 8179, 8162,7.037928819656372
71, 8169, 8181, 8215, 8164, 8149, 8177, 8169, 8169, 8168, 8196, 8166, 8201, 8167, 8157,7.037928819656372
72, 8163, 8174, 8148, 8178, 8156, 8169, 8160, 8152, 8162, 8185, 8167, 8188, 8161, 8149,7.053064584732056
73, 8172, 8185, 8219, 8173, 8158, 8167, 8142, 8167, 8151, 8151, 8167, 8206, 8155, 8161,7.053064584732056
74, 8170, 8184, 8175, 8182, 8155, 8176, 8157, 8172, 8179, 8175, 8174, 8201, 8163, 8162,7.069177865982056
75, 8157, 8165, 8172, 8172, 8147, 8171, 8164, 8179, 8184, 8194, 8167, 8192, 8164, 8155,7.069177865982056
76, 8153, 8167, 8214, 8157, 8149, 8181, 8177, 8185, 8172, 8183, 8159, 8203, 8161, 8158,7.085049152374268
77, 8159, 8171, 8146, 8173, 8163, 8194, 8204, 8171, 8186, 8204, 8166, 8188, 8170, 8165,7.085049152374268
78, 8165, 8178, 8202, 8174, 8157, 8197, 8195, 8184, 8174, 8210, 8166, 8193, 8169, 8163,7.100736856460571
79, 8148, 8168, 8159, 8165, 8153, 8193, 8186, 8171, 8167, 8204, 8167, 8181, 8167, 8144,7.100736856460571
80, 8141, 8150, 8145, 8135, 8148, 8185, 8182, 8162, 8168, 8187, 8157, 8163, 8154, 8142,7.116847038269043
81, 8149, 8161, 8204, 8134, 8136, 8187, 8179, 8175, 8162, 8168, 8144, 8171, 8142, 8152,7.116847038269043
82, 8144, 8148, 8134, 8145, 8130, 8172, 8175, 8161, 8161, 8162, 8138, 8155, 8145, 8139,7.132281064987183
83, 8133, 8126, 8175, 8101, 8126, 8164, 8158, 8163, 8145, 8154, 8126, 8158, 8140, 8136,7.132281064987183
84, 8125, 8129, 8149, 8101, 8131, 8170, 8157, 8156, 8143, 8162, 8129, 8160, 8141, 8140,7.147789001464844
85, 8138, 8143, 8141, 8135, 8131, 8160, 8149, 8151, 8141, 8154, 8128, 8158, 8143, 8133,7.147789001464844
86, 8155, 8163, 8204, 8150, 8128, 8155, 8141, 8167, 8150, 8141, 8130, 8177, 8150, 8129,7.162960052490234
87, 8148, 8155, 8137, 8160, 8130, 8140, 8146, 8167, 8175, 8158, 8152, 8169, 8168, 8132,7.162960052490234
88, 8142, 8143, 8187, 8138, 8117, 8133, 8134, 8177, 8163, 8158, 8155, 8181, 8167, 8138,7.179038763046265
89, 8126, 8134, 8162, 8124, 8112, 8144, 8138, 8166, 8157, 8149, 8148, 8180, 8165, 8125,7.179038763046265
90, 8120, 8133, 8122, 8140, 8118, 8140, 8142, 8157, 8147, 8139, 8153, 8174, 8170, 8115,7.194102764129639
91, 8134, 8160, 8193, 8161, 8120, 8145, 8127, 8170, 8114, 8132, 8160, 8203, 8173, 8127,7.194102764129639
92, 8137, 8162, 8127, 8170, 8121, 8145, 8128, 8155, 8109, 8134, 8160, 8192, 8169, 8125,7.209230184555054
93, 8143, 8158, 8174, 8151, 8115, 8138, 8116, 8161, 8115, 8119, 8162, 8192, 8162, 8125,7.209230184555054
94, 8154, 8167, 8189, 8161, 8125, 8145, 8108, 8167, 8129, 8133, 8184, 8209, 8174, 8133,7.224816083908081
95, 8160, 8168, 8153, 8183, 8137, 8141, 8099, 8161, 8125, 8148, 8191, 8204, 8175, 8138,7.224816083908081
96, 8169, 8180, 8218, 8181, 8141, 8153, 8098, 8177, 8115, 8143, 8191, 8218, 8173, 8143,7.2398765087127686
97, 8176, 8183, 8159, 8190, 8152, 8168, 8126, 8170, 8132, 8167, 8203, 8213, 8184, 8139,7.240241050720215
98, 8177, 8180, 8191, 8185, 8147, 8168, 8127, 8166, 8113, 8157, 8189, 8210, 8164, 8137,7.255102872848511
99, 8169, 8184, 8198, 8191, 8148, 8175, 8135, 8167, 8110, 8145, 8187, 8202, 8151, 8128,7.255102872848511
100, 8164, 8176, 8140, 8201, 8161, 8178, 8150, 8161, 8134, 8157, 8201, 8184, 8162, 8111,7.270839691162109
101, 8154, 8174, 8203, 8192, 8162, 8180, 8139, 8170, 8122, 8149, 8184, 8189, 8154, 8109,7.270839691162109
102, 8139, 8168, 8147, 8205, 8163, 8178, 8147, 8162, 8132, 8166, 8181, 8175, 8157, 8118,7.287321090698242
103, 8146, 8169, 8171, 8203, 8155, 8176, 8139, 8175, 8144, 8174, 8197, 8177, 8167, 8132,7.287321090698242
104, 8152, 8176, 8193, 8195, 8147, 8175, 8119, 8179, 8136, 8169, 8207, 8193, 8166, 8133,7.302038669586182
105, 8145, 8161, 8133, 8189, 8146, 8157, 8117, 8161, 8126, 8170, 8204, 8176, 8158, 8127,7.302038669586182
106, 8150, 8169, 8201, 8182, 8144, 8166, 8129, 8176, 8115, 8162, 8194, 8183, 8151, 8138,7.318129301071167
107, 8158, 8179, 8158, 8204, 8148, 8182, 8158, 8171, 8133, 8179, 8205, 8180, 8168, 8146,7.318129301071167
108, 8163, 8173, 8177, 8198, 8146, 8178, 8154, 8170, 8131, 8183, 8211, 8186, 8173, 8154,7.334219455718994
109, 8167, 8184, 8219, 8200, 8153, 8187, 8148, 8173, 8122, 8179, 8215, 8211, 8160, 8162,7.334219455718994
110, 8173, 8188, 8164, 8231, 8161, 8180, 8159, 8159, 8128, 8184, 8220, 8205, 8165, 8158,7.349818229675293
111, 8185, 8193, 8232, 8225, 8157, 8179, 8147, 8172, 8123, 8182, 8224, 8218, 8177, 8165,7.349818229675293
112, 8179, 8187, 8179, 8218, 8169, 8181, 8135, 8161, 8131, 8191, 8228, 8216, 8182, 8159,7.365949869155884
113, 8166, 8182, 8168, 8213, 8169, 8169, 8121, 8157, 8121, 8173, 8206, 8202, 8167, 8147,7.365949869155884
114, 8163, 8197, 8216, 8224, 8163, 8177, 8137, 8172, 8125, 8168, 8202, 8199, 8164, 8144,7.380068778991699
115, 8158, 8177, 8148, 8235, 8164, 8174, 8163, 8158, 8151, 8188, 8209, 8174, 8170, 8132,7.395339488983154
116, 8140, 8152, 8190, 8200, 8154, 8167, 8148, 8163, 8130, 8172, 8181, 8170, 8152, 8125,7.395339488983154
117, 8118, 8152, 8143, 8192, 8154, 8176, 8154, 8163, 8125, 8173, 8175, 8160, 8146, 8123,7.411974191665649
118, 8118, 8153, 8134, 8203, 8159, 8178, 8163, 8162, 8137, 8188, 8187, 8158, 8150, 8127,7.411974191665649
119, 8123, 8148, 8184, 8183, 8152, 8179, 8154, 8172, 8139, 8190, 8179, 8172, 8152, 8131,7.411974191665649
120, 8115, 8129, 8107, 8160, 8142, 8166, 8159, 8161, 8150, 8190, 8164, 8152, 8153, 8126,7.426996231079102
121, 8122, 8130, 8165, 8152, 8136, 8161, 8153, 8169, 8152, 8175, 8159, 8163, 8149, 8134,7.4422008991241455
122, 8136, 8140, 8154, 8177, 8150, 8175, 8157, 8168, 8162, 8186, 8168, 8170, 8160, 8139,7.4422008991241455
123, 8146, 8138, 8138, 8176, 8159, 8168, 8152, 8165, 8149, 8187, 8161, 8159, 8159, 8140,7.459305047988892
124, 8144, 8145, 8194, 8159, 8151, 8161, 8136, 8168, 8121, 8168, 8152, 8169, 8145, 8142,7.459305047988892
125, 8135, 8137, 8127, 8171, 8144, 8153, 8139, 8149, 8128, 8177, 8164, 8163, 8151, 8133,7.459808111190796
126, 8143, 8137, 8177, 8155, 8137, 8152, 8124, 8156, 8114, 8163, 8159, 8171, 8148, 8135,7.4748711585998535
127, 8138, 8141, 8159, 8146, 8138, 8156, 8112, 8153, 8105, 8146, 8147, 8158, 8140, 8128,7.4748711585998535
236, 8126, 8130, 8125, 8148, 8137, 8141, 8106, 8148, 8114, 8144, 8150, 8142, 8140, 8114,7.489027976989746
0, 8131, 8131, 8187, 8137, 8133, 8145, 8108, 8168, 8119, 8138, 8162, 8170, 8150, 8124,7.504745006561279
1, 8128, 8124, 8115, 8130, 8136, 8149, 8124, 8159, 8136, 8147, 8168, 8152, 8160, 8125,7.504745006561279
2, 8125, 8130, 8160, 8103, 8127, 8147, 8118, 8169, 8139, 8136, 8150, 8131, 8141, 8108,7.520050048828125
3, 8124, 8146, 8165, 8105, 8126, 8157, 8125, 8170, 8143, 8129, 8141, 8138, 8129, 8097,7.520050048828125
4, 8127, 8142, 8116, 8122, 8131, 8152, 8125, 8154, 8136, 8126, 8143, 8144, 8131, 8107,7.535099744796753
5, 8131, 8149, 8184, 8113, 8131, 8154, 8109, 8166, 8119, 8115, 8141, 8158, 8128, 8112,7.535099744796753
6, 8122, 8147, 8127, 8116, 8135, 8156, 8120, 8159, 8130, 8133, 8148, 8146, 8132, 8103,7.550112962722778
7, 8123, 8144, 8163, 8113, 8136, 8151, 8117, 8157, 8123, 8129, 8146, 8155, 8130, 8119,7.550112962722778
8, 8135, 8159, 8189, 8128, 8143, 8155, 8117, 8157, 8123, 8128, 8147, 8169, 8135, 8130,7.565357208251953
9, 8149, 8164, 8148, 8151, 8156, 8153, 8128, 8157, 8140, 8149, 8164, 8167, 8147, 8128,7.565357208251953
10, 8162, 8180, 8216, 8160, 8162, 8157, 8126, 8172, 8134, 8150, 8178, 8198, 8151, 8143,7.580980539321899
11, 8161, 8195, 8155, 8186, 8175, 8166, 8130, 8155, 8136, 8152, 8183, 8186, 8155, 8136,7.580980539321899
12, 8155, 8193, 8171, 8175, 8182, 8173, 8129, 8159, 8134, 8145, 8159, 8165, 8140, 8114,7.595997095108032
13, 8141, 8181, 8193, 8155, 8178, 8181, 8142, 8169, 8144, 8145, 8147, 8172, 8134, 8113,7.595997095108032
14, 8127, 8168, 8133, 8167, 8170, 8167, 8153, 8160, 8155, 8157, 8159, 8166, 8149, 8117,7.612101793289185
15, 8129, 8187, 8200, 8170, 8171, 8169, 8145, 8176, 8149, 8187, 8154, 8176, 8147, 8125,7.612101793289185
16, 8129, 8186, 8155, 8171, 8186, 8183, 8157, 8173, 8171, 8265, 8155, 8165, 8148, 8128,7.628122329711914
17, 8127, 8168, 8156, 8158, 8180, 8181, 8154, 8170, 8166, 8296, 8151, 8156, 8149, 8131,7.628122329711914
18, 8127, 8177, 8181, 8155, 8173, 8185, 8150, 8173, 8148, 8279, 8137, 8163, 8149, 8133,7.643845081329346
19, 8126, 8175, 8125, 8156, 8176, 8171, 8153, 8160, 8159, 8278, 8130, 8154, 8150, 8130,7.643845081329346
20, 8128, 8171, 8202, 8136, 8165, 8169, 8138, 8171, 8148, 8267, 8126, 8163, 8142, 8136,7.659914493560791
21, 8123, 8170, 8153, 8153, 8171, 8188, 8155, 8167, 8146, 8276, 8135, 8151, 8140, 8134,7.659914493560791
22, 8121, 8165, 8138, 8155, 8171, 8185, 8166, 8163, 8143, 8280, 8124, 8137, 8127, 8133,7.675080060958862
23, 8125, 8164, 8182, 8139, 8145, 8175, 8152, 8164, 8136, 8264, 8103, 8139, 8116, 8136,7.675080060958862
24, 8120, 8149, 8113, 8141, 8133, 8161, 8146, 8147, 8133, 8258, 8105, 8121, 8122, 8124,7.690462589263916
25, 8120, 8147, 8164, 8127, 8133, 8159, 8137, 8158, 8114, 8238, 8104, 8131, 8117, 8117,7.690462589263916
26, 8121, 8149, 8137, 8134, 8144, 8162, 8141, 8158, 8123, 8236, 8113, 8135, 8125, 8116,7.7061684131622314
27, 8128, 8149, 8138, 8153, 8153, 8153, 8124, 8159, 8128, 8239, 8136, 8149, 8142, 8123,7.7061684131622314
28, 8142, 8176, 8200, 8167, 8158, 8163, 8114, 8176, 8141, 8250, 8163, 8191, 8158, 8137,7.722211599349976
29, 8147, 8188, 8141, 8191, 8171, 8167, 8140, 8171, 8168, 8267, 8174, 8183, 8165, 8136,7.722211599349976
30, 8152, 8183, 8204, 8199, 8170, 8175, 8146, 8183, 8158, 8258, 8169, 8183, 8159, 8145,7.737797021865845
31, 8151, 8174, 8181, 8215, 8169, 8194, 8163, 8176, 8163, 8281, 8185, 8188, 8175, 8160,7.737797021865845
32, 8153, 8159, 8148, 8204, 8162, 8182, 8177, 8165, 8159, 8297, 8180, 8182, 8178, 8169,7.753280878067017
33, 8159, 8165, 8202, 8183, 8150, 8168, 8167, 8175, 8138, 8276, 8164, 8196, 8167, 8172,7.753280878067017
34, 8157, 8160, 8136, 8187, 8139, 8159, 8155, 8161, 8152, 8260, 8175, 8192, 8174, 8160,7.76923131942749
35, 8164, 8161, 8191, 8180, 8135, 8158, 8135, 8162, 8145, 8232, 8182, 8206, 8169, 8157,7.76923131942749
36, 8169, 8169, 8188, 8190, 8153, 8164, 8133, 8156, 8123, 8230, 8183, 8208, 8158, 8149,7.784818410873413
37, 8172, 8166, 8153, 8190, 8158, 8148, 8126, 8146, 8108, 8227, 8178, 8189, 8144, 8130,7.784818410873413
38, 8172, 8180, 8214, 8183, 8151, 8149, 8116, 8160, 8092, 8198, 8175, 8192, 8129, 8126,7.8000476360321045
39, 8164, 8182, 8148, 8208, 8162, 8164, 8141, 8157, 8103, 8217, 8177, 8168, 8134, 8125,7.8000476360321045
40, 8167, 8183, 8185, 8198, 8162, 8178, 8155, 8168, 8116, 8242, 8165, 8165, 8141, 8137,7.8154778480529785
41, 8156, 8182, 8180, 8177, 8153, 8186, 8165, 8171, 8133, 8245, 8161, 8170, 8139, 8142,7.8154778480529785
42, 8146, 8165, 8131, 8176, 8153, 8176, 8179, 8165, 8147, 8247, 8163, 8155, 8138, 8149,7.830761909484863
43, 8150, 8162, 8194, 8161, 8155, 8183, 8181, 8179, 8148, 8246, 8148, 8156, 8142, 8156,7.830761909484863
44, 8134, 8149, 8123, 8155, 8151, 8180, 8188, 8172, 8162, 8254, 8135, 8130, 8141, 8137,7.846956729888916
45, 8126, 8138, 8148, 8139, 8136, 8167, 8180, 8175, 8154, 8240, 8124, 8133, 8124, 8135,7.846956729888916
46, 8137, 8145, 8166, 8131, 8129, 8175, 8179, 8174, 8154, 8230, 8123, 8148, 8128, 8144,7.8614723682403564
47, 8152, 8139, 8126, 8129, 8132, 8167, 8183, 8167, 8169, 8231, 8136, 8140, 8151, 8143,7.8614723682403564
48, 8159, 8141, 8201, 8123, 8131, 8161, 8174, 8186, 8175, 8232, 8150, 8166, 8158, 8150,7.877127408981323
49, 8152, 8147, 8138, 8140, 8138, 8162, 8183, 8169, 8191, 8246, 8162, 8164, 8161, 8149,7.877127408981323
50, 8159, 8155, 8159, 8134, 8145, 8160, 8175, 8165, 8179, 8227, 8161, 8158, 8155, 8143,7.892767906188965
51, 8167, 8163, 8191, 8129, 8156, 8166, 8172, 8175, 8176, 8220, 8174, 8171, 8159, 8140,7.908259153366089
52, 8156, 8147, 8126, 8136, 8162, 8158, 8163, 8160, 8178, 8226, 8180, 8157, 8157, 8124,7.908259153366089
53, 8152, 8156, 8192, 8130, 8154, 8162, 8141, 8166, 8148, 8206, 8166, 8161, 8130, 8110,7.908259153366089
54, 8156, 8174, 8157, 8149, 8164, 8169, 8159, 8167, 8154, 8223, 8174, 8160, 8134, 8112,7.923901557922363
55, 8155, 8166, 8162, 8150, 8165, 8159, 8159, 8174, 8162, 8231, 8167, 8159, 8140, 8118,7.923901557922363
56, 8147, 8160, 8188, 8144, 8156, 8168, 8160, 8178, 8159, 8225, 8150, 8162, 8130, 8117,7.94066309928894
57, 8143, 8156, 8123, 8154, 8160, 8172, 8182, 8166, 8177, 8242, 8155, 8148, 8131, 8119,7.94066309928894
58, 8142, 8159, 8183, 8143, 8147, 8170, 8163, 8179, 8177, 8248, 8151, 8159, 8129, 8133,7.9545698165893555
59, 8137, 8145, 8144, 8146, 8140, 8168, 8157, 8171, 8180, 8264, 8148, 8158, 8135, 8132,7.9698708057403564
60, 8150, 8140, 8147, 8141, 8146, 8165, 8171, 8168, 8182, 8265, 8154, 8162, 8149, 8145,7.9698708057403564
61, 8160, 8156, 8188, 8132, 8154, 8174, 8180, 8179, 8187, 8260, 8170, 8183, 8167, 8169,7.985138893127441
62, 8156, 8146, 8116, 8147, 8159, 8170, 8184, 8162, 8195, 8273, 8182, 8171, 8176, 8165,7.985138893127441
63, 8155, 8143, 8179, 8141, 8152, 8167, 8170, 8166, 8179, 8253, 8168, 8175, 8152, 8155,8.00083065032959
64, 8147, 8152, 8153, 8137, 8154, 8163, 8164, 8162, 8174, 8232, 8165, 8170, 8139, 8138,8.00083065032959
65, 8151, 8155, 8142, 8129, 8158, 8148, 8153, 8159, 8163, 8218, 8176, 8162, 8138, 8124,8.016302585601807
66, 8154, 8170, 8200, 8131, 8164, 8160, 8151, 8171, 8150, 8212, 8180, 8175, 8133, 8124,8.016302585601807
67, 8131, 8161, 8120, 8150, 8172, 8169, 8168, 8165, 8158, 8223, 8170, 8150, 8127, 8116,8.037447690963745
68, 8119, 8149, 8167, 8146, 8166, 8172, 8168, 8180, 8156, 8223, 8146, 8141, 8116, 8112,8.037447690963745
69, 8120, 8150, 8160, 8152, 8166, 8180, 8189, 8178, 8185, 8249, 8153, 8145, 8131, 8122,8.037447690963745
70, 8126, 8149, 8136, 8150, 8167, 8177, 8206, 8170, 8204, 8264, 8166, 8146, 8151, 8138,8.04712462425232
71, 8133, 8154, 8186, 8139, 8161, 8185, 8202, 8183, 8192, 8253, 8161, 8164, 8151, 8146,8.062587976455688
72, 8133, 8139, 8117, 8132, 8149, 8170, 8194, 8168, 8199, 8255, 8162, 8157, 8154, 8134,8.062587976455688
73, 8147, 8130, 8173, 8103, 8131, 8140, 8158, 8166, 8191, 8235, 8158, 8168, 8151, 8137,8.07926344871521
74, 8167, 8146, 8182, 8114, 8135, 8134, 8152, 8166, 8187, 8229, 8170, 8181, 8158, 8151,8.07926344871521
75, 8173, 8152, 8152, 8136, 8139, 8125, 8154, 8162, 8166, 8221, 8185, 8187, 8159, 8151,8.09537386894226
76, 8163, 8156, 8207, 8124, 8130, 8126, 8133, 8170, 8125, 8190, 8180, 8198, 8137, 8138,8.09537386894226
77, 8147, 8153, 8144, 8136, 8140, 8132, 8138, 8161, 8136, 8202, 8180, 8168, 8126, 8119,8.11013126373291
78, 8147, 8153, 8187, 8140, 8144, 8141, 8139, 8175, 8146, 8207, 8169, 8162, 8124, 8120,8.11013126373291
79, 8139, 8149, 8177, 8141, 8144, 8157, 8147, 8169, 8140, 8195, 8153, 8160, 8124, 8124,8.126205921173096
80, 8129, 8137, 8127, 8147, 8150, 8158, 8160, 8155, 8148, 8200, 8145, 8144, 8124, 8117,8.126205921173096
81, 8135, 8143, 8205, 8141, 8150, 8166, 8160, 8178, 8159, 8211, 8144, 8158, 8129, 8119,8.141807079315186
82, 8123, 8124, 8132, 8141, 8145, 8159, 8161, 8168, 8162, 8218, 8142, 8136, 8134, 8106,8.141807079315186
83, 8105, 8100, 8145, 8110, 8129, 8146, 8147, 8164, 8139, 8193, 8123, 8123, 8123, 8102,8.157418489456177
84, 8110, 8110, 8167, 8093, 8129, 8154, 8145, 8171, 8151, 8189, 8136, 8146, 8133, 8114,8.157418489456177
85, 8136, 8120, 8123, 8117, 8136, 8142, 8138, 8168, 8167, 8191, 8159, 8152, 8143, 8114,8.173088312149048
86, 8146, 8133, 8194, 8115, 8122, 8133, 8121, 8176, 8143, 8172, 8148, 8167, 8126, 8116,8.173088312149048
87, 8129, 8131, 8144, 8098, 8120, 8139, 8143, 8162, 8148, 8191, 8143, 8158, 8126, 8117,8.188259840011597
88, 8134, 8137, 8167, 8109, 8128, 8143, 8145, 8167, 8142, 8185, 8150, 8152, 8128, 8122,8.188259840011597
89, 8150, 8160, 8195, 8160, 8134, 8154, 8134, 8176, 8133, 8164, 8149, 8160, 8123, 8128,8.20386528968811
90, 8148, 8151, 8127, 8180, 8133, 8155, 8141, 8157, 8149, 8177, 8136, 8147, 8124, 8130,8.20386528968811
91, 8145, 8146, 8186, 8154, 8132, 8159, 8141, 8166, 8151, 8188, 8124, 8153, 8126, 8138,8.220050811767578
92, 8133, 8137, 8132, 8154, 8135, 8165, 8148, 8165, 8158, 8203, 8131, 8133, 8132, 8133,8.220050811767578
93, 8126, 8115, 8128, 8132, 8117, 8156, 8136, 8162, 8152, 8191, 8120, 8116, 8119, 8122,8.235057592391968
94, 8126, 8122, 8157, 8117, 8111, 8153, 8128, 8168, 8151, 8180, 8114, 8128, 8111, 8113,8.235057592391968
95, 8128, 8133, 8093, 8133, 8124, 8144, 8137, 8157, 8161, 8192, 8132, 8120, 8128, 8110,8.250275135040283
96, 8139, 8146, 8170, 8125, 8123, 8149, 8131, 8166, 8149, 8180, 8137, 8138, 8133, 8122,8.250275135040283
97, 8144, 8152, 8142, 8138, 8137, 8160, 8144, 8166, 8167, 8182, 8155, 8144, 8140, 8120,8.265349388122559
98, 8149, 8148, 8133, 8140, 8147, 8149, 8146, 8173, 8177, 8185, 8173, 8142, 8143, 8117,8.265349388122559
99, 8148, 8157, 8182, 8130, 8146, 8148, 8137, 8175, 8161, 8180, 8171, 8152, 8136, 8122,8.280535459518433
100, 8153, 8157, 8128, 8152, 8157, 8150, 8141, 8156, 8161, 8189, 8168, 8139, 8137, 8124,8.280535459518433
101, 8154, 8152, 8189, 8150, 8152, 8162, 8133, 8175, 8154, 8176, 8160, 8145, 8132, 8127,8.296178102493286
102, 8132, 8139, 8152, 8145, 8142, 8174, 8149, 8174, 8156, 8184, 8154, 8133, 8135, 8124,8.296178102493286
103, 8131, 8138, 8128, 8146, 8146, 8167, 8161, 8169, 8164, 8206, 8148, 8125, 8147, 8140,8.311798334121704
104, 8156, 8154, 8187, 8159, 8154, 8176, 8163, 8183, 8179, 8221, 8159, 8159, 8161, 8170,8.311798334121704
105, 8170, 8144, 8131, 8175, 8148, 8163, 8161, 8170, 8202, 8233, 8178, 8162, 8172, 8166,8.32788348197937
106, 8182, 8148, 8189, 8153, 8134, 8141, 8134, 8176, 8199, 8221, 8175, 8172, 8173, 8163,8.32788348197937
107, 8180, 8159, 8166, 8152, 8142, 8147, 8131, 8170, 8205, 8218, 8179, 8173, 8181, 8167,8.343080043792725
108, 8162, 8149, 8132, 8151, 8144, 8147, 8133, 8157, 8192, 8199, 8176, 8158, 8167, 8152,8.343080043792725
109, 8162, 8169, 8198, 8145, 8138, 8151, 8130, 8170, 8160, 8177, 8168, 8171, 8150, 8138,8.359064817428589
110, 8177, 8191, 8143, 8179, 8156, 8159, 8155, 8164, 8178, 8199, 8186, 8170, 8165, 8139,8.359064817428589
111, 8184, 8195, 8190, 8185, 8167, 8168, 8165, 8171, 8186, 8207, 8192, 8169, 8170, 8153,8.375004291534424
112, 8170, 8184, 8171, 8180, 8166, 8179, 8173, 8174, 8175, 8214, 8180, 8160, 8165, 8153,8.375004291534424
113, 8157, 8163, 8126, 8171, 8164, 8182, 8177, 8172, 8167, 8210, 8157, 8147, 8155, 8146,8.390162706375122
114, 8166, 8166, 8197, 8159, 8161, 8193, 8180, 8186, 8190, 8208, 8147, 8164, 8153, 8162,8.390162706375122
115, 8180, 8159, 8141, 8173, 8164, 8184, 8195, 8172, 8239, 8248, 8170, 8160, 8180, 8180,8.405832052230835
116, 8192, 8153, 8179, 8161, 8154, 8165, 8173, 8178, 8224, 8245, 8177, 8170, 8192, 8188,8.405832052230835
117, 8179, 8154, 8170, 8140, 8147, 8160, 8156, 8178, 8198, 8209, 8168, 8169, 8179, 8170,8.420995473861694
118, 8172, 8151, 8121, 8137, 8149, 8148, 8157, 8162, 8207, 8198, 8166, 8160, 8177, 8160,8.43664026260376
119, 8192, 8169, 8207, 8139, 8153, 8158, 8155, 8172, 8203, 8199, 8188, 8198, 8195, 8176,8.43664026260376
120, 8193, 8172, 8151, 8149, 8160, 8166, 8164, 8169, 8197, 8202, 8207, 8195, 8202, 8168,8.437640905380249
121, 8187, 8173, 8171, 8142, 8156, 8153, 8149, 8180, 8171, 8181, 8187, 8180, 8181, 8156,8.45215654373169
122, 8187, 8185, 8192, 8154, 8158, 8159, 8144, 8178, 8160, 8170, 8178, 8186, 8170, 8152,8.45215654373169
123, 8180, 8174, 8142, 8168, 8164, 8166, 8163, 8163, 8172, 8182, 8191, 8165, 8169, 8142,8.467995882034302
124, 8175, 8170, 8206, 8160, 8159, 8176, 8169, 8180, 8173, 8185, 8173, 8160, 8160, 8148,8.467995882034302
125, 8177, 8174, 8154, 8181, 8165, 8179, 8179, 8174, 8184, 8204, 8151, 8151, 8160, 8155,8.483707904815674
126, 8189, 8175, 8171, 8176, 8157, 8171, 8171, 8170, 8179, 8203, 8157, 8161, 8160, 8158,8.500157356262207
127, 8184, 8165, 8191, 8152, 8149, 8176, 8164, 8176, 8183, 8200, 8177, 8169, 8164, 8158,8.500157356262207
236, 8171, 8146, 8128, 8146, 8154, 8170, 8161, 8169, 8195, 8210, 8177, 8152, 8170, 8157,8.500157356262207
0, 8180, 8153, 8204, 8136, 8149, 8163, 8146, 8178, 8181, 8194, 8166, 8173, 8167, 8171,8.515860557556152
1, 8179, 8154, 8154, 8137, 8147, 8155, 8149, 8164, 8183, 8190, 8179, 8169, 8173, 8167,8.515860557556152
2, 8169, 8136, 8144, 8120, 8142, 8146, 8133, 8159, 8168, 8175, 8173, 8154, 8165, 8147,8.531007289886475
3, 8173, 8149, 8186, 8116, 8146, 8163, 8128, 8173, 8160, 8168, 8168, 8173, 8161, 8149,8.531007289886475
4, 8188, 8160, 8130, 8135, 8159, 8160, 8146, 8165, 8176, 8176, 8188, 8172, 8172, 8158,8.546553134918213
5, 8180, 8153, 8181, 8116, 8149, 8150, 8131, 8172, 8155, 8151, 8175, 8169, 8156, 8148,8.546553134918213
6, 8158, 8142, 8141, 8113, 8146, 8158, 8130, 8167, 8151, 8160, 8162, 8155, 8146, 8125,8.563781976699829
7, 8174, 8150, 8161, 8129, 8160, 8163, 8141, 8173, 8162, 8172, 8171, 8158, 8154, 8135,8.563781976699829
8, 8189, 8168, 8222, 8142, 8168, 8175, 8152, 8184, 8166, 8162, 8178, 8177, 8162, 8154,8.579315423965454
9, 8176, 8159, 8148, 8154, 8172, 8177, 8170, 8165, 8190, 8178, 8180, 8167, 8171, 8153,8.579315423965454
10, 8179, 8165, 8213, 8152, 8177, 8183, 8168, 8179, 8191, 8182, 8177, 8180, 8167, 8162,8.59371542930603
11, 8178, 8174, 8185, 8167, 8180, 8183, 8172, 8177, 8178, 8174, 8177, 8167, 8163, 8155,8.59371542930603
12, 8165, 8157, 8152, 8162, 8165, 8161, 8165, 8165, 8161, 8152, 8153, 8136, 8148, 8136,8.608266830444336
13, 8157, 8145, 8205, 8143, 8147, 8161, 8153, 8169, 8149, 8140, 8136, 8145, 8130, 8134,8.624256134033203
14, 8156, 8132, 8138, 8147, 8142, 8168, 8153, 8153, 8153, 8155, 8147, 8144, 8137, 8136,8.624256134033203
15, 8161, 8137, 8182, 8132, 8138, 8172, 8139, 8166, 8141, 8152, 8145, 8152, 8139, 8143,8.641871452331543
16, 8160, 8143, 8163, 8142, 8151, 8168, 8141, 8169, 8152, 8158, 8143, 8147, 8138, 8141,8.64287281036377
17, 8164, 8134, 8144, 8154, 8154, 8156, 8146, 8164, 8164, 8161, 8146, 8142, 8145, 8145,8.654911994934082
18, 8175, 8141, 8210, 8138, 8140, 8172, 8150, 8176, 8174, 8167, 8148, 8174, 8159, 8167,8.654911994934082
19, 8168, 8136, 8137, 8134, 8144, 8169, 8166, 8168, 8198, 8194, 8157, 8170, 8171, 8170,8.670213460922241
20, 8163, 8131, 8176, 8123, 8144, 8146, 8146, 8174, 8172, 8173, 8147, 8166, 8157, 8157,8.670213460922241
21, 8166, 8144, 8177, 8128, 8147, 8152, 8136, 8167, 8152, 8153, 8140, 8162, 8152, 8143,8.686179637908936
22, 8173, 8145, 8143, 8132, 8156, 8158, 8142, 8159, 8161, 8162, 8145, 8158, 8161, 8145,8.686179637908936
23, 8176, 8144, 8207, 8120, 8153, 8155, 8131, 8172, 8160, 8162, 8154, 8180, 8162, 8155,8.702248096466064
24, 8176, 8145, 8153, 8144, 8156, 8142, 8136, 8163, 8176, 8175, 8178, 8175, 8170, 8152,8.702248096466064
25, 8187, 8165, 8198, 8159, 8157, 8139, 8138, 8172, 8178, 8168, 8179, 8183, 8171, 8155,8.718297719955444
26, 8176, 8167, 8190, 8149, 8157, 8150, 8139, 8169, 8175, 8148, 8166, 8183, 8160, 8149,8.718297719955444
27, 8162, 8147, 8135, 8135, 8151, 8134, 8125, 8154, 8167, 8139, 8164, 8168, 8152, 8137,8.733829736709595
28, 8183, 8169, 8225, 8150, 8153, 8136, 8120, 8171, 8152, 8146, 8180, 8200, 8157, 8145,8.733829736709595
29, 8182, 8178, 8168, 8186, 8171, 8149, 8146, 8169, 8163, 8163, 8188, 8192, 8156, 8139,8.749370813369751
30, 8156, 8153, 8164, 8163, 8160, 8144, 8136, 8170, 8150, 8135, 8157, 8157, 8128, 8126,8.749370813369751
31, 8151, 8154, 8176, 8154, 8146, 8155, 8135, 8170, 8137, 8121, 8147, 8149, 8125, 8125,8.764934539794922
32, 8162, 8167, 8133, 8185, 8156, 8166, 8155, 8158, 8144, 8137, 8165, 8148, 8140, 8131,8.764934539794922
33, 8169, 8180, 8204, 8188, 8168, 8174, 8154, 8171, 8135, 8131, 8166, 8171, 8132, 8143,8.7808518409729
34, 8162, 8178, 8156, 8192, 8174, 8168, 8160, 8164, 8143, 8142, 8168, 8166, 8140, 8144,8.7808518409729
35, 8165, 8182, 8175, 8187, 8166, 8164, 8154, 8167, 8140, 8145, 8162, 8158, 8150, 8145,8.796099662780762
36, 8169, 8195, 8198, 8190, 8174, 8178, 8161, 8176, 8142, 8149, 8164, 8170, 8156, 8149,8.796099662780762
37, 8160, 8180, 8127, 8191, 8187, 8167, 8174, 8165, 8159, 8157, 8170, 8161, 8170, 8140,8.812153100967407
38, 8161, 8176, 8195, 8169, 8174, 8163, 8160, 8177, 8147, 8155, 8166, 8176, 8176, 8146,8.812153100967407
39, 8169, 8180, 8155, 8186, 8167, 8173, 8168, 8170, 8143, 8177, 8170, 8169, 8186, 8158,8.82816219329834
40, 8173, 8161, 8156, 8180, 8162, 8170, 8174, 8168, 8144, 8176, 8164, 8156, 8181, 8156,8.82816219329834
41, 8165, 8149, 8186, 8146, 8156, 8174, 8170, 8171, 8156, 8159, 8151, 8167, 8171, 8150,8.844085931777954
42, 8160, 8141, 8115, 8138, 8153, 8160, 8170, 8153, 8162, 8149, 8149, 8158, 8175, 8146,8.844085931777954
43, 8171, 8144, 8185, 8135, 8143, 8151, 8154, 8166, 8132, 8130, 8150, 8168, 8180, 8151,8.860110998153687
44, 8182, 8149, 8158, 8152, 8154, 8156, 8162, 8165, 8142, 8154, 8175, 8178, 8201, 8151,8.860110998153687
45, 8188, 8154, 8149, 8147, 8165, 8145, 8161, 8164, 8154, 8155, 8190, 8189, 8199, 8143,8.875861406326294
46, 8183, 8172, 8197, 8135, 8160, 8145, 8151, 8176, 8149, 8127, 8184, 8195, 8179, 8136,8.875861406326294
47, 8181, 8174, 8141, 8161, 8168, 8156, 8170, 8167, 8163, 8148, 8188, 8176, 8185, 8138,8.891967296600342
48, 8193, 8180, 8211, 8173, 8175, 8171, 8174, 8175, 8156, 8154, 8190, 8187, 8184, 8147,8.891967296600342
49, 8184, 8178, 8176, 8183, 8183, 8182, 8175, 8169, 8158, 8140, 8183, 8173, 8171, 8137,8.907105207443237
50, 8165, 8161, 8143, 8170, 8180, 8177, 8173, 8167, 8171, 8143, 8157, 8147, 8160, 8127,8.907105207443237
51, 8159, 8160, 8199, 8155, 8172, 8181, 8182, 8182, 8174, 8158, 8141, 8159, 8165, 8135,8.923187494277954
52, 8169, 8154, 8131, 8165, 8169, 8177, 8199, 8169, 8182, 8170, 8152, 8151, 8180, 8142,8.923187494277954
53, 8182, 8151, 8178, 8143, 8154, 8168, 8181, 8173, 8164, 8142, 8140, 8150, 8167, 8149,8.940928936004639
54, 8173, 8151, 8168, 8135, 8147, 8166, 8174, 8171, 8166, 8141, 8138, 8150, 8164, 8144,8.940928936004639
55, 8174, 8155, 8149, 8147, 8150, 8155, 8167, 8164, 8176, 8158, 8165, 8156, 8182, 8145,8.95501971244812
56, 8197, 8177, 8222, 8144, 8151, 8156, 8155, 8176, 8167, 8146, 8194, 8194, 8192, 8161,8.95501971244812
57, 8208, 8178, 8162, 8152, 8162, 8150, 8170, 8165, 8174, 8149, 8214, 8201, 8197, 8163,8.971529006958008
58, 8207, 8177, 8208, 8154, 8170, 8147, 8164, 8172, 8167, 8155, 8205, 8213, 8185, 8162,8.971529006958008
59, 8191, 8174, 8199, 8158, 8176, 8155, 8160, 8175, 8164, 8162, 8185, 8204, 8166, 8142,8.987346410751343
60, 8176, 8159, 8151, 8152, 8170, 8143, 8162, 8163, 8160, 8149, 8168, 8165, 8147, 8119,8.987346410751343
