COUNTER,F3,FC5,AF3,F7,T7,P7,O1,O2,P8,T8,F8,AF4,FC6,F4,Timestamp
102, 8156, 8162, 8128, 8186, 8175, 8164, 8180, 8161, 8163, 8175, 8160, 8160, 8209, 8176,0.04178786277770996
103, 8144, 8154, 8162, 8168, 8178, 8157, 8163, 8161, 8138, 8159, 8151, 8163, 8194, 8162,0.04178786277770996
104, 8131, 8162, 8158, 8162, 8177, 8161, 8158, 8168, 8130, 8158, 8143, 8156, 8187, 8157,0.05755209922790527
105, 8129, 8147, 8112, 8165, 8169, 8155, 8160, 8166, 8146, 8162, 8140, 8139, 8196, 8156,0.05755209922790527
106, 8141, 8145, 8188, 8150, 8165, 8163, 8160, 8179, 8141, 8158, 8151, 8165, 8205, 8166,0.07199788093566895
107, 8142, 8150, 8134, 8155, 8178, 8167, 8175, 8169, 8146, 8169, 8170, 8165, 8209, 8165,0.0873563289642334
108, 8146, 8164, 8181, 8160, 8180, 8159, 8159, 8164, 8133, 8152, 8165, 8169, 8195, 8157,0.0873563289642334
109, 8154, 8183, 8189, 8184, 8185, 8165, 8153, 8158, 8123, 8145, 8175, 8183, 8199, 8157,0.10322117805480957
110, 8166, 8180, 8136, 8191, 8194, 8164, 8163, 8164, 8125, 8155, 8199, 8180, 8216, 8167,0.10322117805480957
111, 8173, 8181, 8219, 8166, 8191, 8171, 8159, 8185, 8120, 8144, 8199, 8193, 8209, 8170,0.11801433563232422
112, 8164, 8182, 8169, 8188, 8203, 8174, 8174, 8166, 8136, 8161, 8199, 8182, 8209, 8162,0.11801433563232422
113, 8170, 8188, 8193, 8209, 8218, 8181, 8184, 8171, 8141, 8184, 8191, 8178, 8205, 8173,0.13401341438293457
114, 8172, 8191, 8201, 8215, 8224, 8196, 8193, 8183, 8157, 8201, 8185, 8180, 8206, 8187,0.13401341438293457
115, 8156, 8166, 8134, 8210, 8213, 8182, 8191, 8167, 8162, 8197, 8177, 8160, 8209, 8176,0.14926934242248535
116, 8149, 8158, 8198, 8180, 8194, 8172, 8172, 8169, 8133, 8171, 8159, 8167, 8196, 8163,0.14926934242248535
117, 8149, 8156, 8137, 8177, 8195, 8167, 8178, 8159, 8143, 8179, 8166, 8164, 8201, 8160,0.16521525382995605
118, 8161, 8162, 8163, 8175, 8197, 8158, 8172, 8166, 8149, 8172, 8170, 8165, 8203, 8170,0.16521525382995605
119, 8175, 8185, 8200, 8187, 8203, 8169, 8178, 8177, 8153, 8170, 8182, 8187, 8209, 8176,0.18073439598083496
120, 8178, 8191, 8135, 8213, 8214, 8169, 8198, 8169, 8178, 8186, 8202, 8181, 8216, 8170,0.18073439598083496
121, 8175, 8196, 8210, 8209, 8210, 8172, 8190, 8181, 8176, 8168, 8189, 8177, 8201, 8174,0.1962888240814209
122, 8162, 8183, 8156, 8211, 8213, 8171, 8193, 8173, 8178, 8165, 8168, 8150, 8192, 8169,0.1962888240814209
123, 8158, 8171, 8151, 8202, 8211, 8163, 8190, 8172, 8167, 8161, 8148, 8135, 8179, 8159,0.21148943901062012
124, 8158, 8178, 8191, 8198, 8197, 8179, 8194, 8178, 8162, 8153, 8135, 8145, 8166, 8167,0.21148943901062012
125, 8154, 8159, 8116, 8206, 8193, 8186, 8219, 8169, 8190, 8173, 8138, 8130, 8174, 8169,0.22711658477783203
126, 8157, 8148, 8181, 8182, 8186, 8189, 8216, 8183, 8204, 8192, 8144, 8138, 8183, 8172,0.22711658477783203
127, 8148, 8151, 8136, 8165, 8184, 8183, 8207, 8169, 8215, 8202, 8147, 8134, 8182, 8168,0.24215364456176758
236, 8152, 8149, 8126, 8151, 8184, 8163, 8184, 8159, 8204, 8188, 8139, 8131, 8173, 8162,0.24215364456176758
0, 8168, 8163, 8193, 8158, 8190, 8171, 8166, 8175, 8203, 8190, 8150, 8164, 8181, 8170,0.2582254409790039
1, 8165, 8157, 8125, 8169, 8198, 8165, 8167, 8160, 8215, 8197, 8169, 8166, 8194, 8167,0.2582254409790039
2, 8158, 8146, 8165, 8129, 8181, 8146, 8151, 8162, 8177, 8154, 8145, 8155, 8173, 8154,0.2738223075866699
3, 8151, 8147, 8128, 8125, 8176, 8156, 8162, 8171, 8164, 8149, 8124, 8134, 8158, 8142,0.2738223075866699
4, 8149, 8149, 8119, 8139, 8186, 8169, 8173, 8172, 8177, 8166, 8123, 8129, 8154, 8140,0.2889063358306885
5, 8140, 8155, 8182, 8126, 8190, 8174, 8162, 8172, 8171, 8144, 8122, 8146, 8144, 8137,0.2889063358306885
6, 8134, 8147, 8106, 8122, 8186, 8166, 8161, 8160, 8173, 8146, 8128, 8134, 8147, 8127,0.30452871322631836
7, 8157, 8158, 8166, 8121, 8182, 8171, 8158, 8175, 8167, 8150, 8131, 8145, 8143, 8133,0.30452871322631836
8, 8168, 8174, 8156, 8145, 8195, 8180, 8172, 8170, 8159, 8144, 8128, 8150, 8131, 8135,0.32041430473327637
9, 8164, 8176, 8138, 8161, 8202, 8170, 8169, 8159, 8146, 8131, 8116, 8142, 8122, 8132,0.32041430473327637
10, 8164, 8184, 8209, 8159, 8196, 8174, 8159, 8171, 8136, 8120, 8108, 8153, 8121, 8135,0.3359193801879883
11, 8150, 8172, 8122, 8166, 8195, 8174, 8178, 8160, 8138, 8131, 8102, 8121, 8119, 8125,0.3359193801879883
12, 8143, 8167, 8169, 8155, 8200, 8186, 8187, 8171, 8121, 8134, 8088, 8121, 8110, 8130,0.35137414932250977
13, 8146, 8169, 8164, 8164, 8209, 8204, 8197, 8171, 8139, 8157, 8104, 8144, 8128, 8145,0.35137414932250977
14, 8139, 8154, 8109, 8175, 8198, 8184, 8189, 8162, 8157, 8173, 8114, 8131, 8136, 8143,0.36740851402282715
15, 8132, 8154, 8184, 8159, 8177, 8182, 8179, 8178, 8135, 8160, 8102, 8131, 8121, 8140,0.36740851402282715
16, 8129, 8142, 8127, 8162, 8182, 8184, 8197, 8167, 8147, 8167, 8109, 8120, 8132, 8140,0.3834986686706543
17, 8144, 8146, 8167, 8166, 8188, 8175, 8189, 8172, 8162, 8164, 8117, 8134, 8147, 8152,0.3834986686706543
18, 8158, 8169, 8181, 8179, 8195, 8181, 8187, 8177, 8172, 8176, 8139, 8163, 8165, 8160,0.399019718170166
19, 8162, 8158, 8133, 8176, 8198, 8166, 8185, 8164, 8167, 8173, 8153, 8164, 8168, 8154,0.399019718170166
20, 8158, 8148, 8199, 8154, 8190, 8157, 8155, 8174, 8147, 8138, 8140, 8171, 8149, 8148,0.4150676727294922
21, 8157, 8156, 8135, 8177, 8193, 8161, 8166, 8171, 8173, 8161, 8152, 8169, 8165, 8148,0.4150676727294922
22, 8177, 8175, 8174, 8186, 8191, 8166, 8183, 8176, 8187, 8176, 8164, 8188, 8182, 8163,0.4311819076538086
23, 8171, 8181, 8195, 8178, 8193, 8176, 8185, 8177, 8181, 8164, 8158, 8196, 8183, 8166,0.4311819076538086
24, 8156, 8161, 8126, 8172, 8190, 8159, 8176, 8162, 8176, 8165, 8158, 8171, 8179, 8156,0.4473154544830322
25, 8170, 8169, 8201, 8155, 8171, 8149, 8157, 8169, 8157, 8160, 8162, 8180, 8166, 8160,0.4473154544830322
26, 8169, 8172, 8144, 8159, 8174, 8144, 8164, 8160, 8157, 8169, 8164, 8173, 8167, 8155,0.46289968490600586
27, 8158, 8158, 8152, 8144, 8181, 8143, 8159, 8159, 8142, 8153, 8146, 8160, 8156, 8141,0.46289968490600586
28, 8156, 8168, 8186, 8137, 8183, 8164, 8158, 8165, 8134, 8137, 8134, 8157, 8135, 8136,0.47821474075317383
29, 8152, 8173, 8125, 8156, 8187, 8163, 8165, 8159, 8144, 8148, 8138, 8143, 8129, 8132,0.47821474075317383
30, 8149, 8171, 8194, 8146, 8177, 8156, 8147, 8170, 8124, 8140, 8137, 8159, 8128, 8129,0.49336886405944824
31, 8137, 8163, 8143, 8147, 8176, 8155, 8150, 8159, 8117, 8143, 8145, 8150, 8133, 8121,0.49336886405944824
32, 8134, 8165, 8149, 8147, 8179, 8156, 8158, 8161, 8115, 8145, 8147, 8140, 8129, 8122,0.509319543838501
33, 8135, 8166, 8191, 8144, 8178, 8167, 8163, 8172, 8126, 8155, 8154, 8151, 8134, 8128,0.509319543838501
34, 8129, 8147, 8113, 8151, 8182, 8165, 8170, 8160, 8147, 8174, 8162, 8135, 8148, 8121,0.5244119167327881
35, 8135, 8165, 8186, 8153, 8187, 8169, 8151, 8170, 8131, 8157, 8146, 8144, 8143, 8124,0.5244119167327881
36, 8137, 8176, 8153, 8172, 8192, 8172, 8149, 8164, 8129, 8147, 8152, 8158, 8146, 8133,0.5404353141784668
37, 8129, 8150, 8132, 8149, 8181, 8160, 8148, 8163, 8131, 8146, 8159, 8154, 8139, 8133,0.5557830333709717
38, 8124, 8154, 8185, 8133, 8178, 8174, 8153, 8174, 8132, 8151, 8147, 8149, 8125, 8126,0.5557830333709717
39, 8133, 8167, 8129, 8175, 8190, 8177, 8164, 8155, 8150, 8161, 8148, 8135, 8134, 8122,0.5557830333709717
40, 8150, 8175, 8192, 8177, 8182, 8171, 8150, 8161, 8136, 8148, 8154, 8158, 8139, 8131,0.5714540481567383
41, 8145, 8172, 8156, 8167, 8181, 8179, 8161, 8166, 8133, 8163, 8160, 8163, 8142, 8136,0.5714540481567383
42, 8144, 8160, 8136, 8167, 8190, 8188, 8177, 8170, 8144, 8180, 8152, 8146, 8139, 8142,0.5874953269958496
43, 8153, 8167, 8202, 8169, 8187, 8198, 8172, 8176, 8147, 8180, 8149, 8160, 8139, 8149,0.5874953269958496
44, 8147, 8170, 8135, 8186, 8177, 8182, 8164, 8157, 8157, 8192, 8161, 8151, 8148, 8145,0.6034848690032959
45, 8150, 8176, 8195, 8190, 8166, 8179, 8158, 8172, 8146, 8181, 8157, 8155, 8140, 8155,0.6034848690032959
46, 8147, 8168, 8168, 8185, 8172, 8198, 8179, 8176, 8159, 8185, 8158, 8155, 8145, 8163,0.6190237998962402
47, 8131, 8141, 8116, 8152, 8169, 8188, 8180, 8162, 8162, 8185, 8147, 8134, 8139, 8145,0.6190237998962402
48, 8129, 8146, 8185, 8140, 8159, 8182, 8174, 8176, 8141, 8166, 8133, 8146, 8120, 8135,0.6343634128570557
49, 8140, 8158, 8127, 8170, 8164, 8179, 8188, 8171, 8162, 8186, 8152, 8149, 8134, 8148,0.6343634128570557
50, 8154, 8164, 8178, 8158, 8161, 8176, 8166, 8170, 8169, 8187, 8160, 8155, 8147, 8162,0.6504626274108887
51, 8146, 8163, 8169, 8160, 8158, 8177, 8163, 8167, 8176, 8185, 8159, 8152, 8146, 8151,0.6504626274108887
52, 8137, 8148, 8120, 8170, 8159, 8173, 8184, 8171, 8200, 8194, 8167, 8146, 8146, 8142,0.6660313606262207
53, 8147, 8157, 8194, 8144, 8158, 8183, 8183, 8184, 8209, 8199, 8173, 8168, 8152, 8154,0.6660313606262207
54, 8158, 8169, 8133, 8157, 8167, 8176, 8180, 8167, 8213, 8215, 8184, 8159, 8166, 8165,0.6811332702636719
55, 8164, 8176, 8173, 8169, 8163, 8159, 8162, 8170, 8195, 8191, 8178, 8162, 8164, 8167,0.6811332702636719
56, 8147, 8171, 8174, 8147, 8158, 8163, 8163, 8170, 8189, 8174, 8172, 8166, 8163, 8153,0.6963100433349609
57, 8138, 8153, 8116, 8122, 8160, 8162, 8175, 8159, 8186, 8178, 8170, 8145, 8156, 8134,0.6963100433349609
58, 8147, 8169, 8192, 8129, 8162, 8168, 8163, 8170, 8162, 8147, 8160, 8150, 8133, 8129,0.7124323844909668
59, 8131, 8168, 8131, 8174, 8167, 8163, 8159, 8161, 8159, 8126, 8152, 8129, 8120, 8118,0.7124323844909668
60, 8118, 8158, 8155, 8176, 8163, 8166, 8165, 8168, 8159, 8142, 8144, 8119, 8122, 8121,0.7300128936767578
61, 8120, 8169, 8169, 8171, 8164, 8200, 8193, 8176, 8187, 8191, 8152, 8131, 8144, 8143,0.7300128936767578
62, 8128, 8159, 8106, 8177, 8165, 8196, 8200, 8169, 8211, 8211, 8154, 8128, 8155, 8152,0.7431063652038574
63, 8137, 8153, 8179, 8164, 8153, 8176, 8170, 8183, 8197, 8186, 8151, 8146, 8152, 8160,0.7431063652038574
64, 8134, 8154, 8123, 8165, 8156, 8172, 8174, 8170, 8208, 8198, 8172, 8144, 8167, 8159,0.7596902847290039
65, 8136, 8152, 8134, 8150, 8157, 8164, 8169, 8166, 8197, 8189, 8168, 8142, 8161, 8149,0.7596902847290039
66, 8137, 8152, 8168, 8138, 8149, 8161, 8149, 8168, 8169, 8159, 8155, 8148, 8142, 8142,0.7763316631317139
67, 8138, 8145, 8106, 8142, 8149, 8153, 8142, 8153, 8168, 8158, 8169, 8141, 8141, 8131,0.7763316631317139
68, 8157, 8168, 8186, 8136, 8156, 8160, 8131, 8168, 8162, 8152, 8179, 8164, 8139, 8128,0.7894763946533203
69, 8161, 8180, 8147, 8162, 8167, 8158, 8143, 8165, 8172, 8163, 8180, 8162, 8143, 8127,0.8050973415374756
70, 8161, 8175, 8151, 8169, 8166, 8146, 8142, 8162, 8163, 8169, 8178, 8154, 8140, 8126,0.8050973415374756
71, 8162, 8186, 8195, 8158, 8165, 8158, 8134, 8169, 8145, 8172, 8186, 8161, 8135, 8126,0.8228788375854492
72, 8145, 8174, 8118, 8162, 8170, 8154, 8139, 8155, 8149, 8179, 8181, 8131, 8137, 8123,0.8228788375854492
73, 8130, 8160, 8177, 8159, 8162, 8161, 8138, 8166, 8143, 8172, 8156, 8122, 8134, 8131,0.8228788375854492
74, 8124, 8153, 8136, 8168, 8166, 8181, 8162, 8165, 8166, 8201, 8167, 8124, 8145, 8139,0.8380417823791504
75, 8133, 8149, 8125, 8152, 8169, 8176, 8171, 8164, 8191, 8214, 8175, 8126, 8157, 8150,0.8525149822235107
76, 8143, 8161, 8182, 8139, 8161, 8180, 8165, 8175, 8205, 8202, 8166, 8138, 8164, 8154,0.8525149822235107
77, 8146, 8157, 8113, 8157, 8159, 8173, 8168, 8165, 8209, 8205, 8179, 8130, 8169, 8139,0.8675901889801025
78, 8158, 8161, 8185, 8145, 8153, 8152, 8147, 8171, 8167, 8181, 8186, 8148, 8150, 8132,0.8675901889801025
79, 8155, 8172, 8163, 8152, 8160, 8143, 8136, 8162, 8152, 8170, 8196, 8160, 8155, 8133,0.8830244541168213
80, 8159, 8174, 8136, 8164, 8170, 8147, 8132, 8160, 8160, 8165, 8207, 8160, 8175, 8142,0.8830244541168213
81, 8168, 8182, 8203, 8158, 8171, 8161, 8139, 8176, 8161, 8161, 8206, 8170, 8175, 8151,0.899003267288208
82, 8154, 8167, 8136, 8159, 8166, 8150, 8152, 8165, 8159, 8178, 8194, 8139, 8163, 8138,0.899003267288208
83, 8138, 8156, 8182, 8150, 8155, 8154, 8139, 8170, 8138, 8173, 8170, 8127, 8144, 8124,0.9145212173461914
84, 8132, 8163, 8156, 8170, 8166, 8183, 8160, 8173, 8152, 8184, 8173, 8125, 8153, 8128,0.9145212173461914
85, 8137, 8159, 8119, 8179, 8172, 8186, 8192, 8173, 8173, 8207, 8181, 8113, 8168, 8144,0.9305047988891602
86, 8142, 8158, 8192, 8149, 8160, 8179, 8183, 8174, 8169, 8210, 8172, 8123, 8166, 8151,0.9305047988891602
87, 8143, 8152, 8127, 8149, 8166, 8164, 8171, 8151, 8183, 8216, 8168, 8114, 8168, 8148,0.9460084438323975
88, 8168, 8165, 8180, 8160, 8168, 8167, 8163, 8167, 8187, 8211, 8164, 8130, 8165, 8159,0.9460084438323975
89, 8175, 8172, 8174, 8159, 8162, 8184, 8171, 8176, 8195, 8210, 8168, 8142, 8172, 8159,0.9612631797790527
90, 8152, 8150, 8112, 8131, 8153, 8163, 8157, 8158, 8191, 8187, 8161, 8123, 8163, 8135,0.9612631797790527
91, 8140, 8156, 8177, 8116, 8143, 8150, 8123, 8166, 8168, 8154, 8155, 8131, 8144, 8123,0.9774119853973389
92, 8153, 8170, 8137, 8157, 8156, 8157, 8135, 8164, 8181, 8180, 8190, 8145, 8168, 8134,0.9774119853973389
93, 8176, 8183, 8188, 8172, 8178, 8161, 8142, 8168, 8186, 8197, 8215, 8172, 8191, 8154,0.9930393695831299
94, 8170, 8192, 8186, 8178, 8190, 8167, 8140, 8169, 8183, 8193, 8206, 8169, 8183, 8148,0.9930393695831299
95, 8157, 8187, 8137, 8194, 8190, 8169, 8149, 8168, 8178, 8196, 8197, 8138, 8171, 8134,1.0083708763122559
96, 8161, 8200, 8212, 8195, 8190, 8185, 8163, 8179, 8160, 8192, 8192, 8152, 8169, 8149,1.0083708763122559
97, 8155, 8189, 8138, 8203, 8197, 8187, 8185, 8163, 8167, 8204, 8187, 8147, 8176, 8162,1.023679256439209
98, 8158, 8166, 8166, 8180, 8181, 8181, 8176, 8173, 8169, 8202, 8176, 8145, 8177, 8172,1.023679256439209
99, 8172, 8171, 8200, 8169, 8170, 8184, 8172, 8180, 8175, 8202, 8182, 8162, 8186, 8184,1.0388786792755127
100, 8176, 8169, 8134, 8177, 8173, 8156, 8162, 8160, 8177, 8192, 8186, 8156, 8185, 8169,1.0388786792755127
101, 8175, 8177, 8200, 8161, 8167, 8153, 8129, 8170, 8151, 8161, 8184, 8169, 8169, 8157,1.0540149211883545
102, 8174, 8181, 8147, 8162, 8172, 8165, 8133, 8166, 8148, 8167, 8208, 8173, 8175, 8160,1.0540149211883545
103, 8177, 8180, 8167, 8155, 8174, 8148, 8131, 8167, 8128, 8158, 8205, 8172, 8168, 8156,1.070002794265747
104, 8163, 8189, 8204, 8163, 8178, 8156, 8133, 8177, 8117, 8136, 8186, 8164, 8150, 8140,1.070002794265747
105, 8151, 8179, 8122, 8179, 8195, 8173, 8158, 8167, 8140, 8138, 8176, 8134, 8145, 8132,1.085474967956543
106, 8152, 8172, 8186, 8163, 8190, 8181, 8160, 8171, 8133, 8139, 8159, 8134, 8139, 8136,1.085474967956543
107, 8135, 8164, 8145, 8170, 8175, 8179, 8166, 8159, 8134, 8162, 8160, 8124, 8140, 8127,1.1015002727508545
108, 8131, 8161, 8141, 8174, 8168, 8178, 8169, 8161, 8149, 8176, 8168, 8119, 8146, 8131,1.1015002727508545
109, 8141, 8165, 8182, 8169, 8171, 8192, 8176, 8173, 8166, 8181, 8174, 8134, 8159, 8142,1.1175315380096436
110, 8138, 8147, 8110, 8170, 8169, 8187, 8187, 8159, 8175, 8201, 8182, 8126, 8171, 8140,1.1175315380096436
111, 8148, 8156, 8182, 8160, 8161, 8184, 8180, 8173, 8161, 8202, 8184, 8147, 8172, 8151,1.1330523490905762
112, 8160, 8167, 8154, 8175, 8168, 8179, 8179, 8173, 8174, 8207, 8194, 8159, 8186, 8161,1.1330523490905762
113, 8163, 8157, 8144, 8176, 8163, 8160, 8157, 8169, 8176, 8195, 8196, 8156, 8184, 8153,1.1531383991241455
114, 8164, 8168, 8201, 8163, 8157, 8165, 8148, 8177, 8166, 8181, 8199, 8181, 8178, 8145,1.1531383991241455
115, 8164, 8172, 8136, 8170, 8170, 8165, 8167, 8165, 8171, 8189, 8211, 8182, 8186, 8142,1.1651780605316162
116, 8175, 8176, 8200, 8163, 8168, 8158, 8144, 8175, 8155, 8177, 8206, 8187, 8176, 8149,1.1651780605316162
117, 8177, 8186, 8171, 8175, 8162, 8162, 8130, 8175, 8164, 8187, 8210, 8181, 8173, 8147,1.1804587841033936
118, 8177, 8181, 8153, 8186, 8162, 8156, 8139, 8169, 8170, 8190, 8210, 8169, 8175, 8136,1.1804587841033936
119, 8184, 8188, 8224, 8193, 8170, 8161, 8145, 8170, 8156, 8178, 8201, 8181, 8175, 8138,1.1958041191101074
120, 8174, 8190, 8138, 8206, 8178, 8169, 8158, 8163, 8177, 8197, 8199, 8160, 8178, 8143,1.1958041191101074
121, 8161, 8182, 8175, 8185, 8165, 8182, 8156, 8183, 8179, 8193, 8181, 8147, 8163, 8139,1.211787462234497
122, 8157, 8170, 8170, 8191, 8166, 8187, 8168, 8174, 8179, 8191, 8169, 8142, 8159, 8133,1.211787462234497
123, 8165, 8167, 8137, 8202, 8172, 8173, 8180, 8159, 8187, 8201, 8169, 8145, 8167, 8142,1.2273192405700684
124, 8167, 8177, 8190, 8182, 8166, 8182, 8182, 8177, 8187, 8197, 8172, 8163, 8168, 8152,1.2273192405700684
125, 8160, 8162, 8116, 8183, 8171, 8182, 8193, 8165, 8196, 8201, 8174, 8143, 8170, 8141,1.2433507442474365
126, 8166, 8163, 8168, 8182, 8165, 8173, 8182, 8163, 8186, 8185, 8158, 8146, 8163, 8135,1.2433507442474365
127, 8162, 8171, 8164, 8182, 8154, 8173, 8175, 8171, 8190, 8173, 8159, 8155, 8160, 8133,1.2582526206970215
236, 8167, 8158, 8120, 8175, 8149, 8158, 8161, 8171, 8188, 8162, 8173, 8151, 8165, 8130,1.2582526206970215
0, 8191, 8181, 8209, 8190, 8153, 8153, 8141, 8180, 8167, 8145, 8188, 8185, 8170, 8137,1.274024248123169
1, 8197, 8207, 8158, 8257, 8172, 8147, 8152, 8166, 8172, 8151, 8214, 8202, 8181, 8136,1.274024248123169
2, 8200, 8207, 8198, 8280, 8171, 8149, 8147, 8172, 8161, 8142, 8214, 8211, 8170, 8138,1.289431095123291
3, 8202, 8206, 8217, 8291, 8163, 8170, 8150, 8179, 8157, 8151, 8216, 8221, 8168, 8148,1.289431095123291
4, 8202, 8198, 8165, 8319, 8166, 8167, 8155, 8165, 8162, 8163, 8223, 8214, 8173, 8152,1.305044174194336
5, 8204, 8201, 8232, 8316, 8157, 8170, 8140, 8167, 8147, 8149, 8211, 8223, 8163, 8159,1.305044174194336
6, 8192, 8187, 8166, 8309, 8138, 8169, 8143, 8156, 8154, 8169, 8217, 8213, 8169, 8156,1.3205978870391846
7, 8196, 8179, 8196, 8293, 8127, 8154, 8134, 8163, 8153, 8161, 8218, 8214, 8177, 8159,1.3205978870391846
8, 8215, 8199, 8224, 8288, 8144, 8160, 8135, 8172, 8161, 8146, 8218, 8228, 8187, 8169,1.3363823890686035
9, 8224, 8210, 8160, 8293, 8160, 8155, 8146, 8163, 8180, 8169, 8233, 8224, 8200, 8170,1.3363823890686035
10, 8229, 8219, 8234, 8280, 8156, 8152, 8137, 8172, 8161, 8161, 8239, 8239, 8196, 8165,1.35201096534729
11, 8218, 8207, 8171, 8273, 8162, 8158, 8138, 8161, 8153, 8151, 8236, 8219, 8192, 8156,1.35201096534729
12, 8202, 8195, 8170, 8254, 8168, 8166, 8134, 8167, 8157, 8155, 8205, 8188, 8177, 8153,1.3670761585235596
13, 8189, 8201, 8200, 8254, 8176, 8180, 8144, 8177, 8163, 8173, 8182, 8178, 8168, 8150,1.3670761585235596
14, 8192, 8186, 8130, 8256, 8181, 8174, 8163, 8162, 8179, 8190, 8190, 8168, 8182, 8149,1.3826425075531006
15, 8207, 8184, 8194, 8220, 8166, 8172, 8157, 8169, 8189, 8190, 8196, 8192, 8196, 8167,1.3826425075531006
16, 8203, 8187, 8143, 8208, 8161, 8169, 8159, 8160, 8202, 8198, 8193, 8191, 8205, 8169,1.3983774185180664
17, 8209, 8187, 8147, 8201, 8161, 8153, 8142, 8158, 8176, 8168, 8190, 8187, 8195, 8160,1.3983774185180664
18, 8218, 8198, 8203, 8195, 8163, 8159, 8135, 8171, 8160, 8156, 8207, 8207, 8194, 8164,1.4141550064086914
19, 8207, 8193, 8135, 8203, 8173, 8160, 8155, 8165, 8186, 8194, 8219, 8191, 8200, 8164,1.4141550064086914
20, 8196, 8185, 8190, 8187, 8168, 8168, 8148, 8173, 8177, 8180, 8198, 8185, 8176, 8151,1.4304354190826416
21, 8182, 8173, 8141, 8186, 8165, 8174, 8154, 8164, 8178, 8166, 8192, 8175, 8176, 8141,1.4304354190826416
22, 8171, 8163, 8125, 8184, 8164, 8165, 8164, 8163, 8180, 8174, 8185, 8160, 8185, 8149,1.4448041915893555
23, 8164, 8175, 8179, 8176, 8164, 8182, 8164, 8174, 8163, 8169, 8163, 8154, 8177, 8150,1.4606890678405762
24, 8160, 8162, 8100, 8176, 8164, 8184, 8170, 8159, 8168, 8173, 8158, 8136, 8179, 8141,1.4606890678405762
25, 8166, 8150, 8163, 8155, 8158, 8178, 8165, 8169, 8168, 8177, 8154, 8148, 8173, 8145,1.4606890678405762
26, 8161, 8154, 8145, 8160, 8166, 8191, 8183, 8173, 8186, 8191, 8154, 8145, 8174, 8143,1.4752237796783447
27, 8157, 8150, 8114, 8157, 8168, 8192, 8196, 8173, 8207, 8189, 8147, 8128, 8179, 8143,1.4904468059539795
28, 8155, 8143, 8165, 8128, 8150, 8184, 8192, 8181, 8201, 8174, 8132, 8128, 8173, 8147,1.4904468059539795
29, 8147, 8127, 8092, 8126, 8147, 8164, 8191, 8162, 8194, 8173, 8131, 8110, 8170, 8134,1.5091657638549805
30, 8165, 8140, 8154, 8128, 8155, 8166, 8167, 8171, 8185, 8173, 8138, 8131, 8176, 8140,1.5091657638549805
31, 8178, 8161, 8158, 8145, 8164, 8178, 8164, 8174, 8197, 8193, 8159, 8149, 8186, 8157,1.5241940021514893
32, 8181, 8161, 8135, 8148, 8166, 8162, 8169, 8169, 8198, 8184, 8166, 8140, 8178, 8155,1.5241940021514893
33, 8195, 8178, 8200, 8135, 8169, 8163, 8162, 8178, 8188, 8160, 8172, 8167, 8182, 8149,1.5390303134918213
34, 8203, 8180, 8133, 8153, 8173, 8163, 8166, 8163, 8198, 8182, 8188, 8172, 8197, 8145,1.5400207042694092
35, 8204, 8177, 8191, 8149, 8162, 8156, 8160, 8173, 8177, 8171, 8178, 8171, 8185, 8146,1.5400207042694092
36, 8196, 8181, 8187, 8149, 8169, 8166, 8160, 8179, 8170, 8152, 8178, 8174, 8192, 8147,1.5556237697601318
37, 8192, 8177, 8132, 8165, 8180, 8163, 8154, 8169, 8177, 8165, 8185, 8159, 8202, 8142,1.5556237697601318
38, 8191, 8193, 8207, 8175, 8182, 8175, 8150, 8180, 8172, 8189, 8176, 8163, 8190, 8148,1.5722770690917969
39, 8186, 8192, 8140, 8192, 8197, 8190, 8178, 8174, 8197, 8223, 8182, 8162, 8205, 8154,1.5722770690917969
40, 8190, 8179, 8169, 8176, 8192, 8192, 8177, 8180, 8206, 8223, 8186, 8169, 8216, 8160,1.5854296684265137
41, 8178, 8177, 8180, 8171, 8185, 8198, 8177, 8182, 8211, 8219, 8170, 8156, 8199, 8157,1.6020042896270752
42, 8161, 8158, 8110, 8169, 8190, 8191, 8187, 8165, 8210, 8224, 8147, 8123, 8182, 8143,1.6020042896270752
43, 8163, 8152, 8178, 8134, 8178, 8185, 8178, 8171, 8179, 8207, 8148, 8136, 8176, 8140,1.6020042896270752
44, 8159, 8150, 8129, 8134, 8168, 8171, 8184, 8164, 8187, 8206, 8169, 8136, 8179, 8140,1.617546796798706
45, 8165, 8155, 8154, 8138, 8174, 8159, 8180, 8169, 8196, 8199, 8167, 8136, 8175, 8143,1.6331381797790527
46, 8182, 8170, 8180, 8140, 8185, 8172, 8175, 8174, 8205, 8206, 8175, 8157, 8185, 8156,1.6331381797790527
47, 8191, 8167, 8126, 8153, 8186, 8170, 8176, 8161, 8214, 8216, 8193, 8161, 8199, 8160,1.6487669944763184
48, 8194, 8181, 8205, 8154, 8176, 8168, 8162, 8167, 8195, 8192, 8185, 8173, 8187, 8155,1.6487669944763184
49, 8194, 8190, 8149, 8166, 8180, 8168, 8178, 8165, 8210, 8201, 8195, 8165, 8194, 8154,1.6656606197357178
50, 8203, 8191, 8166, 8163, 8186, 8170, 8182, 8177, 8220, 8215, 8210, 8174, 8202, 8163,1.6656606197357178
51, 8205, 8201, 8213, 8165, 8193, 8179, 8166, 8175, 8192, 8207, 8210, 8189, 8192, 8159,1.679382085800171
52, 8199, 8195, 8138, 8180, 8198, 8165, 8156, 8148, 8155, 8191, 8205, 8170, 8183, 8146,1.679382085800171
53, 8204, 8203, 8208, 8182, 8194, 8170, 8154, 8164, 8139, 8167, 8195, 8189, 8176, 8155,1.6951215267181396
54, 8197, 8204, 8173, 8198, 8205, 8181, 8177, 8164, 8172, 8193, 8200, 8189, 8185, 8161,1.6951215267181396
55, 8184, 8191, 8167, 8194, 8200, 8170, 8169, 8160, 8166, 8203, 8186, 8164, 8179, 8156,1.710007667541504
56, 8179, 8193, 8204, 8197, 8189, 8181, 8159, 8174, 8153, 8197, 8164, 8168, 8169, 8159,1.710007667541504
57, 8179, 8174, 8134, 8209, 8195, 8192, 8181, 8170, 8183, 8227, 8167, 8161, 8180, 8162,1.7254395484924316
58, 8187, 8160, 8192, 8170, 8183, 8185, 8175, 8171, 8186, 8223, 8165, 8166, 8185, 8164,1.7254395484924316
59, 8183, 8162, 8145, 8161, 8174, 8171, 8173, 8161, 8192, 8206, 8170, 8171, 8194, 8156,1.741410732269287
60, 8190, 8174, 8146, 8175, 8182, 8156, 8173, 8170, 8206, 8202, 8183, 8188, 8201, 8154,1.741410732269287
61, 8202, 8188, 8216, 8174, 8190, 8162, 8170, 8183, 8206, 8209, 8197, 8213, 8206, 8157,1.757460355758667
62, 8193, 8180, 8132, 8181, 8190, 8155, 8165, 8161, 8197, 8211, 8198, 8192, 8209, 8142,1.757460355758667
63, 8182, 8185, 8190, 8173, 8181, 8151, 8141, 8163, 8160, 8182, 8180, 8183, 8192, 8131,1.7732343673706055
64, 8176, 8188, 8173, 8183, 8188, 8159, 8148, 8163, 8144, 8177, 8183, 8177, 8183, 8129,1.7732343673706055
65, 8180, 8172, 8144, 8188, 8187, 8155, 8156, 8166, 8142, 8182, 8187, 8169, 8181, 8131,1.7882578372955322
66, 8174, 8170, 8199, 8176, 8173, 8162, 8154, 8177, 8140, 8179, 8176, 8179, 8176, 8134,1.7882578372955322
67, 8167, 8164, 8126, 8192, 8179, 8169, 8175, 8162, 8156, 8184, 8167, 8161, 8176, 8134,1.804208517074585
68, 8183, 8165, 8182, 8198, 8188, 8181, 8186, 8173, 8158, 8175, 8149, 8163, 8171, 8147,1.804208517074585
69, 8184, 8164, 8166, 8199, 8188, 8190, 8197, 8176, 8172, 8198, 8147, 8166, 8178, 8153,1.8196310997009277
70, 8167, 8148, 8123, 8184, 8182, 8186, 8196, 8166, 8175, 8207, 8142, 8153, 8172, 8146,1.8196310997009277
71, 8166, 8152, 8188, 8174, 8178, 8198, 8186, 8176, 8154, 8174, 8125, 8151, 8150, 8144,1.8356332778930664
72, 8167, 8154, 8123, 8194, 8175, 8176, 8185, 8165, 8155, 8181, 8125, 8134, 8154, 8138,1.8356332778930664
73, 8171, 8152, 8173, 8176, 8160, 8145, 8163, 8172, 8155, 8191, 8129, 8147, 8165, 8140,1.85174560546875
74, 8173, 8146, 8165, 8153, 8157, 8151, 8161, 8173, 8171, 8189, 8142, 8161, 8174, 8141,1.85174560546875
75, 8172, 8137, 8110, 8142, 8156, 8149, 8160, 8164, 8173, 8180, 8146, 8148, 8171, 8132,1.8674709796905518
76, 8174, 8160, 8184, 8140, 8152, 8155, 8143, 8174, 8151, 8160, 8146, 8162, 8164, 8123,1.8674709796905518
77, 8172, 8164, 8120, 8168, 8163, 8161, 8154, 8163, 8159, 8175, 8168, 8156, 8171, 8113,1.8822040557861328
78, 8183, 8163, 8164, 8163, 8164, 8157, 8154, 8173, 8147, 8182, 8181, 8158, 8169, 8116,1.8822040557861328
79, 8192, 8187, 8197, 8166, 8172, 8162, 8153, 8179, 8140, 8181, 8186, 8178, 8171, 8129,1.8983948230743408
80, 8202, 8196, 8151, 8194, 8188, 8158, 8150, 8163, 8147, 8176, 8189, 8180, 8179, 8139,1.8983948230743408
81, 8209, 8193, 8222, 8193, 8186, 8165, 8142, 8171, 8121, 8157, 8177, 8185, 8170, 8147,1.9134204387664795
82, 8183, 8172, 8145, 8190, 8180, 8169, 8164, 8162, 8120, 8164, 8161, 8156, 8163, 8133,1.9134204387664795
83, 8166, 8160, 8151, 8177, 8171, 8170, 8168, 8164, 8131, 8159, 8139, 8143, 8148, 8126,1.9290318489074707
84, 8171, 8169, 8180, 8179, 8175, 8184, 8167, 8173, 8141, 8162, 8137, 8158, 8148, 8136,1.9290318489074707
85, 8182, 8166, 8129, 8187, 8188, 8182, 8179, 8168, 8156, 8192, 8152, 8156, 8172, 8148,1.9441661834716797
86, 8197, 8179, 8206, 8180, 8178, 8190, 8186, 8178, 8163, 8199, 8155, 8173, 8181, 8161,1.9441661834716797
87, 8192, 8178, 8149, 8185, 8175, 8199, 8200, 8169, 8183, 8199, 8158, 8167, 8178, 8159,1.9600512981414795
88, 8187, 8162, 8151, 8158, 8174, 8184, 8185, 8173, 8180, 8185, 8153, 8166, 8173, 8153,1.9600512981414795
89, 8192, 8170, 8185, 8156, 8170, 8177, 8178, 8176, 8176, 8199, 8161, 8181, 8185, 8160,1.9751527309417725
90, 8190, 8166, 8120, 8174, 8165, 8161, 8186, 8160, 8176, 8204, 8168, 8166, 8192, 8162,1.9751527309417725
91, 8187, 8162, 8189, 8149, 8155, 8156, 8168, 8172, 8148, 8153, 8145, 8168, 8167, 8153,1.9910428524017334
92, 8177, 8168, 8141, 8154, 8163, 8163, 8164, 8166, 8146, 8145, 8143, 8162, 8161, 8136,1.9910428524017334
93, 8177, 8169, 8137, 8151, 8167, 8156, 8158, 8170, 8152, 8158, 8152, 8157, 8159, 8134,2.0130248069763184
94, 8179, 8172, 8187, 8131, 8166, 8154, 8151, 8185, 8154, 8151, 8148, 8165, 8145, 8133,2.0140247344970703
95, 8173, 8169, 8124, 8147, 8172, 8154, 8156, 8169, 8162, 8151, 8142, 8148, 8140, 8118,2.0140247344970703
96, 8179, 8184, 8198, 8151, 8169, 8166, 8140, 8175, 8152, 8152, 8138, 8159, 8139, 8119,2.021433115005493
97, 8185, 8191, 8167, 8156, 8175, 8171, 8152, 8173, 8173, 8179, 8156, 8169, 8158, 8134,2.0372064113616943
98, 8186, 8181, 8149, 8168, 8187, 8166, 8170, 8166, 8174, 8182, 8160, 8162, 8161, 8138,2.0372064113616943
99, 8175, 8180, 8199, 8168, 8188, 8183, 8167, 8173, 8140, 8159, 8132, 8154, 8142, 8123,2.053187608718872
100, 8159, 8162, 8119, 8164, 8179, 8176, 8164, 8162, 8134, 8163, 8106, 8121, 8134, 8105,2.053187608718872
101, 8168, 8163, 8182, 8156, 8175, 8173, 8159, 8168, 8135, 8168, 8103, 8130, 8138, 8125,2.068218469619751
102, 8165, 8166, 8159, 8166, 8184, 8190, 8172, 8166, 8154, 8188, 8123, 8138, 8151, 8139,2.068218469619751
103, 8150, 8143, 8120, 8146, 8168, 8182, 8164, 8165, 8151, 8184, 8112, 8115, 8141, 8117,2.0835936069488525
104, 8154, 8145, 8177, 8129, 8156, 8181, 8153, 8177, 8138, 8168, 8100, 8122, 8135, 8114,2.0835936069488525
105, 8163, 8146, 8108, 8146, 8173, 8172, 8173, 8165, 8166, 8187, 8119, 8123, 8153, 8135,2.099794864654541
106, 8163, 8135, 8160, 8120, 8158, 8153, 8163, 8168, 8152, 8169, 8101, 8125, 8139, 8134,2.099794864654541
107, 8146, 8124, 8145, 8100, 8139, 8150, 8143, 8162, 8121, 8144, 8081, 8114, 8121, 8107,2.114616632461548
108, 8143, 8122, 8108, 8099, 8142, 8147, 8129, 8152, 8118, 8138, 8093, 8107, 8125, 8096,2.131472587585449
109, 8155, 8149, 8178, 8088, 8144, 8153, 8120, 8165, 8126, 8132, 8107, 8134, 8132, 8109,2.131472587585449
110, 8157, 8157, 8111, 8101, 8150, 8155, 8130, 8155, 8138, 8143, 8121, 8134, 8134, 8104,2.131472587585449
111, 8160, 8158, 8163, 8106, 8155, 8154, 8124, 8164, 8129, 8136, 8120, 8137, 8123, 8098,2.1460418701171875
112, 8148, 8161, 8165, 8110, 8162, 8166, 8137, 8172, 8143, 8137, 8115, 8127, 8121, 8094,2.1460418701171875
113, 8139, 8148, 8117, 8114, 8165, 8169, 8159, 8165, 8157, 8151, 8113, 8109, 8120, 8094,2.1600513458251953
114, 8145, 8155, 8195, 8121, 8168, 8182, 8156, 8177, 8146, 8158, 8115, 8135, 8114, 8110,2.1752099990844727
115, 8145, 8161, 8129, 8152, 8179, 8181, 8160, 8169, 8150, 8178, 8128, 8132, 8125, 8114,2.1752099990844727
116, 8148, 8161, 8157, 8147, 8172, 8170, 8155, 8171, 8139, 8167, 8116, 8123, 8124, 8108,2.190706729888916
117, 8151, 8162, 8178, 8138, 8172, 8187, 8164, 8170, 8147, 8164, 8106, 8129, 8119, 8111,2.190706729888916
118, 8155, 8154, 8128, 8145, 8177, 8194, 8175, 8162, 8174, 8187, 8114, 8121, 8130, 8124,2.20634126663208
119, 8160, 8165, 8197, 8139, 8169, 8199, 8166, 8182, 8176, 8190, 8116, 8134, 8138, 8135,2.20634126663208
120, 8155, 8162, 8141, 8151, 8172, 8193, 8177, 8172, 8187, 8197, 8123, 8130, 8142, 8130,2.2213551998138428
121, 8161, 8154, 8168, 8151, 8166, 8180, 8168, 8172, 8173, 8190, 8124, 8137, 8133, 8129,2.2213551998138428
122, 8164, 8161, 8186, 8154, 8157, 8178, 8157, 8177, 8151, 8187, 8127, 8150, 8132, 8130,2.237657308578491
123, 8156, 8147, 8114, 8143, 8158, 8165, 8155, 8160, 8150, 8189, 8127, 8131, 8136, 8122,2.237657308578491
124, 8150, 8140, 8183, 8104, 8148, 8167, 8142, 8163, 8143, 8166, 8112, 8130, 8123, 8114,2.252885580062866
125, 8138, 8133, 8121, 8104, 8144, 8171, 8150, 8155, 8152, 8163, 8111, 8117, 8121, 8099,2.252885580062866
126, 8137, 8126, 8127, 8094, 8145, 8162, 8145, 8162, 8153, 8151, 8109, 8117, 8122, 8098,2.2684178352355957
127, 8140, 8138, 8175, 8090, 8142, 8175, 8135, 8174, 8157, 8153, 8109, 8136, 8125, 8100,2.2684178352355957
236, 8143, 8143, 8112, 8122, 8143, 8174, 8136, 8161, 8166, 8172, 8118, 8131, 8128, 8093,2.284008741378784
0, 8156, 8155, 8189, 8126, 8149, 8166, 8130, 8168, 8150, 8152, 8117, 8150, 8121, 8104,2.284008741378784
1, 8160, 8150, 8154, 8133, 8159, 8157, 8135, 8163, 8157, 8158, 8126, 8154, 8133, 8114,2.299494981765747
2, 8159, 8142, 8149, 8135, 8151, 8148, 8125, 8164, 8154, 8168, 8135, 8150, 8139, 8112,2.299494981765747
3, 8158, 8154, 8189, 8132, 8141, 8155, 8137, 8174, 8145, 8157, 8140, 8160, 8141, 8113,2.3154149055480957
4, 8160, 8152, 8118, 8132, 8147, 8148, 8166, 8161, 8156, 8155, 8143, 8145, 8151, 8113,2.3154149055480957
5, 8170, 8160, 8191, 8120, 8148, 8152, 8144, 8164, 8144, 8142, 8135, 8152, 8141, 8111,2.330993175506592
6, 8169, 8170, 8159, 8145, 8153, 8163, 8133, 8156, 8147, 8145, 8142, 8154, 8139, 8105,2.330993175506592
7, 8170, 8168, 8142, 8158, 8155, 8153, 8141, 8163, 8150, 8149, 8151, 8151, 8151, 8113,2.346444845199585
8, 8173, 8176, 8198, 8151, 8154, 8158, 8148, 8181, 8142, 8145, 8158, 8168, 8152, 8121,2.346444845199585
9, 8165, 8171, 8125, 8158, 8153, 8155, 8156, 8162, 8146, 8149, 8159, 8153, 8140, 8110,2.3619918823242188
10, 8172, 8178, 8188, 8155, 8147, 8158, 8142, 8165, 8134, 8140, 8149, 8158, 8129, 8116,2.3619918823242188
11, 8170, 8180, 8172, 8167, 8161, 8172, 8147, 8169, 8139, 8155, 8163, 8166, 8142, 8128,2.3775227069854736
12, 8155, 8160, 8144, 8168, 8167, 8165, 8149, 8166, 8135, 8150, 8164, 8151, 8137, 8120,2.3775227069854736
13, 8149, 8162, 8193, 8154, 8149, 8169, 8140, 8166, 8108, 8124, 8138, 8150, 8115, 8111,2.3929977416992188
14, 8142, 8154, 8107, 8162, 8148, 8175, 8147, 8149, 8108, 8137, 8131, 8129, 8115, 8106,2.3929977416992188
15, 8141, 8143, 8163, 8154, 8157, 8179, 8139, 8165, 8116, 8146, 8126, 8125, 8112, 8103,2.4084036350250244
16, 8132, 8144, 8165, 8152, 8159, 8183, 8144, 8169, 8140, 8159, 8124, 8121, 8108, 8097,2.4084036350250244
17, 8135, 8143, 8123, 8154, 8154, 8171, 8153, 8162, 8152, 8173, 8126, 8114, 8119, 8103,2.424001693725586
18, 8157, 8153, 8192, 8156, 8154, 8177, 8153, 8177, 8154, 8173, 8138, 8144, 8135, 8127,2.424001693725586
19, 8162, 8152, 8131, 8172, 8164, 8176, 8158, 8166, 8179, 8184, 8160, 8150, 8155, 8132,2.4401097297668457
20, 8157, 8152, 8171, 8146, 8153, 8163, 8133, 8169, 8165, 8176, 8154, 8158, 8153, 8130,2.4401097297668457
21, 8150, 8155, 8172, 8134, 8148, 8156, 8126, 8170, 8155, 8173, 8150, 8158, 8149, 8126,2.456023931503296
22, 8149, 8150, 8127, 8151, 8155, 8147, 8135, 8160, 8160, 8167, 8152, 8141, 8148, 8111,2.456023931503296
23, 8151, 8164, 8195, 8147, 8158, 8167, 8134, 8172, 8139, 8149, 8151, 8157, 8135, 8104,2.4713239669799805
24, 8147, 8170, 8131, 8165, 8171, 8179, 8154, 8168, 8144, 8163, 8163, 8156, 8135, 8109,2.4713239669799805
25, 8154, 8165, 8168, 8171, 8165, 8170, 8156, 8178, 8155, 8167, 8148, 8150, 8137, 8131,2.487375020980835
26, 8156, 8159, 8173, 8163, 8152, 8177, 8159, 8177, 8171, 8182, 8133, 8148, 8151, 8143,2.487375020980835
27, 8158, 8151, 8114, 8148, 8153, 8174, 8163, 8165, 8183, 8209, 8157, 8153, 8162, 8143,2.503474712371826
28, 8176, 8172, 8203, 8145, 8162, 8176, 8159, 8179, 8173, 8192, 8178, 8184, 8157, 8147,2.503474712371826
29, 8188, 8183, 8156, 8179, 8169, 8181, 8173, 8168, 8175, 8178, 8175, 8177, 8161, 8142,2.5189995765686035
30, 8196, 8187, 8182, 8185, 8170, 8185, 8173, 8172, 8169, 8171, 8165, 8176, 8158, 8141,2.5189995765686035
31, 8179, 8192, 8200, 8193, 8183, 8203, 8184, 8179, 8178, 8185, 8178, 8185, 8160, 8143,2.534501552581787
32, 8156, 8168, 8119, 8199, 8179, 8198, 8196, 8167, 8197, 8200, 8173, 8157, 8165, 8143,2.534501552581787
33, 8164, 8162, 8194, 8172, 8160, 8192, 8174, 8175, 8186, 8188, 8141, 8160, 8162, 8148,2.549889326095581
34, 8174, 8167, 8151, 8175, 8172, 8187, 8180, 8166, 8196, 8200, 8150, 8169, 8176, 8147,2.549889326095581
35, 8176, 8164, 8153, 8167, 8167, 8170, 8181, 8169, 8191, 8192, 8166, 8174, 8180, 8144,2.565667152404785
36, 8167, 8163, 8188, 8143, 8143, 8166, 8165, 8178, 8171, 8165, 8163, 8181, 8166, 8139,2.565667152404785
37, 8155, 8150, 8116, 8143, 8150, 8158, 8160, 8159, 8164, 8161, 8163, 8164, 8156, 8123,2.5811944007873535
38, 8160, 8160, 8187, 8148, 8158, 8167, 8150, 8165, 8150, 8154, 8158, 8173, 8146, 8120,2.5811944007873535
39, 8163, 8171, 8154, 8176, 8167, 8181, 8156, 8167, 8163, 8162, 8155, 8170, 8145, 8123,2.5963406562805176
40, 8164, 8163, 8143, 8178, 8171, 8179, 8156, 8168, 8160, 8155, 8142, 8159, 8138, 8123,2.5963406562805176
41, 8163, 8157, 8180, 8157, 8163, 8190, 8160, 8173, 8154, 8164, 8139, 8167, 8135, 8129,2.61202335357666
42, 8157, 8146, 8113, 8162, 8161, 8189, 8175, 8159, 8167, 8196, 8148, 8151, 8139, 8132,2.61202335357666
43, 8165, 8155, 8189, 8167, 8162, 8186, 8174, 8174, 8151, 8183, 8137, 8157, 8130, 8134,2.6270408630371094
44, 8160, 8160, 8155, 8174, 8167, 8188, 8183, 8172, 8150, 8181, 8139, 8160, 8146, 8137,2.6270408630371094
45, 8153, 8145, 8131, 8150, 8155, 8178, 8174, 8158, 8152, 8185, 8139, 8151, 8155, 8139,2.642568349838257
46, 8155, 8146, 8184, 8131, 8144, 8175, 8164, 8166, 8150, 8172, 8131, 8156, 8142, 8134,2.642568349838257
47, 8154, 8144, 8107, 8150, 8154, 8165, 8173, 8162, 8164, 8182, 8146, 8146, 8152, 8126,2.6591501235961914
48, 8160, 8150, 8171, 8138, 8150, 8161, 8158, 8174, 8159, 8178, 8156, 8163, 8162, 8130,2.6591501235961914
49, 8167, 8163, 8167, 8137, 8149, 8167, 8155, 8167, 8175, 8186, 8169, 8182, 8172, 8136,2.6742401123046875
50, 8181, 8168, 8144, 8156, 8155, 8157, 8156, 8162, 8194, 8194, 8177, 8191, 8179, 8145,2.6742401123046875
51, 8186, 8181, 8202, 8158, 8152, 8154, 8143, 8177, 8185, 8181, 8180, 8203, 8177, 8147,2.690491199493408
52, 8174, 8173, 8130, 8158, 8144, 8147, 8142, 8163, 8186, 8184, 8193, 8184, 8175, 8134,2.690491199493408
53, 8183, 8176, 8194, 8153, 8137, 8146, 8127, 8166, 8169, 8174, 8191, 8194, 8163, 8128,2.7051503658294678
54, 8189, 8191, 8189, 8173, 8154, 8158, 8133, 8168, 8163, 8175, 8190, 8202, 8164, 8131,2.7051503658294678
55, 8180, 8181, 8140, 8181, 8163, 8156, 8146, 8169, 8167, 8183, 8182, 8178, 8161, 8138,2.7217113971710205
56, 8171, 8174, 8205, 8167, 8151, 8167, 8144, 8178, 8168, 8184, 8172, 8179, 8150, 8146,2.7217113971710205
57, 8167, 8161, 8135, 8172, 8156, 8173, 8162, 8166, 8194, 8207, 8178, 8170, 8166, 8147,2.737384796142578
58, 8176, 8163, 8174, 8165, 8163, 8178, 8165, 8176, 8187, 8212, 8161, 8175, 8170, 8153,2.737384796142578
59, 8170, 8170, 8177, 8169, 8157, 8189, 8166, 8177, 8175, 8206, 8148, 8176, 8161, 8149,2.751434326171875
60, 8149, 8145, 8117, 8153, 8143, 8169, 8164, 8163, 8183, 8195, 8150, 8159, 8166, 8134,2.7671425342559814
61, 8147, 8136, 8184, 8125, 8140, 8164, 8155, 8177, 8183, 8192, 8151, 8174, 8175, 8143,2.7671425342559814
62, 8166, 8147, 8133, 8155, 8154, 8167, 8164, 8172, 8198, 8222, 8164, 8174, 8186, 8159,2.783543586730957
63, 8189, 8160, 8175, 8167, 8152, 8164, 8159, 8176, 8199, 8218, 8178, 8188, 8193, 8171,2.783543586730957
64, 8185, 8161, 8185, 8149, 8148, 8165, 8153, 8177, 8197, 8208, 8188, 8202, 8198, 8174,2.798011064529419
65, 8170, 8148, 8114, 8143, 8151, 8155, 8149, 8163, 8197, 8216, 8183, 8183, 8193, 8165,2.798011064529419
66, 8170, 8155, 8187, 8132, 8142, 8163, 8141, 8174, 8188, 8205, 8171, 8190, 8187, 8158,2.814070224761963
67, 8155, 8146, 8131, 8129, 8138, 8159, 8147, 8165, 8195, 8200, 8183, 8186, 8191, 8143,2.814070224761963
68, 8152, 8143, 8150, 8122, 8137, 8143, 8138, 8171, 8185, 8192, 8186, 8187, 8182, 8141,2.829406499862671
69, 8164, 8172, 8183, 8145, 8149, 8154, 8144, 8182, 8183, 8199, 8192, 8203, 8185, 8153,2.829406499862671
70, 8168, 8175, 8128, 8167, 8159, 8151, 8149, 8173, 8187, 8197, 8204, 8197, 8186, 8146,2.8451149463653564
71, 8159, 8170, 8193, 8146, 8149, 8149, 8125, 8176, 8153, 8155, 8182, 8192, 8150, 8128,2.8451149463653564
72, 8143, 8167, 8136, 8166, 8150, 8165, 8144, 8163, 8143, 8153, 8157, 8164, 8132, 8119,2.8604202270507812
73, 8155, 8173, 8160, 8198, 8160, 8183, 8169, 8172, 8149, 8170, 8154, 8166, 8143, 8134,2.8604202270507812
74, 8170, 8184, 8198, 8212, 8174, 8199, 8182, 8185, 8168, 8194, 8172, 8190, 8165, 8149,2.876417875289917
75, 8154, 8158, 8103, 8197, 8170, 8183, 8187, 8164, 8188, 8217, 8169, 8170, 8172, 8142,2.876417875289917
76, 8146, 8149, 8171, 8157, 8147, 8175, 8168, 8171, 8183, 8197, 8149, 8174, 8156, 8146,2.892458438873291
77, 8158, 8160, 8148, 8171, 8153, 8175, 8173, 8174, 8206, 8200, 8165, 8185, 8170, 8156,2.892458438873291
78, 8178, 8167, 8148, 8179, 8166, 8158, 8168, 8174, 8210, 8208, 8182, 8201, 8190, 8160,2.9081852436065674
79, 8188, 8181, 8200, 8170, 8165, 8162, 8156, 8175, 8191, 8197, 8189, 8229, 8193, 8161,2.9081852436065674
80, 8179, 8181, 8126, 8189, 8167, 8167, 8159, 8162, 8193, 8196, 8201, 8215, 8187, 8146,2.9236433506011963
81, 8178, 8188, 8191, 8187, 8174, 8170, 8146, 8176, 8172, 8181, 8196, 8211, 8166, 8132,2.9236433506011963
82, 8174, 8192, 8169, 8188, 8192, 8171, 8157, 8174, 8172, 8189, 8203, 8211, 8171, 8132,2.938828945159912
83, 8171, 8187, 8152, 8192, 8197, 8172, 8170, 8163, 8181, 8189, 8212, 8209, 8183, 8143,2.938828945159912
84, 8174, 8197, 8207, 8202, 8193, 8188, 8173, 8173, 8178, 8190, 8208, 8220, 8180, 8152,2.95466685295105
85, 8169, 8191, 8137, 8221, 8194, 8180, 8190, 8171, 8192, 8219, 8208, 8207, 8185, 8147,2.95466685295105
86, 8165, 8182, 8192, 8201, 8182, 8173, 8182, 8181, 8180, 8209, 8199, 8212, 8182, 8150,2.9703707695007324
87, 8161, 8178, 8170, 8203, 8177, 8182, 8179, 8173, 8174, 8208, 8192, 8205, 8182, 8158,2.9703707695007324
88, 8168, 8174, 8138, 8210, 8181, 8181, 8188, 8168, 8175, 8226, 8183, 8190, 8186, 8158,2.985914945602417
89, 8168, 8183, 8198, 8194, 8178, 8181, 8184, 8179, 8167, 8218, 8174, 8198, 8179, 8159,2.985914945602417
90, 8162, 8174, 8126, 8193, 8173, 8169, 8183, 8160, 8180, 8221, 8183, 8183, 8184, 8160,3.0014989376068115
91, 8172, 8172, 8178, 8187, 8159, 8162, 8174, 8164, 8174, 8218, 8186, 8191, 8188, 8167,3.0014989376068115
92, 8170, 8177, 8169, 8186, 8158, 8171, 8178, 8169, 8176, 8217, 8182, 8199, 8186, 8157,3.0170817375183105
93, 8167, 8168, 8127, 8176, 8168, 8164, 8175, 8166, 8186, 8205, 8174, 8187, 8178, 8145,3.0170817375183105
94, 8179, 8178, 8207, 8159, 8166, 8159, 8170, 8179, 8186, 8190, 8175, 8207, 8179, 8159,3.032383918762207
95, 8183, 8184, 8150, 8173, 8167, 8149, 8185, 8169, 8197, 8201, 8202, 8210, 8198, 8163,3.032383918762207
96, 8193, 8191, 8192, 8176, 8170, 8141, 8165, 8176, 8184, 8187, 8216, 8221, 8201, 8161,3.047412633895874
97, 8193, 8202, 8192, 8187, 8174, 8153, 8155, 8177, 8187, 8181, 8220, 8232, 8200, 8167,3.047412633895874
98, 8188, 8194, 8138, 8193, 8179, 8153, 8174, 8171, 8200, 8193, 8215, 8221, 8198, 8166,3.063344955444336
99, 8198, 8196, 8220, 8176, 8184, 8160, 8183, 8188, 8192, 8189, 8209, 8229, 8191, 8165,3.063344955444336
100, 8197, 8191, 8160, 8192, 8190, 8164, 8188, 8175, 8193, 8191, 8225, 8220, 8194, 8159,3.079477310180664
101, 8200, 8197, 8189, 8204, 8182, 8161, 8175, 8175, 8173, 8176, 8224, 8223, 8193, 8167,3.079477310180664
102, 8203, 8207, 8211, 8206, 8180, 8167, 8179, 8178, 8163, 8173, 8216, 8226, 8193, 8169,3.094616174697876
103, 8182, 8181, 8139, 8202, 8176, 8158, 8176, 8159, 8152, 8174, 8201, 8187, 8174, 8148,3.094616174697876
104, 8162, 8172, 8198, 8181, 8166, 8163, 8153, 8164, 8119, 8150, 8173, 8180, 8145, 8134,3.1101386547088623
105, 8166, 8183, 8150, 8194, 8178, 8175, 8168, 8160, 8132, 8164, 8179, 8185, 8161, 8140,3.1101386547088623
106, 8190, 8191, 8176, 8204, 8178, 8176, 8174, 8168, 8152, 8182, 8194, 8197, 8180, 8164,3.1260411739349365
107, 8186, 8196, 8199, 8204, 8174, 8183, 8176, 8176, 8159, 8191, 8197, 8200, 8178, 8175,3.1260411739349365
108, 8170, 8183, 8130, 8203, 8184, 8174, 8193, 8168, 8177, 8204, 8189, 8180, 8179, 8163,3.1411221027374268
109, 8173, 8180, 8203, 8188, 8179, 8178, 8193, 8178, 8186, 8207, 8175, 8192, 8175, 8163,3.1411221027374268
110, 8172, 8175, 8153, 8193, 8170, 8179, 8197, 8166, 8202, 8223, 8180, 8189, 8185, 8169,3.1575229167938232
111, 8173, 8169, 8155, 8184, 8167, 8164, 8188, 8169, 8194, 8212, 8185, 8182, 8190, 8167,3.1575229167938232
112, 8180, 8180, 8196, 8176, 8176, 8177, 8190, 8181, 8189, 8204, 8190, 8194, 8193, 8163,3.173173189163208
113, 8188, 8179, 8131, 8185, 8185, 8177, 8201, 8163, 8201, 8223, 8206, 8197, 8208, 8170,3.173173189163208
114, 8201, 8186, 8213, 8181, 8181, 8172, 8186, 8170, 8192, 8211, 8214, 8224, 8206, 8188,3.188377857208252
115, 8205, 8197, 8186, 8204, 8187, 8174, 8191, 8169, 8209, 8219, 8229, 8229, 8212, 8186,3.188377857208252
116, 8213, 8199, 8178, 8203, 8190, 8167, 8190, 8170, 8216, 8223, 8227, 8224, 8213, 8176,3.204493284225464
117, 8220, 8207, 8222, 8192, 8193, 8177, 8189, 8179, 8199, 8207, 8223, 8238, 8207, 8176,3.204493284225464
118, 8211, 8198, 8150, 8208, 8200, 8178, 8198, 8164, 8193, 8210, 8228, 8222, 8209, 8170,3.22047758102417
119, 8202, 8196, 8210, 8195, 8185, 8172, 8173, 8171, 8161, 8188, 8214, 8221, 8198, 8161,3.22047758102417
120, 8196, 8199, 8174, 8198, 8182, 8167, 8169, 8167, 8155, 8182, 8221, 8224, 8200, 8156,3.2360334396362305
121, 8199, 8199, 8160, 8203, 8194, 8165, 8185, 8167, 8172, 8197, 8232, 8229, 8209, 8168,3.2360334396362305
122, 8199, 8208, 8223, 8205, 8197, 8180, 8189, 8177, 8168, 8202, 8216, 8233, 8194, 8176,3.2514092922210693
123, 8186, 8194, 8139, 8218, 8198, 8176, 8192, 8164, 8164, 8209, 8205, 8205, 8174, 8162,3.2514092922210693
124, 8183, 8187, 8192, 8195, 8198, 8180, 8186, 8182, 8165, 8196, 8204, 8209, 8169, 8163,3.2674479484558105
125, 8174, 8183, 8172, 8184, 8194, 8188, 8193, 8178, 8184, 8200, 8203, 8208, 8178, 8165,3.2674479484558105
126, 8175, 8169, 8139, 8179, 8181, 8176, 8190, 8164, 8185, 8206, 8186, 8188, 8165, 8159,3.283484935760498
127, 8192, 8176, 8211, 8173, 8174, 8187, 8188, 8180, 8178, 8205, 8179, 8203, 8159, 8167,3.283484935760498
236, 8188, 8168, 8135, 8179, 8182, 8190, 8202, 8167, 8186, 8209, 8183, 8194, 8167, 8169,3.2990334033966064
0, 8188, 8172, 8191, 8165, 8181, 8175, 8188, 8164, 8167, 8192, 8176, 8197, 8155, 8173,3.2990334033966064
1, 8196, 8190, 8195, 8172, 8181, 8177, 8192, 8169, 8177, 8205, 8191, 8215, 8166, 8182,3.3141348361968994
2, 8197, 8179, 8145, 8172, 8181, 8182, 8196, 8170, 8193, 8213, 8201, 8211, 8184, 8180,3.3141348361968994
3, 8191, 8174, 8212, 8144, 8175, 8186, 8178, 8178, 8181, 8203, 8187, 8216, 8181, 8175,3.329362630844116
4, 8181, 8164, 8141, 8142, 8176, 8174, 8186, 8163, 8188, 8221, 8181, 8202, 8185, 8169,3.329362630844116
5, 8188, 8165, 8173, 8141, 8171, 8165, 8183, 8171, 8181, 8202, 8179, 8207, 8180, 8171,3.3447721004486084
6, 8196, 8180, 8186, 8148, 8171, 8172, 8187, 8175, 8191, 8193, 8197, 8223, 8190, 8178,3.3447721004486084
7, 8197, 8171, 8143, 8149, 8168, 8159, 8190, 8165, 8211, 8221, 8218, 8224, 8209, 8186,3.360701560974121
8, 8197, 8170, 8210, 8126, 8155, 8151, 8173, 8177, 8193, 8208, 8204, 8239, 8202, 8185,3.360701560974121
9, 8198, 8178, 8151, 8145, 8170, 8151, 8180, 8171, 8198, 8195, 8205, 8226, 8200, 8173,3.3763105869293213
10, 8215, 8190, 8191, 8163, 8180, 8152, 8184, 8175, 8206, 8205, 8226, 8234, 8211, 8182,3.3763105869293213
11, 8218, 8194, 8206, 8166, 8180, 8161, 8190, 8178, 8205, 8219, 8236, 8249, 8216, 8189,3.391561508178711
12, 8212, 8187, 8143, 8167, 8184, 8151, 8198, 8168, 8197, 8203, 8219, 8224, 8204, 8177,3.391561508178711
13, 8209, 8197, 8220, 8151, 8180, 8155, 8186, 8180, 8180, 8171, 8200, 8223, 8189, 8169,3.407186985015869
14, 8189, 8189, 8156, 8156, 8182, 8168, 8184, 8173, 8192, 8188, 8213, 8218, 8195, 8167,3.407186985015869
15, 8187, 8183, 8167, 8159, 8185, 8161, 8171, 8176, 8185, 8189, 8217, 8217, 8192, 8175,3.4227795600891113
16, 8201, 8202, 8204, 8172, 8189, 8161, 8168, 8175, 8175, 8176, 8219, 8226, 8189, 8179,3.4227795600891113
17, 8193, 8196, 8134, 8179, 8186, 8161, 8174, 8159, 8174, 8179, 8218, 8208, 8187, 8160,3.4383881092071533
18, 8178, 8191, 8201, 8163, 8179, 8173, 8163, 8172, 8151, 8168, 8202, 8209, 8169, 8150,3.4383881092071533
19, 8171, 8193, 8155, 8178, 8187, 8178, 8178, 8167, 8166, 8182, 8202, 8198, 8169, 8154,3.453566312789917
20, 8177, 8189, 8158, 8184, 8181, 8170, 8184, 8171, 8176, 8190, 8194, 8188, 8173, 8159,3.4694299697875977
21, 8176, 8192, 8198, 8182, 8172, 8180, 8187, 8180, 8168, 8192, 8192, 8200, 8183, 8160,3.4704296588897705
22, 8167, 8185, 8128, 8189, 8174, 8177, 8197, 8164, 8176, 8206, 8207, 8191, 8194, 8157,3.4704296588897705
23, 8173, 8194, 8201, 8181, 8174, 8180, 8195, 8179, 8177, 8198, 8204, 8199, 8187, 8167,3.486185312271118
24, 8176, 8194, 8165, 8188, 8183, 8189, 8209, 8182, 8192, 8208, 8206, 8196, 8196, 8172,3.486185312271118
25, 8179, 8176, 8153, 8171, 8173, 8177, 8199, 8176, 8193, 8207, 8200, 8185, 8197, 8173,3.501270055770874
26, 8188, 8180, 8204, 8161, 8161, 8176, 8185, 8178, 8192, 8214, 8194, 8203, 8195, 8185,3.501270055770874
27, 8189, 8172, 8131, 8174, 8168, 8169, 8198, 8168, 8205, 8243, 8199, 8199, 8207, 8190,3.517548084259033
28, 8178, 8163, 8182, 8147, 8160, 8168, 8185, 8178, 8181, 8212, 8181, 8190, 8186, 8182,3.5325636863708496
29, 8160, 8154, 8143, 8143, 8154, 8171, 8175, 8173, 8171, 8183, 8169, 8178, 8168, 8164,3.5325636863708496
30, 8170, 8154, 8132, 8151, 8159, 8158, 8173, 8172, 8175, 8189, 8177, 8186, 8184, 8161,3.5470733642578125
31, 8183, 8173, 8204, 8142, 8159, 8162, 8169, 8183, 8176, 8194, 8194, 8211, 8198, 8174,3.5470733642578125
32, 8181, 8171, 8133, 8149, 8168, 8166, 8171, 8169, 8188, 8197, 8212, 8206, 8201, 8178,3.5623905658721924
33, 8196, 8177, 8194, 8147, 8169, 8166, 8156, 8181, 8174, 8183, 8205, 8229, 8194, 8186,3.5623905658721924
34, 8195, 8187, 8181, 8157, 8169, 8163, 8163, 8181, 8181, 8187, 8201, 8233, 8200, 8182,3.5775325298309326
35, 8184, 8181, 8149, 8163, 8173, 8156, 8171, 8172, 8197, 8192, 8208, 8217, 8206, 8172,3.5775325298309326
36, 8186, 8182, 8211, 8145, 8170, 8167, 8162, 8185, 8189, 8192, 8216, 8228, 8199, 8168,3.592989444732666
37, 8178, 8167, 8139, 8139, 8161, 8158, 8161, 8180, 8187, 8202, 8221, 8211, 8195, 8153,3.592989444732666
38, 8174, 8170, 8189, 8142, 8155, 8152, 8151, 8188, 8172, 8167, 8205, 8213, 8181, 8152,3.609013795852661
39, 8168, 8193, 8180, 8167, 8167, 8171, 8160, 8183, 8169, 8147, 8196, 8211, 8175, 8158,3.609013795852661
40, 8160, 8181, 8129, 8169, 8171, 8167, 8165, 8171, 8159, 8161, 8183, 8181, 8169, 8152,3.6243743896484375
41, 8161, 8173, 8201, 8162, 8162, 8176, 8169, 8188, 8150, 8180, 8171, 8189, 8167, 8154,3.6243743896484375
42, 8166, 8174, 8142, 8187, 8167, 8184, 8194, 8179, 8186, 8206, 8187, 8196, 8186, 8160,3.640357494354248
43, 8175, 8173, 8179, 8170, 8155, 8167, 8163, 8175, 8183, 8184, 8187, 8203, 8179, 8163,3.640357494354248
44, 8182, 8176, 8186, 8154, 8147, 8155, 8137, 8174, 8163, 8163, 8184, 8215, 8173, 8160,3.6554088592529297
45, 8197, 8182, 8146, 8169, 8160, 8153, 8155, 8173, 8165, 8175, 8200, 8226, 8191, 8164,3.6554088592529297
46, 8206, 8197, 8222, 8165, 8164, 8165, 8157, 8184, 8160, 8163, 8206, 8242, 8189, 8164,3.6705939769744873
47, 8180, 8188, 8146, 8172, 8165, 8157, 8149, 8166, 8154, 8155, 8202, 8207, 8168, 8136,3.6705939769744873
48, 8172, 8188, 8172, 8171, 8163, 8149, 8139, 8173, 8136, 8146, 8189, 8193, 8151, 8127,3.686249017715454
49, 8176, 8189, 8196, 8172, 8163, 8172, 8154, 8183, 8149, 8154, 8185, 8201, 8159, 8135,3.686249017715454
50, 8168, 8163, 8126, 8175, 8164, 8177, 8173, 8174, 8175, 8174, 8180, 8182, 8169, 8137,3.702380657196045
51, 8170, 8171, 8197, 8170, 8162, 8181, 8173, 8189, 8172, 8182, 8169, 8199, 8170, 8154,3.702380657196045
52, 8174, 8179, 8148, 8187, 8166, 8183, 8187, 8182, 8192, 8195, 8175, 8205, 8185, 8161,3.718078851699829
53, 8190, 8171, 8173, 8188, 8165, 8176, 8177, 8178, 8196, 8178, 8182, 8215, 8196, 8162,3.718078851699829
54, 8203, 8183, 8213, 8191, 8169, 8178, 8166, 8180, 8184, 8174, 8205, 8247, 8208, 8170,3.733142852783203
55, 8196, 8181, 8145, 8197, 8171, 8157, 8159, 8171, 8175, 8181, 8221, 8246, 8209, 8163,3.733142852783203
56, 8195, 8179, 8214, 8179, 8158, 8149, 8134, 8184, 8148, 8145, 8204, 8244, 8187, 8154,3.7486822605133057
57, 8199, 8183, 8173, 8196, 8164, 8161, 8135, 8175, 8147, 8148, 8209, 8238, 8191, 8158,3.7486822605133057
58, 8203, 8194, 8184, 8219, 8178, 8159, 8133, 8175, 8135, 8157, 8212, 8243, 8193, 8164,3.7641355991363525
59, 8200, 8208, 8229, 8233, 8189, 8171, 8140, 8184, 8122, 8141, 8204, 8252, 8185, 8161,3.7641355991363525
60, 8202, 8199, 8155, 8237, 8194, 8175, 8158, 8168, 8142, 8154, 8216, 8236, 8193, 8159,3.779280185699463
61, 8208, 8197, 8222, 8221, 8182, 8168, 8142, 8175, 8142, 8156, 8218, 8244, 8190, 8165,3.779280185699463
62, 8196, 8203, 8186, 8243, 8187, 8166, 8139, 8165, 8141, 8154, 8210, 8234, 8187, 8156,3.7947499752044678
63, 8191, 8201, 8174, 8250, 8194, 8172, 8152, 8163, 8137, 8163, 8208, 8217, 8193, 8151,3.7947499752044678
64, 8192, 8198, 8220, 8224, 8191, 8183, 8161, 8178, 8145, 8195, 8219, 8227, 8203, 8163,3.8100013732910156
65, 8184, 8175, 8137, 8217, 8189, 8169, 8165, 8170, 8163, 8214, 8214, 8206, 8206, 8161,3.8100013732910156
66, 8182, 8176, 8190, 8197, 8179, 8178, 8164, 8183, 8155, 8184, 8177, 8192, 8189, 8152,3.826026439666748
67, 8179, 8189, 8162, 8201, 8188, 8202, 8196, 8184, 8183, 8197, 8180, 8191, 8196, 8153,3.826026439666748
68, 8188, 8185, 8151, 8214, 8205, 8195, 8209, 8183, 8214, 8223, 8202, 8200, 8215, 8173,3.841487169265747
69, 8198, 8196, 8220, 8212, 8207, 8198, 8197, 8196, 8212, 8219, 8200, 8219, 8219, 8189,3.841487169265747
70, 8191, 8193, 8146, 8213, 8203, 8192, 8197, 8179, 8212, 8219, 8191, 8200, 8213, 8181,3.8574416637420654
71, 8193, 8188, 8199, 8192, 8194, 8186, 8185, 8176, 8191, 8203, 8173, 8200, 8193, 8181,3.8574416637420654
72, 8185, 8183, 8175, 8185, 8191, 8192, 8184, 8171, 8176, 8195, 8165, 8193, 8182, 8173,3.873211622238159
73, 8175, 8165, 8129, 8174, 8181, 8179, 8182, 8167, 8172, 8182, 8157, 8175, 8178, 8156,3.873211622238159
74, 8186, 8171, 8197, 8166, 8182, 8183, 8184, 8181, 8175, 8173, 8152, 8198, 8180, 8164,3.888336658477783
75, 8189, 8169, 8136, 8176, 8186, 8184, 8209, 8170, 8193, 8193, 8154, 8187, 8182, 8172,3.888336658477783
76, 8173, 8157, 8178, 8138, 8163, 8160, 8189, 8172, 8178, 8182, 8136, 8169, 8161, 8158,3.9034695625305176
77, 8153, 8150, 8153, 8120, 8157, 8149, 8162, 8171, 8171, 8165, 8126, 8161, 8154, 8138,3.9034695625305176
78, 8152, 8148, 8104, 8139, 8165, 8148, 8158, 8170, 8175, 8160, 8131, 8154, 8162, 8140,3.9190070629119873
79, 8164, 8164, 8188, 8140, 8161, 8158, 8158, 8187, 8180, 8162, 8141, 8178, 8172, 8159,3.937042713165283
80, 8175, 8166, 8131, 8148, 8170, 8159, 8173, 8176, 8208, 8192, 8156, 8174, 8193, 8161,3.937042713165283
81, 8192, 8172, 8168, 8147, 8171, 8164, 8167, 8181, 8201, 8179, 8145, 8178, 8185, 8158,3.937042713165283
82, 8185, 8176, 8170, 8142, 8163, 8169, 8163, 8182, 8190, 8161, 8137, 8184, 8168, 8155,3.950357675552368
83, 8164, 8161, 8112, 8129, 8164, 8145, 8149, 8169, 8185, 8163, 8136, 8161, 8159, 8143,3.950357675552368
84, 8165, 8173, 8190, 8124, 8171, 8151, 8126, 8184, 8155, 8142, 8124, 8162, 8146, 8136,3.966050386428833
85, 8170, 8184, 8133, 8155, 8182, 8167, 8147, 8172, 8155, 8143, 8139, 8164, 8151, 8136,3.966050386428833
86, 8173, 8182, 8164, 8150, 8186, 8164, 8158, 8174, 8161, 8149, 8150, 8178, 8154, 8144,3.9821956157684326
87, 8162, 8178, 8189, 8135, 8191, 8168, 8159, 8183, 8166, 8153, 8143, 8173, 8163, 8138,3.9821956157684326
88, 8154, 8169, 8127, 8144, 8192, 8163, 8159, 8164, 8163, 8156, 8130, 8144, 8151, 8123,3.9987785816192627
89, 8153, 8180, 8196, 8151, 8192, 8168, 8151, 8168, 8139, 8142, 8115, 8152, 8123, 8120,3.9987785816192627
90, 8138, 8174, 8137, 8166, 8201, 8172, 8164, 8170, 8151, 8158, 8121, 8147, 8185, 8114,4.022061586380005
91, 8133, 8156, 8152, 8144, 8187, 8167, 8159, 8179, 8157, 8153, 8124, 8142, 8267, 8114,4.022061586380005
92, 8134, 8163, 8189, 8140, 8182, 8183, 8162, 8180, 8151, 8145, 8123, 8143, 8235, 8122,4.022061586380005
93, 8135, 8164, 8122, 8162, 8201, 8192, 8186, 8172, 8169, 8170, 8125, 8131, 8148, 8127,4.044230699539185
94, 8149, 8168, 8189, 8149, 8202, 8193, 8192, 8192, 8182, 8181, 8130, 8155, 8139, 8135,4.044230699539185
95, 8155, 8167, 8146, 8159, 8196, 8188, 8212, 8182, 8200, 8191, 8140, 8154, 8181, 8140,4.044230699539185
96, 8154, 8158, 8154, 8159, 8187, 8181, 8218, 8175, 8194, 8170, 8123, 8143, 8158, 8144,4.059424877166748
97, 8150, 8157, 8188, 8133, 8178, 8191, 8209, 8182, 8183, 8165, 8119, 8152, 8127, 8146,4.074856758117676
98, 8145, 8144, 8114, 8124, 8168, 8178, 8203, 8169, 8189, 8189, 8135, 8141, 8144, 8150,4.074856758117676
99, 8154, 8143, 8190, 8112, 8154, 8168, 8183, 8179, 8176, 8167, 8116, 8146, 8142, 8155,4.090469598770142
100, 8149, 8141, 8144, 8112, 8156, 8172, 8181, 8171, 8183, 8156, 8106, 8142, 8129, 8140,4.090469598770142
101, 8144, 8139, 8122, 8104, 8159, 8160, 8171, 8164, 8176, 8157, 8118, 8135, 8133, 8129,4.106121063232422
102, 8152, 8155, 8184, 8106, 8165, 8159, 8159, 8171, 8155, 8144, 8122, 8148, 8136, 8131,4.106121063232422
103, 8151, 8149, 8121, 8126, 8174, 8157, 8163, 8162, 8167, 8151, 8127, 8143, 8144, 8118,4.122056245803833
104, 8160, 8161, 8182, 8131, 8177, 8159, 8161, 8178, 8173, 8155, 8142, 8164, 8159, 8128,4.122056245803833
105, 8176, 8185, 8162, 8152, 8191, 8171, 8177, 8179, 8190, 8157, 8163, 8179, 8182, 8154,4.138088226318359
106, 8182, 8178, 8146, 8141, 8184, 8166, 8173, 8177, 8196, 8152, 8161, 8171, 8183, 8153,4.138088226318359
107, 8166, 8171, 8201, 8114, 8163, 8162, 8156, 8185, 8183, 8157, 8147, 8172, 8162, 8141,4.1549601554870605
108, 8149, 8161, 8121, 8129, 8170, 8152, 8163, 8170, 8183, 8168, 8145, 8148, 8145, 8128,4.1549601554870605
109, 8163, 8170, 8184, 8136, 8173, 8156, 8152, 8177, 8162, 8143, 8140, 8156, 8132, 8129,4.170559644699097
110, 8163, 8177, 8177, 8138, 8166, 8165, 8147, 8172, 8149, 8146, 8141, 8165, 8144, 8138,4.170559644699097
111, 8147, 8154, 8133, 8128, 8163, 8156, 8143, 8161, 8131, 8150, 8122, 8136, 8135, 8133,4.171560525894165
112, 8147, 8145, 8191, 8119, 8162, 8168, 8143, 8175, 8122, 8128, 8096, 8134, 8109, 8125,4.185661315917969
113, 8149, 8145, 8123, 8141, 8163, 8174, 8162, 8166, 8153, 8141, 8105, 8132, 8115, 8130,4.185661315917969
114, 8157, 8152, 8175, 8147, 8161, 8176, 8158, 8171, 8143, 8142, 8110, 8138, 8116, 8138,4.201377868652344
115, 8159, 8159, 8178, 8156, 8168, 8191, 8166, 8175, 8143, 8153, 8111, 8139, 8121, 8132,4.216435194015503
116, 8159, 8149, 8132, 8155, 8167, 8181, 8170, 8168, 8168, 8175, 8109, 8133, 8138, 8140,4.216435194015503
117, 8164, 8155, 8201, 8137, 8163, 8176, 8153, 8173, 8166, 8177, 8114, 8157, 8145, 8156,4.231583833694458
118, 8164, 8154, 8136, 8151, 8174, 8177, 8167, 8163, 8169, 8172, 8136, 8156, 8151, 8146,4.231583833694458
119, 8164, 8148, 8170, 8139, 8166, 8178, 8173, 8175, 8167, 8149, 8129, 8158, 8153, 8143,4.247211217880249
120, 8157, 8147, 8177, 8117, 8157, 8181, 8171, 8175, 8178, 8160, 8129, 8162, 8159, 8144,4.247211217880249
121, 8158, 8139, 8126, 8116, 8162, 8165, 8173, 8161, 8182, 8171, 8149, 8163, 8158, 8137,4.262344837188721
122, 8170, 8155, 8204, 8114, 8163, 8158, 8164, 8177, 8165, 8141, 8153, 8195, 8153, 8143,4.262344837188721
123, 8170, 8161, 8146, 8136, 8168, 8149, 8161, 8173, 8182, 8152, 8162, 8185, 8167, 8144,4.277499675750732
124, 8169, 8162, 8173, 8137, 8171, 8148, 8147, 8180, 8189, 8169, 8169, 8168, 8169, 8144,4.277499675750732
125, 8167, 8175, 8201, 8140, 8180, 8172, 8153, 8184, 8177, 8163, 8166, 8171, 8164, 8147,4.293023109436035
126, 8164, 8163, 8143, 8156, 8180, 8174, 8167, 8169, 8167, 8166, 8153, 8158, 8164, 8148,4.293023109436035
127, 8161, 8154, 8208, 8146, 8161, 8179, 8164, 8181, 8158, 8174, 8141, 8161, 8154, 8155,4.309134483337402
236, 8153, 8150, 8136, 8154, 8163, 8185, 8181, 8174, 8176, 8187, 8143, 8145, 8154, 8155,4.309134483337402
0, 8164, 8148, 8152, 8150, 8164, 8169, 8167, 8169, 8173, 8173, 8144, 8150, 8158, 8147,4.324775695800781
1, 8170, 8150, 8205, 8139, 8154, 8165, 8145, 8171, 8161, 8161, 8150, 8176, 8163, 8141,4.324775695800781
2, 8167, 8148, 8133, 8144, 8164, 8163, 8154, 8162, 8170, 8166, 8162, 8172, 8176, 8143,4.340489625930786
3, 8183, 8168, 8200, 8141, 8173, 8170, 8155, 8174, 8163, 8152, 8166, 8189, 8179, 8154,4.340489625930786
4, 8188, 8174, 8162, 8154, 8173, 8172, 8167, 8165, 8163, 8157, 8176, 8192, 8177, 8148,4.356528997421265
5, 8182, 8165, 8163, 8145, 8170, 8162, 8171, 8168, 8156, 8157, 8163, 8180, 8164, 8136,4.356528997421265
6, 8171, 8169, 8203, 8136, 8167, 8171, 8171, 8182, 8158, 8143, 8149, 8181, 8151, 8132,4.3724799156188965
7, 8159, 8158, 8130, 8147, 8167, 8162, 8173, 8169, 8174, 8147, 8160, 8167, 8151, 8126,4.3724799156188965
8, 8165, 8167, 8200, 8147, 8169, 8157, 8164, 8178, 8159, 8144, 8158, 8173, 8144, 8130,4.388092279434204
9, 8173, 8184, 8172, 8175, 8182, 8169, 8174, 8175, 8160, 8166, 8160, 8167, 8152, 8138,4.388092279434204
10, 8182, 8177, 8159, 8178, 8179, 8173, 8161, 8171, 8156, 8173, 8166, 8162, 8153, 8146,4.403265476226807
11, 8177, 8172, 8205, 8161, 8171, 8184, 8151, 8181, 8149, 8161, 8161, 8174, 8148, 8147,4.403265476226807
12, 8163, 8166, 8133, 8177, 8183, 8182, 8180, 8170, 8172, 8179, 8156, 8163, 8156, 8140,4.419533014297485
13, 8181, 8181, 8204, 8192, 8183, 8182, 8188, 8176, 8179, 8185, 8152, 8183, 8160, 8156,4.419533014297485
14, 8193, 8186, 8180, 8206, 8182, 8187, 8195, 8174, 8187, 8196, 8163, 8191, 8172, 8166,4.435624837875366
15, 8180, 8162, 8148, 8192, 8183, 8179, 8195, 8166, 8182, 8197, 8155, 8171, 8167, 8158,4.435624837875366
16, 8169, 8164, 8204, 8180, 8180, 8189, 8189, 8169, 8173, 8188, 8144, 8177, 8155, 8153,4.450437545776367
17, 8163, 8163, 8123, 8195, 8180, 8186, 8193, 8160, 8186, 8195, 8157, 8164, 8163, 8145,4.450437545776367
18, 8162, 8150, 8172, 8172, 8166, 8177, 8177, 8176, 8177, 8180, 8146, 8161, 8158, 8146,4.46612024307251
19, 8161, 8142, 8167, 8154, 8154, 8178, 8188, 8176, 8192, 8198, 8143, 8164, 8169, 8157,4.46612024307251
20, 8171, 8137, 8130, 8146, 8146, 8158, 8193, 8166, 8210, 8209, 8163, 8163, 8184, 8159,4.481263160705566
21, 8175, 8150, 8189, 8139, 8144, 8161, 8176, 8182, 8204, 8180, 8172, 8188, 8179, 8162,4.481263160705566
22, 8165, 8148, 8116, 8153, 8154, 8168, 8188, 8176, 8217, 8179, 8179, 8190, 8183, 8167,4.497258424758911
23, 8171, 8144, 8165, 8136, 8144, 8155, 8180, 8182, 8211, 8175, 8175, 8188, 8184, 8167,4.497258424758911
24, 8178, 8148, 8171, 8127, 8136, 8149, 8163, 8178, 8201, 8168, 8174, 8182, 8182, 8154,4.512104749679565
25, 8178, 8146, 8129, 8134, 8141, 8147, 8156, 8165, 8193, 8159, 8175, 8172, 8177, 8146,4.512104749679565
26, 8187, 8166, 8202, 8136, 8144, 8160, 8160, 8182, 8184, 8150, 8175, 8194, 8174, 8157,4.527576208114624
27, 8194, 8170, 8141, 8153, 8150, 8160, 8177, 8174, 8195, 8160, 8186, 8187, 8179, 8158,4.528079986572266
28, 8197, 8161, 8182, 8141, 8151, 8155, 8164, 8174, 8175, 8144, 8177, 8182, 8165, 8154,4.543692350387573
29, 8182, 8159, 8185, 8130, 8150, 8161, 8153, 8174, 8159, 8141, 8160, 8175, 8150, 8146,4.543692350387573
30, 8158, 8148, 8114, 8134, 8137, 8146, 8150, 8165, 8153, 8144, 8145, 8144, 8134, 8127,4.559821367263794
31, 8156, 8153, 8186, 8128, 8130, 8150, 8143, 8175, 8127, 8118, 8135, 8152, 8118, 8123,4.559821367263794
32, 8155, 8149, 8135, 8140, 8147, 8161, 8162, 8165, 8133, 8119, 8136, 8143, 8121, 8127,4.575543642044067
33, 8152, 8143, 8156, 8128, 8142, 8155, 8160, 8168, 8140, 8119, 8127, 8127, 8115, 8120,4.575543642044067
34, 8150, 8148, 8171, 8126, 8130, 8162, 8160, 8172, 8142, 8122, 8127, 8128, 8113, 8105,4.591043472290039
35, 8144, 8141, 8120, 8148, 8140, 8168, 8175, 8164, 8151, 8136, 8125, 8121, 8122, 8108,4.591043472290039
36, 8146, 8147, 8205, 8143, 8143, 8180, 8171, 8177, 8152, 8132, 8111, 8134, 8125, 8130,4.607078790664673
37, 8148, 8152, 8146, 8155, 8146, 8180, 8173, 8168, 8175, 8156, 8127, 8132, 8141, 8138,4.607078790664673
38, 8165, 8156, 8154, 8161, 8149, 8173, 8169, 8174, 8185, 8177, 8145, 8144, 8152, 8148,4.623031854629517
39, 8166, 8161, 8188, 8152, 8148, 8181, 8175, 8182, 8187, 8174, 8141, 8155, 8149, 8153,4.623031854629517
40, 8151, 8141, 8113, 8139, 8139, 8172, 8177, 8161, 8189, 8164, 8135, 8125, 8144, 8143,4.638235807418823
41, 8162, 8147, 8190, 8122, 8132, 8172, 8161, 8171, 8184, 8155, 8143, 8147, 8147, 8154,4.638235807418823
42, 8168, 8157, 8155, 8138, 8146, 8181, 8175, 8174, 8210, 8175, 8162, 8163, 8169, 8164,4.653548240661621
43, 8168, 8150, 8151, 8138, 8152, 8171, 8182, 8174, 8210, 8173, 8156, 8151, 8169, 8160,4.653548240661621
44, 8177, 8158, 8196, 8136, 8148, 8167, 8172, 8180, 8193, 8157, 8143, 8156, 8153, 8155,4.669077157974243
45, 8172, 8149, 8126, 8140, 8142, 8149, 8161, 8164, 8193, 8149, 8141, 8148, 8148, 8141,4.669077157974243
46, 8165, 8146, 8192, 8122, 8133, 8149, 8142, 8172, 8179, 8131, 8136, 8158, 8139, 8131,4.684138059616089
47, 8174, 8157, 8168, 8143, 8152, 8166, 8161, 8174, 8193, 8151, 8156, 8162, 8151, 8138,4.684138059616089
48, 8193, 8161, 8157, 8151, 8158, 8154, 8163, 8169, 8189, 8157, 8158, 8158, 8154, 8142,4.700228452682495
49, 8175, 8167, 8199, 8134, 8142, 8149, 8142, 8173, 8151, 8130, 8135, 8152, 8131, 8125,4.700228452682495
50, 8152, 8159, 8123, 8156, 8150, 8157, 8155, 8167, 8158, 8140, 8133, 8126, 8132, 8118,4.71569299697876
51, 8169, 8160, 8193, 8169, 8165, 8175, 8166, 8182, 8175, 8156, 8139, 8144, 8146, 8148,4.71569299697876
52, 8174, 8161, 8169, 8173, 8168, 8181, 8180, 8177, 8193, 8178, 8155, 8158, 8163, 8164,4.73274040222168
53, 8168, 8150, 8138, 8173, 8163, 8175, 8184, 8173, 8208, 8202, 8165, 8148, 8170, 8158,4.73274040222168
54, 8168, 8153, 8198, 8168, 8160, 8189, 8180, 8181, 8205, 8198, 8153, 8149, 8164, 8159,4.7472686767578125
55, 8162, 8146, 8118, 8170, 8164, 8187, 8194, 8166, 8207, 8196, 8157, 8135, 8169, 8152,4.7472686767578125
56, 8174, 8149, 8175, 8157, 8156, 8176, 8190, 8179, 8205, 8198, 8171, 8152, 8177, 8158,4.763125896453857
57, 8183, 8156, 8171, 8160, 8154, 8177, 8188, 8178, 8224, 8210, 8182, 8166, 8185, 8162,4.763125896453857
58, 8179, 8153, 8129, 8160, 8156, 8161, 8171, 8162, 8217, 8192, 8174, 8154, 8176, 8149,4.779018402099609
59, 8173, 8163, 8196, 8141, 8147, 8151, 8144, 8174, 8179, 8159, 8168, 8164, 8167, 8141,4.779018402099609
60, 8176, 8168, 8132, 8158, 8149, 8144, 8152, 8167, 8181, 8170, 8192, 8171, 8185, 8143,4.794361352920532
61, 8197, 8187, 8195, 8174, 8159, 8153, 8160, 8173, 8182, 8165, 8204, 8195, 8188, 8158,4.809772491455078
62, 8194, 8198, 8210, 8180, 8168, 8173, 8175, 8174, 8188, 8161, 8207, 8196, 8183, 8157,4.809772491455078
63, 8179, 8173, 8148, 8173, 8163, 8162, 8180, 8171, 8192, 8159, 8202, 8167, 8178, 8145,4.809772491455078
64, 8184, 8178, 8211, 8179, 8158, 8166, 8176, 8188, 8180, 8156, 8194, 8179, 8176, 8156,4.824804306030273
65, 8186, 8181, 8149, 8208, 8166, 8176, 8190, 8170, 8189, 8184, 8195, 8170, 8190, 8168,4.824804306030273
66, 8182, 8164, 8179, 8183, 8160, 8176, 8183, 8168, 8179, 8174, 8179, 8163, 8187, 8174,4.841173887252808
67, 8184, 8162, 8190, 8165, 8159, 8187, 8188, 8176, 8182, 8168, 8180, 8175, 8190, 8175,4.841173887252808
68, 8184, 8155, 8132, 8173, 8162, 8177, 8196, 8171, 8204, 8192, 8189, 8172, 8200, 8167,4.85582971572876
69, 8181, 8153, 8200, 8160, 8156, 8169, 8177, 8182, 8204, 8194, 8182, 8180, 8195, 8170,4.87106990814209
70, 8182, 8154, 8140, 8164, 8157, 8166, 8174, 8170, 8221, 8202, 8200, 8174, 8210, 8171,4.87106990814209
71, 8193, 8163, 8165, 8156, 8151, 8157, 8163, 8168, 8206, 8183, 8205, 8180, 8209, 8167,4.8890581130981445
72, 8186, 8170, 8190, 8158, 8148, 8158, 8153, 8169, 8186, 8163, 8201, 8189, 8193, 8162,4.8890581130981445
73, 8176, 8157, 8130, 8164, 8156, 8155, 8151, 8156, 8187, 8171, 8206, 8173, 8187, 8150,4.8890581130981445
74, 8177, 8163, 8204, 8147, 8157, 8154, 8133, 8165, 8152, 8152, 8191, 8180, 8171, 8132,4.9031031131744385
75, 8162, 8167, 8143, 8160, 8163, 8143, 8133, 8159, 8135, 8142, 8175, 8165, 8161, 8111,4.918398141860962
76, 8162, 8167, 8158, 8163, 8156, 8131, 8122, 8165, 8138, 8135, 8177, 8159, 8161, 8117,4.918398141860962
77, 8174, 8174, 8206, 8159, 8144, 8144, 8118, 8174, 8141, 8135, 8184, 8175, 8164, 8132,4.934421062469482
78, 8169, 8161, 8125, 8161, 8150, 8143, 8130, 8160, 8145, 8145, 8175, 8158, 8160, 8125,4.934421062469482
79, 8168, 8168, 8194, 8146, 8152, 8155, 8125, 8173, 8136, 8140, 8166, 8162, 8147, 8123,4.951940298080444
80, 8169, 8179, 8168, 8167, 8157, 8171, 8140, 8172, 8147, 8154, 8175, 8160, 8146, 8129,4.951940298080444
81, 8173, 8171, 8162, 8189, 8153, 8159, 8151, 8169, 8141, 8150, 8164, 8149, 8143, 8140,4.951940298080444
82, 8178, 8172, 8196, 8189, 8147, 8163, 8164, 8173, 8139, 8150, 8154, 8155, 8151, 8147,4.96633243560791
83, 8171, 8160, 8123, 8187, 8149, 8167, 8184, 8160, 8157, 8176, 8159, 8145, 8161, 8144,4.96633243560791
84, 8171, 8161, 8192, 8174, 8149, 8177, 8179, 8170, 8145, 8171, 8150, 8150, 8151, 8146,4.981428384780884
85, 8165, 8161, 8153, 8186, 8154, 8183, 8186, 8164, 8153, 8174, 8150, 8133, 8154, 8139,4.997105598449707
86, 8164, 8154, 8135, 8195, 8148, 8172, 8183, 8165, 8163, 8181, 8155, 8119, 8156, 8133,4.997105598449707
87, 8179, 8167, 8191, 8191, 8152, 8182, 8182, 8181, 8170, 8184, 8163, 8145, 8159, 8147,5.011925935745239
88, 8185, 8162, 8123, 8193, 8164, 8176, 8198, 8169, 8189, 8197, 8177, 8145, 8176, 8160,5.011925935745239
89, 8182, 8160, 8187, 8178, 8154, 8162, 8180, 8177, 8176, 8182, 8169, 8153, 8166, 8156,5.027608394622803
90, 8173, 8164, 8164, 8186, 8158, 8164, 8173, 8174, 8174, 8178, 8175, 8156, 8158, 8143,5.027608394622803
91, 8176, 8160, 8140, 8184, 8166, 8157, 8172, 8165, 8176, 8181, 8193, 8157, 8167, 8144,5.043015956878662
92, 8189, 8176, 8205, 8176, 8156, 8158, 8156, 8176, 8161, 8179, 8206, 8186, 8175, 8154,5.043015956878662
93, 8195, 8179, 8132, 8200, 8155, 8150, 8140, 8163, 8150, 8182, 8224, 8187, 8178, 8149,5.059014797210693
94, 8201, 8176, 8189, 8186, 8154, 8138, 8125, 8167, 8128, 8154, 8219, 8190, 8165, 8147,5.059014797210693
95, 8192, 8173, 8182, 8176, 8151, 8140, 8149, 8170, 8144, 8159, 8215, 8189, 8173, 8147,5.074467182159424
96, 8186, 8168, 8143, 8185, 8155, 8147, 8164, 8167, 8161, 8172, 8210, 8177, 8178, 8141,5.074467182159424
97, 8187, 8180, 8206, 8175, 8162, 8163, 8148, 8172, 8137, 8154, 8194, 8180, 8156, 8138,5.09031081199646
98, 8183, 8175, 8130, 8185, 8166, 8156, 8154, 8160, 8131, 8156, 8183, 8161, 8147, 8134,5.09031081199646
99, 8192, 8176, 8178, 8196, 8165, 8158, 8154, 8172, 8128, 8153, 8175, 8163, 8151, 8141,5.105350017547607
100, 8192, 8186, 8187, 8206, 8179, 8184, 8157, 8173, 8133, 8165, 8184, 8168, 8158, 8145,5.105350017547607
101, 8178, 8172, 8131, 8203, 8187, 8182, 8167, 8162, 8135, 8178, 8172, 8150, 8152, 8139,5.121419668197632
102, 8178, 8170, 8206, 8195, 8177, 8182, 8177, 8176, 8139, 8165, 8144, 8160, 8146, 8145,5.121419668197632
103, 8175, 8165, 8146, 8207, 8176, 8184, 8195, 8162, 8165, 8175, 8150, 8147, 8160, 8146,5.137370824813843
104, 8166, 8155, 8167, 8185, 8163, 8176, 8176, 8168, 8150, 8181, 8151, 8137, 8155, 8140,5.137370824813843
105, 8158, 8156, 8174, 8172, 8158, 8179, 8172, 8178, 8152, 8187, 8142, 8140, 8149, 8140,5.152218818664551
106, 8163, 8151, 8120, 8175, 8166, 8170, 8180, 8167, 8186, 8199, 8143, 8132, 8159, 8146,5.152218818664551
107, 8166, 8148, 8189, 8151, 8155, 8163, 8152, 8173, 8164, 8181, 8134, 8141, 8151, 8140,5.16747522354126
108, 8151, 8141, 8123, 8148, 8148, 8156, 8149, 8160, 8137, 8165, 8129, 8125, 8149, 8122,5.16747522354126
109, 8161, 8155, 8155, 8152, 8160, 8158, 8160, 8164, 8139, 8158, 8149, 8140, 8163, 8136,5.183262586593628
110, 8188, 8187, 8205, 8180, 8182, 8178, 8170, 8175, 8161, 8188, 8193, 8188, 8190, 8158,5.183262586593628
111, 8198, 8182, 8146, 8205, 8179, 8165, 8158, 8165, 8166, 8203, 8203, 8186, 8194, 8151,5.19838809967041
112, 8198, 8180, 8215, 8188, 8158, 8154, 8129, 8169, 8133, 8166, 8178, 8180, 8168, 8146,5.19838809967041
113, 8190, 8188, 8167, 8205, 8173, 8166, 8151, 8163, 8134, 8169, 8187, 8170, 8166, 8150,5.214505672454834
114, 8194, 8195, 8177, 8222, 8189, 8172, 8167, 8171, 8135, 8183, 8202, 8174, 8174, 8157,5.214505672454834
115, 8199, 8204, 8215, 8225, 8184, 8177, 8163, 8176, 8130, 8193, 8209, 8193, 8185, 8167,5.230446100234985
116, 8197, 8196, 8148, 8236, 8184, 8176, 8180, 8161, 8139, 8203, 8205, 8190, 8190, 8165,5.230446100234985
117, 8207, 8202, 8228, 8234, 8187, 8191, 8192, 8176, 8129, 8183, 8185, 8202, 8172, 8170,5.2455995082855225
118, 8199, 8197, 8178, 8241, 8189, 8196, 8195, 8172, 8135, 8194, 8177, 8182, 8170, 8168,5.2455995082855225
119, 8188, 8176, 8155, 8219, 8176, 8179, 8177, 8163, 8134, 8195, 8169, 8161, 8168, 8159,5.261018991470337
120, 8192, 8176, 8204, 8201, 8174, 8185, 8180, 8171, 8133, 8181, 8174, 8185, 8172, 8166,5.261018991470337
121, 8206, 8175, 8144, 8228, 8192, 8186, 8199, 8166, 8161, 8208, 8204, 8196, 8202, 8185,5.276033878326416
122, 8222, 8189, 8218, 8235, 8188, 8191, 8194, 8183, 8178, 8221, 8207, 8212, 8210, 8194,5.276033878326416
123, 8203, 8188, 8179, 8225, 8184, 8193, 8206, 8177, 8189, 8215, 8200, 8190, 8196, 8174,5.291357755661011
124, 8191, 8168, 8152, 8207, 8184, 8178, 8203, 8164, 8172, 8206, 8204, 8175, 8192, 8170,5.307387590408325
125, 8205, 8178, 8206, 8209, 8181, 8177, 8183, 8168, 8149, 8192, 8200, 8204, 8196, 8179,5.307387590408325
126, 8208, 8183, 8135, 8228, 8182, 8172, 8177, 8157, 8155, 8184, 8191, 8197, 8193, 8172,5.307387590408325
127, 8212, 8191, 8205, 8214, 8173, 8175, 8162, 8172, 8152, 8174, 8188, 8202, 8187, 8177,5.32308030128479
236, 8215, 8193, 8192, 8218, 8170, 8177, 8172, 8175, 8176, 8199, 8205, 8210, 8204, 8184,5.32308030128479
0, 8217, 8183, 8166, 8217, 8173, 8162, 8184, 8173, 8187, 8197, 8209, 8209, 8207, 8182,5.338259220123291
1, 8223, 8196, 8221, 8203, 8177, 8171, 8181, 8181, 8174, 8160, 8206, 8231, 8199, 8180,5.338259220123291
2, 8220, 8199, 8143, 8218, 8184, 8165, 8188, 8168, 8185, 8172, 8225, 8222, 8213, 8174,5.354282855987549
3, 8216, 8201, 8208, 8211, 8181, 8146, 8175, 8180, 8178, 8188, 8230, 8220, 8214, 8169,5.354282855987549
4, 8207, 8203, 8202, 8213, 8186, 8154, 8179, 8180, 8177, 8195, 8223, 8216, 8202, 8162,5.369736909866333
5, 8202, 8191, 8152, 8228, 8184, 8157, 8177, 8163, 8167, 8181, 8202, 8191, 8185, 8151,5.369736909866333
6, 8192, 8196, 8221, 8218, 8176, 8165, 8162, 8171, 8138, 8166, 8183, 8185, 8172, 8146,5.386351585388184
7, 8180, 8186, 8146, 8214, 8188, 8172, 8178, 8167, 8153, 8188, 8189, 8169, 8179, 8143,5.386351585388184
8, 8182, 8179, 8182, 8211, 8189, 8175, 8175, 8171, 8154, 8174, 8175, 8168, 8165, 8145,5.401226282119751
9, 8186, 8193, 8200, 8243, 8191, 8180, 8170, 8165, 8143, 8168, 8169, 8175, 8162, 8149,5.401226282119751
10, 8194, 8192, 8154, 8259, 8200, 8173, 8183, 8157, 8154, 8196, 8181, 8175, 8180, 8154,5.416375160217285
11, 8192, 8186, 8215, 8221, 8192, 8183, 8191, 8172, 8167, 8204, 8176, 8183, 8180, 8159,5.416375160217285
12, 8173, 8169, 8142, 8211, 8177, 8180, 8205, 8160, 8184, 8206, 8167, 8159, 8175, 8146,5.433313369750977
13, 8183, 8169, 8171, 8205, 8176, 8170, 8204, 8169, 8183, 8200, 8165, 8164, 8175, 8152,5.433313369750977
14, 8195, 8182, 8187, 8207, 8189, 8185, 8205, 8178, 8197, 8215, 8178, 8177, 8185, 8168,5.448390960693359
15, 8181, 8167, 8123, 8203, 8180, 8181, 8194, 8165, 8205, 8222, 8176, 8152, 8183, 8156,5.463098526000977
16, 8177, 8167, 8195, 8177, 8170, 8173, 8179, 8173, 8188, 8201, 8166, 8160, 8172, 8152,5.463098526000977
17, 8173, 8169, 8145, 8185, 8190, 8174, 8201, 8165, 8200, 8210, 8176, 8163, 8186, 8159,5.463098526000977
18, 8166, 8162, 8162, 8179, 8183, 8169, 8190, 8168, 8190, 8204, 8174, 8161, 8193, 8153,5.479227542877197
19, 8159, 8162, 8176, 8167, 8160, 8160, 8162, 8172, 8169, 8187, 8180, 8170, 8193, 8139,5.4802281856536865
20, 8153, 8156, 8109, 8162, 8159, 8141, 8149, 8153, 8160, 8173, 8191, 8155, 8185, 8122,5.494298458099365
21, 8166, 8170, 8195, 8154, 8161, 8150, 8139, 8165, 8151, 8155, 8186, 8165, 8176, 8125,5.494298458099365
22, 8178, 8177, 8153, 8178, 8171, 8167, 8159, 8167, 8180, 8184, 8197, 8175, 8199, 8147,5.510242223739624
23, 8186, 8177, 8160, 8183, 8169, 8162, 8159, 8164, 8177, 8188, 8205, 8184, 8201, 8160,5.525630474090576
24, 8182, 8191, 8192, 8184, 8166, 8163, 8152, 8169, 8151, 8162, 8197, 8185, 8177, 8144,5.525630474090576
25, 8181, 8191, 8124, 8206, 8182, 8160, 8163, 8163, 8159, 8171, 8199, 8168, 8176, 8140,5.542449235916138
26, 8196, 8200, 8212, 8214, 8194, 8170, 8158, 8173, 8158, 8177, 8204, 8187, 8178, 8156,5.542449235916138
27, 8190, 8202, 8174, 8229, 8194, 8174, 8161, 8163, 8154, 8178, 8198, 8176, 8175, 8144,5.542449235916138
28, 8184, 8194, 8159, 8221, 8185, 8167, 8155, 8166, 8146, 8171, 8178, 8161, 8172, 8140,5.558563232421875
29, 8187, 8199, 8205, 8213, 8192, 8185, 8160, 8181, 8158, 8184, 8179, 8179, 8178, 8154,5.558563232421875
30, 8176, 8185, 8129, 8225, 8200, 8181, 8181, 8169, 8185, 8205, 8191, 8162, 8176, 8144,5.572251558303833
31, 8165, 8176, 8189, 8203, 8181, 8173, 8170, 8181, 8170, 8186, 8172, 8157, 8161, 8137,5.587413787841797
32, 8164, 8181, 8160, 8205, 8179, 8183, 8171, 8174, 8166, 8187, 8161, 8150, 8163, 8143,5.587413787841797
33, 8166, 8172, 8139, 8204, 8183, 8185, 8177, 8164, 8162, 8184, 8145, 8127, 8151, 8139,5.602743864059448
34, 8157, 8164, 8185, 8177, 8175, 8194, 8174, 8173, 8149, 8169, 8132, 8130, 8136, 8135,5.602743864059448
35, 8151, 8155, 8107, 8179, 8172, 8191, 8177, 8162, 8160, 8186, 8141, 8129, 8152, 8139,5.617990970611572
36, 8165, 8163, 8171, 8175, 8168, 8187, 8166, 8171, 8154, 8173, 8130, 8138, 8147, 8146,5.617990970611572
37, 8171, 8165, 8154, 8175, 8171, 8193, 8176, 8170, 8161, 8163, 8125, 8138, 8139, 8141,5.634033679962158
38, 8173, 8150, 8128, 8171, 8168, 8188, 8183, 8167, 8173, 8164, 8129, 8137, 8148, 8140,5.634033679962158
39, 8177, 8158, 8195, 8158, 8161, 8187, 8176, 8176, 8170, 8159, 8125, 8157, 8149, 8149,5.649676084518433
40, 8169, 8150, 8116, 8150, 8163, 8169, 8178, 8158, 8183, 8173, 8132, 8144, 8155, 8145,5.649676084518433
41, 8168, 8142, 8157, 8131, 8155, 8157, 8161, 8164, 8181, 8168, 8128, 8142, 8154, 8144,5.6655051708221436
42, 8165, 8140, 8154, 8134, 8148, 8165, 8166, 8168, 8177, 8158, 8112, 8137, 8146, 8139,5.6655051708221436
43, 8162, 8127, 8124, 8123, 8145, 8161, 8174, 8165, 8173, 8155, 8103, 8118, 8140, 8129,5.681467056274414
44, 8165, 8137, 8189, 8108, 8149, 8170, 8171, 8179, 8180, 8167, 8131, 8142, 8152, 8139,5.681467056274414
45, 8158, 8139, 8115, 8126, 8161, 8172, 8183, 8167, 8204, 8181, 8159, 8148, 8161, 8138,5.696420907974243
46, 8159, 8145, 8163, 8119, 8154, 8157, 8173, 8165, 8166, 8129, 8130, 8143, 8128, 8119,5.696420907974243
47, 8162, 8162, 8172, 8122, 8157, 8164, 8174, 8166, 8137, 8100, 8117, 8145, 8112, 8109,5.712054014205933
48, 8171, 8162, 8131, 8141, 8170, 8172, 8180, 8166, 8146, 8128, 8138, 8146, 8124, 8120,5.712054014205933
49, 8184, 8169, 8218, 8147, 8171, 8178, 8173, 8179, 8149, 8140, 8144, 8164, 8131, 8139,5.727090358734131
50, 8183, 8162, 8152, 8174, 8181, 8180, 8200, 8166, 8171, 8158, 8146, 8146, 8137, 8147,5.727090358734131
51, 8191, 8157, 8171, 8173, 8180, 8181, 8208, 8175, 8177, 8175, 8147, 8146, 8138, 8164,5.742997407913208
52, 8197, 8166, 8186, 8169, 8170, 8185, 8198, 8181, 8187, 8194, 8156, 8161, 8154, 8179,5.742997407913208
53, 8191, 8154, 8130, 8175, 8169, 8169, 8198, 8164, 8201, 8200, 8156, 8150, 8166, 8175,5.758478164672852
54, 8191, 8153, 8207, 8157, 8169, 8176, 8198, 8174, 8186, 8178, 8145, 8167, 8154, 8171,5.758478164672852
55, 8188, 8155, 8150, 8161, 8169, 8175, 8198, 8163, 8173, 8177, 8153, 8163, 8155, 8165,5.7737696170806885
56, 8194, 8155, 8167, 8158, 8160, 8153, 8177, 8160, 8142, 8157, 8152, 8154, 8148, 8159,5.7737696170806885
57, 8188, 8152, 8191, 8147, 8169, 8164, 8176, 8167, 8127, 8131, 8146, 8154, 8132, 8143,5.789005517959595
58, 8180, 8145, 8123, 8151, 8185, 8164, 8190, 8165, 8148, 8136, 8154, 8147, 8139, 8134,5.789005517959595
59, 8191, 8160, 8204, 8150, 8171, 8161, 8177, 8179, 8157, 8136, 8157, 8172, 8144, 8146,5.804505825042725
60, 8187, 8157, 8157, 8155, 8159, 8156, 8183, 8166, 8168, 8153, 8163, 8166, 8152, 8143,5.804505825042725
61, 8179, 8151, 8154, 8143, 8166, 8145, 8183, 8167, 8166, 8149, 8160, 8154, 8157, 8134,5.822047233581543
62, 8180, 8173, 8192, 8148, 8184, 8159, 8172, 8177, 8161, 8138, 8158, 8167, 8164, 8135,5.822047233581543
63, 8181, 8173, 8128, 8167, 8192, 8162, 8169, 8158, 8168, 8161, 8175, 8160, 8175, 8142,5.836078882217407
64, 8187, 8181, 8204, 8160, 8184, 8168, 8162, 8168, 8158, 8164, 8182, 8174, 8174, 8155,5.837079048156738
65, 8188, 8187, 8168, 8173, 8187, 8172, 8176, 8171, 8164, 8154, 8188, 8178, 8175, 8151,5.852080345153809
66, 8188, 8177, 8162, 8176, 8189, 8159, 8173, 8170, 8151, 8132, 8176, 8167, 8159, 8142,5.852080345153809
67, 8187, 8183, 8215, 8172, 8189, 8172, 8169, 8175, 8130, 8134, 8159, 8168, 8147, 8143,5.867328643798828
68, 8186, 8175, 8137, 8185, 8190, 8180, 8185, 8158, 8139, 8157, 8164, 8158, 8156, 8144,5.867328643798828
69, 8191, 8173, 8198, 8185, 8182, 8175, 8179, 8167, 8135, 8147, 8171, 8179, 8156, 8161,5.882730007171631
70, 8190, 8182, 8179, 8209, 8190, 8175, 8189, 8171, 8155, 8169, 8186, 8185, 8169, 8180,5.882730007171631
71, 8195, 8180, 8160, 8219, 8195, 8181, 8198, 8165, 8172, 8191, 8185, 8174, 8175, 8181,5.8980677127838135
72, 8189, 8176, 8209, 8198, 8182, 8194, 8198, 8172, 8164, 8179, 8166, 8172, 8159, 8175,5.8980677127838135
73, 8159, 8153, 8125, 8191, 8170, 8182, 8205, 8170, 8165, 8175, 8154, 8140, 8149, 8161,5.91417932510376
74, 8152, 8146, 8175, 8169, 8160, 8180, 8195, 8182, 8158, 8167, 8151, 8145, 8148, 8152,5.91417932510376
75, 8159, 8149, 8153, 8166, 8165, 8185, 8200, 8171, 8170, 8184, 8164, 8157, 8162, 8153,5.930119514465332
76, 8163, 8143, 8129, 8167, 8165, 8161, 8191, 8160, 8177, 8180, 8163, 8145, 8163, 8153,5.930119514465332
77, 8171, 8155, 8210, 8161, 8159, 8160, 8174, 8173, 8168, 8155, 8167, 8165, 8166, 8153,5.945176839828491
78, 8173, 8158, 8140, 8175, 8170, 8165, 8180, 8161, 8173, 8161, 8197, 8176, 8180, 8150,5.945176839828491
79, 8174, 8165, 8181, 8162, 8171, 8154, 8163, 8169, 8155, 8154, 8198, 8189, 8169, 8156,5.960384130477905
80, 8174, 8174, 8181, 8166, 8172, 8152, 8162, 8172, 8153, 8156, 8196, 8191, 8166, 8158,5.960384130477905
81, 8182, 8169, 8151, 8190, 8183, 8159, 8182, 8167, 8164, 8163, 8203, 8178, 8172, 8159,5.975830793380737
82, 8189, 8175, 8222, 8198, 8184, 8187, 8186, 8182, 8163, 8168, 8193, 8186, 8167, 8172,5.975830793380737
83, 8178, 8160, 8138, 8201, 8181, 8195, 8198, 8172, 8184, 8204, 8189, 8171, 8177, 8178,5.99287223815918
84, 8173, 8144, 8165, 8171, 8170, 8187, 8196, 8178, 8185, 8212, 8181, 8173, 8178, 8181,5.99287223815918
85, 8165, 8152, 8170, 8171, 8166, 8186, 8197, 8175, 8187, 8204, 8178, 8174, 8170, 8172,6.007406234741211
86, 8161, 8156, 8121, 8194, 8167, 8172, 8194, 8161, 8191, 8198, 8177, 8156, 8170, 8155,6.007406234741211
87, 8173, 8163, 8201, 8184, 8160, 8175, 8182, 8178, 8175, 8178, 8175, 8174, 8170, 8161,6.029343605041504
88, 8175, 8156, 8139, 8180, 8161, 8171, 8192, 8172, 8189, 8178, 8193, 8176, 8175, 8167,6.031340837478638
89, 8177, 8157, 8165, 8171, 8154, 8149, 8177, 8171, 8179, 8165, 8196, 8179, 8168, 8158,6.031340837478638
90, 8178, 8178, 8188, 8190, 8158, 8151, 8162, 8174, 8159, 8158, 8190, 8188, 8165, 8147,6.0555853843688965
91, 8177, 8173, 8133, 8216, 8172, 8161, 8167, 8170, 8164, 8173, 8191, 8173, 8166, 8154,6.0555853843688965
92, 8165, 8169, 8197, 8198, 8172, 8181, 8165, 8178, 8155, 8163, 8177, 8167, 8148, 8156,6.0555853843688965
93, 8141, 8159, 8124, 8194, 8169, 8187, 8180, 8160, 8154, 8162, 8161, 8140, 8136, 8135,6.06977105140686
94, 8146, 8146, 8136, 8182, 8155, 8179, 8178, 8167, 8155, 8169, 8154, 8136, 8137, 8144,6.086346864700317
95, 8158, 8148, 8175, 8175, 8151, 8184, 8182, 8179, 8168, 8195, 8169, 8167, 8155, 8173,6.086346864700317
96, 8167, 8149, 8119, 8180, 8158, 8172, 8192, 8160, 8182, 8206, 8183, 8177, 8174, 8180,6.086346864700317
97, 8196, 8166, 8201, 8168, 8153, 8165, 8178, 8169, 8171, 8177, 8186, 8201, 8172, 8186,6.100483179092407
98, 8202, 8168, 8155, 8176, 8151, 8162, 8172, 8165, 8182, 8184, 8213, 8205, 8183, 8192,6.116060256958008
99, 8193, 8171, 8164, 8176, 8151, 8150, 8153, 8163, 8173, 8180, 8225, 8204, 8185, 8192,6.116060256958008
100, 8206, 8201, 8224, 8191, 8163, 8162, 8155, 8175, 8175, 8177, 8229, 8228, 8188, 8200,6.131252288818359
101, 8216, 8199, 8157, 8217, 8177, 8168, 8182, 8170, 8200, 8204, 8241, 8227, 8200, 8205,6.131252288818359
102, 8205, 8193, 8210, 8201, 8177, 8171, 8176, 8176, 8177, 8193, 8227, 8223, 8186, 8199,6.1464684009552
103, 8190, 8197, 8167, 8206, 8186, 8177, 8179, 8170, 8171, 8193, 8222, 8203, 8176, 8190,6.1464684009552
104, 8200, 8203, 8166, 8227, 8186, 8175, 8187, 8176, 8185, 8210, 8227, 8199, 8181, 8195,6.162520885467529
105, 8197, 8202, 8204, 8227, 8181, 8182, 8194, 8184, 8195, 8216, 8224, 8212, 8184, 8202,6.162520885467529
106, 8172, 8169, 8119, 8200, 8181, 8175, 8204, 8162, 8211, 8223, 8207, 8181, 8185, 8188,6.178128719329834
107, 8177, 8165, 8186, 8171, 8173, 8174, 8191, 8171, 8205, 8208, 8187, 8177, 8176, 8186,6.178128719329834
108, 8189, 8180, 8159, 8187, 8174, 8170, 8183, 8172, 8212, 8200, 8197, 8184, 8179, 8191,6.1933064460754395
109, 8186, 8174, 8139, 8177, 8167, 8148, 8161, 8166, 8210, 8193, 8207, 8190, 8181, 8186,6.1933064460754395
110, 8187, 8176, 8201, 8155, 8161, 8156, 8146, 8178, 8195, 8188, 8210, 8206, 8180, 8181,6.208587884902954
111, 8188, 8179, 8124, 8186, 8174, 8162, 8161, 8171, 8193, 8194, 8216, 8181, 8177, 8167,6.208587884902954
112, 8181, 8187, 8182, 8195, 8176, 8156, 8153, 8171, 8169, 8167, 8198, 8174, 8156, 8153,6.22434139251709
113, 8166, 8182, 8171, 8193, 8181, 8159, 8163, 8166, 8172, 8174, 8195, 8173, 8164, 8156,6.22434139251709
114, 8167, 8163, 8135, 8196, 8192, 8164, 8184, 8173, 8189, 8205, 8205, 8166, 8182, 8169,6.239492416381836
115, 8167, 8163, 8198, 8193, 8184, 8175, 8186, 8184, 8178, 8200, 8196, 8173, 8167, 8168,6.239492416381836
116, 8150, 8148, 8120, 8187, 8172, 8169, 8193, 8161, 8174, 8194, 8175, 8145, 8148, 8156,6.255502939224243
117, 8153, 8145, 8160, 8163, 8170, 8168, 8189, 8174, 8173, 8187, 8156, 8140, 8147, 8162,6.255502939224243
118, 8163, 8162, 8161, 8172, 8181, 8182, 8198, 8184, 8193, 8203, 8178, 8159, 8171, 8169,6.271121501922607
119, 8172, 8164, 8126, 8187, 8182, 8170, 8204, 8170, 8203, 8216, 8203, 8161, 8187, 8176,6.271121501922607
120, 8182, 8177, 8202, 8177, 8171, 8165, 8194, 8176, 8193, 8200, 8193, 8171, 8181, 8185,6.286285877227783
121, 8172, 8171, 8133, 8170, 8175, 8164, 8195, 8165, 8210, 8190, 8192, 8160, 8184, 8167,6.286285877227783
122, 8169, 8161, 8169, 8143, 8171, 8156, 8179, 8169, 8209, 8178, 8201, 8176, 8183, 8157,6.3014702796936035
123, 8182, 8171, 8183, 8153, 8167, 8152, 8178, 8170, 8200, 8186, 8213, 8193, 8184, 8171,6.3014702796936035
124, 8195, 8179, 8137, 8182, 8168, 8136, 8179, 8160, 8187, 8181, 8210, 8175, 8177, 8170,6.3176233768463135
125, 8193, 8189, 8208, 8175, 8163, 8140, 8160, 8170, 8164, 8155, 8197, 8186, 8159, 8157,6.3176233768463135
126, 8177, 8183, 8141, 8175, 8168, 8147, 8166, 8162, 8174, 8172, 8207, 8185, 8164, 8152,6.333252906799316
127, 8180, 8181, 8175, 8179, 8172, 8144, 8163, 8166, 8169, 8177, 8210, 8186, 8168, 8161,6.333252906799316
236, 8182, 8193, 8204, 8194, 8178, 8152, 8157, 8173, 8157, 8178, 8207, 8187, 8171, 8162,6.3493828773498535
0, 8173, 8188, 8142, 8208, 8187, 8156, 8162, 8162, 8170, 8193, 8214, 8170, 8186, 8163,6.3493828773498535
1, 8179, 8199, 8218, 8213, 8189, 8173, 8166, 8179, 8187, 8198, 8226, 8194, 8193, 8184,6.365023851394653
2, 8183, 8204, 8174, 8237, 8195, 8175, 8182, 8180, 8216, 8222, 8240, 8199, 8202, 8187,6.365023851394653
3, 8181, 8189, 8190, 8228, 8192, 8172, 8181, 8180, 8211, 8219, 8230, 8189, 8196, 8180,6.380331993103027
4, 8173, 8180, 8204, 8209, 8188, 8194, 8186, 8178, 8199, 8207, 8223, 8190, 8193, 8183,6.380331993103027
5, 8172, 8172, 8124, 8216, 8188, 8197, 8198, 8166, 8205, 8214, 8217, 8178, 8192, 8180,6.396393537521362
6, 8174, 8181, 8202, 8209, 8183, 8197, 8191, 8176, 8190, 8202, 8200, 8189, 8181, 8180,6.396393537521362
7, 8168, 8175, 8162, 8214, 8188, 8189, 8200, 8164, 8204, 8209, 8208, 8184, 8192, 8183,6.41206169128418
8, 8182, 8165, 8166, 8204, 8182, 8166, 8190, 8165, 8211, 8213, 8216, 8191, 8205, 8192,6.41206169128418
9, 8200, 8182, 8214, 8195, 8168, 8169, 8176, 8174, 8198, 8204, 8223, 8217, 8208, 8193,6.42720627784729
10, 8196, 8186, 8146, 8211, 8171, 8160, 8172, 8155, 8184, 8194, 8230, 8208, 8205, 8183,6.42720627784729
11, 8197, 8190, 8210, 8199, 8171, 8149, 8148, 8166, 8163, 8170, 8216, 8218, 8194, 8180,6.44251561164856
12, 8194, 8191, 8171, 8198, 8170, 8155, 8151, 8168, 8178, 8180, 8221, 8225, 8205, 8175,6.44251561164856
13, 8194, 8189, 8169, 8201, 8170, 8151, 8150, 8167, 8179, 8184, 8235, 8217, 8213, 8171,6.458180904388428
14, 8196, 8201, 8228, 8203, 8176, 8157, 8144, 8171, 8160, 8171, 8238, 8220, 8200, 8171,6.458180904388428
15, 8181, 8196, 8148, 8216, 8181, 8158, 8161, 8159, 8162, 8177, 8235, 8200, 8190, 8161,6.473352909088135
16, 8176, 8192, 8198, 8207, 8176, 8163, 8161, 8175, 8154, 8171, 8226, 8200, 8182, 8168,6.473352909088135
17, 8182, 8189, 8182, 8218, 8189, 8176, 8174, 8176, 8171, 8192, 8234, 8200, 8196, 8182,6.489032745361328
18, 8186, 8187, 8174, 8227, 8193, 8183, 8188, 8171, 8184, 8214, 8240, 8203, 8206, 8185,6.489032745361328
19, 8179, 8202, 8215, 8224, 8186, 8198, 8198, 8183, 8184, 8214, 8229, 8209, 8201, 8184,6.505419731140137
20, 8177, 8193, 8132, 8227, 8191, 8184, 8209, 8177, 8202, 8222, 8220, 8184, 8210, 8180,6.505419731140137
21, 8200, 8186, 8205, 8201, 8183, 8166, 8190, 8179, 8200, 8205, 8217, 8206, 8217, 8186,6.520427942276001
22, 8210, 8192, 8191, 8204, 8178, 8168, 8180, 8163, 8200, 8198, 8234, 8231, 8220, 8188,6.520427942276001
23, 8210, 8198, 8155, 8225, 8186, 8162, 8168, 8159, 8181, 8189, 8238, 8220, 8211, 8184,6.536460638046265
24, 8217, 8214, 8236, 8229, 8192, 8165, 8156, 8176, 8153, 8163, 8228, 8224, 8197, 8181,6.536460638046265
25, 8215, 8206, 8166, 8242, 8193, 8168, 8174, 8160, 8165, 8170, 8233, 8211, 8198, 8178,6.5521321296691895
26, 8205, 8202, 8200, 8232, 8189, 8173, 8173, 8166, 8157, 8174, 8221, 8200, 8185, 8180,6.5521321296691895
27, 8187, 8209, 8192, 8239, 8194, 8183, 8183, 8170, 8154, 8181, 8211, 8189, 8188, 8178,6.568246364593506
28, 8187, 8192, 8145, 8250, 8194, 8178, 8195, 8162, 8171, 8193, 8212, 8176, 8198, 8177,6.568246364593506
29, 8189, 8187, 8214, 8233, 8190, 8192, 8187, 8180, 8173, 8193, 8210, 8188, 8191, 8186,6.583437204360962
30, 8175, 8184, 8144, 8239, 8198, 8197, 8203, 8177, 8190, 8209, 8207, 8169, 8195, 8186,6.583437204360962
31, 8177, 8181, 8169, 8236, 8192, 8188, 8210, 8173, 8192, 8204, 8188, 8157, 8193, 8183,6.599031448364258
32, 8170, 8178, 8170, 8230, 8185, 8187, 8211, 8169, 8192, 8205, 8187, 8158, 8191, 8173,6.599031448364258
33, 8163, 8168, 8120, 8222, 8188, 8173, 8210, 8165, 8204, 8213, 8204, 8157, 8197, 8171,6.615055799484253
34, 8187, 8179, 8207, 8217, 8186, 8179, 8199, 8179, 8205, 8201, 8208, 8186, 8199, 8189,6.615055799484253
35, 8193, 8177, 8141, 8227, 8188, 8184, 8200, 8163, 8215, 8208, 8209, 8180, 8205, 8189,6.631026744842529
36, 8181, 8168, 8153, 8199, 8176, 8174, 8186, 8167, 8203, 8201, 8207, 8178, 8205, 8182,6.631026744842529
37, 8185, 8179, 8187, 8193, 8166, 8173, 8186, 8181, 8194, 8198, 8217, 8198, 8207, 8191,6.646218776702881
38, 8198, 8181, 8142, 8215, 8172, 8159, 8181, 8165, 8189, 8196, 8222, 8190, 8200, 8196,6.646218776702881
39, 8203, 8191, 8211, 8201, 8173, 8155, 8158, 8164, 8166, 8172, 8215, 8205, 8190, 8187,6.66237735748291
40, 8198, 8188, 8156, 8205, 8180, 8158, 8163, 8153, 8171, 8177, 8223, 8211, 8202, 8173,6.66237735748291
41, 8197, 8182, 8173, 8205, 8180, 8149, 8151, 8159, 8160, 8168, 8219, 8213, 8198, 8174,6.677310228347778
42, 8189, 8188, 8205, 8198, 8173, 8145, 8137, 8170, 8155, 8158, 8219, 8213, 8187, 8175,6.677310228347778
43, 8189, 8187, 8138, 8204, 8172, 8130, 8146, 8159, 8167, 8167, 8221, 8186, 8185, 8164,6.69390344619751
44, 8203, 8201, 8213, 8205, 8171, 8135, 8143, 8175, 8153, 8158, 8214, 8198, 8175, 8161,6.69390344619751
45, 8193, 8200, 8162, 8223, 8182, 8154, 8158, 8172, 8164, 8166, 8227, 8198, 8182, 8162,6.708406925201416
46, 8183, 8183, 8157, 8220, 8187, 8160, 8172, 8171, 8172, 8173, 8219, 8179, 8180, 8167,6.708406925201416
47, 8180, 8183, 8203, 8213, 8189, 8180, 8183, 8180, 8172, 8185, 8192, 8173, 8172, 8172,6.723450183868408
48, 8175, 8177, 8130, 8223, 8193, 8189, 8198, 8168, 8194, 8205, 8190, 8160, 8185, 8171,6.723450183868408
49, 8186, 8183, 8195, 8215, 8181, 8195, 8192, 8175, 8193, 8195, 8198, 8183, 8191, 8182,6.740018367767334
50, 8190, 8187, 8161, 8220, 8181, 8192, 8205, 8170, 8198, 8208, 8199, 8184, 8190, 8190,6.7556657791137695
51, 8189, 8175, 8150, 8208, 8178, 8173, 8206, 8170, 8203, 8212, 8178, 8165, 8182, 8186,6.7556657791137695
52, 8189, 8177, 8203, 8188, 8170, 8171, 8187, 8178, 8193, 8181, 8174, 8178, 8176, 8180,6.7556657791137695
53, 8193, 8170, 8131, 8191, 8172, 8157, 8174, 8163, 8193, 8178, 8196, 8185, 8186, 8177,6.770208358764648
54, 8204, 8173, 8195, 8173, 8165, 8157, 8159, 8168, 8185, 8180, 8196, 8201, 8192, 8184,6.785659551620483
55, 8192, 8182, 8171, 8180, 8168, 8171, 8177, 8162, 8191, 8185, 8192, 8192, 8196, 8177,6.785659551620483
56, 8187, 8181, 8147, 8189, 8176, 8156, 8174, 8157, 8185, 8180, 8198, 8183, 8187, 8167,6.802480220794678
57, 8204, 8190, 8210, 8189, 8183, 8154, 8148, 8168, 8168, 8175, 8210, 8205, 8185, 8174,6.802480220794678
58, 8207, 8188, 8149, 8209, 8185, 8152, 8154, 8158, 8171, 8183, 8225, 8200, 8201, 8176,6.819456577301025
59, 8205, 8197, 8214, 8202, 8177, 8150, 8158, 8171, 8164, 8171, 8223, 8209, 8199, 8177,6.819456577301025
60, 8205, 8212, 8191, 8216, 8188, 8159, 8169, 8174, 8181, 8183, 8224, 8208, 8192, 8170,6.819456577301025
61, 8194, 8200, 8146, 8231, 8195, 8159, 8171, 8166, 8185, 8189, 8214, 8185, 8182, 8155,6.833005428314209
62, 8174, 8191, 8208, 8217, 8181, 8169, 8161, 8174, 8162, 8172, 8198, 8182, 8166, 8152,6.848201513290405
63, 8173, 8187, 8142, 8235, 8185, 8171, 8181, 8166, 8172, 8192, 8210, 8182, 8181, 8164,6.848201513290405
64, 8202, 8199, 8215, 8260, 8190, 8174, 8189, 8180, 8169, 8188, 8221, 8218, 8203, 8185,6.863553047180176
65, 8216, 8210, 8228, 8287, 8189, 8181, 8194, 8177, 8169, 8184, 8239, 8251, 8227, 8201,6.863553047180176
66, 8217, 8204, 8174, 8296, 8186, 8165, 8188, 8159, 8173, 8200, 8252, 8248, 8235, 8201,6.879629611968994
67, 8217, 8202, 8241, 8280, 8176, 8161, 8170, 8168, 8161, 8190, 8242, 8253, 8219, 8198,6.879629611968994
68, 8210, 8188, 8170, 8276, 8176, 8158, 8176, 8161, 8182, 8188, 8245, 8245, 8226, 8190,6.895302057266235
69, 8215, 8193, 8210, 8268, 8182, 8154, 8169, 8171, 8190, 8185, 8252, 8257, 8235, 8192,6.895302057266235
70, 8224, 8212, 8235, 8288, 8185, 8157, 8163, 8176, 8182, 8182, 8254, 8270, 8224, 8193,6.91124701499939
71, 8225, 8204, 8178, 8295, 8179, 8149, 8160, 8161, 8175, 8176, 8252, 8256, 8214, 8189,6.91124701499939
72, 8221, 8203, 8243, 8263, 8166, 8156, 8151, 8170, 8152, 8163, 8249, 8270, 8213, 8187,6.927648067474365
73, 8212, 8199, 8182, 8269, 8166, 8157, 8159, 8163, 8152, 8167, 8256, 8260, 8216, 8175,6.927648067474365
74, 8216, 8204, 8205, 8273, 8169, 8152, 8157, 8166, 8146, 8151, 8246, 8252, 8203, 8173,6.943192481994629
75, 8219, 8218, 8228, 8262, 8179, 8167, 8174, 8174, 8160, 8159, 8231, 8262, 8200, 8179,6.943192481994629
76, 8208, 8201, 8161, 8256, 8185, 8160, 8185, 8170, 8182, 8185, 8225, 8244, 8203, 8179,6.958080768585205
77, 8212, 8202, 8228, 8244, 8183, 8157, 8169, 8178, 8163, 8169, 8220, 8242, 8189, 8181,6.958080768585205
78, 8214, 8208, 8173, 8253, 8192, 8162, 8175, 8159, 8154, 8172, 8214, 8229, 8185, 8177,6.973433256149292
79, 8207, 8196, 8180, 8246, 8192, 8160, 8170, 8162, 8141, 8176, 8188, 8214, 8173, 8175,6.973433256149292
80, 8207, 8200, 8214, 8238, 8195, 8174, 8174, 8177, 8145, 8178, 8186, 8210, 8174, 8175,6.989325284957886
81, 8209, 8201, 8147, 8241, 8203, 8175, 8194, 8164, 8166, 8194, 8202, 8192, 8188, 8165,6.989325284957886
82, 8201, 8199, 8217, 8225, 8198, 8178, 8180, 8168, 8154, 8187, 8179, 8196, 8172, 8163,7.004528045654297
83, 8182, 8183, 8165, 8234, 8198, 8181, 8177, 8158, 8160, 8190, 8164, 8174, 8166, 8159,7.004528045654297
84, 8178, 8165, 8148, 8216, 8189, 8174, 8182, 8159, 8167, 8191, 8162, 8157, 8174, 8155,7.019436359405518
85, 8169, 8166, 8181, 8180, 8183, 8183, 8188, 8173, 8165, 8200, 8160, 8168, 8176, 8162,7.019436359405518
86, 8156, 8155, 8111, 8185, 8191, 8181, 8202, 8164, 8176, 8215, 8162, 8152, 8180, 8158,7.034764289855957
87, 8172, 8164, 8190, 8190, 8190, 8181, 8202, 8178, 8173, 8204, 8167, 8167, 8185, 8167,7.034764289855957
88, 8173, 8171, 8157, 8195, 8187, 8183, 8216, 8175, 8183, 8212, 8175, 8174, 8197, 8179,7.050750017166138
89, 8162, 8158, 8129, 8175, 8182, 8173, 8212, 8171, 8178, 8196, 8150, 8149, 8180, 8165,7.050750017166138
90, 8169, 8163, 8182, 8162, 8184, 8183, 8203, 8181, 8170, 8178, 8137, 8147, 8161, 8155,7.066408634185791
91, 8175, 8161, 8122, 8176, 8194, 8182, 8209, 8166, 8190, 8206, 8161, 8146, 8181, 8169,7.066408634185791
92, 8185, 8169, 8191, 8175, 8188, 8175, 8200, 8171, 8182, 8195, 8157, 8164, 8192, 8180,7.081560850143433
93, 8184, 8177, 8160, 8186, 8192, 8181, 8209, 8168, 8171, 8168, 8143, 8156, 8179, 8164,7.081560850143433
94, 8178, 8166, 8128, 8176, 8191, 8170, 8210, 8160, 8161, 8159, 8142, 8140, 8163, 8155,7.097161769866943
95, 8184, 8179, 8194, 8166, 8182, 8162, 8200, 8173, 8173, 8174, 8163, 8169, 8180, 8172,7.097161769866943
96, 8190, 8188, 8129, 8192, 8193, 8153, 8214, 8171, 8206, 8202, 8196, 8180, 8207, 8184,7.1123011112213135
97, 8201, 8195, 8191, 8197, 8196, 8155, 8205, 8181, 8190, 8188, 8198, 8187, 8197, 8181,7.1123011112213135
98, 8205, 8199, 8179, 8198, 8195, 8163, 8201, 8172, 8180, 8183, 8195, 8181, 8194, 8166,7.128383636474609
99, 8198, 8190, 8136, 8188, 8196, 8152, 8199, 8164, 8180, 8184, 8192, 8162, 8194, 8153,7.128383636474609
100, 8179, 8189, 8197, 8168, 8195, 8156, 8181, 8180, 8162, 8174, 8185, 8164, 8178, 8148,7.14439582824707
101, 8159, 8177, 8119, 8176, 8202, 8158, 8189, 8168, 8164, 8187, 8176, 8137, 8174, 8138,7.14439582824707
102, 8161, 8171, 8165, 8169, 8202, 8167, 8207, 8174, 8173, 8193, 8154, 8130, 8170, 8143,7.160456895828247
103, 8160, 8170, 8168, 8172, 8207, 8193, 8232, 8180, 8208, 8213, 8151, 8136, 8178, 8153,7.160456895828247
104, 8160, 8159, 8120, 8178, 8210, 8191, 8231, 8172, 8222, 8223, 8154, 8123, 8183, 8156,7.1760642528533936
105, 8168, 8168, 8186, 8159, 8199, 8184, 8206, 8179, 8192, 8207, 8144, 8139, 8178, 8167,7.1760642528533936
106, 8173, 8167, 8123, 8165, 8202, 8180, 8213, 8169, 8205, 8205, 8151, 8148, 8190, 8173,7.191163539886475
107, 8191, 8170, 8172, 8157, 8207, 8176, 8212, 8176, 8218, 8182, 8158, 8162, 8194, 8179,7.191163539886475
108, 8195, 8181, 8187, 8149, 8203, 8175, 8211, 8177, 8206, 8174, 8162, 8164, 8190, 8170,7.20733118057251
109, 8181, 8175, 8123, 8154, 8200, 8161, 8206, 8167, 8188, 8182, 8169, 8142, 8179, 8149,7.20733118057251
110, 8174, 8185, 8197, 8149, 8209, 8170, 8186, 8178, 8164, 8160, 8165, 8149, 8163, 8142,7.22266411781311
111, 8166, 8187, 8144, 8168, 8224, 8182, 8192, 8167, 8171, 8162, 8166, 8140, 8169, 8140,7.22266411781311
112, 8167, 8178, 8171, 8167, 8219, 8179, 8182, 8167, 8174, 8172, 8162, 8140, 8170, 8146,7.238332033157349
113, 8176, 8181, 8197, 8169, 8218, 8192, 8180, 8171, 8183, 8185, 8162, 8148, 8169, 8156,7.238332033157349
114, 8184, 8178, 8133, 8189, 8229, 8193, 8204, 8163, 8198, 8209, 8167, 8136, 8182, 8165,7.254069089889526
115, 8184, 8182, 8207, 8182, 8221, 8197, 8218, 8176, 8188, 8206, 8157, 8147, 8184, 8175,7.254069089889526
116, 8163, 8165, 8146, 8165, 8211, 8201, 8231, 8166, 8205, 8211, 8166, 8140, 8195, 8168,7.269198179244995
117, 8157, 8153, 8148, 8138, 8204, 8186, 8217, 8167, 8209, 8210, 8169, 8138, 8198, 8156,7.269198179244995
118, 8163, 8172, 8190, 8150, 8201, 8177, 8201, 8178, 8200, 8199, 8154, 8155, 8184, 8163,7.285246849060059
119, 8174, 8177, 8132, 8176, 8208, 8165, 8197, 8168, 8211, 8214, 8157, 8154, 8211, 8172,7.285246849060059
120, 8198, 8188, 8207, 8156, 8211, 8168, 8185, 8179, 8208, 8218, 8182, 8181, 8221, 8183,7.300529718399048
121, 8203, 8192, 8167, 8158, 8216, 8176, 8199, 8176, 8218, 8210, 8197, 8185, 8177, 8191,7.315037250518799
122, 8199, 8191, 8164, 8168, 8221, 8167, 8195, 8172, 8212, 8196, 8176, 8169, 8174, 8185,7.315037250518799
123, 8193, 8204, 8200, 8166, 8230, 8165, 8179, 8174, 8189, 8201, 8169, 8166, 8218, 8169,7.330653667449951
124, 8183, 8191, 8123, 8165, 8232, 8151, 8184, 8160, 8188, 8203, 8182, 8154, 8210, 8159,7.330653667449951
125, 8193, 8182, 8200, 8141, 8216, 8155, 8176, 8173, 8189, 8178, 8180, 8176, 8183, 8168,7.347208023071289
126, 8197, 8188, 8173, 8149, 8226, 8167, 8174, 8165, 8191, 8193, 8183, 8180, 8203, 8165,7.347208023071289
127, 8186, 8190, 8147, 8156, 8244, 8152, 8159, 8152, 8159, 8177, 8164, 8160, 8177, 8154,7.361447334289551
236, 8181, 8200, 8189, 8142, 8243, 8153, 8151, 8164, 8142, 8141, 8152, 8170, 8147, 8151,7.361447334289551
0, 8180, 8196, 8120, 8150, 8236, 8154, 8171, 8164, 8167, 8160, 8166, 8166, 8169, 8143,7.37717080116272
1, 8182, 8194, 8190, 8140, 8232, 8161, 8172, 8181, 8167, 8168, 8153, 8166, 8161, 8150,7.37717080116272
2, 8178, 8192, 8173, 8141, 8246, 8172, 8182, 8178, 8184, 8183, 8154, 8162, 8157, 8160,7.395060300827026
3, 8184, 8191, 8154, 8158, 8253, 8163, 8180, 8170, 8193, 8194, 8162, 8163, 8161, 8160,7.395060300827026
4, 8192, 8204, 8219, 8173, 8254, 8164, 8169, 8178, 8184, 8184, 8159, 8183, 8154, 8163,7.40808629989624
5, 8192, 8194, 8143, 8169, 8262, 8164, 8177, 8164, 8197, 8194, 8170, 8164, 8158, 8158,7.40808629989624
6, 8198, 8190, 8198, 8144, 8256, 8171, 8167, 8170, 8174, 8171, 8159, 8160, 8143, 8158,7.423369407653809
7, 8193, 8198, 8194, 8171, 8262, 8180, 8174, 8169, 8155, 8151, 8137, 8160, 8125, 8154,7.423369407653809
8, 8182, 8186, 8151, 8173, 8267, 8173, 8189, 8167, 8160, 8162, 8136, 8141, 8121, 8143,7.438596963882446
9, 8170, 8175, 8198, 8127, 8256, 8184, 8188, 8179, 8154, 8157, 8136, 8137, 8113, 8137,7.438596963882446
10, 8147, 8158, 8113, 8132, 8260, 8187, 8191, 8163, 8160, 8148, 8123, 8114, 8112, 8130,7.454693078994751
11, 8146, 8162, 8163, 8143, 8278, 8185, 8184, 8167, 8160, 8150, 8110, 8124, 8112, 8140,7.454693078994751
12, 8147, 8172, 8169, 8144, 8291, 8196, 8193, 8173, 8170, 8176, 8121, 8132, 8117, 8142,7.470033884048462
13, 8135, 8149, 8115, 8132, 8274, 8176, 8185, 8164, 8175, 8175, 8118, 8103, 8116, 8128,7.470033884048462
14, 8125, 8138, 8175, 8115, 8252, 8159, 8162, 8170, 8166, 8156, 8097, 8097, 8108, 8123,7.485551357269287
15, 8119, 8139, 8107, 8123, 8259, 8166, 8185, 8161, 8184, 8177, 8107, 8092, 8119, 8122,7.485551357269287
16, 8127, 8146, 8148, 8111, 8253, 8173, 8195, 8172, 8193, 8171, 8112, 8109, 8123, 8132,7.500668287277222
17, 8132, 8156, 8167, 8108, 8251, 8173, 8181, 8174, 8201, 8161, 8106, 8119, 8120, 8129,7.500668287277222
18, 8144, 8157, 8115, 8120, 8270, 8160, 8172, 8161, 8206, 8163, 8106, 8111, 8120, 8125,7.5172882080078125
19, 8163, 8166, 8194, 8107, 8267, 8160, 8168, 8175, 8193, 8149, 8109, 8132, 8121, 8143,7.5172882080078125
20, 8161, 8160, 8135, 8110, 8259, 8150, 8173, 8159, 8192, 8152, 8113, 8132, 8129, 8146,7.532334804534912
21, 8165, 8162, 8164, 8111, 8258, 8143, 8152, 8156, 8164, 8135, 8107, 8135, 8120, 8142,7.532334804534912
22, 8168, 8182, 8198, 8124, 8263, 8158, 8149, 8168, 8145, 8124, 8115, 8140, 8114, 8137,7.548553228378296
23, 8164, 8181, 8132, 8137, 8268, 8153, 8163, 8159, 8146, 8124, 8118, 8117, 8111, 8123,7.548553228378296
24, 8167, 8186, 8207, 8117, 8266, 8161, 8149, 8165, 8133, 8104, 8098, 8128, 8097, 8121,7.564079761505127
25, 8154, 8178, 8148, 8122, 8271, 8171, 8150, 8160, 8145, 8122, 8108, 8123, 8104, 8122,7.564079761505127
26, 8145, 8168, 8143, 8134, 8267, 8163, 8147, 8169, 8142, 8132, 8121, 8113, 8114, 8124,7.579219341278076
27, 8150, 8183, 8193, 8152, 8266, 8170, 8149, 8176, 8143, 8128, 8119, 8124, 8121, 8134,7.579219341278076
28, 8146, 8179, 8131, 8166, 8273, 8171, 8156, 8157, 8169, 8152, 8118, 8109, 8124, 8131,7.594792366027832
29, 8138, 8167, 8183, 8143, 8264, 8183, 8148, 8169, 8166, 8161, 8113, 8111, 8119, 8132,7.594792366027832
30, 8129, 8155, 8134, 8147, 8259, 8192, 8169, 8172, 8171, 8158, 8114, 8107, 8124, 8137,7.610124349594116
31, 8131, 8150, 8138, 8154, 8255, 8182, 8181, 8172, 8173, 8148, 8104, 8095, 8117, 8132,7.610124349594116
32, 8135, 8166, 8185, 8155, 8259, 8195, 8188, 8178, 8168, 8158, 8103, 8104, 8113, 8129,7.6252970695495605
33, 8136, 8165, 8114, 8169, 8265, 8191, 8194, 8165, 8175, 8173, 8117, 8102, 8126, 8134,7.6252970695495605
34, 8147, 8161, 8180, 8148, 8237, 8175, 8173, 8171, 8167, 8153, 8105, 8113, 8125, 8144,7.6412858963012695
35, 8148, 8155, 8142, 8135, 8226, 8171, 8176, 8166, 8176, 8155, 8103, 8113, 8127, 8139,7.6412858963012695
36, 8152, 8154, 8130, 8138, 8241, 8175, 8176, 8166, 8171, 8155, 8109, 8114, 8130, 8137,7.657290935516357
37, 8158, 8175, 8195, 8149, 8247, 8189, 8172, 8176, 8160, 8147, 8112, 8131, 8127, 8140,7.657290935516357
38, 8156, 8166, 8113, 8151, 8236, 8175, 8181, 8159, 8181, 8162, 8121, 8122, 8136, 8135,7.672690391540527
39, 8159, 8152, 8170, 8120, 8219, 8165, 8155, 8167, 8172, 8153, 8125, 8135, 8140, 8139,7.672690391540527
40, 8156, 8157, 8161, 8132, 8226, 8173, 8144, 8168, 8168, 8158, 8139, 8144, 8152, 8144,7.688087463378906
41, 8162, 8166, 8137, 8149, 8239, 8168, 8150, 8167, 8180, 8170, 8149, 8144, 8163, 8149,7.688087463378906
42, 8173, 8188, 8201, 8142, 8249, 8173, 8151, 8180, 8187, 8166, 8163, 8165, 8167, 8151,7.704030990600586
43, 8172, 8188, 8135, 8167, 8260, 8168, 8160, 8168, 8202, 8180, 8182, 8152, 8173, 8137,7.704030990600586
44, 8169, 8188, 8191, 8174, 8250, 8156, 8152, 8175, 8181, 8171, 8163, 8143, 8150, 8124,7.719618082046509
45, 8149, 8185, 8174, 8167, 8241, 8165, 8164, 8171, 8166, 8159, 8147, 8130, 8134, 8118,7.719618082046509
46, 8136, 8167, 8128, 8158, 8236, 8172, 8187, 8161, 8175, 8161, 8147, 8113, 8134, 8118,7.735513687133789
47, 8142, 8169, 8195, 8157, 8233, 8183, 8194, 8178, 8177, 8163, 8131, 8125, 8129, 8126,7.735513687133789
48, 8135, 8161, 8114, 8164, 8239, 8186, 8197, 8172, 8180, 8179, 8117, 8101, 8129, 8127,7.751189470291138
49, 8136, 8156, 8152, 8140, 8227, 8183, 8181, 8174, 8167, 8170, 8111, 8101, 8128, 8129,7.751189470291138
50, 8146, 8158, 8165, 8131, 8213, 8178, 8185, 8167, 8179, 8174, 8121, 8131, 8137, 8137,7.7663493156433105
51, 8150, 8147, 8120, 8134, 8214, 8161, 8197, 8162, 8194, 8185, 8130, 8136, 8149, 8147,7.7663493156433105
52, 8165, 8165, 8198, 8128, 8223, 8167, 8194, 8183, 8191, 8180, 8142, 8157, 8161, 8168,7.781491994857788
53, 8185, 8180, 8148, 8145, 8232, 8170, 8187, 8172, 8208, 8198, 8169, 8165, 8179, 8174,7.781491994857788
54, 8195, 8181, 8188, 8148, 8227, 8163, 8153, 8169, 8193, 8185, 8176, 8174, 8179, 8173,7.797563076019287
55, 8187, 8193, 8202, 8165, 8234, 8168, 8153, 8178, 8176, 8173, 8188, 8184, 8184, 8169,7.797563076019287
56, 8182, 8196, 8141, 8178, 8237, 8157, 8168, 8174, 8180, 8190, 8199, 8174, 8186, 8158,7.8134307861328125
57, 8175, 8196, 8211, 8154, 8224, 8158, 8152, 8181, 8175, 8178, 8181, 8172, 8160, 8145,7.8134307861328125
58, 8146, 8175, 8147, 8163, 8225, 8170, 8166, 8166, 8179, 8175, 8161, 8135, 8143, 8130,7.828453779220581
59, 8130, 8154, 8153, 8160, 8225, 8184, 8188, 8172, 8171, 8183, 8147, 8116, 8136, 8130,7.828453779220581
60, 8127, 8160, 8168, 8147, 8223, 8206, 8210, 8182, 8180, 8190, 8155, 8129, 8139, 8137,7.844045639038086
61, 8125, 8151, 8105, 8141, 8212, 8191, 8213, 8161, 8191, 8182, 8153, 8118, 8146, 8140,7.844045639038086
62, 8138, 8146, 8188, 8119, 8184, 8169, 8178, 8164, 8167, 8163, 8132, 8130, 8142, 8151,7.859371900558472
63, 8163, 8154, 8150, 8131, 8193, 8166, 8179, 8164, 8172, 8185, 8154, 8152, 8161, 8160,7.859371900558472
64, 8195, 8173, 8170, 8141, 8207, 8163, 8190, 8171, 8179, 8187, 8190, 8184, 8180, 8173,7.875049591064453
65, 8203, 8188, 8215, 8149, 8199, 8171, 8192, 8174, 8171, 8174, 8202, 8201, 8176, 8180,7.875049591064453
66, 8189, 8175, 8155, 8173, 8199, 8170, 8196, 8159, 8172, 8186, 8197, 8172, 8171, 8167,7.891711711883545
67, 8185, 8175, 8221, 8172, 8208, 8181, 8191, 8176, 8162, 8193, 8178, 8169, 8167, 8167,7.891711711883545
68, 8180, 8175, 8167, 8187, 8223, 8194, 8204, 8173, 8178, 8222, 8189, 8172, 8182, 8184,7.906268835067749
69, 8194, 8172, 8172, 8192, 8222, 8194, 8198, 8167, 8201, 8241, 8212, 8186, 8203, 8206,7.922309398651123
70, 8199, 8177, 8222, 8174, 8203, 8194, 8182, 8173, 8201, 8237, 8205, 8201, 8206, 8204,7.922309398651123
71, 8171, 8156, 8125, 8152, 8194, 8173, 8179, 8163, 8193, 8230, 8188, 8167, 8190, 8171,7.922309398651123
72, 8163, 8157, 8190, 8131, 8195, 8167, 8172, 8175, 8175, 8203, 8192, 8173, 8176, 8161,7.939020872116089
73, 8174, 8166, 8178, 8147, 8201, 8177, 8193, 8173, 8186, 8204, 8204, 8189, 8189, 8168,7.939020872116089
74, 8181, 8157, 8156, 8144, 8201, 8171, 8201, 8178, 8190, 8207, 8189, 8174, 8180, 8165,7.952169179916382
75, 8176, 8167, 8210, 8132, 8206, 8177, 8196, 8190, 8181, 8203, 8189, 8175, 8167, 8159,7.970468997955322
76, 8163, 8167, 8143, 8153, 8211, 8167, 8200, 8174, 8185, 8214, 8210, 8168, 8176, 8153,7.970468997955322
77, 8164, 8164, 8195, 8149, 8196, 8163, 8181, 8179, 8151, 8181, 8191, 8171, 8159, 8152,7.970468997955322
78, 8171, 8165, 8174, 8158, 8197, 8182, 8187, 8176, 8139, 8168, 8179, 8165, 8155, 8155,7.985036373138428
79, 8185, 8160, 8157, 8172, 8201, 8181, 8201, 8169, 8149, 8191, 8178, 8157, 8167, 8162,7.985036373138428
80, 8193, 8168, 8228, 8175, 8193, 8185, 8195, 8178, 8147, 8198, 8171, 8176, 8166, 8178,8.001015424728394
81, 8196, 8167, 8152, 8188, 8199, 8192, 8202, 8168, 8164, 8215, 8187, 8171, 8179, 8192,8.001015424728394
82, 8211, 8172, 8208, 8185, 8204, 8195, 8193, 8178, 8165, 8225, 8199, 8186, 8194, 8202,8.017422199249268
83, 8208, 8174, 8205, 8194, 8204, 8196, 8185, 8178, 8166, 8237, 8211, 8195, 8207, 8200,8.017422199249268
84, 8194, 8159, 8157, 8195, 8196, 8183, 8173, 8168, 8165, 8234, 8218, 8188, 8215, 8197,8.041381597518921
85, 8188, 8166, 8220, 8178, 8191, 8190, 8171, 8172, 8159, 8222, 8211, 8200, 8212, 8199,8.042380571365356
86, 8176, 8159, 8141, 8176, 8195, 8188, 8191, 8154, 8174, 8235, 8207, 8177, 8204, 8177,8.042380571365356
87, 8166, 8141, 8172, 8150, 8176, 8166, 8169, 8162, 8152, 8203, 8178, 8161, 8179, 8155,8.062490463256836
88, 8154, 8139, 8171, 8133, 8164, 8163, 8157, 8171, 8141, 8175, 8162, 8168, 8168, 8149,8.062490463256836
89, 8151, 8140, 8116, 8129, 8171, 8161, 8168, 8159, 8156, 8184, 8172, 8163, 8173, 8143,8.07807207107544
90, 8164, 8159, 8197, 8123, 8170, 8168, 8165, 8171, 8160, 8192, 8176, 8182, 8176, 8143,8.07807207107544
91, 8170, 8157, 8142, 8143, 8168, 8163, 8172, 8172, 8175, 8200, 8182, 8183, 8191, 8144,8.0931715965271
92, 8177, 8153, 8172, 8133, 8161, 8156, 8171, 8183, 8168, 8180, 8185, 8191, 8189, 8158,8.0931715965271
93, 8189, 8174, 8196, 8135, 8171, 8170, 8178, 8182, 8166, 8186, 8191, 8208, 8186, 8170,8.109486103057861
94, 8194, 8178, 8150, 8157, 8184, 8169, 8178, 8163, 8170, 8194, 8189, 8195, 8178, 8157,8.109486103057861
95, 8192, 8183, 8227, 8153, 8175, 8175, 8168, 8179, 8148, 8171, 8185, 8198, 8164, 8152,8.125409126281738
96, 8183, 8179, 8166, 8157, 8174, 8172, 8179, 8175, 8146, 8181, 8201, 8185, 8177, 8156,8.125409126281738
97, 8181, 8176, 8183, 8155, 8177, 8161, 8166, 8171, 8125, 8176, 8191, 8180, 8175, 8155,8.141102075576782
98, 8178, 8191, 8213, 8182, 8183, 8178, 8164, 8176, 8120, 8172, 8180, 8185, 8162, 8155,8.141102075576782
99, 8175, 8185, 8143, 8210, 8189, 8182, 8183, 8172, 8145, 8191, 8183, 8163, 8163, 8157,8.159001111984253
100, 8160, 8169, 8202, 8177, 8176, 8185, 8177, 8181, 8131, 8187, 8172, 8160, 8157, 8150,8.159001111984253
101, 8135, 8151, 8136, 8162, 8170, 8187, 8187, 8165, 8130, 8194, 8161, 8143, 8157, 8131,8.17203950881958
102, 8141, 8149, 8141, 8168, 8172, 8182, 8197, 8171, 8150, 8197, 8143, 8138, 8161, 8139,8.17203950881958
103, 8155, 8160, 8188, 8170, 8174, 8188, 8199, 8185, 8176, 8202, 8151, 8162, 8169, 8162,8.18799090385437
104, 8150, 8148, 8119, 8163, 8174, 8177, 8195, 8168, 8188, 8214, 8183, 8168, 8181, 8160,8.18799090385437
105, 8159, 8159, 8187, 8145, 8162, 8167, 8171, 8174, 8168, 8188, 8182, 8186, 8177, 8149,8.203038930892944
106, 8166, 8172, 8155, 8158, 8166, 8165, 8173, 8175, 8174, 8179, 8178, 8187, 8176, 8148,8.203038930892944
107, 8172, 8172, 8158, 8160, 8179, 8166, 8174, 8174, 8181, 8192, 8192, 8192, 8176, 8158,8.218994855880737
108, 8178, 8180, 8210, 8153, 8183, 8176, 8169, 8176, 8175, 8201, 8209, 8210, 8182, 8154,8.218994855880737
109, 8169, 8179, 8141, 8164, 8175, 8162, 8169, 8168, 8168, 8201, 8208, 8182, 8185, 8140,8.234148979187012
110, 8180, 8195, 8211, 8169, 8174, 8165, 8154, 8181, 8152, 8188, 8199, 8184, 8174, 8150,8.234148979187012
111, 8191, 8199, 8174, 8189, 8195, 8185, 8166, 8171, 8170, 8209, 8205, 8191, 8184, 8158,8.250231742858887
112, 8178, 8182, 8146, 8190, 8194, 8178, 8169, 8165, 8168, 8209, 8187, 8169, 8186, 8151,8.250231742858887
113, 8163, 8184, 8205, 8180, 8185, 8185, 8166, 8178, 8147, 8189, 8162, 8162, 8174, 8148,8.266001224517822
114, 8156, 8164, 8121, 8178, 8188, 8195, 8190, 8168, 8167, 8205, 8157, 8148, 8178, 8146,8.266001224517822
115, 8155, 8144, 8163, 8133, 8166, 8189, 8195, 8179, 8174, 8206, 8144, 8155, 8174, 8147,8.281203508377075
116, 8148, 8143, 8146, 8113, 8152, 8177, 8195, 8175, 8181, 8202, 8142, 8155, 8177, 8146,8.281203508377075
117, 8157, 8148, 8127, 8123, 8155, 8164, 8186, 8168, 8180, 8191, 8151, 8159, 8182, 8148,8.297502994537354
118, 8156, 8166, 8198, 8111, 8150, 8168, 8171, 8181, 8154, 8162, 8146, 8181, 8165, 8141,8.297502994537354
119, 8141, 8166, 8123, 8114, 8151, 8162, 8171, 8167, 8143, 8155, 8145, 8156, 8150, 8115,8.313101768493652
120, 8162, 8172, 8177, 8127, 8157, 8164, 8163, 8171, 8137, 8156, 8147, 8156, 8145, 8121,8.313101768493652
121, 8173, 8181, 8180, 8149, 8167, 8182, 8181, 8174, 8154, 8182, 8154, 8169, 8151, 8142,8.328381538391113
122, 8158, 8168, 8138, 8142, 8166, 8179, 8193, 8171, 8158, 8194, 8149, 8158, 8145, 8138,8.328381538391113
123, 8156, 8162, 8208, 8131, 8157, 8190, 8177, 8183, 8143, 8181, 8136, 8164, 8141, 8135,8.343554735183716
124, 8162, 8158, 8145, 8162, 8165, 8195, 8185, 8165, 8167, 8218, 8151, 8160, 8162, 8148,8.343554735183716
125, 8167, 8159, 8187, 8152, 8166, 8186, 8183, 8164, 8179, 8233, 8157, 8169, 8165, 8158,8.359596252441406
126, 8168, 8165, 8189, 8139, 8163, 8188, 8178, 8169, 8177, 8215, 8157, 8174, 8164, 8148,8.359596252441406
127, 8176, 8161, 8140, 8153, 8166, 8175, 8180, 8158, 8171, 8207, 8165, 8168, 8171, 8140,8.375389575958252
236, 8185, 8172, 8221, 8148, 8165, 8169, 8181, 8168, 8160, 8203, 8171, 8192, 8173, 8147,8.375389575958252
0, 8167, 8161, 8150, 8142, 8163, 8166, 8192, 8166, 8175, 8204, 8182, 8182, 8174, 8133,8.39038634300232
1, 8154, 8150, 8163, 8124, 8152, 8156, 8170, 8176, 8167, 8187, 8174, 8173, 8161, 8124,8.39038634300232
2, 8154, 8167, 8186, 8128, 8155, 8163, 8155, 8179, 8155, 8188, 8165, 8180, 8156, 8128,8.405925989151001
3, 8147, 8164, 8135, 8144, 8166, 8170, 8165, 8166, 8151, 8191, 8159, 8166, 8154, 8123,8.405925989151001
4, 8151, 8165, 8207, 8140, 8163, 8186, 8169, 8175, 8132, 8173, 8160, 8173, 8153, 8133,8.421369314193726
5, 8163, 8171, 8152, 8155, 8172, 8191, 8188, 8167, 8138, 8186, 8174, 8172, 8165, 8147,8.421369314193726
6, 8175, 8175, 8177, 8156, 8171, 8175, 8177, 8164, 8126, 8186, 8157, 8175, 8154, 8149,8.437625169754028
7, 8179, 8182, 8215, 8162, 8161, 8172, 8160, 8161, 8113, 8175, 8153, 8179, 8140, 8146,8.437625169754028
8, 8176, 8169, 8143, 8169, 8164, 8167, 8166, 8155, 8117, 8176, 8159, 8155, 8145, 8140,8.453008890151978
9, 8170, 8168, 8208, 8156, 8168, 8177, 8169, 8175, 8112, 8173, 8146, 8165, 8143, 8137,8.453008890151978
10, 8159, 8172, 8158, 8175, 8176, 8178, 8172, 8165, 8135, 8197, 8165, 8169, 8152, 8138,8.468373537063599
11, 8158, 8168, 8163, 8168, 8172, 8163, 8147, 8163, 8142, 8195, 8178, 8170, 8153, 8140,8.468373537063599
12, 8148, 8167, 8203, 8147, 8164, 8175, 8142, 8175, 8135, 8189, 8167, 8180, 8152, 8135,8.484483480453491
13, 8138, 8158, 8128, 8162, 8163, 8173, 8168, 8158, 8141, 8214, 8174, 8160, 8160, 8126,8.484483480453491
14, 8142, 8162, 8188, 8154, 8160, 8167, 8168, 8167, 8128, 8212, 8177, 8163, 8154, 8125,8.50037693977356
15, 8131, 8159, 8147, 8158, 8163, 8170, 8177, 8168, 8147, 8218, 8175, 8165, 8157, 8127,8.50037693977356
16, 8127, 8150, 8147, 8167, 8156, 8169, 8180, 8168, 8169, 8216, 8166, 8162, 8156, 8130,8.515491485595703
17, 8130, 8155, 8198, 8155, 8151, 8185, 8172, 8175, 8167, 8200, 8155, 8166, 8141, 8121,8.515491485595703
18, 8125, 8139, 8114, 8142, 8150, 8179, 8172, 8161, 8165, 8201, 8150, 8147, 8132, 8109,8.531144380569458
19, 8133, 8138, 8176, 8126, 8135, 8163, 8160, 8168, 8142, 8186, 8143, 8157, 8127, 8122,8.531144380569458
20, 8130, 8141, 8149, 8129, 8130, 8158, 8166, 8163, 8137, 8183, 8141, 8150, 8135, 8124,8.546180248260498
21, 8132, 8128, 8131, 8114, 8124, 8153, 8157, 8154, 8134, 8174, 8140, 8142, 8140, 8117,8.546180248260498
22, 8153, 8148, 8203, 8107, 8125, 8163, 8147, 8167, 8132, 8162, 8147, 8173, 8143, 8128,8.561385154724121
23, 8161, 8158, 8142, 8132, 8141, 8161, 8154, 8162, 8151, 8180, 8162, 8176, 8154, 8133,8.561385154724121
24, 8161, 8152, 8193, 8122, 8132, 8153, 8118, 8165, 8136, 8173, 8156, 8185, 8149, 8126,8.57746410369873
25, 8152, 8155, 8168, 8127, 8129, 8144, 8092, 8156, 8130, 8172, 8165, 8195, 8146, 8111,8.57746410369873
26, 8148, 8165, 8145, 8143, 8144, 8131, 8095, 8158, 8132, 8177, 8174, 8193, 8143, 8102,8.593425512313843
27, 8140, 8177, 8214, 8135, 8145, 8149, 8103, 8170, 8113, 8161, 8155, 8187, 8125, 8096,8.593425512313843
28, 8115, 8155, 8125, 8128, 8142, 8154, 8116, 8147, 8101, 8146, 8132, 8144, 8102, 8067,8.60941743850708
29, 8105, 8147, 8162, 8119, 8140, 8149, 8118, 8161, 8096, 8134, 8118, 8140, 8087, 8057,8.60941743850708
30, 8106, 8153, 8163, 8139, 8139, 8166, 8140, 8177, 8128, 8160, 8128, 8150, 8105, 8076,8.624000787734985
31, 8104, 8137, 8124, 8139, 8131, 8170, 8152, 8164, 8138, 8171, 8120, 8130, 8106, 8086,8.624000787734985
32, 8099, 8129, 8182, 8108, 8118, 8168, 8135, 8165, 8103, 8144, 8083, 8126, 8081, 8080,8.640344619750977
33, 8101, 8119, 8107, 8112, 8111, 8154, 8133, 8156, 8117, 8154, 8084, 8123, 8098, 8079,8.640344619750977
34, 8122, 8129, 8160, 8106, 8098, 8148, 8123, 8167, 8141, 8165, 8112, 8155, 8130, 8105,8.656278371810913
35, 8132, 8146, 8183, 8105, 8107, 8160, 8133, 8173, 8153, 8173, 8145, 8188, 8145, 8126,8.656278371810913
36, 8142, 8138, 8134, 8124, 8125, 8146, 8141, 8168, 8153, 8171, 8160, 8184, 8150, 8124,8.67013168334961
37, 8155, 8152, 8211, 8131, 8125, 8146, 8125, 8175, 8134, 8150, 8149, 8197, 8142, 8120,8.686487436294556
38, 8141, 8153, 8142, 8133, 8125, 8155, 8126, 8158, 8130, 8154, 8150, 8188, 8136, 8108,8.686487436294556
39, 8132, 8142, 8156, 8113, 8117, 8145, 8105, 8166, 8111, 8150, 8159, 8181, 8135, 8099,8.686487436294556
40, 8134, 8150, 8177, 8128, 8120, 8151, 8097, 8171, 8111, 8158, 8169, 8180, 8136, 8100,8.702076196670532
41, 8120, 8152, 8115, 8162, 8131, 8163, 8119, 8154, 8123, 8175, 8154, 8152, 8119, 8096,8.717183113098145
42, 8107, 8152, 8182, 8151, 8126, 8177, 8128, 8166, 8109, 8170, 8128, 8156, 8108, 8092,8.717183113098145
43, 8104, 8139, 8123, 8150, 8128, 8178, 8146, 8166, 8136, 8193, 8140, 8156, 8147, 8097,8.73234748840332
44, 8119, 8137, 8142, 8157, 8132, 8175, 8146, 8173, 8160, 8200, 8144, 8155, 8170, 8113,8.73234748840332
45, 8123, 8148, 8182, 8161, 8125, 8179, 8135, 8180, 8152, 8191, 8135, 8162, 8159, 8116,8.749229431152344
46, 8106, 8130, 8104, 8139, 8107, 8159, 8127, 8161, 8133, 8178, 8120, 8137, 8140, 8093,8.749229431152344
47, 8110, 8127, 8168, 8100, 8090, 8148, 8111, 8164, 8108, 8144, 8097, 8138, 8122, 8086,8.763408422470093
48, 8124, 8135, 8131, 8121, 8098, 8146, 8113, 8158, 8117, 8150, 8108, 8148, 8137, 8098,8.763408422470093
49, 8133, 8134, 8140, 8126, 8096, 8137, 8103, 8157, 8108, 8146, 8115, 8157, 8139, 8102,8.778537034988403
50, 8123, 8128, 8176, 8099, 8085, 8139, 8096, 8163, 8087, 8111, 8103, 8155, 8122, 8083,8.778537034988403
51, 8113, 8109, 8100, 8097, 8088, 8128, 8096, 8151, 8096, 8110, 8109, 8133, 8125, 8067,8.794270277023315
52, 8133, 8132, 8178, 8104, 8087, 8132, 8069, 8160, 8090, 8125, 8131, 8165, 8135, 8078,8.794270277023315
53, 8144, 8163, 8152, 8133, 8104, 8144, 8068, 8156, 8093, 8139, 8154, 8182, 8146, 8082,8.810283422470093
54, 8131, 8153, 8143, 8141, 8118, 8142, 8073, 8154, 8092, 8130, 8152, 8169, 8140, 8073,8.810283422470093
55, 8105, 8140, 8185, 8124, 8108, 8158, 8079, 8157, 8085, 8121, 8134, 8160, 8121, 8059,8.82585334777832
56, 8093, 8137, 8109, 8130, 8108, 8161, 8105, 8151, 8100, 8127, 8123, 8135, 8119, 8047,8.82585334777832
57, 8113, 8148, 8174, 8136, 8123, 8170, 8118, 8173, 8104, 8119, 8116, 8145, 8118, 8062,8.84128737449646
58, 8107, 8140, 8140, 8139, 8129, 8180, 8137, 8168, 8112, 8139, 8120, 8138, 8111, 8070,8.84128737449646
59, 8089, 8127, 8119, 8130, 8118, 8166, 8138, 8163, 8115, 8153, 8115, 8124, 8102, 8069,8.856437921524048
60, 8103, 8148, 8191, 8139, 8113, 8173, 8128, 8180, 8127, 8154, 8115, 8149, 8106, 8082,8.856437921524048
61, 8119, 8146, 8121, 8162, 8118, 8183, 8137, 8159, 8146, 8175, 8128, 8144, 8116, 8091,8.872132539749146
62, 8125, 8138, 8175, 8142, 8113, 8177, 8130, 8157, 8116, 8157, 8116, 8145, 8109, 8099,8.872132539749146
63, 8117, 8145, 8162, 8150, 8116, 8169, 8129, 8166, 8108, 8148, 8114, 8154, 8119, 8109,8.888377666473389
64, 8127, 8144, 8133, 8167, 8114, 8157, 8128, 8170, 8125, 8162, 8128, 8158, 8125, 8117,8.888377666473389
65, 8150, 8149, 8205, 8148, 8115, 8168, 8125, 8182, 8144, 8171, 8140, 8184, 8125, 8128,8.90343427658081
66, 8155, 8152, 8142, 8153, 8133, 8166, 8126, 8165, 8176, 8190, 8156, 8187, 8151, 8130,8.90343427658081
67, 8161, 8168, 8197, 8168, 8133, 8153, 8093, 8165, 8162, 8177, 8152, 8195, 8153, 8128,8.919403076171875
68, 8160, 8173, 8183, 8172, 8130, 8163, 8089, 8159, 8137, 8161, 8152, 8197, 8143, 8117,8.919403076171875
69, 8144, 8155, 8124, 8143, 8132, 8164, 8108, 8150, 8123, 8143, 8152, 8176, 8143, 8096,8.935492515563965
70, 8133, 8163, 8194, 8126, 8134, 8164, 8114, 8163, 8107, 8133, 8144, 8181, 8141, 8093,8.935492515563965
71, 8136, 8166, 8131, 8158, 8144, 8156, 8137, 8160, 8119, 8156, 8150, 8177, 8142, 8103,8.951024770736694
72, 8145, 8164, 8168, 8146, 8136, 8151, 8143, 8175, 8127, 8149, 8143, 8179, 8134, 8106,8.951024770736694
73, 8138, 8170, 8177, 8138, 8128, 8167, 8152, 8178, 8146, 8154, 8143, 8181, 8141, 8105,8.967112064361572
74, 8141, 8171, 8136, 8177, 8141, 8175, 8161, 8168, 8163, 8180, 8154, 8174, 8151, 8115,8.967112064361572
75, 8156, 8179, 8217, 8189, 8148, 8189, 8152, 8184, 8156, 8175, 8150, 8196, 8141, 8130,8.982174158096313
76, 8153, 8168, 8149, 8181, 8147, 8185, 8154, 8171, 8170, 8181, 8151, 8187, 8142, 8125,8.982174158096313
77, 8155, 8165, 8173, 8174, 8148, 8182, 8152, 8164, 8169, 8189, 8156, 8184, 8148, 8131,8.997310400009155
