COUNTER,F3,FC5,AF3,F7,T7,P7,O1,O2,P8,T8,F8,AF4,FC6,F4,Timestamp
70, 8184, 8158, 8165, 8152, 8146, 8175, 8164, 8170, 8176, 8173, 8137, 8166, 8161, 8154,0.04001188278198242
71, 8183, 8151, 8106, 8151, 8151, 8167, 8168, 8158, 8168, 8160, 8155, 8155, 8165, 8145,0.04001188278198242
72, 8191, 8161, 8181, 8143, 8156, 8171, 8165, 8168, 8159, 8163, 8165, 8178, 8182, 8154,0.05608320236206055
73, 8190, 8166, 8130, 8159, 8168, 8170, 8169, 8162, 8173, 8191, 8174, 8175, 8197, 8165,0.05608320236206055
74, 8198, 8168, 8151, 8161, 8165, 8153, 8149, 8166, 8175, 8176, 8173, 8177, 8192, 8176,0.07220125198364258
75, 8197, 8181, 8180, 8156, 8159, 8159, 8144, 8169, 8187, 8158, 8166, 8181, 8187, 8167,0.07220125198364258
76, 8186, 8174, 8112, 8158, 8167, 8164, 8165, 8164, 8221, 8171, 8167, 8164, 8188, 8153,0.08832025527954102
77, 8193, 8179, 8186, 8146, 8167, 8165, 8157, 8180, 8214, 8169, 8172, 8185, 8177, 8154,0.08832025527954102
78, 8193, 8185, 8147, 8166, 8170, 8169, 8157, 8168, 8195, 8184, 8185, 8184, 8180, 8146,0.10390639305114746
79, 8195, 8195, 8155, 8182, 8180, 8175, 8171, 8167, 8183, 8192, 8196, 8186, 8189, 8152,0.10390639305114746
80, 8205, 8210, 8203, 8192, 8196, 8194, 8188, 8178, 8188, 8193, 8209, 8210, 8198, 8174,0.11899304389953613
81, 8201, 8193, 8136, 8208, 8198, 8191, 8191, 8160, 8196, 8208, 8204, 8185, 8196, 8176,0.11899304389953613
82, 8195, 8187, 8194, 8190, 8184, 8194, 8188, 8171, 8198, 8206, 8170, 8174, 8179, 8174,0.13417434692382812
83, 8193, 8194, 8152, 8179, 8198, 8198, 8209, 8178, 8237, 8220, 8178, 8179, 8192, 8176,0.13417434692382812
84, 8192, 8189, 8139, 8163, 8212, 8173, 8189, 8171, 8234, 8216, 8206, 8183, 8207, 8167,0.1502976417541504
85, 8183, 8195, 8191, 8157, 8202, 8168, 8156, 8172, 8199, 8196, 8209, 8189, 8194, 8145,0.1502976417541504
86, 8179, 8201, 8126, 8177, 8200, 8173, 8161, 8164, 8199, 8193, 8200, 8171, 8185, 8138,0.16652297973632812
87, 8187, 8208, 8181, 8173, 8207, 8176, 8161, 8171, 8187, 8184, 8178, 8166, 8178, 8150,0.16652297973632812
88, 8175, 8202, 8155, 8179, 8220, 8187, 8170, 8164, 8191, 8210, 8182, 8155, 8179, 8143,0.18201088905334473
89, 8169, 8193, 8141, 8186, 8217, 8192, 8175, 8163, 8196, 8221, 8181, 8151, 8174, 8139,0.18201088905334473
90, 8173, 8201, 8195, 8187, 8212, 8198, 8186, 8178, 8201, 8208, 8160, 8161, 8167, 8152,0.1981186866760254
91, 8162, 8186, 8122, 8195, 8221, 8194, 8213, 8171, 8244, 8233, 8169, 8141, 8178, 8150,0.1981186866760254
92, 8157, 8172, 8168, 8172, 8206, 8201, 8208, 8180, 8256, 8248, 8187, 8146, 8179, 8143,0.21368718147277832
93, 8150, 8176, 8141, 8170, 8200, 8204, 8208, 8173, 8247, 8252, 8190, 8146, 8179, 8140,0.21368718147277832
94, 8154, 8177, 8113, 8179, 8213, 8186, 8219, 8164, 8236, 8244, 8173, 8135, 8178, 8143,0.22946739196777344
95, 8180, 8184, 8189, 8176, 8216, 8190, 8217, 8179, 8228, 8225, 8171, 8161, 8187, 8160,0.22946739196777344
96, 8184, 8171, 8112, 8178, 8212, 8186, 8223, 8166, 8241, 8233, 8186, 8152, 8197, 8160,0.24616789817810059
97, 8166, 8166, 8147, 8159, 8208, 8171, 8205, 8170, 8234, 8235, 8179, 8144, 8185, 8145,0.24616789817810059
98, 8153, 8176, 8147, 8165, 8215, 8175, 8197, 8176, 8239, 8239, 8180, 8151, 8185, 8136,0.2621347904205322
99, 8162, 8171, 8110, 8170, 8212, 8167, 8189, 8170, 8243, 8238, 8195, 8148, 8189, 8133,0.2621347904205322
100, 8177, 8183, 8186, 8159, 8206, 8162, 8167, 8177, 8224, 8220, 8210, 8167, 8187, 8139,0.277050256729126
101, 8176, 8188, 8128, 8178, 8219, 8163, 8169, 8163, 8225, 8214, 8212, 8162, 8186, 8133,0.277050256729126
102, 8176, 8177, 8160, 8160, 8214, 8163, 8165, 8168, 8216, 8195, 8182, 8155, 8162, 8127,0.29293155670166016
103, 8165, 8169, 8162, 8137, 8195, 8167, 8166, 8173, 8216, 8194, 8175, 8148, 8150, 8121,0.29293155670166016
104, 8156, 8160, 8104, 8147, 8187, 8154, 8165, 8165, 8208, 8193, 8183, 8127, 8152, 8108,0.30805492401123047
105, 8159, 8170, 8170, 8146, 8191, 8160, 8160, 8175, 8174, 8170, 8164, 8132, 8130, 8099,0.30805492401123047
106, 8146, 8170, 8115, 8143, 8200, 8170, 8172, 8161, 8174, 8171, 8152, 8120, 8118, 8092,0.32362818717956543
107, 8144, 8170, 8144, 8125, 8191, 8164, 8154, 8161, 8169, 8158, 8152, 8126, 8125, 8100,0.32362818717956543
108, 8153, 8174, 8165, 8132, 8185, 8169, 8151, 8168, 8161, 8154, 8158, 8144, 8133, 8107,0.3392152786254883
109, 8155, 8168, 8114, 8158, 8195, 8171, 8170, 8167, 8166, 8169, 8157, 8130, 8124, 8106,0.3392152786254883
110, 8165, 8188, 8194, 8171, 8208, 8187, 8172, 8185, 8176, 8178, 8148, 8148, 8121, 8126,0.3553478717803955
111, 8175, 8201, 8145, 8196, 8221, 8202, 8187, 8178, 8201, 8203, 8151, 8153, 8144, 8140,0.3553478717803955
112, 8186, 8191, 8159, 8192, 8213, 8196, 8191, 8178, 8198, 8189, 8137, 8144, 8139, 8140,0.37093305587768555
113, 8187, 8184, 8189, 8181, 8200, 8198, 8200, 8182, 8208, 8181, 8137, 8147, 8137, 8151,0.37093305587768555
114, 8176, 8167, 8117, 8177, 8198, 8192, 8205, 8168, 8234, 8218, 8159, 8144, 8166, 8164,0.38640403747558594
115, 8172, 8160, 8180, 8158, 8192, 8193, 8184, 8178, 8219, 8215, 8150, 8160, 8170, 8167,0.38640403747558594
116, 8172, 8163, 8137, 8167, 8201, 8195, 8192, 8174, 8230, 8205, 8139, 8149, 8163, 8158,0.40250372886657715
117, 8182, 8167, 8140, 8164, 8203, 8189, 8201, 8178, 8255, 8215, 8144, 8147, 8166, 8162,0.40250372886657715
118, 8181, 8165, 8183, 8148, 8194, 8197, 8198, 8187, 8253, 8210, 8137, 8153, 8160, 8163,0.41810131072998047
119, 8169, 8145, 8111, 8142, 8194, 8184, 8204, 8170, 8247, 8198, 8118, 8124, 8144, 8148,0.41810131072998047
120, 8176, 8157, 8177, 8125, 8189, 8170, 8196, 8179, 8236, 8196, 8122, 8137, 8149, 8149,0.43387508392333984
121, 8174, 8170, 8147, 8138, 8186, 8169, 8190, 8176, 8229, 8193, 8139, 8144, 8163, 8145,0.43387508392333984
122, 8164, 8160, 8130, 8139, 8183, 8162, 8183, 8169, 8206, 8160, 8120, 8130, 8146, 8134,0.4499812126159668
123, 8176, 8170, 8184, 8131, 8186, 8168, 8189, 8177, 8209, 8171, 8119, 8141, 8147, 8141,0.4499812126159668
124, 8194, 8173, 8127, 8146, 8192, 8164, 8196, 8165, 8235, 8202, 8141, 8142, 8169, 8147,0.4660942554473877
125, 8199, 8174, 8185, 8133, 8186, 8161, 8176, 8171, 8209, 8163, 8128, 8152, 8152, 8147,0.4660942554473877
126, 8190, 8176, 8155, 8138, 8192, 8169, 8182, 8170, 8203, 8168, 8138, 8157, 8155, 8144,0.4813528060913086
127, 8199, 8178, 8140, 8158, 8199, 8162, 8187, 8171, 8219, 8200, 8165, 8167, 8179, 8152,0.4813528060913086
236, 8209, 8194, 8208, 8164, 8199, 8166, 8175, 8180, 8209, 8178, 8164, 8186, 8176, 8157,0.49720096588134766
0, 8197, 8190, 8138, 8168, 8196, 8162, 8173, 8163, 8201, 8169, 8161, 8169, 8169, 8148,0.49720096588134766
1, 8206, 8197, 8202, 8168, 8191, 8162, 8159, 8175, 8193, 8179, 8168, 8185, 8167, 8155,0.5124812126159668
2, 8217, 8207, 8201, 8190, 8203, 8174, 8170, 8179, 8209, 8199, 8178, 8195, 8171, 8160,0.5124812126159668
3, 8202, 8187, 8148, 8180, 8212, 8169, 8184, 8175, 8216, 8200, 8161, 8166, 8166, 8151,0.5284020900726318
4, 8187, 8187, 8194, 8159, 8210, 8173, 8188, 8188, 8206, 8190, 8152, 8171, 8166, 8163,0.5284020900726318
5, 8187, 8193, 8139, 8184, 8220, 8178, 8209, 8176, 8218, 8200, 8166, 8166, 8175, 8168,0.5439951419830322
6, 8198, 8201, 8193, 8190, 8221, 8186, 8210, 8180, 8209, 8193, 8157, 8166, 8163, 8160,0.5439951419830322
7, 8201, 8208, 8189, 8194, 8223, 8195, 8212, 8177, 8211, 8203, 8156, 8175, 8165, 8162,0.5592126846313477
8, 8199, 8194, 8141, 8197, 8220, 8177, 8204, 8167, 8218, 8213, 8163, 8177, 8179, 8178,0.5592126846313477
9, 8197, 8191, 8207, 8182, 8206, 8177, 8184, 8179, 8208, 8199, 8154, 8196, 8176, 8185,0.5747082233428955
10, 8192, 8191, 8145, 8191, 8210, 8192, 8201, 8169, 8225, 8213, 8155, 8185, 8177, 8178,0.5747082233428955
11, 8199, 8194, 8185, 8191, 8214, 8192, 8204, 8175, 8219, 8209, 8150, 8175, 8173, 8180,0.5901780128479004
12, 8194, 8198, 8198, 8198, 8211, 8192, 8198, 8178, 8199, 8192, 8143, 8167, 8162, 8170,0.5901780128479004
13, 8189, 8192, 8143, 8208, 8213, 8191, 8202, 8166, 8191, 8191, 8141, 8153, 8151, 8164,0.6069173812866211
14, 8205, 8202, 8215, 8201, 8218, 8201, 8202, 8181, 8190, 8196, 8147, 8178, 8156, 8187,0.6069173812866211
15, 8206, 8198, 8155, 8208, 8222, 8197, 8207, 8177, 8221, 8214, 8166, 8175, 8181, 8192,0.6220057010650635
16, 8197, 8181, 8170, 8194, 8208, 8190, 8198, 8179, 8229, 8208, 8156, 8167, 8178, 8175,0.6220057010650635
17, 8190, 8178, 8194, 8187, 8205, 8199, 8207, 8183, 8230, 8212, 8148, 8169, 8172, 8168,0.6374597549438477
18, 8194, 8181, 8142, 8200, 8215, 8192, 8218, 8173, 8235, 8225, 8157, 8158, 8183, 8170,0.6374597549438477
19, 8200, 8193, 8205, 8184, 8211, 8192, 8199, 8178, 8208, 8198, 8141, 8166, 8169, 8170,0.6553137302398682
20, 8187, 8178, 8143, 8172, 8209, 8186, 8209, 8168, 8205, 8195, 8126, 8153, 8158, 8158,0.6553137302398682
21, 8186, 8164, 8150, 8160, 8201, 8172, 8213, 8171, 8203, 8194, 8130, 8153, 8165, 8156,0.6688327789306641
22, 8193, 8183, 8189, 8167, 8195, 8185, 8201, 8175, 8197, 8183, 8144, 8173, 8175, 8160,0.6688327789306641
23, 8200, 8186, 8138, 8179, 8201, 8180, 8196, 8161, 8207, 8189, 8156, 8172, 8183, 8157,0.6852593421936035
24, 8215, 8189, 8215, 8169, 8200, 8173, 8187, 8178, 8203, 8178, 8159, 8193, 8184, 8173,0.7003574371337891
25, 8216, 8196, 8168, 8181, 8205, 8174, 8193, 8175, 8205, 8176, 8168, 8193, 8187, 8173,0.7003574371337891
26, 8214, 8197, 8162, 8183, 8207, 8163, 8174, 8167, 8194, 8177, 8170, 8186, 8178, 8156,0.7003574371337891
27, 8223, 8208, 8218, 8189, 8212, 8167, 8156, 8172, 8188, 8175, 8177, 8200, 8179, 8157,0.7163691520690918
28, 8227, 8206, 8156, 8208, 8222, 8172, 8170, 8162, 8191, 8175, 8188, 8189, 8192, 8160,0.7163691520690918
29, 8222, 8203, 8206, 8194, 8218, 8175, 8174, 8177, 8170, 8163, 8178, 8189, 8182, 8158,0.7329361438751221
30, 8212, 8197, 8164, 8208, 8220, 8182, 8189, 8173, 8183, 8183, 8179, 8178, 8183, 8155,0.7329361438751221
31, 8211, 8193, 8152, 8226, 8228, 8185, 8199, 8171, 8195, 8186, 8178, 8166, 8180, 8160,0.7486584186553955
32, 8203, 8196, 8201, 8219, 8227, 8197, 8209, 8182, 8185, 8180, 8167, 8166, 8168, 8163,0.7486584186553955
33, 8187, 8168, 8120, 8211, 8214, 8194, 8216, 8167, 8187, 8203, 8161, 8135, 8174, 8155,0.7625491619110107
34, 8185, 8148, 8168, 8179, 8194, 8186, 8193, 8172, 8181, 8193, 8150, 8136, 8170, 8152,0.7625491619110107
35, 8179, 8150, 8144, 8171, 8193, 8181, 8196, 8172, 8190, 8189, 8156, 8154, 8176, 8154,0.7789947986602783
36, 8186, 8161, 8127, 8177, 8198, 8172, 8197, 8175, 8190, 8196, 8173, 8168, 8196, 8167,0.7799990177154541
37, 8209, 8187, 8198, 8177, 8202, 8184, 8186, 8184, 8181, 8190, 8189, 8194, 8205, 8177,0.7936997413635254
38, 8213, 8190, 8139, 8200, 8213, 8190, 8196, 8168, 8183, 8193, 8202, 8183, 8199, 8161,0.7946982383728027
39, 8209, 8195, 8191, 8211, 8218, 8187, 8192, 8177, 8160, 8182, 8191, 8186, 8184, 8158,0.8097116947174072
40, 8194, 8193, 8171, 8217, 8217, 8186, 8192, 8173, 8156, 8181, 8175, 8173, 8178, 8156,0.8097116947174072
41, 8181, 8166, 8126, 8200, 8200, 8169, 8183, 8158, 8162, 8179, 8161, 8144, 8170, 8148,0.826113224029541
42, 8194, 8169, 8192, 8177, 8182, 8176, 8172, 8172, 8167, 8182, 8169, 8165, 8179, 8165,0.826113224029541
43, 8203, 8167, 8131, 8181, 8181, 8175, 8184, 8171, 8191, 8209, 8192, 8173, 8200, 8174,0.8412575721740723
44, 8204, 8160, 8177, 8161, 8165, 8159, 8170, 8173, 8173, 8186, 8186, 8174, 8187, 8160,0.8412575721740723
45, 8205, 8178, 8191, 8174, 8172, 8168, 8168, 8169, 8158, 8175, 8193, 8179, 8182, 8152,0.8564083576202393
46, 8207, 8190, 8153, 8219, 8207, 8189, 8197, 8172, 8180, 8207, 8213, 8178, 8194, 8168,0.8564083576202393
47, 8201, 8191, 8216, 8219, 8212, 8213, 8217, 8195, 8199, 8227, 8200, 8182, 8191, 8183,0.8743791580200195
48, 8186, 8177, 8142, 8203, 8198, 8204, 8221, 8180, 8206, 8233, 8183, 8159, 8184, 8172,0.8743791580200195
49, 8190, 8168, 8166, 8181, 8179, 8172, 8184, 8171, 8179, 8205, 8179, 8165, 8178, 8169,0.8892810344696045
50, 8194, 8174, 8181, 8183, 8172, 8162, 8162, 8170, 8167, 8194, 8193, 8187, 8194, 8168,0.8892810344696045
51, 8194, 8178, 8133, 8187, 8181, 8156, 8171, 8163, 8173, 8196, 8205, 8175, 8203, 8155,0.9039602279663086
52, 8197, 8195, 8205, 8179, 8190, 8165, 8170, 8176, 8155, 8171, 8197, 8176, 8179, 8144,0.9193730354309082
53, 8188, 8192, 8143, 8204, 8202, 8176, 8181, 8168, 8165, 8173, 8199, 8159, 8172, 8148,0.920374870300293
54, 8197, 8187, 8174, 8212, 8204, 8180, 8185, 8175, 8177, 8201, 8203, 8164, 8190, 8176,0.920374870300293
55, 8204, 8197, 8212, 8219, 8205, 8193, 8190, 8178, 8179, 8225, 8210, 8183, 8203, 8186,0.9348917007446289
56, 8186, 8183, 8135, 8221, 8203, 8182, 8180, 8161, 8165, 8216, 8199, 8153, 8192, 8164,0.9515185356140137
57, 8173, 8172, 8182, 8187, 8187, 8169, 8156, 8175, 8139, 8187, 8175, 8143, 8171, 8154,0.9515185356140137
58, 8167, 8161, 8130, 8179, 8184, 8166, 8177, 8169, 8159, 8208, 8185, 8141, 8176, 8156,0.9515185356140137
59, 8175, 8160, 8145, 8179, 8184, 8173, 8192, 8172, 8179, 8220, 8190, 8149, 8181, 8166,0.9662692546844482
60, 8181, 8173, 8182, 8175, 8185, 8191, 8196, 8184, 8186, 8206, 8179, 8159, 8181, 8171,0.9662692546844482
61, 8175, 8160, 8115, 8166, 8188, 8174, 8193, 8165, 8187, 8195, 8173, 8136, 8178, 8150,0.9826316833496094
62, 8172, 8161, 8179, 8148, 8179, 8160, 8171, 8168, 8162, 8174, 8162, 8142, 8163, 8134,0.9969754219055176
63, 8170, 8165, 8142, 8152, 8176, 8160, 8176, 8167, 8174, 8178, 8166, 8139, 8164, 8131,0.9969754219055176
64, 8185, 8157, 8150, 8145, 8164, 8147, 8171, 8171, 8174, 8169, 8183, 8146, 8172, 8142,1.0123114585876465
65, 8205, 8167, 8201, 8147, 8153, 8148, 8153, 8176, 8142, 8155, 8199, 8189, 8185, 8161,1.0123114585876465
66, 8204, 8174, 8137, 8170, 8163, 8147, 8159, 8161, 8137, 8176, 8202, 8196, 8192, 8159,1.0279252529144287
67, 8203, 8190, 8204, 8172, 8175, 8152, 8166, 8174, 8138, 8177, 8195, 8194, 8175, 8156,1.0279252529144287
68, 8196, 8192, 8164, 8186, 8188, 8167, 8179, 8174, 8154, 8175, 8206, 8182, 8170, 8154,1.0433573722839355
69, 8180, 8168, 8139, 8179, 8182, 8167, 8171, 8168, 8149, 8173, 8200, 8172, 8170, 8152,1.0433573722839355
70, 8167, 8166, 8190, 8160, 8175, 8177, 8171, 8176, 8134, 8179, 8180, 8176, 8163, 8145,1.059253215789795
71, 8176, 8165, 8120, 8178, 8186, 8185, 8199, 8169, 8148, 8197, 8181, 8161, 8162, 8140,1.059253215789795
72, 8193, 8161, 8180, 8181, 8186, 8187, 8195, 8180, 8153, 8187, 8175, 8179, 8159, 8153,1.0749404430389404
73, 8176, 8155, 8155, 8179, 8182, 8184, 8188, 8167, 8166, 8193, 8176, 8182, 8166, 8155,1.0749404430389404
74, 8166, 8148, 8118, 8163, 8172, 8170, 8184, 8157, 8170, 8201, 8177, 8169, 8175, 8149,1.0901310443878174
75, 8174, 8155, 8179, 8144, 8169, 8178, 8182, 8175, 8167, 8187, 8164, 8187, 8173, 8149,1.0901310443878174
76, 8171, 8148, 8113, 8152, 8177, 8177, 8188, 8168, 8186, 8186, 8163, 8180, 8168, 8141,1.1052696704864502
77, 8185, 8150, 8168, 8144, 8170, 8171, 8173, 8174, 8187, 8179, 8172, 8189, 8166, 8144,1.1052696704864502
78, 8199, 8166, 8179, 8158, 8175, 8174, 8181, 8176, 8193, 8192, 8195, 8205, 8183, 8155,1.1209080219268799
79, 8206, 8175, 8156, 8178, 8191, 8165, 8191, 8172, 8192, 8198, 8208, 8214, 8190, 8155,1.1209080219268799
80, 8209, 8190, 8219, 8178, 8195, 8174, 8184, 8180, 8176, 8186, 8212, 8233, 8179, 8151,1.1372110843658447
81, 8194, 8190, 8151, 8205, 8204, 8183, 8197, 8171, 8188, 8211, 8211, 8209, 8183, 8145,1.1372110843658447
82, 8188, 8187, 8191, 8211, 8213, 8182, 8196, 8180, 8181, 8214, 8190, 8196, 8178, 8154,1.1524102687835693
83, 8197, 8190, 8195, 8210, 8212, 8187, 8199, 8176, 8174, 8208, 8199, 8199, 8181, 8165,1.1524102687835693
84, 8201, 8181, 8152, 8216, 8205, 8184, 8209, 8162, 8183, 8213, 8212, 8190, 8187, 8163,1.16810941696167
85, 8195, 8180, 8208, 8199, 8196, 8189, 8211, 8179, 8185, 8206, 8187, 8197, 8178, 8171,1.16810941696167
86, 8179, 8165, 8131, 8187, 8191, 8179, 8217, 8170, 8193, 8216, 8173, 8177, 8178, 8167,1.1842231750488281
87, 8179, 8160, 8164, 8170, 8176, 8162, 8197, 8171, 8183, 8205, 8173, 8171, 8174, 8155,1.1842231750488281
88, 8184, 8175, 8186, 8175, 8182, 8172, 8196, 8178, 8196, 8202, 8192, 8190, 8181, 8155,1.1999871730804443
89, 8190, 8171, 8133, 8175, 8192, 8168, 8198, 8174, 8219, 8216, 8216, 8193, 8196, 8166,1.1999871730804443
90, 8196, 8176, 8205, 8152, 8174, 8161, 8169, 8182, 8193, 8201, 8204, 8206, 8185, 8164,1.2161965370178223
91, 8187, 8178, 8147, 8165, 8166, 8159, 8163, 8162, 8175, 8180, 8190, 8195, 8172, 8145,1.2161965370178223
92, 8188, 8178, 8167, 8164, 8166, 8150, 8157, 8162, 8165, 8160, 8200, 8195, 8174, 8144,1.2316820621490479
93, 8188, 8184, 8198, 8162, 8166, 8156, 8156, 8174, 8168, 8176, 8213, 8204, 8182, 8148,1.2316820621490479
94, 8171, 8171, 8131, 8169, 8170, 8159, 8165, 8168, 8171, 8193, 8196, 8172, 8170, 8136,1.2469329833984375
95, 8159, 8172, 8195, 8158, 8168, 8169, 8164, 8176, 8158, 8172, 8167, 8161, 8145, 8131,1.2469329833984375
96, 8163, 8173, 8151, 8176, 8178, 8178, 8187, 8169, 8181, 8185, 8180, 8160, 8158, 8133,1.2621164321899414
97, 8181, 8169, 8162, 8191, 8181, 8177, 8193, 8171, 8184, 8197, 8186, 8167, 8170, 8145,1.2621164321899414
98, 8175, 8175, 8189, 8192, 8182, 8185, 8186, 8175, 8161, 8188, 8170, 8168, 8159, 8150,1.27716064453125
99, 8158, 8161, 8113, 8190, 8181, 8179, 8197, 8161, 8171, 8195, 8166, 8143, 8164, 8143,1.27716064453125
100, 8171, 8162, 8184, 8171, 8168, 8176, 8193, 8174, 8189, 8196, 8168, 8157, 8175, 8153,1.2932708263397217
101, 8176, 8167, 8146, 8172, 8161, 8168, 8188, 8172, 8207, 8204, 8175, 8160, 8180, 8156,1.2932708263397217
102, 8170, 8159, 8136, 8164, 8158, 8150, 8173, 8170, 8199, 8198, 8179, 8160, 8179, 8148,1.3092517852783203
103, 8168, 8166, 8183, 8153, 8162, 8158, 8162, 8174, 8182, 8179, 8183, 8169, 8185, 8144,1.3092517852783203
104, 8165, 8165, 8115, 8165, 8173, 8153, 8161, 8155, 8169, 8165, 8178, 8147, 8177, 8128,1.324723482131958
105, 8169, 8174, 8181, 8170, 8173, 8150, 8145, 8163, 8138, 8148, 8166, 8160, 8155, 8121,1.324723482131958
106, 8169, 8188, 8159, 8190, 8181, 8162, 8151, 8162, 8139, 8169, 8182, 8165, 8173, 8132,1.339867353439331
107, 8169, 8189, 8142, 8194, 8183, 8158, 8151, 8162, 8134, 8174, 8180, 8151, 8177, 8138,1.339867353439331
108, 8167, 8188, 8197, 8187, 8181, 8163, 8155, 8175, 8123, 8159, 8164, 8162, 8158, 8137,1.3560948371887207
109, 8158, 8173, 8125, 8200, 8183, 8173, 8177, 8161, 8143, 8178, 8162, 8144, 8167, 8139,1.3560948371887207
110, 8161, 8162, 8171, 8182, 8168, 8177, 8169, 8170, 8147, 8180, 8147, 8134, 8170, 8152,1.3712754249572754
111, 8155, 8149, 8146, 8159, 8159, 8169, 8174, 8169, 8162, 8185, 8145, 8132, 8174, 8155,1.3712754249572754
112, 8151, 8139, 8118, 8134, 8158, 8148, 8172, 8163, 8169, 8184, 8157, 8139, 8183, 8153,1.3868558406829834
113, 8160, 8159, 8184, 8133, 8157, 8156, 8154, 8176, 8153, 8172, 8166, 8167, 8186, 8148,1.3868558406829834
114, 8168, 8166, 8122, 8169, 8169, 8159, 8162, 8166, 8161, 8181, 8174, 8154, 8190, 8140,1.4024059772491455
115, 8172, 8162, 8171, 8154, 8162, 8153, 8149, 8170, 8149, 8167, 8162, 8154, 8182, 8147,1.4024059772491455
116, 8166, 8163, 8162, 8136, 8160, 8156, 8141, 8169, 8139, 8162, 8159, 8159, 8183, 8144,1.4180402755737305
117, 8174, 8175, 8139, 8155, 8176, 8157, 8157, 8166, 8141, 8177, 8175, 8161, 8191, 8136,1.4180402755737305
118, 8197, 8203, 8222, 8181, 8185, 8175, 8175, 8177, 8140, 8185, 8198, 8189, 8198, 8157,1.4327502250671387
119, 8194, 8197, 8151, 8202, 8182, 8173, 8173, 8166, 8156, 8189, 8203, 8180, 8202, 8161,1.4327502250671387
120, 8184, 8187, 8183, 8186, 8175, 8160, 8144, 8177, 8146, 8172, 8180, 8170, 8184, 8152,1.4484426975250244
121, 8186, 8200, 8194, 8188, 8189, 8180, 8155, 8177, 8138, 8175, 8179, 8171, 8180, 8158,1.4494426250457764
122, 8195, 8196, 8152, 8200, 8193, 8182, 8172, 8163, 8136, 8178, 8192, 8167, 8192, 8165,1.4649810791015625
123, 8195, 8194, 8214, 8188, 8179, 8177, 8172, 8176, 8129, 8163, 8181, 8179, 8198, 8168,1.4649810791015625
124, 8178, 8181, 8137, 8195, 8181, 8185, 8195, 8168, 8145, 8184, 8167, 8154, 8199, 8163,1.4802064895629883
125, 8174, 8170, 8160, 8181, 8177, 8191, 8193, 8175, 8139, 8186, 8155, 8140, 8185, 8165,1.4802064895629883
126, 8170, 8172, 8174, 8169, 8169, 8182, 8184, 8183, 8143, 8174, 8156, 8150, 8180, 8169,1.494859218597412
127, 8162, 8154, 8109, 8169, 8160, 8164, 8182, 8169, 8162, 8180, 8150, 8141, 8184, 8166,1.494859218597412
236, 8174, 8158, 8183, 8160, 8154, 8178, 8181, 8181, 8168, 8183, 8142, 8152, 8183, 8174,1.5100297927856445
0, 8193, 8171, 8144, 8175, 8175, 8184, 8201, 8181, 8197, 8209, 8170, 8160, 8206, 8184,1.5100297927856445
1, 8207, 8177, 8170, 8181, 8188, 8165, 8185, 8180, 8197, 8211, 8192, 8181, 8218, 8194,1.5252525806427002
2, 8196, 8183, 8197, 8179, 8177, 8163, 8156, 8172, 8174, 8193, 8192, 8199, 8207, 8185,1.5403852462768555
3, 8182, 8173, 8129, 8177, 8168, 8149, 8152, 8159, 8166, 8187, 8192, 8183, 8201, 8162,1.5403852462768555
4, 8193, 8182, 8205, 8168, 8176, 8155, 8155, 8174, 8159, 8178, 8197, 8199, 8200, 8163,1.5560152530670166
5, 8193, 8191, 8169, 8190, 8195, 8173, 8172, 8164, 8169, 8186, 8213, 8196, 8204, 8164,1.5560152530670166
6, 8184, 8186, 8168, 8186, 8191, 8165, 8164, 8168, 8150, 8181, 8205, 8182, 8191, 8150,1.5712826251983643
7, 8173, 8185, 8190, 8168, 8184, 8162, 8160, 8179, 8132, 8172, 8189, 8182, 8174, 8140,1.5712826251983643
8, 8160, 8172, 8117, 8178, 8181, 8164, 8172, 8160, 8148, 8178, 8181, 8153, 8170, 8143,1.5869550704956055
9, 8155, 8171, 8183, 8176, 8170, 8175, 8168, 8170, 8145, 8174, 8163, 8152, 8164, 8150,1.5869550704956055
10, 8151, 8167, 8141, 8179, 8179, 8183, 8180, 8168, 8151, 8189, 8154, 8145, 8162, 8140,1.6019673347473145
11, 8156, 8157, 8133, 8170, 8181, 8177, 8182, 8164, 8157, 8186, 8141, 8127, 8154, 8136,1.6019673347473145
12, 8164, 8162, 8184, 8165, 8171, 8185, 8183, 8172, 8159, 8184, 8134, 8135, 8156, 8149,1.617527723312378
13, 8162, 8162, 8115, 8174, 8175, 8184, 8194, 8159, 8173, 8210, 8148, 8140, 8173, 8155,1.617527723312378
14, 8171, 8173, 8180, 8162, 8175, 8178, 8179, 8168, 8172, 8206, 8147, 8156, 8176, 8156,1.633164405822754
15, 8183, 8178, 8165, 8185, 8178, 8180, 8178, 8175, 8185, 8213, 8152, 8156, 8189, 8156,1.633164405822754
16, 8186, 8162, 8143, 8180, 8172, 8172, 8168, 8170, 8176, 8215, 8158, 8157, 8194, 8158,1.6488606929779053
17, 8172, 8153, 8180, 8134, 8157, 8173, 8150, 8170, 8158, 8199, 8149, 8168, 8180, 8149,1.6488606929779053
18, 8160, 8155, 8120, 8148, 8161, 8167, 8161, 8162, 8178, 8201, 8156, 8150, 8183, 8134,1.664534091949463
19, 8182, 8183, 8196, 8184, 8169, 8167, 8167, 8178, 8172, 8185, 8170, 8174, 8184, 8153,1.664534091949463
20, 8186, 8193, 8170, 8197, 8168, 8170, 8171, 8168, 8155, 8170, 8179, 8189, 8183, 8160,1.6805076599121094
21, 8168, 8176, 8137, 8187, 8163, 8159, 8161, 8157, 8138, 8156, 8178, 8177, 8180, 8141,1.6805076599121094
22, 8169, 8193, 8222, 8199, 8167, 8171, 8150, 8172, 8128, 8150, 8188, 8198, 8177, 8142,1.6951632499694824
23, 8177, 8201, 8159, 8230, 8174, 8171, 8156, 8160, 8136, 8164, 8196, 8191, 8175, 8135,1.6951632499694824
24, 8182, 8198, 8195, 8219, 8173, 8166, 8142, 8166, 8120, 8149, 8180, 8189, 8160, 8129,1.710310935974121
25, 8184, 8204, 8193, 8228, 8187, 8180, 8143, 8168, 8123, 8155, 8189, 8201, 8168, 8139,1.710310935974121
26, 8192, 8198, 8161, 8240, 8192, 8168, 8144, 8161, 8139, 8171, 8201, 8202, 8183, 8148,1.7262647151947021
27, 8194, 8202, 8228, 8228, 8177, 8161, 8133, 8171, 8133, 8161, 8193, 8210, 8175, 8146,1.7262647151947021
28, 8177, 8193, 8153, 8232, 8181, 8172, 8148, 8161, 8134, 8169, 8194, 8186, 8168, 8133,1.7422888278961182
29, 8174, 8189, 8184, 8225, 8189, 8179, 8145, 8169, 8127, 8163, 8183, 8182, 8161, 8136,1.7422888278961182
30, 8183, 8198, 8197, 8241, 8192, 8184, 8142, 8171, 8145, 8167, 8180, 8195, 8170, 8151,1.757878303527832
31, 8192, 8189, 8154, 8248, 8192, 8179, 8146, 8163, 8154, 8182, 8184, 8189, 8180, 8158,1.757878303527832
32, 8185, 8191, 8215, 8220, 8188, 8191, 8141, 8173, 8125, 8178, 8171, 8188, 8167, 8154,1.7739574909210205
33, 8160, 8179, 8144, 8219, 8195, 8201, 8162, 8163, 8136, 8185, 8161, 8159, 8158, 8136,1.7739574909210205
34, 8157, 8163, 8165, 8212, 8190, 8191, 8177, 8172, 8148, 8173, 8142, 8153, 8148, 8131,1.7898485660552979
35, 8158, 8168, 8175, 8204, 8185, 8197, 8191, 8181, 8151, 8176, 8135, 8164, 8144, 8134,1.7898485660552979
36, 8153, 8165, 8118, 8205, 8191, 8199, 8199, 8170, 8166, 8199, 8147, 8157, 8156, 8137,1.8048803806304932
37, 8160, 8162, 8192, 8195, 8186, 8185, 8189, 8182, 8164, 8193, 8147, 8173, 8161, 8144,1.8048803806304932
38, 8153, 8160, 8134, 8207, 8182, 8160, 8200, 8176, 8165, 8193, 8144, 8159, 8162, 8140,1.8209612369537354
39, 8152, 8163, 8145, 8201, 8178, 8158, 8204, 8173, 8162, 8193, 8138, 8152, 8159, 8150,1.8209612369537354
40, 8159, 8161, 8172, 8190, 8176, 8173, 8199, 8174, 8169, 8193, 8146, 8164, 8171, 8167,1.8371353149414062
41, 8158, 8143, 8105, 8187, 8169, 8145, 8190, 8168, 8181, 8197, 8156, 8156, 8185, 8161,1.8371353149414062
42, 8163, 8155, 8181, 8181, 8158, 8134, 8171, 8180, 8180, 8190, 8150, 8172, 8182, 8158,1.8530142307281494
43, 8171, 8172, 8146, 8204, 8170, 8150, 8180, 8165, 8202, 8208, 8159, 8173, 8192, 8159,1.8530142307281494
44, 8180, 8170, 8148, 8197, 8170, 8144, 8176, 8165, 8200, 8212, 8167, 8177, 8198, 8161,1.8680505752563477
45, 8172, 8169, 8184, 8172, 8161, 8138, 8159, 8180, 8177, 8196, 8171, 8197, 8192, 8159,1.8680505752563477
46, 8166, 8159, 8121, 8181, 8165, 8127, 8154, 8166, 8169, 8187, 8178, 8189, 8193, 8151,1.8830630779266357
47, 8188, 8176, 8193, 8189, 8169, 8132, 8149, 8172, 8148, 8171, 8177, 8200, 8187, 8158,1.8830630779266357
48, 8192, 8189, 8158, 8201, 8176, 8143, 8161, 8170, 8152, 8175, 8177, 8199, 8183, 8158,1.8991155624389648
49, 8187, 8190, 8156, 8199, 8176, 8143, 8153, 8170, 8161, 8177, 8178, 8199, 8184, 8158,1.8991155624389648
50, 8188, 8198, 8210, 8190, 8180, 8161, 8149, 8177, 8167, 8186, 8186, 8210, 8197, 8164,1.9151573181152344
51, 8176, 8182, 8130, 8190, 8188, 8163, 8168, 8161, 8179, 8210, 8191, 8182, 8204, 8157,1.9151573181152344
52, 8171, 8182, 8184, 8182, 8180, 8161, 8166, 8174, 8168, 8192, 8184, 8182, 8188, 8159,1.9311072826385498
53, 8173, 8195, 8165, 8201, 8180, 8163, 8170, 8177, 8175, 8196, 8194, 8188, 8189, 8163,1.9311072826385498
54, 8174, 8185, 8143, 8204, 8178, 8154, 8172, 8171, 8170, 8211, 8190, 8170, 8189, 8159,1.9466469287872314
55, 8168, 8179, 8187, 8185, 8173, 8173, 8180, 8178, 8153, 8207, 8175, 8163, 8186, 8160,1.9466469287872314
56, 8165, 8172, 8120, 8191, 8180, 8186, 8207, 8171, 8160, 8214, 8173, 8153, 8198, 8163,1.9626743793487549
57, 8178, 8180, 8183, 8186, 8180, 8181, 8201, 8184, 8152, 8201, 8156, 8162, 8192, 8169,1.9626743793487549
58, 8180, 8190, 8162, 8190, 8183, 8183, 8206, 8176, 8164, 8204, 8156, 8159, 8194, 8168,1.9782514572143555
59, 8182, 8177, 8131, 8192, 8184, 8178, 8212, 8159, 8173, 8212, 8168, 8157, 8207, 8172,1.9782514572143555
60, 8177, 8169, 8201, 8178, 8172, 8173, 8191, 8170, 8153, 8197, 8165, 8177, 8204, 8171,1.993382215499878
61, 8163, 8160, 8127, 8160, 8164, 8156, 8184, 8165, 8164, 8200, 8172, 8169, 8206, 8160,1.993382215499878
62, 8172, 8164, 8169, 8135, 8157, 8153, 8178, 8174, 8169, 8186, 8171, 8181, 8205, 8164,2.016073226928711
63, 8180, 8178, 8171, 8159, 8164, 8163, 8178, 8172, 8166, 8176, 8167, 8193, 8207, 8168,2.016073226928711
64, 8191, 8183, 8145, 8181, 8174, 8156, 8176, 8171, 8175, 8183, 8186, 8196, 8213, 8174,2.016073226928711
65, 8212, 8199, 8224, 8166, 8174, 8165, 8173, 8190, 8187, 8195, 8214, 8231, 8220, 8189,2.024683713912964
66, 8216, 8204, 8166, 8187, 8185, 8170, 8187, 8174, 8198, 8214, 8226, 8225, 8230, 8188,2.040367364883423
67, 8219, 8207, 8203, 8199, 8187, 8165, 8177, 8174, 8171, 8200, 8203, 8213, 8213, 8185,2.040367364883423
68, 8217, 8206, 8202, 8197, 8188, 8169, 8179, 8177, 8156, 8187, 8191, 8207, 8197, 8183,2.0554001331329346
69, 8203, 8186, 8144, 8189, 8188, 8161, 8181, 8165, 8152, 8178, 8182, 8181, 8191, 8174,2.0554001331329346
70, 8201, 8190, 8214, 8181, 8178, 8172, 8170, 8174, 8137, 8172, 8163, 8191, 8182, 8179,2.0710549354553223
71, 8203, 8193, 8159, 8205, 8181, 8194, 8191, 8166, 8159, 8198, 8158, 8184, 8185, 8186,2.0710549354553223
72, 8204, 8184, 8176, 8191, 8178, 8194, 8199, 8170, 8164, 8199, 8147, 8174, 8182, 8182,2.0862481594085693
73, 8191, 8175, 8180, 8168, 8176, 8191, 8195, 8174, 8163, 8201, 8147, 8178, 8181, 8168,2.1019067764282227
74, 8177, 8167, 8126, 8177, 8179, 8181, 8196, 8168, 8179, 8215, 8154, 8171, 8181, 8165,2.1019067764282227
75, 8176, 8181, 8199, 8173, 8174, 8186, 8192, 8185, 8183, 8209, 8157, 8178, 8184, 8178,2.1019067764282227
76, 8169, 8169, 8137, 8161, 8171, 8183, 8202, 8174, 8189, 8216, 8168, 8164, 8197, 8174,2.1171653270721436
77, 8176, 8154, 8146, 8140, 8162, 8169, 8190, 8170, 8181, 8205, 8161, 8168, 8193, 8169,2.1325278282165527
78, 8184, 8174, 8186, 8145, 8161, 8180, 8188, 8177, 8191, 8197, 8154, 8186, 8191, 8173,2.1325278282165527
79, 8173, 8170, 8124, 8151, 8164, 8171, 8190, 8168, 8194, 8200, 8163, 8170, 8192, 8163,2.148329019546509
80, 8177, 8174, 8190, 8135, 8161, 8159, 8172, 8174, 8173, 8183, 8176, 8192, 8192, 8168,2.148329019546509
81, 8193, 8189, 8155, 8160, 8172, 8165, 8185, 8165, 8194, 8196, 8189, 8204, 8204, 8175,2.148329019546509
82, 8202, 8185, 8165, 8162, 8180, 8165, 8191, 8168, 8195, 8198, 8172, 8192, 8193, 8170,2.1648972034454346
83, 8198, 8186, 8204, 8141, 8183, 8169, 8188, 8177, 8178, 8189, 8165, 8195, 8182, 8166,2.17897629737854
84, 8194, 8178, 8131, 8139, 8184, 8164, 8188, 8164, 8183, 8195, 8183, 8189, 8185, 8158,2.17897629737854
85, 8187, 8167, 8184, 8117, 8171, 8167, 8168, 8173, 8163, 8169, 8159, 8189, 8157, 8149,2.194671392440796
86, 8170, 8160, 8142, 8117, 8165, 8170, 8177, 8172, 8167, 8162, 8137, 8164, 8147, 8143,2.194671392440796
87, 8172, 8165, 8137, 8129, 8163, 8163, 8182, 8170, 8178, 8177, 8145, 8156, 8165, 8144,2.194671392440796
88, 8172, 8179, 8188, 8141, 8168, 8175, 8177, 8177, 8174, 8179, 8136, 8171, 8157, 8137,2.210338592529297
89, 8154, 8171, 8115, 8157, 8175, 8170, 8181, 8168, 8181, 8164, 8105, 8139, 8132, 8120,2.2264692783355713
90, 8157, 8176, 8175, 8153, 8170, 8163, 8171, 8182, 8171, 8137, 8087, 8137, 8122, 8125,2.2264692783355713
91, 8157, 8188, 8151, 8175, 8181, 8174, 8183, 8175, 8176, 8163, 8101, 8151, 8135, 8130,2.242093324661255
92, 8150, 8188, 8130, 8188, 8191, 8174, 8185, 8163, 8174, 8182, 8095, 8150, 8131, 8123,2.242093324661255
93, 8154, 8189, 8191, 8168, 8187, 8176, 8165, 8172, 8151, 8160, 8091, 8152, 8120, 8124,2.2573513984680176
94, 8151, 8177, 8121, 8168, 8188, 8168, 8167, 8160, 8150, 8164, 8106, 8139, 8124, 8127,2.2573513984680176
95, 8148, 8179, 8168, 8166, 8182, 8170, 8162, 8169, 8139, 8151, 8086, 8146, 8114, 8129,2.2728660106658936
96, 8143, 8181, 8147, 8174, 8185, 8193, 8168, 8168, 8133, 8143, 8072, 8142, 8108, 8122,2.2728660106658936
97, 8147, 8168, 8119, 8180, 8189, 8196, 8174, 8158, 8132, 8150, 8082, 8130, 8111, 8119,2.288262128829956
98, 8146, 8170, 8186, 8167, 8178, 8193, 8173, 8172, 8127, 8145, 8073, 8139, 8136, 8127,2.288262128829956
99, 8137, 8162, 8114, 8163, 8178, 8185, 8185, 8162, 8138, 8144, 8062, 8114, 8178, 8126,2.304352283477783
100, 8143, 8162, 8157, 8156, 8180, 8189, 8183, 8166, 8131, 8126, 8052, 8108, 8163, 8121,2.304352283477783
101, 8130, 8165, 8147, 8165, 8175, 8202, 8188, 8165, 8134, 8131, 8044, 8103, 8129, 8108,2.320000648498535
102, 8118, 8149, 8097, 8158, 8165, 8191, 8186, 8160, 8148, 8149, 8041, 8084, 8135, 8101,2.320000648498535
103, 8131, 8163, 8173, 8144, 8168, 8192, 8183, 8174, 8159, 8148, 8054, 8114, 8154, 8118,2.335139513015747
104, 8141, 8177, 8121, 8171, 8188, 8193, 8202, 8166, 8183, 8168, 8080, 8127, 8161, 8126,2.335139513015747
105, 8145, 8175, 8154, 8173, 8182, 8180, 8191, 8177, 8179, 8169, 8074, 8131, 8154, 8124,2.350399971008301
106, 8135, 8168, 8153, 8164, 8170, 8175, 8176, 8175, 8173, 8149, 8064, 8132, 8151, 8112,2.350399971008301
107, 8130, 8163, 8106, 8158, 8174, 8166, 8169, 8158, 8164, 8126, 8074, 8127, 8144, 8096,2.366065263748169
108, 8145, 8194, 8189, 8164, 8182, 8173, 8162, 8173, 8141, 8120, 8089, 8153, 8136, 8103,2.366065263748169
109, 8149, 8208, 8137, 8209, 8194, 8176, 8178, 8166, 8140, 8136, 8088, 8142, 8143, 8108,2.3812382221221924
110, 8153, 8205, 8171, 8233, 8189, 8180, 8179, 8168, 8133, 8131, 8077, 8142, 8144, 8125,2.3812382221221924
111, 8169, 8216, 8203, 8250, 8190, 8203, 8189, 8178, 8145, 8149, 8104, 8170, 8161, 8152,2.3970792293548584
112, 8178, 8207, 8137, 8268, 8196, 8203, 8202, 8167, 8156, 8168, 8127, 8169, 8176, 8154,2.3970792293548584
113, 8188, 8201, 8206, 8262, 8194, 8201, 8192, 8171, 8137, 8143, 8124, 8189, 8168, 8163,2.4131925106048584
114, 8197, 8200, 8172, 8274, 8190, 8194, 8196, 8169, 8156, 8157, 8146, 8208, 8181, 8181,2.4131925106048584
115, 8204, 8195, 8195, 8265, 8170, 8176, 8180, 8177, 8173, 8174, 8177, 8229, 8198, 8192,2.4288482666015625
116, 8198, 8193, 8220, 8251, 8163, 8180, 8168, 8177, 8175, 8174, 8204, 8250, 8211, 8189,2.4288482666015625
117, 8193, 8182, 8149, 8246, 8170, 8172, 8174, 8162, 8185, 8188, 8231, 8249, 8230, 8186,2.4449167251586914
118, 8214, 8192, 8227, 8223, 8162, 8168, 8167, 8180, 8183, 8190, 8248, 8280, 8245, 8199,2.4449167251586914
119, 8229, 8205, 8194, 8236, 8170, 8173, 8180, 8176, 8194, 8198, 8269, 8292, 8258, 8205,2.4601449966430664
120, 8221, 8201, 8185, 8231, 8179, 8160, 8171, 8168, 8182, 8190, 8263, 8278, 8245, 8202,2.4601449966430664
121, 8198, 8201, 8214, 8203, 8174, 8162, 8152, 8172, 8163, 8177, 8238, 8256, 8218, 8185,2.4752323627471924
122, 8189, 8188, 8141, 8213, 8174, 8173, 8163, 8161, 8159, 8172, 8223, 8222, 8204, 8164,2.4752323627471924
123, 8191, 8191, 8196, 8215, 8173, 8188, 8170, 8171, 8122, 8141, 8191, 8216, 8182, 8162,2.491284132003784
124, 8167, 8193, 8149, 8207, 8180, 8196, 8181, 8163, 8110, 8144, 8168, 8193, 8170, 8160,2.491284132003784
125, 8158, 8175, 8130, 8191, 8182, 8189, 8183, 8160, 8126, 8158, 8164, 8181, 8172, 8160,2.5064353942871094
126, 8167, 8172, 8182, 8177, 8170, 8189, 8187, 8175, 8133, 8161, 8164, 8201, 8184, 8168,2.5064353942871094
127, 8160, 8161, 8112, 8163, 8161, 8172, 8191, 8165, 8144, 8172, 8163, 8182, 8191, 8163,2.5220088958740234
236, 8158, 8154, 8165, 8124, 8152, 8164, 8171, 8172, 8138, 8157, 8157, 8183, 8177, 8160,2.5220088958740234
0, 8154, 8152, 8140, 8125, 8150, 8170, 8172, 8169, 8154, 8166, 8174, 8192, 8186, 8162,2.537407398223877
1, 8150, 8154, 8120, 8140, 8152, 8165, 8169, 8170, 8165, 8174, 8184, 8191, 8197, 8158,2.537407398223877
2, 8155, 8174, 8182, 8138, 8162, 8179, 8159, 8183, 8162, 8167, 8183, 8208, 8192, 8149,2.552948236465454
3, 8156, 8175, 8124, 8151, 8173, 8175, 8169, 8169, 8174, 8178, 8185, 8193, 8192, 8136,2.552948236465454
4, 8154, 8184, 8179, 8144, 8165, 8163, 8165, 8174, 8155, 8163, 8169, 8178, 8175, 8136,2.5682456493377686
5, 8144, 8188, 8155, 8147, 8165, 8177, 8179, 8171, 8150, 8154, 8160, 8163, 8156, 8133,2.5682456493377686
6, 8147, 8173, 8125, 8155, 8170, 8190, 8190, 8167, 8155, 8168, 8164, 8158, 8152, 8132,2.5848734378814697
7, 8147, 8177, 8194, 8145, 8170, 8195, 8186, 8181, 8145, 8167, 8158, 8170, 8155, 8138,2.5848734378814697
8, 8130, 8172, 8111, 8149, 8173, 8189, 8193, 8167, 8153, 8158, 8142, 8140, 8156, 8129,2.600104808807373
9, 8136, 8163, 8146, 8139, 8158, 8192, 8185, 8166, 8149, 8151, 8125, 8134, 8152, 8132,2.600104808807373
10, 8140, 8152, 8150, 8126, 8149, 8201, 8190, 8166, 8148, 8174, 8127, 8148, 8160, 8142,2.615255832672119
11, 8134, 8141, 8105, 8108, 8157, 8188, 8202, 8164, 8155, 8184, 8120, 8141, 8160, 8145,2.615255832672119
12, 8139, 8154, 8173, 8098, 8153, 8193, 8203, 8182, 8161, 8175, 8112, 8157, 8162, 8154,2.6309027671813965
13, 8129, 8147, 8106, 8105, 8143, 8189, 8204, 8172, 8178, 8193, 8136, 8154, 8179, 8150,2.6309027671813965
14, 8127, 8140, 8136, 8087, 8138, 8175, 8183, 8170, 8165, 8179, 8137, 8158, 8167, 8148,2.646923065185547
15, 8147, 8161, 8162, 8103, 8149, 8178, 8175, 8172, 8156, 8164, 8123, 8169, 8155, 8150,2.661594867706299
16, 8159, 8162, 8117, 8121, 8146, 8169, 8166, 8164, 8158, 8172, 8130, 8160, 8164, 8148,2.661594867706299
17, 8160, 8160, 8183, 8103, 8135, 8173, 8149, 8177, 8151, 8161, 8149, 8182, 8170, 8154,2.6769776344299316
18, 8163, 8169, 8130, 8118, 8156, 8176, 8163, 8167, 8162, 8159, 8167, 8187, 8180, 8157,2.6769776344299316
19, 8168, 8178, 8164, 8125, 8158, 8163, 8153, 8167, 8148, 8146, 8163, 8186, 8176, 8157,2.6931605339050293
20, 8167, 8184, 8193, 8125, 8149, 8172, 8148, 8174, 8150, 8150, 8172, 8195, 8178, 8158,2.6931605339050293
21, 8175, 8180, 8136, 8138, 8162, 8183, 8175, 8170, 8178, 8176, 8195, 8192, 8191, 8164,2.6931605339050293
22, 8181, 8188, 8203, 8136, 8167, 8190, 8180, 8182, 8163, 8168, 8183, 8198, 8178, 8163,2.7073991298675537
23, 8167, 8184, 8154, 8152, 8167, 8191, 8174, 8164, 8147, 8167, 8168, 8178, 8168, 8150,2.7230944633483887
24, 8163, 8175, 8173, 8151, 8163, 8184, 8150, 8162, 8131, 8163, 8171, 8173, 8165, 8149,2.7230944633483887
25, 8158, 8174, 8198, 8140, 8157, 8187, 8146, 8175, 8131, 8160, 8171, 8173, 8160, 8144,2.7402079105377197
26, 8144, 8153, 8121, 8141, 8155, 8187, 8164, 8168, 8152, 8166, 8151, 8141, 8152, 8129,2.7402079105377197
27, 8153, 8155, 8189, 8134, 8154, 8198, 8167, 8177, 8151, 8164, 8141, 8158, 8149, 8145,2.7402079105377197
28, 8161, 8166, 8151, 8153, 8157, 8203, 8184, 8169, 8156, 8186, 8162, 8170, 8169, 8164,2.755276679992676
29, 8166, 8160, 8152, 8156, 8156, 8197, 8190, 8173, 8153, 8185, 8160, 8166, 8175, 8173,2.772812604904175
30, 8169, 8160, 8192, 8148, 8160, 8204, 8192, 8182, 8157, 8172, 8156, 8179, 8174, 8177,2.772812604904175
31, 8166, 8159, 8125, 8155, 8164, 8192, 8189, 8163, 8173, 8188, 8175, 8176, 8191, 8169,2.772812604904175
32, 8181, 8174, 8195, 8150, 8156, 8183, 8169, 8169, 8166, 8189, 8177, 8191, 8197, 8176,2.7863929271698
33, 8195, 8179, 8166, 8168, 8168, 8190, 8179, 8172, 8185, 8205, 8186, 8195, 8211, 8186,2.8019444942474365
34, 8198, 8168, 8149, 8164, 8170, 8180, 8177, 8172, 8189, 8208, 8194, 8202, 8219, 8186,2.8019444942474365
35, 8186, 8164, 8195, 8136, 8154, 8173, 8149, 8172, 8158, 8178, 8180, 8216, 8194, 8174,2.8180577754974365
36, 8169, 8153, 8122, 8141, 8155, 8163, 8139, 8154, 8146, 8160, 8166, 8184, 8172, 8147,2.8180577754974365
37, 8170, 8165, 8184, 8141, 8162, 8169, 8134, 8166, 8137, 8150, 8166, 8183, 8169, 8137,2.8180577754974365
38, 8171, 8172, 8166, 8134, 8162, 8178, 8143, 8170, 8149, 8171, 8184, 8194, 8179, 8142,2.8341381549835205
39, 8177, 8167, 8144, 8139, 8158, 8162, 8141, 8168, 8154, 8177, 8189, 8193, 8180, 8152,2.835139036178589
40, 8181, 8195, 8205, 8168, 8166, 8170, 8137, 8176, 8144, 8156, 8182, 8206, 8173, 8156,2.849289894104004
41, 8166, 8200, 8125, 8188, 8177, 8178, 8149, 8161, 8145, 8160, 8176, 8180, 8165, 8134,2.866159439086914
42, 8151, 8175, 8166, 8156, 8162, 8171, 8130, 8162, 8115, 8148, 8149, 8160, 8142, 8113,2.866159439086914
43, 8134, 8165, 8157, 8156, 8152, 8174, 8126, 8156, 8106, 8145, 8141, 8153, 8135, 8105,2.866159439086914
44, 8135, 8168, 8123, 8176, 8157, 8173, 8139, 8158, 8130, 8160, 8151, 8151, 8138, 8114,2.8816561698913574
45, 8153, 8176, 8190, 8177, 8166, 8186, 8142, 8181, 8145, 8168, 8154, 8167, 8144, 8133,2.896005392074585
46, 8155, 8163, 8125, 8190, 8178, 8196, 8162, 8168, 8165, 8185, 8156, 8153, 8160, 8138,2.896005392074585
47, 8153, 8162, 8166, 8185, 8166, 8196, 8161, 8171, 8157, 8174, 8151, 8151, 8149, 8137,2.9120922088623047
48, 8150, 8173, 8163, 8190, 8156, 8196, 8156, 8173, 8156, 8171, 8153, 8157, 8139, 8134,2.9120922088623047
49, 8152, 8160, 8114, 8188, 8159, 8187, 8163, 8167, 8165, 8179, 8156, 8152, 8152, 8143,2.9282779693603516
50, 8162, 8167, 8181, 8173, 8160, 8190, 8168, 8183, 8166, 8178, 8151, 8165, 8162, 8158,2.9292783737182617
51, 8162, 8173, 8122, 8189, 8164, 8184, 8177, 8176, 8178, 8192, 8158, 8157, 8171, 8152,2.9464142322540283
52, 8168, 8171, 8154, 8181, 8159, 8173, 8166, 8179, 8175, 8182, 8163, 8171, 8176, 8152,2.9464142322540283
53, 8178, 8179, 8172, 8182, 8164, 8179, 8167, 8178, 8182, 8183, 8179, 8190, 8184, 8158,2.9464142322540283
54, 8181, 8180, 8127, 8196, 8174, 8168, 8163, 8164, 8174, 8191, 8189, 8181, 8181, 8151,2.9614651203155518
55, 8182, 8193, 8192, 8178, 8165, 8164, 8136, 8173, 8137, 8167, 8179, 8194, 8163, 8142,2.9614651203155518
56, 8175, 8193, 8131, 8179, 8164, 8161, 8137, 8163, 8142, 8160, 8185, 8184, 8161, 8136,2.975369930267334
57, 8182, 8191, 8162, 8184, 8170, 8152, 8136, 8166, 8152, 8155, 8190, 8180, 8158, 8146,2.9949488639831543
58, 8180, 8201, 8187, 8189, 8177, 8164, 8140, 8174, 8155, 8161, 8189, 8187, 8160, 8154,2.9949488639831543
59, 8173, 8198, 8127, 8202, 8186, 8168, 8145, 8168, 8161, 8174, 8189, 8173, 8165, 8152,2.9949488639831543
60, 8185, 8210, 8208, 8213, 8187, 8179, 8146, 8179, 8144, 8163, 8179, 8185, 8157, 8161,3.0063350200653076
61, 8183, 8202, 8155, 8228, 8189, 8194, 8173, 8170, 8146, 8174, 8172, 8173, 8160, 8162,3.0218608379364014
62, 8169, 8175, 8146, 8204, 8180, 8194, 8168, 8171, 8143, 8185, 8168, 8162, 8163, 8161,3.0218608379364014
63, 8161, 8181, 8181, 8196, 8180, 8202, 8162, 8179, 8146, 8192, 8182, 8173, 8164, 8163,3.0372068881988525
64, 8166, 8188, 8127, 8224, 8190, 8200, 8185, 8168, 8167, 8203, 8194, 8164, 8171, 8160,3.0372068881988525
65, 8175, 8190, 8194, 8217, 8184, 8203, 8189, 8180, 8169, 8192, 8177, 8176, 8164, 8166,3.0527679920196533
66, 8166, 8178, 8142, 8208, 8183, 8206, 8196, 8177, 8181, 8200, 8172, 8169, 8164, 8163,3.0527679920196533
67, 8156, 8163, 8133, 8188, 8178, 8194, 8180, 8173, 8174, 8199, 8169, 8162, 8166, 8156,3.0686519145965576
68, 8155, 8169, 8184, 8178, 8175, 8195, 8158, 8177, 8167, 8196, 8173, 8187, 8172, 8164,3.0686519145965576
69, 8164, 8175, 8126, 8195, 8178, 8186, 8169, 8167, 8188, 8203, 8186, 8190, 8177, 8167,3.0834829807281494
70, 8175, 8179, 8185, 8172, 8166, 8179, 8172, 8179, 8176, 8180, 8172, 8200, 8167, 8167,3.0834829807281494
71, 8165, 8170, 8145, 8163, 8166, 8177, 8167, 8171, 8159, 8173, 8154, 8192, 8164, 8157,3.09907603263855
72, 8168, 8167, 8136, 8172, 8170, 8160, 8144, 8160, 8146, 8161, 8156, 8191, 8156, 8150,3.09907603263855
73, 8186, 8184, 8202, 8172, 8163, 8161, 8137, 8175, 8153, 8155, 8187, 8227, 8169, 8158,3.114408493041992
74, 8184, 8182, 8135, 8178, 8169, 8160, 8161, 8173, 8183, 8183, 8211, 8227, 8194, 8159,3.114408493041992
75, 8187, 8189, 8197, 8179, 8182, 8163, 8161, 8182, 8182, 8179, 8200, 8233, 8191, 8158,3.1302695274353027
76, 8187, 8198, 8183, 8195, 8195, 8167, 8158, 8174, 8189, 8180, 8206, 8231, 8193, 8151,3.1302695274353027
77, 8179, 8189, 8154, 8200, 8189, 8161, 8149, 8169, 8191, 8190, 8222, 8225, 8197, 8149,3.14528751373291
78, 8182, 8201, 8211, 8206, 8186, 8186, 8157, 8183, 8179, 8192, 8223, 8242, 8198, 8162,3.14528751373291
79, 8185, 8198, 8146, 8228, 8193, 8196, 8188, 8168, 8187, 8207, 8214, 8223, 8202, 8166,3.16098690032959
80, 8183, 8184, 8198, 8214, 8189, 8188, 8186, 8175, 8186, 8208, 8197, 8218, 8195, 8166,3.16098690032959
81, 8166, 8176, 8180, 8203, 8184, 8192, 8181, 8173, 8194, 8219, 8198, 8215, 8193, 8162,3.1760175228118896
82, 8161, 8166, 8132, 8197, 8173, 8174, 8167, 8156, 8187, 8216, 8196, 8203, 8193, 8159,3.1760175228118896
83, 8181, 8174, 8198, 8190, 8160, 8165, 8149, 8163, 8174, 8197, 8195, 8227, 8193, 8166,3.1921374797821045
84, 8182, 8162, 8137, 8188, 8160, 8166, 8161, 8160, 8197, 8206, 8210, 8228, 8205, 8164,3.1921374797821045
85, 8179, 8158, 8180, 8163, 8155, 8164, 8152, 8174, 8190, 8193, 8199, 8224, 8202, 8165,3.208303451538086
86, 8186, 8178, 8184, 8173, 8161, 8161, 8149, 8175, 8180, 8176, 8194, 8223, 8194, 8160,3.208303451538086
87, 8188, 8172, 8135, 8177, 8166, 8149, 8150, 8169, 8182, 8173, 8204, 8218, 8193, 8144,3.2238965034484863
88, 8176, 8172, 8197, 8151, 8156, 8156, 8135, 8182, 8164, 8168, 8198, 8225, 8176, 8135,3.2238965034484863
89, 8168, 8182, 8136, 8180, 8169, 8165, 8143, 8173, 8170, 8178, 8200, 8211, 8173, 8138,3.2399492263793945
90, 8181, 8191, 8179, 8198, 8178, 8168, 8139, 8175, 8171, 8166, 8200, 8218, 8175, 8148,3.2399492263793945
91, 8182, 8196, 8199, 8197, 8178, 8179, 8137, 8177, 8171, 8166, 8198, 8225, 8170, 8144,3.255094289779663
92, 8178, 8190, 8140, 8207, 8188, 8178, 8150, 8169, 8182, 8187, 8205, 8202, 8171, 8136,3.255094289779663
93, 8171, 8184, 8200, 8194, 8191, 8179, 8143, 8177, 8167, 8168, 8195, 8198, 8158, 8129,3.271118640899658
94, 8147, 8163, 8138, 8180, 8177, 8170, 8139, 8163, 8156, 8151, 8170, 8172, 8147, 8106,3.271118640899658
95, 8155, 8167, 8162, 8174, 8165, 8168, 8138, 8167, 8155, 8155, 8160, 8176, 8146, 8115,3.287372350692749
96, 8186, 8193, 8193, 8195, 8176, 8195, 8156, 8180, 8179, 8187, 8189, 8211, 8169, 8154,3.287372350692749
97, 8195, 8188, 8136, 8212, 8183, 8192, 8177, 8169, 8192, 8207, 8208, 8205, 8187, 8169,3.303295850753784
98, 8183, 8184, 8207, 8198, 8174, 8184, 8170, 8171, 8159, 8177, 8174, 8198, 8171, 8156,3.303295850753784
99, 8160, 8180, 8148, 8201, 8181, 8192, 8172, 8163, 8154, 8181, 8157, 8175, 8162, 8133,3.3179819583892822
100, 8159, 8172, 8149, 8190, 8182, 8195, 8168, 8172, 8167, 8197, 8172, 8176, 8168, 8135,3.3179819583892822
101, 8164, 8172, 8184, 8170, 8177, 8199, 8174, 8183, 8191, 8200, 8190, 8200, 8187, 8155,3.333129405975342
102, 8159, 8158, 8112, 8167, 8182, 8191, 8189, 8169, 8204, 8206, 8186, 8185, 8196, 8159,3.333129405975342
103, 8168, 8165, 8187, 8162, 8183, 8199, 8184, 8181, 8180, 8204, 8166, 8192, 8178, 8158,3.3486196994781494
104, 8174, 8179, 8158, 8175, 8190, 8209, 8198, 8175, 8199, 8223, 8182, 8198, 8186, 8156,3.3486196994781494
105, 8174, 8177, 8147, 8169, 8191, 8188, 8190, 8166, 8213, 8217, 8196, 8202, 8195, 8152,3.364264488220215
106, 8177, 8190, 8189, 8164, 8193, 8179, 8174, 8174, 8189, 8196, 8193, 8216, 8188, 8145,3.364264488220215
107, 8189, 8205, 8134, 8189, 8205, 8176, 8188, 8169, 8186, 8202, 8208, 8218, 8192, 8145,3.379875421524048
108, 8203, 8216, 8205, 8187, 8196, 8170, 8179, 8181, 8181, 8188, 8212, 8238, 8186, 8162,3.379875421524048
109, 8197, 8209, 8176, 8188, 8193, 8168, 8174, 8169, 8175, 8186, 8206, 8227, 8184, 8158,3.3959639072418213
110, 8196, 8196, 8156, 8184, 8203, 8168, 8177, 8163, 8164, 8182, 8195, 8205, 8183, 8148,3.3959639072418213
111, 8193, 8207, 8202, 8180, 8205, 8180, 8171, 8175, 8157, 8167, 8192, 8212, 8178, 8150,3.4111990928649902
112, 8168, 8193, 8127, 8191, 8201, 8177, 8168, 8161, 8156, 8165, 8192, 8193, 8169, 8133,3.4111990928649902
113, 8157, 8180, 8182, 8173, 8193, 8174, 8160, 8173, 8135, 8147, 8173, 8181, 8149, 8117,3.426835298538208
114, 8153, 8187, 8158, 8189, 8204, 8184, 8180, 8178, 8153, 8160, 8171, 8167, 8151, 8121,3.4271931648254395
115, 8154, 8190, 8134, 8221, 8216, 8184, 8183, 8167, 8165, 8176, 8181, 8164, 8161, 8126,3.4419169425964355
116, 8156, 8193, 8201, 8215, 8208, 8197, 8166, 8168, 8146, 8163, 8176, 8179, 8151, 8123,3.4419169425964355
117, 8148, 8176, 8124, 8206, 8200, 8190, 8175, 8154, 8156, 8173, 8172, 8155, 8149, 8117,3.4580371379852295
118, 8149, 8175, 8162, 8199, 8193, 8185, 8180, 8168, 8162, 8177, 8159, 8155, 8152, 8123,3.4580371379852295
119, 8139, 8179, 8149, 8212, 8201, 8203, 8190, 8172, 8167, 8174, 8148, 8155, 8149, 8117,3.4741547107696533
120, 8133, 8169, 8109, 8203, 8204, 8196, 8181, 8162, 8166, 8166, 8140, 8133, 8136, 8109,3.4741547107696533
121, 8152, 8178, 8180, 8188, 8199, 8190, 8169, 8177, 8167, 8175, 8148, 8153, 8148, 8131,3.490117311477661
122, 8158, 8173, 8115, 8199, 8200, 8187, 8191, 8175, 8194, 8208, 8164, 8157, 8176, 8142,3.490117311477661
123, 8150, 8159, 8146, 8179, 8181, 8178, 8183, 8177, 8182, 8185, 8153, 8156, 8165, 8136,3.5045833587646484
124, 8131, 8155, 8139, 8158, 8164, 8175, 8167, 8168, 8172, 8164, 8148, 8150, 8155, 8129,3.520709991455078
125, 8127, 8145, 8092, 8140, 8155, 8169, 8170, 8159, 8187, 8177, 8148, 8129, 8155, 8124,3.520709991455078
126, 8144, 8154, 8175, 8130, 8150, 8178, 8175, 8174, 8184, 8176, 8138, 8144, 8140, 8129,3.520709991455078
127, 8146, 8155, 8116, 8154, 8158, 8173, 8186, 8162, 8191, 8187, 8146, 8147, 8146, 8131,3.536391019821167
236, 8143, 8152, 8135, 8143, 8155, 8163, 8178, 8166, 8192, 8179, 8148, 8151, 8153, 8130,3.5524332523345947
0, 8145, 8164, 8153, 8130, 8157, 8176, 8182, 8178, 8199, 8177, 8153, 8158, 8156, 8131,3.5524332523345947
1, 8154, 8162, 8108, 8139, 8165, 8165, 8183, 8173, 8203, 8181, 8168, 8153, 8160, 8132,3.5524332523345947
2, 8164, 8164, 8182, 8131, 8161, 8158, 8161, 8180, 8188, 8166, 8171, 8174, 8159, 8136,3.566411018371582
3, 8165, 8168, 8131, 8138, 8169, 8166, 8164, 8166, 8199, 8176, 8173, 8172, 8167, 8133,3.582303047180176
4, 8168, 8176, 8156, 8140, 8170, 8160, 8153, 8174, 8188, 8172, 8163, 8168, 8164, 8130,3.582303047180176
5, 8157, 8178, 8180, 8138, 8160, 8159, 8142, 8180, 8172, 8161, 8159, 8167, 8153, 8121,3.597163438796997
6, 8146, 8165, 8115, 8141, 8162, 8161, 8150, 8162, 8182, 8169, 8171, 8153, 8151, 8113,3.597656488418579
7, 8158, 8181, 8196, 8137, 8173, 8174, 8152, 8176, 8184, 8175, 8185, 8175, 8159, 8129,3.6123743057250977
8, 8164, 8196, 8166, 8164, 8190, 8175, 8169, 8176, 8193, 8195, 8202, 8172, 8178, 8136,3.6123743057250977
9, 8166, 8192, 8174, 8163, 8184, 8167, 8165, 8173, 8180, 8187, 8185, 8161, 8170, 8133,3.627875566482544
10, 8161, 8189, 8199, 8146, 8174, 8179, 8155, 8176, 8178, 8168, 8167, 8169, 8154, 8125,3.627875566482544
11, 8156, 8184, 8132, 8166, 8185, 8172, 8172, 8168, 8200, 8174, 8184, 8157, 8159, 8118,3.643292188644409
12, 8166, 8191, 8208, 8171, 8188, 8170, 8181, 8182, 8190, 8182, 8187, 8169, 8159, 8132,3.643292188644409
13, 8158, 8184, 8161, 8163, 8181, 8176, 8184, 8170, 8181, 8193, 8170, 8160, 8152, 8127,3.6589343547821045
14, 8154, 8181, 8149, 8156, 8178, 8171, 8174, 8166, 8174, 8179, 8154, 8148, 8142, 8120,3.6589343547821045
15, 8160, 8195, 8201, 8164, 8191, 8192, 8185, 8181, 8179, 8180, 8160, 8158, 8145, 8133,3.6743710041046143
16, 8145, 8170, 8123, 8162, 8194, 8194, 8201, 8169, 8193, 8202, 8161, 8137, 8153, 8125,3.6743710041046143
17, 8136, 8160, 8173, 8139, 8174, 8179, 8176, 8174, 8178, 8189, 8138, 8141, 8143, 8120,3.689987897872925
18, 8148, 8175, 8154, 8161, 8183, 8180, 8183, 8169, 8195, 8208, 8148, 8158, 8151, 8137,3.689987897872925
19, 8157, 8165, 8146, 8164, 8193, 8183, 8196, 8168, 8212, 8227, 8162, 8162, 8165, 8149,3.705146551132202
20, 8142, 8160, 8188, 8140, 8182, 8188, 8184, 8177, 8195, 8209, 8150, 8155, 8160, 8139,3.705146551132202
21, 8135, 8156, 8114, 8147, 8180, 8182, 8193, 8164, 8203, 8218, 8150, 8135, 8162, 8131,3.7212674617767334
22, 8159, 8154, 8178, 8136, 8180, 8185, 8203, 8179, 8225, 8223, 8155, 8153, 8167, 8149,3.7212674617767334
23, 8162, 8161, 8162, 8138, 8185, 8192, 8203, 8183, 8241, 8220, 8169, 8159, 8175, 8153,3.737314224243164
24, 8152, 8165, 8133, 8151, 8184, 8179, 8184, 8170, 8223, 8208, 8165, 8147, 8166, 8136,3.737314224243164
25, 8148, 8163, 8191, 8139, 8175, 8183, 8187, 8177, 8210, 8196, 8145, 8157, 8147, 8130,3.752742290496826
26, 8141, 8147, 8115, 8134, 8175, 8188, 8216, 8174, 8235, 8200, 8145, 8136, 8147, 8127,3.752742290496826
27, 8150, 8158, 8169, 8131, 8181, 8181, 8198, 8183, 8232, 8183, 8149, 8142, 8150, 8129,3.768336296081543
28, 8163, 8174, 8174, 8143, 8190, 8179, 8187, 8175, 8229, 8192, 8163, 8168, 8161, 8136,3.768336296081543
29, 8169, 8165, 8143, 8142, 8182, 8169, 8184, 8164, 8223, 8204, 8181, 8173, 8162, 8143,3.783928155899048
30, 8176, 8174, 8213, 8135, 8176, 8169, 8167, 8176, 8202, 8187, 8192, 8192, 8156, 8143,3.783928155899048
31, 8172, 8179, 8145, 8155, 8195, 8165, 8175, 8167, 8212, 8196, 8204, 8182, 8176, 8134,3.7990310192108154
32, 8175, 8178, 8181, 8140, 8192, 8167, 8176, 8179, 8217, 8204, 8202, 8182, 8185, 8151,3.7990310192108154
33, 8182, 8178, 8188, 8136, 8178, 8178, 8183, 8185, 8234, 8214, 8204, 8195, 8186, 8167,3.8145298957824707
34, 8183, 8165, 8144, 8144, 8184, 8163, 8184, 8172, 8252, 8218, 8195, 8185, 8186, 8157,3.8145298957824707
35, 8178, 8174, 8216, 8133, 8188, 8162, 8165, 8184, 8242, 8208, 8183, 8189, 8178, 8148,3.8294389247894287
36, 8164, 8174, 8149, 8143, 8186, 8167, 8168, 8176, 8252, 8224, 8197, 8174, 8183, 8139,3.8294389247894287
37, 8160, 8166, 8164, 8135, 8179, 8158, 8163, 8175, 8241, 8205, 8184, 8166, 8169, 8131,3.8453266620635986
38, 8151, 8169, 8175, 8125, 8176, 8163, 8171, 8177, 8226, 8185, 8171, 8174, 8154, 8131,3.8453266620635986
39, 8154, 8159, 8126, 8127, 8179, 8167, 8187, 8172, 8231, 8200, 8187, 8169, 8156, 8133,3.8603832721710205
40, 8168, 8161, 8200, 8118, 8174, 8176, 8179, 8185, 8213, 8202, 8187, 8176, 8160, 8135,3.8603832721710205
41, 8157, 8168, 8143, 8128, 8178, 8174, 8174, 8169, 8208, 8207, 8179, 8159, 8167, 8126,3.876396894454956
42, 8157, 8175, 8167, 8127, 8181, 8174, 8171, 8168, 8209, 8192, 8170, 8160, 8149, 8125,3.876396894454956
43, 8164, 8181, 8196, 8134, 8187, 8193, 8182, 8179, 8222, 8182, 8168, 8169, 8139, 8131,3.891934633255005
44, 8154, 8168, 8131, 8143, 8190, 8179, 8184, 8174, 8223, 8191, 8168, 8146, 8150, 8130,3.891934633255005
45, 8149, 8170, 8200, 8121, 8173, 8168, 8162, 8180, 8183, 8171, 8156, 8148, 8139, 8121,3.908008337020874
46, 8145, 8172, 8148, 8127, 8166, 8175, 8168, 8162, 8173, 8164, 8147, 8134, 8119, 8102,3.908008337020874
47, 8153, 8173, 8151, 8140, 8169, 8176, 8169, 8163, 8181, 8171, 8139, 8134, 8118, 8107,3.923523426055908
48, 8168, 8190, 8197, 8155, 8188, 8193, 8175, 8178, 8198, 8190, 8165, 8165, 8147, 8133,3.923523426055908
49, 8173, 8185, 8136, 8174, 8204, 8197, 8191, 8170, 8221, 8209, 8194, 8165, 8170, 8141,3.9392359256744385
50, 8164, 8179, 8198, 8157, 8191, 8194, 8177, 8182, 8211, 8194, 8172, 8169, 8151, 8136,3.9392359256744385
51, 8142, 8170, 8150, 8153, 8185, 8189, 8186, 8173, 8209, 8187, 8149, 8146, 8136, 8120,3.954681634902954
52, 8138, 8154, 8137, 8144, 8184, 8181, 8198, 8167, 8206, 8175, 8144, 8136, 8140, 8119,3.954681634902954
53, 8141, 8157, 8185, 8142, 8173, 8193, 8195, 8175, 8200, 8173, 8149, 8154, 8145, 8130,3.9699394702911377
54, 8135, 8155, 8116, 8161, 8165, 8193, 8193, 8160, 8202, 8183, 8149, 8136, 8135, 8124,3.9699394702911377
55, 8142, 8151, 8171, 8148, 8162, 8194, 8176, 8169, 8186, 8158, 8129, 8132, 8110, 8118,3.985975503921509
56, 8145, 8146, 8139, 8146, 8171, 8200, 8182, 8165, 8188, 8164, 8130, 8127, 8112, 8110,3.985975503921509
57, 8148, 8146, 8127, 8155, 8176, 8190, 8187, 8162, 8192, 8193, 8147, 8120, 8122, 8108,4.0012218952178955
58, 8158, 8170, 8189, 8167, 8179, 8193, 8187, 8177, 8206, 8196, 8155, 8135, 8128, 8126,4.0012218952178955
59, 8161, 8167, 8122, 8180, 8180, 8186, 8196, 8165, 8227, 8195, 8161, 8130, 8144, 8135,4.025988340377808
60, 8164, 8155, 8176, 8156, 8166, 8173, 8183, 8174, 8203, 8188, 8168, 8136, 8152, 8142,4.027004241943359
61, 8161, 8158, 8154, 8155, 8175, 8180, 8185, 8172, 8206, 8203, 8181, 8127, 8159, 8138,4.027004241943359
62, 8161, 8163, 8128, 8166, 8185, 8182, 8186, 8164, 8221, 8206, 8175, 8110, 8150, 8131,4.032388210296631
63, 8172, 8179, 8202, 8166, 8180, 8184, 8181, 8178, 8219, 8206, 8176, 8133, 8151, 8143,4.048470735549927
64, 8173, 8169, 8136, 8169, 8179, 8174, 8192, 8173, 8241, 8224, 8192, 8121, 8171, 8149,4.065216541290283
65, 8167, 8158, 8170, 8147, 8166, 8167, 8178, 8177, 8231, 8203, 8177, 8107, 8160, 8139,4.065216541290283
66, 8151, 8161, 8153, 8142, 8159, 8171, 8176, 8168, 8207, 8191, 8166, 8106, 8147, 8122,4.065216541290283
67, 8150, 8148, 8114, 8142, 8162, 8158, 8177, 8160, 8206, 8184, 8172, 8100, 8153, 8118,4.0799336433410645
68, 8163, 8151, 8188, 8130, 8164, 8162, 8165, 8173, 8203, 8164, 8178, 8107, 8152, 8124,4.0799336433410645
69, 8152, 8155, 8123, 8139, 8170, 8161, 8167, 8162, 8204, 8176, 8183, 8092, 8150, 8116,4.0959391593933105
70, 8146, 8165, 8159, 8131, 8164, 8148, 8155, 8171, 8186, 8169, 8162, 8098, 8140, 8114,4.0959391593933105
71, 8156, 8175, 8174, 8131, 8164, 8164, 8160, 8173, 8195, 8164, 8166, 8106, 8148, 8122,4.113022565841675
72, 8164, 8161, 8131, 8134, 8167, 8172, 8167, 8159, 8209, 8173, 8191, 8096, 8159, 8125,4.113022565841675
73, 8163, 8165, 8199, 8124, 8162, 8166, 8153, 8171, 8186, 8157, 8187, 8109, 8141, 8123,4.1291327476501465
74, 8158, 8176, 8140, 8151, 8174, 8160, 8164, 8169, 8197, 8166, 8190, 8094, 8138, 8118,4.1291327476501465
75, 8172, 8182, 8177, 8173, 8189, 8176, 8167, 8179, 8214, 8182, 8200, 8089, 8149, 8134,4.14370584487915
76, 8182, 8184, 8204, 8194, 8193, 8197, 8164, 8182, 8219, 8188, 8206, 8103, 8157, 8143,4.14370584487915
77, 8179, 8176, 8150, 8211, 8192, 8178, 8170, 8169, 8212, 8190, 8211, 8088, 8156, 8133,4.160470962524414
78, 8171, 8180, 8216, 8184, 8184, 8169, 8172, 8176, 8195, 8181, 8199, 8081, 8145, 8132,4.160470962524414
79, 8150, 8160, 8143, 8162, 8176, 8174, 8183, 8165, 8207, 8192, 8176, 8054, 8138, 8121,4.176051378250122
80, 8149, 8146, 8150, 8159, 8167, 8177, 8179, 8169, 8213, 8196, 8161, 8049, 8133, 8118,4.176051378250122
81, 8158, 8166, 8186, 8172, 8169, 8190, 8193, 8179, 8230, 8208, 8181, 8068, 8149, 8135,4.191027879714966
82, 8151, 8159, 8121, 8169, 8169, 8178, 8205, 8170, 8244, 8211, 8191, 8057, 8159, 8138,4.206976413726807
83, 8154, 8153, 8192, 8142, 8161, 8171, 8182, 8178, 8224, 8185, 8167, 8066, 8147, 8134,4.206976413726807
84, 8176, 8165, 8158, 8155, 8172, 8168, 8176, 8167, 8231, 8187, 8179, 8071, 8162, 8146,4.206976413726807
85, 8201, 8178, 8170, 8160, 8170, 8144, 8161, 8166, 8217, 8173, 8201, 8081, 8171, 8162,4.222477197647095
86, 8202, 8188, 8210, 8159, 8157, 8140, 8148, 8177, 8185, 8151, 8204, 8096, 8161, 8158,4.23848032951355
87, 8192, 8176, 8140, 8167, 8158, 8144, 8153, 8168, 8183, 8153, 8198, 8073, 8153, 8142,4.23848032951355
88, 8193, 8176, 8199, 8149, 8161, 8158, 8145, 8175, 8180, 8148, 8188, 8066, 8145, 8140,4.23848032951355
89, 8185, 8182, 8159, 8167, 8180, 8172, 8164, 8164, 8198, 8166, 8196, 8049, 8147, 8137,4.254536867141724
90, 8178, 8175, 8154, 8184, 8189, 8168, 8176, 8163, 8218, 8178, 8193, 8032, 8148, 8140,4.254536867141724
91, 8173, 8173, 8199, 8177, 8178, 8176, 8169, 8179, 8226, 8181, 8184, 8040, 8152, 8148,4.270140886306763
92, 8165, 8161, 8120, 8174, 8170, 8172, 8175, 8168, 8233, 8202, 8186, 8022, 8160, 8147,4.270140886306763
93, 8162, 8150, 8170, 8138, 8156, 8156, 8178, 8179, 8225, 8193, 8171, 8011, 8150, 8147,4.286254405975342
94, 8148, 8132, 8136, 8119, 8148, 8144, 8183, 8175, 8235, 8184, 8159, 7996, 8143, 8133,4.286254405975342
95, 8151, 8131, 8124, 8123, 8148, 8141, 8176, 8172, 8241, 8184, 8168, 7994, 8146, 8127,4.300998687744141
96, 8167, 8163, 8192, 8131, 8155, 8162, 8172, 8186, 8246, 8190, 8196, 8022, 8161, 8143,4.316906452178955
97, 8159, 8167, 8128, 8145, 8164, 8158, 8177, 8174, 8256, 8201, 8212, 8015, 8176, 8144,4.316906452178955
98, 8155, 8169, 8184, 8140, 8158, 8147, 8160, 8176, 8228, 8174, 8202, 8015, 8163, 8141,4.316906452178955
99, 8167, 8183, 8170, 8155, 8163, 8157, 8174, 8174, 8220, 8179, 8205, 8011, 8158, 8145,4.33269739151001
100, 8183, 8181, 8145, 8167, 8165, 8163, 8191, 8178, 8222, 8196, 8201, 7995, 8158, 8153,4.33269739151001
101, 8178, 8174, 8204, 8155, 8156, 8183, 8190, 8193, 8213, 8188, 8182, 7997, 8150, 8162,4.347778797149658
102, 8164, 8154, 8127, 8146, 8156, 8185, 8201, 8169, 8231, 8199, 8180, 7985, 8153, 8163,4.347778797149658
103, 8189, 8159, 8179, 8137, 8156, 8169, 8186, 8170, 8231, 8197, 8182, 8001, 8154, 8170,4.36299729347229
104, 8200, 8177, 8185, 8160, 8162, 8163, 8165, 8173, 8229, 8191, 8199, 8012, 8164, 8166,4.36299729347229
105, 8182, 8173, 8149, 8171, 8168, 8153, 8147, 8164, 8224, 8187, 8219, 8005, 8172, 8155,4.378144264221191
106, 8182, 8195, 8228, 8170, 8171, 8156, 8141, 8177, 8200, 8182, 8222, 8016, 8164, 8155,4.378144264221191
107, 8185, 8204, 8166, 8205, 8178, 8152, 8161, 8169, 8202, 8192, 8218, 7987, 8162, 8142,4.394257307052612
108, 8166, 8179, 8181, 8192, 8165, 8152, 8154, 8170, 8190, 8171, 8187, 7958, 8143, 8126,4.410482883453369
109, 8135, 8155, 8163, 8156, 8153, 8165, 8154, 8171, 8181, 8160, 8162, 7940, 8126, 8118,4.410482883453369
110, 8126, 8141, 8108, 8144, 8143, 8158, 8168, 8162, 8189, 8169, 8159, 7911, 8129, 8118,4.425098896026611
111, 8144, 8148, 8182, 8134, 8130, 8157, 8172, 8177, 8195, 8166, 8162, 7921, 8136, 8130,4.425098896026611
112, 8157, 8145, 8126, 8134, 8134, 8149, 8184, 8173, 8221, 8185, 8174, 7918, 8151, 8134,4.440316677093506
113, 8169, 8145, 8156, 8115, 8135, 8136, 8166, 8175, 8217, 8178, 8177, 7920, 8154, 8139,4.440316677093506
114, 8178, 8158, 8182, 8123, 8133, 8143, 8159, 8173, 8209, 8158, 8184, 7926, 8157, 8150,4.455985069274902
115, 8186, 8157, 8136, 8141, 8136, 8136, 8166, 8168, 8214, 8163, 8191, 7912, 8165, 8155,4.455985069274902
116, 8191, 8167, 8211, 8128, 8132, 8132, 8144, 8185, 8197, 8163, 8188, 7910, 8158, 8151,4.471362352371216
117, 8192, 8171, 8156, 8139, 8136, 8134, 8140, 8165, 8197, 8170, 8196, 7882, 8157, 8139,4.471362352371216
118, 8217, 8181, 8184, 8150, 8144, 8137, 8144, 8164, 8203, 8169, 8206, 7884, 8164, 8152,4.486959934234619
119, 8240, 8212, 8230, 8173, 8158, 8151, 8155, 8179, 8218, 8185, 8221, 7912, 8182, 8179,4.486959934234619
120, 8230, 8206, 8164, 8194, 8168, 8143, 8153, 8165, 8220, 8199, 8228, 7884, 8183, 8176,4.502196788787842
121, 8216, 8196, 8217, 8177, 8166, 8137, 8131, 8170, 8194, 8175, 8222, 7870, 8162, 8163,4.502196788787842
122, 8205, 8201, 8164, 8186, 8171, 8148, 8145, 8169, 8203, 8184, 8226, 7860, 8168, 8157,4.5174853801727295
123, 8196, 8192, 8164, 8193, 8167, 8152, 8156, 8172, 8203, 8188, 8201, 7835, 8161, 8150,4.5174853801727295
124, 8175, 8177, 8192, 8187, 8157, 8163, 8157, 8176, 8193, 8170, 8172, 7815, 8138, 8134,4.533152341842651
125, 8155, 8156, 8109, 8190, 8159, 8173, 8174, 8166, 8209, 8180, 8176, 7792, 8140, 8127,4.533152341842651
126, 8157, 8156, 8171, 8178, 8156, 8182, 8179, 8178, 8204, 8182, 8162, 7792, 8138, 8134,4.548925876617432
127, 8151, 8157, 8133, 8180, 8156, 8177, 8183, 8169, 8195, 8177, 8140, 7768, 8126, 8123,4.548925876617432
236, 8148, 8148, 8122, 8168, 8152, 8165, 8164, 8165, 8186, 8167, 8137, 7761, 8122, 8124,4.564244985580444
0, 8167, 8156, 8178, 8161, 8149, 8179, 8157, 8175, 8192, 8181, 8157, 7795, 8143, 8153,4.564244985580444
1, 8186, 8158, 8120, 8179, 8154, 8171, 8169, 8165, 8211, 8204, 8183, 7798, 8165, 8163,4.579376697540283
2, 8199, 8165, 8189, 8172, 8148, 8148, 8142, 8178, 8198, 8182, 8189, 7822, 8164, 8168,4.579376697540283
3, 8203, 8171, 8171, 8179, 8150, 8142, 8137, 8174, 8203, 8192, 8208, 7835, 8177, 8173,4.594961166381836
4, 8223, 8176, 8167, 8194, 8154, 8140, 8146, 8173, 8223, 8208, 8234, 7841, 8190, 8185,4.594961166381836
5, 8234, 8194, 8231, 8199, 8151, 8144, 8135, 8182, 8213, 8185, 8242, 7865, 8188, 8188,4.610154867172241
6, 8201, 8183, 8143, 8213, 8151, 8138, 8127, 8159, 8184, 8168, 8231, 7836, 8173, 8149,4.610154867172241
7, 8176, 8178, 8184, 8208, 8151, 8146, 8128, 8163, 8146, 8145, 8204, 7818, 8137, 8112,4.6253039836883545
8, 8175, 8191, 8178, 8226, 8162, 8172, 8149, 8168, 8157, 8147, 8208, 7828, 8137, 8116,4.6253039836883545
9, 8186, 8198, 8166, 8260, 8170, 8175, 8159, 8167, 8174, 8161, 8230, 7840, 8166, 8143,4.641410827636719
10, 8196, 8212, 8249, 8285, 8169, 8179, 8163, 8179, 8167, 8170, 8239, 7864, 8171, 8157,4.641410827636719
11, 8196, 8196, 8183, 8300, 8172, 8171, 8174, 8161, 8175, 8184, 8235, 7855, 8162, 8145,4.6571221351623535
12, 8207, 8191, 8222, 8280, 8160, 8166, 8163, 8165, 8175, 8173, 8227, 7870, 8163, 8159,4.6571221351623535
13, 8211, 8200, 8212, 8280, 8149, 8170, 8161, 8173, 8193, 8186, 8242, 7891, 8190, 8186,4.672569513320923
14, 8210, 8182, 8169, 8276, 8144, 8151, 8150, 8171, 8200, 8196, 8247, 7884, 8197, 8185,4.672569513320923
15, 8222, 8189, 8243, 8265, 8137, 8151, 8128, 8177, 8174, 8171, 8239, 7896, 8180, 8173,4.688281059265137
16, 8224, 8194, 8185, 8283, 8141, 8149, 8131, 8161, 8177, 8172, 8249, 7898, 8190, 8176,4.688281059265137
17, 8220, 8181, 8212, 8263, 8143, 8138, 8117, 8171, 8169, 8166, 8242, 7905, 8190, 8187,4.703230857849121
18, 8214, 8182, 8211, 8249, 8149, 8150, 8119, 8175, 8160, 8157, 8237, 7907, 8181, 8179,4.703230857849121
19, 8216, 8193, 8169, 8264, 8157, 8152, 8138, 8160, 8155, 8152, 8245, 7897, 8178, 8163,4.718907356262207
20, 8217, 8205, 8238, 8257, 8160, 8160, 8132, 8166, 8134, 8140, 8240, 7907, 8169, 8162,4.718907356262207
21, 8204, 8189, 8165, 8254, 8167, 8161, 8132, 8161, 8152, 8153, 8243, 7894, 8170, 8160,4.734252214431763
22, 8208, 8190, 8195, 8247, 8162, 8151, 8125, 8171, 8172, 8157, 8243, 7897, 8169, 8160,4.734252214431763
23, 8209, 8208, 8218, 8255, 8168, 8164, 8136, 8175, 8175, 8163, 8238, 7903, 8167, 8157,4.7502641677856445
24, 8202, 8200, 8148, 8273, 8181, 8170, 8151, 8168, 8166, 8172, 8239, 7884, 8170, 8156,4.7502641677856445
25, 8202, 8203, 8217, 8264, 8175, 8182, 8135, 8185, 8151, 8164, 8229, 7892, 8165, 8166,4.766346454620361
26, 8191, 8192, 8162, 8256, 8174, 8190, 8142, 8172, 8169, 8180, 8215, 7877, 8165, 8158,4.766346454620361
27, 8189, 8176, 8171, 8240, 8176, 8188, 8163, 8174, 8179, 8189, 8204, 7874, 8166, 8160,4.782347679138184
28, 8191, 8180, 8202, 8230, 8174, 8196, 8185, 8186, 8180, 8191, 8210, 7888, 8172, 8172,4.782347679138184
29, 8184, 8169, 8133, 8225, 8170, 8186, 8186, 8168, 8190, 8195, 8202, 7871, 8172, 8164,4.797885417938232
30, 8190, 8165, 8196, 8204, 8161, 8180, 8164, 8175, 8181, 8183, 8177, 7885, 8165, 8165,4.813029527664185
31, 8191, 8166, 8151, 8212, 8171, 8187, 8167, 8176, 8188, 8195, 8186, 7886, 8175, 8167,4.813029527664185
32, 8182, 8160, 8149, 8199, 8179, 8185, 8160, 8171, 8183, 8196, 8187, 7875, 8172, 8158,4.813029527664185
33, 8173, 8161, 8183, 8179, 8171, 8183, 8160, 8170, 8185, 8198, 8184, 7887, 8168, 8157,4.828877210617065
34, 8176, 8155, 8115, 8185, 8164, 8174, 8181, 8164, 8202, 8204, 8190, 7883, 8176, 8162,4.828877210617065
35, 8188, 8161, 8187, 8175, 8158, 8174, 8176, 8184, 8186, 8180, 8186, 7901, 8173, 8166,4.84496808052063
36, 8189, 8166, 8159, 8178, 8169, 8180, 8184, 8178, 8194, 8198, 8203, 7912, 8186, 8166,4.84496808052063
37, 8185, 8162, 8147, 8172, 8173, 8171, 8183, 8172, 8199, 8211, 8206, 7909, 8190, 8167,4.859623432159424
38, 8184, 8166, 8191, 8164, 8168, 8167, 8171, 8180, 8183, 8184, 8191, 7923, 8174, 8166,4.87691593170166
39, 8191, 8166, 8129, 8177, 8170, 8160, 8179, 8169, 8191, 8185, 8198, 7927, 8181, 8170,4.877262353897095
40, 8206, 8177, 8200, 8166, 8172, 8165, 8167, 8180, 8191, 8185, 8206, 7946, 8200, 8178,4.877262353897095
41, 8193, 8175, 8165, 8165, 8176, 8172, 8163, 8171, 8185, 8177, 8198, 7933, 8204, 8162,4.891321182250977
42, 8178, 8161, 8136, 8158, 8163, 8153, 8156, 8163, 8170, 8159, 8183, 7922, 8191, 8153,4.891321182250977
43, 8189, 8172, 8201, 8152, 8157, 8157, 8157, 8180, 8170, 8159, 8193, 7951, 8199, 8168,4.906876564025879
44, 8185, 8168, 8137, 8167, 8171, 8156, 8175, 8168, 8187, 8177, 8208, 7941, 8211, 8161,4.921314477920532
45, 8172, 8169, 8184, 8150, 8164, 8144, 8162, 8170, 8162, 8153, 8188, 7942, 8185, 8149,4.921314477920532
46, 8174, 8181, 8167, 8152, 8162, 8150, 8162, 8175, 8155, 8151, 8185, 7958, 8181, 8156,4.93707275390625
47, 8193, 8182, 8153, 8178, 8178, 8155, 8170, 8177, 8165, 8171, 8208, 7968, 8199, 8173,4.93707275390625
48, 8195, 8189, 8225, 8179, 8181, 8169, 8164, 8182, 8152, 8164, 8207, 7980, 8191, 8176,4.953980207443237
49, 8168, 8175, 8138, 8176, 8169, 8164, 8167, 8161, 8151, 8159, 8188, 7951, 8169, 8148,4.953980207443237
50, 8168, 8174, 8180, 8169, 8167, 8164, 8165, 8168, 8151, 8153, 8176, 7953, 8150, 8144,4.953980207443237
51, 8182, 8193, 8193, 8188, 8182, 8181, 8177, 8176, 8162, 8167, 8191, 7968, 8161, 8156,4.970638275146484
52, 8177, 8180, 8153, 8191, 8176, 8171, 8172, 8169, 8154, 8163, 8186, 7961, 8168, 8149,4.970638275146484
53, 8160, 8163, 8207, 8165, 8165, 8169, 8154, 8173, 8131, 8146, 8157, 7968, 8155, 8140,4.984323501586914
54, 8149, 8155, 8136, 8170, 8177, 8174, 8162, 8158, 8147, 8168, 8158, 7952, 8165, 8138,4.999918699264526
55, 8172, 8171, 8185, 8178, 8182, 8179, 8159, 8170, 8148, 8168, 8168, 7969, 8177, 8156,4.999918699264526
56, 8188, 8184, 8203, 8189, 8181, 8186, 8169, 8178, 8154, 8175, 8184, 8002, 8187, 8170,5.015345811843872
57, 8170, 8156, 8132, 8173, 8170, 8180, 8173, 8167, 8159, 8184, 8184, 7984, 8187, 8157,5.015345811843872
58, 8153, 8145, 8186, 8145, 8151, 8183, 8155, 8179, 8139, 8154, 8162, 7974, 8170, 8146,5.032393932342529
59, 8156, 8159, 8141, 8173, 8165, 8185, 8175, 8172, 8160, 8170, 8163, 7977, 8173, 8156,5.032393932342529
60, 8171, 8163, 8175, 8174, 8181, 8182, 8191, 8178, 8182, 8203, 8165, 7997, 8179, 8170,5.032393932342529
61, 8168, 8157, 8181, 8163, 8176, 8187, 8193, 8183, 8186, 8208, 8168, 8005, 8179, 8169,5.047083854675293
62, 8161, 8147, 8115, 8168, 8168, 8174, 8191, 8172, 8182, 8197, 8164, 7987, 8176, 8162,5.0621137619018555
63, 8167, 8155, 8188, 8154, 8156, 8170, 8182, 8181, 8164, 8179, 8153, 8005, 8162, 8165,5.0621137619018555
64, 8163, 8151, 8133, 8160, 8162, 8173, 8200, 8168, 8173, 8186, 8163, 8010, 8166, 8163,5.078199625015259
65, 8164, 8145, 8147, 8160, 8169, 8169, 8206, 8171, 8176, 8185, 8157, 8008, 8165, 8165,5.078199625015259
66, 8164, 8152, 8176, 8156, 8173, 8179, 8204, 8180, 8182, 8189, 8149, 8016, 8156, 8163,5.094287633895874
67, 8170, 8151, 8115, 8167, 8184, 8179, 8209, 8168, 8202, 8205, 8173, 8019, 8170, 8164,5.094287633895874
68, 8185, 8164, 8186, 8167, 8180, 8178, 8190, 8184, 8200, 8203, 8184, 8047, 8186, 8179,5.109957456588745
69, 8167, 8160, 8131, 8171, 8170, 8168, 8178, 8178, 8196, 8207, 8170, 8035, 8185, 8171,5.109957456588745
70, 8159, 8149, 8131, 8153, 8166, 8153, 8164, 8170, 8180, 8195, 8165, 8030, 8180, 8168,5.125039339065552
71, 8179, 8163, 8187, 8143, 8176, 8166, 8164, 8171, 8182, 8194, 8186, 8065, 8200, 8185,5.125039339065552
72, 8178, 8153, 8124, 8150, 8175, 8152, 8170, 8159, 8193, 8198, 8186, 8054, 8199, 8173,5.140317678451538
73, 8168, 8150, 8186, 8130, 8154, 8135, 8154, 8171, 8166, 8163, 8158, 8054, 8165, 8153,5.140317678451538
74, 8163, 8158, 8146, 8131, 8163, 8151, 8172, 8174, 8178, 8171, 8164, 8062, 8165, 8148,5.15606427192688
75, 8171, 8162, 8139, 8141, 8182, 8161, 8191, 8175, 8195, 8188, 8176, 8067, 8170, 8154,5.15606427192688
76, 8178, 8172, 8204, 8144, 8188, 8170, 8192, 8183, 8194, 8179, 8169, 8080, 8155, 8153,5.1720380783081055
77, 8174, 8167, 8133, 8157, 8189, 8172, 8194, 8177, 8205, 8183, 8162, 8066, 8149, 8148,5.1720380783081055
78, 8173, 8173, 8182, 8158, 8181, 8175, 8181, 8184, 8181, 8174, 8148, 8071, 8146, 8154,5.18700098991394
79, 8165, 8172, 8155, 8177, 8185, 8171, 8179, 8164, 8163, 8174, 8151, 8061, 8160, 8150,5.18700098991394
80, 8166, 8157, 8138, 8178, 8187, 8167, 8174, 8157, 8166, 8188, 8161, 8057, 8186, 8149,5.202366828918457
81, 8172, 8168, 8198, 8173, 8191, 8192, 8175, 8181, 8180, 8202, 8164, 8079, 8201, 8163,5.202366828918457
82, 8161, 8163, 8128, 8187, 8205, 8191, 8180, 8164, 8194, 8211, 8161, 8060, 8196, 8155,5.217881202697754
83, 8166, 8164, 8184, 8181, 8203, 8181, 8168, 8169, 8180, 8199, 8152, 8071, 8190, 8156,5.217881202697754
84, 8186, 8183, 8176, 8194, 8202, 8197, 8197, 8182, 8206, 8221, 8167, 8101, 8221, 8185,5.233991384506226
85, 8193, 8175, 8145, 8189, 8195, 8185, 8206, 8176, 8235, 8240, 8177, 8104, 8238, 8200,5.233991384506226
86, 8176, 8161, 8200, 8148, 8180, 8171, 8176, 8176, 8214, 8229, 8160, 8109, 8219, 8185,5.2490034103393555
87, 8164, 8148, 8121, 8139, 8187, 8175, 8186, 8165, 8208, 8234, 8156, 8096, 8214, 8166,5.2490034103393555
88, 8169, 8150, 8160, 8129, 8189, 8183, 8193, 8175, 8205, 8212, 8143, 8095, 8202, 8159,5.265040636062622
89, 8159, 8158, 8155, 8130, 8186, 8180, 8190, 8173, 8204, 8191, 8131, 8082, 8187, 8141,5.265040636062622
90, 8161, 8157, 8114, 8138, 8189, 8162, 8191, 8169, 8207, 8192, 8143, 8080, 8179, 8137,5.280916452407837
91, 8184, 8165, 8192, 8132, 8182, 8170, 8188, 8184, 8206, 8190, 8159, 8124, 8174, 8156,5.280916452407837
92, 8185, 8161, 8139, 8139, 8176, 8174, 8191, 8173, 8214, 8200, 8170, 8128, 8186, 8158,5.296136379241943
93, 8180, 8163, 8176, 8128, 8174, 8165, 8175, 8180, 8204, 8196, 8164, 8126, 8181, 8151,5.296136379241943
94, 8173, 8169, 8179, 8131, 8179, 8170, 8173, 8175, 8194, 8195, 8167, 8129, 8169, 8138,5.311591625213623
95, 8161, 8160, 8125, 8147, 8183, 8165, 8173, 8156, 8178, 8192, 8173, 8109, 8169, 8119,5.311591625213623
96, 8161, 8176, 8201, 8153, 8187, 8173, 8164, 8171, 8169, 8175, 8165, 8113, 8162, 8119,5.327171325683594
97, 8170, 8188, 8145, 8178, 8197, 8179, 8184, 8171, 8203, 8190, 8164, 8112, 8161, 8135,5.327171325683594
98, 8190, 8189, 8176, 8174, 8193, 8177, 8190, 8178, 8203, 8193, 8162, 8126, 8163, 8157,5.343080520629883
99, 8194, 8190, 8204, 8173, 8192, 8195, 8201, 8183, 8192, 8210, 8169, 8143, 8178, 8172,5.343080520629883
100, 8189, 8172, 8142, 8184, 8193, 8199, 8224, 8172, 8215, 8243, 8166, 8135, 8190, 8175,5.357923984527588
101, 8188, 8159, 8201, 8162, 8182, 8195, 8215, 8177, 8219, 8222, 8143, 8137, 8178, 8178,5.357923984527588
102, 8175, 8151, 8135, 8152, 8183, 8180, 8199, 8166, 8216, 8207, 8139, 8110, 8175, 8161,5.373271226882935
103, 8181, 8155, 8150, 8146, 8184, 8164, 8183, 8171, 8207, 8207, 8142, 8109, 8176, 8152,5.373271226882935
104, 8194, 8169, 8189, 8155, 8187, 8176, 8194, 8180, 8212, 8206, 8153, 8140, 8180, 8161,5.3892903327941895
105, 8198, 8164, 8126, 8170, 8195, 8174, 8199, 8163, 8217, 8199, 8168, 8143, 8185, 8168,5.3892903327941895
106, 8208, 8173, 8201, 8155, 8193, 8168, 8177, 8174, 8195, 8191, 8177, 8173, 8188, 8176,5.40532660484314
107, 8197, 8170, 8156, 8155, 8194, 8176, 8193, 8173, 8206, 8216, 8202, 8189, 8206, 8171,5.40532660484314
108, 8184, 8162, 8154, 8149, 8188, 8181, 8199, 8174, 8205, 8206, 8205, 8185, 8202, 8160,5.420851945877075
109, 8187, 8178, 8197, 8151, 8189, 8191, 8188, 8177, 8184, 8182, 8190, 8187, 8177, 8154,5.420851945877075
110, 8181, 8177, 8130, 8166, 8207, 8186, 8194, 8162, 8187, 8189, 8184, 8166, 8166, 8150,5.436376094818115
111, 8167, 8173, 8188, 8151, 8199, 8177, 8184, 8172, 8171, 8175, 8161, 8164, 8152, 8152,5.436376094818115
112, 8154, 8171, 8145, 8155, 8189, 8180, 8184, 8169, 8165, 8175, 8146, 8155, 8143, 8147,5.451857566833496
113, 8161, 8167, 8141, 8167, 8196, 8187, 8190, 8169, 8169, 8188, 8142, 8155, 8145, 8157,5.451857566833496
114, 8171, 8177, 8198, 8171, 8205, 8203, 8194, 8179, 8184, 8202, 8145, 8179, 8159, 8173,5.467101097106934
115, 8159, 8160, 8119, 8164, 8205, 8191, 8195, 8168, 8209, 8220, 8147, 8163, 8160, 8157,5.467101097106934
116, 8154, 8152, 8168, 8133, 8192, 8182, 8177, 8180, 8209, 8206, 8136, 8159, 8142, 8146,5.4826109409332275
117, 8163, 8168, 8148, 8146, 8195, 8190, 8187, 8178, 8224, 8215, 8151, 8167, 8156, 8155,5.4826109409332275
118, 8181, 8171, 8139, 8155, 8194, 8182, 8189, 8169, 8224, 8218, 8165, 8180, 8172, 8163,5.4992148876190186
119, 8186, 8172, 8200, 8131, 8178, 8176, 8172, 8176, 8198, 8185, 8155, 8198, 8159, 8161,5.4992148876190186
120, 8179, 8168, 8130, 8138, 8173, 8167, 8168, 8166, 8194, 8179, 8159, 8190, 8163, 8158,5.514359474182129
121, 8188, 8177, 8188, 8138, 8178, 8174, 8168, 8177, 8186, 8185, 8179, 8217, 8177, 8168,5.514359474182129
122, 8189, 8185, 8174, 8147, 8193, 8185, 8190, 8173, 8196, 8207, 8199, 8228, 8182, 8166,5.52890682220459
123, 8177, 8176, 8139, 8157, 8191, 8172, 8191, 8161, 8197, 8214, 8184, 8199, 8162, 8150,5.5299084186553955
124, 8168, 8181, 8205, 8154, 8182, 8190, 8179, 8175, 8183, 8202, 8159, 8190, 8143, 8142,5.544365882873535
125, 8164, 8181, 8140, 8170, 8196, 8203, 8202, 8171, 8200, 8216, 8166, 8181, 8153, 8145,5.560495376586914
126, 8171, 8189, 8182, 8172, 8198, 8191, 8197, 8178, 8198, 8205, 8167, 8198, 8154, 8157,5.560495376586914
127, 8161, 8189, 8175, 8177, 8196, 8193, 8192, 8175, 8192, 8194, 8155, 8195, 8145, 8144,5.560495376586914
236, 8144, 8165, 8120, 8169, 8191, 8192, 8203, 8166, 8190, 8197, 8131, 8158, 8128, 8119,5.575307607650757
0, 8153, 8164, 8183, 8155, 8177, 8196, 8201, 8178, 8180, 8183, 8117, 8168, 8118, 8127,5.590956449508667
1, 8166, 8161, 8120, 8162, 8186, 8199, 8205, 8165, 8194, 8192, 8132, 8175, 8143, 8143,5.590956449508667
2, 8168, 8155, 8151, 8144, 8187, 8199, 8204, 8174, 8198, 8200, 8126, 8180, 8149, 8152,5.606034755706787
3, 8159, 8164, 8158, 8149, 8183, 8205, 8210, 8181, 8203, 8206, 8124, 8189, 8145, 8156,5.606034755706787
4, 8158, 8151, 8105, 8152, 8184, 8202, 8214, 8172, 8206, 8212, 8144, 8186, 8157, 8158,5.62120795249939
5, 8165, 8148, 8175, 8136, 8185, 8206, 8209, 8182, 8197, 8205, 8148, 8202, 8158, 8156,5.62120795249939
6, 8153, 8152, 8115, 8156, 8187, 8200, 8220, 8169, 8208, 8214, 8136, 8186, 8148, 8140,5.637293577194214
7, 8152, 8151, 8137, 8156, 8178, 8193, 8208, 8170, 8191, 8203, 8125, 8178, 8135, 8139,5.637293577194214
8, 8157, 8151, 8161, 8150, 8181, 8199, 8203, 8176, 8181, 8198, 8128, 8188, 8138, 8146,5.652462959289551
9, 8145, 8140, 8105, 8153, 8185, 8178, 8207, 8164, 8193, 8197, 8125, 8179, 8148, 8135,5.652462959289551
10, 8140, 8146, 8174, 8135, 8172, 8176, 8201, 8176, 8189, 8182, 8121, 8201, 8143, 8140,5.66761326789856
11, 8147, 8147, 8117, 8144, 8171, 8195, 8217, 8172, 8204, 8196, 8133, 8202, 8152, 8151,5.66761326789856
12, 8151, 8142, 8129, 8150, 8174, 8191, 8209, 8171, 8203, 8189, 8122, 8188, 8147, 8148,5.682935953140259
13, 8136, 8145, 8166, 8137, 8179, 8192, 8207, 8177, 8190, 8184, 8114, 8185, 8132, 8133,5.682935953140259
14, 8136, 8139, 8102, 8133, 8184, 8191, 8225, 8172, 8198, 8202, 8126, 8179, 8134, 8130,5.698996543884277
15, 8163, 8158, 8174, 8134, 8172, 8190, 8215, 8183, 8203, 8194, 8130, 8211, 8142, 8153,5.698996543884277
16, 8170, 8170, 8141, 8154, 8172, 8189, 8215, 8172, 8216, 8195, 8148, 8225, 8160, 8159,5.71429443359375
17, 8175, 8160, 8147, 8150, 8173, 8186, 8208, 8172, 8206, 8194, 8158, 8223, 8163, 8156,5.71429443359375
18, 8178, 8156, 8184, 8137, 8167, 8189, 8194, 8181, 8194, 8186, 8145, 8223, 8153, 8158,5.730034112930298
19, 8170, 8148, 8116, 8146, 8163, 8172, 8191, 8165, 8205, 8185, 8137, 8206, 8150, 8148,5.730034112930298
20, 8176, 8156, 8186, 8139, 8157, 8164, 8181, 8175, 8196, 8174, 8133, 8222, 8147, 8144,5.745181322097778
21, 8176, 8166, 8151, 8148, 8159, 8171, 8188, 8174, 8196, 8181, 8136, 8221, 8152, 8144,5.745181322097778
22, 8180, 8164, 8140, 8154, 8159, 8168, 8188, 8171, 8196, 8174, 8141, 8217, 8152, 8154,5.760882616043091
23, 8186, 8171, 8200, 8145, 8154, 8177, 8181, 8179, 8194, 8164, 8152, 8244, 8162, 8165,5.776999473571777
24, 8170, 8161, 8127, 8142, 8154, 8171, 8181, 8165, 8200, 8179, 8160, 8237, 8173, 8155,5.776999473571777
25, 8172, 8160, 8181, 8125, 8150, 8160, 8170, 8177, 8185, 8167, 8152, 8243, 8160, 8149,5.777469635009766
26, 8180, 8167, 8159, 8130, 8154, 8156, 8172, 8170, 8182, 8159, 8157, 8244, 8158, 8142,5.792903184890747
27, 8165, 8159, 8131, 8129, 8152, 8147, 8153, 8160, 8156, 8145, 8153, 8227, 8149, 8125,5.792903184890747
28, 8149, 8167, 8190, 8128, 8151, 8164, 8139, 8171, 8127, 8125, 8132, 8231, 8124, 8118,5.80832314491272
29, 8156, 8174, 8127, 8156, 8161, 8182, 8169, 8162, 8147, 8142, 8122, 8218, 8122, 8121,5.80832314491272
30, 8161, 8176, 8179, 8152, 8157, 8190, 8179, 8173, 8148, 8153, 8119, 8221, 8128, 8129,5.8244006633758545
31, 8137, 8163, 8160, 8141, 8158, 8194, 8178, 8172, 8153, 8170, 8138, 8220, 8134, 8124,5.8244006633758545
32, 8129, 8141, 8115, 8134, 8155, 8183, 8174, 8164, 8163, 8172, 8131, 8207, 8130, 8120,5.840137720108032
33, 8148, 8154, 8179, 8140, 8149, 8194, 8171, 8177, 8160, 8159, 8116, 8227, 8129, 8130,5.840137720108032
34, 8158, 8165, 8125, 8170, 8160, 8200, 8191, 8168, 8189, 8197, 8147, 8237, 8153, 8145,5.856209754943848
35, 8164, 8160, 8174, 8160, 8162, 8188, 8187, 8174, 8200, 8212, 8152, 8245, 8157, 8155,5.856209754943848
36, 8163, 8153, 8171, 8144, 8162, 8185, 8188, 8177, 8205, 8211, 8136, 8241, 8154, 8145,5.872187376022339
37, 8157, 8144, 8124, 8129, 8161, 8174, 8186, 8167, 8211, 8211, 8150, 8245, 8163, 8137,5.872187376022339
38, 8158, 8157, 8190, 8111, 8153, 8168, 8167, 8172, 8195, 8190, 8164, 8273, 8164, 8145,5.887294054031372
39, 8159, 8164, 8131, 8129, 8155, 8156, 8171, 8160, 8189, 8181, 8164, 8260, 8162, 8139,5.887294054031372
40, 8164, 8172, 8174, 8124, 8145, 8149, 8160, 8164, 8165, 8160, 8156, 8263, 8147, 8131,5.902574300765991
41, 8155, 8176, 8184, 8118, 8136, 8169, 8161, 8170, 8155, 8158, 8162, 8270, 8138, 8134,5.902574300765991
42, 8144, 8167, 8123, 8142, 8149, 8178, 8181, 8165, 8167, 8178, 8158, 8239, 8135, 8131,5.918209791183472
43, 8145, 8183, 8193, 8156, 8162, 8187, 8186, 8178, 8162, 8174, 8139, 8247, 8129, 8131,5.918209791183472
44, 8136, 8174, 8128, 8152, 8154, 8186, 8199, 8165, 8171, 8177, 8140, 8245, 8137, 8129,5.933705806732178
45, 8131, 8149, 8142, 8117, 8132, 8177, 8200, 8170, 8174, 8178, 8140, 8229, 8132, 8129,5.933705806732178
46, 8127, 8150, 8164, 8106, 8132, 8183, 8205, 8178, 8174, 8174, 8127, 8222, 8125, 8123,5.949643850326538
47, 8123, 8136, 8099, 8110, 8134, 8170, 8198, 8158, 8171, 8154, 8111, 8213, 8125, 8116,5.949643850326538
48, 8134, 8133, 8172, 8096, 8120, 8168, 8174, 8165, 8160, 8141, 8113, 8242, 8125, 8127,5.965338468551636
49, 8146, 8151, 8136, 8119, 8137, 8176, 8181, 8166, 8185, 8173, 8148, 8255, 8154, 8136,5.965338468551636
50, 8169, 8175, 8160, 8138, 8153, 8167, 8178, 8175, 8197, 8177, 8173, 8269, 8179, 8147,5.980970144271851
51, 8180, 8190, 8202, 8140, 8145, 8166, 8166, 8179, 8186, 8166, 8181, 8288, 8175, 8148,5.980970144271851
52, 8169, 8174, 8134, 8143, 8135, 8157, 8160, 8160, 8169, 8168, 8176, 8268, 8159, 8128,5.996155500411987
53, 8170, 8170, 8198, 8127, 8131, 8153, 8140, 8166, 8138, 8144, 8161, 8274, 8143, 8130,5.996155500411987
54, 8163, 8173, 8160, 8134, 8142, 8156, 8148, 8157, 8129, 8136, 8170, 8278, 8143, 8132,6.012227296829224
55, 8155, 8167, 8160, 8132, 8147, 8155, 8149, 8155, 8112, 8134, 8168, 8269, 8136, 8118,6.012227296829224
56, 8153, 8170, 8197, 8127, 8137, 8167, 8139, 8167, 8102, 8129, 8148, 8265, 8121, 8108,6.0352253913879395
57, 8148, 8162, 8127, 8136, 8132, 8164, 8147, 8162, 8113, 8129, 8146, 8250, 8115, 8110,6.036226272583008
58, 8154, 8168, 8197, 8130, 8143, 8170, 8147, 8172, 8104, 8121, 8149, 8266, 8119, 8120,6.036226272583008
59, 8160, 8182, 8171, 8158, 8165, 8181, 8160, 8161, 8125, 8151, 8168, 8272, 8147, 8129,6.043354034423828
60, 8172, 8194, 8163, 8180, 8164, 8173, 8156, 8162, 8147, 8171, 8187, 8281, 8165, 8146,6.059344291687012
61, 8181, 8204, 8222, 8179, 8158, 8188, 8154, 8181, 8149, 8166, 8191, 8306, 8170, 8159,6.059344291687012
62, 8174, 8182, 8150, 8187, 8165, 8193, 8178, 8169, 8162, 8188, 8190, 8287, 8173, 8148,6.0748724937438965
63, 8170, 8174, 8196, 8175, 8162, 8194, 8181, 8175, 8160, 8182, 8176, 8280, 8159, 8145,6.0748724937438965
64, 8157, 8176, 8164, 8177, 8168, 8203, 8184, 8173, 8171, 8174, 8175, 8271, 8162, 8140,6.090849161148071
65, 8146, 8160, 8135, 8176, 8171, 8192, 8181, 8170, 8178, 8181, 8177, 8259, 8173, 8134,6.090849161148071
66, 8143, 8170, 8191, 8174, 8168, 8192, 8178, 8180, 8176, 8186, 8176, 8275, 8171, 8146,6.1060075759887695
67, 8133, 8167, 8109, 8185, 8172, 8189, 8178, 8169, 8185, 8190, 8165, 8251, 8162, 8138,6.1060075759887695
68, 8129, 8154, 8155, 8161, 8154, 8177, 8163, 8177, 8175, 8171, 8145, 8240, 8147, 8129,6.121274471282959
69, 8133, 8155, 8150, 8161, 8142, 8181, 8181, 8178, 8198, 8192, 8161, 8252, 8162, 8140,6.121274471282959
70, 8140, 8153, 8109, 8171, 8150, 8178, 8193, 8178, 8228, 8214, 8177, 8264, 8183, 8153,6.13724160194397
71, 8140, 8156, 8167, 8151, 8146, 8175, 8181, 8191, 8218, 8197, 8178, 8284, 8180, 8154,6.13724160194397
72, 8131, 8140, 8101, 8140, 8138, 8160, 8184, 8167, 8205, 8190, 8177, 8262, 8173, 8138,6.1528661251068115
73, 8146, 8139, 8151, 8132, 8135, 8152, 8167, 8168, 8176, 8163, 8159, 8264, 8158, 8131,6.153867483139038
74, 8162, 8164, 8168, 8147, 8145, 8160, 8160, 8174, 8163, 8147, 8172, 8288, 8164, 8131,6.168917179107666
75, 8160, 8174, 8127, 8158, 8150, 8154, 8157, 8162, 8156, 8153, 8203, 8290, 8180, 8130,6.168917179107666
76, 8164, 8184, 8192, 8152, 8152, 8160, 8152, 8173, 8148, 8162, 8206, 8298, 8176, 8137,6.184356451034546
77, 8166, 8178, 8132, 8169, 8160, 8169, 8174, 8172, 8172, 8183, 8203, 8278, 8176, 8134,6.184356451034546
78, 8163, 8168, 8170, 8167, 8159, 8174, 8174, 8180, 8169, 8177, 8194, 8277, 8176, 8136,6.199610471725464
79, 8156, 8177, 8185, 8174, 8168, 8184, 8166, 8176, 8166, 8180, 8194, 8285, 8182, 8141,6.216198682785034
80, 8157, 8178, 8132, 8188, 8173, 8180, 8169, 8163, 8177, 8202, 8195, 8272, 8184, 8143,6.216198682785034
81, 8161, 8172, 8196, 8168, 8159, 8187, 8170, 8177, 8166, 8193, 8183, 8284, 8178, 8151,6.216198682785034
82, 8143, 8150, 8118, 8161, 8158, 8187, 8180, 8168, 8175, 8194, 8174, 8269, 8176, 8143,6.23040246963501
83, 8131, 8140, 8128, 8149, 8156, 8176, 8168, 8169, 8170, 8185, 8155, 8255, 8156, 8131,6.23040246963501
84, 8128, 8147, 8157, 8141, 8147, 8178, 8170, 8173, 8163, 8176, 8147, 8263, 8153, 8131,6.246031284332275
85, 8139, 8144, 8105, 8145, 8150, 8172, 8188, 8164, 8182, 8191, 8163, 8260, 8179, 8140,6.261330604553223
86, 8160, 8151, 8183, 8133, 8149, 8172, 8181, 8177, 8180, 8191, 8172, 8277, 8186, 8155,6.261330604553223
87, 8156, 8148, 8131, 8142, 8146, 8171, 8175, 8172, 8180, 8200, 8175, 8276, 8191, 8152,6.279076099395752
88, 8155, 8148, 8141, 8144, 8141, 8162, 8165, 8174, 8180, 8196, 8180, 8279, 8192, 8151,6.279076099395752
89, 8158, 8159, 8178, 8135, 8136, 8161, 8159, 8176, 8179, 8184, 8184, 8293, 8189, 8157,6.293493032455444
90, 8155, 8146, 8111, 8130, 8130, 8148, 8156, 8159, 8171, 8172, 8181, 8281, 8183, 8146,6.293493032455444
91, 8168, 8152, 8183, 8119, 8120, 8149, 8143, 8172, 8144, 8145, 8173, 8288, 8170, 8137,6.309525489807129
92, 8172, 8168, 8150, 8139, 8136, 8163, 8157, 8172, 8149, 8152, 8183, 8286, 8176, 8139,6.309525489807129
93, 8167, 8164, 8145, 8136, 8146, 8155, 8151, 8171, 8140, 8150, 8182, 8282, 8170, 8143,6.324166297912598
94, 8163, 8165, 8186, 8131, 8137, 8158, 8138, 8175, 8126, 8135, 8175, 8289, 8155, 8135,6.324166297912598
95, 8161, 8169, 8123, 8157, 8142, 8167, 8161, 8162, 8148, 8149, 8182, 8271, 8160, 8127,6.340917348861694
96, 8164, 8186, 8197, 8164, 8153, 8187, 8177, 8181, 8156, 8160, 8180, 8279, 8164, 8143,6.340917348861694
97, 8162, 8190, 8168, 8175, 8159, 8193, 8192, 8181, 8172, 8186, 8183, 8275, 8171, 8151,6.340917348861694
98, 8160, 8179, 8148, 8175, 8154, 8173, 8186, 8170, 8172, 8190, 8185, 8272, 8171, 8146,6.3553853034973145
99, 8146, 8181, 8188, 8174, 8152, 8179, 8177, 8169, 8152, 8166, 8178, 8278, 8162, 8141,6.37090802192688
100, 8126, 8167, 8103, 8178, 8155, 8184, 8193, 8158, 8163, 8168, 8164, 8247, 8161, 8131,6.37090802192688
101, 8145, 8167, 8169, 8161, 8151, 8183, 8191, 8176, 8181, 8174, 8151, 8263, 8163, 8144,6.386980056762695
102, 8162, 8178, 8163, 8173, 8156, 8178, 8183, 8173, 8198, 8190, 8176, 8289, 8179, 8159,6.386980056762695
103, 8164, 8175, 8138, 8177, 8157, 8153, 8160, 8160, 8178, 8180, 8201, 8297, 8190, 8161,6.402276039123535
104, 8176, 8196, 8206, 8172, 8155, 8153, 8139, 8171, 8143, 8155, 8208, 8330, 8191, 8161,6.402276039123535
105, 8176, 8197, 8143, 8195, 8157, 8156, 8140, 8161, 8133, 8155, 8216, 8320, 8186, 8147,6.418284177780151
106, 8169, 8184, 8190, 8186, 8146, 8156, 8124, 8166, 8113, 8136, 8206, 8308, 8165, 8135,6.418284177780151
107, 8164, 8191, 8191, 8190, 8157, 8171, 8135, 8167, 8126, 8146, 8205, 8307, 8170, 8135,6.434048175811768
108, 8166, 8196, 8170, 8219, 8173, 8171, 8152, 8169, 8145, 8170, 8208, 8305, 8183, 8149,6.434048175811768
109, 8170, 8202, 8229, 8224, 8168, 8174, 8150, 8182, 8135, 8167, 8202, 8323, 8175, 8159,6.449207544326782
110, 8173, 8196, 8152, 8229, 8171, 8178, 8160, 8162, 8136, 8170, 8205, 8307, 8167, 8153,6.449207544326782
111, 8170, 8187, 8193, 8213, 8166, 8186, 8151, 8166, 8117, 8155, 8189, 8291, 8154, 8152,6.464579343795776
112, 8149, 8177, 8186, 8203, 8162, 8196, 8150, 8175, 8120, 8158, 8177, 8283, 8152, 8147,6.464579343795776
113, 8147, 8170, 8135, 8210, 8170, 8190, 8163, 8171, 8146, 8171, 8174, 8275, 8154, 8142,6.479621171951294
114, 8164, 8194, 8212, 8216, 8174, 8202, 8179, 8181, 8153, 8169, 8178, 8291, 8159, 8154,6.479621171951294
115, 8161, 8193, 8146, 8228, 8177, 8202, 8197, 8171, 8170, 8190, 8197, 8286, 8182, 8158,6.49516749382019
116, 8166, 8180, 8171, 8214, 8170, 8187, 8183, 8180, 8167, 8186, 8197, 8293, 8187, 8164,6.49516749382019
117, 8165, 8182, 8190, 8211, 8160, 8190, 8182, 8180, 8159, 8172, 8189, 8301, 8176, 8162,6.5112199783325195
118, 8145, 8168, 8137, 8206, 8151, 8183, 8182, 8163, 8151, 8182, 8183, 8286, 8171, 8149,6.5112199783325195
119, 8151, 8170, 8205, 8190, 8153, 8185, 8160, 8179, 8143, 8184, 8177, 8299, 8171, 8159,6.526216983795166
120, 8165, 8176, 8148, 8208, 8167, 8187, 8166, 8176, 8161, 8191, 8194, 8304, 8179, 8171,6.526216983795166
121, 8168, 8168, 8170, 8200, 8151, 8174, 8165, 8173, 8156, 8179, 8203, 8314, 8179, 8170,6.541970729827881
122, 8163, 8169, 8198, 8183, 8139, 8175, 8165, 8174, 8159, 8174, 8195, 8316, 8179, 8163,6.541970729827881
123, 8167, 8172, 8133, 8187, 8153, 8176, 8178, 8171, 8183, 8185, 8187, 8301, 8185, 8160,6.557479381561279
124, 8181, 8184, 8204, 8183, 8158, 8173, 8167, 8185, 8171, 8176, 8188, 8329, 8187, 8173,6.557479381561279
125, 8181, 8178, 8158, 8194, 8155, 8157, 8153, 8167, 8148, 8172, 8205, 8329, 8190, 8170,6.57331395149231
126, 8178, 8168, 8164, 8181, 8145, 8137, 8127, 8165, 8116, 8139, 8202, 8319, 8174, 8155,6.57331395149231
127, 8179, 8192, 8206, 8180, 8149, 8148, 8125, 8180, 8114, 8128, 8210, 8334, 8174, 8152,6.5884668827056885
236, 8192, 8205, 8152, 8215, 8168, 8155, 8148, 8172, 8137, 8163, 8236, 8326, 8196, 8159,6.5884668827056885
0, 8205, 8214, 8226, 8230, 8174, 8164, 8144, 8175, 8125, 8165, 8223, 8334, 8182, 8167,6.604062557220459
1, 8193, 8211, 8183, 8250, 8177, 8172, 8150, 8166, 8128, 8160, 8211, 8325, 8167, 8163,6.604062557220459
2, 8192, 8197, 8172, 8250, 8169, 8166, 8157, 8169, 8128, 8160, 8218, 8312, 8178, 8164,6.620112180709839
3, 8189, 8193, 8207, 8232, 8159, 8175, 8156, 8177, 8109, 8167, 8220, 8319, 8183, 8168,6.620112180709839
4, 8171, 8175, 8128, 8228, 8161, 8173, 8159, 8159, 8109, 8169, 8212, 8302, 8176, 8162,6.6362080574035645
5, 8175, 8172, 8190, 8214, 8162, 8173, 8154, 8166, 8108, 8150, 8200, 8309, 8167, 8162,6.6362080574035645
6, 8175, 8170, 8154, 8213, 8162, 8173, 8166, 8163, 8117, 8160, 8208, 8305, 8174, 8157,6.650747299194336
7, 8165, 8160, 8131, 8193, 8152, 8154, 8159, 8163, 8110, 8162, 8215, 8294, 8173, 8151,6.650747299194336
8, 8166, 8175, 8187, 8185, 8151, 8156, 8145, 8179, 8104, 8147, 8224, 8317, 8175, 8152,6.666318416595459
9, 8167, 8177, 8126, 8214, 8166, 8156, 8151, 8165, 8118, 8160, 8242, 8317, 8189, 8149,6.666318416595459
10, 8167, 8181, 8185, 8204, 8163, 8153, 8132, 8167, 8093, 8149, 8239, 8315, 8176, 8146,6.682177305221558
11, 8160, 8190, 8160, 8202, 8164, 8161, 8134, 8167, 8086, 8143, 8237, 8304, 8175, 8136,6.682177305221558
12, 8162, 8184, 8136, 8217, 8173, 8157, 8141, 8169, 8098, 8150, 8231, 8295, 8183, 8133,6.697876930236816
13, 8161, 8185, 8198, 8223, 8170, 8164, 8134, 8178, 8093, 8152, 8215, 8296, 8165, 8137,6.697876930236816
14, 8149, 8179, 8116, 8235, 8174, 8175, 8143, 8162, 8098, 8163, 8204, 8268, 8154, 8133,6.712952613830566
15, 8150, 8173, 8164, 8219, 8169, 8178, 8142, 8170, 8092, 8156, 8189, 8275, 8153, 8137,6.712952613830566
16, 8153, 8170, 8162, 8209, 8164, 8180, 8146, 8171, 8101, 8170, 8197, 8281, 8164, 8144,6.7290332317352295
17, 8148, 8159, 8121, 8208, 8161, 8172, 8144, 8160, 8098, 8173, 8196, 8262, 8157, 8141,6.7290332317352295
18, 8136, 8158, 8171, 8190, 8151, 8176, 8134, 8168, 8076, 8136, 8164, 8259, 8130, 8129,6.744637727737427
19, 8123, 8149, 8095, 8176, 8150, 8173, 8147, 8159, 8092, 8134, 8152, 8234, 8122, 8109,6.744637727737427
20, 8141, 8155, 8152, 8167, 8153, 8181, 8153, 8177, 8112, 8156, 8166, 8249, 8134, 8123,6.760165214538574
21, 8155, 8163, 8169, 8188, 8162, 8191, 8162, 8182, 8127, 8181, 8176, 8267, 8144, 8142,6.760165214538574
22, 8147, 8150, 8114, 8186, 8160, 8171, 8159, 8165, 8122, 8168, 8143, 8238, 8122, 8128,6.77624249458313
23, 8146, 8154, 8177, 8153, 8152, 8178, 8157, 8176, 8117, 8143, 8120, 8245, 8113, 8132,6.77624249458313
24, 8155, 8146, 8121, 8154, 8152, 8185, 8178, 8173, 8146, 8162, 8156, 8258, 8155, 8153,6.792214870452881
25, 8160, 8136, 8150, 8145, 8137, 8167, 8165, 8174, 8144, 8156, 8164, 8268, 8164, 8159,6.792214870452881
26, 8140, 8139, 8154, 8132, 8131, 8164, 8147, 8170, 8131, 8137, 8130, 8257, 8133, 8134,6.8071417808532715
27, 8121, 8124, 8093, 8121, 8132, 8152, 8136, 8158, 8117, 8127, 8106, 8222, 8112, 8106,6.822484016418457
28, 8139, 8138, 8171, 8117, 8131, 8155, 8121, 8172, 8106, 8122, 8115, 8247, 8122, 8121,6.822484016418457
29, 8163, 8162, 8132, 8161, 8150, 8159, 8138, 8170, 8138, 8152, 8155, 8279, 8160, 8148,6.822484016418457
30, 8172, 8161, 8155, 8167, 8153, 8146, 8129, 8173, 8134, 8148, 8167, 8287, 8167, 8150,6.839268207550049
31, 8151, 8143, 8165, 8124, 8141, 8150, 8123, 8172, 8122, 8126, 8140, 8274, 8144, 8132,6.839268207550049
32, 8129, 8122, 8091, 8094, 8141, 8145, 8143, 8161, 8145, 8130, 8125, 8249, 8135, 8118,6.854357004165649
33, 8135, 8138, 8172, 8101, 8144, 8139, 8130, 8174, 8137, 8118, 8118, 8256, 8126, 8115,6.855356216430664
34, 8140, 8160, 8129, 8151, 8152, 8148, 8129, 8164, 8127, 8114, 8108, 8244, 8116, 8103,6.869963884353638
35, 8147, 8162, 8137, 8159, 8148, 8160, 8139, 8163, 8124, 8112, 8097, 8241, 8107, 8106,6.869963884353638
36, 8153, 8169, 8182, 8159, 8141, 8171, 8134, 8172, 8128, 8124, 8116, 8257, 8117, 8110,6.884992837905884
37, 8153, 8175, 8121, 8204, 8149, 8161, 8123, 8160, 8139, 8141, 8136, 8255, 8134, 8101,6.9009199142456055
38, 8154, 8196, 8192, 8219, 8159, 8165, 8118, 8169, 8119, 8120, 8111, 8274, 8122, 8104,6.901920557022095
39, 8147, 8190, 8148, 8208, 8167, 8168, 8134, 8157, 8114, 8120, 8090, 8255, 8111, 8099,6.901920557022095
40, 8144, 8170, 8134, 8195, 8158, 8152, 8125, 8158, 8108, 8117, 8077, 8223, 8094, 8089,6.916016578674316
41, 8148, 8179, 8174, 8198, 8150, 8161, 8122, 8178, 8104, 8104, 8068, 8227, 8081, 8094,6.931586980819702
42, 8152, 8173, 8106, 8199, 8151, 8161, 8137, 8164, 8117, 8117, 8075, 8219, 8091, 8098,6.931586980819702
43, 8149, 8170, 8171, 8171, 8144, 8158, 8127, 8168, 8095, 8099, 8065, 8225, 8080, 8098,6.931586980819702
44, 8130, 8168, 8135, 8183, 8152, 8174, 8130, 8166, 8082, 8080, 8058, 8217, 8073, 8091,6.948899030685425
45, 8129, 8158, 8121, 8193, 8154, 8182, 8133, 8163, 8076, 8081, 8052, 8209, 8074, 8088,6.948899030685425
46, 8134, 8172, 8179, 8190, 8152, 8187, 8138, 8176, 8083, 8108, 8059, 8226, 8082, 8085,6.962925672531128
47, 8120, 8169, 8102, 8202, 8158, 8182, 8156, 8170, 8131, 8152, 8081, 8212, 8099, 8078,6.97806715965271
48, 8131, 8161, 8160, 8184, 8156, 8187, 8146, 8179, 8156, 8159, 8075, 8216, 8100, 8096,6.97806715965271
49, 8153, 8164, 8155, 8188, 8165, 8193, 8154, 8180, 8167, 8167, 8073, 8225, 8113, 8121,6.9931981563568115
50, 8149, 8164, 8131, 8197, 8168, 8185, 8173, 8175, 8161, 8163, 8074, 8219, 8118, 8126,6.9931981563568115
51, 8131, 8162, 8177, 8177, 8155, 8195, 8177, 8175, 8141, 8134, 8062, 8221, 8099, 8115,7.008864164352417
52, 8120, 8152, 8099, 8177, 8156, 8193, 8181, 8159, 8145, 8127, 8054, 8203, 8086, 8102,7.008864164352417
53, 8135, 8162, 8160, 8184, 8160, 8194, 8170, 8176, 8148, 8132, 8054, 8217, 8091, 8109,7.024940013885498
54, 8134, 8168, 8155, 8192, 8159, 8208, 8179, 8179, 8170, 8152, 8064, 8224, 8103, 8106,7.024940013885498
55, 8124, 8154, 8114, 8181, 8153, 8192, 8180, 8168, 8176, 8144, 8058, 8211, 8093, 8096,7.040085315704346
56, 8136, 8160, 8190, 8180, 8145, 8183, 8165, 8177, 8155, 8126, 8050, 8232, 8087, 8113,7.040085315704346
57, 8148, 8158, 8133, 8202, 8145, 8185, 8169, 8159, 8145, 8140, 8060, 8231, 8109, 8125,7.055249214172363
58, 8161, 8167, 8179, 8190, 8141, 8185, 8155, 8159, 8117, 8121, 8064, 8244, 8121, 8129,7.055249214172363
59, 8172, 8187, 8195, 8214, 8148, 8188, 8148, 8166, 8113, 8113, 8090, 8271, 8137, 8137,7.071319341659546
60, 8179, 8182, 8154, 8254, 8154, 8178, 8152, 8168, 8133, 8137, 8127, 8282, 8167, 8146,7.071319341659546
61, 8182, 8186, 8224, 8226, 8143, 8184, 8152, 8184, 8141, 8136, 8137, 8301, 8176, 8152,7.086991310119629
62, 8178, 8181, 8157, 8201, 8136, 8184, 8165, 8172, 8164, 8137, 8136, 8283, 8169, 8146,7.086991310119629
63, 8177, 8167, 8175, 8203, 8128, 8173, 8156, 8175, 8161, 8128, 8134, 8282, 8165, 8141,7.102473497390747
64, 8171, 8178, 8198, 8217, 8123, 8177, 8150, 8174, 8153, 8133, 8145, 8299, 8181, 8142,7.102473497390747
65, 8179, 8181, 8160, 8199, 8124, 8167, 8151, 8160, 8164, 8157, 8167, 8303, 8200, 8150,7.118565559387207
66, 8183, 8168, 8220, 8173, 8128, 8170, 8144, 8176, 8166, 8163, 8198, 8342, 8214, 8167,7.118565559387207
67, 8170, 8158, 8154, 8205, 8140, 8175, 8157, 8169, 8177, 8184, 8244, 8363, 8241, 8175,7.134352922439575
68, 8188, 8175, 8192, 8214, 8132, 8166, 8152, 8167, 8172, 8186, 8253, 8372, 8245, 8188,7.134352922439575
69, 8200, 8185, 8216, 8197, 8121, 8171, 8143, 8172, 8164, 8173, 8226, 8363, 8231, 8186,7.150253534317017
70, 8184, 8158, 8128, 8190, 8121, 8158, 8143, 8166, 8156, 8163, 8207, 8328, 8219, 8167,7.150253534317017
71, 8189, 8167, 8202, 8176, 8121, 8148, 8130, 8182, 8137, 8141, 8204, 8344, 8215, 8169,7.165364027023315
72, 8198, 8182, 8162, 8192, 8133, 8150, 8139, 8173, 8152, 8153, 8220, 8344, 8227, 8176,7.165364027023315
73, 8197, 8173, 8156, 8189, 8134, 8151, 8132, 8168, 8146, 8143, 8210, 8320, 8217, 8166,7.180917739868164
74, 8192, 8177, 8186, 8172, 8133, 8162, 8125, 8175, 8125, 8118, 8187, 8312, 8196, 8147,7.180917739868164
75, 8176, 8171, 8112, 8178, 8144, 8154, 8140, 8163, 8134, 8124, 8176, 8292, 8190, 8135,7.1959991455078125
76, 8172, 8168, 8176, 8171, 8149, 8156, 8140, 8171, 8138, 8131, 8162, 8285, 8179, 8145,7.1959991455078125
77, 8170, 8165, 8138, 8174, 8158, 8169, 8153, 8167, 8145, 8144, 8157, 8268, 8176, 8137,7.211289405822754
78, 8167, 8162, 8127, 8168, 8162, 8171, 8159, 8167, 8135, 8139, 8152, 8257, 8169, 8120,7.211289405822754
79, 8166, 8176, 8173, 8165, 8164, 8183, 8160, 8176, 8134, 8148, 8155, 8266, 8166, 8126,7.226987361907959
80, 8162, 8171, 8107, 8175, 8174, 8177, 8167, 8163, 8160, 8174, 8162, 8246, 8173, 8130,7.226987361907959
81, 8163, 8173, 8167, 8165, 8173, 8173, 8159, 8174, 8148, 8150, 8142, 8244, 8164, 8131,7.242389917373657
82, 8155, 8171, 8130, 8167, 8168, 8183, 8171, 8168, 8141, 8137, 8129, 8232, 8157, 8130,7.242389917373657
83, 8147, 8155, 8111, 8147, 8161, 8182, 8164, 8158, 8137, 8140, 8120, 8216, 8148, 8123,7.257903575897217
84, 8142, 8158, 8166, 8128, 8163, 8190, 8151, 8175, 8130, 8135, 8113, 8227, 8139, 8113,7.257903575897217
85, 8141, 8157, 8092, 8141, 8170, 8190, 8175, 8168, 8154, 8156, 8131, 8221, 8152, 8113,7.273290157318115
86, 8147, 8154, 8148, 8128, 8162, 8184, 8173, 8171, 8156, 8156, 8131, 8228, 8149, 8129,7.273290157318115
87, 8134, 8146, 8128, 8122, 8156, 8182, 8166, 8168, 8150, 8150, 8120, 8222, 8135, 8130,7.289231061935425
88, 8132, 8134, 8103, 8115, 8155, 8185, 8169, 8169, 8149, 8150, 8111, 8210, 8127, 8127,7.289231061935425
89, 8140, 8139, 8164, 8095, 8151, 8201, 8181, 8179, 8155, 8149, 8101, 8217, 8121, 8125,7.305338382720947
90, 8121, 8121, 8076, 8091, 8145, 8190, 8194, 8160, 8169, 8145, 8088, 8185, 8112, 8103,7.305338382720947
91, 8116, 8112, 8122, 8076, 8136, 8185, 8183, 8170, 8153, 8131, 8065, 8183, 8105, 8102,7.321058988571167
92, 8131, 8130, 8129, 8083, 8154, 8203, 8194, 8177, 8165, 8159, 8082, 8204, 8128, 8122,7.321058988571167
93, 8139, 8130, 8094, 8095, 8166, 8189, 8199, 8172, 8186, 8170, 8105, 8200, 8144, 8127,7.337384223937988
94, 8142, 8126, 8158, 8082, 8149, 8176, 8192, 8185, 8185, 8150, 8100, 8210, 8134, 8130,7.337384223937988
95, 8143, 8123, 8098, 8080, 8145, 8172, 8203, 8172, 8196, 8156, 8093, 8199, 8139, 8127,7.352449178695679
96, 8153, 8135, 8145, 8069, 8144, 8164, 8183, 8173, 8177, 8136, 8092, 8210, 8144, 8126,7.352449178695679
97, 8154, 8147, 8150, 8072, 8145, 8160, 8167, 8174, 8169, 8130, 8116, 8227, 8152, 8122,7.367974758148193
98, 8154, 8145, 8108, 8083, 8150, 8153, 8167, 8163, 8169, 8141, 8129, 8210, 8140, 8110,7.367974758148193
99, 8151, 8161, 8185, 8093, 8158, 8171, 8172, 8175, 8151, 8128, 8114, 8211, 8112, 8103,7.383524179458618
100, 8134, 8152, 8112, 8118, 8181, 8196, 8205, 8172, 8168, 8143, 8111, 8202, 8117, 8101,7.383524179458618
101, 8135, 8138, 8130, 8105, 8181, 8204, 8215, 8181, 8181, 8154, 8102, 8196, 8125, 8114,7.398852825164795
102, 8137, 8146, 8154, 8103, 8164, 8197, 8212, 8180, 8188, 8160, 8099, 8198, 8119, 8120,7.398852825164795
103, 8133, 8141, 8104, 8123, 8161, 8174, 8213, 8167, 8206, 8177, 8109, 8193, 8117, 8116,7.41495418548584
104, 8138, 8141, 8167, 8104, 8163, 8181, 8205, 8181, 8210, 8181, 8108, 8210, 8125, 8125,7.41495418548584
105, 8134, 8135, 8111, 8097, 8166, 8191, 8212, 8169, 8216, 8189, 8115, 8204, 8146, 8132,7.430915832519531
106, 8136, 8135, 8132, 8101, 8160, 8177, 8198, 8171, 8199, 8181, 8123, 8211, 8146, 8139,7.430915832519531
107, 8155, 8157, 8164, 8117, 8164, 8177, 8191, 8180, 8197, 8186, 8141, 8232, 8150, 8150,7.445927143096924
108, 8175, 8159, 8109, 8116, 8166, 8163, 8197, 8171, 8210, 8191, 8150, 8226, 8168, 8158,7.461711645126343
109, 8176, 8154, 8180, 8089, 8153, 8156, 8180, 8177, 8194, 8159, 8129, 8239, 8161, 8160,7.461711645126343
110, 8169, 8151, 8136, 8104, 8161, 8157, 8179, 8166, 8203, 8175, 8139, 8242, 8161, 8158,7.461711645126343
111, 8189, 8154, 8152, 8100, 8163, 8146, 8181, 8170, 8204, 8190, 8156, 8258, 8172, 8174,7.477000951766968
112, 8201, 8168, 8190, 8093, 8159, 8147, 8181, 8181, 8192, 8172, 8155, 8280, 8179, 8178,7.477000951766968
113, 8189, 8161, 8113, 8118, 8166, 8143, 8180, 8167, 8187, 8168, 8166, 8250, 8174, 8156,7.493046760559082
114, 8187, 8159, 8184, 8111, 8160, 8150, 8175, 8177, 8170, 8161, 8174, 8243, 8160, 8149,7.493046760559082
115, 8188, 8162, 8148, 8106, 8163, 8163, 8196, 8173, 8183, 8170, 8171, 8249, 8161, 8150,7.509235858917236
116, 8187, 8167, 8137, 8109, 8178, 8163, 8196, 8169, 8189, 8173, 8167, 8258, 8156, 8147,7.509235858917236
117, 8174, 8176, 8184, 8108, 8175, 8166, 8181, 8178, 8178, 8163, 8165, 8265, 8143, 8142,7.52326226234436
118, 8161, 8164, 8113, 8114, 8165, 8160, 8177, 8164, 8172, 8162, 8161, 8244, 8143, 8132,7.539020299911499
119, 8169, 8170, 8174, 8112, 8170, 8166, 8170, 8172, 8160, 8160, 8156, 8247, 8139, 8141,7.539020299911499
120, 8159, 8168, 8144, 8123, 8178, 8168, 8175, 8167, 8171, 8174, 8156, 8228, 8140, 8138,7.539020299911499
121, 8157, 8154, 8131, 8131, 8172, 8158, 8164, 8163, 8170, 8172, 8147, 8210, 8140, 8131,7.554003477096558
122, 8178, 8165, 8196, 8145, 8177, 8170, 8157, 8169, 8158, 8176, 8157, 8240, 8144, 8151,7.5686726570129395
123, 8176, 8150, 8120, 8148, 8176, 8165, 8174, 8153, 8164, 8199, 8162, 8230, 8151, 8156,7.5686726570129395
124, 8169, 8139, 8159, 8106, 8152, 8158, 8178, 8172, 8159, 8180, 8130, 8217, 8135, 8149,7.5854315757751465
125, 8167, 8146, 8137, 8103, 8158, 8170, 8191, 8179, 8179, 8168, 8121, 8213, 8133, 8144,7.5854315757751465
126, 8163, 8142, 8118, 8115, 8169, 8166, 8192, 8169, 8189, 8174, 8128, 8215, 8145, 8147,7.5854315757751465
127, 8166, 8148, 8183, 8106, 8159, 8176, 8184, 8178, 8182, 8181, 8131, 8235, 8145, 8151,7.600045919418335
236, 8163, 8142, 8106, 8106, 8158, 8173, 8188, 8164, 8197, 8193, 8140, 8223, 8144, 8140,7.615208387374878
0, 8165, 8140, 8158, 8090, 8154, 8153, 8166, 8166, 8192, 8173, 8143, 8233, 8144, 8139,7.615208387374878
1, 8173, 8160, 8162, 8099, 8156, 8163, 8166, 8172, 8195, 8180, 8162, 8251, 8162, 8148,7.630394458770752
2, 8178, 8165, 8126, 8110, 8166, 8170, 8181, 8174, 8206, 8193, 8166, 8246, 8164, 8145,7.630394458770752
3, 8175, 8170, 8200, 8097, 8166, 8162, 8175, 8181, 8197, 8169, 8154, 8256, 8145, 8134,7.6464011669158936
4, 8167, 8170, 8138, 8121, 8168, 8152, 8181, 8166, 8193, 8170, 8162, 8241, 8142, 8130,7.6464011669158936
5, 8172, 8174, 8171, 8140, 8167, 8166, 8174, 8172, 8165, 8167, 8157, 8236, 8129, 8134,7.6619696617126465
6, 8170, 8173, 8171, 8137, 8171, 8183, 8172, 8173, 8156, 8170, 8151, 8242, 8134, 8137,7.6619696617126465
7, 8168, 8162, 8125, 8136, 8175, 8175, 8177, 8163, 8169, 8186, 8150, 8237, 8150, 8147,7.677461385726929
8, 8176, 8173, 8199, 8153, 8172, 8183, 8175, 8172, 8163, 8183, 8136, 8250, 8143, 8158,7.677461385726929
9, 8177, 8170, 8130, 8178, 8174, 8180, 8191, 8162, 8178, 8195, 8143, 8242, 8150, 8150,7.692991733551025
10, 8172, 8157, 8143, 8143, 8165, 8163, 8178, 8167, 8179, 8192, 8151, 8242, 8153, 8152,7.692991733551025
11, 8160, 8155, 8156, 8124, 8161, 8174, 8165, 8170, 8180, 8184, 8153, 8244, 8149, 8156,7.708876371383667
12, 8173, 8157, 8109, 8153, 8165, 8169, 8171, 8163, 8198, 8189, 8165, 8240, 8161, 8157,7.708876371383667
13, 8204, 8174, 8188, 8153, 8157, 8159, 8159, 8176, 8196, 8189, 8180, 8271, 8177, 8174,7.7242591381073
14, 8201, 8176, 8138, 8153, 8166, 8162, 8151, 8160, 8194, 8197, 8196, 8273, 8182, 8171,7.7242591381073
15, 8197, 8180, 8154, 8158, 8176, 8161, 8147, 8160, 8172, 8177, 8195, 8269, 8167, 8152,7.740375995635986
16, 8188, 8194, 8173, 8172, 8183, 8167, 8158, 8169, 8154, 8163, 8188, 8266, 8155, 8139,7.740375995635986
17, 8162, 8180, 8102, 8174, 8191, 8168, 8172, 8158, 8153, 8166, 8179, 8237, 8148, 8124,7.756422758102417
18, 8160, 8175, 8176, 8157, 8183, 8182, 8178, 8174, 8146, 8158, 8165, 8240, 8136, 8127,7.756422758102417
19, 8168, 8172, 8136, 8170, 8177, 8190, 8204, 8170, 8166, 8178, 8161, 8231, 8140, 8142,7.771865606307983
20, 8168, 8154, 8139, 8159, 8168, 8179, 8199, 8172, 8165, 8183, 8145, 8220, 8140, 8150,7.771865606307983
21, 8179, 8154, 8174, 8151, 8162, 8186, 8204, 8185, 8174, 8186, 8151, 8240, 8148, 8155,7.787414073944092
22, 8199, 8155, 8109, 8166, 8172, 8188, 8231, 8173, 8208, 8210, 8186, 8253, 8171, 8168,7.787414073944092
23, 8207, 8161, 8182, 8151, 8182, 8183, 8213, 8178, 8194, 8193, 8197, 8283, 8178, 8183,7.803435802459717
24, 8200, 8163, 8147, 8153, 8189, 8164, 8192, 8174, 8177, 8177, 8200, 8285, 8178, 8178,7.803435802459717
25, 8208, 8167, 8146, 8158, 8178, 8151, 8178, 8172, 8166, 8168, 8203, 8284, 8165, 8174,7.81907844543457
26, 8221, 8188, 8205, 8159, 8169, 8170, 8174, 8177, 8156, 8164, 8206, 8305, 8157, 8177,7.81907844543457
27, 8218, 8186, 8140, 8180, 8176, 8168, 8179, 8167, 8161, 8175, 8206, 8289, 8159, 8171,7.834782361984253
28, 8211, 8179, 8195, 8181, 8176, 8163, 8163, 8178, 8149, 8163, 8181, 8280, 8140, 8171,7.834782361984253
29, 8193, 8171, 8154, 8182, 8183, 8172, 8168, 8168, 8148, 8159, 8167, 8260, 8133, 8162,7.85031533241272
30, 8186, 8160, 8125, 8183, 8186, 8170, 8185, 8161, 8154, 8163, 8164, 8246, 8136, 8158,7.85031533241272
31, 8193, 8171, 8185, 8177, 8181, 8180, 8200, 8181, 8170, 8181, 8166, 8267, 8148, 8173,7.866452217102051
32, 8205, 8167, 8128, 8178, 8177, 8169, 8213, 8176, 8195, 8204, 8183, 8266, 8169, 8181,7.866452217102051
33, 8228, 8169, 8189, 8161, 8161, 8149, 8191, 8182, 8191, 8188, 8191, 8285, 8174, 8193,7.882092714309692
34, 8229, 8177, 8170, 8167, 8163, 8160, 8195, 8180, 8207, 8197, 8202, 8295, 8187, 8212,7.882092714309692
35, 8219, 8170, 8140, 8164, 8168, 8164, 8204, 8177, 8217, 8211, 8207, 8287, 8199, 8213,7.897106170654297
36, 8216, 8172, 8202, 8146, 8161, 8156, 8188, 8184, 8200, 8193, 8206, 8299, 8191, 8191,7.897106170654297
37, 8209, 8164, 8127, 8158, 8163, 8142, 8188, 8168, 8204, 8193, 8210, 8282, 8182, 8173,7.91261625289917
38, 8217, 8167, 8176, 8155, 8164, 8148, 8186, 8175, 8186, 8183, 8206, 8286, 8169, 8179,7.91261625289917
39, 8221, 8180, 8181, 8162, 8164, 8163, 8190, 8177, 8178, 8178, 8205, 8295, 8170, 8174,7.9277732372283936
40, 8220, 8179, 8140, 8167, 8160, 8152, 8187, 8170, 8181, 8179, 8206, 8281, 8170, 8171,7.9277732372283936
41, 8225, 8189, 8201, 8157, 8158, 8154, 8181, 8176, 8164, 8168, 8204, 8294, 8162, 8185,7.942914247512817
42, 8221, 8184, 8133, 8170, 8164, 8149, 8190, 8161, 8165, 8170, 8203, 8284, 8155, 8175,7.942914247512817
43, 8221, 8184, 8176, 8176, 8165, 8141, 8176, 8170, 8159, 8165, 8196, 8279, 8146, 8171,7.958136081695557
44, 8224, 8201, 8191, 8200, 8178, 8159, 8179, 8179, 8167, 8188, 8214, 8283, 8162, 8188,7.958136081695557
45, 8221, 8193, 8136, 8215, 8186, 8163, 8183, 8169, 8175, 8202, 8218, 8265, 8177, 8186,7.974174499511719
46, 8220, 8187, 8203, 8193, 8171, 8169, 8176, 8181, 8160, 8175, 8194, 8267, 8161, 8183,7.974174499511719
47, 8218, 8177, 8146, 8191, 8164, 8172, 8196, 8170, 8177, 8189, 8200, 8264, 8169, 8192,7.989295721054077
48, 8223, 8169, 8165, 8188, 8162, 8171, 8194, 8168, 8176, 8206, 8204, 8272, 8180, 8198,7.989295721054077
49, 8214, 8173, 8175, 8193, 8171, 8182, 8191, 8169, 8164, 8202, 8194, 8274, 8165, 8191,8.005318403244019
50, 8201, 8169, 8123, 8194, 8178, 8176, 8200, 8158, 8161, 8188, 8188, 8248, 8155, 8181,8.005318403244019
51, 8207, 8178, 8200, 8179, 8164, 8174, 8189, 8174, 8155, 8170, 8180, 8252, 8160, 8181,8.0214102268219
52, 8213, 8182, 8144, 8193, 8170, 8180, 8200, 8172, 8184, 8194, 8191, 8254, 8179, 8187,8.0214102268219
53, 8222, 8179, 8162, 8187, 8174, 8177, 8207, 8179, 8207, 8212, 8203, 8268, 8188, 8209,8.044053792953491
54, 8221, 8176, 8192, 8167, 8160, 8169, 8197, 8183, 8216, 8219, 8209, 8283, 8197, 8215,8.045056104660034
55, 8211, 8162, 8126, 8172, 8154, 8151, 8191, 8169, 8221, 8219, 8214, 8270, 8203, 8200,8.045056104660034
56, 8224, 8175, 8202, 8176, 8158, 8156, 8183, 8178, 8212, 8198, 8213, 8284, 8198, 8202,8.052155494689941
57, 8223, 8180, 8160, 8181, 8167, 8166, 8187, 8167, 8222, 8210, 8216, 8271, 8202, 8197,8.06788444519043
58, 8210, 8163, 8154, 8160, 8155, 8152, 8170, 8167, 8203, 8204, 8203, 8257, 8193, 8185,8.06788444519043
59, 8206, 8168, 8187, 8147, 8145, 8150, 8158, 8175, 8168, 8170, 8194, 8267, 8183, 8184,8.08310842514038
60, 8210, 8175, 8129, 8157, 8156, 8143, 8166, 8157, 8156, 8161, 8201, 8254, 8185, 8180,8.08310842514038
61, 8225, 8186, 8204, 8144, 8160, 8150, 8159, 8170, 8144, 8160, 8204, 8273, 8176, 8182,8.0993332862854
62, 8220, 8194, 8163, 8155, 8164, 8157, 8165, 8168, 8151, 8172, 8214, 8277, 8179, 8180,8.1149160861969
63, 8209, 8195, 8156, 8162, 8160, 8144, 8156, 8165, 8141, 8160, 8207, 8262, 8175, 8172,8.1149160861969
64, 8209, 8206, 8215, 8163, 8160, 8155, 8157, 8177, 8133, 8152, 8204, 8276, 8165, 8172,8.1149160861969
65, 8212, 8208, 8144, 8186, 8177, 8166, 8185, 8168, 8160, 8176, 8220, 8275, 8170, 8176,8.1292405128479
66, 8217, 8214, 8201, 8187, 8184, 8168, 8175, 8175, 8157, 8170, 8219, 8281, 8168, 8181,8.130240440368652
67, 8213, 8214, 8175, 8195, 8184, 8166, 8163, 8168, 8157, 8176, 8219, 8277, 8175, 8183,8.145905256271362
68, 8213, 8208, 8156, 8200, 8182, 8155, 8160, 8165, 8159, 8191, 8217, 8265, 8176, 8188,8.16185975074768
69, 8205, 8215, 8212, 8200, 8185, 8161, 8168, 8177, 8154, 8182, 8210, 8269, 8170, 8194,8.16185975074768
70, 8191, 8199, 8139, 8209, 8184, 8163, 8183, 8163, 8158, 8178, 8205, 8249, 8171, 8190,8.16185975074768
71, 8194, 8186, 8187, 8190, 8172, 8167, 8175, 8168, 8145, 8170, 8188, 8251, 8158, 8190,8.176058292388916
72, 8189, 8181, 8163, 8186, 8179, 8176, 8186, 8173, 8155, 8184, 8188, 8250, 8159, 8188,8.191293239593506
73, 8188, 8168, 8135, 8185, 8179, 8167, 8192, 8174, 8167, 8192, 8190, 8244, 8170, 8191,8.191293239593506
74, 8192, 8169, 8202, 8167, 8163, 8167, 8182, 8179, 8164, 8176, 8181, 8260, 8166, 8198,8.207027673721313
75, 8182, 8158, 8122, 8162, 8161, 8155, 8182, 8158, 8171, 8178, 8180, 8242, 8159, 8185,8.207027673721313
76, 8181, 8151, 8157, 8145, 8159, 8148, 8165, 8167, 8160, 8171, 8184, 8245, 8155, 8186,8.223020553588867
77, 8187, 8161, 8152, 8157, 8165, 8163, 8171, 8170, 8172, 8180, 8201, 8257, 8172, 8197,8.223020553588867
78, 8198, 8166, 8120, 8183, 8175, 8153, 8181, 8164, 8191, 8191, 8210, 8256, 8184, 8197,8.23807668685913
79, 8207, 8181, 8201, 8185, 8175, 8150, 8161, 8183, 8185, 8186, 8211, 8278, 8182, 8198,8.23807668685913
80, 8195, 8174, 8135, 8188, 8182, 8161, 8162, 8173, 8190, 8204, 8228, 8271, 8193, 8189,8.253562927246094
81, 8198, 8172, 8164, 8179, 8184, 8161, 8164, 8170, 8183, 8198, 8236, 8278, 8196, 8191,8.253562927246094
82, 8211, 8184, 8181, 8190, 8188, 8163, 8172, 8170, 8194, 8195, 8250, 8295, 8207, 8206,8.269609689712524
83, 8215, 8180, 8139, 8200, 8193, 8156, 8181, 8164, 8213, 8208, 8259, 8294, 8222, 8214,8.269609689712524
84, 8217, 8188, 8209, 8192, 8189, 8162, 8175, 8179, 8205, 8208, 8248, 8307, 8219, 8219,8.28612995147705
85, 8215, 8188, 8149, 8207, 8190, 8162, 8175, 8173, 8215, 8216, 8255, 8297, 8220, 8218,8.28612995147705
86, 8218, 8176, 8169, 8191, 8184, 8158, 8165, 8173, 8210, 8206, 8254, 8292, 8216, 8214,8.301326036453247
87, 8202, 8170, 8176, 8172, 8187, 8167, 8171, 8170, 8196, 8201, 8232, 8281, 8202, 8198,8.301326036453247
88, 8177, 8153, 8108, 8170, 8183, 8155, 8171, 8159, 8195, 8196, 8209, 8243, 8183, 8173,8.317047357559204
89, 8177, 8150, 8178, 8150, 8164, 8156, 8150, 8175, 8193, 8177, 8197, 8247, 8176, 8169,8.317047357559204
90, 8183, 8148, 8127, 8153, 8163, 8161, 8167, 8168, 8217, 8192, 8203, 8247, 8186, 8173,8.332999229431152
91, 8183, 8149, 8147, 8157, 8166, 8152, 8172, 8169, 8216, 8185, 8201, 8245, 8174, 8176,8.332999229431152
92, 8180, 8164, 8187, 8163, 8164, 8160, 8164, 8177, 8204, 8179, 8204, 8257, 8171, 8181,8.348071098327637
93, 8181, 8158, 8123, 8166, 8167, 8156, 8166, 8166, 8205, 8194, 8212, 8263, 8190, 8185,8.348071098327637
94, 8191, 8165, 8194, 8154, 8173, 8154, 8160, 8173, 8192, 8182, 8215, 8290, 8186, 8185,8.363437414169312
95, 8190, 8173, 8157, 8181, 8186, 8165, 8173, 8168, 8195, 8190, 8230, 8278, 8182, 8171,8.363437414169312
96, 8185, 8172, 8162, 8200, 8188, 8175, 8181, 8176, 8191, 8195, 8221, 8254, 8177, 8173,8.37952446937561
97, 8183, 8182, 8202, 8199, 8187, 8184, 8184, 8180, 8193, 8188, 8196, 8257, 8167, 8182,8.37952446937561
98, 8182, 8178, 8130, 8199, 8192, 8170, 8185, 8164, 8206, 8193, 8188, 8239, 8162, 8169,8.395322561264038
99, 8188, 8178, 8191, 8182, 8187, 8171, 8170, 8179, 8185, 8177, 8180, 8241, 8149, 8167,8.395322561264038
100, 8176, 8175, 8154, 8191, 8190, 8184, 8186, 8170, 8182, 8178, 8181, 8239, 8152, 8166,8.410997152328491
101, 8169, 8166, 8144, 8190, 8191, 8178, 8193, 8161, 8192, 8183, 8176, 8230, 8149, 8161,8.410997152328491
102, 8166, 8162, 8185, 8162, 8182, 8178, 8182, 8178, 8196, 8174, 8165, 8228, 8131, 8156,8.427035093307495
103, 8156, 8148, 8103, 8152, 8184, 8181, 8195, 8172, 8207, 8174, 8160, 8206, 8128, 8145,8.427035093307495
104, 8158, 8155, 8166, 8158, 8189, 8190, 8200, 8177, 8201, 8168, 8145, 8214, 8135, 8150,8.443023204803467
105, 8147, 8151, 8136, 8167, 8184, 8190, 8202, 8172, 8212, 8190, 8139, 8202, 8147, 8154,8.443023204803467
106, 8138, 8125, 8104, 8143, 8165, 8176, 8187, 8167, 8217, 8198, 8135, 8182, 8140, 8148,8.458228588104248
107, 8149, 8137, 8168, 8128, 8163, 8184, 8177, 8176, 8202, 8185, 8136, 8205, 8133, 8145,8.458228588104248
108, 8148, 8145, 8111, 8149, 8172, 8176, 8182, 8168, 8200, 8196, 8147, 8203, 8141, 8143,8.47424602508545
109, 8145, 8140, 8164, 8132, 8154, 8163, 8160, 8172, 8183, 8188, 8140, 8207, 8135, 8152,8.47424602508545
110, 8142, 8139, 8134, 8129, 8155, 8170, 8158, 8159, 8182, 8178, 8141, 8207, 8137, 8147,8.489867687225342
111, 8134, 8141, 8097, 8135, 8166, 8167, 8165, 8156, 8182, 8174, 8141, 8198, 8139, 8131,8.489867687225342
112, 8132, 8157, 8176, 8128, 8160, 8177, 8161, 8178, 8172, 8173, 8140, 8211, 8136, 8134,8.504957675933838
113, 8148, 8169, 8124, 8163, 8176, 8178, 8177, 8164, 8198, 8192, 8162, 8215, 8154, 8153,8.504957675933838
114, 8182, 8188, 8173, 8182, 8187, 8166, 8174, 8168, 8204, 8185, 8168, 8245, 8169, 8173,8.52085256576538
115, 8188, 8194, 8166, 8177, 8178, 8163, 8163, 8173, 8206, 8188, 8176, 8263, 8183, 8176,8.52085256576538
116, 8176, 8170, 8120, 8152, 8160, 8147, 8147, 8164, 8212, 8195, 8190, 8244, 8188, 8171,8.535927057266235
117, 8176, 8171, 8186, 8131, 8157, 8152, 8139, 8168, 8190, 8171, 8180, 8246, 8170, 8162,8.535927057266235
118, 8174, 8176, 8120, 8156, 8172, 8160, 8163, 8152, 8184, 8168, 8162, 8231, 8161, 8143,8.551209449768066
119, 8175, 8169, 8155, 8149, 8164, 8150, 8158, 8158, 8183, 8158, 8144, 8224, 8152, 8140,8.551209449768066
120, 8168, 8162, 8162, 8132, 8157, 8152, 8155, 8165, 8187, 8149, 8142, 8225, 8146, 8141,8.566970109939575
121, 8165, 8160, 8110, 8141, 8168, 8149, 8157, 8163, 8172, 8143, 8150, 8215, 8143, 8130,8.566970109939575
122, 8177, 8182, 8188, 8144, 8174, 8147, 8139, 8180, 8147, 8130, 8165, 8238, 8147, 8133,8.582930088043213
123, 8179, 8179, 8139, 8156, 8183, 8151, 8143, 8171, 8173, 8160, 8198, 8241, 8173, 8144,8.582930088043213
124, 8178, 8168, 8166, 8155, 8174, 8152, 8133, 8170, 8174, 8164, 8191, 8231, 8167, 8140,8.598095178604126
125, 8164, 8181, 8180, 8162, 8164, 8152, 8124, 8164, 8153, 8141, 8154, 8218, 8141, 8124,8.598095178604126
126, 8156, 8187, 8120, 8174, 8179, 8149, 8134, 8150, 8157, 8140, 8146, 8206, 8144, 8119,8.613259077072144
127, 8167, 8188, 8202, 8171, 8191, 8169, 8140, 8168, 8161, 8154, 8159, 8227, 8158, 8132,8.613259077072144
236, 8154, 8167, 8145, 8182, 8188, 8177, 8147, 8159, 8168, 8176, 8165, 8209, 8160, 8126,8.628917217254639
0, 8143, 8161, 8147, 8178, 8181, 8175, 8142, 8156, 8163, 8164, 8149, 8200, 8145, 8120,8.628917217254639
1, 8157, 8183, 8187, 8185, 8191, 8189, 8158, 8170, 8171, 8165, 8151, 8215, 8149, 8135,8.64499807357788
2, 8167, 8169, 8131, 8201, 8194, 8173, 8176, 8165, 8177, 8182, 8156, 8201, 8157, 8141,8.64499807357788
3, 8175, 8165, 8201, 8192, 8184, 8174, 8176, 8177, 8168, 8176, 8154, 8224, 8164, 8158,8.660135507583618
4, 8194, 8183, 8162, 8213, 8199, 8205, 8213, 8173, 8205, 8198, 8183, 8243, 8199, 8179,8.660135507583618
5, 8217, 8184, 8169, 8221, 8211, 8202, 8228, 8177, 8218, 8205, 8192, 8243, 8204, 8191,8.676161289215088
6, 8224, 8189, 8216, 8218, 8215, 8197, 8223, 8184, 8214, 8210, 8186, 8253, 8199, 8194,8.676161289215088
7, 8225, 8201, 8152, 8242, 8229, 8203, 8241, 8170, 8248, 8243, 8206, 8252, 8224, 8193,8.69207501411438
8, 8235, 8211, 8216, 8247, 8233, 8212, 8242, 8190, 8256, 8249, 8220, 8270, 8233, 8204,8.69207501411438
9, 8231, 8198, 8177, 8252, 8234, 8203, 8240, 8184, 8255, 8249, 8209, 8261, 8223, 8201,8.706981420516968
10, 8227, 8181, 8164, 8243, 8225, 8185, 8234, 8168, 8248, 8233, 8189, 8253, 8212, 8194,8.706981420516968
11, 8229, 8193, 8213, 8238, 8224, 8196, 8241, 8177, 8245, 8220, 8202, 8281, 8222, 8205,8.722396612167358
12, 8237, 8202, 8146, 8265, 8247, 8199, 8262, 8174, 8266, 8247, 8235, 8290, 8248, 8214,8.722396612167358
13, 8258, 8205, 8212, 8263, 8252, 8193, 8254, 8187, 8272, 8260, 8231, 8304, 8252, 8224,8.737486839294434
14, 8259, 8200, 8185, 8273, 8250, 8193, 8256, 8190, 8288, 8268, 8225, 8302, 8252, 8227,8.753680229187012
15, 8250, 8191, 8159, 8275, 8248, 8180, 8256, 8186, 8287, 8261, 8228, 8295, 8247, 8222,8.753680229187012
16, 8251, 8196, 8217, 8255, 8248, 8187, 8253, 8187, 8263, 8243, 8227, 8304, 8235, 8215,8.753680229187012
17, 8264, 8196, 8155, 8268, 8260, 8193, 8272, 8173, 8265, 8255, 8239, 8300, 8250, 8221,8.769075393676758
18, 8287, 8218, 8221, 8284, 8262, 8195, 8263, 8186, 8257, 8248, 8250, 8326, 8262, 8238,8.769075393676758
19, 8271, 8224, 8197, 8284, 8258, 8194, 8252, 8185, 8261, 8241, 8263, 8332, 8259, 8229,8.787839889526367
20, 8253, 8201, 8152, 8262, 8257, 8186, 8254, 8179, 8268, 8238, 8263, 8311, 8247, 8216,8.787839889526367
21, 8269, 8224, 8234, 8267, 8267, 8200, 8261, 8193, 8266, 8237, 8258, 8336, 8244, 8226,8.800864696502686
22, 8280, 8242, 8175, 8300, 8278, 8196, 8268, 8179, 8281, 8265, 8273, 8346, 8262, 8226,8.800864696502686
23, 8278, 8229, 8207, 8277, 8271, 8175, 8245, 8179, 8265, 8256, 8265, 8346, 8257, 8222,8.816385984420776
24, 8266, 8217, 8199, 8254, 8270, 8176, 8245, 8176, 8247, 8227, 8240, 8332, 8237, 8217,8.832284688949585
25, 8256, 8207, 8158, 8247, 8260, 8170, 8248, 8168, 8241, 8214, 8226, 8306, 8220, 8205,8.832284688949585
26, 8252, 8212, 8225, 8231, 8241, 8172, 8228, 8186, 8243, 8224, 8237, 8319, 8220, 8201,8.832284688949585
27, 8240, 8208, 8157, 8241, 8249, 8174, 8234, 8176, 8266, 8249, 8254, 8308, 8235, 8201,8.847853422164917
28, 8252, 8217, 8201, 8248, 8265, 8176, 8244, 8185, 8263, 8232, 8246, 8306, 8231, 8211,8.847853422164917
29, 8279, 8236, 8225, 8267, 8277, 8192, 8264, 8194, 8282, 8240, 8257, 8328, 8242, 8227,8.862976789474487
30, 8288, 8228, 8176, 8281, 8278, 8189, 8271, 8179, 8301, 8267, 8269, 8329, 8262, 8246,8.862976789474487
31, 8279, 8231, 8237, 8269, 8275, 8188, 8254, 8187, 8269, 8243, 8248, 8332, 8249, 8252,8.879036903381348
32, 8261, 8223, 8166, 8269, 8275, 8190, 8267, 8188, 8272, 8244, 8231, 8304, 8237, 8229,8.879036903381348
33, 8253, 8200, 8179, 8255, 8255, 8193, 8274, 8194, 8294, 8266, 8213, 8284, 8233, 8220,8.895070552825928
34, 8245, 8190, 8199, 8255, 8248, 8204, 8277, 8187, 8298, 8273, 8205, 8285, 8236, 8230,8.895070552825928
35, 8242, 8182, 8142, 8261, 8257, 8196, 8281, 8170, 8284, 8261, 8204, 8277, 8231, 8226,8.910234928131104
36, 8249, 8192, 8211, 8244, 8252, 8197, 8274, 8186, 8276, 8246, 8197, 8294, 8227, 8228,8.910234928131104
37, 8252, 8199, 8163, 8257, 8258, 8191, 8278, 8183, 8315, 8266, 8214, 8298, 8251, 8233,8.927193403244019
38, 8259, 8198, 8187, 8257, 8262, 8172, 8250, 8182, 8318, 8254, 8226, 8311, 8257, 8231,8.927193403244019
39, 8264, 8205, 8225, 8243, 8253, 8174, 8234, 8183, 8294, 8232, 8229, 8326, 8249, 8225,8.942294836044312
40, 8264, 8205, 8164, 8250, 8258, 8170, 8243, 8176, 8293, 8246, 8236, 8308, 8252, 8220,8.959053993225098
41, 8268, 8219, 8230, 8257, 8265, 8176, 8232, 8190, 8283, 8256, 8240, 8322, 8248, 8225,8.959053993225098
42, 8249, 8211, 8172, 8267, 8268, 8192, 8236, 8173, 8270, 8253, 8239, 8310, 8238, 8215,8.959053993225098
43, 8238, 8190, 8169, 8253, 8264, 8196, 8242, 8164, 8245, 8222, 8216, 8282, 8217, 8209,8.973099708557129
44, 8249, 8202, 8220, 8263, 8268, 8207, 8254, 8176, 8253, 8231, 8204, 8288, 8219, 8225,8.973099708557129
45, 8246, 8205, 8150, 8285, 8272, 8202, 8274, 8177, 8296, 8275, 8212, 8281, 8242, 8226,8.98892593383789
