COUNTER,F3,FC5,AF3,F7,T7,P7,O1,O2,P8,T8,F8,AF4,FC6,F4,Timestamp
58, 8155, 8176, 8193, 8150, 8149, 8156, 8143, 8177, 8124, 8130, 8128, 8109, 8093, 8123,0.039457082748413086
59, 8144, 8161, 8140, 8157, 8158, 8176, 8156, 8172, 8123, 8139, 8103, 8096, 8092, 8124,0.039457082748413086
60, 8157, 8161, 8170, 8174, 8164, 8188, 8174, 8170, 8126, 8158, 8109, 8099, 8112, 8142,0.05547785758972168
61, 8153, 8159, 8187, 8156, 8163, 8189, 8174, 8170, 8124, 8160, 8111, 8102, 8112, 8144,0.05547785758972168
62, 8134, 8129, 8103, 8122, 8147, 8173, 8167, 8158, 8125, 8159, 8087, 8074, 8100, 8127,0.07061648368835449
63, 8139, 8138, 8180, 8118, 8126, 8173, 8150, 8168, 8127, 8154, 8082, 8081, 8105, 8125,0.07061648368835449
64, 8140, 8148, 8141, 8134, 8124, 8161, 8144, 8165, 8142, 8158, 8113, 8089, 8121, 8128,0.0865633487701416
65, 8141, 8139, 8139, 8109, 8118, 8141, 8132, 8166, 8126, 8150, 8117, 8099, 8115, 8120,0.0865633487701416
66, 8156, 8151, 8178, 8104, 8120, 8156, 8138, 8178, 8127, 8155, 8124, 8119, 8123, 8119,0.10212278366088867
67, 8162, 8157, 8122, 8125, 8134, 8154, 8146, 8170, 8147, 8167, 8143, 8110, 8137, 8121,0.10212278366088867
68, 8161, 8162, 8191, 8120, 8138, 8145, 8119, 8171, 8110, 8140, 8134, 8121, 8119, 8125,0.11822938919067383
69, 8157, 8164, 8153, 8144, 8146, 8154, 8122, 8168, 8093, 8140, 8132, 8119, 8115, 8125,0.11822938919067383
70, 8154, 8161, 8155, 8159, 8145, 8158, 8136, 8168, 8105, 8147, 8126, 8093, 8107, 8123,0.1335914134979248
71, 8143, 8158, 8196, 8143, 8131, 8160, 8128, 8173, 8099, 8136, 8101, 8079, 8086, 8112,0.1335914134979248
72, 8123, 8135, 8110, 8130, 8131, 8156, 8127, 8162, 8092, 8134, 8090, 8054, 8082, 8094,0.14917254447937012
73, 8119, 8129, 8165, 8114, 8134, 8171, 8143, 8170, 8086, 8132, 8090, 8056, 8087, 8105,0.14917254447937012
74, 8116, 8125, 8133, 8105, 8127, 8183, 8176, 8171, 8108, 8152, 8097, 8062, 8098, 8123,0.1645503044128418
75, 8113, 8101, 8107, 8074, 8109, 8161, 8165, 8164, 8120, 8151, 8089, 8055, 8091, 8120,0.1645503044128418
76, 8122, 8108, 8167, 8058, 8103, 8158, 8139, 8172, 8116, 8131, 8072, 8059, 8084, 8113,0.18011736869812012
77, 8140, 8132, 8119, 8093, 8123, 8158, 8140, 8161, 8127, 8141, 8088, 8066, 8109, 8122,0.18011736869812012
78, 8164, 8154, 8188, 8097, 8126, 8147, 8123, 8162, 8112, 8137, 8112, 8096, 8122, 8139,0.1961817741394043
79, 8163, 8157, 8164, 8097, 8127, 8143, 8116, 8165, 8100, 8137, 8126, 8100, 8119, 8135,0.1961817741394043
80, 8149, 8149, 8131, 8108, 8132, 8148, 8119, 8163, 8089, 8129, 8108, 8075, 8102, 8109,0.21193861961364746
81, 8129, 8149, 8181, 8095, 8125, 8171, 8120, 8170, 8071, 8104, 8061, 8052, 8071, 8090,0.21193861961364746
82, 8111, 8128, 8099, 8094, 8128, 8177, 8140, 8161, 8091, 8129, 8063, 8033, 8075, 8095,0.22768759727478027
83, 8130, 8135, 8170, 8112, 8133, 8179, 8157, 8176, 8119, 8169, 8110, 8074, 8111, 8127,0.22768759727478027
84, 8146, 8150, 8180, 8128, 8131, 8180, 8162, 8177, 8136, 8183, 8131, 8098, 8137, 8140,0.24329304695129395
85, 8140, 8134, 8127, 8104, 8115, 8157, 8132, 8156, 8120, 8156, 8106, 8074, 8127, 8121,0.24329304695129395
86, 8148, 8147, 8195, 8091, 8111, 8152, 8105, 8163, 8097, 8125, 8110, 8096, 8119, 8113,0.25887274742126465
87, 8160, 8166, 8142, 8127, 8133, 8153, 8125, 8164, 8117, 8147, 8154, 8115, 8137, 8120,0.25887274742126465
88, 8161, 8161, 8182, 8124, 8140, 8158, 8130, 8172, 8120, 8156, 8149, 8104, 8132, 8119,0.2744894027709961
89, 8138, 8145, 8178, 8112, 8136, 8174, 8134, 8173, 8112, 8154, 8116, 8080, 8112, 8111,0.2744894027709961
90, 8123, 8134, 8121, 8113, 8135, 8175, 8155, 8165, 8124, 8165, 8107, 8067, 8107, 8117,0.2901303768157959
91, 8146, 8150, 8196, 8114, 8140, 8183, 8171, 8178, 8145, 8175, 8123, 8103, 8120, 8142,0.2901303768157959
92, 8163, 8152, 8140, 8127, 8148, 8177, 8179, 8176, 8175, 8191, 8144, 8114, 8141, 8150,0.305255651473999
93, 8154, 8147, 8161, 8105, 8140, 8159, 8149, 8172, 8165, 8175, 8138, 8106, 8133, 8134,0.305255651473999
94, 8145, 8161, 8183, 8104, 8142, 8157, 8130, 8173, 8153, 8156, 8145, 8113, 8126, 8119,0.3206005096435547
95, 8158, 8168, 8139, 8141, 8155, 8155, 8140, 8168, 8143, 8154, 8154, 8109, 8125, 8123,0.3206005096435547
96, 8177, 8177, 8210, 8152, 8154, 8170, 8147, 8175, 8117, 8138, 8140, 8111, 8111, 8140,0.3367159366607666
97, 8167, 8172, 8150, 8167, 8155, 8181, 8171, 8168, 8132, 8152, 8148, 8101, 8117, 8144,0.3367159366607666
98, 8162, 8162, 8162, 8171, 8157, 8183, 8181, 8177, 8153, 8165, 8149, 8099, 8124, 8140,0.3523261547088623
99, 8157, 8153, 8181, 8161, 8156, 8192, 8187, 8190, 8163, 8176, 8129, 8095, 8126, 8148,0.3523261547088623
100, 8149, 8134, 8109, 8150, 8144, 8176, 8191, 8174, 8172, 8187, 8121, 8075, 8126, 8151,0.36743903160095215
101, 8163, 8143, 8191, 8130, 8121, 8166, 8166, 8176, 8162, 8170, 8134, 8097, 8125, 8157,0.382889986038208
102, 8172, 8154, 8150, 8135, 8121, 8162, 8161, 8175, 8165, 8174, 8159, 8112, 8140, 8159,0.382889986038208
103, 8169, 8153, 8146, 8132, 8125, 8149, 8147, 8173, 8150, 8168, 8154, 8109, 8138, 8144,0.40000486373901367
104, 8164, 8160, 8187, 8125, 8119, 8155, 8128, 8176, 8132, 8156, 8151, 8118, 8131, 8142,0.40000486373901367
105, 8170, 8162, 8127, 8136, 8121, 8153, 8132, 8164, 8134, 8163, 8172, 8116, 8134, 8147,0.40000486373901367
106, 8180, 8173, 8203, 8138, 8129, 8152, 8125, 8170, 8108, 8147, 8172, 8126, 8126, 8142,0.4151937961578369
107, 8168, 8175, 8169, 8152, 8148, 8162, 8136, 8170, 8109, 8155, 8174, 8117, 8134, 8135,0.4151937961578369
108, 8160, 8166, 8155, 8152, 8154, 8165, 8141, 8169, 8124, 8161, 8173, 8103, 8136, 8136,0.43068885803222656
109, 8159, 8170, 8195, 8147, 8144, 8169, 8128, 8173, 8107, 8145, 8156, 8103, 8117, 8130,0.43068885803222656
110, 8145, 8159, 8119, 8152, 8141, 8159, 8124, 8155, 8093, 8142, 8142, 8076, 8112, 8114,0.44713664054870605
111, 8139, 8162, 8182, 8144, 8143, 8166, 8127, 8161, 8088, 8137, 8135, 8078, 8114, 8122,0.44713664054870605
112, 8145, 8168, 8159, 8160, 8158, 8186, 8152, 8170, 8108, 8151, 8143, 8090, 8121, 8139,0.460371732711792
113, 8161, 8162, 8146, 8173, 8163, 8184, 8165, 8173, 8113, 8164, 8148, 8090, 8128, 8147,0.4760923385620117
114, 8169, 8178, 8207, 8175, 8161, 8198, 8167, 8173, 8107, 8162, 8150, 8107, 8136, 8152,0.4760923385620117
115, 8165, 8177, 8132, 8181, 8171, 8198, 8176, 8158, 8119, 8168, 8159, 8105, 8142, 8151,0.491147518157959
116, 8177, 8176, 8185, 8167, 8164, 8191, 8172, 8174, 8119, 8172, 8159, 8113, 8143, 8164,0.491147518157959
117, 8180, 8177, 8170, 8166, 8150, 8196, 8186, 8180, 8139, 8193, 8165, 8118, 8161, 8176,0.5068316459655762
118, 8169, 8159, 8138, 8161, 8145, 8183, 8187, 8170, 8150, 8195, 8162, 8108, 8163, 8168,0.5068316459655762
119, 8163, 8159, 8195, 8140, 8144, 8176, 8168, 8174, 8137, 8178, 8151, 8110, 8151, 8161,0.5224535465240479
120, 8156, 8151, 8115, 8140, 8143, 8167, 8170, 8163, 8146, 8185, 8152, 8097, 8158, 8154,0.5224535465240479
121, 8153, 8150, 8161, 8121, 8131, 8161, 8159, 8168, 8147, 8172, 8146, 8105, 8149, 8147,0.5385386943817139
122, 8148, 8156, 8161, 8118, 8131, 8163, 8155, 8171, 8155, 8164, 8144, 8105, 8134, 8140,0.5385386943817139
123, 8163, 8159, 8128, 8138, 8147, 8161, 8156, 8167, 8160, 8167, 8152, 8095, 8140, 8139,0.5542693138122559
124, 8193, 8186, 8220, 8149, 8156, 8173, 8152, 8178, 8157, 8169, 8170, 8132, 8162, 8153,0.5542693138122559
125, 8188, 8198, 8158, 8171, 8157, 8164, 8165, 8169, 8170, 8183, 8188, 8140, 8176, 8153,0.570357084274292
126, 8176, 8191, 8179, 8164, 8158, 8159, 8159, 8169, 8152, 8157, 8177, 8126, 8154, 8139,0.570357084274292
127, 8176, 8192, 8189, 8161, 8175, 8177, 8161, 8173, 8141, 8150, 8176, 8125, 8144, 8134,0.5855035781860352
236, 8179, 8202, 8148, 8187, 8188, 8171, 8173, 8165, 8153, 8179, 8190, 8123, 8158, 8141,0.5855035781860352
0, 8170, 8206, 8216, 8194, 8178, 8171, 8167, 8174, 8146, 8177, 8180, 8126, 8154, 8143,0.6013431549072266
1, 8159, 8176, 8149, 8193, 8173, 8182, 8176, 8174, 8163, 8181, 8174, 8104, 8159, 8149,0.6013431549072266
2, 8177, 8164, 8169, 8169, 8164, 8176, 8172, 8172, 8174, 8189, 8168, 8102, 8170, 8169,0.6168186664581299
3, 8185, 8173, 8184, 8151, 8156, 8162, 8160, 8164, 8165, 8190, 8161, 8114, 8169, 8168,0.6168186664581299
4, 8171, 8156, 8122, 8141, 8153, 8146, 8153, 8153, 8151, 8181, 8158, 8104, 8163, 8145,0.6324388980865479
5, 8157, 8160, 8192, 8125, 8145, 8155, 8137, 8169, 8135, 8163, 8161, 8117, 8160, 8136,0.6324388980865479
6, 8164, 8186, 8149, 8157, 8163, 8166, 8151, 8172, 8159, 8182, 8193, 8133, 8174, 8142,0.6475310325622559
7, 8183, 8203, 8175, 8179, 8180, 8160, 8156, 8174, 8161, 8185, 8210, 8145, 8181, 8149,0.6475310325622559
8, 8178, 8211, 8207, 8179, 8179, 8161, 8148, 8175, 8142, 8171, 8205, 8151, 8179, 8152,0.6629800796508789
9, 8170, 8199, 8145, 8190, 8183, 8165, 8156, 8164, 8154, 8184, 8210, 8140, 8189, 8157,0.6629800796508789
10, 8182, 8202, 8222, 8196, 8189, 8178, 8163, 8179, 8159, 8193, 8209, 8149, 8194, 8167,0.6781141757965088
11, 8178, 8202, 8177, 8208, 8192, 8179, 8179, 8179, 8162, 8200, 8197, 8134, 8197, 8171,0.6781141757965088
12, 8165, 8190, 8168, 8181, 8184, 8178, 8176, 8169, 8154, 8189, 8173, 8111, 8183, 8166,0.6946415901184082
13, 8160, 8187, 8203, 8165, 8186, 8201, 8177, 8171, 8156, 8190, 8176, 8122, 8182, 8159,0.6946415901184082
14, 8155, 8183, 8132, 8196, 8191, 8192, 8188, 8165, 8164, 8208, 8194, 8127, 8198, 8154,0.7101938724517822
15, 8159, 8195, 8199, 8199, 8173, 8174, 8172, 8172, 8156, 8194, 8177, 8135, 8190, 8166,0.7101938724517822
16, 8167, 8196, 8167, 8180, 8156, 8166, 8169, 8171, 8176, 8189, 8173, 8127, 8183, 8173,0.7253308296203613
17, 8165, 8182, 8153, 8154, 8153, 8154, 8166, 8166, 8179, 8188, 8181, 8122, 8184, 8163,0.7253308296203613
18, 8157, 8182, 8195, 8147, 8162, 8161, 8160, 8168, 8155, 8182, 8171, 8131, 8183, 8159,0.7411181926727295
19, 8145, 8169, 8116, 8153, 8172, 8160, 8171, 8161, 8164, 8191, 8168, 8111, 8189, 8153,0.7411181926727295
20, 8141, 8169, 8172, 8128, 8174, 8161, 8172, 8174, 8185, 8191, 8177, 8116, 8197, 8147,0.756166934967041
21, 8133, 8176, 8151, 8134, 8180, 8164, 8174, 8175, 8196, 8201, 8183, 8122, 8204, 8141,0.756166934967041
22, 8143, 8177, 8137, 8158, 8175, 8147, 8155, 8164, 8166, 8186, 8176, 8117, 8191, 8135,0.7721788883209229
23, 8169, 8192, 8206, 8155, 8165, 8142, 8133, 8168, 8139, 8158, 8184, 8136, 8181, 8146,0.7721788883209229
24, 8179, 8191, 8149, 8150, 8168, 8141, 8140, 8161, 8160, 8172, 8201, 8140, 8191, 8165,0.7882437705993652
25, 8192, 8195, 8206, 8147, 8162, 8144, 8141, 8169, 8162, 8175, 8182, 8142, 8184, 8176,0.7882437705993652
26, 8193, 8198, 8180, 8153, 8161, 8153, 8158, 8173, 8161, 8170, 8157, 8126, 8169, 8160,0.8042700290679932
27, 8174, 8181, 8139, 8144, 8168, 8156, 8168, 8167, 8155, 8167, 8135, 8099, 8151, 8136,0.8042700290679932
28, 8156, 8180, 8209, 8136, 8171, 8182, 8172, 8174, 8141, 8176, 8124, 8099, 8141, 8140,0.8203356266021729
29, 8140, 8165, 8132, 8152, 8174, 8194, 8199, 8162, 8154, 8201, 8125, 8080, 8148, 8145,0.8203356266021729
30, 8137, 8147, 8161, 8138, 8167, 8185, 8197, 8163, 8142, 8178, 8098, 8066, 8128, 8136,0.8364238739013672
31, 8135, 8140, 8163, 8128, 8162, 8182, 8187, 8167, 8137, 8157, 8088, 8068, 8121, 8136,0.8364238739013672
32, 8142, 8140, 8126, 8124, 8160, 8160, 8183, 8164, 8153, 8166, 8114, 8076, 8146, 8148,0.851963996887207
33, 8160, 8164, 8196, 8117, 8158, 8155, 8167, 8174, 8149, 8162, 8133, 8103, 8149, 8146,0.851963996887207
34, 8155, 8166, 8134, 8137, 8164, 8157, 8148, 8163, 8140, 8155, 8132, 8089, 8132, 8121,0.8678450584411621
35, 8141, 8161, 8162, 8129, 8164, 8151, 8126, 8159, 8120, 8129, 8115, 8070, 8113, 8102,0.8678450584411621
36, 8135, 8177, 8168, 8136, 8174, 8160, 8150, 8166, 8123, 8134, 8120, 8072, 8116, 8108,0.8826394081115723
37, 8138, 8168, 8117, 8163, 8187, 8165, 8176, 8165, 8134, 8157, 8125, 8066, 8128, 8115,0.8826394081115723
38, 8136, 8158, 8189, 8149, 8173, 8177, 8162, 8171, 8111, 8140, 8104, 8073, 8118, 8121,0.8986337184906006
39, 8137, 8153, 8132, 8149, 8167, 8181, 8179, 8156, 8113, 8144, 8104, 8070, 8123, 8132,0.8986337184906006
40, 8150, 8148, 8155, 8148, 8162, 8172, 8182, 8158, 8119, 8151, 8107, 8076, 8131, 8144,0.914207935333252
41, 8144, 8144, 8172, 8135, 8151, 8165, 8161, 8172, 8121, 8149, 8101, 8078, 8129, 8147,0.914207935333252
42, 8131, 8139, 8101, 8122, 8149, 8155, 8156, 8162, 8136, 8155, 8111, 8060, 8129, 8140,0.9297935962677002
43, 8137, 8146, 8176, 8106, 8153, 8164, 8155, 8168, 8136, 8147, 8119, 8074, 8132, 8136,0.9297935962677002
44, 8135, 8141, 8131, 8118, 8164, 8156, 8156, 8168, 8125, 8143, 8118, 8075, 8135, 8128,0.94545578956604
45, 8148, 8152, 8148, 8126, 8161, 8140, 8140, 8163, 8100, 8132, 8123, 8089, 8132, 8129,0.94545578956604
46, 8170, 8177, 8202, 8132, 8160, 8156, 8136, 8168, 8098, 8127, 8140, 8121, 8134, 8137,0.9614756107330322
47, 8163, 8167, 8139, 8141, 8169, 8158, 8140, 8165, 8108, 8130, 8142, 8109, 8131, 8129,0.9614756107330322
48, 8155, 8172, 8195, 8136, 8174, 8158, 8129, 8169, 8095, 8127, 8140, 8111, 8120, 8126,0.9770717620849609
49, 8157, 8181, 8159, 8149, 8176, 8155, 8140, 8157, 8105, 8136, 8160, 8113, 8130, 8125,0.9770717620849609
50, 8159, 8172, 8167, 8147, 8167, 8145, 8138, 8156, 8098, 8121, 8153, 8103, 8122, 8122,0.9931023120880127
51, 8157, 8175, 8206, 8145, 8169, 8164, 8132, 8169, 8092, 8125, 8142, 8106, 8113, 8123,0.9931023120880127
52, 8153, 8176, 8136, 8163, 8183, 8174, 8147, 8163, 8127, 8167, 8165, 8103, 8142, 8130,1.0082378387451172
53, 8160, 8180, 8203, 8159, 8175, 8170, 8151, 8177, 8140, 8172, 8173, 8115, 8154, 8144,1.0082378387451172
54, 8153, 8169, 8164, 8161, 8169, 8175, 8160, 8179, 8147, 8180, 8167, 8113, 8151, 8151,1.0242674350738525
55, 8148, 8152, 8146, 8158, 8172, 8179, 8159, 8171, 8148, 8185, 8150, 8101, 8145, 8147,1.0242674350738525
56, 8155, 8167, 8205, 8158, 8169, 8190, 8160, 8174, 8148, 8172, 8141, 8106, 8138, 8148,1.0401804447174072
57, 8153, 8172, 8135, 8175, 8174, 8193, 8180, 8163, 8168, 8184, 8153, 8097, 8141, 8153,1.0401804447174072
58, 8150, 8168, 8187, 8169, 8184, 8200, 8176, 8167, 8157, 8182, 8145, 8102, 8136, 8151,1.0553617477416992
59, 8145, 8164, 8161, 8172, 8194, 8205, 8180, 8169, 8149, 8176, 8142, 8100, 8142, 8142,1.0553617477416992
60, 8148, 8153, 8131, 8165, 8188, 8189, 8186, 8164, 8157, 8181, 8154, 8105, 8159, 8146,1.0710618495941162
61, 8153, 8155, 8194, 8139, 8181, 8190, 8186, 8171, 8161, 8185, 8157, 8134, 8165, 8159,1.0710618495941162
62, 8151, 8149, 8127, 8138, 8183, 8184, 8192, 8167, 8171, 8190, 8146, 8119, 8160, 8153,1.0868523120880127
63, 8153, 8151, 8170, 8132, 8174, 8174, 8174, 8175, 8159, 8172, 8127, 8109, 8144, 8145,1.0868523120880127
64, 8143, 8161, 8155, 8136, 8171, 8177, 8176, 8170, 8159, 8168, 8132, 8118, 8147, 8147,1.1025817394256592
65, 8139, 8155, 8122, 8134, 8170, 8166, 8176, 8161, 8158, 8160, 8142, 8118, 8149, 8144,1.1025817394256592
66, 8148, 8158, 8201, 8124, 8166, 8160, 8151, 8172, 8151, 8148, 8147, 8134, 8150, 8143,1.118109941482544
67, 8147, 8157, 8135, 8133, 8171, 8145, 8146, 8161, 8167, 8168, 8160, 8134, 8163, 8141,1.118109941482544
68, 8149, 8164, 8167, 8120, 8164, 8135, 8143, 8164, 8160, 8160, 8164, 8133, 8159, 8141,1.1335411071777344
69, 8149, 8167, 8169, 8120, 8165, 8147, 8148, 8168, 8158, 8159, 8174, 8139, 8168, 8145,1.1335411071777344
70, 8151, 8159, 8125, 8133, 8174, 8147, 8148, 8163, 8157, 8177, 8180, 8143, 8182, 8154,1.1489028930664062
71, 8161, 8181, 8202, 8137, 8169, 8149, 8135, 8175, 8136, 8163, 8183, 8168, 8173, 8166,1.1489028930664062
72, 8166, 8195, 8157, 8164, 8181, 8144, 8149, 8163, 8145, 8162, 8215, 8175, 8183, 8173,1.1654186248779297
73, 8167, 8189, 8191, 8163, 8189, 8143, 8149, 8154, 8129, 8155, 8215, 8173, 8183, 8165,1.1654186248779297
74, 8153, 8187, 8195, 8158, 8177, 8161, 8140, 8164, 8093, 8131, 8176, 8152, 8152, 8142,1.1805260181427002
75, 8148, 8181, 8140, 8177, 8174, 8164, 8149, 8169, 8099, 8124, 8167, 8129, 8135, 8143,1.1805260181427002
76, 8168, 8194, 8220, 8183, 8187, 8173, 8170, 8179, 8132, 8148, 8188, 8165, 8158, 8176,1.1961517333984375
77, 8165, 8187, 8159, 8190, 8192, 8180, 8193, 8172, 8165, 8188, 8191, 8160, 8177, 8179,1.1961517333984375
78, 8149, 8172, 8174, 8179, 8175, 8177, 8177, 8171, 8150, 8170, 8170, 8129, 8156, 8163,1.2111937999725342
79, 8163, 8180, 8218, 8183, 8182, 8185, 8177, 8174, 8141, 8160, 8181, 8150, 8161, 8179,1.2111937999725342
80, 8181, 8178, 8158, 8198, 8198, 8176, 8198, 8166, 8168, 8192, 8204, 8165, 8184, 8198,1.2283642292022705
81, 8168, 8172, 8212, 8177, 8179, 8175, 8189, 8174, 8168, 8185, 8184, 8154, 8168, 8187,1.2283642292022705
82, 8141, 8160, 8153, 8168, 8165, 8179, 8192, 8169, 8171, 8172, 8169, 8128, 8158, 8163,1.2423923015594482
83, 8148, 8155, 8164, 8163, 8172, 8177, 8192, 8172, 8178, 8178, 8174, 8137, 8163, 8170,1.2423923015594482
84, 8165, 8168, 8209, 8163, 8182, 8184, 8198, 8185, 8192, 8201, 8186, 8165, 8170, 8189,1.2596197128295898
85, 8167, 8168, 8145, 8176, 8178, 8170, 8208, 8169, 8209, 8216, 8195, 8161, 8183, 8187,1.2596197128295898
86, 8176, 8171, 8218, 8170, 8162, 8161, 8188, 8165, 8198, 8192, 8182, 8171, 8178, 8185,1.2753775119781494
87, 8180, 8166, 8177, 8161, 8165, 8163, 8177, 8162, 8200, 8190, 8177, 8169, 8176, 8180,1.2904765605926514
88, 8179, 8163, 8161, 8151, 8173, 8157, 8175, 8162, 8201, 8194, 8177, 8168, 8182, 8175,1.2904765605926514
89, 8173, 8175, 8208, 8153, 8170, 8161, 8175, 8171, 8194, 8186, 8174, 8175, 8181, 8178,1.2904765605926514
90, 8175, 8169, 8148, 8163, 8170, 8152, 8180, 8165, 8203, 8192, 8184, 8165, 8184, 8180,1.3041656017303467
91, 8202, 8182, 8218, 8158, 8177, 8157, 8168, 8178, 8202, 8195, 8195, 8193, 8196, 8194,1.3041656017303467
92, 8205, 8189, 8186, 8168, 8185, 8158, 8170, 8175, 8207, 8199, 8204, 8200, 8205, 8199,1.3215410709381104
93, 8188, 8171, 8159, 8152, 8167, 8137, 8161, 8161, 8200, 8176, 8196, 8175, 8187, 8186,1.3350975513458252
94, 8182, 8172, 8211, 8133, 8152, 8145, 8148, 8166, 8185, 8156, 8193, 8184, 8175, 8180,1.3350975513458252
95, 8179, 8178, 8146, 8161, 8167, 8151, 8157, 8162, 8195, 8177, 8211, 8186, 8194, 8180,1.3511359691619873
96, 8173, 8187, 8202, 8162, 8168, 8151, 8154, 8172, 8188, 8179, 8211, 8185, 8194, 8172,1.3511359691619873
97, 8155, 8182, 8174, 8157, 8163, 8158, 8155, 8171, 8179, 8179, 8209, 8173, 8180, 8156,1.3681955337524414
98, 8160, 8167, 8143, 8167, 8170, 8155, 8149, 8166, 8171, 8183, 8209, 8162, 8173, 8157,1.3681955337524414
99, 8189, 8188, 8216, 8179, 8178, 8161, 8138, 8178, 8170, 8180, 8209, 8181, 8175, 8176,1.3681955337524414
100, 8193, 8204, 8153, 8203, 8183, 8155, 8155, 8173, 8198, 8190, 8222, 8175, 8185, 8183,1.38558030128479
101, 8187, 8203, 8200, 8195, 8178, 8155, 8158, 8176, 8193, 8185, 8216, 8167, 8177, 8173,1.38558030128479
102, 8188, 8195, 8194, 8195, 8184, 8177, 8168, 8174, 8195, 8191, 8209, 8166, 8176, 8170,1.3981072902679443
103, 8188, 8187, 8148, 8206, 8200, 8184, 8188, 8167, 8205, 8203, 8205, 8163, 8182, 8182,1.4144878387451172
104, 8191, 8203, 8210, 8212, 8201, 8193, 8200, 8181, 8196, 8207, 8201, 8177, 8184, 8201,1.4144878387451172
105, 8207, 8207, 8160, 8237, 8202, 8195, 8220, 8182, 8223, 8231, 8214, 8175, 8204, 8218,1.4295287132263184
106, 8226, 8193, 8203, 8226, 8189, 8180, 8212, 8185, 8238, 8226, 8213, 8182, 8211, 8225,1.4295287132263184
107, 8209, 8178, 8193, 8198, 8177, 8169, 8204, 8182, 8227, 8218, 8200, 8175, 8197, 8215,1.4454116821289062
108, 8190, 8170, 8135, 8183, 8179, 8166, 8211, 8170, 8222, 8221, 8188, 8149, 8189, 8205,1.4454116821289062
109, 8190, 8179, 8202, 8168, 8175, 8180, 8212, 8175, 8218, 8203, 8179, 8158, 8190, 8203,1.4609496593475342
110, 8180, 8167, 8131, 8162, 8168, 8171, 8206, 8169, 8222, 8201, 8190, 8162, 8200, 8192,1.4609496593475342
111, 8179, 8165, 8162, 8150, 8159, 8149, 8173, 8170, 8211, 8199, 8203, 8175, 8201, 8186,1.4765853881835938
112, 8191, 8187, 8198, 8165, 8163, 8151, 8157, 8169, 8203, 8191, 8219, 8189, 8202, 8183,1.4765853881835938
113, 8195, 8187, 8141, 8180, 8168, 8142, 8161, 8161, 8184, 8170, 8224, 8174, 8194, 8158,1.4924697875976562
114, 8196, 8195, 8208, 8169, 8164, 8150, 8161, 8174, 8158, 8141, 8208, 8178, 8176, 8148,1.4924697875976562
115, 8191, 8190, 8159, 8189, 8171, 8166, 8183, 8167, 8178, 8156, 8202, 8171, 8182, 8164,1.5077390670776367
116, 8191, 8174, 8176, 8198, 8177, 8168, 8195, 8166, 8190, 8170, 8201, 8166, 8183, 8179,1.5077390670776367
117, 8189, 8180, 8206, 8198, 8188, 8184, 8208, 8178, 8198, 8181, 8211, 8179, 8188, 8186,1.5233018398284912
118, 8180, 8178, 8144, 8208, 8188, 8187, 8224, 8168, 8219, 8209, 8220, 8176, 8204, 8195,1.5233018398284912
119, 8194, 8179, 8220, 8194, 8163, 8179, 8215, 8178, 8219, 8216, 8220, 8194, 8215, 8211,1.5385174751281738
120, 8211, 8179, 8174, 8191, 8158, 8171, 8222, 8181, 8238, 8227, 8236, 8196, 8238, 8216,1.5385174751281738
121, 8206, 8173, 8164, 8171, 8154, 8166, 8213, 8172, 8236, 8215, 8226, 8178, 8232, 8209,1.554548740386963
122, 8189, 8173, 8193, 8151, 8143, 8164, 8191, 8172, 8215, 8183, 8198, 8174, 8204, 8201,1.554548740386963
123, 8195, 8173, 8129, 8168, 8155, 8152, 8190, 8169, 8222, 8181, 8205, 8182, 8209, 8198,1.5702025890350342
124, 8214, 8190, 8206, 8171, 8167, 8166, 8189, 8178, 8219, 8181, 8215, 8205, 8215, 8198,1.5702025890350342
125, 8199, 8183, 8172, 8170, 8162, 8174, 8190, 8169, 8211, 8181, 8213, 8188, 8205, 8184,1.5861163139343262
126, 8187, 8168, 8164, 8159, 8156, 8155, 8175, 8162, 8190, 8162, 8205, 8173, 8188, 8172,1.5861163139343262
127, 8189, 8179, 8212, 8162, 8162, 8164, 8168, 8175, 8174, 8153, 8196, 8175, 8176, 8166,1.601670265197754
236, 8166, 8159, 8122, 8176, 8156, 8168, 8176, 8166, 8173, 8166, 8167, 8131, 8165, 8147,1.601670265197754
0, 8141, 8134, 8172, 8155, 8131, 8167, 8164, 8165, 8156, 8152, 8125, 8116, 8142, 8138,1.6176741123199463
1, 8136, 8131, 8154, 8142, 8130, 8167, 8163, 8162, 8166, 8149, 8125, 8130, 8142, 8144,1.6176741123199463
2, 8141, 8120, 8127, 8116, 8126, 8149, 8142, 8157, 8168, 8139, 8128, 8127, 8142, 8136,1.6334831714630127
3, 8142, 8122, 8172, 8096, 8108, 8146, 8122, 8162, 8152, 8133, 8121, 8132, 8138, 8126,1.6334831714630127
4, 8141, 8129, 8103, 8117, 8115, 8140, 8135, 8156, 8162, 8160, 8143, 8129, 8155, 8124,1.6485178470611572
5, 8147, 8148, 8170, 8119, 8128, 8134, 8111, 8166, 8141, 8144, 8166, 8140, 8157, 8118,1.6485178470611572
6, 8145, 8159, 8166, 8121, 8129, 8136, 8093, 8164, 8126, 8129, 8175, 8145, 8153, 8115,1.664301872253418
7, 8142, 8156, 8130, 8121, 8129, 8137, 8110, 8159, 8133, 8137, 8163, 8135, 8149, 8121,1.664301872253418
8, 8141, 8166, 8185, 8118, 8136, 8150, 8127, 8173, 8127, 8127, 8151, 8139, 8139, 8126,1.679443359375
9, 8133, 8156, 8120, 8138, 8146, 8144, 8135, 8164, 8125, 8124, 8152, 8121, 8135, 8117,1.679443359375
10, 8129, 8142, 8168, 8131, 8134, 8143, 8119, 8163, 8112, 8116, 8130, 8108, 8121, 8111,1.6955368518829346
11, 8120, 8136, 8157, 8124, 8128, 8164, 8129, 8166, 8118, 8125, 8115, 8101, 8121, 8112,1.6955368518829346
12, 8123, 8134, 8116, 8131, 8140, 8172, 8154, 8162, 8132, 8144, 8125, 8097, 8133, 8127,1.7106940746307373
13, 8140, 8153, 8190, 8129, 8145, 8178, 8155, 8168, 8129, 8147, 8131, 8119, 8139, 8143,1.7106940746307373
14, 8144, 8152, 8124, 8137, 8142, 8168, 8148, 8158, 8132, 8155, 8129, 8113, 8145, 8139,1.7267415523529053
15, 8150, 8139, 8157, 8115, 8127, 8151, 8127, 8162, 8122, 8142, 8118, 8110, 8138, 8135,1.7267415523529053
16, 8143, 8140, 8161, 8093, 8119, 8152, 8114, 8168, 8124, 8131, 8114, 8111, 8131, 8131,1.7424755096435547
17, 8138, 8145, 8112, 8106, 8122, 8140, 8102, 8155, 8126, 8127, 8127, 8102, 8137, 8118,1.7424755096435547
18, 8153, 8164, 8200, 8122, 8121, 8136, 8095, 8165, 8115, 8121, 8144, 8136, 8143, 8120,1.7583558559417725
19, 8153, 8166, 8142, 8134, 8128, 8140, 8115, 8167, 8130, 8138, 8164, 8153, 8150, 8123,1.7583558559417725
20, 8148, 8167, 8158, 8120, 8129, 8136, 8107, 8164, 8121, 8124, 8162, 8147, 8142, 8116,1.7744746208190918
21, 8136, 8172, 8183, 8115, 8124, 8139, 8096, 8168, 8104, 8105, 8150, 8133, 8129, 8101,1.7744746208190918
22, 8118, 8152, 8121, 8123, 8124, 8139, 8105, 8163, 8106, 8112, 8138, 8108, 8118, 8085,1.7903759479522705
23, 8113, 8158, 8187, 8128, 8126, 8154, 8098, 8168, 8095, 8107, 8119, 8105, 8102, 8080,1.7903759479522705
24, 8108, 8164, 8131, 8152, 8133, 8165, 8105, 8157, 8100, 8111, 8112, 8085, 8104, 8081,1.805481195449829
25, 8104, 8152, 8144, 8148, 8130, 8168, 8116, 8161, 8109, 8119, 8109, 8082, 8106, 8087,1.805481195449829
26, 8117, 8158, 8183, 8149, 8139, 8181, 8135, 8171, 8128, 8143, 8122, 8111, 8121, 8107,1.821439266204834
27, 8132, 8158, 8120, 8160, 8145, 8175, 8145, 8161, 8156, 8164, 8134, 8111, 8147, 8120,1.821439266204834
28, 8146, 8164, 8194, 8140, 8129, 8166, 8127, 8168, 8150, 8145, 8123, 8116, 8146, 8122,1.8364243507385254
29, 8153, 8168, 8158, 8146, 8127, 8151, 8127, 8167, 8147, 8146, 8137, 8125, 8148, 8124,1.8364243507385254
30, 8154, 8158, 8152, 8146, 8129, 8129, 8121, 8163, 8131, 8133, 8147, 8131, 8147, 8119,1.8515191078186035
31, 8152, 8164, 8187, 8127, 8130, 8142, 8117, 8165, 8120, 8112, 8141, 8142, 8145, 8113,1.8515191078186035
32, 8156, 8172, 8127, 8139, 8140, 8149, 8131, 8155, 8128, 8122, 8149, 8138, 8152, 8114,1.8674979209899902
33, 8164, 8185, 8199, 8152, 8140, 8150, 8119, 8166, 8110, 8116, 8148, 8153, 8144, 8120,1.8674979209899902
34, 8156, 8181, 8161, 8163, 8143, 8158, 8121, 8166, 8121, 8123, 8150, 8149, 8143, 8120,1.8828823566436768
35, 8157, 8172, 8153, 8175, 8155, 8168, 8136, 8165, 8149, 8141, 8151, 8136, 8148, 8123,1.8828823566436768
36, 8162, 8181, 8211, 8195, 8167, 8192, 8154, 8178, 8159, 8154, 8148, 8139, 8152, 8138,1.8985517024993896
37, 8151, 8166, 8132, 8201, 8166, 8185, 8164, 8168, 8160, 8164, 8138, 8115, 8152, 8139,1.8985517024993896
38, 8145, 8155, 8180, 8173, 8153, 8175, 8148, 8169, 8140, 8152, 8120, 8116, 8142, 8133,1.914567232131958
39, 8137, 8154, 8156, 8177, 8153, 8179, 8159, 8169, 8149, 8159, 8126, 8123, 8154, 8133,1.914567232131958
40, 8132, 8144, 8128, 8168, 8144, 8168, 8160, 8163, 8160, 8166, 8128, 8108, 8160, 8133,1.9306650161743164
41, 8132, 8145, 8176, 8141, 8129, 8173, 8148, 8170, 8149, 8154, 8121, 8111, 8147, 8129,1.9306650161743164
42, 8135, 8144, 8105, 8146, 8141, 8171, 8157, 8162, 8156, 8153, 8129, 8114, 8149, 8121,1.9462165832519531
43, 8149, 8155, 8169, 8125, 8138, 8157, 8138, 8170, 8153, 8139, 8130, 8130, 8149, 8125,1.9462165832519531
44, 8150, 8162, 8160, 8116, 8125, 8153, 8131, 8175, 8155, 8140, 8131, 8130, 8153, 8127,1.962080955505371
45, 8153, 8156, 8125, 8130, 8125, 8147, 8128, 8167, 8152, 8141, 8130, 8121, 8157, 8120,1.962080955505371
46, 8165, 8175, 8199, 8137, 8136, 8146, 8104, 8167, 8132, 8128, 8135, 8142, 8156, 8123,1.9774255752563477
47, 8160, 8179, 8134, 8152, 8150, 8143, 8101, 8159, 8137, 8146, 8159, 8133, 8159, 8117,1.9774255752563477
48, 8146, 8175, 8171, 8148, 8148, 8155, 8109, 8167, 8134, 8147, 8151, 8120, 8143, 8104,1.9934735298156738
49, 8135, 8175, 8169, 8157, 8146, 8173, 8137, 8168, 8128, 8138, 8121, 8107, 8133, 8103,1.9934735298156738
50, 8131, 8155, 8120, 8160, 8145, 8170, 8163, 8162, 8121, 8139, 8105, 8088, 8128, 8111,2.0171146392822266
51, 8124, 8141, 8182, 8127, 8131, 8178, 8166, 8168, 8115, 8135, 8097, 8096, 8119, 8116,2.0171146392822266
52, 8109, 8125, 8115, 8111, 8124, 8169, 8160, 8153, 8141, 8143, 8099, 8086, 8126, 8109,2.0171146392822266
53, 8122, 8127, 8145, 8103, 8122, 8147, 8135, 8165, 8156, 8140, 8104, 8097, 8140, 8108,2.024801731109619
54, 8154, 8156, 8166, 8123, 8132, 8152, 8129, 8181, 8172, 8150, 8132, 8130, 8163, 8123,2.0404410362243652
55, 8178, 8175, 8136, 8149, 8142, 8148, 8118, 8167, 8173, 8163, 8161, 8140, 8174, 8132,2.0404410362243652
56, 8179, 8181, 8215, 8145, 8134, 8138, 8094, 8164, 8129, 8137, 8149, 8140, 8150, 8126,2.056842088699341
57, 8156, 8165, 8143, 8153, 8139, 8143, 8120, 8159, 8116, 8129, 8129, 8107, 8134, 8113,2.056842088699341
58, 8150, 8157, 8162, 8155, 8149, 8166, 8145, 8166, 8125, 8133, 8118, 8096, 8137, 8116,2.072843074798584
59, 8145, 8158, 8183, 8150, 8148, 8191, 8151, 8176, 8142, 8142, 8115, 8104, 8145, 8121,2.072843074798584
60, 8130, 8133, 8104, 8132, 8135, 8171, 8159, 8162, 8159, 8153, 8101, 8083, 8139, 8114,2.0885698795318604
61, 8132, 8129, 8171, 8106, 8118, 8158, 8151, 8166, 8157, 8147, 8086, 8086, 8129, 8115,2.0885698795318604
62, 8140, 8136, 8132, 8124, 8123, 8161, 8145, 8167, 8166, 8159, 8109, 8103, 8149, 8128,2.1042160987854004
63, 8150, 8138, 8149, 8124, 8119, 8146, 8120, 8163, 8151, 8145, 8124, 8124, 8163, 8133,2.1042160987854004
64, 8158, 8149, 8192, 8114, 8109, 8138, 8105, 8169, 8131, 8123, 8131, 8146, 8157, 8121,2.119544506072998
65, 8170, 8162, 8137, 8140, 8119, 8135, 8111, 8165, 8139, 8134, 8160, 8152, 8159, 8126,2.119544506072998
66, 8185, 8184, 8215, 8160, 8125, 8141, 8099, 8168, 8132, 8129, 8174, 8172, 8163, 8141,2.134803295135498
67, 8173, 8182, 8174, 8179, 8127, 8147, 8107, 8157, 8123, 8122, 8163, 8161, 8163, 8125,2.134803295135498
68, 8165, 8175, 8175, 8199, 8135, 8157, 8122, 8157, 8112, 8121, 8148, 8145, 8154, 8116,2.1504061222076416
69, 8169, 8190, 8223, 8224, 8144, 8173, 8127, 8166, 8103, 8129, 8146, 8154, 8148, 8128,2.1504061222076416
70, 8167, 8180, 8150, 8242, 8143, 8161, 8134, 8150, 8098, 8138, 8146, 8147, 8147, 8127,2.166137218475342
71, 8182, 8177, 8218, 8230, 8130, 8160, 8134, 8159, 8098, 8141, 8152, 8164, 8151, 8135,2.166137218475342
72, 8192, 8186, 8189, 8227, 8130, 8162, 8140, 8167, 8140, 8172, 8183, 8182, 8179, 8158,2.182222604751587
73, 8192, 8185, 8170, 8213, 8127, 8141, 8125, 8160, 8148, 8165, 8189, 8183, 8185, 8158,2.182222604751587
74, 8197, 8191, 8224, 8206, 8125, 8148, 8116, 8165, 8124, 8124, 8170, 8191, 8168, 8137,2.1977219581604004
75, 8199, 8192, 8159, 8225, 8132, 8144, 8127, 8159, 8130, 8122, 8171, 8175, 8175, 8121,2.1977219581604004
76, 8200, 8207, 8214, 8211, 8128, 8134, 8117, 8163, 8117, 8119, 8178, 8180, 8158, 8126,2.213371753692627
77, 8200, 8214, 8184, 8205, 8133, 8150, 8130, 8163, 8112, 8127, 8193, 8188, 8170, 8134,2.213371753692627
78, 8206, 8197, 8157, 8197, 8134, 8152, 8138, 8163, 8121, 8137, 8195, 8182, 8245, 8129,2.2285542488098145
79, 8205, 8204, 8222, 8183, 8132, 8153, 8132, 8172, 8124, 8134, 8186, 8189, 8261, 8131,2.2285542488098145
80, 8198, 8206, 8152, 8203, 8145, 8153, 8146, 8164, 8142, 8150, 8199, 8182, 8199, 8141,2.2446236610412598
81, 8205, 8205, 8204, 8199, 8150, 8152, 8132, 8174, 8139, 8151, 8199, 8191, 8167, 8145,2.2446236610412598
82, 8208, 8207, 8197, 8201, 8153, 8151, 8127, 8173, 8144, 8157, 8202, 8194, 8202, 8145,2.2602851390838623
83, 8209, 8199, 8163, 8218, 8154, 8150, 8141, 8161, 8146, 8161, 8207, 8178, 8203, 8147,2.2602851390838623
84, 8208, 8200, 8227, 8214, 8152, 8170, 8143, 8173, 8125, 8146, 8196, 8178, 8175, 8150,2.2758803367614746
85, 8189, 8186, 8151, 8214, 8147, 8166, 8149, 8165, 8123, 8151, 8187, 8166, 8177, 8136,2.2758803367614746
86, 8186, 8181, 8192, 8205, 8136, 8159, 8143, 8161, 8124, 8148, 8180, 8170, 8181, 8132,2.2906055450439453
87, 8188, 8190, 8192, 8204, 8146, 8183, 8153, 8166, 8135, 8159, 8184, 8173, 8187, 8145,2.2906055450439453
88, 8181, 8185, 8139, 8202, 8156, 8190, 8165, 8168, 8141, 8169, 8179, 8153, 8181, 8143,2.3071439266204834
89, 8186, 8195, 8217, 8206, 8153, 8190, 8169, 8180, 8136, 8162, 8171, 8168, 8178, 8148,2.3071439266204834
90, 8195, 8195, 8160, 8231, 8160, 8181, 8192, 8170, 8160, 8190, 8192, 8177, 8202, 8167,2.3221681118011475
91, 8186, 8183, 8178, 8213, 8154, 8173, 8180, 8169, 8156, 8193, 8185, 8170, 8194, 8164,2.3221681118011475
92, 8159, 8176, 8178, 8187, 8145, 8178, 8159, 8173, 8139, 8173, 8167, 8160, 8175, 8144,2.3372979164123535
93, 8165, 8166, 8127, 8187, 8150, 8177, 8172, 8170, 8154, 8185, 8178, 8157, 8192, 8150,2.3534374237060547
94, 8189, 8176, 8210, 8182, 8157, 8187, 8190, 8181, 8172, 8202, 8181, 8171, 8206, 8165,2.3534374237060547
95, 8183, 8177, 8154, 8191, 8161, 8182, 8198, 8169, 8191, 8212, 8168, 8153, 8196, 8155,2.3534374237060547
96, 8177, 8175, 8169, 8183, 8153, 8173, 8180, 8165, 8184, 8194, 8160, 8145, 8180, 8155,2.3705484867095947
97, 8179, 8177, 8188, 8170, 8151, 8184, 8181, 8174, 8188, 8190, 8168, 8157, 8186, 8172,2.3705484867095947
98, 8182, 8165, 8124, 8174, 8158, 8180, 8199, 8170, 8206, 8210, 8177, 8149, 8197, 8173,2.3842437267303467
99, 8185, 8172, 8195, 8173, 8159, 8181, 8194, 8180, 8196, 8202, 8177, 8159, 8195, 8174,2.3994317054748535
100, 8168, 8172, 8139, 8178, 8163, 8182, 8193, 8173, 8193, 8196, 8176, 8149, 8205, 8170,2.3994317054748535
101, 8166, 8163, 8144, 8164, 8155, 8174, 8176, 8164, 8185, 8194, 8170, 8142, 8217, 8168,2.414456844329834
102, 8199, 8176, 8191, 8172, 8153, 8179, 8174, 8172, 8189, 8202, 8189, 8172, 8234, 8185,2.414456844329834
103, 8210, 8178, 8132, 8191, 8166, 8168, 8187, 8168, 8197, 8205, 8206, 8174, 8244, 8189,2.429804563522339
104, 8195, 8175, 8194, 8161, 8162, 8161, 8171, 8174, 8174, 8185, 8195, 8170, 8235, 8184,2.429804563522339
105, 8194, 8171, 8153, 8164, 8156, 8166, 8170, 8172, 8183, 8206, 8212, 8174, 8252, 8187,2.4452719688415527
106, 8217, 8183, 8162, 8189, 8154, 8159, 8166, 8175, 8200, 8221, 8237, 8199, 8269, 8200,2.4452719688415527
107, 8228, 8202, 8216, 8187, 8158, 8162, 8158, 8185, 8204, 8223, 8242, 8224, 8264, 8207,2.460775136947632
108, 8207, 8184, 8137, 8177, 8166, 8154, 8156, 8172, 8203, 8233, 8243, 8193, 8257, 8194,2.460775136947632
109, 8196, 8183, 8195, 8176, 8163, 8150, 8139, 8177, 8168, 8208, 8235, 8187, 8242, 8176,2.476362466812134
110, 8197, 8199, 8166, 8193, 8167, 8156, 8150, 8176, 8163, 8198, 8233, 8194, 8234, 8170,2.476362466812134
111, 8194, 8191, 8147, 8173, 8164, 8146, 8156, 8166, 8164, 8194, 8227, 8186, 8225, 8174,2.4924490451812744
112, 8187, 8190, 8199, 8147, 8158, 8149, 8142, 8172, 8143, 8180, 8223, 8184, 8219, 8167,2.4924490451812744
113, 8186, 8190, 8135, 8160, 8167, 8153, 8148, 8168, 8151, 8192, 8225, 8172, 8229, 8155,2.507385492324829
114, 8194, 8199, 8193, 8161, 8171, 8154, 8152, 8175, 8157, 8191, 8209, 8179, 8221, 8162,2.507385492324829
115, 8183, 8199, 8160, 8170, 8170, 8157, 8160, 8171, 8157, 8190, 8205, 8173, 8210, 8168,2.522934913635254
116, 8175, 8182, 8130, 8168, 8168, 8159, 8164, 8168, 8152, 8190, 8211, 8156, 8207, 8160,2.522934913635254
117, 8177, 8187, 8203, 8153, 8171, 8176, 8174, 8184, 8162, 8190, 8203, 8163, 8201, 8155,2.5384349822998047
118, 8169, 8186, 8136, 8170, 8188, 8181, 8199, 8177, 8183, 8211, 8193, 8155, 8200, 8156,2.5384349822998047
119, 8170, 8187, 8179, 8171, 8187, 8181, 8189, 8173, 8163, 8202, 8182, 8157, 8190, 8160,2.5544841289520264
120, 8172, 8196, 8174, 8166, 8180, 8180, 8182, 8171, 8156, 8192, 8193, 8161, 8198, 8165,2.5544841289520264
121, 8170, 8189, 8145, 8167, 8182, 8164, 8189, 8172, 8169, 8202, 8196, 8160, 8209, 8166,2.570193290710449
122, 8164, 8179, 8204, 8158, 8181, 8174, 8186, 8182, 8162, 8199, 8174, 8165, 8190, 8166,2.570193290710449
123, 8154, 8161, 8127, 8160, 8176, 8178, 8189, 8163, 8168, 8197, 8169, 8141, 8178, 8155,2.585146427154541
124, 8154, 8161, 8172, 8148, 8169, 8178, 8177, 8167, 8168, 8182, 8158, 8138, 8169, 8144,2.585146427154541
125, 8148, 8159, 8175, 8143, 8177, 8192, 8189, 8181, 8176, 8189, 8146, 8146, 8167, 8147,2.6007273197174072
126, 8142, 8139, 8114, 8139, 8181, 8183, 8207, 8173, 8187, 8202, 8139, 8128, 8166, 8155,2.6007273197174072
127, 8157, 8150, 8188, 8130, 8174, 8184, 8209, 8182, 8194, 8195, 8144, 8141, 8170, 8174,2.6158766746520996
236, 8159, 8156, 8130, 8144, 8178, 8196, 8224, 8178, 8216, 8207, 8157, 8142, 8185, 8179,2.6158766746520996
0, 8142, 8144, 8151, 8135, 8169, 8191, 8214, 8174, 8196, 8193, 8128, 8120, 8162, 8159,2.631131172180176
1, 8132, 8146, 8171, 8133, 8164, 8185, 8206, 8174, 8191, 8184, 8109, 8121, 8144, 8147,2.631131172180176
2, 8140, 8147, 8123, 8138, 8172, 8174, 8207, 8167, 8223, 8200, 8129, 8134, 8164, 8154,2.64719820022583
3, 8143, 8153, 8184, 8117, 8165, 8177, 8189, 8178, 8210, 8193, 8128, 8149, 8169, 8160,2.64719820022583
4, 8134, 8145, 8120, 8117, 8162, 8172, 8185, 8174, 8195, 8188, 8115, 8127, 8158, 8156,2.6628012657165527
5, 8151, 8140, 8151, 8111, 8163, 8162, 8179, 8171, 8201, 8183, 8116, 8129, 8155, 8161,2.6628012657165527
6, 8161, 8151, 8188, 8112, 8167, 8169, 8188, 8174, 8218, 8194, 8127, 8152, 8167, 8172,2.6782429218292236
7, 8152, 8148, 8117, 8131, 8170, 8172, 8204, 8169, 8224, 8209, 8126, 8140, 8173, 8171,2.6782429218292236
8, 8162, 8150, 8192, 8122, 8161, 8176, 8197, 8181, 8209, 8197, 8118, 8143, 8162, 8170,2.69429349899292
9, 8167, 8150, 8149, 8123, 8161, 8162, 8199, 8172, 8217, 8190, 8129, 8141, 8163, 8167,2.69429349899292
10, 8168, 8156, 8152, 8123, 8163, 8143, 8189, 8169, 8212, 8179, 8137, 8146, 8165, 8166,2.7100818157196045
11, 8172, 8167, 8193, 8123, 8159, 8152, 8182, 8181, 8199, 8174, 8134, 8147, 8158, 8165,2.7100818157196045
12, 8165, 8150, 8126, 8123, 8154, 8146, 8185, 8170, 8196, 8172, 8131, 8117, 8151, 8152,2.7252607345581055
13, 8162, 8148, 8189, 8101, 8150, 8147, 8177, 8176, 8188, 8157, 8131, 8125, 8146, 8146,2.7252607345581055
14, 8153, 8150, 8146, 8100, 8158, 8154, 8182, 8176, 8209, 8171, 8134, 8121, 8142, 8138,2.7413792610168457
15, 8145, 8143, 8138, 8098, 8151, 8138, 8167, 8168, 8201, 8158, 8113, 8096, 8117, 8131,2.7413792610168457
16, 8149, 8161, 8194, 8099, 8147, 8141, 8155, 8171, 8162, 8122, 8109, 8111, 8112, 8139,2.7572426795959473
17, 8157, 8166, 8131, 8120, 8163, 8152, 8175, 8165, 8164, 8140, 8141, 8118, 8142, 8152,2.7572426795959473
18, 8168, 8173, 8206, 8126, 8167, 8166, 8180, 8173, 8166, 8154, 8147, 8124, 8147, 8166,2.772418737411499
19, 8168, 8182, 8182, 8149, 8171, 8172, 8187, 8166, 8170, 8158, 8143, 8122, 8143, 8166,2.772418737411499
20, 8157, 8164, 8144, 8147, 8169, 8161, 8187, 8162, 8174, 8155, 8133, 8106, 8133, 8143,2.7880868911743164
21, 8135, 8148, 8182, 8117, 8158, 8167, 8174, 8175, 8159, 8143, 8113, 8094, 8116, 8127,2.7880868911743164
22, 8125, 8140, 8113, 8122, 8157, 8163, 8177, 8161, 8151, 8153, 8116, 8080, 8119, 8126,2.803110361099243
23, 8152, 8157, 8190, 8138, 8164, 8166, 8178, 8165, 8153, 8153, 8130, 8104, 8136, 8144,2.803110361099243
24, 8162, 8169, 8187, 8162, 8173, 8187, 8197, 8175, 8178, 8167, 8150, 8125, 8160, 8166,2.818636178970337
25, 8148, 8154, 8145, 8157, 8169, 8186, 8206, 8170, 8177, 8175, 8142, 8114, 8157, 8172,2.818636178970337
26, 8143, 8152, 8194, 8131, 8163, 8189, 8202, 8171, 8168, 8174, 8124, 8111, 8147, 8174,2.8358986377716064
27, 8150, 8149, 8127, 8137, 8164, 8189, 8216, 8164, 8198, 8190, 8137, 8103, 8162, 8174,2.8358986377716064
28, 8157, 8151, 8181, 8142, 8161, 8186, 8206, 8172, 8193, 8181, 8130, 8107, 8150, 8172,2.8506834506988525
29, 8156, 8154, 8181, 8150, 8171, 8192, 8208, 8174, 8195, 8189, 8123, 8107, 8140, 8174,2.8652408123016357
30, 8165, 8152, 8144, 8149, 8172, 8182, 8218, 8166, 8211, 8204, 8138, 8112, 8155, 8179,2.8652408123016357
31, 8175, 8168, 8203, 8140, 8156, 8179, 8207, 8173, 8198, 8184, 8139, 8137, 8155, 8179,2.8652408123016357
32, 8165, 8165, 8133, 8159, 8162, 8177, 8207, 8167, 8197, 8185, 8133, 8117, 8151, 8171,2.881330966949463
33, 8163, 8154, 8176, 8152, 8166, 8170, 8193, 8171, 8189, 8183, 8134, 8105, 8153, 8162,2.881330966949463
34, 8152, 8149, 8176, 8140, 8158, 8167, 8184, 8171, 8180, 8175, 8143, 8112, 8159, 8150,2.896641492843628
35, 8149, 8148, 8125, 8151, 8161, 8159, 8191, 8165, 8183, 8174, 8146, 8104, 8160, 8151,2.896641492843628
36, 8174, 8166, 8208, 8161, 8166, 8165, 8189, 8180, 8183, 8173, 8153, 8130, 8163, 8168,2.913311719894409
37, 8184, 8159, 8149, 8177, 8167, 8157, 8184, 8173, 8199, 8186, 8175, 8145, 8179, 8170,2.913311719894409
38, 8184, 8157, 8172, 8169, 8167, 8149, 8169, 8170, 8197, 8182, 8182, 8148, 8176, 8167,2.928164005279541
39, 8183, 8175, 8192, 8168, 8173, 8162, 8176, 8174, 8192, 8176, 8178, 8147, 8164, 8167,2.928164005279541
40, 8175, 8167, 8133, 8179, 8168, 8152, 8183, 8168, 8185, 8169, 8172, 8126, 8153, 8151,2.94419264793396
41, 8172, 8167, 8203, 8166, 8159, 8148, 8168, 8175, 8161, 8154, 8176, 8133, 8150, 8144,2.94419264793396
42, 8163, 8173, 8148, 8168, 8171, 8156, 8171, 8166, 8164, 8168, 8184, 8133, 8164, 8149,2.959970474243164
43, 8163, 8177, 8163, 8177, 8176, 8160, 8172, 8161, 8164, 8162, 8175, 8131, 8162, 8148,2.975104808807373
44, 8170, 8185, 8201, 8193, 8178, 8169, 8186, 8171, 8174, 8161, 8185, 8142, 8163, 8155,2.975104808807373
45, 8177, 8181, 8146, 8202, 8189, 8165, 8205, 8174, 8200, 8187, 8209, 8144, 8184, 8169,2.992147207260132
46, 8189, 8187, 8213, 8184, 8188, 8168, 8195, 8183, 8194, 8187, 8199, 8155, 8185, 8176,2.992147207260132
47, 8186, 8178, 8164, 8191, 8183, 8167, 8192, 8167, 8184, 8178, 8184, 8140, 8173, 8170,2.992147207260132
48, 8176, 8159, 8166, 8192, 8173, 8160, 8181, 8165, 8156, 8160, 8175, 8129, 8160, 8160,3.0064587593078613
49, 8168, 8160, 8201, 8187, 8169, 8178, 8178, 8177, 8139, 8155, 8165, 8135, 8161, 8155,3.0269083976745605
50, 8163, 8149, 8130, 8191, 8170, 8179, 8194, 8166, 8163, 8176, 8164, 8116, 8168, 8160,3.0269083976745605
51, 8163, 8147, 8193, 8181, 8160, 8172, 8182, 8173, 8170, 8175, 8154, 8115, 8156, 8168,3.0269083976745605
52, 8149, 8146, 8155, 8187, 8163, 8173, 8173, 8171, 8166, 8175, 8148, 8107, 8151, 8155,3.0395283699035645
53, 8150, 8142, 8145, 8181, 8171, 8177, 8178, 8165, 8167, 8179, 8146, 8104, 8156, 8150,3.0569889545440674
54, 8169, 8154, 8197, 8177, 8170, 8187, 8194, 8176, 8188, 8193, 8158, 8126, 8167, 8174,3.0569889545440674
55, 8169, 8146, 8133, 8179, 8162, 8170, 8197, 8168, 8206, 8208, 8172, 8121, 8174, 8175,3.0569889545440674
56, 8162, 8144, 8194, 8154, 8151, 8158, 8178, 8166, 8184, 8185, 8159, 8118, 8162, 8157,3.0715348720550537
57, 8164, 8157, 8169, 8171, 8168, 8170, 8193, 8168, 8198, 8184, 8158, 8116, 8165, 8150,3.0715348720550537
58, 8177, 8157, 8153, 8189, 8179, 8170, 8203, 8171, 8213, 8193, 8159, 8118, 8166, 8153,3.087078094482422
59, 8173, 8152, 8204, 8162, 8166, 8168, 8185, 8179, 8192, 8177, 8148, 8128, 8155, 8157,3.102099657058716
60, 8160, 8142, 8123, 8157, 8165, 8160, 8185, 8166, 8195, 8177, 8159, 8118, 8163, 8151,3.102099657058716
61, 8169, 8149, 8184, 8159, 8164, 8159, 8178, 8173, 8197, 8169, 8170, 8131, 8168, 8144,3.1030993461608887
62, 8171, 8156, 8179, 8163, 8163, 8160, 8173, 8176, 8196, 8165, 8166, 8133, 8160, 8139,3.1181509494781494
63, 8175, 8160, 8150, 8162, 8163, 8148, 8168, 8168, 8197, 8165, 8164, 8127, 8161, 8141,3.134202480316162
64, 8189, 8179, 8216, 8156, 8163, 8157, 8166, 8181, 8197, 8168, 8185, 8157, 8178, 8154,3.134202480316162
65, 8192, 8173, 8143, 8168, 8172, 8152, 8179, 8175, 8201, 8184, 8203, 8150, 8182, 8153,3.134202480316162
66, 8188, 8171, 8184, 8164, 8167, 8140, 8160, 8171, 8175, 8165, 8183, 8138, 8157, 8142,3.150428056716919
67, 8176, 8177, 8189, 8175, 8167, 8157, 8161, 8174, 8167, 8158, 8178, 8148, 8155, 8142,3.150428056716919
68, 8174, 8167, 8153, 8190, 8176, 8167, 8180, 8172, 8171, 8171, 8184, 8144, 8163, 8145,3.1650869846343994
69, 8186, 8172, 8219, 8190, 8175, 8175, 8181, 8177, 8159, 8169, 8169, 8146, 8154, 8148,3.1831202507019043
70, 8180, 8161, 8148, 8197, 8172, 8175, 8192, 8166, 8176, 8182, 8161, 8135, 8160, 8151,3.1831202507019043
71, 8169, 8143, 8175, 8177, 8163, 8182, 8188, 8167, 8182, 8180, 8151, 8132, 8159, 8153,3.1831202507019043
72, 8162, 8143, 8184, 8174, 8163, 8192, 8185, 8166, 8174, 8179, 8151, 8132, 8154, 8153,3.1971561908721924
73, 8161, 8137, 8134, 8179, 8159, 8171, 8184, 8158, 8171, 8177, 8157, 8124, 8157, 8151,3.2121872901916504
74, 8178, 8146, 8208, 8157, 8152, 8173, 8175, 8173, 8180, 8167, 8166, 8143, 8167, 8162,3.2121872901916504
75, 8192, 8154, 8157, 8161, 8164, 8181, 8186, 8171, 8216, 8189, 8190, 8151, 8196, 8173,3.2121872901916504
76, 8196, 8158, 8179, 8164, 8167, 8155, 8169, 8170, 8207, 8181, 8187, 8156, 8190, 8168,3.226428985595703
77, 8187, 8166, 8193, 8160, 8157, 8142, 8147, 8175, 8173, 8158, 8183, 8163, 8163, 8151,3.2418923377990723
78, 8176, 8161, 8133, 8162, 8156, 8153, 8155, 8167, 8163, 8159, 8189, 8147, 8159, 8142,3.2418923377990723
79, 8172, 8166, 8207, 8158, 8163, 8178, 8165, 8175, 8150, 8152, 8171, 8148, 8156, 8149,3.258219003677368
80, 8157, 8158, 8149, 8177, 8169, 8184, 8179, 8170, 8149, 8157, 8154, 8128, 8148, 8147,3.258219003677368
81, 8151, 8148, 8155, 8176, 8159, 8181, 8180, 8168, 8148, 8159, 8138, 8109, 8137, 8145,3.273477554321289
82, 8157, 8151, 8189, 8161, 8156, 8185, 8186, 8173, 8161, 8168, 8136, 8116, 8147, 8152,3.273477554321289
83, 8159, 8140, 8120, 8153, 8157, 8167, 8185, 8164, 8179, 8177, 8151, 8116, 8160, 8148,3.2887930870056152
84, 8163, 8147, 8187, 8137, 8149, 8162, 8158, 8170, 8165, 8154, 8153, 8136, 8151, 8146,3.2887930870056152
85, 8167, 8162, 8154, 8147, 8154, 8165, 8158, 8162, 8158, 8150, 8158, 8146, 8155, 8145,3.3042919635772705
86, 8179, 8172, 8159, 8155, 8161, 8156, 8148, 8157, 8136, 8140, 8170, 8148, 8160, 8143,3.3042919635772705
87, 8172, 8179, 8197, 8160, 8162, 8157, 8130, 8167, 8116, 8126, 8167, 8149, 8146, 8135,3.3194313049316406
88, 8149, 8159, 8126, 8177, 8166, 8155, 8140, 8156, 8122, 8138, 8147, 8116, 8134, 8130,3.3194313049316406
89, 8143, 8156, 8185, 8169, 8162, 8170, 8148, 8164, 8111, 8139, 8130, 8116, 8131, 8136,3.335489273071289
90, 8141, 8154, 8141, 8161, 8163, 8181, 8159, 8168, 8127, 8155, 8137, 8116, 8145, 8136,3.335489273071289
91, 8138, 8134, 8129, 8142, 8156, 8161, 8154, 8163, 8141, 8164, 8134, 8105, 8151, 8131,3.35079026222229
92, 8144, 8145, 8194, 8137, 8147, 8159, 8144, 8169, 8132, 8157, 8128, 8118, 8155, 8137,3.35079026222229
93, 8154, 8160, 8125, 8158, 8156, 8152, 8148, 8162, 8137, 8157, 8144, 8128, 8167, 8143,3.366536855697632
94, 8162, 8164, 8182, 8142, 8154, 8138, 8131, 8169, 8132, 8146, 8147, 8148, 8164, 8147,3.366536855697632
95, 8150, 8158, 8162, 8136, 8146, 8135, 8123, 8168, 8137, 8152, 8148, 8142, 8162, 8138,3.3821253776550293
96, 8145, 8151, 8132, 8140, 8145, 8136, 8122, 8164, 8133, 8148, 8151, 8127, 8156, 8123,3.3821253776550293
97, 8160, 8164, 8192, 8135, 8147, 8148, 8133, 8175, 8121, 8138, 8150, 8144, 8144, 8124,3.3980712890625
98, 8165, 8161, 8128, 8145, 8153, 8144, 8150, 8165, 8128, 8151, 8148, 8141, 8138, 8126,3.3980712890625
99, 8159, 8162, 8178, 8147, 8149, 8139, 8128, 8163, 8102, 8130, 8131, 8132, 8120, 8122,3.4135940074920654
100, 8150, 8170, 8162, 8165, 8153, 8151, 8133, 8165, 8093, 8123, 8134, 8125, 8118, 8125,3.4135940074920654
101, 8154, 8171, 8133, 8181, 8162, 8168, 8162, 8171, 8118, 8149, 8153, 8129, 8139, 8134,3.429213762283325
102, 8169, 8186, 8209, 8183, 8169, 8184, 8170, 8181, 8129, 8162, 8152, 8152, 8146, 8147,3.429213762283325
103, 8166, 8178, 8139, 8200, 8177, 8171, 8174, 8163, 8137, 8168, 8137, 8133, 8143, 8146,3.444315195083618
104, 8157, 8164, 8168, 8190, 8167, 8166, 8165, 8165, 8136, 8158, 8119, 8124, 8133, 8142,3.444315195083618
105, 8143, 8154, 8152, 8169, 8158, 8182, 8179, 8175, 8152, 8169, 8126, 8131, 8139, 8144,3.4596922397613525
106, 8140, 8137, 8104, 8148, 8155, 8174, 8194, 8170, 8172, 8187, 8128, 8116, 8146, 8142,3.4596922397613525
107, 8143, 8136, 8181, 8127, 8146, 8172, 8177, 8174, 8171, 8179, 8109, 8119, 8135, 8139,3.475280523300171
108, 8136, 8129, 8120, 8124, 8143, 8164, 8162, 8162, 8173, 8172, 8109, 8119, 8134, 8136,3.475280523300171
109, 8149, 8132, 8151, 8110, 8135, 8143, 8145, 8161, 8158, 8159, 8114, 8131, 8133, 8138,3.491307020187378
110, 8167, 8148, 8169, 8121, 8139, 8148, 8145, 8167, 8163, 8168, 8132, 8148, 8150, 8148,3.491307020187378
111, 8169, 8151, 8124, 8138, 8153, 8149, 8143, 8159, 8173, 8175, 8151, 8144, 8162, 8152,3.509129524230957
112, 8169, 8162, 8199, 8122, 8155, 8154, 8123, 8170, 8146, 8144, 8142, 8148, 8147, 8146,3.509129524230957
113, 8169, 8166, 8147, 8140, 8160, 8164, 8138, 8171, 8150, 8152, 8153, 8145, 8153, 8138,3.522602081298828
114, 8170, 8175, 8174, 8160, 8167, 8167, 8149, 8173, 8158, 8172, 8171, 8158, 8159, 8146,3.522602081298828
115, 8165, 8185, 8198, 8164, 8179, 8167, 8155, 8176, 8154, 8173, 8168, 8163, 8153, 8154,3.538226842880249
116, 8163, 8168, 8131, 8174, 8182, 8167, 8178, 8168, 8159, 8181, 8157, 8141, 8152, 8152,3.538226842880249
117, 8156, 8155, 8192, 8166, 8169, 8189, 8182, 8174, 8151, 8177, 8137, 8140, 8140, 8150,3.55336856842041
118, 8124, 8133, 8131, 8151, 8161, 8189, 8184, 8165, 8151, 8176, 8122, 8114, 8125, 8143,3.55336856842041
119, 8122, 8123, 8142, 8133, 8160, 8176, 8187, 8168, 8155, 8179, 8115, 8106, 8123, 8140,3.5690619945526123
120, 8157, 8146, 8191, 8148, 8172, 8190, 8200, 8181, 8182, 8201, 8132, 8141, 8148, 8154,3.5690619945526123
121, 8173, 8152, 8126, 8165, 8177, 8180, 8201, 8169, 8209, 8216, 8153, 8153, 8169, 8162,3.584528684616089
122, 8171, 8157, 8191, 8139, 8163, 8167, 8174, 8175, 8192, 8186, 8152, 8167, 8162, 8157,3.584528684616089
123, 8165, 8158, 8150, 8137, 8159, 8161, 8164, 8169, 8171, 8163, 8149, 8161, 8152, 8137,3.5998945236206055
124, 8156, 8152, 8145, 8134, 8156, 8145, 8145, 8163, 8133, 8139, 8135, 8140, 8133, 8117,3.5998945236206055
125, 8154, 8161, 8193, 8139, 8159, 8163, 8144, 8178, 8126, 8143, 8131, 8144, 8132, 8128,3.6151206493377686
126, 8158, 8154, 8131, 8171, 8172, 8188, 8175, 8174, 8161, 8182, 8137, 8137, 8152, 8145,3.6151206493377686
127, 8165, 8157, 8195, 8177, 8172, 8202, 8187, 8175, 8156, 8182, 8126, 8141, 8145, 8149,3.630629539489746
236, 8171, 8166, 8168, 8186, 8184, 8203, 8209, 8175, 8166, 8193, 8137, 8150, 8151, 8157,3.6472389698028564
0, 8187, 8161, 8162, 8183, 8199, 8188, 8215, 8175, 8194, 8214, 8154, 8165, 8178, 8176,3.6472389698028564
1, 8187, 8167, 8214, 8166, 8184, 8183, 8196, 8179, 8200, 8208, 8152, 8176, 8188, 8182,3.6619935035705566
2, 8173, 8164, 8132, 8166, 8169, 8168, 8189, 8169, 8198, 8202, 8152, 8152, 8181, 8161,3.6619935035705566
3, 8185, 8171, 8188, 8158, 8169, 8169, 8177, 8175, 8186, 8183, 8155, 8165, 8176, 8156,3.6619935035705566
4, 8192, 8185, 8178, 8166, 8187, 8183, 8186, 8176, 8189, 8189, 8172, 8194, 8198, 8166,3.678654193878174
5, 8190, 8184, 8158, 8171, 8191, 8174, 8188, 8173, 8182, 8192, 8185, 8196, 8200, 8166,3.678654193878174
6, 8198, 8192, 8218, 8167, 8186, 8176, 8172, 8180, 8160, 8171, 8184, 8194, 8177, 8158,3.6935269832611084
7, 8189, 8184, 8147, 8186, 8191, 8177, 8173, 8165, 8158, 8169, 8172, 8170, 8163, 8139,3.7095019817352295
8, 8176, 8180, 8198, 8188, 8182, 8179, 8176, 8172, 8149, 8168, 8149, 8166, 8153, 8137,3.7095019817352295
9, 8177, 8184, 8189, 8197, 8185, 8194, 8198, 8180, 8158, 8184, 8159, 8169, 8165, 8157,3.7095019817352295
10, 8196, 8179, 8157, 8217, 8194, 8192, 8211, 8169, 8173, 8201, 8173, 8166, 8179, 8171,3.7255351543426514
11, 8206, 8184, 8231, 8214, 8182, 8196, 8211, 8174, 8171, 8202, 8164, 8187, 8180, 8179,3.7255351543426514
12, 8201, 8175, 8160, 8207, 8182, 8199, 8232, 8177, 8194, 8218, 8174, 8189, 8201, 8191,3.7401347160339355
13, 8213, 8170, 8196, 8185, 8190, 8200, 8233, 8184, 8209, 8216, 8174, 8191, 8213, 8208,3.7401347160339355
14, 8219, 8173, 8198, 8185, 8186, 8197, 8227, 8178, 8218, 8219, 8166, 8196, 8210, 8208,3.7562525272369385
15, 8215, 8169, 8149, 8188, 8172, 8173, 8202, 8166, 8212, 8217, 8176, 8198, 8208, 8196,3.772109031677246
16, 8219, 8184, 8223, 8177, 8171, 8166, 8172, 8177, 8191, 8198, 8192, 8191, 8210, 8199,3.772109031677246
17, 8216, 8188, 8162, 8192, 8188, 8168, 8189, 8168, 8198, 8210, 8199, 8114, 8221, 8202,3.772109031677246
18, 8216, 8184, 8192, 8182, 8187, 8166, 8198, 8167, 8192, 8207, 8189, 8059, 8216, 8199,3.786141872406006
19, 8221, 8193, 8214, 8183, 8186, 8168, 8196, 8173, 8184, 8197, 8198, 8063, 8209, 8190,3.801273822784424
20, 8227, 8196, 8163, 8210, 8195, 8159, 8200, 8168, 8182, 8197, 8213, 8053, 8214, 8185,3.801273822784424
21, 8229, 8207, 8234, 8215, 8196, 8175, 8196, 8181, 8169, 8188, 8208, 8047, 8217, 8196,3.8168911933898926
22, 8220, 8199, 8173, 8225, 8201, 8188, 8207, 8179, 8194, 8211, 8215, 8036, 8230, 8206,3.8168911933898926
23, 8221, 8192, 8189, 8226, 8201, 8189, 8210, 8179, 8204, 8227, 8211, 8025, 8222, 8208,3.832510471343994
24, 8217, 8202, 8215, 8229, 8197, 8198, 8207, 8178, 8182, 8209, 8185, 8006, 8200, 8195,3.832510471343994
25, 8200, 8187, 8148, 8224, 8191, 8182, 8201, 8161, 8170, 8188, 8163, 7979, 8189, 8172,3.8482205867767334
26, 8200, 8182, 8215, 8208, 8191, 8186, 8194, 8173, 8171, 8187, 8177, 7988, 8190, 8179,3.8482205867767334
27, 8205, 8181, 8165, 8224, 8204, 8194, 8205, 8173, 8184, 8212, 8202, 7986, 8202, 8194,3.864224433898926
28, 8211, 8176, 8171, 8224, 8192, 8181, 8188, 8168, 8170, 8197, 8184, 7987, 8198, 8194,3.864224433898926
29, 8228, 8194, 8220, 8228, 8196, 8203, 8204, 8182, 8189, 8207, 8194, 8018, 8215, 8213,3.8802201747894287
30, 8265, 8212, 8176, 8263, 8242, 8233, 8267, 8186, 8255, 8272, 8244, 8032, 8261, 8250,3.8802201747894287
31, 8288, 8232, 8250, 8274, 8262, 8241, 8274, 8194, 8267, 8282, 8251, 8052, 8271, 8269,3.895446538925171
32, 8272, 8222, 8198, 8280, 8249, 8231, 8263, 8181, 8260, 8274, 8249, 8052, 8268, 8261,3.895446538925171
33, 8267, 8206, 8187, 8269, 8244, 8224, 8269, 8179, 8265, 8284, 8254, 8045, 8276, 8253,3.9104840755462646
34, 8277, 8216, 8237, 8254, 8250, 8225, 8273, 8195, 8273, 8289, 8247, 8056, 8278, 8255,3.9104840755462646
35, 8262, 8213, 8160, 8262, 8245, 8201, 8264, 8182, 8273, 8278, 8242, 8041, 8265, 8247,3.9264683723449707
36, 8256, 8215, 8215, 8257, 8240, 8195, 8243, 8180, 8256, 8255, 8236, 8044, 8254, 8237,3.9264683723449707
37, 8263, 8214, 8178, 8258, 8245, 8198, 8250, 8179, 8271, 8271, 8240, 8047, 8274, 8233,3.9425809383392334
38, 8274, 8203, 8165, 8257, 8237, 8187, 8254, 8181, 8275, 8278, 8244, 8046, 8284, 8241,3.9425809383392334
39, 8280, 8215, 8235, 8261, 8237, 8196, 8254, 8187, 8250, 8255, 8249, 8065, 8270, 8252,3.9584414958953857
40, 8275, 8219, 8160, 8273, 8249, 8191, 8259, 8174, 8247, 8253, 8261, 8062, 8265, 8243,3.9584414958953857
41, 8279, 8220, 8209, 8249, 8238, 8176, 8238, 8182, 8230, 8241, 8256, 8069, 8255, 8231,3.9735488891601562
42, 8276, 8221, 8194, 8250, 8243, 8181, 8241, 8186, 8225, 8240, 8261, 8074, 8256, 8235,3.9735488891601562
43, 8280, 8220, 8175, 8271, 8256, 8185, 8245, 8181, 8233, 8245, 8274, 8078, 8265, 8247,3.989424228668213
44, 8291, 8231, 8246, 8268, 8244, 8186, 8221, 8185, 8232, 8242, 8271, 8096, 8261, 8248,3.989424228668213
45, 8282, 8221, 8164, 8261, 8237, 8171, 8215, 8174, 8236, 8247, 8264, 8075, 8258, 8233,4.004533290863037
46, 8278, 8219, 8210, 8248, 8239, 8169, 8212, 8183, 8218, 8229, 8255, 8069, 8251, 8230,4.004533290863037
47, 8281, 8236, 8218, 8280, 8252, 8190, 8227, 8185, 8219, 8232, 8257, 8073, 8253, 8236,4.027359962463379
48, 8278, 8234, 8175, 8316, 8271, 8198, 8242, 8173, 8231, 8251, 8247, 8061, 8256, 8237,4.027359962463379
49, 8270, 8226, 8227, 8292, 8266, 8205, 8234, 8185, 8221, 8252, 8243, 8070, 8249, 8243,4.027359962463379
50, 8260, 8210, 8159, 8269, 8252, 8195, 8230, 8176, 8221, 8253, 8254, 8060, 8240, 8237,4.035611152648926
51, 8254, 8212, 8202, 8263, 8241, 8189, 8219, 8171, 8206, 8219, 8216, 8044, 8215, 8213,4.05054783821106
52, 8250, 8214, 8206, 8275, 8243, 8203, 8237, 8180, 8213, 8220, 8187, 8044, 8217, 8213,4.05054783821106
53, 8268, 8198, 8157, 8268, 8239, 8200, 8261, 8181, 8242, 8267, 8215, 8051, 8250, 8243,4.066527843475342
54, 8292, 8203, 8225, 8250, 8236, 8204, 8255, 8187, 8247, 8271, 8228, 8068, 8267, 8261,4.066527843475342
55, 8279, 8202, 8159, 8263, 8249, 8207, 8257, 8181, 8250, 8264, 8217, 8056, 8262, 8248,4.082135438919067
56, 8263, 8200, 8190, 8255, 8249, 8203, 8253, 8183, 8242, 8258, 8208, 8054, 8243, 8238,4.082135438919067
57, 8261, 8197, 8211, 8248, 8240, 8200, 8247, 8186, 8250, 8258, 8218, 8067, 8248, 8244,4.097568035125732
58, 8266, 8190, 8156, 8251, 8233, 8181, 8235, 8176, 8262, 8254, 8228, 8070, 8259, 8245,4.097568035125732
59, 8282, 8212, 8230, 8240, 8233, 8184, 8223, 8184, 8250, 8249, 8229, 8092, 8252, 8247,4.11311936378479
60, 8283, 8217, 8173, 8256, 8250, 8190, 8238, 8180, 8258, 8260, 8239, 8094, 8259, 8245,4.11311936378479
61, 8286, 8206, 8192, 8259, 8252, 8180, 8228, 8178, 8257, 8240, 8240, 8097, 8254, 8242,4.1281983852386475
62, 8286, 8219, 8223, 8258, 8249, 8188, 8228, 8181, 8255, 8236, 8250, 8106, 8251, 8241,4.1281983852386475
63, 8273, 8218, 8155, 8257, 8258, 8190, 8244, 8174, 8253, 8248, 8257, 8095, 8253, 8235,4.144319772720337
64, 8266, 8222, 8224, 8248, 8255, 8188, 8235, 8186, 8230, 8227, 8247, 8102, 8241, 8231,4.144319772720337
65, 8267, 8232, 8177, 8270, 8254, 8186, 8239, 8179, 8235, 8230, 8257, 8096, 8248, 8228,4.159559488296509
66, 8276, 8234, 8190, 8282, 8265, 8194, 8244, 8177, 8240, 8246, 8259, 8095, 8254, 8227,4.159559488296509
67, 8268, 8233, 8232, 8288, 8274, 8214, 8251, 8189, 8244, 8260, 8248, 8106, 8250, 8236,4.175440073013306
68, 8253, 8219, 8160, 8301, 8271, 8201, 8261, 8180, 8259, 8273, 8249, 8090, 8257, 8240,4.175804853439331
69, 8258, 8228, 8225, 8285, 8272, 8203, 8253, 8187, 8249, 8259, 8245, 8101, 8255, 8242,4.19151496887207
70, 8253, 8226, 8177, 8286, 8283, 8220, 8261, 8183, 8252, 8262, 8238, 8101, 8248, 8237,4.19151496887207
71, 8253, 8212, 8169, 8283, 8270, 8211, 8261, 8179, 8266, 8273, 8238, 8096, 8254, 8240,4.207187652587891
72, 8266, 8219, 8223, 8269, 8253, 8207, 8253, 8188, 8282, 8274, 8254, 8118, 8274, 8254,4.207187652587891
73, 8264, 8213, 8148, 8260, 8260, 8194, 8247, 8176, 8284, 8273, 8260, 8111, 8278, 8245,4.222723484039307
74, 8252, 8207, 8202, 8227, 8251, 8174, 8214, 8172, 8241, 8246, 8240, 8110, 8257, 8225,4.222723484039307
75, 8244, 8203, 8171, 8223, 8245, 8168, 8206, 8170, 8225, 8236, 8238, 8113, 8254, 8211,4.238295555114746
76, 8248, 8197, 8161, 8230, 8248, 8172, 8213, 8174, 8236, 8242, 8243, 8108, 8257, 8207,4.238295555114746
77, 8254, 8216, 8222, 8226, 8248, 8185, 8211, 8186, 8241, 8242, 8242, 8118, 8257, 8214,4.254334449768066
78, 8255, 8224, 8152, 8238, 8253, 8175, 8209, 8176, 8242, 8250, 8257, 8123, 8266, 8215,4.254334449768066
79, 8263, 8220, 8211, 8229, 8237, 8165, 8188, 8177, 8219, 8233, 8263, 8141, 8263, 8211,4.269682884216309
80, 8255, 8208, 8191, 8225, 8222, 8163, 8177, 8173, 8220, 8225, 8253, 8134, 8258, 8205,4.269682884216309
81, 8252, 8208, 8167, 8234, 8228, 8163, 8181, 8168, 8228, 8230, 8246, 8126, 8256, 8211,4.285280704498291
82, 8260, 8226, 8230, 8236, 8236, 8183, 8187, 8180, 8219, 8233, 8254, 8142, 8257, 8220,4.285280704498291
83, 8254, 8213, 8150, 8237, 8236, 8178, 8204, 8174, 8232, 8241, 8266, 8126, 8261, 8215,4.301294803619385
84, 8257, 8208, 8204, 8222, 8234, 8176, 8207, 8181, 8235, 8223, 8256, 8132, 8253, 8212,4.301294803619385
85, 8255, 8225, 8210, 8228, 8246, 8198, 8219, 8186, 8245, 8234, 8258, 8148, 8257, 8214,4.317358493804932
86, 8249, 8230, 8165, 8245, 8248, 8197, 8220, 8177, 8251, 8252, 8263, 8138, 8259, 8216,4.317358493804932
87, 8249, 8236, 8223, 8242, 8238, 8191, 8204, 8184, 8231, 8228, 8242, 8137, 8238, 8209,4.333386182785034
88, 8240, 8223, 8157, 8234, 8243, 8184, 8203, 8179, 8231, 8225, 8226, 8120, 8231, 8195,4.333386182785034
89, 8233, 8209, 8197, 8208, 8237, 8179, 8195, 8182, 8227, 8228, 8215, 8113, 8226, 8195,4.349456548690796
90, 8222, 8204, 8196, 8214, 8224, 8190, 8207, 8181, 8233, 8237, 8205, 8110, 8219, 8199,4.349456548690796
91, 8218, 8190, 8138, 8223, 8222, 8191, 8226, 8172, 8242, 8243, 8188, 8087, 8214, 8191,4.365508317947388
92, 8218, 8188, 8204, 8189, 8219, 8204, 8221, 8179, 8232, 8234, 8165, 8087, 8204, 8183,4.365508317947388
93, 8206, 8175, 8138, 8182, 8214, 8201, 8218, 8168, 8239, 8241, 8153, 8081, 8207, 8182,4.381126880645752
94, 8214, 8171, 8167, 8185, 8204, 8179, 8206, 8174, 8233, 8232, 8150, 8097, 8216, 8193,4.381126880645752
95, 8241, 8193, 8203, 8194, 8214, 8186, 8220, 8189, 8244, 8233, 8183, 8138, 8231, 8221,4.396465301513672
96, 8259, 8206, 8159, 8205, 8231, 8189, 8236, 8175, 8268, 8244, 8206, 8149, 8242, 8226,4.396465301513672
97, 8254, 8216, 8224, 8200, 8232, 8183, 8213, 8176, 8253, 8229, 8191, 8148, 8234, 8210,4.412182807922363
98, 8234, 8209, 8163, 8217, 8233, 8173, 8214, 8178, 8256, 8232, 8195, 8127, 8226, 8192,4.412182807922363
99, 8228, 8203, 8178, 8220, 8228, 8172, 8212, 8179, 8256, 8216, 8179, 8111, 8199, 8178,4.427794933319092
100, 8226, 8209, 8201, 8220, 8225, 8187, 8207, 8179, 8236, 8197, 8153, 8107, 8181, 8175,4.427794933319092
101, 8220, 8196, 8132, 8223, 8226, 8182, 8217, 8171, 8231, 8209, 8155, 8098, 8187, 8180,4.444375991821289
102, 8216, 8190, 8208, 8208, 8221, 8191, 8213, 8185, 8227, 8209, 8149, 8110, 8182, 8187,4.444375991821289
103, 8207, 8180, 8161, 8213, 8222, 8200, 8222, 8180, 8238, 8220, 8139, 8102, 8185, 8192,4.460036039352417
104, 8203, 8167, 8151, 8200, 8208, 8184, 8223, 8170, 8238, 8219, 8127, 8099, 8186, 8195,4.460036039352417
105, 8204, 8172, 8187, 8174, 8198, 8177, 8218, 8174, 8244, 8207, 8124, 8117, 8186, 8192,4.4752278327941895
106, 8199, 8162, 8118, 8160, 8198, 8165, 8208, 8169, 8257, 8207, 8138, 8106, 8196, 8178,4.4752278327941895
107, 8205, 8164, 8184, 8143, 8183, 8162, 8186, 8178, 8238, 8194, 8142, 8111, 8188, 8175,4.491286039352417
108, 8208, 8179, 8156, 8165, 8189, 8167, 8192, 8179, 8235, 8191, 8149, 8110, 8181, 8175,4.491286039352417
109, 8207, 8187, 8155, 8177, 8207, 8172, 8195, 8180, 8235, 8187, 8148, 8105, 8176, 8173,4.506449937820435
110, 8215, 8202, 8208, 8182, 8215, 8191, 8200, 8187, 8238, 8197, 8146, 8125, 8179, 8182,4.506449937820435
111, 8222, 8203, 8143, 8216, 8221, 8187, 8223, 8180, 8249, 8217, 8153, 8121, 8184, 8187,4.522501468658447
112, 8209, 8195, 8207, 8209, 8219, 8186, 8210, 8187, 8220, 8202, 8141, 8114, 8166, 8177,4.522501468658447
113, 8183, 8176, 8171, 8187, 8220, 8200, 8209, 8180, 8218, 8207, 8129, 8096, 8161, 8169,4.537243127822876
114, 8191, 8167, 8148, 8185, 8221, 8198, 8229, 8175, 8235, 8218, 8131, 8094, 8175, 8176,4.537243127822876
115, 8209, 8183, 8213, 8199, 8214, 8204, 8239, 8189, 8231, 8219, 8147, 8124, 8191, 8196,4.553272247314453
116, 8207, 8176, 8142, 8211, 8205, 8204, 8243, 8181, 8241, 8239, 8160, 8122, 8202, 8206,4.553272247314453
117, 8214, 8177, 8193, 8185, 8200, 8206, 8235, 8186, 8245, 8236, 8151, 8124, 8195, 8207,4.5684404373168945
118, 8208, 8182, 8178, 8178, 8205, 8207, 8244, 8183, 8247, 8231, 8149, 8131, 8198, 8204,4.5684404373168945
119, 8206, 8174, 8150, 8193, 8202, 8190, 8242, 8173, 8244, 8232, 8156, 8132, 8203, 8209,4.58451247215271
120, 8222, 8183, 8215, 8196, 8205, 8201, 8235, 8185, 8246, 8232, 8161, 8151, 8200, 8220,4.58451247215271
121, 8220, 8184, 8142, 8195, 8219, 8203, 8250, 8181, 8268, 8249, 8173, 8148, 8215, 8218,4.600176572799683
122, 8215, 8183, 8191, 8175, 8219, 8182, 8236, 8183, 8256, 8231, 8183, 8161, 8225, 8217,4.600176572799683
123, 8208, 8183, 8190, 8171, 8214, 8171, 8219, 8179, 8240, 8205, 8184, 8160, 8217, 8202,4.616241455078125
124, 8198, 8174, 8144, 8159, 8200, 8159, 8201, 8162, 8219, 8189, 8165, 8133, 8191, 8173,4.616241455078125
125, 8198, 8183, 8214, 8141, 8188, 8158, 8181, 8173, 8196, 8176, 8156, 8144, 8173, 8171,4.6312830448150635
126, 8200, 8188, 8151, 8169, 8209, 8161, 8196, 8178, 8211, 8197, 8182, 8150, 8191, 8176,4.6312830448150635
127, 8205, 8197, 8195, 8187, 8223, 8172, 8197, 8184, 8219, 8211, 8192, 8154, 8207, 8173,4.64614725112915
236, 8200, 8206, 8204, 8188, 8215, 8178, 8193, 8184, 8229, 8220, 8195, 8160, 8208, 8174,4.662390232086182
0, 8192, 8190, 8143, 8190, 8210, 8160, 8196, 8173, 8224, 8215, 8188, 8150, 8198, 8174,4.662390232086182
1, 8197, 8194, 8217, 8183, 8206, 8169, 8194, 8176, 8194, 8191, 8171, 8156, 8181, 8168,4.662390232086182
2, 8196, 8194, 8161, 8192, 8209, 8178, 8204, 8168, 8199, 8194, 8177, 8146, 8181, 8158,4.677094459533691
3, 8191, 8181, 8177, 8183, 8200, 8172, 8196, 8171, 8194, 8182, 8167, 8135, 8169, 8161,4.69463849067688
4, 8184, 8184, 8192, 8182, 8194, 8182, 8198, 8178, 8187, 8174, 8149, 8136, 8163, 8171,4.695149183273315
5, 8185, 8186, 8139, 8189, 8207, 8184, 8212, 8174, 8201, 8189, 8160, 8135, 8169, 8175,4.695149183273315
6, 8197, 8194, 8212, 8184, 8215, 8191, 8206, 8185, 8198, 8189, 8171, 8152, 8166, 8177,4.70925235748291
7, 8190, 8185, 8164, 8204, 8214, 8196, 8209, 8177, 8199, 8201, 8171, 8144, 8175, 8181,4.70925235748291
8, 8186, 8174, 8181, 8203, 8199, 8191, 8212, 8176, 8198, 8205, 8168, 8144, 8182, 8193,4.726440668106079
9, 8195, 8182, 8205, 8198, 8197, 8191, 8216, 8190, 8205, 8204, 8178, 8164, 8182, 8199,4.726440668106079
10, 8195, 8178, 8134, 8204, 8202, 8182, 8211, 8182, 8211, 8198, 8169, 8144, 8167, 8188,4.740997314453125
11, 8186, 8175, 8202, 8179, 8192, 8190, 8191, 8177, 8199, 8176, 8144, 8132, 8147, 8176,4.757650136947632
12, 8177, 8165, 8162, 8175, 8194, 8199, 8204, 8170, 8211, 8188, 8155, 8135, 8159, 8175,4.757650136947632
13, 8194, 8168, 8170, 8186, 8203, 8197, 8218, 8178, 8219, 8206, 8170, 8151, 8177, 8190,4.757650136947632
14, 8207, 8183, 8214, 8195, 8206, 8208, 8220, 8186, 8222, 8214, 8175, 8166, 8184, 8209,4.77225399017334
15, 8195, 8165, 8141, 8198, 8202, 8200, 8218, 8170, 8229, 8219, 8182, 8152, 8189, 8205,4.7884039878845215
16, 8189, 8161, 8204, 8174, 8192, 8195, 8209, 8181, 8215, 8207, 8183, 8162, 8188, 8197,4.7884039878845215
17, 8192, 8169, 8175, 8170, 8191, 8199, 8223, 8184, 8232, 8220, 8194, 8167, 8190, 8203,4.80348539352417
18, 8200, 8167, 8168, 8174, 8191, 8187, 8218, 8178, 8243, 8224, 8198, 8166, 8185, 8206,4.80348539352417
19, 8198, 8175, 8213, 8177, 8186, 8175, 8194, 8184, 8228, 8207, 8193, 8182, 8186, 8204,4.818166494369507
20, 8200, 8172, 8138, 8183, 8182, 8161, 8197, 8173, 8237, 8213, 8206, 8182, 8201, 8202,4.818166494369507
21, 8216, 8176, 8202, 8166, 8171, 8162, 8189, 8174, 8225, 8202, 8211, 8199, 8200, 8203,4.833357810974121
22, 8216, 8180, 8182, 8175, 8171, 8169, 8188, 8176, 8210, 8197, 8210, 8199, 8199, 8197,4.833357810974121
23, 8212, 8179, 8162, 8185, 8170, 8164, 8182, 8173, 8214, 8204, 8215, 8189, 8204, 8195,4.84861159324646
24, 8209, 8184, 8219, 8171, 8163, 8164, 8174, 8182, 8223, 8199, 8215, 8198, 8203, 8196,4.84861159324646
25, 8200, 8171, 8141, 8167, 8164, 8154, 8182, 8173, 8225, 8198, 8216, 8192, 8201, 8184,4.864601135253906
26, 8204, 8175, 8197, 8164, 8165, 8156, 8168, 8179, 8197, 8179, 8215, 8199, 8188, 8177,4.864601135253906
27, 8198, 8189, 8188, 8173, 8171, 8170, 8166, 8180, 8190, 8178, 8221, 8200, 8179, 8177,4.879532337188721
28, 8197, 8183, 8150, 8178, 8168, 8159, 8164, 8169, 8189, 8180, 8217, 8196, 8178, 8177,4.879532337188721
29, 8218, 8198, 8228, 8190, 8168, 8158, 8157, 8181, 8181, 8176, 8223, 8226, 8185, 8186,4.894756555557251
30, 8222, 8203, 8175, 8224, 8182, 8161, 8170, 8180, 8197, 8201, 8243, 8229, 8203, 8196,4.894756555557251
31, 8217, 8196, 8214, 8216, 8180, 8166, 8163, 8177, 8188, 8193, 8225, 8216, 8186, 8198,4.909893989562988
32, 8214, 8195, 8202, 8219, 8180, 8179, 8165, 8174, 8182, 8185, 8211, 8208, 8169, 8196,4.909893989562988
33, 8207, 8185, 8156, 8231, 8190, 8176, 8175, 8170, 8191, 8201, 8217, 8204, 8176, 8194,4.925449848175049
34, 8202, 8192, 8227, 8216, 8193, 8186, 8180, 8180, 8194, 8201, 8210, 8213, 8176, 8194,4.925895929336548
35, 8196, 8192, 8157, 8224, 8192, 8190, 8193, 8172, 8203, 8204, 8201, 8193, 8174, 8185,4.940491676330566
36, 8190, 8181, 8180, 8208, 8185, 8181, 8185, 8178, 8183, 8190, 8187, 8187, 8164, 8176,4.940491676330566
37, 8183, 8176, 8184, 8199, 8186, 8192, 8192, 8182, 8179, 8193, 8185, 8194, 8166, 8178,4.95607590675354
38, 8184, 8174, 8137, 8215, 8190, 8192, 8206, 8170, 8197, 8210, 8190, 8184, 8176, 8178,4.95607590675354
39, 8188, 8183, 8211, 8212, 8187, 8194, 8199, 8178, 8188, 8208, 8186, 8195, 8169, 8182,4.971636056900024
40, 8182, 8171, 8151, 8210, 8193, 8196, 8207, 8173, 8196, 8219, 8194, 8189, 8172, 8189,4.971636056900024
41, 8188, 8168, 8179, 8199, 8189, 8198, 8200, 8173, 8198, 8216, 8193, 8192, 8173, 8191,4.986538410186768
42, 8200, 8181, 8195, 8203, 8186, 8207, 8195, 8177, 8194, 8219, 8193, 8212, 8185, 8193,4.986538410186768
43, 8210, 8177, 8134, 8217, 8191, 8191, 8200, 8168, 8198, 8229, 8203, 8215, 8209, 8202,5.002220153808594
44, 8219, 8185, 8208, 8200, 8183, 8182, 8185, 8175, 8191, 8209, 8199, 8232, 8206, 8208,5.002220153808594
45, 8212, 8180, 8141, 8186, 8180, 8174, 8176, 8169, 8194, 8210, 8194, 8230, 8199, 8198,5.018111705780029
46, 8213, 8173, 8156, 8176, 8180, 8162, 8168, 8172, 8195, 8214, 8202, 8231, 8205, 8201,5.018111705780029
47, 8230, 8196, 8202, 8191, 8184, 8171, 8173, 8182, 8202, 8215, 8229, 8254, 8222, 8216,5.034550905227661
48, 8233, 8200, 8133, 8208, 8186, 8164, 8170, 8168, 8200, 8207, 8238, 8250, 8220, 8204,5.034550905227661
49, 8226, 8200, 8197, 8191, 8179, 8160, 8138, 8176, 8173, 8182, 8221, 8250, 8199, 8186,5.050158739089966
50, 8221, 8203, 8161, 8204, 8189, 8170, 8148, 8179, 8185, 8194, 8233, 8239, 8206, 8190,5.050158739089966
51, 8230, 8202, 8164, 8212, 8195, 8177, 8169, 8177, 8197, 8207, 8238, 8229, 8211, 8194,5.066075801849365
52, 8226, 8203, 8201, 8201, 8195, 8186, 8174, 8177, 8190, 8197, 8219, 8231, 8199, 8185,5.066075801849365
53, 8204, 8190, 8126, 8211, 8202, 8186, 8182, 8166, 8183, 8193, 8200, 8203, 8185, 8170,5.080684661865234
54, 8207, 8187, 8185, 8214, 8201, 8199, 8185, 8180, 8172, 8193, 8187, 8203, 8175, 8176,5.080684661865234
55, 8207, 8176, 8149, 8213, 8199, 8203, 8200, 8178, 8192, 8211, 8191, 8211, 8184, 8191,5.096478223800659
56, 8193, 8153, 8133, 8184, 8184, 8180, 8198, 8167, 8196, 8205, 8179, 8200, 8181, 8189,5.096478223800659
57, 8184, 8155, 8176, 8154, 8161, 8172, 8180, 8177, 8183, 8183, 8160, 8191, 8163, 8169,5.1115148067474365
58, 8186, 8157, 8111, 8159, 8162, 8164, 8171, 8169, 8191, 8174, 8165, 8181, 8157, 8147,5.127455234527588
59, 8201, 8172, 8186, 8162, 8169, 8160, 8157, 8172, 8177, 8152, 8171, 8210, 8159, 8153,5.127455234527588
60, 8200, 8182, 8162, 8175, 8167, 8154, 8161, 8173, 8161, 8157, 8184, 8221, 8170, 8163,5.127455234527588
61, 8186, 8172, 8127, 8174, 8160, 8143, 8150, 8169, 8142, 8154, 8183, 8196, 8160, 8155,5.144580125808716
62, 8183, 8176, 8193, 8175, 8165, 8162, 8135, 8176, 8124, 8139, 8169, 8191, 8141, 8155,5.144580125808716
63, 8190, 8175, 8130, 8208, 8183, 8176, 8154, 8169, 8142, 8163, 8167, 8186, 8150, 8163,5.159186363220215
64, 8186, 8170, 8170, 8199, 8185, 8185, 8163, 8174, 8150, 8175, 8163, 8192, 8153, 8168,5.175109624862671
65, 8174, 8160, 8145, 8175, 8182, 8192, 8172, 8174, 8162, 8180, 8164, 8189, 8153, 8167,5.175109624862671
66, 8191, 8157, 8118, 8169, 8169, 8166, 8166, 8169, 8181, 8183, 8174, 8197, 8164, 8171,5.175109624862671
67, 8215, 8182, 8202, 8175, 8161, 8155, 8147, 8177, 8173, 8168, 8188, 8238, 8173, 8177,5.191524028778076
68, 8210, 8184, 8144, 8196, 8179, 8155, 8150, 8168, 8163, 8168, 8207, 8239, 8181, 8168,5.191524028778076
69, 8214, 8184, 8185, 8188, 8179, 8155, 8139, 8171, 8150, 8162, 8216, 8241, 8178, 8169,5.206073522567749
70, 8210, 8193, 8179, 8188, 8173, 8165, 8136, 8170, 8152, 8163, 8212, 8242, 8177, 8173,5.220202922821045
71, 8187, 8175, 8128, 8197, 8178, 8172, 8150, 8164, 8144, 8164, 8190, 8212, 8163, 8161,5.220202922821045
72, 8179, 8162, 8192, 8181, 8178, 8192, 8166, 8181, 8132, 8159, 8165, 8205, 8141, 8162,5.236255645751953
73, 8174, 8151, 8121, 8174, 8172, 8193, 8186, 8176, 8167, 8183, 8159, 8196, 8148, 8167,5.236255645751953
74, 8174, 8149, 8150, 8162, 8164, 8183, 8179, 8171, 8166, 8184, 8144, 8195, 8148, 8157,5.236255645751953
75, 8169, 8154, 8159, 8166, 8171, 8196, 8178, 8167, 8149, 8176, 8143, 8197, 8145, 8145,5.251810550689697
76, 8173, 8148, 8104, 8168, 8173, 8189, 8177, 8161, 8169, 8183, 8169, 8194, 8163, 8158,5.2694597244262695
77, 8196, 8161, 8186, 8151, 8161, 8173, 8148, 8178, 8171, 8169, 8189, 8234, 8180, 8180,5.2694597244262695
78, 8199, 8172, 8137, 8163, 8165, 8161, 8138, 8169, 8158, 8164, 8199, 8250, 8185, 8165,5.2694597244262695
79, 8191, 8175, 8157, 8164, 8167, 8150, 8124, 8165, 8134, 8153, 8193, 8241, 8173, 8145,5.283089637756348
80, 8193, 8181, 8184, 8168, 8161, 8149, 8114, 8176, 8137, 8157, 8200, 8244, 8175, 8150,5.298341274261475
81, 8197, 8177, 8127, 8188, 8163, 8142, 8121, 8169, 8152, 8174, 8213, 8245, 8185, 8152,5.298341274261475
82, 8189, 8188, 8198, 8182, 8164, 8156, 8123, 8174, 8142, 8163, 8199, 8254, 8171, 8149,5.313482046127319
83, 8178, 8186, 8145, 8190, 8170, 8167, 8141, 8172, 8153, 8172, 8193, 8236, 8158, 8147,5.313482046127319
84, 8184, 8174, 8152, 8191, 8173, 8162, 8149, 8171, 8160, 8183, 8179, 8221, 8150, 8151,5.329462289810181
85, 8184, 8181, 8185, 8190, 8169, 8171, 8152, 8177, 8172, 8194, 8168, 8227, 8153, 8165,5.329462289810181
86, 8186, 8177, 8119, 8203, 8166, 8171, 8166, 8175, 8194, 8209, 8171, 8222, 8167, 8178,5.345482110977173
87, 8193, 8171, 8190, 8185, 8159, 8174, 8169, 8179, 8179, 8193, 8160, 8226, 8167, 8176,5.345482110977173
88, 8182, 8164, 8144, 8174, 8159, 8168, 8175, 8167, 8176, 8193, 8157, 8215, 8169, 8163,5.360538005828857
89, 8190, 8165, 8142, 8171, 8160, 8157, 8159, 8165, 8185, 8201, 8166, 8226, 8175, 8165,5.360538005828857
90, 8210, 8179, 8198, 8169, 8165, 8166, 8150, 8178, 8191, 8202, 8178, 8254, 8191, 8177,5.37575364112854
91, 8199, 8171, 8127, 8161, 8166, 8160, 8151, 8169, 8195, 8198, 8189, 8244, 8196, 8165,5.37575364112854
92, 8192, 8171, 8179, 8146, 8161, 8154, 8128, 8172, 8167, 8172, 8181, 8247, 8171, 8147,5.391422510147095
93, 8197, 8177, 8146, 8169, 8173, 8154, 8132, 8171, 8148, 8163, 8180, 8241, 8162, 8142,5.391422510147095
94, 8193, 8175, 8134, 8182, 8169, 8144, 8132, 8167, 8134, 8148, 8178, 8222, 8159, 8140,5.406574249267578
95, 8184, 8188, 8187, 8184, 8166, 8157, 8118, 8174, 8125, 8141, 8165, 8227, 8148, 8139,5.406574249267578
96, 8179, 8182, 8119, 8206, 8190, 8170, 8136, 8165, 8144, 8170, 8161, 8217, 8154, 8142,5.422441244125366
97, 8180, 8172, 8177, 8200, 8201, 8184, 8150, 8173, 8140, 8168, 8151, 8212, 8155, 8148,5.422441244125366
98, 8157, 8161, 8140, 8189, 8190, 8191, 8162, 8173, 8139, 8169, 8146, 8200, 8153, 8140,5.4378602504730225
99, 8141, 8140, 8100, 8172, 8171, 8173, 8161, 8163, 8151, 8181, 8143, 8188, 8151, 8132,5.4378602504730225
100, 8154, 8147, 8170, 8157, 8164, 8173, 8152, 8172, 8159, 8183, 8139, 8204, 8155, 8145,5.453397512435913
101, 8161, 8151, 8105, 8164, 8171, 8168, 8155, 8168, 8177, 8190, 8147, 8197, 8169, 8149,5.453397512435913
102, 8168, 8157, 8151, 8147, 8162, 8151, 8137, 8169, 8175, 8175, 8149, 8203, 8166, 8143,5.46940016746521
103, 8171, 8165, 8141, 8145, 8155, 8147, 8137, 8166, 8178, 8172, 8152, 8214, 8166, 8140,5.46940016746521
104, 8173, 8160, 8109, 8149, 8160, 8144, 8136, 8165, 8167, 8173, 8153, 8208, 8161, 8140,5.4852988719940186
105, 8179, 8171, 8184, 8143, 8172, 8157, 8127, 8179, 8150, 8157, 8165, 8232, 8160, 8144,5.4852988719940186
106, 8177, 8178, 8125, 8163, 8189, 8164, 8150, 8169, 8166, 8174, 8186, 8235, 8179, 8143,5.500823974609375
107, 8172, 8182, 8164, 8165, 8184, 8168, 8155, 8170, 8163, 8183, 8176, 8219, 8168, 8141,5.500823974609375
108, 8161, 8182, 8162, 8170, 8175, 8174, 8145, 8175, 8158, 8184, 8167, 8205, 8149, 8140,5.516401767730713
109, 8162, 8176, 8122, 8184, 8174, 8173, 8150, 8169, 8165, 8189, 8164, 8196, 8156, 8137,5.516401767730713
110, 8167, 8181, 8192, 8173, 8170, 8190, 8155, 8178, 8167, 8183, 8140, 8196, 8156, 8140,5.532408952713013
111, 8151, 8157, 8113, 8153, 8166, 8191, 8162, 8168, 8189, 8190, 8127, 8171, 8150, 8137,5.532408952713013
112, 8146, 8144, 8135, 8121, 8165, 8173, 8151, 8162, 8193, 8180, 8127, 8178, 8149, 8130,5.548455715179443
113, 8159, 8165, 8159, 8122, 8172, 8166, 8146, 8165, 8196, 8173, 8138, 8205, 8157, 8134,5.548455715179443
114, 8169, 8175, 8118, 8152, 8177, 8158, 8140, 8164, 8201, 8167, 8150, 8208, 8161, 8144,5.564533948898315
115, 8174, 8193, 8196, 8163, 8176, 8169, 8128, 8178, 8187, 8155, 8153, 8225, 8155, 8142,5.564533948898315
116, 8169, 8193, 8142, 8176, 8188, 8179, 8145, 8170, 8196, 8177, 8161, 8215, 8159, 8134,5.58017635345459
117, 8165, 8178, 8159, 8169, 8188, 8179, 8146, 8168, 8191, 8176, 8143, 8196, 8146, 8139,5.58017635345459
118, 8151, 8171, 8173, 8164, 8172, 8189, 8148, 8173, 8179, 8164, 8122, 8188, 8132, 8140,5.595411777496338
119, 8137, 8153, 8100, 8163, 8164, 8173, 8157, 8158, 8188, 8171, 8126, 8173, 8142, 8130,5.595411777496338
120, 8143, 8146, 8166, 8131, 8156, 8162, 8140, 8165, 8187, 8158, 8126, 8183, 8148, 8129,5.610681533813477
121, 8144, 8145, 8115, 8130, 8155, 8158, 8132, 8163, 8191, 8147, 8125, 8179, 8151, 8127,5.610681533813477
122, 8146, 8151, 8130, 8139, 8154, 8146, 8120, 8161, 8176, 8135, 8132, 8180, 8146, 8117,5.6263720989227295
123, 8144, 8168, 8180, 8145, 8158, 8151, 8114, 8172, 8160, 8134, 8149, 8196, 8143, 8113,5.6263720989227295
124, 8142, 8172, 8116, 8169, 8170, 8153, 8125, 8167, 8165, 8147, 8154, 8193, 8144, 8109,5.642463445663452
125, 8153, 8183, 8187, 8178, 8169, 8171, 8127, 8170, 8162, 8149, 8137, 8200, 8141, 8119,5.642463445663452
126, 8153, 8174, 8147, 8188, 8168, 8184, 8143, 8168, 8168, 8167, 8128, 8184, 8144, 8133,5.6582183837890625
127, 8146, 8146, 8130, 8168, 8155, 8166, 8138, 8165, 8156, 8157, 8109, 8160, 8131, 8129,5.6582183837890625
236, 8138, 8145, 8168, 8138, 8141, 8158, 8122, 8166, 8144, 8139, 8095, 8170, 8121, 8123,5.673343896865845
0, 8134, 8139, 8099, 8132, 8135, 8146, 8119, 8149, 8150, 8151, 8112, 8171, 8129, 8111,5.673343896865845
1, 8148, 8145, 8166, 8116, 8126, 8143, 8099, 8154, 8132, 8132, 8126, 8183, 8127, 8102,5.688516616821289
2, 8156, 8161, 8140, 8127, 8134, 8149, 8101, 8159, 8137, 8125, 8143, 8191, 8136, 8107,5.688516616821289
3, 8157, 8168, 8132, 8139, 8137, 8141, 8105, 8160, 8140, 8131, 8150, 8196, 8139, 8116,5.704192638397217
4, 8157, 8175, 8187, 8132, 8132, 8148, 8103, 8167, 8128, 8125, 8148, 8210, 8136, 8118,5.704192638397217
5, 8151, 8165, 8113, 8140, 8151, 8157, 8118, 8159, 8145, 8140, 8161, 8205, 8146, 8116,5.719537973403931
6, 8159, 8178, 8175, 8152, 8168, 8172, 8122, 8173, 8145, 8144, 8160, 8216, 8139, 8121,5.719537973403931
7, 8154, 8191, 8156, 8171, 8168, 8179, 8131, 8175, 8142, 8136, 8145, 8205, 8126, 8109,5.735521554946899
8, 8134, 8168, 8120, 8152, 8154, 8165, 8123, 8160, 8140, 8116, 8123, 8177, 8117, 8092,5.735521554946899
9, 8130, 8158, 8177, 8126, 8143, 8172, 8109, 8169, 8129, 8105, 8109, 8183, 8110, 8099,5.750164747238159
10, 8135, 8160, 8111, 8151, 8148, 8178, 8123, 8166, 8136, 8124, 8111, 8177, 8119, 8110,5.76541543006897
11, 8141, 8169, 8168, 8155, 8148, 8181, 8128, 8170, 8133, 8123, 8113, 8178, 8121, 8115,5.76541543006897
12, 8143, 8174, 8165, 8165, 8152, 8185, 8139, 8171, 8142, 8135, 8132, 8189, 8135, 8116,5.76541543006897
13, 8152, 8171, 8129, 8192, 8161, 8177, 8139, 8165, 8155, 8150, 8137, 8188, 8149, 8126,5.7808427810668945
14, 8156, 8183, 8195, 8185, 8160, 8193, 8133, 8174, 8153, 8151, 8122, 8195, 8143, 8136,5.7808427810668945
15, 8135, 8165, 8117, 8169, 8153, 8194, 8142, 8163, 8161, 8167, 8124, 8174, 8144, 8124,5.7969934940338135
16, 8131, 8144, 8156, 8149, 8137, 8178, 8127, 8168, 8144, 8158, 8118, 8171, 8136, 8120,5.7969934940338135
17, 8145, 8150, 8170, 8151, 8134, 8180, 8126, 8171, 8144, 8153, 8118, 8191, 8140, 8143,5.811171293258667
18, 8149, 8147, 8119, 8141, 8132, 8165, 8127, 8156, 8154, 8152, 8128, 8191, 8154, 8151,5.829185485839844
19, 8135, 8147, 8174, 8111, 8120, 8157, 8103, 8163, 8133, 8123, 8112, 8190, 8142, 8132,5.829185485839844
20, 8118, 8137, 8104, 8121, 8125, 8156, 8113, 8162, 8140, 8120, 8102, 8172, 8134, 8114,5.829185485839844
21, 8130, 8141, 8144, 8126, 8128, 8151, 8119, 8163, 8150, 8128, 8113, 8181, 8138, 8117,5.8424293994903564
22, 8140, 8161, 8167, 8128, 8128, 8154, 8113, 8166, 8153, 8135, 8128, 8198, 8146, 8122,5.857563495635986
23, 8141, 8158, 8109, 8128, 8130, 8143, 8107, 8162, 8143, 8133, 8128, 8186, 8147, 8120,5.857563495635986
24, 8146, 8163, 8187, 8116, 8127, 8148, 8093, 8168, 8118, 8104, 8125, 8202, 8140, 8125,5.873618125915527
25, 8139, 8160, 8133, 8132, 8125, 8154, 8103, 8158, 8129, 8107, 8142, 8201, 8145, 8121,5.873618125915527
26, 8140, 8155, 8146, 8129, 8120, 8150, 8106, 8164, 8135, 8116, 8144, 8195, 8141, 8116,5.889204978942871
27, 8145, 8167, 8179, 8127, 8130, 8161, 8108, 8174, 8140, 8112, 8138, 8203, 8143, 8118,5.889204978942871
28, 8149, 8171, 8125, 8154, 8150, 8155, 8113, 8162, 8151, 8118, 8134, 8202, 8152, 8120,5.904361248016357
29, 8160, 8180, 8197, 8162, 8144, 8154, 8104, 8167, 8134, 8117, 8122, 8208, 8146, 8120,5.904361248016357
30, 8158, 8179, 8146, 8177, 8143, 8157, 8114, 8164, 8136, 8127, 8131, 8192, 8144, 8117,5.91949987411499
31, 8163, 8182, 8157, 8186, 8150, 8157, 8125, 8167, 8147, 8131, 8144, 8192, 8148, 8129,5.91949987411499
32, 8168, 8193, 8202, 8193, 8156, 8171, 8134, 8179, 8152, 8136, 8152, 8211, 8160, 8143,5.934595584869385
33, 8149, 8178, 8129, 8198, 8160, 8169, 8139, 8167, 8150, 8139, 8156, 8192, 8162, 8127,5.934595584869385
34, 8138, 8181, 8194, 8185, 8155, 8165, 8127, 8167, 8125, 8115, 8140, 8190, 8140, 8113,5.9502949714660645
35, 8140, 8185, 8160, 8201, 8155, 8163, 8139, 8163, 8128, 8119, 8140, 8196, 8139, 8122,5.9502949714660645
36, 8143, 8176, 8156, 8210, 8152, 8156, 8135, 8165, 8127, 8123, 8142, 8196, 8146, 8124,5.965467691421509
37, 8145, 8179, 8198, 8213, 8151, 8168, 8122, 8172, 8119, 8119, 8134, 8209, 8151, 8115,5.965467691421509
38, 8153, 8181, 8137, 8239, 8161, 8172, 8140, 8162, 8131, 8127, 8138, 8207, 8153, 8112,5.981439590454102
39, 8165, 8191, 8209, 8236, 8156, 8170, 8134, 8168, 8116, 8104, 8145, 8221, 8135, 8110,5.981439590454102
40, 8156, 8192, 8174, 8230, 8151, 8165, 8120, 8163, 8105, 8099, 8158, 8223, 8172, 8093,5.996141195297241
41, 8155, 8183, 8151, 8229, 8157, 8164, 8115, 8159, 8110, 8113, 8159, 8215, 8220, 8082,5.996141195297241
42, 8164, 8186, 8201, 8230, 8165, 8179, 8127, 8178, 8129, 8131, 8153, 8224, 8192, 8090,6.012273073196411
43, 8161, 8176, 8132, 8229, 8164, 8165, 8138, 8166, 8152, 8149, 8152, 8210, 8147, 8079,6.012273073196411
44, 8167, 8180, 8195, 8211, 8149, 8158, 8117, 8163, 8141, 8136, 8142, 8211, 8148, 8064,6.035520315170288
45, 8172, 8187, 8173, 8217, 8155, 8174, 8125, 8170, 8149, 8153, 8153, 8215, 8172, 8070,6.035520315170288
46, 8169, 8172, 8136, 8195, 8157, 8165, 8133, 8169, 8155, 8167, 8157, 8207, 8167, 8065,6.035520315170288
47, 8163, 8171, 8183, 8151, 8135, 8149, 8111, 8166, 8124, 8137, 8147, 8215, 8154, 8042,6.043221712112427
48, 8157, 8163, 8111, 8143, 8124, 8137, 8102, 8155, 8107, 8123, 8150, 8208, 8154, 8021,6.05920147895813
49, 8161, 8157, 8166, 8132, 8126, 8146, 8102, 8164, 8103, 8113, 8150, 8210, 8148, 8018,6.05920147895813
50, 8153, 8161, 8158, 8127, 8134, 8164, 8124, 8167, 8124, 8120, 8149, 8211, 8143, 8016,6.074443578720093
51, 8143, 8153, 8113, 8119, 8132, 8154, 8129, 8163, 8129, 8123, 8145, 8201, 8135, 8003,6.074443578720093
52, 8142, 8157, 8175, 8103, 8127, 8153, 8114, 8176, 8111, 8103, 8133, 8202, 8126, 7989,6.089679002761841
53, 8145, 8164, 8118, 8121, 8137, 8157, 8129, 8167, 8130, 8113, 8143, 8194, 8135, 7993,6.089679002761841
54, 8164, 8180, 8170, 8130, 8141, 8157, 8127, 8170, 8139, 8124, 8157, 8213, 8145, 8015,6.1050989627838135
55, 8168, 8188, 8178, 8137, 8144, 8162, 8114, 8173, 8124, 8127, 8165, 8221, 8150, 8022,6.1050989627838135
56, 8161, 8181, 8134, 8156, 8152, 8161, 8117, 8162, 8118, 8132, 8167, 8212, 8153, 8019,6.120684862136841
57, 8173, 8201, 8217, 8161, 8160, 8174, 8129, 8175, 8131, 8134, 8171, 8239, 8156, 8036,6.136770248413086
58, 8177, 8197, 8151, 8172, 8167, 8176, 8141, 8174, 8151, 8146, 8174, 8226, 8157, 8035,6.136770248413086
59, 8168, 8179, 8163, 8169, 8162, 8171, 8128, 8172, 8136, 8133, 8146, 8201, 8132, 8010,6.136770248413086
60, 8153, 8182, 8181, 8161, 8165, 8177, 8139, 8176, 8147, 8138, 8133, 8207, 8126, 7996,6.152438640594482
61, 8134, 8168, 8115, 8143, 8170, 8173, 8161, 8168, 8174, 8149, 8125, 8183, 8124, 7982,6.152438640594482
62, 8114, 8150, 8162, 8110, 8155, 8181, 8158, 8173, 8159, 8132, 8085, 8154, 8096, 7963,6.16817045211792
63, 8102, 8133, 8107, 8114, 8148, 8183, 8173, 8165, 8169, 8148, 8074, 8147, 8101, 7962,6.16817045211792
64, 8110, 8134, 8135, 8102, 8139, 8172, 8168, 8169, 8179, 8161, 8087, 8168, 8121, 7978,6.184194087982178
65, 8107, 8143, 8158, 8086, 8131, 8177, 8152, 8179, 8173, 8159, 8096, 8172, 8127, 7980,6.184194087982178
66, 8100, 8129, 8087, 8093, 8132, 8162, 8150, 8167, 8184, 8166, 8099, 8151, 8132, 7971,6.199737787246704
67, 8117, 8137, 8166, 8088, 8130, 8146, 8137, 8171, 8182, 8153, 8100, 8178, 8138, 7982,6.199737787246704
68, 8132, 8150, 8135, 8098, 8135, 8142, 8132, 8166, 8176, 8152, 8119, 8204, 8150, 7992,6.216292142868042
69, 8136, 8147, 8142, 8094, 8129, 8136, 8111, 8165, 8160, 8139, 8139, 8211, 8152, 7992,6.216292142868042
70, 8131, 8145, 8169, 8085, 8118, 8143, 8094, 8172, 8156, 8128, 8137, 8209, 8156, 7993,6.230932950973511
71, 8126, 8134, 8101, 8089, 8124, 8141, 8101, 8160, 8162, 8134, 8118, 8186, 8154, 7986,6.231932878494263
72, 8139, 8149, 8186, 8083, 8137, 8152, 8100, 8170, 8150, 8124, 8111, 8203, 8135, 7982,6.246388673782349
73, 8137, 8160, 8152, 8100, 8148, 8162, 8114, 8170, 8159, 8125, 8122, 8199, 8125, 7972,6.246388673782349
74, 8117, 8151, 8128, 8109, 8146, 8161, 8117, 8162, 8150, 8114, 8100, 8168, 8104, 7948,6.2614336013793945
75, 8106, 8156, 8171, 8105, 8151, 8184, 8123, 8170, 8139, 8109, 8084, 8169, 8090, 7942,6.280060291290283
76, 8103, 8155, 8106, 8110, 8167, 8189, 8144, 8166, 8158, 8132, 8101, 8160, 8102, 7943,6.280060291290283
77, 8103, 8163, 8174, 8107, 8169, 8190, 8144, 8166, 8153, 8126, 8098, 8157, 8096, 7935,6.280060291290283
78, 8096, 8163, 8147, 8129, 8172, 8200, 8162, 8163, 8161, 8142, 8103, 8160, 8098, 7941,6.2921998500823975
79, 8097, 8148, 8125, 8135, 8176, 8195, 8181, 8173, 8177, 8175, 8126, 8169, 8125, 7964,6.293201446533203
80, 8102, 8155, 8180, 8121, 8171, 8199, 8171, 8188, 8175, 8175, 8141, 8184, 8135, 7972,6.308837175369263
81, 8096, 8153, 8113, 8136, 8165, 8194, 8163, 8168, 8183, 8170, 8140, 8168, 8128, 7965,6.325058937072754
82, 8102, 8150, 8172, 8127, 8155, 8190, 8156, 8168, 8173, 8160, 8123, 8172, 8124, 7975,6.325058937072754
83, 8107, 8143, 8150, 8117, 8158, 8197, 8166, 8175, 8169, 8166, 8126, 8179, 8139, 7989,6.3390913009643555
84, 8115, 8131, 8117, 8111, 8158, 8195, 8169, 8170, 8175, 8170, 8130, 8179, 8141, 7993,6.3390913009643555
85, 8131, 8146, 8192, 8107, 8147, 8193, 8158, 8173, 8178, 8164, 8124, 8199, 8136, 8006,6.356238603591919
86, 8136, 8149, 8129, 8128, 8149, 8180, 8166, 8168, 8196, 8183, 8139, 8199, 8154, 8019,6.356238603591919
87, 8142, 8151, 8170, 8130, 8149, 8178, 8160, 8174, 8196, 8187, 8141, 8202, 8157, 8022,6.356238603591919
88, 8142, 8161, 8162, 8137, 8155, 8190, 8165, 8170, 8200, 8190, 8133, 8200, 8153, 8013,6.372254848480225
89, 8134, 8152, 8123, 8137, 8160, 8186, 8167, 8158, 8202, 8185, 8130, 8182, 8149, 8002,6.372254848480225
90, 8119, 8146, 8183, 8120, 8156, 8184, 8156, 8164, 8179, 8161, 8114, 8177, 8126, 7986,6.389100790023804
91, 8098, 8134, 8102, 8126, 8152, 8171, 8168, 8154, 8164, 8156, 8097, 8149, 8114, 7960,6.389100790023804
92, 8098, 8134, 8134, 8112, 8143, 8169, 8162, 8157, 8152, 8143, 8087, 8145, 8110, 7962,6.402231454849243
93, 8108, 8141, 8148, 8105, 8148, 8185, 8168, 8166, 8173, 8152, 8103, 8162, 8125, 7978,6.417370557785034
94, 8110, 8134, 8102, 8119, 8154, 8167, 8174, 8166, 8188, 8162, 8123, 8158, 8143, 7975,6.417370557785034
95, 8104, 8137, 8169, 8110, 8138, 8151, 8150, 8178, 8166, 8140, 8122, 8172, 8138, 7968,6.433433532714844
96, 8100, 8136, 8106, 8113, 8136, 8144, 8152, 8166, 8178, 8147, 8128, 8178, 8140, 7970,6.433433532714844
97, 8122, 8144, 8143, 8124, 8148, 8136, 8153, 8165, 8188, 8163, 8139, 8191, 8152, 7983,6.450530767440796
98, 8138, 8156, 8173, 8135, 8150, 8137, 8144, 8176, 8181, 8164, 8154, 8205, 8167, 7996,6.450530767440796
99, 8143, 8147, 8120, 8131, 8142, 8129, 8139, 8169, 8167, 8155, 8166, 8207, 8173, 8002,6.450530767440796
100, 8153, 8156, 8196, 8115, 8138, 8142, 8136, 8175, 8138, 8138, 8159, 8229, 8164, 8011,6.465064287185669
101, 8148, 8156, 8138, 8125, 8152, 8148, 8141, 8165, 8142, 8144, 8153, 8210, 8165, 8000,6.480088949203491
102, 8139, 8152, 8146, 8122, 8153, 8133, 8122, 8160, 8140, 8130, 8141, 8190, 8152, 7978,6.480088949203491
103, 8137, 8176, 8185, 8133, 8150, 8142, 8117, 8169, 8134, 8123, 8146, 8206, 8143, 7984,6.4954047203063965
104, 8136, 8176, 8122, 8149, 8156, 8148, 8127, 8159, 8135, 8138, 8145, 8194, 8143, 7989,6.4954047203063965
105, 8127, 8161, 8178, 8127, 8154, 8147, 8116, 8156, 8108, 8111, 8116, 8172, 8119, 7972,6.510756969451904
106, 8103, 8150, 8132, 8133, 8157, 8150, 8119, 8151, 8098, 8100, 8119, 8151, 8102, 7957,6.510756969451904
107, 8096, 8151, 8134, 8145, 8156, 8160, 8126, 8157, 8101, 8113, 8132, 8154, 8105, 7962,6.526121139526367
108, 8109, 8162, 8173, 8140, 8155, 8179, 8143, 8171, 8114, 8128, 8130, 8174, 8113, 7970,6.526121139526367
109, 8106, 8152, 8108, 8140, 8153, 8167, 8148, 8162, 8126, 8134, 8124, 8154, 8111, 7964,6.542201995849609
110, 8096, 8154, 8175, 8138, 8141, 8148, 8120, 8163, 8105, 8115, 8113, 8150, 8097, 7965,6.542201995849609
111, 8099, 8161, 8148, 8161, 8148, 8152, 8131, 8161, 8117, 8133, 8125, 8166, 8108, 7977,6.557362079620361
112, 8118, 8162, 8148, 8166, 8155, 8161, 8153, 8166, 8146, 8165, 8147, 8177, 8127, 7993,6.557362079620361
113, 8133, 8166, 8194, 8157, 8154, 8179, 8160, 8178, 8157, 8178, 8159, 8191, 8141, 8014,6.572502851486206
114, 8127, 8149, 8118, 8166, 8157, 8175, 8163, 8166, 8159, 8177, 8159, 8188, 8147, 8020,6.572502851486206
115, 8131, 8154, 8189, 8161, 8153, 8173, 8150, 8173, 8156, 8163, 8157, 8206, 8140, 8028,6.588551044464111
116, 8152, 8166, 8172, 8164, 8152, 8171, 8161, 8174, 8184, 8187, 8184, 8223, 8162, 8048,6.588551044464111
117, 8175, 8163, 8150, 8157, 8151, 8150, 8160, 8165, 8196, 8204, 8209, 8236, 8185, 8065,6.604562520980835
118, 8181, 8176, 8204, 8150, 8152, 8153, 8148, 8174, 8186, 8187, 8210, 8258, 8184, 8069,6.604562520980835
119, 8166, 8180, 8133, 8165, 8157, 8150, 8161, 8171, 8182, 8176, 8205, 8237, 8179, 8052,6.620117902755737
120, 8167, 8181, 8186, 8156, 8149, 8151, 8152, 8173, 8153, 8153, 8194, 8222, 8153, 8027,6.620117902755737
121, 8170, 8179, 8166, 8152, 8153, 8168, 8147, 8167, 8158, 8152, 8191, 8215, 8135, 8018,6.63616681098938
122, 8177, 8176, 8140, 8155, 8163, 8168, 8153, 8165, 8180, 8163, 8190, 8217, 8148, 8033,6.63616681098938
123, 8180, 8184, 8210, 8148, 8150, 8163, 8146, 8174, 8160, 8155, 8188, 8232, 8150, 8041,6.6521875858306885
124, 8161, 8178, 8129, 8157, 8144, 8152, 8137, 8164, 8148, 8154, 8180, 8206, 8135, 8021,6.6521875858306885
125, 8149, 8176, 8168, 8150, 8149, 8151, 8128, 8174, 8141, 8140, 8155, 8194, 8117, 8009,6.667380332946777
126, 8137, 8172, 8165, 8145, 8149, 8158, 8141, 8176, 8137, 8134, 8159, 8193, 8114, 8010,6.667380332946777
127, 8139, 8165, 8129, 8152, 8144, 8158, 8149, 8160, 8135, 8134, 8180, 8193, 8114, 8013,6.6834447383880615
236, 8165, 8191, 8215, 8163, 8155, 8172, 8151, 8171, 8133, 8124, 8185, 8221, 8123, 8030,6.6834447383880615
0, 8173, 8199, 8154, 8184, 8178, 8174, 8167, 8170, 8142, 8134, 8193, 8224, 8149, 8048,6.699504613876343
1, 8163, 8179, 8176, 8166, 8164, 8172, 8153, 8171, 8127, 8122, 8189, 8217, 8146, 8054,6.699504613876343
2, 8148, 8166, 8179, 8152, 8145, 8182, 8155, 8174, 8135, 8121, 8179, 8207, 8134, 8049,6.715088605880737
3, 8149, 8158, 8133, 8162, 8151, 8177, 8187, 8168, 8165, 8153, 8184, 8198, 8148, 8054,6.715088605880737
4, 8163, 8168, 8208, 8158, 8161, 8188, 8200, 8177, 8180, 8167, 8192, 8224, 8165, 8073,6.731120586395264
5, 8158, 8158, 8142, 8149, 8157, 8190, 8199, 8169, 8197, 8166, 8193, 8219, 8166, 8071,6.731120586395264
6, 8153, 8147, 8155, 8115, 8139, 8167, 8175, 8163, 8178, 8139, 8180, 8212, 8148, 8056,6.747179985046387
7, 8153, 8168, 8179, 8113, 8145, 8164, 8164, 8167, 8160, 8128, 8188, 8230, 8154, 8053,6.747179985046387
8, 8157, 8178, 8131, 8133, 8160, 8158, 8162, 8169, 8171, 8128, 8198, 8221, 8154, 8046,6.763039588928223
9, 8164, 8181, 8206, 8121, 8156, 8158, 8154, 8186, 8172, 8113, 8180, 8219, 8132, 8044,6.763039588928223
10, 8154, 8178, 8153, 8134, 8163, 8170, 8179, 8181, 8187, 8128, 8179, 8212, 8135, 8047,6.778565406799316
11, 8142, 8174, 8162, 8142, 8171, 8180, 8189, 8180, 8186, 8134, 8179, 8204, 8132, 8049,6.778565406799316
12, 8133, 8165, 8187, 8129, 8161, 8186, 8183, 8185, 8173, 8130, 8163, 8201, 8122, 8050,6.794517278671265
13, 8134, 8135, 8120, 8124, 8144, 8172, 8188, 8169, 8164, 8137, 8149, 8182, 8124, 8052,6.794517278671265
14, 8149, 8137, 8195, 8116, 8137, 8175, 8184, 8176, 8150, 8122, 8143, 8194, 8120, 8069,6.810080528259277
15, 8163, 8151, 8156, 8126, 8152, 8179, 8192, 8177, 8171, 8131, 8157, 8208, 8126, 8085,6.810080528259277
16, 8180, 8152, 8160, 8118, 8152, 8164, 8184, 8175, 8190, 8142, 8165, 8220, 8139, 8092,6.825604200363159
17, 8191, 8158, 8205, 8104, 8140, 8163, 8175, 8178, 8197, 8140, 8177, 8244, 8157, 8100,6.825604200363159
18, 8194, 8165, 8142, 8116, 8147, 8156, 8179, 8165, 8203, 8146, 8203, 8248, 8170, 8105,6.8413097858428955
19, 8196, 8184, 8209, 8117, 8153, 8155, 8157, 8168, 8165, 8125, 8200, 8253, 8150, 8095,6.8413097858428955
20, 8185, 8177, 8174, 8123, 8157, 8157, 8150, 8165, 8137, 8114, 8189, 8236, 8134, 8072,6.857407808303833
21, 8177, 8158, 8164, 8130, 8158, 8155, 8161, 8164, 8132, 8117, 8187, 8223, 8131, 8074,6.857407808303833
22, 8172, 8171, 8209, 8147, 8163, 8178, 8180, 8173, 8140, 8133, 8185, 8227, 8134, 8092,6.872652769088745
23, 8154, 8163, 8124, 8160, 8175, 8190, 8198, 8166, 8173, 8168, 8187, 8206, 8150, 8092,6.872652769088745
24, 8148, 8145, 8176, 8125, 8159, 8185, 8190, 8180, 8200, 8181, 8185, 8217, 8162, 8092,6.887807607650757
25, 8145, 8141, 8154, 8111, 8147, 8173, 8191, 8184, 8232, 8193, 8190, 8235, 8170, 8097,6.887807607650757
26, 8149, 8153, 8134, 8121, 8154, 8153, 8183, 8175, 8231, 8184, 8199, 8233, 8166, 8090,6.903485298156738
27, 8150, 8174, 8195, 8123, 8154, 8157, 8164, 8180, 8194, 8157, 8210, 8236, 8158, 8074,6.903485298156738
28, 8133, 8161, 8119, 8126, 8151, 8153, 8155, 8170, 8173, 8144, 8206, 8213, 8143, 8049,6.919215679168701
29, 8133, 8160, 8169, 8121, 8153, 8159, 8144, 8173, 8145, 8120, 8182, 8213, 8120, 8049,6.919215679168701
30, 8143, 8176, 8169, 8149, 8166, 8184, 8166, 8176, 8138, 8126, 8190, 8220, 8130, 8075,6.934296369552612
31, 8137, 8167, 8137, 8157, 8165, 8184, 8175, 8165, 8127, 8127, 8187, 8201, 8132, 8076,6.934296369552612
32, 8129, 8160, 8197, 8141, 8157, 8182, 8160, 8167, 8114, 8110, 8159, 8199, 8110, 8065,6.950248956680298
33, 8141, 8160, 8137, 8170, 8171, 8176, 8177, 8163, 8141, 8140, 8170, 8201, 8124, 8078,6.950248956680298
34, 8162, 8166, 8187, 8173, 8173, 8175, 8179, 8170, 8138, 8150, 8178, 8217, 8136, 8092,6.965603590011597
35, 8152, 8157, 8175, 8148, 8162, 8180, 8163, 8164, 8118, 8131, 8162, 8209, 8128, 8084,6.965603590011597
36, 8134, 8138, 8119, 8128, 8153, 8161, 8155, 8152, 8119, 8123, 8150, 8185, 8128, 8077,6.9815802574157715
37, 8140, 8157, 8191, 8123, 8155, 8162, 8163, 8166, 8131, 8134, 8155, 8206, 8138, 8086,6.9815802574157715
38, 8142, 8158, 8132, 8133, 8162, 8168, 8181, 8165, 8162, 8165, 8178, 8213, 8156, 8087,6.997608661651611
39, 8130, 8141, 8159, 8110, 8146, 8152, 8150, 8166, 8157, 8152, 8170, 8207, 8146, 8077,6.997608661651611
40, 8126, 8156, 8163, 8112, 8142, 8152, 8141, 8173, 8152, 8133, 8163, 8216, 8138, 8074,7.013206958770752
41, 8147, 8173, 8118, 8143, 8165, 8164, 8168, 8174, 8175, 8153, 8190, 8233, 8159, 8082,7.013206958770752
42, 8153, 8179, 8203, 8142, 8174, 8174, 8162, 8182, 8171, 8154, 8208, 8249, 8162, 8084,7.028452396392822
43, 8137, 8172, 8149, 8143, 8175, 8159, 8153, 8173, 8162, 8144, 8203, 8227, 8149, 8073,7.028452396392822
44, 8147, 8181, 8169, 8139, 8178, 8152, 8146, 8173, 8151, 8135, 8190, 8227, 8145, 8073,7.044434070587158
45, 8151, 8192, 8189, 8140, 8180, 8163, 8144, 8174, 8143, 8136, 8188, 8237, 8156, 8079,7.044434070587158
46, 8127, 8169, 8126, 8146, 8165, 8144, 8137, 8160, 8130, 8129, 8181, 8207, 8143, 8069,7.059748411178589
47, 8126, 8164, 8195, 8135, 8153, 8147, 8126, 8172, 8105, 8114, 8157, 8198, 8115, 8066,7.059748411178589
48, 8130, 8160, 8146, 8142, 8167, 8169, 8147, 8171, 8116, 8134, 8154, 8193, 8125, 8076,7.0757153034210205
49, 8133, 8147, 8156, 8144, 8166, 8170, 8159, 8167, 8122, 8136, 8151, 8191, 8130, 8087,7.0757153034210205
50, 8137, 8147, 8183, 8135, 8147, 8168, 8158, 8171, 8113, 8127, 8143, 8193, 8119, 8088,7.091433763504028
51, 8132, 8140, 8114, 8129, 8141, 8164, 8163, 8162, 8129, 8147, 8148, 8177, 8124, 8091,7.091433763504028
52, 8127, 8148, 8181, 8114, 8144, 8176, 8166, 8175, 8150, 8160, 8149, 8192, 8131, 8109,7.107084274291992
53, 8121, 8145, 8134, 8119, 8153, 8174, 8181, 8173, 8171, 8173, 8151, 8193, 8134, 8102,7.107084274291992
54, 8124, 8135, 8137, 8106, 8145, 8155, 8170, 8168, 8161, 8158, 8142, 8185, 8125, 8082,7.122543573379517
55, 8128, 8143, 8184, 8091, 8138, 8161, 8154, 8177, 8158, 8148, 8142, 8193, 8128, 8085,7.122543573379517
56, 8129, 8148, 8114, 8112, 8146, 8154, 8159, 8171, 8179, 8169, 8159, 8187, 8149, 8088,7.13811182975769
57, 8146, 8167, 8191, 8120, 8148, 8149, 8157, 8178, 8172, 8160, 8177, 8208, 8151, 8090,7.13811182975769
58, 8152, 8172, 8168, 8129, 8157, 8156, 8157, 8174, 8167, 8150, 8197, 8218, 8147, 8089,7.153527498245239
59, 8146, 8160, 8149, 8125, 8159, 8146, 8138, 8163, 8154, 8142, 8191, 8210, 8142, 8082,7.153527498245239
60, 8142, 8169, 8204, 8122, 8154, 8152, 8129, 8165, 8140, 8143, 8181, 8219, 8143, 8081,7.169584512710571
61, 8140, 8170, 8140, 8141, 8163, 8163, 8156, 8165, 8159, 8163, 8194, 8209, 8152, 8085,7.169584512710571
62, 8142, 8169, 8193, 8138, 8164, 8172, 8160, 8177, 8153, 8154, 8188, 8204, 8138, 8087,7.184609889984131
63, 8135, 8160, 8163, 8143, 8165, 8177, 8167, 8170, 8141, 8155, 8174, 8194, 8133, 8086,7.184609889984131
64, 8136, 8144, 8134, 8137, 8165, 8167, 8170, 8163, 8142, 8170, 8167, 8186, 8143, 8095,7.201140880584717
65, 8145, 8151, 8195, 8120, 8150, 8164, 8158, 8177, 8155, 8179, 8165, 8204, 8154, 8114,7.201140880584717
66, 8138, 8145, 8122, 8119, 8140, 8151, 8152, 8163, 8171, 8183, 8168, 8195, 8163, 8109,7.216217756271362
67, 8130, 8141, 8168, 8095, 8135, 8142, 8128, 8159, 8140, 8152, 8166, 8192, 8153, 8091,7.216217756271362
68, 8134, 8156, 8159, 8105, 8143, 8145, 8128, 8168, 8129, 8148, 8183, 8203, 8156, 8090,7.232851982116699
69, 8145, 8169, 8133, 8128, 8149, 8138, 8138, 8169, 8140, 8158, 8195, 8205, 8161, 8095,7.232851982116699
70, 8145, 8182, 8200, 8115, 8142, 8146, 8127, 8174, 8125, 8133, 8175, 8201, 8138, 8090,7.247153282165527
71, 8138, 8175, 8127, 8121, 8146, 8155, 8147, 8163, 8132, 8133, 8167, 8176, 8126, 8087,7.247153282165527
72, 8152, 8178, 8175, 8140, 8162, 8176, 8180, 8172, 8144, 8154, 8174, 8188, 8135, 8105,7.263436317443848
73, 8156, 8184, 8177, 8158, 8180, 8207, 8214, 8182, 8164, 8186, 8179, 8196, 8151, 8123,7.263436317443848
74, 8147, 8160, 8123, 8142, 8173, 8193, 8219, 8174, 8184, 8197, 8168, 8172, 8147, 8120,7.278595685958862
75, 8163, 8161, 8197, 8119, 8165, 8179, 8207, 8183, 8191, 8186, 8164, 8192, 8145, 8127,7.278595685958862
76, 8172, 8171, 8146, 8144, 8178, 8177, 8213, 8178, 8208, 8202, 8182, 8206, 8166, 8142,7.293267011642456
77, 8163, 8165, 8174, 8136, 8171, 8174, 8193, 8174, 8190, 8189, 8175, 8198, 8157, 8134,7.30843448638916
78, 8148, 8157, 8170, 8112, 8160, 8167, 8174, 8170, 8166, 8163, 8165, 8193, 8141, 8113,7.30843448638916
79, 8150, 8159, 8120, 8114, 8164, 8145, 8164, 8161, 8153, 8148, 8176, 8197, 8144, 8110,7.325151205062866
80, 8164, 8181, 8208, 8119, 8164, 8150, 8150, 8175, 8131, 8129, 8186, 8226, 8143, 8117,7.325151205062866
81, 8166, 8181, 8155, 8142, 8174, 8161, 8164, 8174, 8137, 8146, 8205, 8229, 8155, 8117,7.340561866760254
82, 8172, 8183, 8176, 8154, 8184, 8165, 8174, 8177, 8141, 8156, 8207, 8224, 8157, 8128,7.341561794281006
83, 8173, 8196, 8208, 8162, 8193, 8186, 8187, 8185, 8151, 8164, 8205, 8229, 8157, 8145,7.341561794281006
84, 8163, 8182, 8147, 8175, 8201, 8186, 8202, 8178, 8169, 8188, 8208, 8216, 8165, 8143,7.356460332870483
85, 8148, 8173, 8205, 8157, 8188, 8177, 8187, 8179, 8150, 8175, 8191, 8212, 8155, 8130,7.356460332870483
86, 8129, 8160, 8146, 8151, 8178, 8177, 8186, 8165, 8140, 8170, 8185, 8194, 8152, 8119,7.373174428939819
87, 8134, 8153, 8159, 8151, 8175, 8181, 8187, 8168, 8144, 8182, 8185, 8189, 8155, 8123,7.373174428939819
88, 8144, 8160, 8195, 8143, 8169, 8185, 8192, 8176, 8155, 8192, 8180, 8194, 8153, 8126,7.389066934585571
89, 8136, 8142, 8120, 8125, 8162, 8167, 8200, 8161, 8166, 8189, 8171, 8176, 8148, 8115,7.4032087326049805
90, 8142, 8140, 8185, 8109, 8154, 8167, 8185, 8171, 8149, 8174, 8157, 8186, 8141, 8118,7.4032087326049805
91, 8156, 8151, 8149, 8132, 8158, 8165, 8180, 8172, 8147, 8174, 8166, 8190, 8152, 8125,7.420778036117554
92, 8156, 8148, 8144, 8125, 8151, 8138, 8162, 8161, 8141, 8154, 8170, 8183, 8148, 8120,7.420778036117554
93, 8150, 8150, 8185, 8109, 8151, 8141, 8143, 8164, 8129, 8137, 8166, 8189, 8135, 8120,7.420778036117554
94, 8157, 8151, 8121, 8139, 8166, 8148, 8149, 8157, 8140, 8155, 8176, 8186, 8144, 8124,7.434431552886963
95, 8174, 8164, 8192, 8142, 8158, 8147, 8150, 8165, 8141, 8155, 8182, 8207, 8150, 8127,7.450323104858398
96, 8165, 8165, 8151, 8140, 8150, 8153, 8162, 8169, 8151, 8156, 8188, 8204, 8153, 8123,7.450323104858398
97, 8158, 8159, 8131, 8146, 8163, 8159, 8164, 8171, 8149, 8156, 8185, 8185, 8142, 8118,7.4654364585876465
98, 8167, 8175, 8203, 8157, 8175, 8166, 8161, 8179, 8139, 8153, 8183, 8202, 8131, 8124,7.4654364585876465
99, 8161, 8167, 8135, 8168, 8173, 8149, 8166, 8167, 8136, 8154, 8176, 8188, 8129, 8117,7.480489730834961
100, 8154, 8163, 8177, 8149, 8159, 8150, 8145, 8170, 8108, 8127, 8156, 8174, 8115, 8102,7.480489730834961
101, 8151, 8170, 8159, 8155, 8162, 8165, 8145, 8168, 8110, 8136, 8167, 8175, 8119, 8103,7.4961748123168945
102, 8153, 8168, 8143, 8172, 8169, 8158, 8164, 8163, 8130, 8162, 8177, 8174, 8126, 8118,7.4961748123168945
103, 8153, 8173, 8202, 8175, 8172, 8172, 8176, 8182, 8138, 8171, 8167, 8177, 8124, 8125,7.511741399765015
104, 8136, 8159, 8128, 8184, 8181, 8183, 8184, 8176, 8146, 8183, 8164, 8156, 8125, 8116,7.511741399765015
105, 8130, 8147, 8174, 8164, 8178, 8183, 8169, 8171, 8122, 8160, 8146, 8157, 8114, 8110,7.527740478515625
106, 8139, 8155, 8156, 8165, 8181, 8188, 8172, 8168, 8118, 8155, 8140, 8165, 8119, 8112,7.527740478515625
107, 8154, 8155, 8124, 8180, 8179, 8183, 8184, 8165, 8137, 8175, 8162, 8171, 8135, 8126,7.543440580368042
108, 8165, 8159, 8211, 8169, 8172, 8191, 8186, 8177, 8148, 8187, 8184, 8201, 8146, 8147,7.543440580368042
109, 8161, 8156, 8143, 8168, 8183, 8193, 8193, 8169, 8173, 8211, 8193, 8189, 8159, 8147,7.5585808753967285
110, 8155, 8157, 8173, 8156, 8183, 8183, 8181, 8170, 8174, 8201, 8181, 8174, 8150, 8140,7.5585808753967285
111, 8151, 8159, 8183, 8159, 8177, 8181, 8194, 8171, 8176, 8195, 8173, 8175, 8145, 8136,7.574295997619629
112, 8156, 8156, 8140, 8168, 8174, 8180, 8216, 8166, 8188, 8203, 8176, 8169, 8155, 8127,7.574295997619629
113, 8156, 8162, 8197, 8145, 8165, 8180, 8195, 8174, 8170, 8182, 8178, 8184, 8161, 8122,7.589803457260132
114, 8139, 8148, 8129, 8126, 8155, 8156, 8173, 8166, 8150, 8161, 8179, 8180, 8156, 8110,7.589803457260132
115, 8151, 8158, 8174, 8130, 8155, 8141, 8156, 8168, 8125, 8140, 8169, 8177, 8133, 8101,7.605575799942017
116, 8169, 8197, 8201, 8180, 8179, 8166, 8155, 8171, 8125, 8146, 8174, 8180, 8128, 8106,7.605575799942017
117, 8163, 8194, 8146, 8206, 8193, 8170, 8157, 8165, 8137, 8167, 8180, 8169, 8137, 8110,7.62108588218689
118, 8159, 8181, 8210, 8180, 8187, 8172, 8152, 8171, 8123, 8157, 8170, 8173, 8135, 8117,7.62108588218689
119, 8150, 8168, 8143, 8182, 8190, 8178, 8165, 8162, 8126, 8154, 8170, 8161, 8137, 8116,7.63632869720459
120, 8149, 8162, 8164, 8184, 8189, 8179, 8165, 8169, 8130, 8158, 8171, 8159, 8139, 8113,7.63632869720459
121, 8153, 8170, 8200, 8184, 8190, 8195, 8177, 8175, 8143, 8177, 8172, 8171, 8147, 8117,7.652429819107056
122, 8144, 8164, 8135, 8195, 8198, 8198, 8199, 8161, 8156, 8194, 8170, 8153, 8144, 8117,7.652429819107056
123, 8137, 8161, 8190, 8180, 8186, 8194, 8198, 8173, 8143, 8176, 8157, 8151, 8126, 8112,7.668100357055664
124, 8133, 8149, 8138, 8168, 8174, 8187, 8206, 8171, 8157, 8180, 8165, 8152, 8134, 8109,7.668100357055664
125, 8150, 8144, 8160, 8157, 8170, 8181, 8191, 8167, 8169, 8190, 8175, 8173, 8149, 8128,7.6834447383880615
126, 8176, 8165, 8213, 8168, 8171, 8186, 8173, 8178, 8181, 8196, 8186, 8208, 8164, 8154,7.6834447383880615
127, 8183, 8166, 8146, 8197, 8177, 8174, 8175, 8171, 8195, 8206, 8196, 8202, 8178, 8161,7.6995508670806885
236, 8173, 8163, 8206, 8184, 8175, 8176, 8167, 8177, 8164, 8184, 8180, 8195, 8158, 8153,7.6995508670806885
0, 8157, 8156, 8152, 8167, 8178, 8181, 8175, 8171, 8148, 8173, 8160, 8179, 8141, 8138,7.714682579040527
1, 8161, 8149, 8138, 8146, 8167, 8167, 8173, 8160, 8139, 8157, 8149, 8174, 8141, 8131,7.714682579040527
2, 8171, 8161, 8200, 8145, 8158, 8171, 8176, 8168, 8136, 8151, 8164, 8198, 8151, 8140,7.7300708293914795
3, 8178, 8166, 8143, 8172, 8169, 8164, 8191, 8164, 8162, 8172, 8197, 8205, 8167, 8148,7.7300708293914795
4, 8193, 8179, 8208, 8171, 8169, 8160, 8173, 8172, 8159, 8163, 8196, 8222, 8166, 8156,7.745634317398071
5, 8192, 8179, 8175, 8173, 8171, 8159, 8163, 8168, 8147, 8161, 8190, 8218, 8167, 8157,7.745634317398071
6, 8186, 8169, 8157, 8170, 8174, 8140, 8152, 8162, 8136, 8156, 8192, 8205, 8167, 8148,7.761533975601196
7, 8191, 8190, 8215, 8177, 8180, 8143, 8141, 8174, 8130, 8150, 8200, 8222, 8170, 8151,7.761533975601196
8, 8195, 8193, 8152, 8206, 8192, 8152, 8159, 8167, 8140, 8172, 8206, 8220, 8181, 8153,7.779175281524658
9, 8190, 8184, 8209, 8190, 8185, 8153, 8158, 8174, 8134, 8165, 8187, 8216, 8168, 8141,7.779175281524658
10, 8176, 8182, 8181, 8177, 8176, 8154, 8160, 8179, 8150, 8159, 8185, 8207, 8159, 8126,7.792196989059448
11, 8177, 8179, 8152, 8186, 8185, 8165, 8172, 8176, 8164, 8164, 8192, 8201, 8162, 8130,7.792196989059448
12, 8177, 8189, 8216, 8195, 8200, 8187, 8178, 8184, 8152, 8161, 8185, 8207, 8164, 8148,7.807521820068359
13, 8159, 8181, 8148, 8210, 8207, 8177, 8187, 8177, 8148, 8180, 8180, 8187, 8161, 8150,7.807521820068359
14, 8161, 8176, 8196, 8196, 8193, 8173, 8184, 8180, 8131, 8180, 8170, 8187, 8151, 8150,7.823058843612671
15, 8171, 8185, 8187, 8206, 8196, 8189, 8192, 8171, 8133, 8174, 8171, 8196, 8161, 8157,7.823058843612671
16, 8175, 8183, 8156, 8230, 8200, 8173, 8186, 8159, 8141, 8178, 8176, 8189, 8167, 8162,7.839439630508423
17, 8173, 8180, 8220, 8211, 8183, 8158, 8164, 8173, 8130, 8180, 8164, 8193, 8151, 8165,7.839439630508423
18, 8154, 8156, 8133, 8186, 8169, 8155, 8168, 8168, 8142, 8182, 8152, 8172, 8148, 8156,7.85512638092041
19, 8148, 8141, 8163, 8165, 8166, 8161, 8171, 8168, 8150, 8169, 8141, 8169, 8147, 8146,7.870526552200317
20, 8150, 8146, 8176, 8165, 8174, 8173, 8188, 8170, 8161, 8181, 8144, 8179, 8150, 8142,7.870526552200317
21, 8152, 8148, 8130, 8161, 8171, 8163, 8194, 8166, 8174, 8199, 8153, 8171, 8159, 8143,7.870526552200317
22, 8158, 8160, 8192, 8154, 8161, 8162, 8183, 8176, 8175, 8198, 8153, 8183, 8162, 8153,7.886059284210205
23, 8162, 8167, 8135, 8184, 8167, 8163, 8188, 8168, 8176, 8207, 8160, 8187, 8170, 8154,7.886059284210205
24, 8181, 8181, 8177, 8190, 8167, 8157, 8175, 8166, 8155, 8189, 8170, 8205, 8176, 8161,7.901084661483765
25, 8196, 8193, 8199, 8176, 8171, 8158, 8173, 8169, 8168, 8182, 8183, 8223, 8188, 8177,7.901084661483765
26, 8196, 8183, 8148, 8173, 8184, 8148, 8178, 8167, 8197, 8199, 8188, 8222, 8193, 8178,7.9164817333221436
27, 8202, 8197, 8224, 8177, 8189, 8161, 8165, 8181, 8181, 8193, 8199, 8245, 8184, 8174,7.9164817333221436
28, 8199, 8205, 8168, 8200, 8190, 8173, 8174, 8176, 8173, 8199, 8221, 8240, 8189, 8175,7.933124303817749
29, 8190, 8196, 8176, 8203, 8187, 8172, 8178, 8173, 8166, 8188, 8197, 8219, 8176, 8172,7.933124303817749
30, 8185, 8198, 8201, 8219, 8189, 8184, 8192, 8179, 8168, 8187, 8170, 8212, 8159, 8171,7.9483959674835205
31, 8173, 8184, 8133, 8232, 8188, 8180, 8209, 8166, 8179, 8205, 8173, 8190, 8164, 8173,7.9483959674835205
32, 8159, 8173, 8187, 8194, 8175, 8181, 8198, 8173, 8172, 8202, 8162, 8188, 8162, 8172,7.963583707809448
33, 8162, 8171, 8141, 8193, 8187, 8183, 8204, 8178, 8199, 8218, 8168, 8192, 8170, 8173,7.978165864944458
34, 8180, 8178, 8159, 8212, 8198, 8172, 8203, 8178, 8225, 8225, 8172, 8195, 8172, 8180,7.978165864944458
35, 8175, 8183, 8191, 8198, 8192, 8167, 8190, 8179, 8236, 8221, 8165, 8203, 8171, 8170,7.995766639709473
36, 8163, 8166, 8113, 8178, 8191, 8161, 8183, 8171, 8244, 8234, 8179, 8202, 8179, 8150,7.996429920196533
37, 8172, 8179, 8187, 8170, 8188, 8165, 8171, 8177, 8214, 8212, 8177, 8213, 8161, 8142,7.996429920196533
38, 8161, 8185, 8146, 8185, 8189, 8167, 8176, 8166, 8188, 8191, 8158, 8192, 8145, 8124,8.012472152709961
39, 8141, 8164, 8125, 8176, 8192, 8161, 8175, 8161, 8165, 8180, 8140, 8168, 8138, 8113,8.012472152709961
40, 8134, 8164, 8174, 8170, 8194, 8178, 8174, 8173, 8142, 8167, 8124, 8173, 8127, 8126,8.02540111541748
41, 8129, 8156, 8115, 8185, 8187, 8180, 8192, 8164, 8148, 8173, 8112, 8160, 8121, 8132,8.052406311035156
42, 8144, 8152, 8179, 8175, 8175, 8176, 8200, 8175, 8171, 8189, 8116, 8173, 8129, 8143,8.052406311035156
43, 8156, 8158, 8152, 8178, 8179, 8180, 8208, 8180, 8207, 8219, 8141, 8188, 8154, 8166,8.053406238555908
44, 8163, 8156, 8137, 8171, 8177, 8171, 8198, 8174, 8213, 8217, 8146, 8192, 8159, 8174,8.053406238555908
45, 8171, 8160, 8197, 8155, 8169, 8166, 8184, 8180, 8200, 8193, 8138, 8213, 8155, 8171,8.072110652923584
46, 8171, 8155, 8130, 8167, 8170, 8155, 8196, 8170, 8205, 8194, 8144, 8208, 8164, 8172,8.072110652923584
47, 8174, 8159, 8183, 8160, 8169, 8151, 8192, 8172, 8185, 8184, 8150, 8211, 8165, 8175,8.087254047393799
48, 8172, 8159, 8167, 8158, 8175, 8155, 8182, 8168, 8170, 8175, 8157, 8212, 8160, 8168,8.087254047393799
49, 8180, 8160, 8141, 8163, 8180, 8144, 8169, 8161, 8171, 8167, 8157, 8209, 8152, 8161,8.103346347808838
50, 8195, 8179, 8203, 8168, 8182, 8156, 8171, 8171, 8181, 8179, 8164, 8232, 8163, 8169,8.103346347808838
51, 8197, 8173, 8135, 8183, 8192, 8159, 8188, 8171, 8202, 8214, 8181, 8223, 8177, 8174,8.119111061096191
52, 8188, 8173, 8187, 8173, 8186, 8151, 8166, 8174, 8177, 8191, 8171, 8214, 8155, 8166,8.119111061096191
53, 8172, 8184, 8184, 8184, 8186, 8160, 8162, 8166, 8161, 8165, 8169, 8218, 8149, 8154,8.134215831756592
54, 8170, 8172, 8139, 8188, 8197, 8166, 8174, 8162, 8179, 8175, 8177, 8209, 8163, 8150,8.134215831756592
55, 8174, 8174, 8200, 8164, 8192, 8175, 8169, 8179, 8185, 8175, 8171, 8213, 8153, 8154,8.149457216262817
56, 8166, 8176, 8136, 8177, 8193, 8175, 8186, 8175, 8205, 8192, 8178, 8210, 8156, 8159,8.149457216262817
57, 8174, 8179, 8183, 8191, 8201, 8185, 8204, 8180, 8218, 8207, 8190, 8220, 8173, 8172,8.164575338363647
58, 8188, 8187, 8196, 8203, 8212, 8197, 8219, 8189, 8227, 8220, 8202, 8223, 8184, 8183,8.164575338363647
59, 8180, 8168, 8140, 8204, 8203, 8181, 8225, 8175, 8212, 8206, 8185, 8202, 8174, 8181,8.180177211761475
60, 8167, 8145, 8199, 8175, 8177, 8179, 8211, 8172, 8170, 8169, 8143, 8199, 8147, 8181,8.180177211761475
61, 8160, 8129, 8126, 8165, 8171, 8179, 8209, 8162, 8165, 8167, 8125, 8181, 8134, 8175,8.195298433303833
62, 8156, 8131, 8144, 8155, 8166, 8172, 8192, 8168, 8165, 8155, 8114, 8166, 8116, 8158,8.195298433303833
63, 8149, 8135, 8166, 8147, 8159, 8178, 8186, 8177, 8177, 8154, 8117, 8169, 8118, 8158,8.211410522460938
64, 8166, 8133, 8124, 8149, 8163, 8169, 8194, 8169, 8213, 8188, 8145, 8186, 8150, 8181,8.211410522460938
65, 8200, 8165, 8212, 8149, 8167, 8164, 8187, 8182, 8232, 8209, 8175, 8228, 8172, 8205,8.227112770080566
66, 8203, 8176, 8162, 8166, 8169, 8158, 8192, 8179, 8229, 8212, 8182, 8220, 8178, 8199,8.227112770080566
67, 8193, 8157, 8166, 8156, 8161, 8149, 8178, 8169, 8183, 8182, 8158, 8197, 8160, 8185,8.24318528175354
68, 8189, 8151, 8190, 8140, 8158, 8159, 8169, 8168, 8158, 8164, 8155, 8207, 8151, 8182,8.24318528175354
69, 8187, 8142, 8127, 8138, 8154, 8149, 8180, 8156, 8157, 8164, 8172, 8207, 8164, 8181,8.258514165878296
70, 8183, 8151, 8200, 8127, 8145, 8143, 8170, 8163, 8128, 8137, 8160, 8211, 8157, 8178,8.258514165878296
71, 8171, 8159, 8158, 8144, 8157, 8155, 8175, 8166, 8136, 8141, 8158, 8201, 8144, 8163,8.274160861968994
72, 8175, 8155, 8158, 8157, 8170, 8164, 8186, 8174, 8160, 8156, 8171, 8201, 8140, 8158,8.274160861968994
73, 8186, 8170, 8196, 8162, 8176, 8175, 8193, 8185, 8169, 8167, 8181, 8224, 8155, 8175,8.289483547210693
74, 8176, 8171, 8134, 8169, 8179, 8162, 8186, 8172, 8156, 8168, 8179, 8210, 8156, 8174,8.289483547210693
75, 8171, 8161, 8205, 8160, 8170, 8156, 8163, 8172, 8114, 8131, 8152, 8193, 8126, 8165,8.30541443824768
76, 8171, 8153, 8163, 8179, 8168, 8168, 8177, 8165, 8122, 8137, 8144, 8180, 8128, 8172,8.30541443824768
77, 8175, 8156, 8151, 8191, 8176, 8176, 8190, 8169, 8150, 8167, 8150, 8179, 8139, 8176,8.320608377456665
78, 8174, 8173, 8203, 8189, 8184, 8189, 8187, 8181, 8143, 8166, 8141, 8184, 8120, 8167,8.320608377456665
79, 8165, 8162, 8130, 8203, 8182, 8177, 8192, 8160, 8133, 8161, 8133, 8160, 8113, 8159,8.33654499053955
80, 8170, 8162, 8193, 8202, 8173, 8172, 8183, 8165, 8127, 8154, 8135, 8167, 8120, 8167,8.33654499053955
81, 8170, 8168, 8172, 8208, 8183, 8181, 8186, 8171, 8136, 8165, 8149, 8181, 8134, 8170,8.352067708969116
82, 8163, 8153, 8145, 8200, 8177, 8168, 8184, 8158, 8131, 8169, 8149, 8174, 8142, 8164,8.352067708969116
83, 8156, 8143, 8192, 8171, 8154, 8164, 8174, 8167, 8126, 8159, 8139, 8172, 8132, 8156,8.368126153945923
84, 8151, 8139, 8118, 8172, 8159, 8164, 8180, 8172, 8155, 8169, 8141, 8158, 8131, 8151,8.368126153945923
85, 8164, 8156, 8180, 8182, 8167, 8173, 8180, 8179, 8164, 8175, 8150, 8176, 8144, 8168,8.38452959060669
86, 8162, 8156, 8171, 8192, 8160, 8175, 8187, 8173, 8170, 8188, 8170, 8184, 8161, 8173,8.38452959060669
87, 8153, 8135, 8130, 8176, 8158, 8156, 8186, 8169, 8186, 8191, 8174, 8172, 8162, 8159,8.40015172958374
88, 8167, 8155, 8200, 8167, 8167, 8165, 8191, 8183, 8204, 8193, 8178, 8201, 8169, 8178,8.40015172958374
89, 8184, 8168, 8144, 8192, 8175, 8171, 8209, 8174, 8226, 8212, 8195, 8211, 8192, 8195,8.4152090549469
90, 8189, 8160, 8182, 8183, 8161, 8162, 8189, 8175, 8205, 8189, 8186, 8210, 8180, 8181,8.4152090549469
91, 8182, 8159, 8175, 8180, 8158, 8158, 8180, 8175, 8196, 8181, 8184, 8215, 8171, 8175,8.430767059326172
92, 8181, 8162, 8141, 8187, 8169, 8146, 8184, 8168, 8200, 8195, 8194, 8213, 8178, 8179,8.430767059326172
93, 8180, 8169, 8210, 8178, 8161, 8145, 8165, 8174, 8168, 8165, 8188, 8219, 8163, 8168,8.446680307388306
94, 8168, 8161, 8143, 8182, 8159, 8142, 8164, 8160, 8150, 8142, 8189, 8204, 8152, 8158,8.446680307388306
95, 8176, 8165, 8183, 8183, 8164, 8145, 8152, 8158, 8132, 8137, 8189, 8212, 8151, 8169,8.462780475616455
96, 8184, 8177, 8193, 8206, 8169, 8152, 8147, 8167, 8127, 8148, 8199, 8224, 8157, 8173,8.462780475616455
97, 8173, 8168, 8135, 8218, 8163, 8140, 8153, 8161, 8133, 8153, 8208, 8208, 8155, 8158,8.478198766708374
98, 8161, 8169, 8200, 8192, 8155, 8152, 8148, 8164, 8120, 8146, 8200, 8209, 8151, 8156,8.478198766708374
99, 8155, 8164, 8137, 8197, 8161, 8160, 8158, 8162, 8122, 8161, 8193, 8200, 8153, 8154,8.493393421173096
100, 8158, 8164, 8161, 8207, 8159, 8151, 8160, 8173, 8120, 8152, 8176, 8192, 8134, 8145,8.493393421173096
101, 8157, 8174, 8186, 8211, 8172, 8167, 8178, 8182, 8149, 8158, 8182, 8203, 8135, 8157,8.50952935218811
102, 8162, 8166, 8128, 8219, 8191, 8181, 8205, 8176, 8195, 8199, 8202, 8204, 8160, 8180,8.50952935218811
103, 8169, 8169, 8199, 8212, 8181, 8187, 8199, 8184, 8193, 8206, 8190, 8204, 8159, 8180,8.524574041366577
104, 8155, 8160, 8149, 8220, 8171, 8182, 8190, 8177, 8183, 8201, 8182, 8183, 8150, 8164,8.524574041366577
105, 8150, 8148, 8156, 8210, 8169, 8177, 8181, 8173, 8166, 8188, 8180, 8189, 8142, 8167,8.540085315704346
106, 8146, 8146, 8174, 8190, 8164, 8181, 8184, 8176, 8155, 8183, 8173, 8200, 8143, 8177,8.540085315704346
107, 8128, 8121, 8105, 8188, 8150, 8166, 8176, 8160, 8153, 8179, 8160, 8165, 8145, 8170,8.55655837059021
108, 8133, 8122, 8182, 8178, 8138, 8164, 8153, 8164, 8136, 8153, 8148, 8165, 8131, 8167,8.55655837059021
109, 8146, 8141, 8150, 8190, 8152, 8171, 8169, 8164, 8155, 8169, 8161, 8178, 8139, 8178,8.571170330047607
110, 8159, 8143, 8151, 8192, 8158, 8166, 8174, 8165, 8175, 8194, 8174, 8188, 8164, 8195,8.571170330047607
111, 8163, 8141, 8187, 8179, 8146, 8164, 8158, 8169, 8186, 8198, 8184, 8202, 8185, 8196,8.586278200149536
112, 8165, 8140, 8125, 8179, 8144, 8151, 8158, 8158, 8194, 8203, 8198, 8196, 8197, 8180,8.586278200149536
113, 8177, 8160, 8204, 8179, 8150, 8151, 8146, 8169, 8169, 8182, 8200, 8215, 8180, 8177,8.601447105407715
114, 8174, 8171, 8170, 8198, 8159, 8152, 8142, 8169, 8161, 8172, 8206, 8218, 8167, 8176,8.618590593338013
115, 8163, 8165, 8146, 8189, 8156, 8140, 8143, 8164, 8161, 8168, 8200, 8198, 8168, 8169,8.618590593338013
116, 8156, 8165, 8188, 8167, 8152, 8153, 8151, 8172, 8158, 8159, 8191, 8195, 8171, 8170,8.632305145263672
117, 8149, 8153, 8119, 8176, 8158, 8155, 8158, 8168, 8169, 8167, 8190, 8183, 8168, 8166,8.632305145263672
118, 8156, 8159, 8185, 8182, 8161, 8156, 8146, 8177, 8168, 8169, 8185, 8192, 8155, 8166,8.648668050765991
119, 8152, 8168, 8162, 8192, 8163, 8161, 8160, 8174, 8169, 8183, 8193, 8199, 8160, 8172,8.648668050765991
120, 8142, 8158, 8137, 8179, 8155, 8147, 8155, 8161, 8149, 8178, 8189, 8187, 8156, 8164,8.665376424789429
121, 8148, 8164, 8198, 8171, 8155, 8157, 8138, 8172, 8129, 8166, 8177, 8194, 8145, 8157,8.665376424789429
122, 8154, 8163, 8129, 8198, 8168, 8163, 8149, 8167, 8140, 8178, 8172, 8183, 8148, 8161,8.678871393203735
123, 8157, 8164, 8185, 8202, 8165, 8155, 8145, 8165, 8128, 8158, 8155, 8179, 8138, 8171,8.678871393203735
124, 8155, 8167, 8178, 8208, 8169, 8166, 8147, 8164, 8125, 8153, 8162, 8185, 8141, 8171,8.694299697875977
125, 8155, 8155, 8144, 8211, 8174, 8178, 8156, 8165, 8145, 8175, 8175, 8190, 8154, 8170,8.694299697875977
126, 8163, 8153, 8210, 8196, 8171, 8187, 8158, 8175, 8166, 8191, 8169, 8200, 8162, 8184,8.710264682769775
127, 8158, 8152, 8145, 8205, 8172, 8178, 8172, 8164, 8185, 8209, 8168, 8182, 8173, 8188,8.710264682769775
236, 8158, 8159, 8185, 8206, 8168, 8177, 8174, 8168, 8168, 8203, 8165, 8188, 8165, 8188,8.726232767105103
0, 8158, 8163, 8180, 8202, 8169, 8188, 8184, 8168, 8167, 8206, 8169, 8191, 8161, 8195,8.726232767105103
1, 8156, 8151, 8136, 8191, 8169, 8176, 8192, 8167, 8186, 8212, 8177, 8174, 8169, 8194,8.741330862045288
2, 8160, 8160, 8203, 8178, 8160, 8171, 8183, 8186, 8187, 8202, 8177, 8195, 8168, 8193,8.741330862045288
3, 8159, 8157, 8139, 8190, 8162, 8164, 8186, 8168, 8191, 8206, 8184, 8204, 8170, 8192,8.756463050842285
4, 8160, 8149, 8174, 8173, 8158, 8156, 8174, 8155, 8172, 8193, 8185, 8207, 8166, 8193,8.756463050842285
5, 8163, 8154, 8182, 8168, 8153, 8161, 8170, 8168, 8163, 8190, 8187, 8212, 8170, 8196,8.772072792053223
6, 8170, 8151, 8129, 8180, 8155, 8149, 8170, 8166, 8171, 8197, 8189, 8207, 8179, 8191,8.772072792053223
7, 8178, 8169, 8208, 8165, 8153, 8152, 8156, 8168, 8162, 8185, 8191, 8223, 8174, 8185,8.788177967071533
8, 8179, 8182, 8155, 8182, 8168, 8160, 8172, 8165, 8164, 8196, 8207, 8224, 8173, 8190,8.788177967071533
9, 8182, 8184, 8177, 8200, 8180, 8163, 8176, 8171, 8151, 8194, 8200, 8216, 8163, 8198,8.803305625915527
10, 8169, 8180, 8196, 8201, 8179, 8176, 8175, 8170, 8144, 8184, 8174, 8197, 8153, 8189,8.803305625915527
11, 8163, 8161, 8134, 8210, 8175, 8174, 8184, 8156, 8155, 8193, 8159, 8168, 8153, 8177,8.81850552558899
12, 8175, 8170, 8209, 8213, 8172, 8192, 8185, 8168, 8159, 8197, 8156, 8188, 8148, 8191,8.81850552558899
13, 8171, 8170, 8158, 8207, 8176, 8200, 8206, 8167, 8184, 8217, 8174, 8201, 8161, 8203,8.83441948890686
14, 8165, 8151, 8160, 8166, 8161, 8168, 8192, 8168, 8184, 8210, 8175, 8196, 8164, 8197,8.83441948890686
15, 8166, 8157, 8190, 8151, 8149, 8155, 8163, 8173, 8170, 8190, 8172, 8195, 8156, 8186,8.849240779876709
16, 8168, 8175, 8129, 8181, 8162, 8162, 8169, 8163, 8170, 8190, 8186, 8190, 8163, 8176,8.849240779876709
17, 8174, 8191, 8202, 8189, 8171, 8171, 8179, 8177, 8163, 8184, 8194, 8210, 8163, 8179,8.865529298782349
18, 8160, 8176, 8154, 8201, 8177, 8170, 8192, 8178, 8180, 8197, 8196, 8197, 8161, 8178,8.865529298782349
19, 8149, 8163, 8150, 8202, 8180, 8171, 8194, 8172, 8177, 8197, 8181, 8175, 8152, 8176,8.880809307098389
20, 8151, 8177, 8201, 8199, 8185, 8184, 8202, 8178, 8157, 8187, 8168, 8188, 8151, 8185,8.880809307098389
21, 8146, 8164, 8128, 8203, 8187, 8179, 8217, 8167, 8174, 8200, 8168, 8184, 8158, 8183,8.895859479904175
22, 8149, 8156, 8190, 8190, 8173, 8181, 8204, 8171, 8180, 8198, 8164, 8191, 8155, 8185,8.895859479904175
23, 8157, 8165, 8162, 8199, 8169, 8177, 8200, 8168, 8188, 8208, 8177, 8199, 8174, 8194,8.911123037338257
24, 8165, 8163, 8146, 8196, 8164, 8154, 8193, 8158, 8196, 8214, 8172, 8193, 8182, 8194,8.911123037338257
25, 8175, 8168, 8194, 8178, 8160, 8157, 8184, 8166, 8191, 8210, 8158, 8198, 8174, 8195,8.92630386352539
26, 8185, 8165, 8128, 8180, 8168, 8157, 8186, 8166, 8193, 8213, 8176, 8196, 8184, 8205,8.927304029464722
27, 8191, 8165, 8190, 8167, 8164, 8148, 8170, 8173, 8177, 8191, 8183, 8213, 8185, 8209,8.941929578781128
28, 8183, 8170, 8170, 8171, 8164, 8150, 8169, 8171, 8175, 8189, 8183, 8213, 8182, 8199,8.941929578781128
29, 8187, 8180, 8151, 8181, 8166, 8148, 8170, 8171, 8171, 8197, 8188, 8201, 8181, 8186,8.958724975585938
30, 8201, 8198, 8212, 8183, 8167, 8153, 8164, 8181, 8163, 8191, 8195, 8209, 8174, 8176,8.958724975585938
31, 8194, 8194, 8140, 8203, 8185, 8150, 8172, 8168, 8176, 8205, 8204, 8204, 8177, 8176,8.973260641098022
32, 8187, 8198, 8191, 8208, 8194, 8154, 8170, 8173, 8166, 8201, 8202, 8214, 8176, 8188,8.973260641098022
33, 8179, 8203, 8176, 8217, 8191, 8164, 8178, 8178, 8164, 8204, 8205, 8215, 8177, 8189,8.989668846130371
