COUNTER,F3,FC5,AF3,F7,T7,P7,O1,O2,P8,T8,F8,AF4,FC6,F4,Timestamp
27, 8122, 8134, 8129, 8111, 8144, 8152, 8127, 8163, 8128, 8149, 8124, 8114, 8113, 8087,0.02843499183654785
28, 8113, 8142, 8174, 8101, 8141, 8165, 8121, 8168, 8120, 8136, 8116, 8127, 8108, 8081,0.02843499183654785
29, 8118, 8146, 8108, 8123, 8155, 8164, 8142, 8164, 8140, 8135, 8122, 8116, 8107, 8080,0.04399728775024414
30, 8137, 8153, 8182, 8127, 8151, 8161, 8135, 8173, 8126, 8125, 8123, 8133, 8104, 8098,0.04399728775024414
31, 8131, 8151, 8150, 8130, 8145, 8162, 8128, 8161, 8112, 8128, 8124, 8135, 8105, 8096,0.06002044677734375
32, 8125, 8144, 8126, 8125, 8151, 8157, 8124, 8156, 8112, 8117, 8112, 8117, 8096, 8088,0.06002044677734375
33, 8141, 8161, 8198, 8132, 8154, 8173, 8130, 8169, 8123, 8116, 8112, 8134, 8100, 8107,0.07598042488098145
34, 8137, 8156, 8126, 8152, 8155, 8178, 8154, 8162, 8142, 8150, 8129, 8126, 8117, 8111,0.07598042488098145
35, 8126, 8144, 8163, 8134, 8151, 8180, 8156, 8175, 8125, 8144, 8108, 8116, 8103, 8098,0.09144353866577148
36, 8120, 8141, 8139, 8132, 8155, 8191, 8163, 8168, 8120, 8136, 8088, 8108, 8096, 8093,0.09144353866577148
37, 8124, 8135, 8112, 8126, 8150, 8190, 8162, 8153, 8123, 8156, 8094, 8107, 8110, 8106,0.10658931732177734
38, 8133, 8144, 8187, 8110, 8142, 8197, 8156, 8173, 8136, 8174, 8114, 8138, 8125, 8127,0.10658931732177734
39, 8131, 8139, 8117, 8127, 8143, 8182, 8159, 8164, 8166, 8178, 8117, 8138, 8136, 8124,0.1223149299621582
40, 8137, 8141, 8159, 8125, 8144, 8164, 8126, 8160, 8140, 8140, 8092, 8139, 8118, 8106,0.1223149299621582
41, 8143, 8161, 8160, 8130, 8155, 8177, 8112, 8159, 8118, 8131, 8108, 8143, 8107, 8096,0.1374192237854004
42, 8141, 8163, 8130, 8138, 8158, 8180, 8129, 8159, 8132, 8149, 8137, 8141, 8117, 8103,0.1374192237854004
43, 8133, 8162, 8198, 8136, 8158, 8193, 8146, 8174, 8132, 8150, 8124, 8144, 8116, 8111,0.15282177925109863
44, 8125, 8158, 8124, 8156, 8176, 8210, 8163, 8162, 8131, 8161, 8113, 8111, 8116, 8104,0.15282177925109863
45, 8133, 8166, 8160, 8157, 8173, 8213, 8158, 8166, 8118, 8155, 8112, 8111, 8113, 8111,0.1693727970123291
46, 8129, 8165, 8163, 8162, 8164, 8210, 8164, 8170, 8127, 8158, 8112, 8124, 8120, 8117,0.1693727970123291
47, 8127, 8144, 8111, 8164, 8166, 8197, 8172, 8163, 8146, 8175, 8108, 8112, 8132, 8119,0.18408775329589844
48, 8147, 8151, 8191, 8143, 8163, 8203, 8164, 8179, 8145, 8175, 8110, 8135, 8137, 8130,0.1994941234588623
49, 8150, 8149, 8131, 8136, 8161, 8203, 8179, 8166, 8156, 8182, 8126, 8134, 8146, 8126,0.1994941234588623
50, 8145, 8137, 8150, 8128, 8157, 8191, 8170, 8163, 8139, 8159, 8115, 8135, 8134, 8120,0.21535396575927734
51, 8148, 8150, 8175, 8150, 8162, 8194, 8157, 8166, 8128, 8153, 8112, 8159, 8134, 8129,0.21535396575927734
52, 8166, 8161, 8137, 8170, 8172, 8191, 8166, 8161, 8148, 8181, 8155, 8175, 8167, 8150,0.2301180362701416
53, 8178, 8170, 8216, 8153, 8166, 8189, 8159, 8177, 8136, 8174, 8184, 8202, 8179, 8161,0.2301180362701416
54, 8172, 8171, 8154, 8175, 8167, 8176, 8153, 8167, 8117, 8159, 8176, 8194, 8159, 8143,0.24526715278625488
55, 8185, 8178, 8177, 8194, 8179, 8174, 8150, 8169, 8100, 8154, 8163, 8187, 8139, 8136,0.24526715278625488
56, 8189, 8190, 8214, 8191, 8184, 8197, 8166, 8171, 8109, 8171, 8174, 8192, 8158, 8150,0.2604258060455322
57, 8158, 8165, 8131, 8189, 8171, 8186, 8166, 8153, 8119, 8172, 8168, 8165, 8155, 8140,0.2604258060455322
58, 8146, 8154, 8189, 8185, 8167, 8181, 8146, 8163, 8100, 8142, 8136, 8160, 8118, 8117,0.2763230800628662
59, 8158, 8163, 8152, 8206, 8191, 8195, 8169, 8163, 8124, 8167, 8146, 8163, 8137, 8118,0.2763230800628662
60, 8167, 8167, 8164, 8210, 8197, 8202, 8182, 8169, 8142, 8199, 8165, 8176, 8168, 8140,0.2913522720336914
61, 8167, 8176, 8213, 8216, 8196, 8217, 8185, 8172, 8132, 8198, 8165, 8193, 8164, 8148,0.2913522720336914
62, 8169, 8161, 8142, 8232, 8202, 8209, 8192, 8154, 8142, 8198, 8162, 8175, 8163, 8138,0.30708932876586914
63, 8182, 8159, 8196, 8206, 8185, 8200, 8177, 8168, 8147, 8190, 8160, 8184, 8170, 8154,0.30708932876586914
64, 8176, 8169, 8154, 8201, 8181, 8201, 8179, 8169, 8148, 8192, 8164, 8186, 8178, 8163,0.3221254348754883
65, 8161, 8171, 8148, 8207, 8188, 8187, 8178, 8164, 8126, 8175, 8148, 8173, 8168, 8147,0.3221254348754883
66, 8161, 8175, 8202, 8210, 8193, 8192, 8181, 8172, 8129, 8173, 8152, 8182, 8167, 8144,0.33701014518737793
67, 8164, 8168, 8128, 8222, 8196, 8193, 8200, 8161, 8161, 8213, 8175, 8176, 8187, 8155,0.33701014518737793
68, 8161, 8173, 8183, 8202, 8186, 8185, 8191, 8174, 8145, 8210, 8162, 8185, 8189, 8159,0.35270023345947266
69, 8148, 8168, 8148, 8194, 8187, 8182, 8185, 8169, 8140, 8195, 8150, 8171, 8185, 8147,0.35270023345947266
70, 8154, 8158, 8124, 8193, 8195, 8173, 8181, 8161, 8146, 8188, 8147, 8156, 8180, 8146,0.3683347702026367
71, 8162, 8163, 8181, 8182, 8184, 8179, 8173, 8166, 8133, 8177, 8140, 8175, 8174, 8151,0.3683347702026367
72, 8152, 8147, 8106, 8180, 8178, 8178, 8179, 8150, 8143, 8183, 8139, 8156, 8172, 8133,0.38341450691223145
73, 8158, 8150, 8162, 8175, 8182, 8175, 8176, 8162, 8146, 8177, 8140, 8155, 8163, 8133,0.38341450691223145
74, 8158, 8161, 8140, 8190, 8188, 8180, 8181, 8165, 8149, 8185, 8144, 8158, 8167, 8140,0.39905381202697754
75, 8149, 8152, 8105, 8190, 8186, 8175, 8184, 8161, 8151, 8196, 8132, 8147, 8166, 8131,0.39905381202697754
76, 8153, 8162, 8181, 8177, 8186, 8177, 8184, 8173, 8145, 8183, 8117, 8156, 8155, 8130,0.4151122570037842
77, 8150, 8160, 8110, 8178, 8183, 8164, 8197, 8159, 8152, 8180, 8127, 8143, 8161, 8128,0.4151122570037842
78, 8142, 8147, 8140, 8152, 8163, 8156, 8190, 8166, 8145, 8173, 8125, 8138, 8153, 8119,0.43114328384399414
79, 8131, 8150, 8132, 8155, 8168, 8170, 8199, 8173, 8157, 8192, 8114, 8131, 8145, 8109,0.43114328384399414
80, 8140, 8153, 8102, 8171, 8181, 8165, 8199, 8169, 8169, 8198, 8120, 8128, 8150, 8113,0.44618725776672363
81, 8159, 8165, 8181, 8159, 8171, 8162, 8173, 8173, 8154, 8177, 8137, 8157, 8155, 8126,0.44618725776672363
82, 8160, 8171, 8123, 8168, 8176, 8157, 8171, 8156, 8152, 8188, 8158, 8159, 8166, 8126,0.462205171585083
83, 8168, 8183, 8169, 8172, 8184, 8154, 8159, 8162, 8135, 8175, 8159, 8170, 8168, 8136,0.462205171585083
84, 8170, 8191, 8176, 8169, 8184, 8158, 8164, 8170, 8131, 8161, 8158, 8177, 8165, 8137,0.4773855209350586
85, 8156, 8177, 8116, 8156, 8180, 8148, 8174, 8163, 8125, 8163, 8143, 8152, 8153, 8118,0.4773855209350586
86, 8153, 8179, 8188, 8142, 8175, 8156, 8155, 8170, 8105, 8139, 8114, 8151, 8129, 8107,0.49311041831970215
87, 8162, 8183, 8135, 8170, 8190, 8167, 8162, 8159, 8128, 8137, 8116, 8142, 8130, 8109,0.49311041831970215
88, 8166, 8180, 8165, 8176, 8197, 8172, 8165, 8169, 8134, 8145, 8120, 8142, 8139, 8122,0.5092189311981201
89, 8144, 8165, 8177, 8160, 8188, 8184, 8171, 8174, 8124, 8163, 8113, 8139, 8148, 8125,0.5092189311981201
90, 8129, 8137, 8105, 8146, 8186, 8178, 8187, 8157, 8126, 8171, 8095, 8112, 8142, 8116,0.5243597030639648
91, 8136, 8145, 8175, 8139, 8181, 8183, 8186, 8169, 8125, 8157, 8083, 8122, 8127, 8128,0.5243597030639648
92, 8137, 8151, 8124, 8159, 8173, 8184, 8194, 8169, 8155, 8183, 8110, 8124, 8150, 8136,0.5404014587402344
93, 8145, 8141, 8143, 8147, 8170, 8171, 8197, 8179, 8167, 8196, 8116, 8124, 8163, 8135,0.5404014587402344
94, 8152, 8147, 8178, 8130, 8179, 8182, 8210, 8181, 8164, 8183, 8098, 8137, 8156, 8136,0.5561373233795166
95, 8153, 8149, 8113, 8142, 8178, 8182, 8209, 8159, 8166, 8177, 8106, 8135, 8152, 8137,0.5561373233795166
96, 8170, 8169, 8186, 8137, 8165, 8170, 8186, 8175, 8156, 8166, 8127, 8163, 8155, 8143,0.5711779594421387
97, 8180, 8184, 8145, 8148, 8177, 8165, 8200, 8177, 8168, 8173, 8139, 8169, 8171, 8142,0.5711779594421387
98, 8189, 8186, 8156, 8157, 8182, 8157, 8198, 8171, 8162, 8164, 8135, 8169, 8167, 8145,0.5866804122924805
99, 8189, 8193, 8206, 8161, 8176, 8153, 8184, 8174, 8147, 8150, 8141, 8181, 8156, 8145,0.5866804122924805
100, 8181, 8181, 8138, 8167, 8176, 8151, 8187, 8164, 8151, 8142, 8139, 8164, 8152, 8131,0.6022021770477295
101, 8179, 8178, 8194, 8146, 8179, 8165, 8174, 8177, 8140, 8117, 8116, 8167, 8140, 8130,0.6183280944824219
102, 8171, 8181, 8149, 8152, 8188, 8163, 8174, 8168, 8148, 8138, 8126, 8163, 8143, 8134,0.6183280944824219
103, 8173, 8175, 8144, 8152, 8177, 8142, 8171, 8162, 8154, 8163, 8138, 8160, 8152, 8132,0.6183280944824219
104, 8176, 8186, 8200, 8137, 8167, 8160, 8166, 8174, 8156, 8166, 8133, 8174, 8156, 8135,0.6330206394195557
105, 8167, 8192, 8128, 8152, 8180, 8165, 8168, 8160, 8169, 8173, 8134, 8160, 8157, 8135,0.6494669914245605
106, 8168, 8192, 8183, 8149, 8172, 8151, 8149, 8160, 8150, 8153, 8125, 8167, 8147, 8131,0.6494669914245605
107, 8162, 8186, 8151, 8144, 8166, 8158, 8151, 8163, 8140, 8150, 8126, 8164, 8144, 8124,0.6655054092407227
108, 8160, 8186, 8134, 8139, 8172, 8159, 8157, 8168, 8137, 8152, 8141, 8157, 8150, 8128,0.6655054092407227
109, 8174, 8205, 8199, 8142, 8170, 8160, 8157, 8175, 8141, 8146, 8149, 8177, 8157, 8136,0.6822178363800049
110, 8181, 8197, 8134, 8160, 8171, 8155, 8169, 8162, 8164, 8171, 8154, 8167, 8168, 8130,0.6822178363800049
111, 8194, 8202, 8204, 8162, 8181, 8167, 8175, 8178, 8162, 8182, 8164, 8184, 8173, 8146,0.6822178363800049
112, 8204, 8222, 8190, 8186, 8196, 8184, 8188, 8175, 8170, 8191, 8186, 8199, 8186, 8160,0.6953792572021484
113, 8205, 8215, 8151, 8195, 8192, 8168, 8180, 8162, 8175, 8187, 8184, 8191, 8190, 8155,0.7114579677581787
114, 8204, 8213, 8228, 8182, 8181, 8171, 8176, 8178, 8173, 8178, 8177, 8207, 8184, 8153,0.7114579677581787
115, 8196, 8199, 8157, 8188, 8185, 8175, 8199, 8167, 8192, 8191, 8179, 8194, 8187, 8152,0.7285311222076416
116, 8190, 8194, 8183, 8165, 8180, 8173, 8193, 8173, 8181, 8171, 8158, 8187, 8175, 8153,0.7285311222076416
117, 8183, 8198, 8166, 8156, 8181, 8176, 8192, 8173, 8176, 8163, 8156, 8185, 8179, 8149,0.7285311222076416
118, 8187, 8193, 8131, 8170, 8188, 8160, 8186, 8167, 8185, 8173, 8174, 8176, 8189, 8147,0.7436785697937012
119, 8195, 8204, 8213, 8177, 8189, 8163, 8168, 8181, 8181, 8174, 8174, 8196, 8182, 8152,0.7436785697937012
120, 8177, 8195, 8142, 8185, 8190, 8164, 8176, 8166, 8181, 8180, 8168, 8184, 8188, 8142,0.7582812309265137
121, 8167, 8183, 8167, 8164, 8177, 8150, 8160, 8165, 8152, 8149, 8151, 8169, 8179, 8132,0.7752697467803955
122, 8180, 8194, 8183, 8172, 8178, 8153, 8155, 8168, 8151, 8147, 8157, 8176, 8170, 8140,0.7752697467803955
123, 8199, 8203, 8147, 8198, 8195, 8155, 8173, 8163, 8171, 8175, 8182, 8190, 8191, 8155,0.7752697467803955
124, 8203, 8209, 8218, 8188, 8196, 8158, 8167, 8173, 8160, 8169, 8193, 8216, 8206, 8163,0.7893681526184082
125, 8190, 8199, 8152, 8191, 8196, 8153, 8167, 8162, 8165, 8172, 8193, 8199, 8197, 8155,0.8049921989440918
126, 8205, 8201, 8185, 8194, 8192, 8153, 8167, 8174, 8169, 8176, 8182, 8195, 8184, 8159,0.8049921989440918
127, 8219, 8212, 8211, 8202, 8193, 8168, 8173, 8180, 8171, 8181, 8189, 8214, 8200, 8172,0.8200664520263672
236, 8201, 8194, 8145, 8198, 8190, 8159, 8169, 8163, 8169, 8178, 8195, 8197, 8202, 8163,0.8200664520263672
0, 8194, 8197, 8218, 8191, 8183, 8159, 8159, 8176, 8153, 8164, 8184, 8198, 8184, 8162,0.8358535766601562
1, 8210, 8207, 8172, 8224, 8196, 8169, 8179, 8176, 8169, 8183, 8200, 8203, 8199, 8172,0.8358535766601562
2, 8220, 8202, 8187, 8217, 8199, 8164, 8174, 8173, 8172, 8185, 8200, 8211, 8198, 8172,0.8521578311920166
3, 8195, 8197, 8212, 8197, 8190, 8163, 8170, 8173, 8164, 8178, 8180, 8206, 8180, 8160,0.8521578311920166
4, 8179, 8186, 8141, 8213, 8191, 8159, 8178, 8166, 8162, 8180, 8180, 8185, 8182, 8151,0.8673548698425293
5, 8193, 8194, 8211, 8211, 8193, 8165, 8171, 8183, 8150, 8164, 8182, 8201, 8184, 8163,0.8673548698425293
6, 8194, 8192, 8169, 8218, 8199, 8170, 8185, 8173, 8170, 8175, 8183, 8196, 8187, 8167,0.8831040859222412
7, 8191, 8181, 8170, 8227, 8198, 8167, 8191, 8173, 8177, 8176, 8178, 8185, 8183, 8170,0.8831040859222412
8, 8188, 8187, 8207, 8237, 8197, 8178, 8185, 8181, 8164, 8163, 8171, 8186, 8174, 8170,0.8981268405914307
9, 8183, 8183, 8137, 8244, 8201, 8171, 8186, 8166, 8164, 8171, 8163, 8167, 8177, 8159,0.8981268405914307
10, 8197, 8187, 8203, 8227, 8193, 8172, 8183, 8178, 8162, 8170, 8152, 8185, 8177, 8172,0.9134252071380615
11, 8196, 8179, 8161, 8230, 8190, 8181, 8201, 8175, 8182, 8182, 8167, 8190, 8185, 8183,0.9134252071380615
12, 8188, 8155, 8146, 8216, 8180, 8168, 8207, 8171, 8190, 8191, 8171, 8177, 8188, 8185,0.9291043281555176
13, 8196, 8161, 8196, 8192, 8166, 8174, 8208, 8180, 8189, 8196, 8160, 8183, 8190, 8192,0.9291043281555176
14, 8198, 8160, 8122, 8197, 8167, 8177, 8216, 8170, 8206, 8202, 8159, 8166, 8194, 8185,0.9451906681060791
15, 8184, 8149, 8175, 8178, 8161, 8172, 8195, 8179, 8191, 8175, 8147, 8163, 8178, 8172,0.9451906681060791
16, 8168, 8146, 8142, 8166, 8159, 8169, 8190, 8173, 8180, 8172, 8148, 8160, 8176, 8164,0.9603314399719238
17, 8182, 8157, 8125, 8165, 8159, 8163, 8190, 8168, 8175, 8176, 8167, 8163, 8188, 8166,0.9603314399719238
18, 8201, 8181, 8200, 8176, 8171, 8174, 8184, 8178, 8171, 8167, 8180, 8184, 8193, 8168,0.9763195514678955
19, 8191, 8177, 8136, 8197, 8185, 8163, 8182, 8162, 8173, 8173, 8178, 8168, 8191, 8162,0.9763195514678955
20, 8196, 8179, 8189, 8183, 8174, 8151, 8157, 8168, 8147, 8159, 8169, 8178, 8180, 8165,0.9923696517944336
21, 8203, 8188, 8169, 8187, 8172, 8162, 8155, 8169, 8153, 8155, 8178, 8185, 8183, 8159,0.9923696517944336
22, 8195, 8177, 8131, 8194, 8177, 8161, 8163, 8165, 8169, 8154, 8175, 8166, 8181, 8151,1.0081701278686523
23, 8192, 8186, 8209, 8184, 8177, 8167, 8161, 8178, 8156, 8154, 8174, 8179, 8174, 8153,1.0081701278686523
24, 8205, 8199, 8156, 8209, 8193, 8173, 8181, 8167, 8171, 8182, 8198, 8186, 8188, 8163,1.0234401226043701
25, 8222, 8209, 8204, 8223, 8197, 8181, 8186, 8174, 8187, 8189, 8198, 8197, 8191, 8182,1.0234401226043701
26, 8215, 8206, 8191, 8225, 8194, 8187, 8192, 8176, 8189, 8194, 8185, 8191, 8194, 8178,1.0391473770141602
27, 8198, 8183, 8140, 8211, 8189, 8172, 8191, 8168, 8176, 8193, 8180, 8165, 8203, 8160,1.0391473770141602
28, 8181, 8181, 8202, 8187, 8177, 8180, 8185, 8179, 8164, 8173, 8169, 8168, 8205, 8156,1.0541884899139404
29, 8166, 8177, 8137, 8201, 8181, 8189, 8210, 8170, 8192, 8189, 8167, 8152, 8212, 8154,1.0541884899139404
30, 8180, 8177, 8180, 8204, 8189, 8185, 8217, 8180, 8200, 8200, 8169, 8158, 8218, 8164,1.069364309310913
31, 8184, 8181, 8188, 8199, 8188, 8188, 8209, 8181, 8202, 8202, 8176, 8174, 8230, 8171,1.069364309310913
32, 8175, 8174, 8131, 8200, 8181, 8184, 8203, 8165, 8211, 8208, 8171, 8159, 8227, 8171,1.0853455066680908
33, 8183, 8185, 8202, 8202, 8175, 8188, 8191, 8176, 8194, 8198, 8160, 8165, 8216, 8177,1.0853455066680908
34, 8179, 8180, 8140, 8209, 8178, 8181, 8190, 8166, 8186, 8196, 8165, 8161, 8231, 8175,1.1005234718322754
35, 8176, 8169, 8161, 8185, 8174, 8172, 8174, 8166, 8173, 8181, 8157, 8160, 8234, 8173,1.1005234718322754
36, 8184, 8174, 8186, 8189, 8180, 8187, 8181, 8171, 8179, 8187, 8160, 8170, 8231, 8175,1.1159934997558594
37, 8193, 8171, 8137, 8212, 8190, 8178, 8191, 8167, 8194, 8209, 8176, 8171, 8235, 8175,1.1159934997558594
38, 8201, 8180, 8209, 8192, 8180, 8162, 8166, 8181, 8186, 8192, 8182, 8199, 8233, 8184,1.1325278282165527
39, 8207, 8183, 8150, 8189, 8176, 8158, 8157, 8166, 8193, 8190, 8202, 8204, 8247, 8190,1.1325278282165527
40, 8217, 8181, 8170, 8188, 8174, 8149, 8144, 8162, 8172, 8184, 8208, 8208, 8250, 8189,1.1484663486480713
41, 8205, 8190, 8210, 8193, 8179, 8149, 8143, 8176, 8152, 8176, 8194, 8213, 8234, 8178,1.1484663486480713
42, 8191, 8184, 8139, 8209, 8183, 8148, 8160, 8166, 8163, 8178, 8184, 8192, 8224, 8165,1.163431167602539
43, 8202, 8189, 8207, 8195, 8173, 8160, 8155, 8168, 8152, 8156, 8186, 8200, 8220, 8168,1.163431167602539
44, 8196, 8194, 8162, 8198, 8179, 8166, 8158, 8158, 8147, 8158, 8203, 8194, 8225, 8164,1.1795175075531006
45, 8187, 8191, 8161, 8197, 8183, 8162, 8153, 8166, 8141, 8166, 8206, 8189, 8218, 8159,1.1795175075531006
46, 8193, 8200, 8207, 8200, 8183, 8171, 8153, 8177, 8136, 8171, 8202, 8204, 8208, 8166,1.1947541236877441
47, 8197, 8195, 8143, 8220, 8193, 8160, 8168, 8160, 8141, 8177, 8199, 8187, 8205, 8159,1.1947541236877441
48, 8199, 8197, 8205, 8209, 8192, 8166, 8161, 8174, 8134, 8166, 8192, 8192, 8198, 8156,1.2104222774505615
49, 8194, 8199, 8166, 8213, 8193, 8191, 8175, 8176, 8149, 8188, 8204, 8190, 8209, 8166,1.2104222774505615
50, 8190, 8184, 8155, 8215, 8191, 8190, 8188, 8171, 8150, 8199, 8199, 8173, 8211, 8174,1.2254564762115479
51, 8191, 8172, 8205, 8200, 8183, 8189, 8184, 8174, 8149, 8192, 8175, 8171, 8199, 8172,1.2254564762115479
52, 8191, 8160, 8126, 8195, 8175, 8180, 8187, 8164, 8177, 8200, 8176, 8156, 8199, 8166,1.2409794330596924
53, 8200, 8173, 8190, 8185, 8171, 8176, 8188, 8181, 8180, 8194, 8182, 8174, 8203, 8178,1.256640911102295
54, 8201, 8178, 8168, 8197, 8184, 8186, 8211, 8178, 8195, 8205, 8186, 8181, 8208, 8183,1.256640911102295
55, 8194, 8158, 8135, 8177, 8178, 8174, 8205, 8170, 8200, 8200, 8172, 8160, 8198, 8170,1.256640911102295
56, 8191, 8168, 8192, 8150, 8159, 8168, 8176, 8180, 8183, 8175, 8165, 8172, 8191, 8168,1.2722759246826172
57, 8193, 8179, 8135, 8179, 8163, 8158, 8176, 8172, 8193, 8181, 8191, 8179, 8206, 8170,1.2722759246826172
58, 8196, 8172, 8190, 8175, 8166, 8154, 8170, 8181, 8188, 8185, 8196, 8190, 8209, 8174,1.2877542972564697
59, 8182, 8162, 8162, 8153, 8165, 8160, 8174, 8175, 8186, 8192, 8186, 8181, 8204, 8166,1.305206298828125
60, 8188, 8164, 8139, 8164, 8161, 8147, 8161, 8162, 8177, 8177, 8182, 8173, 8193, 8160,1.305206298828125
61, 8204, 8190, 8224, 8182, 8157, 8147, 8134, 8169, 8154, 8147, 8183, 8198, 8182, 8167,1.305206298828125
62, 8194, 8183, 8146, 8182, 8169, 8154, 8142, 8157, 8154, 8164, 8196, 8193, 8189, 8163,1.3193190097808838
63, 8197, 8182, 8191, 8169, 8178, 8159, 8147, 8164, 8144, 8173, 8199, 8200, 8190, 8168,1.3193190097808838
64, 8212, 8204, 8206, 8202, 8191, 8166, 8156, 8165, 8153, 8185, 8210, 8208, 8202, 8177,1.3354620933532715
65, 8216, 8203, 8161, 8212, 8193, 8160, 8155, 8163, 8163, 8196, 8218, 8199, 8208, 8181,1.3354620933532715
66, 8212, 8204, 8225, 8186, 8181, 8168, 8147, 8185, 8152, 8187, 8217, 8214, 8200, 8185,1.3520987033843994
67, 8205, 8200, 8166, 8211, 8186, 8173, 8164, 8175, 8171, 8205, 8225, 8203, 8211, 8185,1.3666887283325195
68, 8201, 8195, 8199, 8215, 8187, 8171, 8154, 8172, 8172, 8202, 8215, 8197, 8201, 8179,1.3666887283325195
69, 8189, 8203, 8197, 8205, 8183, 8173, 8151, 8171, 8160, 8189, 8202, 8193, 8178, 8164,1.3822321891784668
70, 8188, 8208, 8144, 8218, 8186, 8164, 8168, 8164, 8155, 8195, 8205, 8185, 8180, 8161,1.3822321891784668
71, 8190, 8205, 8212, 8217, 8187, 8175, 8165, 8178, 8145, 8188, 8201, 8196, 8180, 8163,1.3822321891784668
72, 8161, 8178, 8141, 8211, 8186, 8179, 8171, 8166, 8149, 8177, 8180, 8162, 8162, 8141,1.3964762687683105
73, 8151, 8169, 8165, 8201, 8180, 8177, 8174, 8172, 8136, 8157, 8151, 8146, 8140, 8135,1.412522554397583
74, 8162, 8184, 8197, 8218, 8189, 8202, 8186, 8180, 8148, 8170, 8163, 8167, 8151, 8148,1.412522554397583
75, 8160, 8166, 8132, 8225, 8195, 8200, 8192, 8164, 8168, 8193, 8181, 8158, 8164, 8150,1.427779197692871
76, 8167, 8161, 8194, 8203, 8186, 8195, 8177, 8176, 8155, 8188, 8170, 8165, 8160, 8163,1.427779197692871
77, 8178, 8170, 8145, 8219, 8197, 8201, 8188, 8171, 8171, 8206, 8179, 8166, 8182, 8178,1.4433608055114746
78, 8187, 8172, 8170, 8227, 8201, 8190, 8185, 8173, 8188, 8213, 8188, 8173, 8193, 8188,1.4433608055114746
79, 8187, 8180, 8208, 8225, 8190, 8184, 8187, 8184, 8197, 8220, 8197, 8193, 8195, 8196,1.4591209888458252
80, 8180, 8167, 8125, 8220, 8181, 8177, 8193, 8168, 8197, 8225, 8190, 8172, 8188, 8184,1.4591209888458252
81, 8176, 8162, 8182, 8186, 8170, 8182, 8181, 8170, 8169, 8196, 8158, 8162, 8162, 8171,1.4747378826141357
82, 8172, 8166, 8145, 8192, 8178, 8184, 8197, 8168, 8176, 8201, 8179, 8171, 8174, 8179,1.4747378826141357
83, 8188, 8167, 8154, 8198, 8182, 8172, 8197, 8177, 8193, 8214, 8221, 8195, 8204, 8205,1.490433931350708
84, 8195, 8172, 8199, 8187, 8168, 8177, 8176, 8183, 8200, 8222, 8218, 8209, 8204, 8206,1.490433931350708
85, 8175, 8166, 8128, 8193, 8162, 8168, 8164, 8165, 8208, 8231, 8201, 8182, 8193, 8182,1.5061213970184326
86, 8176, 8178, 8195, 8185, 8168, 8168, 8156, 8180, 8197, 8215, 8211, 8200, 8195, 8186,1.5061213970184326
87, 8187, 8173, 8163, 8185, 8179, 8171, 8181, 8181, 8207, 8221, 8231, 8213, 8218, 8197,1.5220906734466553
88, 8186, 8161, 8150, 8178, 8171, 8153, 8185, 8171, 8199, 8209, 8217, 8202, 8212, 8186,1.5220906734466553
89, 8181, 8185, 8199, 8174, 8170, 8159, 8170, 8175, 8174, 8187, 8204, 8204, 8187, 8170,1.5370936393737793
90, 8181, 8189, 8132, 8187, 8186, 8164, 8173, 8168, 8178, 8194, 8208, 8187, 8187, 8161,1.5370936393737793
91, 8196, 8187, 8202, 8181, 8181, 8153, 8169, 8180, 8172, 8185, 8205, 8206, 8197, 8173,1.5529098510742188
92, 8206, 8196, 8186, 8196, 8184, 8151, 8176, 8175, 8184, 8197, 8220, 8225, 8209, 8191,1.5529098510742188
93, 8221, 8204, 8171, 8213, 8195, 8156, 8177, 8175, 8193, 8215, 8238, 8229, 8215, 8202,1.567979097366333
94, 8229, 8217, 8229, 8212, 8191, 8166, 8170, 8188, 8185, 8203, 8241, 8240, 8215, 8202,1.567979097366333
95, 8206, 8203, 8146, 8200, 8182, 8153, 8181, 8168, 8193, 8199, 8240, 8219, 8212, 8188,1.584024429321289
96, 8200, 8196, 8197, 8174, 8169, 8153, 8175, 8169, 8183, 8191, 8224, 8219, 8194, 8185,1.584024429321289
97, 8205, 8202, 8192, 8192, 8173, 8171, 8177, 8173, 8187, 8197, 8222, 8220, 8198, 8181,1.6000404357910156
98, 8203, 8196, 8156, 8203, 8182, 8164, 8176, 8172, 8194, 8206, 8228, 8210, 8206, 8176,1.6000404357910156
99, 8197, 8200, 8214, 8186, 8183, 8172, 8170, 8178, 8172, 8196, 8217, 8219, 8194, 8179,1.6154239177703857
100, 8185, 8194, 8140, 8203, 8189, 8179, 8189, 8159, 8159, 8195, 8203, 8194, 8185, 8171,1.6154239177703857
101, 8179, 8186, 8187, 8207, 8183, 8179, 8188, 8169, 8150, 8182, 8187, 8185, 8177, 8167,1.6313481330871582
102, 8167, 8181, 8179, 8200, 8180, 8193, 8191, 8178, 8177, 8193, 8191, 8189, 8178, 8167,1.6313481330871582
103, 8161, 8168, 8121, 8183, 8179, 8186, 8196, 8171, 8206, 8212, 8197, 8177, 8180, 8170,1.6472742557525635
104, 8166, 8178, 8194, 8176, 8173, 8183, 8186, 8178, 8199, 8204, 8193, 8189, 8188, 8177,1.6472742557525635
105, 8176, 8182, 8135, 8200, 8177, 8181, 8189, 8164, 8205, 8218, 8205, 8191, 8213, 8179,1.6622989177703857
106, 8186, 8172, 8162, 8173, 8169, 8168, 8162, 8165, 8187, 8209, 8200, 8198, 8207, 8175,1.6622989177703857
107, 8183, 8172, 8173, 8155, 8170, 8159, 8144, 8168, 8172, 8192, 8196, 8202, 8198, 8170,1.6781034469604492
108, 8188, 8177, 8138, 8180, 8178, 8149, 8146, 8159, 8179, 8193, 8206, 8199, 8208, 8166,1.6781034469604492
109, 8196, 8192, 8212, 8177, 8170, 8157, 8139, 8170, 8171, 8181, 8204, 8220, 8195, 8166,1.6931135654449463
110, 8181, 8187, 8140, 8167, 8172, 8158, 8149, 8161, 8168, 8174, 8199, 8203, 8181, 8156,1.6931135654449463
111, 8182, 8188, 8171, 8166, 8174, 8155, 8146, 8167, 8156, 8150, 8182, 8188, 8170, 8146,1.708247423171997
112, 8183, 8205, 8202, 8188, 8175, 8169, 8147, 8176, 8156, 8145, 8173, 8184, 8158, 8145,1.708247423171997
113, 8173, 8197, 8134, 8196, 8181, 8169, 8158, 8168, 8164, 8165, 8178, 8170, 8161, 8156,1.723750352859497
114, 8185, 8199, 8205, 8180, 8188, 8184, 8164, 8185, 8166, 8178, 8177, 8191, 8174, 8173,1.723750352859497
115, 8190, 8204, 8155, 8206, 8202, 8198, 8192, 8177, 8192, 8205, 8179, 8179, 8179, 8164,1.7394187450408936
116, 8186, 8202, 8164, 8214, 8203, 8195, 8194, 8173, 8189, 8196, 8172, 8172, 8170, 8163,1.7394187450408936
117, 8179, 8197, 8194, 8185, 8189, 8198, 8187, 8176, 8181, 8189, 8169, 8191, 8178, 8175,1.7551724910736084
118, 8165, 8170, 8118, 8168, 8176, 8182, 8192, 8161, 8195, 8206, 8164, 8170, 8180, 8162,1.7551724910736084
119, 8154, 8169, 8177, 8161, 8174, 8178, 8187, 8174, 8182, 8189, 8148, 8166, 8158, 8148,1.771087408065796
120, 8143, 8166, 8125, 8165, 8177, 8177, 8186, 8170, 8180, 8178, 8145, 8160, 8159, 8137,1.771087408065796
121, 8146, 8150, 8126, 8145, 8160, 8156, 8163, 8170, 8184, 8176, 8134, 8153, 8161, 8134,1.7862331867218018
122, 8157, 8161, 8183, 8146, 8156, 8156, 8156, 8175, 8194, 8185, 8143, 8173, 8168, 8150,1.7862331867218018
123, 8160, 8163, 8121, 8171, 8173, 8160, 8175, 8161, 8207, 8199, 8168, 8176, 8186, 8159,1.8022282123565674
124, 8163, 8159, 8182, 8154, 8166, 8167, 8167, 8174, 8191, 8175, 8155, 8183, 8181, 8156,1.8022282123565674
125, 8159, 8159, 8144, 8159, 8165, 8167, 8166, 8166, 8191, 8177, 8151, 8178, 8178, 8147,1.8169193267822266
126, 8160, 8161, 8137, 8169, 8170, 8152, 8158, 8160, 8190, 8189, 8160, 8180, 8183, 8146,1.8169193267822266
127, 8174, 8171, 8198, 8162, 8161, 8157, 8154, 8176, 8186, 8192, 8163, 8202, 8193, 8158,1.8324923515319824
236, 8178, 8162, 8130, 8161, 8156, 8156, 8168, 8165, 8190, 8192, 8169, 8190, 8199, 8161,1.8324923515319824
0, 8181, 8162, 8191, 8149, 8156, 8151, 8159, 8168, 8160, 8160, 8162, 8198, 8180, 8157,1.8480591773986816
1, 8179, 8169, 8165, 8159, 8163, 8152, 8165, 8162, 8155, 8153, 8154, 8197, 8175, 8146,1.8480591773986816
2, 8182, 8167, 8143, 8160, 8161, 8148, 8173, 8160, 8161, 8155, 8149, 8188, 8180, 8142,1.864140272140503
3, 8188, 8172, 8207, 8151, 8164, 8163, 8165, 8173, 8154, 8150, 8161, 8212, 8181, 8155,1.864140272140503
4, 8191, 8166, 8137, 8164, 8175, 8163, 8164, 8162, 8162, 8168, 8184, 8214, 8189, 8161,1.8801863193511963
5, 8199, 8178, 8196, 8166, 8176, 8163, 8156, 8170, 8153, 8167, 8181, 8224, 8188, 8163,1.8801863193511963
6, 8190, 8195, 8180, 8181, 8189, 8183, 8168, 8170, 8166, 8166, 8180, 8223, 8189, 8159,1.8954427242279053
7, 8180, 8185, 8142, 8183, 8193, 8175, 8166, 8164, 8176, 8162, 8181, 8211, 8188, 8151,1.8954427242279053
8, 8175, 8183, 8213, 8168, 8175, 8164, 8148, 8174, 8156, 8150, 8170, 8220, 8173, 8148,1.910965919494629
9, 8171, 8181, 8142, 8183, 8175, 8165, 8160, 8162, 8166, 8168, 8171, 8205, 8175, 8146,1.910965919494629
10, 8182, 8182, 8186, 8182, 8178, 8169, 8159, 8173, 8167, 8170, 8171, 8213, 8182, 8156,1.926682949066162
11, 8172, 8174, 8180, 8181, 8174, 8163, 8163, 8176, 8169, 8178, 8179, 8217, 8188, 8160,1.926682949066162
12, 8163, 8157, 8128, 8184, 8176, 8154, 8170, 8166, 8175, 8187, 8180, 8192, 8183, 8154,1.943004846572876
13, 8171, 8169, 8203, 8190, 8181, 8184, 8176, 8175, 8169, 8186, 8170, 8201, 8173, 8163,1.943004846572876
14, 8168, 8170, 8137, 8215, 8186, 8195, 8198, 8164, 8179, 8207, 8169, 8194, 8184, 8169,1.958085298538208
15, 8164, 8167, 8162, 8206, 8175, 8172, 8184, 8165, 8164, 8189, 8155, 8187, 8184, 8170,1.9733641147613525
16, 8162, 8176, 8176, 8206, 8179, 8167, 8171, 8167, 8158, 8170, 8157, 8190, 8180, 8159,1.9733641147613525
17, 8166, 8174, 8136, 8224, 8194, 8169, 8180, 8165, 8171, 8187, 8173, 8189, 8180, 8154,1.9733641147613525
18, 8171, 8178, 8200, 8210, 8183, 8173, 8178, 8175, 8163, 8184, 8158, 8194, 8166, 8156,1.9903862476348877
19, 8151, 8163, 8125, 8199, 8169, 8167, 8175, 8154, 8152, 8170, 8136, 8155, 8153, 8138,1.9903862476348877
20, 8150, 8152, 8154, 8190, 8174, 8171, 8176, 8167, 8152, 8164, 8129, 8153, 8147, 8136,2.0104188919067383
21, 8163, 8169, 8185, 8193, 8191, 8194, 8201, 8187, 8182, 8180, 8143, 8182, 8158, 8145,2.0114197731018066
22, 8160, 8162, 8124, 8192, 8187, 8185, 8203, 8167, 8194, 8183, 8148, 8173, 8161, 8137,2.020991086959839
23, 8168, 8166, 8198, 8185, 8179, 8181, 8186, 8175, 8182, 8178, 8139, 8193, 8153, 8154,2.0370161533355713
24, 8174, 8174, 8150, 8214, 8202, 8186, 8209, 8179, 8207, 8209, 8148, 8198, 8168, 8169,2.0370161533355713
25, 8171, 8171, 8157, 8210, 8200, 8176, 8210, 8175, 8196, 8198, 8147, 8183, 8163, 8156,2.0370161533355713
26, 8164, 8171, 8186, 8192, 8182, 8177, 8197, 8170, 8179, 8176, 8145, 8187, 8152, 8148,2.052548408508301
27, 8161, 8160, 8119, 8193, 8183, 8173, 8198, 8164, 8204, 8203, 8150, 8178, 8159, 8158,2.069308280944824
28, 8160, 8165, 8191, 8186, 8187, 8179, 8187, 8179, 8197, 8207, 8148, 8181, 8157, 8157,2.069308280944824
29, 8148, 8167, 8148, 8200, 8187, 8186, 8188, 8165, 8181, 8192, 8150, 8170, 8155, 8137,2.069308280944824
30, 8152, 8153, 8141, 8184, 8170, 8173, 8178, 8162, 8173, 8169, 8139, 8165, 8150, 8139,2.085247755050659
31, 8162, 8158, 8185, 8164, 8157, 8168, 8168, 8173, 8179, 8169, 8145, 8185, 8158, 8158,2.085247755050659
32, 8166, 8168, 8126, 8186, 8165, 8160, 8180, 8164, 8203, 8197, 8164, 8182, 8178, 8159,2.099374294281006
33, 8178, 8176, 8195, 8185, 8167, 8165, 8169, 8181, 8204, 8193, 8160, 8194, 8179, 8164,2.099374294281006
34, 8182, 8176, 8160, 8184, 8179, 8181, 8175, 8181, 8216, 8211, 8180, 8204, 8194, 8176,2.115307092666626
35, 8194, 8183, 8159, 8186, 8190, 8182, 8191, 8180, 8232, 8232, 8207, 8223, 8219, 8190,2.115307092666626
36, 8202, 8188, 8208, 8175, 8181, 8182, 8184, 8190, 8231, 8214, 8192, 8232, 8208, 8185,2.1314451694488525
37, 8175, 8161, 8113, 8163, 8166, 8160, 8166, 8168, 8201, 8179, 8163, 8188, 8172, 8147,2.132444381713867
38, 8160, 8165, 8167, 8146, 8157, 8152, 8150, 8169, 8157, 8141, 8154, 8187, 8151, 8129,2.1461145877838135
39, 8164, 8184, 8161, 8160, 8171, 8167, 8172, 8170, 8185, 8155, 8162, 8191, 8167, 8135,2.161463975906372
40, 8171, 8180, 8144, 8160, 8177, 8158, 8170, 8166, 8200, 8170, 8154, 8176, 8173, 8136,2.161463975906372
41, 8167, 8187, 8200, 8156, 8169, 8159, 8153, 8172, 8173, 8168, 8152, 8189, 8161, 8134,2.177643299102783
42, 8157, 8182, 8129, 8172, 8172, 8157, 8158, 8162, 8185, 8179, 8167, 8179, 8160, 8131,2.177643299102783
43, 8158, 8173, 8184, 8151, 8164, 8144, 8137, 8172, 8177, 8150, 8152, 8174, 8147, 8122,2.177643299102783
44, 8155, 8174, 8175, 8153, 8160, 8149, 8140, 8171, 8165, 8144, 8141, 8172, 8139, 8106,2.192373752593994
45, 8160, 8174, 8143, 8173, 8167, 8161, 8163, 8168, 8175, 8167, 8149, 8171, 8144, 8111,2.2082574367523193
46, 8168, 8187, 8209, 8162, 8172, 8174, 8158, 8180, 8180, 8168, 8159, 8193, 8146, 8128,2.2082574367523193
47, 8169, 8191, 8143, 8178, 8185, 8172, 8164, 8168, 8196, 8182, 8168, 8184, 8152, 8127,2.2233753204345703
48, 8178, 8198, 8192, 8200, 8185, 8180, 8174, 8179, 8195, 8188, 8161, 8189, 8148, 8137,2.2233753204345703
49, 8175, 8194, 8191, 8210, 8183, 8196, 8198, 8181, 8201, 8204, 8168, 8195, 8153, 8149,2.23848295211792
50, 8160, 8160, 8138, 8196, 8174, 8183, 8207, 8170, 8200, 8206, 8162, 8175, 8152, 8142,2.23848295211792
51, 8155, 8157, 8202, 8172, 8157, 8183, 8196, 8179, 8182, 8183, 8144, 8182, 8140, 8137,2.2540392875671387
52, 8160, 8163, 8136, 8185, 8163, 8187, 8207, 8169, 8201, 8203, 8160, 8181, 8156, 8143,2.2540392875671387
53, 8171, 8158, 8173, 8184, 8169, 8179, 8197, 8175, 8203, 8203, 8157, 8184, 8159, 8148,2.270132303237915
54, 8166, 8158, 8190, 8183, 8166, 8179, 8187, 8174, 8190, 8178, 8139, 8188, 8146, 8140,2.270132303237915
55, 8164, 8156, 8140, 8188, 8171, 8170, 8184, 8163, 8195, 8182, 8147, 8183, 8153, 8140,2.2853219509124756
56, 8179, 8167, 8216, 8179, 8177, 8180, 8177, 8178, 8203, 8198, 8164, 8204, 8167, 8158,2.2853219509124756
57, 8174, 8160, 8154, 8179, 8176, 8182, 8182, 8165, 8209, 8196, 8162, 8191, 8169, 8145,2.3013737201690674
58, 8170, 8152, 8174, 8158, 8163, 8166, 8170, 8166, 8194, 8163, 8143, 8185, 8153, 8128,2.3013737201690674
59, 8172, 8157, 8203, 8156, 8166, 8173, 8175, 8176, 8199, 8167, 8144, 8197, 8153, 8138,2.3170673847198486
60, 8164, 8140, 8145, 8157, 8169, 8170, 8179, 8159, 8203, 8173, 8150, 8185, 8155, 8141,2.3170673847198486
61, 8166, 8142, 8211, 8139, 8155, 8168, 8160, 8165, 8177, 8142, 8142, 8197, 8147, 8139,2.332044839859009
62, 8172, 8158, 8158, 8163, 8163, 8163, 8174, 8163, 8188, 8150, 8146, 8193, 8157, 8138,2.332044839859009
63, 8175, 8159, 8175, 8161, 8172, 8154, 8177, 8165, 8188, 8159, 8150, 8194, 8155, 8144,2.3481454849243164
64, 8167, 8156, 8209, 8133, 8163, 8169, 8159, 8170, 8170, 8154, 8152, 8204, 8150, 8143,2.3481454849243164
65, 8165, 8145, 8144, 8141, 8163, 8172, 8163, 8164, 8176, 8158, 8158, 8186, 8157, 8131,2.36352276802063
66, 8173, 8161, 8217, 8157, 8174, 8171, 8169, 8180, 8178, 8152, 8158, 8199, 8149, 8134,2.36352276802063
67, 8172, 8175, 8176, 8174, 8187, 8167, 8182, 8174, 8201, 8172, 8172, 8206, 8158, 8136,2.3791375160217285
68, 8178, 8173, 8174, 8162, 8181, 8158, 8171, 8171, 8199, 8176, 8173, 8204, 8166, 8139,2.3791375160217285
69, 8177, 8182, 8218, 8159, 8179, 8171, 8163, 8178, 8173, 8153, 8167, 8212, 8155, 8146,2.394298791885376
70, 8161, 8175, 8150, 8172, 8189, 8168, 8166, 8164, 8173, 8146, 8164, 8189, 8140, 8131,2.394298791885376
71, 8160, 8173, 8215, 8153, 8178, 8163, 8149, 8168, 8166, 8137, 8144, 8185, 8128, 8120,2.410015821456909
72, 8167, 8173, 8178, 8159, 8182, 8173, 8156, 8164, 8173, 8148, 8141, 8181, 8136, 8125,2.410015821456909
73, 8166, 8166, 8158, 8156, 8184, 8177, 8159, 8163, 8155, 8132, 8142, 8170, 8127, 8120,2.4252583980560303
74, 8154, 8165, 8208, 8134, 8166, 8182, 8145, 8160, 8118, 8097, 8126, 8169, 8103, 8103,2.4252583980560303
75, 8147, 8159, 8141, 8154, 8171, 8179, 8161, 8144, 8131, 8122, 8125, 8150, 8111, 8105,2.440760374069214
76, 8162, 8171, 8205, 8175, 8189, 8192, 8175, 8171, 8152, 8148, 8124, 8160, 8127, 8129,2.440760374069214
77, 8170, 8177, 8184, 8192, 8200, 8209, 8196, 8177, 8174, 8162, 8134, 8168, 8146, 8139,2.456770420074463
78, 8166, 8162, 8159, 8193, 8192, 8196, 8202, 8169, 8179, 8164, 8138, 8165, 8153, 8148,2.456770420074463
79, 8161, 8161, 8211, 8179, 8180, 8198, 8192, 8187, 8180, 8165, 8127, 8165, 8144, 8151,2.4723973274230957
80, 8155, 8154, 8133, 8180, 8181, 8196, 8194, 8177, 8199, 8185, 8127, 8144, 8144, 8138,2.4723973274230957
81, 8167, 8156, 8194, 8170, 8178, 8187, 8181, 8180, 8196, 8183, 8128, 8168, 8153, 8148,2.4881534576416016
82, 8172, 8159, 8185, 8174, 8175, 8182, 8188, 8179, 8198, 8184, 8137, 8185, 8164, 8157,2.4881534576416016
83, 8165, 8148, 8142, 8168, 8163, 8163, 8185, 8161, 8187, 8176, 8139, 8171, 8158, 8146,2.5034613609313965
84, 8172, 8157, 8212, 8152, 8159, 8162, 8164, 8162, 8162, 8154, 8140, 8186, 8157, 8149,2.5034613609313965
85, 8177, 8161, 8146, 8170, 8173, 8158, 8164, 8154, 8167, 8155, 8151, 8177, 8164, 8150,2.519007921218872
86, 8184, 8168, 8192, 8168, 8165, 8147, 8155, 8163, 8162, 8147, 8154, 8182, 8155, 8142,2.519007921218872
87, 8180, 8177, 8197, 8167, 8162, 8152, 8159, 8166, 8159, 8153, 8170, 8189, 8157, 8136,2.5344862937927246
88, 8165, 8157, 8139, 8160, 8168, 8150, 8154, 8163, 8146, 8149, 8163, 8163, 8143, 8126,2.5344862937927246
89, 8155, 8159, 8205, 8152, 8166, 8161, 8137, 8170, 8125, 8131, 8143, 8170, 8118, 8122,2.5501182079315186
90, 8154, 8173, 8156, 8188, 8173, 8168, 8160, 8156, 8148, 8159, 8162, 8172, 8139, 8127,2.5501182079315186
91, 8168, 8178, 8197, 8194, 8180, 8175, 8182, 8171, 8172, 8176, 8170, 8177, 8163, 8149,2.5657713413238525
92, 8166, 8167, 8200, 8183, 8188, 8193, 8197, 8178, 8190, 8185, 8160, 8179, 8159, 8157,2.5657713413238525
93, 8150, 8141, 8138, 8181, 8187, 8188, 8198, 8166, 8202, 8193, 8154, 8160, 8152, 8143,2.5820748805999756
94, 8154, 8143, 8206, 8162, 8170, 8190, 8193, 8181, 8202, 8178, 8147, 8165, 8153, 8144,2.5820748805999756
95, 8157, 8141, 8140, 8156, 8166, 8181, 8203, 8169, 8222, 8179, 8149, 8163, 8162, 8144,2.597219467163086
96, 8158, 8138, 8166, 8142, 8166, 8161, 8181, 8170, 8212, 8171, 8151, 8178, 8158, 8148,2.597219467163086
97, 8159, 8154, 8200, 8142, 8167, 8159, 8165, 8179, 8204, 8173, 8166, 8194, 8166, 8157,2.6124234199523926
98, 8165, 8156, 8140, 8154, 8172, 8147, 8165, 8167, 8211, 8183, 8187, 8186, 8180, 8154,2.6124234199523926
99, 8185, 8177, 8222, 8164, 8175, 8153, 8158, 8175, 8197, 8171, 8193, 8212, 8175, 8157,2.628385305404663
100, 8196, 8190, 8189, 8190, 8185, 8166, 8175, 8169, 8209, 8185, 8201, 8215, 8183, 8165,2.628385305404663
101, 8195, 8180, 8191, 8172, 8180, 8161, 8167, 8169, 8205, 8186, 8200, 8210, 8183, 8165,2.6439921855926514
102, 8179, 8180, 8211, 8164, 8179, 8170, 8156, 8174, 8184, 8174, 8194, 8209, 8165, 8155,2.6439921855926514
103, 8163, 8174, 8146, 8193, 8193, 8179, 8178, 8161, 8184, 8182, 8183, 8175, 8159, 8146,2.661334753036499
104, 8161, 8178, 8218, 8188, 8193, 8190, 8190, 8170, 8175, 8178, 8162, 8170, 8155, 8145,2.661334753036499
105, 8149, 8169, 8170, 8185, 8187, 8186, 8193, 8166, 8175, 8181, 8163, 8164, 8160, 8134,2.675248861312866
106, 8152, 8159, 8164, 8184, 8179, 8170, 8173, 8172, 8170, 8179, 8167, 8160, 8167, 8142,2.675248861312866
107, 8164, 8177, 8209, 8195, 8180, 8180, 8159, 8180, 8180, 8187, 8172, 8178, 8174, 8163,2.6896259784698486
108, 8164, 8178, 8143, 8208, 8181, 8179, 8168, 8162, 8201, 8202, 8179, 8177, 8182, 8157,2.6896259784698486
109, 8173, 8177, 8211, 8179, 8172, 8175, 8168, 8169, 8181, 8179, 8167, 8190, 8178, 8157,2.706688642501831
110, 8170, 8173, 8171, 8175, 8169, 8180, 8174, 8159, 8163, 8173, 8159, 8180, 8171, 8162,2.706688642501831
111, 8162, 8158, 8148, 8178, 8155, 8169, 8163, 8158, 8150, 8162, 8148, 8164, 8155, 8155,2.7212469577789307
112, 8161, 8158, 8197, 8159, 8145, 8166, 8157, 8173, 8145, 8136, 8139, 8173, 8153, 8155,2.7222492694854736
113, 8163, 8153, 8130, 8155, 8157, 8158, 8168, 8161, 8159, 8143, 8151, 8173, 8171, 8165,2.737717390060425
114, 8179, 8160, 8204, 8149, 8157, 8156, 8154, 8169, 8153, 8151, 8161, 8202, 8167, 8178,2.737717390060425
115, 8185, 8165, 8182, 8159, 8160, 8163, 8159, 8167, 8166, 8168, 8172, 8208, 8165, 8174,2.7524526119232178
116, 8187, 8155, 8154, 8156, 8165, 8158, 8158, 8165, 8176, 8176, 8174, 8193, 8170, 8163,2.769965410232544
117, 8193, 8171, 8230, 8155, 8162, 8160, 8138, 8182, 8164, 8166, 8185, 8209, 8171, 8166,2.769965410232544
118, 8197, 8183, 8170, 8182, 8168, 8160, 8144, 8174, 8179, 8174, 8220, 8202, 8174, 8170,2.769965410232544
119, 8201, 8185, 8219, 8175, 8172, 8165, 8144, 8177, 8182, 8168, 8218, 8207, 8166, 8168,2.7834224700927734
120, 8186, 8181, 8204, 8172, 8176, 8175, 8153, 8173, 8176, 8171, 8201, 8202, 8165, 8157,2.798801898956299
121, 8164, 8160, 8157, 8173, 8172, 8175, 8165, 8165, 8163, 8166, 8188, 8171, 8150, 8149,2.798801898956299
122, 8157, 8154, 8209, 8162, 8166, 8189, 8171, 8176, 8151, 8150, 8166, 8165, 8129, 8147,2.8157060146331787
123, 8158, 8152, 8135, 8172, 8172, 8190, 8191, 8165, 8171, 8162, 8150, 8147, 8143, 8142,2.8157060146331787
124, 8168, 8152, 8185, 8161, 8164, 8185, 8191, 8176, 8173, 8161, 8143, 8151, 8145, 8157,2.8157060146331787
125, 8165, 8149, 8188, 8146, 8151, 8190, 8194, 8178, 8173, 8165, 8154, 8158, 8136, 8162,2.830350160598755
126, 8168, 8143, 8141, 8138, 8151, 8177, 8186, 8166, 8173, 8163, 8166, 8152, 8143, 8150,2.8460280895233154
127, 8190, 8167, 8215, 8132, 8162, 8180, 8171, 8177, 8171, 8158, 8175, 8184, 8162, 8161,2.8460280895233154
236, 8192, 8172, 8152, 8150, 8178, 8182, 8177, 8165, 8191, 8182, 8191, 8183, 8180, 8168,2.8615007400512695
0, 8175, 8163, 8181, 8141, 8168, 8164, 8157, 8166, 8167, 8166, 8183, 8172, 8162, 8154,2.8615007400512695
1, 8160, 8164, 8196, 8131, 8159, 8161, 8154, 8171, 8144, 8147, 8179, 8175, 8149, 8136,2.8774569034576416
2, 8162, 8165, 8150, 8141, 8169, 8164, 8170, 8165, 8155, 8167, 8185, 8170, 8158, 8137,2.8774569034576416
3, 8173, 8184, 8225, 8155, 8171, 8183, 8165, 8180, 8155, 8175, 8186, 8182, 8163, 8149,2.893127202987671
4, 8159, 8174, 8156, 8178, 8171, 8188, 8172, 8168, 8161, 8170, 8178, 8154, 8160, 8138,2.893127202987671
5, 8145, 8150, 8164, 8157, 8160, 8180, 8166, 8168, 8148, 8155, 8152, 8129, 8141, 8130,2.90850830078125
6, 8144, 8148, 8190, 8140, 8152, 8182, 8164, 8174, 8152, 8172, 8152, 8141, 8140, 8141,2.90850830078125
7, 8154, 8143, 8139, 8150, 8155, 8171, 8174, 8164, 8179, 8198, 8171, 8151, 8158, 8152,2.9236598014831543
8, 8171, 8150, 8211, 8143, 8157, 8169, 8169, 8172, 8170, 8180, 8170, 8171, 8161, 8162,2.9236598014831543
9, 8170, 8148, 8154, 8144, 8159, 8166, 8167, 8164, 8172, 8187, 8183, 8165, 8174, 8167,2.93947434425354
10, 8174, 8141, 8167, 8131, 8144, 8151, 8151, 8171, 8176, 8188, 8195, 8173, 8184, 8174,2.93947434425354
11, 8185, 8153, 8209, 8128, 8142, 8159, 8157, 8182, 8186, 8178, 8195, 8194, 8187, 8175,2.954496383666992
12, 8196, 8159, 8148, 8152, 8160, 8164, 8181, 8171, 8206, 8190, 8200, 8187, 8195, 8175,2.954496383666992
13, 8207, 8169, 8223, 8146, 8163, 8166, 8169, 8181, 8196, 8183, 8203, 8204, 8191, 8188,2.9704201221466064
14, 8196, 8167, 8172, 8142, 8162, 8168, 8175, 8173, 8200, 8193, 8216, 8201, 8200, 8187,2.9704201221466064
15, 8191, 8162, 8162, 8139, 8157, 8157, 8176, 8172, 8193, 8189, 8214, 8199, 8208, 8180,2.9860551357269287
16, 8184, 8172, 8209, 8145, 8151, 8160, 8165, 8177, 8176, 8160, 8198, 8198, 8187, 8164,2.9860551357269287
17, 8161, 8156, 8129, 8147, 8147, 8155, 8163, 8163, 8165, 8145, 8183, 8161, 8159, 8130,3.002148151397705
18, 8160, 8152, 8187, 8125, 8140, 8156, 8154, 8177, 8149, 8143, 8184, 8174, 8154, 8125,3.002148151397705
19, 8173, 8168, 8165, 8143, 8153, 8166, 8172, 8174, 8174, 8170, 8203, 8186, 8173, 8139,3.0174081325531006
20, 8173, 8169, 8157, 8155, 8161, 8155, 8172, 8167, 8177, 8154, 8189, 8164, 8159, 8133,3.0174081325531006
21, 8164, 8172, 8204, 8152, 8159, 8157, 8152, 8172, 8152, 8126, 8182, 8164, 8142, 8126,3.0331528186798096
22, 8166, 8169, 8134, 8176, 8173, 8162, 8159, 8158, 8166, 8155, 8211, 8161, 8168, 8135,3.0331528186798096
23, 8179, 8179, 8204, 8187, 8178, 8171, 8163, 8173, 8173, 8172, 8215, 8173, 8178, 8151,3.0482051372528076
24, 8175, 8183, 8184, 8202, 8181, 8176, 8166, 8177, 8174, 8181, 8213, 8173, 8177, 8150,3.0482051372528076
25, 8176, 8174, 8159, 8197, 8184, 8161, 8157, 8169, 8166, 8184, 8217, 8173, 8176, 8151,3.0643444061279297
26, 8185, 8183, 8219, 8187, 8179, 8173, 8157, 8177, 8160, 8177, 8208, 8190, 8169, 8157,3.0643444061279297
27, 8174, 8173, 8139, 8204, 8171, 8178, 8179, 8168, 8174, 8186, 8198, 8163, 8168, 8144,3.0797793865203857
28, 8164, 8167, 8193, 8195, 8164, 8180, 8176, 8178, 8167, 8176, 8192, 8163, 8164, 8143,3.0797793865203857
29, 8167, 8176, 8190, 8199, 8177, 8192, 8180, 8174, 8170, 8179, 8204, 8180, 8171, 8158,3.0957722663879395
30, 8170, 8167, 8147, 8203, 8175, 8177, 8176, 8161, 8166, 8182, 8197, 8166, 8169, 8158,3.0957722663879395
31, 8165, 8163, 8203, 8179, 8158, 8172, 8159, 8172, 8142, 8176, 8175, 8162, 8154, 8148,3.110595703125
32, 8157, 8155, 8134, 8179, 8162, 8178, 8163, 8160, 8156, 8192, 8183, 8151, 8159, 8145,3.110595703125
33, 8168, 8155, 8184, 8175, 8155, 8180, 8163, 8169, 8169, 8189, 8182, 8162, 8159, 8159,3.126190662384033
34, 8177, 8160, 8193, 8184, 8153, 8185, 8183, 8182, 8193, 8193, 8182, 8172, 8163, 8165,3.126190662384033
35, 8184, 8153, 8151, 8184, 8163, 8182, 8199, 8178, 8220, 8212, 8203, 8175, 8174, 8164,3.142258644104004
36, 8192, 8158, 8218, 8163, 8161, 8179, 8191, 8184, 8217, 8207, 8208, 8202, 8179, 8176,3.142258644104004
37, 8183, 8154, 8147, 8167, 8149, 8158, 8187, 8166, 8203, 8196, 8192, 8191, 8182, 8171,3.158188819885254
38, 8191, 8156, 8189, 8161, 8137, 8145, 8165, 8172, 8174, 8174, 8188, 8195, 8181, 8167,3.158188819885254
39, 8205, 8170, 8213, 8169, 8148, 8165, 8170, 8177, 8177, 8184, 8221, 8211, 8194, 8170,3.173520088195801
40, 8201, 8172, 8157, 8183, 8163, 8167, 8183, 8164, 8194, 8198, 8234, 8210, 8201, 8170,3.173520088195801
41, 8203, 8176, 8224, 8167, 8158, 8160, 8160, 8170, 8175, 8177, 8211, 8226, 8186, 8177,3.1886236667633057
42, 8200, 8167, 8168, 8173, 8157, 8152, 8154, 8159, 8167, 8173, 8210, 8207, 8183, 8165,3.1886236667633057
43, 8199, 8173, 8202, 8186, 8155, 8150, 8153, 8167, 8167, 8164, 8222, 8203, 8184, 8153,3.2043163776397705
44, 8194, 8195, 8232, 8197, 8158, 8162, 8160, 8176, 8180, 8171, 8235, 8228, 8190, 8161,3.2043163776397705
45, 8195, 8182, 8161, 8199, 8167, 8156, 8169, 8168, 8188, 8186, 8240, 8219, 8191, 8166,3.2191321849823
46, 8203, 8184, 8233, 8188, 8167, 8167, 8162, 8182, 8170, 8175, 8229, 8216, 8185, 8163,3.2191321849823
47, 8191, 8190, 8185, 8207, 8172, 8178, 8183, 8175, 8183, 8189, 8218, 8202, 8190, 8158,3.2361807823181152
48, 8183, 8177, 8182, 8207, 8172, 8175, 8195, 8177, 8188, 8195, 8196, 8193, 8182, 8166,3.2361807823181152
49, 8184, 8174, 8210, 8195, 8172, 8188, 8202, 8184, 8192, 8198, 8193, 8195, 8183, 8173,3.2505836486816406
50, 8183, 8165, 8148, 8193, 8174, 8176, 8204, 8171, 8210, 8215, 8208, 8181, 8197, 8164,3.2505836486816406
51, 8183, 8164, 8216, 8179, 8161, 8167, 8189, 8174, 8189, 8199, 8198, 8192, 8182, 8164,3.2666285037994385
52, 8171, 8156, 8164, 8181, 8155, 8178, 8197, 8158, 8173, 8188, 8185, 8177, 8171, 8156,3.2666285037994385
53, 8165, 8139, 8153, 8153, 8149, 8165, 8179, 8154, 8152, 8171, 8173, 8156, 8165, 8142,3.2821621894836426
54, 8165, 8147, 8199, 8140, 8146, 8156, 8157, 8167, 8144, 8154, 8174, 8172, 8163, 8143,3.2821621894836426
55, 8174, 8154, 8141, 8175, 8152, 8154, 8169, 8156, 8168, 8175, 8194, 8179, 8179, 8152,3.297409772872925
56, 8191, 8163, 8213, 8173, 8150, 8157, 8164, 8167, 8168, 8174, 8198, 8201, 8190, 8164,3.297409772872925
57, 8186, 8164, 8177, 8166, 8156, 8160, 8161, 8169, 8170, 8175, 8205, 8200, 8195, 8162,3.3129968643188477
58, 8180, 8157, 8156, 8158, 8160, 8149, 8156, 8167, 8168, 8180, 8210, 8192, 8187, 8160,3.3129968643188477
59, 8178, 8159, 8203, 8146, 8149, 8150, 8145, 8172, 8163, 8174, 8204, 8202, 8178, 8153,3.328568696975708
60, 8175, 8157, 8132, 8156, 8149, 8143, 8139, 8160, 8163, 8164, 8207, 8182, 8179, 8131,3.3295679092407227
61, 8190, 8172, 8203, 8159, 8157, 8152, 8135, 8174, 8146, 8144, 8209, 8195, 8173, 8129,3.3446836471557617
62, 8191, 8175, 8186, 8169, 8169, 8171, 8155, 8170, 8153, 8159, 8215, 8204, 8179, 8140,3.3446836471557617
63, 8182, 8164, 8156, 8172, 8172, 8160, 8156, 8162, 8160, 8168, 8219, 8190, 8184, 8143,3.3613412380218506
64, 8191, 8190, 8224, 8174, 8176, 8161, 8149, 8178, 8159, 8166, 8221, 8207, 8182, 8141,3.3613412380218506
65, 8193, 8196, 8157, 8196, 8183, 8159, 8163, 8171, 8179, 8191, 8228, 8202, 8182, 8137,3.375382900238037
66, 8189, 8188, 8207, 8195, 8180, 8157, 8159, 8180, 8168, 8187, 8220, 8198, 8170, 8145,3.375382900238037
67, 8188, 8194, 8202, 8208, 8191, 8172, 8170, 8177, 8168, 8182, 8220, 8199, 8176, 8151,3.3925321102142334
68, 8188, 8187, 8162, 8201, 8193, 8173, 8180, 8171, 8174, 8182, 8210, 8189, 8178, 8141,3.4071269035339355
69, 8176, 8184, 8213, 8185, 8181, 8184, 8171, 8182, 8158, 8181, 8189, 8183, 8161, 8133,3.4071269035339355
70, 8166, 8176, 8140, 8208, 8185, 8189, 8184, 8169, 8171, 8194, 8185, 8163, 8168, 8137,3.4071269035339355
71, 8173, 8161, 8188, 8175, 8174, 8190, 8186, 8175, 8168, 8180, 8166, 8170, 8168, 8149,3.423246145248413
72, 8163, 8151, 8182, 8144, 8166, 8197, 8190, 8177, 8166, 8182, 8153, 8162, 8160, 8139,3.423246145248413
73, 8152, 8148, 8126, 8162, 8175, 8184, 8197, 8167, 8180, 8199, 8156, 8139, 8161, 8125,3.4387402534484863
74, 8162, 8162, 8198, 8162, 8171, 8185, 8192, 8171, 8183, 8188, 8158, 8161, 8164, 8136,3.4387402534484863
75, 8162, 8148, 8132, 8150, 8162, 8185, 8199, 8159, 8191, 8185, 8170, 8155, 8175, 8142,3.453080892562866
76, 8158, 8139, 8166, 8136, 8161, 8172, 8187, 8173, 8186, 8184, 8165, 8154, 8175, 8142,3.468163251876831
77, 8162, 8153, 8190, 8146, 8175, 8173, 8190, 8181, 8194, 8198, 8168, 8170, 8181, 8141,3.468163251876831
78, 8165, 8147, 8132, 8145, 8175, 8171, 8191, 8165, 8194, 8198, 8178, 8165, 8184, 8137,3.4834070205688477
79, 8164, 8148, 8197, 8128, 8160, 8168, 8170, 8171, 8167, 8170, 8169, 8177, 8174, 8136,3.4834070205688477
80, 8160, 8157, 8150, 8152, 8173, 8165, 8182, 8165, 8183, 8186, 8177, 8179, 8185, 8138,3.4994311332702637
81, 8174, 8164, 8179, 8160, 8186, 8168, 8183, 8173, 8193, 8194, 8194, 8195, 8196, 8152,3.4994311332702637
82, 8179, 8164, 8198, 8154, 8183, 8175, 8169, 8177, 8188, 8181, 8201, 8205, 8198, 8160,3.5150609016418457
83, 8181, 8161, 8141, 8166, 8182, 8168, 8169, 8164, 8192, 8184, 8198, 8189, 8194, 8154,3.5150609016418457
84, 8188, 8180, 8220, 8170, 8183, 8170, 8164, 8175, 8174, 8167, 8188, 8198, 8181, 8155,3.530649423599243
85, 8170, 8175, 8158, 8179, 8184, 8163, 8166, 8167, 8163, 8162, 8185, 8181, 8175, 8143,3.530649423599243
86, 8159, 8160, 8156, 8167, 8176, 8161, 8162, 8169, 8149, 8154, 8172, 8164, 8158, 8128,3.546309232711792
87, 8167, 8176, 8197, 8164, 8181, 8178, 8175, 8177, 8154, 8142, 8162, 8166, 8148, 8130,3.546309232711792
88, 8168, 8179, 8133, 8183, 8193, 8169, 8190, 8166, 8173, 8153, 8170, 8150, 8155, 8133,3.5621843338012695
89, 8167, 8181, 8205, 8183, 8188, 8165, 8176, 8182, 8165, 8155, 8171, 8162, 8148, 8138,3.5621843338012695
90, 8154, 8179, 8159, 8193, 8190, 8172, 8179, 8177, 8173, 8167, 8165, 8149, 8143, 8128,3.577302932739258
91, 8155, 8170, 8147, 8186, 8190, 8164, 8175, 8169, 8171, 8157, 8148, 8135, 8141, 8122,3.577302932739258
92, 8167, 8178, 8198, 8176, 8186, 8180, 8178, 8175, 8165, 8154, 8154, 8157, 8142, 8135,3.5925939083099365
93, 8156, 8172, 8132, 8185, 8188, 8179, 8194, 8160, 8174, 8180, 8161, 8142, 8143, 8137,3.5925939083099365
94, 8150, 8170, 8190, 8182, 8191, 8179, 8179, 8169, 8159, 8178, 8147, 8142, 8139, 8136,3.608199119567871
95, 8154, 8173, 8159, 8201, 8201, 8193, 8179, 8171, 8170, 8190, 8167, 8153, 8158, 8136,3.608199119567871
96, 8156, 8169, 8150, 8199, 8195, 8182, 8175, 8167, 8170, 8183, 8179, 8148, 8158, 8136,3.6234095096588135
97, 8142, 8173, 8190, 8181, 8186, 8178, 8159, 8165, 8137, 8158, 8153, 8139, 8133, 8132,3.6234095096588135
98, 8127, 8155, 8103, 8183, 8188, 8182, 8164, 8152, 8139, 8165, 8137, 8114, 8132, 8125,3.6394646167755127
99, 8144, 8154, 8172, 8171, 8182, 8186, 8166, 8175, 8149, 8170, 8151, 8139, 8150, 8142,3.6394646167755127
100, 8159, 8167, 8168, 8182, 8188, 8185, 8180, 8178, 8157, 8189, 8172, 8161, 8168, 8156,3.6545352935791016
101, 8155, 8157, 8142, 8180, 8186, 8173, 8180, 8164, 8143, 8181, 8143, 8142, 8151, 8149,3.6545352935791016
102, 8140, 8151, 8182, 8151, 8166, 8175, 8169, 8169, 8133, 8152, 8112, 8131, 8130, 8138,3.6703803539276123
103, 8130, 8139, 8102, 8148, 8163, 8170, 8177, 8163, 8167, 8169, 8142, 8124, 8150, 8136,3.6703803539276123
104, 8147, 8146, 8171, 8155, 8167, 8172, 8177, 8181, 8177, 8185, 8158, 8151, 8168, 8155,3.6860361099243164
105, 8153, 8158, 8169, 8171, 8166, 8180, 8184, 8180, 8177, 8186, 8148, 8162, 8168, 8157,3.6860361099243164
106, 8150, 8141, 8122, 8156, 8162, 8168, 8174, 8164, 8171, 8168, 8148, 8153, 8158, 8147,3.7021939754486084
107, 8160, 8149, 8191, 8139, 8161, 8173, 8163, 8178, 8171, 8162, 8162, 8172, 8160, 8156,3.7021939754486084
108, 8163, 8153, 8130, 8165, 8173, 8171, 8180, 8172, 8197, 8195, 8173, 8156, 8168, 8158,3.717897891998291
109, 8160, 8151, 8171, 8158, 8168, 8157, 8167, 8176, 8179, 8182, 8151, 8153, 8150, 8148,3.717897891998291
110, 8160, 8157, 8177, 8150, 8169, 8162, 8155, 8176, 8163, 8160, 8150, 8166, 8152, 8140,3.733099937438965
111, 8169, 8160, 8136, 8156, 8179, 8158, 8158, 8163, 8169, 8159, 8167, 8161, 8172, 8143,3.733099937438965
112, 8179, 8170, 8205, 8143, 8175, 8159, 8154, 8168, 8163, 8148, 8157, 8171, 8165, 8148,3.748087167739868
113, 8171, 8164, 8141, 8148, 8177, 8161, 8163, 8166, 8171, 8165, 8156, 8164, 8158, 8141,3.748087167739868
114, 8169, 8168, 8178, 8153, 8181, 8160, 8157, 8177, 8160, 8169, 8164, 8171, 8158, 8138,3.764402389526367
115, 8175, 8185, 8198, 8172, 8188, 8167, 8170, 8179, 8167, 8169, 8174, 8181, 8166, 8144,3.764402389526367
116, 8191, 8183, 8148, 8182, 8192, 8167, 8194, 8176, 8200, 8189, 8188, 8180, 8181, 8156,3.779573917388916
117, 8194, 8176, 8215, 8152, 8188, 8174, 8185, 8190, 8193, 8187, 8186, 8197, 8180, 8161,3.779573917388916
118, 8166, 8161, 8145, 8148, 8194, 8169, 8179, 8169, 8182, 8178, 8173, 8170, 8175, 8142,3.7950522899627686
119, 8167, 8172, 8169, 8158, 8194, 8159, 8168, 8169, 8173, 8168, 8163, 8156, 8163, 8139,3.7950522899627686
120, 8188, 8200, 8206, 8178, 8202, 8170, 8171, 8178, 8186, 8184, 8185, 8183, 8174, 8160,3.8111112117767334
121, 8188, 8190, 8145, 8192, 8206, 8169, 8179, 8165, 8204, 8197, 8202, 8181, 8195, 8168,3.8111112117767334
122, 8179, 8182, 8209, 8170, 8191, 8171, 8164, 8177, 8184, 8176, 8181, 8179, 8180, 8164,3.826289176940918
123, 8169, 8185, 8154, 8177, 8195, 8176, 8169, 8170, 8168, 8180, 8163, 8160, 8158, 8151,3.826289176940918
124, 8165, 8187, 8161, 8187, 8199, 8180, 8175, 8169, 8154, 8173, 8150, 8153, 8150, 8148,3.8422882556915283
125, 8158, 8191, 8193, 8182, 8189, 8189, 8180, 8174, 8160, 8174, 8153, 8164, 8158, 8145,3.8422882556915283
126, 8159, 8180, 8128, 8182, 8195, 8179, 8188, 8158, 8179, 8197, 8161, 8151, 8162, 8138,3.8575592041015625
127, 8174, 8195, 8203, 8177, 8204, 8187, 8185, 8172, 8178, 8192, 8156, 8169, 8151, 8157,3.8575592041015625
236, 8170, 8199, 8161, 8191, 8203, 8191, 8197, 8173, 8198, 8197, 8161, 8167, 8160, 8166,3.8731701374053955
0, 8159, 8168, 8150, 8171, 8182, 8164, 8185, 8168, 8194, 8190, 8151, 8151, 8160, 8156,3.8731701374053955
1, 8159, 8161, 8186, 8152, 8170, 8170, 8179, 8175, 8179, 8177, 8140, 8161, 8149, 8161,3.889183282852173
2, 8157, 8163, 8112, 8165, 8179, 8177, 8195, 8166, 8190, 8183, 8141, 8150, 8152, 8165,3.889183282852173
3, 8155, 8164, 8184, 8153, 8177, 8175, 8180, 8174, 8181, 8171, 8130, 8153, 8149, 8159,3.904054641723633
4, 8148, 8162, 8159, 8152, 8175, 8181, 8177, 8161, 8179, 8175, 8131, 8145, 8147, 8145,3.904054641723633
5, 8139, 8153, 8135, 8145, 8164, 8173, 8175, 8154, 8161, 8159, 8121, 8128, 8131, 8133,3.920125961303711
6, 8139, 8156, 8183, 8135, 8158, 8171, 8165, 8166, 8132, 8132, 8098, 8130, 8110, 8130,3.9353103637695312
7, 8144, 8149, 8114, 8141, 8169, 8164, 8160, 8154, 8138, 8143, 8104, 8123, 8120, 8138,3.9353103637695312
8, 8151, 8151, 8172, 8122, 8161, 8151, 8132, 8161, 8134, 8138, 8126, 8148, 8135, 8146,3.9353103637695312
9, 8147, 8155, 8152, 8126, 8159, 8150, 8133, 8161, 8148, 8140, 8151, 8159, 8148, 8136,3.950347423553467
10, 8157, 8156, 8135, 8135, 8169, 8156, 8146, 8161, 8168, 8153, 8151, 8156, 8150, 8138,3.950347423553467
11, 8173, 8174, 8203, 8136, 8178, 8173, 8146, 8172, 8164, 8148, 8151, 8180, 8144, 8156,3.9663937091827393
12, 8162, 8173, 8130, 8149, 8177, 8167, 8156, 8163, 8161, 8149, 8172, 8170, 8146, 8142,3.9834043979644775
13, 8157, 8172, 8185, 8138, 8164, 8157, 8144, 8179, 8142, 8138, 8172, 8168, 8136, 8131,3.9834043979644775
14, 8158, 8170, 8180, 8137, 8165, 8163, 8141, 8175, 8145, 8149, 8165, 8170, 8134, 8138,3.9834043979644775
15, 8157, 8164, 8142, 8153, 8172, 8163, 8146, 8160, 8150, 8151, 8157, 8157, 8131, 8138,3.9980573654174805
16, 8159, 8181, 8209, 8167, 8175, 8181, 8157, 8176, 8148, 8132, 8151, 8164, 8120, 8136,3.9980573654174805
17, 8145, 8171, 8134, 8176, 8178, 8183, 8180, 8163, 8164, 8144, 8153, 8147, 8125, 8131,4.023243188858032
18, 8134, 8148, 8164, 8142, 8163, 8172, 8171, 8159, 8146, 8146, 8137, 8143, 8121, 8128,4.023243188858032
19, 8125, 8143, 8163, 8131, 8150, 8184, 8178, 8161, 8133, 8146, 8128, 8145, 8119, 8124,4.024247646331787
20, 8131, 8141, 8118, 8147, 8153, 8185, 8195, 8160, 8145, 8149, 8124, 8132, 8126, 8131,4.044050693511963
21, 8151, 8154, 8190, 8147, 8157, 8185, 8187, 8169, 8155, 8161, 8121, 8145, 8134, 8148,4.044050693511963
22, 8154, 8155, 8130, 8163, 8164, 8174, 8182, 8158, 8179, 8189, 8142, 8141, 8154, 8152,4.059197425842285
23, 8156, 8153, 8166, 8168, 8160, 8165, 8164, 8168, 8179, 8163, 8149, 8153, 8157, 8155,4.059197425842285
24, 8157, 8164, 8177, 8170, 8162, 8171, 8160, 8175, 8174, 8144, 8147, 8160, 8156, 8146,4.0743348598480225
25, 8155, 8156, 8110, 8161, 8166, 8155, 8160, 8165, 8168, 8163, 8151, 8137, 8156, 8131,4.0743348598480225
26, 8152, 8148, 8181, 8125, 8150, 8150, 8139, 8171, 8138, 8152, 8140, 8150, 8143, 8130,4.090092420578003
27, 8130, 8134, 8118, 8121, 8137, 8142, 8136, 8154, 8129, 8136, 8122, 8137, 8127, 8110,4.090092420578003
28, 8121, 8134, 8126, 8118, 8127, 8124, 8126, 8161, 8120, 8111, 8112, 8123, 8111, 8097,4.105274438858032
29, 8135, 8157, 8162, 8123, 8132, 8133, 8129, 8176, 8129, 8114, 8131, 8144, 8126, 8117,4.105274438858032
30, 8151, 8166, 8127, 8141, 8146, 8144, 8140, 8164, 8142, 8150, 8151, 8155, 8153, 8133,4.120795488357544
31, 8162, 8180, 8211, 8134, 8150, 8156, 8127, 8171, 8124, 8148, 8158, 8170, 8152, 8135,4.120795488357544
32, 8161, 8185, 8156, 8149, 8165, 8155, 8138, 8161, 8138, 8150, 8171, 8160, 8156, 8136,4.136398077011108
33, 8167, 8185, 8165, 8165, 8166, 8141, 8136, 8164, 8142, 8154, 8168, 8157, 8154, 8147,4.136398077011108
34, 8176, 8193, 8205, 8175, 8160, 8157, 8134, 8174, 8132, 8158, 8166, 8173, 8149, 8154,4.152158737182617
35, 8170, 8174, 8132, 8174, 8172, 8174, 8155, 8164, 8146, 8164, 8170, 8153, 8154, 8149,4.152158737182617
36, 8159, 8162, 8197, 8154, 8168, 8181, 8158, 8176, 8145, 8154, 8149, 8146, 8150, 8154,4.167356967926025
37, 8146, 8157, 8154, 8164, 8157, 8176, 8163, 8163, 8148, 8170, 8141, 8133, 8153, 8155,4.167356967926025
38, 8148, 8147, 8144, 8157, 8152, 8171, 8155, 8154, 8143, 8167, 8139, 8129, 8151, 8156,4.182524681091309
39, 8146, 8149, 8178, 8133, 8150, 8180, 8147, 8167, 8139, 8155, 8123, 8130, 8139, 8155,4.182524681091309
40, 8130, 8138, 8099, 8120, 8140, 8158, 8142, 8157, 8148, 8157, 8116, 8106, 8136, 8134,4.197999000549316
41, 8128, 8133, 8162, 8088, 8125, 8143, 8121, 8164, 8145, 8131, 8114, 8121, 8130, 8126,4.197999000549316
42, 8130, 8135, 8137, 8092, 8130, 8157, 8133, 8163, 8163, 8134, 8126, 8129, 8141, 8134,4.213428974151611
43, 8146, 8144, 8136, 8109, 8135, 8158, 8145, 8160, 8156, 8139, 8139, 8140, 8151, 8143,4.213428974151611
44, 8154, 8173, 8200, 8120, 8136, 8161, 8134, 8166, 8123, 8116, 8146, 8170, 8142, 8143,4.228646755218506
45, 8137, 8172, 8123, 8137, 8150, 8162, 8133, 8152, 8117, 8115, 8142, 8144, 8128, 8130,4.228646755218506
46, 8129, 8156, 8170, 8119, 8149, 8163, 8132, 8163, 8101, 8113, 8115, 8120, 8114, 8123,4.244469404220581
47, 8122, 8139, 8146, 8114, 8140, 8169, 8145, 8166, 8115, 8127, 8108, 8114, 8116, 8119,4.244469404220581
48, 8125, 8130, 8121, 8118, 8131, 8166, 8147, 8166, 8145, 8147, 8114, 8120, 8118, 8135,4.259974002838135
49, 8140, 8150, 8192, 8119, 8136, 8182, 8153, 8178, 8161, 8166, 8131, 8148, 8129, 8165,4.259974002838135
50, 8143, 8143, 8123, 8119, 8146, 8179, 8168, 8164, 8174, 8175, 8144, 8131, 8146, 8160,4.276010513305664
51, 8140, 8128, 8166, 8086, 8126, 8156, 8139, 8167, 8154, 8143, 8126, 8126, 8129, 8142,4.276010513305664
52, 8136, 8138, 8158, 8098, 8119, 8147, 8117, 8161, 8153, 8148, 8138, 8140, 8129, 8139,4.291422605514526
53, 8146, 8151, 8132, 8133, 8129, 8140, 8108, 8153, 8154, 8163, 8160, 8140, 8148, 8137,4.291422605514526
54, 8162, 8162, 8200, 8129, 8137, 8150, 8101, 8165, 8136, 8142, 8161, 8150, 8147, 8135,4.307519197463989
55, 8155, 8153, 8121, 8129, 8148, 8149, 8116, 8151, 8145, 8140, 8164, 8136, 8144, 8133,4.307519197463989
56, 8156, 8157, 8166, 8127, 8141, 8145, 8113, 8165, 8149, 8141, 8168, 8146, 8151, 8143,4.323212385177612
57, 8157, 8165, 8175, 8128, 8134, 8152, 8121, 8176, 8150, 8150, 8175, 8156, 8158, 8141,4.323212385177612
58, 8142, 8152, 8119, 8119, 8133, 8144, 8126, 8156, 8133, 8137, 8161, 8126, 8136, 8118,4.339015245437622
59, 8142, 8164, 8194, 8113, 8125, 8151, 8114, 8157, 8100, 8110, 8144, 8127, 8114, 8113,4.35458779335022
60, 8154, 8175, 8151, 8140, 8126, 8157, 8126, 8154, 8103, 8128, 8167, 8132, 8135, 8124,4.35458779335022
61, 8166, 8173, 8180, 8132, 8124, 8153, 8115, 8164, 8091, 8119, 8178, 8140, 8135, 8133,4.35458779335022
62, 8158, 8176, 8178, 8124, 8127, 8156, 8101, 8161, 8082, 8104, 8169, 8137, 8122, 8129,4.370118856430054
63, 8151, 8168, 8131, 8133, 8133, 8142, 8106, 8152, 8102, 8122, 8172, 8123, 8135, 8126,4.370118856430054
64, 8169, 8178, 8222, 8134, 8132, 8149, 8111, 8173, 8109, 8121, 8176, 8144, 8140, 8139,4.385476589202881
65, 8173, 8188, 8165, 8163, 8143, 8171, 8125, 8165, 8119, 8127, 8180, 8142, 8136, 8143,4.385476589202881
66, 8166, 8188, 8172, 8171, 8153, 8179, 8112, 8162, 8114, 8138, 8170, 8139, 8131, 8143,4.400988340377808
67, 8153, 8185, 8187, 8164, 8154, 8183, 8110, 8165, 8113, 8147, 8160, 8134, 8127, 8136,4.417425870895386
68, 8136, 8159, 8123, 8159, 8144, 8175, 8135, 8158, 8121, 8142, 8158, 8105, 8124, 8123,4.417425870895386
69, 8132, 8157, 8199, 8146, 8135, 8183, 8151, 8172, 8120, 8133, 8152, 8116, 8128, 8131,4.417425870895386
70, 8138, 8161, 8147, 8157, 8150, 8192, 8172, 8166, 8148, 8164, 8158, 8116, 8146, 8140,4.4321129322052
71, 8149, 8152, 8145, 8141, 8147, 8173, 8163, 8170, 8153, 8159, 8154, 8111, 8139, 8135,4.4321129322052
72, 8149, 8151, 8186, 8128, 8130, 8166, 8150, 8179, 8150, 8146, 8157, 8133, 8141, 8130,4.448482036590576
73, 8158, 8153, 8133, 8152, 8139, 8164, 8159, 8162, 8178, 8173, 8182, 8140, 8176, 8142,4.448482036590576
74, 8176, 8161, 8199, 8138, 8137, 8158, 8140, 8169, 8168, 8165, 8181, 8145, 8178, 8159,4.46423602104187
75, 8163, 8152, 8147, 8120, 8119, 8145, 8121, 8166, 8146, 8146, 8171, 8132, 8163, 8149,4.46423602104187
76, 8169, 8157, 8151, 8128, 8122, 8137, 8117, 8165, 8138, 8140, 8176, 8145, 8166, 8145,4.479342937469482
77, 8189, 8184, 8209, 8149, 8146, 8155, 8122, 8172, 8136, 8142, 8187, 8173, 8175, 8160,4.479342937469482
78, 8187, 8174, 8136, 8158, 8145, 8147, 8114, 8158, 8123, 8139, 8195, 8160, 8174, 8160,4.4933507442474365
79, 8194, 8175, 8203, 8136, 8126, 8138, 8098, 8165, 8098, 8125, 8209, 8180, 8176, 8166,4.508108615875244
80, 8186, 8179, 8171, 8144, 8142, 8146, 8120, 8157, 8111, 8144, 8217, 8173, 8182, 8157,4.508108615875244
81, 8157, 8164, 8146, 8156, 8153, 8144, 8116, 8154, 8105, 8145, 8190, 8134, 8155, 8124,4.5235161781311035
82, 8149, 8176, 8205, 8164, 8149, 8159, 8102, 8170, 8093, 8128, 8182, 8146, 8144, 8117,4.5235161781311035
83, 8158, 8181, 8135, 8174, 8160, 8166, 8124, 8162, 8122, 8148, 8200, 8143, 8166, 8132,4.538494348526001
84, 8162, 8174, 8186, 8159, 8156, 8165, 8129, 8178, 8129, 8155, 8192, 8145, 8161, 8149,4.538494348526001
85, 8156, 8176, 8173, 8170, 8150, 8166, 8128, 8175, 8138, 8162, 8199, 8150, 8157, 8151,4.554517030715942
86, 8156, 8174, 8149, 8182, 8150, 8157, 8118, 8161, 8151, 8171, 8207, 8147, 8161, 8148,4.554517030715942
87, 8160, 8176, 8201, 8183, 8144, 8167, 8112, 8172, 8155, 8178, 8194, 8159, 8162, 8158,4.569670915603638
88, 8166, 8171, 8128, 8205, 8147, 8173, 8137, 8164, 8176, 8206, 8200, 8151, 8177, 8173,4.569670915603638
89, 8177, 8176, 8184, 8203, 8150, 8181, 8150, 8175, 8171, 8205, 8201, 8159, 8182, 8187,4.585628032684326
90, 8182, 8183, 8179, 8206, 8157, 8192, 8170, 8177, 8183, 8207, 8211, 8170, 8193, 8196,4.585628032684326
91, 8196, 8177, 8141, 8205, 8154, 8171, 8167, 8169, 8197, 8213, 8219, 8169, 8208, 8203,4.601351022720337
92, 8204, 8185, 8204, 8186, 8142, 8165, 8140, 8176, 8185, 8201, 8205, 8177, 8205, 8199,4.601351022720337
93, 8190, 8177, 8130, 8186, 8152, 8168, 8147, 8159, 8190, 8211, 8207, 8159, 8201, 8184,4.616457939147949
94, 8189, 8169, 8169, 8170, 8161, 8163, 8146, 8162, 8179, 8202, 8216, 8168, 8197, 8186,4.616457939147949
95, 8180, 8175, 8174, 8163, 8155, 8159, 8133, 8166, 8165, 8188, 8214, 8172, 8194, 8176,4.6321187019348145
96, 8170, 8175, 8123, 8168, 8142, 8149, 8133, 8159, 8157, 8179, 8206, 8157, 8189, 8155,4.6321187019348145
97, 8183, 8188, 8201, 8163, 8146, 8162, 8144, 8172, 8144, 8164, 8208, 8177, 8189, 8165,4.647449493408203
98, 8184, 8185, 8143, 8172, 8161, 8162, 8158, 8162, 8147, 8169, 8207, 8163, 8188, 8164,4.647449493408203
99, 8179, 8177, 8171, 8166, 8149, 8150, 8139, 8168, 8132, 8158, 8184, 8153, 8161, 8154,4.663104057312012
100, 8173, 8179, 8185, 8170, 8145, 8163, 8137, 8173, 8128, 8164, 8192, 8159, 8152, 8157,4.663104057312012
101, 8163, 8173, 8124, 8171, 8156, 8167, 8146, 8162, 8138, 8177, 8204, 8142, 8163, 8150,4.678595542907715
102, 8155, 8181, 8194, 8161, 8160, 8177, 8142, 8167, 8131, 8163, 8178, 8140, 8154, 8143,4.678595542907715
103, 8160, 8181, 8147, 8185, 8170, 8186, 8160, 8157, 8151, 8177, 8177, 8129, 8154, 8151,4.694589853286743
104, 8188, 8178, 8173, 8192, 8172, 8185, 8165, 8173, 8168, 8195, 8203, 8141, 8168, 8176,4.694589853286743
105, 8199, 8186, 8192, 8186, 8167, 8190, 8174, 8178, 8181, 8205, 8216, 8165, 8188, 8195,4.709267854690552
106, 8187, 8173, 8127, 8189, 8161, 8182, 8187, 8160, 8188, 8202, 8199, 8155, 8189, 8195,4.709267854690552
107, 8179, 8174, 8196, 8178, 8157, 8189, 8176, 8175, 8167, 8181, 8173, 8156, 8166, 8187,4.725358247756958
108, 8169, 8175, 8136, 8189, 8168, 8198, 8190, 8168, 8172, 8194, 8182, 8142, 8167, 8167,4.725358247756958
109, 8175, 8167, 8145, 8181, 8161, 8183, 8190, 8162, 8165, 8193, 8182, 8142, 8168, 8164,4.7414021492004395
110, 8180, 8171, 8184, 8168, 8152, 8178, 8176, 8169, 8159, 8187, 8175, 8158, 8159, 8167,4.7414021492004395
111, 8173, 8160, 8112, 8165, 8159, 8174, 8185, 8160, 8181, 8193, 8179, 8143, 8164, 8159,4.756606578826904
112, 8177, 8162, 8190, 8146, 8153, 8178, 8187, 8175, 8179, 8181, 8187, 8159, 8175, 8167,4.756606578826904
113, 8177, 8166, 8156, 8158, 8153, 8174, 8190, 8176, 8188, 8187, 8203, 8169, 8194, 8175,4.772266626358032
114, 8177, 8158, 8138, 8154, 8152, 8151, 8172, 8173, 8186, 8180, 8202, 8164, 8187, 8165,4.772266626358032
115, 8179, 8167, 8180, 8142, 8148, 8151, 8158, 8174, 8172, 8164, 8198, 8168, 8168, 8153,4.787439346313477
116, 8178, 8176, 8120, 8165, 8158, 8149, 8164, 8158, 8166, 8166, 8202, 8150, 8169, 8146,4.787439346313477
117, 8187, 8192, 8196, 8166, 8160, 8150, 8158, 8172, 8147, 8149, 8192, 8162, 8162, 8149,4.803107976913452
118, 8190, 8186, 8173, 8167, 8156, 8159, 8174, 8171, 8155, 8145, 8187, 8167, 8153, 8143,4.803107976913452
119, 8187, 8169, 8149, 8166, 8151, 8162, 8173, 8160, 8150, 8140, 8176, 8152, 8147, 8135,4.819202184677124
120, 8178, 8186, 8192, 8166, 8156, 8176, 8161, 8163, 8132, 8138, 8172, 8158, 8143, 8136,4.819202184677124
121, 8166, 8192, 8126, 8187, 8166, 8173, 8176, 8158, 8147, 8164, 8185, 8148, 8147, 8136,4.835258960723877
122, 8173, 8188, 8195, 8186, 8162, 8170, 8175, 8180, 8155, 8166, 8179, 8158, 8146, 8143,4.835258960723877
123, 8179, 8184, 8172, 8188, 8165, 8186, 8179, 8176, 8168, 8176, 8176, 8159, 8155, 8148,4.850669622421265
124, 8178, 8179, 8138, 8196, 8165, 8183, 8182, 8164, 8173, 8190, 8181, 8148, 8155, 8153,4.850669622421265
125, 8171, 8184, 8201, 8198, 8161, 8181, 8175, 8176, 8163, 8187, 8177, 8156, 8153, 8156,4.866390943527222
126, 8159, 8171, 8126, 8204, 8169, 8180, 8179, 8161, 8170, 8199, 8177, 8141, 8164, 8145,4.866390943527222
127, 8167, 8165, 8175, 8188, 8171, 8185, 8177, 8170, 8172, 8196, 8177, 8152, 8163, 8160,4.882428169250488
236, 8177, 8172, 8172, 8196, 8166, 8190, 8198, 8179, 8200, 8212, 8191, 8168, 8179, 8183,4.882428169250488
0, 8183, 8165, 8138, 8197, 8160, 8182, 8209, 8175, 8219, 8225, 8193, 8167, 8195, 8188,4.897171497344971
1, 8177, 8166, 8203, 8166, 8160, 8186, 8203, 8179, 8197, 8205, 8170, 8170, 8178, 8181,4.897171497344971
2, 8154, 8151, 8120, 8159, 8167, 8177, 8206, 8166, 8189, 8201, 8152, 8135, 8161, 8160,4.9122796058654785
3, 8150, 8142, 8153, 8141, 8152, 8163, 8182, 8172, 8182, 8182, 8143, 8137, 8155, 8154,4.927425384521484
4, 8157, 8152, 8169, 8133, 8146, 8165, 8174, 8168, 8184, 8174, 8160, 8171, 8170, 8162,4.928426504135132
5, 8169, 8159, 8130, 8144, 8155, 8153, 8172, 8159, 8182, 8184, 8185, 8177, 8187, 8175,4.928426504135132
6, 8191, 8178, 8211, 8153, 8156, 8159, 8155, 8170, 8167, 8183, 8194, 8192, 8184, 8186,4.944209575653076
7, 8193, 8179, 8154, 8169, 8160, 8157, 8160, 8154, 8172, 8190, 8195, 8187, 8179, 8169,4.959867238998413
8, 8190, 8174, 8182, 8159, 8161, 8149, 8153, 8162, 8155, 8173, 8184, 8188, 8174, 8152,4.959867238998413
9, 8189, 8181, 8194, 8163, 8165, 8165, 8157, 8173, 8152, 8170, 8186, 8190, 8186, 8150,4.959867238998413
10, 8182, 8172, 8134, 8164, 8166, 8157, 8164, 8164, 8168, 8177, 8193, 8173, 8196, 8145,4.975611448287964
11, 8183, 8176, 8208, 8148, 8157, 8154, 8150, 8178, 8164, 8177, 8191, 8190, 8190, 8143,4.991145372390747
12, 8185, 8180, 8160, 8175, 8165, 8170, 8164, 8168, 8175, 8204, 8200, 8185, 8194, 8145,4.991145372390747
13, 8186, 8182, 8178, 8185, 8179, 8175, 8172, 8166, 8170, 8194, 8198, 8177, 8190, 8146,5.006176233291626
14, 8183, 8191, 8193, 8178, 8180, 8173, 8165, 8172, 8160, 8173, 8195, 8186, 8186, 8142,5.006176233291626
15, 8178, 8176, 8125, 8178, 8170, 8165, 8160, 8157, 8161, 8182, 8185, 8167, 8188, 8135,5.006176233291626
16, 8170, 8166, 8200, 8163, 8161, 8176, 8159, 8168, 8151, 8177, 8159, 8164, 8176, 8145,5.021519422531128
17, 8160, 8163, 8153, 8172, 8178, 8188, 8185, 8169, 8169, 8185, 8167, 8156, 8183, 8153,5.037049293518066
18, 8170, 8163, 8160, 8178, 8184, 8186, 8184, 8173, 8181, 8192, 8176, 8163, 8190, 8161,5.037049293518066
19, 8174, 8168, 8190, 8173, 8177, 8190, 8169, 8176, 8182, 8203, 8163, 8173, 8185, 8167,5.0520758628845215
20, 8163, 8151, 8116, 8172, 8179, 8180, 8175, 8159, 8197, 8220, 8160, 8151, 8187, 8158,5.0520758628845215
21, 8162, 8152, 8187, 8152, 8177, 8178, 8172, 8174, 8188, 8209, 8157, 8161, 8179, 8155,5.067355394363403
22, 8156, 8155, 8146, 8158, 8177, 8180, 8185, 8172, 8192, 8209, 8161, 8158, 8178, 8153,5.067355394363403
23, 8162, 8145, 8135, 8152, 8169, 8165, 8187, 8165, 8201, 8206, 8169, 8151, 8185, 8159,5.082872152328491
24, 8173, 8146, 8181, 8137, 8164, 8162, 8175, 8169, 8204, 8196, 8177, 8168, 8193, 8163,5.082872152328491
25, 8169, 8141, 8112, 8147, 8166, 8153, 8168, 8161, 8202, 8196, 8184, 8157, 8193, 8154,5.09850001335144
26, 8166, 8153, 8176, 8142, 8157, 8153, 8156, 8176, 8186, 8178, 8183, 8167, 8180, 8153,5.09850001335144
27, 8159, 8168, 8149, 8152, 8162, 8166, 8172, 8169, 8203, 8187, 8199, 8173, 8185, 8149,5.114027738571167
28, 8161, 8164, 8137, 8164, 8167, 8165, 8175, 8164, 8197, 8182, 8197, 8167, 8173, 8142,5.114027738571167
29, 8163, 8167, 8191, 8168, 8167, 8170, 8162, 8172, 8162, 8155, 8173, 8166, 8147, 8136,5.129440784454346
30, 8153, 8159, 8112, 8176, 8174, 8171, 8167, 8158, 8170, 8169, 8168, 8146, 8148, 8129,5.129440784454346
31, 8150, 8153, 8169, 8156, 8169, 8178, 8165, 8169, 8174, 8182, 8160, 8154, 8148, 8140,5.145471096038818
32, 8145, 8147, 8148, 8156, 8167, 8183, 8175, 8171, 8178, 8188, 8149, 8144, 8148, 8146,5.145471096038818
33, 8148, 8139, 8117, 8155, 8164, 8162, 8170, 8162, 8183, 8180, 8143, 8127, 8153, 8137,5.161210536956787
34, 8155, 8146, 8187, 8137, 8154, 8162, 8160, 8168, 8185, 8170, 8146, 8153, 8162, 8134,5.161210536956787
35, 8149, 8138, 8111, 8133, 8155, 8158, 8164, 8155, 8189, 8171, 8152, 8145, 8163, 8122,5.176454782485962
36, 8154, 8147, 8154, 8114, 8153, 8150, 8139, 8164, 8160, 8149, 8147, 8145, 8146, 8116,5.176454782485962
37, 8160, 8168, 8160, 8136, 8159, 8157, 8143, 8167, 8159, 8162, 8163, 8163, 8158, 8127,5.192504167556763
38, 8162, 8161, 8133, 8166, 8164, 8157, 8159, 8164, 8175, 8181, 8164, 8158, 8166, 8134,5.192504167556763
39, 8166, 8158, 8199, 8153, 8164, 8171, 8157, 8182, 8174, 8176, 8144, 8154, 8151, 8129,5.208508253097534
40, 8165, 8153, 8124, 8152, 8174, 8185, 8183, 8176, 8189, 8198, 8152, 8132, 8159, 8134,5.208508253097534
41, 8162, 8144, 8155, 8139, 8163, 8181, 8188, 8180, 8183, 8198, 8144, 8134, 8160, 8151,5.2241973876953125
42, 8153, 8140, 8156, 8134, 8147, 8168, 8179, 8174, 8182, 8186, 8128, 8141, 8160, 8146,5.2241973876953125
43, 8161, 8139, 8117, 8136, 8148, 8146, 8175, 8160, 8188, 8181, 8135, 8139, 8169, 8140,5.2393364906311035
44, 8180, 8158, 8196, 8127, 8154, 8156, 8159, 8170, 8172, 8163, 8153, 8164, 8171, 8153,5.2393364906311035
45, 8187, 8170, 8140, 8149, 8168, 8166, 8167, 8165, 8180, 8173, 8179, 8168, 8182, 8151,5.254984617233276
46, 8207, 8179, 8181, 8154, 8171, 8167, 8180, 8176, 8193, 8187, 8180, 8181, 8182, 8160,5.254984617233276
47, 8206, 8180, 8193, 8142, 8171, 8173, 8192, 8180, 8203, 8196, 8165, 8192, 8176, 8173,5.2703821659088135
48, 8186, 8169, 8127, 8139, 8177, 8156, 8181, 8167, 8198, 8187, 8158, 8174, 8170, 8156,5.2703821659088135
49, 8192, 8182, 8208, 8145, 8176, 8160, 8156, 8174, 8172, 8162, 8153, 8182, 8155, 8143,5.28606915473938
50, 8194, 8172, 8153, 8150, 8170, 8167, 8165, 8158, 8172, 8171, 8155, 8170, 8150, 8138,5.28606915473938
51, 8185, 8161, 8162, 8126, 8155, 8148, 8160, 8164, 8149, 8157, 8147, 8165, 8140, 8135,5.302269220352173
52, 8174, 8183, 8187, 8142, 8156, 8156, 8157, 8178, 8135, 8140, 8148, 8173, 8136, 8135,5.302269220352173
53, 8178, 8182, 8131, 8177, 8170, 8166, 8163, 8163, 8151, 8155, 8159, 8162, 8145, 8138,5.3174426555633545
54, 8191, 8186, 8216, 8172, 8171, 8171, 8147, 8169, 8144, 8146, 8163, 8173, 8142, 8139,5.3174426555633545
55, 8187, 8198, 8171, 8190, 8177, 8176, 8156, 8166, 8154, 8159, 8165, 8164, 8136, 8133,5.333047866821289
56, 8189, 8194, 8171, 8197, 8182, 8183, 8169, 8170, 8163, 8184, 8154, 8168, 8133, 8142,5.333047866821289
57, 8196, 8195, 8199, 8190, 8188, 8198, 8179, 8174, 8160, 8181, 8153, 8195, 8141, 8151,5.348320722579956
58, 8198, 8191, 8127, 8198, 8182, 8189, 8188, 8160, 8164, 8173, 8160, 8179, 8150, 8145,5.348320722579956
59, 8202, 8196, 8207, 8194, 8168, 8185, 8177, 8175, 8158, 8172, 8155, 8184, 8150, 8158,5.364468574523926
60, 8197, 8186, 8170, 8200, 8178, 8185, 8176, 8167, 8167, 8187, 8160, 8186, 8159, 8166,5.364468574523926
61, 8199, 8173, 8154, 8189, 8176, 8181, 8169, 8164, 8163, 8179, 8156, 8178, 8159, 8162,5.380517959594727
62, 8198, 8179, 8189, 8174, 8171, 8195, 8175, 8176, 8166, 8178, 8153, 8178, 8162, 8164,5.380517959594727
63, 8182, 8165, 8112, 8183, 8178, 8189, 8184, 8162, 8182, 8182, 8151, 8152, 8157, 8159,5.396517753601074
64, 8189, 8166, 8182, 8179, 8176, 8186, 8176, 8172, 8173, 8163, 8136, 8165, 8142, 8160,5.396517753601074
65, 8200, 8173, 8163, 8187, 8184, 8192, 8196, 8174, 8188, 8198, 8151, 8182, 8167, 8173,5.4120848178863525
66, 8200, 8162, 8148, 8177, 8181, 8173, 8193, 8174, 8199, 8210, 8163, 8174, 8176, 8178,5.4120848178863525
67, 8200, 8167, 8195, 8159, 8163, 8167, 8169, 8184, 8192, 8178, 8154, 8183, 8161, 8176,5.427468299865723
68, 8198, 8159, 8119, 8161, 8163, 8166, 8176, 8171, 8203, 8179, 8154, 8181, 8167, 8171,5.427468299865723
69, 8193, 8153, 8181, 8142, 8161, 8165, 8165, 8181, 8192, 8165, 8154, 8190, 8165, 8174,5.44313383102417
70, 8191, 8164, 8167, 8154, 8165, 8170, 8160, 8177, 8191, 8163, 8164, 8191, 8167, 8167,5.443576335906982
71, 8200, 8167, 8140, 8163, 8178, 8161, 8151, 8165, 8188, 8164, 8164, 8195, 8173, 8159,5.458238363265991
72, 8201, 8174, 8203, 8150, 8183, 8163, 8132, 8172, 8168, 8148, 8148, 8208, 8165, 8159,5.458238363265991
73, 8202, 8183, 8139, 8171, 8184, 8168, 8144, 8163, 8172, 8161, 8159, 8189, 8170, 8154,5.473399639129639
74, 8224, 8202, 8200, 8178, 8188, 8175, 8143, 8172, 8164, 8158, 8174, 8203, 8174, 8158,5.473399639129639
75, 8215, 8201, 8190, 8175, 8195, 8178, 8138, 8171, 8162, 8148, 8177, 8212, 8173, 8159,5.489328861236572
76, 8190, 8185, 8142, 8172, 8191, 8162, 8139, 8161, 8167, 8156, 8171, 8190, 8172, 8155,5.489328861236572
77, 8197, 8199, 8210, 8174, 8192, 8174, 8143, 8176, 8168, 8169, 8174, 8197, 8167, 8153,5.5050270557403564
78, 8195, 8197, 8144, 8193, 8207, 8185, 8156, 8170, 8175, 8184, 8177, 8181, 8165, 8141,5.5050270557403564
79, 8183, 8190, 8180, 8186, 8201, 8178, 8151, 8175, 8147, 8169, 8156, 8178, 8148, 8142,5.520051002502441
80, 8179, 8195, 8184, 8195, 8200, 8181, 8163, 8174, 8153, 8167, 8150, 8182, 8146, 8149,5.520051002502441
81, 8177, 8184, 8135, 8208, 8208, 8186, 8175, 8168, 8187, 8184, 8155, 8171, 8161, 8152,5.536015748977661
82, 8175, 8182, 8203, 8187, 8200, 8196, 8170, 8183, 8180, 8193, 8149, 8180, 8168, 8160,5.536015748977661
83, 8163, 8164, 8130, 8179, 8195, 8188, 8179, 8168, 8174, 8192, 8148, 8158, 8164, 8149,5.551052570343018
84, 8160, 8155, 8151, 8168, 8188, 8179, 8167, 8170, 8164, 8162, 8138, 8150, 8144, 8135,5.551052570343018
85, 8158, 8170, 8168, 8174, 8183, 8188, 8170, 8171, 8162, 8158, 8132, 8160, 8143, 8133,5.567228078842163
86, 8153, 8158, 8109, 8172, 8184, 8179, 8182, 8158, 8160, 8170, 8128, 8141, 8143, 8131,5.567228078842163
87, 8155, 8155, 8178, 8153, 8180, 8179, 8174, 8176, 8148, 8161, 8120, 8140, 8132, 8138,5.5823071002960205
88, 8157, 8159, 8129, 8175, 8183, 8183, 8181, 8169, 8178, 8178, 8132, 8142, 8150, 8153,5.583011150360107
89, 8168, 8153, 8151, 8166, 8175, 8174, 8172, 8159, 8187, 8170, 8130, 8153, 8158, 8159,5.5991456508636475
90, 8161, 8152, 8164, 8151, 8175, 8181, 8169, 8159, 8165, 8149, 8119, 8149, 8143, 8144,5.5991456508636475
91, 8152, 8150, 8100, 8170, 8189, 8179, 8183, 8161, 8164, 8156, 8122, 8129, 8143, 8135,5.613286256790161
92, 8169, 8163, 8190, 8165, 8186, 8178, 8184, 8177, 8172, 8164, 8127, 8157, 8154, 8154,5.62939190864563
93, 8175, 8165, 8146, 8166, 8187, 8179, 8202, 8166, 8197, 8193, 8147, 8166, 8166, 8159,5.62939190864563
94, 8170, 8158, 8139, 8162, 8185, 8172, 8205, 8171, 8208, 8200, 8154, 8160, 8167, 8149,5.62939190864563
95, 8163, 8158, 8166, 8148, 8179, 8174, 8195, 8180, 8211, 8190, 8144, 8166, 8167, 8146,5.645628452301025
96, 8160, 8143, 8100, 8134, 8168, 8162, 8197, 8166, 8226, 8197, 8151, 8151, 8170, 8144,5.66210675239563
97, 8171, 8157, 8180, 8129, 8163, 8158, 8191, 8178, 8222, 8188, 8152, 8167, 8162, 8143,5.66210675239563
98, 8169, 8167, 8147, 8154, 8176, 8159, 8190, 8171, 8216, 8183, 8144, 8170, 8162, 8134,5.66210675239563
99, 8166, 8146, 8136, 8127, 8166, 8143, 8165, 8161, 8188, 8164, 8136, 8157, 8152, 8137,5.675654172897339
100, 8170, 8150, 8183, 8111, 8162, 8151, 8154, 8172, 8177, 8153, 8148, 8176, 8149, 8151,5.691282033920288
101, 8175, 8174, 8130, 8167, 8185, 8159, 8181, 8168, 8195, 8165, 8160, 8179, 8158, 8148,5.691282033920288
102, 8187, 8196, 8204, 8178, 8193, 8166, 8189, 8177, 8183, 8153, 8151, 8186, 8149, 8147,5.707713603973389
103, 8193, 8194, 8169, 8163, 8191, 8168, 8191, 8170, 8189, 8161, 8158, 8176, 8150, 8151,5.707713603973389
104, 8196, 8184, 8153, 8164, 8191, 8160, 8181, 8160, 8190, 8166, 8160, 8171, 8153, 8153,5.722307443618774
105, 8197, 8197, 8215, 8176, 8195, 8179, 8183, 8169, 8171, 8155, 8153, 8186, 8142, 8148,5.722307443618774
106, 8190, 8189, 8133, 8184, 8202, 8180, 8203, 8161, 8176, 8164, 8159, 8172, 8143, 8141,5.737620830535889
107, 8183, 8180, 8174, 8163, 8199, 8173, 8193, 8175, 8175, 8156, 8154, 8177, 8139, 8149,5.737620830535889
108, 8167, 8178, 8155, 8163, 8199, 8188, 8203, 8175, 8190, 8161, 8149, 8165, 8140, 8148,5.75359034538269
109, 8167, 8171, 8139, 8165, 8198, 8185, 8215, 8175, 8194, 8171, 8142, 8148, 8145, 8138,5.75359034538269
110, 8176, 8176, 8202, 8160, 8194, 8177, 8208, 8188, 8185, 8166, 8136, 8166, 8146, 8134,5.769224166870117
111, 8167, 8172, 8126, 8175, 8203, 8169, 8211, 8169, 8207, 8181, 8154, 8151, 8153, 8129,5.769224166870117
112, 8174, 8182, 8183, 8175, 8204, 8178, 8200, 8178, 8209, 8176, 8155, 8152, 8151, 8144,5.785294055938721
113, 8184, 8184, 8182, 8183, 8203, 8198, 8211, 8184, 8208, 8176, 8146, 8163, 8153, 8164,5.785294055938721
114, 8173, 8155, 8129, 8175, 8194, 8193, 8226, 8168, 8207, 8182, 8138, 8151, 8152, 8160,5.80041766166687
115, 8159, 8150, 8183, 8143, 8179, 8188, 8218, 8170, 8197, 8178, 8124, 8151, 8142, 8157,5.80041766166687
116, 8161, 8155, 8116, 8148, 8182, 8181, 8224, 8162, 8215, 8198, 8127, 8144, 8149, 8160,5.816004991531372
117, 8165, 8153, 8157, 8149, 8181, 8178, 8218, 8172, 8211, 8191, 8118, 8147, 8141, 8155,5.816004991531372
118, 8136, 8144, 8159, 8142, 8180, 8181, 8208, 8170, 8205, 8183, 8111, 8136, 8134, 8139,5.831078290939331
119, 8127, 8130, 8101, 8122, 8172, 8166, 8193, 8159, 8206, 8187, 8121, 8124, 8142, 8135,5.831078290939331
120, 8156, 8147, 8174, 8109, 8165, 8171, 8183, 8169, 8194, 8179, 8137, 8156, 8145, 8148,5.846765518188477
121, 8167, 8155, 8134, 8147, 8179, 8175, 8204, 8159, 8203, 8190, 8148, 8159, 8152, 8149,5.846765518188477
122, 8173, 8157, 8173, 8154, 8178, 8162, 8190, 8170, 8192, 8175, 8138, 8163, 8153, 8157,5.862445116043091
123, 8182, 8167, 8176, 8135, 8171, 8158, 8173, 8171, 8187, 8160, 8139, 8175, 8156, 8163,5.862445116043091
124, 8188, 8165, 8116, 8131, 8177, 8145, 8179, 8154, 8189, 8158, 8147, 8168, 8155, 8150,5.877969980239868
125, 8198, 8187, 8209, 8149, 8184, 8149, 8176, 8173, 8185, 8156, 8159, 8189, 8162, 8157,5.877969980239868
126, 8199, 8197, 8164, 8176, 8190, 8165, 8178, 8171, 8209, 8181, 8182, 8190, 8183, 8171,5.8931097984313965
127, 8201, 8183, 8171, 8154, 8185, 8159, 8167, 8170, 8199, 8171, 8161, 8181, 8167, 8169,5.8931097984313965
236, 8192, 8182, 8189, 8143, 8181, 8147, 8159, 8175, 8169, 8145, 8137, 8170, 8147, 8154,5.909172058105469
0, 8182, 8185, 8130, 8167, 8188, 8143, 8162, 8163, 8166, 8144, 8153, 8147, 8152, 8147,5.909172058105469
1, 8196, 8196, 8208, 8168, 8193, 8170, 8162, 8171, 8170, 8146, 8163, 8171, 8151, 8157,5.9249937534332275
2, 8194, 8190, 8161, 8174, 8196, 8179, 8180, 8164, 8177, 8160, 8159, 8172, 8154, 8158,5.9249937534332275
3, 8182, 8177, 8163, 8179, 8190, 8164, 8172, 8168, 8153, 8152, 8139, 8158, 8145, 8158,5.9401161670684814
4, 8179, 8178, 8195, 8175, 8191, 8179, 8164, 8178, 8145, 8155, 8131, 8165, 8137, 8152,5.9401161670684814
5, 8169, 8166, 8119, 8163, 8192, 8180, 8180, 8165, 8166, 8173, 8130, 8143, 8137, 8140,5.956241130828857
6, 8158, 8162, 8180, 8141, 8170, 8173, 8178, 8168, 8147, 8147, 8109, 8133, 8119, 8140,5.956241130828857
7, 8154, 8155, 8140, 8147, 8167, 8176, 8187, 8161, 8148, 8153, 8106, 8128, 8123, 8140,5.971408367156982
8, 8161, 8144, 8138, 8128, 8170, 8171, 8185, 8169, 8172, 8177, 8120, 8135, 8148, 8147,5.971408367156982
9, 8160, 8160, 8184, 8117, 8164, 8177, 8186, 8183, 8192, 8171, 8135, 8154, 8161, 8159,5.987067937850952
10, 8166, 8169, 8119, 8151, 8174, 8169, 8197, 8168, 8211, 8174, 8153, 8152, 8172, 8163,5.987067937850952
11, 8195, 8176, 8200, 8148, 8181, 8162, 8181, 8182, 8197, 8186, 8166, 8185, 8183, 8170,6.002523183822632
12, 8200, 8180, 8178, 8149, 8185, 8164, 8185, 8180, 8194, 8193, 8181, 8189, 8188, 8165,6.002523183822632
13, 8188, 8184, 8154, 8163, 8187, 8156, 8184, 8166, 8180, 8162, 8165, 8162, 8166, 8149,6.025116205215454
14, 8186, 8197, 8209, 8167, 8184, 8157, 8170, 8170, 8150, 8142, 8147, 8167, 8151, 8146,6.025116205215454
15, 8185, 8182, 8139, 8176, 8182, 8155, 8176, 8159, 8150, 8163, 8155, 8157, 8164, 8142,6.025116205215454
16, 8182, 8179, 8193, 8169, 8177, 8169, 8174, 8168, 8145, 8150, 8149, 8156, 8157, 8144,6.034601211547852
17, 8173, 8185, 8172, 8184, 8185, 8185, 8181, 8169, 8150, 8152, 8144, 8154, 8157, 8150,6.050459146499634
18, 8180, 8173, 8150, 8195, 8187, 8177, 8185, 8167, 8159, 8173, 8148, 8157, 8169, 8156,6.050459146499634
19, 8192, 8184, 8220, 8202, 8183, 8192, 8195, 8176, 8163, 8185, 8157, 8180, 8174, 8171,6.065988302230835
20, 8189, 8184, 8140, 8216, 8183, 8193, 8211, 8161, 8183, 8201, 8168, 8172, 8186, 8177,6.065988302230835
21, 8191, 8169, 8184, 8184, 8163, 8175, 8197, 8169, 8175, 8187, 8164, 8182, 8188, 8182,6.081059217453003
22, 8197, 8172, 8195, 8187, 8156, 8173, 8199, 8170, 8172, 8188, 8170, 8197, 8192, 8185,6.081059217453003
23, 8207, 8182, 8169, 8227, 8163, 8164, 8202, 8161, 8168, 8186, 8176, 8199, 8198, 8184,6.095984935760498
24, 8223, 8200, 8238, 8236, 8161, 8164, 8187, 8172, 8156, 8166, 8184, 8228, 8203, 8192,6.111503601074219
25, 8226, 8201, 8173, 8248, 8168, 8161, 8190, 8166, 8178, 8179, 8219, 8232, 8218, 8192,6.111503601074219
26, 8230, 8208, 8216, 8252, 8173, 8154, 8181, 8177, 8174, 8163, 8229, 8240, 8215, 8191,6.111503601074219
27, 8226, 8215, 8214, 8261, 8174, 8157, 8174, 8174, 8152, 8141, 8212, 8239, 8206, 8183,6.126659870147705
28, 8223, 8203, 8162, 8263, 8170, 8148, 8171, 8157, 8139, 8146, 8203, 8221, 8193, 8179,6.126659870147705
29, 8234, 8216, 8242, 8258, 8173, 8158, 8171, 8178, 8139, 8154, 8207, 8238, 8182, 8195,6.143083095550537
30, 8223, 8212, 8169, 8272, 8190, 8176, 8192, 8174, 8165, 8174, 8207, 8223, 8187, 8191,6.157529830932617
31, 8212, 8196, 8180, 8267, 8192, 8186, 8192, 8168, 8161, 8169, 8184, 8205, 8181, 8182,6.157529830932617
32, 8213, 8203, 8199, 8268, 8197, 8200, 8194, 8168, 8164, 8175, 8184, 8210, 8184, 8183,6.157529830932617
33, 8201, 8189, 8136, 8264, 8201, 8190, 8200, 8162, 8175, 8190, 8186, 8189, 8184, 8175,6.17340350151062
34, 8183, 8174, 8188, 8225, 8178, 8181, 8184, 8170, 8169, 8183, 8160, 8186, 8170, 8167,6.17340350151062
35, 8179, 8165, 8129, 8217, 8165, 8168, 8195, 8159, 8192, 8194, 8159, 8183, 8183, 8165,6.19034481048584
36, 8200, 8172, 8162, 8212, 8168, 8157, 8193, 8171, 8195, 8190, 8166, 8194, 8191, 8174,6.19034481048584
37, 8204, 8182, 8190, 8199, 8168, 8164, 8183, 8181, 8188, 8180, 8169, 8206, 8185, 8176,6.2057249546051025
38, 8188, 8166, 8110, 8183, 8160, 8146, 8181, 8168, 8183, 8175, 8168, 8183, 8175, 8161,6.2057249546051025
39, 8190, 8177, 8187, 8170, 8154, 8144, 8172, 8182, 8151, 8147, 8148, 8184, 8158, 8151,6.221343517303467
40, 8206, 8200, 8162, 8208, 8169, 8164, 8179, 8175, 8152, 8158, 8149, 8188, 8163, 8157,6.235441446304321
41, 8216, 8199, 8172, 8214, 8176, 8159, 8170, 8173, 8165, 8182, 8168, 8198, 8172, 8174,6.235441446304321
42, 8205, 8196, 8193, 8193, 8172, 8156, 8170, 8181, 8174, 8186, 8179, 8205, 8170, 8178,6.2511351108551025
43, 8199, 8186, 8123, 8209, 8176, 8160, 8191, 8173, 8194, 8197, 8166, 8176, 8173, 8179,6.2511351108551025
44, 8207, 8180, 8205, 8204, 8172, 8172, 8196, 8186, 8188, 8199, 8142, 8176, 8174, 8193,6.266100168228149
45, 8192, 8164, 8159, 8187, 8167, 8181, 8209, 8171, 8195, 8208, 8151, 8177, 8180, 8195,6.266100168228149
46, 8189, 8154, 8141, 8165, 8160, 8175, 8198, 8165, 8200, 8203, 8160, 8180, 8189, 8202,6.281430006027222
47, 8201, 8170, 8195, 8164, 8158, 8166, 8173, 8176, 8196, 8197, 8173, 8203, 8202, 8214,6.281430006027222
48, 8205, 8173, 8136, 8179, 8167, 8151, 8167, 8160, 8199, 8199, 8201, 8206, 8213, 8204,6.297488451004028
49, 8213, 8184, 8205, 8173, 8170, 8164, 8157, 8176, 8189, 8183, 8198, 8221, 8206, 8194,6.297488451004028
50, 8191, 8182, 8170, 8183, 8174, 8173, 8167, 8185, 8197, 8186, 8183, 8197, 8200, 8173,6.313112735748291
51, 8159, 8161, 8139, 8181, 8165, 8163, 8172, 8177, 8199, 8189, 8169, 8164, 8185, 8159,6.313112735748291
52, 8160, 8165, 8196, 8183, 8164, 8188, 8185, 8182, 8206, 8209, 8166, 8177, 8186, 8181,6.329092264175415
53, 8178, 8165, 8130, 8201, 8178, 8192, 8211, 8176, 8243, 8251, 8175, 8174, 8211, 8198,6.329092264175415
54, 8192, 8164, 8187, 8180, 8168, 8171, 8195, 8184, 8244, 8239, 8180, 8194, 8209, 8202,6.345208644866943
55, 8187, 8164, 8170, 8177, 8161, 8167, 8177, 8172, 8244, 8229, 8196, 8207, 8211, 8204,6.345208644866943
56, 8189, 8165, 8148, 8181, 8161, 8152, 8163, 8164, 8230, 8219, 8198, 8198, 8218, 8197,6.360707759857178
57, 8197, 8181, 8217, 8169, 8154, 8144, 8148, 8177, 8193, 8185, 8185, 8204, 8199, 8185,6.360707759857178
58, 8174, 8165, 8136, 8175, 8157, 8149, 8149, 8161, 8181, 8174, 8174, 8172, 8168, 8164,6.375761985778809
59, 8145, 8144, 8167, 8167, 8153, 8165, 8138, 8164, 8166, 8167, 8149, 8154, 8148, 8158,6.375761985778809
60, 8130, 8138, 8150, 8166, 8150, 8182, 8150, 8169, 8169, 8181, 8131, 8145, 8161, 8158,6.392230749130249
61, 8135, 8126, 8115, 8160, 8146, 8169, 8160, 8163, 8183, 8195, 8127, 8133, 8172, 8160,6.392230749130249
62, 8149, 8129, 8194, 8131, 8135, 8157, 8146, 8170, 8184, 8179, 8136, 8156, 8172, 8170,6.40764594078064
63, 8153, 8127, 8127, 8125, 8127, 8146, 8149, 8161, 8197, 8175, 8156, 8158, 8189, 8166,6.40764594078064
64, 8166, 8137, 8164, 8123, 8128, 8144, 8144, 8170, 8180, 8170, 8158, 8166, 8187, 8163,6.423416614532471
65, 8168, 8160, 8165, 8133, 8143, 8155, 8145, 8170, 8171, 8176, 8157, 8169, 8171, 8157,6.423416614532471
66, 8151, 8157, 8113, 8136, 8142, 8143, 8144, 8165, 8172, 8169, 8153, 8149, 8161, 8139,6.438444375991821
67, 8140, 8158, 8187, 8130, 8128, 8143, 8135, 8179, 8149, 8145, 8139, 8147, 8151, 8133,6.438444375991821
68, 8136, 8156, 8126, 8150, 8136, 8159, 8149, 8158, 8144, 8156, 8132, 8124, 8144, 8130,6.454649448394775
69, 8138, 8148, 8149, 8140, 8137, 8173, 8151, 8159, 8138, 8142, 8110, 8117, 8125, 8131,6.454649448394775
70, 8130, 8138, 8160, 8132, 8130, 8180, 8164, 8172, 8148, 8131, 8099, 8120, 8121, 8130,6.470404148101807
71, 8122, 8125, 8104, 8129, 8127, 8163, 8170, 8166, 8171, 8148, 8103, 8111, 8132, 8131,6.470404148101807
72, 8139, 8138, 8181, 8114, 8120, 8158, 8148, 8174, 8169, 8140, 8102, 8137, 8137, 8146,6.48537802696228
73, 8159, 8144, 8137, 8137, 8127, 8151, 8148, 8161, 8178, 8148, 8127, 8154, 8160, 8158,6.48537802696228
74, 8179, 8147, 8165, 8138, 8131, 8138, 8139, 8166, 8172, 8153, 8156, 8176, 8180, 8170,6.500987768173218
75, 8181, 8163, 8192, 8127, 8132, 8145, 8126, 8177, 8164, 8154, 8173, 8200, 8192, 8174,6.500987768173218
76, 8170, 8155, 8125, 8136, 8137, 8137, 8120, 8161, 8156, 8148, 8173, 8184, 8186, 8161,6.5161452293396
77, 8176, 8161, 8203, 8138, 8137, 8138, 8117, 8169, 8128, 8118, 8159, 8188, 8158, 8152,6.5161452293396
78, 8177, 8169, 8159, 8152, 8144, 8150, 8147, 8162, 8134, 8132, 8165, 8181, 8156, 8141,6.532148838043213
79, 8167, 8160, 8155, 8145, 8141, 8152, 8154, 8164, 8131, 8146, 8161, 8166, 8152, 8133,6.532148838043213
80, 8160, 8159, 8188, 8145, 8140, 8167, 8140, 8172, 8125, 8152, 8157, 8169, 8147, 8137,6.547426700592041
81, 8160, 8154, 8126, 8168, 8145, 8163, 8136, 8160, 8146, 8169, 8164, 8162, 8159, 8146,6.547426700592041
82, 8154, 8156, 8191, 8158, 8136, 8157, 8124, 8168, 8137, 8152, 8149, 8173, 8155, 8151,6.562608957290649
83, 8131, 8143, 8137, 8146, 8130, 8161, 8131, 8162, 8127, 8144, 8134, 8148, 8147, 8138,6.562608957290649
84, 8134, 8126, 8123, 8124, 8120, 8152, 8133, 8163, 8120, 8143, 8124, 8121, 8140, 8137,6.57851243019104
85, 8146, 8135, 8172, 8119, 8111, 8162, 8134, 8173, 8128, 8149, 8122, 8142, 8145, 8150,6.57851243019104
86, 8145, 8134, 8104, 8140, 8117, 8170, 8149, 8158, 8157, 8165, 8144, 8152, 8159, 8152,6.594512224197388
87, 8155, 8142, 8179, 8133, 8124, 8179, 8143, 8167, 8160, 8165, 8152, 8168, 8162, 8161,6.594512224197388
88, 8158, 8156, 8161, 8145, 8138, 8180, 8147, 8169, 8167, 8172, 8150, 8168, 8161, 8161,6.610107660293579
89, 8157, 8158, 8143, 8161, 8140, 8163, 8147, 8161, 8160, 8160, 8150, 8168, 8158, 8155,6.610107660293579
90, 8159, 8164, 8194, 8157, 8136, 8165, 8143, 8166, 8146, 8151, 8161, 8180, 8159, 8155,6.625292062759399
91, 8160, 8154, 8115, 8160, 8141, 8159, 8154, 8161, 8165, 8172, 8173, 8165, 8170, 8151,6.625292062759399
92, 8173, 8158, 8175, 8156, 8138, 8153, 8139, 8178, 8166, 8168, 8170, 8186, 8171, 8154,6.641036748886108
93, 8172, 8166, 8164, 8174, 8147, 8158, 8138, 8175, 8165, 8168, 8176, 8190, 8174, 8151,6.641036748886108
94, 8170, 8163, 8135, 8181, 8159, 8152, 8145, 8167, 8167, 8161, 8175, 8169, 8177, 8150,6.6562416553497314
95, 8183, 8179, 8199, 8174, 8153, 8149, 8143, 8183, 8174, 8152, 8179, 8194, 8181, 8163,6.6562416553497314
96, 8188, 8180, 8134, 8192, 8153, 8146, 8154, 8169, 8187, 8172, 8200, 8203, 8192, 8166,6.672281503677368
97, 8189, 8183, 8186, 8187, 8154, 8152, 8144, 8173, 8160, 8156, 8193, 8205, 8178, 8162,6.672281503677368
98, 8184, 8193, 8173, 8187, 8159, 8162, 8149, 8178, 8155, 8149, 8192, 8203, 8171, 8159,6.688139915466309
99, 8176, 8180, 8122, 8185, 8160, 8150, 8155, 8169, 8153, 8157, 8193, 8188, 8171, 8157,6.688139915466309
100, 8166, 8180, 8192, 8164, 8156, 8149, 8147, 8169, 8122, 8130, 8166, 8183, 8153, 8144,6.703284978866577
101, 8157, 8184, 8131, 8177, 8161, 8148, 8148, 8158, 8125, 8126, 8163, 8163, 8152, 8130,6.703284978866577
102, 8162, 8186, 8170, 8178, 8158, 8147, 8129, 8174, 8127, 8140, 8176, 8171, 8153, 8147,6.719305038452148
103, 8150, 8177, 8166, 8166, 8153, 8162, 8131, 8172, 8123, 8148, 8167, 8168, 8151, 8148,6.719305038452148
104, 8133, 8157, 8108, 8161, 8152, 8168, 8149, 8160, 8123, 8144, 8144, 8133, 8144, 8124,6.735400199890137
105, 8138, 8163, 8184, 8159, 8152, 8178, 8156, 8178, 8127, 8138, 8139, 8143, 8135, 8131,6.735400199890137
106, 8136, 8157, 8124, 8169, 8160, 8175, 8168, 8162, 8143, 8150, 8141, 8138, 8138, 8134,6.751434803009033
107, 8127, 8143, 8142, 8153, 8151, 8166, 8151, 8157, 8122, 8133, 8115, 8124, 8125, 8118,6.751434803009033
108, 8125, 8150, 8158, 8157, 8146, 8180, 8163, 8172, 8127, 8145, 8116, 8126, 8129, 8117,6.767223119735718
109, 8144, 8147, 8115, 8168, 8151, 8181, 8192, 8175, 8168, 8179, 8142, 8129, 8154, 8132,6.767223119735718
110, 8156, 8143, 8192, 8151, 8139, 8174, 8173, 8182, 8168, 8163, 8138, 8148, 8160, 8146,6.78350830078125
111, 8135, 8131, 8123, 8149, 8133, 8164, 8163, 8162, 8163, 8158, 8125, 8132, 8154, 8139,6.78350830078125
112, 8140, 8129, 8139, 8133, 8134, 8162, 8165, 8164, 8162, 8161, 8117, 8131, 8147, 8134,6.799032926559448
113, 8151, 8143, 8173, 8123, 8137, 8179, 8163, 8173, 8161, 8160, 8132, 8150, 8156, 8135,6.799032926559448
114, 8145, 8141, 8112, 8142, 8139, 8163, 8159, 8161, 8162, 8162, 8152, 8142, 8170, 8137,6.814209938049316
115, 8165, 8160, 8199, 8152, 8146, 8156, 8154, 8169, 8161, 8161, 8158, 8166, 8169, 8151,6.814209938049316
116, 8184, 8178, 8162, 8172, 8167, 8168, 8168, 8163, 8179, 8175, 8174, 8180, 8175, 8156,6.829638481140137
117, 8184, 8182, 8161, 8167, 8168, 8156, 8151, 8168, 8161, 8166, 8177, 8182, 8170, 8153,6.829638481140137
118, 8178, 8191, 8201, 8162, 8160, 8148, 8138, 8175, 8148, 8160, 8175, 8189, 8162, 8148,6.845691919326782
119, 8173, 8182, 8137, 8177, 8169, 8149, 8155, 8159, 8169, 8173, 8183, 8174, 8164, 8141,6.845691919326782
120, 8169, 8177, 8194, 8152, 8170, 8159, 8156, 8172, 8155, 8153, 8173, 8178, 8151, 8142,6.8608410358428955
121, 8150, 8167, 8142, 8145, 8162, 8154, 8159, 8166, 8154, 8149, 8166, 8164, 8143, 8129,6.8608410358428955
122, 8141, 8162, 8145, 8165, 8153, 8142, 8148, 8164, 8153, 8149, 8162, 8150, 8135, 8117,6.876594305038452
123, 8150, 8183, 8212, 8193, 8159, 8159, 8145, 8179, 8143, 8148, 8164, 8164, 8134, 8122,6.876594305038452
124, 8159, 8192, 8152, 8233, 8174, 8162, 8163, 8165, 8149, 8163, 8185, 8170, 8148, 8127,6.892163276672363
125, 8167, 8204, 8222, 8253, 8169, 8157, 8152, 8165, 8127, 8145, 8194, 8200, 8146, 8130,6.892163276672363
126, 8165, 8209, 8199, 8282, 8165, 8165, 8147, 8163, 8112, 8142, 8200, 8207, 8149, 8131,6.907021522521973
127, 8176, 8196, 8184, 8300, 8162, 8166, 8149, 8164, 8111, 8152, 8201, 8204, 8151, 8139,6.907021522521973
236, 8197, 8209, 8246, 8323, 8165, 8178, 8155, 8172, 8116, 8158, 8199, 8232, 8154, 8151,6.923003196716309
0, 8206, 8222, 8185, 8359, 8178, 8178, 8170, 8156, 8131, 8172, 8198, 8231, 8164, 8152,6.923003196716309
1, 8216, 8222, 8244, 8345, 8167, 8178, 8161, 8165, 8116, 8157, 8189, 8240, 8159, 8159,6.938091278076172
2, 8215, 8209, 8216, 8342, 8164, 8189, 8172, 8164, 8124, 8168, 8201, 8247, 8165, 8168,6.938091278076172
3, 8214, 8198, 8184, 8340, 8169, 8180, 8185, 8165, 8145, 8178, 8202, 8234, 8171, 8170,6.954225301742554
4, 8202, 8197, 8238, 8304, 8154, 8176, 8174, 8178, 8144, 8151, 8171, 8224, 8153, 8158,6.954225301742554
5, 8169, 8166, 8136, 8268, 8143, 8160, 8168, 8160, 8155, 8146, 8156, 8188, 8145, 8137,6.968585729598999
6, 8165, 8156, 8171, 8225, 8136, 8143, 8157, 8170, 8152, 8143, 8156, 8190, 8154, 8145,6.984316110610962
7, 8162, 8168, 8172, 8214, 8142, 8149, 8160, 8173, 8150, 8136, 8150, 8187, 8156, 8147,6.984316110610962
8, 8146, 8150, 8125, 8203, 8143, 8144, 8147, 8159, 8139, 8125, 8133, 8158, 8138, 8120,7.000807046890259
9, 8152, 8149, 8187, 8170, 8138, 8146, 8131, 8164, 8135, 8130, 8141, 8177, 8142, 8119,7.000807046890259
10, 8155, 8149, 8121, 8167, 8144, 8144, 8143, 8151, 8157, 8158, 8164, 8173, 8165, 8131,7.015177249908447
11, 8158, 8155, 8165, 8164, 8142, 8138, 8126, 8160, 8136, 8141, 8154, 8172, 8155, 8132,7.015177249908447
12, 8174, 8176, 8181, 8173, 8149, 8148, 8124, 8167, 8132, 8136, 8170, 8193, 8159, 8136,7.030179738998413
13, 8184, 8171, 8131, 8170, 8159, 8142, 8138, 8158, 8143, 8156, 8190, 8191, 8174, 8138,7.030179738998413
14, 8173, 8166, 8198, 8150, 8158, 8150, 8133, 8167, 8124, 8150, 8174, 8190, 8160, 8132,7.0453245639801025
15, 8164, 8171, 8142, 8174, 8166, 8165, 8148, 8162, 8136, 8155, 8184, 8175, 8165, 8129,7.0453245639801025
16, 8177, 8186, 8177, 8191, 8169, 8169, 8145, 8170, 8143, 8152, 8200, 8190, 8178, 8144,7.060960054397583
17, 8171, 8190, 8187, 8194, 8177, 8170, 8145, 8165, 8139, 8158, 8186, 8196, 8172, 8145,7.060960054397583
18, 8154, 8169, 8125, 8190, 8183, 8156, 8149, 8151, 8130, 8161, 8162, 8161, 8158, 8123,7.077060222625732
19, 8162, 8175, 8205, 8181, 8171, 8166, 8140, 8173, 8122, 8149, 8153, 8166, 8148, 8118,7.077060222625732
20, 8162, 8175, 8146, 8195, 8172, 8175, 8154, 8168, 8155, 8172, 8163, 8168, 8153, 8123,7.0922346115112305
21, 8142, 8157, 8143, 8173, 8175, 8170, 8156, 8168, 8160, 8177, 8147, 8153, 8147, 8119,7.0922346115112305
22, 8122, 8151, 8156, 8149, 8170, 8182, 8162, 8175, 8146, 8164, 8132, 8142, 8142, 8111,7.108097314834595
23, 8123, 8149, 8094, 8154, 8163, 8176, 8181, 8161, 8147, 8153, 8126, 8120, 8135, 8101,7.108097314834595
24, 8131, 8154, 8174, 8149, 8153, 8167, 8176, 8170, 8134, 8128, 8104, 8120, 8114, 8101,7.123382329940796
25, 8134, 8153, 8135, 8158, 8165, 8174, 8187, 8166, 8146, 8148, 8115, 8121, 8131, 8109,7.123382329940796
26, 8152, 8150, 8146, 8156, 8174, 8177, 8198, 8162, 8148, 8156, 8134, 8142, 8148, 8134,7.139103889465332
27, 8156, 8155, 8181, 8153, 8177, 8185, 8198, 8164, 8132, 8140, 8127, 8153, 8142, 8140,7.139103889465332
28, 8137, 8145, 8110, 8161, 8182, 8186, 8199, 8154, 8134, 8153, 8122, 8122, 8141, 8121,7.15513277053833
29, 8135, 8147, 8178, 8147, 8174, 8185, 8196, 8171, 8145, 8160, 8132, 8132, 8149, 8124,7.15513277053833
30, 8134, 8146, 8135, 8157, 8174, 8180, 8209, 8173, 8181, 8177, 8146, 8137, 8171, 8136,7.170338153839111
31, 8135, 8139, 8129, 8159, 8172, 8173, 8196, 8171, 8196, 8185, 8130, 8126, 8178, 8142,7.170338153839111
32, 8141, 8150, 8174, 8140, 8163, 8184, 8182, 8177, 8199, 8181, 8129, 8144, 8182, 8148,7.186383485794067
33, 8144, 8147, 8104, 8137, 8162, 8170, 8188, 8167, 8212, 8186, 8161, 8150, 8197, 8146,7.186383485794067
34, 8145, 8153, 8171, 8128, 8157, 8155, 8165, 8179, 8187, 8173, 8162, 8156, 8185, 8132,7.202603101730347
35, 8121, 8166, 8133, 8140, 8163, 8156, 8155, 8164, 8165, 8166, 8151, 8140, 8169, 8110,7.202603101730347
36, 8118, 8167, 8116, 8143, 8164, 8147, 8153, 8157, 8153, 8144, 8157, 8142, 8172, 8113,7.218257665634155
37, 8146, 8182, 8190, 8142, 8167, 8152, 8151, 8176, 8148, 8131, 8171, 8176, 8180, 8126,7.218257665634155
38, 8156, 8188, 8123, 8176, 8183, 8157, 8161, 8164, 8156, 8148, 8165, 8154, 8168, 8115,7.23342752456665
39, 8156, 8194, 8178, 8187, 8184, 8174, 8163, 8169, 8144, 8148, 8140, 8144, 8146, 8122,7.23342752456665
40, 8154, 8187, 8165, 8182, 8183, 8192, 8182, 8173, 8160, 8169, 8148, 8152, 8162, 8141,7.249008893966675
41, 8160, 8165, 8131, 8164, 8185, 8186, 8184, 8175, 8175, 8183, 8160, 8150, 8180, 8149,7.249008893966675
42, 8167, 8172, 8193, 8156, 8182, 8188, 8177, 8184, 8168, 8178, 8157, 8162, 8180, 8163,7.26409387588501
43, 8165, 8173, 8133, 8173, 8182, 8179, 8195, 8162, 8180, 8195, 8167, 8157, 8190, 8163,7.26409387588501
44, 8165, 8165, 8179, 8150, 8169, 8172, 8186, 8166, 8177, 8189, 8176, 8174, 8194, 8161,7.279677391052246
45, 8158, 8162, 8160, 8135, 8165, 8180, 8183, 8171, 8189, 8185, 8178, 8176, 8200, 8160,7.279677391052246
46, 8153, 8158, 8116, 8139, 8163, 8166, 8182, 8162, 8188, 8183, 8165, 8153, 8193, 8145,7.294723272323608
47, 8152, 8166, 8181, 8129, 8162, 8165, 8162, 8170, 8161, 8162, 8156, 8160, 8174, 8130,7.294723272323608
48, 8138, 8154, 8108, 8126, 8164, 8162, 8162, 8161, 8166, 8157, 8158, 8136, 8174, 8121,7.31067419052124
49, 8139, 8153, 8151, 8111, 8156, 8151, 8155, 8171, 8164, 8138, 8145, 8129, 8165, 8123,7.31067419052124
50, 8154, 8174, 8164, 8117, 8170, 8159, 8164, 8171, 8166, 8145, 8162, 8151, 8168, 8126,7.3260674476623535
51, 8157, 8173, 8117, 8122, 8180, 8152, 8170, 8158, 8174, 8166, 8188, 8156, 8183, 8125,7.3260674476623535
52, 8139, 8177, 8190, 8117, 8169, 8157, 8156, 8169, 8156, 8147, 8165, 8153, 8164, 8120,7.341495037078857
53, 8127, 8181, 8124, 8148, 8174, 8165, 8167, 8163, 8152, 8140, 8149, 8128, 8146, 8105,7.341495037078857
54, 8146, 8184, 8151, 8143, 8185, 8169, 8164, 8171, 8149, 8143, 8164, 8144, 8147, 8110,7.357081174850464
55, 8144, 8185, 8173, 8128, 8182, 8181, 8156, 8166, 8147, 8144, 8159, 8154, 8143, 8113,7.357081174850464
56, 8122, 8165, 8109, 8139, 8169, 8174, 8151, 8147, 8140, 8140, 8121, 8117, 8121, 8102,7.372487783432007
57, 8131, 8169, 8180, 8145, 8176, 8185, 8151, 8171, 8131, 8144, 8118, 8128, 8117, 8119,7.372487783432007
58, 8139, 8170, 8137, 8158, 8200, 8200, 8171, 8162, 8152, 8163, 8151, 8135, 8136, 8133,7.388382434844971
59, 8131, 8156, 8149, 8144, 8184, 8192, 8166, 8151, 8141, 8135, 8127, 8123, 8122, 8123,7.388382434844971
60, 8131, 8158, 8166, 8134, 8174, 8189, 8175, 8163, 8138, 8137, 8109, 8132, 8123, 8121,7.404466152191162
61, 8142, 8153, 8108, 8132, 8190, 8182, 8203, 8168, 8173, 8183, 8140, 8136, 8155, 8139,7.419978141784668
62, 8135, 8145, 8175, 8097, 8177, 8177, 8203, 8180, 8175, 8174, 8141, 8141, 8155, 8141,7.419978141784668
63, 8109, 8131, 8105, 8084, 8160, 8168, 8198, 8165, 8179, 8160, 8125, 8120, 8144, 8112,7.419978141784668
64, 8116, 8137, 8113, 8088, 8160, 8160, 8177, 8167, 8173, 8153, 8127, 8130, 8144, 8103,7.4360785484313965
65, 8134, 8158, 8170, 8092, 8160, 8168, 8162, 8179, 8154, 8142, 8142, 8162, 8155, 8111,7.4360785484313965
66, 8132, 8155, 8103, 8105, 8170, 8165, 8174, 8167, 8151, 8148, 8153, 8146, 8164, 8104,7.452091455459595
67, 8138, 8169, 8177, 8111, 8183, 8175, 8172, 8175, 8152, 8149, 8153, 8156, 8157, 8111,7.452091455459595
68, 8143, 8182, 8148, 8137, 8194, 8187, 8180, 8164, 8172, 8166, 8167, 8167, 8156, 8124,7.467556715011597
69, 8149, 8174, 8140, 8137, 8196, 8183, 8184, 8163, 8164, 8166, 8162, 8162, 8155, 8131,7.467556715011597
70, 8156, 8176, 8185, 8130, 8198, 8195, 8185, 8173, 8150, 8166, 8156, 8173, 8156, 8141,7.48313045501709
71, 8156, 8167, 8113, 8152, 8199, 8194, 8195, 8156, 8163, 8185, 8165, 8165, 8167, 8145,7.48313045501709
72, 8156, 8162, 8174, 8149, 8187, 8196, 8193, 8167, 8157, 8174, 8149, 8167, 8164, 8146,7.498284339904785
73, 8138, 8151, 8139, 8137, 8186, 8204, 8205, 8172, 8169, 8174, 8133, 8149, 8162, 8134,7.498284339904785
74, 8133, 8137, 8116, 8118, 8181, 8193, 8198, 8167, 8177, 8178, 8134, 8139, 8161, 8124,7.513413667678833
75, 8141, 8147, 8175, 8118, 8175, 8192, 8186, 8174, 8181, 8176, 8141, 8167, 8165, 8132,7.513413667678833
76, 8137, 8138, 8106, 8130, 8178, 8188, 8202, 8168, 8209, 8188, 8153, 8162, 8180, 8134,7.528995037078857
77, 8132, 8133, 8158, 8095, 8165, 8178, 8193, 8179, 8199, 8171, 8152, 8166, 8171, 8126,7.544093132019043
78, 8133, 8153, 8144, 8099, 8175, 8174, 8191, 8173, 8191, 8168, 8168, 8174, 8171, 8117,7.544093132019043
79, 8155, 8174, 8135, 8137, 8197, 8173, 8188, 8167, 8195, 8175, 8190, 8183, 8179, 8122,7.544093132019043
80, 8176, 8194, 8216, 8153, 8196, 8184, 8175, 8181, 8193, 8170, 8195, 8203, 8180, 8139,7.560391426086426
81, 8167, 8183, 8139, 8170, 8194, 8178, 8178, 8161, 8202, 8185, 8194, 8189, 8175, 8143,7.560391426086426
82, 8162, 8172, 8175, 8158, 8193, 8169, 8168, 8166, 8179, 8175, 8177, 8186, 8159, 8140,7.576014757156372
83, 8160, 8171, 8166, 8149, 8191, 8181, 8172, 8172, 8165, 8165, 8170, 8181, 8160, 8133,7.576014757156372
84, 8156, 8159, 8125, 8155, 8184, 8178, 8180, 8166, 8169, 8175, 8162, 8166, 8161, 8140,7.591038703918457
85, 8164, 8168, 8200, 8163, 8184, 8186, 8186, 8176, 8164, 8181, 8151, 8183, 8153, 8157,7.608088970184326
86, 8167, 8169, 8137, 8175, 8196, 8195, 8206, 8161, 8169, 8189, 8160, 8174, 8161, 8145,7.608088970184326
87, 8163, 8168, 8165, 8161, 8191, 8195, 8202, 8164, 8156, 8182, 8161, 8172, 8156, 8138,7.608088970184326
88, 8154, 8169, 8167, 8163, 8184, 8201, 8201, 8164, 8156, 8184, 8164, 8178, 8156, 8140,7.623333692550659
89, 8153, 8154, 8126, 8156, 8182, 8185, 8199, 8160, 8172, 8184, 8171, 8167, 8172, 8137,7.639406442642212
90, 8160, 8157, 8189, 8124, 8174, 8171, 8182, 8178, 8189, 8182, 8177, 8193, 8180, 8143,7.639406442642212
91, 8151, 8149, 8106, 8124, 8166, 8157, 8184, 8167, 8209, 8198, 8187, 8190, 8185, 8141,7.639406442642212
92, 8153, 8138, 8136, 8118, 8156, 8151, 8175, 8172, 8189, 8177, 8180, 8185, 8183, 8138,7.654393672943115
93, 8162, 8155, 8171, 8126, 8169, 8163, 8178, 8180, 8183, 8172, 8185, 8201, 8186, 8143,7.6720404624938965
94, 8165, 8161, 8117, 8143, 8182, 8149, 8182, 8167, 8192, 8185, 8200, 8202, 8191, 8143,7.6720404624938965
95, 8171, 8170, 8188, 8136, 8170, 8149, 8166, 8172, 8164, 8167, 8200, 8212, 8182, 8147,7.6720404624938965
96, 8176, 8176, 8140, 8166, 8177, 8162, 8178, 8165, 8168, 8172, 8199, 8202, 8184, 8156,7.685782194137573
97, 8184, 8175, 8162, 8186, 8190, 8164, 8178, 8172, 8168, 8159, 8184, 8194, 8172, 8162,7.685782194137573
98, 8167, 8168, 8182, 8173, 8189, 8169, 8173, 8174, 8145, 8132, 8161, 8174, 8150, 8144,7.700427055358887
99, 8149, 8152, 8105, 8168, 8182, 8166, 8185, 8164, 8149, 8144, 8149, 8143, 8145, 8131,7.716194152832031
100, 8163, 8160, 8177, 8164, 8177, 8177, 8191, 8177, 8156, 8152, 8141, 8167, 8143, 8149,7.716194152832031
101, 8164, 8160, 8137, 8178, 8181, 8177, 8200, 8163, 8158, 8161, 8145, 8165, 8143, 8149,7.732384920120239
102, 8158, 8148, 8137, 8168, 8173, 8162, 8186, 8157, 8133, 8153, 8132, 8146, 8133, 8133,7.732384920120239
103, 8160, 8148, 8166, 8149, 8165, 8165, 8178, 8165, 8134, 8145, 8121, 8156, 8135, 8135,7.74737286567688
104, 8170, 8142, 8101, 8146, 8163, 8156, 8179, 8156, 8173, 8175, 8155, 8170, 8161, 8152,7.74737286567688
105, 8186, 8157, 8184, 8140, 8157, 8148, 8154, 8171, 8175, 8188, 8191, 8209, 8177, 8172,7.763038635253906
106, 8178, 8166, 8147, 8156, 8162, 8151, 8155, 8169, 8173, 8178, 8190, 8206, 8175, 8160,7.763038635253906
107, 8170, 8157, 8131, 8135, 8161, 8150, 8164, 8171, 8170, 8158, 8167, 8186, 8154, 8141,7.779029130935669
108, 8172, 8166, 8183, 8118, 8165, 8162, 8170, 8182, 8171, 8158, 8170, 8203, 8149, 8149,7.779029130935669
109, 8165, 8161, 8116, 8147, 8178, 8170, 8189, 8165, 8179, 8171, 8171, 8188, 8156, 8155,7.794009208679199
110, 8166, 8153, 8172, 8145, 8170, 8180, 8194, 8177, 8167, 8163, 8144, 8181, 8145, 8158,7.794009208679199
111, 8175, 8153, 8145, 8153, 8168, 8190, 8216, 8179, 8182, 8191, 8159, 8188, 8158, 8174,7.809223175048828
112, 8191, 8155, 8140, 8163, 8167, 8177, 8219, 8168, 8193, 8209, 8181, 8198, 8180, 8190,7.809223175048828
113, 8195, 8159, 8203, 8147, 8157, 8166, 8185, 8168, 8189, 8190, 8170, 8211, 8177, 8189,7.824787855148315
114, 8172, 8142, 8116, 8133, 8154, 8144, 8151, 8154, 8186, 8191, 8171, 8185, 8166, 8172,7.824787855148315
115, 8167, 8139, 8157, 8117, 8147, 8137, 8132, 8164, 8156, 8173, 8178, 8191, 8157, 8168,7.839667320251465
116, 8184, 8153, 8148, 8128, 8150, 8157, 8158, 8165, 8164, 8173, 8199, 8211, 8172, 8170,7.839667320251465
117, 8179, 8155, 8124, 8127, 8155, 8152, 8159, 8162, 8172, 8172, 8205, 8201, 8172, 8159,7.855632543563843
118, 8156, 8165, 8183, 8124, 8150, 8149, 8137, 8175, 8151, 8153, 8192, 8197, 8150, 8146,7.855632543563843
119, 8147, 8162, 8119, 8152, 8152, 8156, 8163, 8168, 8174, 8178, 8202, 8183, 8157, 8139,7.871465682983398
120, 8163, 8163, 8176, 8154, 8158, 8170, 8177, 8179, 8190, 8194, 8211, 8201, 8168, 8155,7.871465682983398
121, 8169, 8172, 8169, 8161, 8173, 8181, 8182, 8181, 8190, 8204, 8216, 8210, 8175, 8168,7.886293649673462
122, 8166, 8161, 8120, 8166, 8173, 8168, 8184, 8177, 8184, 8203, 8209, 8182, 8171, 8161,7.886293649673462
123, 8169, 8161, 8195, 8154, 8160, 8174, 8188, 8184, 8170, 8193, 8192, 8185, 8163, 8163,7.902462005615234
124, 8171, 8156, 8132, 8168, 8167, 8183, 8212, 8163, 8183, 8214, 8194, 8184, 8175, 8169,7.902462005615234
125, 8176, 8151, 8161, 8157, 8161, 8181, 8202, 8169, 8179, 8207, 8189, 8194, 8173, 8170,7.918093681335449
126, 8165, 8147, 8162, 8140, 8144, 8186, 8189, 8174, 8171, 8198, 8187, 8192, 8161, 8164,7.918093681335449
127, 8162, 8132, 8115, 8133, 8145, 8179, 8190, 8157, 8163, 8201, 8184, 8173, 8162, 8167,7.933653116226196
236, 8182, 8144, 8191, 8128, 8155, 8179, 8177, 8164, 8154, 8187, 8180, 8190, 8166, 8173,7.933653116226196
0, 8187, 8154, 8133, 8151, 8159, 8170, 8168, 8156, 8178, 8193, 8193, 8190, 8177, 8169,7.9494545459747314
1, 8193, 8154, 8165, 8147, 8149, 8155, 8142, 8164, 8175, 8193, 8195, 8198, 8175, 8178,7.9494545459747314
2, 8196, 8158, 8185, 8135, 8150, 8156, 8129, 8172, 8164, 8191, 8198, 8210, 8176, 8181,7.965213775634766
3, 8193, 8155, 8128, 8138, 8158, 8144, 8133, 8157, 8165, 8184, 8206, 8201, 8182, 8164,7.965213775634766
4, 8192, 8173, 8203, 8137, 8155, 8146, 8133, 8163, 8149, 8166, 8202, 8220, 8173, 8159,7.980706453323364
5, 8184, 8173, 8146, 8149, 8159, 8154, 8155, 8159, 8156, 8180, 8208, 8214, 8170, 8156,7.980706453323364
6, 8189, 8168, 8161, 8138, 8156, 8154, 8163, 8170, 8161, 8176, 8208, 8208, 8167, 8162,7.996294736862183
7, 8195, 8183, 8186, 8135, 8152, 8166, 8169, 8175, 8164, 8171, 8204, 8214, 8162, 8170,7.996294736862183
8, 8186, 8171, 8116, 8150, 8155, 8168, 8177, 8160, 8165, 8178, 8195, 8194, 8156, 8160,8.011441469192505
9, 8180, 8164, 8189, 8151, 8154, 8169, 8162, 8174, 8144, 8152, 8180, 8197, 8144, 8158,8.011441469192505
10, 8170, 8165, 8147, 8163, 8167, 8168, 8165, 8170, 8154, 8152, 8180, 8187, 8146, 8165,8.03436017036438
11, 8175, 8165, 8152, 8159, 8173, 8170, 8165, 8170, 8161, 8169, 8172, 8179, 8144, 8171,8.03436017036438
12, 8186, 8169, 8192, 8165, 8173, 8191, 8166, 8178, 8168, 8191, 8175, 8196, 8153, 8175,8.03436017036438
13, 8185, 8154, 8122, 8180, 8177, 8188, 8175, 8167, 8187, 8211, 8188, 8188, 8165, 8180,8.042479515075684
14, 8184, 8152, 8186, 8158, 8171, 8186, 8169, 8176, 8183, 8202, 8178, 8193, 8151, 8186,8.058466911315918
15, 8174, 8148, 8145, 8154, 8173, 8197, 8181, 8172, 8197, 8210, 8173, 8186, 8153, 8178,8.058466911315918
16, 8172, 8139, 8135, 8151, 8175, 8192, 8178, 8171, 8203, 8215, 8175, 8184, 8168, 8178,8.07397174835205
17, 8174, 8145, 8181, 8140, 8170, 8191, 8170, 8174, 8189, 8206, 8180, 8203, 8169, 8184,8.07397174835205
18, 8166, 8143, 8108, 8150, 8169, 8178, 8173, 8162, 8190, 8204, 8186, 8189, 8165, 8177,8.089404821395874
19, 8166, 8153, 8169, 8142, 8169, 8175, 8158, 8182, 8185, 8191, 8177, 8196, 8162, 8174,8.089404821395874
20, 8164, 8161, 8142, 8144, 8172, 8179, 8160, 8180, 8195, 8193, 8182, 8196, 8165, 8166,8.105629920959473
21, 8167, 8157, 8126, 8145, 8164, 8159, 8152, 8160, 8185, 8179, 8184, 8187, 8156, 8150,8.105629920959473
22, 8168, 8169, 8193, 8142, 8163, 8153, 8140, 8164, 8165, 8157, 8177, 8203, 8151, 8146,8.121261835098267
23, 8162, 8169, 8129, 8162, 8173, 8150, 8150, 8156, 8164, 8164, 8186, 8193, 8151, 8136,8.121261835098267
24, 8167, 8169, 8178, 8158, 8165, 8150, 8134, 8169, 8137, 8146, 8180, 8187, 8130, 8127,8.135346412658691
25, 8154, 8161, 8143, 8145, 8157, 8153, 8126, 8166, 8121, 8131, 8154, 8168, 8117, 8116,8.135346412658691
26, 8138, 8147, 8111, 8129, 8160, 8151, 8129, 8158, 8114, 8137, 8143, 8150, 8116, 8113,8.151389837265015
27, 8153, 8173, 8201, 8151, 8172, 8172, 8139, 8172, 8120, 8161, 8178, 8183, 8132, 8135,8.151389837265015
28, 8176, 8183, 8143, 8203, 8182, 8176, 8159, 8160, 8158, 8198, 8212, 8194, 8161, 8156,8.16805100440979
29, 8185, 8172, 8177, 8196, 8168, 8166, 8145, 8167, 8154, 8181, 8193, 8205, 8161, 8166,8.16805100440979
30, 8178, 8172, 8167, 8196, 8169, 8179, 8148, 8169, 8149, 8179, 8191, 8209, 8157, 8161,8.182249069213867
31, 8176, 8164, 8127, 8203, 8182, 8187, 8169, 8163, 8166, 8197, 8203, 8198, 8161, 8157,8.197990655899048
32, 8173, 8151, 8191, 8167, 8170, 8187, 8167, 8174, 8169, 8186, 8186, 8205, 8157, 8159,8.197990655899048
33, 8158, 8131, 8118, 8151, 8160, 8165, 8164, 8165, 8181, 8184, 8174, 8188, 8159, 8146,8.19899296760559
34, 8158, 8136, 8149, 8145, 8152, 8148, 8151, 8173, 8178, 8178, 8178, 8187, 8156, 8138,8.21433138847351
35, 8155, 8151, 8146, 8152, 8149, 8159, 8155, 8172, 8178, 8174, 8189, 8190, 8157, 8133,8.21433138847351
36, 8149, 8145, 8098, 8158, 8155, 8146, 8154, 8158, 8179, 8161, 8186, 8178, 8158, 8125,8.22937822341919
37, 8148, 8155, 8180, 8144, 8160, 8142, 8132, 8170, 8152, 8138, 8178, 8191, 8144, 8126,8.244056463241577
38, 8140, 8157, 8122, 8153, 8167, 8155, 8138, 8161, 8139, 8140, 8186, 8175, 8140, 8120,8.244056463241577
39, 8152, 8159, 8153, 8162, 8166, 8165, 8144, 8163, 8128, 8133, 8183, 8172, 8136, 8125,8.260057210922241
40, 8168, 8180, 8182, 8188, 8180, 8180, 8156, 8166, 8140, 8154, 8188, 8189, 8144, 8139,8.260057210922241
41, 8167, 8175, 8122, 8206, 8193, 8173, 8165, 8157, 8143, 8176, 8190, 8176, 8154, 8137,8.276611089706421
42, 8175, 8162, 8188, 8182, 8173, 8170, 8156, 8172, 8121, 8150, 8166, 8182, 8147, 8148,8.276611089706421
43, 8172, 8148, 8132, 8182, 8166, 8176, 8171, 8164, 8149, 8166, 8169, 8181, 8155, 8162,8.29116415977478
44, 8159, 8142, 8145, 8180, 8169, 8179, 8173, 8165, 8166, 8183, 8177, 8182, 8160, 8160,8.29116415977478
45, 8153, 8148, 8165, 8170, 8168, 8180, 8173, 8170, 8160, 8167, 8161, 8185, 8155, 8152,8.306302547454834
46, 8160, 8136, 8095, 8156, 8163, 8166, 8175, 8161, 8167, 8166, 8152, 8170, 8155, 8149,8.306302547454834
47, 8171, 8141, 8172, 8135, 8161, 8168, 8159, 8173, 8170, 8177, 8171, 8193, 8159, 8159,8.321450471878052
48, 8171, 8153, 8134, 8157, 8170, 8170, 8155, 8161, 8179, 8191, 8205, 8202, 8176, 8160,8.321450471878052
49, 8175, 8157, 8140, 8169, 8169, 8155, 8140, 8163, 8157, 8171, 8202, 8203, 8174, 8150,8.337073564529419
50, 8172, 8167, 8183, 8169, 8173, 8165, 8138, 8172, 8147, 8155, 8191, 8212, 8155, 8138,8.337073564529419
51, 8169, 8168, 8119, 8184, 8186, 8165, 8152, 8157, 8167, 8175, 8208, 8200, 8162, 8142,8.352145433425903
52, 8188, 8179, 8190, 8176, 8176, 8160, 8137, 8173, 8157, 8177, 8216, 8216, 8175, 8158,8.352145433425903
53, 8187, 8179, 8151, 8178, 8170, 8152, 8133, 8169, 8148, 8169, 8196, 8204, 8166, 8146,8.368046998977661
54, 8177, 8167, 8142, 8176, 8172, 8145, 8133, 8162, 8142, 8153, 8173, 8187, 8145, 8139,8.368046998977661
55, 8171, 8172, 8188, 8171, 8175, 8171, 8133, 8170, 8138, 8159, 8190, 8201, 8153, 8157,8.383301734924316
56, 8165, 8166, 8113, 8187, 8176, 8178, 8141, 8157, 8143, 8178, 8209, 8190, 8166, 8160,8.383301734924316
57, 8178, 8174, 8185, 8195, 8172, 8167, 8132, 8165, 8124, 8154, 8191, 8199, 8151, 8157,8.399079322814941
58, 8188, 8181, 8169, 8213, 8184, 8180, 8148, 8165, 8133, 8165, 8199, 8210, 8164, 8158,8.399079322814941
59, 8179, 8162, 8136, 8200, 8189, 8187, 8153, 8160, 8150, 8181, 8201, 8201, 8173, 8157,8.414209365844727
60, 8168, 8155, 8179, 8174, 8178, 8186, 8147, 8165, 8146, 8159, 8174, 8193, 8151, 8151,8.414209365844727
61, 8174, 8152, 8117, 8186, 8178, 8181, 8172, 8155, 8159, 8172, 8173, 8173, 8153, 8149,8.429768562316895
62, 8177, 8155, 8172, 8166, 8173, 8189, 8175, 8168, 8164, 8186, 8172, 8182, 8161, 8155,8.429768562316895
63, 8152, 8140, 8134, 8142, 8165, 8184, 8167, 8169, 8182, 8188, 8160, 8179, 8157, 8140,8.445089340209961
64, 8152, 8129, 8103, 8140, 8163, 8163, 8167, 8166, 8201, 8188, 8169, 8175, 8156, 8136,8.445089340209961
65, 8182, 8161, 8193, 8154, 8169, 8178, 8176, 8178, 8204, 8187, 8186, 8208, 8167, 8161,8.463169813156128
66, 8184, 8166, 8125, 8172, 8174, 8178, 8189, 8163, 8208, 8189, 8192, 8199, 8174, 8160,8.463169813156128
67, 8178, 8153, 8158, 8151, 8164, 8161, 8179, 8168, 8187, 8174, 8181, 8194, 8161, 8146,8.476106882095337
68, 8188, 8166, 8159, 8156, 8164, 8162, 8182, 8170, 8184, 8182, 8192, 8209, 8170, 8144,8.476106882095337
69, 8201, 8178, 8133, 8180, 8167, 8150, 8170, 8162, 8182, 8182, 8213, 8213, 8183, 8149,8.492156028747559
70, 8208, 8194, 8219, 8188, 8172, 8154, 8153, 8175, 8165, 8163, 8223, 8232, 8178, 8159,8.492156028747559
71, 8199, 8193, 8151, 8208, 8191, 8167, 8176, 8169, 8180, 8189, 8234, 8222, 8184, 8155,8.507317781448364
72, 8202, 8192, 8179, 8203, 8186, 8170, 8166, 8175, 8172, 8185, 8220, 8216, 8178, 8151,8.507317781448364
73, 8208, 8199, 8189, 8202, 8180, 8176, 8153, 8171, 8164, 8173, 8217, 8222, 8172, 8155,8.523194313049316
74, 8201, 8188, 8138, 8203, 8190, 8169, 8160, 8160, 8176, 8182, 8227, 8209, 8178, 8154,8.523194313049316
75, 8197, 8193, 8208, 8200, 8191, 8175, 8163, 8177, 8176, 8188, 8227, 8216, 8186, 8156,8.538765668869019
76, 8196, 8191, 8151, 8231, 8194, 8184, 8184, 8170, 8199, 8212, 8239, 8213, 8199, 8160,8.538765668869019
77, 8193, 8177, 8170, 8221, 8184, 8188, 8190, 8172, 8203, 8211, 8229, 8210, 8189, 8158,8.554443359375
78, 8181, 8174, 8175, 8204, 8180, 8200, 8205, 8177, 8203, 8216, 8218, 8201, 8192, 8156,8.554443359375
79, 8182, 8159, 8116, 8210, 8183, 8196, 8221, 8170, 8219, 8240, 8227, 8191, 8215, 8169,8.569966793060303
80, 8196, 8152, 8193, 8194, 8172, 8195, 8206, 8182, 8227, 8231, 8225, 8214, 8209, 8187,8.569966793060303
81, 8194, 8151, 8135, 8182, 8166, 8186, 8202, 8171, 8238, 8220, 8223, 8205, 8208, 8176,8.5850830078125
82, 8196, 8150, 8146, 8148, 8159, 8171, 8191, 8172, 8222, 8201, 8221, 8203, 8213, 8167,8.5850830078125
83, 8200, 8153, 8184, 8139, 8159, 8173, 8181, 8175, 8210, 8199, 8231, 8219, 8215, 8165,8.600608587265015
84, 8195, 8157, 8127, 8172, 8166, 8158, 8170, 8157, 8199, 8189, 8233, 8208, 8206, 8147,8.600608587265015
85, 8200, 8183, 8197, 8180, 8164, 8152, 8147, 8167, 8159, 8150, 8217, 8224, 8182, 8135,8.616613388061523
86, 8199, 8184, 8151, 8193, 8175, 8173, 8154, 8164, 8161, 8156, 8226, 8219, 8181, 8137,8.616613388061523
87, 8191, 8176, 8156, 8200, 8187, 8187, 8155, 8165, 8167, 8167, 8230, 8202, 8181, 8141,8.632333517074585
88, 8182, 8185, 8194, 8202, 8192, 8194, 8161, 8170, 8158, 8164, 8212, 8206, 8170, 8143,8.632333517074585
89, 8170, 8164, 8114, 8202, 8192, 8187, 8191, 8158, 8159, 8171, 8193, 8186, 8160, 8138,8.647305965423584
90, 8162, 8154, 8169, 8178, 8178, 8192, 8199, 8175, 8153, 8158, 8174, 8173, 8142, 8135,8.647305965423584
91, 8150, 8157, 8126, 8178, 8174, 8193, 8201, 8176, 8180, 8173, 8181, 8160, 8147, 8128,8.663833379745483
92, 8160, 8158, 8123, 8174, 8177, 8174, 8192, 8173, 8207, 8197, 8199, 8172, 8169, 8135,8.663833379745483
93, 8178, 8167, 8183, 8170, 8178, 8179, 8189, 8176, 8210, 8202, 8212, 8204, 8185, 8150,8.67803430557251
94, 8175, 8163, 8107, 8180, 8181, 8170, 8195, 8156, 8202, 8200, 8219, 8193, 8189, 8142,8.693382740020752
95, 8183, 8176, 8171, 8177, 8180, 8160, 8173, 8161, 8166, 8159, 8211, 8203, 8178, 8136,8.693382740020752
96, 8189, 8190, 8157, 8189, 8188, 8168, 8174, 8163, 8161, 8149, 8217, 8215, 8184, 8139,8.70868992805481
97, 8193, 8179, 8141, 8182, 8183, 8159, 8173, 8164, 8171, 8172, 8220, 8218, 8196, 8149,8.70868992805481
98, 8200, 8181, 8200, 8172, 8174, 8158, 8160, 8176, 8164, 8171, 8213, 8228, 8197, 8152,8.725510120391846
99, 8199, 8184, 8132, 8195, 8188, 8164, 8171, 8164, 8164, 8162, 8209, 8209, 8189, 8141,8.725510120391846
100, 8205, 8191, 8184, 8198, 8191, 8167, 8166, 8167, 8142, 8145, 8209, 8222, 8177, 8147,8.725510120391846
101, 8205, 8189, 8162, 8197, 8184, 8161, 8157, 8161, 8141, 8151, 8227, 8231, 8185, 8152,8.740100383758545
102, 8196, 8168, 8129, 8177, 8178, 8142, 8143, 8154, 8154, 8150, 8225, 8213, 8183, 8143,8.755302906036377
103, 8194, 8173, 8200, 8166, 8179, 8157, 8143, 8167, 8167, 8153, 8212, 8223, 8178, 8150,8.755302906036377
104, 8194, 8176, 8130, 8194, 8192, 8171, 8168, 8157, 8183, 8176, 8219, 8210, 8196, 8153,8.77080225944519
105, 8187, 8172, 8166, 8185, 8190, 8166, 8163, 8163, 8154, 8146, 8209, 8197, 8171, 8135,8.77080225944519
106, 8169, 8172, 8154, 8174, 8184, 8160, 8165, 8166, 8150, 8139, 8211, 8196, 8169, 8124,8.78660249710083
107, 8175, 8170, 8120, 8186, 8184, 8154, 8174, 8167, 8174, 8173, 8228, 8196, 8240, 8136,8.78660249710083
108, 8194, 8180, 8198, 8182, 8189, 8165, 8169, 8185, 8174, 8177, 8231, 8212, 8282, 8150,8.801459550857544
109, 8179, 8172, 8121, 8176, 8193, 8158, 8173, 8167, 8176, 8171, 8226, 8191, 8240, 8133,8.801459550857544
110, 8175, 8167, 8152, 8162, 8180, 8147, 8158, 8167, 8161, 8158, 8209, 8188, 8176, 8124,8.817429304122925
111, 8187, 8179, 8171, 8175, 8180, 8160, 8154, 8172, 8158, 8168, 8204, 8195, 8175, 8131,8.817429304122925
112, 8183, 8179, 8117, 8187, 8185, 8150, 8152, 8160, 8155, 8166, 8203, 8179, 8187, 8123,8.832514524459839
113, 8179, 8181, 8182, 8163, 8181, 8153, 8145, 8171, 8147, 8146, 8208, 8198, 8172, 8121,8.832514524459839
114, 8186, 8180, 8132, 8174, 8192, 8170, 8164, 8163, 8166, 8170, 8221, 8205, 8177, 8135,8.848113775253296
115, 8199, 8186, 8168, 8187, 8195, 8164, 8153, 8163, 8146, 8178, 8215, 8212, 8180, 8151,8.848113775253296
116, 8193, 8192, 8185, 8193, 8187, 8156, 8133, 8159, 8124, 8169, 8222, 8222, 8176, 8143,8.863197326660156
117, 8191, 8185, 8133, 8205, 8187, 8147, 8140, 8148, 8140, 8172, 8235, 8210, 8180, 8141,8.863197326660156
118, 8205, 8194, 8208, 8206, 8192, 8157, 8146, 8169, 8140, 8167, 8215, 8218, 8191, 8157,8.87867784500122
119, 8178, 8175, 8132, 8202, 8196, 8164, 8160, 8162, 8141, 8175, 8192, 8195, 8193, 8144,8.87867784500122
120, 8162, 8157, 8136, 8174, 8184, 8166, 8167, 8160, 8142, 8177, 8186, 8185, 8178, 8136,8.89428973197937
121, 8183, 8181, 8177, 8183, 8189, 8179, 8179, 8171, 8150, 8177, 8198, 8207, 8184, 8147,8.89428973197937
122, 8187, 8183, 8119, 8206, 8204, 8168, 8178, 8167, 8161, 8174, 8200, 8197, 8185, 8136,8.910381317138672
123, 8172, 8174, 8180, 8181, 8194, 8172, 8156, 8177, 8155, 8162, 8179, 8188, 8166, 8125,8.910381317138672
124, 8160, 8168, 8120, 8182, 8195, 8182, 8167, 8166, 8166, 8179, 8178, 8174, 8168, 8133,8.926339149475098
125, 8166, 8165, 8128, 8186, 8195, 8170, 8164, 8167, 8166, 8175, 8179, 8174, 8170, 8137,8.926339149475098
126, 8170, 8177, 8180, 8182, 8190, 8173, 8155, 8176, 8166, 8173, 8176, 8182, 8170, 8134,8.942589044570923
127, 8172, 8175, 8107, 8190, 8197, 8173, 8169, 8167, 8181, 8198, 8182, 8165, 8186, 8134,8.942589044570923
236, 8176, 8173, 8164, 8182, 8200, 8172, 8163, 8174, 8167, 8183, 8181, 8182, 8188, 8143,8.957775592803955
0, 8163, 8169, 8129, 8188, 8200, 8175, 8163, 8159, 8167, 8181, 8184, 8182, 8185, 8137,8.957775592803955
1, 8158, 8161, 8121, 8181, 8195, 8175, 8170, 8158, 8179, 8191, 8180, 8168, 8184, 8135,8.973209381103516
2, 8156, 8161, 8167, 8167, 8188, 8180, 8179, 8174, 8185, 8191, 8173, 8179, 8186, 8143,8.973209381103516
