COUNTER,F3,FC5,AF3,F7,T7,P7,O1,O2,P8,T8,F8,AF4,FC6,F4,Timestamp
88, 8198, 8181, 8171, 8165, 8175, 8160, 8163, 8178, 8252, 8200, 8165, 8200, 8210, 8151,0.04130053520202637
89, 8204, 8199, 8206, 8180, 8180, 8167, 8164, 8179, 8247, 8198, 8171, 8211, 8212, 8158,0.04130053520202637
90, 8202, 8203, 8147, 8203, 8189, 8154, 8165, 8161, 8258, 8200, 8165, 8190, 8214, 8155,0.05714082717895508
91, 8213, 8208, 8212, 8190, 8187, 8159, 8159, 8178, 8258, 8191, 8161, 8207, 8211, 8162,0.05714082717895508
92, 8215, 8205, 8167, 8197, 8186, 8170, 8169, 8173, 8262, 8208, 8177, 8205, 8223, 8161,0.07213711738586426
93, 8202, 8192, 8169, 8188, 8182, 8157, 8157, 8171, 8248, 8201, 8177, 8190, 8219, 8152,0.07213711738586426
94, 8193, 8194, 8207, 8177, 8182, 8159, 8151, 8177, 8235, 8176, 8171, 8201, 8211, 8150,0.08812808990478516
95, 8207, 8197, 8147, 8190, 8182, 8163, 8167, 8156, 8234, 8167, 8175, 8195, 8212, 8149,0.08812808990478516
96, 8225, 8211, 8216, 8194, 8183, 8169, 8164, 8169, 8223, 8156, 8177, 8205, 8204, 8158,0.1031339168548584
97, 8209, 8207, 8178, 8217, 8198, 8179, 8175, 8174, 8238, 8173, 8182, 8195, 8205, 8154,0.1031339168548584
98, 8194, 8192, 8167, 8228, 8199, 8182, 8186, 8171, 8243, 8182, 8172, 8186, 8203, 8150,0.11850643157958984
99, 8195, 8197, 8210, 8221, 8191, 8191, 8189, 8177, 8242, 8188, 8161, 8196, 8197, 8158,0.11850643157958984
100, 8191, 8184, 8133, 8213, 8185, 8173, 8195, 8166, 8268, 8210, 8164, 8176, 8202, 8157,0.13416600227355957
101, 8191, 8171, 8186, 8179, 8164, 8158, 8176, 8176, 8271, 8192, 8157, 8179, 8200, 8151,0.13416600227355957
102, 8177, 8166, 8155, 8166, 8153, 8162, 8172, 8174, 8269, 8173, 8158, 8184, 8200, 8137,0.14926958084106445
103, 8188, 8177, 8146, 8176, 8165, 8156, 8173, 8173, 8262, 8175, 8176, 8203, 8213, 8149,0.14926958084106445
104, 8223, 8210, 8227, 8204, 8183, 8162, 8172, 8181, 8250, 8179, 8206, 8244, 8227, 8170,0.16507911682128906
105, 8216, 8207, 8166, 8234, 8186, 8154, 8167, 8163, 8243, 8180, 8224, 8232, 8225, 8152,0.16507911682128906
106, 8196, 8197, 8212, 8211, 8166, 8143, 8140, 8172, 8219, 8159, 8210, 8225, 8202, 8140,0.18143534660339355
107, 8201, 8204, 8194, 8206, 8173, 8158, 8150, 8174, 8226, 8170, 8209, 8223, 8202, 8148,0.18143534660339355
108, 8205, 8200, 8159, 8232, 8194, 8169, 8170, 8165, 8232, 8179, 8205, 8204, 8200, 8149,0.1989755630493164
109, 8194, 8195, 8214, 8235, 8186, 8182, 8171, 8173, 8215, 8164, 8187, 8202, 8188, 8153,0.1989755630493164
110, 8191, 8177, 8142, 8226, 8181, 8183, 8185, 8164, 8241, 8192, 8184, 8190, 8198, 8161,0.2123570442199707
111, 8197, 8169, 8182, 8201, 8177, 8180, 8187, 8178, 8254, 8208, 8175, 8195, 8202, 8166,0.2123570442199707
112, 8180, 8166, 8171, 8191, 8175, 8187, 8198, 8181, 8262, 8212, 8173, 8191, 8201, 8160,0.22768425941467285
113, 8169, 8151, 8119, 8180, 8168, 8180, 8204, 8170, 8270, 8215, 8171, 8175, 8201, 8158,0.22768425941467285
114, 8181, 8158, 8192, 8166, 8158, 8175, 8188, 8178, 8252, 8199, 8153, 8195, 8195, 8163,0.2436206340789795
115, 8188, 8162, 8141, 8182, 8169, 8166, 8189, 8172, 8250, 8200, 8155, 8192, 8198, 8159,0.2436206340789795
116, 8197, 8157, 8175, 8161, 8171, 8164, 8184, 8183, 8256, 8212, 8171, 8196, 8204, 8166,0.25925469398498535
117, 8200, 8161, 8185, 8143, 8165, 8178, 8188, 8182, 8266, 8236, 8180, 8208, 8215, 8172,0.25925469398498535
118, 8194, 8150, 8136, 8143, 8161, 8163, 8185, 8165, 8254, 8224, 8165, 8195, 8206, 8160,0.274946928024292
119, 8194, 8149, 8200, 8127, 8156, 8155, 8160, 8178, 8223, 8179, 8141, 8197, 8179, 8149,0.274946928024292
120, 8187, 8156, 8142, 8140, 8167, 8163, 8168, 8175, 8228, 8180, 8143, 8182, 8176, 8136,0.2903144359588623
121, 8185, 8160, 8166, 8143, 8168, 8157, 8176, 8175, 8218, 8173, 8146, 8180, 8170, 8133,0.2903144359588623
122, 8186, 8168, 8189, 8146, 8168, 8157, 8177, 8177, 8212, 8164, 8153, 8191, 8168, 8139,0.30634069442749023
123, 8192, 8171, 8140, 8164, 8181, 8160, 8180, 8172, 8222, 8171, 8159, 8187, 8181, 8145,0.30634069442749023
124, 8202, 8185, 8211, 8168, 8191, 8174, 8176, 8185, 8215, 8172, 8156, 8199, 8179, 8157,0.3219330310821533
125, 8182, 8181, 8143, 8184, 8195, 8174, 8185, 8171, 8217, 8183, 8152, 8171, 8168, 8144,0.3219330310821533
126, 8160, 8167, 8139, 8173, 8184, 8165, 8171, 8169, 8199, 8161, 8121, 8140, 8142, 8118,0.3379538059234619
127, 8159, 8165, 8173, 8160, 8175, 8180, 8178, 8178, 8194, 8161, 8111, 8142, 8143, 8116,0.3379538059234619
236, 8164, 8150, 8116, 8167, 8172, 8182, 8203, 8165, 8212, 8197, 8129, 8130, 8161, 8126,0.3540012836456299
0, 8164, 8156, 8176, 8160, 8171, 8182, 8194, 8172, 8186, 8174, 8110, 8135, 8141, 8130,0.3540012836456299
1, 8162, 8161, 8127, 8169, 8179, 8183, 8198, 8166, 8182, 8159, 8100, 8131, 8134, 8126,0.36916637420654297
2, 8175, 8151, 8135, 8161, 8172, 8177, 8203, 8167, 8211, 8180, 8120, 8139, 8157, 8137,0.36916637420654297
3, 8169, 8152, 8180, 8143, 8157, 8175, 8197, 8175, 8221, 8186, 8125, 8155, 8167, 8142,0.3843498229980469
4, 8165, 8145, 8110, 8143, 8158, 8157, 8184, 8161, 8213, 8172, 8116, 8140, 8159, 8131,0.3843498229980469
5, 8189, 8154, 8181, 8138, 8157, 8160, 8169, 8174, 8207, 8158, 8125, 8166, 8164, 8140,0.39989662170410156
6, 8194, 8165, 8155, 8146, 8159, 8172, 8182, 8169, 8220, 8171, 8155, 8182, 8184, 8142,0.39989662170410156
7, 8193, 8165, 8143, 8145, 8157, 8154, 8173, 8166, 8203, 8160, 8154, 8173, 8175, 8141,0.4158024787902832
8, 8201, 8173, 8195, 8141, 8156, 8152, 8158, 8180, 8195, 8147, 8145, 8189, 8166, 8149,0.4158024787902832
9, 8193, 8168, 8129, 8151, 8163, 8154, 8169, 8170, 8213, 8164, 8153, 8174, 8171, 8135,0.43139004707336426
10, 8185, 8172, 8183, 8145, 8163, 8156, 8161, 8178, 8193, 8152, 8148, 8167, 8160, 8124,0.43139004707336426
11, 8188, 8176, 8160, 8152, 8162, 8169, 8171, 8174, 8197, 8147, 8149, 8165, 8157, 8127,0.4461252689361572
12, 8190, 8170, 8135, 8145, 8160, 8161, 8172, 8163, 8207, 8147, 8151, 8169, 8161, 8130,0.4461252689361572
13, 8184, 8185, 8192, 8137, 8166, 8158, 8158, 8176, 8197, 8142, 8151, 8188, 8160, 8128,0.46213340759277344
14, 8179, 8183, 8131, 8165, 8179, 8156, 8170, 8169, 8209, 8154, 8164, 8171, 8166, 8121,0.46213340759277344
15, 8181, 8176, 8181, 8163, 8167, 8155, 8171, 8172, 8194, 8141, 8158, 8171, 8158, 8120,0.47727179527282715
16, 8172, 8180, 8162, 8159, 8161, 8156, 8167, 8167, 8174, 8135, 8140, 8164, 8145, 8116,0.47727179527282715
17, 8170, 8180, 8130, 8163, 8168, 8151, 8159, 8164, 8172, 8143, 8137, 8156, 8145, 8113,0.4921000003814697
18, 8176, 8187, 8200, 8153, 8172, 8163, 8165, 8177, 8179, 8143, 8154, 8185, 8157, 8125,0.4921000003814697
19, 8175, 8187, 8140, 8164, 8177, 8165, 8186, 8165, 8195, 8149, 8169, 8181, 8169, 8128,0.507237434387207
20, 8181, 8193, 8185, 8168, 8173, 8161, 8166, 8172, 8182, 8145, 8158, 8176, 8160, 8132,0.5225028991699219
21, 8175, 8195, 8179, 8168, 8172, 8169, 8160, 8168, 8182, 8152, 8151, 8169, 8155, 8128,0.5225028991699219
22, 8158, 8175, 8121, 8158, 8167, 8160, 8176, 8157, 8181, 8146, 8140, 8146, 8149, 8110,0.5382018089294434
23, 8168, 8180, 8190, 8151, 8160, 8164, 8167, 8172, 8159, 8131, 8135, 8159, 8139, 8115,0.5382018089294434
24, 8181, 8188, 8139, 8178, 8177, 8172, 8168, 8165, 8173, 8154, 8157, 8165, 8152, 8127,0.5549602508544922
25, 8176, 8187, 8171, 8173, 8184, 8176, 8173, 8178, 8180, 8157, 8150, 8169, 8153, 8132,0.5549602508544922
26, 8163, 8184, 8178, 8163, 8181, 8185, 8185, 8182, 8177, 8152, 8139, 8167, 8150, 8129,0.5549602508544922
27, 8158, 8171, 8124, 8171, 8181, 8173, 8187, 8165, 8176, 8159, 8144, 8144, 8151, 8127,0.570993185043335
28, 8168, 8187, 8192, 8182, 8178, 8174, 8178, 8173, 8172, 8155, 8143, 8147, 8143, 8131,0.570993185043335
29, 8174, 8201, 8142, 8213, 8186, 8187, 8192, 8169, 8195, 8175, 8156, 8147, 8159, 8136,0.5855247974395752
30, 8183, 8193, 8166, 8195, 8183, 8195, 8190, 8175, 8193, 8184, 8161, 8161, 8172, 8151,0.6013021469116211
31, 8179, 8183, 8182, 8166, 8167, 8203, 8182, 8176, 8179, 8189, 8154, 8165, 8164, 8154,0.6013021469116211
32, 8171, 8173, 8125, 8179, 8157, 8183, 8179, 8161, 8187, 8206, 8155, 8149, 8160, 8147,0.6170799732208252
33, 8174, 8176, 8192, 8172, 8155, 8172, 8167, 8175, 8182, 8193, 8155, 8168, 8164, 8149,0.6170799732208252
34, 8172, 8166, 8132, 8151, 8155, 8171, 8167, 8173, 8191, 8183, 8154, 8165, 8173, 8146,0.6321244239807129
35, 8182, 8161, 8144, 8130, 8150, 8161, 8145, 8171, 8195, 8170, 8151, 8171, 8167, 8150,0.6321244239807129
36, 8184, 8174, 8187, 8138, 8156, 8167, 8134, 8174, 8186, 8159, 8160, 8184, 8161, 8146,0.6474165916442871
37, 8174, 8168, 8127, 8150, 8162, 8169, 8157, 8163, 8174, 8161, 8173, 8167, 8160, 8130,0.6474165916442871
38, 8176, 8178, 8195, 8134, 8157, 8177, 8172, 8176, 8150, 8146, 8172, 8175, 8152, 8134,0.6630158424377441
39, 8167, 8185, 8152, 8146, 8165, 8185, 8189, 8173, 8147, 8147, 8160, 8156, 8143, 8127,0.6630158424377441
40, 8147, 8167, 8144, 8142, 8164, 8182, 8187, 8172, 8137, 8138, 8128, 8124, 8119, 8118,0.6781504154205322
41, 8138, 8157, 8185, 8130, 8155, 8190, 8180, 8171, 8132, 8131, 8118, 8130, 8113, 8123,0.6781504154205322
42, 8135, 8154, 8119, 8144, 8160, 8183, 8175, 8151, 8143, 8148, 8131, 8126, 8127, 8124,0.6942110061645508
43, 8142, 8162, 8177, 8142, 8155, 8178, 8154, 8166, 8128, 8145, 8118, 8135, 8119, 8126,0.6942110061645508
44, 8140, 8160, 8144, 8144, 8149, 8183, 8165, 8166, 8140, 8157, 8122, 8138, 8119, 8124,0.7103269100189209
45, 8149, 8151, 8134, 8137, 8148, 8179, 8174, 8166, 8167, 8169, 8143, 8148, 8137, 8137,0.7103269100189209
46, 8164, 8163, 8183, 8130, 8148, 8175, 8169, 8183, 8185, 8177, 8150, 8171, 8154, 8162,0.7259345054626465
47, 8167, 8161, 8116, 8138, 8150, 8160, 8181, 8176, 8203, 8198, 8155, 8160, 8168, 8161,0.7259345054626465
48, 8175, 8160, 8187, 8121, 8138, 8163, 8183, 8183, 8193, 8183, 8162, 8178, 8169, 8157,0.7410781383514404
49, 8177, 8165, 8171, 8125, 8141, 8177, 8190, 8174, 8198, 8174, 8173, 8188, 8176, 8158,0.7410781383514404
50, 8176, 8160, 8135, 8124, 8150, 8159, 8177, 8160, 8191, 8168, 8167, 8170, 8176, 8148,0.7566637992858887
51, 8173, 8171, 8190, 8108, 8145, 8151, 8152, 8169, 8165, 8151, 8156, 8174, 8167, 8135,0.7566637992858887
52, 8172, 8175, 8133, 8126, 8145, 8154, 8162, 8163, 8174, 8165, 8172, 8166, 8170, 8131,0.7719995975494385
53, 8186, 8181, 8193, 8139, 8148, 8160, 8157, 8173, 8167, 8164, 8174, 8184, 8166, 8138,0.7719995975494385
54, 8186, 8193, 8194, 8153, 8155, 8166, 8146, 8165, 8154, 8156, 8172, 8190, 8165, 8137,0.7872018814086914
55, 8172, 8184, 8152, 8152, 8151, 8151, 8132, 8151, 8136, 8148, 8169, 8165, 8155, 8128,0.7872018814086914
56, 8165, 8176, 8198, 8136, 8136, 8159, 8127, 8166, 8117, 8142, 8155, 8161, 8136, 8127,0.8032875061035156
57, 8157, 8163, 8128, 8150, 8139, 8175, 8158, 8162, 8133, 8153, 8152, 8146, 8136, 8122,0.8032875061035156
58, 8149, 8158, 8166, 8141, 8142, 8180, 8175, 8177, 8131, 8139, 8141, 8143, 8131, 8123,0.818932056427002
59, 8142, 8158, 8171, 8140, 8147, 8187, 8190, 8178, 8133, 8152, 8130, 8141, 8133, 8121,0.818932056427002
60, 8148, 8143, 8122, 8148, 8146, 8183, 8186, 8164, 8142, 8172, 8127, 8126, 8138, 8113,0.8340620994567871
61, 8154, 8142, 8177, 8132, 8139, 8185, 8166, 8177, 8130, 8158, 8132, 8144, 8136, 8119,0.8340620994567871
62, 8142, 8135, 8115, 8139, 8148, 8178, 8176, 8167, 8139, 8172, 8143, 8145, 8150, 8127,0.8495299816131592
63, 8148, 8136, 8151, 8140, 8149, 8166, 8169, 8167, 8138, 8166, 8139, 8144, 8150, 8130,0.8495299816131592
64, 8160, 8146, 8160, 8136, 8145, 8175, 8170, 8174, 8148, 8153, 8145, 8146, 8146, 8128,0.8653402328491211
65, 8161, 8143, 8103, 8136, 8149, 8176, 8183, 8171, 8168, 8165, 8157, 8145, 8157, 8133,0.8653402328491211
66, 8169, 8157, 8183, 8136, 8158, 8173, 8181, 8181, 8172, 8170, 8159, 8171, 8166, 8141,0.8810286521911621
67, 8170, 8155, 8134, 8146, 8161, 8161, 8182, 8171, 8184, 8176, 8171, 8157, 8170, 8132,0.8810286521911621
68, 8175, 8148, 8154, 8134, 8146, 8154, 8168, 8176, 8168, 8175, 8181, 8160, 8169, 8141,0.8961851596832275
69, 8185, 8162, 8185, 8136, 8151, 8171, 8172, 8183, 8165, 8188, 8202, 8190, 8186, 8159,0.8961851596832275
70, 8175, 8158, 8124, 8143, 8159, 8165, 8180, 8168, 8174, 8186, 8207, 8175, 8191, 8144,0.9120814800262451
71, 8169, 8165, 8197, 8135, 8150, 8158, 8158, 8177, 8148, 8161, 8192, 8169, 8165, 8127,0.9120814800262451
72, 8167, 8170, 8152, 8155, 8157, 8165, 8153, 8169, 8150, 8178, 8207, 8168, 8165, 8128,0.9276092052459717
73, 8169, 8164, 8147, 8152, 8161, 8164, 8153, 8169, 8156, 8181, 8214, 8173, 8171, 8140,0.9276092052459717
74, 8172, 8178, 8187, 8157, 8163, 8183, 8167, 8178, 8147, 8173, 8205, 8181, 8165, 8144,0.9434671401977539
75, 8174, 8185, 8135, 8188, 8175, 8196, 8191, 8173, 8149, 8193, 8197, 8162, 8163, 8144,0.9434671401977539
76, 8176, 8187, 8195, 8182, 8175, 8197, 8193, 8185, 8150, 8201, 8182, 8167, 8161, 8158,0.9583127498626709
77, 8170, 8182, 8154, 8190, 8179, 8195, 8209, 8173, 8170, 8214, 8180, 8160, 8171, 8158,0.9583127498626709
78, 8175, 8171, 8154, 8185, 8183, 8195, 8214, 8169, 8173, 8214, 8181, 8158, 8177, 8161,0.9739274978637695
79, 8176, 8165, 8189, 8147, 8175, 8203, 8204, 8178, 8175, 8210, 8186, 8173, 8179, 8174,0.9739274978637695
80, 8166, 8152, 8107, 8142, 8168, 8187, 8197, 8165, 8185, 8213, 8186, 8155, 8183, 8166,0.989018440246582
81, 8167, 8158, 8174, 8150, 8159, 8177, 8172, 8176, 8160, 8188, 8163, 8158, 8169, 8157,0.989018440246582
82, 8167, 8163, 8155, 8154, 8157, 8176, 8173, 8174, 8162, 8196, 8177, 8162, 8174, 8156,1.0060503482818604
83, 8179, 8158, 8140, 8143, 8157, 8163, 8173, 8170, 8174, 8206, 8204, 8165, 8187, 8156,1.0210769176483154
84, 8181, 8168, 8189, 8139, 8156, 8166, 8157, 8180, 8158, 8189, 8200, 8180, 8181, 8144,1.0210769176483154
85, 8156, 8158, 8113, 8139, 8163, 8164, 8151, 8162, 8145, 8189, 8189, 8157, 8173, 8120,1.0210769176483154
86, 8157, 8163, 8172, 8122, 8164, 8162, 8143, 8168, 8130, 8175, 8183, 8166, 8161, 8124,1.036320686340332
87, 8176, 8185, 8169, 8149, 8168, 8171, 8159, 8170, 8137, 8169, 8188, 8178, 8164, 8134,1.036320686340332
88, 8175, 8179, 8147, 8166, 8171, 8167, 8159, 8162, 8130, 8163, 8191, 8165, 8158, 8124,1.052485466003418
89, 8159, 8174, 8199, 8156, 8174, 8174, 8152, 8171, 8113, 8155, 8186, 8167, 8142, 8124,1.0534930229187012
90, 8151, 8170, 8127, 8170, 8177, 8173, 8173, 8166, 8138, 8175, 8180, 8154, 8152, 8129,1.068213701248169
91, 8154, 8171, 8179, 8165, 8167, 8179, 8167, 8177, 8141, 8174, 8163, 8156, 8152, 8132,1.068213701248169
92, 8150, 8166, 8171, 8165, 8171, 8198, 8166, 8171, 8130, 8172, 8158, 8151, 8141, 8127,1.084479570388794
93, 8146, 8148, 8127, 8167, 8180, 8189, 8177, 8160, 8129, 8179, 8164, 8141, 8141, 8130,1.084479570388794
94, 8144, 8149, 8188, 8150, 8169, 8181, 8174, 8176, 8129, 8182, 8162, 8154, 8146, 8137,1.0991127490997314
95, 8141, 8144, 8128, 8148, 8160, 8178, 8183, 8162, 8145, 8191, 8162, 8145, 8147, 8134,1.0991127490997314
96, 8159, 8139, 8168, 8132, 8149, 8171, 8180, 8165, 8142, 8176, 8161, 8157, 8148, 8148,1.1156814098358154
97, 8169, 8145, 8172, 8130, 8144, 8166, 8168, 8168, 8144, 8172, 8172, 8168, 8161, 8155,1.1156814098358154
98, 8175, 8151, 8137, 8144, 8147, 8157, 8153, 8161, 8150, 8184, 8190, 8167, 8172, 8149,1.1311461925506592
99, 8199, 8170, 8216, 8144, 8160, 8173, 8155, 8178, 8155, 8192, 8208, 8204, 8180, 8162,1.1311461925506592
100, 8199, 8170, 8151, 8150, 8170, 8177, 8171, 8171, 8174, 8201, 8221, 8198, 8186, 8161,1.147362232208252
101, 8183, 8162, 8174, 8138, 8158, 8162, 8146, 8175, 8150, 8169, 8202, 8182, 8165, 8145,1.147362232208252
102, 8191, 8177, 8199, 8156, 8172, 8176, 8145, 8180, 8138, 8161, 8206, 8195, 8164, 8144,1.1619646549224854
103, 8205, 8188, 8152, 8186, 8197, 8185, 8169, 8168, 8155, 8189, 8223, 8192, 8174, 8150,1.1619646549224854
104, 8198, 8191, 8221, 8178, 8188, 8182, 8157, 8171, 8143, 8180, 8202, 8190, 8159, 8146,1.1789448261260986
105, 8180, 8169, 8161, 8181, 8186, 8176, 8158, 8162, 8134, 8168, 8186, 8168, 8156, 8137,1.1789448261260986
106, 8179, 8152, 8164, 8167, 8181, 8173, 8158, 8168, 8118, 8161, 8175, 8163, 8152, 8144,1.1929736137390137
107, 8179, 8161, 8183, 8161, 8169, 8183, 8162, 8174, 8125, 8177, 8166, 8172, 8140, 8145,1.1929736137390137
108, 8176, 8157, 8128, 8172, 8165, 8176, 8183, 8170, 8157, 8198, 8174, 8165, 8149, 8147,1.2085657119750977
109, 8172, 8149, 8200, 8150, 8160, 8174, 8179, 8187, 8155, 8181, 8179, 8180, 8153, 8156,1.2246463298797607
110, 8163, 8135, 8145, 8133, 8153, 8166, 8164, 8169, 8153, 8179, 8180, 8168, 8153, 8139,1.2246463298797607
111, 8179, 8138, 8148, 8128, 8146, 8148, 8144, 8166, 8152, 8177, 8190, 8173, 8160, 8135,1.2393221855163574
112, 8195, 8164, 8197, 8140, 8156, 8155, 8144, 8183, 8148, 8172, 8208, 8202, 8170, 8145,1.2393221855163574
113, 8188, 8164, 8137, 8151, 8166, 8153, 8149, 8163, 8136, 8165, 8202, 8183, 8159, 8128,1.2549846172332764
114, 8193, 8168, 8206, 8140, 8159, 8157, 8141, 8164, 8110, 8142, 8188, 8182, 8142, 8124,1.2549846172332764
115, 8193, 8177, 8174, 8155, 8173, 8176, 8166, 8162, 8125, 8160, 8210, 8191, 8166, 8137,1.270439624786377
116, 8193, 8183, 8175, 8167, 8186, 8179, 8170, 8163, 8135, 8174, 8221, 8193, 8176, 8142,1.270439624786377
117, 8199, 8199, 8223, 8173, 8184, 8181, 8159, 8177, 8127, 8164, 8210, 8193, 8162, 8137,1.2859656810760498
118, 8194, 8185, 8143, 8183, 8187, 8180, 8162, 8166, 8133, 8167, 8206, 8168, 8157, 8129,1.2859656810760498
119, 8185, 8172, 8190, 8161, 8183, 8180, 8153, 8171, 8127, 8153, 8193, 8173, 8146, 8129,1.3010954856872559
120, 8167, 8175, 8164, 8166, 8185, 8181, 8168, 8171, 8144, 8164, 8189, 8165, 8150, 8121,1.3010954856872559
121, 8160, 8172, 8150, 8170, 8185, 8182, 8181, 8177, 8150, 8179, 8182, 8151, 8152, 8114,1.3163576126098633
122, 8163, 8172, 8197, 8158, 8175, 8202, 8183, 8184, 8139, 8171, 8170, 8164, 8141, 8116,1.3163576126098633
123, 8155, 8162, 8122, 8167, 8171, 8191, 8196, 8164, 8144, 8169, 8166, 8150, 8142, 8111,1.3320035934448242
124, 8157, 8166, 8182, 8163, 8174, 8178, 8183, 8174, 8129, 8158, 8156, 8151, 8139, 8116,1.3320035934448242
125, 8162, 8172, 8172, 8171, 8186, 8194, 8181, 8171, 8131, 8170, 8166, 8158, 8146, 8124,1.3470368385314941
126, 8165, 8159, 8145, 8175, 8175, 8184, 8180, 8162, 8138, 8179, 8182, 8163, 8160, 8129,1.3470368385314941
127, 8164, 8166, 8206, 8173, 8160, 8175, 8170, 8174, 8122, 8164, 8176, 8177, 8163, 8136,1.3630776405334473
236, 8154, 8161, 8138, 8186, 8173, 8182, 8179, 8158, 8131, 8177, 8169, 8154, 8163, 8131,1.3630776405334473
0, 8156, 8145, 8174, 8155, 8162, 8186, 8171, 8166, 8141, 8181, 8165, 8163, 8162, 8134,1.3789663314819336
1, 8162, 8143, 8157, 8139, 8146, 8170, 8161, 8174, 8151, 8184, 8173, 8180, 8176, 8142,1.3789663314819336
2, 8167, 8146, 8124, 8153, 8148, 8152, 8155, 8164, 8142, 8177, 8172, 8161, 8174, 8141,1.3942384719848633
3, 8160, 8152, 8195, 8140, 8145, 8171, 8151, 8171, 8118, 8160, 8155, 8154, 8156, 8134,1.3942384719848633
4, 8150, 8141, 8125, 8141, 8149, 8182, 8170, 8165, 8137, 8179, 8158, 8146, 8160, 8134,1.4100775718688965
5, 8172, 8145, 8160, 8142, 8156, 8173, 8171, 8175, 8148, 8178, 8163, 8164, 8165, 8150,1.4100775718688965
6, 8184, 8152, 8167, 8140, 8156, 8171, 8166, 8174, 8148, 8169, 8174, 8174, 8162, 8148,1.4261343479156494
7, 8176, 8143, 8121, 8136, 8152, 8158, 8162, 8160, 8145, 8166, 8177, 8159, 8154, 8134,1.4261343479156494
8, 8184, 8160, 8198, 8141, 8157, 8167, 8157, 8169, 8131, 8159, 8171, 8178, 8156, 8140,1.4424102306365967
9, 8190, 8170, 8144, 8158, 8170, 8172, 8166, 8158, 8129, 8167, 8184, 8179, 8166, 8137,1.4424102306365967
10, 8190, 8170, 8167, 8148, 8171, 8160, 8150, 8162, 8102, 8152, 8192, 8183, 8153, 8129,1.4584288597106934
11, 8189, 8181, 8183, 8160, 8179, 8171, 8150, 8168, 8099, 8155, 8199, 8189, 8148, 8135,1.4584288597106934
12, 8182, 8168, 8128, 8169, 8187, 8173, 8161, 8160, 8118, 8167, 8195, 8165, 8154, 8134,1.4736442565917969
13, 8176, 8167, 8197, 8152, 8183, 8175, 8157, 8175, 8114, 8155, 8182, 8171, 8148, 8132,1.4736442565917969
14, 8174, 8174, 8151, 8183, 8186, 8185, 8178, 8172, 8131, 8180, 8194, 8171, 8156, 8137,1.4894142150878906
15, 8172, 8162, 8167, 8189, 8171, 8185, 8177, 8176, 8125, 8190, 8178, 8164, 8153, 8144,1.4894142150878906
16, 8157, 8146, 8178, 8159, 8156, 8185, 8170, 8176, 8116, 8176, 8154, 8160, 8148, 8137,1.5049710273742676
17, 8150, 8142, 8108, 8152, 8162, 8176, 8178, 8162, 8141, 8187, 8164, 8150, 8156, 8132,1.5049710273742676
18, 8170, 8165, 8192, 8161, 8168, 8178, 8175, 8179, 8152, 8196, 8179, 8177, 8161, 8156,1.5210559368133545
19, 8179, 8163, 8155, 8174, 8170, 8174, 8171, 8172, 8152, 8195, 8184, 8173, 8169, 8158,1.5210559368133545
20, 8176, 8142, 8147, 8144, 8154, 8147, 8145, 8168, 8135, 8169, 8176, 8159, 8158, 8137,1.536370038986206
21, 8181, 8161, 8185, 8131, 8150, 8147, 8141, 8176, 8135, 8163, 8181, 8176, 8148, 8129,1.536370038986206
22, 8196, 8178, 8138, 8164, 8171, 8153, 8162, 8161, 8148, 8179, 8193, 8180, 8164, 8130,1.5519585609436035
23, 8207, 8185, 8210, 8163, 8174, 8160, 8147, 8175, 8121, 8157, 8190, 8199, 8166, 8140,1.5519585609436035
24, 8194, 8189, 8168, 8166, 8171, 8160, 8143, 8169, 8101, 8147, 8199, 8193, 8159, 8136,1.5673928260803223
25, 8188, 8194, 8158, 8176, 8172, 8149, 8147, 8158, 8094, 8142, 8204, 8175, 8151, 8124,1.5673928260803223
26, 8184, 8197, 8205, 8185, 8177, 8162, 8146, 8168, 8096, 8140, 8191, 8173, 8147, 8126,1.5834033489227295
27, 8169, 8176, 8138, 8198, 8184, 8177, 8155, 8165, 8111, 8162, 8181, 8161, 8157, 8133,1.5834033489227295
28, 8175, 8179, 8206, 8194, 8182, 8182, 8151, 8177, 8098, 8155, 8175, 8179, 8162, 8143,1.5990064144134521
29, 8182, 8185, 8181, 8210, 8185, 8175, 8157, 8169, 8106, 8156, 8180, 8176, 8165, 8140,1.5990064144134521
30, 8177, 8171, 8149, 8204, 8178, 8163, 8155, 8165, 8115, 8164, 8177, 8157, 8154, 8135,1.6141202449798584
31, 8175, 8178, 8203, 8196, 8177, 8187, 8157, 8176, 8109, 8164, 8175, 8170, 8147, 8140,1.6141202449798584
32, 8180, 8178, 8142, 8221, 8187, 8192, 8173, 8160, 8119, 8174, 8186, 8167, 8161, 8135,1.6302378177642822
33, 8188, 8176, 8189, 8212, 8173, 8172, 8164, 8165, 8110, 8172, 8192, 8180, 8167, 8143,1.6302378177642822
34, 8179, 8172, 8165, 8206, 8167, 8173, 8167, 8169, 8116, 8187, 8203, 8188, 8174, 8153,1.6461846828460693
35, 8176, 8166, 8138, 8214, 8174, 8178, 8166, 8167, 8115, 8180, 8192, 8172, 8173, 8144,1.6461846828460693
36, 8181, 8178, 8203, 8209, 8173, 8178, 8153, 8168, 8101, 8172, 8174, 8170, 8164, 8134,1.6612744331359863
37, 8182, 8172, 8137, 8214, 8177, 8165, 8163, 8152, 8126, 8203, 8186, 8165, 8177, 8137,1.6612744331359863
38, 8187, 8167, 8184, 8201, 8180, 8168, 8164, 8171, 8132, 8191, 8183, 8175, 8173, 8150,1.6765878200531006
39, 8175, 8171, 8171, 8192, 8179, 8188, 8168, 8173, 8126, 8168, 8169, 8164, 8161, 8140,1.6765878200531006
40, 8173, 8162, 8127, 8187, 8172, 8176, 8164, 8159, 8129, 8171, 8171, 8156, 8170, 8139,1.6922597885131836
41, 8195, 8171, 8206, 8176, 8169, 8164, 8153, 8178, 8132, 8176, 8189, 8192, 8189, 8165,1.6926405429840088
42, 8192, 8167, 8143, 8179, 8177, 8159, 8168, 8170, 8144, 8186, 8199, 8177, 8198, 8162,1.7082643508911133
43, 8183, 8158, 8168, 8164, 8171, 8161, 8167, 8167, 8130, 8177, 8182, 8169, 8185, 8144,1.7082643508911133
44, 8184, 8163, 8179, 8162, 8163, 8168, 8166, 8169, 8131, 8184, 8185, 8189, 8185, 8143,1.724388599395752
45, 8180, 8156, 8133, 8162, 8158, 8157, 8168, 8166, 8137, 8186, 8195, 8183, 8191, 8146,1.724388599395752
46, 8172, 8153, 8193, 8144, 8153, 8162, 8153, 8178, 8119, 8153, 8177, 8179, 8175, 8140,1.7404942512512207
47, 8157, 8149, 8131, 8147, 8150, 8154, 8144, 8162, 8113, 8147, 8168, 8154, 8159, 8120,1.7404942512512207
48, 8160, 8154, 8165, 8145, 8142, 8132, 8133, 8162, 8108, 8148, 8174, 8154, 8156, 8118,1.7565281391143799
49, 8176, 8177, 8195, 8166, 8153, 8144, 8148, 8175, 8126, 8163, 8197, 8182, 8175, 8134,1.7565281391143799
50, 8186, 8180, 8144, 8184, 8162, 8149, 8158, 8167, 8138, 8177, 8214, 8186, 8190, 8133,1.7722523212432861
51, 8185, 8187, 8212, 8170, 8154, 8149, 8141, 8167, 8113, 8162, 8206, 8199, 8182, 8130,1.7722523212432861
52, 8175, 8187, 8153, 8182, 8164, 8150, 8150, 8150, 8113, 8164, 8207, 8184, 8184, 8123,1.787367582321167
53, 8174, 8180, 8164, 8171, 8163, 8144, 8141, 8158, 8105, 8158, 8209, 8181, 8183, 8121,1.787367582321167
54, 8179, 8184, 8200, 8159, 8157, 8152, 8137, 8175, 8105, 8165, 8216, 8200, 8189, 8134,1.8034627437591553
55, 8189, 8186, 8147, 8187, 8170, 8159, 8159, 8165, 8130, 8192, 8229, 8199, 8208, 8151,1.8034627437591553
56, 8203, 8197, 8217, 8187, 8173, 8172, 8159, 8171, 8130, 8187, 8226, 8210, 8207, 8161,1.8190455436706543
57, 8192, 8189, 8167, 8179, 8170, 8180, 8166, 8161, 8130, 8185, 8216, 8188, 8199, 8145,1.8190455436706543
58, 8176, 8173, 8164, 8163, 8175, 8173, 8163, 8168, 8123, 8179, 8201, 8173, 8186, 8130,1.8341619968414307
59, 8176, 8188, 8204, 8161, 8182, 8171, 8158, 8181, 8118, 8172, 8197, 8189, 8182, 8131,1.8341619968414307
60, 8174, 8191, 8140, 8186, 8178, 8155, 8163, 8165, 8124, 8179, 8197, 8169, 8183, 8128,1.849707841873169
61, 8159, 8181, 8195, 8175, 8156, 8150, 8145, 8174, 8102, 8162, 8180, 8156, 8164, 8117,1.849707841873169
62, 8144, 8174, 8151, 8161, 8152, 8159, 8146, 8171, 8108, 8162, 8182, 8152, 8164, 8103,1.8648216724395752
63, 8154, 8175, 8145, 8160, 8160, 8148, 8149, 8169, 8120, 8171, 8191, 8160, 8174, 8109,1.8648216724395752
64, 8156, 8186, 8196, 8176, 8166, 8148, 8135, 8173, 8104, 8165, 8185, 8165, 8159, 8112,1.8803589344024658
65, 8143, 8186, 8126, 8199, 8173, 8153, 8129, 8153, 8102, 8162, 8178, 8134, 8149, 8102,1.8803589344024658
66, 8161, 8196, 8189, 8197, 8171, 8168, 8134, 8159, 8100, 8150, 8174, 8149, 8161, 8118,1.8959500789642334
67, 8170, 8192, 8166, 8208, 8176, 8181, 8167, 8160, 8119, 8168, 8183, 8159, 8175, 8124,1.8959500789642334
68, 8158, 8172, 8139, 8203, 8181, 8174, 8173, 8166, 8136, 8181, 8173, 8141, 8161, 8115,1.9120357036590576
69, 8157, 8179, 8192, 8194, 8181, 8178, 8157, 8183, 8130, 8173, 8159, 8145, 8156, 8122,1.9120357036590576
70, 8158, 8173, 8123, 8203, 8178, 8172, 8165, 8166, 8122, 8173, 8165, 8136, 8168, 8122,1.9276013374328613
71, 8164, 8170, 8180, 8196, 8166, 8164, 8158, 8169, 8098, 8150, 8161, 8149, 8149, 8120,1.9276013374328613
72, 8157, 8173, 8163, 8203, 8169, 8174, 8159, 8171, 8109, 8150, 8150, 8153, 8138, 8125,1.944042444229126
73, 8147, 8160, 8112, 8189, 8172, 8178, 8165, 8166, 8125, 8168, 8128, 8132, 8141, 8124,1.944042444229126
74, 8140, 8159, 8170, 8169, 8172, 8191, 8169, 8177, 8123, 8167, 8122, 8135, 8138, 8118,1.9595859050750732
75, 8134, 8149, 8110, 8178, 8176, 8187, 8178, 8164, 8140, 8173, 8149, 8128, 8150, 8110,1.9595859050750732
76, 8147, 8151, 8154, 8161, 8163, 8173, 8162, 8168, 8137, 8169, 8157, 8144, 8160, 8126,1.9749538898468018
77, 8155, 8164, 8157, 8155, 8153, 8175, 8165, 8172, 8133, 8177, 8143, 8157, 8162, 8143,1.9749538898468018
78, 8153, 8157, 8123, 8163, 8153, 8165, 8167, 8163, 8121, 8169, 8130, 8142, 8150, 8137,1.9899871349334717
79, 8163, 8170, 8193, 8163, 8152, 8170, 8163, 8166, 8115, 8164, 8145, 8166, 8152, 8140,1.9899871349334717
80, 8178, 8181, 8135, 8186, 8162, 8180, 8185, 8156, 8149, 8205, 8183, 8181, 8186, 8152,2.014101266860962
81, 8175, 8176, 8167, 8178, 8160, 8174, 8173, 8169, 8139, 8194, 8171, 8177, 8179, 8148,2.014101266860962
82, 8156, 8164, 8170, 8160, 8156, 8175, 8160, 8173, 8126, 8167, 8145, 8165, 8154, 8132,2.015101671218872
83, 8168, 8162, 8131, 8173, 8163, 8169, 8165, 8167, 8148, 8182, 8162, 8169, 8166, 8139,2.0364701747894287
84, 8200, 8187, 8217, 8177, 8162, 8171, 8153, 8186, 8161, 8187, 8177, 8206, 8185, 8165,2.0364701747894287
85, 8188, 8184, 8156, 8180, 8153, 8167, 8153, 8174, 8164, 8186, 8181, 8199, 8192, 8160,2.0526366233825684
86, 8163, 8166, 8166, 8160, 8138, 8156, 8153, 8172, 8138, 8166, 8175, 8193, 8178, 8140,2.0526366233825684
87, 8159, 8170, 8188, 8149, 8140, 8166, 8161, 8176, 8132, 8157, 8173, 8195, 8167, 8129,2.0536417961120605
88, 8169, 8172, 8136, 8156, 8152, 8171, 8171, 8166, 8156, 8169, 8180, 8181, 8173, 8128,2.0673084259033203
89, 8181, 8182, 8201, 8151, 8146, 8168, 8159, 8176, 8153, 8166, 8188, 8215, 8187, 8145,2.082991123199463
90, 8180, 8182, 8150, 8161, 8143, 8157, 8149, 8166, 8150, 8162, 8199, 8223, 8191, 8148,2.082991123199463
91, 8190, 8179, 8170, 8155, 8142, 8149, 8128, 8164, 8131, 8140, 8182, 8209, 8162, 8139,2.082991123199463
92, 8193, 8194, 8197, 8155, 8154, 8162, 8121, 8164, 8106, 8125, 8162, 8202, 8143, 8130,2.0983920097351074
93, 8175, 8191, 8129, 8164, 8167, 8157, 8125, 8149, 8099, 8130, 8165, 8179, 8149, 8115,2.1139538288116455
94, 8167, 8190, 8200, 8154, 8160, 8163, 8115, 8165, 8082, 8123, 8165, 8182, 8138, 8112,2.1139538288116455
95, 8167, 8195, 8163, 8170, 8167, 8180, 8124, 8155, 8076, 8136, 8173, 8176, 8137, 8112,2.1289803981781006
96, 8181, 8202, 8171, 8178, 8170, 8179, 8131, 8148, 8072, 8135, 8176, 8175, 8143, 8126,2.1289803981781006
97, 8191, 8213, 8215, 8181, 8167, 8191, 8148, 8169, 8094, 8143, 8176, 8183, 8150, 8138,2.144408702850342
98, 8158, 8178, 8123, 8177, 8171, 8192, 8169, 8167, 8119, 8159, 8153, 8142, 8136, 8111,2.144408702850342
99, 8119, 8140, 8154, 8133, 8155, 8191, 8171, 8171, 8104, 8130, 8108, 8118, 8100, 8084,2.1596765518188477
100, 8119, 8135, 8120, 8131, 8149, 8208, 8201, 8172, 8126, 8139, 8109, 8110, 8107, 8086,2.1596765518188477
101, 8134, 8137, 8117, 8143, 8156, 8204, 8209, 8181, 8130, 8156, 8119, 8105, 8116, 8098,2.175074815750122
102, 8134, 8140, 8169, 8143, 8159, 8191, 8185, 8185, 8105, 8137, 8105, 8117, 8100, 8103,2.175074815750122
103, 8140, 8139, 8109, 8156, 8154, 8173, 8174, 8159, 8115, 8146, 8111, 8124, 8114, 8113,2.191118001937866
104, 8165, 8152, 8178, 8145, 8143, 8174, 8154, 8166, 8113, 8153, 8131, 8150, 8131, 8138,2.191118001937866
105, 8167, 8153, 8155, 8148, 8150, 8185, 8157, 8169, 8120, 8159, 8148, 8146, 8141, 8137,2.206339120864868
106, 8159, 8140, 8128, 8144, 8159, 8183, 8162, 8166, 8139, 8166, 8149, 8138, 8151, 8131,2.206339120864868
107, 8162, 8148, 8190, 8125, 8155, 8187, 8153, 8173, 8137, 8157, 8149, 8157, 8150, 8137,2.221435785293579
108, 8170, 8147, 8126, 8132, 8156, 8178, 8152, 8157, 8123, 8145, 8156, 8145, 8135, 8125,2.221435785293579
109, 8186, 8160, 8184, 8133, 8155, 8169, 8140, 8166, 8102, 8129, 8161, 8162, 8129, 8119,2.237144947052002
110, 8178, 8173, 8176, 8138, 8158, 8169, 8145, 8164, 8113, 8141, 8174, 8170, 8144, 8118,2.237144947052002
111, 8165, 8161, 8139, 8138, 8155, 8159, 8153, 8162, 8116, 8139, 8167, 8149, 8136, 8111,2.2528061866760254
112, 8173, 8173, 8201, 8133, 8154, 8172, 8157, 8186, 8107, 8128, 8157, 8165, 8128, 8122,2.2528061866760254
113, 8183, 8188, 8140, 8159, 8170, 8183, 8181, 8176, 8135, 8162, 8181, 8169, 8156, 8134,2.2684624195098877
114, 8190, 8203, 8192, 8172, 8176, 8183, 8179, 8176, 8135, 8162, 8186, 8171, 8160, 8137,2.2684624195098877
115, 8176, 8210, 8193, 8178, 8177, 8187, 8170, 8173, 8113, 8144, 8166, 8163, 8138, 8124,2.2840824127197266
116, 8161, 8188, 8138, 8173, 8178, 8178, 8166, 8165, 8109, 8146, 8148, 8141, 8130, 8118,2.2840824127197266
117, 8172, 8187, 8201, 8166, 8176, 8188, 8169, 8172, 8116, 8148, 8145, 8157, 8142, 8137,2.2996580600738525
118, 8180, 8190, 8144, 8182, 8173, 8196, 8181, 8158, 8126, 8170, 8170, 8158, 8162, 8147,2.2996580600738525
119, 8172, 8178, 8174, 8168, 8164, 8184, 8159, 8167, 8108, 8169, 8171, 8158, 8150, 8138,2.3149495124816895
120, 8170, 8178, 8188, 8163, 8174, 8192, 8165, 8173, 8124, 8172, 8171, 8163, 8146, 8128,2.3149495124816895
121, 8184, 8176, 8143, 8173, 8188, 8198, 8192, 8165, 8148, 8182, 8182, 8153, 8157, 8134,2.33103084564209
122, 8184, 8175, 8204, 8165, 8174, 8195, 8185, 8177, 8121, 8165, 8169, 8160, 8142, 8143,2.33103084564209
123, 8166, 8163, 8138, 8173, 8165, 8184, 8187, 8160, 8115, 8169, 8157, 8148, 8140, 8134,2.34633731842041
124, 8180, 8168, 8165, 8165, 8165, 8179, 8191, 8161, 8123, 8172, 8156, 8152, 8150, 8137,2.34633731842041
125, 8188, 8184, 8193, 8164, 8169, 8192, 8202, 8177, 8132, 8176, 8163, 8163, 8155, 8146,2.3614397048950195
126, 8165, 8168, 8126, 8164, 8167, 8185, 8203, 8168, 8128, 8178, 8148, 8139, 8147, 8135,2.3614397048950195
127, 8159, 8157, 8190, 8144, 8153, 8184, 8184, 8167, 8105, 8164, 8128, 8145, 8136, 8130,2.3770976066589355
236, 8160, 8155, 8138, 8153, 8149, 8180, 8186, 8156, 8115, 8167, 8137, 8142, 8145, 8129,2.3770976066589355
0, 8153, 8151, 8138, 8144, 8136, 8156, 8173, 8163, 8115, 8152, 8134, 8135, 8146, 8127,2.392164945602417
1, 8151, 8154, 8170, 8132, 8128, 8160, 8167, 8174, 8112, 8150, 8140, 8148, 8150, 8127,2.4092071056365967
2, 8162, 8153, 8117, 8146, 8142, 8169, 8175, 8161, 8130, 8168, 8170, 8153, 8163, 8132,2.4092071056365967
3, 8183, 8168, 8187, 8150, 8154, 8172, 8165, 8175, 8135, 8165, 8186, 8182, 8168, 8153,2.4092071056365967
4, 8184, 8176, 8145, 8166, 8160, 8169, 8172, 8173, 8155, 8186, 8192, 8183, 8180, 8157,2.424168109893799
5, 8177, 8162, 8137, 8156, 8153, 8162, 8164, 8169, 8149, 8181, 8187, 8172, 8176, 8143,2.424168109893799
6, 8171, 8160, 8173, 8135, 8148, 8168, 8151, 8174, 8132, 8160, 8190, 8180, 8172, 8140,2.4401845932006836
7, 8173, 8163, 8110, 8148, 8151, 8159, 8157, 8163, 8148, 8180, 8206, 8172, 8185, 8146,2.4401845932006836
8, 8192, 8177, 8183, 8149, 8147, 8159, 8149, 8178, 8147, 8185, 8208, 8191, 8186, 8154,2.4558401107788086
9, 8190, 8173, 8151, 8149, 8149, 8165, 8155, 8177, 8146, 8181, 8208, 8189, 8181, 8140,2.4558401107788086
10, 8171, 8151, 8129, 8136, 8138, 8153, 8155, 8169, 8136, 8168, 8197, 8163, 8164, 8122,2.4713873863220215
11, 8165, 8150, 8179, 8126, 8128, 8157, 8142, 8175, 8116, 8144, 8180, 8162, 8149, 8126,2.4713873863220215
12, 8175, 8147, 8118, 8146, 8139, 8161, 8149, 8163, 8112, 8144, 8190, 8160, 8155, 8130,2.4863080978393555
13, 8190, 8167, 8181, 8155, 8143, 8167, 8157, 8174, 8108, 8154, 8199, 8184, 8155, 8137,2.4863080978393555
14, 8182, 8187, 8162, 8170, 8153, 8184, 8177, 8170, 8124, 8173, 8194, 8174, 8152, 8140,2.5029473304748535
15, 8176, 8176, 8137, 8169, 8156, 8186, 8178, 8165, 8129, 8175, 8174, 8149, 8150, 8146,2.5029473304748535
16, 8175, 8176, 8189, 8155, 8139, 8190, 8162, 8178, 8115, 8169, 8161, 8159, 8145, 8149,2.5169715881347656
17, 8160, 8167, 8112, 8162, 8136, 8181, 8168, 8161, 8115, 8174, 8160, 8142, 8147, 8140,2.5169715881347656
18, 8160, 8159, 8163, 8147, 8134, 8176, 8167, 8169, 8110, 8157, 8159, 8147, 8152, 8152,2.53240966796875
19, 8164, 8161, 8156, 8135, 8130, 8180, 8175, 8170, 8116, 8166, 8172, 8159, 8164, 8157,2.5493948459625244
20, 8159, 8150, 8110, 8116, 8120, 8158, 8167, 8152, 8107, 8166, 8160, 8147, 8156, 8142,2.550394058227539
21, 8161, 8153, 8166, 8098, 8105, 8151, 8153, 8161, 8093, 8144, 8147, 8160, 8149, 8139,2.550394058227539
22, 8165, 8152, 8104, 8114, 8112, 8153, 8164, 8160, 8119, 8162, 8172, 8155, 8169, 8136,2.5652804374694824
23, 8167, 8155, 8147, 8100, 8119, 8146, 8147, 8168, 8113, 8159, 8178, 8161, 8165, 8128,2.5652804374694824
24, 8160, 8169, 8154, 8095, 8120, 8155, 8140, 8168, 8108, 8155, 8180, 8172, 8161, 8121,2.5790793895721436
25, 8165, 8174, 8121, 8117, 8122, 8159, 8151, 8163, 8128, 8166, 8194, 8167, 8174, 8125,2.594282627105713
26, 8175, 8180, 8192, 8124, 8128, 8164, 8142, 8175, 8117, 8159, 8195, 8178, 8168, 8134,2.594282627105713
27, 8160, 8170, 8122, 8133, 8141, 8159, 8140, 8162, 8112, 8159, 8186, 8159, 8157, 8127,2.6103720664978027
28, 8157, 8172, 8155, 8135, 8148, 8168, 8145, 8171, 8115, 8162, 8180, 8158, 8153, 8134,2.6103720664978027
29, 8165, 8186, 8181, 8159, 8154, 8195, 8172, 8176, 8133, 8191, 8186, 8168, 8166, 8146,2.6263983249664307
30, 8162, 8164, 8120, 8160, 8151, 8188, 8182, 8162, 8136, 8202, 8183, 8151, 8169, 8137,2.6263983249664307
31, 8161, 8157, 8174, 8126, 8143, 8181, 8164, 8169, 8119, 8170, 8165, 8157, 8151, 8136,2.641282081604004
32, 8165, 8164, 8126, 8135, 8142, 8172, 8172, 8154, 8139, 8178, 8167, 8150, 8152, 8143,2.641282081604004
33, 8181, 8166, 8153, 8136, 8134, 8155, 8157, 8156, 8141, 8182, 8173, 8156, 8154, 8150,2.6568944454193115
34, 8184, 8174, 8175, 8128, 8137, 8156, 8135, 8167, 8131, 8168, 8181, 8174, 8160, 8146,2.6568944454193115
35, 8175, 8176, 8118, 8132, 8138, 8144, 8127, 8160, 8132, 8170, 8192, 8168, 8171, 8135,2.672456741333008
36, 8173, 8182, 8189, 8117, 8125, 8137, 8113, 8171, 8110, 8154, 8182, 8171, 8157, 8127,2.672456741333008
37, 8166, 8178, 8139, 8122, 8135, 8142, 8120, 8156, 8099, 8142, 8177, 8155, 8146, 8117,2.6879262924194336
38, 8155, 8168, 8142, 8122, 8137, 8144, 8121, 8151, 8079, 8131, 8169, 8148, 8141, 8121,2.6879262924194336
39, 8143, 8174, 8170, 8124, 8132, 8162, 8132, 8165, 8070, 8140, 8163, 8150, 8142, 8128,2.7030904293060303
40, 8144, 8174, 8107, 8144, 8149, 8170, 8157, 8162, 8095, 8164, 8173, 8135, 8150, 8126,2.7030904293060303
41, 8159, 8183, 8187, 8145, 8155, 8174, 8155, 8169, 8103, 8164, 8175, 8157, 8150, 8140,2.7188901901245117
42, 8156, 8175, 8149, 8150, 8152, 8178, 8161, 8155, 8118, 8182, 8178, 8157, 8157, 8143,2.7188901901245117
43, 8149, 8157, 8129, 8140, 8150, 8164, 8157, 8160, 8129, 8189, 8176, 8149, 8160, 8143,2.734527111053467
44, 8158, 8167, 8171, 8133, 8148, 8161, 8146, 8178, 8142, 8183, 8175, 8167, 8164, 8154,2.734527111053467
45, 8163, 8171, 8113, 8140, 8143, 8152, 8142, 8158, 8154, 8188, 8184, 8164, 8175, 8149,2.7501139640808105
46, 8166, 8176, 8182, 8121, 8128, 8142, 8127, 8165, 8136, 8171, 8187, 8181, 8169, 8145,2.7501139640808105
47, 8164, 8169, 8152, 8116, 8125, 8139, 8137, 8168, 8143, 8170, 8192, 8183, 8168, 8144,2.765794515609741
48, 8162, 8163, 8128, 8112, 8125, 8130, 8133, 8160, 8137, 8161, 8180, 8169, 8157, 8135,2.765794515609741
49, 8162, 8189, 8179, 8113, 8136, 8137, 8115, 8164, 8106, 8144, 8175, 8175, 8144, 8124,2.7815017700195312
50, 8161, 8192, 8120, 8138, 8152, 8143, 8127, 8157, 8100, 8146, 8192, 8161, 8152, 8118,2.7815017700195312
51, 8172, 8189, 8184, 8139, 8143, 8144, 8125, 8167, 8088, 8127, 8186, 8170, 8145, 8123,2.796943426132202
52, 8164, 8199, 8165, 8148, 8147, 8143, 8127, 8164, 8092, 8121, 8182, 8169, 8140, 8123,2.796943426132202
53, 8159, 8193, 8137, 8153, 8159, 8143, 8133, 8162, 8087, 8128, 8183, 8150, 8137, 8121,2.812220573425293
54, 8169, 8195, 8197, 8152, 8157, 8165, 8133, 8173, 8076, 8133, 8178, 8156, 8134, 8126,2.812220573425293
55, 8160, 8190, 8128, 8173, 8163, 8167, 8145, 8155, 8094, 8155, 8175, 8149, 8139, 8123,2.827746629714966
56, 8148, 8181, 8173, 8165, 8164, 8161, 8150, 8162, 8097, 8160, 8161, 8154, 8131, 8127,2.827746629714966
57, 8143, 8171, 8162, 8152, 8155, 8171, 8159, 8164, 8105, 8168, 8155, 8148, 8135, 8129,2.843343496322632
58, 8153, 8159, 8123, 8147, 8146, 8164, 8149, 8156, 8112, 8172, 8157, 8139, 8146, 8128,2.843343496322632
59, 8158, 8169, 8187, 8142, 8149, 8161, 8138, 8168, 8102, 8160, 8155, 8160, 8143, 8133,2.858989953994751
60, 8146, 8161, 8121, 8146, 8149, 8147, 8144, 8156, 8110, 8165, 8155, 8152, 8146, 8127,2.858989953994751
61, 8160, 8152, 8163, 8128, 8131, 8137, 8126, 8166, 8116, 8160, 8157, 8167, 8153, 8138,2.875098466873169
62, 8178, 8161, 8180, 8128, 8134, 8153, 8129, 8175, 8138, 8172, 8179, 8191, 8174, 8156,2.875098466873169
63, 8173, 8161, 8134, 8138, 8146, 8145, 8138, 8165, 8149, 8179, 8190, 8177, 8186, 8147,2.891221523284912
64, 8163, 8166, 8189, 8130, 8141, 8136, 8119, 8170, 8123, 8159, 8178, 8178, 8178, 8130,2.891221523284912
65, 8157, 8156, 8124, 8127, 8135, 8138, 8121, 8155, 8121, 8168, 8181, 8165, 8177, 8118,2.9072017669677734
66, 8161, 8157, 8156, 8111, 8131, 8131, 8115, 8158, 8122, 8168, 8182, 8166, 8177, 8126,2.9072017669677734
67, 8167, 8183, 8181, 8138, 8145, 8131, 8115, 8168, 8128, 8168, 8185, 8181, 8185, 8136,2.9229485988616943
68, 8171, 8183, 8131, 8175, 8157, 8132, 8114, 8161, 8131, 8175, 8186, 8174, 8182, 8133,2.9229485988616943
69, 8173, 8179, 8192, 8163, 8152, 8142, 8101, 8164, 8107, 8158, 8178, 8181, 8161, 8127,2.938478469848633
70, 8159, 8175, 8132, 8168, 8160, 8145, 8120, 8155, 8118, 8169, 8197, 8167, 8161, 8122,2.938478469848633
71, 8150, 8169, 8143, 8165, 8165, 8142, 8127, 8168, 8128, 8174, 8194, 8162, 8159, 8126,2.9538965225219727
72, 8148, 8168, 8164, 8166, 8161, 8153, 8124, 8174, 8118, 8161, 8178, 8162, 8153, 8127,2.9538965225219727
73, 8146, 8161, 8106, 8182, 8163, 8145, 8134, 8157, 8116, 8158, 8178, 8145, 8153, 8120,2.9700021743774414
74, 8145, 8168, 8177, 8168, 8161, 8147, 8134, 8173, 8111, 8151, 8175, 8155, 8144, 8119,2.9700021743774414
75, 8131, 8164, 8126, 8164, 8165, 8162, 8144, 8166, 8117, 8163, 8173, 8142, 8140, 8116,2.9852747917175293
76, 8127, 8150, 8126, 8163, 8161, 8162, 8139, 8161, 8108, 8163, 8153, 8130, 8138, 8122,2.9852747917175293
77, 8132, 8154, 8162, 8163, 8160, 8171, 8144, 8172, 8114, 8169, 8146, 8140, 8145, 8135,3.000340223312378
78, 8132, 8152, 8097, 8165, 8168, 8163, 8160, 8160, 8130, 8191, 8161, 8129, 8157, 8138,3.000340223312378
79, 8143, 8156, 8169, 8152, 8162, 8159, 8155, 8167, 8107, 8180, 8158, 8142, 8149, 8141,3.0154733657836914
80, 8151, 8151, 8138, 8160, 8157, 8164, 8160, 8159, 8100, 8171, 8149, 8136, 8143, 8136,3.0154733657836914
81, 8150, 8146, 8129, 8152, 8148, 8153, 8155, 8158, 8101, 8156, 8141, 8126, 8142, 8134,3.031034231185913
82, 8143, 8154, 8168, 8133, 8139, 8151, 8155, 8172, 8105, 8153, 8141, 8142, 8145, 8140,3.031034231185913
83, 8138, 8138, 8096, 8130, 8137, 8145, 8169, 8164, 8127, 8182, 8146, 8133, 8147, 8135,3.0463669300079346
84, 8146, 8140, 8162, 8117, 8128, 8142, 8152, 8172, 8128, 8174, 8146, 8141, 8144, 8138,3.0463669300079346
85, 8147, 8154, 8145, 8133, 8135, 8147, 8140, 8162, 8141, 8174, 8162, 8143, 8161, 8138,3.062063217163086
86, 8150, 8149, 8125, 8136, 8146, 8145, 8132, 8162, 8140, 8182, 8165, 8142, 8160, 8132,3.062063217163086
87, 8150, 8148, 8169, 8117, 8142, 8148, 8124, 8179, 8130, 8167, 8156, 8158, 8150, 8136,3.0779612064361572
88, 8149, 8145, 8107, 8130, 8146, 8142, 8133, 8167, 8150, 8163, 8167, 8156, 8176, 8137,3.0779612064361572
89, 8168, 8156, 8175, 8136, 8152, 8149, 8131, 8175, 8143, 8154, 8172, 8177, 8197, 8142,3.0930886268615723
90, 8167, 8167, 8154, 8133, 8159, 8157, 8143, 8167, 8131, 8153, 8161, 8177, 8196, 8135,3.1091740131378174
91, 8158, 8160, 8125, 8124, 8159, 8147, 8147, 8160, 8128, 8146, 8155, 8162, 8187, 8132,3.1091740131378174
92, 8169, 8168, 8199, 8124, 8156, 8152, 8138, 8176, 8124, 8146, 8171, 8182, 8194, 8143,3.124411106109619
93, 8168, 8167, 8130, 8142, 8161, 8148, 8140, 8162, 8127, 8165, 8178, 8173, 8202, 8135,3.124411106109619
94, 8167, 8169, 8176, 8136, 8156, 8147, 8126, 8165, 8110, 8147, 8160, 8174, 8188, 8138,3.124411106109619
95, 8171, 8181, 8180, 8150, 8157, 8162, 8137, 8168, 8118, 8151, 8171, 8185, 8184, 8158,3.1400368213653564
96, 8175, 8179, 8134, 8159, 8158, 8153, 8145, 8165, 8127, 8163, 8176, 8177, 8171, 8156,3.1400368213653564
97, 8171, 8181, 8192, 8148, 8161, 8153, 8132, 8175, 8114, 8148, 8152, 8178, 8141, 8146,3.155953884124756
98, 8164, 8175, 8137, 8167, 8172, 8163, 8145, 8164, 8133, 8156, 8160, 8164, 8148, 8146,3.1731526851654053
99, 8162, 8170, 8170, 8163, 8162, 8161, 8148, 8173, 8136, 8158, 8166, 8165, 8150, 8150,3.1731526851654053
100, 8159, 8175, 8172, 8157, 8161, 8168, 8156, 8177, 8138, 8156, 8155, 8167, 8137, 8144,3.1731526851654053
101, 8174, 8176, 8139, 8175, 8173, 8168, 8163, 8167, 8143, 8165, 8167, 8169, 8151, 8153,3.1872689723968506
102, 8188, 8179, 8207, 8170, 8164, 8167, 8150, 8172, 8123, 8165, 8180, 8192, 8165, 8167,3.1872689723968506
103, 8170, 8163, 8133, 8169, 8157, 8162, 8154, 8161, 8124, 8174, 8171, 8168, 8159, 8148,3.203368663787842
104, 8160, 8155, 8161, 8166, 8160, 8157, 8151, 8171, 8129, 8166, 8151, 8156, 8143, 8140,3.203368663787842
105, 8154, 8155, 8176, 8164, 8167, 8169, 8157, 8178, 8139, 8164, 8154, 8162, 8144, 8140,3.219003438949585
106, 8146, 8138, 8108, 8157, 8164, 8169, 8166, 8163, 8142, 8168, 8154, 8143, 8149, 8134,3.2347447872161865
107, 8160, 8148, 8183, 8150, 8156, 8179, 8161, 8171, 8131, 8163, 8142, 8158, 8146, 8152,3.2347447872161865
108, 8160, 8156, 8137, 8169, 8164, 8178, 8171, 8164, 8150, 8184, 8147, 8154, 8156, 8161,3.2347447872161865
109, 8154, 8153, 8150, 8163, 8160, 8162, 8167, 8172, 8148, 8180, 8150, 8150, 8155, 8152,3.251314878463745
110, 8164, 8167, 8181, 8166, 8152, 8173, 8171, 8180, 8144, 8171, 8159, 8168, 8160, 8157,3.251314878463745
111, 8165, 8161, 8122, 8169, 8157, 8170, 8180, 8167, 8162, 8188, 8166, 8166, 8167, 8165,3.2659788131713867
112, 8163, 8157, 8191, 8148, 8160, 8173, 8171, 8183, 8165, 8193, 8155, 8184, 8161, 8167,3.2659788131713867
113, 8170, 8168, 8152, 8175, 8175, 8188, 8189, 8178, 8178, 8208, 8164, 8182, 8170, 8170,3.2820398807525635
114, 8183, 8173, 8155, 8184, 8175, 8176, 8188, 8169, 8173, 8193, 8166, 8179, 8172, 8182,3.297184467315674
115, 8173, 8169, 8185, 8156, 8158, 8164, 8172, 8173, 8159, 8166, 8154, 8189, 8159, 8175,3.297184467315674
116, 8157, 8150, 8115, 8150, 8152, 8157, 8172, 8162, 8160, 8173, 8154, 8170, 8159, 8157,3.3129372596740723
117, 8168, 8155, 8181, 8145, 8147, 8168, 8167, 8172, 8151, 8179, 8160, 8182, 8166, 8171,3.3129372596740723
118, 8177, 8165, 8149, 8153, 8154, 8169, 8172, 8168, 8153, 8184, 8175, 8191, 8174, 8180,3.3129372596740723
119, 8179, 8159, 8145, 8155, 8151, 8147, 8162, 8161, 8152, 8174, 8172, 8187, 8174, 8173,3.3289589881896973
120, 8175, 8168, 8196, 8163, 8151, 8157, 8156, 8164, 8157, 8173, 8167, 8198, 8178, 8173,3.3289589881896973
121, 8164, 8160, 8121, 8174, 8160, 8160, 8160, 8152, 8153, 8178, 8175, 8182, 8176, 8161,3.343268394470215
122, 8161, 8155, 8173, 8147, 8151, 8147, 8140, 8167, 8116, 8134, 8167, 8177, 8151, 8145,3.3588638305664062
123, 8161, 8166, 8157, 8153, 8150, 8146, 8142, 8168, 8130, 8133, 8173, 8178, 8157, 8145,3.3588638305664062
124, 8167, 8173, 8146, 8165, 8152, 8148, 8148, 8167, 8156, 8166, 8181, 8184, 8174, 8159,3.3749582767486572
125, 8169, 8180, 8197, 8150, 8146, 8152, 8146, 8179, 8138, 8160, 8173, 8197, 8162, 8160,3.3749582767486572
126, 8165, 8174, 8131, 8161, 8148, 8143, 8159, 8167, 8136, 8156, 8178, 8182, 8159, 8149,3.3910350799560547
127, 8180, 8187, 8192, 8170, 8151, 8145, 8146, 8171, 8129, 8151, 8186, 8199, 8166, 8158,3.3910350799560547
236, 8187, 8198, 8173, 8183, 8155, 8156, 8138, 8164, 8122, 8154, 8189, 8205, 8167, 8157,3.406205177307129
0, 8182, 8188, 8142, 8181, 8158, 8152, 8141, 8157, 8109, 8148, 8176, 8190, 8153, 8149,3.406205177307129
1, 8183, 8190, 8213, 8177, 8163, 8158, 8141, 8171, 8095, 8139, 8173, 8208, 8153, 8155,3.4225032329559326
2, 8181, 8184, 8143, 8197, 8168, 8155, 8153, 8159, 8114, 8157, 8195, 8208, 8177, 8152,3.4225032329559326
3, 8188, 8188, 8187, 8194, 8161, 8159, 8159, 8167, 8126, 8157, 8198, 8216, 8172, 8159,3.4384260177612305
4, 8180, 8192, 8185, 8201, 8163, 8174, 8174, 8172, 8136, 8159, 8183, 8207, 8157, 8163,3.4384260177612305
5, 8165, 8177, 8135, 8206, 8166, 8162, 8177, 8165, 8132, 8147, 8164, 8179, 8149, 8148,3.4545693397521973
6, 8175, 8187, 8199, 8195, 8166, 8169, 8174, 8180, 8126, 8140, 8170, 8200, 8158, 8156,3.4545693397521973
7, 8184, 8187, 8142, 8209, 8181, 8184, 8192, 8170, 8144, 8172, 8199, 8202, 8181, 8172,3.4545693397521973
8, 8172, 8173, 8169, 8206, 8178, 8177, 8174, 8165, 8116, 8159, 8186, 8186, 8162, 8156,3.4695045948028564
9, 8155, 8170, 8166, 8204, 8173, 8177, 8166, 8162, 8101, 8143, 8172, 8175, 8147, 8138,3.4845690727233887
10, 8175, 8172, 8125, 8220, 8179, 8179, 8180, 8161, 8126, 8163, 8188, 8182, 8172, 8156,3.4845690727233887
11, 8191, 8180, 8202, 8222, 8174, 8185, 8166, 8178, 8131, 8169, 8199, 8210, 8183, 8178,3.5004711151123047
12, 8162, 8171, 8131, 8225, 8175, 8181, 8160, 8162, 8127, 8172, 8197, 8185, 8173, 8155,3.5004711151123047
13, 8158, 8169, 8147, 8213, 8180, 8174, 8157, 8158, 8107, 8154, 8179, 8176, 8157, 8141,3.515376329421997
14, 8178, 8180, 8178, 8217, 8183, 8174, 8156, 8163, 8106, 8154, 8184, 8202, 8166, 8156,3.515376329421997
15, 8176, 8174, 8131, 8219, 8181, 8167, 8157, 8158, 8117, 8167, 8194, 8195, 8178, 8159,3.531031608581543
16, 8169, 8179, 8195, 8203, 8179, 8179, 8164, 8173, 8104, 8152, 8172, 8193, 8165, 8158,3.531031608581543
17, 8165, 8177, 8134, 8218, 8188, 8183, 8188, 8167, 8121, 8164, 8172, 8181, 8163, 8156,3.54614520072937
18, 8163, 8164, 8151, 8211, 8178, 8173, 8178, 8173, 8140, 8178, 8186, 8184, 8174, 8163,3.54614520072937
19, 8163, 8178, 8190, 8204, 8178, 8190, 8179, 8177, 8138, 8177, 8191, 8196, 8178, 8168,3.562303304672241
20, 8161, 8174, 8120, 8218, 8190, 8184, 8187, 8151, 8126, 8175, 8184, 8176, 8165, 8156,3.562303304672241
21, 8152, 8158, 8173, 8196, 8180, 8167, 8161, 8161, 8109, 8152, 8171, 8175, 8149, 8150,3.5777792930603027
22, 8137, 8151, 8125, 8190, 8175, 8177, 8165, 8165, 8133, 8160, 8176, 8171, 8164, 8146,3.5777792930603027
23, 8142, 8160, 8135, 8196, 8182, 8183, 8171, 8164, 8132, 8170, 8172, 8174, 8166, 8147,3.5938467979431152
24, 8148, 8174, 8185, 8194, 8190, 8183, 8158, 8164, 8116, 8172, 8168, 8188, 8160, 8153,3.5938467979431152
25, 8141, 8162, 8116, 8189, 8190, 8173, 8165, 8157, 8138, 8184, 8179, 8178, 8175, 8152,3.6096065044403076
26, 8146, 8168, 8175, 8177, 8181, 8178, 8175, 8176, 8146, 8170, 8173, 8187, 8174, 8158,3.6096065044403076
27, 8143, 8172, 8137, 8186, 8184, 8185, 8188, 8167, 8149, 8170, 8165, 8167, 8168, 8151,3.6254665851593018
28, 8139, 8157, 8120, 8171, 8180, 8177, 8179, 8166, 8142, 8172, 8163, 8149, 8167, 8144,3.6254665851593018
29, 8149, 8162, 8174, 8158, 8171, 8186, 8176, 8183, 8139, 8178, 8180, 8179, 8174, 8158,3.6415116786956787
30, 8147, 8158, 8111, 8166, 8175, 8182, 8185, 8166, 8153, 8190, 8189, 8167, 8178, 8152,3.6415116786956787
31, 8144, 8159, 8157, 8153, 8175, 8177, 8167, 8169, 8139, 8165, 8163, 8155, 8161, 8137,3.657074451446533
32, 8152, 8170, 8138, 8173, 8178, 8181, 8167, 8170, 8147, 8168, 8172, 8170, 8170, 8141,3.657074451446533
33, 8165, 8178, 8143, 8190, 8182, 8176, 8173, 8169, 8164, 8189, 8193, 8187, 8195, 8160,3.672273635864258
34, 8168, 8190, 8207, 8179, 8178, 8181, 8177, 8178, 8167, 8185, 8186, 8195, 8195, 8164,3.672273635864258
35, 8168, 8179, 8126, 8185, 8174, 8169, 8184, 8160, 8176, 8186, 8192, 8179, 8196, 8151,3.6879611015319824
36, 8177, 8181, 8177, 8178, 8168, 8160, 8163, 8164, 8155, 8179, 8202, 8195, 8194, 8155,3.6879611015319824
37, 8170, 8187, 8163, 8184, 8173, 8175, 8168, 8165, 8142, 8170, 8193, 8183, 8183, 8148,3.704010009765625
38, 8160, 8169, 8121, 8182, 8169, 8168, 8175, 8157, 8138, 8155, 8177, 8153, 8169, 8132,3.704010009765625
39, 8158, 8169, 8183, 8166, 8163, 8167, 8162, 8168, 8134, 8165, 8184, 8173, 8171, 8133,3.7200307846069336
40, 8148, 8168, 8116, 8180, 8172, 8166, 8169, 8162, 8145, 8199, 8197, 8164, 8180, 8130,3.7200307846069336
41, 8149, 8163, 8154, 8170, 8168, 8167, 8160, 8171, 8143, 8186, 8189, 8162, 8171, 8134,3.7360637187957764
42, 8155, 8173, 8156, 8166, 8169, 8185, 8166, 8169, 8160, 8185, 8195, 8166, 8176, 8142,3.7360637187957764
43, 8159, 8177, 8122, 8175, 8169, 8174, 8180, 8165, 8170, 8203, 8195, 8160, 8184, 8149,3.751647710800171
44, 8162, 8175, 8191, 8165, 8159, 8156, 8171, 8184, 8154, 8194, 8191, 8179, 8188, 8153,3.751647710800171
45, 8162, 8164, 8127, 8171, 8169, 8156, 8170, 8170, 8168, 8194, 8209, 8176, 8206, 8151,3.767350435256958
46, 8166, 8166, 8158, 8161, 8170, 8163, 8161, 8174, 8169, 8185, 8205, 8179, 8201, 8151,3.767350435256958
47, 8162, 8173, 8162, 8146, 8165, 8168, 8163, 8177, 8166, 8189, 8201, 8184, 8198, 8141,3.7830867767333984
48, 8161, 8167, 8117, 8147, 8173, 8159, 8162, 8161, 8159, 8198, 8216, 8173, 8203, 8140,3.7830867767333984
49, 8164, 8173, 8194, 8150, 8170, 8159, 8140, 8165, 8134, 8175, 8207, 8178, 8182, 8149,3.798952102661133
50, 8151, 8167, 8132, 8162, 8166, 8162, 8142, 8158, 8137, 8167, 8193, 8157, 8166, 8133,3.798952102661133
51, 8151, 8157, 8153, 8152, 8170, 8162, 8141, 8169, 8134, 8161, 8195, 8153, 8172, 8128,3.814136266708374
52, 8155, 8168, 8179, 8156, 8180, 8170, 8148, 8172, 8137, 8174, 8202, 8161, 8184, 8137,3.814136266708374
53, 8150, 8163, 8120, 8169, 8185, 8175, 8161, 8154, 8146, 8193, 8188, 8141, 8176, 8133,3.8297626972198486
54, 8156, 8166, 8186, 8169, 8187, 8193, 8158, 8168, 8129, 8178, 8176, 8148, 8163, 8137,3.8297626972198486
55, 8159, 8164, 8136, 8187, 8193, 8198, 8170, 8169, 8140, 8187, 8182, 8143, 8173, 8144,3.8447773456573486
56, 8155, 8149, 8149, 8169, 8186, 8189, 8172, 8171, 8150, 8184, 8162, 8138, 8162, 8146,3.8447773456573486
57, 8141, 8153, 8177, 8150, 8181, 8198, 8180, 8172, 8152, 8172, 8145, 8142, 8148, 8141,3.860321044921875
58, 8133, 8153, 8107, 8162, 8176, 8188, 8190, 8160, 8167, 8185, 8152, 8124, 8157, 8132,3.860321044921875
59, 8147, 8160, 8178, 8158, 8165, 8183, 8178, 8175, 8172, 8188, 8158, 8141, 8162, 8147,3.8763375282287598
60, 8155, 8160, 8142, 8160, 8178, 8193, 8187, 8167, 8184, 8193, 8170, 8148, 8172, 8157,3.8763375282287598
61, 8153, 8158, 8135, 8150, 8179, 8182, 8185, 8164, 8173, 8183, 8164, 8144, 8168, 8147,3.892087936401367
62, 8147, 8158, 8173, 8131, 8160, 8174, 8175, 8174, 8161, 8181, 8146, 8143, 8149, 8144,3.892087936401367
63, 8143, 8138, 8112, 8126, 8156, 8165, 8176, 8159, 8176, 8197, 8152, 8131, 8147, 8149,3.9070560932159424
64, 8153, 8141, 8176, 8117, 8162, 8168, 8161, 8163, 8170, 8178, 8151, 8147, 8149, 8151,3.9070560932159424
65, 8148, 8150, 8137, 8136, 8178, 8169, 8161, 8167, 8173, 8174, 8139, 8141, 8148, 8133,3.9222145080566406
66, 8144, 8143, 8122, 8135, 8185, 8153, 8158, 8175, 8190, 8193, 8150, 8139, 8157, 8135,3.9222145080566406
67, 8156, 8152, 8176, 8119, 8184, 8156, 8154, 8181, 8198, 8193, 8176, 8166, 8168, 8158,3.938246488571167
68, 8160, 8156, 8115, 8132, 8184, 8152, 8163, 8160, 8189, 8174, 8175, 8154, 8166, 8154,3.938246488571167
69, 8162, 8159, 8170, 8127, 8177, 8149, 8158, 8172, 8157, 8141, 8150, 8151, 8143, 8141,3.9543464183807373
70, 8153, 8151, 8130, 8126, 8172, 8154, 8166, 8172, 8163, 8135, 8147, 8143, 8141, 8132,3.9543464183807373
71, 8156, 8142, 8108, 8125, 8162, 8153, 8168, 8165, 8177, 8142, 8150, 8136, 8155, 8138,3.969935655593872
72, 8168, 8154, 8182, 8120, 8170, 8172, 8163, 8174, 8183, 8166, 8160, 8165, 8166, 8148,3.969935655593872
73, 8154, 8141, 8110, 8127, 8191, 8174, 8165, 8161, 8195, 8192, 8173, 8147, 8166, 8139,3.985032796859741
74, 8142, 8131, 8148, 8106, 8185, 8169, 8155, 8171, 8179, 8163, 8154, 8135, 8150, 8130,3.985032796859741
75, 8149, 8151, 8143, 8113, 8182, 8178, 8166, 8175, 8185, 8164, 8156, 8146, 8160, 8134,4.001558065414429
76, 8155, 8161, 8119, 8133, 8191, 8172, 8165, 8169, 8185, 8180, 8168, 8139, 8156, 8144,4.001558065414429
77, 8144, 8158, 8172, 8126, 8190, 8174, 8152, 8179, 8155, 8164, 8155, 8137, 8134, 8144,4.0242133140563965
78, 8144, 8150, 8107, 8125, 8183, 8165, 8170, 8164, 8155, 8164, 8162, 8127, 8142, 8137,4.025213956832886
79, 8161, 8158, 8167, 8111, 8164, 8143, 8161, 8165, 8151, 8148, 8159, 8138, 8136, 8142,4.025213956832886
80, 8152, 8163, 8165, 8119, 8160, 8149, 8163, 8167, 8154, 8148, 8145, 8133, 8126, 8135,4.0322606563568115
81, 8142, 8146, 8114, 8127, 8170, 8158, 8183, 8164, 8163, 8156, 8143, 8113, 8135, 8123,4.0474395751953125
82, 8150, 8149, 8184, 8117, 8167, 8165, 8178, 8177, 8159, 8139, 8140, 8128, 8137, 8134,4.0474395751953125
83, 8148, 8152, 8120, 8129, 8174, 8162, 8178, 8165, 8164, 8141, 8134, 8116, 8136, 8137,4.062995672225952
84, 8154, 8161, 8156, 8124, 8176, 8159, 8166, 8174, 8152, 8138, 8130, 8122, 8132, 8135,4.062995672225952
85, 8164, 8174, 8186, 8126, 8172, 8171, 8164, 8180, 8164, 8142, 8150, 8148, 8147, 8152,4.078158617019653
86, 8162, 8156, 8137, 8135, 8177, 8166, 8174, 8167, 8181, 8159, 8158, 8141, 8157, 8158,4.078158617019653
87, 8164, 8157, 8191, 8133, 8187, 8173, 8173, 8177, 8162, 8158, 8141, 8143, 8142, 8153,4.093327522277832
88, 8157, 8159, 8132, 8144, 8193, 8182, 8181, 8170, 8166, 8160, 8141, 8132, 8138, 8146,4.093327522277832
89, 8147, 8151, 8161, 8131, 8181, 8178, 8170, 8173, 8160, 8145, 8134, 8132, 8131, 8148,4.109426021575928
90, 8141, 8155, 8186, 8136, 8183, 8186, 8176, 8174, 8152, 8147, 8133, 8138, 8131, 8146,4.125310659408569
91, 8139, 8153, 8126, 8157, 8201, 8188, 8197, 8165, 8171, 8170, 8147, 8124, 8144, 8148,4.125310659408569
92, 8150, 8157, 8193, 8149, 8199, 8198, 8195, 8184, 8185, 8178, 8150, 8135, 8148, 8167,4.125310659408569
93, 8153, 8159, 8144, 8160, 8199, 8200, 8206, 8174, 8210, 8197, 8158, 8134, 8157, 8172,4.140125036239624
94, 8159, 8160, 8153, 8164, 8200, 8186, 8200, 8171, 8209, 8193, 8164, 8142, 8155, 8175,4.156183481216431
95, 8162, 8163, 8186, 8159, 8192, 8181, 8191, 8176, 8196, 8189, 8167, 8159, 8156, 8176,4.156183481216431
96, 8160, 8150, 8122, 8158, 8187, 8171, 8198, 8163, 8207, 8200, 8165, 8146, 8166, 8172,4.1723527908325195
97, 8165, 8156, 8186, 8142, 8182, 8179, 8193, 8176, 8210, 8186, 8159, 8156, 8165, 8185,4.1723527908325195
98, 8166, 8162, 8147, 8156, 8187, 8184, 8200, 8173, 8219, 8197, 8178, 8161, 8176, 8190,4.1723527908325195
99, 8172, 8153, 8146, 8152, 8183, 8163, 8191, 8168, 8211, 8204, 8189, 8167, 8181, 8182,4.187979221343994
100, 8165, 8149, 8185, 8130, 8179, 8162, 8185, 8177, 8201, 8196, 8181, 8175, 8173, 8176,4.2040956020355225
101, 8160, 8147, 8121, 8143, 8187, 8164, 8193, 8167, 8199, 8196, 8183, 8162, 8169, 8168,4.2040956020355225
102, 8178, 8165, 8190, 8141, 8178, 8157, 8169, 8170, 8164, 8165, 8188, 8181, 8157, 8162,4.2040956020355225
103, 8171, 8171, 8153, 8140, 8176, 8156, 8154, 8161, 8151, 8155, 8194, 8171, 8145, 8148,4.218252420425415
104, 8155, 8158, 8135, 8147, 8185, 8164, 8155, 8165, 8155, 8161, 8184, 8148, 8133, 8142,4.233420372009277
105, 8156, 8169, 8195, 8149, 8188, 8187, 8168, 8180, 8155, 8157, 8180, 8167, 8133, 8148,4.233420372009277
106, 8156, 8169, 8130, 8155, 8194, 8184, 8185, 8168, 8165, 8160, 8189, 8164, 8140, 8147,4.249006509780884
107, 8163, 8169, 8191, 8154, 8197, 8177, 8176, 8181, 8157, 8156, 8185, 8170, 8132, 8153,4.249006509780884
108, 8159, 8170, 8172, 8166, 8198, 8187, 8178, 8176, 8162, 8172, 8186, 8166, 8135, 8156,4.26416802406311
109, 8147, 8161, 8132, 8157, 8187, 8178, 8175, 8161, 8157, 8179, 8184, 8152, 8141, 8152,4.26416802406311
110, 8150, 8166, 8187, 8153, 8178, 8177, 8169, 8175, 8151, 8171, 8181, 8173, 8144, 8155,4.279505014419556
111, 8150, 8156, 8124, 8170, 8180, 8179, 8186, 8171, 8173, 8184, 8185, 8161, 8144, 8152,4.279505014419556
112, 8142, 8146, 8173, 8154, 8173, 8189, 8191, 8177, 8171, 8171, 8170, 8144, 8129, 8151,4.294696569442749
113, 8142, 8159, 8167, 8163, 8181, 8208, 8209, 8175, 8182, 8174, 8171, 8146, 8137, 8160,4.294696569442749
114, 8160, 8167, 8141, 8184, 8189, 8200, 8219, 8171, 8193, 8193, 8181, 8153, 8153, 8172,4.311222076416016
115, 8168, 8168, 8203, 8181, 8179, 8191, 8205, 8185, 8179, 8186, 8182, 8169, 8155, 8177,4.311222076416016
116, 8161, 8159, 8134, 8188, 8182, 8190, 8213, 8172, 8187, 8190, 8194, 8159, 8169, 8176,4.327298164367676
117, 8169, 8167, 8181, 8179, 8187, 8196, 8208, 8175, 8187, 8198, 8196, 8175, 8178, 8193,4.327298164367676
118, 8168, 8170, 8186, 8178, 8176, 8197, 8197, 8181, 8191, 8212, 8190, 8183, 8186, 8198,4.342978239059448
119, 8170, 8148, 8139, 8178, 8158, 8176, 8183, 8172, 8203, 8205, 8188, 8171, 8193, 8189,4.342978239059448
120, 8183, 8160, 8211, 8163, 8158, 8179, 8169, 8179, 8202, 8187, 8196, 8198, 8196, 8200,4.358191967010498
121, 8181, 8168, 8150, 8172, 8177, 8185, 8183, 8169, 8211, 8207, 8208, 8200, 8204, 8201,4.358191967010498
122, 8184, 8158, 8173, 8164, 8166, 8178, 8177, 8174, 8197, 8199, 8193, 8197, 8189, 8190,4.373155832290649
123, 8190, 8161, 8192, 8161, 8163, 8182, 8170, 8173, 8187, 8190, 8195, 8198, 8179, 8185,4.373155832290649
124, 8189, 8163, 8145, 8171, 8177, 8178, 8166, 8160, 8188, 8190, 8211, 8187, 8187, 8182,4.388736963272095
125, 8196, 8180, 8216, 8165, 8175, 8177, 8156, 8174, 8176, 8175, 8211, 8211, 8183, 8191,4.388736963272095
126, 8200, 8183, 8161, 8180, 8181, 8173, 8172, 8168, 8183, 8192, 8215, 8206, 8182, 8195,4.403949499130249
127, 8187, 8173, 8172, 8172, 8178, 8170, 8171, 8172, 8164, 8181, 8204, 8186, 8170, 8182,4.403949499130249
236, 8173, 8177, 8187, 8166, 8172, 8185, 8177, 8173, 8143, 8158, 8191, 8183, 8159, 8168,4.4200215339660645
0, 8171, 8159, 8133, 8177, 8177, 8182, 8193, 8161, 8150, 8172, 8182, 8166, 8161, 8168,4.4200215339660645
1, 8166, 8148, 8205, 8167, 8172, 8188, 8189, 8180, 8150, 8185, 8163, 8169, 8159, 8172,4.435316562652588
2, 8153, 8145, 8142, 8172, 8173, 8204, 8206, 8173, 8176, 8204, 8168, 8155, 8168, 8168,4.435316562652588
3, 8156, 8141, 8141, 8169, 8172, 8197, 8208, 8170, 8193, 8208, 8177, 8153, 8171, 8175,4.451598405838013
4, 8153, 8141, 8180, 8168, 8166, 8189, 8198, 8184, 8200, 8209, 8170, 8166, 8168, 8174,4.451598405838013
5, 8146, 8129, 8111, 8171, 8158, 8176, 8201, 8174, 8208, 8214, 8166, 8152, 8173, 8166,4.467324256896973
6, 8159, 8136, 8175, 8150, 8155, 8174, 8195, 8179, 8193, 8197, 8173, 8172, 8175, 8188,4.467324256896973
7, 8165, 8144, 8148, 8154, 8165, 8177, 8197, 8170, 8190, 8191, 8183, 8180, 8179, 8191,4.483408689498901
8, 8171, 8150, 8151, 8160, 8163, 8163, 8181, 8167, 8167, 8175, 8178, 8176, 8168, 8170,4.483408689498901
9, 8183, 8172, 8190, 8166, 8166, 8170, 8175, 8177, 8154, 8164, 8185, 8186, 8161, 8167,4.499002456665039
10, 8187, 8171, 8124, 8181, 8181, 8173, 8188, 8164, 8171, 8179, 8199, 8182, 8164, 8170,4.499002456665039
11, 8183, 8160, 8192, 8166, 8174, 8170, 8174, 8172, 8161, 8170, 8183, 8193, 8147, 8170,4.514616966247559
12, 8163, 8149, 8157, 8164, 8171, 8173, 8180, 8168, 8163, 8174, 8173, 8169, 8143, 8162,4.514616966247559
13, 8155, 8145, 8127, 8162, 8178, 8173, 8186, 8162, 8162, 8172, 8164, 8143, 8138, 8156,4.530338764190674
14, 8155, 8153, 8176, 8160, 8178, 8186, 8179, 8172, 8144, 8158, 8149, 8150, 8119, 8155,4.530338764190674
15, 8138, 8142, 8108, 8168, 8175, 8183, 8186, 8166, 8148, 8170, 8146, 8133, 8116, 8149,4.546151161193848
16, 8138, 8144, 8165, 8150, 8170, 8183, 8187, 8178, 8153, 8172, 8145, 8142, 8126, 8152,4.546151161193848
17, 8146, 8151, 8148, 8157, 8179, 8202, 8207, 8174, 8175, 8189, 8158, 8155, 8139, 8152,4.561224699020386
18, 8148, 8139, 8121, 8167, 8180, 8200, 8217, 8170, 8185, 8204, 8167, 8150, 8145, 8152,4.561224699020386
19, 8149, 8143, 8180, 8163, 8172, 8192, 8212, 8186, 8179, 8207, 8172, 8161, 8153, 8166,4.576448202133179
20, 8155, 8146, 8118, 8177, 8177, 8181, 8212, 8170, 8191, 8222, 8179, 8161, 8171, 8168,4.576448202133179
21, 8164, 8144, 8174, 8159, 8164, 8174, 8188, 8166, 8174, 8199, 8165, 8170, 8167, 8165,4.592155456542969
22, 8148, 8136, 8153, 8131, 8151, 8174, 8183, 8160, 8161, 8186, 8156, 8153, 8156, 8153,4.592155456542969
23, 8136, 8125, 8105, 8126, 8156, 8174, 8186, 8157, 8164, 8197, 8153, 8131, 8149, 8138,4.607126951217651
24, 8147, 8141, 8184, 8140, 8162, 8184, 8181, 8176, 8170, 8195, 8148, 8156, 8145, 8144,4.607126951217651
25, 8151, 8145, 8125, 8160, 8158, 8175, 8191, 8166, 8194, 8203, 8154, 8151, 8157, 8151,4.623316049575806
26, 8167, 8148, 8163, 8148, 8149, 8161, 8175, 8171, 8191, 8194, 8151, 8157, 8157, 8159,4.623316049575806
27, 8182, 8158, 8177, 8149, 8157, 8163, 8161, 8172, 8188, 8185, 8159, 8177, 8156, 8159,4.638500452041626
28, 8180, 8147, 8137, 8151, 8159, 8152, 8162, 8163, 8191, 8182, 8168, 8165, 8166, 8152,4.638500452041626
29, 8186, 8155, 8209, 8141, 8155, 8165, 8168, 8177, 8194, 8178, 8168, 8177, 8172, 8161,4.653139114379883
30, 8196, 8165, 8153, 8163, 8169, 8173, 8189, 8171, 8213, 8197, 8175, 8180, 8178, 8163,4.653139114379883
31, 8197, 8161, 8177, 8151, 8165, 8156, 8178, 8176, 8190, 8187, 8166, 8179, 8164, 8161,4.668224811553955
32, 8183, 8154, 8183, 8133, 8154, 8155, 8163, 8174, 8171, 8173, 8154, 8176, 8156, 8157,4.686813116073608
33, 8176, 8142, 8124, 8137, 8154, 8151, 8155, 8163, 8177, 8175, 8152, 8158, 8157, 8150,4.686813116073608
34, 8180, 8153, 8196, 8135, 8155, 8151, 8143, 8182, 8170, 8164, 8153, 8169, 8156, 8149,4.686813116073608
35, 8179, 8163, 8149, 8156, 8164, 8151, 8151, 8169, 8179, 8175, 8166, 8173, 8175, 8147,4.699488639831543
36, 8178, 8160, 8167, 8147, 8160, 8141, 8140, 8155, 8161, 8161, 8158, 8178, 8167, 8146,4.7160749435424805
37, 8174, 8165, 8190, 8137, 8152, 8151, 8134, 8163, 8147, 8144, 8156, 8183, 8151, 8143,4.7160749435424805
38, 8179, 8170, 8135, 8166, 8161, 8162, 8155, 8169, 8173, 8168, 8182, 8181, 8172, 8150,4.7160749435424805
39, 8198, 8181, 8215, 8175, 8170, 8170, 8167, 8183, 8175, 8190, 8196, 8206, 8192, 8167,4.730129241943359
40, 8202, 8182, 8174, 8177, 8181, 8169, 8177, 8169, 8180, 8211, 8203, 8202, 8203, 8167,4.7456114292144775
41, 8218, 8187, 8187, 8182, 8189, 8172, 8168, 8173, 8180, 8205, 8209, 8206, 8200, 8175,4.7456114292144775
42, 8230, 8204, 8228, 8206, 8199, 8191, 8170, 8181, 8175, 8193, 8206, 8222, 8195, 8181,4.761384725570679
43, 8214, 8190, 8153, 8215, 8200, 8172, 8180, 8162, 8179, 8195, 8197, 8195, 8187, 8164,4.761384725570679
44, 8209, 8192, 8215, 8194, 8188, 8159, 8169, 8176, 8176, 8186, 8188, 8198, 8176, 8158,4.777100086212158
45, 8203, 8202, 8183, 8215, 8196, 8178, 8176, 8176, 8188, 8201, 8195, 8195, 8178, 8160,4.777100086212158
46, 8189, 8186, 8168, 8211, 8197, 8178, 8174, 8171, 8182, 8187, 8176, 8172, 8163, 8151,4.7921435832977295
47, 8183, 8173, 8199, 8179, 8185, 8177, 8178, 8182, 8174, 8170, 8157, 8172, 8146, 8140,4.7921435832977295
48, 8181, 8164, 8131, 8182, 8194, 8182, 8201, 8166, 8185, 8192, 8161, 8160, 8149, 8134,4.808224201202393
49, 8180, 8170, 8199, 8188, 8200, 8188, 8192, 8167, 8166, 8187, 8147, 8166, 8152, 8149,4.808224201202393
50, 8177, 8171, 8171, 8200, 8196, 8185, 8181, 8166, 8170, 8188, 8154, 8168, 8169, 8159,4.82427716255188
51, 8180, 8162, 8151, 8197, 8188, 8176, 8175, 8166, 8182, 8198, 8169, 8168, 8176, 8157,4.82427716255188
52, 8174, 8170, 8205, 8187, 8188, 8187, 8173, 8173, 8173, 8192, 8158, 8175, 8167, 8158,4.839524745941162
53, 8166, 8170, 8136, 8195, 8200, 8189, 8188, 8164, 8185, 8204, 8159, 8161, 8174, 8158,4.839524745941162
54, 8187, 8181, 8195, 8194, 8201, 8193, 8199, 8177, 8200, 8222, 8187, 8192, 8195, 8177,4.854804992675781
55, 8192, 8186, 8179, 8208, 8201, 8196, 8216, 8172, 8215, 8238, 8214, 8206, 8209, 8187,4.854804992675781
56, 8174, 8170, 8148, 8198, 8189, 8177, 8204, 8166, 8202, 8218, 8190, 8179, 8192, 8168,4.8703320026397705
57, 8164, 8172, 8207, 8178, 8180, 8188, 8189, 8178, 8184, 8201, 8162, 8184, 8175, 8159,4.8703320026397705
58, 8161, 8164, 8129, 8187, 8192, 8190, 8202, 8164, 8204, 8220, 8171, 8177, 8187, 8154,4.886087417602539
59, 8163, 8152, 8168, 8168, 8185, 8168, 8186, 8177, 8204, 8204, 8168, 8169, 8187, 8150,4.886087417602539
60, 8164, 8154, 8168, 8163, 8173, 8167, 8182, 8182, 8212, 8193, 8166, 8163, 8184, 8146,4.901095151901245
61, 8173, 8158, 8136, 8183, 8173, 8161, 8183, 8170, 8213, 8193, 8173, 8168, 8179, 8146,4.901095151901245
62, 8187, 8182, 8215, 8189, 8183, 8157, 8165, 8176, 8191, 8184, 8180, 8199, 8177, 8150,4.917076826095581
63, 8193, 8200, 8165, 8209, 8197, 8161, 8174, 8167, 8207, 8204, 8206, 8198, 8200, 8149,4.917076826095581
64, 8207, 8212, 8210, 8219, 8200, 8170, 8176, 8177, 8209, 8207, 8225, 8215, 8210, 8163,4.9321370124816895
65, 8211, 8221, 8217, 8247, 8211, 8180, 8183, 8174, 8199, 8204, 8228, 8228, 8200, 8168,4.9321370124816895
66, 8201, 8211, 8163, 8260, 8220, 8178, 8192, 8160, 8196, 8205, 8212, 8201, 8189, 8158,4.947538614273071
67, 8199, 8211, 8224, 8236, 8217, 8192, 8190, 8178, 8196, 8193, 8196, 8200, 8179, 8161,4.947538614273071
68, 8200, 8212, 8167, 8255, 8224, 8200, 8211, 8176, 8225, 8216, 8214, 8194, 8195, 8168,4.962954759597778
69, 8207, 8216, 8197, 8273, 8230, 8201, 8219, 8178, 8231, 8230, 8215, 8196, 8205, 8178,4.962954759597778
70, 8199, 8209, 8195, 8263, 8225, 8214, 8220, 8177, 8230, 8227, 8198, 8189, 8198, 8174,4.978094577789307
71, 8178, 8176, 8125, 8239, 8209, 8201, 8220, 8168, 8234, 8223, 8185, 8159, 8187, 8157,4.978094577789307
72, 8178, 8173, 8195, 8210, 8196, 8186, 8212, 8186, 8225, 8213, 8172, 8166, 8180, 8161,4.993229150772095
73, 8184, 8173, 8136, 8219, 8204, 8178, 8216, 8172, 8231, 8223, 8172, 8161, 8193, 8163,4.993229150772095
74, 8179, 8160, 8151, 8214, 8194, 8167, 8190, 8163, 8214, 8202, 8176, 8160, 8187, 8151,5.008561611175537
75, 8177, 8172, 8190, 8208, 8184, 8169, 8181, 8170, 8207, 8190, 8195, 8184, 8188, 8149,5.008561611175537
76, 8201, 8185, 8141, 8227, 8195, 8168, 8194, 8163, 8217, 8211, 8215, 8195, 8212, 8162,5.024240970611572
77, 8222, 8194, 8221, 8224, 8194, 8162, 8173, 8176, 8189, 8195, 8213, 8214, 8202, 8166,5.024240970611572
78, 8207, 8191, 8180, 8224, 8190, 8148, 8167, 8164, 8178, 8181, 8204, 8200, 8181, 8146,5.0403454303741455
79, 8207, 8193, 8180, 8220, 8187, 8141, 8165, 8156, 8166, 8167, 8185, 8186, 8170, 8143,5.0403454303741455
80, 8211, 8210, 8215, 8224, 8187, 8157, 8157, 8165, 8143, 8154, 8177, 8192, 8167, 8145,5.055513143539429
81, 8200, 8200, 8143, 8233, 8188, 8149, 8149, 8156, 8145, 8157, 8182, 8175, 8162, 8132,5.055513143539429
82, 8206, 8198, 8205, 8218, 8185, 8151, 8144, 8169, 8153, 8155, 8184, 8186, 8159, 8138,5.072011232376099
83, 8203, 8201, 8173, 8226, 8193, 8172, 8174, 8173, 8178, 8171, 8193, 8183, 8173, 8143,5.072011232376099
84, 8192, 8189, 8168, 8221, 8191, 8165, 8180, 8172, 8175, 8166, 8183, 8169, 8163, 8139,5.086715459823608
85, 8197, 8199, 8217, 8211, 8188, 8161, 8162, 8173, 8161, 8162, 8179, 8178, 8155, 8142,5.102495431900024
86, 8198, 8201, 8149, 8222, 8193, 8160, 8164, 8157, 8166, 8175, 8192, 8168, 8163, 8139,5.102495431900024
87, 8193, 8199, 8200, 8209, 8185, 8165, 8161, 8170, 8156, 8154, 8176, 8168, 8153, 8130,5.102495431900024
88, 8180, 8190, 8159, 8204, 8187, 8175, 8174, 8170, 8166, 8165, 8167, 8157, 8152, 8125,5.119042873382568
89, 8180, 8178, 8143, 8192, 8190, 8165, 8180, 8171, 8173, 8185, 8179, 8155, 8158, 8133,5.119042873382568
90, 8187, 8195, 8211, 8187, 8189, 8172, 8183, 8181, 8173, 8175, 8179, 8175, 8158, 8144,5.135039329528809
91, 8183, 8196, 8143, 8217, 8204, 8182, 8199, 8165, 8193, 8181, 8176, 8156, 8166, 8144,5.135039329528809
92, 8183, 8188, 8194, 8218, 8206, 8185, 8192, 8176, 8181, 8182, 8168, 8160, 8163, 8152,5.151060581207275
93, 8183, 8183, 8180, 8216, 8197, 8186, 8192, 8176, 8173, 8188, 8169, 8164, 8163, 8152,5.151060581207275
94, 8191, 8181, 8159, 8218, 8193, 8176, 8189, 8171, 8179, 8187, 8166, 8158, 8161, 8147,5.166071891784668
95, 8206, 8194, 8229, 8220, 8193, 8180, 8183, 8184, 8177, 8176, 8157, 8176, 8161, 8160,5.166071891784668
96, 8210, 8187, 8156, 8233, 8196, 8175, 8199, 8172, 8193, 8188, 8162, 8171, 8173, 8164,5.182119131088257
97, 8211, 8183, 8194, 8216, 8186, 8168, 8192, 8178, 8193, 8198, 8164, 8177, 8177, 8167,5.182119131088257
98, 8203, 8183, 8184, 8212, 8185, 8176, 8192, 8178, 8198, 8205, 8173, 8173, 8183, 8164,5.197351932525635
99, 8200, 8169, 8146, 8218, 8189, 8170, 8200, 8169, 8197, 8195, 8178, 8153, 8185, 8155,5.197351932525635
100, 8204, 8169, 8215, 8209, 8185, 8182, 8205, 8182, 8198, 8196, 8171, 8162, 8176, 8164,5.2126007080078125
101, 8192, 8162, 8144, 8205, 8185, 8179, 8216, 8174, 8231, 8229, 8181, 8161, 8188, 8165,5.228389024734497
102, 8194, 8164, 8177, 8189, 8174, 8157, 8195, 8179, 8223, 8206, 8178, 8180, 8190, 8162,5.228389024734497
103, 8217, 8181, 8197, 8197, 8174, 8165, 8192, 8177, 8205, 8183, 8174, 8195, 8189, 8165,5.228389024734497
104, 8233, 8186, 8159, 8209, 8189, 8170, 8207, 8164, 8212, 8201, 8192, 8189, 8202, 8173,5.244992017745972
105, 8227, 8194, 8227, 8188, 8186, 8160, 8187, 8176, 8205, 8192, 8208, 8209, 8206, 8171,5.244992017745972
106, 8214, 8189, 8163, 8198, 8186, 8150, 8182, 8169, 8213, 8195, 8216, 8207, 8213, 8161,5.260449409484863
107, 8223, 8187, 8185, 8198, 8185, 8151, 8184, 8177, 8212, 8202, 8212, 8211, 8220, 8176,5.260449409484863
108, 8218, 8188, 8199, 8180, 8184, 8158, 8194, 8184, 8214, 8206, 8206, 8209, 8217, 8178,5.275049209594727
109, 8195, 8171, 8134, 8171, 8180, 8145, 8192, 8170, 8211, 8202, 8190, 8173, 8198, 8152,5.290204286575317
110, 8192, 8177, 8201, 8163, 8170, 8153, 8176, 8177, 8182, 8168, 8179, 8175, 8173, 8145,5.290204286575317
111, 8196, 8185, 8157, 8179, 8177, 8161, 8180, 8168, 8189, 8174, 8194, 8175, 8180, 8151,5.305156230926514
112, 8197, 8175, 8177, 8167, 8177, 8151, 8173, 8169, 8199, 8182, 8193, 8178, 8183, 8157,5.305156230926514
113, 8196, 8171, 8204, 8159, 8170, 8157, 8173, 8172, 8187, 8173, 8189, 8191, 8174, 8161,5.321255207061768
114, 8196, 8163, 8140, 8169, 8165, 8147, 8165, 8156, 8170, 8173, 8188, 8176, 8171, 8157,5.321255207061768
115, 8206, 8176, 8216, 8159, 8160, 8144, 8141, 8172, 8163, 8182, 8186, 8195, 8178, 8164,5.337038278579712
116, 8208, 8188, 8177, 8177, 8173, 8152, 8158, 8175, 8196, 8211, 8213, 8202, 8201, 8166,5.337038278579712
117, 8208, 8185, 8177, 8185, 8174, 8147, 8163, 8172, 8196, 8197, 8213, 8190, 8192, 8162,5.352052688598633
118, 8197, 8187, 8210, 8171, 8167, 8155, 8158, 8177, 8179, 8174, 8195, 8187, 8176, 8160,5.352052688598633
119, 8186, 8172, 8135, 8166, 8170, 8160, 8176, 8168, 8192, 8184, 8197, 8169, 8183, 8156,5.367663145065308
120, 8206, 8183, 8204, 8172, 8180, 8167, 8184, 8182, 8196, 8191, 8200, 8187, 8193, 8168,5.367663145065308
121, 8210, 8198, 8173, 8194, 8187, 8170, 8190, 8173, 8202, 8203, 8206, 8189, 8201, 8163,5.382819890975952
122, 8198, 8187, 8161, 8183, 8173, 8162, 8179, 8165, 8192, 8194, 8200, 8174, 8186, 8154,5.382819890975952
123, 8202, 8190, 8217, 8184, 8179, 8177, 8172, 8176, 8193, 8192, 8199, 8185, 8184, 8159,5.39846396446228
124, 8210, 8189, 8159, 8206, 8194, 8179, 8179, 8165, 8223, 8214, 8215, 8186, 8206, 8159,5.39846396446228
125, 8207, 8187, 8213, 8183, 8181, 8172, 8160, 8175, 8224, 8209, 8210, 8198, 8202, 8160,5.414355516433716
126, 8196, 8186, 8173, 8183, 8185, 8174, 8167, 8174, 8225, 8214, 8207, 8189, 8203, 8159,5.414355516433716
127, 8201, 8186, 8153, 8193, 8193, 8160, 8172, 8170, 8209, 8213, 8204, 8171, 8208, 8157,5.430373907089233
236, 8206, 8194, 8217, 8189, 8177, 8159, 8161, 8174, 8173, 8186, 8191, 8176, 8194, 8153,5.430373907089233
0, 8198, 8179, 8143, 8198, 8169, 8162, 8170, 8155, 8162, 8172, 8191, 8165, 8188, 8143,5.4457526206970215
1, 8196, 8179, 8196, 8183, 8172, 8161, 8164, 8168, 8141, 8152, 8182, 8174, 8180, 8143,5.4457526206970215
2, 8192, 8196, 8184, 8187, 8176, 8160, 8164, 8172, 8142, 8159, 8173, 8179, 8181, 8147,5.461435317993164
3, 8193, 8188, 8151, 8205, 8173, 8159, 8160, 8161, 8150, 8168, 8176, 8180, 8185, 8152,5.461435317993164
4, 8199, 8183, 8217, 8204, 8173, 8176, 8160, 8175, 8150, 8172, 8192, 8197, 8184, 8158,5.477284669876099
5, 8193, 8181, 8153, 8212, 8188, 8177, 8180, 8175, 8176, 8194, 8204, 8171, 8191, 8153,5.477284669876099
6, 8192, 8185, 8188, 8200, 8187, 8171, 8167, 8178, 8177, 8176, 8179, 8165, 8183, 8149,5.492525339126587
7, 8189, 8185, 8172, 8197, 8181, 8177, 8158, 8166, 8170, 8163, 8170, 8173, 8173, 8146,5.492525339126587
8, 8182, 8174, 8131, 8197, 8180, 8171, 8163, 8161, 8155, 8166, 8176, 8157, 8169, 8139,5.508033752441406
9, 8178, 8181, 8199, 8185, 8182, 8174, 8163, 8181, 8143, 8162, 8166, 8159, 8166, 8138,5.508033752441406
10, 8168, 8174, 8131, 8193, 8191, 8169, 8168, 8163, 8163, 8172, 8159, 8143, 8169, 8127,5.523980379104614
11, 8172, 8177, 8171, 8188, 8189, 8163, 8154, 8163, 8152, 8161, 8154, 8145, 8160, 8123,5.523980379104614
12, 8182, 8199, 8193, 8199, 8191, 8179, 8158, 8168, 8149, 8163, 8167, 8164, 8168, 8134,5.539456844329834
13, 8190, 8197, 8145, 8222, 8203, 8174, 8167, 8158, 8158, 8178, 8184, 8164, 8182, 8146,5.539456844329834
14, 8188, 8196, 8209, 8215, 8200, 8162, 8148, 8173, 8137, 8161, 8179, 8177, 8177, 8147,5.554874420166016
15, 8169, 8187, 8147, 8206, 8186, 8154, 8143, 8162, 8130, 8157, 8176, 8159, 8169, 8126,5.554874420166016
16, 8170, 8181, 8170, 8182, 8175, 8155, 8143, 8161, 8121, 8157, 8169, 8155, 8154, 8118,5.569956541061401
17, 8177, 8192, 8195, 8196, 8189, 8176, 8161, 8165, 8126, 8169, 8166, 8165, 8157, 8127,5.569956541061401
18, 8180, 8189, 8149, 8232, 8198, 8173, 8171, 8160, 8146, 8186, 8179, 8160, 8176, 8134,5.586010217666626
19, 8194, 8196, 8225, 8227, 8189, 8169, 8152, 8175, 8140, 8179, 8194, 8191, 8184, 8151,5.586010217666626
20, 8194, 8203, 8173, 8231, 8195, 8176, 8161, 8162, 8142, 8186, 8207, 8199, 8193, 8154,5.601479768753052
21, 8197, 8203, 8196, 8233, 8188, 8169, 8163, 8166, 8136, 8180, 8204, 8198, 8192, 8157,5.601479768753052
22, 8207, 8207, 8236, 8241, 8174, 8167, 8155, 8180, 8139, 8173, 8209, 8209, 8191, 8162,5.617477893829346
23, 8215, 8205, 8171, 8257, 8180, 8165, 8167, 8169, 8159, 8189, 8223, 8205, 8203, 8161,5.617477893829346
24, 8231, 8226, 8244, 8260, 8191, 8184, 8172, 8176, 8152, 8192, 8227, 8236, 8209, 8179,5.633044481277466
25, 8233, 8232, 8199, 8282, 8201, 8190, 8176, 8171, 8147, 8202, 8239, 8239, 8220, 8185,5.633044481277466
26, 8219, 8210, 8190, 8275, 8196, 8178, 8162, 8171, 8134, 8186, 8232, 8218, 8221, 8168,5.6485161781311035
27, 8210, 8210, 8235, 8267, 8188, 8187, 8160, 8172, 8135, 8175, 8225, 8226, 8214, 8164,5.6485161781311035
28, 8206, 8204, 8162, 8263, 8186, 8178, 8173, 8160, 8150, 8192, 8224, 8220, 8235, 8170,5.6644446849823
29, 8197, 8194, 8209, 8222, 8177, 8171, 8164, 8175, 8138, 8180, 8199, 8214, 8293, 8167,5.6644446849823
30, 8190, 8196, 8175, 8229, 8189, 8195, 8180, 8175, 8162, 8193, 8197, 8194, 8357, 8160,5.680398464202881
31, 8194, 8193, 8164, 8237, 8198, 8198, 8198, 8175, 8186, 8213, 8196, 8181, 8350, 8165,5.680398464202881
32, 8177, 8176, 8191, 8202, 8185, 8191, 8196, 8180, 8165, 8200, 8173, 8180, 8316, 8160,5.695996284484863
33, 8155, 8157, 8115, 8197, 8185, 8181, 8180, 8161, 8152, 8188, 8158, 8158, 8312, 8140,5.695996284484863
34, 8163, 8172, 8191, 8201, 8181, 8174, 8153, 8170, 8145, 8173, 8143, 8164, 8256, 8134,5.711373567581177
35, 8156, 8167, 8160, 8191, 8171, 8172, 8167, 8170, 8152, 8184, 8133, 8150, 8177, 8128,5.711373567581177
36, 8147, 8145, 8126, 8178, 8169, 8173, 8179, 8167, 8147, 8187, 8138, 8135, 8154, 8126,5.726787567138672
37, 8157, 8166, 8194, 8187, 8177, 8194, 8176, 8177, 8146, 8180, 8151, 8161, 8168, 8135,5.726787567138672
38, 8153, 8168, 8130, 8191, 8180, 8196, 8184, 8161, 8170, 8197, 8153, 8157, 8167, 8138,5.742406606674194
39, 8157, 8162, 8180, 8170, 8176, 8194, 8180, 8172, 8178, 8202, 8149, 8165, 8157, 8153,5.742406606674194
40, 8171, 8175, 8174, 8195, 8190, 8205, 8193, 8180, 8198, 8217, 8166, 8177, 8175, 8166,5.757471561431885
41, 8179, 8178, 8148, 8214, 8194, 8195, 8196, 8175, 8207, 8214, 8174, 8170, 8182, 8168,5.757471561431885
42, 8174, 8179, 8208, 8194, 8182, 8194, 8189, 8189, 8202, 8207, 8170, 8183, 8175, 8174,5.773041486740112
43, 8164, 8170, 8140, 8196, 8189, 8196, 8208, 8180, 8219, 8236, 8179, 8177, 8183, 8171,5.773041486740112
44, 8167, 8174, 8183, 8190, 8191, 8197, 8199, 8178, 8190, 8220, 8173, 8178, 8173, 8166,5.788201332092285
45, 8158, 8180, 8174, 8188, 8182, 8199, 8185, 8170, 8158, 8189, 8162, 8169, 8161, 8156,5.803617715835571
46, 8154, 8166, 8129, 8177, 8174, 8188, 8189, 8166, 8168, 8193, 8157, 8148, 8160, 8152,5.804617643356323
47, 8167, 8169, 8197, 8151, 8171, 8193, 8192, 8181, 8179, 8198, 8149, 8165, 8158, 8159,5.804617643356323
48, 8156, 8167, 8126, 8156, 8172, 8186, 8186, 8167, 8183, 8192, 8139, 8155, 8150, 8147,5.819493532180786
49, 8142, 8157, 8156, 8146, 8157, 8170, 8154, 8172, 8165, 8168, 8116, 8142, 8130, 8135,5.819493532180786
50, 8145, 8152, 8171, 8136, 8153, 8176, 8154, 8175, 8170, 8173, 8113, 8142, 8133, 8133,5.835421085357666
51, 8153, 8147, 8122, 8134, 8163, 8170, 8167, 8164, 8180, 8184, 8115, 8137, 8144, 8133,5.835421085357666
52, 8163, 8162, 8196, 8131, 8162, 8168, 8162, 8174, 8161, 8168, 8116, 8162, 8140, 8148,5.851977348327637
53, 8162, 8164, 8143, 8152, 8167, 8170, 8181, 8164, 8169, 8181, 8137, 8159, 8154, 8154,5.851977348327637
54, 8155, 8149, 8161, 8137, 8164, 8171, 8179, 8170, 8173, 8173, 8128, 8154, 8153, 8152,5.867276906967163
55, 8147, 8148, 8177, 8119, 8160, 8181, 8170, 8177, 8174, 8158, 8114, 8157, 8140, 8154,5.867276906967163
56, 8155, 8146, 8128, 8137, 8163, 8169, 8179, 8168, 8186, 8180, 8130, 8150, 8143, 8157,5.882929086685181
57, 8158, 8154, 8201, 8149, 8161, 8170, 8174, 8183, 8180, 8182, 8128, 8162, 8136, 8151,5.882929086685181
58, 8133, 8140, 8131, 8146, 8159, 8176, 8170, 8172, 8188, 8167, 8107, 8130, 8119, 8125,5.898106098175049
59, 8118, 8120, 8128, 8107, 8150, 8166, 8151, 8164, 8167, 8138, 8087, 8107, 8099, 8107,5.898106098175049
60, 8124, 8133, 8167, 8104, 8151, 8179, 8153, 8168, 8146, 8140, 8088, 8122, 8101, 8107,5.915270090103149
61, 8138, 8144, 8115, 8135, 8163, 8179, 8171, 8161, 8173, 8175, 8112, 8126, 8124, 8119,5.915270090103149
62, 8153, 8152, 8186, 8122, 8154, 8168, 8156, 8173, 8187, 8168, 8118, 8145, 8124, 8128,5.929311037063599
63, 8145, 8145, 8138, 8121, 8149, 8171, 8149, 8160, 8181, 8148, 8110, 8138, 8111, 8107,5.945370435714722
64, 8141, 8142, 8138, 8130, 8155, 8169, 8143, 8156, 8162, 8130, 8099, 8133, 8101, 8106,5.945370435714722
65, 8148, 8161, 8190, 8130, 8158, 8163, 8146, 8175, 8161, 8131, 8105, 8152, 8107, 8129,5.945370435714722
66, 8149, 8153, 8124, 8133, 8152, 8154, 8157, 8164, 8173, 8152, 8118, 8146, 8122, 8127,5.961034059524536
67, 8152, 8146, 8186, 8124, 8146, 8164, 8144, 8162, 8160, 8139, 8110, 8158, 8117, 8127,5.961034059524536
68, 8146, 8146, 8150, 8138, 8155, 8167, 8152, 8152, 8162, 8129, 8112, 8153, 8113, 8127,5.978389501571655
69, 8137, 8140, 8127, 8133, 8151, 8146, 8147, 8158, 8150, 8108, 8103, 8132, 8107, 8114,5.991399049758911
70, 8133, 8150, 8170, 8119, 8142, 8151, 8132, 8176, 8143, 8096, 8095, 8144, 8107, 8113,5.991399049758911
71, 8143, 8152, 8113, 8137, 8152, 8162, 8151, 8164, 8177, 8131, 8124, 8157, 8125, 8123,6.007940053939819
72, 8170, 8158, 8186, 8144, 8157, 8175, 8161, 8172, 8183, 8146, 8145, 8186, 8137, 8139,6.007940053939819
73, 8167, 8167, 8161, 8156, 8164, 8179, 8171, 8172, 8183, 8152, 8142, 8179, 8142, 8141,6.007940053939819
74, 8152, 8168, 8134, 8155, 8165, 8165, 8173, 8174, 8180, 8140, 8129, 8156, 8131, 8134,6.02951455116272
75, 8166, 8173, 8201, 8148, 8164, 8171, 8177, 8186, 8177, 8142, 8148, 8183, 8138, 8139,6.02951455116272
76, 8184, 8169, 8138, 8164, 8173, 8173, 8186, 8163, 8185, 8168, 8173, 8192, 8157, 8143,6.038284778594971
77, 8182, 8173, 8189, 8152, 8163, 8169, 8166, 8163, 8148, 8136, 8143, 8183, 8130, 8136,6.053717613220215
78, 8161, 8172, 8175, 8142, 8161, 8171, 8162, 8163, 8136, 8119, 8122, 8157, 8113, 8110,6.053717613220215
79, 8153, 8164, 8137, 8145, 8170, 8165, 8164, 8154, 8164, 8135, 8133, 8148, 8123, 8105,6.069756746292114
80, 8163, 8190, 8204, 8167, 8176, 8183, 8162, 8169, 8172, 8141, 8140, 8175, 8122, 8124,6.069756746292114
81, 8164, 8199, 8146, 8206, 8186, 8199, 8182, 8171, 8174, 8163, 8150, 8163, 8132, 8135,6.086782217025757
82, 8167, 8190, 8196, 8193, 8185, 8201, 8186, 8178, 8171, 8174, 8156, 8168, 8145, 8152,6.086782217025757
83, 8160, 8181, 8191, 8179, 8189, 8208, 8196, 8170, 8192, 8187, 8158, 8177, 8151, 8162,6.086782217025757
84, 8155, 8169, 8133, 8182, 8189, 8195, 8207, 8164, 8203, 8194, 8149, 8155, 8150, 8159,6.101325511932373
85, 8166, 8177, 8198, 8166, 8176, 8191, 8201, 8183, 8189, 8176, 8139, 8161, 8147, 8160,6.116177320480347
86, 8156, 8164, 8131, 8155, 8176, 8185, 8203, 8170, 8202, 8171, 8140, 8156, 8155, 8142,6.116177320480347
87, 8144, 8149, 8157, 8131, 8169, 8165, 8182, 8173, 8198, 8163, 8141, 8167, 8156, 8125,6.131742477416992
88, 8154, 8171, 8184, 8142, 8166, 8171, 8174, 8179, 8195, 8170, 8171, 8190, 8165, 8132,6.131742477416992
89, 8166, 8187, 8145, 8177, 8181, 8178, 8180, 8172, 8194, 8176, 8188, 8176, 8163, 8135,6.147165536880493
90, 8164, 8194, 8207, 8178, 8187, 8184, 8179, 8185, 8170, 8162, 8164, 8173, 8141, 8132,6.147165536880493
91, 8154, 8177, 8147, 8183, 8185, 8191, 8197, 8172, 8176, 8178, 8157, 8164, 8146, 8131,6.163222074508667
92, 8161, 8164, 8169, 8174, 8180, 8196, 8189, 8170, 8177, 8181, 8151, 8161, 8150, 8136,6.163222074508667
93, 8160, 8174, 8188, 8172, 8184, 8203, 8178, 8172, 8182, 8181, 8145, 8161, 8148, 8136,6.178772211074829
94, 8155, 8164, 8135, 8175, 8181, 8181, 8172, 8162, 8200, 8184, 8149, 8155, 8156, 8130,6.178772211074829
95, 8160, 8160, 8208, 8153, 8166, 8168, 8148, 8174, 8195, 8164, 8154, 8184, 8159, 8133,6.194310903549194
96, 8163, 8176, 8154, 8168, 8176, 8176, 8150, 8169, 8206, 8183, 8180, 8188, 8172, 8138,6.194310903549194
97, 8177, 8196, 8174, 8181, 8185, 8178, 8149, 8175, 8203, 8195, 8206, 8197, 8181, 8152,6.209470987319946
98, 8184, 8202, 8215, 8174, 8183, 8180, 8149, 8179, 8185, 8178, 8212, 8212, 8174, 8160,6.209470987319946
99, 8171, 8180, 8140, 8171, 8183, 8172, 8159, 8157, 8173, 8169, 8197, 8185, 8160, 8144,6.225027561187744
100, 8166, 8182, 8207, 8176, 8181, 8186, 8167, 8170, 8163, 8164, 8179, 8181, 8152, 8140,6.225027561187744
101, 8163, 8185, 8169, 8206, 8192, 8203, 8193, 8177, 8194, 8198, 8188, 8170, 8167, 8146,6.240209579467773
102, 8166, 8163, 8155, 8185, 8184, 8192, 8192, 8179, 8212, 8212, 8181, 8160, 8164, 8149,6.240209579467773
103, 8172, 8159, 8189, 8156, 8165, 8191, 8185, 8181, 8212, 8202, 8168, 8176, 8163, 8153,6.255809783935547
104, 8184, 8170, 8129, 8185, 8175, 8188, 8200, 8171, 8230, 8216, 8190, 8183, 8188, 8163,6.255809783935547
105, 8198, 8192, 8209, 8190, 8184, 8188, 8185, 8185, 8226, 8213, 8205, 8211, 8193, 8180,6.271470546722412
106, 8199, 8197, 8188, 8189, 8183, 8183, 8173, 8173, 8223, 8210, 8209, 8215, 8187, 8171,6.271470546722412
107, 8209, 8183, 8169, 8186, 8181, 8163, 8166, 8164, 8215, 8200, 8212, 8208, 8182, 8158,6.287403583526611
108, 8214, 8193, 8213, 8183, 8185, 8166, 8153, 8176, 8191, 8184, 8206, 8215, 8178, 8161,6.287403583526611
109, 8201, 8198, 8149, 8192, 8184, 8162, 8148, 8161, 8179, 8179, 8196, 8195, 8169, 8148,6.303494453430176
110, 8200, 8200, 8209, 8182, 8182, 8162, 8139, 8164, 8173, 8165, 8199, 8205, 8156, 8142,6.303494453430176
111, 8202, 8200, 8188, 8194, 8199, 8179, 8163, 8170, 8195, 8184, 8221, 8209, 8176, 8152,6.318225860595703
112, 8207, 8199, 8176, 8207, 8199, 8178, 8179, 8171, 8195, 8198, 8218, 8200, 8189, 8162,6.318225860595703
113, 8208, 8210, 8240, 8207, 8185, 8184, 8180, 8180, 8189, 8190, 8208, 8214, 8174, 8168,6.3339478969573975
114, 8190, 8187, 8151, 8215, 8189, 8189, 8197, 8172, 8219, 8204, 8205, 8189, 8172, 8158,6.3339478969573975
115, 8177, 8168, 8193, 8204, 8185, 8188, 8196, 8187, 8223, 8213, 8188, 8180, 8170, 8155,6.349510431289673
116, 8177, 8174, 8198, 8210, 8184, 8188, 8203, 8180, 8227, 8227, 8193, 8188, 8172, 8160,6.349510431289673
117, 8183, 8173, 8167, 8207, 8186, 8180, 8200, 8165, 8220, 8222, 8196, 8182, 8175, 8164,6.365217208862305
118, 8185, 8178, 8219, 8193, 8177, 8189, 8187, 8179, 8198, 8206, 8179, 8194, 8165, 8168,6.365217208862305
119, 8181, 8167, 8142, 8206, 8179, 8183, 8199, 8168, 8206, 8225, 8186, 8190, 8168, 8164,6.380474090576172
120, 8193, 8166, 8187, 8203, 8183, 8177, 8199, 8173, 8207, 8221, 8191, 8201, 8179, 8173,6.380474090576172
121, 8190, 8177, 8190, 8199, 8182, 8190, 8195, 8177, 8211, 8211, 8190, 8201, 8189, 8177,6.395984411239624
122, 8177, 8158, 8137, 8182, 8164, 8178, 8178, 8166, 8210, 8215, 8195, 8187, 8187, 8167,6.395984411239624
123, 8193, 8158, 8215, 8167, 8161, 8176, 8165, 8176, 8200, 8219, 8203, 8210, 8192, 8174,6.4113545417785645
124, 8201, 8168, 8158, 8196, 8188, 8183, 8184, 8166, 8216, 8235, 8213, 8197, 8204, 8179,6.4113545417785645
125, 8192, 8160, 8175, 8182, 8179, 8170, 8174, 8172, 8202, 8219, 8203, 8186, 8188, 8174,6.426989316940308
126, 8186, 8157, 8187, 8158, 8163, 8163, 8167, 8178, 8196, 8219, 8204, 8200, 8188, 8171,6.426989316940308
127, 8188, 8170, 8145, 8174, 8175, 8161, 8175, 8171, 8215, 8233, 8215, 8191, 8199, 8168,6.442122459411621
236, 8190, 8188, 8211, 8182, 8172, 8160, 8161, 8179, 8195, 8206, 8201, 8197, 8174, 8159,6.457816123962402
0, 8186, 8177, 8155, 8191, 8166, 8146, 8160, 8166, 8185, 8203, 8196, 8194, 8172, 8143,6.457816123962402
1, 8191, 8178, 8189, 8185, 8173, 8142, 8155, 8173, 8189, 8208, 8203, 8199, 8182, 8144,6.457816123962402
2, 8188, 8191, 8206, 8172, 8174, 8159, 8153, 8177, 8184, 8195, 8194, 8195, 8167, 8141,6.4735190868377686
3, 8178, 8172, 8133, 8170, 8165, 8150, 8157, 8160, 8175, 8183, 8176, 8174, 8153, 8128,6.4735190868377686
4, 8192, 8178, 8217, 8180, 8172, 8151, 8158, 8176, 8173, 8183, 8178, 8200, 8163, 8148,6.490127801895142
5, 8194, 8189, 8170, 8209, 8188, 8165, 8176, 8175, 8192, 8205, 8197, 8197, 8178, 8162,6.5060155391693115
6, 8184, 8178, 8161, 8196, 8178, 8162, 8171, 8174, 8177, 8190, 8180, 8178, 8159, 8150,6.5060155391693115
7, 8176, 8181, 8203, 8194, 8180, 8171, 8169, 8178, 8164, 8180, 8172, 8185, 8149, 8145,6.5060155391693115
8, 8179, 8183, 8151, 8223, 8196, 8178, 8190, 8166, 8184, 8207, 8188, 8180, 8167, 8154,6.521203994750977
9, 8190, 8183, 8207, 8212, 8186, 8183, 8189, 8181, 8176, 8199, 8174, 8186, 8163, 8166,6.521203994750977
10, 8179, 8170, 8152, 8207, 8179, 8180, 8196, 8175, 8173, 8192, 8162, 8165, 8155, 8157,6.537256240844727
11, 8180, 8166, 8151, 8207, 8179, 8178, 8207, 8169, 8169, 8195, 8165, 8159, 8155, 8160,6.537256240844727
12, 8192, 8184, 8199, 8208, 8176, 8195, 8218, 8178, 8172, 8201, 8168, 8182, 8169, 8177,6.552842617034912
13, 8186, 8172, 8123, 8200, 8172, 8171, 8223, 8169, 8193, 8202, 8170, 8165, 8183, 8176,6.552842617034912
14, 8188, 8161, 8185, 8168, 8161, 8141, 8201, 8180, 8187, 8183, 8162, 8171, 8176, 8177,6.569077730178833
15, 8186, 8160, 8161, 8169, 8162, 8148, 8198, 8171, 8196, 8203, 8164, 8176, 8182, 8176,6.569077730178833
16, 8177, 8151, 8137, 8164, 8162, 8144, 8184, 8164, 8200, 8209, 8159, 8167, 8185, 8175,6.583251476287842
17, 8181, 8152, 8180, 8147, 8150, 8141, 8162, 8174, 8185, 8183, 8151, 8173, 8173, 8169,6.583251476287842
18, 8188, 8147, 8118, 8157, 8147, 8140, 8163, 8157, 8189, 8187, 8153, 8162, 8171, 8150,6.5992958545684814
19, 8195, 8158, 8184, 8155, 8153, 8147, 8156, 8173, 8189, 8188, 8154, 8180, 8175, 8151,6.5992958545684814
20, 8203, 8180, 8171, 8172, 8173, 8158, 8174, 8186, 8205, 8201, 8181, 8200, 8196, 8165,6.614238977432251
21, 8217, 8182, 8155, 8189, 8180, 8152, 8174, 8179, 8203, 8196, 8195, 8202, 8199, 8166,6.629426717758179
22, 8220, 8193, 8221, 8189, 8182, 8160, 8152, 8180, 8186, 8179, 8185, 8210, 8187, 8164,6.629426717758179
23, 8213, 8196, 8149, 8203, 8196, 8159, 8164, 8167, 8191, 8192, 8191, 8200, 8191, 8164,6.645076036453247
24, 8211, 8197, 8195, 8194, 8191, 8147, 8160, 8175, 8179, 8183, 8193, 8213, 8186, 8166,6.645076036453247
25, 8200, 8202, 8191, 8199, 8190, 8155, 8163, 8175, 8189, 8188, 8194, 8209, 8189, 8161,6.661176443099976
26, 8198, 8199, 8160, 8216, 8196, 8158, 8172, 8172, 8201, 8201, 8188, 8188, 8191, 8162,6.661176443099976
27, 8200, 8206, 8220, 8215, 8193, 8166, 8172, 8186, 8184, 8187, 8179, 8195, 8180, 8162,6.6763482093811035
28, 8178, 8194, 8140, 8216, 8198, 8166, 8183, 8168, 8177, 8192, 8179, 8174, 8175, 8142,6.6763482093811035
29, 8162, 8177, 8172, 8195, 8190, 8159, 8179, 8174, 8157, 8183, 8161, 8165, 8163, 8132,6.692025423049927
30, 8155, 8174, 8179, 8192, 8179, 8163, 8180, 8177, 8154, 8168, 8147, 8160, 8157, 8134,6.692025423049927
31, 8155, 8169, 8140, 8200, 8177, 8163, 8180, 8163, 8166, 8172, 8149, 8143, 8160, 8142,6.707122802734375
32, 8162, 8177, 8207, 8193, 8173, 8176, 8171, 8173, 8167, 8182, 8150, 8161, 8164, 8150,6.707122802734375
33, 8152, 8160, 8132, 8193, 8168, 8170, 8175, 8165, 8178, 8193, 8148, 8153, 8168, 8139,6.72234845161438
34, 8145, 8140, 8157, 8169, 8155, 8155, 8160, 8166, 8156, 8169, 8135, 8141, 8163, 8143,6.722729206085205
35, 8156, 8152, 8185, 8165, 8157, 8167, 8166, 8170, 8147, 8169, 8141, 8155, 8174, 8164,6.7382776737213135
36, 8174, 8154, 8139, 8180, 8164, 8168, 8182, 8169, 8166, 8185, 8158, 8170, 8190, 8166,6.7382776737213135
37, 8176, 8157, 8206, 8164, 8156, 8168, 8173, 8183, 8161, 8167, 8159, 8190, 8190, 8163,6.753974914550781
38, 8167, 8153, 8143, 8164, 8159, 8167, 8180, 8167, 8167, 8176, 8166, 8178, 8201, 8159,6.753974914550781
39, 8184, 8163, 8168, 8166, 8163, 8157, 8180, 8175, 8180, 8192, 8172, 8188, 8209, 8167,6.769227504730225
40, 8197, 8184, 8209, 8179, 8163, 8162, 8182, 8185, 8190, 8202, 8187, 8213, 8210, 8177,6.769227504730225
41, 8192, 8164, 8147, 8186, 8160, 8159, 8183, 8169, 8191, 8205, 8196, 8201, 8214, 8172,6.784942865371704
42, 8196, 8157, 8210, 8164, 8159, 8160, 8176, 8181, 8174, 8195, 8186, 8210, 8210, 8178,6.784942865371704
43, 8194, 8172, 8160, 8173, 8173, 8156, 8190, 8176, 8182, 8198, 8191, 8205, 8211, 8175,6.80004096031189
44, 8182, 8166, 8161, 8158, 8165, 8141, 8174, 8168, 8162, 8169, 8180, 8190, 8196, 8154,6.80004096031189
45, 8164, 8153, 8190, 8133, 8153, 8144, 8153, 8169, 8135, 8152, 8157, 8183, 8177, 8133,6.8155131340026855
46, 8165, 8155, 8126, 8150, 8158, 8140, 8161, 8162, 8148, 8173, 8161, 8171, 8181, 8133,6.8155131340026855
47, 8178, 8172, 8198, 8151, 8159, 8141, 8157, 8175, 8152, 8158, 8170, 8191, 8179, 8148,6.831082582473755
48, 8169, 8172, 8157, 8152, 8163, 8146, 8159, 8163, 8146, 8151, 8172, 8182, 8177, 8137,6.831082582473755
49, 8170, 8174, 8156, 8155, 8163, 8138, 8148, 8157, 8124, 8152, 8167, 8174, 8175, 8134,6.846330404281616
50, 8180, 8187, 8210, 8158, 8161, 8143, 8131, 8171, 8121, 8147, 8172, 8199, 8174, 8155,6.846330404281616
51, 8172, 8175, 8135, 8154, 8163, 8137, 8142, 8163, 8147, 8158, 8182, 8189, 8179, 8160,6.862017631530762
52, 8172, 8171, 8191, 8132, 8157, 8133, 8147, 8170, 8137, 8152, 8166, 8188, 8167, 8150,6.862017631530762
53, 8168, 8172, 8168, 8143, 8158, 8147, 8151, 8163, 8136, 8153, 8156, 8181, 8161, 8137,6.878021717071533
54, 8169, 8165, 8154, 8150, 8162, 8150, 8142, 8160, 8134, 8151, 8163, 8177, 8167, 8137,6.878021717071533
55, 8185, 8184, 8208, 8151, 8163, 8152, 8139, 8175, 8125, 8146, 8175, 8199, 8179, 8148,6.894116401672363
56, 8186, 8185, 8138, 8167, 8166, 8140, 8151, 8161, 8137, 8160, 8177, 8187, 8180, 8143,6.894116401672363
57, 8178, 8181, 8195, 8154, 8156, 8138, 8132, 8167, 8119, 8144, 8160, 8186, 8156, 8134,6.9101784229278564
58, 8178, 8188, 8180, 8157, 8157, 8150, 8131, 8166, 8112, 8140, 8168, 8189, 8154, 8136,6.9101784229278564
59, 8190, 8185, 8160, 8167, 8169, 8145, 8138, 8164, 8124, 8153, 8179, 8192, 8165, 8149,6.925773620605469
60, 8195, 8192, 8225, 8166, 8172, 8149, 8131, 8175, 8128, 8155, 8182, 8214, 8173, 8156,6.925773620605469
61, 8184, 8191, 8148, 8176, 8170, 8140, 8135, 8158, 8132, 8158, 8191, 8200, 8178, 8138,6.941379547119141
62, 8185, 8187, 8191, 8158, 8162, 8136, 8123, 8167, 8110, 8141, 8179, 8197, 8161, 8132,6.941379547119141
63, 8182, 8181, 8188, 8149, 8165, 8146, 8126, 8168, 8107, 8138, 8172, 8196, 8159, 8136,6.956943035125732
64, 8175, 8170, 8148, 8146, 8164, 8134, 8129, 8157, 8112, 8133, 8166, 8178, 8160, 8128,6.956943035125732
65, 8171, 8184, 8209, 8138, 8154, 8135, 8119, 8171, 8100, 8116, 8150, 8179, 8143, 8119,6.972109079360962
66, 8160, 8180, 8140, 8153, 8161, 8144, 8135, 8166, 8101, 8135, 8149, 8164, 8142, 8111,6.972109079360962
67, 8161, 8173, 8177, 8148, 8164, 8151, 8140, 8178, 8098, 8143, 8148, 8178, 8148, 8120,6.987633943557739
68, 8169, 8186, 8192, 8163, 8168, 8160, 8145, 8182, 8124, 8155, 8162, 8199, 8162, 8133,6.987633943557739
69, 8174, 8185, 8152, 8189, 8177, 8149, 8141, 8166, 8147, 8166, 8171, 8184, 8164, 8129,7.003537178039551
70, 8164, 8181, 8210, 8174, 8172, 8151, 8127, 8170, 8122, 8154, 8156, 8185, 8150, 8124,7.003537178039551
71, 8145, 8170, 8136, 8169, 8167, 8157, 8144, 8161, 8118, 8163, 8151, 8167, 8148, 8117,7.019273996353149
72, 8152, 8171, 8173, 8170, 8161, 8157, 8150, 8169, 8122, 8158, 8149, 8165, 8141, 8125,7.019273996353149
73, 8163, 8186, 8199, 8192, 8169, 8173, 8161, 8176, 8136, 8165, 8159, 8180, 8144, 8137,7.034213542938232
74, 8154, 8178, 8133, 8205, 8184, 8179, 8177, 8164, 8142, 8181, 8163, 8166, 8150, 8129,7.034213542938232
75, 8147, 8176, 8196, 8188, 8180, 8184, 8168, 8174, 8127, 8170, 8145, 8165, 8133, 8123,7.049665927886963
76, 8152, 8177, 8147, 8197, 8182, 8182, 8167, 8163, 8133, 8177, 8152, 8156, 8134, 8125,7.049665927886963
77, 8167, 8180, 8166, 8199, 8178, 8172, 8156, 8163, 8102, 8170, 8160, 8168, 8141, 8139,7.0651023387908936
78, 8161, 8182, 8185, 8191, 8170, 8172, 8149, 8170, 8062, 8153, 8149, 8175, 8136, 8140,7.0651023387908936
79, 8142, 8156, 8112, 8176, 8161, 8160, 8149, 8157, 8068, 8151, 8135, 8147, 8127, 8124,7.080203056335449
80, 8137, 8143, 8178, 8141, 8144, 8163, 8146, 8168, 8085, 8150, 8126, 8153, 8121, 8127,7.080203056335449
81, 8135, 8143, 8135, 8148, 8145, 8165, 8167, 8163, 8116, 8170, 8128, 8142, 8126, 8125,7.095446825027466
82, 8145, 8149, 8150, 8165, 8156, 8162, 8170, 8171, 8119, 8165, 8125, 8135, 8121, 8123,7.112008094787598
83, 8153, 8162, 8188, 8168, 8167, 8185, 8169, 8179, 8109, 8161, 8132, 8157, 8123, 8132,7.1123716831207275
84, 8143, 8149, 8107, 8161, 8164, 8180, 8169, 8160, 8116, 8177, 8141, 8150, 8133, 8129,7.127410888671875
85, 8150, 8152, 8178, 8149, 8154, 8163, 8145, 8171, 8109, 8163, 8139, 8165, 8128, 8135,7.127410888671875
86, 8164, 8165, 8159, 8180, 8173, 8170, 8153, 8168, 8122, 8170, 8148, 8176, 8139, 8146,7.127410888671875
87, 8173, 8163, 8158, 8185, 8180, 8173, 8159, 8167, 8130, 8174, 8151, 8179, 8165, 8149,7.143492698669434
88, 8179, 8170, 8204, 8170, 8175, 8179, 8156, 8178, 8133, 8176, 8159, 8192, 8192, 8152,7.143492698669434
89, 8187, 8174, 8140, 8189, 8187, 8172, 8164, 8171, 8157, 8199, 8182, 8191, 8215, 8157,7.15926194190979
90, 8200, 8186, 8210, 8188, 8191, 8167, 8152, 8184, 8153, 8189, 8183, 8214, 8216, 8169,7.15926194190979
91, 8185, 8177, 8178, 8176, 8174, 8163, 8147, 8171, 8134, 8180, 8173, 8200, 8209, 8160,7.175280332565308
92, 8164, 8149, 8144, 8149, 8156, 8146, 8143, 8157, 8108, 8166, 8154, 8164, 8189, 8138,7.175280332565308
93, 8172, 8157, 8197, 8138, 8162, 8155, 8149, 8168, 8106, 8152, 8152, 8175, 8182, 8129,7.191076040267944
94, 8185, 8168, 8141, 8169, 8181, 8163, 8164, 8162, 8133, 8165, 8174, 8180, 8198, 8138,7.191076040267944
95, 8195, 8179, 8203, 8175, 8182, 8166, 8154, 8175, 8128, 8159, 8181, 8199, 8198, 8154,7.2069478034973145
96, 8191, 8192, 8180, 8178, 8188, 8173, 8159, 8174, 8134, 8168, 8194, 8205, 8206, 8147,7.2069478034973145
97, 8188, 8189, 8154, 8181, 8196, 8166, 8160, 8165, 8129, 8178, 8186, 8190, 8202, 8134,7.222017526626587
98, 8175, 8184, 8217, 8180, 8188, 8161, 8147, 8173, 8100, 8153, 8150, 8180, 8175, 8124,7.222017526626587
99, 8150, 8167, 8136, 8186, 8176, 8155, 8145, 8160, 8106, 8144, 8141, 8152, 8170, 8106,7.238041639328003
100, 8157, 8172, 8184, 8171, 8172, 8160, 8138, 8172, 8112, 8149, 8158, 8166, 8170, 8114,7.238041639328003
101, 8170, 8187, 8186, 8182, 8190, 8179, 8149, 8171, 8111, 8158, 8169, 8176, 8157, 8121,7.254324436187744
102, 8159, 8177, 8147, 8189, 8196, 8179, 8153, 8153, 8097, 8148, 8150, 8151, 8138, 8108,7.269415616989136
103, 8152, 8175, 8219, 8175, 8178, 8180, 8147, 8164, 8094, 8150, 8144, 8159, 8144, 8115,7.269415616989136
104, 8167, 8177, 8160, 8205, 8189, 8189, 8170, 8165, 8133, 8189, 8173, 8161, 8176, 8133,7.285953760147095
105, 8187, 8185, 8196, 8220, 8203, 8196, 8171, 8171, 8130, 8180, 8169, 8167, 8172, 8143,7.285953760147095
106, 8181, 8186, 8194, 8208, 8192, 8197, 8170, 8167, 8125, 8174, 8153, 8167, 8161, 8145,7.285953760147095
107, 8178, 8166, 8142, 8197, 8179, 8178, 8177, 8158, 8140, 8192, 8155, 8155, 8165, 8146,7.302353620529175
108, 8187, 8166, 8217, 8186, 8182, 8181, 8167, 8177, 8132, 8188, 8161, 8172, 8167, 8150,7.302353620529175
109, 8181, 8167, 8161, 8187, 8194, 8185, 8181, 8171, 8142, 8192, 8167, 8166, 8180, 8149,7.317097902297974
110, 8171, 8159, 8177, 8165, 8181, 8170, 8177, 8171, 8150, 8170, 8154, 8161, 8175, 8149,7.317097902297974
111, 8165, 8159, 8188, 8162, 8170, 8162, 8166, 8170, 8165, 8161, 8146, 8162, 8164, 8139,7.3322179317474365
112, 8168, 8153, 8135, 8172, 8167, 8147, 8161, 8163, 8185, 8182, 8158, 8157, 8174, 8131,7.3322179317474365
113, 8189, 8167, 8212, 8162, 8163, 8155, 8151, 8183, 8186, 8186, 8176, 8191, 8189, 8147,7.348353385925293
114, 8204, 8180, 8172, 8183, 8179, 8163, 8159, 8172, 8203, 8196, 8200, 8195, 8205, 8158,7.349353313446045
115, 8211, 8187, 8195, 8191, 8186, 8153, 8159, 8169, 8203, 8186, 8203, 8191, 8202, 8162,7.363196849822998
116, 8209, 8200, 8218, 8193, 8188, 8169, 8172, 8175, 8196, 8185, 8207, 8203, 8197, 8164,7.363196849822998
117, 8203, 8198, 8157, 8208, 8200, 8175, 8179, 8165, 8193, 8199, 8217, 8196, 8202, 8159,7.378311395645142
118, 8201, 8207, 8230, 8203, 8200, 8174, 8159, 8179, 8174, 8179, 8200, 8197, 8190, 8163,7.393949270248413
119, 8184, 8203, 8174, 8199, 8193, 8172, 8162, 8169, 8193, 8172, 8184, 8175, 8179, 8151,7.393949270248413
120, 8179, 8190, 8169, 8175, 8181, 8157, 8157, 8162, 8198, 8167, 8178, 8172, 8174, 8135,7.409035682678223
121, 8192, 8206, 8221, 8186, 8190, 8167, 8153, 8166, 8179, 8167, 8185, 8199, 8184, 8140,7.409035682678223
122, 8203, 8222, 8171, 8237, 8214, 8174, 8166, 8161, 8182, 8174, 8198, 8194, 8197, 8150,7.425153970718384
123, 8212, 8230, 8234, 8231, 8217, 8178, 8167, 8180, 8182, 8160, 8187, 8203, 8193, 8152,7.425153970718384
124, 8196, 8220, 8187, 8212, 8223, 8181, 8179, 8172, 8193, 8167, 8184, 8194, 8197, 8145,7.440311670303345
125, 8176, 8206, 8174, 8202, 8213, 8171, 8178, 8168, 8181, 8167, 8180, 8171, 8188, 8143,7.440311670303345
126, 8181, 8209, 8221, 8203, 8187, 8172, 8170, 8178, 8172, 8161, 8171, 8172, 8178, 8138,7.4563891887664795
127, 8192, 8209, 8153, 8223, 8198, 8171, 8178, 8166, 8197, 8179, 8180, 8167, 8190, 8128,7.4563891887664795
236, 8194, 8219, 8218, 8214, 8217, 8172, 8164, 8177, 8181, 8175, 8184, 8188, 8186, 8138,7.471644639968872
0, 8182, 8211, 8191, 8204, 8207, 8173, 8159, 8169, 8148, 8168, 8185, 8190, 8181, 8136,7.471644639968872
1, 8187, 8186, 8169, 8197, 8185, 8166, 8158, 8158, 8130, 8155, 8180, 8177, 8171, 8122,7.487291574478149
2, 8192, 8201, 8229, 8205, 8192, 8180, 8161, 8167, 8136, 8142, 8174, 8183, 8153, 8119,7.487291574478149
3, 8175, 8203, 8155, 8223, 8201, 8177, 8173, 8156, 8163, 8154, 8174, 8165, 8151, 8110,7.503463506698608
4, 8178, 8197, 8203, 8204, 8190, 8178, 8167, 8171, 8169, 8158, 8177, 8174, 8161, 8119,7.503463506698608
5, 8187, 8203, 8191, 8215, 8195, 8190, 8176, 8176, 8181, 8163, 8196, 8181, 8174, 8129,7.519448757171631
6, 8185, 8201, 8167, 8236, 8200, 8178, 8173, 8168, 8176, 8153, 8190, 8167, 8169, 8122,7.519448757171631
7, 8189, 8204, 8236, 8233, 8196, 8178, 8157, 8176, 8160, 8150, 8172, 8184, 8163, 8130,7.53437614440918
8, 8186, 8195, 8170, 8239, 8196, 8177, 8170, 8162, 8162, 8174, 8182, 8180, 8173, 8142,7.53437614440918
9, 8191, 8194, 8215, 8233, 8189, 8178, 8181, 8167, 8141, 8163, 8192, 8194, 8175, 8151,7.549976348876953
10, 8199, 8204, 8211, 8247, 8197, 8193, 8206, 8177, 8156, 8172, 8208, 8207, 8188, 8159,7.549976348876953
11, 8206, 8205, 8179, 8272, 8213, 8188, 8215, 8176, 8179, 8198, 8221, 8203, 8199, 8169,7.565141677856445
12, 8202, 8208, 8246, 8271, 8205, 8190, 8193, 8180, 8162, 8182, 8211, 8216, 8186, 8175,7.565141677856445
13, 8196, 8203, 8173, 8271, 8196, 8194, 8191, 8164, 8173, 8174, 8198, 8195, 8181, 8165,7.581186532974243
14, 8214, 8209, 8214, 8258, 8193, 8189, 8183, 8176, 8186, 8186, 8197, 8195, 8185, 8166,7.581186532974243
15, 8220, 8221, 8230, 8274, 8202, 8188, 8178, 8180, 8191, 8200, 8214, 8205, 8191, 8169,7.59619927406311
16, 8204, 8215, 8171, 8285, 8213, 8179, 8185, 8165, 8190, 8192, 8209, 8183, 8187, 8166,7.59619927406311
17, 8198, 8210, 8227, 8258, 8208, 8181, 8188, 8176, 8179, 8184, 8195, 8183, 8180, 8173,7.6122517585754395
18, 8184, 8196, 8160, 8245, 8201, 8183, 8196, 8167, 8178, 8206, 8204, 8167, 8185, 8164,7.6122517585754395
19, 8168, 8185, 8177, 8221, 8184, 8178, 8179, 8167, 8157, 8186, 8182, 8151, 8168, 8145,7.627490282058716
20, 8169, 8190, 8197, 8221, 8187, 8185, 8187, 8171, 8159, 8182, 8165, 8149, 8159, 8142,7.627490282058716
21, 8185, 8181, 8144, 8227, 8197, 8179, 8204, 8164, 8185, 8204, 8178, 8144, 8177, 8155,7.643085241317749
22, 8193, 8183, 8217, 8206, 8187, 8176, 8187, 8183, 8178, 8182, 8172, 8165, 8178, 8169,7.643085241317749
23, 8186, 8188, 8165, 8221, 8198, 8181, 8190, 8177, 8183, 8187, 8163, 8158, 8176, 8162,7.658790349960327
24, 8186, 8188, 8170, 8216, 8210, 8188, 8189, 8176, 8198, 8210, 8162, 8154, 8170, 8158,7.658790349960327
25, 8178, 8184, 8191, 8185, 8195, 8195, 8191, 8180, 8202, 8207, 8158, 8154, 8162, 8159,7.674375534057617
26, 8167, 8161, 8127, 8177, 8183, 8178, 8204, 8167, 8193, 8192, 8136, 8126, 8153, 8151,7.674375534057617
27, 8180, 8169, 8203, 8174, 8188, 8178, 8206, 8180, 8185, 8184, 8124, 8136, 8144, 8160,7.689981698989868
28, 8185, 8176, 8159, 8184, 8198, 8194, 8224, 8175, 8213, 8197, 8144, 8136, 8152, 8164,7.689981698989868
29, 8177, 8160, 8158, 8173, 8189, 8186, 8224, 8179, 8211, 8191, 8138, 8124, 8149, 8155,7.7050933837890625
30, 8181, 8166, 8200, 8168, 8190, 8190, 8224, 8189, 8213, 8193, 8128, 8134, 8154, 8155,7.7050933837890625
31, 8198, 8170, 8138, 8179, 8203, 8199, 8232, 8175, 8247, 8213, 8150, 8131, 8167, 8166,7.72112774848938
32, 8200, 8175, 8202, 8165, 8202, 8193, 8211, 8183, 8231, 8194, 8145, 8136, 8155, 8166,7.72112774848938
33, 8175, 8166, 8156, 8165, 8196, 8170, 8201, 8176, 8211, 8185, 8128, 8121, 8153, 8146,7.736966371536255
34, 8177, 8148, 8145, 8154, 8183, 8154, 8199, 8172, 8220, 8192, 8137, 8120, 8161, 8152,7.736966371536255
35, 8198, 8159, 8204, 8147, 8184, 8171, 8196, 8179, 8222, 8193, 8144, 8140, 8161, 8170,7.752472639083862
36, 8190, 8162, 8138, 8163, 8197, 8167, 8194, 8172, 8218, 8195, 8138, 8124, 8166, 8160,7.752472639083862
37, 8182, 8158, 8189, 8145, 8189, 8164, 8184, 8185, 8213, 8176, 8132, 8125, 8167, 8154,7.768200159072876
38, 8179, 8158, 8161, 8139, 8189, 8178, 8195, 8175, 8231, 8184, 8139, 8114, 8170, 8151,7.768200159072876
39, 8183, 8168, 8149, 8149, 8192, 8164, 8193, 8170, 8224, 8192, 8146, 8111, 8174, 8151,7.784310340881348
40, 8190, 8185, 8206, 8149, 8181, 8154, 8180, 8182, 8196, 8175, 8156, 8144, 8176, 8154,7.784310340881348
41, 8180, 8166, 8137, 8152, 8179, 8150, 8183, 8161, 8193, 8163, 8150, 8125, 8167, 8134,7.800406455993652
42, 8182, 8172, 8201, 8153, 8190, 8161, 8179, 8169, 8179, 8150, 8133, 8124, 8155, 8132,7.800406455993652
43, 8198, 8200, 8193, 8174, 8202, 8178, 8195, 8174, 8193, 8182, 8169, 8155, 8190, 8154,7.816067695617676
44, 8201, 8193, 8160, 8170, 8195, 8168, 8187, 8168, 8204, 8202, 8195, 8163, 8208, 8154,7.816067695617676
45, 8187, 8188, 8222, 8156, 8195, 8172, 8164, 8178, 8181, 8168, 8173, 8157, 8178, 8135,7.831112861633301
46, 8169, 8186, 8152, 8169, 8210, 8174, 8183, 8162, 8173, 8157, 8163, 8129, 8169, 8118,7.831112861633301
47, 8162, 8183, 8190, 8156, 8198, 8163, 8177, 8162, 8156, 8155, 8159, 8125, 8165, 8118,7.846323490142822
48, 8152, 8181, 8185, 8152, 8188, 8155, 8166, 8170, 8165, 8171, 8168, 8131, 8165, 8121,7.846323490142822
49, 8151, 8176, 8143, 8159, 8192, 8147, 8173, 8170, 8183, 8187, 8183, 8130, 8174, 8121,7.8624067306518555
50, 8159, 8188, 8215, 8157, 8186, 8164, 8174, 8179, 8174, 8176, 8179, 8137, 8166, 8121,7.8624067306518555
51, 8154, 8184, 8153, 8172, 8184, 8169, 8167, 8169, 8175, 8177, 8164, 8111, 8152, 8111,7.878396272659302
52, 8154, 8175, 8180, 8165, 8184, 8165, 8151, 8179, 8165, 8166, 8148, 8116, 8145, 8117,7.878396272659302
53, 8158, 8177, 8189, 8157, 8188, 8183, 8175, 8185, 8171, 8174, 8157, 8139, 8157, 8130,7.894011497497559
54, 8167, 8181, 8147, 8177, 8194, 8184, 8195, 8175, 8182, 8183, 8167, 8135, 8164, 8139,7.894011497497559
55, 8177, 8197, 8221, 8192, 8192, 8185, 8175, 8181, 8170, 8159, 8157, 8148, 8156, 8144,7.910046577453613
56, 8176, 8190, 8164, 8201, 8201, 8194, 8184, 8167, 8182, 8168, 8167, 8142, 8164, 8137,7.910046577453613
57, 8187, 8184, 8193, 8190, 8207, 8189, 8196, 8177, 8189, 8188, 8181, 8150, 8172, 8152,7.925252676010132
58, 8184, 8191, 8213, 8198, 8206, 8193, 8200, 8186, 8204, 8202, 8188, 8159, 8180, 8167,7.925252676010132
59, 8163, 8174, 8141, 8196, 8202, 8196, 8203, 8167, 8221, 8207, 8181, 8132, 8178, 8150,7.941287040710449
60, 8158, 8168, 8198, 8164, 8194, 8195, 8195, 8175, 8208, 8186, 8161, 8131, 8161, 8137,7.941287040710449
61, 8156, 8171, 8149, 8179, 8196, 8182, 8197, 8171, 8213, 8183, 8156, 8122, 8159, 8138,7.956801414489746
62, 8153, 8162, 8169, 8173, 8184, 8168, 8177, 8170, 8194, 8169, 8151, 8117, 8153, 8140,7.956801414489746
63, 8153, 8160, 8198, 8151, 8170, 8173, 8169, 8175, 8176, 8157, 8152, 8125, 8151, 8136,7.97195839881897
64, 8154, 8154, 8131, 8159, 8163, 8163, 8186, 8167, 8190, 8164, 8154, 8117, 8158, 8136,7.97195839881897
65, 8157, 8157, 8201, 8144, 8155, 8161, 8170, 8181, 8188, 8159, 8139, 8127, 8146, 8137,7.987492084503174
66, 8160, 8157, 8158, 8144, 8168, 8162, 8169, 8175, 8199, 8173, 8148, 8126, 8153, 8134,7.987492084503174
67, 8172, 8159, 8158, 8148, 8178, 8153, 8173, 8175, 8201, 8174, 8161, 8138, 8166, 8151,8.003029346466064
68, 8173, 8168, 8206, 8140, 8174, 8157, 8167, 8176, 8184, 8163, 8162, 8155, 8162, 8160,8.003029346466064
69, 8166, 8158, 8142, 8143, 8171, 8146, 8159, 8157, 8179, 8163, 8161, 8135, 8159, 8142,8.01905369758606
70, 8183, 8168, 8210, 8145, 8166, 8147, 8149, 8175, 8173, 8145, 8162, 8155, 8163, 8148,8.01905369758606
71, 8190, 8179, 8181, 8161, 8175, 8163, 8165, 8179, 8188, 8154, 8180, 8172, 8177, 8158,8.043325424194336
72, 8187, 8178, 8173, 8157, 8176, 8153, 8153, 8171, 8181, 8162, 8186, 8167, 8174, 8150,8.043325424194336
73, 8194, 8201, 8229, 8158, 8171, 8149, 8133, 8176, 8164, 8157, 8188, 8180, 8167, 8151,8.043325424194336
74, 8196, 8197, 8159, 8171, 8184, 8150, 8150, 8164, 8179, 8175, 8202, 8169, 8176, 8144,8.050324440002441
75, 8193, 8191, 8212, 8157, 8193, 8164, 8153, 8172, 8162, 8163, 8188, 8177, 8169, 8142,8.067394733428955
76, 8184, 8201, 8188, 8168, 8193, 8171, 8155, 8169, 8147, 8150, 8177, 8174, 8164, 8146,8.067394733428955
77, 8179, 8190, 8164, 8173, 8180, 8152, 8152, 8167, 8141, 8139, 8170, 8146, 8150, 8140,8.082380056381226
78, 8171, 8179, 8213, 8159, 8173, 8156, 8154, 8182, 8135, 8127, 8153, 8140, 8128, 8127,8.097431659698486
79, 8147, 8172, 8134, 8172, 8176, 8164, 8173, 8173, 8145, 8138, 8145, 8126, 8126, 8119,8.097431659698486
80, 8139, 8171, 8183, 8168, 8159, 8170, 8164, 8184, 8141, 8142, 8132, 8131, 8124, 8125,8.097431659698486
81, 8145, 8166, 8172, 8175, 8154, 8181, 8168, 8182, 8159, 8159, 8133, 8130, 8126, 8130,8.113064527511597
82, 8150, 8158, 8135, 8185, 8170, 8181, 8174, 8166, 8173, 8168, 8137, 8125, 8130, 8144,8.113064527511597
83, 8156, 8171, 8200, 8179, 8184, 8188, 8177, 8178, 8174, 8172, 8143, 8146, 8142, 8163,8.127146005630493
84, 8161, 8168, 8140, 8185, 8182, 8181, 8187, 8171, 8203, 8197, 8159, 8138, 8160, 8156,8.127146005630493
85, 8169, 8157, 8186, 8172, 8158, 8165, 8163, 8174, 8204, 8187, 8162, 8147, 8158, 8153,8.144006490707397
86, 8165, 8155, 8183, 8169, 8164, 8170, 8162, 8174, 8201, 8194, 8178, 8160, 8166, 8161,8.144006490707397
87, 8176, 8160, 8141, 8169, 8183, 8175, 8177, 8172, 8210, 8208, 8199, 8163, 8186, 8167,8.15801215171814
88, 8186, 8183, 8214, 8158, 8174, 8179, 8158, 8180, 8192, 8173, 8201, 8184, 8180, 8159,8.173633337020874
89, 8168, 8179, 8151, 8177, 8176, 8170, 8147, 8160, 8169, 8158, 8197, 8159, 8159, 8131,8.173633337020874
90, 8166, 8169, 8184, 8184, 8187, 8166, 8154, 8170, 8155, 8168, 8183, 8145, 8144, 8131,8.189357042312622
91, 8168, 8173, 8202, 8184, 8190, 8181, 8176, 8182, 8178, 8186, 8176, 8152, 8159, 8146,8.189357042312622
92, 8160, 8164, 8150, 8177, 8182, 8181, 8190, 8173, 8201, 8199, 8172, 8137, 8175, 8146,8.205405235290527
93, 8158, 8161, 8206, 8162, 8177, 8189, 8185, 8183, 8195, 8190, 8163, 8138, 8171, 8145,8.205405235290527
94, 8147, 8143, 8132, 8158, 8175, 8183, 8177, 8163, 8190, 8184, 8157, 8131, 8171, 8135,8.22160530090332
95, 8151, 8138, 8162, 8126, 8158, 8157, 8153, 8159, 8161, 8157, 8148, 8147, 8171, 8134,8.22160530090332
96, 8175, 8169, 8207, 8132, 8159, 8163, 8161, 8169, 8149, 8151, 8159, 8168, 8181, 8139,8.23793911933899
97, 8187, 8177, 8160, 8169, 8178, 8168, 8168, 8162, 8158, 8161, 8181, 8158, 8186, 8136,8.23793911933899
98, 8186, 8179, 8230, 8157, 8179, 8167, 8144, 8173, 8152, 8154, 8181, 8175, 8168, 8145,8.23793911933899
99, 8187, 8186, 8180, 8166, 8185, 8171, 8162, 8172, 8180, 8178, 8188, 8178, 8176, 8159,8.25221848487854
100, 8194, 8193, 8197, 8193, 8193, 8171, 8170, 8178, 8194, 8183, 8188, 8182, 8183, 8164,8.26750373840332
101, 8188, 8196, 8229, 8203, 8198, 8179, 8158, 8182, 8191, 8178, 8183, 8188, 8171, 8160,8.26750373840332
102, 8174, 8177, 8157, 8194, 8198, 8177, 8171, 8169, 8203, 8195, 8186, 8158, 8175, 8155,8.28260588645935
103, 8163, 8171, 8221, 8172, 8184, 8180, 8176, 8178, 8193, 8188, 8175, 8153, 8183, 8153,8.28260588645935
104, 8147, 8166, 8176, 8179, 8183, 8190, 8197, 8172, 8209, 8196, 8172, 8146, 8186, 8146,8.300433158874512
105, 8141, 8151, 8164, 8166, 8183, 8189, 8212, 8176, 8233, 8214, 8170, 8139, 8180, 8141,8.300433158874512
106, 8136, 8148, 8202, 8151, 8176, 8195, 8211, 8188, 8242, 8229, 8169, 8145, 8183, 8138,8.313964605331421
107, 8139, 8143, 8148, 8166, 8171, 8183, 8200, 8171, 8243, 8232, 8175, 8137, 8190, 8132,8.313964605331421
108, 8164, 8157, 8219, 8151, 8162, 8169, 8176, 8170, 8213, 8201, 8171, 8164, 8185, 8147,8.329325437545776
109, 8175, 8168, 8183, 8149, 8167, 8165, 8183, 8162, 8205, 8200, 8178, 8174, 8192, 8156,8.329325437545776
110, 8186, 8167, 8177, 8165, 8168, 8167, 8187, 8168, 8207, 8196, 8187, 8174, 8193, 8160,8.34526252746582
111, 8201, 8182, 8243, 8169, 8167, 8182, 8183, 8184, 8201, 8175, 8198, 8201, 8192, 8166,8.34526252746582
112, 8194, 8175, 8173, 8163, 8171, 8168, 8178, 8162, 8205, 8179, 8200, 8192, 8194, 8155,8.361113548278809
113, 8193, 8178, 8229, 8152, 8172, 8158, 8155, 8171, 8193, 8177, 8192, 8198, 8183, 8155,8.361113548278809
114, 8197, 8198, 8210, 8174, 8187, 8168, 8154, 8172, 8186, 8180, 8202, 8204, 8189, 8160,8.376604795455933
115, 8193, 8200, 8184, 8181, 8195, 8160, 8146, 8157, 8165, 8167, 8196, 8187, 8187, 8154,8.376604795455933
116, 8190, 8207, 8244, 8185, 8199, 8176, 8141, 8168, 8155, 8160, 8190, 8191, 8167, 8144,8.392141580581665
117, 8184, 8202, 8177, 8213, 8214, 8197, 8172, 8168, 8187, 8193, 8208, 8182, 8177, 8139,8.392141580581665
118, 8169, 8187, 8220, 8200, 8216, 8203, 8191, 8179, 8194, 8211, 8199, 8180, 8186, 8152,8.408148050308228
119, 8144, 8167, 8195, 8182, 8216, 8206, 8209, 8173, 8210, 8230, 8189, 8162, 8181, 8145,8.408148050308228
120, 8136, 8148, 8146, 8169, 8205, 8187, 8211, 8166, 8228, 8226, 8183, 8141, 8175, 8127,8.424152374267578
121, 8141, 8156, 8208, 8148, 8184, 8175, 8203, 8182, 8222, 8196, 8167, 8159, 8173, 8136,8.424152374267578
122, 8148, 8157, 8151, 8150, 8184, 8169, 8213, 8175, 8243, 8210, 8182, 8161, 8187, 8140,8.439486980438232
123, 8165, 8163, 8203, 8145, 8185, 8162, 8195, 8182, 8242, 8211, 8201, 8182, 8193, 8136,8.439486980438232
124, 8171, 8174, 8212, 8157, 8188, 8159, 8183, 8174, 8228, 8196, 8209, 8199, 8199, 8142,8.455386877059937
125, 8178, 8178, 8179, 8171, 8196, 8149, 8184, 8162, 8214, 8195, 8210, 8189, 8197, 8153,8.455386877059937
126, 8190, 8193, 8254, 8166, 8194, 8157, 8172, 8179, 8191, 8181, 8196, 8194, 8176, 8151,8.47018814086914
127, 8177, 8182, 8187, 8184, 8193, 8165, 8176, 8167, 8189, 8174, 8179, 8171, 8161, 8139,8.47018814086914
236, 8171, 8170, 8212, 8179, 8190, 8172, 8176, 8168, 8176, 8166, 8164, 8169, 8151, 8153,8.48616337776184
0, 8173, 8172, 8222, 8169, 8190, 8181, 8185, 8172, 8179, 8177, 8155, 8171, 8153, 8164,8.48616337776184
1, 8167, 8157, 8161, 8166, 8187, 8172, 8192, 8163, 8192, 8189, 8148, 8148, 8155, 8153,8.501297950744629
2, 8165, 8161, 8224, 8161, 8183, 8181, 8188, 8174, 8192, 8189, 8154, 8164, 8151, 8161,8.501297950744629
3, 8159, 8161, 8165, 8176, 8192, 8184, 8203, 8165, 8213, 8212, 8172, 8161, 8165, 8164,8.516990900039673
4, 8154, 8146, 8182, 8157, 8186, 8165, 8189, 8171, 8214, 8202, 8162, 8154, 8166, 8150,8.516990900039673
5, 8156, 8151, 8207, 8136, 8178, 8169, 8176, 8177, 8212, 8193, 8166, 8171, 8169, 8147,8.532122135162354
6, 8158, 8154, 8153, 8144, 8181, 8164, 8175, 8166, 8216, 8209, 8188, 8174, 8182, 8150,8.532122135162354
7, 8165, 8165, 8235, 8147, 8184, 8162, 8165, 8178, 8202, 8198, 8192, 8187, 8183, 8145,8.547677993774414
8, 8165, 8175, 8194, 8170, 8189, 8169, 8186, 8169, 8218, 8202, 8202, 8183, 8192, 8133,8.547677993774414
9, 8168, 8177, 8193, 8164, 8182, 8164, 8185, 8170, 8213, 8202, 8194, 8179, 8180, 8134,8.563275575637817
10, 8158, 8174, 8215, 8141, 8182, 8163, 8164, 8176, 8191, 8182, 8168, 8168, 8157, 8126,8.563275575637817
11, 8143, 8160, 8154, 8147, 8190, 8154, 8162, 8158, 8189, 8173, 8164, 8146, 8154, 8113,8.57909631729126
12, 8157, 8176, 8236, 8162, 8183, 8161, 8157, 8172, 8184, 8179, 8173, 8173, 8155, 8131,8.57909631729126
13, 8163, 8188, 8201, 8189, 8185, 8178, 8160, 8170, 8195, 8204, 8172, 8170, 8159, 8135,8.594161748886108
14, 8152, 8176, 8187, 8182, 8184, 8175, 8154, 8165, 8186, 8198, 8152, 8150, 8149, 8126,8.594161748886108
15, 8141, 8171, 8224, 8173, 8183, 8184, 8159, 8176, 8175, 8190, 8153, 8161, 8156, 8129,8.610004901885986
16, 8146, 8168, 8163, 8189, 8196, 8194, 8186, 8168, 8195, 8211, 8173, 8155, 8181, 8134,8.610004901885986
17, 8158, 8178, 8227, 8185, 8192, 8195, 8191, 8176, 8195, 8202, 8166, 8165, 8177, 8142,8.625097513198853
18, 8148, 8175, 8183, 8194, 8180, 8190, 8200, 8172, 8200, 8208, 8159, 8161, 8175, 8140,8.625097513198853
19, 8148, 8164, 8168, 8198, 8185, 8187, 8207, 8174, 8198, 8211, 8160, 8157, 8182, 8139,8.640304803848267
20, 8162, 8181, 8229, 8198, 8196, 8199, 8205, 8182, 8192, 8200, 8157, 8168, 8181, 8153,8.640304803848267
21, 8156, 8173, 8154, 8204, 8188, 8181, 8204, 8164, 8201, 8208, 8153, 8147, 8175, 8152,8.656880378723145
22, 8139, 8146, 8198, 8173, 8164, 8169, 8187, 8172, 8191, 8191, 8138, 8149, 8164, 8142,8.656880378723145
23, 8116, 8134, 8164, 8159, 8166, 8184, 8193, 8173, 8197, 8190, 8138, 8146, 8166, 8130,8.671011209487915
24, 8118, 8140, 8133, 8162, 8178, 8180, 8198, 8168, 8202, 8199, 8133, 8130, 8162, 8130,8.686229944229126
25, 8139, 8159, 8203, 8162, 8179, 8183, 8192, 8174, 8195, 8197, 8122, 8140, 8158, 8139,8.686229944229126
26, 8145, 8154, 8140, 8169, 8178, 8181, 8198, 8162, 8207, 8201, 8138, 8137, 8169, 8137,8.703074932098389
27, 8152, 8151, 8190, 8159, 8167, 8174, 8182, 8173, 8202, 8192, 8151, 8157, 8168, 8144,8.703074932098389
28, 8152, 8153, 8180, 8160, 8164, 8178, 8180, 8172, 8205, 8212, 8162, 8171, 8177, 8149,8.703074932098389
29, 8138, 8135, 8139, 8143, 8159, 8159, 8173, 8159, 8201, 8207, 8155, 8152, 8179, 8137,8.717456579208374
30, 8141, 8150, 8208, 8127, 8155, 8153, 8160, 8173, 8185, 8168, 8144, 8156, 8166, 8129,8.733028173446655
31, 8162, 8168, 8154, 8159, 8171, 8155, 8175, 8167, 8197, 8180, 8164, 8163, 8177, 8136,8.733028173446655
32, 8168, 8159, 8193, 8148, 8161, 8152, 8161, 8172, 8186, 8188, 8169, 8181, 8182, 8141,8.748186349868774
33, 8142, 8145, 8188, 8124, 8147, 8156, 8152, 8170, 8178, 8183, 8161, 8173, 8173, 8129,8.748186349868774
34, 8140, 8147, 8150, 8143, 8162, 8152, 8158, 8161, 8186, 8184, 8167, 8158, 8172, 8131,8.763521194458008
35, 8174, 8180, 8235, 8168, 8174, 8157, 8156, 8174, 8187, 8183, 8185, 8193, 8183, 8156,8.763521194458008
36, 8176, 8181, 8172, 8182, 8172, 8162, 8165, 8161, 8200, 8194, 8194, 8191, 8196, 8156,8.779251337051392
37, 8160, 8164, 8194, 8161, 8160, 8160, 8162, 8167, 8189, 8184, 8181, 8186, 8184, 8146,8.779251337051392
38, 8158, 8169, 8207, 8159, 8166, 8172, 8171, 8177, 8193, 8192, 8189, 8199, 8180, 8144,8.79532265663147
39, 8160, 8168, 8157, 8167, 8172, 8167, 8178, 8167, 8204, 8201, 8195, 8184, 8185, 8139,8.79532265663147
40, 8160, 8174, 8234, 8155, 8161, 8159, 8160, 8174, 8179, 8176, 8170, 8187, 8177, 8141,8.81041693687439
41, 8161, 8173, 8176, 8175, 8166, 8155, 8162, 8163, 8195, 8190, 8173, 8183, 8186, 8140,8.81041693687439
42, 8168, 8174, 8181, 8170, 8169, 8157, 8162, 8168, 8213, 8200, 8185, 8187, 8191, 8141,8.826053142547607
43, 8160, 8178, 8203, 8156, 8165, 8168, 8156, 8174, 8200, 8184, 8180, 8190, 8187, 8137,8.826053142547607
44, 8156, 8168, 8155, 8165, 8165, 8161, 8150, 8164, 8183, 8180, 8180, 8178, 8186, 8131,8.842128992080688
45, 8167, 8181, 8234, 8161, 8170, 8164, 8135, 8175, 8172, 8177, 8185, 8199, 8182, 8145,8.842128992080688
46, 8155, 8185, 8181, 8168, 8174, 8161, 8144, 8162, 8180, 8180, 8184, 8181, 8178, 8139,8.857714653015137
47, 8150, 8167, 8185, 8158, 8161, 8138, 8138, 8162, 8156, 8152, 8163, 8159, 8157, 8123,8.857714653015137
48, 8163, 8172, 8220, 8151, 8158, 8143, 8138, 8173, 8136, 8130, 8158, 8175, 8148, 8128,8.873390197753906
49, 8164, 8179, 8154, 8169, 8169, 8159, 8155, 8158, 8152, 8152, 8168, 8167, 8160, 8131,8.873390197753906
50, 8160, 8176, 8222, 8162, 8163, 8171, 8153, 8167, 8145, 8152, 8155, 8170, 8152, 8126,8.88945746421814
51, 8147, 8159, 8177, 8154, 8158, 8166, 8162, 8165, 8140, 8144, 8143, 8159, 8138, 8115,8.88945746421814
52, 8141, 8151, 8168, 8149, 8157, 8150, 8154, 8163, 8134, 8135, 8134, 8146, 8127, 8117,8.90506887435913
53, 8149, 8168, 8215, 8165, 8164, 8168, 8148, 8170, 8147, 8150, 8146, 8157, 8133, 8131,8.90506887435913
54, 8157, 8172, 8154, 8189, 8181, 8177, 8164, 8162, 8172, 8177, 8168, 8154, 8152, 8135,8.920222043991089
55, 8164, 8181, 8224, 8185, 8182, 8175, 8163, 8177, 8160, 8164, 8160, 8164, 8152, 8144,8.920222043991089
56, 8164, 8184, 8196, 8202, 8182, 8175, 8171, 8172, 8167, 8174, 8162, 8162, 8162, 8155,8.935350894927979
57, 8165, 8178, 8175, 8201, 8180, 8169, 8165, 8166, 8174, 8187, 8170, 8166, 8167, 8161,8.935350894927979
58, 8164, 8185, 8225, 8186, 8179, 8173, 8155, 8177, 8165, 8181, 8170, 8187, 8160, 8156,8.951310873031616
59, 8155, 8173, 8159, 8197, 8184, 8173, 8166, 8163, 8173, 8188, 8170, 8169, 8162, 8143,8.951310873031616
60, 8155, 8167, 8211, 8179, 8171, 8173, 8155, 8171, 8158, 8173, 8148, 8164, 8147, 8147,8.966476678848267
61, 8150, 8171, 8187, 8174, 8167, 8170, 8152, 8169, 8153, 8167, 8135, 8159, 8140, 8148,8.966476678848267
62, 8159, 8165, 8166, 8188, 8173, 8161, 8157, 8165, 8157, 8173, 8150, 8162, 8155, 8148,8.982125043869019
