COUNTER,F3, FC5,AF3,F7,T7,P7,O1,O2,P8,T8,F8,AF4,FC6,F4,Timestamp,yes_event
125,8126,8157,8098,8112,8095,8156,8193,8130,8201,8163,8152,8140,8162,8259,0.0036730766296386,False
126,8133,8188,8178,8118,8177,8144,8180,8155,8187,8159,8145,8155,8144,8231,0.0116703510284423,False
127,8152,8195,8207,8143,8160,8152,8197,8173,8196,8159,8147,8167,8142,8233,0.0196959972381591,False
237,8123,8156,8078,8136,8075,8146,8219,8154,8218,8169,8156,8140,8164,8251,0.0265953540802001,False
0,8117,8169,8079,8133,8101,8147,8217,8160,8220,8173,8160,8138,8162,8252,0.0348010063171386,False
1,8153,8217,8173,8158,8183,8165,8226,8175,8221,8169,8165,8165,8165,8261,0.042722463607788,False
2,8205,8266,8341,8171,8294,8171,8217,8207,8210,8162,8159,8219,8160,8261,0.0509052276611328,False
3,8176,8222,8231,8155,8176,8166,8221,8178,8219,8175,8176,8184,8166,8253,0.0587399005889892,False
4,8133,8188,8060,8158,8084,8174,8242,8140,8239,8182,8198,8136,8183,8262,0.0667285919189453,False
5,8165,8222,8120,8175,8149,8185,8236,8158,8236,8172,8188,8167,8185,8279,0.0745630264282226,False
6,8194,8234,8182,8166,8200,8173,8214,8167,8226,8171,8166,8172,8174,8268,0.0827875137329101,False
7,8206,8248,8292,8148,8286,8169,8200,8195,8217,8165,8143,8185,8144,8249,0.0906462669372558,False
8,8168,8198,8206,8131,8178,8167,8212,8178,8218,8151,8130,8168,8133,8250,0.0987417697906494,False
9,8098,8127,8011,8110,8052,8146,8213,8121,8220,8141,8114,8107,8131,8226,0.1057076454162597,False
10,8092,8142,8067,8098,8118,8131,8188,8134,8214,8136,8098,8106,8106,8190,0.1138837337493896,False
11,8107,8165,8148,8094,8145,8124,8169,8154,8207,8136,8101,8133,8094,8200,0.1217520236968994,False
12,8126,8188,8218,8105,8181,8120,8158,8168,8193,8131,8107,8165,8104,8229,0.1296682357788086,False
13,8145,8205,8239,8133,8195,8125,8168,8183,8199,8139,8130,8177,8132,8246,0.1378779411315918,False
14,8130,8182,8137,8141,8139,8131,8184,8157,8224,8155,8144,8148,8150,8250,0.1459550857543945,False
15,8110,8153,8064,8127,8103,8134,8185,8121,8223,8156,8135,8129,8148,8235,0.1537935733795166,False
16,8125,8182,8116,8139,8137,8133,8178,8135,8214,8152,8142,8148,8150,8226,0.1609337329864502,False
17,8169,8237,8249,8168,8219,8125,8151,8178,8206,8152,8145,8188,8144,8239,0.1698908805847168,False
18,8171,8202,8146,8175,8135,8109,8136,8140,8207,8162,8156,8166,8157,8266,0.17698335647583,False
19,8184,8206,8139,8174,8169,8114,8136,8131,8208,8171,8172,8169,8175,8281,0.1847107410430908,False
20,8240,8283,8413,8188,8334,8144,8131,8218,8200,8167,8163,8250,8163,8280,0.192903995513916,False
21,8195,8219,8243,8180,8169,8147,8160,8183,8226,8181,8172,8204,8177,8287,0.2008171081542968,False
22,8123,8142,7963,8148,8044,8123,8183,8103,8238,8197,8172,8115,8192,8288,0.2088291645050048,False
23,8131,8175,8098,8123,8162,8113,8169,8140,8203,8186,8136,8137,8158,8259,0.216700792312622,False
24,8128,8170,8183,8105,8171,8119,8166,8175,8200,8173,8117,8157,8137,8224,0.2249374389648437,False
25,8123,8139,8126,8103,8135,8126,8168,8163,8224,8178,8125,8152,8148,8229,0.2316823005676269,False
26,8151,8152,8151,8113,8166,8126,8156,8156,8212,8188,8120,8154,8130,8245,0.239764928817749,False
27,8169,8184,8220,8132,8193,8124,8149,8169,8187,8197,8118,8165,8107,8233,0.2478344440460205,False
28,8149,8170,8148,8142,8119,8131,8166,8159,8209,8224,8158,8163,8147,8242,0.2556781768798828,False
29,8160,8176,8128,8158,8130,8145,8168,8144,8234,8248,8189,8173,8183,8270,0.2638909816741943,False
30,8216,8228,8248,8190,8216,8155,8151,8167,8213,8243,8182,8207,8173,8276,0.2719404697418213,False
31,8197,8197,8150,8178,8128,8147,8167,8154,8215,8242,8180,8173,8190,8282,0.2798423767089844,False
32,8182,8192,8179,8154,8180,8145,8156,8154,8217,8246,8164,8175,8189,8288,0.2880141735076904,False
33,8217,8234,8326,8178,8254,8149,8117,8176,8189,8242,8151,8222,8165,8292,0.2948429584503174,False
34,8182,8200,8147,8203,8115,8137,8129,8124,8190,8251,8169,8178,8190,8297,0.3031477928161621,False
35,8137,8182,8098,8182,8141,8116,8140,8111,8189,8247,8132,8145,8174,8261,0.3107457160949707,False
36,8140,8181,8168,8168,8168,8107,8136,8142,8188,8236,8093,8149,8129,8233,0.3189294338226318,False
37,8175,8197,8187,8191,8163,8128,8147,8156,8206,8247,8122,8167,8139,8251,0.3266975879669189,False
38,8187,8225,8246,8205,8229,8150,8157,8176,8222,8255,8147,8190,8161,8260,0.3348288536071777,False
39,8132,8198,8163,8190,8184,8146,8160,8164,8234,8241,8142,8158,8164,8251,0.3427255153656006,False
40,8117,8179,8112,8169,8154,8147,8156,8159,8232,8232,8128,8142,8150,8246,0.3510055541992187,False
41,8147,8187,8126,8169,8148,8152,8162,8162,8222,8238,8129,8152,8142,8248,0.3588576316833496,False
42,8152,8204,8174,8168,8186,8149,8166,8176,8226,8238,8133,8166,8148,8252,0.3659203052520752,False
43,8155,8198,8194,8163,8192,8153,8166,8184,8245,8245,8146,8180,8173,8273,0.3738479614257812,False
44,8183,8182,8138,8170,8164,8157,8170,8155,8246,8252,8158,8171,8195,8302,0.3816840648651123,False
45,8234,8236,8332,8169,8309,8172,8159,8206,8218,8234,8136,8221,8167,8302,0.3898861408233642,False
46,8200,8211,8314,8150,8221,8181,8178,8219,8234,8231,8127,8208,8154,8285,0.3979346752166748,False
47,8118,8127,8011,8142,8019,8159,8215,8131,8281,8250,8134,8112,8171,8271,0.4058701992034912,False
48,8151,8149,8065,8157,8113,8156,8203,8131,8280,8253,8130,8129,8164,8270,0.4139199256896972,False
49,8181,8162,8179,8153,8166,8170,8185,8167,8264,8242,8118,8164,8147,8276,0.420778751373291,False
50,8130,8139,8147,8129,8142,8169,8185,8155,8252,8222,8089,8145,8118,8253,0.4290103912353515,False
51,8103,8136,8154,8117,8159,8157,8172,8141,8235,8205,8067,8135,8087,8225,0.4367496967315674,False
52,8115,8129,8153,8110,8144,8156,8163,8144,8238,8214,8073,8126,8089,8220,0.4449403285980224,False
53,8118,8123,8123,8114,8124,8167,8168,8153,8251,8223,8088,8123,8100,8221,0.4529497623443603,False
54,8119,8140,8122,8142,8134,8170,8163,8148,8258,8219,8110,8140,8108,8231,0.4608573913574219,False
55,8159,8179,8233,8166,8199,8170,8140,8166,8248,8219,8115,8179,8113,8248,0.4689316749572754,True
56,8159,8155,8161,8155,8124,8171,8152,8164,8256,8234,8125,8160,8140,8270,0.476907730102539,True
57,8143,8155,8088,8154,8114,8178,8178,8159,8281,8244,8149,8146,8173,8290,0.484849214553833,True
58,8203,8232,8322,8182,8278,8189,8158,8219,8270,8235,8147,8221,8169,8301,0.4918930530548095,True
59,8198,8199,8255,8186,8178,8182,8158,8204,8270,8238,8158,8205,8185,8312,0.4998700618743896,True
60,8131,8143,8021,8171,8067,8164,8181,8144,8293,8239,8171,8132,8206,8307,0.5076684951782227,True
61,8139,8179,8105,8174,8169,8151,8174,8165,8291,8228,8147,8144,8183,8285,0.5158629417419434,True
62,8147,8179,8177,8165,8193,8151,8158,8179,8269,8220,8119,8161,8153,8264,0.5238986015319824,True
63,8125,8156,8166,8141,8174,8159,8151,8166,8248,8208,8108,8151,8132,8247,0.5317091941833496,True
64,8121,8151,8136,8141,8149,8155,8163,8151,8244,8201,8114,8134,8132,8248,0.5399084091186523,True
65,8139,8170,8173,8154,8181,8156,8167,8162,8241,8203,8114,8147,8135,8256,0.5477983951568604,True
66,8144,8171,8200,8148,8167,8161,8157,8167,8228,8193,8115,8162,8130,8250,0.555689811706543,True
67,8134,8148,8127,8137,8102,8158,8160,8144,8228,8186,8123,8142,8133,8243,0.562854528427124,True
68,8153,8162,8177,8146,8168,8172,8163,8162,8227,8188,8119,8163,8131,8258,0.5705821514129639,True
69,8153,8161,8174,8153,8160,8188,8171,8154,8224,8192,8129,8163,8139,8281,0.5788202285766602,True
70,8156,8180,8169,8157,8165,8183,8175,8144,8227,8196,8145,8161,8158,8292,0.5869054794311523,True
71,8201,8219,8271,8177,8223,8192,8175,8179,8231,8200,8151,8204,8159,8308,0.5946629047393799,True
72,8203,8202,8187,8198,8138,8197,8180,8165,8241,8209,8169,8195,8168,8326,0.6027693748474121,True
73,8193,8206,8153,8211,8136,8184,8163,8158,8240,8213,8181,8187,8186,8318,0.6108062267303467,True
74,8188,8199,8152,8205,8142,8193,8160,8169,8255,8216,8183,8183,8207,8320,0.6186084747314453,True
75,8181,8194,8171,8191,8184,8214,8173,8179,8274,8224,8177,8186,8205,8336,0.6257667541503906,True
76,8195,8211,8285,8185,8256,8214,8169,8203,8261,8213,8156,8209,8178,8313,0.6336266994476318,True
77,8171,8172,8159,8180,8134,8205,8181,8167,8263,8199,8147,8164,8180,8281,0.6417851448059082,True
78,8149,8157,8066,8167,8106,8204,8195,8145,8264,8188,8141,8132,8174,8271,0.6497385501861572,True
79,8148,8170,8136,8149,8163,8188,8185,8162,8252,8184,8130,8147,8149,8268,0.6577351093292236,True
80,8145,8168,8174,8145,8172,8173,8159,8157,8239,8174,8114,8154,8130,8260,0.6657068729400635,True
81,8171,8176,8211,8163,8189,8178,8146,8152,8224,8161,8115,8175,8130,8272,0.6727533340454102,True
82,8187,8163,8162,8184,8141,8177,8170,8142,8234,8176,8164,8184,8174,8306,0.6807363033294678,True
83,8209,8177,8211,8189,8183,8172,8174,8163,8243,8190,8191,8208,8202,8316,0.6897594928741455,True
84,8231,8183,8236,8193,8193,8162,8156,8174,8246,8188,8185,8211,8199,8322,0.6967482566833496,True
85,8227,8170,8144,8205,8132,8158,8154,8149,8261,8190,8187,8182,8204,8342,0.7046489715576172,True
86,8230,8196,8195,8206,8167,8163,8140,8163,8260,8190,8188,8194,8212,8343,0.7127974033355713,True
87,8212,8196,8190,8201,8158,8162,8132,8164,8256,8194,8187,8186,8220,8320,0.7207105159759521,True
88,8203,8197,8165,8202,8172,8165,8141,8162,8258,8195,8169,8170,8203,8296,0.7286994457244873,True
89,8210,8199,8152,8198,8158,8179,8160,8164,8259,8191,8163,8166,8193,8299,0.7357850074768066,True
90,8193,8186,8134,8186,8167,8179,8165,8159,8248,8185,8155,8157,8188,8291,0.744744062423706,True
91,8188,8190,8258,8171,8257,8167,8144,8187,8218,8173,8118,8187,8148,8253,0.7517600059509277,True
92,8176,8138,8168,8154,8129,8161,8157,8162,8226,8177,8124,8172,8158,8266,0.7597944736480713,True
93,8196,8145,8154,8154,8149,8169,8166,8156,8246,8184,8153,8180,8199,8312,0.7677240371704102,True
94,8221,8186,8268,8173,8241,8166,8155,8189,8245,8191,8170,8214,8214,8324,0.7757511138916016,True
95,8188,8156,8129,8193,8115,8145,8163,8149,8253,8201,8193,8179,8228,8325,0.7837522029876709,True
96,8205,8171,8133,8198,8137,8149,8150,8131,8236,8185,8191,8181,8223,8331,0.7917065620422363,True
97,8234,8187,8212,8189,8194,8171,8142,8153,8227,8176,8183,8203,8221,8336,0.7996430397033691,True
98,8204,8170,8159,8190,8155,8171,8155,8155,8253,8194,8185,8191,8234,8333,0.8079788684844971,True
99,8196,8175,8160,8200,8143,8157,8149,8156,8255,8194,8169,8185,8220,8319,0.8158833980560303,True
100,8204,8180,8193,8181,8168,8156,8130,8161,8234,8181,8135,8174,8186,8305,0.8226523399353027,True
101,8193,8180,8231,8162,8205,8176,8131,8185,8234,8181,8128,8182,8176,8297,0.8307454586029053,True
102,8153,8155,8139,8173,8124,8183,8163,8174,8265,8191,8154,8165,8198,8282,0.8387653827667236,True
103,8140,8151,8106,8179,8124,8174,8177,8152,8272,8189,8143,8143,8188,8258,0.8466043472290039,True
104,8165,8153,8151,8164,8160,8180,8169,8159,8264,8186,8124,8150,8163,8277,0.8546819686889648,True
105,8168,8139,8103,8160,8123,8184,8165,8165,8282,8196,8148,8150,8179,8314,0.862816572189331,True
106,8183,8181,8228,8180,8233,8182,8140,8198,8270,8191,8149,8182,8172,8284,0.8707420825958252,False
107,8193,8179,8244,8196,8212,8182,8140,8182,8245,8185,8154,8180,8163,8261,0.8788588047027588,False
108,8183,8145,8106,8191,8118,8187,8166,8145,8266,8202,8186,8157,8198,8304,0.8857016563415527,False
109,8190,8169,8199,8182,8207,8199,8158,8187,8289,8217,8183,8192,8212,8322,0.8937275409698486,False
110,8188,8171,8223,8194,8199,8194,8148,8190,8278,8210,8172,8190,8196,8298,0.9017114639282228,False
111,8216,8187,8179,8224,8155,8187,8157,8163,8263,8199,8174,8180,8192,8298,0.9096193313598632,False
112,8237,8206,8166,8233,8153,8195,8162,8159,8273,8209,8182,8185,8207,8323,0.9177231788635254,False
113,8205,8186,8156,8213,8189,8197,8147,8149,8274,8213,8182,8174,8211,8325,0.9258384704589844,False
114,8195,8172,8174,8201,8187,8183,8132,8137,8246,8196,8169,8173,8195,8298,0.9337847232818604,False
115,8188,8158,8135,8187,8114,8172,8145,8126,8237,8189,8156,8160,8190,8282,0.941819429397583,False
116,8156,8158,8173,8163,8177,8182,8157,8152,8240,8184,8131,8158,8167,8267,0.9497890472412108,False
117,8112,8132,8143,8144,8171,8188,8173,8159,8241,8179,8110,8133,8132,8232,0.9568450450897216,False
118,8114,8128,8111,8151,8137,8183,8182,8154,8242,8176,8106,8127,8120,8215,0.9647910594940186,False
119,8174,8176,8260,8167,8217,8181,8155,8201,8241,8173,8117,8188,8126,8247,0.972623348236084,False
120,8175,8161,8198,8175,8154,8185,8154,8193,8267,8192,8153,8178,8163,8296,0.9807009696960448,False
121,8164,8163,8136,8190,8141,8201,8171,8171,8284,8207,8175,8157,8189,8296,0.9888012409210204,False
122,8179,8179,8173,8203,8161,8208,8165,8182,8278,8195,8182,8171,8198,8266,0.996718168258667,False
123,8160,8162,8130,8199,8144,8202,8157,8174,8280,8195,8184,8160,8202,8254,1.0046851634979248,False
124,8170,8194,8237,8191,8243,8205,8152,8202,8275,8205,8169,8185,8180,8257,1.0126986503601074,False
125,8188,8196,8253,8189,8210,8201,8163,8203,8273,8202,8174,8191,8181,8277,1.019660234451294,False
126,8171,8162,8124,8193,8115,8196,8167,8160,8277,8201,8191,8160,8209,8296,1.027597427368164,False
127,8159,8153,8081,8194,8110,8202,8156,8146,8272,8203,8186,8145,8209,8296,1.0357990264892578,False
237,8177,8175,8141,8190,8156,8206,8152,8159,8268,8186,8156,8153,8175,8290,1.0437686443328855,False
0,8205,8192,8233,8196,8199,8203,8150,8184,8261,8170,8137,8177,8153,8280,1.0517730712890625,False
1,8165,8146,8115,8187,8121,8203,8168,8164,8263,8177,8146,8140,8160,8254,1.0597102642059326,False
2,8142,8156,8166,8150,8220,8206,8167,8182,8237,8153,8113,8134,8111,8206,1.0677621364593506,False
3,8177,8182,8324,8137,8285,8197,8145,8215,8208,8120,8079,8176,8062,8205,1.0757651329040527,False
4,8148,8118,8102,8143,8081,8176,8148,8151,8236,8146,8109,8133,8106,8244,1.083845615386963,False
5,8135,8128,8063,8141,8116,8174,8131,8138,8257,8165,8129,8119,8128,8229,1.0908589363098145,False
6,8177,8181,8222,8153,8228,8176,8110,8179,8255,8158,8144,8164,8127,8224,1.098740577697754,False
7,8197,8178,8203,8171,8189,8171,8117,8183,8261,8171,8174,8184,8160,8271,1.1066370010375977,False
8,8188,8167,8182,8176,8179,8179,8133,8183,8266,8184,8180,8183,8174,8295,1.1148064136505127,False
9,8170,8167,8164,8172,8164,8183,8152,8169,8273,8191,8186,8169,8182,8298,1.122581958770752,False
10,8185,8192,8182,8175,8181,8189,8155,8167,8276,8194,8197,8185,8203,8306,1.1307778358459473,False
11,8200,8185,8150,8181,8183,8202,8148,8165,8287,8200,8203,8186,8224,8311,1.1386888027191162,False
12,8202,8180,8157,8192,8220,8211,8137,8168,8298,8202,8205,8176,8232,8307,1.1457314491271973,False
13,8208,8193,8209,8200,8225,8216,8130,8173,8291,8201,8201,8188,8232,8314,1.1548004150390625,False
14,8181,8180,8132,8188,8159,8213,8129,8140,8290,8209,8188,8170,8233,8316,1.161698579788208,False
15,8179,8200,8207,8180,8238,8214,8117,8161,8288,8202,8166,8183,8216,8300,1.1698262691497805,False
16,8190,8186,8239,8188,8213,8214,8134,8189,8287,8192,8174,8191,8219,8304,1.1777992248535156,False
17,8173,8147,8129,8175,8124,8206,8164,8168,8280,8184,8168,8157,8217,8304,1.1857171058654783,False
18,8178,8153,8139,8138,8152,8205,8168,8169,8261,8170,8126,8147,8178,8281,1.1938188076019287,False
19,8177,8145,8121,8125,8136,8202,8167,8161,8254,8157,8111,8136,8149,8270,1.201773166656494,False
20,8165,8153,8178,8139,8211,8201,8146,8156,8227,8137,8098,8145,8115,8237,1.2096092700958252,False
21,8152,8153,8230,8143,8245,8205,8131,8156,8203,8120,8087,8150,8090,8202,1.2167770862579346,False
22,8149,8129,8146,8136,8176,8203,8140,8140,8228,8135,8111,8133,8109,8227,1.2247593402862549,False
23,8169,8141,8138,8146,8173,8198,8144,8150,8249,8157,8137,8154,8130,8257,1.23262619972229,False
24,8166,8155,8133,8167,8144,8201,8144,8156,8255,8160,8155,8167,8149,8260,1.2408273220062256,False
25,8175,8180,8200,8181,8193,8211,8132,8182,8264,8164,8166,8181,8164,8272,1.248579740524292,False
26,8184,8172,8203,8182,8194,8226,8142,8190,8280,8180,8175,8179,8178,8287,1.2569081783294678,False
27,8164,8149,8117,8177,8146,8228,8173,8172,8288,8191,8186,8165,8197,8287,1.2647788524627686,False
28,8184,8191,8243,8184,8228,8216,8164,8215,8281,8186,8200,8211,8206,8296,1.2727930545806885,False
29,8187,8187,8219,8183,8172,8203,8160,8210,8298,8196,8218,8201,8229,8317,1.2797486782073977,False
30,8168,8162,8105,8178,8117,8198,8183,8157,8303,8204,8198,8159,8228,8302,1.28780198097229,False
31,8173,8167,8144,8172,8152,8197,8195,8166,8282,8188,8168,8164,8197,8275,1.2957913875579834,False
32,8155,8159,8134,8154,8130,8201,8201,8178,8275,8177,8163,8153,8180,8255,1.3037753105163574,False
33,8132,8164,8175,8134,8182,8205,8196,8187,8266,8167,8134,8153,8149,8223,1.3116638660430908,False
34,8107,8140,8180,8120,8194,8199,8199,8182,8260,8153,8103,8140,8115,8208,1.319657325744629,False
35,8091,8113,8136,8111,8165,8196,8198,8162,8256,8136,8098,8120,8106,8210,1.3277571201324463,False
36,8108,8125,8119,8116,8125,8199,8172,8144,8244,8130,8113,8127,8118,8203,1.3356258869171145,False
37,8129,8152,8122,8143,8124,8197,8149,8137,8243,8137,8134,8147,8129,8218,1.3437187671661377,False
38,8154,8181,8230,8164,8220,8202,8141,8168,8236,8135,8135,8187,8126,8252,1.3507604598999023,False
39,8146,8150,8169,8169,8152,8196,8151,8155,8230,8138,8144,8173,8138,8267,1.3587708473205566,False
40,8151,8158,8138,8191,8143,8185,8147,8136,8226,8144,8158,8166,8149,8258,1.3668406009674072,False
41,8200,8212,8271,8224,8248,8187,8127,8167,8224,8154,8170,8219,8155,8263,1.3747458457946775,False
42,8208,8200,8190,8240,8176,8182,8131,8147,8239,8169,8208,8215,8197,8304,1.382782220840454,False
43,8213,8213,8146,8257,8155,8174,8127,8123,8230,8168,8232,8201,8219,8332,1.3908350467681885,False
44,8225,8231,8199,8267,8186,8170,8121,8129,8217,8167,8222,8207,8202,8329,1.398777961730957,False
45,8211,8205,8187,8237,8192,8171,8131,8148,8225,8163,8211,8209,8196,8315,1.406769037246704,False
46,8184,8184,8172,8199,8198,8166,8139,8170,8221,8140,8197,8191,8184,8300,1.4136722087860107,False
47,8143,8159,8111,8183,8160,8151,8145,8157,8211,8128,8171,8142,8157,8277,1.4217875003814695,True
48,8147,8170,8173,8175,8207,8163,8151,8180,8219,8141,8139,8159,8141,8249,1.4297900199890137,True
49,8151,8163,8176,8167,8184,8183,8179,8192,8245,8154,8136,8177,8151,8255,1.4386415481567385,True
50,8139,8149,8137,8172,8175,8185,8190,8170,8242,8145,8129,8151,8143,8266,1.4459426403045654,True
51,8162,8168,8220,8182,8232,8184,8174,8190,8219,8138,8113,8168,8120,8255,1.453996658325195,True
52,8165,8151,8142,8187,8142,8188,8189,8184,8244,8154,8149,8172,8158,8265,1.4616873264312744,True
53,8170,8161,8151,8195,8173,8198,8201,8185,8258,8161,8171,8186,8181,8283,1.4699294567108154,True
54,8176,8174,8225,8192,8224,8209,8208,8203,8239,8156,8156,8194,8156,8273,1.4768781661987305,True
55,8155,8150,8138,8187,8150,8207,8233,8183,8245,8150,8158,8157,8149,8254,1.4848816394805908,False
56,8164,8149,8147,8198,8165,8211,8231,8175,8253,8147,8168,8167,8158,8259,1.4928994178771973,False
57,8161,8145,8162,8195,8185,8218,8208,8159,8246,8156,8170,8183,8166,8279,1.5007805824279783,False
58,8146,8163,8178,8192,8204,8212,8188,8155,8244,8167,8167,8182,8156,8276,1.5088348388671875,False
59,8170,8182,8185,8222,8161,8208,8181,8161,8268,8175,8188,8181,8165,8267,1.5166845321655271,False
60,8197,8185,8161,8250,8139,8206,8169,8151,8294,8186,8215,8175,8199,8267,1.524878978729248,False
61,8190,8191,8220,8237,8219,8192,8145,8163,8278,8184,8214,8193,8210,8269,1.5328810214996338,False
62,8149,8151,8153,8204,8158,8173,8137,8147,8251,8177,8213,8180,8213,8286,1.5408122539520264,False
63,8166,8159,8147,8190,8151,8178,8131,8138,8235,8171,8200,8181,8197,8299,1.5477194786071775,False
64,8230,8193,8230,8193,8184,8183,8133,8156,8235,8172,8191,8210,8189,8325,1.5557258129119873,False
65,8219,8168,8159,8185,8140,8172,8152,8153,8255,8184,8215,8199,8216,8354,1.5638275146484375,False
66,8192,8176,8212,8176,8217,8178,8148,8183,8244,8176,8211,8209,8209,8327,1.5719342231750488,False
67,8196,8184,8216,8192,8181,8182,8158,8180,8232,8163,8194,8202,8189,8303,1.5800044536590576,False
68,8226,8187,8156,8223,8142,8174,8181,8157,8249,8163,8193,8188,8191,8327,1.5878725051879885,False
69,8247,8207,8209,8232,8216,8183,8183,8185,8251,8162,8198,8203,8191,8347,1.5958833694458008,False
70,8200,8194,8167,8223,8186,8192,8187,8182,8248,8165,8199,8186,8198,8345,1.6036431789398191,False
71,8171,8194,8147,8225,8169,8192,8186,8169,8249,8168,8186,8185,8198,8325,1.61063814163208,False
72,8199,8203,8144,8233,8169,8188,8184,8174,8265,8174,8193,8192,8209,8322,1.6188092231750488,False
73,8228,8214,8178,8235,8217,8186,8175,8190,8269,8180,8192,8198,8222,8341,1.6267430782318115,False
74,8209,8204,8200,8227,8223,8183,8161,8186,8255,8175,8175,8193,8218,8343,1.63472318649292,False
75,8157,8174,8126,8209,8170,8178,8160,8152,8253,8174,8177,8163,8217,8314,1.642686367034912,False
76,8173,8195,8230,8199,8254,8180,8153,8171,8226,8160,8157,8185,8192,8276,1.650749921798706,False
77,8176,8164,8193,8184,8183,8162,8154,8155,8206,8138,8140,8170,8164,8265,1.6587486267089844,False
78,8150,8139,8109,8166,8135,8156,8159,8137,8218,8136,8152,8144,8155,8267,1.666898488998413,False
79,8177,8182,8244,8171,8242,8183,8162,8199,8228,8150,8155,8186,8148,8268,1.6747777462005615,False
80,8171,8151,8166,8174,8165,8185,8187,8187,8240,8150,8152,8167,8144,8262,1.6818530559539795,False
81,8149,8133,8094,8174,8139,8181,8201,8154,8251,8136,8158,8144,8139,8247,1.689685344696045,False
82,8167,8166,8165,8183,8195,8202,8202,8178,8263,8145,8176,8167,8156,8262,1.6977078914642334,False
83,8183,8191,8163,8193,8193,8212,8206,8186,8269,8155,8177,8171,8171,8290,1.705913782119751,False
84,8189,8200,8170,8204,8189,8202,8192,8170,8251,8137,8161,8174,8151,8284,1.7136621475219729,False
85,8189,8184,8165,8230,8166,8191,8175,8142,8235,8124,8163,8176,8135,8270,1.7216839790344238,False
86,8219,8215,8226,8259,8223,8187,8154,8155,8227,8136,8167,8200,8146,8285,1.7299072742462158,False
87,8234,8228,8184,8261,8209,8187,8145,8163,8240,8157,8184,8191,8185,8311,1.7367885112762451,False
88,8220,8226,8142,8257,8213,8191,8146,8153,8241,8167,8188,8170,8199,8310,1.7447853088378906,False
89,8241,8260,8302,8257,8311,8192,8135,8178,8213,8161,8166,8214,8171,8299,1.7528729438781738,False
90,8210,8221,8218,8236,8200,8187,8152,8162,8222,8169,8181,8198,8179,8301,1.7609703540802002,False
91,8147,8163,8050,8196,8112,8191,8182,8152,8254,8182,8199,8146,8199,8295,1.7694079875946045,False
92,8147,8163,8117,8167,8169,8205,8199,8196,8272,8183,8188,8164,8187,8287,1.7766165733337402,False
93,8159,8160,8171,8155,8183,8218,8220,8216,8292,8183,8181,8178,8177,8291,1.7847213745117188,False
94,8169,8172,8179,8169,8213,8245,8253,8229,8315,8188,8185,8177,8187,8294,1.7936666011810305,False
95,8176,8195,8138,8207,8203,8278,8301,8238,8350,8203,8206,8160,8211,8304,1.800797462463379,False
96,8154,8201,8151,8215,8206,8288,8323,8244,8365,8199,8200,8158,8197,8287,1.808638095855713,False
97,8104,8164,8163,8187,8176,8283,8318,8229,8344,8174,8170,8160,8160,8242,1.815650463104248,False
98,8091,8146,8114,8177,8133,8280,8313,8184,8323,8156,8166,8140,8158,8231,1.8239026069641116,False
99,8150,8194,8201,8203,8200,8269,8287,8179,8297,8138,8163,8160,8151,8243,1.831741571426392,False
100,8172,8195,8175,8217,8144,8233,8247,8155,8274,8131,8160,8160,8140,8252,1.839712619781494,False
101,8175,8202,8179,8214,8168,8205,8190,8136,8248,8133,8166,8171,8141,8250,1.8477108478546145,False
102,8197,8227,8307,8206,8277,8195,8142,8161,8222,8130,8169,8207,8145,8253,1.8556880950927732,False
103,8153,8164,8169,8173,8166,8169,8129,8123,8218,8131,8168,8163,8153,8260,1.8635852336883545,False
104,8109,8131,8083,8137,8123,8142,8105,8102,8201,8135,8152,8133,8136,8247,1.871687173843384,False
105,8106,8155,8134,8133,8156,8141,8104,8140,8191,8141,8152,8149,8124,8240,1.878644943237305,False
106,8097,8165,8134,8131,8157,8161,8142,8167,8212,8141,8160,8153,8130,8237,1.88664984703064,False
107,8069,8145,8129,8117,8157,8186,8169,8181,8233,8140,8164,8145,8140,8229,1.8947227001190183,False
108,8025,8114,8099,8113,8159,8202,8189,8188,8253,8151,8179,8128,8149,8231,1.902735471725464,False
109,8032,8146,8167,8121,8214,8221,8197,8213,8261,8158,8178,8151,8133,8231,1.91084885597229,False
110,8070,8158,8147,8135,8131,8230,8207,8197,8268,8157,8183,8150,8133,8242,1.918745040893555,False
111,8113,8171,8135,8161,8119,8218,8205,8188,8273,8151,8186,8148,8145,8256,1.926884174346924,False
112,8159,8202,8248,8168,8215,8209,8177,8215,8256,8142,8174,8179,8127,8250,1.934917688369751,False
113,8142,8160,8155,8136,8130,8192,8167,8166,8243,8140,8180,8153,8127,8252,1.9417474269866943,False
114,8153,8179,8188,8144,8179,8186,8165,8163,8237,8138,8190,8172,8143,8272,1.9498836994171145,False
115,8191,8217,8277,8182,8230,8203,8179,8208,8253,8147,8198,8201,8161,8287,1.9579174518585205,False
116,8158,8170,8136,8168,8123,8205,8203,8178,8274,8162,8203,8156,8175,8286,1.9656825065612795,False
117,8139,8161,8129,8142,8136,8191,8190,8160,8258,8154,8198,8165,8167,8287,1.9739177227020264,False
118,8148,8181,8177,8147,8155,8188,8181,8174,8238,8147,8193,8184,8161,8297,1.9819183349609373,False
119,8142,8170,8158,8140,8139,8192,8191,8184,8235,8155,8177,8163,8162,8291,1.989952802658081,False
120,8126,8133,8109,8119,8120,8181,8190,8172,8234,8154,8160,8138,8158,8280,1.9978783130645752,False
121,8131,8140,8131,8116,8165,8176,8174,8162,8214,8141,8147,8144,8139,8279,2.0049140453338623,False
122,8164,8166,8214,8111,8212,8178,8157,8184,8188,8138,8140,8178,8123,8287,2.0129220485687256,False
123,8169,8133,8141,8099,8141,8165,8164,8183,8210,8152,8164,8173,8159,8314,2.0208868980407715,False
124,8170,8141,8171,8097,8180,8165,8171,8197,8233,8156,8164,8180,8174,8315,2.0289106369018555,False
125,8165,8156,8207,8103,8168,8180,8175,8203,8233,8154,8142,8180,8154,8291,2.036914825439453,False
126,8149,8136,8126,8122,8113,8186,8178,8171,8233,8154,8149,8154,8149,8280,2.044798851013184,False
127,8155,8157,8204,8136,8197,8183,8155,8171,8211,8138,8152,8174,8134,8264,2.05286169052124,False
237,8138,8160,8191,8137,8136,8171,8134,8154,8207,8136,8149,8165,8133,8251,2.060918092727661,False
0,8136,8165,8118,8156,8074,8168,8122,8135,8236,8155,8164,8146,8163,8268,2.0676581859588623,False
1,8172,8196,8158,8187,8131,8181,8123,8159,8257,8169,8192,8172,8189,8299,2.0759198665618896,False
2,8181,8198,8161,8183,8146,8186,8129,8169,8251,8170,8200,8178,8189,8310,2.0838866233825684,False
3,8184,8198,8208,8160,8182,8177,8115,8180,8224,8155,8180,8186,8170,8299,2.091710567474365,False
4,8174,8182,8176,8152,8146,8169,8134,8175,8229,8157,8186,8173,8178,8301,2.09989070892334,False
5,8154,8168,8130,8146,8133,8179,8180,8173,8248,8165,8184,8151,8179,8297,2.107902765274048,False
6,8140,8155,8154,8129,8143,8190,8194,8184,8237,8150,8147,8143,8140,8267,2.115968704223633,False
7,8114,8136,8128,8112,8109,8180,8187,8168,8216,8135,8129,8126,8108,8231,2.1238937377929688,False
8,8116,8149,8185,8104,8168,8178,8178,8184,8204,8131,8131,8151,8095,8221,2.131892442703247,False
9,8115,8120,8155,8090,8132,8180,8174,8185,8215,8132,8139,8151,8104,8238,2.1388585567474365,False
10,8121,8111,8123,8086,8114,8183,8171,8171,8232,8134,8142,8137,8116,8243,2.1468098163604736,False
11,8151,8152,8217,8105,8188,8191,8163,8185,8223,8134,8141,8160,8114,8234,2.15481185913086,False
12,8128,8145,8155,8120,8139,8183,8152,8149,8212,8136,8147,8138,8118,8229,2.162870168685913,False
13,8115,8157,8157,8131,8145,8170,8122,8133,8207,8133,8145,8139,8106,8217,2.1708595752716064,False
14,8142,8172,8186,8143,8124,8155,8108,8146,8216,8136,8166,8166,8109,8233,2.178901195526123,False
15,8173,8175,8154,8161,8094,8141,8110,8146,8233,8152,8206,8181,8153,8279,2.186842679977417,False
16,8219,8215,8240,8193,8174,8155,8102,8155,8237,8173,8227,8211,8189,8311,2.1948113441467285,False
17,8225,8221,8229,8218,8164,8164,8104,8144,8236,8187,8229,8203,8199,8317,2.2027382850646973,False
18,8204,8206,8173,8206,8149,8152,8104,8151,8227,8173,8207,8179,8183,8297,2.209728479385376,False
19,8185,8179,8123,8178,8121,8153,8110,8156,8217,8156,8195,8152,8176,8281,2.2176902294158936,False
20,8176,8172,8151,8160,8153,8167,8118,8169,8216,8163,8202,8156,8186,8294,2.225770235061645,False
21,8184,8181,8252,8146,8206,8179,8122,8223,8228,8174,8203,8197,8193,8308,2.233916759490967,False
22,8149,8133,8119,8124,8086,8185,8155,8211,8255,8168,8195,8159,8189,8291,2.241706132888794,False
23,8125,8141,8120,8108,8127,8184,8158,8197,8246,8140,8160,8133,8141,8245,2.24980902671814,False
24,8133,8158,8216,8101,8192,8173,8138,8212,8231,8137,8149,8150,8119,8230,2.257923126220703,False
25,8117,8114,8110,8095,8119,8170,8153,8185,8244,8152,8169,8138,8143,8250,2.2657315731048584,False
26,8127,8123,8142,8107,8155,8185,8176,8189,8240,8140,8162,8154,8131,8250,2.2729008197784424,False
27,8141,8140,8184,8125,8155,8190,8194,8199,8237,8134,8156,8161,8127,8246,2.2808566093444824,False
28,8133,8139,8150,8128,8141,8186,8198,8190,8247,8150,8166,8159,8150,8261,2.28885269165039,False
29,8125,8143,8133,8134,8130,8190,8199,8193,8255,8156,8178,8159,8156,8266,2.296654224395752,False
30,8125,8149,8136,8153,8125,8202,8212,8201,8274,8156,8188,8151,8161,8253,2.30458927154541,False
31,8147,8171,8225,8168,8197,8215,8214,8215,8285,8167,8182,8177,8171,8251,2.312841415405273,False
32,8151,8161,8180,8178,8169,8209,8211,8182,8286,8183,8186,8173,8181,8269,2.320795774459839,False
33,8156,8176,8167,8196,8182,8203,8189,8157,8268,8180,8193,8166,8176,8268,2.328770160675049,False
34,8163,8192,8226,8197,8212,8203,8157,8144,8235,8169,8189,8184,8170,8260,2.335761785507202,False
35,8145,8160,8150,8190,8151,8184,8146,8100,8211,8162,8185,8167,8174,8265,2.343734741210937,False
36,8158,8161,8160,8197,8169,8165,8125,8107,8177,8146,8168,8163,8153,8258,2.351820230484009,False
37,8161,8157,8159,8189,8146,8158,8101,8125,8158,8134,8148,8153,8127,8243,2.35975980758667,False
38,8135,8145,8128,8171,8140,8167,8108,8138,8175,8142,8136,8136,8121,8233,2.36765193939209,False
39,8136,8152,8175,8168,8179,8179,8139,8177,8196,8154,8138,8153,8130,8242,2.3757803440093994,False
40,8136,8146,8148,8157,8142,8182,8168,8189,8208,8155,8142,8154,8141,8251,2.383696794509888,False
41,8133,8153,8169,8143,8168,8185,8166,8192,8209,8141,8125,8157,8115,8228,2.391833543777466,False
42,8122,8137,8150,8150,8144,8188,8169,8182,8222,8140,8137,8146,8104,8222,2.39880633354187,False
43,8121,8140,8142,8156,8143,8196,8181,8180,8232,8147,8161,8154,8126,8243,2.4067647457122803,False
44,8124,8149,8174,8154,8153,8200,8186,8182,8218,8140,8153,8172,8119,8233,2.414726972579956,False
45,8099,8125,8103,8155,8103,8192,8194,8148,8205,8135,8134,8139,8096,8211,2.4227445125579834,False
46,8142,8179,8248,8167,8235,8201,8174,8184,8192,8133,8129,8181,8093,8232,2.430749893188477,False
47,8173,8199,8290,8184,8220,8207,8174,8207,8205,8139,8167,8216,8136,8277,2.438767194747925,False
48,8133,8154,8088,8198,8079,8187,8194,8152,8225,8163,8205,8165,8181,8292,2.446798086166382,False
49,8148,8169,8130,8195,8150,8173,8169,8157,8201,8165,8192,8164,8174,8281,2.45470666885376,False
50,8176,8172,8195,8181,8188,8178,8151,8183,8185,8155,8182,8179,8172,8298,2.4627573490142822,False
51,8165,8155,8155,8177,8162,8186,8159,8178,8187,8161,8176,8170,8170,8314,2.4697840213775635,False
52,8148,8143,8131,8153,8141,8187,8154,8165,8170,8148,8144,8146,8138,8279,2.477717876434326,False
53,8131,8125,8148,8116,8158,8189,8149,8172,8173,8126,8117,8134,8108,8235,2.485776901245117,False
54,8111,8116,8167,8117,8174,8209,8180,8189,8210,8144,8125,8145,8109,8229,2.493574380874634,False
55,8085,8109,8099,8123,8126,8224,8214,8177,8239,8169,8130,8122,8116,8232,2.5017879009246826,False
56,8105,8123,8165,8104,8172,8204,8190,8186,8227,8144,8098,8129,8089,8207,2.509744167327881,False
57,8120,8101,8161,8101,8128,8174,8161,8177,8223,8129,8103,8137,8086,8207,2.5177464485168457,False
58,8109,8111,8125,8127,8131,8176,8155,8164,8221,8143,8130,8137,8101,8230,2.525842666625977,False
59,8140,8188,8326,8150,8285,8179,8125,8214,8192,8136,8121,8193,8083,8228,2.5327391624450684,False
60,8132,8151,8217,8166,8139,8154,8133,8188,8216,8148,8157,8179,8121,8243,2.5406911373138428,False
61,8119,8121,8036,8185,8037,8159,8171,8142,8255,8166,8200,8144,8173,8259,2.5487990379333496,False
62,8165,8179,8177,8204,8158,8185,8174,8178,8241,8149,8185,8183,8157,8246,2.556715726852417,False
63,8175,8182,8194,8220,8137,8179,8173,8183,8238,8153,8195,8193,8163,8255,2.5647222995758057,False
64,8174,8178,8140,8232,8122,8185,8181,8165,8256,8183,8228,8187,8202,8291,2.572819948196411,False
65,8195,8212,8180,8240,8184,8206,8177,8161,8250,8187,8221,8183,8210,8304,2.580616235733032,False
66,8198,8227,8224,8239,8212,8198,8153,8164,8221,8168,8185,8179,8185,8284,2.5889878273010254,False
67,8170,8182,8149,8215,8146,8164,8133,8156,8209,8169,8179,8165,8176,8278,2.595649480819702,False
68,8151,8155,8095,8183,8142,8142,8120,8146,8212,8170,8181,8148,8171,8284,2.60379695892334,False
69,8159,8185,8206,8168,8227,8153,8110,8175,8197,8147,8156,8165,8144,8269,2.611776113510132,False
70,8121,8152,8123,8153,8136,8158,8132,8163,8210,8150,8156,8140,8144,8259,2.619571685791016,False
71,8107,8154,8137,8135,8184,8148,8139,8170,8228,8157,8151,8143,8140,8254,2.627777099609375,False
72,8148,8190,8317,8123,8300,8159,8127,8219,8215,8139,8126,8187,8117,8248,2.63573694229126,False
73,8125,8134,8143,8122,8129,8165,8156,8178,8227,8148,8153,8150,8135,8269,2.643662691116333,False
74,8114,8131,8041,8140,8087,8157,8179,8144,8236,8167,8181,8142,8158,8290,2.6517133712768555,False
75,8154,8181,8166,8157,8180,8159,8183,8169,8218,8160,8164,8175,8154,8288,2.6597695350646973,False
76,8170,8185,8209,8159,8205,8172,8195,8186,8216,8152,8155,8184,8154,8288,2.66666030883789,False
77,8175,8176,8197,8172,8194,8186,8211,8198,8235,8157,8183,8196,8172,8305,2.674814462661743,False
78,8181,8181,8153,8201,8160,8185,8215,8189,8247,8158,8196,8190,8187,8321,2.6827025413513184,False
79,8205,8214,8222,8223,8226,8184,8209,8198,8242,8158,8186,8199,8186,8318,2.6908223628997803,False
80,8206,8206,8225,8223,8235,8192,8225,8197,8252,8169,8200,8195,8206,8320,2.6988351345062256,False
81,8191,8193,8159,8226,8219,8194,8231,8172,8262,8170,8196,8178,8209,8317,2.706681489944458,False
82,8187,8208,8176,8235,8230,8181,8196,8175,8251,8159,8166,8179,8181,8299,2.714613437652588,False
83,8158,8182,8121,8213,8169,8172,8177,8171,8244,8157,8164,8154,8175,8279,2.722769498825073,False
84,8144,8181,8152,8183,8212,8178,8160,8170,8224,8148,8149,8150,8159,8252,2.7297306060791016,False
85,8139,8189,8187,8181,8228,8163,8134,8165,8208,8142,8125,8152,8138,8237,2.7378101348876958,False
86,8116,8175,8131,8179,8195,8153,8133,8149,8215,8149,8138,8137,8148,8246,2.745636463165283,False
87,8128,8178,8167,8160,8233,8181,8143,8165,8223,8155,8162,8164,8165,8263,2.753823518753052,False
88,8141,8163,8140,8154,8188,8192,8158,8159,8229,8154,8179,8176,8189,8286,2.7617595195770264,False
89,8155,8170,8164,8163,8197,8176,8163,8163,8226,8144,8175,8178,8190,8296,2.769935369491577,False
90,8171,8178,8195,8167,8203,8184,8174,8170,8223,8139,8175,8175,8178,8291,2.7779037952423096,False
91,8174,8185,8161,8181,8174,8210,8201,8154,8231,8141,8194,8170,8197,8284,2.785878419876098,False
92,8206,8225,8216,8220,8218,8206,8206,8173,8232,8143,8201,8206,8215,8306,2.7939162254333496,False
93,8228,8222,8172,8244,8189,8184,8201,8171,8242,8152,8214,8207,8228,8357,2.800658226013184,False
94,8226,8217,8177,8238,8216,8179,8182,8168,8237,8147,8201,8193,8226,8363,2.808577299118042,False
95,8206,8219,8211,8226,8220,8172,8172,8176,8218,8134,8167,8190,8207,8326,2.816638469696045,False
96,8170,8203,8131,8201,8156,8145,8166,8153,8206,8125,8140,8160,8175,8295,2.824655055999756,False
97,8160,8208,8188,8169,8215,8133,8128,8157,8176,8097,8103,8151,8122,8249,2.832587480545044,False
98,8131,8178,8169,8155,8189,8130,8111,8147,8164,8084,8090,8123,8103,8211,2.840606451034546,False
99,8102,8156,8106,8146,8165,8136,8124,8138,8174,8093,8096,8111,8111,8208,2.848740100860596,False
100,8108,8163,8144,8131,8201,8162,8139,8163,8183,8096,8108,8137,8112,8213,2.857046127319336,False
101,8110,8149,8134,8130,8187,8184,8161,8176,8217,8116,8135,8144,8138,8231,2.8638505935668945,False
102,8128,8160,8170,8139,8218,8199,8171,8199,8247,8139,8155,8168,8167,8263,2.871666669845581,False
103,8131,8159,8136,8140,8170,8216,8195,8190,8256,8155,8182,8169,8187,8286,2.8798694610595703,False
104,8146,8174,8161,8154,8190,8235,8227,8192,8259,8165,8205,8178,8203,8293,2.88792085647583,False
105,8198,8198,8261,8173,8237,8247,8244,8224,8268,8155,8199,8215,8217,8317,2.8959226608276367,False
106,8207,8173,8164,8184,8151,8240,8251,8193,8277,8151,8196,8195,8234,8345,2.9038448333740234,False
107,8212,8194,8206,8213,8209,8229,8226,8192,8257,8158,8197,8204,8229,8334,2.9116127490997314,False
108,8212,8197,8242,8240,8200,8211,8207,8195,8241,8154,8188,8206,8219,8317,2.919641733169556,False
109,8198,8175,8163,8240,8133,8190,8200,8159,8227,8131,8148,8173,8189,8320,2.927727460861206,False
110,8219,8194,8221,8223,8196,8178,8170,8166,8190,8114,8114,8182,8155,8312,2.9347219467163086,False
111,8204,8167,8180,8188,8181,8163,8151,8166,8182,8112,8124,8164,8162,8295,2.942657470703125,False
112,8148,8123,8109,8134,8172,8150,8144,8143,8174,8095,8105,8135,8143,8266,2.950680732727051,False
113,8111,8100,8093,8088,8174,8149,8141,8119,8143,8073,8069,8114,8097,8235,2.958773374557495,False
114,8125,8120,8160,8077,8228,8152,8123,8135,8129,8069,8070,8122,8086,8217,2.966716051101685,False
115,8166,8149,8253,8097,8259,8150,8097,8172,8133,8078,8092,8167,8103,8232,2.974652051925659,False
116,8147,8134,8116,8136,8132,8153,8111,8134,8159,8097,8126,8149,8133,8267,2.982829093933105,False
117,8139,8166,8121,8176,8182,8180,8135,8148,8189,8117,8156,8152,8157,8281,2.989741086959839,False
118,8160,8178,8206,8204,8239,8203,8164,8212,8224,8139,8192,8189,8210,8314,2.9976699352264404,False
119,8157,8170,8145,8230,8189,8216,8201,8219,8262,8159,8214,8190,8248,8349,3.005805492401123,False
120,8179,8222,8180,8255,8224,8244,8226,8228,8276,8169,8215,8199,8228,8338,3.0139496326446533,False
121,8213,8225,8174,8269,8207,8263,8259,8232,8300,8184,8232,8196,8243,8341,3.021992444992065,False
122,8271,8237,8227,8292,8247,8273,8280,8255,8331,8198,8244,8220,8289,8387,3.029868602752685,False
123,8298,8261,8265,8314,8239,8276,8277,8262,8347,8202,8244,8237,8297,8404,3.0378847122192383,False
124,8235,8224,8165,8283,8178,8249,8253,8206,8324,8188,8207,8186,8253,8348,3.045730829238892,False
125,8182,8203,8196,8235,8233,8208,8202,8179,8258,8145,8129,8158,8175,8276,3.053840160369873,False
126,8154,8181,8159,8206,8181,8170,8167,8150,8224,8109,8093,8126,8129,8239,3.060922384262085,False
127,8142,8162,8101,8178,8146,8146,8155,8125,8207,8090,8081,8112,8102,8223,3.0688483715057373,False
237,8151,8158,8147,8153,8197,8142,8150,8136,8176,8075,8057,8134,8071,8230,3.076876640319824,False
0,8152,8154,8156,8141,8185,8136,8145,8141,8162,8077,8061,8137,8071,8246,3.084836483001709,False
1,8157,8146,8145,8132,8154,8131,8145,8142,8166,8087,8099,8146,8102,8257,3.092949628829956,False
2,8161,8138,8110,8133,8135,8143,8162,8137,8182,8097,8137,8153,8136,8276,3.100900411605835,False
3,8175,8183,8220,8156,8235,8172,8150,8170,8175,8101,8139,8180,8137,8272,3.108963966369629,False
4,8176,8194,8243,8179,8218,8184,8141,8185,8170,8109,8149,8186,8152,8258,3.1169769763946533,False
5,8172,8168,8112,8201,8122,8177,8160,8147,8188,8123,8182,8166,8202,8285,3.1237688064575195,False
6,8237,8239,8260,8238,8241,8186,8145,8182,8185,8126,8193,8220,8210,8321,3.1318576335906982,False
7,8266,8262,8289,8257,8212,8193,8137,8203,8194,8135,8203,8231,8212,8335,3.139958381652832,False
8,8225,8202,8113,8242,8114,8187,8151,8161,8213,8145,8209,8180,8232,8332,3.147912740707397,False
9,8207,8199,8173,8225,8212,8180,8139,8174,8195,8136,8182,8185,8214,8312,3.155954122543335,False
10,8184,8202,8215,8208,8217,8171,8137,8200,8177,8121,8168,8185,8191,8295,3.16390323638916,False
11,8149,8166,8129,8187,8136,8161,8156,8193,8176,8111,8170,8165,8192,8283,3.171706199645996,False
12,8137,8129,8087,8171,8115,8149,8165,8170,8165,8106,8159,8152,8183,8272,3.179973125457764,False
13,8160,8158,8189,8164,8193,8143,8158,8180,8150,8094,8142,8172,8160,8272,3.1868815422058105,False
14,8189,8180,8225,8179,8172,8145,8158,8191,8154,8084,8159,8192,8171,8296,3.194978952407837,False
15,8187,8160,8131,8205,8119,8144,8169,8165,8169,8095,8196,8185,8202,8323,3.202847003936768,False
16,8204,8206,8287,8215,8280,8149,8143,8201,8152,8101,8177,8227,8182,8314,3.210908889770508,False
17,8195,8196,8282,8210,8215,8150,8130,8196,8142,8097,8154,8213,8166,8299,3.2189321517944336,False
18,8169,8142,8066,8200,8060,8143,8140,8126,8150,8088,8166,8152,8181,8304,3.226799488067627,False
19,8203,8178,8158,8210,8176,8147,8118,8135,8139,8082,8165,8178,8174,8310,3.234998941421509,False
20,8216,8198,8210,8210,8187,8155,8108,8154,8144,8098,8160,8184,8180,8305,3.242983102798462,False
21,8197,8201,8137,8119,8148,8156,8116,8156,8158,8114,8155,8165,8191,8291,3.2508203983306885,False
22,8188,8200,8144,7978,8182,8158,8116,8170,8151,8116,8148,8172,8188,8296,3.257977247238159,False
23,8172,8173,8166,7925,8194,8163,8126,8177,8142,8115,8140,8168,8195,8304,3.2660036087036133,False
24,8155,8150,8167,7933,8178,8165,8143,8186,8138,8110,8124,8159,8194,8276,3.2740392684936523,False
25,8125,8130,8091,7908,8131,8152,8149,8166,8145,8109,8113,8135,8181,8250,3.2822251319885254,False
26,8121,8146,8126,7901,8173,8149,8135,8160,8142,8107,8102,8136,8166,8250,3.28998064994812,False
27,8125,8139,8140,7923,8156,8154,8133,8156,8136,8096,8095,8139,8167,8262,3.298053979873657,False
28,8112,8131,8122,7928,8157,8148,8128,8148,8133,8087,8077,8131,8152,8246,3.3058724403381348,False
29,8115,8161,8251,7931,8252,8146,8108,8186,8114,8081,8050,8156,8108,8193,3.313697576522827,False
30,8075,8125,8156,7942,8143,8151,8122,8160,8115,8077,8064,8126,8105,8171,3.320902109146118,False
31,8050,8109,8048,7968,8098,8153,8134,8120,8129,8080,8090,8110,8126,8214,3.328895807266236,False
32,8110,8147,8121,8016,8163,8146,8127,8136,8145,8102,8122,8155,8160,8279,3.336902379989624,False
33,8178,8180,8182,8056,8195,8149,8126,8166,8169,8121,8152,8186,8195,8304,3.3448965549468994,False
34,8227,8231,8345,8079,8293,8185,8109,8221,8168,8112,8141,8236,8188,8290,3.352803945541382,False
35,8211,8195,8265,8089,8180,8207,8123,8193,8170,8123,8149,8215,8205,8303,3.360592842102051,False
36,8160,8135,8039,8081,8049,8193,8167,8119,8178,8147,8169,8154,8243,8330,3.3688979148864746,False
37,8161,8152,8089,8063,8144,8180,8173,8130,8165,8140,8147,8163,8224,8318,3.376708745956421,False
38,8175,8166,8200,8059,8214,8173,8147,8165,8158,8128,8117,8184,8182,8283,3.384901523590088,False
39,8170,8156,8197,8076,8178,8164,8139,8177,8173,8134,8110,8178,8172,8269,3.3919036388397217,False
40,8147,8142,8098,8099,8106,8157,8162,8168,8199,8145,8113,8140,8175,8258,3.3998594284057617,False
41,8145,8175,8187,8125,8221,8167,8161,8196,8194,8134,8084,8149,8134,8220,3.4078540802001958,False
42,8152,8189,8288,8153,8273,8176,8144,8214,8173,8115,8064,8179,8098,8197,3.4159750938415527,False
43,8113,8130,8089,8162,8092,8157,8165,8153,8185,8120,8090,8136,8130,8227,3.4236645698547363,False
44,8108,8130,8073,8163,8112,8143,8170,8148,8184,8117,8093,8136,8142,8252,3.4318199157714844,False
45,8130,8158,8189,8171,8181,8148,8150,8178,8162,8102,8079,8169,8125,8244,3.4389092922210693,False
46,8119,8146,8142,8184,8141,8150,8149,8155,8153,8105,8087,8158,8130,8245,3.447901725769043,False
47,8109,8142,8147,8188,8168,8139,8153,8151,8147,8109,8088,8154,8121,8249,3.454913377761841,False
48,8101,8140,8166,8186,8168,8130,8152,8159,8152,8107,8085,8151,8112,8254,3.4628772735595703,False
49,8125,8152,8167,8188,8142,8141,8151,8158,8161,8115,8094,8162,8138,8271,3.47072434425354,False
50,8152,8152,8117,8192,8093,8149,8161,8147,8164,8125,8113,8163,8172,8291,3.478884696960449,False
51,8153,8164,8147,8197,8154,8147,8148,8154,8155,8118,8111,8165,8169,8284,3.4867794513702397,False
52,8152,8168,8216,8182,8204,8141,8125,8163,8140,8112,8103,8172,8154,8275,3.4949772357940674,False
53,8132,8129,8109,8154,8112,8131,8136,8130,8143,8124,8116,8141,8169,8291,3.502760887145996,False
54,8150,8173,8213,8171,8206,8144,8135,8172,8138,8127,8108,8176,8162,8280,3.5109786987304688,False
55,8176,8197,8303,8211,8232,8166,8145,8224,8156,8141,8118,8213,8168,8269,3.51781964302063,False
56,8148,8131,8088,8198,8080,8162,8183,8179,8198,8167,8158,8158,8208,8295,3.525855541229248,False
57,8136,8127,8060,8163,8102,8156,8183,8164,8195,8154,8140,8135,8199,8292,3.5338027477264404,False
58,8146,8156,8162,8167,8167,8168,8172,8183,8182,8140,8099,8147,8167,8257,3.5419814586639404,False
59,8154,8163,8193,8175,8182,8174,8184,8189,8187,8148,8100,8161,8160,8244,3.549858570098877,False
60,8153,8151,8173,8161,8157,8156,8176,8176,8186,8139,8116,8163,8162,8254,3.558028221130371,False
61,8153,8141,8158,8152,8145,8148,8153,8157,8168,8122,8110,8149,8156,8252,3.5658323764801025,False
62,8172,8157,8198,8168,8165,8160,8151,8163,8162,8129,8109,8166,8156,8252,3.57390570640564,False
63,8173,8166,8135,8202,8111,8150,8152,8151,8183,8143,8134,8167,8182,8278,3.581815004348755,False
64,8185,8191,8161,8227,8169,8136,8125,8154,8183,8138,8124,8168,8183,8287,3.588906764984131,False
65,8209,8197,8234,8224,8216,8139,8113,8164,8159,8140,8111,8179,8170,8287,3.596684694290161,False
66,8201,8180,8178,8197,8162,8136,8132,8158,8163,8150,8127,8167,8180,8303,3.604816436767578,False
67,8189,8194,8216,8175,8198,8129,8138,8189,8173,8139,8117,8177,8175,8299,3.612806558609009,False
68,8150,8158,8137,8171,8129,8134,8158,8172,8183,8138,8112,8154,8176,8281,3.620982170104981,False
69,8138,8147,8120,8176,8145,8149,8171,8156,8176,8145,8120,8152,8174,8265,3.628772497177124,False
70,8159,8163,8237,8162,8220,8155,8163,8188,8151,8130,8115,8178,8147,8246,3.63679575920105,False
71,8122,8115,8121,8137,8121,8149,8179,8159,8160,8127,8121,8139,8150,8244,3.644797086715698,False
72,8122,8132,8138,8148,8160,8148,8169,8161,8168,8133,8119,8149,8157,8246,3.651578903198242,False
73,8152,8163,8232,8167,8194,8154,8141,8184,8159,8126,8112,8171,8150,8250,3.659773111343384,False
74,8135,8127,8136,8155,8109,8164,8142,8152,8162,8120,8110,8137,8151,8254,3.667733907699585,False
75,8132,8115,8085,8146,8106,8175,8154,8138,8168,8129,8112,8128,8156,8254,3.67588472366333,False
76,8158,8148,8150,8157,8184,8177,8161,8163,8177,8143,8115,8152,8163,8266,3.683813571929932,False
77,8177,8177,8224,8170,8231,8170,8159,8191,8186,8144,8116,8181,8167,8281,3.691785335540772,False
78,8154,8151,8105,8181,8108,8150,8165,8171,8204,8154,8134,8154,8182,8293,3.699824333190918,False
79,8157,8172,8140,8194,8161,8142,8158,8193,8205,8164,8147,8157,8188,8287,3.707849502563477,False
80,8203,8205,8336,8196,8286,8162,8158,8250,8195,8159,8143,8218,8194,8284,3.714900732040405,False
81,8180,8147,8173,8194,8126,8172,8203,8202,8216,8171,8155,8180,8224,8297,3.722763776779175,False
82,8154,8146,8081,8201,8108,8181,8223,8176,8231,8177,8150,8141,8208,8284,3.730990648269653,False
83,8166,8176,8202,8203,8200,8194,8206,8208,8225,8159,8134,8159,8171,8254,3.738672018051148,False
84,8141,8141,8146,8185,8139,8186,8201,8181,8220,8152,8133,8150,8172,8244,3.746860980987549,False
85,8115,8128,8103,8168,8146,8181,8195,8151,8202,8153,8127,8140,8167,8245,3.754662275314331,False
86,8128,8143,8147,8171,8214,8195,8187,8160,8192,8150,8126,8148,8162,8252,3.7627341747283936,False
87,8165,8160,8208,8176,8247,8196,8179,8180,8194,8150,8140,8179,8180,8271,3.7707369327545166,False
88,8174,8151,8170,8175,8187,8179,8176,8163,8196,8158,8163,8175,8203,8297,3.778687000274658,False
89,8186,8171,8153,8200,8198,8170,8175,8156,8201,8174,8184,8171,8222,8321,3.785590410232544,False
90,8236,8221,8255,8231,8274,8171,8166,8196,8214,8190,8200,8221,8245,8345,3.7937421798706055,False
91,8231,8193,8175,8229,8196,8161,8169,8186,8231,8201,8215,8208,8274,8358,3.801751613616944,False
92,8207,8178,8160,8217,8211,8148,8157,8178,8215,8187,8190,8185,8258,8334,3.809811353683472,False
93,8210,8189,8236,8207,8245,8144,8143,8191,8187,8175,8155,8193,8222,8313,3.8177177906036377,False
94,8175,8151,8134,8179,8163,8137,8148,8159,8185,8180,8145,8152,8207,8300,3.8257131576538086,False
95,8141,8144,8124,8161,8182,8137,8145,8162,8181,8176,8129,8129,8184,8267,3.8337695598602295,False
96,8130,8147,8150,8157,8166,8142,8143,8169,8176,8168,8123,8129,8168,8239,3.841782808303833,False
97,8125,8145,8149,8149,8134,8139,8136,8155,8169,8165,8121,8133,8154,8235,3.848544120788574,False
98,8130,8144,8156,8151,8126,8140,8139,8168,8175,8176,8129,8144,8163,8252,3.856679201126098,False
99,8136,8148,8129,8160,8129,8150,8164,8183,8199,8196,8151,8152,8202,8276,3.864736557006836,False
100,8158,8175,8193,8171,8194,8164,8175,8198,8197,8192,8151,8181,8205,8290,3.872696876525879,False
101,8162,8165,8158,8178,8144,8163,8188,8181,8190,8186,8153,8172,8193,8302,3.8806419372558594,False
102,8158,8163,8141,8166,8147,8147,8185,8176,8186,8188,8159,8162,8192,8298,3.888685703277588,False
103,8156,8161,8200,8147,8190,8136,8166,8184,8171,8179,8140,8173,8178,8272,3.896693468093872,False
104,8130,8126,8122,8140,8115,8129,8162,8149,8169,8169,8108,8146,8158,8263,3.904741764068604,False
105,8139,8144,8160,8145,8157,8122,8149,8156,8167,8167,8095,8149,8140,8265,3.912648916244507,False
106,8142,8149,8188,8151,8184,8114,8139,8166,8165,8171,8112,8150,8144,8258,3.9197144508361816,False
107,8121,8137,8149,8163,8165,8119,8141,8158,8168,8174,8120,8142,8154,8253,3.927799701690674,False
108,8134,8149,8190,8168,8190,8122,8137,8178,8167,8174,8108,8159,8150,8250,3.9357540607452393,False
109,8137,8132,8145,8152,8161,8113,8145,8169,8174,8173,8108,8137,8150,8251,3.943846940994263,False
110,8144,8141,8177,8147,8189,8128,8157,8167,8166,8166,8111,8142,8140,8240,3.951707363128662,False
111,8150,8156,8190,8164,8154,8143,8177,8163,8170,8173,8127,8165,8151,8247,3.9597151279449454,False
112,8152,8156,8144,8176,8138,8145,8189,8153,8191,8184,8142,8167,8170,8280,3.9678030014038086,False
113,8169,8150,8177,8168,8188,8147,8170,8161,8178,8177,8131,8171,8160,8286,3.9756014347076416,False
114,8148,8115,8134,8148,8147,8132,8155,8145,8152,8162,8119,8139,8143,8256,3.982662916183472,False
115,8138,8131,8189,8137,8186,8124,8150,8153,8142,8150,8101,8145,8112,8230,3.990654706954956,False
116,8151,8141,8187,8153,8142,8136,8161,8157,8165,8150,8109,8153,8120,8241,3.998600244522095,False
117,8148,8133,8127,8170,8104,8135,8175,8159,8178,8155,8124,8140,8142,8252,4.006740570068359,False
118,8153,8162,8246,8171,8206,8139,8177,8209,8158,8150,8104,8169,8119,8247,4.014735460281372,False
119,8125,8136,8179,8163,8139,8158,8196,8192,8167,8149,8094,8149,8110,8255,4.022861003875732,False
120,8101,8103,8077,8148,8089,8161,8198,8152,8168,8143,8085,8119,8111,8252,4.030705451965332,False
121,8112,8106,8132,8131,8126,8148,8183,8160,8145,8139,8071,8123,8092,8230,4.0388288497924805,False
122,8112,8111,8154,8126,8128,8146,8169,8164,8150,8154,8073,8121,8083,8213,4.046860218048096,False
123,8113,8120,8183,8130,8123,8141,8137,8169,8153,8166,8086,8139,8096,8206,4.053718328475952,False
124,8098,8105,8129,8139,8052,8119,8115,8147,8131,8177,8115,8132,8124,8224,4.061801671981812,False
125,8118,8139,8169,8167,8118,8128,8114,8151,8118,8191,8140,8147,8147,8250,4.069646835327148,False
126,8154,8168,8194,8196,8142,8163,8135,8168,8141,8200,8166,8165,8165,8256,4.077882289886475,False
127,8149,8158,8138,8199,8102,8180,8157,8149,8157,8202,8176,8151,8160,8247,4.085833311080933,False
237,8165,8196,8264,8211,8213,8185,8148,8173,8144,8195,8171,8184,8144,8239,4.093729972839356,False
0,8152,8182,8207,8235,8158,8190,8161,8165,8170,8196,8186,8168,8164,8236,4.101723670959473,False
1,8132,8161,8131,8227,8119,8201,8176,8144,8182,8182,8159,8136,8153,8213,4.108877420425415,False
2,8158,8178,8217,8204,8184,8201,8160,8162,8141,8156,8126,8164,8125,8215,4.116859674453735,False
3,8173,8168,8153,8218,8123,8185,8162,8145,8140,8157,8162,8163,8163,8262,4.12493634223938,False
4,8178,8177,8122,8244,8108,8179,8175,8141,8153,8157,8179,8151,8182,8278,4.132633447647095,False
5,8176,8190,8175,8227,8145,8180,8179,8176,8143,8150,8159,8159,8154,8272,4.140863418579102,False
6,8183,8193,8220,8204,8173,8175,8168,8205,8152,8152,8161,8184,8151,8291,4.1488730907440186,False
7,8171,8163,8174,8200,8133,8168,8156,8184,8171,8159,8162,8172,8169,8306,4.156804323196411,False
8,8126,8129,8109,8176,8113,8169,8157,8149,8157,8164,8146,8133,8167,8275,4.164822101593018,False
9,8125,8147,8196,8157,8172,8180,8153,8178,8143,8173,8144,8151,8157,8248,4.172844171524048,False
10,8143,8143,8170,8173,8112,8175,8147,8179,8170,8200,8166,8151,8179,8267,4.179840087890625,False
11,8158,8160,8157,8198,8133,8162,8140,8169,8187,8216,8171,8147,8196,8273,4.1878745555877686,False
12,8183,8195,8259,8208,8213,8173,8143,8202,8183,8214,8173,8181,8193,8261,4.195853471755981,False
13,8180,8174,8188,8218,8123,8188,8162,8191,8197,8219,8190,8165,8213,8275,4.2035651206970215,False
14,8196,8181,8163,8229,8127,8197,8168,8172,8199,8224,8183,8152,8215,8279,4.211812973022461,False
15,8202,8183,8158,8219,8156,8208,8185,8174,8198,8216,8170,8149,8195,8262,4.2197206020355225,False
16,8178,8164,8139,8206,8158,8218,8196,8178,8192,8202,8156,8153,8185,8263,4.227790832519531,False
17,8194,8194,8229,8228,8193,8226,8184,8183,8172,8190,8139,8188,8180,8288,4.235801935195923,False
18,8203,8204,8173,8261,8138,8226,8190,8155,8181,8192,8154,8175,8192,8316,4.242844104766846,False
19,8189,8189,8137,8247,8162,8226,8199,8161,8196,8194,8165,8161,8197,8308,4.250753402709961,False
20,8170,8160,8168,8201,8177,8223,8196,8171,8188,8188,8145,8156,8183,8281,4.258809566497803,False
21,8153,8143,8150,8186,8143,8215,8181,8158,8171,8174,8118,8141,8169,8268,4.2669103145599365,False
22,8163,8153,8180,8209,8150,8207,8167,8176,8157,8167,8112,8159,8161,8268,4.274840116500855,False
23,8163,8137,8141,8219,8097,8199,8176,8166,8157,8177,8137,8160,8175,8284,4.28266191482544,False
24,8182,8149,8194,8208,8155,8201,8164,8164,8141,8166,8135,8177,8167,8296,4.290616273880005,False
25,8201,8154,8238,8208,8187,8209,8146,8168,8120,8146,8105,8182,8147,8301,4.298753499984741,False
26,8186,8143,8155,8223,8137,8201,8144,8132,8120,8156,8099,8150,8147,8297,4.306690692901611,False
27,8206,8186,8196,8257,8167,8194,8131,8135,8125,8166,8127,8177,8159,8290,4.313777446746826,False
28,8244,8206,8189,8304,8120,8198,8135,8149,8144,8174,8170,8201,8201,8305,4.321687698364258,False
29,8257,8204,8173,8317,8124,8199,8145,8145,8156,8183,8171,8188,8218,8322,4.329869270324707,False
30,8248,8189,8195,8288,8164,8186,8136,8146,8151,8179,8152,8186,8207,8329,4.337786912918091,False
31,8241,8184,8179,8281,8154,8185,8130,8155,8154,8184,8153,8186,8216,8339,4.34586238861084,False
32,8250,8210,8216,8295,8178,8205,8138,8182,8163,8202,8149,8191,8221,8337,4.353851079940796,False
33,8217,8177,8143,8273,8127,8209,8162,8165,8169,8199,8142,8156,8213,8322,4.3616814613342285,False
34,8195,8162,8155,8244,8160,8195,8161,8164,8152,8169,8120,8148,8186,8300,4.369884252548218,False
35,8195,8167,8193,8236,8153,8195,8160,8188,8144,8164,8103,8160,8164,8282,4.376620292663574,False
36,8154,8131,8097,8223,8082,8204,8184,8176,8171,8184,8118,8132,8172,8266,4.38463568687439,False
37,8145,8136,8195,8210,8201,8206,8173,8201,8176,8182,8123,8159,8165,8244,4.392826318740845,False
38,8155,8122,8201,8208,8182,8189,8162,8199,8182,8185,8132,8169,8164,8255,4.400661468505859,False
39,8173,8120,8119,8225,8114,8187,8181,8179,8208,8202,8146,8155,8183,8289,4.408620119094849,False
40,8206,8155,8196,8240,8176,8205,8184,8204,8207,8197,8146,8184,8199,8307,4.416841983795166,False
41,8204,8143,8187,8232,8160,8206,8166,8185,8191,8192,8151,8182,8210,8317,4.424720764160156,False
42,8208,8142,8176,8228,8150,8200,8152,8156,8176,8188,8148,8179,8200,8312,4.432733297348023,False
43,8222,8149,8165,8239,8135,8192,8162,8137,8169,8175,8140,8175,8189,8306,4.439857721328735,False
44,8234,8161,8181,8247,8165,8181,8155,8133,8155,8166,8133,8173,8177,8310,4.447851657867432,False
45,8242,8180,8217,8260,8181,8170,8134,8138,8135,8163,8137,8179,8165,8313,4.457281112670898,False
46,8238,8184,8157,8271,8132,8155,8140,8122,8140,8154,8156,8175,8187,8323,4.4636170864105225,False
47,8265,8212,8235,8262,8206,8159,8142,8160,8136,8142,8155,8215,8199,8347,4.471661567687988,False
48,8266,8198,8236,8252,8182,8167,8137,8180,8128,8149,8149,8208,8193,8361,4.479648590087891,False
49,8213,8164,8121,8240,8116,8152,8136,8151,8131,8154,8140,8153,8177,8319,4.487697601318359,False
50,8186,8166,8166,8204,8174,8140,8135,8168,8128,8144,8119,8155,8157,8270,4.495753765106201,False
51,8162,8139,8153,8178,8165,8152,8165,8184,8139,8154,8123,8155,8163,8279,4.503730535507202,False
52,8142,8133,8131,8192,8162,8172,8189,8187,8157,8170,8128,8144,8160,8272,4.51068925857544,False
53,8143,8149,8128,8196,8123,8172,8188,8192,8175,8174,8135,8142,8156,8246,4.518715858459473,False
54,8151,8162,8148,8178,8124,8160,8189,8213,8190,8181,8151,8158,8175,8265,4.526702880859375,False
55,8169,8156,8207,8177,8167,8161,8201,8231,8194,8181,8148,8183,8180,8297,4.53464412689209,False
56,8165,8114,8112,8177,8090,8163,8218,8183,8195,8171,8143,8151,8175,8288,4.54272723197937,False
57,8189,8158,8208,8172,8190,8170,8195,8185,8165,8153,8123,8171,8154,8266,4.550729513168335,False
58,8196,8178,8294,8171,8226,8169,8173,8199,8145,8144,8112,8192,8140,8274,4.558636903762817,False
59,8148,8109,8087,8165,8059,8153,8195,8139,8167,8156,8135,8136,8158,8291,4.566859483718872,False
60,8167,8129,8083,8178,8101,8148,8200,8135,8165,8157,8137,8142,8160,8291,4.57379961013794,False
61,8202,8176,8191,8195,8195,8148,8175,8162,8143,8139,8115,8169,8143,8283,4.581923723220825,False
62,8194,8172,8194,8185,8182,8133,8159,8171,8143,8131,8117,8169,8148,8282,4.589906692504883,False
63,8182,8151,8156,8173,8111,8115,8171,8185,8162,8147,8142,8170,8176,8304,4.597744464874268,False
64,8168,8138,8126,8175,8092,8117,8183,8193,8181,8164,8142,8164,8187,8324,4.605912208557129,False
65,8169,8156,8189,8165,8176,8142,8184,8215,8201,8168,8125,8176,8177,8310,4.613881349563599,False
66,8169,8162,8187,8166,8170,8164,8206,8218,8230,8187,8141,8169,8192,8302,4.621837854385376,False
67,8159,8159,8157,8192,8146,8174,8225,8202,8242,8202,8151,8161,8206,8314,4.629918336868286,False
68,8139,8151,8143,8199,8152,8182,8226,8194,8243,8206,8139,8160,8200,8308,4.637844085693359,False
69,8128,8150,8136,8189,8167,8184,8223,8190,8245,8199,8138,8149,8193,8277,4.644960880279541,False
70,8152,8168,8208,8195,8198,8170,8197,8189,8222,8176,8139,8163,8174,8260,4.652889966964722,False
71,8156,8146,8126,8209,8111,8139,8179,8140,8205,8172,8147,8148,8178,8286,4.660638332366943,False
72,8187,8182,8176,8218,8188,8127,8161,8140,8191,8171,8137,8173,8183,8313,4.668866157531738,False
73,8227,8214,8329,8206,8259,8132,8132,8180,8163,8152,8121,8220,8161,8305,4.676916122436523,False
74,8165,8134,8135,8173,8083,8104,8131,8123,8153,8142,8131,8161,8159,8286,4.684651136398315,False
75,8129,8120,8071,8159,8108,8073,8130,8108,8138,8141,8126,8134,8157,8274,4.692817687988281,False
76,8160,8154,8173,8165,8181,8072,8123,8154,8127,8141,8109,8159,8152,8278,4.6998209953308105,False
77,8159,8150,8134,8160,8129,8083,8140,8164,8148,8143,8102,8147,8152,8280,4.70796799659729,False
78,8145,8152,8127,8159,8147,8102,8166,8180,8171,8152,8111,8141,8149,8273,4.71586799621582,False
79,8142,8153,8153,8169,8183,8122,8179,8200,8196,8168,8122,8143,8153,8275,4.723897457122803,False
80,8149,8166,8212,8179,8219,8139,8182,8223,8210,8171,8114,8157,8154,8272,4.73185396194458,False
81,8141,8167,8171,8184,8162,8153,8199,8213,8220,8171,8131,8155,8167,8270,4.739808082580566,False
82,8134,8167,8128,8193,8142,8160,8202,8192,8228,8187,8158,8157,8194,8284,4.747889757156372,False
83,8151,8176,8179,8209,8177,8165,8194,8192,8226,8194,8165,8183,8217,8318,4.7558913230896,False
84,8160,8170,8138,8214,8138,8160,8213,8174,8230,8187,8176,8179,8223,8339,4.763808727264404,False
85,8190,8199,8205,8213,8199,8152,8206,8189,8217,8180,8171,8200,8202,8324,4.770960092544556,False
86,8211,8209,8248,8230,8198,8149,8195,8196,8212,8187,8167,8212,8211,8323,4.7788708209991455,False
87,8196,8197,8157,8253,8134,8155,8209,8170,8227,8196,8173,8183,8231,8335,4.786818027496338,False
88,8197,8206,8174,8248,8163,8156,8208,8179,8218,8190,8162,8183,8213,8320,4.794837474822998,False
89,8191,8188,8142,8229,8135,8146,8210,8167,8207,8181,8165,8176,8220,8319,4.802784204483032,False
90,8209,8221,8225,8233,8214,8150,8199,8185,8191,8170,8168,8201,8230,8329,4.810681819915772,False
91,8225,8231,8293,8236,8243,8153,8189,8212,8183,8169,8167,8214,8218,8327,4.818804979324341,False
92,8165,8160,8115,8202,8115,8137,8206,8175,8202,8187,8174,8156,8225,8325,4.826716184616089,False
93,8114,8137,8068,8159,8114,8128,8204,8162,8204,8188,8157,8132,8216,8298,4.833874702453613,False
94,8100,8134,8118,8149,8155,8129,8186,8161,8186,8177,8134,8124,8180,8251,4.841791868209839,False
95,8100,8130,8159,8142,8181,8135,8179,8160,8169,8160,8110,8117,8141,8213,4.849726915359497,False
96,8093,8118,8143,8120,8140,8145,8178,8156,8173,8144,8095,8108,8133,8199,4.857764482498169,False
97,8096,8132,8129,8130,8146,8151,8166,8165,8188,8150,8114,8116,8153,8222,4.8657755851745605,False
98,8161,8196,8291,8169,8268,8153,8154,8222,8192,8168,8150,8194,8174,8273,4.873708724975586,False
99,8182,8166,8211,8173,8145,8137,8178,8212,8215,8181,8173,8192,8212,8323,4.8816978931427,False
100,8161,8125,8084,8156,8080,8120,8178,8176,8227,8174,8164,8146,8217,8329,4.88969612121582,False
101,8189,8171,8210,8159,8205,8129,8152,8200,8204,8164,8160,8172,8193,8321,4.896680593490601,False
102,8195,8184,8203,8169,8171,8133,8171,8199,8198,8165,8170,8178,8196,8320,4.90462851524353,False
103,8182,8172,8161,8175,8134,8122,8182,8187,8191,8162,8155,8173,8187,8302,4.912658452987671,False
104,8185,8160,8179,8161,8144,8119,8167,8184,8176,8159,8151,8173,8179,8302,4.920770168304443,False
105,8200,8168,8181,8158,8169,8136,8183,8185,8185,8170,8171,8178,8206,8326,4.928614377975464,False
106,8208,8194,8179,8218,8184,8135,8195,8186,8193,8188,8178,8185,8219,8329,4.936667919158936,False
107,8191,8199,8150,8252,8153,8108,8161,8167,8175,8187,8160,8173,8206,8313,4.94466495513916,False
108,8198,8219,8216,8233,8191,8119,8131,8178,8158,8171,8133,8183,8190,8315,4.9526777267456055,False
109,8191,8208,8182,8233,8159,8148,8156,8176,8172,8170,8127,8165,8188,8323,4.9605231285095215,False
110,8168,8186,8140,8230,8165,8146,8169,8171,8177,8177,8116,8143,8174,8295,4.968738555908203,False
111,8172,8190,8224,8202,8215,8151,8154,8202,8164,8164,8094,8165,8141,8262,4.975697755813599,False
112,8150,8164,8159,8192,8139,8171,8175,8188,8178,8148,8099,8143,8128,8249,4.983727693557739,False
113,8138,8159,8130,8204,8153,8166,8187,8171,8173,8136,8098,8131,8117,8231,4.991811275482178,False
114,8159,8166,8151,8208,8155,8149,8172,8166,8145,8124,8082,8137,8107,8225,4.9996325969696045,False
115,8175,8184,8149,8216,8130,8165,8172,8160,8138,8124,8082,8133,8106,8233,5.007499933242798,False
116,8180,8204,8203,8224,8178,8188,8173,8167,8137,8127,8097,8143,8095,8226,5.015620231628418,False
117,8150,8176,8143,8221,8159,8175,8173,8150,8135,8127,8114,8132,8090,8208,5.023639678955078,False
118,8134,8179,8148,8225,8176,8162,8176,8164,8131,8125,8110,8141,8087,8193,5.031708478927612,False
119,8130,8183,8168,8224,8162,8171,8190,8184,8138,8140,8119,8140,8101,8196,5.038769721984863,False
120,8134,8182,8155,8221,8162,8171,8182,8185,8159,8164,8146,8129,8131,8210,5.046653509140015,False
121,8168,8208,8218,8230,8209,8166,8155,8201,8169,8169,8159,8161,8156,8231,5.054644346237183,False
122,8153,8191,8139,8229,8136,8159,8155,8165,8162,8170,8164,8147,8176,8253,5.06263542175293,False
123,8129,8189,8162,8198,8188,8148,8131,8142,8118,8156,8132,8136,8147,8232,5.070727109909058,False
124,8121,8179,8220,8162,8217,8142,8103,8152,8091,8138,8105,8140,8115,8194,5.078723669052124,False
125,8100,8137,8117,8159,8123,8148,8117,8129,8115,8139,8116,8110,8133,8207,5.086498975753784,False
126,8119,8142,8149,8168,8153,8151,8116,8143,8114,8129,8110,8127,8131,8238,5.094763278961182,False
127,8130,8129,8148,8151,8136,8135,8113,8157,8101,8114,8101,8136,8116,8256,5.101689338684082,False
237,8128,8127,8162,8133,8157,8137,8124,8164,8107,8116,8107,8141,8116,8260,5.10993218421936,False
0,8133,8137,8208,8130,8177,8165,8142,8187,8125,8131,8126,8163,8137,8269,5.117910861968994,False
1,8120,8116,8143,8125,8117,8175,8158,8174,8140,8145,8149,8155,8167,8290,5.125747919082642,False
2,8134,8132,8182,8136,8161,8172,8151,8168,8133,8138,8147,8167,8163,8288,5.13387942314148,False
3,8145,8137,8176,8162,8151,8162,8144,8158,8129,8128,8150,8167,8157,8279,5.141818046569824,False
4,8151,8149,8171,8179,8159,8161,8146,8165,8130,8132,8162,8174,8166,8283,5.149864435195923,False
5,8180,8183,8214,8200,8175,8178,8168,8190,8149,8147,8178,8196,8188,8306,5.157830238342285,False
6,8196,8201,8174,8227,8143,8175,8184,8185,8179,8163,8193,8180,8219,8324,5.165722846984863,False
7,8194,8220,8222,8227,8201,8152,8157,8203,8171,8163,8183,8186,8217,8309,5.172560453414917,False
8,8162,8193,8194,8204,8169,8132,8142,8202,8158,8160,8174,8175,8214,8290,5.180735111236572,False
9,8152,8182,8128,8196,8124,8146,8165,8191,8173,8167,8173,8158,8230,8293,5.188631057739258,False
10,8170,8200,8157,8203,8140,8160,8181,8203,8184,8176,8162,8168,8227,8305,5.196783542633057,False
11,8158,8179,8133,8192,8112,8138,8164,8185,8173,8169,8151,8159,8210,8304,5.204832315444946,False
12,8157,8171,8167,8171,8142,8129,8137,8171,8141,8141,8136,8158,8189,8279,5.212647914886475,False
13,8160,8167,8179,8164,8153,8141,8136,8157,8128,8129,8123,8148,8166,8253,5.220806121826172,False
14,8153,8174,8173,8172,8151,8139,8138,8154,8141,8141,8121,8148,8151,8241,5.228771209716797,False
15,8165,8183,8196,8182,8138,8125,8135,8161,8141,8144,8129,8161,8151,8233,5.235853672027588,False
16,8155,8160,8124,8185,8105,8129,8148,8137,8136,8132,8129,8139,8152,8230,5.243800163269043,False
17,8163,8178,8205,8192,8197,8147,8136,8153,8114,8111,8106,8163,8119,8237,5.251898527145386,False
18,8187,8182,8234,8201,8143,8146,8128,8160,8099,8113,8130,8183,8133,8267,5.259918928146362,False
19,8183,8166,8130,8203,8064,8144,8146,8134,8108,8129,8178,8170,8193,8300,5.267812252044678,False
20,8189,8188,8216,8198,8169,8160,8144,8168,8101,8123,8175,8204,8199,8305,5.275889873504639,False
21,8171,8163,8195,8175,8121,8151,8145,8177,8106,8120,8178,8197,8197,8305,5.283828496932983,False
22,8142,8141,8104,8156,8056,8117,8145,8157,8122,8133,8187,8163,8214,8305,5.291635751724243,False
23,8149,8167,8140,8178,8089,8109,8140,8177,8139,8148,8186,8172,8218,8313,5.299662828445435,False
24,8159,8181,8174,8196,8120,8129,8143,8202,8155,8162,8191,8183,8215,8300,5.306621789932251,False
25,8158,8178,8182,8187,8135,8132,8135,8201,8163,8172,8192,8182,8217,8268,5.314750909805298,False
26,8138,8166,8117,8190,8089,8122,8139,8176,8179,8184,8191,8156,8229,8267,5.322734117507935,False
27,8142,8185,8171,8205,8154,8133,8141,8187,8172,8170,8177,8163,8208,8264,5.330605983734131,False
28,8156,8181,8203,8206,8161,8151,8145,8183,8154,8150,8168,8172,8181,8251,5.3385326862335205,False
29,8160,8172,8139,8208,8114,8150,8164,8157,8160,8155,8170,8165,8182,8266,5.346616268157959,False
30,8185,8206,8240,8218,8191,8149,8169,8189,8152,8143,8157,8196,8177,8275,5.35474419593811,False
31,8166,8175,8192,8213,8133,8158,8188,8189,8141,8127,8162,8171,8180,8263,5.361741542816162,False
32,8145,8159,8115,8201,8104,8168,8200,8175,8140,8132,8169,8139,8178,8250,5.369768142700195,False
33,8168,8184,8196,8204,8163,8166,8191,8191,8131,8132,8167,8161,8173,8248,5.377874135971069,False
34,8178,8164,8165,8215,8116,8155,8191,8169,8129,8128,8176,8160,8191,8271,5.385718584060669,False
35,8192,8162,8175,8210,8123,8158,8187,8164,8132,8136,8175,8166,8191,8296,5.393823862075806,False
36,8186,8162,8175,8184,8118,8166,8169,8172,8146,8150,8174,8167,8191,8302,5.401724100112915,False
37,8184,8169,8175,8190,8130,8166,8145,8184,8166,8165,8199,8179,8221,8306,5.409706592559815,False
38,8200,8169,8194,8216,8150,8158,8145,8197,8181,8178,8219,8191,8243,8318,5.417675018310547,False
39,8170,8138,8134,8201,8116,8140,8146,8175,8184,8173,8191,8161,8234,8306,5.425776243209839,False
40,8160,8148,8200,8169,8169,8140,8133,8193,8172,8163,8161,8174,8215,8288,5.432698965072632,False
41,8174,8145,8187,8169,8140,8141,8149,8197,8181,8177,8190,8182,8232,8313,5.440619468688965,False
42,8172,8150,8140,8190,8122,8123,8155,8174,8169,8177,8187,8176,8231,8323,5.448732614517212,False
43,8177,8172,8198,8200,8150,8123,8137,8183,8136,8155,8149,8190,8197,8295,5.456596612930298,False
44,8189,8164,8148,8198,8100,8145,8159,8186,8152,8158,8165,8176,8206,8307,5.464640378952026,False
45,8222,8192,8196,8199,8162,8146,8168,8202,8161,8166,8186,8199,8225,8344,5.472657203674316,False
46,8221,8191,8207,8211,8138,8122,8147,8187,8142,8163,8183,8207,8220,8355,5.480838298797607,False
47,8202,8172,8141,8222,8096,8136,8160,8168,8152,8168,8179,8178,8211,8355,5.488767623901367,False
48,8208,8195,8202,8208,8162,8165,8177,8197,8164,8171,8170,8185,8196,8349,5.495865106582642,False
49,8179,8171,8173,8186,8117,8149,8165,8179,8155,8169,8167,8170,8187,8321,5.5037171840667725,False
50,8159,8142,8130,8175,8091,8138,8156,8161,8150,8168,8166,8150,8179,8282,5.511853456497192,False
51,8169,8143,8119,8162,8089,8151,8172,8169,8168,8172,8169,8143,8178,8277,5.5198163986206055,False
52,8171,8161,8174,8160,8145,8149,8170,8175,8178,8168,8160,8154,8171,8290,5.527553558349609,False
53,8166,8154,8222,8170,8165,8152,8154,8182,8168,8159,8151,8180,8171,8292,5.535839319229126,False
54,8142,8113,8098,8161,8059,8162,8164,8153,8165,8167,8160,8153,8189,8284,5.543810129165649,False
55,8165,8150,8180,8154,8142,8164,8153,8163,8147,8163,8148,8162,8166,8268,5.551888465881348,False
56,8193,8176,8245,8174,8165,8162,8140,8176,8138,8156,8155,8183,8163,8277,5.558836460113525,False
57,8166,8150,8118,8194,8071,8152,8149,8149,8151,8161,8178,8160,8193,8300,5.566629409790039,False
58,8165,8175,8176,8197,8136,8141,8141,8173,8145,8158,8162,8176,8185,8305,5.574822902679443,False
59,8167,8179,8186,8192,8140,8132,8144,8187,8145,8159,8153,8176,8184,8314,5.582853078842163,False
60,8161,8169,8127,8197,8109,8132,8156,8179,8151,8174,8160,8159,8197,8323,5.590687274932861,False
61,8171,8180,8155,8202,8124,8144,8156,8183,8148,8176,8148,8161,8187,8309,5.598796367645264,False
62,8164,8175,8181,8182,8137,8158,8152,8173,8138,8153,8131,8151,8166,8273,5.606849908828735,False
63,8139,8156,8178,8164,8131,8166,8159,8170,8136,8146,8134,8154,8159,8260,5.614863395690918,False
64,8111,8127,8085,8179,8060,8166,8172,8156,8159,8168,8151,8141,8170,8278,5.621828317642212,False
65,8131,8148,8138,8185,8112,8175,8156,8161,8156,8158,8141,8142,8156,8261,5.629833221435547,False
66,8156,8165,8199,8180,8136,8183,8157,8168,8146,8139,8132,8152,8148,8242,5.637854814529419,False
67,8149,8159,8133,8195,8103,8182,8185,8160,8167,8155,8156,8147,8168,8263,5.645805597305298,False
68,8161,8190,8226,8206,8191,8180,8180,8195,8156,8154,8157,8173,8157,8263,5.653695106506348,False
69,8149,8167,8216,8192,8140,8176,8188,8189,8139,8135,8149,8164,8146,8257,5.661844491958618,False
70,8147,8154,8138,8196,8089,8179,8202,8157,8149,8138,8160,8155,8159,8287,5.669784784317017,False
71,8180,8181,8178,8219,8145,8177,8179,8164,8139,8138,8165,8178,8170,8314,5.677860498428345,False
72,8168,8169,8154,8212,8149,8155,8158,8149,8127,8134,8161,8161,8173,8303,5.685662031173706,False
73,8161,8176,8191,8189,8173,8133,8135,8144,8123,8130,8142,8157,8149,8271,5.69273853302002,False
74,8166,8178,8170,8186,8105,8125,8119,8139,8117,8125,8143,8147,8137,8255,5.7008607387542725,False
75,8165,8172,8133,8191,8089,8135,8131,8146,8119,8132,8161,8146,8157,8264,5.70882248878479,False
76,8166,8173,8193,8178,8140,8142,8143,8170,8125,8140,8163,8170,8162,8280,5.716688394546509,False
77,8133,8138,8138,8152,8077,8133,8147,8159,8128,8140,8164,8149,8163,8271,5.724802017211914,False
78,8121,8139,8143,8151,8097,8143,8144,8169,8133,8146,8168,8153,8172,8255,5.732699155807495,False
79,8141,8153,8157,8174,8117,8157,8147,8181,8161,8167,8174,8167,8184,8271,5.740969657897949,False
80,8151,8165,8164,8188,8148,8152,8142,8186,8177,8173,8164,8166,8179,8275,5.748651266098023,False
81,8166,8189,8259,8192,8195,8151,8139,8214,8167,8158,8163,8193,8177,8269,5.755865097045898,False
82,8158,8169,8163,8184,8087,8142,8160,8188,8178,8169,8191,8177,8203,8301,5.763859272003174,False
83,8162,8167,8131,8173,8105,8133,8152,8178,8170,8175,8182,8171,8200,8320,5.771790981292725,False
84,8190,8179,8209,8192,8173,8138,8133,8192,8150,8151,8159,8186,8187,8313,5.779732942581177,False
85,8194,8178,8174,8219,8130,8133,8135,8166,8150,8140,8161,8174,8191,8312,5.787700891494751,False
86,8193,8186,8164,8217,8119,8119,8124,8152,8142,8152,8163,8178,8189,8312,5.79566216468811,False
87,8190,8175,8150,8204,8113,8118,8111,8151,8136,8155,8161,8174,8194,8315,5.803754091262817,False
88,8190,8185,8189,8208,8154,8113,8103,8163,8122,8134,8138,8176,8171,8298,5.811654806137085,False
89,8166,8170,8171,8191,8116,8104,8110,8159,8110,8135,8130,8163,8144,8261,5.818577289581299,False
90,8121,8141,8107,8151,8076,8109,8124,8147,8122,8148,8133,8136,8146,8241,5.826610565185547,False
91,8130,8154,8176,8125,8143,8123,8130,8179,8132,8140,8105,8150,8136,8239,5.834566116333008,False
92,8152,8144,8141,8135,8093,8130,8145,8177,8148,8145,8122,8151,8154,8255,5.842694997787476,False
93,8179,8172,8164,8170,8122,8148,8146,8177,8163,8162,8174,8177,8197,8282,5.850630044937134,False
94,8203,8196,8244,8180,8181,8167,8145,8194,8163,8173,8189,8209,8214,8309,5.858525276184082,False
95,8185,8159,8162,8160,8115,8165,8163,8177,8164,8174,8187,8188,8226,8324,5.866692304611206,False
96,8189,8166,8168,8164,8123,8169,8169,8181,8171,8180,8201,8198,8246,8340,5.874650716781616,False
97,8210,8190,8187,8181,8135,8178,8169,8186,8180,8187,8210,8208,8262,8369,5.882727146148682,False
98,8230,8205,8204,8181,8158,8175,8162,8191,8170,8175,8193,8219,8255,8380,5.889638423919678,False
99,8228,8190,8193,8176,8129,8172,8164,8189,8170,8172,8195,8223,8258,8375,5.897709369659424,False
100,8195,8173,8138,8175,8108,8168,8171,8174,8191,8185,8201,8196,8270,8367,5.905700445175171,False
101,8195,8206,8252,8160,8212,8165,8149,8211,8178,8177,8172,8216,8240,8342,5.913696765899658,False
102,8162,8160,8162,8126,8109,8155,8153,8191,8165,8167,8155,8184,8210,8312,5.921768665313721,False
103,8133,8125,8074,8114,8067,8152,8174,8158,8157,8166,8145,8142,8188,8284,5.929723262786865,False
104,8161,8158,8204,8127,8152,8157,8177,8195,8141,8165,8139,8168,8181,8268,5.937656879425049,False
105,8144,8137,8134,8118,8076,8164,8198,8186,8160,8171,8154,8155,8196,8272,5.945672273635864,False
106,8138,8139,8132,8104,8125,8180,8211,8181,8176,8177,8168,8162,8197,8279,5.953696250915527,False
107,8165,8167,8210,8121,8175,8182,8210,8190,8168,8179,8178,8183,8200,8289,5.96067214012146,False
108,8161,8159,8163,8137,8111,8169,8214,8155,8149,8164,8161,8167,8195,8288,5.968689203262329,False
109,8152,8146,8131,8131,8097,8168,8213,8127,8123,8134,8129,8160,8166,8277,5.976737976074219,False
110,8153,8150,8134,8138,8118,8177,8205,8135,8123,8131,8134,8160,8154,8272,5.984630584716797,False
111,8178,8183,8197,8163,8156,8191,8184,8163,8140,8150,8152,8170,8163,8260,5.992614030838013,False
112,8196,8193,8184,8189,8120,8198,8176,8155,8164,8166,8164,8163,8191,8269,6.000607967376709,False
113,8203,8197,8172,8200,8136,8199,8170,8153,8180,8169,8165,8171,8217,8303,6.0084967613220215,False
114,8205,8195,8203,8174,8142,8196,8150,8181,8172,8167,8158,8196,8215,8321,6.016643047332764,False
115,8181,8162,8133,8146,8053,8176,8152,8170,8166,8176,8173,8180,8232,8323,6.0237531661987305,False
116,8181,8174,8181,8154,8116,8158,8158,8181,8170,8194,8182,8193,8253,8324,6.031695127487183,False
117,8182,8169,8199,8165,8141,8161,8164,8192,8182,8203,8181,8204,8248,8324,6.039698362350464,False
118,8158,8152,8123,8153,8090,8166,8168,8177,8189,8205,8183,8182,8247,8314,6.047612428665161,False
119,8159,8181,8198,8147,8147,8164,8160,8196,8180,8206,8171,8192,8247,8306,6.055759429931641,False
120,8158,8170,8183,8146,8148,8156,8166,8185,8180,8207,8150,8171,8233,8304,6.06367564201355,False
121,8170,8172,8153,8153,8154,8169,8177,8167,8176,8197,8127,8156,8199,8290,6.071660280227661,False
122,8183,8192,8177,8170,8164,8196,8185,8165,8166,8187,8113,8164,8182,8280,6.07962965965271,False
123,8179,8183,8163,8180,8178,8213,8196,8155,8172,8179,8120,8163,8192,8289,6.086620569229126,False
124,8210,8197,8209,8210,8221,8230,8208,8175,8185,8172,8151,8190,8216,8319,6.094662666320801,False
125,8229,8202,8171,8232,8156,8234,8222,8177,8199,8183,8193,8195,8258,8350,6.1026904582977295,False
126,8219,8204,8170,8212,8169,8225,8214,8170,8194,8184,8183,8190,8253,8333,6.110545635223389,True
127,8211,8200,8195,8195,8188,8217,8199,8167,8179,8160,8146,8187,8215,8306,6.118710279464722,True
237,8201,8202,8152,8203,8155,8200,8186,8155,8177,8153,8140,8174,8211,8312,6.126782417297363,True
0,8205,8219,8221,8201,8200,8171,8155,8169,8153,8147,8122,8191,8188,8295,6.134658336639404,True
1,8177,8178,8149,8182,8115,8143,8145,8146,8125,8134,8103,8164,8155,8255,6.142874240875244,True
2,8157,8178,8114,8180,8128,8138,8142,8137,8121,8132,8108,8149,8156,8238,6.150781631469727,True
3,8170,8200,8216,8185,8229,8154,8136,8181,8124,8139,8128,8176,8177,8249,6.157724618911743,True
4,8155,8166,8146,8175,8175,8164,8148,8176,8134,8156,8150,8161,8198,8274,6.165827512741089,False
5,8169,8178,8171,8161,8192,8158,8135,8177,8137,8166,8147,8177,8199,8291,6.1736791133880615,False
6,8187,8183,8191,8153,8159,8159,8130,8181,8160,8177,8163,8189,8220,8308,6.181729555130005,False
7,8183,8175,8155,8158,8125,8188,8160,8186,8195,8204,8189,8185,8248,8325,6.189685583114624,False
8,8191,8198,8192,8176,8163,8210,8187,8207,8212,8223,8205,8199,8253,8338,6.196638822555542,False
9,8192,8208,8173,8191,8158,8205,8211,8195,8228,8227,8218,8188,8260,8343,6.205787897109985,False
10,8206,8224,8220,8197,8199,8211,8220,8201,8226,8217,8188,8189,8248,8331,6.213568449020386,False
11,8202,8202,8167,8204,8150,8222,8237,8191,8226,8212,8172,8167,8247,8326,6.220737934112549,False
12,8198,8195,8135,8210,8158,8225,8245,8180,8240,8215,8201,8162,8254,8323,6.228742361068726,False
13,8216,8212,8236,8200,8220,8220,8222,8188,8237,8212,8215,8197,8247,8314,6.236688852310181,False
14,8189,8189,8168,8185,8153,8204,8205,8148,8222,8205,8193,8173,8244,8308,6.24456262588501,False
15,8172,8199,8141,8190,8168,8199,8185,8136,8199,8191,8166,8159,8225,8298,6.252772092819214,False
16,8175,8210,8167,8195,8179,8196,8159,8150,8191,8184,8165,8165,8203,8283,6.260725736618042,False
17,8161,8201,8157,8182,8172,8182,8143,8153,8202,8183,8162,8158,8202,8271,6.268686771392822,False
18,8157,8208,8166,8179,8187,8176,8153,8172,8206,8192,8162,8174,8217,8282,6.276612281799316,False
19,8155,8194,8125,8186,8164,8179,8184,8171,8200,8202,8170,8173,8226,8308,6.284682512283325,False
20,8175,8197,8183,8185,8223,8185,8193,8176,8186,8201,8162,8185,8225,8316,6.29169511795044,False
21,8198,8193,8192,8181,8196,8174,8185,8175,8189,8211,8171,8192,8253,8332,6.299617052078247,False
22,8205,8189,8143,8185,8148,8164,8181,8174,8197,8219,8196,8192,8279,8361,6.307759761810303,False
23,8222,8202,8214,8191,8203,8176,8188,8202,8192,8210,8206,8218,8273,8368,6.31567645072937,False
24,8205,8180,8154,8176,8157,8181,8215,8196,8220,8215,8215,8195,8279,8362,6.323643445968628,False
25,8197,8201,8175,8167,8199,8188,8229,8217,8246,8221,8210,8194,8275,8347,6.3317551612854,False
26,8208,8211,8241,8183,8235,8207,8243,8232,8248,8216,8204,8209,8260,8335,6.339771032333374,False
27,8186,8173,8143,8188,8167,8204,8255,8179,8238,8209,8206,8176,8261,8339,6.346583604812622,False
28,8183,8183,8173,8178,8198,8191,8227,8167,8196,8187,8186,8183,8243,8338,6.354748487472534,False
29,8184,8181,8178,8175,8172,8199,8206,8162,8176,8182,8182,8189,8238,8345,6.362609624862671,False
30,8179,8176,8154,8174,8165,8208,8195,8150,8180,8193,8176,8185,8239,8347,6.370527505874634,False
31,8168,8182,8178,8158,8198,8190,8174,8161,8171,8184,8146,8178,8211,8319,6.378745317459106,False
32,8153,8164,8148,8152,8181,8177,8171,8167,8178,8182,8150,8159,8205,8304,6.38655424118042,False
33,8158,8157,8158,8162,8183,8188,8185,8178,8199,8205,8179,8171,8230,8320,6.3947062492370605,False
34,8155,8157,8125,8169,8153,8191,8202,8171,8211,8218,8196,8167,8255,8328,6.402812242507935,False
35,8185,8197,8180,8185,8210,8178,8197,8180,8206,8208,8197,8184,8257,8315,6.410723924636841,False
36,8218,8222,8227,8209,8225,8176,8198,8188,8200,8202,8210,8200,8253,8320,6.417707204818726,False
37,8191,8198,8145,8208,8168,8184,8209,8152,8183,8183,8206,8167,8239,8318,6.42580246925354,False
38,8195,8219,8245,8201,8255,8194,8189,8160,8142,8152,8169,8186,8191,8288,6.433748722076416,False
39,8205,8213,8240,8211,8214,8206,8201,8159,8139,8155,8174,8186,8187,8291,6.441768169403076,False
40,8170,8185,8117,8203,8142,8212,8234,8132,8146,8153,8175,8149,8194,8294,6.449695110321045,False
41,8156,8184,8152,8167,8175,8208,8224,8143,8125,8124,8137,8154,8160,8259,6.457706451416016,False
42,8158,8170,8155,8152,8151,8203,8207,8154,8130,8133,8133,8158,8157,8260,6.465714693069458,False
43,8167,8174,8164,8163,8170,8208,8203,8180,8159,8164,8159,8176,8189,8301,6.473709583282471,False
44,8163,8165,8140,8161,8170,8201,8202,8188,8186,8183,8187,8189,8225,8327,6.480712175369263,False
45,8158,8161,8145,8154,8201,8200,8197,8192,8206,8204,8205,8191,8247,8333,6.488631963729858,False
46,8181,8172,8201,8154,8221,8216,8193,8220,8219,8220,8211,8204,8263,8342,6.496584177017212,False
47,8188,8155,8145,8161,8155,8220,8201,8208,8231,8231,8221,8200,8288,8359,6.504754304885864,False
48,8208,8183,8204,8180,8212,8213,8199,8204,8220,8228,8219,8220,8285,8358,6.512846946716309,False
49,8219,8193,8186,8188,8180,8201,8205,8184,8200,8216,8211,8204,8272,8352,6.520815134048462,False
50,8217,8199,8152,8194,8163,8196,8206,8168,8183,8204,8195,8185,8253,8347,6.528771638870239,False
51,8246,8234,8302,8206,8266,8208,8199,8206,8166,8193,8175,8228,8219,8336,6.53669810295105,False
52,8225,8200,8210,8193,8180,8210,8225,8183,8172,8186,8170,8195,8208,8322,6.543681383132935,False
53,8192,8180,8097,8190,8133,8203,8228,8144,8169,8171,8156,8144,8190,8302,6.551762104034424,False
54,8203,8213,8156,8233,8169,8209,8208,8156,8167,8166,8154,8160,8173,8305,6.55966854095459,False
55,8200,8231,8171,8251,8174,8211,8208,8163,8176,8159,8151,8173,8172,8302,6.567681789398193,False
56,8172,8218,8178,8227,8194,8204,8211,8157,8160,8139,8125,8169,8152,8261,6.575640439987183,False
57,8138,8183,8123,8208,8150,8197,8207,8143,8153,8140,8125,8144,8143,8235,6.583701848983765,False
58,8144,8188,8146,8196,8177,8177,8186,8157,8161,8154,8132,8154,8151,8239,6.591722965240479,False
59,8151,8184,8171,8179,8185,8143,8166,8162,8166,8157,8132,8160,8154,8251,6.599583625793457,False
60,8134,8171,8138,8164,8167,8119,8153,8147,8159,8158,8135,8141,8154,8250,6.607710838317871,False
61,8150,8193,8182,8161,8199,8113,8128,8162,8141,8169,8137,8161,8157,8252,6.614892959594727,False
62,8154,8179,8117,8167,8137,8096,8123,8152,8149,8178,8154,8162,8177,8277,6.622663259506226,False
63,8166,8199,8156,8171,8196,8097,8143,8173,8164,8168,8149,8169,8171,8285,6.630813837051392,False
64,8189,8227,8257,8164,8255,8127,8184,8215,8166,8170,8137,8181,8156,8264,6.638853311538696,False
65,8172,8182,8151,8159,8157,8142,8231,8202,8194,8189,8160,8155,8180,8263,6.6469011306762695,False
66,8167,8169,8142,8170,8171,8166,8261,8216,8241,8193,8192,8167,8196,8279,6.654820203781128,False
67,8177,8184,8167,8184,8189,8194,8287,8222,8275,8208,8213,8178,8200,8287,6.662837266921997,False
68,8205,8215,8196,8200,8208,8199,8284,8204,8272,8220,8208,8186,8200,8295,6.67094087600708,False
69,8223,8236,8225,8213,8220,8187,8262,8197,8251,8205,8194,8187,8200,8302,6.677810192108154,False
70,8186,8207,8147,8202,8168,8183,8248,8173,8244,8196,8196,8154,8203,8291,6.685782194137573,False
71,8168,8197,8163,8176,8192,8184,8218,8170,8225,8191,8193,8164,8190,8276,6.693773031234741,False
72,8164,8191,8145,8170,8180,8166,8205,8159,8212,8178,8182,8165,8184,8283,6.701848268508911,False
73,8163,8200,8143,8177,8200,8146,8196,8159,8213,8181,8180,8159,8187,8290,6.709701299667358,False
74,8173,8202,8190,8163,8207,8142,8177,8175,8213,8196,8189,8171,8189,8288,6.717771768569946,False
75,8151,8175,8124,8149,8143,8141,8182,8150,8204,8189,8182,8146,8177,8270,6.725579500198364,False
76,8147,8199,8197,8162,8217,8131,8175,8161,8178,8170,8159,8158,8151,8250,6.733887434005737,False
77,8158,8197,8223,8165,8211,8113,8169,8178,8175,8173,8177,8172,8167,8264,6.741528034210205,False
78,8150,8165,8126,8138,8150,8116,8187,8162,8182,8190,8205,8154,8187,8279,6.748646020889282,False
79,8152,8171,8152,8130,8185,8131,8195,8166,8169,8190,8200,8161,8177,8266,6.756870269775391,False
80,8155,8166,8160,8142,8167,8122,8187,8170,8178,8185,8208,8159,8186,8268,6.764867544174194,False
81,8172,8181,8184,8170,8179,8119,8176,8181,8194,8188,8224,8169,8201,8279,6.772930145263672,False
82,8188,8200,8176,8207,8172,8136,8184,8177,8192,8190,8238,8180,8204,8283,6.780876874923706,False
83,8200,8220,8182,8216,8181,8148,8192,8177,8189,8183,8234,8188,8200,8292,6.7888383865356445,False
84,8214,8223,8222,8210,8202,8153,8196,8205,8202,8183,8231,8197,8204,8311,6.796878099441528,False
85,8189,8188,8128,8222,8148,8150,8213,8191,8230,8194,8260,8172,8224,8318,6.80481481552124,False
86,8183,8204,8185,8216,8209,8139,8204,8189,8220,8182,8258,8188,8217,8293,6.811692953109741,False
87,8170,8187,8203,8172,8184,8133,8186,8175,8180,8163,8230,8185,8195,8269,6.819957733154297,False
88,8118,8135,8094,8134,8130,8133,8174,8125,8150,8161,8202,8139,8180,8259,6.8276448249816895,False
89,8115,8158,8171,8125,8204,8124,8155,8146,8141,8160,8177,8161,8156,8246,6.835848808288574,False
90,8124,8159,8174,8123,8146,8118,8159,8171,8168,8172,8187,8174,8162,8249,6.84382963180542,False
91,8125,8142,8136,8125,8132,8136,8166,8168,8192,8190,8208,8163,8189,8262,6.851658821105957,False
92,8142,8150,8147,8134,8166,8145,8158,8167,8194,8205,8223,8170,8207,8287,6.8598713874816895,False
93,8172,8178,8168,8156,8177,8141,8156,8169,8196,8212,8240,8191,8229,8323,6.867843866348267,False
94,8204,8211,8262,8176,8237,8143,8164,8199,8195,8214,8253,8229,8240,8331,6.875650644302368,False
95,8175,8179,8176,8168,8157,8137,8184,8179,8192,8223,8255,8197,8238,8317,6.882711410522461,False
96,8148,8172,8123,8159,8141,8139,8201,8171,8192,8212,8241,8168,8220,8305,6.890896320343018,False
97,8165,8190,8189,8173,8201,8154,8227,8212,8220,8203,8238,8188,8222,8305,6.898942947387695,False
98,8163,8175,8156,8186,8177,8151,8243,8205,8245,8217,8252,8180,8235,8309,6.906824350357056,False
99,8164,8195,8182,8196,8194,8135,8212,8178,8213,8210,8251,8188,8221,8302,6.914825916290283,False
100,8169,8206,8172,8222,8169,8132,8186,8147,8190,8200,8257,8196,8228,8306,6.922671318054199,False
101,8182,8213,8169,8244,8180,8131,8168,8148,8195,8203,8263,8195,8241,8318,6.930606126785278,False
102,8180,8213,8196,8231,8210,8118,8140,8162,8182,8204,8252,8185,8223,8311,6.938849687576294,False
103,8143,8192,8139,8205,8187,8115,8144,8145,8174,8206,8246,8157,8217,8290,6.945866107940674,False
104,8152,8204,8187,8201,8224,8141,8157,8164,8175,8197,8229,8177,8205,8276,6.953790664672852,False
105,8165,8188,8180,8189,8168,8153,8161,8168,8185,8193,8212,8179,8186,8274,6.9618079662323,False
106,8148,8163,8129,8160,8135,8137,8165,8149,8193,8204,8214,8160,8188,8270,6.969842433929443,False
107,8145,8156,8173,8149,8177,8126,8163,8154,8174,8197,8212,8165,8192,8262,6.977607011795044,False
108,8138,8139,8144,8146,8146,8118,8161,8148,8159,8180,8206,8156,8185,8264,6.985777139663696,False
109,8153,8157,8185,8142,8178,8123,8166,8162,8162,8188,8202,8185,8180,8282,6.99378776550293,False
110,8168,8161,8190,8154,8170,8139,8192,8170,8176,8209,8225,8201,8210,8312,7.001618146896362,False
111,8167,8167,8166,8174,8193,8151,8201,8173,8176,8212,8239,8186,8225,8311,7.008841276168823,False
112,8178,8193,8244,8168,8237,8160,8187,8189,8153,8196,8215,8190,8190,8287,7.016786098480225,False
113,8160,8162,8145,8155,8122,8147,8199,8154,8161,8183,8207,8163,8192,8291,7.024862766265869,False
114,8149,8148,8105,8155,8133,8125,8196,8153,8165,8172,8210,8164,8206,8284,7.032862901687622,False
115,8159,8167,8175,8152,8171,8123,8188,8178,8157,8173,8219,8182,8196,8268,7.0408360958099365,False
116,8161,8180,8156,8158,8127,8129,8196,8163,8174,8197,8236,8174,8208,8291,7.048726320266724,False
117,8175,8194,8167,8175,8159,8127,8192,8170,8189,8214,8246,8189,8234,8311,7.056576251983643,False
118,8179,8182,8164,8185,8184,8130,8197,8183,8192,8213,8255,8187,8242,8306,7.06474757194519,False
119,8176,8187,8194,8189,8214,8151,8203,8188,8181,8210,8238,8183,8220,8296,7.07287859916687,False
120,8166,8184,8149,8191,8159,8154,8207,8173,8187,8216,8236,8176,8225,8311,7.079714775085449,False
121,8175,8186,8131,8196,8150,8138,8204,8167,8201,8218,8268,8185,8249,8336,7.087805986404419,False
122,8206,8206,8226,8197,8227,8129,8191,8185,8191,8209,8281,8214,8249,8331,7.095699071884155,False
123,8194,8180,8148,8199,8178,8119,8186,8162,8196,8221,8280,8191,8267,8323,7.103581428527832,False
124,8209,8208,8187,8221,8222,8115,8174,8171,8206,8230,8277,8209,8278,8343,7.111725091934204,False
125,8233,8230,8253,8224,8237,8108,8160,8173,8180,8208,8268,8226,8254,8357,7.119856595993042,False
126,8199,8183,8130,8199,8151,8102,8156,8119,8146,8188,8256,8174,8227,8326,7.127769708633423,False
127,8199,8186,8169,8195,8217,8117,8152,8136,8138,8180,8245,8187,8215,8309,7.135681390762329,False
237,8208,8188,8194,8194,8221,8128,8160,8164,8146,8185,8252,8202,8231,8340,7.142670392990112,False
0,8190,8181,8149,8188,8179,8123,8167,8151,8137,8186,8244,8182,8226,8342,7.150647401809692,False
1,8200,8205,8187,8207,8198,8123,8172,8165,8136,8182,8228,8193,8214,8323,7.15882682800293,False
2,8223,8213,8203,8223,8209,8116,8175,8183,8164,8192,8238,8206,8226,8332,7.166610240936279,False
3,8223,8215,8207,8213,8210,8108,8161,8185,8165,8197,8238,8202,8217,8329,7.174589157104492,False
4,8195,8193,8128,8211,8132,8114,8164,8151,8153,8188,8228,8174,8206,8309,7.182655572891235,False
5,8197,8186,8144,8222,8184,8121,8165,8144,8153,8184,8215,8178,8199,8300,7.190735816955566,False
6,8213,8186,8208,8225,8234,8125,8157,8162,8157,8197,8208,8190,8198,8300,7.198882341384888,False
7,8185,8176,8134,8210,8161,8134,8173,8153,8166,8203,8215,8170,8218,8302,7.205794095993042,False
8,8187,8199,8211,8194,8228,8150,8174,8177,8149,8196,8206,8197,8212,8288,7.213804006576538,False
9,8177,8164,8180,8193,8179,8161,8182,8164,8147,8207,8213,8185,8204,8277,7.222116470336914,False
10,8152,8151,8109,8202,8152,8181,8199,8154,8172,8207,8214,8156,8210,8282,7.229563236236572,False
11,8164,8193,8220,8208,8253,8203,8201,8207,8191,8200,8211,8190,8212,8287,7.23774266242981,False
12,8142,8157,8147,8205,8199,8203,8223,8199,8214,8222,8232,8172,8227,8286,7.2456746101379395,False
13,8131,8147,8153,8199,8216,8205,8231,8196,8216,8227,8221,8168,8227,8274,7.253577947616577,False
14,8135,8163,8213,8191,8227,8213,8224,8200,8202,8207,8209,8184,8214,8272,7.26175332069397,False
15,8121,8148,8132,8195,8167,8207,8223,8158,8189,8199,8224,8165,8207,8278,7.269678115844727,False
16,8144,8153,8114,8216,8162,8194,8212,8143,8186,8206,8228,8166,8206,8285,7.276590585708618,False
17,8168,8170,8143,8221,8184,8181,8193,8153,8195,8211,8206,8178,8197,8287,7.284834384918213,False
18,8172,8192,8213,8216,8244,8170,8174,8180,8184,8201,8179,8192,8167,8266,7.292722225189209,False
19,8162,8175,8144,8222,8162,8159,8181,8181,8193,8202,8191,8170,8178,8269,7.300827980041504,False
20,8168,8184,8157,8217,8186,8163,8186,8186,8208,8209,8181,8172,8188,8293,7.3088297843933105,False
21,8171,8194,8283,8192,8281,8163,8174,8208,8182,8200,8148,8202,8162,8281,7.316757440567017,False
22,8124,8127,8133,8183,8160,8143,8194,8164,8177,8205,8173,8154,8173,8260,7.324886560440063,False
23,8142,8157,8190,8185,8231,8152,8195,8182,8182,8206,8184,8176,8179,8264,7.332784175872803,False
24,8172,8180,8289,8168,8270,8167,8185,8209,8168,8188,8159,8209,8160,8273,7.339791059494018,False
25,8115,8098,8042,8140,8076,8150,8208,8133,8166,8186,8163,8130,8171,8269,7.3478617668151855,False
26,8100,8097,8014,8133,8115,8157,8216,8124,8170,8194,8172,8121,8172,8258,7.3557045459747314,False
27,8138,8147,8187,8145,8242,8186,8207,8180,8170,8185,8162,8175,8148,8251,7.363738775253296,False
28,8147,8150,8187,8148,8194,8181,8213,8187,8172,8183,8158,8176,8142,8246,7.3718695640563965,False
29,8147,8134,8102,8146,8123,8170,8233,8171,8192,8207,8177,8157,8171,8269,7.379594564437866,False
30,8174,8149,8153,8160,8194,8182,8244,8200,8204,8214,8183,8179,8186,8304,7.387879371643066,False
31,8192,8165,8234,8169,8231,8189,8241,8228,8195,8198,8165,8198,8167,8303,7.395900249481201,False
32,8156,8140,8124,8149,8144,8185,8258,8192,8205,8205,8158,8151,8161,8278,7.40387749671936,False
33,8151,8156,8146,8142,8229,8202,8275,8205,8219,8218,8157,8154,8164,8260,7.410860776901245,False
34,8168,8159,8225,8139,8274,8211,8278,8246,8221,8212,8155,8177,8151,8254,7.418807744979858,False
35,8130,8115,8122,8109,8147,8189,8266,8196,8212,8202,8151,8137,8136,8241,7.426831245422363,False
36,8119,8128,8130,8108,8166,8184,8248,8161,8190,8194,8153,8141,8133,8238,7.434840679168701,False
37,8149,8146,8157,8136,8196,8204,8250,8168,8191,8196,8181,8167,8159,8270,7.442866802215576,False
38,8170,8159,8175,8146,8210,8209,8227,8179,8201,8203,8200,8179,8185,8297,7.450867891311645,False
39,8176,8168,8210,8148,8212,8201,8192,8174,8198,8206,8203,8191,8198,8305,7.457669496536255,False
40,8159,8151,8137,8160,8157,8200,8194,8143,8205,8211,8206,8175,8203,8309,7.465826272964477,False
41,8168,8174,8171,8166,8214,8204,8182,8157,8203,8207,8189,8181,8181,8290,7.473848819732666,False
42,8173,8186,8175,8162,8221,8202,8169,8161,8192,8203,8179,8173,8178,8280,7.481820106506348,False
43,8160,8182,8144,8165,8212,8205,8179,8143,8185,8198,8181,8168,8183,8295,7.489864587783813,False
44,8161,8174,8183,8165,8217,8212,8183,8156,8174,8194,8179,8189,8172,8300,7.49786376953125,False
45,8160,8167,8152,8167,8175,8213,8188,8161,8181,8200,8182,8171,8186,8292,7.505638360977173,False
46,8181,8199,8209,8175,8246,8206,8190,8182,8178,8197,8173,8176,8187,8278,7.513664245605469,False
47,8167,8169,8187,8163,8214,8185,8188,8172,8162,8195,8158,8172,8165,8269,7.521867275238037,False
48,8132,8131,8101,8153,8131,8168,8192,8147,8171,8200,8152,8153,8162,8271,7.529605150222778,False
49,8155,8165,8158,8172,8170,8178,8203,8170,8185,8199,8165,8173,8172,8277,7.536850929260254,False
50,8176,8170,8159,8185,8196,8194,8212,8179,8185,8199,8191,8179,8184,8289,7.544867038726807,False
51,8197,8174,8204,8181,8241,8204,8206,8188,8175,8197,8192,8198,8180,8299,7.552887678146362,False
52,8213,8181,8206,8185,8187,8210,8216,8187,8187,8201,8196,8199,8180,8309,7.560826301574707,False
53,8197,8175,8136,8195,8157,8212,8227,8171,8204,8211,8209,8172,8184,8303,7.568872451782227,False
54,8180,8185,8170,8193,8217,8223,8211,8184,8205,8211,8198,8176,8182,8283,7.576956272125244,False
55,8154,8177,8146,8189,8175,8225,8205,8176,8214,8203,8191,8169,8190,8271,7.584899663925171,False
56,8160,8193,8189,8197,8213,8215,8201,8188,8206,8198,8193,8184,8186,8268,7.592864751815796,False
57,8179,8182,8167,8200,8188,8207,8197,8186,8214,8214,8221,8187,8202,8294,7.599822521209717,False
58,8191,8179,8148,8197,8179,8197,8181,8164,8216,8219,8225,8188,8211,8314,7.6077821254730225,False
59,8219,8221,8309,8199,8279,8191,8152,8193,8163,8188,8182,8228,8167,8294,7.6159350872039795,False
60,8184,8175,8175,8188,8150,8190,8185,8167,8164,8188,8180,8174,8166,8276,7.623876094818115,False
61,8136,8140,8066,8163,8129,8189,8208,8148,8205,8206,8189,8128,8182,8267,7.63161039352417,False
62,8138,8167,8206,8148,8240,8180,8169,8181,8179,8183,8163,8172,8149,8250,7.639984846115112,False
63,8130,8155,8148,8154,8148,8173,8164,8157,8159,8172,8150,8161,8139,8249,7.647937297821045,False
64,8132,8148,8070,8162,8109,8185,8188,8146,8187,8189,8158,8137,8162,8251,7.654714345932007,False
65,8150,8163,8144,8161,8190,8187,8191,8182,8195,8188,8168,8160,8176,8256,7.663947820663452,False
66,8173,8177,8230,8159,8225,8180,8187,8202,8176,8173,8179,8196,8176,8276,7.67093825340271,False
67,8192,8163,8166,8172,8132,8183,8199,8166,8182,8178,8205,8191,8191,8303,7.679056167602539,False
68,8199,8174,8128,8195,8133,8191,8196,8143,8191,8189,8220,8180,8209,8311,7.686991930007935,False
69,8210,8215,8279,8203,8259,8211,8173,8193,8180,8184,8203,8222,8196,8296,7.694863796234131,False
70,8186,8182,8204,8195,8167,8222,8191,8191,8205,8195,8212,8206,8203,8300,7.702925682067871,False
71,8169,8170,8103,8203,8121,8209,8204,8172,8236,8209,8231,8179,8227,8310,7.710927248001099,False
72,8183,8196,8193,8197,8210,8198,8194,8199,8229,8202,8205,8189,8224,8300,7.718982934951782,False
73,8159,8157,8159,8149,8188,8198,8201,8188,8226,8196,8161,8159,8198,8275,7.726934909820557,False
74,8147,8157,8177,8132,8214,8209,8196,8187,8216,8195,8145,8162,8172,8247,7.733744382858276,False
75,8155,8167,8178,8157,8187,8205,8182,8175,8198,8193,8163,8168,8186,8252,7.741859197616577,False
76,8165,8161,8170,8157,8189,8187,8169,8161,8173,8176,8154,8167,8189,8273,7.749879837036133,False
77,8172,8164,8235,8145,8236,8179,8157,8182,8147,8166,8130,8181,8168,8262,7.75777006149292,False
78,8143,8133,8150,8144,8155,8178,8166,8167,8162,8191,8155,8151,8191,8251,7.765809297561645,False
79,8146,8136,8110,8150,8137,8181,8176,8158,8184,8204,8173,8148,8208,8270,7.773853540420532,False
80,8169,8150,8101,8169,8158,8190,8189,8154,8186,8185,8161,8152,8192,8292,7.781645774841309,False
81,8173,8166,8164,8172,8246,8208,8187,8170,8176,8168,8141,8160,8169,8277,7.789838075637817,False
82,8186,8180,8270,8163,8267,8212,8176,8207,8177,8172,8143,8194,8170,8276,7.796847581863403,False
83,8187,8159,8154,8180,8136,8199,8196,8177,8190,8180,8177,8177,8206,8304,7.804971218109131,False
84,8195,8172,8151,8190,8192,8218,8217,8179,8188,8182,8181,8172,8217,8298,7.812827110290527,False
85,8185,8164,8178,8170,8203,8242,8237,8218,8212,8200,8171,8172,8217,8294,7.820860147476196,False
86,8172,8162,8139,8166,8166,8240,8248,8230,8250,8212,8177,8161,8223,8306,7.828914403915405,False
87,8185,8200,8221,8174,8262,8238,8228,8237,8239,8197,8172,8182,8205,8286,7.836822271347046,False
88,8145,8173,8159,8158,8203,8238,8228,8201,8224,8198,8164,8155,8194,8256,7.84467077255249,False
89,8104,8136,8073,8134,8129,8233,8233,8166,8224,8207,8145,8126,8193,8250,7.85284423828125,False
90,8114,8122,8111,8127,8171,8225,8197,8159,8212,8203,8130,8140,8193,8255,7.860727310180664,False
91,8122,8125,8147,8144,8207,8217,8159,8162,8202,8202,8132,8146,8201,8255,7.867828369140625,False
92,8131,8152,8165,8163,8191,8220,8166,8174,8206,8207,8136,8156,8210,8260,7.875767230987549,False
93,8142,8158,8133,8161,8147,8233,8185,8159,8212,8209,8146,8161,8220,8272,7.883578062057495,False
94,8173,8181,8208,8164,8217,8239,8170,8170,8207,8210,8148,8192,8219,8286,7.891526699066162,False
95,8177,8175,8213,8172,8211,8223,8160,8176,8206,8210,8153,8191,8218,8297,7.899815320968628,False
96,8154,8145,8122,8170,8172,8219,8178,8148,8203,8195,8155,8149,8203,8286,7.907610654830933,False
97,8182,8178,8220,8173,8256,8237,8180,8163,8173,8170,8125,8169,8160,8255,7.915849208831787,False
98,8185,8171,8191,8163,8188,8232,8178,8161,8161,8162,8116,8175,8155,8256,7.923640966415405,False
99,8149,8135,8095,8138,8143,8224,8185,8148,8175,8165,8140,8161,8184,8281,7.930958271026611,False
100,8159,8158,8190,8148,8240,8239,8187,8176,8174,8170,8167,8187,8195,8282,7.93870997428894,False
101,8159,8177,8213,8161,8239,8227,8171,8177,8167,8183,8179,8189,8199,8263,7.946859359741211,False
102,8120,8146,8132,8134,8182,8203,8152,8158,8166,8187,8169,8161,8201,8247,7.95464277267456,False
103,8099,8101,8055,8114,8122,8206,8162,8141,8187,8194,8163,8133,8208,8252,7.962811231613159,False
104,8132,8133,8160,8122,8203,8206,8150,8166,8188,8202,8147,8163,8198,8251,7.970660209655762,False
105,8125,8139,8183,8123,8193,8188,8133,8177,8174,8204,8145,8166,8195,8236,7.978836536407471,False
106,8094,8112,8089,8107,8141,8193,8154,8160,8196,8213,8169,8133,8221,8244,7.986778259277344,False
107,8173,8189,8335,8118,8332,8226,8147,8230,8201,8210,8182,8218,8217,8267,7.99386715888977,False
108,8200,8182,8325,8140,8241,8230,8151,8229,8200,8206,8199,8231,8223,8283,8.001694202423096,False
109,8143,8101,8017,8141,8024,8212,8189,8145,8220,8213,8211,8144,8259,8297,8.009761333465576,False
110,8182,8138,8076,8141,8125,8227,8208,8170,8226,8220,8203,8170,8261,8315,8.017669439315796,False
111,8218,8178,8199,8145,8202,8249,8227,8218,8229,8222,8193,8199,8240,8311,8.025832414627075,False
112,8172,8156,8177,8129,8175,8246,8239,8212,8226,8207,8180,8171,8218,8276,8.033623695373535,False
113,8136,8129,8135,8111,8163,8232,8226,8179,8205,8185,8159,8152,8199,8258,8.041683435440063,False
114,8145,8135,8163,8124,8190,8222,8194,8155,8168,8166,8135,8157,8168,8254,8.049827575683594,False
115,8152,8144,8180,8133,8162,8202,8164,8145,8153,8159,8133,8156,8156,8244,8.057782649993896,False
116,8138,8141,8112,8130,8108,8174,8142,8134,8165,8166,8148,8141,8178,8248,8.065757989883423,False
117,8148,8161,8159,8132,8169,8165,8108,8145,8147,8165,8140,8164,8174,8255,8.072930335998535,False
118,8150,8144,8164,8113,8161,8164,8090,8129,8121,8164,8145,8171,8176,8264,8.080751895904541,False
119,8144,8128,8136,8097,8166,8168,8095,8118,8121,8173,8167,8172,8197,8283,8.088915586471558,False
120,8180,8160,8228,8115,8221,8175,8107,8164,8129,8176,8159,8205,8185,8294,8.096770524978638,False
121,8192,8145,8169,8132,8125,8170,8131,8162,8156,8189,8161,8187,8187,8300,8.104856252670288,False
122,8192,8147,8158,8135,8144,8181,8140,8164,8177,8207,8182,8184,8217,8301,8.112771034240723,False
123,8186,8152,8174,8134,8169,8208,8154,8182,8189,8215,8200,8195,8239,8306,8.120854616165161,False
124,8164,8141,8134,8130,8144,8228,8176,8176,8206,8221,8198,8182,8243,8306,8.127667903900146,False
125,8175,8173,8254,8139,8241,8238,8170,8211,8205,8224,8178,8208,8240,8291,8.135749816894531,False
126,8155,8151,8197,8142,8179,8224,8180,8199,8198,8223,8176,8184,8246,8286,8.143651485443115,False
127,8113,8109,8066,8115,8111,8205,8196,8152,8187,8204,8156,8142,8219,8279,8.151857137680054,False
237,8103,8110,8101,8097,8154,8205,8192,8153,8171,8179,8116,8143,8178,8257,8.159611225128174,False
0,8108,8138,8150,8112,8184,8199,8185,8173,8160,8178,8107,8147,8171,8248,8.167858123779297,False
1,8130,8169,8196,8136,8201,8188,8175,8196,8148,8186,8120,8164,8171,8254,8.175801992416382,False
2,8129,8149,8139,8143,8148,8185,8169,8177,8157,8191,8134,8162,8176,8263,8.183696269989014,False
3,8134,8163,8183,8140,8215,8183,8154,8181,8158,8184,8123,8179,8171,8259,8.19070553779602,False
4,8136,8173,8227,8140,8238,8190,8146,8199,8150,8188,8117,8186,8168,8248,8.198635816574097,False
5,8109,8132,8097,8150,8132,8200,8175,8165,8175,8214,8145,8142,8189,8246,8.206680536270142,False
6,8118,8143,8142,8166,8194,8202,8184,8166,8194,8220,8156,8154,8205,8251,8.214635372161865,False
7,8120,8155,8182,8160,8215,8193,8159,8159,8186,8207,8147,8170,8200,8256,8.222688913345337,False
8,8119,8153,8136,8156,8166,8191,8134,8128,8167,8201,8147,8163,8193,8258,8.230585098266602,False
9,8166,8176,8189,8189,8191,8199,8133,8138,8168,8208,8169,8195,8221,8281,8.238600492477417,False
10,8193,8195,8209,8224,8208,8193,8144,8145,8187,8211,8194,8221,8257,8325,8.246695756912231,False
11,8195,8217,8217,8230,8207,8191,8134,8147,8179,8207,8187,8229,8256,8348,8.254689931869507,False
12,8188,8184,8136,8221,8134,8197,8142,8138,8178,8215,8187,8200,8272,8352,8.261757850646973,False
13,8194,8179,8158,8212,8195,8199,8153,8155,8185,8216,8180,8200,8278,8340,8.269617080688477,False
14,8204,8214,8256,8202,8241,8187,8145,8183,8162,8201,8154,8221,8239,8318,8.277683973312378,False
15,8167,8173,8122,8186,8110,8175,8154,8149,8148,8199,8150,8170,8224,8308,8.285692691802979,False
16,8150,8160,8155,8164,8188,8187,8151,8161,8137,8193,8136,8176,8210,8289,8.29368805885315,False
17,8137,8165,8218,8151,8219,8195,8153,8183,8135,8188,8126,8191,8193,8274,8.301712274551392,False
18,8108,8148,8117,8160,8136,8194,8170,8161,8162,8203,8138,8157,8199,8270,8.309653282165527,False
19,8128,8156,8154,8166,8192,8195,8166,8176,8182,8215,8135,8167,8193,8256,8.31780219078064,False
20,8137,8146,8164,8148,8193,8197,8164,8193,8191,8216,8129,8162,8192,8247,8.324827671051025,False
21,8124,8146,8144,8154,8182,8206,8178,8194,8199,8209,8144,8155,8201,8250,8.33260440826416,False
22,8126,8147,8130,8180,8180,8190,8183,8167,8195,8193,8169,8163,8208,8267,8.340764045715332,False
23,8144,8156,8164,8171,8206,8160,8157,8153,8163,8181,8165,8175,8201,8282,8.348690271377563,False
24,8167,8174,8236,8166,8224,8162,8136,8165,8135,8173,8152,8196,8185,8285,8.356864213943481,False
25,8176,8162,8169,8185,8157,8174,8147,8130,8147,8165,8163,8190,8190,8301,8.364635467529297,False
26,8196,8180,8197,8188,8194,8169,8132,8127,8134,8151,8151,8206,8182,8311,8.372857093811035,False
27,8202,8189,8224,8185,8178,8170,8124,8149,8113,8148,8137,8206,8167,8305,8.380800724029541,False
28,8181,8177,8171,8182,8131,8168,8140,8144,8120,8154,8150,8184,8164,8299,8.388771772384644,False
29,8185,8189,8230,8176,8195,8160,8137,8162,8126,8155,8160,8210,8162,8308,8.395658254623413,False
30,8172,8171,8170,8182,8156,8157,8149,8169,8153,8178,8183,8200,8192,8324,8.403854131698608,False
31,8149,8159,8111,8174,8138,8158,8161,8170,8179,8200,8199,8179,8215,8303,8.411615133285522,False
32,8151,8152,8158,8140,8157,8160,8159,8179,8180,8203,8188,8186,8206,8282,8.41970181465149,False
33,8158,8152,8167,8148,8163,8161,8172,8185,8190,8209,8182,8181,8201,8288,8.427703142166138,False
34,8173,8180,8203,8174,8215,8170,8190,8217,8203,8208,8180,8181,8196,8274,8.435633420944214,False
35,8157,8162,8144,8157,8169,8186,8214,8215,8214,8215,8188,8158,8198,8252,8.44372820854187,False
36,8149,8154,8146,8150,8187,8202,8221,8196,8219,8219,8183,8150,8194,8254,8.451820135116577,False
37,8166,8166,8191,8175,8209,8195,8204,8182,8215,8195,8164,8157,8180,8259,8.458665609359741,False
38,8162,8163,8153,8174,8178,8177,8191,8151,8190,8169,8148,8151,8161,8244,8.466848373413086,False
39,8174,8180,8213,8165,8230,8179,8178,8152,8146,8156,8142,8181,8142,8236,8.4746572971344,False
40,8171,8158,8158,8170,8165,8171,8166,8127,8125,8148,8162,8181,8154,8269,8.482853412628174,False
41,8179,8171,8176,8170,8191,8155,8137,8116,8107,8132,8166,8195,8156,8300,8.490671873092651,False
42,8208,8203,8283,8174,8255,8150,8123,8145,8096,8130,8170,8236,8157,8312,8.49881625175476,False
43,8188,8159,8143,8186,8141,8142,8143,8124,8130,8160,8204,8204,8202,8335,8.506755113601685,False
44,8190,8160,8139,8181,8178,8148,8150,8139,8157,8183,8205,8197,8218,8342,8.514857053756714,False
45,8199,8174,8220,8165,8227,8161,8159,8184,8179,8197,8200,8203,8213,8325,8.522647380828857,False
46,8163,8141,8139,8154,8163,8156,8174,8187,8213,8214,8217,8170,8235,8306,8.529850244522095,False
47,8138,8130,8104,8144,8154,8154,8172,8181,8222,8216,8215,8164,8241,8291,8.537625551223755,False
48,8144,8154,8155,8136,8191,8169,8173,8177,8211,8204,8194,8171,8218,8290,8.545848369598389,False
49,8162,8178,8224,8152,8218,8180,8174,8193,8195,8196,8179,8179,8192,8288,8.553654193878174,False
50,8136,8132,8106,8157,8108,8169,8182,8170,8187,8198,8176,8143,8190,8272,8.561734437942505,False
51,8128,8135,8140,8138,8169,8168,8178,8175,8175,8187,8151,8145,8170,8241,8.569624662399292,False
52,8163,8179,8333,8131,8282,8182,8161,8214,8156,8168,8128,8191,8132,8223,8.577849864959717,False
53,8138,8130,8156,8146,8119,8176,8176,8151,8164,8166,8148,8150,8137,8236,8.585646390914917,False
54,8130,8135,8086,8163,8129,8169,8175,8124,8165,8164,8151,8149,8140,8242,8.592820882797241,False
55,8165,8174,8213,8175,8224,8178,8156,8165,8157,8167,8143,8190,8143,8247,8.600852489471436,False
56,8164,8157,8152,8182,8157,8182,8162,8152,8172,8177,8165,8177,8174,8268,8.60884714126587,False
57,8168,8177,8149,8183,8179,8172,8156,8149,8172,8176,8176,8182,8175,8285,8.616565465927124,False
58,8174,8191,8197,8170,8229,8160,8145,8168,8159,8174,8159,8180,8154,8275,8.624817371368408,False
59,8165,8159,8185,8151,8205,8158,8153,8173,8156,8170,8143,8163,8148,8257,8.632632732391357,False
60,8149,8121,8106,8145,8115,8150,8160,8148,8161,8167,8157,8156,8161,8268,8.640781879425049,False
61,8147,8137,8129,8148,8153,8137,8140,8152,8148,8164,8155,8172,8160,8279,8.648675203323364,False
62,8164,8155,8217,8148,8214,8146,8143,8188,8132,8166,8141,8192,8153,8278,8.655849695205688,False
63,8157,8126,8119,8148,8117,8164,8185,8169,8158,8179,8174,8170,8176,8287,8.66361689567566,False
64,8177,8173,8219,8162,8217,8176,8181,8197,8173,8184,8180,8204,8172,8285,8.671871900558472,False
65,8194,8192,8316,8162,8260,8171,8168,8222,8166,8182,8157,8226,8157,8283,8.679639101028442,False
66,8154,8124,8101,8139,8087,8156,8191,8148,8168,8185,8173,8163,8178,8292,8.6876060962677,False
67,8160,8140,8111,8144,8145,8167,8189,8143,8166,8186,8185,8166,8189,8289,8.69571852684021,False
68,8192,8177,8208,8169,8222,8180,8180,8180,8178,8197,8175,8194,8185,8296,8.703836917877197,False
69,8192,8168,8166,8177,8177,8176,8191,8170,8183,8199,8162,8180,8171,8307,8.711732625961304,False
70,8186,8160,8154,8171,8156,8171,8192,8167,8170,8179,8148,8162,8155,8292,8.718927383422852,False
71,8178,8169,8163,8174,8177,8171,8179,8178,8167,8169,8144,8155,8159,8268,8.726664543151855,False
72,8184,8190,8203,8173,8212,8173,8178,8196,8169,8169,8145,8180,8166,8262,8.734886169433594,False
73,8188,8173,8159,8156,8159,8173,8196,8189,8176,8177,8153,8175,8173,8291,8.74263882637024,False
74,8204,8169,8163,8158,8174,8177,8190,8186,8181,8193,8163,8170,8181,8318,8.750844478607178,False
75,8220,8183,8223,8174,8208,8176,8160,8189,8173,8199,8166,8192,8184,8309,8.758658170700073,False
76,8189,8169,8169,8161,8158,8163,8139,8156,8158,8194,8162,8174,8184,8285,8.766618728637695,False
77,8174,8179,8202,8140,8191,8162,8116,8163,8142,8184,8144,8171,8162,8273,8.774607181549072,False
78,8170,8162,8170,8143,8148,8170,8128,8170,8153,8191,8147,8164,8157,8278,8.78177547454834,False
79,8162,8156,8128,8150,8145,8172,8152,8160,8167,8199,8151,8153,8164,8274,8.789655447006226,False
80,8168,8169,8172,8153,8177,8176,8150,8165,8160,8192,8153,8167,8156,8267,8.797832727432251,False
81,8162,8150,8121,8175,8137,8186,8167,8152,8173,8194,8177,8164,8166,8274,8.805602550506592,False
82,8186,8197,8260,8198,8286,8200,8172,8189,8173,8187,8170,8206,8156,8268,8.813756704330444,False
83,8191,8201,8296,8192,8290,8201,8174,8198,8167,8178,8168,8208,8152,8267,8.821701526641846,False
84,8162,8137,8091,8179,8116,8206,8205,8145,8184,8190,8201,8161,8185,8281,8.829848766326904,False
85,8179,8152,8093,8183,8122,8216,8210,8143,8174,8191,8210,8174,8193,8284,8.837564945220947,False
86,8205,8197,8185,8188,8197,8206,8184,8161,8144,8167,8185,8186,8170,8287,8.845563173294067,False
87,8216,8200,8224,8182,8224,8197,8170,8185,8146,8161,8165,8191,8168,8305,8.852525234222412,False
88,8189,8155,8119,8166,8114,8195,8176,8168,8176,8192,8182,8171,8206,8323,8.860481023788452,False
89,8168,8171,8141,8150,8164,8187,8138,8153,8167,8200,8173,8166,8199,8300,8.868612289428711,True
90,8193,8210,8306,8147,8281,8181,8088,8190,8147,8189,8146,8206,8162,8271,8.876495838165283,True
91,8167,8143,8152,8145,8122,8175,8099,8161,8180,8208,8177,8178,8194,8294,8.884530305862427,True
92,8144,8121,8088,8134,8112,8170,8106,8139,8188,8219,8190,8158,8214,8307,8.892581701278687,True
93,8174,8155,8195,8124,8195,8171,8106,8172,8176,8215,8169,8181,8195,8302,8.900560855865479,True
94,8186,8152,8150,8127,8139,8175,8128,8175,8202,8218,8183,8179,8209,8315,8.908844232559204,True
95,8194,8161,8185,8145,8179,8178,8135,8189,8204,8211,8191,8195,8222,8322,8.915634393692017,True
96,8187,8160,8199,8152,8185,8176,8144,8193,8183,8200,8180,8187,8212,8313,8.923862218856812,False
97,8176,8155,8165,8153,8156,8177,8159,8179,8174,8189,8179,8175,8191,8306,8.931660890579224,False
98,8178,8146,8146,8170,8132,8181,8164,8158,8172,8176,8188,8175,8182,8311,8.939703941345215,False
99,8192,8151,8147,8187,8149,8180,8169,8149,8171,8168,8178,8173,8179,8324,8.947743892669678,False
100,8221,8181,8231,8182,8214,8178,8164,8174,8153,8147,8152,8199,8151,8326,8.955921173095703,False
101,8198,8155,8155,8165,8136,8167,8158,8150,8135,8122,8150,8178,8139,8315,8.963759183883667,False
102,8179,8152,8135,8154,8154,8167,8148,8147,8125,8119,8148,8164,8140,8294,8.971925020217896,False
103,8191,8166,8217,8138,8221,8169,8128,8180,8113,8119,8135,8182,8132,8273,8.979851007461548,False
104,8169,8137,8143,8124,8156,8159,8118,8157,8109,8131,8150,8163,8154,8272,8.986847162246704,False
105,8155,8143,8119,8129,8140,8163,8113,8142,8115,8155,8168,8159,8168,8274,8.994595050811768,False
106,8154,8153,8116,8137,8128,8171,8108,8140,8134,8168,8167,8150,8167,8265,9.002821683883667,False
107,8176,8181,8212,8126,8215,8160,8090,8175,8136,8169,8158,8175,8168,8259,9.010618448257446,False
108,8203,8190,8288,8098,8250,8145,8087,8214,8131,8187,8175,8215,8182,8273,9.018795013427734,False
109,8182,8143,8137,8084,8131,8142,8120,8183,8162,8208,8204,8175,8208,8293,9.026659965515137,False
110,8183,8152,8113,8107,8138,8156,8133,8171,8186,8204,8209,8160,8220,8296,9.034839153289797,False
111,8195,8159,8146,8110,8157,8180,8149,8176,8191,8207,8216,8180,8226,8309,9.042623043060305,False
112,8206,8162,8189,8100,8209,8198,8165,8190,8182,8204,8208,8210,8220,8333,9.04981517791748,False
113,8235,8195,8263,8143,8252,8195,8157,8214,8172,8187,8190,8236,8216,8348,9.05778455734253,False
114,8227,8192,8175,8193,8171,8177,8163,8181,8181,8182,8189,8200,8215,8345,9.065600872039797,False
115,8220,8196,8172,8203,8191,8173,8160,8160,8166,8166,8156,8182,8173,8315,9.073631763458252,False
116,8217,8205,8183,8211,8192,8179,8150,8161,8149,8146,8133,8173,8148,8287,9.081842422485352,False
117,8199,8215,8158,8217,8197,8185,8142,8161,8153,8140,8139,8152,8151,8275,9.089626550674438,False
118,8201,8218,8195,8205,8241,8192,8136,8170,8155,8141,8140,8155,8142,8269,9.097843170166016,False
119,8183,8188,8124,8187,8179,8189,8147,8156,8165,8157,8141,8135,8145,8261,9.105647087097168,False
120,8164,8194,8155,8176,8212,8195,8137,8178,8161,8166,8132,8140,8141,8241,9.112823486328123,False
121,8165,8201,8211,8169,8238,8194,8123,8202,8162,8161,8129,8152,8131,8237,9.120769500732422,False
122,8159,8180,8132,8170,8175,8171,8136,8176,8178,8161,8136,8134,8132,8245,9.128836154937744,False
123,8146,8159,8105,8166,8164,8171,8162,8163,8170,8163,8136,8131,8130,8242,9.136641263961792,False
124,8128,8142,8116,8152,8193,8190,8180,8173,8152,8157,8138,8137,8137,8241,9.144803762435911,False
125,8141,8173,8213,8138,8271,8203,8178,8219,8148,8143,8130,8170,8132,8240,9.152653694152832,False
126,8132,8155,8132,8135,8162,8212,8207,8204,8172,8149,8130,8153,8136,8245,9.160831451416016,False
127,8134,8151,8105,8152,8171,8227,8233,8177,8188,8158,8117,8145,8132,8256,9.168753147125244,False
237,8189,8208,8361,8167,8372,8245,8215,8234,8164,8138,8085,8217,8096,8254,9.176821947097778,False
0,8152,8153,8223,8155,8197,8239,8232,8193,8160,8134,8102,8175,8104,8248,9.18363356590271,False
1,8096,8110,7977,8158,8036,8220,8241,8116,8184,8157,8126,8108,8135,8252,9.191757440567017,False
2,8138,8160,8101,8181,8189,8206,8185,8148,8184,8160,8121,8151,8129,8270,9.199710607528688,False
3,8168,8174,8201,8180,8253,8202,8139,8170,8155,8137,8117,8183,8110,8274,9.207816123962402,False
4,8153,8164,8164,8177,8187,8203,8149,8161,8134,8133,8130,8172,8117,8252,9.21567416191101,False
5,8135,8167,8123,8182,8156,8204,8173,8166,8153,8163,8151,8154,8147,8246,9.223854064941406,False
6,8139,8183,8199,8176,8237,8210,8162,8190,8155,8172,8140,8169,8145,8245,9.231702327728271,False
7,8133,8154,8163,8170,8186,8212,8165,8178,8148,8166,8140,8163,8139,8239,9.239850521087646,False
8,8138,8145,8112,8179,8157,8215,8193,8174,8172,8187,8173,8157,8171,8252,9.24658226966858,False
9,8190,8213,8315,8188,8305,8232,8196,8243,8188,8206,8188,8228,8196,8287,9.25463080406189,False
10,8185,8192,8255,8184,8207,8241,8215,8227,8202,8211,8196,8219,8210,8310,9.262553453445436,False
11,8148,8145,8052,8195,8094,8243,8246,8160,8225,8212,8199,8159,8217,8301,9.27065896987915,False
12,8172,8190,8147,8222,8200,8248,8239,8183,8233,8200,8171,8179,8201,8277,9.278594493865969,False
13,8183,8207,8194,8229,8207,8251,8234,8200,8234,8194,8150,8175,8184,8256,9.286575317382812,False
14,8171,8198,8161,8229,8192,8267,8252,8185,8237,8198,8149,8151,8176,8241,9.29469108581543,False
15,8174,8206,8170,8239,8215,8273,8254,8170,8232,8190,8149,8157,8179,8248,9.302544355392456,False
16,8172,8219,8205,8227,8241,8244,8220,8161,8194,8154,8131,8171,8164,8253,9.309664487838743,False
17,8149,8190,8174,8193,8184,8215,8202,8151,8153,8130,8110,8160,8132,8243,9.31758952140808,False
18,8119,8146,8070,8178,8113,8206,8211,8135,8157,8140,8105,8138,8129,8246,9.3256413936615,False
19,8147,8179,8192,8185,8236,8208,8180,8174,8161,8143,8102,8181,8128,8253,9.333844184875488,False
20,8160,8181,8213,8186,8211,8192,8149,8174,8158,8155,8134,8189,8149,8267,9.341623067855837,False
21,8145,8171,8123,8189,8140,8169,8145,8139,8157,8178,8159,8169,8182,8285,9.349735021591188,False
22,8182,8209,8225,8204,8228,8173,8132,8164,8146,8187,8149,8206,8185,8284,9.357787609100342,False
23,8198,8195,8186,8207,8183,8168,8133,8154,8153,8197,8167,8194,8203,8299,9.365885257720947,False
24,8199,8200,8161,8203,8187,8156,8138,8155,8160,8204,8180,8187,8216,8319,9.373581171035768,False
25,8204,8213,8207,8210,8221,8164,8140,8184,8153,8207,8170,8200,8211,8315,9.380682229995728,False
26,8197,8198,8169,8225,8187,8168,8153,8168,8144,8213,8171,8183,8219,8302,9.388693809509276,False
27,8211,8200,8162,8227,8182,8162,8168,8157,8148,8209,8182,8183,8224,8307,9.396745920181274,False
28,8215,8199,8144,8218,8183,8174,8184,8165,8169,8198,8186,8180,8219,8320,9.404688358306885,False
29,8203,8203,8185,8219,8222,8199,8191,8187,8170,8190,8162,8182,8193,8298,9.412906885147097,False
30,8172,8190,8161,8228,8179,8208,8202,8176,8171,8183,8148,8166,8175,8263,9.42076063156128,False
31,8150,8199,8135,8234,8190,8213,8209,8169,8187,8178,8157,8156,8176,8248,9.428818464279177,False
32,8160,8215,8192,8224,8247,8215,8192,8186,8183,8178,8169,8175,8181,8250,9.436800718307495,False
33,8147,8182,8123,8215,8184,8200,8180,8156,8178,8185,8176,8150,8197,8263,9.443783283233644,False
34,8158,8214,8242,8224,8300,8205,8158,8183,8167,8185,8150,8177,8186,8260,9.451604127883911,False
35,8165,8222,8283,8224,8297,8204,8159,8204,8162,8194,8146,8196,8191,8263,9.45983910560608,False
36,8136,8161,8055,8217,8110,8184,8185,8145,8189,8216,8180,8149,8236,8288,9.467626094818115,False
37,8165,8184,8134,8223,8181,8193,8173,8171,8201,8217,8185,8181,8244,8304,9.475829601287842,False
38,8191,8202,8216,8230,8206,8208,8178,8204,8207,8219,8180,8208,8244,8317,9.483787536621094,False
39,8191,8189,8129,8225,8155,8199,8206,8179,8218,8220,8177,8188,8251,8322,9.491868257522585,False
40,8222,8207,8192,8222,8223,8195,8199,8186,8206,8199,8168,8207,8238,8330,9.499737739562988,False
41,8227,8205,8240,8216,8237,8193,8179,8192,8182,8185,8158,8215,8217,8342,9.50783395767212,False
42,8199,8183,8173,8197,8165,8187,8182,8166,8156,8171,8128,8188,8183,8326,9.514741659164429,False
43,8184,8169,8087,8193,8100,8197,8199,8121,8144,8160,8125,8161,8170,8309,9.522836446762083,False
44,8209,8203,8193,8211,8207,8209,8181,8136,8138,8159,8152,8203,8181,8317,9.53075909614563,False
45,8222,8208,8213,8229,8212,8189,8161,8157,8145,8158,8167,8217,8190,8332,9.538853883743286,False
46,8210,8197,8113,8227,8151,8162,8162,8144,8162,8161,8153,8170,8189,8329,9.546712636947632,False
47,8236,8247,8293,8212,8301,8162,8139,8192,8144,8165,8126,8206,8166,8312,9.554776191711426,False
48,8207,8207,8261,8195,8227,8151,8133,8191,8138,8169,8129,8202,8170,8307,9.562755346298218,False
49,8146,8143,8032,8178,8081,8146,8158,8129,8155,8177,8138,8131,8186,8295,9.570752143859863,False
50,8157,8172,8102,8179,8196,8171,8170,8143,8154,8187,8130,8136,8177,8267,9.57768177986145,False
51,8164,8174,8168,8174,8250,8184,8175,8171,8153,8190,8130,8155,8176,8260,9.58581280708313,False
52,8160,8164,8167,8162,8216,8183,8181,8189,8161,8190,8140,8167,8185,8277,9.593732595443726,False
53,8164,8163,8156,8168,8179,8192,8196,8200,8190,8209,8151,8168,8198,8296,9.601805686950684,False
54,8162,8169,8166,8181,8211,8206,8208,8202,8214,8206,8131,8169,8185,8287,9.60959768295288,False
55,8161,8171,8178,8180,8206,8204,8211,8198,8205,8171,8102,8176,8158,8269,9.61780309677124,False
56,8161,8151,8114,8168,8125,8190,8220,8163,8187,8157,8109,8157,8160,8271,9.625731706619264,False
57,8178,8168,8182,8168,8197,8194,8211,8152,8154,8154,8110,8168,8150,8268,9.63391399383545,False
58,8182,8180,8205,8178,8207,8197,8197,8137,8129,8143,8109,8174,8135,8262,9.64189910888672,False
59,8196,8185,8166,8195,8174,8187,8185,8127,8138,8149,8137,8177,8161,8285,9.64894700050354,False
60,8235,8206,8249,8211,8238,8185,8163,8177,8156,8170,8161,8218,8199,8330,9.6566321849823,False
61,8213,8182,8177,8207,8193,8182,8166,8178,8172,8177,8162,8192,8215,8352,9.664842128753662,False
62,8184,8176,8122,8200,8178,8180,8165,8161,8172,8169,8144,8159,8202,8329,9.672733545303345,False
63,8188,8169,8147,8192,8172,8183,8157,8172,8166,8174,8137,8162,8191,8306,9.680830717086792,False
64,8174,8153,8143,8175,8180,8179,8168,8187,8175,8182,8130,8164,8189,8307,9.688770771026611,False
65,8171,8171,8207,8163,8238,8182,8178,8210,8183,8184,8121,8184,8184,8307,9.696780443191528,False
66,8159,8159,8151,8170,8163,8200,8186,8185,8191,8199,8143,8161,8196,8305,9.704790115356444,False
67,8162,8161,8148,8189,8168,8206,8186,8182,8188,8199,8153,8160,8195,8302,9.711933374404907,False
