COUNTER,F3, FC5,AF3,F7,T7,P7,O1,O2,P8,T8,F8,AF4,FC6,F4,Timestamp
48, 8175, 8180, 8161, 8178, 8109, 8184, 8126, 8138, 8126, 8146, 8167, 8177, 8145, 8263,0.006982564926147461
49, 8199, 8208, 8184, 8198, 8112, 8184, 8149, 8156, 8149, 8179, 8193, 8203, 8192, 8308,0.01481175422668457
50, 8223, 8221, 8214, 8208, 8117, 8195, 8186, 8165, 8146, 8192, 8202, 8211, 8214, 8329,0.02303338050842285
51, 8224, 8227, 8184, 8227, 8077, 8187, 8118, 8146, 8145, 8208, 8209, 8222, 8239, 8351,0.03089594841003418
52, 8227, 8232, 8194, 8233, 8128, 8180, 8179, 8164, 8154, 8218, 8202, 8228, 8239, 8356,0.03897356986999512
53, 8187, 8195, 8170, 8193, 8131, 8179, 8167, 8168, 8151, 8193, 8176, 8197, 8200, 8315,0.047116756439208984
54, 8139, 8167, 8130, 8154, 8123, 8179, 8159, 8165, 8142, 8175, 8167, 8161, 8175, 8276,0.05493783950805664
55, 8145, 8178, 8161, 8167, 8132, 8178, 8201, 8178, 8142, 8169, 8174, 8165, 8176, 8269,0.06281757354736328
56, 8137, 8168, 8133, 8169, 8087, 8177, 8128, 8153, 8137, 8144, 8160, 8160, 8156, 8256,0.0709085464477539
57, 8141, 8151, 8138, 8139, 8128, 8185, 8204, 8148, 8122, 8125, 8148, 8145, 8117, 8231,0.07786941528320312
58, 8156, 8167, 8160, 8146, 8110, 8184, 8188, 8157, 8131, 8152, 8161, 8144, 8120, 8233,0.0857241153717041
59, 8163, 8196, 8151, 8177, 8099, 8183, 8143, 8167, 8142, 8161, 8164, 8151, 8142, 8253,0.09496521949768066
60, 8177, 8197, 8165, 8167, 8143, 8187, 8165, 8181, 8138, 8141, 8159, 8161, 8146, 8262,0.10176467895507812
61, 8166, 8181, 8145, 8153, 8129, 8182, 8117, 8169, 8143, 8155, 8171, 8164, 8163, 8270,0.10995817184448242
62, 8204, 8199, 8237, 8174, 8218, 8182, 8318, 8197, 8134, 8160, 8185, 8179, 8166, 8273,0.11787271499633789
63, 8239, 8223, 8281, 8207, 8166, 8174, 8271, 8187, 8129, 8156, 8184, 8197, 8176, 8295,0.12587666511535645
64, 8210, 8234, 8186, 8227, 8065, 8165, 8081, 8146, 8142, 8179, 8183, 8197, 8211, 8321,0.1339433193206787
65, 8219, 8239, 8213, 8231, 8146, 8173, 8204, 8165, 8132, 8190, 8191, 8201, 8218, 8325,0.14085125923156738
66, 8227, 8227, 8219, 8228, 8126, 8178, 8157, 8160, 8130, 8188, 8195, 8206, 8228, 8332,0.14910221099853516
67, 8214, 8229, 8175, 8226, 8093, 8181, 8101, 8152, 8142, 8204, 8198, 8212, 8245, 8336,0.15717411041259766
68, 8204, 8239, 8169, 8222, 8109, 8177, 8136, 8155, 8141, 8220, 8194, 8214, 8241, 8328,0.1649024486541748
69, 8175, 8216, 8132, 8208, 8098, 8165, 8102, 8137, 8137, 8190, 8170, 8186, 8217, 8312,0.17307353019714355
70, 8169, 8186, 8134, 8184, 8132, 8165, 8180, 8152, 8130, 8142, 8146, 8160, 8170, 8274,0.18089962005615234
71, 8171, 8177, 8154, 8165, 8130, 8161, 8224, 8178, 8125, 8126, 8145, 8151, 8135, 8243,0.1881885528564453
72, 8160, 8181, 8149, 8160, 8109, 8161, 8175, 8182, 8131, 8137, 8158, 8137, 8132, 8237,0.19915294647216797
73, 8148, 8181, 8126, 8158, 8093, 8175, 8110, 8169, 8154, 8156, 8166, 8131, 8150, 8246,0.20410537719726562
74, 8161, 8186, 8144, 8166, 8134, 8174, 8185, 8187, 8170, 8171, 8161, 8144, 8163, 8259,0.21214652061462402
75, 8193, 8202, 8199, 8186, 8154, 8166, 8232, 8207, 8173, 8183, 8165, 8171, 8176, 8278,0.22001194953918457
76, 8184, 8208, 8151, 8201, 8069, 8182, 8070, 8175, 8194, 8205, 8184, 8184, 8209, 8308,0.2288799285888672
77, 8207, 8220, 8192, 8204, 8162, 8211, 8236, 8202, 8190, 8198, 8183, 8192, 8214, 8323,0.23607659339904785
78, 8247, 8224, 8267, 8209, 8216, 8211, 8314, 8241, 8174, 8179, 8182, 8204, 8213, 8327,0.2438955307006836
79, 8193, 8207, 8156, 8207, 8121, 8193, 8040, 8202, 8201, 8201, 8188, 8195, 8241, 8326,0.2521073818206787
80, 8159, 8191, 8134, 8184, 8209, 8195, 8131, 8191, 8203, 8207, 8173, 8174, 8229, 8301,0.2599055767059326
81, 8183, 8191, 8182, 8175, 8228, 8193, 8219, 8184, 8175, 8192, 8169, 8162, 8215, 8298,0.26688313484191895
82, 8198, 8213, 8162, 8189, 8148, 8183, 8120, 8162, 8169, 8197, 8183, 8177, 8236, 8324,0.27501559257507324
83, 8193, 8212, 8171, 8200, 8153, 8171, 8126, 8157, 8160, 8187, 8177, 8193, 8239, 8323,0.28310275077819824
84, 8172, 8185, 8176, 8194, 8169, 8152, 8165, 8151, 8139, 8154, 8162, 8175, 8216, 8302,0.2908647060394287
85, 8181, 8194, 8175, 8180, 8181, 8152, 8193, 8157, 8134, 8145, 8168, 8160, 8193, 8285,0.29915952682495117
86, 8176, 8199, 8143, 8169, 8149, 8172, 8111, 8152, 8146, 8174, 8164, 8154, 8183, 8270,0.30696630477905273
87, 8162, 8163, 8152, 8158, 8199, 8187, 8157, 8165, 8147, 8182, 8154, 8155, 8186, 8268,0.31488776206970215
88, 8177, 8153, 8180, 8162, 8229, 8180, 8184, 8174, 8145, 8175, 8163, 8179, 8210, 8289,0.32290077209472656
89, 8177, 8185, 8142, 8174, 8177, 8164, 8112, 8152, 8149, 8182, 8162, 8181, 8216, 8296,0.33010292053222656
90, 8195, 8197, 8195, 8170, 8214, 8172, 8268, 8179, 8136, 8169, 8158, 8168, 8180, 8277,0.33811068534851074
91, 8182, 8167, 8191, 8157, 8121, 8164, 8188, 8171, 8131, 8167, 8166, 8166, 8177, 8280,0.3459768295288086
92, 8133, 8157, 8102, 8154, 8037, 8138, 8046, 8125, 8138, 8174, 8161, 8151, 8185, 8278,0.3537485599517822
93, 8157, 8182, 8167, 8160, 8137, 8136, 8211, 8140, 8122, 8153, 8155, 8146, 8162, 8255,0.36206507682800293
94, 8184, 8188, 8203, 8167, 8125, 8140, 8181, 8148, 8116, 8151, 8175, 8164, 8175, 8272,0.369856595993042
95, 8168, 8177, 8157, 8169, 8103, 8144, 8116, 8139, 8124, 8168, 8186, 8182, 8199, 8289,0.3779141902923584
96, 8169, 8179, 8172, 8174, 8154, 8163, 8191, 8142, 8119, 8167, 8177, 8180, 8191, 8277,0.38584184646606445
97, 8182, 8189, 8204, 8184, 8180, 8170, 8223, 8147, 8118, 8159, 8173, 8173, 8189, 8278,0.394031286239624
98, 8158, 8178, 8162, 8174, 8144, 8155, 8127, 8143, 8141, 8163, 8178, 8171, 8209, 8284,0.4019343852996826
99, 8117, 8161, 8090, 8157, 8141, 8155, 8075, 8139, 8163, 8168, 8172, 8160, 8217, 8278,0.40894055366516113
100, 8155, 8181, 8180, 8172, 8263, 8181, 8290, 8174, 8150, 8159, 8165, 8171, 8200, 8265,0.4169585704803467
101, 8194, 8195, 8229, 8197, 8206, 8186, 8219, 8173, 8150, 8171, 8179, 8192, 8208, 8279,0.4249863624572754
102, 8161, 8195, 8137, 8198, 8097, 8170, 8035, 8150, 8175, 8192, 8181, 8183, 8224, 8298,0.4327881336212158
103, 8175, 8212, 8165, 8193, 8180, 8180, 8189, 8180, 8183, 8185, 8169, 8173, 8212, 8299,0.44087815284729004
104, 8184, 8199, 8172, 8194, 8167, 8185, 8165, 8170, 8185, 8190, 8176, 8172, 8215, 8306,0.4489603042602539
105, 8180, 8182, 8162, 8187, 8176, 8178, 8157, 8161, 8167, 8189, 8184, 8177, 8215, 8307,0.45678138732910156
106, 8216, 8206, 8227, 8185, 8234, 8172, 8237, 8182, 8138, 8163, 8183, 8193, 8198, 8304,0.46373867988586426
107, 8209, 8216, 8205, 8192, 8198, 8158, 8149, 8171, 8137, 8163, 8186, 8194, 8210, 8308,0.4719693660736084
108, 8179, 8200, 8166, 8188, 8183, 8154, 8134, 8155, 8129, 8176, 8187, 8184, 8214, 8303,0.4797530174255371
109, 8175, 8190, 8154, 8173, 8139, 8145, 8131, 8140, 8113, 8165, 8176, 8179, 8194, 8303,0.4879283905029297
110, 8201, 8197, 8179, 8164, 8125, 8143, 8177, 8161, 8129, 8156, 8175, 8181, 8193, 8312,0.4959843158721924
111, 8210, 8199, 8184, 8161, 8094, 8157, 8161, 8182, 8161, 8183, 8184, 8182, 8220, 8314,0.503760814666748
112, 8191, 8205, 8158, 8173, 8089, 8163, 8144, 8177, 8168, 8193, 8186, 8180, 8233, 8312,0.511906623840332
113, 8212, 8219, 8205, 8190, 8187, 8162, 8243, 8181, 8159, 8173, 8185, 8190, 8223, 8316,0.5199339389801025
114, 8204, 8209, 8171, 8190, 8153, 8158, 8118, 8157, 8177, 8194, 8184, 8188, 8232, 8320,0.527878999710083
115, 8185, 8206, 8148, 8184, 8148, 8164, 8131, 8161, 8185, 8210, 8178, 8174, 8232, 8306,0.5349454879760742
116, 8188, 8207, 8196, 8179, 8174, 8166, 8218, 8176, 8165, 8183, 8167, 8166, 8208, 8289,0.5430045127868652
117, 8168, 8194, 8148, 8175, 8118, 8158, 8105, 8156, 8163, 8171, 8164, 8155, 8209, 8293,0.5509970188140869
118, 8190, 8206, 8175, 8186, 8160, 8166, 8203, 8175, 8163, 8173, 8182, 8174, 8216, 8316,0.5587990283966064
119, 8216, 8225, 8233, 8202, 8149, 8169, 8226, 8185, 8163, 8186, 8197, 8207, 8231, 8341,0.5678868293762207
120, 8194, 8220, 8187, 8196, 8104, 8161, 8106, 8171, 8175, 8189, 8191, 8203, 8244, 8343,0.5750300884246826
121, 8183, 8212, 8160, 8193, 8122, 8159, 8135, 8183, 8181, 8169, 8184, 8188, 8229, 8331,0.5839138031005859
122, 8180, 8211, 8162, 8189, 8136, 8161, 8195, 8184, 8174, 8168, 8185, 8181, 8211, 8321,0.5909702777862549
123, 8168, 8202, 8175, 8163, 8174, 8165, 8215, 8170, 8155, 8162, 8180, 8175, 8201, 8294,0.598003625869751
124, 8139, 8184, 8141, 8152, 8142, 8163, 8101, 8149, 8148, 8159, 8178, 8162, 8204, 8278,0.6057708263397217
125, 8136, 8186, 8141, 8164, 8170, 8175, 8168, 8167, 8152, 8163, 8176, 8154, 8187, 8279,0.6137785911560059
126, 8152, 8200, 8168, 8157, 8190, 8186, 8218, 8176, 8154, 8144, 8174, 8158, 8173, 8279,0.6218349933624268
127, 8148, 8207, 8122, 8155, 8152, 8173, 8091, 8162, 8167, 8144, 8170, 8167, 8202, 8293,0.6298468112945557
238, 8202, 8224, 8216, 8180, 8310, 8181, 8313, 8228, 8178, 8170, 8173, 8185, 8200, 8294,0.6379516124725342
0, 8217, 8224, 8260, 8194, 8313, 8191, 8275, 8240, 8202, 8184, 8180, 8184, 8185, 8281,0.6458609104156494
1, 8139, 8201, 8108, 8173, 8174, 8169, 7979, 8174, 8217, 8176, 8166, 8153, 8195, 8282,0.6537690162658691
2, 8148, 8200, 8124, 8155, 8247, 8161, 8136, 8183, 8180, 8157, 8164, 8155, 8195, 8282,0.6618490219116211
3, 8190, 8210, 8211, 8169, 8264, 8169, 8246, 8189, 8156, 8150, 8174, 8170, 8194, 8281,0.6689953804016113
4, 8152, 8203, 8156, 8158, 8174, 8170, 8132, 8153, 8165, 8148, 8160, 8144, 8181, 8264,0.676774263381958
5, 8106, 8181, 8099, 8115, 8144, 8163, 8104, 8132, 8147, 8144, 8151, 8116, 8158, 8238,0.6848711967468262
6, 8122, 8176, 8156, 8110, 8187, 8170, 8209, 8142, 8118, 8139, 8177, 8139, 8172, 8237,0.6929867267608643
7, 8137, 8184, 8187, 8123, 8164, 8176, 8177, 8137, 8115, 8140, 8195, 8172, 8203, 8260,0.7009174823760986
8, 8098, 8182, 8116, 8119, 8110, 8158, 8055, 8114, 8126, 8158, 8181, 8173, 8209, 8272,0.7088673114776611
9, 8127, 8195, 8186, 8127, 8227, 8170, 8249, 8163, 8130, 8173, 8189, 8197, 8215, 8275,0.7169146537780762
10, 8167, 8201, 8237, 8142, 8213, 8194, 8241, 8195, 8148, 8186, 8209, 8228, 8254, 8304,0.7250015735626221
11, 8122, 8187, 8137, 8135, 8126, 8185, 8066, 8167, 8171, 8192, 8192, 8199, 8267, 8311,0.7317829132080078
12, 8127, 8184, 8170, 8127, 8240, 8183, 8210, 8190, 8178, 8185, 8168, 8185, 8234, 8279,0.7398467063903809
13, 8154, 8192, 8186, 8137, 8234, 8189, 8154, 8194, 8193, 8202, 8173, 8204, 8239, 8289,0.7478458881378174
14, 8152, 8211, 8152, 8156, 8202, 8190, 8103, 8178, 8191, 8200, 8182, 8200, 8250, 8315,0.7558951377868652
15, 8156, 8209, 8181, 8159, 8229, 8190, 8199, 8182, 8181, 8167, 8175, 8190, 8222, 8286,0.764946699142456
16, 8158, 8187, 8201, 8139, 8234, 8190, 8240, 8193, 8189, 8169, 8166, 8193, 8209, 8259,0.7719893455505371
17, 8181, 8195, 8253, 8140, 8272, 8192, 8287, 8210, 8181, 8183, 8172, 8202, 8219, 8277,0.7799291610717773
18, 8171, 8210, 8204, 8163, 8203, 8184, 8121, 8184, 8180, 8183, 8181, 8195, 8225, 8289,0.7879347801208496
19, 8158, 8210, 8166, 8167, 8203, 8190, 8145, 8182, 8183, 8174, 8177, 8185, 8211, 8261,0.7949681282043457
20, 8156, 8193, 8196, 8148, 8208, 8201, 8222, 8189, 8171, 8173, 8171, 8179, 8207, 8252,0.803001880645752
21, 8124, 8179, 8144, 8128, 8139, 8188, 8109, 8157, 8176, 8177, 8166, 8165, 8214, 8272,0.8109831809997559
22, 8147, 8194, 8176, 8125, 8191, 8193, 8189, 8165, 8187, 8170, 8169, 8177, 8206, 8266,0.8189041614532471
23, 8174, 8211, 8198, 8152, 8171, 8203, 8150, 8159, 8197, 8187, 8179, 8196, 8224, 8272,0.8268883228302002
24, 8167, 8216, 8160, 8169, 8148, 8180, 8121, 8143, 8194, 8200, 8178, 8197, 8247, 8307,0.8350207805633545
25, 8185, 8214, 8190, 8152, 8181, 8155, 8209, 8151, 8175, 8186, 8165, 8199, 8242, 8326,0.8439016342163086
26, 8178, 8206, 8158, 8147, 8126, 8145, 8087, 8135, 8172, 8178, 8158, 8191, 8238, 8319,0.8509702682495117
27, 8166, 8210, 8114, 8158, 8122, 8145, 8047, 8133, 8181, 8184, 8165, 8189, 8239, 8320,0.8578238487243652
28, 8197, 8227, 8157, 8162, 8192, 8157, 8164, 8150, 8182, 8192, 8165, 8214, 8250, 8351,0.8660533428192139
29, 8220, 8234, 8197, 8169, 8260, 8177, 8213, 8155, 8173, 8170, 8162, 8224, 8256, 8362,0.8738613128662109
30, 8201, 8222, 8167, 8181, 8244, 8174, 8129, 8147, 8163, 8158, 8165, 8202, 8241, 8325,0.8820290565490723
31, 8189, 8207, 8140, 8161, 8213, 8166, 8116, 8149, 8170, 8180, 8164, 8189, 8236, 8315,0.8898756504058838
32, 8203, 8195, 8190, 8129, 8257, 8178, 8234, 8161, 8163, 8167, 8152, 8193, 8223, 8331,0.8990051746368408
33, 8170, 8181, 8163, 8138, 8195, 8165, 8136, 8129, 8139, 8137, 8144, 8173, 8193, 8308,0.9058773517608643
34, 8161, 8192, 8161, 8163, 8186, 8154, 8171, 8136, 8131, 8145, 8145, 8163, 8180, 8277,0.9139513969421387
35, 8215, 8215, 8247, 8177, 8245, 8167, 8300, 8185, 8147, 8153, 8148, 8192, 8195, 8297,0.9218549728393555
36, 8187, 8209, 8172, 8191, 8134, 8160, 8092, 8163, 8163, 8153, 8147, 8183, 8202, 8316,0.9290282726287842
37, 8157, 8213, 8141, 8198, 8141, 8166, 8130, 8159, 8158, 8158, 8149, 8164, 8179, 8283,0.9377684593200684
38, 8196, 8226, 8228, 8193, 8204, 8187, 8265, 8182, 8159, 8149, 8161, 8188, 8183, 8284,0.9448926448822021
39, 8188, 8218, 8191, 8188, 8140, 8175, 8124, 8166, 8174, 8147, 8156, 8187, 8216, 8330,0.9529273509979248
40, 8163, 8215, 8145, 8191, 8144, 8169, 8127, 8160, 8171, 8164, 8142, 8168, 8214, 8324,0.9609062671661377
41, 8159, 8220, 8165, 8192, 8184, 8181, 8202, 8162, 8169, 8177, 8147, 8172, 8197, 8288,0.9689788818359375
42, 8168, 8227, 8187, 8187, 8183, 8185, 8193, 8172, 8174, 8166, 8154, 8187, 8204, 8301,0.977053165435791
43, 8174, 8228, 8150, 8188, 8126, 8183, 8088, 8171, 8176, 8163, 8150, 8187, 8221, 8341,0.9850084781646729
44, 8172, 8221, 8135, 8200, 8187, 8192, 8145, 8173, 8175, 8167, 8140, 8177, 8209, 8330,0.9920940399169922
45, 8166, 8204, 8176, 8181, 8254, 8194, 8241, 8184, 8167, 8150, 8136, 8168, 8168, 8276,0.999847412109375
46, 8138, 8192, 8130, 8153, 8145, 8182, 8093, 8160, 8172, 8146, 8140, 8158, 8169, 8276,1.0079009532928467
47, 8167, 8220, 8177, 8172, 8226, 8181, 8219, 8173, 8179, 8157, 8153, 8171, 8191, 8310,1.0157713890075684
48, 8191, 8237, 8243, 8196, 8286, 8171, 8254, 8173, 8182, 8170, 8162, 8183, 8193, 8300,1.0238873958587646
49, 8149, 8230, 8149, 8200, 8166, 8158, 8034, 8138, 8196, 8178, 8159, 8171, 8203, 8286,1.0317845344543457
50, 8182, 8253, 8175, 8212, 8224, 8175, 8174, 8159, 8192, 8161, 8158, 8180, 8210, 8312,1.0407938957214355
51, 8214, 8255, 8213, 8214, 8257, 8177, 8221, 8157, 8176, 8148, 8152, 8186, 8205, 8329,1.047778844833374
52, 8173, 8227, 8156, 8191, 8195, 8159, 8117, 8135, 8163, 8146, 8147, 8173, 8192, 8297,1.054849624633789
53, 8174, 8230, 8158, 8188, 8173, 8158, 8135, 8153, 8164, 8156, 8156, 8180, 8199, 8298,1.062854528427124
54, 8217, 8252, 8185, 8208, 8182, 8167, 8174, 8170, 8172, 8171, 8160, 8196, 8217, 8351,1.0708253383636475
55, 8227, 8248, 8198, 8211, 8184, 8174, 8177, 8163, 8162, 8169, 8152, 8195, 8208, 8361,1.0789318084716797
56, 8192, 8224, 8155, 8200, 8144, 8170, 8088, 8136, 8158, 8164, 8151, 8186, 8209, 8324,1.087183952331543
57, 8205, 8220, 8182, 8190, 8257, 8174, 8211, 8152, 8152, 8147, 8150, 8195, 8208, 8316,1.0948665142059326
58, 8230, 8224, 8218, 8180, 8311, 8179, 8234, 8165, 8146, 8141, 8147, 8199, 8195, 8343,1.102893590927124
59, 8184, 8213, 8149, 8168, 8227, 8181, 8095, 8146, 8169, 8156, 8144, 8171, 8191, 8331,1.1109721660614014
60, 8179, 8215, 8182, 8160, 8270, 8199, 8217, 8178, 8187, 8165, 8150, 8175, 8188, 8283,1.1220366954803467
61, 8191, 8218, 8187, 8169, 8224, 8195, 8146, 8180, 8197, 8181, 8157, 8199, 8199, 8298,1.1259829998016357
62, 8182, 8222, 8148, 8181, 8208, 8180, 8109, 8164, 8195, 8172, 8149, 8181, 8202, 8332,1.134077548980713
63, 8196, 8225, 8195, 8188, 8273, 8191, 8238, 8181, 8186, 8156, 8145, 8174, 8195, 8317,1.1420631408691406
64, 8193, 8221, 8192, 8194, 8226, 8193, 8180, 8172, 8194, 8187, 8155, 8192, 8207, 8313,1.1509923934936523
65, 8207, 8225, 8213, 8180, 8262, 8194, 8233, 8172, 8188, 8186, 8158, 8198, 8199, 8333,1.1579346656799316
66, 8207, 8220, 8198, 8161, 8241, 8199, 8167, 8157, 8185, 8166, 8154, 8187, 8196, 8350,1.1660408973693848
67, 8176, 8214, 8152, 8163, 8195, 8205, 8098, 8148, 8193, 8178, 8150, 8175, 8206, 8338,1.1739161014556885
68, 8175, 8209, 8190, 8165, 8235, 8204, 8218, 8172, 8182, 8178, 8147, 8174, 8193, 8302,1.1820647716522217
69, 8173, 8200, 8175, 8158, 8213, 8191, 8162, 8155, 8171, 8157, 8144, 8168, 8178, 8307,1.1890265941619873
70, 8169, 8209, 8132, 8166, 8202, 8184, 8071, 8136, 8168, 8156, 8148, 8167, 8176, 8328,1.196840763092041
71, 8158, 8215, 8113, 8186, 8208, 8185, 8052, 8140, 8177, 8177, 8152, 8177, 8184, 8313,1.2058954238891602
72, 8171, 8211, 8144, 8190, 8272, 8189, 8179, 8163, 8189, 8176, 8158, 8192, 8190, 8299,1.2130885124206543
73, 8217, 8208, 8209, 8183, 8323, 8197, 8264, 8180, 8188, 8165, 8167, 8198, 8190, 8323,1.2208924293518066
74, 8198, 8205, 8159, 8186, 8271, 8198, 8101, 8159, 8206, 8189, 8159, 8173, 8198, 8344,1.2289378643035889
75, 8170, 8216, 8136, 8184, 8290, 8201, 8148, 8180, 8226, 8200, 8155, 8161, 8200, 8319,1.2370448112487793
76, 8192, 8220, 8195, 8171, 8256, 8203, 8241, 8190, 8209, 8176, 8165, 8171, 8191, 8303,1.2449901103973389
77, 8186, 8197, 8172, 8162, 8152, 8191, 8143, 8145, 8181, 8158, 8153, 8158, 8179, 8308,1.2529902458190918
78, 8159, 8185, 8142, 8161, 8178, 8181, 8159, 8138, 8177, 8149, 8144, 8153, 8163, 8287,1.2601163387298584
79, 8153, 8198, 8160, 8170, 8209, 8181, 8193, 8156, 8185, 8158, 8165, 8171, 8172, 8274,1.2680208683013916
80, 8185, 8219, 8200, 8186, 8195, 8195, 8188, 8172, 8191, 8180, 8179, 8192, 8197, 8310,1.2759881019592285
81, 8197, 8222, 8169, 8203, 8139, 8205, 8103, 8172, 8215, 8197, 8164, 8198, 8211, 8348,1.2840163707733154
82, 8170, 8213, 8134, 8194, 8169, 8202, 8153, 8179, 8237, 8202, 8153, 8179, 8203, 8330,1.29205322265625
83, 8172, 8193, 8206, 8166, 8233, 8197, 8283, 8197, 8216, 8190, 8155, 8169, 8186, 8299,1.3010690212249756
84, 8159, 8168, 8172, 8151, 8124, 8187, 8098, 8161, 8193, 8192, 8149, 8166, 8191, 8308,1.3080718517303467
85, 8151, 8180, 8142, 8158, 8168, 8192, 8133, 8157, 8194, 8179, 8147, 8163, 8176, 8306,1.3160412311553955
86, 8164, 8196, 8190, 8159, 8263, 8200, 8245, 8183, 8200, 8151, 8153, 8162, 8154, 8291,1.322904348373413
87, 8153, 8186, 8148, 8156, 8194, 8190, 8099, 8164, 8204, 8156, 8155, 8153, 8175, 8299,1.3308515548706055
88, 8183, 8205, 8176, 8179, 8224, 8197, 8185, 8174, 8203, 8167, 8158, 8171, 8187, 8307,1.339916467666626
89, 8199, 8220, 8213, 8198, 8218, 8203, 8227, 8185, 8208, 8168, 8160, 8188, 8185, 8306,1.346726417541504
90, 8163, 8200, 8169, 8191, 8158, 8196, 8125, 8172, 8206, 8171, 8159, 8178, 8185, 8299,1.3550527095794678
91, 8170, 8202, 8163, 8189, 8172, 8185, 8109, 8162, 8186, 8158, 8162, 8178, 8184, 8299,1.3630564212799072
92, 8207, 8224, 8185, 8198, 8222, 8177, 8155, 8157, 8171, 8136, 8159, 8187, 8184, 8319,1.3718154430389404
93, 8223, 8220, 8211, 8186, 8238, 8181, 8201, 8168, 8172, 8143, 8158, 8192, 8183, 8336,1.379042148590088
94, 8199, 8204, 8173, 8184, 8179, 8185, 8097, 8159, 8194, 8182, 8175, 8193, 8202, 8342,1.385929822921753
95, 8212, 8220, 8191, 8208, 8282, 8198, 8192, 8175, 8199, 8186, 8181, 8201, 8209, 8347,1.394010305404663
96, 8238, 8227, 8242, 8201, 8364, 8203, 8272, 8188, 8184, 8165, 8164, 8199, 8188, 8340,1.4020874500274658
97, 8182, 8208, 8150, 8186, 8241, 8188, 8080, 8152, 8192, 8167, 8156, 8170, 8184, 8319,1.4100522994995117
98, 8164, 8211, 8142, 8201, 8250, 8200, 8157, 8171, 8195, 8159, 8163, 8169, 8190, 8310,1.418100357055664
99, 8199, 8221, 8188, 8211, 8258, 8215, 8206, 8195, 8188, 8164, 8168, 8195, 8203, 8337,1.4260094165802002
100, 8195, 8218, 8158, 8198, 8218, 8209, 8133, 8177, 8193, 8189, 8166, 8191, 8213, 8343,1.434096336364746
101, 8180, 8208, 8178, 8192, 8261, 8201, 8214, 8178, 8199, 8175, 8169, 8172, 8203, 8305,1.4420547485351562
102, 8176, 8204, 8182, 8195, 8242, 8196, 8188, 8171, 8207, 8163, 8175, 8174, 8207, 8302,1.449843168258667
103, 8202, 8214, 8175, 8192, 8218, 8197, 8148, 8163, 8198, 8172, 8172, 8186, 8212, 8334,1.4570329189300537
104, 8220, 8216, 8179, 8200, 8190, 8192, 8133, 8150, 8177, 8174, 8166, 8179, 8203, 8343,1.465090036392212
105, 8219, 8222, 8206, 8217, 8222, 8191, 8182, 8147, 8170, 8170, 8167, 8176, 8201, 8330,1.47281813621521
106, 8227, 8233, 8220, 8225, 8249, 8202, 8175, 8154, 8178, 8184, 8172, 8195, 8214, 8337,1.4810876846313477
107, 8220, 8228, 8154, 8224, 8192, 8206, 8081, 8146, 8191, 8196, 8172, 8190, 8229, 8364,1.4890379905700684
108, 8233, 8226, 8203, 8207, 8266, 8212, 8268, 8175, 8182, 8171, 8164, 8178, 8206, 8344,1.4971837997436523
109, 8219, 8220, 8234, 8192, 8233, 8205, 8226, 8171, 8180, 8172, 8167, 8180, 8190, 8306,1.504997968673706
110, 8187, 8214, 8144, 8204, 8119, 8193, 8028, 8141, 8207, 8197, 8173, 8181, 8208, 8323,1.5131168365478516
111, 8228, 8228, 8169, 8213, 8204, 8207, 8172, 8167, 8212, 8197, 8173, 8192, 8215, 8347,1.5200409889221191
112, 8229, 8232, 8181, 8202, 8249, 8216, 8181, 8157, 8191, 8197, 8170, 8190, 8215, 8333,1.5278689861297607
113, 8195, 8223, 8165, 8199, 8246, 8206, 8155, 8140, 8165, 8176, 8168, 8181, 8202, 8305,1.5359933376312256
114, 8213, 8218, 8192, 8204, 8233, 8206, 8202, 8163, 8156, 8150, 8165, 8179, 8191, 8308,1.5440943241119385
115, 8220, 8221, 8178, 8198, 8214, 8224, 8190, 8183, 8177, 8171, 8166, 8174, 8203, 8320,1.5519509315490723
116, 8192, 8222, 8170, 8193, 8215, 8237, 8183, 8191, 8196, 8189, 8171, 8175, 8202, 8294,1.5600640773773193
117, 8155, 8206, 8152, 8190, 8167, 8234, 8123, 8172, 8187, 8176, 8165, 8165, 8182, 8264,1.5680780410766602
118, 8165, 8210, 8164, 8180, 8210, 8238, 8186, 8173, 8171, 8166, 8159, 8156, 8177, 8276,1.5750041007995605
119, 8199, 8226, 8178, 8189, 8243, 8235, 8150, 8177, 8196, 8189, 8173, 8178, 8208, 8318,1.583174228668213
120, 8198, 8224, 8160, 8210, 8259, 8220, 8089, 8176, 8223, 8208, 8186, 8197, 8231, 8327,1.5911483764648438
121, 8207, 8227, 8213, 8210, 8347, 8229, 8232, 8184, 8200, 8193, 8188, 8197, 8218, 8305,1.5988423824310303
122, 8212, 8233, 8191, 8208, 8299, 8236, 8144, 8145, 8179, 8189, 8187, 8193, 8227, 8326,1.607043743133545
123, 8224, 8239, 8170, 8217, 8296, 8227, 8137, 8144, 8175, 8191, 8180, 8193, 8238, 8354,1.6150288581848145
124, 8232, 8243, 8237, 8228, 8330, 8220, 8253, 8184, 8174, 8185, 8182, 8200, 8226, 8329,1.6231608390808105
125, 8188, 8225, 8198, 8227, 8248, 8211, 8134, 8163, 8179, 8190, 8182, 8194, 8223, 8302,1.6310670375823975
126, 8180, 8201, 8159, 8207, 8252, 8202, 8137, 8155, 8168, 8185, 8166, 8179, 8211, 8308,1.6390888690948486
127, 8213, 8210, 8187, 8201, 8256, 8190, 8193, 8176, 8172, 8177, 8161, 8178, 8203, 8329,1.6470563411712646
238, 8222, 8236, 8212, 8220, 8231, 8184, 8188, 8189, 8214, 8196, 8182, 8198, 8219, 8330,1.6539323329925537
0, 8214, 8230, 8182, 8232, 8207, 8193, 8121, 8184, 8239, 8242, 8201, 8220, 8256, 8329,1.6620864868164062
1, 8213, 8224, 8140, 8231, 8215, 8201, 8106, 8175, 8214, 8242, 8185, 8213, 8266, 8345,1.670069932937622
2, 8221, 8226, 8204, 8217, 8288, 8207, 8258, 8192, 8188, 8181, 8159, 8199, 8222, 8340,1.678053617477417
3, 8168, 8198, 8182, 8198, 8218, 8199, 8157, 8163, 8204, 8188, 8165, 8189, 8209, 8312,1.6861326694488525
4, 8139, 8196, 8138, 8203, 8208, 8188, 8120, 8151, 8211, 8233, 8182, 8191, 8236, 8291,1.6940891742706299
5, 8205, 8220, 8209, 8221, 8282, 8190, 8228, 8189, 8200, 8211, 8184, 8206, 8244, 8315,1.7019269466400146
6, 8208, 8197, 8174, 8206, 8216, 8187, 8111, 8168, 8210, 8193, 8182, 8201, 8249, 8352,1.7099182605743408
7, 8178, 8182, 8164, 8178, 8249, 8184, 8190, 8162, 8196, 8210, 8192, 8207, 8251, 8341,1.7178666591644287
8, 8187, 8209, 8213, 8186, 8277, 8182, 8239, 8171, 8184, 8217, 8196, 8227, 8260, 8320,1.7248468399047852
9, 8193, 8226, 8176, 8199, 8222, 8185, 8112, 8163, 8208, 8221, 8190, 8217, 8276, 8330,1.7339305877685547
10, 8206, 8215, 8160, 8194, 8234, 8182, 8133, 8168, 8210, 8234, 8183, 8195, 8262, 8335,1.7408461570739746
11, 8196, 8209, 8165, 8204, 8243, 8170, 8159, 8166, 8204, 8230, 8175, 8189, 8239, 8335,1.7489891052246094
12, 8195, 8219, 8191, 8223, 8263, 8182, 8209, 8188, 8211, 8222, 8179, 8207, 8246, 8342,1.7570395469665527
13, 8197, 8208, 8172, 8207, 8223, 8192, 8151, 8186, 8217, 8236, 8186, 8212, 8269, 8350,1.7650349140167236
14, 8181, 8180, 8141, 8167, 8233, 8183, 8159, 8176, 8216, 8234, 8175, 8187, 8260, 8351,1.7730271816253662
15, 8179, 8175, 8191, 8157, 8279, 8182, 8253, 8199, 8214, 8220, 8161, 8177, 8228, 8330,1.7799949645996094
16, 8140, 8173, 8150, 8176, 8190, 8189, 8123, 8183, 8222, 8217, 8157, 8172, 8219, 8290,1.78792405128479
17, 8120, 8179, 8130, 8184, 8208, 8206, 8156, 8177, 8220, 8190, 8162, 8165, 8208, 8256,1.79612135887146
18, 8138, 8180, 8160, 8169, 8216, 8201, 8173, 8179, 8214, 8169, 8162, 8163, 8195, 8258,1.8039870262145996
19, 8145, 8172, 8143, 8161, 8180, 8183, 8115, 8172, 8214, 8184, 8153, 8159, 8199, 8280,1.8119158744812012
20, 8190, 8188, 8205, 8181, 8252, 8188, 8229, 8189, 8206, 8196, 8166, 8187, 8210, 8301,1.8200020790100098
21, 8201, 8204, 8217, 8200, 8230, 8187, 8181, 8177, 8208, 8213, 8192, 8220, 8241, 8323,1.8278210163116455
22, 8185, 8200, 8227, 8192, 8253, 8190, 8241, 8177, 8192, 8213, 8184, 8215, 8236, 8301,1.8358395099639893
23, 8190, 8202, 8238, 8193, 8213, 8188, 8209, 8159, 8172, 8201, 8168, 8196, 8216, 8280,1.8440556526184082
24, 8203, 8228, 8186, 8221, 8104, 8165, 8070, 8128, 8191, 8225, 8187, 8197, 8239, 8308,1.850858449935913
25, 8253, 8254, 8239, 8237, 8153, 8163, 8194, 8156, 8188, 8229, 8192, 8229, 8256, 8340,1.858905553817749
26, 8263, 8241, 8228, 8236, 8143, 8171, 8135, 8152, 8161, 8196, 8175, 8242, 8259, 8370,1.8668651580810547
27, 8243, 8222, 8182, 8223, 8163, 8169, 8135, 8144, 8159, 8177, 8176, 8236, 8262, 8384,1.8748466968536377
28, 8231, 8195, 8193, 8193, 8154, 8152, 8192, 8141, 8157, 8192, 8178, 8225, 8258, 8361,1.8829562664031982
29, 8204, 8164, 8150, 8169, 8074, 8140, 8111, 8126, 8141, 8203, 8159, 8197, 8242, 8344,1.8908891677856445
30, 8212, 8173, 8174, 8177, 8140, 8159, 8203, 8158, 8132, 8190, 8161, 8194, 8231, 8350,1.898951768875122
31, 8213, 8194, 8182, 8191, 8138, 8175, 8154, 8167, 8169, 8221, 8185, 8220, 8269, 8371,1.907033920288086
32, 8187, 8193, 8129, 8190, 8093, 8181, 8058, 8157, 8208, 8269, 8182, 8227, 8292, 8379,1.9139294624328613
33, 8178, 8188, 8137, 8183, 8129, 8191, 8154, 8184, 8209, 8239, 8170, 8213, 8260, 8359,1.9218640327453613
34, 8157, 8188, 8154, 8176, 8127, 8182, 8198, 8195, 8202, 8188, 8172, 8200, 8239, 8331,1.9299819469451904
35, 8137, 8183, 8137, 8166, 8087, 8162, 8140, 8181, 8202, 8211, 8174, 8193, 8243, 8315,1.9379146099090576
36, 8158, 8173, 8131, 8164, 8088, 8171, 8105, 8164, 8199, 8234, 8162, 8189, 8232, 8314,1.9457051753997803
37, 8211, 8181, 8188, 8175, 8164, 8186, 8194, 8155, 8185, 8191, 8160, 8194, 8210, 8317,1.9539422988891602
38, 8216, 8195, 8185, 8174, 8156, 8164, 8159, 8136, 8177, 8174, 8162, 8197, 8210, 8312,1.9618322849273682
39, 8189, 8198, 8135, 8166, 8133, 8143, 8103, 8136, 8171, 8195, 8158, 8192, 8216, 8309,1.969764232635498
40, 8223, 8201, 8204, 8172, 8237, 8162, 8246, 8186, 8165, 8188, 8164, 8206, 8204, 8314,1.9778547286987305
41, 8223, 8193, 8196, 8177, 8198, 8168, 8145, 8187, 8186, 8185, 8167, 8202, 8196, 8317,1.984783411026001
42, 8197, 8195, 8170, 8169, 8184, 8158, 8170, 8181, 8181, 8179, 8157, 8185, 8182, 8299,1.992924451828003
43, 8229, 8201, 8265, 8161, 8264, 8171, 8350, 8210, 8141, 8150, 8157, 8199, 8173, 8296,2.0008673667907715
44, 8206, 8182, 8193, 8164, 8146, 8178, 8094, 8171, 8150, 8174, 8165, 8201, 8205, 8329,2.009002923965454
45, 8168, 8180, 8105, 8169, 8101, 8184, 8028, 8147, 8164, 8197, 8163, 8181, 8214, 8332,2.0169191360473633
46, 8195, 8193, 8176, 8173, 8179, 8191, 8229, 8170, 8145, 8180, 8165, 8179, 8197, 8306,2.0249452590942383
47, 8207, 8195, 8201, 8182, 8181, 8190, 8196, 8172, 8163, 8192, 8171, 8195, 8219, 8315,2.033135414123535
48, 8201, 8205, 8164, 8196, 8141, 8196, 8095, 8171, 8207, 8212, 8174, 8215, 8250, 8355,2.0407919883728027
49, 8195, 8208, 8141, 8188, 8127, 8199, 8107, 8177, 8220, 8206, 8173, 8210, 8247, 8363,2.0477566719055176
50, 8190, 8190, 8169, 8170, 8180, 8190, 8222, 8190, 8202, 8182, 8164, 8187, 8215, 8319,2.055759906768799
51, 8171, 8179, 8151, 8185, 8106, 8185, 8144, 8180, 8204, 8180, 8156, 8180, 8199, 8298,2.0650150775909424
52, 8169, 8197, 8152, 8192, 8086, 8201, 8162, 8183, 8209, 8192, 8161, 8188, 8198, 8307,2.0717387199401855
53, 8179, 8188, 8198, 8157, 8145, 8199, 8245, 8178, 8173, 8173, 8166, 8177, 8177, 8281,2.079838275909424
54, 8131, 8153, 8113, 8134, 8047, 8153, 8062, 8122, 8148, 8153, 8157, 8148, 8163, 8259,2.0880088806152344
55, 8145, 8162, 8162, 8140, 8117, 8157, 8230, 8145, 8142, 8149, 8155, 8164, 8150, 8265,2.09584903717041
56, 8191, 8168, 8261, 8145, 8159, 8189, 8313, 8164, 8138, 8146, 8166, 8189, 8154, 8271,2.1039505004882812
57, 8137, 8139, 8125, 8141, 8014, 8176, 8013, 8107, 8153, 8139, 8164, 8163, 8171, 8281,2.1109299659729004
58, 8129, 8136, 8097, 8132, 8075, 8171, 8097, 8132, 8168, 8146, 8156, 8153, 8164, 8286,2.118924617767334
59, 8167, 8145, 8182, 8127, 8140, 8184, 8239, 8187, 8176, 8174, 8159, 8173, 8163, 8282,2.1267895698547363
60, 8162, 8151, 8176, 8136, 8091, 8182, 8176, 8202, 8185, 8182, 8166, 8182, 8176, 8284,2.1348178386688232
61, 8158, 8165, 8149, 8158, 8066, 8171, 8105, 8197, 8199, 8182, 8173, 8189, 8187, 8307,2.142911434173584
62, 8172, 8173, 8154, 8169, 8106, 8163, 8145, 8187, 8189, 8177, 8170, 8190, 8182, 8322,2.1510119438171387
63, 8192, 8176, 8202, 8155, 8151, 8165, 8253, 8195, 8160, 8165, 8170, 8191, 8171, 8317,2.160003900527954
64, 8183, 8170, 8191, 8146, 8100, 8171, 8170, 8181, 8158, 8175, 8176, 8192, 8187, 8328,2.166954278945923
65, 8191, 8171, 8211, 8160, 8144, 8182, 8225, 8175, 8146, 8165, 8170, 8196, 8192, 8323,2.1749157905578613
66, 8197, 8171, 8238, 8166, 8147, 8169, 8233, 8153, 8119, 8141, 8173, 8189, 8171, 8304,2.182025909423828
67, 8158, 8161, 8153, 8165, 8086, 8162, 8067, 8125, 8143, 8168, 8186, 8175, 8179, 8301,2.189990758895874
68, 8178, 8169, 8174, 8177, 8213, 8190, 8200, 8177, 8185, 8188, 8179, 8183, 8191, 8295,2.198085308074951
69, 8187, 8162, 8197, 8167, 8195, 8192, 8203, 8190, 8187, 8168, 8165, 8177, 8179, 8284,2.2059829235076904
70, 8138, 8145, 8111, 8132, 8062, 8172, 8048, 8149, 8178, 8155, 8165, 8146, 8166, 8277,2.2140378952026367
71, 8141, 8154, 8096, 8136, 8087, 8181, 8082, 8159, 8195, 8167, 8166, 8150, 8166, 8278,2.2220747470855713
72, 8166, 8162, 8134, 8153, 8160, 8186, 8169, 8183, 8203, 8167, 8162, 8165, 8164, 8282,2.2309882640838623
73, 8169, 8159, 8169, 8131, 8166, 8179, 8211, 8184, 8170, 8138, 8166, 8164, 8140, 8273,2.2380759716033936
74, 8150, 8156, 8119, 8125, 8071, 8181, 8084, 8157, 8159, 8140, 8166, 8149, 8133, 8266,2.2448813915252686
75, 8177, 8171, 8169, 8141, 8155, 8192, 8243, 8184, 8162, 8142, 8159, 8154, 8135, 8265,2.25286602973938
76, 8213, 8176, 8266, 8134, 8191, 8182, 8335, 8208, 8146, 8110, 8169, 8184, 8146, 8283,2.261087656021118
77, 8170, 8157, 8160, 8142, 8041, 8160, 8043, 8158, 8154, 8116, 8177, 8181, 8174, 8307,2.2690844535827637
78, 8177, 8167, 8158, 8162, 8123, 8173, 8144, 8169, 8155, 8138, 8171, 8172, 8159, 8297,2.2770631313323975
79, 8213, 8189, 8226, 8152, 8150, 8172, 8240, 8177, 8141, 8139, 8180, 8187, 8142, 8287,2.285085439682007
80, 8177, 8183, 8143, 8146, 8035, 8142, 8059, 8127, 8141, 8132, 8185, 8185, 8161, 8303,2.29315185546875
81, 8165, 8166, 8140, 8152, 8100, 8143, 8126, 8131, 8131, 8125, 8175, 8177, 8163, 8297,2.30108642578125
82, 8179, 8169, 8189, 8145, 8146, 8147, 8189, 8150, 8114, 8131, 8168, 8174, 8155, 8279,2.3090364933013916
83, 8183, 8180, 8169, 8143, 8103, 8134, 8140, 8144, 8105, 8133, 8166, 8172, 8152, 8284,2.316092014312744
84, 8179, 8168, 8147, 8151, 8093, 8139, 8127, 8142, 8114, 8134, 8173, 8173, 8160, 8295,2.323988676071167
85, 8169, 8158, 8163, 8141, 8134, 8161, 8192, 8168, 8144, 8143, 8175, 8169, 8159, 8272,2.332003593444824
86, 8162, 8162, 8172, 8130, 8118, 8169, 8182, 8185, 8167, 8157, 8165, 8162, 8144, 8247,2.3410582542419434
87, 8157, 8161, 8149, 8147, 8082, 8169, 8123, 8179, 8176, 8172, 8170, 8167, 8153, 8273,2.348085641860962
88, 8171, 8157, 8187, 8155, 8152, 8183, 8234, 8201, 8182, 8167, 8185, 8175, 8163, 8287,2.355830430984497
89, 8169, 8156, 8184, 8144, 8137, 8180, 8180, 8199, 8190, 8168, 8183, 8166, 8157, 8270,2.3640854358673096
90, 8169, 8171, 8149, 8151, 8142, 8165, 8109, 8172, 8185, 8193, 8183, 8165, 8175, 8283,2.371100664138794
91, 8218, 8193, 8222, 8166, 8266, 8167, 8247, 8171, 8161, 8198, 8199, 8193, 8204, 8314,2.379960536956787
92, 8216, 8192, 8199, 8174, 8226, 8164, 8136, 8129, 8149, 8177, 8197, 8191, 8211, 8323,2.3870253562927246
93, 8182, 8178, 8146, 8164, 8188, 8162, 8104, 8108, 8131, 8158, 8174, 8160, 8186, 8296,2.3950839042663574
94, 8186, 8166, 8181, 8149, 8182, 8166, 8196, 8131, 8125, 8157, 8171, 8161, 8169, 8275,2.4030814170837402
95, 8178, 8159, 8157, 8148, 8101, 8160, 8115, 8134, 8156, 8161, 8178, 8174, 8181, 8290,2.411022186279297
96, 8182, 8162, 8154, 8152, 8120, 8155, 8150, 8154, 8165, 8149, 8172, 8168, 8163, 8278,2.4190750122070312
97, 8175, 8153, 8162, 8148, 8125, 8163, 8174, 8165, 8155, 8125, 8167, 8151, 8131, 8242,2.427077054977417
98, 8147, 8142, 8160, 8139, 8116, 8180, 8176, 8169, 8156, 8110, 8172, 8151, 8131, 8246,2.4350545406341553
99, 8146, 8143, 8162, 8137, 8109, 8178, 8149, 8173, 8157, 8120, 8181, 8160, 8150, 8266,2.4420814514160156
100, 8165, 8154, 8153, 8149, 8107, 8162, 8135, 8179, 8151, 8138, 8185, 8165, 8158, 8261,2.450083017349243
101, 8195, 8170, 8198, 8162, 8157, 8167, 8221, 8198, 8147, 8147, 8183, 8184, 8163, 8273,2.4579811096191406
102, 8172, 8166, 8167, 8162, 8121, 8163, 8108, 8170, 8157, 8162, 8180, 8191, 8185, 8310,2.4660816192626953
103, 8172, 8168, 8169, 8158, 8177, 8158, 8176, 8171, 8164, 8155, 8183, 8186, 8188, 8308,2.473971366882324
104, 8226, 8166, 8246, 8154, 8192, 8168, 8279, 8198, 8169, 8151, 8190, 8194, 8183, 8296,2.4819893836975098
105, 8191, 8144, 8165, 8149, 8057, 8162, 8061, 8161, 8184, 8179, 8181, 8187, 8199, 8311,2.4899604320526123
106, 8148, 8148, 8132, 8156, 8147, 8161, 8127, 8157, 8178, 8158, 8170, 8175, 8181, 8289,2.4980976581573486
107, 8158, 8160, 8186, 8172, 8225, 8177, 8227, 8175, 8173, 8123, 8172, 8169, 8156, 8258,2.504755735397339
108, 8150, 8146, 8166, 8170, 8169, 8182, 8137, 8169, 8187, 8144, 8177, 8161, 8151, 8254,2.513052463531494
109, 8141, 8134, 8146, 8161, 8192, 8172, 8155, 8172, 8195, 8151, 8171, 8156, 8143, 8251,2.5210814476013184
110, 8135, 8143, 8144, 8159, 8194, 8167, 8191, 8175, 8192, 8131, 8164, 8149, 8145, 8240,2.5290563106536865
111, 8155, 8156, 8174, 8166, 8150, 8181, 8200, 8186, 8185, 8139, 8175, 8153, 8158, 8246,2.5370290279388428
112, 8156, 8139, 8148, 8160, 8089, 8182, 8101, 8177, 8191, 8172, 8172, 8162, 8168, 8273,2.54508113861084
113, 8143, 8123, 8145, 8142, 8147, 8172, 8181, 8188, 8183, 8168, 8155, 8158, 8147, 8268,2.5530409812927246
114, 8166, 8137, 8206, 8151, 8176, 8165, 8263, 8204, 8162, 8134, 8166, 8158, 8131, 8243,2.5610616207122803
115, 8152, 8152, 8144, 8168, 8072, 8158, 8077, 8167, 8168, 8142, 8179, 8157, 8154, 8245,2.5687501430511475
116, 8150, 8160, 8149, 8159, 8148, 8168, 8178, 8183, 8176, 8166, 8173, 8169, 8165, 8262,2.5760440826416016
117, 8168, 8155, 8202, 8155, 8180, 8171, 8216, 8206, 8183, 8169, 8178, 8185, 8172, 8285,2.5838534832000732
118, 8146, 8138, 8143, 8155, 8105, 8161, 8090, 8177, 8185, 8145, 8183, 8167, 8174, 8275,2.5920615196228027
119, 8133, 8136, 8156, 8133, 8130, 8159, 8202, 8167, 8157, 8118, 8169, 8152, 8142, 8230,2.6000101566314697
120, 8123, 8139, 8175, 8130, 8097, 8157, 8188, 8158, 8154, 8137, 8167, 8165, 8131, 8227,2.6078178882598877
121, 8134, 8144, 8166, 8153, 8097, 8163, 8141, 8160, 8173, 8157, 8172, 8181, 8144, 8254,2.615931749343872
122, 8148, 8147, 8159, 8157, 8122, 8168, 8143, 8156, 8166, 8144, 8167, 8178, 8144, 8252,2.6240084171295166
123, 8134, 8157, 8144, 8153, 8116, 8163, 8146, 8151, 8153, 8136, 8169, 8166, 8149, 8253,2.6319334506988525
124, 8136, 8161, 8159, 8160, 8103, 8158, 8168, 8163, 8161, 8151, 8177, 8175, 8163, 8273,2.6389942169189453
125, 8141, 8145, 8139, 8158, 8055, 8162, 8115, 8162, 8175, 8174, 8175, 8187, 8181, 8287,2.6468851566314697
126, 8168, 8152, 8186, 8156, 8116, 8181, 8228, 8188, 8166, 8180, 8187, 8196, 8188, 8285,2.6547532081604004
127, 8176, 8157, 8215, 8163, 8106, 8179, 8194, 8185, 8159, 8174, 8197, 8194, 8181, 8283,2.662989377975464
238, 8144, 8152, 8143, 8167, 8042, 8161, 8068, 8154, 8180, 8167, 8185, 8179, 8178, 8286,2.6709773540496826
0, 8158, 8172, 8172, 8179, 8125, 8172, 8202, 8183, 8193, 8168, 8185, 8180, 8173, 8279,2.6789731979370117
1, 8156, 8178, 8170, 8190, 8128, 8170, 8152, 8182, 8191, 8190, 8190, 8181, 8180, 8279,2.686941623687744
2, 8150, 8174, 8146, 8192, 8130, 8160, 8133, 8168, 8183, 8187, 8187, 8176, 8183, 8289,2.694911003112793
3, 8194, 8183, 8219, 8188, 8173, 8167, 8251, 8188, 8172, 8170, 8193, 8180, 8173, 8294,2.7058539390563965
4, 8175, 8176, 8192, 8175, 8122, 8155, 8147, 8171, 8169, 8172, 8189, 8168, 8175, 8289,2.7099337577819824
5, 8125, 8165, 8124, 8159, 8124, 8142, 8106, 8152, 8175, 8156, 8171, 8153, 8162, 8268,2.7179698944091797
6, 8127, 8163, 8131, 8155, 8147, 8156, 8172, 8161, 8183, 8151, 8171, 8151, 8142, 8251,2.7258927822113037
7, 8160, 8163, 8186, 8160, 8165, 8162, 8238, 8178, 8168, 8147, 8185, 8158, 8138, 8251,2.73396372795105
8, 8159, 8166, 8163, 8161, 8073, 8136, 8090, 8155, 8153, 8133, 8192, 8167, 8159, 8273,2.7417593002319336
9, 8140, 8185, 8109, 8164, 8057, 8130, 8046, 8141, 8159, 8142, 8190, 8170, 8167, 8287,2.7500216960906982
10, 8189, 8195, 8231, 8167, 8255, 8159, 8360, 8197, 8152, 8147, 8184, 8182, 8142, 8261,2.75675630569458
11, 8183, 8169, 8223, 8171, 8162, 8155, 8199, 8186, 8159, 8161, 8183, 8182, 8159, 8262,2.7648282051086426
12, 8129, 8165, 8089, 8171, 8026, 8142, 7961, 8147, 8175, 8177, 8188, 8176, 8195, 8294,2.772897481918335
13, 8164, 8186, 8136, 8163, 8154, 8150, 8158, 8166, 8162, 8167, 8191, 8190, 8182, 8294,2.7810070514678955
14, 8185, 8184, 8167, 8170, 8187, 8148, 8180, 8158, 8157, 8159, 8184, 8188, 8164, 8280,2.7888565063476562
15, 8169, 8177, 8162, 8170, 8175, 8151, 8171, 8159, 8161, 8157, 8176, 8176, 8164, 8271,2.7968363761901855
16, 8161, 8167, 8181, 8162, 8158, 8159, 8211, 8173, 8142, 8155, 8176, 8172, 8157, 8259,2.804898500442505
17, 8142, 8158, 8171, 8165, 8093, 8156, 8171, 8161, 8123, 8157, 8177, 8169, 8148, 8252,2.8128981590270996
18, 8146, 8165, 8153, 8167, 8040, 8154, 8106, 8148, 8142, 8168, 8183, 8178, 8161, 8273,2.820904493331909
19, 8167, 8179, 8144, 8170, 8069, 8157, 8117, 8154, 8173, 8168, 8188, 8192, 8189, 8293,2.8288135528564453
20, 8182, 8189, 8193, 8182, 8156, 8168, 8226, 8176, 8168, 8168, 8190, 8194, 8185, 8284,2.836045026779175
21, 8167, 8187, 8168, 8193, 8080, 8166, 8111, 8152, 8161, 8186, 8191, 8189, 8185, 8293,2.843944549560547
22, 8166, 8188, 8134, 8190, 8041, 8146, 8111, 8139, 8161, 8178, 8191, 8186, 8190, 8310,2.85180401802063
23, 8194, 8187, 8201, 8176, 8096, 8148, 8250, 8164, 8147, 8156, 8192, 8193, 8173, 8300,2.8598244190216064
24, 8175, 8177, 8168, 8166, 8038, 8149, 8102, 8144, 8145, 8165, 8187, 8196, 8175, 8304,2.867961883544922
25, 8194, 8185, 8177, 8166, 8106, 8138, 8183, 8149, 8135, 8153, 8192, 8201, 8180, 8320,2.87597918510437
26, 8217, 8185, 8219, 8170, 8126, 8142, 8245, 8164, 8124, 8126, 8198, 8198, 8173, 8315,2.8838346004486084
27, 8184, 8183, 8186, 8167, 8083, 8160, 8177, 8163, 8134, 8145, 8192, 8182, 8167, 8291,2.892054796218872
28, 8190, 8187, 8217, 8156, 8151, 8160, 8253, 8174, 8127, 8146, 8187, 8180, 8143, 8272,2.9000816345214844
29, 8182, 8174, 8179, 8170, 8115, 8137, 8126, 8148, 8126, 8123, 8188, 8177, 8143, 8286,2.906946897506714
30, 8202, 8168, 8184, 8206, 8147, 8155, 8162, 8168, 8149, 8146, 8192, 8191, 8181, 8316,2.9149863719940186
31, 8232, 8171, 8223, 8219, 8137, 8174, 8203, 8191, 8173, 8197, 8208, 8209, 8212, 8329,2.9239234924316406
32, 8195, 8167, 8167, 8195, 8060, 8160, 8119, 8175, 8187, 8209, 8214, 8193, 8204, 8317,2.9319541454315186
33, 8189, 8158, 8184, 8183, 8112, 8164, 8207, 8200, 8192, 8182, 8200, 8183, 8179, 8306,2.938856363296509
34, 8187, 8141, 8168, 8200, 8081, 8161, 8141, 8187, 8194, 8179, 8186, 8178, 8184, 8307,2.9470443725585938
35, 8169, 8132, 8153, 8188, 8080, 8156, 8148, 8163, 8173, 8164, 8180, 8174, 8177, 8286,2.9550437927246094
36, 8173, 8133, 8195, 8170, 8101, 8162, 8202, 8166, 8150, 8137, 8184, 8188, 8152, 8274,2.961949110031128
37, 8162, 8120, 8147, 8187, 8036, 8151, 8078, 8145, 8151, 8148, 8178, 8177, 8150, 8291,2.969921827316284
38, 8158, 8115, 8115, 8189, 8049, 8145, 8100, 8145, 8154, 8162, 8168, 8153, 8146, 8285,2.9778497219085693
39, 8164, 8120, 8139, 8173, 8086, 8161, 8161, 8174, 8165, 8160, 8182, 8161, 8152, 8273,2.9859156608581543
40, 8162, 8121, 8150, 8179, 8101, 8183, 8162, 8194, 8189, 8163, 8190, 8173, 8155, 8273,2.9939239025115967
41, 8160, 8112, 8147, 8179, 8116, 8180, 8169, 8185, 8194, 8174, 8178, 8162, 8144, 8262,3.0019679069519043
42, 8166, 8098, 8154, 8163, 8117, 8162, 8186, 8170, 8180, 8171, 8193, 8165, 8161, 8265,3.009861707687378
43, 8183, 8106, 8184, 8178, 8089, 8158, 8189, 8166, 8167, 8159, 8209, 8192, 8181, 8279,3.01794695854187
44, 8181, 8121, 8168, 8201, 8033, 8166, 8098, 8145, 8165, 8171, 8189, 8193, 8173, 8290,3.0259251594543457
45, 8181, 8131, 8170, 8194, 8086, 8175, 8160, 8152, 8154, 8171, 8185, 8177, 8157, 8289,3.033902168273926
46, 8188, 8134, 8185, 8181, 8106, 8168, 8197, 8169, 8145, 8158, 8203, 8180, 8168, 8287,3.040998697280884
47, 8169, 8117, 8144, 8177, 8063, 8156, 8109, 8166, 8166, 8170, 8196, 8186, 8184, 8292,3.048807382583618
48, 8169, 8104, 8179, 8164, 8170, 8161, 8211, 8198, 8180, 8150, 8183, 8187, 8167, 8292,3.0567378997802734
49, 8172, 8113, 8179, 8159, 8188, 8163, 8166, 8195, 8188, 8137, 8192, 8184, 8174, 8298,3.0648386478424072
50, 8185, 8134, 8157, 8180, 8141, 8160, 8145, 8185, 8202, 8189, 8212, 8191, 8209, 8306,3.072747230529785
51, 8215, 8135, 8221, 8189, 8148, 8164, 8268, 8206, 8193, 8220, 8209, 8197, 8204, 8305,3.0808064937591553
52, 8172, 8124, 8176, 8174, 8075, 8155, 8142, 8176, 8184, 8183, 8182, 8175, 8172, 8301,3.088838577270508
53, 8162, 8140, 8147, 8179, 8101, 8160, 8129, 8161, 8180, 8147, 8182, 8175, 8166, 8299,3.0957677364349365
54, 8211, 8151, 8202, 8197, 8165, 8174, 8219, 8173, 8176, 8160, 8200, 8197, 8189, 8304,3.103785514831543
55, 8211, 8152, 8203, 8188, 8180, 8182, 8225, 8181, 8178, 8177, 8196, 8192, 8190, 8301,3.111760377883911
56, 8185, 8154, 8171, 8183, 8174, 8186, 8161, 8185, 8192, 8176, 8192, 8182, 8177, 8297,3.1197502613067627
57, 8153, 8133, 8122, 8194, 8162, 8177, 8073, 8163, 8198, 8173, 8191, 8177, 8190, 8295,3.1278083324432373
58, 8163, 8133, 8174, 8188, 8267, 8180, 8218, 8177, 8190, 8172, 8191, 8186, 8205, 8287,3.1358110904693604
59, 8170, 8169, 8174, 8193, 8228, 8185, 8156, 8177, 8213, 8200, 8205, 8197, 8223, 8301,3.143745183944702
60, 8159, 8184, 8139, 8200, 8213, 8187, 8142, 8174, 8226, 8215, 8206, 8184, 8220, 8304,3.1518635749816895
61, 8180, 8161, 8234, 8174, 8299, 8196, 8351, 8202, 8188, 8177, 8190, 8177, 8177, 8273,3.159818410873413
62, 8145, 8141, 8192, 8153, 8151, 8188, 8169, 8175, 8174, 8165, 8182, 8170, 8169, 8265,3.166867733001709
63, 8125, 8153, 8148, 8159, 8134, 8185, 8143, 8184, 8189, 8173, 8186, 8168, 8175, 8268,3.1749274730682373
64, 8141, 8150, 8187, 8156, 8194, 8198, 8215, 8215, 8212, 8161, 8195, 8177, 8167, 8266,3.182762861251831
65, 8126, 8137, 8154, 8146, 8147, 8203, 8135, 8207, 8235, 8166, 8187, 8175, 8171, 8274,3.190988540649414
66, 8136, 8142, 8173, 8151, 8168, 8198, 8199, 8210, 8230, 8165, 8176, 8168, 8154, 8261,3.1988861560821533
67, 8125, 8142, 8157, 8160, 8137, 8182, 8139, 8179, 8222, 8154, 8183, 8156, 8143, 8243,3.2070372104644775
68, 8125, 8146, 8152, 8157, 8151, 8178, 8166, 8160, 8209, 8145, 8188, 8150, 8143, 8249,3.21496844291687
69, 8154, 8143, 8182, 8140, 8131, 8172, 8187, 8159, 8177, 8144, 8180, 8160, 8143, 8260,3.2229182720184326
70, 8144, 8134, 8157, 8135, 8079, 8152, 8116, 8144, 8154, 8153, 8188, 8163, 8161, 8261,3.2297818660736084
71, 8149, 8143, 8183, 8148, 8134, 8154, 8194, 8151, 8141, 8149, 8205, 8169, 8178, 8258,3.2377469539642334
72, 8150, 8141, 8171, 8148, 8115, 8166, 8152, 8150, 8153, 8137, 8202, 8165, 8183, 8263,3.2457656860351562
73, 8139, 8128, 8150, 8126, 8133, 8182, 8171, 8171, 8169, 8131, 8189, 8154, 8161, 8253,3.253852128982544
74, 8152, 8134, 8177, 8115, 8158, 8197, 8192, 8197, 8176, 8161, 8191, 8169, 8159, 8248,3.261850357055664
75, 8161, 8148, 8171, 8134, 8136, 8197, 8121, 8191, 8188, 8187, 8196, 8179, 8184, 8254,3.269900321960449
76, 8170, 8158, 8191, 8145, 8170, 8193, 8200, 8197, 8189, 8164, 8191, 8164, 8166, 8238,3.27811336517334
77, 8157, 8153, 8168, 8137, 8102, 8183, 8158, 8182, 8181, 8156, 8186, 8150, 8147, 8236,3.2858479022979736
78, 8157, 8158, 8152, 8146, 8083, 8181, 8137, 8170, 8169, 8163, 8180, 8155, 8151, 8249,3.292968988418579
79, 8179, 8171, 8189, 8155, 8141, 8176, 8196, 8170, 8157, 8150, 8172, 8157, 8142, 8241,3.3010690212249756
80, 8168, 8168, 8168, 8145, 8099, 8171, 8146, 8151, 8159, 8139, 8168, 8149, 8140, 8236,3.3088536262512207
81, 8154, 8168, 8138, 8149, 8058, 8184, 8118, 8151, 8158, 8141, 8166, 8149, 8150, 8244,3.3170385360717773
82, 8145, 8161, 8102, 8165, 8065, 8189, 8077, 8152, 8159, 8150, 8173, 8138, 8147, 8239,3.325077533721924
83, 8157, 8157, 8134, 8157, 8159, 8193, 8194, 8168, 8156, 8139, 8175, 8130, 8122, 8218,3.333012104034424
84, 8169, 8173, 8186, 8152, 8149, 8197, 8220, 8186, 8156, 8134, 8179, 8152, 8135, 8230,3.3409335613250732
85, 8148, 8180, 8140, 8167, 8068, 8197, 8097, 8179, 8183, 8159, 8195, 8165, 8180, 8264,3.3488709926605225
86, 8186, 8183, 8207, 8168, 8190, 8209, 8275, 8205, 8198, 8160, 8205, 8178, 8176, 8271,3.3568437099456787
87, 8213, 8187, 8253, 8173, 8187, 8208, 8250, 8195, 8182, 8153, 8195, 8192, 8167, 8280,3.3639824390411377
88, 8172, 8182, 8167, 8179, 8079, 8194, 8086, 8163, 8165, 8158, 8186, 8185, 8180, 8296,3.3719959259033203
89, 8184, 8180, 8187, 8177, 8144, 8205, 8197, 8179, 8167, 8166, 8194, 8186, 8181, 8296,3.379920244216919
90, 8197, 8188, 8189, 8188, 8144, 8204, 8140, 8168, 8186, 8174, 8195, 8186, 8190, 8309,3.3878514766693115
91, 8172, 8194, 8121, 8195, 8103, 8180, 8040, 8148, 8188, 8153, 8188, 8175, 8196, 8321,3.3969247341156006
92, 8173, 8194, 8122, 8181, 8158, 8179, 8127, 8166, 8169, 8143, 8184, 8166, 8180, 8305,3.4040379524230957
93, 8191, 8186, 8173, 8165, 8235, 8197, 8220, 8194, 8162, 8180, 8179, 8167, 8181, 8300,3.4118154048919678
94, 8185, 8167, 8173, 8166, 8215, 8202, 8152, 8193, 8174, 8203, 8176, 8174, 8201, 8308,3.4200873374938965
95, 8160, 8166, 8123, 8167, 8163, 8191, 8084, 8176, 8184, 8187, 8172, 8161, 8190, 8289,3.4269368648529053
96, 8184, 8189, 8197, 8165, 8229, 8198, 8273, 8208, 8173, 8173, 8168, 8159, 8158, 8269,3.435002565383911
97, 8196, 8175, 8225, 8164, 8153, 8200, 8215, 8202, 8172, 8187, 8174, 8174, 8168, 8287,3.4430460929870605
98, 8162, 8158, 8135, 8162, 8064, 8182, 8052, 8164, 8188, 8194, 8174, 8166, 8188, 8303,3.4511234760284424
99, 8164, 8165, 8159, 8161, 8162, 8182, 8211, 8186, 8178, 8162, 8167, 8151, 8167, 8278,3.459028720855713
100, 8150, 8151, 8159, 8160, 8116, 8181, 8183, 8180, 8175, 8161, 8171, 8148, 8162, 8259,3.4669201374053955
101, 8138, 8151, 8129, 8162, 8066, 8177, 8116, 8165, 8182, 8186, 8174, 8159, 8175, 8258,3.474890947341919
102, 8168, 8172, 8171, 8160, 8142, 8177, 8182, 8177, 8170, 8166, 8175, 8168, 8164, 8262,3.4829254150390625
103, 8177, 8170, 8178, 8162, 8170, 8180, 8163, 8182, 8166, 8150, 8180, 8168, 8167, 8292,3.490795373916626
104, 8190, 8174, 8178, 8174, 8161, 8187, 8156, 8199, 8187, 8190, 8192, 8192, 8206, 8339,3.4979000091552734
105, 8205, 8178, 8169, 8170, 8126, 8183, 8133, 8205, 8208, 8227, 8190, 8207, 8232, 8357,3.5058634281158447
106, 8202, 8161, 8179, 8154, 8142, 8178, 8197, 8200, 8189, 8195, 8176, 8184, 8197, 8322,3.513796806335449
107, 8178, 8150, 8159, 8154, 8090, 8167, 8157, 8171, 8160, 8164, 8162, 8163, 8171, 8301,3.521963357925415
108, 8157, 8157, 8121, 8158, 8063, 8152, 8118, 8160, 8160, 8183, 8157, 8161, 8184, 8302,3.5301473140716553
109, 8188, 8166, 8198, 8153, 8155, 8166, 8267, 8200, 8163, 8186, 8168, 8175, 8173, 8284,3.538970708847046
110, 8181, 8163, 8178, 8163, 8084, 8181, 8141, 8185, 8170, 8172, 8177, 8177, 8166, 8295,3.545898199081421
111, 8153, 8157, 8129, 8160, 8069, 8163, 8126, 8169, 8169, 8156, 8178, 8160, 8166, 8299,3.5540788173675537
112, 8159, 8145, 8182, 8132, 8127, 8151, 8241, 8189, 8159, 8153, 8171, 8154, 8151, 8258,3.560985565185547
113, 8138, 8134, 8143, 8135, 8065, 8161, 8094, 8168, 8163, 8162, 8163, 8158, 8162, 8253,3.5689985752105713
114, 8148, 8146, 8135, 8160, 8104, 8177, 8130, 8169, 8167, 8175, 8165, 8162, 8178, 8274,3.5770246982574463
115, 8165, 8149, 8176, 8160, 8122, 8190, 8199, 8180, 8173, 8187, 8168, 8154, 8170, 8262,3.5850069522857666
116, 8134, 8146, 8158, 8147, 8094, 8204, 8146, 8173, 8183, 8172, 8163, 8150, 8163, 8248,3.5928585529327393
117, 8130, 8154, 8153, 8153, 8163, 8201, 8157, 8180, 8179, 8157, 8166, 8173, 8172, 8265,3.6009135246276855
118, 8166, 8162, 8174, 8162, 8223, 8185, 8193, 8185, 8178, 8172, 8175, 8188, 8180, 8278,3.6087646484375
119, 8188, 8171, 8204, 8156, 8203, 8181, 8222, 8190, 8182, 8167, 8177, 8183, 8172, 8275,3.6168572902679443
120, 8154, 8168, 8150, 8155, 8093, 8175, 8084, 8167, 8192, 8158, 8187, 8176, 8186, 8290,3.6247658729553223
121, 8160, 8164, 8155, 8159, 8138, 8180, 8161, 8178, 8192, 8186, 8185, 8188, 8192, 8309,3.63181734085083
122, 8208, 8163, 8244, 8156, 8194, 8192, 8294, 8201, 8174, 8189, 8171, 8193, 8166, 8300,3.639824151992798
123, 8165, 8156, 8163, 8160, 8062, 8185, 8093, 8158, 8170, 8159, 8168, 8162, 8170, 8284,3.6479361057281494
124, 8141, 8158, 8127, 8172, 8105, 8193, 8143, 8156, 8168, 8151, 8176, 8150, 8181, 8272,3.6557629108428955
125, 8173, 8148, 8186, 8160, 8173, 8193, 8237, 8166, 8150, 8162, 8180, 8163, 8161, 8259,3.6638753414154053
126, 8157, 8141, 8155, 8145, 8131, 8174, 8140, 8143, 8133, 8153, 8169, 8157, 8141, 8255,3.671870470046997
127, 8145, 8157, 8148, 8158, 8143, 8171, 8159, 8145, 8126, 8132, 8173, 8155, 8143, 8257,3.6800520420074463
238, 8157, 8162, 8170, 8166, 8122, 8166, 8174, 8156, 8143, 8150, 8188, 8166, 8170, 8272,3.6877942085266113
0, 8179, 8160, 8205, 8159, 8126, 8167, 8216, 8185, 8167, 8176, 8184, 8174, 8186, 8298,3.6959242820739746
1, 8157, 8160, 8156, 8165, 8089, 8179, 8101, 8183, 8190, 8192, 8173, 8152, 8174, 8302,3.7028753757476807
2, 8136, 8158, 8135, 8163, 8151, 8182, 8150, 8180, 8190, 8189, 8179, 8124, 8155, 8254,3.710914373397827
3, 8201, 8165, 8270, 8161, 8276, 8189, 8367, 8213, 8171, 8166, 8194, 8157, 8159, 8237,3.7188525199890137
4, 8214, 8177, 8244, 8189, 8177, 8197, 8165, 8191, 8190, 8178, 8195, 8190, 8196, 8308,3.7271320819854736
5, 8158, 8182, 8135, 8196, 8127, 8199, 8072, 8174, 8203, 8191, 8181, 8160, 8183, 8318,3.734880208969116
6, 8128, 8167, 8124, 8164, 8134, 8184, 8145, 8182, 8192, 8180, 8170, 8123, 8145, 8240,3.7430055141448975
7, 8136, 8159, 8122, 8161, 8119, 8175, 8108, 8176, 8201, 8185, 8178, 8131, 8166, 8234,3.7510907649993896
8, 8186, 8180, 8175, 8192, 8218, 8192, 8197, 8193, 8199, 8184, 8195, 8169, 8200, 8294,3.75895357131958
9, 8189, 8184, 8182, 8199, 8217, 8183, 8177, 8175, 8176, 8173, 8188, 8170, 8199, 8306,3.765890598297119
10, 8160, 8190, 8152, 8190, 8167, 8160, 8128, 8142, 8159, 8165, 8175, 8151, 8174, 8274,3.7739319801330566
11, 8176, 8202, 8173, 8193, 8211, 8171, 8172, 8149, 8168, 8165, 8185, 8166, 8184, 8274,3.781863212585449
12, 8189, 8184, 8190, 8191, 8262, 8186, 8200, 8163, 8183, 8162, 8189, 8184, 8209, 8297,3.7898387908935547
13, 8181, 8173, 8194, 8183, 8212, 8170, 8175, 8158, 8179, 8166, 8181, 8186, 8201, 8307,3.798001289367676
14, 8176, 8187, 8157, 8195, 8103, 8156, 8093, 8145, 8180, 8190, 8184, 8190, 8198, 8325,3.8057940006256104
15, 8198, 8198, 8187, 8201, 8155, 8175, 8227, 8178, 8182, 8186, 8182, 8192, 8195, 8317,3.8138716220855713
16, 8191, 8184, 8214, 8170, 8146, 8189, 8239, 8189, 8184, 8171, 8169, 8175, 8177, 8276,3.8209331035614014
17, 8152, 8180, 8142, 8159, 8044, 8179, 8079, 8156, 8191, 8185, 8166, 8157, 8172, 8266,3.828850507736206
18, 8186, 8200, 8182, 8188, 8125, 8179, 8200, 8177, 8182, 8180, 8172, 8179, 8180, 8301,3.836770534515381
19, 8192, 8188, 8197, 8187, 8111, 8177, 8172, 8177, 8175, 8166, 8171, 8197, 8199, 8337,3.8448238372802734
20, 8148, 8172, 8133, 8159, 8081, 8177, 8125, 8158, 8176, 8160, 8165, 8177, 8195, 8321,3.852849006652832
21, 8152, 8172, 8163, 8153, 8141, 8187, 8234, 8166, 8158, 8157, 8160, 8156, 8161, 8271,3.860830307006836
22, 8149, 8168, 8165, 8157, 8093, 8182, 8147, 8153, 8155, 8157, 8159, 8146, 8149, 8253,3.8688788414001465
23, 8150, 8175, 8153, 8165, 8111, 8189, 8144, 8162, 8168, 8158, 8169, 8156, 8167, 8267,3.8769614696502686
24, 8161, 8194, 8164, 8190, 8167, 8193, 8200, 8181, 8182, 8182, 8181, 8173, 8192, 8285,3.885014533996582
25, 8159, 8201, 8180, 8195, 8199, 8176, 8207, 8192, 8191, 8204, 8174, 8171, 8197, 8294,3.8918559551239014
26, 8145, 8182, 8172, 8167, 8178, 8161, 8139, 8181, 8180, 8189, 8164, 8154, 8180, 8286,3.9001262187957764
27, 8128, 8175, 8133, 8156, 8133, 8149, 8090, 8157, 8161, 8177, 8169, 8148, 8178, 8269,3.9078874588012695
28, 8173, 8196, 8214, 8172, 8197, 8149, 8259, 8186, 8152, 8178, 8185, 8175, 8184, 8273,3.9159727096557617
29, 8195, 8199, 8224, 8193, 8120, 8149, 8166, 8179, 8175, 8195, 8185, 8193, 8201, 8306,3.923837900161743
30, 8153, 8187, 8139, 8190, 8055, 8146, 8078, 8157, 8198, 8210, 8171, 8173, 8210, 8305,3.9320194721221924
31, 8153, 8183, 8181, 8166, 8147, 8148, 8237, 8185, 8178, 8185, 8167, 8164, 8188, 8269,3.93991756439209
32, 8163, 8177, 8194, 8168, 8143, 8148, 8190, 8181, 8164, 8170, 8163, 8161, 8175, 8272,3.94802188873291
33, 8172, 8188, 8218, 8192, 8172, 8160, 8247, 8192, 8164, 8177, 8163, 8159, 8159, 8269,3.9549484252929688
34, 8155, 8192, 8209, 8193, 8127, 8160, 8196, 8187, 8163, 8177, 8164, 8153, 8152, 8246,3.9630422592163086
35, 8138, 8186, 8152, 8186, 8079, 8146, 8106, 8167, 8164, 8169, 8160, 8147, 8163, 8254,3.970919609069824
36, 8179, 8200, 8201, 8189, 8155, 8143, 8220, 8184, 8162, 8177, 8167, 8168, 8165, 8280,3.979041814804077
37, 8167, 8199, 8171, 8178, 8151, 8140, 8138, 8161, 8158, 8190, 8167, 8163, 8171, 8281,3.9869065284729004
38, 8142, 8182, 8145, 8153, 8177, 8146, 8166, 8157, 8148, 8158, 8150, 8141, 8157, 8250,3.995007038116455
39, 8155, 8169, 8169, 8154, 8136, 8151, 8190, 8176, 8163, 8151, 8151, 8142, 8149, 8239,4.003037929534912
40, 8153, 8160, 8145, 8162, 8087, 8147, 8119, 8173, 8187, 8178, 8168, 8144, 8160, 8254,4.01105523109436
41, 8160, 8169, 8174, 8153, 8167, 8152, 8206, 8183, 8184, 8178, 8172, 8149, 8157, 8253,4.018968820571899
42, 8149, 8174, 8162, 8149, 8117, 8142, 8141, 8174, 8188, 8175, 8165, 8150, 8163, 8251,4.026064157485962
43, 8123, 8155, 8106, 8145, 8058, 8122, 8067, 8163, 8182, 8155, 8154, 8138, 8162, 8252,4.03386116027832
44, 8111, 8125, 8101, 8132, 8100, 8120, 8118, 8163, 8156, 8132, 8147, 8129, 8133, 8236,4.041816711425781
45, 8111, 8126, 8120, 8133, 8134, 8135, 8156, 8160, 8160, 8150, 8153, 8132, 8117, 8219,4.050098896026611
46, 8140, 8157, 8165, 8143, 8161, 8141, 8221, 8173, 8164, 8156, 8162, 8139, 8122, 8223,4.058067321777344
47, 8158, 8171, 8185, 8153, 8145, 8135, 8208, 8172, 8150, 8138, 8166, 8146, 8127, 8243,4.065870761871338
48, 8159, 8175, 8175, 8171, 8140, 8140, 8154, 8156, 8164, 8162, 8172, 8159, 8143, 8268,4.073967456817627
49, 8154, 8176, 8149, 8175, 8141, 8152, 8112, 8139, 8181, 8192, 8174, 8161, 8159, 8277,4.0819993019104
50, 8137, 8163, 8132, 8154, 8152, 8160, 8155, 8146, 8172, 8174, 8158, 8148, 8152, 8261,4.08913254737854
51, 8142, 8152, 8170, 8149, 8167, 8164, 8215, 8181, 8172, 8168, 8161, 8152, 8144, 8251,4.097056865692139
52, 8144, 8163, 8146, 8169, 8090, 8161, 8095, 8182, 8201, 8200, 8179, 8156, 8159, 8269,4.105074644088745
53, 8149, 8177, 8155, 8170, 8112, 8172, 8195, 8196, 8208, 8204, 8177, 8150, 8153, 8260,4.112987756729126
54, 8147, 8156, 8192, 8148, 8131, 8180, 8260, 8199, 8187, 8175, 8159, 8147, 8126, 8230,4.121010780334473
55, 8101, 8128, 8115, 8133, 8052, 8164, 8073, 8154, 8168, 8161, 8150, 8131, 8121, 8225,4.128990173339844
56, 8110, 8141, 8146, 8122, 8108, 8165, 8186, 8162, 8136, 8148, 8160, 8137, 8119, 8221,4.137067079544067
57, 8136, 8153, 8190, 8126, 8084, 8169, 8198, 8156, 8131, 8151, 8168, 8161, 8131, 8232,4.143779754638672
58, 8129, 8156, 8147, 8147, 8062, 8162, 8102, 8129, 8156, 8179, 8162, 8164, 8153, 8260,4.152063369750977
59, 8157, 8172, 8186, 8161, 8188, 8165, 8191, 8150, 8163, 8193, 8165, 8173, 8160, 8276,4.160008430480957
60, 8171, 8184, 8199, 8179, 8216, 8172, 8169, 8155, 8177, 8191, 8178, 8188, 8178, 8290,4.16797399520874
61, 8169, 8197, 8180, 8191, 8216, 8174, 8168, 8162, 8201, 8182, 8176, 8191, 8191, 8297,4.175972938537598
62, 8166, 8201, 8166, 8175, 8194, 8168, 8158, 8173, 8205, 8201, 8164, 8187, 8183, 8293,4.184067964553833
63, 8161, 8187, 8170, 8170, 8159, 8170, 8171, 8180, 8193, 8212, 8165, 8186, 8168, 8288,4.191851854324341
64, 8168, 8180, 8184, 8179, 8117, 8177, 8186, 8182, 8188, 8182, 8168, 8180, 8166, 8292,4.199930906295776
65, 8159, 8174, 8138, 8165, 8063, 8168, 8116, 8162, 8190, 8170, 8158, 8167, 8169, 8284,4.20906400680542
66, 8159, 8171, 8159, 8147, 8126, 8160, 8210, 8166, 8170, 8177, 8148, 8170, 8145, 8258,4.216083288192749
67, 8156, 8168, 8174, 8156, 8111, 8151, 8172, 8156, 8154, 8180, 8155, 8172, 8136, 8264,4.223071098327637
68, 8152, 8177, 8145, 8168, 8110, 8148, 8123, 8140, 8153, 8169, 8155, 8164, 8148, 8280,4.231140375137329
69, 8183, 8183, 8207, 8163, 8207, 8152, 8256, 8149, 8142, 8145, 8141, 8162, 8129, 8253,4.239065885543823
70, 8172, 8171, 8188, 8160, 8142, 8136, 8148, 8128, 8152, 8163, 8144, 8155, 8125, 8244,4.2470622062683105
71, 8158, 8181, 8150, 8165, 8115, 8142, 8120, 8135, 8172, 8187, 8164, 8155, 8153, 8273,4.255015850067139
72, 8180, 8197, 8196, 8168, 8160, 8163, 8206, 8158, 8170, 8170, 8162, 8167, 8159, 8275,4.263065576553345
73, 8185, 8197, 8207, 8173, 8158, 8158, 8181, 8157, 8168, 8154, 8151, 8165, 8152, 8260,4.271029710769653
74, 8192, 8195, 8192, 8184, 8124, 8141, 8166, 8166, 8172, 8187, 8162, 8170, 8168, 8287,4.278063058853149
75, 8182, 8190, 8157, 8184, 8049, 8130, 8117, 8154, 8168, 8213, 8167, 8180, 8185, 8313,4.2860376834869385
76, 8176, 8187, 8175, 8168, 8115, 8136, 8194, 8143, 8138, 8171, 8147, 8178, 8161, 8285,4.293841123580933
77, 8160, 8178, 8166, 8163, 8146, 8139, 8153, 8125, 8124, 8142, 8143, 8171, 8151, 8263,4.302963733673096
78, 8134, 8166, 8126, 8164, 8131, 8138, 8111, 8132, 8135, 8161, 8144, 8164, 8164, 8267,4.3100645542144775
79, 8175, 8175, 8201, 8159, 8206, 8151, 8267, 8178, 8139, 8164, 8138, 8172, 8151, 8262,4.317852258682251
80, 8171, 8175, 8173, 8161, 8137, 8149, 8132, 8154, 8158, 8166, 8143, 8168, 8154, 8269,4.326061725616455
81, 8120, 8161, 8115, 8150, 8122, 8135, 8108, 8142, 8171, 8172, 8150, 8156, 8164, 8269,4.333972692489624
82, 8136, 8160, 8178, 8130, 8192, 8136, 8254, 8177, 8165, 8167, 8145, 8165, 8158, 8251,4.342129707336426
83, 8157, 8166, 8173, 8138, 8150, 8143, 8150, 8163, 8175, 8171, 8145, 8168, 8166, 8258,4.3500447273254395
84, 8162, 8176, 8162, 8160, 8152, 8156, 8131, 8162, 8191, 8185, 8159, 8178, 8181, 8282,4.357054710388184
85, 8172, 8190, 8184, 8168, 8162, 8167, 8175, 8183, 8206, 8196, 8164, 8188, 8193, 8297,4.364912509918213
86, 8186, 8194, 8188, 8164, 8156, 8160, 8173, 8181, 8201, 8180, 8155, 8177, 8187, 8294,4.372944116592407
87, 8184, 8172, 8164, 8158, 8132, 8139, 8113, 8152, 8167, 8155, 8148, 8167, 8171, 8281,4.380878448486328
88, 8167, 8167, 8136, 8157, 8137, 8118, 8111, 8129, 8149, 8154, 8150, 8172, 8172, 8272,4.389037609100342
89, 8191, 8193, 8192, 8161, 8206, 8119, 8239, 8148, 8150, 8154, 8165, 8193, 8170, 8277,4.396984338760376
90, 8198, 8190, 8182, 8162, 8157, 8126, 8140, 8142, 8161, 8164, 8167, 8197, 8174, 8298,4.405038356781006
91, 8190, 8181, 8163, 8166, 8179, 8130, 8154, 8157, 8177, 8184, 8162, 8190, 8183, 8300,4.413047790527344
92, 8194, 8188, 8208, 8169, 8195, 8133, 8250, 8191, 8188, 8183, 8164, 8190, 8178, 8283,4.419840335845947
93, 8164, 8182, 8145, 8162, 8053, 8135, 8094, 8163, 8196, 8174, 8163, 8178, 8182, 8281,4.428029775619507
94, 8167, 8187, 8150, 8159, 8099, 8148, 8174, 8172, 8194, 8175, 8162, 8174, 8177, 8273,4.436049938201904
95, 8178, 8189, 8198, 8162, 8163, 8145, 8246, 8193, 8194, 8187, 8162, 8182, 8171, 8268,4.4439733028411865
96, 8142, 8162, 8150, 8144, 8108, 8134, 8136, 8166, 8187, 8184, 8161, 8172, 8171, 8271,4.452135801315308
97, 8134, 8152, 8132, 8130, 8095, 8138, 8124, 8149, 8167, 8165, 8161, 8162, 8164, 8265,4.460036277770996
98, 8149, 8164, 8139, 8153, 8088, 8134, 8132, 8155, 8166, 8173, 8164, 8169, 8179, 8268,4.468098163604736
99, 8159, 8165, 8173, 8166, 8113, 8129, 8208, 8181, 8168, 8184, 8167, 8181, 8187, 8265,4.476010799407959
100, 8143, 8151, 8165, 8140, 8095, 8126, 8171, 8171, 8152, 8173, 8159, 8169, 8168, 8246,4.482900381088257
101, 8141, 8148, 8155, 8122, 8108, 8121, 8177, 8160, 8140, 8163, 8154, 8157, 8151, 8244,4.49096941947937
102, 8156, 8151, 8183, 8131, 8111, 8123, 8208, 8166, 8157, 8173, 8164, 8174, 8167, 8266,4.499044895172119
103, 8132, 8149, 8132, 8147, 8041, 8127, 8082, 8146, 8196, 8198, 8166, 8172, 8193, 8276,4.507072687149048
104, 8168, 8175, 8189, 8157, 8138, 8139, 8234, 8164, 8187, 8193, 8160, 8175, 8183, 8269,4.515059947967529
105, 8224, 8191, 8246, 8164, 8154, 8138, 8242, 8165, 8167, 8185, 8175, 8206, 8194, 8298,4.522990942001343
106, 8196, 8186, 8152, 8176, 8092, 8113, 8042, 8137, 8189, 8209, 8184, 8209, 8232, 8342,4.531028509140015
107, 8203, 8202, 8179, 8189, 8216, 8102, 8177, 8168, 8189, 8209, 8170, 8203, 8233, 8337,4.539030313491821
108, 8226, 8202, 8222, 8183, 8226, 8107, 8223, 8175, 8163, 8190, 8158, 8201, 8219, 8319,4.545964002609253
109, 8199, 8187, 8168, 8165, 8156, 8114, 8137, 8161, 8161, 8188, 8160, 8199, 8216, 8319,4.554017543792725
110, 8172, 8186, 8140, 8163, 8142, 8120, 8117, 8165, 8176, 8198, 8164, 8195, 8203, 8309,4.562278509140015
111, 8162, 8186, 8157, 8160, 8143, 8130, 8179, 8164, 8171, 8192, 8158, 8176, 8177, 8276,4.569835901260376
112, 8161, 8172, 8173, 8150, 8116, 8131, 8214, 8159, 8150, 8171, 8153, 8164, 8158, 8258,4.577960729598999
113, 8140, 8166, 8124, 8152, 8063, 8124, 8106, 8144, 8156, 8185, 8170, 8166, 8178, 8271,4.586028099060059
114, 8161, 8182, 8178, 8158, 8171, 8145, 8247, 8172, 8169, 8198, 8183, 8186, 8199, 8265,4.593981504440308
115, 8178, 8169, 8219, 8151, 8154, 8146, 8240, 8172, 8170, 8204, 8175, 8199, 8202, 8259,4.602044343948364
116, 8136, 8148, 8125, 8142, 8025, 8115, 8054, 8133, 8176, 8205, 8163, 8188, 8209, 8276,4.610062122344971
117, 8148, 8164, 8164, 8143, 8120, 8125, 8213, 8159, 8177, 8185, 8169, 8189, 8206, 8274,4.6170408725738525
118, 8162, 8184, 8187, 8169, 8135, 8138, 8184, 8161, 8176, 8189, 8182, 8197, 8216, 8270,4.626065731048584
119, 8157, 8203, 8135, 8193, 8089, 8124, 8082, 8145, 8170, 8203, 8179, 8198, 8228, 8285,4.633052110671997
120, 8200, 8210, 8184, 8186, 8135, 8128, 8206, 8173, 8168, 8195, 8169, 8202, 8218, 8295,4.641059637069702
121, 8210, 8198, 8203, 8185, 8131, 8140, 8203, 8176, 8179, 8186, 8167, 8197, 8214, 8293,4.648833274841309
122, 8174, 8194, 8159, 8186, 8133, 8130, 8138, 8153, 8167, 8180, 8168, 8183, 8209, 8275,4.657133102416992
123, 8168, 8193, 8139, 8174, 8144, 8124, 8114, 8140, 8145, 8174, 8160, 8179, 8204, 8265,4.665058135986328
124, 8203, 8193, 8182, 8175, 8195, 8130, 8177, 8157, 8145, 8174, 8158, 8186, 8202, 8275,4.672912120819092
125, 8207, 8192, 8188, 8187, 8212, 8126, 8151, 8158, 8162, 8184, 8165, 8187, 8205, 8293,4.684056282043457
126, 8180, 8194, 8150, 8183, 8231, 8127, 8121, 8147, 8169, 8188, 8160, 8188, 8214, 8304,4.688027381896973
127, 8211, 8210, 8220, 8181, 8315, 8147, 8276, 8183, 8160, 8187, 8165, 8202, 8222, 8297,4.695838928222656
238, 8217, 8224, 8219, 8196, 8221, 8145, 8160, 8174, 8173, 8213, 8185, 8202, 8245, 8304,4.7041075229644775
0, 8177, 8212, 8151, 8199, 8183, 8134, 8074, 8146, 8180, 8228, 8183, 8200, 8254, 8319,4.712063789367676
1, 8183, 8195, 8190, 8186, 8256, 8133, 8207, 8161, 8160, 8206, 8167, 8211, 8239, 8305,4.719894886016846
2, 8178, 8188, 8166, 8169, 8139, 8114, 8128, 8152, 8159, 8206, 8164, 8194, 8236, 8291,4.728043556213379
3, 8174, 8191, 8152, 8154, 8084, 8102, 8146, 8155, 8164, 8212, 8172, 8187, 8226, 8294,4.736056089401245
4, 8182, 8187, 8185, 8156, 8106, 8101, 8184, 8157, 8158, 8199, 8179, 8203, 8212, 8291,4.743022441864014
5, 8167, 8192, 8166, 8175, 8087, 8103, 8130, 8146, 8163, 8196, 8177, 8200, 8219, 8275,4.750995635986328
6, 8168, 8199, 8163, 8179, 8085, 8121, 8164, 8154, 8160, 8200, 8167, 8193, 8225, 8269,4.759029865264893
7, 8171, 8182, 8161, 8163, 8085, 8130, 8167, 8143, 8140, 8198, 8156, 8187, 8209, 8280,4.7670979499816895
8, 8183, 8188, 8186, 8174, 8117, 8119, 8199, 8138, 8118, 8174, 8158, 8191, 8195, 8277,4.7750115394592285
9, 8185, 8203, 8170, 8192, 8069, 8119, 8124, 8124, 8118, 8167, 8172, 8200, 8209, 8271,4.783134460449219
10, 8187, 8194, 8158, 8169, 8111, 8149, 8154, 8123, 8130, 8192, 8181, 8206, 8230, 8280,4.791027545928955
11, 8214, 8191, 8223, 8149, 8216, 8164, 8268, 8156, 8147, 8194, 8179, 8209, 8232, 8296,4.798954010009766
12, 8191, 8188, 8173, 8174, 8108, 8140, 8094, 8149, 8189, 8196, 8170, 8192, 8240, 8302,4.807109594345093
13, 8180, 8192, 8158, 8192, 8096, 8133, 8146, 8166, 8223, 8230, 8179, 8197, 8248, 8289,4.814055681228638
14, 8214, 8201, 8215, 8186, 8145, 8144, 8241, 8195, 8234, 8271, 8190, 8224, 8255, 8301,4.8218913078308105
15, 8209, 8208, 8173, 8193, 8083, 8142, 8107, 8180, 8229, 8254, 8165, 8207, 8246, 8320,4.830035209655762
16, 8194, 8205, 8163, 8186, 8105, 8141, 8153, 8177, 8195, 8196, 8145, 8180, 8208, 8291,4.838032484054565
17, 8179, 8190, 8163, 8165, 8116, 8137, 8173, 8167, 8180, 8188, 8156, 8182, 8201, 8266,4.845857381820679
18, 8194, 8194, 8163, 8169, 8102, 8124, 8161, 8164, 8197, 8204, 8164, 8192, 8213, 8286,4.854983329772949
19, 8230, 8210, 8186, 8189, 8099, 8124, 8158, 8165, 8189, 8206, 8171, 8198, 8209, 8307,4.861968517303467
20, 8225, 8211, 8188, 8194, 8141, 8128, 8160, 8148, 8152, 8201, 8184, 8209, 8212, 8306,4.86996603012085
21, 8225, 8207, 8199, 8188, 8194, 8121, 8184, 8132, 8136, 8199, 8181, 8221, 8223, 8311,4.877274990081787
22, 8238, 8212, 8165, 8197, 8166, 8111, 8089, 8114, 8177, 8235, 8178, 8221, 8250, 8350,4.884927988052368
23, 8267, 8230, 8206, 8211, 8258, 8135, 8213, 8143, 8217, 8257, 8186, 8227, 8262, 8367,4.892753601074219
24, 8269, 8225, 8248, 8211, 8259, 8163, 8256, 8158, 8206, 8237, 8176, 8227, 8246, 8336,4.900927543640137
25, 8201, 8194, 8135, 8196, 8105, 8148, 8042, 8120, 8205, 8241, 8165, 8193, 8237, 8310,4.908698081970215
26, 8174, 8179, 8121, 8181, 8160, 8144, 8141, 8148, 8224, 8264, 8174, 8180, 8233, 8302,4.916783094406128
27, 8190, 8183, 8171, 8187, 8195, 8157, 8209, 8182, 8229, 8263, 8184, 8205, 8241, 8315,4.92484450340271
28, 8195, 8200, 8156, 8191, 8155, 8156, 8144, 8180, 8226, 8249, 8180, 8214, 8245, 8327,4.9328532218933105
29, 8211, 8212, 8177, 8192, 8170, 8141, 8170, 8186, 8220, 8256, 8177, 8211, 8234, 8318,4.940819263458252
30, 8212, 8214, 8191, 8213, 8136, 8138, 8163, 8182, 8224, 8269, 8185, 8224, 8255, 8328,4.947753190994263
31, 8210, 8225, 8190, 8232, 8107, 8159, 8167, 8183, 8220, 8263, 8200, 8241, 8282, 8356,4.955931186676025
32, 8203, 8222, 8156, 8226, 8076, 8146, 8102, 8158, 8198, 8245, 8196, 8228, 8267, 8362,4.963900804519653
33, 8213, 8209, 8166, 8206, 8131, 8125, 8178, 8147, 8169, 8225, 8172, 8214, 8231, 8335,4.971700668334961
34, 8225, 8202, 8197, 8197, 8130, 8138, 8192, 8148, 8179, 8222, 8173, 8222, 8231, 8328,4.979771614074707
35, 8199, 8198, 8147, 8196, 8059, 8147, 8084, 8132, 8211, 8240, 8180, 8206, 8254, 8343,4.988092660903931
36, 8234, 8209, 8227, 8193, 8180, 8157, 8310, 8180, 8195, 8235, 8176, 8199, 8227, 8323,4.995753526687622
37, 8246, 8212, 8257, 8194, 8136, 8163, 8256, 8195, 8202, 8239, 8180, 8208, 8218, 8309,5.003888845443726
38, 8185, 8199, 8158, 8192, 8054, 8157, 8083, 8180, 8239, 8255, 8190, 8203, 8238, 8312,5.010915040969849
39, 8185, 8195, 8176, 8182, 8160, 8163, 8207, 8210, 8223, 8234, 8175, 8202, 8223, 8299,5.018886566162109
40, 8195, 8196, 8168, 8166, 8161, 8175, 8160, 8213, 8217, 8220, 8160, 8200, 8214, 8301,5.026808738708496
41, 8179, 8192, 8159, 8162, 8179, 8184, 8181, 8225, 8243, 8219, 8164, 8192, 8205, 8288,5.0348899364471436
42, 8142, 8165, 8152, 8158, 8174, 8191, 8176, 8226, 8257, 8218, 8165, 8168, 8181, 8248,5.043026924133301
43, 8127, 8168, 8137, 8152, 8164, 8214, 8147, 8211, 8261, 8228, 8168, 8154, 8177, 8235,5.050931692123413
44, 8173, 8211, 8191, 8169, 8195, 8225, 8222, 8213, 8259, 8245, 8176, 8180, 8195, 8263,5.059054851531982
45, 8171, 8217, 8167, 8194, 8143, 8201, 8129, 8185, 8259, 8244, 8175, 8192, 8211, 8287,5.066904067993164
46, 8152, 8215, 8152, 8197, 8157, 8190, 8149, 8176, 8244, 8220, 8185, 8182, 8206, 8276,5.073963642120361
47, 8175, 8228, 8187, 8193, 8156, 8199, 8202, 8180, 8225, 8224, 8197, 8179, 8198, 8265,5.082050561904907
48, 8186, 8222, 8156, 8196, 8089, 8196, 8121, 8165, 8223, 8228, 8174, 8176, 8187, 8278,5.089977979660034
49, 8179, 8207, 8125, 8188, 8083, 8188, 8093, 8168, 8222, 8202, 8157, 8174, 8183, 8290,5.097888946533203
50, 8171, 8206, 8125, 8182, 8112, 8182, 8112, 8178, 8228, 8198, 8176, 8177, 8204, 8299,5.106970548629761
51, 8204, 8217, 8197, 8191, 8198, 8196, 8277, 8212, 8234, 8192, 8180, 8187, 8196, 8300,5.113910913467407
52, 8222, 8219, 8242, 8185, 8180, 8208, 8298, 8223, 8224, 8174, 8163, 8189, 8166, 8287,5.121936798095703
53, 8169, 8195, 8160, 8170, 8047, 8192, 8084, 8183, 8221, 8192, 8161, 8172, 8174, 8280,5.129991769790649
54, 8151, 8178, 8117, 8177, 8019, 8195, 8053, 8169, 8226, 8215, 8170, 8174, 8199, 8289,5.136955976486206
55, 8181, 8199, 8147, 8195, 8056, 8212, 8147, 8183, 8228, 8202, 8178, 8184, 8199, 8296,5.1451356410980225
56, 8197, 8230, 8189, 8195, 8136, 8215, 8226, 8199, 8226, 8185, 8180, 8185, 8182, 8285,5.152790784835815
57, 8188, 8227, 8175, 8189, 8161, 8206, 8158, 8193, 8231, 8194, 8171, 8188, 8181, 8283,5.160871505737305
58, 8176, 8206, 8139, 8194, 8155, 8204, 8128, 8192, 8232, 8204, 8166, 8183, 8188, 8282,5.168873310089111
59, 8188, 8199, 8184, 8188, 8194, 8211, 8240, 8212, 8220, 8188, 8175, 8177, 8179, 8263,5.176767587661743
60, 8159, 8189, 8152, 8163, 8113, 8201, 8126, 8173, 8222, 8171, 8168, 8160, 8173, 8254,5.1850080490112305
61, 8136, 8186, 8123, 8150, 8094, 8187, 8135, 8155, 8209, 8163, 8155, 8149, 8161, 8247,5.192853212356567
62, 8168, 8190, 8175, 8159, 8134, 8177, 8228, 8178, 8185, 8155, 8159, 8161, 8143, 8245,5.200762748718262
63, 8170, 8187, 8142, 8164, 8077, 8163, 8099, 8157, 8194, 8155, 8160, 8164, 8153, 8258,5.208004474639893
64, 8174, 8198, 8160, 8157, 8130, 8163, 8186, 8158, 8197, 8155, 8160, 8162, 8158, 8256,5.2158589363098145
65, 8182, 8198, 8210, 8158, 8165, 8164, 8255, 8167, 8188, 8161, 8172, 8166, 8149, 8253,5.223715305328369
66, 8166, 8188, 8178, 8165, 8125, 8156, 8147, 8151, 8188, 8169, 8178, 8167, 8150, 8264,5.231985330581665
67, 8171, 8187, 8153, 8155, 8115, 8158, 8119, 8145, 8186, 8166, 8170, 8166, 8154, 8265,5.24007773399353
68, 8170, 8179, 8149, 8133, 8132, 8161, 8164, 8145, 8177, 8160, 8157, 8155, 8142, 8248,5.248106479644775
69, 8159, 8172, 8172, 8118, 8180, 8163, 8211, 8163, 8165, 8141, 8156, 8142, 8117, 8230,5.256000280380249
70, 8132, 8170, 8124, 8126, 8131, 8161, 8059, 8157, 8176, 8134, 8175, 8139, 8130, 8239,5.26401948928833
71, 8140, 8183, 8147, 8141, 8203, 8162, 8193, 8187, 8191, 8139, 8185, 8152, 8143, 8247,5.2720513343811035
72, 8187, 8198, 8265, 8153, 8305, 8174, 8381, 8227, 8186, 8152, 8186, 8174, 8142, 8249,5.279040336608887
73, 8177, 8201, 8208, 8165, 8208, 8167, 8120, 8179, 8198, 8180, 8189, 8174, 8171, 8284,5.287001132965088
74, 8182, 8208, 8179, 8163, 8202, 8156, 8147, 8169, 8197, 8164, 8185, 8169, 8165, 8291,5.295112133026123
75, 8181, 8193, 8190, 8153, 8134, 8157, 8210, 8177, 8183, 8144, 8178, 8164, 8144, 8265,5.302988529205322
76, 8148, 8180, 8140, 8157, 8060, 8152, 8103, 8157, 8187, 8161, 8177, 8162, 8158, 8277,5.311145067214966
77, 8182, 8194, 8190, 8162, 8128, 8139, 8197, 8163, 8183, 8152, 8173, 8178, 8164, 8297,5.319041013717651
78, 8206, 8197, 8194, 8164, 8063, 8128, 8172, 8149, 8187, 8146, 8170, 8183, 8164, 8293,5.3267951011657715
79, 8171, 8195, 8125, 8172, 7994, 8143, 8069, 8131, 8202, 8173, 8184, 8181, 8179, 8292,5.334918737411499
80, 8155, 8200, 8113, 8177, 8039, 8155, 8075, 8137, 8205, 8184, 8194, 8187, 8194, 8302,5.3420398235321045
81, 8175, 8193, 8145, 8163, 8090, 8157, 8172, 8154, 8196, 8168, 8180, 8183, 8189, 8288,5.349865198135376
82, 8187, 8184, 8164, 8153, 8082, 8174, 8199, 8167, 8193, 8175, 8171, 8176, 8178, 8269,5.3580522537231445
83, 8174, 8181, 8147, 8163, 8071, 8184, 8125, 8164, 8198, 8190, 8180, 8183, 8183, 8291,5.366055965423584
84, 8197, 8185, 8189, 8164, 8177, 8183, 8209, 8183, 8189, 8160, 8187, 8194, 8184, 8307,5.374153137207031
85, 8216, 8204, 8198, 8167, 8188, 8172, 8180, 8182, 8191, 8144, 8186, 8184, 8179, 8293,5.3820390701293945
86, 8196, 8223, 8153, 8185, 8136, 8168, 8108, 8175, 8208, 8180, 8183, 8172, 8183, 8280,5.3900580406188965
87, 8193, 8216, 8200, 8185, 8192, 8175, 8232, 8193, 8195, 8185, 8175, 8185, 8170, 8272,5.398055076599121
88, 8189, 8203, 8185, 8182, 8169, 8170, 8141, 8164, 8187, 8150, 8171, 8185, 8166, 8282,5.406095266342163
89, 8202, 8223, 8154, 8198, 8170, 8178, 8108, 8160, 8210, 8154, 8188, 8185, 8192, 8306,5.413127660751343
90, 8221, 8226, 8202, 8192, 8158, 8195, 8223, 8190, 8217, 8188, 8200, 8197, 8199, 8308,5.42112922668457
91, 8182, 8196, 8175, 8162, 8016, 8189, 8156, 8166, 8200, 8182, 8181, 8185, 8175, 8281,5.428995609283447
92, 8172, 8197, 8158, 8163, 7986, 8185, 8146, 8156, 8183, 8154, 8166, 8176, 8162, 8270,5.436986446380615
93, 8180, 8200, 8165, 8172, 8007, 8186, 8148, 8163, 8191, 8167, 8173, 8174, 8173, 8276,5.44505500793457
94, 8165, 8183, 8167, 8149, 8022, 8181, 8181, 8173, 8207, 8174, 8180, 8173, 8173, 8262,5.452832221984863
95, 8163, 8174, 8164, 8140, 8010, 8174, 8164, 8170, 8212, 8159, 8186, 8189, 8180, 8263,5.461020231246948
96, 8162, 8185, 8138, 8160, 8008, 8172, 8119, 8160, 8206, 8167, 8183, 8185, 8188, 8278,5.46813178062439
97, 8175, 8206, 8177, 8165, 8089, 8174, 8220, 8178, 8191, 8160, 8170, 8164, 8153, 8252,5.475776672363281
98, 8165, 8196, 8164, 8158, 8051, 8157, 8139, 8161, 8187, 8145, 8163, 8163, 8140, 8241,5.483874797821045
99, 8158, 8184, 8149, 8152, 8060, 8151, 8157, 8149, 8178, 8137, 8171, 8172, 8149, 8259,5.491889238357544
100, 8191, 8204, 8212, 8155, 8136, 8174, 8250, 8173, 8171, 8137, 8190, 8177, 8149, 8262,5.50014853477478
101, 8184, 8217, 8174, 8175, 8086, 8177, 8101, 8156, 8189, 8153, 8194, 8178, 8168, 8266,5.507866144180298
102, 8172, 8207, 8156, 8181, 8089, 8170, 8155, 8152, 8180, 8135, 8175, 8187, 8163, 8270,5.514955520629883
103, 8186, 8207, 8187, 8176, 8072, 8174, 8203, 8155, 8166, 8120, 8167, 8197, 8154, 8282,5.523860454559326
104, 8197, 8227, 8185, 8187, 8061, 8185, 8149, 8158, 8188, 8154, 8190, 8202, 8185, 8294,5.53093695640564
105, 8206, 8226, 8188, 8194, 8069, 8190, 8152, 8178, 8207, 8180, 8205, 8208, 8201, 8297,5.538859128952026
106, 8199, 8206, 8162, 8187, 8028, 8184, 8130, 8180, 8204, 8161, 8181, 8203, 8188, 8312,5.546969175338745
107, 8204, 8215, 8184, 8182, 8078, 8170, 8204, 8184, 8183, 8139, 8162, 8192, 8171, 8311,5.554882526397705
108, 8189, 8223, 8165, 8174, 8071, 8161, 8138, 8163, 8173, 8144, 8163, 8172, 8162, 8274,5.56286096572876
109, 8177, 8207, 8149, 8161, 8094, 8180, 8161, 8165, 8174, 8131, 8160, 8161, 8145, 8249,5.570830345153809
110, 8210, 8192, 8222, 8154, 8156, 8195, 8275, 8196, 8177, 8125, 8168, 8173, 8141, 8266,5.578808069229126
111, 8189, 8193, 8168, 8157, 8043, 8176, 8090, 8160, 8194, 8163, 8177, 8176, 8169, 8289,5.58689022064209
112, 8180, 8211, 8147, 8172, 8035, 8182, 8132, 8155, 8190, 8167, 8171, 8180, 8166, 8278,5.594817161560059
113, 8210, 8209, 8215, 8175, 8074, 8201, 8264, 8174, 8164, 8133, 8178, 8179, 8146, 8256,5.6017866134643555
114, 8182, 8196, 8175, 8162, 8014, 8177, 8140, 8148, 8164, 8130, 8184, 8161, 8154, 8257,5.610897541046143
115, 8171, 8202, 8149, 8164, 8009, 8161, 8117, 8135, 8172, 8143, 8172, 8165, 8158, 8264,5.61784291267395
116, 8193, 8200, 8173, 8160, 8020, 8175, 8170, 8141, 8156, 8136, 8167, 8168, 8149, 8254,5.626023769378662
117, 8202, 8190, 8195, 8146, 8050, 8183, 8217, 8155, 8136, 8124, 8175, 8160, 8142, 8243,5.633781433105469
118, 8186, 8189, 8165, 8160, 8013, 8166, 8126, 8145, 8143, 8125, 8180, 8170, 8144, 8256,5.64185905456543
119, 8174, 8199, 8136, 8174, 7997, 8156, 8103, 8135, 8157, 8127, 8173, 8173, 8146, 8269,5.649915456771851
120, 8195, 8206, 8182, 8160, 8059, 8173, 8206, 8157, 8167, 8134, 8169, 8173, 8154, 8261,5.657882928848267
121, 8175, 8195, 8149, 8157, 8037, 8173, 8122, 8152, 8183, 8164, 8173, 8173, 8178, 8259,5.664776563644409
122, 8171, 8201, 8162, 8163, 8097, 8168, 8217, 8161, 8175, 8165, 8176, 8176, 8171, 8259,5.672899007797241
123, 8195, 8214, 8210, 8160, 8092, 8171, 8244, 8161, 8169, 8144, 8180, 8175, 8156, 8257,5.680800199508667
124, 8160, 8208, 8138, 8166, 7995, 8171, 8069, 8137, 8190, 8158, 8182, 8161, 8173, 8254,5.68892240524292
125, 8151, 8194, 8164, 8166, 8073, 8180, 8204, 8164, 8183, 8168, 8176, 8166, 8175, 8249,5.696691274642944
126, 8177, 8178, 8213, 8160, 8094, 8183, 8238, 8171, 8173, 8150, 8174, 8182, 8176, 8276,5.704916954040527
127, 8180, 8193, 8175, 8174, 8046, 8185, 8130, 8160, 8189, 8149, 8182, 8187, 8189, 8297,5.712974548339844
238, 8160, 8205, 8145, 8172, 8026, 8178, 8124, 8162, 8190, 8162, 8172, 8179, 8175, 8268,5.720797061920166
0, 8143, 8174, 8134, 8136, 8037, 8158, 8151, 8154, 8182, 8160, 8150, 8159, 8152, 8252,5.728877544403076
1, 8168, 8163, 8165, 8120, 8090, 8154, 8193, 8160, 8185, 8145, 8163, 8158, 8152, 8278,5.735983848571777
2, 8158, 8164, 8135, 8131, 8045, 8149, 8108, 8139, 8190, 8147, 8181, 8156, 8158, 8276,5.743888854980469
3, 8145, 8157, 8164, 8126, 8085, 8147, 8232, 8148, 8167, 8132, 8168, 8146, 8128, 8228,5.7519307136535645
4, 8167, 8164, 8214, 8124, 8068, 8145, 8237, 8163, 8157, 8120, 8160, 8151, 8116, 8229,5.759964227676392
5, 8157, 8186, 8140, 8149, 8002, 8145, 8045, 8145, 8191, 8159, 8165, 8160, 8153, 8275,5.767771244049072
6, 8179, 8212, 8202, 8173, 8189, 8163, 8256, 8180, 8200, 8165, 8184, 8177, 8157, 8270,5.77588152885437
7, 8179, 8200, 8233, 8168, 8178, 8150, 8222, 8172, 8182, 8136, 8194, 8172, 8146, 8245,5.78397011756897
8, 8132, 8165, 8107, 8140, 8020, 8119, 8002, 8128, 8177, 8134, 8178, 8152, 8151, 8250,5.791707515716553
9, 8145, 8157, 8133, 8120, 8115, 8125, 8176, 8158, 8176, 8141, 8167, 8165, 8142, 8251,5.798886775970459
10, 8158, 8165, 8199, 8127, 8161, 8142, 8233, 8171, 8180, 8152, 8180, 8178, 8142, 8246,5.806823492050171
11, 8137, 8170, 8163, 8140, 8049, 8145, 8116, 8151, 8182, 8144, 8191, 8171, 8152, 8243,5.814943313598633
12, 8131, 8168, 8132, 8142, 8001, 8143, 8106, 8148, 8180, 8132, 8186, 8161, 8149, 8246,5.823848485946655
13, 8138, 8170, 8158, 8135, 8082, 8155, 8199, 8166, 8176, 8143, 8175, 8157, 8142, 8245,5.830871343612671
14, 8124, 8165, 8153, 8135, 8073, 8172, 8148, 8168, 8175, 8156, 8167, 8156, 8150, 8237,5.838911771774292
15, 8114, 8166, 8125, 8150, 8023, 8171, 8099, 8165, 8187, 8155, 8170, 8153, 8151, 8245,5.846837997436523
16, 8156, 8189, 8203, 8162, 8119, 8177, 8285, 8199, 8193, 8136, 8180, 8159, 8122, 8250,5.854768991470337
17, 8156, 8186, 8189, 8163, 8068, 8172, 8181, 8186, 8200, 8138, 8173, 8165, 8131, 8247,5.861922025680542
18, 8135, 8168, 8129, 8159, 8010, 8155, 8081, 8170, 8213, 8156, 8157, 8162, 8165, 8251,5.8700175285339355
19, 8186, 8182, 8222, 8154, 8100, 8165, 8259, 8200, 8204, 8158, 8163, 8167, 8151, 8257,5.877967119216919
20, 8191, 8205, 8200, 8169, 8030, 8158, 8119, 8162, 8199, 8160, 8178, 8172, 8142, 8266,5.886067628860474
21, 8159, 8192, 8129, 8164, 8018, 8132, 8075, 8136, 8193, 8154, 8170, 8169, 8151, 8266,5.894089221954346
22, 8166, 8157, 8175, 8131, 8092, 8125, 8213, 8152, 8165, 8138, 8163, 8167, 8142, 8261,5.902034282684326
23, 8175, 8163, 8183, 8149, 8053, 8127, 8156, 8136, 8146, 8141, 8170, 8177, 8143, 8266,5.909951448440552
24, 8191, 8205, 8174, 8204, 8062, 8130, 8113, 8130, 8150, 8156, 8173, 8189, 8157, 8274,5.91805100440979
25, 8196, 8206, 8179, 8204, 8132, 8139, 8145, 8150, 8169, 8161, 8180, 8186, 8164, 8284,5.925122022628784
26, 8193, 8188, 8199, 8181, 8181, 8151, 8213, 8178, 8173, 8165, 8189, 8189, 8157, 8278,5.934118270874023
27, 8178, 8200, 8165, 8188, 8120, 8148, 8099, 8155, 8173, 8170, 8177, 8192, 8156, 8271,5.940894842147827
28, 8174, 8213, 8148, 8191, 8165, 8147, 8118, 8149, 8186, 8162, 8164, 8181, 8158, 8278,5.948784112930298
29, 8213, 8211, 8242, 8187, 8289, 8164, 8320, 8203, 8189, 8154, 8169, 8192, 8146, 8280,5.956836938858032
30, 8181, 8190, 8186, 8181, 8161, 8155, 8134, 8182, 8187, 8168, 8166, 8189, 8147, 8273,5.964847803115845
31, 8125, 8173, 8116, 8154, 8134, 8120, 8081, 8153, 8167, 8149, 8159, 8162, 8140, 8249,5.972786903381348
32, 8151, 8182, 8188, 8160, 8230, 8117, 8221, 8185, 8169, 8151, 8176, 8171, 8147, 8246,5.9807844161987305
33, 8166, 8196, 8175, 8199, 8159, 8150, 8128, 8198, 8211, 8200, 8186, 8188, 8178, 8275,5.9887096881866455
34, 8173, 8196, 8164, 8194, 8138, 8165, 8156, 8204, 8217, 8194, 8172, 8197, 8173, 8300,5.99591064453125
35, 8181, 8189, 8180, 8169, 8143, 8158, 8184, 8197, 8199, 8168, 8160, 8192, 8155, 8307,6.003881454467773
36, 8160, 8185, 8155, 8158, 8122, 8158, 8151, 8178, 8188, 8171, 8161, 8161, 8143, 8282,6.011998414993286
37, 8137, 8171, 8144, 8142, 8123, 8159, 8172, 8163, 8176, 8161, 8166, 8146, 8126, 8253,6.020001649856567
38, 8128, 8157, 8146, 8127, 8133, 8166, 8181, 8155, 8169, 8132, 8161, 8152, 8117, 8245,6.028011322021484
39, 8138, 8151, 8169, 8121, 8140, 8172, 8188, 8162, 8154, 8120, 8153, 8149, 8099, 8234,6.035964727401733
40, 8134, 8150, 8135, 8124, 8081, 8142, 8087, 8142, 8145, 8133, 8163, 8137, 8096, 8237,6.0441062450408936
41, 8152, 8178, 8156, 8136, 8139, 8128, 8185, 8148, 8154, 8139, 8186, 8152, 8115, 8257,6.05202054977417
42, 8176, 8186, 8224, 8128, 8174, 8145, 8266, 8169, 8155, 8136, 8183, 8166, 8123, 8251,6.058852910995483
43, 8133, 8157, 8168, 8112, 8110, 8139, 8119, 8139, 8154, 8142, 8159, 8144, 8123, 8239,6.066933870315552
44, 8136, 8170, 8187, 8124, 8229, 8140, 8236, 8151, 8152, 8133, 8159, 8153, 8116, 8244,6.074991464614868
45, 8144, 8177, 8192, 8128, 8191, 8132, 8187, 8150, 8149, 8133, 8171, 8166, 8118, 8245,6.082810878753662
46, 8109, 8148, 8135, 8109, 8083, 8110, 8099, 8132, 8148, 8134, 8158, 8141, 8112, 8228,6.09109091758728
47, 8117, 8139, 8175, 8116, 8150, 8129, 8216, 8150, 8154, 8126, 8160, 8140, 8102, 8216,6.098719835281372
48, 8112, 8147, 8156, 8135, 8140, 8150, 8139, 8144, 8175, 8155, 8179, 8153, 8119, 8236,6.106945037841797
49, 8108, 8154, 8151, 8126, 8140, 8134, 8175, 8148, 8165, 8156, 8171, 8143, 8106, 8229,6.114752769470215
50, 8115, 8158, 8160, 8122, 8109, 8117, 8161, 8148, 8149, 8134, 8164, 8137, 8097, 8212,6.1217052936553955
51, 8120, 8160, 8152, 8136, 8123, 8139, 8132, 8150, 8157, 8151, 8184, 8153, 8121, 8226,6.129769325256348
52, 8132, 8154, 8182, 8138, 8206, 8160, 8206, 8159, 8152, 8146, 8178, 8151, 8115, 8221,6.137752056121826
53, 8103, 8143, 8127, 8130, 8173, 8133, 8100, 8126, 8141, 8130, 8149, 8116, 8089, 8188,6.1457672119140625
54, 8097, 8151, 8103, 8126, 8179, 8114, 8104, 8126, 8145, 8153, 8167, 8126, 8102, 8195,6.153818368911743
55, 8136, 8165, 8154, 8133, 8165, 8127, 8156, 8145, 8169, 8176, 8208, 8179, 8155, 8259,6.161803245544434
56, 8145, 8171, 8155, 8150, 8107, 8144, 8124, 8137, 8182, 8176, 8202, 8189, 8185, 8289,6.169885873794556
57, 8134, 8173, 8151, 8156, 8135, 8156, 8168, 8138, 8163, 8176, 8180, 8166, 8173, 8259,6.177865266799927
58, 8119, 8166, 8139, 8143, 8141, 8153, 8168, 8135, 8154, 8178, 8178, 8149, 8157, 8242,6.18585467338562
59, 8125, 8165, 8155, 8141, 8138, 8156, 8177, 8146, 8170, 8175, 8188, 8156, 8153, 8254,6.192828178405762
60, 8142, 8168, 8181, 8158, 8122, 8174, 8164, 8153, 8186, 8181, 8196, 8178, 8162, 8263,6.201060771942139
61, 8133, 8166, 8168, 8165, 8119, 8177, 8169, 8144, 8178, 8167, 8184, 8173, 8163, 8255,6.209797620773315
62, 8122, 8173, 8172, 8153, 8157, 8178, 8218, 8152, 8167, 8159, 8169, 8153, 8143, 8248,6.217827796936035
63, 8106, 8166, 8147, 8141, 8170, 8185, 8141, 8150, 8174, 8170, 8175, 8147, 8133, 8244,6.224984169006348
64, 8115, 8157, 8176, 8135, 8257, 8185, 8238, 8168, 8167, 8147, 8184, 8148, 8122, 8226,6.233119010925293
65, 8135, 8157, 8209, 8133, 8226, 8183, 8235, 8174, 8160, 8145, 8183, 8153, 8123, 8228,6.240898847579956
66, 8132, 8156, 8155, 8133, 8171, 8185, 8093, 8159, 8179, 8181, 8184, 8157, 8142, 8258,6.248790740966797
67, 8155, 8155, 8188, 8122, 8292, 8180, 8216, 8181, 8180, 8173, 8191, 8159, 8136, 8251,6.255810976028442
68, 8147, 8161, 8178, 8130, 8227, 8162, 8151, 8152, 8173, 8163, 8189, 8147, 8135, 8237,6.264078378677368
69, 8146, 8187, 8161, 8158, 8176, 8162, 8125, 8129, 8162, 8175, 8187, 8148, 8137, 8247,6.271751403808594
70, 8180, 8197, 8202, 8167, 8229, 8165, 8194, 8150, 8153, 8179, 8195, 8168, 8139, 8260,6.279750347137451
71, 8173, 8191, 8170, 8158, 8192, 8154, 8116, 8145, 8165, 8177, 8194, 8175, 8165, 8276,6.287943124771118
72, 8191, 8208, 8202, 8163, 8200, 8160, 8182, 8151, 8166, 8171, 8194, 8193, 8175, 8299,6.296753644943237
73, 8195, 8206, 8200, 8167, 8152, 8153, 8148, 8141, 8164, 8171, 8199, 8198, 8172, 8315,6.303879976272583
74, 8162, 8184, 8157, 8147, 8141, 8152, 8148, 8133, 8164, 8170, 8187, 8173, 8162, 8287,6.311834096908569
75, 8153, 8186, 8178, 8135, 8185, 8171, 8201, 8138, 8163, 8161, 8177, 8162, 8147, 8251,6.319890260696411
76, 8124, 8190, 8147, 8138, 8160, 8170, 8115, 8116, 8169, 8155, 8181, 8154, 8136, 8246,6.327874660491943
77, 8110, 8185, 8144, 8136, 8186, 8166, 8177, 8111, 8159, 8146, 8174, 8147, 8123, 8232,6.334962606430054
78, 8145, 8188, 8192, 8153, 8176, 8169, 8207, 8108, 8148, 8149, 8177, 8170, 8138, 8241,6.342785596847534
79, 8163, 8193, 8167, 8181, 8098, 8166, 8083, 8089, 8164, 8170, 8202, 8199, 8184, 8286,6.35098671913147
80, 8148, 8189, 8109, 8188, 8077, 8162, 8038, 8079, 8173, 8177, 8206, 8189, 8198, 8294,6.358845949172974
81, 8150, 8192, 8119, 8184, 8134, 8163, 8134, 8094, 8166, 8171, 8185, 8161, 8173, 8272,6.367042779922485
82, 8191, 8207, 8204, 8181, 8213, 8170, 8278, 8136, 8162, 8172, 8187, 8170, 8156, 8272,6.374799489974976
83, 8186, 8195, 8186, 8165, 8141, 8165, 8172, 8125, 8165, 8172, 8195, 8176, 8161, 8278,6.382781028747559
84, 8162, 8177, 8155, 8153, 8154, 8163, 8160, 8117, 8166, 8157, 8189, 8164, 8166, 8269,6.389792442321777
85, 8206, 8187, 8250, 8158, 8265, 8178, 8309, 8165, 8173, 8157, 8197, 8187, 8169, 8278,6.398025274276733
86, 8210, 8182, 8226, 8162, 8165, 8168, 8158, 8155, 8188, 8183, 8200, 8195, 8176, 8295,6.405926704406738
87, 8156, 8169, 8128, 8155, 8068, 8144, 8044, 8117, 8185, 8182, 8184, 8167, 8171, 8275,6.414997816085815
88, 8132, 8176, 8101, 8158, 8081, 8149, 8069, 8115, 8183, 8180, 8180, 8159, 8179, 8260,6.4218525886535645
89, 8169, 8197, 8161, 8176, 8179, 8183, 8208, 8155, 8192, 8197, 8190, 8183, 8192, 8280,6.430042028427124
90, 8216, 8207, 8245, 8195, 8225, 8197, 8285, 8185, 8194, 8202, 8199, 8199, 8190, 8294,6.437818288803101
91, 8176, 8196, 8161, 8195, 8127, 8171, 8077, 8143, 8199, 8203, 8193, 8175, 8197, 8282,6.445889472961426
92, 8163, 8199, 8148, 8184, 8207, 8170, 8161, 8150, 8193, 8179, 8186, 8166, 8189, 8264,6.453984260559082
93, 8206, 8208, 8223, 8193, 8248, 8185, 8238, 8172, 8187, 8168, 8194, 8192, 8192, 8284,6.460880756378174
94, 8197, 8203, 8161, 8201, 8132, 8180, 8066, 8147, 8199, 8203, 8190, 8191, 8223, 8317,6.4688262939453125
95, 8188, 8188, 8150, 8182, 8177, 8178, 8166, 8163, 8192, 8190, 8169, 8169, 8208, 8291,6.476974964141846
96, 8168, 8170, 8183, 8157, 8217, 8168, 8239, 8163, 8176, 8160, 8165, 8147, 8171, 8244,6.484769821166992
97, 8138, 8170, 8148, 8151, 8149, 8154, 8129, 8142, 8179, 8177, 8171, 8140, 8164, 8252,6.492992877960205
98, 8149, 8172, 8126, 8155, 8118, 8157, 8109, 8159, 8189, 8178, 8165, 8153, 8175, 8276,6.500901937484741
99, 8156, 8167, 8147, 8151, 8154, 8164, 8188, 8181, 8189, 8165, 8159, 8159, 8183, 8271,6.508944511413574
100, 8164, 8179, 8178, 8155, 8168, 8160, 8201, 8184, 8194, 8189, 8167, 8167, 8186, 8281,6.516951560974121
101, 8181, 8198, 8153, 8184, 8117, 8162, 8092, 8173, 8222, 8210, 8179, 8176, 8199, 8315,6.524015426635742
102, 8183, 8201, 8164, 8190, 8176, 8178, 8175, 8176, 8211, 8175, 8177, 8170, 8190, 8297,6.531928777694702
103, 8164, 8189, 8182, 8166, 8205, 8182, 8191, 8167, 8184, 8170, 8175, 8166, 8179, 8280,6.540013313293457
104, 8159, 8180, 8151, 8164, 8151, 8182, 8095, 8165, 8220, 8213, 8187, 8174, 8206, 8318,6.547850847244263
105, 8188, 8180, 8196, 8179, 8190, 8193, 8232, 8206, 8237, 8205, 8186, 8172, 8207, 8311,6.556030988693237
106, 8148, 8164, 8159, 8159, 8124, 8169, 8150, 8178, 8200, 8176, 8160, 8138, 8175, 8255,6.563960075378418
107, 8109, 8158, 8106, 8125, 8109, 8143, 8086, 8139, 8180, 8179, 8154, 8130, 8162, 8237,6.572009801864624
108, 8166, 8174, 8199, 8132, 8207, 8156, 8236, 8158, 8175, 8181, 8164, 8165, 8167, 8265,6.57996940612793
109, 8177, 8173, 8199, 8157, 8190, 8153, 8160, 8149, 8163, 8171, 8162, 8173, 8171, 8292,6.587997913360596
110, 8150, 8175, 8152, 8160, 8215, 8142, 8127, 8149, 8160, 8171, 8161, 8153, 8172, 8281,6.594983816146851
111, 8152, 8181, 8162, 8152, 8238, 8152, 8178, 8157, 8169, 8184, 8170, 8146, 8177, 8258,6.602987766265869
112, 8170, 8175, 8188, 8157, 8203, 8155, 8205, 8160, 8174, 8178, 8178, 8164, 8177, 8276,6.610859394073486
113, 8172, 8165, 8181, 8161, 8148, 8138, 8156, 8166, 8186, 8177, 8188, 8176, 8177, 8304,6.6188108921051025
114, 8147, 8171, 8130, 8157, 8126, 8131, 8100, 8167, 8203, 8204, 8187, 8158, 8188, 8287,6.626951217651367
115, 8172, 8198, 8177, 8161, 8200, 8145, 8237, 8182, 8184, 8201, 8179, 8161, 8193, 8270,6.6348230838775635
116, 8193, 8197, 8181, 8167, 8169, 8137, 8159, 8160, 8164, 8187, 8185, 8176, 8203, 8318,6.6428539752960205
117, 8167, 8181, 8137, 8165, 8179, 8131, 8132, 8156, 8164, 8183, 8179, 8163, 8193, 8318,6.649825572967529
118, 8158, 8182, 8191, 8159, 8213, 8151, 8263, 8190, 8158, 8181, 8164, 8158, 8163, 8239,6.6578404903411865
119, 8148, 8182, 8163, 8169, 8092, 8158, 8099, 8167, 8176, 8210, 8177, 8169, 8189, 8246,6.666009187698364
120, 8171, 8184, 8143, 8187, 8160, 8164, 8125, 8173, 8200, 8229, 8188, 8170, 8210, 8311,6.673959493637085
121, 8187, 8190, 8184, 8186, 8249, 8170, 8241, 8194, 8191, 8212, 8170, 8155, 8183, 8295,6.68204402923584
122, 8157, 8193, 8165, 8171, 8157, 8150, 8158, 8163, 8174, 8200, 8164, 8152, 8176, 8247,6.689935922622681
123, 8156, 8185, 8159, 8163, 8123, 8137, 8128, 8145, 8174, 8182, 8176, 8171, 8183, 8249,6.697854280471802
124, 8170, 8170, 8151, 8155, 8137, 8149, 8124, 8151, 8177, 8171, 8174, 8165, 8171, 8274,6.706024646759033
125, 8190, 8184, 8180, 8158, 8169, 8168, 8196, 8182, 8179, 8193, 8184, 8162, 8182, 8293,6.713866472244263
126, 8194, 8197, 8181, 8183, 8122, 8172, 8144, 8184, 8207, 8236, 8204, 8194, 8233, 8320,6.720869302749634
127, 8181, 8190, 8162, 8187, 8137, 8160, 8147, 8167, 8206, 8238, 8187, 8204, 8227, 8314,6.728994607925415
238, 8194, 8180, 8207, 8168, 8239, 8162, 8258, 8180, 8169, 8191, 8162, 8186, 8173, 8282,6.73780369758606
0, 8169, 8166, 8152, 8163, 8170, 8164, 8098, 8173, 8188, 8189, 8172, 8163, 8187, 8285,6.746067047119141
1, 8161, 8173, 8146, 8165, 8155, 8159, 8134, 8186, 8215, 8212, 8188, 8169, 8216, 8299,6.7528908252716064
2, 8215, 8186, 8231, 8164, 8173, 8147, 8261, 8194, 8181, 8200, 8179, 8208, 8200, 8303,6.76078200340271
3, 8211, 8177, 8183, 8169, 8108, 8139, 8133, 8156, 8150, 8185, 8158, 8206, 8187, 8309,6.76896071434021
4, 8162, 8179, 8144, 8160, 8137, 8151, 8149, 8157, 8153, 8190, 8158, 8170, 8182, 8290,6.776682376861572
5, 8141, 8192, 8158, 8154, 8139, 8160, 8182, 8169, 8178, 8209, 8175, 8163, 8189, 8258,6.784091472625732
6, 8167, 8198, 8170, 8172, 8155, 8174, 8168, 8176, 8209, 8217, 8181, 8185, 8200, 8261,6.793125152587891
7, 8180, 8192, 8159, 8174, 8195, 8179, 8130, 8175, 8223, 8230, 8180, 8188, 8205, 8286,6.799967050552368
8, 8159, 8191, 8140, 8172, 8187, 8171, 8129, 8176, 8230, 8241, 8187, 8177, 8213, 8296,6.808039903640747
9, 8189, 8210, 8189, 8192, 8178, 8172, 8201, 8204, 8232, 8232, 8196, 8200, 8225, 8300,6.815932750701904
10, 8211, 8207, 8179, 8203, 8125, 8166, 8100, 8181, 8232, 8233, 8193, 8221, 8246, 8324,6.823759078979492
11, 8202, 8194, 8178, 8184, 8185, 8169, 8186, 8174, 8215, 8234, 8178, 8211, 8227, 8334,6.8320183753967285
12, 8179, 8185, 8199, 8165, 8197, 8168, 8252, 8186, 8184, 8206, 8169, 8183, 8184, 8306,6.839954853057861
13, 8137, 8165, 8124, 8158, 8094, 8150, 8081, 8157, 8168, 8180, 8169, 8163, 8190, 8280,6.84771990776062
14, 8163, 8161, 8160, 8156, 8154, 8152, 8193, 8162, 8151, 8185, 8166, 8186, 8195, 8276,6.855003595352173
15, 8179, 8163, 8192, 8161, 8181, 8157, 8200, 8171, 8162, 8216, 8163, 8194, 8179, 8288,6.8629443645477295
16, 8148, 8173, 8142, 8174, 8182, 8158, 8101, 8178, 8204, 8234, 8179, 8173, 8191, 8293,6.870840072631836
17, 8185, 8196, 8190, 8190, 8222, 8177, 8194, 8198, 8213, 8230, 8199, 8200, 8218, 8301,6.878950357437134
18, 8226, 8200, 8215, 8201, 8170, 8186, 8194, 8187, 8197, 8228, 8186, 8225, 8223, 8323,6.886806488037109
19, 8203, 8178, 8181, 8194, 8164, 8182, 8165, 8186, 8189, 8222, 8165, 8189, 8193, 8305,6.8949174880981445
20, 8151, 8161, 8138, 8178, 8162, 8174, 8108, 8178, 8189, 8212, 8163, 8157, 8180, 8261,6.902012348175049
21, 8149, 8173, 8152, 8175, 8183, 8171, 8147, 8163, 8172, 8213, 8166, 8183, 8199, 8268,6.910020112991333
22, 8194, 8183, 8201, 8179, 8223, 8179, 8209, 8171, 8174, 8231, 8169, 8217, 8212, 8318,6.917973756790161
23, 8188, 8178, 8162, 8182, 8195, 8184, 8136, 8174, 8210, 8246, 8170, 8195, 8202, 8324,6.925999879837036
24, 8168, 8176, 8171, 8176, 8218, 8177, 8216, 8187, 8207, 8213, 8171, 8175, 8174, 8274,6.934037446975708
25, 8172, 8167, 8184, 8169, 8152, 8162, 8175, 8174, 8185, 8201, 8170, 8199, 8182, 8277,6.941983938217163
26, 8164, 8157, 8142, 8154, 8114, 8157, 8120, 8161, 8183, 8212, 8162, 8196, 8189, 8298,6.94999885559082
27, 8149, 8161, 8170, 8133, 8195, 8162, 8244, 8190, 8175, 8170, 8155, 8161, 8140, 8242,6.957993030548096
28, 8118, 8159, 8159, 8138, 8129, 8156, 8143, 8181, 8176, 8157, 8164, 8161, 8133, 8209,6.965768575668335
29, 8140, 8159, 8158, 8156, 8142, 8156, 8121, 8175, 8184, 8207, 8174, 8206, 8183, 8262,6.973834037780762
30, 8187, 8164, 8184, 8160, 8237, 8159, 8183, 8172, 8184, 8234, 8173, 8215, 8198, 8305,6.981009483337402
31, 8174, 8167, 8164, 8157, 8240, 8154, 8168, 8152, 8173, 8209, 8163, 8178, 8172, 8276,6.988846778869629
32, 8167, 8178, 8180, 8171, 8200, 8154, 8189, 8155, 8159, 8188, 8162, 8180, 8169, 8253,6.996862411499023
33, 8186, 8189, 8177, 8188, 8165, 8154, 8146, 8155, 8166, 8209, 8181, 8217, 8209, 8302,7.004887819290161
34, 8205, 8197, 8190, 8195, 8219, 8157, 8204, 8170, 8178, 8220, 8191, 8219, 8210, 8330,7.012833833694458
35, 8176, 8187, 8171, 8191, 8160, 8161, 8141, 8168, 8179, 8205, 8170, 8175, 8171, 8281,7.02084755897522
36, 8150, 8173, 8136, 8174, 8115, 8162, 8106, 8174, 8182, 8191, 8152, 8157, 8163, 8251,7.028772830963135
37, 8210, 8189, 8216, 8167, 8222, 8168, 8282, 8217, 8190, 8205, 8169, 8211, 8192, 8297,7.035695552825928
38, 8203, 8192, 8185, 8171, 8158, 8170, 8148, 8187, 8208, 8234, 8174, 8222, 8208, 8328,7.043869733810425
39, 8140, 8172, 8125, 8169, 8130, 8177, 8105, 8159, 8209, 8217, 8152, 8165, 8164, 8268,7.051858901977539
40, 8150, 8159, 8188, 8162, 8187, 8162, 8239, 8183, 8185, 8186, 8159, 8159, 8136, 8234,7.0600011348724365
41, 8173, 8159, 8183, 8161, 8121, 8131, 8152, 8167, 8170, 8186, 8177, 8198, 8176, 8290,7.0679662227630615
42, 8162, 8172, 8153, 8158, 8142, 8144, 8139, 8157, 8172, 8188, 8172, 8192, 8184, 8303,7.075981378555298
43, 8138, 8183, 8162, 8161, 8239, 8171, 8193, 8180, 8189, 8204, 8165, 8164, 8160, 8253,7.084033012390137
44, 8167, 8197, 8203, 8180, 8254, 8180, 8219, 8208, 8189, 8221, 8172, 8188, 8175, 8262,7.091946840286255
45, 8193, 8188, 8174, 8186, 8109, 8171, 8077, 8192, 8187, 8212, 8175, 8218, 8204, 8324,7.1019980907440186
46, 8159, 8157, 8113, 8163, 8082, 8167, 8082, 8179, 8194, 8197, 8159, 8179, 8187, 8315,7.108031511306763
47, 8171, 8167, 8220, 8151, 8256, 8182, 8381, 8228, 8171, 8201, 8157, 8152, 8152, 8244,7.114906072616577
48, 8179, 8188, 8231, 8173, 8159, 8170, 8221, 8204, 8167, 8220, 8179, 8181, 8172, 8253,7.122980356216431
49, 8168, 8182, 8159, 8185, 8076, 8153, 8084, 8167, 8191, 8204, 8182, 8212, 8192, 8312,7.130988836288452
50, 8179, 8157, 8186, 8166, 8148, 8171, 8214, 8180, 8176, 8183, 8166, 8205, 8175, 8302,7.138803958892822
51, 8144, 8145, 8147, 8150, 8093, 8166, 8125, 8152, 8155, 8204, 8155, 8160, 8167, 8245,7.147970914840698
52, 8138, 8162, 8153, 8153, 8122, 8149, 8167, 8147, 8155, 8193, 8160, 8155, 8156, 8217,7.1550116539001465
53, 8152, 8159, 8168, 8161, 8148, 8157, 8166, 8151, 8168, 8184, 8164, 8183, 8158, 8250,7.162831783294678
54, 8129, 8148, 8137, 8160, 8171, 8166, 8151, 8158, 8177, 8205, 8161, 8177, 8165, 8273,7.170912265777588
55, 8122, 8157, 8158, 8159, 8186, 8167, 8199, 8183, 8180, 8203, 8167, 8161, 8162, 8243,7.178879499435425
56, 8132, 8164, 8152, 8162, 8110, 8165, 8126, 8178, 8191, 8203, 8177, 8158, 8176, 8234,7.186009168624878
57, 8149, 8156, 8171, 8161, 8123, 8167, 8176, 8181, 8185, 8213, 8177, 8167, 8179, 8264,7.19398307800293
58, 8126, 8143, 8152, 8159, 8111, 8166, 8149, 8167, 8177, 8210, 8168, 8164, 8168, 8271,7.202001333236694
59, 8082, 8151, 8099, 8156, 8089, 8165, 8097, 8145, 8175, 8199, 8157, 8139, 8157, 8232,7.209889650344849
60, 8097, 8152, 8119, 8148, 8112, 8160, 8147, 8143, 8162, 8188, 8154, 8137, 8147, 8207,7.219050168991089
61, 8131, 8144, 8135, 8152, 8103, 8153, 8134, 8141, 8166, 8192, 8170, 8168, 8167, 8251,7.225903272628784
62, 8150, 8162, 8172, 8162, 8135, 8167, 8192, 8159, 8184, 8204, 8181, 8200, 8183, 8295,7.235041618347168
63, 8150, 8174, 8188, 8166, 8111, 8169, 8167, 8159, 8189, 8212, 8179, 8192, 8178, 8276,7.241982936859131
64, 8148, 8165, 8151, 8173, 8094, 8154, 8102, 8136, 8176, 8199, 8174, 8175, 8177, 8242,7.248889923095703
65, 8180, 8168, 8178, 8173, 8178, 8158, 8178, 8140, 8154, 8178, 8170, 8194, 8176, 8270,7.257021188735962
66, 8185, 8173, 8189, 8163, 8163, 8165, 8150, 8135, 8139, 8174, 8164, 8205, 8178, 8317,7.264777898788452
67, 8156, 8168, 8158, 8162, 8110, 8162, 8128, 8132, 8136, 8174, 8164, 8182, 8174, 8288,7.27297043800354
68, 8139, 8160, 8155, 8168, 8140, 8152, 8180, 8147, 8145, 8170, 8161, 8165, 8167, 8241,7.28108549118042
69, 8155, 8157, 8177, 8164, 8201, 8151, 8190, 8169, 8162, 8182, 8158, 8182, 8178, 8272,7.288781642913818
70, 8182, 8154, 8191, 8161, 8190, 8168, 8175, 8184, 8181, 8182, 8164, 8200, 8183, 8321,7.297033309936523
71, 8142, 8139, 8132, 8158, 8094, 8162, 8112, 8164, 8189, 8154, 8156, 8172, 8159, 8281,7.304952621459961
72, 8112, 8141, 8149, 8149, 8137, 8142, 8222, 8170, 8168, 8145, 8142, 8148, 8132, 8202,7.311949729919434
73, 8153, 8158, 8204, 8165, 8148, 8148, 8212, 8176, 8162, 8179, 8149, 8178, 8158, 8225,7.320005655288696
74, 8180, 8161, 8160, 8183, 8077, 8169, 8082, 8149, 8177, 8206, 8159, 8206, 8193, 8302,7.328029155731201
75, 8201, 8176, 8192, 8191, 8150, 8174, 8203, 8158, 8166, 8187, 8162, 8211, 8191, 8315,7.335988521575928
76, 8219, 8200, 8209, 8213, 8146, 8157, 8154, 8152, 8171, 8195, 8169, 8219, 8222, 8320,7.343963861465454
77, 8224, 8199, 8180, 8214, 8133, 8135, 8115, 8143, 8178, 8210, 8169, 8231, 8251, 8338,7.3519957065582275
78, 8222, 8176, 8211, 8176, 8184, 8130, 8223, 8149, 8139, 8183, 8157, 8224, 8218, 8318,7.360060930252075
79, 8181, 8159, 8194, 8154, 8170, 8139, 8170, 8137, 8134, 8177, 8151, 8194, 8186, 8300,7.369008302688599
80, 8163, 8161, 8166, 8162, 8168, 8150, 8130, 8146, 8176, 8195, 8157, 8188, 8195, 8301,7.374978542327881
81, 8172, 8171, 8156, 8162, 8165, 8146, 8117, 8153, 8187, 8205, 8158, 8194, 8210, 8291,7.384034156799316
82, 8171, 8183, 8179, 8163, 8229, 8155, 8188, 8173, 8181, 8202, 8156, 8185, 8201, 8279,7.390801906585693
83, 8157, 8169, 8177, 8165, 8234, 8161, 8167, 8186, 8196, 8214, 8159, 8181, 8200, 8290,7.398993253707886
84, 8150, 8154, 8130, 8155, 8184, 8142, 8086, 8170, 8205, 8217, 8159, 8183, 8217, 8307,7.4070045948028564
85, 8197, 8187, 8196, 8164, 8264, 8142, 8232, 8185, 8189, 8201, 8161, 8193, 8216, 8306,7.415021657943726
86, 8203, 8199, 8206, 8190, 8219, 8143, 8169, 8173, 8183, 8212, 8160, 8197, 8218, 8300,7.4229960441589355
87, 8174, 8179, 8155, 8194, 8150, 8135, 8100, 8155, 8177, 8223, 8153, 8197, 8232, 8302,7.430885076522827
88, 8199, 8190, 8199, 8186, 8175, 8140, 8207, 8169, 8160, 8207, 8155, 8209, 8231, 8316,7.438887119293213
89, 8187, 8194, 8175, 8183, 8126, 8143, 8127, 8149, 8170, 8201, 8159, 8199, 8229, 8318,7.445984840393066
90, 8153, 8166, 8153, 8172, 8175, 8154, 8182, 8149, 8178, 8195, 8146, 8177, 8210, 8275,7.454007625579834
91, 8139, 8155, 8180, 8158, 8211, 8160, 8240, 8163, 8170, 8187, 8138, 8166, 8180, 8230,7.461994886398315
92, 8117, 8158, 8154, 8158, 8147, 8149, 8147, 8154, 8171, 8185, 8142, 8152, 8170, 8224,7.469945907592773
93, 8110, 8148, 8135, 8152, 8113, 8137, 8118, 8149, 8172, 8182, 8146, 8151, 8174, 8240,7.477982997894287
94, 8131, 8153, 8143, 8154, 8120, 8131, 8129, 8148, 8173, 8185, 8152, 8163, 8186, 8258,7.486019849777222
95, 8181, 8194, 8203, 8181, 8219, 8142, 8214, 8171, 8188, 8202, 8164, 8190, 8198, 8284,7.494009733200073
96, 8186, 8203, 8194, 8199, 8234, 8142, 8128, 8161, 8210, 8228, 8166, 8203, 8212, 8307,7.502016305923462
97, 8165, 8186, 8157, 8188, 8230, 8129, 8130, 8147, 8193, 8224, 8155, 8183, 8210, 8293,7.50901985168457
98, 8193, 8194, 8215, 8187, 8281, 8142, 8274, 8169, 8168, 8200, 8157, 8189, 8205, 8278,7.516780376434326
99, 8171, 8199, 8172, 8193, 8231, 8158, 8124, 8143, 8180, 8201, 8164, 8203, 8223, 8300,7.524909734725952
100, 8144, 8191, 8138, 8171, 8231, 8154, 8123, 8136, 8163, 8183, 8161, 8193, 8209, 8301,7.533017635345459
101, 8172, 8185, 8177, 8171, 8205, 8143, 8195, 8155, 8138, 8170, 8156, 8185, 8187, 8284,7.5408384799957275
102, 8173, 8191, 8152, 8202, 8157, 8144, 8129, 8152, 8171, 8188, 8160, 8182, 8202, 8293,7.548899412155151
103, 8164, 8203, 8166, 8189, 8205, 8154, 8193, 8170, 8195, 8189, 8165, 8170, 8202, 8287,7.5569939613342285
104, 8158, 8192, 8169, 8158, 8158, 8160, 8169, 8175, 8191, 8190, 8160, 8157, 8192, 8266,7.564772129058838
105, 8162, 8179, 8163, 8165, 8156, 8176, 8173, 8185, 8199, 8200, 8150, 8161, 8189, 8272,7.571991205215454
106, 8161, 8171, 8174, 8163, 8202, 8178, 8203, 8193, 8215, 8189, 8149, 8168, 8185, 8281,7.580008029937744
107, 8146, 8163, 8160, 8143, 8177, 8162, 8170, 8179, 8214, 8182, 8156, 8166, 8180, 8271,7.587941646575928
108, 8154, 8169, 8180, 8150, 8166, 8171, 8180, 8174, 8195, 8194, 8162, 8171, 8167, 8257,7.595942735671997
109, 8156, 8178, 8164, 8173, 8139, 8172, 8103, 8148, 8191, 8177, 8160, 8167, 8173, 8267,7.603992223739624
110, 8177, 8201, 8185, 8201, 8188, 8170, 8176, 8156, 8207, 8157, 8160, 8180, 8197, 8283,7.612036228179932
111, 8197, 8212, 8215, 8221, 8197, 8184, 8193, 8179, 8226, 8215, 8174, 8209, 8224, 8296,7.619905233383179
112, 8160, 8201, 8150, 8203, 8158, 8180, 8075, 8159, 8226, 8249, 8176, 8203, 8235, 8314,7.627862453460693
113, 8176, 8211, 8187, 8182, 8265, 8163, 8232, 8173, 8192, 8188, 8166, 8194, 8218, 8317,7.63599967956543
114, 8204, 8216, 8216, 8198, 8254, 8156, 8221, 8176, 8188, 8182, 8174, 8200, 8224, 8324,7.642779588699341
115, 8175, 8196, 8161, 8202, 8193, 8156, 8104, 8150, 8206, 8228, 8183, 8200, 8244, 8327,7.650982856750488
116, 8161, 8184, 8163, 8187, 8219, 8155, 8158, 8160, 8198, 8211, 8171, 8187, 8237, 8315,7.659044981002808
117, 8164, 8187, 8163, 8190, 8215, 8156, 8165, 8182, 8211, 8199, 8161, 8166, 8225, 8307,7.667017936706543
118, 8178, 8194, 8175, 8195, 8213, 8162, 8182, 8188, 8224, 8215, 8166, 8168, 8221, 8302,7.6750266551971436
119, 8182, 8194, 8162, 8187, 8150, 8159, 8120, 8170, 8204, 8210, 8162, 8176, 8216, 8299,7.682929992675781
120, 8198, 8199, 8163, 8183, 8161, 8166, 8150, 8192, 8198, 8203, 8160, 8179, 8212, 8311,7.690892219543457
121, 8221, 8202, 8189, 8183, 8202, 8164, 8187, 8205, 8214, 8206, 8167, 8183, 8221, 8323,7.699034214019775
122, 8194, 8202, 8149, 8184, 8185, 8139, 8103, 8163, 8213, 8213, 8160, 8172, 8226, 8311,7.706025838851929
123, 8209, 8214, 8193, 8190, 8288, 8151, 8210, 8179, 8199, 8215, 8161, 8184, 8211, 8308,7.713964462280273
124, 8231, 8204, 8205, 8188, 8273, 8169, 8154, 8175, 8210, 8226, 8171, 8203, 8223, 8339,7.721968412399292
125, 8195, 8179, 8142, 8179, 8227, 8155, 8101, 8137, 8213, 8214, 8161, 8180, 8225, 8329,7.731029033660889
126, 8192, 8188, 8202, 8182, 8329, 8148, 8264, 8154, 8192, 8196, 8154, 8168, 8188, 8279,7.738025903701782
127, 8187, 8204, 8209, 8196, 8302, 8142, 8171, 8142, 8195, 8213, 8161, 8179, 8189, 8278,7.745885372161865
238, 8162, 8204, 8146, 8206, 8223, 8138, 8099, 8121, 8196, 8194, 8162, 8172, 8203, 8293,7.753861427307129
0, 8159, 8195, 8146, 8205, 8190, 8147, 8153, 8130, 8175, 8166, 8156, 8164, 8187, 8278,7.762118577957153
1, 8168, 8193, 8174, 8202, 8184, 8153, 8176, 8145, 8171, 8185, 8159, 8174, 8183, 8280,7.769970178604126
2, 8166, 8199, 8178, 8209, 8161, 8153, 8147, 8153, 8187, 8194, 8173, 8182, 8204, 8301,7.776993036270142
3, 8153, 8204, 8135, 8226, 8125, 8151, 8087, 8146, 8199, 8196, 8182, 8183, 8227, 8313,7.785080194473267
4, 8179, 8205, 8177, 8222, 8206, 8147, 8212, 8162, 8190, 8209, 8178, 8198, 8222, 8309,7.792811393737793
5, 8188, 8202, 8196, 8201, 8188, 8133, 8170, 8150, 8189, 8216, 8178, 8203, 8224, 8311,7.800882816314697
6, 8167, 8208, 8156, 8205, 8160, 8137, 8116, 8138, 8201, 8211, 8177, 8188, 8237, 8315,7.809001445770264
7, 8183, 8209, 8202, 8216, 8239, 8155, 8247, 8169, 8199, 8212, 8172, 8186, 8226, 8307,7.816804647445679
8, 8166, 8197, 8167, 8209, 8167, 8147, 8111, 8147, 8197, 8212, 8172, 8176, 8224, 8300,7.825032949447632
9, 8151, 8202, 8148, 8194, 8179, 8139, 8125, 8141, 8181, 8191, 8172, 8166, 8217, 8286,7.8331005573272705
10, 8171, 8204, 8210, 8192, 8276, 8140, 8265, 8165, 8164, 8179, 8167, 8173, 8193, 8281,7.8399786949157715
11, 8144, 8190, 8167, 8188, 8246, 8139, 8149, 8138, 8175, 8189, 8163, 8164, 8190, 8278,7.848098516464233
12, 8125, 8185, 8132, 8181, 8239, 8146, 8123, 8120, 8167, 8190, 8164, 8159, 8194, 8262,7.85598349571228
13, 8131, 8175, 8148, 8188, 8217, 8148, 8165, 8128, 8144, 8188, 8159, 8165, 8188, 8266,7.864018440246582
14, 8137, 8170, 8177, 8192, 8192, 8148, 8202, 8148, 8145, 8179, 8162, 8173, 8181, 8275,7.872006416320801
15, 8138, 8177, 8159, 8185, 8132, 8147, 8140, 8149, 8173, 8193, 8175, 8179, 8194, 8265,7.880028247833252
16, 8136, 8184, 8126, 8182, 8125, 8146, 8120, 8156, 8191, 8217, 8173, 8176, 8214, 8271,7.88800573348999
17, 8159, 8181, 8182, 8188, 8217, 8157, 8231, 8198, 8188, 8200, 8164, 8172, 8209, 8286,7.8959431648254395
18, 8151, 8165, 8163, 8188, 8188, 8169, 8124, 8204, 8212, 8205, 8174, 8164, 8215, 8291,7.902907609939575
19, 8154, 8180, 8166, 8183, 8229, 8168, 8184, 8220, 8233, 8226, 8183, 8170, 8222, 8289,7.911004543304443
20, 8189, 8208, 8226, 8190, 8251, 8156, 8265, 8225, 8225, 8226, 8183, 8192, 8217, 8303,7.918756008148193
21, 8167, 8195, 8153, 8200, 8145, 8163, 8077, 8185, 8229, 8233, 8182, 8180, 8231, 8319,7.926999092102051
22, 8156, 8182, 8150, 8182, 8209, 8198, 8170, 8204, 8228, 8234, 8175, 8156, 8224, 8304,7.934990644454956
23, 8166, 8189, 8195, 8166, 8251, 8202, 8235, 8213, 8221, 8232, 8164, 8155, 8205, 8295,7.94287896156311
24, 8154, 8188, 8158, 8178, 8217, 8179, 8144, 8179, 8222, 8233, 8164, 8155, 8205, 8304,7.950985431671143
25, 8143, 8176, 8143, 8178, 8223, 8173, 8136, 8167, 8212, 8223, 8166, 8148, 8207, 8296,7.9590044021606445
26, 8127, 8166, 8141, 8153, 8214, 8176, 8140, 8166, 8201, 8207, 8155, 8139, 8192, 8272,7.965985298156738
27, 8135, 8168, 8160, 8147, 8211, 8181, 8199, 8177, 8203, 8207, 8153, 8149, 8175, 8256,7.973981142044067
28, 8141, 8174, 8142, 8163, 8144, 8173, 8137, 8163, 8201, 8205, 8159, 8157, 8184, 8265,7.981903076171875
29, 8142, 8176, 8148, 8158, 8169, 8167, 8190, 8171, 8192, 8180, 8157, 8150, 8176, 8262,7.989842891693115
30, 8150, 8152, 8190, 8130, 8206, 8175, 8252, 8197, 8205, 8189, 8161, 8157, 8167, 8256,7.997972011566162
31, 8131, 8134, 8134, 8130, 8122, 8179, 8101, 8179, 8224, 8226, 8170, 8164, 8192, 8277,8.005995750427246
32, 8159, 8168, 8167, 8150, 8185, 8185, 8201, 8196, 8204, 8217, 8173, 8167, 8196, 8284,8.013871431350708
33, 8178, 8178, 8204, 8144, 8211, 8178, 8205, 8195, 8185, 8195, 8164, 8160, 8181, 8268,8.021811246871948
34, 8147, 8152, 8140, 8136, 8150, 8159, 8089, 8160, 8194, 8206, 8158, 8152, 8192, 8271,8.029834747314453
35, 8175, 8162, 8184, 8154, 8189, 8169, 8216, 8178, 8192, 8217, 8171, 8174, 8205, 8290,8.036839246749878
36, 8197, 8184, 8219, 8165, 8156, 8183, 8206, 8176, 8188, 8216, 8177, 8186, 8214, 8303,8.044798135757446
37, 8180, 8188, 8181, 8175, 8114, 8193, 8131, 8153, 8196, 8217, 8172, 8181, 8223, 8298,8.052800178527832
38, 8176, 8198, 8153, 8193, 8136, 8194, 8115, 8134, 8203, 8228, 8183, 8186, 8233, 8302,8.060861110687256
39, 8191, 8217, 8169, 8207, 8205, 8177, 8160, 8134, 8186, 8237, 8190, 8192, 8234, 8313,8.069859266281128
40, 8210, 8225, 8201, 8225, 8235, 8177, 8183, 8133, 8155, 8221, 8177, 8196, 8225, 8312,8.076791763305664
41, 8195, 8216, 8157, 8229, 8191, 8184, 8105, 8106, 8162, 8199, 8171, 8187, 8228, 8316,8.084800720214844
42, 8186, 8213, 8183, 8203, 8267, 8179, 8245, 8136, 8164, 8183, 8170, 8174, 8207, 8308,8.092954397201538
43, 8176, 8202, 8198, 8184, 8227, 8173, 8215, 8156, 8150, 8184, 8158, 8159, 8176, 8278,8.099770784378052
44, 8145, 8177, 8125, 8174, 8154, 8188, 8086, 8149, 8171, 8190, 8154, 8148, 8174, 8263,8.107839584350586
45, 8162, 8180, 8176, 8156, 8271, 8209, 8242, 8189, 8192, 8183, 8168, 8160, 8168, 8269,8.11592435836792
46, 8163, 8192, 8184, 8161, 8256, 8191, 8173, 8187, 8196, 8191, 8172, 8163, 8171, 8285,8.123916149139404
47, 8148, 8188, 8141, 8175, 8217, 8177, 8113, 8166, 8192, 8186, 8153, 8156, 8177, 8286,8.131835222244263
48, 8164, 8179, 8169, 8162, 8225, 8179, 8198, 8170, 8181, 8157, 8152, 8163, 8168, 8282,8.139861822128296
49, 8161, 8178, 8159, 8151, 8175, 8170, 8153, 8162, 8177, 8161, 8170, 8165, 8175, 8291,8.147896766662598
50, 8173, 8187, 8167, 8163, 8182, 8168, 8156, 8164, 8169, 8179, 8182, 8170, 8191, 8304,8.155964374542236
51, 8186, 8182, 8174, 8170, 8155, 8167, 8141, 8153, 8164, 8181, 8179, 8169, 8196, 8313,8.164060831069946
52, 8198, 8181, 8199, 8168, 8161, 8167, 8221, 8157, 8153, 8172, 8180, 8171, 8189, 8315,8.170743465423584
53, 8209, 8191, 8220, 8182, 8157, 8165, 8215, 8160, 8143, 8174, 8191, 8185, 8189, 8318,8.179008483886719
54, 8191, 8198, 8184, 8198, 8136, 8159, 8137, 8149, 8142, 8175, 8180, 8186, 8189, 8313,8.186685800552368
55, 8203, 8201, 8229, 8184, 8202, 8163, 8269, 8174, 8137, 8162, 8170, 8186, 8172, 8293,8.194794178009033
56, 8188, 8177, 8199, 8167, 8131, 8157, 8155, 8162, 8151, 8163, 8175, 8174, 8172, 8287,8.202934980392456
57, 8155, 8158, 8140, 8159, 8110, 8157, 8108, 8158, 8159, 8158, 8166, 8154, 8166, 8281,8.210853815078735
58, 8163, 8165, 8180, 8153, 8169, 8173, 8222, 8192, 8164, 8157, 8166, 8161, 8160, 8270,8.218876361846924
59, 8152, 8172, 8156, 8157, 8141, 8178, 8128, 8180, 8197, 8199, 8174, 8167, 8186, 8285,8.226903200149536
60, 8154, 8178, 8165, 8164, 8192, 8187, 8173, 8186, 8209, 8198, 8173, 8163, 8188, 8292,8.233942747116089
61, 8156, 8170, 8179, 8164, 8176, 8199, 8188, 8183, 8195, 8164, 8172, 8163, 8183, 8284,8.241920709609985
62, 8139, 8156, 8144, 8158, 8123, 8200, 8120, 8156, 8188, 8174, 8179, 8166, 8194, 8291,8.249998807907104
63, 8142, 8165, 8133, 8160, 8133, 8195, 8097, 8145, 8181, 8188, 8179, 8169, 8200, 8303,8.257850646972656
64, 8156, 8179, 8127, 8169, 8149, 8203, 8098, 8145, 8182, 8181, 8184, 8177, 8203, 8313,8.265860795974731
65, 8186, 8174, 8170, 8167, 8187, 8222, 8204, 8167, 8182, 8174, 8191, 8196, 8194, 8316,8.27390456199646
66, 8182, 8154, 8158, 8152, 8132, 8202, 8138, 8147, 8163, 8169, 8176, 8190, 8182, 8313,8.28184461593628
67, 8183, 8158, 8161, 8156, 8200, 8177, 8182, 8136, 8141, 8158, 8174, 8177, 8176, 8305,8.2898690700531
68, 8224, 8180, 8248, 8176, 8327, 8198, 8321, 8170, 8145, 8161, 8199, 8199, 8186, 8306,8.296903848648071
69, 8198, 8173, 8198, 8176, 8223, 8199, 8139, 8164, 8175, 8179, 8196, 8199, 8202, 8317,8.304818868637085
70, 8166, 8172, 8137, 8182, 8175, 8170, 8093, 8168, 8181, 8165, 8175, 8181, 8190, 8311,8.312882661819458
71, 8190, 8179, 8163, 8189, 8189, 8182, 8165, 8185, 8181, 8166, 8178, 8182, 8179, 8304,8.320838689804077
72, 8187, 8168, 8142, 8168, 8145, 8220, 8112, 8189, 8208, 8202, 8182, 8179, 8194, 8304,8.328951358795166
73, 8164, 8150, 8141, 8152, 8167, 8228, 8151, 8198, 8216, 8194, 8172, 8168, 8188, 8289,8.338406562805176
74, 8163, 8143, 8157, 8161, 8179, 8216, 8182, 8186, 8193, 8159, 8168, 8168, 8169, 8285,8.345006704330444
75, 8183, 8159, 8163, 8163, 8178, 8216, 8176, 8177, 8185, 8158, 8167, 8180, 8161, 8297,8.35282588005066
76, 8175, 8162, 8144, 8153, 8170, 8207, 8117, 8168, 8198, 8159, 8169, 8171, 8155, 8293,8.360965490341187
77, 8168, 8160, 8156, 8168, 8181, 8197, 8165, 8157, 8184, 8130, 8177, 8163, 8154, 8269,8.368689775466919
78, 8188, 8164, 8200, 8184, 8183, 8197, 8232, 8149, 8153, 8130, 8177, 8176, 8159, 8262,8.375922203063965
79, 8163, 8154, 8142, 8168, 8167, 8183, 8098, 8117, 8157, 8146, 8173, 8171, 8163, 8279,8.383841514587402
80, 8168, 8162, 8161, 8162, 8273, 8185, 8201, 8134, 8162, 8121, 8186, 8165, 8154, 8275,8.391787052154541
81, 8209, 8183, 8232, 8185, 8239, 8201, 8258, 8169, 8176, 8132, 8202, 8185, 8174, 8272,8.399778604507446
82, 8186, 8181, 8161, 8199, 8098, 8198, 8084, 8158, 8208, 8177, 8197, 8196, 8210, 8296,8.407841205596924
83, 8175, 8169, 8150, 8174, 8201, 8191, 8168, 8167, 8197, 8159, 8186, 8194, 8194, 8307,8.415814399719238
84, 8196, 8173, 8181, 8164, 8269, 8184, 8189, 8171, 8186, 8156, 8182, 8194, 8179, 8307,8.423964500427246
85, 8190, 8180, 8161, 8178, 8226, 8176, 8136, 8171, 8198, 8188, 8180, 8191, 8188, 8296,8.431912660598755
86, 8180, 8167, 8161, 8175, 8202, 8180, 8162, 8170, 8186, 8179, 8183, 8191, 8184, 8284,8.438891649246216
87, 8187, 8167, 8173, 8162, 8201, 8186, 8171, 8159, 8168, 8160, 8181, 8187, 8173, 8292,8.44682240486145
88, 8206, 8181, 8208, 8159, 8251, 8189, 8238, 8165, 8163, 8147, 8171, 8176, 8161, 8278,8.454930543899536
89, 8169, 8160, 8167, 8164, 8195, 8182, 8162, 8147, 8174, 8153, 8174, 8165, 8169, 8249,8.46285367012024
90, 8143, 8148, 8174, 8157, 8205, 8171, 8224, 8156, 8176, 8157, 8187, 8177, 8170, 8237,8.470837116241455
91, 8163, 8161, 8227, 8151, 8201, 8154, 8237, 8164, 8166, 8130, 8184, 8186, 8157, 8241,8.478800058364868
92, 8153, 8167, 8163, 8173, 8114, 8148, 8071, 8136, 8174, 8132, 8175, 8165, 8165, 8251,8.487871170043945
93, 8180, 8182, 8194, 8203, 8194, 8177, 8196, 8166, 8181, 8156, 8189, 8173, 8165, 8258,8.494038581848145
94, 8186, 8185, 8205, 8197, 8181, 8176, 8167, 8165, 8173, 8162, 8193, 8187, 8162, 8262,8.50191855430603
95, 8150, 8168, 8142, 8161, 8160, 8154, 8109, 8145, 8168, 8151, 8183, 8182, 8172, 8270,8.509820699691772
96, 8178, 8165, 8183, 8156, 8246, 8170, 8238, 8174, 8180, 8153, 8194, 8197, 8184, 8289,8.517985105514526
97, 8179, 8160, 8158, 8166, 8195, 8176, 8126, 8167, 8195, 8159, 8189, 8192, 8197, 8296,8.52583646774292
98, 8144, 8154, 8091, 8156, 8152, 8168, 8047, 8157, 8189, 8162, 8167, 8167, 8189, 8272,8.533976554870605
99, 8145, 8164, 8110, 8153, 8172, 8177, 8142, 8167, 8182, 8164, 8175, 8161, 8165, 8255,8.542021989822388
100, 8146, 8163, 8165, 8163, 8197, 8186, 8238, 8160, 8160, 8132, 8181, 8159, 8146, 8239,8.549726963043213
101, 8098, 8137, 8126, 8156, 8143, 8169, 8122, 8120, 8124, 8108, 8163, 8145, 8141, 8210,8.557018995285034
102, 8057, 8126, 8062, 8132, 8132, 8156, 8072, 8093, 8113, 8107, 8161, 8134, 8129, 8187,8.56605315208435
103, 8125, 8156, 8205, 8138, 8275, 8189, 8360, 8149, 8114, 8093, 8179, 8144, 8099, 8171,8.572794198989868
104, 8172, 8182, 8242, 8179, 8204, 8189, 8215, 8146, 8131, 8102, 8184, 8159, 8114, 8200,8.581090688705444
105, 8166, 8184, 8147, 8194, 8185, 8160, 8029, 8115, 8158, 8109, 8185, 8177, 8154, 8259,8.588986158370972
106, 8213, 8183, 8222, 8169, 8370, 8178, 8275, 8175, 8176, 8103, 8192, 8204, 8170, 8283,8.596801280975342
107, 8207, 8174, 8205, 8164, 8266, 8189, 8164, 8186, 8200, 8154, 8193, 8198, 8194, 8288,8.605022192001343
108, 8152, 8173, 8106, 8169, 8156, 8180, 8031, 8169, 8203, 8190, 8193, 8175, 8202, 8285,8.613019466400146
109, 8155, 8165, 8159, 8145, 8263, 8198, 8223, 8203, 8190, 8173, 8191, 8183, 8175, 8282,8.621111392974854
110, 8159, 8149, 8189, 8124, 8259, 8210, 8227, 8207, 8191, 8171, 8187, 8194, 8173, 8299,8.627910375595093
111, 8138, 8146, 8133, 8141, 8175, 8190, 8089, 8179, 8185, 8177, 8197, 8187, 8207, 8311,8.635877847671509
112, 8134, 8152, 8124, 8162, 8207, 8183, 8135, 8177, 8181, 8184, 8198, 8175, 8212, 8287,8.6440110206604
113, 8149, 8164, 8179, 8157, 8266, 8188, 8251, 8193, 8183, 8187, 8178, 8162, 8177, 8251,8.651909828186035
114, 8132, 8167, 8133, 8153, 8175, 8164, 8088, 8157, 8185, 8178, 8172, 8139, 8169, 8246,8.660022258758545
115, 8128, 8175, 8116, 8177, 8216, 8163, 8125, 8148, 8177, 8172, 8181, 8127, 8170, 8232,8.668016195297241
116, 8160, 8183, 8228, 8175, 8353, 8197, 8359, 8189, 8154, 8156, 8174, 8129, 8127, 8183,8.675810098648071
117, 8126, 8156, 8175, 8140, 8258, 8192, 8135, 8163, 8157, 8127, 8160, 8101, 8106, 8159,8.684002876281738
118, 8111, 8148, 8098, 8140, 8266, 8179, 8042, 8150, 8170, 8111, 8160, 8085, 8114, 8173,8.691002130508423
119, 8167, 8170, 8168, 8171, 8358, 8198, 8204, 8164, 8151, 8112, 8165, 8112, 8113, 8194,8.698771953582764
120, 8168, 8172, 8160, 8167, 8270, 8194, 8128, 8135, 8129, 8108, 8174, 8137, 8125, 8226,8.7070791721344
121, 8157, 8155, 8157, 8129, 8254, 8171, 8172, 8141, 8115, 8082, 8183, 8153, 8128, 8247,8.715021133422852
122, 8160, 8133, 8185, 8112, 8273, 8164, 8233, 8159, 8109, 8072, 8182, 8167, 8133, 8252,8.72274136543274
123, 8146, 8123, 8163, 8122, 8239, 8167, 8155, 8156, 8126, 8099, 8183, 8177, 8164, 8273,8.731006145477295
124, 8139, 8128, 8142, 8131, 8200, 8168, 8100, 8171, 8157, 8127, 8201, 8187, 8187, 8300,8.738989353179932
125, 8147, 8130, 8156, 8125, 8195, 8179, 8155, 8202, 8178, 8136, 8213, 8179, 8187, 8290,8.747026443481445
126, 8156, 8137, 8185, 8123, 8225, 8194, 8223, 8224, 8188, 8146, 8204, 8170, 8181, 8266,8.754013776779175
127, 8130, 8136, 8130, 8128, 8198, 8186, 8101, 8199, 8206, 8166, 8189, 8156, 8183, 8270,8.762016534805298
238, 8135, 8133, 8146, 8120, 8280, 8182, 8199, 8209, 8207, 8167, 8187, 8147, 8170, 8264,8.770005941390991
0, 8163, 8144, 8208, 8120, 8266, 8178, 8235, 8212, 8184, 8173, 8200, 8151, 8170, 8245,8.777833461761475
1, 8137, 8154, 8143, 8150, 8157, 8158, 8053, 8155, 8167, 8167, 8190, 8135, 8173, 8228,8.78608775138855
2, 8161, 8166, 8207, 8170, 8349, 8165, 8269, 8160, 8128, 8111, 8169, 8120, 8133, 8203,8.793991088867188
3, 8175, 8167, 8238, 8162, 8371, 8162, 8247, 8144, 8088, 8089, 8172, 8126, 8124, 8205,8.801860094070435
4, 8127, 8158, 8114, 8159, 8205, 8150, 7990, 8093, 8088, 8108, 8184, 8133, 8150, 8227,8.810006856918335
5, 8152, 8161, 8143, 8165, 8289, 8164, 8121, 8121, 8107, 8099, 8188, 8142, 8138, 8238,8.817991256713867
6, 8181, 8160, 8189, 8158, 8341, 8168, 8204, 8162, 8131, 8093, 8170, 8138, 8122, 8245,8.825851678848267
7, 8152, 8152, 8157, 8153, 8269, 8167, 8158, 8180, 8144, 8105, 8160, 8129, 8125, 8233,8.833026647567749
8, 8145, 8150, 8158, 8153, 8246, 8179, 8150, 8189, 8157, 8121, 8181, 8136, 8129, 8217,8.841028451919556
9, 8166, 8156, 8183, 8150, 8279, 8182, 8187, 8202, 8168, 8132, 8184, 8137, 8129, 8226,8.848796844482422
10, 8157, 8149, 8161, 8148, 8264, 8182, 8159, 8203, 8153, 8123, 8167, 8125, 8126, 8230,8.858019828796387
11, 8126, 8146, 8115, 8154, 8255, 8186, 8112, 8185, 8144, 8122, 8167, 8115, 8117, 8229,8.865024089813232
12, 8140, 8156, 8164, 8157, 8323, 8174, 8229, 8184, 8129, 8111, 8169, 8124, 8090, 8219,8.873051166534424
13, 8148, 8142, 8177, 8155, 8264, 8150, 8160, 8149, 8105, 8077, 8168, 8128, 8089, 8213,8.881007194519043
14, 8144, 8145, 8141, 8165, 8231, 8156, 8097, 8118, 8110, 8074, 8183, 8123, 8121, 8236,8.889016151428223
15, 8193, 8178, 8208, 8173, 8306, 8178, 8268, 8143, 8122, 8092, 8184, 8139, 8118, 8259,8.896026372909546
16, 8181, 8162, 8187, 8154, 8225, 8170, 8156, 8128, 8118, 8085, 8170, 8135, 8100, 8247,8.903887271881104
17, 8133, 8137, 8134, 8130, 8259, 8156, 8097, 8131, 8117, 8062, 8186, 8121, 8099, 8224,8.912023544311523
18, 8165, 8159, 8194, 8146, 8386, 8164, 8221, 8177, 8135, 8079, 8204, 8155, 8122, 8252,8.919994115829468
19, 8193, 8168, 8207, 8170, 8317, 8163, 8187, 8175, 8127, 8107, 8195, 8182, 8139, 8282,8.928929328918457
20, 8166, 8143, 8165, 8154, 8224, 8141, 8119, 8148, 8097, 8091, 8187, 8159, 8119, 8256,8.93602466583252
21, 8138, 8138, 8126, 8144, 8244, 8129, 8089, 8137, 8109, 8093, 8191, 8143, 8122, 8239,8.944016456604004
22, 8159, 8164, 8165, 8160, 8349, 8157, 8202, 8163, 8121, 8122, 8197, 8162, 8139, 8244,8.951791286468506
23, 8156, 8169, 8177, 8167, 8309, 8173, 8166, 8154, 8113, 8125, 8196, 8164, 8135, 8241,8.960016250610352
