COUNTER,F3, FC5,AF3,F7,T7,P7,O1,O2,P8,T8,F8,AF4,FC6,F4,Timestamp
52, 8212, 8231, 8209, 8290, 8151, 8186, 8132, 8148, 8173, 8189, 8192, 8245, 8247, 8304,0.008613348007202148
53, 8230, 8225, 8222, 8266, 8208, 8193, 8204, 8143, 8159, 8169, 8177, 8230, 8238, 8285,0.01653909683227539
54, 8216, 8207, 8185, 8228, 8173, 8193, 8141, 8120, 8161, 8151, 8170, 8212, 8234, 8278,0.024620532989501953
55, 8214, 8214, 8182, 8221, 8176, 8191, 8175, 8135, 8164, 8173, 8184, 8225, 8254, 8304,0.03259611129760742
56, 8217, 8209, 8180, 8207, 8165, 8185, 8168, 8142, 8163, 8201, 8177, 8220, 8268, 8316,0.03962564468383789
57, 8187, 8172, 8137, 8164, 8146, 8181, 8120, 8122, 8162, 8198, 8155, 8176, 8248, 8297,0.047688961029052734
58, 8193, 8157, 8168, 8145, 8183, 8181, 8196, 8126, 8149, 8182, 8164, 8162, 8229, 8280,0.055735111236572266
59, 8198, 8150, 8155, 8144, 8137, 8172, 8140, 8127, 8157, 8194, 8174, 8179, 8244, 8292,0.06368470191955566
60, 8192, 8140, 8147, 8129, 8157, 8185, 8179, 8154, 8178, 8206, 8169, 8194, 8252, 8299,0.07176518440246582
61, 8169, 8123, 8158, 8102, 8177, 8209, 8199, 8165, 8183, 8191, 8164, 8188, 8229, 8281,0.07962346076965332
62, 8129, 8101, 8144, 8073, 8173, 8202, 8197, 8161, 8180, 8162, 8146, 8152, 8184, 8242,0.08772420883178711
63, 8141, 8101, 8199, 8075, 8225, 8194, 8298, 8202, 8191, 8151, 8135, 8141, 8149, 8219,0.09568047523498535
64, 8144, 8109, 8173, 8097, 8170, 8193, 8149, 8200, 8223, 8192, 8146, 8156, 8172, 8248,0.1025838851928711
65, 8122, 8118, 8129, 8093, 8163, 8170, 8090, 8171, 8221, 8211, 8160, 8159, 8202, 8275,0.11060047149658203
66, 8118, 8131, 8115, 8100, 8145, 8130, 8084, 8154, 8201, 8197, 8161, 8156, 8209, 8282,0.11869192123413086
67, 8160, 8154, 8121, 8137, 8154, 8135, 8117, 8152, 8208, 8198, 8156, 8172, 8224, 8312,0.12662434577941895
68, 8245, 8177, 8254, 8144, 8273, 8177, 8329, 8174, 8194, 8187, 8166, 8205, 8224, 8343,0.13461017608642578
69, 8228, 8163, 8226, 8134, 8172, 8175, 8157, 8159, 8184, 8190, 8179, 8203, 8230, 8345,0.14265966415405273
70, 8172, 8149, 8107, 8150, 8109, 8173, 8031, 8165, 8210, 8205, 8175, 8182, 8236, 8328,0.14962339401245117
71, 8189, 8163, 8154, 8164, 8208, 8203, 8200, 8195, 8226, 8195, 8161, 8179, 8214, 8305,0.15777087211608887
72, 8176, 8165, 8171, 8150, 8189, 8203, 8171, 8172, 8228, 8189, 8155, 8168, 8198, 8277,0.16558098793029785
73, 8149, 8147, 8146, 8129, 8181, 8192, 8142, 8173, 8226, 8196, 8158, 8156, 8189, 8260,0.17369842529296875
74, 8169, 8132, 8169, 8125, 8219, 8198, 8198, 8194, 8214, 8186, 8160, 8159, 8179, 8267,0.18171048164367676
75, 8186, 8139, 8174, 8123, 8215, 8193, 8186, 8191, 8208, 8177, 8152, 8149, 8169, 8265,0.18982481956481934
76, 8172, 8153, 8130, 8120, 8168, 8170, 8088, 8188, 8221, 8185, 8144, 8143, 8165, 8258,0.20180797576904297
77, 8167, 8155, 8123, 8139, 8181, 8173, 8118, 8199, 8224, 8178, 8149, 8149, 8164, 8272,0.20577216148376465
78, 8197, 8161, 8190, 8152, 8234, 8191, 8242, 8209, 8208, 8172, 8160, 8150, 8162, 8271,0.21379971504211426
79, 8180, 8166, 8159, 8144, 8149, 8173, 8109, 8182, 8214, 8202, 8160, 8146, 8190, 8264,0.22075200080871582
80, 8165, 8182, 8151, 8151, 8149, 8164, 8139, 8183, 8213, 8205, 8162, 8159, 8214, 8276,0.22974133491516113
81, 8198, 8198, 8227, 8161, 8184, 8179, 8260, 8191, 8193, 8183, 8167, 8181, 8204, 8287,0.23680520057678223
82, 8172, 8184, 8160, 8147, 8081, 8162, 8090, 8155, 8202, 8195, 8161, 8168, 8202, 8284,0.24474477767944336
83, 8162, 8181, 8144, 8138, 8134, 8161, 8159, 8178, 8216, 8197, 8160, 8164, 8208, 8279,0.2528865337371826
84, 8190, 8188, 8204, 8143, 8186, 8191, 8238, 8207, 8215, 8196, 8169, 8185, 8222, 8293,0.26088404655456543
85, 8175, 8181, 8171, 8137, 8144, 8193, 8136, 8190, 8222, 8206, 8157, 8183, 8222, 8306,0.26860952377319336
86, 8152, 8167, 8149, 8132, 8153, 8176, 8157, 8176, 8225, 8186, 8143, 8165, 8185, 8281,0.2766289710998535
87, 8132, 8156, 8135, 8121, 8133, 8174, 8159, 8159, 8216, 8162, 8150, 8149, 8159, 8252,0.28557896614074707
88, 8137, 8161, 8151, 8107, 8151, 8185, 8195, 8171, 8209, 8176, 8157, 8148, 8157, 8244,0.291672945022583
89, 8139, 8158, 8152, 8107, 8151, 8188, 8164, 8175, 8208, 8189, 8151, 8143, 8155, 8247,0.2996070384979248
90, 8128, 8151, 8146, 8108, 8153, 8188, 8166, 8167, 8200, 8159, 8141, 8130, 8144, 8233,0.30756211280822754
91, 8135, 8147, 8180, 8112, 8157, 8191, 8198, 8177, 8191, 8143, 8143, 8131, 8134, 8212,0.3155231475830078
92, 8119, 8136, 8132, 8124, 8093, 8182, 8093, 8167, 8207, 8175, 8150, 8132, 8149, 8223,0.32375001907348633
93, 8115, 8144, 8144, 8122, 8159, 8188, 8210, 8187, 8211, 8191, 8159, 8140, 8167, 8243,0.3315403461456299
94, 8111, 8162, 8177, 8121, 8179, 8192, 8206, 8203, 8214, 8192, 8176, 8154, 8190, 8256,0.3397092819213867
95, 8089, 8173, 8123, 8140, 8144, 8188, 8076, 8189, 8237, 8215, 8180, 8162, 8216, 8273,0.34777021408081055
96, 8138, 8183, 8177, 8155, 8231, 8200, 8210, 8215, 8237, 8223, 8170, 8192, 8225, 8291,0.35567307472229004
97, 8188, 8199, 8224, 8177, 8216, 8195, 8200, 8215, 8232, 8215, 8177, 8223, 8239, 8315,0.3637871742248535
98, 8210, 8226, 8246, 8212, 8237, 8190, 8224, 8199, 8225, 8207, 8189, 8232, 8248, 8327,0.37072062492370605
99, 8209, 8213, 8229, 8191, 8238, 8194, 8202, 8179, 8222, 8215, 8175, 8221, 8248, 8338,0.378864049911499
100, 8176, 8171, 8145, 8134, 8170, 8186, 8102, 8157, 8235, 8228, 8154, 8188, 8228, 8337,0.3867757320404053
101, 8163, 8156, 8165, 8119, 8205, 8183, 8216, 8172, 8223, 8189, 8142, 8157, 8174, 8279,0.3946869373321533
102, 8113, 8140, 8138, 8130, 8183, 8186, 8160, 8164, 8203, 8149, 8127, 8130, 8141, 8215,0.402738094329834
103, 8079, 8126, 8107, 8115, 8208, 8190, 8150, 8173, 8189, 8146, 8118, 8120, 8123, 8199,0.41076111793518066
104, 8105, 8132, 8144, 8099, 8209, 8179, 8189, 8183, 8177, 8146, 8128, 8132, 8106, 8209,0.4187166690826416
105, 8099, 8136, 8125, 8108, 8133, 8165, 8118, 8159, 8180, 8144, 8139, 8130, 8115, 8216,0.42663073539733887
106, 8111, 8152, 8162, 8132, 8179, 8174, 8194, 8174, 8188, 8161, 8147, 8144, 8142, 8222,0.4337184429168701
107, 8130, 8165, 8177, 8147, 8173, 8180, 8149, 8173, 8192, 8201, 8149, 8169, 8167, 8247,0.44144463539123535
108, 8132, 8154, 8156, 8133, 8170, 8180, 8145, 8163, 8190, 8184, 8144, 8173, 8151, 8259,0.44971251487731934
109, 8165, 8159, 8206, 8129, 8208, 8194, 8222, 8181, 8198, 8157, 8157, 8184, 8141, 8268,0.45745229721069336
110, 8181, 8188, 8187, 8163, 8149, 8202, 8097, 8163, 8210, 8206, 8177, 8206, 8193, 8309,0.46564435958862305
111, 8168, 8189, 8123, 8174, 8116, 8197, 8050, 8133, 8193, 8213, 8168, 8199, 8208, 8322,0.4737124443054199
112, 8172, 8167, 8138, 8161, 8142, 8191, 8149, 8146, 8173, 8155, 8158, 8175, 8171, 8287,0.4814872741699219
113, 8178, 8176, 8183, 8168, 8177, 8181, 8218, 8174, 8181, 8152, 8155, 8169, 8165, 8262,0.4886186122894287
114, 8155, 8185, 8148, 8174, 8166, 8167, 8143, 8163, 8195, 8185, 8143, 8171, 8173, 8261,0.49970459938049316
115, 8125, 8162, 8102, 8151, 8171, 8170, 8122, 8148, 8197, 8174, 8142, 8149, 8149, 8247,0.5045926570892334
116, 8124, 8146, 8158, 8122, 8237, 8190, 8255, 8180, 8189, 8153, 8152, 8132, 8123, 8217,0.5124881267547607
117, 8087, 8129, 8130, 8101, 8182, 8183, 8149, 8171, 8187, 8152, 8137, 8124, 8125, 8201,0.5205893516540527
118, 8073, 8117, 8107, 8095, 8178, 8167, 8147, 8155, 8177, 8139, 8129, 8120, 8114, 8191,0.5284278392791748
119, 8134, 8142, 8204, 8113, 8220, 8167, 8284, 8177, 8162, 8141, 8152, 8144, 8104, 8191,0.5365912914276123
120, 8135, 8164, 8165, 8139, 8102, 8152, 8101, 8158, 8173, 8170, 8162, 8162, 8149, 8213,0.5446057319641113
121, 8119, 8170, 8131, 8150, 8112, 8151, 8113, 8162, 8188, 8180, 8161, 8170, 8181, 8237,0.5524592399597168
122, 8155, 8187, 8206, 8167, 8184, 8165, 8266, 8193, 8189, 8179, 8167, 8181, 8174, 8248,0.5595932006835938
123, 8166, 8205, 8205, 8194, 8146, 8165, 8183, 8181, 8190, 8169, 8159, 8176, 8170, 8245,0.5685646533966064
124, 8148, 8197, 8156, 8190, 8121, 8149, 8091, 8159, 8184, 8153, 8156, 8166, 8170, 8239,0.5757510662078857
125, 8129, 8173, 8132, 8167, 8134, 8139, 8121, 8142, 8164, 8147, 8163, 8165, 8163, 8241,0.5835666656494141
126, 8142, 8174, 8182, 8155, 8180, 8147, 8248, 8150, 8130, 8129, 8150, 8166, 8135, 8235,0.5916287899017334
127, 8132, 8172, 8154, 8152, 8127, 8148, 8118, 8134, 8125, 8133, 8139, 8151, 8130, 8237,0.5996801853179932
238, 8129, 8160, 8144, 8145, 8187, 8154, 8156, 8142, 8139, 8151, 8154, 8152, 8151, 8235,0.6086432933807373
0, 8172, 8154, 8257, 8133, 8275, 8165, 8349, 8182, 8135, 8143, 8172, 8187, 8158, 8232,0.6155662536621094
1, 8140, 8147, 8180, 8133, 8115, 8151, 8093, 8151, 8150, 8168, 8180, 8192, 8189, 8259,0.6226909160614014
2, 8126, 8151, 8133, 8135, 8150, 8153, 8123, 8166, 8175, 8200, 8184, 8187, 8217, 8271,0.6305677890777588
3, 8160, 8144, 8218, 8115, 8232, 8174, 8286, 8210, 8186, 8195, 8188, 8200, 8218, 8265,0.6386377811431885
4, 8113, 8123, 8138, 8094, 8113, 8162, 8060, 8185, 8203, 8208, 8180, 8197, 8221, 8283,0.6466314792633057
5, 8095, 8124, 8104, 8100, 8164, 8158, 8086, 8191, 8217, 8217, 8172, 8194, 8220, 8292,0.6546733379364014
6, 8135, 8123, 8182, 8105, 8249, 8178, 8252, 8210, 8217, 8191, 8175, 8196, 8211, 8268,0.6627073287963867
7, 8132, 8117, 8173, 8093, 8178, 8171, 8173, 8176, 8198, 8178, 8175, 8191, 8204, 8262,0.6705586910247803
8, 8115, 8137, 8120, 8099, 8110, 8156, 8055, 8147, 8192, 8202, 8179, 8199, 8219, 8288,0.6786119937896729
9, 8144, 8162, 8163, 8124, 8169, 8176, 8179, 8168, 8193, 8203, 8180, 8205, 8222, 8287,0.6866364479064941
10, 8173, 8163, 8213, 8135, 8181, 8191, 8232, 8171, 8171, 8175, 8169, 8191, 8194, 8262,0.6934750080108643
11, 8133, 8151, 8122, 8117, 8068, 8163, 8030, 8132, 8162, 8179, 8165, 8171, 8191, 8266,0.7017326354980469
12, 8136, 8159, 8160, 8106, 8168, 8174, 8212, 8177, 8172, 8187, 8177, 8181, 8207, 8274,0.7096157073974609
13, 8156, 8155, 8251, 8114, 8240, 8213, 8335, 8225, 8182, 8189, 8177, 8186, 8207, 8248,0.7176175117492676
14, 8077, 8122, 8117, 8099, 8110, 8197, 8048, 8179, 8203, 8200, 8157, 8140, 8190, 8217,0.7255845069885254
15, 8043, 8112, 8079, 8063, 8159, 8184, 8116, 8170, 8202, 8185, 8147, 8108, 8153, 8194,0.7335317134857178
16, 8075, 8123, 8153, 8059, 8209, 8203, 8217, 8169, 8180, 8170, 8151, 8130, 8145, 8198,0.7415876388549805
17, 8079, 8135, 8139, 8087, 8165, 8200, 8114, 8138, 8174, 8181, 8157, 8159, 8173, 8222,0.7496507167816162
18, 8092, 8137, 8143, 8102, 8179, 8166, 8144, 8127, 8166, 8183, 8159, 8171, 8174, 8234,0.7565450668334961
19, 8109, 8131, 8163, 8098, 8174, 8150, 8171, 8119, 8150, 8174, 8157, 8170, 8165, 8248,0.7656750679016113
20, 8109, 8130, 8160, 8087, 8178, 8169, 8156, 8129, 8154, 8180, 8162, 8168, 8179, 8258,0.7725875377655029
21, 8099, 8135, 8136, 8090, 8172, 8173, 8111, 8145, 8179, 8211, 8165, 8169, 8198, 8258,0.7805590629577637
22, 8110, 8149, 8164, 8101, 8199, 8168, 8192, 8164, 8174, 8212, 8161, 8170, 8188, 8258,0.7886538505554199
23, 8117, 8142, 8175, 8107, 8173, 8169, 8172, 8155, 8148, 8180, 8162, 8162, 8173, 8254,0.7977259159088135
24, 8100, 8130, 8124, 8116, 8128, 8167, 8081, 8134, 8148, 8171, 8158, 8147, 8169, 8242,0.8045399188995361
25, 8142, 8154, 8229, 8134, 8251, 8164, 8317, 8177, 8139, 8158, 8150, 8163, 8147, 8219,0.8128504753112793
26, 8161, 8165, 8265, 8155, 8218, 8153, 8256, 8171, 8123, 8150, 8150, 8176, 8140, 8214,0.8205769062042236
27, 8122, 8159, 8154, 8165, 8146, 8157, 8074, 8131, 8133, 8164, 8152, 8157, 8149, 8224,0.8276975154876709
28, 8147, 8175, 8193, 8171, 8229, 8180, 8225, 8165, 8148, 8165, 8157, 8168, 8150, 8226,0.835759162902832
29, 8141, 8166, 8183, 8168, 8158, 8176, 8132, 8164, 8157, 8162, 8161, 8179, 8170, 8240,0.8436715602874756
30, 8100, 8143, 8100, 8147, 8106, 8176, 8051, 8139, 8159, 8165, 8151, 8160, 8172, 8253,0.8516707420349121
31, 8108, 8143, 8111, 8128, 8160, 8185, 8160, 8144, 8150, 8166, 8133, 8154, 8148, 8245,0.8596739768981934
32, 8127, 8149, 8171, 8120, 8213, 8170, 8260, 8165, 8132, 8148, 8125, 8158, 8131, 8223,0.8677504062652588
33, 8139, 8149, 8226, 8133, 8222, 8166, 8275, 8187, 8124, 8137, 8132, 8167, 8130, 8215,0.8757228851318359
34, 8132, 8151, 8181, 8154, 8142, 8184, 8127, 8183, 8157, 8165, 8144, 8174, 8160, 8251,0.8834757804870605
35, 8136, 8157, 8134, 8165, 8127, 8193, 8089, 8192, 8192, 8190, 8157, 8183, 8188, 8282,0.8906450271606445
36, 8147, 8155, 8129, 8168, 8132, 8193, 8094, 8191, 8193, 8207, 8163, 8193, 8198, 8280,0.8985419273376465
37, 8168, 8160, 8158, 8174, 8192, 8200, 8160, 8192, 8190, 8224, 8159, 8200, 8213, 8280,0.9065053462982178
38, 8209, 8171, 8222, 8177, 8278, 8205, 8240, 8210, 8195, 8209, 8162, 8206, 8225, 8303,0.9146268367767334
39, 8196, 8159, 8167, 8172, 8207, 8192, 8078, 8178, 8193, 8198, 8164, 8201, 8225, 8325,0.9236149787902832
40, 8181, 8151, 8147, 8158, 8215, 8173, 8138, 8158, 8158, 8193, 8145, 8197, 8199, 8301,0.9306554794311523
41, 8196, 8159, 8210, 8141, 8255, 8145, 8261, 8161, 8113, 8163, 8131, 8185, 8169, 8269,0.9388010501861572
42, 8180, 8161, 8163, 8149, 8168, 8130, 8109, 8140, 8125, 8158, 8134, 8169, 8170, 8283,0.9466478824615479
43, 8176, 8158, 8139, 8164, 8163, 8140, 8104, 8145, 8153, 8183, 8138, 8179, 8177, 8295,0.9546160697937012
44, 8180, 8154, 8172, 8162, 8188, 8136, 8164, 8152, 8146, 8172, 8144, 8188, 8171, 8275,0.9617886543273926
45, 8178, 8158, 8194, 8160, 8200, 8135, 8185, 8155, 8122, 8141, 8144, 8177, 8159, 8259,0.969763994216919
46, 8174, 8163, 8175, 8163, 8173, 8153, 8136, 8157, 8129, 8153, 8141, 8169, 8160, 8264,0.9777748584747314
47, 8160, 8167, 8150, 8165, 8169, 8167, 8138, 8172, 8156, 8178, 8148, 8166, 8169, 8266,0.9855630397796631
48, 8164, 8162, 8197, 8171, 8222, 8172, 8250, 8206, 8159, 8171, 8155, 8164, 8168, 8252,0.9944636821746826
49, 8152, 8152, 8160, 8179, 8165, 8169, 8122, 8190, 8177, 8187, 8151, 8161, 8186, 8261,1.001504898071289
50, 8171, 8174, 8158, 8190, 8208, 8181, 8155, 8200, 8208, 8219, 8155, 8175, 8207, 8292,1.0095720291137695
51, 8206, 8192, 8229, 8194, 8248, 8188, 8260, 8221, 8215, 8220, 8169, 8199, 8217, 8309,1.0177524089813232
52, 8162, 8162, 8155, 8175, 8131, 8161, 8085, 8172, 8210, 8208, 8161, 8187, 8235, 8308,1.0247430801391602
53, 8161, 8154, 8138, 8162, 8174, 8164, 8137, 8165, 8200, 8198, 8149, 8176, 8226, 8297,1.0327508449554443
54, 8215, 8176, 8199, 8184, 8208, 8187, 8191, 8182, 8202, 8219, 8152, 8191, 8212, 8301,1.0407931804656982
55, 8214, 8188, 8191, 8214, 8162, 8174, 8122, 8172, 8214, 8229, 8159, 8202, 8221, 8313,1.0486948490142822
56, 8206, 8196, 8192, 8213, 8197, 8161, 8161, 8170, 8206, 8197, 8167, 8201, 8218, 8322,1.056593656539917
57, 8199, 8185, 8175, 8187, 8226, 8169, 8182, 8159, 8178, 8182, 8153, 8174, 8189, 8309,1.0647945404052734
58, 8187, 8166, 8177, 8156, 8246, 8169, 8223, 8157, 8158, 8180, 8137, 8154, 8158, 8273,1.0726702213287354
59, 8160, 8147, 8163, 8134, 8192, 8150, 8140, 8151, 8168, 8175, 8140, 8160, 8160, 8260,1.0806033611297607
60, 8160, 8132, 8174, 8113, 8200, 8143, 8184, 8155, 8170, 8160, 8136, 8161, 8157, 8265,1.0877563953399658
61, 8201, 8131, 8234, 8107, 8230, 8149, 8279, 8171, 8153, 8151, 8134, 8162, 8141, 8271,1.0958313941955566
62, 8175, 8131, 8161, 8126, 8129, 8146, 8087, 8155, 8170, 8171, 8152, 8167, 8170, 8293,1.1037497520446777
63, 8151, 8139, 8126, 8136, 8144, 8154, 8101, 8174, 8193, 8194, 8168, 8176, 8199, 8300,1.1116111278533936
64, 8177, 8145, 8156, 8138, 8160, 8157, 8160, 8191, 8198, 8214, 8162, 8177, 8209, 8299,1.1196906566619873
65, 8191, 8161, 8137, 8163, 8119, 8154, 8115, 8181, 8211, 8223, 8157, 8175, 8212, 8319,1.127702236175537
66, 8212, 8186, 8173, 8196, 8139, 8168, 8198, 8198, 8223, 8222, 8165, 8190, 8199, 8328,1.1357698440551758
67, 8201, 8181, 8175, 8198, 8099, 8178, 8171, 8190, 8221, 8230, 8164, 8186, 8200, 8308,1.1448249816894531
68, 8181, 8169, 8155, 8188, 8098, 8179, 8156, 8171, 8199, 8214, 8159, 8175, 8208, 8299,1.1507232189178467
69, 8188, 8178, 8155, 8195, 8117, 8170, 8156, 8175, 8187, 8195, 8161, 8191, 8213, 8321,1.1597375869750977
70, 8207, 8205, 8177, 8212, 8154, 8173, 8193, 8202, 8203, 8222, 8171, 8206, 8233, 8343,1.1667718887329102
71, 8212, 8199, 8194, 8203, 8168, 8183, 8189, 8202, 8224, 8250, 8169, 8201, 8246, 8342,1.175605297088623
72, 8178, 8157, 8124, 8164, 8102, 8162, 8070, 8152, 8227, 8228, 8156, 8179, 8229, 8344,1.1837632656097412
73, 8195, 8152, 8179, 8132, 8201, 8144, 8280, 8173, 8195, 8185, 8148, 8166, 8185, 8322,1.1907694339752197
74, 8198, 8159, 8242, 8125, 8209, 8144, 8297, 8186, 8176, 8178, 8152, 8164, 8171, 8281,1.1985199451446533
75, 8133, 8142, 8127, 8135, 8067, 8131, 8016, 8138, 8199, 8199, 8156, 8154, 8191, 8277,1.2068426609039307
76, 8151, 8152, 8124, 8150, 8105, 8122, 8109, 8154, 8208, 8201, 8159, 8163, 8196, 8301,1.2147917747497559
77, 8200, 8187, 8173, 8170, 8132, 8132, 8183, 8183, 8205, 8200, 8160, 8174, 8199, 8317,1.2215039730072021
78, 8189, 8193, 8160, 8168, 8137, 8146, 8161, 8173, 8196, 8189, 8158, 8171, 8188, 8298,1.2297849655151367
79, 8184, 8166, 8185, 8156, 8182, 8155, 8204, 8158, 8159, 8174, 8161, 8171, 8170, 8278,1.2377698421478271
80, 8188, 8166, 8186, 8173, 8165, 8151, 8159, 8144, 8134, 8171, 8161, 8170, 8183, 8299,1.245750904083252
81, 8187, 8193, 8162, 8182, 8156, 8153, 8153, 8145, 8139, 8158, 8160, 8169, 8190, 8314,1.2537415027618408
82, 8182, 8190, 8146, 8165, 8167, 8156, 8158, 8146, 8159, 8165, 8157, 8172, 8185, 8302,1.2617573738098145
83, 8189, 8175, 8177, 8170, 8217, 8145, 8190, 8160, 8175, 8200, 8158, 8177, 8189, 8295,1.269789695739746
84, 8195, 8180, 8177, 8192, 8189, 8132, 8127, 8174, 8197, 8222, 8171, 8184, 8205, 8314,1.2776730060577393
85, 8189, 8192, 8136, 8193, 8149, 8147, 8097, 8171, 8212, 8219, 8176, 8194, 8219, 8330,1.2846124172210693
86, 8214, 8207, 8198, 8192, 8218, 8173, 8249, 8185, 8201, 8209, 8173, 8211, 8217, 8330,1.2925913333892822
87, 8212, 8205, 8195, 8205, 8171, 8169, 8155, 8159, 8196, 8220, 8176, 8209, 8221, 8336,1.3006982803344727
88, 8184, 8188, 8142, 8199, 8160, 8165, 8126, 8135, 8180, 8219, 8165, 8190, 8214, 8318,1.3086786270141602
89, 8194, 8178, 8176, 8186, 8205, 8167, 8225, 8154, 8158, 8200, 8162, 8191, 8206, 8292,1.3167650699615479
90, 8190, 8178, 8152, 8192, 8150, 8146, 8105, 8157, 8171, 8215, 8179, 8193, 8229, 8311,1.3255376815795898
91, 8191, 8185, 8165, 8194, 8199, 8132, 8173, 8180, 8177, 8234, 8180, 8196, 8235, 8320,1.3327720165252686
92, 8187, 8185, 8195, 8182, 8195, 8129, 8223, 8186, 8169, 8229, 8174, 8198, 8219, 8302,1.3405179977416992
93, 8177, 8188, 8163, 8198, 8147, 8141, 8133, 8177, 8186, 8219, 8179, 8192, 8222, 8302,1.3475301265716553
94, 8206, 8204, 8173, 8226, 8198, 8161, 8149, 8193, 8204, 8213, 8172, 8195, 8225, 8313,1.3556554317474365
95, 8213, 8209, 8178, 8211, 8199, 8152, 8166, 8195, 8205, 8213, 8157, 8188, 8213, 8305,1.3635146617889404
96, 8198, 8201, 8179, 8180, 8174, 8135, 8204, 8196, 8198, 8201, 8153, 8173, 8190, 8284,1.3726558685302734
97, 8176, 8193, 8149, 8185, 8125, 8135, 8112, 8180, 8192, 8189, 8147, 8162, 8180, 8272,1.3795514106750488
98, 8177, 8195, 8140, 8191, 8160, 8139, 8127, 8170, 8176, 8183, 8145, 8164, 8181, 8268,1.3875346183776855
99, 8209, 8195, 8191, 8171, 8207, 8140, 8230, 8172, 8156, 8188, 8164, 8180, 8180, 8270,1.3957462310791016
100, 8194, 8180, 8152, 8163, 8139, 8131, 8108, 8142, 8156, 8197, 8174, 8180, 8192, 8287,1.4037182331085205
101, 8200, 8196, 8177, 8185, 8227, 8139, 8191, 8159, 8155, 8189, 8170, 8186, 8201, 8293,1.4116437435150146
102, 8223, 8221, 8203, 8210, 8242, 8151, 8202, 8179, 8169, 8207, 8175, 8204, 8219, 8305,1.4185397624969482
103, 8227, 8226, 8178, 8220, 8201, 8150, 8171, 8182, 8196, 8231, 8180, 8211, 8233, 8331,1.426570177078247
104, 8259, 8238, 8254, 8226, 8279, 8154, 8309, 8205, 8193, 8214, 8173, 8218, 8218, 8334,1.4346702098846436
105, 8234, 8237, 8214, 8228, 8192, 8145, 8154, 8177, 8192, 8218, 8175, 8213, 8225, 8332,1.442591667175293
106, 8212, 8228, 8178, 8223, 8143, 8150, 8149, 8174, 8196, 8240, 8186, 8214, 8236, 8335,1.4505205154418945
107, 8231, 8219, 8215, 8218, 8148, 8162, 8200, 8182, 8195, 8231, 8184, 8221, 8232, 8339,1.458786964416504
108, 8211, 8212, 8170, 8211, 8120, 8142, 8114, 8156, 8193, 8206, 8175, 8208, 8232, 8335,1.4668598175048828
109, 8219, 8208, 8188, 8207, 8159, 8126, 8196, 8165, 8186, 8221, 8190, 8216, 8241, 8334,1.474571704864502
110, 8234, 8203, 8192, 8215, 8124, 8121, 8141, 8159, 8196, 8252, 8199, 8236, 8266, 8352,1.4818189144134521
111, 8235, 8220, 8182, 8223, 8148, 8119, 8143, 8155, 8192, 8230, 8182, 8232, 8260, 8353,1.4898107051849365
112, 8236, 8218, 8205, 8216, 8187, 8109, 8205, 8167, 8168, 8201, 8174, 8219, 8231, 8337,1.4977548122406006
113, 8215, 8197, 8171, 8208, 8128, 8109, 8113, 8162, 8171, 8216, 8181, 8209, 8228, 8328,1.5067589282989502
114, 8208, 8203, 8150, 8212, 8146, 8137, 8096, 8164, 8186, 8216, 8182, 8204, 8233, 8315,1.5137929916381836
115, 8205, 8213, 8143, 8223, 8203, 8138, 8108, 8160, 8192, 8213, 8170, 8196, 8235, 8313,1.5218398571014404
116, 8201, 8209, 8139, 8224, 8231, 8113, 8143, 8152, 8182, 8215, 8164, 8186, 8220, 8310,1.5297441482543945
117, 8209, 8203, 8152, 8216, 8202, 8114, 8163, 8144, 8166, 8187, 8165, 8179, 8201, 8294,1.5378854274749756
118, 8209, 8210, 8155, 8214, 8188, 8127, 8162, 8140, 8155, 8167, 8162, 8178, 8206, 8290,1.5458958148956299
119, 8205, 8219, 8175, 8215, 8236, 8127, 8220, 8160, 8157, 8181, 8164, 8192, 8212, 8300,1.559863805770874
120, 8192, 8209, 8157, 8220, 8185, 8116, 8151, 8162, 8181, 8211, 8177, 8198, 8223, 8312,1.5604586601257324
121, 8184, 8198, 8144, 8216, 8157, 8123, 8140, 8161, 8193, 8222, 8176, 8188, 8234, 8307,1.5687878131866455
122, 8180, 8193, 8156, 8199, 8170, 8138, 8160, 8162, 8178, 8214, 8171, 8188, 8233, 8291,1.57659912109375
123, 8164, 8186, 8136, 8187, 8170, 8138, 8120, 8150, 8165, 8219, 8172, 8192, 8231, 8294,1.5847718715667725
124, 8182, 8188, 8180, 8189, 8214, 8128, 8231, 8157, 8139, 8199, 8166, 8192, 8220, 8307,1.5927937030792236
125, 8190, 8182, 8177, 8190, 8120, 8110, 8159, 8133, 8114, 8186, 8167, 8194, 8223, 8324,1.600559949874878
126, 8186, 8179, 8153, 8187, 8086, 8110, 8116, 8128, 8127, 8212, 8182, 8212, 8248, 8343,1.6086690425872803
127, 8226, 8203, 8231, 8192, 8164, 8127, 8247, 8168, 8156, 8223, 8189, 8236, 8262, 8349,1.615649938583374
238, 8226, 8214, 8212, 8200, 8110, 8130, 8156, 8164, 8180, 8226, 8183, 8225, 8267, 8345,1.623638391494751
0, 8206, 8200, 8164, 8202, 8103, 8147, 8129, 8174, 8200, 8249, 8181, 8211, 8263, 8343,1.6316797733306885
1, 8208, 8187, 8173, 8198, 8124, 8160, 8152, 8199, 8213, 8255, 8176, 8215, 8250, 8345,1.639758586883545
2, 8209, 8189, 8181, 8189, 8121, 8148, 8154, 8192, 8207, 8223, 8162, 8205, 8232, 8330,1.64774489402771
3, 8229, 8197, 8194, 8194, 8133, 8140, 8162, 8172, 8190, 8221, 8162, 8197, 8230, 8322,1.6557033061981201
4, 8226, 8194, 8158, 8198, 8099, 8140, 8109, 8144, 8174, 8233, 8168, 8201, 8238, 8335,1.663668155670166
5, 8208, 8184, 8173, 8173, 8113, 8148, 8207, 8150, 8146, 8201, 8172, 8202, 8222, 8326,1.6717655658721924
6, 8176, 8163, 8161, 8151, 8086, 8154, 8161, 8146, 8136, 8194, 8164, 8181, 8206, 8298,1.678687334060669
7, 8148, 8155, 8130, 8160, 8128, 8157, 8156, 8141, 8139, 8202, 8148, 8153, 8189, 8266,1.6867849826812744
8, 8161, 8154, 8204, 8151, 8231, 8163, 8312, 8169, 8127, 8171, 8148, 8149, 8155, 8240,1.6946589946746826
9, 8134, 8135, 8156, 8124, 8119, 8165, 8121, 8155, 8153, 8169, 8157, 8146, 8159, 8246,1.7025859355926514
10, 8130, 8146, 8116, 8131, 8095, 8159, 8098, 8160, 8196, 8200, 8164, 8148, 8188, 8259,1.7105610370635986
11, 8169, 8165, 8192, 8144, 8164, 8137, 8248, 8179, 8186, 8191, 8162, 8160, 8194, 8263,1.719825267791748
12, 8154, 8143, 8170, 8128, 8126, 8122, 8149, 8159, 8161, 8161, 8158, 8156, 8190, 8276,1.726538896560669
13, 8157, 8136, 8146, 8129, 8145, 8122, 8115, 8158, 8164, 8180, 8164, 8164, 8191, 8298,1.734764814376831
14, 8195, 8160, 8172, 8161, 8169, 8122, 8156, 8166, 8162, 8210, 8169, 8188, 8203, 8314,1.742762565612793
15, 8215, 8173, 8200, 8171, 8154, 8135, 8198, 8176, 8144, 8178, 8165, 8200, 8205, 8318,1.749518632888794
16, 8207, 8165, 8177, 8159, 8067, 8134, 8117, 8168, 8147, 8166, 8163, 8201, 8209, 8325,1.757695198059082
17, 8195, 8163, 8159, 8159, 8057, 8120, 8126, 8166, 8150, 8200, 8171, 8201, 8215, 8325,1.7654697895050049
18, 8204, 8162, 8204, 8157, 8127, 8129, 8254, 8180, 8131, 8186, 8171, 8200, 8184, 8300,1.7735803127288818
19, 8191, 8157, 8159, 8156, 8057, 8138, 8124, 8150, 8137, 8149, 8160, 8186, 8168, 8288,1.7816226482391357
20, 8194, 8174, 8172, 8167, 8095, 8143, 8184, 8156, 8141, 8148, 8160, 8186, 8175, 8286,1.7896473407745361
21, 8192, 8171, 8217, 8159, 8134, 8151, 8250, 8176, 8137, 8159, 8166, 8188, 8171, 8269,1.7974226474761963
22, 8144, 8147, 8133, 8141, 8057, 8148, 8079, 8153, 8160, 8173, 8159, 8171, 8174, 8259,1.80574369430542
23, 8159, 8160, 8159, 8151, 8135, 8151, 8182, 8178, 8165, 8185, 8164, 8179, 8173, 8261,1.8126208782196045
24, 8178, 8178, 8208, 8168, 8165, 8163, 8225, 8190, 8156, 8190, 8176, 8192, 8175, 8270,1.8206102848052979
25, 8154, 8176, 8165, 8163, 8140, 8179, 8134, 8172, 8172, 8192, 8167, 8187, 8190, 8276,1.828540325164795
26, 8164, 8176, 8161, 8161, 8160, 8194, 8131, 8180, 8196, 8204, 8169, 8199, 8211, 8289,1.836728572845459
27, 8186, 8176, 8191, 8177, 8185, 8186, 8183, 8188, 8193, 8210, 8185, 8205, 8202, 8295,1.844789981842041
28, 8205, 8183, 8239, 8189, 8226, 8186, 8266, 8201, 8186, 8192, 8185, 8206, 8184, 8289,1.8526506423950195
29, 8190, 8187, 8189, 8198, 8158, 8197, 8126, 8188, 8218, 8222, 8184, 8210, 8222, 8308,1.8616206645965576
30, 8180, 8180, 8175, 8187, 8190, 8197, 8184, 8193, 8222, 8240, 8183, 8209, 8230, 8305,1.8687880039215088
31, 8192, 8168, 8228, 8162, 8219, 8189, 8257, 8191, 8182, 8185, 8169, 8205, 8190, 8279,1.8764588832855225
32, 8166, 8163, 8147, 8165, 8088, 8184, 8035, 8152, 8186, 8178, 8159, 8195, 8194, 8296,1.883746862411499
33, 8171, 8175, 8138, 8181, 8126, 8195, 8141, 8174, 8198, 8210, 8160, 8193, 8199, 8305,1.8957369327545166
34, 8176, 8165, 8170, 8163, 8162, 8188, 8204, 8178, 8176, 8200, 8157, 8184, 8182, 8275,1.8996074199676514
35, 8151, 8148, 8120, 8142, 8108, 8176, 8078, 8147, 8165, 8181, 8156, 8175, 8186, 8269,1.9075939655303955
36, 8177, 8164, 8156, 8164, 8143, 8187, 8174, 8176, 8169, 8189, 8161, 8189, 8194, 8291,1.9157161712646484
37, 8195, 8172, 8192, 8178, 8160, 8196, 8219, 8203, 8184, 8199, 8162, 8197, 8197, 8295,1.9234263896942139
38, 8178, 8157, 8167, 8158, 8163, 8203, 8170, 8195, 8195, 8195, 8163, 8187, 8189, 8284,1.9316277503967285
39, 8164, 8149, 8136, 8153, 8163, 8198, 8119, 8183, 8198, 8197, 8161, 8181, 8182, 8290,1.9395925998687744
40, 8184, 8164, 8172, 8169, 8216, 8187, 8194, 8203, 8205, 8199, 8161, 8192, 8195, 8309,1.9466216564178467
41, 8200, 8161, 8194, 8162, 8203, 8191, 8196, 8196, 8202, 8200, 8168, 8200, 8194, 8309,1.954484462738037
42, 8162, 8140, 8123, 8139, 8113, 8186, 8091, 8148, 8181, 8186, 8161, 8181, 8164, 8283,1.9627141952514648
43, 8175, 8145, 8174, 8142, 8189, 8173, 8252, 8163, 8152, 8150, 8150, 8171, 8139, 8262,1.9705984592437744
44, 8211, 8157, 8206, 8165, 8167, 8171, 8202, 8175, 8161, 8165, 8159, 8186, 8161, 8287,1.9786016941070557
45, 8194, 8165, 8137, 8171, 8098, 8187, 8074, 8167, 8195, 8209, 8172, 8194, 8189, 8312,1.9866809844970703
46, 8198, 8172, 8195, 8159, 8178, 8195, 8241, 8194, 8200, 8206, 8171, 8198, 8181, 8296,1.9946331977844238
47, 8188, 8157, 8186, 8160, 8131, 8188, 8165, 8173, 8203, 8188, 8163, 8185, 8177, 8283,2.0024032592773438
48, 8172, 8144, 8131, 8165, 8110, 8207, 8120, 8158, 8212, 8184, 8162, 8178, 8165, 8281,2.010739326477051
49, 8170, 8144, 8160, 8159, 8141, 8221, 8193, 8177, 8198, 8186, 8163, 8181, 8147, 8270,2.0186121463775635
50, 8164, 8151, 8188, 8157, 8145, 8209, 8225, 8179, 8169, 8164, 8154, 8164, 8137, 8255,2.025719165802002
51, 8193, 8164, 8221, 8156, 8174, 8202, 8260, 8179, 8155, 8134, 8152, 8161, 8128, 8252,2.0336577892303467
52, 8198, 8168, 8179, 8158, 8113, 8187, 8103, 8156, 8163, 8167, 8174, 8181, 8150, 8290,2.041776180267334
53, 8198, 8183, 8180, 8182, 8151, 8183, 8144, 8160, 8159, 8202, 8186, 8197, 8180, 8315,2.050743818283081
54, 8210, 8192, 8214, 8202, 8185, 8186, 8210, 8163, 8157, 8183, 8169, 8189, 8183, 8297,2.0576376914978027
55, 8181, 8178, 8154, 8188, 8111, 8184, 8106, 8139, 8177, 8180, 8161, 8172, 8173, 8285,2.065579652786255
56, 8174, 8176, 8166, 8161, 8129, 8200, 8198, 8163, 8172, 8186, 8170, 8182, 8164, 8295,2.0727570056915283
57, 8181, 8170, 8184, 8159, 8116, 8205, 8182, 8169, 8163, 8176, 8164, 8190, 8167, 8305,2.0817298889160156
58, 8158, 8157, 8136, 8163, 8108, 8195, 8093, 8159, 8178, 8180, 8159, 8175, 8164, 8294,2.088784694671631
59, 8138, 8155, 8116, 8152, 8139, 8197, 8106, 8167, 8181, 8177, 8168, 8160, 8148, 8277,2.0978386402130127
60, 8134, 8151, 8114, 8137, 8143, 8191, 8127, 8157, 8158, 8156, 8162, 8154, 8141, 8268,2.1046886444091797
61, 8163, 8158, 8153, 8146, 8185, 8186, 8188, 8152, 8151, 8150, 8160, 8170, 8152, 8268,2.1127405166625977
62, 8189, 8180, 8175, 8179, 8174, 8201, 8152, 8154, 8185, 8177, 8181, 8192, 8174, 8291,2.1207733154296875
63, 8186, 8185, 8167, 8188, 8149, 8226, 8143, 8162, 8203, 8192, 8183, 8196, 8178, 8311,2.129617691040039
64, 8176, 8172, 8164, 8165, 8131, 8232, 8165, 8171, 8187, 8188, 8173, 8190, 8183, 8310,2.1368494033813477
65, 8169, 8171, 8155, 8154, 8108, 8229, 8161, 8180, 8191, 8190, 8173, 8178, 8200, 8301,2.143770933151245
66, 8161, 8165, 8176, 8155, 8138, 8232, 8227, 8194, 8191, 8180, 8166, 8161, 8169, 8266,2.15177059173584
67, 8130, 8150, 8146, 8157, 8107, 8225, 8142, 8163, 8165, 8158, 8154, 8152, 8125, 8235,2.1597471237182617
68, 8146, 8173, 8153, 8178, 8123, 8231, 8163, 8145, 8134, 8137, 8158, 8163, 8122, 8258,2.167705535888672
69, 8188, 8192, 8212, 8190, 8136, 8242, 8239, 8156, 8124, 8128, 8163, 8173, 8129, 8276,2.1757853031158447
70, 8138, 8162, 8136, 8169, 8046, 8224, 8085, 8142, 8145, 8139, 8158, 8158, 8135, 8248,2.183645009994507
71, 8124, 8156, 8131, 8156, 8114, 8212, 8153, 8172, 8180, 8157, 8162, 8161, 8142, 8234,2.1917855739593506
72, 8171, 8174, 8192, 8164, 8146, 8223, 8211, 8196, 8215, 8183, 8168, 8177, 8152, 8268,2.199782133102417
73, 8162, 8167, 8156, 8164, 8090, 8236, 8129, 8176, 8224, 8184, 8160, 8169, 8151, 8288,2.2066845893859863
74, 8143, 8155, 8154, 8153, 8123, 8253, 8181, 8191, 8216, 8163, 8160, 8163, 8140, 8274,2.214792490005493
75, 8146, 8163, 8165, 8158, 8124, 8261, 8181, 8211, 8228, 8187, 8175, 8169, 8155, 8279,2.222795009613037
76, 8163, 8182, 8178, 8170, 8133, 8255, 8202, 8208, 8221, 8196, 8174, 8169, 8162, 8284,2.230550765991211
77, 8149, 8166, 8156, 8164, 8098, 8246, 8154, 8179, 8181, 8159, 8165, 8151, 8145, 8265,2.2387139797210693
78, 8128, 8144, 8148, 8150, 8105, 8247, 8186, 8172, 8160, 8153, 8171, 8149, 8135, 8250,2.2467708587646484
79, 8142, 8154, 8188, 8152, 8113, 8245, 8219, 8179, 8172, 8179, 8177, 8179, 8149, 8264,2.2546536922454834
80, 8128, 8156, 8126, 8163, 8039, 8234, 8062, 8145, 8190, 8195, 8180, 8180, 8176, 8283,2.2627789974212646
81, 8145, 8155, 8177, 8166, 8165, 8243, 8262, 8170, 8187, 8181, 8179, 8162, 8164, 8259,2.269820213317871
82, 8164, 8154, 8246, 8161, 8175, 8243, 8304, 8185, 8189, 8181, 8175, 8168, 8149, 8249,2.277796506881714
83, 8113, 8147, 8128, 8156, 8019, 8219, 8019, 8135, 8204, 8196, 8170, 8167, 8167, 8281,2.2857792377471924
84, 8115, 8154, 8118, 8156, 8078, 8222, 8112, 8150, 8194, 8184, 8168, 8156, 8159, 8279,2.293802499771118
85, 8138, 8148, 8162, 8157, 8115, 8229, 8200, 8178, 8180, 8163, 8163, 8151, 8139, 8248,2.301793336868286
86, 8125, 8127, 8137, 8136, 8081, 8223, 8156, 8177, 8181, 8153, 8152, 8147, 8129, 8233,2.3097732067108154
87, 8136, 8132, 8152, 8125, 8115, 8224, 8185, 8179, 8178, 8158, 8152, 8140, 8116, 8237,2.3177459239959717
88, 8149, 8153, 8184, 8148, 8152, 8234, 8212, 8178, 8175, 8169, 8155, 8142, 8114, 8241,2.325834274291992
89, 8138, 8149, 8168, 8161, 8107, 8234, 8158, 8166, 8176, 8168, 8168, 8156, 8124, 8238,2.3336868286132812
90, 8131, 8140, 8118, 8158, 8053, 8225, 8071, 8149, 8190, 8171, 8180, 8166, 8144, 8248,2.3408362865448
91, 8175, 8170, 8179, 8166, 8177, 8243, 8239, 8184, 8192, 8166, 8171, 8172, 8147, 8269,2.3487865924835205
92, 8190, 8180, 8221, 8176, 8193, 8246, 8252, 8197, 8179, 8156, 8159, 8167, 8130, 8270,2.356658697128296
93, 8141, 8143, 8139, 8162, 8070, 8222, 8067, 8165, 8187, 8175, 8167, 8159, 8136, 8263,2.364858865737915
94, 8152, 8129, 8165, 8134, 8117, 8234, 8171, 8179, 8193, 8191, 8178, 8178, 8152, 8272,2.3737857341766357
95, 8174, 8134, 8177, 8130, 8115, 8248, 8162, 8175, 8182, 8178, 8161, 8186, 8159, 8297,2.380629777908325
96, 8154, 8137, 8132, 8146, 8087, 8227, 8118, 8157, 8166, 8155, 8150, 8161, 8148, 8297,2.3887569904327393
97, 8149, 8142, 8172, 8140, 8139, 8213, 8222, 8168, 8161, 8161, 8165, 8146, 8131, 8277,2.396670341491699
98, 8145, 8140, 8170, 8135, 8128, 8216, 8162, 8161, 8179, 8180, 8167, 8148, 8134, 8273,2.4036240577697754
99, 8153, 8140, 8156, 8154, 8141, 8218, 8141, 8156, 8187, 8162, 8164, 8159, 8141, 8280,2.4116506576538086
100, 8163, 8149, 8172, 8166, 8140, 8206, 8169, 8159, 8191, 8162, 8184, 8170, 8158, 8294,2.419527053833008
101, 8160, 8155, 8177, 8158, 8126, 8194, 8192, 8168, 8187, 8188, 8185, 8162, 8155, 8289,2.427603244781494
102, 8155, 8144, 8158, 8152, 8099, 8195, 8144, 8163, 8177, 8185, 8170, 8160, 8144, 8276,2.4355742931365967
103, 8138, 8130, 8114, 8148, 8088, 8198, 8098, 8141, 8173, 8164, 8169, 8155, 8147, 8279,2.4435155391693115
104, 8149, 8140, 8165, 8149, 8177, 8199, 8247, 8161, 8154, 8168, 8172, 8149, 8141, 8266,2.451596975326538
105, 8154, 8147, 8174, 8165, 8126, 8196, 8168, 8156, 8144, 8196, 8179, 8162, 8160, 8264,2.459670305252075
106, 8147, 8141, 8150, 8163, 8092, 8197, 8137, 8138, 8134, 8177, 8179, 8165, 8163, 8275,2.4675991535186768
107, 8152, 8134, 8188, 8147, 8140, 8187, 8228, 8144, 8108, 8144, 8170, 8150, 8129, 8276,2.474555730819702
108, 8129, 8128, 8149, 8140, 8085, 8175, 8115, 8151, 8136, 8170, 8173, 8146, 8146, 8287,2.482649326324463
109, 8153, 8139, 8204, 8138, 8158, 8206, 8267, 8215, 8179, 8175, 8180, 8166, 8165, 8283,2.4917664527893066
110, 8174, 8135, 8241, 8131, 8155, 8207, 8250, 8218, 8169, 8147, 8176, 8171, 8147, 8265,2.4988059997558594
111, 8150, 8134, 8166, 8141, 8109, 8165, 8090, 8166, 8160, 8163, 8184, 8164, 8155, 8282,2.5065109729766846
112, 8180, 8166, 8201, 8180, 8181, 8184, 8207, 8187, 8174, 8198, 8202, 8186, 8192, 8319,2.5148274898529053
113, 8179, 8172, 8194, 8187, 8129, 8213, 8159, 8185, 8163, 8199, 8189, 8187, 8205, 8321,2.522761821746826
114, 8163, 8162, 8177, 8157, 8130, 8196, 8167, 8164, 8130, 8189, 8181, 8173, 8189, 8294,2.530580997467041
115, 8185, 8162, 8195, 8157, 8151, 8195, 8182, 8157, 8132, 8198, 8194, 8180, 8190, 8302,2.537647008895874
116, 8183, 8155, 8167, 8173, 8129, 8221, 8146, 8161, 8143, 8183, 8182, 8177, 8181, 8319,2.546685218811035
117, 8176, 8145, 8180, 8156, 8146, 8227, 8215, 8187, 8138, 8155, 8166, 8170, 8150, 8294,2.5535335540771484
118, 8165, 8145, 8162, 8149, 8090, 8207, 8134, 8181, 8166, 8188, 8179, 8177, 8165, 8284,2.561669111251831
119, 8176, 8161, 8161, 8175, 8108, 8215, 8156, 8189, 8194, 8224, 8197, 8194, 8197, 8303,2.5696096420288086
120, 8197, 8167, 8204, 8182, 8144, 8230, 8221, 8205, 8181, 8199, 8196, 8187, 8194, 8301,2.5774786472320557
121, 8171, 8168, 8159, 8176, 8085, 8209, 8102, 8165, 8160, 8196, 8182, 8163, 8192, 8289,2.586000680923462
122, 8163, 8176, 8122, 8185, 8091, 8189, 8092, 8136, 8146, 8220, 8173, 8170, 8190, 8299,2.5934605598449707
123, 8185, 8178, 8147, 8190, 8114, 8197, 8153, 8145, 8139, 8205, 8174, 8179, 8175, 8316,2.6015987396240234
124, 8178, 8169, 8157, 8173, 8109, 8206, 8172, 8148, 8133, 8171, 8170, 8152, 8154, 8294,2.608538866043091
125, 8149, 8146, 8138, 8146, 8102, 8196, 8154, 8138, 8129, 8161, 8153, 8136, 8142, 8262,2.616703748703003
126, 8150, 8135, 8154, 8141, 8139, 8192, 8199, 8154, 8133, 8167, 8162, 8161, 8151, 8275,2.6245501041412354
127, 8185, 8155, 8202, 8162, 8145, 8193, 8210, 8178, 8141, 8173, 8198, 8187, 8172, 8315,2.6324968338012695
238, 8183, 8159, 8150, 8174, 8048, 8186, 8059, 8166, 8162, 8187, 8190, 8173, 8183, 8330,2.6405537128448486
0, 8179, 8153, 8145, 8165, 8094, 8193, 8164, 8180, 8161, 8182, 8159, 8158, 8154, 8303,2.648662567138672
1, 8174, 8162, 8182, 8161, 8117, 8183, 8221, 8178, 8129, 8148, 8170, 8156, 8123, 8273,2.6567251682281494
2, 8135, 8160, 8118, 8169, 8038, 8162, 8072, 8139, 8114, 8128, 8187, 8138, 8132, 8271,2.6646416187286377
3, 8150, 8144, 8160, 8154, 8143, 8183, 8218, 8158, 8122, 8139, 8178, 8143, 8140, 8279,2.6717746257781982
4, 8165, 8133, 8190, 8137, 8168, 8203, 8208, 8161, 8136, 8167, 8181, 8167, 8142, 8282,2.67970871925354
5, 8143, 8132, 8122, 8146, 8100, 8194, 8083, 8137, 8122, 8159, 8190, 8160, 8142, 8271,2.6876368522644043
6, 8172, 8140, 8165, 8161, 8141, 8182, 8201, 8160, 8100, 8141, 8191, 8155, 8137, 8268,2.696598768234253
7, 8193, 8150, 8213, 8164, 8139, 8176, 8212, 8179, 8130, 8177, 8208, 8176, 8165, 8299,2.7037830352783203
8, 8177, 8157, 8187, 8165, 8096, 8184, 8143, 8182, 8160, 8193, 8218, 8190, 8192, 8322,2.711560010910034
9, 8159, 8147, 8143, 8157, 8072, 8184, 8104, 8172, 8150, 8168, 8199, 8173, 8175, 8306,2.7196080684661865
10, 8157, 8139, 8153, 8139, 8130, 8169, 8176, 8168, 8136, 8174, 8188, 8157, 8152, 8281,2.7277002334594727
11, 8158, 8136, 8179, 8129, 8147, 8165, 8186, 8171, 8143, 8193, 8206, 8172, 8153, 8279,2.734576940536499
12, 8137, 8136, 8135, 8138, 8092, 8171, 8089, 8163, 8153, 8187, 8210, 8170, 8150, 8281,2.742612600326538
13, 8153, 8154, 8168, 8153, 8162, 8187, 8219, 8195, 8149, 8164, 8209, 8148, 8126, 8260,2.750584602355957
14, 8155, 8157, 8173, 8157, 8149, 8192, 8189, 8197, 8155, 8171, 8237, 8153, 8151, 8266,2.7584879398345947
15, 8122, 8148, 8126, 8150, 8136, 8183, 8133, 8177, 8167, 8179, 8242, 8165, 8172, 8277,2.7666311264038086
16, 8135, 8148, 8183, 8143, 8193, 8192, 8262, 8201, 8160, 8156, 8214, 8157, 8126, 8254,2.7746102809906006
17, 8133, 8137, 8156, 8145, 8087, 8197, 8127, 8185, 8167, 8164, 8212, 8144, 8109, 8250,2.782644033432007
18, 8121, 8133, 8125, 8139, 8094, 8184, 8128, 8168, 8174, 8181, 8232, 8151, 8130, 8267,2.7906317710876465
19, 8141, 8135, 8178, 8125, 8174, 8183, 8257, 8173, 8157, 8168, 8227, 8166, 8139, 8264,2.7976648807525635
20, 8146, 8136, 8170, 8134, 8120, 8190, 8190, 8151, 8135, 8142, 8215, 8154, 8121, 8245,2.805474281311035
21, 8146, 8151, 8153, 8158, 8086, 8185, 8134, 8135, 8115, 8139, 8222, 8146, 8100, 8239,2.813641309738159
22, 8156, 8167, 8159, 8177, 8107, 8192, 8143, 8145, 8129, 8173, 8225, 8163, 8125, 8268,2.8224191665649414
23, 8185, 8174, 8209, 8178, 8166, 8222, 8253, 8178, 8147, 8173, 8223, 8181, 8153, 8286,2.82962703704834
24, 8159, 8161, 8163, 8168, 8087, 8225, 8113, 8152, 8132, 8151, 8225, 8167, 8149, 8276,2.8377857208251953
25, 8129, 8151, 8123, 8157, 8087, 8216, 8105, 8132, 8110, 8158, 8219, 8149, 8129, 8263,2.845712661743164
26, 8184, 8157, 8252, 8159, 8215, 8233, 8366, 8187, 8118, 8165, 8210, 8174, 8120, 8250,2.853882074356079
27, 8166, 8151, 8198, 8167, 8088, 8220, 8143, 8171, 8145, 8178, 8209, 8178, 8135, 8248,2.8616764545440674
28, 8114, 8145, 8093, 8159, 8058, 8200, 8041, 8151, 8145, 8178, 8198, 8155, 8135, 8254,2.868710994720459
29, 8152, 8149, 8174, 8154, 8185, 8214, 8247, 8191, 8142, 8170, 8192, 8161, 8116, 8258,2.876725912094116
30, 8173, 8156, 8184, 8172, 8140, 8222, 8155, 8189, 8167, 8186, 8209, 8170, 8126, 8267,2.8845787048339844
31, 8173, 8171, 8158, 8193, 8114, 8210, 8100, 8174, 8174, 8191, 8212, 8165, 8144, 8276,2.892732858657837
32, 8182, 8165, 8176, 8191, 8153, 8197, 8190, 8172, 8150, 8182, 8196, 8154, 8137, 8277,2.9007911682128906
33, 8187, 8157, 8187, 8181, 8153, 8204, 8216, 8172, 8135, 8193, 8197, 8165, 8140, 8286,2.9085052013397217
34, 8185, 8180, 8157, 8191, 8077, 8201, 8078, 8150, 8146, 8217, 8207, 8189, 8179, 8322,2.9195048809051514
35, 8170, 8192, 8132, 8199, 8095, 8180, 8087, 8131, 8146, 8212, 8192, 8173, 8183, 8321,2.9244039058685303
36, 8182, 8185, 8190, 8193, 8184, 8197, 8249, 8140, 8115, 8177, 8185, 8160, 8145, 8293,2.9314029216766357
37, 8189, 8182, 8177, 8191, 8114, 8223, 8129, 8136, 8120, 8180, 8201, 8175, 8165, 8320,2.939547061920166
38, 8173, 8177, 8156, 8176, 8150, 8220, 8156, 8161, 8155, 8206, 8188, 8166, 8173, 8323,2.948493242263794
39, 8153, 8161, 8188, 8149, 8217, 8209, 8254, 8181, 8150, 8196, 8162, 8135, 8114, 8269,2.955449104309082
40, 8119, 8143, 8128, 8134, 8116, 8200, 8086, 8153, 8142, 8178, 8165, 8127, 8105, 8262,2.9635889530181885
41, 8137, 8143, 8141, 8129, 8155, 8194, 8177, 8180, 8154, 8176, 8173, 8145, 8125, 8278,2.9714596271514893
42, 8153, 8141, 8177, 8124, 8176, 8186, 8231, 8200, 8167, 8189, 8170, 8150, 8113, 8265,2.978381633758545
43, 8146, 8149, 8160, 8129, 8138, 8201, 8137, 8182, 8173, 8194, 8184, 8152, 8123, 8278,2.9876692295074463
44, 8178, 8166, 8175, 8153, 8156, 8227, 8131, 8185, 8176, 8195, 8204, 8181, 8171, 8320,2.994450330734253
45, 8193, 8179, 8173, 8184, 8174, 8219, 8166, 8192, 8174, 8205, 8192, 8191, 8184, 8320,3.0024964809417725
46, 8220, 8204, 8246, 8198, 8251, 8215, 8331, 8221, 8158, 8203, 8183, 8187, 8147, 8296,3.010589838027954
47, 8223, 8198, 8239, 8191, 8166, 8224, 8193, 8203, 8168, 8208, 8192, 8188, 8146, 8320,3.0185818672180176
48, 8191, 8186, 8168, 8188, 8111, 8220, 8096, 8180, 8175, 8187, 8187, 8189, 8159, 8340,3.0265142917633057
49, 8207, 8199, 8215, 8188, 8196, 8204, 8232, 8205, 8157, 8158, 8182, 8201, 8146, 8320,3.034467935562134
50, 8193, 8187, 8182, 8177, 8147, 8194, 8139, 8191, 8161, 8184, 8181, 8192, 8153, 8309,3.0425636768341064
51, 8176, 8160, 8164, 8158, 8143, 8216, 8181, 8195, 8167, 8185, 8172, 8173, 8150, 8303,3.0495777130126953
52, 8178, 8152, 8185, 8161, 8135, 8223, 8181, 8198, 8174, 8177, 8174, 8166, 8137, 8300,3.058562994003296
53, 8169, 8157, 8162, 8173, 8131, 8208, 8132, 8185, 8188, 8215, 8179, 8170, 8149, 8311,3.0657458305358887
54, 8177, 8148, 8180, 8153, 8155, 8208, 8210, 8189, 8172, 8216, 8174, 8187, 8165, 8313,3.0734622478485107
55, 8169, 8138, 8158, 8127, 8071, 8199, 8127, 8165, 8143, 8185, 8173, 8188, 8173, 8308,3.0815463066101074
56, 8182, 8157, 8169, 8138, 8101, 8192, 8168, 8176, 8149, 8199, 8177, 8182, 8168, 8317,3.089557409286499
57, 8199, 8160, 8188, 8158, 8134, 8202, 8187, 8192, 8177, 8222, 8184, 8188, 8168, 8336,3.0976107120513916
58, 8188, 8155, 8165, 8164, 8111, 8207, 8147, 8179, 8178, 8202, 8180, 8187, 8172, 8341,3.1054561138153076
59, 8187, 8175, 8184, 8166, 8129, 8197, 8209, 8184, 8157, 8182, 8162, 8169, 8149, 8316,3.1135451793670654
60, 8173, 8166, 8152, 8159, 8085, 8187, 8134, 8168, 8161, 8183, 8160, 8155, 8135, 8299,3.121534585952759
61, 8174, 8150, 8154, 8152, 8107, 8199, 8171, 8167, 8162, 8182, 8183, 8172, 8146, 8296,3.1285552978515625
62, 8179, 8162, 8180, 8160, 8105, 8192, 8193, 8174, 8147, 8187, 8179, 8186, 8156, 8298,3.136608600616455
63, 8164, 8174, 8142, 8164, 8068, 8176, 8115, 8158, 8154, 8183, 8151, 8174, 8157, 8304,3.1446845531463623
64, 8177, 8172, 8174, 8155, 8141, 8194, 8202, 8165, 8156, 8173, 8161, 8181, 8164, 8299,3.152564287185669
65, 8183, 8166, 8191, 8161, 8133, 8201, 8166, 8168, 8158, 8201, 8187, 8202, 8189, 8310,3.1604814529418945
66, 8173, 8185, 8140, 8180, 8070, 8187, 8076, 8162, 8171, 8218, 8184, 8199, 8196, 8326,3.168511152267456
67, 8177, 8193, 8126, 8178, 8066, 8197, 8109, 8166, 8169, 8204, 8167, 8183, 8176, 8314,3.176612615585327
68, 8164, 8164, 8136, 8158, 8098, 8213, 8162, 8179, 8164, 8206, 8157, 8173, 8163, 8303,3.184532880783081
69, 8167, 8156, 8166, 8153, 8130, 8207, 8196, 8195, 8172, 8199, 8165, 8177, 8157, 8308,3.1926066875457764
70, 8188, 8179, 8164, 8166, 8099, 8190, 8150, 8188, 8182, 8186, 8183, 8188, 8173, 8320,3.199453592300415
71, 8205, 8181, 8205, 8166, 8156, 8196, 8268, 8198, 8165, 8183, 8187, 8193, 8181, 8312,3.207599639892578
72, 8197, 8160, 8225, 8160, 8145, 8200, 8244, 8193, 8156, 8192, 8171, 8187, 8162, 8291,3.215533971786499
73, 8157, 8160, 8136, 8165, 8058, 8193, 8065, 8166, 8182, 8208, 8164, 8165, 8159, 8280,3.223581314086914
74, 8153, 8165, 8144, 8158, 8120, 8189, 8165, 8174, 8181, 8192, 8170, 8153, 8153, 8272,3.231475830078125
75, 8152, 8153, 8151, 8156, 8104, 8170, 8129, 8153, 8160, 8168, 8163, 8161, 8143, 8269,3.239548921585083
76, 8162, 8158, 8127, 8166, 8098, 8159, 8103, 8146, 8153, 8154, 8157, 8173, 8138, 8264,3.247587203979492
77, 8197, 8168, 8174, 8157, 8146, 8161, 8211, 8181, 8144, 8155, 8162, 8181, 8135, 8257,3.255570650100708
78, 8165, 8150, 8141, 8142, 8086, 8150, 8110, 8170, 8136, 8169, 8158, 8170, 8146, 8266,3.2624895572662354
79, 8141, 8152, 8132, 8151, 8118, 8148, 8133, 8162, 8129, 8166, 8157, 8165, 8143, 8272,3.270707607269287
80, 8173, 8172, 8182, 8166, 8169, 8160, 8207, 8173, 8127, 8162, 8164, 8176, 8140, 8273,3.2785933017730713
81, 8175, 8166, 8168, 8165, 8134, 8164, 8147, 8169, 8130, 8176, 8164, 8173, 8154, 8277,3.287621259689331
82, 8148, 8152, 8135, 8163, 8111, 8167, 8110, 8165, 8134, 8185, 8164, 8167, 8165, 8282,3.2945473194122314
83, 8154, 8165, 8151, 8163, 8139, 8173, 8160, 8167, 8138, 8178, 8169, 8175, 8158, 8290,3.3037004470825195
84, 8193, 8189, 8206, 8165, 8176, 8174, 8228, 8181, 8145, 8186, 8171, 8189, 8150, 8298,3.310600519180298
85, 8178, 8173, 8151, 8172, 8097, 8165, 8079, 8166, 8168, 8210, 8168, 8189, 8172, 8309,3.3186933994293213
86, 8160, 8152, 8140, 8162, 8150, 8162, 8176, 8174, 8159, 8187, 8161, 8180, 8155, 8295,3.326630115509033
87, 8200, 8165, 8254, 8149, 8240, 8173, 8371, 8196, 8114, 8146, 8159, 8183, 8108, 8265,3.3334646224975586
88, 8182, 8178, 8187, 8170, 8084, 8173, 8086, 8150, 8133, 8179, 8177, 8188, 8137, 8278,3.3415069580078125
89, 8169, 8178, 8121, 8189, 8061, 8177, 8043, 8154, 8178, 8219, 8191, 8198, 8185, 8317,3.349590539932251
90, 8204, 8168, 8175, 8172, 8120, 8177, 8195, 8186, 8169, 8201, 8171, 8202, 8178, 8326,3.3574013710021973
91, 8189, 8157, 8157, 8159, 8091, 8159, 8139, 8160, 8141, 8182, 8145, 8171, 8153, 8291,3.3655176162719727
92, 8178, 8163, 8162, 8164, 8129, 8157, 8158, 8152, 8129, 8181, 8159, 8163, 8135, 8260,3.373589038848877
93, 8190, 8167, 8169, 8162, 8133, 8160, 8155, 8153, 8129, 8166, 8179, 8186, 8137, 8275,3.381561756134033
94, 8182, 8160, 8157, 8152, 8126, 8164, 8170, 8146, 8114, 8139, 8164, 8183, 8136, 8288,3.388561487197876
95, 8160, 8152, 8149, 8152, 8109, 8169, 8156, 8133, 8111, 8145, 8154, 8159, 8123, 8271,3.396770715713501
96, 8164, 8158, 8169, 8161, 8138, 8165, 8186, 8142, 8128, 8172, 8172, 8161, 8134, 8259,3.40455961227417
97, 8184, 8167, 8199, 8159, 8158, 8164, 8213, 8151, 8126, 8178, 8179, 8181, 8151, 8274,3.412461280822754
98, 8145, 8153, 8125, 8148, 8072, 8159, 8073, 8126, 8124, 8178, 8164, 8169, 8150, 8284,3.4205844402313232
99, 8150, 8157, 8174, 8148, 8166, 8142, 8243, 8172, 8136, 8174, 8162, 8169, 8142, 8278,3.428624391555786
100, 8199, 8162, 8260, 8161, 8200, 8127, 8309, 8216, 8167, 8199, 8173, 8201, 8160, 8295,3.436591625213623
101, 8157, 8147, 8138, 8165, 8037, 8131, 8046, 8186, 8203, 8235, 8170, 8188, 8184, 8314,3.444605588912964
102, 8122, 8158, 8103, 8151, 8084, 8155, 8112, 8196, 8205, 8201, 8164, 8160, 8159, 8280,3.452526569366455
103, 8134, 8165, 8159, 8138, 8157, 8163, 8181, 8200, 8176, 8173, 8164, 8162, 8137, 8254,3.4604997634887695
104, 8132, 8148, 8149, 8146, 8131, 8150, 8127, 8176, 8143, 8182, 8158, 8170, 8140, 8261,3.467589855194092
105, 8140, 8153, 8161, 8151, 8134, 8131, 8170, 8171, 8128, 8167, 8162, 8175, 8139, 8263,3.4755194187164307
106, 8165, 8176, 8184, 8146, 8135, 8133, 8171, 8166, 8135, 8168, 8169, 8182, 8140, 8274,3.4835145473480225
107, 8193, 8182, 8198, 8155, 8146, 8163, 8172, 8166, 8140, 8182, 8165, 8194, 8149, 8294,3.491544485092163
108, 8193, 8169, 8182, 8172, 8149, 8171, 8160, 8159, 8142, 8182, 8173, 8196, 8167, 8303,3.4995203018188477
109, 8195, 8176, 8194, 8185, 8190, 8162, 8229, 8164, 8137, 8174, 8181, 8194, 8169, 8297,3.5074973106384277
110, 8182, 8176, 8173, 8190, 8140, 8164, 8138, 8154, 8139, 8185, 8172, 8189, 8165, 8300,3.515521764755249
111, 8154, 8162, 8120, 8174, 8112, 8170, 8073, 8152, 8159, 8203, 8167, 8181, 8179, 8309,3.522625684738159
112, 8213, 8173, 8241, 8162, 8247, 8174, 8354, 8209, 8157, 8193, 8175, 8202, 8177, 8308,3.5304677486419678
113, 8228, 8179, 8246, 8180, 8134, 8151, 8222, 8187, 8148, 8193, 8169, 8209, 8181, 8312,3.53852915763855
114, 8177, 8177, 8140, 8188, 8056, 8139, 8071, 8142, 8141, 8199, 8158, 8183, 8179, 8305,3.546565532684326
115, 8207, 8175, 8200, 8184, 8166, 8165, 8236, 8166, 8122, 8186, 8160, 8184, 8152, 8293,3.5545456409454346
116, 8220, 8164, 8193, 8191, 8125, 8173, 8147, 8154, 8130, 8178, 8161, 8195, 8149, 8306,3.56272554397583
117, 8200, 8162, 8170, 8172, 8131, 8169, 8159, 8150, 8147, 8176, 8159, 8189, 8150, 8303,3.570542097091675
118, 8191, 8164, 8180, 8153, 8113, 8165, 8161, 8167, 8159, 8186, 8161, 8189, 8151, 8300,3.578599691390991
119, 8203, 8172, 8172, 8174, 8088, 8171, 8143, 8187, 8176, 8189, 8160, 8201, 8170, 8319,3.586606740951538
120, 8224, 8184, 8194, 8190, 8132, 8175, 8201, 8201, 8174, 8179, 8161, 8207, 8176, 8321,3.59365177154541
121, 8196, 8184, 8162, 8185, 8108, 8170, 8123, 8181, 8169, 8184, 8161, 8186, 8171, 8308,3.6015939712524414
122, 8192, 8183, 8177, 8188, 8140, 8178, 8178, 8181, 8168, 8185, 8159, 8171, 8157, 8294,3.6096034049987793
123, 8218, 8188, 8193, 8200, 8137, 8176, 8174, 8175, 8172, 8186, 8166, 8183, 8168, 8302,3.617671012878418
124, 8206, 8198, 8163, 8200, 8115, 8172, 8146, 8159, 8171, 8190, 8174, 8196, 8194, 8317,3.6256093978881836
125, 8182, 8187, 8179, 8179, 8140, 8182, 8218, 8152, 8146, 8173, 8159, 8188, 8170, 8293,3.6336073875427246
126, 8159, 8163, 8158, 8174, 8101, 8170, 8127, 8125, 8130, 8160, 8146, 8169, 8141, 8260,3.6417365074157715
127, 8184, 8187, 8171, 8212, 8138, 8159, 8151, 8138, 8137, 8175, 8160, 8185, 8160, 8276,3.649636745452881
238, 8222, 8214, 8214, 8227, 8176, 8168, 8222, 8169, 8147, 8189, 8170, 8211, 8185, 8309,3.656487464904785
0, 8184, 8182, 8146, 8198, 8110, 8161, 8096, 8151, 8157, 8186, 8156, 8191, 8180, 8306,3.664510726928711
1, 8165, 8172, 8110, 8200, 8098, 8163, 8067, 8149, 8166, 8201, 8162, 8191, 8194, 8303,3.6727638244628906
2, 8204, 8203, 8162, 8216, 8139, 8181, 8162, 8175, 8167, 8224, 8173, 8221, 8221, 8325,3.6815905570983887
3, 8206, 8193, 8178, 8191, 8156, 8175, 8195, 8184, 8159, 8207, 8148, 8208, 8196, 8320,3.6887030601501465
4, 8158, 8154, 8119, 8177, 8105, 8172, 8095, 8169, 8172, 8192, 8141, 8181, 8177, 8297,3.696697950363159
5, 8157, 8171, 8125, 8195, 8132, 8196, 8141, 8181, 8202, 8211, 8156, 8188, 8201, 8291,3.7047715187072754
6, 8201, 8201, 8207, 8198, 8200, 8197, 8264, 8211, 8201, 8219, 8146, 8203, 8198, 8291,3.7126660346984863
7, 8174, 8170, 8158, 8192, 8122, 8165, 8126, 8182, 8193, 8198, 8127, 8189, 8181, 8295,3.7196531295776367
8, 8141, 8151, 8125, 8187, 8122, 8168, 8142, 8173, 8188, 8169, 8130, 8175, 8176, 8293,3.7275876998901367
9, 8154, 8170, 8171, 8172, 8149, 8188, 8206, 8193, 8177, 8169, 8132, 8170, 8178, 8286,3.7357020378112793
10, 8136, 8164, 8133, 8170, 8095, 8181, 8101, 8177, 8170, 8188, 8123, 8162, 8182, 8288,3.7436723709106445
11, 8143, 8156, 8163, 8184, 8165, 8181, 8218, 8183, 8163, 8179, 8126, 8178, 8171, 8282,3.7516725063323975
12, 8168, 8164, 8199, 8188, 8177, 8183, 8221, 8171, 8166, 8182, 8131, 8195, 8176, 8286,3.759744644165039
13, 8158, 8166, 8157, 8192, 8143, 8174, 8120, 8138, 8166, 8198, 8123, 8184, 8196, 8302,3.7675161361694336
14, 8143, 8159, 8146, 8188, 8149, 8171, 8139, 8132, 8147, 8174, 8117, 8168, 8192, 8297,3.775693416595459
15, 8135, 8153, 8151, 8167, 8127, 8163, 8150, 8138, 8137, 8166, 8119, 8162, 8178, 8284,3.7836945056915283
16, 8151, 8162, 8176, 8170, 8136, 8146, 8174, 8155, 8155, 8192, 8119, 8173, 8188, 8283,3.790543794631958
17, 8146, 8173, 8148, 8196, 8113, 8150, 8088, 8149, 8184, 8211, 8118, 8180, 8213, 8292,3.7986931800842285
18, 8137, 8187, 8150, 8197, 8163, 8184, 8168, 8159, 8178, 8197, 8113, 8174, 8197, 8282,3.806694984436035
19, 8163, 8185, 8189, 8180, 8173, 8192, 8225, 8170, 8157, 8177, 8106, 8180, 8178, 8270,3.8147387504577637
20, 8153, 8159, 8132, 8170, 8099, 8169, 8098, 8144, 8153, 8172, 8109, 8181, 8187, 8285,3.822553873062134
21, 8154, 8158, 8171, 8162, 8179, 8175, 8240, 8166, 8128, 8151, 8111, 8179, 8164, 8290,3.830669403076172
22, 8161, 8166, 8202, 8165, 8153, 8170, 8199, 8169, 8112, 8147, 8113, 8178, 8155, 8283,3.8387043476104736
23, 8146, 8163, 8142, 8171, 8103, 8154, 8067, 8153, 8141, 8158, 8119, 8182, 8180, 8285,3.846698522567749
24, 8154, 8164, 8174, 8161, 8216, 8175, 8210, 8181, 8158, 8156, 8125, 8191, 8176, 8279,3.8536109924316406
25, 8143, 8158, 8174, 8163, 8215, 8173, 8186, 8174, 8155, 8169, 8117, 8176, 8165, 8261,3.861504554748535
26, 8143, 8164, 8155, 8177, 8173, 8154, 8142, 8156, 8152, 8174, 8113, 8163, 8158, 8253,3.8696560859680176
27, 8162, 8187, 8171, 8194, 8164, 8169, 8161, 8156, 8152, 8162, 8120, 8181, 8157, 8269,3.877595901489258
28, 8163, 8197, 8180, 8209, 8180, 8178, 8180, 8156, 8151, 8173, 8124, 8187, 8170, 8272,3.8855955600738525
29, 8167, 8182, 8181, 8209, 8174, 8164, 8154, 8149, 8148, 8185, 8129, 8180, 8175, 8263,3.8935604095458984
30, 8163, 8174, 8144, 8202, 8142, 8160, 8098, 8140, 8156, 8170, 8128, 8179, 8182, 8280,3.9016029834747314
31, 8189, 8195, 8196, 8199, 8226, 8173, 8258, 8172, 8150, 8156, 8129, 8193, 8194, 8292,3.909593105316162
32, 8199, 8191, 8209, 8196, 8174, 8168, 8188, 8167, 8142, 8186, 8143, 8206, 8212, 8300,3.9165029525756836
33, 8180, 8175, 8143, 8197, 8100, 8162, 8063, 8152, 8155, 8214, 8148, 8202, 8225, 8321,3.9246139526367188
34, 8209, 8194, 8198, 8212, 8199, 8163, 8231, 8189, 8162, 8199, 8139, 8201, 8211, 8321,3.9325363636016846
35, 8205, 8202, 8193, 8224, 8146, 8141, 8154, 8181, 8162, 8190, 8131, 8194, 8209, 8300,3.94083833694458
36, 8169, 8181, 8146, 8203, 8127, 8140, 8125, 8171, 8159, 8182, 8129, 8179, 8198, 8271,3.948584794998169
37, 8166, 8162, 8183, 8175, 8218, 8156, 8246, 8192, 8164, 8167, 8131, 8172, 8168, 8260,3.956636905670166
38, 8160, 8160, 8179, 8177, 8194, 8157, 8185, 8187, 8166, 8158, 8138, 8169, 8164, 8269,3.9657227993011475
39, 8155, 8179, 8157, 8194, 8145, 8166, 8127, 8174, 8159, 8157, 8140, 8171, 8173, 8271,3.972538471221924
40, 8155, 8191, 8147, 8196, 8143, 8163, 8116, 8149, 8158, 8162, 8128, 8165, 8168, 8272,3.9805586338043213
41, 8185, 8192, 8191, 8196, 8206, 8150, 8206, 8156, 8155, 8157, 8125, 8175, 8163, 8286,3.987581968307495
42, 8217, 8195, 8208, 8215, 8167, 8159, 8168, 8167, 8156, 8163, 8149, 8205, 8187, 8305,3.9956467151641846
43, 8207, 8202, 8160, 8219, 8122, 8169, 8105, 8153, 8164, 8183, 8154, 8211, 8212, 8316,4.003596782684326
44, 8225, 8196, 8199, 8196, 8191, 8156, 8227, 8170, 8158, 8191, 8141, 8215, 8209, 8332,4.011572360992432
45, 8226, 8172, 8186, 8189, 8141, 8133, 8134, 8178, 8157, 8202, 8142, 8218, 8218, 8345,4.0195488929748535
46, 8218, 8175, 8175, 8204, 8165, 8148, 8158, 8192, 8164, 8198, 8145, 8205, 8217, 8326,4.027582883834839
47, 8233, 8194, 8225, 8217, 8210, 8170, 8239, 8200, 8166, 8182, 8134, 8202, 8206, 8320,4.03543758392334
48, 8200, 8191, 8161, 8222, 8107, 8157, 8073, 8169, 8179, 8202, 8128, 8196, 8216, 8338,4.043476819992065
49, 8185, 8186, 8149, 8215, 8135, 8156, 8144, 8177, 8179, 8206, 8134, 8187, 8202, 8315,4.050612449645996
50, 8205, 8192, 8198, 8220, 8183, 8169, 8213, 8189, 8176, 8181, 8134, 8194, 8187, 8300,4.058395862579346
51, 8206, 8212, 8188, 8247, 8161, 8172, 8149, 8186, 8185, 8181, 8130, 8208, 8206, 8321,4.066455364227295
52, 8202, 8208, 8178, 8243, 8147, 8179, 8152, 8199, 8190, 8203, 8136, 8206, 8213, 8318,4.075638055801392
53, 8193, 8182, 8176, 8220, 8151, 8198, 8173, 8210, 8204, 8214, 8148, 8199, 8205, 8299,4.082570791244507
54, 8196, 8184, 8199, 8230, 8178, 8204, 8204, 8221, 8222, 8208, 8153, 8211, 8206, 8301,4.090432405471802
55, 8180, 8190, 8150, 8241, 8105, 8171, 8090, 8194, 8223, 8213, 8151, 8212, 8219, 8315,4.098668098449707
56, 8185, 8182, 8150, 8216, 8143, 8147, 8176, 8181, 8200, 8206, 8149, 8203, 8207, 8310,4.106416463851929
57, 8225, 8187, 8233, 8212, 8214, 8149, 8276, 8176, 8176, 8192, 8152, 8216, 8204, 8307,4.113589525222778
58, 8214, 8195, 8177, 8243, 8120, 8143, 8076, 8125, 8173, 8208, 8153, 8216, 8228, 8328,4.121694087982178
59, 8218, 8201, 8175, 8242, 8157, 8152, 8167, 8129, 8158, 8200, 8148, 8207, 8218, 8331,4.129685163497925
60, 8231, 8199, 8220, 8218, 8178, 8164, 8238, 8154, 8156, 8181, 8148, 8212, 8207, 8316,4.137786865234375
61, 8198, 8189, 8166, 8220, 8115, 8164, 8121, 8151, 8182, 8194, 8143, 8206, 8216, 8309,4.145590782165527
62, 8179, 8187, 8167, 8222, 8147, 8165, 8187, 8165, 8181, 8200, 8135, 8190, 8204, 8297,4.1537628173828125
63, 8175, 8186, 8175, 8205, 8151, 8168, 8195, 8165, 8168, 8195, 8129, 8181, 8191, 8284,4.1616833209991455
64, 8183, 8185, 8172, 8203, 8171, 8179, 8172, 8172, 8174, 8196, 8135, 8189, 8192, 8286,4.169663190841675
65, 8177, 8182, 8163, 8209, 8167, 8172, 8138, 8177, 8181, 8191, 8138, 8187, 8186, 8288,4.177616357803345
66, 8160, 8174, 8159, 8190, 8156, 8166, 8173, 8173, 8167, 8163, 8125, 8160, 8165, 8267,4.184709310531616
67, 8171, 8165, 8172, 8178, 8164, 8187, 8188, 8172, 8161, 8159, 8132, 8164, 8157, 8260,4.192575454711914
68, 8172, 8165, 8137, 8196, 8132, 8190, 8088, 8162, 8184, 8190, 8147, 8188, 8181, 8293,4.200680732727051
69, 8186, 8181, 8188, 8190, 8192, 8177, 8247, 8174, 8168, 8168, 8139, 8189, 8177, 8292,4.208723783493042
70, 8180, 8171, 8206, 8160, 8144, 8168, 8221, 8156, 8132, 8143, 8138, 8183, 8172, 8275,4.216738224029541
71, 8144, 8154, 8122, 8171, 8070, 8151, 8058, 8131, 8145, 8185, 8154, 8183, 8203, 8296,4.224555492401123
72, 8168, 8172, 8177, 8186, 8177, 8149, 8224, 8167, 8154, 8196, 8149, 8192, 8193, 8300,4.232539653778076
73, 8176, 8181, 8202, 8174, 8156, 8162, 8202, 8160, 8150, 8176, 8137, 8182, 8172, 8275,4.240721225738525
74, 8153, 8178, 8152, 8178, 8104, 8166, 8110, 8139, 8155, 8185, 8155, 8176, 8189, 8269,4.248587131500244
75, 8163, 8185, 8156, 8198, 8123, 8167, 8135, 8143, 8161, 8203, 8169, 8196, 8207, 8290,4.255709171295166
76, 8178, 8196, 8168, 8205, 8146, 8176, 8156, 8150, 8174, 8208, 8158, 8205, 8217, 8311,4.263739824295044
77, 8196, 8204, 8194, 8213, 8173, 8191, 8195, 8163, 8186, 8214, 8162, 8207, 8227, 8314,4.27257227897644
78, 8193, 8202, 8176, 8226, 8135, 8194, 8130, 8148, 8190, 8234, 8172, 8198, 8233, 8315,4.2797393798828125
79, 8190, 8210, 8188, 8222, 8167, 8199, 8203, 8151, 8175, 8223, 8158, 8188, 8214, 8301,4.287558555603027
80, 8188, 8207, 8191, 8220, 8153, 8198, 8181, 8156, 8172, 8202, 8146, 8190, 8202, 8285,4.2955193519592285
81, 8170, 8187, 8147, 8221, 8114, 8187, 8099, 8149, 8189, 8217, 8152, 8187, 8206, 8288,4.303622722625732
82, 8199, 8198, 8214, 8211, 8190, 8196, 8261, 8187, 8190, 8215, 8165, 8195, 8204, 8296,4.311704874038696
83, 8196, 8215, 8196, 8201, 8118, 8197, 8153, 8180, 8184, 8191, 8164, 8197, 8218, 8307,4.318481683731079
84, 8156, 8199, 8126, 8187, 8087, 8180, 8071, 8152, 8162, 8166, 8150, 8186, 8215, 8304,4.326670169830322
85, 8167, 8182, 8190, 8181, 8170, 8176, 8223, 8165, 8133, 8161, 8147, 8190, 8185, 8290,4.334598779678345
86, 8174, 8189, 8188, 8198, 8134, 8192, 8158, 8156, 8149, 8185, 8155, 8190, 8194, 8294,4.342761278152466
87, 8178, 8205, 8159, 8217, 8128, 8219, 8116, 8161, 8182, 8203, 8161, 8192, 8222, 8301,4.350630760192871
88, 8187, 8210, 8170, 8221, 8142, 8220, 8135, 8181, 8202, 8221, 8165, 8206, 8236, 8313,4.358464956283569
89, 8199, 8219, 8192, 8220, 8155, 8216, 8179, 8195, 8211, 8236, 8168, 8214, 8244, 8329,4.366722106933594
90, 8221, 8229, 8199, 8226, 8143, 8228, 8168, 8193, 8225, 8243, 8172, 8222, 8257, 8346,4.373596906661987
91, 8222, 8222, 8173, 8228, 8134, 8218, 8135, 8174, 8233, 8248, 8175, 8227, 8265, 8355,4.382536888122559
92, 8225, 8231, 8218, 8225, 8205, 8194, 8248, 8182, 8196, 8222, 8161, 8222, 8234, 8332,4.389698266983032
93, 8203, 8235, 8191, 8218, 8128, 8178, 8120, 8162, 8168, 8195, 8142, 8201, 8210, 8310,4.397686719894409
94, 8186, 8220, 8151, 8203, 8123, 8181, 8108, 8166, 8181, 8193, 8151, 8194, 8214, 8307,4.405731201171875
95, 8213, 8206, 8221, 8191, 8219, 8177, 8286, 8208, 8186, 8192, 8164, 8211, 8210, 8309,4.413638114929199
96, 8189, 8195, 8171, 8189, 8118, 8162, 8118, 8187, 8191, 8202, 8154, 8200, 8212, 8311,4.421489477157593
97, 8171, 8217, 8136, 8203, 8128, 8183, 8111, 8181, 8194, 8210, 8153, 8189, 8217, 8309,4.42967414855957
98, 8193, 8239, 8193, 8216, 8219, 8199, 8230, 8191, 8188, 8199, 8165, 8194, 8217, 8306,4.4375996589660645
99, 8176, 8226, 8176, 8195, 8184, 8171, 8160, 8169, 8187, 8195, 8159, 8184, 8214, 8298,4.444454669952393
100, 8175, 8221, 8176, 8181, 8175, 8164, 8161, 8171, 8195, 8210, 8158, 8187, 8220, 8299,4.452699184417725
101, 8206, 8243, 8203, 8214, 8195, 8196, 8198, 8184, 8206, 8235, 8179, 8209, 8250, 8327,4.460735559463501
102, 8222, 8254, 8208, 8238, 8197, 8216, 8218, 8191, 8214, 8245, 8183, 8221, 8265, 8347,4.472557783126831
103, 8194, 8238, 8168, 8225, 8142, 8202, 8122, 8178, 8213, 8239, 8167, 8209, 8263, 8333,4.4767396450042725
104, 8183, 8246, 8164, 8222, 8163, 8183, 8144, 8178, 8201, 8232, 8158, 8191, 8253, 8303,4.484769105911255
105, 8205, 8254, 8210, 8216, 8199, 8173, 8252, 8200, 8194, 8223, 8161, 8187, 8232, 8293,4.492773532867432
106, 8169, 8219, 8144, 8177, 8110, 8170, 8123, 8191, 8212, 8217, 8158, 8181, 8237, 8307,4.500706434249878
107, 8170, 8212, 8156, 8167, 8163, 8182, 8204, 8207, 8218, 8214, 8157, 8188, 8244, 8303,4.508681535720825
108, 8211, 8230, 8219, 8189, 8182, 8171, 8242, 8197, 8200, 8217, 8160, 8200, 8230, 8292,4.515500068664551
109, 8174, 8212, 8144, 8182, 8086, 8142, 8071, 8144, 8182, 8205, 8156, 8184, 8226, 8301,4.523605585098267
110, 8165, 8201, 8161, 8166, 8154, 8138, 8172, 8157, 8166, 8191, 8160, 8178, 8224, 8301,4.53146505355835
111, 8189, 8212, 8201, 8180, 8168, 8125, 8194, 8161, 8165, 8202, 8162, 8187, 8207, 8287,4.539541721343994
112, 8171, 8216, 8161, 8191, 8115, 8116, 8117, 8136, 8161, 8193, 8146, 8173, 8181, 8270,4.547613859176636
113, 8158, 8213, 8149, 8181, 8124, 8135, 8125, 8138, 8159, 8185, 8143, 8162, 8184, 8270,4.555481195449829
114, 8159, 8212, 8162, 8175, 8158, 8141, 8170, 8154, 8170, 8191, 8149, 8171, 8186, 8275,4.5635552406311035
115, 8147, 8203, 8177, 8169, 8167, 8133, 8203, 8161, 8164, 8175, 8142, 8172, 8160, 8249,4.571537733078003
116, 8119, 8182, 8128, 8163, 8091, 8123, 8103, 8139, 8158, 8184, 8144, 8162, 8172, 8242,4.578636884689331
117, 8148, 8186, 8164, 8165, 8141, 8135, 8216, 8154, 8157, 8188, 8150, 8172, 8187, 8257,4.586611747741699
118, 8175, 8192, 8221, 8166, 8128, 8161, 8221, 8165, 8156, 8175, 8146, 8186, 8173, 8255,4.594592809677124
119, 8137, 8188, 8155, 8167, 8055, 8162, 8071, 8145, 8164, 8191, 8146, 8181, 8184, 8257,4.60248327255249
120, 8167, 8194, 8213, 8167, 8199, 8148, 8276, 8181, 8164, 8193, 8157, 8189, 8191, 8265,4.610522747039795
121, 8170, 8170, 8220, 8159, 8183, 8142, 8220, 8176, 8170, 8174, 8164, 8181, 8185, 8264,4.618554592132568
122, 8113, 8153, 8147, 8155, 8119, 8157, 8106, 8156, 8172, 8158, 8154, 8158, 8174, 8249,4.629693269729614
123, 8130, 8173, 8182, 8161, 8171, 8154, 8206, 8178, 8164, 8160, 8146, 8166, 8166, 8240,4.634725570678711
124, 8140, 8174, 8159, 8163, 8147, 8120, 8135, 8172, 8179, 8183, 8151, 8172, 8181, 8249,4.641746520996094
125, 8128, 8160, 8159, 8151, 8186, 8133, 8182, 8184, 8190, 8194, 8164, 8168, 8182, 8249,4.649669885635376
126, 8129, 8173, 8174, 8153, 8172, 8155, 8168, 8183, 8189, 8197, 8161, 8172, 8183, 8254,4.657666444778442
127, 8147, 8203, 8171, 8176, 8164, 8136, 8154, 8169, 8188, 8208, 8157, 8179, 8191, 8274,4.665696620941162
238, 8181, 8211, 8205, 8193, 8194, 8121, 8195, 8160, 8180, 8211, 8163, 8194, 8190, 8286,4.67350959777832
0, 8174, 8200, 8184, 8195, 8146, 8127, 8106, 8132, 8172, 8201, 8163, 8199, 8195, 8286,4.681471586227417
1, 8166, 8197, 8185, 8188, 8174, 8134, 8169, 8131, 8154, 8181, 8159, 8194, 8193, 8276,4.689455986022949
2, 8160, 8201, 8176, 8188, 8170, 8130, 8140, 8133, 8152, 8191, 8158, 8186, 8192, 8282,4.697497606277466
3, 8152, 8213, 8127, 8200, 8113, 8128, 8028, 8135, 8179, 8223, 8163, 8186, 8210, 8304,4.7056660652160645
4, 8171, 8212, 8142, 8196, 8136, 8136, 8115, 8156, 8185, 8220, 8163, 8189, 8216, 8298,4.712534189224243
5, 8164, 8195, 8155, 8182, 8159, 8142, 8172, 8160, 8167, 8196, 8154, 8179, 8197, 8277,4.720645904541016
6, 8151, 8198, 8162, 8176, 8176, 8142, 8185, 8170, 8160, 8181, 8151, 8176, 8180, 8273,4.7286553382873535
7, 8168, 8206, 8177, 8173, 8166, 8146, 8177, 8176, 8172, 8185, 8159, 8184, 8189, 8282,4.736562967300415
8, 8189, 8204, 8198, 8179, 8167, 8163, 8206, 8180, 8183, 8198, 8166, 8186, 8203, 8281,4.744530916213989
9, 8181, 8209, 8193, 8196, 8149, 8162, 8163, 8181, 8186, 8194, 8164, 8192, 8200, 8286,4.7526679039001465
10, 8156, 8218, 8134, 8196, 8122, 8142, 8075, 8162, 8198, 8199, 8163, 8187, 8203, 8303,4.761586904525757
11, 8203, 8227, 8222, 8188, 8247, 8157, 8310, 8190, 8187, 8207, 8165, 8189, 8207, 8303,4.7685463428497314
12, 8227, 8231, 8268, 8208, 8196, 8165, 8257, 8175, 8153, 8198, 8165, 8199, 8206, 8299,4.775658130645752
13, 8183, 8239, 8167, 8226, 8103, 8131, 8037, 8118, 8136, 8186, 8170, 8192, 8210, 8302,4.783743143081665
14, 8219, 8251, 8222, 8224, 8248, 8136, 8230, 8153, 8143, 8193, 8189, 8210, 8226, 8318,4.791589736938477
15, 8236, 8236, 8228, 8225, 8210, 8160, 8178, 8154, 8158, 8217, 8193, 8224, 8251, 8342,4.799647808074951
16, 8186, 8220, 8130, 8224, 8121, 8150, 8036, 8097, 8138, 8208, 8176, 8197, 8237, 8326,4.807615518569946
17, 8202, 8226, 8158, 8223, 8185, 8138, 8143, 8106, 8114, 8193, 8180, 8195, 8227, 8308,4.81558084487915
18, 8229, 8224, 8185, 8215, 8200, 8140, 8175, 8140, 8132, 8202, 8187, 8215, 8242, 8328,4.823472261428833
19, 8197, 8208, 8157, 8192, 8191, 8127, 8167, 8140, 8139, 8195, 8167, 8195, 8219, 8321,4.831634759902954
20, 8169, 8199, 8157, 8183, 8200, 8119, 8172, 8136, 8137, 8187, 8153, 8166, 8193, 8293,4.8396642208099365
21, 8193, 8208, 8193, 8194, 8216, 8146, 8204, 8162, 8153, 8191, 8161, 8182, 8199, 8300,4.846789360046387
22, 8191, 8204, 8169, 8192, 8178, 8154, 8144, 8167, 8163, 8192, 8165, 8190, 8205, 8311,4.85448431968689
23, 8155, 8187, 8131, 8182, 8173, 8134, 8129, 8157, 8148, 8165, 8154, 8164, 8181, 8288,4.862425088882446
24, 8173, 8203, 8191, 8187, 8219, 8142, 8228, 8169, 8136, 8128, 8154, 8166, 8154, 8265,4.870513916015625
25, 8194, 8221, 8194, 8206, 8150, 8156, 8135, 8162, 8159, 8148, 8162, 8197, 8179, 8299,4.878592252731323
26, 8196, 8226, 8179, 8228, 8174, 8159, 8157, 8177, 8180, 8183, 8169, 8214, 8212, 8334,4.886533498764038
27, 8205, 8221, 8201, 8223, 8217, 8162, 8213, 8191, 8170, 8171, 8166, 8202, 8202, 8306,4.894542455673218
28, 8175, 8205, 8139, 8197, 8135, 8157, 8076, 8154, 8164, 8158, 8160, 8176, 8188, 8280,4.902496099472046
29, 8180, 8208, 8165, 8187, 8202, 8159, 8183, 8158, 8160, 8166, 8163, 8187, 8192, 8299,4.909605026245117
30, 8191, 8203, 8204, 8195, 8230, 8152, 8210, 8155, 8141, 8171, 8166, 8198, 8201, 8317,4.917728424072266
31, 8161, 8179, 8150, 8185, 8180, 8135, 8113, 8132, 8127, 8159, 8161, 8169, 8195, 8293,4.9255499839782715
32, 8158, 8168, 8137, 8166, 8178, 8137, 8127, 8141, 8140, 8150, 8157, 8156, 8185, 8273,4.933725357055664
33, 8165, 8174, 8162, 8159, 8214, 8147, 8185, 8158, 8161, 8166, 8155, 8171, 8195, 8281,4.941660642623901
34, 8184, 8184, 8250, 8162, 8316, 8163, 8341, 8193, 8151, 8175, 8158, 8185, 8189, 8276,4.94950270652771
35, 8167, 8180, 8208, 8164, 8223, 8158, 8163, 8183, 8154, 8161, 8165, 8166, 8177, 8265,4.957617282867432
36, 8147, 8170, 8134, 8156, 8169, 8146, 8080, 8173, 8176, 8141, 8158, 8146, 8171, 8264,4.965532064437866
37, 8183, 8169, 8207, 8154, 8244, 8148, 8241, 8197, 8169, 8135, 8156, 8172, 8169, 8281,4.973534822463989
38, 8164, 8168, 8173, 8161, 8186, 8139, 8122, 8169, 8161, 8141, 8160, 8171, 8167, 8294,4.980613946914673
39, 8151, 8169, 8158, 8157, 8211, 8134, 8168, 8162, 8152, 8121, 8145, 8139, 8130, 8254,4.988609552383423
40, 8168, 8164, 8191, 8153, 8197, 8135, 8178, 8164, 8152, 8113, 8142, 8143, 8115, 8231,4.996535539627075
41, 8146, 8160, 8117, 8162, 8106, 8134, 8026, 8132, 8165, 8131, 8159, 8164, 8145, 8274,5.0045084953308105
42, 8152, 8162, 8125, 8159, 8173, 8149, 8150, 8130, 8149, 8110, 8160, 8165, 8139, 8284,5.012721538543701
43, 8172, 8165, 8180, 8157, 8223, 8167, 8234, 8137, 8136, 8100, 8153, 8163, 8124, 8263,5.020828723907471
44, 8163, 8178, 8167, 8168, 8192, 8166, 8154, 8140, 8152, 8125, 8160, 8178, 8152, 8265,5.0287253856658936
45, 8160, 8180, 8156, 8165, 8181, 8154, 8121, 8141, 8156, 8128, 8171, 8188, 8180, 8279,5.035754919052124
46, 8193, 8182, 8200, 8170, 8219, 8160, 8204, 8141, 8143, 8126, 8171, 8192, 8182, 8302,5.043495416641235
47, 8194, 8187, 8194, 8188, 8194, 8160, 8163, 8137, 8151, 8149, 8175, 8190, 8191, 8314,5.051613092422485
48, 8146, 8178, 8113, 8180, 8135, 8139, 8044, 8140, 8180, 8184, 8180, 8169, 8215, 8297,5.059660196304321
49, 8169, 8184, 8181, 8162, 8238, 8152, 8234, 8190, 8191, 8187, 8176, 8166, 8209, 8275,5.067753076553345
50, 8182, 8174, 8203, 8158, 8205, 8175, 8202, 8198, 8193, 8176, 8165, 8169, 8188, 8287,5.07565975189209
51, 8122, 8152, 8104, 8158, 8143, 8165, 8072, 8183, 8203, 8178, 8157, 8151, 8177, 8286,5.083751201629639
52, 8138, 8165, 8201, 8156, 8292, 8164, 8319, 8230, 8201, 8173, 8162, 8150, 8151, 8248,5.0917534828186035
53, 8152, 8173, 8234, 8163, 8224, 8171, 8228, 8219, 8215, 8170, 8164, 8147, 8142, 8225,5.099573373794556
54, 8112, 8164, 8116, 8160, 8098, 8165, 8033, 8182, 8229, 8163, 8151, 8128, 8149, 8221,5.10662579536438
55, 8132, 8174, 8124, 8157, 8151, 8146, 8119, 8193, 8215, 8149, 8149, 8141, 8141, 8247,5.11474609375
56, 8166, 8192, 8169, 8178, 8173, 8132, 8135, 8190, 8207, 8146, 8164, 8174, 8150, 8286,5.122720003128052
57, 8167, 8194, 8183, 8192, 8196, 8139, 8165, 8184, 8200, 8139, 8168, 8179, 8160, 8276,5.130680561065674
58, 8157, 8182, 8176, 8173, 8223, 8142, 8187, 8172, 8183, 8128, 8154, 8157, 8148, 8244,5.138757228851318
59, 8160, 8178, 8171, 8153, 8223, 8144, 8171, 8159, 8165, 8134, 8160, 8161, 8150, 8255,5.146751165390015
60, 8155, 8172, 8147, 8156, 8182, 8149, 8093, 8148, 8160, 8153, 8172, 8185, 8181, 8291,5.15474796295166
61, 8136, 8159, 8118, 8150, 8197, 8141, 8110, 8143, 8149, 8140, 8162, 8175, 8178, 8283,5.162700653076172
62, 8159, 8163, 8176, 8129, 8270, 8144, 8251, 8164, 8123, 8118, 8158, 8161, 8146, 8258,5.169640779495239
63, 8160, 8171, 8167, 8131, 8197, 8152, 8127, 8158, 8128, 8128, 8167, 8170, 8155, 8270,5.1775736808776855
64, 8141, 8175, 8146, 8151, 8209, 8142, 8135, 8168, 8140, 8104, 8162, 8160, 8151, 8256,5.185756206512451
65, 8148, 8174, 8199, 8152, 8277, 8133, 8249, 8201, 8141, 8089, 8161, 8143, 8125, 8212,5.193724632263184
66, 8133, 8167, 8159, 8148, 8195, 8143, 8101, 8186, 8169, 8147, 8169, 8150, 8147, 8229,5.201498508453369
67, 8157, 8189, 8173, 8171, 8225, 8165, 8166, 8196, 8191, 8178, 8170, 8178, 8175, 8280,5.209643125534058
68, 8214, 8227, 8235, 8200, 8264, 8181, 8229, 8221, 8201, 8181, 8184, 8202, 8202, 8309,5.217737436294556
69, 8225, 8224, 8207, 8198, 8242, 8200, 8145, 8212, 8220, 8185, 8197, 8206, 8213, 8313,5.225515604019165
70, 8200, 8192, 8168, 8175, 8231, 8196, 8141, 8186, 8199, 8142, 8176, 8184, 8166, 8288,5.232724666595459
71, 8169, 8185, 8144, 8175, 8183, 8156, 8135, 8147, 8151, 8094, 8151, 8155, 8132, 8268,5.240820646286011
72, 8186, 8197, 8185, 8186, 8220, 8144, 8220, 8145, 8123, 8077, 8155, 8168, 8144, 8275,5.248751163482666
73, 8185, 8188, 8177, 8178, 8225, 8156, 8172, 8147, 8118, 8094, 8179, 8183, 8167, 8273,5.256718635559082
74, 8144, 8182, 8145, 8162, 8239, 8164, 8158, 8147, 8121, 8118, 8183, 8162, 8159, 8238,5.2647316455841064
75, 8135, 8187, 8180, 8157, 8258, 8169, 8214, 8164, 8133, 8125, 8167, 8154, 8145, 8226,5.272723436355591
76, 8126, 8184, 8145, 8174, 8188, 8172, 8112, 8166, 8161, 8145, 8166, 8168, 8179, 8262,5.281736850738525
77, 8141, 8203, 8186, 8196, 8261, 8191, 8229, 8206, 8179, 8163, 8190, 8189, 8201, 8281,5.2887585163116455
78, 8167, 8221, 8245, 8223, 8277, 8202, 8224, 8215, 8203, 8181, 8197, 8205, 8206, 8291,5.2967529296875
79, 8159, 8222, 8172, 8253, 8209, 8203, 8066, 8180, 8218, 8211, 8188, 8200, 8232, 8304,5.303652286529541
80, 8180, 8237, 8178, 8259, 8287, 8230, 8187, 8195, 8209, 8214, 8192, 8200, 8232, 8295,5.311717987060547
81, 8185, 8236, 8204, 8236, 8297, 8242, 8211, 8197, 8217, 8203, 8190, 8203, 8219, 8302,5.319787502288818
82, 8181, 8225, 8187, 8220, 8232, 8226, 8170, 8186, 8229, 8209, 8175, 8197, 8223, 8321,5.3274877071380615
83, 8206, 8234, 8175, 8230, 8157, 8210, 8143, 8171, 8220, 8196, 8167, 8195, 8233, 8321,5.335731267929077
84, 8225, 8245, 8180, 8225, 8160, 8201, 8156, 8161, 8203, 8158, 8162, 8195, 8227, 8317,5.343755483627319
85, 8230, 8240, 8206, 8218, 8207, 8200, 8198, 8182, 8185, 8150, 8158, 8196, 8210, 8321,5.351534128189087
86, 8196, 8217, 8151, 8224, 8163, 8193, 8112, 8177, 8175, 8158, 8155, 8177, 8192, 8310,5.3597657680511475
87, 8173, 8203, 8169, 8200, 8240, 8180, 8241, 8185, 8161, 8125, 8149, 8151, 8147, 8264,5.366761207580566
88, 8147, 8189, 8194, 8167, 8239, 8169, 8234, 8189, 8149, 8104, 8145, 8140, 8124, 8230,5.374750375747681
89, 8086, 8179, 8097, 8175, 8128, 8159, 8048, 8170, 8160, 8116, 8152, 8134, 8138, 8237,5.3827338218688965
90, 8096, 8188, 8139, 8188, 8208, 8159, 8202, 8189, 8158, 8106, 8163, 8144, 8131, 8239,5.390839576721191
91, 8117, 8180, 8180, 8167, 8197, 8152, 8191, 8163, 8143, 8087, 8162, 8158, 8126, 8239,5.398749828338623
92, 8113, 8173, 8134, 8152, 8135, 8145, 8097, 8118, 8121, 8085, 8156, 8165, 8139, 8253,5.406699895858765
93, 8156, 8193, 8179, 8173, 8192, 8145, 8203, 8129, 8108, 8105, 8170, 8184, 8152, 8275,5.414746999740601
94, 8189, 8218, 8215, 8197, 8233, 8148, 8212, 8144, 8135, 8130, 8189, 8199, 8168, 8293,5.422767639160156
95, 8164, 8219, 8174, 8197, 8221, 8166, 8139, 8147, 8166, 8135, 8182, 8195, 8177, 8288,5.430691480636597
96, 8106, 8194, 8098, 8194, 8165, 8188, 8068, 8150, 8185, 8154, 8179, 8182, 8189, 8289,5.437750577926636
97, 8103, 8186, 8121, 8196, 8221, 8206, 8180, 8187, 8207, 8179, 8185, 8182, 8207, 8304,5.4457926750183105
98, 8146, 8195, 8173, 8192, 8234, 8206, 8206, 8206, 8226, 8177, 8186, 8190, 8210, 8315,5.453558444976807
99, 8175, 8199, 8156, 8187, 8167, 8190, 8125, 8195, 8221, 8162, 8177, 8184, 8199, 8314,5.461748838424683
100, 8226, 8209, 8228, 8195, 8232, 8200, 8277, 8218, 8202, 8160, 8175, 8194, 8190, 8304,5.470821857452393
101, 8231, 8198, 8228, 8191, 8194, 8205, 8192, 8205, 8212, 8174, 8177, 8197, 8194, 8304,5.477495193481445
102, 8191, 8178, 8154, 8170, 8161, 8201, 8105, 8190, 8226, 8159, 8170, 8171, 8185, 8297,5.485752820968628
103, 8199, 8176, 8196, 8156, 8234, 8212, 8248, 8215, 8213, 8132, 8165, 8162, 8169, 8268,5.493753433227539
104, 8174, 8174, 8173, 8148, 8181, 8193, 8159, 8192, 8200, 8144, 8161, 8169, 8180, 8254,5.500748634338379
105, 8135, 8165, 8130, 8134, 8155, 8159, 8122, 8169, 8181, 8128, 8155, 8162, 8169, 8253,5.508744955062866
106, 8137, 8149, 8138, 8122, 8183, 8156, 8160, 8159, 8152, 8086, 8149, 8145, 8128, 8240,5.516753911972046
107, 8138, 8147, 8146, 8131, 8214, 8162, 8164, 8148, 8126, 8077, 8153, 8144, 8116, 8233,5.524832010269165
108, 8130, 8164, 8158, 8150, 8223, 8156, 8157, 8156, 8120, 8094, 8167, 8161, 8140, 8253,5.532752990722656
109, 8115, 8174, 8138, 8160, 8203, 8147, 8125, 8160, 8135, 8121, 8171, 8166, 8162, 8275,5.540825605392456
110, 8127, 8176, 8170, 8154, 8261, 8144, 8234, 8173, 8133, 8119, 8168, 8160, 8144, 8260,5.54873251914978
111, 8123, 8164, 8152, 8140, 8215, 8138, 8141, 8159, 8137, 8101, 8165, 8152, 8129, 8248,5.556593894958496
112, 8119, 8160, 8125, 8134, 8194, 8145, 8120, 8163, 8152, 8096, 8154, 8150, 8130, 8259,5.564745187759399
113, 8160, 8156, 8207, 8135, 8251, 8164, 8287, 8197, 8145, 8091, 8146, 8157, 8115, 8250,5.571527004241943
114, 8131, 8128, 8158, 8126, 8146, 8162, 8124, 8165, 8149, 8087, 8153, 8145, 8112, 8226,5.57951283454895
115, 8087, 8119, 8107, 8106, 8151, 8172, 8128, 8154, 8158, 8084, 8157, 8126, 8101, 8202,5.587538719177246
116, 8100, 8126, 8167, 8097, 8213, 8170, 8260, 8170, 8137, 8082, 8147, 8128, 8084, 8195,5.5955657958984375
117, 8098, 8118, 8141, 8101, 8150, 8135, 8142, 8151, 8124, 8079, 8147, 8137, 8096, 8212,5.603550910949707
118, 8106, 8116, 8134, 8102, 8160, 8136, 8121, 8162, 8133, 8092, 8163, 8152, 8118, 8232,5.612519264221191
119, 8136, 8135, 8177, 8116, 8192, 8165, 8172, 8185, 8150, 8112, 8170, 8159, 8142, 8247,5.6195292472839355
120, 8158, 8156, 8201, 8131, 8202, 8168, 8210, 8194, 8153, 8106, 8161, 8156, 8145, 8242,5.626736879348755
121, 8155, 8152, 8175, 8117, 8151, 8145, 8115, 8178, 8159, 8113, 8164, 8163, 8143, 8246,5.634725093841553
122, 8152, 8133, 8164, 8094, 8163, 8153, 8119, 8166, 8168, 8134, 8172, 8172, 8150, 8263,5.642736911773682
123, 8184, 8131, 8219, 8104, 8240, 8176, 8240, 8176, 8158, 8115, 8169, 8179, 8152, 8265,5.650739669799805
124, 8191, 8147, 8177, 8133, 8165, 8170, 8092, 8151, 8161, 8116, 8172, 8188, 8168, 8278,5.658720254898071
125, 8204, 8168, 8200, 8134, 8226, 8180, 8204, 8176, 8171, 8132, 8178, 8191, 8169, 8285,5.666735887527466
126, 8205, 8163, 8254, 8117, 8277, 8190, 8297, 8202, 8170, 8106, 8166, 8179, 8149, 8265,5.674828290939331
127, 8145, 8140, 8160, 8120, 8169, 8159, 8093, 8158, 8161, 8103, 8152, 8162, 8150, 8254,5.682600021362305
238, 8152, 8156, 8175, 8143, 8204, 8149, 8177, 8156, 8146, 8114, 8162, 8172, 8156, 8265,5.690722465515137
0, 8161, 8172, 8183, 8163, 8192, 8153, 8170, 8158, 8154, 8103, 8170, 8176, 8160, 8275,5.697721242904663
1, 8135, 8164, 8151, 8161, 8182, 8142, 8146, 8152, 8156, 8092, 8155, 8157, 8141, 8253,5.705650806427002
2, 8144, 8162, 8181, 8154, 8199, 8137, 8197, 8159, 8137, 8088, 8149, 8151, 8119, 8232,5.7137274742126465
3, 8138, 8165, 8152, 8165, 8167, 8137, 8119, 8150, 8138, 8086, 8158, 8154, 8135, 8243,5.721726655960083
4, 8140, 8166, 8163, 8166, 8230, 8145, 8179, 8155, 8139, 8082, 8162, 8158, 8138, 8241,5.729580640792847
5, 8155, 8145, 8183, 8145, 8223, 8149, 8187, 8150, 8138, 8090, 8160, 8158, 8122, 8225,5.73771071434021
6, 8157, 8138, 8146, 8138, 8148, 8146, 8100, 8141, 8155, 8104, 8166, 8159, 8134, 8245,5.745745897293091
7, 8151, 8159, 8116, 8151, 8132, 8143, 8074, 8138, 8168, 8113, 8169, 8166, 8162, 8271,5.753479957580566
8, 8142, 8160, 8114, 8152, 8159, 8140, 8125, 8138, 8164, 8102, 8159, 8154, 8149, 8251,5.760720729827881
9, 8161, 8149, 8169, 8147, 8221, 8147, 8246, 8171, 8160, 8080, 8159, 8152, 8121, 8226,5.768780946731567
10, 8163, 8150, 8172, 8153, 8190, 8139, 8169, 8172, 8154, 8092, 8170, 8170, 8145, 8246,5.7767791748046875
11, 8152, 8170, 8149, 8166, 8171, 8120, 8123, 8151, 8131, 8097, 8164, 8165, 8159, 8259,5.784626245498657
12, 8194, 8201, 8203, 8187, 8203, 8132, 8217, 8170, 8123, 8079, 8160, 8176, 8143, 8261,5.792585372924805
13, 8221, 8214, 8202, 8208, 8165, 8146, 8158, 8177, 8157, 8102, 8175, 8209, 8170, 8295,5.800634860992432
14, 8218, 8204, 8186, 8195, 8181, 8143, 8149, 8165, 8161, 8118, 8178, 8206, 8192, 8303,5.807491779327393
15, 8215, 8179, 8190, 8169, 8184, 8145, 8158, 8153, 8129, 8088, 8161, 8179, 8164, 8276,5.816602945327759
16, 8198, 8168, 8170, 8164, 8187, 8161, 8159, 8160, 8137, 8092, 8156, 8176, 8150, 8265,5.823575019836426
17, 8171, 8170, 8159, 8167, 8214, 8167, 8161, 8167, 8159, 8125, 8162, 8177, 8166, 8262,5.831486463546753
18, 8153, 8155, 8136, 8160, 8173, 8153, 8103, 8151, 8143, 8107, 8159, 8159, 8170, 8255,5.839629173278809
19, 8184, 8148, 8186, 8157, 8194, 8147, 8234, 8177, 8118, 8068, 8159, 8162, 8152, 8249,5.847434043884277
20, 8183, 8149, 8191, 8164, 8163, 8137, 8183, 8192, 8143, 8093, 8170, 8177, 8160, 8261,5.855584621429443
21, 8157, 8155, 8141, 8162, 8159, 8136, 8094, 8178, 8166, 8121, 8166, 8173, 8184, 8275,5.863519191741943
22, 8192, 8163, 8190, 8162, 8247, 8146, 8221, 8188, 8146, 8097, 8160, 8174, 8170, 8274,5.871432781219482
23, 8195, 8168, 8178, 8188, 8202, 8128, 8127, 8176, 8166, 8109, 8175, 8181, 8168, 8287,5.87949800491333
24, 8199, 8191, 8194, 8219, 8223, 8126, 8165, 8191, 8200, 8134, 8186, 8206, 8196, 8314,5.887567520141602
25, 8245, 8204, 8252, 8220, 8259, 8146, 8257, 8202, 8182, 8125, 8170, 8223, 8211, 8323,5.894422769546509
26, 8230, 8195, 8175, 8210, 8206, 8142, 8115, 8151, 8156, 8118, 8156, 8184, 8185, 8306,5.902461051940918
27, 8203, 8188, 8143, 8215, 8238, 8141, 8117, 8141, 8145, 8099, 8160, 8158, 8152, 8280,5.910435438156128
28, 8194, 8179, 8167, 8213, 8223, 8148, 8159, 8158, 8143, 8078, 8162, 8169, 8166, 8268,5.918414115905762
29, 8176, 8163, 8172, 8184, 8196, 8143, 8208, 8162, 8122, 8070, 8150, 8157, 8158, 8246,5.926700592041016
30, 8152, 8147, 8157, 8158, 8178, 8136, 8171, 8149, 8099, 8072, 8144, 8129, 8115, 8218,5.934624195098877
31, 8157, 8155, 8162, 8175, 8210, 8154, 8169, 8161, 8122, 8082, 8157, 8140, 8122, 8234,5.942434310913086
32, 8205, 8172, 8244, 8187, 8275, 8167, 8299, 8202, 8145, 8087, 8172, 8172, 8150, 8258,5.950592041015625
33, 8180, 8151, 8184, 8166, 8150, 8143, 8120, 8174, 8145, 8091, 8169, 8154, 8149, 8255,5.957608938217163
34, 8152, 8135, 8138, 8155, 8157, 8142, 8121, 8171, 8161, 8103, 8160, 8138, 8139, 8240,5.9654319286346436
35, 8179, 8149, 8204, 8165, 8237, 8166, 8230, 8199, 8192, 8132, 8168, 8170, 8161, 8256,5.973587512969971
36, 8176, 8164, 8172, 8179, 8187, 8170, 8118, 8182, 8202, 8132, 8176, 8181, 8196, 8289,5.982541561126709
37, 8202, 8180, 8188, 8184, 8222, 8171, 8206, 8192, 8183, 8093, 8170, 8174, 8166, 8281,5.9895429611206055
38, 8214, 8170, 8184, 8178, 8179, 8162, 8164, 8185, 8178, 8097, 8162, 8170, 8138, 8267,5.997546672821045
39, 8192, 8155, 8154, 8165, 8181, 8152, 8137, 8177, 8175, 8118, 8162, 8166, 8163, 8275,6.00551438331604
40, 8183, 8160, 8180, 8162, 8237, 8141, 8196, 8180, 8156, 8108, 8169, 8168, 8169, 8277,6.013500928878784
41, 8146, 8151, 8138, 8153, 8179, 8114, 8126, 8147, 8138, 8090, 8155, 8148, 8132, 8251,6.021458864212036
42, 8132, 8135, 8137, 8135, 8183, 8116, 8187, 8150, 8127, 8072, 8134, 8125, 8103, 8208,6.028517246246338
43, 8142, 8133, 8152, 8133, 8175, 8134, 8153, 8166, 8148, 8098, 8152, 8140, 8136, 8219,6.0365986824035645
44, 8153, 8135, 8156, 8131, 8181, 8131, 8150, 8173, 8164, 8115, 8174, 8161, 8157, 8254,6.044567346572876
45, 8175, 8138, 8183, 8130, 8175, 8130, 8209, 8182, 8157, 8086, 8164, 8153, 8135, 8250,6.052599191665649
46, 8158, 8150, 8145, 8150, 8106, 8138, 8119, 8180, 8178, 8103, 8156, 8131, 8142, 8228,6.060599327087402
47, 8141, 8159, 8152, 8165, 8161, 8145, 8177, 8202, 8189, 8135, 8165, 8142, 8150, 8223,6.068549871444702
48, 8147, 8152, 8180, 8156, 8181, 8147, 8195, 8206, 8174, 8125, 8167, 8165, 8150, 8244,6.076486587524414
49, 8136, 8148, 8129, 8141, 8117, 8152, 8083, 8175, 8176, 8119, 8164, 8150, 8160, 8250,6.084508180618286
50, 8114, 8150, 8096, 8126, 8102, 8159, 8079, 8163, 8185, 8128, 8157, 8126, 8151, 8225,6.091609954833984
51, 8104, 8141, 8117, 8108, 8140, 8162, 8169, 8177, 8181, 8112, 8144, 8117, 8126, 8205,6.099543809890747
52, 8126, 8132, 8198, 8094, 8230, 8167, 8323, 8215, 8167, 8090, 8149, 8127, 8109, 8194,6.107562065124512
53, 8121, 8119, 8196, 8095, 8181, 8165, 8216, 8209, 8179, 8112, 8174, 8138, 8126, 8207,6.115606784820557
54, 8112, 8128, 8148, 8116, 8114, 8162, 8093, 8188, 8205, 8140, 8185, 8148, 8162, 8247,6.123445510864258
55, 8159, 8167, 8175, 8153, 8133, 8157, 8141, 8187, 8196, 8138, 8180, 8168, 8187, 8275,6.131469964981079
56, 8164, 8184, 8141, 8173, 8104, 8148, 8090, 8159, 8166, 8131, 8173, 8174, 8193, 8281,6.139510154724121
57, 8150, 8178, 8155, 8168, 8169, 8159, 8189, 8161, 8150, 8130, 8167, 8174, 8178, 8278,6.14757513999939
58, 8171, 8172, 8203, 8165, 8188, 8169, 8205, 8172, 8166, 8144, 8178, 8180, 8180, 8279,6.155694007873535
59, 8167, 8171, 8146, 8170, 8130, 8167, 8086, 8157, 8185, 8153, 8186, 8169, 8185, 8275,6.162630796432495
60, 8167, 8172, 8157, 8158, 8189, 8178, 8218, 8172, 8166, 8124, 8172, 8159, 8155, 8252,6.17035436630249
61, 8169, 8167, 8191, 8152, 8189, 8172, 8229, 8174, 8145, 8105, 8156, 8152, 8135, 8242,6.17873740196228
62, 8147, 8165, 8154, 8172, 8148, 8158, 8108, 8155, 8153, 8117, 8154, 8143, 8145, 8244,6.186509132385254
63, 8139, 8166, 8143, 8185, 8153, 8160, 8115, 8151, 8158, 8125, 8170, 8153, 8156, 8241,6.194699048995972
64, 8157, 8168, 8174, 8175, 8163, 8158, 8209, 8159, 8142, 8118, 8178, 8167, 8159, 8251,6.203702449798584
65, 8168, 8167, 8186, 8161, 8157, 8160, 8208, 8163, 8136, 8107, 8172, 8165, 8160, 8276,6.211456537246704
66, 8141, 8161, 8122, 8160, 8116, 8168, 8065, 8145, 8156, 8134, 8171, 8152, 8179, 8294,6.218616247177124
67, 8168, 8185, 8181, 8171, 8224, 8177, 8244, 8176, 8165, 8147, 8180, 8160, 8183, 8279,6.225571155548096
68, 8209, 8200, 8259, 8189, 8233, 8168, 8287, 8189, 8158, 8117, 8185, 8186, 8176, 8286,6.2334911823272705
69, 8182, 8172, 8152, 8196, 8106, 8152, 8019, 8143, 8162, 8112, 8177, 8187, 8189, 8328,6.24156379699707
70, 8196, 8162, 8134, 8177, 8165, 8154, 8102, 8164, 8160, 8129, 8167, 8177, 8188, 8325,6.249608516693115
71, 8188, 8165, 8152, 8165, 8179, 8154, 8159, 8191, 8170, 8140, 8160, 8159, 8174, 8283,6.257585525512695
72, 8118, 8147, 8112, 8151, 8159, 8163, 8145, 8184, 8188, 8139, 8158, 8134, 8156, 8253,6.265505790710449
73, 8117, 8133, 8148, 8127, 8198, 8175, 8236, 8186, 8180, 8133, 8163, 8132, 8145, 8245,6.2735161781311035
74, 8141, 8140, 8156, 8128, 8153, 8156, 8156, 8161, 8161, 8132, 8163, 8130, 8151, 8239,6.2816009521484375
75, 8150, 8161, 8153, 8162, 8134, 8142, 8119, 8152, 8158, 8133, 8171, 8142, 8165, 8252,6.288636684417725
76, 8180, 8183, 8189, 8194, 8158, 8152, 8165, 8167, 8176, 8157, 8186, 8179, 8197, 8305,6.297747850418091
77, 8205, 8201, 8221, 8203, 8184, 8163, 8207, 8174, 8180, 8182, 8186, 8185, 8210, 8319,6.304696083068848
78, 8174, 8189, 8175, 8185, 8143, 8159, 8136, 8162, 8166, 8168, 8171, 8158, 8189, 8265,6.312676191329956
79, 8120, 8163, 8097, 8156, 8107, 8149, 8080, 8149, 8168, 8138, 8162, 8149, 8181, 8247,6.320512294769287
80, 8139, 8160, 8154, 8142, 8193, 8156, 8230, 8168, 8167, 8137, 8168, 8161, 8180, 8279,6.3286590576171875
81, 8143, 8144, 8162, 8123, 8171, 8158, 8155, 8164, 8160, 8147, 8164, 8149, 8166, 8267,6.3366053104400635
82, 8122, 8132, 8128, 8111, 8163, 8152, 8129, 8162, 8152, 8131, 8158, 8146, 8161, 8237,6.344461679458618
83, 8154, 8160, 8199, 8144, 8208, 8144, 8257, 8165, 8135, 8114, 8166, 8170, 8165, 8252,6.351550102233887
84, 8151, 8172, 8159, 8176, 8110, 8131, 8104, 8117, 8130, 8130, 8166, 8161, 8172, 8274,6.359513759613037
85, 8141, 8156, 8128, 8159, 8144, 8138, 8150, 8122, 8125, 8131, 8150, 8139, 8158, 8249,6.367747068405151
86, 8152, 8148, 8185, 8149, 8213, 8142, 8258, 8154, 8121, 8120, 8151, 8145, 8146, 8229,6.375642776489258
87, 8142, 8163, 8166, 8172, 8159, 8131, 8144, 8152, 8148, 8142, 8170, 8160, 8164, 8261,6.383476972579956
88, 8146, 8177, 8145, 8180, 8141, 8145, 8114, 8162, 8165, 8157, 8172, 8159, 8175, 8277,6.391509771347046
89, 8150, 8175, 8151, 8180, 8150, 8162, 8147, 8174, 8165, 8144, 8165, 8145, 8176, 8257,6.399589538574219
90, 8157, 8182, 8190, 8189, 8186, 8164, 8225, 8190, 8166, 8133, 8167, 8149, 8176, 8253,6.407509803771973
91, 8157, 8189, 8174, 8196, 8137, 8160, 8146, 8172, 8166, 8148, 8167, 8153, 8180, 8281,6.414743661880493
92, 8161, 8186, 8146, 8198, 8137, 8162, 8139, 8160, 8158, 8148, 8163, 8142, 8179, 8287,6.422688245773315
93, 8177, 8183, 8200, 8181, 8193, 8162, 8250, 8179, 8144, 8124, 8169, 8149, 8170, 8266,6.430579900741577
94, 8153, 8177, 8169, 8167, 8101, 8151, 8122, 8158, 8146, 8135, 8177, 8164, 8175, 8268,6.438503742218018
95, 8162, 8180, 8170, 8180, 8143, 8160, 8181, 8170, 8160, 8154, 8177, 8166, 8175, 8279,6.446511745452881
96, 8188, 8177, 8199, 8193, 8204, 8167, 8222, 8191, 8185, 8160, 8176, 8167, 8187, 8288,6.45477557182312
97, 8135, 8164, 8129, 8174, 8137, 8144, 8093, 8157, 8174, 8143, 8166, 8151, 8195, 8276,6.462590217590332
98, 8127, 8174, 8163, 8159, 8174, 8144, 8210, 8158, 8130, 8112, 8161, 8151, 8169, 8256,6.470627069473267
99, 8169, 8181, 8197, 8167, 8178, 8159, 8213, 8174, 8141, 8133, 8176, 8170, 8172, 8280,6.478698253631592
100, 8158, 8171, 8152, 8165, 8154, 8156, 8143, 8173, 8169, 8155, 8179, 8158, 8183, 8284,6.485535621643066
101, 8116, 8165, 8129, 8160, 8136, 8149, 8125, 8156, 8151, 8139, 8165, 8133, 8170, 8238,6.4936559200286865
102, 8106, 8165, 8130, 8161, 8146, 8158, 8145, 8148, 8130, 8126, 8153, 8126, 8154, 8220,6.501661777496338
103, 8140, 8166, 8173, 8153, 8185, 8164, 8230, 8177, 8135, 8124, 8162, 8139, 8143, 8230,6.509514093399048
104, 8134, 8164, 8151, 8160, 8119, 8148, 8129, 8184, 8164, 8140, 8174, 8148, 8162, 8239,6.517700672149658
105, 8147, 8172, 8185, 8181, 8178, 8150, 8194, 8203, 8184, 8152, 8183, 8169, 8189, 8258,6.52564001083374
106, 8202, 8180, 8241, 8184, 8222, 8164, 8233, 8206, 8181, 8161, 8197, 8195, 8203, 8306,6.533668756484985
107, 8179, 8165, 8150, 8165, 8119, 8154, 8078, 8161, 8173, 8162, 8187, 8171, 8195, 8322,6.541716575622559
108, 8155, 8161, 8155, 8156, 8170, 8145, 8196, 8165, 8148, 8124, 8164, 8150, 8170, 8275,6.5496556758880615
109, 8157, 8167, 8194, 8166, 8186, 8140, 8181, 8170, 8137, 8119, 8174, 8167, 8184, 8257,6.5566816329956055
110, 8150, 8173, 8141, 8171, 8128, 8134, 8076, 8159, 8148, 8165, 8187, 8174, 8206, 8286,6.564663648605347
111, 8172, 8170, 8163, 8163, 8157, 8137, 8194, 8174, 8131, 8164, 8170, 8164, 8179, 8284,6.572761058807373
112, 8172, 8158, 8195, 8156, 8160, 8145, 8201, 8168, 8104, 8133, 8164, 8151, 8156, 8254,6.580715656280518
113, 8163, 8166, 8187, 8161, 8147, 8152, 8143, 8158, 8100, 8142, 8183, 8158, 8174, 8248,6.588610410690308
114, 8173, 8174, 8156, 8165, 8128, 8148, 8098, 8152, 8118, 8165, 8189, 8178, 8194, 8278,6.596609354019165
115, 8183, 8166, 8172, 8156, 8196, 8154, 8188, 8169, 8126, 8157, 8176, 8179, 8191, 8305,6.604573965072632
116, 8166, 8158, 8181, 8155, 8202, 8155, 8174, 8184, 8135, 8158, 8168, 8165, 8193, 8311,6.612523794174194
117, 8139, 8155, 8121, 8155, 8142, 8133, 8080, 8175, 8156, 8175, 8170, 8156, 8205, 8284,6.619613409042358
118, 8187, 8160, 8217, 8139, 8271, 8140, 8330, 8204, 8134, 8153, 8169, 8165, 8174, 8232,6.627558708190918
119, 8187, 8144, 8238, 8119, 8220, 8136, 8243, 8177, 8108, 8133, 8160, 8154, 8143, 8227,6.635613441467285
120, 8112, 8131, 8096, 8122, 8086, 8099, 7993, 8121, 8113, 8140, 8151, 8124, 8150, 8265,6.64345908164978
121, 8128, 8150, 8138, 8140, 8188, 8107, 8179, 8148, 8094, 8131, 8160, 8139, 8153, 8266,6.651360511779785
122, 8157, 8169, 8191, 8162, 8197, 8135, 8198, 8153, 8077, 8143, 8179, 8169, 8179, 8259,6.659595489501953
123, 8151, 8183, 8164, 8185, 8176, 8136, 8116, 8141, 8095, 8173, 8189, 8181, 8217, 8286,6.667645215988159
124, 8159, 8192, 8174, 8185, 8222, 8131, 8156, 8152, 8111, 8174, 8173, 8177, 8211, 8309,6.675572872161865
125, 8165, 8183, 8180, 8174, 8221, 8125, 8182, 8153, 8095, 8160, 8152, 8151, 8169, 8282,6.6824140548706055
126, 8161, 8173, 8159, 8170, 8164, 8109, 8141, 8148, 8079, 8151, 8158, 8133, 8151, 8233,6.690645694732666
127, 8146, 8185, 8129, 8172, 8140, 8109, 8098, 8151, 8098, 8153, 8174, 8147, 8187, 8243,6.698612451553345
238, 8155, 8191, 8178, 8172, 8227, 8132, 8227, 8188, 8119, 8158, 8175, 8169, 8208, 8285,6.707658290863037
0, 8147, 8159, 8175, 8157, 8197, 8135, 8174, 8190, 8123, 8166, 8165, 8151, 8186, 8281,6.714691162109375
1, 8146, 8153, 8154, 8152, 8192, 8130, 8163, 8180, 8116, 8164, 8155, 8132, 8162, 8252,6.722509145736694
2, 8198, 8187, 8250, 8168, 8289, 8137, 8334, 8205, 8112, 8156, 8169, 8165, 8165, 8255,6.730542182922363
3, 8177, 8176, 8201, 8174, 8196, 8132, 8142, 8178, 8134, 8173, 8182, 8172, 8190, 8282,6.7386252880096436
4, 8148, 8152, 8154, 8157, 8202, 8131, 8126, 8168, 8125, 8169, 8170, 8142, 8180, 8277,6.746753931045532
5, 8176, 8159, 8199, 8148, 8244, 8124, 8213, 8168, 8085, 8154, 8155, 8133, 8151, 8255,6.754704713821411
6, 8160, 8172, 8153, 8164, 8164, 8118, 8112, 8147, 8087, 8145, 8154, 8137, 8140, 8248,6.76150918006897
7, 8155, 8173, 8171, 8161, 8188, 8132, 8195, 8164, 8089, 8112, 8160, 8148, 8121, 8232,6.769551038742065
8, 8147, 8149, 8163, 8143, 8175, 8119, 8150, 8147, 8068, 8108, 8160, 8141, 8120, 8215,6.777575969696045
9, 8123, 8140, 8143, 8142, 8180, 8101, 8158, 8129, 8048, 8114, 8156, 8123, 8123, 8201,6.785610675811768
10, 8130, 8158, 8176, 8162, 8158, 8099, 8185, 8121, 8029, 8100, 8162, 8134, 8123, 8207,6.793684959411621
11, 8148, 8168, 8167, 8184, 8115, 8104, 8116, 8098, 8020, 8106, 8170, 8155, 8148, 8244,6.801723957061768
12, 8175, 8170, 8191, 8181, 8180, 8128, 8190, 8116, 8029, 8122, 8171, 8162, 8166, 8260,6.809710741043091
13, 8155, 8163, 8156, 8169, 8131, 8127, 8117, 8128, 8055, 8144, 8176, 8157, 8185, 8256,6.816628456115723
14, 8123, 8145, 8099, 8148, 8079, 8105, 8081, 8131, 8060, 8164, 8178, 8151, 8195, 8256,6.8245627880096436
15, 8146, 8143, 8130, 8143, 8117, 8116, 8163, 8157, 8066, 8168, 8173, 8164, 8191, 8265,6.832702875137329
16, 8157, 8161, 8138, 8163, 8119, 8132, 8140, 8181, 8105, 8178, 8173, 8167, 8206, 8270,6.840698480606079
17, 8131, 8154, 8139, 8154, 8149, 8122, 8189, 8198, 8112, 8176, 8172, 8144, 8199, 8235,6.848642110824585
18, 8105, 8131, 8154, 8131, 8136, 8112, 8206, 8185, 8088, 8153, 8158, 8131, 8165, 8205,6.8565778732299805
19, 8113, 8144, 8149, 8146, 8079, 8110, 8145, 8161, 8096, 8141, 8154, 8138, 8147, 8217,6.864659786224365
20, 8127, 8166, 8139, 8162, 8075, 8100, 8135, 8151, 8104, 8149, 8161, 8137, 8142, 8219,6.872774362564087
21, 8114, 8159, 8142, 8153, 8119, 8105, 8164, 8148, 8089, 8147, 8158, 8132, 8143, 8214,6.879683971405029
22, 8121, 8168, 8176, 8168, 8146, 8127, 8192, 8160, 8095, 8142, 8160, 8148, 8160, 8233,6.888593435287476
23, 8130, 8179, 8146, 8184, 8087, 8116, 8096, 8156, 8112, 8162, 8164, 8150, 8164, 8250,6.8955864906311035
24, 8129, 8170, 8144, 8166, 8147, 8100, 8172, 8160, 8086, 8141, 8151, 8133, 8127, 8231,6.903566837310791
25, 8129, 8166, 8188, 8157, 8201, 8110, 8248, 8162, 8058, 8090, 8145, 8141, 8113, 8219,6.912476301193237
26, 8116, 8168, 8134, 8170, 8103, 8107, 8089, 8142, 8075, 8107, 8157, 8159, 8155, 8250,6.9196248054504395
27, 8161, 8178, 8174, 8172, 8190, 8107, 8218, 8178, 8077, 8148, 8169, 8167, 8169, 8275,6.927592515945435
28, 8184, 8173, 8213, 8163, 8227, 8115, 8239, 8180, 8065, 8148, 8163, 8164, 8155, 8269,6.935574769973755
29, 8130, 8167, 8121, 8160, 8117, 8112, 8067, 8132, 8063, 8128, 8155, 8147, 8158, 8257,6.943659782409668
30, 8143, 8183, 8145, 8167, 8143, 8110, 8152, 8158, 8054, 8128, 8163, 8147, 8169, 8272,6.950567722320557
31, 8180, 8173, 8183, 8169, 8150, 8108, 8154, 8169, 8056, 8154, 8166, 8153, 8175, 8290,6.958693265914917
32, 8162, 8149, 8149, 8146, 8116, 8103, 8133, 8150, 8067, 8143, 8156, 8146, 8155, 8260,6.966702699661255
33, 8133, 8152, 8136, 8128, 8100, 8115, 8178, 8167, 8077, 8116, 8153, 8142, 8142, 8233,6.974619388580322
34, 8122, 8163, 8154, 8130, 8129, 8143, 8206, 8196, 8103, 8134, 8158, 8140, 8152, 8240,6.982574462890625
35, 8118, 8145, 8159, 8131, 8128, 8154, 8166, 8187, 8127, 8158, 8159, 8133, 8153, 8239,6.990646123886108
36, 8105, 8130, 8114, 8128, 8085, 8126, 8083, 8157, 8126, 8158, 8156, 8123, 8160, 8238,6.998705625534058
37, 8136, 8155, 8174, 8130, 8199, 8121, 8253, 8184, 8100, 8145, 8163, 8141, 8160, 8249,7.006640195846558
38, 8154, 8135, 8209, 8133, 8185, 8137, 8219, 8181, 8090, 8150, 8173, 8162, 8159, 8263,7.013434171676636
39, 8128, 8053, 8132, 8131, 8074, 8133, 8054, 8136, 8091, 8164, 8163, 8147, 8167, 8263,7.021663665771484
40, 8155, 8008, 8179, 8129, 8152, 8130, 8207, 8151, 8074, 8152, 8156, 8149, 8166, 8256,7.029775142669678
41, 8153, 8003, 8175, 8132, 8127, 8131, 8163, 8144, 8078, 8140, 8173, 8164, 8177, 8270,7.037545919418335
42, 8116, 8001, 8118, 8132, 8082, 8133, 8104, 8132, 8100, 8149, 8173, 8155, 8182, 8271,7.046690940856934
43, 8141, 7985, 8169, 8127, 8127, 8132, 8192, 8154, 8109, 8168, 8157, 8154, 8173, 8260,7.053696632385254
44, 8148, 7972, 8175, 8123, 8116, 8125, 8139, 8158, 8119, 8169, 8167, 8160, 8190, 8271,7.061643838882446
45, 8130, 7982, 8152, 8129, 8126, 8139, 8153, 8171, 8138, 8165, 8186, 8164, 8210, 8281,7.069629192352295
46, 8131, 7994, 8148, 8137, 8121, 8160, 8163, 8180, 8155, 8188, 8187, 8172, 8213, 8280,7.07658576965332
47, 8145, 7986, 8169, 8134, 8131, 8166, 8181, 8176, 8146, 8192, 8173, 8169, 8200, 8277,7.084680557250977
48, 8152, 7980, 8183, 8140, 8128, 8159, 8163, 8164, 8133, 8182, 8170, 8164, 8196, 8278,7.093652725219727
49, 8148, 7989, 8154, 8158, 8119, 8154, 8126, 8165, 8151, 8193, 8179, 8172, 8208, 8292,7.1005470752716064
50, 8180, 7994, 8188, 8163, 8176, 8162, 8211, 8188, 8168, 8192, 8187, 8182, 8212, 8307,7.108568906784058
51, 8190, 7990, 8176, 8160, 8121, 8159, 8121, 8168, 8163, 8190, 8189, 8171, 8221, 8309,7.116666078567505
52, 8168, 7999, 8148, 8159, 8108, 8158, 8125, 8163, 8158, 8196, 8178, 8160, 8223, 8298,7.124559640884399
53, 8181, 8004, 8195, 8159, 8166, 8163, 8229, 8193, 8157, 8192, 8172, 8180, 8220, 8303,7.131553888320923
54, 8192, 7991, 8167, 8160, 8106, 8152, 8111, 8176, 8169, 8202, 8179, 8192, 8238, 8333,7.13959002494812
55, 8200, 7996, 8170, 8149, 8121, 8166, 8174, 8181, 8176, 8204, 8179, 8182, 8225, 8319,7.147633790969849
56, 8182, 7991, 8197, 8142, 8124, 8180, 8224, 8200, 8173, 8190, 8161, 8173, 8197, 8282,7.155764102935791
57, 8153, 7969, 8157, 8155, 8078, 8164, 8142, 8192, 8174, 8186, 8157, 8174, 8207, 8287,7.163559436798096
58, 8164, 7978, 8155, 8159, 8087, 8163, 8152, 8185, 8174, 8187, 8169, 8176, 8215, 8295,7.171763896942139
59, 8167, 7998, 8167, 8155, 8109, 8183, 8176, 8180, 8174, 8188, 8162, 8162, 8202, 8281,7.179698467254639
60, 8163, 7992, 8184, 8160, 8142, 8174, 8208, 8172, 8156, 8174, 8160, 8159, 8191, 8273,7.1877734661102295
61, 8150, 7977, 8134, 8162, 8070, 8137, 8067, 8133, 8140, 8166, 8170, 8166, 8204, 8289,7.19570517539978
62, 8159, 8003, 8134, 8159, 8117, 8134, 8137, 8133, 8128, 8164, 8156, 8155, 8194, 8280,7.203805685043335
63, 8192, 8021, 8226, 8164, 8211, 8149, 8304, 8174, 8113, 8140, 8146, 8147, 8158, 8250,7.211676120758057
64, 8148, 7987, 8153, 8162, 8075, 8143, 8082, 8155, 8134, 8146, 8165, 8155, 8179, 8274,7.218779802322388
65, 8138, 7981, 8125, 8162, 8083, 8147, 8109, 8160, 8156, 8167, 8179, 8176, 8210, 8308,7.226698160171509
66, 8192, 8009, 8189, 8170, 8155, 8155, 8212, 8175, 8158, 8171, 8163, 8181, 8203, 8300,7.234737157821655
67, 8179, 8007, 8154, 8166, 8119, 8155, 8116, 8156, 8157, 8176, 8151, 8160, 8193, 8278,7.242657423019409
68, 8158, 7992, 8171, 8155, 8155, 8155, 8211, 8172, 8147, 8173, 8161, 8166, 8187, 8278,7.250771999359131
69, 8175, 7994, 8195, 8154, 8149, 8146, 8221, 8179, 8144, 8168, 8163, 8184, 8193, 8302,7.2588067054748535
70, 8203, 8006, 8173, 8158, 8122, 8151, 8148, 8175, 8163, 8178, 8153, 8183, 8205, 8322,7.266484260559082
71, 8192, 8008, 8147, 8164, 8097, 8171, 8114, 8172, 8185, 8204, 8169, 8173, 8224, 8313,7.274698257446289
72, 8158, 8008, 8144, 8178, 8103, 8168, 8153, 8169, 8184, 8206, 8185, 8174, 8237, 8290,7.281732082366943
73, 8178, 8019, 8184, 8185, 8137, 8153, 8198, 8167, 8165, 8180, 8175, 8192, 8233, 8301,7.289494752883911
74, 8203, 8023, 8156, 8188, 8096, 8145, 8099, 8152, 8160, 8175, 8170, 8188, 8234, 8338,7.2975990772247314
75, 8209, 8024, 8164, 8195, 8148, 8161, 8189, 8180, 8158, 8187, 8174, 8171, 8228, 8324,7.3057262897491455
76, 8195, 8020, 8187, 8188, 8157, 8174, 8201, 8200, 8159, 8201, 8167, 8167, 8217, 8285,7.313873052597046
77, 8155, 8014, 8124, 8174, 8094, 8180, 8084, 8183, 8172, 8190, 8159, 8159, 8213, 8276,7.321613788604736
78, 8158, 8019, 8158, 8158, 8157, 8190, 8224, 8199, 8170, 8160, 8157, 8151, 8191, 8266,7.329618215560913
79, 8146, 8004, 8171, 8142, 8111, 8166, 8167, 8178, 8155, 8157, 8144, 8138, 8166, 8252,7.337698698043823
80, 8126, 7984, 8127, 8128, 8074, 8137, 8087, 8144, 8135, 8152, 8143, 8126, 8161, 8246,7.344703674316406
81, 8160, 7991, 8157, 8128, 8143, 8152, 8195, 8155, 8125, 8140, 8162, 8144, 8176, 8256,7.356677532196045
82, 8159, 8004, 8158, 8147, 8126, 8166, 8176, 8154, 8142, 8157, 8167, 8163, 8183, 8264,7.360721588134766
83, 8122, 8008, 8152, 8153, 8089, 8166, 8163, 8147, 8139, 8157, 8156, 8154, 8156, 8241,7.368653297424316
84, 8114, 8006, 8149, 8146, 8056, 8167, 8129, 8134, 8118, 8144, 8155, 8140, 8147, 8226,7.376712799072266
85, 8151, 8014, 8168, 8152, 8097, 8161, 8161, 8139, 8116, 8148, 8171, 8150, 8172, 8250,7.3847081661224365
86, 8175, 8020, 8169, 8168, 8108, 8162, 8150, 8152, 8130, 8156, 8181, 8167, 8192, 8274,7.392481088638306
87, 8147, 8017, 8121, 8171, 8080, 8184, 8088, 8159, 8150, 8166, 8168, 8159, 8193, 8266,7.400723695755005
88, 8145, 8024, 8174, 8166, 8161, 8194, 8222, 8196, 8163, 8174, 8161, 8153, 8182, 8254,7.407675504684448
89, 8119, 8016, 8159, 8156, 8138, 8174, 8150, 8189, 8181, 8178, 8168, 8144, 8186, 8265,7.4154980182647705
90, 8084, 8007, 8110, 8144, 8146, 8179, 8130, 8182, 8195, 8178, 8166, 8139, 8190, 8265,7.423772096633911
91, 8126, 8011, 8190, 8148, 8211, 8209, 8272, 8218, 8188, 8182, 8162, 8160, 8187, 8248,7.431710243225098
92, 8139, 8015, 8174, 8157, 8117, 8199, 8134, 8193, 8182, 8193, 8173, 8160, 8197, 8252,7.439817190170288
93, 8132, 8033, 8143, 8156, 8127, 8186, 8122, 8172, 8177, 8188, 8188, 8155, 8201, 8260,7.447606563568115
94, 8159, 8046, 8183, 8162, 8197, 8191, 8200, 8188, 8187, 8193, 8198, 8175, 8218, 8270,7.455705165863037
95, 8174, 8050, 8197, 8184, 8196, 8193, 8191, 8187, 8198, 8203, 8190, 8191, 8239, 8290,7.46373438835144
96, 8161, 8054, 8178, 8187, 8154, 8179, 8145, 8166, 8181, 8194, 8173, 8191, 8219, 8291,7.470620393753052
97, 8133, 8045, 8129, 8168, 8129, 8161, 8095, 8146, 8175, 8189, 8170, 8173, 8198, 8273,7.478601455688477
98, 8143, 8030, 8170, 8147, 8215, 8182, 8242, 8165, 8169, 8161, 8175, 8161, 8185, 8249,7.486712694168091
99, 8136, 8014, 8171, 8143, 8167, 8203, 8181, 8147, 8152, 8153, 8167, 8164, 8176, 8241,7.494717836380005
100, 8105, 8024, 8114, 8155, 8119, 8196, 8091, 8120, 8154, 8173, 8154, 8160, 8172, 8239,7.502739429473877
101, 8124, 8057, 8159, 8174, 8204, 8192, 8214, 8149, 8161, 8163, 8169, 8163, 8169, 8234,7.5107080936431885
102, 8124, 8065, 8147, 8190, 8155, 8184, 8126, 8153, 8162, 8165, 8191, 8175, 8198, 8254,7.518575191497803
103, 8135, 8067, 8150, 8195, 8153, 8181, 8160, 8165, 8161, 8194, 8191, 8189, 8220, 8279,7.526716232299805
104, 8181, 8081, 8213, 8193, 8186, 8188, 8241, 8178, 8166, 8209, 8195, 8199, 8229, 8294,7.534756660461426
105, 8178, 8071, 8172, 8183, 8129, 8173, 8127, 8151, 8164, 8203, 8194, 8188, 8239, 8298,7.541540861129761
106, 8165, 8066, 8151, 8177, 8159, 8160, 8138, 8147, 8159, 8203, 8172, 8179, 8223, 8282,7.549732446670532
107, 8165, 8083, 8171, 8177, 8210, 8175, 8181, 8160, 8182, 8213, 8170, 8183, 8210, 8275,7.557662010192871
108, 8152, 8082, 8167, 8164, 8202, 8196, 8192, 8173, 8195, 8201, 8181, 8173, 8209, 8273,7.5657877922058105
109, 8124, 8053, 8123, 8150, 8113, 8189, 8114, 8167, 8183, 8188, 8170, 8150, 8204, 8255,7.573735952377319
110, 8113, 8050, 8114, 8156, 8090, 8165, 8111, 8165, 8176, 8192, 8161, 8149, 8195, 8248,7.58171820640564
111, 8147, 8083, 8189, 8176, 8145, 8153, 8215, 8179, 8168, 8180, 8172, 8172, 8193, 8268,7.5897276401519775
112, 8148, 8089, 8163, 8196, 8104, 8142, 8105, 8156, 8164, 8179, 8172, 8170, 8210, 8281,7.597727060317993
113, 8162, 8081, 8170, 8194, 8184, 8151, 8188, 8165, 8154, 8173, 8164, 8169, 8202, 8267,7.604674816131592
114, 8188, 8082, 8219, 8178, 8216, 8168, 8239, 8175, 8152, 8167, 8179, 8186, 8190, 8274,7.612732887268066
115, 8153, 8088, 8140, 8173, 8110, 8162, 8061, 8141, 8175, 8180, 8181, 8177, 8211, 8295,7.620675802230835
116, 8156, 8093, 8157, 8169, 8167, 8167, 8208, 8157, 8168, 8173, 8166, 8157, 8203, 8275,7.628797769546509
117, 8163, 8074, 8198, 8152, 8158, 8171, 8251, 8153, 8150, 8161, 8173, 8147, 8173, 8249,7.636632680892944
118, 8123, 8063, 8141, 8154, 8089, 8155, 8097, 8123, 8154, 8173, 8183, 8144, 8170, 8251,7.644591331481934
119, 8129, 8076, 8132, 8174, 8103, 8154, 8103, 8140, 8158, 8180, 8173, 8153, 8184, 8256,7.652673244476318
120, 8153, 8086, 8154, 8173, 8096, 8167, 8169, 8164, 8154, 8161, 8170, 8152, 8185, 8254,7.660724401473999
121, 8168, 8097, 8187, 8171, 8087, 8164, 8207, 8177, 8150, 8166, 8190, 8161, 8182, 8266,7.668637037277222
122, 8164, 8106, 8164, 8191, 8047, 8144, 8094, 8170, 8164, 8196, 8196, 8180, 8203, 8296,7.675815105438232
123, 8165, 8109, 8159, 8197, 8127, 8146, 8161, 8183, 8176, 8192, 8179, 8184, 8210, 8309,7.683956623077393
124, 8169, 8111, 8184, 8184, 8188, 8163, 8233, 8194, 8184, 8184, 8169, 8179, 8202, 8303,7.691531181335449
125, 8141, 8100, 8134, 8176, 8090, 8159, 8111, 8171, 8198, 8204, 8175, 8168, 8216, 8298,7.699507236480713
126, 8155, 8089, 8168, 8168, 8123, 8171, 8226, 8187, 8190, 8208, 8186, 8174, 8219, 8285,7.707491397857666
127, 8164, 8088, 8176, 8164, 8128, 8194, 8194, 8186, 8205, 8221, 8186, 8178, 8210, 8279,7.715654134750366
238, 8136, 8102, 8116, 8180, 8101, 8187, 8104, 8169, 8231, 8237, 8173, 8155, 8199, 8275,7.723606586456299
0, 8140, 8109, 8163, 8186, 8154, 8171, 8226, 8189, 8205, 8214, 8168, 8147, 8184, 8252,7.731435537338257
1, 8133, 8090, 8158, 8165, 8122, 8174, 8159, 8178, 8178, 8195, 8171, 8154, 8185, 8249,7.738414525985718
2, 8129, 8086, 8131, 8144, 8141, 8189, 8143, 8173, 8185, 8198, 8175, 8162, 8189, 8264,7.746623992919922
3, 8145, 8099, 8154, 8149, 8147, 8170, 8173, 8181, 8192, 8216, 8172, 8168, 8194, 8276,7.75453519821167
4, 8151, 8112, 8162, 8160, 8104, 8144, 8162, 8175, 8179, 8216, 8161, 8165, 8194, 8277,7.762547731399536
5, 8152, 8118, 8164, 8162, 8112, 8160, 8169, 8173, 8181, 8189, 8160, 8165, 8182, 8271,7.771632671356201
6, 8140, 8116, 8146, 8165, 8151, 8173, 8149, 8168, 8199, 8195, 8172, 8165, 8190, 8276,7.778566122055054
7, 8164, 8137, 8223, 8165, 8254, 8171, 8308, 8196, 8179, 8201, 8178, 8170, 8191, 8277,7.786538600921631
8, 8166, 8142, 8226, 8173, 8179, 8167, 8205, 8183, 8160, 8185, 8181, 8170, 8185, 8278,7.794534206390381
9, 8128, 8127, 8133, 8177, 8089, 8172, 8070, 8156, 8189, 8188, 8176, 8157, 8188, 8274,7.802547931671143
10, 8151, 8128, 8181, 8168, 8137, 8173, 8231, 8189, 8207, 8199, 8171, 8162, 8185, 8260,7.809704065322876
11, 8145, 8125, 8172, 8165, 8079, 8154, 8142, 8185, 8189, 8202, 8176, 8165, 8192, 8264,7.817585706710815
12, 8127, 8120, 8150, 8164, 8127, 8157, 8155, 8189, 8178, 8179, 8174, 8148, 8183, 8255,7.8256707191467285
13, 8141, 8116, 8174, 8157, 8146, 8180, 8202, 8204, 8199, 8173, 8170, 8146, 8175, 8246,7.833729982376099
14, 8131, 8110, 8141, 8157, 8061, 8187, 8114, 8185, 8212, 8205, 8176, 8161, 8199, 8270,7.841667175292969
15, 8142, 8109, 8169, 8151, 8119, 8166, 8200, 8178, 8177, 8197, 8180, 8168, 8207, 8271,7.849684238433838
16, 8149, 8107, 8171, 8138, 8115, 8126, 8160, 8152, 8155, 8168, 8178, 8153, 8191, 8253,7.8577165603637695
17, 8129, 8106, 8108, 8146, 8050, 8127, 8058, 8126, 8161, 8172, 8171, 8146, 8182, 8262,7.865593671798706
18, 8121, 8105, 8082, 8156, 8046, 8152, 8063, 8123, 8157, 8175, 8163, 8153, 8188, 8283,7.872635841369629
19, 8152, 8122, 8139, 8160, 8129, 8151, 8187, 8148, 8154, 8156, 8171, 8164, 8193, 8287,7.880450010299683
20, 8191, 8144, 8217, 8171, 8208, 8160, 8267, 8187, 8166, 8164, 8193, 8177, 8194, 8284,7.8885393142700195
21, 8166, 8144, 8159, 8176, 8135, 8177, 8097, 8182, 8178, 8185, 8184, 8171, 8202, 8289,7.896676063537598
22, 8150, 8144, 8129, 8183, 8136, 8174, 8116, 8183, 8178, 8175, 8170, 8169, 8203, 8293,7.904691934585571
23, 8182, 8153, 8190, 8190, 8195, 8166, 8234, 8200, 8176, 8181, 8190, 8184, 8212, 8305,7.912684917449951
24, 8166, 8147, 8154, 8175, 8145, 8182, 8131, 8191, 8175, 8191, 8192, 8172, 8224, 8308,7.920447587966919
25, 8149, 8139, 8141, 8158, 8138, 8195, 8158, 8188, 8166, 8166, 8169, 8156, 8195, 8285,7.928634166717529
26, 8158, 8126, 8166, 8159, 8140, 8171, 8189, 8167, 8160, 8152, 8160, 8159, 8169, 8273,7.936585187911987
27, 8152, 8112, 8145, 8154, 8131, 8165, 8137, 8143, 8152, 8160, 8164, 8158, 8181, 8282,7.943390846252441
28, 8157, 8123, 8154, 8160, 8135, 8187, 8149, 8145, 8143, 8152, 8163, 8160, 8184, 8288,7.951566457748413
29, 8174, 8144, 8174, 8191, 8155, 8178, 8171, 8151, 8149, 8139, 8169, 8168, 8177, 8293,7.959536790847778
30, 8194, 8149, 8199, 8197, 8198, 8166, 8200, 8165, 8157, 8145, 8186, 8177, 8185, 8305,7.967636585235596
31, 8176, 8140, 8150, 8175, 8125, 8162, 8077, 8161, 8172, 8164, 8188, 8172, 8211, 8316,7.975655794143677
32, 8169, 8150, 8155, 8173, 8170, 8151, 8180, 8179, 8186, 8172, 8177, 8162, 8214, 8304,7.983558893203735
33, 8196, 8155, 8216, 8184, 8233, 8150, 8266, 8193, 8184, 8167, 8177, 8160, 8194, 8295,7.9917824268341064
34, 8160, 8135, 8130, 8176, 8121, 8160, 8070, 8156, 8179, 8160, 8173, 8142, 8183, 8291,7.998672008514404
35, 8147, 8132, 8162, 8154, 8185, 8172, 8253, 8184, 8162, 8124, 8164, 8136, 8152, 8256,8.007735013961792
36, 8163, 8130, 8227, 8140, 8196, 8177, 8287, 8200, 8167, 8110, 8163, 8145, 8144, 8251,8.014651775360107
37, 8128, 8116, 8118, 8139, 8070, 8177, 8026, 8155, 8181, 8139, 8163, 8140, 8169, 8282,8.022592782974243
38, 8122, 8118, 8098, 8145, 8103, 8181, 8104, 8156, 8166, 8131, 8163, 8140, 8165, 8270,8.030463457107544
39, 8140, 8118, 8153, 8141, 8149, 8184, 8200, 8164, 8162, 8121, 8163, 8153, 8155, 8247,8.038546323776245
40, 8153, 8111, 8162, 8129, 8142, 8191, 8175, 8167, 8169, 8134, 8162, 8161, 8157, 8262,8.047548532485962
41, 8148, 8107, 8130, 8129, 8104, 8199, 8127, 8173, 8169, 8120, 8163, 8150, 8157, 8278,8.054550170898438
42, 8135, 8108, 8131, 8122, 8127, 8207, 8182, 8181, 8170, 8094, 8157, 8137, 8142, 8263,8.062569379806519
43, 8130, 8093, 8151, 8098, 8151, 8193, 8188, 8176, 8169, 8105, 8147, 8142, 8125, 8248,8.069312572479248
44, 8111, 8072, 8107, 8097, 8112, 8174, 8092, 8158, 8176, 8132, 8146, 8140, 8128, 8252,8.077483892440796
45, 8131, 8087, 8161, 8111, 8189, 8193, 8259, 8183, 8176, 8107, 8153, 8139, 8120, 8241,8.085523128509521
46, 8134, 8105, 8189, 8108, 8157, 8196, 8214, 8176, 8173, 8086, 8158, 8144, 8120, 8237,8.093682765960693
47, 8114, 8106, 8132, 8114, 8096, 8178, 8073, 8155, 8172, 8105, 8164, 8148, 8146, 8265,8.101640462875366
48, 8154, 8110, 8192, 8130, 8176, 8191, 8225, 8188, 8172, 8122, 8170, 8167, 8145, 8280,8.109603881835938
49, 8152, 8110, 8180, 8130, 8130, 8192, 8151, 8171, 8193, 8131, 8167, 8174, 8139, 8279,8.117412090301514
50, 8141, 8120, 8167, 8123, 8149, 8191, 8177, 8169, 8196, 8119, 8162, 8165, 8147, 8276,8.125571727752686
51, 8168, 8132, 8218, 8132, 8176, 8201, 8244, 8194, 8172, 8123, 8173, 8173, 8161, 8288,8.132700204849243
52, 8153, 8119, 8170, 8139, 8122, 8174, 8122, 8178, 8174, 8144, 8176, 8173, 8171, 8297,8.14064073562622
53, 8141, 8116, 8162, 8123, 8179, 8156, 8170, 8179, 8176, 8139, 8169, 8162, 8155, 8271,8.148722171783447
54, 8140, 8124, 8155, 8117, 8156, 8179, 8153, 8180, 8184, 8147, 8170, 8155, 8157, 8269,8.15666675567627
55, 8144, 8128, 8151, 8131, 8140, 8198, 8167, 8184, 8199, 8161, 8169, 8155, 8167, 8289,8.164679288864136
56, 8147, 8125, 8174, 8140, 8156, 8185, 8185, 8178, 8195, 8158, 8163, 8153, 8159, 8268,8.172472715377808
57, 8126, 8124, 8141, 8134, 8126, 8177, 8113, 8164, 8196, 8156, 8165, 8140, 8155, 8236,8.180591106414795
58, 8143, 8139, 8160, 8138, 8165, 8193, 8192, 8192, 8216, 8149, 8170, 8148, 8159, 8249,8.188583135604858
59, 8161, 8143, 8179, 8154, 8161, 8202, 8185, 8203, 8229, 8160, 8167, 8171, 8167, 8275,8.195627927780151
60, 8140, 8130, 8138, 8144, 8125, 8198, 8108, 8177, 8211, 8181, 8162, 8169, 8166, 8266,8.203420400619507
61, 8137, 8117, 8116, 8124, 8113, 8177, 8094, 8156, 8187, 8168, 8167, 8157, 8162, 8258,8.211529970169067
62, 8147, 8118, 8112, 8128, 8108, 8162, 8097, 8143, 8190, 8151, 8174, 8159, 8166, 8274,8.219493865966797
63, 8144, 8113, 8138, 8121, 8151, 8171, 8179, 8161, 8199, 8149, 8170, 8167, 8158, 8272,8.227629661560059
64, 8148, 8100, 8160, 8094, 8149, 8172, 8183, 8172, 8192, 8136, 8166, 8165, 8150, 8264,8.23554015159607
65, 8177, 8118, 8175, 8113, 8134, 8163, 8161, 8164, 8172, 8123, 8178, 8170, 8159, 8284,8.243593215942383
66, 8175, 8143, 8156, 8152, 8135, 8160, 8123, 8150, 8161, 8145, 8179, 8181, 8164, 8299,8.251640319824219
67, 8140, 8137, 8129, 8158, 8172, 8163, 8142, 8144, 8165, 8150, 8160, 8169, 8144, 8278,8.259541273117065
68, 8169, 8136, 8205, 8160, 8230, 8182, 8296, 8170, 8158, 8111, 8154, 8157, 8116, 8250,8.266568183898926
69, 8167, 8134, 8170, 8157, 8099, 8180, 8131, 8152, 8154, 8106, 8160, 8148, 8125, 8254,8.274584293365479
70, 8121, 8124, 8114, 8143, 8102, 8156, 8118, 8147, 8153, 8117, 8159, 8139, 8125, 8244,8.28258228302002
71, 8146, 8137, 8222, 8154, 8230, 8161, 8340, 8186, 8145, 8112, 8162, 8148, 8102, 8218,8.290419340133667
72, 8147, 8153, 8193, 8168, 8124, 8172, 8164, 8164, 8160, 8143, 8165, 8144, 8123, 8227,8.298607110977173
73, 8136, 8160, 8151, 8161, 8122, 8170, 8147, 8163, 8167, 8157, 8160, 8135, 8130, 8232,8.306565761566162
74, 8158, 8164, 8188, 8176, 8163, 8171, 8203, 8175, 8159, 8142, 8175, 8149, 8127, 8236,8.314508438110352
75, 8162, 8177, 8169, 8196, 8130, 8182, 8123, 8162, 8166, 8135, 8185, 8160, 8155, 8263,8.322450876235962
76, 8181, 8200, 8196, 8196, 8182, 8190, 8205, 8176, 8162, 8132, 8174, 8170, 8168, 8279,8.329684495925903
77, 8182, 8192, 8182, 8194, 8156, 8181, 8172, 8185, 8158, 8144, 8169, 8175, 8169, 8281,8.337547540664673
78, 8144, 8167, 8114, 8186, 8095, 8179, 8077, 8181, 8169, 8150, 8173, 8157, 8170, 8274,8.345736265182495
79, 8120, 8164, 8078, 8182, 8088, 8182, 8058, 8169, 8184, 8145, 8168, 8141, 8163, 8271,8.353702068328857
80, 8144, 8175, 8131, 8184, 8181, 8184, 8215, 8164, 8173, 8124, 8156, 8137, 8131, 8251,8.36170768737793
81, 8169, 8161, 8207, 8163, 8211, 8179, 8290, 8156, 8143, 8104, 8156, 8142, 8112, 8228,8.369706153869629
82, 8145, 8154, 8148, 8154, 8088, 8165, 8074, 8127, 8148, 8126, 8174, 8151, 8149, 8261,8.37769865989685
83, 8154, 8186, 8142, 8183, 8129, 8177, 8127, 8143, 8156, 8144, 8181, 8162, 8171, 8296,8.385718584060669
84, 8177, 8181, 8189, 8190, 8179, 8181, 8224, 8157, 8140, 8124, 8175, 8155, 8151, 8279,8.39371371269226
85, 8148, 8150, 8129, 8178, 8089, 8159, 8087, 8133, 8137, 8127, 8169, 8140, 8156, 8266,8.400468826293945
86, 8161, 8175, 8145, 8186, 8125, 8181, 8163, 8158, 8144, 8144, 8172, 8151, 8170, 8278,8.408567905426025
87, 8193, 8199, 8203, 8201, 8169, 8213, 8234, 8182, 8148, 8127, 8177, 8158, 8162, 8278,8.416754007339478
88, 8171, 8182, 8174, 8204, 8132, 8188, 8164, 8175, 8160, 8120, 8179, 8142, 8153, 8267,8.424450397491455
89, 8147, 8164, 8147, 8188, 8105, 8171, 8144, 8174, 8157, 8131, 8167, 8135, 8142, 8256,8.432554721832275
90, 8142, 8145, 8158, 8160, 8129, 8191, 8193, 8169, 8129, 8108, 8147, 8138, 8116, 8239,8.440731048583984
91, 8129, 8123, 8151, 8139, 8128, 8190, 8162, 8156, 8122, 8075, 8157, 8133, 8094, 8219,8.448596239089966
92, 8101, 8122, 8084, 8137, 8062, 8168, 8023, 8138, 8152, 8096, 8175, 8124, 8110, 8220,8.456690788269043
93, 8137, 8145, 8155, 8144, 8163, 8180, 8228, 8173, 8152, 8112, 8167, 8145, 8128, 8236,8.463720083236694
94, 8176, 8138, 8237, 8143, 8173, 8185, 8299, 8186, 8134, 8103, 8164, 8166, 8120, 8246,8.471832036972046
95, 8118, 8115, 8119, 8137, 8016, 8153, 8031, 8135, 8148, 8109, 8170, 8139, 8112, 8243,8.479685544967651
96, 8115, 8129, 8120, 8144, 8090, 8154, 8140, 8152, 8159, 8105, 8173, 8141, 8120, 8241,8.48772144317627
97, 8154, 8144, 8177, 8161, 8141, 8170, 8198, 8178, 8167, 8122, 8179, 8173, 8150, 8269,8.495746612548828
98, 8134, 8140, 8129, 8161, 8101, 8171, 8111, 8170, 8178, 8152, 8180, 8161, 8163, 8278,8.503698825836182
99, 8126, 8143, 8154, 8151, 8145, 8179, 8216, 8181, 8175, 8145, 8173, 8137, 8141, 8238,8.511741876602173
100, 8124, 8142, 8169, 8145, 8126, 8178, 8201, 8179, 8181, 8137, 8177, 8137, 8134, 8222,8.519718885421753
101, 8111, 8133, 8140, 8132, 8100, 8162, 8134, 8164, 8171, 8132, 8176, 8141, 8135, 8235,8.527585983276367
102, 8101, 8130, 8128, 8129, 8109, 8155, 8126, 8148, 8139, 8111, 8165, 8134, 8129, 8227,8.534713506698608
103, 8105, 8137, 8155, 8144, 8142, 8165, 8179, 8150, 8132, 8101, 8167, 8133, 8131, 8211,8.542786359786987
104, 8111, 8142, 8156, 8152, 8119, 8167, 8136, 8155, 8158, 8130, 8178, 8144, 8148, 8224,8.550471067428589
105, 8113, 8150, 8122, 8149, 8090, 8165, 8087, 8150, 8179, 8154, 8182, 8156, 8164, 8250,8.558668851852417
106, 8160, 8176, 8197, 8151, 8179, 8168, 8264, 8177, 8163, 8133, 8180, 8175, 8156, 8256,8.566605567932129
107, 8172, 8185, 8201, 8164, 8138, 8164, 8166, 8166, 8157, 8132, 8181, 8182, 8165, 8267,8.574463129043579
108, 8139, 8170, 8139, 8168, 8134, 8180, 8092, 8156, 8173, 8158, 8180, 8160, 8176, 8270,8.582608938217163
109, 8156, 8161, 8202, 8157, 8246, 8201, 8278, 8199, 8178, 8156, 8176, 8148, 8157, 8251,8.589715003967285
110, 8156, 8159, 8176, 8157, 8154, 8177, 8139, 8186, 8186, 8158, 8166, 8152, 8156, 8259,8.597780227661133
111, 8151, 8180, 8138, 8181, 8120, 8173, 8094, 8175, 8191, 8169, 8170, 8158, 8169, 8275,8.605680704116821
112, 8168, 8196, 8194, 8197, 8200, 8202, 8247, 8195, 8189, 8162, 8180, 8157, 8172, 8264,8.61380124092102
113, 8151, 8182, 8189, 8173, 8179, 8192, 8232, 8181, 8185, 8147, 8169, 8137, 8152, 8240,8.62150502204895
114, 8125, 8163, 8150, 8144, 8094, 8162, 8117, 8158, 8177, 8151, 8161, 8125, 8129, 8222,8.62947678565979
115, 8108, 8152, 8119, 8145, 8054, 8155, 8057, 8141, 8171, 8150, 8158, 8127, 8137, 8221,8.637534141540527
116, 8123, 8165, 8167, 8156, 8166, 8177, 8216, 8155, 8162, 8123, 8158, 8141, 8132, 8224,8.645552396774292
117, 8144, 8183, 8193, 8165, 8180, 8196, 8179, 8155, 8164, 8130, 8183, 8168, 8139, 8245,8.653487920761108
118, 8148, 8188, 8157, 8179, 8149, 8182, 8083, 8148, 8171, 8169, 8195, 8178, 8181, 8272,8.660536050796509
119, 8158, 8191, 8190, 8180, 8228, 8166, 8221, 8167, 8167, 8166, 8174, 8167, 8179, 8261,8.668509006500244
120, 8137, 8198, 8158, 8186, 8178, 8160, 8146, 8156, 8185, 8171, 8172, 8156, 8155, 8248,8.676538944244385
121, 8153, 8211, 8152, 8190, 8168, 8171, 8160, 8166, 8198, 8182, 8187, 8164, 8159, 8256,8.684525728225708
122, 8198, 8205, 8209, 8173, 8194, 8187, 8236, 8187, 8188, 8151, 8177, 8178, 8171, 8273,8.69252896308899
123, 8160, 8187, 8148, 8172, 8138, 8190, 8097, 8170, 8189, 8146, 8168, 8166, 8171, 8281,8.700432300567627
124, 8139, 8192, 8137, 8183, 8196, 8187, 8166, 8191, 8198, 8168, 8173, 8152, 8155, 8262,8.708604574203491
125, 8161, 8199, 8181, 8175, 8244, 8189, 8239, 8206, 8212, 8173, 8173, 8151, 8149, 8242,8.716540575027466
126, 8165, 8191, 8181, 8168, 8219, 8207, 8173, 8200, 8226, 8178, 8173, 8171, 8171, 8263,8.72364091873169
127, 8169, 8172, 8155, 8181, 8172, 8197, 8094, 8191, 8229, 8177, 8179, 8191, 8194, 8305,8.731690168380737
238, 8171, 8157, 8135, 8182, 8179, 8160, 8117, 8173, 8206, 8158, 8175, 8168, 8177, 8295,8.739620923995972
0, 8189, 8170, 8179, 8188, 8240, 8159, 8215, 8173, 8164, 8156, 8170, 8152, 8145, 8263,8.747380018234253
1, 8178, 8170, 8159, 8201, 8173, 8177, 8098, 8161, 8155, 8173, 8175, 8160, 8160, 8272,8.755473375320435
2, 8171, 8153, 8163, 8187, 8197, 8188, 8172, 8174, 8170, 8163, 8185, 8160, 8175, 8272,8.76347017288208
3, 8205, 8153, 8226, 8182, 8236, 8182, 8258, 8188, 8182, 8173, 8201, 8170, 8170, 8277,8.771563053131104
4, 8192, 8153, 8168, 8197, 8140, 8167, 8062, 8148, 8199, 8196, 8204, 8181, 8191, 8318,8.77943730354309
5, 8197, 8157, 8178, 8194, 8202, 8190, 8166, 8162, 8209, 8172, 8198, 8190, 8211, 8334,8.78639268875122
6, 8228, 8173, 8224, 8197, 8234, 8213, 8236, 8187, 8220, 8187, 8206, 8203, 8231, 8337,8.795462369918823
7, 8196, 8166, 8156, 8198, 8169, 8198, 8116, 8156, 8218, 8223, 8201, 8185, 8219, 8325,8.802486419677734
8, 8145, 8125, 8122, 8165, 8170, 8176, 8133, 8127, 8176, 8179, 8175, 8142, 8152, 8267,8.810519695281982
9, 8138, 8096, 8137, 8142, 8169, 8177, 8164, 8139, 8155, 8122, 8168, 8140, 8130, 8245,8.818546295166016
10, 8174, 8103, 8181, 8149, 8184, 8183, 8216, 8179, 8173, 8122, 8192, 8177, 8146, 8272,8.826671361923218
11, 8173, 8112, 8162, 8156, 8140, 8175, 8137, 8167, 8185, 8142, 8195, 8178, 8149, 8278,8.834397554397583
12, 8175, 8132, 8183, 8163, 8178, 8185, 8216, 8180, 8193, 8148, 8185, 8168, 8150, 8277,8.842622995376587
13, 8205, 8147, 8258, 8173, 8205, 8196, 8305, 8224, 8209, 8153, 8194, 8186, 8160, 8291,8.850458860397339
14, 8165, 8132, 8158, 8179, 8096, 8177, 8083, 8187, 8216, 8167, 8192, 8171, 8168, 8284,8.857618808746338
15, 8160, 8134, 8152, 8181, 8166, 8181, 8163, 8174, 8189, 8154, 8188, 8158, 8153, 8264,8.865590810775757
16, 8205, 8142, 8220, 8184, 8171, 8192, 8206, 8180, 8181, 8155, 8198, 8186, 8171, 8291,8.87464189529419
17, 8193, 8137, 8168, 8184, 8095, 8177, 8113, 8147, 8176, 8167, 8195, 8195, 8200, 8317,8.881551504135132
18, 8189, 8150, 8178, 8189, 8166, 8174, 8200, 8137, 8153, 8150, 8191, 8185, 8182, 8297,8.889501094818115
19, 8190, 8166, 8176, 8197, 8176, 8178, 8128, 8139, 8177, 8165, 8197, 8182, 8180, 8293,8.89740777015686
20, 8202, 8171, 8180, 8196, 8197, 8188, 8166, 8179, 8219, 8181, 8186, 8181, 8194, 8304,8.905416011810303
21, 8198, 8155, 8173, 8185, 8158, 8201, 8187, 8204, 8233, 8161, 8177, 8180, 8193, 8307,8.91343879699707
22, 8173, 8145, 8145, 8180, 8113, 8203, 8142, 8204, 8238, 8162, 8191, 8177, 8188, 8303,8.920380592346191
23, 8187, 8151, 8177, 8191, 8157, 8204, 8192, 8219, 8242, 8191, 8197, 8177, 8192, 8290,8.928541660308838
24, 8178, 8136, 8143, 8194, 8110, 8188, 8097, 8197, 8246, 8196, 8183, 8171, 8208, 8286,8.936380386352539
25, 8162, 8116, 8114, 8186, 8103, 8178, 8089, 8173, 8227, 8170, 8176, 8166, 8206, 8292,8.944430112838745
26, 8169, 8108, 8129, 8185, 8124, 8187, 8125, 8162, 8199, 8160, 8184, 8170, 8196, 8300,8.953476190567017
