COUNTER,F3, FC5,AF3,F7,T7,P7,O1,O2,P8,T8,F8,AF4,FC6,F4,Timestamp,hello_event
70,8199,8163,8166,8098,8128,8159,8159,8196,8144,8183,8138,8162,8194,8336,0.0073554515838623,False
71,8182,8157,8149,8093,8106,8144,8136,8169,8105,8144,8127,8143,8162,8320,0.0151536464691162,False
72,8182,8179,8186,8132,8150,8143,8181,8167,8083,8144,8138,8136,8157,8293,0.0231053829193115,False
73,8179,8189,8169,8165,8129,8140,8122,8148,8075,8170,8143,8141,8168,8304,0.0302233695983886,False
74,8178,8187,8170,8162,8146,8143,8174,8150,8072,8169,8141,8148,8167,8323,0.0383250713348388,False
75,8168,8190,8173,8164,8142,8152,8160,8169,8097,8180,8149,8143,8178,8320,0.0464015007019043,False
76,8143,8193,8145,8171,8165,8157,8152,8179,8121,8200,8155,8131,8184,8302,0.0544450283050537,False
77,8129,8184,8159,8160,8203,8156,8221,8174,8107,8192,8151,8121,8155,8270,0.0622737407684326,False
78,8098,8167,8145,8141,8163,8153,8172,8158,8100,8194,8152,8096,8131,8238,0.0703141689300537,False
79,8092,8163,8185,8131,8211,8170,8274,8191,8108,8187,8163,8093,8123,8223,0.0782287120819091,False
80,8080,8151,8175,8133,8160,8179,8185,8181,8117,8176,8164,8111,8143,8238,0.0861392021179199,False
81,8049,8146,8080,8137,8080,8174,8008,8145,8124,8193,8159,8110,8169,8258,0.0943491458892822,False
82,8083,8168,8130,8137,8185,8188,8176,8184,8113,8197,8165,8118,8162,8260,0.1012628078460693,False
83,8114,8163,8172,8137,8193,8201,8217,8207,8117,8192,8160,8130,8157,8264,0.1092805862426757,False
84,8095,8140,8131,8132,8139,8204,8147,8201,8141,8188,8148,8122,8148,8259,0.1172895431518554,False
85,8097,8149,8135,8124,8135,8197,8140,8194,8144,8179,8148,8116,8136,8248,0.1252145767211914,False
86,8144,8183,8183,8153,8150,8180,8161,8188,8141,8187,8160,8141,8166,8276,0.1331429481506347,False
87,8176,8198,8208,8183,8161,8171,8174,8180,8142,8211,8172,8171,8205,8314,0.141336441040039,False
88,8153,8184,8163,8174,8128,8168,8126,8155,8126,8203,8168,8160,8200,8323,0.1491556167602539,False
89,8156,8184,8178,8159,8152,8167,8201,8155,8104,8164,8164,8148,8175,8314,0.1573035717010498,False
90,8177,8188,8194,8158,8128,8153,8165,8142,8102,8163,8166,8152,8173,8315,0.1644003391265869,False
91,8168,8183,8153,8158,8099,8135,8107,8127,8109,8180,8151,8137,8165,8310,0.1724321842193603,False
92,8178,8184,8192,8149,8158,8135,8216,8153,8094,8163,8145,8131,8134,8285,0.180088996887207,False
93,8161,8176,8178,8144,8098,8135,8112,8139,8086,8157,8156,8134,8132,8268,0.1884212493896484,False
94,8121,8168,8135,8139,8094,8128,8114,8132,8086,8156,8150,8122,8133,8251,0.1961736679077148,False
95,8124,8165,8177,8139,8183,8135,8242,8156,8075,8129,8142,8118,8111,8227,0.2041294574737548,False
96,8119,8156,8160,8148,8163,8138,8151,8147,8080,8129,8146,8118,8101,8219,0.2121224403381347,False
97,8116,8161,8142,8154,8164,8134,8149,8154,8089,8153,8150,8118,8101,8217,0.2203259468078613,False
98,8124,8171,8156,8158,8182,8136,8170,8165,8098,8153,8155,8120,8111,8219,0.2270920276641845,False
99,8116,8171,8157,8156,8205,8151,8158,8162,8103,8149,8162,8120,8120,8220,0.2353107929229736,False
100,8110,8170,8148,8163,8206,8159,8140,8159,8105,8164,8163,8133,8129,8227,0.2431974411010742,False
101,8119,8179,8143,8175,8194,8158,8152,8161,8113,8180,8166,8151,8151,8247,0.251328706741333,False
102,8154,8192,8196,8173,8223,8160,8239,8170,8105,8170,8171,8156,8158,8261,0.2591238021850586,False
103,8154,8183,8169,8166,8164,8143,8115,8141,8090,8162,8162,8141,8151,8271,0.2673597335815429,False
104,8142,8173,8148,8155,8198,8130,8132,8145,8086,8158,8157,8140,8143,8272,0.2751302719116211,False
105,8157,8171,8203,8140,8251,8134,8241,8175,8091,8138,8159,8152,8139,8269,0.2832202911376953,False
106,8129,8156,8140,8129,8158,8127,8093,8141,8100,8135,8155,8133,8149,8271,0.2912077903747558,False
107,8123,8155,8138,8130,8213,8139,8175,8152,8094,8147,8155,8128,8136,8263,0.2982070446014404,False
108,8161,8170,8212,8144,8246,8158,8254,8187,8095,8162,8159,8151,8129,8261,0.3061275482177734,False
109,8163,8175,8181,8157,8160,8147,8118,8167,8115,8162,8161,8145,8150,8268,0.3143222332000732,False
110,8161,8174,8153,8163,8148,8149,8114,8167,8124,8160,8162,8142,8159,8266,0.3221859931945801,False
111,8163,8177,8163,8170,8151,8167,8171,8185,8121,8175,8161,8152,8153,8262,0.3301587104797363,False
112,8154,8189,8190,8174,8167,8162,8224,8183,8106,8171,8163,8153,8154,8258,0.3381195068359375,False
113,8128,8186,8165,8168,8137,8135,8142,8150,8094,8167,8168,8146,8173,8251,0.3463523387908935,False
114,8130,8186,8146,8172,8149,8131,8149,8141,8089,8183,8161,8142,8181,8240,0.3541097640991211,False
115,8169,8210,8209,8195,8205,8161,8243,8160,8089,8190,8166,8149,8179,8247,0.3613028526306152,False
116,8163,8217,8182,8210,8146,8172,8121,8144,8114,8205,8185,8158,8209,8282,0.3690447807312011,False
117,8157,8198,8153,8188,8145,8164,8152,8150,8115,8208,8174,8167,8215,8299,0.3772737979888916,False
118,8170,8178,8170,8166,8141,8155,8181,8159,8097,8190,8158,8162,8193,8291,0.3851072788238525,False
119,8166,8181,8154,8176,8119,8154,8124,8151,8097,8188,8169,8148,8195,8279,0.3931758403778076,False
120,8179,8188,8189,8172,8187,8154,8234,8179,8096,8185,8174,8151,8188,8264,0.4012701511383056,False
121,8157,8166,8175,8142,8158,8145,8182,8186,8092,8170,8161,8152,8174,8261,0.4092941284179687,False
122,8133,8151,8154,8122,8147,8152,8152,8181,8092,8156,8160,8153,8167,8262,0.4172255992889404,False
123,8157,8158,8171,8130,8174,8165,8185,8188,8103,8154,8166,8163,8165,8266,0.4241695404052734,False
124,8166,8170,8160,8146,8179,8170,8165,8195,8126,8165,8158,8157,8173,8274,0.4321258068084717,False
125,8169,8185,8185,8155,8214,8177,8210,8207,8138,8170,8161,8162,8182,8283,0.4400320053100586,False
126,8180,8198,8179,8171,8188,8176,8153,8187,8141,8170,8174,8174,8203,8306,0.4482283592224121,False
127,8205,8214,8195,8194,8207,8174,8193,8185,8135,8169,8179,8185,8215,8328,0.4560863971710205,False
238,8207,8214,8214,8190,8165,8160,8183,8175,8118,8177,8172,8192,8212,8332,0.4641201496124267,False
0,8169,8192,8149,8166,8082,8136,8085,8141,8108,8174,8162,8177,8213,8324,0.4722046852111816,False
1,8172,8195,8165,8169,8149,8148,8199,8159,8106,8166,8165,8179,8217,8308,0.480137825012207,False
2,8171,8208,8177,8186,8140,8169,8163,8166,8111,8190,8167,8185,8228,8309,0.4881927967071533,False
3,8164,8211,8161,8190,8123,8164,8150,8171,8117,8204,8165,8184,8227,8318,0.4952065944671631,False
4,8200,8217,8208,8185,8162,8161,8245,8187,8115,8189,8166,8186,8212,8304,0.5031821727752686,False
5,8193,8212,8186,8173,8139,8173,8162,8164,8124,8191,8160,8166,8204,8293,0.5112602710723877,False
6,8156,8192,8151,8153,8166,8189,8148,8164,8130,8189,8159,8147,8196,8288,0.5191419124603271,False
7,8150,8178,8153,8138,8183,8192,8164,8172,8131,8176,8160,8147,8181,8275,0.527001142501831,False
8,8159,8185,8158,8139,8190,8193,8172,8175,8138,8179,8148,8146,8174,8267,0.5351705551147461,False
9,8159,8185,8152,8144,8175,8188,8140,8172,8146,8192,8143,8140,8180,8273,0.5431721210479736,False
10,8147,8177,8131,8145,8148,8172,8113,8157,8138,8187,8153,8139,8177,8265,0.5510468482971191,False
11,8171,8196,8185,8161,8203,8175,8237,8173,8113,8167,8164,8158,8170,8248,0.5580859184265137,False
12,8185,8208,8175,8187,8162,8178,8141,8163,8116,8176,8170,8171,8190,8260,0.5661063194274902,False
13,8172,8204,8142,8187,8150,8169,8128,8148,8118,8180,8164,8166,8193,8267,0.5741963386535645,False
14,8190,8214,8219,8193,8195,8172,8263,8162,8093,8160,8172,8181,8187,8257,0.5821924209594727,False
15,8194,8228,8202,8229,8130,8164,8114,8135,8097,8169,8187,8197,8222,8276,0.5902304649353027,False
16,8202,8237,8188,8248,8175,8156,8136,8134,8101,8170,8182,8206,8240,8303,0.5981712341308594,False
17,8222,8235,8245,8248,8215,8163,8245,8162,8084,8157,8177,8226,8235,8311,0.6061654090881348,False
18,8217,8230,8238,8256,8139,8160,8170,8156,8080,8169,8184,8236,8242,8308,0.6142468452453613,False
19,8210,8228,8205,8252,8118,8142,8122,8137,8074,8168,8187,8230,8240,8302,0.6212232112884521,False
20,8198,8217,8175,8227,8140,8127,8125,8136,8066,8149,8176,8209,8235,8302,0.629204511642456,False
21,8203,8207,8193,8207,8204,8148,8211,8179,8081,8152,8170,8200,8225,8303,0.6371095180511475,False
22,8201,8194,8176,8200,8195,8176,8146,8191,8110,8183,8163,8199,8213,8309,0.6451404094696045,False
23,8184,8192,8146,8192,8172,8176,8131,8182,8122,8191,8157,8187,8213,8310,0.6531350612640381,False
24,8205,8205,8194,8187,8189,8171,8237,8203,8137,8194,8162,8184,8218,8302,0.6612496376037598,False
25,8204,8197,8163,8196,8139,8173,8114,8194,8166,8221,8169,8177,8222,8305,0.6691949367523193,False
26,8187,8189,8153,8192,8209,8181,8169,8196,8157,8205,8169,8164,8214,8299,0.6771152019500732,True
27,8184,8191,8183,8182,8208,8173,8235,8187,8130,8181,8166,8161,8215,8290,0.6840791702270508,True
28,8174,8187,8136,8190,8103,8162,8104,8151,8140,8207,8168,8164,8229,8298,0.6921031475067139,True
29,8187,8188,8158,8186,8186,8174,8173,8167,8148,8214,8169,8168,8216,8298,0.7001941204071045,True
30,8186,8185,8187,8163,8248,8174,8211,8167,8124,8183,8165,8161,8210,8292,0.7081282138824463,True
31,8178,8190,8175,8169,8231,8156,8173,8143,8101,8176,8167,8162,8218,8298,0.7162463665008545,True
32,8179,8196,8152,8187,8186,8145,8110,8133,8104,8192,8166,8167,8208,8298,0.7241880893707275,True
33,8173,8195,8137,8173,8179,8153,8135,8142,8109,8185,8155,8156,8199,8283,0.7320961952209473,True
34,8186,8192,8193,8160,8226,8171,8251,8159,8099,8169,8157,8166,8209,8283,0.7401998043060303,True
35,8185,8195,8182,8180,8175,8173,8138,8148,8118,8189,8176,8189,8230,8315,0.7481429576873779,True
36,8187,8210,8189,8200,8204,8178,8189,8183,8142,8200,8181,8200,8231,8322,0.7551748752593994,True
37,8196,8210,8238,8204,8202,8177,8240,8208,8138,8181,8182,8212,8233,8304,0.7632269859313965,True
38,8185,8217,8182,8230,8104,8153,8062,8161,8144,8198,8194,8226,8256,8320,0.7711400985717773,True
39,8212,8233,8205,8245,8191,8151,8185,8165,8145,8199,8203,8233,8252,8323,0.7791571617126465,True
40,8222,8212,8243,8223,8225,8155,8254,8177,8125,8169,8192,8216,8250,8296,0.7872328758239746,True
41,8191,8190,8184,8201,8137,8155,8123,8146,8106,8171,8178,8205,8256,8290,0.7951550483703613,True
42,8190,8199,8176,8198,8141,8175,8125,8136,8105,8184,8183,8223,8231,8309,0.8031289577484131,True
43,8196,8207,8197,8210,8185,8191,8181,8147,8123,8177,8183,8206,8218,8306,0.811248779296875,True
44,8192,8211,8199,8226,8195,8182,8192,8157,8133,8167,8173,8172,8234,8283,0.818000316619873,True
45,8190,8224,8163,8238,8158,8165,8108,8141,8128,8175,8181,8179,8255,8293,0.826244592666626,True
46,8193,8233,8169,8229,8188,8177,8170,8148,8122,8174,8188,8200,8253,8312,0.8341093063354492,True
47,8199,8231,8197,8219,8183,8196,8211,8162,8125,8177,8169,8198,8241,8313,0.8422353267669678,True
48,8200,8229,8163,8225,8132,8183,8116,8147,8128,8208,8165,8186,8257,8318,0.8501873016357422,True
49,8216,8235,8194,8223,8219,8180,8232,8166,8122,8219,8183,8190,8263,8322,0.858107328414917,True
50,8183,8218,8176,8204,8186,8192,8169,8155,8132,8209,8166,8174,8236,8312,0.8661153316497803,True
51,8133,8198,8108,8182,8132,8185,8095,8130,8133,8191,8138,8138,8204,8289,0.8741652965545654,True
52,8181,8215,8191,8179,8219,8183,8279,8183,8141,8187,8151,8150,8208,8277,0.8821358680725098,True
53,8198,8216,8202,8177,8160,8187,8196,8204,8191,8208,8160,8164,8222,8286,0.8891754150390625,True
54,8151,8196,8132,8164,8113,8190,8103,8177,8195,8204,8148,8144,8197,8272,0.8970768451690674,True
55,8158,8200,8149,8173,8170,8190,8180,8172,8157,8205,8162,8147,8198,8265,0.9050045013427734,True
56,8198,8231,8190,8209,8192,8174,8202,8178,8156,8230,8188,8181,8246,8310,0.9130969047546388,True
57,8203,8247,8185,8236,8157,8168,8140,8167,8161,8227,8191,8197,8264,8344,0.9210638999938964,True
58,8168,8226,8130,8223,8119,8190,8085,8150,8149,8210,8183,8180,8253,8334,0.9290859699249268,True
59,8179,8224,8177,8211,8179,8200,8221,8176,8140,8200,8189,8188,8248,8318,0.937108278274536,True
60,8202,8247,8211,8241,8120,8164,8157,8163,8138,8211,8200,8214,8262,8318,0.9450852870941162,True
61,8188,8248,8181,8252,8082,8165,8123,8132,8128,8208,8197,8217,8262,8304,0.9531006813049316,True
62,8200,8227,8233,8219,8154,8198,8263,8141,8104,8183,8201,8231,8256,8296,0.9601001739501952,True
63,8203,8221,8203,8225,8068,8166,8101,8108,8096,8185,8213,8241,8286,8329,0.9682891368865968,True
64,8223,8245,8220,8255,8118,8150,8191,8127,8108,8197,8199,8242,8285,8343,0.9764068126678468,True
65,8241,8241,8273,8238,8178,8188,8301,8172,8134,8209,8176,8245,8253,8332,0.9841153621673584,True
66,8198,8212,8194,8211,8110,8195,8128,8165,8175,8227,8183,8225,8263,8330,0.99228835105896,True
67,8197,8219,8192,8213,8181,8171,8179,8190,8194,8222,8197,8206,8268,8318,1.0001914501190186,True
68,8189,8225,8180,8208,8190,8157,8164,8190,8174,8215,8172,8186,8250,8306,1.008216142654419,True
69,8149,8206,8133,8186,8175,8166,8150,8177,8144,8204,8142,8161,8225,8289,1.016120672225952,True
70,8147,8191,8156,8161,8203,8189,8211,8193,8155,8180,8145,8145,8183,8263,1.0230097770690918,True
71,8154,8193,8138,8156,8165,8200,8118,8184,8170,8174,8149,8138,8163,8271,1.0310401916503906,True
72,8170,8209,8110,8182,8138,8171,8061,8153,8129,8173,8144,8149,8193,8299,1.0391623973846436,True
73,8182,8213,8119,8190,8151,8130,8103,8139,8094,8154,8135,8144,8204,8287,1.0471622943878174,True
74,8178,8204,8158,8167,8211,8144,8224,8171,8115,8148,8135,8128,8173,8253,1.055148363113403,True
75,8166,8182,8162,8144,8195,8178,8205,8185,8140,8162,8152,8130,8163,8248,1.063293695449829,True
76,8148,8160,8121,8128,8151,8162,8096,8156,8137,8153,8153,8127,8160,8253,1.0712497234344482,True
77,8163,8162,8156,8117,8204,8141,8190,8162,8120,8126,8146,8125,8127,8241,1.079275369644165,True
78,8183,8170,8177,8128,8173,8147,8201,8164,8115,8141,8154,8135,8134,8247,1.0872201919555664,True
79,8192,8177,8166,8138,8151,8154,8179,8157,8127,8162,8166,8148,8162,8274,1.0941979885101318,True
80,8196,8177,8193,8127,8193,8151,8206,8168,8133,8158,8170,8154,8168,8290,1.102173089981079,True
81,8164,8163,8160,8120,8149,8155,8114,8165,8143,8172,8172,8138,8182,8285,1.1100773811340332,True
82,8142,8163,8131,8123,8156,8184,8118,8178,8169,8184,8172,8128,8185,8272,1.1182169914245603,True
83,8145,8177,8130,8135,8193,8197,8134,8187,8206,8187,8164,8134,8185,8275,1.1261546611785889,True
84,8152,8175,8153,8134,8229,8184,8214,8191,8219,8193,8151,8133,8173,8265,1.1342144012451172,True
85,8145,8156,8165,8116,8193,8168,8202,8178,8198,8185,8144,8126,8145,8250,1.1422553062438965,True
86,8133,8159,8111,8121,8148,8147,8077,8154,8200,8174,8153,8122,8162,8268,1.1491646766662598,False
87,8177,8186,8199,8133,8299,8168,8309,8213,8216,8156,8154,8136,8171,8267,1.1572778224945068,False
88,8183,8176,8240,8127,8247,8196,8276,8223,8214,8153,8145,8146,8146,8253,1.165249586105347,False
89,8143,8167,8123,8142,8061,8164,8005,8143,8183,8171,8158,8150,8167,8278,1.1731488704681396,False
90,8179,8201,8148,8170,8124,8137,8145,8136,8136,8174,8171,8171,8191,8298,1.1811726093292236,False
91,8206,8204,8202,8164,8169,8158,8232,8165,8121,8151,8158,8169,8169,8283,1.1892602443695068,False
92,8187,8185,8165,8154,8129,8180,8143,8169,8145,8145,8159,8152,8167,8275,1.1972973346710205,False
93,8190,8190,8147,8162,8116,8177,8115,8168,8170,8173,8169,8155,8190,8291,1.2052876949310305,False
94,8194,8188,8168,8150,8134,8175,8183,8185,8173,8179,8161,8160,8181,8295,1.2122321128845217,False
95,8184,8164,8177,8131,8124,8174,8192,8197,8165,8167,8160,8157,8163,8281,1.2201392650604248,False
96,8171,8154,8137,8130,8096,8171,8122,8189,8182,8176,8161,8150,8167,8278,1.2283077239990234,False
97,8177,8169,8179,8129,8184,8185,8249,8221,8206,8173,8152,8155,8161,8277,1.2361183166503906,False
98,8172,8170,8200,8133,8192,8181,8219,8218,8210,8174,8154,8152,8158,8264,1.244246006011963,False
99,8139,8156,8125,8131,8142,8165,8082,8177,8201,8179,8152,8124,8159,8243,1.2523701190948486,False
100,8137,8149,8142,8105,8188,8174,8202,8195,8197,8151,8141,8117,8136,8234,1.2601721286773682,False
101,8132,8135,8150,8091,8134,8170,8180,8195,8213,8150,8143,8123,8133,8245,1.2682595252990725,False
102,8128,8132,8136,8101,8118,8147,8143,8169,8206,8170,8148,8121,8139,8244,1.2763373851776123,False
103,8142,8137,8162,8086,8155,8143,8183,8163,8179,8154,8142,8126,8119,8232,1.283141851425171,False
104,8129,8135,8143,8067,8120,8150,8143,8161,8184,8143,8148,8132,8119,8237,1.2912402153015137,False
105,8135,8139,8153,8077,8130,8146,8177,8175,8190,8160,8163,8139,8146,8250,1.299349308013916,False
106,8145,8136,8160,8084,8140,8150,8156,8167,8186,8166,8157,8135,8156,8252,1.3072891235351562,False
107,8135,8134,8158,8077,8170,8173,8171,8159,8183,8149,8154,8130,8140,8244,1.3152799606323242,False
108,8125,8133,8153,8070,8154,8161,8153,8158,8182,8149,8163,8141,8143,8252,1.3231544494628906,False
109,8132,8139,8143,8083,8141,8133,8127,8163,8200,8180,8161,8151,8166,8275,1.3311917781829834,False
110,8167,8159,8205,8105,8235,8155,8253,8198,8210,8184,8160,8153,8158,8274,1.3392868041992188,False
111,8153,8146,8181,8106,8189,8168,8157,8173,8195,8160,8158,8140,8146,8268,1.3460266590118408,False
112,8115,8119,8120,8090,8129,8143,8104,8133,8164,8151,8146,8133,8146,8268,1.3541603088378906,False
113,8129,8122,8159,8085,8165,8137,8203,8150,8153,8159,8147,8142,8146,8257,1.3620667457580566,False
114,8121,8120,8145,8081,8141,8152,8140,8152,8173,8157,8142,8131,8144,8246,1.3702507019042969,False
115,8105,8109,8145,8078,8157,8171,8182,8169,8186,8147,8139,8124,8138,8244,1.3781769275665283,False
116,8111,8113,8170,8097,8147,8186,8195,8189,8201,8158,8151,8125,8142,8244,1.3861122131347656,False
117,8110,8119,8160,8107,8137,8186,8147,8186,8209,8165,8148,8120,8139,8238,1.3942391872406006,False
118,8121,8123,8165,8102,8175,8184,8163,8187,8198,8170,8142,8131,8135,8243,1.4022657871246338,False
119,8123,8134,8154,8103,8164,8189,8143,8179,8194,8170,8156,8132,8149,8259,1.4103569984436035,False
120,8121,8139,8165,8100,8157,8190,8180,8171,8180,8142,8161,8124,8138,8248,1.41723370552063,False
121,8119,8130,8145,8099,8123,8175,8117,8153,8170,8139,8151,8138,8137,8249,1.4253432750701904,False
122,8141,8145,8147,8115,8191,8175,8162,8169,8189,8172,8158,8166,8174,8290,1.4332435131072998,False
123,8179,8172,8221,8135,8269,8184,8269,8202,8210,8189,8176,8180,8193,8317,1.4412691593170166,False
124,8149,8165,8174,8145,8162,8167,8093,8166,8214,8191,8175,8166,8192,8303,1.4493114948272705,False
125,8123,8155,8147,8139,8194,8174,8149,8162,8202,8173,8166,8149,8175,8271,1.4572763442993164,False
126,8139,8156,8198,8130,8262,8200,8268,8187,8190,8152,8156,8147,8152,8262,1.4652745723724363,False
127,8127,8153,8166,8133,8189,8200,8146,8177,8204,8169,8156,8146,8159,8270,1.473238468170166,False
238,8121,8151,8154,8133,8186,8190,8129,8171,8211,8191,8165,8147,8174,8270,1.4802892208099363,False
0,8131,8150,8166,8128,8203,8180,8157,8157,8191,8180,8163,8141,8168,8273,1.4881188869476318,False
1,8141,8156,8169,8134,8204,8173,8182,8153,8172,8152,8158,8148,8149,8280,1.4961833953857422,False
2,8134,8159,8152,8143,8172,8171,8126,8157,8189,8155,8161,8163,8156,8287,1.503999948501587,False
3,8129,8158,8151,8136,8182,8170,8146,8171,8204,8173,8164,8160,8172,8286,1.5120878219604492,False
4,8150,8160,8197,8134,8218,8175,8246,8192,8180,8160,8164,8163,8161,8283,1.5202946662902832,False
5,8143,8164,8159,8157,8137,8176,8119,8168,8178,8165,8163,8163,8164,8295,1.5284216403961182,False
6,8143,8183,8158,8181,8169,8182,8155,8169,8196,8181,8160,8158,8174,8297,1.536172866821289,False
7,8161,8191,8193,8177,8208,8197,8205,8181,8198,8168,8165,8158,8170,8285,1.5442392826080322,False
8,8154,8174,8151,8162,8143,8193,8110,8169,8208,8177,8177,8168,8190,8302,1.551213026046753,False
9,8169,8180,8196,8163,8178,8180,8230,8191,8213,8208,8183,8189,8203,8319,1.5591566562652588,False
10,8169,8190,8211,8169,8156,8178,8200,8176,8202,8204,8168,8181,8188,8306,1.5672686100006104,False
11,8160,8187,8156,8161,8123,8190,8114,8161,8211,8192,8163,8172,8188,8302,1.575153350830078,False
12,8183,8178,8166,8154,8146,8186,8170,8190,8237,8215,8186,8191,8219,8329,1.583219289779663,False
13,8179,8180,8178,8159,8147,8165,8172,8183,8230,8227,8184,8196,8231,8337,1.5912532806396484,False
14,8171,8192,8191,8164,8170,8166,8181,8174,8204,8199,8166,8190,8216,8322,1.5991723537445068,False
15,8164,8185,8160,8165,8133,8163,8108,8176,8210,8195,8169,8183,8219,8321,1.6072940826416016,False
16,8159,8178,8155,8153,8164,8156,8157,8182,8204,8199,8172,8173,8220,8314,1.614100694656372,False
17,8159,8176,8191,8139,8206,8162,8210,8170,8172,8186,8166,8175,8207,8297,1.6223766803741455,False
18,8134,8168,8148,8138,8154,8166,8110,8140,8161,8187,8164,8166,8203,8297,1.6302490234375,False
19,8147,8185,8159,8151,8181,8176,8181,8159,8158,8188,8172,8166,8211,8304,1.638089895248413,False
20,8179,8205,8180,8177,8169,8171,8158,8167,8167,8192,8182,8192,8252,8333,1.6462819576263428,False
21,8179,8205,8171,8194,8183,8157,8151,8171,8181,8191,8191,8206,8270,8350,1.6543123722076416,False
22,8183,8196,8214,8188,8237,8173,8252,8197,8186,8193,8194,8205,8242,8325,1.662168025970459,False
23,8185,8190,8198,8190,8180,8179,8153,8197,8217,8229,8194,8202,8260,8328,1.6703851222991943,False
24,8192,8195,8178,8194,8189,8171,8159,8216,8255,8242,8189,8204,8282,8351,1.6782286167144775,False
25,8188,8195,8182,8171,8212,8181,8194,8230,8271,8223,8178,8198,8257,8337,1.685225248336792,False
26,8186,8189,8177,8160,8209,8186,8162,8212,8264,8232,8179,8203,8257,8331,1.6932172775268557,False
27,8212,8199,8189,8184,8209,8158,8143,8177,8241,8252,8194,8224,8292,8364,1.7011735439300537,False
28,8218,8210,8168,8200,8184,8141,8114,8141,8218,8224,8191,8214,8299,8377,1.7092158794403076,False
29,8211,8203,8192,8183,8239,8159,8226,8149,8198,8181,8173,8189,8264,8344,1.71708345413208,False
30,8190,8180,8186,8159,8214,8162,8172,8138,8190,8197,8174,8187,8261,8324,1.7251427173614502,False
31,8179,8177,8148,8160,8176,8168,8113,8126,8194,8217,8183,8197,8283,8333,1.733057975769043,False
32,8207,8190,8196,8170,8224,8187,8234,8160,8203,8192,8175,8202,8274,8343,1.7402613162994385,False
33,8193,8180,8176,8160,8159,8180,8158,8160,8220,8187,8165,8183,8258,8336,1.7481629848480225,False
34,8160,8160,8156,8136,8144,8180,8177,8158,8208,8190,8169,8168,8240,8303,1.756239414215088,False
35,8157,8146,8182,8124,8165,8189,8216,8162,8183,8175,8166,8172,8224,8288,1.7640721797943115,False
36,8150,8148,8154,8133,8126,8179,8130,8153,8201,8168,8156,8169,8224,8301,1.7722458839416504,False
37,8159,8163,8158,8147,8121,8175,8157,8161,8215,8178,8164,8173,8233,8295,1.7802581787109375,False
38,8172,8167,8164,8155,8100,8173,8144,8157,8198,8195,8176,8182,8249,8296,1.7883846759796145,False
39,8187,8178,8171,8160,8117,8179,8175,8178,8191,8195,8174,8187,8251,8314,1.7962727546691897,False
40,8181,8176,8163,8159,8092,8190,8160,8192,8200,8177,8162,8172,8241,8301,1.8043248653411863,False
41,8149,8156,8135,8142,8081,8183,8131,8174,8201,8168,8157,8152,8229,8264,1.8113057613372805,False
42,8150,8155,8172,8127,8155,8179,8220,8178,8187,8170,8162,8162,8211,8257,1.819248914718628,False
43,8150,8162,8154,8144,8101,8184,8132,8163,8186,8173,8162,8156,8216,8277,1.8274071216583248,False
44,8158,8174,8155,8161,8124,8188,8179,8166,8190,8160,8158,8144,8224,8267,1.835198879241944,False
45,8181,8184,8208,8155,8177,8186,8243,8178,8195,8159,8164,8164,8217,8262,1.8432588577270508,False
46,8171,8184,8173,8166,8111,8179,8116,8161,8220,8204,8174,8193,8249,8316,1.851226806640625,False
47,8183,8194,8179,8188,8135,8177,8173,8172,8224,8219,8176,8196,8269,8341,1.8593041896820068,False
48,8194,8195,8187,8187,8134,8179,8172,8162,8203,8179,8163,8167,8235,8298,1.867103099822998,False
49,8181,8189,8165,8182,8121,8189,8138,8152,8191,8168,8157,8166,8219,8280,1.8741250038146973,False
50,8190,8192,8185,8192,8157,8188,8166,8173,8210,8206,8177,8198,8260,8318,1.882166147232056,False
51,8197,8185,8167,8193,8164,8176,8136,8174,8220,8213,8185,8193,8276,8328,1.8900535106658936,False
52,8195,8175,8166,8179,8181,8185,8188,8172,8187,8165,8170,8176,8238,8302,1.898277997970581,False
53,8191,8175,8157,8171,8152,8183,8137,8168,8173,8166,8166,8184,8238,8313,1.9062635898590088,False
54,8190,8169,8156,8160,8188,8172,8157,8182,8178,8186,8170,8183,8251,8317,1.914424419403076,False
55,8189,8153,8177,8154,8197,8175,8201,8197,8180,8172,8161,8161,8228,8282,1.9212417602539065,False
56,8180,8155,8144,8164,8125,8177,8119,8191,8205,8183,8155,8157,8224,8275,1.930307149887085,False
57,8203,8172,8187,8160,8212,8190,8238,8209,8212,8192,8165,8183,8234,8293,1.937302589416504,False
58,8207,8167,8202,8154,8228,8195,8198,8185,8192,8167,8168,8190,8228,8304,1.9452555179595947,False
59,8192,8163,8153,8177,8170,8181,8084,8155,8189,8159,8159,8173,8218,8304,1.9531149864196773,False
60,8216,8173,8184,8191,8207,8186,8181,8176,8204,8181,8163,8181,8225,8303,1.961228370666504,False
61,8219,8173,8181,8182,8195,8208,8167,8176,8214,8199,8183,8198,8246,8320,1.9691493511199951,False
62,8220,8179,8184,8185,8207,8215,8182,8172,8201,8194,8180,8197,8245,8333,1.9770779609680176,False
63,8220,8181,8190,8196,8205,8207,8160,8159,8190,8193,8163,8184,8242,8323,1.9850223064422607,False
64,8194,8181,8159,8194,8209,8206,8129,8141,8182,8193,8173,8184,8246,8313,1.9931614398956297,False
65,8190,8183,8153,8192,8208,8202,8147,8136,8155,8186,8179,8190,8239,8312,2.0010507106781006,False
66,8189,8172,8131,8183,8166,8189,8119,8114,8134,8174,8155,8168,8230,8305,2.008157253265381,False
67,8199,8168,8181,8162,8239,8189,8262,8131,8125,8137,8151,8154,8208,8285,2.01611590385437,False
68,8184,8152,8172,8155,8182,8178,8161,8140,8135,8138,8163,8166,8208,8276,2.0240445137023926,False
69,8152,8143,8115,8159,8146,8176,8093,8151,8167,8187,8160,8165,8220,8273,2.032167911529541,False
70,8189,8169,8211,8158,8275,8216,8323,8211,8190,8195,8159,8164,8200,8259,2.0404131412506104,False
71,8195,8167,8196,8155,8191,8233,8193,8205,8213,8177,8157,8161,8200,8268,2.048123836517334,False
72,8169,8146,8144,8159,8152,8218,8134,8185,8227,8176,8152,8157,8212,8281,2.0562901496887207,False
73,8183,8151,8187,8158,8190,8205,8204,8192,8223,8181,8164,8160,8201,8281,2.0643081665039062,False
74,8184,8161,8154,8142,8132,8191,8121,8182,8213,8184,8159,8155,8195,8285,2.071159601211548,False
75,8175,8148,8151,8128,8158,8185,8189,8191,8195,8174,8144,8154,8186,8282,2.079332113265991,False
76,8164,8128,8169,8126,8158,8185,8183,8185,8190,8152,8147,8152,8169,8268,2.0871059894561768,False
77,8160,8134,8126,8129,8092,8198,8056,8162,8202,8146,8154,8151,8176,8264,2.0951123237609863,False
78,8169,8146,8091,8133,8092,8206,8049,8154,8197,8161,8154,8146,8189,8277,2.1030189990997314,False
79,8166,8143,8118,8131,8176,8194,8190,8159,8167,8149,8147,8134,8168,8272,2.111121416091919,False
80,8166,8137,8177,8128,8212,8194,8250,8159,8153,8127,8147,8148,8149,8257,2.1190760135650635,False
81,8161,8136,8150,8133,8132,8198,8095,8132,8175,8152,8158,8160,8166,8270,2.127258062362671,False
82,8170,8143,8154,8131,8167,8194,8167,8147,8184,8170,8168,8153,8167,8276,2.135130882263184,False
83,8193,8145,8198,8124,8222,8193,8264,8171,8176,8156,8162,8151,8161,8270,2.142009973526001,False
84,8177,8135,8152,8126,8164,8190,8137,8153,8187,8163,8152,8144,8170,8273,2.1502435207366943,False
85,8157,8132,8149,8126,8155,8199,8163,8168,8197,8169,8161,8140,8163,8259,2.158281087875366,False
86,8144,8135,8160,8122,8139,8213,8175,8181,8203,8164,8175,8136,8160,8238,2.1664485931396484,False
87,8141,8135,8168,8125,8180,8220,8208,8181,8199,8157,8173,8129,8164,8228,2.174321413040161,False
88,8146,8130,8188,8129,8195,8219,8202,8188,8199,8166,8166,8138,8167,8233,2.182137012481689,False
89,8131,8132,8146,8137,8140,8215,8091,8179,8224,8195,8171,8153,8190,8263,2.190379858016968,False
90,8149,8149,8160,8151,8203,8205,8170,8184,8232,8184,8177,8162,8200,8279,2.198291063308716,False
91,8176,8162,8171,8177,8183,8177,8136,8174,8217,8168,8179,8157,8188,8267,2.2053401470184326,False
92,8190,8177,8178,8196,8174,8164,8144,8179,8208,8176,8178,8159,8177,8269,2.2143380641937256,False
93,8206,8181,8220,8177,8234,8171,8230,8190,8203,8162,8172,8183,8187,8299,2.221268653869629,False
94,8181,8164,8156,8163,8175,8170,8101,8148,8195,8143,8165,8176,8204,8308,2.2291388511657715,False
95,8161,8149,8132,8155,8181,8183,8144,8146,8176,8136,8154,8139,8172,8267,2.237351655960083,False
96,8170,8142,8189,8132,8223,8208,8244,8168,8166,8133,8150,8141,8145,8243,2.245191097259521,False
97,8169,8148,8194,8136,8221,8213,8190,8160,8177,8141,8161,8168,8166,8260,2.2531678676605225,False
98,8163,8148,8160,8162,8200,8194,8121,8155,8185,8155,8165,8157,8177,8264,2.2612690925598145,False
99,8143,8137,8110,8161,8141,8193,8082,8160,8196,8164,8151,8127,8168,8255,2.269592761993408,False
100,8151,8152,8158,8154,8169,8216,8218,8194,8212,8162,8150,8139,8156,8253,2.276114225387573,False
101,8169,8165,8199,8155,8176,8209,8221,8205,8219,8154,8158,8147,8144,8252,2.284259796142578,False
102,8153,8140,8136,8136,8145,8192,8121,8181,8218,8136,8148,8121,8141,8241,2.292159080505371,False
103,8135,8132,8125,8122,8154,8196,8139,8166,8199,8124,8144,8115,8130,8218,2.3003060817718506,False
104,8121,8150,8139,8128,8133,8194,8107,8148,8173,8131,8150,8126,8120,8208,2.3081631660461426,False
105,8152,8167,8195,8146,8185,8206,8217,8170,8171,8137,8164,8146,8129,8225,2.3161380290985107,False
106,8195,8172,8203,8175,8165,8226,8202,8189,8207,8163,8183,8171,8167,8270,2.324182271957397,False
107,8176,8172,8144,8177,8138,8222,8131,8183,8220,8180,8184,8166,8189,8301,2.33210825920105,False
108,8167,8183,8200,8159,8211,8219,8275,8198,8197,8164,8167,8156,8163,8280,2.339306592941284,False
109,8153,8180,8195,8161,8150,8209,8210,8183,8197,8157,8157,8145,8146,8239,2.347130298614502,False
110,8136,8169,8169,8157,8152,8191,8216,8173,8183,8131,8156,8122,8124,8199,2.355215549468994,False
111,8144,8165,8200,8147,8158,8182,8208,8159,8152,8113,8151,8136,8111,8207,2.363295078277588,False
112,8148,8171,8174,8165,8102,8185,8079,8141,8166,8151,8159,8175,8151,8258,2.371253967285156,False
113,8162,8174,8182,8162,8159,8194,8193,8167,8176,8164,8170,8174,8163,8270,2.379089593887329,False
114,8142,8144,8156,8123,8125,8188,8171,8154,8166,8146,8160,8137,8140,8246,2.3871612548828125,False
115,8098,8126,8091,8108,8070,8184,8050,8134,8181,8157,8155,8127,8142,8233,2.395060539245605,False
116,8079,8129,8074,8110,8091,8196,8075,8155,8199,8174,8163,8129,8152,8220,2.4021661281585693,False
117,8081,8129,8095,8103,8121,8207,8173,8173,8200,8163,8162,8113,8133,8192,2.410360336303711,False
118,8117,8136,8176,8113,8177,8222,8274,8184,8182,8126,8160,8117,8109,8178,2.4182357788085938,False
119,8122,8139,8180,8131,8136,8220,8166,8165,8164,8110,8166,8132,8117,8196,2.426485776901245,False
120,8116,8149,8144,8142,8112,8202,8130,8152,8163,8132,8167,8141,8124,8226,2.4343016147613525,False
121,8146,8166,8176,8158,8137,8195,8181,8158,8164,8148,8169,8151,8127,8242,2.442194938659668,False
122,8149,8171,8170,8171,8129,8198,8129,8153,8161,8150,8180,8144,8152,8239,2.450279235839844,False
123,8141,8165,8166,8169,8162,8198,8176,8162,8162,8145,8176,8141,8160,8238,2.4582762718200684,False
124,8147,8147,8158,8155,8149,8191,8166,8158,8162,8147,8158,8135,8141,8247,2.4653337001800537,False
125,8145,8135,8147,8139,8148,8196,8157,8151,8159,8143,8153,8123,8128,8236,2.473252296447754,False
126,8148,8144,8174,8136,8162,8204,8178,8163,8175,8140,8164,8145,8143,8238,2.4813013076782227,False
127,8141,8146,8154,8136,8127,8203,8130,8160,8194,8150,8162,8164,8159,8263,2.4891340732574463,False
238,8155,8135,8180,8124,8178,8211,8245,8178,8181,8152,8159,8156,8151,8268,2.4972341060638428,False
0,8167,8131,8191,8135,8164,8204,8197,8182,8184,8167,8168,8161,8165,8287,2.505098342895508,False
1,8157,8146,8160,8151,8137,8185,8128,8169,8194,8174,8169,8171,8183,8312,2.513331890106201,False
2,8167,8151,8186,8137,8162,8177,8217,8173,8173,8156,8160,8164,8158,8291,2.521064758300781,False
3,8163,8140,8161,8130,8100,8165,8134,8155,8164,8139,8157,8156,8154,8285,2.528316020965576,False
4,8173,8155,8173,8154,8113,8159,8163,8153,8167,8137,8163,8179,8177,8305,2.536000967025757,False
5,8190,8170,8207,8171,8122,8161,8197,8141,8148,8145,8162,8182,8171,8290,2.544087171554565,False
6,8167,8165,8172,8165,8103,8162,8146,8113,8129,8134,8156,8155,8145,8260,2.5521278381347656,False
7,8161,8172,8167,8163,8147,8172,8168,8122,8134,8133,8159,8158,8138,8249,2.5603811740875244,False
8,8167,8183,8160,8166,8156,8182,8135,8135,8155,8165,8170,8166,8148,8250,2.568176746368408,False
9,8183,8192,8183,8177,8192,8189,8192,8158,8154,8160,8179,8159,8161,8265,2.576311588287353,False
10,8196,8191,8193,8186,8182,8187,8178,8163,8151,8145,8183,8170,8196,8298,2.5841853618621826,False
11,8181,8182,8156,8171,8158,8179,8139,8154,8166,8174,8177,8177,8215,8301,2.592357397079468,False
12,8161,8172,8170,8153,8170,8179,8190,8161,8163,8183,8170,8159,8187,8257,2.599095582962036,False
13,8143,8166,8152,8163,8118,8183,8107,8151,8160,8170,8167,8146,8168,8245,2.6073267459869385,False
14,8167,8174,8164,8168,8158,8187,8167,8163,8161,8159,8158,8157,8159,8260,2.615119218826294,False
15,8194,8178,8196,8161,8165,8186,8197,8175,8167,8150,8152,8168,8155,8258,2.6232707500457764,False
16,8173,8186,8166,8177,8108,8183,8115,8174,8190,8168,8160,8167,8175,8261,2.6311826705932617,False
17,8182,8210,8197,8199,8172,8193,8230,8197,8191,8184,8173,8171,8177,8270,2.639336109161377,False
18,8203,8208,8204,8192,8175,8194,8213,8194,8184,8180,8170,8171,8169,8282,2.647218942642212,False
19,8197,8182,8170,8168,8158,8199,8153,8182,8188,8161,8158,8168,8176,8289,2.655327796936035,False
20,8180,8175,8162,8153,8159,8199,8148,8174,8187,8155,8162,8165,8184,8282,2.662125587463379,False
21,8167,8190,8157,8162,8159,8185,8151,8160,8183,8168,8167,8156,8176,8269,2.6701371669769287,False
22,8182,8194,8190,8170,8215,8192,8220,8173,8181,8168,8155,8158,8152,8260,2.678128957748413,False
23,8178,8185,8159,8163,8198,8202,8131,8169,8194,8168,8145,8158,8145,8268,2.6864242553710938,False
24,8176,8200,8170,8168,8225,8200,8188,8172,8196,8166,8157,8164,8156,8274,2.6942715644836426,False
25,8201,8210,8226,8183,8207,8199,8225,8173,8176,8166,8172,8185,8173,8273,2.702257871627808,False
26,8180,8187,8150,8174,8118,8197,8071,8143,8168,8166,8162,8177,8173,8268,2.7102959156036377,False
27,8171,8186,8153,8157,8220,8192,8193,8161,8159,8147,8151,8164,8146,8256,2.7183384895324707,False
28,8179,8193,8200,8163,8240,8179,8209,8170,8154,8149,8169,8182,8167,8275,2.726182699203491,False
29,8173,8184,8172,8171,8178,8172,8110,8162,8165,8177,8182,8199,8205,8305,2.733129501342773,False
30,8186,8191,8177,8168,8216,8179,8161,8179,8175,8194,8172,8191,8195,8297,2.741133689880371,False
31,8180,8199,8169,8165,8225,8187,8165,8178,8181,8197,8163,8170,8196,8276,2.749236822128296,False
32,8173,8189,8184,8164,8217,8193,8190,8175,8179,8187,8170,8177,8214,8275,2.757275342941284,False
33,8168,8186,8181,8161,8164,8184,8140,8166,8181,8179,8172,8190,8204,8286,2.7651121616363525,False
34,8156,8202,8160,8154,8171,8173,8164,8164,8187,8179,8163,8170,8178,8270,2.773074150085449,False
35,8170,8197,8182,8153,8188,8170,8207,8160,8183,8163,8163,8170,8181,8249,2.781312704086304,False
36,8166,8190,8157,8161,8107,8166,8100,8130,8176,8153,8169,8188,8209,8269,2.7893054485321045,False
37,8177,8211,8193,8164,8157,8180,8210,8140,8157,8155,8173,8194,8192,8280,2.796029567718506,False
38,8189,8211,8208,8166,8189,8185,8208,8138,8142,8141,8164,8177,8158,8258,2.804070472717285,False
39,8155,8191,8136,8160,8162,8172,8109,8116,8133,8125,8153,8147,8147,8228,2.811994791030884,False
40,8126,8178,8158,8132,8180,8182,8219,8139,8122,8133,8157,8139,8128,8199,2.820155382156372,False
41,8125,8169,8171,8126,8118,8197,8171,8154,8143,8140,8171,8161,8149,8221,2.828176736831665,False
42,8165,8184,8170,8148,8117,8194,8141,8168,8177,8134,8189,8191,8202,8274,2.836130142211914,False
43,8185,8198,8180,8147,8144,8189,8164,8188,8196,8168,8197,8185,8203,8283,2.8441433906555176,False
44,8162,8186,8172,8142,8149,8195,8166,8205,8214,8205,8185,8160,8170,8257,2.852238416671753,False
45,8162,8181,8183,8149,8162,8195,8185,8221,8225,8189,8180,8165,8168,8252,2.8601717948913574,False
46,8162,8183,8151,8154,8138,8180,8130,8200,8228,8178,8188,8169,8191,8274,2.8670027256011963,False
47,8191,8189,8186,8161,8212,8187,8240,8202,8218,8179,8185,8172,8187,8286,2.876103162765503,False
48,8207,8193,8208,8174,8190,8196,8189,8196,8215,8183,8177,8179,8188,8292,2.883219718933105,False
49,8167,8192,8150,8181,8125,8190,8073,8161,8219,8179,8181,8176,8206,8294,2.8911292552948,False
50,8171,8201,8196,8187,8200,8195,8217,8156,8199,8159,8190,8187,8200,8282,2.8991944789886475,False
51,8190,8203,8191,8201,8162,8189,8141,8126,8173,8168,8189,8191,8198,8292,2.9071736335754395,False
52,8203,8210,8165,8211,8167,8182,8124,8114,8163,8178,8189,8189,8203,8314,2.9151828289031982,False
53,8244,8227,8236,8225,8246,8190,8259,8145,8160,8161,8201,8209,8209,8322,2.923086881637573,False
54,8242,8230,8216,8228,8194,8189,8171,8151,8169,8162,8194,8206,8214,8325,2.930220365524292,False
55,8207,8212,8171,8208,8171,8187,8142,8168,8182,8182,8173,8182,8192,8314,2.9381203651428223,False
56,8175,8191,8168,8184,8201,8188,8174,8189,8188,8192,8174,8174,8178,8295,2.946210622787476,False
57,8158,8188,8162,8175,8225,8189,8166,8195,8184,8173,8183,8177,8195,8291,2.954075336456299,False
58,8164,8177,8125,8166,8173,8182,8086,8184,8185,8150,8182,8177,8212,8304,2.962106704711914,False
59,8167,8162,8110,8146,8165,8178,8113,8176,8185,8158,8179,8160,8191,8291,2.9701087474823,False
60,8164,8167,8183,8146,8235,8190,8256,8182,8161,8152,8174,8149,8141,8249,2.978237628936768,False
61,8128,8171,8152,8163,8156,8189,8120,8149,8157,8138,8173,8147,8138,8230,2.98614239692688,False
62,8124,8179,8136,8162,8165,8185,8160,8153,8173,8142,8177,8148,8151,8231,2.993150234222412,False
63,8170,8192,8217,8155,8205,8194,8264,8189,8178,8151,8182,8172,8148,8250,3.0012264251708984,False
64,8149,8184,8157,8172,8095,8191,8062,8163,8193,8175,8185,8187,8169,8280,3.0092735290527344,False
65,8138,8184,8148,8188,8134,8191,8155,8165,8207,8183,8198,8187,8187,8278,3.017173767089844,False
66,8166,8190,8209,8178,8185,8196,8265,8184,8207,8160,8200,8188,8186,8271,3.025193929672241,False
67,8162,8178,8172,8163,8147,8197,8147,8160,8198,8144,8182,8180,8181,8275,3.0330252647399902,False
68,8162,8182,8156,8175,8157,8196,8136,8134,8180,8152,8179,8164,8174,8260,3.041137456893921,False
69,8178,8205,8170,8200,8165,8184,8170,8122,8165,8152,8180,8161,8165,8248,3.049167394638061,False
70,8185,8204,8176,8182,8186,8182,8193,8128,8143,8127,8167,8178,8147,8247,3.057152032852173,False
71,8153,8175,8131,8144,8149,8178,8101,8118,8132,8127,8166,8180,8146,8244,3.0640666484832764,False
72,8152,8176,8154,8153,8172,8171,8163,8138,8140,8136,8186,8186,8153,8248,3.0722298622131348,False
73,8195,8197,8223,8178,8209,8184,8233,8183,8163,8136,8197,8209,8164,8270,3.0801119804382324,False
74,8171,8184,8155,8170,8159,8196,8111,8191,8197,8159,8182,8200,8180,8285,3.08816146850586,False
75,8177,8180,8211,8165,8257,8211,8315,8231,8202,8164,8171,8196,8168,8270,3.096110582351685,False
76,8203,8188,8271,8186,8211,8207,8286,8223,8202,8165,8180,8207,8168,8269,3.104166984558105,False
77,8160,8183,8172,8191,8095,8178,8086,8175,8207,8170,8181,8191,8187,8276,3.112132787704468,False
78,8157,8177,8190,8186,8173,8168,8211,8197,8191,8160,8168,8186,8179,8271,3.120136022567749,False
79,8167,8180,8188,8190,8156,8181,8148,8202,8203,8167,8172,8193,8188,8282,3.127197265625,False
80,8149,8195,8155,8189,8162,8202,8139,8202,8231,8187,8189,8185,8200,8280,3.1352458000183105,False
81,8145,8182,8179,8188,8185,8202,8217,8209,8229,8177,8172,8173,8173,8257,3.142985343933105,False
82,8150,8165,8151,8192,8096,8191,8114,8185,8225,8149,8146,8163,8148,8253,3.1510603427886963,False
83,8169,8182,8116,8189,8062,8188,8057,8177,8236,8150,8157,8169,8161,8265,3.159226417541504,False
84,8189,8199,8128,8195,8116,8190,8114,8187,8242,8166,8175,8187,8196,8292,3.1672399044036865,False
85,8209,8197,8188,8195,8173,8195,8228,8195,8229,8164,8172,8196,8203,8316,3.1752190589904785,False
86,8189,8182,8164,8176,8103,8188,8145,8165,8214,8165,8167,8180,8188,8306,3.1831977367401123,False
87,8136,8165,8110,8156,8099,8184,8116,8145,8205,8173,8162,8155,8171,8267,3.189938545227051,False
88,8147,8158,8187,8145,8227,8191,8277,8178,8199,8163,8161,8166,8155,8247,3.1983718872070312,False
89,8164,8156,8189,8151,8178,8181,8151,8179,8222,8165,8175,8186,8177,8279,3.2063755989074707,False
90,8155,8159,8127,8152,8115,8166,8073,8170,8236,8176,8179,8175,8195,8291,3.214028835296631,False
91,8175,8162,8162,8133,8154,8160,8188,8178,8205,8159,8163,8168,8164,8265,3.22214674949646,False
92,8193,8158,8183,8133,8153,8145,8164,8161,8183,8144,8153,8177,8154,8273,3.230069637298584,False
93,8207,8163,8196,8159,8169,8143,8170,8165,8188,8146,8172,8200,8179,8309,3.238130569458008,False
94,8200,8169,8177,8165,8142,8152,8140,8170,8194,8166,8183,8211,8192,8315,3.246300458908081,False
95,8191,8172,8168,8159,8141,8157,8151,8170,8190,8171,8174,8201,8185,8301,3.254138231277466,False
96,8208,8184,8188,8184,8135,8168,8161,8174,8187,8154,8181,8206,8204,8318,3.261162519454956,False
97,8214,8194,8168,8202,8091,8180,8125,8170,8190,8166,8189,8217,8230,8341,3.269122362136841,False
98,8222,8207,8203,8197,8144,8195,8230,8178,8187,8183,8178,8218,8215,8326,3.277066707611084,False
99,8204,8205,8181,8198,8120,8196,8152,8149,8184,8174,8164,8202,8207,8308,3.2849438190460205,False
100,8175,8191,8134,8185,8110,8183,8137,8130,8172,8146,8164,8179,8200,8295,3.2930474281311035,False
101,8184,8180,8188,8157,8159,8178,8257,8152,8149,8141,8164,8174,8172,8272,3.301020622253418,False
102,8169,8165,8169,8150,8104,8182,8136,8146,8161,8165,8160,8168,8178,8270,3.3090922832489014,False
103,8151,8172,8144,8172,8102,8198,8134,8176,8204,8174,8164,8169,8197,8282,3.3159871101379395,False
104,8144,8170,8154,8162,8109,8198,8195,8217,8228,8173,8162,8166,8184,8274,3.3240950107574463,False
105,8142,8145,8159,8128,8121,8194,8205,8221,8223,8178,8160,8162,8172,8266,3.332092761993408,False
106,8155,8138,8162,8135,8097,8204,8145,8212,8236,8195,8166,8177,8190,8283,3.3400607109069824,False
107,8140,8154,8121,8153,8047,8199,8090,8202,8263,8201,8165,8174,8200,8286,3.348024368286133,False
108,8156,8163,8212,8149,8193,8196,8353,8228,8230,8160,8161,8173,8160,8242,3.356019973754883,False
109,8171,8149,8245,8148,8171,8183,8257,8196,8189,8138,8161,8179,8146,8237,3.364017963409424,False
110,8158,8165,8155,8163,8075,8160,8055,8145,8194,8153,8156,8174,8161,8274,3.3721818923950195,False
111,8178,8189,8198,8179,8161,8158,8208,8153,8191,8140,8160,8184,8149,8265,3.38025426864624,False
112,8171,8177,8195,8188,8143,8157,8151,8139,8180,8125,8170,8190,8148,8246,3.3871374130249023,False
113,8177,8184,8181,8193,8144,8161,8159,8139,8166,8130,8162,8191,8145,8265,3.395132780075073,False
114,8192,8205,8197,8208,8139,8172,8173,8137,8159,8132,8165,8190,8139,8282,3.403116464614868,False
115,8172,8202,8173,8223,8126,8177,8131,8130,8168,8126,8178,8184,8160,8267,3.411227464675904,False
116,8176,8186,8195,8203,8172,8175,8210,8158,8171,8130,8175,8201,8184,8275,3.4191856384277344,False
117,8163,8170,8160,8181,8127,8169,8143,8160,8179,8165,8168,8209,8200,8316,3.427060127258301,False
118,8150,8167,8152,8178,8148,8183,8179,8181,8188,8174,8166,8185,8195,8305,3.4353132247924805,False
119,8145,8153,8166,8152,8156,8191,8194,8203,8194,8158,8155,8160,8176,8256,3.4433352947235107,False
120,8119,8125,8125,8119,8115,8181,8144,8190,8206,8165,8143,8148,8158,8238,3.450347185134888,False
121,8129,8133,8161,8129,8135,8184,8222,8197,8211,8175,8158,8166,8150,8245,3.458237409591675,False
122,8142,8154,8168,8163,8081,8187,8147,8194,8222,8188,8176,8180,8179,8247,3.466061353683472,False
123,8153,8161,8166,8173,8082,8183,8150,8193,8231,8196,8173,8189,8193,8249,3.4740102291107178,False
124,8176,8159,8204,8162,8113,8177,8214,8192,8221,8176,8157,8204,8168,8270,3.4822051525115967,False
125,8167,8154,8158,8174,8036,8165,8098,8162,8210,8154,8151,8192,8157,8279,3.490170478820801,False
126,8170,8168,8135,8190,8035,8159,8095,8151,8194,8141,8162,8175,8167,8257,3.4983484745025635,False
127,8201,8185,8176,8191,8089,8156,8158,8154,8174,8147,8164,8196,8180,8267,3.5062708854675293,False
238,8212,8191,8188,8202,8088,8159,8159,8154,8176,8169,8160,8223,8193,8316,3.514308452606201,False
0,8206,8199,8154,8216,8039,8164,8104,8148,8195,8183,8163,8216,8214,8337,3.5212674140930176,False
1,8219,8212,8153,8221,8063,8166,8122,8157,8212,8195,8170,8215,8235,8334,3.529198169708252,False
2,8243,8211,8226,8213,8173,8179,8259,8192,8212,8193,8169,8234,8222,8339,3.537283182144165,False
3,8217,8185,8210,8189,8159,8195,8213,8193,8212,8182,8162,8212,8196,8333,3.545199394226074,False
4,8174,8166,8170,8159,8128,8203,8204,8184,8206,8160,8150,8170,8170,8284,3.553141117095948,False
5,8162,8153,8171,8150,8089,8188,8182,8175,8193,8141,8137,8162,8142,8243,3.5612356662750244,False
6,8156,8146,8120,8159,8034,8177,8060,8165,8210,8160,8143,8175,8152,8280,3.569148540496826,False
7,8183,8160,8156,8159,8116,8189,8184,8196,8237,8179,8160,8183,8184,8322,3.5770373344421387,False
8,8198,8175,8182,8165,8096,8176,8175,8183,8240,8182,8164,8176,8187,8309,3.584059000015259,False
9,8183,8178,8141,8177,8068,8159,8117,8144,8214,8170,8142,8165,8159,8284,3.5921943187713623,False
10,8196,8173,8177,8169,8168,8173,8224,8154,8184,8142,8134,8169,8135,8272,3.600160360336304,False
11,8197,8161,8175,8157,8154,8174,8168,8151,8186,8141,8148,8163,8144,8268,3.608234167098999,False
12,8185,8163,8155,8174,8107,8166,8127,8140,8184,8149,8148,8160,8141,8252,3.616271495819092,False
13,8166,8161,8151,8181,8087,8163,8123,8127,8159,8139,8138,8172,8135,8243,3.62432312965393,False
14,8166,8158,8172,8159,8135,8164,8183,8132,8144,8127,8150,8181,8146,8262,3.632267713546753,False
15,8184,8162,8187,8158,8148,8172,8172,8152,8173,8153,8169,8196,8169,8297,3.640167713165283,False
16,8174,8171,8140,8176,8097,8179,8089,8155,8203,8190,8161,8197,8194,8306,3.6483137607574463,False
17,8203,8189,8229,8173,8222,8193,8328,8191,8174,8160,8157,8198,8178,8280,3.655326843261719,False
18,8209,8176,8254,8152,8203,8191,8273,8186,8160,8131,8163,8198,8155,8266,3.663328170776367,False
19,8151,8144,8114,8140,8064,8177,8007,8141,8191,8155,8152,8177,8157,8264,3.671246528625488,False
20,8163,8145,8132,8147,8130,8186,8137,8164,8193,8175,8146,8178,8165,8262,3.679048776626587,False
21,8184,8153,8175,8158,8173,8192,8191,8184,8190,8175,8157,8191,8173,8277,3.687321424484253,False
22,8173,8154,8159,8154,8182,8192,8173,8183,8208,8168,8164,8191,8175,8285,3.69527530670166,False
23,8189,8162,8175,8157,8183,8197,8183,8184,8217,8182,8165,8201,8178,8290,3.703189611434937,False
24,8194,8162,8170,8169,8179,8193,8161,8178,8209,8194,8171,8204,8174,8294,3.711287498474121,False
25,8179,8158,8171,8165,8216,8189,8188,8187,8202,8172,8171,8192,8157,8271,3.718268632888794,False
26,8166,8163,8162,8164,8202,8192,8141,8182,8206,8163,8158,8176,8151,8243,3.726148843765259,False
27,8190,8173,8188,8177,8226,8191,8187,8172,8193,8172,8159,8186,8157,8251,3.7342007160186768,False
28,8217,8180,8210,8188,8211,8183,8197,8157,8182,8179,8183,8212,8183,8295,3.742115020751953,False
29,8206,8193,8173,8199,8153,8187,8122,8147,8195,8193,8185,8211,8222,8327,3.750223875045776,False
30,8206,8196,8182,8197,8177,8195,8171,8157,8196,8201,8170,8203,8230,8319,3.7582695484161377,False
31,8199,8175,8166,8180,8157,8184,8135,8144,8187,8202,8168,8197,8224,8307,3.766044855117798,False
32,8186,8163,8155,8163,8170,8176,8174,8149,8183,8188,8170,8186,8205,8301,3.774143695831299,False
33,8182,8155,8174,8150,8161,8173,8188,8166,8178,8166,8160,8181,8178,8288,3.782135486602783,False
34,8165,8148,8135,8147,8103,8171,8097,8157,8188,8171,8155,8182,8178,8288,3.789137363433838,False
35,8177,8157,8179,8141,8187,8181,8234,8181,8191,8180,8163,8186,8179,8292,3.797377347946167,False
36,8163,8141,8190,8130,8188,8172,8210,8171,8188,8169,8158,8170,8168,8276,3.8050715923309326,False
37,8130,8131,8141,8131,8128,8164,8122,8144,8188,8158,8149,8159,8151,8246,3.813307046890259,False
38,8165,8165,8181,8157,8142,8174,8177,8162,8186,8167,8167,8185,8142,8252,3.821264266967773,False
39,8205,8191,8205,8184,8138,8163,8151,8160,8181,8168,8181,8201,8154,8296,3.829057216644287,False
40,8220,8190,8210,8194,8148,8152,8157,8144,8164,8151,8176,8199,8163,8302,3.837130308151245,False
41,8206,8182,8171,8198,8113,8167,8092,8129,8158,8166,8176,8190,8179,8277,3.845132350921631,False
42,8183,8180,8163,8184,8151,8177,8162,8138,8161,8188,8178,8183,8190,8269,3.852108001708984,True
43,8184,8174,8207,8161,8175,8171,8238,8147,8155,8185,8181,8193,8191,8289,3.860250234603882,True
44,8165,8155,8151,8156,8075,8152,8079,8127,8159,8187,8182,8189,8202,8308,3.868191957473755,True
45,8164,8148,8158,8154,8118,8153,8164,8154,8162,8181,8174,8185,8192,8290,3.876208066940308,True
46,8159,8140,8183,8142,8143,8155,8193,8164,8164,8167,8172,8178,8178,8271,3.884223699569702,True
47,8136,8134,8143,8141,8130,8142,8118,8151,8165,8153,8171,8164,8179,8267,3.892143487930298,True
48,8159,8142,8188,8154,8183,8154,8218,8176,8162,8159,8171,8181,8173,8272,3.900137424468994,True
49,8163,8145,8198,8162,8130,8154,8184,8173,8174,8180,8178,8198,8179,8285,3.908215999603272,True
50,8144,8155,8166,8175,8093,8132,8140,8152,8177,8161,8179,8174,8179,8273,3.916161298751831,True
51,8153,8164,8157,8194,8087,8130,8127,8137,8166,8142,8170,8150,8160,8255,3.923315763473511,True
52,8178,8177,8171,8206,8107,8155,8154,8134,8166,8155,8174,8174,8161,8274,3.93115496635437,True
53,8194,8195,8200,8207,8143,8167,8192,8140,8161,8153,8179,8211,8172,8303,3.939270257949829,True
54,8183,8192,8163,8200,8105,8156,8118,8124,8145,8157,8167,8204,8179,8314,3.947327136993408,True
55,8205,8184,8183,8194,8139,8162,8210,8133,8134,8159,8166,8197,8185,8316,3.9550821781158447,True
56,8221,8179,8203,8191,8124,8165,8188,8143,8138,8147,8169,8211,8204,8330,3.963325500488281,True
57,8194,8168,8152,8174,8086,8160,8104,8140,8136,8147,8157,8204,8209,8340,3.9713151454925537,True
58,8197,8151,8178,8150,8144,8163,8220,8157,8114,8143,8158,8183,8175,8308,3.978354215621948,True
59,8190,8139,8170,8150,8096,8158,8153,8152,8118,8150,8168,8176,8174,8289,3.986315965652466,True
60,8196,8160,8174,8169,8093,8166,8145,8168,8154,8183,8169,8190,8202,8314,3.994282484054565,True
61,8232,8187,8213,8188,8136,8174,8189,8194,8183,8206,8172,8200,8211,8329,4.002323389053345,True
62,8218,8178,8177,8197,8137,8165,8144,8183,8188,8201,8179,8185,8202,8304,4.010256767272949,True
63,8192,8165,8179,8184,8168,8163,8197,8180,8179,8182,8178,8169,8177,8273,4.018316030502319,True
64,8183,8159,8168,8168,8135,8159,8130,8165,8188,8169,8163,8150,8153,8266,4.026386499404907,True
65,8199,8167,8165,8176,8159,8163,8136,8173,8192,8161,8163,8143,8142,8262,4.034114122390747,True
66,8206,8174,8182,8187,8182,8175,8175,8192,8193,8175,8172,8165,8159,8266,4.04234790802002,True
67,8176,8151,8147,8162,8155,8174,8136,8180,8191,8179,8164,8168,8157,8273,4.049309730529785,True
68,8172,8135,8167,8136,8188,8166,8202,8179,8164,8142,8156,8161,8119,8263,4.05705451965332,True
69,8172,8149,8156,8157,8141,8154,8118,8171,8162,8135,8167,8162,8129,8269,4.065287351608276,True
70,8174,8172,8160,8179,8170,8159,8151,8179,8175,8162,8176,8161,8157,8267,4.073279619216919,True
71,8191,8167,8219,8167,8230,8174,8237,8176,8156,8152,8164,8162,8136,8236,4.081148147583008,True
72,8171,8154,8169,8155,8162,8166,8104,8144,8145,8131,8156,8157,8124,8242,4.089276552200317,True
73,8166,8170,8155,8164,8193,8160,8161,8167,8155,8143,8166,8165,8151,8277,4.097089767456055,True
74,8163,8173,8180,8168,8207,8166,8198,8186,8162,8171,8171,8176,8181,8283,4.105064392089844,True
75,8140,8160,8158,8159,8178,8165,8151,8172,8163,8168,8157,8173,8178,8270,4.112269878387451,True
76,8137,8160,8139,8156,8182,8160,8147,8175,8168,8156,8145,8164,8157,8273,4.120080947875977,True
77,8147,8174,8135,8170,8185,8162,8145,8179,8185,8162,8150,8164,8163,8286,4.128254890441895,True
78,8181,8187,8200,8189,8215,8176,8231,8195,8197,8172,8154,8184,8173,8289,4.136287689208984,True
79,8185,8179,8174,8195,8148,8171,8109,8181,8199,8186,8143,8177,8170,8291,4.144312143325806,True
80,8184,8175,8169,8187,8221,8166,8198,8183,8185,8156,8127,8149,8134,8265,4.1522417068481445,True
81,8208,8179,8269,8184,8307,8183,8364,8213,8178,8122,8132,8156,8104,8223,4.160259246826172,True
82,8174,8167,8195,8189,8138,8185,8121,8182,8202,8159,8142,8157,8121,8225,4.168373107910156,True
83,8172,8186,8176,8196,8137,8177,8153,8166,8198,8169,8143,8160,8138,8250,4.176288366317749,True
84,8207,8222,8229,8214,8177,8167,8195,8156,8177,8159,8156,8191,8172,8287,4.183107137680054,True
85,8202,8227,8191,8231,8121,8162,8097,8132,8176,8185,8164,8208,8216,8316,4.191224813461304,True
86,8221,8215,8211,8223,8132,8152,8193,8128,8152,8174,8148,8204,8200,8311,4.1994500160217285,True
87,8228,8199,8187,8200,8098,8138,8125,8103,8127,8149,8128,8186,8167,8307,4.207043647766113,True
88,8193,8193,8114,8184,8090,8146,8054,8110,8138,8151,8133,8166,8166,8308,4.215392351150513,True
89,8154,8187,8104,8168,8108,8156,8131,8145,8157,8144,8138,8158,8166,8287,4.223114967346191,True
90,8119,8168,8124,8141,8121,8155,8205,8162,8158,8127,8124,8144,8130,8249,4.231114149093628,True
91,8107,8154,8133,8129,8139,8158,8174,8167,8152,8125,8121,8128,8096,8221,4.239298105239868,True
92,8109,8150,8117,8135,8136,8153,8105,8158,8157,8130,8126,8124,8103,8213,4.246296644210815,True
93,8124,8149,8157,8130,8176,8148,8216,8169,8155,8118,8130,8142,8102,8225,4.254258155822754,True
94,8126,8147,8175,8133,8156,8163,8185,8180,8163,8131,8139,8159,8112,8251,4.262363433837891,True
95,8111,8159,8136,8165,8153,8179,8085,8192,8206,8178,8159,8167,8159,8266,4.270281553268433,True
96,8135,8184,8185,8196,8246,8179,8201,8229,8233,8201,8166,8182,8173,8255,4.278310775756836,True
97,8162,8201,8209,8215,8209,8166,8168,8215,8229,8200,8158,8189,8167,8257,4.286227226257324,True
98,8196,8223,8196,8241,8181,8159,8128,8191,8224,8192,8161,8206,8195,8298,4.294276475906372,True
99,8235,8236,8210,8256,8213,8156,8172,8192,8221,8188,8170,8234,8229,8342,4.302304267883301,True
100,8238,8241,8199,8257,8200,8154,8166,8183,8221,8210,8175,8236,8248,8365,4.30907678604126,True
101,8251,8257,8231,8263,8216,8171,8213,8188,8227,8247,8187,8234,8264,8373,4.317293405532837,True
102,8244,8251,8211,8260,8165,8173,8134,8167,8233,8258,8195,8231,8271,8383,4.325329065322876,True
103,8217,8225,8172,8231,8157,8156,8138,8139,8199,8217,8170,8210,8238,8364,4.333214044570923,True
104,8204,8193,8169,8197,8182,8139,8175,8131,8150,8174,8141,8183,8199,8314,4.341233253479004,True
105,8185,8169,8139,8182,8173,8133,8137,8135,8145,8166,8134,8166,8189,8286,4.349318027496338,True
106,8194,8177,8186,8185,8219,8142,8236,8171,8162,8161,8139,8182,8179,8295,4.357138156890869,True
107,8183,8179,8177,8189,8176,8134,8138,8169,8171,8173,8145,8190,8177,8307,4.365390539169312,True
108,8162,8178,8136,8190,8194,8122,8108,8160,8164,8178,8147,8173,8175,8288,4.373106002807617,True
109,8198,8195,8198,8196,8257,8120,8231,8177,8169,8175,8153,8185,8174,8286,4.380288124084473,True
110,8203,8196,8188,8199,8183,8106,8134,8164,8186,8192,8156,8191,8185,8307,4.388435125350952,True
111,8181,8187,8170,8187,8199,8109,8144,8164,8176,8180,8160,8178,8175,8294,4.396322011947632,True
112,8182,8182,8173,8188,8224,8120,8163,8163,8165,8160,8161,8180,8165,8286,4.404341459274292,True
113,8192,8186,8162,8200,8211,8119,8147,8157,8167,8163,8158,8191,8168,8304,4.412085056304932,True
114,8199,8187,8173,8183,8222,8121,8171,8166,8160,8154,8160,8190,8166,8300,4.419975519180298,True
115,8190,8183,8162,8175,8214,8126,8140,8162,8156,8155,8160,8188,8169,8289,4.428308010101318,True
116,8219,8202,8205,8204,8259,8128,8214,8167,8154,8186,8170,8212,8181,8302,4.436279773712158,False
117,8228,8218,8196,8213,8232,8112,8149,8144,8156,8204,8175,8213,8202,8317,4.44331431388855,False
118,8194,8206,8155,8193,8239,8102,8140,8130,8157,8167,8158,8182,8193,8307,4.451252698898315,False
119,8204,8190,8213,8189,8282,8110,8245,8160,8153,8157,8163,8196,8180,8310,4.459093332290649,False
120,8210,8189,8186,8199,8183,8105,8105,8156,8178,8212,8188,8220,8213,8336,4.467278003692627,False
121,8212,8204,8170,8195,8204,8114,8162,8164,8187,8203,8172,8196,8200,8309,4.4753172397613525,False
122,8227,8207,8223,8194,8251,8129,8263,8186,8173,8157,8148,8180,8161,8276,4.483098983764648,False
123,8225,8198,8203,8210,8179,8112,8146,8175,8185,8189,8169,8212,8200,8317,4.4913105964660645,False
124,8218,8195,8175,8222,8146,8094,8105,8171,8191,8234,8194,8228,8250,8341,4.499166965484619,False
125,8213,8203,8168,8228,8147,8102,8124,8176,8188,8230,8188,8211,8243,8324,4.507314443588257,False
126,8239,8224,8208,8236,8196,8108,8207,8176,8183,8208,8183,8221,8229,8342,4.514308452606201,False
127,8252,8231,8208,8247,8171,8093,8135,8139,8167,8210,8188,8234,8246,8363,4.522310018539429,False
238,8238,8231,8179,8255,8160,8088,8097,8119,8153,8225,8182,8212,8259,8338,4.530199289321899,False
0,8255,8242,8230,8251,8235,8102,8237,8149,8153,8213,8178,8214,8240,8325,4.538238763809204,False
1,8240,8229,8191,8246,8174,8103,8125,8126,8158,8194,8188,8227,8241,8355,4.546004295349121,False
2,8217,8207,8168,8235,8176,8107,8143,8114,8154,8202,8184,8221,8250,8354,4.554352521896362,False
3,8229,8199,8213,8227,8204,8110,8231,8132,8149,8221,8166,8213,8235,8329,4.562083005905151,False
4,8222,8198,8174,8237,8144,8097,8128,8133,8156,8228,8168,8216,8233,8336,4.570276260375977,False
5,8227,8200,8188,8240,8189,8106,8185,8170,8178,8248,8190,8243,8261,8357,4.577315807342529,False
6,8215,8195,8199,8223,8184,8123,8181,8179,8200,8271,8184,8235,8266,8352,4.585058927536011,False
7,8186,8183,8163,8213,8149,8116,8147,8162,8193,8245,8165,8197,8232,8317,4.593232154846191,False
8,8186,8169,8154,8210,8130,8102,8140,8160,8181,8217,8161,8198,8228,8307,4.60137677192688,False
9,8176,8169,8138,8199,8126,8109,8127,8152,8176,8216,8155,8197,8239,8310,4.609081268310547,False
10,8182,8192,8183,8205,8205,8127,8230,8163,8165,8203,8154,8185,8213,8293,4.617280006408691,False
11,8187,8196,8181,8227,8179,8114,8157,8159,8176,8202,8165,8184,8204,8296,4.625085115432739,False
12,8194,8189,8168,8220,8163,8118,8162,8159,8182,8209,8156,8190,8204,8311,4.633494853973389,False
13,8201,8197,8186,8197,8164,8138,8196,8165,8163,8198,8143,8185,8187,8303,4.640103101730347,False
14,8169,8196,8132,8188,8119,8125,8096,8158,8176,8189,8151,8164,8186,8294,4.648252725601196,False
15,8177,8196,8169,8190,8194,8128,8225,8183,8187,8189,8160,8162,8188,8287,4.656101942062378,False
16,8198,8197,8202,8194,8185,8148,8199,8168,8167,8194,8154,8170,8182,8291,4.664191007614136,False
17,8188,8208,8156,8195,8146,8132,8105,8137,8155,8180,8150,8175,8182,8304,4.672059059143066,False
18,8194,8221,8170,8201,8183,8104,8176,8153,8162,8183,8160,8191,8195,8310,4.680378437042236,False
19,8192,8210,8167,8213,8184,8110,8158,8157,8174,8229,8173,8190,8219,8315,4.688072919845581,False
20,8195,8194,8174,8203,8223,8123,8202,8163,8176,8233,8173,8181,8212,8313,4.696260929107666,False
21,8194,8179,8172,8179,8212,8106,8177,8163,8184,8207,8163,8189,8207,8320,4.70315408706665,False
22,8186,8180,8164,8178,8201,8103,8149,8161,8193,8224,8162,8200,8220,8331,4.711228847503662,False
23,8188,8191,8176,8188,8187,8118,8159,8165,8189,8217,8165,8194,8207,8318,4.719093322753906,False
24,8186,8188,8145,8186,8140,8116,8118,8163,8188,8181,8157,8183,8199,8308,4.7272820472717285,False
25,8217,8190,8208,8189,8227,8112,8258,8196,8185,8197,8164,8204,8215,8314,4.735119819641113,False
26,8223,8195,8225,8202,8201,8112,8181,8200,8202,8236,8180,8209,8230,8317,4.743262052536011,False
27,8192,8193,8144,8198,8137,8105,8068,8177,8215,8227,8179,8183,8223,8313,4.751225471496582,False
28,8209,8192,8194,8191,8223,8099,8239,8188,8172,8192,8168,8188,8204,8308,4.759411573410034,False
29,8205,8189,8204,8197,8188,8098,8190,8179,8155,8192,8160,8197,8211,8306,4.766132593154907,False
30,8186,8183,8164,8196,8137,8113,8122,8166,8182,8202,8162,8186,8226,8300,4.774322986602783,False
31,8192,8177,8171,8189,8148,8120,8149,8161,8178,8199,8169,8184,8214,8293,4.7821044921875,False
32,8189,8182,8165,8191,8173,8109,8146,8163,8167,8195,8164,8189,8200,8291,4.790270566940308,False
33,8182,8179,8166,8193,8217,8118,8169,8184,8188,8204,8160,8192,8215,8292,4.798131942749023,False
34,8176,8166,8154,8187,8190,8125,8132,8175,8205,8227,8167,8187,8237,8300,4.806287050247192,False
35,8187,8173,8188,8187,8208,8130,8204,8176,8193,8220,8169,8193,8215,8305,4.814180612564087,False
36,8184,8176,8183,8183,8197,8138,8171,8174,8199,8208,8160,8194,8197,8307,4.822143316268921,False
37,8161,8167,8127,8177,8174,8134,8110,8160,8211,8205,8156,8183,8210,8305,4.830252408981323,False
38,8189,8177,8188,8182,8227,8132,8237,8173,8193,8198,8163,8199,8210,8300,4.837054491043091,False
39,8219,8194,8198,8198,8168,8122,8145,8162,8197,8220,8169,8213,8225,8326,4.845114469528198,False
40,8222,8202,8170,8205,8161,8118,8133,8168,8209,8213,8168,8203,8234,8349,4.853313207626343,False
41,8218,8198,8200,8198,8208,8122,8224,8182,8188,8178,8162,8194,8205,8327,4.861087799072266,False
42,8196,8190,8169,8194,8177,8134,8139,8162,8174,8186,8159,8196,8192,8308,4.869308948516846,False
43,8209,8193,8170,8195,8183,8155,8173,8168,8177,8202,8163,8203,8204,8323,4.877136945724487,False
44,8219,8190,8180,8189,8151,8151,8182,8168,8176,8189,8162,8185,8197,8329,4.885297060012817,False
45,8179,8171,8158,8170,8160,8136,8169,8154,8167,8164,8151,8150,8161,8287,4.8931968212127686,False
46,8151,8149,8148,8151,8187,8147,8158,8154,8165,8163,8151,8148,8144,8260,4.900142192840576,False
47,8148,8138,8124,8137,8156,8160,8122,8157,8170,8165,8154,8159,8149,8280,4.908062934875488,False
48,8165,8146,8163,8128,8181,8152,8218,8166,8153,8129,8138,8145,8126,8264,4.916198015213013,False
49,8143,8148,8151,8129,8148,8133,8147,8141,8134,8120,8131,8124,8110,8227,4.923999071121216,False
50,8116,8144,8123,8128,8152,8130,8135,8139,8133,8149,8152,8140,8130,8239,4.932106733322144,False
51,8146,8140,8175,8124,8161,8140,8198,8167,8145,8150,8165,8170,8156,8269,4.940155506134033,False
52,8152,8138,8155,8137,8082,8146,8095,8154,8163,8153,8159,8167,8170,8284,4.948166847229004,False
53,8160,8156,8175,8152,8169,8158,8199,8165,8164,8183,8166,8166,8161,8283,4.956220388412476,False
54,8163,8160,8196,8154,8199,8154,8200,8178,8158,8195,8171,8171,8162,8285,4.9641828536987305,False
55,8131,8135,8140,8139,8115,8133,8091,8161,8160,8171,8158,8156,8166,8287,4.97094988822937,False
56,8139,8126,8152,8114,8140,8138,8182,8159,8152,8142,8156,8151,8146,8276,4.97928261756897,False
57,8152,8130,8157,8108,8161,8154,8201,8148,8142,8137,8163,8155,8139,8259,4.987181186676025,False
58,8133,8128,8155,8116,8156,8160,8201,8150,8142,8132,8159,8149,8133,8237,4.995267629623413,False
59,8098,8120,8136,8116,8104,8156,8136,8155,8151,8128,8149,8131,8110,8229,5.003087043762207,False
60,8088,8110,8131,8099,8114,8153,8160,8164,8149,8140,8150,8120,8094,8232,5.01095986366272,False
61,8112,8107,8177,8088,8157,8147,8237,8179,8133,8147,8160,8138,8108,8237,5.019273281097412,False
62,8109,8111,8140,8101,8110,8131,8111,8161,8142,8145,8160,8148,8138,8253,5.027311325073242,False
63,8132,8135,8156,8122,8163,8141,8161,8168,8145,8146,8163,8149,8137,8257,5.034155368804932,False
64,8160,8151,8190,8138,8172,8158,8170,8170,8140,8157,8183,8157,8137,8259,5.042223691940308,False
65,8148,8158,8155,8148,8153,8164,8121,8157,8158,8164,8184,8160,8152,8250,5.050035238265991,False
66,8156,8167,8190,8143,8223,8178,8243,8178,8165,8156,8175,8157,8137,8223,5.058191776275635,False
67,8139,8151,8172,8134,8167,8182,8165,8166,8162,8161,8180,8147,8131,8226,5.066181659698486,False
68,8124,8155,8155,8166,8154,8186,8134,8171,8181,8187,8189,8165,8160,8255,5.074109315872192,False
69,8145,8176,8193,8197,8193,8204,8168,8204,8220,8221,8208,8201,8185,8279,5.082066059112549,False
70,8162,8174,8194,8176,8195,8208,8163,8198,8231,8222,8211,8199,8182,8290,5.090188264846802,False
71,8178,8169,8199,8155,8205,8170,8178,8167,8199,8174,8182,8174,8161,8280,5.098231315612793,False
72,8166,8179,8152,8176,8160,8130,8082,8123,8170,8160,8165,8155,8157,8266,5.105138778686523,False
73,8167,8179,8196,8170,8237,8141,8262,8137,8129,8142,8162,8144,8125,8242,5.113037109375,False
74,8162,8142,8245,8116,8229,8139,8306,8143,8085,8087,8147,8130,8071,8206,5.121285915374756,False
75,8113,8127,8140,8107,8110,8114,8047,8107,8093,8076,8140,8118,8068,8198,5.1291444301605225,False
76,8119,8154,8133,8152,8168,8140,8106,8137,8127,8100,8164,8142,8100,8222,5.136948585510254,False
77,8137,8170,8156,8182,8172,8164,8153,8170,8157,8125,8188,8163,8147,8250,5.145121574401856,False
78,8113,8175,8130,8188,8148,8147,8131,8178,8172,8154,8186,8157,8177,8259,5.153025150299072,False
79,8100,8179,8159,8196,8183,8154,8179,8196,8191,8203,8178,8165,8171,8262,5.161116123199463,False
80,8094,8168,8161,8197,8158,8180,8154,8190,8217,8231,8177,8166,8160,8252,5.168112516403198,False
81,8112,8169,8157,8199,8143,8170,8161,8181,8205,8210,8176,8157,8157,8238,5.176179647445679,False
82,8136,8188,8154,8222,8133,8147,8123,8170,8181,8205,8163,8158,8157,8247,5.184059381484985,False
83,8147,8198,8175,8219,8185,8148,8171,8168,8165,8192,8158,8156,8143,8243,5.192213773727417,False
84,8141,8184,8168,8199,8189,8155,8154,8143,8144,8151,8166,8143,8141,8217,5.200274705886841,False
85,8116,8165,8126,8191,8172,8163,8119,8120,8137,8134,8161,8123,8139,8195,5.208219766616821,False
86,8133,8171,8224,8183,8293,8187,8347,8176,8144,8133,8153,8122,8098,8172,5.217865467071533,False
87,8117,8164,8217,8166,8239,8200,8235,8184,8161,8136,8152,8113,8080,8164,5.223978519439697,False
88,8066,8140,8117,8155,8154,8199,8106,8165,8174,8126,8149,8096,8077,8168,5.232079744338989,False
89,8079,8127,8163,8148,8178,8188,8231,8196,8174,8103,8148,8111,8062,8172,5.239082098007202,False
90,8095,8133,8158,8156,8101,8167,8126,8185,8181,8116,8155,8129,8080,8195,5.247195482254028,False
91,8114,8163,8166,8179,8144,8173,8158,8176,8185,8147,8165,8144,8098,8210,5.25508189201355,False
92,8131,8161,8199,8180,8205,8179,8201,8178,8193,8156,8162,8153,8106,8219,5.262923002243042,False
93,8122,8137,8157,8176,8164,8167,8106,8159,8203,8150,8156,8154,8124,8246,5.271141290664673,False
94,8127,8144,8123,8188,8114,8152,8067,8142,8188,8148,8163,8166,8136,8271,5.279098987579346,False
95,8141,8168,8129,8191,8121,8139,8112,8143,8163,8144,8166,8174,8141,8277,5.287130355834961,False
96,8188,8188,8239,8190,8255,8157,8325,8185,8156,8137,8166,8186,8144,8273,5.295142650604248,False
97,8199,8177,8252,8191,8214,8171,8232,8178,8171,8150,8168,8191,8150,8282,5.3020970821380615,False
98,8144,8141,8154,8169,8122,8154,8096,8147,8172,8151,8166,8166,8146,8280,5.31006646156311,False
99,8119,8124,8169,8144,8168,8150,8215,8165,8153,8131,8161,8154,8122,8248,5.318180322647095,False
100,8118,8133,8151,8158,8109,8153,8107,8155,8162,8131,8157,8158,8119,8245,5.326098203659058,False
101,8136,8151,8117,8175,8101,8144,8065,8152,8178,8129,8164,8163,8137,8272,5.334231853485107,False
102,8158,8159,8151,8170,8186,8140,8190,8180,8175,8125,8176,8168,8149,8286,5.342231750488281,False
103,8139,8155,8144,8166,8179,8136,8176,8177,8173,8148,8174,8161,8146,8277,5.350070953369141,False
104,8127,8151,8136,8171,8139,8130,8146,8161,8166,8150,8160,8151,8130,8250,5.3581907749176025,False
105,8130,8149,8141,8158,8127,8130,8152,8161,8159,8124,8158,8150,8126,8228,5.365057706832886,False
106,8124,8142,8149,8137,8139,8134,8174,8172,8155,8118,8166,8151,8130,8231,5.373388290405273,False
107,8118,8133,8137,8147,8109,8136,8116,8158,8154,8127,8162,8142,8129,8247,5.381044864654541,False
108,8131,8144,8144,8165,8128,8146,8156,8163,8158,8128,8157,8136,8124,8245,5.388960361480713,False
109,8146,8155,8188,8159,8163,8159,8243,8191,8157,8132,8162,8147,8122,8228,5.397186279296875,False
110,8120,8139,8147,8154,8073,8151,8100,8171,8159,8146,8163,8151,8134,8229,5.405285835266113,False
111,8119,8143,8146,8159,8103,8149,8134,8176,8174,8151,8159,8147,8137,8240,5.413312673568726,False
112,8145,8164,8189,8165,8171,8165,8203,8191,8190,8158,8164,8154,8141,8253,5.421302556991577,False
113,8126,8158,8145,8180,8153,8156,8115,8151,8174,8151,8172,8154,8146,8249,5.428055286407471,False
114,8140,8159,8188,8183,8229,8145,8247,8144,8126,8114,8171,8155,8120,8225,5.43629264831543,False
115,8158,8171,8202,8172,8199,8144,8207,8144,8121,8117,8165,8151,8115,8231,5.444195032119751,False
116,8133,8156,8132,8166,8136,8139,8095,8133,8145,8135,8159,8140,8128,8253,5.452301025390625,False
117,8123,8135,8142,8155,8165,8136,8167,8142,8143,8119,8165,8142,8108,8246,5.460269451141357,False
118,8129,8146,8154,8161,8169,8144,8160,8144,8146,8131,8174,8152,8111,8248,5.468037128448486,False
119,8161,8173,8171,8186,8193,8157,8170,8157,8158,8158,8173,8168,8149,8274,5.476204872131348,False
120,8167,8165,8157,8186,8154,8155,8131,8165,8175,8155,8168,8165,8167,8288,5.4843058586120605,False
121,8147,8154,8142,8162,8160,8158,8166,8174,8183,8157,8161,8146,8151,8278,5.492048978805542,False
122,8164,8170,8173,8161,8178,8156,8189,8177,8177,8170,8163,8152,8142,8278,5.499338150024414,False
123,8176,8180,8160,8184,8135,8136,8115,8159,8170,8172,8173,8160,8156,8299,5.507247686386108,False
124,8179,8180,8192,8187,8211,8146,8231,8181,8164,8155,8171,8154,8150,8296,5.515191555023193,False
125,8154,8164,8172,8167,8205,8162,8163,8179,8169,8150,8162,8136,8146,8269,5.52321195602417,False
126,8133,8152,8127,8155,8190,8162,8094,8166,8175,8161,8159,8133,8149,8255,5.53137469291687,False
127,8168,8168,8196,8169,8283,8168,8241,8192,8170,8157,8168,8153,8138,8257,5.539344549179077,False
238,8167,8172,8182,8172,8243,8162,8161,8171,8170,8154,8176,8148,8129,8257,5.547274112701416,False
0,8148,8161,8143,8160,8200,8147,8123,8142,8159,8152,8174,8126,8118,8247,5.555185317993164,False
1,8162,8159,8164,8161,8188,8135,8161,8145,8146,8143,8166,8130,8115,8253,5.562393426895142,False
2,8177,8165,8172,8164,8169,8126,8158,8150,8151,8123,8164,8151,8125,8279,5.570215940475464,False
3,8195,8164,8188,8163,8170,8128,8177,8155,8158,8128,8178,8170,8141,8303,5.578277349472046,False
4,8177,8146,8154,8156,8143,8137,8120,8155,8166,8161,8184,8159,8157,8305,5.586216449737549,False
5,8134,8132,8139,8130,8186,8146,8175,8167,8167,8143,8167,8130,8129,8261,5.5942158699035645,False
6,8107,8122,8141,8117,8181,8147,8149,8158,8162,8127,8156,8115,8097,8223,5.602234840393066,False
7,8123,8129,8138,8144,8184,8153,8131,8160,8165,8159,8166,8133,8117,8242,5.610274076461792,False
8,8168,8157,8193,8158,8233,8167,8235,8194,8168,8163,8180,8161,8139,8273,5.618053197860718,False
9,8153,8160,8162,8150,8150,8152,8109,8166,8174,8159,8180,8158,8141,8282,5.625289916992188,False
10,8151,8158,8161,8153,8180,8143,8144,8161,8180,8176,8189,8155,8151,8278,5.63320255279541,False
11,8188,8174,8213,8172,8236,8159,8223,8194,8195,8202,8206,8176,8172,8285,5.6410112380981445,False
12,8172,8181,8163,8188,8172,8161,8124,8178,8201,8209,8196,8171,8165,8299,5.649252653121948,False
13,8164,8175,8166,8181,8197,8153,8188,8167,8179,8178,8169,8147,8137,8278,5.657295942306519,False
14,8160,8158,8172,8156,8203,8150,8176,8159,8178,8170,8159,8133,8135,8253,5.665249824523926,False
15,8141,8153,8150,8149,8185,8168,8138,8168,8195,8178,8160,8130,8129,8256,5.673100471496582,False
16,8144,8160,8151,8163,8169,8183,8147,8185,8199,8167,8167,8134,8124,8272,5.681042432785034,False
17,8161,8164,8148,8160,8184,8181,8151,8180,8205,8173,8172,8138,8140,8278,5.689167737960815,False
18,8184,8161,8195,8151,8252,8185,8222,8181,8218,8212,8175,8160,8155,8284,5.696218490600586,False
19,8164,8153,8171,8156,8215,8183,8137,8167,8228,8232,8179,8168,8170,8307,5.704113721847534,False
20,8156,8165,8155,8162,8242,8185,8180,8173,8216,8198,8172,8152,8157,8300,5.712178945541382,False
21,8192,8180,8205,8169,8265,8184,8229,8176,8201,8180,8167,8156,8137,8277,5.72014307975769,False
22,8180,8174,8165,8171,8178,8167,8102,8152,8208,8202,8177,8160,8158,8281,5.728229999542236,False
23,8157,8169,8171,8161,8210,8161,8215,8165,8197,8187,8182,8154,8150,8269,5.736278295516968,False
24,8142,8160,8183,8153,8198,8155,8222,8164,8177,8162,8175,8150,8124,8247,5.744051933288574,False
25,8127,8155,8143,8160,8149,8151,8124,8157,8178,8183,8168,8150,8144,8260,5.752264261245728,False
26,8137,8163,8146,8157,8155,8160,8140,8169,8176,8187,8168,8159,8161,8281,5.759243726730347,False
27,8140,8172,8143,8159,8149,8161,8127,8159,8173,8165,8175,8163,8165,8289,5.767077445983887,False
28,8164,8181,8178,8177,8221,8165,8203,8161,8175,8171,8184,8172,8180,8289,5.775200605392456,False
29,8168,8181,8167,8174,8235,8175,8155,8152,8178,8189,8175,8165,8183,8278,5.78313136100769,False
30,8128,8170,8129,8140,8247,8169,8146,8136,8164,8164,8155,8132,8136,8243,5.791305780410767,False
31,8122,8149,8161,8124,8283,8151,8207,8140,8134,8136,8147,8119,8092,8208,5.79923939704895,False
32,8120,8131,8132,8149,8238,8145,8103,8132,8129,8131,8148,8123,8103,8209,5.807146787643433,False
33,8131,8133,8149,8169,8267,8161,8180,8150,8131,8112,8158,8131,8109,8215,5.815035581588745,False
34,8139,8134,8183,8165,8228,8170,8184,8158,8140,8134,8171,8131,8119,8219,5.823163986206055,False
35,8121,8133,8145,8163,8163,8167,8111,8157,8165,8182,8174,8132,8146,8234,5.831062078475952,False
36,8142,8143,8174,8181,8221,8179,8206,8187,8183,8188,8179,8158,8157,8249,5.838080644607544,False
37,8149,8149,8173,8200,8211,8187,8151,8187,8198,8189,8183,8167,8168,8260,5.846020221710205,False
38,8136,8149,8156,8187,8212,8178,8139,8186,8197,8196,8176,8155,8171,8263,5.854031324386597,False
39,8136,8142,8159,8161,8228,8165,8164,8193,8192,8195,8170,8157,8164,8271,5.862135410308838,False
40,8139,8134,8156,8155,8243,8165,8181,8193,8189,8171,8169,8159,8159,8271,5.870195150375366,False
41,8145,8122,8182,8152,8267,8173,8204,8191,8178,8146,8168,8158,8153,8260,5.87813663482666,False
42,8126,8106,8138,8134,8212,8162,8089,8164,8181,8163,8169,8154,8156,8265,5.886126756668091,False
43,8152,8120,8168,8126,8253,8159,8209,8164,8170,8170,8172,8156,8153,8256,5.893042087554932,False
44,8170,8123,8194,8129,8215,8155,8209,8146,8138,8141,8164,8149,8144,8245,5.901213645935059,False
45,8114,8098,8112,8124,8125,8137,8063,8121,8129,8134,8153,8134,8139,8257,5.909123420715332,False
46,8135,8112,8171,8137,8214,8151,8218,8173,8147,8163,8164,8158,8144,8266,5.917214393615723,False
47,8196,8144,8213,8178,8208,8163,8186,8189,8175,8187,8184,8191,8179,8285,5.925198793411255,False
48,8195,8149,8173,8192,8171,8148,8110,8168,8184,8171,8189,8187,8191,8297,5.933147668838501,False
49,8170,8139,8176,8165,8185,8142,8169,8164,8169,8147,8170,8163,8156,8260,5.941015005111694,False
50,8162,8132,8164,8158,8188,8158,8164,8150,8159,8152,8154,8143,8136,8227,5.949160099029541,False
51,8171,8134,8162,8164,8216,8177,8173,8151,8154,8156,8166,8147,8145,8241,5.956115007400513,False
52,8139,8122,8139,8150,8177,8172,8130,8149,8153,8160,8180,8153,8159,8252,5.964195966720581,False
53,8137,8121,8174,8155,8205,8177,8195,8167,8158,8173,8188,8168,8164,8255,5.97223711013794,False
54,8197,8152,8210,8194,8201,8192,8157,8186,8183,8181,8202,8202,8192,8303,5.979943752288818,False
55,8219,8171,8170,8212,8158,8179,8097,8182,8200,8192,8198,8210,8226,8348,5.988081216812134,False
56,8204,8158,8212,8180,8241,8153,8280,8193,8165,8171,8175,8183,8190,8315,5.996086597442627,False
57,8138,8117,8163,8137,8180,8132,8146,8159,8141,8134,8160,8138,8141,8255,6.00409722328186,False
58,8092,8103,8078,8129,8123,8134,8041,8138,8157,8130,8155,8123,8138,8234,6.012134313583374,False
59,8131,8124,8160,8152,8193,8156,8220,8173,8165,8151,8166,8155,8143,8240,6.019045352935791,False
60,8143,8132,8182,8163,8142,8172,8173,8171,8162,8160,8174,8165,8148,8254,6.027064561843872,False
61,8148,8143,8160,8167,8109,8175,8124,8162,8153,8147,8168,8162,8149,8265,6.035087585449219,False
62,8185,8164,8173,8178,8135,8166,8135,8165,8149,8155,8171,8180,8151,8279,6.043244361877441,False
63,8189,8170,8172,8175,8162,8164,8151,8173,8160,8169,8179,8184,8157,8280,6.051069736480713,False
64,8155,8155,8150,8164,8144,8158,8146,8177,8168,8165,8171,8165,8157,8256,6.059122562408447,False
65,8134,8146,8138,8159,8118,8144,8143,8168,8156,8151,8155,8146,8140,8235,6.06812596321106,False
66,8168,8146,8204,8156,8177,8150,8258,8181,8132,8122,8159,8156,8122,8233,6.07419753074646,False
67,8163,8131,8172,8158,8130,8155,8136,8163,8141,8127,8179,8172,8146,8253,6.083107948303223,False
68,8133,8134,8134,8161,8142,8162,8141,8155,8155,8154,8183,8166,8163,8248,6.091161012649536,False
69,8170,8152,8229,8162,8226,8185,8307,8187,8148,8153,8172,8166,8149,8233,6.098212957382202,False
70,8163,8142,8171,8163,8118,8183,8103,8172,8163,8147,8163,8160,8150,8249,6.106132745742798,False
71,8120,8131,8104,8153,8113,8170,8099,8172,8171,8135,8158,8143,8128,8239,6.114074945449829,False
72,8132,8144,8173,8159,8173,8176,8237,8196,8164,8135,8167,8154,8120,8221,6.1220433712005615,False
73,8164,8169,8198,8208,8123,8178,8147,8191,8189,8162,8202,8190,8177,8255,6.130089521408081,False
74,8194,8184,8195,8237,8136,8165,8142,8179,8193,8168,8214,8210,8196,8281,6.137978792190552,False
75,8200,8175,8194,8222,8170,8146,8178,8163,8157,8165,8189,8199,8174,8272,6.146146059036255,False
76,8186,8171,8204,8213,8181,8142,8194,8160,8142,8160,8188,8196,8175,8272,6.153127193450928,False
77,8157,8164,8179,8219,8138,8144,8115,8151,8147,8147,8200,8206,8192,8276,6.161125183105469,False
78,8159,8148,8180,8219,8166,8140,8154,8149,8135,8140,8191,8226,8202,8272,6.16898512840271,False
79,8197,8144,8249,8217,8221,8146,8260,8172,8123,8145,8197,8254,8207,8276,6.177162170410156,False
80,8167,8146,8198,8216,8129,8148,8107,8162,8143,8161,8204,8246,8209,8285,6.186159133911133,False
81,8155,8169,8181,8227,8154,8141,8148,8168,8149,8158,8190,8226,8196,8274,6.193047523498535,False
82,8204,8191,8232,8250,8197,8132,8206,8180,8138,8153,8199,8244,8221,8285,6.200070858001709,False
83,8208,8182,8188,8262,8156,8135,8090,8160,8147,8179,8219,8269,8272,8331,6.208003520965576,False
84,8226,8192,8221,8274,8220,8160,8196,8170,8149,8206,8209,8287,8284,8351,6.216098785400391,False
85,8250,8221,8241,8293,8204,8182,8184,8169,8161,8215,8199,8286,8304,8363,6.224015712738037,False
86,8234,8222,8182,8277,8188,8190,8136,8163,8168,8207,8188,8258,8303,8360,6.232084274291992,False
87,8207,8193,8165,8225,8207,8176,8182,8152,8132,8182,8159,8214,8233,8302,6.240110397338867,False
88,8177,8176,8145,8208,8172,8156,8165,8127,8108,8160,8136,8169,8174,8246,6.248053550720215,False
89,8174,8182,8153,8207,8183,8167,8191,8145,8128,8157,8143,8168,8180,8244,6.255971670150757,False
90,8162,8162,8122,8177,8162,8169,8126,8160,8159,8167,8154,8179,8207,8266,6.263962984085083,False
91,8167,8143,8162,8155,8243,8160,8260,8187,8153,8156,8153,8163,8188,8255,6.272015810012817,False
92,8178,8142,8222,8156,8255,8165,8299,8200,8132,8143,8157,8148,8148,8232,6.280055999755859,False
93,8113,8124,8119,8139,8107,8165,8077,8162,8137,8149,8146,8133,8140,8228,6.287936449050903,False
94,8088,8109,8124,8106,8142,8159,8188,8161,8126,8129,8133,8119,8122,8208,6.295005559921265,False
95,8102,8116,8157,8107,8142,8133,8172,8142,8104,8122,8143,8114,8109,8187,6.303135871887207,False
96,8124,8146,8149,8146,8141,8114,8108,8120,8102,8155,8161,8145,8133,8213,6.311156272888184,False
97,8177,8171,8210,8186,8200,8135,8186,8125,8100,8167,8180,8201,8174,8270,6.3189537525177,False
98,8184,8169,8185,8202,8157,8157,8120,8106,8100,8154,8192,8219,8216,8300,6.327209234237671,False
99,8187,8169,8190,8201,8180,8174,8193,8134,8109,8155,8192,8217,8225,8291,6.335107803344727,False
100,8173,8168,8183,8201,8161,8189,8161,8171,8141,8183,8182,8208,8210,8293,6.343174934387207,False
101,8130,8160,8135,8195,8150,8202,8133,8184,8161,8169,8176,8180,8183,8272,6.35003662109375,False
102,8135,8161,8166,8183,8178,8211,8212,8203,8166,8137,8176,8174,8170,8233,6.358222961425781,False
103,8155,8165,8158,8178,8133,8202,8136,8191,8193,8169,8167,8176,8181,8245,6.366314172744751,False
104,8158,8156,8153,8165,8168,8194,8184,8178,8187,8161,8151,8158,8152,8249,6.374046564102173,False
105,8129,8128,8143,8142,8156,8185,8168,8169,8153,8113,8141,8142,8126,8224,6.382106304168701,False
106,8108,8121,8119,8139,8126,8173,8113,8166,8146,8133,8151,8139,8144,8227,6.389957904815674,False
107,8128,8139,8166,8148,8178,8169,8214,8180,8143,8172,8165,8144,8146,8231,6.398063659667969,False
108,8113,8132,8147,8141,8142,8152,8146,8159,8137,8169,8160,8139,8137,8208,6.40608811378479,False
109,8096,8129,8100,8137,8111,8135,8060,8144,8140,8156,8159,8145,8145,8214,6.413130521774292,False
110,8140,8148,8128,8156,8133,8130,8110,8158,8144,8165,8160,8166,8153,8261,6.420924425125122,False
111,8169,8153,8163,8166,8145,8135,8166,8166,8143,8158,8153,8170,8151,8273,6.429096460342407,False
112,8149,8137,8161,8147,8168,8149,8176,8172,8142,8145,8158,8171,8160,8244,6.437144041061401,False
113,8124,8134,8131,8145,8165,8176,8136,8183,8167,8169,8171,8167,8172,8237,6.444947481155396,False
114,8121,8147,8145,8157,8173,8213,8197,8204,8198,8188,8163,8145,8149,8228,6.453184127807617,False
115,8101,8141,8140,8155,8148,8223,8184,8198,8214,8176,8157,8129,8129,8205,6.4611334800720215,False
116,8104,8144,8149,8166,8175,8232,8195,8203,8221,8162,8172,8150,8153,8225,6.469107151031494,False
117,8184,8175,8246,8196,8239,8258,8282,8239,8230,8178,8181,8200,8187,8283,6.477194547653198,False
118,8188,8165,8188,8179,8137,8238,8099,8200,8223,8175,8161,8194,8178,8301,6.484095096588135,False
119,8121,8121,8099,8116,8115,8187,8084,8151,8172,8101,8128,8138,8112,8242,6.492135286331177,False
120,8114,8105,8145,8093,8176,8167,8201,8156,8136,8057,8126,8121,8074,8191,6.500152349472046,False
121,8109,8106,8128,8103,8164,8153,8120,8156,8141,8094,8140,8128,8096,8203,6.508095979690552,False
122,8095,8102,8126,8090,8210,8133,8180,8169,8129,8106,8143,8129,8097,8212,6.5160231590271,False
123,8099,8096,8154,8071,8198,8128,8190,8175,8121,8084,8148,8135,8090,8211,6.5240209102630615,False
124,8115,8099,8149,8076,8170,8137,8141,8171,8143,8108,8157,8145,8107,8222,6.5322041511535645,False
125,8128,8111,8153,8087,8182,8143,8154,8170,8162,8149,8166,8149,8122,8237,6.540086507797241,False
126,8121,8117,8152,8096,8175,8143,8150,8168,8178,8161,8172,8148,8145,8252,6.547070741653442,False
127,8128,8125,8174,8110,8190,8153,8178,8183,8200,8174,8181,8162,8167,8268,6.555163145065308,False
238,8118,8137,8141,8128,8166,8160,8104,8177,8219,8206,8182,8171,8179,8289,6.563136339187622,False
0,8118,8158,8145,8140,8208,8162,8176,8174,8211,8205,8178,8168,8178,8295,6.571125268936157,False
1,8162,8179,8203,8162,8203,8168,8206,8172,8193,8183,8182,8172,8182,8292,6.579180479049683,False
2,8172,8184,8162,8179,8119,8179,8070,8151,8194,8190,8181,8171,8196,8295,6.587119817733765,False
3,8182,8176,8193,8161,8215,8197,8244,8179,8185,8182,8172,8173,8172,8281,6.595226049423218,False
4,8163,8150,8202,8136,8205,8196,8234,8193,8189,8160,8165,8157,8140,8254,6.6032140254974365,False
5,8104,8142,8126,8130,8128,8188,8092,8186,8210,8160,8163,8130,8132,8232,6.611124038696289,False
6,8111,8154,8158,8129,8195,8186,8199,8215,8212,8169,8168,8142,8138,8236,6.61823320388794,False
7,8129,8141,8164,8130,8173,8164,8176,8210,8208,8171,8168,8150,8158,8252,6.6261937618255615,True
8,8116,8130,8145,8121,8125,8137,8141,8183,8192,8156,8164,8138,8144,8240,6.634100437164307,True
9,8098,8134,8135,8104,8106,8128,8122,8157,8174,8152,8159,8140,8121,8232,6.642259836196899,True
10,8102,8141,8135,8110,8141,8142,8155,8154,8180,8153,8163,8158,8138,8261,6.650041818618774,True
11,8128,8142,8175,8121,8165,8163,8206,8165,8188,8143,8170,8169,8151,8281,6.6580846309661865,True
12,8124,8141,8152,8122,8100,8160,8118,8144,8184,8153,8168,8158,8135,8273,6.666136741638184,True
13,8152,8162,8183,8138,8150,8158,8212,8164,8181,8167,8170,8162,8132,8281,6.674226760864258,True
14,8164,8163,8192,8150,8145,8157,8182,8178,8191,8163,8170,8175,8163,8304,6.681096792221069,True
15,8124,8140,8131,8132,8111,8147,8087,8160,8180,8153,8163,8163,8158,8289,6.689224004745483,True
16,8144,8149,8179,8120,8182,8151,8232,8175,8151,8150,8162,8145,8116,8239,6.697159767150879,True
17,8151,8159,8174,8135,8126,8164,8168,8169,8166,8159,8163,8141,8125,8242,6.70525050163269,True
18,8126,8147,8139,8142,8122,8176,8128,8174,8192,8158,8159,8150,8145,8273,6.713115453720093,True
19,8140,8142,8171,8138,8183,8177,8185,8191,8187,8165,8168,8154,8134,8265,6.7210118770599365,True
20,8148,8156,8171,8141,8160,8169,8160,8177,8188,8180,8175,8149,8138,8254,6.72919487953186,True
21,8141,8166,8176,8151,8145,8170,8167,8163,8182,8167,8171,8155,8152,8269,6.737196922302246,True
22,8136,8162,8155,8161,8122,8167,8104,8143,8170,8148,8170,8155,8151,8284,6.7449493408203125,True
23,8161,8166,8169,8154,8157,8166,8169,8157,8178,8156,8171,8156,8148,8276,6.752112865447998,True
24,8162,8163,8186,8139,8139,8166,8183,8181,8196,8172,8164,8167,8156,8271,6.760084867477417,True
25,8123,8143,8145,8127,8094,8155,8119,8168,8186,8155,8158,8155,8158,8276,6.768239974975586,True
26,8139,8143,8177,8126,8156,8157,8211,8170,8158,8119,8163,8148,8148,8275,6.776190280914307,True
27,8152,8149,8162,8128,8128,8164,8127,8164,8166,8136,8163,8158,8155,8278,6.784107208251953,True
28,8147,8161,8154,8125,8151,8164,8150,8169,8170,8162,8159,8162,8150,8266,6.7920989990234375,True
29,8167,8180,8213,8135,8213,8159,8244,8176,8149,8146,8162,8165,8141,8258,6.800040006637573,True
30,8160,8189,8173,8165,8150,8153,8120,8157,8157,8152,8161,8163,8166,8280,6.807234764099121,True
31,8151,8188,8166,8169,8174,8161,8171,8166,8167,8162,8161,8167,8174,8298,6.815092325210571,True
32,8148,8177,8192,8139,8206,8163,8219,8173,8163,8160,8163,8174,8169,8301,6.82326865196228,True
33,8157,8177,8193,8139,8179,8161,8183,8172,8170,8173,8164,8178,8180,8299,6.831228733062744,True
34,8163,8180,8165,8158,8116,8164,8116,8170,8188,8184,8166,8185,8192,8308,6.839309215545654,True
35,8143,8175,8119,8151,8100,8168,8090,8165,8197,8188,8162,8180,8189,8312,6.847161054611206,True
36,8154,8176,8174,8139,8187,8179,8235,8193,8186,8177,8149,8162,8170,8275,6.855154514312744,True
37,8135,8161,8158,8140,8128,8168,8146,8172,8172,8162,8145,8137,8158,8238,6.863262891769409,True
38,8091,8149,8117,8136,8127,8157,8130,8147,8156,8148,8146,8127,8143,8237,6.871210813522339,True
39,8109,8164,8172,8130,8190,8174,8230,8173,8152,8147,8143,8144,8137,8245,6.879179000854492,True
40,8125,8179,8145,8146,8117,8175,8110,8159,8158,8148,8147,8143,8160,8251,6.886078596115112,True
41,8149,8193,8168,8160,8169,8167,8199,8158,8151,8140,8160,8146,8169,8252,6.894248723983765,True
42,8163,8197,8214,8165,8185,8178,8231,8178,8162,8170,8164,8162,8171,8270,6.902021884918213,True
43,8134,8188,8160,8162,8120,8188,8119,8178,8184,8194,8153,8160,8168,8290,6.910242319107056,True
44,8137,8176,8153,8154,8132,8181,8151,8180,8176,8168,8152,8161,8158,8280,6.918243169784546,True
45,8152,8172,8157,8150,8111,8161,8139,8175,8173,8166,8158,8169,8178,8276,6.926037549972534,True
46,8159,8177,8168,8141,8123,8157,8174,8183,8181,8177,8156,8175,8187,8286,6.934241533279419,True
47,8149,8169,8161,8135,8129,8163,8152,8179,8179,8172,8148,8172,8174,8288,6.941231489181519,True
48,8143,8177,8160,8153,8151,8174,8156,8179,8186,8188,8154,8174,8184,8282,6.949324131011963,True
49,8155,8196,8194,8166,8193,8181,8209,8190,8197,8194,8165,8180,8193,8286,6.95721173286438,True
50,8126,8181,8135,8147,8152,8174,8110,8165,8197,8174,8160,8162,8184,8298,6.965314865112305,True
51,8121,8167,8147,8137,8178,8178,8208,8176,8177,8154,8152,8157,8173,8293,6.973195314407349,True
52,8141,8171,8199,8158,8126,8176,8210,8190,8166,8161,8159,8175,8185,8280,6.981222152709961,True
53,8122,8172,8139,8166,8034,8165,8085,8168,8171,8169,8155,8160,8186,8270,6.989129066467285,True
54,8132,8178,8157,8150,8116,8177,8220,8181,8160,8151,8143,8143,8157,8264,6.997212171554565,True
55,8147,8180,8180,8149,8126,8187,8207,8184,8156,8147,8146,8151,8154,8270,7.005198240280151,True
56,8136,8176,8154,8158,8081,8181,8135,8176,8157,8150,8148,8155,8157,8255,7.0122833251953125,True
57,8122,8170,8140,8152,8063,8177,8137,8173,8150,8155,8145,8143,8148,8230,7.020177125930786,True
58,8113,8163,8131,8140,8085,8185,8149,8173,8154,8164,8149,8136,8150,8240,7.028144598007202,True
59,8141,8167,8179,8145,8136,8196,8218,8197,8166,8152,8152,8160,8151,8261,7.036172389984131,True
60,8158,8179,8175,8164,8075,8190,8144,8191,8181,8153,8149,8179,8169,8265,7.044206619262695,True
61,8162,8191,8173,8173,8086,8181,8181,8186,8179,8169,8157,8179,8188,8263,7.052045583724976,True
62,8171,8192,8189,8171,8111,8189,8192,8195,8184,8187,8167,8176,8185,8276,7.060147762298584,True
63,8152,8183,8148,8159,8083,8187,8104,8189,8197,8192,8155,8163,8184,8280,7.0682220458984375,True
64,8161,8182,8189,8152,8150,8179,8219,8189,8174,8164,8154,8159,8182,8260,7.075124979019165,True
65,8170,8183,8183,8159,8120,8178,8166,8151,8153,8164,8162,8166,8189,8266,7.08318829536438,True
66,8155,8182,8141,8158,8100,8187,8122,8124,8155,8169,8155,8166,8189,8283,7.091311931610107,True
67,8158,8175,8184,8152,8145,8193,8195,8130,8149,8151,8149,8161,8174,8272,7.0992584228515625,True
68,8158,8172,8171,8162,8103,8189,8122,8126,8155,8164,8157,8157,8189,8273,7.107234954833984,True
69,8171,8187,8179,8165,8123,8200,8184,8164,8174,8189,8162,8172,8210,8292,7.115278005599976,True
70,8168,8184,8194,8156,8134,8201,8204,8188,8182,8181,8151,8176,8194,8299,7.123284578323364,True
71,8163,8179,8174,8169,8122,8184,8153,8174,8175,8175,8152,8165,8177,8294,7.131283283233643,True
72,8184,8196,8174,8190,8105,8178,8143,8165,8173,8179,8168,8176,8195,8292,7.13924503326416,True
73,8176,8196,8151,8187,8089,8180,8137,8153,8163,8151,8157,8171,8201,8286,7.146185398101807,True
74,8184,8187,8183,8179,8173,8191,8233,8157,8135,8124,8138,8163,8171,8277,7.154200077056885,True
75,8193,8189,8177,8190,8143,8189,8126,8136,8123,8144,8154,8177,8174,8285,7.162279605865479,True
76,8177,8197,8152,8195,8126,8184,8111,8124,8117,8155,8165,8180,8188,8281,7.170230150222778,True
77,8188,8195,8214,8182,8200,8191,8252,8144,8101,8137,8158,8182,8177,8271,7.178070306777954,True
78,8199,8195,8187,8186,8153,8185,8126,8137,8122,8151,8165,8191,8199,8307,7.186275959014893,True
79,8229,8220,8193,8203,8180,8182,8173,8154,8150,8176,8179,8202,8222,8343,7.19424843788147,True
80,8241,8226,8232,8203,8197,8189,8225,8166,8149,8186,8169,8200,8222,8343,7.202131986618042,True
81,8206,8209,8183,8190,8139,8180,8113,8162,8157,8190,8159,8192,8226,8338,7.20928144454956,True
82,8203,8209,8169,8189,8148,8163,8134,8181,8169,8184,8166,8191,8224,8328,7.217281818389893,True
83,8199,8206,8162,8190,8159,8155,8156,8171,8166,8176,8158,8171,8204,8315,7.225281238555908,True
84,8195,8202,8178,8184,8181,8161,8196,8167,8165,8174,8149,8167,8193,8310,7.233240127563477,True
85,8202,8202,8174,8188,8142,8166,8140,8177,8184,8194,8169,8186,8212,8322,7.241286277770996,True
86,8193,8202,8159,8188,8148,8179,8149,8179,8198,8201,8182,8189,8225,8323,7.249060392379761,True
87,8195,8203,8210,8177,8210,8191,8248,8177,8176,8180,8169,8190,8203,8299,7.257137060165405,True
88,8172,8199,8166,8178,8128,8174,8103,8135,8165,8169,8155,8187,8191,8289,7.265022039413452,True
89,8166,8203,8153,8188,8143,8171,8164,8127,8156,8153,8153,8172,8180,8277,7.272024631500244,True
90,8181,8199,8204,8192,8181,8184,8243,8147,8146,8145,8152,8162,8166,8261,7.280143737792969,True
91,8160,8194,8150,8194,8125,8187,8102,8141,8159,8176,8155,8164,8183,8269,7.2880542278289795,True
92,8170,8212,8163,8198,8168,8199,8185,8169,8174,8200,8163,8187,8203,8293,7.296001195907593,True
93,8189,8213,8194,8192,8151,8201,8202,8193,8185,8203,8163,8196,8204,8313,7.304129362106323,True
94,8185,8203,8175,8187,8121,8194,8160,8194,8187,8186,8160,8179,8190,8304,7.312270402908325,True
95,8181,8198,8162,8185,8118,8192,8156,8184,8177,8178,8158,8177,8195,8298,7.320277214050293,True
96,8183,8198,8174,8167,8140,8190,8205,8186,8178,8190,8162,8192,8221,8316,7.328094720840454,True
97,8200,8199,8254,8148,8215,8194,8323,8199,8167,8164,8165,8199,8205,8307,7.336150884628296,True
98,8171,8190,8196,8157,8116,8185,8117,8151,8163,8151,8162,8180,8190,8295,7.343256235122681,True
99,8162,8188,8150,8172,8112,8183,8120,8140,8169,8190,8166,8174,8201,8300,7.351255178451538,True
100,8173,8176,8195,8155,8162,8191,8238,8153,8152,8200,8170,8180,8193,8282,7.359232425689697,True
101,8126,8156,8133,8139,8084,8191,8103,8120,8139,8170,8160,8155,8176,8256,7.367226839065552,True
102,8137,8171,8157,8150,8129,8200,8180,8149,8157,8178,8163,8165,8183,8269,7.375097513198851,True
103,8172,8187,8181,8166,8117,8200,8154,8179,8190,8221,8177,8197,8222,8314,7.383257150650024,True
104,8155,8177,8104,8163,8058,8183,8029,8165,8197,8222,8175,8185,8245,8337,7.391278028488159,True
105,8160,8181,8113,8158,8106,8171,8100,8179,8180,8205,8162,8171,8233,8330,7.399257659912109,True
106,8181,8201,8162,8181,8145,8170,8181,8196,8170,8195,8157,8182,8220,8317,7.406211853027344,True
107,8185,8200,8182,8185,8160,8182,8221,8194,8155,8168,8160,8189,8209,8310,7.414235591888428,True
108,8170,8188,8161,8169,8128,8190,8143,8172,8144,8177,8165,8176,8215,8313,7.422350406646728,True
109,8155,8190,8153,8176,8137,8186,8136,8162,8137,8207,8159,8167,8218,8301,7.430056571960449,False
110,8157,8197,8159,8191,8155,8180,8164,8161,8143,8193,8156,8172,8208,8288,7.438283205032349,False
111,8163,8201,8146,8196,8144,8179,8131,8163,8173,8195,8168,8180,8234,8308,7.446289777755737,False
112,8189,8219,8199,8210,8203,8190,8214,8193,8195,8232,8180,8199,8264,8331,7.454045534133911,False
113,8197,8222,8203,8227,8185,8191,8150,8193,8212,8254,8186,8208,8270,8339,7.462221384048462,False
114,8188,8213,8163,8226,8173,8182,8105,8181,8219,8246,8180,8199,8270,8336,7.470294237136841,False
115,8212,8215,8209,8213,8230,8195,8229,8202,8202,8212,8167,8198,8256,8323,7.477241992950439,False
116,8197,8202,8176,8203,8156,8193,8124,8182,8191,8204,8156,8196,8244,8321,7.485280752182007,False
117,8180,8194,8160,8203,8162,8173,8141,8165,8174,8217,8149,8192,8238,8317,7.493283033370972,False
118,8203,8202,8218,8204,8226,8178,8244,8171,8151,8211,8149,8192,8234,8304,7.501276731491089,False
119,8202,8203,8195,8196,8194,8197,8172,8162,8156,8198,8154,8190,8240,8308,7.509259462356567,False
120,8190,8199,8159,8193,8158,8197,8109,8154,8166,8210,8162,8190,8243,8318,7.517351150512695,False
121,8179,8196,8143,8197,8145,8180,8092,8146,8164,8228,8162,8181,8236,8317,7.525249719619751,False
122,8195,8208,8189,8199,8202,8193,8225,8176,8170,8203,8164,8180,8224,8307,7.532212257385254,False
123,8204,8215,8198,8199,8158,8213,8180,8200,8193,8197,8168,8189,8240,8311,7.540134906768799,False
124,8189,8212,8146,8199,8114,8209,8079,8201,8220,8243,8163,8188,8263,8329,7.5482964515686035,False
125,8207,8215,8190,8207,8194,8206,8212,8213,8215,8257,8165,8192,8259,8332,7.556030511856079,False
126,8201,8218,8175,8208,8143,8194,8144,8183,8200,8248,8173,8185,8261,8330,7.564370393753052,False
127,8186,8218,8161,8197,8163,8189,8170,8174,8193,8246,8177,8179,8255,8321,7.572356700897217,False
238,8191,8208,8209,8194,8236,8197,8260,8184,8181,8242,8166,8185,8237,8315,7.580169916152954,False
0,8169,8198,8158,8200,8169,8195,8129,8153,8156,8215,8154,8173,8233,8315,7.588279724121094,False
1,8162,8210,8137,8201,8151,8185,8129,8145,8133,8181,8155,8163,8218,8304,7.596250057220459,False
2,8173,8211,8154,8203,8145,8174,8149,8157,8143,8185,8157,8170,8203,8299,7.604116678237915,False
3,8190,8206,8178,8205,8168,8171,8176,8182,8171,8209,8162,8183,8214,8307,7.611245393753052,False
4,8210,8224,8196,8215,8192,8174,8155,8202,8190,8223,8165,8195,8235,8321,7.619253873825073,False
5,8197,8234,8159,8230,8174,8181,8104,8192,8192,8221,8156,8192,8240,8333,7.6272783279418945,False
6,8199,8221,8189,8218,8197,8191,8216,8200,8186,8217,8156,8191,8227,8333,7.635185718536377,False
7,8196,8211,8186,8202,8139,8184,8150,8187,8189,8235,8163,8195,8237,8342,7.643277645111084,False
8,8179,8216,8157,8205,8133,8180,8137,8168,8176,8223,8153,8185,8235,8336,7.651278257369995,False
9,8192,8217,8183,8210,8152,8180,8199,8164,8157,8189,8144,8175,8210,8321,7.659266471862793,False
10,8194,8218,8155,8222,8109,8175,8107,8145,8154,8187,8155,8175,8213,8329,7.666353702545166,False
11,8209,8229,8190,8225,8189,8187,8219,8161,8134,8190,8164,8189,8211,8325,7.6742470264434814,False
12,8205,8221,8213,8211,8172,8189,8226,8167,8132,8191,8160,8190,8197,8312,7.68206262588501,False
13,8180,8216,8161,8209,8104,8175,8121,8160,8175,8213,8163,8181,8210,8325,7.69020938873291,False
14,8191,8227,8164,8226,8155,8174,8159,8178,8191,8226,8170,8191,8233,8332,7.698222398757935,False
15,8184,8220,8162,8226,8168,8179,8155,8176,8178,8219,8167,8192,8235,8321,7.706019878387451,False
16,8183,8218,8186,8215,8183,8187,8208,8174,8175,8209,8160,8183,8210,8311,7.714264154434204,False
17,8191,8221,8183,8215,8157,8187,8155,8156,8175,8202,8165,8184,8206,8310,7.722232580184936,False
18,8190,8221,8159,8209,8157,8191,8136,8145,8163,8197,8175,8189,8221,8310,7.729123115539551,False
19,8192,8214,8176,8195,8165,8202,8185,8160,8153,8196,8174,8193,8225,8313,7.7372071743011475,False
20,8169,8201,8135,8189,8122,8203,8123,8163,8174,8199,8169,8184,8231,8322,7.7451491355896,False
21,8179,8209,8185,8194,8199,8211,8268,8186,8180,8188,8159,8182,8207,8309,7.753207206726074,False
22,8196,8219,8219,8212,8170,8207,8219,8181,8184,8201,8161,8195,8203,8310,7.761335849761963,False
23,8173,8219,8135,8227,8104,8193,8057,8158,8212,8229,8176,8192,8241,8325,7.769250869750977,False
24,8173,8213,8154,8212,8199,8208,8214,8179,8199,8208,8169,8174,8232,8305,7.777196168899536,False
25,8168,8200,8166,8189,8180,8220,8200,8167,8177,8200,8154,8158,8207,8298,7.7850341796875,False
26,8183,8214,8166,8200,8164,8221,8148,8153,8193,8224,8162,8179,8225,8328,7.793158531188965,False
27,8226,8230,8214,8228,8194,8220,8199,8170,8208,8225,8175,8208,8247,8340,7.800143480300903,False
28,8206,8216,8192,8217,8155,8200,8175,8176,8196,8219,8162,8194,8239,8318,7.808014869689941,False
29,8182,8207,8157,8190,8133,8188,8136,8174,8188,8216,8156,8178,8234,8318,7.816229104995727,False
30,8186,8200,8138,8191,8119,8190,8090,8167,8212,8214,8164,8182,8246,8340,7.824034690856934,False
31,8192,8192,8173,8197,8155,8194,8201,8193,8226,8208,8162,8186,8237,8331,7.832198619842529,False
32,8180,8198,8176,8192,8117,8197,8166,8198,8226,8223,8162,8183,8233,8315,7.840042352676392,False
33,8163,8202,8130,8189,8096,8199,8083,8170,8225,8225,8161,8171,8236,8310,7.848317861557007,False
34,8188,8195,8199,8185,8188,8211,8244,8175,8204,8173,8162,8172,8205,8290,7.85602879524231,False
35,8174,8181,8188,8172,8114,8206,8149,8154,8190,8166,8155,8165,8185,8283,7.863149642944336,False
36,8148,8176,8137,8158,8094,8196,8104,8144,8190,8189,8137,8152,8184,8284,7.871003150939941,False
37,8160,8177,8174,8157,8166,8194,8213,8164,8183,8164,8141,8157,8183,8277,7.879278182983398,False
38,8153,8178,8161,8164,8148,8194,8163,8159,8182,8145,8158,8160,8188,8282,7.887214660644531,False
39,8150,8184,8157,8161,8173,8201,8156,8170,8189,8175,8163,8164,8194,8293,7.895110130310059,False
40,8145,8180,8137,8161,8164,8197,8108,8175,8199,8220,8160,8160,8212,8295,7.903088569641113,False
41,8141,8177,8147,8165,8194,8203,8195,8178,8196,8201,8154,8144,8196,8270,7.911217927932739,False
42,8120,8161,8151,8149,8194,8213,8193,8162,8190,8150,8139,8123,8141,8232,7.919129610061645,False
43,8089,8147,8110,8136,8170,8208,8116,8148,8201,8145,8139,8116,8129,8223,7.927328109741211,False
44,8148,8176,8228,8148,8290,8221,8343,8199,8201,8169,8163,8145,8143,8232,7.934180974960327,False
45,8173,8193,8230,8165,8230,8225,8195,8191,8211,8186,8174,8161,8163,8252,7.9422767162323,False
46,8127,8175,8097,8174,8142,8207,7974,8145,8221,8177,8161,8153,8177,8269,7.950242042541504,False
47,8140,8165,8139,8170,8224,8200,8165,8161,8200,8163,8161,8163,8171,8270,7.958017826080322,False
48,8149,8163,8174,8159,8214,8206,8192,8159,8187,8170,8171,8164,8172,8268,7.96616530418396,False
49,8150,8176,8155,8160,8193,8211,8139,8150,8184,8177,8171,8156,8184,8274,7.974136114120483,False
50,8180,8190,8177,8169,8195,8213,8157,8154,8183,8185,8177,8172,8195,8293,7.98206353187561,False
51,8192,8181,8196,8164,8204,8218,8188,8161,8192,8183,8182,8182,8194,8300,7.990378618240356,False
52,8180,8171,8185,8159,8197,8212,8164,8168,8198,8174,8169,8172,8183,8299,7.99711799621582,False
53,8162,8169,8147,8163,8153,8196,8116,8160,8199,8163,8156,8159,8171,8291,8.005095720291138,False
54,8168,8174,8178,8161,8185,8200,8217,8164,8185,8129,8161,8152,8149,8267,8.013343572616577,False
55,8165,8179,8176,8172,8154,8199,8151,8152,8166,8124,8160,8144,8136,8258,8.02128005027771,False
56,8164,8188,8161,8192,8141,8194,8131,8151,8160,8151,8154,8147,8134,8266,8.028988599777222,False
57,8180,8180,8212,8184,8188,8206,8246,8181,8158,8139,8159,8157,8131,8256,8.036999225616455,False
58,8135,8152,8142,8160,8116,8197,8101,8162,8165,8129,8157,8136,8137,8244,8.045262336730957,False
59,8114,8151,8117,8157,8139,8185,8134,8158,8173,8150,8157,8125,8138,8234,8.053175926208496,False
60,8157,8163,8186,8162,8177,8197,8229,8173,8179,8159,8167,8149,8147,8240,8.06104063987732,False
61,8166,8167,8175,8157,8158,8206,8175,8167,8186,8151,8167,8161,8165,8261,8.068209409713745,False
62,8157,8171,8163,8155,8151,8205,8155,8173,8189,8153,8167,8156,8166,8270,8.076130151748657,False
63,8150,8170,8136,8162,8082,8205,8088,8172,8200,8166,8178,8150,8176,8274,8.08401107788086,False
64,8181,8173,8212,8159,8169,8213,8286,8202,8187,8151,8175,8156,8164,8263,8.092180728912354,False
65,8191,8160,8253,8147,8183,8204,8293,8211,8184,8139,8172,8161,8146,8258,8.100147008895874,False
66,8153,8153,8162,8147,8097,8196,8104,8189,8203,8152,8178,8145,8153,8278,8.108072757720947,False
67,8165,8168,8183,8156,8147,8208,8193,8196,8189,8143,8177,8148,8144,8281,8.116377592086792,False
68,8146,8164,8156,8159,8099,8196,8106,8173,8182,8141,8172,8155,8138,8273,8.12424921989441,False
69,8123,8161,8114,8158,8098,8184,8095,8171,8195,8154,8171,8154,8145,8271,8.13129734992981,False
70,8166,8174,8165,8161,8170,8193,8194,8180,8184,8150,8179,8159,8154,8274,8.139087677001953,False
71,8171,8170,8137,8166,8138,8196,8098,8151,8173,8144,8181,8153,8164,8278,8.147189378738403,False
72,8156,8163,8144,8154,8151,8193,8157,8167,8175,8145,8182,8154,8161,8274,8.155083179473877,False
73,8170,8159,8202,8141,8179,8197,8228,8187,8187,8155,8182,8163,8159,8277,8.16314148902893,False
74,8174,8156,8179,8146,8158,8203,8145,8163,8206,8168,8178,8161,8169,8289,8.17129898071289,False
75,8167,8158,8131,8158,8124,8214,8095,8158,8215,8182,8186,8157,8180,8288,8.179296255111694,False
76,8174,8162,8151,8161,8147,8223,8172,8186,8216,8177,8191,8162,8174,8282,8.187098979949951,False
77,8185,8165,8186,8151,8165,8217,8195,8197,8213,8156,8181,8163,8156,8283,8.194114923477173,False
78,8164,8160,8132,8148,8110,8206,8071,8179,8217,8166,8173,8156,8172,8292,8.202271699905396,False
79,8162,8159,8174,8153,8204,8220,8240,8207,8206,8176,8180,8167,8183,8285,8.210044145584106,False
80,8174,8162,8250,8159,8235,8229,8309,8215,8191,8171,8186,8182,8173,8267,8.218242883682251,False
81,8154,8170,8154,8174,8075,8212,8038,8153,8201,8172,8178,8167,8185,8275,8.226163148880005,False
82,8179,8187,8153,8186,8110,8213,8132,8158,8201,8154,8170,8161,8178,8283,8.234020471572876,False
83,8183,8179,8190,8178,8139,8213,8203,8182,8196,8167,8178,8171,8165,8278,8.242084264755249,False
84,8134,8160,8132,8159,8102,8190,8106,8166,8201,8192,8184,8162,8178,8263,8.250094652175903,False
85,8156,8165,8173,8155,8171,8176,8205,8167,8188,8144,8177,8159,8164,8254,8.257343530654907,False
86,8184,8174,8210,8162,8161,8174,8191,8160,8171,8118,8166,8169,8145,8273,8.26518964767456,False
87,8169,8174,8179,8169,8139,8183,8138,8159,8174,8168,8171,8181,8171,8289,8.273171186447144,False
88,8151,8160,8149,8161,8156,8190,8136,8164,8184,8199,8185,8184,8203,8285,8.28126859664917,False
89,8163,8156,8174,8152,8183,8191,8185,8174,8193,8182,8187,8181,8195,8286,8.289187908172607,False
90,8184,8183,8203,8180,8178,8196,8176,8186,8209,8173,8180,8183,8188,8297,8.297268867492676,False
91,8166,8195,8151,8202,8147,8192,8115,8168,8209,8175,8167,8162,8195,8287,8.305290937423706,False
92,8171,8175,8183,8174,8208,8193,8265,8177,8180,8165,8167,8150,8178,8271,8.313242435455322,False
93,8173,8155,8194,8154,8148,8191,8188,8169,8175,8155,8165,8166,8172,8290,8.321002721786499,False
94,8143,8173,8130,8187,8108,8188,8073,8146,8177,8158,8157,8159,8171,8290,8.328001976013184,False
95,8144,8190,8171,8196,8224,8197,8235,8164,8162,8165,8160,8144,8149,8247,8.336121559143066,False
96,8127,8169,8145,8167,8170,8194,8144,8159,8180,8179,8163,8148,8161,8247,8.344129800796509,False
97,8122,8163,8121,8168,8151,8199,8123,8161,8197,8189,8162,8157,8178,8267,8.352034568786621,False
98,8148,8172,8183,8186,8217,8207,8227,8172,8182,8185,8162,8156,8167,8255,8.360064506530762,False
99,8125,8164,8155,8169,8181,8189,8158,8159,8184,8162,8158,8143,8155,8240,8.36813759803772,False
100,8114,8162,8142,8152,8175,8186,8158,8174,8195,8158,8160,8145,8152,8244,8.376285314559937,False
101,8150,8174,8182,8181,8194,8200,8190,8194,8205,8199,8175,8152,8168,8268,8.38416075706482,False
102,8175,8196,8229,8208,8208,8199,8254,8209,8212,8201,8185,8163,8182,8286,8.391197919845581,False
103,8151,8199,8187,8201,8116,8180,8137,8190,8210,8176,8184,8168,8183,8291,8.39936375617981,False
104,8133,8188,8128,8195,8091,8181,8096,8178,8209,8189,8183,8154,8181,8283,8.407293558120728,False
105,8180,8187,8231,8187,8206,8206,8318,8211,8197,8184,8174,8146,8153,8258,8.415046691894531,False
106,8165,8169,8212,8170,8120,8202,8162,8180,8183,8161,8157,8139,8134,8252,8.423230171203613,False
107,8133,8164,8136,8174,8099,8188,8086,8147,8168,8144,8160,8136,8147,8260,8.431311845779419,False
108,8174,8181,8202,8184,8194,8191,8248,8155,8150,8144,8171,8142,8151,8263,8.439154624938965,False
109,8169,8179,8176,8181,8124,8181,8114,8126,8146,8162,8159,8139,8153,8274,8.446940660476685,False
110,8156,8183,8123,8184,8094,8162,8050,8118,8153,8168,8162,8156,8179,8294,8.45500898361206,False
111,8172,8186,8135,8182,8117,8141,8126,8131,8161,8165,8177,8169,8198,8291,8.462131977081299,False
112,8166,8178,8145,8162,8126,8139,8167,8139,8165,8160,8168,8153,8171,8266,8.470098972320557,False
113,8151,8166,8130,8156,8115,8151,8132,8151,8170,8152,8155,8145,8155,8259,8.47801160812378,False
114,8148,8150,8133,8162,8119,8155,8147,8160,8177,8152,8159,8151,8169,8260,8.486060619354248,False
115,8163,8139,8186,8161,8155,8162,8241,8172,8170,8151,8161,8151,8156,8253,8.49403166770935,False
116,8155,8138,8160,8165,8108,8178,8146,8166,8182,8170,8158,8153,8161,8267,8.502102851867676,False
117,8142,8136,8143,8163,8129,8197,8165,8173,8193,8190,8164,8159,8173,8272,8.510114669799805,False
118,8148,8121,8188,8158,8163,8192,8229,8181,8172,8178,8167,8152,8138,8248,8.518015623092651,False
119,8124,8104,8138,8162,8097,8166,8093,8158,8167,8166,8162,8134,8124,8242,8.524909019470215,False
120,8121,8108,8140,8152,8172,8159,8180,8165,8167,8155,8162,8137,8139,8245,8.533063888549805,False
121,8133,8113,8173,8145,8221,8164,8194,8167,8165,8149,8168,8153,8144,8246,8.54101014137268,False
122,8121,8112,8133,8155,8187,8170,8101,8152,8178,8159,8163,8143,8133,8250,8.549122095108032,False
123,8133,8121,8166,8158,8218,8175,8213,8173,8186,8168,8161,8141,8124,8251,8.556965827941895,False
124,8141,8126,8176,8158,8204,8169,8186,8179,8193,8184,8177,8155,8149,8268,8.565159797668457,False
125,8140,8126,8162,8165,8217,8178,8155,8179,8209,8192,8179,8156,8161,8277,8.573115110397339,False
126,8138,8124,8160,8166,8221,8195,8166,8182,8223,8190,8166,8143,8148,8266,8.581182956695557,False
127,8132,8125,8150,8159,8226,8193,8189,8187,8215,8176,8166,8138,8147,8265,8.588053226470947,False
238,8146,8131,8160,8156,8202,8189,8177,8182,8188,8152,8171,8146,8145,8263,8.596127033233643,False
0,8141,8128,8119,8159,8113,8180,8077,8145,8174,8147,8165,8140,8131,8253,8.604029417037964,False
1,8150,8131,8180,8152,8226,8173,8275,8163,8157,8145,8158,8145,8109,8246,8.61201548576355,False
2,8156,8127,8226,8137,8244,8166,8256,8172,8147,8151,8173,8163,8125,8263,8.620066165924072,False
3,8138,8121,8130,8133,8120,8160,8030,8145,8166,8171,8181,8157,8160,8276,8.628127098083496,False
4,8159,8128,8150,8131,8180,8159,8166,8163,8171,8172,8171,8149,8146,8257,8.636040687561035,False
5,8153,8129,8171,8136,8177,8147,8181,8155,8166,8166,8173,8156,8141,8264,8.64415693283081,False
6,8133,8133,8145,8148,8136,8144,8122,8126,8153,8162,8180,8164,8159,8285,8.6520676612854,False
7,8146,8134,8162,8144,8163,8152,8160,8131,8131,8150,8171,8148,8144,8262,8.659042119979858,False
8,8139,8135,8160,8135,8173,8149,8169,8145,8133,8131,8166,8131,8122,8227,8.667061805725098,False
9,8134,8147,8178,8148,8177,8156,8192,8163,8163,8145,8181,8151,8151,8241,8.675044536590576,False
10,8123,8150,8163,8170,8134,8166,8127,8157,8193,8188,8187,8157,8186,8268,8.68294644355774,False
11,8111,8137,8148,8161,8140,8154,8158,8154,8186,8174,8173,8132,8151,8243,8.691085577011108,False
12,8117,8128,8152,8136,8130,8133,8161,8163,8168,8144,8170,8139,8121,8220,8.698907852172852,False
13,8126,8133,8137,8132,8108,8145,8119,8171,8175,8162,8174,8155,8143,8246,8.707042932510376,False
14,8141,8134,8180,8143,8161,8173,8233,8185,8177,8160,8177,8156,8150,8265,8.715015172958374,False
15,8125,8119,8161,8142,8087,8153,8146,8156,8170,8135,8181,8156,8153,8261,8.722097396850586,False
16,8129,8135,8148,8126,8082,8135,8132,8146,8159,8131,8175,8157,8153,8248,8.729970932006836,False
17,8169,8153,8211,8117,8177,8152,8255,8168,8146,8141,8166,8160,8143,8237,8.738035917282104,False
18,8154,8133,8175,8136,8123,8151,8138,8142,8161,8154,8174,8158,8160,8257,8.746076107025146,False
19,8153,8140,8161,8164,8113,8150,8132,8143,8177,8169,8190,8160,8171,8280,8.75424337387085,False
20,8170,8159,8190,8166,8144,8172,8189,8173,8189,8182,8194,8170,8161,8281,8.762053489685059,False
21,8158,8153,8198,8172,8137,8179,8189,8182,8208,8186,8218,8197,8197,8295,8.770098209381104,False
22,8165,8166,8189,8198,8082,8171,8127,8164,8213,8197,8237,8209,8251,8324,8.777951002120972,False
23,8187,8186,8149,8199,8087,8172,8096,8152,8208,8206,8213,8181,8237,8339,8.786091566085815,False
24,8235,8191,8217,8194,8208,8187,8270,8196,8219,8206,8213,8197,8228,8361,8.793222904205322,False
25,8237,8176,8213,8182,8132,8180,8171,8200,8246,8231,8239,8229,8277,8387,8.801138401031494,False
26,8169,8135,8114,8125,8064,8162,8091,8169,8226,8225,8218,8183,8237,8336,8.809056997299194,False
27,8127,8084,8128,8077,8141,8159,8226,8172,8163,8155,8194,8120,8117,8243,8.817147254943848,False
28,8093,8063,8105,8057,8091,8152,8128,8160,8141,8113,8206,8091,8079,8212,8.825082540512085,False
29,8088,8070,8108,8032,8110,8154,8186,8170,8144,8110,8220,8087,8069,8192,8.83220887184143,False
30,8111,8066,8174,8039,8157,8167,8258,8187,8148,8125,8238,8108,8058,8178,8.841163635253906,False
31,8111,8071,8163,8070,8108,8171,8125,8169,8162,8153,8273,8139,8097,8209,8.848063468933105,False
32,8113,8096,8149,8075,8113,8177,8111,8159,8165,8155,8296,8157,8122,8227,8.856125116348267,False
33,8122,8123,8151,8128,8136,8184,8148,8149,8162,8160,8284,8162,8117,8218,8.864032745361328,False
34,8148,8153,8188,8218,8175,8196,8222,8145,8166,8186,8280,8179,8116,8227,8.872059106826782,False
35,8146,8161,8183,8224,8142,8202,8156,8118,8168,8188,8296,8188,8120,8232,8.880249977111816,False
36,8132,8156,8149,8203,8126,8210,8104,8095,8154,8176,8283,8163,8116,8208,8.888070344924927,False
37,8181,8177,8192,8244,8183,8233,8201,8131,8152,8179,8270,8161,8118,8216,8.89612603187561,False
38,8208,8191,8180,8276,8148,8239,8139,8156,8179,8180,8287,8196,8156,8284,8.903979063034058,False
39,8202,8180,8193,8253,8170,8221,8198,8166,8175,8152,8288,8217,8171,8318,8.911092042922974,False
40,8184,8148,8201,8239,8169,8189,8207,8157,8151,8137,8262,8198,8150,8303,8.919020652770996,False
41,8144,8120,8117,8225,8136,8167,8100,8148,8172,8155,8247,8167,8137,8291,8.927087545394897,False
42,8161,8111,8162,8189,8230,8177,8232,8189,8194,8162,8252,8168,8125,8281,8.935066223144531,False
43,8171,8094,8194,8178,8191,8179,8201,8188,8198,8175,8264,8181,8136,8285,8.943076848983765,False
44,8131,8093,8133,8203,8121,8164,8118,8164,8197,8184,8263,8182,8157,8295,8.951018810272217,False
45,8121,8101,8121,8213,8141,8157,8141,8170,8183,8185,8241,8170,8146,8284,8.959239482879639,False
46,8123,8082,8129,8196,8162,8154,8151,8173,8170,8175,8219,8132,8099,8241,8.966073036193848,False
47,8120,8076,8164,8196,8187,8160,8212,8176,8162,8129,8208,8112,8049,8185,8.974266290664673,False
48,8105,8081,8137,8218,8142,8169,8128,8160,8169,8116,8210,8110,8032,8152,8.982044458389282,False
49,8085,8067,8108,8213,8182,8176,8135,8152,8162,8131,8215,8087,8012,8116,8.990034341812134,False
50,8085,8073,8138,8205,8220,8189,8181,8147,8140,8113,8217,8068,7980,8079,8.998075723648071,False
51,8106,8111,8142,8241,8159,8192,8138,8131,8124,8095,8214,8083,7987,8087,9.006009578704834,False
52,8155,8122,8198,8262,8196,8177,8248,8140,8102,8079,8224,8125,8014,8138,9.01405954360962,False
53,8147,8106,8183,8255,8146,8155,8156,8123,8102,8073,8240,8150,8048,8197,9.022104263305664,False
54,8126,8134,8143,8274,8109,8170,8115,8135,8129,8100,8244,8160,8086,8232,9.029938459396362,False
55,8160,8154,8196,8282,8168,8192,8247,8182,8142,8121,8235,8171,8096,8234,9.037902116775513,False
56,8143,8111,8162,8250,8122,8175,8159,8167,8137,8108,8218,8156,8083,8229,9.046025276184082,False
57,8122,8108,8149,8243,8113,8169,8160,8163,8131,8100,8214,8145,8080,8232,9.052938461303713,False
58,8142,8144,8176,8263,8135,8183,8190,8188,8151,8126,8224,8159,8120,8255,9.060980319976808,False
59,8155,8139,8163,8259,8142,8201,8162,8205,8194,8163,8234,8180,8167,8293,9.069063186645508,False
60,8149,8119,8158,8252,8119,8202,8137,8223,8227,8199,8235,8193,8180,8311,9.076923131942747,False
61,8135,8120,8146,8247,8100,8178,8115,8219,8226,8207,8225,8176,8179,8304,9.084944009780884,False
62,8154,8121,8180,8227,8176,8170,8232,8214,8195,8177,8210,8154,8153,8275,9.093016862869264,False
63,8140,8103,8140,8207,8107,8172,8122,8181,8187,8171,8195,8144,8129,8253,9.100958585739136,False
64,8141,8111,8139,8198,8125,8175,8175,8191,8196,8153,8194,8143,8119,8247,9.108993768692017,False
65,8198,8121,8267,8193,8246,8178,8377,8228,8178,8115,8201,8154,8097,8232,9.115976572036743,False
66,8151,8109,8188,8193,8156,8170,8142,8177,8171,8132,8190,8133,8084,8226,9.123994588851929,False
67,8107,8118,8131,8193,8197,8181,8139,8173,8188,8160,8188,8121,8084,8231,9.132075309753418,False
68,8147,8119,8187,8184,8245,8185,8210,8205,8205,8162,8212,8152,8116,8264,9.139922380447388,False
69,8150,8112,8157,8187,8179,8172,8124,8188,8211,8166,8217,8163,8145,8288,9.148150444030762,False
70,8136,8125,8161,8192,8192,8177,8199,8180,8193,8158,8195,8142,8118,8253,9.156078100204468,False
71,8109,8115,8133,8176,8131,8169,8144,8155,8170,8143,8186,8121,8092,8210,9.164076805114746,False
72,8093,8098,8127,8156,8127,8155,8173,8145,8144,8114,8196,8129,8094,8209,9.172134399414062,False
73,8091,8104,8154,8160,8134,8160,8184,8151,8134,8091,8197,8143,8106,8232,9.17909026145935,False
74,8092,8105,8140,8166,8115,8167,8128,8154,8152,8112,8185,8140,8119,8243,9.187105655670166,False
75,8136,8104,8182,8158,8172,8169,8208,8179,8173,8146,8190,8168,8143,8256,9.19515824317932,False
76,8147,8112,8170,8158,8146,8163,8141,8188,8195,8163,8200,8188,8168,8287,9.202934741973875,False
77,8125,8118,8143,8157,8135,8154,8140,8187,8190,8142,8183,8161,8142,8281,9.210998058319092,False
78,8132,8124,8178,8154,8180,8157,8218,8183,8169,8132,8172,8145,8111,8250,9.2190842628479,False
79,8132,8129,8155,8165,8149,8158,8117,8164,8181,8160,8178,8161,8143,8260,9.227181673049929,False
80,8131,8126,8122,8172,8132,8161,8078,8167,8211,8168,8176,8173,8178,8292,9.235206842422484,False
81,8152,8126,8140,8175,8159,8161,8138,8179,8220,8172,8172,8171,8170,8308,9.243041515350342,False
82,8181,8144,8178,8184,8177,8155,8186,8176,8203,8190,8166,8170,8159,8309,9.250147104263306,False
83,8189,8158,8165,8191,8135,8155,8113,8159,8193,8189,8166,8181,8180,8325,9.258039712905884,False
84,8189,8159,8142,8188,8157,8165,8104,8155,8194,8174,8175,8190,8202,8340,9.266084671020508,False
85,8198,8156,8188,8170,8242,8175,8256,8167,8170,8156,8170,8179,8166,8311,9.274215698242188,False
86,8180,8138,8169,8153,8180,8175,8191,8145,8149,8145,8150,8150,8137,8279,9.282287359237673,False
87,8181,8138,8195,8155,8215,8184,8226,8168,8166,8146,8152,8152,8152,8282,9.290266036987305,False
88,8191,8145,8239,8167,8246,8179,8248,8201,8183,8147,8167,8177,8161,8297,9.29820203781128,False
89,8142,8126,8113,8160,8105,8148,8015,8157,8183,8148,8158,8158,8159,8310,9.30623698234558,False
90,8140,8126,8092,8139,8144,8152,8089,8166,8185,8149,8154,8140,8153,8304,9.313045501708984,False
91,8171,8142,8165,8132,8208,8180,8202,8194,8198,8151,8163,8148,8149,8282,9.32105827331543,False
92,8167,8153,8158,8149,8183,8193,8161,8180,8204,8155,8163,8149,8150,8272,9.329071998596191,False
93,8169,8161,8156,8162,8208,8179,8152,8184,8196,8158,8159,8149,8154,8278,9.33708429336548,False
94,8169,8169,8158,8158,8218,8166,8127,8181,8196,8156,8160,8157,8173,8293,9.345149993896484,False
95,8190,8182,8190,8164,8234,8177,8186,8169,8193,8153,8164,8180,8190,8316,9.353097438812256,False
96,8215,8188,8193,8191,8220,8173,8153,8157,8194,8174,8174,8194,8213,8347,9.361231803894045,False
97,8214,8189,8184,8200,8249,8160,8169,8162,8195,8186,8177,8186,8227,8356,9.369192838668823,False
98,8193,8178,8171,8168,8219,8168,8158,8155,8186,8177,8168,8174,8213,8336,9.376116037368774,False
99,8155,8156,8112,8143,8147,8170,8081,8130,8183,8161,8153,8160,8181,8309,9.383957862854004,False
100,8180,8159,8206,8146,8299,8160,8332,8168,8159,8117,8137,8154,8134,8280,9.391965389251707,False
101,8196,8161,8253,8150,8284,8153,8279,8181,8155,8114,8142,8157,8134,8288,9.4000244140625,False
102,8146,8139,8108,8146,8112,8157,7989,8149,8192,8156,8159,8153,8172,8308,9.408064603805542,False
103,8134,8133,8109,8138,8189,8168,8147,8176,8198,8154,8162,8150,8166,8287,9.41605281829834,False
104,8144,8137,8169,8124,8247,8178,8234,8197,8193,8152,8155,8140,8155,8275,9.424216032028198,False
105,8142,8139,8143,8127,8209,8184,8135,8181,8204,8157,8152,8128,8166,8290,9.432071208953856,False
106,8148,8146,8117,8151,8188,8172,8092,8166,8215,8157,8158,8143,8174,8300,9.44022250175476,False
107,8170,8160,8163,8159,8221,8170,8191,8182,8213,8179,8169,8175,8180,8300,9.447155952453612,False
108,8212,8174,8244,8157,8256,8190,8276,8201,8201,8184,8176,8200,8190,8307,9.45515275001526,False
109,8204,8169,8194,8166,8190,8175,8135,8160,8197,8168,8169,8185,8197,8315,9.463262557983398,False
110,8186,8170,8183,8166,8224,8154,8208,8157,8182,8149,8166,8159,8171,8290,9.471176624298096,False
111,8181,8167,8206,8157,8222,8162,8225,8164,8158,8137,8165,8159,8154,8261,9.47931957244873,False
112,8159,8163,8147,8159,8171,8174,8082,8138,8164,8148,8158,8166,8186,8282,9.487164735794067,False
113,8184,8179,8189,8168,8259,8182,8210,8169,8185,8168,8163,8184,8208,8319,9.494999408721924,False
114,8192,8178,8189,8159,8229,8170,8182,8188,8191,8177,8164,8175,8195,8314,9.503265380859377,False
115,8150,8160,8094,8140,8145,8160,8050,8159,8183,8169,8150,8137,8171,8280,9.510202407836914,False
116,8149,8148,8099,8129,8149,8175,8094,8149,8174,8142,8149,8134,8162,8278,9.518018007278442,False
117,8150,8138,8125,8119,8158,8177,8143,8148,8160,8106,8150,8144,8154,8286,9.526248693466188,False
118,8117,8127,8120,8102,8181,8173,8174,8149,8143,8092,8138,8128,8120,8239,9.53410005569458,False
119,8105,8122,8122,8103,8165,8186,8142,8151,8148,8104,8128,8114,8102,8201,9.542213916778564,False
120,8153,8134,8166,8126,8178,8195,8174,8179,8167,8104,8128,8134,8109,8226,9.550228834152222,False
121,8184,8153,8186,8138,8193,8187,8174,8193,8180,8113,8142,8158,8126,8262,9.558057069778442,False
122,8158,8158,8150,8139,8176,8173,8123,8159,8181,8134,8148,8155,8138,8272,9.566280364990234,False
123,8154,8163,8176,8149,8202,8163,8187,8140,8165,8137,8139,8157,8143,8267,9.573188543319702,False
124,8167,8173,8171,8165,8177,8158,8124,8128,8157,8144,8143,8167,8159,8271,9.581043481826782,False
125,8182,8184,8164,8170,8209,8165,8153,8131,8158,8144,8158,8170,8166,8282,9.589046478271484,False
126,8198,8182,8205,8160,8238,8166,8236,8148,8160,8134,8153,8179,8166,8292,9.597179412841797,False
127,8163,8159,8139,8139,8142,8163,8114,8134,8169,8140,8132,8164,8164,8285,9.604986667633057,False
238,8139,8142,8131,8112,8177,8183,8193,8151,8166,8125,8129,8139,8135,8253,9.613219261169434,False
0,8135,8133,8165,8097,8213,8184,8215,8170,8168,8127,8134,8133,8129,8237,9.621123790740969,False
1,8121,8132,8131,8104,8165,8162,8131,8158,8175,8142,8128,8131,8145,8232,9.629233598709106,False
2,8125,8139,8153,8110,8147,8170,8186,8166,8174,8122,8122,8134,8132,8228,9.637260675430298,False
3,8117,8138,8166,8102,8136,8172,8158,8172,8179,8115,8128,8143,8141,8245,9.644101858139038,False
4,8124,8138,8177,8107,8195,8162,8176,8175,8170,8121,8139,8156,8162,8256,9.652233123779297,False
5,8142,8144,8173,8124,8173,8163,8140,8153,8152,8112,8133,8149,8149,8252,9.660231351852415,False
6,8132,8146,8149,8116,8141,8151,8129,8132,8134,8097,8113,8128,8125,8241,9.668278217315674,False
7,8134,8152,8160,8100,8182,8136,8192,8147,8123,8093,8103,8129,8127,8234,9.676064491271973,False
8,8135,8158,8126,8110,8147,8141,8107,8148,8140,8107,8102,8132,8144,8247,9.684260606765749,False
9,8143,8165,8152,8114,8206,8154,8195,8163,8146,8106,8101,8132,8140,8256,9.692258596420288,False
10,8154,8166,8181,8115,8221,8149,8195,8155,8132,8103,8101,8138,8143,8254,9.700214385986328,False
11,8152,8174,8144,8141,8162,8148,8095,8132,8142,8119,8103,8145,8167,8262,9.708255529403688,False
12,8178,8187,8198,8151,8219,8168,8227,8168,8160,8142,8106,8161,8176,8265,9.715324640274048,False
13,8185,8186,8205,8146,8209,8161,8191,8173,8166,8158,8115,8163,8185,8267,9.723224401474,False
