COUNTER,F3,FC5,AF3,F7,T7,P7,O1,O2,P8,T8,F8,AF4,FC6,F4,Timestamp
73, 8153, 8180, 8188, 8171, 8206, 8281, 8179, 8186, 8226, 8155, 7923, 8185, 8168, 8104,0.005999565124511719
73, 8153, 8180, 8188, 8171, 8206, 8281, 8179, 8186, 8226, 8155, 7923, 8185, 8168, 8104,0.005999565124511719
74, 8130, 8160, 8177, 8153, 8224, 8293, 8191, 8184, 8140, 8165, 7948, 8147, 8164, 8099,0.013782501220703125
74, 8130, 8160, 8177, 8153, 8224, 8293, 8191, 8184, 8140, 8165, 7948, 8147, 8164, 8099,0.013782501220703125
75, 8157, 8192, 8207, 8170, 8220, 8284, 8178, 8202, 8248, 8166, 7942, 8193, 8173, 8113,0.02478480339050293
75, 8157, 8192, 8207, 8170, 8220, 8284, 8178, 8202, 8248, 8166, 7942, 8193, 8173, 8113,0.02478480339050293
76, 8158, 8163, 8192, 8163, 8215, 8263, 8183, 8189, 8180, 8174, 7928, 8165, 8161, 8110,0.029944181442260742
76, 8158, 8163, 8192, 8163, 8215, 8263, 8183, 8189, 8180, 8174, 7928, 8165, 8161, 8110,0.029944181442260742
77, 8153, 8164, 8188, 8160, 8199, 8263, 8180, 8186, 8176, 8160, 7929, 8174, 8165, 8119,0.03795599937438965
77, 8153, 8164, 8188, 8160, 8199, 8263, 8180, 8186, 8176, 8160, 7929, 8174, 8165, 8119,0.03795599937438965
78, 8142, 8177, 8205, 8161, 8188, 8254, 8167, 8201, 8252, 8163, 7943, 8197, 8172, 8111,0.04600358009338379
78, 8142, 8177, 8205, 8161, 8188, 8254, 8167, 8201, 8252, 8163, 7943, 8197, 8172, 8111,0.04600358009338379
79, 8157, 8155, 8193, 8160, 8210, 8250, 8179, 8194, 8158, 8196, 7951, 8155, 8159, 8098,0.054003000259399414
79, 8157, 8155, 8193, 8160, 8210, 8250, 8179, 8194, 8158, 8196, 7951, 8155, 8159, 8098,0.054003000259399414
80, 8175, 8176, 8190, 8163, 8197, 8259, 8173, 8185, 8214, 8159, 7927, 8185, 8159, 8100,0.06200265884399414
80, 8175, 8176, 8190, 8163, 8197, 8259, 8173, 8185, 8214, 8159, 7927, 8185, 8159, 8100,0.06200265884399414
81, 8134, 8151, 8171, 8146, 8190, 8249, 8170, 8174, 8135, 8138, 7927, 8155, 8151, 8087,0.07000184059143066
81, 8134, 8151, 8171, 8146, 8190, 8249, 8170, 8174, 8135, 8138, 7927, 8155, 8151, 8087,0.07000184059143066
82, 8139, 8157, 8176, 8152, 8185, 8239, 8159, 8178, 8115, 8143, 7926, 8157, 8154, 8087,0.07700228691101074
82, 8139, 8157, 8176, 8152, 8185, 8239, 8159, 8178, 8115, 8143, 7926, 8157, 8154, 8087,0.07700228691101074
83, 8154, 8176, 8179, 8161, 8180, 8237, 8157, 8189, 8205, 8151, 7916, 8180, 8164, 8081,0.08500289916992188
83, 8154, 8176, 8179, 8161, 8180, 8237, 8157, 8189, 8205, 8151, 7916, 8180, 8164, 8081,0.08500289916992188
84, 8159, 8158, 8166, 8162, 8209, 8250, 8193, 8190, 8141, 8192, 7939, 8140, 8159, 8086,0.09248924255371094
84, 8159, 8158, 8166, 8162, 8209, 8250, 8193, 8190, 8141, 8192, 7939, 8140, 8159, 8086,0.09248924255371094
85, 8175, 8181, 8188, 8172, 8197, 8267, 8190, 8195, 8238, 8183, 7940, 8182, 8168, 8100,0.10050702095031738
85, 8175, 8181, 8188, 8172, 8197, 8267, 8190, 8195, 8238, 8183, 7940, 8182, 8168, 8100,0.10050702095031738
86, 8137, 8153, 8174, 8149, 8182, 8256, 8179, 8190, 8187, 8176, 7948, 8160, 8165, 8076,0.10850381851196289
86, 8137, 8153, 8174, 8149, 8182, 8256, 8179, 8190, 8187, 8176, 7948, 8160, 8165, 8076,0.10850381851196289
87, 8135, 8153, 8171, 8158, 8188, 8248, 8176, 8190, 8148, 8181, 7960, 8152, 8163, 8077,0.11695480346679688
87, 8135, 8153, 8171, 8158, 8188, 8248, 8176, 8190, 8148, 8181, 7960, 8152, 8163, 8077,0.11695480346679688
88, 8149, 8179, 8191, 8177, 8172, 8246, 8169, 8198, 8242, 8172, 7953, 8185, 8167, 8079,0.12430310249328613
88, 8149, 8179, 8191, 8177, 8172, 8246, 8169, 8198, 8242, 8172, 7953, 8185, 8167, 8079,0.12537097930908203
89, 8158, 8159, 8184, 8170, 8176, 8246, 8189, 8202, 8162, 8199, 7967, 8148, 8164, 8078,0.13300776481628418
89, 8158, 8159, 8184, 8170, 8176, 8246, 8189, 8202, 8162, 8199, 7967, 8148, 8164, 8078,0.13300776481628418
90, 8198, 8187, 8204, 8184, 8180, 8255, 8191, 8213, 8257, 8201, 7973, 8188, 8173, 8105,0.1409916877746582
90, 8198, 8187, 8204, 8184, 8180, 8255, 8191, 8213, 8257, 8201, 7973, 8188, 8173, 8105,0.1409916877746582
91, 8174, 8168, 8188, 8166, 8183, 8243, 8186, 8188, 8209, 8181, 7961, 8165, 8157, 8088,0.14820170402526855
91, 8174, 8168, 8188, 8166, 8183, 8243, 8186, 8188, 8209, 8181, 7961, 8165, 8157, 8088,0.14820170402526855
92, 8151, 8150, 8166, 8147, 8170, 8237, 8175, 8164, 8101, 8159, 7939, 8137, 8152, 8060,0.15620136260986328
92, 8151, 8150, 8166, 8147, 8170, 8237, 8175, 8164, 8101, 8159, 7939, 8137, 8152, 8060,0.15620136260986328
93, 8141, 8165, 8177, 8152, 8146, 8236, 8161, 8178, 8190, 8142, 7933, 8182, 8170, 8050,0.16388654708862305
93, 8141, 8165, 8177, 8152, 8146, 8236, 8161, 8178, 8190, 8142, 7933, 8182, 8170, 8050,0.16388654708862305
94, 8129, 8146, 8181, 8158, 8165, 8233, 8170, 8181, 8119, 8167, 7962, 8155, 8163, 8055,0.17214584350585938
94, 8129, 8146, 8181, 8158, 8165, 8233, 8170, 8181, 8119, 8167, 7962, 8155, 8163, 8055,0.17214584350585938
95, 8168, 8178, 8211, 8174, 8169, 8235, 8155, 8184, 8190, 8166, 7958, 8179, 8165, 8078,0.1801457405090332
95, 8168, 8178, 8211, 8174, 8169, 8235, 8155, 8184, 8190, 8166, 7958, 8179, 8165, 8078,0.1801457405090332
96, 8171, 8173, 8205, 8157, 8170, 8230, 8157, 8181, 8201, 8174, 7954, 8173, 8170, 8078,0.1879875659942627
96, 8171, 8173, 8205, 8157, 8170, 8230, 8157, 8181, 8201, 8174, 7954, 8173, 8170, 8078,0.1879875659942627
97, 8161, 8157, 8190, 8156, 8181, 8239, 8175, 8182, 8151, 8189, 7968, 8161, 8164, 8087,0.19617223739624023
97, 8161, 8157, 8190, 8156, 8181, 8239, 8175, 8182, 8151, 8189, 7968, 8161, 8164, 8087,0.19617223739624023
98, 8145, 8174, 8194, 8171, 8160, 8245, 8165, 8197, 8241, 8162, 7949, 8186, 8164, 8076,0.2029879093170166
98, 8145, 8174, 8194, 8171, 8160, 8245, 8165, 8197, 8241, 8162, 7949, 8186, 8164, 8076,0.2029879093170166
99, 8146, 8150, 8183, 8160, 8170, 8240, 8185, 8199, 8159, 8182, 7947, 8141, 8161, 8062,0.2110283374786377
99, 8146, 8150, 8183, 8160, 8170, 8240, 8185, 8199, 8159, 8182, 7947, 8141, 8161, 8062,0.2110283374786377
100, 8193, 8176, 8208, 8169, 8180, 8247, 8193, 8201, 8239, 8188, 7961, 8180, 8175, 8093,0.21898937225341797
100, 8193, 8176, 8208, 8169, 8180, 8247, 8193, 8201, 8239, 8188, 7961, 8180, 8175, 8093,0.21898937225341797
101, 8155, 8169, 8206, 8161, 8169, 8242, 8183, 8196, 8256, 8170, 7973, 8180, 8167, 8080,0.22712993621826172
101, 8155, 8169, 8206, 8161, 8169, 8242, 8183, 8196, 8256, 8170, 7973, 8180, 8167, 8080,0.22712993621826172
102, 8144, 8154, 8192, 8160, 8166, 8236, 8192, 8192, 8169, 8184, 7971, 8146, 8154, 8063,0.23518657684326172
102, 8144, 8154, 8192, 8160, 8166, 8236, 8192, 8192, 8169, 8184, 7971, 8146, 8154, 8063,0.23518657684326172
103, 8171, 8175, 8199, 8164, 8153, 8231, 8183, 8189, 8258, 8171, 7947, 8191, 8165, 8068,0.24299144744873047
103, 8171, 8175, 8199, 8164, 8153, 8231, 8183, 8189, 8258, 8171, 7947, 8191, 8165, 8068,0.24299144744873047
104, 8127, 8140, 8171, 8139, 8162, 8229, 8172, 8173, 8143, 8158, 7952, 8149, 8157, 8052,0.2509913444519043
104, 8127, 8140, 8171, 8139, 8162, 8229, 8172, 8173, 8143, 8158, 7952, 8149, 8157, 8052,0.2509913444519043
105, 8136, 8160, 8181, 8154, 8157, 8245, 8157, 8180, 8159, 8144, 7952, 8160, 8159, 8056,0.2593090534210205
105, 8136, 8160, 8181, 8154, 8157, 8245, 8157, 8180, 8159, 8144, 7952, 8160, 8159, 8056,0.2593090534210205
106, 8159, 8172, 8197, 8159, 8151, 8241, 8155, 8178, 8196, 8143, 7953, 8179, 8165, 8065,0.26633191108703613
106, 8159, 8172, 8197, 8159, 8151, 8241, 8155, 8178, 8196, 8143, 7953, 8179, 8165, 8065,0.26733994483947754
107, 8160, 8155, 8191, 8154, 8164, 8242, 8167, 8170, 8110, 8153, 7964, 8150, 8163, 8074,0.27429699897766113
107, 8160, 8155, 8191, 8154, 8164, 8242, 8167, 8170, 8110, 8153, 7964, 8150, 8163, 8074,0.27429699897766113
108, 8165, 8185, 8193, 8163, 8151, 8255, 8161, 8187, 8215, 8141, 7947, 8177, 8165, 8070,0.2814974784851074
108, 8165, 8185, 8193, 8163, 8151, 8255, 8161, 8187, 8215, 8141, 7947, 8177, 8165, 8070,0.2814974784851074
109, 8148, 8161, 8169, 8147, 8168, 8257, 8178, 8188, 8152, 8165, 7952, 8141, 8155, 8056,0.2904071807861328
109, 8148, 8161, 8169, 8147, 8168, 8257, 8178, 8188, 8152, 8165, 7952, 8141, 8155, 8056,0.2904071807861328
110, 8150, 8158, 8172, 8155, 8171, 8268, 8170, 8189, 8161, 8164, 7954, 8158, 8167, 8068,0.2979874610900879
110, 8150, 8158, 8172, 8155, 8171, 8268, 8170, 8189, 8161, 8164, 7954, 8158, 8167, 8068,0.2979874610900879
111, 8137, 8162, 8180, 8157, 8146, 8265, 8150, 8185, 8185, 8146, 7938, 8172, 8169, 8049,0.3060157299041748
111, 8137, 8162, 8180, 8157, 8146, 8265, 8150, 8185, 8185, 8146, 7938, 8172, 8169, 8049,0.3060157299041748
112, 8139, 8149, 8173, 8147, 8157, 8261, 8152, 8166, 8078, 8158, 7949, 8137, 8158, 8042,0.31403493881225586
112, 8139, 8149, 8173, 8147, 8157, 8261, 8152, 8166, 8078, 8158, 7949, 8137, 8158, 8042,0.31403493881225586
113, 8150, 8179, 8187, 8158, 8166, 8274, 8141, 8174, 8188, 8145, 7958, 8182, 8171, 8066,0.32207345962524414
113, 8150, 8179, 8187, 8158, 8166, 8274, 8141, 8174, 8188, 8145, 7958, 8182, 8171, 8066,0.32207345962524414
114, 8135, 8159, 8170, 8158, 8185, 8282, 8164, 8185, 8147, 8163, 7962, 8149, 8165, 8060,0.3299903869628906
114, 8135, 8159, 8170, 8158, 8185, 8282, 8164, 8185, 8147, 8163, 7962, 8149, 8165, 8060,0.3299903869628906
115, 8157, 8166, 8176, 8160, 8186, 8275, 8169, 8182, 8139, 8163, 7951, 8149, 8161, 8068,0.33695268630981445
115, 8157, 8166, 8176, 8160, 8186, 8275, 8169, 8182, 8139, 8163, 7951, 8149, 8161, 8068,0.33695268630981445
116, 8144, 8174, 8188, 8152, 8162, 8262, 8148, 8177, 8195, 8140, 7951, 8172, 8165, 8071,0.34499192237854004
116, 8144, 8174, 8188, 8152, 8162, 8262, 8148, 8177, 8195, 8140, 7951, 8172, 8165, 8071,0.34499192237854004
117, 8143, 8158, 8178, 8163, 8173, 8277, 8173, 8184, 8129, 8170, 7966, 8138, 8163, 8079,0.35299015045166016
117, 8143, 8158, 8178, 8163, 8173, 8277, 8173, 8184, 8129, 8170, 7966, 8138, 8163, 8079,0.35299015045166016
118, 8177, 8191, 8202, 8187, 8185, 8290, 8183, 8196, 8256, 8174, 7955, 8184, 8175, 8104,0.3612205982208252
118, 8177, 8191, 8202, 8187, 8185, 8290, 8183, 8196, 8256, 8174, 7955, 8184, 8175, 8104,0.3612205982208252
119, 8156, 8167, 8197, 8164, 8197, 8273, 8176, 8188, 8220, 8183, 7974, 8162, 8171, 8103,0.36922168731689453
119, 8156, 8167, 8197, 8164, 8197, 8273, 8176, 8188, 8220, 8183, 7974, 8162, 8171, 8103,0.36922168731689453
120, 8167, 8176, 8196, 8164, 8189, 8275, 8174, 8191, 8199, 8197, 7988, 8162, 8169, 8113,0.37723588943481445
120, 8167, 8176, 8196, 8164, 8189, 8275, 8174, 8191, 8199, 8197, 7988, 8162, 8169, 8113,0.37723588943481445
121, 8157, 8187, 8198, 8167, 8170, 8275, 8172, 8191, 8262, 8180, 7974, 8187, 8173, 8103,0.38432884216308594
121, 8157, 8187, 8198, 8167, 8170, 8275, 8172, 8191, 8262, 8180, 7974, 8187, 8173, 8103,0.3853342533111572
122, 8131, 8149, 8181, 8158, 8192, 8265, 8181, 8184, 8156, 8185, 7984, 8136, 8165, 8086,0.3929860591888428
122, 8131, 8149, 8181, 8158, 8192, 8265, 8181, 8184, 8156, 8185, 7984, 8136, 8165, 8086,0.3929860591888428
123, 8170, 8182, 8206, 8174, 8189, 8269, 8164, 8191, 8242, 8172, 7982, 8172, 8174, 8100,0.39960622787475586
123, 8170, 8182, 8206, 8174, 8189, 8269, 8164, 8191, 8242, 8172, 7982, 8172, 8174, 8100,0.39960622787475586
124, 8164, 8168, 8204, 8159, 8176, 8267, 8160, 8185, 8207, 8175, 7988, 8163, 8171, 8091,0.4075319766998291
124, 8164, 8168, 8204, 8159, 8176, 8267, 8160, 8185, 8207, 8175, 7988, 8163, 8171, 8091,0.4075319766998291
125, 8161, 8161, 8196, 8163, 8168, 8262, 8167, 8184, 8170, 8192, 7996, 8160, 8166, 8091,0.4159872531890869
125, 8161, 8161, 8196, 8163, 8168, 8262, 8167, 8184, 8170, 8192, 7996, 8160, 8166, 8091,0.4159872531890869
126, 8163, 8179, 8192, 8167, 8156, 8250, 8165, 8189, 8248, 8179, 7988, 8182, 8173, 8087,0.42398548126220703
126, 8163, 8179, 8192, 8167, 8156, 8250, 8165, 8189, 8248, 8179, 7988, 8182, 8173, 8087,0.42398548126220703
127, 8144, 8152, 8175, 8146, 8174, 8241, 8176, 8179, 8139, 8175, 8001, 8136, 8165, 8082,0.43198490142822266
127, 8144, 8152, 8175, 8146, 8174, 8241, 8176, 8179, 8139, 8175, 8001, 8136, 8165, 8082,0.43198490142822266
240, 8162, 8181, 8204, 8164, 8166, 8240, 8164, 8192, 8225, 8164, 7998, 8179, 8166, 8097,0.43996477127075195
240, 8162, 8181, 8204, 8164, 8166, 8240, 8164, 8192, 8225, 8164, 7998, 8179, 8166, 8097,0.43996477127075195
0, 8160, 8174, 8201, 8167, 8169, 8228, 8168, 8192, 8215, 8180, 7994, 8170, 8158, 8084,0.44797611236572266
0, 8160, 8174, 8201, 8167, 8169, 8228, 8168, 8192, 8215, 8180, 7994, 8170, 8158, 8084,0.44797611236572266
1, 8161, 8166, 8194, 8164, 8185, 8233, 8177, 8180, 8147, 8184, 7998, 8156, 8161, 8089,0.455979585647583
1, 8161, 8166, 8194, 8164, 8185, 8233, 8177, 8180, 8147, 8184, 7998, 8156, 8161, 8089,0.455979585647583
2, 8167, 8194, 8215, 8171, 8175, 8238, 8171, 8194, 8258, 8159, 7996, 8200, 8175, 8103,0.4640159606933594
2, 8167, 8194, 8215, 8171, 8175, 8238, 8171, 8194, 8258, 8159, 7996, 8200, 8175, 8103,0.4640159606933594
3, 8174, 8172, 8203, 8169, 8187, 8235, 8200, 8203, 8196, 8185, 8009, 8160, 8168, 8106,0.47041845321655273
3, 8174, 8172, 8203, 8169, 8187, 8235, 8200, 8203, 8196, 8185, 8009, 8160, 8168, 8106,0.47136378288269043
4, 8184, 8182, 8207, 8175, 8185, 8245, 8191, 8202, 8245, 8174, 8003, 8183, 8176, 8112,0.47837209701538086
4, 8184, 8182, 8207, 8175, 8185, 8245, 8191, 8202, 8245, 8174, 8003, 8183, 8176, 8112,0.47936391830444336
5, 8152, 8174, 8194, 8163, 8179, 8246, 8178, 8199, 8234, 8161, 7997, 8177, 8172, 8099,0.48694944381713867
5, 8152, 8174, 8194, 8163, 8179, 8246, 8178, 8199, 8234, 8161, 7997, 8177, 8172, 8099,0.48694944381713867
6, 8175, 8173, 8186, 8175, 8191, 8244, 8194, 8201, 8194, 8185, 8003, 8156, 8162, 8114,0.4950559139251709
6, 8175, 8173, 8186, 8175, 8191, 8244, 8194, 8201, 8194, 8185, 8003, 8156, 8162, 8114,0.4950559139251709
7, 8190, 8189, 8200, 8181, 8176, 8234, 8173, 8195, 8291, 8174, 7998, 8191, 8171, 8117,0.5029857158660889
7, 8190, 8189, 8200, 8181, 8176, 8234, 8173, 8195, 8291, 8174, 7998, 8191, 8171, 8117,0.5029857158660889
8, 8151, 8161, 8183, 8158, 8180, 8223, 8167, 8182, 8177, 8180, 8011, 8156, 8165, 8099,0.5111074447631836
8, 8151, 8161, 8183, 8158, 8180, 8223, 8167, 8182, 8177, 8180, 8011, 8156, 8165, 8099,0.5111074447631836
9, 8187, 8194, 8199, 8181, 8191, 8226, 8174, 8192, 8230, 8180, 8009, 8188, 8171, 8126,0.5185840129852295
9, 8187, 8194, 8199, 8181, 8191, 8226, 8174, 8192, 8230, 8180, 8009, 8188, 8171, 8126,0.5185840129852295
10, 8197, 8189, 8209, 8186, 8198, 8222, 8178, 8189, 8263, 8178, 8011, 8190, 8171, 8136,0.5265724658966064
10, 8197, 8189, 8209, 8186, 8198, 8222, 8178, 8189, 8263, 8178, 8011, 8190, 8171, 8136,0.5265724658966064
11, 8180, 8168, 8211, 8180, 8200, 8226, 8178, 8184, 8176, 8185, 8027, 8161, 8166, 8134,0.5342211723327637
11, 8180, 8168, 8211, 8180, 8200, 8226, 8178, 8184, 8176, 8185, 8027, 8161, 8166, 8134,0.5342211723327637
12, 8193, 8203, 8226, 8191, 8181, 8228, 8168, 8203, 8271, 8166, 8011, 8197, 8176, 8135,0.5422093868255615
12, 8193, 8203, 8226, 8191, 8181, 8228, 8168, 8203, 8271, 8166, 8011, 8197, 8176, 8135,0.5422093868255615
13, 8197, 8177, 8200, 8176, 8199, 8218, 8182, 8195, 8186, 8176, 8008, 8157, 8162, 8125,0.5502078533172607
13, 8197, 8177, 8200, 8176, 8199, 8218, 8182, 8195, 8186, 8176, 8008, 8157, 8162, 8125,0.5502078533172607
14, 8205, 8182, 8205, 8179, 8205, 8224, 8176, 8186, 8203, 8167, 8014, 8183, 8165, 8140,0.558215856552124
14, 8205, 8182, 8205, 8179, 8205, 8224, 8176, 8186, 8203, 8167, 8014, 8183, 8165, 8140,0.558215856552124
15, 8177, 8184, 8212, 8180, 8197, 8227, 8172, 8199, 8245, 8159, 8016, 8196, 8170, 8137,0.5659868717193604
15, 8177, 8184, 8212, 8180, 8197, 8227, 8172, 8199, 8245, 8159, 8016, 8196, 8170, 8137,0.5659868717193604
16, 8190, 8175, 8204, 8184, 8213, 8228, 8196, 8209, 8185, 8189, 8018, 8161, 8162, 8137,0.5741517543792725
16, 8190, 8175, 8204, 8184, 8213, 8228, 8196, 8209, 8185, 8189, 8018, 8161, 8162, 8137,0.5741517543792725
17, 8224, 8206, 8214, 8198, 8204, 8229, 8191, 8208, 8299, 8182, 8002, 8210, 8167, 8153,0.5819873809814453
17, 8224, 8206, 8214, 8198, 8204, 8229, 8191, 8208, 8299, 8182, 8002, 8210, 8167, 8153,0.5819873809814453
18, 8185, 8177, 8200, 8181, 8206, 8224, 8186, 8191, 8212, 8178, 8014, 8179, 8162, 8149,0.589611291885376
18, 8185, 8177, 8200, 8181, 8206, 8224, 8186, 8191, 8212, 8178, 8014, 8179, 8162, 8149,0.589611291885376
19, 8183, 8184, 8216, 8187, 8198, 8223, 8172, 8198, 8211, 8166, 8018, 8179, 8165, 8152,0.5976095199584961
19, 8183, 8184, 8216, 8187, 8198, 8223, 8172, 8198, 8211, 8166, 8018, 8179, 8165, 8152,0.5976095199584961
20, 8189, 8191, 8222, 8195, 8181, 8210, 8169, 8199, 8260, 8155, 8004, 8193, 8167, 8140,0.6046116352081299
20, 8189, 8191, 8222, 8195, 8181, 8210, 8169, 8199, 8260, 8155, 8004, 8193, 8167, 8140,0.6046116352081299
21, 8200, 8172, 8203, 8196, 8195, 8210, 8193, 8189, 8161, 8176, 8015, 8167, 8165, 8145,0.612985372543335
21, 8200, 8172, 8203, 8196, 8195, 8210, 8193, 8189, 8161, 8176, 8015, 8167, 8165, 8145,0.612985372543335
22, 8210, 8199, 8223, 8202, 8193, 8221, 8179, 8195, 8259, 8162, 8018, 8207, 8175, 8156,0.6208240985870361
22, 8210, 8199, 8223, 8202, 8193, 8221, 8179, 8195, 8259, 8162, 8018, 8207, 8175, 8156,0.6208240985870361
23, 8162, 8174, 8214, 8180, 8204, 8219, 8178, 8188, 8211, 8167, 8025, 8164, 8163, 8128,0.6283571720123291
23, 8162, 8174, 8214, 8180, 8204, 8219, 8178, 8188, 8211, 8167, 8025, 8164, 8163, 8128,0.6293671131134033
24, 8176, 8174, 8207, 8194, 8207, 8219, 8186, 8198, 8215, 8175, 8013, 8160, 8164, 8134,0.636366605758667
24, 8176, 8174, 8207, 8194, 8207, 8219, 8186, 8198, 8215, 8175, 8013, 8160, 8164, 8134,0.636366605758667
25, 8198, 8183, 8206, 8204, 8193, 8211, 8181, 8209, 8288, 8167, 7999, 8189, 8173, 8145,0.644986629486084
25, 8198, 8183, 8206, 8204, 8193, 8211, 8181, 8209, 8288, 8167, 7999, 8189, 8173, 8145,0.644986629486084
26, 8176, 8157, 8197, 8188, 8207, 8214, 8184, 8196, 8184, 8181, 8021, 8156, 8164, 8139,0.6529858112335205
26, 8176, 8157, 8197, 8188, 8207, 8214, 8184, 8196, 8184, 8181, 8021, 8156, 8164, 8139,0.6529858112335205
27, 8167, 8182, 8209, 8187, 8190, 8224, 8159, 8197, 8255, 8160, 8010, 8183, 8166, 8129,0.6614460945129395
27, 8167, 8182, 8209, 8187, 8190, 8224, 8159, 8197, 8255, 8160, 8010, 8183, 8166, 8129,0.6614460945129395
28, 8165, 8167, 8193, 8177, 8185, 8208, 8159, 8192, 8207, 8164, 7996, 8154, 8159, 8111,0.6679842472076416
28, 8165, 8167, 8193, 8177, 8185, 8208, 8159, 8192, 8207, 8164, 7996, 8154, 8159, 8111,0.6679842472076416
29, 8189, 8170, 8195, 8185, 8201, 8204, 8162, 8182, 8186, 8175, 7999, 8162, 8160, 8133,0.6759378910064697
29, 8189, 8170, 8195, 8185, 8201, 8204, 8162, 8182, 8186, 8175, 7999, 8162, 8160, 8133,0.6759378910064697
30, 8151, 8181, 8199, 8177, 8192, 8204, 8145, 8185, 8245, 8150, 7998, 8189, 8167, 8122,0.6839385032653809
30, 8151, 8181, 8199, 8177, 8192, 8204, 8145, 8185, 8245, 8150, 7998, 8189, 8167, 8122,0.6839385032653809
31, 8134, 8158, 8178, 8167, 8202, 8205, 8174, 8200, 8155, 8165, 8007, 8145, 8159, 8102,0.6919379234313965
31, 8134, 8158, 8178, 8167, 8202, 8205, 8174, 8200, 8155, 8165, 8007, 8145, 8159, 8102,0.6923143863677979
32, 8196, 8189, 8197, 8188, 8206, 8226, 8198, 8218, 8278, 8175, 7999, 8188, 8171, 8133,0.6993215084075928
32, 8196, 8189, 8197, 8188, 8206, 8226, 8198, 8218, 8278, 8175, 7999, 8188, 8171, 8133,0.7003204822540283
33, 8168, 8163, 8183, 8160, 8198, 8231, 8190, 8207, 8246, 8171, 8004, 8169, 8170, 8125,0.7073202133178711
33, 8168, 8163, 8183, 8160, 8198, 8231, 8190, 8207, 8246, 8171, 8004, 8169, 8170, 8125,0.708280086517334
34, 8141, 8152, 8173, 8152, 8191, 8228, 8168, 8199, 8169, 8167, 8006, 8150, 8161, 8110,0.7152912616729736
34, 8141, 8152, 8173, 8152, 8191, 8228, 8168, 8199, 8169, 8167, 8006, 8150, 8161, 8110,0.7162904739379883
35, 8163, 8182, 8191, 8173, 8191, 8217, 8164, 8200, 8262, 8166, 7999, 8191, 8170, 8122,0.723334789276123
35, 8163, 8182, 8191, 8173, 8191, 8217, 8164, 8200, 8262, 8166, 7999, 8191, 8170, 8122,0.7242908477783203
36, 8160, 8162, 8184, 8165, 8212, 8206, 8179, 8182, 8177, 8185, 8020, 8159, 8173, 8130,0.7317965030670166
36, 8160, 8162, 8184, 8165, 8212, 8206, 8179, 8182, 8177, 8185, 8020, 8159, 8173, 8130,0.7317965030670166
37, 8160, 8181, 8201, 8172, 8199, 8210, 8148, 8183, 8231, 8164, 8019, 8187, 8180, 8129,0.7387969493865967
37, 8160, 8181, 8201, 8172, 8199, 8210, 8148, 8183, 8231, 8164, 8019, 8187, 8180, 8129,0.7387969493865967
38, 8149, 8170, 8196, 8180, 8201, 8199, 8140, 8189, 8214, 8169, 8019, 8176, 8167, 8119,0.746795654296875
38, 8149, 8170, 8196, 8180, 8201, 8199, 8140, 8189, 8214, 8169, 8019, 8176, 8167, 8119,0.746795654296875
39, 8179, 8168, 8191, 8202, 8221, 8197, 8167, 8192, 8180, 8197, 8027, 8161, 8165, 8143,0.7550644874572754
39, 8179, 8168, 8191, 8202, 8221, 8197, 8167, 8192, 8180, 8197, 8027, 8161, 8165, 8143,0.7550644874572754
40, 8203, 8189, 8210, 8212, 8209, 8201, 8177, 8202, 8299, 8187, 8019, 8200, 8177, 8150,0.7630636692047119
40, 8203, 8189, 8210, 8212, 8209, 8201, 8177, 8202, 8299, 8187, 8019, 8200, 8177, 8150,0.7630636692047119
41, 8190, 8161, 8197, 8194, 8213, 8203, 8190, 8195, 8204, 8193, 8027, 8162, 8161, 8134,0.7709860801696777
41, 8190, 8161, 8197, 8194, 8213, 8203, 8190, 8195, 8204, 8193, 8027, 8162, 8161, 8134,0.7709860801696777
42, 8187, 8179, 8196, 8198, 8202, 8208, 8172, 8187, 8228, 8167, 8020, 8183, 8161, 8134,0.778986930847168
42, 8187, 8179, 8196, 8198, 8202, 8208, 8172, 8187, 8228, 8167, 8020, 8183, 8161, 8134,0.778986930847168
43, 8141, 8163, 8182, 8178, 8195, 8197, 8160, 8173, 8201, 8141, 8008, 8168, 8162, 8107,0.7873103618621826
43, 8141, 8163, 8182, 8178, 8195, 8197, 8160, 8173, 8201, 8141, 8008, 8168, 8162, 8107,0.7873103618621826
44, 8138, 8151, 8181, 8176, 8209, 8194, 8172, 8174, 8132, 8149, 8016, 8148, 8160, 8109,0.7943100929260254
44, 8138, 8151, 8181, 8176, 8209, 8194, 8172, 8174, 8132, 8149, 8016, 8148, 8160, 8109,0.7943100929260254
45, 8172, 8187, 8203, 8205, 8204, 8189, 8161, 8191, 8251, 8147, 8023, 8208, 8173, 8128,0.8019850254058838
45, 8172, 8187, 8203, 8205, 8204, 8189, 8161, 8191, 8251, 8147, 8023, 8208, 8173, 8128,0.8019850254058838
46, 8165, 8167, 8190, 8203, 8219, 8182, 8169, 8192, 8174, 8172, 8031, 8174, 8170, 8123,0.8099868297576904
46, 8165, 8167, 8190, 8203, 8219, 8182, 8169, 8192, 8174, 8172, 8031, 8174, 8170, 8123,0.8099868297576904
47, 8174, 8189, 8196, 8204, 8215, 8191, 8171, 8203, 8218, 8170, 8007, 8181, 8175, 8132,0.8179848194122314
47, 8174, 8189, 8196, 8204, 8215, 8191, 8171, 8203, 8218, 8170, 8007, 8181, 8175, 8132,0.8179848194122314
48, 8161, 8182, 8179, 8198, 8204, 8197, 8175, 8210, 8256, 8173, 7996, 8183, 8171, 8130,0.8260018825531006
48, 8161, 8182, 8179, 8198, 8204, 8197, 8175, 8210, 8256, 8173, 7996, 8183, 8171, 8130,0.8260018825531006
49, 8173, 8156, 8165, 8197, 8213, 8204, 8192, 8200, 8191, 8203, 8009, 8162, 8164, 8141,0.8335471153259277
49, 8173, 8156, 8165, 8197, 8213, 8204, 8192, 8200, 8191, 8203, 8009, 8162, 8164, 8141,0.8335471153259277
50, 8178, 8178, 8184, 8191, 8192, 8197, 8172, 8191, 8266, 8170, 7989, 8195, 8171, 8141,0.8419857025146484
50, 8178, 8178, 8184, 8191, 8192, 8197, 8172, 8191, 8266, 8170, 7989, 8195, 8171, 8141,0.8419857025146484
51, 8128, 8146, 8155, 8159, 8188, 8184, 8153, 8175, 8140, 8150, 7984, 8150, 8157, 8103,0.8499796390533447
51, 8128, 8146, 8155, 8159, 8188, 8184, 8153, 8175, 8140, 8150, 7984, 8150, 8157, 8103,0.8499796390533447
52, 8146, 8161, 8157, 8175, 8190, 8191, 8144, 8186, 8163, 8156, 7991, 8175, 8158, 8110,0.8579683303833008
52, 8146, 8161, 8157, 8175, 8190, 8191, 8144, 8186, 8163, 8156, 7991, 8175, 8158, 8110,0.8579683303833008
53, 8164, 8175, 8175, 8187, 8189, 8193, 8156, 8191, 8229, 8162, 7999, 8191, 8163, 8123,0.8649652004241943
53, 8164, 8175, 8175, 8187, 8189, 8193, 8156, 8191, 8229, 8162, 7999, 8191, 8163, 8123,0.8649652004241943
54, 8150, 8152, 8159, 8171, 8193, 8191, 8166, 8172, 8123, 8160, 8000, 8148, 8156, 8117,0.8729889392852783
54, 8150, 8152, 8159, 8171, 8193, 8191, 8166, 8172, 8123, 8160, 8000, 8148, 8156, 8117,0.8729889392852783
55, 8144, 8167, 8151, 8168, 8177, 8195, 8139, 8169, 8195, 8128, 7978, 8188, 8161, 8106,0.8809847831726074
55, 8144, 8167, 8151, 8168, 8177, 8195, 8139, 8169, 8195, 8128, 7978, 8188, 8161, 8106,0.8809847831726074
56, 8130, 8148, 8135, 8162, 8185, 8200, 8152, 8164, 8135, 8146, 7986, 8159, 8159, 8090,0.8884212970733643
56, 8130, 8148, 8135, 8162, 8185, 8200, 8152, 8164, 8135, 8146, 7986, 8159, 8159, 8090,0.8894150257110596
57, 8148, 8168, 8150, 8174, 8179, 8208, 8162, 8167, 8152, 8157, 7996, 8170, 8164, 8108,0.8974182605743408
57, 8148, 8168, 8150, 8174, 8179, 8208, 8162, 8167, 8152, 8157, 7996, 8170, 8164, 8108,0.8974182605743408
58, 8130, 8170, 8148, 8168, 8160, 8204, 8144, 8172, 8205, 8148, 7997, 8190, 8163, 8105,0.9046614170074463
58, 8130, 8170, 8148, 8168, 8160, 8204, 8144, 8172, 8205, 8148, 7997, 8190, 8163, 8105,0.9046614170074463
59, 8128, 8142, 8125, 8164, 8180, 8205, 8155, 8170, 8115, 8168, 8003, 8150, 8157, 8096,0.9129855632781982
59, 8128, 8142, 8125, 8164, 8180, 8205, 8155, 8170, 8115, 8168, 8003, 8150, 8157, 8096,0.9129855632781982
60, 8161, 8171, 8150, 8179, 8174, 8206, 8154, 8174, 8210, 8147, 7996, 8190, 8167, 8112,0.9209268093109131
60, 8161, 8171, 8150, 8179, 8174, 8206, 8154, 8174, 8210, 8147, 7996, 8190, 8167, 8112,0.9209268093109131
61, 8127, 8151, 8143, 8165, 8172, 8186, 8151, 8164, 8148, 8144, 8015, 8170, 8160, 8107,0.9269483089447021
61, 8127, 8151, 8143, 8165, 8172, 8186, 8151, 8164, 8148, 8144, 8015, 8170, 8160, 8107,0.9269483089447021
62, 8128, 8160, 8134, 8177, 8167, 8184, 8142, 8167, 8136, 8155, 8008, 8167, 8161, 8104,0.9354674816131592
62, 8128, 8160, 8134, 8177, 8167, 8184, 8142, 8167, 8136, 8155, 8008, 8167, 8161, 8104,0.9354674816131592
63, 8141, 8179, 8134, 8174, 8144, 8186, 8135, 8169, 8192, 8142, 7978, 8185, 8165, 8085,0.9439852237701416
63, 8141, 8179, 8134, 8174, 8144, 8186, 8135, 8169, 8192, 8142, 7978, 8185, 8165, 8085,0.9439852237701416
64, 8129, 8152, 8127, 8157, 8161, 8193, 8155, 8164, 8083, 8149, 8002, 8158, 8162, 8081,0.9519860744476318
64, 8129, 8152, 8127, 8157, 8161, 8193, 8155, 8164, 8083, 8149, 8002, 8158, 8162, 8081,0.9519860744476318
65, 8130, 8170, 8146, 8178, 8164, 8202, 8147, 8175, 8178, 8142, 8011, 8196, 8174, 8089,0.9599850177764893
65, 8130, 8170, 8146, 8178, 8164, 8202, 8147, 8175, 8178, 8142, 8011, 8196, 8174, 8089,0.9599850177764893
66, 8107, 8145, 8122, 8163, 8149, 8181, 8145, 8164, 8117, 8145, 7989, 8158, 8154, 8056,0.9681258201599121
66, 8107, 8145, 8122, 8163, 8149, 8181, 8145, 8164, 8117, 8145, 7989, 8158, 8154, 8056,0.9681258201599121
67, 8121, 8145, 8116, 8152, 8147, 8176, 8146, 8156, 8065, 8148, 7983, 8160, 8151, 8066,0.9761276245117188
67, 8121, 8145, 8116, 8152, 8147, 8176, 8146, 8156, 8065, 8148, 7983, 8160, 8151, 8066,0.9761276245117188
68, 8128, 8168, 8144, 8169, 8153, 8188, 8141, 8171, 8175, 8145, 7995, 8205, 8171, 8085,0.9839849472045898
68, 8128, 8168, 8144, 8169, 8153, 8188, 8141, 8171, 8175, 8145, 7995, 8205, 8171, 8085,0.9839849472045898
69, 8127, 8147, 8134, 8172, 8162, 8181, 8153, 8166, 8095, 8162, 8006, 8151, 8160, 8072,0.9909853935241699
69, 8127, 8147, 8134, 8172, 8162, 8181, 8153, 8166, 8095, 8162, 8006, 8151, 8160, 8072,0.9909853935241699
70, 8148, 8169, 8137, 8173, 8136, 8165, 8139, 8152, 8136, 8132, 7985, 8171, 8162, 8066,0.9989850521087646
70, 8148, 8169, 8137, 8173, 8136, 8165, 8139, 8152, 8136, 8132, 7985, 8171, 8162, 8066,0.9989850521087646
71, 8106, 8147, 8125, 8154, 8134, 8158, 8134, 8145, 8089, 8121, 7994, 8169, 8167, 8057,1.006948709487915
71, 8106, 8147, 8125, 8154, 8134, 8158, 8134, 8145, 8089, 8121, 7994, 8169, 8167, 8057,1.006948709487915
72, 8110, 8151, 8128, 8167, 8145, 8169, 8145, 8167, 8078, 8144, 8013, 8170, 8166, 8071,1.0149855613708496
72, 8110, 8151, 8128, 8167, 8145, 8169, 8145, 8167, 8078, 8144, 8013, 8170, 8166, 8071,1.0149855613708496
73, 8145, 8183, 8146, 8180, 8129, 8167, 8147, 8179, 8199, 8149, 8007, 8197, 8171, 8077,1.0229597091674805
73, 8145, 8183, 8146, 8180, 8129, 8167, 8147, 8179, 8199, 8149, 8007, 8197, 8171, 8077,1.0229597091674805
74, 8141, 8160, 8142, 8168, 8146, 8167, 8166, 8165, 8113, 8172, 8033, 8159, 8167, 8084,1.0314607620239258
74, 8141, 8160, 8142, 8168, 8146, 8167, 8166, 8165, 8113, 8172, 8033, 8159, 8167, 8084,1.0314607620239258
75, 8159, 8190, 8163, 8189, 8150, 8174, 8159, 8178, 8199, 8170, 8044, 8205, 8173, 8111,1.0389854907989502
75, 8159, 8190, 8163, 8189, 8150, 8174, 8159, 8178, 8199, 8170, 8044, 8205, 8173, 8111,1.0389854907989502
76, 8151, 8178, 8146, 8182, 8144, 8158, 8156, 8180, 8191, 8174, 8026, 8190, 8161, 8085,1.0469491481781006
76, 8151, 8178, 8146, 8182, 8144, 8158, 8156, 8180, 8191, 8174, 8026, 8190, 8161, 8085,1.0469491481781006
77, 8143, 8158, 8128, 8165, 8151, 8158, 8155, 8159, 8093, 8164, 8016, 8155, 8153, 8065,1.0549638271331787
77, 8143, 8158, 8128, 8165, 8151, 8158, 8155, 8159, 8093, 8164, 8016, 8155, 8153, 8065,1.0549638271331787
78, 8137, 8176, 8147, 8174, 8143, 8164, 8140, 8165, 8183, 8132, 8018, 8194, 8168, 8075,1.0619637966156006
78, 8137, 8176, 8147, 8174, 8143, 8164, 8140, 8165, 8183, 8132, 8018, 8194, 8168, 8075,1.0619637966156006
79, 8138, 8156, 8138, 8179, 8156, 8160, 8163, 8174, 8130, 8169, 8037, 8158, 8164, 8080,1.0699846744537354
79, 8138, 8156, 8138, 8179, 8156, 8160, 8163, 8174, 8130, 8169, 8037, 8158, 8164, 8080,1.0699846744537354
80, 8160, 8182, 8143, 8186, 8154, 8173, 8164, 8177, 8201, 8181, 8033, 8182, 8167, 8089,1.077338457107544
80, 8160, 8182, 8143, 8186, 8154, 8173, 8164, 8177, 8201, 8181, 8033, 8182, 8167, 8089,1.077338457107544
81, 8130, 8170, 8145, 8168, 8146, 8190, 8159, 8175, 8204, 8170, 8034, 8180, 8168, 8071,1.0853464603424072
81, 8130, 8170, 8145, 8168, 8146, 8190, 8159, 8175, 8204, 8170, 8034, 8180, 8168, 8071,1.0853464603424072
82, 8139, 8150, 8159, 8169, 8151, 8198, 8176, 8179, 8127, 8175, 8028, 8155, 8161, 8075,1.0939862728118896
82, 8139, 8150, 8159, 8169, 8151, 8198, 8176, 8179, 8127, 8175, 8028, 8155, 8161, 8075,1.0939862728118896
83, 8157, 8177, 8181, 8175, 8142, 8193, 8166, 8177, 8213, 8149, 8001, 8196, 8162, 8089,1.1019856929779053
83, 8157, 8177, 8181, 8175, 8142, 8193, 8166, 8177, 8213, 8149, 8001, 8196, 8162, 8089,1.1019856929779053
84, 8122, 8152, 8159, 8157, 8157, 8194, 8170, 8166, 8134, 8162, 8026, 8168, 8165, 8086,1.1100029945373535
84, 8122, 8152, 8159, 8157, 8157, 8194, 8170, 8166, 8134, 8162, 8026, 8168, 8165, 8086,1.1100029945373535
85, 8140, 8167, 8166, 8175, 8156, 8212, 8169, 8186, 8199, 8173, 8037, 8191, 8178, 8097,1.1180119514465332
85, 8140, 8167, 8166, 8175, 8156, 8212, 8169, 8186, 8199, 8173, 8037, 8191, 8178, 8097,1.1180119514465332
86, 8146, 8163, 8157, 8171, 8148, 8203, 8159, 8181, 8206, 8157, 8008, 8184, 8160, 8084,1.1250109672546387
86, 8146, 8163, 8157, 8171, 8148, 8203, 8159, 8181, 8206, 8157, 8008, 8184, 8160, 8084,1.1250109672546387
87, 8138, 8141, 8141, 8154, 8160, 8199, 8156, 8150, 8073, 8149, 7996, 8149, 8144, 8083,1.1325173377990723
87, 8138, 8141, 8141, 8154, 8160, 8199, 8156, 8150, 8073, 8149, 7996, 8149, 8144, 8083,1.1325173377990723
88, 8131, 8167, 8158, 8153, 8143, 8207, 8138, 8154, 8158, 8122, 7990, 8194, 8161, 8080,1.140709400177002
88, 8131, 8167, 8158, 8153, 8143, 8207, 8138, 8154, 8158, 8122, 7990, 8194, 8161, 8080,1.140709400177002
89, 8096, 8140, 8125, 8136, 8144, 8198, 8144, 8155, 8054, 8112, 7978, 8148, 8150, 8041,1.1489858627319336
89, 8096, 8140, 8125, 8136, 8144, 8198, 8144, 8155, 8054, 8112, 7978, 8148, 8150, 8041,1.1489858627319336
90, 8113, 8148, 8114, 8144, 8148, 8205, 8144, 8154, 8037, 8099, 7954, 8154, 8147, 8047,1.157012939453125
90, 8113, 8148, 8114, 8144, 8148, 8205, 8144, 8154, 8037, 8099, 7954, 8154, 8147, 8047,1.157012939453125
91, 8111, 8157, 8130, 8144, 8148, 8211, 8142, 8162, 8115, 8107, 7972, 8186, 8166, 8067,1.1650104522705078
91, 8111, 8157, 8130, 8144, 8148, 8211, 8142, 8162, 8115, 8107, 7972, 8186, 8166, 8067,1.1650104522705078
92, 8117, 8151, 8135, 8152, 8173, 8209, 8161, 8173, 8077, 8148, 8011, 8164, 8171, 8084,1.1729862689971924
92, 8117, 8151, 8135, 8152, 8173, 8209, 8161, 8173, 8077, 8148, 8011, 8164, 8171, 8084,1.1729862689971924
93, 8149, 8180, 8154, 8176, 8168, 8214, 8157, 8179, 8179, 8143, 8001, 8200, 8171, 8099,1.1809861660003662
93, 8149, 8180, 8154, 8176, 8168, 8214, 8157, 8179, 8179, 8143, 8001, 8200, 8171, 8099,1.1809861660003662
94, 8121, 8154, 8131, 8155, 8174, 8215, 8170, 8168, 8107, 8151, 8001, 8162, 8162, 8088,1.1879851818084717
94, 8121, 8154, 8131, 8155, 8174, 8215, 8170, 8168, 8107, 8151, 8001, 8162, 8162, 8088,1.1879851818084717
95, 8111, 8162, 8127, 8150, 8172, 8217, 8163, 8170, 8110, 8148, 8010, 8172, 8169, 8087,1.196272850036621
95, 8111, 8162, 8127, 8150, 8172, 8217, 8163, 8170, 8110, 8148, 8010, 8172, 8169, 8087,1.196272850036621
96, 8105, 8170, 8144, 8155, 8151, 8204, 8145, 8175, 8171, 8136, 8012, 8201, 8170, 8081,1.2032768726348877
96, 8105, 8170, 8144, 8155, 8151, 8204, 8145, 8175, 8171, 8136, 8012, 8201, 8170, 8081,1.204270601272583
97, 8124, 8153, 8153, 8164, 8160, 8207, 8169, 8184, 8100, 8172, 8028, 8169, 8161, 8101,1.2119855880737305
97, 8124, 8153, 8153, 8164, 8160, 8207, 8169, 8184, 8100, 8172, 8028, 8169, 8161, 8101,1.2119855880737305
98, 8160, 8184, 8172, 8174, 8152, 8218, 8178, 8196, 8212, 8164, 8010, 8210, 8170, 8124,1.2199864387512207
98, 8160, 8184, 8172, 8174, 8152, 8218, 8178, 8196, 8212, 8164, 8010, 8210, 8170, 8124,1.2199864387512207
99, 8123, 8153, 8152, 8141, 8148, 8210, 8175, 8178, 8144, 8151, 8008, 8182, 8163, 8097,1.2269508838653564
99, 8123, 8153, 8152, 8141, 8148, 8210, 8175, 8178, 8144, 8151, 8008, 8182, 8163, 8097,1.2284700870513916
100, 8120, 8154, 8151, 8149, 8149, 8218, 8160, 8173, 8112, 8149, 8018, 8173, 8165, 8091,1.2355871200561523
100, 8120, 8154, 8151, 8149, 8149, 8218, 8160, 8173, 8112, 8149, 8018, 8173, 8165, 8091,1.2355871200561523
101, 8132, 8173, 8151, 8164, 8141, 8220, 8158, 8173, 8169, 8139, 7999, 8188, 8166, 8083,1.2435870170593262
101, 8132, 8173, 8151, 8164, 8141, 8220, 8158, 8173, 8169, 8139, 7999, 8188, 8166, 8083,1.2435870170593262
102, 8126, 8144, 8130, 8148, 8160, 8214, 8179, 8161, 8057, 8158, 8004, 8155, 8153, 8081,1.2509853839874268
102, 8126, 8144, 8130, 8148, 8160, 8214, 8179, 8161, 8057, 8158, 8004, 8155, 8153, 8081,1.2509853839874268
103, 8132, 8166, 8151, 8158, 8156, 8218, 8160, 8173, 8155, 8143, 8007, 8199, 8165, 8098,1.2591679096221924
103, 8132, 8166, 8151, 8158, 8156, 8218, 8160, 8173, 8155, 8143, 8007, 8199, 8165, 8098,1.2591679096221924
104, 8111, 8148, 8138, 8149, 8152, 8219, 8160, 8173, 8124, 8142, 8004, 8171, 8160, 8085,1.266944408416748
104, 8111, 8148, 8138, 8149, 8152, 8219, 8160, 8173, 8124, 8142, 8004, 8171, 8160, 8085,1.266944408416748
105, 8126, 8150, 8137, 8143, 8152, 8221, 8174, 8163, 8089, 8154, 8012, 8170, 8164, 8097,1.275141716003418
105, 8126, 8150, 8137, 8143, 8152, 8221, 8174, 8163, 8089, 8154, 8012, 8170, 8164, 8097,1.275141716003418
106, 8132, 8178, 8161, 8149, 8140, 8215, 8158, 8167, 8202, 8150, 8024, 8213, 8180, 8106,1.2833659648895264
106, 8132, 8178, 8161, 8149, 8140, 8215, 8158, 8167, 8202, 8150, 8024, 8213, 8180, 8106,1.2833659648895264
107, 8135, 8162, 8150, 8155, 8165, 8217, 8169, 8173, 8137, 8172, 8031, 8171, 8169, 8102,1.2913668155670166
107, 8135, 8162, 8150, 8155, 8165, 8217, 8169, 8173, 8137, 8172, 8031, 8171, 8169, 8102,1.2913668155670166
108, 8167, 8181, 8162, 8170, 8165, 8221, 8170, 8185, 8214, 8167, 8013, 8206, 8167, 8128,1.2989847660064697
108, 8167, 8181, 8162, 8170, 8165, 8221, 8170, 8185, 8214, 8167, 8013, 8206, 8167, 8128,1.2989847660064697
109, 8137, 8159, 8153, 8153, 8154, 8216, 8162, 8180, 8186, 8172, 8026, 8195, 8166, 8127,1.306947946548462
109, 8137, 8159, 8153, 8153, 8154, 8216, 8162, 8180, 8186, 8172, 8026, 8195, 8166, 8127,1.306947946548462
110, 8138, 8158, 8148, 8161, 8162, 8222, 8163, 8174, 8138, 8185, 8036, 8171, 8167, 8126,1.3146610260009766
110, 8138, 8158, 8148, 8161, 8162, 8222, 8163, 8174, 8138, 8185, 8036, 8171, 8167, 8126,1.3156821727752686
111, 8155, 8182, 8164, 8176, 8159, 8220, 8160, 8172, 8224, 8167, 8018, 8202, 8170, 8123,1.321671962738037
111, 8155, 8182, 8164, 8176, 8159, 8220, 8160, 8172, 8224, 8167, 8018, 8202, 8170, 8123,1.321671962738037
112, 8141, 8157, 8159, 8164, 8170, 8226, 8168, 8171, 8124, 8175, 8033, 8174, 8162, 8116,1.329676866531372
112, 8141, 8157, 8159, 8164, 8170, 8226, 8168, 8171, 8124, 8175, 8033, 8174, 8162, 8116,1.329676866531372
113, 8169, 8184, 8172, 8173, 8161, 8241, 8169, 8194, 8190, 8165, 8029, 8205, 8170, 8130,1.3376729488372803
113, 8169, 8184, 8172, 8173, 8161, 8241, 8169, 8194, 8190, 8165, 8029, 8205, 8170, 8130,1.3376729488372803
114, 8153, 8167, 8148, 8151, 8161, 8226, 8177, 8184, 8169, 8154, 8013, 8184, 8161, 8117,1.3459854125976562
114, 8153, 8167, 8148, 8151, 8161, 8226, 8177, 8184, 8169, 8154, 8013, 8184, 8161, 8117,1.3459854125976562
115, 8122, 8142, 8122, 8136, 8164, 8214, 8162, 8156, 8063, 8136, 7999, 8159, 8145, 8096,1.3540067672729492
115, 8122, 8142, 8122, 8136, 8164, 8214, 8162, 8156, 8063, 8136, 7999, 8159, 8145, 8096,1.3540067672729492
116, 8129, 8168, 8131, 8150, 8141, 8218, 8132, 8167, 8133, 8107, 7973, 8197, 8156, 8082,1.3620052337646484
116, 8129, 8168, 8131, 8150, 8141, 8218, 8132, 8167, 8133, 8107, 7973, 8197, 8156, 8082,1.3620052337646484
117, 8137, 8152, 8117, 8140, 8156, 8218, 8162, 8174, 8057, 8144, 7991, 8156, 8160, 8089,1.3702771663665771
117, 8137, 8152, 8117, 8140, 8156, 8218, 8162, 8174, 8057, 8144, 7991, 8156, 8160, 8089,1.3702771663665771
118, 8144, 8167, 8122, 8136, 8157, 8231, 8169, 8178, 8140, 8156, 8001, 8182, 8168, 8114,1.3779850006103516
118, 8144, 8167, 8122, 8136, 8157, 8231, 8169, 8178, 8140, 8156, 8001, 8182, 8168, 8114,1.3779850006103516
119, 8127, 8159, 8117, 8131, 8146, 8244, 8170, 8186, 8176, 8154, 7993, 8187, 8163, 8102,1.3849985599517822
119, 8127, 8159, 8117, 8131, 8146, 8244, 8170, 8186, 8176, 8154, 7993, 8187, 8163, 8102,1.3849985599517822
120, 8156, 8156, 8121, 8148, 8163, 8255, 8197, 8188, 8110, 8174, 8007, 8166, 8159, 8120,1.3926644325256348
120, 8156, 8156, 8121, 8148, 8163, 8255, 8197, 8188, 8110, 8174, 8007, 8166, 8159, 8120,1.3926644325256348
121, 8163, 8179, 8143, 8156, 8155, 8257, 8186, 8185, 8217, 8167, 8020, 8211, 8172, 8146,1.4006638526916504
121, 8163, 8179, 8143, 8156, 8155, 8257, 8186, 8185, 8217, 8167, 8020, 8211, 8172, 8146,1.4006638526916504
122, 8124, 8141, 8119, 8131, 8151, 8242, 8179, 8181, 8129, 8178, 8024, 8165, 8165, 8120,1.4089851379394531
122, 8124, 8141, 8119, 8131, 8151, 8242, 8179, 8181, 8129, 8178, 8024, 8165, 8165, 8120,1.4089851379394531
123, 8160, 8167, 8131, 8150, 8156, 8237, 8178, 8192, 8157, 8172, 8011, 8187, 8168, 8128,1.4173972606658936
123, 8160, 8167, 8131, 8150, 8156, 8237, 8178, 8192, 8157, 8172, 8011, 8187, 8168, 8128,1.4173972606658936
124, 8158, 8176, 8146, 8162, 8174, 8237, 8183, 8194, 8198, 8165, 8016, 8207, 8167, 8134,1.4254016876220703
124, 8158, 8176, 8146, 8162, 8174, 8237, 8183, 8194, 8198, 8165, 8016, 8207, 8167, 8134,1.4254016876220703
125, 8147, 8158, 8132, 8161, 8180, 8238, 8188, 8186, 8116, 8182, 8022, 8164, 8157, 8124,1.4335784912109375
125, 8147, 8158, 8132, 8161, 8180, 8238, 8188, 8186, 8116, 8182, 8022, 8164, 8157, 8124,1.4335784912109375
126, 8176, 8192, 8142, 8161, 8146, 8227, 8169, 8186, 8207, 8170, 7997, 8195, 8170, 8129,1.4405834674835205
126, 8176, 8192, 8142, 8161, 8146, 8227, 8169, 8186, 8207, 8170, 7997, 8195, 8170, 8129,1.4405834674835205
127, 8159, 8166, 8139, 8142, 8158, 8217, 8177, 8177, 8133, 8178, 8007, 8174, 8164, 8134,1.4489870071411133
127, 8159, 8166, 8139, 8142, 8158, 8217, 8177, 8177, 8133, 8178, 8007, 8174, 8164, 8134,1.4489870071411133
240, 8169, 8173, 8156, 8165, 8173, 8232, 8184, 8186, 8160, 8178, 8015, 8190, 8163, 8152,1.4559853076934814
240, 8169, 8173, 8156, 8165, 8173, 8232, 8184, 8186, 8160, 8178, 8015, 8190, 8163, 8152,1.4559853076934814
0, 8169, 8179, 8153, 8169, 8162, 8225, 8182, 8189, 8195, 8160, 8005, 8192, 8165, 8140,1.464137077331543
0, 8169, 8179, 8153, 8169, 8162, 8225, 8182, 8189, 8195, 8160, 8005, 8192, 8165, 8140,1.464137077331543
1, 8145, 8155, 8129, 8151, 8171, 8217, 8182, 8170, 8081, 8172, 8008, 8153, 8158, 8120,1.471984624862671
1, 8145, 8155, 8129, 8151, 8171, 8217, 8182, 8170, 8081, 8172, 8008, 8153, 8158, 8120,1.471984624862671
2, 8141, 8175, 8139, 8159, 8163, 8221, 8156, 8172, 8175, 8166, 7996, 8195, 8167, 8115,1.4799888134002686
2, 8141, 8175, 8139, 8159, 8163, 8221, 8156, 8172, 8175, 8166, 7996, 8195, 8167, 8115,1.4799888134002686
3, 8132, 8149, 8130, 8147, 8170, 8215, 8169, 8170, 8115, 8172, 7999, 8163, 8161, 8111,1.4880554676055908
3, 8132, 8149, 8130, 8147, 8170, 8215, 8169, 8170, 8115, 8172, 7999, 8163, 8161, 8111,1.4880554676055908
4, 8154, 8160, 8144, 8151, 8178, 8221, 8191, 8178, 8121, 8163, 7999, 8169, 8160, 8133,1.4960551261901855
4, 8154, 8160, 8144, 8151, 8178, 8221, 8191, 8178, 8121, 8163, 7999, 8169, 8160, 8133,1.4960551261901855
5, 8148, 8174, 8144, 8147, 8165, 8213, 8195, 8185, 8187, 8150, 7982, 8186, 8163, 8125,1.50398588180542
5, 8148, 8174, 8144, 8147, 8165, 8213, 8195, 8185, 8187, 8150, 7982, 8186, 8163, 8125,1.50398588180542
6, 8146, 8148, 8124, 8138, 8166, 8200, 8205, 8175, 8079, 8173, 7990, 8145, 8160, 8127,1.5108354091644287
6, 8146, 8148, 8124, 8138, 8166, 8200, 8205, 8175, 8079, 8173, 7990, 8145, 8160, 8127,1.5108354091644287
7, 8170, 8175, 8161, 8163, 8159, 8206, 8178, 8179, 8172, 8160, 7998, 8196, 8171, 8153,1.5188686847686768
7, 8170, 8175, 8161, 8163, 8159, 8206, 8178, 8179, 8172, 8160, 7998, 8196, 8171, 8153,1.5188686847686768
8, 8157, 8168, 8170, 8166, 8173, 8204, 8174, 8177, 8146, 8167, 8010, 8179, 8161, 8147,1.5268640518188477
8, 8157, 8168, 8170, 8166, 8173, 8204, 8174, 8177, 8146, 8167, 8010, 8179, 8161, 8147,1.5268640518188477
9, 8180, 8172, 8158, 8163, 8180, 8205, 8180, 8173, 8131, 8174, 8008, 8176, 8161, 8158,1.5349867343902588
9, 8180, 8172, 8158, 8163, 8180, 8205, 8180, 8173, 8131, 8174, 8008, 8176, 8161, 8158,1.5349867343902588
10, 8163, 8171, 8145, 8152, 8161, 8205, 8163, 8170, 8192, 8157, 8005, 8199, 8170, 8152,1.5432078838348389
10, 8163, 8171, 8145, 8152, 8161, 8205, 8163, 8170, 8192, 8157, 8005, 8199, 8170, 8152,1.5432078838348389
11, 8138, 8145, 8132, 8148, 8168, 8209, 8171, 8173, 8097, 8178, 8020, 8157, 8163, 8138,1.5512723922729492
11, 8138, 8145, 8132, 8148, 8168, 8209, 8171, 8173, 8097, 8178, 8020, 8157, 8163, 8138,1.5512723922729492
12, 8181, 8178, 8165, 8168, 8163, 8219, 8182, 8192, 8197, 8179, 8010, 8200, 8171, 8165,1.5592725276947021
12, 8181, 8178, 8165, 8168, 8163, 8219, 8182, 8192, 8197, 8179, 8010, 8200, 8171, 8165,1.5592725276947021
13, 8159, 8157, 8153, 8150, 8162, 8212, 8186, 8186, 8170, 8177, 8011, 8184, 8165, 8162,1.5672845840454102
13, 8159, 8157, 8153, 8150, 8162, 8212, 8186, 8186, 8170, 8177, 8011, 8184, 8165, 8162,1.5672845840454102
14, 8147, 8159, 8132, 8154, 8165, 8213, 8174, 8182, 8126, 8177, 8005, 8170, 8157, 8148,1.574986457824707
14, 8147, 8159, 8132, 8154, 8165, 8213, 8174, 8182, 8126, 8177, 8005, 8170, 8157, 8148,1.574986457824707
15, 8162, 8186, 8138, 8162, 8156, 8213, 8167, 8188, 8199, 8169, 7987, 8199, 8162, 8142,1.5830090045928955
15, 8162, 8186, 8138, 8162, 8156, 8213, 8167, 8188, 8199, 8169, 7987, 8199, 8162, 8142,1.5830090045928955
16, 8146, 8152, 8131, 8145, 8176, 8211, 8180, 8170, 8083, 8183, 8003, 8154, 8161, 8138,1.590008020401001
16, 8146, 8152, 8131, 8145, 8176, 8211, 8180, 8170, 8083, 8183, 8003, 8154, 8161, 8138,1.590008020401001
17, 8140, 8174, 8148, 8164, 8172, 8220, 8163, 8170, 8157, 8165, 7997, 8186, 8170, 8139,1.5979852676391602
17, 8140, 8174, 8148, 8164, 8172, 8220, 8163, 8170, 8157, 8165, 7997, 8186, 8170, 8139,1.5979852676391602
18, 8141, 8173, 8142, 8168, 8171, 8220, 8171, 8178, 8166, 8173, 7993, 8179, 8163, 8131,1.6070451736450195
18, 8141, 8173, 8142, 8168, 8171, 8220, 8171, 8178, 8166, 8173, 7993, 8179, 8163, 8131,1.6070451736450195
19, 8172, 8165, 8142, 8165, 8178, 8218, 8189, 8172, 8115, 8187, 8001, 8166, 8161, 8157,1.613389492034912
19, 8172, 8165, 8142, 8165, 8178, 8218, 8189, 8172, 8115, 8187, 8001, 8166, 8161, 8157,1.613389492034912
20, 8149, 8175, 8158, 8163, 8152, 8203, 8159, 8164, 8179, 8152, 7988, 8200, 8171, 8159,1.621396780014038
20, 8149, 8175, 8158, 8163, 8152, 8203, 8159, 8164, 8179, 8152, 7988, 8200, 8171, 8159,1.6223962306976318
21, 8115, 8144, 8141, 8158, 8159, 8191, 8157, 8167, 8086, 8162, 7989, 8162, 8162, 8136,1.6299855709075928
21, 8115, 8144, 8141, 8158, 8159, 8191, 8157, 8167, 8086, 8162, 7989, 8162, 8162, 8136,1.6299855709075928
22, 8169, 8173, 8164, 8183, 8165, 8202, 8170, 8185, 8188, 8175, 7991, 8199, 8171, 8158,1.6379845142364502
22, 8169, 8173, 8164, 8183, 8165, 8202, 8170, 8185, 8188, 8175, 7991, 8199, 8171, 8158,1.6379845142364502
23, 8174, 8177, 8176, 8176, 8175, 8209, 8182, 8183, 8214, 8179, 8007, 8198, 8173, 8167,1.6460058689117432
23, 8174, 8177, 8176, 8176, 8175, 8209, 8182, 8183, 8214, 8179, 8007, 8198, 8173, 8167,1.6460058689117432
24, 8172, 8180, 8184, 8179, 8204, 8225, 8191, 8193, 8172, 8200, 8030, 8176, 8166, 8170,1.653005838394165
24, 8172, 8180, 8184, 8179, 8204, 8225, 8191, 8193, 8172, 8200, 8030, 8176, 8166, 8170,1.653005838394165
25, 8195, 8205, 8198, 8197, 8196, 8230, 8184, 8213, 8296, 8199, 8019, 8210, 8170, 8174,1.6609852313995361
25, 8195, 8205, 8198, 8197, 8196, 8230, 8184, 8213, 8296, 8199, 8019, 8210, 8170, 8174,1.6609852313995361
26, 8190, 8169, 8179, 8181, 8188, 8225, 8202, 8196, 8199, 8206, 8021, 8175, 8166, 8177,1.6687309741973877
26, 8190, 8169, 8179, 8181, 8188, 8225, 8202, 8196, 8199, 8206, 8021, 8175, 8166, 8177,1.669731855392456
27, 8190, 8184, 8181, 8182, 8177, 8229, 8196, 8193, 8226, 8185, 8018, 8203, 8173, 8191,1.6769795417785645
27, 8190, 8184, 8181, 8182, 8177, 8229, 8196, 8193, 8226, 8185, 8018, 8203, 8173, 8191,1.6769795417785645
28, 8170, 8181, 8170, 8176, 8173, 8211, 8191, 8201, 8235, 8175, 8010, 8190, 8165, 8167,1.6849830150604248
28, 8170, 8181, 8170, 8176, 8173, 8211, 8191, 8201, 8235, 8175, 8010, 8190, 8165, 8167,1.6849830150604248
29, 8177, 8160, 8161, 8169, 8175, 8203, 8205, 8191, 8148, 8188, 8011, 8158, 8156, 8162,1.692986011505127
29, 8177, 8160, 8161, 8169, 8175, 8203, 8205, 8191, 8148, 8188, 8011, 8158, 8156, 8162,1.692986011505127
30, 8168, 8175, 8166, 8160, 8146, 8211, 8178, 8180, 8231, 8159, 8006, 8210, 8168, 8169,1.7009859085083008
30, 8168, 8175, 8166, 8160, 8146, 8211, 8178, 8180, 8231, 8159, 8006, 8210, 8168, 8169,1.7009859085083008
31, 8125, 8149, 8137, 8136, 8148, 8202, 8171, 8165, 8139, 8163, 8015, 8175, 8163, 8142,1.7089848518371582
31, 8125, 8149, 8137, 8136, 8148, 8202, 8171, 8165, 8139, 8163, 8015, 8175, 8163, 8142,1.7089848518371582
32, 8158, 8172, 8148, 8150, 8152, 8199, 8182, 8166, 8165, 8163, 7995, 8178, 8162, 8145,1.7155799865722656
32, 8158, 8172, 8148, 8150, 8152, 8199, 8182, 8166, 8165, 8163, 7995, 8178, 8162, 8145,1.7155799865722656
33, 8151, 8175, 8150, 8152, 8143, 8203, 8185, 8167, 8185, 8146, 7979, 8179, 8158, 8135,1.7235772609710693
33, 8151, 8175, 8150, 8152, 8143, 8203, 8185, 8167, 8185, 8146, 7979, 8179, 8158, 8135,1.7245721817016602
34, 8137, 8159, 8135, 8155, 8146, 8212, 8186, 8174, 8093, 8161, 8000, 8152, 8156, 8123,1.731980562210083
34, 8137, 8159, 8135, 8155, 8146, 8212, 8186, 8174, 8093, 8161, 8000, 8152, 8156, 8123,1.731980562210083
35, 8174, 8189, 8163, 8171, 8130, 8204, 8176, 8189, 8209, 8162, 8002, 8201, 8172, 8141,1.7396361827850342
35, 8174, 8189, 8163, 8171, 8130, 8204, 8176, 8189, 8209, 8162, 8002, 8201, 8172, 8141,1.7396361827850342
36, 8162, 8160, 8157, 8153, 8133, 8184, 8180, 8171, 8146, 8170, 8011, 8171, 8161, 8140,1.7476651668548584
36, 8162, 8160, 8157, 8153, 8133, 8184, 8180, 8171, 8146, 8170, 8011, 8171, 8161, 8140,1.7476651668548584
37, 8167, 8169, 8160, 8167, 8133, 8193, 8168, 8166, 8158, 8162, 8010, 8181, 8163, 8144,1.755986213684082
37, 8167, 8169, 8160, 8167, 8133, 8193, 8168, 8166, 8158, 8162, 8010, 8181, 8163, 8144,1.755986213684082
38, 8168, 8179, 8161, 8175, 8133, 8197, 8164, 8168, 8216, 8157, 8002, 8197, 8164, 8133,1.7657034397125244
38, 8168, 8179, 8161, 8175, 8133, 8197, 8164, 8168, 8216, 8157, 8002, 8197, 8164, 8133,1.7657034397125244
39, 8150, 8152, 8144, 8160, 8147, 8189, 8179, 8159, 8114, 8174, 8012, 8161, 8150, 8121,1.771697998046875
39, 8150, 8152, 8144, 8160, 8147, 8189, 8179, 8159, 8114, 8174, 8012, 8161, 8150, 8121,1.771697998046875
40, 8149, 8177, 8158, 8166, 8120, 8187, 8164, 8170, 8198, 8160, 8008, 8195, 8161, 8118,1.7786993980407715
40, 8149, 8177, 8158, 8166, 8120, 8187, 8164, 8170, 8198, 8160, 8008, 8195, 8161, 8118,1.7786993980407715
41, 8146, 8161, 8149, 8155, 8117, 8187, 8173, 8172, 8152, 8178, 8014, 8163, 8165, 8116,1.7866981029510498
41, 8146, 8161, 8149, 8155, 8117, 8187, 8173, 8172, 8152, 8178, 8014, 8163, 8165, 8116,1.7866981029510498
42, 8166, 8169, 8160, 8165, 8132, 8197, 8180, 8177, 8168, 8194, 8023, 8174, 8170, 8146,1.7946994304656982
42, 8166, 8169, 8160, 8165, 8132, 8197, 8180, 8177, 8168, 8194, 8023, 8174, 8170, 8146,1.7953300476074219
43, 8159, 8187, 8176, 8177, 8130, 8192, 8170, 8192, 8251, 8185, 8026, 8204, 8169, 8144,1.802335500717163
43, 8159, 8187, 8176, 8177, 8130, 8192, 8170, 8192, 8251, 8185, 8026, 8204, 8169, 8144,1.803340196609497
44, 8163, 8171, 8165, 8174, 8146, 8187, 8189, 8191, 8162, 8200, 8036, 8166, 8160, 8139,1.81038236618042
44, 8163, 8171, 8165, 8174, 8146, 8187, 8189, 8191, 8162, 8200, 8036, 8166, 8160, 8139,1.8113369941711426
45, 8172, 8187, 8171, 8179, 8135, 8186, 8180, 8180, 8234, 8175, 8025, 8196, 8170, 8145,1.8183417320251465
45, 8172, 8187, 8171, 8179, 8135, 8186, 8180, 8180, 8234, 8175, 8025, 8196, 8170, 8145,1.819340705871582
46, 8134, 8158, 8153, 8165, 8126, 8172, 8168, 8168, 8164, 8165, 8020, 8161, 8163, 8115,1.8263819217681885
46, 8134, 8158, 8153, 8165, 8126, 8172, 8168, 8168, 8164, 8165, 8020, 8161, 8163, 8115,1.8273403644561768
47, 8154, 8165, 8153, 8180, 8128, 8169, 8166, 8170, 8134, 8174, 8017, 8161, 8158, 8122,1.8348467350006104
47, 8154, 8165, 8153, 8180, 8128, 8169, 8166, 8170, 8134, 8174, 8017, 8161, 8158, 8122,1.8348467350006104
48, 8149, 8178, 8154, 8172, 8122, 8168, 8165, 8164, 8196, 8157, 8012, 8195, 8160, 8132,1.8428480625152588
48, 8149, 8178, 8154, 8172, 8122, 8168, 8165, 8164, 8196, 8157, 8012, 8195, 8160, 8132,1.8428480625152588
49, 8109, 8144, 8136, 8143, 8134, 8164, 8184, 8164, 8084, 8162, 8027, 8148, 8151, 8121,1.8499796390533447
49, 8109, 8144, 8136, 8143, 8134, 8164, 8184, 8164, 8084, 8162, 8027, 8148, 8151, 8121,1.8499796390533447
50, 8130, 8171, 8159, 8164, 8117, 8157, 8157, 8184, 8167, 8143, 8014, 8186, 8161, 8122,1.8579907417297363
50, 8130, 8171, 8159, 8164, 8117, 8157, 8157, 8184, 8167, 8143, 8014, 8186, 8161, 8122,1.8579907417297363
51, 8128, 8161, 8155, 8169, 8112, 8144, 8137, 8161, 8126, 8139, 8005, 8174, 8155, 8103,1.866034746170044
51, 8128, 8161, 8155, 8169, 8112, 8144, 8137, 8161, 8126, 8139, 8005, 8174, 8155, 8103,1.866034746170044
52, 8148, 8163, 8152, 8171, 8128, 8160, 8154, 8146, 8084, 8163, 8011, 8160, 8151, 8110,1.8740339279174805
52, 8148, 8163, 8152, 8171, 8128, 8160, 8154, 8146, 8084, 8163, 8011, 8160, 8151, 8110,1.8740339279174805
53, 8166, 8189, 8169, 8176, 8139, 8177, 8171, 8175, 8216, 8181, 8015, 8199, 8170, 8123,1.8819859027862549
53, 8166, 8189, 8169, 8176, 8139, 8177, 8171, 8175, 8216, 8181, 8015, 8199, 8170, 8123,1.8819859027862549
54, 8160, 8168, 8162, 8181, 8166, 8174, 8191, 8183, 8165, 8213, 8041, 8170, 8168, 8126,1.8899850845336914
54, 8160, 8168, 8162, 8181, 8166, 8174, 8191, 8183, 8165, 8213, 8041, 8170, 8168, 8126,1.8899850845336914
55, 8175, 8189, 8177, 8190, 8152, 8170, 8171, 8175, 8225, 8194, 8034, 8198, 8165, 8139,1.8980636596679688
55, 8175, 8189, 8177, 8190, 8152, 8170, 8171, 8175, 8225, 8194, 8034, 8198, 8165, 8139,1.8980636596679688
56, 8138, 8166, 8165, 8155, 8137, 8157, 8155, 8163, 8179, 8176, 8026, 8178, 8161, 8125,1.9058315753936768
56, 8138, 8166, 8165, 8155, 8137, 8157, 8155, 8163, 8179, 8176, 8026, 8178, 8161, 8125,1.9058315753936768
57, 8124, 8155, 8153, 8152, 8151, 8158, 8162, 8167, 8120, 8183, 8046, 8165, 8167, 8128,1.9128868579864502
57, 8124, 8155, 8153, 8152, 8151, 8158, 8162, 8167, 8120, 8183, 8046, 8165, 8167, 8128,1.9128868579864502
58, 8135, 8182, 8164, 8173, 8138, 8156, 8160, 8178, 8226, 8170, 8039, 8206, 8171, 8135,1.9208958148956299
58, 8135, 8182, 8164, 8173, 8138, 8156, 8160, 8178, 8226, 8170, 8039, 8206, 8171, 8135,1.9208958148956299
59, 8129, 8151, 8143, 8155, 8136, 8134, 8163, 8163, 8118, 8183, 8023, 8162, 8151, 8131,1.9278976917266846
59, 8129, 8151, 8143, 8155, 8136, 8134, 8163, 8163, 8118, 8183, 8023, 8162, 8151, 8131,1.9294047355651855
60, 8138, 8163, 8151, 8157, 8129, 8127, 8140, 8157, 8148, 8162, 8014, 8191, 8163, 8149,1.93695068359375
60, 8138, 8163, 8151, 8157, 8129, 8127, 8140, 8157, 8148, 8162, 8014, 8191, 8163, 8149,1.93695068359375
61, 8119, 8153, 8154, 8156, 8124, 8126, 8133, 8158, 8155, 8144, 8031, 8189, 8167, 8142,1.9449858665466309
61, 8119, 8153, 8154, 8156, 8124, 8126, 8133, 8158, 8155, 8144, 8031, 8189, 8167, 8142,1.9449858665466309
62, 8148, 8148, 8154, 8158, 8127, 8133, 8146, 8160, 8098, 8158, 8036, 8166, 8159, 8146,1.9529623985290527
62, 8148, 8148, 8154, 8158, 8127, 8133, 8146, 8160, 8098, 8158, 8036, 8166, 8159, 8146,1.9539594650268555
63, 8180, 8186, 8179, 8166, 8121, 8137, 8141, 8173, 8209, 8155, 8025, 8217, 8171, 8166,1.9606342315673828
63, 8180, 8186, 8179, 8166, 8121, 8137, 8141, 8173, 8209, 8155, 8025, 8217, 8171, 8166,1.9606342315673828
64, 8164, 8170, 8183, 8172, 8147, 8137, 8160, 8180, 8152, 8180, 8056, 8184, 8170, 8167,1.968644380569458
64, 8164, 8170, 8183, 8172, 8147, 8137, 8160, 8180, 8152, 8180, 8056, 8184, 8170, 8167,1.969637155532837
65, 8199, 8191, 8205, 8197, 8151, 8144, 8168, 8188, 8212, 8177, 8056, 8194, 8171, 8177,1.9759857654571533
65, 8199, 8191, 8205, 8197, 8151, 8144, 8168, 8188, 8212, 8177, 8056, 8194, 8171, 8177,1.9759857654571533
66, 8184, 8183, 8199, 8180, 8147, 8134, 8166, 8176, 8214, 8159, 8042, 8193, 8159, 8160,1.9839847087860107
66, 8184, 8183, 8199, 8180, 8147, 8134, 8166, 8176, 8214, 8159, 8042, 8193, 8159, 8160,1.9839847087860107
67, 8152, 8158, 8180, 8170, 8158, 8126, 8164, 8163, 8109, 8165, 8050, 8171, 8150, 8149,1.9919853210449219
67, 8152, 8158, 8180, 8170, 8158, 8126, 8164, 8163, 8109, 8165, 8050, 8171, 8150, 8149,1.9919853210449219
68, 8179, 8187, 8202, 8193, 8141, 8120, 8147, 8170, 8211, 8158, 8037, 8212, 8167, 8158,1.9995365142822266
68, 8179, 8187, 8202, 8193, 8141, 8120, 8147, 8170, 8211, 8158, 8037, 8212, 8167, 8158,2.000548839569092
69, 8186, 8171, 8194, 8185, 8155, 8111, 8170, 8164, 8151, 8180, 8050, 8174, 8165, 8159,2.0075528621673584
69, 8186, 8171, 8194, 8185, 8155, 8111, 8170, 8164, 8151, 8180, 8050, 8174, 8165, 8159,2.0075528621673584
70, 8182, 8176, 8191, 8189, 8159, 8113, 8171, 8170, 8179, 8173, 8056, 8190, 8164, 8167,2.0159852504730225
70, 8182, 8176, 8191, 8189, 8159, 8113, 8171, 8170, 8179, 8173, 8056, 8190, 8164, 8167,2.01650071144104
71, 8154, 8165, 8172, 8184, 8137, 8108, 8154, 8172, 8197, 8156, 8039, 8196, 8159, 8149,2.0239853858947754
71, 8154, 8165, 8172, 8184, 8137, 8108, 8154, 8172, 8197, 8156, 8039, 8196, 8159, 8149,2.0239853858947754
72, 8148, 8146, 8155, 8177, 8145, 8114, 8169, 8163, 8098, 8174, 8044, 8156, 8154, 8144,2.0315046310424805
72, 8148, 8146, 8155, 8177, 8145, 8114, 8169, 8163, 8098, 8174, 8044, 8156, 8154, 8144,2.0324931144714355
73, 8155, 8172, 8181, 8189, 8142, 8113, 8164, 8171, 8212, 8169, 8044, 8196, 8169, 8151,2.039565086364746
73, 8155, 8172, 8181, 8189, 8142, 8113, 8164, 8171, 8212, 8169, 8044, 8196, 8169, 8151,2.039565086364746
74, 8144, 8148, 8167, 8181, 8147, 8092, 8177, 8173, 8159, 8184, 8050, 8167, 8163, 8146,2.0465657711029053
74, 8144, 8148, 8167, 8181, 8147, 8092, 8177, 8173, 8159, 8184, 8050, 8167, 8163, 8146,2.0465657711029053
75, 8159, 8166, 8165, 8185, 8146, 8094, 8178, 8171, 8167, 8178, 8049, 8180, 8163, 8166,2.054985761642456
75, 8159, 8166, 8165, 8185, 8146, 8094, 8178, 8171, 8167, 8178, 8049, 8180, 8163, 8166,2.054985761642456
76, 8130, 8172, 8164, 8180, 8128, 8084, 8154, 8163, 8203, 8149, 8043, 8194, 8162, 8147,2.06260347366333
76, 8130, 8172, 8164, 8180, 8128, 8084, 8154, 8163, 8203, 8149, 8043, 8194, 8162, 8147,2.06260347366333
77, 8134, 8141, 8151, 8174, 8136, 8066, 8163, 8156, 8089, 8164, 8045, 8153, 8156, 8134,2.070603132247925
77, 8134, 8141, 8151, 8174, 8136, 8066, 8163, 8156, 8089, 8164, 8045, 8153, 8156, 8134,2.070603132247925
78, 8171, 8174, 8174, 8182, 8137, 8066, 8168, 8164, 8190, 8157, 8041, 8197, 8170, 8159,2.0785186290740967
78, 8171, 8174, 8174, 8182, 8137, 8066, 8168, 8164, 8190, 8157, 8041, 8197, 8170, 8159,2.0785186290740967
79, 8138, 8162, 8168, 8169, 8151, 8064, 8165, 8159, 8148, 8155, 8059, 8173, 8164, 8152,2.086949110031128
79, 8138, 8162, 8168, 8169, 8151, 8064, 8165, 8159, 8148, 8155, 8059, 8173, 8164, 8152,2.086949110031128
80, 8165, 8176, 8178, 8191, 8160, 8064, 8161, 8166, 8150, 8157, 8057, 8176, 8165, 8163,2.0946226119995117
80, 8165, 8176, 8178, 8191, 8160, 8064, 8161, 8166, 8150, 8157, 8057, 8176, 8165, 8163,2.0946226119995117
81, 8183, 8188, 8190, 8198, 8149, 8058, 8169, 8172, 8226, 8155, 8042, 8203, 8170, 8167,2.1029744148254395
81, 8183, 8188, 8190, 8198, 8149, 8058, 8169, 8172, 8226, 8155, 8042, 8203, 8170, 8167,2.1029744148254395
82, 8151, 8156, 8179, 8182, 8165, 8058, 8191, 8169, 8136, 8178, 8069, 8166, 8163, 8165,2.1099674701690674
82, 8151, 8156, 8179, 8182, 8165, 8058, 8191, 8169, 8136, 8178, 8069, 8166, 8163, 8165,2.1099674701690674
83, 8174, 8191, 8203, 8204, 8166, 8062, 8177, 8184, 8243, 8176, 8074, 8199, 8174, 8179,2.1179871559143066
83, 8174, 8191, 8203, 8204, 8166, 8062, 8177, 8184, 8243, 8176, 8074, 8199, 8174, 8179,2.1179871559143066
84, 8181, 8184, 8191, 8199, 8171, 8060, 8172, 8172, 8201, 8180, 8059, 8168, 8162, 8161,2.1262316703796387
84, 8181, 8184, 8191, 8199, 8171, 8060, 8172, 8172, 8201, 8180, 8059, 8168, 8162, 8161,2.1262316703796387
85, 8166, 8173, 8169, 8185, 8168, 8070, 8163, 8148, 8128, 8161, 8042, 8156, 8148, 8147,2.1337687969207764
85, 8166, 8173, 8169, 8185, 8168, 8070, 8163, 8148, 8128, 8161, 8042, 8156, 8148, 8147,2.1337687969207764
86, 8135, 8172, 8155, 8174, 8146, 8065, 8140, 8147, 8168, 8121, 8032, 8185, 8153, 8132,2.141763925552368
86, 8135, 8172, 8155, 8174, 8146, 8065, 8140, 8147, 8168, 8121, 8032, 8185, 8153, 8132,2.141763925552368
87, 8130, 8148, 8137, 8167, 8154, 8061, 8150, 8146, 8064, 8140, 8038, 8145, 8155, 8126,2.1497604846954346
87, 8130, 8148, 8137, 8167, 8154, 8061, 8150, 8146, 8064, 8140, 8038, 8145, 8155, 8126,2.1497604846954346
88, 8153, 8177, 8155, 8186, 8157, 8081, 8147, 8146, 8143, 8134, 8022, 8177, 8164, 8135,2.157763719558716
88, 8153, 8177, 8155, 8186, 8157, 8081, 8147, 8146, 8143, 8134, 8022, 8177, 8164, 8135,2.157763719558716
89, 8116, 8156, 8148, 8180, 8170, 8087, 8155, 8149, 8125, 8134, 8037, 8169, 8157, 8126,2.165761709213257
89, 8116, 8156, 8148, 8180, 8170, 8087, 8155, 8149, 8125, 8134, 8037, 8169, 8157, 8126,2.165761709213257
90, 8135, 8152, 8158, 8190, 8177, 8087, 8167, 8164, 8108, 8158, 8059, 8170, 8163, 8150,2.17399001121521
90, 8135, 8152, 8158, 8190, 8177, 8087, 8167, 8164, 8108, 8158, 8059, 8170, 8163, 8150,2.17399001121521
91, 8174, 8179, 8182, 8193, 8160, 8082, 8151, 8163, 8214, 8151, 8049, 8199, 8174, 8165,2.1809871196746826
91, 8174, 8179, 8182, 8193, 8160, 8082, 8151, 8163, 8214, 8151, 8049, 8199, 8174, 8165,2.1809871196746826
92, 8145, 8153, 8160, 8174, 8170, 8073, 8150, 8145, 8099, 8153, 8061, 8148, 8161, 8146,2.1888394355773926
92, 8145, 8153, 8160, 8174, 8170, 8073, 8150, 8145, 8099, 8153, 8061, 8148, 8161, 8146,2.1888394355773926
93, 8144, 8171, 8164, 8192, 8160, 8065, 8141, 8156, 8141, 8134, 8052, 8183, 8164, 8143,2.196944236755371
93, 8144, 8171, 8164, 8192, 8160, 8065, 8141, 8156, 8141, 8134, 8052, 8183, 8164, 8143,2.196944236755371
94, 8152, 8166, 8165, 8188, 8160, 8059, 8150, 8155, 8145, 8141, 8043, 8184, 8166, 8145,2.2049808502197266
94, 8152, 8166, 8165, 8188, 8160, 8059, 8150, 8155, 8145, 8141, 8043, 8184, 8166, 8145,2.2049808502197266
95, 8168, 8162, 8172, 8182, 8182, 8082, 8171, 8157, 8119, 8169, 8069, 8169, 8165, 8167,2.213000774383545
95, 8168, 8162, 8172, 8182, 8182, 8082, 8171, 8157, 8119, 8169, 8069, 8169, 8165, 8167,2.213000774383545
96, 8169, 8187, 8191, 8197, 8174, 8094, 8166, 8175, 8232, 8161, 8081, 8207, 8172, 8173,2.22100567817688
96, 8169, 8187, 8191, 8197, 8174, 8094, 8166, 8175, 8232, 8161, 8081, 8207, 8172, 8173,2.22100567817688
97, 8167, 8164, 8177, 8198, 8183, 8084, 8168, 8161, 8140, 8175, 8084, 8167, 8169, 8166,2.2289886474609375
97, 8167, 8164, 8177, 8198, 8183, 8084, 8168, 8161, 8140, 8175, 8084, 8167, 8169, 8166,2.2289886474609375
98, 8203, 8185, 8188, 8207, 8179, 8092, 8157, 8152, 8182, 8172, 8068, 8191, 8177, 8185,2.2356739044189453
98, 8203, 8185, 8188, 8207, 8179, 8092, 8157, 8152, 8182, 8172, 8068, 8191, 8177, 8185,2.2356739044189453
99, 8168, 8172, 8173, 8185, 8166, 8097, 8160, 8154, 8173, 8154, 8053, 8177, 8164, 8168,2.24367356300354
99, 8168, 8172, 8173, 8185, 8166, 8097, 8160, 8154, 8173, 8154, 8053, 8177, 8164, 8168,2.24367356300354
100, 8129, 8149, 8146, 8168, 8172, 8095, 8164, 8148, 8066, 8138, 8032, 8144, 8147, 8140,2.2516770362854004
100, 8129, 8149, 8146, 8168, 8172, 8095, 8164, 8148, 8066, 8138, 8032, 8144, 8147, 8140,2.2516770362854004
101, 8135, 8175, 8162, 8178, 8164, 8096, 8154, 8156, 8157, 8123, 8015, 8190, 8162, 8135,2.2599854469299316
101, 8135, 8175, 8162, 8178, 8164, 8096, 8154, 8156, 8157, 8123, 8015, 8190, 8162, 8135,2.2599854469299316
102, 8137, 8156, 8155, 8177, 8180, 8101, 8185, 8158, 8102, 8157, 8050, 8155, 8166, 8147,2.2675328254699707
102, 8137, 8156, 8155, 8177, 8180, 8101, 8185, 8158, 8102, 8157, 8050, 8155, 8166, 8147,2.268531560897827
103, 8160, 8174, 8168, 8188, 8188, 8105, 8183, 8162, 8156, 8156, 8066, 8181, 8171, 8174,2.2759859561920166
103, 8160, 8174, 8168, 8188, 8188, 8105, 8183, 8162, 8156, 8156, 8066, 8181, 8171, 8174,2.2759859561920166
104, 8156, 8176, 8174, 8184, 8186, 8090, 8170, 8167, 8188, 8150, 8059, 8197, 8168, 8164,2.284290313720703
104, 8156, 8176, 8174, 8184, 8186, 8090, 8170, 8167, 8188, 8150, 8059, 8197, 8168, 8164,2.284290313720703
105, 8173, 8164, 8162, 8187, 8195, 8091, 8190, 8164, 8111, 8173, 8068, 8164, 8162, 8168,2.292290687561035
105, 8173, 8164, 8162, 8187, 8195, 8091, 8190, 8164, 8111, 8173, 8068, 8164, 8162, 8168,2.292290687561035
106, 8176, 8190, 8171, 8194, 8180, 8101, 8179, 8161, 8202, 8150, 8069, 8203, 8173, 8179,2.3003039360046387
106, 8176, 8190, 8171, 8194, 8180, 8101, 8179, 8161, 8202, 8150, 8069, 8203, 8173, 8179,2.3003039360046387
107, 8141, 8162, 8163, 8185, 8194, 8099, 8179, 8160, 8123, 8154, 8079, 8174, 8166, 8155,2.308316469192505
107, 8141, 8162, 8163, 8185, 8194, 8099, 8179, 8160, 8123, 8154, 8079, 8174, 8166, 8155,2.308316469192505
108, 8183, 8179, 8187, 8207, 8198, 8104, 8184, 8174, 8163, 8170, 8079, 8188, 8167, 8172,2.3147101402282715
108, 8183, 8179, 8187, 8207, 8198, 8104, 8184, 8174, 8163, 8170, 8079, 8188, 8167, 8172,2.3147101402282715
109, 8175, 8182, 8191, 8195, 8182, 8104, 8174, 8168, 8221, 8172, 8080, 8197, 8168, 8185,2.322721481323242
109, 8175, 8182, 8191, 8195, 8182, 8104, 8174, 8168, 8221, 8172, 8080, 8197, 8168, 8185,2.322721481323242
110, 8138, 8155, 8172, 8178, 8199, 8118, 8178, 8163, 8142, 8195, 8096, 8163, 8164, 8177,2.330561876296997
110, 8138, 8155, 8172, 8178, 8199, 8118, 8178, 8163, 8142, 8195, 8096, 8163, 8164, 8177,2.330561876296997
111, 8164, 8182, 8188, 8205, 8201, 8134, 8179, 8180, 8260, 8191, 8082, 8198, 8173, 8178,2.3385610580444336
111, 8164, 8182, 8188, 8205, 8201, 8134, 8179, 8180, 8260, 8191, 8082, 8198, 8173, 8178,2.3395557403564453
112, 8150, 8154, 8167, 8187, 8196, 8127, 8183, 8169, 8183, 8184, 8075, 8158, 8161, 8163,2.3469483852386475
112, 8150, 8154, 8167, 8187, 8196, 8127, 8183, 8169, 8183, 8184, 8075, 8158, 8161, 8163,2.3469483852386475
113, 8147, 8160, 8166, 8175, 8184, 8131, 8178, 8168, 8166, 8166, 8070, 8166, 8160, 8165,2.354985237121582
113, 8147, 8160, 8166, 8175, 8184, 8131, 8178, 8168, 8166, 8166, 8070, 8166, 8160, 8165,2.354985237121582
114, 8158, 8182, 8174, 8184, 8181, 8135, 8192, 8180, 8243, 8168, 8058, 8188, 8163, 8162,2.3629846572875977
114, 8158, 8182, 8174, 8184, 8181, 8135, 8192, 8180, 8243, 8168, 8058, 8188, 8163, 8162,2.3629846572875977
115, 8158, 8160, 8154, 8174, 8197, 8133, 8213, 8166, 8149, 8184, 8060, 8148, 8152, 8154,2.3699848651885986
115, 8158, 8160, 8154, 8174, 8197, 8133, 8213, 8166, 8149, 8184, 8060, 8148, 8152, 8154,2.3699848651885986
116, 8144, 8172, 8156, 8164, 8173, 8140, 8183, 8168, 8217, 8149, 8050, 8191, 8163, 8152,2.377972364425659
116, 8144, 8172, 8156, 8164, 8173, 8140, 8183, 8168, 8217, 8149, 8050, 8191, 8163, 8152,2.377972364425659
117, 8129, 8153, 8149, 8163, 8178, 8151, 8192, 8180, 8178, 8164, 8060, 8168, 8166, 8149,2.3859851360321045
117, 8129, 8153, 8149, 8163, 8178, 8151, 8192, 8180, 8178, 8164, 8060, 8168, 8166, 8149,2.3859851360321045
118, 8169, 8165, 8166, 8189, 8201, 8166, 8210, 8178, 8186, 8187, 8064, 8167, 8164, 8177,2.394007682800293
118, 8169, 8165, 8166, 8189, 8201, 8166, 8210, 8178, 8186, 8187, 8064, 8167, 8164, 8177,2.394007682800293
119, 8148, 8171, 8173, 8181, 8185, 8163, 8185, 8164, 8243, 8161, 8045, 8191, 8159, 8163,2.4020071029663086
119, 8148, 8171, 8173, 8181, 8185, 8163, 8185, 8164, 8243, 8161, 8045, 8191, 8159, 8163,2.4020071029663086
120, 8127, 8147, 8150, 8161, 8186, 8162, 8186, 8159, 8127, 8161, 8046, 8152, 8152, 8141,2.409985065460205
120, 8127, 8147, 8150, 8161, 8186, 8162, 8186, 8159, 8127, 8161, 8046, 8152, 8152, 8141,2.409985065460205
121, 8169, 8184, 8169, 8177, 8185, 8169, 8180, 8165, 8212, 8139, 8044, 8189, 8169, 8169,2.418506383895874
121, 8169, 8184, 8169, 8177, 8185, 8169, 8180, 8165, 8212, 8139, 8044, 8189, 8169, 8169,2.418506383895874
122, 8149, 8164, 8171, 8170, 8187, 8160, 8177, 8154, 8175, 8137, 8059, 8170, 8166, 8173,2.4257259368896484
122, 8149, 8164, 8171, 8170, 8187, 8160, 8177, 8154, 8175, 8137, 8059, 8170, 8166, 8173,2.4257259368896484
123, 8161, 8164, 8177, 8180, 8188, 8168, 8191, 8168, 8158, 8170, 8072, 8169, 8168, 8187,2.433685302734375
123, 8161, 8164, 8177, 8180, 8188, 8168, 8191, 8168, 8158, 8170, 8072, 8169, 8168, 8187,2.433685302734375
124, 8175, 8183, 8184, 8175, 8177, 8176, 8197, 8184, 8255, 8174, 8069, 8201, 8177, 8190,2.4406850337982178
124, 8175, 8183, 8184, 8175, 8177, 8176, 8197, 8184, 8255, 8174, 8069, 8201, 8177, 8190,2.4406850337982178
125, 8143, 8152, 8163, 8156, 8186, 8170, 8206, 8174, 8149, 8181, 8080, 8151, 8162, 8174,2.4489870071411133
125, 8143, 8152, 8163, 8156, 8186, 8170, 8206, 8174, 8149, 8181, 8080, 8151, 8162, 8174,2.4489870071411133
126, 8163, 8176, 8177, 8175, 8178, 8177, 8197, 8184, 8224, 8173, 8067, 8181, 8167, 8177,2.4569504261016846
126, 8163, 8176, 8177, 8175, 8178, 8177, 8197, 8184, 8224, 8173, 8067, 8181, 8167, 8177,2.4569504261016846
127, 8159, 8160, 8167, 8159, 8175, 8178, 8197, 8177, 8201, 8174, 8063, 8173, 8164, 8164,2.4647393226623535
127, 8159, 8160, 8167, 8159, 8175, 8178, 8197, 8177, 8201, 8174, 8063, 8173, 8164, 8164,2.4647393226623535
240, 8143, 8149, 8159, 8148, 8168, 8174, 8191, 8162, 8133, 8165, 8068, 8160, 8159, 8160,2.4727423191070557
240, 8143, 8149, 8159, 8148, 8168, 8174, 8191, 8162, 8133, 8165, 8068, 8160, 8159, 8160,2.4727423191070557
0, 8135, 8169, 8161, 8155, 8140, 8161, 8172, 8162, 8209, 8142, 8046, 8187, 8165, 8146,2.4809865951538086
0, 8135, 8169, 8161, 8155, 8140, 8161, 8172, 8162, 8209, 8142, 8046, 8187, 8165, 8146,2.4809865951538086
1, 8130, 8142, 8136, 8133, 8147, 8155, 8190, 8152, 8092, 8160, 8051, 8141, 8157, 8135,2.488980770111084
1, 8130, 8142, 8136, 8133, 8147, 8155, 8190, 8152, 8092, 8160, 8051, 8141, 8157, 8135,2.488980770111084
2, 8147, 8164, 8155, 8139, 8147, 8166, 8186, 8159, 8136, 8145, 8065, 8177, 8166, 8153,2.4969496726989746
2, 8147, 8164, 8155, 8139, 8147, 8166, 8186, 8159, 8136, 8145, 8065, 8177, 8166, 8153,2.4969496726989746
3, 8132, 8161, 8152, 8142, 8142, 8153, 8178, 8163, 8138, 8140, 8067, 8173, 8163, 8142,2.5039854049682617
3, 8132, 8161, 8152, 8142, 8142, 8153, 8178, 8163, 8138, 8140, 8067, 8173, 8163, 8142,2.5039854049682617
4, 8143, 8153, 8135, 8145, 8146, 8137, 8176, 8156, 8067, 8159, 8055, 8150, 8156, 8140,2.5119855403900146
4, 8143, 8153, 8135, 8145, 8146, 8137, 8176, 8156, 8067, 8159, 8055, 8150, 8156, 8140,2.5119855403900146
5, 8152, 8177, 8153, 8155, 8135, 8137, 8157, 8159, 8158, 8151, 8051, 8196, 8167, 8144,2.519592523574829
5, 8152, 8177, 8153, 8155, 8135, 8137, 8157, 8159, 8158, 8151, 8051, 8196, 8167, 8144,2.519592523574829
6, 8139, 8153, 8151, 8152, 8147, 8145, 8172, 8152, 8084, 8166, 8072, 8157, 8158, 8137,2.527589797973633
6, 8139, 8153, 8151, 8152, 8147, 8145, 8172, 8152, 8084, 8166, 8072, 8157, 8158, 8137,2.527589797973633
7, 8158, 8168, 8160, 8151, 8144, 8145, 8175, 8150, 8124, 8153, 8061, 8172, 8158, 8145,2.535655975341797
7, 8158, 8168, 8160, 8151, 8144, 8145, 8175, 8150, 8124, 8153, 8061, 8172, 8158, 8145,2.535655975341797
8, 8130, 8162, 8152, 8135, 8146, 8131, 8176, 8156, 8133, 8152, 8066, 8174, 8165, 8132,2.5439724922180176
8, 8130, 8162, 8152, 8135, 8146, 8131, 8176, 8156, 8133, 8152, 8066, 8174, 8165, 8132,2.5439724922180176
9, 8130, 8151, 8151, 8152, 8165, 8140, 8193, 8171, 8098, 8198, 8096, 8160, 8169, 8138,2.551973581314087
9, 8130, 8151, 8151, 8152, 8165, 8140, 8193, 8171, 8098, 8198, 8096, 8160, 8169, 8138,2.551973581314087
10, 8154, 8175, 8173, 8170, 8146, 8149, 8184, 8182, 8232, 8194, 8089, 8201, 8172, 8160,2.5599782466888428
10, 8154, 8175, 8173, 8170, 8146, 8149, 8184, 8182, 8232, 8194, 8089, 8201, 8172, 8160,2.5599782466888428
11, 8123, 8149, 8154, 8140, 8144, 8136, 8181, 8172, 8147, 8186, 8093, 8158, 8161, 8157,2.5668532848358154
11, 8123, 8149, 8154, 8140, 8144, 8136, 8181, 8172, 8147, 8186, 8093, 8158, 8161, 8157,2.5668532848358154
12, 8135, 8173, 8156, 8148, 8147, 8140, 8177, 8178, 8174, 8187, 8087, 8171, 8169, 8160,2.574859142303467
12, 8135, 8173, 8156, 8148, 8147, 8140, 8177, 8178, 8174, 8187, 8087, 8171, 8169, 8160,2.574859142303467
13, 8136, 8176, 8145, 8144, 8134, 8136, 8180, 8171, 8184, 8179, 8064, 8167, 8164, 8139,2.582958459854126
13, 8136, 8176, 8145, 8144, 8134, 8136, 8180, 8171, 8184, 8179, 8064, 8167, 8164, 8139,2.582958459854126
14, 8117, 8147, 8126, 8127, 8141, 8124, 8184, 8153, 8056, 8164, 8060, 8129, 8149, 8125,2.591209888458252
14, 8117, 8147, 8126, 8127, 8141, 8124, 8184, 8153, 8056, 8164, 8060, 8129, 8149, 8125,2.591209888458252
15, 8119, 8172, 8145, 8144, 8139, 8125, 8164, 8159, 8137, 8133, 8042, 8175, 8157, 8126,2.599209785461426
15, 8119, 8172, 8145, 8144, 8139, 8125, 8164, 8159, 8137, 8133, 8042, 8175, 8157, 8126,2.599209785461426
16, 8119, 8150, 8133, 8141, 8145, 8122, 8174, 8147, 8066, 8149, 8033, 8144, 8153, 8115,2.6072468757629395
16, 8119, 8150, 8133, 8141, 8145, 8122, 8174, 8147, 8066, 8149, 8033, 8144, 8153, 8115,2.6072468757629395
17, 8140, 8157, 8133, 8133, 8139, 8118, 8169, 8140, 8077, 8148, 8030, 8156, 8160, 8129,2.6149795055389404
17, 8140, 8157, 8133, 8133, 8139, 8118, 8169, 8140, 8077, 8148, 8030, 8156, 8160, 8129,2.6149795055389404
18, 8111, 8161, 8134, 8117, 8127, 8106, 8146, 8147, 8114, 8121, 8030, 8170, 8159, 8122,2.6232025623321533
18, 8111, 8161, 8134, 8117, 8127, 8106, 8146, 8147, 8114, 8121, 8030, 8170, 8159, 8122,2.6232025623321533
19, 8114, 8151, 8142, 8138, 8142, 8110, 8161, 8157, 8046, 8136, 8049, 8143, 8151, 8119,2.6297268867492676
19, 8114, 8151, 8142, 8138, 8142, 8110, 8161, 8157, 8046, 8136, 8049, 8143, 8151, 8119,2.6297268867492676
20, 8179, 8194, 8181, 8180, 8147, 8129, 8182, 8176, 8205, 8152, 8058, 8199, 8170, 8149,2.638387441635132
20, 8179, 8194, 8181, 8180, 8147, 8129, 8182, 8176, 8205, 8152, 8058, 8199, 8170, 8149,2.638387441635132
21, 8171, 8178, 8174, 8165, 8172, 8131, 8202, 8173, 8173, 8173, 8081, 8176, 8169, 8150,2.6469478607177734
21, 8171, 8178, 8174, 8165, 8172, 8131, 8202, 8173, 8173, 8173, 8081, 8176, 8169, 8150,2.6469478607177734
22, 8151, 8177, 8174, 8163, 8178, 8131, 8188, 8167, 8145, 8157, 8083, 8169, 8161, 8137,2.653754949569702
22, 8151, 8177, 8174, 8163, 8178, 8131, 8188, 8167, 8145, 8157, 8083, 8169, 8161, 8137,2.653754949569702
23, 8142, 8182, 8173, 8170, 8156, 8131, 8181, 8174, 8194, 8145, 8066, 8183, 8164, 8119,2.6619222164154053
23, 8142, 8182, 8173, 8170, 8156, 8131, 8181, 8174, 8194, 8145, 8066, 8183, 8164, 8119,2.6619222164154053
24, 8152, 8164, 8156, 8162, 8178, 8149, 8211, 8183, 8123, 8186, 8074, 8146, 8164, 8135,2.6699252128601074
24, 8152, 8164, 8156, 8162, 8178, 8149, 8211, 8183, 8123, 8186, 8074, 8146, 8164, 8135,2.6709232330322266
25, 8158, 8192, 8174, 8169, 8182, 8160, 8190, 8187, 8228, 8173, 8073, 8182, 8171, 8158,2.677985191345215
25, 8158, 8192, 8174, 8169, 8182, 8160, 8190, 8187, 8228, 8173, 8073, 8182, 8171, 8158,2.677985191345215
26, 8127, 8169, 8162, 8163, 8181, 8135, 8179, 8176, 8177, 8172, 8080, 8157, 8164, 8136,2.6857411861419678
26, 8127, 8169, 8162, 8163, 8181, 8135, 8179, 8176, 8177, 8172, 8080, 8157, 8164, 8136,2.6857411861419678
27, 8162, 8169, 8158, 8165, 8182, 8129, 8199, 8184, 8152, 8187, 8076, 8154, 8164, 8150,2.692744493484497
27, 8162, 8169, 8158, 8165, 8182, 8129, 8199, 8184, 8152, 8187, 8076, 8154, 8164, 8150,2.692744493484497
28, 8154, 8181, 8160, 8149, 8172, 8126, 8194, 8186, 8218, 8164, 8063, 8178, 8167, 8152,2.700744152069092
28, 8154, 8181, 8160, 8149, 8172, 8126, 8194, 8186, 8218, 8164, 8063, 8178, 8167, 8152,2.700744152069092
29, 8116, 8155, 8143, 8139, 8184, 8117, 8194, 8168, 8112, 8169, 8071, 8139, 8157, 8129,2.7089853286743164
29, 8116, 8155, 8143, 8139, 8184, 8117, 8194, 8168, 8112, 8169, 8071, 8139, 8157, 8129,2.7089853286743164
30, 8158, 8185, 8163, 8166, 8175, 8119, 8185, 8174, 8192, 8163, 8054, 8177, 8167, 8138,2.716949224472046
30, 8158, 8185, 8163, 8166, 8175, 8119, 8185, 8174, 8192, 8163, 8054, 8177, 8167, 8138,2.7177650928497314
31, 8154, 8164, 8162, 8154, 8173, 8126, 8187, 8171, 8151, 8156, 8051, 8161, 8165, 8137,2.7249810695648193
31, 8154, 8164, 8162, 8154, 8173, 8126, 8187, 8171, 8151, 8156, 8051, 8161, 8165, 8137,2.7249810695648193
32, 8155, 8161, 8168, 8158, 8179, 8140, 8191, 8164, 8109, 8155, 8061, 8155, 8164, 8145,2.7326111793518066
32, 8155, 8161, 8168, 8158, 8179, 8140, 8191, 8164, 8109, 8155, 8061, 8155, 8164, 8145,2.733607292175293
33, 8173, 8189, 8182, 8175, 8170, 8131, 8182, 8168, 8192, 8140, 8050, 8187, 8166, 8144,2.7406210899353027
33, 8173, 8189, 8182, 8175, 8170, 8131, 8182, 8168, 8192, 8140, 8050, 8187, 8166, 8144,2.7416133880615234
34, 8164, 8165, 8173, 8162, 8180, 8113, 8180, 8158, 8076, 8147, 8059, 8147, 8155, 8135,2.748617172241211
34, 8164, 8165, 8173, 8162, 8180, 8113, 8180, 8158, 8076, 8147, 8059, 8147, 8155, 8135,2.748617172241211
35, 8169, 8184, 8195, 8168, 8164, 8111, 8158, 8155, 8125, 8125, 8056, 8179, 8164, 8139,2.755986452102661
35, 8169, 8184, 8195, 8168, 8164, 8111, 8158, 8155, 8125, 8125, 8056, 8179, 8164, 8139,2.755986452102661
36, 8161, 8166, 8183, 8160, 8158, 8106, 8159, 8151, 8102, 8119, 8048, 8159, 8157, 8117,2.76397967338562
36, 8161, 8166, 8183, 8160, 8158, 8106, 8159, 8151, 8102, 8119, 8048, 8159, 8157, 8117,2.76397967338562
37, 8159, 8153, 8161, 8154, 8173, 8124, 8167, 8149, 8047, 8135, 8049, 8141, 8153, 8116,2.7716009616851807
37, 8159, 8153, 8161, 8154, 8173, 8124, 8167, 8149, 8047, 8135, 8049, 8141, 8153, 8116,2.7716009616851807
38, 8136, 8174, 8170, 8159, 8169, 8146, 8152, 8162, 8159, 8136, 8055, 8184, 8170, 8128,2.7795867919921875
38, 8136, 8174, 8170, 8159, 8169, 8146, 8152, 8162, 8159, 8136, 8055, 8184, 8170, 8128,2.7795867919921875
39, 8135, 8156, 8162, 8163, 8184, 8151, 8173, 8169, 8114, 8173, 8082, 8147, 8169, 8150,2.7879865169525146
39, 8135, 8156, 8162, 8163, 8184, 8151, 8173, 8169, 8114, 8173, 8082, 8147, 8169, 8150,2.7879865169525146
40, 8174, 8180, 8178, 8177, 8184, 8153, 8181, 8175, 8201, 8172, 8080, 8177, 8176, 8178,2.7958250045776367
40, 8174, 8180, 8178, 8177, 8184, 8153, 8181, 8175, 8201, 8172, 8080, 8177, 8176, 8178,2.7958250045776367
41, 8138, 8168, 8167, 8161, 8184, 8146, 8177, 8173, 8190, 8163, 8071, 8167, 8170, 8154,2.803975820541382
41, 8138, 8168, 8167, 8161, 8184, 8146, 8177, 8173, 8190, 8163, 8071, 8167, 8170, 8154,2.803975820541382
42, 8136, 8159, 8148, 8162, 8188, 8146, 8177, 8166, 8100, 8166, 8066, 8134, 8158, 8143,2.8119750022888184
42, 8136, 8159, 8148, 8162, 8188, 8146, 8177, 8166, 8100, 8166, 8066, 8134, 8158, 8143,2.8119750022888184
43, 8156, 8180, 8158, 8166, 8164, 8143, 8153, 8155, 8181, 8135, 8050, 8178, 8169, 8158,2.8199849128723145
43, 8156, 8180, 8158, 8166, 8164, 8143, 8153, 8155, 8181, 8135, 8050, 8178, 8169, 8158,2.8199849128723145
44, 8127, 8150, 8148, 8143, 8169, 8142, 8158, 8147, 8098, 8141, 8064, 8148, 8166, 8158,2.8279850482940674
44, 8127, 8150, 8148, 8143, 8169, 8142, 8158, 8147, 8098, 8141, 8064, 8148, 8166, 8158,2.8279850482940674
45, 8153, 8177, 8167, 8163, 8167, 8154, 8168, 8166, 8162, 8143, 8053, 8166, 8161, 8169,2.8349857330322266
45, 8153, 8177, 8167, 8163, 8167, 8154, 8168, 8166, 8162, 8143, 8053, 8166, 8161, 8169,2.8349857330322266
46, 8161, 8177, 8166, 8163, 8157, 8151, 8174, 8158, 8175, 8138, 8036, 8160, 8157, 8154,2.84303879737854
46, 8161, 8177, 8166, 8163, 8157, 8151, 8174, 8158, 8175, 8138, 8036, 8160, 8157, 8154,2.84303879737854
47, 8148, 8156, 8165, 8155, 8172, 8151, 8168, 8143, 8086, 8148, 8049, 8138, 8160, 8148,2.8510444164276123
47, 8148, 8156, 8165, 8155, 8172, 8151, 8168, 8143, 8086, 8148, 8049, 8138, 8160, 8148,2.8510444164276123
48, 8166, 8186, 8196, 8173, 8170, 8146, 8147, 8159, 8203, 8141, 8042, 8186, 8170, 8162,2.8590779304504395
48, 8166, 8186, 8196, 8173, 8170, 8146, 8147, 8159, 8203, 8141, 8042, 8186, 8170, 8162,2.8590779304504395
49, 8169, 8162, 8181, 8162, 8176, 8133, 8166, 8153, 8122, 8150, 8050, 8152, 8162, 8161,2.867076873779297
49, 8169, 8162, 8181, 8162, 8176, 8133, 8166, 8153, 8122, 8150, 8050, 8152, 8162, 8161,2.867076873779297
50, 8176, 8171, 8186, 8166, 8174, 8143, 8157, 8147, 8129, 8139, 8062, 8175, 8171, 8172,2.8750767707824707
50, 8176, 8171, 8186, 8166, 8174, 8143, 8157, 8147, 8129, 8139, 8062, 8175, 8171, 8172,2.8750767707824707
51, 8160, 8174, 8193, 8165, 8170, 8146, 8142, 8151, 8174, 8142, 8057, 8180, 8168, 8157,2.8830771446228027
51, 8160, 8174, 8193, 8165, 8170, 8146, 8142, 8151, 8174, 8142, 8057, 8180, 8168, 8157,2.8830771446228027
52, 8159, 8155, 8175, 8158, 8180, 8144, 8160, 8147, 8086, 8160, 8048, 8138, 8155, 8146,2.8910765647888184
52, 8159, 8155, 8175, 8158, 8180, 8144, 8160, 8147, 8086, 8160, 8048, 8138, 8155, 8146,2.8910765647888184
53, 8155, 8181, 8180, 8164, 8167, 8145, 8147, 8147, 8160, 8128, 8043, 8181, 8170, 8150,2.8980772495269775
53, 8155, 8181, 8180, 8164, 8167, 8145, 8147, 8147, 8160, 8128, 8043, 8181, 8170, 8150,2.8980772495269775
54, 8132, 8161, 8167, 8161, 8180, 8138, 8150, 8144, 8096, 8145, 8066, 8148, 8168, 8141,2.906076192855835
54, 8132, 8161, 8167, 8161, 8180, 8138, 8150, 8144, 8096, 8145, 8066, 8148, 8168, 8141,2.906076192855835
55, 8158, 8170, 8167, 8171, 8186, 8148, 8162, 8151, 8119, 8162, 8060, 8150, 8167, 8152,2.9135169982910156
55, 8158, 8170, 8167, 8171, 8186, 8148, 8162, 8151, 8119, 8162, 8060, 8150, 8167, 8152,2.9135169982910156
56, 8133, 8168, 8158, 8156, 8171, 8149, 8154, 8153, 8161, 8139, 8042, 8169, 8167, 8141,2.9215636253356934
56, 8133, 8168, 8158, 8156, 8171, 8149, 8154, 8153, 8161, 8139, 8042, 8169, 8167, 8141,2.9215636253356934
57, 8116, 8143, 8142, 8145, 8178, 8139, 8153, 8151, 8067, 8147, 8051, 8144, 8159, 8139,2.930025339126587
57, 8116, 8143, 8142, 8145, 8178, 8139, 8153, 8151, 8067, 8147, 8051, 8144, 8159, 8139,2.930025339126587
58, 8151, 8171, 8156, 8156, 8164, 8141, 8146, 8157, 8174, 8140, 8040, 8183, 8166, 8156,2.937979221343994
58, 8151, 8171, 8156, 8156, 8164, 8141, 8146, 8157, 8174, 8140, 8040, 8183, 8166, 8156,2.937979221343994
59, 8119, 8146, 8133, 8129, 8157, 8140, 8143, 8139, 8093, 8133, 8039, 8144, 8155, 8144,2.9461066722869873
59, 8119, 8146, 8133, 8129, 8157, 8140, 8143, 8139, 8093, 8133, 8039, 8144, 8155, 8144,2.9461066722869873
60, 8119, 8158, 8143, 8130, 8161, 8139, 8135, 8139, 8068, 8123, 8047, 8154, 8161, 8158,2.954098701477051
60, 8119, 8158, 8143, 8130, 8161, 8139, 8135, 8139, 8068, 8123, 8047, 8154, 8161, 8158,2.954098701477051
61, 8150, 8180, 8175, 8144, 8166, 8129, 8138, 8155, 8171, 8120, 8050, 8194, 8173, 8168,2.9611895084381104
61, 8150, 8180, 8175, 8144, 8166, 8129, 8138, 8155, 8171, 8120, 8050, 8194, 8173, 8168,2.9611895084381104
62, 8167, 8158, 8170, 8145, 8183, 8131, 8156, 8154, 8096, 8143, 8053, 8154, 8158, 8163,2.969204902648926
62, 8167, 8158, 8170, 8145, 8183, 8131, 8156, 8154, 8096, 8143, 8053, 8154, 8158, 8163,2.969204902648926
63, 8186, 8184, 8180, 8157, 8165, 8145, 8148, 8161, 8170, 8128, 8030, 8179, 8159, 8172,2.9770967960357666
63, 8186, 8184, 8180, 8157, 8165, 8145, 8148, 8161, 8170, 8128, 8030, 8179, 8159, 8172,2.9770967960357666
64, 8165, 8163, 8165, 8141, 8167, 8137, 8165, 8163, 8128, 8129, 8032, 8153, 8159, 8163,2.9850962162017822
64, 8165, 8163, 8165, 8141, 8167, 8137, 8165, 8163, 8128, 8129, 8032, 8153, 8159, 8163,2.9850962162017822
65, 8166, 8158, 8165, 8143, 8188, 8137, 8170, 8160, 8121, 8129, 8051, 8157, 8165, 8166,2.9924731254577637
65, 8166, 8158, 8165, 8143, 8188, 8137, 8170, 8160, 8121, 8129, 8051, 8157, 8165, 8166,2.9924731254577637
66, 8148, 8174, 8179, 8149, 8175, 8139, 8137, 8154, 8193, 8112, 8056, 8195, 8174, 8156,3.0004727840423584
66, 8148, 8174, 8179, 8149, 8175, 8139, 8137, 8154, 8193, 8112, 8056, 8195, 8174, 8156,3.0004727840423584
67, 8133, 8155, 8166, 8148, 8178, 8143, 8136, 8148, 8083, 8136, 8070, 8153, 8168, 8144,3.0089850425720215
67, 8133, 8155, 8166, 8148, 8178, 8143, 8136, 8148, 8083, 8136, 8070, 8153, 8168, 8144,3.0094685554504395
68, 8166, 8184, 8173, 8172, 8182, 8154, 8149, 8165, 8187, 8141, 8063, 8179, 8172, 8163,3.0170063972473145
68, 8166, 8184, 8173, 8172, 8182, 8154, 8149, 8165, 8187, 8141, 8063, 8179, 8172, 8163,3.0170063972473145
69, 8148, 8166, 8157, 8153, 8194, 8145, 8170, 8169, 8187, 8155, 8070, 8159, 8165, 8169,3.024986505508423
69, 8148, 8166, 8157, 8153, 8194, 8145, 8170, 8169, 8187, 8155, 8070, 8159, 8165, 8169,3.024986505508423
70, 8146, 8163, 8159, 8141, 8197, 8138, 8174, 8169, 8150, 8169, 8081, 8153, 8166, 8177,3.031554698944092
70, 8146, 8163, 8159, 8141, 8197, 8138, 8174, 8169, 8150, 8169, 8081, 8153, 8166, 8177,3.031554698944092
71, 8151, 8180, 8169, 8146, 8176, 8134, 8158, 8162, 8220, 8152, 8061, 8182, 8171, 8158,3.039548635482788
71, 8151, 8180, 8169, 8146, 8176, 8134, 8158, 8162, 8220, 8152, 8061, 8182, 8171, 8158,3.039548635482788
72, 8127, 8145, 8141, 8134, 8192, 8128, 8167, 8142, 8102, 8162, 8061, 8138, 8155, 8141,3.0479848384857178
72, 8127, 8145, 8141, 8134, 8192, 8128, 8167, 8142, 8102, 8162, 8061, 8138, 8155, 8141,3.0479848384857178
73, 8138, 8171, 8152, 8151, 8186, 8124, 8155, 8150, 8179, 8151, 8064, 8182, 8164, 8165,3.055645704269409
73, 8138, 8171, 8152, 8151, 8186, 8124, 8155, 8150, 8179, 8151, 8064, 8182, 8164, 8165,3.055645704269409
74, 8143, 8167, 8154, 8152, 8178, 8113, 8161, 8158, 8190, 8152, 8067, 8182, 8168, 8162,3.063645839691162
74, 8143, 8167, 8154, 8152, 8178, 8113, 8161, 8158, 8190, 8152, 8067, 8182, 8168, 8162,3.063645839691162
75, 8162, 8158, 8164, 8151, 8194, 8122, 8180, 8156, 8141, 8170, 8073, 8166, 8163, 8169,3.071650266647339
75, 8162, 8158, 8164, 8151, 8194, 8122, 8180, 8156, 8141, 8170, 8073, 8166, 8163, 8169,3.071650266647339
76, 8163, 8181, 8188, 8157, 8185, 8128, 8164, 8156, 8242, 8150, 8076, 8203, 8170, 8176,3.0796587467193604
76, 8163, 8181, 8188, 8157, 8185, 8128, 8164, 8156, 8242, 8150, 8076, 8203, 8170, 8176,3.0796587467193604
77, 8155, 8161, 8176, 8158, 8193, 8125, 8176, 8148, 8161, 8162, 8089, 8161, 8164, 8168,3.087576150894165
77, 8155, 8161, 8176, 8158, 8193, 8125, 8176, 8148, 8161, 8162, 8089, 8161, 8164, 8168,3.087576150894165
78, 8187, 8187, 8197, 8176, 8198, 8125, 8182, 8159, 8224, 8165, 8082, 8193, 8171, 8187,3.094593048095703
78, 8187, 8187, 8197, 8176, 8198, 8125, 8182, 8159, 8224, 8165, 8082, 8193, 8171, 8187,3.094593048095703
79, 8161, 8177, 8195, 8162, 8194, 8113, 8167, 8167, 8228, 8156, 8082, 8194, 8170, 8173,3.1025900840759277
79, 8161, 8177, 8195, 8162, 8194, 8113, 8167, 8167, 8228, 8156, 8082, 8194, 8170, 8173,3.1025900840759277
80, 8160, 8162, 8182, 8163, 8193, 8116, 8164, 8160, 8142, 8157, 8084, 8162, 8162, 8160,3.110985279083252
80, 8160, 8162, 8182, 8163, 8193, 8116, 8164, 8160, 8142, 8157, 8084, 8162, 8162, 8160,3.110985279083252
81, 8180, 8184, 8202, 8179, 8185, 8119, 8161, 8159, 8235, 8138, 8071, 8199, 8171, 8162,3.1189849376678467
81, 8180, 8184, 8202, 8179, 8185, 8119, 8161, 8159, 8235, 8138, 8071, 8199, 8171, 8162,3.1189849376678467
82, 8146, 8155, 8193, 8173, 8207, 8117, 8173, 8162, 8163, 8151, 8094, 8163, 8165, 8152,3.127211809158325
82, 8146, 8155, 8193, 8173, 8207, 8117, 8173, 8162, 8163, 8151, 8094, 8163, 8165, 8152,3.127211809158325
83, 8162, 8176, 8195, 8191, 8197, 8132, 8163, 8176, 8204, 8155, 8087, 8181, 8165, 8162,3.134758472442627
83, 8162, 8176, 8195, 8191, 8197, 8132, 8163, 8176, 8204, 8155, 8087, 8181, 8165, 8162,3.134758472442627
84, 8171, 8180, 8189, 8176, 8178, 8131, 8167, 8170, 8216, 8157, 8064, 8188, 8164, 8162,3.142986297607422
84, 8171, 8180, 8189, 8176, 8178, 8131, 8167, 8170, 8216, 8157, 8064, 8188, 8164, 8162,3.142986297607422
85, 8151, 8160, 8178, 8155, 8196, 8123, 8180, 8154, 8122, 8161, 8075, 8158, 8160, 8167,3.151411533355713
85, 8151, 8160, 8178, 8155, 8196, 8123, 8180, 8154, 8122, 8161, 8075, 8158, 8160, 8167,3.151411533355713
86, 8134, 8181, 8188, 8164, 8189, 8115, 8150, 8158, 8211, 8137, 8067, 8189, 8159, 8161,3.1584131717681885
86, 8134, 8181, 8188, 8164, 8189, 8115, 8150, 8158, 8211, 8137, 8067, 8189, 8159, 8161,3.1584131717681885
87, 8129, 8160, 8171, 8155, 8194, 8111, 8161, 8160, 8142, 8164, 8069, 8155, 8149, 8141,3.1659865379333496
87, 8129, 8160, 8171, 8155, 8194, 8111, 8161, 8160, 8142, 8164, 8069, 8155, 8149, 8141,3.1659865379333496
88, 8164, 8176, 8187, 8163, 8192, 8127, 8179, 8172, 8190, 8180, 8078, 8184, 8167, 8169,3.173985004425049
88, 8164, 8176, 8187, 8163, 8192, 8127, 8179, 8172, 8190, 8180, 8078, 8184, 8167, 8169,3.173985004425049
89, 8151, 8179, 8197, 8166, 8181, 8118, 8167, 8176, 8242, 8177, 8078, 8202, 8175, 8178,3.181985855102539
89, 8151, 8179, 8197, 8166, 8181, 8118, 8167, 8176, 8242, 8177, 8078, 8202, 8175, 8178,3.181985855102539
90, 8152, 8159, 8178, 8161, 8190, 8104, 8169, 8165, 8142, 8185, 8081, 8162, 8161, 8173,3.1897058486938477
90, 8152, 8159, 8178, 8161, 8190, 8104, 8169, 8165, 8142, 8185, 8081, 8162, 8161, 8173,3.1897058486938477
91, 8168, 8176, 8179, 8153, 8170, 8108, 8153, 8159, 8208, 8143, 8067, 8190, 8164, 8169,3.197706699371338
91, 8168, 8176, 8179, 8153, 8170, 8108, 8153, 8159, 8208, 8143, 8067, 8190, 8164, 8169,3.197706699371338
92, 8123, 8144, 8157, 8133, 8159, 8104, 8145, 8146, 8097, 8131, 8059, 8145, 8152, 8136,3.2057101726531982
92, 8123, 8144, 8157, 8133, 8159, 8104, 8145, 8146, 8097, 8131, 8059, 8145, 8152, 8136,3.2057101726531982
93, 8145, 8162, 8168, 8159, 8162, 8101, 8147, 8154, 8101, 8144, 8049, 8163, 8155, 8135,3.21370530128479
93, 8145, 8162, 8168, 8159, 8162, 8101, 8147, 8154, 8101, 8144, 8049, 8163, 8155, 8135,3.21370530128479
94, 8166, 8183, 8189, 8171, 8172, 8098, 8152, 8160, 8188, 8144, 8064, 8198, 8170, 8139,3.2209858894348145
94, 8166, 8183, 8189, 8171, 8172, 8098, 8152, 8160, 8188, 8144, 8064, 8198, 8170, 8139,3.2209858894348145
95, 8155, 8161, 8184, 8164, 8194, 8103, 8162, 8153, 8104, 8156, 8095, 8160, 8164, 8140,3.228985071182251
95, 8155, 8161, 8184, 8164, 8194, 8103, 8162, 8153, 8104, 8156, 8095, 8160, 8164, 8140,3.228985071182251
96, 8166, 8184, 8191, 8179, 8171, 8104, 8149, 8162, 8190, 8141, 8081, 8191, 8168, 8148,3.23659348487854
96, 8166, 8184, 8191, 8179, 8171, 8104, 8149, 8162, 8190, 8141, 8081, 8191, 8168, 8148,3.23659348487854
97, 8147, 8161, 8171, 8163, 8162, 8098, 8156, 8164, 8139, 8149, 8082, 8162, 8165, 8133,3.244593381881714
97, 8147, 8161, 8171, 8163, 8162, 8098, 8156, 8164, 8139, 8149, 8082, 8162, 8165, 8133,3.244593381881714
98, 8159, 8175, 8179, 8165, 8170, 8105, 8163, 8171, 8149, 8164, 8088, 8166, 8172, 8144,3.253105401992798
98, 8159, 8175, 8179, 8165, 8170, 8105, 8163, 8171, 8149, 8164, 8088, 8166, 8172, 8144,3.253105401992798
99, 8155, 8186, 8178, 8165, 8156, 8096, 8158, 8169, 8228, 8155, 8069, 8185, 8175, 8150,3.260986566543579
99, 8155, 8186, 8178, 8165, 8156, 8096, 8158, 8169, 8228, 8155, 8069, 8185, 8175, 8150,3.260986566543579
100, 8136, 8148, 8144, 8147, 8164, 8092, 8172, 8156, 8116, 8163, 8075, 8144, 8165, 8150,3.268759250640869
100, 8136, 8148, 8144, 8147, 8164, 8092, 8172, 8156, 8116, 8163, 8075, 8144, 8165, 8150,3.268759250640869
101, 8150, 8179, 8166, 8160, 8160, 8103, 8167, 8171, 8203, 8143, 8082, 8195, 8179, 8168,3.2767601013183594
101, 8150, 8179, 8166, 8160, 8160, 8103, 8167, 8171, 8203, 8143, 8082, 8195, 8179, 8168,3.2767601013183594
102, 8138, 8173, 8173, 8160, 8160, 8097, 8170, 8173, 8187, 8152, 8088, 8182, 8172, 8161,3.2849864959716797
102, 8138, 8173, 8173, 8160, 8160, 8097, 8170, 8173, 8187, 8152, 8088, 8182, 8172, 8161,3.2849864959716797
103, 8160, 8169, 8173, 8171, 8159, 8099, 8172, 8165, 8158, 8171, 8081, 8167, 8162, 8165,3.2919864654541016
103, 8160, 8169, 8173, 8171, 8159, 8099, 8172, 8165, 8158, 8171, 8081, 8167, 8162, 8165,3.2924611568450928
104, 8171, 8181, 8178, 8177, 8146, 8105, 8157, 8165, 8227, 8155, 8072, 8193, 8169, 8163,3.29998517036438
104, 8171, 8181, 8178, 8177, 8146, 8105, 8157, 8165, 8227, 8155, 8072, 8193, 8169, 8163,3.29998517036438
105, 8152, 8149, 8165, 8161, 8156, 8107, 8163, 8153, 8126, 8159, 8091, 8162, 8166, 8156,3.307752847671509
105, 8152, 8149, 8165, 8161, 8156, 8107, 8163, 8153, 8126, 8159, 8091, 8162, 8166, 8156,3.307752847671509
106, 8163, 8170, 8180, 8168, 8145, 8111, 8153, 8150, 8194, 8146, 8086, 8200, 8168, 8164,3.3157613277435303
106, 8163, 8170, 8180, 8168, 8145, 8111, 8153, 8150, 8194, 8146, 8086, 8200, 8168, 8164,3.3157613277435303
107, 8153, 8163, 8163, 8160, 8143, 8100, 8157, 8147, 8164, 8149, 8077, 8176, 8157, 8145,3.3237578868865967
107, 8153, 8163, 8163, 8160, 8143, 8100, 8157, 8147, 8164, 8149, 8077, 8176, 8157, 8145,3.3237578868865967
108, 8152, 8163, 8154, 8164, 8151, 8101, 8160, 8146, 8112, 8152, 8078, 8155, 8155, 8139,3.33198618888855
108, 8152, 8163, 8154, 8164, 8151, 8101, 8160, 8146, 8112, 8152, 8078, 8155, 8155, 8139,3.33198618888855
109, 8148, 8182, 8174, 8176, 8140, 8109, 8147, 8154, 8215, 8139, 8073, 8191, 8170, 8137,3.339984655380249
109, 8148, 8182, 8174, 8176, 8140, 8109, 8147, 8154, 8215, 8139, 8073, 8191, 8170, 8137,3.339984655380249
110, 8152, 8161, 8169, 8177, 8162, 8112, 8161, 8151, 8142, 8167, 8088, 8155, 8164, 8136,3.347984552383423
110, 8152, 8161, 8169, 8177, 8162, 8112, 8161, 8151, 8142, 8167, 8088, 8155, 8164, 8136,3.347984552383423
111, 8177, 8187, 8186, 8192, 8163, 8118, 8149, 8154, 8199, 8157, 8093, 8185, 8167, 8154,3.3550610542297363
111, 8177, 8187, 8186, 8192, 8163, 8118, 8149, 8154, 8199, 8157, 8093, 8185, 8167, 8154,3.3550610542297363
112, 8144, 8176, 8178, 8180, 8155, 8121, 8145, 8158, 8201, 8161, 8107, 8181, 8169, 8146,3.363067865371704
112, 8144, 8176, 8178, 8180, 8155, 8121, 8145, 8158, 8201, 8161, 8107, 8181, 8169, 8146,3.363067865371704
113, 8149, 8165, 8161, 8176, 8157, 8133, 8161, 8161, 8164, 8190, 8108, 8162, 8170, 8150,3.371107339859009
113, 8149, 8165, 8161, 8176, 8157, 8133, 8161, 8161, 8164, 8190, 8108, 8162, 8170, 8150,3.371107339859009
114, 8148, 8172, 8156, 8164, 8131, 8130, 8142, 8150, 8227, 8155, 8074, 8180, 8166, 8141,3.378985643386841
114, 8148, 8172, 8156, 8164, 8131, 8130, 8142, 8150, 8227, 8155, 8074, 8180, 8166, 8141,3.378985643386841
115, 8107, 8140, 8130, 8137, 8132, 8126, 8145, 8137, 8093, 8145, 8071, 8129, 8150, 8118,3.3869497776031494
115, 8107, 8140, 8130, 8137, 8132, 8126, 8145, 8137, 8093, 8145, 8071, 8129, 8150, 8118,3.3869497776031494
116, 8142, 8177, 8150, 8159, 8138, 8131, 8153, 8155, 8166, 8157, 8075, 8175, 8167, 8146,3.3949506282806396
116, 8142, 8177, 8150, 8159, 8138, 8131, 8153, 8155, 8166, 8157, 8075, 8175, 8167, 8146,3.3949506282806396
117, 8147, 8173, 8157, 8157, 8138, 8118, 8143, 8152, 8191, 8154, 8084, 8187, 8176, 8156,3.4029507637023926
117, 8147, 8173, 8157, 8157, 8138, 8118, 8143, 8152, 8191, 8154, 8084, 8187, 8176, 8156,3.4029507637023926
118, 8148, 8155, 8156, 8151, 8149, 8119, 8136, 8142, 8095, 8148, 8096, 8159, 8169, 8158,3.410984992980957
118, 8148, 8155, 8156, 8151, 8149, 8119, 8136, 8142, 8095, 8148, 8096, 8159, 8169, 8158,3.410984992980957
119, 8170, 8190, 8179, 8172, 8142, 8132, 8130, 8151, 8184, 8131, 8085, 8205, 8174, 8168,3.4190104007720947
119, 8170, 8190, 8179, 8172, 8142, 8132, 8130, 8151, 8184, 8131, 8085, 8205, 8174, 8168,3.4190104007720947
120, 8149, 8162, 8168, 8165, 8151, 8135, 8144, 8139, 8096, 8135, 8095, 8171, 8162, 8160,3.426015853881836
120, 8149, 8162, 8168, 8165, 8151, 8135, 8144, 8139, 8096, 8135, 8095, 8171, 8162, 8160,3.426015853881836
121, 8173, 8174, 8183, 8170, 8158, 8153, 8151, 8148, 8154, 8133, 8097, 8189, 8167, 8176,3.4340453147888184
121, 8173, 8174, 8183, 8170, 8158, 8153, 8151, 8148, 8154, 8133, 8097, 8189, 8167, 8176,3.4340453147888184
122, 8182, 8185, 8189, 8168, 8172, 8157, 8164, 8167, 8225, 8146, 8096, 8199, 8170, 8173,3.441985607147217
122, 8182, 8185, 8189, 8168, 8172, 8157, 8164, 8167, 8225, 8146, 8096, 8199, 8170, 8173,3.441985607147217
123, 8172, 8169, 8184, 8174, 8186, 8151, 8166, 8162, 8149, 8167, 8111, 8165, 8163, 8161,3.449986696243286
123, 8172, 8169, 8184, 8174, 8186, 8151, 8166, 8162, 8149, 8167, 8111, 8165, 8163, 8161,3.449986696243286
124, 8177, 8195, 8199, 8192, 8169, 8150, 8141, 8161, 8238, 8153, 8112, 8200, 8170, 8155,3.4579858779907227
124, 8177, 8195, 8199, 8192, 8169, 8150, 8141, 8161, 8238, 8153, 8112, 8200, 8170, 8155,3.4579858779907227
125, 8163, 8172, 8174, 8176, 8185, 8147, 8151, 8146, 8145, 8162, 8126, 8167, 8160, 8140,3.4660086631774902
125, 8163, 8172, 8174, 8176, 8185, 8147, 8151, 8146, 8145, 8162, 8126, 8167, 8160, 8140,3.4660086631774902
126, 8163, 8181, 8167, 8180, 8184, 8152, 8143, 8138, 8125, 8139, 8119, 8175, 8162, 8137,3.474008083343506
126, 8163, 8181, 8167, 8180, 8184, 8152, 8143, 8138, 8125, 8139, 8119, 8175, 8162, 8137,3.474008083343506
127, 8144, 8178, 8158, 8170, 8156, 8147, 8136, 8144, 8158, 8126, 8103, 8174, 8164, 8123,3.4820573329925537
127, 8144, 8178, 8158, 8170, 8156, 8147, 8136, 8144, 8158, 8126, 8103, 8174, 8164, 8123,3.4820573329925537
240, 8141, 8156, 8137, 8150, 8164, 8146, 8161, 8145, 8094, 8163, 8111, 8136, 8154, 8135,3.488960027694702
240, 8141, 8156, 8137, 8150, 8164, 8146, 8161, 8145, 8094, 8163, 8111, 8136, 8154, 8135,3.488960027694702
0, 8140, 8187, 8147, 8159, 8164, 8153, 8144, 8151, 8211, 8144, 8105, 8185, 8168, 8144,3.4969594478607178
0, 8140, 8187, 8147, 8159, 8164, 8153, 8144, 8151, 8211, 8144, 8105, 8185, 8168, 8144,3.4969594478607178
1, 8123, 8165, 8134, 8159, 8174, 8154, 8143, 8148, 8151, 8147, 8109, 8155, 8167, 8127,3.5049853324890137
1, 8123, 8165, 8134, 8159, 8174, 8154, 8143, 8148, 8151, 8147, 8109, 8155, 8167, 8127,3.5049853324890137
2, 8152, 8167, 8140, 8166, 8169, 8163, 8148, 8142, 8139, 8155, 8112, 8164, 8162, 8148,3.5132787227630615
2, 8152, 8167, 8140, 8166, 8169, 8163, 8148, 8142, 8139, 8155, 8112, 8164, 8162, 8148,3.5132787227630615
3, 8136, 8171, 8150, 8154, 8153, 8160, 8132, 8135, 8169, 8124, 8110, 8187, 8160, 8146,3.5213189125061035
3, 8136, 8171, 8150, 8154, 8153, 8160, 8132, 8135, 8169, 8124, 8110, 8187, 8160, 8146,3.5213189125061035
4, 8135, 8155, 8141, 8149, 8168, 8165, 8144, 8144, 8063, 8130, 8112, 8149, 8160, 8135,3.5289855003356934
4, 8135, 8155, 8141, 8149, 8168, 8165, 8144, 8144, 8063, 8130, 8112, 8149, 8160, 8135,3.5295088291168213
5, 8175, 8185, 8162, 8174, 8155, 8184, 8151, 8158, 8168, 8130, 8102, 8191, 8171, 8159,3.53651762008667
5, 8175, 8185, 8162, 8174, 8155, 8184, 8151, 8158, 8168, 8130, 8102, 8191, 8171, 8159,3.537548780441284
6, 8142, 8164, 8154, 8163, 8151, 8190, 8156, 8143, 8131, 8135, 8125, 8169, 8159, 8156,3.5450520515441895
6, 8142, 8164, 8154, 8163, 8151, 8190, 8156, 8143, 8131, 8135, 8125, 8169, 8159, 8156,3.5450520515441895
7, 8143, 8172, 8160, 8160, 8151, 8195, 8149, 8145, 8129, 8146, 8135, 8168, 8164, 8154,3.5520732402801514
7, 8143, 8172, 8160, 8160, 8151, 8195, 8149, 8145, 8129, 8146, 8135, 8168, 8164, 8154,3.5520732402801514
8, 8160, 8182, 8183, 8169, 8146, 8196, 8141, 8151, 8208, 8158, 8122, 8199, 8178, 8156,3.559985637664795
8, 8160, 8182, 8183, 8169, 8146, 8196, 8141, 8151, 8208, 8158, 8122, 8199, 8178, 8156,3.559985637664795
9, 8146, 8155, 8184, 8172, 8176, 8203, 8153, 8137, 8113, 8169, 8145, 8171, 8169, 8158,3.5679850578308105
9, 8146, 8155, 8184, 8172, 8176, 8203, 8153, 8137, 8113, 8169, 8145, 8171, 8169, 8158,3.5679850578308105
10, 8155, 8192, 8206, 8184, 8171, 8196, 8135, 8143, 8199, 8140, 8144, 8203, 8170, 8153,3.5754969120025635
10, 8155, 8192, 8206, 8184, 8171, 8196, 8135, 8143, 8199, 8140, 8144, 8203, 8170, 8153,3.5754969120025635
11, 8157, 8189, 8196, 8175, 8163, 8176, 8138, 8140, 8153, 8156, 8127, 8171, 8162, 8135,3.5834970474243164
11, 8157, 8189, 8196, 8175, 8163, 8176, 8138, 8140, 8153, 8156, 8127, 8171, 8162, 8135,3.5834970474243164
12, 8172, 8190, 8191, 8199, 8183, 8195, 8149, 8134, 8111, 8158, 8124, 8171, 8169, 8162,3.5919852256774902
12, 8172, 8190, 8191, 8199, 8183, 8195, 8149, 8134, 8111, 8158, 8124, 8171, 8169, 8162,3.5919852256774902
13, 8150, 8199, 8193, 8198, 8179, 8198, 8128, 8143, 8188, 8109, 8119, 8203, 8175, 8157,3.5999984741210938
13, 8150, 8199, 8193, 8198, 8179, 8198, 8128, 8143, 8188, 8109, 8119, 8203, 8175, 8157,3.5999984741210938
14, 8133, 8159, 8173, 8148, 8164, 8166, 8118, 8128, 8047, 8127, 8119, 8148, 8151, 8122,3.6077537536621094
14, 8133, 8159, 8173, 8148, 8164, 8166, 8118, 8128, 8047, 8127, 8119, 8148, 8151, 8122,3.6077537536621094
15, 8164, 8175, 8185, 8152, 8143, 8159, 8100, 8108, 8082, 8133, 8104, 8185, 8158, 8135,3.6157565116882324
15, 8164, 8175, 8185, 8152, 8143, 8159, 8100, 8108, 8082, 8133, 8104, 8185, 8158, 8135,3.6157565116882324
16, 8132, 8163, 8164, 8170, 8152, 8158, 8101, 8101, 8068, 8118, 8102, 8180, 8164, 8138,3.62298583984375
16, 8132, 8163, 8164, 8170, 8152, 8158, 8101, 8101, 8068, 8118, 8102, 8180, 8164, 8138,3.62298583984375
17, 8134, 8165, 8160, 8178, 8162, 8158, 8115, 8118, 8037, 8128, 8101, 8161, 8158, 8146,3.6311988830566406
17, 8134, 8165, 8160, 8178, 8162, 8158, 8115, 8118, 8037, 8128, 8101, 8161, 8158, 8146,3.6311988830566406
18, 8171, 8184, 8192, 8168, 8143, 8162, 8110, 8126, 8133, 8130, 8087, 8191, 8164, 8157,3.6389856338500977
18, 8171, 8184, 8192, 8168, 8143, 8162, 8110, 8126, 8133, 8130, 8087, 8191, 8164, 8157,3.6389856338500977
19, 8153, 8145, 8177, 8146, 8154, 8163, 8119, 8111, 8029, 8134, 8101, 8148, 8163, 8151,3.647005558013916
19, 8153, 8145, 8177, 8146, 8154, 8163, 8119, 8111, 8029, 8134, 8101, 8148, 8163, 8151,3.647005558013916
20, 8148, 8172, 8183, 8168, 8162, 8177, 8121, 8138, 8116, 8122, 8108, 8184, 8173, 8160,3.654999256134033
20, 8148, 8172, 8183, 8168, 8162, 8177, 8121, 8138, 8116, 8122, 8108, 8184, 8173, 8160,3.654999256134033
21, 8148, 8178, 8193, 8175, 8174, 8189, 8144, 8163, 8177, 8153, 8117, 8191, 8176, 8154,3.6629858016967773
21, 8148, 8178, 8193, 8175, 8174, 8189, 8144, 8163, 8177, 8153, 8117, 8191, 8176, 8154,3.6629858016967773
22, 8178, 8168, 8196, 8182, 8191, 8194, 8166, 8155, 8140, 8188, 8132, 8170, 8175, 8164,3.670820951461792
22, 8178, 8168, 8196, 8182, 8191, 8194, 8166, 8155, 8140, 8188, 8132, 8170, 8175, 8164,3.670820951461792
23, 8173, 8192, 8203, 8186, 8174, 8183, 8140, 8150, 8221, 8161, 8135, 8206, 8176, 8167,3.6786437034606934
23, 8173, 8192, 8203, 8186, 8174, 8183, 8140, 8150, 8221, 8161, 8135, 8206, 8176, 8167,3.6786437034606934
24, 8140, 8169, 8189, 8176, 8184, 8182, 8146, 8161, 8142, 8185, 8156, 8176, 8169, 8162,3.6856369972229004
24, 8140, 8169, 8189, 8176, 8184, 8182, 8146, 8161, 8142, 8185, 8156, 8176, 8169, 8162,3.6856369972229004
25, 8179, 8185, 8198, 8201, 8190, 8200, 8161, 8177, 8207, 8198, 8141, 8194, 8173, 8176,3.6939857006073
25, 8179, 8185, 8198, 8201, 8190, 8200, 8161, 8177, 8207, 8198, 8141, 8194, 8173, 8176,3.6939857006073
26, 8162, 8178, 8175, 8191, 8184, 8190, 8152, 8158, 8199, 8162, 8117, 8173, 8158, 8152,3.701986074447632
26, 8162, 8178, 8175, 8191, 8184, 8190, 8152, 8158, 8199, 8162, 8117, 8173, 8158, 8152,3.701986074447632
27, 8135, 8165, 8154, 8173, 8193, 8189, 8148, 8148, 8110, 8159, 8126, 8145, 8157, 8144,3.709970474243164
27, 8135, 8165, 8154, 8173, 8193, 8189, 8148, 8148, 8110, 8159, 8126, 8145, 8157, 8144,3.709970474243164
28, 8153, 8186, 8174, 8177, 8180, 8194, 8148, 8167, 8227, 8177, 8117, 8191, 8177, 8158,3.7181224822998047
28, 8153, 8186, 8174, 8177, 8180, 8194, 8148, 8167, 8227, 8177, 8117, 8191, 8177, 8158,3.7181224822998047
29, 8138, 8151, 8156, 8153, 8182, 8184, 8158, 8156, 8132, 8193, 8113, 8147, 8166, 8148,3.726212739944458
29, 8138, 8151, 8156, 8153, 8182, 8184, 8158, 8156, 8132, 8193, 8113, 8147, 8166, 8148,3.726212739944458
30, 8146, 8169, 8163, 8159, 8177, 8187, 8141, 8152, 8138, 8162, 8115, 8166, 8164, 8160,3.734391450881958
30, 8146, 8169, 8163, 8159, 8177, 8187, 8141, 8152, 8138, 8162, 8115, 8166, 8164, 8160,3.734391450881958
31, 8150, 8177, 8168, 8166, 8167, 8184, 8142, 8155, 8181, 8153, 8118, 8182, 8169, 8169,3.7414214611053467
31, 8150, 8177, 8168, 8166, 8167, 8184, 8142, 8155, 8181, 8153, 8118, 8182, 8169, 8169,3.7414214611053467
32, 8159, 8158, 8158, 8160, 8177, 8178, 8165, 8149, 8099, 8180, 8125, 8148, 8164, 8179,3.75030517578125
32, 8159, 8158, 8158, 8160, 8177, 8178, 8165, 8149, 8099, 8180, 8125, 8148, 8164, 8179,3.75030517578125
33, 8170, 8189, 8177, 8169, 8168, 8176, 8144, 8159, 8192, 8162, 8123, 8190, 8172, 8179,3.757317066192627
33, 8170, 8189, 8177, 8169, 8168, 8176, 8144, 8159, 8192, 8162, 8123, 8190, 8172, 8179,3.757317066192627
34, 8171, 8176, 8171, 8174, 8176, 8170, 8156, 8162, 8145, 8176, 8144, 8163, 8171, 8173,3.765320301055908
34, 8171, 8176, 8171, 8174, 8176, 8170, 8156, 8162, 8145, 8176, 8144, 8163, 8171, 8173,3.765320301055908
35, 8203, 8190, 8184, 8193, 8179, 8174, 8167, 8161, 8180, 8191, 8146, 8178, 8174, 8199,3.772892951965332
35, 8203, 8190, 8184, 8193, 8179, 8174, 8167, 8161, 8180, 8191, 8146, 8178, 8174, 8199,3.772892951965332
36, 8170, 8185, 8178, 8181, 8173, 8178, 8147, 8159, 8225, 8183, 8132, 8193, 8170, 8186,3.780916452407837
36, 8170, 8185, 8178, 8181, 8173, 8178, 8147, 8159, 8225, 8183, 8132, 8193, 8170, 8186,3.780916452407837
37, 8144, 8153, 8149, 8168, 8185, 8187, 8147, 8159, 8120, 8197, 8140, 8150, 8160, 8165,3.788939952850342
37, 8144, 8153, 8149, 8168, 8185, 8187, 8147, 8159, 8120, 8197, 8140, 8150, 8160, 8165,3.788939952850342
38, 8168, 8177, 8167, 8178, 8175, 8188, 8144, 8160, 8210, 8181, 8135, 8186, 8170, 8179,3.7969510555267334
38, 8168, 8177, 8167, 8178, 8175, 8188, 8144, 8160, 8210, 8181, 8135, 8186, 8170, 8179,3.7969510555267334
39, 8142, 8157, 8161, 8163, 8179, 8183, 8157, 8144, 8146, 8185, 8139, 8156, 8166, 8168,3.8049864768981934
39, 8142, 8157, 8161, 8163, 8179, 8183, 8157, 8144, 8146, 8185, 8139, 8156, 8166, 8168,3.8049864768981934
40, 8147, 8167, 8157, 8166, 8181, 8203, 8159, 8150, 8136, 8192, 8126, 8156, 8163, 8158,3.8119852542877197
40, 8147, 8167, 8157, 8166, 8181, 8203, 8159, 8150, 8136, 8192, 8126, 8156, 8163, 8158,3.8119852542877197
41, 8137, 8172, 8145, 8152, 8165, 8204, 8149, 8156, 8179, 8172, 8108, 8171, 8163, 8141,3.8199846744537354
41, 8137, 8172, 8145, 8152, 8165, 8204, 8149, 8156, 8179, 8172, 8108, 8171, 8163, 8141,3.8199846744537354
42, 8105, 8146, 8121, 8134, 8173, 8192, 8164, 8152, 8076, 8180, 8128, 8129, 8158, 8134,3.828023672103882
42, 8105, 8146, 8121, 8134, 8173, 8192, 8164, 8152, 8076, 8180, 8128, 8129, 8158, 8134,3.828023672103882
43, 8127, 8183, 8142, 8155, 8161, 8197, 8164, 8175, 8206, 8188, 8123, 8171, 8169, 8149,3.835622787475586
43, 8127, 8183, 8142, 8155, 8161, 8197, 8164, 8175, 8206, 8188, 8123, 8171, 8169, 8149,3.835622787475586
44, 8128, 8167, 8140, 8142, 8160, 8187, 8164, 8169, 8168, 8196, 8110, 8144, 8160, 8148,3.8436293601989746
44, 8128, 8167, 8140, 8142, 8160, 8187, 8164, 8169, 8168, 8196, 8110, 8144, 8160, 8148,3.8436293601989746
45, 8132, 8164, 8137, 8143, 8158, 8172, 8148, 8147, 8105, 8173, 8103, 8135, 8152, 8156,3.8519859313964844
45, 8132, 8164, 8137, 8143, 8158, 8172, 8148, 8147, 8105, 8173, 8103, 8135, 8152, 8156,3.8524057865142822
46, 8136, 8178, 8141, 8150, 8136, 8161, 8138, 8153, 8175, 8149, 8095, 8169, 8157, 8145,3.8599860668182373
46, 8136, 8178, 8141, 8150, 8136, 8161, 8138, 8153, 8175, 8149, 8095, 8169, 8157, 8145,3.8599860668182373
47, 8134, 8147, 8126, 8131, 8143, 8161, 8158, 8155, 8080, 8168, 8095, 8129, 8149, 8130,3.868009090423584
47, 8134, 8147, 8126, 8131, 8143, 8161, 8158, 8155, 8080, 8168, 8095, 8129, 8149, 8130,3.868009090423584
48, 8132, 8166, 8139, 8132, 8127, 8158, 8144, 8152, 8131, 8131, 8069, 8153, 8156, 8132,3.876008987426758
48, 8132, 8166, 8139, 8132, 8127, 8158, 8144, 8152, 8131, 8131, 8069, 8153, 8156, 8132,3.876008987426758
49, 8106, 8152, 8128, 8125, 8110, 8149, 8146, 8142, 8083, 8109, 8062, 8140, 8153, 8111,3.8829853534698486
49, 8106, 8152, 8128, 8125, 8110, 8149, 8146, 8142, 8083, 8109, 8062, 8140, 8153, 8111,3.8829853534698486
50, 8127, 8154, 8128, 8131, 8114, 8165, 8156, 8142, 8056, 8129, 8077, 8147, 8157, 8118,3.8909823894500732
50, 8127, 8154, 8128, 8131, 8114, 8165, 8156, 8142, 8056, 8129, 8077, 8147, 8157, 8118,3.8909823894500732
51, 8134, 8173, 8143, 8131, 8110, 8167, 8141, 8149, 8152, 8133, 8085, 8177, 8168, 8126,3.898987054824829
51, 8134, 8173, 8143, 8131, 8110, 8167, 8141, 8149, 8152, 8133, 8085, 8177, 8168, 8126,3.898987054824829
52, 8126, 8155, 8133, 8124, 8126, 8158, 8150, 8144, 8066, 8162, 8112, 8138, 8162, 8125,3.9069442749023438
52, 8126, 8155, 8133, 8124, 8126, 8158, 8150, 8144, 8066, 8162, 8112, 8138, 8162, 8125,3.9069442749023438
53, 8150, 8188, 8158, 8148, 8122, 8169, 8148, 8153, 8161, 8164, 8127, 8189, 8178, 8152,3.9149863719940186
53, 8150, 8188, 8158, 8148, 8122, 8169, 8148, 8153, 8161, 8164, 8127, 8189, 8178, 8152,3.9149863719940186
54, 8124, 8176, 8156, 8143, 8122, 8171, 8151, 8161, 8172, 8174, 8138, 8173, 8177, 8149,3.9232051372528076
54, 8124, 8176, 8156, 8143, 8122, 8171, 8151, 8161, 8172, 8174, 8138, 8173, 8177, 8149,3.9232051372528076
55, 8128, 8162, 8140, 8143, 8122, 8165, 8161, 8158, 8117, 8187, 8131, 8140, 8164, 8149,3.9307432174682617
55, 8128, 8162, 8140, 8143, 8122, 8165, 8161, 8158, 8117, 8187, 8131, 8140, 8164, 8149,3.9307432174682617
56, 8130, 8174, 8140, 8147, 8099, 8167, 8153, 8154, 8190, 8163, 8119, 8180, 8171, 8146,3.938981294631958
56, 8130, 8174, 8140, 8147, 8099, 8167, 8153, 8154, 8190, 8163, 8119, 8180, 8171, 8146,3.938981294631958
57, 8102, 8140, 8128, 8134, 8110, 8179, 8168, 8153, 8089, 8177, 8138, 8140, 8165, 8134,3.9459853172302246
57, 8102, 8140, 8128, 8134, 8110, 8179, 8168, 8153, 8089, 8177, 8138, 8140, 8165, 8134,3.9459853172302246
58, 8138, 8166, 8149, 8146, 8111, 8175, 8156, 8154, 8134, 8169, 8118, 8162, 8164, 8141,3.9542441368103027
58, 8138, 8166, 8149, 8146, 8111, 8175, 8156, 8154, 8134, 8169, 8118, 8162, 8164, 8141,3.9542441368103027
59, 8128, 8169, 8144, 8140, 8108, 8152, 8142, 8136, 8116, 8144, 8106, 8160, 8162, 8129,3.9622366428375244
59, 8128, 8169, 8144, 8140, 8108, 8152, 8142, 8136, 8116, 8144, 8106, 8160, 8162, 8129,3.9622366428375244
60, 8126, 8160, 8155, 8145, 8114, 8160, 8153, 8138, 8064, 8150, 8126, 8143, 8168, 8143,3.970237970352173
60, 8126, 8160, 8155, 8145, 8114, 8160, 8153, 8138, 8064, 8150, 8126, 8143, 8168, 8143,3.970237970352173
61, 8161, 8185, 8189, 8160, 8093, 8162, 8143, 8147, 8182, 8148, 8120, 8181, 8177, 8156,3.9772369861602783
61, 8161, 8185, 8189, 8160, 8093, 8162, 8143, 8147, 8182, 8148, 8120, 8181, 8177, 8156,3.9782371520996094
62, 8150, 8165, 8164, 8156, 8107, 8141, 8144, 8135, 8092, 8168, 8134, 8140, 8163, 8139,3.986236572265625
62, 8150, 8165, 8164, 8156, 8107, 8141, 8144, 8135, 8092, 8168, 8134, 8140, 8163, 8139,3.986236572265625
63, 8156, 8187, 8165, 8167, 8108, 8148, 8142, 8150, 8139, 8161, 8140, 8165, 8170, 8148,3.993236541748047
63, 8156, 8187, 8165, 8167, 8108, 8148, 8142, 8150, 8139, 8161, 8140, 8165, 8170, 8148,3.993236541748047
64, 8140, 8171, 8163, 8140, 8087, 8151, 8141, 8150, 8145, 8143, 8125, 8169, 8168, 8132,4.001236438751221
64, 8140, 8171, 8163, 8140, 8087, 8151, 8141, 8150, 8145, 8143, 8125, 8169, 8168, 8132,4.002237558364868
65, 8130, 8148, 8149, 8132, 8101, 8150, 8147, 8132, 8049, 8154, 8129, 8144, 8156, 8122,4.009238958358765
65, 8130, 8148, 8149, 8132, 8101, 8150, 8147, 8132, 8049, 8154, 8129, 8144, 8156, 8122,4.009238958358765
66, 8146, 8197, 8178, 8170, 8118, 8164, 8141, 8150, 8193, 8160, 8150, 8198, 8175, 8147,4.016245126724243
66, 8146, 8197, 8178, 8170, 8118, 8164, 8141, 8150, 8193, 8160, 8150, 8198, 8175, 8147,4.017243385314941
67, 8154, 8184, 8192, 8177, 8137, 8172, 8160, 8159, 8168, 8190, 8187, 8173, 8182, 8161,4.024245023727417
67, 8154, 8184, 8192, 8177, 8137, 8172, 8160, 8159, 8168, 8190, 8187, 8173, 8182, 8161,4.025243282318115
68, 8180, 8189, 8211, 8189, 8137, 8179, 8153, 8154, 8193, 8186, 8188, 8190, 8182, 8175,4.032989263534546
68, 8180, 8189, 8211, 8189, 8137, 8179, 8153, 8154, 8193, 8186, 8188, 8190, 8182, 8175,4.032989263534546
69, 8157, 8194, 8200, 8187, 8140, 8174, 8142, 8149, 8218, 8168, 8170, 8187, 8172, 8159,4.040986061096191
69, 8157, 8194, 8200, 8187, 8140, 8174, 8142, 8149, 8218, 8168, 8170, 8187, 8172, 8159,4.040986061096191
70, 8147, 8183, 8177, 8179, 8153, 8167, 8152, 8146, 8121, 8175, 8161, 8142, 8162, 8145,4.049176454544067
70, 8147, 8183, 8177, 8179, 8153, 8167, 8152, 8146, 8121, 8175, 8161, 8142, 8162, 8145,4.049176454544067
71, 8162, 8201, 8187, 8182, 8124, 8167, 8135, 8146, 8196, 8149, 8137, 8187, 8170, 8149,4.057194471359253
71, 8162, 8201, 8187, 8182, 8124, 8167, 8135, 8146, 8196, 8149, 8137, 8187, 8170, 8149,4.057194471359253
72, 8141, 8161, 8172, 8157, 8119, 8171, 8137, 8132, 8107, 8146, 8140, 8161, 8156, 8140,4.0646514892578125
72, 8141, 8161, 8172, 8157, 8119, 8171, 8137, 8132, 8107, 8146, 8140, 8161, 8156, 8140,4.0646514892578125
73, 8150, 8170, 8181, 8165, 8130, 8179, 8143, 8141, 8116, 8139, 8144, 8169, 8155, 8155,4.073168992996216
73, 8150, 8170, 8181, 8165, 8130, 8179, 8143, 8141, 8116, 8139, 8144, 8169, 8155, 8155,4.073168992996216
74, 8134, 8185, 8188, 8171, 8124, 8159, 8139, 8149, 8176, 8122, 8141, 8184, 8161, 8146,4.080167770385742
74, 8134, 8185, 8188, 8171, 8124, 8159, 8139, 8149, 8176, 8122, 8141, 8184, 8161, 8146,4.080167770385742
75, 8131, 8168, 8175, 8163, 8128, 8148, 8148, 8138, 8078, 8136, 8150, 8150, 8158, 8139,4.087985038757324
75, 8131, 8168, 8175, 8163, 8128, 8148, 8148, 8138, 8078, 8136, 8150, 8150, 8158, 8139,4.087985038757324
76, 8177, 8197, 8204, 8180, 8120, 8154, 8145, 8145, 8183, 8129, 8136, 8197, 8173, 8163,4.095986604690552
76, 8177, 8197, 8204, 8180, 8120, 8154, 8145, 8145, 8183, 8129, 8136, 8197, 8173, 8163,4.095986604690552
77, 8176, 8176, 8200, 8174, 8126, 8137, 8160, 8140, 8133, 8137, 8139, 8172, 8169, 8162,4.103973627090454
77, 8176, 8176, 8200, 8174, 8126, 8137, 8160, 8140, 8133, 8137, 8139, 8172, 8169, 8162,4.103973627090454
78, 8172, 8180, 8189, 8171, 8127, 8128, 8146, 8131, 8099, 8120, 8151, 8171, 8166, 8158,4.111982822418213
78, 8172, 8180, 8189, 8171, 8127, 8128, 8146, 8131, 8099, 8120, 8151, 8171, 8166, 8158,4.111982822418213
79, 8155, 8193, 8192, 8175, 8120, 8127, 8120, 8136, 8157, 8100, 8149, 8195, 8168, 8147,4.119985103607178
79, 8155, 8193, 8192, 8175, 8120, 8127, 8120, 8136, 8157, 8100, 8149, 8195, 8168, 8147,4.119985103607178
80, 8164, 8176, 8194, 8188, 8148, 8132, 8149, 8145, 8079, 8136, 8158, 8161, 8164, 8154,4.127005577087402
80, 8164, 8176, 8194, 8188, 8148, 8132, 8149, 8145, 8079, 8136, 8158, 8161, 8164, 8154,4.127005577087402
81, 8200, 8208, 8223, 8207, 8154, 8136, 8158, 8152, 8188, 8138, 8163, 8205, 8178, 8176,4.135985374450684
81, 8200, 8208, 8223, 8207, 8154, 8136, 8158, 8152, 8188, 8138, 8163, 8205, 8178, 8176,4.135985374450684
82, 8162, 8184, 8204, 8186, 8163, 8130, 8148, 8137, 8157, 8138, 8178, 8181, 8171, 8162,4.142688035964966
82, 8162, 8184, 8204, 8186, 8163, 8130, 8148, 8137, 8157, 8138, 8178, 8181, 8171, 8162,4.142688035964966
83, 8149, 8178, 8182, 8189, 8160, 8146, 8140, 8141, 8123, 8139, 8164, 8161, 8162, 8154,4.150609731674194
83, 8149, 8178, 8182, 8189, 8160, 8146, 8140, 8141, 8123, 8139, 8164, 8161, 8162, 8154,4.1516029834747314
84, 8153, 8192, 8174, 8193, 8136, 8155, 8143, 8150, 8183, 8121, 8130, 8174, 8165, 8139,4.1586012840271
84, 8153, 8192, 8174, 8193, 8136, 8155, 8143, 8150, 8183, 8121, 8130, 8174, 8165, 8139,4.1586012840271
85, 8138, 8164, 8153, 8168, 8150, 8149, 8163, 8134, 8071, 8132, 8131, 8134, 8156, 8126,4.167198181152344
85, 8138, 8164, 8153, 8168, 8150, 8149, 8163, 8134, 8071, 8132, 8131, 8134, 8156, 8126,4.167198181152344
86, 8139, 8185, 8160, 8165, 8141, 8144, 8135, 8138, 8126, 8113, 8119, 8177, 8162, 8133,4.17519736289978
86, 8139, 8185, 8160, 8165, 8141, 8144, 8135, 8138, 8126, 8113, 8119, 8177, 8162, 8133,4.17519736289978
87, 8123, 8165, 8148, 8160, 8130, 8136, 8124, 8142, 8081, 8105, 8112, 8160, 8161, 8118,4.183212518692017
87, 8123, 8165, 8148, 8160, 8130, 8136, 8124, 8142, 8081, 8105, 8112, 8160, 8161, 8118,4.183212518692017
88, 8140, 8159, 8146, 8164, 8138, 8138, 8137, 8137, 8049, 8115, 8115, 8149, 8163, 8127,4.190986156463623
88, 8140, 8159, 8146, 8164, 8138, 8138, 8137, 8137, 8049, 8115, 8115, 8149, 8163, 8127,4.190986156463623
89, 8136, 8179, 8157, 8164, 8131, 8125, 8124, 8141, 8152, 8109, 8110, 8186, 8171, 8129,4.198875188827515
89, 8136, 8179, 8157, 8164, 8131, 8125, 8124, 8141, 8152, 8109, 8110, 8186, 8171, 8129,4.198875188827515
90, 8125, 8158, 8148, 8166, 8138, 8112, 8133, 8143, 8064, 8133, 8121, 8147, 8162, 8126,4.205985069274902
90, 8125, 8158, 8148, 8166, 8138, 8112, 8133, 8143, 8064, 8133, 8121, 8147, 8162, 8126,4.205985069274902
91, 8174, 8191, 8182, 8196, 8141, 8127, 8142, 8154, 8152, 8131, 8127, 8191, 8174, 8159,4.213984727859497
91, 8174, 8191, 8182, 8196, 8141, 8127, 8142, 8154, 8152, 8131, 8127, 8191, 8174, 8159,4.213984727859497
92, 8168, 8184, 8186, 8188, 8158, 8132, 8149, 8155, 8167, 8142, 8137, 8189, 8177, 8161,4.221721887588501
92, 8168, 8184, 8186, 8188, 8158, 8132, 8149, 8155, 8167, 8142, 8137, 8189, 8177, 8161,4.221721887588501
93, 8170, 8178, 8177, 8189, 8175, 8137, 8161, 8162, 8127, 8173, 8144, 8167, 8174, 8166,4.229721546173096
93, 8170, 8178, 8177, 8189, 8175, 8137, 8161, 8162, 8127, 8173, 8144, 8167, 8174, 8166,4.229721546173096
94, 8183, 8206, 8195, 8203, 8158, 8147, 8156, 8174, 8235, 8167, 8137, 8205, 8176, 8177,4.23798131942749
94, 8183, 8206, 8195, 8203, 8158, 8147, 8156, 8174, 8235, 8167, 8137, 8205, 8176, 8177,4.23798131942749
95, 8162, 8177, 8182, 8194, 8168, 8148, 8165, 8171, 8144, 8176, 8156, 8167, 8160, 8167,4.245981693267822
95, 8162, 8177, 8182, 8194, 8168, 8148, 8165, 8171, 8144, 8176, 8156, 8167, 8160, 8167,4.245981693267822
96, 8184, 8189, 8186, 8206, 8170, 8147, 8167, 8177, 8192, 8163, 8142, 8181, 8168, 8170,4.253985643386841
96, 8184, 8189, 8186, 8206, 8170, 8147, 8167, 8177, 8192, 8163, 8142, 8181, 8168, 8170,4.253985643386841
97, 8165, 8176, 8168, 8187, 8159, 8140, 8172, 8170, 8188, 8151, 8123, 8170, 8170, 8158,4.2620155811309814
97, 8165, 8176, 8168, 8187, 8159, 8140, 8172, 8170, 8188, 8151, 8123, 8170, 8170, 8158,4.2620155811309814
98, 8145, 8165, 8152, 8177, 8161, 8143, 8177, 8167, 8126, 8176, 8138, 8152, 8164, 8160,4.270014762878418
98, 8145, 8165, 8152, 8177, 8161, 8143, 8177, 8167, 8126, 8176, 8138, 8152, 8164, 8160,4.270014762878418
99, 8164, 8194, 8170, 8191, 8152, 8146, 8165, 8187, 8255, 8184, 8131, 8194, 8171, 8170,4.276948690414429
99, 8164, 8194, 8170, 8191, 8152, 8146, 8165, 8187, 8255, 8184, 8131, 8194, 8171, 8170,4.276948690414429
100, 8154, 8162, 8143, 8166, 8169, 8138, 8172, 8167, 8151, 8184, 8117, 8145, 8157, 8152,4.284634828567505
100, 8154, 8162, 8143, 8166, 8169, 8138, 8172, 8167, 8151, 8184, 8117, 8145, 8157, 8152,4.284634828567505
101, 8148, 8170, 8137, 8165, 8170, 8137, 8157, 8147, 8141, 8152, 8093, 8162, 8154, 8145,4.292634725570679
101, 8148, 8170, 8137, 8165, 8170, 8137, 8157, 8147, 8141, 8152, 8093, 8162, 8154, 8145,4.292634725570679
102, 8133, 8170, 8136, 8166, 8156, 8123, 8146, 8153, 8160, 8145, 8081, 8168, 8159, 8131,4.300557613372803
102, 8133, 8170, 8136, 8166, 8156, 8123, 8146, 8153, 8160, 8145, 8081, 8168, 8159, 8131,4.300557613372803
103, 8159, 8161, 8133, 8169, 8168, 8114, 8162, 8163, 8089, 8175, 8096, 8142, 8166, 8145,4.309316158294678
103, 8159, 8161, 8133, 8169, 8168, 8114, 8162, 8163, 8089, 8175, 8096, 8142, 8166, 8145,4.309316158294678
104, 8190, 8191, 8162, 8181, 8168, 8116, 8160, 8170, 8199, 8171, 8107, 8193, 8176, 8179,4.317318916320801
104, 8190, 8191, 8162, 8181, 8168, 8116, 8160, 8170, 8199, 8171, 8107, 8193, 8176, 8179,4.317318916320801
105, 8165, 8169, 8163, 8166, 8181, 8119, 8174, 8164, 8147, 8185, 8130, 8164, 8162, 8178,4.324984788894653
105, 8165, 8169, 8163, 8166, 8181, 8119, 8174, 8164, 8147, 8185, 8130, 8164, 8162, 8178,4.324984788894653
106, 8166, 8179, 8171, 8175, 8180, 8128, 8167, 8172, 8174, 8177, 8121, 8175, 8165, 8169,4.332986116409302
106, 8166, 8179, 8171, 8175, 8180, 8128, 8167, 8172, 8174, 8177, 8121, 8175, 8165, 8169,4.332986116409302
107, 8162, 8175, 8159, 8176, 8171, 8121, 8162, 8174, 8207, 8169, 8102, 8178, 8169, 8147,4.340986251831055
107, 8162, 8175, 8159, 8176, 8171, 8121, 8162, 8174, 8207, 8169, 8102, 8178, 8169, 8147,4.340986251831055
108, 8169, 8156, 8144, 8167, 8190, 8124, 8182, 8169, 8133, 8196, 8120, 8143, 8164, 8157,4.348265171051025
108, 8169, 8156, 8144, 8167, 8190, 8124, 8182, 8169, 8133, 8196, 8120, 8143, 8164, 8157,4.348265171051025
109, 8166, 8184, 8161, 8172, 8175, 8131, 8157, 8172, 8235, 8174, 8122, 8189, 8175, 8165,4.356265068054199
109, 8166, 8184, 8161, 8172, 8175, 8131, 8157, 8172, 8235, 8174, 8122, 8189, 8175, 8165,4.356265068054199
110, 8134, 8159, 8140, 8167, 8170, 8114, 8149, 8159, 8147, 8173, 8115, 8154, 8168, 8138,4.363264560699463
110, 8134, 8159, 8140, 8167, 8170, 8114, 8149, 8159, 8147, 8173, 8115, 8154, 8168, 8138,4.364264965057373
111, 8168, 8172, 8144, 8178, 8180, 8116, 8166, 8159, 8153, 8188, 8106, 8162, 8172, 8162,4.372267007827759
111, 8168, 8172, 8144, 8178, 8180, 8116, 8166, 8159, 8153, 8188, 8106, 8162, 8172, 8162,4.372267007827759
112, 8159, 8179, 8151, 8169, 8184, 8124, 8166, 8161, 8229, 8184, 8118, 8180, 8173, 8167,4.379985570907593
112, 8159, 8179, 8151, 8169, 8184, 8124, 8166, 8161, 8229, 8184, 8118, 8180, 8173, 8167,4.379985570907593
113, 8137, 8150, 8140, 8164, 8190, 8120, 8167, 8162, 8138, 8203, 8140, 8136, 8164, 8148,4.3880064487457275
113, 8137, 8150, 8140, 8164, 8190, 8120, 8167, 8162, 8138, 8203, 8140, 8136, 8164, 8148,4.3880064487457275
114, 8173, 8180, 8159, 8178, 8173, 8112, 8163, 8176, 8242, 8200, 8119, 8173, 8172, 8163,4.396005630493164
114, 8173, 8180, 8159, 8178, 8173, 8112, 8163, 8176, 8242, 8200, 8119, 8173, 8172, 8163,4.396005630493164
115, 8156, 8161, 8143, 8167, 8184, 8106, 8177, 8169, 8196, 8201, 8123, 8154, 8164, 8160,4.404253244400024
115, 8156, 8161, 8143, 8167, 8184, 8106, 8177, 8169, 8196, 8201, 8123, 8154, 8164, 8160,4.404253244400024
116, 8158, 8162, 8145, 8179, 8191, 8125, 8169, 8159, 8160, 8196, 8134, 8155, 8165, 8159,4.411212682723999
116, 8158, 8162, 8145, 8179, 8191, 8125, 8169, 8159, 8160, 8196, 8134, 8155, 8165, 8159,4.411212682723999
117, 8170, 8180, 8161, 8175, 8187, 8136, 8154, 8158, 8212, 8181, 8127, 8181, 8177, 8158,4.41875433921814
117, 8170, 8180, 8161, 8175, 8187, 8136, 8154, 8158, 8212, 8181, 8127, 8181, 8177, 8158,4.41875433921814
118, 8165, 8157, 8149, 8164, 8218, 8135, 8172, 8162, 8123, 8196, 8145, 8149, 8170, 8163,4.426752328872681
118, 8165, 8157, 8149, 8164, 8218, 8135, 8172, 8162, 8123, 8196, 8145, 8149, 8170, 8163,4.426752328872681
119, 8164, 8182, 8154, 8186, 8208, 8132, 8162, 8178, 8226, 8187, 8148, 8188, 8170, 8167,4.434826612472534
119, 8164, 8182, 8154, 8186, 8208, 8132, 8162, 8178, 8226, 8187, 8148, 8188, 8170, 8167,4.434826612472534
120, 8132, 8167, 8135, 8170, 8196, 8119, 8154, 8167, 8188, 8190, 8144, 8161, 8163, 8142,4.443087577819824
120, 8132, 8167, 8135, 8170, 8196, 8119, 8154, 8167, 8188, 8190, 8144, 8161, 8163, 8142,4.443087577819824
121, 8152, 8165, 8133, 8165, 8197, 8116, 8155, 8153, 8133, 8185, 8131, 8147, 8162, 8143,4.451087951660156
121, 8152, 8165, 8133, 8165, 8197, 8116, 8155, 8153, 8133, 8185, 8131, 8147, 8162, 8143,4.451087951660156
122, 8168, 8178, 8141, 8168, 8182, 8102, 8145, 8148, 8183, 8153, 8115, 8172, 8169, 8144,4.458985328674316
122, 8168, 8178, 8141, 8168, 8182, 8102, 8145, 8148, 8183, 8153, 8115, 8172, 8169, 8144,4.458985328674316
123, 8142, 8149, 8121, 8157, 8188, 8097, 8149, 8136, 8061, 8155, 8130, 8133, 8158, 8135,4.466915845870972
