COUNTER,F3,FC5,AF3,F7,T7,P7,O1,O2,P8,T8,F8,AF4,FC6,F4,Timestamp
22,8157,8166,8183,8163,8140,8102,8152,8174,8171,8173,8185,8186,8158,8081,0.0010008811950683
23,8134,8158,8171,8157,8151,8112,8161,8178,8123,8180,8196,8167,8156,8065,0.0090017318725585
24,8158,8167,8179,8171,8155,8120,8177,8190,8120,8192,8202,8175,8164,8079,0.0160045623779296
25,8167,8170,8188,8171,8131,8101,8157,8186,8184,8173,8174,8193,8166,8073,0.0240046977996826
26,8173,8151,8178,8164,8152,8109,8171,8178,8092,8194,8185,8152,8162,8077,0.0319123268127441
27,8201,8186,8200,8179,8162,8131,8174,8195,8219,8192,8198,8199,8180,8111,0.0399277210235595
28,8158,8163,8190,8160,8166,8127,8177,8194,8198,8201,8207,8177,8171,8097,0.0479183197021484
29,8145,8160,8184,8161,8162,8127,8178,8192,8158,8209,8203,8161,8164,8083,0.0559217929840087
30,8163,8181,8188,8170,8147,8122,8167,8196,8243,8191,8181,8184,8170,8073,0.0639266967773437
31,8164,8151,8168,8159,8166,8122,8182,8184,8136,8202,8184,8142,8160,8075,0.0719335079193115
32,8168,8176,8182,8169,8162,8139,8174,8182,8204,8176,8181,8185,8169,8094,0.0789327621459961
33,8136,8169,8177,8164,8159,8142,8169,8176,8181,8173,8183,8171,8164,8078,0.0869758129119873
34,8157,8171,8178,8181,8174,8144,8173,8181,8138,8199,8187,8155,8154,8082,0.0948123931884765
35,8180,8189,8188,8190,8159,8142,8162,8187,8229,8182,8169,8193,8158,8077,0.1028385162353515
36,8155,8151,8160,8157,8158,8140,8170,8167,8097,8172,8160,8142,8153,8049,0.1110007762908935
37,8163,8177,8176,8160,8159,8152,8159,8170,8144,8154,8152,8166,8167,8062,0.1190061569213867
38,8141,8170,8180,8160,8159,8146,8154,8173,8149,8150,8161,8165,8166,8063,0.126894474029541
39,8140,8150,8158,8162,8156,8135,8158,8164,8075,8153,8154,8138,8152,8052,0.1350631713867187
40,8158,8171,8163,8169,8148,8142,8149,8169,8172,8141,8138,8176,8161,8045,0.14198899269104
41,8135,8147,8162,8153,8176,8147,8161,8176,8099,8172,8172,8148,8166,8046,0.1502988338470459
42,8141,8173,8183,8165,8175,8149,8154,8190,8170,8181,8178,8171,8171,8072,0.1582975387573242
43,8141,8168,8170,8165,8162,8138,8149,8177,8168,8163,8155,8159,8162,8063,0.1659653186798095
44,8141,8143,8145,8151,8174,8134,8151,8154,8052,8149,8150,8131,8157,8050,0.1740100383758545
45,8132,8167,8166,8151,8162,8136,8125,8162,8159,8131,8146,8177,8171,8052,0.1823358535766601
46,8127,8148,8163,8158,8170,8134,8139,8167,8106,8165,8153,8144,8161,8051,0.1903567314147949
47,8161,8162,8162,8172,8168,8132,8152,8170,8137,8167,8145,8159,8161,8070,0.1983571052551269
48,8126,8160,8151,8146,8158,8116,8146,8169,8154,8145,8150,8158,8167,8057,0.2059724330902099
49,8120,8150,8153,8147,8167,8120,8161,8168,8089,8166,8167,8131,8166,8057,0.2130031585693359
50,8157,8177,8175,8172,8155,8132,8160,8176,8212,8163,8160,8186,8172,8081,0.2210981845855713
51,8134,8148,8154,8148,8173,8130,8167,8178,8141,8170,8179,8157,8163,8080,0.2286365032196045
52,8147,8167,8164,8154,8174,8132,8159,8180,8158,8159,8170,8161,8161,8080,0.2369918823242187
53,8142,8168,8165,8159,8151,8122,8146,8166,8178,8139,8145,8164,8156,8059,0.2450122833251953
54,8134,8139,8146,8151,8168,8132,8164,8163,8073,8159,8162,8130,8156,8060,0.2530107498168945
55,8153,8173,8164,8154,8167,8145,8160,8180,8191,8154,8156,8173,8170,8076,0.2610104084014892
56,8126,8152,8144,8132,8164,8130,8159,8170,8118,8160,8148,8133,8157,8055,0.2690901756286621
57,8129,8157,8142,8142,8155,8130,8152,8169,8108,8158,8149,8144,8160,8069,0.2773768901824951
58,8143,8174,8164,8159,8155,8145,8155,8178,8204,8155,8156,8182,8173,8093,0.283808946609497
59,8151,8155,8164,8154,8184,8159,8181,8179,8134,8183,8174,8145,8161,8102,0.29180908203125
60,8162,8177,8174,8162,8176,8160,8168,8190,8229,8173,8165,8182,8161,8104,0.3000085353851318
61,8141,8157,8155,8153,8178,8155,8163,8177,8168,8173,8167,8155,8157,8095,0.3080017566680908
62,8155,8164,8160,8164,8185,8165,8159,8166,8141,8167,8166,8149,8163,8110,0.3160157203674316
63,8154,8175,8178,8176,8175,8163,8155,8171,8223,8148,8148,8174,8170,8101,0.3241152763366699
64,8142,8150,8164,8174,8193,8155,8175,8172,8126,8173,8162,8138,8156,8094,0.3321943283081054
65,8160,8183,8173,8184,8190,8150,8167,8183,8214,8166,8159,8174,8160,8107,0.3390071392059326
66,8141,8159,8158,8159,8187,8137,8164,8175,8170,8158,8144,8148,8154,8090,0.3470058441162109
67,8141,8146,8150,8160,8188,8146,8168,8166,8126,8156,8137,8138,8154,8086,0.3550071716308594
68,8133,8165,8146,8164,8175,8150,8164,8174,8225,8148,8130,8163,8161,8067,0.3630447387695312
69,8106,8139,8118,8136,8188,8145,8179,8171,8129,8173,8141,8116,8149,8046,0.3710060119628906
70,8118,8161,8134,8139,8185,8153,8166,8184,8211,8165,8135,8157,8159,8068,0.3787744045257568
71,8113,8150,8131,8142,8185,8148,8170,8192,8212,8172,8138,8154,8164,8072,0.3867757320404053
72,8125,8142,8120,8141,8189,8137,8181,8181,8149,8179,8143,8130,8161,8076,0.3950061798095703
73,8100,8158,8110,8132,8168,8129,8152,8171,8201,8148,8130,8152,8159,8058,0.4020066261291504
74,8072,8132,8090,8126,8183,8134,8160,8168,8082,8158,8129,8114,8143,8035,0.4100065231323242
75,8117,8158,8119,8144,8188,8153,8163,8176,8147,8145,8114,8151,8149,8053,0.4182858467102051
76,8114,8149,8120,8135,8181,8153,8165,8174,8158,8145,8124,8148,8158,8058,0.4262857437133789
77,8116,8141,8104,8141,8187,8151,8173,8176,8116,8179,8141,8128,8165,8074,0.4340074062347412
78,8118,8165,8114,8145,8170,8149,8152,8176,8216,8163,8120,8164,8168,8078,0.4419958591461181
79,8100,8133,8108,8129,8174,8153,8157,8163,8107,8163,8127,8124,8150,8062,0.4499959945678711
80,8137,8158,8130,8150,8173,8156,8163,8174,8163,8160,8134,8158,8162,8086,0.4580059051513672
81,8127,8158,8126,8142,8176,8141,8172,8175,8187,8156,8135,8159,8167,8081,0.4656546115875244
81,8127,8158,8126,8142,8176,8141,8172,8175,8187,8156,8135,8159,8167,8081,0.4666848182678222
82,8113,8144,8112,8127,8187,8141,8177,8163,8097,8165,8135,8126,8152,8070,0.4743576049804687
83,8122,8167,8127,8138,8164,8134,8148,8159,8181,8145,8123,8166,8155,8070,0.4813578128814697
84,8106,8134,8114,8125,8163,8110,8152,8152,8083,8150,8130,8124,8153,8054,0.4890065193176269
85,8134,8161,8132,8134,8164,8116,8165,8172,8142,8146,8121,8147,8159,8057,0.4973788261413574
86,8134,8170,8139,8136,8162,8127,8166,8181,8193,8151,8124,8158,8164,8055,0.5048854351043701
87,8124,8141,8120,8129,8170,8124,8161,8165,8089,8173,8144,8122,8163,8063,0.5129091739654541
88,8135,8164,8135,8135,8157,8117,8148,8169,8197,8159,8129,8164,8168,8079,0.5209813117980957
89,8130,8148,8130,8128,8180,8129,8174,8173,8140,8180,8140,8134,8164,8078,0.5291733741760254
90,8152,8170,8147,8147,8193,8150,8180,8180,8188,8192,8164,8154,8175,8094,0.5357048511505127
91,8139,8175,8148,8143,8181,8127,8162,8174,8240,8179,8155,8167,8166,8088,0.5440001487731934
92,8122,8148,8126,8128,8187,8106,8161,8163,8097,8180,8141,8122,8148,8083,0.5522239208221436
93,8130,8169,8136,8140,8166,8112,8146,8173,8177,8152,8126,8160,8162,8083,0.5602247714996338
94,8115,8139,8121,8128,8158,8105,8154,8159,8107,8154,8128,8131,8153,8057,0.5673701763153076
94,8115,8139,8121,8128,8158,8105,8154,8159,8107,8154,8128,8131,8153,8057,0.5683584213256836
95,8128,8151,8130,8136,8160,8093,8154,8152,8083,8154,8121,8136,8143,8057,0.5773580074310303
96,8120,8168,8144,8144,8160,8089,8148,8171,8159,8158,8128,8157,8158,8054,0.5840060710906982
97,8133,8146,8137,8147,8181,8099,8177,8183,8116,8213,8165,8125,8174,8074,0.5920381546020508
98,8176,8174,8163,8159,8169,8104,8174,8188,8239,8219,8166,8178,8182,8115,0.6000075340270996
99,8141,8154,8156,8138,8172,8096,8165,8179,8171,8211,8169,8156,8165,8100,0.6066086292266846
99,8141,8154,8156,8138,8172,8096,8165,8179,8171,8211,8169,8156,8165,8100,0.6076078414916992
100,8142,8157,8147,8141,8174,8102,8164,8180,8139,8206,8164,8139,8163,8082,0.6147518157958984
101,8143,8166,8138,8134,8145,8096,8153,8173,8195,8181,8134,8155,8166,8067,0.6227598190307617
102,8112,8138,8114,8120,8153,8088,8155,8162,8083,8188,8139,8121,8151,8068,0.6312210559844971
103,8130,8172,8138,8146,8155,8099,8149,8177,8197,8190,8143,8164,8161,8087,0.6390066146850586
104,8133,8165,8142,8142,8157,8098,8165,8171,8168,8194,8146,8143,8156,8071,0.6470062732696533
105,8149,8161,8144,8147,8163,8096,8170,8160,8095,8174,8138,8136,8145,8058,0.6552383899688721
106,8143,8170,8147,8151,8153,8088,8150,8166,8153,8137,8117,8163,8152,8044,0.6630067825317383
107,8124,8145,8127,8139,8163,8073,8158,8172,8055,8162,8136,8115,8155,8043,0.6700303554534912
108,8145,8172,8140,8153,8158,8064,8148,8180,8145,8168,8141,8153,8167,8070,0.6780300140380859
109,8114,8145,8120,8135,8147,8054,8143,8163,8109,8159,8131,8137,8156,8060,0.6859698295593262
110,8107,8133,8105,8126,8143,8065,8150,8157,8033,8158,8118,8117,8150,8052,0.6940076351165771
111,8119,8164,8112,8133,8140,8081,8148,8170,8135,8145,8112,8155,8167,8053,0.7018368244171143
112,8112,8139,8099,8130,8165,8091,8162,8164,8057,8163,8134,8121,8160,8053,0.7103161811828613
113,8140,8169,8131,8158,8167,8113,8154,8170,8144,8162,8135,8163,8163,8074,0.7183206081390381
114,8132,8167,8135,8157,8174,8121,8155,8170,8164,8174,8133,8153,8159,8062,0.7259695529937744
115,8133,8145,8114,8139,8184,8124,8160,8161,8090,8183,8127,8119,8153,8053,0.7340080738067627
116,8132,8162,8118,8137,8164,8117,8140,8166,8170,8148,8107,8156,8158,8040,0.7413182258605957
117,8104,8138,8102,8131,8174,8105,8153,8163,8070,8156,8124,8117,8148,8021,0.7488508224487305
118,8120,8152,8109,8137,8161,8102,8157,8167,8121,8155,8129,8140,8157,8047,0.756845235824585
119,8110,8146,8110,8130,8140,8092,8153,8167,8140,8144,8126,8147,8162,8053,0.7650094032287598
120,8120,8148,8114,8145,8158,8093,8165,8168,8070,8158,8144,8129,8161,8059,0.7728512287139893
121,8146,8181,8140,8161,8162,8099,8166,8181,8200,8157,8152,8174,8173,8082,0.7807307243347168
122,8129,8149,8124,8141,8181,8099,8184,8185,8139,8180,8165,8131,8164,8084,0.7887258529663086
123,8140,8172,8127,8155,8186,8110,8176,8194,8175,8175,8156,8142,8165,8088,0.7967276573181152
124,8127,8179,8125,8157,8177,8113,8165,8189,8198,8160,8143,8151,8160,8066,0.803727388381958
125,8122,8151,8105,8139,8183,8118,8173,8171,8078,8158,8139,8118,8145,8050,0.8120126724243164
126,8133,8167,8113,8136,8171,8121,8160,8170,8150,8123,8109,8150,8150,8036,0.8200061321258545
127,8114,8147,8107,8131,8192,8125,8182,8173,8089,8148,8121,8115,8155,8025,0.8275275230407715
240,8132,8172,8129,8156,8201,8143,8195,8188,8147,8172,8146,8143,8171,8062,0.8355629444122314
0,8135,8181,8145,8158,8182,8148,8179,8190,8218,8163,8154,8172,8170,8075,0.8435709476470947
1,8145,8153,8144,8150,8187,8150,8186,8179,8132,8186,8175,8138,8166,8084,0.8520057201385498
2,8173,8189,8162,8174,8177,8159,8185,8190,8256,8190,8174,8180,8182,8113,0.8600063323974609
3,8163,8178,8143,8168,8192,8162,8200,8191,8216,8201,8179,8150,8168,8118,0.8680062294006348
4,8170,8177,8153,8165,8212,8172,8201,8191,8220,8194,8180,8152,8164,8132,0.875006914138794
5,8149,8183,8164,8165,8205,8168,8183,8190,8282,8177,8169,8171,8167,8118,0.8830070495605469
6,8146,8168,8142,8162,8203,8164,8192,8180,8172,8192,8170,8130,8154,8097,0.8912179470062256
7,8175,8201,8157,8169,8187,8164,8179,8182,8245,8169,8153,8166,8155,8101,0.8992156982421875
8,8149,8172,8149,8156,8185,8153,8181,8183,8182,8170,8151,8136,8153,8085,0.906963348388672
9,8159,8159,8142,8158,8184,8163,8199,8195,8170,8191,8155,8134,8164,8098,0.9149651527404784
10,8157,8171,8143,8149,8171,8164,8200,8198,8254,8184,8152,8160,8166,8102,0.9230062961578368
11,8137,8153,8130,8136,8185,8143,8191,8182,8133,8182,8155,8119,8149,8085,0.9314827919006348
12,8159,8183,8156,8157,8182,8126,8155,8185,8204,8160,8147,8166,8165,8098,0.9380056858062744
13,8150,8166,8160,8151,8182,8118,8151,8177,8182,8172,8168,8150,8172,8106,0.946507215499878
14,8164,8174,8167,8159,8182,8128,8168,8178,8163,8191,8182,8137,8165,8121,0.9540016651153564
15,8175,8197,8179,8170,8175,8131,8172,8192,8264,8179,8177,8176,8168,8121,0.9618034362792968
16,8161,8165,8162,8160,8194,8127,8186,8183,8161,8188,8189,8138,8159,8108,0.9698028564453124
17,8174,8188,8173,8175,8178,8126,8165,8169,8192,8162,8161,8157,8154,8101,0.9779784679412842
18,8148,8171,8153,8160,8169,8116,8151,8151,8121,8144,8141,8135,8141,8070,0.9855976104736328
18,8148,8171,8153,8160,8169,8116,8151,8151,8121,8144,8141,8135,8141,8070,0.9865927696228028
19,8143,8159,8138,8157,8185,8128,8156,8155,8071,8152,8152,8129,8144,8074,0.9965901374816896
20,8158,8187,8158,8173,8169,8141,8155,8173,8205,8147,8157,8172,8168,8095,1.0005888938903809
21,8150,8166,8148,8168,8173,8141,8172,8168,8115,8165,8174,8125,8163,8101,1.0085890293121338
22,8164,8183,8152,8176,8179,8142,8163,8168,8161,8158,8171,8150,8164,8105,1.016599178314209
22,8164,8183,8152,8176,8179,8142,8163,8168,8161,8158,8171,8150,8164,8105,1.0176005363464355
23,8151,8169,8144,8164,8185,8134,8163,8165,8163,8164,8175,8152,8169,8093,1.0245976448059082
24,8165,8158,8147,8163,8188,8134,8174,8169,8111,8187,8193,8135,8168,8116,1.0331053733825684
25,8178,8179,8170,8174,8171,8137,8161,8184,8229,8170,8179,8172,8169,8128,1.041105031967163
26,8146,8142,8146,8160,8186,8143,8179,8181,8150,8186,8174,8124,8159,8100,1.049105167388916
27,8148,8152,8131,8159,8175,8150,8174,8173,8177,8174,8154,8135,8159,8087,1.057105541229248
28,8130,8147,8121,8140,8154,8133,8155,8156,8148,8146,8133,8137,8146,8062,1.0641062259674072
29,8137,8139,8134,8145,8173,8128,8157,8149,8043,8149,8139,8118,8143,8062,1.0721049308776855
30,8162,8174,8157,8170,8165,8132,8148,8156,8155,8137,8141,8155,8163,8079,1.080010175704956
31,8147,8148,8126,8150,8160,8131,8165,8155,8080,8150,8147,8110,8160,8074,1.088005781173706
32,8155,8162,8134,8151,8163,8135,8165,8166,8107,8144,8142,8136,8168,8089,1.0970065593719482
33,8131,8164,8143,8153,8170,8123,8148,8168,8146,8130,8148,8154,8171,8086,1.1040277481079102
34,8120,8147,8131,8151,8183,8124,8150,8164,8073,8156,8170,8124,8161,8094,1.1120281219482422
35,8155,8185,8161,8167,8165,8145,8152,8179,8204,8169,8163,8173,8170,8125,1.120041847229004
36,8167,8171,8165,8165,8179,8147,8180,8172,8148,8191,8171,8150,8167,8129,1.1262946128845217
37,8182,8179,8168,8172,8196,8148,8177,8166,8163,8188,8183,8164,8172,8142,1.1348626613616943
38,8155,8175,8169,8166,8186,8150,8151,8173,8225,8177,8183,8172,8172,8125,1.14300799369812
39,8155,8149,8161,8160,8190,8152,8167,8172,8118,8187,8177,8123,8157,8103,1.1510062217712402
40,8182,8181,8164,8163,8168,8153,8163,8164,8178,8150,8143,8158,8158,8099,1.1594231128692627
41,8140,8161,8135,8143,8160,8145,8152,8147,8091,8132,8138,8130,8153,8085,1.167436122894287
42,8144,8168,8145,8159,8158,8153,8152,8157,8081,8132,8146,8138,8159,8101,1.1754329204559326
43,8156,8180,8161,8160,8152,8160,8164,8175,8153,8145,8156,8165,8171,8108,1.1824357509613037
43,8156,8180,8161,8160,8152,8160,8164,8175,8153,8145,8156,8165,8171,8108,1.1834416389465332
44,8147,8156,8156,8146,8172,8164,8186,8176,8083,8189,8191,8136,8169,8120,1.1910061836242676
45,8166,8184,8185,8166,8157,8159,8168,8185,8207,8176,8183,8176,8172,8136,1.1980056762695312
46,8151,8155,8169,8150,8147,8139,8160,8172,8140,8160,8163,8141,8158,8116,1.2059693336486816
47,8157,8152,8161,8147,8143,8143,8155,8158,8092,8161,8153,8134,8159,8118,1.2144756317138672
48,8156,8172,8175,8157,8138,8151,8150,8164,8183,8155,8148,8167,8167,8114,1.2222623825073242
49,8150,8144,8165,8152,8156,8151,8170,8163,8083,8167,8161,8125,8149,8099,1.2297911643981934
50,8176,8173,8180,8166,8145,8141,8154,8162,8164,8149,8155,8160,8160,8107,1.237799882888794
51,8163,8157,8165,8152,8141,8130,8154,8155,8153,8161,8168,8148,8173,8111,1.2458500862121582
52,8158,8143,8149,8140,8145,8144,8168,8158,8123,8177,8183,8139,8168,8125,1.2540063858032229
53,8149,8163,8150,8142,8135,8153,8164,8169,8203,8154,8161,8165,8163,8111,1.2612695693969729
54,8138,8142,8129,8136,8146,8159,8178,8165,8095,8170,8150,8123,8156,8090,1.268789768218994
55,8153,8161,8136,8139,8127,8165,8168,8171,8167,8163,8144,8160,8163,8103,1.2767975330352783
56,8131,8141,8127,8125,8114,8152,8160,8163,8144,8158,8151,8148,8158,8097,1.2850062847137451
57,8142,8140,8129,8138,8132,8151,8158,8153,8078,8170,8156,8128,8163,8102,1.2930071353912354
57,8142,8140,8129,8138,8132,8151,8158,8153,8078,8170,8156,8128,8163,8102,1.2938058376312256
58,8150,8166,8144,8150,8127,8157,8146,8166,8192,8163,8149,8163,8175,8096,1.301302433013916
59,8146,8139,8132,8142,8135,8166,8172,8170,8118,8187,8160,8119,8155,8077,1.309316873550415
60,8183,8162,8159,8160,8124,8176,8178,8171,8178,8172,8151,8146,8155,8085,1.317317008972168
61,8156,8154,8149,8146,8116,8162,8170,8159,8164,8151,8144,8145,8157,8069,1.3240065574645996
62,8140,8145,8130,8144,8137,8155,8171,8150,8084,8164,8154,8123,8156,8075,1.332275629043579
63,8154,8170,8150,8159,8130,8155,8154,8154,8185,8157,8153,8162,8162,8091,1.3402743339538574
64,8140,8137,8133,8140,8132,8141,8159,8143,8084,8169,8159,8125,8156,8078,1.3480072021484375
65,8157,8152,8135,8141,8124,8144,8152,8149,8126,8164,8144,8149,8165,8087,1.3565988540649414
66,8144,8157,8139,8138,8114,8146,8150,8155,8166,8165,8144,8152,8166,8084,1.3640069961547852
67,8152,8151,8142,8141,8130,8148,8167,8153,8096,8187,8172,8125,8163,8091,1.371901035308838
68,8178,8179,8168,8161,8128,8159,8158,8157,8200,8168,8165,8168,8173,8102,1.3799009323120115
69,8168,8153,8158,8158,8136,8162,8166,8150,8122,8173,8156,8129,8157,8088,1.3880071640014648
70,8185,8167,8154,8160,8134,8156,8164,8153,8138,8168,8141,8138,8152,8088,1.395005464553833
71,8152,8161,8140,8145,8128,8144,8149,8147,8141,8148,8133,8141,8156,8064,1.40317702293396
72,8133,8142,8127,8144,8137,8155,8158,8141,8042,8156,8145,8112,8158,8052,1.4106929302215576
73,8161,8183,8147,8170,8135,8162,8170,8160,8172,8154,8139,8161,8171,8072,1.4186911582946775
74,8149,8163,8133,8165,8145,8145,8188,8157,8108,8167,8144,8124,8159,8070,1.4270055294036863
74,8149,8163,8133,8165,8145,8145,8188,8157,8108,8167,8144,8124,8159,8070,1.427516222000122
75,8162,8167,8142,8171,8134,8141,8170,8150,8098,8159,8137,8130,8157,8076,1.4346725940704346
75,8162,8167,8142,8171,8134,8141,8170,8150,8098,8159,8137,8130,8157,8076,1.4356689453125
76,8167,8181,8165,8173,8136,8146,8163,8157,8169,8162,8143,8157,8168,8080,1.4426722526550293
77,8174,8167,8167,8178,8175,8162,8192,8165,8125,8201,8177,8131,8172,8106,1.4507074356079102
78,8192,8185,8174,8189,8153,8165,8176,8167,8231,8182,8161,8167,8174,8118,1.458005666732788
79,8166,8156,8161,8170,8142,8158,8171,8152,8142,8182,8151,8134,8158,8088,1.465969800949097
80,8183,8167,8176,8177,8155,8165,8172,8153,8126,8183,8149,8139,8158,8091,1.4740004539489746
81,8178,8174,8172,8164,8139,8155,8155,8156,8187,8160,8136,8163,8164,8093,1.4825663566589355
82,8168,8150,8154,8151,8145,8152,8171,8154,8093,8181,8155,8127,8165,8099,1.490563154220581
83,8199,8193,8181,8181,8149,8164,8178,8162,8215,8182,8159,8167,8175,8121,1.4978392124176023
84,8170,8167,8162,8170,8154,8149,8174,8148,8152,8171,8156,8137,8155,8099,1.5059714317321775
85,8170,8155,8161,8169,8151,8145,8169,8150,8099,8165,8154,8134,8157,8092,1.5130069255828855
86,8184,8181,8181,8178,8144,8153,8172,8163,8198,8167,8151,8166,8174,8098,1.521320104598999
87,8166,8161,8153,8170,8171,8143,8186,8151,8107,8194,8160,8113,8160,8092,1.5288293361663818
88,8163,8180,8155,8179,8163,8130,8168,8155,8178,8175,8139,8146,8156,8087,1.537001132965088
89,8145,8160,8158,8176,8156,8129,8175,8161,8149,8172,8139,8142,8151,8071,1.5452466011047363
90,8171,8155,8166,8182,8164,8140,8186,8164,8120,8188,8161,8135,8158,8092,1.553335666656494
91,8173,8167,8161,8164,8142,8123,8161,8155,8199,8166,8151,8162,8174,8096,1.561335802078247
92,8140,8139,8130,8139,8149,8110,8163,8135,8060,8167,8139,8118,8159,8074,1.5680067539215088
93,8164,8169,8154,8176,8157,8133,8165,8147,8130,8164,8131,8155,8161,8093,1.5759692192077637
94,8165,8151,8163,8168,8162,8144,8178,8156,8159,8179,8154,8146,8166,8102,1.5853588581085205
95,8167,8139,8151,8142,8164,8148,8185,8157,8132,8195,8164,8128,8166,8111,1.5919742584228516
96,8175,8181,8162,8160,8150,8150,8166,8164,8237,8177,8140,8165,8169,8109,1.5999853610992432
97,8166,8161,8156,8167,8169,8151,8180,8152,8135,8191,8154,8123,8156,8097,1.6080148220062256
98,8166,8168,8171,8164,8166,8156,8173,8151,8183,8175,8158,8150,8160,8099,1.6159701347351074
99,8159,8166,8176,8170,8168,8152,8174,8164,8204,8179,8149,8149,8164,8086,1.6239159107208252
100,8188,8168,8177,8192,8187,8158,8191,8165,8154,8198,8159,8126,8164,8098,1.632008075714111
101,8175,8181,8171,8182,8170,8156,8168,8157,8239,8168,8156,8160,8167,8099,1.640007495880127
102,8131,8139,8134,8150,8172,8145,8171,8151,8130,8180,8155,8119,8154,8083,1.648111343383789
103,8158,8161,8146,8168,8166,8152,8176,8159,8175,8176,8137,8140,8162,8098,1.6551132202148438
104,8152,8163,8147,8162,8157,8152,8175,8152,8203,8165,8142,8143,8167,8094,1.663006067276001
105,8157,8149,8141,8160,8171,8160,8185,8148,8136,8195,8170,8127,8166,8105,1.671006679534912
106,8171,8171,8162,8180,8162,8163,8174,8158,8254,8189,8164,8173,8177,8129,1.6790060997009275
107,8136,8134,8139,8155,8163,8145,8175,8145,8155,8178,8155,8123,8164,8110,1.6869637966156006
108,8164,8160,8155,8159,8169,8150,8173,8144,8164,8163,8145,8138,8155,8104,1.6949591636657717
109,8165,8171,8161,8169,8176,8154,8171,8147,8211,8157,8145,8153,8159,8100,1.702974557876587
110,8146,8140,8136,8171,8180,8148,8178,8147,8129,8173,8154,8120,8166,8107,1.7110142707824707
111,8177,8175,8167,8190,8168,8153,8177,8169,8265,8173,8155,8171,8179,8126,1.7189900875091553
112,8175,8167,8176,8184,8186,8166,8197,8166,8225,8203,8180,8139,8166,8122,1.7260007858276367
113,8177,8174,8162,8188,8188,8171,8193,8158,8211,8195,8171,8138,8160,8120,1.7340915203094482
114,8158,8168,8142,8182,8174,8156,8174,8157,8229,8158,8148,8149,8158,8099,1.742006778717041
115,8146,8139,8133,8174,8185,8155,8184,8151,8127,8169,8162,8110,8154,8091,1.7500066757202148
116,8157,8164,8150,8172,8170,8155,8177,8160,8243,8170,8161,8159,8172,8112,1.7580060958862305
117,8131,8142,8129,8150,8171,8139,8178,8163,8204,8183,8171,8136,8166,8114,1.7658932209014893
118,8149,8158,8136,8172,8182,8145,8178,8169,8220,8197,8181,8135,8166,8126,1.7745904922485352
119,8165,8177,8158,8178,8176,8150,8177,8168,8310,8197,8176,8162,8175,8126,1.7819783687591553
120,8162,8151,8152,8161,8189,8152,8190,8158,8203,8204,8189,8127,8167,8134,1.7888901233673096
121,8185,8182,8166,8187,8185,8156,8181,8164,8277,8184,8181,8160,8170,8159,1.7970008850097656
122,8178,8166,8155,8187,8190,8148,8190,8159,8233,8192,8178,8137,8163,8149,1.8050062656402588
122,8178,8166,8155,8187,8190,8148,8190,8159,8233,8192,8178,8137,8163,8149,1.80545973777771
123,8191,8163,8164,8177,8192,8146,8191,8165,8220,8195,8183,8139,8160,8150,1.8124783039093015
124,8181,8178,8177,8173,8168,8130,8166,8167,8287,8163,8168,8164,8164,8142,1.8214879035949707
125,8165,8156,8163,8174,8180,8121,8174,8152,8154,8175,8167,8128,8159,8134,1.8289928436279297
126,8197,8181,8188,8195,8179,8142,8175,8171,8252,8179,8175,8177,8172,8159,1.83699631690979
127,8186,8164,8193,8198,8179,8153,8184,8183,8265,8196,8202,8164,8172,8158,1.8449923992156985
240,8192,8167,8195,8211,8191,8154,8186,8173,8224,8201,8197,8140,8164,8152,1.8519949913024905
0,8185,8184,8187,8201,8174,8151,8167,8162,8275,8169,8153,8155,8160,8124,1.8600080013275144
1,8149,8142,8148,8167,8172,8150,8178,8151,8142,8183,8161,8110,8152,8099,1.8680732250213623
2,8162,8168,8167,8184,8163,8156,8167,8160,8220,8180,8171,8155,8168,8126,1.8760461807250977
3,8162,8168,8173,8189,8173,8156,8161,8160,8231,8179,8171,8154,8169,8138,1.8841609954833984
4,8169,8156,8168,8176,8186,8169,8166,8159,8174,8196,8183,8132,8164,8148,1.8920819759368896
5,8166,8176,8182,8177,8165,8176,8153,8176,8271,8186,8181,8166,8173,8153,1.9001145362854004
6,8169,8160,8173,8188,8177,8170,8182,8178,8197,8208,8188,8128,8163,8154,1.9081168174743648
7,8200,8181,8179,8201,8173,8163,8184,8166,8249,8191,8176,8157,8165,8176,1.9150629043579104
8,8162,8169,8175,8178,8156,8152,8156,8150,8216,8157,8173,8155,8165,8155,1.9230060577392576
9,8167,8162,8176,8194,8152,8157,8153,8152,8134,8161,8176,8128,8157,8133,1.9311318397521973
10,8190,8181,8184,8209,8134,8153,8148,8156,8243,8155,8151,8163,8161,8126,1.939124345779419
11,8150,8148,8157,8175,8147,8146,8158,8155,8157,8180,8164,8122,8157,8114,1.947240114212036
12,8159,8173,8172,8197,8145,8170,8159,8180,8217,8186,8183,8147,8166,8125,1.9550065994262693
13,8162,8170,8171,8204,8130,8181,8161,8173,8240,8171,8177,8152,8161,8104,1.9630067348480225
13,8162,8170,8171,8204,8130,8181,8161,8173,8240,8171,8177,8152,8161,8104,1.963629484176636
14,8148,8138,8145,8174,8136,8181,8162,8147,8122,8170,8160,8118,8151,8089,1.9710071086883545
15,8145,8165,8151,8175,8124,8189,8144,8155,8220,8155,8148,8152,8158,8097,1.9790253639221191
16,8136,8150,8138,8172,8140,8197,8158,8154,8163,8175,8169,8118,8153,8104,1.985969305038452
17,8153,8165,8153,8177,8147,8199,8151,8157,8199,8172,8168,8144,8165,8124,1.994002103805542
18,8137,8161,8153,8173,8127,8186,8134,8165,8236,8155,8162,8153,8167,8099,2.001874685287476
19,8144,8140,8141,8169,8132,8186,8151,8158,8130,8172,8168,8112,8155,8087,2.009816169738769
20,8167,8173,8161,8178,8124,8196,8152,8156,8241,8158,8147,8154,8164,8105,2.01882553100586
21,8140,8144,8144,8164,8126,8187,8157,8149,8176,8155,8149,8118,8160,8088,2.026077508926392
22,8164,8151,8144,8173,8123,8185,8148,8151,8169,8155,8153,8129,8167,8097,2.0336594581604004
23,8175,8173,8165,8178,8120,8190,8146,8160,8253,8163,8159,8163,8172,8117,2.041642189025879
24,8173,8159,8172,8169,8136,8193,8171,8159,8202,8187,8184,8132,8161,8130,2.049011707305908
25,8187,8183,8184,8175,8125,8187,8156,8162,8314,8160,8170,8171,8171,8131,2.0569095611572266
26,8168,8160,8164,8175,8138,8187,8162,8166,8270,8177,8176,8151,8172,8118,2.064953327178955
27,8183,8173,8177,8193,8143,8201,8178,8182,8293,8203,8206,8160,8172,8143,2.072970151901245
28,8171,8185,8183,8185,8117,8191,8163,8183,8359,8185,8199,8175,8170,8131,2.081007719039917
29,8153,8151,8150,8166,8127,8191,8167,8164,8213,8187,8171,8123,8153,8100,2.0919888019561768
30,8176,8176,8163,8178,8131,8203,8169,8166,8296,8172,8146,8161,8161,8104,2.096991062164306
31,8147,8155,8156,8162,8130,8184,8172,8163,8268,8177,8170,8140,8165,8096,2.104988574981689
32,8148,8157,8143,8169,8123,8175,8162,8167,8243,8185,8185,8134,8162,8109,2.111988306045532
33,8162,8182,8149,8180,8120,8175,8149,8164,8314,8163,8156,8164,8161,8114,2.119992256164551
34,8146,8151,8144,8170,8147,8172,8159,8148,8196,8166,8161,8125,8160,8108,2.1279914379119877
35,8168,8174,8165,8186,8137,8180,8149,8165,8291,8161,8181,8168,8180,8128,2.1360466480255127
36,8172,8172,8156,8181,8139,8176,8163,8175,8291,8180,8192,8159,8176,8141,2.144045114517212
37,8171,8171,8152,8182,8154,8178,8178,8171,8240,8185,8175,8146,8163,8147,2.152045249938965
38,8158,8171,8158,8180,8133,8180,8163,8173,8304,8158,8145,8178,8163,8125,2.160046339035034
39,8163,8144,8147,8173,8147,8180,8179,8171,8201,8189,8167,8137,8153,8116,2.1680455207824707
40,8202,8190,8182,8201,8165,8189,8174,8180,8287,8195,8177,8167,8163,8134,2.1759636402130127
41,8167,8178,8183,8196,8167,8181,8156,8168,8271,8174,8170,8157,8164,8110,2.182981014251709
42,8152,8159,8163,8192,8164,8170,8147,8159,8190,8170,8178,8134,8163,8104,2.190979242324829
43,8167,8181,8166,8201,8145,8158,8141,8171,8288,8174,8185,8167,8172,8117,2.198472261428833
44,8157,8155,8150,8190,8149,8156,8165,8168,8199,8208,8191,8130,8167,8120,2.206695079803467
45,8174,8172,8161,8193,8140,8166,8165,8169,8251,8191,8173,8161,8179,8140,2.214714527130127
46,8144,8159,8150,8171,8137,8159,8154,8173,8254,8176,8185,8158,8175,8137,2.2230067253112797
47,8140,8152,8140,8168,8157,8159,8163,8180,8190,8207,8204,8140,8164,8143,2.230818510055542
48,8174,8185,8156,8189,8149,8167,8167,8191,8305,8204,8174,8182,8173,8156,2.239006757736206
49,8170,8155,8139,8177,8161,8171,8177,8177,8200,8200,8170,8131,8163,8148,2.246044158935547
50,8179,8175,8155,8189,8167,8192,8157,8170,8209,8173,8176,8153,8163,8148,2.253783226013184
51,8174,8190,8172,8202,8166,8214,8156,8173,8239,8165,8175,8172,8157,8140,2.26177716255188
52,8182,8167,8170,8197,8180,8234,8182,8177,8168,8186,8180,8141,8156,8143,2.270006895065308
53,8176,8180,8177,8192,8170,8240,8166,8182,8267,8174,8182,8166,8177,8129,2.278005599975586
54,8149,8165,8155,8192,8178,8233,8169,8174,8194,8200,8195,8129,8168,8097,2.2859556674957275
54,8149,8165,8155,8192,8178,8233,8169,8174,8194,8200,8195,8129,8168,8097,2.286803960800171
55,8184,8181,8172,8217,8180,8232,8170,8182,8230,8211,8190,8154,8161,8124,2.293843030929565
56,8177,8179,8180,8204,8177,8222,8164,8185,8273,8198,8192,8171,8171,8135,2.3018009662628174
57,8160,8162,8156,8192,8188,8216,8178,8175,8170,8202,8203,8132,8171,8126,2.309786081314087
58,8176,8186,8165,8206,8168,8212,8166,8176,8244,8173,8180,8169,8168,8131,2.3170065879821777
59,8158,8160,8149,8195,8170,8214,8173,8174,8166,8182,8186,8142,8161,8132,2.3250062465667725
60,8176,8177,8154,8208,8178,8230,8183,8179,8205,8204,8194,8162,8173,8158,2.333007574081421
61,8173,8189,8168,8212,8175,8225,8181,8177,8283,8194,8178,8181,8170,8153,2.3409743309021
62,8164,8164,8162,8202,8187,8207,8184,8164,8154,8191,8180,8132,8158,8134,2.34897780418396
63,8182,8198,8174,8209,8173,8197,8169,8172,8225,8169,8182,8171,8172,8137,2.3570070266723637
64,8168,8183,8166,8196,8182,8189,8178,8171,8186,8183,8195,8150,8166,8130,2.365006446838379
65,8195,8185,8180,8205,8192,8185,8180,8172,8188,8194,8196,8155,8164,8150,2.373461961746216
66,8191,8190,8185,8203,8180,8169,8164,8174,8246,8177,8196,8176,8173,8154,2.38047456741333
67,8168,8165,8166,8193,8194,8176,8181,8176,8150,8202,8208,8132,8165,8150,2.3874728679656982
68,8198,8202,8188,8220,8188,8197,8176,8191,8267,8207,8188,8171,8169,8167,2.396284341812134
69,8199,8189,8196,8218,8194,8193,8173,8182,8238,8208,8199,8161,8168,8160,2.4042844772338867
70,8211,8188,8208,8216,8217,8198,8188,8178,8205,8212,8220,8165,8170,8169,2.412320137023926
71,8194,8196,8203,8215,8206,8201,8181,8178,8263,8195,8196,8177,8166,8159,2.420006036758423
72,8153,8153,8161,8193,8194,8188,8168,8156,8104,8188,8169,8115,8145,8125,2.428006649017334
73,8161,8172,8161,8193,8176,8189,8150,8163,8153,8160,8139,8151,8153,8121,2.435454607009888
73,8161,8172,8161,8193,8176,8189,8150,8163,8153,8160,8139,8151,8153,8121,2.436440706253052
74,8141,8165,8147,8184,8187,8194,8169,8179,8158,8172,8149,8142,8165,8116,2.443448066711426
74,8141,8165,8147,8184,8187,8194,8169,8179,8158,8172,8149,8142,8165,8116,2.4444408416748047
75,8146,8165,8140,8192,8200,8208,8187,8185,8136,8197,8167,8130,8168,8132,2.4510066509246826
76,8168,8185,8159,8196,8179,8212,8166,8179,8218,8178,8155,8169,8168,8148,2.459397554397583
77,8168,8162,8161,8190,8196,8208,8164,8164,8101,8189,8178,8138,8161,8154,2.467414140701294
78,8194,8190,8186,8211,8205,8215,8157,8173,8176,8194,8191,8176,8174,8179,2.475409984588623
79,8195,8183,8188,8206,8207,8213,8167,8173,8210,8203,8197,8176,8174,8186,2.483001232147217
80,8221,8186,8201,8223,8228,8218,8182,8180,8190,8224,8220,8172,8175,8207,2.491006135940552
81,8242,8224,8239,8250,8227,8220,8173,8202,8319,8222,8230,8218,8184,8220,2.4990124702453613
82,8223,8193,8231,8237,8236,8213,8190,8200,8242,8248,8245,8173,8166,8204,2.505969762802124
83,8230,8199,8226,8240,8219,8209,8183,8195,8283,8239,8234,8189,8164,8195,2.5140135288238525
84,8196,8181,8194,8215,8192,8194,8156,8178,8238,8213,8210,8173,8158,8159,2.522008180618286
85,8180,8163,8168,8196,8194,8194,8151,8159,8101,8203,8203,8133,8151,8142,2.5295541286468506
86,8179,8191,8175,8209,8186,8201,8145,8162,8182,8178,8192,8174,8162,8146,2.537572860717773
87,8153,8161,8152,8201,8197,8200,8154,8161,8103,8195,8194,8142,8160,8143,2.5456080436706543
88,8180,8175,8162,8208,8192,8204,8150,8166,8149,8198,8183,8155,8169,8159,2.553225040435791
88,8180,8175,8162,8208,8192,8204,8150,8166,8149,8198,8183,8155,8169,8159,2.554217338562012
89,8179,8180,8169,8200,8186,8205,8153,8165,8173,8190,8177,8158,8168,8149,2.562217712402344
90,8167,8162,8166,8191,8193,8215,8161,8161,8079,8199,8183,8135,8156,8145,2.5700061321258545
91,8175,8187,8185,8198,8166,8212,8132,8162,8180,8179,8166,8179,8165,8155,2.577005624771118
92,8175,8168,8180,8194,8175,8201,8133,8155,8106,8192,8175,8153,8160,8156,2.5852441787719727
93,8207,8191,8207,8218,8187,8224,8138,8167,8144,8200,8186,8181,8163,8175,2.5932440757751465
94,8216,8205,8220,8228,8183,8232,8145,8177,8223,8203,8192,8191,8167,8169,2.6010067462921143
95,8221,8184,8208,8218,8206,8229,8175,8169,8153,8231,8214,8154,8167,8173,2.609006881713867
95,8221,8184,8208,8218,8206,8229,8175,8169,8153,8231,8214,8154,8167,8173,2.609426021575928
96,8215,8204,8222,8220,8202,8241,8166,8184,8265,8222,8212,8208,8176,8186,2.616446018218994
96,8215,8204,8222,8220,8202,8241,8166,8184,8265,8222,8212,8208,8176,8186,2.6174464225769043
97,8186,8179,8200,8210,8199,8243,8169,8185,8197,8233,8209,8172,8162,8169,2.6244542598724365
97,8186,8179,8200,8210,8199,8243,8169,8185,8197,8233,8209,8172,8162,8169,2.6254472732543945
98,8215,8193,8204,8221,8195,8243,8175,8169,8177,8226,8204,8165,8163,8178,2.633007764816284
99,8207,8202,8216,8218,8185,8243,8169,8168,8232,8211,8212,8190,8173,8175,2.639995574951172
100,8189,8175,8193,8210,8199,8254,8186,8185,8151,8250,8223,8153,8167,8170,2.6479899883270264
101,8206,8198,8192,8218,8188,8262,8188,8195,8252,8241,8196,8182,8170,8179,2.6559712886810303
102,8170,8168,8172,8195,8178,8243,8186,8178,8182,8217,8184,8148,8152,8154,2.664006233215332
103,8177,8168,8171,8199,8176,8239,8180,8179,8149,8204,8173,8145,8151,8147,2.672006607055664
104,8182,8181,8178,8203,8168,8246,8173,8182,8220,8194,8156,8169,8169,8141,2.6799776554107666
105,8169,8158,8161,8192,8170,8243,8182,8169,8115,8221,8178,8136,8171,8142,2.6879775524139404
106,8208,8196,8186,8205,8155,8236,8170,8177,8199,8209,8183,8186,8171,8171,2.695969820022583
107,8208,8185,8193,8197,8167,8234,8174,8167,8153,8195,8179,8174,8161,8170,2.70298171043396
108,8218,8183,8206,8202,8176,8237,8176,8154,8110,8192,8178,8168,8165,8172,2.71101975440979
109,8224,8201,8217,8207,8159,8215,8166,8159,8202,8186,8177,8200,8173,8168,2.719366312026977
110,8209,8175,8190,8201,8177,8200,8193,8167,8119,8217,8192,8159,8157,8160,2.727366209030152
111,8218,8199,8201,8214,8172,8205,8189,8186,8210,8214,8187,8189,8165,8166,2.735006332397461
112,8202,8191,8205,8202,8166,8190,8185,8190,8191,8211,8196,8174,8170,8151,2.7430062294006348
112,8202,8191,8205,8202,8166,8190,8185,8190,8191,8211,8196,8174,8170,8151,2.7435617446899414
113,8224,8198,8208,8215,8180,8183,8196,8192,8151,8221,8207,8166,8165,8166,2.751005887985229
113,8224,8198,8208,8215,8180,8183,8196,8192,8151,8221,8207,8166,8165,8166,2.7515809535980225
114,8220,8211,8204,8229,8169,8180,8179,8195,8252,8204,8194,8193,8169,8165,2.758589506149292
115,8169,8162,8161,8196,8163,8170,8174,8184,8135,8218,8196,8135,8162,8132,2.766461133956909
115,8169,8162,8161,8196,8163,8170,8174,8184,8135,8218,8196,8135,8162,8132,2.7674484252929688
116,8164,8174,8147,8180,8141,8162,8156,8180,8166,8207,8180,8163,8164,8126,2.773460626602173
116,8164,8174,8147,8180,8141,8162,8156,8180,8166,8207,8180,8163,8164,8126,2.774449110031128
117,8139,8162,8127,8162,8137,8146,8145,8164,8130,8189,8170,8159,8156,8109,2.7820074558258057
118,8150,8154,8124,8172,8150,8152,8151,8162,8056,8192,8168,8139,8156,8113,2.790006637573242
119,8179,8185,8147,8185,8135,8162,8153,8182,8169,8180,8154,8185,8169,8127,2.797955274581909
120,8174,8156,8147,8171,8146,8158,8175,8182,8101,8205,8181,8159,8165,8136,2.80596923828125
121,8204,8176,8178,8192,8143,8166,8168,8181,8179,8201,8197,8193,8177,8165,2.814006328582764
122,8205,8180,8179,8187,8137,8170,8166,8174,8194,8183,8184,8193,8173,8154,2.822054147720337
123,8199,8163,8165,8171,8159,8175,8182,8170,8100,8185,8182,8157,8159,8147,2.830005884170532
124,8207,8183,8181,8180,8155,8176,8168,8186,8199,8168,8179,8192,8169,8155,2.837002992630005
125,8202,8163,8169,8176,8164,8174,8170,8182,8114,8181,8196,8160,8169,8152,2.844994306564331
126,8218,8185,8185,8192,8168,8189,8166,8187,8162,8181,8196,8187,8174,8166,2.853005886077881
127,8203,8180,8188,8192,8165,8193,8167,8198,8211,8184,8183,8189,8169,8157,2.861015796661377
240,8186,8149,8154,8168,8165,8185,8168,8182,8082,8178,8177,8136,8154,8141,2.869015455245972
0,8167,8168,8146,8157,8129,8175,8132,8165,8118,8124,8150,8168,8156,8125,2.87701678276062
1,8144,8143,8131,8145,8127,8169,8139,8158,8030,8139,8147,8143,8152,8112,2.8850467205047607
2,8168,8150,8137,8151,8143,8181,8155,8175,8071,8161,8157,8160,8160,8133,2.893007755279541
3,8146,8148,8131,8149,8145,8178,8149,8181,8130,8151,8160,8165,8169,8120,2.9001595973968506
4,8136,8135,8124,8153,8153,8167,8152,8171,8036,8158,8160,8133,8166,8118,2.908162832260132
5,8174,8177,8158,8169,8140,8163,8142,8182,8138,8144,8152,8188,8172,8141,2.9159703254699707
6,8175,8159,8152,8156,8150,8162,8153,8181,8078,8155,8165,8155,8164,8137,2.9240071773529053
7,8194,8166,8160,8166,8152,8170,8158,8175,8072,8154,8161,8157,8169,8152,2.9324421882629395
8,8179,8176,8171,8167,8141,8162,8151,8177,8126,8135,8161,8182,8171,8154,2.940002202987671
9,8169,8153,8152,8160,8159,8156,8163,8186,8034,8154,8177,8143,8154,8147,2.9484663009643555
10,8195,8174,8154,8171,8152,8159,8155,8194,8138,8154,8150,8182,8160,8145,2.9555952548980717
11,8162,8150,8136,8148,8163,8153,8162,8181,8091,8171,8154,8161,8161,8135,2.963594675064087
11,8162,8150,8136,8148,8163,8153,8162,8181,8091,8171,8154,8161,8161,8135,2.964590549468994
12,8166,8165,8142,8156,8180,8165,8169,8196,8105,8187,8172,8155,8166,8152,2.971006393432617
13,8172,8178,8149,8160,8157,8168,8160,8197,8186,8162,8149,8171,8169,8139,2.978978395462036
14,8147,8142,8126,8139,8155,8160,8171,8171,8042,8158,8149,8133,8160,8124,2.987006425857544
15,8159,8171,8138,8155,8152,8158,8158,8182,8126,8154,8156,8178,8171,8149,2.99504828453064
16,8149,8157,8130,8149,8154,8153,8152,8187,8106,8163,8158,8159,8169,8137,3.002535343170166
17,8162,8152,8139,8150,8147,8162,8158,8178,8062,8160,8157,8157,8168,8133,3.0105371475219727
17,8162,8152,8139,8150,8147,8162,8158,8178,8062,8160,8157,8157,8168,8133,3.011528730392456
18,8164,8169,8160,8152,8138,8161,8154,8176,8146,8144,8157,8194,8169,8146,3.019000768661499
19,8151,8144,8145,8140,8165,8165,8167,8173,8059,8172,8170,8151,8161,8148,3.0270097255706787
20,8180,8176,8162,8150,8159,8174,8156,8182,8149,8168,8158,8185,8176,8158,3.0345263481140137
21,8164,8164,8155,8145,8148,8164,8155,8177,8140,8165,8165,8171,8172,8151,3.0414159297943115
22,8163,8158,8146,8152,8153,8164,8161,8172,8089,8171,8177,8149,8159,8160,3.0501902103424072
23,8173,8189,8162,8152,8145,8164,8150,8177,8176,8153,8169,8186,8169,8155,3.058192014694214
24,8157,8157,8154,8138,8167,8163,8166,8173,8079,8175,8174,8147,8167,8134,3.0652663707733154
24,8157,8157,8154,8138,8167,8163,8166,8173,8079,8175,8174,8147,8167,8134,3.066284418106079
25,8167,8169,8164,8160,8172,8182,8170,8183,8148,8170,8157,8171,8167,8143,3.07343864440918
26,8160,8168,8153,8160,8183,8193,8174,8188,8148,8162,8158,8161,8165,8143,3.081446886062622
27,8177,8167,8149,8161,8198,8198,8172,8183,8078,8171,8172,8144,8161,8148,3.090006113052368
28,8177,8180,8155,8164,8169,8187,8140,8169,8152,8137,8141,8179,8165,8135,3.096455335617065
29,8137,8139,8121,8134,8164,8163,8139,8144,8026,8133,8140,8131,8157,8115,3.1044628620147705
29,8137,8139,8121,8134,8164,8163,8139,8144,8026,8133,8140,8131,8157,8115,3.105457305908203
30,8144,8157,8123,8132,8161,8155,8133,8156,8071,8125,8137,8155,8159,8134,3.1134934425354004
31,8139,8155,8123,8133,8149,8139,8131,8162,8091,8111,8108,8154,8154,8121,3.121257066726685
32,8149,8144,8119,8136,8151,8129,8136,8142,8008,8112,8105,8125,8154,8121,3.1287238597869877
33,8162,8174,8142,8145,8139,8127,8114,8148,8125,8104,8122,8170,8171,8143,3.137000322341919
34,8152,8151,8135,8133,8152,8112,8124,8153,8050,8132,8136,8131,8160,8138,3.1450066566467285
35,8179,8170,8151,8146,8158,8105,8126,8149,8065,8127,8123,8148,8161,8141,3.15300726890564
36,8162,8171,8157,8155,8161,8125,8123,8156,8109,8119,8128,8164,8168,8136,3.161006212234497
36,8162,8171,8157,8155,8161,8125,8123,8156,8109,8119,8128,8164,8168,8136,3.161759614944458
37,8158,8159,8151,8164,8188,8155,8143,8171,8066,8160,8153,8144,8166,8142,3.168100357055664
37,8158,8159,8151,8164,8188,8155,8143,8171,8066,8160,8153,8144,8166,8142,3.1690261363983154
38,8181,8195,8174,8174,8189,8155,8141,8177,8199,8168,8155,8194,8173,8157,3.176024913787842
39,8178,8180,8178,8173,8209,8153,8159,8181,8172,8198,8185,8165,8169,8166,3.185022592544556
40,8208,8192,8197,8193,8220,8172,8168,8202,8240,8210,8189,8179,8175,8190,3.192049264907837
41,8182,8185,8183,8176,8207,8163,8161,8195,8269,8188,8167,8183,8171,8166,3.2000482082366943
42,8159,8157,8148,8151,8204,8150,8172,8176,8127,8187,8161,8136,8158,8144,3.2080206871032715
42,8159,8157,8148,8151,8204,8150,8172,8176,8127,8187,8161,8136,8158,8144,3.208437919616699
43,8177,8182,8153,8149,8179,8155,8157,8177,8206,8161,8140,8174,8160,8154,3.2154927253723145
44,8142,8152,8127,8126,8176,8141,8153,8167,8116,8152,8139,8148,8152,8138,3.2234928607940674
45,8155,8159,8126,8142,8181,8128,8157,8169,8099,8152,8145,8161,8166,8149,3.231000661849976
46,8176,8173,8145,8151,8173,8123,8162,8177,8194,8161,8146,8186,8173,8164,3.2390024662017822
47,8169,8148,8131,8139,8187,8127,8173,8172,8119,8184,8153,8142,8157,8166,3.247000217437744
48,8179,8178,8139,8149,8186,8127,8153,8176,8206,8158,8137,8175,8167,8173,3.255000352859497
49,8165,8161,8139,8135,8199,8116,8156,8173,8160,8176,8154,8154,8170,8168,3.26304292678833
49,8165,8161,8139,8135,8199,8116,8156,8173,8160,8176,8154,8154,8170,8168,3.2633070945739746
50,8178,8162,8151,8146,8200,8128,8163,8181,8158,8199,8175,8161,8169,8183,3.2710120677948
51,8190,8186,8160,8169,8184,8131,8169,8197,8249,8184,8163,8193,8171,8186,3.2785418033599854
52,8200,8172,8153,8168,8215,8126,8196,8195,8160,8209,8179,8155,8163,8189,3.2865493297576904
53,8209,8192,8178,8174,8219,8134,8183,8196,8262,8205,8198,8189,8174,8200,3.2935492992401123
54,8168,8168,8167,8161,8205,8132,8173,8186,8227,8192,8204,8166,8167,8174,3.302006721496582
55,8192,8179,8165,8180,8212,8132,8179,8190,8187,8202,8196,8157,8163,8178,3.309677124023437
56,8213,8201,8166,8181,8204,8122,8174,8198,8265,8197,8172,8182,8168,8180,3.318006753921509
57,8167,8149,8126,8133,8199,8114,8182,8179,8117,8187,8167,8132,8159,8157,3.3263473510742188
58,8153,8170,8133,8138,8184,8126,8174,8185,8179,8166,8165,8171,8165,8165,3.333894968032837
59,8147,8173,8133,8152,8186,8117,8167,8189,8181,8182,8167,8165,8156,8158,3.3418948650360107
60,8167,8163,8131,8143,8187,8103,8156,8172,8101,8174,8153,8146,8149,8158,3.3500070571899414
61,8172,8181,8155,8135,8165,8100,8141,8166,8163,8131,8139,8181,8163,8160,3.3580081462860107
62,8172,8166,8154,8145,8178,8100,8161,8166,8083,8158,8163,8144,8158,8161,3.365006446838379
63,8217,8196,8172,8179,8179,8101,8161,8175,8179,8169,8160,8180,8167,8185,3.373004913330078
64,8205,8187,8180,8173,8184,8099,8162,8175,8207,8165,8163,8181,8174,8187,3.3809940814971924
65,8205,8169,8185,8167,8196,8111,8175,8176,8153,8184,8177,8155,8172,8198,3.388421058654785
65,8205,8169,8185,8167,8196,8111,8175,8176,8153,8184,8177,8155,8172,8198,3.3894081115722656
66,8213,8184,8191,8164,8172,8114,8157,8176,8232,8176,8164,8187,8172,8193,3.3974149227142334
67,8180,8158,8167,8155,8181,8113,8159,8170,8128,8185,8187,8153,8165,8172,3.404973268508911
68,8202,8191,8187,8189,8187,8121,8164,8187,8202,8180,8200,8183,8174,8188,3.413436889648437
69,8198,8188,8187,8188,8178,8109,8171,8180,8227,8171,8189,8175,8168,8178,3.4210946559906006
70,8184,8162,8167,8173,8174,8114,8176,8166,8122,8179,8181,8136,8154,8154,3.428091049194336
71,8184,8181,8161,8171,8144,8125,8151,8177,8192,8150,8146,8168,8155,8134,3.435624599456787
72,8154,8152,8118,8142,8144,8116,8156,8171,8091,8151,8135,8125,8150,8115,3.444007158279419
73,8166,8169,8120,8150,8145,8117,8164,8174,8138,8165,8143,8151,8168,8135,3.4520061016082764
73,8166,8169,8120,8150,8145,8117,8164,8174,8138,8165,8143,8151,8168,8135,3.452650308609009
74,8166,8170,8132,8154,8146,8123,8163,8177,8187,8162,8151,8167,8171,8142,3.4607365131378174
75,8163,8147,8121,8139,8158,8127,8161,8164,8081,8153,8150,8130,8157,8141,3.467775344848633
76,8172,8173,8132,8139,8129,8122,8138,8167,8176,8127,8129,8176,8163,8145,3.4758026599884038
77,8165,8147,8131,8135,8123,8121,8151,8171,8121,8150,8148,8154,8163,8150,3.4840004444122314
78,8193,8154,8157,8158,8128,8135,8155,8177,8155,8158,8165,8172,8170,8181,3.491240978240967
79,8180,8155,8161,8158,8114,8121,8141,8169,8200,8148,8146,8182,8163,8165,3.498995542526245
80,8161,8134,8144,8150,8126,8124,8152,8164,8096,8160,8146,8137,8149,8146,3.5069966316223145
81,8183,8173,8175,8171,8130,8151,8152,8190,8224,8147,8155,8186,8170,8166,3.515000343322754
82,8181,8162,8176,8167,8144,8148,8166,8190,8192,8173,8168,8169,8168,8166,3.5230863094329834
83,8187,8169,8173,8173,8142,8137,8159,8177,8177,8182,8158,8165,8161,8165,3.5306191444396973
84,8160,8171,8160,8165,8124,8130,8138,8168,8204,8146,8139,8171,8162,8139,3.5390067100524902
85,8142,8140,8135,8144,8140,8127,8151,8155,8069,8147,8135,8132,8154,8124,3.5470058917999268
86,8159,8164,8152,8151,8140,8132,8149,8172,8175,8145,8126,8179,8162,8147,3.555163860321045
87,8127,8136,8123,8132,8136,8124,8145,8171,8133,8150,8131,8145,8158,8129,3.5621628761291504
88,8122,8135,8105,8121,8116,8121,8125,8153,8058,8136,8116,8130,8158,8118,3.5700066089630127
89,8133,8165,8133,8137,8100,8133,8119,8161,8130,8128,8112,8169,8167,8132,3.5775246620178223
89,8133,8165,8133,8137,8100,8133,8119,8161,8130,8128,8112,8169,8167,8132,3.578517436981201
90,8162,8158,8162,8149,8153,8149,8161,8175,8090,8166,8155,8146,8163,8162,3.5855166912078857
91,8196,8182,8189,8150,8159,8136,8144,8171,8162,8134,8145,8177,8166,8171,3.5940072536468506
92,8160,8159,8162,8138,8116,8105,8111,8155,8075,8107,8124,8149,8158,8138,3.6020069122314453
93,8195,8173,8185,8156,8111,8128,8135,8168,8071,8132,8140,8153,8165,8158,3.609885215759277
94,8223,8192,8237,8160,8134,8156,8154,8183,8217,8133,8148,8196,8176,8172,3.617899894714356
95,8172,8144,8203,8148,8126,8133,8141,8160,8077,8128,8142,8136,8155,8132,3.625001907348633
96,8178,8174,8193,8162,8067,8112,8111,8154,8104,8107,8132,8164,8158,8134,3.633006811141968
97,8190,8176,8211,8160,8096,8124,8139,8172,8152,8145,8189,8184,8180,8170,3.640992641448975
98,8203,8170,8225,8198,8169,8154,8170,8200,8189,8203,8236,8184,8190,8206,3.6489975452423096
99,8197,8194,8216,8220,8149,8145,8146,8195,8284,8182,8198,8198,8180,8191,3.657006025314331
100,8164,8160,8175,8164,8131,8121,8147,8166,8130,8166,8182,8139,8159,8166,3.665006399154663
101,8168,8169,8174,8145,8117,8116,8138,8166,8158,8141,8167,8164,8166,8174,3.673006534576416
102,8155,8153,8163,8139,8103,8107,8128,8157,8135,8126,8134,8154,8160,8154,3.680981397628784
103,8159,8136,8151,8136,8113,8108,8133,8148,8044,8132,8128,8131,8148,8154,3.687981843948364
104,8162,8157,8159,8142,8108,8101,8119,8156,8159,8116,8134,8176,8162,8166,3.695969820022583
105,8154,8132,8151,8130,8113,8095,8129,8155,8089,8133,8148,8141,8163,8161,3.704049825668335
106,8195,8151,8179,8148,8111,8116,8135,8169,8140,8133,8145,8173,8168,8184,3.712045669555664
107,8190,8148,8188,8150,8117,8112,8135,8169,8164,8126,8147,8177,8164,8183,3.720005989074707
108,8173,8132,8177,8142,8134,8101,8139,8160,8086,8137,8156,8143,8156,8173,3.728025913238525
109,8173,8157,8182,8143,8122,8112,8131,8173,8196,8126,8146,8183,8166,8168,3.736554384231568
110,8160,8134,8158,8132,8136,8133,8157,8178,8131,8153,8156,8154,8158,8157,3.744347095489502
111,8186,8154,8166,8160,8151,8145,8160,8184,8183,8168,8157,8176,8162,8168,3.752385854721069
112,8169,8156,8168,8167,8152,8134,8151,8189,8225,8162,8156,8176,8167,8155,3.759397506713867
113,8147,8137,8149,8150,8169,8136,8168,8186,8126,8175,8171,8134,8163,8156,3.7670066356658936
114,8157,8169,8157,8153,8173,8138,8161,8188,8237,8160,8156,8179,8168,8169,3.7750298976898193
115,8134,8143,8129,8141,8181,8122,8167,8177,8165,8161,8146,8144,8159,8150,3.783030033111572
116,8141,8150,8125,8142,8170,8122,8171,8187,8170,8164,8143,8152,8171,8162,3.7910079956054688
117,8141,8162,8142,8143,8162,8126,8175,8203,8251,8181,8151,8177,8176,8180,3.799005508422852
118,8143,8150,8139,8150,8180,8129,8189,8195,8163,8195,8161,8143,8160,8186,3.80702805519104
119,8159,8179,8145,8156,8162,8122,8164,8184,8216,8142,8134,8179,8160,8181,3.815044641494751
120,8148,8153,8130,8135,8161,8107,8155,8171,8128,8134,8135,8157,8154,8160,3.8220677375793457
121,8182,8165,8152,8152,8173,8111,8158,8176,8124,8137,8144,8167,8163,8172,3.8295748233795166
122,8187,8181,8170,8159,8164,8114,8157,8181,8198,8121,8135,8188,8173,8167,3.837925910949707
123,8164,8150,8148,8142,8166,8110,8165,8174,8105,8142,8148,8150,8159,8154,3.845924854278565
124,8168,8172,8154,8153,8144,8101,8144,8179,8190,8130,8142,8189,8160,8157,3.854006290435791
125,8159,8161,8153,8155,8154,8100,8151,8176,8150,8139,8156,8166,8166,8155,3.862005472183228
126,8196,8175,8169,8170,8176,8124,8167,8180,8169,8169,8180,8172,8181,8190,3.870282888412476
127,8181,8186,8162,8166,8160,8125,8146,8178,8258,8153,8173,8196,8178,8184,3.877564907073975
240,8144,8155,8122,8147,8173,8118,8153,8170,8123,8152,8171,8141,8155,8150,3.885556697845459
0,8174,8186,8137,8157,8181,8129,8164,8181,8213,8148,8164,8177,8169,8163,3.893007755279541
1,8148,8167,8133,8145,8189,8130,8168,8181,8210,8157,8170,8164,8173,8157,3.900572061538696
2,8145,8160,8128,8150,8193,8138,8170,8182,8166,8167,8164,8147,8162,8156,3.908573627471924
3,8154,8179,8136,8152,8173,8137,8159,8184,8226,8143,8144,8178,8162,8150,3.9165797233581534
4,8134,8147,8122,8130,8179,8120,8159,8169,8091,8136,8151,8142,8158,8134,3.92457914352417
5,8160,8174,8148,8150,8180,8117,8149,8167,8163,8121,8147,8179,8175,8152,3.932943344116211
6,8161,8170,8153,8156,8180,8122,8158,8164,8178,8132,8160,8176,8175,8163,3.941008090972901
7,8170,8162,8149,8159,8179,8136,8164,8167,8132,8155,8177,8166,8165,8172,3.9491958618164062
8,8175,8175,8158,8156,8159,8138,8141,8169,8210,8131,8161,8199,8169,8163,3.956034898757935
9,8153,8140,8145,8136,8174,8139,8150,8156,8095,8124,8169,8153,8163,8151,3.964027643203736
10,8179,8177,8168,8163,8186,8157,8160,8172,8190,8132,8180,8188,8178,8179,3.972007751464844
11,8179,8185,8165,8168,8196,8160,8167,8180,8238,8170,8188,8191,8174,8181,3.9800057411193848
12,8159,8160,8146,8149,8209,8161,8161,8159,8134,8176,8191,8160,8158,8170,3.988060235977173
13,8144,8175,8156,8151,8191,8162,8135,8158,8196,8116,8172,8189,8164,8154,3.9960649013519287
14,8143,8162,8145,8155,8195,8161,8153,8171,8126,8127,8169,8148,8158,8141,4.004007577896118
15,8173,8188,8151,8174,8189,8168,8161,8182,8194,8145,8162,8177,8161,8165,4.0120062828063965
16,8143,8177,8141,8161,8190,8155,8156,8177,8219,8138,8171,8186,8169,8168,4.020146131515503
17,8139,8154,8132,8155,8204,8157,8171,8176,8146,8150,8181,8157,8171,8173,4.027081489562988
18,8170,8177,8145,8163,8179,8163,8163,8182,8245,8133,8150,8201,8167,8179,4.035009384155273
19,8149,8149,8122,8150,8187,8150,8156,8162,8138,8133,8158,8160,8154,8157,4.042651891708374
20,8158,8164,8140,8154,8185,8149,8140,8163,8160,8130,8183,8170,8167,8163,4.051000595092773
21,8164,8166,8158,8141,8163,8154,8145,8174,8204,8130,8181,8188,8166,8161,4.059000492095947
22,8160,8142,8143,8134,8175,8158,8158,8164,8095,8137,8162,8152,8150,8152,4.0670788288116455
23,8163,8170,8153,8148,8171,8154,8133,8164,8178,8102,8141,8179,8158,8144,4.075079917907715
24,8148,8157,8150,8143,8173,8159,8143,8166,8115,8119,8168,8158,8165,8144,4.082228660583496
25,8157,8171,8157,8164,8172,8176,8149,8176,8135,8132,8177,8186,8175,8170,4.09001350402832
26,8139,8169,8142,8154,8163,8169,8136,8174,8180,8116,8159,8182,8168,8148,4.0980095863342285
27,8138,8136,8118,8127,8179,8169,8159,8166,8076,8138,8166,8131,8157,8136,4.106078147888184
28,8153,8165,8142,8144,8167,8187,8157,8179,8185,8128,8158,8186,8172,8149,4.1141016483306885
29,8121,8147,8127,8142,8155,8187,8158,8181,8138,8127,8162,8160,8161,8129,4.121503829956055
30,8140,8149,8113,8141,8152,8188,8163,8178,8115,8126,8161,8152,8153,8133,4.129517793655396
31,8135,8154,8117,8134,8150,8181,8147,8168,8162,8105,8150,8175,8162,8132,4.138007640838623
32,8122,8128,8116,8126,8153,8168,8139,8150,8046,8108,8151,8146,8161,8125,4.1459126472473145
33,8167,8161,8136,8146,8134,8174,8130,8165,8138,8102,8135,8195,8170,8146,4.153007507324219
34,8158,8152,8122,8141,8156,8181,8152,8177,8122,8130,8153,8170,8170,8146,4.161035537719727
35,8163,8166,8150,8153,8178,8180,8161,8183,8128,8154,8181,8169,8178,8156,4.169026374816895
36,8186,8189,8208,8170,8160,8173,8153,8191,8232,8146,8185,8212,8185,8172,4.177112340927124
37,8187,8159,8210,8166,8176,8186,8178,8193,8145,8167,8208,8169,8173,8180,4.185102701187134
38,8197,8188,8202,8177,8182,8199,8171,8199,8226,8154,8203,8187,8177,8181,4.193007946014404
39,8179,8176,8174,8162,8180,8191,8167,8185,8177,8147,8180,8170,8170,8152,4.201009750366211
40,8184,8169,8170,8161,8182,8198,8168,8175,8126,8155,8177,8164,8164,8145,4.209008932113648
41,8166,8179,8164,8163,8165,8183,8145,8175,8211,8131,8171,8184,8166,8125,4.215974569320679
42,8135,8139,8119,8142,8164,8159,8145,8162,8069,8123,8160,8135,8154,8096,4.223934412002564
43,8153,8163,8134,8145,8159,8168,8143,8167,8116,8110,8148,8177,8167,8107,4.231464862823486
43,8153,8163,8134,8145,8159,8168,8143,8167,8116,8110,8148,8177,8167,8107,4.232461452484131
44,8142,8154,8137,8130,8155,8161,8147,8168,8117,8124,8150,8165,8167,8101,4.24000883102417
45,8144,8132,8122,8124,8153,8151,8150,8165,8051,8140,8145,8140,8160,8108,4.248006582260132
46,8146,8157,8136,8141,8141,8165,8140,8176,8152,8123,8148,8191,8174,8125,4.255970001220703
47,8149,8158,8144,8144,8168,8187,8162,8177,8097,8149,8183,8162,8172,8135,4.263301610946655
48,8186,8184,8167,8149,8159,8194,8156,8175,8163,8134,8175,8178,8172,8156,4.271301746368408
49,8154,8152,8153,8138,8132,8176,8129,8162,8136,8111,8156,8165,8165,8138,4.278302192687988
49,8154,8152,8153,8138,8132,8176,8129,8162,8136,8111,8156,8165,8165,8138,4.279300928115845
50,8156,8143,8146,8151,8149,8191,8133,8166,8066,8139,8175,8147,8165,8137,4.286302089691162
50,8156,8143,8146,8151,8149,8191,8133,8166,8066,8139,8175,8147,8165,8137,4.28730034828186
51,8189,8189,8167,8165,8152,8222,8141,8185,8209,8143,8188,8196,8179,8157,4.2943034172058105
51,8189,8189,8167,8165,8152,8222,8141,8185,8209,8143,8188,8196,8179,8157,4.295243978500366
52,8166,8161,8140,8155,8162,8226,8159,8178,8135,8152,8200,8158,8171,8145,4.302249908447266
52,8166,8161,8140,8155,8162,8226,8159,8178,8135,8152,8200,8158,8171,8145,4.303249835968018
53,8172,8170,8131,8173,8161,8221,8157,8184,8168,8152,8187,8174,8175,8141,4.311250448226929
53,8172,8170,8131,8173,8161,8221,8157,8184,8168,8152,8187,8174,8175,8141,4.311376094818115
54,8159,8169,8127,8159,8159,8220,8154,8188,8194,8150,8188,8180,8174,8130,4.31857705116272
55,8157,8149,8117,8145,8170,8230,8160,8177,8109,8154,8200,8144,8161,8135,4.326526880264282
56,8166,8169,8112,8150,8153,8229,8140,8170,8190,8127,8163,8173,8163,8134,4.3340349197387695
57,8127,8143,8082,8132,8161,8220,8146,8161,8084,8125,8156,8139,8158,8107,4.343033790588379
58,8145,8164,8103,8155,8163,8222,8147,8178,8112,8118,8173,8161,8170,8124,4.350034713745117
59,8176,8178,8122,8165,8154,8216,8149,8186,8186,8125,8174,8178,8179,8144,4.358417749404907
60,8180,8160,8110,8147,8165,8220,8160,8171,8102,8152,8178,8149,8172,8150,4.365970611572266
61,8167,8189,8134,8155,8163,8230,8141,8175,8205,8129,8183,8195,8176,8151,4.374006271362305
62,8150,8176,8131,8163,8176,8228,8154,8181,8168,8141,8209,8164,8173,8142,4.382027864456177
63,8196,8183,8145,8177,8171,8224,8167,8193,8195,8156,8206,8171,8178,8166,4.390026330947876
64,8203,8187,8153,8172,8163,8205,8161,8197,8242,8145,8185,8185,8173,8178,4.398052930831909
65,8181,8162,8084,8160,8182,8194,8169,8181,8123,8155,8193,8143,8163,8180,4.405972242355347
66,8175,8179,8010,8160,8159,8191,8150,8176,8195,8128,8180,8182,8174,8171,4.413139820098877
67,8152,8155,7955,8148,8157,8179,8147,8173,8134,8128,8178,8157,8163,8145,4.420996189117432
68,8176,8167,7946,8167,8170,8186,8152,8177,8130,8144,8174,8153,8160,8155,4.427996397018433
68,8176,8167,7946,8167,8170,8186,8152,8177,8130,8144,8174,8153,8160,8155,4.429502487182617
69,8172,8176,7939,8155,8162,8199,8149,8173,8192,8135,8155,8167,8170,8142,4.437001705169678
70,8144,8152,7935,8136,8173,8208,8162,8166,8083,8140,8161,8130,8163,8123,4.445007085800171
71,8161,8185,7966,8162,8166,8209,8149,8174,8178,8126,8149,8175,8163,8140,4.452880144119263
72,8140,8151,7944,8146,8169,8197,8147,8163,8127,8125,8143,8149,8153,8134,4.460855007171631
73,8138,8150,7942,8138,8181,8204,8151,8160,8088,8126,8145,8140,8158,8135,4.468852043151856
74,8150,8181,7970,8148,8171,8202,8146,8169,8180,8116,8144,8176,8168,8136,4.4769980907440186
75,8149,8149,7965,8146,8181,8189,8156,8164,8070,8136,8159,8140,8163,8134,4.484006643295288
76,8173,8183,7985,8170,8186,8190,8148,8175,8152,8133,8166,8183,8179,8152,4.492128372192383
77,8167,8183,7983,8172,8196,8192,8165,8178,8168,8151,8184,8170,8175,8150,4.499808549880981
78,8173,8168,7984,8170,8201,8198,8174,8170,8127,8154,8184,8151,8161,8152,4.507808446884155
78,8173,8168,7984,8170,8201,8198,8174,8170,8127,8154,8184,8151,8161,8152,4.508803844451904
79,8165,8180,7993,8170,8188,8187,8146,8170,8187,8113,8159,8181,8165,8133,4.516547918319702
80,8155,8165,7984,8167,8205,8177,8163,8172,8093,8142,8172,8149,8164,8128,4.523558139801025
80,8155,8165,7984,8167,8205,8177,8163,8172,8093,8142,8172,8149,8164,8128,4.524548053741455
81,8186,8196,8016,8193,8204,8191,8174,8191,8204,8168,8181,8191,8176,8167,4.531887054443359
82,8159,8182,8011,8184,8198,8184,8162,8188,8206,8162,8177,8175,8168,8158,4.539875984191895
83,8157,8168,7990,8169,8204,8169,8155,8172,8113,8151,8168,8146,8157,8148,4.547006130218506
84,8172,8187,8003,8172,8186,8171,8149,8176,8207,8133,8157,8185,8168,8155,4.554775238037109
85,8150,8158,7996,8163,8196,8182,8164,8179,8128,8161,8164,8143,8162,8146,4.562783241271973
86,8154,8177,8007,8169,8191,8191,8145,8174,8164,8146,8153,8163,8161,8145,4.570818185806274
87,8139,8167,8000,8158,8178,8174,8130,8156,8143,8116,8155,8161,8159,8129,4.578894138336182
88,8158,8159,7991,8159,8193,8166,8143,8149,8068,8128,8163,8142,8157,8135,4.58701229095459
89,8174,8191,8010,8171,8184,8170,8135,8160,8186,8129,8143,8186,8167,8145,4.595017671585083
90,8153,8163,8009,8169,8194,8175,8146,8168,8123,8155,8157,8148,8168,8137,4.603024005889893
91,8189,8177,8028,8185,8199,8183,8155,8185,8179,8152,8159,8167,8172,8152,4.610007047653198
92,8175,8174,8018,8161,8191,8180,8153,8171,8182,8126,8147,8173,8162,8144,4.618006467819214
93,8142,8154,8001,8147,8199,8193,8157,8158,8077,8132,8161,8141,8158,8139,4.625970125198364
94,8159,8184,8027,8174,8199,8211,8155,8183,8210,8130,8157,8180,8173,8153,4.634298086166382
95,8160,8163,8017,8165,8218,8211,8172,8179,8140,8140,8159,8150,8160,8153,4.641923189163208
96,8170,8177,8019,8167,8215,8217,8163,8166,8134,8133,8164,8165,8160,8160,4.649915933609009
97,8161,8180,8025,8167,8198,8211,8149,8162,8174,8136,8165,8175,8167,8148,4.658005952835083
98,8165,8154,8028,8157,8206,8201,8155,8155,8079,8151,8169,8144,8164,8147,4.665970087051392
99,8168,8172,8045,8158,8184,8188,8130,8155,8166,8125,8152,8189,8169,8153,4.673007011413574
100,8135,8145,8012,8144,8175,8169,8123,8141,8089,8131,8145,8155,8156,8128,4.680929899215698
101,8148,8153,8018,8149,8177,8170,8119,8133,8075,8122,8137,8157,8160,8136,4.688939094543457
102,8144,8167,8040,8152,8175,8178,8117,8139,8130,8100,8143,8175,8170,8138,4.697007179260254
103,8140,8149,8028,8152,8182,8189,8138,8144,8038,8125,8155,8134,8157,8126,4.705073833465576
104,8156,8173,8038,8154,8162,8184,8122,8146,8123,8108,8125,8169,8159,8127,4.7130208015441895
105,8125,8148,8035,8136,8173,8164,8125,8139,8075,8110,8139,8145,8161,8112,4.721048831939697
106,8146,8157,8048,8157,8189,8171,8136,8148,8093,8132,8170,8151,8168,8128,4.728055000305176
107,8146,8172,8056,8156,8169,8177,8124,8154,8181,8123,8159,8168,8170,8133,4.737006187438965
108,8113,8137,8036,8129,8174,8174,8121,8140,8065,8133,8155,8117,8159,8123,4.743521690368652
109,8138,8163,8052,8142,8171,8179,8110,8139,8153,8124,8147,8158,8165,8125,4.751546859741211
110,8126,8150,8044,8137,8171,8181,8119,8136,8121,8131,8147,8140,8157,8107,4.7595415115356445
111,8127,8152,8048,8146,8166,8177,8127,8144,8087,8138,8145,8129,8160,8115,4.768007040023804
112,8134,8170,8069,8155,8154,8162,8114,8150,8182,8120,8139,8165,8172,8124,4.775970935821533
113,8129,8144,8054,8144,8176,8161,8129,8138,8094,8137,8151,8131,8158,8125,4.783689498901367
114,8151,8172,8065,8158,8161,8171,8129,8144,8167,8135,8141,8164,8157,8139,4.791689395904541
115,8136,8157,8066,8147,8152,8159,8127,8148,8140,8132,8136,8150,8157,8137,4.80000638961792
116,8143,8145,8067,8148,8168,8157,8125,8143,8085,8127,8139,8135,8161,8139,4.807017087936401
117,8151,8166,8081,8164,8151,8166,8120,8144,8167,8106,8141,8175,8170,8133,4.815007209777832
118,8142,8147,8078,8161,8159,8181,8147,8145,8085,8131,8172,8148,8165,8136,4.823024749755859
119,8167,8174,8102,8170,8166,8201,8148,8163,8182,8140,8173,8183,8173,8159,4.830567598342896
120,8147,8161,8091,8160,8162,8197,8143,8159,8168,8140,8164,8166,8169,8145,4.839005947113037
121,8139,8150,8080,8163,8164,8208,8152,8155,8092,8147,8166,8143,8164,8148,4.847005844116211
122,8141,8171,8088,8166,8155,8216,8144,8167,8206,8130,8141,8180,8174,8149,4.854893684387207
123,8114,8138,8051,8139,8159,8197,8150,8152,8093,8134,8140,8129,8158,8115,4.862905263900757
124,8122,8154,8052,8146,8133,8193,8131,8145,8106,8114,8133,8152,8154,8111,4.869433879852295
124,8122,8154,8052,8146,8133,8193,8131,8145,8106,8114,8133,8152,8154,8111,4.870429754257202
125,8121,8151,8062,8146,8116,8193,8114,8143,8115,8115,8125,8162,8160,8112,4.877429008483887
125,8121,8151,8062,8146,8116,8193,8114,8143,8115,8115,8125,8162,8160,8112,4.878427982330322
126,8138,8143,8065,8144,8133,8205,8129,8141,8058,8145,8144,8139,8167,8128,4.885969638824463
127,8158,8178,8084,8156,8132,8224,8136,8155,8172,8129,8146,8174,8174,8137,4.894006967544556
240,8147,8154,8081,8153,8149,8226,8151,8154,8077,8131,8153,8133,8158,8125,4.902006387710571
0,8162,8168,8098,8168,8149,8223,8141,8155,8099,8127,8148,8158,8160,8135,4.910006523132324
1,8149,8172,8094,8161,8141,8229,8139,8153,8139,8122,8140,8168,8160,8123,4.918102979660034
2,8146,8156,8083,8153,8157,8240,8157,8150,8062,8137,8143,8134,8153,8112,4.926111221313477
3,8158,8174,8102,8165,8138,8231,8144,8157,8157,8123,8135,8170,8162,8117,4.9326331615448
4,8146,8145,8089,8157,8140,8225,8154,8151,8085,8139,8151,8137,8156,8115,4.940631866455078
5,8167,8166,8099,8171,8148,8236,8153,8154,8112,8138,8158,8158,8162,8130,4.948634624481201
6,8148,8175,8099,8171,8141,8228,8146,8160,8165,8134,8156,8172,8168,8123,4.956632137298584
7,8131,8148,8083,8159,8151,8223,8168,8158,8076,8162,8160,8130,8164,8127,4.965188503265381
8,8154,8175,8101,8164,8140,8221,8159,8164,8176,8145,8142,8167,8170,8141,4.973075866699219
9,8139,8149,8079,8148,8136,8205,8156,8154,8099,8149,8139,8136,8157,8126,4.981069326400757
10,8143,8151,8075,8152,8123,8204,8148,8143,8081,8148,8135,8137,8157,8136,4.989006757736206
10,8143,8151,8075,8152,8123,8204,8148,8143,8081,8148,8135,8137,8157,8136,4.98943018913269
11,8128,8162,8081,8145,8110,8200,8135,8145,8146,8133,8135,8150,8162,8125,4.99727988243103
12,8127,8138,8066,8133,8129,8196,8151,8153,8048,8155,8145,8113,8148,8114,5.0042760372161865
13,8155,8160,8083,8143,8117,8197,8138,8156,8112,8133,8124,8161,8154,8128,5.012000322341919
14,8126,8142,8083,8131,8125,8188,8132,8138,8045,8126,8127,8144,8157,8116,5.020328760147095
15,8148,8153,8092,8145,8147,8191,8140,8148,8061,8153,8141,8146,8167,8124,5.027897357940674
16,8174,8169,8108,8153,8145,8195,8151,8167,8175,8160,8144,8179,8173,8135,5.035922765731812
17,8159,8150,8110,8150,8160,8210,8173,8162,8087,8168,8167,8143,8164,8141,5.044007062911987
18,8169,8186,8132,8171,8155,8231,8163,8166,8181,8159,8161,8182,8170,8149,5.052006006240845
19,8156,8164,8111,8157,8162,8220,8163,8156,8133,8164,8151,8157,8157,8120,5.059520244598389
20,8154,8155,8102,8157,8174,8211,8164,8150,8076,8164,8153,8140,8152,8118,5.066543102264404
21,8140,8169,8105,8158,8153,8211,8147,8156,8162,8151,8139,8168,8167,8122,5.074542045593262
22,8121,8133,8076,8134,8148,8204,8150,8145,8059,8164,8140,8124,8160,8114,5.083007335662842
23,8140,8160,8088,8140,8134,8193,8136,8146,8132,8146,8133,8157,8160,8123,5.091006278991699
24,8130,8156,8091,8140,8137,8188,8138,8155,8132,8149,8136,8151,8159,8125,5.099072694778442
25,8150,8148,8096,8150,8148,8197,8152,8166,8104,8171,8142,8144,8165,8146,5.106635332107544
26,8159,8168,8109,8156,8134,8189,8144,8166,8198,8155,8132,8175,8174,8151,5.114627361297607
27,8135,8142,8082,8135,8140,8180,8152,8144,8059,8155,8134,8128,8158,8137,5.123006582260132
28,8157,8166,8103,8143,8133,8188,8140,8145,8091,8129,8130,8166,8166,8148,5.130747556686401
29,8161,8169,8127,8157,8141,8191,8140,8155,8123,8135,8150,8166,8169,8139,5.138006210327148
30,8191,8167,8127,8175,8169,8199,8162,8165,8097,8175,8163,8142,8163,8145,5.145969867706299
31,8198,8187,8139,8177,8163,8200,8162,8173,8199,8164,8149,8184,8174,8155,5.1540069580078125
32,8163,8162,8134,8159,8169,8196,8171,8160,8114,8169,8165,8149,8168,8141,5.162054061889648
33,8183,8180,8143,8175,8161,8199,8159,8156,8160,8164,8162,8168,8168,8145,5.170288562774658
34,8170,8167,8130,8166,8159,8193,8152,8159,8163,8167,8167,8169,8172,8136,5.178242921829224
35,8168,8158,8128,8165,8176,8196,8166,8165,8104,8196,8193,8150,8175,8150,5.185971021652222
36,8178,8186,8144,8173,8166,8200,8157,8164,8220,8176,8174,8189,8173,8160,5.193745136260986
36,8178,8186,8144,8173,8166,8200,8157,8164,8220,8176,8174,8189,8173,8160,5.194777727127075
37,8142,8141,8109,8141,8173,8196,8158,8146,8104,8163,8159,8141,8159,8133,5.201007127761841
38,8156,8157,8114,8150,8167,8197,8151,8154,8127,8156,8155,8160,8172,8147,5.209336757659912
39,8154,8174,8125,8157,8151,8185,8146,8157,8179,8158,8163,8182,8171,8156,5.2167956829071045
40,8149,8150,8118,8151,8165,8184,8159,8148,8077,8168,8170,8155,8154,8147,5.224795579910278
41,8173,8171,8138,8160,8160,8195,8153,8157,8159,8140,8155,8189,8164,8146,5.233007192611694
42,8173,8158,8137,8155,8168,8194,8166,8154,8099,8149,8172,8157,8166,8149,5.241339206695557
43,8196,8180,8158,8169,8161,8198,8164,8155,8129,8153,8175,8171,8168,8165,5.248856067657471
44,8185,8180,8158,8163,8143,8187,8146,8148,8160,8137,8156,8172,8166,8145,5.256858587265015
45,8176,8154,8142,8157,8164,8177,8156,8139,8061,8160,8165,8139,8162,8140,5.2640061378479
46,8194,8183,8167,8173,8169,8189,8156,8160,8208,8164,8170,8195,8173,8164,5.272245645523071
47,8164,8151,8154,8160,8168,8191,8166,8159,8166,8179,8182,8158,8164,8154,5.2799718379974365
48,8172,8156,8158,8174,8166,8198,8167,8157,8147,8185,8186,8158,8166,8155,5.287980556488037
49,8181,8180,8181,8188,8174,8208,8164,8165,8225,8178,8190,8198,8173,8155,5.295898199081421
50,8174,8160,8170,8179,8195,8208,8172,8157,8137,8194,8201,8162,8160,8155,5.304006814956665
51,8173,8178,8162,8181,8170,8201,8152,8154,8196,8161,8174,8180,8164,8152,5.3122923374176025
52,8138,8151,8132,8159,8166,8193,8153,8154,8130,8147,8167,8153,8159,8128,5.319295644760132
53,8149,8153,8124,8155,8180,8204,8157,8159,8120,8158,8167,8155,8154,8139,5.3276917934417725
54,8146,8167,8121,8152,8168,8202,8142,8147,8187,8146,8145,8171,8161,8132,5.335203647613525
55,8134,8140,8111,8145,8173,8196,8150,8131,8072,8153,8155,8130,8159,8124,5.3429365158081055
56,8171,8174,8148,8165,8167,8201,8145,8150,8180,8145,8164,8181,8170,8154,5.350935459136963
57,8164,8162,8145,8156,8170,8198,8157,8159,8167,8157,8168,8169,8166,8149,5.359005928039551
58,8160,8155,8138,8157,8175,8201,8163,8155,8121,8157,8165,8155,8160,8142,5.368332386016846
58,8160,8155,8138,8157,8175,8201,8163,8155,8121,8157,8165,8155,8160,8142,5.36933183670044
59,8165,8175,8150,8162,8155,8191,8147,8152,8204,8138,8156,8188,8165,8150,5.374328851699829
60,8157,8152,8141,8153,8170,8172,8153,8140,8104,8165,8174,8152,8166,8154,5.382329225540161
61,8164,8176,8162,8175,8178,8162,8134,8152,8180,8162,8179,8184,8178,8154,5.390328645706177
61,8164,8176,8162,8175,8178,8162,8134,8152,8180,8162,8179,8184,8178,8154,5.391329526901245
62,8161,8174,8163,8181,8185,8154,8140,8162,8194,8174,8189,8173,8171,8147,5.397329092025757
63,8189,8176,8168,8188,8196,8167,8170,8164,8175,8198,8205,8163,8175,8176,5.405329465866089
63,8189,8176,8168,8188,8196,8167,8170,8164,8175,8198,8205,8163,8175,8176,5.406330108642578
64,8178,8192,8182,8187,8184,8171,8158,8173,8255,8173,8194,8196,8184,8175,5.413329601287842
64,8178,8192,8182,8187,8184,8171,8158,8173,8255,8173,8194,8196,8184,8175,5.414328813552856
65,8141,8157,8152,8164,8186,8162,8161,8160,8107,8169,8182,8139,8156,8139,5.421332120895386
66,8157,8174,8145,8161,8168,8167,8156,8148,8150,8146,8160,8163,8155,8139,5.429834842681885
67,8133,8155,8132,8145,8160,8162,8149,8151,8163,8140,8156,8160,8157,8126,5.43783974647522
68,8132,8145,8122,8147,8178,8156,8163,8160,8092,8161,8158,8135,8155,8130,5.445838689804077
69,8154,8178,8136,8154,8170,8154,8162,8156,8198,8139,8144,8180,8170,8148,5.4540746212005615
70,8128,8141,8115,8125,8176,8149,8154,8132,8095,8130,8148,8141,8162,8137,5.462181091308594
71,8130,8155,8126,8138,8166,8150,8128,8136,8109,8121,8135,8159,8159,8136,5.468981981277466
72,8138,8166,8140,8162,8161,8141,8138,8145,8149,8131,8133,8168,8162,8137,5.476979732513428
73,8160,8154,8133,8164,8178,8143,8157,8134,8094,8144,8143,8139,8160,8149,5.485006809234619
74,8146,8166,8136,8147,8157,8142,8127,8122,8147,8103,8119,8168,8158,8129,5.493006706237793
75,8095,8135,8122,8127,8159,8136,8135,8122,8031,8108,8125,8137,8152,8094,5.501028299331665
76,8140,8166,8153,8161,8177,8149,8155,8161,8125,8143,8146,8172,8174,8132,5.509026765823364
77,8168,8180,8164,8169,8177,8150,8153,8173,8222,8165,8148,8180,8177,8156,5.516502857208252
78,8152,8159,8147,8154,8184,8150,8155,8156,8135,8178,8155,8139,8162,8149,5.525176763534546
79,8148,8181,8158,8163,8173,8152,8145,8159,8229,8153,8145,8182,8166,8140,5.531880855560303
80,8125,8145,8131,8149,8173,8141,8160,8152,8139,8154,8142,8140,8156,8119,5.540120124816895
81,8133,8151,8126,8148,8164,8142,8162,8148,8130,8146,8139,8144,8160,8129,5.548006057739258
82,8123,8165,8138,8147,8152,8143,8148,8153,8190,8134,8139,8173,8169,8135,5.556174993515015
83,8134,8150,8141,8152,8166,8144,8157,8155,8112,8156,8154,8151,8162,8140,5.564176082611084
84,8168,8175,8169,8164,8156,8145,8154,8163,8224,8151,8157,8190,8170,8161,5.572242259979248
85,8159,8157,8167,8146,8164,8139,8165,8155,8181,8172,8181,8163,8168,8170,5.580240488052368
86,8187,8170,8184,8166,8173,8146,8164,8152,8180,8184,8184,8177,8173,8194,5.588006734848023
87,8181,8177,8188,8178,8163,8140,8147,8156,8241,8169,8171,8194,8170,8180,5.595000982284546
88,8161,8150,8159,8162,8171,8137,8166,8161,8140,8187,8183,8145,8149,8156,5.602992534637451
89,8180,8181,8167,8168,8161,8148,8166,8169,8229,8172,8171,8187,8159,8162,5.610993385314941
90,8156,8164,8163,8164,8171,8156,8162,8159,8179,8169,8171,8167,8163,8147,5.6189916133880615
91,8167,8171,8173,8174,8180,8168,8164,8162,8165,8180,8175,8161,8160,8149,5.6270270347595215
92,8162,8179,8175,8158,8157,8163,8164,8164,8237,8161,8159,8182,8159,8141,5.635007858276367
93,8117,8131,8141,8128,8150,8154,8165,8142,8086,8158,8148,8127,8148,8109,5.642995595932007
94,8129,8156,8151,8148,8124,8154,8143,8148,8135,8140,8119,8157,8153,8103,5.650989770889282
95,8137,8157,8155,8146,8128,8150,8158,8155,8130,8151,8130,8155,8155,8107,5.65800666809082
96,8156,8161,8165,8152,8155,8163,8176,8163,8137,8180,8161,8158,8167,8142,5.665969133377075
97,8167,8184,8183,8166,8157,8166,8169,8177,8257,8186,8164,8189,8177,8166,5.673603057861328
98,8158,8158,8168,8155,8169,8155,8181,8170,8152,8196,8169,8145,8156,8161,5.681603193283081
98,8158,8158,8168,8155,8169,8155,8181,8170,8152,8196,8169,8145,8156,8161,5.682599306106567
99,8172,8182,8181,8164,8152,8153,8166,8172,8199,8160,8148,8176,8156,8160,5.690006494522095
100,8167,8173,8190,8163,8149,8153,8172,8176,8187,8159,8153,8168,8167,8157,5.698007106781006
101,8186,8166,8209,8172,8171,8164,8196,8182,8166,8198,8184,8161,8173,8184,5.705969572067261
102,8185,8186,8218,8174,8149,8157,8181,8184,8268,8187,8170,8197,8172,8178,5.713464260101318
102,8185,8186,8218,8174,8149,8157,8181,8184,8268,8187,8170,8197,8172,8178,5.714450836181641
103,8162,8158,8183,8155,8150,8145,8176,8166,8135,8180,8157,8146,8154,8143,5.720462322235107
104,8183,8180,8200,8167,8162,8164,8171,8169,8191,8174,8156,8174,8163,8154,5.728462219238281
105,8162,8168,8198,8154,8161,8164,8175,8167,8199,8182,8151,8165,8159,8141,5.737006187438965
106,8147,8143,8165,8134,8156,8149,8170,8150,8072,8169,8129,8128,8147,8117,5.744765043258667
107,8142,8166,8163,8139,8140,8154,8141,8147,8127,8123,8108,8168,8156,8101,5.75298810005188
108,8129,8150,8156,8139,8154,8173,8161,8146,8050,8146,8128,8143,8153,8100,5.7609803676605225
109,8163,8172,8182,8148,8150,8181,8169,8157,8119,8161,8141,8174,8164,8132,5.76900577545166
110,8158,8168,8180,8141,8146,8176,8154,8162,8164,8166,8154,8179,8171,8136,5.777006149291992
111,8150,8154,8159,8145,8165,8187,8161,8166,8108,8194,8169,8153,8166,8142,5.785006999969482
112,8160,8180,8175,8156,8154,8187,8161,8172,8223,8180,8153,8192,8168,8149,5.792007446289063
113,8156,8152,8172,8144,8166,8184,8176,8165,8146,8187,8155,8153,8161,8142,5.799962759017944
114,8190,8177,8194,8166,8180,8201,8175,8173,8197,8186,8157,8179,8166,8165,5.808009624481201
115,8184,8191,8201,8170,8174,8193,8172,8176,8250,8173,8157,8194,8167,8159,5.816000938415527
116,8172,8166,8187,8158,8180,8183,8185,8165,8132,8182,8163,8149,8164,8140,5.824006795883179
117,8184,8187,8205,8170,8174,8186,8172,8169,8220,8171,8146,8189,8172,8142,5.832006216049194
118,8164,8165,8195,8164,8186,8174,8175,8169,8167,8190,8158,8165,8159,8135,5.840006589889526
119,8182,8176,8198,8171,8181,8173,8167,8173,8185,8190,8167,8172,8164,8145,5.848006010055542
120,8174,8179,8197,8158,8167,8162,8149,8162,8225,8166,8152,8184,8177,8136,5.855304718017578
121,8159,8158,8183,8149,8185,8155,8165,8147,8111,8178,8158,8145,8168,8131,5.862268447875977
121,8159,8158,8183,8149,8185,8155,8165,8147,8111,8178,8158,8145,8168,8131,5.863261938095093
122,8176,8192,8202,8170,8176,8169,8168,8165,8214,8173,8164,8188,8168,8150,5.871007204055786
123,8160,8166,8188,8155,8173,8167,8170,8164,8170,8186,8172,8164,8161,8150,5.879006385803223
124,8175,8165,8188,8159,8172,8161,8159,8152,8158,8188,8162,8163,8166,8164,5.887006044387817
125,8169,8180,8198,8167,8162,8163,8150,8158,8230,8170,8162,8186,8172,8167,5.895028352737427
126,8160,8161,8182,8162,8179,8171,8177,8168,8154,8197,8183,8147,8165,8170,5.903028726577759
127,8188,8190,8202,8172,8182,8181,8175,8175,8263,8199,8165,8179,8174,8182,5.911006689071655
240,8174,8174,8213,8169,8199,8196,8179,8173,8241,8207,8180,8158,8173,8173,5.919001340866089
0,8199,8185,8235,8186,8212,8218,8187,8181,8240,8214,8202,8161,8173,8187,5.925965309143066
1,8198,8198,8239,8180,8195,8206,8172,8173,8303,8193,8190,8188,8174,8181,5.934065341949463
2,8165,8163,8210,8166,8202,8198,8178,8160,8178,8210,8205,8146,8162,8157,5.942063808441162
3,8187,8193,8221,8197,8192,8208,8171,8174,8268,8204,8193,8179,8164,8159,5.9500062465667725
4,8170,8181,8209,8187,8193,8194,8169,8160,8224,8192,8171,8154,8154,8137,5.958175897598267
5,8174,8180,8193,8186,8210,8190,8176,8154,8164,8197,8181,8147,8158,8143,5.966176748275757
6,8192,8204,8176,8200,8200,8185,8173,8167,8267,8191,8191,8193,8175,8162,5.974186182022095
7,8178,8170,8138,8184,8205,8164,8179,8156,8156,8198,8196,8145,8165,8154,5.981194257736206
8,8185,8189,8155,8187,8191,8155,8159,8153,8206,8175,8175,8170,8168,8159,5.989193201065064
9,8170,8184,8162,8182,8182,8156,8159,8154,8204,8176,8176,8171,8170,8160,5.997194766998291
10,8186,8173,8162,8187,8189,8168,8169,8157,8159,8195,8192,8156,8170,8178,6.005194187164307
11,8201,8186,8169,8192,8174,8173,8153,8158,8247,8173,8177,8182,8172,8176,6.013006210327148
12,8177,8160,8156,8175,8192,8172,8168,8148,8142,8180,8177,8141,8160,8158,6.021006107330322
13,8193,8192,8183,8186,8197,8181,8171,8164,8206,8180,8178,8182,8172,8179,6.0284929275512695
14,8190,8184,8183,8172,8192,8181,8170,8168,8219,8180,8191,8182,8176,8179,6.037026643753052
15,8181,8166,8161,8167,8205,8197,8176,8160,8149,8187,8205,8150,8163,8177,6.044621706008911
16,8173,8189,8170,8190,8202,8216,8163,8172,8256,8167,8183,8184,8165,8167,6.052628755569458
17,8163,8161,8163,8185,8214,8224,8177,8165,8162,8185,8183,8143,8160,8143,6.059632778167725
18,8194,8181,8183,8189,8208,8234,8173,8156,8197,8189,8192,8167,8167,8154,6.068006038665772
19,8167,8177,8174,8179,8198,8238,8157,8153,8221,8174,8189,8168,8167,8143,6.076001882553101
20,8144,8154,8146,8175,8202,8251,8154,8149,8119,8171,8178,8134,8165,8134,6.084006786346436
21,8167,8181,8166,8187,8182,8259,8145,8156,8226,8163,8170,8182,8177,8147,6.092005014419556
22,8164,8151,8159,8172,8188,8259,8158,8148,8163,8183,8193,8153,8168,8146,6.100021600723267
23,8166,8164,8164,8172,8189,8262,8152,8148,8173,8170,8190,8164,8170,8158,6.107524871826172
24,8155,8178,8178,8179,8190,8257,8153,8161,8226,8168,8181,8175,8176,8154,6.114514589309692
25,8179,8165,8184,8189,8205,8252,8177,8162,8150,8195,8184,8148,8168,8158,6.123270034790039
26,8201,8185,8210,8190,8186,8246,8153,8150,8217,8158,8164,8192,8169,8165,6.131006956100464
27,8165,8162,8215,8174,8205,8246,8160,8145,8146,8156,8183,8165,8164,8152,6.1386048793792725
28,8182,8180,8253,8203,8228,8267,8189,8178,8210,8190,8203,8176,8171,8169,6.146605491638184
29,8192,8187,8280,8199,8216,8259,8193,8187,8288,8196,8189,8185,8172,8171,6.155001401901245
30,8183,8159,8279,8176,8222,8242,8194,8160,8167,8201,8189,8146,8165,8160,6.162630796432495
30,8183,8159,8279,8176,8222,8242,8194,8160,8167,8201,8189,8146,8165,8160,6.163625478744507
31,8183,8187,8302,8199,8215,8239,8169,8156,8246,8179,8185,8193,8173,8154,6.170634746551514
31,8183,8187,8302,8199,8215,8239,8169,8156,8246,8179,8185,8193,8173,8154,6.171627998352051
32,8166,8177,8274,8201,8218,8229,8171,8158,8186,8190,8192,8167,8164,8145,6.178634166717529
32,8166,8177,8274,8201,8218,8229,8171,8158,8186,8190,8192,8167,8164,8145,6.179628610610962
33,8196,8188,8234,8204,8225,8239,8191,8165,8177,8198,8192,8167,8167,8170,6.187006235122681
34,8175,8184,8196,8188,8207,8246,8186,8165,8225,8168,8179,8185,8172,8163,6.194027423858643
35,8141,8144,8170,8166,8201,8246,8183,8162,8098,8178,8188,8136,8159,8140,6.202026605606079
36,8185,8182,8199,8185,8191,8256,8186,8182,8210,8176,8184,8176,8168,8155,6.21004581451416
37,8173,8168,8186,8175,8191,8247,8200,8169,8165,8167,8182,8157,8167,8149,6.218058347702026
38,8159,8158,8186,8168,8188,8239,8183,8153,8095,8155,8180,8150,8166,8149,6.2263171672821045
39,8187,8187,8220,8181,8182,8240,8173,8172,8206,8167,8179,8191,8176,8163,6.2340087890625
40,8212,8179,8220,8190,8210,8240,8210,8178,8161,8214,8199,8155,8172,8179,6.2420032024383545
41,8204,8192,8218,8194,8185,8244,8197,8171,8225,8182,8184,8181,8171,8182,6.249006271362305
42,8147,8153,8190,8167,8153,8253,8180,8161,8162,8151,8166,8161,8152,8143,6.257156848907471
43,8163,8151,8185,8169,8157,8260,8190,8163,8106,8159,8160,8152,8151,8138,6.264514684677124
43,8163,8151,8185,8169,8157,8260,8190,8163,8106,8159,8160,8152,8151,8138,6.265507698059082
44,8178,8183,8206,8185,8156,8243,8178,8162,8195,8156,8162,8188,8171,8138,6.272507905960083
44,8178,8183,8206,8185,8156,8243,8178,8162,8195,8156,8162,8188,8171,8138,6.273513555526733
45,8156,8161,8204,8184,8180,8239,8186,8163,8116,8192,8195,8147,8165,8130,6.281007289886475
46,8190,8189,8227,8200,8173,8259,8192,8185,8217,8196,8187,8179,8169,8153,6.289001703262329
47,8175,8178,8209,8177,8154,8256,8193,8172,8197,8184,8167,8171,8166,8145,6.297005891799927
48,8153,8164,8186,8168,8157,8252,8184,8154,8106,8183,8165,8150,8162,8134,6.305006742477417
49,8168,8185,8201,8181,8149,8245,8174,8174,8214,8172,8151,8184,8169,8136,6.311981439590454
50,8171,8151,8191,8163,8164,8232,8197,8169,8124,8192,8160,8138,8157,8134,6.320002794265747
51,8174,8170,8195,8166,8161,8231,8182,8153,8154,8173,8158,8163,8159,8137,6.328006744384766
52,8159,8171,8191,8168,8151,8228,8175,8157,8179,8166,8158,8175,8165,8129,6.335969924926758
53,8195,8164,8208,8180,8165,8236,8199,8169,8154,8200,8182,8166,8174,8166,6.344006299972534
54,8210,8192,8239,8191,8157,8232,8176,8158,8263,8182,8185,8205,8180,8185,6.352218627929688
55,8184,8163,8213,8180,8160,8214,8165,8135,8141,8172,8186,8160,8160,8156,6.360060691833496
56,8226,8183,8223,8200,8157,8222,8176,8150,8169,8169,8179,8182,8167,8175,6.368060111999512
57,8215,8188,8236,8192,8154,8224,8180,8158,8215,8171,8192,8190,8179,8176,6.375969648361206
58,8200,8171,8226,8193,8166,8222,8175,8153,8140,8195,8212,8163,8172,8162,6.382981777191162
59,8245,8206,8251,8225,8158,8231,8170,8168,8256,8193,8200,8212,8178,8181,6.390992403030396
60,8236,8188,8253,8212,8175,8233,8202,8169,8193,8208,8216,8177,8175,8185,6.399006605148315
61,8208,8185,8240,8201,8171,8228,8189,8168,8203,8200,8208,8177,8173,8170,6.407005786895752
62,8177,8167,8205,8182,8138,8212,8168,8162,8214,8179,8172,8176,8164,8137,6.414751052856445
63,8168,8141,8178,8159,8137,8207,8190,8148,8089,8183,8165,8131,8156,8131,6.42276668548584
64,8165,8171,8192,8166,8137,8213,8182,8159,8190,8166,8154,8170,8168,8135,6.430721044540405
65,8154,8150,8175,8163,8153,8213,8190,8165,8146,8182,8158,8150,8162,8130,6.438748598098755
66,8183,8153,8177,8165,8152,8207,8196,8157,8142,8184,8160,8162,8165,8155,6.445826292037964
66,8183,8153,8177,8165,8152,8207,8196,8157,8142,8184,8160,8162,8165,8155,6.446821212768555
67,8167,8162,8182,8157,8135,8188,8170,8145,8179,8166,8160,8177,8166,8141,6.454006910324097
68,8166,8148,8173,8161,8148,8188,8169,8147,8086,8189,8174,8151,8157,8134,6.464871883392334
68,8166,8148,8173,8161,8148,8188,8169,8147,8086,8189,8174,8151,8157,8134,6.4658708572387695
69,8212,8180,8193,8176,8144,8194,8172,8158,8200,8176,8167,8207,8168,8169,6.469869136810303
70,8186,8165,8187,8167,8159,8181,8179,8145,8156,8177,8180,8181,8166,8163,6.477869749069214
71,8193,8180,8194,8192,8172,8186,8178,8154,8158,8190,8187,8177,8172,8161,6.48586893081665
72,8209,8182,8188,8193,8166,8189,8179,8169,8241,8181,8174,8194,8176,8157,6.4938695430755615
73,8185,8149,8159,8169,8189,8191,8195,8159,8122,8188,8188,8150,8161,8145,6.501870393753052
74,8200,8197,8190,8197,8187,8208,8193,8172,8223,8193,8194,8198,8171,8156,6.509869575500488
75,8208,8193,8194,8204,8190,8213,8208,8175,8223,8223,8195,8177,8172,8155,6.516872406005859
76,8206,8177,8179,8196,8190,8213,8208,8167,8186,8219,8180,8151,8163,8154,6.524872064590454
77,8166,8177,8169,8181,8163,8205,8184,8168,8235,8179,8147,8166,8158,8129,6.532379388809204
78,8146,8146,8143,8164,8166,8206,8195,8158,8122,8197,8147,8129,8152,8115,6.540381669998169
78,8146,8146,8143,8164,8166,8206,8195,8158,8122,8197,8147,8129,8152,8115,6.541379690170288
79,8178,8177,8164,8181,8164,8225,8191,8165,8221,8192,8151,8178,8170,8141,6.549006700515747
80,8155,8168,8168,8176,8170,8223,8189,8169,8215,8181,8160,8171,8170,8139,6.557351589202881
81,8171,8165,8169,8177,8174,8215,8189,8167,8158,8185,8161,8153,8167,8145,6.5650012493133545
82,8212,8191,8191,8190,8164,8206,8184,8174,8260,8177,8159,8191,8176,8157,6.573006868362427
83,8213,8167,8189,8189,8181,8201,8212,8181,8190,8205,8181,8160,8165,8170,6.58008599281311
84,8228,8185,8202,8193,8174,8195,8207,8181,8248,8190,8160,8184,8166,8186,6.588073492050171
85,8204,8169,8189,8172,8169,8179,8194,8156,8205,8162,8140,8163,8165,8159,6.59597110748291
86,8191,8156,8185,8170,8178,8183,8204,8158,8140,8168,8161,8156,8163,8157,6.604006767272949
87,8180,8177,8205,8188,8161,8187,8196,8184,8272,8173,8176,8211,8174,8164,6.611885786056519
88,8170,8154,8199,8192,8176,8180,8208,8184,8197,8207,8196,8166,8169,8150,6.6198811531066895
89,8215,8186,8220,8213,8188,8182,8204,8181,8239,8200,8184,8186,8174,8160,6.628008127212524
90,8192,8181,8208,8195,8185,8171,8187,8160,8220,8178,8171,8186,8169,8153,6.636317253112793
91,8168,8163,8187,8185,8190,8169,8190,8152,8133,8186,8180,8154,8159,8145,6.643324851989746
92,8182,8183,8196,8191,8167,8171,8188,8174,8252,8175,8158,8185,8167,8134,6.651006460189819
93,8156,8139,8162,8157,8161,8159,8199,8165,8154,8179,8148,8142,8160,8111,6.659006118774414
94,8152,8153,8157,8160,8157,8164,8186,8157,8170,8169,8149,8164,8165,8123,6.667006492614746
95,8157,8170,8168,8171,8154,8170,8174,8162,8209,8167,8152,8175,8164,8130,6.675357103347778
96,8184,8154,8172,8168,8170,8161,8182,8150,8116,8186,8155,8147,8158,8147,6.683006286621094
97,8187,8170,8186,8167,8155,8147,8162,8144,8196,8158,8148,8194,8169,8160,6.691029071807861
98,8153,8137,8162,8157,8156,8152,8165,8143,8112,8159,8161,8159,8164,8142,6.699029207229614
99,8190,8153,8173,8177,8157,8177,8178,8156,8140,8176,8157,8167,8172,8163,6.705971002578735
100,8195,8174,8193,8176,8161,8186,8194,8165,8223,8193,8164,8192,8181,8183,6.714006423950195
101,8192,8165,8196,8179,8187,8196,8219,8172,8174,8231,8202,8169,8176,8189,6.722007036209106
102,8225,8187,8211,8204,8185,8196,8214,8183,8287,8225,8201,8198,8179,8198,6.730076551437378
103,8197,8154,8189,8181,8187,8178,8213,8172,8202,8222,8184,8160,8168,8177,6.738092660903931
104,8180,8164,8180,8171,8172,8190,8203,8168,8173,8213,8162,8167,8171,8168,6.745681047439575
105,8164,8175,8176,8172,8162,8195,8197,8158,8213,8196,8155,8184,8175,8156,6.753686428070068
106,8149,8141,8161,8169,8193,8172,8204,8144,8091,8201,8170,8140,8165,8146,6.762006998062134
107,8161,8164,8167,8177,8183,8157,8180,8150,8164,8180,8144,8176,8166,8143,6.77000617980957
108,8143,8154,8144,8161,8180,8158,8190,8145,8120,8192,8147,8153,8161,8130,6.777246952056885
109,8148,8158,8142,8169,8188,8161,8193,8135,8104,8194,8170,8152,8165,8139,6.785006761550903
110,8146,8153,8141,8171,8164,8141,8165,8128,8141,8162,8166,8172,8165,8124,6.793020963668823
111,8148,8127,8131,8160,8171,8137,8181,8123,8029,8180,8180,8133,8155,8123,6.801023483276367
112,8175,8170,8168,8174,8173,8152,8187,8136,8153,8182,8187,8182,8172,8151,6.809017181396484
113,8160,8149,8164,8159,8169,8145,8183,8128,8120,8183,8188,8164,8170,8142,6.817006349563599
114,8170,8136,8168,8160,8178,8141,8175,8127,8069,8180,8191,8150,8164,8146,6.825006723403931
115,8173,8167,8192,8177,8176,8141,8159,8149,8183,8173,8199,8187,8166,8142,6.833057403564453
116,8171,8153,8182,8182,8188,8147,8177,8156,8114,8207,8220,8158,8158,8135,6.841062784194946
117,8196,8178,8199,8204,8191,8167,8181,8158,8201,8207,8219,8199,8174,8149,6.848074197769165
118,8168,8162,8184,8195,8197,8167,8185,8149,8191,8214,8230,8175,8173,8130,6.856174945831299
119,8153,8145,8154,8173,8189,8164,8189,8138,8107,8221,8229,8145,8160,8125,6.86417555809021
120,8131,8158,8147,8156,8165,8162,8167,8137,8145,8180,8199,8175,8162,8115,6.872008562088013
121,8109,8135,8131,8148,8185,8166,8175,8134,8038,8179,8194,8131,8155,8097,6.880558967590332
122,8144,8156,8144,8168,8177,8178,8174,8140,8121,8169,8187,8162,8169,8119,6.888074159622192
123,8125,8139,8142,8157,8154,8170,8169,8135,8124,8168,8195,8163,8173,8113,6.895969390869141
124,8138,8136,8153,8153,8166,8180,8178,8139,8068,8198,8202,8144,8158,8115,6.904445648193359
125,8164,8173,8179,8163,8175,8197,8177,8148,8185,8182,8188,8182,8163,8130,6.911456108093262
126,8130,8140,8158,8155,8178,8186,8185,8136,8076,8170,8194,8143,8162,8112,6.91900110244751
127,8157,8152,8173,8172,8150,8172,8171,8145,8109,8167,8182,8165,8167,8118,6.927013874053955
240,8172,8158,8188,8168,8158,8177,8171,8148,8158,8183,8191,8173,8172,8138,6.934361457824707
240,8172,8158,8188,8168,8158,8177,8171,8148,8158,8183,8191,8173,8172,8138,6.93536114692688
0,8166,8158,8181,8178,8192,8199,8187,8144,8115,8204,8225,8154,8176,8151,6.943006753921509
1,8178,8178,8197,8194,8164,8200,8185,8153,8215,8190,8211,8190,8176,8150,6.95100736618042
2,8165,8140,8189,8172,8164,8194,8200,8149,8123,8205,8209,8152,8159,8149,6.9584667682647705
3,8170,8166,8201,8187,8176,8208,8191,8159,8174,8208,8221,8175,8167,8167,6.966467618942261
3,8170,8166,8201,8187,8176,8208,8191,8159,8174,8208,8221,8175,8167,8167,6.967461585998535
4,8163,8176,8200,8193,8168,8201,8181,8158,8214,8200,8213,8180,8169,8144,6.973523378372192
4,8163,8176,8200,8193,8168,8201,8181,8158,8214,8200,8213,8180,8169,8144,6.974545955657959
5,8159,8151,8183,8172,8169,8189,8191,8140,8096,8198,8193,8141,8156,8120,6.981602430343628
6,8158,8178,8186,8168,8151,8189,8179,8149,8186,8167,8169,8181,8157,8120,6.98959493637085
7,8139,8149,8159,8160,8157,8189,8198,8153,8124,8181,8179,8150,8152,8122,6.99800705909729
8,8155,8147,8161,8167,8160,8198,8203,8153,8139,8178,8182,8159,8169,8142,7.00597071647644
9,8142,8160,8161,8160,8143,8191,8188,8151,8177,8154,8169,8167,8170,8124,7.014009237289429
10,8145,8146,8145,8150,8132,8177,8193,8139,8054,8164,8167,8133,8150,8114,7.021012544631958
11,8164,8156,8163,8151,8101,8168,8172,8137,8113,8133,8153,8176,8166,8124,7.029013633728027
12,8141,8133,8163,8138,8115,8163,8181,8136,8056,8142,8165,8146,8172,8117,7.037099123001099
13,8166,8157,8176,8156,8140,8178,8195,8140,8090,8167,8173,8163,8169,8145,7.045006990432739
14,8161,8161,8174,8155,8128,8178,8179,8138,8154,8154,8168,8190,8167,8149,7.053161144256592
15,8150,8133,8162,8148,8130,8165,8187,8139,8043,8167,8185,8140,8165,8131,7.061158180236816
16,8187,8176,8197,8178,8131,8164,8190,8154,8159,8167,8184,8178,8174,8133,7.069006204605103
17,8161,8157,8190,8165,8147,8169,8192,8142,8119,8170,8186,8154,8164,8109,7.077188491821289
18,8152,8150,8177,8157,8151,8185,8183,8128,8067,8164,8187,8143,8161,8098,7.083926200866699
19,8164,8173,8191,8172,8137,8186,8178,8135,8141,8161,8186,8174,8169,8103,7.09192419052124
20,8164,8153,8187,8168,8159,8189,8201,8143,8074,8191,8203,8142,8169,8118,7.09996771812439
21,8158,8173,8185,8170,8156,8193,8191,8148,8171,8175,8190,8172,8179,8132,7.108006715774536
22,8124,8158,8164,8160,8147,8174,8187,8149,8143,8180,8195,8153,8168,8115,7.116044282913208
23,8151,8161,8170,8167,8151,8160,8202,8164,8122,8201,8199,8151,8165,8127,7.1240434646606445
24,8159,8172,8176,8157,8144,8151,8195,8164,8195,8176,8177,8173,8177,8128,7.132006645202637
25,8129,8138,8146,8146,8149,8144,8193,8140,8057,8178,8184,8122,8162,8105,7.139995336532593
26,8161,8170,8166,8175,8134,8141,8182,8149,8124,8165,8172,8162,8159,8110,7.148052215576172
27,8175,8164,8178,8162,8137,8131,8185,8144,8111,8156,8173,8163,8166,8112,7.156073331832886
28,8183,8165,8187,8164,8154,8140,8188,8134,8065,8171,8203,8156,8172,8130,7.164006233215332
29,8186,8196,8201,8183,8142,8140,8179,8146,8179,8167,8200,8191,8173,8125,7.171006917953491
30,8174,8163,8185,8166,8159,8129,8190,8133,8064,8173,8192,8147,8161,8103,7.1787168979644775
31,8186,8183,8212,8181,8168,8143,8177,8128,8123,8160,8199,8181,8176,8119,7.186645746231079
32,8175,8189,8219,8198,8168,8154,8185,8140,8176,8176,8217,8179,8175,8114,7.195008277893066
33,8189,8177,8198,8193,8171,8159,8200,8142,8120,8191,8210,8146,8159,8112,7.203692436218262
33,8189,8177,8198,8193,8171,8159,8200,8142,8120,8191,8210,8146,8159,8112,7.203949451446533
34,8181,8179,8199,8173,8152,8158,8171,8140,8193,8160,8188,8180,8164,8113,7.210818767547607
34,8181,8179,8199,8173,8152,8158,8171,8140,8193,8160,8188,8180,8164,8113,7.211811780929565
35,8130,8144,8177,8160,8153,8148,8174,8140,8106,8177,8203,8146,8164,8101,7.218910217285156
36,8154,8170,8171,8179,8145,8151,8184,8152,8156,8178,8188,8167,8172,8115,7.226939678192139
37,8152,8167,8163,8157,8143,8163,8183,8143,8152,8165,8161,8163,8171,8107,7.234008073806763
38,8132,8148,8168,8145,8153,8179,8185,8142,8075,8187,8177,8137,8169,8107,7.242006540298462
39,8151,8180,8184,8176,8138,8179,8182,8160,8203,8188,8184,8185,8176,8122,7.25001335144043
40,8159,8156,8166,8172,8153,8179,8204,8144,8131,8198,8193,8158,8165,8120,7.258012294769287
41,8175,8169,8198,8171,8159,8198,8201,8141,8165,8192,8199,8180,8174,8141,7.266092777252197
42,8165,8171,8206,8169,8145,8187,8183,8151,8205,8186,8200,8184,8175,8147,7.2741498947143555
43,8176,8150,8179,8169,8153,8175,8187,8142,8100,8196,8202,8149,8162,8145,7.282151460647583
44,8188,8178,8200,8182,8141,8181,8173,8143,8189,8174,8189,8195,8167,8133,7.290161848068237
45,8161,8156,8190,8167,8147,8176,8181,8143,8112,8181,8185,8156,8159,8101,7.297005891799927
46,8188,8168,8181,8168,8158,8190,8188,8148,8119,8180,8172,8157,8161,8108,7.304703712463379
47,8172,8178,8180,8161,8155,8203,8184,8144,8169,8160,8166,8175,8162,8096,7.313008546829224
48,8150,8157,8169,8157,8165,8202,8197,8141,8066,8168,8171,8142,8154,8082,7.320773363113403
49,8165,8178,8170,8168,8159,8201,8196,8154,8162,8154,8154,8175,8164,8095,7.328773736953735
50,8132,8152,8145,8148,8164,8194,8208,8152,8120,8173,8172,8138,8162,8088,7.336816310882568
51,8148,8166,8157,8158,8159,8185,8206,8156,8135,8194,8183,8153,8167,8108,7.345007419586182
52,8167,8175,8177,8164,8143,8170,8190,8158,8209,8189,8169,8186,8173,8132,7.352553606033325
52,8167,8175,8177,8164,8143,8170,8190,8158,8209,8189,8169,8186,8173,8132,7.353548049926758
53,8158,8142,8169,8152,8164,8170,8200,8151,8106,8201,8181,8140,8164,8139,7.360553503036499
54,8181,8171,8187,8163,8156,8175,8187,8157,8195,8182,8172,8175,8168,8144,7.368562459945679
55,8178,8158,8183,8157,8156,8174,8188,8141,8150,8181,8177,8168,8169,8138,7.376586198806763
56,8192,8163,8196,8174,8166,8193,8194,8140,8149,8192,8194,8179,8176,8156,7.385006904602051
57,8204,8179,8210,8179,8159,8195,8192,8160,8255,8187,8190,8198,8177,8156,7.392006397247314
58,8198,8153,8195,8156,8174,8188,8213,8155,8152,8199,8192,8149,8163,8150,7.399618625640869
58,8198,8153,8195,8156,8174,8188,8213,8155,8152,8199,8192,8149,8163,8150,7.400614976882935
59,8201,8186,8215,8171,8165,8201,8207,8165,8243,8188,8192,8197,8172,8167,7.407867670059204
60,8188,8172,8211,8175,8166,8208,8213,8173,8243,8203,8204,8183,8169,8158,7.415889263153076
61,8204,8164,8202,8169,8176,8211,8214,8158,8187,8208,8198,8159,8164,8157,7.424007654190063
62,8178,8175,8195,8156,8156,8202,8183,8147,8227,8175,8177,8188,8170,8144,7.43097996711731
63,8144,8142,8162,8149,8158,8194,8193,8148,8103,8179,8172,8146,8156,8122,7.439054250717163
64,8167,8161,8168,8158,8148,8202,8199,8148,8165,8153,8140,8169,8159,8124,7.447044610977173
65,8136,8145,8165,8135,8141,8195,8185,8131,8129,8131,8133,8156,8156,8099,7.4550089836120605
66,8141,8144,8164,8146,8151,8190,8179,8130,8072,8145,8153,8143,8156,8100,7.463007688522339
67,8158,8169,8172,8163,8145,8186,8175,8137,8176,8139,8142,8178,8167,8109,7.471008062362671
68,8133,8138,8156,8144,8157,8182,8185,8131,8067,8158,8145,8137,8163,8099,7.479387283325195
69,8174,8165,8184,8165,8158,8195,8178,8142,8139,8162,8154,8178,8172,8120,7.487399816513061
70,8184,8166,8195,8173,8162,8200,8190,8138,8178,8160,8167,8181,8173,8132,7.494405508041382
71,8166,8152,8187,8167,8167,8205,8201,8135,8117,8167,8179,8156,8174,8142,7.502000570297241
71,8166,8152,8187,8167,8167,8205,8201,8135,8117,8167,8179,8156,8174,8142,7.502311944961548
72,8180,8182,8202,8172,8151,8213,8184,8152,8229,8169,8173,8201,8185,8153,7.510259628295898
73,8195,8165,8203,8169,8174,8220,8203,8151,8165,8201,8185,8171,8175,8162,7.518274307250977
74,8211,8180,8230,8199,8186,8227,8202,8153,8221,8187,8179,8189,8179,8183,7.5259716510772705
75,8187,8176,8220,8198,8177,8217,8184,8150,8236,8166,8162,8180,8170,8155,7.53400707244873
76,8180,8159,8188,8167,8176,8215,8179,8134,8120,8170,8153,8140,8150,8131,7.542029142379761
77,8178,8172,8196,8162,8151,8208,8163,8132,8182,8144,8131,8175,8160,8126,7.550026655197143
78,8151,8136,8179,8158,8154,8195,8183,8132,8099,8161,8133,8137,8161,8114,7.558212518692017
79,8157,8149,8171,8154,8153,8196,8178,8137,8123,8158,8124,8154,8160,8120,7.565211057662964
80,8133,8155,8167,8139,8141,8183,8157,8134,8141,8141,8118,8166,8159,8108,7.573213338851929
81,8156,8149,8181,8159,8161,8179,8179,8131,8065,8169,8139,8138,8163,8124,7.58121132850647
82,8198,8187,8219,8185,8165,8186,8183,8139,8195,8159,8139,8183,8172,8151,7.589211940765381
83,8154,8158,8197,8162,8177,8183,8184,8133,8120,8153,8150,8144,8162,8122,7.597211360931396
84,8158,8164,8189,8171,8176,8195,8182,8141,8119,8163,8145,8145,8163,8116,7.60521125793457
85,8171,8169,8195,8169,8157,8197,8179,8138,8163,8154,8126,8168,8162,8119,7.613215684890747
86,8163,8148,8195,8156,8173,8195,8191,8133,8065,8158,8148,8141,8158,8127,7.621215581893921
87,8177,8188,8221,8179,8172,8203,8188,8160,8201,8164,8156,8178,8171,8144,7.628215551376343
88,8163,8165,8198,8173,8172,8193,8202,8156,8159,8187,8153,8140,8166,8132,7.63584041595459
89,8184,8160,8187,8168,8163,8178,8206,8144,8119,8176,8145,8138,8168,8139,7.644006729125977
90,8176,8172,8192,8160,8149,8164,8194,8143,8169,8154,8142,8162,8175,8135,7.6520068645477295
91,8148,8150,8176,8152,8168,8165,8203,8137,8074,8174,8157,8124,8164,8126,7.660006761550903
92,8149,8164,8183,8159,8148,8169,8186,8145,8153,8147,8137,8155,8165,8128,7.668006420135498
93,8119,8134,8167,8137,8129,8158,8181,8140,8084,8138,8126,8123,8157,8107,7.6759703159332275
94,8132,8143,8168,8147,8133,8156,8184,8134,8049,8154,8136,8123,8159,8107,7.684096097946167
95,8157,8179,8184,8166,8133,8157,8181,8146,8155,8154,8147,8160,8174,8112,7.691093444824219
96,8171,8161,8180,8161,8144,8162,8210,8153,8091,8187,8163,8120,8168,8122,7.699006795883179
97,8192,8177,8195,8167,8123,8165,8207,8153,8178,8178,8144,8153,8172,8139,7.707331418991089
98,8154,8147,8180,8148,8119,8152,8191,8139,8125,8156,8143,8136,8168,8116,7.714983940124512
99,8152,8144,8183,8154,8130,8161,8185,8145,8074,8162,8160,8127,8167,8114,7.722982883453369
100,8176,8177,8207,8171,8114,8171,8178,8152,8185,8164,8159,8166,8174,8126,7.730501890182495
101,8170,8147,8196,8157,8129,8169,8191,8139,8087,8178,8169,8128,8165,8129,7.739008188247681
102,8176,8165,8211,8161,8131,8166,8180,8149,8150,8160,8162,8161,8174,8140,7.74703049659729
103,8167,8164,8196,8156,8128,8164,8188,8157,8161,8168,8165,8148,8170,8132,7.755030870437622
104,8166,8159,8173,8155,8131,8174,8200,8149,8093,8177,8166,8117,8158,8128,7.762007713317871
105,8144,8175,8174,8157,8118,8164,8179,8143,8156,8143,8135,8149,8165,8110,7.770006418228149
106,8139,8153,8163,8156,8134,8154,8198,8141,8075,8159,8139,8119,8169,8108,7.778224468231201
107,8188,8190,8193,8179,8132,8167,8210,8161,8177,8173,8158,8155,8183,8152,7.786238431930542
108,8171,8184,8200,8173,8123,8156,8210,8169,8204,8175,8163,8147,8174,8148,7.79400634765625
109,8172,8161,8186,8170,8132,8144,8220,8161,8125,8185,8153,8115,8165,8137,7.80202841758728
110,8187,8184,8198,8171,8121,8140,8206,8161,8218,8160,8142,8161,8175,8143,7.810023784637451
111,8152,8150,8183,8150,8125,8132,8205,8156,8123,8167,8152,8121,8161,8128,7.81821608543396
112,8165,8157,8179,8155,8119,8129,8200,8161,8156,8165,8130,8129,8159,8130,7.8252222537994385
113,8156,8156,8175,8148,8120,8124,8201,8162,8177,8162,8134,8141,8164,8125,7.832457065582275
114,8160,8158,8191,8156,8145,8132,8214,8162,8106,8187,8181,8133,8170,8143,7.840457201004028
115,8202,8190,8221,8175,8133,8136,8200,8159,8219,8175,8178,8174,8182,8170,7.848458528518677
116,8188,8154,8195,8156,8136,8130,8200,8145,8131,8180,8173,8130,8164,8156,7.857006788253784
117,8183,8169,8193,8165,8135,8139,8194,8160,8143,8174,8164,8141,8158,8143,7.865029335021973
118,8164,8172,8180,8157,8120,8132,8185,8154,8151,8146,8133,8142,8161,8111,7.873028039932251
119,8152,8138,8160,8138,8127,8124,8187,8134,8018,8139,8127,8107,8159,8100,7.881058931350708
120,8158,8164,8182,8159,8124,8126,8173,8150,8127,8122,8131,8152,8162,8108,7.889005899429321
121,8142,8151,8169,8157,8137,8122,8187,8150,8082,8139,8134,8116,8158,8093,7.8959691524505615
122,8168,8164,8177,8155,8140,8125,8193,8150,8088,8143,8128,8128,8168,8116,7.903949737548828
123,8157,8169,8192,8152,8134,8121,8191,8164,8166,8132,8138,8159,8172,8129,7.912031650543213
124,8144,8148,8173,8151,8151,8117,8212,8164,8092,8153,8147,8119,8163,8120,7.92021369934082
125,8165,8173,8179,8161,8141,8114,8201,8162,8175,8139,8121,8153,8173,8120,7.928213119506836
126,8151,8157,8181,8159,8149,8110,8205,8162,8131,8154,8143,8141,8169,8118,7.935970783233643
127,8185,8173,8202,8193,8160,8115,8220,8182,8171,8189,8175,8157,8173,8148,7.9440062046051025
240,8202,8192,8216,8202,8153,8098,8215,8186,8263,8193,8176,8177,8182,8158,7.95200777053833
0,8178,8160,8201,8184,8170,8084,8209,8163,8142,8196,8189,8127,8169,8140,7.959007501602173
1,8183,8180,8209,8193,8163,8097,8192,8162,8213,8172,8172,8161,8170,8135,7.966575622558594
2,8167,8160,8190,8175,8160,8100,8202,8159,8160,8171,8160,8138,8163,8124,7.974570274353027
2,8167,8160,8190,8175,8160,8100,8202,8159,8160,8171,8160,8138,8163,8124,7.975569248199463
3,8175,8160,8191,8172,8163,8100,8199,8159,8124,8168,8164,8132,8163,8135,7.983007669448851
4,8186,8179,8209,8180,8149,8102,8186,8166,8223,8158,8159,8163,8175,8134,7.991007566452026
5,8180,8150,8188,8164,8163,8103,8209,8155,8123,8183,8160,8119,8164,8127,7.999006032943726
6,8181,8174,8195,8165,8154,8103,8197,8159,8191,8159,8145,8157,8164,8137,8.007153034210205
7,8164,8162,8192,8155,8148,8096,8191,8163,8172,8153,8144,8145,8162,8128,8.015008449554443
8,8183,8153,8195,8149,8153,8101,8201,8162,8131,8169,8152,8134,8167,8142,8.02237606048584
9,8176,8172,8210,8151,8137,8101,8184,8163,8219,8152,8145,8171,8174,8144,8.030888557434082
10,8165,8152,8198,8152,8145,8102,8193,8156,8121,8168,8156,8131,8161,8132,8.03816294670105
11,8210,8179,8220,8164,8149,8119,8200,8162,8203,8169,8155,8162,8170,8155,8.045970439910889
12,8190,8174,8228,8156,8155,8114,8204,8168,8214,8172,8164,8160,8173,8153,8.053623676300049
13,8193,8174,8232,8168,8168,8109,8210,8166,8156,8184,8178,8145,8168,8154,8.061618089675903
14,8210,8195,8246,8177,8154,8111,8189,8152,8237,8157,8166,8179,8169,8151,8.069617986679077
15,8177,8157,8223,8162,8164,8110,8193,8147,8136,8164,8174,8134,8160,8141,8.077618598937988
16,8196,8179,8226,8180,8166,8117,8203,8174,8207,8171,8167,8156,8170,8158,8.0856192111969
17,8189,8172,8213,8171,8166,8115,8210,8169,8217,8170,8163,8153,8169,8149,8.093000650405884
18,8163,8153,8194,8165,8165,8116,8203,8149,8118,8171,8167,8124,8156,8136,8.101005554199219
19,8162,8179,8200,8174,8140,8117,8183,8160,8203,8152,8153,8162,8163,8128,8.109013319015503
20,8158,8154,8184,8154,8162,8120,8208,8162,8119,8168,8165,8126,8166,8121,8.117006778717041
21,8177,8173,8200,8162,8167,8129,8199,8154,8161,8161,8166,8150,8174,8141,8.125006198883057
22,8167,8166,8201,8159,8145,8121,8173,8140,8175,8145,8155,8158,8171,8139,8.132471799850464
22,8167,8166,8201,8159,8145,8121,8173,8140,8175,8145,8155,8158,8171,8139,8.133471250534058
23,8185,8145,8197,8152,8162,8123,8193,8144,8088,8165,8157,8128,8164,8150,8.140479564666748
24,8209,8183,8228,8163,8162,8122,8193,8160,8208,8159,8153,8176,8174,8167,8.148488759994507
25,8177,8162,8218,8150,8159,8111,8184,8143,8125,8164,8173,8147,8166,8151,8.155969858169556
26,8186,8172,8221,8168,8154,8122,8173,8147,8141,8163,8180,8162,8169,8156,8.16400694847107
27,8192,8178,8227,8178,8157,8129,8189,8167,8217,8172,8171,8171,8166,8147,8.172006845474243
28,8193,8159,8226,8168,8179,8135,8220,8165,8137,8194,8179,8133,8158,8138,8.180006265640259
29,8194,8188,8255,8179,8173,8145,8203,8169,8234,8174,8188,8179,8174,8154,8.187993288040161
30,8165,8165,8242,8180,8177,8134,8196,8171,8183,8190,8203,8149,8168,8144,8.195987701416016
31,8181,8165,8225,8181,8174,8119,8187,8164,8177,8192,8182,8142,8163,8138,8.20400094985962
32,8160,8167,8207,8155,8165,8114,8176,8151,8200,8156,8156,8149,8166,8125,8.21184229850769
33,8134,8148,8189,8138,8176,8125,8186,8150,8088,8159,8171,8116,8159,8118,8.21985650062561
34,8157,8172,8202,8151,8155,8112,8167,8157,8180,8145,8159,8163,8161,8121,8.227006435394287
35,8148,8148,8189,8135,8163,8092,8170,8139,8116,8148,8162,8139,8158,8114,8.235007524490356
36,8165,8169,8210,8155,8186,8121,8185,8148,8125,8163,8182,8147,8169,8142,8.24297547340393
37,8184,8192,8235,8173,8179,8131,8184,8169,8235,8166,8180,8175,8173,8148,8.25098180770874
38,8185,8156,8216,8157,8191,8116,8193,8155,8130,8181,8183,8129,8161,8140,8.25900149345398
39,8196,8180,8234,8170,8185,8125,8179,8150,8213,8158,8179,8168,8172,8150,8.267006158828735
40,8179,8170,8231,8165,8184,8135,8179,8149,8184,8156,8186,8152,8171,8133,8.275006294250488
41,8185,8162,8230,8157,8188,8135,8175,8144,8137,8156,8187,8137,8168,8130,8.282028913497925
42,8173,8173,8240,8161,8173,8131,8155,8143,8212,8141,8176,8162,8174,8122,8.290026664733887
43,8165,8155,8227,8168,8173,8144,8173,8140,8133,8173,8189,8132,8168,8114,8.298281192779541
44,8191,8188,8242,8178,8164,8173,8179,8153,8234,8173,8190,8176,8177,8132,8.30568552017212
45,8162,8169,8228,8158,8177,8183,8179,8159,8225,8175,8188,8151,8170,8121,8.313611507415771
46,8165,8147,8207,8158,8188,8174,8181,8154,8159,8174,8168,8122,8156,8113,8.322007894515991
47,8159,8162,8203,8149,8159,8161,8170,8145,8215,8132,8140,8162,8157,8108,8.330007076263428
48,8122,8144,8190,8131,8166,8164,8181,8144,8111,8141,8157,8125,8154,8100,8.337825298309326
49,8149,8175,8204,8153,8171,8172,8175,8160,8189,8145,8149,8149,8164,8107,8.345805883407593
50,8134,8154,8189,8139,8168,8163,8165,8143,8161,8133,8138,8139,8157,8087,8.352806568145752
51,8127,8138,8188,8135,8172,8165,8166,8128,8088,8140,8155,8122,8156,8097,8.361242532730103
52,8162,8174,8217,8156,8159,8165,8161,8145,8224,8142,8151,8167,8174,8117,8.369006872177124
53,8161,8149,8206,8137,8170,8156,8176,8142,8139,8160,8157,8134,8162,8113,8.376814603805542
54,8159,8158,8220,8138,8165,8166,8162,8145,8173,8148,8160,8163,8161,8125,8.385023593902588
55,8157,8153,8224,8146,8154,8169,8165,8152,8201,8153,8162,8165,8166,8120,8.393059015274048
56,8180,8151,8216,8148,8166,8165,8185,8150,8134,8168,8164,8139,8163,8124,8.401052474975586
57,8165,8177,8224,8142,8162,8166,8161,8150,8221,8139,8162,8171,8165,8121,8.408957719802856
58,8126,8142,8203,8135,8174,8171,8170,8148,8141,8161,8181,8126,8158,8098,8.415496587753296
58,8126,8142,8203,8135,8174,8171,8170,8148,8141,8161,8181,8126,8158,8098,8.41650676727295
59,8164,8164,8210,8157,8169,8186,8189,8159,8192,8173,8165,8145,8163,8109,8.423512697219849
59,8164,8164,8210,8157,8169,8186,8189,8159,8192,8173,8165,8145,8163,8109,8.424506425857544
60,8147,8159,8198,8135,8144,8180,8181,8148,8205,8152,8151,8147,8158,8100,8.431539058685303
60,8147,8159,8198,8135,8144,8180,8181,8148,8205,8152,8151,8147,8158,8100,8.432548522949219
61,8116,8127,8169,8116,8142,8169,8173,8137,8101,8158,8163,8108,8149,8088,8.439809083938599
62,8133,8157,8186,8138,8131,8164,8161,8152,8208,8149,8148,8151,8164,8096,8.448007822036743
63,8121,8138,8189,8128,8143,8157,8171,8138,8125,8152,8155,8127,8165,8091,8.455970048904419
64,8136,8148,8202,8129,8140,8159,8163,8131,8134,8146,8165,8144,8169,8102,8.464006662368774
65,8141,8157,8199,8129,8130,8156,8162,8135,8178,8136,8152,8156,8167,8100,8.472006559371948
66,8145,8146,8195,8131,8152,8169,8177,8131,8076,8146,8158,8129,8162,8110,8.47885537147522
67,8174,8178,8232,8158,8141,8189,8158,8142,8198,8140,8166,8182,8172,8130,8.486867666244507
68,8171,8157,8222,8158,8140,8196,8161,8143,8164,8169,8178,8151,8165,8123,8.494885444641113
69,8180,8170,8220,8160,8143,8206,8156,8136,8156,8167,8172,8155,8167,8127,8.50299596786499
70,8172,8182,8233,8160,8136,8204,8140,8136,8211,8142,8166,8178,8170,8115,8.511222124099731
71,8181,8161,8226,8169,8157,8219,8169,8145,8136,8173,8181,8143,8162,8118,8.519006967544556
72,8188,8188,8233,8180,8152,8235,8173,8158,8241,8163,8172,8175,8172,8124,8.527005910873413
73,8137,8157,8207,8148,8151,8223,8167,8146,8160,8145,8169,8137,8160,8082,8.534544706344604
74,8151,8153,8203,8150,8156,8223,8171,8140,8121,8141,8164,8135,8159,8088,8.541544437408447
75,8160,8170,8210,8157,8149,8219,8172,8148,8202,8133,8162,8165,8169,8107,8.549546718597412
75,8160,8170,8210,8157,8149,8219,8172,8148,8202,8133,8162,8165,8169,8107,8.550573348999023
76,8143,8146,8194,8149,8159,8203,8184,8151,8101,8158,8178,8125,8158,8096,8.558007001876831
77,8164,8169,8200,8158,8145,8196,8161,8152,8176,8144,8155,8162,8165,8096,8.566035032272339
78,8139,8151,8189,8140,8142,8191,8147,8135,8133,8135,8154,8143,8165,8092,8.574031114578247
79,8152,8158,8203,8157,8151,8199,8152,8138,8111,8145,8171,8139,8164,8113,8.582006454467773
80,8180,8177,8216,8169,8143,8190,8158,8147,8209,8139,8159,8177,8171,8127,8.589929819107056
81,8166,8146,8194,8142,8159,8171,8172,8135,8100,8153,8169,8136,8161,8124,8.597887992858887
82,8183,8180,8224,8163,8155,8177,8162,8151,8182,8148,8171,8170,8165,8141,8.605884075164795
83,8194,8176,8231,8173,8155,8171,8169,8152,8170,8153,8166,8164,8166,8140,8.613026142120361
84,8197,8165,8215,8161,8167,8164,8169,8128,8100,8152,8172,8154,8168,8140,8.62103796005249
85,8175,8190,8220,8159,8157,8171,8151,8130,8186,8131,8177,8188,8173,8123,8.629007577896118
86,8168,8166,8206,8163,8168,8180,8169,8138,8095,8156,8182,8145,8163,8101,8.63668179512024
87,8193,8180,8213,8169,8163,8184,8160,8141,8150,8148,8164,8169,8169,8106,8.644689083099365
88,8152,8166,8196,8144,8160,8178,8154,8134,8145,8136,8163,8153,8165,8089,8.65268063545227
89,8153,8156,8182,8148,8169,8187,8175,8144,8096,8150,8167,8131,8163,8095,8.660682916641235
90,8179,8179,8195,8164,8158,8201,8174,8163,8217,8152,8159,8180,8176,8118,8.668681621551514
91,8148,8152,8181,8143,8180,8203,8175,8158,8144,8185,8188,8149,8168,8120,8.675681829452515
92,8161,8173,8190,8153,8178,8194,8161,8162,8200,8180,8192,8172,8171,8134,8.683680772781372
93,8177,8175,8181,8155,8159,8176,8164,8157,8203,8170,8176,8170,8172,8131,8.691683292388916
94,8183,8164,8173,8150,8169,8189,8190,8146,8122,8189,8190,8146,8172,8148,8.69968032836914
95,8175,8186,8195,8156,8159,8194,8171,8151,8233,8170,8193,8191,8180,8158,8.707683324813843
96,8161,8163,8182,8146,8162,8170,8161,8148,8143,8170,8190,8151,8165,8139,8.715680837631226
97,8194,8183,8192,8153,8154,8170,8164,8151,8165,8173,8178,8168,8162,8153,8.723684787750244
98,8171,8177,8201,8147,8146,8171,8166,8147,8206,8171,8189,8180,8166,8150,8.732000350952148
99,8146,8152,8199,8148,8169,8164,8163,8142,8119,8176,8212,8150,8165,8133,8.740006923675537
100,8166,8182,8216,8164,8164,8158,8143,8153,8209,8154,8194,8188,8171,8120,8.746721744537354
101,8167,8165,8203,8160,8172,8159,8161,8154,8147,8179,8196,8157,8166,8109,8.754719734191895
102,8201,8187,8217,8185,8179,8167,8171,8160,8187,8197,8201,8169,8170,8128,8.763007164001465
103,8185,8186,8214,8172,8172,8158,8162,8155,8217,8174,8182,8170,8167,8111,8.77100682258606
104,8142,8140,8176,8133,8171,8150,8163,8134,8071,8160,8170,8123,8153,8088,8.779369592666626
105,8135,8161,8181,8141,8148,8135,8139,8129,8150,8134,8156,8169,8160,8090,8.787006616592407
106,8125,8156,8188,8153,8162,8118,8143,8135,8116,8159,8181,8153,8163,8088,8.795029878616333
107,8173,8178,8210,8175,8174,8133,8161,8157,8166,8187,8201,8169,8178,8127,8.80302882194519
108,8190,8188,8210,8168,8161,8139,8164,8159,8258,8182,8193,8194,8182,8154,8.810007810592651
109,8167,8158,8191,8152,8175,8131,8162,8144,8148,8195,8195,8154,8168,8154,8.817938566207886
110,8185,8193,8221,8175,8179,8132,8150,8163,8245,8183,8184,8191,8176,8152,8.825937271118164
111,8193,8177,8219,8171,8191,8133,8177,8171,8211,8191,8189,8167,8168,8141,8.83400583267212
112,8200,8165,8207,8160,8192,8142,8191,8166,8186,8194,8194,8167,8166,8153,8.841357469558716
112,8200,8165,8207,8160,8192,8142,8191,8166,8186,8194,8194,8167,8166,8153,8.842349529266357
113,8173,8175,8203,8145,8174,8139,8170,8168,8262,8178,8186,8193,8175,8144,8.850351333618164
114,8172,8163,8194,8144,8186,8134,8180,8161,8159,8201,8193,8149,8169,8139,8.857349157333374
114,8172,8163,8194,8144,8186,8134,8180,8161,8159,8201,8193,8149,8169,8139,8.858349561691284
115,8212,8195,8222,8174,8188,8136,8172,8162,8241,8196,8192,8190,8175,8157,8.866905927658081
116,8184,8174,8216,8174,8205,8129,8171,8164,8231,8208,8213,8177,8166,8141,8.87375807762146
117,8196,8178,8205,8176,8223,8132,8178,8164,8211,8222,8222,8163,8165,8152,8.880758285522461
118,8202,8198,8202,8167,8210,8129,8157,8149,8265,8186,8194,8189,8174,8158,8.8890061378479
119,8168,8161,8176,8152,8217,8123,8163,8141,8139,8192,8195,8149,8160,8135,8.897003889083862
120,8185,8186,8184,8167,8204,8117,8161,8160,8223,8192,8180,8178,8159,8130,8.904988765716553
121,8153,8168,8156,8140,8187,8096,8145,8146,8169,8175,8166,8161,8158,8110,8.913007259368896
122,8134,8152,8139,8137,8184,8101,8135,8133,8079,8171,8173,8146,8165,8113,8.921007633209229
123,8166,8179,8167,8164,8177,8120,8132,8154,8210,8173,8170,8186,8176,8132,8.929150104522705
124,8165,8150,8159,8144,8198,8121,8149,8151,8131,8187,8175,8150,8160,8132,8.93700623512268
125,8152,8162,8161,8135,8186,8116,8135,8145,8155,8160,8158,8173,8163,8127,8.944027662277222
126,8146,8159,8158,8135,8178,8107,8139,8142,8151,8163,8159,8168,8171,8118,8.952028274536133
127,8180,8162,8171,8151,8205,8108,8159,8146,8122,8190,8187,8164,8172,8149,8.960028886795044
240,8182,8184,8190,8159,8200,8106,8143,8156,8233,8176,8185,8206,8170,8155,8.968006134033203
0,8163,8152,8162,8134,8201,8104,8148,8146,8117,8185,8174,8148,8155,8119,8.976332902908325
1,8191,8183,8185,8142,8196,8115,8142,8149,8157,8178,8163,8167,8167,8131,8.984006881713867
2,8175,8188,8194,8148,8191,8112,8143,8154,8205,8182,8168,8181,8173,8142,8.992257356643677
2,8175,8188,8194,8148,8191,8112,8143,8154,8205,8182,8168,8181,8173,8142,8.993260383605957
3,8184,8169,8133,8150,8204,8117,8166,8151,8137,8202,8174,8154,8165,8150,9.000255107879639
4,8199,8195,8095,8155,8202,8125,8161,8160,8238,8183,8167,8197,8170,8168,9.007006645202637
5,8175,8181,8091,8154,8220,8118,8172,8171,8186,8213,8185,8166,8165,8171,9.014843463897703
6,8216,8200,8119,8179,8218,8121,8172,8180,8242,8230,8182,8183,8170,8184,9.022854566574097
7,8209,8185,8108,8162,8196,8120,8164,8169,8258,8207,8181,8196,8170,8178,9.031008005142212
8,8189,8160,8103,8152,8198,8123,8181,8171,8169,8221,8200,8164,8165,8182,9.039135932922363
9,8213,8193,8131,8178,8181,8123,8175,8183,8283,8220,8174,8201,8168,8194,9.047143936157228
10,8183,8161,8107,8148,8174,8108,8163,8157,8174,8214,8163,8165,8156,8173,9.055171012878418
11,8193,8178,8124,8130,8165,8116,8160,8159,8174,8210,8169,8177,8162,8180,9.062587261199951
11,8193,8178,8124,8130,8165,8116,8160,8159,8174,8210,8169,8177,8162,8180,9.063509941101074
12,8217,8200,8154,8146,8162,8134,8177,8173,8255,8213,8166,8190,8171,8180,9.071508169174194
13,8207,8157,8139,8148,8181,8143,8186,8160,8150,8212,8172,8152,8160,8168,9.07851505279541
14,8199,8165,8143,8137,8160,8127,8151,8163,8222,8182,8162,8193,8163,8158,9.08557677268982
14,8199,8165,8143,8137,8160,8127,8151,8163,8222,8182,8162,8193,8163,8158,9.086596965789797
15,8183,8160,8123,8131,8150,8101,8152,8156,8149,8194,8157,8158,8156,8134,9.093584060668944
16,8177,8169,8111,8164,8162,8112,8159,8150,8126,8188,8156,8162,8163,8144,9.101582765579224
17,8154,8176,8118,8171,8173,8125,8156,8168,8208,8178,8173,8201,8176,8158,9.109582662582396
18,8178,8163,8126,8164,8187,8120,8178,8177,8150,8227,8193,8173,8168,8171,9.117587089538574
19,8212,8189,8142,8174,8163,8110,8164,8169,8238,8208,8171,8205,8173,8178,9.125970363616943
20,8180,8162,8126,8162,8177,8110,8165,8164,8188,8197,8184,8178,8175,8168,9.134039878845217
21,8213,8178,8142,8180,8205,8138,8191,8186,8217,8237,8204,8180,8175,8201,9.141029596328735
22,8224,8202,8155,8182,8193,8134,8185,8187,8326,8236,8182,8205,8171,8205,9.149008750915527
23,8183,8158,8124,8151,8190,8112,8170,8161,8177,8225,8181,8156,8161,8175,9.15700626373291
24,8203,8178,8137,8166,8167,8114,8150,8168,8224,8209,8181,8193,8173,8180,9.165027141571043
25,8208,8174,8137,8166,8166,8121,8173,8175,8221,8232,8193,8186,8173,8185,9.173027276992798
26,8208,8173,8136,8161,8184,8127,8192,8178,8203,8241,8208,8182,8168,8194,9.180901527404783
27,8190,8183,8141,8153,8170,8126,8164,8197,8276,8211,8204,8204,8170,8173,9.188899993896484
28,8180,8161,8121,8145,8178,8124,8164,8215,8160,8232,8203,8148,8155,8146,9.19692039489746
29,8217,8198,8139,8171,8180,8122,8173,8227,8241,8230,8179,8184,8166,8159,9.204007387161257
30,8196,8180,8136,8159,8181,8119,8183,8218,8244,8220,8178,8184,8172,8156,9.211905479431152
31,8183,8164,8126,8151,8184,8133,8183,8221,8183,8227,8185,8162,8163,8156,9.219752550125122
32,8198,8190,8133,8159,8165,8129,8167,8228,8256,8211,8157,8189,8161,8153,9.22774863243103
33,8192,8163,8121,8147,8177,8119,8184,8208,8153,8216,8161,8151,8165,8151,9.235970497131348
34,8202,8179,8140,8160,8178,8136,8180,8219,8236,8211,8181,8183,8182,8173,9.24399709701538
35,8191,8170,8132,8158,8173,8130,8178,8231,8254,8222,8185,8176,8166,8166,9.252026081085203
36,8204,8160,8126,8156,8187,8123,8184,8214,8169,8230,8174,8147,8150,8167,9.260007619857788
37,8202,8187,8147,8162,8175,8136,8165,8211,8264,8195,8160,8186,8167,8167,9.268006563186646
38,8179,8165,8131,8162,8178,8139,8179,8223,8187,8210,8172,8152,8165,8146,9.275082349777222
39,8220,8195,8149,8184,8186,8135,8188,8230,8247,8227,8167,8178,8168,8161,9.283082008361816
40,8210,8198,8161,8174,8200,8124,8183,8218,8278,8226,8175,8184,8166,8164,9.290763854980469
41,8185,8175,8149,8168,8214,8129,8188,8222,8194,8226,8198,8154,8161,8154,9.298675537109377
41,8185,8175,8149,8168,8214,8129,8188,8222,8194,8226,8198,8154,8161,8154,9.299669027328491
42,8201,8194,8152,8190,8194,8130,8179,8237,8294,8209,8186,8183,8170,8149,9.306791543960571
42,8201,8194,8152,8190,8194,8130,8179,8237,8294,8209,8186,8183,8170,8149,9.30781078338623
43,8200,8163,8132,8161,8190,8116,8181,8212,8197,8222,8174,8127,8161,8138,9.315097570419312
44,8205,8171,8140,8136,8171,8119,8160,8200,8185,8205,8154,8137,8161,8150,9.323150873184204
45,8168,8178,8137,8157,8164,8118,8150,8210,8205,8184,8159,8160,8164,8139,9.331074714660645
46,8178,8162,8132,8181,8189,8116,8174,8206,8108,8195,8173,8132,8159,8139,9.337610483169556
47,8219,8187,8166,8163,8170,8113,8160,8197,8195,8169,8147,8172,8164,8153,9.34561014175415
48,8181,8173,8149,8152,8175,8106,8156,8194,8132,8178,8154,8147,8164,8136,9.35400652885437
49,8183,8189,8139,8213,8200,8115,8168,8217,8177,8206,8173,8163,8181,8152,9.362406492233276
50,8207,8180,8157,8193,8183,8111,8173,8214,8240,8203,8168,8180,8178,8165,9.369467735290527
50,8207,8180,8157,8193,8183,8111,8173,8214,8240,8203,8168,8180,8178,8165,9.370489358901978
51,8203,8164,8163,8145,8169,8108,8168,8189,8118,8194,8172,8139,8158,8153,9.377888679504396
52,8197,8206,8167,8189,8170,8120,8152,8209,8224,8177,8168,8172,8169,8146,9.38588833808899
53,8185,8164,8143,8190,8193,8128,8179,8220,8196,8208,8166,8138,8167,8146,9.394007921218872
54,8200,8160,8148,8166,8192,8140,8178,8203,8181,8210,8161,8146,8170,8159,9.401008367538452
55,8174,8173,8164,8148,8168,8133,8144,8193,8220,8173,8159,8172,8173,8127,9.40900707244873
56,8187,8141,8172,8136,8171,8128,8165,8204,8122,8200,8175,8133,8156,8122,9.416810274124146
57,8230,8187,8188,8179,8183,8148,8182,8225,8259,8218,8181,8183,8172,8165,9.424824953079224
58,8165,8181,8154,8205,8221,8162,8186,8217,8244,8226,8199,8163,8181,8153,9.43286657333374
59,8155,8163,8149,8194,8216,8165,8180,8212,8199,8220,8188,8144,8165,8141,9.44100856781006
60,8186,8176,8153,8163,8174,8155,8165,8208,8240,8189,8156,8163,8156,8135,9.448866367340088
61,8162,8150,8125,8159,8202,8154,8176,8191,8120,8194,8174,8129,8162,8122,9.457006216049194
62,8170,8158,8161,8166,8199,8157,8164,8201,8213,8184,8174,8175,8173,8129,9.464028358459473
62,8170,8158,8161,8166,8199,8157,8164,8201,8213,8184,8174,8175,8173,8129,9.465027093887327
63,8171,8148,8159,8145,8167,8141,8159,8200,8184,8184,8159,8156,8157,8120,9.47202754020691
64,8166,8170,8123,8173,8181,8140,8164,8192,8120,8189,8162,8135,8158,8125,9.479884386062622
65,8154,8185,8138,8189,8184,8143,8147,8198,8211,8171,8160,8171,8175,8123,9.48791766166687
66,8156,8150,8144,8168,8196,8152,8161,8210,8148,8200,8179,8140,8168,8127,9.495952606201172
67,8201,8183,8162,8190,8197,8165,8173,8223,8253,8213,8185,8175,8177,8156,9.504086017608644
68,8188,8165,8173,8189,8194,8155,8177,8213,8248,8211,8193,8163,8179,8149,9.512216091156006
69,8179,8157,8177,8186,8194,8155,8178,8217,8193,8212,8206,8147,8169,8150,9.520085096359251
70,8191,8185,8178,8186,8174,8163,8180,8227,8294,8194,8190,8183,8169,8156,9.526702880859377
71,8176,8151,8146,8166,8199,8165,8202,8211,8190,8208,8189,8142,8167,8148,9.53506875038147
72,8174,8183,8156,8185,8216,8164,8181,8212,8250,8198,8187,8176,8176,8154,9.543138027191162
73,8175,8190,8182,8189,8201,8151,8175,8214,8267,8198,8199,8174,8172,8146,9.551007986068726
74,8197,8162,8183,8179,8195,8152,8193,8202,8180,8212,8211,8141,8166,8151,9.559369564056396
75,8174,8174,8154,8191,8188,8151,8170,8204,8264,8185,8195,8180,8172,8144,9.566536664962769
75,8174,8174,8154,8191,8188,8151,8170,8204,8264,8185,8195,8180,8172,8144,9.56752896308899
76,8152,8166,8132,8193,8206,8142,8180,8211,8183,8200,8197,8147,8163,8132,9.574535131454468
76,8152,8166,8132,8193,8206,8142,8180,8211,8183,8200,8197,8147,8163,8132,9.5755295753479
77,8213,8194,8191,8207,8209,8148,8194,8214,8241,8205,8201,8173,8168,8160,9.583007335662842
78,8182,8185,8181,8201,8209,8156,8182,8207,8273,8201,8204,8177,8170,8150,9.591006994247437
79,8158,8165,8145,8199,8210,8157,8179,8208,8178,8209,8195,8144,8164,8132,9.5980064868927
80,8201,8197,8175,8212,8190,8152,8177,8213,8260,8176,8176,8187,8172,8142,9.606432676315308
81,8175,8170,8165,8194,8210,8155,8188,8197,8170,8181,8200,8153,8164,8145,9.61443042755127
82,8174,8179,8159,8187,8206,8167,8181,8205,8191,8188,8192,8163,8162,8152,9.621566534042358
83,8168,8187,8149,8172,8179,8153,8170,8205,8204,8165,8154,8165,8161,8133,9.629580736160278
84,8145,8172,8136,8173,8186,8153,8175,8187,8080,8161,8163,8131,8158,8130,9.63811469078064
85,8153,8196,8157,8199,8179,8170,8170,8200,8194,8156,8170,8181,8169,8144,9.645970344543455
86,8153,8168,8139,8189,8184,8158,8182,8196,8138,8171,8162,8151,8163,8125,9.653713941574097
87,8160,8184,8138,8188,8184,8147,8170,8181,8113,8152,8143,8157,8163,8118,9.662002086639404
