COUNTER,F3,FC5,AF3,F7,T7,P7,O1,O2,P8,T8,F8,AF4,FC6,F4,Timestamp
51,8168,8168,8288,8157,8125,8102,8179,8181,8226,8201,8205,8168,8170,8162,0.0030055046081542
52,8176,8156,8270,8146,8138,8116,8188,8177,8162,8205,8195,8150,8157,8159,0.0100059509277343
52,8176,8156,8270,8146,8138,8116,8188,8177,8162,8205,8195,8150,8157,8159,0.0110049247741699
53,8175,8173,8284,8154,8125,8115,8170,8184,8235,8181,8176,8183,8160,8154,0.0175180435180664
54,8161,8142,8276,8152,8140,8107,8186,8182,8140,8198,8191,8139,8159,8152,0.0255191326141357
55,8199,8176,8294,8170,8150,8119,8192,8195,8241,8206,8198,8182,8177,8178,0.0337772369384765
56,8188,8183,8292,8169,8149,8120,8187,8201,8257,8205,8201,8183,8175,8172,0.0418636798858642
57,8186,8166,8280,8167,8149,8113,8193,8192,8161,8205,8197,8149,8161,8170,0.0494704246520996
57,8186,8166,8280,8167,8149,8113,8193,8192,8161,8205,8197,8149,8161,8170,0.0504686832427978
58,8195,8183,8286,8166,8140,8102,8184,8192,8243,8190,8184,8179,8165,8164,0.0574691295623779
59,8174,8161,8282,8158,8157,8100,8196,8198,8173,8219,8205,8144,8165,8149,0.0654876232147216
60,8205,8188,8312,8182,8151,8109,8200,8212,8243,8221,8199,8178,8174,8174,0.0736951828002929
61,8199,8182,8308,8166,8149,8102,8195,8196,8249,8203,8191,8180,8169,8169,0.0816953182220459
62,8178,8160,8292,8150,8169,8107,8187,8178,8163,8214,8211,8150,8162,8160,0.0886430740356445
63,8177,8182,8307,8162,8147,8109,8172,8192,8276,8204,8198,8191,8169,8162,0.0964531898498535
64,8165,8158,8282,8154,8144,8087,8183,8192,8173,8209,8187,8151,8161,8149,0.1044642925262451
65,8191,8175,8279,8163,8144,8078,8171,8187,8187,8195,8178,8168,8168,8159,0.1126246452331543
66,8183,8172,8276,8158,8134,8084,8165,8185,8225,8184,8184,8176,8170,8159,0.1201097965240478
66,8183,8172,8276,8158,8134,8084,8165,8185,8225,8184,8184,8176,8170,8159,0.1210973262786865
67,8180,8157,8258,8154,8142,8088,8188,8189,8150,8208,8201,8150,8160,8170,0.1281049251556396
68,8181,8184,8269,8156,8134,8084,8175,8196,8265,8192,8189,8197,8164,8175,0.1361050605773925
69,8146,8144,8253,8136,8141,8084,8167,8182,8172,8185,8185,8158,8157,8149,0.1446468830108642
70,8181,8162,8260,8154,8140,8098,8169,8188,8168,8178,8172,8164,8163,8158,0.1518361568450927
71,8183,8181,8260,8158,8131,8100,8178,8192,8226,8176,8165,8171,8162,8156,0.1598360538482666
72,8146,8147,8242,8140,8144,8105,8189,8190,8141,8194,8186,8130,8153,8146,0.1678776741027832
73,8163,8171,8266,8157,8134,8113,8173,8208,8264,8186,8187,8182,8172,8162,0.1756460666656494
74,8187,8166,8268,8162,8146,8104,8191,8205,8224,8212,8187,8163,8171,8173,0.1834232807159423
75,8209,8180,8276,8167,8156,8103,8194,8197,8217,8210,8184,8171,8169,8187,0.191648244857788
76,8172,8180,8277,8155,8140,8102,8175,8202,8272,8177,8183,8188,8172,8171,0.19964599609375
77,8162,8148,8255,8145,8147,8103,8194,8203,8184,8204,8198,8142,8165,8174,0.2072060108184814
78,8203,8175,8264,8157,8144,8103,8191,8204,8285,8204,8186,8184,8170,8195,0.2142038345336914
79,8176,8162,8254,8149,8157,8100,8186,8193,8221,8197,8193,8159,8160,8171,0.2226464748382568
80,8182,8169,8260,8166,8161,8115,8190,8194,8195,8199,8187,8156,8161,8172,0.2303037643432617
80,8182,8169,8260,8166,8161,8115,8190,8194,8195,8199,8187,8156,8161,8172,0.231025218963623
81,8194,8178,8268,8168,8146,8116,8186,8198,8265,8186,8159,8187,8165,8174,0.2386367321014404
82,8182,8155,8251,8150,8169,8116,8197,8194,8148,8196,8170,8148,8158,8158,0.2466511726379394
83,8204,8190,8278,8175,8168,8126,8196,8207,8248,8194,8174,8182,8174,8166,0.2546548843383789
84,8189,8171,8273,8170,8163,8129,8197,8198,8220,8206,8185,8166,8172,8170,0.2626450061798095
85,8188,8166,8259,8159,8167,8132,8193,8194,8174,8210,8196,8162,8167,8181,0.2706563472747803
86,8186,8180,8258,8156,8149,8129,8187,8208,8264,8190,8179,8184,8175,8171,0.2785000801086426
86,8186,8180,8258,8156,8149,8129,8187,8208,8264,8190,8179,8184,8175,8171,0.2795169353485107
87,8170,8147,8235,8153,8162,8131,8213,8201,8158,8200,8174,8135,8160,8153,0.2856218814849853
88,8189,8179,8246,8169,8168,8139,8202,8206,8231,8188,8163,8173,8161,8166,0.2936151027679443
89,8177,8176,8237,8159,8170,8131,8188,8198,8215,8191,8167,8164,8164,8159,0.3016467094421386
90,8186,8163,8238,8167,8172,8135,8186,8182,8155,8196,8175,8155,8161,8163,0.3097970485687256
91,8202,8184,8259,8186,8159,8137,8173,8186,8249,8168,8165,8195,8160,8161,0.3178832530975342
92,8190,8162,8235,8172,8175,8125,8191,8188,8154,8188,8180,8144,8154,8147,0.3258845806121826
93,8186,8174,8224,8158,8161,8112,8180,8196,8210,8189,8183,8171,8168,8158,0.3336453437805176
94,8162,8162,8227,8149,8145,8104,8176,8192,8208,8188,8197,8176,8173,8163,0.3416438102722168
95,8185,8160,8276,8173,8159,8112,8191,8187,8151,8199,8220,8155,8169,8180,0.3486452102661133
95,8185,8160,8276,8173,8159,8112,8191,8187,8151,8199,8220,8155,8169,8180,0.3491799831390381
96,8193,8182,8318,8183,8151,8109,8169,8183,8229,8163,8197,8186,8167,8174,0.356713056564331
97,8162,8150,8282,8160,8162,8099,8170,8166,8093,8161,8185,8139,8153,8153,0.3647167682647705
98,8184,8179,8291,8182,8159,8105,8169,8175,8154,8170,8193,8171,8166,8177,0.3728394508361816
99,8181,8181,8300,8189,8157,8101,8169,8187,8222,8183,8205,8182,8169,8181,0.3805468082427978
100,8184,8160,8279,8175,8176,8099,8179,8180,8145,8197,8202,8145,8158,8180,0.388636827468872
101,8181,8178,8278,8172,8166,8102,8167,8180,8228,8172,8184,8173,8159,8166,0.3966290950775146
102,8156,8147,8257,8163,8170,8102,8175,8179,8143,8184,8193,8140,8155,8135,0.4046559333801269
103,8190,8166,8270,8176,8170,8115,8177,8188,8188,8188,8196,8174,8168,8154,0.4119706153869629
104,8186,8175,8282,8173,8163,8119,8177,8189,8236,8185,8203,8182,8171,8158,0.4190187454223633
104,8186,8175,8282,8173,8163,8119,8177,8189,8236,8185,8203,8182,8171,8158,0.420018196105957
105,8196,8168,8281,8179,8175,8122,8194,8193,8166,8212,8220,8152,8168,8176,0.4270174503326416
106,8232,8206,8301,8197,8174,8126,8186,8198,8290,8205,8211,8205,8182,8209,0.4350166320800781
107,8194,8172,8270,8180,8181,8120,8181,8177,8195,8197,8203,8158,8166,8179,0.4430165290832519
107,8194,8172,8270,8180,8181,8120,8181,8177,8195,8197,8203,8158,8166,8179,0.4440174102783203
108,8193,8174,8255,8178,8169,8124,8176,8183,8177,8174,8184,8154,8156,8159,0.4510173797607422
108,8193,8174,8255,8178,8169,8124,8176,8183,8177,8174,8184,8154,8156,8159,0.4518945217132568
109,8186,8179,8255,8172,8154,8124,8173,8187,8211,8156,8177,8174,8159,8157,0.4599008560180664
110,8173,8153,8240,8171,8172,8123,8178,8172,8115,8177,8187,8144,8154,8157,0.4679005146026611
111,8200,8181,8255,8186,8161,8123,8168,8179,8233,8166,8169,8184,8164,8162,0.4759008884429931
112,8192,8165,8244,8164,8156,8121,8179,8174,8162,8163,8165,8149,8159,8152,0.4820733070373535
113,8194,8170,8248,8173,8153,8129,8174,8172,8136,8160,8166,8157,8155,8153,0.4900755882263183
114,8188,8169,8248,8181,8138,8127,8165,8180,8224,8164,8169,8187,8167,8149,0.4986419677734375
114,8188,8169,8248,8181,8138,8127,8165,8180,8224,8164,8169,8187,8167,8149,0.4990777969360351
115,8187,8143,8229,8164,8144,8125,8190,8178,8151,8196,8192,8149,8173,8164,0.5060961246490479
116,8198,8177,8243,8165,8132,8122,8177,8176,8232,8170,8177,8183,8179,8177,0.5141592025756836
116,8198,8177,8243,8165,8132,8122,8177,8176,8232,8170,8177,8183,8179,8177,0.5151596069335938
117,8172,8162,8238,8157,8147,8117,8174,8177,8186,8175,8189,8164,8173,8163,0.5230777263641357
118,8192,8165,8247,8172,8159,8125,8186,8192,8199,8194,8212,8174,8177,8187,0.5300850868225098
119,8199,8176,8244,8181,8131,8113,8177,8192,8274,8176,8186,8192,8170,8182,0.5386419296264648
120,8193,8148,8218,8167,8136,8106,8184,8180,8152,8198,8178,8143,8155,8168,0.5456416606903076
121,8219,8180,8239,8177,8140,8123,8177,8189,8244,8195,8181,8188,8175,8189,0.5535600185394287
122,8194,8168,8230,8170,8144,8122,8173,8173,8185,8171,8181,8167,8165,8168,0.5615527629852295
123,8183,8161,8219,8172,8141,8114,8156,8150,8089,8146,8172,8151,8150,8151,0.5696406364440918
124,8180,8178,8226,8176,8125,8113,8142,8160,8171,8135,8167,8185,8162,8140,0.5776405334472656
125,8182,8156,8207,8170,8151,8117,8177,8169,8102,8173,8182,8145,8165,8136,0.5852835178375244
126,8202,8182,8212,8175,8153,8112,8175,8171,8180,8164,8169,8175,8177,8158,0.5932838916778564
126,8202,8182,8212,8175,8153,8112,8175,8171,8180,8164,8169,8175,8177,8158,0.5942795276641846
127,8165,8163,8197,8158,8145,8109,8170,8173,8165,8166,8179,8165,8175,8158,0.6016416549682617
240,8182,8162,8202,8176,8153,8129,8188,8200,8170,8210,8209,8163,8173,8178,0.6086447238922119
0,8232,8204,8241,8207,8154,8134,8195,8225,8331,8226,8209,8206,8181,8197,0.6162776947021484
1,8217,8176,8231,8186,8174,8125,8201,8206,8220,8227,8213,8154,8170,8189,0.6242918968200684
2,8209,8184,8229,8185,8158,8126,8176,8190,8235,8194,8197,8178,8171,8190,0.6326413154602051
3,8208,8180,8223,8191,8153,8124,8178,8183,8225,8192,8196,8179,8166,8182,0.640641450881958
4,8227,8172,8224,8199,8177,8127,8194,8181,8162,8199,8210,8163,8161,8184,0.6486411094665527
5,8215,8185,8219,8193,8161,8124,8168,8173,8226,8156,8185,8191,8164,8159,0.6560590267181396
5,8215,8185,8219,8193,8161,8124,8168,8173,8226,8156,8185,8191,8164,8159,0.6570465564727783
6,8178,8149,8174,8169,8158,8123,8168,8156,8084,8169,8175,8135,8157,8128,0.6650478839874268
7,8197,8174,8184,8189,8155,8135,8171,8171,8145,8180,8186,8167,8173,8154,0.6730539798736572
8,8195,8179,8191,8194,8153,8140,8180,8183,8204,8179,8208,8185,8178,8162,0.6796412467956543
8,8195,8179,8191,8194,8153,8140,8180,8183,8204,8179,8208,8185,8178,8162,0.6800594329833984
9,8202,8160,8180,8183,8169,8149,8197,8177,8128,8198,8216,8156,8169,8162,0.6877965927124023
10,8202,8181,8189,8185,8165,8148,8179,8186,8223,8183,8201,8193,8175,8160,0.6957955360412598
11,8184,8157,8175,8180,8174,8144,8189,8188,8156,8196,8223,8161,8168,8158,0.703801155090332
12,8225,8180,8187,8197,8167,8162,8202,8191,8206,8200,8226,8183,8171,8193,0.711641788482666
13,8212,8179,8183,8185,8155,8157,8193,8186,8236,8186,8208,8188,8171,8188,0.7193832397460938
14,8201,8156,8168,8173,8169,8145,8191,8184,8144,8195,8205,8147,8164,8177,0.7273838520050049
15,8223,8182,8185,8182,8158,8149,8175,8184,8240,8170,8180,8182,8166,8179,0.7353923320770264
15,8223,8182,8185,8182,8158,8149,8175,8184,8240,8170,8180,8182,8166,8179,0.7361125946044922
16,8202,8164,8174,8181,8168,8154,8179,8171,8148,8164,8182,8152,8159,8161,0.7426316738128662
17,8226,8186,8187,8202,8178,8165,8193,8183,8176,8180,8200,8179,8176,8181,0.7506530284881592
18,8217,8192,8193,8202,8176,8171,8200,8191,8250,8188,8211,8196,8183,8192,0.7586514949798584
19,8192,8165,8176,8201,8184,8174,8196,8178,8138,8186,8209,8154,8166,8181,0.7666046619415283
20,8228,8194,8200,8222,8168,8171,8175,8185,8233,8168,8189,8204,8173,8186,0.774641752243042
21,8224,8172,8194,8204,8177,8165,8194,8180,8187,8193,8207,8178,8168,8195,0.7826371192932129
22,8207,8176,8187,8204,8176,8166,8183,8171,8173,8182,8213,8170,8165,8201,0.7906405925750732
23,8199,8185,8187,8215,8164,8162,8155,8169,8217,8152,8191,8188,8172,8179,0.7987933158874512
24,8216,8166,8186,8216,8194,8167,8185,8171,8127,8190,8205,8159,8168,8185,0.8067951202392578
25,8242,8204,8214,8225,8191,8174,8198,8197,8266,8210,8218,8207,8174,8217,0.8136413097381592
26,8229,8184,8195,8210,8186,8168,8202,8194,8233,8217,8225,8182,8171,8208,0.8216428756713867
27,8227,8174,8177,8209,8185,8163,8187,8170,8165,8188,8207,8173,8165,8199,0.8296599388122559
28,8205,8190,8173,8208,8164,8148,8170,8169,8220,8161,8185,8196,8166,8188,0.8376607894897461
29,8213,8173,8167,8202,8174,8159,8202,8187,8160,8211,8214,8165,8172,8203,0.8456602096557617
30,8243,8195,8193,8217,8175,8191,8204,8203,8275,8208,8220,8208,8181,8231,0.8536608219146729
31,8208,8171,8175,8206,8182,8189,8200,8193,8234,8192,8205,8178,8165,8207,0.8617079257965088
32,8225,8173,8163,8208,8197,8182,8211,8199,8201,8213,8199,8163,8167,8209,0.8687078952789307
33,8223,8189,8166,8205,8178,8179,8197,8203,8281,8200,8192,8196,8171,8206,0.8767378330230713
34,8182,8154,8142,8186,8176,8184,8201,8189,8145,8198,8195,8148,8150,8180,0.8847360610961914
35,8218,8183,8156,8202,8183,8197,8211,8205,8235,8202,8183,8188,8165,8197,0.8927192687988281
36,8214,8176,8148,8201,8205,8193,8218,8205,8246,8212,8196,8182,8175,8198,0.9007179737091064
37,8200,8172,8135,8207,8208,8184,8211,8192,8169,8204,8198,8157,8164,8188,0.9087474346160888
38,8212,8198,8146,8211,8177,8178,8197,8197,8250,8190,8173,8194,8168,8185,0.9162836074829102
39,8214,8170,8132,8189,8196,8177,8218,8195,8168,8230,8190,8167,8168,8193,0.924567699432373
40,8228,8189,8141,8195,8198,8178,8215,8195,8251,8222,8199,8199,8179,8213,0.932567834854126
41,8195,8178,8127,8185,8175,8165,8200,8186,8243,8195,8190,8179,8165,8186,0.9406423568725586
42,8198,8163,8114,8186,8181,8163,8196,8176,8137,8195,8183,8148,8150,8178,0.9466052055358888
42,8198,8163,8114,8186,8181,8163,8196,8176,8137,8195,8183,8148,8150,8178,0.9480259418487548
43,8219,8186,8130,8194,8187,8173,8193,8182,8220,8174,8172,8196,8164,8194,0.955641508102417
44,8195,8159,8117,8175,8199,8185,8217,8187,8130,8183,8189,8163,8170,8184,0.963632106781006
45,8215,8189,8140,8202,8188,8197,8215,8206,8205,8195,8188,8181,8177,8184,0.971672534942627
45,8215,8189,8140,8202,8188,8197,8215,8206,8205,8195,8188,8181,8177,8184,0.9722661972045898
46,8221,8189,8143,8212,8195,8198,8210,8202,8250,8205,8181,8179,8165,8181,0.9792881011962892
46,8221,8189,8143,8212,8195,8198,8210,8202,8250,8205,8181,8179,8165,8181,0.9802792072296144
47,8212,8165,8122,8203,8224,8217,8220,8186,8164,8205,8194,8156,8159,8194,0.987285614013672
48,8214,8199,8135,8215,8211,8230,8215,8197,8270,8184,8190,8202,8179,8198,0.9956355094909668
49,8205,8180,8130,8208,8214,8220,8236,8197,8209,8222,8201,8163,8172,8191,1.0026423931121826
50,8211,8181,8131,8202,8204,8221,8228,8200,8241,8225,8195,8175,8165,8201,1.0112404823303225
51,8184,8174,8114,8184,8186,8229,8217,8203,8259,8199,8174,8177,8162,8173,1.018132209777832
51,8184,8174,8114,8184,8186,8229,8217,8203,8259,8199,8174,8177,8162,8173,1.01912260055542
52,8177,8162,8098,8179,8198,8234,8231,8191,8154,8207,8176,8147,8158,8163,1.026130437850952
52,8177,8162,8098,8179,8198,8234,8231,8191,8154,8207,8176,8147,8158,8163,1.0271234512329102
53,8183,8185,8112,8189,8181,8221,8204,8180,8234,8185,8173,8192,8164,8170,1.034641981124878
54,8173,8157,8102,8186,8186,8215,8203,8175,8163,8201,8194,8166,8165,8165,1.042926549911499
55,8215,8175,8124,8201,8202,8241,8221,8192,8214,8220,8212,8191,8180,8194,1.0503060817718506
56,8197,8185,8125,8192,8201,8248,8213,8198,8271,8198,8211,8205,8178,8192,1.058293104171753
57,8178,8167,8096,8183,8210,8242,8213,8190,8158,8200,8207,8156,8163,8183,1.065640926361084
58,8218,8195,8113,8198,8198,8247,8209,8192,8271,8196,8194,8208,8174,8207,1.073892593383789
59,8200,8168,8104,8182,8197,8247,8220,8188,8220,8202,8212,8191,8170,8202,1.081629991531372
60,8210,8184,8106,8190,8200,8257,8226,8199,8207,8197,8210,8182,8166,8201,1.089622974395752
61,8228,8204,8119,8201,8204,8262,8230,8197,8273,8193,8190,8194,8170,8200,1.0976412296295166
62,8209,8169,8114,8197,8216,8256,8229,8172,8163,8212,8204,8165,8165,8190,1.105607986450195
63,8212,8201,8136,8216,8200,8256,8202,8181,8259,8189,8204,8211,8177,8190,1.1132473945617676
64,8213,8198,8127,8215,8216,8258,8222,8189,8227,8196,8208,8183,8170,8191,1.121335744857788
65,8227,8190,8119,8211,8223,8268,8229,8183,8183,8199,8205,8176,8162,8212,1.1296417713165283
66,8197,8189,8118,8201,8194,8265,8202,8180,8235,8169,8194,8197,8168,8200,1.1363539695739746
67,8182,8169,8104,8190,8199,8263,8214,8181,8152,8195,8202,8158,8171,8187,1.1443541049957275
68,8215,8202,8121,8196,8191,8269,8210,8188,8247,8194,8185,8200,8178,8208,1.1526367664337158
69,8187,8174,8108,8180,8183,8260,8202,8173,8178,8179,8182,8178,8157,8192,1.1606409549713137
70,8200,8164,8111,8193,8184,8254,8203,8168,8124,8181,8183,8172,8151,8196,1.1689157485961914
71,8215,8187,8135,8200,8165,8244,8190,8173,8224,8168,8173,8214,8168,8203,1.1768269538879397
72,8177,8155,8120,8176,8167,8237,8185,8158,8095,8170,8188,8162,8162,8188,1.184826135635376
73,8189,8172,8124,8185,8154,8239,8169,8161,8148,8156,8179,8181,8162,8185,1.1926417350769043
74,8199,8164,8110,8180,8153,8236,8182,8164,8145,8165,8166,8173,8162,8176,1.1996243000030518
75,8198,8164,8107,8175,8159,8243,8194,8165,8094,8170,8173,8162,8165,8183,1.2077243328094482
76,8179,8180,8113,8176,8133,8239,8170,8167,8176,8141,8164,8195,8170,8177,1.21472430229187
77,8167,8139,8079,8158,8136,8228,8179,8150,8056,8152,8159,8147,8149,8161,1.2236406803131104
78,8177,8160,8085,8163,8128,8226,8176,8152,8101,8142,8150,8177,8154,8172,1.2316415309906006
79,8143,8162,8079,8156,8114,8218,8167,8156,8110,8136,8151,8173,8164,8163,1.2396414279937744
80,8161,8154,8063,8158,8122,8217,8175,8155,8058,8154,8154,8146,8162,8170,1.2476441860198977
81,8177,8176,8073,8164,8115,8216,8170,8162,8170,8139,8155,8190,8167,8175,1.2556421756744385
82,8147,8155,8072,8156,8124,8219,8179,8163,8097,8162,8186,8164,8169,8167,1.2638912200927734
83,8181,8182,8102,8180,8115,8228,8168,8161,8167,8171,8178,8194,8177,8182,1.2707180976867676
84,8169,8174,8102,8175,8112,8218,8154,8141,8168,8156,8166,8191,8168,8165,1.2787349224090576
85,8151,8151,8086,8172,8133,8219,8162,8144,8068,8163,8192,8163,8168,8161,1.286726951599121
86,8188,8179,8107,8184,8121,8234,8164,8166,8198,8161,8192,8217,8184,8184,1.2941629886627195
86,8188,8179,8107,8184,8121,8234,8164,8166,8198,8161,8192,8217,8184,8184,1.295224905014038
87,8174,8156,8093,8160,8121,8233,8176,8151,8122,8171,8185,8180,8164,8173,1.3023369312286377
88,8167,8167,8094,8166,8117,8227,8164,8151,8128,8155,8177,8184,8161,8161,1.3103368282318115
89,8163,8162,8092,8164,8108,8218,8161,8160,8160,8150,8174,8189,8169,8146,1.3186280727386477
90,8156,8133,8071,8147,8112,8216,8172,8149,8061,8164,8164,8153,8158,8149,1.3266282081604004
91,8153,8162,8077,8156,8093,8215,8149,8153,8152,8134,8143,8193,8163,8155,1.3336308002471924
92,8152,8144,8073,8151,8103,8220,8159,8151,8096,8150,8175,8173,8168,8146,1.341641187667847
93,8172,8152,8083,8146,8103,8233,8165,8147,8121,8159,8189,8188,8176,8158,1.3496434688568115
94,8142,8154,8071,8132,8082,8228,8146,8146,8152,8136,8164,8185,8166,8139,1.3576381206512451
95,8137,8134,8055,8130,8098,8226,8150,8144,8045,8150,8172,8149,8158,8132,1.3657219409942627
96,8161,8165,8086,8149,8107,8234,8150,8153,8175,8156,8187,8205,8178,8148,1.3730368614196775
96,8161,8165,8086,8149,8107,8234,8150,8153,8175,8156,8187,8205,8178,8148,1.3740367889404297
97,8135,8144,8080,8148,8118,8233,8163,8154,8133,8177,8194,8167,8164,8127,1.38165283203125
98,8158,8155,8080,8161,8120,8238,8164,8161,8125,8178,8180,8164,8158,8132,1.3906607627868652
99,8150,8162,8083,8153,8115,8238,8152,8155,8191,8158,8176,8197,8172,8135,1.3977000713348389
100,8127,8132,8063,8149,8128,8238,8159,8144,8082,8175,8190,8156,8170,8129,1.4043896198272705
101,8162,8164,8079,8167,8109,8236,8150,8152,8157,8159,8165,8189,8172,8136,1.412641525268555
102,8143,8144,8071,8142,8104,8220,8147,8139,8091,8148,8160,8166,8164,8120,1.4206438064575195
103,8143,8147,8076,8147,8115,8218,8150,8138,8069,8148,8173,8166,8166,8126,1.4288616180419922
104,8150,8164,8072,8156,8107,8214,8149,8145,8145,8131,8160,8194,8172,8124,1.436873197555542
105,8122,8129,8038,8129,8116,8212,8155,8132,8008,8134,8160,8147,8158,8113,1.444876194000244
106,8125,8154,8058,8138,8113,8216,8134,8140,8091,8122,8156,8183,8162,8122,1.4526426792144775
107,8124,8144,8053,8138,8120,8211,8145,8149,8090,8140,8153,8169,8162,8113,1.4601476192474363
107,8124,8144,8053,8138,8120,8211,8145,8149,8090,8140,8153,8169,8162,8113,1.4610846042633057
108,8139,8138,8040,8132,8125,8216,8160,8139,8046,8150,8149,8161,8162,8116,1.4670720100402832
108,8139,8138,8040,8132,8125,8216,8160,8139,8046,8150,8149,8161,8162,8116,1.4680726528167725
109,8124,8157,8053,8130,8107,8211,8135,8134,8123,8120,8150,8197,8167,8110,1.4756426811218262
110,8120,8138,8051,8133,8129,8216,8153,8140,8049,8149,8176,8166,8164,8116,1.4836416244506836
111,8166,8169,8074,8157,8135,8229,8166,8154,8154,8165,8173,8207,8179,8150,1.4911787509918213
112,8137,8152,8064,8144,8122,8217,8156,8145,8130,8160,8173,8192,8177,8136,1.500176191329956
113,8131,8143,8036,8146,8124,8212,8152,8142,8055,8163,8186,8173,8168,8132,1.5076415538787842
114,8149,8173,8054,8161,8124,8212,8150,8150,8159,8152,8178,8210,8171,8142,1.515657663345337
115,8130,8146,8065,8149,8140,8200,8162,8141,8069,8170,8179,8162,8164,8132,1.5236966609954834
116,8142,8165,8028,8157,8116,8204,8147,8150,8126,8166,8164,8191,8174,8139,1.5316987037658691
117,8133,8161,8108,8153,8108,8222,8152,8157,8159,8176,8176,8197,8175,8143,1.5386972427368164
118,8145,8153,8477,8159,8136,8232,8172,8159,8161,8199,8195,8177,8170,8158,1.5466980934143066
119,8157,8173,8773,8163,8119,8217,8157,8157,8299,8168,8161,8211,8170,8149,1.554697036743164
120,8126,8135,8726,8142,8117,8204,8155,8135,8176,8156,8151,8166,8154,8127,1.562697410583496
121,8135,8148,8683,8157,8118,8213,8141,8144,8210,8151,8163,8188,8167,8147,1.5706980228424072
122,8132,8156,8704,8157,8118,8217,8144,8153,8256,8162,8165,8189,8170,8136,1.5786995887756348
123,8128,8147,8660,8143,8130,8215,8158,8135,8151,8164,8157,8152,8159,8121,1.5866990089416504
124,8116,8159,8629,8142,8116,8205,8131,8128,8206,8123,8140,8190,8167,8115,1.5936968326568604
125,8093,8130,8601,8139,8125,8209,8146,8134,8121,8143,8156,8169,8163,8103,1.6016418933868408
126,8133,8160,8606,8164,8128,8232,8173,8154,8188,8167,8160,8198,8168,8129,1.6096410751342771
127,8144,8164,8606,8160,8120,8224,8164,8152,8238,8158,8151,8198,8170,8136,1.6177866458892822
240,8146,8140,8582,8147,8131,8214,8156,8132,8120,8159,8158,8157,8162,8129,1.6257867813110352
0,8157,8173,8593,8154,8123,8217,8145,8129,8196,8129,8146,8199,8167,8131,1.633643627166748
1,8131,8152,8576,8137,8132,8212,8156,8122,8111,8132,8154,8164,8163,8125,1.6416411399841309
2,8131,8156,8566,8135,8129,8215,8140,8121,8108,8130,8157,8171,8168,8129,1.6496407985687256
3,8107,8159,8565,8135,8112,8218,8123,8126,8151,8118,8156,8185,8167,8109,1.6576814651489258
4,8104,8140,8557,8143,8128,8227,8146,8129,8071,8152,8171,8149,8158,8107,1.6646816730499268
5,8140,8170,8572,8167,8127,8239,8146,8141,8203,8156,8159,8195,8172,8130,1.672696590423584
6,8125,8150,8559,8150,8136,8240,8151,8135,8156,8158,8161,8166,8168,8126,1.6807339191436768
7,8132,8160,8563,8150,8144,8237,8148,8137,8135,8156,8167,8165,8165,8133,1.6888010501861572
8,8130,8166,8563,8154,8132,8229,8139,8138,8178,8148,8167,8191,8167,8132,1.6968026161193848
9,8124,8136,8543,8145,8139,8230,8157,8134,8074,8171,8187,8159,8163,8139,1.7046411037445068
10,8148,8172,8566,8153,8130,8227,8149,8145,8188,8159,8180,8202,8172,8156,1.7125122547149658
11,8129,8161,8555,8143,8133,8216,8147,8129,8130,8153,8167,8174,8159,8141,1.721034288406372
12,8137,8159,8551,8151,8132,8226,8146,8126,8083,8145,8163,8166,8160,8149,1.7276175022125244
13,8144,8171,8565,8153,8118,8230,8140,8145,8189,8135,8155,8193,8166,8149,1.7356114387512207
14,8131,8139,8545,8135,8139,8227,8157,8135,8092,8157,8154,8149,8152,8135,1.7436411380767822
15,8136,8163,8560,8146,8141,8234,8149,8136,8165,8140,8151,8194,8168,8148,1.751640796661377
16,8127,8159,8564,8153,8148,8237,8153,8151,8177,8154,8173,8186,8174,8148,1.759641408920288
17,8160,8163,8566,8164,8156,8239,8160,8151,8165,8182,8179,8172,8168,8156,1.76764178276062
18,8158,8175,8561,8158,8143,8231,8139,8142,8234,8160,8164,8202,8173,8147,1.7756645679473877
19,8137,8146,8531,8148,8160,8229,8151,8146,8141,8185,8185,8166,8170,8142,1.7836635112762451
20,8168,8170,8530,8167,8151,8234,8154,8160,8238,8196,8183,8200,8175,8165,1.7906115055084229
21,8135,8153,8506,8150,8141,8224,8142,8142,8198,8175,8177,8181,8167,8144,1.7986040115356443
22,8132,8151,8499,8149,8148,8226,8141,8135,8113,8169,8176,8159,8161,8139,1.8066051006317136
23,8164,8177,8514,8162,8138,8232,8145,8149,8215,8167,8168,8198,8170,8147,1.8146417140960691
24,8141,8137,8491,8143,8154,8228,8159,8133,8111,8176,8190,8158,8164,8135,1.8227579593658447
25,8140,8157,8491,8149,8151,8223,8136,8130,8151,8151,8182,8187,8169,8140,1.8307573795318604
26,8139,8157,8480,8145,8132,8213,8130,8128,8143,8154,8170,8184,8168,8135,1.8386414051055908
27,8143,8143,8473,8148,8137,8222,8144,8122,8067,8175,8188,8161,8164,8139,1.8467590808868408
28,8139,8171,8491,8166,8137,8225,8131,8132,8180,8159,8182,8200,8168,8140,1.854708671569824
29,8141,8154,8473,8162,8153,8215,8151,8139,8106,8187,8183,8161,8166,8141,1.861732006072998
30,8173,8174,8480,8170,8155,8221,8154,8142,8160,8185,8184,8188,8178,8169,1.869732141494751
31,8139,8165,8478,8168,8153,8225,8137,8134,8190,8170,8192,8196,8174,8160,1.8777337074279783
32,8137,8152,8462,8176,8161,8229,8143,8139,8122,8193,8197,8164,8165,8152,1.885731220245361
33,8162,8179,8464,8178,8145,8231,8143,8148,8224,8174,8174,8194,8173,8149,1.8936421871185305
34,8126,8144,8441,8149,8156,8230,8157,8136,8121,8175,8184,8157,8164,8132,1.9016425609588623
35,8137,8155,8452,8167,8154,8240,8162,8147,8150,8188,8192,8183,8169,8148,1.9096412658691408
36,8140,8160,8446,8173,8141,8241,8159,8147,8191,8184,8179,8192,8169,8144,1.917741298675537
37,8127,8138,8424,8155,8156,8242,8162,8129,8072,8179,8183,8152,8158,8136,1.924747467041016
38,8146,8162,8438,8165,8142,8241,8152,8141,8172,8162,8190,8196,8170,8144,1.9326419830322263
39,8145,8148,8418,8159,8146,8242,8171,8148,8127,8189,8206,8164,8171,8142,1.9406416416168213
40,8154,8166,8414,8156,8152,8256,8168,8139,8132,8187,8194,8170,8166,8157,1.948641300201416
41,8120,8159,8407,8145,8143,8258,8149,8134,8161,8157,8183,8186,8162,8144,1.9566054344177248
42,8104,8126,8387,8149,8151,8264,8166,8143,8066,8173,8193,8151,8163,8134,1.9646730422973635
43,8137,8164,8409,8173,8131,8267,8157,8149,8181,8164,8175,8196,8173,8145,1.972109317779541
43,8137,8164,8409,8173,8131,8267,8157,8149,8181,8164,8175,8196,8173,8145,1.973119020462036
44,8126,8151,8400,8161,8130,8253,8148,8125,8107,8164,8176,8171,8157,8134,1.9803566932678225
45,8135,8156,8399,8170,8139,8255,8149,8130,8086,8164,8184,8171,8160,8140,1.9873552322387693
46,8145,8173,8406,8180,8132,8260,8158,8151,8188,8164,8177,8189,8177,8141,1.9966061115264893
47,8149,8148,8392,8175,8144,8259,8175,8137,8096,8183,8188,8150,8165,8144,2.00364089012146
48,8154,8171,8396,8179,8134,8250,8150,8127,8158,8148,8179,8195,8165,8151,2.011641263961792
49,8121,8156,8373,8159,8131,8241,8141,8116,8089,8139,8174,8169,8160,8126,2.019641876220703
49,8121,8156,8373,8159,8131,8241,8141,8116,8089,8139,8174,8169,8160,8126,2.0200953483581543
50,8127,8156,8368,8159,8131,8250,8138,8110,8037,8142,8173,8160,8160,8128,2.027667999267578
51,8126,8168,8372,8160,8113,8245,8131,8124,8116,8135,8168,8187,8167,8135,2.035914421081543
52,8120,8140,8345,8147,8123,8231,8152,8136,8046,8169,8177,8143,8164,8139,2.0439131259918213
53,8137,8167,8358,8161,8122,8235,8143,8144,8145,8163,8159,8180,8170,8143,2.051645517349243
54,8108,8153,8344,8157,8123,8234,8142,8137,8105,8153,8153,8162,8160,8117,2.0586307048797607
55,8126,8145,8330,8153,8120,8232,8149,8129,8056,8154,8154,8153,8163,8126,2.0666258335113525
56,8144,8168,8347,8160,8110,8232,8125,8122,8150,8137,8149,8196,8179,8137,2.074641466140747
57,8134,8156,8344,8173,8145,8239,8133,8119,8057,8153,8168,8152,8166,8134,2.082641363143921
58,8155,8181,8345,8191,8139,8244,8139,8131,8132,8146,8155,8169,8163,8143,2.0906782150268555
59,8113,8154,8311,8158,8118,8229,8135,8124,8106,8137,8144,8157,8157,8113,2.098642110824585
60,8099,8142,8294,8152,8126,8233,8141,8129,8045,8146,8156,8144,8154,8104,2.1054399013519287
60,8099,8142,8294,8152,8126,8233,8141,8129,8045,8146,8156,8144,8154,8104,2.106452703475952
61,8130,8174,8311,8171,8115,8241,8141,8141,8156,8136,8145,8181,8164,8118,2.1144468784332275
62,8120,8147,8298,8155,8118,8230,8144,8119,8051,8145,8150,8146,8163,8114,2.121956586837769
63,8117,8166,8311,8162,8116,8218,8119,8117,8112,8138,8153,8180,8172,8124,2.128957509994507
63,8117,8166,8311,8162,8116,8218,8119,8117,8112,8138,8153,8180,8172,8124,2.129955768585205
64,8113,8165,8303,8164,8124,8215,8123,8128,8145,8148,8155,8177,8172,8125,2.137960910797119
65,8134,8152,8289,8165,8139,8229,8146,8124,8084,8167,8164,8155,8167,8136,2.1457009315490723
66,8128,8168,8300,8166,8118,8222,8123,8125,8177,8137,8153,8193,8170,8122,2.153209924697876
67,8092,8137,8278,8148,8121,8206,8124,8127,8078,8147,8150,8144,8156,8094,2.161206007003784
68,8124,8166,8279,8161,8127,8220,8137,8141,8124,8159,8146,8166,8165,8122,2.168641328811645
69,8128,8173,8282,8166,8142,8225,8149,8146,8166,8163,8160,8182,8172,8131,2.1766045093536377
70,8127,8154,8277,8172,8162,8217,8153,8136,8082,8169,8171,8156,8163,8122,2.185157299041748
71,8147,8183,8285,8178,8135,8210,8126,8126,8161,8143,8138,8193,8163,8125,2.1927425861358643
72,8125,8155,8261,8151,8133,8208,8132,8111,8062,8149,8133,8155,8154,8116,2.200733184814453
73,8122,8163,8270,8158,8142,8211,8132,8123,8092,8147,8140,8173,8161,8121,2.208641529083252
74,8113,8162,8266,8167,8132,8199,8119,8129,8140,8142,8146,8182,8165,8112,2.215653896331787
75,8120,8147,8250,8164,8134,8197,8127,8119,8044,8163,8160,8148,8157,8119,2.2246415615081787
76,8133,8179,8274,8169,8129,8199,8116,8127,8149,8143,8155,8196,8168,8139,2.2326414585113525
77,8110,8152,8263,8159,8151,8186,8125,8128,8084,8148,8168,8158,8162,8124,2.2407171726226807
78,8136,8165,8256,8168,8153,8185,8132,8127,8083,8145,8158,8158,8162,8121,2.248687028884888
79,8120,8165,8241,8153,8130,8183,8120,8114,8108,8115,8132,8176,8161,8105,2.255689144134521
80,8103,8135,8225,8145,8150,8186,8130,8111,8004,8130,8145,8147,8154,8103,2.2637267112731934
81,8155,8174,8263,8178,8159,8199,8142,8143,8161,8150,8154,8194,8174,8133,2.2718658447265625
82,8155,8161,8266,8169,8164,8206,8162,8145,8158,8177,8177,8169,8178,8141,2.2798683643341064
83,8154,8162,8271,8170,8162,8212,8158,8142,8159,8174,8202,8176,8173,8154,2.2876408100128174
84,8151,8177,8278,8177,8153,8202,8148,8147,8229,8155,8187,8202,8168,8146,2.2959258556365967
85,8144,8153,8257,8166,8168,8195,8161,8138,8129,8180,8179,8161,8161,8141,2.303941011428833
86,8153,8170,8260,8167,8147,8198,8144,8145,8220,8173,8203,8191,8168,8144,2.311976432800293
87,8133,8153,8233,8152,8139,8191,8147,8144,8154,8163,8114,8165,8158,8122,2.3189828395843506
88,8141,8154,8219,8155,8145,8180,8147,8129,8060,8146,7790,8164,8157,8127,2.3269989490509038
89,8127,8165,8226,8154,8131,8159,8122,8118,8069,8127,7482,8192,8161,8113,2.3346428871154785
90,8116,8144,8220,8143,8139,8154,8130,8110,7938,8154,7411,8151,8155,8097,2.3423805236816406
91,8150,8172,8247,8159,8138,8159,8130,8125,8026,8146,7392,8193,8169,8127,2.3506431579589844
92,8138,8153,8243,8159,8151,8140,8138,8135,8008,8147,7343,8178,8163,8134,2.35905385017395
93,8152,8151,8233,8166,8159,8134,8143,8131,7945,8152,7305,8161,8152,8132,2.367051601409912
94,8144,8171,8228,8162,8134,8140,8118,8118,8003,8113,7276,8195,8160,8124,2.3750555515289307
95,8118,8143,8202,8154,8142,8143,8127,8116,7896,8124,7286,8158,8154,8118,2.3826420307159424
96,8159,8174,8224,8182,8143,8142,8133,8134,7987,8134,7280,8198,8162,8138,2.389636516571045
97,8149,8169,8228,8176,8146,8135,8125,8118,7977,8123,7265,8192,8162,8136,2.398092269897461
98,8144,8162,8215,8174,8160,8142,8118,8104,7906,8116,7269,8165,8156,8142,2.405345916748047
99,8157,8186,8215,8183,8152,8139,8109,8114,8001,8101,7257,8197,8166,8139,2.413344144821167
100,8138,8155,8201,8174,8165,8133,8124,8108,7903,8127,7268,8162,8164,8128,2.421642780303955
101,8160,8177,8223,8189,8161,8148,8120,8116,7979,8139,7269,8197,8172,8157,2.429417848587036
102,8151,8172,8215,8183,8156,8155,8114,8113,7997,8136,7263,8192,8167,8155,2.4373507499694824
102,8151,8172,8215,8183,8156,8155,8114,8113,7997,8136,7263,8192,8167,8155,2.438347578048706
103,8135,8156,8204,8184,8170,8159,8118,8106,7911,8135,7269,8168,8159,8144,2.4459753036499023
104,8141,8184,8220,8193,8165,8162,8129,8126,8024,8128,7263,8214,8169,8145,2.452974319458008
105,8134,8157,8190,8174,8180,8161,8164,8130,7952,8157,7273,8164,8159,8141,2.460641384124756
106,8147,8174,8195,8184,8179,8152,8154,8128,7990,8146,7277,8177,8160,8151,2.4684975147247314
107,8139,8178,8209,8189,8175,8130,8139,8126,8022,8137,7290,8196,8164,8145,2.4764864444732666
108,8140,8161,8197,8186,8186,8130,8149,8119,7939,8163,7310,8159,8165,8156,2.4844865798950195
109,8148,8187,8202,8190,8171,8136,8132,8121,8035,8146,7307,8162,8173,8167,2.492488384246826
110,8140,8168,8193,8177,8180,8124,8139,8119,7967,8158,7328,8110,8162,8155,2.5001983642578125
110,8140,8168,8193,8177,8180,8124,8139,8119,7967,8158,7328,8110,8162,8155,2.50119686126709
111,8156,8177,8200,8183,8179,8119,8132,8118,7989,8154,7334,8136,8162,8156,2.5086147785186768
112,8132,8169,8186,8179,8164,8120,8117,8112,7995,8127,7318,8141,8162,8130,2.515614748001098
113,8143,8156,8174,8180,8183,8134,8142,8116,7900,8143,7330,8104,8162,8135,2.523897171020508
114,8172,8192,8198,8197,8186,8137,8143,8132,8049,8139,7338,8161,8172,8171,2.532172918319702
115,8127,8157,8171,8174,8184,8114,8132,8115,7979,8138,7344,8120,8156,8150,2.5391433238983154
116,8130,8153,8158,8159,8159,8107,8114,8098,7923,8120,7335,8103,8156,8133,2.5471320152282715
117,8129,8163,8169,8153,8148,8104,8107,8101,7959,8105,7344,8116,8163,8131,2.555515766143799
118,8119,8142,8157,8160,8182,8096,8127,8103,7883,8125,7364,8088,8147,8128,2.563526153564453
119,8132,8168,8154,8179,8173,8093,8117,8109,7975,8100,7329,8128,8150,8120,2.5715394020080566
120,8103,8151,8139,8162,8163,8087,8114,8102,7892,8095,7314,8099,8153,8100,2.5785393714904785
121,8118,8161,8148,8163,8166,8078,8108,8100,7870,8096,7312,8104,8156,8123,2.5866048336029053
122,8122,8171,8146,8161,8154,8065,8098,8091,7933,8077,7305,8130,8162,8132,2.594149351119995
122,8122,8171,8146,8161,8154,8065,8098,8091,7933,8077,7305,8130,8162,8132,2.595143795013428
123,8103,8142,8132,8157,8166,8076,8124,8093,7835,8103,7341,8091,8165,8123,2.6031570434570312
124,8127,8171,8158,8177,8156,8097,8138,8128,7966,8116,7359,8131,8174,8135,2.610153913497925
125,8113,8152,8130,8146,8158,8095,8152,8125,7951,8123,7356,8107,8157,8129,2.618260383605957
126,8098,8147,8113,8139,8172,8094,8149,8117,7925,8120,7355,8097,8160,8128,2.6262614727020264
126,8098,8147,8113,8139,8172,8094,8149,8117,7925,8120,7355,8097,8160,8128,2.62726092338562
127,8096,8160,8137,8165,8162,8093,8134,8136,8035,8118,7370,8126,8178,8123,2.6342599391937256
240,8111,8133,8127,8158,8172,8093,8152,8131,7936,8144,7397,8086,8162,8133,2.642261505126953
0,8126,8163,8133,8154,8164,8098,8141,8119,7983,8111,7390,8125,8160,8147,2.6492602825164795
1,8088,8151,8122,8146,8156,8093,8137,8113,7950,8096,7403,8113,8156,8123,2.65726089477539
2,8105,8146,8115,8148,8154,8098,8143,8125,7925,8123,7421,8100,8156,8130,2.6652603149414062
3,8117,8164,8123,8144,8143,8099,8134,8138,8035,8121,7412,8133,8165,8136,2.6732616424560547
4,8092,8132,8102,8139,8160,8089,8148,8127,7944,8134,7426,8086,8159,8120,2.681262254714966
5,8113,8153,8106,8150,8147,8085,8141,8124,8017,8118,7424,8117,8166,8120,2.689706325531006
6,8098,8145,8093,8126,8138,8080,8145,8117,7993,8105,7423,8113,8159,8110,2.697648048400879
7,8100,8139,8092,8130,8149,8081,8156,8113,7919,8108,7443,8097,8151,8124,2.7056455612182617
8,8105,8163,8107,8149,8131,8068,8130,8117,8023,8085,7447,8133,8160,8132,2.7126400470733643
9,8085,8138,8084,8134,8138,8062,8133,8116,7938,8105,7472,8096,8160,8121,2.7201602458953857
10,8127,8171,8107,8157,8144,8081,8150,8140,8033,8125,7488,8136,8171,8151,2.728169679641724
11,8144,8174,8117,8171,8147,8077,8163,8145,8075,8136,7492,8143,8167,8158,2.736610412597656
12,8138,8146,8097,8153,8154,8066,8164,8122,7974,8131,7494,8111,8156,8150,2.74464750289917
13,8115,8158,8095,8132,8135,8065,8136,8114,8034,8089,7488,8139,8161,8135,2.7521286010742188
13,8115,8158,8095,8132,8135,8065,8136,8114,8034,8089,7488,8139,8161,8135,2.753126621246338
14,8082,8134,8076,8123,8145,8077,8138,8110,7940,8100,7500,8097,8157,8113,2.7606120109558105
15,8123,8165,8088,8158,8157,8099,8143,8127,8009,8114,7500,8126,8165,8128,2.7686121463775635
16,8133,8169,8088,8158,8157,8098,8149,8133,8057,8120,7512,8136,8166,8138,2.775641441345215
17,8114,8145,8080,8143,8155,8090,8150,8123,7961,8128,7535,8105,8162,8140,2.783649206161499
18,8120,8171,8097,8159,8135,8092,8136,8128,8074,8111,7532,8143,8171,8131,2.7916510105133057
19,8115,8149,8075,8147,8152,8095,8168,8130,8021,8136,7556,8104,8162,8117,2.799673557281494
20,8117,8164,8073,8144,8142,8100,8173,8139,8040,8135,7566,8122,8164,8133,2.8076412677764893
21,8101,8163,8079,8145,8112,8091,8158,8142,8080,8122,7567,8139,8170,8135,2.8156583309173584
22,8124,8141,8086,8152,8137,8089,8176,8134,8003,8144,7598,8110,8168,8148,2.8231916427612305
22,8124,8141,8086,8152,8137,8089,8176,8134,8003,8144,7598,8110,8168,8148,2.824184894561768
23,8147,8172,8119,8161,8145,8090,8169,8136,8111,8126,7605,8157,8171,8161,2.8320071697235107
24,8123,8152,8102,8139,8143,8088,8172,8136,8044,8134,7608,8117,8162,8138,2.8400087356567383
25,8153,8163,8103,8149,8136,8095,8177,8146,8069,8147,7610,8124,8173,8152,2.847059488296509
26,8152,8175,8121,8160,8134,8087,8171,8148,8150,8136,7624,8160,8182,8167,2.854641914367676
27,8142,8158,8113,8162,8159,8086,8187,8151,8077,8167,7662,8130,8176,8181,2.862640619277954
28,8173,8181,8113,8166,8148,8092,8175,8166,8204,8178,7668,8165,8182,8195,2.870617389678955
29,8143,8152,8091,8151,8149,8075,8163,8148,8138,8170,7672,8130,8166,8166,2.8786120414733887
30,8153,8169,8103,8172,8161,8077,8168,8142,8112,8160,7678,8126,8166,8167,2.886605262756348
31,8167,8187,8113,8174,8157,8092,8174,8158,8201,8162,7681,8152,8178,8176,2.8939573764801025
32,8150,8154,8096,8162,8172,8094,8183,8157,8108,8186,7699,8118,8165,8171,2.9029619693756104
33,8166,8187,8122,8193,8165,8094,8164,8153,8201,8160,7697,8162,8167,8175,2.9089603424072266
33,8166,8187,8122,8193,8165,8094,8164,8153,8201,8160,7697,8162,8167,8175,2.9099607467651367
34,8150,8175,8112,8178,8163,8095,8162,8144,8160,8161,7716,8135,8169,8161,2.9174671173095703
35,8154,8166,8099,8161,8164,8098,8166,8152,8127,8180,7740,8127,8172,8165,2.9256420135498047
36,8150,8179,8104,8171,8160,8092,8160,8152,8208,8164,7731,8160,8167,8154,2.9336421489715576
36,8150,8179,8104,8171,8160,8092,8160,8152,8208,8164,7731,8160,8167,8154,2.9339747428894043
37,8132,8156,8092,8169,8185,8097,8178,8135,8091,8168,7730,8115,8157,8139,2.941643714904785
38,8153,8182,8108,8177,8168,8105,8174,8153,8171,8155,7729,8156,8175,8153,2.9496407508850098
39,8143,8158,8083,8153,8153,8094,8178,8156,8154,8156,7732,8144,8172,8145,2.957273244857788
40,8139,8150,8072,8149,8171,8097,8185,8143,8099,8156,7737,8132,8162,8148,2.965275764465332
41,8137,8185,8103,8178,8177,8107,8181,8159,8219,8151,7753,8178,8175,8158,2.973641872406006
42,8154,8168,8098,8185,8200,8108,8204,8172,8174,8196,7782,8140,8172,8168,2.9806416034698486
43,8192,8183,8104,8179,8195,8107,8197,8170,8248,8191,7768,8158,8170,8184,2.9886410236358643
44,8148,8159,8079,8149,8180,8106,8187,8155,8207,8168,7766,8139,8161,8156,2.996604681015014
45,8126,8146,8060,8156,8177,8125,8187,8157,8139,8175,7782,8120,8158,8147,3.004732131958008
46,8150,8177,8085,8174,8165,8141,8181,8170,8256,8172,7783,8160,8169,8158,3.0126421451568604
47,8147,8158,8088,8168,8183,8147,8203,8162,8166,8193,7809,8122,8163,8155,3.020636320114136
48,8157,8180,8100,8181,8176,8148,8195,8167,8220,8182,7817,8153,8170,8163,3.028641939163208
49,8141,8170,8088,8170,8171,8132,8192,8170,8230,8172,7814,8153,8166,8158,3.0366694927215576
50,8146,8156,8079,8165,8187,8137,8211,8170,8161,8185,7829,8125,8158,8175,3.0436415672302246
51,8155,8188,8097,8177,8169,8153,8198,8180,8282,8168,7831,8162,8174,8180,3.0521514415740967
52,8131,8162,8072,8166,8167,8148,8198,8174,8195,8187,7845,8124,8169,8154,3.0591602325439453
53,8144,8177,8075,8176,8166,8142,8190,8172,8223,8187,7844,8151,8166,8168,3.067640781402588
54,8140,8179,8084,8177,8165,8129,8188,8172,8261,8182,7850,8161,8163,8172,3.0752172470092773
55,8158,8164,8086,8179,8181,8127,8204,8166,8186,8197,7870,8130,8164,8176,3.083243131637573
56,8176,8190,8111,8184,8173,8140,8193,8174,8287,8175,7872,8176,8177,8190,3.091870784759521
57,8158,8170,8101,8171,8182,8153,8205,8182,8223,8191,7895,8146,8169,8193,3.0998690128326416
58,8191,8188,8104,8192,8190,8157,8210,8181,8255,8194,7898,8156,8174,8215,3.106606960296631
59,8175,8183,8104,8187,8190,8141,8199,8165,8278,8169,7897,8166,8174,8207,3.1148111820220947
60,8151,8159,8092,8165,8192,8133,8207,8171,8177,8182,7919,8134,8161,8196,3.1228957176208496
61,8181,8194,8100,8175,8163,8127,8195,8193,8287,8170,7893,8168,8163,8199,3.130908250808716
62,8166,8161,8078,8160,8169,8126,8198,8177,8196,8161,7884,8129,8156,8183,3.1389920711517334
63,8161,8161,8092,8162,8180,8150,8195,8175,8190,8159,7906,8149,8164,8190,3.1466057300567627
64,8164,8180,8105,8171,8175,8154,8186,8177,8267,8160,7916,8179,8167,8185,3.154642105102539
65,8173,8161,8088,8172,8194,8150,8191,8153,8160,8174,7947,8130,8161,8178,3.1627018451690674
66,8177,8180,8101,8177,8177,8158,8175,8160,8265,8154,8009,8171,8175,8186,3.169697999954224
67,8146,8159,8088,8164,8172,8151,8184,8171,8242,8173,8081,8149,8166,8177,3.1776413917541504
68,8176,8174,8092,8182,8197,8152,8197,8173,8237,8181,8106,8141,8162,8189,3.18564248085022
69,8178,8195,8107,8192,8199,8159,8193,8177,8319,8163,8139,8168,8175,8193,3.1932594776153564
70,8166,8171,8101,8191,8189,8150,8196,8175,8232,8195,8205,8142,8168,8190,3.2012534141540527
71,8193,8191,8110,8195,8162,8132,8174,8175,8305,8175,8199,8178,8166,8186,3.209641933441162
72,8154,8164,8081,8160,8164,8126,8169,8167,8234,8147,8193,8142,8162,8161,3.217963933944702
73,8162,8170,8083,8173,8173,8135,8175,8175,8207,8161,8217,8142,8166,8178,3.2256414890289307
74,8189,8196,8109,8194,8167,8129,8168,8173,8315,8161,8221,8184,8168,8189,3.233565330505371
75,8167,8159,8092,8170,8185,8129,8175,8153,8198,8166,8240,8138,8156,8177,3.2405688762664795
76,8175,8175,8098,8177,8168,8135,8166,8171,8266,8156,8243,8169,8164,8186,3.248631000518799
77,8164,8163,8086,8175,8162,8124,8179,8181,8260,8166,8244,8156,8166,8181,3.256600141525269
78,8166,8165,8097,8182,8180,8124,8200,8182,8233,8182,8261,8150,8171,8200,3.264616012573242
79,8183,8193,8125,8200,8176,8125,8195,8199,8356,8188,8269,8190,8183,8215,3.2726433277130127
79,8183,8193,8125,8200,8176,8125,8195,8199,8356,8188,8269,8190,8183,8215,3.273103713989258
80,8183,8162,8098,8190,8194,8120,8199,8189,8262,8204,8276,8146,8166,8200,3.2806429862976074
81,8182,8182,8097,8181,8182,8113,8171,8166,8281,8161,8257,8171,8161,8190,3.288461208343506
82,8163,8175,8098,8166,8168,8101,8168,8158,8248,8146,8245,8158,8160,8170,3.296462059020996
83,8185,8167,8097,8175,8186,8115,8198,8180,8210,8178,8264,8146,8160,8185,3.3036417961120605
84,8185,8185,8103,8180,8166,8116,8187,8190,8320,8170,8272,8187,8169,8189,3.3116495609283447
85,8163,8155,8088,8168,8159,8101,8188,8173,8202,8175,8278,8138,8162,8173,3.319641351699829
86,8190,8180,8108,8185,8163,8108,8186,8182,8268,8166,8274,8169,8174,8199,3.3276631832122803
87,8166,8167,8090,8164,8147,8106,8181,8186,8293,8169,8276,8175,8170,8195,3.335663318634033
88,8151,8137,8063,8144,8135,8105,8186,8176,8181,8183,8277,8134,8154,8176,3.343641757965088
89,8159,8164,8090,8164,8135,8114,8180,8186,8278,8158,8268,8169,8166,8180,3.3516557216644287
90,8144,8148,8091,8162,8160,8121,8195,8192,8224,8178,8294,8145,8169,8183,3.3596644401550293
91,8178,8174,8106,8175,8153,8127,8188,8195,8270,8184,8293,8170,8174,8191,3.3666634559631348
92,8174,8180,8115,8178,8145,8119,8177,8180,8280,8156,8278,8170,8164,8162,3.3746984004974365
93,8160,8151,8096,8166,8152,8110,8183,8167,8167,8151,8277,8134,8155,8147,3.382641553878784
94,8163,8164,8092,8159,8121,8112,8169,8186,8267,8146,8264,8176,8170,8160,3.390641689300537
95,8141,8146,8074,8150,8124,8120,8184,8193,8208,8171,8280,8142,8171,8158,3.3988888263702397
96,8165,8171,8085,8172,8136,8122,8194,8193,8239,8172,8281,8164,8175,8175,3.4069089889526367
97,8164,8175,8085,8177,8136,8107,8186,8194,8283,8169,8266,8184,8170,8172,3.414909601211548
98,8160,8158,8077,8180,8153,8114,8195,8194,8200,8202,8274,8153,8166,8177,3.4226865768432617
99,8180,8191,8096,8189,8144,8131,8190,8194,8316,8186,8266,8200,8178,8190,3.430062770843506
100,8156,8158,8070,8162,8148,8120,8193,8183,8235,8176,8260,8167,8165,8169,3.438063144683838
101,8172,8162,8065,8166,8147,8110,8183,8188,8213,8171,8243,8167,8164,8170,3.4456417560577397
102,8170,8174,8066,8165,8133,8106,8165,8178,8244,8146,8217,8180,8167,8151,3.4535489082336426
103,8156,8148,8053,8152,8144,8116,8171,8164,8118,8154,8222,8136,8156,8136,3.461719751358032
104,8182,8183,8082,8172,8135,8126,8170,8193,8249,8160,8232,8183,8172,8164,3.469714879989624
105,8171,8173,8074,8171,8150,8123,8190,8203,8238,8183,8261,8164,8182,8171,3.477635145187378
106,8183,8178,8078,8182,8164,8132,8200,8197,8224,8188,8268,8168,8181,8178,3.485666036605835
107,8185,8184,8090,8183,8144,8134,8192,8201,8303,8175,8252,8193,8178,8184,3.493642568588257
108,8168,8154,8068,8168,8149,8134,8197,8194,8205,8189,8262,8149,8168,8187,3.50028395652771
109,8189,8189,8078,8183,8143,8132,8179,8195,8281,8175,8248,8186,8172,8186,3.508305072784424
110,8175,8170,8069,8169,8143,8120,8178,8182,8225,8180,8235,8163,8166,8165,3.5163393020629883
111,8169,8157,8064,8164,8143,8118,8174,8179,8171,8176,8233,8147,8162,8162,3.5246410369873047
112,8166,8173,8065,8169,8124,8112,8157,8185,8237,8147,8225,8172,8166,8145,3.53197717666626
112,8166,8173,8065,8169,8124,8112,8157,8185,8237,8147,8225,8172,8166,8145,3.5329763889312744
113,8160,8149,8054,8161,8138,8107,8168,8174,8116,8161,8234,8138,8156,8137,3.5409789085388184
114,8165,8175,8072,8169,8130,8107,8150,8175,8181,8139,8225,8178,8163,8150,3.5484018325805664
115,8142,8163,8055,8155,8122,8094,8143,8170,8152,8126,8226,8160,8163,8132,3.5564095973968506
116,8157,8153,8051,8153,8136,8095,8148,8171,8108,8144,8239,8150,8167,8151,3.5634186267852783
117,8156,8166,8062,8162,8129,8102,8139,8179,8214,8138,8224,8188,8174,8163,3.5716419219970703
118,8134,8140,8033,8151,8137,8103,8156,8166,8097,8139,8213,8133,8154,8136,3.579641342163086
119,8147,8161,8039,8143,8128,8108,8146,8166,8133,8111,8205,8158,8160,8138,3.5876407623291016
120,8123,8144,8030,8129,8120,8107,8140,8175,8129,8113,8213,8160,8165,8137,3.5956623554229736
121,8141,8133,8021,8140,8127,8106,8156,8176,8069,8136,8214,8144,8156,8130,3.603672981262207
122,8149,8161,8042,8140,8114,8105,8145,8170,8152,8108,8198,8183,8159,8116,3.6112115383148193
123,8102,8131,8037,8120,8125,8114,8149,8169,8064,8117,8226,8148,8162,8112,3.619641780853272
124,8134,8151,8049,8144,8121,8127,8151,8188,8162,8133,8233,8178,8175,8141,3.6266679763793945
125,8151,8155,8043,8143,8118,8119,8162,8186,8199,8146,8222,8174,8171,8141,3.634664535522461
126,8135,8150,8035,8141,8133,8122,8176,8180,8119,8157,8238,8145,8168,8147,3.642642498016357
127,8137,8178,8049,8160,8124,8120,8160,8190,8225,8128,8234,8188,8175,8156,3.650641441345215
240,8136,8149,8025,8141,8129,8105,8163,8174,8123,8131,8232,8145,8163,8145,3.6582281589508057
240,8136,8149,8025,8141,8129,8105,8163,8174,8123,8131,8232,8145,8163,8145,3.65921688079834
0,8151,8165,8033,8138,8119,8105,8148,8168,8132,8126,8230,8161,8172,8161,3.666215419769287
1,8134,8169,8043,8139,8115,8103,8134,8174,8167,8121,8239,8177,8173,8154,3.6756417751312256
2,8152,8154,8040,8142,8141,8117,8152,8176,8094,8143,8243,8152,8160,8144,3.6826419830322266
3,8159,8171,8047,8146,8126,8129,8136,8178,8185,8114,8221,8189,8164,8141,3.6906418800354
4,8113,8140,8027,8139,8124,8116,8131,8170,8101,8113,8240,8153,8164,8128,3.697510719299317
5,8152,8168,8046,8164,8135,8122,8146,8185,8156,8137,8252,8176,8179,8155,3.705501556396485
6,8155,8174,8054,8155,8134,8138,8154,8189,8227,8138,8239,8186,8171,8160,3.713501214981079
7,8115,8138,8029,8139,8143,8142,8148,8174,8100,8128,8239,8136,8149,8145,3.721012115478516
7,8115,8138,8029,8139,8143,8142,8148,8174,8100,8128,8239,8136,8149,8145,3.7219388484954834
8,8135,8166,8039,8155,8133,8139,8128,8176,8185,8105,8222,8181,8169,8144,3.7289462089538574
8,8135,8166,8039,8155,8133,8139,8128,8176,8185,8105,8222,8181,8169,8144,3.7299458980560303
9,8134,8151,8032,8133,8135,8137,8143,8170,8135,8128,8237,8163,8170,8141,3.7369461059570312
10,8136,8158,8041,8135,8134,8143,8144,8173,8150,8143,8262,8170,8165,8163,3.7449471950531006
10,8136,8158,8041,8135,8134,8143,8144,8173,8150,8143,8262,8170,8165,8163,3.745945692062378
11,8135,8165,8048,8160,8132,8143,8137,8181,8225,8131,8258,8184,8170,8160,3.7529456615448
11,8135,8165,8048,8160,8132,8143,8137,8181,8225,8131,8258,8184,8170,8160,3.75394606590271
12,8136,8144,8033,8161,8154,8151,8159,8179,8123,8141,8254,8146,8166,8145,3.760946273803711
13,8145,8175,8055,8165,8138,8156,8148,8187,8219,8129,8250,8193,8173,8153,3.767945289611816
14,8138,8158,8050,8156,8145,8140,8145,8180,8181,8150,8263,8169,8171,8148,3.7769460678100586
15,8168,8163,8054,8163,8171,8142,8149,8178,8174,8163,8268,8167,8174,8166,3.7846429347991934
16,8152,8173,8060,8154,8165,8151,8147,8187,8250,8143,8270,8194,8175,8165,3.792959928512573
17,8125,8139,8043,8135,8167,8148,8165,8186,8145,8159,8280,8151,8163,8151,3.8001885414123535
18,8152,8163,8053,8155,8152,8140,8155,8193,8233,8154,8254,8187,8169,8160,3.8086304664611816
19,8141,8148,8036,8151,8153,8136,8161,8191,8191,8159,8247,8166,8165,8152,3.816628217697144
20,8159,8151,8045,8157,8165,8154,8178,8195,8159,8169,8255,8163,8165,8163,3.824641704559326
21,8178,8176,8075,8171,8163,8159,8172,8203,8262,8153,8247,8199,8170,8163,3.831641435623169
22,8161,8150,8058,8164,8171,8147,8173,8184,8148,8160,8260,8154,8163,8150,3.839470863342285
23,8163,8178,8071,8173,8143,8144,8155,8177,8200,8140,8269,8189,8175,8159,3.847480773925781
24,8148,8174,8084,8176,8129,8144,8164,8189,8199,8150,8285,8182,8173,8160,3.855486869812012
25,8174,8173,8092,8198,8139,8155,8183,8204,8188,8174,8292,8169,8168,8171,3.86364221572876
26,8183,8193,8094,8195,8121,8149,8161,8197,8277,8149,8277,8197,8172,8166,3.872107982635498
27,8150,8165,8084,8169,8118,8137,8161,8180,8158,8156,8295,8160,8161,8163,3.879641056060791
28,8172,8190,8125,8194,8102,8149,8166,8199,8242,8162,8301,8203,8172,8190,3.8881349563598633
29,8178,8178,8120,8192,8088,8157,8177,8199,8260,8165,8290,8190,8171,8184,3.89499306678772
30,8179,8157,8095,8172,8089,8158,8179,8189,8169,8154,8281,8156,8158,8181,3.902994394302368
31,8175,8184,8114,8182,8082,8150,8170,8208,8252,8127,8270,8197,8166,8180,3.910642147064209
32,8170,8171,8108,8193,8102,8145,8192,8209,8180,8163,8285,8162,8166,8172,3.918642044067383
33,8191,8176,8101,8192,8087,8143,8177,8194,8221,8160,8282,8184,8167,8178,3.926604986190796
34,8156,8154,8078,8163,8063,8131,8158,8187,8207,8141,8282,8186,8162,8154,3.9346418380737305
35,8164,8156,8074,8174,8077,8140,8179,8201,8150,8168,8293,8165,8168,8161,3.94265079498291
36,8188,8189,8096,8190,8074,8148,8175,8212,8279,8157,8283,8205,8180,8181,3.95065188407898
37,8147,8145,8069,8160,8083,8146,8175,8201,8171,8153,8291,8165,8163,8157,3.95765233039856
38,8163,8160,8066,8167,8084,8151,8175,8205,8205,8160,8291,8188,8169,8164,3.965650796890259
39,8170,8171,8074,8166,8075,8148,8176,8207,8269,8170,8296,8194,8176,8178,3.9739274978637695
40,8156,8148,8073,8159,8076,8146,8178,8200,8178,8182,8309,8153,8161,8175,3.9818034172058105
41,8165,8171,8085,8175,8059,8144,8162,8204,8267,8157,8289,8198,8162,8167,3.989804267883301
42,8156,8150,8064,8169,8072,8141,8176,8201,8199,8161,8294,8169,8161,8162,3.99764084815979
43,8166,8162,8072,8173,8065,8142,8171,8203,8210,8153,8290,8171,8165,8175,4.00564169883728
44,8154,8164,8076,8168,8044,8131,8149,8192,8229,8139,8273,8179,8163,8157,4.0136048793792725
45,8150,8145,8064,8164,8060,8144,8163,8184,8128,8161,8294,8155,8162,8156,4.020137071609497
46,8152,8174,8085,8172,8041,8165,8156,8199,8253,8149,8305,8201,8176,8173,4.028177976608276
47,8120,8146,8072,8161,8032,8157,8157,8201,8191,8154,8306,8160,8167,8157,4.036606073379517
48,8150,8158,8067,8174,8040,8159,8168,8205,8179,8159,8293,8167,8164,8165,4.044641733169556
49,8142,8161,8056,8150,8019,8156,8160,8191,8216,8142,8280,8188,8158,8150,4.052749156951904
50,8105,8126,8034,8125,8016,8150,8158,8170,8073,8149,8298,8137,8153,8130,4.060640573501587
51,8135,8168,8062,8165,8017,8158,8155,8196,8191,8142,8297,8184,8175,8148,4.068636655807495
52,8154,8160,8067,8167,8032,8156,8178,8202,8188,8159,8296,8174,8170,8150,4.076637029647827
53,8169,8155,8080,8162,8032,8151,8180,8191,8163,8170,8305,8178,8170,8166,4.0846357345581055
54,8164,8178,8096,8177,8027,8144,8168,8201,8251,8174,8312,8210,8182,8164,4.091653347015381
55,8171,8169,8083,8183,8055,8139,8192,8206,8184,8213,8320,8172,8168,8155,4.099654674530029
56,8195,8188,8096,8187,8046,8143,8184,8210,8267,8193,8302,8202,8165,8171,4.107640743255615
57,8157,8161,8082,8168,8042,8150,8185,8212,8226,8178,8301,8176,8169,8160,4.115641117095947
58,8164,8165,8073,8173,8045,8157,8193,8216,8200,8191,8307,8170,8171,8159,4.124112367630005
59,8180,8183,8086,8179,8025,8144,8177,8207,8281,8181,8297,8204,8172,8161,4.131520986557007
60,8158,8148,8080,8166,8039,8137,8183,8189,8167,8188,8313,8163,8168,8158,4.139527082443237
61,8164,8176,8095,8178,8037,8143,8176,8204,8247,8174,8309,8201,8180,8156,4.147640943527222
62,8168,8172,8079,8177,8028,8141,8187,8211,8238,8183,8298,8188,8169,8139,4.154613971710205
63,8189,8159,8064,8172,8033,8144,8193,8202,8169,8187,8290,8169,8161,8155,4.162614583969116
64,8162,8171,8073,8163,8023,8133,8163,8192,8233,8143,8279,8202,8174,8153,4.170644760131836
65,8137,8147,8059,8157,8038,8130,8170,8187,8134,8159,8293,8162,8166,8135,4.178643465042114
66,8190,8178,8077,8180,8046,8151,8180,8202,8220,8178,8289,8198,8169,8155,4.186642408370972
67,8165,8169,8070,8166,8044,8149,8174,8193,8210,8164,8290,8191,8166,8143,4.1946797370910645
68,8142,8150,8052,8161,8037,8141,8163,8178,8109,8150,8291,8161,8156,8129,4.202456951141357
69,8174,8181,8070,8177,8017,8150,8153,8187,8207,8137,8267,8197,8160,8129,4.210471391677856
70,8159,8162,8062,8164,8041,8166,8172,8190,8125,8155,8276,8163,8157,8127,4.217999219894409
71,8160,8177,8072,8170,8043,8174,8165,8197,8182,8150,8282,8191,8170,8145,4.225646257400513
72,8161,8169,8069,8166,8033,8164,8150,8186,8189,8138,8273,8188,8168,8133,4.234036207199097
73,8154,8155,8064,8168,8053,8173,8153,8165,8075,8136,8266,8155,8157,8123,4.24203634262085
74,8144,8180,8084,8184,8043,8186,8146,8176,8193,8128,8252,8207,8167,8130,4.249638080596924
74,8144,8180,8084,8184,8043,8186,8146,8176,8193,8128,8252,8207,8167,8130,4.2502171993255615
75,8131,8144,8055,8164,8038,8183,8158,8177,8132,8160,8257,8172,8163,8122,4.257636308670044
76,8144,8158,8050,8154,8042,8190,8150,8175,8142,8152,8258,8177,8167,8121,4.2656543254852295
77,8128,8172,8058,8157,8055,8201,8148,8186,8189,8148,8266,8195,8169,8114,4.273654937744141
78,8152,8162,8061,8181,8075,8209,8172,8194,8152,8189,8283,8179,8167,8134,4.2816431522369385
79,8175,8184,8085,8188,8059,8202,8157,8191,8260,8163,8274,8217,8176,8155,4.288644313812256
80,8128,8151,8064,8153,8057,8190,8150,8173,8142,8139,8271,8179,8158,8129,4.296609401702881
81,8140,8160,8056,8155,8042,8190,8146,8172,8114,8133,8249,8186,8153,8125,4.304607391357422
82,8146,8166,8057,8159,8037,8181,8143,8167,8146,8130,8239,8198,8165,8123,4.312722444534302
83,8140,8152,8066,8169,8079,8183,8158,8171,8080,8155,8277,8177,8170,8133,4.3202805519104
84,8166,8188,8092,8194,8075,8189,8147,8185,8211,8146,8277,8228,8175,8155,4.328279495239258
85,8156,8164,8065,8171,8067,8180,8154,8162,8128,8150,8271,8186,8165,8149,4.336605787277222
86,8165,8173,8077,8182,8082,8185,8159,8164,8138,8159,8286,8195,8178,8163,4.344642162322998
87,8172,8193,8096,8211,8089,8187,8155,8187,8264,8160,8290,8228,8185,8166,4.351930618286133
88,8173,8163,8076,8197,8101,8186,8172,8181,8167,8175,8288,8187,8166,8159,4.359641313552856
88,8173,8163,8076,8197,8101,8186,8172,8181,8167,8175,8288,8187,8166,8159,4.360219717025757
89,8178,8180,8089,8178,8079,8181,8155,8181,8223,8151,8272,8225,8171,8157,4.3672239780426025
89,8178,8180,8089,8178,8079,8181,8155,8181,8223,8151,8272,8225,8171,8157,4.36823296546936
90,8159,8163,8079,8175,8077,8169,8155,8177,8171,8161,8277,8202,8170,8142,4.375793218612671
91,8186,8175,8086,8203,8094,8181,8168,8179,8156,8174,8280,8200,8168,8163,4.383794069290161
92,8180,8194,8105,8201,8091,8191,8160,8188,8235,8153,8279,8228,8167,8169,4.39164137840271
93,8167,8165,8093,8179,8105,8185,8174,8186,8151,8179,8302,8185,8161,8167,4.399991512298584
94,8198,8188,8112,8196,8101,8173,8167,8187,8259,8185,8293,8222,8173,8185,4.4080071449279785
95,8164,8174,8105,8190,8104,8165,8158,8178,8225,8181,8282,8202,8168,8160,4.4160144329071045
96,8163,8171,8093,8189,8109,8172,8163,8173,8169,8177,8282,8190,8162,8151,4.423020601272583
97,8169,8176,8095,8183,8091,8175,8164,8174,8244,8155,8278,8222,8165,8151,4.430641174316406
98,8141,8146,8073,8165,8104,8184,8172,8171,8146,8179,8294,8180,8160,8139,4.438642501831055
99,8174,8187,8083,8192,8109,8199,8170,8194,8250,8192,8290,8220,8173,8159,4.447044134140015
100,8183,8176,8089,8192,8116,8193,8186,8199,8261,8197,8304,8219,8174,8167,4.455045461654663
101,8180,8161,8096,8188,8123,8178,8177,8182,8188,8194,8318,8201,8165,8168,4.462641716003418
102,8187,8192,8107,8201,8112,8168,8147,8174,8260,8173,8299,8241,8170,8161,4.470628261566162
103,8183,8175,8098,8200,8134,8171,8176,8176,8177,8194,8318,8207,8173,8165,4.478623390197754
104,8201,8195,8123,8218,8135,8183,8185,8196,8272,8196,8335,8220,8185,8187,4.485630750656128
105,8197,8191,8100,8220,8141,8174,8174,8193,8296,8204,8336,8247,8180,8182,4.4936439990997314
106,8210,8188,8079,8228,8164,8174,8172,8193,8232,8226,8345,8219,8178,8195,4.501172304153442
107,8214,8205,8137,8230,8148,8184,8160,8213,8336,8213,8338,8064,8184,8197,4.5099570751190186
108,8189,8163,8060,8206,8154,8183,8175,8204,8216,8219,8340,7884,8163,8179,4.51695704460144
109,8191,8176,8063,8212,8149,8184,8172,8193,8219,8194,8325,8018,8161,8183,4.525641679763794
110,8167,8167,8522,8199,8130,8184,8170,8190,8265,8174,8301,8124,8160,8156,4.533564329147339
111,8166,8151,9094,8184,8134,8196,8184,8187,8256,8189,8294,8070,8153,8144,4.541615962982178
112,8179,8185,9249,8201,8129,8192,8167,8188,8400,8171,8297,8128,8165,8159,4.54960560798645
113,8163,8161,9180,8207,8145,8176,8167,8181,8333,8184,8324,8138,8166,8164,4.556599140167236
114,8189,8176,9284,8217,8150,8187,8166,8191,8393,8194,8332,8160,8174,8192,4.5646045207977295
115,8181,8184,9339,8205,8152,8191,8158,8194,8454,8188,8321,8177,8172,8186,4.572641611099243
116,8177,8161,9289,8199,8159,8177,8158,8175,8338,8182,8309,8143,8157,8166,4.580641269683838
117,8187,8178,9307,8203,8132,8162,8137,8168,8394,8147,8290,8180,8163,8162,4.588640928268433
118,8163,8157,9301,8199,8138,8166,8148,8174,8326,8171,8310,8161,8165,8158,4.596441745758057
119,8200,8180,9321,8221,8147,8185,8160,8198,8388,8199,8316,8188,8176,8184,4.604444980621338
120,8193,8183,9325,8204,8138,8184,8150,8199,8446,8183,8304,8200,8173,8180,4.61164140701294
121,8159,8151,9293,8186,8146,8184,8155,8185,8309,8180,8306,8152,8156,8163,4.619641780853272
122,8183,8183,9301,8208,8135,8191,8153,8193,8400,8169,8284,8200,8165,8167,4.62703275680542
122,8183,8183,9301,8208,8135,8191,8153,8193,8400,8169,8284,8200,8165,8167,4.628031492233276
123,8177,8167,9290,8197,8150,8190,8166,8190,8356,8187,8295,8188,8165,8159,4.636028051376343
124,8168,8169,9291,8198,8163,8193,8163,8193,8352,8185,8316,8195,8170,8166,4.643344879150391
125,8149,8168,9270,8196,8139,8186,8149,8192,8396,8161,8291,8212,8167,8144,4.651246786117554
126,8138,8139,9237,8180,8135,8183,8157,8179,8265,8179,8273,8174,8147,8124,4.6592347621917725
127,8152,8173,9266,8189,8133,8188,8144,8186,8360,8165,8270,8226,8158,8142,4.667101144790649
240,8151,8162,9268,8189,8150,8186,8156,8184,8341,8162,8291,8224,8167,8146,4.675109624862671
0,8179,8162,9263,8200,8160,8199,8165,8184,8326,8170,8298,8237,8169,8160,4.683110952377319
0,8179,8162,9263,8200,8160,8199,8165,8184,8326,8170,8298,8237,8169,8160,4.684110403060913
1,8163,8167,9259,8195,8136,8202,8145,8191,8399,8163,8277,8256,8169,8154,4.691111326217651
2,8128,8129,9222,8171,8138,8191,8152,8187,8287,8182,8277,8199,8162,8143,4.699109554290772
3,8143,8151,9220,8178,8132,8196,8154,8200,8369,8170,8278,8239,8173,8160,4.706115007400513
3,8143,8151,9220,8178,8132,8196,8154,8200,8369,8170,8278,8239,8173,8160,4.707114458084106
4,8129,8146,9209,8177,8130,8202,8165,8209,8350,8175,8281,8220,8160,8150,4.715115308761597
5,8147,8150,9195,8178,8133,8206,8173,8206,8303,8185,8266,8205,8149,8150,4.722691535949707
6,8149,8164,9186,8172,8123,8200,8166,8201,8372,8166,8257,8245,8161,8154,4.730708122253418
7,8124,8129,9162,8161,8133,8194,8189,8204,8273,8190,8286,8205,8160,8152,4.738707780838013
8,8163,8158,9170,8176,8117,8201,8192,8218,8368,8190,8284,8239,8169,8168,4.745641469955444
8,8163,8158,9170,8176,8117,8201,8192,8218,8368,8190,8284,8239,8169,8168,4.746065616607666
9,8158,8156,9149,8163,8114,8203,8188,8205,8362,8182,8285,8234,8168,8164,4.753631353378296
10,8150,8147,9128,8170,8124,8201,8185,8196,8296,8194,8299,8213,8165,8171,4.76163125038147
11,8164,8163,9126,8183,8103,8189,8164,8196,8385,8185,8288,8244,8170,8169,4.769627094268799
12,8145,8135,9090,8161,8117,8183,8169,8176,8269,8192,8295,8203,8159,8152,4.777642250061035
13,8144,8164,9088,8174,8115,8190,8164,8193,8328,8181,8293,8232,8167,8158,4.787644386291504
14,8137,8157,9071,8176,8098,8176,8169,8206,8350,8188,8287,8226,8170,8151,4.793644189834595
15,8154,8137,9044,8162,8104,8168,8176,8188,8253,8196,8290,8205,8163,8158,4.80164361000061
16,8143,8161,9039,8160,8099,8171,8148,8180,8309,8154,8274,8246,8164,8143,4.808649063110352
17,8116,8135,9000,8152,8103,8169,8146,8173,8194,8152,8268,8199,8149,8104,4.816648244857788
18,8155,8154,8990,8166,8095,8172,8143,8170,8230,8145,8258,8219,8157,8119,4.8248610496521
19,8146,8159,8987,8164,8097,8169,8141,8170,8263,8142,8272,8232,8169,8132,4.832866907119751
20,8149,8150,8978,8175,8114,8173,8155,8183,8220,8172,8306,8215,8173,8146,4.840861558914185
20,8149,8150,8978,8175,8114,8173,8155,8183,8220,8172,8306,8215,8173,8146,4.84098744392395
21,8186,8178,8975,8196,8102,8174,8153,8194,8343,8173,8305,8258,8180,8160,4.848035097122192
22,8162,8151,8939,8178,8115,8171,8163,8176,8249,8188,8316,8223,8169,8150,4.855993270874023
22,8162,8151,8939,8178,8115,8171,8163,8176,8249,8188,8316,8223,8169,8150,4.856994152069092
23,8155,8161,8929,8183,8112,8178,8154,8179,8272,8188,8303,8237,8167,8152,4.863038539886475
23,8155,8161,8929,8183,8112,8178,8154,8179,8272,8188,8303,8237,8167,8152,4.863994836807251
24,8149,8154,8905,8187,8096,8169,8153,8195,8313,8182,8272,8232,8164,8133,4.872642278671265
25,8162,8135,8881,8190,8115,8161,8176,8199,8216,8192,8267,8196,8161,8130,4.879117250442505
26,8171,8169,8900,8193,8111,8155,8151,8196,8313,8170,8253,8242,8170,8135,4.887641429901123
26,8171,8169,8900,8193,8111,8155,8151,8196,8313,8170,8253,8242,8170,8135,4.8881237506866455
27,8133,8139,8873,8164,8116,8152,8141,8174,8233,8175,8255,8206,8160,8119,4.895129680633545
27,8133,8139,8873,8164,8116,8152,8141,8174,8233,8175,8255,8206,8160,8119,4.896130084991455
28,8138,8145,8854,8175,8115,8168,8146,8180,8229,8173,8251,8214,8164,8126,4.90313720703125
29,8139,8158,8843,8191,8106,8170,8146,8197,8284,8168,8245,8233,8168,8114,4.911642074584961
30,8153,8142,8826,8192,8125,8169,8169,8196,8199,8195,8261,8197,8164,8111,4.919641017913818
31,8183,8172,8835,8195,8123,8177,8172,8199,8300,8172,8256,8244,8176,8137,4.926659345626831
32,8142,8142,8798,8166,8132,8175,8168,8187,8214,8166,8255,8218,8166,8131,4.934662580490112
33,8138,8148,8775,8172,8137,8177,8154,8187,8188,8182,8250,8225,8166,8130,4.942641735076904
34,8156,8170,8775,8187,8126,8185,8160,8196,8283,8186,8247,8255,8177,8134,4.950668573379517
35,8150,8141,8746,8169,8138,8191,8180,8189,8180,8194,8259,8212,8163,8133,4.95864200592041
36,8145,8159,8732,8164,8120,8175,8148,8184,8233,8164,8237,8239,8162,8128,4.966682434082031
37,8137,8151,8705,8165,8118,8164,8155,8179,8183,8169,8234,8218,8164,8117,4.974708318710327
38,8175,8164,8713,8183,8142,8184,8182,8187,8183,8189,8246,8221,8172,8149,4.982707500457764
39,8162,8173,8710,8174,8132,8170,8155,8188,8262,8168,8232,8247,8170,8146,4.9907066822052
40,8137,8140,8666,8159,8130,8149,8151,8174,8129,8171,8229,8203,8157,8125,4.998707056045532
41,8170,8172,8676,8180,8130,8160,8162,8184,8214,8166,8230,8245,8174,8155,5.0064215660095215
42,8152,8165,8668,8176,8147,8158,8168,8192,8213,8181,8244,8226,8168,8156,5.013427734375
43,8161,8163,8651,8179,8151,8156,8170,8199,8195,8206,8251,8216,8163,8155,5.021959543228149
44,8173,8183,8651,8178,8139,8165,8178,8206,8302,8197,8246,8262,8177,8155,5.029624223709106
45,8148,8154,8615,8158,8160,8167,8191,8189,8175,8190,8246,8215,8164,8136,5.037604331970215
46,8162,8173,8606,8171,8151,8163,8165,8178,8198,8161,8227,8229,8160,8130,5.045612096786499
47,8149,8157,8592,8162,8149,8158,8166,8175,8181,8170,8238,8225,8164,8127,5.053605556488037
48,8146,8149,8582,8160,8171,8165,8179,8182,8150,8191,8264,8221,8170,8140,5.061616659164429
49,8164,8183,8588,8183,8163,8161,8159,8191,8264,8178,8253,8260,8178,8143,5.069632291793823
50,8175,8156,8564,8181,8162,8151,8167,8179,8160,8197,8247,8211,8163,8140,5.076668739318848
51,8187,8164,8561,8173,8146,8154,8160,8179,8188,8175,8230,8234,8162,8151,5.084662675857544
52,8143,8155,8542,8153,8145,8158,8160,8179,8174,8150,8230,8234,8162,8131,5.092642307281494
53,8139,8148,8527,8164,8169,8168,8179,8185,8115,8178,8242,8211,8164,8126,5.1010518074035645
54,8166,8167,8528,8186,8154,8164,8162,8186,8216,8172,8212,8247,8168,8124,5.109058380126953
55,8148,8139,8493,8163,8150,8151,8158,8161,8096,8165,8211,8208,8158,8107,5.1160993576049805
55,8148,8139,8493,8163,8150,8151,8158,8161,8096,8165,8211,8208,8158,8107,5.117100477218628
56,8162,8175,8500,8169,8154,8160,8163,8168,8145,8155,8229,8236,8170,8128,5.1244056224823
57,8167,8183,8490,8177,8170,8167,8177,8186,8210,8174,8233,8242,8171,8134,5.1324121952056885
58,8184,8160,8479,8181,8191,8172,8193,8184,8148,8203,8239,8213,8159,8141,5.139641284942627
59,8193,8179,8493,8185,8168,8171,8172,8184,8250,8176,8243,8259,8172,8152,5.147641897201538
60,8161,8147,8442,8171,8170,8152,8167,8170,8152,8180,8259,8225,8169,8137,5.155641794204712
61,8186,8163,8515,8181,8177,8149,8160,8164,8159,8182,8237,8235,8163,8143,5.16361403465271
62,8166,8166,8677,8173,8168,8154,8148,8158,8202,8161,8220,8245,8159,8131,5.171616554260254
63,8139,8142,8679,8168,8172,8163,8158,8155,8116,8170,8245,8216,8160,8119,5.179629325866699
64,8178,8183,8579,8183,8163,8160,8158,8163,8222,8165,8245,8258,8171,8132,5.187641859054565
65,8181,8170,8520,8164,8185,8140,8170,8154,8145,8175,8248,8223,8163,8140,5.1953489780426025
66,8182,8174,8511,8174,8191,8140,8164,8160,8139,8172,8251,8234,8167,8153,5.202657461166382
67,8183,8179,8463,8188,8172,8144,8160,8169,8202,8162,8252,8255,8170,8142,5.210888862609863
68,8189,8159,8429,8181,8190,8140,8171,8158,8103,8174,8259,8218,8163,8142,5.218918800354004
69,8198,8185,8439,8187,8187,8136,8152,8163,8184,8158,8246,8262,8174,8149,5.226604700088501
70,8181,8163,8409,8179,8189,8149,8171,8165,8125,8172,8258,8231,8169,8130,5.23492431640625
71,8192,8167,8404,8187,8197,8175,8190,8170,8120,8171,8269,8230,8165,8140,5.242642164230347
72,8178,8175,8401,8186,8185,8167,8175,8174,8188,8145,8257,8258,8164,8131,5.2506422996521
73,8178,8154,8374,8175,8192,8152,8184,8163,8081,8165,8257,8221,8156,8123,5.25827169418335
74,8201,8185,8383,8188,8190,8158,8175,8159,8172,8164,8251,8256,8169,8139,5.266285419464111
75,8171,8165,8360,8187,8202,8156,8169,8157,8122,8170,8260,8228,8164,8123,5.273285388946533
75,8171,8165,8360,8187,8202,8156,8169,8157,8122,8170,8260,8228,8164,8123,5.274279832839966
76,8189,8158,8341,8189,8203,8154,8169,8150,8074,8165,8259,8222,8160,8126,5.281641244888306
77,8181,8165,8333,8172,8182,8144,8151,8133,8120,8124,8235,8251,8163,8116,5.289642572402954
78,8157,8143,8311,8164,8190,8143,8154,8124,7991,8132,8241,8213,8153,8101,5.297685146331787
79,8199,8187,8338,8198,8190,8160,8157,8144,8100,8141,8241,8257,8167,8126,5.305433750152588
80,8186,8169,8327,8186,8203,8168,8172,8143,8104,8148,8244,8234,8166,8112,5.313641309738159
81,8182,8155,8302,8185,8213,8175,8181,8140,8062,8154,8245,8213,8154,8097,5.321185350418091
82,8188,8180,8306,8200,8204,8180,8175,8148,8159,8144,8235,8253,8161,8104,5.329185485839844
82,8188,8180,8306,8200,8204,8180,8175,8148,8159,8144,8235,8253,8161,8104,5.330180406570435
83,8163,8160,8287,8185,8225,8180,8186,8143,8063,8155,8250,8216,8162,8108,5.336567640304565
84,8185,8185,8283,8194,8216,8180,8169,8156,8136,8139,8245,8249,8171,8125,5.3446431159973145
85,8182,8168,8259,8187,8208,8176,8168,8151,8129,8140,8247,8246,8166,8127,5.352641820907593
86,8176,8153,8244,8179,8217,8195,8179,8137,8063,8153,8257,8226,8163,8129,5.36076807975769
87,8183,8183,8257,8180,8199,8209,8166,8145,8154,8139,8240,8255,8170,8119,5.368767976760864
88,8179,8160,8241,8174,8216,8209,8180,8146,8067,8164,8255,8216,8162,8117,5.376605272293091
89,8191,8177,8248,8195,8220,8212,8174,8155,8147,8167,8266,8254,8171,8141,5.384642124176025
90,8185,8178,8247,8193,8211,8214,8174,8157,8167,8165,8259,8251,8170,8129,5.392641544342041
91,8203,8172,8256,8192,8229,8226,8192,8152,8097,8176,8262,8227,8163,8125,5.400641679763794
92,8195,8192,8271,8199,8226,8224,8177,8160,8216,8162,8265,8269,8171,8126,5.407127618789673
93,8166,8165,8231,8184,8232,8216,8187,8163,8136,8192,8274,8223,8164,8122,5.416130542755127
94,8190,8183,8226,8186,8219,8214,8182,8164,8162,8188,8257,8241,8168,8146,5.423640727996826
95,8169,8169,8214,8172,8195,8188,8160,8150,8160,8161,8247,8246,8163,8132,5.431642055511475
96,8168,8147,8185,8170,8197,8187,8168,8146,8061,8173,8260,8214,8160,8123,5.439641714096069
97,8193,8182,8194,8186,8189,8211,8165,8161,8176,8164,8250,8263,8175,8136,5.448038339614868
98,8173,8161,8182,8177,8203,8214,8173,8155,8110,8177,8255,8234,8166,8129,5.456039905548096
99,8191,8172,8179,8184,8202,8208,8171,8149,8124,8173,8253,8245,8164,8129,5.464044570922852
100,8180,8173,8168,8179,8187,8201,8163,8148,8146,8151,8245,8252,8162,8107,5.47105073928833
101,8174,8158,8155,8181,8195,8210,8174,8148,8042,8169,8254,8222,8157,8104,5.479133129119873
102,8192,8187,8159,8186,8176,8220,8173,8156,8153,8164,8247,8266,8168,8124,5.486605882644653
103,8152,8154,8119,8160,8177,8208,8181,8148,8084,8169,8257,8227,8164,8110,5.4946911334991455
104,8160,8160,8113,8167,8176,8196,8175,8152,8075,8165,8253,8229,8164,8111,5.502690315246582
105,8164,8174,8116,8162,8163,8190,8166,8150,8126,8146,8247,8254,8167,8115,5.510642528533936
106,8148,8154,8102,8152,8176,8195,8179,8142,8030,8165,8269,8225,8163,8121,5.517627239227295
106,8148,8154,8102,8152,8176,8195,8179,8142,8030,8165,8269,8225,8163,8121,5.5191330909729
107,8175,8180,8125,8180,8169,8194,8165,8153,8143,8167,8261,8261,8173,8127,5.5266053676605225
107,8175,8180,8125,8180,8169,8194,8165,8153,8143,8167,8261,8261,8173,8127,5.527270317077637
108,8170,8152,8106,8166,8174,8183,8157,8141,8081,8168,8261,8225,8164,8106,5.533701419830322
109,8168,8160,8095,8164,8175,8189,8148,8133,8041,8153,8263,8230,8162,8108,5.541622638702393
110,8160,8187,8102,8176,8163,8198,8148,8140,8110,8139,8249,8259,8168,8102,5.5496227741241455
111,8155,8155,8080,8162,8176,8210,8172,8135,8009,8152,8255,8212,8156,8090,5.557642221450806
112,8170,8176,8082,8164,8162,8218,8159,8142,8096,8127,8251,8244,8167,8096,5.565641164779663
113,8159,8165,8065,8159,8166,8217,8158,8140,8058,8138,8250,8224,8166,8088,5.573594570159912
114,8168,8156,8062,8160,8174,8228,8166,8138,8018,8146,8247,8223,8159,8101,5.581592559814453
115,8159,8168,8067,8159,8150,8220,8149,8140,8098,8115,8244,8255,8165,8097,5.58958888053894
116,8152,8146,8038,8152,8163,8208,8149,8126,7998,8135,8261,8214,8164,8087,5.596287727355957
117,8167,8170,8045,8163,8177,8222,8139,8126,8076,8140,8259,8251,8171,8100,5.604299783706665
118,8137,8154,8036,8151,8180,8228,8151,8132,8066,8150,8269,8233,8164,8086,5.612115144729614
119,8159,8156,8031,8158,8178,8224,8159,8140,8041,8164,8275,8221,8164,8098,5.620648145675659
120,8178,8184,8049,8171,8170,8221,8140,8142,8129,8141,8266,8267,8172,8108,5.628641605377197
121,8160,8159,8041,8166,8187,8229,8152,8140,8022,8156,8286,8231,8160,8096,5.636605262756348
122,8188,8181,8046,8182,8175,8234,8155,8150,8102,8159,8275,8252,8165,8100,5.644642114639282
123,8167,8166,8022,8157,8172,8214,8146,8132,8084,8143,8256,8238,8164,8092,5.652892589569092
124,8149,8151,8007,8146,8185,8210,8132,8125,7996,8132,8262,8221,8163,8105,5.660893440246582
125,8164,8174,8015,8157,8159,8210,8116,8141,8092,8114,8252,8257,8172,8113,5.667640924453735
125,8164,8174,8015,8157,8159,8210,8116,8141,8092,8114,8252,8257,8172,8113,5.668159246444702
126,8153,8147,7989,8138,8159,8201,8144,8128,7993,8132,8255,8215,8163,8105,5.675846338272095
127,8162,8166,7997,8145,8158,8198,8140,8126,8040,8126,8251,8248,8168,8114,5.683915615081787
240,8150,8155,7993,8145,8151,8190,8129,8128,8049,8123,8240,8247,8166,8101,5.691916227340698
0,8154,8139,7985,8143,8160,8190,8140,8126,7977,8137,8244,8218,8161,8109,5.699640989303589
1,8160,8166,8006,8153,8152,8191,8131,8133,8094,8120,8247,8265,8168,8119,5.707324504852295
2,8143,8142,7985,8143,8167,8186,8144,8125,8003,8133,8250,8225,8152,8094,5.715641975402832
3,8164,8162,7988,8141,8163,8184,8139,8118,8014,8118,8222,8236,8155,8088,5.7241950035095215
4,8150,8167,7990,8137,8151,8177,8124,8107,8025,8093,8213,8242,8163,8083,5.730192184448242
5,8157,8161,7987,8150,8168,8182,8131,8107,7932,8106,8239,8220,8161,8093,5.738641500473023
6,8181,8194,8014,8167,8166,8185,8127,8130,8063,8109,8250,8271,8175,8111,5.746605396270752
7,8161,8159,7997,8150,8173,8178,8140,8134,8020,8138,8261,8228,8173,8109,5.754641532897949
8,8177,8165,7991,8160,8176,8188,8141,8134,8043,8137,8248,8239,8172,8125,5.762641429901123
9,8173,8175,7998,8161,8179,8198,8142,8137,8098,8131,8253,8268,8169,8128,5.770643711090088
10,8181,8163,7999,8159,8195,8200,8156,8132,8030,8154,8279,8240,8166,8136,5.77831506729126
11,8204,8187,8017,8175,8182,8201,8143,8133,8132,8137,8265,8272,8173,8144,5.786314964294434
11,8204,8187,8017,8175,8182,8201,8143,8133,8132,8137,8265,8272,8173,8144,5.787309408187866
12,8167,8157,7996,8161,8183,8194,8146,8132,8044,8135,8258,8228,8158,8116,5.794112682342529
13,8179,8174,7995,8171,8175,8194,8141,8129,8037,8128,8244,8231,8155,8115,5.801642179489136
14,8173,8182,7991,8161,8156,8184,8125,8107,8075,8096,8222,8251,8154,8100,5.809641122817993
15,8147,8142,7973,8143,8170,8180,8131,8099,7947,8108,8244,8219,8154,8091,5.817884922027588
16,8175,8171,7997,8167,8160,8185,8128,8130,8080,8118,8265,8270,8181,8125,5.825926065444946
17,8169,8162,7985,8162,8162,8184,8137,8132,8066,8132,8277,8244,8175,8130,5.833225727081299
18,8173,8163,7983,8164,8168,8188,8144,8133,8048,8135,8272,8238,8164,8135,5.841233253479004
19,8177,8169,7996,8169,8159,8184,8145,8144,8130,8135,8270,8262,8176,8143,5.849642515182495
20,8171,8148,7983,8156,8184,8183,8156,8136,8056,8163,8294,8222,8170,8146,5.857641696929932
21,8182,8180,7986,8160,8189,8189,8137,8137,8147,8136,8274,8254,8164,8140,5.864760875701904
22,8151,8159,7958,8151,8186,8188,8136,8124,8076,8115,8253,8221,8151,8102,5.87226414680481
22,8151,8159,7958,8151,8186,8188,8136,8124,8076,8115,8253,8221,8151,8102,5.8732590675354
23,8155,8148,7953,8158,8185,8193,8141,8120,8022,8125,8250,8211,8151,8094,5.880258321762085
24,8162,8156,7958,8146,8168,8181,8136,8128,8097,8117,8228,8241,8156,8088,5.8882575035095215
25,8151,8129,7935,8120,8188,8178,8164,8120,7979,8118,8230,8196,8146,8087,5.896258592605591
26,8161,8165,7958,8142,8194,8192,8161,8135,8074,8105,8239,8241,8160,8111,5.904256105422974
27,8156,8158,7965,8153,8188,8189,8157,8151,8096,8135,8255,8236,8166,8113,5.912259817123413
28,8173,8147,7959,8149,8181,8192,8156,8147,8068,8153,8262,8224,8168,8133,5.920771598815918
29,8161,8165,7962,8140,8168,8198,8136,8141,8159,8129,8254,8255,8173,8136,5.927771329879761
30,8142,8139,7939,8138,8183,8196,8152,8138,8052,8156,8266,8204,8158,8122,5.935771226882935
31,8164,8158,7936,8154,8169,8192,8149,8136,8095,8136,8249,8230,8161,8126,5.94377326965332
32,8128,8142,7915,8125,8161,8181,8139,8127,8064,8111,8230,8220,8159,8097,5.951771974563599
33,8134,8137,7914,8117,8177,8192,8163,8142,8009,8138,8232,8203,8154,8094,5.959635257720947
34,8175,8175,7940,8148,8176,8208,8181,8161,8143,8136,8229,8253,8167,8117,5.967641115188599
35,8168,8153,7924,8147,8202,8206,8195,8148,8066,8144,8245,8222,8164,8126,5.97566294670105
36,8176,8163,7935,8141,8198,8203,8174,8147,8108,8138,8239,8247,8165,8139,5.983661413192749
37,8159,8153,7932,8128,8184,8198,8160,8144,8105,8134,8242,8246,8167,8126,5.991699457168579
38,8171,8150,7922,8145,8209,8201,8169,8141,8038,8153,8267,8224,8170,8128,5.999782800674439
39,8198,8188,7939,8173,8215,8205,8162,8150,8166,8145,8255,8265,8172,8139,6.006809234619141
40,8186,8161,7927,8153,8224,8216,8180,8141,8093,8165,8261,8226,8164,8141,6.014806509017944
41,8196,8177,7932,8148,8218,8232,8184,8145,8141,8167,8274,8247,8178,8159,6.022338151931763
42,8154,8165,7911,8133,8193,8217,8163,8139,8139,8140,8264,8240,8165,8120,6.0303380489349365
43,8143,8139,7891,8131,8192,8197,8149,8122,7988,8125,8236,8195,8143,8081,6.038337707519531
44,8189,8173,7920,8142,8191,8194,8141,8126,8080,8107,8216,8247,8161,8103,6.046338081359863
45,8174,8150,7907,8117,8206,8197,8164,8126,8029,8127,8246,8221,8169,8122,6.054721593856812
46,8175,8162,7910,8133,8202,8213,8165,8143,8075,8141,8259,8230,8175,8135,6.0617265701293945
47,8188,8178,7923,8154,8201,8232,8166,8156,8159,8161,8257,8250,8176,8140,6.069215059280396
48,8198,8166,7927,8153,8224,8248,8186,8148,8099,8186,8279,8228,8171,8161,6.077193737030029
49,8211,8195,7959,8168,8209,8252,8171,8147,8228,8165,8280,8272,8178,8177,6.085182428359985
50,8205,8176,7958,8173,8215,8249,8174,8141,8178,8181,8288,8237,8173,8176,6.093260765075684
51,8230,8189,7962,8184,8226,8255,8170,8137,8171,8178,8284,8246,8173,8191,6.101261377334595
52,8204,8189,7962,8173,8212,8253,8150,8131,8211,8140,8268,8263,8163,8157,6.109641551971436
52,8204,8189,7962,8173,8212,8253,8150,8131,8211,8140,8268,8263,8163,8157,6.110263109207153
53,8179,8156,7946,8171,8208,8251,8158,8122,8086,8144,8261,8209,8144,8118,6.117561340332031
54,8217,8194,7965,8194,8189,8250,8149,8134,8170,8132,8235,8252,8158,8133,6.12581729888916
55,8225,8184,7965,8176,8200,8242,8161,8139,8141,8144,8249,8241,8163,8147,6.132642030715942
56,8223,8177,7970,8173,8198,8235,8155,8130,8135,8148,8270,8236,8159,8157,6.140642166137695
57,8193,8176,7953,8181,8167,8208,8127,8119,8172,8122,8239,8244,8160,8132,6.148641347885132
58,8188,8155,7922,8178,8189,8210,8160,8125,8058,8145,8233,8203,8161,8127,6.156606197357178
59,8219,8189,7950,8184,8194,8237,8174,8148,8190,8152,8251,8254,8178,8158,6.164641857147217
60,8179,8162,7931,8158,8178,8216,8153,8138,8145,8147,8252,8231,8166,8132,6.172781467437744
61,8184,8155,7901,8153,8172,8204,8151,8131,8056,8137,8222,8214,8154,8118,6.180631637573242
62,8196,8176,7909,8163,8170,8216,8160,8139,8137,8118,8216,8242,8164,8125,6.187631368637085
63,8168,8145,7902,8158,8179,8215,8167,8136,8046,8143,8237,8203,8159,8116,6.19564151763916
64,8192,8164,7918,8163,8162,8206,8147,8144,8126,8140,8220,8246,8164,8114,6.2031965255737305
65,8194,8158,7913,8147,8169,8204,8152,8141,8115,8132,8221,8234,8160,8100,6.211214542388916
66,8198,8167,7915,8168,8190,8210,8169,8140,8068,8136,8232,8208,8154,8109,6.2197229862213135
67,8198,8185,7926,8176,8170,8198,8160,8145,8152,8117,8211,8237,8167,8111,6.2277491092681885
68,8175,8143,7892,8140,8172,8192,8161,8132,8040,8124,8221,8203,8165,8098,6.235819816589356
69,8186,8167,7887,8162,8175,8205,8152,8147,8113,8129,8230,8239,8167,8109,6.2438178062438965
70,8164,8170,7881,8172,8182,8200,8158,8154,8130,8151,8237,8227,8166,8105,6.251641273498535
71,8164,8161,7885,8163,8194,8201,8163,8141,8078,8168,8245,8206,8168,8112,6.258636474609375
72,8175,8177,7894,8162,8177,8206,8147,8140,8173,8139,8238,8244,8173,8106,6.266155481338501
73,8155,8137,7861,8139,8177,8194,8155,8134,8049,8141,8248,8191,8158,8078,6.274170637130737
74,8162,8150,7870,8144,8171,8189,8140,8137,8077,8132,8232,8213,8160,8086,6.2831690311431885
75,8161,8155,7875,8164,8179,8194,8141,8140,8109,8137,8222,8223,8159,8095,6.291168928146362
76,8184,8146,7872,8179,8204,8207,8166,8149,8073,8171,8257,8205,8163,8111,6.298238039016724
76,8184,8146,7872,8179,8204,8207,8166,8149,8073,8171,8257,8205,8163,8111,6.29923677444458
77,8190,8170,7892,8174,8189,8203,8154,8160,8206,8164,8267,8248,8176,8119,6.306261301040649
78,8163,8145,7874,8157,8194,8190,8159,8152,8123,8179,8270,8215,8164,8113,6.314927339553833
79,8179,8158,7880,8167,8190,8195,8153,8154,8137,8170,8272,8240,8170,8127,6.321614265441895
80,8168,8149,7877,8160,8175,8196,8141,8152,8157,8155,8268,8245,8170,8110,6.329643487930298
81,8174,8128,7867,8156,8194,8205,8157,8137,8070,8169,8265,8205,8159,8110,6.337251424789429
82,8187,8160,7890,8158,8193,8207,8145,8137,8172,8143,8251,8240,8165,8121,6.345250129699707
83,8156,8136,7870,8144,8199,8200,8149,8140,8087,8137,8248,8202,8152,8094,6.3536365032196045
84,8182,8151,7867,8159,8196,8211,8161,8147,8103,8138,8234,8213,8153,8102,6.36199951171875
85,8170,8158,7874,8151,8184,8202,8150,8139,8157,8136,8241,8226,8164,8105,6.369998931884766
86,8147,8137,7868,8150,8198,8195,8154,8138,8068,8166,8263,8198,8163,8104,6.377641677856445
87,8176,8165,7887,8177,8192,8208,8153,8159,8186,8165,8250,8250,8175,8129,6.3846423625946045
88,8157,8143,7866,8162,8200,8203,8153,8149,8126,8172,8267,8215,8168,8129,6.392642021179199
89,8166,8150,7870,8163,8199,8186,8141,8138,8109,8168,8270,8218,8162,8129,6.400195837020874
90,8178,8154,7884,8151,8189,8175,8139,8141,8162,8145,8233,8238,8155,8113,6.40821099281311
90,8178,8154,7884,8151,8189,8175,8139,8141,8162,8145,8233,8238,8155,8113,6.409207582473755
91,8162,8129,7853,8130,8202,8183,8152,8139,8050,8142,8223,8175,8144,8098,6.416606187820435
92,8154,8159,7838,8152,8184,8187,8132,8146,8143,8122,8222,8234,8155,8097,6.42464280128479
93,8136,8138,7832,8152,8186,8185,8142,8144,8114,8147,8248,8204,8159,8096,6.43290901184082
94,8174,8149,7867,8162,8202,8191,8154,8153,8109,8169,8265,8070,8170,8130,6.4409096240997314
95,8182,8165,7879,8162,8193,8185,8139,8150,8164,8142,8256,8026,8170,8128,6.447641372680664
96,8159,8129,7847,8138,8200,8186,8143,8130,8050,8146,8271,8093,8158,8108,6.455641508102417
97,8187,8163,7874,8149,8190,8199,8136,8145,8179,8152,8274,8214,8173,8127,6.463943004608154
98,8194,8169,7885,8157,8209,8205,8146,8158,8193,8181,8280,8181,8171,8143,6.471987724304199
99,8196,8171,7880,8172,8233,8211,8151,8155,8168,8187,8284,8189,8165,8158,6.47964334487915
100,8183,8177,7876,8174,8204,8202,8136,8160,8250,8167,8270,8247,8169,8148,6.487717390060425
101,8176,8142,7856,8155,8203,8199,8156,8161,8138,8199,8283,8195,8167,8149,6.495743751525879
102,8190,8163,7877,8162,8206,8198,8152,8161,8203,8185,8289,8230,8183,8169,6.503748416900635
103,8167,8155,7874,8155,8197,8180,8142,8150,8162,8161,8292,8216,8172,8141,6.511642217636108
104,8186,8159,7875,8164,8192,8180,8148,8143,8081,8162,8290,8196,8155,8134,6.518841981887817
105,8202,8181,7900,8180,8188,8187,8139,8149,8185,8147,8281,8243,8163,8143,6.527018070220947
106,8178,8145,7880,8164,8206,8190,8155,8152,8113,8170,8298,8206,8161,8142,6.534641742706299
107,8177,8167,7864,8156,8195,8202,8154,8164,8168,8168,8282,8222,8169,8152,6.542642116546631
108,8151,8155,7839,8146,8194,8194,8148,8155,8135,8151,8257,8207,8160,8119,6.550642251968384
109,8165,8136,7846,8153,8213,8186,8154,8144,8055,8151,8272,8202,8152,8107,6.558632373809815
110,8174,8165,7877,8159,8202,8185,8144,8151,8171,8139,8284,8255,8169,8127,6.566629409790039
111,8152,8146,7864,8145,8204,8177,8157,8146,8083,8155,8277,8208,8159,8130,6.574638843536377
112,8182,8169,7872,8157,8196,8171,8155,8151,8124,8144,8251,8225,8155,8140,6.582746744155884
113,8148,8157,7860,8145,8182,8161,8147,8153,8133,8134,8251,8219,8158,8118,6.589787244796753
114,8133,8132,7842,8142,8189,8168,8159,8151,8058,8161,8258,8185,8159,8110,6.597784996032715
115,8170,8165,7864,8157,8187,8184,8164,8161,8191,8162,8257,8237,8168,8128,6.605642080307007
116,8154,8149,7864,8146,8205,8182,8173,8155,8133,8180,8285,8208,8164,8124,6.613641500473023
117,8165,8162,7883,8159,8203,8172,8159,8160,8178,8185,8284,8220,8171,8129,6.621390342712402
118,8165,8158,7882,8155,8199,8170,8155,8159,8223,8182,8284,8229,8172,8127,6.629389762878418
119,8158,8136,7865,8148,8217,8184,8171,8157,8138,8202,8317,8201,8167,8140,6.637404918670654
119,8158,8136,7865,8148,8217,8184,8171,8157,8138,8202,8317,8201,8167,8140,6.638419628143311
120,8176,8169,7878,8163,8198,8177,8162,8172,8249,8195,8309,8243,8174,8158,6.6454832553863525
121,8164,8154,7859,8149,8204,8170,8176,8168,8189,8213,8303,8211,8164,8150,6.652644395828247
122,8163,8161,7866,8162,8209,8191,8176,8171,8202,8210,8291,8219,8168,8152,6.660555362701416
123,8157,8162,7884,8189,8190,8187,8167,8180,8243,8187,8266,8226,8168,8136,6.668555021286011
124,8174,8148,7895,8201,8207,8175,8188,8176,8151,8199,8276,8196,8160,8141,6.676605463027954
125,8182,8177,7927,8198,8210,8180,8175,8178,8261,8187,8280,8240,8174,8157,6.684642791748047
126,8142,8141,7901,8173,8204,8182,8172,8170,8191,8200,8280,8195,8170,8135,6.692642450332642
127,8157,8144,7891,8187,8196,8185,8175,8169,8169,8200,8276,8199,8170,8142,6.7003395557403564
240,8153,8166,7907,8192,8192,8187,8166,8174,8233,8177,8274,8232,8173,8147,6.708642244338989
0,8142,8147,7906,8181,8214,8195,8182,8179,8141,8199,8281,8183,8164,8146,6.715096473693848
1,8173,8169,7928,8194,8210,8199,8178,8186,8241,8194,8266,8213,8171,8153,6.723642110824585
2,8160,8151,7927,8184,8217,8190,8179,8171,8195,8194,8272,8203,8163,8138,6.73164176940918
3,8181,8161,7943,8187,8222,8198,8186,8175,8175,8197,8270,8209,8164,8156,6.739641189575195
4,8196,8172,7956,8186,8208,8203,8186,8191,8264,8189,8262,8234,8177,8162,6.747641801834106
5,8179,8139,7934,8173,8226,8199,8203,8186,8173,8210,8283,8191,8168,8150,6.75593113899231
6,8187,8170,7933,8185,8216,8199,8191,8184,8257,8194,8271,8223,8170,8157,6.763929843902588
7,8166,8161,7917,8176,8212,8203,8185,8177,8227,8190,8273,8204,8169,8152,6.771642208099365
8,8180,8163,7932,8195,8229,8212,8187,8183,8216,8204,8291,8203,8169,8165,6.778643131256104
9,8182,8175,7956,8207,8223,8191,8171,8185,8315,8193,8276,8232,8171,8159,6.786605596542358
10,8153,8141,7939,8186,8225,8177,8176,8166,8190,8204,8280,8185,8165,8141,6.79464602470398
11,8176,8175,7956,8202,8210,8193,8177,8185,8269,8198,8286,8222,8173,8155,6.802643060684204
12,8177,8170,7944,8194,8217,8190,8195,8198,8274,8206,8291,8208,8169,8148,6.810093402862549
12,8177,8170,7944,8194,8217,8190,8195,8198,8274,8206,8291,8208,8169,8148,6.811085939407349
13,8174,8157,7923,8168,8233,8182,8195,8185,8199,8215,8284,8186,8162,8141,6.818093061447144
14,8172,8180,7929,8145,8215,8186,8172,8180,8268,8190,8263,8225,8169,8139,6.826128244400024
15,8160,8152,7919,8130,8227,8187,8195,8179,8175,8209,8288,8187,8168,8147,6.83464241027832
16,8175,8167,7939,8153,8231,8185,8193,8197,8265,8222,8308,8220,8179,8174,6.842711448669434
17,8159,8163,7936,8151,8217,8182,8177,8197,8277,8220,8292,8211,8168,8153,6.849707126617432
18,8159,8155,7925,8142,8201,8186,8182,8180,8174,8207,8266,8174,8151,8127,6.857641220092773
19,8161,8172,7938,8143,8182,8182,8176,8176,8251,8177,8247,8212,8156,8115,6.865643501281738
20,8139,8143,7917,8137,8201,8175,8181,8173,8145,8190,8255,8173,8150,8106,6.874126672744751
21,8157,8169,7917,8153,8197,8172,8172,8181,8169,8174,8243,8194,8155,8118,6.881127119064331
21,8157,8169,7917,8153,8197,8172,8172,8181,8169,8174,8243,8194,8155,8118,6.882129907608032
22,8151,8169,7912,8146,8183,8159,8176,8182,8195,8165,8237,8198,8157,8106,6.889641284942627
23,8156,8146,7906,8142,8191,8163,8191,8175,8124,8195,8245,8173,8156,8111,6.897641181945801
24,8166,8171,7935,8153,8173,8172,8178,8184,8226,8183,8234,8223,8171,8126,6.905642747879028
25,8155,8154,7938,8145,8176,8172,8191,8181,8152,8193,8252,8192,8166,8116,6.912505865097046
26,8186,8175,7950,8161,8188,8180,8192,8180,8189,8198,8267,8211,8168,8130,6.921031713485718
27,8161,8174,7944,8168,8195,8179,8176,8179,8228,8193,8275,8219,8170,8118,6.929044485092163
28,8154,8154,7935,8173,8214,8181,8187,8181,8152,8212,8290,8188,8166,8110,6.937083005905151
29,8187,8188,7953,8184,8201,8183,8176,8184,8259,8196,8275,8230,8167,8118,6.944643020629883
30,8158,8166,7930,8168,8206,8173,8180,8174,8164,8193,8271,8185,8156,8104,6.953137397766113
31,8163,8169,7927,8171,8204,8171,8185,8178,8156,8187,8266,8187,8166,8105,6.961135625839233
32,8158,8163,7927,8163,8182,8160,8179,8178,8195,8179,8261,8206,8166,8091,6.968132972717285
33,8156,8147,7921,8154,8190,8155,8184,8176,8091,8202,8274,8174,8151,8095,6.976135015487671
34,8180,8187,7946,8166,8182,8156,8173,8186,8196,8189,8257,8215,8163,8113,6.98313307762146
35,8153,8162,7929,8148,8181,8148,8180,8174,8137,8194,8256,8181,8160,8097,6.991133689880371
36,8165,8167,7938,8159,8185,8154,8184,8179,8144,8203,8267,8188,8161,8106,6.999133348464966
36,8165,8167,7938,8159,8185,8154,8184,8179,8144,8203,8267,8188,8161,8106,7.000134468078613
37,8176,8185,7961,8175,8186,8154,8176,8193,8232,8193,8268,8219,8176,8114,7.007140636444092
38,8167,8163,7945,8173,8203,8144,8183,8186,8124,8207,8278,8185,8167,8119,7.015138387680054
39,8187,8189,7950,8183,8181,8135,8169,8185,8209,8196,8268,8221,8166,8133,7.023645639419556
40,8176,8169,7948,8167,8183,8131,8176,8179,8173,8198,8273,8197,8168,8123,7.031646013259888
41,8182,8169,7962,8178,8198,8143,8177,8180,8145,8193,8271,8196,8172,8124,7.039646148681641
42,8182,8184,7966,8193,8186,8150,8162,8185,8214,8175,8249,8220,8165,8115,7.046605348587036
43,8187,8160,7941,8179,8200,8157,8191,8176,8113,8199,8257,8173,8151,8109,7.054666757583618
44,8211,8190,7963,8183,8201,8173,8196,8182,8214,8196,8273,8217,8171,8131,7.062671422958374
45,8188,8176,7967,8181,8208,8179,8194,8188,8214,8204,8300,8210,8179,8138,7.070680141448975
46,8194,8171,7966,8187,8215,8185,8195,8198,8193,8216,8307,8200,8176,8152,7.078670740127564
47,8200,8189,7972,8185,8199,8175,8188,8208,8277,8201,8287,8222,8177,8143,7.086670875549316
48,8194,8162,7959,8167,8213,8166,8208,8194,8159,8222,8293,8176,8165,8130,7.094717502593994
49,8218,8191,7982,8182,8216,8170,8206,8192,8238,8212,8289,8213,8169,8150,7.1023149490356445
49,8218,8191,7982,8182,8216,8170,8206,8192,8238,8212,8289,8213,8169,8150,7.1033079624176025
50,8185,8183,7973,8178,8218,8150,8196,8188,8228,8198,8289,8198,8164,8140,7.109320878982544
51,8183,8173,7952,8179,8225,8143,8196,8195,8163,8212,8295,8178,8167,8145,7.117635250091553
52,8214,8200,7962,8190,8210,8149,8205,8217,8296,8222,8292,8229,8181,8169,7.125239610671997
53,8211,8178,7960,8185,8223,8150,8235,8217,8245,8255,8319,8200,8176,8180,7.133239507675171
54,8225,8195,7986,8206,8227,8153,8219,8215,8305,8240,8322,8228,8182,8191,7.1416425704956055
55,8215,8186,7983,8202,8224,8147,8204,8205,8289,8223,8301,8211,8171,8167,7.149641275405884
56,8223,8171,7962,8193,8225,8148,8215,8195,8191,8232,8278,8171,8158,8157,7.157641410827637
57,8219,8191,7967,8187,8205,8149,8199,8191,8266,8196,8256,8209,8166,8154,7.16566014289856
58,8178,8160,7950,8170,8210,8143,8199,8183,8174,8186,8271,8179,8161,8133,7.172695636749268
59,8191,8175,7948,8184,8202,8141,8193,8197,8223,8185,8267,8204,8167,8141,7.180181264877319
60,8184,8166,7928,8167,8201,8139,8190,8198,8241,8185,8264,8206,8164,8132,7.188181877136231
61,8179,8151,7927,8160,8227,8148,8197,8192,8172,8202,8297,8179,8160,8138,7.196677923202515
62,8201,8193,7966,8187,8222,8146,8182,8200,8312,8203,8298,8220,8177,8155,7.204641342163086
63,8197,8170,7952,8182,8232,8139,8186,8186,8242,8225,8291,8185,8171,8148,7.212641477584839
64,8201,8176,7954,8182,8227,8145,8174,8178,8252,8209,8281,8206,8164,8150,7.219987869262695
64,8201,8176,7954,8182,8227,8145,8174,8178,8252,8209,8281,8206,8164,8150,7.221068859100342
65,8185,8179,7955,8181,8213,8141,8165,8188,8293,8198,8276,8216,8168,8142,7.228076457977295
66,8195,8164,7941,8176,8228,8140,8186,8185,8201,8225,8284,8180,8171,8158,7.236099481582642
66,8195,8164,7941,8176,8228,8140,8186,8185,8201,8225,8284,8180,8171,8158,7.237096786499023
67,8205,8189,7959,8174,8218,8138,8174,8184,8296,8201,8282,8230,8178,8175,7.243642568588257
68,8184,8171,7952,8166,8219,8130,8183,8191,8236,8208,8295,8199,8167,8152,7.251641750335693
69,8221,8192,7961,8190,8223,8140,8198,8207,8245,8222,8278,8205,8166,8157,7.259615659713745
70,8219,8198,7970,8188,8227,8144,8203,8206,8301,8215,8278,8233,8169,8171,7.2676167488098145
71,8202,8175,7967,8179,8250,8149,8222,8210,8242,8240,8321,8204,8171,8191,7.275641679763794
72,8226,8201,7986,8199,8231,8154,8213,8232,8364,8230,8306,8234,8179,8197,7.283645868301392
73,8200,8165,7964,8182,8232,8144,8212,8213,8265,8216,8288,8194,8161,8171,7.291676759719849
74,8207,8170,7967,8190,8249,8149,8213,8200,8230,8214,8304,8198,8164,8181,7.29966926574707
75,8225,8197,7988,8210,8242,8159,8211,8209,8330,8218,8317,8231,8177,8187,7.306552410125732
76,8218,8173,7974,8204,8253,8161,8227,8212,8250,8251,8326,8198,8167,8189,7.314559936523437
77,8228,8194,7980,8205,8249,8169,8219,8227,8354,8253,8313,8231,8173,8208,7.32264232635498
78,8210,8174,7961,8186,8244,8176,8220,8215,8309,8254,8312,8200,8163,8189,7.3303186893463135
79,8212,8172,7960,8188,8234,8187,8217,8199,8249,8241,8308,8194,8157,8178,7.33823561668396
79,8212,8172,7960,8188,8234,8187,8217,8199,8249,8241,8308,8194,8157,8178,7.339229583740234
80,8206,8187,7971,8193,8218,8183,8202,8204,8305,8221,8288,8219,8167,8172,7.346235036849976
80,8206,8187,7971,8193,8218,8183,8202,8204,8305,8221,8288,8219,8167,8172,7.34724235534668
81,8192,8158,7942,8169,8230,8174,8200,8192,8174,8227,8282,8168,8158,8165,7.354259014129639
81,8192,8158,7942,8169,8230,8174,8200,8192,8174,8227,8282,8168,8158,8165,7.355248928070068
82,8198,8185,7948,8171,8221,8182,8175,8188,8231,8198,8279,8207,8163,8173,7.362641334533691
83,8176,8176,7951,8176,8230,8193,8182,8197,8234,8215,8299,8199,8167,8171,7.369641780853271
84,8197,8170,7958,8185,8243,8208,8205,8203,8225,8244,8310,8194,8168,8187,7.377641439437866
85,8203,8186,7965,8185,8226,8212,8195,8206,8316,8220,8299,8227,8171,8186,7.385792970657349
85,8203,8186,7965,8185,8226,8212,8195,8206,8316,8220,8299,8227,8171,8186,7.386303424835205
86,8182,8161,7942,8172,8238,8219,8207,8209,8217,8234,8306,8179,8161,8176,7.393641948699951
87,8200,8179,7946,8173,8236,8231,8201,8214,8292,8225,8281,8208,8165,8183,7.401934146881103
88,8172,8158,7936,8161,8226,8229,8192,8200,8269,8209,8264,8195,8163,8156,7.409294128417969
89,8180,8161,7945,8181,8233,8234,8197,8201,8208,8224,8280,8175,8165,8164,7.417302131652832
90,8201,8194,7967,8196,8228,8228,8178,8206,8322,8223,8284,8222,8175,8185,7.4254395961761475
91,8181,8160,7942,8174,8240,8222,8178,8189,8227,8236,8288,8188,8165,8177,7.433468341827393
92,8199,8175,7953,8180,8235,8225,8167,8192,8275,8223,8276,8211,8172,8192,7.4404683113098145
93,8190,8177,7961,8178,8230,8216,8165,8195,8284,8218,8283,8207,8174,8190,7.448642015457153
93,8190,8177,7961,8178,8230,8216,8165,8195,8284,8218,8283,8207,8174,8190,7.449159860610962
94,8203,8168,7963,8189,8240,8230,8191,8194,8224,8239,8302,8189,8175,8197,7.456604957580566
95,8219,8193,7977,8202,8234,8247,8197,8199,8334,8222,8287,8227,8182,8210,7.464792013168335
96,8188,8171,7953,8182,8248,8239,8205,8194,8228,8223,8284,8180,8163,8190,7.472269296646118
96,8188,8171,7953,8182,8248,8239,8205,8194,8228,8223,8284,8180,8163,8190,7.47326135635376
97,8210,8187,7961,8192,8246,8237,8201,8205,8263,8220,8282,8202,8167,8191,7.480266571044922
97,8210,8187,7961,8192,8246,8237,8201,8205,8263,8220,8282,8202,8167,8191,7.481261491775513
98,8204,8179,7965,8195,8248,8240,8204,8206,8306,8225,8285,8210,8177,8195,7.488641023635864
99,8193,8163,7951,8193,8269,8243,8216,8200,8227,8239,8286,8176,8169,8203,7.496284008026123
100,8205,8191,7954,8191,8246,8237,8194,8205,8315,8208,8261,8213,8169,8194,7.5036420822143555
101,8187,8161,7942,8169,8245,8227,8190,8192,8224,8208,8274,8178,8168,8173,7.512098073959351
102,8198,8174,7960,8181,8242,8226,8184,8195,8250,8208,8279,8196,8173,8184,7.519054889678955
103,8187,8171,7954,8176,8223,8216,8174,8194,8273,8192,8260,8204,8163,8172,7.527637243270874
104,8178,8141,7931,8168,8236,8223,8182,8180,8157,8198,8260,8161,8159,8170,7.535906791687012
104,8178,8141,7931,8168,8236,8223,8182,8180,8157,8198,8260,8161,8159,8170,7.536121845245361
105,8196,8182,7948,8187,8236,8234,8179,8194,8279,8188,8254,8200,8175,8184,7.543662071228027
106,8174,8165,7932,8173,8237,8224,8189,8195,8226,8197,8261,8171,8162,8161,7.551661252975464
107,8179,8164,7932,8172,8231,8219,8179,8187,8211,8186,8253,8175,8156,8154,7.559641599655151
108,8172,8174,7935,8168,8221,8219,8169,8184,8252,8172,8239,8190,8160,8150,7.567641258239746
109,8163,8162,7921,8158,8234,8224,8182,8186,8148,8191,8255,8161,8161,8159,7.574672937393188
110,8175,8186,7938,8172,8226,8221,8164,8187,8241,8175,8249,8204,8173,8168,7.582672595977783
111,8163,8155,7921,8161,8234,8211,8173,8173,8192,8187,8251,8170,8164,8153,7.590575218200684
112,8178,8161,7922,8167,8236,8227,8186,8185,8193,8192,8262,8173,8162,8170,7.598642349243164
113,8177,8182,7942,8181,8215,8228,8178,8200,8269,8169,8254,8202,8168,8165,7.606172323226929
114,8178,8156,7941,8175,8221,8220,8186,8183,8147,8180,8250,8160,8158,8144,7.614171981811523
115,8197,8179,7969,8179,8206,8231,8168,8183,8228,8164,8240,8200,8165,8158,7.621642589569092
116,8178,8164,7961,8166,8206,8226,8172,8184,8200,8168,8250,8181,8164,8160,7.630623817443848
117,8190,8164,7946,8168,8220,8218,8185,8180,8169,8184,8257,8176,8166,8168,7.637639760971069
118,8183,8177,7950,8179,8209,8217,8167,8184,8251,8172,8251,8208,8173,8157,7.645641803741455
119,8178,8162,7947,8192,8216,8227,8181,8188,8155,8193,8255,8170,8161,8147,7.65362024307251
120,8224,8199,7977,8214,8213,8247,8189,8190,8237,8187,8239,8209,8166,8168,7.661617040634155
121,8198,8182,7973,8197,8214,8251,8183,8172,8212,8178,8252,8190,8168,8156,7.669641256332397
122,8193,8176,7967,8201,8215,8254,8182,8177,8167,8192,8272,8176,8170,8156,7.677628517150879
123,8215,8197,7974,8204,8198,8258,8184,8199,8265,8190,8254,8214,8177,8166,7.685643196105957
124,8184,8160,7947,8178,8212,8264,8190,8186,8160,8200,8253,8168,8163,8155,7.692642450332642
125,8185,8184,7953,8192,8218,8274,8172,8184,8232,8187,8246,8192,8166,8149,7.700132369995117
125,8185,8184,7953,8192,8218,8274,8172,8184,8232,8187,8246,8192,8166,8149,7.701128959655762
126,8197,8193,7966,8202,8230,8284,8196,8194,8261,8206,8264,8195,8175,8152,7.708450078964233
127,8222,8191,7991,8209,8248,8303,8226,8203,8246,8242,8294,8193,8182,8184,7.716361284255981
240,8222,8203,8020,8203,8228,8306,8206,8205,8355,8226,8270,8218,8183,8181,7.724641561508179
240,8222,8203,8020,8203,8228,8306,8206,8205,8355,8226,8270,8218,8183,8181,7.725021362304687
0,8205,8177,8008,8183,8237,8310,8213,8190,8231,8223,8258,8158,8162,8150,7.732471227645874
1,8227,8208,8017,8203,8241,8325,8215,8197,8274,8208,8257,8187,8166,8157,7.7404701709747314
2,8205,8196,7999,8193,8227,8319,8216,8197,8284,8204,8255,8192,8167,8145,7.748526334762573
3,8200,8169,7987,8176,8226,8320,8229,8190,8197,8217,8260,8169,8162,8147,7.756622076034546
4,8213,8198,8014,8193,8217,8324,8217,8196,8308,8208,8258,8208,8171,8160,7.763619899749756
5,8197,8177,7998,8188,8230,8328,8221,8191,8237,8234,8268,8162,8163,8157,7.77164363861084
6,8215,8189,8008,8187,8227,8339,8209,8192,8270,8233,8264,8179,8167,8173,7.779642820358276
7,8200,8185,8006,8175,8220,8325,8197,8188,8282,8214,8247,8184,8165,8159,7.787640810012817
8,8193,8166,7982,8167,8228,8320,8204,8174,8181,8210,8237,8151,8160,8148,7.795041561126709
8,8193,8166,7982,8167,8228,8320,8204,8174,8181,8210,8237,8151,8160,8148,7.796035289764404
9,8208,8198,8001,8178,8208,8330,8193,8179,8289,8193,8231,8199,8177,8160,7.804034233093262
10,8191,8170,7995,8168,8218,8328,8203,8178,8218,8217,8253,8163,8163,8151,7.811405181884766
11,8204,8178,7997,8170,8220,8335,8200,8177,8220,8214,8246,8166,8156,8150,7.819642543792725
12,8193,8189,8000,8173,8206,8346,8192,8178,8257,8194,8228,8182,8162,8139,7.827641725540161
13,8193,8170,8001,8180,8225,8347,8206,8177,8172,8215,8235,8156,8163,8141,7.834664106369018
14,8213,8191,8018,8183,8218,8330,8192,8182,8271,8192,8229,8202,8175,8145,7.842662811279297
15,8199,8174,8003,8166,8217,8317,8197,8182,8211,8189,8249,8174,8170,8137,7.850641965866089
16,8228,8191,8015,8184,8218,8316,8202,8189,8238,8205,8262,8184,8175,8170,7.858641386032104
17,8218,8195,8021,8182,8202,8286,8187,8179,8286,8194,8249,8198,8172,8170,7.866822957992554
18,8203,8170,8004,8172,8216,8265,8197,8165,8155,8201,8250,8159,8163,8156,7.874823331832886
19,8230,8205,8026,8185,8224,8269,8196,8179,8264,8196,8249,8208,8177,8173,7.882642030715942
20,8202,8183,8015,8170,8232,8252,8192,8175,8213,8196,8261,8176,8167,8159,7.889861106872559
21,8207,8180,8007,8177,8217,8228,8181,8166,8159,8176,8244,8159,8161,8148,7.89742636680603
22,8207,8183,7999,8169,8197,8206,8172,8162,8206,8146,8228,8189,8170,8144,7.905425310134888
23,8191,8154,7989,8157,8225,8196,8191,8163,8126,8174,8260,8163,8170,8150,7.913641691207886
24,8218,8191,8014,8192,8223,8206,8186,8178,8259,8188,8259,8199,8178,8164,7.921640872955322
25,8194,8176,7987,8185,8217,8213,8181,8166,8225,8188,8239,8165,8168,8137,7.929610729217529
26,8186,8169,7972,8177,8230,8215,8181,8160,8162,8175,8228,8158,8160,8129,7.937701463699341
27,8189,8183,7986,8179,8228,8201,8171,8160,8220,8150,8222,8190,8158,8125,7.945606470108032
28,8173,8155,7962,8159,8229,8197,8176,8141,8100,8153,8232,8144,8151,8116,7.953641176223755
29,8194,8185,7972,8170,8213,8201,8169,8152,8184,8143,8221,8182,8169,8130,7.9607157707214355
30,8187,8169,7971,8167,8215,8188,8183,8165,8184,8163,8227,8174,8176,8135,7.96864128112793
31,8185,8155,7960,8162,8216,8185,8181,8161,8130,8168,8228,8159,8165,8140,7.976803779602051
32,8190,8178,7963,8167,8198,8187,8154,8156,8199,8130,8201,8189,8166,8125,7.984808921813965
33,8193,8161,7959,8163,8226,8197,8176,8152,8103,8154,8215,8148,8165,8122,7.992637395858765
34,8211,8186,7979,8172,8223,8204,8175,8159,8178,8156,8225,8185,8173,8154,8.00070309638977
35,8195,8174,7967,8165,8210,8196,8169,8151,8162,8149,8228,8186,8175,8158,8.00871229171753
36,8211,8169,7960,8176,8229,8210,8189,8160,8118,8177,8242,8171,8180,8167,8.01660680770874
37,8217,8197,7979,8184,8228,8211,8188,8186,8264,8178,8235,8205,8182,8172,8.0246422290802
38,8186,8164,7957,8161,8228,8185,8193,8178,8174,8191,8237,8163,8164,8164,8.031642198562622
39,8206,8180,7963,8166,8211,8182,8182,8171,8191,8179,8229,8187,8173,8177,8.039641857147217
40,8195,8172,7960,8160,8207,8187,8178,8167,8182,8165,8221,8180,8169,8156,8.047754287719727
41,8191,8158,7945,8161,8233,8190,8196,8168,8110,8179,8226,8153,8159,8155,8.05643367767334
42,8204,8186,7957,8172,8227,8189,8195,8177,8224,8173,8217,8198,8174,8171,8.063429117202759
43,8184,8162,7946,8162,8233,8183,8198,8171,8128,8186,8228,8161,8170,8158,8.071428060531616
44,8205,8183,7954,8175,8232,8178,8185,8167,8146,8173,8225,8181,8169,8167,8.079426765441895
45,8196,8185,7949,8162,8226,8163,8175,8157,8162,8157,8214,8189,8169,8160,8.087428092956543
46,8188,8162,7935,8143,8237,8168,8181,8155,8066,8177,8219,8155,8163,8150,8.09442687034607
47,8197,8185,7945,8154,8219,8184,8176,8174,8179,8161,8204,8193,8165,8149,8.102427959442139
48,8176,8160,7926,8150,8229,8186,8204,8174,8115,8162,8203,8164,8157,8141,8.110432863235474
49,8199,8174,7943,8161,8236,8184,8205,8172,8128,8168,8205,8183,8171,8164,8.118432998657227
50,8200,8182,7953,8159,8220,8168,8180,8167,8168,8170,8208,8195,8176,8164,8.126740455627441
51,8185,8162,7932,8153,8228,8158,8182,8151,8058,8183,8221,8154,8158,8151,8.1348717212677
52,8177,8186,7943,8165,8220,8146,8169,8152,8140,8156,8206,8194,8161,8140,8.142642974853516
53,8162,8166,7933,8164,8228,8116,8180,8159,8087,8165,8210,8160,8162,8129,8.150644063949585
54,8206,8174,7942,8171,8226,8092,8185,8162,8104,8166,8204,8166,8169,8159,8.158689737319946
55,8193,8175,7948,8154,8208,8063,8164,8147,8150,8147,8194,8186,8167,8154,8.165727853775024
56,8160,8152,7930,8150,8218,8039,8159,8130,8019,8165,8214,8145,8152,8133,8.1736421585083
57,8188,8186,7951,8182,8210,8029,8152,8146,8113,8154,8212,8188,8164,8143,8.18166446685791
58,8193,8169,7953,8173,8214,8015,8171,8149,8071,8151,8214,8167,8166,8145,8.189663648605347
59,8207,8177,7959,8174,8216,8008,8174,8141,8043,8146,8217,8169,8168,8164,8.197640895843506
60,8193,8191,7967,8175,8206,7994,8145,8135,8111,8138,8224,8200,8174,8165,8.205641269683838
61,8166,8158,7956,8161,8220,7984,8149,8135,8016,8160,8243,8156,8162,8149,8.213649988174438
62,8187,8189,7971,8176,8204,7989,8150,8151,8107,8141,8217,8188,8164,8146,8.221639633178711
63,8181,8178,7951,8163,8194,7985,8151,8136,8050,8138,8199,8170,8161,8137,8.228698015213013
64,8186,8178,7950,8159,8202,7981,8147,8128,8003,8147,8211,8167,8167,8155,8.236605644226074
65,8192,8198,7969,8170,8197,7984,8143,8145,8119,8140,8223,8201,8173,8162,8.24464201927185
66,8196,8172,7955,8171,8212,7989,8162,8142,8040,8176,8246,8160,8165,8168,8.25290036201477
66,8196,8172,7955,8171,8212,7989,8162,8142,8040,8176,8246,8160,8165,8168,8.253112554550171
67,8214,8203,7967,8178,8201,7975,8143,8143,8118,8169,8243,8198,8177,8189,8.259982347488403
67,8214,8203,7967,8178,8201,7975,8143,8143,8118,8169,8243,8198,8177,8189,8.260991334915161
68,8187,8191,7957,8162,8191,7941,8141,8145,8101,8164,8244,8187,8173,8174,8.268990516662598
69,8193,8172,7955,8164,8196,7934,8158,8148,8052,8191,8253,8171,8167,8175,8.276990413665771
70,8192,8185,7970,8167,8180,7934,8144,8149,8133,8174,8231,8203,8172,8172,8.284641742706299
71,8170,8159,7945,8150,8190,7928,8156,8147,8024,8167,8221,8158,8154,8149,8.291642189025879
72,8191,8177,7947,8160,8182,7928,8161,8159,8096,8158,8213,8182,8159,8155,8.30010986328125
73,8171,8166,7943,8153,8165,7915,8154,8153,8091,8154,8215,8172,8165,8144,8.307114839553833
74,8176,8162,7947,8150,8169,7905,8160,8146,8012,8157,8219,8158,8159,8143,8.315710067749023
75,8199,8191,7965,8158,8163,7903,8161,8158,8131,8160,8218,8203,8166,8157,8.32379698753357
76,8186,8166,7943,8158,8173,7903,8184,8164,8066,8203,8235,8162,8165,8159,8.331799030303955
77,8196,8183,7955,8178,8162,7901,8183,8173,8116,8195,8221,8184,8170,8167,8.339810609817505
78,8176,8172,7960,8169,8153,7880,8181,8167,8120,8171,8214,8181,8166,8145,8.347641944885254
79,8187,8163,7953,8165,8167,7876,8194,8160,8039,8191,8232,8153,8163,8148,8.354636669158936
80,8206,8195,7965,8174,8161,7874,8180,8169,8153,8187,8218,8197,8173,8161,8.36264944076538
81,8174,8154,7938,8154,8180,7864,8184,8161,8058,8191,8216,8155,8167,8135,8.370648384094238
82,8180,8160,7931,8161,8173,7864,8176,8158,8060,8178,8215,8166,8169,8132,8.378642082214355
83,8161,8167,7922,8153,8152,7845,8157,8156,8069,8170,8208,8171,8163,8117,8.386605262756348
84,8164,8152,7911,8144,8171,7835,8160,8150,7975,8188,8208,8142,8162,8112,8.394768953323364
85,8194,8176,7927,8156,8163,7836,8151,8155,8089,8166,8199,8188,8173,8124,8.402626752853394
86,8173,8155,7912,8144,8164,7820,8161,8151,8021,8173,8218,8159,8160,8115,8.410353183746338
87,8191,8181,7924,8156,8174,7823,8169,8162,8047,8194,8227,8175,8169,8135,8.41835331916809
88,8181,8184,7922,8148,8171,7828,8165,8166,8101,8194,8216,8183,8174,8131,8.425642013549805
89,8149,8143,7885,8127,8167,7818,8158,8152,7976,8186,8209,8137,8160,8107,8.433642864227295
90,8164,8177,7895,8144,8148,7817,8137,8155,8055,8157,8190,8181,8166,8105,8.442069292068481
91,8170,8176,7898,8148,8165,7831,8154,8158,8024,8183,8212,8160,8166,8110,8.449726581573486
92,8194,8178,7911,8154,8169,7837,8161,8166,8051,8189,8222,8168,8173,8134,8.457631349563599
93,8187,8181,7911,8150,8152,7821,8142,8167,8096,8159,8204,8188,8173,8123,8.46564245223999
94,8182,8170,7893,8151,8176,7823,8151,8156,7979,8175,8215,8144,8159,8112,8.473312854766846
95,8207,8200,7905,8161,8172,7832,8148,8157,8086,8171,8210,8182,8166,8128,8.48131275177002
95,8207,8200,7905,8161,8172,7832,8148,8157,8086,8171,8210,8182,8166,8128,8.482306718826294
96,8178,8163,7882,8137,8171,7825,8151,8152,8037,8174,8207,8157,8162,8118,8.488641738891602
97,8172,8162,7873,8144,8179,7823,8147,8156,8006,8174,8202,8152,8162,8111,8.496654748916626
98,8167,8182,7873,8142,8165,7814,8132,8154,8064,8145,8174,8177,8161,8097,8.504645586013794
99,8157,8153,7851,8122,8167,7812,8148,8139,7931,8150,8170,8137,8151,8099,8.51265025138855
100,8183,8184,7864,8145,8163,7825,8151,8157,8032,8151,8175,8174,8166,8123,8.520651817321777
101,8169,8170,7848,8136,8172,7824,8156,8165,8028,8162,8182,8157,8169,8115,8.528211116790771
102,8172,8163,7837,8138,8176,7821,8152,8162,7987,8167,8180,8152,8171,8119,8.536160945892334
103,8181,8186,7855,8161,8170,7808,8143,8169,8086,8164,8180,8186,8180,8123,8.544095754623413
103,8181,8186,7855,8161,8170,7808,8143,8169,8086,8164,8180,8186,8180,8123,8.545083045959473
104,8180,8168,7851,8155,8197,7804,8169,8166,8016,8193,8200,8147,8169,8126,8.551090717315674
105,8196,8190,7859,8161,8188,7811,8159,8168,8086,8172,8184,8179,8174,8144,8.559641361236572
106,8173,8168,7844,8150,8174,7802,8141,8149,8029,8148,8177,8160,8169,8131,8.567641019821167
106,8173,8168,7844,8150,8174,7802,8141,8149,8029,8148,8177,8160,8169,8131,8.56810474395752
107,8184,8169,7851,8150,8191,7813,8145,8144,7979,8163,8197,8152,8163,8135,8.575160503387451
107,8184,8169,7851,8150,8191,7813,8145,8144,7979,8163,8197,8152,8163,8135,8.576186656951904
108,8196,8199,7871,8171,8187,7828,8148,8168,8125,8175,8200,8193,8170,8143,8.58363151550293
109,8181,8164,7838,8165,8189,7823,8167,8167,8029,8193,8197,8140,8162,8126,8.591624975204468
110,8202,8184,7840,8162,8181,7816,8162,8161,8052,8164,8179,8168,8172,8126,8.599642038345337
111,8191,8187,7855,8154,8182,7811,8165,8159,8056,8159,8196,8174,8173,8118,8.607430219650269
112,8190,8172,7862,8166,8193,7836,8170,8161,8008,8185,8220,8147,8165,8119,8.615419149398804
113,8189,8184,7858,8173,8178,7864,8148,8163,8098,8160,8191,8175,8168,8110,8.622419357299805
114,8172,8162,7829,8164,8192,7770,8160,8157,8000,8172,8197,8147,8169,8100,8.630520343780518
115,8191,8186,7846,8173,8196,7799,8152,8168,8061,8177,8215,8182,8178,8124,8.638134479522705
116,8179,8184,7843,8154,8191,7903,8145,8167,8096,8166,8205,8173,8170,8120,8.646146774291992
117,8181,8168,7828,8154,8196,7359,8166,8160,7973,8172,8197,8140,8162,8123,8.654644012451172
117,8181,8168,7828,8154,8196,7359,8166,8160,7973,8172,8197,8140,8162,8123,8.655161619186401
118,8180,8178,7831,8156,8173,6708,8146,8162,7973,8151,8185,8182,8173,8114,8.662642478942871
119,8157,8147,7798,8124,8179,7073,8143,8154,7873,8167,8184,8136,8166,8086,8.67098617553711
120,8185,8171,7804,8138,8189,7769,8156,8154,7989,8165,8169,8151,8165,8108,8.678165674209595
120,8185,8171,7804,8138,8189,7769,8156,8154,7989,8165,8169,8151,8165,8108,8.679160356521606
121,8152,8165,7808,8147,8187,7847,8157,8161,8069,8146,8170,8166,8161,8103,8.685165882110596
121,8152,8165,7808,8147,8187,7847,8157,8161,8069,8146,8170,8166,8161,8103,8.686159133911133
122,8135,8143,7792,8144,8191,7871,8160,8166,7995,8169,8182,8130,8153,8087,8.694196939468384
123,8180,8181,7810,8151,8173,8094,8153,8178,8146,8170,8161,8171,8165,8102,8.702281475067139
124,8159,8151,7799,8133,8186,8115,8161,8173,8090,8186,8172,8145,8166,8105,8.709596395492554
125,8155,8156,7800,8143,8191,8110,8153,8178,8101,8191,8184,8155,8172,8111,8.717597723007202
126,8162,8174,7799,8145,8177,8144,8146,8174,8166,8177,8175,8166,8167,8097,8.72680139541626
127,8156,8149,7780,8130,8184,8157,8149,8153,8042,8174,8175,8132,8152,8090,8.733642339706421
240,8156,8166,7787,8137,8170,8192,8120,8153,8104,8146,8155,8169,8161,8095,8.741618394851685
0,8139,8150,7779,8128,8175,8207,8125,8148,8044,8151,8162,8139,8159,8087,8.748629331588745
1,8163,8167,7796,8135,8178,8221,8142,8160,8068,8159,8177,8152,8162,8106,8.756706476211548
2,8164,8177,7802,8137,8161,8226,8142,8174,8153,8156,8167,8175,8163,8105,8.764731168746948
3,8145,8148,7779,8132,8169,8233,8148,8162,8044,8173,8168,8128,8157,8093,8.77266788482666
4,8162,8176,7801,8144,8158,8248,8126,8160,8134,8153,8165,8166,8172,8104,8.78077220916748
5,8159,8163,7798,8138,8161,8262,8134,8159,8107,8162,8175,8142,8168,8098,8.788642168045044
6,8168,8166,7793,8145,8178,8287,8144,8166,8100,8172,8178,8143,8164,8104,8.796669960021973
7,8155,8171,7801,8140,8171,8296,8128,8170,8187,8158,8169,8180,8166,8106,8.804661989212036
8,8145,8141,7790,8124,8178,8304,8143,8163,8082,8175,8179,8137,8156,8108,8.812642335891724
9,8157,8167,7796,8129,8163,8324,8144,8173,8152,8157,8160,8161,8165,8110,8.819624185562134
10,8123,8140,7773,8110,8158,8330,8147,8170,8111,8153,8152,8140,8163,8082,8.827746629714966
11,8140,8141,7786,8122,8173,8337,8147,8163,8081,8171,8165,8140,8163,8094,8.835756540298462
12,8156,8173,7815,8144,8163,8331,8124,8170,8185,8160,8165,8176,8168,8108,8.843642711639404
13,8140,8142,7790,8131,8165,8312,8128,8159,8071,8165,8171,8127,8158,8100,8.85164189338684
14,8167,8174,7807,8137,8160,8311,8127,8159,8141,8157,8175,8168,8172,8121,8.860101699829102
15,8172,8183,7823,8149,8174,8327,8143,8177,8182,8182,8202,8172,8178,8139,8.868138551712036
16,8190,8173,7825,8158,8192,8345,8163,8191,8178,8214,8216,8152,8169,8156,8.875641822814941
17,8182,8183,7837,8150,8176,8326,8146,8182,8261,8187,8193,8178,8167,8144,8.882631540298462
18,8157,8159,7821,8138,8180,8306,8153,8170,8125,8182,8195,8133,8162,8123,8.890630006790161
19,8192,8185,7830,8155,8177,8316,8156,8178,8172,8171,8192,8164,8172,8144,8.898633003234863
20,8173,8174,7829,8145,8179,8309,8150,8165,8176,8157,8197,8166,8165,8132,8.906959533691406
21,8159,8157,7830,8140,8175,8294,8144,8156,8093,8158,8196,8136,8154,8117,8.914963245391846
22,8168,8177,7835,8133,8141,8288,8127,8166,8165,8141,8161,8164,8162,8113,8.92299509048462
23,8147,8154,7804,8111,8159,8291,8150,8165,8074,8164,8173,8133,8165,8108,8.93064284324646
24,8174,8178,7822,8139,8173,8300,8164,8178,8156,8173,8192,8164,8174,8133,8.938642740249634
25,8167,8170,7835,8136,8165,8294,8158,8178,8185,8168,8184,8160,8163,8126,8.945642471313477
26,8160,8148,7830,8124,8173,8291,8153,8168,8087,8174,8179,8132,8153,8119,8.953629970550537
27,8179,8177,7848,8141,8159,8280,8135,8170,8186,8144,8166,8182,8170,8130,8.961623668670654
28,8162,8152,7841,8131,8163,8277,8141,8162,8101,8152,8181,8146,8167,8126,8.969641208648682
29,8171,8169,7858,8142,8169,8307,8143,8178,8143,8169,8187,8162,8167,8144,8.977641582489014
29,8171,8169,7858,8142,8169,8307,8143,8178,8143,8169,8187,8162,8167,8144,8.978152513504028
30,8173,8175,7860,8143,8160,8310,8151,8185,8205,8172,8180,8173,8167,8145,8.985161066055298
30,8173,8175,7860,8143,8160,8310,8151,8185,8205,8172,8180,8173,8167,8145,8.98616361618042
31,8165,8151,7843,8126,8155,8293,8154,8167,8101,8173,8178,8138,8156,8138,8.993163824081421
32,8162,8180,7862,8130,8141,8283,8140,8178,8196,8150,8166,8178,8161,8138,9.001830577850342
33,8151,8165,7856,8128,8169,8273,8177,8190,8152,8167,8182,8145,8160,8132,9.009699821472168
34,8178,8176,7868,8141,8171,8275,8186,8190,8169,8171,8181,8152,8165,8145,9.016606330871582
35,8170,8177,7876,8135,8142,8270,8160,8179,8205,8152,8159,8168,8166,8130,9.024642705917358
36,8153,8147,7855,8123,8154,8258,8164,8166,8086,8157,8163,8131,8155,8118,9.032642126083374
37,8165,8173,7863,8136,8146,8252,8150,8172,8172,8143,8158,8168,8160,8118,9.040714979171751
38,8155,8161,7856,8135,8144,8257,8156,8175,8123,8165,8167,8137,8159,8097,9.048641681671144
39,8166,8173,7863,8139,8149,8269,8164,8176,8127,8171,8173,8146,8167,8099,9.05647039413452
40,8145,8171,7854,8127,8134,8259,8153,8175,8176,8143,8160,8165,8168,8087,9.0644850730896
41,8128,8133,7826,8113,8139,8252,8159,8169,8045,8153,8156,8115,8155,8080,9.07263684272766
42,8147,8163,7856,8130,8130,8253,8147,8174,8147,8139,8146,8160,8164,8098,9.07963752746582
43,8133,8152,7859,8124,8130,8242,8161,8181,8142,8154,8167,8149,8163,8090,9.08706784248352
44,8162,8153,7845,8125,8136,8241,8182,8195,8138,8175,8180,8138,8171,8107,9.095081329345703
45,8156,8163,7840,8120,8125,8238,8160,8188,8200,8153,8158,8157,8174,8101,9.103079795837402
46,8130,8138,7836,8112,8133,8227,8153,8168,8069,8160,8161,8122,8156,8076,9.111469507217407
47,8168,8170,7876,8137,8124,8222,8152,8181,8157,8159,8168,8170,8170,8098,9.119483709335327
48,8165,8162,7882,8139,8130,8228,8158,8183,8155,8166,8185,8154,8169,8111,9.127641201019289
49,8171,8160,7881,8144,8139,8240,8157,8168,8104,8163,8183,8137,8158,8113,9.135246515274048
50,8165,8174,7891,8147,8116,8233,8139,8162,8160,8126,8158,8165,8164,8093,9.14224648475647
51,8147,8151,7884,8140,8125,8230,8153,8160,8059,8143,8170,8127,8163,8078,9.150238275527954
52,8186,8184,7910,8160,8131,8247,8161,8174,8163,8155,8179,8162,8170,8099,9.15824055671692
53,8174,8166,7902,8147,8144,8241,8163,8174,8161,8150,8185,8151,8166,8100,9.166240215301514
54,8172,8158,7904,8154,8166,8235,8165,8174,8111,8159,8192,8139,8163,8112,9.174238443374634
55,8204,8195,7928,8177,8157,8235,8165,8191,8250,8171,8189,8178,8174,8122,9.182238101959229
56,8193,8165,7901,8154,8164,8224,8177,8178,8144,8187,8201,8124,8166,8115,9.190237998962402
57,8187,8177,7911,8155,8158,8214,8153,8174,8160,8153,8192,8148,8167,8121,9.19805645942688
58,8177,8176,7921,8158,8159,8214,8158,8184,8188,8160,8193,8153,8165,8113,9.206058740615845
59,8189,8166,7908,8154,8167,8232,8192,8190,8144,8194,8207,8129,8166,8120,9.21306037902832
60,8186,8188,7919,8158,8156,8235,8182,8194,8242,8170,8200,8171,8173,8124,9.221062660217283
61,8163,8161,7916,8160,8179,8229,8194,8196,8177,8193,8217,8142,8164,8123,9.229642868041992
62,8194,8178,7925,8173,8174,8230,8203,8209,8239,8201,8205,8155,8171,8145,9.237635374069214
63,8179,8163,7912,8145,8151,8212,8188,8193,8218,8166,8171,8142,8165,8126,9.245644569396973
64,8160,8141,7901,8131,8165,8212,8176,8169,8096,8159,8176,8119,8155,8118,9.253642559051514
65,8163,8180,7925,8148,8161,8229,8159,8174,8210,8154,8184,8174,8168,8128,9.261631488800049
66,8150,8161,7912,8142,8160,8223,8168,8172,8135,8172,8195,8139,8166,8111,9.269631147384644
67,8182,8172,7916,8155,8164,8226,8165,8178,8160,8172,8188,8150,8170,8118,9.276605367660522
67,8182,8172,7916,8155,8164,8226,8165,8178,8160,8172,8188,8150,8170,8118,9.277654886245728
68,8186,8177,7920,8156,8170,8241,8174,8184,8217,8169,8185,8162,8167,8125,9.284643411636353
69,8169,8159,7913,8144,8181,8253,8196,8183,8128,8184,8198,8131,8156,8140,9.292635917663574
70,8160,8178,7924,8145,8159,8248,8170,8194,8238,8171,8192,8173,8168,8155,9.300083637237549
71,8144,8152,7904,8136,8157,8240,8169,8187,8186,8185,8195,8133,8165,8139,9.308083772659302
72,8177,8165,7917,8153,8163,8249,8177,8183,8187,8180,8188,8139,8165,8145,9.31660509109497
73,8160,8173,7929,8152,8160,8249,8169,8189,8227,8164,8180,8158,8165,8135,9.324642896652222
74,8146,8153,7913,8145,8180,8248,8184,8187,8129,8189,8179,8117,8160,8124,9.332373142242432
75,8176,8183,7926,8152,8171,8240,8174,8184,8225,8172,8162,8159,8170,8134,9.339377164840698
76,8144,8156,7916,8135,8164,8219,8163,8169,8143,8158,8175,8136,8159,8118,9.34739351272583
77,8154,8162,7922,8146,8158,8210,8159,8169,8109,8157,8180,8131,8153,8116,9.355642080307009
78,8163,8182,7928,8147,8152,8195,8157,8177,8177,8151,8168,8148,8164,8112,9.36364197731018
79,8140,8150,7910,8128,8170,8191,8163,8173,8074,8174,8182,8114,8160,8111,9.371641874313354
80,8158,8170,7929,8137,8150,8207,8145,8183,8162,8167,8172,8160,8163,8123,9.379498481750488
81,8147,8156,7920,8121,8147,8207,8148,8171,8120,8162,8169,8147,8157,8107,9.38742709159851
82,8138,8156,7910,8121,8157,8203,8152,8163,8074,8148,8169,8127,8158,8102,9.395642518997192
83,8128,8163,7913,8126,8143,8201,8137,8168,8122,8123,8152,8139,8166,8095,9.402025938034058
83,8128,8163,7913,8126,8143,8201,8137,8168,8122,8123,8152,8139,8166,8095,9.40302562713623
84,8130,8140,7909,8115,8155,8200,8147,8167,8015,8145,8172,8140,8163,8100,9.410046100616457
84,8130,8140,7909,8115,8155,8200,8147,8167,8015,8145,8172,8140,8163,8100,9.411038637161257
85,8163,8180,7941,8134,8150,8206,8141,8181,8131,8148,8183,8128,8171,8131,9.418641567230225
86,8150,8166,7934,8125,8149,8208,8144,8177,8111,8152,8180,7952,8160,8127,9.426604986190796
87,8149,8152,7932,8120,8158,8214,8144,8169,8046,8157,8184,7929,8160,8133,9.434642553329468
88,8152,8174,7952,8127,8144,8201,8127,8174,8149,8141,8177,8091,8174,8131,9.442642211914062
89,8144,8150,7932,8109,8146,8188,8140,8169,8052,8152,8179,8078,8157,8114,9.451002836227415
90,8161,8171,7940,8110,8137,8205,8138,8176,8118,8141,8175,8095,8161,8123,9.458999156951904
91,8155,8164,7942,8109,8142,8222,8146,8173,8137,8147,8178,8138,8168,8120,9.4666006565094
92,8169,8154,7943,8117,8157,8234,8160,8166,8083,8159,8178,8144,8164,8124,9.473641872406006
93,8157,8172,7956,8120,8139,8229,8137,8177,8166,8135,8171,8178,8167,8123,9.48119831085205
93,8157,8172,7956,8120,8139,8229,8137,8177,8166,8135,8171,8178,8167,8123,9.482191562652588
94,8130,8153,7941,8112,8147,8222,8143,8181,8085,8159,8190,8150,8163,8119,9.489197969436646
94,8130,8153,7941,8112,8147,8222,8143,8181,8085,8159,8190,8150,8163,8119,9.490196466445925
95,8162,8178,7952,8127,8151,8221,8144,8179,8149,8163,8183,8174,8169,8137,9.497641324996948
96,8145,8163,7955,8116,8154,8209,8144,8174,8160,8161,8185,8167,8168,8123,9.50564193725586
97,8144,8149,7959,8115,8170,8207,8156,8181,8108,8185,8200,8141,8163,8123,9.513577938079834
98,8158,8175,7968,8124,8154,8203,8134,8182,8205,8161,8177,8171,8166,8127,9.521573781967165
99,8135,8147,7948,8113,8157,8205,8128,8169,8103,8170,8184,8130,8158,8118,9.529386281967165
100,8163,8172,7978,8129,8160,8209,8133,8180,8162,8182,8197,8159,8167,8142,9.53660488128662
101,8162,8172,7989,8122,8157,8192,8142,8182,8196,8167,8195,8165,8168,8139,9.544641494750977
102,8156,8154,7970,8122,8168,8195,8157,8180,8102,8174,8189,8126,8162,8135,9.552642107009888
