COUNTER,F3, FC5,AF3,F7,T7,P7,O1,O2,P8,T8,F8,AF4,FC6,F4,Timestamp
122, 8209, 8186, 8254, 8162, 8349, 8149, 8135, 8189, 8135, 8154, 8169, 8198, 8210, 8318,0.007187843322753906
123, 8176, 8163, 8173, 8130, 8238, 8149, 8167, 8184, 8161, 8173, 8162, 8185, 8191, 8311,0.015185117721557617
124, 8150, 8156, 8127, 8117, 8227, 8159, 8189, 8183, 8185, 8189, 8172, 8166, 8185, 8286,0.023105382919311523
125, 8171, 8171, 8185, 8129, 8287, 8177, 8191, 8215, 8200, 8178, 8172, 8177, 8199, 8287,0.030231714248657227
126, 8200, 8176, 8202, 8141, 8265, 8187, 8194, 8222, 8204, 8174, 8152, 8186, 8204, 8309,0.03815889358520508
127, 8185, 8161, 8134, 8139, 8216, 8180, 8198, 8192, 8197, 8178, 8144, 8174, 8189, 8304,0.046381235122680664
236, 8142, 8147, 8072, 8137, 8201, 8176, 8204, 8161, 8199, 8174, 8159, 8164, 8193, 8296,0.05421257019042969
0, 8157, 8187, 8206, 8149, 8316, 8196, 8195, 8199, 8198, 8174, 8164, 8183, 8202, 8299,0.06210803985595703
1, 8187, 8207, 8273, 8163, 8323, 8204, 8187, 8229, 8184, 8180, 8163, 8211, 8196, 8305,0.07016396522521973
2, 8172, 8172, 8158, 8176, 8217, 8185, 8198, 8173, 8183, 8183, 8169, 8191, 8198, 8305,0.07822942733764648
3, 8167, 8176, 8184, 8187, 8262, 8182, 8190, 8163, 8185, 8179, 8172, 8179, 8204, 8298,0.08498954772949219
4, 8169, 8183, 8172, 8192, 8245, 8186, 8176, 8159, 8179, 8173, 8175, 8193, 8214, 8310,0.09315037727355957
5, 8185, 8197, 8184, 8198, 8258, 8170, 8160, 8137, 8149, 8162, 8161, 8194, 8201, 8317,0.10107111930847168
6, 8202, 8205, 8266, 8188, 8308, 8153, 8139, 8148, 8115, 8159, 8145, 8204, 8171, 8302,0.10914063453674316
7, 8172, 8157, 8156, 8157, 8203, 8145, 8144, 8116, 8117, 8161, 8150, 8188, 8173, 8299,0.11718511581420898
8, 8150, 8144, 8076, 8148, 8175, 8149, 8154, 8093, 8131, 8158, 8154, 8162, 8183, 8302,0.1250746250152588
9, 8165, 8177, 8147, 8167, 8257, 8164, 8156, 8141, 8143, 8165, 8154, 8168, 8172, 8287,0.13327240943908691
10, 8169, 8176, 8202, 8156, 8288, 8167, 8157, 8190, 8152, 8171, 8142, 8173, 8152, 8262,0.14117646217346191
11, 8143, 8148, 8137, 8131, 8211, 8153, 8165, 8188, 8161, 8166, 8133, 8167, 8158, 8256,0.1491398811340332
12, 8131, 8148, 8103, 8138, 8199, 8150, 8170, 8173, 8173, 8167, 8136, 8160, 8173, 8259,0.15633463859558105
13, 8152, 8180, 8240, 8156, 8321, 8159, 8156, 8211, 8169, 8171, 8136, 8181, 8156, 8255,0.16414690017700195
14, 8153, 8163, 8221, 8156, 8256, 8155, 8155, 8208, 8173, 8173, 8155, 8193, 8166, 8265,0.17209124565124512
15, 8140, 8151, 8102, 8159, 8166, 8150, 8165, 8171, 8191, 8177, 8177, 8172, 8196, 8279,0.18017172813415527
16, 8168, 8188, 8153, 8189, 8232, 8159, 8166, 8182, 8195, 8180, 8179, 8181, 8198, 8291,0.18804311752319336
17, 8199, 8197, 8181, 8205, 8233, 8164, 8164, 8170, 8192, 8182, 8190, 8197, 8207, 8309,0.19610071182250977
18, 8212, 8211, 8207, 8198, 8266, 8171, 8149, 8164, 8176, 8183, 8202, 8204, 8219, 8315,0.20415139198303223
19, 8231, 8235, 8256, 8211, 8299, 8182, 8142, 8179, 8176, 8193, 8210, 8231, 8233, 8332,0.21203923225402832
20, 8243, 8227, 8192, 8238, 8227, 8173, 8151, 8156, 8196, 8196, 8230, 8234, 8262, 8371,0.22007465362548828
21, 8234, 8209, 8136, 8239, 8198, 8154, 8153, 8132, 8192, 8191, 8230, 8211, 8265, 8375,0.22825980186462402
22, 8220, 8204, 8148, 8215, 8233, 8147, 8161, 8132, 8179, 8191, 8201, 8193, 8245, 8349,0.23531270027160645
23, 8227, 8209, 8202, 8196, 8280, 8150, 8169, 8160, 8175, 8190, 8176, 8200, 8230, 8338,0.243149995803833
24, 8211, 8179, 8180, 8180, 8230, 8148, 8179, 8169, 8176, 8183, 8168, 8196, 8230, 8338,0.251192569732666
25, 8178, 8165, 8142, 8169, 8214, 8156, 8203, 8175, 8188, 8181, 8153, 8169, 8224, 8322,0.25914573669433594
26, 8188, 8197, 8212, 8167, 8278, 8170, 8208, 8221, 8198, 8190, 8137, 8179, 8205, 8298,0.26730942726135254
27, 8192, 8182, 8178, 8160, 8202, 8161, 8201, 8210, 8199, 8197, 8150, 8189, 8199, 8293,0.27512216567993164
28, 8169, 8168, 8131, 8157, 8183, 8149, 8193, 8171, 8189, 8185, 8154, 8171, 8192, 8286,0.2833364009857178
29, 8160, 8180, 8171, 8159, 8242, 8149, 8183, 8176, 8176, 8173, 8135, 8171, 8173, 8278,0.29015588760375977
30, 8144, 8166, 8147, 8144, 8214, 8154, 8176, 8172, 8170, 8170, 8124, 8162, 8160, 8270,0.29813599586486816
31, 8131, 8174, 8171, 8134, 8231, 8164, 8168, 8177, 8161, 8161, 8130, 8157, 8151, 8249,0.30625176429748535
32, 8134, 8179, 8174, 8154, 8216, 8161, 8164, 8166, 8159, 8160, 8151, 8168, 8165, 8245,0.31433629989624023
33, 8134, 8168, 8140, 8170, 8197, 8146, 8154, 8149, 8158, 8173, 8157, 8169, 8181, 8261,0.3223543167114258
34, 8150, 8177, 8169, 8166, 8209, 8149, 8140, 8154, 8144, 8173, 8162, 8182, 8185, 8280,0.33026790618896484
35, 8176, 8192, 8177, 8174, 8208, 8153, 8134, 8139, 8129, 8165, 8176, 8191, 8196, 8303,0.3381199836730957
36, 8179, 8200, 8182, 8190, 8225, 8151, 8124, 8137, 8129, 8166, 8172, 8194, 8209, 8304,0.3463454246520996
37, 8166, 8186, 8147, 8195, 8188, 8160, 8133, 8140, 8146, 8175, 8172, 8186, 8223, 8289,0.35312604904174805
38, 8179, 8197, 8179, 8195, 8231, 8175, 8148, 8159, 8142, 8176, 8167, 8180, 8209, 8281,0.3613429069519043
39, 8190, 8199, 8244, 8186, 8264, 8182, 8158, 8180, 8129, 8165, 8155, 8196, 8178, 8282,0.3691253662109375
40, 8157, 8160, 8155, 8169, 8179, 8174, 8169, 8164, 8160, 8172, 8163, 8183, 8193, 8279,0.3771016597747803
41, 8139, 8164, 8148, 8148, 8214, 8161, 8162, 8191, 8194, 8185, 8170, 8170, 8210, 8264,0.38527607917785645
42, 8149, 8172, 8187, 8138, 8225, 8155, 8160, 8207, 8191, 8181, 8162, 8175, 8195, 8260,0.3932979106903076
43, 8146, 8159, 8160, 8149, 8191, 8164, 8165, 8182, 8174, 8177, 8148, 8172, 8175, 8259,0.40125584602355957
44, 8139, 8160, 8184, 8160, 8222, 8169, 8166, 8188, 8177, 8180, 8141, 8182, 8170, 8264,0.4092991352081299
45, 8135, 8154, 8172, 8154, 8200, 8152, 8170, 8181, 8189, 8179, 8155, 8176, 8183, 8277,0.41623687744140625
46, 8139, 8155, 8142, 8158, 8180, 8142, 8160, 8163, 8177, 8175, 8164, 8158, 8182, 8271,0.4242746829986572
47, 8153, 8171, 8135, 8186, 8177, 8147, 8148, 8153, 8162, 8175, 8156, 8162, 8178, 8264,0.4323000907897949
48, 8170, 8194, 8175, 8188, 8220, 8159, 8146, 8157, 8157, 8166, 8158, 8177, 8178, 8274,0.4404115676879883
49, 8182, 8199, 8226, 8174, 8250, 8168, 8149, 8161, 8141, 8161, 8181, 8198, 8184, 8292,0.44821763038635254
50, 8177, 8186, 8168, 8183, 8183, 8176, 8163, 8136, 8138, 8172, 8204, 8195, 8215, 8314,0.4562833309173584
51, 8185, 8202, 8172, 8201, 8214, 8198, 8175, 8140, 8140, 8185, 8207, 8187, 8229, 8319,0.4642324447631836
52, 8200, 8205, 8210, 8205, 8234, 8205, 8169, 8149, 8141, 8197, 8216, 8203, 8227, 8321,0.4724113941192627
53, 8193, 8188, 8173, 8188, 8193, 8177, 8153, 8135, 8153, 8198, 8225, 8200, 8229, 8324,0.48029637336730957
54, 8175, 8190, 8195, 8171, 8222, 8163, 8150, 8161, 8159, 8185, 8198, 8186, 8207, 8308,0.48734259605407715
55, 8157, 8168, 8180, 8146, 8197, 8165, 8162, 8181, 8169, 8178, 8171, 8173, 8174, 8294,0.4952106475830078
56, 8155, 8159, 8143, 8131, 8166, 8166, 8164, 8190, 8184, 8177, 8169, 8171, 8167, 8289,0.503237247467041
57, 8162, 8169, 8141, 8142, 8165, 8172, 8169, 8200, 8195, 8176, 8176, 8170, 8176, 8280,0.5112879276275635
58, 8155, 8162, 8143, 8149, 8182, 8175, 8176, 8197, 8203, 8174, 8165, 8158, 8165, 8271,0.5194082260131836
59, 8161, 8162, 8180, 8138, 8203, 8177, 8167, 8199, 8194, 8167, 8151, 8171, 8149, 8275,0.5271356105804443
60, 8173, 8166, 8156, 8144, 8163, 8179, 8169, 8179, 8184, 8168, 8162, 8179, 8167, 8294,0.5353209972381592
61, 8182, 8198, 8188, 8183, 8227, 8177, 8165, 8184, 8169, 8175, 8168, 8180, 8177, 8290,0.5432817935943604
62, 8191, 8216, 8221, 8201, 8232, 8172, 8150, 8184, 8148, 8171, 8180, 8197, 8175, 8289,0.5500516891479492
63, 8204, 8207, 8168, 8194, 8163, 8179, 8146, 8145, 8145, 8170, 8202, 8203, 8194, 8317,0.5581076145172119
64, 8230, 8226, 8230, 8205, 8238, 8203, 8146, 8171, 8154, 8179, 8210, 8221, 8204, 8330,0.5663046836853027
65, 8218, 8222, 8214, 8220, 8221, 8204, 8154, 8178, 8167, 8181, 8215, 8218, 8207, 8319,0.5742578506469727
66, 8180, 8209, 8129, 8212, 8164, 8184, 8150, 8140, 8159, 8172, 8208, 8182, 8212, 8315,0.582176685333252
67, 8173, 8201, 8165, 8184, 8201, 8175, 8127, 8140, 8138, 8170, 8189, 8185, 8208, 8311,0.5902478694915771
68, 8171, 8169, 8167, 8159, 8203, 8182, 8117, 8141, 8132, 8180, 8177, 8190, 8197, 8293,0.5983376502990723
69, 8170, 8162, 8172, 8154, 8201, 8194, 8125, 8143, 8132, 8180, 8172, 8180, 8185, 8284,0.6062624454498291
70, 8176, 8169, 8177, 8162, 8173, 8193, 8144, 8151, 8135, 8170, 8180, 8180, 8187, 8297,0.6143114566802979
71, 8159, 8165, 8157, 8152, 8172, 8194, 8160, 8170, 8147, 8176, 8185, 8176, 8189, 8293,0.6211366653442383
72, 8135, 8152, 8128, 8144, 8160, 8209, 8174, 8182, 8177, 8195, 8184, 8163, 8185, 8272,0.6302902698516846
73, 8138, 8149, 8125, 8149, 8166, 8210, 8173, 8175, 8198, 8179, 8159, 8148, 8165, 8254,0.6371941566467285
74, 8156, 8180, 8242, 8141, 8256, 8195, 8155, 8209, 8181, 8149, 8134, 8170, 8133, 8238,0.645313024520874
75, 8140, 8176, 8213, 8133, 8182, 8191, 8160, 8199, 8188, 8166, 8163, 8183, 8142, 8253,0.6531014442443848
76, 8119, 8163, 8108, 8152, 8120, 8201, 8157, 8149, 8208, 8178, 8182, 8155, 8155, 8257,0.661329984664917
77, 8147, 8187, 8179, 8182, 8196, 8198, 8119, 8156, 8183, 8161, 8164, 8163, 8146, 8237,0.669346809387207
78, 8185, 8189, 8193, 8199, 8182, 8192, 8113, 8151, 8164, 8172, 8192, 8191, 8179, 8269,0.6772415637969971
79, 8211, 8197, 8173, 8204, 8180, 8200, 8120, 8148, 8173, 8192, 8229, 8204, 8218, 8317,0.6841199398040771
80, 8218, 8207, 8193, 8196, 8192, 8191, 8104, 8151, 8167, 8180, 8222, 8205, 8219, 8316,0.6923763751983643
81, 8205, 8198, 8188, 8192, 8178, 8176, 8098, 8137, 8157, 8173, 8214, 8206, 8221, 8308,0.7012219429016113
82, 8202, 8193, 8178, 8195, 8170, 8180, 8109, 8139, 8156, 8192, 8216, 8211, 8240, 8325,0.7084050178527832
83, 8200, 8190, 8151, 8185, 8161, 8185, 8115, 8147, 8161, 8198, 8202, 8192, 8244, 8333,0.7161786556243896
84, 8183, 8193, 8170, 8168, 8199, 8192, 8120, 8168, 8167, 8185, 8173, 8177, 8214, 8306,0.7242522239685059
85, 8152, 8166, 8141, 8151, 8162, 8201, 8145, 8179, 8189, 8183, 8161, 8175, 8189, 8277,0.7413539886474609
93, 8254, 8243, 8252, 8258, 8197, 8160, 8132, 8204, 8189, 8177, 8235, 8228, 8215, 8305,0.7503020763397217
94, 8273, 8238, 8187, 8287, 8131, 8161, 8140, 8173, 8203, 8186, 8265, 8240, 8259, 8330,0.7509732246398926
95, 8282, 8234, 8183, 8282, 8172, 8172, 8148, 8175, 8214, 8200, 8292, 8257, 8295, 8376,0.755164384841919
96, 8279, 8239, 8212, 8269, 8212, 8186, 8140, 8175, 8198, 8196, 8275, 8243, 8293, 8379,0.763329267501831
97, 8251, 8236, 8214, 8250, 8194, 8170, 8124, 8166, 8167, 8186, 8243, 8220, 8256, 8339,0.7713351249694824
98, 8220, 8209, 8177, 8235, 8159, 8151, 8135, 8160, 8167, 8186, 8238, 8219, 8236, 8326,0.7791705131530762
99, 8210, 8193, 8193, 8232, 8206, 8162, 8162, 8187, 8185, 8184, 8233, 8216, 8229, 8339,0.7872998714447021
100, 8201, 8184, 8177, 8221, 8184, 8170, 8189, 8209, 8203, 8191, 8223, 8200, 8230, 8339,0.7952184677124023
101, 8189, 8177, 8110, 8202, 8128, 8155, 8191, 8191, 8213, 8196, 8215, 8179, 8225, 8316,0.8031466007232666
102, 8199, 8197, 8182, 8187, 8199, 8149, 8160, 8184, 8189, 8180, 8189, 8193, 8189, 8300,0.8103542327880859
103, 8183, 8174, 8169, 8165, 8176, 8151, 8155, 8158, 8173, 8175, 8168, 8186, 8172, 8306,0.8183541297912598
104, 8157, 8166, 8123, 8153, 8175, 8156, 8163, 8164, 8187, 8184, 8156, 8156, 8171, 8300,0.8265211582183838
105, 8189, 8212, 8226, 8184, 8240, 8157, 8150, 8214, 8197, 8191, 8162, 8191, 8164, 8290,0.8344030380249023
106, 8209, 8216, 8210, 8213, 8182, 8147, 8154, 8203, 8212, 8201, 8196, 8213, 8188, 8313,0.843393087387085
107, 8178, 8198, 8132, 8204, 8149, 8150, 8152, 8181, 8220, 8201, 8203, 8181, 8211, 8316,0.8504564762115479
108, 8173, 8198, 8122, 8195, 8147, 8162, 8132, 8169, 8203, 8196, 8176, 8168, 8203, 8293,0.8581743240356445
109, 8216, 8225, 8181, 8202, 8192, 8171, 8119, 8155, 8174, 8202, 8158, 8193, 8197, 8293,0.866370439529419
110, 8233, 8222, 8199, 8198, 8208, 8171, 8123, 8135, 8156, 8211, 8161, 8206, 8215, 8312,0.8742406368255615
111, 8203, 8188, 8133, 8184, 8171, 8155, 8126, 8107, 8142, 8203, 8158, 8176, 8218, 8312,0.8812527656555176
112, 8189, 8193, 8205, 8166, 8238, 8149, 8119, 8141, 8119, 8191, 8127, 8171, 8180, 8279,0.8892598152160645
113, 8174, 8173, 8210, 8138, 8200, 8163, 8139, 8163, 8141, 8197, 8119, 8175, 8174, 8266,0.897334098815918
114, 8154, 8148, 8114, 8126, 8133, 8175, 8170, 8152, 8190, 8204, 8138, 8157, 8193, 8280,0.9051661491394043
115, 8160, 8162, 8164, 8135, 8194, 8167, 8171, 8181, 8194, 8199, 8138, 8165, 8170, 8273,0.9133279323577881
116, 8149, 8150, 8174, 8117, 8170, 8143, 8166, 8187, 8184, 8190, 8124, 8163, 8146, 8254,0.9212906360626221
117, 8132, 8146, 8137, 8101, 8145, 8133, 8161, 8186, 8194, 8189, 8114, 8144, 8145, 8241,0.9292500019073486
118, 8150, 8162, 8150, 8121, 8165, 8138, 8154, 8203, 8210, 8194, 8115, 8152, 8145, 8245,0.9372923374176025
119, 8161, 8160, 8165, 8134, 8175, 8137, 8153, 8200, 8197, 8194, 8111, 8160, 8129, 8250,0.945350170135498
120, 8159, 8161, 8175, 8130, 8161, 8145, 8162, 8192, 8164, 8185, 8099, 8159, 8112, 8240,0.9523401260375977
121, 8164, 8178, 8144, 8149, 8131, 8152, 8174, 8178, 8160, 8182, 8116, 8159, 8134, 8248,0.9603021144866943
122, 8176, 8191, 8183, 8161, 8194, 8143, 8150, 8176, 8153, 8184, 8131, 8172, 8151, 8262,0.9681899547576904
123, 8181, 8169, 8205, 8149, 8192, 8141, 8132, 8160, 8132, 8193, 8120, 8185, 8146, 8269,0.9763309955596924
124, 8190, 8173, 8164, 8158, 8159, 8153, 8152, 8146, 8130, 8201, 8120, 8184, 8163, 8279,0.9873316287994385
125, 8210, 8201, 8203, 8177, 8198, 8152, 8158, 8169, 8136, 8200, 8137, 8196, 8185, 8292,0.9924013614654541
126, 8209, 8164, 8172, 8159, 8146, 8140, 8160, 8162, 8143, 8193, 8134, 8191, 8181, 8299,0.9993171691894531
127, 8196, 8144, 8141, 8133, 8142, 8145, 8179, 8171, 8156, 8186, 8107, 8174, 8156, 8283,1.0072712898254395
236, 8192, 8157, 8170, 8129, 8169, 8141, 8180, 8198, 8166, 8187, 8110, 8182, 8148, 8272,1.0152192115783691
0, 8186, 8144, 8155, 8131, 8155, 8127, 8166, 8198, 8173, 8196, 8119, 8177, 8156, 8277,1.0229997634887695
1, 8179, 8143, 8187, 8128, 8187, 8135, 8167, 8223, 8180, 8200, 8105, 8172, 8146, 8271,1.0310771465301514
2, 8160, 8134, 8173, 8116, 8153, 8143, 8180, 8219, 8182, 8193, 8104, 8170, 8133, 8260,1.0391685962677002
3, 8141, 8126, 8140, 8104, 8143, 8134, 8172, 8195, 8165, 8188, 8103, 8163, 8118, 8250,1.0482687950134277
4, 8139, 8133, 8145, 8123, 8144, 8142, 8175, 8196, 8170, 8194, 8110, 8168, 8130, 8253,1.0550992488861084
5, 8137, 8139, 8141, 8152, 8140, 8167, 8192, 8195, 8204, 8210, 8135, 8166, 8162, 8258,1.0632867813110352
6, 8146, 8167, 8218, 8169, 8213, 8178, 8175, 8215, 8200, 8223, 8148, 8181, 8162, 8244,1.0713346004486084
7, 8162, 8173, 8205, 8179, 8171, 8167, 8162, 8200, 8192, 8224, 8157, 8189, 8173, 8244,1.0783419609069824
8, 8170, 8168, 8149, 8170, 8143, 8160, 8156, 8168, 8202, 8222, 8156, 8178, 8192, 8261,1.0863308906555176
9, 8179, 8175, 8187, 8162, 8185, 8161, 8128, 8165, 8184, 8225, 8150, 8191, 8191, 8272,1.094106912612915
10, 8182, 8176, 8172, 8188, 8150, 8149, 8118, 8148, 8154, 8227, 8162, 8194, 8201, 8284,1.1023051738739014
11, 8198, 8184, 8181, 8203, 8162, 8138, 8139, 8158, 8149, 8219, 8156, 8193, 8200, 8297,1.1102511882781982
12, 8194, 8163, 8186, 8162, 8171, 8148, 8169, 8181, 8159, 8207, 8129, 8183, 8178, 8296,1.1183223724365234
13, 8143, 8132, 8142, 8118, 8151, 8154, 8176, 8175, 8152, 8198, 8114, 8149, 8159, 8254,1.1263244152069092
14, 8122, 8129, 8146, 8111, 8145, 8142, 8163, 8165, 8135, 8188, 8104, 8142, 8134, 8214,1.1342992782592773
15, 8143, 8126, 8158, 8102, 8140, 8128, 8163, 8165, 8138, 8179, 8097, 8149, 8101, 8211,1.1422767639160156
16, 8131, 8113, 8169, 8088, 8162, 8130, 8169, 8185, 8146, 8176, 8100, 8148, 8083, 8205,1.1493291854858398
17, 8096, 8110, 8127, 8093, 8128, 8129, 8171, 8178, 8158, 8187, 8117, 8138, 8100, 8201,1.1570966243743896
18, 8120, 8158, 8155, 8123, 8165, 8131, 8165, 8176, 8160, 8193, 8122, 8141, 8115, 8210,1.1653392314910889
19, 8172, 8180, 8241, 8151, 8211, 8140, 8165, 8196, 8154, 8188, 8119, 8167, 8107, 8217,1.1731467247009277
20, 8153, 8136, 8164, 8153, 8131, 8133, 8175, 8173, 8168, 8203, 8128, 8161, 8116, 8222,1.1810972690582275
21, 8123, 8148, 8157, 8141, 8160, 8137, 8160, 8174, 8170, 8215, 8131, 8156, 8133, 8218,1.1892344951629639
22, 8150, 8175, 8208, 8149, 8186, 8160, 8155, 8179, 8167, 8212, 8140, 8170, 8152, 8218,1.1973319053649902
23, 8166, 8162, 8152, 8171, 8147, 8174, 8167, 8146, 8184, 8217, 8154, 8164, 8165, 8225,1.2050983905792236
24, 8145, 8167, 8163, 8173, 8186, 8175, 8149, 8149, 8187, 8217, 8158, 8168, 8166, 8236,1.2121269702911377
25, 8136, 8173, 8183, 8163, 8185, 8173, 8138, 8156, 8179, 8198, 8172, 8182, 8188, 8262,1.2201294898986816
26, 8167, 8169, 8176, 8169, 8167, 8178, 8154, 8154, 8176, 8186, 8171, 8185, 8194, 8275,1.228119134902954
27, 8180, 8156, 8155, 8167, 8141, 8177, 8166, 8156, 8173, 8196, 8146, 8180, 8163, 8260,1.2362346649169922
28, 8151, 8152, 8138, 8141, 8148, 8162, 8161, 8159, 8162, 8195, 8128, 8159, 8138, 8235,1.2441048622131348
29, 8136, 8156, 8168, 8121, 8174, 8150, 8159, 8173, 8148, 8174, 8119, 8156, 8137, 8224,1.255042552947998
30, 8135, 8135, 8137, 8121, 8129, 8148, 8169, 8159, 8150, 8173, 8113, 8154, 8139, 8221,1.2600607872009277
31, 8138, 8148, 8185, 8133, 8190, 8150, 8159, 8180, 8145, 8182, 8098, 8155, 8117, 8202,1.2680659294128418
32, 8130, 8151, 8213, 8130, 8198, 8147, 8155, 8199, 8140, 8173, 8104, 8167, 8113, 8202,1.2751045227050781
33, 8109, 8119, 8134, 8121, 8138, 8147, 8161, 8168, 8145, 8168, 8127, 8155, 8134, 8220,1.2831096649169922
34, 8134, 8147, 8201, 8142, 8194, 8166, 8149, 8181, 8145, 8181, 8133, 8161, 8127, 8210,1.291325330734253
35, 8162, 8155, 8197, 8170, 8148, 8172, 8150, 8176, 8156, 8189, 8144, 8167, 8129, 8206,1.299185037612915
36, 8135, 8136, 8123, 8161, 8128, 8157, 8145, 8148, 8154, 8183, 8151, 8158, 8137, 8222,1.307115077972412
37, 8119, 8160, 8165, 8154, 8183, 8148, 8122, 8146, 8140, 8189, 8161, 8178, 8152, 8244,1.315277099609375
38, 8147, 8178, 8178, 8173, 8165, 8149, 8120, 8142, 8150, 8206, 8179, 8192, 8188, 8268,1.3233280181884766
39, 8174, 8180, 8184, 8175, 8183, 8158, 8135, 8158, 8161, 8199, 8164, 8191, 8190, 8269,1.3311021327972412
40, 8161, 8178, 8169, 8167, 8175, 8153, 8151, 8167, 8156, 8182, 8134, 8176, 8163, 8255,1.3383407592773438
41, 8142, 8175, 8156, 8154, 8151, 8140, 8155, 8168, 8159, 8177, 8120, 8161, 8152, 8250,1.3461341857910156
42, 8144, 8152, 8152, 8127, 8139, 8150, 8167, 8177, 8172, 8177, 8121, 8163, 8158, 8252,1.3553452491760254
43, 8130, 8143, 8146, 8125, 8166, 8174, 8185, 8179, 8165, 8168, 8112, 8154, 8146, 8237,1.362253189086914
44, 8108, 8165, 8205, 8144, 8218, 8180, 8172, 8187, 8138, 8158, 8094, 8150, 8105, 8200,1.3704211711883545
45, 8101, 8140, 8163, 8134, 8140, 8158, 8155, 8155, 8135, 8157, 8091, 8146, 8087, 8185,1.3781218528747559
46, 8119, 8133, 8127, 8122, 8132, 8146, 8156, 8145, 8138, 8157, 8096, 8142, 8100, 8195,1.3863255977630615
47, 8138, 8158, 8174, 8130, 8173, 8151, 8163, 8168, 8132, 8162, 8112, 8156, 8117, 8204,1.3942885398864746
48, 8136, 8149, 8154, 8131, 8152, 8156, 8168, 8153, 8141, 8173, 8123, 8156, 8118, 8208,1.4022941589355469
49, 8152, 8169, 8233, 8145, 8241, 8165, 8156, 8187, 8139, 8181, 8117, 8172, 8107, 8209,1.4090559482574463
50, 8177, 8188, 8270, 8179, 8226, 8179, 8156, 8211, 8147, 8189, 8151, 8198, 8148, 8237,1.4173271656036377
51, 8185, 8178, 8156, 8211, 8114, 8194, 8182, 8168, 8190, 8208, 8210, 8192, 8220, 8283,1.42521071434021
52, 8195, 8185, 8138, 8227, 8138, 8199, 8183, 8158, 8207, 8223, 8226, 8194, 8255, 8311,1.4330906867980957
53, 8199, 8205, 8187, 8229, 8195, 8194, 8160, 8177, 8193, 8217, 8217, 8204, 8256, 8317,1.4412426948547363
54, 8208, 8222, 8207, 8229, 8201, 8200, 8158, 8189, 8192, 8214, 8212, 8207, 8251, 8320,1.4493308067321777
55, 8208, 8196, 8153, 8219, 8144, 8206, 8192, 8177, 8206, 8216, 8206, 8192, 8250, 8321,1.4570565223693848
56, 8170, 8175, 8161, 8186, 8194, 8203, 8211, 8193, 8203, 8206, 8183, 8167, 8222, 8283,1.4652867317199707
57, 8129, 8173, 8237, 8145, 8255, 8199, 8199, 8216, 8184, 8186, 8152, 8163, 8170, 8226,1.4723379611968994
58, 8109, 8137, 8151, 8127, 8135, 8187, 8191, 8164, 8179, 8175, 8139, 8145, 8143, 8209,1.4803030490875244
59, 8101, 8118, 8090, 8123, 8103, 8179, 8179, 8136, 8170, 8166, 8128, 8126, 8137, 8211,1.488255500793457
60, 8097, 8120, 8124, 8109, 8152, 8180, 8166, 8157, 8154, 8159, 8119, 8130, 8134, 8209,1.496290683746338
61, 8109, 8128, 8137, 8097, 8169, 8178, 8163, 8168, 8154, 8162, 8115, 8133, 8128, 8208,1.5042805671691895
62, 8137, 8152, 8200, 8110, 8199, 8176, 8152, 8188, 8154, 8158, 8113, 8149, 8112, 8198,1.5123045444488525
63, 8135, 8144, 8191, 8131, 8147, 8170, 8159, 8178, 8152, 8149, 8124, 8155, 8111, 8195,1.5201964378356934
64, 8136, 8142, 8147, 8145, 8120, 8170, 8181, 8165, 8154, 8150, 8137, 8148, 8121, 8213,1.5281152725219727
65, 8171, 8170, 8147, 8174, 8133, 8169, 8177, 8164, 8158, 8164, 8146, 8161, 8133, 8237,1.5362753868103027
66, 8193, 8188, 8169, 8197, 8154, 8151, 8145, 8154, 8146, 8159, 8151, 8172, 8142, 8241,1.543278694152832
67, 8197, 8192, 8218, 8196, 8182, 8141, 8127, 8159, 8136, 8151, 8167, 8183, 8151, 8240,1.5512664318084717
68, 8192, 8188, 8177, 8199, 8147, 8152, 8137, 8153, 8171, 8171, 8197, 8179, 8188, 8260,1.5592617988586426
69, 8194, 8213, 8186, 8217, 8190, 8169, 8134, 8168, 8193, 8190, 8210, 8180, 8220, 8262,1.567265272140503
70, 8209, 8227, 8234, 8229, 8202, 8176, 8134, 8180, 8186, 8200, 8216, 8200, 8225, 8257,1.5752944946289062
71, 8209, 8204, 8165, 8219, 8135, 8176, 8145, 8142, 8184, 8199, 8218, 8186, 8220, 8264,1.583104133605957
72, 8202, 8194, 8152, 8202, 8154, 8174, 8136, 8131, 8160, 8175, 8190, 8165, 8192, 8251,1.5910944938659668
73, 8187, 8176, 8158, 8184, 8145, 8164, 8131, 8135, 8138, 8156, 8162, 8154, 8164, 8232,1.599273920059204
74, 8151, 8159, 8162, 8154, 8163, 8155, 8133, 8149, 8153, 8159, 8145, 8149, 8154, 8226,1.6063156127929688
75, 8137, 8148, 8188, 8142, 8178, 8150, 8134, 8168, 8167, 8157, 8136, 8163, 8156, 8223,1.6142632961273193
76, 8149, 8135, 8148, 8151, 8124, 8153, 8154, 8163, 8164, 8153, 8138, 8158, 8159, 8225,1.6223373413085938
77, 8148, 8147, 8148, 8143, 8136, 8170, 8166, 8177, 8166, 8150, 8137, 8146, 8143, 8225,1.6302437782287598
78, 8136, 8142, 8145, 8125, 8135, 8172, 8165, 8175, 8175, 8138, 8141, 8141, 8134, 8220,1.6383090019226074
79, 8144, 8133, 8159, 8127, 8161, 8158, 8165, 8176, 8167, 8138, 8138, 8146, 8131, 8206,1.6462798118591309
80, 8154, 8135, 8199, 8139, 8176, 8154, 8172, 8201, 8162, 8142, 8127, 8161, 8118, 8200,1.6542959213256836
81, 8138, 8134, 8163, 8147, 8127, 8145, 8173, 8181, 8161, 8129, 8118, 8150, 8108, 8207,1.6620900630950928
82, 8165, 8172, 8209, 8167, 8169, 8135, 8158, 8177, 8147, 8133, 8125, 8167, 8125, 8227,1.6693217754364014
83, 8211, 8191, 8213, 8206, 8147, 8142, 8155, 8188, 8162, 8161, 8175, 8205, 8181, 8269,1.677269697189331
84, 8211, 8190, 8158, 8231, 8127, 8154, 8150, 8179, 8185, 8168, 8205, 8198, 8214, 8291,1.6850688457489014
85, 8203, 8200, 8194, 8212, 8178, 8149, 8138, 8177, 8171, 8160, 8184, 8188, 8200, 8283,1.6932954788208008
86, 8195, 8183, 8169, 8187, 8155, 8153, 8159, 8162, 8164, 8167, 8173, 8179, 8191, 8278,1.7013943195343018
87, 8179, 8169, 8165, 8192, 8171, 8173, 8177, 8170, 8164, 8158, 8169, 8166, 8169, 8255,1.7091193199157715
88, 8159, 8146, 8183, 8175, 8169, 8165, 8171, 8169, 8153, 8136, 8155, 8160, 8139, 8218,1.717170238494873
89, 8132, 8119, 8140, 8134, 8134, 8143, 8167, 8145, 8153, 8138, 8135, 8145, 8124, 8201,1.725370168685913
90, 8127, 8123, 8130, 8120, 8142, 8149, 8165, 8149, 8156, 8143, 8116, 8139, 8104, 8197,1.7330951690673828
91, 8138, 8136, 8142, 8125, 8152, 8148, 8157, 8155, 8157, 8133, 8116, 8141, 8090, 8194,1.7402288913726807
92, 8135, 8152, 8195, 8129, 8185, 8139, 8156, 8183, 8168, 8139, 8133, 8154, 8097, 8188,1.748396396636963
93, 8115, 8139, 8157, 8137, 8127, 8153, 8186, 8190, 8197, 8160, 8150, 8155, 8123, 8188,1.7562689781188965
94, 8119, 8146, 8124, 8147, 8138, 8168, 8191, 8175, 8203, 8164, 8149, 8139, 8123, 8184,1.7643027305603027
95, 8148, 8181, 8236, 8160, 8222, 8158, 8155, 8189, 8177, 8155, 8147, 8166, 8114, 8185,1.7722861766815186
96, 8155, 8167, 8200, 8177, 8130, 8147, 8150, 8165, 8184, 8160, 8183, 8189, 8161, 8230,1.7803149223327637
97, 8174, 8173, 8144, 8196, 8118, 8161, 8154, 8150, 8205, 8177, 8209, 8191, 8208, 8278,1.7882781028747559
98, 8206, 8209, 8194, 8227, 8181, 8178, 8145, 8181, 8214, 8184, 8207, 8205, 8218, 8303,1.7963576316833496
99, 8193, 8196, 8176, 8223, 8158, 8165, 8157, 8187, 8215, 8169, 8199, 8196, 8216, 8304,1.8032755851745605
100, 8165, 8167, 8180, 8171, 8162, 8144, 8163, 8184, 8197, 8158, 8178, 8181, 8189, 8268,1.811121940612793
101, 8159, 8153, 8182, 8138, 8145, 8141, 8166, 8178, 8184, 8163, 8152, 8167, 8153, 8238,1.8192965984344482
102, 8151, 8145, 8163, 8145, 8141, 8153, 8183, 8187, 8194, 8157, 8138, 8156, 8128, 8232,1.827385663986206
103, 8118, 8110, 8116, 8132, 8114, 8151, 8198, 8181, 8209, 8141, 8128, 8143, 8116, 8221,1.839327335357666
104, 8098, 8104, 8117, 8102, 8131, 8153, 8185, 8170, 8201, 8134, 8106, 8130, 8101, 8195,1.8432860374450684
105, 8123, 8149, 8237, 8111, 8216, 8173, 8159, 8201, 8178, 8128, 8102, 8157, 8094, 8190,1.8512732982635498
106, 8125, 8130, 8190, 8127, 8149, 8171, 8158, 8177, 8179, 8133, 8140, 8168, 8127, 8215,1.8590819835662842
107, 8108, 8115, 8116, 8131, 8116, 8157, 8156, 8141, 8178, 8141, 8154, 8154, 8154, 8222,1.867379903793335
108, 8121, 8145, 8166, 8142, 8145, 8158, 8144, 8149, 8162, 8134, 8152, 8169, 8158, 8222,1.8742907047271729
109, 8135, 8151, 8154, 8157, 8130, 8154, 8147, 8138, 8170, 8139, 8164, 8176, 8179, 8241,1.8822638988494873
110, 8152, 8172, 8186, 8179, 8188, 8157, 8153, 8150, 8187, 8153, 8167, 8188, 8198, 8260,1.890263557434082
111, 8177, 8186, 8212, 8209, 8180, 8164, 8154, 8156, 8189, 8166, 8177, 8207, 8214, 8288,1.8982782363891602
112, 8204, 8188, 8197, 8223, 8167, 8165, 8147, 8155, 8191, 8171, 8196, 8209, 8234, 8327,1.9063267707824707
113, 8216, 8189, 8209, 8206, 8188, 8168, 8144, 8178, 8211, 8167, 8194, 8209, 8241, 8341,1.9142787456512451
114, 8201, 8176, 8176, 8194, 8155, 8165, 8152, 8183, 8230, 8172, 8179, 8196, 8238, 8326,1.9222829341888428
115, 8185, 8165, 8156, 8200, 8144, 8152, 8148, 8177, 8220, 8178, 8169, 8177, 8225, 8303,1.9292659759521484
116, 8170, 8139, 8120, 8188, 8131, 8146, 8152, 8165, 8216, 8175, 8157, 8154, 8211, 8281,1.948326826095581
117, 8165, 8148, 8177, 8167, 8211, 8161, 8161, 8195, 8219, 8169, 8131, 8156, 8191, 8259,1.9532599449157715
118, 8178, 8169, 8265, 8159, 8236, 8165, 8160, 8226, 8218, 8170, 8123, 8186, 8173, 8264,1.9610776901245117
119, 8163, 8128, 8148, 8156, 8107, 8142, 8170, 8169, 8228, 8164, 8126, 8172, 8177, 8286,1.9692285060882568
120, 8143, 8115, 8088, 8144, 8107, 8136, 8173, 8144, 8230, 8155, 8106, 8146, 8174, 8263,1.9772744178771973
121, 8146, 8148, 8139, 8148, 8151, 8149, 8175, 8171, 8221, 8158, 8105, 8157, 8167, 8228,1.9850075244903564
122, 8144, 8156, 8169, 8161, 8174, 8143, 8171, 8178, 8210, 8160, 8121, 8165, 8163, 8229,1.993196964263916
123, 8153, 8149, 8218, 8163, 8208, 8131, 8152, 8179, 8192, 8155, 8119, 8176, 8166, 8247,2.0013084411621094
124, 8177, 8155, 8198, 8181, 8159, 8136, 8148, 8157, 8182, 8157, 8138, 8181, 8199, 8273,2.0082225799560547
125, 8192, 8181, 8158, 8222, 8136, 8149, 8156, 8140, 8190, 8172, 8176, 8181, 8242, 8297,2.016183376312256
126, 8202, 8189, 8157, 8231, 8164, 8149, 8154, 8141, 8197, 8177, 8187, 8192, 8258, 8318,2.0242860317230225
127, 8201, 8180, 8178, 8201, 8201, 8148, 8141, 8149, 8185, 8162, 8169, 8192, 8235, 8312,2.0323245525360107
236, 8175, 8163, 8184, 8185, 8185, 8149, 8136, 8149, 8168, 8161, 8154, 8182, 8213, 8287,2.040212631225586
0, 8146, 8143, 8135, 8190, 8125, 8136, 8144, 8127, 8169, 8170, 8151, 8165, 8219, 8276,2.0483286380767822
1, 8162, 8167, 8196, 8183, 8192, 8124, 8142, 8151, 8167, 8167, 8135, 8173, 8202, 8259,2.0562949180603027
2, 8176, 8166, 8207, 8168, 8188, 8119, 8148, 8165, 8167, 8160, 8117, 8182, 8169, 8245,2.063124418258667
3, 8140, 8137, 8114, 8163, 8125, 8120, 8158, 8141, 8170, 8148, 8099, 8147, 8158, 8238,2.0712554454803467
4, 8129, 8141, 8167, 8161, 8170, 8124, 8143, 8158, 8151, 8133, 8086, 8144, 8150, 8225,2.0793228149414062
5, 8149, 8135, 8171, 8155, 8145, 8115, 8140, 8151, 8143, 8133, 8102, 8161, 8150, 8231,2.0872294902801514
6, 8153, 8142, 8147, 8155, 8156, 8120, 8140, 8154, 8152, 8132, 8116, 8159, 8144, 8237,2.0953221321105957
7, 8146, 8156, 8209, 8162, 8198, 8142, 8135, 8191, 8158, 8132, 8126, 8171, 8148, 8230,2.103132486343384
8, 8137, 8141, 8178, 8157, 8140, 8141, 8151, 8176, 8177, 8149, 8140, 8173, 8172, 8226,2.1110546588897705
9, 8135, 8124, 8122, 8140, 8109, 8118, 8159, 8155, 8187, 8155, 8129, 8154, 8170, 8225,2.119356632232666
10, 8141, 8121, 8120, 8142, 8125, 8114, 8154, 8163, 8190, 8148, 8126, 8147, 8163, 8240,2.1273508071899414
11, 8162, 8159, 8191, 8160, 8193, 8134, 8154, 8186, 8189, 8151, 8147, 8175, 8175, 8256,2.1343681812286377
12, 8169, 8164, 8174, 8167, 8157, 8130, 8170, 8168, 8187, 8160, 8159, 8179, 8186, 8251,2.1424005031585693
13, 8151, 8143, 8128, 8165, 8141, 8120, 8175, 8153, 8183, 8158, 8137, 8150, 8175, 8239,2.150273084640503
14, 8166, 8170, 8275, 8156, 8258, 8132, 8158, 8218, 8172, 8156, 8127, 8185, 8165, 8248,2.1583220958709717
15, 8176, 8148, 8245, 8138, 8159, 8126, 8173, 8213, 8188, 8161, 8155, 8202, 8190, 8272,2.166238307952881
16, 8144, 8095, 8072, 8130, 8049, 8108, 8203, 8154, 8210, 8159, 8153, 8151, 8194, 8262,2.1743226051330566
17, 8122, 8103, 8088, 8130, 8127, 8116, 8207, 8171, 8207, 8158, 8118, 8141, 8167, 8233,2.1822781562805176
18, 8120, 8130, 8143, 8121, 8178, 8127, 8209, 8199, 8210, 8162, 8117, 8159, 8165, 8236,2.190303087234497
19, 8134, 8155, 8209, 8131, 8214, 8132, 8204, 8207, 8213, 8160, 8126, 8177, 8163, 8237,2.1972663402557373
20, 8151, 8164, 8227, 8160, 8177, 8138, 8185, 8187, 8214, 8156, 8141, 8196, 8165, 8239,2.20528244972229
21, 8150, 8156, 8151, 8171, 8109, 8140, 8163, 8163, 8223, 8162, 8157, 8191, 8195, 8264,2.2130842208862305
22, 8140, 8149, 8113, 8159, 8115, 8137, 8161, 8164, 8227, 8161, 8147, 8173, 8209, 8284,2.2213664054870605
23, 8146, 8153, 8145, 8158, 8162, 8137, 8166, 8177, 8226, 8165, 8137, 8165, 8198, 8273,2.2292680740356445
24, 8184, 8178, 8208, 8179, 8190, 8142, 8151, 8188, 8221, 8175, 8152, 8179, 8197, 8264,2.2370715141296387
25, 8205, 8182, 8174, 8200, 8134, 8146, 8148, 8159, 8209, 8177, 8168, 8180, 8217, 8287,2.2452845573425293
26, 8194, 8183, 8161, 8194, 8166, 8146, 8160, 8150, 8186, 8174, 8161, 8171, 8217, 8299,2.2533929347991943
27, 8186, 8188, 8218, 8173, 8210, 8134, 8154, 8174, 8176, 8166, 8156, 8194, 8208, 8299,2.2602922916412354
28, 8182, 8173, 8155, 8179, 8132, 8124, 8149, 8150, 8191, 8174, 8169, 8198, 8228, 8313,2.2681400775909424
29, 8188, 8177, 8163, 8188, 8178, 8138, 8158, 8158, 8195, 8186, 8168, 8182, 8235, 8309,2.276273727416992
30, 8189, 8169, 8206, 8171, 8199, 8153, 8178, 8191, 8205, 8183, 8164, 8189, 8230, 8299,2.2840986251831055
31, 8180, 8150, 8156, 8157, 8144, 8153, 8190, 8188, 8229, 8180, 8162, 8193, 8230, 8302,2.292172431945801
32, 8188, 8166, 8169, 8166, 8166, 8155, 8182, 8198, 8227, 8178, 8160, 8192, 8222, 8297,2.3001861572265625
33, 8192, 8167, 8170, 8167, 8161, 8154, 8183, 8189, 8220, 8177, 8164, 8182, 8216, 8283,2.30806040763855
34, 8180, 8169, 8167, 8159, 8167, 8146, 8180, 8175, 8219, 8170, 8169, 8182, 8207, 8276,2.316068649291992
35, 8169, 8158, 8151, 8160, 8149, 8143, 8171, 8167, 8212, 8169, 8184, 8190, 8203, 8280,2.324117422103882
36, 8167, 8141, 8132, 8148, 8145, 8140, 8164, 8158, 8199, 8161, 8174, 8172, 8190, 8271,2.3310532569885254
37, 8188, 8164, 8196, 8146, 8186, 8137, 8156, 8178, 8197, 8158, 8154, 8171, 8171, 8273,2.3390204906463623
38, 8206, 8183, 8188, 8175, 8152, 8137, 8165, 8187, 8223, 8180, 8189, 8187, 8211, 8312,2.347322463989258
39, 8215, 8197, 8199, 8197, 8181, 8138, 8168, 8200, 8226, 8191, 8208, 8192, 8243, 8325,2.355262279510498
40, 8220, 8201, 8214, 8201, 8179, 8141, 8164, 8190, 8207, 8174, 8179, 8188, 8219, 8304,2.3630993366241455
41, 8204, 8191, 8140, 8187, 8129, 8144, 8162, 8150, 8202, 8166, 8168, 8170, 8206, 8299,2.3712494373321533
42, 8192, 8198, 8168, 8168, 8184, 8155, 8160, 8165, 8194, 8180, 8177, 8186, 8217, 8314,2.379382848739624
43, 8190, 8180, 8178, 8170, 8161, 8159, 8173, 8165, 8194, 8183, 8187, 8194, 8227, 8321,2.387265920639038
44, 8179, 8165, 8151, 8174, 8136, 8154, 8172, 8145, 8183, 8162, 8174, 8166, 8203, 8277,2.3942763805389404
45, 8163, 8163, 8164, 8157, 8157, 8140, 8152, 8144, 8149, 8142, 8145, 8158, 8157, 8222,2.402256488800049
46, 8147, 8154, 8147, 8152, 8145, 8140, 8153, 8142, 8149, 8144, 8145, 8161, 8153, 8235,2.410309076309204
47, 8150, 8154, 8160, 8158, 8155, 8161, 8165, 8161, 8177, 8159, 8173, 8171, 8184, 8267,2.4192605018615723
48, 8153, 8146, 8148, 8150, 8135, 8151, 8150, 8159, 8172, 8155, 8171, 8163, 8186, 8255,2.4262609481811523
49, 8149, 8165, 8184, 8145, 8175, 8131, 8120, 8163, 8133, 8140, 8132, 8151, 8144, 8229,2.4343655109405518
50, 8153, 8179, 8205, 8153, 8164, 8137, 8140, 8170, 8132, 8146, 8132, 8159, 8133, 8233,2.4423272609710693
51, 8157, 8166, 8140, 8154, 8109, 8143, 8177, 8156, 8162, 8158, 8155, 8157, 8151, 8243,2.450272560119629
52, 8171, 8177, 8196, 8145, 8174, 8144, 8168, 8184, 8168, 8154, 8142, 8169, 8144, 8237,2.457310199737549
53, 8175, 8161, 8193, 8138, 8151, 8151, 8172, 8187, 8166, 8157, 8148, 8180, 8157, 8253,2.4653313159942627
54, 8178, 8151, 8119, 8165, 8105, 8160, 8201, 8161, 8185, 8174, 8194, 8171, 8210, 8291,2.473383903503418
55, 8205, 8181, 8165, 8200, 8155, 8174, 8204, 8171, 8205, 8184, 8212, 8185, 8245, 8314,2.481353521347046
56, 8207, 8189, 8192, 8189, 8178, 8184, 8197, 8168, 8203, 8187, 8194, 8191, 8240, 8309,2.489213466644287
57, 8188, 8170, 8183, 8164, 8182, 8175, 8191, 8161, 8176, 8180, 8172, 8171, 8211, 8277,2.4972825050354004
58, 8182, 8153, 8159, 8160, 8146, 8167, 8186, 8162, 8175, 8170, 8166, 8163, 8197, 8260,2.505305290222168
59, 8184, 8164, 8158, 8166, 8150, 8173, 8185, 8167, 8196, 8170, 8165, 8170, 8196, 8263,2.513414144515991
60, 8171, 8162, 8164, 8161, 8157, 8167, 8179, 8163, 8186, 8167, 8158, 8167, 8186, 8255,2.5203781127929688
61, 8130, 8124, 8117, 8134, 8129, 8151, 8179, 8144, 8164, 8143, 8131, 8138, 8160, 8223,2.528108835220337
62, 8119, 8128, 8180, 8119, 8194, 8146, 8172, 8169, 8148, 8118, 8103, 8142, 8122, 8197,2.5363190174102783
63, 8147, 8138, 8208, 8127, 8164, 8144, 8174, 8177, 8144, 8127, 8117, 8159, 8124, 8213,2.544105052947998
64, 8159, 8134, 8160, 8129, 8125, 8144, 8186, 8159, 8145, 8145, 8131, 8150, 8132, 8225,2.5522868633270264
65, 8154, 8149, 8196, 8135, 8175, 8155, 8178, 8176, 8142, 8144, 8116, 8159, 8113, 8212,2.5603127479553223
66, 8150, 8144, 8155, 8158, 8129, 8153, 8172, 8166, 8160, 8145, 8117, 8155, 8132, 8222,2.568260908126831
67, 8164, 8159, 8149, 8167, 8146, 8150, 8170, 8169, 8179, 8156, 8129, 8148, 8161, 8233,2.5762932300567627
68, 8185, 8171, 8197, 8156, 8174, 8151, 8170, 8188, 8184, 8164, 8145, 8172, 8164, 8241,2.5843138694763184
69, 8201, 8158, 8170, 8163, 8138, 8146, 8166, 8176, 8188, 8167, 8157, 8187, 8175, 8276,2.5910632610321045
70, 8230, 8171, 8165, 8186, 8140, 8151, 8160, 8168, 8197, 8173, 8165, 8199, 8206, 8323,2.5992722511291504
71, 8247, 8179, 8162, 8194, 8140, 8151, 8164, 8159, 8211, 8183, 8184, 8203, 8238, 8350,2.6072640419006348
72, 8238, 8179, 8196, 8191, 8175, 8139, 8150, 8166, 8196, 8184, 8188, 8200, 8236, 8336,2.6151256561279297
73, 8210, 8164, 8190, 8192, 8144, 8137, 8146, 8152, 8171, 8178, 8176, 8190, 8224, 8308,2.6232564449310303
74, 8179, 8151, 8157, 8181, 8135, 8133, 8147, 8133, 8154, 8160, 8156, 8164, 8205, 8278,2.6313388347625732
75, 8169, 8160, 8202, 8150, 8194, 8118, 8123, 8155, 8131, 8152, 8127, 8163, 8167, 8243,2.6391472816467285
76, 8158, 8145, 8156, 8131, 8121, 8105, 8114, 8141, 8131, 8164, 8120, 8158, 8154, 8228,2.64730167388916
77, 8160, 8140, 8144, 8133, 8115, 8111, 8126, 8140, 8139, 8156, 8118, 8153, 8152, 8229,2.6542372703552246
78, 8172, 8135, 8175, 8132, 8144, 8113, 8140, 8167, 8141, 8134, 8113, 8165, 8142, 8238,2.6623198986053467
79, 8146, 8124, 8125, 8123, 8123, 8111, 8148, 8168, 8153, 8143, 8110, 8147, 8145, 8238,2.6702053546905518
80, 8128, 8145, 8187, 8124, 8190, 8122, 8142, 8194, 8153, 8151, 8103, 8141, 8138, 8214,2.6783173084259033
81, 8136, 8140, 8207, 8138, 8159, 8129, 8152, 8188, 8142, 8135, 8111, 8160, 8119, 8202,2.686307668685913
82, 8153, 8130, 8126, 8157, 8080, 8133, 8179, 8155, 8152, 8134, 8143, 8165, 8128, 8233,2.694272041320801
83, 8188, 8146, 8136, 8165, 8103, 8142, 8187, 8163, 8173, 8162, 8183, 8177, 8180, 8288,2.702383279800415
84, 8211, 8154, 8196, 8161, 8172, 8151, 8171, 8183, 8177, 8172, 8202, 8197, 8221, 8324,2.710310697555542
85, 8212, 8159, 8216, 8172, 8183, 8144, 8161, 8193, 8168, 8160, 8205, 8214, 8224, 8333,2.7182884216308594
86, 8200, 8163, 8132, 8193, 8095, 8131, 8176, 8168, 8181, 8167, 8220, 8190, 8242, 8341,2.725349187850952
87, 8189, 8197, 8189, 8186, 8187, 8137, 8157, 8179, 8174, 8177, 8197, 8168, 8234, 8313,2.734257698059082
88, 8177, 8197, 8287, 8165, 8242, 8138, 8130, 8206, 8141, 8169, 8151, 8185, 8185, 8255,2.7410881519317627
89, 8150, 8136, 8133, 8153, 8075, 8120, 8160, 8151, 8143, 8165, 8150, 8163, 8175, 8236,2.749300479888916
90, 8136, 8123, 8057, 8138, 8062, 8122, 8185, 8131, 8154, 8159, 8152, 8129, 8184, 8238,2.757310628890991
91, 8129, 8126, 8130, 8124, 8136, 8140, 8176, 8161, 8147, 8147, 8135, 8129, 8161, 8213,2.7651584148406982
92, 8116, 8110, 8156, 8124, 8141, 8144, 8171, 8168, 8146, 8142, 8127, 8136, 8125, 8186,2.773298740386963
93, 8104, 8117, 8179, 8116, 8156, 8146, 8174, 8177, 8146, 8136, 8123, 8150, 8104, 8183,2.7812626361846924
94, 8095, 8116, 8167, 8096, 8141, 8147, 8181, 8177, 8152, 8136, 8125, 8143, 8102, 8190,2.7883241176605225
95, 8103, 8097, 8144, 8092, 8114, 8150, 8189, 8168, 8165, 8144, 8136, 8136, 8107, 8201,2.796246290206909
96, 8128, 8097, 8131, 8113, 8099, 8156, 8190, 8150, 8176, 8154, 8156, 8155, 8130, 8238,2.804280996322632
97, 8158, 8140, 8179, 8143, 8158, 8151, 8165, 8157, 8162, 8155, 8168, 8179, 8156, 8275,2.812255620956421
98, 8190, 8174, 8224, 8170, 8164, 8145, 8143, 8175, 8151, 8157, 8185, 8200, 8177, 8299,2.820277214050293
99, 8195, 8167, 8170, 8188, 8104, 8146, 8148, 8154, 8171, 8175, 8206, 8198, 8213, 8328,2.8283073902130127
100, 8198, 8186, 8222, 8202, 8189, 8158, 8131, 8165, 8170, 8186, 8207, 8207, 8232, 8344,2.8363072872161865
101, 8203, 8189, 8243, 8210, 8190, 8156, 8113, 8170, 8152, 8179, 8201, 8220, 8233, 8346,2.84405779838562
102, 8186, 8163, 8134, 8197, 8107, 8135, 8120, 8145, 8152, 8165, 8191, 8190, 8221, 8328,2.8521523475646973
103, 8164, 8150, 8133, 8173, 8133, 8123, 8123, 8157, 8142, 8155, 8159, 8157, 8180, 8283,2.8592560291290283
104, 8143, 8124, 8141, 8158, 8125, 8118, 8128, 8154, 8129, 8152, 8135, 8146, 8148, 8251,2.8671340942382812
105, 8135, 8123, 8167, 8147, 8149, 8115, 8133, 8164, 8123, 8150, 8127, 8156, 8127, 8239,2.8752601146698
106, 8134, 8118, 8198, 8127, 8160, 8110, 8134, 8178, 8114, 8140, 8120, 8159, 8107, 8225,2.8833115100860596
107, 8117, 8093, 8140, 8114, 8113, 8107, 8132, 8146, 8101, 8128, 8107, 8128, 8089, 8200,2.8910813331604004
108, 8108, 8102, 8120, 8128, 8105, 8105, 8127, 8133, 8095, 8128, 8103, 8126, 8074, 8190,2.8992748260498047
109, 8118, 8117, 8133, 8139, 8107, 8112, 8135, 8148, 8114, 8133, 8127, 8149, 8090, 8212,2.907278299331665
110, 8144, 8133, 8186, 8142, 8164, 8134, 8148, 8171, 8126, 8141, 8141, 8165, 8117, 8232,2.9153153896331787
111, 8169, 8142, 8195, 8163, 8152, 8145, 8155, 8169, 8126, 8156, 8151, 8178, 8144, 8256,2.9222776889801025
112, 8178, 8154, 8162, 8190, 8134, 8153, 8166, 8166, 8142, 8169, 8185, 8191, 8179, 8295,2.930288791656494
113, 8186, 8173, 8231, 8201, 8207, 8179, 8178, 8204, 8166, 8182, 8206, 8211, 8209, 8314,2.9383041858673096
114, 8175, 8146, 8194, 8195, 8154, 8182, 8185, 8187, 8180, 8192, 8205, 8203, 8231, 8317,2.9462623596191406
115, 8159, 8144, 8137, 8188, 8129, 8158, 8162, 8156, 8168, 8189, 8200, 8185, 8233, 8309,2.9542813301086426
116, 8166, 8165, 8171, 8189, 8161, 8161, 8153, 8172, 8165, 8187, 8206, 8188, 8233, 8295,2.962325096130371
117, 8173, 8163, 8167, 8195, 8155, 8180, 8176, 8184, 8180, 8190, 8196, 8176, 8228, 8293,2.970211982727051
118, 8173, 8173, 8221, 8181, 8210, 8181, 8173, 8204, 8166, 8175, 8150, 8179, 8185, 8276,2.9783051013946533
119, 8150, 8147, 8195, 8155, 8161, 8170, 8173, 8188, 8154, 8158, 8127, 8175, 8159, 8248,2.9863088130950928
120, 8109, 8101, 8091, 8136, 8094, 8159, 8190, 8144, 8158, 8151, 8120, 8137, 8144, 8223,2.993222236633301
121, 8083, 8090, 8096, 8109, 8123, 8151, 8183, 8136, 8136, 8140, 8099, 8122, 8103, 8198,3.0013060569763184
122, 8077, 8097, 8151, 8086, 8160, 8145, 8164, 8154, 8108, 8124, 8075, 8122, 8076, 8172,3.0093231201171875
123, 8086, 8102, 8205, 8095, 8172, 8141, 8156, 8177, 8107, 8122, 8074, 8134, 8083, 8169,3.0171239376068115
124, 8093, 8093, 8140, 8113, 8089, 8135, 8171, 8150, 8131, 8135, 8105, 8142, 8109, 8201,3.0254061222076416
125, 8114, 8129, 8166, 8126, 8150, 8154, 8176, 8162, 8142, 8137, 8136, 8156, 8128, 8231,3.033273696899414
126, 8154, 8164, 8290, 8149, 8239, 8181, 8172, 8220, 8149, 8144, 8170, 8192, 8155, 8260,3.0413973331451416
127, 8147, 8115, 8172, 8164, 8107, 8178, 8189, 8184, 8178, 8166, 8205, 8185, 8195, 8289,3.049280881881714
236, 8121, 8093, 8066, 8160, 8062, 8168, 8193, 8148, 8183, 8171, 8205, 8163, 8201, 8293,3.056311845779419
0, 8142, 8132, 8134, 8152, 8140, 8163, 8167, 8165, 8164, 8166, 8192, 8174, 8201, 8301,3.0642571449279785
1, 8177, 8160, 8201, 8160, 8192, 8161, 8146, 8176, 8160, 8175, 8176, 8182, 8211, 8310,3.072272539138794
2, 8183, 8156, 8228, 8164, 8195, 8168, 8149, 8185, 8161, 8182, 8159, 8184, 8193, 8285,3.080286741256714
3, 8161, 8129, 8179, 8138, 8146, 8170, 8151, 8175, 8159, 8170, 8159, 8177, 8169, 8262,3.088312864303589
4, 8143, 8119, 8140, 8121, 8128, 8166, 8148, 8170, 8159, 8156, 8150, 8159, 8159, 8260,3.0962142944335938
5, 8123, 8107, 8100, 8127, 8098, 8171, 8175, 8163, 8164, 8159, 8130, 8136, 8148, 8254,3.104137659072876
6, 8102, 8106, 8134, 8122, 8155, 8178, 8182, 8174, 8148, 8163, 8112, 8126, 8114, 8217,3.1123831272125244
7, 8102, 8113, 8230, 8109, 8208, 8178, 8155, 8199, 8124, 8149, 8112, 8149, 8091, 8184,3.1200549602508545
8, 8106, 8100, 8169, 8115, 8110, 8179, 8168, 8173, 8140, 8142, 8134, 8152, 8116, 8195,3.1272828578948975
9, 8115, 8115, 8144, 8137, 8127, 8197, 8198, 8168, 8166, 8156, 8159, 8150, 8145, 8214,3.1353821754455566
10, 8124, 8118, 8180, 8150, 8168, 8208, 8199, 8181, 8175, 8167, 8180, 8175, 8160, 8225,3.1431479454040527
11, 8124, 8109, 8151, 8156, 8130, 8200, 8190, 8163, 8182, 8161, 8185, 8173, 8176, 8235,3.1513800621032715
12, 8152, 8156, 8197, 8177, 8172, 8205, 8176, 8170, 8178, 8160, 8178, 8174, 8179, 8238,3.159355640411377
13, 8173, 8178, 8206, 8196, 8177, 8201, 8152, 8162, 8165, 8167, 8179, 8176, 8174, 8243,3.1674633026123047
14, 8169, 8166, 8175, 8199, 8165, 8178, 8129, 8153, 8158, 8168, 8182, 8172, 8173, 8251,3.175243616104126
15, 8180, 8169, 8192, 8206, 8165, 8171, 8132, 8166, 8161, 8167, 8190, 8185, 8184, 8257,3.182307720184326
16, 8187, 8170, 8188, 8203, 8159, 8180, 8146, 8161, 8153, 8164, 8184, 8181, 8181, 8256,3.190241575241089
17, 8176, 8157, 8157, 8178, 8143, 8179, 8139, 8143, 8131, 8151, 8162, 8165, 8158, 8251,3.198270797729492
18, 8162, 8146, 8105, 8165, 8104, 8171, 8142, 8122, 8136, 8147, 8162, 8151, 8157, 8252,3.206260919570923
19, 8149, 8164, 8173, 8160, 8186, 8179, 8151, 8158, 8131, 8150, 8160, 8156, 8146, 8230,3.2142693996429443
20, 8118, 8137, 8221, 8134, 8190, 8178, 8150, 8187, 8112, 8136, 8152, 8163, 8128, 8205,3.2222115993499756
21, 8093, 8092, 8123, 8116, 8090, 8162, 8154, 8154, 8124, 8133, 8170, 8143, 8143, 8215,3.230225086212158
22, 8112, 8124, 8137, 8127, 8125, 8170, 8163, 8159, 8142, 8145, 8185, 8147, 8156, 8231,3.238283157348633
23, 8129, 8146, 8164, 8151, 8130, 8192, 8182, 8173, 8160, 8151, 8192, 8157, 8168, 8237,3.246077060699463
24, 8133, 8147, 8161, 8166, 8139, 8204, 8191, 8173, 8174, 8148, 8196, 8156, 8182, 8245,3.253256320953369
25, 8146, 8161, 8210, 8157, 8184, 8197, 8177, 8186, 8163, 8156, 8185, 8170, 8170, 8246,3.261291742324829
26, 8146, 8157, 8182, 8150, 8142, 8184, 8179, 8178, 8168, 8166, 8176, 8169, 8161, 8243,3.2691187858581543
27, 8148, 8157, 8150, 8170, 8120, 8184, 8192, 8174, 8191, 8164, 8181, 8168, 8178, 8254,3.277308702468872
28, 8168, 8169, 8158, 8187, 8126, 8179, 8177, 8161, 8191, 8166, 8192, 8180, 8197, 8283,3.285226345062256
29, 8183, 8187, 8195, 8186, 8166, 8167, 8133, 8153, 8159, 8165, 8192, 8190, 8193, 8295,3.293321132659912
30, 8191, 8180, 8184, 8191, 8151, 8163, 8120, 8150, 8149, 8162, 8202, 8198, 8209, 8308,3.301257610321045
31, 8206, 8179, 8155, 8197, 8150, 8159, 8130, 8152, 8168, 8173, 8205, 8195, 8235, 8335,3.3092851638793945
32, 8234, 8222, 8287, 8194, 8256, 8150, 8108, 8207, 8155, 8177, 8173, 8205, 8205, 8328,3.3162426948547363
33, 8216, 8200, 8233, 8183, 8156, 8145, 8121, 8202, 8150, 8168, 8158, 8189, 8189, 8307,3.3242673873901367
34, 8168, 8154, 8096, 8167, 8087, 8153, 8161, 8167, 8168, 8165, 8153, 8151, 8197, 8290,3.333242654800415
35, 8161, 8157, 8187, 8156, 8186, 8157, 8158, 8197, 8163, 8156, 8132, 8162, 8171, 8270,3.340226173400879
36, 8150, 8136, 8168, 8152, 8135, 8160, 8158, 8183, 8165, 8146, 8131, 8156, 8160, 8256,3.348090648651123
37, 8116, 8128, 8123, 8142, 8133, 8169, 8166, 8168, 8172, 8149, 8134, 8134, 8167, 8228,3.356048583984375
38, 8106, 8142, 8192, 8126, 8185, 8161, 8158, 8177, 8162, 8149, 8127, 8156, 8152, 8202,3.364020347595215
39, 8126, 8132, 8175, 8132, 8135, 8153, 8157, 8146, 8152, 8145, 8140, 8176, 8144, 8224,3.3721556663513184
40, 8175, 8140, 8132, 8169, 8108, 8169, 8168, 8133, 8163, 8155, 8175, 8184, 8186, 8274,3.379030704498291
41, 8208, 8170, 8169, 8192, 8152, 8177, 8163, 8153, 8177, 8175, 8203, 8190, 8230, 8287,3.387002944946289
42, 8201, 8194, 8217, 8196, 8188, 8173, 8144, 8155, 8164, 8177, 8197, 8195, 8222, 8273,3.395059108734131
43, 8194, 8194, 8165, 8196, 8133, 8180, 8148, 8130, 8150, 8170, 8179, 8193, 8202, 8294,3.4030990600585938
44, 8176, 8190, 8138, 8173, 8138, 8176, 8154, 8145, 8151, 8163, 8163, 8172, 8192, 8296,3.411233425140381
45, 8128, 8170, 8194, 8140, 8186, 8163, 8154, 8192, 8152, 8159, 8155, 8164, 8184, 8255,3.419320821762085
46, 8094, 8125, 8135, 8126, 8122, 8167, 8178, 8183, 8161, 8165, 8172, 8164, 8199, 8258,3.4273147583007812
47, 8119, 8130, 8133, 8119, 8137, 8170, 8191, 8183, 8159, 8159, 8166, 8168, 8193, 8287,3.4353857040405273
48, 8143, 8146, 8195, 8116, 8157, 8157, 8178, 8198, 8152, 8143, 8138, 8172, 8168, 8284,3.4432308673858643
49, 8120, 8134, 8142, 8126, 8105, 8151, 8169, 8172, 8163, 8140, 8127, 8154, 8172, 8266,3.4502100944519043
50, 8117, 8142, 8149, 8128, 8140, 8161, 8161, 8171, 8162, 8155, 8129, 8156, 8167, 8256,3.459321975708008
51, 8140, 8135, 8169, 8129, 8144, 8161, 8159, 8167, 8163, 8165, 8148, 8165, 8168, 8266,3.466381788253784
52, 8160, 8145, 8176, 8159, 8143, 8176, 8162, 8162, 8181, 8159, 8173, 8172, 8197, 8278,3.474076986312866
53, 8179, 8170, 8179, 8187, 8134, 8187, 8157, 8160, 8187, 8159, 8186, 8186, 8215, 8276,3.483273983001709
54, 8192, 8178, 8162, 8188, 8140, 8165, 8141, 8139, 8168, 8163, 8172, 8180, 8195, 8271,3.4900643825531006
55, 8207, 8189, 8203, 8194, 8178, 8153, 8130, 8140, 8148, 8152, 8148, 8182, 8172, 8279,3.498063802719116
56, 8191, 8176, 8167, 8187, 8124, 8150, 8133, 8128, 8144, 8137, 8137, 8164, 8171, 8275,3.5062167644500732
57, 8163, 8167, 8179, 8152, 8165, 8148, 8126, 8151, 8130, 8138, 8127, 8146, 8159, 8245,3.5143063068389893
58, 8152, 8159, 8221, 8144, 8191, 8160, 8140, 8195, 8138, 8157, 8131, 8167, 8160, 8250,3.5211069583892822
59, 8133, 8133, 8140, 8163, 8110, 8165, 8184, 8189, 8170, 8166, 8141, 8160, 8187, 8274,3.529306650161743
60, 8132, 8140, 8151, 8155, 8149, 8163, 8192, 8201, 8175, 8161, 8138, 8149, 8191, 8258,3.5372323989868164
61, 8144, 8147, 8168, 8140, 8151, 8168, 8186, 8200, 8173, 8159, 8143, 8160, 8183, 8245,3.545292377471924
62, 8147, 8158, 8156, 8158, 8140, 8183, 8187, 8176, 8172, 8161, 8142, 8156, 8170, 8250,3.5530896186828613
63, 8152, 8175, 8195, 8171, 8180, 8187, 8176, 8173, 8160, 8157, 8122, 8157, 8144, 8236,3.5613627433776855
64, 8153, 8154, 8164, 8154, 8144, 8188, 8169, 8160, 8171, 8160, 8137, 8168, 8155, 8243,3.569243907928467
65, 8163, 8144, 8152, 8156, 8137, 8191, 8162, 8152, 8190, 8173, 8185, 8178, 8198, 8283,3.5772831439971924
66, 8179, 8166, 8168, 8186, 8155, 8183, 8147, 8143, 8187, 8179, 8202, 8169, 8215, 8294,3.5852489471435547
67, 8178, 8183, 8176, 8191, 8175, 8183, 8141, 8154, 8184, 8167, 8179, 8159, 8191, 8267,3.5923073291778564
68, 8166, 8159, 8175, 8169, 8159, 8190, 8151, 8171, 8187, 8160, 8172, 8174, 8182, 8263,3.600118637084961
69, 8163, 8136, 8154, 8145, 8143, 8171, 8157, 8160, 8177, 8165, 8173, 8171, 8193, 8285,3.6081125736236572
70, 8169, 8165, 8212, 8135, 8209, 8157, 8146, 8190, 8160, 8160, 8150, 8163, 8182, 8277,3.616100788116455
71, 8155, 8161, 8190, 8146, 8151, 8170, 8161, 8205, 8183, 8165, 8165, 8169, 8193, 8269,3.625309705734253
72, 8134, 8141, 8119, 8152, 8102, 8176, 8184, 8189, 8207, 8179, 8193, 8166, 8210, 8272,3.632167100906372
73, 8147, 8155, 8162, 8149, 8161, 8180, 8186, 8202, 8192, 8168, 8179, 8169, 8192, 8271,3.64029860496521
74, 8154, 8151, 8152, 8154, 8153, 8191, 8198, 8194, 8196, 8159, 8172, 8160, 8197, 8273,3.648073673248291
75, 8150, 8159, 8185, 8151, 8197, 8190, 8186, 8192, 8194, 8159, 8170, 8161, 8198, 8255,3.6551713943481445
76, 8166, 8165, 8237, 8145, 8197, 8175, 8160, 8195, 8161, 8150, 8158, 8182, 8165, 8244,3.6632392406463623
77, 8185, 8145, 8159, 8157, 8107, 8166, 8174, 8167, 8153, 8145, 8155, 8172, 8149, 8264,3.671337127685547
78, 8173, 8146, 8112, 8152, 8108, 8173, 8202, 8161, 8174, 8145, 8156, 8150, 8155, 8269,3.6790809631347656
79, 8135, 8150, 8131, 8125, 8144, 8181, 8202, 8165, 8189, 8149, 8146, 8139, 8155, 8229,3.6872878074645996
80, 8139, 8149, 8182, 8131, 8173, 8184, 8185, 8169, 8181, 8150, 8133, 8148, 8142, 8193,3.6952478885650635
81, 8152, 8134, 8147, 8141, 8120, 8175, 8184, 8150, 8167, 8142, 8132, 8148, 8129, 8200,3.7022814750671387
82, 8127, 8130, 8124, 8121, 8136, 8171, 8176, 8150, 8155, 8134, 8126, 8128, 8115, 8207,3.711254835128784
83, 8123, 8154, 8236, 8120, 8226, 8180, 8160, 8204, 8157, 8142, 8133, 8159, 8121, 8212,3.718283176422119
84, 8146, 8141, 8195, 8141, 8137, 8174, 8179, 8195, 8189, 8155, 8169, 8184, 8167, 8247,3.7260303497314453
85, 8160, 8138, 8119, 8145, 8106, 8168, 8190, 8167, 8199, 8157, 8184, 8166, 8190, 8268,3.7343013286590576
86, 8165, 8159, 8172, 8143, 8167, 8179, 8181, 8186, 8183, 8163, 8176, 8169, 8183, 8269,3.74210262298584
87, 8165, 8165, 8181, 8150, 8155, 8192, 8185, 8186, 8187, 8168, 8176, 8178, 8184, 8274,3.750093698501587
88, 8182, 8176, 8205, 8164, 8177, 8199, 8185, 8182, 8190, 8156, 8176, 8185, 8177, 8260,3.75730299949646
89, 8203, 8178, 8217, 8181, 8171, 8196, 8184, 8173, 8183, 8151, 8179, 8186, 8175, 8260,3.765305280685425
90, 8192, 8174, 8175, 8169, 8139, 8188, 8186, 8160, 8175, 8157, 8165, 8170, 8174, 8277,3.773097515106201
91, 8162, 8151, 8127, 8136, 8107, 8193, 8188, 8145, 8169, 8155, 8141, 8151, 8161, 8263,3.781256914138794
92, 8162, 8149, 8140, 8145, 8145, 8210, 8190, 8146, 8169, 8146, 8142, 8150, 8161, 8246,3.7891154289245605
93, 8184, 8179, 8226, 8174, 8219, 8209, 8186, 8185, 8165, 8153, 8151, 8182, 8170, 8263,3.7973639965057373
94, 8160, 8150, 8164, 8159, 8135, 8184, 8193, 8174, 8172, 8165, 8151, 8175, 8175, 8281,3.80525279045105
95, 8137, 8140, 8125, 8145, 8121, 8183, 8191, 8157, 8174, 8160, 8144, 8140, 8163, 8257,3.813291311264038
96, 8171, 8173, 8210, 8168, 8176, 8191, 8176, 8176, 8163, 8153, 8150, 8153, 8156, 8237,3.821263313293457
97, 8183, 8162, 8174, 8173, 8126, 8167, 8172, 8160, 8171, 8153, 8172, 8170, 8181, 8263,3.8292574882507324
98, 8152, 8147, 8150, 8158, 8138, 8149, 8157, 8152, 8166, 8152, 8170, 8169, 8188, 8284,3.8373208045959473
99, 8136, 8143, 8154, 8157, 8150, 8159, 8145, 8148, 8147, 8158, 8153, 8158, 8172, 8260,3.8443033695220947
100, 8164, 8164, 8193, 8187, 8182, 8175, 8152, 8158, 8147, 8158, 8157, 8159, 8170, 8238,3.852121114730835
101, 8199, 8200, 8260, 8218, 8196, 8169, 8157, 8184, 8161, 8156, 8193, 8194, 8195, 8266,3.861302375793457
102, 8191, 8185, 8175, 8226, 8109, 8154, 8167, 8162, 8174, 8172, 8224, 8198, 8228, 8317,3.86824893951416
103, 8179, 8184, 8134, 8238, 8129, 8164, 8185, 8166, 8187, 8188, 8232, 8187, 8241, 8322,3.8761911392211914
104, 8177, 8204, 8162, 8254, 8163, 8182, 8200, 8188, 8212, 8180, 8244, 8188, 8252, 8289,3.8842523097991943
105, 8172, 8218, 8211, 8257, 8196, 8188, 8190, 8199, 8212, 8171, 8239, 8197, 8250, 8270,3.8923144340515137
106, 8188, 8215, 8269, 8259, 8213, 8188, 8177, 8211, 8185, 8176, 8223, 8226, 8227, 8293,3.9002280235290527
107, 8192, 8188, 8176, 8260, 8121, 8178, 8185, 8167, 8183, 8174, 8229, 8211, 8224, 8315,3.907355308532715
108, 8180, 8196, 8134, 8261, 8128, 8162, 8179, 8135, 8172, 8160, 8227, 8177, 8219, 8291,3.915243148803711
109, 8196, 8213, 8177, 8276, 8153, 8151, 8165, 8137, 8148, 8159, 8237, 8193, 8229, 8287,3.923186779022217
110, 8239, 8227, 8210, 8294, 8184, 8151, 8160, 8151, 8140, 8165, 8262, 8222, 8258, 8322,3.9313318729400635
111, 8265, 8244, 8271, 8289, 8243, 8157, 8156, 8188, 8132, 8156, 8253, 8235, 8248, 8338,3.9392712116241455
112, 8247, 8221, 8215, 8265, 8157, 8156, 8168, 8171, 8128, 8151, 8227, 8215, 8227, 8343,3.9472177028656006
113, 8235, 8199, 8129, 8252, 8083, 8149, 8184, 8138, 8137, 8153, 8231, 8189, 8233, 8348,3.9552454948425293
114, 8231, 8204, 8144, 8261, 8118, 8151, 8183, 8149, 8148, 8156, 8245, 8193, 8249, 8341,3.963244676589966
115, 8214, 8207, 8189, 8251, 8169, 8148, 8165, 8169, 8145, 8165, 8234, 8200, 8247, 8333,3.971374750137329
116, 8222, 8205, 8194, 8220, 8163, 8138, 8147, 8161, 8140, 8174, 8221, 8199, 8239, 8346,3.9780466556549072
117, 8236, 8202, 8150, 8222, 8134, 8140, 8150, 8135, 8158, 8171, 8224, 8186, 8245, 8359,3.986293077468872
118, 8216, 8208, 8217, 8225, 8215, 8164, 8148, 8167, 8161, 8158, 8197, 8179, 8215, 8320,3.9941999912261963
119, 8167, 8175, 8218, 8191, 8186, 8173, 8144, 8174, 8148, 8154, 8172, 8165, 8170, 8263,4.002078533172607
120, 8136, 8150, 8091, 8180, 8102, 8168, 8161, 8131, 8156, 8159, 8182, 8129, 8171, 8246,4.010240077972412
121, 8162, 8186, 8135, 8199, 8177, 8170, 8173, 8159, 8158, 8158, 8183, 8141, 8190, 8258,4.018301725387573
122, 8180, 8184, 8176, 8188, 8171, 8153, 8166, 8176, 8155, 8158, 8178, 8161, 8196, 8269,4.027133226394653
123, 8174, 8178, 8138, 8178, 8137, 8137, 8146, 8153, 8159, 8164, 8180, 8144, 8189, 8263,4.0342724323272705
124, 8196, 8213, 8183, 8213, 8196, 8148, 8135, 8167, 8159, 8171, 8184, 8155, 8190, 8268,4.041349411010742
125, 8206, 8208, 8185, 8223, 8194, 8143, 8131, 8157, 8146, 8167, 8186, 8168, 8198, 8290,4.04908299446106
126, 8188, 8183, 8149, 8191, 8164, 8130, 8121, 8127, 8134, 8158, 8181, 8162, 8195, 8303,4.057084321975708
127, 8191, 8191, 8154, 8204, 8163, 8146, 8129, 8140, 8150, 8164, 8184, 8163, 8200, 8310,4.065300941467285
236, 8199, 8203, 8190, 8219, 8191, 8153, 8137, 8181, 8160, 8171, 8175, 8162, 8188, 8295,4.073291540145874
0, 8167, 8173, 8140, 8180, 8141, 8146, 8147, 8173, 8162, 8165, 8168, 8153, 8169, 8276,4.0813117027282715
1, 8137, 8169, 8103, 8171, 8141, 8167, 8171, 8157, 8184, 8171, 8174, 8144, 8175, 8281,4.089247941970825
2, 8165, 8212, 8243, 8213, 8263, 8187, 8174, 8207, 8194, 8176, 8159, 8164, 8177, 8276,4.097261667251587
3, 8188, 8188, 8222, 8214, 8192, 8172, 8178, 8205, 8194, 8177, 8153, 8166, 8183, 8270,4.1050779819488525
4, 8162, 8148, 8093, 8173, 8118, 8171, 8188, 8173, 8202, 8184, 8163, 8143, 8192, 8271,4.112287521362305
5, 8132, 8157, 8138, 8156, 8178, 8192, 8184, 8195, 8202, 8182, 8157, 8150, 8184, 8263,4.120211362838745
6, 8129, 8165, 8162, 8174, 8166, 8188, 8177, 8189, 8200, 8164, 8151, 8149, 8175, 8258,4.128161907196045
7, 8161, 8181, 8182, 8190, 8188, 8183, 8156, 8185, 8187, 8154, 8155, 8149, 8167, 8258,4.136226415634155
8, 8174, 8175, 8184, 8167, 8185, 8188, 8156, 8188, 8182, 8169, 8166, 8159, 8169, 8258,4.144279718399048
9, 8140, 8166, 8158, 8148, 8180, 8189, 8179, 8182, 8200, 8179, 8168, 8152, 8164, 8248,4.152219295501709
10, 8130, 8174, 8186, 8172, 8204, 8200, 8195, 8193, 8212, 8171, 8164, 8154, 8152, 8240,4.160299301147461
11, 8141, 8157, 8156, 8176, 8156, 8207, 8209, 8179, 8204, 8162, 8147, 8147, 8148, 8248,4.167325258255005
12, 8148, 8160, 8141, 8155, 8155, 8204, 8219, 8173, 8191, 8156, 8127, 8144, 8142, 8246,4.175074100494385
13, 8137, 8161, 8128, 8159, 8146, 8203, 8217, 8175, 8207, 8160, 8149, 8152, 8157, 8242,4.183197736740112
14, 8122, 8157, 8145, 8166, 8186, 8206, 8206, 8188, 8221, 8167, 8164, 8158, 8172, 8248,4.191378831863403
15, 8146, 8178, 8233, 8163, 8244, 8212, 8209, 8215, 8207, 8158, 8149, 8176, 8163, 8256,4.199315071105957
16, 8183, 8171, 8177, 8180, 8156, 8200, 8214, 8181, 8194, 8149, 8150, 8166, 8165, 8265,4.2073729038238525
17, 8197, 8169, 8132, 8188, 8137, 8176, 8191, 8155, 8183, 8150, 8161, 8154, 8165, 8265,4.215319633483887
18, 8189, 8174, 8158, 8173, 8163, 8166, 8183, 8163, 8177, 8146, 8171, 8170, 8165, 8276,4.22336745262146
19, 8178, 8177, 8170, 8175, 8187, 8188, 8208, 8174, 8182, 8144, 8173, 8176, 8179, 8288,4.231217861175537
20, 8170, 8190, 8220, 8175, 8245, 8212, 8223, 8210, 8192, 8158, 8167, 8179, 8175, 8274,4.238276720046997
21, 8143, 8161, 8173, 8135, 8183, 8206, 8238, 8201, 8197, 8167, 8173, 8164, 8166, 8257,4.246265888214111
22, 8125, 8126, 8112, 8117, 8124, 8199, 8249, 8172, 8195, 8158, 8169, 8142, 8163, 8249,4.254367113113403
23, 8132, 8124, 8126, 8134, 8135, 8206, 8242, 8171, 8205, 8159, 8155, 8144, 8161, 8253,4.262243032455444
24, 8141, 8142, 8160, 8133, 8183, 8227, 8239, 8191, 8226, 8163, 8166, 8158, 8164, 8261,4.270311117172241
25, 8144, 8149, 8194, 8134, 8204, 8235, 8234, 8209, 8235, 8158, 8182, 8175, 8166, 8266,4.27806830406189
26, 8142, 8143, 8148, 8164, 8145, 8221, 8229, 8179, 8250, 8172, 8187, 8168, 8180, 8279,4.286287546157837
27, 8167, 8190, 8222, 8190, 8234, 8220, 8219, 8193, 8253, 8187, 8173, 8167, 8176, 8275,4.294255018234253
28, 8192, 8207, 8285, 8191, 8257, 8223, 8216, 8204, 8229, 8174, 8160, 8178, 8157, 8253,4.301019668579102
29, 8151, 8146, 8117, 8181, 8111, 8205, 8226, 8121, 8212, 8159, 8167, 8150, 8161, 8242,4.309248685836792
30, 8116, 8131, 8064, 8175, 8121, 8201, 8223, 8091, 8202, 8157, 8170, 8134, 8159, 8237,4.31727147102356
31, 8130, 8156, 8139, 8170, 8180, 8217, 8222, 8127, 8189, 8150, 8162, 8139, 8134, 8224,4.325254440307617
32, 8128, 8167, 8174, 8147, 8202, 8205, 8212, 8153, 8169, 8137, 8146, 8133, 8108, 8196,4.333293199539185
33, 8117, 8159, 8192, 8128, 8207, 8179, 8199, 8166, 8161, 8133, 8145, 8149, 8106, 8190,4.341228485107422
34, 8128, 8137, 8162, 8129, 8171, 8180, 8209, 8165, 8179, 8140, 8163, 8159, 8127, 8223,4.349297761917114
35, 8130, 8139, 8142, 8132, 8157, 8189, 8214, 8172, 8197, 8153, 8180, 8151, 8149, 8244,4.357216119766235
36, 8105, 8146, 8124, 8144, 8135, 8180, 8206, 8170, 8204, 8165, 8181, 8142, 8157, 8229,4.365295648574829
37, 8106, 8157, 8164, 8159, 8181, 8179, 8206, 8187, 8205, 8162, 8163, 8149, 8148, 8215,4.372163772583008
38, 8127, 8149, 8191, 8157, 8194, 8190, 8220, 8205, 8217, 8162, 8170, 8169, 8160, 8233,4.380211591720581
39, 8129, 8140, 8143, 8147, 8158, 8185, 8226, 8186, 8235, 8175, 8186, 8163, 8183, 8255,4.3882155418396
40, 8143, 8183, 8214, 8162, 8224, 8184, 8212, 8204, 8225, 8173, 8173, 8171, 8167, 8250,4.396337509155273
41, 8142, 8183, 8208, 8182, 8188, 8193, 8223, 8195, 8220, 8168, 8172, 8179, 8163, 8246,4.4040844440460205
42, 8113, 8153, 8114, 8170, 8138, 8192, 8234, 8145, 8226, 8169, 8176, 8154, 8177, 8239,4.412177085876465
43, 8129, 8166, 8179, 8153, 8205, 8186, 8220, 8154, 8201, 8168, 8172, 8163, 8172, 8234,4.420097351074219
44, 8159, 8157, 8193, 8159, 8188, 8173, 8217, 8166, 8198, 8165, 8185, 8178, 8176, 8254,4.427994728088379
45, 8148, 8138, 8145, 8160, 8160, 8162, 8218, 8165, 8219, 8162, 8192, 8163, 8182, 8261,4.434983730316162
46, 8137, 8148, 8147, 8147, 8157, 8162, 8212, 8175, 8228, 8162, 8181, 8161, 8181, 8253,4.443104028701782
47, 8152, 8175, 8178, 8157, 8169, 8163, 8209, 8192, 8231, 8170, 8171, 8169, 8177, 8255,4.451195240020752
48, 8167, 8177, 8185, 8172, 8166, 8159, 8218, 8201, 8237, 8172, 8161, 8174, 8178, 8268,4.459172487258911
49, 8152, 8145, 8133, 8151, 8135, 8150, 8224, 8180, 8230, 8169, 8161, 8162, 8194, 8274,4.467130661010742
50, 8139, 8144, 8187, 8129, 8204, 8152, 8211, 8197, 8215, 8174, 8155, 8165, 8191, 8256,4.475107192993164
51, 8131, 8135, 8206, 8125, 8186, 8157, 8217, 8204, 8222, 8177, 8131, 8173, 8173, 8246,4.483234405517578
52, 8119, 8113, 8140, 8119, 8135, 8154, 8233, 8168, 8220, 8162, 8119, 8152, 8160, 8249,4.491117715835571
53, 8140, 8138, 8192, 8126, 8201, 8163, 8221, 8178, 8205, 8156, 8136, 8159, 8160, 8248,4.49910831451416
54, 8173, 8156, 8193, 8142, 8169, 8174, 8212, 8179, 8221, 8170, 8162, 8175, 8189, 8261,4.506240129470825
55, 8186, 8163, 8171, 8145, 8145, 8169, 8212, 8164, 8231, 8174, 8159, 8178, 8215, 8283,4.514214754104614
56, 8194, 8173, 8198, 8161, 8177, 8149, 8196, 8157, 8212, 8164, 8165, 8190, 8225, 8305,4.522224426269531
57, 8208, 8180, 8188, 8192, 8178, 8135, 8182, 8151, 8198, 8173, 8196, 8194, 8252, 8335,4.530186414718628
58, 8215, 8188, 8184, 8193, 8171, 8134, 8184, 8160, 8197, 8187, 8199, 8194, 8270, 8345,4.5381224155426025
59, 8186, 8173, 8152, 8169, 8157, 8132, 8196, 8154, 8197, 8186, 8174, 8176, 8252, 8319,4.546309471130371
60, 8160, 8170, 8172, 8157, 8199, 8138, 8200, 8169, 8189, 8174, 8157, 8168, 8219, 8290,4.5541887283325195
61, 8156, 8161, 8169, 8148, 8154, 8158, 8220, 8188, 8200, 8171, 8166, 8170, 8217, 8291,4.562189340591431
62, 8147, 8157, 8142, 8138, 8148, 8179, 8252, 8197, 8229, 8176, 8158, 8152, 8216, 8279,4.569176197052002
63, 8139, 8165, 8220, 8131, 8248, 8190, 8258, 8230, 8227, 8172, 8130, 8156, 8178, 8239,4.577293634414673
64, 8124, 8138, 8181, 8127, 8181, 8185, 8271, 8213, 8233, 8170, 8147, 8161, 8177, 8238,4.585364580154419
65, 8133, 8148, 8160, 8124, 8168, 8185, 8277, 8207, 8252, 8171, 8156, 8156, 8192, 8254,4.593306303024292
66, 8165, 8167, 8210, 8128, 8197, 8185, 8266, 8218, 8244, 8171, 8139, 8170, 8183, 8264,4.601376056671143
67, 8166, 8154, 8144, 8148, 8133, 8175, 8258, 8172, 8240, 8174, 8156, 8169, 8192, 8277,4.609049558639526
68, 8158, 8183, 8169, 8160, 8189, 8173, 8227, 8167, 8240, 8171, 8167, 8170, 8197, 8259,4.617089033126831
69, 8178, 8199, 8224, 8162, 8214, 8154, 8185, 8173, 8220, 8161, 8157, 8178, 8183, 8244,4.625229835510254
70, 8207, 8185, 8167, 8182, 8143, 8125, 8161, 8130, 8196, 8155, 8163, 8176, 8186, 8281,4.632213830947876
71, 8217, 8202, 8144, 8204, 8141, 8117, 8143, 8108, 8179, 8166, 8181, 8180, 8210, 8321,4.6400604248046875
72, 8210, 8219, 8180, 8203, 8191, 8120, 8128, 8122, 8155, 8166, 8173, 8174, 8206, 8294,4.648290395736694
73, 8193, 8197, 8190, 8192, 8188, 8122, 8142, 8139, 8140, 8155, 8155, 8161, 8182, 8258,4.656099796295166
74, 8171, 8157, 8126, 8167, 8132, 8131, 8180, 8131, 8151, 8159, 8162, 8156, 8192, 8273,4.664100170135498
75, 8171, 8169, 8189, 8141, 8221, 8147, 8188, 8172, 8154, 8168, 8158, 8163, 8194, 8278,4.672212600708008
76, 8167, 8170, 8241, 8135, 8228, 8137, 8185, 8217, 8161, 8172, 8143, 8170, 8176, 8258,4.680066108703613
77, 8122, 8115, 8109, 8118, 8101, 8119, 8205, 8181, 8192, 8172, 8148, 8140, 8184, 8251,4.6882545948028564
78, 8123, 8129, 8156, 8104, 8195, 8138, 8208, 8194, 8201, 8164, 8149, 8142, 8178, 8248,4.696269989013672
79, 8156, 8158, 8236, 8122, 8224, 8160, 8208, 8222, 8199, 8162, 8152, 8169, 8158, 8248,4.703319311141968
80, 8143, 8135, 8121, 8131, 8102, 8154, 8230, 8184, 8211, 8169, 8169, 8148, 8165, 8252,4.7113728523254395
81, 8145, 8143, 8126, 8129, 8152, 8155, 8234, 8184, 8219, 8169, 8180, 8146, 8177, 8246,4.719211101531982
82, 8172, 8169, 8216, 8155, 8214, 8163, 8219, 8204, 8221, 8163, 8173, 8175, 8176, 8252,4.727297306060791
83, 8176, 8170, 8197, 8178, 8168, 8152, 8207, 8179, 8205, 8158, 8161, 8184, 8174, 8270,4.735188961029053
84, 8178, 8162, 8132, 8176, 8128, 8143, 8202, 8139, 8191, 8162, 8172, 8177, 8187, 8288,4.743297815322876
85, 8200, 8184, 8169, 8190, 8185, 8150, 8192, 8150, 8179, 8163, 8187, 8183, 8198, 8299,4.751205921173096
86, 8198, 8198, 8212, 8201, 8199, 8151, 8184, 8172, 8161, 8161, 8175, 8185, 8191, 8287,4.759262561798096
87, 8157, 8169, 8131, 8175, 8134, 8136, 8189, 8146, 8151, 8158, 8143, 8151, 8173, 8259,4.7662389278411865
88, 8144, 8173, 8158, 8150, 8202, 8133, 8177, 8158, 8134, 8156, 8118, 8141, 8141, 8230,4.774307012557983
89, 8157, 8183, 8234, 8158, 8228, 8136, 8169, 8189, 8128, 8160, 8135, 8169, 8140, 8234,4.7822089195251465
90, 8147, 8150, 8164, 8158, 8141, 8135, 8193, 8175, 8153, 8165, 8167, 8162, 8179, 8258,4.7903008460998535
91, 8131, 8133, 8120, 8139, 8144, 8149, 8211, 8168, 8169, 8165, 8158, 8148, 8189, 8259,4.798254013061523
92, 8128, 8132, 8109, 8127, 8154, 8150, 8208, 8158, 8165, 8166, 8140, 8149, 8172, 8254,4.806074619293213
93, 8145, 8152, 8173, 8137, 8208, 8140, 8193, 8180, 8161, 8170, 8140, 8159, 8158, 8247,4.814152717590332
94, 8168, 8174, 8244, 8152, 8219, 8151, 8195, 8213, 8162, 8168, 8153, 8178, 8158, 8242,4.822290897369385
95, 8158, 8163, 8161, 8160, 8128, 8161, 8204, 8178, 8169, 8160, 8165, 8174, 8170, 8255,4.8300621509552
96, 8157, 8161, 8117, 8177, 8109, 8145, 8189, 8148, 8166, 8161, 8168, 8169, 8181, 8275,4.837157964706421
97, 8184, 8175, 8146, 8195, 8121, 8126, 8172, 8147, 8160, 8168, 8175, 8173, 8196, 8286,4.845309495925903
98, 8197, 8196, 8184, 8194, 8154, 8129, 8158, 8151, 8149, 8161, 8176, 8183, 8197, 8290,4.853259563446045
99, 8195, 8197, 8192, 8191, 8150, 8135, 8153, 8150, 8137, 8157, 8183, 8201, 8202, 8311,4.861237287521362
100, 8201, 8196, 8173, 8199, 8141, 8134, 8169, 8159, 8142, 8171, 8192, 8194, 8222, 8326,4.869330644607544
101, 8203, 8214, 8220, 8204, 8189, 8139, 8185, 8204, 8147, 8174, 8172, 8184, 8210, 8298,4.877306938171387
102, 8163, 8172, 8162, 8175, 8122, 8148, 8196, 8189, 8159, 8161, 8157, 8165, 8186, 8261,4.8853020668029785
103, 8119, 8127, 8104, 8130, 8110, 8158, 8199, 8160, 8161, 8152, 8146, 8133, 8165, 8237,4.892293691635132
104, 8123, 8138, 8150, 8129, 8164, 8172, 8203, 8180, 8150, 8154, 8134, 8139, 8144, 8233,4.900289297103882
105, 8132, 8150, 8129, 8159, 8148, 8178, 8217, 8178, 8163, 8163, 8142, 8148, 8145, 8242,4.9080424308776855
106, 8123, 8155, 8175, 8157, 8195, 8178, 8198, 8185, 8167, 8161, 8146, 8150, 8147, 8234,4.9163148403167725
107, 8120, 8150, 8215, 8145, 8181, 8170, 8174, 8182, 8156, 8159, 8147, 8155, 8151, 8238,4.924266576766968
108, 8136, 8156, 8152, 8171, 8111, 8162, 8188, 8155, 8173, 8174, 8166, 8158, 8179, 8263,4.9320807456970215
109, 8167, 8178, 8140, 8194, 8116, 8168, 8206, 8157, 8201, 8181, 8188, 8177, 8213, 8290,4.940238952636719
110, 8185, 8189, 8166, 8190, 8150, 8175, 8201, 8159, 8191, 8176, 8177, 8183, 8215, 8306,4.948256015777588
111, 8195, 8203, 8206, 8194, 8177, 8171, 8186, 8163, 8165, 8177, 8159, 8184, 8203, 8302,4.956138610839844
112, 8197, 8197, 8169, 8213, 8123, 8170, 8197, 8156, 8178, 8183, 8183, 8184, 8227, 8306,4.963258981704712
113, 8191, 8201, 8167, 8210, 8156, 8176, 8202, 8172, 8193, 8189, 8192, 8183, 8239, 8313,4.971260070800781
114, 8189, 8204, 8236, 8189, 8213, 8169, 8183, 8205, 8171, 8185, 8172, 8195, 8209, 8300,4.979286432266235
115, 8174, 8166, 8163, 8187, 8119, 8148, 8189, 8174, 8165, 8171, 8173, 8178, 8204, 8279,4.987240314483643
116, 8162, 8163, 8126, 8190, 8120, 8154, 8208, 8166, 8182, 8158, 8171, 8158, 8205, 8272,4.995288133621216
117, 8150, 8169, 8157, 8172, 8161, 8166, 8218, 8185, 8186, 8165, 8149, 8161, 8177, 8273,5.003060340881348
118, 8125, 8152, 8148, 8147, 8161, 8165, 8220, 8181, 8170, 8170, 8131, 8158, 8151, 8262,5.011260032653809
119, 8126, 8156, 8177, 8139, 8173, 8176, 8228, 8200, 8172, 8163, 8136, 8168, 8155, 8262,5.019261121749878
120, 8130, 8146, 8154, 8141, 8134, 8190, 8253, 8204, 8201, 8165, 8151, 8162, 8174, 8275,5.026270627975464
121, 8125, 8145, 8155, 8147, 8154, 8189, 8268, 8194, 8202, 8173, 8147, 8151, 8171, 8263,5.034157752990723
122, 8149, 8162, 8170, 8159, 8154, 8182, 8265, 8172, 8188, 8175, 8150, 8167, 8168, 8264,5.04211163520813
123, 8176, 8185, 8167, 8175, 8143, 8178, 8247, 8157, 8193, 8167, 8151, 8171, 8169, 8274,5.05022406578064
124, 8171, 8195, 8204, 8185, 8180, 8173, 8215, 8168, 8187, 8160, 8134, 8163, 8158, 8250,5.058231353759766
125, 8158, 8186, 8160, 8190, 8142, 8167, 8197, 8144, 8186, 8172, 8140, 8154, 8169, 8237,5.066254615783691
126, 8177, 8217, 8164, 8198, 8174, 8169, 8181, 8140, 8187, 8182, 8158, 8161, 8189, 8261,5.074275732040405
127, 8192, 8227, 8212, 8197, 8202, 8164, 8163, 8156, 8164, 8169, 8156, 8175, 8188, 8278,5.082084655761719
236, 8174, 8191, 8160, 8186, 8144, 8147, 8159, 8136, 8142, 8161, 8145, 8157, 8175, 8273,5.089230298995972
0, 8161, 8183, 8145, 8169, 8146, 8139, 8163, 8137, 8132, 8153, 8132, 8149, 8153, 8262,5.097092628479004
1, 8145, 8166, 8139, 8142, 8135, 8136, 8175, 8147, 8132, 8131, 8123, 8147, 8130, 8245,5.105284929275513
2, 8139, 8162, 8184, 8122, 8183, 8134, 8177, 8180, 8135, 8130, 8119, 8149, 8114, 8218,5.1132307052612305
3, 8147, 8170, 8230, 8127, 8198, 8141, 8183, 8211, 8148, 8160, 8139, 8170, 8128, 8219,5.121275186538696
4, 8143, 8154, 8149, 8137, 8112, 8151, 8208, 8180, 8168, 8169, 8168, 8171, 8168, 8256,5.12927508354187
5, 8149, 8155, 8129, 8142, 8110, 8159, 8213, 8174, 8181, 8161, 8169, 8173, 8185, 8282,5.137288808822632
6, 8150, 8159, 8145, 8145, 8123, 8145, 8202, 8185, 8191, 8167, 8160, 8176, 8184, 8285,5.145280122756958
7, 8150, 8164, 8188, 8147, 8163, 8134, 8183, 8188, 8187, 8164, 8152, 8173, 8180, 8275,5.153289556503296
8, 8174, 8174, 8234, 8170, 8177, 8149, 8172, 8195, 8190, 8163, 8155, 8188, 8187, 8276,5.160114049911499
9, 8189, 8181, 8172, 8195, 8122, 8156, 8187, 8182, 8212, 8184, 8170, 8189, 8206, 8294,5.168257474899292
10, 8195, 8214, 8177, 8200, 8159, 8156, 8194, 8181, 8208, 8187, 8176, 8186, 8202, 8297,5.17626690864563
11, 8201, 8234, 8205, 8210, 8185, 8167, 8182, 8169, 8199, 8179, 8186, 8191, 8205, 8293,5.184018135070801
12, 8204, 8230, 8183, 8232, 8170, 8176, 8161, 8154, 8199, 8190, 8202, 8191, 8222, 8294,5.1922760009765625
13, 8208, 8229, 8178, 8230, 8157, 8171, 8149, 8152, 8188, 8191, 8202, 8187, 8215, 8291,5.200294017791748
14, 8199, 8214, 8165, 8201, 8143, 8169, 8156, 8133, 8177, 8179, 8188, 8174, 8216, 8287,5.208035230636597
15, 8184, 8193, 8179, 8180, 8183, 8173, 8165, 8142, 8174, 8181, 8174, 8174, 8219, 8288,5.216216087341309
16, 8167, 8169, 8167, 8164, 8169, 8163, 8173, 8164, 8173, 8181, 8170, 8172, 8202, 8279,5.223348379135132
17, 8146, 8166, 8156, 8145, 8156, 8162, 8179, 8180, 8171, 8170, 8166, 8147, 8178, 8247,5.231357574462891
18, 8135, 8173, 8166, 8140, 8158, 8173, 8190, 8189, 8175, 8167, 8164, 8143, 8172, 8227,5.239246606826782
19, 8133, 8169, 8135, 8151, 8145, 8173, 8199, 8179, 8190, 8167, 8165, 8144, 8170, 8241,5.247286796569824
20, 8141, 8189, 8206, 8163, 8209, 8170, 8188, 8211, 8187, 8160, 8150, 8156, 8148, 8246,5.255260944366455
21, 8140, 8177, 8197, 8164, 8147, 8166, 8191, 8204, 8180, 8162, 8150, 8166, 8158, 8246,5.263261079788208
22, 8142, 8161, 8131, 8160, 8122, 8159, 8203, 8173, 8180, 8164, 8157, 8153, 8173, 8259,5.271232843399048
23, 8166, 8188, 8226, 8164, 8225, 8163, 8184, 8205, 8166, 8159, 8140, 8167, 8153, 8265,5.2793567180633545
24, 8168, 8180, 8197, 8176, 8148, 8157, 8172, 8180, 8166, 8162, 8145, 8177, 8158, 8268,5.2862021923065186
25, 8164, 8178, 8122, 8186, 8104, 8140, 8161, 8139, 8168, 8160, 8169, 8171, 8177, 8275,5.294326066970825
26, 8203, 8207, 8183, 8202, 8172, 8141, 8148, 8159, 8161, 8159, 8186, 8186, 8195, 8298,5.302238941192627
27, 8229, 8219, 8215, 8216, 8186, 8154, 8154, 8174, 8164, 8172, 8199, 8196, 8218, 8322,5.310102462768555
28, 8209, 8208, 8192, 8198, 8173, 8160, 8159, 8176, 8160, 8175, 8196, 8188, 8217, 8317,5.318243741989136
29, 8188, 8186, 8154, 8164, 8156, 8160, 8157, 8170, 8157, 8166, 8177, 8166, 8201, 8305,5.326284408569336
30, 8185, 8192, 8176, 8160, 8186, 8163, 8159, 8177, 8152, 8166, 8160, 8157, 8188, 8290,5.33424973487854
31, 8150, 8178, 8135, 8167, 8130, 8157, 8170, 8165, 8143, 8168, 8161, 8148, 8184, 8266,5.342365980148315
32, 8122, 8174, 8116, 8158, 8132, 8156, 8169, 8166, 8141, 8162, 8155, 8132, 8171, 8243,5.350233793258667
33, 8160, 8211, 8254, 8152, 8248, 8171, 8163, 8219, 8151, 8161, 8145, 8158, 8152, 8247,5.357405185699463
34, 8170, 8185, 8206, 8155, 8162, 8173, 8188, 8205, 8175, 8170, 8160, 8167, 8163, 8272,5.365213632583618
35, 8134, 8162, 8092, 8154, 8090, 8173, 8207, 8170, 8185, 8171, 8166, 8146, 8169, 8265,5.373281955718994
36, 8130, 8183, 8136, 8150, 8141, 8177, 8192, 8178, 8170, 8161, 8154, 8145, 8142, 8242,5.381232261657715
37, 8146, 8196, 8174, 8150, 8163, 8163, 8172, 8177, 8162, 8153, 8151, 8144, 8118, 8231,5.389256477355957
38, 8157, 8216, 8223, 8160, 8195, 8159, 8170, 8191, 8166, 8157, 8151, 8156, 8124, 8229,5.397235631942749
39, 8159, 8219, 8200, 8187, 8166, 8172, 8190, 8181, 8165, 8163, 8166, 8167, 8154, 8241,5.405286550521851
40, 8170, 8230, 8175, 8217, 8188, 8180, 8191, 8169, 8156, 8163, 8190, 8171, 8175, 8259,5.413248777389526
41, 8198, 8252, 8219, 8229, 8212, 8187, 8176, 8182, 8170, 8179, 8211, 8189, 8200, 8281,5.420284271240234
42, 8203, 8242, 8181, 8224, 8146, 8181, 8175, 8165, 8190, 8198, 8212, 8184, 8234, 8308,5.42824387550354
43, 8192, 8221, 8134, 8216, 8133, 8162, 8170, 8143, 8178, 8189, 8201, 8172, 8236, 8314,5.436091899871826
44, 8180, 8201, 8123, 8196, 8143, 8153, 8162, 8133, 8158, 8173, 8193, 8166, 8222, 8297,5.444239139556885
45, 8161, 8192, 8193, 8156, 8204, 8152, 8145, 8150, 8127, 8162, 8155, 8162, 8189, 8265,5.452324628829956
46, 8144, 8171, 8238, 8126, 8206, 8149, 8134, 8163, 8100, 8150, 8116, 8164, 8151, 8240,5.460065603256226
47, 8117, 8128, 8124, 8122, 8102, 8144, 8154, 8138, 8118, 8151, 8125, 8146, 8154, 8249,5.467977046966553
48, 8101, 8130, 8097, 8117, 8109, 8149, 8171, 8149, 8134, 8152, 8134, 8134, 8147, 8242,5.47603178024292
49, 8109, 8148, 8147, 8111, 8148, 8168, 8179, 8172, 8138, 8149, 8123, 8138, 8121, 8214,5.48298192024231
50, 8117, 8152, 8161, 8120, 8164, 8192, 8195, 8186, 8159, 8153, 8121, 8141, 8123, 8214,5.491076707839966
51, 8129, 8160, 8189, 8135, 8176, 8191, 8202, 8207, 8173, 8160, 8128, 8157, 8137, 8238,5.498987674713135
52, 8142, 8169, 8176, 8149, 8149, 8174, 8194, 8197, 8180, 8168, 8130, 8157, 8136, 8240,5.507003307342529
53, 8157, 8180, 8178, 8173, 8166, 8184, 8187, 8190, 8187, 8167, 8147, 8158, 8142, 8239,5.515268564224243
54, 8169, 8174, 8170, 8188, 8158, 8191, 8184, 8183, 8188, 8163, 8177, 8176, 8180, 8268,5.523304462432861
55, 8188, 8193, 8177, 8201, 8175, 8184, 8169, 8172, 8180, 8168, 8178, 8182, 8192, 8278,5.531276702880859
56, 8209, 8231, 8235, 8230, 8212, 8190, 8153, 8180, 8165, 8180, 8173, 8186, 8182, 8269,5.539229869842529
57, 8211, 8230, 8189, 8255, 8174, 8189, 8154, 8157, 8162, 8184, 8197, 8183, 8209, 8286,5.5472564697265625
58, 8233, 8257, 8203, 8266, 8222, 8185, 8143, 8161, 8155, 8181, 8201, 8199, 8224, 8307,5.554095268249512
59, 8270, 8276, 8239, 8264, 8206, 8187, 8135, 8173, 8149, 8191, 8189, 8219, 8223, 8326,5.5620317459106445
60, 8258, 8249, 8176, 8247, 8134, 8173, 8137, 8141, 8141, 8194, 8179, 8194, 8235, 8335,5.5701963901519775
61, 8214, 8231, 8175, 8226, 8174, 8150, 8111, 8134, 8125, 8179, 8162, 8178, 8226, 8319,5.578226804733276
62, 8189, 8203, 8159, 8198, 8160, 8143, 8094, 8130, 8125, 8165, 8148, 8175, 8204, 8308,5.586227655410767
63, 8182, 8181, 8166, 8164, 8164, 8152, 8103, 8136, 8119, 8160, 8133, 8159, 8180, 8289,5.5942957401275635
64, 8170, 8178, 8204, 8157, 8188, 8161, 8117, 8161, 8114, 8160, 8132, 8160, 8161, 8268,5.602238893508911
65, 8157, 8167, 8161, 8157, 8158, 8170, 8137, 8160, 8137, 8161, 8151, 8160, 8163, 8278,5.61008095741272
66, 8154, 8147, 8121, 8137, 8126, 8171, 8150, 8148, 8151, 8152, 8143, 8143, 8156, 8273,5.618194103240967
67, 8148, 8139, 8115, 8137, 8114, 8172, 8153, 8145, 8147, 8145, 8136, 8131, 8138, 8244,5.62529182434082
68, 8153, 8171, 8176, 8161, 8180, 8191, 8159, 8179, 8151, 8154, 8156, 8151, 8139, 8239,5.633300304412842
69, 8164, 8184, 8191, 8172, 8174, 8197, 8186, 8192, 8168, 8159, 8166, 8170, 8150, 8259,5.641254901885986
70, 8165, 8176, 8161, 8175, 8149, 8186, 8208, 8177, 8170, 8150, 8157, 8162, 8147, 8261,5.649212121963501
71, 8190, 8201, 8224, 8196, 8221, 8190, 8203, 8204, 8168, 8150, 8167, 8182, 8155, 8265,5.657256126403809
72, 8218, 8218, 8206, 8219, 8187, 8186, 8201, 8204, 8184, 8167, 8195, 8203, 8189, 8308,5.665034770965576
73, 8232, 8226, 8158, 8230, 8150, 8169, 8194, 8181, 8186, 8170, 8195, 8191, 8198, 8335,5.67328405380249
74, 8242, 8224, 8192, 8231, 8181, 8166, 8173, 8186, 8172, 8160, 8187, 8183, 8190, 8321,5.6812896728515625
75, 8219, 8200, 8180, 8215, 8171, 8158, 8152, 8177, 8172, 8160, 8184, 8171, 8194, 8298,5.688234567642212
76, 8196, 8200, 8169, 8198, 8175, 8147, 8132, 8170, 8170, 8164, 8169, 8170, 8184, 8300,5.696270942687988
77, 8202, 8199, 8163, 8188, 8163, 8151, 8127, 8163, 8168, 8167, 8156, 8172, 8173, 8316,5.704280376434326
78, 8191, 8179, 8170, 8171, 8179, 8155, 8116, 8165, 8165, 8159, 8137, 8149, 8154, 8278,5.712069988250732
79, 8156, 8157, 8170, 8149, 8173, 8155, 8113, 8170, 8157, 8156, 8131, 8135, 8128, 8219,5.720224857330322
80, 8141, 8157, 8127, 8161, 8144, 8164, 8144, 8161, 8164, 8162, 8147, 8140, 8127, 8223,5.728240966796875
81, 8159, 8181, 8177, 8184, 8201, 8184, 8159, 8186, 8172, 8160, 8143, 8157, 8126, 8244,5.735997200012207
82, 8149, 8166, 8174, 8172, 8172, 8192, 8165, 8180, 8178, 8161, 8144, 8152, 8129, 8227,5.744245529174805
83, 8125, 8156, 8138, 8165, 8162, 8196, 8187, 8161, 8180, 8168, 8169, 8145, 8140, 8213,5.751303195953369
84, 8149, 8176, 8202, 8195, 8212, 8210, 8199, 8183, 8172, 8168, 8200, 8183, 8163, 8253,5.759207010269165
85, 8190, 8177, 8190, 8220, 8171, 8208, 8196, 8169, 8176, 8175, 8222, 8194, 8196, 8312,5.767281770706177
86, 8217, 8202, 8191, 8223, 8186, 8190, 8182, 8164, 8180, 8183, 8215, 8179, 8190, 8327,5.775225877761841
87, 8228, 8221, 8207, 8226, 8192, 8184, 8178, 8186, 8187, 8176, 8209, 8191, 8186, 8335,5.783282279968262
88, 8233, 8219, 8179, 8225, 8182, 8199, 8188, 8207, 8206, 8179, 8210, 8197, 8215, 8353,5.791197299957275
89, 8236, 8219, 8183, 8218, 8202, 8208, 8192, 8223, 8214, 8187, 8191, 8184, 8208, 8343,5.800283432006836
90, 8204, 8190, 8150, 8204, 8176, 8189, 8182, 8192, 8204, 8171, 8156, 8154, 8161, 8301,5.807256698608398
91, 8169, 8174, 8158, 8179, 8195, 8176, 8155, 8173, 8176, 8154, 8135, 8145, 8134, 8260,5.815183877944946
92, 8155, 8165, 8149, 8164, 8173, 8174, 8142, 8168, 8159, 8159, 8140, 8147, 8132, 8240,5.822209358215332
93, 8146, 8158, 8127, 8151, 8159, 8170, 8151, 8158, 8157, 8159, 8142, 8127, 8110, 8220,5.8303608894348145
94, 8138, 8165, 8179, 8137, 8198, 8174, 8157, 8168, 8152, 8148, 8132, 8129, 8089, 8192,5.838034629821777
95, 8125, 8155, 8155, 8137, 8160, 8172, 8154, 8144, 8150, 8149, 8137, 8137, 8095, 8185,5.846282243728638
96, 8135, 8173, 8186, 8159, 8197, 8172, 8139, 8142, 8137, 8153, 8145, 8150, 8091, 8187,5.854250192642212
97, 8158, 8181, 8211, 8184, 8182, 8186, 8145, 8158, 8134, 8160, 8167, 8170, 8104, 8205,5.86211895942688
98, 8156, 8169, 8138, 8194, 8130, 8199, 8166, 8154, 8166, 8177, 8209, 8169, 8154, 8239,5.870319366455078
99, 8164, 8188, 8195, 8193, 8212, 8204, 8160, 8181, 8180, 8179, 8223, 8183, 8184, 8259,5.878249406814575
100, 8182, 8181, 8216, 8193, 8195, 8204, 8157, 8176, 8165, 8173, 8220, 8192, 8191, 8278,5.885212182998657
101, 8199, 8169, 8151, 8193, 8138, 8205, 8163, 8143, 8157, 8179, 8232, 8184, 8198, 8308,5.893263101577759
102, 8227, 8199, 8171, 8197, 8166, 8198, 8157, 8156, 8161, 8177, 8249, 8194, 8209, 8330,5.9011900424957275
103, 8246, 8219, 8202, 8208, 8189, 8190, 8156, 8187, 8177, 8175, 8254, 8200, 8224, 8341,5.909292936325073
104, 8234, 8198, 8184, 8214, 8179, 8195, 8170, 8197, 8190, 8187, 8237, 8188, 8218, 8341,5.917217493057251
105, 8200, 8162, 8129, 8189, 8147, 8185, 8173, 8170, 8184, 8182, 8213, 8165, 8194, 8325,5.925267219543457
106, 8191, 8176, 8176, 8165, 8200, 8170, 8145, 8181, 8162, 8160, 8187, 8159, 8159, 8293,5.933233022689819
107, 8193, 8178, 8203, 8164, 8187, 8174, 8139, 8190, 8156, 8161, 8179, 8165, 8140, 8273,5.941257476806641
108, 8157, 8152, 8124, 8166, 8144, 8192, 8165, 8154, 8165, 8168, 8174, 8146, 8142, 8257,5.949320316314697
109, 8133, 8169, 8174, 8162, 8226, 8200, 8160, 8168, 8155, 8155, 8148, 8139, 8121, 8226,5.95624303817749
110, 8144, 8167, 8194, 8170, 8183, 8197, 8151, 8177, 8157, 8158, 8153, 8151, 8124, 8225,5.964044570922852
111, 8155, 8153, 8119, 8189, 8112, 8203, 8166, 8154, 8178, 8172, 8190, 8159, 8169, 8259,5.972120761871338
112, 8161, 8176, 8150, 8204, 8184, 8219, 8175, 8172, 8193, 8175, 8204, 8176, 8191, 8277,5.980252742767334
113, 8163, 8189, 8192, 8203, 8210, 8230, 8179, 8190, 8197, 8181, 8196, 8176, 8185, 8266,5.98806357383728
114, 8160, 8186, 8184, 8199, 8171, 8226, 8186, 8187, 8198, 8183, 8195, 8165, 8183, 8262,5.99622368812561
115, 8151, 8175, 8135, 8194, 8139, 8211, 8199, 8177, 8204, 8179, 8192, 8159, 8187, 8277,6.004276752471924
116, 8149, 8174, 8154, 8181, 8187, 8193, 8195, 8190, 8186, 8172, 8164, 8150, 8164, 8262,6.011216163635254
117, 8167, 8182, 8188, 8182, 8182, 8188, 8180, 8195, 8171, 8169, 8153, 8158, 8149, 8259,6.019257307052612
118, 8180, 8181, 8138, 8188, 8138, 8183, 8166, 8168, 8187, 8167, 8168, 8159, 8167, 8298,6.027242660522461
119, 8182, 8183, 8207, 8171, 8222, 8171, 8141, 8191, 8170, 8159, 8156, 8169, 8160, 8296,6.035323143005371
120, 8173, 8165, 8222, 8157, 8181, 8160, 8137, 8193, 8152, 8163, 8153, 8179, 8164, 8274,6.043237686157227
121, 8169, 8158, 8133, 8162, 8113, 8165, 8145, 8151, 8171, 8173, 8166, 8167, 8178, 8289,6.051250219345093
122, 8184, 8167, 8162, 8161, 8167, 8174, 8138, 8156, 8162, 8170, 8155, 8172, 8160, 8294,6.059288024902344
123, 8188, 8161, 8166, 8172, 8147, 8171, 8147, 8161, 8144, 8159, 8160, 8173, 8165, 8282,6.067183494567871
124, 8194, 8187, 8176, 8199, 8167, 8173, 8158, 8167, 8154, 8164, 8185, 8173, 8190, 8288,6.075132608413696
125, 8201, 8191, 8198, 8198, 8187, 8171, 8152, 8163, 8158, 8171, 8195, 8183, 8193, 8296,6.083251237869263
126, 8191, 8168, 8164, 8185, 8160, 8157, 8141, 8147, 8148, 8160, 8191, 8175, 8187, 8292,6.0899879932403564
127, 8189, 8190, 8160, 8197, 8166, 8152, 8144, 8164, 8151, 8158, 8194, 8170, 8198, 8287,6.098306179046631
236, 8188, 8207, 8157, 8207, 8164, 8160, 8158, 8165, 8156, 8169, 8191, 8166, 8202, 8282,6.106058120727539
0, 8181, 8197, 8177, 8203, 8184, 8172, 8160, 8163, 8149, 8168, 8170, 8159, 8181, 8268,6.1140758991241455
1, 8175, 8177, 8162, 8188, 8158, 8172, 8163, 8175, 8155, 8161, 8167, 8155, 8178, 8263,6.122215747833252
2, 8172, 8172, 8151, 8165, 8163, 8167, 8168, 8189, 8165, 8164, 8166, 8146, 8173, 8253,6.130279779434204
3, 8169, 8172, 8212, 8155, 8206, 8163, 8165, 8209, 8163, 8159, 8155, 8151, 8148, 8238,6.138287782669067
4, 8158, 8145, 8157, 8153, 8127, 8156, 8166, 8187, 8174, 8150, 8163, 8145, 8156, 8249,6.1453471183776855
5, 8155, 8144, 8127, 8135, 8131, 8153, 8158, 8170, 8170, 8154, 8167, 8141, 8166, 8262,6.15307354927063
6, 8160, 8146, 8168, 8121, 8175, 8150, 8155, 8167, 8149, 8155, 8161, 8155, 8146, 8257,6.161292552947998
7, 8169, 8142, 8153, 8134, 8161, 8154, 8163, 8150, 8140, 8148, 8159, 8147, 8134, 8255,6.169196367263794
8, 8192, 8186, 8204, 8173, 8196, 8174, 8157, 8168, 8138, 8149, 8168, 8161, 8143, 8263,6.177272081375122
9, 8198, 8205, 8204, 8206, 8162, 8176, 8156, 8167, 8156, 8167, 8195, 8182, 8169, 8280,6.185241460800171
10, 8197, 8201, 8160, 8217, 8149, 8166, 8151, 8157, 8166, 8174, 8209, 8179, 8185, 8291,6.1932213306427
11, 8212, 8210, 8172, 8225, 8175, 8174, 8138, 8168, 8166, 8163, 8209, 8175, 8188, 8305,6.201361179351807
12, 8207, 8218, 8178, 8234, 8176, 8177, 8140, 8172, 8182, 8176, 8212, 8169, 8198, 8309,6.209272623062134
13, 8183, 8211, 8192, 8213, 8185, 8167, 8153, 8186, 8183, 8183, 8204, 8168, 8189, 8278,6.2162024974823
14, 8156, 8178, 8135, 8181, 8145, 8160, 8170, 8168, 8165, 8158, 8182, 8147, 8158, 8255,6.22428035736084
15, 8151, 8199, 8189, 8183, 8235, 8165, 8165, 8185, 8154, 8142, 8153, 8137, 8121, 8238,6.232314109802246
16, 8168, 8219, 8278, 8197, 8260, 8182, 8162, 8228, 8164, 8160, 8161, 8167, 8126, 8237,6.240218639373779
17, 8156, 8156, 8136, 8175, 8094, 8184, 8197, 8187, 8188, 8182, 8185, 8155, 8169, 8267,6.248314619064331
18, 8146, 8133, 8076, 8152, 8101, 8170, 8205, 8162, 8193, 8181, 8176, 8131, 8176, 8280,6.256352424621582
19, 8166, 8163, 8154, 8157, 8193, 8172, 8187, 8182, 8189, 8176, 8174, 8149, 8162, 8279,6.2643961906433105
20, 8176, 8168, 8178, 8162, 8203, 8190, 8188, 8189, 8194, 8176, 8190, 8165, 8166, 8286,6.272348403930664
21, 8175, 8162, 8184, 8153, 8186, 8184, 8193, 8190, 8190, 8172, 8189, 8174, 8168, 8289,6.279301643371582
22, 8175, 8164, 8171, 8155, 8166, 8178, 8198, 8175, 8183, 8172, 8181, 8176, 8167, 8288,6.287357330322266
23, 8179, 8169, 8167, 8169, 8177, 8201, 8203, 8171, 8195, 8174, 8189, 8171, 8172, 8291,6.295198917388916
24, 8182, 8166, 8146, 8180, 8160, 8208, 8194, 8166, 8222, 8179, 8213, 8172, 8189, 8304,6.3032708168029785
25, 8196, 8189, 8181, 8192, 8203, 8191, 8166, 8180, 8217, 8176, 8215, 8177, 8190, 8304,6.311294078826904
26, 8206, 8208, 8224, 8199, 8218, 8185, 8158, 8197, 8193, 8169, 8197, 8174, 8179, 8287,6.319352626800537
27, 8186, 8186, 8153, 8199, 8147, 8189, 8181, 8170, 8202, 8180, 8199, 8150, 8191, 8273,6.327215194702148
28, 8176, 8185, 8181, 8188, 8207, 8186, 8168, 8177, 8197, 8187, 8188, 8152, 8179, 8262,6.335278749465942
29, 8178, 8169, 8214, 8165, 8202, 8165, 8151, 8190, 8174, 8172, 8173, 8162, 8151, 8258,6.342037677764893
30, 8158, 8142, 8127, 8153, 8116, 8161, 8175, 8172, 8186, 8165, 8183, 8142, 8153, 8255,6.350200176239014
31, 8151, 8158, 8132, 8163, 8156, 8184, 8185, 8176, 8197, 8176, 8194, 8141, 8153, 8245,6.358203411102295
32, 8153, 8161, 8158, 8162, 8176, 8182, 8165, 8170, 8183, 8168, 8188, 8143, 8144, 8242,6.36605978012085
33, 8152, 8154, 8166, 8151, 8169, 8169, 8158, 8174, 8175, 8154, 8188, 8144, 8144, 8250,6.374210834503174
34, 8162, 8161, 8162, 8165, 8150, 8178, 8166, 8185, 8193, 8169, 8212, 8162, 8167, 8269,6.382245302200317
35, 8175, 8180, 8160, 8187, 8154, 8178, 8152, 8171, 8194, 8173, 8219, 8164, 8180, 8284,6.390262126922607
36, 8189, 8192, 8201, 8192, 8187, 8168, 8131, 8169, 8173, 8164, 8205, 8170, 8175, 8282,6.398268938064575
37, 8195, 8177, 8175, 8196, 8165, 8178, 8147, 8173, 8191, 8177, 8217, 8175, 8202, 8293,6.4051899909973145
38, 8201, 8196, 8189, 8199, 8192, 8193, 8157, 8185, 8214, 8191, 8225, 8178, 8215, 8305,6.413251161575317
39, 8200, 8209, 8204, 8197, 8172, 8174, 8142, 8174, 8203, 8182, 8214, 8182, 8198, 8297,6.421160697937012
40, 8182, 8186, 8151, 8190, 8145, 8156, 8138, 8148, 8190, 8165, 8205, 8166, 8185, 8287,6.429279565811157
41, 8179, 8183, 8190, 8191, 8210, 8173, 8152, 8175, 8189, 8159, 8201, 8171, 8175, 8287,6.437183856964111
42, 8183, 8182, 8184, 8197, 8163, 8178, 8168, 8179, 8191, 8164, 8197, 8175, 8175, 8291,6.445228338241577
43, 8182, 8182, 8150, 8188, 8133, 8168, 8157, 8161, 8177, 8160, 8179, 8162, 8163, 8281,6.45321249961853
44, 8178, 8173, 8158, 8168, 8157, 8170, 8142, 8159, 8166, 8159, 8162, 8162, 8144, 8269,6.460269212722778
45, 8160, 8149, 8145, 8154, 8161, 8175, 8142, 8158, 8170, 8160, 8170, 8155, 8149, 8265,6.468079566955566
46, 8141, 8152, 8205, 8145, 8205, 8173, 8131, 8193, 8161, 8146, 8177, 8157, 8147, 8247,6.476243734359741
47, 8141, 8145, 8198, 8148, 8159, 8176, 8141, 8193, 8163, 8143, 8173, 8158, 8136, 8235,6.4842002391815186
48, 8167, 8151, 8136, 8175, 8127, 8199, 8168, 8166, 8183, 8159, 8186, 8155, 8155, 8260,6.4920549392700195
49, 8194, 8169, 8152, 8196, 8162, 8211, 8176, 8171, 8193, 8164, 8212, 8168, 8192, 8295,6.500190019607544
50, 8191, 8174, 8171, 8201, 8178, 8191, 8165, 8176, 8191, 8168, 8226, 8173, 8193, 8302,6.508282423019409
51, 8192, 8191, 8196, 8212, 8193, 8188, 8160, 8183, 8189, 8182, 8221, 8179, 8182, 8295,6.516193866729736
52, 8197, 8193, 8166, 8225, 8158, 8204, 8168, 8167, 8202, 8187, 8228, 8183, 8210, 8305,6.523129224777222
53, 8193, 8191, 8174, 8217, 8201, 8203, 8151, 8165, 8204, 8184, 8229, 8184, 8224, 8305,6.530998229980469
54, 8198, 8190, 8222, 8203, 8230, 8203, 8139, 8185, 8190, 8188, 8215, 8191, 8203, 8294,6.540022373199463
55, 8187, 8177, 8153, 8198, 8144, 8212, 8157, 8167, 8190, 8180, 8199, 8169, 8185, 8282,6.546989917755127
56, 8166, 8178, 8143, 8188, 8160, 8197, 8158, 8168, 8185, 8160, 8184, 8152, 8164, 8259,6.555004358291626
57, 8151, 8152, 8164, 8169, 8173, 8175, 8153, 8168, 8176, 8158, 8185, 8159, 8158, 8257,6.562968730926514
58, 8141, 8137, 8148, 8161, 8155, 8180, 8159, 8159, 8170, 8163, 8177, 8151, 8155, 8258,6.57108998298645
59, 8142, 8160, 8184, 8160, 8181, 8185, 8147, 8176, 8163, 8155, 8162, 8152, 8130, 8231,6.579113483428955
60, 8137, 8148, 8170, 8149, 8161, 8181, 8141, 8165, 8165, 8157, 8170, 8150, 8132, 8220,6.587093114852905
61, 8149, 8146, 8167, 8159, 8170, 8188, 8152, 8156, 8171, 8173, 8191, 8154, 8158, 8247,6.595116138458252
62, 8173, 8164, 8147, 8183, 8151, 8188, 8158, 8148, 8184, 8175, 8212, 8165, 8176, 8269,6.602091312408447
63, 8186, 8181, 8147, 8190, 8169, 8187, 8148, 8145, 8189, 8170, 8217, 8168, 8180, 8274,6.610135555267334
64, 8208, 8198, 8230, 8205, 8219, 8207, 8147, 8172, 8182, 8182, 8219, 8192, 8189, 8303,6.618028879165649
65, 8225, 8197, 8189, 8227, 8151, 8225, 8169, 8165, 8201, 8196, 8245, 8201, 8231, 8348,6.626067399978638
66, 8228, 8217, 8170, 8237, 8180, 8233, 8171, 8165, 8218, 8192, 8239, 8192, 8243, 8349,6.634139537811279
67, 8223, 8225, 8221, 8237, 8232, 8232, 8163, 8189, 8213, 8190, 8214, 8199, 8233, 8337,6.642136573791504
68, 8211, 8202, 8189, 8237, 8183, 8221, 8174, 8189, 8207, 8193, 8219, 8192, 8235, 8343,6.650321960449219
69, 8198, 8179, 8152, 8225, 8151, 8207, 8181, 8181, 8192, 8181, 8206, 8165, 8203, 8322,6.658056259155273
70, 8181, 8159, 8126, 8186, 8135, 8200, 8181, 8169, 8176, 8163, 8170, 8142, 8161, 8285,6.666353225708008
71, 8186, 8171, 8180, 8158, 8192, 8204, 8174, 8192, 8179, 8157, 8166, 8161, 8156, 8268,6.673219442367554
72, 8194, 8180, 8215, 8158, 8193, 8191, 8170, 8204, 8190, 8165, 8190, 8179, 8167, 8277,6.681340932846069
73, 8172, 8157, 8153, 8154, 8139, 8167, 8169, 8173, 8187, 8168, 8177, 8149, 8152, 8275,6.689164638519287
74, 8162, 8141, 8136, 8148, 8136, 8175, 8165, 8164, 8179, 8159, 8166, 8143, 8145, 8262,6.697194576263428
75, 8171, 8142, 8130, 8159, 8134, 8195, 8165, 8158, 8184, 8165, 8199, 8159, 8175, 8272,6.705207824707031
76, 8174, 8172, 8192, 8167, 8207, 8196, 8155, 8179, 8165, 8173, 8201, 8171, 8175, 8274,6.713273525238037
77, 8178, 8184, 8234, 8179, 8195, 8200, 8162, 8190, 8150, 8167, 8192, 8190, 8168, 8284,6.721108913421631
78, 8189, 8169, 8153, 8216, 8112, 8215, 8201, 8163, 8173, 8174, 8225, 8189, 8208, 8321,6.730314493179321
79, 8193, 8183, 8146, 8222, 8147, 8225, 8214, 8167, 8188, 8190, 8251, 8189, 8245, 8330,6.736212491989136
80, 8186, 8193, 8159, 8203, 8155, 8213, 8197, 8158, 8184, 8195, 8241, 8189, 8243, 8314,6.7440407276153564
81, 8198, 8208, 8189, 8215, 8185, 8200, 8178, 8145, 8173, 8191, 8221, 8186, 8223, 8310,6.7521302700042725
82, 8225, 8220, 8226, 8237, 8206, 8208, 8173, 8154, 8167, 8189, 8225, 8204, 8233, 8331,6.760275840759277
83, 8210, 8201, 8169, 8229, 8155, 8218, 8176, 8149, 8182, 8198, 8239, 8207, 8262, 8355,6.768150091171265
84, 8188, 8201, 8160, 8219, 8172, 8214, 8165, 8154, 8196, 8201, 8232, 8192, 8252, 8345,6.776204586029053
85, 8194, 8194, 8161, 8223, 8177, 8203, 8161, 8152, 8191, 8194, 8207, 8172, 8225, 8316,6.784319877624512
86, 8187, 8172, 8149, 8203, 8178, 8204, 8166, 8157, 8178, 8189, 8179, 8161, 8204, 8294,6.792356967926025
87, 8147, 8154, 8154, 8169, 8174, 8210, 8172, 8178, 8181, 8179, 8161, 8158, 8175, 8278,6.8002166748046875
88, 8122, 8148, 8147, 8154, 8165, 8203, 8181, 8180, 8185, 8174, 8165, 8141, 8156, 8259,6.807276248931885
89, 8155, 8171, 8213, 8161, 8220, 8204, 8190, 8207, 8182, 8174, 8173, 8156, 8156, 8254,6.815185308456421
90, 8167, 8158, 8173, 8166, 8163, 8219, 8221, 8204, 8205, 8175, 8181, 8178, 8175, 8275,6.823222398757935
91, 8144, 8156, 8122, 8175, 8152, 8228, 8231, 8188, 8219, 8178, 8180, 8160, 8183, 8281,6.831218004226685
92, 8162, 8185, 8197, 8195, 8208, 8224, 8206, 8208, 8199, 8180, 8177, 8161, 8176, 8267,6.839269161224365
93, 8180, 8178, 8160, 8193, 8156, 8206, 8195, 8182, 8191, 8176, 8190, 8169, 8180, 8268,6.847093820571899
94, 8184, 8195, 8175, 8193, 8206, 8203, 8185, 8177, 8188, 8177, 8197, 8184, 8192, 8285,6.85504674911499
95, 8194, 8223, 8248, 8229, 8240, 8205, 8168, 8194, 8176, 8191, 8215, 8206, 8217, 8299,6.863219261169434
96, 8195, 8212, 8174, 8249, 8146, 8188, 8157, 8152, 8175, 8196, 8237, 8196, 8238, 8305,6.870040416717529
97, 8196, 8197, 8118, 8223, 8130, 8169, 8144, 8122, 8166, 8179, 8234, 8183, 8231, 8314,6.878013372421265
98, 8206, 8197, 8160, 8207, 8193, 8167, 8134, 8144, 8147, 8167, 8223, 8187, 8220, 8322,6.8862690925598145
99, 8208, 8210, 8213, 8220, 8217, 8179, 8132, 8168, 8135, 8170, 8224, 8191, 8207, 8309,6.894019603729248
100, 8184, 8189, 8150, 8216, 8140, 8180, 8142, 8137, 8139, 8176, 8231, 8176, 8201, 8294,6.902273654937744
101, 8156, 8168, 8138, 8181, 8186, 8178, 8150, 8146, 8145, 8174, 8209, 8159, 8186, 8284,6.91022801399231
102, 8148, 8166, 8232, 8154, 8268, 8180, 8149, 8204, 8143, 8181, 8177, 8174, 8161, 8271,6.918245553970337
103, 8145, 8135, 8160, 8160, 8149, 8174, 8157, 8167, 8160, 8189, 8183, 8166, 8171, 8272,6.926229000091553
104, 8151, 8140, 8109, 8170, 8124, 8175, 8159, 8142, 8179, 8184, 8190, 8144, 8189, 8266,6.9342732429504395
105, 8151, 8169, 8168, 8166, 8190, 8193, 8165, 8190, 8194, 8190, 8187, 8154, 8185, 8262,6.94118070602417
106, 8132, 8164, 8152, 8170, 8182, 8207, 8184, 8201, 8212, 8199, 8188, 8159, 8180, 8271,6.949306964874268
107, 8147, 8170, 8173, 8188, 8203, 8203, 8178, 8201, 8207, 8187, 8184, 8161, 8172, 8257,6.957215785980225
108, 8177, 8187, 8198, 8209, 8192, 8195, 8168, 8195, 8195, 8186, 8183, 8167, 8170, 8234,6.965246915817261
109, 8176, 8194, 8178, 8223, 8173, 8200, 8172, 8172, 8188, 8188, 8181, 8164, 8167, 8237,6.97319769859314
110, 8173, 8176, 8142, 8219, 8154, 8193, 8163, 8149, 8175, 8173, 8178, 8166, 8165, 8264,6.981311798095703
111, 8201, 8178, 8146, 8221, 8167, 8172, 8137, 8141, 8152, 8167, 8187, 8175, 8180, 8286,6.989238262176514
112, 8225, 8211, 8210, 8230, 8210, 8170, 8125, 8153, 8137, 8177, 8194, 8193, 8200, 8287,6.997068405151367
113, 8203, 8190, 8173, 8205, 8172, 8180, 8137, 8139, 8140, 8173, 8185, 8180, 8202, 8288,7.004172325134277
114, 8189, 8176, 8164, 8178, 8195, 8175, 8137, 8153, 8131, 8154, 8172, 8166, 8176, 8290,7.012295246124268
115, 8205, 8191, 8196, 8194, 8189, 8170, 8151, 8184, 8136, 8160, 8183, 8180, 8178, 8296,7.020114898681641
116, 8195, 8186, 8149, 8204, 8148, 8179, 8180, 8181, 8165, 8182, 8187, 8165, 8203, 8294,7.028268575668335
117, 8175, 8185, 8197, 8170, 8221, 8185, 8169, 8204, 8168, 8180, 8159, 8161, 8175, 8272,7.036189079284668
118, 8161, 8172, 8184, 8155, 8180, 8178, 8166, 8198, 8173, 8176, 8161, 8169, 8159, 8272,7.044277667999268
119, 8151, 8177, 8122, 8184, 8145, 8174, 8190, 8185, 8204, 8189, 8189, 8163, 8192, 8283,7.052175283432007
120, 8165, 8197, 8177, 8201, 8206, 8186, 8200, 8213, 8215, 8201, 8200, 8174, 8213, 8277,7.060265064239502
121, 8177, 8181, 8181, 8188, 8185, 8184, 8197, 8199, 8206, 8194, 8192, 8170, 8196, 8269,7.06712794303894
122, 8178, 8172, 8154, 8182, 8166, 8174, 8180, 8174, 8196, 8185, 8174, 8160, 8172, 8266,7.075230598449707
123, 8178, 8182, 8142, 8199, 8156, 8183, 8174, 8175, 8203, 8190, 8184, 8172, 8189, 8270,7.083192586898804
124, 8185, 8205, 8170, 8220, 8186, 8206, 8182, 8191, 8207, 8193, 8199, 8181, 8202, 8265,7.09126615524292
125, 8213, 8224, 8218, 8227, 8209, 8206, 8176, 8189, 8185, 8189, 8192, 8183, 8185, 8263,7.09904146194458
126, 8233, 8225, 8189, 8226, 8175, 8177, 8155, 8162, 8167, 8187, 8195, 8179, 8195, 8286,7.107347249984741
127, 8240, 8232, 8203, 8232, 8198, 8160, 8144, 8169, 8163, 8187, 8212, 8195, 8226, 8314,7.115196466445923
236, 8239, 8219, 8193, 8229, 8181, 8156, 8156, 8166, 8151, 8181, 8223, 8198, 8234, 8334,7.1232264041900635
0, 8215, 8201, 8149, 8208, 8162, 8154, 8157, 8147, 8118, 8167, 8197, 8168, 8208, 8327,7.130165338516235
1, 8173, 8189, 8165, 8187, 8182, 8158, 8150, 8164, 8100, 8158, 8165, 8162, 8176, 8296,7.138303518295288
2, 8141, 8156, 8140, 8166, 8154, 8163, 8165, 8166, 8129, 8169, 8173, 8168, 8184, 8293,7.146122455596924
3, 8159, 8164, 8173, 8157, 8191, 8179, 8177, 8186, 8159, 8187, 8189, 8185, 8210, 8315,7.154343128204346
4, 8176, 8183, 8211, 8177, 8189, 8189, 8179, 8210, 8180, 8193, 8186, 8203, 8212, 8325,7.1622889041900635
5, 8158, 8166, 8151, 8186, 8142, 8185, 8186, 8198, 8199, 8194, 8175, 8176, 8196, 8301,7.170376777648926
6, 8156, 8165, 8136, 8166, 8162, 8185, 8191, 8190, 8203, 8191, 8181, 8159, 8191, 8278,7.178279638290405
7, 8161, 8174, 8140, 8154, 8159, 8189, 8191, 8176, 8200, 8183, 8188, 8165, 8188, 8284,7.186344623565674
8, 8159, 8185, 8181, 8161, 8185, 8192, 8179, 8187, 8196, 8176, 8178, 8169, 8156, 8280,7.194313287734985
9, 8164, 8171, 8174, 8176, 8158, 8189, 8183, 8183, 8199, 8183, 8183, 8166, 8149, 8273,7.201315641403198
10, 8178, 8171, 8158, 8182, 8168, 8184, 8193, 8175, 8208, 8194, 8185, 8169, 8164, 8279,7.209241628646851
11, 8197, 8201, 8245, 8191, 8238, 8188, 8188, 8211, 8202, 8187, 8165, 8191, 8151, 8281,7.217292547225952
12, 8192, 8177, 8184, 8188, 8149, 8184, 8185, 8180, 8192, 8171, 8150, 8175, 8154, 8284,7.225165128707886
13, 8181, 8166, 8135, 8166, 8142, 8170, 8168, 8137, 8166, 8161, 8136, 8154, 8156, 8278,7.233256816864014
14, 8194, 8193, 8217, 8168, 8202, 8165, 8152, 8160, 8133, 8160, 8129, 8179, 8146, 8279,7.241211414337158
15, 8201, 8194, 8188, 8192, 8145, 8166, 8161, 8159, 8133, 8166, 8140, 8185, 8165, 8302,7.249038934707642
16, 8193, 8188, 8147, 8184, 8139, 8173, 8163, 8150, 8144, 8169, 8147, 8175, 8190, 8317,7.257187604904175
17, 8177, 8173, 8152, 8151, 8155, 8173, 8162, 8158, 8150, 8168, 8152, 8171, 8194, 8308,7.264263868331909
18, 8164, 8165, 8168, 8146, 8159, 8169, 8177, 8180, 8156, 8166, 8155, 8171, 8191, 8295,7.272038221359253
19, 8159, 8150, 8141, 8151, 8137, 8176, 8199, 8180, 8168, 8166, 8150, 8170, 8188, 8295,7.280238151550293
20, 8152, 8143, 8127, 8139, 8149, 8179, 8200, 8173, 8172, 8174, 8138, 8155, 8171, 8289,7.288284540176392
21, 8152, 8170, 8211, 8139, 8199, 8170, 8184, 8203, 8164, 8176, 8124, 8165, 8161, 8277,7.2963738441467285
22, 8164, 8168, 8182, 8157, 8131, 8160, 8189, 8188, 8178, 8172, 8142, 8182, 8188, 8294,7.304205656051636
23, 8189, 8173, 8147, 8175, 8133, 8163, 8191, 8163, 8186, 8176, 8160, 8178, 8202, 8321,7.312267303466797
24, 8209, 8197, 8204, 8181, 8190, 8161, 8170, 8177, 8167, 8181, 8154, 8180, 8184, 8321,7.320212125778198
25, 8193, 8194, 8174, 8182, 8158, 8150, 8164, 8164, 8158, 8166, 8159, 8171, 8180, 8299,7.3272385597229
26, 8187, 8197, 8184, 8191, 8182, 8155, 8175, 8169, 8156, 8156, 8169, 8177, 8190, 8288,7.335186719894409
27, 8210, 8202, 8206, 8198, 8179, 8164, 8188, 8175, 8150, 8171, 8175, 8193, 8207, 8314,7.343263149261475
28, 8214, 8202, 8176, 8192, 8159, 8159, 8180, 8162, 8142, 8175, 8171, 8187, 8219, 8329,7.351151704788208
29, 8190, 8191, 8167, 8176, 8159, 8151, 8159, 8153, 8131, 8163, 8164, 8181, 8216, 8307,7.3592681884765625
30, 8161, 8173, 8150, 8169, 8142, 8148, 8156, 8137, 8127, 8168, 8164, 8171, 8202, 8281,7.367182731628418
31, 8153, 8180, 8168, 8170, 8170, 8157, 8163, 8147, 8129, 8174, 8155, 8157, 8172, 8259,7.374982595443726
32, 8137, 8164, 8135, 8154, 8142, 8167, 8184, 8158, 8148, 8169, 8144, 8144, 8168, 8247,7.38321590423584
33, 8122, 8161, 8148, 8148, 8173, 8171, 8193, 8180, 8160, 8166, 8131, 8145, 8175, 8238,7.391266107559204
34, 8152, 8200, 8236, 8179, 8219, 8169, 8189, 8214, 8160, 8167, 8138, 8171, 8166, 8243,7.398053407669067
35, 8167, 8192, 8161, 8192, 8134, 8157, 8196, 8189, 8181, 8173, 8160, 8166, 8178, 8265,7.4062340259552
36, 8148, 8165, 8121, 8163, 8141, 8145, 8181, 8171, 8179, 8175, 8155, 8159, 8182, 8273,7.414069175720215
37, 8148, 8161, 8158, 8151, 8151, 8135, 8150, 8159, 8149, 8164, 8150, 8171, 8170, 8272,7.4222400188446045
38, 8159, 8181, 8163, 8171, 8149, 8135, 8139, 8139, 8134, 8151, 8158, 8162, 8162, 8269,7.43020486831665
39, 8144, 8199, 8213, 8167, 8209, 8144, 8145, 8159, 8136, 8157, 8158, 8161, 8159, 8257,7.438188076019287
40, 8136, 8177, 8190, 8148, 8154, 8137, 8154, 8153, 8154, 8164, 8169, 8170, 8178, 8263,7.4462761878967285
41, 8169, 8171, 8148, 8171, 8104, 8121, 8145, 8125, 8156, 8158, 8188, 8181, 8206, 8292,7.454339981079102
42, 8187, 8184, 8153, 8189, 8132, 8127, 8140, 8126, 8145, 8158, 8189, 8185, 8208, 8312,7.4612791538238525
43, 8168, 8185, 8167, 8171, 8172, 8160, 8162, 8166, 8154, 8162, 8171, 8172, 8194, 8303,7.4692559242248535
44, 8166, 8180, 8182, 8157, 8166, 8182, 8183, 8201, 8171, 8162, 8161, 8173, 8199, 8289,7.477024793624878
45, 8168, 8170, 8155, 8165, 8133, 8169, 8183, 8179, 8167, 8168, 8160, 8166, 8206, 8287,7.485255718231201
46, 8178, 8195, 8234, 8184, 8224, 8163, 8164, 8196, 8152, 8169, 8151, 8174, 8188, 8291,7.493156909942627
47, 8186, 8193, 8243, 8190, 8190, 8164, 8167, 8206, 8171, 8169, 8166, 8198, 8200, 8309,7.501006603240967
48, 8162, 8157, 8114, 8173, 8090, 8147, 8184, 8151, 8199, 8181, 8182, 8176, 8221, 8316,7.509162902832031
49, 8145, 8161, 8156, 8155, 8168, 8145, 8173, 8165, 8188, 8179, 8162, 8154, 8197, 8284,7.517233371734619
50, 8141, 8154, 8173, 8158, 8167, 8159, 8175, 8195, 8189, 8174, 8153, 8154, 8187, 8267,7.524038553237915
51, 8141, 8152, 8127, 8161, 8148, 8169, 8194, 8187, 8215, 8186, 8163, 8153, 8203, 8279,7.5322582721710205
52, 8155, 8171, 8189, 8162, 8196, 8170, 8194, 8200, 8220, 8187, 8162, 8163, 8190, 8275,7.5401222705841064
53, 8160, 8175, 8197, 8173, 8163, 8163, 8196, 8204, 8209, 8175, 8158, 8161, 8177, 8264,7.548250436782837
54, 8162, 8187, 8160, 8188, 8136, 8173, 8208, 8193, 8210, 8182, 8156, 8164, 8194, 8285,7.556206464767456
55, 8168, 8186, 8157, 8195, 8149, 8188, 8205, 8173, 8217, 8199, 8167, 8178, 8215, 8318,7.564231872558594
56, 8171, 8176, 8195, 8189, 8179, 8173, 8174, 8158, 8195, 8191, 8171, 8178, 8201, 8299,7.5721964836120605
57, 8165, 8160, 8170, 8183, 8141, 8145, 8149, 8132, 8167, 8170, 8160, 8166, 8184, 8271,7.580068111419678
58, 8164, 8160, 8134, 8177, 8138, 8147, 8148, 8128, 8165, 8166, 8154, 8156, 8192, 8291,7.587989568710327
59, 8191, 8201, 8233, 8176, 8225, 8167, 8158, 8186, 8173, 8170, 8158, 8179, 8190, 8303,7.594998598098755
60, 8201, 8193, 8214, 8184, 8163, 8171, 8183, 8190, 8182, 8175, 8169, 8184, 8191, 8294,7.603072881698608
61, 8170, 8156, 8112, 8177, 8108, 8166, 8191, 8164, 8189, 8175, 8164, 8162, 8194, 8291,7.610998153686523
62, 8167, 8165, 8136, 8160, 8141, 8168, 8181, 8184, 8194, 8167, 8155, 8166, 8180, 8291,7.619034767150879
63, 8188, 8186, 8156, 8160, 8135, 8172, 8187, 8191, 8203, 8170, 8163, 8166, 8179, 8296,7.627063512802124
64, 8188, 8190, 8213, 8167, 8201, 8172, 8182, 8217, 8199, 8181, 8162, 8171, 8179, 8289,7.635138750076294
65, 8162, 8169, 8212, 8153, 8179, 8164, 8173, 8218, 8205, 8175, 8150, 8175, 8169, 8283,7.643241882324219
66, 8147, 8163, 8142, 8145, 8108, 8163, 8180, 8181, 8225, 8168, 8152, 8153, 8170, 8284,7.6509974002838135
67, 8163, 8172, 8157, 8159, 8133, 8176, 8189, 8182, 8227, 8191, 8169, 8156, 8196, 8289,7.659228324890137
68, 8175, 8164, 8160, 8163, 8142, 8180, 8187, 8176, 8216, 8205, 8168, 8165, 8204, 8288,7.666088819503784
69, 8186, 8183, 8184, 8168, 8171, 8170, 8162, 8169, 8192, 8177, 8140, 8165, 8165, 8276,7.674139976501465
70, 8198, 8193, 8182, 8190, 8153, 8161, 8147, 8162, 8176, 8160, 8155, 8174, 8173, 8294,7.68218207359314
71, 8201, 8188, 8171, 8202, 8151, 8168, 8147, 8162, 8177, 8175, 8189, 8183, 8223, 8323,7.6902594566345215
72, 8204, 8192, 8230, 8199, 8194, 8170, 8135, 8170, 8168, 8178, 8177, 8192, 8215, 8326,7.698174238204956
73, 8195, 8164, 8182, 8189, 8147, 8154, 8141, 8144, 8156, 8169, 8160, 8172, 8188, 8312,7.7062389850616455
74, 8167, 8150, 8133, 8174, 8141, 8160, 8159, 8149, 8156, 8168, 8159, 8150, 8188, 8288,7.714194297790527
75, 8131, 8146, 8133, 8158, 8145, 8181, 8173, 8168, 8169, 8174, 8166, 8150, 8201, 8271,7.722198963165283
76, 8120, 8143, 8143, 8155, 8149, 8179, 8182, 8168, 8179, 8177, 8164, 8147, 8203, 8269,7.729148626327515
77, 8140, 8162, 8195, 8166, 8183, 8167, 8182, 8192, 8180, 8181, 8144, 8154, 8184, 8269,7.737263202667236
78, 8128, 8148, 8160, 8156, 8146, 8160, 8184, 8191, 8190, 8184, 8129, 8153, 8171, 8265,7.7451817989349365
79, 8095, 8120, 8124, 8128, 8133, 8158, 8187, 8180, 8195, 8184, 8129, 8146, 8175, 8248,7.75323486328125
80, 8115, 8134, 8144, 8152, 8130, 8163, 8192, 8183, 8200, 8192, 8142, 8155, 8190, 8239,7.761102676391602
81, 8160, 8179, 8174, 8211, 8158, 8175, 8194, 8185, 8210, 8195, 8142, 8163, 8195, 8256,7.769249677658081
82, 8169, 8197, 8208, 8224, 8195, 8182, 8192, 8189, 8198, 8188, 8144, 8177, 8178, 8271,7.777019500732422
83, 8153, 8175, 8166, 8213, 8153, 8183, 8195, 8162, 8180, 8176, 8156, 8175, 8170, 8263,7.785085201263428
84, 8169, 8198, 8211, 8228, 8212, 8190, 8188, 8167, 8159, 8158, 8151, 8175, 8160, 8244,7.793209075927734
85, 8184, 8210, 8241, 8233, 8216, 8189, 8187, 8170, 8148, 8157, 8159, 8188, 8156, 8258,7.800111293792725
86, 8163, 8178, 8134, 8220, 8130, 8176, 8195, 8125, 8159, 8165, 8186, 8175, 8168, 8292,7.808062553405762
87, 8165, 8195, 8160, 8227, 8182, 8180, 8190, 8136, 8159, 8165, 8189, 8177, 8178, 8303,7.816264390945435
88, 8173, 8209, 8190, 8235, 8179, 8186, 8189, 8155, 8152, 8175, 8185, 8181, 8194, 8303,7.824191570281982
89, 8159, 8186, 8150, 8204, 8157, 8181, 8190, 8148, 8150, 8181, 8186, 8164, 8196, 8289,7.832126140594482
90, 8159, 8166, 8182, 8166, 8195, 8182, 8190, 8161, 8145, 8171, 8170, 8171, 8177, 8266,7.840185880661011
91, 8147, 8152, 8178, 8158, 8166, 8178, 8201, 8164, 8135, 8162, 8136, 8167, 8161, 8246,7.84822940826416
92, 8118, 8139, 8134, 8149, 8134, 8173, 8203, 8157, 8131, 8154, 8109, 8140, 8144, 8227,7.855238437652588
93, 8104, 8123, 8103, 8134, 8122, 8179, 8204, 8145, 8153, 8159, 8117, 8126, 8141, 8216,7.863311052322388
94, 8124, 8143, 8175, 8145, 8197, 8197, 8202, 8170, 8169, 8180, 8129, 8146, 8151, 8215,7.871112823486328
95, 8151, 8160, 8217, 8165, 8202, 8208, 8197, 8186, 8170, 8187, 8141, 8174, 8171, 8243,7.87917947769165
96, 8155, 8155, 8139, 8173, 8136, 8205, 8197, 8161, 8183, 8181, 8168, 8167, 8195, 8283,7.88716983795166
97, 8166, 8195, 8196, 8191, 8207, 8208, 8201, 8194, 8188, 8181, 8177, 8174, 8193, 8292,7.89525842666626
98, 8176, 8205, 8221, 8214, 8185, 8206, 8211, 8205, 8180, 8179, 8180, 8189, 8200, 8294,7.903018236160278
99, 8169, 8182, 8134, 8213, 8114, 8190, 8200, 8160, 8174, 8172, 8194, 8179, 8219, 8311,7.91133189201355
100, 8179, 8201, 8170, 8213, 8170, 8183, 8180, 8165, 8161, 8173, 8198, 8187, 8216, 8324,7.919227123260498
101, 8205, 8210, 8207, 8217, 8186, 8187, 8197, 8179, 8164, 8174, 8202, 8194, 8223, 8332,7.926040887832642
102, 8217, 8195, 8187, 8207, 8167, 8181, 8205, 8172, 8175, 8177, 8191, 8184, 8226, 8332,7.934103965759277
103, 8205, 8189, 8158, 8208, 8152, 8173, 8182, 8170, 8169, 8191, 8177, 8175, 8210, 8323,7.942352533340454
104, 8195, 8208, 8171, 8221, 8176, 8187, 8179, 8190, 8161, 8193, 8180, 8176, 8205, 8308,7.950196266174316
105, 8186, 8199, 8187, 8214, 8161, 8201, 8207, 8205, 8177, 8192, 8195, 8184, 8225, 8307,7.958240509033203
106, 8158, 8162, 8133, 8195, 8133, 8202, 8232, 8190, 8205, 8202, 8192, 8170, 8241, 8324,7.966122150421143
107, 8147, 8180, 8190, 8184, 8233, 8205, 8217, 8207, 8192, 8196, 8160, 8164, 8204, 8310,7.974289178848267
108, 8147, 8175, 8214, 8168, 8202, 8205, 8204, 8204, 8178, 8186, 8150, 8165, 8182, 8282,7.982113361358643
109, 8124, 8143, 8121, 8158, 8102, 8203, 8218, 8180, 8205, 8194, 8172, 8148, 8217, 8284,7.9892613887786865
110, 8107, 8150, 8136, 8149, 8151, 8199, 8209, 8197, 8217, 8192, 8176, 8151, 8226, 8284,7.997104167938232
111, 8111, 8146, 8139, 8140, 8152, 8183, 8181, 8172, 8192, 8175, 8156, 8140, 8189, 8263,8.005195379257202
112, 8145, 8156, 8149, 8163, 8162, 8178, 8168, 8153, 8180, 8173, 8146, 8138, 8173, 8263,8.013123512268066
113, 8205, 8191, 8212, 8200, 8197, 8185, 8172, 8183, 8195, 8179, 8162, 8186, 8205, 8307,8.021296739578247
114, 8235, 8200, 8213, 8212, 8178, 8162, 8158, 8175, 8185, 8166, 8162, 8192, 8209, 8316,8.029073476791382
115, 8230, 8203, 8206, 8215, 8163, 8137, 8125, 8143, 8138, 8151, 8141, 8156, 8161, 8271,8.037237167358398
116, 8222, 8203, 8184, 8223, 8141, 8143, 8123, 8129, 8131, 8165, 8156, 8151, 8157, 8262,8.045205116271973
117, 8216, 8206, 8185, 8219, 8165, 8163, 8136, 8151, 8159, 8187, 8185, 8172, 8200, 8287,8.053040742874146
118, 8195, 8198, 8155, 8204, 8140, 8167, 8145, 8150, 8168, 8182, 8188, 8171, 8221, 8300,8.06002426147461
119, 8164, 8185, 8123, 8184, 8135, 8156, 8153, 8141, 8162, 8162, 8165, 8155, 8201, 8292,8.068197250366211
120, 8159, 8190, 8215, 8167, 8223, 8162, 8163, 8197, 8161, 8155, 8146, 8180, 8178, 8283,8.07606816291809
121, 8144, 8173, 8189, 8155, 8164, 8168, 8181, 8209, 8176, 8168, 8151, 8184, 8195, 8299,8.08425760269165
122, 8130, 8170, 8134, 8161, 8125, 8164, 8188, 8187, 8188, 8180, 8149, 8164, 8210, 8313,8.092211246490479
123, 8151, 8185, 8180, 8181, 8161, 8173, 8196, 8212, 8206, 8190, 8158, 8183, 8210, 8314,8.100261211395264
124, 8153, 8174, 8145, 8179, 8124, 8183, 8210, 8213, 8231, 8196, 8180, 8179, 8220, 8311,8.108033895492554
125, 8133, 8176, 8138, 8164, 8148, 8176, 8191, 8200, 8224, 8190, 8170, 8157, 8208, 8286,8.116234302520752
126, 8122, 8173, 8167, 8157, 8171, 8163, 8172, 8187, 8205, 8179, 8152, 8154, 8181, 8252,8.1232430934906
127, 8117, 8165, 8160, 8166, 8159, 8172, 8186, 8185, 8212, 8183, 8160, 8153, 8184, 8241,8.131147623062134
236, 8110, 8176, 8158, 8187, 8153, 8186, 8198, 8189, 8230, 8194, 8175, 8159, 8219, 8260,8.13914179801941
0, 8107, 8188, 8164, 8187, 8165, 8180, 8192, 8177, 8234, 8195, 8187, 8166, 8235, 8272,8.147249937057495
1, 8125, 8193, 8188, 8170, 8171, 8172, 8185, 8176, 8222, 8185, 8191, 8169, 8210, 8262,8.155070781707764
2, 8129, 8173, 8125, 8162, 8095, 8169, 8191, 8149, 8213, 8172, 8184, 8155, 8199, 8265,8.163259267807007
3, 8129, 8185, 8156, 8162, 8175, 8178, 8188, 8153, 8199, 8161, 8169, 8158, 8199, 8270,8.171170473098755
4, 8148, 8194, 8253, 8160, 8247, 8190, 8189, 8180, 8185, 8159, 8168, 8181, 8192, 8261,8.179025173187256
5, 8141, 8145, 8153, 8144, 8120, 8183, 8195, 8134, 8192, 8177, 8176, 8162, 8198, 8268,8.186151266098022
6, 8124, 8139, 8142, 8120, 8140, 8170, 8165, 8131, 8187, 8184, 8161, 8161, 8196, 8281,8.194242477416992
7, 8127, 8142, 8192, 8111, 8170, 8165, 8151, 8161, 8185, 8176, 8155, 8178, 8196, 8283,8.202133655548096
8, 8137, 8131, 8136, 8126, 8124, 8164, 8173, 8156, 8206, 8179, 8158, 8149, 8195, 8271,8.210253953933716
9, 8142, 8151, 8162, 8128, 8179, 8163, 8171, 8177, 8214, 8183, 8148, 8140, 8169, 8254,8.218138933181763
10, 8132, 8160, 8193, 8118, 8187, 8163, 8178, 8199, 8219, 8177, 8161, 8162, 8169, 8259,8.226267576217651
11, 8128, 8151, 8161, 8139, 8136, 8169, 8205, 8200, 8234, 8179, 8188, 8172, 8199, 8278,8.234179973602295
12, 8150, 8146, 8129, 8162, 8111, 8173, 8209, 8192, 8247, 8193, 8201, 8169, 8218, 8302,8.242220640182495
13, 8186, 8172, 8178, 8164, 8168, 8172, 8193, 8202, 8240, 8195, 8196, 8177, 8216, 8321,8.250148057937622
14, 8210, 8190, 8219, 8170, 8182, 8159, 8187, 8205, 8216, 8188, 8195, 8195, 8219, 8324,8.257181406021118
15, 8209, 8177, 8163, 8192, 8134, 8152, 8180, 8167, 8201, 8186, 8212, 8186, 8238, 8323,8.265267133712769
16, 8225, 8221, 8262, 8216, 8247, 8165, 8143, 8189, 8187, 8184, 8213, 8204, 8233, 8319,8.273255348205566
17, 8245, 8240, 8304, 8231, 8239, 8167, 8135, 8200, 8183, 8192, 8219, 8234, 8239, 8334,8.281155586242676
18, 8226, 8196, 8129, 8228, 8094, 8149, 8158, 8129, 8186, 8194, 8230, 8198, 8272, 8357,8.28925633430481
19, 8205, 8187, 8108, 8208, 8123, 8142, 8164, 8119, 8162, 8182, 8214, 8167, 8265, 8349,8.297125816345215
20, 8191, 8187, 8160, 8191, 8172, 8152, 8173, 8152, 8146, 8183, 8193, 8166, 8233, 8317,8.305021524429321
21, 8168, 8186, 8173, 8174, 8198, 8166, 8173, 8169, 8153, 8187, 8175, 8156, 8204, 8278,8.313140869140625
22, 8152, 8179, 8207, 8159, 8196, 8166, 8154, 8179, 8156, 8174, 8160, 8159, 8181, 8264,8.32024884223938
23, 8148, 8139, 8175, 8145, 8143, 8154, 8156, 8167, 8161, 8168, 8162, 8170, 8180, 8276,8.328133344650269
24, 8159, 8125, 8131, 8134, 8131, 8155, 8175, 8166, 8177, 8178, 8179, 8173, 8198, 8292,8.336349248886108
25, 8174, 8145, 8127, 8134, 8138, 8159, 8185, 8178, 8197, 8184, 8194, 8170, 8217, 8309,8.344261169433594
26, 8173, 8155, 8179, 8130, 8173, 8161, 8182, 8201, 8203, 8179, 8189, 8179, 8218, 8306,8.352333068847656
27, 8157, 8136, 8177, 8122, 8148, 8171, 8188, 8199, 8206, 8179, 8190, 8184, 8220, 8294,8.360163927078247
28, 8164, 8146, 8153, 8141, 8146, 8178, 8201, 8189, 8216, 8189, 8208, 8171, 8238, 8305,8.368330955505371
29, 8200, 8190, 8247, 8167, 8236, 8187, 8198, 8214, 8204, 8194, 8220, 8197, 8253, 8318,8.376271486282349
30, 8205, 8181, 8216, 8171, 8174, 8187, 8207, 8190, 8199, 8194, 8227, 8215, 8264, 8321,8.383332252502441
31, 8176, 8163, 8114, 8170, 8112, 8174, 8224, 8155, 8197, 8188, 8208, 8168, 8238, 8295,8.39115571975708
32, 8155, 8159, 8134, 8169, 8157, 8173, 8220, 8164, 8177, 8175, 8174, 8140, 8191, 8256,8.399219989776611
33, 8146, 8143, 8153, 8150, 8169, 8171, 8207, 8158, 8155, 8160, 8159, 8149, 8176, 8249,8.407029151916504
34, 8161, 8162, 8215, 8138, 8203, 8158, 8179, 8173, 8133, 8155, 8162, 8175, 8166, 8254,8.415253639221191
35, 8177, 8161, 8220, 8137, 8170, 8150, 8168, 8179, 8133, 8161, 8178, 8183, 8165, 8251,8.423202991485596
36, 8164, 8137, 8138, 8137, 8118, 8154, 8178, 8162, 8151, 8162, 8188, 8160, 8176, 8257,8.431006669998169
37, 8148, 8134, 8117, 8134, 8115, 8154, 8178, 8170, 8162, 8164, 8195, 8153, 8182, 8265,8.43920373916626
38, 8149, 8139, 8138, 8127, 8138, 8156, 8173, 8184, 8171, 8169, 8200, 8156, 8185, 8258,8.447320699691772
39, 8170, 8158, 8211, 8138, 8212, 8171, 8172, 8203, 8167, 8167, 8186, 8170, 8174, 8251,8.454221725463867
40, 8185, 8157, 8187, 8152, 8168, 8170, 8181, 8182, 8156, 8163, 8175, 8175, 8169, 8267,8.462254047393799
41, 8186, 8160, 8165, 8143, 8167, 8165, 8175, 8173, 8149, 8161, 8171, 8170, 8166, 8277,8.47015643119812
42, 8195, 8176, 8241, 8132, 8223, 8166, 8158, 8198, 8146, 8159, 8172, 8185, 8160, 8279,8.478256464004517
43, 8187, 8156, 8167, 8139, 8128, 8150, 8160, 8151, 8147, 8163, 8197, 8178, 8176, 8290,8.48621940612793
44, 8190, 8168, 8114, 8172, 8112, 8141, 8163, 8124, 8157, 8179, 8220, 8171, 8208, 8305,8.494318962097168
45, 8217, 8202, 8169, 8203, 8173, 8155, 8162, 8161, 8177, 8197, 8231, 8192, 8239, 8330,8.502268314361572
46, 8208, 8198, 8178, 8190, 8185, 8158, 8158, 8174, 8180, 8199, 8224, 8189, 8235, 8334,8.510299444198608
47, 8183, 8183, 8194, 8156, 8189, 8151, 8157, 8170, 8164, 8186, 8202, 8180, 8205, 8305,8.516998052597046
48, 8173, 8166, 8178, 8150, 8162, 8160, 8176, 8167, 8171, 8179, 8192, 8172, 8193, 8284,8.525255680084229
49, 8157, 8150, 8149, 8137, 8161, 8174, 8196, 8179, 8183, 8185, 8189, 8160, 8187, 8267,8.533025026321411
50, 8130, 8128, 8116, 8104, 8133, 8165, 8198, 8165, 8176, 8196, 8186, 8150, 8179, 8259,8.541261672973633
51, 8131, 8135, 8152, 8098, 8163, 8145, 8171, 8153, 8160, 8189, 8163, 8145, 8158, 8247,8.54914927482605
52, 8144, 8151, 8223, 8119, 8213, 8144, 8148, 8180, 8147, 8170, 8149, 8158, 8141, 8233,8.5571768283844
53, 8127, 8132, 8144, 8128, 8138, 8151, 8164, 8170, 8157, 8175, 8172, 8157, 8166, 8246,8.565200090408325
54, 8136, 8151, 8175, 8126, 8187, 8164, 8163, 8187, 8163, 8183, 8176, 8168, 8176, 8259,8.573251247406006
55, 8168, 8169, 8247, 8137, 8215, 8173, 8162, 8206, 8162, 8179, 8173, 8192, 8165, 8260,8.580067157745361
56, 8162, 8152, 8141, 8160, 8122, 8173, 8189, 8159, 8172, 8181, 8192, 8173, 8177, 8268,8.588223695755005
57, 8159, 8168, 8141, 8170, 8152, 8171, 8190, 8157, 8161, 8181, 8197, 8172, 8189, 8272,8.59614634513855
58, 8166, 8178, 8186, 8166, 8168, 8163, 8173, 8168, 8141, 8170, 8189, 8186, 8189, 8277,8.604197263717651
59, 8173, 8185, 8192, 8171, 8177, 8161, 8166, 8165, 8133, 8174, 8196, 8188, 8199, 8288,8.61203408241272
60, 8202, 8200, 8218, 8192, 8202, 8176, 8164, 8170, 8139, 8194, 8216, 8205, 8220, 8305,8.620226860046387
61, 8216, 8188, 8182, 8207, 8161, 8182, 8156, 8152, 8145, 8197, 8228, 8202, 8231, 8319,8.628167390823364
62, 8189, 8159, 8130, 8180, 8129, 8168, 8147, 8133, 8137, 8191, 8227, 8178, 8228, 8313,8.636116743087769
63, 8159, 8147, 8114, 8146, 8136, 8165, 8158, 8133, 8143, 8199, 8219, 8165, 8225, 8290,8.644043445587158
64, 8161, 8180, 8182, 8152, 8211, 8191, 8169, 8172, 8149, 8203, 8200, 8170, 8203, 8260,8.651038885116577
65, 8165, 8185, 8208, 8165, 8207, 8206, 8180, 8196, 8148, 8200, 8194, 8173, 8186, 8251,8.659135818481445
66, 8156, 8157, 8140, 8156, 8145, 8190, 8201, 8180, 8170, 8200, 8206, 8165, 8199, 8272,8.667036771774292
67, 8163, 8170, 8176, 8152, 8196, 8181, 8202, 8199, 8193, 8188, 8199, 8171, 8191, 8270,8.675051927566528
68, 8164, 8167, 8187, 8162, 8183, 8179, 8190, 8200, 8194, 8177, 8193, 8162, 8173, 8247,8.683061599731445
69, 8155, 8151, 8141, 8162, 8144, 8171, 8183, 8175, 8180, 8179, 8188, 8150, 8166, 8244,8.691194534301758
70, 8167, 8160, 8163, 8157, 8164, 8169, 8177, 8170, 8162, 8173, 8165, 8167, 8145, 8260,8.699078559875488
71, 8166, 8157, 8161, 8152, 8155, 8169, 8176, 8155, 8151, 8154, 8163, 8165, 8136, 8263,8.706942558288574
72, 8164, 8177, 8191, 8154, 8191, 8169, 8177, 8164, 8146, 8151, 8187, 8165, 8148, 8254,8.714113473892212
73, 8183, 8198, 8186, 8174, 8178, 8163, 8185, 8165, 8146, 8165, 8199, 8178, 8161, 8269,8.721855640411377
74, 8186, 8188, 8148, 8190, 8165, 8156, 8179, 8142, 8132, 8162, 8178, 8173, 8155, 8285,8.730082750320435
75, 8167, 8167, 8177, 8173, 8186, 8152, 8166, 8139, 8118, 8158, 8179, 8177, 8157, 8279,8.73792052268982
76, 8160, 8154, 8162, 8153, 8168, 8154, 8169, 8132, 8134, 8172, 8215, 8177, 8192, 8285,8.74625563621521
77, 8179, 8176, 8190, 8165, 8214, 8167, 8160, 8150, 8138, 8187, 8218, 8179, 8204, 8295,8.754027128219604
78, 8175, 8176, 8197, 8170, 8180, 8171, 8154, 8161, 8130, 8190, 8202, 8180, 8190, 8283,8.76222014427185
79, 8146, 8157, 8140, 8154, 8129, 8160, 8175, 8153, 8145, 8189, 8205, 8159, 8190, 8266,8.770007848739624
80, 8150, 8162, 8159, 8155, 8177, 8164, 8202, 8178, 8172, 8189, 8212, 8160, 8197, 8269,8.778233766555786
81, 8153, 8159, 8151, 8162, 8166, 8174, 8212, 8189, 8183, 8186, 8206, 8162, 8196, 8268,8.785146236419678
82, 8139, 8168, 8175, 8160, 8177, 8168, 8191, 8204, 8167, 8179, 8189, 8162, 8170, 8245,8.793235540390015
83, 8146, 8170, 8208, 8162, 8179, 8162, 8188, 8219, 8169, 8179, 8198, 8178, 8165, 8255,8.80141305923462
84, 8160, 8158, 8169, 8158, 8157, 8166, 8213, 8211, 8200, 8188, 8221, 8176, 8192, 8287,8.809285402297974
85, 8161, 8162, 8169, 8153, 8169, 8154, 8206, 8204, 8195, 8179, 8214, 8172, 8194, 8277,8.817140340805054
86, 8156, 8166, 8175, 8175, 8159, 8128, 8178, 8176, 8162, 8169, 8197, 8175, 8182, 8274,8.825246572494507
87, 8171, 8181, 8185, 8198, 8174, 8133, 8168, 8158, 8153, 8174, 8201, 8183, 8185, 8308,8.833047151565552
88, 8188, 8190, 8138, 8194, 8137, 8153, 8175, 8144, 8170, 8177, 8221, 8180, 8205, 8324,8.841097116470337
89, 8184, 8205, 8142, 8198, 8173, 8141, 8165, 8145, 8160, 8176, 8212, 8173, 8201, 8298,8.848277568817139
90, 8185, 8228, 8274, 8221, 8260, 8125, 8135, 8187, 8126, 8175, 8187, 8195, 8185, 8276,8.856220245361328
91, 8187, 8202, 8210, 8221, 8145, 8121, 8136, 8165, 8133, 8178, 8188, 8189, 8202, 8295,8.864254474639893
92, 8191, 8198, 8116, 8199, 8118, 8117, 8150, 8137, 8147, 8184, 8180, 8161, 8203, 8300,8.872251033782959
93, 8196, 8218, 8171, 8194, 8188, 8111, 8152, 8167, 8143, 8186, 8174, 8171, 8183, 8288,8.880011320114136
94, 8181, 8204, 8170, 8196, 8165, 8123, 8163, 8179, 8145, 8183, 8198, 8175, 8198, 8290,8.888222932815552
95, 8171, 8202, 8187, 8188, 8196, 8140, 8169, 8193, 8143, 8179, 8183, 8175, 8201, 8287,8.896038055419922
96, 8169, 8191, 8199, 8183, 8203, 8127, 8168, 8197, 8142, 8179, 8143, 8177, 8178, 8278,8.904242992401123
97, 8152, 8173, 8163, 8188, 8153, 8110, 8164, 8181, 8144, 8176, 8148, 8167, 8176, 8276,8.912136793136597
98, 8141, 8169, 8130, 8179, 8110, 8123, 8173, 8165, 8144, 8173, 8168, 8164, 8182, 8279,8.919060945510864
99, 8147, 8174, 8135, 8159, 8130, 8147, 8191, 8167, 8153, 8172, 8159, 8166, 8176, 8276,8.927094221115112
100, 8158, 8188, 8185, 8168, 8186, 8160, 8194, 8196, 8159, 8184, 8165, 8177, 8186, 8280,8.935002326965332
101, 8149, 8178, 8148, 8189, 8154, 8161, 8186, 8178, 8162, 8198, 8192, 8176, 8207, 8286,8.943137407302856
102, 8152, 8190, 8183, 8189, 8207, 8168, 8162, 8177, 8152, 8189, 8183, 8174, 8188, 8275,8.95124888420105
103, 8178, 8212, 8269, 8187, 8239, 8169, 8144, 8206, 8147, 8191, 8188, 8201, 8186, 8287,8.959028244018555
104, 8174, 8191, 8157, 8194, 8118, 8151, 8154, 8162, 8167, 8208, 8224, 8198, 8235, 8318,8.967228889465332
