COUNTER,F3, FC5,AF3,F7,T7,P7,O1,O2,P8,T8,F8,AF4,FC6,F4,Timestamp
13, 8072, 8103, 8132, 8119, 8150, 8207, 8131, 8178, 8205, 8177, 8163, 8129, 8121, 8216,0.010410070419311523
14, 8110, 8123, 8156, 8124, 8171, 8216, 8190, 8200, 8220, 8179, 8162, 8147, 8136, 8242,0.011260271072387695
15, 8143, 8132, 8179, 8132, 8131, 8225, 8170, 8211, 8230, 8197, 8183, 8170, 8155, 8264,0.01715230941772461
16, 8140, 8132, 8167, 8143, 8116, 8223, 8132, 8194, 8228, 8212, 8187, 8178, 8156, 8273,0.025415658950805664
17, 8164, 8150, 8201, 8157, 8158, 8211, 8193, 8189, 8214, 8192, 8178, 8187, 8144, 8268,0.039322853088378906
18, 8175, 8166, 8190, 8175, 8117, 8201, 8150, 8170, 8197, 8169, 8182, 8190, 8146, 8259,0.05140542984008789
19, 8180, 8167, 8178, 8189, 8102, 8205, 8148, 8171, 8185, 8173, 8181, 8193, 8142, 8261,0.05648398399353027
20, 8175, 8167, 8180, 8195, 8093, 8199, 8141, 8172, 8188, 8186, 8181, 8206, 8147, 8275,0.06456303596496582
21, 8164, 8176, 8193, 8194, 8129, 8189, 8185, 8179, 8187, 8175, 8192, 8212, 8162, 8264,0.0722508430480957
22, 8171, 8176, 8219, 8192, 8159, 8197, 8238, 8196, 8176, 8157, 8187, 8204, 8146, 8234,0.0802757740020752
23, 8151, 8161, 8171, 8193, 8086, 8190, 8126, 8180, 8181, 8158, 8174, 8192, 8132, 8232,0.0885460376739502
24, 8167, 8169, 8188, 8189, 8123, 8175, 8167, 8193, 8187, 8172, 8189, 8206, 8161, 8262,0.09635257720947266
25, 8188, 8172, 8214, 8181, 8147, 8174, 8185, 8193, 8175, 8175, 8198, 8221, 8186, 8288,0.10448908805847168
26, 8164, 8160, 8169, 8183, 8121, 8182, 8137, 8164, 8156, 8148, 8180, 8208, 8168, 8284,0.11249327659606934
27, 8182, 8168, 8202, 8194, 8157, 8203, 8205, 8176, 8155, 8147, 8183, 8213, 8168, 8289,0.11939287185668945
28, 8200, 8185, 8201, 8207, 8133, 8201, 8146, 8179, 8182, 8200, 8199, 8225, 8210, 8319,0.12723493576049805
29, 8217, 8203, 8183, 8216, 8165, 8187, 8161, 8179, 8191, 8220, 8194, 8213, 8224, 8331,0.13539576530456543
30, 8232, 8206, 8190, 8208, 8171, 8189, 8180, 8173, 8179, 8205, 8174, 8197, 8204, 8329,0.14334845542907715
31, 8207, 8193, 8158, 8191, 8129, 8183, 8128, 8152, 8180, 8225, 8168, 8187, 8193, 8323,0.15142250061035156
32, 8186, 8182, 8156, 8170, 8168, 8169, 8186, 8151, 8173, 8225, 8176, 8170, 8190, 8300,0.15950489044189453
33, 8151, 8160, 8122, 8145, 8148, 8168, 8146, 8135, 8159, 8193, 8161, 8143, 8200, 8280,0.1675128936767578
34, 8142, 8155, 8122, 8142, 8153, 8184, 8166, 8143, 8148, 8184, 8148, 8121, 8185, 8257,0.17528033256530762
35, 8158, 8163, 8153, 8152, 8164, 8190, 8190, 8154, 8142, 8193, 8161, 8116, 8154, 8237,0.18248724937438965
36, 8135, 8151, 8121, 8132, 8134, 8188, 8131, 8137, 8148, 8189, 8161, 8122, 8154, 8246,0.19051909446716309
37, 8138, 8154, 8145, 8116, 8158, 8190, 8183, 8155, 8163, 8186, 8149, 8130, 8163, 8259,0.1982569694519043
38, 8154, 8179, 8154, 8143, 8139, 8176, 8138, 8168, 8190, 8219, 8170, 8129, 8189, 8265,0.20629072189331055
39, 8163, 8204, 8152, 8183, 8164, 8166, 8137, 8178, 8205, 8246, 8190, 8137, 8215, 8276,0.21451020240783691
40, 8177, 8204, 8177, 8191, 8171, 8166, 8174, 8186, 8202, 8242, 8176, 8153, 8204, 8285,0.22229933738708496
41, 8156, 8186, 8144, 8165, 8125, 8171, 8127, 8175, 8200, 8227, 8158, 8133, 8184, 8275,0.2305896282196045
42, 8150, 8185, 8148, 8150, 8216, 8198, 8193, 8187, 8187, 8202, 8163, 8119, 8172, 8252,0.23831415176391602
43, 8143, 8184, 8151, 8159, 8253, 8205, 8157, 8185, 8176, 8197, 8169, 8128, 8167, 8248,0.24639177322387695
44, 8131, 8168, 8138, 8144, 8188, 8185, 8140, 8173, 8163, 8197, 8157, 8123, 8156, 8248,0.2534756660461426
45, 8142, 8158, 8153, 8119, 8123, 8186, 8192, 8165, 8151, 8184, 8149, 8119, 8146, 8235,0.2612166404724121
46, 8135, 8158, 8137, 8124, 8080, 8207, 8141, 8155, 8171, 8192, 8154, 8134, 8154, 8240,0.26956748962402344
47, 8151, 8156, 8168, 8129, 8121, 8222, 8190, 8186, 8204, 8207, 8163, 8157, 8171, 8264,0.27748894691467285
48, 8155, 8157, 8173, 8127, 8131, 8223, 8169, 8191, 8224, 8234, 8167, 8165, 8194, 8281,0.2854793071746826
49, 8130, 8165, 8140, 8137, 8186, 8222, 8146, 8184, 8218, 8235, 8159, 8156, 8189, 8267,0.29353761672973633
50, 8128, 8164, 8158, 8130, 8269, 8225, 8198, 8199, 8203, 8206, 8157, 8148, 8168, 8253,0.3012821674346924
51, 8121, 8152, 8142, 8110, 8223, 8210, 8136, 8187, 8206, 8214, 8164, 8145, 8189, 8262,0.3094899654388428
52, 8143, 8169, 8161, 8121, 8180, 8198, 8175, 8190, 8197, 8230, 8161, 8149, 8191, 8265,0.3165123462677002
53, 8152, 8180, 8168, 8146, 8116, 8190, 8170, 8185, 8185, 8214, 8151, 8142, 8160, 8261,0.32429027557373047
54, 8130, 8163, 8136, 8128, 8096, 8185, 8143, 8166, 8188, 8193, 8150, 8133, 8161, 8266,0.3324108123779297
55, 8153, 8157, 8161, 8097, 8132, 8194, 8201, 8177, 8191, 8202, 8157, 8142, 8170, 8270,0.34049534797668457
56, 8163, 8158, 8149, 8100, 8087, 8203, 8140, 8170, 8194, 8215, 8158, 8142, 8157, 8274,0.34825634956359863
57, 8159, 8157, 8157, 8105, 8124, 8208, 8173, 8170, 8184, 8192, 8152, 8141, 8137, 8276,0.35634303092956543
58, 8156, 8148, 8174, 8094, 8145, 8202, 8183, 8169, 8182, 8184, 8157, 8149, 8146, 8277,0.3643002510070801
59, 8138, 8147, 8141, 8099, 8120, 8193, 8134, 8154, 8193, 8210, 8160, 8142, 8162, 8268,0.3722975254058838
60, 8141, 8157, 8155, 8107, 8162, 8192, 8185, 8155, 8177, 8206, 8145, 8133, 8141, 8249,0.3802764415740967
61, 8124, 8151, 8143, 8102, 8131, 8188, 8139, 8138, 8170, 8192, 8146, 8129, 8130, 8246,0.3874976634979248
62, 8116, 8143, 8143, 8096, 8141, 8190, 8164, 8150, 8187, 8198, 8161, 8126, 8139, 8240,0.3953108787536621
63, 8133, 8144, 8159, 8101, 8189, 8193, 8180, 8168, 8185, 8202, 8157, 8126, 8139, 8231,0.4034731388092041
64, 8142, 8158, 8147, 8118, 8219, 8200, 8137, 8156, 8175, 8203, 8158, 8136, 8143, 8252,0.4113583564758301
65, 8170, 8175, 8191, 8135, 8246, 8210, 8200, 8168, 8186, 8210, 8187, 8163, 8173, 8286,0.4193382263183594
66, 8173, 8180, 8184, 8147, 8150, 8202, 8155, 8177, 8210, 8235, 8199, 8172, 8209, 8306,0.4273238182067871
67, 8179, 8189, 8172, 8154, 8124, 8192, 8163, 8184, 8200, 8240, 8177, 8159, 8193, 8297,0.4352281093597412
68, 8205, 8201, 8202, 8160, 8158, 8189, 8190, 8179, 8179, 8217, 8166, 8156, 8172, 8289,0.44328904151916504
69, 8182, 8194, 8160, 8163, 8136, 8182, 8123, 8150, 8168, 8189, 8165, 8146, 8179, 8287,0.4502718448638916
70, 8160, 8182, 8148, 8158, 8175, 8178, 8171, 8142, 8132, 8158, 8159, 8130, 8152, 8259,0.45826268196105957
71, 8152, 8182, 8162, 8159, 8164, 8183, 8165, 8135, 8111, 8152, 8164, 8128, 8122, 8239,0.466198205947876
72, 8156, 8187, 8156, 8177, 8125, 8193, 8123, 8140, 8136, 8176, 8181, 8146, 8141, 8257,0.47437071800231934
73, 8168, 8186, 8142, 8198, 8144, 8184, 8083, 8139, 8166, 8199, 8190, 8178, 8184, 8283,0.48252153396606445
74, 8169, 8193, 8149, 8215, 8218, 8166, 8111, 8142, 8170, 8208, 8196, 8203, 8213, 8295,0.4903678894042969
75, 8212, 8219, 8250, 8239, 8258, 8179, 8286, 8190, 8159, 8211, 8215, 8227, 8224, 8308,0.4983179569244385
76, 8237, 8223, 8267, 8257, 8124, 8186, 8202, 8187, 8171, 8227, 8228, 8242, 8250, 8335,0.5062384605407715
77, 8232, 8227, 8206, 8258, 8098, 8170, 8086, 8168, 8198, 8242, 8212, 8252, 8276, 8355,0.5132224559783936
78, 8242, 8236, 8207, 8255, 8167, 8167, 8156, 8187, 8206, 8243, 8197, 8254, 8276, 8361,0.5214622020721436
79, 8221, 8209, 8182, 8247, 8116, 8169, 8142, 8180, 8202, 8247, 8195, 8237, 8271, 8357,0.5293862819671631
80, 8219, 8191, 8192, 8231, 8132, 8175, 8199, 8181, 8184, 8219, 8178, 8222, 8250, 8327,0.5371382236480713
81, 8217, 8198, 8203, 8219, 8130, 8185, 8199, 8171, 8168, 8187, 8162, 8208, 8219, 8298,0.5453293323516846
82, 8191, 8200, 8181, 8217, 8123, 8192, 8177, 8160, 8171, 8199, 8168, 8191, 8200, 8301,0.553231954574585
83, 8208, 8196, 8203, 8212, 8142, 8190, 8210, 8169, 8170, 8210, 8172, 8188, 8200, 8312,0.5613374710083008
84, 8199, 8193, 8163, 8205, 8092, 8172, 8115, 8145, 8167, 8202, 8160, 8177, 8206, 8313,0.5691449642181396
85, 8169, 8190, 8145, 8184, 8165, 8169, 8165, 8152, 8166, 8191, 8147, 8161, 8189, 8288,0.5762779712677002
86, 8158, 8170, 8150, 8149, 8220, 8176, 8189, 8179, 8181, 8202, 8152, 8156, 8177, 8279,0.5844125747680664
87, 8155, 8158, 8124, 8144, 8193, 8177, 8141, 8181, 8196, 8206, 8151, 8144, 8168, 8285,0.5923287868499756
88, 8174, 8169, 8154, 8156, 8207, 8178, 8192, 8182, 8185, 8195, 8139, 8130, 8137, 8259,0.6003031730651855
89, 8158, 8164, 8139, 8147, 8181, 8179, 8142, 8165, 8183, 8192, 8143, 8129, 8140, 8242,0.6083939075469971
90, 8156, 8158, 8141, 8137, 8189, 8193, 8176, 8159, 8172, 8178, 8146, 8138, 8149, 8249,0.6161885261535645
91, 8171, 8168, 8168, 8153, 8143, 8184, 8171, 8132, 8139, 8175, 8146, 8151, 8139, 8251,0.6242361068725586
92, 8167, 8179, 8151, 8167, 8078, 8156, 8115, 8104, 8114, 8188, 8162, 8155, 8156, 8257,0.6322553157806396
93, 8185, 8188, 8177, 8160, 8109, 8158, 8188, 8125, 8103, 8178, 8176, 8157, 8177, 8272,0.6402170658111572
94, 8173, 8186, 8156, 8162, 8088, 8161, 8143, 8130, 8117, 8164, 8164, 8156, 8173, 8285,0.6473534107208252
95, 8162, 8179, 8143, 8165, 8098, 8162, 8158, 8151, 8145, 8170, 8150, 8147, 8151, 8278,0.6553859710693359
96, 8152, 8163, 8154, 8138, 8099, 8170, 8180, 8179, 8169, 8186, 8148, 8126, 8141, 8256,0.6633648872375488
97, 8117, 8153, 8126, 8122, 8065, 8167, 8132, 8189, 8183, 8177, 8149, 8106, 8140, 8234,0.6713390350341797
98, 8147, 8177, 8163, 8166, 8111, 8164, 8194, 8219, 8190, 8164, 8161, 8125, 8131, 8236,0.6793880462646484
99, 8171, 8194, 8167, 8201, 8108, 8175, 8152, 8215, 8205, 8205, 8166, 8143, 8154, 8257,0.6873311996459961
100, 8144, 8187, 8150, 8174, 8123, 8190, 8159, 8206, 8208, 8239, 8165, 8130, 8182, 8255,0.6952970027923584
101, 8120, 8168, 8153, 8153, 8121, 8186, 8185, 8190, 8191, 8226, 8169, 8129, 8171, 8239,0.7033085823059082
102, 8110, 8162, 8130, 8167, 8080, 8179, 8128, 8152, 8170, 8215, 8158, 8130, 8151, 8234,0.7105834484100342
103, 8148, 8171, 8173, 8170, 8115, 8194, 8190, 8149, 8147, 8201, 8155, 8133, 8151, 8237,0.718400239944458
104, 8155, 8162, 8178, 8161, 8094, 8199, 8150, 8145, 8145, 8194, 8169, 8141, 8174, 8249,0.7262845039367676
105, 8131, 8157, 8156, 8151, 8107, 8193, 8146, 8154, 8151, 8203, 8167, 8143, 8177, 8257,0.7344048023223877
106, 8150, 8174, 8186, 8157, 8126, 8195, 8193, 8181, 8152, 8203, 8164, 8152, 8171, 8263,0.7453444004058838
107, 8153, 8176, 8169, 8174, 8086, 8199, 8137, 8185, 8164, 8198, 8172, 8161, 8169, 8273,0.7501730918884277
108, 8145, 8158, 8167, 8152, 8123, 8195, 8183, 8195, 8161, 8187, 8166, 8162, 8155, 8257,0.758342981338501
109, 8136, 8148, 8163, 8124, 8102, 8167, 8159, 8180, 8145, 8181, 8155, 8155, 8158, 8244,0.7663252353668213
110, 8142, 8160, 8163, 8143, 8087, 8150, 8157, 8170, 8138, 8180, 8161, 8152, 8148, 8260,0.7734024524688721
111, 8150, 8166, 8177, 8158, 8112, 8166, 8185, 8182, 8134, 8165, 8163, 8145, 8115, 8255,0.7813835144042969
112, 8130, 8155, 8147, 8154, 8094, 8172, 8129, 8166, 8134, 8155, 8157, 8134, 8117, 8221,0.7893285751342773
113, 8141, 8159, 8177, 8163, 8131, 8171, 8197, 8165, 8130, 8159, 8164, 8142, 8130, 8207,0.7973237037658691
114, 8128, 8151, 8166, 8156, 8112, 8183, 8170, 8164, 8135, 8169, 8168, 8140, 8122, 8232,0.8052570819854736
115, 8119, 8138, 8131, 8139, 8104, 8194, 8149, 8167, 8149, 8173, 8156, 8134, 8124, 8250,0.8133158683776855
116, 8157, 8156, 8173, 8150, 8137, 8194, 8211, 8188, 8160, 8188, 8159, 8142, 8144, 8250,0.8211865425109863
117, 8145, 8162, 8157, 8158, 8105, 8197, 8149, 8187, 8174, 8208, 8179, 8143, 8164, 8250,0.8294339179992676
118, 8137, 8150, 8163, 8153, 8137, 8206, 8189, 8200, 8176, 8201, 8180, 8150, 8168, 8257,0.8372633457183838
119, 8146, 8151, 8180, 8164, 8123, 8188, 8171, 8197, 8181, 8215, 8174, 8157, 8176, 8272,0.8443140983581543
120, 8141, 8164, 8158, 8171, 8106, 8169, 8130, 8178, 8179, 8227, 8182, 8150, 8181, 8264,0.8525011539459229
121, 8154, 8166, 8176, 8160, 8152, 8177, 8202, 8178, 8147, 8192, 8181, 8141, 8162, 8227,0.860346794128418
122, 8129, 8150, 8148, 8143, 8106, 8169, 8149, 8169, 8134, 8172, 8165, 8127, 8152, 8207,0.8684597015380859
123, 8094, 8143, 8135, 8131, 8113, 8165, 8170, 8175, 8133, 8178, 8154, 8108, 8141, 8201,0.8763580322265625
124, 8084, 8141, 8143, 8136, 8127, 8187, 8184, 8157, 8119, 8180, 8162, 8099, 8121, 8187,0.8843810558319092
125, 8076, 8139, 8126, 8139, 8113, 8201, 8139, 8142, 8127, 8188, 8169, 8102, 8128, 8179,0.8924849033355713
126, 8101, 8140, 8161, 8131, 8143, 8201, 8197, 8176, 8152, 8202, 8168, 8127, 8158, 8202,0.9003908634185791
127, 8124, 8148, 8161, 8142, 8119, 8193, 8152, 8177, 8167, 8222, 8176, 8160, 8184, 8260,0.9073901176452637
238, 8144, 8169, 8164, 8165, 8143, 8186, 8166, 8173, 8166, 8214, 8185, 8169, 8184, 8295,0.9151122570037842
0, 8148, 8171, 8173, 8168, 8146, 8173, 8187, 8168, 8156, 8201, 8175, 8153, 8178, 8282,0.9235153198242188
1, 8127, 8158, 8139, 8159, 8113, 8162, 8137, 8147, 8149, 8208, 8154, 8142, 8174, 8268,0.9314548969268799
2, 8151, 8173, 8175, 8169, 8150, 8164, 8195, 8166, 8151, 8196, 8157, 8155, 8162, 8269,0.9394493103027344
3, 8152, 8181, 8174, 8188, 8116, 8163, 8147, 8174, 8164, 8183, 8168, 8159, 8163, 8275,0.9473042488098145
4, 8128, 8168, 8151, 8190, 8112, 8175, 8150, 8171, 8161, 8190, 8157, 8152, 8159, 8274,0.9552731513977051
5, 8144, 8168, 8181, 8185, 8124, 8175, 8183, 8169, 8147, 8190, 8164, 8167, 8164, 8280,0.9633514881134033
6, 8142, 8175, 8166, 8192, 8088, 8150, 8117, 8155, 8154, 8191, 8181, 8180, 8187, 8289,0.9704554080963135
7, 8133, 8176, 8168, 8199, 8126, 8158, 8178, 8175, 8157, 8204, 8178, 8176, 8185, 8273,0.9783220291137695
8, 8120, 8174, 8159, 8196, 8110, 8175, 8158, 8182, 8153, 8215, 8171, 8162, 8182, 8252,0.9862270355224609
9, 8123, 8184, 8155, 8200, 8097, 8158, 8142, 8171, 8152, 8211, 8174, 8162, 8186, 8244,0.9942305088043213
10, 8167, 8195, 8206, 8220, 8119, 8145, 8180, 8166, 8155, 8206, 8186, 8200, 8189, 8255,1.002262830734253
11, 8182, 8196, 8198, 8231, 8093, 8160, 8133, 8159, 8166, 8214, 8188, 8226, 8199, 8284,1.0102598667144775
12, 8196, 8200, 8206, 8219, 8127, 8168, 8187, 8179, 8165, 8212, 8185, 8224, 8206, 8289,1.0183255672454834
13, 8202, 8192, 8216, 8226, 8116, 8156, 8163, 8172, 8159, 8220, 8201, 8235, 8224, 8286,1.0264043807983398
14, 8205, 8195, 8209, 8265, 8097, 8152, 8133, 8164, 8156, 8239, 8212, 8270, 8241, 8310,1.03346848487854
15, 8253, 8222, 8253, 8287, 8125, 8145, 8192, 8187, 8157, 8237, 8207, 8303, 8249, 8348,1.0415000915527344
16, 8270, 8223, 8245, 8276, 8092, 8130, 8138, 8179, 8164, 8234, 8203, 8289, 8274, 8357,1.0494863986968994
17, 8244, 8200, 8206, 8263, 8077, 8146, 8117, 8166, 8165, 8236, 8201, 8255, 8269, 8329,1.0575199127197266
18, 8203, 8190, 8154, 8259, 8103, 8174, 8099, 8168, 8176, 8243, 8190, 8233, 8243, 8302,1.065356969833374
19, 8186, 8197, 8150, 8239, 8227, 8186, 8193, 8191, 8178, 8228, 8171, 8206, 8220, 8274,1.07330322265625
20, 8195, 8183, 8205, 8205, 8280, 8180, 8284, 8198, 8153, 8201, 8157, 8176, 8180, 8247,1.0812723636627197
21, 8163, 8162, 8166, 8196, 8139, 8165, 8140, 8169, 8153, 8207, 8155, 8158, 8172, 8255,1.0893018245697021
22, 8165, 8173, 8153, 8196, 8129, 8154, 8157, 8186, 8165, 8218, 8158, 8163, 8186, 8266,1.0975003242492676
23, 8164, 8167, 8155, 8173, 8153, 8139, 8175, 8191, 8154, 8222, 8153, 8151, 8174, 8252,1.1050422191619873
24, 8108, 8144, 8112, 8154, 8131, 8134, 8125, 8173, 8151, 8211, 8151, 8124, 8164, 8232,1.1123323440551758
25, 8091, 8137, 8133, 8145, 8149, 8152, 8195, 8200, 8163, 8191, 8159, 8120, 8168, 8226,1.1202750205993652
26, 8084, 8129, 8117, 8139, 8105, 8154, 8149, 8200, 8170, 8199, 8155, 8115, 8157, 8229,1.1283085346221924
27, 8098, 8140, 8128, 8156, 8131, 8155, 8171, 8185, 8158, 8215, 8156, 8120, 8142, 8229,1.1362323760986328
28, 8124, 8160, 8160, 8163, 8148, 8163, 8182, 8170, 8150, 8213, 8165, 8138, 8161, 8232,1.1444756984710693
29, 8106, 8149, 8128, 8132, 8120, 8151, 8137, 8153, 8145, 8200, 8159, 8124, 8166, 8221,1.1525382995605469
30, 8101, 8143, 8140, 8120, 8138, 8136, 8193, 8157, 8122, 8187, 8156, 8105, 8137, 8199,1.160484790802002
31, 8104, 8155, 8136, 8147, 8090, 8125, 8131, 8144, 8126, 8186, 8165, 8112, 8142, 8205,1.1684188842773438
32, 8116, 8155, 8141, 8145, 8104, 8119, 8146, 8159, 8146, 8182, 8164, 8127, 8153, 8225,1.1755058765411377
33, 8126, 8143, 8156, 8116, 8123, 8118, 8173, 8190, 8148, 8176, 8156, 8120, 8131, 8226,1.183246374130249
34, 8115, 8140, 8132, 8114, 8099, 8117, 8120, 8200, 8156, 8180, 8155, 8106, 8118, 8226,1.1913540363311768
35, 8131, 8153, 8166, 8130, 8159, 8133, 8191, 8214, 8173, 8185, 8164, 8121, 8127, 8235,1.199390172958374
36, 8107, 8147, 8146, 8121, 8150, 8152, 8162, 8178, 8182, 8194, 8162, 8127, 8134, 8224,1.2073848247528076
37, 8073, 8127, 8117, 8096, 8132, 8166, 8158, 8145, 8157, 8182, 8142, 8113, 8110, 8196,1.2154502868652344
38, 8089, 8115, 8154, 8092, 8131, 8162, 8182, 8151, 8129, 8149, 8140, 8117, 8096, 8195,1.223477840423584
39, 8095, 8118, 8147, 8104, 8102, 8143, 8125, 8152, 8135, 8156, 8160, 8127, 8111, 8216,1.2312519550323486
40, 8112, 8131, 8163, 8111, 8123, 8152, 8183, 8172, 8147, 8172, 8165, 8136, 8114, 8220,1.2383530139923096
41, 8123, 8131, 8167, 8118, 8110, 8163, 8152, 8176, 8161, 8171, 8166, 8147, 8130, 8236,1.2465441226959229
42, 8127, 8139, 8156, 8137, 8157, 8156, 8145, 8183, 8171, 8186, 8179, 8153, 8159, 8259,1.2543022632598877
43, 8142, 8149, 8175, 8148, 8219, 8154, 8190, 8195, 8179, 8214, 8187, 8149, 8160, 8252,1.2624738216400146
44, 8140, 8154, 8164, 8152, 8251, 8161, 8137, 8185, 8194, 8228, 8185, 8148, 8164, 8252,1.2705421447753906
45, 8171, 8169, 8191, 8161, 8384, 8170, 8190, 8206, 8203, 8224, 8183, 8161, 8178, 8275,1.2784359455108643
46, 8169, 8160, 8172, 8159, 8377, 8168, 8159, 8204, 8211, 8225, 8177, 8154, 8173, 8285,1.2864785194396973
47, 8120, 8135, 8125, 8137, 8251, 8155, 8135, 8183, 8204, 8201, 8158, 8121, 8146, 8247,1.2943813800811768
48, 8111, 8122, 8148, 8115, 8176, 8151, 8190, 8181, 8177, 8167, 8146, 8106, 8127, 8206,1.3014767169952393
49, 8093, 8115, 8125, 8108, 8124, 8160, 8135, 8154, 8162, 8179, 8150, 8099, 8119, 8208,1.3093914985656738
50, 8088, 8123, 8135, 8118, 8163, 8168, 8181, 8152, 8149, 8179, 8155, 8096, 8099, 8210,1.3173131942749023
51, 8109, 8140, 8165, 8155, 8150, 8165, 8170, 8166, 8150, 8169, 8161, 8117, 8119, 8226,1.3254034519195557
52, 8135, 8153, 8166, 8177, 8140, 8171, 8147, 8176, 8179, 8191, 8180, 8150, 8164, 8276,1.3335018157958984
53, 8157, 8159, 8188, 8156, 8178, 8177, 8208, 8187, 8191, 8215, 8195, 8157, 8176, 8285,1.34147310256958
54, 8128, 8156, 8152, 8143, 8122, 8157, 8146, 8173, 8185, 8225, 8192, 8135, 8185, 8253,1.3495063781738281
55, 8111, 8147, 8147, 8152, 8129, 8156, 8180, 8186, 8185, 8223, 8180, 8133, 8180, 8244,1.3572642803192139
56, 8109, 8126, 8152, 8142, 8131, 8175, 8184, 8195, 8194, 8219, 8170, 8138, 8160, 8251,1.3645050525665283
57, 8095, 8122, 8129, 8119, 8114, 8175, 8146, 8194, 8196, 8204, 8172, 8128, 8152, 8236,1.3724100589752197
58, 8114, 8139, 8171, 8124, 8158, 8172, 8204, 8203, 8182, 8190, 8180, 8142, 8153, 8229,1.3802404403686523
59, 8114, 8135, 8162, 8140, 8129, 8178, 8143, 8187, 8181, 8198, 8175, 8151, 8154, 8246,1.388303279876709
60, 8114, 8132, 8153, 8148, 8139, 8192, 8162, 8199, 8193, 8216, 8172, 8145, 8158, 8247,1.3964896202087402
61, 8131, 8147, 8184, 8163, 8158, 8189, 8189, 8207, 8202, 8230, 8186, 8157, 8171, 8244,1.4043693542480469
62, 8109, 8140, 8137, 8168, 8101, 8175, 8078, 8166, 8194, 8211, 8187, 8161, 8180, 8256,1.4124038219451904
63, 8108, 8132, 8116, 8161, 8112, 8175, 8098, 8148, 8166, 8182, 8168, 8149, 8168, 8249,1.420473337173462
64, 8150, 8153, 8169, 8173, 8167, 8168, 8192, 8146, 8136, 8180, 8160, 8153, 8154, 8242,1.4284977912902832
65, 8182, 8171, 8216, 8183, 8177, 8160, 8215, 8142, 8124, 8183, 8168, 8172, 8159, 8260,1.4364573955535889
66, 8166, 8159, 8176, 8173, 8107, 8163, 8107, 8133, 8133, 8190, 8184, 8176, 8177, 8282,1.4435465335845947
67, 8148, 8158, 8151, 8175, 8125, 8176, 8138, 8146, 8143, 8207, 8183, 8167, 8186, 8275,1.451444149017334
68, 8181, 8177, 8233, 8193, 8215, 8197, 8297, 8189, 8147, 8208, 8173, 8174, 8184, 8269,1.4595136642456055
69, 8147, 8159, 8174, 8189, 8113, 8192, 8123, 8178, 8167, 8220, 8168, 8169, 8200, 8283,1.4674382209777832
70, 8115, 8143, 8107, 8170, 8102, 8168, 8096, 8174, 8159, 8209, 8164, 8149, 8185, 8257,1.4755675792694092
71, 8166, 8153, 8190, 8163, 8179, 8157, 8251, 8194, 8127, 8160, 8158, 8146, 8141, 8223,1.4833309650421143
72, 8166, 8145, 8175, 8164, 8110, 8161, 8141, 8175, 8138, 8157, 8157, 8149, 8148, 8253,1.4912004470825195
73, 8155, 8131, 8146, 8156, 8098, 8165, 8129, 8185, 8165, 8182, 8162, 8157, 8169, 8287,1.4983415603637695
74, 8169, 8132, 8167, 8153, 8100, 8159, 8165, 8203, 8181, 8194, 8170, 8164, 8174, 8287,1.5063261985778809
75, 8159, 8144, 8160, 8176, 8091, 8157, 8127, 8193, 8188, 8206, 8174, 8160, 8181, 8285,1.514270305633545
76, 8145, 8158, 8146, 8197, 8109, 8155, 8120, 8173, 8174, 8214, 8176, 8156, 8182, 8280,1.5222773551940918
77, 8164, 8168, 8158, 8196, 8154, 8150, 8168, 8162, 8171, 8219, 8180, 8165, 8187, 8284,1.530297040939331
78, 8225, 8181, 8240, 8207, 8240, 8167, 8272, 8181, 8177, 8216, 8185, 8196, 8195, 8310,1.5384433269500732
79, 8224, 8184, 8217, 8229, 8182, 8171, 8144, 8154, 8178, 8220, 8189, 8212, 8220, 8341,1.546520471572876
80, 8200, 8189, 8163, 8230, 8158, 8160, 8107, 8132, 8165, 8219, 8185, 8199, 8225, 8336,1.5545353889465332
81, 8218, 8186, 8195, 8210, 8188, 8156, 8200, 8150, 8146, 8199, 8172, 8183, 8180, 8304,1.5624651908874512
82, 8186, 8166, 8145, 8203, 8108, 8143, 8103, 8141, 8149, 8184, 8157, 8161, 8160, 8283,1.5694966316223145
83, 8163, 8164, 8139, 8194, 8156, 8133, 8176, 8170, 8148, 8183, 8155, 8150, 8174, 8273,1.5774133205413818
84, 8168, 8163, 8168, 8177, 8172, 8145, 8198, 8197, 8160, 8210, 8178, 8157, 8201, 8290,1.585233449935913
85, 8163, 8154, 8148, 8175, 8123, 8165, 8131, 8202, 8193, 8244, 8181, 8164, 8220, 8318,1.593449354171753
86, 8184, 8155, 8178, 8177, 8198, 8170, 8218, 8232, 8206, 8234, 8168, 8166, 8208, 8310,1.601499080657959
87, 8155, 8135, 8150, 8158, 8252, 8165, 8180, 8231, 8192, 8205, 8171, 8139, 8181, 8274,1.610433578491211
88, 8131, 8117, 8138, 8140, 8326, 8174, 8181, 8240, 8186, 8204, 8173, 8122, 8163, 8250,1.6174695491790771
89, 8156, 8135, 8166, 8165, 8377, 8173, 8179, 8249, 8208, 8223, 8168, 8141, 8175, 8263,1.6254427433013916
90, 8172, 8160, 8164, 8195, 8403, 8168, 8150, 8230, 8218, 8214, 8168, 8151, 8188, 8285,1.6322615146636963
91, 8188, 8171, 8195, 8198, 8412, 8184, 8194, 8219, 8201, 8207, 8177, 8162, 8187, 8294,1.6404476165771484
92, 8176, 8171, 8182, 8202, 8315, 8184, 8138, 8199, 8200, 8225, 8181, 8182, 8192, 8293,1.6484642028808594
93, 8185, 8185, 8180, 8215, 8252, 8167, 8165, 8186, 8189, 8198, 8181, 8185, 8183, 8279,1.6562385559082031
94, 8226, 8211, 8202, 8242, 8173, 8164, 8173, 8163, 8155, 8175, 8182, 8190, 8192, 8294,1.6644704341888428
95, 8229, 8216, 8182, 8258, 8119, 8165, 8119, 8148, 8151, 8206, 8187, 8205, 8222, 8326,1.6724491119384766
96, 8225, 8211, 8198, 8248, 8176, 8160, 8181, 8168, 8159, 8217, 8190, 8205, 8222, 8311,1.6804699897766113
97, 8224, 8211, 8192, 8248, 8156, 8157, 8147, 8170, 8158, 8212, 8185, 8201, 8228, 8309,1.6884429454803467
98, 8242, 8216, 8194, 8254, 8159, 8175, 8159, 8190, 8166, 8237, 8182, 8218, 8248, 8359,1.6954865455627441
99, 8241, 8197, 8201, 8223, 8163, 8179, 8174, 8207, 8187, 8253, 8185, 8217, 8249, 8388,1.7034432888031006
100, 8197, 8174, 8160, 8195, 8116, 8158, 8122, 8188, 8202, 8237, 8179, 8190, 8242, 8364,1.7113826274871826
101, 8193, 8171, 8173, 8191, 8147, 8166, 8190, 8202, 8196, 8220, 8169, 8181, 8230, 8329,1.7194297313690186
102, 8174, 8152, 8151, 8159, 8138, 8182, 8147, 8207, 8201, 8223, 8158, 8171, 8215, 8316,1.7274549007415771
103, 8156, 8141, 8134, 8140, 8140, 8177, 8147, 8206, 8215, 8216, 8157, 8157, 8194, 8300,1.7354414463043213
104, 8171, 8147, 8166, 8149, 8142, 8166, 8194, 8214, 8211, 8199, 8164, 8158, 8174, 8278,1.7434966564178467
105, 8152, 8141, 8137, 8134, 8125, 8157, 8137, 8203, 8200, 8196, 8162, 8147, 8170, 8275,1.7514793872833252
106, 8154, 8138, 8153, 8127, 8226, 8168, 8194, 8219, 8197, 8198, 8161, 8152, 8179, 8290,1.7592699527740479
107, 8166, 8155, 8176, 8162, 8265, 8185, 8172, 8216, 8214, 8216, 8175, 8174, 8196, 8301,1.7663586139678955
108, 8172, 8185, 8174, 8185, 8257, 8180, 8150, 8187, 8197, 8199, 8176, 8178, 8185, 8286,1.7745623588562012
109, 8191, 8201, 8192, 8190, 8263, 8170, 8183, 8167, 8158, 8169, 8172, 8175, 8169, 8273,1.7822744846343994
110, 8179, 8198, 8166, 8214, 8242, 8176, 8126, 8151, 8164, 8200, 8181, 8174, 8192, 8287,1.791463851928711
111, 8186, 8205, 8186, 8229, 8286, 8186, 8177, 8162, 8172, 8217, 8183, 8184, 8202, 8291,1.7984395027160645
112, 8194, 8212, 8196, 8218, 8255, 8179, 8164, 8146, 8156, 8200, 8178, 8195, 8196, 8292,1.8065314292907715
113, 8183, 8202, 8170, 8210, 8219, 8172, 8137, 8140, 8149, 8199, 8174, 8191, 8204, 8305,1.8144316673278809
114, 8204, 8199, 8194, 8213, 8311, 8179, 8202, 8178, 8159, 8214, 8175, 8195, 8207, 8324,1.8224468231201172
115, 8207, 8188, 8183, 8207, 8330, 8178, 8159, 8189, 8172, 8228, 8184, 8203, 8215, 8342,1.8292202949523926
116, 8182, 8171, 8155, 8179, 8223, 8172, 8131, 8191, 8177, 8223, 8185, 8205, 8229, 8351,1.8373095989227295
117, 8166, 8174, 8124, 8167, 8091, 8166, 8093, 8190, 8191, 8222, 8180, 8202, 8238, 8358,1.8452279567718506
118, 8174, 8185, 8130, 8168, 8129, 8164, 8152, 8211, 8210, 8244, 8179, 8192, 8227, 8348,1.8533260822296143
119, 8190, 8168, 8172, 8152, 8187, 8176, 8230, 8238, 8212, 8251, 8169, 8175, 8208, 8318,1.8612916469573975
120, 8159, 8137, 8121, 8123, 8105, 8184, 8115, 8205, 8210, 8224, 8145, 8153, 8196, 8305,1.8692748546600342
121, 8166, 8150, 8141, 8122, 8164, 8184, 8201, 8200, 8197, 8196, 8149, 8156, 8171, 8306,1.8773252964019775
122, 8192, 8167, 8216, 8153, 8199, 8174, 8277, 8211, 8187, 8207, 8182, 8171, 8169, 8295,1.8852264881134033
123, 8145, 8158, 8149, 8165, 8089, 8164, 8100, 8173, 8196, 8233, 8190, 8162, 8200, 8270,1.8922414779663086
124, 8132, 8163, 8117, 8153, 8108, 8168, 8093, 8154, 8184, 8208, 8169, 8153, 8202, 8267,1.9003121852874756
125, 8177, 8180, 8172, 8157, 8158, 8151, 8187, 8161, 8158, 8166, 8165, 8165, 8185, 8299,1.908379077911377
126, 8217, 8193, 8216, 8184, 8173, 8138, 8215, 8163, 8149, 8170, 8179, 8190, 8194, 8313,1.9165749549865723
127, 8205, 8196, 8189, 8198, 8141, 8146, 8122, 8137, 8153, 8201, 8183, 8197, 8215, 8299,1.924407958984375
238, 8178, 8209, 8155, 8198, 8151, 8150, 8120, 8130, 8162, 8213, 8175, 8181, 8219, 8297,1.9325339794158936
0, 8212, 8226, 8215, 8196, 8237, 8157, 8259, 8164, 8168, 8220, 8176, 8176, 8207, 8312,1.9404361248016357
1, 8191, 8198, 8180, 8179, 8202, 8152, 8138, 8151, 8180, 8233, 8177, 8168, 8217, 8330,1.9484970569610596
2, 8146, 8160, 8135, 8153, 8225, 8151, 8128, 8162, 8188, 8226, 8168, 8158, 8219, 8325,1.9563782215118408
3, 8153, 8155, 8172, 8126, 8248, 8168, 8233, 8202, 8197, 8219, 8160, 8156, 8194, 8300,1.9632439613342285
4, 8122, 8153, 8124, 8105, 8137, 8175, 8143, 8194, 8205, 8212, 8150, 8131, 8171, 8267,1.971463680267334
5, 8105, 8146, 8120, 8107, 8134, 8174, 8179, 8196, 8190, 8183, 8145, 8110, 8151, 8228,1.979299783706665
6, 8117, 8141, 8152, 8123, 8131, 8171, 8179, 8192, 8188, 8190, 8152, 8123, 8148, 8228,1.987217903137207
7, 8124, 8147, 8140, 8128, 8096, 8165, 8117, 8175, 8201, 8221, 8155, 8137, 8157, 8265,1.995392084121704
8, 8127, 8158, 8124, 8128, 8128, 8158, 8112, 8159, 8200, 8217, 8160, 8142, 8166, 8283,2.0032765865325928
9, 8126, 8169, 8127, 8135, 8225, 8157, 8141, 8151, 8187, 8198, 8173, 8146, 8175, 8275,2.0112717151641846
10, 8152, 8178, 8192, 8142, 8275, 8151, 8237, 8176, 8167, 8188, 8174, 8149, 8156, 8256,2.019392967224121
11, 8149, 8171, 8188, 8160, 8142, 8129, 8161, 8170, 8166, 8190, 8169, 8147, 8151, 8244,2.026324987411499
12, 8134, 8174, 8148, 8170, 8093, 8123, 8109, 8156, 8177, 8179, 8177, 8152, 8172, 8254,2.0342845916748047
13, 8142, 8183, 8154, 8165, 8120, 8141, 8125, 8164, 8175, 8168, 8179, 8164, 8183, 8277,2.042405843734741
14, 8135, 8180, 8135, 8167, 8087, 8150, 8109, 8170, 8179, 8187, 8169, 8163, 8185, 8284,2.050306797027588
15, 8163, 8188, 8192, 8171, 8151, 8157, 8261, 8202, 8176, 8193, 8167, 8164, 8177, 8271,2.058297634124756
16, 8170, 8189, 8207, 8165, 8136, 8158, 8211, 8186, 8158, 8182, 8170, 8165, 8180, 8271,2.066418409347534
17, 8137, 8172, 8148, 8152, 8098, 8164, 8113, 8158, 8152, 8176, 8171, 8152, 8186, 8268,2.0734400749206543
18, 8136, 8159, 8163, 8131, 8132, 8174, 8203, 8191, 8166, 8183, 8171, 8141, 8170, 8244,2.082440137863159
19, 8104, 8146, 8136, 8110, 8123, 8168, 8159, 8203, 8196, 8206, 8161, 8130, 8165, 8231,2.0904579162597656
20, 8094, 8139, 8134, 8106, 8185, 8169, 8182, 8212, 8211, 8193, 8159, 8134, 8158, 8238,2.0972485542297363
21, 8105, 8127, 8146, 8103, 8147, 8164, 8174, 8207, 8195, 8159, 8166, 8136, 8142, 8241,2.105436086654663
22, 8101, 8116, 8129, 8095, 8062, 8147, 8135, 8195, 8168, 8149, 8157, 8122, 8135, 8232,2.113403558731079
23, 8127, 8122, 8165, 8093, 8149, 8144, 8196, 8211, 8159, 8144, 8145, 8125, 8136, 8235,2.1213583946228027
24, 8120, 8125, 8146, 8095, 8213, 8136, 8144, 8198, 8170, 8137, 8150, 8124, 8127, 8237,2.129460096359253
25, 8104, 8129, 8141, 8094, 8232, 8131, 8171, 8196, 8158, 8119, 8156, 8114, 8101, 8208,2.1362197399139404
26, 8115, 8132, 8162, 8096, 8211, 8146, 8172, 8204, 8148, 8120, 8161, 8124, 8111, 8214,2.145421266555786
27, 8136, 8146, 8159, 8123, 8210, 8165, 8126, 8196, 8168, 8156, 8180, 8148, 8156, 8265,2.153000593185425
28, 8170, 8178, 8197, 8154, 8228, 8158, 8189, 8192, 8164, 8159, 8189, 8161, 8167, 8269,2.1603195667266846
29, 8152, 8180, 8172, 8153, 8144, 8125, 8135, 8159, 8137, 8139, 8167, 8144, 8155, 8239,2.168348550796509
30, 8141, 8164, 8153, 8133, 8147, 8118, 8149, 8152, 8120, 8151, 8154, 8139, 8160, 8237,2.176287889480591
31, 8159, 8162, 8177, 8137, 8176, 8129, 8172, 8170, 8130, 8182, 8168, 8165, 8191, 8266,2.1842474937438965
32, 8134, 8158, 8150, 8143, 8154, 8126, 8127, 8169, 8139, 8188, 8165, 8163, 8199, 8273,2.1924030780792236
33, 8118, 8140, 8150, 8118, 8185, 8125, 8190, 8184, 8130, 8171, 8151, 8133, 8166, 8244,2.200277328491211
34, 8121, 8131, 8137, 8111, 8153, 8142, 8147, 8194, 8153, 8182, 8155, 8120, 8162, 8241,2.2081663608551025
35, 8131, 8134, 8143, 8126, 8163, 8162, 8153, 8216, 8185, 8194, 8157, 8132, 8168, 8251,2.2164502143859863
36, 8138, 8116, 8171, 8110, 8194, 8156, 8191, 8218, 8177, 8168, 8155, 8138, 8146, 8239,2.223301887512207
37, 8130, 8103, 8142, 8089, 8176, 8137, 8140, 8198, 8165, 8141, 8152, 8131, 8142, 8243,2.2313334941864014
38, 8158, 8126, 8163, 8110, 8204, 8148, 8195, 8222, 8175, 8158, 8159, 8141, 8163, 8267,2.2393736839294434
39, 8162, 8137, 8170, 8137, 8192, 8156, 8154, 8221, 8194, 8198, 8180, 8158, 8185, 8289,2.247386932373047
40, 8146, 8133, 8165, 8132, 8212, 8149, 8146, 8199, 8190, 8193, 8180, 8159, 8183, 8293,2.255462884902954
41, 8162, 8141, 8186, 8129, 8213, 8151, 8180, 8186, 8176, 8176, 8167, 8158, 8171, 8269,2.2633917331695557
42, 8172, 8161, 8171, 8154, 8191, 8152, 8118, 8166, 8177, 8182, 8174, 8169, 8183, 8259,2.271383762359619
43, 8220, 8190, 8219, 8182, 8318, 8158, 8182, 8175, 8170, 8185, 8186, 8199, 8207, 8300,2.279503583908081
44, 8241, 8200, 8225, 8185, 8343, 8150, 8157, 8170, 8165, 8200, 8185, 8214, 8226, 8347,2.2872743606567383
45, 8209, 8185, 8166, 8162, 8284, 8127, 8127, 8161, 8163, 8206, 8181, 8200, 8231, 8346,2.294304132461548
46, 8195, 8156, 8162, 8132, 8286, 8119, 8177, 8165, 8145, 8177, 8171, 8176, 8219, 8318,2.302417516708374
47, 8163, 8121, 8131, 8109, 8266, 8119, 8130, 8147, 8131, 8159, 8155, 8139, 8199, 8290,2.3105580806732178
48, 8136, 8110, 8130, 8092, 8280, 8121, 8177, 8163, 8127, 8155, 8148, 8118, 8163, 8252,2.318453788757324
49, 8116, 8103, 8130, 8080, 8248, 8125, 8163, 8179, 8145, 8156, 8147, 8122, 8147, 8222,2.326427936553955
50, 8104, 8088, 8117, 8084, 8234, 8144, 8146, 8189, 8175, 8172, 8152, 8134, 8165, 8218,2.334404706954956
51, 8126, 8100, 8161, 8108, 8257, 8161, 8205, 8214, 8187, 8189, 8169, 8153, 8177, 8243,2.34243106842041
52, 8133, 8125, 8158, 8123, 8191, 8159, 8141, 8205, 8194, 8206, 8180, 8159, 8182, 8274,2.3504860401153564
53, 8159, 8145, 8171, 8131, 8190, 8164, 8174, 8213, 8200, 8204, 8181, 8171, 8199, 8282,2.3574888706207275
54, 8176, 8149, 8187, 8149, 8192, 8170, 8177, 8221, 8208, 8198, 8186, 8187, 8225, 8291,2.365445852279663
55, 8166, 8149, 8170, 8160, 8189, 8167, 8139, 8213, 8220, 8204, 8178, 8179, 8229, 8314,2.373594284057617
56, 8201, 8171, 8201, 8170, 8227, 8176, 8194, 8215, 8213, 8206, 8171, 8181, 8213, 8322,2.381437301635742
57, 8209, 8195, 8182, 8192, 8186, 8177, 8139, 8187, 8194, 8202, 8181, 8190, 8213, 8318,2.3893826007843018
58, 8191, 8197, 8174, 8192, 8190, 8168, 8162, 8172, 8167, 8181, 8179, 8177, 8201, 8299,2.397451877593994
59, 8186, 8174, 8184, 8163, 8193, 8161, 8172, 8159, 8146, 8166, 8172, 8170, 8200, 8294,2.405484437942505
60, 8192, 8165, 8159, 8148, 8175, 8156, 8136, 8142, 8140, 8167, 8174, 8186, 8229, 8325,2.413229465484619
61, 8224, 8176, 8188, 8162, 8219, 8152, 8199, 8149, 8124, 8156, 8172, 8198, 8225, 8340,2.4204554557800293
62, 8208, 8166, 8171, 8171, 8172, 8140, 8139, 8132, 8103, 8144, 8161, 8181, 8200, 8312,2.4284327030181885
63, 8173, 8158, 8153, 8164, 8149, 8133, 8151, 8131, 8085, 8135, 8152, 8160, 8177, 8276,2.4364817142486572
64, 8169, 8156, 8174, 8162, 8215, 8132, 8184, 8151, 8087, 8138, 8158, 8159, 8171, 8273,2.444420576095581
65, 8164, 8144, 8155, 8167, 8261, 8133, 8137, 8159, 8124, 8147, 8168, 8163, 8187, 8289,2.452507972717285
66, 8181, 8140, 8178, 8163, 8248, 8148, 8200, 8183, 8159, 8160, 8168, 8164, 8181, 8286,2.460391044616699
67, 8172, 8137, 8171, 8165, 8161, 8160, 8158, 8199, 8186, 8190, 8157, 8149, 8166, 8273,2.469486951828003
68, 8148, 8131, 8135, 8158, 8176, 8167, 8144, 8216, 8199, 8195, 8156, 8138, 8166, 8260,2.4764328002929688
69, 8158, 8128, 8159, 8128, 8215, 8161, 8217, 8226, 8194, 8169, 8159, 8144, 8163, 8269,2.4834909439086914
70, 8153, 8129, 8153, 8123, 8142, 8149, 8136, 8189, 8193, 8168, 8152, 8132, 8152, 8277,2.4912540912628174
71, 8146, 8130, 8121, 8143, 8126, 8152, 8071, 8169, 8194, 8187, 8151, 8127, 8151, 8266,2.499493360519409
72, 8155, 8128, 8121, 8142, 8179, 8162, 8136, 8182, 8185, 8177, 8154, 8147, 8158, 8269,2.5074214935302734
73, 8165, 8143, 8166, 8148, 8222, 8165, 8235, 8200, 8167, 8147, 8156, 8155, 8148, 8269,2.5154192447662354
74, 8146, 8159, 8155, 8171, 8161, 8163, 8131, 8183, 8168, 8150, 8164, 8144, 8154, 8251,2.5234367847442627
75, 8132, 8155, 8111, 8179, 8180, 8166, 8071, 8168, 8183, 8185, 8175, 8147, 8178, 8260,2.531463623046875
76, 8190, 8154, 8213, 8177, 8351, 8185, 8308, 8202, 8170, 8186, 8177, 8168, 8169, 8277,2.5392940044403076
77, 8178, 8136, 8218, 8166, 8255, 8192, 8236, 8165, 8156, 8170, 8166, 8156, 8159, 8263,2.547258138656616
78, 8105, 8109, 8118, 8139, 8132, 8177, 8095, 8121, 8153, 8165, 8153, 8126, 8155, 8240,2.554241895675659
79, 8116, 8102, 8159, 8123, 8205, 8169, 8208, 8154, 8148, 8160, 8161, 8131, 8142, 8239,2.562121868133545
80, 8113, 8089, 8150, 8130, 8149, 8164, 8126, 8155, 8164, 8176, 8174, 8136, 8150, 8243,2.5703868865966797
81, 8091, 8075, 8105, 8122, 8130, 8170, 8100, 8157, 8183, 8183, 8169, 8135, 8145, 8232,2.578197479248047
82, 8112, 8076, 8139, 8108, 8196, 8170, 8194, 8181, 8181, 8157, 8159, 8135, 8124, 8232,2.5862631797790527
83, 8119, 8068, 8155, 8104, 8191, 8154, 8183, 8182, 8178, 8145, 8155, 8125, 8125, 8242,2.5943636894226074
84, 8097, 8042, 8127, 8089, 8144, 8146, 8133, 8166, 8171, 8143, 8152, 8116, 8119, 8227,2.6024434566497803
85, 8093, 8049, 8113, 8092, 8158, 8141, 8137, 8160, 8151, 8128, 8153, 8118, 8106, 8213,2.610473394393921
86, 8165, 8104, 8217, 8139, 8332, 8168, 8296, 8198, 8145, 8127, 8163, 8150, 8122, 8235,2.6183087825775146
87, 8194, 8120, 8230, 8180, 8350, 8194, 8208, 8194, 8168, 8154, 8175, 8177, 8153, 8274,2.6254913806915283
88, 8161, 8112, 8144, 8181, 8244, 8180, 8089, 8161, 8172, 8163, 8170, 8161, 8143, 8275,2.6334636211395264
89, 8190, 8138, 8191, 8185, 8232, 8162, 8216, 8180, 8143, 8143, 8165, 8147, 8122, 8256,2.641409158706665
90, 8187, 8138, 8184, 8198, 8167, 8154, 8145, 8169, 8143, 8140, 8176, 8148, 8143, 8267,2.649472713470459
91, 8165, 8119, 8154, 8190, 8171, 8155, 8142, 8158, 8155, 8145, 8181, 8155, 8153, 8277,2.6574928760528564
92, 8175, 8122, 8183, 8175, 8234, 8164, 8196, 8156, 8155, 8162, 8180, 8163, 8154, 8274,2.665247678756714
93, 8159, 8125, 8160, 8167, 8259, 8171, 8139, 8139, 8157, 8182, 8181, 8156, 8166, 8272,2.6734914779663086
94, 8166, 8123, 8175, 8161, 8251, 8160, 8182, 8152, 8147, 8171, 8176, 8155, 8160, 8277,2.6814746856689453
95, 8164, 8115, 8168, 8164, 8149, 8132, 8142, 8151, 8136, 8162, 8163, 8167, 8164, 8299,2.68819522857666
96, 8154, 8104, 8157, 8154, 8154, 8136, 8165, 8160, 8127, 8150, 8159, 8163, 8169, 8291,2.696336269378662
97, 8148, 8099, 8165, 8135, 8176, 8153, 8188, 8177, 8137, 8158, 8166, 8146, 8154, 8252,2.7041516304016113
98, 8129, 8106, 8142, 8141, 8141, 8153, 8136, 8183, 8162, 8182, 8159, 8147, 8147, 8246,2.7123992443084717
99, 8158, 8115, 8175, 8162, 8184, 8150, 8194, 8198, 8158, 8156, 8155, 8174, 8151, 8270,2.720468521118164
100, 8192, 8123, 8183, 8173, 8161, 8132, 8159, 8187, 8155, 8143, 8172, 8192, 8173, 8303,2.728410243988037
101, 8211, 8148, 8185, 8184, 8172, 8130, 8162, 8196, 8173, 8179, 8181, 8197, 8194, 8325,2.736375331878662
102, 8222, 8157, 8204, 8193, 8204, 8158, 8190, 8203, 8171, 8194, 8166, 8200, 8190, 8315,2.7444252967834473
103, 8202, 8145, 8174, 8195, 8163, 8159, 8129, 8170, 8157, 8174, 8161, 8193, 8178, 8297,2.752272844314575
104, 8218, 8151, 8204, 8210, 8192, 8141, 8183, 8167, 8142, 8159, 8182, 8194, 8175, 8297,2.75944447517395
105, 8229, 8157, 8203, 8228, 8179, 8143, 8152, 8153, 8133, 8185, 8194, 8197, 8195, 8309,2.7673935890197754
106, 8220, 8162, 8173, 8232, 8176, 8157, 8143, 8141, 8141, 8197, 8181, 8199, 8210, 8316,2.775259017944336
107, 8231, 8169, 8197, 8220, 8192, 8161, 8189, 8155, 8151, 8170, 8171, 8206, 8197, 8318,2.7833030223846436
108, 8213, 8155, 8169, 8199, 8181, 8163, 8132, 8150, 8154, 8162, 8174, 8193, 8184, 8311,2.79124116897583
109, 8205, 8144, 8171, 8191, 8268, 8167, 8190, 8157, 8145, 8178, 8176, 8183, 8181, 8290,2.7992348670959473
110, 8200, 8140, 8177, 8187, 8281, 8165, 8171, 8160, 8155, 8187, 8170, 8186, 8191, 8286,2.8073232173919678
111, 8183, 8123, 8147, 8177, 8227, 8168, 8142, 8168, 8170, 8181, 8155, 8173, 8184, 8290,2.814218521118164
112, 8193, 8110, 8162, 8179, 8194, 8168, 8192, 8184, 8161, 8169, 8158, 8158, 8156, 8270,2.822347640991211
113, 8191, 8117, 8161, 8195, 8136, 8158, 8133, 8169, 8154, 8162, 8177, 8167, 8159, 8270,2.8304262161254883
114, 8224, 8129, 8194, 8190, 8176, 8163, 8178, 8179, 8150, 8157, 8170, 8198, 8168, 8303,2.8384335041046143
115, 8259, 8120, 8201, 8168, 8172, 8165, 8177, 8185, 8148, 8158, 8146, 8205, 8165, 8329,2.8464698791503906
116, 8236, 8116, 8162, 8163, 8160, 8154, 8145, 8170, 8140, 8147, 8143, 8182, 8157, 8318,2.8544039726257324
117, 8224, 8121, 8186, 8162, 8260, 8149, 8196, 8165, 8124, 8133, 8164, 8184, 8149, 8299,2.862438678741455
118, 8220, 8110, 8176, 8162, 8293, 8143, 8134, 8156, 8125, 8147, 8173, 8206, 8170, 8307,2.8702967166900635
119, 8239, 8115, 8187, 8174, 8325, 8155, 8172, 8182, 8144, 8172, 8168, 8221, 8198, 8320,2.878190040588379
120, 8258, 8130, 8211, 8198, 8304, 8174, 8183, 8194, 8173, 8205, 8179, 8224, 8222, 8333,2.8851704597473145
121, 8245, 8132, 8183, 8211, 8213, 8170, 8133, 8182, 8187, 8229, 8194, 8225, 8242, 8343,2.893383026123047
122, 8247, 8125, 8190, 8204, 8160, 8160, 8188, 8190, 8174, 8212, 8184, 8228, 8233, 8331,2.901346445083618
123, 8226, 8105, 8167, 8193, 8122, 8156, 8147, 8171, 8170, 8201, 8161, 8209, 8214, 8321,2.9093635082244873
124, 8197, 8089, 8157, 8182, 8158, 8169, 8174, 8178, 8174, 8188, 8149, 8185, 8191, 8306,2.9172370433807373
125, 8165, 8071, 8149, 8153, 8116, 8173, 8185, 8202, 8172, 8146, 8144, 8164, 8161, 8275,2.9253170490264893
126, 8133, 8055, 8113, 8123, 8054, 8163, 8139, 8192, 8173, 8134, 8145, 8146, 8146, 8253,2.933302879333496
127, 8165, 8064, 8162, 8139, 8121, 8176, 8203, 8193, 8170, 8165, 8160, 8160, 8146, 8259,2.941263437271118
238, 8176, 8072, 8163, 8164, 8119, 8191, 8155, 8183, 8174, 8192, 8163, 8171, 8152, 8277,2.948329448699951
0, 8164, 8066, 8140, 8137, 8115, 8177, 8157, 8173, 8162, 8173, 8152, 8159, 8147, 8278,2.9572813510894775
1, 8184, 8071, 8168, 8117, 8113, 8146, 8168, 8161, 8136, 8158, 8160, 8162, 8154, 8283,2.9642491340637207
2, 8193, 8092, 8168, 8154, 8095, 8128, 8107, 8145, 8141, 8188, 8175, 8176, 8177, 8294,2.9723761081695557
3, 8207, 8104, 8191, 8182, 8144, 8136, 8178, 8158, 8143, 8182, 8169, 8179, 8172, 8278,2.9803547859191895
4, 8203, 8098, 8182, 8171, 8123, 8135, 8145, 8142, 8132, 8151, 8169, 8175, 8166, 8267,2.9882001876831055
5, 8201, 8104, 8171, 8164, 8132, 8132, 8142, 8133, 8133, 8148, 8179, 8178, 8175, 8275,2.9963972568511963
6, 8212, 8111, 8187, 8177, 8159, 8147, 8184, 8147, 8143, 8165, 8178, 8174, 8173, 8272,3.0042970180511475
7, 8187, 8107, 8162, 8193, 8122, 8162, 8129, 8140, 8154, 8178, 8169, 8164, 8167, 8262,3.01135516166687
8, 8198, 8105, 8189, 8193, 8147, 8163, 8179, 8154, 8158, 8172, 8166, 8184, 8171, 8269,3.0192112922668457
9, 8210, 8104, 8183, 8192, 8121, 8159, 8149, 8147, 8163, 8176, 8168, 8201, 8182, 8276,3.027273416519165
10, 8189, 8100, 8148, 8189, 8116, 8172, 8140, 8132, 8151, 8164, 8156, 8171, 8154, 8246,3.0353658199310303
11, 8174, 8075, 8157, 8157, 8140, 8182, 8184, 8141, 8129, 8127, 8137, 8137, 8107, 8213,3.043231725692749
12, 8137, 8043, 8121, 8125, 8097, 8176, 8121, 8143, 8134, 8121, 8136, 8131, 8105, 8220,3.051459550857544
13, 8134, 8055, 8134, 8128, 8123, 8192, 8175, 8167, 8150, 8149, 8152, 8143, 8115, 8231,3.059476852416992
14, 8150, 8077, 8151, 8143, 8119, 8209, 8165, 8168, 8163, 8171, 8158, 8149, 8119, 8226,3.06823468208313
15, 8162, 8069, 8138, 8151, 8119, 8205, 8149, 8161, 8165, 8157, 8153, 8153, 8124, 8235,3.075423002243042
16, 8188, 8063, 8172, 8153, 8143, 8205, 8202, 8180, 8153, 8145, 8163, 8171, 8135, 8270,3.0824267864227295
17, 8171, 8059, 8152, 8140, 8093, 8208, 8130, 8172, 8159, 8164, 8165, 8169, 8146, 8285,3.0903966426849365
18, 8164, 8054, 8152, 8129, 8119, 8203, 8170, 8167, 8166, 8166, 8157, 8156, 8138, 8252,3.0982587337493896
19, 8178, 8065, 8168, 8148, 8124, 8191, 8172, 8164, 8170, 8159, 8170, 8171, 8150, 8255,3.1064698696136475
20, 8183, 8083, 8162, 8170, 8101, 8192, 8134, 8165, 8183, 8179, 8181, 8197, 8190, 8309,3.1143767833709717
21, 8201, 8084, 8193, 8168, 8163, 8202, 8185, 8168, 8187, 8201, 8172, 8202, 8197, 8316,3.1224539279937744
22, 8187, 8083, 8172, 8165, 8211, 8193, 8129, 8135, 8185, 8197, 8177, 8191, 8190, 8286,3.130293607711792
23, 8183, 8111, 8172, 8173, 8294, 8189, 8163, 8139, 8177, 8182, 8187, 8199, 8198, 8281,3.1383368968963623
24, 8177, 8111, 8177, 8176, 8325, 8196, 8167, 8153, 8168, 8181, 8166, 8191, 8185, 8272,3.145460844039917
25, 8157, 8080, 8141, 8158, 8311, 8193, 8124, 8146, 8165, 8169, 8147, 8157, 8141, 8237,3.1532907485961914
26, 8184, 8076, 8174, 8139, 8299, 8188, 8191, 8165, 8169, 8161, 8161, 8161, 8125, 8228,3.16115403175354
27, 8172, 8073, 8163, 8135, 8202, 8184, 8148, 8164, 8179, 8176, 8162, 8174, 8148, 8245,3.1692380905151367
28, 8148, 8070, 8149, 8136, 8212, 8192, 8168, 8168, 8174, 8162, 8149, 8163, 8142, 8230,3.177198886871338
29, 8162, 8077, 8166, 8136, 8246, 8201, 8183, 8178, 8175, 8163, 8163, 8155, 8129, 8208,3.1851866245269775
30, 8166, 8085, 8151, 8149, 8225, 8193, 8133, 8172, 8191, 8198, 8183, 8167, 8155, 8230,3.193309783935547
31, 8175, 8093, 8174, 8163, 8249, 8190, 8186, 8170, 8179, 8182, 8179, 8182, 8162, 8251,3.2012252807617188
32, 8169, 8093, 8163, 8162, 8203, 8188, 8136, 8155, 8170, 8157, 8175, 8178, 8157, 8249,3.20926833152771
33, 8169, 8098, 8160, 8159, 8207, 8181, 8149, 8167, 8187, 8174, 8177, 8179, 8164, 8249,3.216365337371826
34, 8177, 8103, 8176, 8163, 8225, 8172, 8181, 8166, 8178, 8171, 8173, 8188, 8165, 8266,3.2241954803466797
35, 8161, 8095, 8138, 8161, 8214, 8174, 8130, 8131, 8147, 8143, 8170, 8181, 8155, 8274,3.232170820236206
36, 8164, 8094, 8160, 8152, 8249, 8197, 8192, 8141, 8140, 8142, 8171, 8172, 8137, 8251,3.2402102947235107
37, 8160, 8101, 8164, 8154, 8170, 8196, 8150, 8154, 8169, 8164, 8177, 8172, 8147, 8243,3.2481846809387207
38, 8163, 8105, 8150, 8163, 8139, 8177, 8141, 8155, 8176, 8161, 8176, 8170, 8151, 8253,3.2562825679779053
39, 8168, 8097, 8164, 8154, 8157, 8173, 8179, 8154, 8155, 8148, 8169, 8162, 8132, 8246,3.2643775939941406
40, 8135, 8091, 8139, 8140, 8121, 8177, 8127, 8156, 8163, 8168, 8168, 8155, 8139, 8240,3.272392988204956
41, 8150, 8109, 8169, 8155, 8217, 8190, 8191, 8193, 8176, 8176, 8174, 8171, 8153, 8239,3.2793142795562744
42, 8166, 8115, 8172, 8170, 8264, 8195, 8167, 8186, 8172, 8163, 8168, 8178, 8151, 8235,3.287405014038086
43, 8142, 8096, 8138, 8147, 8193, 8191, 8151, 8171, 8163, 8153, 8145, 8145, 8129, 8223,3.2953107357025146
44, 8139, 8087, 8154, 8126, 8137, 8190, 8194, 8194, 8158, 8147, 8139, 8133, 8112, 8212,3.3034446239471436
45, 8130, 8091, 8138, 8133, 8118, 8187, 8126, 8185, 8152, 8152, 8144, 8140, 8116, 8215,3.311432361602783
46, 8148, 8097, 8161, 8131, 8152, 8186, 8174, 8184, 8139, 8143, 8149, 8144, 8118, 8233,3.3192131519317627
47, 8169, 8096, 8171, 8138, 8126, 8184, 8165, 8190, 8149, 8136, 8156, 8150, 8133, 8258,3.327392816543579
48, 8155, 8107, 8154, 8160, 8173, 8188, 8144, 8185, 8159, 8142, 8161, 8157, 8145, 8256,3.3353097438812256
49, 8166, 8128, 8195, 8170, 8245, 8201, 8199, 8187, 8151, 8151, 8165, 8169, 8138, 8243,3.343311071395874
50, 8169, 8132, 8174, 8176, 8190, 8204, 8130, 8166, 8167, 8168, 8164, 8167, 8150, 8256,3.350224733352661
51, 8165, 8133, 8158, 8196, 8227, 8215, 8167, 8169, 8185, 8179, 8161, 8157, 8158, 8259,3.3583083152770996
52, 8151, 8128, 8158, 8193, 8230, 8229, 8174, 8175, 8185, 8188, 8166, 8150, 8161, 8244,3.366220712661743
53, 8144, 8130, 8142, 8163, 8159, 8220, 8138, 8169, 8181, 8183, 8167, 8149, 8166, 8241,3.3743834495544434
54, 8170, 8139, 8171, 8143, 8162, 8202, 8195, 8179, 8174, 8170, 8152, 8144, 8140, 8236,3.382279396057129
55, 8142, 8115, 8144, 8125, 8142, 8198, 8146, 8181, 8173, 8166, 8143, 8125, 8114, 8216,3.390314817428589
56, 8116, 8092, 8132, 8101, 8154, 8208, 8171, 8197, 8165, 8150, 8146, 8122, 8114, 8192,3.3983230590820312
57, 8127, 8094, 8152, 8094, 8152, 8205, 8178, 8194, 8161, 8144, 8139, 8134, 8121, 8200,3.4062869548797607
58, 8130, 8103, 8146, 8114, 8139, 8206, 8140, 8186, 8169, 8158, 8140, 8140, 8124, 8222,3.4132986068725586
59, 8147, 8116, 8179, 8126, 8170, 8214, 8194, 8210, 8169, 8162, 8167, 8157, 8133, 8232,3.42126727104187
60, 8136, 8113, 8156, 8112, 8127, 8205, 8135, 8195, 8166, 8156, 8173, 8168, 8148, 8244,3.4293630123138428
61, 8138, 8111, 8146, 8109, 8140, 8206, 8157, 8190, 8163, 8148, 8146, 8156, 8136, 8241,3.4373583793640137
62, 8165, 8127, 8179, 8128, 8161, 8210, 8182, 8204, 8174, 8157, 8151, 8157, 8135, 8241,3.445380926132202
63, 8162, 8146, 8163, 8146, 8140, 8193, 8132, 8180, 8184, 8182, 8176, 8175, 8165, 8267,3.4533326625823975
64, 8193, 8157, 8190, 8153, 8170, 8179, 8185, 8161, 8169, 8194, 8175, 8193, 8180, 8292,3.4612996578216553
65, 8225, 8162, 8201, 8169, 8142, 8176, 8130, 8152, 8167, 8197, 8177, 8197, 8197, 8311,3.4692835807800293
66, 8228, 8175, 8201, 8189, 8153, 8184, 8139, 8163, 8171, 8195, 8183, 8197, 8213, 8318,3.4763784408569336
67, 8223, 8178, 8206, 8193, 8159, 8190, 8179, 8165, 8155, 8177, 8172, 8196, 8199, 8304,3.484266996383667
68, 8201, 8160, 8158, 8175, 8115, 8179, 8126, 8147, 8143, 8153, 8151, 8167, 8161, 8272,3.492281913757324
69, 8198, 8146, 8167, 8145, 8161, 8174, 8189, 8166, 8133, 8126, 8141, 8146, 8116, 8231,3.5003721714019775
70, 8173, 8132, 8164, 8141, 8163, 8181, 8165, 8167, 8129, 8119, 8142, 8146, 8108, 8216,3.5083014965057373
71, 8151, 8124, 8153, 8155, 8169, 8195, 8162, 8170, 8138, 8130, 8154, 8152, 8129, 8229,3.5161612033843994
72, 8169, 8133, 8174, 8160, 8172, 8211, 8198, 8191, 8151, 8153, 8169, 8161, 8150, 8244,3.5244216918945312
73, 8156, 8137, 8142, 8155, 8124, 8211, 8135, 8192, 8166, 8170, 8164, 8159, 8162, 8253,3.532334804534912
74, 8157, 8127, 8158, 8149, 8171, 8206, 8187, 8207, 8169, 8146, 8157, 8155, 8153, 8251,3.539355754852295
75, 8166, 8127, 8172, 8155, 8161, 8197, 8159, 8192, 8170, 8140, 8164, 8160, 8153, 8251,3.5473668575286865
76, 8163, 8138, 8159, 8154, 8139, 8190, 8143, 8171, 8163, 8165, 8171, 8165, 8167, 8252,3.555142402648926
77, 8168, 8131, 8179, 8130, 8163, 8192, 8199, 8183, 8149, 8167, 8169, 8167, 8165, 8254,3.563324451446533
78, 8155, 8130, 8158, 8137, 8142, 8196, 8141, 8180, 8163, 8169, 8166, 8172, 8177, 8274,3.571256160736084
79, 8177, 8160, 8182, 8174, 8192, 8195, 8181, 8188, 8177, 8176, 8169, 8189, 8198, 8283,3.5791614055633545
80, 8204, 8170, 8197, 8182, 8218, 8189, 8162, 8178, 8180, 8187, 8178, 8197, 8213, 8281,3.5872809886932373
81, 8215, 8176, 8177, 8179, 8241, 8200, 8137, 8168, 8193, 8187, 8189, 8205, 8221, 8302,3.595271348953247
82, 8245, 8200, 8205, 8200, 8270, 8209, 8199, 8189, 8193, 8169, 8180, 8208, 8210, 8316,3.6022658348083496
83, 8226, 8188, 8177, 8202, 8188, 8193, 8139, 8175, 8180, 8160, 8154, 8173, 8191, 8288,3.610128879547119
84, 8190, 8161, 8157, 8172, 8161, 8188, 8173, 8159, 8157, 8146, 8153, 8151, 8165, 8251,3.618206024169922
85, 8163, 8146, 8155, 8143, 8146, 8189, 8178, 8151, 8144, 8126, 8164, 8167, 8155, 8255,3.6264004707336426
86, 8154, 8147, 8153, 8142, 8188, 8191, 8147, 8162, 8166, 8139, 8156, 8176, 8168, 8279,3.6342756748199463
87, 8186, 8162, 8193, 8167, 8306, 8205, 8200, 8196, 8195, 8161, 8159, 8181, 8186, 8290,3.6422455310821533
88, 8174, 8158, 8160, 8172, 8307, 8196, 8141, 8179, 8197, 8154, 8167, 8180, 8193, 8290,3.6503167152404785
89, 8168, 8153, 8160, 8154, 8291, 8193, 8173, 8175, 8182, 8142, 8159, 8175, 8176, 8277,3.6584396362304688
90, 8195, 8168, 8194, 8158, 8274, 8207, 8186, 8185, 8194, 8157, 8164, 8179, 8182, 8272,3.666501998901367
91, 8196, 8180, 8176, 8167, 8276, 8203, 8143, 8174, 8201, 8161, 8174, 8186, 8199, 8282,3.67322039604187
92, 8200, 8165, 8193, 8173, 8267, 8198, 8194, 8174, 8180, 8149, 8166, 8195, 8187, 8293,3.6814026832580566
93, 8188, 8157, 8176, 8187, 8146, 8207, 8136, 8166, 8188, 8168, 8168, 8193, 8190, 8304,3.6892876625061035
94, 8179, 8180, 8167, 8195, 8148, 8215, 8161, 8175, 8199, 8186, 8178, 8181, 8205, 8295,3.6972012519836426
95, 8185, 8179, 8184, 8185, 8182, 8205, 8181, 8174, 8188, 8176, 8179, 8188, 8205, 8278,3.705204963684082
96, 8197, 8159, 8173, 8178, 8127, 8194, 8121, 8160, 8189, 8172, 8181, 8210, 8216, 8298,3.713137626647949
97, 8215, 8161, 8182, 8164, 8140, 8191, 8185, 8177, 8183, 8169, 8178, 8196, 8213, 8306,3.7211930751800537
98, 8173, 8155, 8139, 8142, 8132, 8181, 8156, 8167, 8168, 8149, 8155, 8138, 8175, 8270,3.729287624359131
99, 8154, 8145, 8136, 8145, 8138, 8179, 8161, 8166, 8165, 8116, 8145, 8125, 8150, 8245,3.7365529537200928
100, 8188, 8143, 8180, 8156, 8129, 8187, 8174, 8186, 8180, 8125, 8163, 8159, 8172, 8266,3.7443249225616455
101, 8177, 8133, 8149, 8140, 8093, 8192, 8117, 8184, 8196, 8151, 8161, 8157, 8181, 8283,3.753371477127075
102, 8175, 8129, 8160, 8122, 8136, 8191, 8184, 8187, 8187, 8135, 8152, 8146, 8160, 8283,3.760537624359131
103, 8187, 8144, 8172, 8146, 8128, 8182, 8152, 8169, 8180, 8141, 8174, 8169, 8180, 8298,3.7684648036956787
104, 8199, 8172, 8176, 8185, 8174, 8189, 8146, 8165, 8189, 8168, 8191, 8193, 8213, 8311,3.776381254196167
105, 8228, 8189, 8209, 8199, 8268, 8210, 8191, 8175, 8199, 8172, 8185, 8205, 8215, 8326,3.7844154834747314
106, 8223, 8190, 8179, 8199, 8277, 8208, 8136, 8159, 8200, 8171, 8179, 8191, 8219, 8342,3.792436361312866
107, 8220, 8193, 8179, 8199, 8296, 8199, 8177, 8167, 8194, 8156, 8180, 8179, 8216, 8321,3.8004491329193115
108, 8221, 8195, 8190, 8214, 8216, 8199, 8144, 8169, 8209, 8160, 8187, 8195, 8235, 8310,3.807420492172241
109, 8220, 8189, 8181, 8212, 8151, 8197, 8134, 8160, 8216, 8195, 8190, 8203, 8256, 8321,3.815403461456299
110, 8220, 8166, 8183, 8174, 8175, 8179, 8189, 8161, 8193, 8197, 8170, 8180, 8226, 8308,3.8232831954956055
111, 8181, 8144, 8132, 8148, 8143, 8166, 8131, 8151, 8193, 8188, 8150, 8143, 8200, 8284,3.8313753604888916
112, 8164, 8152, 8140, 8157, 8158, 8185, 8185, 8166, 8201, 8193, 8157, 8134, 8198, 8263,3.839477062225342
113, 8153, 8143, 8149, 8154, 8150, 8197, 8175, 8157, 8189, 8171, 8165, 8134, 8192, 8244,3.8472847938537598
114, 8140, 8123, 8128, 8124, 8133, 8190, 8133, 8143, 8180, 8139, 8156, 8132, 8173, 8242,3.85532283782959
115, 8180, 8146, 8177, 8119, 8149, 8191, 8197, 8172, 8180, 8133, 8160, 8158, 8171, 8279,3.863347053527832
116, 8202, 8163, 8179, 8148, 8112, 8189, 8145, 8185, 8188, 8141, 8177, 8180, 8201, 8319,3.8704259395599365
117, 8208, 8166, 8173, 8175, 8150, 8183, 8168, 8204, 8193, 8147, 8183, 8180, 8212, 8312,3.8784070014953613
118, 8205, 8182, 8176, 8188, 8179, 8176, 8173, 8203, 8195, 8165, 8184, 8171, 8207, 8298,3.886446475982666
119, 8181, 8192, 8155, 8192, 8172, 8183, 8146, 8180, 8198, 8169, 8183, 8166, 8211, 8308,3.8943045139312744
120, 8189, 8186, 8186, 8196, 8178, 8204, 8203, 8173, 8189, 8145, 8175, 8174, 8211, 8303,3.9024100303649902
121, 8187, 8182, 8174, 8198, 8127, 8207, 8138, 8147, 8174, 8139, 8162, 8177, 8197, 8284,3.9104464054107666
122, 8184, 8189, 8165, 8193, 8176, 8207, 8166, 8137, 8155, 8124, 8158, 8168, 8171, 8275,3.9184389114379883
123, 8189, 8177, 8165, 8194, 8205, 8217, 8190, 8130, 8148, 8112, 8166, 8157, 8167, 8280,3.9264373779296875
124, 8178, 8166, 8135, 8189, 8151, 8207, 8131, 8119, 8157, 8132, 8164, 8151, 8176, 8282,3.934445381164551
125, 8205, 8183, 8176, 8172, 8170, 8182, 8180, 8149, 8158, 8154, 8163, 8166, 8178, 8283,3.941483497619629
126, 8204, 8180, 8171, 8160, 8159, 8168, 8143, 8159, 8166, 8169, 8172, 8172, 8193, 8293,3.949216365814209
127, 8158, 8146, 8131, 8143, 8156, 8178, 8147, 8164, 8180, 8160, 8175, 8147, 8188, 8273,3.957472085952759
238, 8129, 8124, 8140, 8121, 8157, 8193, 8187, 8184, 8192, 8154, 8166, 8130, 8163, 8237,3.9654734134674072
0, 8117, 8128, 8129, 8121, 8133, 8198, 8141, 8188, 8206, 8166, 8159, 8132, 8163, 8229,3.973386287689209
1, 8120, 8143, 8119, 8131, 8135, 8202, 8137, 8198, 8210, 8154, 8160, 8125, 8164, 8226,3.9814717769622803
2, 8117, 8149, 8106, 8128, 8105, 8201, 8108, 8199, 8214, 8142, 8158, 8111, 8154, 8225,3.989448070526123
3, 8173, 8165, 8181, 8141, 8163, 8206, 8224, 8224, 8211, 8152, 8168, 8151, 8165, 8260,3.9972827434539795
4, 8235, 8187, 8244, 8165, 8173, 8210, 8240, 8229, 8214, 8171, 8194, 8205, 8206, 8313,4.0043439865112305
5, 8197, 8186, 8163, 8164, 8096, 8188, 8073, 8185, 8218, 8182, 8195, 8189, 8229, 8326,4.012469053268433
6, 8187, 8177, 8168, 8154, 8172, 8180, 8171, 8181, 8177, 8169, 8178, 8172, 8211, 8313,4.020444631576538
7, 8209, 8168, 8213, 8153, 8178, 8191, 8207, 8164, 8139, 8165, 8188, 8201, 8225, 8340,4.028449773788452
8, 8196, 8172, 8166, 8161, 8099, 8186, 8085, 8122, 8136, 8172, 8194, 8214, 8256, 8371,4.0364696979522705
9, 8198, 8183, 8158, 8169, 8131, 8177, 8125, 8104, 8117, 8159, 8171, 8199, 8232, 8341,4.044472932815552
10, 8205, 8178, 8181, 8170, 8188, 8181, 8205, 8103, 8103, 8154, 8169, 8192, 8204, 8309,4.052332878112793
11, 8196, 8177, 8185, 8163, 8240, 8190, 8196, 8131, 8139, 8177, 8185, 8195, 8213, 8322,4.0604753494262695
12, 8168, 8183, 8142, 8162, 8264, 8182, 8094, 8148, 8183, 8193, 8172, 8175, 8214, 8319,4.067248106002808
13, 8182, 8185, 8168, 8168, 8366, 8179, 8194, 8171, 8189, 8178, 8153, 8160, 8181, 8281,4.075348854064941
14, 8194, 8172, 8207, 8153, 8377, 8179, 8247, 8188, 8183, 8164, 8158, 8164, 8159, 8261,4.083328485488892
15, 8133, 8150, 8123, 8131, 8197, 8163, 8073, 8165, 8187, 8165, 8160, 8143, 8161, 8257,4.091482877731323
16, 8151, 8159, 8148, 8143, 8157, 8170, 8163, 8175, 8175, 8143, 8155, 8129, 8153, 8245,4.099276781082153
17, 8210, 8185, 8202, 8169, 8151, 8185, 8205, 8168, 8162, 8120, 8162, 8145, 8161, 8263,4.107554197311401
18, 8207, 8199, 8167, 8166, 8135, 8183, 8144, 8139, 8158, 8116, 8164, 8153, 8168, 8288,4.115470886230469
19, 8212, 8192, 8190, 8152, 8170, 8192, 8225, 8158, 8150, 8119, 8162, 8159, 8157, 8282,4.123193025588989
20, 8202, 8173, 8182, 8155, 8123, 8206, 8161, 8164, 8163, 8132, 8172, 8171, 8183, 8288,4.130435228347778
21, 8204, 8183, 8177, 8167, 8128, 8207, 8150, 8170, 8179, 8148, 8183, 8187, 8214, 8311,4.138467311859131
22, 8211, 8197, 8182, 8168, 8136, 8196, 8175, 8163, 8178, 8165, 8177, 8189, 8212, 8318,4.146536588668823
23, 8176, 8176, 8147, 8147, 8110, 8188, 8142, 8132, 8154, 8170, 8162, 8166, 8197, 8296,4.154456853866577
24, 8154, 8149, 8146, 8131, 8102, 8189, 8154, 8128, 8135, 8156, 8160, 8151, 8185, 8273,4.162255048751831
25, 8140, 8136, 8137, 8129, 8088, 8192, 8132, 8139, 8154, 8150, 8161, 8162, 8190, 8286,4.170438766479492
26, 8139, 8131, 8145, 8110, 8145, 8197, 8207, 8171, 8162, 8145, 8160, 8173, 8185, 8300,4.178429841995239
27, 8148, 8128, 8157, 8094, 8124, 8181, 8187, 8181, 8163, 8155, 8165, 8164, 8174, 8299,4.18646502494812
28, 8162, 8142, 8149, 8121, 8107, 8172, 8107, 8172, 8186, 8174, 8161, 8165, 8179, 8309,4.194467782974243
29, 8200, 8162, 8189, 8149, 8235, 8188, 8195, 8185, 8185, 8157, 8157, 8187, 8179, 8316,4.201218366622925
30, 8207, 8164, 8183, 8160, 8250, 8182, 8163, 8175, 8178, 8144, 8175, 8189, 8185, 8321,4.209370851516724
31, 8225, 8188, 8191, 8180, 8230, 8186, 8167, 8194, 8205, 8159, 8183, 8189, 8193, 8333,4.217475414276123
32, 8237, 8201, 8217, 8188, 8227, 8212, 8200, 8219, 8229, 8170, 8175, 8204, 8195, 8332,4.225342273712158
33, 8190, 8170, 8160, 8179, 8188, 8207, 8143, 8194, 8226, 8154, 8171, 8191, 8194, 8300,4.233515501022339
34, 8191, 8161, 8170, 8180, 8203, 8199, 8199, 8190, 8213, 8127, 8173, 8178, 8183, 8275,4.241469860076904
35, 8209, 8191, 8186, 8193, 8144, 8201, 8155, 8183, 8224, 8156, 8187, 8200, 8211, 8305,4.24923300743103
36, 8207, 8208, 8173, 8202, 8106, 8191, 8139, 8174, 8236, 8196, 8191, 8213, 8248, 8329,4.2584497928619385
37, 8205, 8193, 8182, 8192, 8122, 8186, 8177, 8162, 8216, 8186, 8176, 8192, 8233, 8304,4.264452219009399
38, 8170, 8170, 8139, 8170, 8109, 8179, 8128, 8139, 8196, 8166, 8160, 8161, 8205, 8280,4.272444725036621
39, 8154, 8161, 8140, 8153, 8131, 8163, 8184, 8165, 8185, 8163, 8152, 8156, 8186, 8278,4.2804200649261475
40, 8138, 8150, 8140, 8144, 8099, 8146, 8156, 8177, 8185, 8143, 8149, 8147, 8169, 8260,4.288446426391602
41, 8104, 8137, 8121, 8118, 8100, 8144, 8143, 8178, 8187, 8108, 8139, 8126, 8147, 8226,4.296446323394775
42, 8121, 8143, 8157, 8111, 8120, 8149, 8193, 8200, 8191, 8113, 8142, 8136, 8137, 8231,4.304191827774048
43, 8147, 8158, 8157, 8148, 8080, 8148, 8128, 8203, 8207, 8140, 8144, 8157, 8150, 8272,4.312453269958496
44, 8161, 8161, 8167, 8157, 8129, 8148, 8173, 8206, 8200, 8124, 8138, 8155, 8141, 8268,4.320352554321289
45, 8166, 8154, 8170, 8139, 8121, 8142, 8171, 8185, 8182, 8120, 8151, 8160, 8140, 8246,4.327422857284546
46, 8176, 8169, 8167, 8158, 8114, 8153, 8149, 8174, 8186, 8144, 8181, 8184, 8169, 8266,4.335445165634155
47, 8209, 8194, 8207, 8194, 8206, 8174, 8199, 8189, 8196, 8153, 8193, 8206, 8188, 8294,4.3434412479400635
48, 8213, 8192, 8193, 8201, 8226, 8170, 8137, 8172, 8203, 8170, 8183, 8210, 8211, 8307,4.351245164871216
49, 8223, 8195, 8197, 8195, 8231, 8165, 8174, 8171, 8196, 8175, 8187, 8215, 8229, 8312,4.359451770782471
50, 8239, 8206, 8205, 8200, 8183, 8168, 8177, 8176, 8189, 8175, 8202, 8219, 8239, 8322,4.367455005645752
51, 8233, 8213, 8178, 8211, 8143, 8181, 8149, 8175, 8198, 8203, 8191, 8204, 8251, 8327,4.37525749206543
52, 8227, 8214, 8188, 8208, 8153, 8181, 8188, 8175, 8212, 8217, 8176, 8199, 8258, 8325,4.383381366729736
53, 8193, 8195, 8149, 8179, 8112, 8164, 8122, 8150, 8223, 8204, 8174, 8194, 8252, 8335,4.391437530517578
54, 8197, 8186, 8157, 8166, 8147, 8179, 8183, 8172, 8216, 8187, 8173, 8183, 8227, 8337,4.398446321487427
55, 8197, 8177, 8172, 8164, 8139, 8187, 8183, 8184, 8214, 8172, 8161, 8157, 8198, 8296,4.406414031982422
56, 8134, 8152, 8110, 8139, 8104, 8159, 8117, 8164, 8218, 8151, 8146, 8119, 8163, 8237,4.414446115493774
57, 8122, 8144, 8130, 8121, 8161, 8166, 8222, 8189, 8202, 8137, 8141, 8119, 8135, 8227,4.422471046447754
58, 8123, 8139, 8135, 8121, 8126, 8183, 8189, 8184, 8188, 8121, 8136, 8130, 8128, 8243,4.430421352386475
59, 8098, 8119, 8093, 8096, 8090, 8155, 8119, 8143, 8165, 8081, 8125, 8107, 8104, 8204,4.438476085662842
60, 8093, 8107, 8113, 8071, 8126, 8128, 8176, 8137, 8124, 8052, 8128, 8084, 8068, 8150,4.44647741317749
61, 8086, 8119, 8135, 8085, 8127, 8133, 8176, 8141, 8120, 8066, 8145, 8096, 8072, 8163,4.45438289642334
62, 8093, 8137, 8127, 8114, 8134, 8139, 8113, 8136, 8150, 8092, 8164, 8130, 8115, 8219,4.461467504501343
63, 8134, 8156, 8130, 8147, 8192, 8142, 8107, 8144, 8162, 8116, 8176, 8154, 8158, 8250,4.469521522521973
64, 8189, 8186, 8222, 8169, 8301, 8153, 8279, 8191, 8148, 8123, 8186, 8169, 8170, 8246,4.477200746536255
65, 8183, 8187, 8234, 8167, 8243, 8147, 8214, 8183, 8159, 8137, 8196, 8190, 8197, 8276,4.485462665557861
66, 8151, 8169, 8136, 8161, 8159, 8131, 8038, 8135, 8188, 8166, 8197, 8201, 8234, 8341,4.493459701538086
67, 8199, 8181, 8190, 8165, 8273, 8145, 8205, 8162, 8186, 8169, 8188, 8202, 8221, 8348,4.501232385635376
68, 8193, 8185, 8212, 8168, 8242, 8162, 8196, 8172, 8189, 8174, 8182, 8183, 8211, 8311,4.509375333786011
69, 8140, 8171, 8151, 8168, 8145, 8162, 8099, 8159, 8211, 8181, 8181, 8174, 8226, 8298,4.517470359802246
70, 8182, 8170, 8199, 8168, 8184, 8166, 8214, 8188, 8212, 8170, 8179, 8189, 8223, 8310,4.52539587020874
71, 8188, 8164, 8185, 8160, 8165, 8166, 8168, 8176, 8193, 8156, 8165, 8170, 8200, 8308,4.532437562942505
72, 8129, 8157, 8113, 8159, 8123, 8159, 8084, 8149, 8175, 8137, 8153, 8135, 8167, 8275,4.540433406829834
73, 8119, 8161, 8121, 8158, 8141, 8153, 8133, 8154, 8163, 8115, 8151, 8130, 8137, 8245,4.548460483551025
74, 8143, 8160, 8169, 8139, 8203, 8161, 8225, 8167, 8139, 8103, 8150, 8136, 8117, 8228,4.5562639236450195
75, 8127, 8160, 8146, 8138, 8175, 8158, 8150, 8144, 8127, 8103, 8153, 8143, 8120, 8230,4.564449071884155
76, 8100, 8169, 8111, 8159, 8142, 8135, 8099, 8125, 8142, 8115, 8158, 8151, 8140, 8236,4.5724451541900635
77, 8155, 8170, 8206, 8162, 8229, 8136, 8282, 8161, 8129, 8121, 8162, 8157, 8133, 8221,4.5803868770599365
78, 8170, 8154, 8193, 8154, 8143, 8137, 8166, 8141, 8120, 8115, 8176, 8156, 8147, 8235,4.588458776473999
79, 8142, 8168, 8115, 8167, 8087, 8130, 8059, 8120, 8139, 8118, 8185, 8162, 8187, 8276,4.595340728759766
80, 8173, 8194, 8196, 8171, 8195, 8145, 8249, 8155, 8133, 8121, 8177, 8176, 8182, 8281,4.603360891342163
81, 8168, 8181, 8199, 8162, 8149, 8157, 8183, 8142, 8133, 8138, 8174, 8175, 8180, 8292,4.611347198486328
82, 8165, 8182, 8162, 8174, 8122, 8159, 8132, 8146, 8173, 8172, 8191, 8186, 8216, 8328,4.619396686553955
83, 8202, 8195, 8194, 8192, 8149, 8165, 8181, 8172, 8215, 8213, 8212, 8212, 8250, 8339,4.627247095108032
84, 8187, 8192, 8173, 8193, 8124, 8167, 8127, 8175, 8235, 8248, 8220, 8219, 8280, 8339,4.635346174240112
85, 8168, 8193, 8145, 8186, 8124, 8167, 8121, 8180, 8232, 8251, 8205, 8212, 8285, 8343,4.643256187438965
86, 8166, 8185, 8126, 8175, 8133, 8164, 8144, 8158, 8205, 8202, 8169, 8187, 8235, 8311,4.651432752609253
87, 8188, 8169, 8170, 8147, 8189, 8157, 8252, 8153, 8159, 8127, 8149, 8167, 8175, 8274,4.6582770347595215
88, 8193, 8156, 8192, 8123, 8149, 8148, 8201, 8158, 8145, 8112, 8163, 8166, 8179, 8287,4.666207551956177
89, 8150, 8148, 8136, 8134, 8097, 8141, 8112, 8165, 8159, 8136, 8173, 8158, 8196, 8284,4.674134016036987
90, 8144, 8159, 8147, 8151, 8153, 8149, 8210, 8187, 8151, 8127, 8161, 8144, 8164, 8239,4.682213068008423
91, 8140, 8164, 8142, 8148, 8115, 8151, 8158, 8172, 8145, 8130, 8154, 8132, 8160, 8232,4.690164804458618
92, 8149, 8165, 8147, 8147, 8126, 8147, 8155, 8171, 8155, 8145, 8161, 8136, 8172, 8257,4.698158025741577
93, 8183, 8181, 8188, 8176, 8211, 8157, 8201, 8188, 8162, 8137, 8167, 8166, 8170, 8275,4.706238746643066
94, 8185, 8198, 8165, 8198, 8228, 8170, 8149, 8188, 8176, 8144, 8177, 8192, 8198, 8303,4.714309930801392
95, 8191, 8196, 8174, 8192, 8252, 8182, 8209, 8209, 8192, 8171, 8197, 8199, 8231, 8324,4.721235990524292
96, 8177, 8188, 8171, 8186, 8221, 8181, 8181, 8196, 8204, 8183, 8199, 8189, 8230, 8313,4.729214906692505
97, 8149, 8196, 8135, 8192, 8166, 8175, 8108, 8153, 8202, 8172, 8181, 8174, 8213, 8284,4.738358736038208
98, 8143, 8197, 8129, 8195, 8110, 8169, 8117, 8137, 8199, 8180, 8176, 8166, 8216, 8274,4.745307207107544
99, 8155, 8194, 8153, 8188, 8093, 8159, 8164, 8149, 8208, 8202, 8186, 8170, 8231, 8278,4.75325608253479
100, 8178, 8204, 8191, 8189, 8131, 8151, 8198, 8164, 8199, 8191, 8186, 8182, 8220, 8278,4.761259078979492
101, 8151, 8190, 8145, 8191, 8097, 8139, 8112, 8146, 8184, 8182, 8168, 8176, 8204, 8276,4.769443511962891
102, 8140, 8171, 8153, 8187, 8138, 8153, 8201, 8166, 8174, 8150, 8149, 8161, 8180, 8258,4.777523517608643
103, 8162, 8180, 8205, 8183, 8157, 8172, 8259, 8202, 8176, 8113, 8161, 8168, 8164, 8242,4.785438299179077
104, 8126, 8179, 8132, 8170, 8081, 8173, 8118, 8198, 8198, 8145, 8176, 8163, 8172, 8258,4.7922563552856445
105, 8128, 8166, 8138, 8151, 8137, 8193, 8198, 8236, 8221, 8184, 8172, 8157, 8187, 8281,4.800306558609009
106, 8155, 8165, 8175, 8155, 8140, 8197, 8197, 8248, 8246, 8194, 8178, 8166, 8213, 8299,4.808355331420898
107, 8157, 8180, 8161, 8169, 8107, 8164, 8139, 8209, 8244, 8197, 8183, 8174, 8222, 8305,4.816284418106079
108, 8171, 8182, 8186, 8168, 8126, 8145, 8191, 8186, 8217, 8188, 8174, 8176, 8201, 8289,4.824303388595581
109, 8152, 8175, 8160, 8173, 8133, 8154, 8128, 8164, 8219, 8183, 8172, 8172, 8195, 8275,4.832168102264404
110, 8159, 8189, 8170, 8190, 8214, 8172, 8170, 8166, 8214, 8191, 8173, 8180, 8201, 8274,4.8403003215789795
111, 8168, 8188, 8182, 8199, 8152, 8161, 8157, 8150, 8185, 8186, 8172, 8180, 8204, 8277,4.8492021560668945
119, 8126, 8152, 8147, 8142, 8140, 8173, 8146, 8178, 8190, 8133, 8169, 8172, 8150, 8250,4.867301940917969
120, 8131, 8158, 8163, 8153, 8144, 8160, 8171, 8180, 8194, 8139, 8177, 8163, 8160, 8256,4.87116551399231
121, 8148, 8168, 8177, 8170, 8176, 8164, 8183, 8179, 8187, 8152, 8172, 8158, 8166, 8270,4.879208564758301
122, 8123, 8168, 8138, 8172, 8151, 8156, 8141, 8160, 8188, 8144, 8170, 8153, 8169, 8274,4.887483835220337
123, 8132, 8174, 8166, 8170, 8148, 8136, 8193, 8161, 8184, 8134, 8177, 8153, 8175, 8263,4.895293951034546
124, 8140, 8172, 8158, 8163, 8101, 8127, 8134, 8140, 8172, 8146, 8165, 8154, 8177, 8265,4.903361082077026
125, 8150, 8168, 8155, 8158, 8122, 8132, 8148, 8125, 8155, 8142, 8149, 8158, 8155, 8280,4.9103844165802
126, 8168, 8163, 8174, 8152, 8130, 8133, 8178, 8123, 8147, 8128, 8160, 8164, 8150, 8299,4.919312238693237
127, 8152, 8156, 8141, 8134, 8093, 8132, 8137, 8124, 8151, 8131, 8166, 8165, 8173, 8309,4.926362991333008
238, 8166, 8173, 8166, 8136, 8131, 8140, 8199, 8152, 8150, 8139, 8167, 8183, 8181, 8309,4.934278726577759
0, 8174, 8188, 8170, 8161, 8117, 8145, 8156, 8147, 8150, 8152, 8178, 8191, 8192, 8308,4.942284822463989
1, 8162, 8184, 8159, 8166, 8124, 8151, 8159, 8148, 8153, 8151, 8172, 8180, 8192, 8299,4.950350046157837
2, 8171, 8182, 8179, 8163, 8130, 8146, 8188, 8165, 8169, 8161, 8162, 8177, 8186, 8290,4.958316326141357
3, 8158, 8187, 8152, 8165, 8101, 8130, 8125, 8155, 8187, 8177, 8169, 8168, 8188, 8282,4.966329574584961
4, 8143, 8185, 8152, 8144, 8137, 8139, 8187, 8163, 8186, 8160, 8160, 8153, 8161, 8256,4.9743568897247314
5, 8122, 8159, 8140, 8125, 8106, 8158, 8162, 8165, 8192, 8149, 8142, 8136, 8136, 8228,4.9822187423706055
6, 8123, 8150, 8133, 8140, 8114, 8163, 8154, 8167, 8186, 8138, 8142, 8128, 8136, 8221,4.989279747009277
7, 8144, 8169, 8165, 8159, 8151, 8157, 8201, 8163, 8152, 8111, 8143, 8146, 8126, 8231,4.997281789779663
8, 8130, 8174, 8140, 8160, 8101, 8143, 8146, 8134, 8134, 8112, 8142, 8162, 8120, 8246,5.005201578140259
9, 8142, 8170, 8155, 8148, 8117, 8143, 8185, 8143, 8132, 8126, 8157, 8166, 8126, 8248,5.013425588607788
10, 8160, 8183, 8168, 8159, 8114, 8153, 8157, 8152, 8146, 8143, 8171, 8174, 8148, 8258,5.021657466888428
11, 8166, 8206, 8160, 8189, 8105, 8159, 8140, 8154, 8163, 8161, 8173, 8188, 8172, 8289,5.029566526412964
12, 8178, 8202, 8185, 8189, 8111, 8148, 8181, 8156, 8159, 8155, 8168, 8192, 8177, 8294,5.037550210952759
13, 8166, 8188, 8163, 8174, 8086, 8130, 8119, 8143, 8162, 8167, 8159, 8183, 8181, 8282,5.045537233352661
14, 8181, 8204, 8176, 8191, 8140, 8143, 8177, 8168, 8173, 8187, 8162, 8192, 8179, 8287,5.052580833435059
15, 8181, 8208, 8178, 8200, 8132, 8163, 8174, 8170, 8164, 8172, 8171, 8190, 8175, 8294,5.0605223178863525
16, 8155, 8183, 8149, 8164, 8107, 8157, 8142, 8148, 8136, 8152, 8168, 8165, 8171, 8280,5.068502187728882
17, 8181, 8179, 8184, 8149, 8129, 8156, 8199, 8170, 8126, 8165, 8171, 8171, 8172, 8285,5.076462507247925
18, 8185, 8188, 8168, 8168, 8086, 8162, 8140, 8182, 8155, 8187, 8169, 8184, 8182, 8308,5.084500551223755
19, 8170, 8187, 8155, 8156, 8124, 8164, 8173, 8191, 8177, 8177, 8157, 8178, 8179, 8288,5.092463493347168
20, 8167, 8180, 8159, 8133, 8142, 8153, 8180, 8191, 8176, 8167, 8162, 8170, 8174, 8267,5.100473403930664
21, 8166, 8181, 8142, 8138, 8107, 8143, 8139, 8183, 8165, 8156, 8154, 8156, 8158, 8264,5.108362674713135
22, 8188, 8197, 8180, 8158, 8125, 8138, 8192, 8190, 8151, 8138, 8137, 8157, 8139, 8258,5.11663293838501
23, 8192, 8203, 8181, 8167, 8094, 8124, 8131, 8170, 8153, 8154, 8162, 8186, 8167, 8281,5.123484373092651
24, 8188, 8195, 8172, 8159, 8110, 8133, 8143, 8162, 8145, 8150, 8183, 8205, 8185, 8298,5.131432056427002
25, 8189, 8188, 8187, 8152, 8135, 8156, 8186, 8159, 8126, 8129, 8169, 8200, 8171, 8277,5.139360427856445
26, 8175, 8197, 8159, 8171, 8102, 8144, 8125, 8139, 8116, 8141, 8168, 8187, 8174, 8267,5.148484945297241
27, 8171, 8207, 8146, 8187, 8100, 8127, 8125, 8131, 8112, 8153, 8179, 8178, 8172, 8274,5.155225992202759
28, 8153, 8188, 8126, 8168, 8088, 8130, 8114, 8121, 8116, 8150, 8165, 8163, 8156, 8265,5.163353204727173
29, 8150, 8176, 8131, 8151, 8104, 8130, 8149, 8145, 8125, 8148, 8155, 8161, 8165, 8263,5.171513080596924
30, 8172, 8182, 8163, 8164, 8112, 8131, 8178, 8193, 8147, 8167, 8178, 8183, 8204, 8296,5.1785900592803955
31, 8171, 8184, 8165, 8161, 8112, 8147, 8194, 8218, 8177, 8191, 8181, 8184, 8207, 8314,5.186349630355835
32, 8173, 8179, 8192, 8136, 8152, 8155, 8260, 8227, 8177, 8178, 8162, 8168, 8170, 8283,5.194469451904297
33, 8158, 8163, 8172, 8124, 8117, 8144, 8161, 8203, 8169, 8157, 8159, 8159, 8172, 8266,5.202436447143555
34, 8144, 8156, 8138, 8118, 8106, 8143, 8116, 8200, 8173, 8163, 8162, 8157, 8185, 8281,5.210343837738037
35, 8141, 8146, 8122, 8099, 8084, 8138, 8120, 8205, 8172, 8173, 8161, 8151, 8175, 8286,5.2184460163116455
36, 8143, 8143, 8109, 8094, 8095, 8123, 8126, 8186, 8159, 8155, 8156, 8146, 8177, 8281,5.2262303829193115
37, 8195, 8166, 8204, 8102, 8235, 8134, 8294, 8188, 8127, 8127, 8154, 8163, 8172, 8268,5.234417915344238
38, 8188, 8170, 8199, 8114, 8164, 8136, 8182, 8148, 8116, 8128, 8169, 8169, 8170, 8273,5.242259502410889
39, 8154, 8171, 8138, 8145, 8078, 8124, 8087, 8125, 8129, 8146, 8181, 8173, 8183, 8293,5.250446081161499
40, 8202, 8197, 8209, 8170, 8180, 8135, 8227, 8159, 8132, 8160, 8177, 8191, 8192, 8305,5.257291078567505
41, 8208, 8206, 8206, 8166, 8189, 8137, 8160, 8154, 8138, 8168, 8176, 8193, 8205, 8313,5.265350818634033
42, 8171, 8198, 8155, 8163, 8132, 8121, 8110, 8148, 8141, 8166, 8176, 8183, 8211, 8304,5.2733728885650635
43, 8163, 8188, 8155, 8164, 8093, 8116, 8155, 8164, 8140, 8177, 8168, 8170, 8205, 8280,5.281327486038208
44, 8166, 8173, 8159, 8146, 8117, 8124, 8168, 8173, 8143, 8182, 8170, 8153, 8197, 8275,5.289263963699341
45, 8167, 8171, 8152, 8130, 8144, 8127, 8145, 8171, 8141, 8172, 8176, 8158, 8198, 8289,5.2974114418029785
46, 8153, 8177, 8131, 8130, 8118, 8127, 8123, 8168, 8136, 8169, 8166, 8160, 8200, 8288,5.305269956588745
47, 8152, 8167, 8153, 8128, 8139, 8133, 8199, 8189, 8138, 8152, 8149, 8148, 8184, 8267,5.3132898807525635
48, 8124, 8145, 8122, 8118, 8090, 8120, 8130, 8177, 8152, 8139, 8140, 8134, 8155, 8254,5.320368528366089
49, 8110, 8149, 8110, 8102, 8092, 8116, 8149, 8172, 8155, 8138, 8144, 8123, 8128, 8234,5.328410863876343
50, 8171, 8175, 8213, 8107, 8221, 8136, 8298, 8208, 8150, 8133, 8165, 8139, 8132, 8229,5.336158275604248
51, 8170, 8181, 8189, 8133, 8202, 8137, 8157, 8191, 8167, 8142, 8173, 8153, 8163, 8252,5.344308137893677
52, 8146, 8187, 8150, 8138, 8152, 8136, 8136, 8178, 8175, 8145, 8165, 8159, 8162, 8259,5.352269649505615
53, 8169, 8190, 8196, 8134, 8119, 8142, 8216, 8185, 8158, 8142, 8163, 8167, 8150, 8262,5.3603739738464355
54, 8166, 8183, 8168, 8153, 8081, 8136, 8136, 8159, 8143, 8139, 8162, 8160, 8157, 8271,5.368324279785156
55, 8160, 8190, 8150, 8161, 8104, 8131, 8128, 8137, 8122, 8117, 8162, 8140, 8143, 8256,5.376345634460449
56, 8155, 8193, 8147, 8145, 8098, 8124, 8139, 8128, 8106, 8110, 8161, 8126, 8135, 8239,5.383272647857666
57, 8167, 8189, 8182, 8148, 8160, 8122, 8227, 8155, 8116, 8131, 8159, 8137, 8145, 8236,5.391229867935181
58, 8164, 8182, 8195, 8158, 8154, 8124, 8189, 8161, 8127, 8148, 8165, 8144, 8156, 8240,5.399155616760254
59, 8134, 8179, 8151, 8152, 8115, 8126, 8096, 8147, 8122, 8156, 8176, 8142, 8172, 8257,5.407109260559082
60, 8161, 8188, 8187, 8152, 8184, 8124, 8195, 8176, 8122, 8157, 8179, 8153, 8170, 8270,5.415239334106445
61, 8169, 8191, 8182, 8162, 8154, 8112, 8155, 8183, 8153, 8168, 8172, 8162, 8173, 8277,5.4234185218811035
62, 8154, 8196, 8161, 8163, 8156, 8121, 8148, 8196, 8186, 8182, 8167, 8167, 8185, 8287,5.4313976764678955
63, 8165, 8191, 8181, 8156, 8189, 8132, 8189, 8206, 8197, 8191, 8171, 8178, 8189, 8292,5.4393768310546875
64, 8160, 8182, 8163, 8166, 8165, 8119, 8135, 8176, 8198, 8196, 8182, 8182, 8195, 8294,5.44732928276062
65, 8175, 8195, 8195, 8186, 8198, 8119, 8186, 8176, 8178, 8178, 8191, 8189, 8193, 8291,5.4541614055633545
66, 8180, 8196, 8196, 8200, 8157, 8123, 8147, 8166, 8161, 8160, 8193, 8199, 8192, 8288,5.462205171585083
67, 8177, 8199, 8188, 8207, 8143, 8119, 8145, 8157, 8150, 8167, 8191, 8212, 8195, 8284,5.470270872116089
68, 8190, 8221, 8215, 8221, 8163, 8111, 8179, 8162, 8133, 8173, 8193, 8229, 8208, 8290,5.478225231170654
69, 8185, 8227, 8193, 8245, 8137, 8111, 8130, 8160, 8136, 8166, 8204, 8235, 8232, 8313,5.486230850219727
70, 8212, 8229, 8222, 8262, 8171, 8136, 8196, 8179, 8141, 8163, 8218, 8251, 8255, 8325,5.494297027587891
71, 8222, 8238, 8226, 8267, 8149, 8143, 8158, 8172, 8141, 8184, 8207, 8261, 8263, 8323,5.502297639846802
72, 8202, 8229, 8193, 8254, 8140, 8128, 8140, 8167, 8143, 8186, 8187, 8243, 8241, 8309,5.510239601135254
73, 8216, 8217, 8214, 8237, 8165, 8129, 8191, 8189, 8153, 8172, 8190, 8241, 8233, 8310,5.517148733139038
74, 8237, 8231, 8207, 8239, 8139, 8136, 8128, 8184, 8165, 8194, 8200, 8268, 8263, 8352,5.525128602981567
75, 8258, 8246, 8220, 8251, 8170, 8136, 8177, 8190, 8151, 8208, 8194, 8284, 8273, 8370,5.53316593170166
76, 8245, 8228, 8209, 8256, 8160, 8133, 8171, 8185, 8148, 8196, 8191, 8267, 8264, 8353,5.54143762588501
77, 8223, 8222, 8184, 8249, 8157, 8137, 8143, 8169, 8156, 8183, 8195, 8251, 8253, 8349,5.549317836761475
78, 8240, 8242, 8216, 8244, 8178, 8142, 8186, 8164, 8139, 8177, 8185, 8256, 8237, 8358,5.557289361953735
79, 8224, 8238, 8181, 8238, 8131, 8127, 8122, 8143, 8127, 8174, 8168, 8242, 8234, 8346,5.565361976623535
80, 8209, 8226, 8163, 8226, 8161, 8118, 8165, 8146, 8119, 8162, 8164, 8214, 8217, 8318,5.573340654373169
81, 8211, 8222, 8168, 8219, 8166, 8125, 8167, 8152, 8114, 8170, 8163, 8201, 8203, 8312,5.5813093185424805
82, 8199, 8226, 8145, 8223, 8151, 8131, 8139, 8151, 8118, 8190, 8154, 8193, 8212, 8308,5.588273763656616
83, 8199, 8226, 8162, 8214, 8187, 8134, 8204, 8166, 8114, 8183, 8154, 8189, 8204, 8303,5.59624981880188
84, 8172, 8202, 8140, 8179, 8154, 8134, 8147, 8153, 8115, 8165, 8161, 8183, 8189, 8308,5.604231357574463
85, 8156, 8176, 8133, 8150, 8154, 8136, 8166, 8148, 8112, 8150, 8151, 8164, 8175, 8289,5.612363576889038
86, 8158, 8177, 8145, 8153, 8144, 8132, 8169, 8144, 8106, 8151, 8144, 8148, 8170, 8269,5.620287895202637
87, 8151, 8196, 8135, 8163, 8145, 8128, 8126, 8138, 8109, 8167, 8155, 8153, 8178, 8281,5.628332138061523
88, 8172, 8206, 8173, 8163, 8199, 8128, 8181, 8155, 8116, 8172, 8165, 8174, 8183, 8294,5.636290788650513
89, 8168, 8207, 8159, 8171, 8149, 8104, 8123, 8138, 8109, 8171, 8161, 8173, 8187, 8299,5.644294738769531
90, 8174, 8215, 8154, 8175, 8146, 8086, 8144, 8136, 8090, 8162, 8159, 8170, 8182, 8309,5.65131139755249
91, 8191, 8209, 8172, 8163, 8163, 8092, 8177, 8146, 8093, 8165, 8163, 8179, 8179, 8315,5.659260511398315
92, 8163, 8198, 8139, 8161, 8153, 8109, 8136, 8133, 8107, 8184, 8157, 8174, 8183, 8304,5.667194366455078
93, 8152, 8196, 8154, 8168, 8182, 8137, 8194, 8148, 8102, 8174, 8153, 8165, 8174, 8285,5.675382614135742
94, 8133, 8168, 8135, 8147, 8121, 8147, 8145, 8148, 8109, 8165, 8163, 8152, 8171, 8274,5.6833765506744385
95, 8122, 8152, 8125, 8120, 8194, 8153, 8163, 8163, 8136, 8178, 8168, 8147, 8170, 8266,5.691393613815308
96, 8143, 8174, 8159, 8136, 8382, 8176, 8208, 8202, 8161, 8191, 8160, 8149, 8162, 8259,5.699437618255615
97, 8123, 8187, 8130, 8159, 8385, 8191, 8148, 8209, 8175, 8187, 8149, 8137, 8156, 8250,5.707403659820557
98, 8123, 8193, 8151, 8155, 8293, 8184, 8192, 8205, 8159, 8167, 8158, 8143, 8153, 8253,5.714301109313965
99, 8150, 8200, 8171, 8156, 8216, 8166, 8157, 8182, 8149, 8170, 8180, 8165, 8168, 8273,5.722168684005737
100, 8160, 8195, 8164, 8163, 8249, 8150, 8150, 8176, 8153, 8171, 8179, 8162, 8171, 8268,5.730187654495239
101, 8155, 8197, 8177, 8159, 8251, 8139, 8179, 8178, 8142, 8173, 8167, 8149, 8159, 8251,5.738242149353027
102, 8141, 8209, 8154, 8160, 8181, 8138, 8124, 8158, 8135, 8177, 8175, 8149, 8162, 8263,5.746279001235962
103, 8155, 8207, 8165, 8163, 8213, 8141, 8186, 8165, 8122, 8144, 8170, 8151, 8152, 8264,5.754235029220581
104, 8145, 8193, 8157, 8161, 8199, 8124, 8159, 8160, 8098, 8120, 8147, 8136, 8132, 8244,5.762197017669678
105, 8132, 8201, 8150, 8161, 8188, 8124, 8141, 8159, 8091, 8137, 8151, 8136, 8130, 8245,5.770257234573364
106, 8156, 8207, 8184, 8163, 8195, 8148, 8190, 8182, 8100, 8149, 8166, 8160, 8135, 8261,5.778157472610474
107, 8144, 8195, 8153, 8162, 8123, 8145, 8131, 8180, 8114, 8147, 8157, 8155, 8145, 8269,5.785242319107056
108, 8144, 8202, 8159, 8161, 8129, 8130, 8179, 8186, 8110, 8140, 8153, 8139, 8139, 8258,5.793143033981323
109, 8146, 8204, 8165, 8154, 8126, 8130, 8163, 8182, 8110, 8132, 8164, 8146, 8125, 8245,5.801290035247803
110, 8130, 8184, 8140, 8137, 8107, 8135, 8137, 8183, 8122, 8127, 8162, 8150, 8119, 8245,5.809218883514404
111, 8143, 8177, 8163, 8132, 8131, 8133, 8201, 8194, 8130, 8138, 8159, 8146, 8117, 8245,5.817385673522949
112, 8138, 8190, 8145, 8155, 8168, 8141, 8147, 8169, 8135, 8148, 8162, 8144, 8126, 8246,5.8254547119140625
113, 8138, 8205, 8153, 8156, 8248, 8172, 8185, 8178, 8134, 8140, 8159, 8148, 8132, 8245,5.833450794219971
114, 8136, 8196, 8160, 8132, 8185, 8177, 8180, 8185, 8144, 8145, 8165, 8149, 8144, 8249,5.8402791023254395
115, 8118, 8188, 8136, 8135, 8106, 8159, 8135, 8168, 8148, 8158, 8174, 8150, 8147, 8245,5.848446369171143
116, 8136, 8202, 8173, 8161, 8135, 8167, 8194, 8180, 8143, 8159, 8169, 8166, 8139, 8241,5.856204271316528
117, 8144, 8205, 8170, 8184, 8103, 8167, 8138, 8173, 8157, 8178, 8172, 8175, 8168, 8266,5.864188194274902
118, 8143, 8203, 8165, 8190, 8156, 8137, 8160, 8163, 8151, 8189, 8182, 8173, 8180, 8285,5.872150897979736
119, 8134, 8195, 8165, 8167, 8193, 8122, 8175, 8158, 8127, 8171, 8172, 8167, 8160, 8280,5.8801538944244385
120, 8121, 8185, 8138, 8146, 8131, 8125, 8140, 8162, 8132, 8168, 8152, 8156, 8164, 8275,5.888249158859253
121, 8152, 8192, 8178, 8164, 8128, 8139, 8204, 8193, 8142, 8180, 8159, 8165, 8180, 8278,5.896127939224243
122, 8143, 8186, 8165, 8162, 8093, 8146, 8151, 8190, 8142, 8180, 8169, 8167, 8171, 8274,5.904100656509399
123, 8122, 8176, 8140, 8129, 8111, 8143, 8157, 8176, 8132, 8165, 8153, 8152, 8152, 8259,5.91132664680481
124, 8140, 8186, 8164, 8137, 8183, 8147, 8177, 8176, 8128, 8167, 8149, 8154, 8161, 8262,5.9201555252075195
125, 8143, 8210, 8159, 8168, 8223, 8162, 8140, 8185, 8150, 8192, 8167, 8167, 8179, 8276,5.927068471908569
126, 8160, 8215, 8187, 8170, 8255, 8178, 8199, 8203, 8171, 8196, 8177, 8175, 8178, 8278,5.9352500438690186
127, 8154, 8194, 8171, 8162, 8205, 8168, 8145, 8182, 8170, 8183, 8166, 8164, 8175, 8278,5.943415641784668
238, 8138, 8186, 8157, 8166, 8211, 8162, 8157, 8180, 8158, 8169, 8159, 8157, 8161, 8267,5.951310157775879
0, 8141, 8194, 8185, 8168, 8215, 8172, 8199, 8177, 8160, 8176, 8162, 8163, 8148, 8252,5.959244966506958
1, 8127, 8197, 8158, 8178, 8163, 8167, 8134, 8139, 8169, 8183, 8159, 8153, 8150, 8254,5.967348337173462
2, 8135, 8203, 8172, 8185, 8196, 8155, 8183, 8143, 8151, 8152, 8159, 8151, 8147, 8252,5.974297523498535
3, 8132, 8208, 8171, 8171, 8188, 8136, 8156, 8148, 8135, 8150, 8165, 8160, 8155, 8256,5.982279300689697
4, 8137, 8213, 8162, 8165, 8183, 8127, 8143, 8144, 8133, 8175, 8162, 8161, 8170, 8271,5.9903411865234375
5, 8166, 8210, 8191, 8171, 8151, 8116, 8165, 8150, 8126, 8174, 8166, 8168, 8169, 8287,5.99832010269165
6, 8149, 8197, 8165, 8166, 8062, 8105, 8111, 8153, 8131, 8178, 8176, 8177, 8179, 8303,6.006327867507935
7, 8143, 8195, 8169, 8158, 8087, 8129, 8182, 8181, 8138, 8184, 8172, 8173, 8177, 8299,6.014173984527588
8, 8142, 8185, 8159, 8152, 8081, 8148, 8162, 8184, 8139, 8179, 8158, 8152, 8161, 8278,6.022251605987549
9, 8126, 8167, 8138, 8130, 8076, 8142, 8142, 8178, 8133, 8179, 8158, 8136, 8145, 8262,6.030121803283691
10, 8127, 8175, 8168, 8131, 8114, 8136, 8195, 8183, 8117, 8169, 8161, 8137, 8137, 8261,6.0382630825042725
11, 8115, 8192, 8148, 8162, 8100, 8134, 8139, 8164, 8115, 8151, 8159, 8139, 8149, 8274,6.045215845108032
12, 8127, 8196, 8158, 8159, 8134, 8138, 8185, 8170, 8120, 8155, 8160, 8144, 8153, 8269,6.053240537643433
13, 8126, 8182, 8168, 8133, 8107, 8140, 8167, 8170, 8120, 8177, 8169, 8136, 8147, 8252,6.061290979385376
14, 8107, 8182, 8151, 8144, 8080, 8149, 8129, 8166, 8130, 8185, 8176, 8127, 8149, 8251,6.069360733032227
15, 8129, 8202, 8178, 8158, 8149, 8164, 8196, 8184, 8145, 8188, 8177, 8144, 8162, 8266,6.077393293380737
16, 8129, 8196, 8160, 8148, 8176, 8165, 8147, 8168, 8147, 8199, 8175, 8160, 8181, 8281,6.085426568984985
17, 8140, 8200, 8175, 8157, 8236, 8162, 8179, 8172, 8145, 8198, 8185, 8174, 8182, 8287,6.0933802127838135
18, 8164, 8217, 8194, 8172, 8225, 8162, 8182, 8193, 8162, 8210, 8194, 8185, 8187, 8294,6.101425409317017
19, 8147, 8211, 8157, 8163, 8145, 8156, 8144, 8190, 8158, 8212, 8167, 8166, 8183, 8286,6.108366012573242
20, 8140, 8186, 8170, 8148, 8118, 8148, 8196, 8193, 8128, 8173, 8148, 8146, 8159, 8267,6.1163318157196045
21, 8131, 8167, 8159, 8138, 8078, 8139, 8134, 8180, 8127, 8166, 8162, 8152, 8164, 8272,6.124429941177368
22, 8143, 8172, 8163, 8126, 8119, 8138, 8159, 8178, 8124, 8178, 8169, 8168, 8165, 8281,6.132274150848389
23, 8160, 8179, 8182, 8131, 8129, 8134, 8177, 8181, 8111, 8180, 8157, 8167, 8152, 8284,6.140354633331299
24, 8149, 8176, 8156, 8143, 8091, 8135, 8139, 8185, 8123, 8188, 8153, 8150, 8159, 8286,6.148144721984863
25, 8164, 8178, 8177, 8139, 8126, 8149, 8197, 8198, 8119, 8185, 8161, 8149, 8152, 8276,6.156304836273193
26, 8165, 8181, 8170, 8135, 8129, 8150, 8146, 8170, 8100, 8170, 8160, 8157, 8141, 8272,6.164216041564941
27, 8158, 8179, 8163, 8128, 8149, 8147, 8160, 8158, 8087, 8157, 8155, 8155, 8141, 8269,6.1724159717559814
28, 8154, 8179, 8169, 8128, 8120, 8148, 8174, 8164, 8089, 8167, 8161, 8148, 8149, 8270,6.1794116497039795
29, 8141, 8192, 8153, 8147, 8105, 8153, 8126, 8160, 8108, 8176, 8170, 8140, 8158, 8274,6.187388181686401
30, 8164, 8197, 8186, 8150, 8183, 8157, 8184, 8176, 8118, 8173, 8169, 8148, 8161, 8271,6.195383787155151
31, 8164, 8185, 8169, 8132, 8133, 8144, 8140, 8167, 8120, 8192, 8175, 8155, 8169, 8276,6.203362941741943
32, 8157, 8192, 8161, 8118, 8105, 8140, 8157, 8172, 8117, 8197, 8179, 8154, 8174, 8282,6.21145486831665
33, 8164, 8191, 8182, 8112, 8140, 8146, 8194, 8186, 8115, 8176, 8168, 8147, 8163, 8270,6.219173192977905
34, 8142, 8163, 8143, 8099, 8127, 8136, 8131, 8177, 8110, 8162, 8154, 8133, 8139, 8258,6.227222442626953
35, 8141, 8157, 8158, 8090, 8147, 8138, 8188, 8200, 8096, 8151, 8149, 8128, 8119, 8250,6.235424995422363
36, 8139, 8169, 8157, 8099, 8120, 8147, 8159, 8201, 8105, 8151, 8156, 8131, 8136, 8245,6.2423624992370605
37, 8139, 8171, 8139, 8104, 8133, 8140, 8152, 8187, 8108, 8156, 8160, 8133, 8139, 8240,6.250447034835815
38, 8157, 8166, 8170, 8103, 8161, 8136, 8193, 8189, 8089, 8137, 8159, 8141, 8114, 8256,6.258311986923218
39, 8158, 8173, 8162, 8117, 8119, 8145, 8134, 8174, 8086, 8130, 8165, 8150, 8125, 8277,6.266392707824707
40, 8176, 8197, 8180, 8129, 8150, 8159, 8189, 8177, 8097, 8158, 8189, 8167, 8164, 8272,6.274419784545898
41, 8180, 8200, 8183, 8131, 8141, 8161, 8170, 8175, 8119, 8203, 8202, 8176, 8198, 8279,6.282308340072632
42, 8175, 8195, 8168, 8131, 8131, 8154, 8144, 8179, 8141, 8221, 8193, 8172, 8211, 8302,6.29018235206604
43, 8196, 8202, 8188, 8125, 8160, 8150, 8193, 8193, 8140, 8210, 8191, 8184, 8210, 8307,6.2984418869018555
44, 8183, 8189, 8159, 8111, 8116, 8154, 8141, 8179, 8139, 8210, 8199, 8193, 8216, 8302,6.306445360183716
45, 8177, 8180, 8162, 8102, 8103, 8156, 8183, 8186, 8142, 8208, 8190, 8185, 8208, 8292,6.313303232192993
46, 8173, 8185, 8166, 8106, 8070, 8141, 8173, 8182, 8138, 8199, 8169, 8168, 8192, 8280,6.321442604064941
47, 8158, 8179, 8147, 8115, 8067, 8142, 8154, 8166, 8129, 8181, 8161, 8155, 8186, 8271,6.3292341232299805
48, 8163, 8166, 8173, 8110, 8102, 8164, 8212, 8173, 8120, 8172, 8166, 8160, 8182, 8260,6.337278604507446
49, 8137, 8158, 8145, 8098, 8083, 8161, 8146, 8166, 8132, 8188, 8163, 8149, 8179, 8249,6.3453381061553955
50, 8131, 8162, 8146, 8097, 8164, 8166, 8184, 8186, 8144, 8192, 8160, 8138, 8171, 8252,6.353212833404541
51, 8161, 8163, 8170, 8105, 8203, 8177, 8197, 8207, 8151, 8191, 8164, 8147, 8167, 8270,6.361485958099365
52, 8163, 8165, 8150, 8114, 8162, 8172, 8143, 8209, 8165, 8198, 8163, 8152, 8177, 8274,6.368345499038696
53, 8162, 8169, 8169, 8117, 8182, 8170, 8194, 8211, 8165, 8191, 8161, 8146, 8179, 8254,6.376397371292114
54, 8149, 8157, 8163, 8115, 8143, 8159, 8149, 8177, 8143, 8185, 8163, 8139, 8171, 8247,6.384411573410034
55, 8147, 8161, 8150, 8123, 8093, 8142, 8109, 8151, 8123, 8183, 8163, 8149, 8176, 8266,6.392371892929077
56, 8158, 8182, 8143, 8140, 8051, 8133, 8086, 8145, 8124, 8178, 8166, 8165, 8203, 8284,6.400259494781494
57, 8177, 8189, 8157, 8137, 8076, 8131, 8147, 8157, 8123, 8175, 8174, 8163, 8209, 8287,6.40837836265564
58, 8218, 8187, 8232, 8130, 8154, 8140, 8275, 8186, 8112, 8174, 8173, 8164, 8190, 8283,6.416239023208618
59, 8182, 8177, 8184, 8134, 8090, 8145, 8141, 8166, 8132, 8199, 8165, 8165, 8205, 8287,6.424180269241333
60, 8138, 8178, 8128, 8134, 8078, 8147, 8111, 8155, 8142, 8203, 8162, 8151, 8210, 8270,6.432210683822632
61, 8176, 8181, 8193, 8131, 8143, 8153, 8242, 8175, 8122, 8169, 8164, 8147, 8181, 8255,6.440152168273926
62, 8176, 8167, 8181, 8132, 8099, 8156, 8162, 8171, 8134, 8177, 8162, 8156, 8193, 8277,6.447295427322388
63, 8146, 8158, 8127, 8134, 8060, 8162, 8090, 8168, 8153, 8202, 8163, 8156, 8219, 8292,6.455258846282959
64, 8152, 8163, 8136, 8126, 8082, 8171, 8142, 8168, 8140, 8191, 8163, 8138, 8198, 8277,6.463299989700317
65, 8160, 8168, 8167, 8111, 8153, 8168, 8207, 8173, 8126, 8173, 8158, 8133, 8169, 8259,6.471392393112183
66, 8139, 8156, 8144, 8098, 8147, 8156, 8133, 8161, 8132, 8183, 8160, 8138, 8182, 8259,6.479346990585327
67, 8129, 8144, 8119, 8100, 8130, 8150, 8112, 8151, 8136, 8184, 8158, 8136, 8194, 8266,6.487442493438721
68, 8172, 8154, 8206, 8112, 8245, 8160, 8292, 8185, 8129, 8160, 8157, 8145, 8170, 8252,6.495472192764282
69, 8161, 8150, 8197, 8120, 8200, 8160, 8193, 8162, 8131, 8169, 8161, 8144, 8165, 8240,6.502431869506836
70, 8132, 8139, 8137, 8116, 8084, 8147, 8101, 8135, 8131, 8168, 8157, 8139, 8161, 8245,6.510420560836792
71, 8167, 8154, 8190, 8109, 8054, 8144, 8198, 8163, 8124, 8136, 8155, 8157, 8150, 8255,6.518394947052002
72, 8168, 8166, 8175, 8118, 8008, 8142, 8134, 8158, 8127, 8138, 8159, 8160, 8172, 8266,6.526434659957886
73, 8168, 8156, 8163, 8122, 8040, 8143, 8167, 8158, 8119, 8156, 8159, 8155, 8178, 8271,6.534425497055054
74, 8174, 8150, 8167, 8125, 8029, 8150, 8165, 8154, 8119, 8164, 8169, 8162, 8177, 8270,6.542212724685669
75, 8163, 8171, 8147, 8138, 8032, 8165, 8142, 8147, 8131, 8173, 8183, 8164, 8188, 8268,6.550429582595825
76, 8160, 8174, 8164, 8127, 8065, 8162, 8186, 8165, 8130, 8174, 8170, 8155, 8181, 8261,6.558451175689697
77, 8132, 8146, 8138, 8099, 8021, 8140, 8121, 8165, 8140, 8171, 8152, 8140, 8175, 8250,6.5662572383880615
78, 8143, 8149, 8160, 8110, 8055, 8144, 8173, 8175, 8147, 8176, 8162, 8144, 8177, 8244,6.573430299758911
79, 8160, 8165, 8166, 8153, 8036, 8145, 8139, 8163, 8148, 8186, 8177, 8162, 8188, 8263,6.581448554992676
80, 8140, 8163, 8128, 8164, 8029, 8134, 8103, 8153, 8150, 8172, 8164, 8156, 8186, 8262,6.589448690414429
81, 8153, 8161, 8176, 8151, 8111, 8143, 8228, 8176, 8141, 8150, 8145, 8147, 8158, 8239,6.597443580627441
82, 8153, 8159, 8183, 8153, 8079, 8140, 8172, 8156, 8123, 8152, 8150, 8156, 8151, 8253,6.605449199676514
83, 8150, 8164, 8164, 8150, 8060, 8127, 8140, 8134, 8105, 8143, 8165, 8167, 8157, 8268,6.613422632217407
84, 8160, 8165, 8180, 8145, 8074, 8126, 8181, 8139, 8099, 8129, 8167, 8162, 8158, 8249,6.621392250061035
85, 8160, 8162, 8170, 8157, 8048, 8128, 8139, 8140, 8107, 8139, 8161, 8160, 8166, 8250,6.6293463706970215
86, 8176, 8175, 8163, 8167, 8041, 8131, 8118, 8139, 8115, 8156, 8162, 8175, 8177, 8280,6.6363911628723145
87, 8179, 8184, 8149, 8160, 8044, 8141, 8126, 8137, 8120, 8164, 8162, 8171, 8177, 8284,6.644368886947632
88, 8175, 8177, 8176, 8152, 8104, 8159, 8226, 8168, 8124, 8173, 8159, 8160, 8173, 8265,6.652447462081909
89, 8176, 8167, 8196, 8156, 8105, 8165, 8204, 8189, 8145, 8184, 8162, 8171, 8181, 8271,6.660416841506958
90, 8151, 8153, 8138, 8148, 8034, 8161, 8086, 8181, 8174, 8178, 8160, 8169, 8182, 8277,6.668351411819458
91, 8137, 8149, 8120, 8132, 8025, 8166, 8118, 8194, 8182, 8165, 8151, 8152, 8171, 8257,6.6763811111450195
92, 8133, 8160, 8122, 8142, 8053, 8169, 8134, 8195, 8186, 8184, 8153, 8147, 8168, 8249,6.684484481811523
93, 8163, 8179, 8180, 8166, 8156, 8176, 8238, 8209, 8183, 8190, 8165, 8165, 8159, 8255,6.692225456237793
94, 8183, 8172, 8228, 8161, 8158, 8177, 8255, 8208, 8163, 8168, 8167, 8178, 8152, 8256,6.699447870254517
95, 8135, 8144, 8153, 8135, 8065, 8160, 8107, 8162, 8155, 8162, 8159, 8166, 8160, 8253,6.707488059997559
96, 8129, 8145, 8159, 8132, 8128, 8156, 8178, 8160, 8148, 8156, 8158, 8157, 8141, 8237,6.7154765129089355
97, 8135, 8149, 8187, 8142, 8137, 8157, 8189, 8160, 8144, 8135, 8160, 8145, 8118, 8222,6.723408937454224
98, 8114, 8141, 8138, 8134, 8067, 8156, 8089, 8134, 8149, 8126, 8155, 8134, 8125, 8223,6.731441259384155
99, 8136, 8147, 8143, 8134, 8094, 8155, 8122, 8122, 8141, 8129, 8159, 8148, 8139, 8238,6.739445924758911
100, 8157, 8155, 8166, 8156, 8130, 8148, 8162, 8115, 8119, 8128, 8167, 8163, 8142, 8245,6.747344017028809
101, 8155, 8157, 8164, 8166, 8130, 8151, 8155, 8114, 8105, 8124, 8161, 8165, 8144, 8240,6.755409240722656
102, 8150, 8168, 8142, 8166, 8104, 8161, 8103, 8109, 8122, 8149, 8164, 8166, 8163, 8253,6.763510465621948
103, 8176, 8180, 8188, 8174, 8173, 8165, 8211, 8133, 8138, 8161, 8173, 8173, 8172, 8269,6.770390272140503
104, 8189, 8164, 8215, 8174, 8176, 8160, 8214, 8136, 8127, 8147, 8172, 8176, 8167, 8263,6.778221845626831
105, 8154, 8153, 8134, 8168, 8093, 8157, 8055, 8109, 8136, 8159, 8174, 8171, 8188, 8273,6.786205530166626
106, 8184, 8183, 8187, 8175, 8194, 8180, 8215, 8155, 8156, 8165, 8181, 8179, 8193, 8285,6.794269561767578
107, 8197, 8181, 8225, 8174, 8177, 8182, 8220, 8169, 8164, 8158, 8181, 8176, 8184, 8282,6.802324056625366
108, 8156, 8160, 8146, 8167, 8094, 8165, 8086, 8144, 8176, 8162, 8168, 8160, 8184, 8284,6.810185194015503
109, 8190, 8182, 8187, 8189, 8188, 8181, 8218, 8180, 8192, 8164, 8170, 8175, 8182, 8292,6.818272352218628
110, 8206, 8194, 8206, 8205, 8177, 8183, 8202, 8181, 8196, 8163, 8178, 8189, 8188, 8297,6.826284170150757
111, 8173, 8181, 8153, 8181, 8111, 8163, 8113, 8151, 8184, 8154, 8170, 8175, 8184, 8296,6.833337068557739
112, 8170, 8177, 8134, 8173, 8152, 8167, 8114, 8149, 8187, 8162, 8163, 8162, 8187, 8294,6.8415515422821045
113, 8194, 8189, 8180, 8192, 8280, 8191, 8217, 8174, 8193, 8166, 8166, 8164, 8191, 8293,6.849429607391357
114, 8213, 8194, 8228, 8186, 8298, 8197, 8257, 8179, 8171, 8150, 8166, 8166, 8173, 8288,6.857443809509277
115, 8187, 8184, 8166, 8168, 8176, 8180, 8100, 8123, 8153, 8150, 8159, 8159, 8165, 8281,6.865447521209717
116, 8200, 8185, 8175, 8186, 8204, 8181, 8153, 8115, 8140, 8158, 8170, 8171, 8181, 8280,6.873399972915649
117, 8218, 8187, 8212, 8210, 8207, 8197, 8197, 8141, 8141, 8167, 8190, 8185, 8210, 8299,6.88138222694397
118, 8188, 8188, 8165, 8194, 8124, 8205, 8127, 8140, 8162, 8196, 8183, 8170, 8218, 8300,6.889509916305542
119, 8193, 8202, 8176, 8183, 8126, 8200, 8186, 8144, 8174, 8205, 8167, 8162, 8204, 8282,6.897401332855225
120, 8190, 8201, 8169, 8191, 8092, 8187, 8146, 8141, 8180, 8189, 8158, 8164, 8200, 8292,6.904424667358398
121, 8174, 8178, 8160, 8178, 8113, 8184, 8164, 8164, 8185, 8179, 8161, 8157, 8194, 8292,6.912419557571411
122, 8168, 8164, 8169, 8162, 8128, 8180, 8178, 8183, 8194, 8185, 8164, 8155, 8184, 8271,6.92023491859436
123, 8165, 8169, 8149, 8170, 8101, 8182, 8141, 8170, 8202, 8179, 8159, 8161, 8176, 8271,6.928418874740601
124, 8180, 8171, 8167, 8176, 8184, 8198, 8205, 8180, 8195, 8157, 8157, 8166, 8165, 8281,6.936418771743774
125, 8158, 8159, 8142, 8167, 8240, 8186, 8140, 8167, 8190, 8153, 8160, 8152, 8163, 8272,6.9443464279174805
126, 8154, 8155, 8141, 8159, 8254, 8167, 8142, 8157, 8176, 8154, 8154, 8138, 8144, 8248,6.952439785003662
127, 8186, 8159, 8177, 8161, 8184, 8168, 8183, 8163, 8166, 8149, 8158, 8150, 8138, 8257,6.959348201751709
238, 8187, 8161, 8160, 8166, 8106, 8163, 8136, 8157, 8181, 8161, 8180, 8174, 8177, 8294,6.967447757720947
0, 8191, 8164, 8179, 8161, 8149, 8153, 8182, 8161, 8176, 8166, 8176, 8179, 8176, 8290,6.97542667388916
1, 8190, 8166, 8182, 8169, 8127, 8153, 8146, 8139, 8159, 8161, 8155, 8166, 8155, 8266,6.9834303855896
2, 8199, 8183, 8179, 8204, 8129, 8166, 8158, 8121, 8156, 8152, 8164, 8178, 8176, 8268,6.99133563041687
3, 8200, 8181, 8191, 8205, 8154, 8171, 8195, 8117, 8146, 8149, 8173, 8192, 8180, 8265,6.9994330406188965
4, 8155, 8156, 8147, 8174, 8119, 8162, 8117, 8101, 8142, 8162, 8158, 8170, 8151, 8243,7.007439136505127
5, 8161, 8168, 8167, 8186, 8160, 8169, 8166, 8117, 8151, 8164, 8155, 8169, 8135, 8242,7.015429496765137
6, 8172, 8176, 8175, 8198, 8156, 8178, 8149, 8117, 8162, 8158, 8164, 8189, 8143, 8267,7.023427724838257
7, 8149, 8158, 8145, 8170, 8149, 8183, 8134, 8115, 8160, 8154, 8154, 8180, 8133, 8271,7.030441761016846
8, 8164, 8158, 8173, 8167, 8175, 8186, 8187, 8138, 8154, 8151, 8153, 8167, 8121, 8254,7.038402080535889
9, 8160, 8163, 8161, 8182, 8151, 8178, 8131, 8142, 8175, 8161, 8171, 8167, 8141, 8252,7.046222448348999
10, 8151, 8164, 8161, 8168, 8182, 8180, 8178, 8164, 8200, 8175, 8176, 8172, 8156, 8256,7.054450035095215
11, 8161, 8161, 8168, 8159, 8157, 8182, 8175, 8174, 8206, 8192, 8166, 8174, 8160, 8271,7.062446594238281
12, 8154, 8160, 8145, 8166, 8128, 8180, 8147, 8170, 8196, 8191, 8156, 8161, 8152, 8273,7.070225954055786
13, 8145, 8163, 8151, 8155, 8171, 8180, 8200, 8175, 8184, 8167, 8158, 8143, 8129, 8236,7.078439712524414
14, 8126, 8154, 8128, 8150, 8151, 8166, 8138, 8150, 8183, 8162, 8163, 8140, 8134, 8217,7.086460590362549
15, 8147, 8158, 8156, 8170, 8173, 8159, 8172, 8153, 8181, 8165, 8162, 8166, 8154, 8248,7.0934388637542725
16, 8182, 8182, 8197, 8187, 8168, 8165, 8182, 8162, 8188, 8169, 8166, 8184, 8164, 8278,7.101412773132324
17, 8156, 8191, 8130, 8188, 8107, 8159, 8063, 8128, 8188, 8185, 8165, 8164, 8167, 8272,7.109453201293945
18, 8160, 8192, 8133, 8187, 8152, 8151, 8127, 8131, 8174, 8178, 8164, 8170, 8157, 8274,7.117438554763794
19, 8207, 8199, 8207, 8193, 8194, 8157, 8217, 8166, 8183, 8169, 8173, 8207, 8164, 8305,7.12551474571228
20, 8209, 8208, 8203, 8201, 8172, 8167, 8160, 8169, 8203, 8193, 8178, 8210, 8189, 8315,7.133438348770142
21, 8170, 8201, 8146, 8204, 8143, 8163, 8098, 8150, 8200, 8209, 8164, 8187, 8181, 8290,7.141427993774414
22, 8156, 8183, 8154, 8191, 8203, 8157, 8201, 8162, 8181, 8187, 8154, 8177, 8148, 8267,7.149362802505493
23, 8173, 8175, 8197, 8176, 8298, 8168, 8246, 8183, 8173, 8175, 8162, 8192, 8144, 8270,7.156441926956177
24, 8143, 8171, 8131, 8174, 8283, 8177, 8070, 8156, 8181, 8194, 8163, 8189, 8167, 8282,7.16444206237793
25, 8145, 8169, 8139, 8168, 8289, 8179, 8183, 8177, 8173, 8181, 8152, 8168, 8151, 8261,7.172240495681763
26, 8172, 8158, 8206, 8150, 8206, 8175, 8278, 8197, 8162, 8175, 8151, 8161, 8127, 8232,7.180359363555908
27, 8134, 8155, 8152, 8154, 8094, 8174, 8108, 8166, 8183, 8201, 8155, 8163, 8142, 8242,7.188438892364502
28, 8145, 8175, 8173, 8180, 8170, 8200, 8177, 8190, 8205, 8195, 8162, 8185, 8155, 8263,7.196343898773193
29, 8170, 8180, 8196, 8197, 8150, 8206, 8170, 8189, 8213, 8191, 8176, 8199, 8170, 8276,7.2054078578948975
30, 8150, 8178, 8147, 8191, 8098, 8189, 8085, 8149, 8202, 8195, 8176, 8185, 8166, 8279,7.212525367736816
31, 8161, 8186, 8156, 8190, 8143, 8184, 8135, 8145, 8183, 8179, 8161, 8183, 8151, 8286,7.220252513885498
32, 8193, 8191, 8194, 8214, 8172, 8192, 8186, 8160, 8181, 8174, 8159, 8201, 8162, 8301,7.227328538894653
33, 8212, 8191, 8231, 8217, 8178, 8198, 8237, 8168, 8161, 8165, 8163, 8201, 8149, 8283,7.23540472984314
34, 8177, 8184, 8182, 8199, 8110, 8180, 8123, 8132, 8144, 8160, 8161, 8182, 8140, 8262,7.243443012237549
35, 8168, 8188, 8166, 8204, 8139, 8171, 8125, 8134, 8160, 8189, 8176, 8197, 8182, 8289,7.251379489898682
36, 8204, 8200, 8216, 8227, 8177, 8188, 8205, 8160, 8180, 8229, 8200, 8232, 8224, 8326,7.259508848190308
37, 8184, 8199, 8172, 8226, 8131, 8208, 8114, 8137, 8199, 8236, 8189, 8223, 8229, 8324,7.267440557479858
38, 8164, 8193, 8148, 8210, 8223, 8222, 8125, 8141, 8214, 8225, 8164, 8197, 8204, 8290,7.275380373001099
39, 8161, 8186, 8150, 8217, 8262, 8223, 8146, 8157, 8221, 8237, 8160, 8195, 8194, 8276,7.283412933349609
40, 8171, 8197, 8162, 8220, 8214, 8234, 8210, 8189, 8228, 8240, 8166, 8199, 8194, 8286,7.29144024848938
41, 8179, 8203, 8207, 8196, 8193, 8248, 8278, 8229, 8237, 8215, 8164, 8187, 8177, 8279,7.298348903656006
42, 8118, 8168, 8147, 8178, 8124, 8242, 8139, 8205, 8247, 8204, 8159, 8151, 8156, 8252,7.306412220001221
43, 8088, 8154, 8108, 8183, 8131, 8245, 8132, 8182, 8243, 8207, 8158, 8134, 8145, 8234,7.31444239616394
44, 8117, 8176, 8155, 8185, 8175, 8250, 8205, 8186, 8236, 8203, 8159, 8143, 8152, 8242,7.322232723236084
45, 8147, 8186, 8187, 8195, 8171, 8227, 8181, 8177, 8231, 8195, 8168, 8157, 8163, 8260,7.330437660217285
46, 8188, 8203, 8204, 8232, 8153, 8196, 8138, 8148, 8216, 8190, 8188, 8190, 8181, 8295,7.338385820388794
47, 8204, 8226, 8194, 8260, 8149, 8183, 8114, 8118, 8192, 8196, 8197, 8218, 8207, 8327,7.346210718154907
48, 8216, 8231, 8232, 8267, 8182, 8189, 8206, 8124, 8166, 8198, 8191, 8233, 8212, 8320,7.35438084602356
49, 8218, 8228, 8222, 8284, 8130, 8183, 8126, 8105, 8174, 8204, 8194, 8252, 8224, 8325,7.361364364624023
50, 8213, 8243, 8193, 8306, 8205, 8171, 8106, 8099, 8190, 8214, 8203, 8263, 8245, 8344,7.36941933631897
51, 8260, 8262, 8282, 8317, 8380, 8193, 8276, 8147, 8178, 8213, 8212, 8274, 8243, 8342,7.377323150634766
52, 8267, 8259, 8263, 8327, 8290, 8211, 8141, 8142, 8190, 8221, 8221, 8288, 8259, 8339,7.3852856159210205
53, 8250, 8253, 8210, 8319, 8247, 8204, 8110, 8140, 8208, 8231, 8212, 8299, 8278, 8335,7.393265724182129
54, 8268, 8253, 8255, 8308, 8312, 8205, 8234, 8164, 8199, 8237, 8201, 8299, 8268, 8337,7.401190519332886
55, 8261, 8252, 8234, 8331, 8255, 8222, 8153, 8149, 8190, 8242, 8195, 8278, 8254, 8352,7.409297227859497
56, 8248, 8244, 8191, 8331, 8231, 8227, 8124, 8142, 8181, 8235, 8180, 8261, 8246, 8354,7.417426586151123
57, 8219, 8221, 8161, 8280, 8241, 8206, 8148, 8138, 8178, 8228, 8168, 8239, 8246, 8339,7.424312353134155
58, 8206, 8212, 8178, 8247, 8281, 8195, 8231, 8154, 8177, 8209, 8156, 8213, 8219, 8311,7.4324212074279785
59, 8210, 8202, 8191, 8245, 8245, 8202, 8204, 8169, 8175, 8197, 8147, 8197, 8184, 8291,7.440312385559082
60, 8175, 8174, 8136, 8216, 8155, 8202, 8109, 8169, 8195, 8199, 8151, 8184, 8184, 8296,7.448188543319702
61, 8166, 8164, 8144, 8188, 8157, 8191, 8189, 8187, 8212, 8189, 8147, 8174, 8182, 8295,7.456444501876831
62, 8154, 8156, 8141, 8187, 8114, 8169, 8154, 8166, 8203, 8187, 8138, 8162, 8171, 8282,7.464369535446167
63, 8154, 8158, 8134, 8193, 8114, 8162, 8138, 8148, 8183, 8188, 8152, 8170, 8172, 8288,7.472211122512817
64, 8195, 8184, 8173, 8207, 8151, 8165, 8181, 8153, 8181, 8185, 8165, 8191, 8177, 8316,7.479432106018066
65, 8197, 8199, 8162, 8227, 8139, 8163, 8137, 8141, 8188, 8191, 8157, 8197, 8188, 8326,7.488287448883057
66, 8196, 8193, 8180, 8228, 8172, 8168, 8191, 8150, 8170, 8187, 8159, 8195, 8196, 8309,7.495429754257202
67, 8191, 8179, 8172, 8203, 8144, 8164, 8150, 8139, 8158, 8186, 8166, 8181, 8200, 8304,7.503149509429932
68, 8192, 8189, 8155, 8193, 8155, 8170, 8138, 8136, 8173, 8194, 8158, 8176, 8201, 8321,7.51128363609314
69, 8203, 8194, 8180, 8196, 8187, 8186, 8186, 8155, 8189, 8201, 8164, 8190, 8199, 8318,7.519440174102783
70, 8161, 8155, 8135, 8176, 8123, 8167, 8116, 8138, 8183, 8201, 8159, 8166, 8183, 8290,7.5271852016448975
71, 8130, 8128, 8120, 8145, 8140, 8160, 8165, 8145, 8161, 8170, 8137, 8128, 8145, 8257,7.535372257232666
72, 8119, 8133, 8136, 8135, 8162, 8178, 8190, 8170, 8163, 8142, 8137, 8127, 8123, 8228,7.543445348739624
73, 8090, 8130, 8115, 8130, 8138, 8184, 8133, 8172, 8176, 8155, 8147, 8130, 8120, 8201,7.551433086395264
74, 8081, 8122, 8107, 8121, 8133, 8186, 8117, 8178, 8183, 8169, 8137, 8123, 8119, 8199,7.558295726776123
75, 8102, 8140, 8125, 8138, 8143, 8190, 8141, 8199, 8205, 8169, 8140, 8125, 8126, 8219,7.566433668136597
76, 8143, 8165, 8196, 8155, 8209, 8192, 8267, 8223, 8217, 8165, 8159, 8140, 8130, 8221,7.574289083480835
77, 8142, 8155, 8191, 8161, 8201, 8192, 8189, 8188, 8212, 8170, 8164, 8154, 8150, 8226,7.58243203163147
78, 8132, 8153, 8150, 8178, 8224, 8190, 8115, 8159, 8215, 8176, 8159, 8160, 8163, 8249,7.590348958969116
79, 8177, 8178, 8201, 8199, 8272, 8193, 8214, 8176, 8214, 8168, 8159, 8162, 8147, 8261,7.598212003707886
80, 8179, 8176, 8183, 8193, 8161, 8191, 8145, 8152, 8205, 8160, 8152, 8152, 8146, 8268,7.606353282928467
81, 8155, 8157, 8164, 8165, 8139, 8184, 8159, 8139, 8183, 8148, 8146, 8142, 8145, 8253,7.614225625991821
82, 8153, 8150, 8176, 8157, 8162, 8181, 8176, 8135, 8172, 8145, 8158, 8143, 8142, 8239,7.621313095092773
83, 8165, 8167, 8158, 8182, 8154, 8196, 8130, 8129, 8188, 8152, 8170, 8156, 8165, 8262,7.6293416023254395
84, 8197, 8186, 8192, 8204, 8183, 8202, 8191, 8146, 8189, 8162, 8169, 8176, 8174, 8287,7.637265920639038
85, 8180, 8172, 8181, 8196, 8143, 8197, 8135, 8137, 8193, 8197, 8164, 8182, 8182, 8297,7.645259618759155
86, 8168, 8163, 8168, 8186, 8170, 8211, 8158, 8145, 8205, 8209, 8167, 8182, 8194, 8294,7.653347492218018
87, 8165, 8161, 8170, 8176, 8180, 8203, 8182, 8154, 8191, 8185, 8169, 8173, 8186, 8279,7.661242961883545
88, 8132, 8145, 8139, 8163, 8149, 8177, 8135, 8139, 8172, 8174, 8161, 8154, 8166, 8269,7.669138669967651
89, 8137, 8131, 8166, 8151, 8186, 8193, 8199, 8161, 8182, 8169, 8156, 8159, 8156, 8267,7.677185535430908
90, 8131, 8122, 8146, 8138, 8154, 8205, 8158, 8173, 8206, 8171, 8153, 8156, 8158, 8258,7.6842334270477295
91, 8124, 8122, 8129, 8142, 8201, 8194, 8166, 8183, 8215, 8172, 8155, 8147, 8152, 8238,7.692218065261841
92, 8149, 8132, 8166, 8169, 8321, 8192, 8194, 8195, 8235, 8176, 8163, 8159, 8161, 8241,7.700177431106567
93, 8150, 8147, 8153, 8178, 8383, 8199, 8144, 8182, 8251, 8187, 8161, 8163, 8171, 8250,7.708381414413452
94, 8168, 8161, 8174, 8178, 8443, 8206, 8199, 8185, 8229, 8189, 8158, 8160, 8154, 8251,7.716288805007935
95, 8194, 8169, 8184, 8199, 8427, 8202, 8158, 8177, 8221, 8188, 8163, 8172, 8163, 8280,7.724177837371826
96, 8202, 8181, 8180, 8203, 8417, 8196, 8154, 8172, 8226, 8171, 8161, 8192, 8185, 8306,7.732355356216431
97, 8199, 8179, 8185, 8190, 8352, 8194, 8190, 8161, 8208, 8152, 8155, 8191, 8171, 8289,7.7392799854278564
98, 8168, 8167, 8152, 8198, 8214, 8191, 8130, 8146, 8197, 8159, 8152, 8168, 8159, 8263,7.748186111450195
99, 8169, 8170, 8174, 8200, 8195, 8195, 8182, 8167, 8194, 8169, 8157, 8162, 8162, 8247,7.755383014678955
100, 8175, 8168, 8171, 8184, 8161, 8187, 8158, 8154, 8191, 8172, 8166, 8168, 8172, 8248,7.763381242752075
101, 8169, 8173, 8151, 8187, 8139, 8187, 8152, 8142, 8191, 8187, 8162, 8171, 8174, 8255,7.771384000778198
102, 8173, 8184, 8178, 8204, 8158, 8201, 8196, 8169, 8192, 8201, 8164, 8179, 8178, 8263,7.779339551925659
103, 8146, 8162, 8146, 8188, 8137, 8202, 8132, 8171, 8209, 8195, 8179, 8176, 8195, 8269,7.787238836288452
104, 8143, 8143, 8148, 8156, 8176, 8198, 8183, 8187, 8227, 8197, 8175, 8169, 8196, 8275,7.795296669006348
105, 8139, 8148, 8154, 8158, 8163, 8192, 8174, 8189, 8233, 8223, 8160, 8164, 8196, 8269,7.803333044052124
106, 8106, 8134, 8124, 8153, 8141, 8190, 8149, 8177, 8227, 8210, 8149, 8150, 8178, 8237,7.8112633228302
107, 8117, 8118, 8149, 8132, 8170, 8199, 8201, 8187, 8223, 8177, 8145, 8152, 8157, 8236,7.818384885787964
108, 8136, 8134, 8149, 8154, 8142, 8199, 8146, 8183, 8241, 8198, 8153, 8170, 8174, 8277,7.826324701309204
109, 8154, 8167, 8169, 8191, 8159, 8194, 8183, 8186, 8247, 8214, 8165, 8179, 8182, 8286,7.834172487258911
110, 8165, 8179, 8185, 8195, 8144, 8191, 8170, 8174, 8230, 8195, 8164, 8178, 8170, 8275,7.842209339141846
111, 8174, 8183, 8171, 8205, 8120, 8188, 8134, 8148, 8207, 8189, 8153, 8176, 8170, 8274,7.850257396697998
112, 8207, 8198, 8201, 8224, 8145, 8188, 8194, 8135, 8178, 8168, 8158, 8175, 8160, 8268,7.858286380767822
113, 8200, 8205, 8181, 8229, 8112, 8185, 8136, 8105, 8157, 8150, 8172, 8165, 8152, 8262,7.866159677505493
114, 8193, 8206, 8184, 8234, 8139, 8187, 8161, 8105, 8147, 8160, 8173, 8164, 8165, 8265,7.874204158782959
115, 8200, 8204, 8199, 8234, 8144, 8193, 8171, 8113, 8156, 8170, 8166, 8170, 8183, 8264,7.881194353103638
116, 8175, 8184, 8157, 8208, 8126, 8194, 8130, 8115, 8167, 8160, 8160, 8150, 8173, 8259,7.889414310455322
117, 8160, 8154, 8162, 8177, 8168, 8199, 8193, 8137, 8156, 8151, 8153, 8134, 8141, 8247,7.897427558898926
118, 8141, 8141, 8146, 8169, 8133, 8191, 8148, 8140, 8160, 8168, 8149, 8144, 8138, 8241,7.905378818511963
119, 8147, 8160, 8145, 8172, 8139, 8187, 8169, 8158, 8174, 8174, 8158, 8157, 8147, 8247,7.913432598114014
120, 8146, 8153, 8157, 8157, 8141, 8195, 8195, 8166, 8175, 8172, 8164, 8147, 8146, 8243,7.921432018280029
121, 8108, 8127, 8121, 8148, 8129, 8207, 8151, 8153, 8188, 8180, 8155, 8129, 8147, 8234,7.929308652877808
122, 8126, 8143, 8155, 8172, 8224, 8222, 8205, 8178, 8210, 8198, 8154, 8140, 8156, 8239,7.937416076660156
123, 8143, 8159, 8164, 8193, 8222, 8226, 8158, 8180, 8228, 8213, 8174, 8148, 8171, 8247,7.945501327514648
124, 8133, 8153, 8151, 8181, 8172, 8223, 8164, 8182, 8232, 8190, 8177, 8142, 8164, 8241,7.952155828475952
125, 8137, 8149, 8168, 8181, 8149, 8214, 8186, 8196, 8234, 8185, 8164, 8150, 8158, 8253,7.960294723510742
126, 8149, 8165, 8159, 8212, 8135, 8200, 8126, 8185, 8240, 8214, 8175, 8169, 8181, 8284,7.968403339385986
127, 8190, 8200, 8197, 8228, 8179, 8202, 8186, 8186, 8232, 8207, 8186, 8191, 8197, 8296,7.976217746734619
238, 8194, 8205, 8194, 8224, 8160, 8207, 8156, 8169, 8229, 8201, 8177, 8183, 8201, 8298,7.984375
0, 8181, 8190, 8170, 8220, 8166, 8215, 8155, 8163, 8230, 8211, 8170, 8169, 8193, 8300,7.992441415786743
1, 8201, 8196, 8185, 8216, 8176, 8225, 8192, 8179, 8225, 8201, 8170, 8177, 8180, 8304,8.000180721282959
2, 8187, 8197, 8157, 8211, 8137, 8218, 8132, 8171, 8221, 8186, 8161, 8171, 8183, 8299,8.008413791656494
3, 8167, 8171, 8164, 8197, 8169, 8210, 8181, 8173, 8196, 8179, 8158, 8157, 8180, 8272,8.01544189453125
4, 8154, 8143, 8158, 8183, 8135, 8195, 8149, 8165, 8178, 8187, 8163, 8153, 8175, 8264,8.023430109024048
5, 8155, 8150, 8146, 8184, 8119, 8183, 8136, 8164, 8182, 8182, 8160, 8155, 8173, 8282,8.03140640258789
6, 8175, 8167, 8178, 8187, 8155, 8183, 8194, 8172, 8185, 8161, 8161, 8162, 8163, 8284,8.039497137069702
7, 8161, 8166, 8158, 8185, 8124, 8184, 8134, 8160, 8192, 8172, 8163, 8161, 8170, 8278,8.047428607940674
8, 8167, 8168, 8171, 8190, 8150, 8195, 8177, 8177, 8204, 8202, 8165, 8167, 8182, 8281,8.055290460586548
9, 8166, 8163, 8173, 8187, 8136, 8197, 8169, 8183, 8218, 8208, 8162, 8170, 8185, 8282,8.063273191452026
10, 8136, 8161, 8144, 8175, 8127, 8188, 8143, 8170, 8214, 8189, 8157, 8145, 8173, 8260,8.071495532989502
11, 8144, 8172, 8167, 8185, 8171, 8186, 8198, 8174, 8199, 8171, 8158, 8130, 8153, 8236,8.079260349273682
12, 8141, 8168, 8153, 8194, 8148, 8189, 8144, 8160, 8204, 8177, 8158, 8137, 8149, 8250,8.086439371109009
13, 8136, 8159, 8158, 8180, 8178, 8198, 8181, 8157, 8202, 8175, 8149, 8150, 8142, 8256,8.094403505325317
14, 8127, 8151, 8163, 8173, 8169, 8197, 8175, 8142, 8185, 8151, 8148, 8150, 8132, 8235,8.102345943450928
15, 8110, 8153, 8138, 8193, 8132, 8181, 8129, 8122, 8168, 8139, 8156, 8149, 8134, 8221,8.110302686691284
16, 8140, 8170, 8176, 8209, 8177, 8174, 8185, 8136, 8160, 8152, 8161, 8169, 8146, 8236,8.118254899978638
17, 8156, 8177, 8176, 8203, 8184, 8182, 8139, 8130, 8172, 8175, 8173, 8182, 8171, 8263,8.126214981079102
18, 8155, 8181, 8170, 8198, 8194, 8199, 8172, 8129, 8169, 8181, 8177, 8176, 8171, 8264,8.134363889694214
19, 8149, 8172, 8173, 8197, 8149, 8199, 8184, 8133, 8165, 8184, 8174, 8172, 8160, 8253,8.14236330986023
20, 8129, 8152, 8142, 8178, 8113, 8183, 8138, 8141, 8184, 8190, 8173, 8169, 8164, 8259,8.14939570426941
21, 8145, 8154, 8167, 8166, 8158, 8173, 8199, 8177, 8197, 8176, 8168, 8168, 8162, 8267,8.157305479049683
22, 8138, 8157, 8150, 8167, 8109, 8164, 8143, 8177, 8194, 8172, 8160, 8152, 8149, 8261,8.16519546508789
23, 8118, 8148, 8131, 8153, 8112, 8162, 8151, 8173, 8191, 8173, 8154, 8134, 8121, 8238,8.173368453979492
24, 8119, 8142, 8153, 8147, 8180, 8165, 8185, 8181, 8194, 8162, 8152, 8133, 8114, 8231,8.181199312210083
25, 8109, 8140, 8131, 8159, 8214, 8166, 8141, 8181, 8208, 8152, 8151, 8133, 8130, 8244,8.189239740371704
26, 8121, 8137, 8152, 8153, 8252, 8172, 8195, 8195, 8214, 8163, 8157, 8132, 8123, 8235,8.197309732437134
27, 8130, 8154, 8160, 8155, 8209, 8175, 8153, 8182, 8220, 8193, 8161, 8145, 8132, 8238,8.205271482467651
28, 8149, 8186, 8164, 8183, 8224, 8185, 8164, 8183, 8227, 8196, 8160, 8173, 8157, 8274,8.212318897247314
29, 8171, 8184, 8182, 8194, 8221, 8185, 8191, 8188, 8211, 8178, 8170, 8187, 8161, 8286,8.220279932022095
30, 8164, 8167, 8163, 8185, 8132, 8167, 8121, 8157, 8190, 8175, 8180, 8182, 8162, 8277,8.228174924850464
31, 8194, 8181, 8196, 8191, 8144, 8167, 8175, 8148, 8167, 8167, 8171, 8193, 8159, 8277,8.236329555511475
32, 8196, 8188, 8184, 8203, 8140, 8164, 8149, 8139, 8150, 8170, 8163, 8197, 8155, 8289,8.244091749191284
33, 8169, 8175, 8157, 8188, 8151, 8155, 8150, 8143, 8145, 8182, 8171, 8192, 8152, 8291,8.25215768814087
34, 8174, 8168, 8186, 8169, 8170, 8163, 8199, 8156, 8141, 8169, 8172, 8192, 8148, 8278,8.260324478149414
35, 8151, 8155, 8154, 8169, 8136, 8163, 8145, 8143, 8140, 8155, 8159, 8169, 8147, 8261,8.268343448638916
36, 8138, 8143, 8148, 8152, 8160, 8161, 8187, 8152, 8137, 8154, 8157, 8151, 8134, 8243,8.276238203048706
37, 8134, 8139, 8154, 8132, 8137, 8160, 8155, 8152, 8150, 8159, 8165, 8159, 8123, 8242,8.283311605453491
38, 8120, 8143, 8145, 8145, 8138, 8161, 8144, 8156, 8168, 8159, 8156, 8156, 8121, 8241,8.291288614273071
39, 8124, 8141, 8165, 8157, 8168, 8163, 8199, 8178, 8176, 8169, 8156, 8149, 8127, 8241,8.299278497695923
40, 8121, 8139, 8142, 8159, 8136, 8162, 8140, 8174, 8197, 8189, 8177, 8157, 8150, 8262,8.307230234146118
41, 8150, 8168, 8170, 8179, 8178, 8164, 8182, 8184, 8210, 8193, 8181, 8175, 8162, 8280,8.315230369567871
42, 8180, 8183, 8196, 8192, 8171, 8159, 8168, 8182, 8213, 8207, 8178, 8186, 8170, 8298,8.32345724105835
43, 8177, 8181, 8178, 8192, 8145, 8165, 8141, 8173, 8217, 8221, 8179, 8193, 8188, 8316,8.33130168914795
44, 8183, 8197, 8202, 8198, 8183, 8180, 8201, 8171, 8207, 8217, 8180, 8199, 8194, 8315,8.3389573097229
45, 8177, 8199, 8178, 8202, 8149, 8175, 8139, 8137, 8198, 8218, 8178, 8187, 8194, 8307,8.346246719360352
46, 8191, 8188, 8177, 8197, 8171, 8165, 8170, 8136, 8182, 8211, 8175, 8181, 8184, 8307,8.354246854782104
47, 8188, 8177, 8181, 8180, 8196, 8163, 8176, 8139, 8152, 8191, 8170, 8181, 8174, 8302,8.362346410751343
48, 8147, 8169, 8148, 8160, 8177, 8163, 8146, 8127, 8135, 8180, 8162, 8165, 8166, 8272,8.370122909545898
49, 8157, 8163, 8174, 8148, 8173, 8164, 8207, 8157, 8142, 8183, 8163, 8163, 8157, 8259,8.378277778625488
50, 8149, 8148, 8155, 8137, 8125, 8158, 8147, 8171, 8156, 8188, 8160, 8154, 8159, 8270,8.386341571807861
51, 8125, 8148, 8142, 8126, 8152, 8163, 8167, 8176, 8162, 8176, 8152, 8135, 8140, 8253,8.394250392913818
52, 8143, 8160, 8171, 8135, 8161, 8173, 8187, 8181, 8186, 8191, 8162, 8149, 8147, 8257,8.402250051498413
53, 8151, 8159, 8160, 8146, 8134, 8171, 8141, 8178, 8211, 8217, 8174, 8168, 8179, 8289,8.409403800964355
54, 8158, 8161, 8175, 8155, 8163, 8172, 8196, 8185, 8200, 8193, 8169, 8165, 8166, 8287,8.417256593704224
55, 8175, 8188, 8186, 8187, 8147, 8176, 8148, 8173, 8194, 8186, 8172, 8173, 8161, 8292,8.425345659255981
56, 8219, 8221, 8207, 8213, 8234, 8183, 8162, 8181, 8203, 8221, 8192, 8207, 8199, 8326,8.433202028274536
57, 8222, 8206, 8202, 8199, 8320, 8190, 8185, 8190, 8208, 8236, 8182, 8205, 8208, 8335,8.441239833831787
58, 8174, 8182, 8153, 8183, 8308, 8189, 8129, 8170, 8206, 8216, 8148, 8160, 8174, 8311,8.449218034744263
59, 8192, 8212, 8197, 8206, 8305, 8192, 8189, 8169, 8192, 8198, 8152, 8158, 8153, 8284,8.458355188369751
60, 8209, 8234, 8205, 8235, 8236, 8193, 8156, 8147, 8185, 8217, 8176, 8190, 8180, 8279,8.465240240097046
61, 8189, 8218, 8171, 8220, 8247, 8191, 8158, 8138, 8167, 8223, 8171, 8191, 8189, 8282,8.473421096801758
62, 8180, 8202, 8179, 8188, 8257, 8179, 8185, 8139, 8138, 8194, 8160, 8165, 8163, 8277,8.480223178863525
63, 8158, 8188, 8147, 8173, 8162, 8166, 8127, 8116, 8133, 8186, 8157, 8157, 8157, 8272,8.488271713256836
64, 8149, 8168, 8146, 8163, 8120, 8167, 8183, 8118, 8126, 8190, 8153, 8165, 8157, 8264,8.496293067932129
65, 8127, 8157, 8137, 8158, 8032, 8163, 8153, 8116, 8120, 8186, 8154, 8147, 8147, 8246,8.50415301322937
66, 8114, 8160, 8135, 8160, 7978, 8161, 8149, 8127, 8140, 8186, 8154, 8131, 8142, 8239,8.512312173843384
67, 8142, 8161, 8175, 8156, 7999, 8163, 8197, 8162, 8164, 8203, 8159, 8156, 8155, 8266,8.520130157470703
68, 8150, 8162, 8156, 8163, 7991, 8173, 8144, 8182, 8189, 8239, 8173, 8174, 8183, 8294,8.528190612792969
69, 8156, 8177, 8164, 8174, 8028, 8188, 8197, 8209, 8205, 8250, 8174, 8158, 8181, 8279,8.536404848098755
70, 8141, 8178, 8166, 8164, 8014, 8176, 8170, 8208, 8217, 8234, 8161, 8140, 8171, 8264,8.543517112731934
71, 8129, 8181, 8145, 8168, 7994, 8165, 8147, 8201, 8218, 8225, 8159, 8143, 8171, 8270,8.551426410675049
72, 8153, 8199, 8175, 8197, 8009, 8182, 8201, 8200, 8196, 8235, 8162, 8158, 8164, 8256,8.559201955795288
73, 8156, 8204, 8168, 8205, 7978, 8179, 8135, 8155, 8174, 8223, 8156, 8164, 8153, 8243,8.567470073699951
74, 8183, 8210, 8188, 8192, 8019, 8166, 8177, 8126, 8148, 8177, 8157, 8173, 8144, 8256,8.5753333568573
75, 8187, 8205, 8188, 8196, 8024, 8165, 8176, 8102, 8127, 8169, 8165, 8173, 8147, 8262,8.583299398422241
76, 8144, 8191, 8154, 8197, 8000, 8153, 8139, 8085, 8118, 8181, 8158, 8156, 8146, 8244,8.591089963912964
77, 8175, 8206, 8191, 8187, 8030, 8148, 8190, 8112, 8115, 8173, 8159, 8167, 8149, 8261,8.599497556686401
78, 8204, 8219, 8179, 8206, 8008, 8158, 8132, 8124, 8131, 8202, 8177, 8187, 8188, 8308,8.607212543487549
79, 8179, 8206, 8171, 8218, 8028, 8166, 8163, 8139, 8141, 8228, 8180, 8189, 8204, 8304,8.614292621612549
80, 8164, 8193, 8185, 8193, 8027, 8166, 8178, 8147, 8143, 8213, 8177, 8192, 8190, 8285,8.622238874435425
81, 8185, 8196, 8177, 8180, 8022, 8170, 8145, 8149, 8145, 8212, 8182, 8204, 8196, 8314,8.630168199539185
82, 8207, 8197, 8194, 8191, 8052, 8181, 8197, 8177, 8148, 8230, 8180, 8208, 8203, 8338,8.638239622116089
83, 8159, 8185, 8158, 8198, 8035, 8182, 8154, 8185, 8175, 8241, 8164, 8179, 8188, 8307,8.646491050720215
84, 8130, 8183, 8154, 8184, 8112, 8181, 8187, 8194, 8195, 8228, 8155, 8152, 8162, 8259,8.654430866241455
85, 8145, 8172, 8167, 8165, 8146, 8179, 8186, 8198, 8188, 8215, 8156, 8152, 8152, 8255,8.662391424179077
86, 8141, 8171, 8134, 8173, 8116, 8178, 8137, 8198, 8187, 8223, 8153, 8153, 8154, 8268,8.67014455795288
87, 8144, 8200, 8166, 8199, 8160, 8195, 8204, 8224, 8204, 8236, 8160, 8151, 8157, 8259,8.677050113677979
88, 8148, 8203, 8173, 8201, 8127, 8193, 8153, 8207, 8210, 8226, 8171, 8156, 8166, 8262,8.685194969177246
89, 8179, 8195, 8174, 8196, 8107, 8167, 8163, 8182, 8180, 8193, 8171, 8181, 8168, 8287,8.693088054656982
90, 8200, 8207, 8195, 8215, 8113, 8159, 8185, 8172, 8157, 8186, 8174, 8194, 8172, 8307,8.701114654541016
91, 8173, 8214, 8174, 8226, 8088, 8177, 8132, 8156, 8161, 8197, 8179, 8171, 8176, 8299,8.709161281585693
92, 8191, 8209, 8191, 8217, 8087, 8186, 8195, 8164, 8158, 8195, 8173, 8178, 8179, 8297,8.717069387435913
93, 8193, 8189, 8168, 8192, 8013, 8160, 8154, 8153, 8152, 8198, 8161, 8199, 8189, 8310,8.725095272064209
94, 8154, 8163, 8134, 8159, 8044, 8149, 8148, 8146, 8135, 8185, 8150, 8164, 8154, 8278,8.733185052871704
95, 8142, 8155, 8149, 8147, 8177, 8162, 8181, 8150, 8114, 8158, 8146, 8124, 8106, 8229,8.740097045898438
96, 8144, 8171, 8139, 8158, 8240, 8141, 8131, 8141, 8117, 8171, 8154, 8137, 8124, 8243,8.748172998428345
97, 8165, 8178, 8169, 8163, 8262, 8129, 8191, 8160, 8129, 8200, 8163, 8161, 8149, 8266,8.756190538406372
98, 8166, 8168, 8175, 8171, 8200, 8150, 8161, 8164, 8144, 8201, 8168, 8160, 8145, 8267,8.768062353134155
99, 8181, 8188, 8179, 8197, 8207, 8161, 8153, 8173, 8162, 8197, 8176, 8173, 8160, 8290,8.794265031814575
100, 8223, 8210, 8210, 8211, 8199, 8145, 8193, 8188, 8171, 8213, 8182, 8197, 8186, 8317,8.794626951217651
101, 8201, 8195, 8162, 8201, 8052, 8133, 8125, 8164, 8170, 8220, 8168, 8180, 8181, 8308,8.794965982437134
102, 8180, 8184, 8165, 8187, 8029, 8143, 8181, 8158, 8150, 8186, 8155, 8155, 8147, 8275,8.796149730682373
103, 8184, 8190, 8183, 8193, 8044, 8151, 8157, 8156, 8141, 8178, 8171, 8158, 8151, 8268,8.804294109344482
104, 8188, 8204, 8165, 8220, 8036, 8162, 8125, 8163, 8158, 8217, 8187, 8179, 8192, 8300,8.811201333999634
105, 8207, 8210, 8190, 8229, 8049, 8164, 8189, 8176, 8157, 8229, 8180, 8203, 8207, 8320,8.820400714874268
106, 8197, 8188, 8173, 8204, 8021, 8144, 8128, 8159, 8145, 8213, 8175, 8196, 8201, 8319,8.827261686325073
107, 8195, 8173, 8173, 8181, 8051, 8143, 8167, 8171, 8147, 8207, 8178, 8180, 8197, 8319,8.835328578948975
108, 8185, 8172, 8173, 8184, 8040, 8150, 8178, 8174, 8160, 8229, 8171, 8173, 8204, 8314,8.843138217926025
109, 8160, 8178, 8151, 8187, 8018, 8150, 8162, 8164, 8163, 8235, 8158, 8165, 8192, 8296,8.8511643409729
110, 8171, 8184, 8182, 8182, 8035, 8159, 8210, 8178, 8153, 8211, 8161, 8172, 8171, 8292,8.859302997589111
111, 8168, 8174, 8164, 8191, 7993, 8161, 8129, 8176, 8171, 8225, 8169, 8186, 8199, 8322,8.866239547729492
112, 8177, 8164, 8169, 8189, 8031, 8161, 8168, 8193, 8193, 8247, 8165, 8189, 8215, 8329,8.874224185943604
113, 8183, 8159, 8185, 8176, 8041, 8163, 8187, 8196, 8187, 8229, 8159, 8176, 8183, 8299,8.882273197174072
114, 8152, 8157, 8143, 8171, 7998, 8155, 8118, 8172, 8172, 8197, 8150, 8154, 8155, 8275,8.890157222747803
115, 8157, 8164, 8155, 8173, 8036, 8152, 8169, 8178, 8161, 8183, 8150, 8142, 8140, 8277,8.898204326629639
116, 8159, 8157, 8153, 8175, 8039, 8158, 8151, 8169, 8162, 8177, 8151, 8133, 8134, 8275,8.906083106994629
117, 8162, 8159, 8163, 8183, 8054, 8169, 8168, 8161, 8153, 8157, 8157, 8131, 8129, 8254,8.914381742477417
118, 8176, 8175, 8188, 8195, 8046, 8171, 8171, 8160, 8143, 8160, 8168, 8141, 8136, 8261,8.922188758850098
119, 8161, 8176, 8161, 8190, 8030, 8162, 8133, 8158, 8143, 8186, 8161, 8134, 8148, 8270,8.930152177810669
120, 8149, 8160, 8165, 8180, 8065, 8165, 8183, 8165, 8137, 8192, 8155, 8125, 8139, 8241,8.937255144119263
121, 8146, 8157, 8161, 8193, 8032, 8168, 8133, 8143, 8136, 8194, 8173, 8143, 8143, 8246,8.945231437683105
122, 8162, 8169, 8170, 8198, 8053, 8167, 8152, 8137, 8130, 8198, 8188, 8169, 8166, 8276,8.9533212184906
123, 8164, 8157, 8175, 8170, 8087, 8163, 8186, 8140, 8118, 8193, 8171, 8163, 8173, 8266,8.961419582366943
124, 8123, 8128, 8134, 8141, 8053, 8168, 8140, 8129, 8123, 8177, 8153, 8134, 8158, 8250,8.96948504447937
