COUNTER,F3, FC5,AF3,F7,T7,P7,O1,O2,P8,T8,F8,AF4,FC6,F4,Timestamp,hello_event
27,8177,8167,8193,8164,8149,8188,8197,8162,8168,8140,8179,8118,8161,8291,0.0084598064422607,False
28,8197,8180,8204,8192,8131,8193,8163,8154,8159,8139,8200,8136,8176,8314,0.0163066387176513,False
29,8191,8197,8177,8196,8183,8186,8134,8142,8144,8138,8190,8130,8177,8322,0.0245270729064941,False
30,8196,8207,8193,8196,8330,8179,8202,8152,8128,8120,8172,8121,8169,8302,0.0324349403381347,False
31,8177,8203,8175,8191,8363,8170,8159,8152,8132,8131,8179,8112,8181,8287,0.0394036769866943,False
32,8142,8185,8125,8167,8288,8165,8099,8154,8148,8174,8183,8093,8191,8286,0.0474307537078857,False
33,8111,8168,8089,8157,8161,8160,8069,8149,8161,8188,8175,8072,8180,8271,0.0554630756378173,False
34,8114,8173,8132,8159,8163,8163,8202,8168,8157,8167,8174,8072,8161,8240,0.0635106563568115,False
35,8131,8171,8200,8139,8205,8168,8294,8185,8142,8156,8175,8077,8149,8221,0.0714335441589355,False
36,8098,8143,8148,8121,8122,8155,8131,8153,8154,8165,8169,8071,8156,8229,0.0793957710266113,False
37,8105,8148,8149,8136,8139,8157,8155,8173,8178,8180,8182,8087,8172,8257,0.0874767303466796,False
38,8153,8183,8195,8173,8159,8169,8196,8197,8193,8203,8199,8115,8198,8294,0.0954511165618896,False
39,8163,8196,8170,8195,8135,8172,8143,8180,8203,8199,8182,8118,8205,8305,0.1035380363464355,False
40,8168,8189,8179,8184,8181,8183,8199,8178,8201,8176,8169,8114,8182,8289,0.1105482578277587,False
41,8171,8186,8176,8185,8154,8191,8161,8161,8201,8187,8180,8122,8186,8290,0.1185982227325439,False
42,8199,8202,8192,8219,8174,8200,8177,8160,8198,8189,8185,8145,8205,8313,0.1265103816986084,False
43,8222,8208,8200,8224,8240,8205,8179,8164,8194,8172,8187,8152,8210,8337,0.1343686580657959,False
44,8205,8197,8165,8193,8242,8198,8143,8153,8190,8163,8184,8125,8205,8331,0.1426618099212646,False
45,8217,8203,8193,8188,8204,8206,8205,8167,8185,8165,8175,8120,8205,8317,0.1505146026611328,False
46,8216,8211,8183,8208,8131,8212,8157,8173,8193,8185,8174,8130,8226,8330,0.1585855484008789,False
47,8186,8197,8152,8198,8163,8196,8161,8175,8185,8176,8180,8105,8210,8313,0.1665947437286377,False
48,8153,8170,8149,8166,8175,8183,8176,8157,8156,8144,8166,8066,8160,8259,0.1735146045684814,False
49,8127,8159,8130,8153,8131,8189,8136,8137,8147,8152,8154,8063,8157,8248,0.1814353466033935,False
50,8142,8166,8157,8155,8166,8188,8190,8169,8162,8183,8171,8099,8195,8276,0.1895778179168701,False
51,8123,8150,8143,8139,8144,8170,8149,8177,8182,8190,8177,8104,8204,8280,0.1974630355834961,False
52,8101,8136,8127,8119,8152,8171,8157,8178,8190,8185,8160,8083,8180,8251,0.205549955368042,False
53,8132,8140,8162,8131,8213,8182,8194,8190,8192,8194,8162,8095,8172,8250,0.2136399745941162,False
54,8150,8157,8157,8165,8274,8183,8145,8182,8201,8194,8180,8117,8181,8282,0.2245585918426513,False
55,8163,8179,8176,8183,8337,8191,8197,8180,8199,8168,8177,8113,8162,8279,0.2292675971984863,False
56,8166,8182,8178,8191,8249,8194,8164,8161,8190,8159,8164,8099,8153,8259,0.2364523410797119,False
57,8180,8199,8182,8210,8209,8205,8156,8165,8188,8178,8183,8110,8173,8283,0.2442810535430908,False
58,8218,8227,8215,8231,8245,8229,8196,8182,8195,8180,8201,8129,8187,8319,0.2525310516357422,False
59,8208,8225,8176,8231,8200,8224,8134,8163,8191,8162,8184,8122,8191,8322,0.2604665756225586,False
60,8196,8211,8167,8208,8215,8198,8178,8166,8160,8145,8168,8117,8186,8307,0.2683227062225342,False
61,8184,8188,8159,8176,8207,8186,8168,8165,8153,8145,8168,8110,8185,8297,0.2764461040496826,False
62,8158,8168,8132,8154,8172,8193,8152,8160,8165,8148,8161,8089,8174,8274,0.2845277786254883,False
63,8154,8164,8155,8153,8157,8186,8188,8156,8144,8135,8159,8093,8167,8250,0.2922818660736084,False
64,8144,8161,8146,8159,8119,8164,8131,8133,8132,8145,8173,8108,8186,8253,0.300389289855957,False
65,8155,8162,8163,8155,8148,8164,8174,8144,8138,8166,8189,8124,8183,8257,0.3074219226837158,False
66,8168,8165,8185,8163,8138,8160,8165,8142,8140,8156,8192,8149,8172,8261,0.3153989315032959,False
67,8177,8181,8196,8196,8130,8148,8139,8135,8141,8139,8185,8180,8196,8284,0.3234913349151611,False
68,8225,8200,8252,8230,8161,8155,8194,8167,8144,8152,8201,8214,8234,8316,0.3313679695129394,False
69,8243,8201,8248,8252,8124,8154,8149,8176,8150,8175,8219,8238,8250,8339,0.3394560813903808,False
70,8248,8205,8248,8271,8138,8146,8184,8168,8131,8150,8206,8262,8235,8347,0.3473870754241943,False
71,8251,8218,8261,8284,8130,8147,8178,8140,8099,8119,8205,8273,8230,8352,0.3553502559661865,False
72,8244,8225,8246,8290,8123,8155,8140,8125,8090,8120,8216,8267,8239,8347,0.3634724617004394,False
73,8268,8223,8265,8293,8160,8167,8199,8140,8095,8105,8205,8259,8228,8337,0.3702757358551025,False
74,8266,8216,8230,8296,8113,8167,8147,8122,8098,8095,8185,8237,8219,8341,0.3785414695739746,False
75,8250,8222,8202,8283,8127,8158,8160,8107,8080,8095,8172,8213,8198,8328,0.3864941596984863,False
76,8233,8222,8192,8252,8146,8147,8172,8096,8068,8090,8161,8192,8168,8297,0.3945012092590332,False
77,8191,8197,8147,8225,8123,8146,8133,8091,8071,8085,8151,8158,8155,8273,0.4025733470916748,False
78,8172,8171,8145,8206,8143,8161,8187,8123,8071,8069,8145,8133,8145,8262,0.4104712009429931,False
79,8146,8154,8125,8189,8114,8152,8140,8121,8081,8079,8142,8119,8133,8253,0.418287992477417,False
80,8143,8152,8131,8178,8136,8139,8150,8115,8092,8108,8153,8115,8127,8230,0.4265286922454834,False
81,8177,8167,8169,8187,8153,8149,8174,8128,8102,8119,8169,8130,8145,8238,0.4344427585601806,False
82,8179,8186,8154,8206,8128,8162,8130,8131,8121,8119,8171,8138,8167,8272,0.4413983821868896,False
83,8176,8201,8173,8217,8161,8168,8192,8144,8130,8134,8168,8138,8160,8273,0.4494831562042236,False
84,8182,8202,8183,8226,8141,8161,8163,8139,8144,8163,8180,8148,8161,8279,0.4574692249298095,False
85,8202,8205,8182,8222,8153,8161,8164,8143,8156,8166,8186,8165,8172,8315,0.4653952121734619,False
86,8211,8193,8191,8203,8162,8164,8186,8144,8141,8150,8173,8160,8173,8327,0.4733529090881347,False
87,8181,8166,8158,8188,8120,8160,8130,8120,8126,8138,8168,8143,8163,8304,0.4813191890716553,False
88,8184,8169,8172,8188,8164,8173,8191,8128,8122,8126,8174,8145,8139,8282,0.4894342422485351,False
89,8178,8173,8160,8187,8154,8180,8167,8129,8126,8115,8164,8141,8121,8280,0.4974880218505859,False
90,8156,8159,8131,8166,8138,8172,8153,8150,8131,8092,8155,8124,8112,8276,0.5043888092041016,False
91,8155,8142,8150,8138,8160,8166,8198,8188,8132,8080,8161,8114,8099,8254,0.5124669075012207,False
92,8110,8126,8110,8119,8138,8171,8144,8189,8144,8107,8160,8097,8106,8235,0.5204527378082275,False
93,8069,8116,8097,8116,8160,8188,8182,8198,8171,8139,8165,8088,8120,8223,0.5285661220550537,False
94,8069,8116,8117,8129,8142,8196,8168,8189,8195,8166,8168,8091,8125,8214,0.5365035533905029,False
95,8093,8130,8133,8133,8142,8199,8153,8171,8199,8175,8161,8102,8125,8208,0.5444118976593018,False
96,8118,8135,8165,8130,8169,8198,8203,8179,8193,8168,8161,8119,8130,8206,0.5515363216400146,False
97,8115,8135,8153,8146,8142,8193,8150,8176,8204,8182,8166,8131,8150,8233,0.5604205131530762,False
98,8149,8156,8181,8168,8189,8200,8187,8185,8213,8180,8164,8151,8156,8270,0.5673110485076904,False
99,8174,8160,8197,8163,8185,8201,8174,8174,8196,8161,8161,8160,8148,8279,0.5753805637359619,False
100,8157,8153,8170,8152,8160,8182,8141,8151,8167,8161,8159,8148,8143,8266,0.5834617614746094,False
101,8187,8167,8201,8163,8207,8162,8194,8150,8142,8146,8162,8158,8138,8274,0.5913214683532715,False
102,8205,8168,8190,8166,8181,8162,8140,8136,8136,8117,8165,8170,8132,8297,0.5995054244995117,False
103,8194,8163,8175,8164,8176,8187,8172,8143,8132,8110,8154,8161,8118,8294,0.6073181629180908,False
104,8172,8168,8172,8169,8163,8195,8186,8155,8141,8116,8150,8149,8128,8286,0.6163477897644043,False
105,8128,8157,8138,8151,8149,8178,8148,8172,8171,8124,8153,8132,8137,8268,0.6234438419342041,False
106,8097,8139,8139,8125,8168,8183,8195,8212,8199,8145,8144,8113,8124,8233,0.630500078201294,False
107,8071,8128,8120,8125,8128,8202,8153,8204,8222,8154,8144,8105,8128,8231,0.6384832859039307,False
108,8082,8126,8135,8128,8159,8202,8181,8185,8211,8132,8155,8113,8125,8240,0.6463828086853027,False
109,8106,8125,8158,8115,8161,8178,8178,8164,8181,8124,8157,8118,8105,8223,0.6545181274414062,False
110,8104,8132,8136,8125,8122,8159,8128,8134,8157,8128,8154,8115,8104,8218,0.6624984741210938,False
111,8123,8142,8166,8137,8158,8168,8190,8140,8132,8115,8167,8132,8117,8236,0.6703219413757324,False
112,8130,8130,8169,8119,8132,8174,8147,8135,8130,8124,8181,8151,8139,8261,0.6774613857269287,False
113,8162,8151,8184,8143,8137,8175,8159,8136,8144,8152,8177,8171,8172,8288,0.6864135265350342,False
114,8208,8207,8222,8207,8156,8182,8174,8140,8153,8172,8185,8188,8196,8308,0.6943271160125732,False
115,8205,8230,8202,8234,8144,8179,8119,8128,8149,8169,8189,8181,8191,8307,0.7013812065124512,False
116,8214,8227,8216,8244,8177,8164,8181,8135,8135,8150,8169,8172,8172,8298,0.7095069885253906,False
117,8211,8225,8199,8258,8150,8147,8148,8127,8128,8149,8150,8162,8161,8296,0.7172887325286865,False
118,8189,8213,8169,8237,8157,8151,8146,8129,8122,8132,8148,8142,8136,8274,0.7253708839416504,False
119,8171,8186,8176,8207,8174,8165,8187,8146,8133,8113,8141,8137,8116,8260,0.7334680557250977,False
120,8140,8177,8146,8215,8143,8164,8145,8146,8161,8128,8134,8137,8125,8271,0.7413690090179443,False
121,8143,8191,8155,8217,8175,8165,8192,8157,8158,8142,8153,8124,8118,8258,0.7483375072479248,False
122,8151,8197,8161,8216,8155,8175,8155,8140,8153,8156,8168,8122,8118,8244,0.7575428485870361,False
123,8154,8201,8162,8242,8152,8185,8146,8133,8166,8166,8167,8147,8143,8266,0.7644202709197998,False
124,8163,8205,8184,8246,8176,8192,8191,8146,8159,8163,8173,8163,8156,8277,0.7733252048492432,False
125,8152,8212,8161,8237,8137,8197,8135,8136,8144,8171,8174,8155,8159,8265,0.7805941104888916,False
126,8181,8232,8189,8246,8158,8203,8185,8146,8132,8163,8157,8158,8140,8282,0.7886192798614502,False
127,8198,8224,8200,8242,8153,8203,8172,8139,8121,8125,8146,8151,8123,8303,0.796527624130249,False
238,8176,8201,8164,8218,8154,8207,8148,8127,8118,8114,8143,8131,8122,8280,0.8045353889465332,False
0,8178,8205,8175,8211,8175,8205,8195,8145,8117,8126,8139,8135,8114,8260,0.8124620914459229,False
1,8163,8201,8154,8212,8132,8189,8132,8144,8121,8126,8137,8142,8114,8275,0.8204824924468994,False
2,8135,8174,8151,8177,8162,8186,8167,8144,8125,8115,8134,8131,8114,8262,0.8274781703948975,False
3,8115,8154,8151,8153,8160,8187,8168,8136,8132,8124,8136,8123,8103,8232,0.8355951309204102,False
4,8119,8175,8138,8180,8140,8186,8136,8132,8151,8137,8150,8127,8091,8236,0.843571662902832,False
5,8152,8203,8182,8202,8170,8184,8190,8152,8160,8121,8161,8140,8097,8243,0.8513405323028564,False
6,8150,8199,8171,8192,8138,8169,8142,8148,8165,8123,8158,8151,8127,8252,0.8595328330993652,False
7,8164,8201,8167,8198,8147,8166,8168,8164,8166,8141,8158,8163,8132,8275,0.8685092926025391,False
8,8192,8212,8192,8220,8139,8177,8175,8171,8165,8146,8164,8167,8125,8287,0.8753716945648193,False
9,8180,8220,8180,8226,8136,8187,8136,8151,8171,8149,8170,8165,8134,8282,0.8833374977111816,False
10,8188,8225,8201,8224,8184,8193,8197,8160,8172,8155,8176,8179,8144,8283,0.8913824558258057,False
11,8186,8216,8183,8222,8145,8183,8148,8149,8169,8155,8168,8185,8156,8301,0.8984272480010986,False
12,8188,8222,8180,8232,8192,8173,8157,8136,8156,8142,8157,8175,8153,8307,0.9064157009124756,False
13,8203,8247,8207,8254,8239,8171,8176,8125,8140,8137,8162,8178,8140,8297,0.914405345916748,False
14,8172,8242,8167,8246,8161,8165,8124,8105,8131,8117,8162,8172,8131,8280,0.9223883152008056,False
15,8165,8221,8165,8218,8151,8159,8183,8120,8122,8092,8149,8158,8122,8261,0.9304585456848145,False
16,8181,8219,8171,8213,8157,8159,8154,8135,8137,8114,8148,8158,8123,8272,0.9394299983978271,False
17,8175,8221,8163,8207,8159,8169,8158,8156,8151,8132,8147,8159,8122,8277,0.9462299346923828,False
18,8148,8198,8154,8173,8136,8171,8190,8156,8147,8120,8139,8139,8107,8252,0.9544198513031006,False
19,8131,8182,8129,8168,8124,8167,8154,8144,8156,8127,8146,8127,8103,8238,0.9614861011505128,False
20,8162,8196,8173,8195,8162,8187,8209,8174,8167,8143,8166,8146,8116,8251,0.9694247245788574,False
21,8170,8200,8172,8204,8124,8203,8159,8179,8177,8146,8177,8163,8138,8272,0.9773569107055664,False
22,8167,8207,8149,8197,8181,8201,8147,8173,8189,8150,8176,8163,8151,8285,0.9854936599731444,False
23,8189,8218,8185,8202,8250,8197,8189,8172,8194,8164,8170,8170,8151,8292,0.9934148788452148,False
24,8185,8215,8172,8212,8162,8188,8131,8148,8181,8164,8163,8170,8148,8294,1.0013689994812012,False
25,8195,8216,8175,8217,8141,8188,8174,8145,8161,8146,8159,8174,8136,8292,1.0093815326690674,False
26,8210,8224,8188,8227,8151,8186,8153,8137,8169,8150,8165,8187,8154,8310,1.017265796661377,False
27,8214,8236,8190,8233,8157,8183,8150,8127,8173,8156,8176,8190,8179,8324,1.0254011154174805,False
28,8214,8241,8197,8223,8155,8192,8189,8124,8142,8138,8176,8178,8162,8310,1.0323071479797363,False
29,8179,8230,8156,8221,8123,8188,8126,8114,8132,8133,8162,8164,8149,8298,1.0404353141784668,False
30,8174,8232,8170,8218,8164,8168,8174,8135,8143,8139,8159,8173,8155,8284,1.048405647277832,False
31,8180,8227,8182,8205,8147,8154,8165,8149,8150,8160,8163,8178,8168,8280,1.056545972824097,False
32,8163,8213,8158,8193,8130,8163,8143,8154,8160,8173,8162,8162,8164,8278,1.0644519329071045,False
33,8151,8205,8167,8183,8169,8174,8197,8168,8163,8144,8161,8149,8135,8250,1.0724515914916992,False
34,8114,8181,8124,8164,8129,8161,8139,8148,8154,8130,8158,8126,8122,8220,1.0805091857910156,False
35,8096,8162,8124,8141,8140,8165,8178,8150,8152,8146,8157,8116,8121,8219,1.0884552001953125,False
36,8102,8157,8151,8127,8137,8178,8184,8169,8166,8156,8161,8130,8125,8238,1.095449686050415,False
37,8102,8162,8135,8137,8117,8176,8139,8174,8177,8148,8158,8129,8125,8233,1.1033563613891602,False
38,8120,8169,8155,8156,8158,8173,8188,8175,8170,8137,8151,8118,8112,8212,1.1114375591278076,False
39,8113,8166,8142,8157,8145,8173,8147,8151,8174,8138,8155,8120,8112,8224,1.1194519996643066,False
40,8125,8178,8158,8150,8158,8173,8168,8154,8174,8139,8160,8137,8118,8243,1.127495050430298,False
41,8159,8197,8191,8174,8147,8167,8174,8165,8173,8148,8166,8155,8130,8238,1.1355178356170654,False
42,8160,8199,8173,8194,8129,8168,8146,8156,8181,8155,8174,8172,8146,8237,1.1434404850006104,False
43,8191,8198,8206,8199,8174,8179,8210,8155,8174,8151,8181,8194,8168,8275,1.1513450145721436,False
44,8206,8197,8201,8201,8129,8169,8149,8128,8162,8160,8183,8193,8192,8319,1.1585252285003662,False
45,8192,8192,8182,8196,8125,8146,8150,8122,8138,8145,8167,8183,8175,8311,1.1666162014007568,False
46,8196,8190,8197,8204,8181,8145,8179,8131,8123,8119,8157,8187,8160,8287,1.1745760440826416,False
47,8193,8203,8181,8222,8184,8162,8145,8131,8147,8140,8171,8192,8188,8306,1.1825220584869385,False
48,8191,8201,8186,8213,8168,8173,8200,8156,8165,8166,8178,8191,8207,8330,1.1906309127807615,False
49,8167,8166,8162,8179,8137,8169,8153,8152,8163,8161,8166,8176,8196,8313,1.1984796524047852,False
50,8145,8147,8144,8163,8186,8161,8152,8147,8160,8152,8152,8159,8170,8275,1.2075350284576416,False
51,8127,8142,8148,8153,8169,8142,8177,8148,8154,8151,8155,8149,8149,8248,1.2144145965576172,False
52,8100,8125,8128,8136,8112,8125,8135,8130,8147,8138,8148,8138,8142,8243,1.2213799953460691,False
53,8114,8122,8161,8126,8184,8138,8191,8143,8147,8123,8137,8142,8135,8238,1.2294933795928955,False
54,8108,8122,8152,8128,8159,8151,8147,8147,8156,8142,8146,8141,8132,8222,1.237403392791748,False
55,8090,8116,8131,8144,8133,8149,8146,8147,8155,8150,8151,8123,8118,8199,1.2454047203063965,False
56,8097,8121,8158,8153,8168,8145,8190,8148,8142,8129,8137,8117,8104,8196,1.2533810138702393,False
57,8088,8128,8144,8137,8139,8146,8126,8126,8144,8125,8136,8119,8111,8208,1.2614667415618896,False
58,8107,8134,8166,8129,8157,8152,8169,8129,8130,8119,8159,8124,8109,8204,1.2694036960601809,False
59,8118,8135,8166,8150,8146,8143,8151,8123,8102,8099,8163,8131,8105,8207,1.2773423194885254,False
60,8127,8142,8156,8162,8139,8135,8144,8119,8099,8099,8159,8146,8125,8237,1.2854082584381104,False
61,8175,8161,8205,8162,8155,8152,8193,8139,8116,8126,8172,8170,8156,8271,1.292344093322754,False
62,8182,8174,8185,8173,8130,8159,8134,8130,8118,8140,8171,8171,8179,8281,1.3005485534667969,False
63,8162,8164,8170,8162,8164,8155,8174,8133,8110,8127,8161,8157,8166,8262,1.3083992004394531,False
64,8134,8135,8168,8137,8140,8154,8162,8136,8135,8142,8165,8147,8152,8247,1.316448211669922,False
65,8112,8119,8146,8128,8112,8153,8134,8138,8160,8165,8158,8134,8154,8244,1.3243358135223389,False
66,8125,8122,8165,8127,8139,8143,8197,8156,8160,8156,8144,8131,8148,8234,1.3324391841888428,False
67,8114,8125,8151,8127,8120,8136,8140,8150,8163,8162,8158,8136,8153,8229,1.3404889106750488,False
68,8100,8128,8142,8122,8147,8149,8158,8154,8152,8164,8163,8131,8149,8223,1.348338603973389,False
69,8101,8123,8151,8100,8146,8147,8186,8150,8135,8135,8140,8123,8121,8211,1.355363845825195,False
70,8092,8123,8139,8106,8156,8131,8140,8124,8134,8121,8134,8123,8112,8211,1.3634324073791504,False
71,8093,8139,8149,8146,8228,8136,8143,8118,8124,8123,8143,8120,8117,8211,1.3715169429779053,False
72,8085,8140,8135,8163,8196,8148,8139,8115,8104,8104,8130,8101,8099,8193,1.3795197010040283,False
73,8109,8141,8166,8157,8177,8155,8231,8126,8092,8081,8122,8107,8073,8183,1.3874356746673584,False
74,8138,8157,8195,8176,8154,8149,8195,8122,8099,8105,8142,8132,8096,8221,1.3952643871307373,False
75,8137,8170,8163,8196,8123,8133,8107,8110,8110,8130,8158,8138,8126,8259,1.4034032821655271,False
76,8157,8185,8190,8196,8163,8133,8196,8122,8103,8114,8159,8149,8114,8252,1.4114408493041992,False
77,8161,8196,8183,8205,8136,8136,8157,8110,8106,8117,8160,8151,8126,8248,1.4193239212036133,False
78,8148,8191,8165,8199,8137,8131,8146,8112,8100,8131,8157,8128,8135,8232,1.426438570022583,False
79,8133,8168,8168,8171,8156,8132,8176,8117,8088,8129,8156,8111,8106,8198,1.4345333576202393,False
80,8101,8153,8137,8165,8135,8143,8132,8120,8114,8140,8159,8117,8101,8200,1.4424490928649902,False
81,8107,8160,8162,8168,8166,8165,8193,8157,8143,8153,8162,8131,8119,8215,1.4504597187042236,False
82,8110,8154,8157,8161,8184,8175,8158,8160,8155,8155,8160,8133,8133,8214,1.4584288597106934,False
83,8112,8149,8143,8175,8261,8173,8159,8160,8159,8167,8158,8141,8144,8215,1.4664337635040283,False
84,8133,8156,8171,8188,8258,8164,8190,8165,8157,8181,8162,8155,8152,8231,1.4744062423706057,False
85,8114,8152,8151,8169,8146,8150,8137,8134,8151,8162,8160,8146,8148,8244,1.4825541973114014,False
86,8107,8151,8160,8154,8157,8154,8188,8129,8128,8121,8150,8136,8129,8238,1.4904451370239258,False
87,8113,8154,8160,8160,8147,8159,8154,8119,8121,8125,8160,8137,8130,8232,1.497438907623291,False
88,8125,8176,8158,8182,8131,8157,8145,8111,8139,8152,8177,8139,8148,8240,1.505413293838501,False
89,8151,8200,8193,8210,8155,8162,8189,8123,8154,8156,8177,8158,8167,8262,1.5135674476623535,False
90,8138,8197,8170,8211,8139,8162,8131,8117,8161,8168,8173,8167,8172,8275,1.521601676940918,False
91,8139,8189,8173,8194,8162,8150,8168,8128,8151,8165,8176,8159,8156,8262,1.5293784141540527,False
92,8150,8187,8177,8193,8138,8132,8145,8127,8143,8148,8171,8154,8165,8254,1.5385186672210691,False
93,8147,8186,8169,8196,8136,8128,8134,8130,8155,8164,8161,8159,8188,8266,1.5454599857330322,False
94,8152,8177,8181,8187,8165,8134,8181,8158,8170,8190,8164,8168,8181,8274,1.5524911880493164,False
95,8139,8170,8154,8179,8127,8135,8126,8156,8169,8189,8163,8164,8168,8275,1.5604362487792969,False
96,8152,8180,8178,8188,8153,8146,8169,8155,8157,8176,8152,8161,8158,8262,1.5684523582458496,False
97,8158,8172,8180,8184,8149,8143,8167,8144,8150,8175,8148,8153,8143,8236,1.5763237476348877,False
98,8137,8153,8141,8157,8133,8127,8147,8131,8141,8170,8152,8146,8141,8229,1.5845260620117188,False
99,8157,8165,8183,8160,8169,8137,8197,8144,8134,8169,8168,8175,8166,8262,1.5925214290618896,False
100,8179,8186,8200,8204,8153,8156,8140,8145,8163,8197,8182,8214,8203,8304,1.6004891395568848,False
101,8209,8205,8214,8239,8180,8166,8180,8160,8185,8209,8193,8239,8215,8323,1.6085360050201416,False
102,8239,8216,8235,8244,8176,8161,8185,8162,8175,8199,8199,8255,8222,8336,1.6154520511627195,False
103,8240,8211,8227,8246,8158,8159,8138,8149,8166,8191,8195,8259,8231,8345,1.6235742568969729,False
104,8249,8205,8243,8253,8205,8159,8191,8154,8162,8185,8190,8266,8225,8346,1.631371259689331,False
105,8249,8205,8227,8254,8193,8144,8146,8134,8152,8183,8204,8281,8235,8368,1.639598369598389,False
106,8267,8214,8239,8257,8198,8141,8165,8135,8138,8163,8220,8297,8253,8386,1.6475019454956057,False
107,8273,8207,8253,8255,8175,8146,8177,8140,8129,8146,8209,8298,8249,8375,1.6554107666015625,False
108,8237,8181,8205,8235,8140,8135,8126,8121,8125,8151,8189,8287,8241,8356,1.6636812686920166,False
109,8230,8175,8215,8215,8174,8127,8179,8130,8125,8157,8188,8288,8235,8339,1.6714224815368652,False
110,8225,8170,8206,8215,8137,8123,8144,8122,8127,8162,8190,8289,8234,8340,1.679410696029663,False
111,8236,8165,8189,8208,8135,8124,8155,8114,8111,8160,8187,8284,8235,8354,1.6864838600158691,False
112,8258,8168,8197,8186,8150,8124,8174,8115,8104,8157,8194,8281,8241,8360,1.6945886611938477,False
113,8227,8158,8162,8164,8132,8120,8127,8100,8109,8154,8181,8259,8241,8348,1.7024898529052734,False
114,8210,8137,8166,8147,8171,8128,8185,8103,8090,8146,8155,8233,8208,8322,1.710536241531372,False
115,8213,8128,8171,8141,8146,8139,8151,8102,8091,8151,8167,8220,8198,8309,1.7186412811279297,False
116,8211,8138,8166,8136,8150,8138,8150,8106,8105,8157,8187,8218,8210,8309,1.726684808731079,False
117,8220,8140,8181,8130,8176,8130,8183,8107,8098,8153,8170,8220,8214,8314,1.734461784362793,False
118,8219,8145,8164,8142,8147,8130,8132,8114,8117,8158,8165,8225,8236,8343,1.7424955368041992,False
119,8219,8152,8170,8140,8171,8134,8183,8152,8137,8161,8185,8227,8244,8364,1.7505557537078855,False
120,8193,8125,8145,8104,8150,8126,8155,8143,8121,8167,8175,8207,8221,8347,1.757451057434082,False
121,8181,8109,8128,8093,8139,8130,8144,8130,8113,8163,8156,8188,8196,8323,1.7656660079956057,False
122,8197,8120,8161,8105,8158,8146,8193,8149,8118,8148,8168,8199,8195,8323,1.773479461669922,False
123,8165,8105,8131,8086,8142,8140,8133,8125,8105,8149,8170,8194,8195,8319,1.7814295291900637,False
124,8165,8093,8145,8066,8182,8130,8172,8112,8076,8144,8159,8180,8176,8303,1.78961181640625,False
125,8192,8113,8170,8093,8159,8132,8168,8122,8084,8143,8177,8190,8181,8316,1.7974092960357666,False
126,8184,8133,8151,8127,8133,8135,8146,8142,8117,8159,8184,8210,8192,8328,1.8053317070007324,False
127,8181,8124,8174,8117,8153,8141,8183,8164,8123,8165,8170,8215,8185,8314,1.8135437965393064,False
238,8179,8110,8171,8110,8110,8147,8129,8153,8131,8171,8169,8202,8196,8317,1.8205671310424805,False
0,8179,8123,8169,8123,8137,8158,8182,8154,8142,8164,8173,8201,8197,8313,1.829619646072388,False
1,8169,8127,8163,8125,8149,8176,8190,8139,8144,8151,8174,8210,8181,8286,1.8365654945373533,False
2,8166,8122,8152,8121,8126,8184,8147,8116,8139,8161,8177,8206,8175,8285,1.8444678783416748,False
3,8191,8132,8182,8121,8150,8162,8191,8122,8130,8163,8167,8190,8166,8305,1.8526077270507808,False
4,8173,8126,8145,8108,8139,8142,8145,8111,8134,8143,8155,8171,8164,8299,1.860524654388428,False
5,8141,8102,8119,8075,8153,8166,8159,8125,8144,8130,8164,8164,8159,8269,1.868640422821045,False
6,8139,8089,8146,8065,8150,8179,8184,8153,8153,8137,8167,8168,8142,8261,1.8765676021575928,False
7,8132,8095,8135,8073,8169,8159,8144,8157,8164,8153,8155,8164,8144,8270,1.8833706378936768,False
8,8114,8099,8111,8066,8198,8160,8131,8151,8167,8168,8161,8161,8161,8258,1.89155912399292,False
9,8099,8096,8091,8066,8127,8163,8102,8140,8150,8165,8168,8165,8168,8252,1.89962100982666,False
10,8141,8114,8161,8082,8152,8148,8224,8163,8118,8134,8163,8179,8155,8261,1.9073505401611328,False
11,8181,8135,8221,8100,8175,8135,8239,8164,8117,8137,8169,8195,8159,8277,1.9155097007751465,False
12,8159,8132,8177,8117,8113,8139,8117,8138,8145,8172,8187,8202,8185,8291,1.9235916137695312,False
13,8180,8138,8195,8143,8135,8159,8176,8156,8152,8175,8192,8215,8199,8296,1.931468725204468,False
14,8204,8150,8205,8159,8129,8161,8153,8146,8147,8168,8190,8231,8207,8307,1.9405453205108645,False
15,8191,8155,8168,8160,8117,8147,8104,8124,8149,8174,8190,8236,8215,8323,1.946308135986328,False
16,8189,8152,8163,8151,8140,8146,8143,8141,8155,8177,8188,8228,8211,8328,1.9543406963348389,False
17,8187,8123,8159,8109,8146,8150,8181,8156,8161,8173,8171,8206,8186,8315,1.9624240398406985,False
18,8187,8090,8179,8058,8169,8147,8240,8163,8149,8154,8153,8189,8151,8289,1.970517873764038,False
19,8156,8089,8153,8066,8112,8127,8142,8137,8138,8143,8149,8176,8149,8275,1.978322505950928,False
20,8143,8122,8144,8113,8102,8132,8137,8138,8140,8148,8146,8165,8155,8272,1.9864487648010252,False
21,8168,8139,8183,8145,8137,8156,8198,8154,8144,8147,8137,8164,8140,8266,1.994588851928711,False
22,8153,8137,8153,8160,8115,8147,8121,8125,8144,8138,8128,8153,8124,8250,2.002600908279419,False
23,8145,8150,8165,8168,8150,8133,8160,8118,8128,8124,8127,8153,8108,8236,2.009366750717163,False
24,8145,8150,8173,8171,8132,8133,8147,8110,8127,8131,8136,8162,8114,8246,2.0174570083618164,False
25,8141,8146,8148,8184,8128,8134,8134,8111,8143,8145,8149,8163,8129,8261,2.0254504680633545,False
26,8172,8158,8179,8200,8155,8146,8189,8135,8149,8153,8167,8180,8139,8272,2.033533096313477,False
27,8184,8168,8178,8203,8116,8159,8135,8126,8153,8172,8177,8192,8163,8285,2.041607618331909,False
28,8195,8176,8186,8199,8146,8156,8175,8124,8135,8169,8161,8183,8157,8279,2.049586057662964,False
29,8189,8171,8177,8198,8132,8134,8162,8117,8117,8145,8145,8177,8130,8268,2.0574607849121094,False
30,8161,8156,8156,8190,8120,8129,8130,8118,8120,8127,8156,8176,8128,8260,2.065613269805908,False
31,8181,8163,8196,8188,8147,8141,8184,8136,8129,8132,8173,8193,8147,8270,2.072616577148437,False
32,8194,8176,8182,8196,8098,8138,8139,8133,8134,8150,8167,8203,8160,8297,2.080575466156006,False
33,8175,8174,8163,8182,8151,8143,8170,8145,8127,8146,8151,8191,8137,8289,2.088563203811645,False
34,8154,8159,8162,8165,8195,8162,8169,8151,8139,8147,8148,8182,8124,8268,2.096521377563477,False
35,8154,8153,8153,8167,8151,8170,8142,8148,8165,8163,8156,8191,8139,8274,2.104620218276977,False
36,8160,8147,8162,8155,8131,8164,8198,8152,8162,8167,8159,8185,8137,8267,2.1126043796539307,False
37,8109,8115,8118,8127,8102,8143,8142,8127,8145,8154,8148,8147,8118,8236,2.1216273307800293,False
38,8097,8111,8124,8133,8130,8130,8157,8124,8131,8134,8150,8140,8110,8230,2.12855076789856,False
39,8149,8150,8179,8174,8134,8133,8172,8135,8134,8144,8166,8173,8136,8260,2.1365389823913574,False
40,8163,8171,8170,8203,8112,8134,8136,8135,8147,8170,8167,8180,8157,8279,2.1435437202453613,False
41,8145,8158,8166,8193,8135,8133,8179,8145,8133,8148,8162,8159,8133,8250,2.151619672775269,False
42,8125,8142,8155,8172,8104,8130,8127,8122,8118,8126,8160,8149,8122,8228,2.159396886825561,False
43,8158,8160,8178,8183,8122,8142,8148,8118,8119,8141,8161,8171,8144,8250,2.16748595237732,False
44,8182,8172,8192,8202,8138,8154,8175,8122,8107,8139,8168,8182,8148,8263,2.17549729347229,False
45,8131,8152,8139,8179,8113,8140,8120,8090,8084,8099,8165,8147,8125,8229,2.18341326713562,False
46,8143,8152,8168,8158,8137,8132,8174,8093,8082,8083,8159,8143,8121,8221,2.191586971282959,False
47,8188,8173,8191,8188,8150,8143,8154,8111,8120,8137,8172,8188,8162,8272,2.199618339538574,False
48,8173,8168,8163,8196,8229,8161,8167,8126,8145,8174,8174,8193,8172,8287,2.2076609134674072,False
49,8145,8136,8162,8162,8238,8162,8191,8127,8141,8161,8159,8159,8138,8252,2.215585708618164,False
50,8133,8126,8157,8154,8141,8151,8127,8117,8151,8166,8158,8149,8133,8242,2.2226128578186035,False
51,8137,8137,8169,8157,8164,8151,8174,8133,8158,8168,8168,8163,8152,8252,2.230656385421753,False
52,8106,8122,8139,8133,8161,8141,8149,8128,8150,8162,8162,8152,8150,8247,2.2385826110839844,False
53,8090,8113,8132,8133,8142,8132,8146,8125,8145,8158,8151,8136,8125,8225,2.246575832366944,False
54,8133,8131,8183,8165,8172,8139,8194,8144,8152,8145,8162,8154,8127,8228,2.254585266113281,False
55,8143,8133,8158,8162,8140,8139,8138,8137,8156,8150,8169,8165,8145,8253,2.2625925540924072,False
56,8137,8134,8151,8150,8157,8143,8171,8135,8137,8153,8159,8158,8129,8251,2.270615339279175,False
57,8150,8159,8176,8173,8210,8148,8171,8124,8125,8139,8150,8149,8113,8234,2.277616024017334,False
58,8163,8170,8169,8187,8209,8148,8131,8115,8136,8131,8155,8148,8120,8241,2.285520315170288,False
59,8150,8147,8143,8179,8132,8148,8107,8114,8149,8149,8167,8158,8129,8252,2.2936110496521,False
60,8135,8140,8125,8185,8115,8153,8116,8113,8152,8160,8165,8168,8144,8250,2.301591634750366,False
61,8177,8167,8203,8188,8231,8162,8270,8147,8138,8130,8151,8168,8132,8234,2.3093903064727783,False
62,8179,8165,8219,8175,8191,8150,8221,8141,8131,8119,8153,8154,8108,8223,2.317521572113037,False
63,8129,8135,8139,8165,8102,8128,8091,8106,8137,8128,8155,8141,8106,8234,2.325612545013428,False
64,8133,8127,8141,8147,8152,8123,8169,8124,8129,8115,8143,8138,8097,8234,2.333571672439575,False
65,8146,8126,8163,8144,8148,8127,8185,8135,8119,8104,8142,8137,8094,8219,2.3406100273132324,False
66,8131,8124,8155,8154,8123,8136,8137,8131,8128,8121,8154,8148,8114,8219,2.34857439994812,False
67,8121,8124,8143,8139,8126,8136,8129,8136,8146,8141,8156,8156,8127,8237,2.3576154708862305,False
68,8133,8122,8151,8128,8152,8131,8168,8149,8154,8145,8156,8158,8131,8244,2.3645095825195312,False
69,8152,8127,8174,8153,8150,8124,8167,8148,8147,8151,8169,8170,8144,8252,2.3725991249084477,False
70,8132,8130,8140,8170,8103,8119,8091,8121,8143,8160,8171,8169,8152,8252,2.380568504333496,False
71,8131,8137,8164,8158,8188,8141,8229,8140,8122,8147,8163,8149,8125,8216,2.388424634933472,False
72,8128,8133,8192,8154,8201,8162,8243,8142,8104,8129,8157,8140,8101,8190,2.396561861038208,False
73,8099,8127,8143,8158,8128,8158,8100,8109,8120,8131,8156,8140,8117,8207,2.404590845108032,False
74,8125,8142,8169,8161,8180,8163,8192,8133,8130,8144,8168,8148,8134,8227,2.411362886428833,False
75,8132,8139,8164,8163,8160,8155,8170,8139,8126,8139,8158,8134,8121,8231,2.4195828437805176,False
76,8118,8130,8130,8161,8146,8137,8134,8133,8120,8112,8147,8120,8106,8228,2.427578926086426,False
77,8140,8132,8165,8156,8182,8142,8193,8157,8122,8122,8176,8142,8133,8242,2.436366558074951,False
78,8143,8119,8150,8130,8142,8157,8139,8168,8135,8161,8186,8149,8164,8264,2.443601131439209,False
79,8133,8095,8118,8090,8135,8165,8135,8172,8139,8161,8164,8128,8151,8254,2.4516143798828125,False
80,8108,8067,8108,8061,8145,8168,8158,8164,8136,8149,8176,8121,8154,8231,2.459579944610596,False
81,8096,8064,8130,8058,8166,8175,8196,8173,8137,8158,8194,8138,8179,8231,2.467582941055298,False
82,8120,8078,8137,8065,8139,8178,8142,8166,8146,8175,8177,8147,8184,8253,2.4745473861694336,False
83,8143,8090,8123,8065,8125,8173,8103,8140,8146,8175,8173,8141,8179,8271,2.4826128482818604,False
84,8185,8113,8209,8078,8225,8166,8259,8157,8124,8157,8193,8162,8183,8277,2.4905776977539062,False
85,8199,8133,8235,8110,8195,8146,8186,8143,8123,8175,8203,8194,8211,8296,2.49861478805542,False
86,8185,8145,8184,8132,8153,8131,8093,8116,8128,8204,8186,8196,8224,8302,2.506582498550415,False
87,8201,8150,8200,8135,8185,8140,8181,8132,8128,8198,8172,8192,8209,8294,2.514563798904419,False
88,8187,8130,8174,8123,8148,8152,8142,8151,8160,8195,8181,8193,8223,8306,2.522615432739258,False
89,8168,8107,8168,8104,8174,8165,8176,8189,8180,8193,8179,8186,8221,8301,2.5306239128112797,False
90,8152,8094,8168,8088,8168,8174,8182,8197,8172,8183,8155,8166,8182,8254,2.538410425186157,False
91,8125,8083,8136,8077,8157,8171,8154,8189,8185,8173,8157,8153,8167,8223,2.5456058979034424,False
92,8141,8083,8163,8080,8184,8166,8195,8189,8185,8160,8174,8160,8177,8237,2.5535905361175537,False
93,8152,8097,8160,8098,8153,8163,8145,8138,8145,8159,8164,8160,8179,8251,2.561407327651977,False
94,8153,8107,8156,8107,8166,8161,8154,8105,8106,8167,8152,8150,8162,8234,2.5696663856506348,False
95,8140,8086,8148,8100,8154,8145,8117,8101,8116,8170,8171,8141,8159,8225,2.5776171684265137,False
96,8133,8081,8142,8098,8155,8138,8131,8111,8129,8165,8182,8136,8165,8228,2.585597515106201,False
97,8163,8108,8183,8113,8195,8157,8226,8131,8118,8163,8171,8142,8157,8223,2.5936813354492188,True
98,8144,8113,8158,8135,8183,8164,8126,8123,8138,8201,8173,8148,8173,8232,2.601684808731079,True
99,8123,8104,8145,8139,8231,8160,8135,8139,8161,8225,8185,8156,8197,8243,2.608607053756714,True
100,8141,8104,8179,8128,8223,8153,8223,8162,8155,8191,8186,8160,8186,8230,2.6165578365325928,True
101,8111,8098,8136,8127,8123,8141,8131,8135,8158,8174,8177,8139,8162,8201,2.624481678009033,True
102,8078,8089,8103,8127,8141,8143,8101,8120,8154,8184,8170,8135,8151,8187,2.632344484329224,True
103,8093,8090,8131,8115,8162,8149,8167,8130,8142,8174,8164,8145,8150,8198,2.6404812335968018,True
104,8102,8082,8153,8100,8166,8150,8203,8143,8147,8156,8158,8134,8137,8198,2.648451566696167,True
105,8088,8051,8128,8088,8244,8146,8120,8129,8156,8161,8165,8125,8130,8188,2.6565263271331787,True
106,8099,8041,8131,8079,8314,8147,8146,8130,8140,8156,8166,8135,8133,8199,2.664529323577881,True
107,8140,8052,8209,8069,8253,8156,8281,8158,8116,8131,8159,8151,8123,8210,2.672616958618164,True
108,8116,8049,8170,8079,8128,8149,8137,8138,8132,8163,8167,8148,8141,8213,2.679577112197876,True
109,8108,8062,8133,8101,8236,8147,8119,8138,8157,8192,8188,8150,8164,8227,2.6874334812164307,True
110,8156,8076,8200,8105,8292,8157,8230,8155,8153,8168,8192,8166,8164,8250,2.6955862045288086,True
111,8163,8074,8187,8114,8142,8154,8141,8135,8155,8175,8184,8172,8186,8274,2.703587293624878,True
112,8184,8088,8192,8134,8156,8147,8165,8139,8162,8203,8186,8187,8204,8284,2.711479663848877,True
113,8187,8085,8190,8135,8164,8135,8144,8124,8153,8195,8194,8196,8201,8284,2.7195258140563965,True
114,8159,8070,8166,8127,8152,8123,8137,8119,8140,8170,8187,8182,8187,8272,2.727578401565552,True
115,8149,8068,8177,8126,8172,8127,8187,8139,8147,8176,8174,8163,8178,8262,2.735614061355591,True
116,8119,8057,8149,8121,8141,8133,8137,8137,8157,8186,8175,8160,8179,8253,2.742560863494873,True
117,8119,8051,8172,8121,8158,8128,8176,8142,8135,8158,8190,8177,8166,8231,2.750364303588867,True
118,8139,8063,8194,8146,8141,8121,8154,8121,8119,8136,8191,8189,8155,8236,2.7585768699646,True
119,8162,8083,8195,8176,8149,8131,8152,8109,8124,8140,8186,8198,8161,8264,2.7664427757263184,True
120,8184,8093,8223,8181,8173,8129,8189,8127,8125,8145,8203,8216,8184,8272,2.7745649814605717,True
121,8157,8089,8196,8181,8133,8108,8128,8113,8121,8156,8216,8220,8208,8267,2.7826101779937744,True
122,8155,8090,8194,8185,8167,8120,8180,8111,8115,8171,8209,8219,8210,8263,2.7904999256134038,True
123,8169,8089,8186,8163,8164,8137,8169,8114,8126,8169,8197,8211,8214,8268,2.7985587120056152,True
124,8157,8084,8148,8145,8141,8135,8128,8129,8150,8167,8191,8197,8218,8285,2.808385133743286,True
125,8171,8083,8168,8154,8182,8137,8192,8162,8159,8200,8199,8208,8230,8308,2.8133766651153564,True
126,8166,8077,8159,8140,8165,8137,8155,8143,8168,8236,8202,8206,8252,8304,2.821343421936035,True
127,8139,8082,8127,8132,8153,8143,8129,8120,8185,8236,8188,8171,8252,8283,2.8293240070343018,True
238,8136,8095,8115,8161,8165,8159,8131,8130,8200,8249,8183,8159,8242,8287,2.837375402450561,True
0,8158,8093,8143,8151,8218,8170,8198,8152,8201,8256,8180,8166,8233,8292,2.845647096633911,True
1,8158,8068,8177,8100,8211,8172,8247,8161,8187,8228,8166,8153,8211,8267,2.8535280227661133,True
2,8108,8037,8113,8074,8115,8164,8129,8137,8174,8218,8159,8120,8196,8242,2.861610412597656,True
3,8096,8023,8101,8065,8229,8163,8175,8146,8158,8195,8157,8106,8171,8226,2.86856460571289,True
4,8107,8024,8138,8075,8314,8168,8205,8161,8164,8174,8160,8118,8165,8218,2.87656307220459,True
5,8102,8033,8127,8098,8210,8168,8134,8160,8185,8204,8172,8138,8190,8234,2.884585380554199,True
6,8128,8020,8153,8092,8164,8164,8189,8173,8176,8216,8174,8148,8185,8250,2.8924577236175537,True
7,8112,7957,8132,8073,8143,8157,8146,8161,8170,8195,8157,8122,8160,8243,2.900550365447998,True
8,8089,7919,8124,8082,8178,8167,8165,8163,8177,8188,8153,8106,8158,8221,2.9085915088653564,True
9,8112,7937,8161,8108,8184,8175,8190,8160,8175,8210,8179,8128,8179,8229,2.91645622253418,True
10,8111,7924,8138,8112,8169,8161,8134,8134,8166,8210,8182,8139,8191,8249,2.924600601196289,True
11,8116,7863,8145,8099,8221,8159,8191,8146,8149,8183,8162,8135,8170,8236,2.931419849395752,True
12,8121,7826,8153,8111,8190,8168,8150,8154,8160,8201,8170,8144,8175,8244,2.939348697662353,True
13,8147,7856,8171,8143,8184,8169,8148,8170,8199,8239,8198,8174,8217,8285,2.9474899768829346,True
14,8175,7872,8190,8150,8196,8154,8177,8170,8217,8242,8203,8191,8237,8302,2.955394983291626,True
15,8148,7827,8145,8127,8163,8141,8123,8128,8201,8228,8178,8169,8227,8279,2.96333122253418,True
16,8144,7800,8161,8124,8190,8153,8178,8128,8182,8221,8167,8159,8213,8263,2.971477746963501,True
17,8146,7811,8170,8131,8173,8166,8157,8139,8184,8229,8175,8166,8212,8277,2.979412078857422,True
18,8133,7809,8152,8112,8174,8162,8154,8142,8177,8221,8166,8149,8192,8259,2.9876255989074707,True
19,8140,7792,8165,8090,8183,8148,8180,8150,8156,8192,8146,8127,8152,8219,2.9953532218933105,True
20,8124,7795,8141,8088,8143,8141,8123,8143,8145,8173,8145,8121,8135,8218,3.002408027648926,True
21,8113,7810,8156,8098,8170,8149,8185,8155,8144,8178,8155,8129,8143,8231,3.0103325843811035,True
22,8116,7811,8159,8105,8151,8151,8164,8150,8150,8190,8173,8137,8161,8232,3.018420934677124,True
23,8117,7821,8140,8105,8157,8152,8141,8146,8140,8188,8185,8150,8174,8235,3.0264806747436523,True
24,8123,7830,8164,8110,8201,8167,8191,8153,8130,8189,8177,8159,8178,8238,3.0343313217163086,True
25,8107,7828,8144,8128,8176,8178,8142,8133,8145,8202,8175,8143,8184,8229,3.042421340942383,True
26,8120,7849,8158,8144,8208,8184,8183,8139,8147,8200,8182,8146,8181,8220,3.0504541397094727,True
27,8149,7870,8181,8153,8200,8174,8162,8144,8149,8205,8180,8174,8186,8240,3.0585954189300537,True
28,8161,7885,8173,8172,8178,8158,8134,8149,8176,8219,8181,8182,8196,8267,3.0653493404388428,True
29,8165,7894,8183,8168,8207,8164,8195,8164,8182,8218,8180,8168,8198,8263,3.0735695362091064,True
30,8141,7869,8147,8142,8185,8163,8139,8150,8173,8210,8161,8152,8199,8256,3.0816001892089844,True
31,8155,7858,8158,8145,8218,8155,8166,8167,8174,8208,8171,8165,8199,8265,3.089388132095337,True
32,8168,7877,8179,8158,8220,8157,8167,8179,8177,8215,8198,8179,8207,8274,3.097381830215454,True
33,8148,7885,8146,8147,8201,8165,8132,8161,8174,8207,8186,8162,8210,8277,3.105541229248047,True
34,8158,7874,8158,8126,8243,8162,8185,8158,8156,8183,8166,8151,8190,8268,3.113626480102539,True
35,8147,7859,8144,8116,8215,8144,8134,8139,8138,8175,8159,8149,8168,8250,3.1215405464172363,True
36,8133,7859,8141,8113,8217,8149,8156,8133,8126,8165,8160,8150,8148,8232,3.1295313835144043,True
37,8133,7852,8150,8103,8221,8165,8174,8137,8131,8157,8165,8147,8148,8237,3.1366078853607178,True
38,8115,7843,8125,8096,8201,8161,8134,8140,8147,8161,8158,8140,8158,8246,3.144572496414185,True
39,8129,7862,8152,8109,8222,8169,8191,8164,8157,8165,8160,8157,8161,8255,3.152618885040283,True
40,8153,7882,8165,8145,8204,8189,8160,8183,8192,8198,8190,8193,8199,8300,3.160609722137451,True
41,8171,7897,8175,8168,8241,8199,8181,8223,8237,8233,8209,8210,8243,8339,3.168574333190918,True
42,8170,7903,8178,8154,8241,8197,8195,8235,8247,8224,8197,8196,8239,8314,3.1766152381896973,True
43,8139,7893,8135,8133,8191,8190,8142,8204,8230,8209,8180,8168,8209,8267,3.1845734119415283,True
44,8137,7890,8148,8126,8231,8182,8196,8214,8220,8215,8168,8158,8185,8252,3.192412614822388,True
45,8130,7892,8143,8117,8223,8157,8155,8207,8226,8222,8161,8158,8189,8256,3.1995396614074707,True
46,8110,7877,8120,8089,8230,8141,8147,8180,8203,8197,8162,8146,8182,8236,3.207550048828125,True
47,8099,7846,8132,8068,8251,8144,8171,8156,8154,8164,8158,8133,8157,8205,3.2153778076171875,True
48,8063,7831,8109,8061,8221,8137,8116,8131,8136,8158,8152,8123,8152,8193,3.2236077785491943,True
49,8068,7846,8135,8058,8246,8144,8182,8152,8145,8164,8159,8126,8148,8197,3.2316064834594727,True
50,8098,7860,8153,8069,8223,8163,8163,8159,8159,8170,8167,8140,8150,8220,3.239614486694336,True
51,8105,7875,8141,8086,8232,8170,8145,8161,8170,8166,8165,8150,8173,8231,3.247606039047241,True
52,8115,7894,8166,8099,8283,8171,8194,8175,8176,8166,8173,8156,8187,8226,3.2555840015411377,True
53,8113,7895,8155,8110,8245,8167,8147,8169,8181,8185,8181,8158,8185,8241,3.263676643371582,True
54,8144,7897,8175,8121,8268,8167,8181,8183,8176,8186,8170,8174,8186,8265,3.270336866378784,True
55,8177,7919,8193,8140,8322,8169,8161,8182,8180,8184,8174,8193,8213,8284,3.2785627841949463,True
56,8183,7952,8182,8165,8345,8177,8146,8179,8193,8203,8192,8199,8232,8297,3.2865777015686035,True
57,8196,7962,8199,8174,8295,8179,8193,8191,8190,8210,8182,8193,8219,8295,3.294561624526977,True
58,8175,7935,8159,8157,8206,8157,8131,8173,8175,8190,8158,8167,8205,8274,3.3025505542755127,True
59,8159,7912,8147,8131,8251,8150,8177,8174,8160,8171,8159,8159,8194,8265,3.3095593452453613,True
60,8149,7901,8157,8127,8246,8165,8178,8179,8170,8180,8170,8166,8185,8275,3.318411350250244,True
61,8124,7899,8140,8133,8211,8174,8143,8171,8181,8176,8157,8152,8174,8259,3.326596260070801,True
62,8134,7908,8160,8122,8247,8164,8189,8176,8173,8156,8152,8150,8171,8240,3.3346078395843506,True
63,8145,7907,8153,8108,8222,8151,8139,8178,8191,8193,8179,8169,8203,8270,3.3413705825805664,True
64,8154,7900,8161,8101,8238,8161,8173,8195,8215,8225,8186,8176,8218,8290,3.349592924118042,True
65,8131,7888,8145,8087,8215,8168,8165,8185,8214,8205,8163,8159,8196,8273,3.3576059341430664,True
66,8091,7880,8095,8082,8175,8161,8117,8174,8209,8197,8160,8144,8185,8270,3.3656890392303467,True
67,8112,7888,8127,8095,8204,8163,8168,8199,8216,8209,8176,8159,8193,8266,3.373570442199707,True
68,8128,7919,8139,8116,8189,8171,8141,8196,8224,8211,8177,8175,8208,8252,3.381606340408325,True
69,8138,7957,8162,8130,8236,8175,8211,8194,8211,8209,8174,8170,8202,8250,3.3896026611328125,True
70,8153,7965,8193,8133,8238,8163,8226,8179,8183,8208,8180,8160,8193,8261,3.39754319190979,False
71,8151,7961,8166,8144,8185,8144,8127,8139,8168,8196,8187,8169,8207,8277,3.4046013355255127,False
72,8174,7978,8191,8162,8228,8141,8171,8137,8158,8185,8188,8192,8219,8284,3.4126055240631104,False
73,8172,7987,8181,8169,8210,8140,8148,8127,8145,8198,8184,8185,8223,8279,3.420445680618286,False
74,8150,7987,8146,8158,8220,8142,8133,8123,8129,8200,8175,8169,8215,8280,3.4286129474639893,False
75,8163,7979,8163,8143,8269,8144,8169,8139,8133,8197,8177,8178,8208,8288,3.4366111755371094,False
76,8162,7960,8158,8133,8226,8143,8151,8147,8157,8202,8178,8174,8208,8282,3.444399118423462,False
77,8148,7953,8147,8128,8174,8158,8150,8170,8172,8197,8173,8160,8206,8271,3.4525997638702397,False
78,8126,7957,8111,8113,8148,8163,8102,8174,8178,8205,8162,8155,8203,8286,3.460603952407837,False
79,8135,7956,8132,8091,8220,8157,8201,8187,8170,8198,8154,8150,8185,8284,3.467451572418213,False
80,8160,7956,8185,8093,8228,8157,8262,8203,8164,8172,8166,8150,8174,8267,3.4756181240081787,False
81,8134,7960,8150,8110,8138,8149,8132,8178,8175,8181,8173,8155,8185,8272,3.4836268424987797,False
82,8138,7978,8160,8120,8164,8139,8168,8179,8174,8202,8172,8162,8191,8277,3.491621971130371,False
83,8163,7998,8179,8140,8170,8136,8172,8184,8181,8207,8179,8166,8210,8284,3.499605178833008,False
84,8169,8004,8171,8157,8169,8140,8148,8181,8192,8200,8178,8172,8218,8297,3.50766921043396,False
85,8185,8005,8192,8164,8191,8142,8180,8183,8175,8184,8176,8187,8207,8305,3.515571117401123,False
86,8186,8012,8172,8173,8159,8134,8118,8160,8159,8180,8180,8189,8218,8315,3.5235824584960938,False
87,8187,8024,8175,8171,8183,8129,8149,8153,8140,8178,8185,8185,8226,8309,3.530601501464844,False
88,8182,8017,8179,8160,8183,8126,8162,8147,8119,8173,8188,8190,8225,8302,3.5386013984680176,False
89,8186,8014,8165,8164,8176,8132,8139,8151,8132,8184,8185,8204,8237,8324,3.546354293823242,False
90,8188,8016,8153,8162,8178,8136,8126,8162,8155,8206,8178,8205,8241,8340,3.5546019077301025,False
91,8152,8007,8116,8136,8160,8137,8102,8157,8159,8200,8176,8183,8228,8310,3.562602996826172,False
92,8171,8017,8178,8127,8233,8148,8249,8191,8148,8174,8173,8183,8210,8281,3.570378065109253,False
93,8188,8026,8211,8139,8221,8139,8236,8197,8150,8177,8168,8191,8206,8286,3.5786001682281494,False
94,8138,8007,8136,8134,8162,8134,8118,8180,8165,8189,8170,8167,8201,8280,3.5866024494171143,False
95,8132,7995,8142,8115,8197,8152,8192,8194,8156,8169,8173,8148,8176,8251,3.59336519241333,False
96,8147,8002,8155,8117,8213,8154,8170,8186,8144,8160,8169,8155,8170,8249,3.6015448570251465,False
97,8138,8018,8123,8131,8248,8148,8114,8173,8155,8172,8169,8168,8194,8274,3.6095995903015137,False
98,8153,8028,8133,8131,8252,8158,8148,8173,8162,8174,8174,8170,8214,8295,3.617653608322144,False
99,8181,8036,8166,8141,8198,8148,8175,8162,8145,8176,8180,8171,8215,8301,3.625588417053223,False
100,8191,8042,8174,8162,8175,8131,8150,8147,8131,8183,8188,8188,8213,8305,3.63360047340393,False
101,8180,8043,8141,8169,8161,8127,8094,8131,8137,8183,8183,8198,8222,8319,3.6416287422180176,False
102,8214,8059,8194,8175,8234,8131,8223,8149,8128,8169,8181,8199,8219,8319,3.649572372436523,False
103,8224,8073,8224,8188,8210,8132,8201,8149,8126,8184,8192,8202,8225,8311,3.6565985679626474,False
104,8163,8066,8142,8185,8149,8131,8077,8137,8146,8209,8187,8189,8237,8306,3.664608001708984,False
105,8168,8057,8164,8158,8281,8138,8212,8175,8132,8185,8170,8183,8211,8292,3.6724019050598153,False
106,8184,8048,8181,8147,8286,8127,8176,8173,8116,8162,8160,8192,8192,8289,3.6806023120880127,False
107,8175,8050,8153,8157,8185,8113,8114,8156,8122,8154,8164,8191,8189,8292,3.6886391639709473,False
108,8180,8054,8176,8156,8172,8125,8193,8170,8129,8159,8164,8177,8182,8284,3.696343898773194,False
109,8150,8042,8146,8140,8174,8142,8142,8163,8146,8185,8155,8164,8191,8275,3.7045738697052,False
110,8136,8038,8119,8134,8182,8149,8132,8162,8165,8183,8159,8164,8197,8271,3.7125895023345943,False
111,8142,8049,8132,8151,8193,8154,8161,8159,8174,8181,8167,8168,8190,8268,3.720504999160767,False
112,8151,8062,8159,8165,8255,8171,8180,8162,8174,8208,8165,8169,8189,8268,3.727573871612549,False
113,8159,8068,8153,8165,8239,8171,8132,8151,8155,8218,8162,8168,8192,8274,3.7355430126190186,False
114,8158,8070,8127,8163,8193,8154,8129,8128,8123,8194,8157,8159,8187,8277,3.743643283843994,False
115,8187,8078,8193,8166,8257,8161,8268,8156,8113,8180,8156,8165,8180,8279,3.751505136489868,False
116,8180,8077,8185,8168,8213,8162,8167,8162,8139,8191,8164,8166,8192,8288,3.759626865386963,False
117,8147,8055,8123,8143,8191,8142,8112,8160,8141,8175,8158,8149,8183,8274,3.76758885383606,False
118,8146,8022,8152,8114,8253,8135,8220,8187,8121,8156,8144,8148,8156,8250,3.775585412979126,False
119,8120,8008,8125,8103,8209,8139,8128,8182,8137,8159,8140,8143,8144,8258,3.7835872173309326,False
120,8118,8035,8123,8102,8224,8156,8152,8185,8147,8140,8143,8140,8139,8260,3.7905890941619873,False
121,8151,8054,8179,8126,8253,8164,8208,8186,8142,8138,8172,8174,8165,8265,3.7984542846679688,False
122,8151,8051,8161,8149,8213,8150,8125,8167,8154,8181,8199,8201,8203,8292,3.8065884113311768,False
123,8143,8052,8127,8136,8185,8141,8100,8154,8153,8199,8180,8186,8191,8284,3.8146040439605713,False
124,8153,8067,8131,8136,8207,8149,8153,8149,8137,8188,8164,8174,8168,8261,3.822521209716797,False
125,8200,8093,8213,8169,8297,8167,8281,8176,8137,8189,8179,8206,8174,8276,3.830601692199707,False
126,8212,8105,8208,8192,8227,8169,8184,8171,8162,8214,8186,8232,8210,8308,3.838596820831299,False
127,8196,8107,8154,8195,8209,8172,8114,8157,8173,8223,8178,8230,8233,8320,3.846346616744995,False
238,8212,8097,8189,8174,8353,8178,8220,8172,8162,8202,8172,8218,8208,8310,3.85460901260376,False
0,8168,8075,8139,8145,8299,8162,8132,8150,8162,8199,8155,8174,8184,8286,3.8616108894348153,False
1,8138,8080,8119,8151,8222,8159,8158,8162,8157,8197,8150,8147,8179,8254,3.869484663009644,False
2,8153,8087,8160,8157,8220,8175,8221,8188,8166,8188,8163,8163,8176,8245,3.877603054046631,False
3,8116,8071,8122,8131,8203,8186,8145,8182,8205,8203,8163,8158,8181,8248,3.8855464458465576,False
4,8113,8072,8139,8140,8228,8192,8193,8201,8220,8218,8161,8148,8179,8246,3.893599987030029,False
5,8141,8080,8160,8168,8210,8185,8173,8188,8212,8221,8166,8160,8175,8252,3.901559829711914,False
6,8139,8066,8119,8142,8189,8178,8110,8149,8208,8218,8162,8161,8172,8253,3.909487724304199,False
7,8136,8060,8107,8113,8188,8171,8113,8137,8191,8206,8163,8152,8177,8255,3.917589664459229,False
8,8166,8082,8158,8135,8225,8157,8197,8152,8159,8185,8170,8164,8183,8271,3.924567461013794,False
9,8204,8096,8221,8157,8267,8161,8261,8169,8143,8183,8171,8193,8186,8292,3.932596683502197,False
10,8177,8093,8172,8161,8189,8164,8108,8146,8156,8203,8178,8202,8208,8310,3.940672397613525,False
11,8167,8109,8150,8169,8195,8158,8125,8148,8151,8182,8182,8193,8213,8304,3.948520421981812,False
12,8195,8117,8194,8171,8231,8158,8213,8161,8133,8156,8170,8186,8187,8284,3.95660138130188,False
13,8167,8100,8159,8164,8184,8161,8124,8144,8142,8175,8163,8184,8183,8276,3.9646384716033936,False
14,8156,8106,8166,8160,8218,8165,8171,8161,8147,8179,8171,8186,8187,8268,3.972343921661377,False
15,8167,8118,8183,8169,8209,8161,8166,8165,8143,8161,8170,8177,8177,8265,3.980483293533325,False
16,8169,8104,8164,8182,8193,8157,8136,8164,8150,8158,8159,8172,8163,8272,3.9886069297790527,False
17,8185,8094,8183,8178,8227,8158,8193,8184,8150,8164,8161,8182,8162,8270,3.995408773422241,False
18,8169,8098,8163,8164,8194,8154,8140,8176,8147,8166,8163,8171,8176,8263,4.003362417221069,False
19,8147,8097,8126,8163,8162,8152,8110,8170,8155,8168,8147,8156,8164,8257,4.011259317398071,False
20,8147,8077,8105,8156,8142,8142,8115,8168,8147,8155,8136,8158,8133,8253,4.019290447235107,False
21,8175,8072,8157,8140,8204,8141,8217,8188,8126,8137,8148,8164,8119,8250,4.027359008789063,False
22,8195,8083,8203,8152,8225,8158,8233,8201,8130,8150,8165,8168,8140,8261,4.035298824310303,False
23,8152,8071,8123,8162,8147,8171,8092,8169,8150,8159,8162,8162,8159,8268,4.043339014053345,False
24,8152,8073,8137,8147,8202,8181,8181,8179,8148,8143,8158,8170,8153,8263,4.0512659549713135,False
25,8182,8093,8195,8155,8204,8179,8192,8186,8157,8167,8176,8194,8179,8283,4.058434963226318,False
26,8183,8101,8168,8190,8164,8170,8117,8163,8153,8196,8188,8200,8205,8298,4.066370964050293,False
27,8191,8104,8181,8196,8219,8178,8193,8171,8132,8181,8181,8197,8181,8281,4.07431960105896,False
28,8170,8102,8163,8182,8189,8192,8156,8189,8161,8188,8167,8189,8175,8277,4.08233118057251,False
29,8161,8090,8152,8177,8187,8199,8175,8210,8180,8203,8163,8178,8178,8269,4.090322017669678,False
30,8158,8080,8155,8171,8212,8187,8175,8192,8156,8181,8166,8171,8167,8245,4.0984392166137695,False
31,8130,8081,8134,8165,8223,8169,8147,8166,8151,8160,8163,8164,8158,8239,4.10643458366394,False
32,8133,8070,8150,8147,8212,8166,8200,8170,8151,8159,8157,8158,8138,8241,4.1146559715271,False
33,8133,8051,8130,8121,8130,8160,8141,8154,8130,8149,8148,8144,8119,8234,4.121427297592163,False
34,8154,8079,8149,8137,8167,8160,8173,8163,8120,8125,8147,8148,8112,8236,4.12950873374939,False
35,8183,8116,8193,8193,8195,8164,8186,8172,8136,8132,8156,8165,8120,8256,4.1375792026519775,False
36,8174,8126,8174,8233,8168,8160,8124,8148,8149,8163,8160,8169,8137,8267,4.145591974258423,False
37,8190,8139,8193,8249,8197,8156,8170,8143,8134,8156,8161,8178,8144,8262,4.153551340103149,False
38,8200,8151,8188,8264,8171,8155,8137,8129,8128,8159,8162,8189,8156,8273,4.161594867706299,False
39,8211,8161,8188,8266,8192,8171,8157,8133,8135,8179,8159,8188,8173,8289,4.169640064239502,False
40,8229,8181,8208,8274,8207,8184,8173,8149,8143,8184,8169,8192,8182,8291,4.177311420440674,False
41,8215,8195,8183,8298,8179,8183,8121,8153,8161,8199,8181,8197,8187,8289,4.18552303314209,False
42,8220,8197,8208,8312,8223,8187,8185,8180,8181,8219,8179,8206,8196,8297,4.192425489425659,False
43,8225,8187,8198,8291,8207,8177,8154,8173,8186,8219,8168,8202,8212,8309,4.200509786605835,False
44,8215,8176,8162,8257,8204,8171,8155,8161,8166,8208,8158,8175,8191,8287,4.20860481262207,False
45,8205,8172,8167,8249,8210,8190,8193,8174,8151,8200,8161,8159,8167,8261,4.216662883758545,False
46,8180,8158,8144,8249,8175,8199,8148,8178,8161,8189,8161,8162,8176,8267,4.224339246749878,False
47,8166,8131,8142,8215,8201,8197,8201,8191,8164,8168,8142,8155,8160,8257,4.232675313949585,False
48,8134,8109,8117,8185,8171,8203,8171,8184,8174,8176,8125,8131,8132,8232,4.240602731704712,False
49,8128,8114,8118,8196,8174,8207,8162,8183,8192,8185,8134,8137,8141,8244,4.2483532428741455,False
50,8164,8131,8166,8212,8202,8195,8194,8190,8185,8172,8151,8165,8155,8270,4.255601406097412,False
51,8161,8129,8147,8206,8149,8179,8135,8166,8171,8167,8153,8162,8153,8267,4.263597965240479,False
52,8164,8135,8153,8197,8202,8180,8184,8164,8154,8164,8152,8155,8139,8251,4.271609306335449,False
53,8168,8147,8158,8202,8272,8185,8156,8153,8148,8155,8154,8157,8131,8250,4.2797324657440186,False
54,8164,8162,8158,8219,8276,8192,8132,8141,8156,8155,8152,8160,8135,8250,4.287661552429199,False
55,8188,8170,8190,8230,8222,8191,8188,8148,8156,8164,8157,8175,8153,8253,4.295726537704468,False
56,8176,8160,8158,8222,8149,8177,8136,8146,8166,8177,8177,8174,8173,8274,4.303646564483643,False
57,8175,8165,8166,8222,8189,8187,8178,8164,8174,8183,8185,8177,8177,8282,4.311503410339356,False
58,8197,8186,8196,8246,8182,8193,8172,8155,8170,8190,8180,8199,8187,8275,4.318671703338623,False
59,8199,8193,8183,8257,8161,8187,8147,8147,8169,8191,8178,8196,8189,8282,4.326601505279541,False
60,8211,8184,8199,8250,8184,8195,8202,8189,8185,8197,8177,8191,8192,8309,4.334595918655396,False
61,8211,8173,8177,8243,8142,8193,8144,8198,8206,8215,8166,8193,8206,8314,4.342610836029053,False
62,8202,8175,8163,8220,8160,8180,8171,8187,8191,8186,8151,8167,8170,8270,4.35054087638855,False
63,8180,8165,8164,8199,8158,8178,8178,8180,8173,8166,8151,8144,8143,8249,4.358715772628784,False
64,8164,8155,8150,8202,8139,8176,8137,8183,8191,8194,8160,8160,8168,8268,4.366666316986084,False
65,8179,8157,8176,8198,8172,8166,8190,8195,8187,8176,8157,8171,8162,8276,4.374358415603638,False
66,8155,8153,8157,8189,8139,8160,8147,8174,8162,8147,8157,8167,8152,8274,4.381595373153687,False
67,8147,8148,8165,8199,8151,8162,8170,8160,8139,8150,8178,8192,8172,8264,4.389593124389648,False
68,8183,8155,8206,8219,8152,8153,8183,8139,8114,8133,8191,8223,8170,8259,4.397615432739258,False
69,8201,8169,8199,8244,8110,8146,8127,8114,8098,8115,8198,8234,8169,8287,4.405625581741333,False
70,8232,8203,8234,8280,8144,8161,8186,8141,8105,8129,8219,8267,8206,8331,4.413587331771851,False
71,8262,8237,8260,8318,8143,8169,8178,8149,8121,8155,8222,8303,8245,8360,4.421393394470215,False
72,8275,8253,8246,8343,8131,8162,8140,8138,8128,8178,8212,8310,8255,8364,4.429510116577148,False
73,8268,8252,8202,8355,8115,8156,8084,8137,8152,8211,8227,8303,8287,8363,4.437400817871094,False
74,8258,8256,8182,8360,8163,8171,8137,8160,8184,8226,8227,8293,8317,8364,4.445560455322266,False
75,8293,8273,8261,8340,8255,8187,8309,8205,8173,8212,8193,8287,8278,8355,4.452586650848389,False
76,8274,8252,8222,8305,8149,8171,8163,8178,8159,8204,8163,8259,8242,8343,4.460591793060303,False
77,8217,8214,8133,8286,8096,8169,8085,8164,8167,8206,8150,8221,8233,8323,4.468613147735596,False
78,8195,8189,8156,8254,8173,8183,8240,8188,8152,8186,8139,8189,8193,8284,4.476401329040527,False
79,8136,8153,8115,8185,8127,8156,8162,8141,8123,8136,8123,8139,8137,8229,4.484405517578125,False
80,8099,8127,8058,8134,8079,8131,8070,8107,8116,8114,8117,8111,8111,8197,4.4925947189331055,False
81,8123,8122,8082,8131,8101,8145,8131,8146,8126,8147,8126,8122,8114,8215,4.500346899032593,False
82,8153,8115,8146,8128,8172,8156,8254,8196,8125,8151,8134,8142,8118,8250,4.508583545684815,False
83,8158,8099,8163,8110,8164,8150,8221,8194,8130,8134,8134,8159,8126,8267,4.515552759170532,False
84,8139,8105,8111,8108,8100,8154,8107,8181,8157,8162,8141,8160,8147,8280,4.523651599884033,False
85,8167,8129,8154,8121,8160,8173,8210,8213,8166,8182,8154,8162,8152,8283,4.531390428543091,False
86,8173,8132,8163,8141,8133,8161,8158,8187,8166,8181,8165,8177,8167,8287,4.539590835571289,False
87,8178,8147,8139,8164,8110,8141,8109,8151,8165,8189,8170,8196,8186,8312,4.547340631484985,False
88,8253,8193,8226,8199,8184,8159,8234,8175,8161,8195,8179,8220,8191,8345,4.555476903915405,False
89,8267,8213,8227,8233,8139,8172,8155,8162,8180,8209,8193,8235,8224,8373,4.563381671905518,False
90,8239,8207,8185,8235,8135,8163,8143,8149,8185,8215,8188,8220,8239,8370,4.571564197540283,False
91,8233,8201,8190,8214,8178,8145,8204,8166,8156,8202,8168,8181,8199,8330,4.579441070556641,False
92,8201,8190,8143,8196,8124,8128,8128,8182,8148,8194,8148,8148,8169,8289,4.586619853973389,False
93,8157,8170,8095,8171,8076,8128,8103,8208,8171,8188,8136,8128,8160,8258,4.594343423843384,False
94,8129,8140,8093,8127,8149,8143,8156,8224,8191,8180,8137,8102,8138,8227,4.602377891540527,False
95,8121,8112,8112,8099,8243,8159,8189,8221,8196,8167,8136,8098,8113,8208,4.61043643951416,False
96,8106,8095,8093,8103,8153,8158,8118,8192,8201,8171,8135,8111,8109,8206,4.618566274642944,False
97,8098,8091,8107,8089,8110,8148,8180,8179,8185,8158,8136,8102,8092,8181,4.626497507095337,False
98,8121,8094,8180,8065,8205,8151,8286,8188,8155,8115,8143,8103,8071,8155,4.634567975997925,False
99,8106,8089,8144,8082,8152,8154,8122,8167,8160,8129,8150,8121,8092,8187,4.642537832260132,False
100,8103,8101,8134,8114,8142,8158,8139,8177,8172,8172,8154,8145,8110,8233,4.64960527420044,False
101,8136,8132,8187,8144,8173,8163,8215,8191,8174,8190,8167,8171,8126,8255,4.657415866851807,False
102,8147,8158,8165,8181,8130,8158,8123,8167,8179,8191,8177,8171,8158,8274,4.665573596954346,False
103,8176,8179,8185,8199,8159,8154,8188,8172,8171,8176,8173,8164,8155,8277,4.673357963562012,False
104,8182,8192,8192,8213,8138,8151,8160,8167,8179,8180,8172,8179,8160,8286,4.681563854217529,False
105,8181,8206,8180,8250,8139,8164,8138,8172,8200,8201,8187,8196,8191,8297,4.689481258392334,False
106,8204,8218,8200,8268,8170,8184,8199,8195,8206,8224,8194,8196,8208,8293,4.697591543197632,False
107,8188,8217,8169,8256,8128,8186,8134,8198,8230,8252,8191,8194,8232,8302,4.705512046813965,False
108,8182,8218,8149,8248,8121,8185,8106,8207,8256,8269,8193,8204,8263,8322,4.71260142326355,False
109,8192,8204,8148,8233,8137,8179,8131,8196,8234,8262,8178,8198,8257,8322,4.7204270362854,False
110,8203,8183,8191,8201,8197,8167,8248,8187,8185,8237,8155,8179,8219,8290,4.7284932136535645,False
111,8195,8167,8205,8177,8161,8160,8211,8169,8174,8220,8163,8162,8207,8268,4.736604690551758,False
112,8147,8157,8121,8163,8074,8160,8068,8142,8196,8220,8159,8142,8206,8267,4.744662523269653,False
113,8151,8160,8142,8153,8151,8164,8196,8175,8199,8210,8134,8139,8165,8253,4.752507925033569,False
114,8169,8154,8184,8155,8154,8153,8214,8188,8203,8198,8137,8144,8145,8251,4.7605836391448975,False
115,8156,8149,8145,8168,8092,8151,8111,8162,8214,8200,8151,8143,8167,8263,4.767392158508301,False
116,8169,8161,8151,8172,8142,8162,8151,8165,8201,8195,8152,8142,8170,8264,4.775680541992188,False
117,8189,8161,8165,8158,8179,8160,8154,8178,8197,8176,8153,8143,8158,8279,4.783383131027222,False
118,8205,8153,8177,8149,8171,8160,8164,8187,8195,8170,8153,8148,8151,8289,4.791585206985474,False
119,8197,8149,8166,8159,8117,8166,8144,8174,8178,8180,8149,8153,8156,8278,4.7996156215667725,False
120,8192,8153,8162,8168,8116,8176,8164,8175,8179,8189,8153,8162,8175,8292,4.807589530944824,False
121,8204,8153,8171,8167,8103,8181,8159,8191,8213,8202,8164,8169,8190,8319,4.815542459487915,False
122,8176,8146,8124,8162,8067,8166,8092,8175,8233,8203,8158,8151,8183,8301,4.823589324951172,False
123,8180,8153,8169,8153,8176,8162,8247,8189,8198,8172,8149,8142,8151,8261,4.830363035202026,False
124,8189,8157,8203,8156,8147,8175,8228,8181,8168,8164,8156,8150,8143,8258,4.838453769683838,False
125,8150,8150,8130,8166,8061,8173,8090,8143,8165,8160,8148,8134,8138,8253,4.846526861190796,False
126,8136,8146,8150,8156,8157,8169,8205,8153,8145,8115,8133,8117,8105,8220,4.854362726211548,False
127,8120,8141,8163,8143,8151,8168,8184,8155,8136,8110,8139,8114,8095,8210,4.862486600875855,False
238,8112,8149,8133,8153,8080,8173,8114,8158,8145,8136,8143,8112,8096,8220,4.870594263076782,False
0,8141,8157,8136,8165,8098,8176,8145,8174,8154,8137,8133,8120,8096,8226,4.8783509731292725,False
1,8157,8154,8143,8163,8190,8170,8163,8181,8169,8143,8142,8127,8111,8236,4.886586904525757,False
2,8170,8157,8162,8160,8234,8178,8166,8187,8178,8157,8163,8133,8119,8247,4.894327878952026,False
3,8172,8164,8154,8163,8149,8186,8128,8169,8175,8165,8161,8140,8118,8251,4.90245532989502,False
4,8185,8159,8186,8157,8153,8186,8232,8172,8158,8152,8158,8154,8114,8246,4.909394025802612,False
5,8189,8134,8190,8136,8134,8182,8201,8160,8146,8152,8169,8161,8128,8260,4.917586803436279,False
6,8162,8121,8129,8129,8075,8184,8082,8134,8144,8163,8166,8154,8142,8279,4.92554235458374,False
7,8190,8154,8180,8154,8144,8191,8200,8165,8132,8146,8166,8165,8134,8282,4.933537721633911,False
8,8200,8170,8194,8172,8133,8174,8168,8170,8141,8148,8175,8170,8150,8291,4.941541910171509,False
9,8169,8149,8155,8161,8113,8162,8127,8167,8157,8165,8166,8167,8173,8300,4.949591159820557,False
10,8174,8146,8179,8153,8134,8164,8189,8196,8160,8162,8162,8174,8176,8301,4.957458019256592,False
11,8177,8157,8159,8166,8084,8157,8114,8200,8177,8171,8175,8177,8184,8305,4.965425491333008,False
12,8171,8155,8145,8167,8101,8162,8137,8210,8196,8187,8171,8180,8181,8296,4.9735918045043945,False
13,8153,8140,8152,8144,8129,8169,8194,8208,8192,8169,8155,8173,8157,8270,4.980561017990112,False
14,8132,8127,8140,8126,8108,8161,8172,8181,8163,8145,8148,8142,8135,8240,4.98848819732666,False
15,8130,8127,8120,8131,8078,8152,8117,8160,8147,8156,8145,8128,8128,8230,4.996532678604126,False
16,8145,8144,8130,8150,8114,8173,8156,8168,8149,8158,8144,8145,8133,8250,5.004369258880615,False
17,8186,8157,8215,8154,8209,8199,8286,8196,8141,8146,8158,8162,8139,8250,5.01256251335144,False
18,8163,8141,8189,8146,8134,8177,8155,8168,8143,8158,8163,8145,8140,8219,5.020538806915283,False
19,8120,8137,8124,8153,8096,8166,8099,8158,8157,8166,8148,8125,8126,8205,5.02836275100708,False
20,8142,8146,8168,8162,8176,8189,8215,8184,8152,8155,8143,8136,8119,8221,5.036535024642944,False
21,8142,8142,8160,8162,8147,8187,8135,8155,8146,8160,8155,8148,8143,8246,5.043562650680542,False
22,8153,8159,8165,8177,8154,8182,8157,8155,8151,8181,8165,8159,8156,8251,5.051337242126465,False
23,8175,8173,8191,8195,8147,8195,8192,8175,8156,8186,8164,8170,8159,8249,5.059528827667236,False
24,8151,8159,8153,8175,8097,8194,8127,8158,8157,8161,8159,8159,8152,8256,5.067423343658447,False
25,8130,8143,8128,8145,8100,8182,8132,8145,8155,8130,8153,8140,8130,8250,5.075576305389404,False
26,8137,8140,8128,8141,8121,8179,8158,8153,8164,8145,8150,8140,8126,8242,5.083513259887695,False
27,8170,8156,8189,8152,8183,8180,8254,8190,8165,8160,8158,8154,8125,8244,5.091595649719238,False
28,8150,8161,8176,8157,8128,8172,8172,8174,8156,8153,8161,8149,8127,8246,5.099542617797852,False
29,8115,8160,8130,8161,8109,8174,8121,8156,8154,8151,8153,8143,8134,8242,5.106447696685791,False
30,8150,8174,8189,8170,8186,8192,8223,8188,8152,8151,8154,8160,8131,8246,5.114270687103272,False
31,8138,8171,8162,8170,8101,8189,8133,8182,8166,8174,8172,8162,8153,8257,5.122464656829834,False
32,8115,8162,8132,8155,8128,8187,8159,8187,8180,8192,8180,8153,8177,8248,5.13036584854126,False
33,8142,8171,8172,8159,8285,8193,8210,8194,8187,8180,8172,8147,8161,8235,5.138285875320435,False
34,8135,8167,8151,8159,8285,8177,8135,8171,8184,8164,8152,8127,8126,8215,5.146489858627319,False
35,8118,8148,8147,8132,8176,8169,8182,8178,8168,8153,8136,8112,8112,8197,5.155295133590698,False
36,8103,8146,8134,8132,8087,8167,8148,8169,8167,8158,8140,8107,8124,8206,5.162356376647949,False
37,8106,8166,8120,8156,8119,8157,8113,8145,8161,8158,8159,8109,8127,8217,5.1703832149505615,False
38,8132,8172,8142,8160,8134,8157,8141,8144,8145,8151,8167,8124,8128,8231,5.177417516708374,False
39,8147,8158,8166,8158,8127,8164,8182,8159,8137,8143,8158,8135,8129,8243,5.185503244400024,False
40,8163,8159,8204,8159,8157,8161,8237,8171,8135,8132,8155,8139,8115,8235,5.193423271179199,False
41,8146,8162,8170,8160,8097,8155,8132,8158,8150,8140,8166,8143,8129,8243,5.201399087905884,False
42,8141,8168,8157,8174,8122,8173,8148,8176,8163,8150,8173,8156,8153,8274,5.209506273269653,False
43,8169,8168,8195,8181,8159,8182,8210,8197,8167,8164,8177,8174,8162,8290,5.217584609985352,False
44,8168,8166,8175,8173,8103,8182,8130,8180,8179,8184,8176,8174,8170,8285,5.225532531738281,False
45,8192,8191,8200,8189,8146,8189,8178,8182,8178,8176,8173,8171,8162,8277,5.233592987060547,False
46,8200,8199,8198,8208,8145,8177,8164,8164,8169,8171,8166,8170,8153,8277,5.240479946136475,False
47,8181,8184,8165,8200,8132,8170,8144,8149,8163,8165,8159,8166,8155,8274,5.248577833175659,False
48,8186,8177,8190,8185,8158,8176,8181,8144,8150,8152,8162,8164,8149,8259,5.256401300430298,False
49,8163,8174,8166,8176,8137,8168,8131,8112,8138,8158,8171,8152,8144,8253,5.264597415924072,False
50,8143,8162,8153,8168,8150,8160,8181,8113,8123,8139,8165,8143,8133,8251,5.272533416748047,False
51,8133,8149,8148,8165,8115,8148,8153,8111,8112,8121,8155,8135,8122,8244,5.280364751815796,False
52,8128,8151,8138,8160,8120,8137,8132,8125,8126,8143,8156,8135,8131,8245,5.288487911224365,False
53,8145,8149,8168,8154,8164,8150,8196,8173,8163,8171,8171,8160,8161,8261,5.296584129333496,False
54,8137,8141,8151,8161,8123,8158,8150,8190,8205,8186,8177,8168,8192,8282,5.304421424865723,False
55,8139,8147,8155,8162,8148,8156,8185,8200,8215,8194,8169,8156,8181,8282,5.31154990196228,False
56,8143,8143,8161,8145,8147,8156,8173,8190,8199,8193,8161,8152,8157,8269,5.319540739059448,False
57,8132,8134,8145,8141,8134,8155,8143,8183,8193,8182,8158,8151,8155,8259,5.3275792598724365,False
58,8153,8153,8177,8159,8175,8166,8198,8204,8203,8183,8166,8159,8163,8265,5.335500001907349,False
59,8162,8172,8163,8173,8152,8169,8146,8179,8205,8189,8166,8159,8173,8280,5.343587160110474,False
60,8172,8176,8172,8177,8174,8164,8170,8150,8169,8159,8161,8151,8167,8273,5.351591110229492,False
61,8176,8177,8189,8180,8177,8161,8172,8135,8142,8139,8163,8158,8160,8267,5.359595537185669,False
62,8164,8178,8164,8187,8149,8162,8139,8117,8137,8154,8159,8166,8163,8271,5.367511749267578,False
63,8186,8175,8190,8195,8161,8164,8190,8120,8119,8160,8167,8174,8171,8271,5.374582529067993,False
64,8179,8166,8171,8185,8118,8156,8129,8104,8111,8162,8187,8184,8194,8288,5.382374048233032,False
65,8172,8170,8161,8167,8141,8148,8156,8107,8118,8166,8185,8195,8196,8302,5.390569925308228,False
66,8196,8171,8187,8162,8150,8142,8183,8118,8121,8158,8162,8188,8176,8294,5.398537635803223,False
67,8183,8150,8162,8150,8113,8146,8138,8131,8129,8162,8156,8171,8175,8278,5.40635085105896,False
68,8159,8141,8163,8127,8147,8162,8197,8172,8156,8189,8166,8174,8177,8271,5.414515733718872,False
69,8141,8148,8150,8127,8144,8166,8165,8182,8191,8197,8169,8176,8182,8278,5.42258882522583,False
70,8157,8152,8157,8137,8155,8167,8177,8189,8194,8179,8167,8177,8187,8279,5.430420160293579,False
71,8172,8146,8174,8133,8140,8165,8199,8192,8183,8181,8163,8175,8187,8265,5.437669992446899,False
72,8154,8153,8147,8140,8102,8165,8127,8174,8202,8200,8158,8170,8195,8268,5.445360422134399,False
73,8179,8178,8184,8167,8158,8190,8184,8181,8208,8198,8157,8188,8197,8288,5.45357871055603,False
74,8199,8182,8202,8183,8160,8199,8190,8168,8188,8190,8165,8191,8191,8291,5.461508750915527,False
75,8173,8181,8151,8192,8157,8188,8107,8142,8195,8198,8185,8180,8209,8291,5.4696478843688965,False
76,8183,8206,8158,8221,8284,8198,8117,8154,8219,8217,8198,8207,8245,8318,5.477491855621338,False
77,8224,8223,8206,8239,8403,8205,8183,8168,8204,8220,8190,8238,8254,8334,5.485339164733887,False
78,8250,8223,8237,8238,8374,8187,8204,8154,8172,8193,8191,8245,8250,8331,5.493343591690064,False
79,8250,8241,8222,8274,8215,8172,8104,8131,8187,8206,8218,8275,8287,8360,5.501577854156494,False
80,8260,8255,8234,8312,8129,8170,8144,8150,8199,8221,8224,8309,8304,8387,5.50831937789917,False
81,8262,8227,8247,8291,8074,8144,8190,8156,8169,8188,8200,8296,8267,8361,5.516554832458496,False
82,8214,8196,8184,8243,8061,8126,8129,8130,8161,8165,8180,8251,8237,8315,5.524531841278076,False
83,8213,8204,8213,8225,8215,8164,8259,8175,8177,8164,8172,8234,8218,8283,5.532346248626709,False
84,8212,8199,8218,8225,8172,8175,8192,8188,8190,8169,8167,8227,8213,8279,5.540489435195923,False
85,8177,8176,8149,8206,8055,8148,8094,8151,8179,8151,8151,8206,8204,8276,5.548568487167358,False
86,8188,8165,8177,8172,8091,8152,8221,8164,8157,8131,8140,8200,8171,8261,5.556322574615479,False
87,8174,8165,8165,8168,8057,8156,8163,8166,8157,8148,8143,8189,8160,8265,5.564572095870972,False
88,8176,8181,8157,8185,8063,8146,8153,8174,8157,8159,8156,8185,8178,8283,5.571499347686768,False
89,8198,8183,8170,8181,8064,8140,8156,8167,8159,8153,8169,8199,8203,8304,5.579547166824341,False
90,8193,8168,8154,8163,8055,8141,8134,8140,8157,8156,8157,8189,8197,8300,5.587502717971802,False
91,8199,8167,8171,8152,8083,8141,8180,8129,8141,8157,8138,8164,8164,8274,5.5955774784088135,False
92,8191,8180,8154,8159,8055,8140,8127,8114,8157,8166,8146,8164,8177,8286,5.603506326675415,False
93,8213,8203,8179,8188,8110,8155,8176,8135,8180,8189,8172,8190,8210,8312,5.611452341079712,False
94,8229,8208,8188,8203,8123,8167,8170,8141,8179,8201,8175,8191,8214,8308,5.619555234909058,False
95,8199,8199,8137,8195,8080,8163,8116,8127,8173,8194,8158,8171,8200,8294,5.627550840377808,False
96,8189,8191,8156,8183,8100,8161,8192,8145,8160,8178,8145,8164,8179,8282,5.635371685028076,False
97,8182,8174,8159,8159,8070,8161,8154,8132,8145,8181,8145,8159,8173,8279,5.642580509185791,False
98,8183,8160,8154,8124,8076,8155,8157,8106,8128,8173,8147,8155,8164,8278,5.650576114654541,False
99,8183,8161,8159,8124,8073,8151,8166,8093,8122,8140,8148,8154,8153,8275,5.658391237258911,False
100,8161,8157,8130,8134,8047,8153,8126,8099,8145,8139,8149,8145,8158,8274,5.666527509689331,False
101,8165,8142,8152,8115,8084,8172,8189,8142,8170,8163,8144,8132,8152,8265,5.674581527709961,True
102,8153,8135,8148,8115,8060,8186,8152,8173,8194,8171,8142,8127,8143,8247,5.682358980178833,True
103,8141,8144,8142,8128,8068,8176,8159,8202,8206,8166,8156,8143,8146,8243,5.69058084487915,True
104,8158,8139,8163,8109,8092,8160,8187,8205,8203,8171,8167,8153,8154,8267,5.698546886444092,True
105,8160,8124,8143,8096,8082,8165,8140,8167,8186,8172,8159,8146,8160,8281,5.705580711364746,True
106,8165,8131,8161,8110,8106,8170,8189,8151,8157,8154,8156,8151,8147,8263,5.713485240936279,True
107,8147,8128,8145,8107,8060,8141,8141,8123,8139,8129,8158,8148,8129,8248,5.721552610397339,True
108,8139,8119,8131,8097,8060,8122,8134,8109,8123,8106,8151,8136,8118,8248,5.729488372802734,True
109,8182,8137,8175,8120,8089,8136,8179,8127,8114,8122,8163,8151,8130,8260,5.737325191497803,True
110,8192,8151,8165,8138,8060,8141,8131,8134,8138,8158,8175,8161,8157,8275,5.745423316955566,True
111,8192,8149,8171,8133,8092,8144,8183,8154,8153,8155,8167,8158,8155,8277,5.753399848937988,True
112,8179,8148,8163,8139,8073,8146,8159,8149,8151,8153,8161,8163,8150,8272,5.761382579803467,True
113,8157,8154,8138,8148,8074,8154,8155,8147,8158,8164,8157,8147,8150,8253,5.7694923877716064,True
114,8140,8140,8149,8127,8102,8166,8204,8164,8162,8144,8139,8116,8122,8216,5.776519060134888,True
115,8094,8097,8111,8095,8048,8158,8124,8152,8153,8126,8140,8111,8110,8198,5.784353733062744,True
116,8112,8095,8134,8094,8076,8160,8169,8167,8147,8142,8168,8141,8136,8214,5.792502641677856,True
117,8151,8124,8159,8110,8095,8179,8174,8182,8171,8167,8171,8147,8148,8243,5.800585031509399,True
118,8126,8123,8126,8107,8076,8185,8143,8186,8193,8161,8152,8131,8131,8243,5.808456182479858,True
119,8122,8115,8149,8097,8082,8175,8191,8186,8175,8152,8164,8155,8141,8229,5.81651759147644,True
120,8140,8132,8154,8113,8109,8163,8143,8155,8163,8171,8180,8171,8170,8245,5.82453989982605,True
121,8161,8143,8166,8132,8199,8168,8182,8153,8159,8164,8166,8156,8157,8265,5.8315346240997314,True
122,8160,8127,8170,8129,8139,8164,8175,8155,8152,8146,8163,8164,8154,8265,5.839500904083252,True
123,8151,8134,8158,8129,8049,8145,8131,8142,8159,8156,8181,8194,8182,8270,5.84750509262085,True
124,8194,8176,8207,8156,8094,8140,8178,8149,8158,8158,8180,8200,8192,8288,5.855481863021851,True
125,8218,8185,8197,8179,8078,8130,8134,8139,8140,8153,8160,8177,8192,8305,5.863308906555176,True
126,8194,8160,8167,8163,8076,8124,8171,8142,8129,8156,8155,8169,8178,8290,5.871415138244629,True
127,8147,8135,8157,8130,8074,8133,8172,8146,8143,8156,8170,8181,8182,8275,5.879437208175659,True
238,8135,8132,8148,8123,8061,8144,8136,8139,8149,8154,8174,8178,8201,8279,5.887330532073975,True
0,8174,8135,8171,8125,8097,8151,8210,8156,8132,8144,8162,8154,8176,8260,5.894462823867798,True
1,8151,8123,8136,8116,8068,8160,8167,8161,8143,8147,8156,8137,8159,8240,5.902289152145386,True
2,8112,8124,8131,8117,8079,8179,8176,8175,8170,8154,8161,8156,8171,8248,5.910385847091675,True
3,8100,8126,8156,8128,8093,8185,8190,8171,8178,8157,8172,8163,8170,8246,5.918416738510132,True
4,8088,8132,8133,8131,8084,8179,8150,8147,8179,8160,8173,8134,8152,8212,5.926363468170166,True
5,8125,8156,8160,8131,8117,8177,8199,8159,8179,8150,8164,8135,8135,8199,5.934256076812744,True
6,8140,8155,8155,8129,8074,8154,8140,8136,8164,8141,8163,8155,8144,8234,5.942481756210327,True
7,8135,8145,8147,8135,8093,8142,8146,8117,8139,8142,8173,8158,8160,8265,5.950402736663818,True
8,8153,8158,8177,8156,8129,8157,8181,8124,8139,8153,8177,8171,8168,8276,5.958421468734741,True
9,8145,8166,8158,8166,8092,8158,8128,8118,8145,8160,8180,8173,8171,8262,5.965504884719849,True
10,8153,8164,8174,8158,8132,8160,8181,8124,8129,8151,8195,8167,8175,8240,5.973400592803955,True
11,8173,8168,8174,8155,8144,8170,8155,8112,8136,8162,8200,8176,8190,8262,5.9814133644104,True
12,8192,8181,8172,8161,8166,8172,8158,8116,8164,8174,8180,8185,8202,8306,5.989547252655029,True
13,8210,8192,8198,8167,8172,8177,8191,8143,8183,8183,8177,8195,8217,8328,5.99728536605835,True
14,8189,8177,8162,8166,8126,8188,8131,8141,8195,8199,8189,8191,8223,8326,6.005366086959839,True
15,8172,8157,8159,8153,8201,8186,8185,8149,8192,8192,8179,8170,8188,8297,6.013455867767334,True
16,8159,8152,8156,8141,8214,8165,8162,8157,8188,8178,8169,8155,8170,8277,6.021299600601196,True
17,8151,8156,8147,8134,8162,8163,8148,8168,8191,8173,8173,8163,8185,8292,6.02842116355896,True
18,8159,8147,8175,8133,8153,8178,8196,8178,8195,8170,8171,8172,8181,8297,6.036306619644165,True
19,8137,8136,8150,8135,8144,8186,8137,8165,8213,8167,8164,8163,8172,8286,6.0444419384002686,True
20,8135,8142,8153,8132,8178,8195,8186,8177,8217,8157,8168,8171,8172,8275,6.052260637283325,True
21,8145,8141,8163,8138,8146,8199,8179,8178,8213,8176,8177,8183,8184,8278,6.060367822647095,True
22,8158,8149,8156,8159,8139,8207,8149,8173,8231,8207,8184,8188,8198,8295,6.068243026733398,True
23,8191,8168,8189,8167,8182,8222,8203,8181,8234,8207,8192,8205,8206,8315,6.07637882232666,True
24,8181,8172,8169,8174,8152,8212,8153,8151,8217,8199,8192,8203,8217,8323,6.084435224533081,True
25,8174,8181,8168,8190,8180,8194,8188,8140,8203,8183,8181,8184,8208,8302,6.092449188232422,True
26,8177,8191,8190,8195,8177,8190,8184,8145,8208,8174,8178,8180,8198,8291,6.099385023117065,True
27,8177,8190,8177,8191,8161,8202,8145,8145,8207,8191,8182,8193,8209,8306,6.107228755950928,True
28,8211,8201,8197,8206,8206,8199,8190,8143,8177,8192,8185,8205,8214,8319,6.115293025970459,True
29,8202,8207,8176,8229,8166,8168,8127,8112,8161,8174,8181,8197,8218,8324,6.123353719711304,True
30,8183,8202,8172,8223,8155,8167,8156,8116,8157,8170,8178,8188,8220,8312,6.131365060806274,True
31,8188,8203,8178,8203,8202,8186,8177,8127,8155,8188,8175,8190,8222,8303,6.139323949813843,True
32,8171,8202,8147,8201,8237,8178,8135,8120,8161,8184,8153,8177,8203,8302,6.147418022155762,True
33,8173,8199,8171,8186,8232,8175,8191,8145,8168,8151,8136,8152,8152,8284,6.155441045761108,True
34,8167,8188,8159,8161,8149,8178,8141,8142,8171,8144,8148,8138,8137,8267,6.162372589111328,True
35,8165,8186,8156,8174,8167,8175,8155,8138,8165,8157,8165,8164,8165,8273,6.171007871627808,True
36,8185,8193,8184,8190,8182,8183,8183,8150,8171,8174,8180,8198,8194,8295,6.178316116333008,True
37,8195,8199,8161,8174,8140,8188,8133,8146,8183,8184,8180,8195,8204,8316,6.18634295463562,True
38,8217,8203,8181,8176,8177,8178,8181,8148,8170,8172,8176,8190,8196,8324,6.194363355636597,True
39,8215,8202,8184,8195,8153,8173,8146,8138,8160,8182,8180,8207,8208,8332,6.202418327331543,True
40,8216,8210,8180,8191,8157,8188,8158,8151,8170,8197,8190,8222,8230,8343,6.210326910018921,True
41,8229,8209,8194,8186,8172,8194,8188,8161,8178,8184,8196,8219,8241,8347,6.2184343338012695,True
42,8209,8205,8166,8191,8138,8188,8133,8139,8177,8185,8187,8210,8242,8339,6.22629976272583,True
43,8216,8218,8186,8192,8179,8202,8190,8145,8172,8193,8176,8218,8233,8337,6.233477592468262,True
44,8211,8216,8173,8195,8150,8203,8162,8146,8175,8186,8162,8208,8216,8338,6.241495132446289,True
45,8182,8198,8145,8181,8131,8193,8160,8150,8176,8177,8156,8177,8190,8311,6.249642372131348,True
46,8192,8195,8176,8175,8154,8201,8201,8160,8177,8173,8170,8177,8181,8302,6.257540941238403,True
47,8204,8200,8164,8194,8140,8214,8147,8151,8190,8166,8176,8199,8194,8327,6.265502214431763,True
48,8208,8198,8168,8186,8171,8226,8202,8167,8198,8174,8170,8210,8201,8321,6.273580074310303,True
49,8193,8194,8161,8173,8163,8224,8176,8158,8215,8195,8177,8203,8216,8314,6.281578540802002,True
50,8185,8206,8146,8187,8231,8223,8153,8144,8215,8190,8181,8192,8226,8328,6.289324760437012,True
51,8188,8207,8164,8178,8305,8221,8200,8146,8174,8169,8166,8178,8205,8310,6.296569108963013,True
52,8158,8185,8138,8148,8204,8205,8135,8120,8155,8167,8168,8167,8189,8288,6.304575443267822,True
53,8180,8191,8167,8154,8170,8193,8169,8125,8159,8173,8181,8193,8203,8316,6.312314987182617,True
54,8223,8203,8195,8167,8166,8172,8155,8136,8160,8182,8183,8222,8222,8351,6.320611476898193,True
55,8224,8197,8174,8162,8150,8167,8127,8134,8173,8187,8177,8213,8222,8352,6.328551292419434,True
56,8230,8206,8199,8177,8182,8193,8190,8149,8193,8191,8181,8218,8227,8354,6.336667537689209,True
57,8210,8207,8177,8196,8146,8201,8142,8143,8198,8209,8182,8225,8246,8367,6.344560384750366,True
58,8206,8202,8171,8193,8167,8192,8170,8138,8182,8188,8178,8208,8222,8347,6.352641820907593,True
59,8219,8208,8192,8188,8258,8189,8170,8129,8171,8155,8165,8197,8189,8317,6.360552549362183,True
60,8202,8217,8175,8191,8355,8191,8142,8126,8169,8159,8157,8188,8188,8302,6.367507219314575,True
61,8201,8219,8183,8193,8396,8194,8202,8142,8161,8165,8166,8172,8188,8287,6.375425815582275,True
62,8190,8217,8160,8193,8338,8192,8147,8133,8173,8168,8164,8157,8185,8286,6.383547782897949,True
63,8181,8213,8159,8193,8367,8189,8168,8143,8181,8167,8159,8159,8176,8285,6.391412258148193,True
64,8178,8200,8172,8185,8378,8188,8183,8152,8169,8162,8170,8168,8172,8277,6.399530649185181,True
65,8167,8191,8147,8177,8345,8193,8137,8138,8163,8151,8173,8160,8179,8278,6.40760612487793,True
66,8184,8194,8173,8170,8358,8195,8193,8147,8158,8142,8166,8162,8172,8288,6.415579795837402,True
67,8181,8194,8170,8166,8312,8181,8153,8142,8167,8158,8177,8169,8177,8305,6.422635078430176,True
68,8172,8192,8162,8172,8335,8189,8168,8155,8179,8162,8187,8167,8182,8310,6.430646181106567,True
69,8179,8194,8176,8186,8348,8210,8187,8170,8183,8162,8180,8161,8176,8299,6.438319206237793,True
70,8173,8202,8157,8195,8300,8208,8136,8158,8210,8195,8178,8160,8196,8296,6.446567058563232,True
71,8181,8206,8183,8184,8331,8208,8194,8174,8229,8218,8191,8166,8216,8309,6.454491376876831,True
72,8178,8188,8178,8173,8296,8208,8154,8172,8235,8217,8192,8170,8221,8331,6.462451934814453,True
73,8197,8187,8177,8184,8287,8207,8156,8169,8240,8219,8185,8188,8229,8340,6.470544815063477,False
74,8237,8211,8211,8200,8298,8216,8194,8180,8244,8229,8189,8204,8247,8351,6.47856879234314,False
75,8220,8210,8175,8185,8195,8212,8142,8166,8236,8224,8178,8191,8243,8357,6.486575126647949,False
76,8208,8185,8167,8149,8131,8204,8194,8159,8211,8194,8159,8178,8208,8336,6.493475914001465,False
77,8199,8172,8158,8135,8104,8208,8164,8146,8196,8179,8157,8167,8204,8315,6.501581430435181,False
78,8187,8180,8148,8139,8133,8203,8149,8143,8175,8183,8157,8154,8204,8313,6.509582996368408,False
79,8196,8164,8173,8131,8145,8176,8181,8131,8146,8166,8148,8149,8175,8313,6.517543315887451,False
80,8176,8131,8141,8101,8102,8165,8123,8102,8141,8148,8152,8140,8172,8302,6.525542259216309,False
81,8170,8142,8147,8087,8143,8185,8177,8129,8153,8155,8165,8140,8180,8288,6.533572196960449,False
82,8166,8164,8162,8108,8125,8185,8157,8147,8167,8169,8164,8141,8167,8281,6.54149341583252,False
83,8146,8152,8139,8113,8104,8179,8136,8136,8166,8156,8150,8124,8145,8259,6.549564361572266,False
84,8141,8124,8146,8094,8124,8194,8198,8142,8159,8137,8147,8112,8137,8233,6.556608438491821,False
85,8133,8126,8140,8110,8088,8198,8148,8143,8167,8143,8162,8118,8140,8245,6.564331293106079,False
86,8167,8167,8185,8154,8119,8200,8182,8161,8176,8154,8183,8144,8147,8272,6.572572708129883,False
87,8194,8187,8201,8170,8119,8201,8175,8157,8186,8171,8190,8163,8179,8284,6.580590009689331,False
88,8176,8171,8167,8157,8112,8193,8157,8144,8185,8168,8176,8154,8189,8285,6.58838963508606,False
89,8183,8171,8182,8160,8133,8198,8197,8160,8175,8153,8167,8150,8179,8289,6.5965735912323,False
90,8176,8178,8151,8167,8093,8198,8107,8155,8193,8187,8169,8156,8206,8304,6.6045660972595215,False
91,8162,8166,8145,8140,8129,8194,8158,8172,8204,8204,8169,8149,8206,8300,6.612567663192749,False
92,8153,8143,8173,8108,8134,8187,8223,8189,8185,8168,8157,8137,8154,8273,6.619503498077393,False
93,8129,8132,8136,8117,8094,8173,8116,8157,8172,8148,8150,8128,8137,8261,6.627570390701294,False
94,8144,8142,8139,8136,8159,8171,8104,8146,8175,8162,8159,8138,8166,8273,6.635571241378784,False
95,8174,8150,8180,8129,8200,8184,8169,8156,8179,8167,8162,8149,8178,8283,6.643529176712036,False
96,8178,8158,8184,8126,8184,8195,8202,8164,8179,8154,8161,8149,8163,8280,6.651565790176392,False
97,8163,8161,8154,8129,8131,8180,8142,8155,8183,8154,8162,8141,8157,8276,6.659536838531494,False
98,8156,8149,8140,8130,8099,8163,8120,8149,8185,8159,8159,8136,8162,8278,6.667474031448364,False
99,8181,8152,8165,8147,8118,8178,8173,8160,8184,8149,8162,8150,8165,8293,6.6755690574646,False
100,8186,8170,8155,8170,8111,8197,8136,8157,8189,8153,8176,8161,8184,8320,6.6835691928863525,False
101,8199,8183,8203,8175,8180,8200,8240,8183,8186,8167,8182,8166,8199,8315,6.690478086471558,False
102,8220,8184,8246,8183,8180,8187,8257,8191,8186,8175,8182,8174,8204,8298,6.698574542999268,False
103,8209,8184,8181,8185,8103,8168,8110,8153,8192,8178,8178,8168,8209,8313,6.7065393924713135,False
104,8221,8192,8196,8169,8162,8164,8191,8148,8169,8157,8166,8163,8187,8313,6.714382886886597,False
105,8198,8187,8189,8164,8149,8154,8167,8128,8147,8145,8160,8155,8169,8289,6.72258186340332,False
106,8164,8181,8150,8161,8109,8145,8123,8126,8145,8156,8156,8144,8167,8276,6.730569124221802,False
107,8184,8180,8181,8157,8115,8147,8168,8143,8142,8149,8149,8146,8161,8288,6.738706588745117,False
108,8182,8172,8167,8175,8099,8152,8126,8130,8151,8135,8156,8152,8171,8302,6.7465338706970215,False
109,8173,8167,8171,8177,8142,8160,8180,8142,8157,8142,8168,8150,8181,8288,6.753511667251587,False
110,8150,8155,8158,8154,8114,8159,8151,8146,8164,8172,8165,8133,8183,8277,6.761643648147583,False
111,8138,8150,8146,8148,8107,8168,8150,8152,8180,8182,8160,8134,8180,8290,6.769500255584717,False
112,8169,8162,8179,8159,8131,8185,8198,8175,8191,8181,8171,8162,8192,8316,6.777559757232666,False
113,8166,8166,8157,8167,8100,8186,8139,8173,8207,8202,8182,8169,8218,8328,6.785577058792114,False
114,8171,8166,8173,8169,8144,8192,8197,8186,8214,8206,8180,8166,8220,8323,6.793460845947266,False
115,8177,8161,8174,8164,8131,8190,8165,8171,8206,8196,8179,8173,8217,8331,6.801639080047607,False
116,8167,8160,8149,8166,8115,8175,8127,8151,8193,8190,8177,8177,8212,8336,6.809531927108765,False
117,8195,8172,8194,8188,8157,8170,8206,8164,8187,8185,8176,8186,8208,8328,6.817347764968872,False
118,8216,8176,8195,8205,8133,8164,8156,8152,8201,8209,8188,8193,8231,8333,6.824548244476318,False
119,8222,8175,8192,8199,8163,8163,8169,8144,8197,8224,8190,8193,8242,8339,6.832542896270752,False
120,8214,8165,8191,8191,8156,8164,8171,8143,8181,8199,8173,8185,8230,8330,6.8402910232543945,False
121,8209,8153,8176,8196,8117,8165,8153,8153,8184,8183,8165,8185,8230,8328,6.848543167114258,False
122,8218,8145,8194,8186,8183,8181,8198,8173,8191,8201,8172,8188,8230,8329,6.856531143188477,False
123,8182,8135,8160,8179,8242,8194,8148,8152,8187,8207,8165,8169,8214,8313,6.864408016204834,False
124,8172,8137,8160,8186,8253,8192,8187,8150,8171,8171,8154,8166,8182,8291,6.872573375701904,False
125,8176,8129,8171,8180,8149,8181,8168,8154,8174,8156,8164,8139,8174,8287,6.880567789077759,False
126,8149,8116,8137,8159,8106,8178,8114,8147,8190,8175,8172,8028,8187,8289,6.887540578842163,False
127,8165,8123,8171,8160,8180,8170,8204,8161,8182,8174,8163,7956,8175,8285,6.895437955856323,False
238,8178,8120,8176,8166,8141,8148,8166,8150,8173,8165,8168,7988,8173,8290,6.903405666351318,False
0,8166,8115,8162,8159,8132,8148,8157,8149,8179,8175,8180,8017,8192,8293,6.911546230316162,False
1,8163,8118,8174,8158,8138,8158,8176,8152,8186,8200,8174,8013,8198,8292,6.919344663619995,False
2,8176,8131,8170,8174,8168,8160,8146,8144,8186,8204,8177,8038,8210,8313,6.927577018737793,False
3,8218,8153,8205,8188,8277,8169,8193,8159,8181,8187,8188,8072,8227,8323,6.935641050338745,False
4,8212,8156,8194,8192,8218,8162,8142,8140,8174,8193,8175,8064,8226,8311,6.94331693649292,False
5,8205,8159,8182,8203,8141,8148,8147,8129,8159,8195,8162,8063,8211,8308,6.951445579528809,False
6,8242,8170,8204,8217,8154,8155,8177,8154,8167,8194,8178,8081,8219,8334,6.958536148071289,False
7,8227,8155,8173,8199,8149,8161,8136,8167,8196,8205,8184,8067,8230,8335,6.966412305831909,False
8,8201,8134,8178,8174,8165,8155,8190,8174,8193,8198,8177,8054,8216,8303,6.974563121795654,False
9,8191,8139,8178,8187,8136,8142,8144,8161,8182,8193,8181,8069,8224,8309,6.982572078704834,False
10,8182,8145,8165,8200,8138,8142,8142,8165,8185,8207,8175,8069,8229,8324,6.990657567977905,False
11,8171,8127,8171,8176,8155,8151,8195,8174,8187,8194,8163,8048,8198,8290,6.998552322387695,False
12,8143,8112,8143,8154,8126,8155,8140,8152,8192,8176,8154,8041,8185,8258,7.00653886795044,False
13,8161,8116,8171,8160,8156,8156,8183,8154,8185,8180,8163,8062,8196,8275,7.014564037322998,False
14,8180,8122,8183,8178,8146,8159,8165,8149,8175,8193,8183,8074,8212,8303,7.021430730819702,False
15,8182,8135,8167,8190,8148,8177,8158,8155,8183,8189,8177,8076,8209,8306,7.0293519496917725,False
16,8201,8140,8191,8189,8172,8183,8194,8174,8185,8182,8166,8089,8197,8310,7.037249326705933,False
17,8191,8129,8170,8177,8113,8165,8122,8155,8176,8195,8172,8083,8206,8316,7.045328140258789,False
18,8183,8134,8175,8162,8139,8175,8172,8159,8174,8197,8173,8068,8207,8291,7.053261756896973,False
19,8172,8134,8173,8164,8199,8190,8168,8171,8185,8190,8173,8070,8195,8263,7.061225175857544,False
20,8155,8119,8148,8163,8214,8176,8141,8169,8191,8186,8178,8076,8189,8257,7.069331169128418,False
21,8173,8117,8173,8155,8166,8173,8199,8166,8184,8174,8176,8079,8183,8263,7.077276945114136,False
22,8169,8128,8162,8169,8089,8188,8150,8143,8181,8166,8173,8075,8178,8264,7.084293603897095,False
23,8175,8137,8178,8188,8146,8190,8177,8146,8179,8172,8177,8079,8174,8255,7.092292547225952,False
24,8187,8124,8190,8180,8142,8172,8164,8141,8167,8177,8170,8091,8174,8264,7.100317716598511,False
25,8167,8108,8157,8160,8096,8158,8131,8122,8140,8143,8156,8098,8165,8280,7.1084089279174805,False
26,8164,8110,8176,8154,8137,8157,8194,8131,8124,8121,8170,8102,8155,8273,7.116594552993774,False
27,8161,8116,8166,8169,8113,8157,8143,8132,8149,8163,8190,8103,8178,8271,7.124529123306274,False
28,8183,8116,8174,8183,8133,8174,8170,8159,8168,8182,8184,8112,8194,8290,7.132530689239502,False
29,8195,8092,8184,8175,8130,8188,8185,8175,8167,8165,8179,8110,8190,8299,7.140567302703857,False
30,8172,8068,8151,8171,8123,8186,8144,8156,8171,8169,8178,8093,8191,8286,7.147502183914185,False
31,8188,8074,8183,8188,8179,8189,8208,8169,8169,8173,8170,8097,8179,8278,7.155613660812378,False
32,8195,8077,8182,8196,8115,8188,8161,8169,8171,8174,8172,8107,8177,8290,7.163508892059326,False
33,8190,8071,8170,8188,8099,8182,8158,8158,8171,8181,8183,8102,8182,8285,7.171479940414429,False
34,8190,8058,8184,8179,8137,8169,8173,8148,8160,8175,8174,8099,8178,8264,7.179542303085327,False
35,8175,8039,8154,8166,8129,8153,8136,8139,8153,8154,8159,8093,8172,8266,7.187566757202148,False
36,8185,8034,8165,8152,8151,8159,8197,8148,8145,8138,8169,8093,8166,8276,7.195345163345337,False
37,8182,8046,8166,8160,8128,8173,8154,8139,8145,8154,8178,8100,8174,8278,7.203301906585693,False
38,8172,8056,8162,8164,8131,8179,8164,8163,8154,8166,8168,8100,8176,8270,7.211474657058716,False
39,8168,8039,8172,8141,8135,8175,8199,8195,8164,8154,8166,8100,8168,8268,7.2182769775390625,False
40,8157,8021,8150,8132,8126,8170,8142,8182,8180,8155,8172,8109,8171,8279,7.226552963256836,False
41,8187,8034,8185,8156,8163,8177,8192,8189,8188,8171,8175,8125,8178,8285,7.234352827072143,False
42,8197,8046,8193,8169,8138,8182,8163,8187,8203,8193,8178,8135,8193,8295,7.242298364639282,False
43,8177,8044,8177,8162,8188,8193,8163,8183,8218,8197,8173,8138,8194,8301,7.250433921813965,False
44,8182,8045,8195,8161,8235,8202,8200,8188,8206,8182,8170,8137,8184,8288,7.258311986923218,False
45,8173,8044,8170,8166,8135,8186,8134,8165,8194,8177,8177,8122,8183,8272,7.266294240951538,False
46,8186,8051,8185,8175,8116,8186,8188,8159,8187,8171,8179,8123,8178,8263,7.274373769760132,False
47,8202,8065,8194,8196,8126,8202,8170,8144,8183,8180,8180,8139,8192,8277,7.2813355922698975,False
48,8206,8071,8182,8206,8137,8189,8133,8122,8163,8186,8184,8152,8212,8307,7.289571523666382,False
49,8222,8074,8205,8206,8163,8163,8169,8116,8132,8174,8183,8160,8216,8317,7.297404289245605,False
50,8202,8075,8173,8203,8139,8160,8126,8113,8142,8184,8173,8149,8221,8313,7.305574417114258,False
51,8203,8083,8174,8194,8171,8172,8179,8150,8164,8191,8172,8139,8221,8309,7.313575506210327,False
52,8217,8071,8192,8192,8157,8173,8163,8172,8178,8191,8180,8139,8220,8316,7.321466207504272,False
53,8194,8051,8171,8184,8131,8180,8138,8175,8190,8204,8174,8136,8219,8317,7.3295674324035645,False
54,8177,8056,8177,8164,8151,8190,8203,8192,8194,8200,8168,8137,8212,8308,7.337568044662476,False
55,8173,8062,8157,8174,8129,8186,8148,8182,8194,8196,8173,8138,8224,8319,7.345372200012207,False
56,8197,8062,8175,8190,8176,8186,8179,8180,8182,8205,8173,8149,8227,8326,7.352538108825684,False
57,8191,8059,8182,8170,8166,8185,8184,8171,8173,8205,8173,8149,8210,8311,7.360572338104248,False
58,8172,8065,8154,8164,8154,8191,8154,8167,8182,8191,8174,8144,8206,8306,7.368590831756592,False
59,8218,8081,8200,8189,8242,8204,8206,8195,8203,8196,8174,8167,8213,8331,7.376551866531372,False
60,8231,8093,8199,8204,8209,8196,8145,8185,8220,8231,8172,8178,8222,8344,7.384544610977173,False
61,8211,8104,8191,8219,8169,8195,8168,8178,8212,8233,8189,8170,8230,8320,7.392575025558472,False
62,8206,8112,8203,8229,8169,8195,8185,8176,8201,8210,8203,8171,8235,8304,7.400541543960571,False
63,8195,8108,8171,8207,8172,8173,8134,8154,8189,8204,8178,8161,8225,8308,7.408561706542969,False
64,8199,8098,8174,8184,8194,8165,8180,8147,8161,8205,8155,8147,8198,8304,7.41656494140625,False
65,8189,8093,8161,8194,8164,8167,8139,8128,8158,8205,8169,8149,8202,8298,7.423433542251587,False
66,8186,8106,8166,8207,8187,8164,8157,8126,8160,8197,8179,8147,8210,8293,7.43163275718689,False
67,8192,8117,8182,8203,8192,8167,8180,8129,8139,8192,8161,8133,8197,8289,7.439558982849121,False
68,8175,8107,8141,8196,8156,8170,8135,8124,8137,8185,8153,8123,8189,8287,7.447307348251343,False
69,8176,8093,8154,8181,8169,8176,8196,8145,8153,8169,8162,8126,8174,8277,7.455382108688354,False
70,8166,8084,8156,8178,8119,8180,8161,8145,8163,8183,8158,8128,8174,8268,7.463496685028076,False
71,8162,8090,8157,8192,8117,8181,8162,8150,8158,8193,8158,8137,8181,8263,7.471290588378906,False
72,8175,8080,8175,8171,8124,8185,8190,8169,8159,8172,8160,8144,8175,8271,7.478563070297241,False
73,8155,8050,8144,8134,8077,8189,8140,8166,8180,8176,8156,8135,8174,8289,7.486566305160522,False
74,8167,8069,8177,8160,8119,8198,8196,8174,8198,8205,8167,8148,8191,8296,7.494631767272949,False
75,8197,8112,8207,8224,8130,8191,8159,8160,8193,8210,8170,8170,8206,8299,7.502560615539551,False
76,8205,8123,8194,8246,8124,8174,8141,8144,8170,8183,8155,8163,8184,8299,7.5105602741241455,False
77,8197,8121,8193,8245,8131,8170,8177,8149,8163,8173,8157,8150,8165,8292,7.518639802932739,False
78,8182,8142,8179,8265,8178,8181,8140,8151,8182,8188,8164,8150,8181,8289,7.526542186737059,False
79,8210,8163,8211,8285,8290,8194,8198,8180,8196,8206,8160,8168,8191,8297,7.533558368682861,False
80,8212,8141,8199,8270,8211,8187,8161,8179,8206,8224,8164,8174,8190,8308,7.541600704193115,False
81,8183,8117,8164,8232,8111,8173,8140,8165,8196,8191,8152,8152,8167,8293,7.549450397491455,False
82,8176,8112,8173,8211,8131,8163,8184,8173,8170,8148,8132,8130,8139,8261,7.557523965835571,False
83,8151,8103,8140,8217,8105,8163,8122,8165,8178,8170,8143,8125,8149,8252,7.565563678741455,False
84,8142,8098,8139,8218,8106,8181,8153,8174,8192,8185,8156,8132,8157,8252,7.573378562927246,False
85,8137,8094,8139,8201,8099,8189,8141,8177,8188,8166,8152,8120,8143,8243,7.581432104110718,False
86,8130,8090,8133,8185,8120,8204,8165,8189,8191,8158,8145,8098,8125,8219,7.588549375534058,False
87,8143,8088,8184,8178,8168,8221,8274,8213,8189,8147,8140,8098,8103,8195,7.596362590789795,False
88,8126,8081,8167,8173,8105,8199,8166,8181,8182,8140,8143,8102,8102,8197,7.604506731033325,False
89,8117,8088,8133,8174,8078,8180,8093,8155,8178,8150,8148,8106,8116,8217,7.612531661987305,False
90,8143,8105,8156,8187,8121,8197,8159,8155,8171,8140,8146,8119,8115,8231,7.620400428771973,False
91,8160,8123,8180,8201,8146,8209,8200,8144,8158,8124,8147,8127,8110,8236,7.628542184829712,False
92,8177,8138,8194,8215,8140,8199,8172,8127,8149,8135,8162,8137,8124,8244,7.636603832244873,False
93,8180,8142,8170,8232,8110,8190,8098,8112,8152,8146,8174,8153,8151,8271,7.644536733627319,False
94,8191,8149,8197,8238,8178,8193,8209,8146,8152,8140,8175,8162,8158,8289,7.652502059936523,False
95,8191,8149,8215,8235,8174,8188,8214,8168,8157,8157,8172,8152,8163,8287,7.660561084747314,False
96,8166,8138,8155,8230,8103,8167,8099,8153,8167,8173,8163,8143,8168,8287,7.668386697769165,False
97,8173,8128,8172,8215,8138,8167,8187,8175,8161,8150,8161,8148,8156,8283,7.675499677658081,False
98,8156,8111,8164,8197,8122,8171,8164,8172,8161,8146,8165,8141,8155,8273,7.683535099029541,False
99,8147,8105,8148,8191,8137,8164,8151,8168,8166,8147,8155,8136,8152,8262,7.691532373428345,False
100,8167,8107,8179,8194,8139,8167,8181,8182,8168,8137,8149,8150,8149,8261,7.699469566345215,False
101,8150,8108,8161,8194,8088,8175,8129,8175,8179,8160,8168,8157,8164,8280,7.707536220550537,False
102,8168,8129,8189,8207,8148,8176,8190,8178,8185,8170,8188,8163,8176,8281,7.715544939041138,False
103,8187,8136,8192,8226,8136,8165,8150,8158,8185,8159,8189,8169,8195,8278,7.723360300064087,False
104,8179,8124,8169,8219,8095,8163,8138,8148,8180,8154,8176,8165,8194,8288,7.731516361236572,False
105,8188,8123,8189,8211,8139,8166,8179,8146,8174,8160,8173,8168,8177,8300,7.739578247070312,False
106,8187,8124,8176,8220,8205,8168,8134,8130,8181,8179,8179,8174,8188,8305,7.746334552764893,False
107,8198,8128,8190,8224,8230,8174,8188,8139,8168,8176,8175,8175,8188,8299,7.754525184631348,False
108,8195,8130,8183,8219,8116,8152,8150,8121,8143,8156,8161,8165,8168,8288,7.762556314468384,False
109,8174,8116,8159,8204,8090,8131,8125,8119,8142,8143,8151,8143,8157,8268,7.770567178726196,False
110,8180,8096,8173,8180,8153,8136,8176,8147,8142,8145,8152,8135,8154,8254,7.778561115264893,False
111,8163,8094,8145,8170,8120,8139,8134,8146,8138,8145,8151,8137,8150,8256,7.786563634872436,False
112,8164,8106,8163,8181,8136,8155,8187,8165,8141,8130,8150,8141,8140,8255,7.794525384902954,False
113,8187,8104,8185,8196,8139,8172,8172,8180,8160,8152,8156,8150,8157,8273,7.802569389343262,False
114,8194,8108,8166,8195,8138,8165,8147,8176,8171,8174,8162,8158,8170,8294,7.809562921524048,False
115,8198,8117,8180,8180,8147,8157,8199,8181,8165,8154,8163,8155,8142,8286,7.817528486251831,False
116,8178,8102,8154,8175,8076,8156,8138,8173,8169,8145,8157,8135,8132,8266,7.825447797775267,False
117,8182,8096,8159,8179,8085,8155,8170,8169,8169,8159,8159,8142,8160,8263,7.833533525466919,False
118,8193,8113,8176,8192,8091,8150,8169,8159,8172,8169,8178,8168,8186,8288,7.841551303863525,False
119,8189,8129,8168,8211,8076,8149,8140,8158,8171,8167,8187,8177,8186,8309,7.849476099014282,False
120,8225,8154,8210,8225,8109,8161,8191,8172,8166,8169,8184,8193,8188,8310,7.857589244842529,False
121,8233,8183,8195,8239,8093,8161,8132,8152,8179,8193,8188,8203,8216,8319,7.865631341934204,False
122,8220,8199,8188,8250,8121,8152,8164,8150,8177,8208,8184,8196,8221,8322,7.872320413589477,False
123,8223,8196,8201,8247,8112,8146,8172,8147,8153,8190,8174,8196,8205,8310,7.880524158477783,False
124,8223,8186,8177,8233,8086,8151,8127,8135,8151,8180,8177,8207,8211,8315,7.888576030731201,False
125,8222,8168,8190,8213,8125,8165,8188,8154,8161,8187,8177,8202,8211,8318,7.896557092666626,False
126,8180,8140,8152,8184,8088,8170,8153,8153,8163,8181,8160,8172,8195,8300,7.904523849487305,False
127,8151,8124,8128,8155,8092,8173,8178,8166,8158,8153,8144,8154,8173,8277,7.912615299224853,False
238,8150,8110,8142,8134,8099,8176,8191,8183,8164,8146,8141,8148,8160,8262,7.920637607574463,False
0,8121,8095,8122,8123,8074,8180,8147,8179,8181,8161,8138,8133,8151,8252,7.928538084030151,False
1,8120,8104,8144,8134,8138,8195,8203,8198,8193,8162,8150,8140,8149,8243,7.935541391372681,False
2,8137,8124,8152,8161,8214,8206,8158,8201,8209,8181,8178,8160,8177,8256,7.943655967712402,False
3,8184,8155,8189,8185,8314,8210,8180,8204,8211,8189,8179,8179,8186,8284,7.951519966125488,False
4,8226,8177,8220,8205,8263,8190,8173,8190,8196,8160,8168,8202,8177,8318,7.95956826210022,False
5,8202,8172,8161,8207,8133,8161,8083,8151,8188,8142,8172,8197,8184,8328,7.9675562381744385,False
6,8203,8171,8178,8193,8201,8163,8192,8162,8178,8148,8175,8183,8178,8302,7.9754416942596436,False
7,8219,8171,8203,8203,8228,8168,8190,8169,8188,8169,8175,8197,8181,8301,7.983637094497681,False
8,8205,8169,8158,8223,8154,8158,8080,8157,8207,8188,8179,8209,8206,8319,7.991667747497559,False
9,8204,8180,8165,8226,8191,8162,8135,8172,8205,8200,8180,8198,8223,8311,7.999465227127075,False
10,8212,8193,8193,8235,8293,8169,8185,8176,8208,8213,8172,8195,8229,8301,8.006461143493652,False
11,8216,8198,8184,8253,8302,8168,8155,8153,8212,8203,8171,8214,8221,8318,8.014322280883789,False
12,8208,8190,8156,8246,8198,8154,8127,8138,8200,8187,8170,8214,8217,8338,8.02235221862793,False
13,8209,8168,8183,8209,8193,8145,8218,8168,8187,8181,8159,8192,8210,8322,8.030414581298828,False
14,8192,8145,8178,8173,8191,8152,8185,8182,8193,8176,8148,8172,8190,8295,8.038278579711914,False
15,8142,8134,8100,8157,8125,8160,8078,8166,8206,8164,8140,8151,8173,8282,8.046504497528076,True
16,8155,8136,8153,8151,8199,8170,8249,8199,8195,8144,8148,8144,8158,8266,8.054342269897461,True
17,8165,8124,8195,8147,8191,8171,8235,8205,8204,8152,8156,8147,8159,8266,8.062561750411987,True
18,8136,8118,8141,8153,8140,8160,8119,8189,8232,8167,8159,8154,8173,8284,8.069621324539185,True
19,8152,8130,8168,8159,8188,8154,8200,8195,8214,8153,8167,8164,8172,8282,8.077347993850708,True
20,8144,8127,8158,8152,8151,8152,8148,8154,8179,8140,8163,8148,8158,8271,8.085466623306274,True
21,8139,8139,8155,8155,8175,8161,8175,8147,8170,8145,8156,8144,8145,8269,8.093329191207886,True
22,8153,8153,8171,8171,8185,8166,8186,8170,8181,8152,8167,8174,8162,8280,8.101530075073242,True
23,8141,8149,8149,8175,8155,8165,8144,8167,8183,8146,8178,8176,8184,8284,8.109400987625122,True
24,8148,8151,8175,8175,8169,8162,8194,8165,8173,8150,8176,8168,8174,8283,8.117367506027222,True
25,8154,8172,8173,8203,8122,8155,8144,8151,8193,8186,8182,8182,8193,8299,8.125455617904663,True
26,8171,8201,8182,8232,8122,8170,8173,8169,8214,8214,8194,8199,8233,8305,8.133344650268555,True
27,8165,8192,8181,8217,8101,8166,8171,8175,8199,8204,8179,8180,8222,8284,8.140544176101685,True
28,8123,8166,8136,8186,8072,8134,8120,8162,8175,8178,8158,8152,8184,8261,8.148383378982544,True
29,8134,8167,8157,8172,8120,8140,8197,8182,8168,8160,8158,8154,8164,8255,8.156506299972534,True
30,8135,8162,8149,8154,8088,8156,8159,8179,8181,8165,8164,8148,8166,8258,8.164418458938599,True
31,8122,8145,8137,8142,8085,8155,8160,8184,8188,8166,8153,8127,8149,8240,8.172469139099121,True
32,8128,8130,8158,8143,8096,8155,8181,8188,8185,8153,8143,8126,8128,8220,8.18034052848816,True
33,8121,8132,8135,8136,8077,8149,8138,8165,8179,8134,8151,8133,8124,8224,8.188545227050781,True
34,8134,8151,8152,8135,8102,8142,8189,8167,8168,8118,8163,8133,8108,8218,8.196335315704346,True
35,8138,8163,8154,8155,8073,8151,8147,8162,8174,8133,8160,8136,8114,8209,8.203376054763794,True
36,8153,8173,8165,8172,8110,8168,8160,8167,8192,8154,8158,8157,8144,8239,8.211386919021606,True
37,8197,8194,8209,8191,8166,8173,8197,8184,8210,8176,8178,8190,8182,8293,8.219515562057495,True
38,8198,8212,8195,8220,8158,8176,8139,8179,8228,8206,8192,8202,8216,8322,8.227330207824707,True
39,8207,8229,8212,8228,8195,8183,8179,8178,8216,8200,8193,8204,8225,8322,8.235557794570923,True
40,8229,8245,8212,8231,8177,8169,8147,8163,8203,8198,8197,8211,8233,8336,8.243311643600464,True
41,8238,8255,8199,8245,8181,8160,8154,8173,8210,8215,8191,8214,8235,8348,8.251384735107422,True
42,8229,8244,8205,8226,8190,8165,8190,8195,8210,8200,8176,8211,8225,8342,8.259335041046143,True
43,8191,8220,8163,8196,8147,8150,8126,8179,8200,8169,8163,8187,8211,8321,8.26636552810669,True
44,8177,8208,8163,8186,8181,8136,8174,8174,8184,8155,8159,8167,8188,8293,8.27432894706726,True
45,8150,8196,8148,8171,8159,8145,8154,8166,8186,8169,8162,8160,8178,8276,8.282458305358887,True
46,8128,8187,8126,8146,8140,8161,8151,8167,8198,8167,8155,8152,8167,8265,8.290247201919556,True
47,8153,8180,8161,8149,8166,8168,8196,8180,8192,8149,8155,8157,8157,8273,8.298323392868042,True
48,8150,8175,8144,8161,8124,8164,8136,8166,8191,8152,8175,8155,8172,8288,8.306334972381592,True
49,8140,8182,8146,8154,8155,8175,8189,8172,8186,8153,8170,8144,8169,8264,8.314298629760742,True
50,8134,8188,8153,8156,8190,8194,8179,8165,8170,8137,8153,8141,8151,8230,8.322314739227295,True
51,8139,8190,8155,8166,8185,8203,8158,8156,8162,8119,8166,8154,8155,8234,8.33043885231018,True
52,8166,8199,8189,8166,8164,8203,8214,8179,8173,8130,8178,8173,8170,8255,8.33721137046814,True
53,8162,8205,8172,8176,8137,8204,8153,8174,8193,8164,8173,8174,8182,8258,8.345365524291992,True
54,8183,8221,8197,8202,8206,8221,8183,8178,8196,8175,8184,8188,8186,8252,8.353679656982422,True
55,8213,8245,8222,8217,8174,8215,8167,8178,8202,8184,8197,8218,8211,8289,8.361523628234863,True
56,8217,8255,8198,8225,8181,8192,8122,8168,8215,8209,8190,8229,8252,8352,8.369324922561646,True
57,8237,8257,8220,8237,8343,8193,8188,8179,8218,8228,8194,8232,8269,8369,8.377350807189941,True
58,8228,8252,8199,8233,8304,8185,8139,8163,8215,8230,8199,8226,8263,8348,8.38534688949585,True
59,8214,8248,8184,8212,8183,8172,8158,8160,8199,8199,8178,8211,8238,8326,8.39351749420166,True
60,8203,8232,8184,8184,8146,8173,8175,8161,8192,8182,8162,8194,8223,8312,8.401278734207153,True
61,8176,8209,8151,8166,8172,8173,8139,8151,8195,8192,8163,8177,8220,8304,8.408539772033691,True
62,8184,8218,8171,8172,8198,8175,8196,8169,8188,8172,8170,8181,8206,8302,8.416370153427124,True
63,8174,8226,8162,8178,8144,8182,8153,8169,8196,8163,8172,8183,8201,8305,8.424525737762451,True
64,8158,8215,8152,8164,8161,8186,8166,8174,8201,8170,8169,8169,8192,8293,8.432442903518677,True
65,8167,8203,8165,8158,8164,8174,8182,8177,8184,8145,8163,8162,8179,8264,8.440343379974365,True
66,8165,8204,8146,8168,8127,8161,8140,8175,8177,8119,8156,8167,8171,8248,8.44860315322876,True
67,8184,8214,8180,8166,8167,8169,8203,8196,8183,8127,8160,8188,8165,8276,8.456260681152344,True
68,8184,8211,8185,8163,8161,8169,8157,8174,8186,8140,8165,8197,8179,8314,8.463298082351685,True
69,8178,8213,8172,8167,8178,8161,8149,8158,8179,8124,8155,8182,8170,8293,8.471237897872925,True
70,8190,8220,8184,8168,8181,8164,8178,8171,8175,8112,8152,8162,8138,8261,8.479389667510986,True
71,8173,8219,8154,8171,8134,8173,8129,8157,8184,8109,8163,8164,8147,8274,8.487374067306519,True
72,8176,8224,8167,8170,8177,8172,8180,8149,8167,8096,8170,8182,8168,8280,8.495265483856201,True
73,8170,8232,8161,8180,8178,8155,8142,8140,8153,8102,8162,8175,8164,8272,8.50332522392273,True
74,8159,8234,8153,8187,8181,8158,8140,8152,8168,8122,8157,8167,8153,8271,8.51146388053894,True
75,8169,8215,8183,8171,8191,8170,8183,8163,8175,8124,8166,8169,8147,8252,8.519518613815308,True
76,8141,8188,8147,8155,8150,8162,8121,8143,8173,8119,8164,8143,8144,8220,8.5273597240448,True
77,8125,8185,8147,8145,8173,8156,8172,8153,8165,8118,8147,8127,8130,8208,8.534427404403687,True
78,8138,8192,8163,8143,8148,8152,8153,8161,8170,8126,8147,8154,8133,8240,8.54242467880249,True
79,8164,8204,8170,8156,8143,8153,8134,8167,8182,8129,8162,8188,8162,8281,8.550528526306152,True
80,8182,8211,8197,8156,8179,8158,8188,8184,8185,8129,8169,8191,8172,8282,8.558405637741089,True
81,8150,8194,8160,8138,8143,8146,8139,8168,8179,8133,8161,8163,8144,8257,8.566407918930054,True
82,8140,8194,8161,8148,8156,8141,8180,8167,8161,8104,8149,8151,8110,8241,8.574405670166016,True
83,8136,8198,8165,8159,8133,8145,8157,8161,8150,8079,8143,8153,8103,8227,8.582428693771362,True
84,8117,8191,8141,8134,8133,8142,8124,8147,8147,8090,8150,8139,8099,8200,8.590381383895874,True
85,8136,8208,8172,8143,8199,8142,8192,8149,8142,8090,8163,8140,8094,8194,8.598530769348145,True
86,8140,8230,8163,8187,8168,8146,8140,8132,8145,8079,8162,8153,8114,8214,8.605285882949829,True
87,8147,8240,8168,8189,8176,8151,8164,8137,8143,8075,8162,8165,8123,8217,8.613536357879639,True
88,8167,8249,8183,8167,8210,8147,8172,8139,8139,8076,8167,8174,8127,8230,8.621420621871948,True
89,8159,8244,8158,8160,8210,8143,8141,8129,8137,8070,8163,8172,8139,8260,8.629306077957153,True
90,8152,8216,8167,8142,8185,8144,8187,8132,8114,8066,8159,8164,8133,8260,8.637494087219238,True
91,8138,8203,8150,8124,8116,8138,8131,8118,8103,8073,8161,8162,8140,8261,8.645548105239868,True
92,8139,8215,8153,8127,8157,8146,8166,8132,8122,8081,8161,8167,8156,8270,8.653339862823486,True
93,8130,8203,8158,8130,8171,8166,8187,8156,8157,8108,8164,8158,8155,8256,8.661555290222168,True
94,8106,8191,8132,8124,8129,8174,8137,8164,8191,8138,8169,8148,8148,8236,8.668594598770142,True
95,8124,8215,8169,8130,8148,8171,8187,8172,8198,8136,8166,8156,8137,8223,8.676586627960205,True
96,8119,8226,8162,8149,8115,8164,8141,8151,8207,8147,8165,8156,8134,8202,8.684472560882568,True
97,8117,8223,8153,8158,8133,8168,8159,8152,8222,8157,8158,8153,8130,8183,8.692559957504272,True
98,8144,8231,8191,8164,8138,8159,8182,8158,8219,8137,8160,8163,8120,8190,8.70052719116211,True
99,8146,8244,8188,8183,8098,8146,8127,8147,8212,8134,8173,8171,8127,8204,8.70844030380249,True
100,8162,8258,8201,8197,8148,8164,8187,8171,8209,8142,8174,8181,8143,8208,8.716297388076782,True
101,8166,8257,8176,8186,8139,8169,8152,8168,8195,8132,8171,8187,8160,8238,8.72446346282959,True
102,8170,8252,8160,8163,8119,8146,8147,8150,8158,8098,8175,8189,8168,8287,8.73125147819519,True
103,8195,8258,8196,8154,8144,8138,8176,8149,8141,8087,8183,8209,8193,8335,8.739273071289062,True
104,8179,8262,8181,8163,8196,8148,8122,8147,8165,8128,8182,8214,8224,8353,8.747417211532593,True
105,8166,8255,8182,8172,8249,8151,8173,8166,8174,8143,8176,8192,8200,8315,8.755454301834106,True
106,8144,8234,8159,8155,8138,8131,8145,8155,8161,8127,8159,8162,8159,8266,8.763382196426392,True
107,8118,8225,8137,8132,8087,8131,8144,8143,8154,8134,8142,8133,8142,8237,8.77155876159668,True
108,8119,8228,8164,8135,8142,8159,8189,8170,8171,8157,8147,8123,8139,8220,8.779333591461182,True
109,8099,8224,8139,8135,8112,8164,8134,8173,8197,8163,8155,8129,8144,8209,8.78754734992981,True
110,8101,8228,8158,8129,8128,8158,8183,8176,8202,8160,8157,8151,8148,8207,8.794525623321533,True
111,8115,8238,8179,8142,8131,8153,8156,8170,8203,8158,8163,8174,8160,8231,8.802551746368408,True
112,8130,8250,8171,8165,8137,8145,8134,8168,8196,8144,8170,8187,8174,8271,8.810497760772705,True
113,8181,8264,8205,8181,8167,8152,8194,8186,8182,8140,8173,8207,8179,8302,8.818546295166016,True
114,8199,8277,8197,8193,8130,8168,8148,8187,8188,8152,8167,8214,8187,8314,8.826492071151733,True
115,8195,8289,8199,8197,8151,8180,8189,8199,8185,8130,8161,8205,8178,8298,8.834522008895874,True
116,8189,8279,8191,8193,8139,8179,8177,8186,8173,8112,8170,8186,8173,8278,8.842509269714355,True
117,8182,8263,8163,8192,8129,8181,8149,8173,8175,8114,8177,8177,8178,8271,8.850616931915283,False
118,8189,8257,8184,8182,8170,8184,8199,8179,8156,8087,8167,8187,8165,8269,8.858499526977539,False
119,8163,8246,8159,8169,8119,8160,8127,8139,8118,8072,8159,8183,8154,8270,8.865594148635864,False
120,8160,8250,8155,8164,8142,8146,8151,8125,8096,8078,8157,8171,8145,8254,8.873493432998657,False
121,8171,8260,8170,8171,8233,8155,8165,8154,8126,8095,8163,8176,8155,8252,8.88129448890686,False
122,8163,8254,8154,8183,8278,8158,8130,8186,8186,8136,8175,8185,8192,8287,8.890472173690796,False
123,8185,8252,8186,8181,8248,8158,8189,8209,8212,8183,8181,8196,8211,8310,8.89754319190979,False
124,8183,8256,8176,8179,8149,8157,8147,8192,8221,8205,8174,8203,8218,8311,8.905350923538208,False
125,8174,8256,8173,8178,8178,8157,8165,8196,8228,8194,8167,8201,8220,8309,8.913589000701904,False
126,8179,8246,8189,8168,8189,8151,8170,8199,8219,8186,8164,8190,8209,8297,8.921544313430786,False
127,8169,8238,8163,8167,8139,8148,8127,8175,8198,8181,8158,8171,8189,8265,8.928488969802856,False
238,8184,8254,8187,8187,8180,8164,8191,8178,8177,8160,8159,8176,8184,8258,8.936464786529541,False
0,8187,8270,8181,8197,8174,8171,8150,8173,8180,8147,8175,8191,8201,8299,8.944514036178589,False
1,8192,8279,8180,8195,8186,8173,8163,8173,8179,8142,8180,8202,8207,8334,8.952507019042969,False
2,8218,8282,8207,8207,8186,8173,8185,8176,8164,8143,8170,8214,8209,8343,8.963539838790894,False
3,8208,8273,8176,8206,8154,8168,8130,8173,8166,8143,8169,8206,8208,8342,8.96850299835205,False
4,8187,8253,8173,8182,8194,8175,8189,8195,8174,8130,8171,8188,8181,8319,8.976544857025146,False
5,8153,8225,8146,8158,8158,8169,8149,8186,8172,8119,8150,8164,8158,8285,8.984456062316895,False
6,8136,8216,8126,8135,8144,8156,8142,8175,8159,8116,8143,8146,8141,8261,8.991548538208008,False
7,8150,8224,8156,8127,8166,8158,8183,8183,8157,8127,8164,8153,8140,8265,8.99950885772705,False
8,8144,8223,8150,8144,8146,8169,8138,8169,8168,8135,8168,8164,8163,8286,9.007290124893188,False
9,8152,8221,8167,8153,8172,8161,8185,8164,8161,8119,8159,8163,8163,8279,9.015496015548706,False
10,8154,8223,8164,8146,8150,8135,8151,8146,8151,8125,8164,8158,8162,8268,9.023520946502686,False
11,8148,8227,8155,8147,8149,8136,8143,8141,8153,8143,8169,8168,8170,8276,9.031405925750732,False
12,8159,8222,8179,8147,8170,8156,8189,8151,8154,8139,8167,8174,8159,8272,9.039531707763672,False
13,8140,8212,8150,8148,8141,8150,8129,8139,8157,8131,8156,8151,8141,8248,9.04741144180298,False
14,8145,8223,8160,8157,8176,8151,8174,8153,8152,8131,8157,8146,8137,8240,9.054526805877686,False
15,8160,8233,8170,8164,8163,8161,8159,8154,8156,8140,8178,8167,8163,8264,9.062512636184692,False
16,8147,8225,8152,8157,8151,8160,8144,8145,8163,8127,8183,8170,8169,8270,9.070557832717896,False
17,8149,8220,8177,8154,8171,8166,8207,8164,8152,8100,8166,8155,8142,8250,9.078506469726562,False
18,8137,8222,8151,8161,8113,8167,8136,8152,8140,8111,8156,8142,8137,8247,9.086474418640137,False
19,8137,8226,8145,8151,8134,8154,8155,8152,8146,8131,8160,8149,8153,8258,9.09421730041504,False
20,8142,8214,8169,8133,8161,8146,8194,8167,8175,8135,8170,8161,8161,8265,9.102543115615845,False
21,8128,8204,8144,8142,8124,8157,8135,8167,8197,8151,8172,8155,8169,8265,9.110512733459473,False
22,8128,8218,8129,8169,8118,8163,8106,8165,8194,8167,8171,8157,8180,8272,9.11754584312439,False
23,8119,8220,8119,8160,8125,8147,8122,8163,8187,8154,8174,8162,8177,8275,9.12550973892212,False
24,8145,8214,8189,8131,8190,8145,8263,8189,8173,8123,8181,8167,8151,8261,9.133325338363647,False
25,8165,8217,8211,8134,8139,8139,8191,8167,8151,8122,8176,8172,8148,8264,9.14151120185852,False
26,8136,8217,8142,8149,8058,8129,8077,8127,8134,8128,8161,8169,8151,8274,9.150554895401,False
27,8144,8212,8168,8151,8100,8153,8212,8151,8127,8111,8157,8172,8131,8263,9.1572904586792,False
28,8148,8215,8183,8158,8083,8171,8188,8158,8150,8130,8174,8179,8144,8265,9.165544033050535,False
29,8148,8236,8172,8175,8098,8173,8164,8159,8172,8163,8184,8177,8175,8278,9.174618244171144,False
30,8168,8243,8179,8187,8109,8164,8178,8153,8159,8160,8174,8166,8175,8275,9.181315660476685,False
31,8168,8244,8159,8192,8096,8142,8130,8133,8149,8137,8166,8164,8161,8272,9.189532041549684,False
32,8167,8250,8175,8186,8146,8133,8175,8147,8152,8116,8175,8174,8158,8265,9.196552038192747,False
33,8140,8232,8148,8168,8111,8130,8133,8152,8152,8121,8169,8153,8157,8249,9.20457148551941,False
34,8124,8215,8137,8148,8106,8131,8160,8158,8135,8124,8149,8128,8130,8227,9.212420463562012,False
35,8121,8205,8155,8131,8094,8134,8175,8157,8126,8113,8162,8136,8117,8223,9.220624685287476,False
36,8091,8195,8121,8125,8055,8134,8115,8153,8142,8114,8175,8149,8135,8233,9.228514194488524,False
37,8100,8198,8152,8128,8118,8149,8207,8194,8157,8121,8169,8158,8145,8233,9.23650574684143,False
38,8119,8198,8175,8129,8107,8163,8185,8204,8174,8147,8182,8170,8163,8247,9.244549751281738,False
39,8128,8209,8162,8141,8091,8157,8136,8182,8171,8163,8191,8184,8184,8270,9.251500368118286,False
40,8154,8246,8195,8175,8139,8149,8188,8181,8151,8143,8178,8202,8175,8278,9.259291887283323,False
41,8149,8255,8183,8192,8107,8152,8136,8174,8161,8149,8178,8202,8177,8289,9.267544031143188,False
42,8143,8242,8156,8179,8079,8157,8115,8170,8170,8177,8193,8193,8193,8294,9.275612592697144,False
43,8156,8254,8165,8167,8095,8158,8154,8171,8157,8172,8194,8193,8189,8278,9.28344702720642,False
44,8155,8254,8168,8161,8109,8160,8172,8166,8153,8156,8185,8188,8184,8268,9.291516542434692,False
45,8143,8228,8144,8159,8085,8165,8127,8158,8166,8174,8181,8180,8196,8279,9.299510478973389,False
46,8143,8223,8137,8158,8100,8171,8142,8170,8177,8191,8184,8180,8203,8288,9.307286024093628,False
47,8177,8233,8212,8139,8179,8175,8292,8218,8171,8169,8189,8186,8181,8276,9.315617799758911,False
48,8154,8217,8186,8136,8096,8163,8166,8204,8186,8175,8189,8179,8180,8276,9.32251238822937,False
49,8116,8214,8122,8165,8075,8159,8085,8185,8211,8203,8182,8170,8197,8283,9.330580949783323,False
50,8152,8230,8186,8167,8178,8169,8237,8218,8210,8204,8180,8178,8196,8272,9.338460445404053,False
51,8140,8217,8171,8140,8118,8162,8153,8205,8205,8198,8176,8170,8194,8259,9.346433639526367,False
52,8125,8213,8153,8143,8105,8156,8135,8194,8197,8186,8162,8159,8177,8254,9.354315757751465,False
53,8163,8232,8190,8165,8127,8157,8186,8193,8192,8181,8168,8168,8172,8258,9.3623628616333,False
54,8163,8249,8145,8180,8079,8154,8097,8169,8204,8195,8185,8179,8194,8269,9.370246410369871,False
55,8156,8261,8132,8191,8109,8157,8104,8164,8195,8185,8178,8183,8186,8271,9.378342866897585,False
56,8173,8255,8173,8188,8162,8154,8175,8166,8173,8155,8166,8183,8181,8277,9.38527536392212,False
57,8210,8258,8214,8187,8168,8154,8228,8177,8170,8161,8188,8206,8209,8300,9.393301963806152,False
58,8209,8263,8187,8188,8121,8154,8128,8163,8174,8197,8199,8226,8235,8333,9.401218175888062,False
59,8194,8255,8168,8181,8193,8156,8128,8165,8178,8205,8181,8218,8240,8349,9.4093337059021,False
60,8227,8262,8239,8185,8272,8171,8267,8205,8193,8200,8186,8224,8251,8357,9.417529106140137,False
61,8214,8263,8202,8199,8129,8167,8149,8187,8217,8228,8198,8226,8267,8365,9.425342798233032,False
62,8186,8253,8153,8199,8105,8155,8135,8179,8212,8228,8185,8198,8233,8339,9.433226346969604,False
63,8187,8240,8175,8181,8161,8154,8203,8197,8196,8181,8168,8176,8193,8313,9.441315412521362,False
64,8171,8229,8154,8164,8111,8158,8138,8188,8202,8163,8163,8181,8201,8320,9.449201583862305,False
65,8182,8238,8175,8170,8132,8172,8188,8202,8208,8175,8163,8197,8204,8315,9.456228017807009,False
66,8176,8250,8165,8191,8116,8172,8143,8190,8208,8188,8160,8188,8191,8301,9.464303016662598,False
67,8155,8245,8146,8193,8112,8160,8147,8170,8199,8175,8153,8174,8180,8291,9.472253799438477,False
68,8154,8235,8166,8185,8125,8155,8193,8175,8199,8168,8162,8178,8177,8279,9.480195760726929,False
69,8148,8248,8142,8193,8112,8167,8138,8173,8206,8173,8174,8173,8174,8267,9.488311529159546,False
70,8173,8264,8160,8201,8160,8182,8191,8181,8185,8167,8166,8173,8160,8261,9.49622368812561,False
71,8173,8245,8160,8198,8133,8177,8162,8173,8183,8173,8169,8184,8180,8277,9.5044047832489,False
72,8165,8234,8164,8190,8121,8183,8161,8177,8200,8166,8184,8189,8212,8294,9.512447118759155,False
73,8190,8245,8197,8188,8131,8194,8194,8184,8185,8150,8180,8186,8203,8288,9.519537687301636,False
74,8174,8240,8155,8189,8099,8181,8131,8159,8176,8161,8160,8177,8182,8274,9.527543544769289,False
75,8171,8231,8159,8185,8150,8170,8177,8169,8186,8167,8155,8182,8178,8281,9.535316705703735,False
76,8190,8224,8179,8186,8144,8159,8152,8170,8186,8162,8173,8190,8186,8302,9.543506145477297,False
77,8193,8224,8168,8196,8138,8152,8146,8173,8178,8163,8177,8184,8180,8298,9.551542043685911,False
78,8198,8234,8182,8190,8170,8167,8193,8192,8177,8158,8167,8186,8171,8288,9.559351682662964,False
79,8173,8225,8157,8173,8124,8168,8123,8176,8183,8169,8166,8189,8178,8291,9.567548036575316,False
80,8164,8218,8166,8178,8138,8164,8171,8181,8187,8180,8171,8186,8170,8284,9.575538635253906,False
81,8180,8229,8174,8199,8148,8173,8175,8184,8197,8161,8167,8186,8156,8282,9.582554340362549,False
82,8183,8238,8149,8194,8159,8179,8144,8182,8202,8144,8152,8180,8152,8279,9.59048843383789,False
83,8167,8219,8160,8164,8187,8179,8194,8190,8195,8144,8151,8168,8140,8252,9.59825086593628,False
84,8128,8194,8142,8157,8153,8170,8148,8172,8193,8148,8168,8165,8146,8242,9.606308937072754,False
85,8143,8210,8164,8177,8192,8168,8181,8171,8182,8147,8181,8191,8170,8264,9.615419626235962,False
86,8166,8237,8180,8200,8193,8178,8171,8165,8175,8162,8180,8208,8181,8276,9.62237811088562,False
87,8153,8245,8155,8212,8171,8194,8134,8149,8174,8171,8172,8195,8176,8262,9.630499839782717,False
88,8174,8244,8191,8208,8214,8193,8195,8154,8160,8154,8178,8204,8184,8266,9.638424396514893,False
89,8184,8239,8178,8206,8189,8166,8141,8143,8147,8161,8182,8224,8210,8302,9.646559953689575,False
90,8186,8247,8163,8215,8195,8150,8156,8144,8133,8147,8172,8216,8194,8304,9.653542757034302,False
91,8187,8247,8173,8216,8185,8147,8171,8146,8120,8117,8159,8187,8158,8269,9.661423921585085,False
92,8159,8213,8143,8182,8153,8152,8143,8142,8114,8123,8153,8158,8150,8250,9.669509887695312,False
93,8162,8191,8157,8153,8162,8157,8204,8157,8101,8123,8152,8159,8141,8251,9.677539825439451,False
94,8162,8201,8154,8162,8107,8146,8146,8150,8105,8111,8153,8173,8137,8261,9.685338973999023,False
95,8157,8208,8149,8173,8115,8142,8154,8162,8118,8121,8152,8171,8134,8262,9.69355034828186,False
96,8148,8187,8154,8160,8132,8153,8186,8185,8131,8139,8151,8156,8119,8248,9.701534986495972,False
97,8128,8178,8135,8150,8105,8162,8141,8182,8140,8128,8152,8158,8117,8241,9.709553241729736,False
98,8157,8204,8178,8170,8145,8166,8190,8193,8132,8127,8164,8182,8130,8245,9.71645736694336,False
99,8180,8222,8186,8196,8140,8163,8153,8181,8138,8161,8180,8198,8156,8270,9.72453999519348,False
100,8187,8230,8181,8210,8150,8174,8165,8179,8158,8167,8184,8209,8176,8304,9.732542991638184,False
