COUNTER,F3, FC5,AF3,F7,T7,P7,O1,O2,P8,T8,F8,AF4,FC6,F4,Timestamp,hello_event
25,8140,8154,8155,8117,8159,8186,8165,8146,8177,8150,8148,8143,8141,8247,0.0062108039855957,False
26,8146,8152,8143,8111,8147,8182,8145,8156,8184,8178,8157,8151,8163,8269,0.0131032466888427,False
27,8185,8175,8183,8133,8182,8194,8195,8175,8185,8183,8169,8182,8186,8302,0.0211551189422607,False
28,8171,8163,8155,8129,8154,8197,8129,8148,8172,8155,8155,8165,8158,8289,0.0292351245880126,False
29,8159,8162,8144,8115,8180,8195,8161,8138,8149,8123,8151,8140,8116,8254,0.0372874736785888,False
30,8190,8187,8185,8131,8201,8196,8199,8153,8151,8135,8167,8163,8143,8265,0.0452265739440918,False
31,8192,8191,8171,8148,8150,8200,8119,8156,8175,8173,8166,8182,8196,8304,0.0532360076904296,False
32,8193,8200,8150,8171,8139,8214,8091,8161,8198,8189,8168,8186,8213,8319,0.0622806549072265,False
33,8230,8240,8172,8219,8187,8222,8153,8164,8218,8206,8186,8211,8238,8324,0.0694007873535156,False
34,8275,8262,8253,8234,8258,8229,8293,8184,8218,8233,8198,8238,8261,8334,0.0763971805572509,False
35,8247,8232,8237,8206,8186,8228,8198,8181,8224,8251,8195,8227,8260,8337,0.0841815471649169,False
36,8189,8213,8148,8197,8144,8218,8099,8162,8237,8246,8183,8196,8250,8316,0.0923483371734619,False
37,8185,8203,8174,8185,8218,8213,8219,8166,8216,8227,8170,8182,8233,8271,0.1003496646881103,False
38,8152,8165,8157,8150,8162,8200,8158,8148,8191,8208,8159,8167,8214,8246,0.1081221103668212,False
39,8123,8150,8129,8137,8158,8207,8153,8164,8189,8186,8157,8156,8190,8240,0.1163103580474853,False
40,8126,8154,8145,8131,8181,8219,8190,8183,8195,8187,8159,8158,8171,8223,0.1242094039916992,False
41,8111,8139,8122,8105,8141,8209,8130,8165,8201,8200,8159,8157,8170,8210,0.1320838928222656,False
42,8138,8131,8160,8091,8180,8198,8193,8177,8198,8188,8162,8169,8171,8227,0.1402845382690429,False
43,8152,8144,8161,8110,8162,8195,8153,8175,8205,8186,8165,8172,8188,8261,0.1471898555755615,False
44,8149,8162,8146,8126,8169,8201,8155,8176,8211,8198,8167,8159,8193,8266,0.1552236080169677,False
45,8163,8168,8171,8126,8181,8205,8187,8177,8202,8191,8164,8148,8163,8252,0.1631844043731689,False
46,8164,8169,8159,8142,8163,8196,8135,8153,8196,8175,8159,8147,8153,8257,0.1712455749511718,False
47,8202,8189,8196,8175,8232,8185,8187,8156,8191,8164,8164,8176,8176,8274,0.1800637245178222,False
48,8218,8208,8206,8195,8221,8177,8146,8142,8184,8167,8171,8195,8193,8283,0.1872122287750244,False
49,8203,8212,8185,8198,8180,8172,8139,8121,8163,8162,8160,8171,8172,8263,0.195209264755249,False
50,8223,8208,8203,8206,8167,8156,8176,8115,8134,8145,8155,8159,8158,8247,0.203223705291748,False
51,8234,8213,8192,8206,8153,8139,8122,8107,8129,8151,8169,8173,8177,8262,0.210155963897705,False
52,8232,8223,8202,8194,8202,8143,8176,8120,8120,8149,8168,8181,8170,8262,0.2181899547576904,False
53,8200,8205,8181,8195,8176,8145,8154,8113,8104,8137,8158,8170,8152,8243,0.226205825805664,False
54,8163,8184,8156,8184,8181,8150,8149,8122,8104,8139,8157,8163,8145,8229,0.2341017723083496,False
55,8160,8178,8180,8161,8216,8166,8198,8153,8125,8147,8163,8165,8138,8217,0.242276906967163,False
56,8140,8165,8149,8154,8162,8173,8136,8157,8163,8175,8171,8157,8149,8220,0.2502679824829101,False
57,8147,8168,8153,8156,8180,8198,8186,8184,8200,8203,8182,8169,8175,8240,0.2581808567047119,False
58,8168,8185,8163,8161,8185,8225,8179,8200,8239,8227,8190,8195,8219,8275,0.2662246227264404,False
59,8162,8195,8147,8176,8186,8233,8161,8197,8265,8246,8187,8199,8235,8288,0.2742166519165039,False
60,8163,8198,8173,8188,8207,8236,8213,8201,8262,8247,8182,8192,8209,8272,0.2810690402984619,False
61,8169,8189,8160,8182,8173,8222,8147,8185,8252,8235,8177,8184,8198,8273,0.2892951965332031,False
62,8199,8196,8174,8183,8200,8191,8177,8186,8232,8212,8170,8182,8202,8276,0.2971971035003662,False
63,8195,8199,8177,8186,8181,8171,8173,8180,8209,8198,8168,8169,8195,8258,0.305039644241333,False
64,8159,8188,8147,8175,8156,8175,8141,8165,8197,8174,8173,8153,8186,8242,0.3132965564727783,False
65,8181,8194,8185,8184,8201,8190,8193,8175,8190,8151,8177,8164,8183,8252,0.3212285041809082,False
66,8178,8191,8172,8201,8178,8188,8140,8166,8187,8156,8165,8164,8175,8250,0.3291983604431152,False
67,8146,8175,8154,8185,8181,8188,8174,8171,8185,8152,8154,8148,8151,8222,0.337306261062622,False
68,8142,8169,8172,8166,8180,8195,8180,8177,8191,8149,8169,8163,8153,8229,0.344252347946167,False
69,8162,8179,8170,8169,8166,8188,8125,8167,8197,8165,8179,8189,8182,8266,0.3523519039154053,False
70,8192,8183,8192,8170,8195,8176,8181,8174,8184,8177,8175,8197,8192,8281,0.360145092010498,False
71,8172,8166,8163,8162,8160,8165,8145,8161,8183,8181,8181,8193,8204,8283,0.369143009185791,False
72,8153,8152,8154,8158,8173,8169,8161,8164,8188,8186,8182,8193,8207,8281,0.3771686553955078,False
73,8161,8156,8173,8156,8176,8170,8174,8178,8197,8184,8169,8187,8195,8276,0.3842380046844482,False
74,8146,8164,8142,8152,8141,8159,8135,8171,8214,8177,8166,8171,8196,8276,0.3922276496887207,False
75,8156,8172,8157,8151,8182,8167,8203,8180,8215,8182,8173,8175,8207,8275,0.4001598358154297,False
76,8165,8178,8157,8159,8168,8179,8154,8177,8222,8212,8179,8183,8223,8280,0.4081645011901855,False
77,8159,8187,8152,8167,8166,8175,8158,8182,8227,8221,8178,8177,8217,8282,0.4152228832244873,False
78,8152,8181,8159,8160,8163,8160,8192,8180,8207,8203,8172,8169,8209,8275,0.4232897758483886,False
79,8139,8174,8136,8160,8141,8154,8134,8156,8190,8205,8167,8162,8217,8272,0.4310832023620605,False
80,8167,8187,8171,8167,8183,8162,8181,8149,8176,8189,8172,8166,8207,8264,0.4392652511596679,False
81,8173,8191,8174,8165,8158,8160,8149,8129,8168,8168,8164,8161,8197,8254,0.4471433162689209,False
82,8159,8189,8159,8165,8181,8158,8155,8139,8176,8179,8158,8147,8193,8249,0.4552245140075683,False
83,8166,8176,8177,8167,8206,8158,8190,8166,8169,8183,8162,8138,8171,8246,0.463289737701416,False
84,8149,8158,8141,8150,8136,8153,8123,8159,8165,8169,8158,8136,8160,8241,0.4712152481079101,False
85,8146,8166,8149,8132,8161,8151,8180,8180,8182,8162,8155,8144,8159,8228,0.4783318042755127,False
86,8136,8171,8159,8141,8170,8142,8160,8179,8196,8166,8163,8146,8163,8224,0.4861743450164795,False
87,8129,8171,8149,8160,8164,8137,8146,8165,8196,8159,8168,8144,8175,8230,0.4943625926971435,False
88,8150,8178,8172,8163,8178,8144,8201,8182,8198,8165,8175,8148,8177,8237,0.5022454261779785,False
89,8136,8171,8143,8152,8150,8142,8141,8178,8206,8173,8176,8144,8164,8239,0.5103397369384766,False
90,8135,8163,8158,8143,8179,8144,8179,8183,8201,8157,8170,8151,8161,8240,0.5181536674499512,False
91,8153,8162,8180,8154,8157,8144,8164,8174,8197,8163,8180,8165,8185,8256,0.5261783599853516,False
92,8163,8168,8157,8171,8133,8139,8138,8151,8193,8169,8186,8160,8193,8262,0.5343549251556396,False
93,8185,8183,8179,8164,8186,8147,8199,8159,8187,8151,8178,8154,8178,8255,0.5412847995758057,False
94,8178,8189,8174,8165,8172,8145,8143,8151,8192,8169,8183,8160,8195,8268,0.5492470264434814,False
95,8190,8190,8184,8191,8174,8146,8168,8149,8188,8185,8192,8176,8214,8282,0.5570435523986816,False
96,8209,8202,8192,8207,8165,8157,8168,8158,8192,8170,8186,8180,8212,8281,0.5651383399963379,False
97,8187,8213,8165,8198,8160,8156,8143,8169,8198,8171,8178,8161,8201,8267,0.5730724334716797,False
98,8183,8199,8184,8182,8177,8151,8204,8182,8188,8181,8179,8162,8186,8260,0.5812432765960693,False
99,8175,8167,8156,8167,8127,8144,8151,8170,8186,8177,8165,8160,8180,8263,0.5891408920288086,False
100,8156,8157,8139,8147,8157,8144,8174,8173,8173,8151,8147,8133,8158,8236,0.5972127914428711,False
101,8132,8156,8152,8130,8170,8140,8183,8169,8151,8133,8146,8122,8131,8205,0.6042027473449707,False
102,8116,8158,8132,8132,8140,8131,8144,8157,8152,8130,8154,8132,8135,8216,0.6121060848236084,False
103,8155,8172,8163,8150,8180,8135,8198,8173,8165,8145,8163,8144,8146,8237,0.620093822479248,False
104,8171,8169,8166,8161,8161,8149,8148,8170,8187,8169,8159,8152,8157,8250,0.6280949115753174,False
105,8176,8178,8171,8161,8170,8167,8170,8181,8204,8168,8159,8171,8183,8272,0.6361544132232666,False
106,8205,8200,8193,8157,8176,8162,8188,8182,8210,8176,8184,8185,8213,8293,0.6442954540252686,False
107,8199,8190,8168,8156,8152,8151,8128,8150,8209,8189,8188,8174,8208,8290,0.6520383358001709,False
108,8204,8190,8190,8179,8196,8157,8189,8148,8187,8170,8169,8175,8187,8284,0.6612534523010254,False
109,8218,8215,8193,8197,8184,8152,8152,8142,8175,8162,8173,8192,8210,8305,0.6673858165740967,False
110,8232,8233,8190,8195,8200,8153,8153,8150,8193,8188,8195,8206,8231,8319,0.6751651763916016,False
111,8233,8230,8205,8200,8209,8166,8188,8159,8207,8202,8195,8202,8217,8300,0.6841685771942139,False
112,8207,8223,8173,8216,8163,8164,8131,8149,8210,8191,8186,8189,8210,8284,0.6911768913269043,False
113,8212,8229,8187,8221,8200,8170,8184,8175,8216,8183,8178,8191,8206,8279,0.6990406513214111,False
114,8199,8221,8174,8205,8186,8175,8158,8184,8232,8197,8166,8177,8200,8274,0.7071850299835205,False
115,8177,8195,8145,8178,8194,8164,8151,8183,8231,8201,8158,8146,8184,8255,0.7151930332183838,False
116,8175,8160,8156,8143,8255,8161,8188,8192,8209,8171,8154,8137,8157,8243,0.7230744361877441,False
117,8153,8145,8125,8124,8260,8159,8136,8175,8202,8152,8150,8140,8150,8251,0.7312066555023193,False
118,8165,8167,8143,8130,8285,8157,8189,8177,8193,8155,8157,8140,8146,8249,0.7381548881530762,False
119,8175,8166,8155,8139,8254,8154,8161,8168,8183,8148,8165,8135,8140,8244,0.7461855411529541,False
120,8161,8144,8139,8129,8259,8157,8142,8149,8182,8130,8158,8137,8141,8249,0.7543108463287354,False
121,8187,8159,8172,8123,8292,8168,8195,8157,8185,8140,8163,8161,8159,8272,0.7622344493865967,False
122,8208,8186,8170,8151,8228,8169,8138,8156,8191,8171,8182,8178,8185,8297,0.7702715396881104,False
123,8215,8184,8181,8166,8226,8151,8177,8161,8194,8167,8182,8178,8187,8294,0.7781882286071777,False
124,8212,8182,8187,8164,8232,8128,8160,8149,8197,8164,8176,8180,8187,8292,0.7863836288452148,False
125,8222,8212,8183,8179,8233,8139,8131,8144,8198,8190,8183,8193,8203,8313,0.7941608428955078,False
126,8249,8223,8211,8199,8246,8160,8186,8164,8195,8201,8197,8214,8222,8322,0.8013629913330078,False
127,8228,8210,8183,8212,8227,8137,8127,8152,8199,8195,8206,8217,8238,8312,0.8093736171722412,False
238,8216,8221,8192,8223,8276,8124,8161,8153,8190,8175,8195,8210,8221,8287,0.8171241283416748,False
0,8209,8210,8192,8213,8256,8140,8173,8155,8181,8162,8168,8198,8191,8256,0.8252575397491455,False
1,8178,8179,8153,8194,8215,8143,8146,8154,8187,8172,8169,8186,8187,8244,0.8333396911621094,False
2,8195,8192,8197,8217,8250,8141,8200,8176,8185,8167,8196,8205,8205,8257,0.8411064147949219,False
3,8202,8204,8200,8241,8204,8134,8141,8164,8175,8159,8195,8222,8207,8268,0.850369930267334,False
4,8185,8183,8184,8206,8194,8125,8166,8157,8161,8156,8182,8216,8179,8250,0.8572080135345459,False
5,8191,8182,8202,8194,8199,8122,8184,8161,8157,8151,8196,8224,8191,8248,0.8652465343475342,False
6,8219,8210,8203,8241,8188,8124,8130,8160,8167,8151,8209,8247,8240,8285,0.8721938133239746,False
7,8258,8225,8226,8252,8243,8121,8182,8182,8168,8162,8200,8261,8244,8311,0.8803133964538574,False
8,8245,8216,8194,8223,8220,8114,8144,8179,8175,8173,8191,8253,8224,8312,0.8882255554199219,False
9,8230,8213,8180,8215,8204,8119,8160,8173,8169,8158,8186,8242,8221,8307,0.8966629505157471,False
10,8240,8202,8205,8209,8184,8111,8172,8170,8144,8149,8182,8233,8228,8312,0.904090404510498,False
11,8230,8187,8172,8195,8147,8095,8113,8161,8143,8154,8175,8223,8231,8313,0.9122037887573242,False
12,8238,8212,8180,8212,8222,8100,8182,8172,8151,8145,8167,8215,8219,8301,0.9202888011932372,False
13,8230,8241,8178,8230,8231,8106,8151,8146,8146,8153,8164,8200,8212,8297,0.9282453060150146,False
14,8225,8245,8170,8222,8208,8114,8142,8130,8139,8177,8168,8193,8214,8292,0.9352455139160156,False
15,8235,8236,8179,8212,8203,8133,8179,8150,8152,8193,8167,8187,8215,8273,0.943129062652588,False
16,8192,8223,8133,8200,8191,8139,8137,8162,8172,8196,8154,8150,8207,8253,0.9511454105377196,False
17,8159,8207,8131,8178,8224,8138,8190,8178,8161,8170,8155,8127,8179,8234,0.959186553955078,False
18,8147,8182,8124,8152,8180,8134,8152,8158,8146,8164,8163,8127,8166,8220,0.9671249389648438,False
19,8138,8166,8107,8131,8179,8125,8138,8138,8142,8167,8151,8116,8161,8213,0.9751965999603271,False
20,8146,8160,8136,8119,8219,8119,8183,8148,8137,8144,8144,8122,8152,8221,0.9830360412597656,False
21,8141,8160,8127,8125,8182,8122,8129,8147,8146,8147,8161,8139,8170,8239,0.9911205768585204,False
22,8158,8171,8150,8132,8201,8127,8181,8163,8164,8179,8176,8145,8193,8252,0.9983243942260742,False
23,8161,8171,8160,8135,8195,8133,8168,8166,8182,8201,8170,8147,8201,8267,1.0062291622161863,False
24,8152,8171,8148,8150,8193,8151,8154,8175,8191,8204,8161,8154,8196,8266,1.0142345428466797,False
25,8182,8190,8184,8165,8213,8168,8207,8208,8202,8213,8169,8171,8201,8260,1.0221519470214844,False
26,8182,8202,8169,8167,8179,8162,8148,8213,8227,8221,8184,8181,8238,8284,1.030102252960205,False
27,8173,8198,8165,8165,8213,8167,8192,8209,8216,8205,8182,8176,8225,8288,1.0383429527282717,False
28,8173,8176,8166,8151,8204,8166,8189,8170,8167,8167,8161,8157,8171,8255,1.0461745262145996,False
29,8167,8158,8144,8130,8184,8152,8152,8142,8145,8139,8154,8150,8161,8237,1.0542337894439695,False
30,8172,8164,8167,8124,8215,8148,8202,8162,8150,8149,8170,8154,8169,8241,1.0622937679290771,False
31,8150,8169,8147,8134,8172,8144,8144,8148,8149,8165,8166,8136,8154,8236,1.0693416595458984,False
32,8147,8165,8141,8131,8182,8142,8168,8141,8130,8146,8142,8121,8132,8218,1.0772008895874023,False
33,8143,8145,8140,8103,8181,8137,8176,8151,8125,8135,8146,8118,8129,8203,1.0854425430297852,False
34,8114,8133,8112,8090,8153,8127,8141,8155,8143,8152,8158,8102,8126,8193,1.0931625366210938,False
35,8121,8139,8142,8092,8173,8137,8198,8177,8147,8149,8152,8096,8120,8195,1.1013834476470947,False
36,8120,8127,8131,8072,8145,8141,8151,8177,8157,8161,8151,8106,8142,8209,1.1092581748962402,False
37,8122,8126,8133,8067,8170,8129,8172,8177,8169,8177,8159,8125,8150,8215,1.117283821105957,False
38,8136,8156,8169,8117,8179,8121,8186,8174,8174,8166,8165,8141,8142,8219,1.1253314018249512,False
39,8128,8169,8156,8143,8148,8122,8136,8153,8173,8165,8172,8142,8150,8220,1.1323492527008057,False
40,8149,8165,8177,8123,8178,8139,8194,8154,8166,8174,8174,8156,8158,8223,1.1401567459106443,False
41,8168,8174,8177,8137,8148,8153,8154,8151,8173,8182,8178,8177,8176,8247,1.148378849029541,False
42,8180,8190,8178,8164,8155,8151,8159,8160,8172,8167,8176,8175,8182,8257,1.1562905311584473,False
43,8199,8184,8195,8163,8177,8147,8184,8161,8164,8161,8172,8167,8173,8260,1.164322853088379,False
44,8186,8178,8163,8161,8155,8147,8142,8144,8168,8185,8178,8174,8191,8280,1.1723110675811768,False
45,8167,8188,8166,8148,8186,8136,8195,8158,8160,8178,8169,8175,8198,8273,1.1803581714630127,False
46,8140,8171,8145,8114,8153,8109,8143,8148,8141,8151,8145,8139,8166,8238,1.1882970333099363,False
47,8127,8141,8118,8082,8143,8112,8145,8145,8129,8136,8132,8108,8123,8204,1.1951489448547363,False
48,8135,8127,8140,8071,8158,8131,8193,8171,8130,8136,8136,8112,8108,8191,1.203052997589111,False
49,8111,8115,8126,8068,8130,8125,8133,8177,8146,8137,8144,8112,8118,8201,1.2113654613494873,False
50,8095,8109,8134,8060,8165,8138,8189,8195,8163,8135,8146,8105,8112,8188,1.2192714214324951,False
51,8088,8116,8129,8058,8158,8156,8176,8191,8181,8158,8143,8108,8113,8170,1.227358341217041,False
52,8105,8145,8136,8092,8170,8146,8159,8182,8182,8167,8149,8125,8133,8191,1.2353270053863523,False
53,8148,8167,8182,8133,8194,8132,8184,8178,8160,8148,8171,8145,8147,8221,1.2431867122650146,False
54,8145,8159,8163,8137,8150,8130,8113,8141,8149,8150,8178,8150,8150,8233,1.2512941360473633,False
55,8168,8175,8184,8141,8188,8138,8171,8148,8152,8167,8170,8169,8157,8245,1.2593517303466797,False
56,8202,8196,8204,8162,8185,8133,8169,8170,8152,8172,8169,8192,8179,8278,1.2661137580871582,False
57,8204,8192,8183,8179,8160,8127,8121,8164,8147,8172,8182,8198,8200,8308,1.2743797302246094,False
58,8236,8195,8220,8188,8202,8137,8195,8166,8144,8183,8194,8209,8210,8320,1.2821738719940186,False
59,8251,8202,8212,8187,8176,8126,8171,8162,8153,8199,8173,8205,8219,8327,1.2903616428375244,False
60,8216,8180,8152,8157,8139,8102,8111,8158,8159,8193,8153,8185,8211,8326,1.2982749938964844,False
61,8167,8152,8099,8127,8128,8092,8068,8137,8158,8171,8159,8169,8194,8306,1.3063642978668213,False
62,8177,8165,8140,8141,8205,8110,8196,8153,8160,8159,8154,8163,8176,8278,1.3143796920776367,False
63,8224,8188,8235,8157,8246,8133,8310,8195,8162,8168,8146,8168,8161,8267,1.322334051132202,False
64,8174,8168,8161,8134,8129,8140,8121,8163,8181,8184,8152,8153,8168,8263,1.330348014831543,False
65,8127,8142,8108,8095,8146,8150,8136,8149,8187,8174,8156,8138,8167,8247,1.337385892868042,False
66,8156,8132,8178,8092,8201,8147,8247,8173,8174,8169,8161,8158,8167,8255,1.3452644348144531,False
67,8150,8125,8155,8113,8125,8136,8120,8156,8177,8184,8170,8173,8186,8281,1.3533477783203125,False
68,8148,8142,8124,8124,8126,8143,8102,8147,8179,8180,8165,8173,8194,8282,1.361309051513672,False
69,8199,8179,8173,8156,8166,8151,8176,8161,8172,8181,8168,8184,8205,8288,1.3691728115081787,False
70,8232,8201,8210,8191,8160,8146,8184,8162,8163,8191,8181,8199,8206,8311,1.3773047924041748,False
71,8207,8191,8167,8184,8139,8137,8114,8142,8152,8178,8179,8201,8206,8322,1.385448932647705,False
72,8199,8169,8161,8154,8219,8138,8184,8150,8134,8147,8160,8195,8195,8309,1.3933115005493164,False
73,8240,8166,8246,8153,8296,8147,8303,8177,8125,8140,8160,8192,8163,8284,1.4003846645355225,False
74,8203,8173,8187,8170,8179,8131,8107,8139,8145,8169,8175,8182,8176,8280,1.408149242401123,False
75,8157,8172,8130,8168,8189,8114,8105,8139,8149,8178,8167,8172,8195,8272,1.4164962768554688,False
76,8176,8155,8179,8152,8259,8113,8230,8162,8135,8168,8148,8165,8167,8248,1.424142837524414,False
77,8161,8144,8142,8139,8163,8107,8108,8132,8135,8170,8143,8152,8153,8249,1.432380437850952,False
78,8172,8161,8155,8132,8140,8111,8160,8143,8133,8173,8161,8167,8176,8262,1.4403438568115234,False
79,8191,8155,8195,8127,8122,8123,8210,8166,8149,8186,8181,8178,8188,8259,1.4482908248901367,False
80,8156,8126,8142,8125,8060,8112,8109,8155,8176,8200,8176,8154,8178,8251,1.456284999847412,False
81,8143,8122,8109,8118,8052,8093,8097,8146,8156,8185,8152,8145,8167,8250,1.4643404483795166,False
82,8154,8142,8127,8113,8083,8096,8152,8140,8113,8153,8141,8150,8156,8235,1.4711518287658691,False
83,8161,8163,8156,8122,8122,8115,8185,8143,8110,8127,8158,8150,8147,8222,1.4794206619262695,False
84,8141,8153,8133,8136,8105,8121,8125,8129,8131,8128,8165,8145,8146,8228,1.4882943630218506,False
85,8149,8143,8170,8145,8174,8128,8231,8147,8124,8136,8156,8153,8138,8219,1.49515700340271,False
86,8169,8161,8217,8161,8182,8140,8246,8177,8129,8145,8165,8169,8144,8217,1.503080129623413,False
87,8137,8172,8145,8170,8079,8143,8058,8162,8173,8170,8176,8171,8173,8245,1.5111956596374512,False
88,8159,8177,8171,8164,8148,8153,8177,8188,8180,8189,8171,8187,8185,8260,1.5191938877105713,False
89,8189,8178,8219,8166,8169,8146,8226,8206,8163,8194,8177,8204,8194,8266,1.526414394378662,False
90,8166,8178,8172,8174,8115,8120,8108,8178,8169,8191,8189,8193,8203,8275,1.5341882705688477,False
91,8175,8177,8187,8171,8158,8115,8184,8179,8163,8181,8176,8179,8185,8278,1.5424127578735352,False
92,8181,8165,8179,8152,8128,8109,8173,8172,8146,8179,8155,8174,8177,8283,1.5502924919128418,False
93,8163,8154,8133,8129,8077,8100,8105,8155,8132,8167,8158,8178,8177,8273,1.5583786964416504,False
94,8142,8139,8116,8127,8067,8115,8094,8143,8124,8159,8165,8173,8168,8240,1.5663211345672607,False
95,8137,8127,8156,8134,8132,8143,8211,8160,8126,8163,8159,8166,8157,8222,1.5743613243103027,False
96,8141,8117,8201,8130,8158,8139,8264,8168,8120,8149,8157,8172,8145,8223,1.5823261737823486,False
97,8106,8109,8139,8124,8057,8112,8092,8117,8111,8144,8159,8163,8142,8210,1.5894429683685305,False
98,8104,8126,8140,8128,8108,8117,8146,8122,8104,8113,8158,8153,8135,8190,1.5971486568450928,False
99,8115,8135,8179,8131,8173,8136,8212,8148,8112,8056,8162,8157,8132,8193,1.605441331863403,False
100,8089,8127,8135,8132,8110,8136,8117,8130,8129,8024,8172,8154,8143,8204,1.61317777633667,False
101,8110,8134,8160,8134,8126,8138,8186,8141,8117,7979,8174,8152,8140,8198,1.6211199760437012,False
102,8128,8137,8174,8138,8131,8145,8175,8150,8108,7924,8161,8148,8127,8206,1.6292428970336914,False
103,8106,8131,8128,8145,8119,8148,8110,8142,8117,7915,8155,8143,8118,8222,1.637300968170166,False
104,8120,8135,8140,8142,8139,8143,8147,8152,8120,7936,8162,8151,8127,8229,1.6451084613800049,False
105,8145,8135,8154,8133,8136,8143,8152,8162,8123,7947,8163,8156,8145,8243,1.6533660888671875,False
106,8147,8128,8146,8129,8138,8156,8150,8164,8132,7961,8161,8158,8150,8262,1.660292148590088,False
107,8140,8131,8141,8134,8140,8163,8146,8155,8146,7976,8164,8172,8154,8275,1.6685376167297363,False
108,8169,8147,8191,8156,8189,8170,8216,8161,8148,7965,8166,8196,8156,8282,1.6761627197265625,False
109,8200,8160,8215,8183,8170,8175,8173,8152,8147,7967,8166,8209,8165,8297,1.68436861038208,False
110,8194,8158,8172,8183,8135,8164,8093,8129,8147,7978,8165,8203,8178,8309,1.6923189163208008,False
111,8218,8157,8220,8161,8224,8159,8231,8141,8131,7962,8163,8197,8161,8297,1.7003536224365234,False
112,8194,8152,8209,8165,8171,8154,8167,8121,8127,7966,8164,8178,8151,8285,1.7082879543304443,False
113,8134,8144,8138,8169,8108,8143,8100,8112,8131,7978,8157,8163,8150,8265,1.7163763046264648,False
114,8155,8131,8177,8140,8163,8141,8216,8136,8109,7949,8148,8175,8124,8240,1.723294973373413,False
115,8157,8118,8163,8128,8139,8130,8135,8119,8095,7943,8149,8165,8115,8241,1.7313621044158936,False
116,8129,8127,8122,8150,8151,8130,8104,8135,8115,7977,8154,8141,8122,8244,1.7392942905426023,False
117,8121,8121,8123,8147,8172,8149,8156,8169,8141,7992,8163,8152,8131,8236,1.7472796440124512,False
118,8116,8107,8146,8118,8180,8163,8210,8191,8150,7992,8165,8170,8144,8237,1.7553093433380127,False
119,8111,8118,8158,8119,8161,8163,8191,8196,8150,8012,8148,8152,8138,8234,1.7633800506591797,False
120,8093,8122,8105,8133,8129,8155,8113,8167,8148,8003,8136,8126,8113,8211,1.7711634635925293,False
121,8119,8119,8152,8128,8202,8158,8234,8169,8132,7967,8155,8145,8099,8206,1.7793810367584229,False
122,8131,8113,8173,8129,8150,8157,8175,8155,8131,7985,8173,8168,8125,8237,1.787344455718994,False
123,8113,8123,8126,8147,8100,8149,8096,8134,8140,8018,8167,8163,8137,8248,1.79436993598938,False
124,8140,8144,8174,8166,8178,8149,8219,8142,8126,8010,8165,8164,8124,8230,1.802374601364136,False
125,8138,8139,8163,8159,8135,8151,8146,8117,8116,8003,8159,8156,8116,8236,1.8143963813781736,False
126,8137,8133,8144,8139,8133,8157,8151,8121,8116,7999,8155,8156,8113,8255,1.8183002471923828,False
127,8149,8127,8170,8131,8169,8147,8197,8148,8119,8005,8174,8166,8136,8264,1.8262858390808103,False
238,8135,8116,8138,8130,8133,8138,8108,8148,8134,8046,8193,8160,8186,8278,1.8342225551605225,False
0,8147,8125,8137,8135,8142,8157,8124,8168,8156,8083,8200,8174,8219,8304,1.842200517654419,False
1,8156,8130,8154,8131,8168,8176,8179,8192,8177,8087,8193,8189,8217,8313,1.8503212928771973,False
2,8154,8112,8186,8096,8194,8180,8252,8199,8164,8057,8173,8164,8188,8282,1.8573856353759768,False
3,8128,8100,8168,8064,8131,8179,8181,8169,8151,8048,8160,8140,8165,8249,1.8650357723236084,False
4,8102,8119,8124,8084,8123,8185,8119,8159,8168,8070,8177,8149,8178,8251,1.8731529712677,False
5,8140,8143,8171,8119,8202,8195,8206,8182,8173,8063,8196,8175,8196,8272,1.881281852722168,False
6,8143,8134,8155,8124,8131,8185,8124,8147,8167,8060,8178,8176,8200,8292,1.8891868591308596,False
7,8114,8116,8129,8108,8122,8177,8145,8134,8154,8065,8156,8156,8176,8273,1.897188186645508,False
8,8126,8113,8170,8099,8172,8185,8227,8147,8137,8054,8166,8151,8156,8240,1.9053683280944824,False
9,8125,8121,8149,8108,8128,8186,8136,8121,8142,8057,8179,8160,8171,8245,1.91331148147583,False
10,8127,8126,8159,8111,8142,8179,8170,8133,8142,8061,8169,8163,8171,8248,1.9212255477905276,False
11,8131,8121,8176,8107,8143,8169,8179,8144,8133,8065,8164,8154,8163,8237,1.9283149242401123,False
12,8119,8114,8143,8112,8123,8169,8115,8117,8138,8072,8170,8153,8173,8241,1.936331272125244,True
13,8118,8109,8126,8126,8120,8171,8102,8096,8144,8069,8171,8161,8184,8258,1.944322109222412,True
14,8136,8113,8144,8133,8146,8177,8162,8106,8141,8070,8170,8164,8182,8262,1.9521806240081787,True
15,8163,8120,8204,8116,8199,8191,8264,8131,8126,8072,8165,8161,8153,8243,1.9601285457611084,True
16,8131,8096,8167,8096,8148,8178,8149,8114,8123,8069,8160,8140,8135,8233,1.9681012630462649,True
17,8097,8078,8124,8093,8146,8166,8122,8121,8133,8060,8160,8129,8145,8237,1.976134777069092,True
18,8128,8087,8171,8096,8178,8174,8213,8160,8140,8069,8166,8149,8148,8246,1.9841725826263428,True
19,8136,8088,8156,8106,8154,8169,8140,8158,8150,8076,8170,8166,8146,8260,1.9911160469055176,True
20,8149,8097,8166,8118,8221,8167,8176,8172,8160,8064,8169,8173,8150,8272,1.999128580093384,True
21,8164,8110,8184,8121,8195,8165,8169,8175,8177,8080,8168,8174,8169,8293,2.007147312164306,True
22,8155,8115,8164,8124,8131,8153,8144,8156,8175,8093,8164,8178,8175,8294,2.0150370597839355,True
23,8163,8124,8186,8134,8151,8159,8192,8154,8154,8090,8174,8191,8169,8271,2.0231752395629883,True
24,8155,8122,8168,8140,8116,8161,8121,8138,8152,8103,8187,8190,8187,8280,2.0312204360961914,True
25,8170,8127,8176,8144,8136,8153,8163,8140,8154,8110,8177,8187,8192,8296,2.039238452911377,True
26,8178,8129,8180,8134,8139,8153,8169,8138,8151,8101,8163,8182,8176,8283,2.0471365451812744,True
27,8147,8109,8148,8101,8122,8157,8143,8132,8143,8096,8159,8160,8165,8264,2.054283857345581,True
28,8146,8098,8160,8099,8144,8159,8195,8145,8135,8104,8167,8159,8163,8266,2.06209135055542,True
29,8145,8110,8150,8131,8112,8154,8136,8137,8140,8114,8178,8178,8175,8280,2.07009220123291,True
30,8150,8123,8167,8139,8137,8153,8170,8151,8137,8102,8181,8183,8175,8275,2.078275680541992,True
31,8150,8127,8174,8129,8145,8158,8176,8167,8142,8102,8178,8177,8169,8270,2.086142539978028,True
32,8147,8135,8149,8137,8130,8163,8135,8162,8163,8129,8171,8176,8170,8286,2.094290971755981,True
33,8170,8137,8177,8133,8162,8161,8198,8175,8164,8131,8170,8182,8167,8292,2.1022777557373047,True
34,8147,8120,8153,8115,8122,8147,8150,8169,8156,8116,8168,8165,8158,8267,2.1101748943328857,True
35,8139,8124,8148,8119,8129,8154,8165,8175,8154,8115,8166,8155,8148,8253,2.117115020751953,True
36,8176,8139,8188,8138,8143,8171,8182,8176,8156,8130,8171,8169,8165,8282,2.125312089920044,True
37,8178,8142,8173,8152,8125,8179,8138,8156,8159,8138,8180,8168,8180,8299,2.1333022117614746,True
38,8180,8151,8186,8162,8161,8187,8189,8156,8150,8119,8188,8163,8165,8273,2.1413395404815674,True
39,8178,8154,8175,8169,8133,8188,8143,8139,8150,8118,8192,8168,8175,8268,2.1491401195526123,True
40,8170,8147,8159,8160,8137,8190,8157,8138,8150,8139,8187,8171,8197,8288,2.157341480255127,True
41,8162,8137,8176,8148,8157,8193,8189,8152,8141,8144,8175,8168,8194,8286,2.1653053760528564,True
42,8143,8136,8157,8151,8140,8182,8136,8138,8140,8140,8169,8158,8185,8267,2.173145294189453,True
43,8154,8133,8165,8145,8174,8172,8188,8131,8125,8128,8167,8155,8166,8258,2.180125951766968,True
44,8145,8110,8150,8123,8146,8162,8151,8120,8120,8117,8161,8148,8153,8268,2.188021183013916,True
45,8134,8110,8148,8117,8139,8155,8150,8134,8143,8115,8159,8143,8159,8270,2.1962428092956543,True
46,8152,8132,8181,8130,8148,8153,8180,8152,8153,8133,8163,8152,8165,8261,2.204221487045288,True
47,8150,8133,8154,8134,8118,8149,8118,8139,8156,8151,8170,8160,8171,8272,2.21201491355896,True
48,8165,8130,8173,8125,8154,8152,8175,8154,8156,8127,8174,8166,8175,8295,2.220213890075684,True
49,8177,8134,8181,8125,8138,8155,8160,8156,8154,8116,8174,8167,8182,8309,2.2283051013946533,True
50,8183,8146,8166,8143,8145,8160,8153,8154,8156,8137,8170,8164,8179,8308,2.236346244812012,True
51,8202,8161,8191,8168,8177,8176,8199,8165,8167,8149,8172,8175,8173,8305,2.2443666458129883,True
52,8184,8154,8165,8167,8135,8173,8131,8145,8173,8150,8168,8178,8184,8298,2.251300811767578,True
53,8182,8146,8174,8152,8168,8158,8167,8135,8146,8134,8159,8171,8174,8287,2.2593448162078857,True
54,8200,8154,8188,8162,8171,8149,8157,8123,8130,8122,8171,8167,8156,8293,2.267338991165161,True
55,8191,8161,8172,8176,8156,8156,8136,8120,8140,8137,8182,8171,8161,8295,2.2752673625946045,True
56,8182,8159,8185,8168,8173,8148,8186,8140,8147,8154,8170,8176,8166,8275,2.2831921577453613,True
57,8168,8151,8159,8162,8131,8129,8127,8132,8141,8140,8153,8164,8165,8276,2.29127836227417,True
58,8179,8145,8172,8152,8148,8146,8167,8138,8126,8121,8160,8168,8165,8295,2.2991909980773926,True
59,8173,8132,8180,8128,8136,8148,8172,8145,8125,8146,8168,8179,8172,8289,2.307227611541748,True
60,8129,8119,8137,8106,8098,8121,8137,8140,8129,8163,8153,8156,8160,8259,2.314239501953125,True
61,8123,8109,8146,8098,8129,8130,8183,8152,8128,8145,8141,8133,8144,8242,2.322407960891724,True
62,8122,8108,8139,8113,8111,8153,8133,8146,8141,8150,8153,8137,8159,8250,2.3302552700042725,True
63,8121,8124,8144,8122,8112,8147,8176,8157,8157,8157,8165,8150,8162,8241,2.338350772857666,True
64,8125,8129,8155,8111,8143,8143,8186,8171,8179,8152,8163,8149,8152,8229,2.346439838409424,True
65,8128,8130,8143,8122,8232,8166,8141,8173,8206,8172,8169,8148,8162,8243,2.3543074131011963,True
66,8159,8154,8183,8164,8295,8170,8202,8182,8205,8180,8176,8159,8163,8254,2.3623671531677246,True
67,8160,8162,8171,8186,8159,8150,8146,8159,8196,8155,8163,8154,8155,8257,2.370365858078003,True
68,8152,8155,8157,8177,8101,8158,8153,8148,8194,8135,8155,8147,8152,8246,2.3782873153686523,True
69,8154,8154,8181,8173,8136,8175,8175,8141,8180,8145,8165,8155,8153,8235,2.3852782249450684,True
70,8145,8160,8167,8171,8142,8169,8132,8117,8158,8152,8165,8150,8147,8246,2.3933420181274414,True
71,8182,8168,8188,8167,8190,8178,8191,8134,8153,8143,8157,8151,8143,8267,2.401155710220337,True
72,8200,8165,8182,8167,8154,8185,8149,8148,8175,8164,8163,8171,8160,8296,2.409371852874756,True
73,8188,8161,8172,8164,8138,8168,8153,8156,8171,8171,8163,8181,8165,8319,2.41736102104187,True
74,8185,8150,8175,8155,8146,8156,8185,8152,8140,8131,8149,8163,8150,8305,2.4251413345336914,True
75,8163,8132,8140,8139,8107,8160,8130,8136,8134,8112,8147,8142,8141,8274,2.4333415031433105,True
76,8165,8134,8161,8132,8121,8166,8183,8163,8148,8122,8156,8146,8133,8258,2.4413678646087646,False
77,8157,8124,8149,8131,8101,8160,8166,8173,8158,8132,8154,8140,8132,8256,2.4483578205108643,False
78,8139,8108,8124,8123,8112,8174,8170,8170,8157,8120,8145,8127,8123,8250,2.456326961517334,False
79,8145,8113,8155,8118,8121,8194,8197,8171,8160,8113,8151,8126,8115,8243,2.4641335010528564,False
80,8133,8122,8145,8122,8091,8183,8132,8145,8168,8134,8159,8125,8129,8244,2.472357988357544,False
81,8151,8133,8168,8142,8141,8175,8180,8150,8176,8142,8165,8147,8137,8265,2.4803383350372314,False
82,8172,8139,8170,8160,8116,8174,8149,8154,8192,8152,8176,8172,8152,8300,2.488368272781372,False
83,8180,8142,8156,8162,8095,8176,8130,8157,8201,8174,8187,8179,8191,8319,2.496304512023926,False
84,8214,8160,8207,8177,8138,8182,8185,8165,8200,8186,8195,8195,8216,8331,2.5042450428009038,False
85,8218,8179,8202,8201,8122,8168,8130,8137,8198,8181,8188,8200,8206,8340,2.5123331546783447,False
86,8217,8190,8191,8205,8144,8152,8169,8124,8165,8157,8169,8187,8185,8318,2.5193445682525635,False
87,8219,8192,8192,8200,8136,8153,8157,8112,8134,8143,8168,8178,8189,8302,2.527098655700684,False
88,8205,8189,8170,8205,8115,8156,8112,8101,8141,8152,8174,8167,8190,8305,2.535334587097168,False
89,8193,8164,8172,8186,8148,8146,8191,8121,8131,8138,8164,8149,8153,8278,2.543437957763672,False
90,8157,8130,8139,8144,8110,8134,8163,8130,8124,8109,8155,8129,8134,8243,2.5513007640838623,False
91,8133,8139,8106,8145,8071,8148,8098,8142,8164,8126,8164,8127,8157,8250,2.559354305267334,False
92,8141,8159,8107,8180,8073,8168,8079,8150,8196,8161,8167,8131,8175,8261,2.567349672317505,False
93,8179,8159,8165,8191,8157,8171,8209,8166,8181,8144,8157,8134,8155,8244,2.5751726627349854,False
94,8215,8161,8239,8180,8206,8170,8290,8192,8182,8138,8165,8158,8152,8253,2.582326650619507,False
95,8176,8161,8169,8185,8089,8169,8084,8169,8223,8180,8187,8177,8201,8304,2.5903666019439697,False
96,8170,8163,8153,8198,8107,8173,8123,8172,8231,8185,8190,8184,8222,8328,2.598367929458618,False
97,8221,8163,8225,8193,8173,8171,8259,8192,8218,8164,8172,8194,8206,8320,2.6062681674957275,False
98,8201,8150,8164,8174,8097,8158,8113,8151,8223,8168,8163,8179,8204,8315,2.6143054962158203,False
99,8169,8140,8115,8160,8092,8147,8094,8124,8211,8161,8163,8150,8190,8301,2.6222620010375977,False
100,8175,8144,8157,8161,8141,8143,8199,8124,8182,8137,8159,8146,8165,8271,2.6303389072418213,False
101,8186,8151,8181,8166,8159,8147,8207,8112,8167,8122,8161,8165,8162,8261,2.6383750438690186,False
102,8175,8141,8139,8167,8130,8141,8107,8087,8163,8130,8164,8163,8164,8278,2.646356105804444,False
103,8168,8131,8133,8160,8189,8138,8167,8115,8165,8131,8149,8138,8144,8278,2.6532676219940186,False
104,8196,8138,8213,8148,8278,8162,8308,8176,8174,8116,8153,8145,8140,8265,2.661363363265991,False
105,8171,8131,8162,8153,8170,8175,8122,8146,8202,8141,8175,8156,8173,8275,2.669361114501953,False
106,8142,8123,8115,8154,8172,8177,8115,8137,8217,8168,8171,8137,8170,8265,2.677144289016724,False
107,8163,8118,8184,8140,8243,8180,8256,8180,8212,8162,8167,8133,8149,8238,2.6853671073913574,False
108,8166,8125,8172,8160,8156,8174,8143,8167,8235,8179,8187,8167,8188,8276,2.6933436393737797,False
109,8209,8176,8195,8210,8175,8190,8163,8164,8265,8218,8207,8213,8239,8343,2.7010717391967773,False
110,8250,8215,8228,8234,8224,8203,8180,8170,8277,8241,8206,8217,8259,8362,2.7093522548675537,False
111,8225,8195,8177,8229,8184,8187,8122,8154,8251,8210,8183,8184,8233,8333,2.716341972351074,False
112,8205,8165,8145,8215,8126,8172,8122,8140,8210,8165,8165,8164,8196,8308,2.7243573665618896,False
113,8199,8168,8151,8203,8124,8171,8142,8133,8196,8166,8174,8166,8196,8313,2.7323615550994877,False
114,8196,8171,8190,8191,8180,8177,8230,8139,8179,8168,8174,8172,8190,8299,2.7403221130371094,False
115,8160,8140,8148,8168,8114,8175,8152,8116,8169,8153,8158,8160,8177,8274,2.748363971710205,False
116,8136,8125,8120,8157,8098,8178,8135,8114,8173,8147,8162,8144,8179,8265,2.756156206130981,False
117,8155,8138,8176,8170,8144,8181,8208,8133,8165,8151,8177,8150,8169,8262,2.764334917068481,False
118,8136,8128,8134,8171,8090,8166,8113,8121,8167,8174,8175,8154,8161,8262,2.7723889350891118,False
119,8132,8124,8132,8161,8133,8162,8175,8149,8181,8181,8163,8153,8164,8250,2.780115365982056,False
120,8159,8153,8187,8184,8193,8170,8207,8164,8193,8175,8170,8163,8183,8265,2.787026882171631,False
121,8174,8176,8182,8219,8222,8174,8136,8152,8207,8199,8191,8182,8213,8310,2.795307874679565,False
122,8206,8183,8202,8224,8266,8175,8183,8168,8221,8222,8196,8200,8220,8338,2.803107738494873,False
123,8207,8193,8188,8228,8200,8172,8132,8159,8237,8231,8190,8198,8228,8342,2.8112785816192627,False
124,8189,8204,8160,8236,8164,8182,8113,8162,8248,8234,8185,8183,8228,8327,2.81903338432312,False
125,8186,8203,8164,8234,8166,8196,8149,8180,8247,8221,8171,8172,8211,8306,2.82708477973938,False
126,8195,8192,8185,8219,8168,8193,8200,8180,8224,8195,8156,8164,8187,8302,2.835271120071411,False
127,8211,8173,8214,8200,8174,8186,8242,8181,8198,8175,8162,8168,8165,8308,2.84221625328064,False
238,8178,8153,8164,8194,8124,8186,8143,8166,8201,8172,8164,8172,8165,8306,2.85018253326416,False
0,8166,8163,8160,8194,8146,8193,8179,8167,8199,8164,8155,8166,8159,8289,2.8581905364990234,False
1,8176,8160,8185,8188,8151,8188,8204,8157,8180,8161,8161,8163,8154,8274,2.8662357330322266,False
2,8145,8137,8144,8182,8149,8168,8133,8130,8180,8171,8172,8167,8168,8279,2.874190330505371,False
3,8154,8147,8167,8189,8225,8164,8187,8133,8191,8175,8176,8180,8185,8298,2.8822333812713623,False
4,8167,8159,8171,8199,8171,8169,8142,8116,8190,8189,8182,8177,8199,8306,2.890031099319458,False
5,8172,8162,8162,8195,8132,8174,8147,8111,8182,8203,8181,8174,8194,8304,2.898193120956421,False
6,8188,8174,8190,8192,8153,8171,8177,8129,8191,8203,8179,8183,8198,8320,2.906121253967285,False
7,8177,8184,8168,8211,8130,8160,8124,8135,8204,8211,8188,8188,8218,8338,2.9131336212158203,False
8,8187,8192,8181,8222,8156,8164,8182,8156,8193,8219,8194,8189,8220,8326,2.92133903503418,False
9,8178,8186,8172,8210,8149,8159,8146,8157,8192,8215,8187,8172,8210,8314,2.929198980331421,False
10,8163,8181,8152,8203,8155,8153,8146,8167,8196,8192,8174,8168,8195,8308,2.937269449234009,False
11,8188,8186,8171,8201,8156,8162,8186,8173,8183,8176,8167,8183,8179,8303,2.945300579071045,False
12,8186,8185,8155,8193,8115,8158,8136,8152,8178,8178,8160,8177,8178,8303,2.953119993209839,False
13,8182,8173,8177,8187,8151,8151,8187,8165,8177,8174,8160,8167,8176,8293,2.9613301753997803,False
14,8177,8159,8174,8190,8138,8157,8156,8164,8181,8178,8161,8170,8171,8286,2.9691805839538574,False
15,8177,8169,8160,8199,8139,8165,8148,8161,8188,8180,8170,8173,8173,8292,2.9763100147247314,False
16,8201,8189,8198,8217,8170,8158,8193,8170,8182,8173,8188,8187,8187,8309,2.984234571456909,False
17,8208,8188,8189,8237,8143,8148,8128,8149,8169,8181,8193,8204,8209,8335,2.992177248001098,False
18,8234,8194,8214,8260,8184,8148,8179,8146,8155,8187,8191,8222,8211,8350,3.000353574752808,False
19,8244,8208,8227,8282,8172,8137,8162,8138,8153,8188,8205,8239,8217,8357,3.008244752883911,False
20,8231,8214,8208,8284,8145,8128,8132,8120,8151,8196,8215,8246,8239,8358,3.016103744506836,False
21,8246,8215,8234,8288,8158,8131,8190,8129,8146,8197,8212,8261,8242,8356,3.0240285396575928,False
22,8237,8212,8214,8295,8124,8134,8135,8132,8155,8185,8207,8262,8231,8355,3.0321924686431885,False
23,8236,8214,8211,8285,8163,8152,8174,8148,8165,8179,8200,8250,8227,8346,3.0400938987731934,False
24,8242,8217,8215,8290,8155,8162,8176,8157,8173,8197,8193,8251,8238,8343,3.047111988067627,False
25,8230,8211,8186,8294,8125,8156,8145,8160,8175,8201,8181,8241,8231,8344,3.0551793575286865,False
26,8231,8193,8188,8258,8166,8166,8204,8175,8169,8183,8167,8213,8193,8327,3.063164472579956,False
27,8200,8162,8146,8219,8146,8171,8156,8162,8178,8176,8155,8187,8171,8310,3.071051359176636,False
28,8169,8149,8130,8202,8150,8156,8179,8157,8169,8161,8145,8176,8156,8293,3.0791046619415283,False
29,8162,8147,8143,8187,8148,8135,8168,8147,8139,8149,8144,8166,8144,8279,3.0873048305511475,False
30,8162,8144,8136,8186,8146,8135,8125,8136,8145,8163,8151,8160,8146,8283,3.0952742099761963,False
31,8181,8156,8171,8200,8185,8145,8198,8154,8164,8169,8163,8168,8148,8288,3.1033577919006348,False
32,8174,8166,8155,8197,8171,8136,8144,8138,8161,8174,8163,8168,8158,8293,3.1102373600006104,False
33,8191,8177,8155,8193,8200,8133,8143,8132,8141,8175,8158,8172,8159,8295,3.11833119392395,False
34,8220,8186,8178,8203,8184,8135,8166,8137,8130,8172,8165,8185,8153,8300,3.126406192779541,False
35,8186,8185,8147,8208,8130,8134,8134,8115,8131,8180,8175,8185,8169,8310,3.134332656860352,False
36,8189,8197,8175,8207,8173,8149,8188,8118,8132,8201,8177,8191,8191,8323,3.143278121948242,False
37,8224,8209,8180,8208,8156,8154,8134,8114,8143,8228,8170,8198,8206,8335,3.150197744369507,False
38,8221,8196,8157,8202,8160,8141,8147,8118,8148,8224,8160,8189,8209,8333,3.158289909362793,False
39,8193,8167,8156,8183,8180,8142,8193,8143,8164,8221,8163,8181,8214,8330,3.1662700176239014,False
40,8172,8156,8135,8169,8149,8154,8141,8163,8194,8243,8173,8174,8220,8323,3.17333722114563,False
41,8179,8156,8152,8149,8175,8160,8183,8195,8208,8243,8161,8161,8197,8294,3.1811962127685547,False
42,8144,8137,8125,8132,8155,8151,8158,8198,8220,8223,8130,8129,8163,8262,3.1891090869903564,False
43,8113,8132,8106,8131,8163,8153,8173,8203,8215,8201,8122,8107,8136,8247,3.197012424468994,False
44,8130,8134,8151,8126,8184,8167,8201,8202,8187,8188,8146,8123,8136,8241,3.205080032348633,False
45,8118,8121,8132,8107,8147,8166,8130,8158,8171,8176,8156,8128,8143,8231,3.213148832321167,False
46,8128,8126,8143,8107,8177,8167,8188,8145,8161,8156,8150,8123,8123,8234,3.2210519313812256,False
47,8148,8135,8162,8127,8163,8169,8172,8144,8153,8166,8169,8143,8137,8272,3.229225873947144,False
48,8159,8147,8167,8148,8169,8168,8149,8145,8165,8194,8185,8181,8179,8308,3.237111091613769,False
49,8199,8173,8201,8167,8188,8168,8187,8151,8171,8190,8176,8207,8183,8321,3.243995428085327,False
50,8206,8176,8180,8160,8124,8151,8125,8123,8151,8181,8175,8199,8178,8329,3.252068042755127,False
51,8201,8174,8183,8153,8142,8137,8174,8117,8129,8178,8184,8190,8186,8324,3.260050773620605,False
52,8214,8185,8189,8177,8141,8132,8161,8113,8132,8189,8178,8199,8204,8331,3.268005132675171,False
53,8225,8189,8178,8185,8124,8127,8132,8106,8133,8200,8160,8207,8200,8343,3.2761716842651367,False
54,8225,8175,8192,8162,8147,8132,8192,8115,8111,8172,8143,8191,8159,8317,3.284055709838867,False
55,8183,8159,8148,8159,8126,8143,8147,8120,8118,8163,8139,8163,8146,8289,3.292149782180786,False
56,8179,8161,8160,8161,8170,8157,8196,8161,8149,8189,8164,8182,8177,8306,3.300149440765381,False
57,8198,8153,8189,8142,8157,8166,8192,8179,8162,8195,8177,8201,8195,8324,3.3071157932281494,False
58,8179,8132,8148,8125,8111,8181,8147,8162,8153,8180,8155,8164,8169,8300,3.315206289291382,False
59,8156,8135,8153,8125,8172,8193,8214,8175,8151,8185,8151,8146,8152,8274,3.3233556747436523,False
60,8129,8156,8144,8138,8178,8185,8158,8169,8170,8198,8161,8159,8168,8272,3.33109712600708,False
61,8136,8165,8143,8148,8179,8180,8158,8169,8172,8188,8155,8158,8162,8255,3.3392457962036133,False
62,8151,8160,8157,8140,8172,8182,8171,8178,8170,8206,8159,8159,8155,8254,3.34706711769104,False
63,8136,8165,8148,8144,8158,8183,8147,8163,8181,8225,8170,8177,8168,8288,3.355320930480957,False
64,8157,8185,8185,8174,8216,8184,8193,8152,8169,8199,8174,8191,8180,8306,3.363293409347534,False
65,8199,8201,8195,8201,8262,8177,8139,8142,8165,8204,8185,8198,8222,8325,3.370151996612549,False
66,8243,8229,8211,8217,8343,8191,8168,8162,8174,8241,8197,8213,8263,8355,3.3781309127807617,False
67,8243,8241,8219,8231,8336,8204,8192,8167,8172,8242,8195,8218,8261,8356,3.386049270629883,False
68,8207,8222,8172,8233,8217,8186,8132,8144,8166,8221,8186,8200,8247,8341,3.394203186035156,False
69,8227,8219,8191,8216,8169,8180,8188,8152,8160,8216,8174,8194,8237,8343,3.4021530151367188,False
70,8226,8220,8181,8200,8137,8188,8159,8149,8159,8220,8161,8195,8232,8346,3.4102790355682373,False
71,8188,8208,8147,8194,8158,8189,8167,8158,8157,8224,8157,8181,8226,8308,3.4181079864501958,False
72,8177,8183,8158,8180,8163,8182,8192,8173,8156,8216,8162,8163,8208,8271,3.4263017177581787,False
73,8154,8162,8141,8154,8142,8181,8139,8158,8166,8197,8161,8138,8186,8268,3.4331061840057373,False
74,8136,8151,8147,8130,8197,8196,8194,8157,8159,8180,8149,8127,8154,8251,3.4412684440612797,False
75,8120,8132,8132,8112,8163,8199,8154,8139,8145,8181,8143,8132,8131,8231,3.449331998825073,False
76,8138,8139,8143,8122,8159,8199,8144,8134,8146,8193,8153,8149,8147,8255,3.457120895385742,False
77,8185,8166,8192,8158,8206,8208,8193,8155,8159,8209,8173,8174,8197,8300,3.4653127193450928,False
78,8182,8163,8167,8173,8181,8201,8136,8145,8168,8219,8178,8180,8219,8313,3.473296403884888,False
79,8186,8161,8177,8174,8182,8182,8175,8146,8150,8209,8166,8186,8186,8312,3.481306552886963,False
80,8193,8182,8184,8185,8135,8174,8150,8150,8143,8214,8168,8196,8185,8336,3.489343881607056,False
81,8171,8192,8157,8173,8121,8185,8141,8156,8155,8211,8175,8183,8201,8334,3.497358798980713,False
82,8163,8184,8163,8164,8150,8198,8191,8161,8155,8187,8171,8164,8184,8290,3.5043203830718994,False
83,8158,8177,8151,8186,8117,8195,8139,8141,8158,8204,8172,8163,8189,8275,3.51213002204895,False
84,8177,8175,8176,8181,8147,8193,8190,8150,8155,8215,8171,8169,8202,8290,3.52030611038208,False
85,8177,8164,8173,8154,8136,8191,8173,8148,8145,8194,8156,8158,8184,8290,3.528340578079224,False
86,8160,8157,8141,8150,8126,8186,8140,8139,8145,8180,8153,8150,8171,8275,3.5362584590911865,False
87,8178,8164,8173,8156,8172,8191,8204,8160,8153,8188,8171,8164,8178,8273,3.54431676864624,False
88,8163,8160,8163,8162,8141,8188,8149,8152,8151,8195,8169,8164,8180,8277,3.5523312091827397,False
89,8147,8153,8157,8157,8162,8188,8172,8149,8129,8162,8158,8159,8157,8263,3.560225486755371,False
90,8151,8150,8161,8137,8179,8188,8179,8148,8125,8138,8159,8164,8145,8253,3.5672898292541504,False
91,8154,8148,8148,8135,8187,8183,8153,8146,8141,8169,8163,8163,8160,8265,3.5753273963928223,False
92,8194,8153,8192,8165,8223,8177,8201,8166,8145,8192,8170,8175,8176,8281,3.5831170082092285,False
93,8192,8151,8177,8171,8170,8161,8133,8142,8144,8176,8160,8173,8176,8282,3.591291904449463,False
94,8159,8152,8154,8142,8170,8158,8158,8124,8143,8154,8146,8153,8154,8268,3.599362373352051,False
95,8150,8156,8164,8134,8181,8164,8176,8134,8151,8171,8151,8151,8146,8268,3.607211351394653,False
96,8147,8154,8149,8157,8164,8161,8126,8139,8165,8197,8161,8160,8158,8270,3.615313053131104,False
97,8161,8156,8173,8170,8190,8165,8186,8152,8167,8192,8168,8172,8166,8261,3.623390913009644,False
98,8153,8155,8160,8166,8156,8168,8153,8155,8177,8195,8182,8172,8191,8272,3.630303621292114,False
99,8146,8157,8150,8159,8151,8167,8160,8159,8179,8209,8185,8163,8200,8286,3.6383132934570312,False
100,8151,8161,8169,8150,8149,8171,8173,8154,8165,8208,8174,8162,8184,8281,3.646283864974976,False
101,8136,8155,8146,8140,8134,8174,8128,8144,8153,8193,8160,8165,8176,8270,3.6543123722076416,False
102,8157,8151,8170,8150,8176,8167,8191,8158,8137,8175,8161,8166,8175,8264,3.662257432937622,False
103,8178,8155,8180,8164,8141,8157,8152,8140,8132,8173,8175,8164,8181,8277,3.670136213302612,False
104,8187,8168,8176,8162,8138,8159,8150,8136,8138,8177,8170,8172,8180,8290,3.678335189819336,False
105,8192,8173,8187,8158,8159,8160,8185,8158,8141,8182,8160,8185,8169,8290,3.6862330436706543,False
106,8177,8161,8158,8164,8133,8162,8135,8155,8154,8184,8167,8187,8174,8302,3.6942431926727295,False
107,8191,8166,8178,8174,8180,8179,8192,8168,8160,8177,8171,8189,8185,8313,3.702161312103272,False
108,8197,8182,8181,8187,8169,8185,8165,8168,8155,8187,8173,8192,8194,8309,3.709129095077514,False
109,8198,8198,8177,8194,8156,8182,8153,8167,8142,8195,8182,8197,8202,8305,3.717369794845581,False
110,8218,8198,8205,8188,8176,8180,8193,8175,8130,8184,8192,8207,8207,8320,3.7252073287963863,False
111,8198,8179,8168,8181,8147,8161,8131,8164,8132,8187,8183,8202,8215,8336,3.732987642288208,False
112,8196,8178,8175,8176,8175,8155,8177,8176,8128,8192,8170,8198,8205,8324,3.741301059722901,False
113,8207,8185,8183,8172,8171,8162,8160,8163,8126,8183,8174,8197,8198,8309,3.749163866043091,False
114,8180,8175,8153,8162,8170,8164,8142,8142,8133,8187,8172,8175,8192,8298,3.757316827774048,False
115,8158,8155,8169,8138,8191,8167,8203,8153,8132,8186,8149,8151,8160,8275,3.764237642288208,False
116,8157,8151,8152,8134,8143,8165,8140,8143,8143,8171,8150,8154,8155,8270,3.7720654010772714,False
117,8194,8177,8172,8159,8169,8163,8175,8149,8156,8175,8181,8181,8183,8287,3.780194044113159,False
118,8203,8183,8189,8166,8182,8158,8174,8150,8147,8195,8179,8183,8193,8293,3.788234233856201,False
119,8168,8166,8153,8150,8161,8145,8137,8138,8134,8186,8150,8165,8176,8277,3.7961585521698,False
120,8181,8166,8173,8149,8183,8137,8194,8149,8132,8168,8159,8172,8173,8270,3.8042731285095215,False
121,8197,8171,8175,8162,8178,8138,8145,8145,8136,8184,8184,8186,8202,8291,3.812232732772827,False
122,8217,8181,8192,8180,8214,8156,8174,8157,8135,8199,8185,8205,8217,8317,3.820210933685303,False
123,8238,8187,8205,8186,8185,8162,8176,8164,8137,8208,8180,8222,8219,8336,3.828172445297241,False
124,8226,8182,8171,8175,8146,8150,8131,8151,8134,8207,8176,8207,8213,8330,3.835096836090088,False
125,8208,8175,8180,8165,8202,8157,8190,8165,8133,8179,8170,8194,8197,8302,3.843174457550049,False
126,8174,8162,8165,8166,8180,8176,8153,8176,8165,8191,8172,8201,8209,8298,3.851285696029663,False
127,8182,8167,8168,8176,8174,8191,8177,8194,8195,8225,8188,8218,8229,8314,3.858980894088745,False
238,8214,8179,8196,8189,8171,8193,8188,8201,8202,8236,8201,8241,8234,8334,3.867289066314697,False
0,8208,8184,8176,8197,8151,8192,8138,8192,8221,8256,8195,8243,8246,8355,3.875163555145264,False
1,8209,8185,8183,8196,8197,8193,8194,8197,8220,8248,8175,8221,8236,8345,3.883082389831543,False
2,8190,8166,8154,8183,8160,8183,8145,8176,8195,8202,8153,8196,8204,8307,3.891259670257568,False
3,8172,8152,8137,8156,8155,8165,8147,8164,8170,8171,8146,8181,8168,8290,3.8981854915618896,False
4,8184,8161,8164,8147,8192,8157,8183,8160,8153,8172,8152,8184,8154,8314,3.906164407730103,False
5,8179,8165,8149,8159,8179,8176,8146,8155,8152,8177,8158,8191,8173,8333,3.914270639419556,False
6,8193,8156,8176,8157,8200,8199,8201,8186,8163,8185,8165,8202,8190,8325,3.922171115875244,False
7,8192,8149,8172,8160,8179,8189,8159,8180,8175,8198,8166,8196,8194,8311,3.930199861526489,False
8,8171,8151,8146,8155,8198,8180,8154,8164,8167,8182,8155,8173,8172,8290,3.9382386207580566,False
9,8172,8147,8162,8131,8212,8181,8188,8164,8156,8175,8152,8157,8147,8267,3.9463119506835938,False
10,8169,8153,8151,8136,8167,8165,8129,8149,8161,8191,8161,8162,8154,8270,3.954335451126098,False
11,8190,8182,8184,8173,8227,8166,8187,8158,8165,8181,8166,8193,8173,8288,3.9611117839813232,False
12,8196,8187,8191,8193,8240,8173,8164,8155,8175,8183,8178,8211,8191,8302,3.969149112701416,False
13,8187,8184,8169,8190,8234,8170,8144,8154,8175,8207,8187,8212,8199,8310,3.977082490921021,False
14,8209,8196,8190,8194,8269,8185,8191,8167,8159,8210,8176,8220,8201,8316,3.98515248298645,False
15,8208,8200,8174,8202,8245,8197,8130,8151,8162,8202,8169,8217,8205,8320,3.9934587478637695,False
16,8205,8193,8182,8194,8222,8193,8170,8158,8160,8190,8175,8209,8187,8308,4.001262426376343,False
17,8181,8169,8167,8173,8158,8183,8166,8167,8148,8183,8165,8204,8167,8295,4.009231328964233,False
18,8144,8147,8128,8159,8157,8189,8154,8175,8150,8189,8153,8191,8159,8288,4.017367124557495,False
19,8155,8137,8159,8150,8201,8202,8210,8201,8154,8181,8160,8179,8149,8280,4.02505898475647,False
20,8155,8127,8154,8134,8163,8191,8146,8191,8159,8171,8160,8165,8142,8269,4.032252311706543,False
21,8146,8128,8155,8127,8206,8177,8177,8180,8156,8179,8153,8156,8133,8237,4.040125846862793,False
22,8128,8130,8150,8129,8229,8174,8172,8165,8148,8188,8164,8155,8132,8210,4.048288583755493,False
23,8106,8124,8124,8131,8207,8182,8132,8151,8149,8182,8170,8151,8141,8215,4.056208610534668,False
24,8124,8131,8162,8131,8221,8196,8186,8167,8159,8182,8168,8167,8150,8234,4.064269065856934,False
25,8124,8143,8158,8132,8183,8191,8137,8156,8172,8192,8174,8179,8165,8246,4.073044538497925,False
26,8125,8150,8157,8144,8204,8179,8164,8152,8159,8188,8173,8167,8153,8234,4.08008885383606,False
27,8136,8150,8170,8156,8227,8173,8173,8152,8146,8180,8157,8160,8134,8230,4.088171720504761,False
28,8143,8156,8157,8157,8232,8170,8133,8147,8152,8179,8164,8174,8152,8259,4.095137596130371,False
29,8190,8181,8206,8173,8268,8177,8194,8167,8159,8194,8194,8209,8183,8295,4.103185415267944,False
30,8206,8192,8210,8205,8212,8186,8148,8170,8178,8232,8204,8220,8209,8315,4.111126661300659,False
31,8195,8192,8192,8213,8207,8200,8166,8177,8191,8234,8188,8213,8215,8320,4.119279861450195,False
32,8199,8194,8191,8200,8238,8207,8191,8167,8177,8204,8177,8208,8204,8316,4.127053022384644,False
33,8186,8191,8158,8195,8224,8199,8141,8140,8156,8190,8170,8183,8183,8295,4.13535213470459,False
34,8177,8180,8165,8185,8232,8182,8189,8141,8132,8168,8154,8160,8149,8260,4.143308162689209,False
35,8149,8157,8144,8161,8202,8156,8148,8123,8105,8142,8142,8150,8125,8245,4.151409149169922,False
36,8131,8141,8126,8137,8219,8153,8164,8123,8086,8124,8142,8140,8107,8245,4.15946364402771,False
37,8135,8144,8142,8125,8222,8169,8186,8148,8108,8142,8156,8141,8113,8247,4.166306972503662,False
38,8128,8158,8133,8136,8189,8170,8128,8153,8149,8178,8170,8155,8140,8247,4.174352645874023,False
39,8145,8164,8166,8146,8234,8167,8187,8159,8142,8159,8170,8163,8130,8237,4.182313680648804,False
40,8139,8147,8155,8139,8205,8160,8152,8143,8120,8136,8160,8148,8117,8240,4.190239667892456,False
41,8130,8153,8141,8141,8202,8157,8147,8136,8122,8155,8161,8148,8134,8255,4.198113918304443,False
42,8155,8177,8180,8164,8237,8162,8188,8146,8123,8178,8172,8168,8145,8263,4.206339120864868,False
43,8156,8174,8166,8172,8207,8162,8130,8124,8118,8166,8159,8164,8142,8268,4.214105844497681,False
44,8160,8165,8174,8159,8224,8166,8180,8128,8116,8146,8157,8157,8152,8268,4.222260713577271,False
45,8164,8168,8179,8161,8179,8167,8158,8141,8132,8171,8172,8161,8169,8263,4.229351758956909,False
46,8180,8184,8178,8180,8147,8172,8142,8150,8145,8194,8172,8172,8163,8266,4.237072944641113,False
47,8215,8182,8202,8175,8183,8181,8194,8159,8145,8187,8177,8185,8165,8290,4.245315074920654,False
48,8193,8153,8160,8142,8166,8167,8142,8141,8152,8192,8181,8172,8183,8301,4.253347396850586,False
49,8166,8147,8155,8128,8191,8157,8182,8149,8152,8198,8157,8149,8165,8275,4.2611963748931885,False
50,8157,8144,8157,8135,8173,8166,8166,8159,8150,8182,8146,8137,8148,8261,4.269448280334473,False
51,8136,8125,8127,8122,8145,8170,8135,8164,8157,8181,8154,8129,8157,8258,4.2773144245147705,False
52,8123,8118,8142,8095,8171,8162,8190,8176,8150,8184,8145,8119,8147,8232,4.285501480102539,False
53,8101,8116,8128,8089,8151,8157,8136,8154,8149,8167,8143,8113,8137,8226,4.293307542800903,False
54,8113,8120,8144,8105,8176,8164,8169,8152,8148,8153,8163,8125,8144,8246,4.300275802612305,False
55,8133,8130,8169,8114,8163,8165,8173,8154,8135,8158,8165,8140,8149,8250,4.3083202838897705,False
56,8118,8134,8148,8105,8150,8158,8144,8153,8129,8161,8155,8142,8149,8243,4.316273212432861,False
57,8130,8133,8172,8106,8190,8157,8197,8170,8132,8162,8162,8144,8144,8244,4.324224233627319,False
58,8142,8142,8172,8133,8153,8153,8136,8153,8144,8187,8176,8153,8161,8261,4.332187175750732,False
59,8154,8162,8178,8150,8164,8163,8164,8153,8150,8193,8178,8172,8175,8271,4.340307950973511,False
60,8165,8172,8193,8158,8183,8176,8188,8170,8161,8200,8180,8187,8188,8273,4.348255395889282,False
61,8171,8179,8176,8192,8201,8178,8143,8181,8192,8251,8191,8188,8220,8288,4.355317115783691,False
62,8200,8186,8207,8203,8264,8188,8198,8202,8207,8263,8194,8193,8230,8301,4.363159894943237,False
63,8181,8170,8186,8176,8240,8196,8154,8180,8200,8231,8177,8181,8214,8285,4.371240854263306,False
64,8143,8155,8154,8159,8253,8199,8166,8165,8195,8225,8163,8155,8190,8253,4.379335165023804,False
65,8141,8162,8165,8167,8272,8213,8183,8181,8202,8238,8168,8144,8181,8249,4.387267112731934,False
66,8137,8160,8147,8164,8235,8220,8127,8176,8194,8224,8159,8136,8175,8258,4.395326614379883,False
67,8142,8152,8160,8147,8256,8204,8188,8167,8168,8190,8137,8127,8150,8244,4.403176784515381,False
68,8125,8151,8144,8139,8249,8187,8155,8162,8165,8183,8138,8121,8144,8245,4.411449670791626,False
69,8121,8154,8138,8135,8258,8186,8147,8171,8165,8178,8159,8130,8149,8258,4.419339656829834,False
70,8143,8139,8167,8127,8227,8172,8178,8164,8153,8170,8166,8139,8143,8253,4.426421880722046,False
71,8132,8133,8141,8126,8156,8156,8129,8148,8158,8168,8159,8137,8142,8258,4.434187173843384,False
72,8151,8159,8164,8141,8210,8177,8184,8174,8164,8166,8163,8150,8155,8276,4.442388534545898,False
73,8172,8176,8178,8161,8199,8188,8156,8165,8168,8183,8175,8166,8172,8288,4.450278282165527,False
74,8166,8177,8164,8167,8157,8168,8143,8146,8165,8188,8178,8163,8183,8289,4.45819091796875,False
75,8169,8174,8183,8164,8174,8157,8181,8157,8157,8168,8177,8165,8196,8296,4.466093063354492,False
76,8156,8169,8158,8163,8162,8161,8127,8149,8162,8180,8176,8157,8207,8294,4.474075794219971,False
77,8149,8176,8160,8161,8185,8166,8180,8164,8164,8198,8169,8144,8187,8268,4.482182741165161,False
78,8133,8170,8160,8157,8161,8159,8161,8175,8166,8185,8171,8146,8178,8261,4.48915696144104,False
79,8119,8151,8153,8150,8163,8156,8140,8176,8168,8178,8177,8145,8186,8273,4.497347831726074,False
80,8139,8155,8176,8139,8197,8160,8184,8184,8161,8189,8177,8145,8180,8275,4.505393743515015,False
81,8128,8164,8147,8141,8153,8159,8130,8172,8163,8195,8172,8144,8175,8271,4.514188051223755,False
82,8123,8159,8160,8142,8170,8170,8184,8181,8161,8182,8171,8136,8164,8264,4.521271705627441,False
83,8125,8149,8164,8136,8155,8171,8158,8168,8158,8187,8163,8129,8158,8264,4.5293450355529785,False
84,8117,8151,8134,8135,8144,8159,8124,8146,8160,8195,8156,8133,8166,8267,4.537232160568237,False
85,8141,8166,8177,8138,8197,8168,8223,8165,8157,8185,8166,8146,8158,8265,4.545345306396484,False
86,8142,8160,8172,8132,8174,8172,8174,8162,8161,8172,8165,8138,8139,8261,4.552358627319336,False
87,8133,8154,8146,8123,8181,8164,8152,8164,8168,8152,8156,8132,8136,8259,4.560347318649292,False
88,8144,8164,8170,8135,8201,8160,8188,8184,8175,8156,8173,8138,8151,8259,4.568102598190308,False
89,8156,8177,8172,8161,8168,8161,8140,8182,8192,8187,8188,8151,8167,8274,4.576328754425049,False
90,8162,8183,8144,8171,8166,8162,8104,8170,8192,8197,8180,8157,8179,8288,4.5843186378479,False
91,8155,8181,8138,8158,8197,8160,8143,8166,8167,8181,8180,8144,8183,8277,4.592195749282837,False
92,8165,8186,8185,8162,8224,8164,8227,8176,8151,8177,8183,8137,8169,8256,4.600144147872925,False
93,8162,8187,8178,8185,8172,8157,8158,8163,8155,8181,8169,8146,8162,8260,4.608347415924072,False
94,8161,8194,8157,8194,8163,8160,8134,8158,8153,8172,8163,8153,8177,8275,4.616156339645386,False
95,8180,8207,8197,8198,8218,8186,8219,8187,8164,8173,8172,8160,8187,8276,4.623373031616211,False
96,8140,8188,8141,8186,8169,8197,8114,8181,8201,8203,8164,8153,8197,8275,4.63128924369812,False
97,8133,8169,8139,8162,8205,8194,8187,8201,8207,8212,8158,8148,8188,8269,4.639212846755981,False
98,8181,8183,8214,8161,8227,8184,8280,8229,8194,8201,8172,8165,8176,8272,4.647107362747192,False
99,8148,8176,8160,8167,8147,8169,8137,8197,8193,8208,8168,8167,8183,8287,4.655343770980835,False
100,8117,8154,8148,8149,8192,8173,8183,8181,8169,8194,8156,8158,8172,8276,4.663112640380859,False
101,8136,8154,8174,8152,8180,8181,8180,8159,8155,8178,8167,8163,8172,8270,4.671290874481201,False
102,8151,8176,8164,8181,8146,8186,8134,8143,8176,8188,8179,8171,8188,8283,4.679218530654907,False
103,8160,8179,8182,8175,8186,8194,8201,8157,8187,8185,8179,8171,8184,8282,4.686386585235596,False
104,8129,8157,8149,8148,8166,8182,8144,8138,8180,8175,8181,8158,8176,8271,4.694172143936157,False
105,8124,8158,8131,8152,8161,8162,8099,8117,8173,8180,8190,8157,8177,8275,4.702191114425659,False
106,8162,8185,8161,8197,8181,8158,8119,8117,8179,8200,8193,8176,8198,8302,4.710138559341431,False
107,8194,8215,8210,8222,8263,8167,8229,8148,8188,8207,8192,8197,8213,8321,4.718310594558716,False
108,8204,8219,8231,8203,8288,8160,8223,8161,8184,8207,8191,8202,8206,8320,4.726151704788208,False
109,8179,8210,8169,8200,8211,8131,8073,8142,8187,8220,8188,8189,8216,8326,4.734309434890747,False
110,8185,8210,8181,8211,8246,8134,8170,8179,8199,8230,8181,8186,8222,8326,4.742133855819702,False
111,8188,8194,8195,8200,8236,8154,8201,8200,8213,8226,8169,8187,8211,8319,4.7503321170806885,False
112,8150,8174,8138,8181,8187,8158,8146,8185,8206,8196,8156,8168,8191,8307,4.757128953933716,False
113,8136,8158,8148,8159,8204,8148,8208,8192,8181,8168,8154,8147,8167,8281,4.765307664871216,False
114,8128,8149,8148,8146,8183,8151,8155,8194,8198,8197,8167,8144,8175,8271,4.773102760314941,False
115,8153,8169,8167,8174,8216,8181,8186,8212,8220,8220,8176,8159,8192,8287,4.781378507614136,False
116,8176,8185,8180,8199,8199,8192,8189,8205,8213,8203,8172,8166,8193,8305,4.78913140296936,False
117,8170,8188,8167,8189,8172,8172,8149,8187,8211,8202,8163,8169,8196,8310,4.797314167022705,False
118,8204,8214,8206,8204,8210,8164,8191,8194,8213,8221,8168,8189,8210,8317,4.805125713348389,False
119,8207,8226,8182,8230,8185,8164,8129,8155,8205,8230,8180,8183,8218,8326,4.813302993774414,False
120,8186,8209,8163,8218,8227,8167,8153,8125,8184,8217,8178,8169,8205,8317,4.820087194442749,False
121,8181,8194,8167,8194,8240,8167,8158,8129,8178,8203,8182,8186,8206,8318,4.828179836273193,False
122,8171,8193,8143,8189,8180,8158,8126,8139,8186,8204,8183,8187,8217,8323,4.836140871047974,False
123,8186,8206,8188,8209,8203,8164,8226,8176,8195,8215,8178,8177,8215,8308,4.844299077987671,False
124,8188,8205,8202,8221,8194,8161,8191,8188,8210,8238,8174,8178,8219,8308,4.852123975753784,False
125,8177,8196,8161,8202,8154,8129,8120,8184,8210,8232,8168,8167,8220,8314,4.860341787338257,False
126,8187,8201,8154,8187,8146,8116,8135,8196,8200,8221,8172,8161,8216,8306,4.868168830871582,False
127,8187,8203,8154,8197,8168,8132,8158,8195,8199,8226,8177,8166,8213,8299,4.876301288604736,False
238,8164,8194,8154,8191,8183,8144,8183,8181,8201,8211,8163,8159,8191,8280,4.884119033813477,False
0,8145,8192,8137,8182,8146,8140,8137,8164,8204,8208,8154,8144,8182,8259,4.891183376312256,False
1,8190,8213,8194,8201,8204,8156,8229,8183,8199,8206,8177,8170,8196,8270,4.899328708648682,False
2,8210,8218,8232,8217,8216,8172,8221,8177,8192,8203,8190,8199,8206,8290,4.907275676727295,False
3,8170,8213,8166,8226,8159,8166,8079,8135,8200,8207,8182,8191,8209,8296,4.915159702301025,False
4,8199,8232,8206,8230,8234,8169,8197,8150,8183,8174,8183,8191,8201,8296,4.923308849334717,False
5,8195,8225,8208,8209,8208,8161,8186,8142,8147,8146,8170,8176,8185,8283,4.931111812591553,False
6,8148,8207,8144,8196,8153,8148,8129,8126,8140,8168,8159,8158,8178,8261,4.939386367797852,True
7,8183,8216,8187,8214,8187,8162,8202,8145,8164,8196,8176,8180,8204,8278,4.946253299713135,True
8,8202,8227,8200,8240,8179,8181,8163,8148,8195,8206,8185,8195,8243,8322,4.954300880432129,True
9,8208,8235,8202,8251,8205,8174,8191,8172,8208,8232,8188,8198,8246,8336,4.962167739868164,True
10,8217,8224,8191,8234,8177,8152,8163,8180,8210,8246,8200,8206,8247,8341,4.970283508300781,True
11,8200,8199,8166,8193,8171,8156,8149,8176,8202,8216,8187,8190,8246,8335,4.978101015090942,True
12,8185,8174,8174,8169,8215,8156,8193,8190,8185,8207,8162,8164,8226,8315,4.986322402954102,True
13,8173,8153,8150,8163,8193,8136,8146,8189,8191,8237,8158,8159,8221,8316,4.994146347045898,True
14,8188,8155,8170,8157,8196,8152,8193,8211,8207,8235,8161,8171,8218,8320,5.002265691757202,True
15,8184,8160,8174,8164,8165,8180,8168,8221,8214,8211,8160,8168,8207,8310,5.01012921333313,True
16,8162,8149,8150,8168,8158,8185,8146,8209,8205,8209,8157,8151,8193,8302,5.0171661376953125,True
17,8178,8144,8177,8154,8194,8193,8208,8205,8192,8215,8159,8160,8182,8311,5.025290012359619,True
18,8176,8153,8163,8151,8164,8196,8149,8190,8203,8216,8169,8170,8195,8323,5.033334016799927,True
19,8171,8171,8168,8172,8194,8204,8179,8197,8210,8206,8170,8171,8204,8307,5.041171789169312,True
20,8179,8176,8178,8190,8199,8218,8184,8194,8200,8211,8172,8171,8201,8305,5.04925012588501,True
21,8177,8180,8161,8196,8191,8223,8149,8184,8200,8229,8176,8169,8206,8326,5.0569822788238525,True
22,8184,8188,8188,8213,8219,8222,8195,8193,8203,8222,8174,8171,8205,8307,5.065395355224609,True
23,8169,8190,8171,8228,8175,8204,8138,8176,8209,8224,8176,8172,8212,8275,5.073270559310913,True
24,8159,8196,8170,8218,8209,8195,8169,8166,8210,8241,8181,8179,8219,8276,5.080190896987915,True
25,8150,8190,8184,8199,8229,8194,8187,8169,8209,8241,8180,8179,8222,8284,5.088186025619507,True
26,8132,8162,8154,8193,8185,8176,8143,8171,8202,8217,8174,8158,8216,8264,5.096092462539673,True
27,8158,8151,8178,8189,8210,8164,8195,8189,8179,8194,8172,8157,8196,8255,5.103928565979004,True
28,8173,8155,8179,8192,8214,8160,8145,8180,8175,8210,8163,8171,8199,8283,5.1122870445251465,True
29,8177,8152,8168,8188,8227,8150,8159,8183,8171,8210,8147,8167,8194,8293,5.120105981826782,True
30,8177,8136,8172,8158,8206,8137,8182,8187,8151,8177,8145,8152,8160,8277,5.128164052963257,True
31,8172,8141,8158,8159,8196,8133,8130,8178,8147,8176,8153,8160,8155,8277,5.136134147644043,True
32,8205,8173,8197,8189,8261,8137,8186,8207,8156,8195,8167,8193,8190,8310,5.143221855163574,True
33,8201,8167,8180,8177,8233,8147,8152,8202,8170,8204,8164,8190,8211,8340,5.151205778121948,True
34,8172,8146,8145,8149,8227,8174,8162,8188,8181,8213,8158,8157,8192,8328,5.159053087234497,True
35,8183,8158,8164,8162,8234,8190,8191,8188,8179,8209,8164,8149,8177,8303,5.167123556137085,True
36,8182,8160,8153,8170,8184,8184,8131,8165,8163,8178,8164,8153,8174,8294,5.175118684768677,True
37,8176,8137,8168,8153,8210,8181,8187,8162,8153,8156,8161,8148,8159,8286,5.184586524963379,True
38,8156,8130,8156,8155,8192,8178,8157,8154,8168,8179,8165,8148,8166,8284,5.191052675247192,True
39,8151,8151,8152,8163,8178,8179,8152,8164,8181,8194,8167,8160,8185,8291,5.199079513549805,True
40,8171,8155,8193,8162,8204,8190,8196,8190,8188,8192,8172,8174,8192,8292,5.207125425338745,True
41,8154,8144,8162,8164,8188,8193,8143,8179,8202,8206,8178,8172,8197,8295,5.213967800140381,True
42,8154,8153,8163,8157,8221,8191,8193,8180,8193,8201,8168,8175,8183,8297,5.222247123718262,True
43,8175,8163,8184,8158,8203,8181,8160,8178,8186,8192,8164,8184,8187,8308,5.230045795440674,True
44,8184,8164,8179,8179,8203,8176,8140,8179,8200,8204,8177,8189,8214,8322,5.238129377365112,True
45,8177,8150,8178,8167,8231,8179,8202,8178,8196,8191,8170,8181,8207,8305,5.246237277984619,True
46,8130,8130,8138,8126,8176,8164,8140,8142,8171,8163,8152,8158,8177,8264,5.254222631454468,True
47,8149,8141,8168,8132,8189,8158,8177,8139,8150,8156,8162,8169,8165,8261,5.26227593421936,True
48,8193,8148,8192,8169,8183,8161,8172,8139,8149,8173,8183,8187,8180,8295,5.270126104354858,True
49,8178,8131,8157,8162,8173,8157,8135,8132,8157,8182,8179,8174,8187,8300,5.277174234390259,True
50,8177,8126,8175,8149,8208,8159,8186,8154,8155,8181,8168,8178,8185,8285,5.285206317901611,True
51,8178,8134,8165,8176,8170,8157,8136,8150,8155,8196,8172,8192,8198,8300,5.293060541152954,True
52,8202,8153,8179,8200,8197,8159,8163,8148,8156,8208,8186,8197,8208,8318,5.301213264465332,True
53,8232,8155,8204,8192,8204,8158,8163,8147,8161,8205,8193,8208,8223,8320,5.3092360496521,True
54,8205,8136,8170,8183,8181,8158,8134,8135,8160,8189,8186,8212,8231,8311,5.317298650741577,True
55,8179,8133,8175,8191,8224,8166,8199,8141,8151,8183,8172,8201,8210,8293,5.325159549713135,True
56,8167,8127,8162,8188,8198,8162,8150,8135,8164,8199,8160,8180,8195,8283,5.333338499069214,True
57,8175,8113,8161,8168,8191,8155,8167,8154,8177,8186,8158,8177,8189,8283,5.341288328170776,True
58,8168,8102,8169,8150,8190,8163,8184,8181,8179,8181,8166,8181,8181,8277,5.348087787628174,True
59,8128,8083,8130,8141,8173,8171,8143,8187,8193,8196,8168,8163,8178,8264,5.356284141540527,True
60,8132,8081,8153,8149,8219,8164,8194,8202,8201,8181,8171,8159,8177,8260,5.364335775375366,True
61,8156,8105,8169,8170,8215,8147,8142,8193,8195,8174,8177,8179,8191,8280,5.372080326080322,True
62,8175,8123,8171,8172,8223,8146,8157,8178,8172,8172,8165,8184,8181,8284,5.38037633895874,True
63,8181,8117,8178,8156,8212,8152,8183,8160,8146,8155,8155,8178,8158,8274,5.388348340988159,True
64,8178,8120,8169,8178,8184,8151,8124,8143,8144,8166,8175,8199,8186,8291,5.397083282470703,True
65,8210,8147,8209,8216,8202,8161,8183,8166,8159,8198,8198,8232,8228,8317,5.404287099838257,True
66,8218,8152,8197,8220,8134,8168,8155,8160,8176,8210,8196,8236,8236,8330,5.411336660385132,True
67,8215,8143,8177,8205,8139,8166,8156,8155,8183,8205,8184,8232,8225,8338,5.419240474700928,True
68,8231,8136,8200,8205,8181,8165,8186,8172,8181,8207,8178,8236,8229,8345,5.427336692810059,True
69,8215,8130,8168,8205,8134,8157,8127,8163,8176,8203,8169,8222,8237,8338,5.4351654052734375,True
70,8213,8125,8170,8176,8145,8146,8184,8164,8159,8186,8165,8206,8223,8324,5.443331241607666,False
71,8203,8114,8168,8157,8123,8141,8162,8154,8148,8185,8166,8198,8215,8329,5.452287197113037,False
72,8184,8114,8157,8170,8110,8153,8150,8152,8144,8191,8160,8197,8213,8332,5.459333181381226,False
73,8193,8112,8181,8169,8122,8149,8192,8169,8139,8189,8162,8204,8208,8320,5.467339754104614,False
74,8180,8099,8158,8156,8094,8133,8140,8165,8158,8196,8175,8204,8216,8314,5.475144624710083,False
75,8181,8106,8173,8164,8135,8155,8195,8189,8183,8194,8178,8211,8217,8308,5.482096195220947,False
76,8186,8109,8173,8169,8137,8179,8182,8204,8201,8194,8160,8208,8210,8300,5.490338563919067,False
77,8175,8097,8145,8154,8135,8174,8158,8202,8207,8199,8150,8199,8198,8303,5.498072385787964,False
78,8171,8096,8167,8156,8160,8174,8198,8197,8192,8172,8160,8204,8176,8288,5.506412506103516,False
79,8147,8110,8153,8170,8128,8181,8132,8172,8192,8157,8161,8194,8166,8256,5.514288663864136,False
80,8159,8130,8166,8165,8163,8175,8173,8162,8184,8169,8156,8189,8163,8250,5.52223801612854,False
81,8180,8128,8185,8162,8156,8154,8175,8131,8155,8174,8156,8203,8169,8275,5.5301032066345215,False
82,8177,8120,8162,8179,8117,8148,8114,8109,8147,8167,8159,8204,8183,8292,5.538413047790527,False
83,8213,8145,8200,8200,8176,8169,8194,8146,8154,8172,8167,8205,8188,8296,5.545285701751709,False
84,8225,8153,8201,8203,8161,8170,8172,8153,8154,8184,8166,8203,8189,8304,5.553315877914429,False
85,8178,8125,8127,8181,8099,8150,8089,8132,8151,8169,8153,8184,8183,8294,5.561248302459717,False
86,8148,8109,8107,8156,8114,8158,8125,8148,8155,8148,8148,8165,8164,8268,5.56932544708252,False
87,8160,8121,8163,8157,8167,8174,8225,8186,8160,8155,8156,8171,8164,8268,5.5772788524627686,False
88,8182,8134,8195,8179,8146,8168,8206,8192,8173,8188,8167,8197,8197,8313,5.585327386856079,False
89,8183,8130,8145,8196,8082,8151,8100,8161,8186,8204,8169,8205,8225,8348,5.593232870101929,False
90,8208,8127,8195,8184,8158,8157,8255,8184,8163,8170,8164,8197,8203,8318,5.601316452026367,False
91,8210,8127,8228,8171,8132,8171,8233,8193,8151,8170,8167,8200,8196,8307,5.609260320663452,False
92,8172,8135,8143,8184,8061,8178,8062,8164,8178,8209,8170,8206,8225,8341,5.616328001022339,False
93,8204,8141,8184,8188,8163,8183,8224,8185,8188,8190,8167,8203,8216,8328,5.624094486236572,False
94,8205,8120,8204,8160,8129,8171,8214,8178,8188,8176,8176,8192,8201,8300,5.632330894470215,False
95,8157,8111,8150,8156,8076,8157,8124,8163,8193,8201,8179,8186,8202,8309,5.640313625335693,False
96,8172,8128,8182,8181,8127,8155,8185,8173,8178,8197,8170,8195,8200,8325,5.648053646087647,False
97,8189,8128,8180,8180,8100,8154,8139,8158,8168,8183,8171,8193,8213,8332,5.656085729598999,False
98,8180,8116,8139,8159,8072,8149,8118,8156,8175,8188,8172,8184,8220,8337,5.664165496826172,False
99,8174,8114,8132,8158,8083,8139,8147,8165,8174,8198,8165,8186,8213,8335,5.672078847885132,False
100,8197,8121,8174,8166,8127,8150,8197,8170,8158,8191,8160,8185,8191,8317,5.679304838180542,False
101,8188,8122,8160,8157,8108,8155,8138,8165,8156,8179,8163,8175,8186,8303,5.68709921836853,False
102,8140,8117,8104,8143,8100,8144,8112,8171,8171,8179,8168,8170,8197,8306,5.6953184604644775,False
103,8159,8117,8175,8138,8183,8149,8278,8199,8160,8175,8169,8172,8171,8291,5.703145503997803,False
104,8162,8099,8195,8127,8134,8147,8194,8177,8150,8171,8156,8159,8141,8266,5.7113196849823,False
105,8126,8086,8139,8111,8125,8135,8112,8166,8160,8167,8152,8149,8142,8249,5.719180345535278,False
106,8140,8105,8169,8115,8186,8141,8207,8188,8160,8158,8163,8164,8150,8251,5.727243900299072,False
107,8149,8119,8165,8134,8118,8148,8142,8161,8154,8158,8162,8170,8156,8278,5.735263824462891,False
108,8150,8114,8167,8130,8125,8150,8169,8158,8143,8163,8155,8160,8145,8272,5.742332696914673,False
109,8141,8104,8163,8123,8130,8139,8164,8166,8142,8158,8158,8151,8140,8234,5.75009298324585,False
110,8149,8124,8156,8148,8113,8130,8134,8164,8150,8148,8161,8164,8169,8252,5.758183002471924,False
111,8190,8150,8201,8168,8149,8141,8198,8179,8159,8166,8170,8193,8186,8308,5.766275644302368,False
112,8168,8137,8166,8163,8127,8142,8143,8161,8167,8190,8175,8184,8172,8309,5.774219274520874,False
113,8146,8133,8160,8161,8138,8136,8169,8157,8150,8178,8166,8164,8159,8276,5.78227972984314,False
114,8169,8154,8196,8173,8119,8137,8170,8158,8145,8179,8178,8188,8182,8286,5.790363788604736,False
115,8170,8159,8179,8176,8106,8135,8143,8159,8160,8194,8198,8211,8210,8311,5.79811429977417,False
116,8170,8153,8191,8180,8148,8138,8198,8184,8153,8189,8194,8216,8203,8325,5.805231332778931,False
117,8169,8155,8190,8193,8110,8133,8144,8187,8160,8194,8199,8226,8207,8337,5.813185453414917,False
118,8176,8165,8204,8189,8119,8117,8173,8191,8178,8197,8212,8243,8218,8317,5.821331977844238,False
119,8181,8166,8219,8178,8140,8112,8209,8190,8173,8194,8198,8247,8205,8290,5.82927942276001,False
120,8170,8164,8184,8176,8093,8119,8130,8175,8169,8188,8180,8242,8200,8309,5.837296009063721,False
121,8196,8177,8197,8191,8093,8129,8139,8178,8172,8173,8187,8255,8216,8342,5.845275163650513,False
122,8222,8192,8219,8216,8108,8124,8155,8164,8153,8173,8194,8263,8224,8346,5.853266954421997,False
123,8219,8194,8200,8215,8108,8109,8147,8144,8126,8168,8184,8250,8205,8334,5.861245393753052,False
124,8206,8186,8161,8200,8075,8095,8105,8131,8124,8147,8172,8224,8191,8323,5.869339466094971,False
125,8211,8185,8174,8191,8116,8105,8173,8141,8125,8146,8165,8207,8182,8311,5.876233816146851,False
126,8238,8183,8244,8176,8194,8128,8293,8168,8114,8159,8166,8209,8157,8297,5.884338617324829,False
127,8185,8156,8169,8147,8104,8112,8126,8144,8126,8156,8163,8180,8149,8281,5.892107963562012,False
238,8140,8150,8117,8131,8106,8106,8126,8155,8147,8150,8153,8146,8152,8268,5.900104522705078,False
0,8172,8160,8181,8130,8157,8133,8230,8194,8168,8172,8162,8164,8166,8278,5.908221960067749,False
1,8163,8160,8146,8137,8098,8150,8115,8176,8196,8211,8176,8178,8193,8293,5.916159629821777,False
2,8165,8176,8142,8149,8139,8159,8173,8180,8191,8215,8174,8174,8190,8279,5.924090623855591,False
3,8195,8187,8181,8147,8148,8161,8198,8185,8181,8196,8165,8177,8171,8277,5.9322509765625,False
4,8198,8188,8165,8148,8119,8160,8119,8169,8196,8186,8159,8176,8163,8296,5.939218044281006,False
5,8189,8198,8151,8157,8143,8164,8142,8165,8200,8192,8149,8171,8156,8300,5.9471354484558105,False
6,8172,8206,8143,8162,8136,8163,8149,8158,8184,8189,8145,8171,8150,8292,5.955235719680786,False
7,8191,8208,8167,8160,8138,8160,8157,8158,8176,8166,8161,8178,8151,8295,5.963333606719971,False
8,8205,8194,8150,8142,8110,8152,8122,8147,8172,8170,8164,8164,8156,8305,5.9711668491363525,False
9,8195,8188,8151,8122,8139,8141,8200,8158,8147,8182,8151,8146,8149,8293,5.979312419891357,False
10,8195,8200,8203,8122,8164,8141,8243,8167,8123,8174,8158,8158,8137,8285,5.987217903137207,False
11,8179,8200,8157,8136,8106,8138,8103,8137,8133,8174,8167,8168,8148,8309,5.995145559310913,False
12,8183,8188,8147,8131,8144,8141,8170,8152,8141,8176,8168,8167,8161,8311,6.002129793167114,False
13,8175,8180,8165,8123,8142,8151,8188,8178,8151,8192,8168,8165,8166,8286,6.009994745254517,False
14,8150,8192,8145,8130,8128,8162,8130,8186,8176,8211,8166,8158,8159,8272,6.018012046813965,False
15,8175,8209,8176,8134,8169,8169,8195,8190,8173,8192,8162,8147,8136,8248,6.026071071624756,False
16,8166,8192,8149,8122,8122,8175,8142,8163,8170,8183,8160,8139,8134,8233,6.034260749816895,False
17,8138,8175,8134,8113,8155,8188,8179,8175,8185,8191,8164,8144,8128,8246,6.042059183120728,False
18,8128,8177,8154,8123,8179,8180,8190,8183,8191,8187,8166,8143,8121,8247,6.050090074539185,False
19,8126,8188,8139,8132,8159,8177,8148,8165,8191,8186,8162,8140,8129,8238,6.058223247528076,False
20,8145,8198,8159,8129,8170,8192,8199,8180,8187,8180,8159,8154,8126,8244,6.066239833831787,False
21,8136,8194,8150,8129,8121,8178,8136,8173,8182,8175,8161,8153,8123,8249,6.073000907897949,False
22,8153,8196,8166,8130,8142,8153,8158,8158,8159,8164,8161,8144,8119,8242,6.081197738647461,False
23,8189,8202,8192,8138,8145,8144,8175,8150,8138,8143,8165,8161,8125,8261,6.08911919593811,False
24,8183,8206,8168,8152,8119,8148,8132,8153,8144,8143,8166,8183,8153,8300,6.097190856933594,False
25,8187,8209,8184,8141,8188,8169,8193,8183,8155,8164,8163,8187,8166,8317,6.105205059051514,False
26,8178,8203,8165,8128,8205,8173,8151,8178,8161,8179,8177,8171,8163,8311,6.113116025924683,False
27,8172,8199,8156,8140,8217,8161,8166,8170,8157,8171,8179,8161,8152,8289,6.121110677719116,False
28,8173,8193,8171,8138,8203,8168,8185,8171,8161,8173,8170,8170,8154,8279,6.1281561851501465,False
29,8142,8183,8136,8123,8175,8177,8129,8160,8170,8182,8171,8164,8163,8273,6.136159420013428,False
30,8146,8197,8154,8138,8250,8180,8196,8173,8163,8181,8170,8154,8149,8247,6.144185304641724,False
31,8155,8209,8157,8164,8245,8185,8168,8169,8169,8193,8173,8150,8139,8245,6.152214527130127,False
32,8149,8200,8156,8158,8186,8193,8160,8165,8171,8186,8178,8156,8139,8259,6.16020655632019,False
33,8150,8184,8178,8133,8145,8188,8181,8168,8164,8175,8174,8164,8145,8260,6.168068885803223,False
34,8137,8177,8145,8122,8126,8181,8136,8162,8176,8190,8163,8159,8159,8263,6.176138639450073,False
35,8146,8196,8159,8140,8158,8200,8197,8185,8185,8191,8168,8171,8163,8268,6.183225870132446,False
36,8150,8212,8176,8169,8132,8205,8160,8185,8184,8191,8181,8189,8175,8281,6.191086292266846,False
37,8147,8215,8167,8172,8175,8181,8149,8171,8178,8191,8174,8180,8172,8287,6.199003458023071,False
38,8164,8217,8182,8158,8249,8179,8199,8170,8162,8177,8161,8176,8158,8283,6.207152605056763,False
39,8156,8217,8157,8153,8214,8189,8140,8154,8149,8179,8160,8181,8170,8283,6.215033054351807,False
40,8160,8225,8170,8160,8192,8184,8181,8154,8136,8184,8169,8177,8162,8272,6.223026752471924,False
41,8163,8225,8177,8178,8139,8175,8157,8146,8135,8175,8167,8157,8142,8253,6.231160402297974,False
42,8140,8215,8147,8169,8129,8191,8139,8155,8139,8174,8153,8135,8143,8226,6.239164352416992,False
43,8126,8197,8143,8130,8149,8198,8195,8179,8116,8165,8139,8126,8135,8204,6.248128414154053,False
44,8109,8184,8119,8122,8093,8175,8137,8164,8096,8149,8139,8131,8120,8212,6.255105018615723,False
45,8121,8189,8145,8133,8134,8172,8175,8170,8102,8146,8150,8150,8118,8221,6.26308012008667,False
46,8112,8171,8146,8111,8149,8179,8177,8173,8113,8152,8154,8154,8124,8214,6.270093202590942,False
47,8082,8148,8115,8093,8125,8181,8162,8165,8114,8152,8149,8143,8123,8205,6.278040409088135,False
48,8104,8159,8161,8105,8160,8196,8217,8185,8117,8157,8152,8146,8113,8196,6.286252737045288,False
49,8109,8166,8156,8111,8140,8190,8142,8168,8137,8165,8156,8148,8107,8191,6.294078350067139,False
50,8114,8165,8158,8117,8157,8166,8165,8150,8137,8152,8158,8144,8106,8203,6.302027225494385,False
51,8133,8179,8170,8132,8147,8147,8170,8140,8118,8149,8167,8150,8124,8227,6.310235023498535,False
52,8126,8189,8153,8134,8135,8147,8138,8131,8102,8152,8168,8166,8137,8238,6.3181352615356445,False
53,8140,8193,8200,8140,8190,8151,8204,8144,8086,8141,8165,8193,8134,8254,6.326010704040527,False
54,8143,8197,8193,8163,8157,8144,8137,8135,8087,8150,8176,8199,8157,8271,6.333162546157837,False
55,8141,8191,8165,8160,8149,8151,8145,8146,8093,8163,8186,8188,8168,8252,6.3411545753479,False
56,8141,8179,8168,8142,8147,8161,8175,8155,8097,8172,8175,8181,8155,8238,6.349044799804688,False
57,8121,8185,8150,8139,8136,8168,8134,8141,8112,8177,8157,8162,8154,8247,6.357290029525757,False
58,8126,8195,8165,8138,8180,8180,8183,8156,8124,8161,8162,8154,8150,8249,6.365152835845947,False
59,8121,8164,8146,8127,8138,8167,8143,8154,8121,8156,8165,8158,8138,8245,6.373022079467773,False
60,8120,8148,8144,8120,8124,8155,8157,8160,8112,8162,8161,8159,8133,8240,6.381205320358276,False
61,8147,8179,8181,8129,8152,8170,8188,8185,8138,8180,8172,8165,8152,8257,6.389104127883911,False
62,8145,8189,8160,8138,8142,8175,8140,8189,8170,8197,8179,8166,8172,8279,6.396224737167358,False
63,8126,8157,8154,8118,8146,8164,8191,8191,8148,8182,8167,8149,8150,8256,6.4042065143585205,False
64,8101,8131,8141,8098,8105,8172,8155,8174,8131,8166,8156,8132,8128,8229,6.412075757980347,False
65,8108,8149,8143,8116,8129,8195,8155,8176,8143,8162,8164,8139,8142,8235,6.4201648235321045,False
66,8116,8163,8162,8127,8161,8193,8191,8189,8144,8162,8166,8146,8151,8237,6.428071737289429,False
67,8084,8150,8129,8110,8126,8178,8138,8172,8142,8171,8160,8135,8139,8234,6.436302900314331,False
68,8104,8150,8154,8120,8168,8186,8187,8174,8141,8182,8161,8146,8132,8240,6.444207906723023,False
69,8129,8161,8168,8137,8170,8194,8157,8173,8146,8188,8166,8161,8147,8245,6.452032566070557,False
70,8125,8170,8149,8126,8162,8188,8146,8174,8148,8190,8168,8156,8154,8248,6.4601731300354,False
71,8143,8178,8177,8137,8171,8176,8182,8166,8129,8182,8177,8163,8149,8258,6.4671478271484375,False
72,8147,8191,8168,8171,8135,8172,8120,8138,8117,8182,8178,8173,8164,8274,6.476114511489868,False
73,8154,8201,8178,8160,8177,8195,8176,8158,8117,8178,8167,8173,8169,8283,6.483062982559204,False
74,8144,8180,8168,8131,8171,8202,8165,8162,8110,8168,8173,8159,8158,8278,6.491196155548096,False
75,8124,8163,8145,8126,8149,8183,8139,8145,8099,8160,8177,8151,8149,8269,6.499080181121826,False
76,8149,8177,8181,8138,8174,8177,8193,8172,8117,8165,8179,8175,8167,8281,6.507142782211304,False
77,8151,8177,8167,8160,8157,8182,8132,8199,8164,8203,8184,8184,8205,8305,6.515153408050537,False
78,8144,8172,8164,8159,8188,8191,8167,8220,8185,8224,8177,8168,8194,8292,6.523162841796875,False
79,8143,8175,8165,8134,8171,8188,8166,8220,8184,8207,8172,8159,8169,8271,6.530052423477173,False
80,8125,8175,8139,8126,8149,8175,8133,8213,8181,8193,8174,8159,8172,8268,6.5381035804748535,False
81,8125,8173,8163,8135,8183,8174,8191,8215,8164,8191,8175,8164,8171,8266,6.5461273193359375,False
82,8115,8154,8144,8128,8146,8164,8142,8186,8145,8180,8161,8162,8167,8272,6.554208755493164,False
83,8125,8149,8150,8119,8169,8159,8171,8175,8128,8169,8157,8166,8163,8280,6.562259435653687,False
84,8151,8174,8186,8137,8174,8164,8179,8177,8135,8183,8175,8182,8174,8281,6.5701680183410645,False
85,8156,8195,8170,8161,8148,8170,8138,8179,8162,8193,8182,8186,8193,8286,6.577976703643799,False
86,8168,8190,8180,8153,8196,8183,8198,8198,8166,8182,8168,8179,8187,8292,6.5861289501190186,False
87,8149,8180,8161,8137,8165,8191,8146,8176,8158,8190,8167,8175,8173,8294,6.594158172607422,False
88,8142,8191,8161,8152,8156,8192,8160,8168,8158,8205,8178,8186,8179,8292,6.601233959197998,False
89,8163,8200,8181,8172,8219,8191,8179,8177,8161,8211,8174,8196,8202,8301,6.609177350997925,False
90,8161,8201,8158,8170,8245,8192,8127,8165,8171,8212,8171,8187,8217,8316,6.618183135986328,False
91,8158,8194,8171,8159,8211,8188,8177,8172,8165,8201,8175,8176,8198,8308,6.625171184539795,False
92,8139,8171,8157,8139,8116,8165,8134,8160,8143,8199,8162,8166,8172,8290,6.633196830749512,False
93,8137,8174,8153,8128,8145,8148,8146,8152,8120,8180,8157,8157,8153,8282,6.641141653060913,False
94,8147,8186,8170,8134,8190,8157,8188,8166,8121,8155,8173,8158,8153,8282,6.64913535118103,False
95,8126,8175,8138,8133,8156,8172,8142,8170,8135,8167,8175,8156,8168,8278,6.657069206237793,False
96,8137,8176,8160,8130,8191,8169,8192,8173,8121,8169,8163,8151,8162,8269,6.664056777954102,False
97,8153,8191,8163,8147,8216,8154,8157,8156,8109,8158,8160,8148,8156,8281,6.6721720695495605,False
98,8156,8195,8160,8160,8284,8158,8162,8166,8117,8151,8161,8157,8163,8298,6.680227518081665,False
99,8176,8197,8193,8164,8288,8172,8198,8186,8122,8155,8169,8176,8168,8297,6.688143253326416,False
100,8181,8213,8176,8179,8197,8162,8129,8165,8132,8182,8184,8185,8180,8295,6.696080923080444,False
101,8180,8221,8176,8166,8223,8147,8179,8158,8121,8180,8182,8183,8169,8292,6.704022407531738,False
102,8161,8201,8158,8134,8217,8143,8164,8142,8099,8154,8164,8172,8165,8292,6.712200880050659,False
103,8147,8196,8143,8136,8212,8145,8146,8136,8094,8147,8159,8163,8176,8279,6.720218181610107,False
104,8147,8202,8170,8141,8248,8137,8180,8147,8084,8144,8162,8158,8157,8249,6.727275609970093,False
105,8128,8194,8151,8135,8220,8123,8127,8135,8080,8141,8167,8156,8143,8252,6.735244274139404,False
106,8153,8209,8174,8154,8228,8142,8186,8154,8093,8140,8179,8176,8156,8284,6.743031978607178,False
107,8164,8218,8176,8164,8184,8155,8166,8162,8106,8141,8185,8180,8162,8282,6.7511515617370605,False
108,8134,8202,8146,8150,8139,8149,8131,8158,8111,8149,8178,8158,8146,8252,6.7592246532440186,False
109,8154,8210,8183,8164,8174,8161,8196,8185,8128,8167,8177,8166,8151,8264,6.767137765884399,False
110,8182,8229,8181,8196,8192,8160,8153,8186,8156,8182,8184,8193,8186,8317,6.775135040283203,False
111,8206,8238,8183,8209,8260,8152,8179,8181,8157,8187,8185,8214,8200,8346,6.783203601837158,False
112,8194,8226,8181,8194,8264,8162,8164,8155,8137,8187,8187,8213,8188,8335,6.790298938751221,False
113,8154,8212,8154,8169,8206,8163,8131,8127,8126,8161,8182,8192,8177,8306,6.798330068588257,False
114,8176,8225,8181,8164,8182,8150,8191,8136,8125,8143,8173,8193,8174,8298,6.806103467941284,False
115,8179,8217,8154,8165,8115,8144,8133,8124,8121,8165,8175,8189,8179,8315,6.814173460006714,False
116,8143,8187,8136,8147,8133,8156,8155,8128,8108,8158,8178,8176,8173,8305,6.823223114013672,False
117,8138,8195,8167,8151,8151,8160,8174,8148,8121,8147,8176,8182,8175,8281,6.830075025558472,False
118,8161,8232,8168,8190,8126,8160,8138,8152,8144,8177,8180,8190,8195,8287,6.838213205337524,False
119,8189,8238,8186,8193,8155,8167,8196,8167,8145,8190,8188,8202,8199,8314,6.846296787261963,False
120,8176,8212,8171,8164,8132,8160,8144,8168,8153,8181,8183,8208,8191,8329,6.854320764541626,False
121,8178,8212,8172,8169,8151,8158,8158,8177,8164,8186,8174,8196,8184,8310,6.861119747161865,False
122,8198,8230,8195,8190,8156,8165,8182,8180,8169,8203,8171,8196,8193,8296,6.869302272796631,False
123,8188,8233,8172,8188,8123,8165,8128,8157,8170,8191,8169,8202,8198,8306,6.877270698547363,False
124,8198,8228,8185,8188,8170,8164,8184,8156,8153,8161,8172,8197,8174,8307,6.885244131088257,False
125,8191,8214,8169,8186,8152,8167,8152,8141,8140,8159,8166,8174,8161,8293,6.893396615982056,False
126,8178,8213,8159,8169,8150,8180,8158,8135,8132,8171,8157,8171,8167,8287,6.901101589202881,False
127,8204,8230,8195,8180,8172,8181,8189,8154,8135,8179,8166,8203,8192,8320,6.909160852432251,False
238,8204,8236,8172,8198,8145,8163,8133,8161,8161,8193,8174,8211,8216,8346,6.917274713516235,False
0,8189,8231,8172,8186,8158,8160,8187,8177,8166,8205,8164,8192,8198,8314,6.924267768859863,False
1,8177,8236,8171,8190,8135,8163,8156,8168,8155,8201,8158,8181,8187,8295,6.932074546813965,False
2,8195,8255,8170,8208,8152,8164,8146,8167,8160,8184,8173,8203,8211,8330,6.940218925476074,False
3,8224,8250,8193,8204,8181,8157,8189,8177,8162,8184,8182,8225,8224,8354,6.948299169540405,False
4,8192,8225,8158,8196,8145,8143,8136,8153,8157,8192,8165,8200,8206,8328,6.95609188079834,False
5,8167,8221,8156,8188,8164,8146,8182,8158,8147,8168,8156,8171,8174,8290,6.9642722606658936,False
6,8154,8215,8151,8168,8130,8154,8161,8169,8146,8159,8160,8165,8159,8268,6.972284317016602,False
7,8142,8214,8138,8164,8116,8159,8154,8178,8162,8178,8162,8162,8160,8252,6.980172157287598,False
8,8155,8216,8172,8169,8153,8169,8207,8195,8171,8177,8160,8158,8156,8254,6.988187074661255,False
9,8150,8195,8148,8168,8121,8168,8139,8181,8166,8165,8158,8157,8157,8280,6.99530291557312,False
10,8168,8200,8157,8178,8160,8161,8188,8177,8155,8162,8160,8162,8154,8283,7.0031578540802,False
11,8180,8224,8177,8183,8165,8161,8188,8172,8158,8173,8165,8157,8153,8272,7.011128664016724,False
12,8151,8213,8139,8167,8129,8159,8126,8167,8164,8191,8160,8145,8153,8268,7.019147157669067,False
13,8158,8193,8156,8162,8173,8162,8195,8181,8158,8189,8162,8156,8150,8266,7.0273096561431885,False
14,8182,8203,8179,8186,8178,8162,8170,8170,8159,8193,8183,8172,8171,8289,7.03506875038147,False
15,8188,8221,8167,8209,8181,8144,8108,8149,8140,8198,8182,8177,8179,8308,7.043132543563843,False
16,8191,8218,8143,8208,8184,8121,8093,8142,8115,8184,8174,8181,8175,8306,7.051196813583374,False
17,8208,8209,8176,8194,8222,8127,8202,8171,8125,8173,8183,8189,8196,8314,7.058125734329224,False
18,8215,8195,8230,8184,8245,8145,8264,8194,8145,8181,8185,8188,8211,8318,7.066322565078735,False
19,8158,8191,8144,8190,8138,8141,8076,8158,8159,8198,8172,8167,8201,8305,7.074320554733276,False
20,8149,8209,8132,8193,8143,8142,8135,8175,8162,8188,8162,8157,8175,8289,7.082097053527832,False
21,8186,8204,8213,8184,8167,8141,8245,8198,8156,8174,8170,8163,8164,8287,7.090312957763672,False
22,8168,8181,8176,8180,8103,8131,8129,8157,8155,8179,8173,8160,8182,8297,7.098388195037842,False
23,8157,8189,8161,8179,8140,8142,8163,8160,8147,8171,8170,8161,8177,8293,7.106408596038818,False
24,8159,8208,8174,8185,8146,8150,8179,8172,8139,8171,8169,8157,8154,8282,7.114259481430054,False
25,8147,8199,8148,8186,8107,8137,8112,8151,8127,8165,8170,8146,8150,8280,7.122361183166504,False
26,8137,8180,8127,8173,8106,8131,8097,8132,8110,8142,8167,8139,8155,8274,7.1293158531188965,False
27,8143,8182,8151,8167,8163,8143,8181,8145,8106,8145,8155,8138,8143,8257,7.137274980545044,False
28,8180,8203,8218,8187,8199,8156,8268,8183,8123,8170,8161,8153,8140,8257,7.1453166007995605,False
29,8174,8196,8180,8201,8107,8144,8122,8171,8150,8190,8178,8158,8169,8283,7.1533191204071045,False
30,8164,8185,8160,8190,8129,8135,8133,8167,8155,8194,8185,8159,8176,8290,7.161272764205933,False
31,8191,8208,8206,8198,8166,8140,8199,8174,8149,8205,8191,8179,8182,8294,7.1692962646484375,False
32,8177,8225,8163,8218,8109,8131,8090,8146,8153,8210,8190,8186,8208,8311,7.177343368530273,False
33,8178,8219,8167,8213,8173,8135,8176,8148,8134,8180,8178,8177,8193,8296,7.185206413269043,False
34,8189,8205,8194,8196,8172,8143,8204,8138,8113,8160,8163,8167,8162,8267,7.19228720664978,False
35,8167,8207,8161,8189,8103,8134,8117,8115,8105,8164,8157,8157,8151,8253,7.200317621231079,False
36,8171,8221,8163,8195,8113,8137,8134,8130,8108,8164,8168,8159,8151,8262,7.208112716674805,False
37,8172,8211,8155,8193,8116,8144,8137,8146,8121,8166,8171,8160,8159,8277,7.216312646865845,False
38,8153,8190,8151,8187,8145,8143,8155,8156,8125,8170,8161,8155,8153,8273,7.224315881729126,False
39,8143,8191,8157,8192,8197,8155,8147,8165,8141,8176,8173,8162,8166,8272,7.232276678085327,False
40,8165,8215,8190,8199,8299,8182,8226,8188,8165,8186,8184,8169,8192,8274,7.240194797515869,False
41,8178,8218,8217,8191,8328,8175,8251,8194,8167,8187,8163,8161,8169,8263,7.248287200927734,False
42,8153,8214,8169,8195,8255,8150,8104,8160,8160,8192,8161,8156,8153,8268,7.256314277648926,False
43,8178,8230,8192,8206,8294,8162,8174,8158,8143,8188,8180,8178,8172,8286,7.263128995895386,False
44,8184,8210,8194,8189,8285,8163,8190,8138,8118,8171,8167,8179,8172,8282,7.271007061004639,False
45,8141,8184,8143,8171,8261,8149,8127,8114,8111,8157,8148,8146,8145,8261,7.279078722000122,False
46,8168,8203,8190,8190,8262,8154,8197,8131,8112,8160,8166,8152,8143,8262,7.287091255187988,False
47,8182,8211,8176,8216,8125,8151,8114,8104,8107,8178,8171,8165,8163,8275,7.295099973678589,False
48,8172,8211,8161,8211,8113,8153,8139,8117,8109,8179,8160,8158,8165,8277,7.303131580352783,False
49,8194,8220,8210,8197,8170,8164,8218,8172,8137,8194,8181,8168,8183,8281,7.311125516891479,False
50,8188,8207,8185,8193,8122,8151,8151,8171,8170,8226,8191,8179,8208,8282,7.318156957626343,False
51,8159,8185,8146,8181,8110,8148,8132,8161,8171,8225,8172,8167,8194,8276,7.326316118240356,False
52,8139,8178,8136,8169,8132,8158,8141,8174,8166,8209,8170,8150,8184,8275,7.334134101867676,False
53,8164,8193,8182,8168,8174,8156,8238,8195,8164,8200,8173,8154,8180,8261,7.342280626296997,False
54,8176,8205,8197,8171,8135,8153,8203,8174,8171,8201,8166,8169,8177,8260,7.3502867221832275,False
55,8147,8199,8152,8167,8096,8152,8111,8150,8170,8211,8168,8161,8181,8273,7.358130216598511,False
56,8158,8187,8172,8160,8148,8143,8198,8162,8138,8198,8168,8146,8168,8261,7.366250514984131,False
57,8166,8182,8166,8158,8110,8137,8152,8146,8134,8177,8161,8144,8163,8264,7.374308586120605,False
58,8169,8196,8167,8172,8109,8154,8141,8149,8161,8182,8169,8162,8179,8293,7.382294416427612,False
59,8175,8204,8194,8174,8141,8158,8195,8167,8178,8207,8181,8170,8190,8294,7.389296531677246,False
60,8147,8190,8149,8165,8113,8146,8149,8161,8191,8217,8169,8146,8187,8267,7.397295236587524,False
61,8161,8188,8166,8169,8143,8161,8196,8185,8201,8206,8160,8139,8168,8260,7.405292749404907,False
62,8172,8193,8179,8173,8129,8171,8156,8182,8201,8208,8169,8151,8169,8274,7.413197040557861,False
63,8145,8188,8153,8155,8128,8164,8153,8153,8183,8204,8163,8146,8171,8260,7.421279430389404,False
64,8131,8169,8154,8132,8129,8157,8185,8135,8151,8179,8141,8125,8141,8233,7.42931342124939,False
65,8114,8164,8138,8135,8087,8142,8121,8116,8123,8168,8141,8108,8125,8237,7.437113523483276,False
66,8121,8191,8161,8154,8135,8139,8174,8131,8119,8159,8161,8123,8133,8246,7.445271968841553,False
67,8126,8193,8159,8160,8140,8140,8153,8130,8129,8157,8160,8133,8139,8248,7.452241659164429,False
68,8132,8179,8155,8156,8135,8137,8145,8130,8131,8172,8156,8130,8140,8256,7.460050821304321,False
69,8144,8187,8182,8161,8142,8139,8186,8154,8138,8183,8165,8138,8140,8259,7.468214511871338,False
70,8105,8189,8143,8165,8103,8145,8120,8153,8160,8176,8162,8134,8143,8251,7.4763102531433105,False
71,8101,8190,8149,8154,8147,8166,8170,8168,8180,8179,8160,8132,8144,8252,7.484128475189209,False
72,8133,8194,8167,8164,8148,8176,8167,8177,8200,8205,8167,8146,8157,8265,7.492300748825073,False
73,8139,8197,8161,8186,8131,8173,8150,8178,8209,8205,8171,8153,8167,8269,7.500261306762695,False
74,8142,8192,8185,8168,8151,8172,8189,8182,8191,8196,8168,8153,8166,8269,7.508280992507935,False
75,8143,8181,8160,8139,8130,8163,8135,8154,8188,8210,8159,8144,8165,8273,7.515305757522583,False
76,8154,8187,8165,8151,8175,8165,8188,8159,8185,8209,8159,8133,8151,8257,7.523314714431763,False
77,8142,8189,8169,8165,8163,8164,8174,8169,8167,8203,8161,8128,8151,8241,7.531303882598877,False
78,8126,8181,8138,8143,8133,8159,8133,8155,8160,8201,8154,8125,8154,8237,7.539147853851318,False
79,8141,8179,8161,8129,8172,8170,8202,8157,8157,8183,8157,8125,8140,8232,7.547322511672974,False
80,8120,8183,8152,8144,8137,8174,8152,8165,8167,8198,8166,8127,8150,8239,7.555320501327515,False
81,8108,8189,8152,8156,8137,8167,8174,8181,8173,8218,8163,8136,8160,8246,7.563058614730835,False
82,8113,8182,8160,8156,8135,8161,8184,8165,8168,8194,8159,8135,8143,8237,7.571312427520752,False
83,8100,8180,8139,8158,8120,8166,8137,8143,8173,8184,8162,8123,8138,8234,7.578285455703735,False
84,8125,8195,8175,8161,8174,8175,8203,8162,8174,8203,8166,8130,8146,8242,7.586212396621704,False
85,8131,8179,8174,8154,8148,8166,8156,8154,8165,8206,8173,8146,8152,8252,7.594295501708984,False
86,8095,8148,8123,8145,8103,8157,8086,8137,8160,8175,8162,8141,8135,8252,7.602315664291382,False
87,8101,8162,8136,8148,8148,8170,8167,8155,8172,8163,8145,8133,8111,8241,7.61012864112854,False
88,8127,8177,8166,8150,8179,8188,8214,8169,8181,8185,8156,8136,8114,8234,7.618313312530518,False
89,8125,8159,8156,8147,8147,8176,8156,8158,8174,8179,8170,8139,8121,8241,7.626250982284546,False
90,8115,8160,8135,8158,8119,8164,8111,8147,8178,8166,8161,8133,8125,8252,7.634463787078857,False
91,8135,8188,8181,8167,8183,8176,8233,8174,8183,8184,8159,8138,8137,8250,7.642203330993652,False
92,8123,8177,8170,8150,8140,8164,8175,8158,8176,8207,8172,8141,8153,8245,7.649281024932861,False
93,8075,8153,8091,8131,8087,8141,8072,8118,8162,8192,8165,8119,8140,8232,7.657207489013672,False
94,8114,8164,8179,8139,8206,8159,8272,8165,8154,8168,8153,8119,8112,8205,7.665242195129394,False
95,8131,8169,8200,8159,8154,8166,8189,8175,8177,8190,8161,8134,8133,8222,7.673132181167602,False
96,8100,8169,8123,8162,8095,8152,8083,8158,8198,8205,8161,8133,8157,8259,7.681319713592529,False
97,8142,8177,8196,8159,8186,8157,8258,8193,8185,8189,8161,8141,8140,8252,7.68907904624939,False
98,8157,8172,8215,8162,8141,8153,8186,8183,8187,8183,8175,8153,8138,8241,7.697274684906006,False
99,8136,8175,8153,8161,8098,8153,8080,8162,8210,8187,8176,8163,8160,8262,7.705296993255615,False
100,8150,8190,8144,8169,8131,8167,8121,8169,8219,8202,8176,8173,8177,8284,7.713071823120117,False
101,8188,8204,8206,8190,8203,8167,8240,8185,8210,8208,8181,8178,8171,8275,7.720287561416626,False
102,8190,8204,8229,8196,8201,8158,8228,8172,8198,8197,8181,8178,8164,8264,7.728311061859131,False
103,8143,8199,8151,8192,8146,8156,8104,8137,8205,8202,8175,8164,8178,8269,7.736042022705078,False
104,8152,8213,8168,8198,8209,8159,8199,8164,8214,8217,8173,8157,8178,8267,7.744278907775879,False
105,8154,8207,8171,8191,8162,8151,8154,8158,8212,8223,8172,8159,8180,8265,7.752218008041382,False
106,8122,8182,8118,8170,8110,8141,8082,8119,8186,8205,8166,8157,8184,8263,7.760195970535278,False
107,8145,8189,8173,8162,8188,8144,8219,8140,8156,8192,8167,8161,8170,8250,7.768277168273926,False
108,8151,8198,8181,8170,8160,8145,8183,8151,8173,8199,8159,8156,8164,8254,7.77630615234375,False
109,8137,8191,8156,8178,8145,8151,8164,8157,8187,8184,8149,8143,8158,8258,7.783304214477539,False
110,8137,8182,8156,8178,8149,8153,8173,8163,8179,8178,8153,8133,8155,8247,7.791213035583496,False
111,8138,8182,8153,8186,8151,8154,8160,8174,8191,8194,8161,8132,8158,8246,7.799251794815063,False
112,8155,8195,8183,8197,8177,8167,8203,8196,8212,8192,8167,8149,8158,8258,7.807292699813843,False
113,8139,8185,8157,8180,8130,8163,8135,8174,8211,8182,8165,8153,8164,8257,7.815226078033447,False
114,8132,8164,8146,8158,8132,8143,8149,8155,8184,8167,8154,8143,8157,8244,7.823286771774292,False
115,8153,8170,8179,8176,8158,8147,8193,8153,8174,8148,8148,8146,8140,8237,7.831286430358887,False
116,8144,8188,8157,8196,8135,8165,8138,8141,8177,8147,8158,8150,8144,8240,7.839212894439697,False
117,8138,8187,8135,8188,8112,8159,8104,8127,8157,8152,8165,8148,8153,8255,7.847208261489868,False
118,8151,8185,8131,8190,8106,8139,8092,8125,8148,8163,8163,8149,8161,8275,7.854127407073975,False
119,8189,8207,8191,8203,8192,8152,8234,8168,8155,8175,8165,8162,8170,8274,7.862083911895752,False
120,8196,8205,8221,8197,8174,8170,8226,8171,8152,8180,8169,8173,8174,8265,7.870311737060547,False
121,8159,8185,8162,8188,8091,8160,8078,8132,8157,8185,8173,8168,8181,8278,7.878185987472534,False
122,8189,8197,8191,8190,8183,8165,8187,8159,8168,8181,8182,8178,8186,8294,7.886112213134766,False
123,8205,8202,8210,8196,8212,8174,8212,8179,8172,8185,8185,8188,8191,8293,7.894272804260254,False
124,8163,8188,8161,8194,8149,8169,8131,8169,8176,8188,8174,8175,8186,8287,7.901993036270142,False
125,8155,8189,8152,8186,8135,8167,8124,8181,8194,8184,8167,8167,8176,8288,7.9091408252716064,False
126,8166,8193,8167,8197,8162,8163,8150,8193,8204,8187,8178,8180,8179,8282,7.917131662368774,False
127,8190,8200,8235,8221,8207,8157,8239,8207,8190,8182,8195,8212,8189,8264,7.925166845321655,False
238,8201,8210,8240,8257,8144,8146,8148,8196,8204,8200,8216,8240,8225,8281,7.933133125305176,False
0,8208,8223,8215,8286,8141,8139,8123,8195,8221,8219,8219,8260,8244,8310,7.941179275512695,False
1,8226,8230,8242,8275,8187,8140,8205,8197,8202,8193,8205,8274,8229,8310,7.949275970458984,False
2,8212,8231,8212,8266,8155,8151,8147,8175,8204,8188,8207,8273,8253,8316,7.957284450531006,False
3,8218,8232,8217,8279,8186,8165,8188,8194,8216,8216,8216,8281,8286,8329,7.965113878250122,False
4,8218,8221,8213,8275,8163,8150,8164,8186,8201,8215,8202,8274,8274,8328,7.973189353942871,True
5,8203,8225,8181,8256,8148,8135,8130,8163,8193,8197,8181,8245,8248,8327,7.980264902114868,True
6,8228,8237,8213,8255,8196,8150,8193,8178,8199,8197,8177,8236,8239,8331,7.988049983978271,True
7,8212,8214,8179,8242,8157,8163,8135,8177,8196,8212,8164,8213,8229,8315,7.996305465698242,True
8,8169,8190,8147,8203,8177,8168,8178,8178,8179,8205,8149,8180,8203,8280,8.004287242889404,True
9,8132,8173,8136,8171,8172,8158,8179,8152,8174,8179,8151,8165,8197,8264,8.012339115142822,True
10,8121,8173,8127,8161,8143,8151,8145,8127,8181,8169,8156,8159,8198,8261,8.02024507522583,True
11,8159,8196,8171,8184,8179,8166,8193,8140,8181,8186,8158,8167,8188,8263,8.028234004974365,True
12,8163,8196,8161,8195,8160,8165,8133,8134,8184,8198,8155,8181,8192,8289,8.03607726097107,True
13,8166,8189,8163,8169,8162,8156,8163,8157,8191,8183,8158,8187,8195,8309,8.043131113052368,True
14,8171,8200,8167,8156,8145,8164,8172,8189,8211,8193,8164,8176,8192,8300,8.05115270614624,True
15,8149,8206,8137,8171,8135,8163,8144,8186,8222,8208,8151,8157,8183,8283,8.059105157852173,True
16,8151,8192,8158,8167,8164,8149,8192,8181,8198,8186,8138,8156,8157,8279,8.068212985992432,True
17,8139,8181,8142,8147,8128,8140,8132,8147,8171,8162,8143,8151,8140,8276,8.075118780136108,True
18,8134,8187,8133,8145,8153,8148,8163,8117,8145,8146,8156,8137,8132,8253,8.083211898803711,True
19,8149,8194,8154,8156,8150,8148,8173,8108,8127,8144,8170,8152,8154,8256,8.091023921966553,True
20,8153,8198,8147,8173,8111,8140,8120,8103,8134,8149,8172,8174,8175,8284,8.099311590194702,True
21,8157,8197,8162,8175,8149,8144,8185,8126,8150,8145,8163,8161,8151,8280,8.107246398925781,True
22,8127,8176,8141,8156,8130,8147,8150,8155,8180,8163,8170,8147,8152,8263,8.114139080047607,True
23,8123,8174,8150,8146,8142,8154,8166,8197,8211,8186,8182,8172,8189,8265,8.12230920791626,True
24,8154,8196,8184,8158,8146,8159,8187,8208,8219,8191,8175,8193,8196,8282,8.130273818969727,True
25,8155,8196,8160,8169,8122,8158,8129,8183,8218,8192,8161,8189,8191,8303,8.138341903686523,True
26,8166,8189,8172,8164,8173,8160,8183,8185,8201,8189,8163,8191,8195,8298,8.146305084228516,True
27,8168,8199,8167,8163,8155,8152,8142,8163,8187,8187,8176,8184,8193,8279,8.154341459274292,True
28,8166,8219,8163,8183,8163,8166,8146,8163,8184,8180,8178,8174,8187,8277,8.162361145019531,True
29,8159,8210,8174,8196,8190,8187,8192,8190,8189,8179,8173,8176,8191,8279,8.17024827003479,True
30,8120,8179,8127,8172,8144,8168,8136,8173,8195,8186,8163,8160,8189,8270,8.177012205123901,True
31,8136,8181,8154,8150,8154,8156,8182,8185,8203,8187,8162,8157,8181,8274,8.185272455215454,True
32,8168,8196,8182,8165,8142,8169,8155,8208,8225,8205,8177,8176,8194,8296,8.193207025527954,True
33,8164,8196,8164,8168,8144,8169,8149,8205,8228,8217,8182,8177,8193,8297,8.201276063919067,True
34,8171,8190,8173,8154,8156,8160,8194,8194,8211,8203,8165,8174,8168,8278,8.209062814712524,True
35,8161,8182,8146,8161,8126,8162,8131,8181,8213,8195,8152,8167,8171,8271,8.217052698135376,True
36,8162,8185,8161,8163,8174,8172,8182,8197,8217,8196,8164,8168,8183,8275,8.225109338760376,True
37,8165,8186,8167,8147,8168,8177,8176,8189,8219,8204,8170,8172,8189,8286,8.233094453811646,True
38,8149,8176,8139,8143,8151,8180,8153,8172,8216,8191,8159,8162,8180,8274,8.240036249160767,True
39,8146,8164,8162,8151,8167,8180,8195,8181,8206,8168,8164,8164,8170,8256,8.24820327758789,True
40,8151,8169,8168,8161,8125,8168,8132,8169,8219,8200,8177,8182,8190,8283,8.256244659423828,True
41,8186,8197,8200,8173,8159,8171,8173,8177,8224,8225,8175,8197,8199,8314,8.264273881912231,True
42,8184,8194,8193,8167,8167,8179,8170,8177,8204,8199,8160,8190,8189,8311,8.272190809249878,True
43,8155,8174,8148,8150,8159,8174,8144,8166,8203,8184,8153,8177,8181,8299,8.280049085617065,True
44,8179,8187,8186,8155,8175,8169,8202,8173,8208,8190,8163,8175,8170,8282,8.28818941116333,True
45,8171,8197,8176,8170,8115,8169,8139,8155,8203,8180,8165,8165,8167,8269,8.296197891235352,True
46,8150,8183,8160,8164,8132,8180,8162,8165,8203,8171,8151,8162,8159,8262,8.304147958755493,True
47,8153,8162,8168,8141,8140,8181,8168,8168,8201,8170,8149,8161,8141,8254,8.31113886833191,True
48,8135,8148,8141,8125,8106,8170,8125,8141,8174,8147,8153,8142,8123,8231,8.319099187850952,True
49,8128,8139,8155,8120,8140,8161,8186,8140,8158,8133,8153,8136,8124,8218,8.326989889144897,True
50,8121,8144,8152,8127,8125,8160,8144,8138,8180,8164,8169,8154,8155,8246,8.335024356842041,True
51,8139,8182,8169,8152,8136,8177,8161,8152,8194,8187,8187,8181,8175,8279,8.344193696975708,True
52,8176,8198,8191,8166,8136,8180,8178,8165,8201,8188,8174,8190,8173,8291,8.351137399673462,True
53,8167,8170,8157,8140,8108,8160,8130,8149,8205,8178,8155,8173,8159,8279,8.35904049873352,True
54,8160,8162,8172,8119,8128,8160,8187,8154,8189,8158,8153,8165,8142,8258,8.367203712463379,True
55,8159,8168,8169,8137,8098,8166,8147,8165,8196,8156,8155,8162,8149,8258,8.374129056930542,True
56,8161,8159,8159,8139,8118,8161,8160,8188,8213,8154,8160,8162,8155,8269,8.382127523422241,True
57,8162,8142,8172,8116,8131,8161,8193,8194,8204,8152,8163,8172,8143,8273,8.390120267868042,True
58,8139,8140,8147,8115,8096,8165,8138,8172,8204,8173,8157,8165,8143,8262,8.398242473602295,True
59,8143,8156,8159,8124,8132,8163,8186,8177,8212,8176,8159,8149,8145,8242,8.406143188476562,True
60,8137,8161,8151,8132,8112,8161,8146,8174,8221,8171,8164,8139,8143,8233,8.414145708084106,True
61,8141,8172,8152,8158,8126,8174,8150,8180,8229,8182,8157,8144,8146,8236,8.422190427780151,True
62,8177,8188,8194,8182,8164,8178,8185,8178,8214,8189,8168,8166,8153,8248,8.430314064025879,True
63,8186,8191,8181,8178,8129,8154,8121,8143,8186,8173,8183,8180,8158,8275,8.438302755355835,True
64,8201,8195,8183,8163,8145,8149,8180,8144,8171,8152,8171,8182,8145,8290,8.44520378112793,True
65,8188,8192,8164,8169,8128,8153,8162,8145,8176,8155,8159,8167,8152,8276,8.453311681747437,True
66,8167,8177,8152,8178,8132,8155,8145,8152,8194,8169,8171,8159,8177,8268,8.461366653442383,True
67,8189,8170,8189,8174,8163,8178,8193,8184,8218,8182,8181,8175,8185,8283,8.469190120697021,False
68,8180,8167,8159,8164,8130,8187,8136,8186,8240,8204,8166,8170,8181,8285,8.477314949035645,False
69,8148,8155,8151,8148,8149,8180,8175,8184,8228,8192,8153,8143,8156,8236,8.48530912399292,False
70,8123,8129,8148,8129,8127,8174,8158,8166,8208,8165,8159,8126,8136,8198,8.493058204650879,False
71,8126,8125,8134,8129,8131,8177,8142,8162,8215,8170,8162,8138,8142,8219,8.501261472702026,False
72,8151,8138,8170,8137,8176,8185,8201,8186,8228,8180,8164,8158,8156,8240,8.508241415023804,False
73,8134,8134,8153,8129,8127,8180,8140,8164,8225,8188,8170,8158,8164,8233,8.516135215759277,False
74,8139,8144,8157,8143,8171,8174,8176,8156,8203,8187,8169,8167,8154,8234,8.524278163909912,False
75,8171,8174,8187,8190,8246,8179,8180,8171,8209,8184,8180,8194,8169,8275,8.532302141189575,False
76,8178,8189,8187,8203,8265,8190,8143,8179,8231,8202,8186,8198,8206,8303,8.540301322937012,False
77,8199,8193,8210,8187,8279,8189,8198,8186,8227,8213,8177,8190,8215,8296,8.548216104507446,False
78,8198,8197,8187,8194,8244,8175,8145,8163,8228,8209,8176,8189,8210,8306,8.556267261505127,False
79,8184,8198,8178,8194,8266,8169,8168,8166,8224,8200,8174,8182,8192,8306,8.564375162124634,False
80,8178,8185,8179,8172,8253,8163,8180,8173,8213,8202,8165,8165,8176,8279,8.571207761764526,False
81,8179,8180,8157,8177,8223,8175,8144,8174,8229,8211,8171,8169,8196,8279,8.579302310943604,False
82,8202,8190,8187,8194,8265,8203,8199,8203,8250,8225,8189,8200,8221,8294,8.587307214736938,False
83,8176,8182,8167,8176,8238,8191,8144,8198,8249,8231,8185,8191,8212,8278,8.595053434371948,False
84,8147,8170,8147,8156,8237,8166,8163,8187,8229,8193,8170,8155,8180,8250,8.60333251953125,False
85,8165,8165,8173,8161,8245,8167,8191,8180,8218,8176,8164,8158,8169,8253,8.611303091049194,False
86,8164,8163,8158,8167,8230,8178,8145,8162,8218,8197,8163,8179,8179,8270,8.619052171707153,False
87,8164,8163,8177,8158,8260,8184,8202,8164,8202,8184,8164,8180,8171,8260,8.627301454544067,False
88,8163,8162,8180,8158,8226,8178,8153,8156,8201,8171,8165,8179,8174,8265,8.635279655456543,False
89,8182,8187,8187,8182,8228,8176,8154,8167,8219,8194,8184,8206,8202,8305,8.642085313796997,False
90,8213,8207,8214,8203,8228,8177,8177,8174,8222,8201,8203,8223,8224,8322,8.650054931640625,False
91,8201,8194,8182,8198,8177,8175,8116,8150,8220,8190,8189,8199,8227,8302,8.658153057098389,False
92,8213,8203,8196,8189,8219,8189,8184,8161,8227,8195,8169,8188,8211,8299,8.666274070739746,False
93,8221,8225,8189,8203,8223,8195,8165,8156,8233,8202,8164,8197,8208,8320,8.674226760864258,False
94,8192,8207,8155,8198,8205,8186,8158,8135,8211,8176,8161,8178,8191,8294,8.682108640670776,False
95,8172,8166,8165,8161,8180,8181,8197,8135,8188,8147,8158,8150,8159,8245,8.690493106842041,False
96,8152,8160,8142,8146,8126,8183,8136,8143,8203,8168,8162,8145,8166,8246,8.69822072982788,False
97,8164,8184,8165,8165,8160,8181,8184,8171,8213,8193,8167,8158,8178,8264,8.7052640914917,False
98,8166,8181,8170,8170,8141,8163,8156,8161,8204,8190,8161,8157,8172,8252,8.71306324005127,False
99,8139,8163,8139,8156,8138,8164,8137,8140,8197,8172,8157,8138,8168,8229,8.721225500106812,False
100,8142,8167,8165,8165,8185,8178,8200,8149,8191,8172,8167,8146,8167,8234,8.72914981842041,False
101,8144,8183,8165,8185,8151,8173,8143,8147,8196,8191,8166,8164,8177,8260,8.73695993423462,False
102,8158,8188,8181,8182,8160,8177,8176,8157,8211,8173,8162,8172,8182,8265,8.745213508605957,False
103,8158,8170,8181,8169,8140,8182,8161,8150,8218,8153,8167,8169,8181,8256,8.75312614440918,False
104,8143,8159,8159,8166,8129,8170,8133,8148,8220,8164,8166,8159,8175,8253,8.761180639266968,False
105,8163,8171,8185,8162,8174,8169,8198,8172,8233,8168,8163,8166,8167,8252,8.768001794815063,False
106,8157,8170,8165,8159,8144,8173,8149,8165,8241,8167,8162,8167,8172,8261,8.776228666305542,False
107,8165,8168,8176,8171,8157,8174,8180,8171,8225,8176,8164,8177,8185,8284,8.784096717834473,False
108,8179,8172,8193,8178,8157,8171,8179,8169,8216,8184,8179,8185,8199,8302,8.792170286178589,False
109,8163,8179,8164,8173,8153,8167,8145,8147,8223,8172,8183,8171,8194,8293,8.80021595954895,False
110,8182,8195,8194,8183,8182,8171,8201,8153,8215,8154,8166,8171,8184,8279,8.808113098144531,False
111,8187,8194,8181,8189,8131,8175,8139,8139,8202,8163,8159,8172,8197,8280,8.816128730773926,False
112,8173,8182,8163,8172,8143,8176,8155,8126,8187,8174,8164,8160,8189,8267,8.824284791946411,False
113,8158,8165,8165,8150,8153,8170,8163,8118,8177,8171,8163,8151,8177,8251,8.832151651382446,False
114,8137,8147,8139,8151,8125,8165,8122,8113,8178,8178,8162,8150,8186,8253,8.839245319366455,False
115,8146,8141,8161,8145,8167,8162,8190,8133,8171,8177,8159,8150,8167,8248,8.847198963165283,False
116,8147,8141,8155,8130,8153,8161,8152,8139,8180,8175,8153,8146,8152,8249,8.855213642120361,False
117,8141,8142,8152,8137,8154,8174,8169,8162,8203,8177,8161,8149,8162,8253,8.862974405288696,False
118,8127,8136,8165,8150,8157,8184,8189,8181,8222,8182,8170,8149,8163,8243,8.87107515335083,False
119,8110,8141,8140,8142,8136,8182,8135,8174,8237,8177,8163,8140,8154,8232,8.879160642623901,False
120,8150,8157,8173,8128,8179,8192,8197,8192,8230,8167,8155,8147,8150,8235,8.88606333732605,False
121,8165,8161,8185,8147,8162,8187,8163,8182,8233,8172,8170,8165,8161,8257,8.894014596939087,False
122,8153,8173,8177,8178,8169,8174,8161,8162,8230,8158,8175,8178,8155,8264,8.902183055877686,False
123,8174,8188,8197,8190,8179,8172,8186,8152,8206,8150,8168,8185,8155,8261,8.910140037536621,False
124,8187,8192,8187,8198,8152,8162,8125,8139,8203,8177,8181,8194,8191,8288,8.918216943740845,False
125,8194,8191,8204,8200,8192,8164,8180,8153,8202,8172,8188,8204,8199,8311,8.92614221572876,False
126,8165,8170,8168,8181,8156,8182,8158,8145,8178,8137,8168,8186,8166,8293,8.93411111831665,False
127,8130,8142,8131,8145,8144,8192,8160,8135,8149,8115,8153,8156,8142,8263,8.942148923873901,False
238,8133,8127,8159,8117,8174,8185,8204,8146,8142,8120,8165,8147,8143,8252,8.9490807056427,False
0,8115,8115,8138,8112,8148,8175,8141,8143,8162,8145,8174,8141,8156,8250,8.957101821899414,False
1,8116,8125,8157,8122,8183,8186,8190,8166,8192,8175,8169,8146,8167,8249,8.965161085128784,False
2,8135,8149,8177,8138,8169,8191,8164,8175,8228,8197,8166,8161,8179,8259,8.973095655441284,False
3,8138,8159,8154,8147,8155,8175,8134,8168,8241,8182,8162,8160,8167,8258,8.981126546859741,False
4,8151,8151,8172,8138,8180,8163,8185,8171,8224,8158,8159,8159,8151,8253,8.98898696899414,False
5,8147,8144,8162,8133,8152,8164,8131,8155,8213,8176,8173,8165,8169,8278,8.997079849243164,False
6,8172,8168,8183,8150,8185,8180,8183,8158,8199,8192,8192,8194,8185,8306,9.005202531814575,False
7,8194,8183,8193,8165,8179,8182,8183,8138,8179,8170,8175,8209,8178,8299,9.012965440750122,False
8,8177,8175,8165,8175,8164,8168,8146,8108,8165,8133,8147,8183,8148,8270,9.021199226379396,False
9,8187,8186,8194,8196,8204,8170,8191,8117,8152,8107,8156,8166,8114,8258,9.02817964553833,False
10,8182,8190,8177,8205,8173,8170,8131,8110,8150,8098,8162,8164,8112,8268,9.036311864852903,False
11,8181,8184,8168,8194,8192,8166,8169,8117,8149,8094,8148,8169,8113,8265,9.044343948364258,False
12,8180,8179,8179,8180,8196,8165,8174,8133,8156,8097,8154,8171,8107,8255,9.052212476730348,False
13,8151,8170,8154,8161,8178,8171,8136,8138,8167,8108,8164,8159,8114,8242,9.060270309448242,False
14,8146,8159,8171,8152,8216,8176,8200,8144,8162,8119,8166,8159,8122,8233,9.068294048309326,False
15,8138,8151,8162,8162,8187,8169,8147,8126,8167,8153,8181,8168,8142,8242,9.076062202453612,False
16,8146,8150,8169,8170,8198,8184,8173,8143,8189,8180,8186,8175,8164,8252,9.084217309951782,False
17,8149,8142,8177,8158,8194,8201,8195,8171,8211,8179,8173,8179,8175,8262,9.092169761657717,False
18,8111,8125,8133,8130,8153,8191,8144,8171,8224,8174,8167,8174,8171,8269,9.09923005104065,False
19,8111,8117,8150,8131,8176,8191,8199,8192,8237,8167,8169,8162,8155,8248,9.107089281082152,False
20,8125,8118,8153,8160,8156,8208,8164,8197,8261,8172,8161,8153,8155,8234,9.115118026733398,False
21,8134,8129,8155,8159,8173,8217,8178,8197,8259,8171,8150,8159,8149,8249,9.123076438903809,False
22,8153,8139,8175,8146,8184,8213,8199,8187,8233,8157,8150,8166,8130,8260,9.131139516830444,False
23,8163,8151,8162,8167,8157,8210,8144,8157,8217,8146,8155,8170,8128,8266,9.139118432998655,False
24,8197,8166,8199,8190,8189,8207,8191,8154,8200,8143,8164,8186,8149,8284,9.147058725357056,False
25,8206,8168,8196,8195,8159,8183,8143,8133,8187,8150,8177,8191,8175,8306,9.155261993408203,False
26,8194,8171,8169,8184,8161,8169,8147,8116,8170,8137,8175,8178,8159,8289,9.162258625030518,False
27,8191,8166,8179,8164,8178,8167,8189,8111,8140,8118,8167,8166,8130,8259,9.170368432998655,False
28,8164,8151,8158,8164,8149,8153,8134,8108,8136,8131,8165,8161,8145,8262,9.178186416625977,False
29,8166,8154,8176,8176,8191,8157,8187,8142,8156,8160,8175,8179,8170,8280,9.186174869537354,False
30,8165,8148,8171,8176,8177,8171,8154,8155,8176,8190,8183,8198,8194,8293,9.194273233413696,False
31,8155,8148,8162,8182,8167,8175,8150,8168,8192,8202,8183,8204,8219,8295,9.2022385597229,False
32,8166,8163,8192,8195,8195,8185,8207,8193,8211,8184,8190,8208,8215,8292,9.210172653198242,False
33,8155,8156,8161,8194,8176,8190,8144,8195,8236,8193,8192,8208,8209,8301,9.218014478683472,False
34,8164,8153,8170,8189,8210,8189,8186,8208,8241,8212,8175,8209,8208,8306,9.225077152252195,False
35,8171,8160,8181,8195,8192,8190,8175,8193,8240,8209,8164,8204,8203,8302,9.233026266098022,False
36,8163,8160,8159,8195,8182,8184,8153,8170,8234,8189,8169,8198,8191,8295,9.240957975387571,False
37,8179,8158,8186,8179,8208,8163,8196,8171,8209,8169,8164,8202,8181,8295,9.24908447265625,False
38,8174,8158,8170,8179,8167,8149,8130,8152,8194,8163,8152,8190,8170,8301,9.257020711898804,False
39,8175,8158,8165,8184,8195,8154,8171,8154,8183,8139,8154,8173,8143,8281,9.265037059783936,False
40,8183,8158,8171,8177,8186,8154,8176,8158,8171,8121,8154,8171,8140,8270,9.273052453994753,False
41,8177,8164,8160,8178,8162,8158,8148,8157,8175,8134,8155,8167,8161,8286,9.28101682662964,False
42,8184,8161,8183,8180,8194,8169,8204,8173,8189,8155,8164,8164,8165,8284,9.28904914855957,False
43,8174,8153,8165,8181,8165,8172,8148,8165,8208,8181,8166,8171,8185,8289,9.296126127243042,False
44,8179,8164,8172,8182,8208,8176,8179,8168,8207,8187,8165,8184,8207,8312,9.304230213165283,False
45,8177,8161,8176,8172,8210,8173,8180,8169,8204,8172,8166,8180,8192,8299,9.312220811843872,False
46,8154,8155,8150,8174,8153,8173,8136,8162,8219,8177,8170,8163,8177,8269,9.320127487182615,False
47,8181,8176,8193,8199,8176,8191,8206,8183,8223,8200,8186,8182,8193,8282,9.32821488380432,False
48,8194,8183,8185,8207,8167,8202,8166,8185,8231,8208,8195,8205,8218,8311,9.3362295627594,False
49,8194,8178,8172,8196,8185,8210,8186,8195,8244,8211,8182,8203,8218,8310,9.34426212310791,False
50,8209,8183,8193,8201,8193,8213,8192,8196,8240,8228,8169,8202,8218,8312,9.352169036865234,False
51,8199,8184,8171,8203,8177,8204,8134,8174,8226,8219,8163,8199,8218,8318,9.359320640563965,False
52,8196,8171,8175,8183,8203,8198,8194,8172,8207,8189,8159,8192,8193,8301,9.36723780632019,False
53,8174,8150,8150,8162,8157,8189,8148,8146,8187,8189,8157,8176,8175,8282,9.375378608703612,False
54,8164,8152,8146,8159,8160,8175,8152,8134,8166,8177,8154,8166,8161,8274,9.383044958114624,False
55,8181,8168,8183,8165,8177,8169,8188,8146,8168,8157,8158,8178,8162,8287,9.390978574752808,False
56,8171,8165,8161,8161,8146,8173,8143,8144,8183,8176,8172,8184,8184,8305,9.39900803565979,False
57,8171,8162,8175,8165,8181,8181,8194,8167,8186,8187,8185,8188,8192,8306,9.40701985359192,False
58,8167,8164,8175,8175,8168,8172,8154,8180,8200,8184,8188,8189,8203,8309,9.415038347244264,False
59,8176,8169,8168,8171,8170,8155,8148,8181,8213,8202,8181,8200,8220,8320,9.423041343688965,False
60,8195,8173,8189,8168,8184,8154,8184,8169,8210,8224,8170,8214,8215,8325,9.430071115493774,False
61,8165,8166,8159,8179,8152,8166,8132,8146,8211,8212,8164,8197,8213,8316,9.438243627548218,False
62,8157,8165,8176,8189,8188,8187,8191,8156,8217,8189,8170,8182,8214,8293,9.446401119232178,False
63,8167,8162,8178,8191,8174,8194,8168,8151,8222,8196,8168,8182,8202,8272,9.455251693725586,False
64,8169,8158,8157,8190,8172,8190,8160,8155,8216,8189,8155,8180,8183,8264,9.462318658828735,False
65,8188,8160,8185,8189,8193,8185,8208,8188,8204,8169,8156,8184,8175,8271,9.47039008140564,False
66,8171,8155,8159,8179,8144,8179,8136,8180,8202,8183,8162,8180,8187,8277,9.478110551834106,False
67,8153,8149,8158,8158,8163,8179,8179,8169,8181,8183,8163,8168,8180,8260,9.486319065093994,False
68,8154,8142,8167,8156,8153,8167,8172,8155,8159,8159,8165,8160,8173,8251,9.4931960105896,False
69,8156,8152,8158,8175,8149,8153,8145,8146,8160,8160,8163,8159,8181,8262,9.501062154769896,False
70,8172,8166,8187,8178,8185,8165,8198,8154,8167,8183,8165,8168,8184,8272,9.509143829345703,False
71,8167,8157,8168,8167,8153,8169,8145,8139,8178,8190,8173,8176,8193,8285,9.51714563369751,False
72,8178,8152,8174,8168,8174,8163,8180,8152,8188,8175,8173,8183,8194,8295,9.525180578231812,False
73,8181,8159,8180,8173,8171,8167,8167,8165,8199,8186,8165,8182,8193,8300,9.533182382583618,False
74,8168,8169,8160,8166,8159,8172,8132,8154,8204,8198,8157,8170,8184,8303,9.541196584701538,False
75,8188,8165,8190,8161,8193,8176,8201,8164,8204,8176,8164,8178,8180,8307,9.549125909805298,False
76,8177,8142,8166,8170,8160,8180,8151,8166,8217,8177,8176,8189,8203,8310,9.556283950805664,False
77,8175,8142,8160,8174,8182,8186,8181,8183,8222,8192,8172,8183,8199,8298,9.564234018325806,False
78,8201,8149,8180,8163,8192,8176,8192,8192,8219,8181,8162,8173,8178,8292,9.572325468063354,False
79,8187,8142,8157,8158,8164,8160,8141,8189,8226,8174,8159,8164,8186,8296,9.580260753631592,False
80,8176,8136,8173,8160,8185,8159,8192,8198,8221,8177,8158,8163,8185,8285,9.588282585144045,False
81,8174,8128,8159,8146,8147,8146,8143,8181,8212,8178,8155,8158,8172,8279,9.59629487991333,False
82,8180,8127,8154,8126,8151,8137,8167,8186,8203,8157,8156,8156,8168,8288,9.60414743423462,False
83,8179,8133,8172,8128,8162,8154,8192,8198,8196,8145,8161,8163,8171,8291,9.612098455429075,False
84,8155,8134,8152,8146,8140,8169,8145,8182,8198,8160,8160,8161,8169,8284,9.619993925094604,False
85,8164,8137,8173,8150,8173,8177,8203,8196,8196,8170,8162,8163,8170,8276,9.627037525177002,False
86,8173,8142,8173,8156,8153,8185,8161,8208,8220,8191,8182,8179,8205,8298,9.635337591171265,False
87,8189,8157,8183,8182,8182,8197,8167,8221,8256,8226,8194,8202,8239,8331,9.643176317214966,False
88,8202,8168,8205,8196,8202,8188,8190,8203,8251,8231,8183,8208,8234,8335,9.65115523338318,False
89,8181,8159,8164,8193,8156,8153,8123,8148,8223,8209,8166,8189,8214,8317,9.659144401550291,False
90,8200,8152,8182,8190,8189,8138,8180,8150,8208,8201,8167,8184,8206,8316,9.667081356048584,False
91,8210,8144,8191,8191,8177,8142,8162,8157,8226,8208,8175,8199,8226,8334,9.675106525421144,False
92,8180,8132,8164,8164,8182,8157,8166,8150,8234,8193,8169,8193,8221,8321,9.683029174804688,False
93,8161,8117,8167,8129,8198,8166,8201,8150,8214,8173,8158,8167,8183,8292,9.690249919891356,False
94,8148,8113,8146,8136,8149,8158,8135,8145,8212,8175,8157,8155,8178,8298,9.69835925102234,False
95,8167,8117,8167,8153,8176,8162,8189,8168,8220,8170,8158,8173,8186,8308,9.706180572509766,False
96,8172,8117,8171,8144,8169,8167,8170,8172,8218,8173,8165,8173,8186,8302,9.714169263839722,False
97,8165,8133,8156,8149,8155,8162,8147,8170,8217,8176,8176,8160,8193,8303,9.722290754318236,False
