Timestamp,F3,FC5,AF3,F7,T7,P7,O1,O2,P8,T8,F8,AF4,FC6,F4,word_label
0.6322066783905029,-10,2,-10,19,13,13,20,7,19,22,-6,-20,-2,4,sil
0.6322066783905029,-27,-9,-16,-1,9,10,15,4,4,9,-26,-33,-17,-15,sil
0.6474101543426514,-23,-14,-15,-6,-1,8,15,0,-4,5,-34,-31,-22,-13,sil
0.6474101543426514,-6,-9,-10,-11,-6,8,17,0,0,11,-15,-18,-12,0,sil
0.6630089282989502,3,-3,-3,-8,-4,16,20,7,22,22,4,-2,6,11,sil
0.6630089282989502,13,0,10,0,-3,9,12,7,32,20,7,15,17,23,sil
0.6787786483764648,20,2,11,-3,-2,-5,0,-4,16,7,13,24,19,22,sil
0.6787786483764648,23,0,2,-17,-2,-7,-7,-5,5,4,24,26,27,21,sil
0.694037675857544,22,0,8,-15,-7,-10,-16,1,18,15,29,31,36,26,sil
0.694037675857544,18,3,8,0,-4,-17,-17,0,30,19,38,32,41,21,sil
0.7099330425262451,16,5,6,5,5,-14,-7,-3,17,3,39,29,32,15,sil
0.7099330425262451,7,7,6,-8,2,-17,-7,0,-8,-13,9,12,7,2,sil
0.7252445220947266,-8,0,-10,-21,-12,-28,-18,-8,-37,-26,-17,-15,-22,-26,sil
0.7252445220947266,-15,-9,-11,-17,-16,-18,-22,-14,-56,-44,-18,-21,-37,-38,sil
0.7409048080444336,-11,-4,0,-5,-7,0,-11,-9,-45,-40,-7,-15,-25,-21,sil
0.7409048080444336,-13,5,6,7,1,0,-7,-3,-23,-19,-11,-26,-15,-16,sil
0.7559609413146973,-15,10,5,24,6,2,-7,0,-10,-9,-19,-28,-23,-21,sil
0.7559609413146973,-14,1,0,23,7,18,2,1,6,2,-14,-10,-17,-13,sil
0.7715997695922852,-14,-7,0,9,10,23,12,7,18,15,-11,-8,-4,-1,sil
0.7715997695922852,-6,-4,0,15,13,20,20,8,13,11,-17,-18,-5,1,sil
0.7874424457550049,0,-1,0,20,4,14,26,5,10,7,-17,-8,-10,0,sil
0.7874424457550049,-10,-15,-10,-7,-7,1,17,5,1,5,-17,-1,-13,-6,sil
0.8030304908752441,-20,-24,-26,-31,-8,-10,0,0,-10,-10,-20,-7,-13,-9,sil
0.8030304908752441,-2,-14,-14,-26,-4,-6,-4,-5,0,-16,-11,5,-5,0,sil
0.8183615207672119,12,0,-2,-14,-1,3,0,1,14,2,5,18,13,11,sil
0.8183615207672119,14,7,-4,-11,2,0,-5,8,10,12,21,18,31,19,sil
0.834630012512207,25,15,12,-4,2,-11,-14,2,9,8,34,28,31,16,sil
0.834630012512207,26,16,21,9,3,-9,-6,-6,7,12,33,21,18,9,sil
0.8502624034881592,6,13,11,19,9,0,0,-4,-11,16,18,0,6,8,sil
0.8502624034881592,-2,12,3,24,5,9,0,0,-9,14,5,-8,2,10,sil
0.8660097122192383,0,7,4,24,3,17,8,1,11,14,0,-5,0,8,sil
0.8660097122192383,-1,-2,0,9,5,8,17,3,15,13,-8,-7,-4,4,sil
0.8814120292663574,-6,-10,-12,-9,-9,-11,1,0,6,4,-18,-8,-7,2,sil
0.8814120292663574,-2,-8,-8,-18,-20,-19,-15,0,3,-8,-12,1,-5,0,sil
0.897026777267456,11,-1,3,-9,-7,-13,-7,4,6,-16,11,16,6,0,sil
0.897026777267456,20,2,5,-4,0,-14,-3,-3,0,-15,27,21,18,-3,sil
0.9130501747131348,4,2,7,-15,-5,-12,-15,-12,-18,-18,18,12,7,-8,sil
0.9130501747131348,-9,0,2,-15,-6,0,-8,-5,-22,-22,0,-5,-13,-14,sil
0.9289300441741944,-8,1,6,0,0,11,17,6,-5,-15,-7,-9,-16,-12,sil
0.9289300441741944,-5,6,14,12,4,20,31,9,5,2,-5,0,-2,-3,sil
0.9443240165710448,-6,0,4,10,8,16,14,0,-1,14,-9,-5,-8,-1,sil
0.9443240165710448,-6,-2,-5,9,5,11,-4,-6,-9,11,-20,-18,-21,-6,sil
0.9603891372680664,-6,0,-6,16,3,17,0,-5,-1,9,-18,-16,-7,-3,sil
0.9603891372680664,-6,-3,-7,6,5,13,13,1,9,14,-9,-8,4,5,sil
0.97627854347229,-6,-6,-19,-16,3,-3,5,8,13,16,-7,-2,5,14,sil
0.97627854347229,0,-1,-21,-17,-1,-10,-6,5,22,13,-1,2,19,15,sil
0.9912898540496826,10,4,2,0,1,-9,-14,0,19,3,15,15,26,7,sil
0.9912898540496826,13,8,5,2,4,-16,-23,-6,-9,-12,27,15,11,-3,sil
1.007361650466919,3,8,0,3,0,-19,-26,-11,-28,-24,14,4,-3,-11,sil
1.007361650466919,-3,13,15,20,2,0,-7,-3,-11,-15,-1,-4,-5,-8,sil
1.0233843326568604,-2,9,17,31,12,18,18,2,0,1,-2,-9,-7,0,sil
1.0233843326568604,-3,-18,-5,7,1,8,14,1,-9,3,-9,-13,-16,-2,sil
1.0393905639648438,-14,-39,-24,-24,-21,-11,-10,-4,-11,0,-24,-20,-17,-12,sil
1.0393905639648438,-13,-25,-20,-31,-22,-21,-19,-6,-8,-9,-25,-13,-7,-12,sil
1.0549213886260986,3,-5,-8,-24,-6,-20,-14,0,-9,-17,-11,2,-3,-4,sil
1.0549213886260986,9,2,0,-16,0,-11,-11,3,-2,-9,2,11,-3,-1,sil
1.0706017017364502,1,13,16,-1,2,3,-3,2,0,0,13,13,1,0,sil
1.0706017017364502,0,16,19,15,11,17,15,3,-4,0,12,6,2,2,sil
1.0853538513183594,0,0,6,14,11,19,23,4,1,7,-2,-7,-9,3,sil
1.0853538513183594,-5,-6,0,6,0,15,15,3,15,13,-13,-8,-14,12,sil
1.1014752388000488,2,-2,-1,0,-6,3,15,2,23,11,-2,6,2,23,sil
1.1014752388000488,15,-2,1,-8,-2,-6,4,1,16,2,11,20,14,15,sil
1.1174240112304688,12,-1,0,-16,0,-2,-10,0,4,-8,14,18,14,-7,sil
1.1174240112304688,7,7,2,-18,0,5,-1,0,9,-4,24,14,19,-6,sil
1.1329338550567627,6,24,21,0,4,5,13,7,15,8,36,19,25,7,sil
1.1329338550567627,0,31,17,29,6,2,6,2,4,7,24,8,16,0,sil
1.1489834785461426,-11,13,-4,31,0,6,6,-4,0,7,-1,-7,0,-4,sil
1.1489834785461426,-9,-3,-11,17,2,13,24,0,7,24,-14,-15,-6,8,sil
1.1650800704956057,0,-6,-3,20,7,11,19,1,1,23,-17,-11,-6,13,sil
1.1650800704956057,0,-10,-1,13,-2,3,0,0,0,9,-15,-4,-1,6,sil
1.1811842918395996,3,-14,-11,-10,-11,-8,-5,0,14,7,-10,-4,0,0,sil
1.1811842918395996,2,-13,-12,-23,-7,-17,-18,-8,0,-6,-13,-8,-8,-11,sil
1.1963660717010498,0,-15,-10,-25,-7,-18,-36,-13,-20,-22,-8,-7,-9,-15,sil
1.1963660717010498,6,-4,-4,-17,-2,-17,-29,-6,-16,-18,10,7,6,-5,sil
1.212029218673706,14,19,9,0,8,-14,-19,-8,-25,-23,14,20,7,-3,sil
1.212029218673706,0,19,3,7,5,-10,-18,-13,-43,-33,2,0,-13,-17,sil
1.2271974086761477,-15,5,-2,3,0,-5,-11,0,-32,-25,-6,-26,-26,-26,sil
1.2271974086761477,-16,6,0,9,3,7,0,4,-11,-12,-13,-27,-17,-14,sil
1.2423243522644043,-11,2,2,11,2,13,4,4,-5,-2,-14,-14,-9,1,sil
1.2580084800720217,-7,-8,10,5,0,13,8,10,3,12,-5,-3,-6,6,sil
1.2580084800720217,-3,-18,0,3,0,16,17,4,18,27,0,-7,0,5,sil
1.2580084800720217,-6,-24,-13,-6,-3,10,19,0,16,28,-13,-15,2,5,sil
1.2732956409454346,-3,-18,-8,-15,-4,3,18,11,14,20,-20,-3,3,4,sil
1.2732956409454346,6,-9,-5,-9,-1,1,17,10,29,14,1,17,18,13,sil
1.289522409439087,11,-7,-5,-13,-4,-6,4,6,34,9,21,29,32,33,sil
1.289522409439087,7,-1,-8,-23,-12,-16,-6,5,17,0,14,20,20,27,sil
1.3051409721374512,0,5,-5,-19,-8,-17,-8,-6,0,-10,6,6,0,0,sil
1.3198163509368896,0,11,5,-6,3,-9,-3,-7,0,-10,16,14,1,-1,sil
1.3198163509368896,7,14,8,0,8,-3,0,0,-2,-13,19,25,1,5,sil
1.3350772857666016,0,12,11,0,2,-4,-5,-5,-15,-25,4,10,-17,-16,sil
1.3350772857666016,-5,16,17,15,5,1,-9,-10,-9,-13,5,-6,-13,-29,sil
1.351139783859253,4,27,21,39,17,14,4,1,9,6,2,-2,0,-12,sil
1.351139783859253,9,24,12,37,16,17,14,7,1,1,-19,-6,-12,-4,sil
1.3664865493774414,1,4,1,22,7,14,9,-2,-20,-4,-16,-17,-13,0,sil
1.3664865493774414,3,-3,8,23,5,18,9,-2,-19,6,4,-7,5,11,sil
1.3822555541992188,4,-10,2,8,0,15,14,6,0,15,1,-3,14,12,sil
1.3822555541992188,-2,-20,-18,-23,-8,-1,3,6,7,17,-4,-10,8,3,sil
1.397433519363403,0,-11,-15,-18,-8,-4,-2,0,7,15,0,0,2,3,sil
1.397433519363403,6,-2,-3,-1,-2,0,-1,-4,5,5,-6,9,0,7,sil
1.413391351699829,0,-14,-5,-21,-8,-9,-13,-3,0,-4,-14,0,-2,1,sil
1.413391351699829,-6,-20,-15,-33,-17,-22,-24,-4,1,-2,0,-5,-1,-7,sil
1.4283955097198486,0,-7,-10,-15,-13,-24,-25,-9,9,0,19,9,6,-9,sil
1.4283955097198486,3,1,3,-6,-5,-22,-30,-7,-2,-11,23,25,2,-9,sil
1.4445369243621826,0,8,7,4,-1,-16,-31,-2,-16,-14,14,9,-8,-15,sil
1.4445369243621826,0,17,21,22,4,-1,-16,-1,-7,-2,4,-5,-2,-11,sil
1.4604535102844238,-7,12,13,19,8,9,2,-3,-4,4,0,-11,4,0,sil
1.4604535102844238,-25,0,-11,2,4,14,17,-1,-13,0,-11,-23,-7,-5,sil
1.4759714603424072,-25,1,-7,4,5,26,30,7,-11,-2,-16,-22,-13,-10,sil
1.4759714603424072,-5,2,-1,10,9,26,34,9,-9,-2,-15,-12,-4,4,sil
1.491688251495361,-3,-9,-12,-7,1,3,23,1,-15,-8,-29,-14,-8,9,sil
1.491688251495361,-7,-13,-17,-19,-7,0,17,5,6,0,-30,-15,-4,1,sil
1.5073957443237305,1,-8,-12,-9,-4,12,20,16,38,21,-6,-3,11,7,sil
1.5073957443237305,0,-13,-10,-13,-1,1,14,17,38,22,0,-1,7,15,sil
1.5223851203918457,0,-16,-14,-20,-4,-14,8,9,23,11,-6,-4,1,9,sil
1.5223851203918457,18,0,4,0,-4,-9,5,3,22,9,12,15,18,12,sil
1.5379705429077148,26,6,15,10,1,-6,-1,0,27,12,34,35,36,22,sil
1.5379705429077148,14,-1,0,-4,3,-14,-12,-3,12,4,22,21,18,16,sil
1.553051471710205,17,9,9,-1,0,-12,-23,-8,-20,-11,7,12,-7,3,sil
1.553051471710205,26,26,24,15,0,-14,-29,-15,-31,-23,15,24,-4,0,sil
1.568225383758545,14,19,16,8,4,-19,-30,-14,-20,-29,15,21,-2,-8,sil
1.568225383758545,0,7,7,-1,0,-7,-28,-10,-28,-28,1,1,-18,-25,sil
1.5842618942260742,-2,8,9,7,-1,-2,-22,-10,-37,-21,0,-1,-20,-28,sil
1.5842618942260742,1,17,23,22,11,1,-9,-2,-21,-8,10,11,-3,-7,sil
1.599703311920166,-4,20,22,29,22,23,6,0,0,6,13,1,1,0,sil
1.599703311920166,-22,7,2,16,6,26,8,-5,-10,1,0,-16,-12,-13,sil
1.6154820919036863,-23,-2,-5,6,-6,15,7,0,-22,-6,-11,-15,-18,-10,sil
1.6154820919036863,-12,0,-5,16,6,19,17,7,2,7,-6,-9,-5,4,sil
1.6310362815856934,-7,-2,-6,11,15,18,19,6,26,16,-4,-8,0,4,sil
1.6310362815856934,-4,-17,-15,-10,0,0,11,6,15,10,-15,-12,-6,0,sil
1.6461615562438965,-6,-26,-16,-24,-16,-6,8,9,6,14,-23,-17,-5,0,sil
1.6461615562438965,-15,-25,-14,-28,-16,5,10,1,14,13,-19,-18,0,-3,sil
1.661821365356445,-11,-21,-21,-24,-13,5,9,-2,12,0,-9,-15,5,1,goodbye
1.661821365356445,-1,-17,-18,-23,-10,-6,9,7,10,3,-9,-12,7,9,goodbye
1.6774065494537354,-6,-15,-14,-24,-5,-5,16,9,24,18,-16,-14,4,3,goodbye
1.6774065494537354,-6,-10,-6,-13,-6,0,11,1,30,17,-13,-13,2,5,goodbye
1.693488836288452,9,0,2,0,-8,-9,-4,3,17,11,0,0,11,16,goodbye
1.693488836288452,18,1,-1,-2,-5,-18,-6,0,7,11,3,13,20,14,goodbye
1.7095367908477783,21,2,4,0,-2,-9,-2,-7,4,5,11,21,21,7,goodbye
1.7095367908477783,32,17,15,18,2,-1,-6,0,-4,1,28,29,15,8,goodbye
1.7254762649536133,28,20,10,20,9,-7,-14,-1,-21,0,24,23,3,4,goodbye
1.7254762649536133,5,6,3,0,10,-10,-16,-8,-21,-10,7,17,3,0,goodbye
1.740938663482666,-4,2,-2,-1,5,-6,-10,-4,-3,-17,11,15,9,-1,goodbye
1.740938663482666,-5,7,2,6,-1,-3,-7,-1,-7,-23,14,13,0,-6,goodbye
1.7561547756195068,-7,5,7,-1,-1,0,-8,-2,-18,-23,9,10,-6,-6,goodbye
1.7561547756195068,-5,3,4,-6,7,2,-7,1,-7,-9,11,8,0,-3,goodbye
1.7717115879058838,-6,0,-1,4,6,-1,-2,5,1,-2,6,-2,-2,-11,goodbye
1.7717115879058838,-16,0,-1,9,0,-8,-1,-1,-7,-13,-4,-14,-13,-21,goodbye
1.7873661518096924,-13,9,10,6,4,0,-6,-6,-19,-21,-9,-10,-23,-19,goodbye
1.7873661518096924,0,16,11,16,9,1,-10,-4,-25,-8,-6,-12,-26,-14,goodbye
1.802478313446045,1,13,2,20,2,-3,-8,-7,-21,1,-4,-15,-14,-10,goodbye
1.802478313446045,-5,4,6,7,-1,10,0,-3,-8,0,-4,-3,-6,0,goodbye
1.8180618286132808,0,0,12,7,4,30,11,5,3,7,0,-2,-3,8,goodbye
1.8180618286132808,11,5,17,19,11,24,18,8,1,14,2,-8,0,9,goodbye
1.8332829475402832,5,3,5,7,0,13,15,2,0,-3,-16,-12,-7,0,goodbye
1.8332829475402832,-8,-15,-19,-21,-14,7,9,2,9,-11,-35,-18,-16,-1,goodbye
1.8499445915222168,-3,-18,-16,-23,-10,1,4,6,22,5,-15,-9,0,12,goodbye
1.8499445915222168,3,-12,-9,-8,-3,-2,9,1,21,14,3,-1,13,15,goodbye
1.8640666007995603,-6,-18,-13,-14,-8,0,13,0,10,6,-6,-8,-1,0,goodbye
1.8640666007995603,-11,-12,-4,-7,-2,4,15,1,14,8,-8,-3,-3,2,goodbye
1.879253625869751,3,4,3,8,8,9,17,3,29,18,5,16,21,21,goodbye
1.879253625869751,13,1,3,-3,2,4,10,5,34,33,15,27,40,29,goodbye
1.8950552940368648,2,-9,-3,-15,-5,-12,-5,0,21,34,11,13,26,10,goodbye
1.9102258682250977,-9,-8,-8,-3,-1,-25,-22,-8,-3,-1,-8,0,-7,-16,goodbye
1.9102258682250977,-6,-4,-7,0,0,-14,-20,-3,-21,-16,-9,2,-13,-14,goodbye
1.927454948425293,8,-1,-3,1,-4,-3,-7,1,-12,7,21,11,15,9,goodbye
1.927454948425293,17,1,10,7,-4,-12,-5,7,2,11,29,17,22,14,goodbye
1.9425594806671145,10,4,9,3,0,-12,-6,4,2,-3,16,15,3,1,goodbye
1.9425594806671145,0,9,1,-3,8,2,2,-7,-8,-9,10,2,-9,-7,goodbye
1.9425594806671145,-7,11,-4,-7,9,4,7,-9,-18,-18,-3,-18,-16,-22,goodbye
1.9581706523895264,-10,-5,-14,-11,-4,-11,-2,-1,-20,-20,-13,-23,-10,-23,goodbye
1.9733121395111084,-4,-15,-7,-11,-14,-17,-10,0,-15,-11,0,-3,-1,-8,goodbye
1.9733121395111084,-5,-1,-4,-3,-3,1,-2,0,-5,-5,0,0,-2,-10,goodbye
1.988955020904541,-7,5,-6,4,4,9,-1,1,-3,-3,-17,-8,-8,-18,goodbye
1.988955020904541,3,2,4,0,0,-3,-9,0,-3,-9,-9,-1,-3,-3,goodbye
2.009910821914673,6,0,10,-12,-3,-3,-6,-3,2,-15,0,1,0,4,goodbye
2.009910821914673,-3,2,9,-9,3,15,-1,0,4,-8,-7,-7,-3,0,goodbye
2.009910821914673,-3,9,3,7,9,16,-4,3,1,-2,-8,-8,-5,0,goodbye
2.019994020462036,6,13,2,13,3,3,-11,-8,-9,-17,0,-3,-8,1,goodbye
2.0350069999694824,11,17,10,17,0,7,-6,-12,-20,-25,0,2,-13,4,goodbye
2.0350069999694824,7,19,8,23,6,12,6,2,-5,-4,7,2,-10,9,goodbye
2.0510241985321045,0,12,2,18,9,3,12,10,17,20,22,9,4,13,goodbye
2.0510241985321045,0,2,3,15,3,0,7,4,13,30,26,17,19,11,goodbye
2.0664618015289307,-5,0,5,13,0,4,4,0,-3,15,9,7,9,2,goodbye
2.0664618015289307,-11,0,2,3,0,2,3,0,-3,1,-10,-8,-7,-1,goodbye
2.0819687843322754,-3,-7,0,5,0,1,9,1,3,8,-14,-5,1,4,goodbye
2.0819687843322754,0,-14,7,12,-2,0,11,2,-3,16,-6,4,9,5,goodbye
2.0980007648468018,-11,-15,-2,7,-6,1,12,0,-6,11,-7,-1,-3,-2,goodbye
2.0980007648468018,0,-10,-12,4,-5,1,14,-1,14,9,-11,0,-1,3,goodbye
2.11336612701416,17,-10,1,-2,-5,-8,6,0,19,9,-11,15,10,16,goodbye
2.11336612701416,11,-17,0,-16,-11,-25,-7,0,0,3,-10,12,7,8,goodbye
2.1293046474456787,4,-14,-8,-21,-9,-21,-15,0,9,-3,-4,1,9,0,goodbye
2.1293046474456787,7,-2,-3,-23,0,-1,-8,5,35,1,12,5,23,1,goodbye
2.1448192596435547,3,4,-4,-28,0,0,-1,5,14,9,25,5,15,-8,goodbye
2.1448192596435547,0,8,-2,-18,0,-2,-3,0,-15,1,17,-1,-2,-17,goodbye
2.160268783569336,2,13,4,6,14,11,0,-3,-9,-7,-1,-10,-10,-3,goodbye
2.160268783569336,1,13,5,16,23,19,5,-1,-8,-14,-14,-17,-25,1,goodbye
2.1758012771606445,-8,-3,-4,-9,6,10,6,1,-4,-10,-11,-17,-28,-7,goodbye
2.1758012771606445,-13,-28,-23,-42,-3,4,4,1,24,10,-7,-18,-2,0,goodbye
2.190968036651612,-8,-26,-27,-44,-1,-1,0,0,25,11,-6,-15,6,2,goodbye
2.190968036651612,-12,-7,-24,-27,-6,-15,-19,-11,-13,-19,2,-10,-2,-13,goodbye
2.206923246383667,-12,13,-5,-10,-6,-17,-28,-13,-31,-32,14,5,0,-19,goodbye
2.206923246383667,6,31,17,11,7,-3,-7,0,-18,-9,21,17,11,-3,goodbye
2.222557306289673,11,25,13,26,10,1,10,6,-14,2,19,7,7,3,goodbye
2.222557306289673,-11,6,1,25,3,2,6,0,-24,-7,-4,-9,-13,-2,goodbye
2.238574743270874,-17,1,-1,27,1,13,6,-3,-23,-1,-21,-15,-20,-4,goodbye
2.238574743270874,3,0,13,25,-5,14,8,-2,-11,8,-10,-4,-7,0,goodbye
2.2543628215789795,11,-2,21,23,-14,-2,-3,0,-4,-8,-9,1,-9,-2,sil
2.2543628215789795,0,-3,4,32,-8,-9,-14,-2,-2,-22,-19,1,-13,-7,sil
2.27005934715271,5,3,12,32,-1,5,0,2,10,3,-2,12,4,7,sil
2.27005934715271,20,17,29,32,-6,15,23,13,34,28,11,21,21,30,sil
2.2851004600524902,16,10,12,25,-6,2,21,7,36,11,-4,13,12,25,sil
2.2851004600524902,0,-10,-11,-2,1,-10,1,-2,15,1,-15,6,2,7,sil
2.300548791885376,-7,-17,-18,-22,1,-8,-10,-1,7,12,-7,3,4,0,sil
2.300548791885376,-8,-13,-9,-20,-2,-4,-18,0,4,2,-5,-1,0,-7,sil
2.316583633422852,-2,-14,-5,-23,3,-1,-10,0,-1,-4,9,3,3,-9,sil
2.316583633422852,6,-12,-8,-35,3,-4,6,4,-4,6,30,16,14,0,sil
2.331658840179444,1,-6,-6,-37,-6,-12,7,0,-8,-4,18,13,9,0,sil
2.331658840179444,-10,-3,-4,-23,-7,-11,-1,-10,-6,-14,11,-1,5,-9,sil
2.347276210784912,-2,7,2,-5,2,-3,-4,-4,2,6,35,5,19,-1,sil
2.347276210784912,12,20,6,6,13,-1,-7,3,0,13,40,13,26,5,sil
2.362859010696411,10,14,7,3,11,-1,-11,-2,-13,0,13,0,11,6,sil
2.362859010696411,3,5,9,-7,3,3,-6,-3,-17,0,-3,-12,-2,7,sil
2.377988338470459,6,12,6,-2,5,3,0,2,-5,0,-4,-13,-6,4,sil
2.377988338470459,7,20,15,18,13,4,0,2,8,-5,-9,-3,-13,4,sil
2.393499851226806,0,10,9,30,9,11,0,0,1,-6,-23,-1,-30,-1,sil
2.393499851226806,-12,-6,-13,16,-2,13,8,-1,-16,-11,-40,-18,-46,-18,sil
2.4092249870300293,-17,-14,-12,4,-7,12,12,-4,-15,-11,-40,-29,-41,-20,sil
2.4092249870300293,-16,-18,-9,6,-2,18,23,0,-2,8,-27,-28,-23,-12,sil
2.4254496097564697,-19,-22,-18,-1,-3,23,29,14,11,23,-28,-26,-13,-7,sil
2.4254496097564697,-21,-19,-21,-12,-5,18,23,17,39,26,-25,-20,-1,3,sil
2.441052198410034,-7,-12,-13,-6,0,4,15,5,49,20,0,-3,18,13,sil
2.441052198410034,7,-4,-1,-1,3,-7,0,-3,18,1,19,13,26,11,sil
2.456839084625244,15,0,3,0,0,-12,-17,-5,-3,-5,21,20,25,11,sil
2.456839084625244,21,3,7,3,0,-16,-20,-3,1,-1,14,24,19,13,sil
2.4719231128692627,14,0,1,-10,-5,-21,-15,-4,1,-12,1,18,5,0,sil
2.4719231128692627,-4,-6,-11,-29,-17,-24,-23,-12,-18,-33,-3,2,-5,-19,sil
2.4871246814727783,-5,-1,-1,-19,-16,-16,-26,-8,-25,-30,4,4,3,-16,sil
2.502257823944092,9,12,12,1,-6,-8,-11,0,-14,-8,14,9,22,1,sil
2.502257823944092,10,21,15,6,1,-8,-6,-2,-12,-1,24,13,21,9,sil
2.502257823944092,6,22,17,5,7,-5,-10,0,-10,-1,37,27,14,7,sil
2.517385959625244,8,17,10,8,3,-7,-10,0,-1,6,31,27,15,5,sil
2.517385959625244,-1,7,3,11,-3,-9,-7,-1,-10,7,8,4,0,-1,sil
2.532922744750977,-17,-5,-3,5,0,1,2,1,-17,0,-11,-15,-20,-10,sil
2.5490288734436035,-14,-15,-3,-12,2,10,13,5,-2,-5,-26,-20,-26,-12,sil
2.5490288734436035,-3,-7,1,-9,-2,12,24,1,4,-9,-24,-16,-26,-15,sil
2.56461501121521,0,0,0,11,2,12,27,0,0,0,-2,-9,-22,-13,sil
2.56461501121521,-6,-2,5,12,9,9,13,3,-1,8,7,-3,-12,0,sil
2.581170558929444,-3,4,4,15,12,16,2,4,2,9,6,-1,0,13,sil
2.581170558929444,10,18,3,27,18,21,3,2,11,14,5,1,8,15,sil
2.581170558929444,13,9,1,16,11,3,1,4,16,18,0,0,2,6,sil
2.5956740379333496,-5,-13,-17,-5,-10,-10,-4,1,9,8,-10,-8,0,-1,sil
2.6112279891967773,-14,-18,-20,-12,-10,0,-5,-2,0,0,-14,-11,7,1,sil
2.6112279891967773,-2,-8,-5,-6,0,11,4,-4,-5,0,-18,-13,-1,1,sil
2.6282644271850586,2,-4,-3,0,0,4,7,-5,-16,-7,-21,-15,-19,-7,sil
2.6282644271850586,3,2,1,2,1,0,3,0,-8,-5,-6,0,-2,2,sil
2.6282644271850586,10,8,7,5,9,10,12,9,25,17,8,15,24,26,sil
2.6433048248291016,10,-1,2,-1,0,6,11,8,34,23,0,11,16,18,sil
2.6433048248291016,4,-12,-5,-11,-9,-15,-10,-4,12,2,-2,2,0,-2,sil
2.6590030193328857,3,-11,-4,-12,-3,-19,-24,-5,3,-5,10,5,6,0,sil
2.6741068363189697,0,-10,-5,-13,-6,-4,-15,2,3,-2,0,0,7,0,sil
2.6741068363189697,-10,-11,-12,-22,-15,-5,-8,0,3,-4,-12,-9,-3,-9,sil
2.6896560192108154,-10,-4,0,-25,-14,-14,-10,0,9,0,1,3,0,-7,sil
2.6896560192108154,-2,3,6,-11,-6,-12,-5,3,4,3,14,13,13,-1,sil
2.705305337905884,9,16,10,2,7,-7,0,0,-8,-8,13,11,12,0,sil
2.705702066421509,23,28,23,7,15,-1,2,-5,-8,-18,19,18,1,0,sil
2.721283435821533,12,17,6,9,5,1,1,-4,-11,-12,17,9,-8,-3,sil
2.721283435821533,-8,0,-4,9,5,2,-1,0,-23,-9,3,-9,-19,-14,sil
2.73667573928833,-9,4,7,11,13,10,1,1,-13,-10,1,-7,-17,-13,sil
2.73667573928833,-1,11,10,21,7,9,6,-2,-1,-8,7,3,-4,-1,sil
2.75240421295166,-1,11,8,26,0,0,0,-2,-8,-6,0,5,-1,4,sil
2.75240421295166,-7,0,0,17,-1,0,0,-1,-14,1,-9,-7,-1,0,sil
2.767678737640381,-21,-15,-14,0,-9,2,7,-2,-16,6,-17,-23,-5,-5,sil
2.767678737640381,-28,-18,-22,-12,-12,5,11,0,-15,2,-26,-24,-11,-5,sil
2.783475160598755,-12,-21,-16,-14,-6,6,10,-1,-4,1,-31,-17,-8,-1,sil
2.783475160598755,0,-23,-2,-9,-6,-2,0,-2,0,1,-16,-4,1,0,sil
2.798471689224243,11,-5,0,-6,0,-5,-6,0,4,0,13,13,20,8,sil
2.798471689224243,22,8,2,-7,9,3,-2,3,14,-3,24,24,26,15,sil
2.814046621322632,18,8,3,-7,5,0,-8,4,10,0,14,12,9,3,sil
2.814046621322632,4,11,0,-3,0,-10,-18,2,3,2,10,-1,-5,-8,sil
2.829972505569458,-5,18,9,4,8,-2,-8,3,11,7,12,0,-4,-3,sil
2.829972505569458,-8,13,12,18,12,7,12,2,18,23,7,0,0,6,sil
2.8450539112091064,0,1,5,17,2,9,12,3,11,34,0,-5,-1,12,sil
2.8450539112091064,10,0,2,7,-5,13,7,5,1,20,-9,-5,-4,11,sil
2.8609986305236816,6,-1,-7,4,-3,12,14,-3,0,-1,-19,-7,-10,5,sil
2.8609986305236816,-3,-15,-10,-4,0,5,15,-6,7,-4,-20,-6,-11,4,sil
2.8766534328460693,-5,-28,-16,-21,-3,-1,10,5,17,0,-16,-7,3,0,sil
2.8766534328460693,5,-20,-14,-22,-10,-16,0,8,12,-12,-12,-2,8,-6,sil
2.8922698497772217,17,0,0,-7,-8,-22,-13,-1,-2,-23,0,9,1,0,sil
2.8922698497772217,14,10,5,-2,0,-16,-20,-7,-15,-16,18,14,13,2,sil
2.9084439277648926,1,11,4,-8,1,-15,-20,-4,-23,-9,25,13,17,-7,sil
2.9084439277648926,-6,9,3,-4,-6,-12,-25,-9,-24,-16,13,8,-1,-17,sil
2.924410343170166,-6,8,5,6,-7,-7,-24,-9,-23,-22,0,-2,-17,-19,sil
2.924410343170166,0,17,17,10,5,0,-6,0,-12,-12,1,-3,-13,-14,sil
2.940513610839844,0,18,15,15,16,9,6,0,3,5,7,0,-8,-1,sil
2.940513610839844,-6,9,10,25,17,20,8,-1,6,15,0,0,-9,8,sil
2.956169843673706,-9,5,5,23,12,25,20,6,8,18,-5,-5,-1,8,sil
2.956169843673706,-10,-5,-4,7,3,20,29,7,14,20,-2,-4,9,6,sil
2.971369504928589,-10,-20,-9,-3,-2,15,20,6,17,24,0,-1,14,10,sil
2.971369504928589,-8,-21,-12,-6,-3,9,17,9,26,31,-4,0,15,16,sil
2.9869418144226074,-2,-22,-8,-20,-4,0,15,11,36,25,-6,4,12,19,sil
2.9869418144226074,4,-22,-9,-31,-6,-6,3,6,29,6,4,9,11,15,sil
3.002973318099976,9,-7,-10,-18,-8,-8,-7,0,10,-7,14,14,11,5,sil
3.002973318099976,8,6,3,-6,-6,-14,-15,-8,-12,-17,3,16,0,-5,sil
3.0190463066101074,10,11,8,-2,-2,-19,-17,-14,-30,-26,0,3,-10,-17,sil
3.0190463066101074,8,17,5,4,-8,-18,-18,-12,-40,-36,7,-6,-11,-24,sil
3.035132646560669,-5,14,-3,0,-9,-13,-28,-12,-48,-44,-6,-16,-28,-32,sil
3.035132646560669,-22,0,-14,-4,-3,-8,-33,-15,-46,-35,-33,-37,-46,-39,sil
3.0505611896514893,-19,-1,-4,6,-7,0,-12,-3,-22,-10,-27,-34,-26,-23,sil
3.0505611896514893,-4,1,5,13,-9,14,15,7,0,8,-4,-6,5,8,sil
3.066678762435913,1,0,7,8,6,23,30,4,4,15,-4,5,8,21,sil
3.066678762435913,2,0,8,17,18,25,39,5,10,20,-8,2,5,21,sil
3.0823025703430176,11,1,4,19,15,12,34,5,20,22,3,1,13,22,sil
3.0823025703430176,17,1,1,-1,10,-1,8,2,19,21,10,9,18,22,sil
3.097365140914917,16,-7,-5,-10,2,-7,-6,10,23,25,9,12,25,20,sil
3.097365140914917,11,-15,-5,-4,-3,-11,-13,14,31,16,13,15,22,13,sil
3.1134583950042725,6,-2,2,-4,0,-15,-23,1,20,0,18,17,11,2,sil
3.1134583950042725,5,11,3,-2,1,-19,-23,-3,5,-4,20,20,11,-2,sil
3.128934383392334,3,10,3,0,-5,-18,-14,0,1,-7,19,16,8,-6,sil
3.128934383392334,-3,12,0,0,0,-6,-8,-2,0,-8,14,-2,-5,-15,sil
3.1450212001800537,-6,18,6,9,9,7,-6,-5,-12,-5,4,-8,-13,-10,sil
3.1450212001800537,-4,16,11,24,12,19,5,-2,-19,-7,-4,0,-12,2,sil
3.162471294403076,0,10,2,22,11,24,21,-2,-9,-6,-6,-4,-13,2,sil
3.162471294403076,5,1,9,11,14,23,23,2,0,8,-4,-9,-16,-1,sil
3.176002025604248,0,-11,12,4,9,23,23,8,8,21,-4,-5,-7,0,sil
3.176002025604248,-12,-19,-6,-8,-6,11,26,3,13,17,-13,-9,2,0,sil
3.1920175552368164,-14,-24,-21,-27,-22,-8,17,-2,5,6,-26,-15,5,0,sil
3.1920175552368164,-13,-34,-28,-35,-25,-17,-1,-5,-6,-4,-27,-15,-1,-6,sil
3.2080845832824707,-25,-36,-30,-46,-26,-18,-23,-6,-13,-22,-26,-13,-16,-20,sil
3.2080845832824707,-26,-23,-28,-46,-30,-27,-39,-12,-21,-33,-25,-11,-14,-22,sil
3.223104476928711,-6,0,-6,-16,-15,-24,-39,-10,-23,-26,0,2,6,-3,sil
3.223104476928711,14,23,22,10,6,-6,-23,0,-8,-14,28,23,8,5,sil
3.2381930351257324,19,27,23,14,12,2,-9,2,0,-9,23,17,-6,-2,sil
3.2381930351257324,16,26,27,18,16,6,0,0,-1,-1,17,14,-3,0,sil
3.254253387451172,21,35,34,38,23,12,12,6,2,14,29,19,17,13,sil
3.254253387451172,12,22,13,39,15,15,20,3,8,16,11,2,13,5,sil
3.270287036895752,-16,-8,-10,13,-4,13,18,-4,8,9,-23,-24,-9,-5,sil
3.270287036895752,-19,-23,-18,-8,-10,6,11,2,17,20,-15,-23,-1,8,sil
3.2857227325439453,8,-14,-11,-9,0,3,9,11,25,29,13,3,24,24,sil
3.2857227325439453,15,-3,-8,-5,3,4,6,1,15,7,13,13,22,14,sil
3.3009510040283203,2,0,-2,-6,0,-5,-2,-4,-5,-12,0,7,2,0,sil
3.3009510040283203,5,7,12,4,2,-7,-2,5,-17,-7,2,8,-4,-1,sil
3.3163113594055176,7,13,7,20,9,7,12,4,-11,-3,-5,0,-12,0,sil
3.3163113594055176,-1,1,0,14,12,14,13,-4,-5,-10,-26,-14,-29,-1,sil
3.3313770294189453,0,-9,-1,2,10,9,7,0,7,5,-14,-7,-20,3,sil
3.3313770294189453,3,-10,-4,-3,0,-2,7,6,23,22,13,10,10,9,sil
3.346929788589477,1,-8,-8,-18,-5,-24,-9,-2,7,0,7,10,18,2,sil
3.346929788589477,-4,-6,-12,-26,-3,-36,-28,-9,-18,-28,-3,-4,0,-16,sil
3.3625497817993164,-6,6,-3,-12,-7,-26,-27,-1,-20,-25,6,-10,-11,-29,sil
3.3625497817993164,1,22,13,13,-1,-6,-12,6,-5,-8,13,-6,-1,-14,sil
3.378204822540283,7,21,13,23,6,6,3,2,8,10,9,-1,17,8,sil
3.378204822540283,-7,0,0,7,0,16,15,0,11,22,10,3,15,9,sil
3.393378496170044,-16,-7,-11,2,-5,21,16,-2,3,16,4,-1,-4,0,sil
3.393378496170044,-3,0,1,13,-1,19,3,-2,-5,6,-14,-4,-17,4,sil
3.4093642234802246,0,-8,6,5,-7,10,-3,-1,-12,1,-22,0,-9,11,sil
3.4093642234802246,-13,-24,-14,-22,-18,0,-2,-2,-13,-1,-22,-3,-1,0,sil
3.424975872039795,-15,-23,-21,-40,-17,-7,-8,0,0,0,-20,-10,0,-5,sil
3.4404938220977783,0,-9,-6,-31,-7,-10,-15,0,15,0,1,5,8,0,sil
3.4404938220977783,13,7,6,-9,1,-10,-14,2,0,-15,18,27,14,-2,sil
3.4404938220977783,7,15,7,1,3,-6,-12,2,-16,-25,5,20,0,-8,sil
3.455952405929565,0,8,1,-1,0,-3,-9,-2,-2,-12,8,2,-6,-5,sil
3.472051858901977,7,7,13,0,2,0,-1,-5,3,-7,21,0,0,-1,sil
3.472051858901977,13,11,18,16,9,7,10,0,-8,-12,1,-3,-5,-5,sil
3.472051858901977,4,7,10,30,14,14,23,3,-7,-2,-12,-7,-8,-4,sil
3.4874463081359863,-3,0,4,16,12,18,29,1,-4,8,-2,-12,-6,-4,sil
3.4874463081359863,-6,-9,-2,0,1,12,16,-6,-14,0,-10,-22,-18,-6,sil
3.5040132999420166,0,-1,5,13,5,0,5,0,-1,2,-12,-6,-11,7,sil
3.5040132999420166,11,11,15,28,19,0,16,12,26,32,15,15,21,28,sil
3.5195982456207275,10,1,3,12,12,2,17,8,28,36,21,4,27,25,sil
3.5195982456207275,-2,-6,-5,-5,0,0,5,2,23,17,0,-3,10,14,sil
3.5347440242767334,-10,-5,-17,-13,0,-3,-2,0,27,11,-5,0,10,12,sil
4.158537149429321,13,-3,1,7,8,12,19,2,25,24,-1,4,13,29,sil
4.158537149429321,0,-15,-10,-6,-1,-4,-2,0,14,9,-9,1,6,5,sil
4.174166679382324,6,-6,-7,-9,-5,-15,4,7,19,12,7,10,26,4,sil
4.174166679382324,16,8,6,-16,-10,-23,0,8,20,11,27,21,37,15,sil
4.189389944076538,15,7,6,-14,-19,-37,-32,-1,8,-5,21,20,21,10,sil
4.189389944076538,12,6,1,2,-16,-40,-44,-11,-10,-12,20,13,6,-6,sil
4.20493483543396,10,11,8,2,-1,-15,-27,-6,-17,-3,27,12,2,-10,sil
4.220467805862427,14,23,15,4,10,5,-12,-3,-6,4,21,11,3,0,sil
4.220467805862427,16,30,24,22,18,4,-9,-11,-7,-2,14,12,3,-1,sil
4.2359678745269775,3,19,17,16,18,4,-6,-13,-18,-13,16,7,0,-13,sil
4.2359678745269775,-3,11,2,4,16,17,3,-5,-11,-2,11,1,-1,-7,sil
4.2359678745269775,1,13,8,21,17,16,10,1,1,10,-1,-1,-6,2,sil
4.250998020172119,-4,-1,4,26,6,2,11,1,-10,1,-19,-16,-22,-5,sil
4.2665770053863525,-19,-20,-8,0,-6,8,9,0,-20,-7,-34,-28,-29,-13,sil
4.2665770053863525,-13,-12,-4,-4,-1,29,14,5,-4,0,-33,-20,-17,-4,sil
4.28327202796936,-5,-9,-5,6,1,23,18,11,7,7,-27,-16,-13,0,sil
4.28327202796936,-13,-17,-10,0,-10,0,15,8,3,3,-25,-13,-17,-1,sil
4.28327202796936,-16,-18,-14,-9,-18,-4,7,0,4,2,-17,-7,0,4,sil
4.2981603145599365,-9,-13,-9,-12,-9,-3,0,0,7,1,-6,0,13,12,sil
4.313169002532959,-8,-17,-5,-14,-1,-7,3,3,5,-2,0,3,9,7,sil
4.313169002532959,-10,-22,-12,-14,-3,-8,7,0,8,-5,4,4,4,-1,sil
4.328361511230469,-7,-16,-9,-19,-7,-6,-2,-1,9,-8,1,5,4,-7,sil
4.328361511230469,-8,-7,-8,-20,-5,-7,-10,-1,3,-8,0,1,1,-9,sil
4.344003200531006,-3,-1,-3,-12,-1,-7,-7,-2,-1,-5,9,5,0,-3,sil
4.344003200531006,16,9,5,0,1,-6,-6,0,0,3,25,20,12,6,sil
4.359692573547363,30,17,3,5,0,-10,-11,-1,5,6,31,21,21,7,sil
4.359692573547363,22,12,5,3,-1,-11,-14,-4,4,-3,24,16,15,5,sil
4.37501335144043,16,14,8,2,3,-3,-3,0,5,0,20,19,17,10,sil
4.37501335144043,19,28,12,11,10,5,7,4,4,4,25,17,18,11,sil
4.391028881072998,12,31,18,20,11,7,2,1,-5,-1,20,1,4,0,sil
4.391028881072998,-3,13,6,16,7,6,-6,-5,-17,-5,-4,-19,-15,-10,sil
4.407081604003906,-19,-6,-7,3,2,7,-3,-5,-25,-11,-39,-38,-41,-22,sil
4.407081604003906,-22,-15,-15,-1,1,14,6,-2,-19,-16,-52,-45,-47,-22,sil
4.423095226287842,-17,-20,-13,-6,2,9,7,0,1,0,-36,-25,-15,-2,sil
4.423095226287842,-12,-19,-12,-18,-4,-5,0,7,22,21,-7,4,17,13,sil
4.43864369392395,-2,0,-16,-17,-9,-17,-9,1,24,23,10,12,21,9,sil
4.43864369392395,10,18,3,0,0,-10,-15,0,3,6,9,10,8,1,sil
4.454288482666016,12,15,21,16,11,3,-2,2,-15,-3,5,7,4,0,sil
4.454288482666016,0,1,8,20,8,14,16,-1,-9,3,5,-3,0,4,sil
4.46929407119751,-14,-1,2,17,0,22,23,0,8,15,0,-8,-9,3,sil
4.46929407119751,-8,-3,3,14,-7,15,22,6,19,21,-1,1,0,0,sil
4.48529839515686,7,-13,1,-3,-6,-7,11,3,20,15,5,17,19,3,sil
4.48529839515686,17,-10,3,-19,-1,-17,-8,-3,11,-2,16,24,19,13,sil
4.500590562820435,17,9,14,-8,0,-13,-19,-5,-7,-21,20,24,3,4,sil
4.500590562820435,12,15,16,2,0,-14,-13,-3,-21,-24,9,14,-10,-12,sil
4.516473054885864,0,5,5,1,-5,-14,-7,-1,-16,-18,-3,-2,-20,-13,sil
4.516473054885864,-14,5,6,6,-5,-3,-5,0,-7,-17,-14,-13,-24,-6,sil
4.53223729133606,-20,0,-1,11,2,11,0,3,-4,-5,-22,-18,-14,-4,sil
4.53223729133606,-13,-18,-18,-3,5,15,5,-1,-7,10,-25,-21,-4,-2,sil
4.547238349914551,0,-23,-16,-21,-5,4,9,-10,-17,-2,-27,-19,-9,3,sil
4.547238349914551,12,-14,-5,-13,-12,-2,9,-4,-18,-19,-21,-12,-7,9,sil
4.562875509262085,12,-11,0,0,-6,0,0,6,0,-3,0,0,12,8,sil
4.562875509262085,0,-14,-10,-12,-7,-2,-7,4,13,10,20,12,24,0,sil
4.577922344207764,-2,-11,-17,-30,-11,-14,-9,0,5,-3,23,13,17,-7,sil
4.577922344207764,7,10,2,-5,0,-14,-13,3,0,-9,29,19,16,0,sil
4.594194889068604,9,29,14,28,14,-1,-17,0,7,7,37,21,17,6,sil
4.594194889068604,-4,19,5,20,18,3,-11,-8,6,10,21,2,2,2,sil
4.609707593917847,-11,6,-3,9,19,7,1,-3,-2,9,4,-14,-4,-1,sil
4.609707593917847,-9,2,-3,23,13,16,15,3,1,25,2,-12,3,0,sil
4.624941349029541,-17,-2,0,15,4,19,17,0,4,20,-11,-8,-6,-4,sil
4.624941349029541,-21,-9,-9,-2,2,15,24,-1,0,0,-29,-17,-25,-11,sil
4.640977144241333,-6,-2,-4,-4,0,18,34,14,18,7,-19,-7,-11,3,sil
4.640977144241333,7,4,5,-7,-6,15,24,24,46,24,2,9,14,19,sil
4.657110929489136,6,0,-5,-14,-17,-11,-1,8,41,8,1,3,11,7,sil
4.657110929489136,7,-1,0,-14,-20,-29,-20,-2,19,-9,-9,2,-3,-3,sil
4.672314882278442,11,6,10,-11,-9,-22,-20,-3,9,-12,-10,6,-3,-2,sil
4.672314882278442,4,5,1,-15,0,-20,-22,-12,-10,-22,0,2,-2,-9,sil
4.688316583633423,0,6,5,-11,0,-16,-29,-17,-35,-26,3,3,-7,-18,sil
4.688316583633423,8,22,15,4,5,-2,-21,-12,-38,-15,-3,0,-5,-12,sil
4.7045578956604,7,21,4,16,7,6,0,-9,-40,-14,-18,-11,-12,-4,sil
4.7045578956604,-5,-3,-9,12,3,10,14,-5,-44,-14,-14,-13,-20,-7,sil
4.720330238342285,0,-8,0,13,6,19,22,5,-26,3,0,-7,-8,0,sil
4.720330238342285,16,5,11,26,14,27,27,13,1,22,9,4,10,22,sil
4.735995054244995,7,-10,-5,15,8,18,17,5,11,20,11,5,13,21,sil
4.735995054244995,-14,-37,-16,-16,-10,0,0,2,10,12,3,-4,2,3,sil
4.752038478851318,-8,-31,-10,-23,-19,-2,-1,6,17,18,-3,-1,5,7,sil
4.752038478851318,0,-20,-7,-12,-12,-6,0,3,21,15,1,9,12,18,sil
4.767180442810059,-8,-16,-3,-16,-9,-21,-8,-2,12,-7,7,7,8,5,sil
4.767180442810059,-1,-1,2,-11,-9,-20,-16,-4,9,-14,12,11,13,-5,sil
4.782592296600342,22,14,20,0,0,-9,-20,-1,4,-7,23,30,20,3,sil
4.782592296600342,24,21,26,8,9,-10,-17,-2,-13,-13,28,29,10,5,sil
4.798603296279907,6,25,17,16,8,-16,-8,-5,-15,-19,19,14,0,-8,sil
4.798603296279907,-4,22,12,14,4,-10,-7,0,-2,-16,6,3,-1,-15,sil
4.814319133758545,-10,8,1,2,2,0,-12,-1,-4,-12,0,-10,-11,-12,sil
4.814319133758545,-10,1,1,10,4,9,-2,-4,-10,-10,-2,-11,-23,-11,sil
4.82950234413147,-8,8,6,29,10,23,20,3,-3,0,-9,-10,-18,-11,sil
4.82950234413147,-7,7,0,24,12,30,30,10,8,13,-14,-20,-7,-6,sil
4.845006942749023,-10,0,-7,7,9,22,22,5,14,18,-16,-20,-8,0,sil
4.845006942749023,-14,-10,-14,0,2,11,16,1,13,17,-19,-16,-12,0,sil
4.86046838760376,-8,-12,-13,-7,-2,8,12,6,8,16,-23,-20,-8,0,sil
4.86046838760376,-2,-11,-16,-16,-7,3,7,6,10,15,-19,-16,1,9,sil
4.876203775405884,-9,-20,-29,-31,-15,-7,-1,-1,18,14,-18,-11,9,7,sil
4.876203775405884,-15,-27,-30,-41,-19,-13,-4,-1,17,10,-23,-15,6,-9,sil
4.891874074935913,-2,-11,-22,-31,-7,-17,-5,0,5,2,-14,-10,4,-6,sil
4.891874074935913,10,1,-12,-31,0,-17,-13,-3,-8,-8,0,5,6,11,sil
4.907383680343628,10,-2,-5,-37,-10,-11,-18,-3,-10,-15,4,10,11,11,sil
4.907383680343628,11,2,2,-11,-3,-13,-9,0,-2,-11,15,7,13,4,sil
4.923066854476929,22,19,18,10,17,-10,-5,0,-3,-1,32,24,15,7,sil
4.923066854476929,22,21,18,3,16,0,-6,-9,-7,-2,38,28,12,2,sil
4.938345193862915,12,22,19,9,8,0,-4,-12,-15,-11,27,14,0,-7,sil
4.953986644744873,5,27,27,37,12,-3,0,-2,-32,-14,10,12,-15,-9,sil
4.953986644744873,-8,8,16,43,3,3,-2,-2,-40,-21,-12,1,-22,-14,sil
4.953986644744873,-22,-10,12,30,-4,16,-5,-7,-28,-21,-26,-16,-30,-16,sil
4.9692676067352295,-8,-5,17,20,-2,28,7,2,0,9,-9,-8,-20,0,sil
4.985814094543457,-2,-3,6,13,-5,26,21,12,18,29,0,3,-2,11,sil
4.985814094543457,-17,-13,-8,12,-6,17,17,7,21,15,-12,-3,0,4,sil
5.000722885131836,-4,-16,-5,15,2,8,14,5,29,17,-2,1,6,12,sil
5.000722885131836,11,-9,5,0,-1,-3,14,9,31,25,19,17,19,22,sil
5.016317844390869,4,-4,-3,-12,-11,-12,0,4,19,11,11,10,16,10,sil
5.016317844390869,6,-1,-11,-1,-7,-16,-11,0,13,-6,-2,1,10,0,sil
5.016317844390869,16,2,-3,-8,-4,-19,-8,1,8,-16,10,14,19,7,sil
5.032938957214356,15,5,0,-22,-3,-15,-3,-4,-5,-16,26,22,22,8,sil
5.032938957214356,18,11,8,-6,6,-5,-4,-2,-12,-10,22,16,12,-2,sil
5.049288272857666,10,13,7,4,12,-4,-6,2,-4,-3,12,0,4,-11,sil
5.049288272857666,-2,5,1,-7,6,-4,-10,-3,-1,-1,4,-15,-3,-9,sil
5.062623977661133,0,7,4,-1,5,-1,-5,-4,-5,0,-4,-13,-10,-3,sil
5.07935357093811,-4,6,-4,5,5,0,1,0,-4,0,-12,-21,-11,-7,sil
5.07935357093811,-28,-11,-15,-14,0,1,-6,-5,-11,-4,-21,-33,-17,-19,sil
5.07935357093811,-31,-19,-19,-21,-4,8,-12,-9,-21,-12,-32,-32,-23,-20,sil
5.094031095504761,-18,-9,-15,-11,-6,5,-2,-5,-20,-10,-31,-19,-22,-10,sil
5.109292984008789,-11,-2,-1,0,-6,2,4,0,-2,8,-16,-7,-12,0,sil
5.109292984008789,-2,0,-2,9,0,6,6,4,11,25,-6,-2,4,6,sil
5.125340700149536,-1,-5,-7,4,3,6,1,4,1,16,-4,0,6,8,sil
5.125340700149536,-2,-12,-4,-7,-2,7,1,-1,-9,1,-6,3,-1,7,sil
5.140600681304932,2,-12,-5,-2,-4,8,8,-3,1,1,-7,11,3,13,sil
5.140600681304932,3,-9,-8,-1,-1,0,5,2,12,2,1,20,13,13,sil
5.15575098991394,10,-3,-6,-10,0,-10,0,6,14,3,19,16,18,0,sil
5.15575098991394,18,6,2,-10,0,-13,1,8,18,5,23,14,21,-2,sil
5.1709630489349365,7,11,5,-6,-4,-12,1,6,17,-2,9,14,11,-2,sil
5.1709630489349365,0,13,5,-3,-3,-12,-2,-3,-1,-22,-3,0,-9,-11,sil
5.18639087677002,8,26,21,13,6,0,0,-6,-20,-28,0,-5,-18,-12,sil
5.18639087677002,12,27,25,33,12,9,7,-5,-19,-18,11,4,-14,-6,sil
5.201943874359131,3,11,16,29,10,9,0,-2,-5,-3,7,2,-18,-3,sil
5.201943874359131,-1,4,10,22,4,9,-6,4,1,10,3,-6,-15,0,sil
5.21795654296875,-6,3,7,24,3,12,-1,2,-1,11,6,-11,-4,1,sil
5.21795654296875,-8,0,8,17,7,15,12,-1,-5,5,-1,-8,-5,8,sil
5.234038352966309,-3,-5,-3,3,2,13,20,1,10,19,-12,-7,-2,19,sil
5.234038352966309,2,-10,-12,-11,-6,-1,7,5,22,25,-1,0,13,18,sil
5.249241590499878,2,-20,-15,-27,-11,-13,-9,0,9,3,8,2,20,4,sil
5.249241590499878,-11,-36,-28,-39,-20,-9,-5,-3,-1,-11,-2,-4,4,-3,sil
5.264510631561279,-14,-31,-17,-36,-22,-2,3,6,3,-2,-10,2,0,3,sil
5.264510631561279,4,-5,1,-13,-2,-6,-2,4,10,4,4,18,24,10,sil
5.280131578445435,7,2,-3,-5,6,-19,-19,-8,5,-5,4,11,27,-2,sil
5.280131578445435,-8,0,-15,-18,0,-18,-17,-6,0,-12,-2,-1,3,-15,sil
5.296176910400391,-2,13,-2,-5,2,-2,-2,3,-6,-1,11,7,2,-5,sil
5.296176910400391,4,19,17,18,7,1,-5,1,-13,0,12,9,1,0,sil
5.312278270721436,-1,6,11,8,1,-6,-15,-3,-11,-10,-6,-5,-11,-8,sil
5.312278270721436,2,8,9,0,0,-7,-14,-2,-12,-14,0,-1,-13,-9,sil
5.327951192855835,13,26,24,20,9,6,-2,-3,-19,-10,15,8,-8,-2,sil
5.327951192855835,13,27,18,37,15,25,20,-3,-6,2,10,1,0,1,sil
5.344478130340576,12,11,11,26,9,27,30,2,10,18,0,-2,6,5,sil
5.344478130340576,6,0,5,12,0,8,15,0,0,20,-8,-3,-6,0,sil
5.360588788986206,-3,-6,-5,13,0,-3,-3,-7,-19,3,-22,-11,-19,-3,sil
5.360588788986206,-9,-16,-6,11,4,8,-2,1,-10,-1,-22,-7,-9,4,sil
5.37639856338501,-3,-19,-6,0,3,11,11,10,19,14,-10,-6,3,13,sil
5.37639856338501,0,-11,-5,-10,-2,-6,9,6,31,18,-8,-9,8,4,sil
5.3921427726745605,-8,-19,-17,-23,-11,-17,-8,0,17,-3,-13,-11,0,-9,sil
5.3921427726745605,-12,-27,-24,-31,-14,-13,-14,-3,1,-16,-9,-9,-9,-7,sil
5.40819263458252,0,-8,-8,-28,-13,-8,0,2,3,-9,0,1,1,0,sil
5.40819263458252,-2,1,-12,-23,-13,-10,6,6,5,-7,3,4,3,-5,sil
5.4263529777526855,-6,0,-12,-19,-7,-9,-4,0,0,-18,14,7,0,-2,sil
5.4263529777526855,11,14,10,-4,3,0,-8,0,0,-15,40,24,15,11,sil
5.439754486083984,8,18,9,0,1,0,-5,0,-3,-8,35,21,9,-2,sil
5.439754486083984,-16,4,-3,3,-1,0,-8,-3,-13,-3,1,-7,-20,-21,sil
5.454794406890869,-10,10,6,24,12,11,-3,-1,-8,5,-6,-18,-14,-6,sil
5.454794406890869,0,19,14,24,20,14,1,-1,-8,1,-6,-7,0,0,sil
5.470247507095337,-9,9,3,13,9,5,-2,-6,-17,-7,-14,-7,-6,-7,sil
5.470247507095337,-11,-1,1,13,1,4,-1,-3,-8,5,-8,-13,-4,-2,sil
5.486367464065552,-5,-8,3,1,0,5,4,0,3,14,-10,-12,2,3,sil
5.486367464065552,0,-10,-2,-7,-2,0,10,0,10,6,-17,0,8,7,sil
5.501755475997925,16,-5,1,7,0,-3,9,-1,11,14,-1,13,14,17,goodbye
5.501755475997925,14,-9,-3,5,-3,-6,9,0,0,25,3,4,14,13,goodbye
5.517377853393555,1,-13,-13,-14,-9,-4,10,1,0,15,-3,0,19,9,goodbye
5.517377853393555,24,5,7,-6,0,-1,3,5,12,1,18,29,25,16,goodbye
5.5323872566223145,46,22,25,16,7,-4,-6,1,1,-5,32,35,7,7,goodbye
5.5323872566223145,12,9,12,4,-3,-13,-17,-5,-21,-25,-1,0,-25,-18,goodbye
5.5479736328125,-26,-5,-1,-11,-8,-10,-12,-5,-16,-26,-23,-21,-36,-24,goodbye
5.5479736328125,-12,0,-3,4,3,8,10,4,8,4,-5,-9,-21,-1,goodbye
5.562613725662232,2,1,3,14,4,21,19,12,20,23,-1,2,-3,13,goodbye
5.562613725662232,-5,-10,-2,-1,-6,10,7,9,15,6,-7,3,11,13,goodbye
5.578171014785767,-4,-12,-13,-13,-8,0,0,5,19,-4,3,11,15,17,goodbye
5.578171014785767,0,-10,-18,-21,0,0,0,1,24,12,14,9,7,5,goodbye
5.593504905700684,-15,-16,-18,-28,5,-5,-13,-10,-3,10,9,-14,0,-28,goodbye
5.593504905700684,-16,1,-1,-17,5,-9,-25,-9,-32,-23,3,-19,-4,-33,goodbye
5.608654260635376,-3,29,8,6,10,1,-7,0,-12,-27,8,2,0,-10,goodbye
5.608654260635376,-7,20,7,15,11,3,5,0,1,-3,6,3,0,-3,goodbye
5.624176263809204,-18,1,2,7,0,0,0,-6,-18,-4,-11,-18,-11,-11,goodbye
5.624176263809204,-6,2,0,8,-7,0,1,-6,-25,-8,-15,-20,-11,-2,goodbye
5.639994144439697,18,15,18,27,0,3,12,1,-4,14,5,8,9,20,goodbye
5.639994144439697,20,11,18,33,8,7,14,8,10,23,8,12,16,25,goodbye
5.655349016189575,0,-13,-12,1,2,1,4,0,1,2,-13,-10,1,6,goodbye
5.655349016189575,-4,-26,-16,-30,-13,-14,-11,-3,-12,-13,-13,-6,-2,-3,goodbye
5.670955181121826,13,-15,-5,-29,-22,-22,-14,-3,-6,-16,-1,4,4,-1,goodbye
5.670955181121826,15,-13,-4,-18,-16,-19,-7,-4,4,-21,-7,3,2,-3,goodbye
5.6870646476745605,0,-13,-9,-15,-8,-14,-9,-3,10,-12,-1,9,3,-6,goodbye
5.6870646476745605,0,3,-4,-13,-2,-7,-18,-1,19,5,20,17,10,-3,goodbye
5.70221471786499,6,19,16,1,7,4,-9,3,21,7,20,11,6,0,goodbye
5.718209743499756,0,18,16,28,15,15,4,7,5,-1,-2,3,-10,1,goodbye
5.718209743499756,-5,15,5,44,11,15,7,5,-12,0,-13,3,-19,1,goodbye
5.718209743499756,8,16,8,35,10,21,17,3,-8,16,13,3,0,9,goodbye
5.73336672782898,11,11,12,22,17,28,30,3,10,31,32,1,15,15,goodbye
5.73336672782898,-6,-4,1,10,7,18,19,0,11,19,-5,-11,-8,4,goodbye
5.748985528945923,-18,-23,-16,-5,-10,0,2,-5,-1,-2,-39,-30,-30,-9,goodbye
5.765203475952148,-17,-26,-20,-19,-8,4,8,-2,0,-1,-19,-25,-18,-10,goodbye
5.765203475952148,-15,-15,-12,-17,4,15,17,4,12,19,3,-9,0,-3,goodbye
5.765203475952148,-7,-6,-5,-8,0,-3,0,3,8,25,1,-4,8,3,goodbye
5.7798051834106445,-1,-6,-5,-13,-14,-22,-18,-4,-8,1,-1,2,10,4,goodbye
5.795126676559448,-2,-7,-12,-22,-12,-14,-12,-8,-16,-10,-1,7,6,-3,goodbye
5.795126676559448,5,1,0,-19,1,-6,-1,0,-6,-1,0,9,11,0,goodbye
5.810290813446045,10,8,10,-15,7,-6,-1,2,0,-4,0,10,11,3,goodbye
5.810290813446045,-4,0,-4,-24,0,-9,-5,-6,-10,-27,-19,-2,-5,-11,goodbye
5.825961351394653,-8,0,-3,-22,-3,-14,-9,-5,-23,-35,-20,-1,-8,-15,goodbye
5.825961351394653,8,11,4,-2,-2,-11,-9,2,-9,-23,2,13,1,-2,goodbye
5.841043710708618,10,13,3,0,-5,-5,-9,1,6,-23,3,7,-8,-9,goodbye
5.841043710708618,4,12,7,8,-7,-6,-9,2,2,-21,4,-6,-10,-14,goodbye
5.857023477554321,18,18,20,34,3,-4,-5,9,5,4,32,9,13,11,goodbye
5.857023477554321,32,20,30,32,14,2,-6,4,13,18,43,30,23,26,goodbye
5.87243914604187,19,11,16,10,8,0,-11,-6,4,2,28,22,13,9,goodbye
5.87243914604187,-9,0,3,8,1,-6,-11,-2,-9,-4,17,4,5,-3,goodbye
5.888439178466797,-21,-4,2,13,7,1,0,0,-16,5,5,-6,-2,0,goodbye
5.888439178466797,-9,-1,-2,16,10,11,15,-5,-12,13,-4,-13,-10,3,goodbye
5.904012680053711,-5,0,-3,23,3,12,15,-1,1,18,-5,-15,-8,1,goodbye
5.904012680053711,-13,-9,-10,15,-4,13,6,2,15,25,-11,-24,-3,-3,goodbye
5.919515371322632,-15,-16,-20,-3,-7,17,13,0,15,22,-21,-27,-5,0,goodbye
5.919515371322632,-7,-14,-7,-3,-3,26,23,5,12,16,-13,-7,-1,12,goodbye
5.935198545455933,-1,-13,-2,3,-4,21,19,4,12,14,-7,4,5,13,goodbye
5.935198545455933,-2,-18,-13,-12,-7,1,15,0,14,9,-24,2,1,5,goodbye
5.9513020515441895,-1,-18,-18,-32,-8,-7,16,2,18,0,-27,0,-1,4,goodbye
5.9513020515441895,10,-8,-10,-25,-6,-6,6,4,14,-6,-6,1,8,7,goodbye
5.966961622238159,20,2,2,-11,-3,-11,-2,1,14,-3,4,10,14,6,goodbye
5.966961622238159,7,0,-4,-12,-7,-19,-13,-2,7,-6,-4,8,0,-7,goodbye
5.982196092605591,-7,-6,-13,-26,-11,-21,-29,-9,-22,-25,-10,1,-15,-28,goodbye
5.982196092605591,-2,1,-2,-21,0,-10,-26,-5,-36,-32,2,0,-12,-28,goodbye
5.997954845428467,0,14,7,3,7,2,-14,-6,-23,-28,6,-3,-7,-16,goodbye
5.997954845428467,-5,12,7,7,2,0,-21,-10,-22,-25,-6,-13,-20,-21,goodbye
6.014028310775757,-2,11,2,-2,8,-6,-15,0,-17,-4,4,0,-14,-16,goodbye
6.014028310775757,3,14,10,2,13,-2,2,4,-4,14,26,18,2,6,goodbye
6.036191463470459,2,14,13,16,5,0,4,-4,-6,4,16,4,3,9,goodbye
6.03719162940979,3,19,10,23,10,-3,-1,-5,-13,-10,5,-5,-1,0,goodbye
6.03719162940979,3,22,19,30,16,1,1,3,-13,-6,11,5,0,4,goodbye
6.045390605926514,-2,9,16,25,7,5,4,7,-5,7,13,6,2,7,goodbye
6.060384035110474,-2,0,8,13,1,3,7,9,8,20,12,2,11,9,goodbye
6.060384035110474,6,5,7,22,8,7,10,12,14,20,13,7,19,22,goodbye
6.075965881347656,4,-1,3,23,8,8,10,7,6,7,-5,0,6,21,sil
6.075965881347656,-13,-22,-11,-7,-7,6,7,0,4,4,-30,-20,-11,0,sil
6.091114044189453,-18,-27,-22,-24,-19,14,16,0,14,15,-16,-23,0,0,sil
6.091114044189453,-3,-15,-7,-12,-5,15,26,6,25,23,11,-5,22,19,sil
6.106279850006104,1,-11,-2,-8,2,2,17,8,24,18,0,0,17,14,sil
6.106279850006104,-8,-23,-17,-26,-12,0,3,0,16,11,-22,-11,0,-4,sil
6.121823310852051,-1,-23,-10,-31,-21,0,0,-8,13,6,-10,-1,0,-1,sil
6.121823310852051,17,-1,-1,-12,-14,-11,-7,-10,12,-2,0,15,6,4,sil
6.137314796447754,13,3,-9,-6,-10,-22,-26,-7,5,-24,-10,15,2,-7,sil
6.137314796447754,0,-10,-10,-24,-13,-26,-37,-7,2,-37,-10,11,-4,-20,sil
6.15291953086853,8,-3,-1,-23,-10,-25,-27,-8,4,-24,7,16,-3,-12,sil
6.15291953086853,17,23,14,6,5,-6,-6,0,-2,-5,20,15,-1,-4,sil
6.16839337348938,2,23,11,21,14,8,0,4,-17,-5,18,0,-1,-10,sil
6.16839337348938,-8,7,3,7,10,-1,-10,-4,-31,-17,7,-3,0,-9,sil
6.184563398361206,0,17,13,7,10,-5,-7,-2,-37,-14,6,3,0,1,sil
6.184563398361206,4,22,15,26,15,3,0,2,-26,-1,8,-6,-6,0,sil
6.200273036956787,-7,7,5,23,8,2,-6,-4,-17,0,-4,-16,-22,-13,sil
6.200273036956787,-14,0,-5,1,0,4,-4,-11,-18,-1,-16,-9,-27,-14,sil
6.215379476547241,-7,0,-3,1,3,21,19,0,-7,4,-10,-2,-14,-3,sil
6.215379476547241,0,1,5,18,12,33,33,16,16,17,5,0,1,7,sil
6.230915784835815,0,1,0,24,12,21,24,9,14,25,9,0,8,13,sil
6.230915784835815,-3,0,0,16,2,6,12,0,-1,18,0,-1,1,10,sil
6.246190786361694,-8,0,-2,12,-3,10,19,-1,8,12,-8,-2,0,11,sil
6.246190786361694,-8,-13,-11,0,-8,11,24,0,23,9,-13,-8,0,12,sil
6.2618021965026855,-5,-26,-9,-24,-15,0,8,6,19,3,-15,-9,1,10,sil
6.2618021965026855,0,-17,-6,-22,-12,-12,-3,6,16,6,-7,-5,8,9,sil
6.27692723274231,7,-1,0,-9,-4,-19,-9,3,9,3,-6,2,7,5,sil
6.293001890182495,7,-5,-2,-19,-4,-22,-20,0,-2,-16,-9,-1,0,-6,sil
6.293001890182495,0,-11,-14,-28,-2,-21,-26,-4,-1,-23,0,-1,4,-10,sil
6.309231996536255,2,0,-5,-14,1,-19,-21,0,4,-7,12,12,14,-2,sil
6.309231996536255,9,9,5,-6,-5,-9,-12,0,1,1,20,13,17,0,sil
6.309231996536255,4,8,4,-10,-7,-1,-11,-2,0,-2,23,6,11,-3,sil
6.324388980865479,4,7,2,0,0,-5,-10,0,4,-1,18,10,9,-5,sil
6.324956178665161,7,10,7,9,2,-7,-7,0,-2,0,12,8,12,-4,sil
6.339318752288818,6,16,17,6,6,4,-2,-1,-19,-1,11,3,6,0,sil
6.354331016540527,4,16,18,14,16,17,5,-1,-17,-1,9,6,-4,0,sil
6.354331016540527,3,8,16,22,14,14,7,-1,-10,0,-2,2,-16,-3,sil
6.370185375213623,0,2,11,15,2,7,0,-5,-21,-8,-14,-10,-23,-3,sil
6.370185375213623,-5,-3,1,6,-1,6,5,-6,-29,-10,-19,-15,-24,-2,sil
6.387348413467407,-11,-7,-6,7,3,14,18,-1,-9,0,-18,-6,-19,0,sil
6.387348413467407,-11,-12,-17,2,1,13,19,0,20,13,-17,-8,-5,4,sil
6.387348413467407,-15,-24,-27,-16,-9,0,10,1,25,14,-19,-21,3,1,sil
6.401919603347778,-11,-27,-24,-27,-7,-6,6,7,18,11,-17,-13,9,0,sil
6.417035341262817,5,-12,-11,-16,3,-5,2,4,28,10,0,8,19,13,sil
6.417035341262817,9,1,0,-13,0,-11,-9,-2,31,-1,20,15,17,10,sil
6.432219743728638,-2,5,-2,-15,-1,-6,-12,-1,6,-15,17,2,0,-8,sil
6.432219743728638,-7,7,-2,3,3,7,-3,0,-11,-9,3,-3,-16,-13,sil
6.44691014289856,-6,13,8,27,2,12,5,1,-8,0,-4,-9,-22,-7,sil
6.44691014289856,-3,10,7,19,0,11,13,4,-4,0,-9,-11,-20,-10,sil
6.462972402572632,0,-2,-2,-4,-3,7,15,2,-9,-2,-16,-5,-13,-11,sil
6.462972402572632,-2,-11,-13,-10,-14,-5,4,-7,-7,0,-18,-6,-4,-2,sil
6.478153467178345,0,-2,-3,2,-16,-16,-9,-4,0,2,0,2,10,11,sil
6.478153467178345,9,3,16,7,-7,-12,-12,4,2,6,23,25,25,19,sil
6.494272232055664,6,1,9,-3,-2,-10,-15,0,0,2,25,25,29,9,sil
6.494272232055664,7,9,9,-4,0,-13,-25,-2,-6,-11,20,19,23,-2,sil
6.509329080581665,19,22,26,19,2,-12,-23,-2,-13,-7,31,28,19,2,sil
6.509329080581665,20,24,28,34,3,-9,-16,-4,-17,0,32,28,12,8,sil
6.525199890136719,14,20,19,27,12,0,-11,-3,-17,-10,14,16,0,6,sil
6.525199890136719,14,14,15,28,20,11,0,0,-17,-9,7,6,-7,5,sil
6.540218353271484,10,11,19,37,12,14,14,4,-9,5,7,1,-13,5,sil
6.540218353271484,1,6,4,25,6,14,27,7,3,6,-4,-7,-12,-1,sil
6.556160926818848,-7,-13,-20,-6,5,14,23,0,7,0,-24,-21,-10,-7,sil
6.556160926818848,-23,-34,-25,-28,0,15,14,1,11,5,-25,-20,-8,-7,sil
6.57164454460144,-26,-26,-19,-22,-5,18,22,11,28,24,-13,-12,1,-4,sil
6.57164454460144,-12,-14,-16,-20,0,9,26,9,36,29,-13,-15,8,0,sil
6.587568759918213,-12,-25,-32,-41,0,-6,8,0,27,10,-29,-32,2,0,sil
6.587568759918213,-21,-32,-43,-59,-11,-15,-6,0,13,-2,-35,-36,-2,0,sil
6.602588415145874,-7,-16,-23,-48,-17,-14,-6,2,5,0,-23,-19,0,0,sil
6.602588415145874,4,-3,-16,-37,-6,-12,-4,-3,2,-6,-14,-19,-1,-5,sil
6.617933034896851,-6,-10,-22,-50,0,-15,-19,-12,-15,-27,-26,-31,-25,-22,sil
6.617933034896851,-10,-5,-14,-46,0,-16,-35,-13,-34,-36,-28,-20,-38,-27,sil
6.634466886520386,0,16,4,-6,5,-9,-27,-12,-32,-27,-3,1,-23,-18,sil
6.634466886520386,0,28,19,24,8,-1,-13,-9,-19,-12,11,4,-10,-12,sil
6.650031328201294,-5,18,15,32,0,2,-3,-4,-12,6,13,0,-7,-2,sil
6.650031328201294,-7,7,9,34,0,14,11,5,-4,17,15,5,-1,9,sil
6.666041851043701,-4,0,14,37,3,31,25,14,19,29,18,14,6,16,sil
6.666041851043701,6,0,24,40,-4,19,22,11,35,38,33,32,23,26,sil
6.681617021560669,24,9,33,37,-11,-7,7,6,22,20,54,57,43,36,sil
6.681617021560669,30,12,25,28,-7,-13,0,2,10,-3,50,54,45,17,sil
6.696755647659302,20,11,27,25,-2,-5,-5,-1,0,-11,30,34,24,-5,sil
6.696755647659302,15,22,40,40,3,0,-2,-5,-24,-18,22,31,5,-1,sil
6.712718486785889,20,27,28,51,8,3,-1,-8,-36,-23,11,26,-2,8,sil
6.712718486785889,13,7,2,29,6,15,3,-4,-17,-8,-12,6,-6,8,sil
6.728312730789185,-3,-16,-19,-4,0,17,13,6,6,12,-27,-15,-4,9,sil
6.728312730789185,-10,-29,-28,-28,-5,-4,3,11,19,10,-28,-23,-4,8,sil
6.743334531784058,-6,-24,-22,-37,-6,-18,-13,2,19,-11,-25,-17,-1,0,sil
6.743334531784058,1,-3,-10,-32,0,-11,-9,-3,9,-20,-7,-4,6,-5,sil
6.758998870849609,1,10,-2,-25,3,-12,-6,-2,-2,-12,6,-1,2,-8,sil
6.758998870849609,-11,-1,-14,-27,0,-13,-11,-3,-10,-1,-5,-21,-9,-19,sil
6.774307012557983,-20,-7,-20,-21,6,0,-6,-5,-14,-1,-17,-34,-12,-28,sil
6.774307012557983,-16,4,-9,-8,15,8,0,0,-14,-1,-7,-24,-12,-24,sil
6.7895588874816895,-14,0,-15,-11,4,0,0,0,-8,0,-6,-18,-18,-17,sil
6.7895588874816895,-15,-9,-10,-10,-4,3,1,1,3,6,-16,-19,-16,-5,sil
6.805428743362427,-4,0,2,13,3,15,11,-1,10,19,-7,-9,-6,8,sil
6.805428743362427,7,7,3,22,6,13,15,-2,6,24,5,2,-5,17,sil
6.82010555267334,11,3,0,8,0,5,18,9,12,19,7,5,0,18,sil
6.835429191589356,8,-2,0,2,6,6,24,10,25,22,0,-1,13,15,sil
6.835429191589356,4,-10,-4,-5,4,4,11,-1,18,14,-16,-6,4,11,sil
6.8507399559021,0,-17,-12,-20,-13,-6,-8,-4,1,0,-14,0,-1,6,sil
6.8507399559021,-1,-11,-7,-19,-20,-17,-12,0,3,1,12,9,13,0,sil
6.866435527801514,3,1,4,-9,-12,-14,-11,3,8,0,16,12,17,-1,sil
6.866435527801514,6,8,3,-5,-14,-11,-18,0,-3,-17,0,8,1,-2,sil
6.882189750671387,5,5,13,-5,-13,-23,-24,-7,-22,-27,6,19,0,-2,sil
6.882189750671387,6,7,20,-4,0,-20,-18,-11,-23,-28,24,27,6,-4,sil
6.898239612579346,0,8,13,2,1,-1,-14,-6,-23,-32,10,13,-5,-8,sil
6.898239612579346,-10,4,12,13,-2,3,-13,-4,-31,-32,-14,-1,-21,-15,sil
6.915347099304199,-13,2,9,16,4,7,-2,-2,-24,-24,-11,-9,-20,-20,sil
6.915347099304199,-8,7,11,16,19,28,13,7,-9,-6,0,-6,-14,-16,sil
6.915347099304199,-7,6,10,28,22,35,21,9,-4,20,0,-4,-6,-4,sil
6.929504156112671,-9,-4,-6,29,12,20,13,-3,-3,26,-5,-15,0,0,sil
6.94531774520874,-11,-12,-15,2,2,15,10,-2,6,14,-16,-22,-3,0,sil
6.94531774520874,-12,-16,-21,-18,-1,12,21,8,24,19,-26,-24,-7,0,sil
6.961203336715698,-9,-18,-25,-20,-8,2,23,13,32,28,-24,-25,0,4,sil
6.961203336715698,1,-8,-16,-8,-8,3,18,9,31,25,-3,-11,12,14,sil
6.976778745651245,20,2,0,5,-2,-1,13,6,32,19,20,17,27,29,sil
6.976778745651245,30,1,13,9,-6,-13,-1,6,28,10,25,34,36,31,sil
6.992591857910156,28,11,15,12,-6,-12,-4,0,19,8,27,30,38,23,sil
6.992591857910156,25,27,18,13,4,-8,0,-5,16,5,37,34,31,17,sil
7.008006095886231,16,14,12,0,4,-15,-8,-1,10,-7,33,37,12,8,sil
7.008006095886231,7,0,3,-6,0,-23,-15,1,-1,-10,19,23,0,0,sil
7.023159503936768,4,9,9,3,6,-22,-12,-3,-14,-4,15,13,-2,-2,sil
7.023159503936768,-4,6,-2,-2,3,-16,-16,-11,-25,-9,8,-1,-9,-12,sil
7.038935661315918,-14,-12,-18,-22,-4,-11,-19,-11,-37,-20,-7,-15,-15,-21,sil
7.038935661315918,-4,-4,-4,-14,-3,0,-9,-5,-30,-22,-12,-8,-10,-13,sil
7.0546159744262695,4,7,5,4,0,7,-6,-8,-12,-15,-10,-7,-13,-4,sil
7.0546159744262695,-3,0,-1,0,0,2,-14,-8,-14,-12,-20,-21,-28,-14,sil
7.070336103439331,-14,-4,-10,-9,0,0,-12,-3,-25,-17,-23,-25,-27,-23,sil
7.070336103439331,-14,0,-7,-4,-1,0,-5,-3,-22,-21,-19,-16,-20,-16,sil
7.086007356643677,-12,1,0,2,-7,3,-1,-1,-20,-12,-22,-17,-25,-10,sil
7.086007356643677,-14,-5,-1,-5,-6,10,0,0,-22,-3,-21,-20,-19,-11,sil
7.1015625,-17,-7,-3,-16,0,13,7,2,-11,-2,-18,-14,-3,-11,sil
7.1015625,-20,-6,-8,-10,0,9,14,4,1,2,-20,-20,-7,-11,sil
7.117358684539795,-14,-8,-9,0,-5,9,14,8,12,12,-13,-20,-15,-5,sil
7.117358684539795,4,1,8,14,2,21,19,13,35,27,8,7,11,18,sil
7.13238000869751,9,6,13,28,17,22,22,11,43,33,14,19,31,30,sil
7.13238000869751,-3,0,0,20,16,9,12,4,24,19,0,1,4,9,sil
7.147990703582764,-2,0,-1,5,6,9,15,6,22,11,-4,0,-4,2,sil
7.147990703582764,11,-1,3,0,-1,9,21,9,34,13,0,9,13,19,sil
7.1630918979644775,7,-18,-4,-5,-4,-5,0,0,16,1,-1,11,12,12,sil
7.1630918979644775,2,-11,-14,-1,-1,-9,-15,-7,-3,-8,4,11,6,-4,sil
7.178341627120972,14,5,0,3,4,0,0,0,5,0,19,23,17,4,sil
7.178341627120972,25,0,10,-1,3,0,11,6,23,12,30,25,29,21,sil
7.194528102874756,18,-9,5,-14,-6,-17,-4,0,15,13,29,22,31,23,sil
7.194528102874756,8,-3,2,-20,-15,-29,-22,-7,-6,1,11,15,17,12,sil
7.2101545333862305,0,0,-3,-11,-11,-23,-19,-12,-22,-8,3,-5,7,-4,sil
7.2101545333862305,-5,0,1,-8,-11,-12,-13,-6,-33,-6,14,-13,5,-16,sil
7.225527048110962,-2,4,7,-12,-12,-13,-15,0,-28,-1,20,-9,0,-14,sil
7.225527048110962,5,12,5,2,4,-12,-18,-5,-16,-6,11,-8,-1,-4,sil
7.2412800788879395,5,22,13,24,15,0,-12,-4,-18,-13,7,-3,1,0,sil
7.2412800788879395,0,20,6,19,7,8,0,-1,-10,-6,5,-22,-7,-3,sil
7.256917476654053,-2,10,-4,4,4,4,4,0,2,-4,-4,-42,-21,-7,sil
7.256917476654053,-9,5,-9,2,8,6,2,3,-4,-16,-22,3,-26,-13,sil
7.272071838378906,-18,-4,-18,3,3,14,8,3,-13,-23,-40,48,-33,-18,sil
7.272071838378906,-13,-8,-9,0,2,20,16,5,1,-7,-26,26,-25,-7,sil
7.288166761398315,1,2,4,5,6,15,13,3,11,7,2,0,-3,2,sil
7.288166761398315,2,4,5,14,0,8,0,-1,0,-1,-9,1,-4,0,sil
7.304211854934692,-9,-9,-10,0,-12,1,-5,-3,-6,-7,-28,-7,-11,-3,sil
7.304211854934692,-5,-16,-17,-14,-16,-7,0,-3,0,-1,-12,-18,-1,-2,sil
7.318824768066406,5,-5,6,-4,-4,-7,0,0,1,-1,0,-6,-2,0,sil
7.318824768066406,2,4,10,7,0,1,0,0,-5,-1,0,-6,-10,0,sil
7.913072347640991,0,15,7,-8,3,-12,-10,-5,-25,-16,-1,0,-1,-2,sil
7.913072347640991,-5,11,-1,-7,5,4,-7,0,-11,0,0,-1,-11,-7,sil
7.9290361404418945,-2,8,4,16,11,10,-2,3,-8,3,-3,-1,-15,-13,sil
7.9290361404418945,-12,0,6,12,8,0,-10,-6,-18,-10,-21,-22,-14,-16,sil
7.944154739379883,-29,-6,-4,-12,-1,0,-7,-5,-20,-22,-34,-35,-26,-18,sil
7.944154739379883,-26,-14,-18,-11,-7,12,12,5,-8,-14,-26,-25,-28,-13,sil
7.959358215332031,-14,-18,-16,3,0,17,24,4,5,1,-16,-25,-14,-3,sil
7.959358215332031,-3,-6,-11,10,12,16,31,0,14,14,-12,-30,-1,0,sil
7.975297689437866,7,1,3,10,8,10,29,1,11,20,-4,-7,4,9,sil
7.975297689437866,12,-5,6,6,-8,0,4,3,13,16,-2,11,6,13,sil
7.990994930267334,4,-13,-12,-4,-16,-10,-14,5,27,10,0,3,9,4,sil
7.990994930267334,0,-10,-14,-11,-17,-14,-12,4,25,1,3,0,11,3,sil
8.006058931350708,3,-5,-4,-5,-19,-11,-7,0,14,-5,-1,7,6,9,sil
8.006058931350708,3,-5,-8,-3,-17,-7,-13,1,11,-4,-7,4,2,10,sil
8.021729230880737,1,-9,-9,-11,-11,-10,-16,0,4,0,1,4,10,10,sil
8.021729230880737,7,-8,-6,-11,-10,-19,-16,-8,-10,-6,8,12,16,4,sil
8.043348550796509,8,4,0,-4,-8,-18,-18,-4,-16,-15,4,11,5,-8,sil
8.043348550796509,3,16,5,3,5,-3,-14,2,-15,-12,5,3,-9,-14,sil
8.043348550796509,7,11,11,11,24,5,-3,0,-15,-7,8,7,-10,-9,sil
8.053396701812744,8,2,13,4,27,5,4,-6,-14,-11,10,17,-2,-8,sil
8.069384336471558,2,10,7,0,16,6,6,-6,-6,-7,15,4,0,-9,sil
8.069384336471558,2,27,13,11,8,9,2,-1,0,2,11,0,-1,-4,sil
8.085211038589478,-2,26,12,16,3,3,-2,0,-3,0,-4,0,-8,-6,sil
8.085211038589478,-10,6,1,4,-1,-2,0,0,-5,-1,-11,-8,-11,-11,sil
8.100224494934082,-4,-1,6,7,1,12,13,5,4,14,3,-6,0,0,sil
8.100224494934082,-6,0,2,17,7,21,19,6,8,16,12,4,4,15,sil
8.11626648902893,-16,-9,-4,5,0,9,10,0,-3,0,0,0,-5,13,sil
8.11626648902893,-6,-14,0,0,0,11,20,2,0,12,0,-5,1,12,sil
8.13162899017334,-1,-15,-2,2,2,12,27,6,11,27,0,-9,3,9,sil
8.13162899017334,-17,-22,-18,-13,-11,-3,3,-4,0,1,-28,-20,-23,-1,sil
8.146936655044556,-13,-23,-22,-27,-16,-7,-11,-8,-3,-11,-32,-16,-19,-2,sil
8.146936655044556,9,-11,-5,-23,-3,-2,-8,4,14,2,2,5,14,6,sil
8.162543296813965,15,-1,1,-12,0,-10,-11,8,14,-4,13,13,18,5,sil
8.162543296813965,10,8,-3,-6,-3,-21,-13,-2,-7,-19,0,1,4,-3,sil
8.17822551727295,8,17,0,-13,0,-19,-12,-2,-12,-7,1,1,6,-9,sil
8.17822551727295,13,19,8,-10,0,-11,-8,0,0,1,15,10,14,-6,sil
8.194318532943726,19,19,14,13,6,-3,6,-2,0,-4,9,9,9,0,sil
8.194318532943726,9,16,14,21,11,2,16,1,-5,-2,-5,-4,0,4,sil
8.209513664245605,-4,2,2,9,5,12,9,3,0,11,-9,-19,-5,0,sil
8.209513664245605,-10,-10,-3,6,3,22,6,0,15,18,-14,-18,-9,-13,sil
8.225108861923218,-19,-16,-18,5,3,14,4,-2,11,7,-33,-23,-19,-25,sil
8.225108861923218,-22,-14,-25,-10,-5,-7,-12,-4,-11,-13,-30,-17,-18,-11,sil
8.240184545516968,-1,-11,-10,-18,-19,-19,-21,-2,-11,-16,6,14,6,13,sil
8.240184545516968,9,-15,-2,-16,-20,-14,-17,0,17,-3,26,31,26,19,sil
8.255756139755249,1,-7,4,-10,-7,-1,-14,2,24,0,19,22,21,5,sil
8.255756139755249,2,12,11,3,4,4,-7,2,4,0,27,21,13,2,sil
8.270923137664795,10,20,21,20,7,1,-3,0,-9,-1,39,26,7,9,sil
8.287163734436035,9,20,29,33,10,5,-2,-1,-12,-12,29,21,0,5,sil
8.287163734436035,1,15,18,32,11,10,7,-5,-14,-8,7,5,-6,-4,sil
8.287163734436035,-3,1,4,15,5,5,17,-4,-18,4,-14,-7,-20,-3,sil
8.301583290100098,-3,-1,1,15,2,7,20,0,-15,8,-17,-11,-24,-3,sil
8.301583290100098,0,8,5,34,4,18,22,4,-1,13,-2,-5,-8,-1,sil
8.316860914230347,0,4,2,25,5,13,13,4,5,22,-1,-1,2,9,sil
8.332504510879517,-10,-15,-14,-13,-3,-4,0,1,5,9,-15,-12,0,11,sil
8.332504510879517,-13,-23,-24,-43,-20,-10,-3,3,11,-9,-18,-13,-2,1,sil
8.348029375076294,-5,-17,-20,-39,-25,-6,0,6,19,0,-12,-4,7,0,sil
8.348029375076294,3,-12,-10,-25,-14,-14,-9,0,6,1,-10,-2,9,-1,sil
8.36339259147644,15,0,2,-19,-2,-24,-19,-3,-8,-29,2,9,6,1,sil
8.36339259147644,29,17,6,0,8,-16,-9,0,-2,-32,25,24,17,12,sil
8.379421472549438,27,24,13,17,19,-4,-2,1,0,0,20,12,13,0,sil
8.379421472549438,3,14,5,4,13,-1,-12,-7,-12,3,-7,-22,-16,-29,sil
8.394992589950562,-14,3,-13,-9,4,5,-10,-15,-22,-13,-21,-38,-30,-33,sil
8.394992589950562,-14,0,-14,-2,12,24,13,-1,-8,4,-13,-27,-12,-12,sil
8.410642147064209,-10,-9,-15,-4,18,30,21,8,14,32,-10,-26,1,1,sil
8.410642147064209,-21,-20,-21,-21,5,14,8,4,10,25,-24,-33,-6,0,sil
8.426777839660645,-34,-27,-29,-36,-9,2,9,3,3,10,-35,-34,-13,-5,sil
8.426777839660645,-29,-34,-37,-51,-14,-3,8,4,18,3,-30,-20,-3,-4,sil
8.442351341247559,-7,-17,-14,-41,-11,-14,-4,3,21,-2,-5,11,7,2,sil
8.442351341247559,18,14,20,0,-2,-20,-4,4,3,-2,35,40,15,13,sil
8.45839810371399,24,26,37,23,-2,-16,-4,2,-8,-7,46,44,12,15,sil
8.45839810371399,8,19,32,27,-6,-8,-14,-7,-13,-19,22,35,0,3,sil
8.474015951156616,7,17,31,45,-2,-3,-16,-10,-18,-18,14,29,-8,-1,sil
8.474015951156616,23,18,49,61,2,0,-6,-3,-18,-7,25,27,0,7,sil
8.489286661148071,16,11,37,50,0,7,4,-4,-7,3,24,21,8,12,sil
8.489286661148071,-1,0,10,35,3,17,11,0,0,10,13,15,3,7,sil
8.50447392463684,0,-2,10,35,10,17,11,5,1,8,5,8,0,5,sil
8.50447392463684,8,-1,7,22,2,8,11,0,7,11,0,-8,9,5,sil
8.520171165466309,-2,-7,-13,-4,-7,6,8,0,20,18,-8,-15,15,4,sil
8.520171165466309,-12,-13,-30,-13,-3,7,8,6,25,17,-12,-15,10,2,sil
8.535263299942017,-10,-14,-27,-17,-1,0,5,6,15,3,-12,-15,8,-2,sil
8.535263299942017,-4,-11,-24,-31,-3,-11,-3,1,5,-2,-14,-14,8,-6,sil
8.551200151443481,0,-1,-23,-35,3,-11,-13,0,3,-9,-12,-1,1,-6,sil
8.551200151443481,4,8,-4,-31,5,-10,-15,0,0,-21,0,11,-2,-6,sil
8.566408395767212,0,9,1,-23,-1,-11,-15,-6,-6,-24,4,3,-5,-7,sil
8.566408395767212,1,7,-2,-4,-5,-13,-19,-15,-17,-21,-3,-3,-13,-5,sil
8.581968307495117,7,10,1,1,-1,-9,-22,-7,-23,-20,-5,0,-15,-3,sil
8.581968307495117,0,5,0,-2,-2,2,-11,0,-15,-5,-1,-7,-8,-6,sil
8.597516059875488,-10,3,-4,1,-1,13,3,1,-4,8,-5,-16,-8,-10,sil
8.597516059875488,0,11,-1,14,6,12,17,4,-1,8,2,-8,-6,-2,sil
8.613353490829468,1,7,7,15,11,10,23,7,-2,14,10,-2,1,11,sil
8.613353490829468,-7,-10,4,2,4,18,22,6,0,31,-6,-8,0,13,sil
8.62939453125,-3,-16,-8,-6,0,12,21,5,3,29,-22,-14,-12,2,sil
8.62939453125,4,-10,0,-10,4,-4,15,3,0,5,-16,-6,-20,2,sil
8.645029306411743,0,-12,3,-8,1,-9,5,0,0,-6,-6,0,-9,7,sil
8.645029306411743,-2,-18,-5,-5,-8,-11,-6,0,3,-4,-2,-3,10,0,sil
8.660584449768066,0,-10,-4,-12,-12,-13,-14,0,3,-6,-1,-2,19,-7,sil
8.660584449768066,2,0,0,-15,-5,-7,-7,-2,1,-8,6,10,19,-2,sil
8.676469087600708,10,2,3,-7,1,-4,-4,-2,1,-5,27,25,18,6,sil
8.676469087600708,8,2,5,0,0,-9,-16,-3,-8,-12,27,15,6,-1,sil
8.692040205001831,-7,2,0,-1,-6,-13,-26,-12,-19,-23,3,-3,-9,-19,sil
8.692040205001831,-12,8,3,2,-2,-11,-18,-8,-10,-18,-1,-1,-12,-24,sil
8.707276821136475,-1,18,11,17,8,-2,-2,1,5,-5,8,8,-5,-14,sil
8.707276821136475,3,21,20,35,16,11,10,5,5,1,11,13,0,0,sil
8.72294282913208,0,16,15,40,19,24,22,6,5,12,6,7,5,10,sil
8.72294282913208,-3,5,4,27,15,26,23,6,16,20,-2,-7,6,10,sil
8.73896336555481,0,0,4,17,5,28,22,7,29,27,-11,-12,4,12,sil
8.73896336555481,4,-4,-3,15,-1,23,23,5,31,41,-7,-7,10,23,sil
8.75432562828064,-2,-16,-12,-2,-12,6,9,1,20,34,-4,-4,6,26,sil
8.75432562828064,-11,-24,-15,-21,-17,0,-3,2,17,13,-10,-3,-1,21,sil
8.769537687301636,-9,-23,-21,-26,-15,-2,-6,3,26,0,-18,-5,-3,10,sil
8.769537687301636,-7,-18,-14,-30,-15,-13,-15,-5,8,-14,-18,-3,-10,-11,sil
8.785301685333252,0,-9,-7,-26,-15,-21,-17,-17,-27,-30,-3,-1,-17,-24,sil
8.785301685333252,9,0,-2,-16,-7,-24,-10,-13,-36,-32,5,2,-14,-12,sil
8.800432205200195,12,7,11,-7,0,-23,-12,0,-25,-31,4,12,-3,-3,sil
8.800432205200195,14,10,15,1,0,-19,-13,3,-24,-26,5,16,1,-9,sil
8.816338777542114,12,4,3,-4,0,-12,-11,-1,-29,-13,7,11,0,-11,sil
8.816338777542114,3,0,-6,-15,4,-4,-11,-5,-23,-4,10,3,0,-8,sil
8.832436084747314,0,15,1,0,13,0,-9,-4,-19,-5,10,1,4,-7,sil
8.832436084747314,0,26,10,27,12,1,-5,-4,-14,-4,4,0,1,-7,sil
8.847970485687256,-1,18,7,29,12,8,1,0,0,10,7,1,6,0,sil
8.847970485687256,2,11,13,13,20,16,13,10,8,27,15,3,14,12,sil
8.863497495651245,0,1,4,7,13,16,18,8,7,20,1,-6,5,9,sil
8.863497495651245,-12,-12,-9,3,-4,9,6,1,8,1,-20,-19,-11,-10,sil
8.879376888275146,-12,-11,-4,0,-7,12,5,7,14,2,-14,-15,-8,-10,sil
8.879376888275146,0,-1,2,5,0,19,18,9,21,13,0,-5,4,9,sil
8.895344972610474,1,-3,-1,2,0,13,14,3,20,11,-3,-2,3,15,sil
8.895344972610474,0,-13,-12,-16,-6,0,0,0,23,16,-6,0,12,12,sil
8.909950733184814,3,-10,-10,-23,-14,-12,0,-1,28,15,2,7,24,20,sil
8.909950733184814,14,2,0,-7,-13,-16,-6,0,17,-6,8,16,16,21,sil
8.925180435180664,18,9,0,-1,-6,-18,-14,0,-3,-19,7,17,0,3,sil
8.940768718719482,2,12,3,-7,-5,-20,-17,-8,-22,-23,2,12,-12,-14,sil
8.940768718719482,-8,19,7,1,0,-12,-10,-11,-33,-29,-2,-6,-21,-20,sil
8.956607818603516,-6,13,5,19,19,11,2,-1,-31,-20,-2,-23,-21,-19,sil
8.956607818603516,-13,-8,6,24,24,27,18,2,-18,1,-1,-17,-18,-14,sil
8.956607818603516,-23,-19,-1,17,8,20,22,0,-1,18,-8,-16,-15,-11,sil
8.972532510757446,-24,-25,-15,0,-2,11,16,2,7,23,-19,-26,-8,-7,sil
8.972532510757446,-18,-31,-16,-14,-2,7,14,5,11,14,-24,-20,-3,-1,sil
8.988168716430664,-7,-16,-2,-5,0,-1,8,2,16,14,-4,3,7,12,sil
8.988168716430664,9,3,11,5,3,-2,0,5,18,23,22,23,24,19,sil
9.002649307250977,21,0,0,-5,-1,0,-3,2,13,11,18,19,20,8,sil
9.017704010009766,20,-2,1,-11,-10,-3,-9,-2,10,-4,0,17,4,6,sil
9.017704010009766,14,10,18,1,-2,-2,-11,0,10,2,3,26,9,18,sil
9.033310413360596,3,3,5,-5,0,-3,-13,-4,1,0,11,20,10,4,sil
9.033310413360596,-7,-8,-15,-23,-13,-11,-18,-11,-10,-23,0,3,-8,-16,sil
9.048663139343262,-4,4,-11,-6,-16,-16,-18,-10,-13,-30,-3,-3,-13,-10,sil
9.048663139343262,11,18,7,9,-4,-21,-16,-3,-12,-19,2,2,-4,2,sil
9.064448595046995,14,9,1,-9,-2,-18,-17,1,-9,-7,11,8,4,7,sil
9.064448595046995,-1,-1,-17,-39,-7,-7,-7,2,-1,-5,5,-1,12,1,sil
9.079986095428469,-7,2,-2,-23,-1,0,3,1,-6,-12,-10,-9,1,-8,sil
9.079986095428469,4,18,14,23,9,2,8,0,-15,-9,-9,-5,-9,-5,sil
9.095080137252808,9,24,11,26,9,5,1,0,-15,-2,1,0,-4,1,sil
9.095080137252808,0,16,4,5,3,1,-14,5,-9,-7,1,-7,-1,-9,sil
9.110557556152344,-3,8,4,18,6,-2,-15,1,-8,-8,0,-6,-4,-20,sil
9.110557556152344,1,2,13,26,10,6,4,0,-1,5,5,0,-1,-5,sil
9.125690698623655,0,-6,5,12,5,19,21,0,7,14,3,-11,-4,0,sil
9.125690698623655,-16,-11,-7,10,4,13,16,-4,-5,1,-12,-27,-20,-12,sil
9.14092230796814,-27,-10,-3,10,6,15,24,-4,-14,1,-21,-19,-23,-14,sil
9.14092230796814,-11,-8,-1,3,5,30,43,7,15,31,-4,-2,1,5,sil
9.15614891052246,5,-6,-4,1,3,20,31,11,33,48,9,2,16,17,sil
9.15614891052246,1,-8,-5,-1,-5,-2,0,3,16,38,1,0,8,18,sil
9.171616315841677,0,-13,-2,0,-9,-5,-4,2,15,25,-3,4,9,22,sil
9.171616315841677,5,-10,-4,4,0,-3,2,5,32,11,0,16,17,18,sil
9.187216520309448,0,-11,-15,-9,5,-11,-1,1,23,-8,-1,9,7,2,sil
9.187216520309448,-4,-15,-16,-29,-7,-10,-7,-4,3,-21,-12,-2,-3,-1,sil
9.202708005905151,5,-8,-6,-19,-18,-7,-7,-6,-4,-25,-9,0,0,1,sil
9.202708005905151,14,4,5,0,-8,-12,-17,-3,-7,-23,4,14,5,0,sil
9.218353271484377,11,11,12,-3,6,-7,-26,0,-8,-20,11,20,9,0,sil
9.218353271484377,7,12,1,-11,8,0,-18,0,-2,-16,12,13,12,0,sil
9.234391927719116,4,19,5,2,3,-2,-10,-2,4,-3,21,9,11,0,sil
9.234391927719116,2,18,10,9,1,-3,-7,-1,0,3,25,4,12,0,sil
9.250213384628296,0,2,0,-10,-1,-4,1,-3,-21,-7,10,-2,5,-6,goodbye
9.250213384628296,-2,-3,-2,-22,-1,-2,15,-1,-36,-17,-6,-8,-11,-15,goodbye
9.26535439491272,-6,0,0,-11,1,2,9,0,-28,-13,-14,-16,-20,-11,goodbye
9.26535439491272,-11,0,-1,-4,-6,-9,-14,-4,-19,-11,-15,-15,-16,-4,goodbye
9.28140950202942,-9,-5,0,0,-15,-22,-24,-1,-8,-4,-3,-5,-13,-8,goodbye
9.28140950202942,-2,0,8,8,-6,-5,-9,4,8,7,2,0,-14,-9,goodbye
9.297447681427002,0,10,15,22,5,13,8,4,12,12,0,2,-11,-1,goodbye
9.297447681427002,-1,7,2,31,6,12,15,-3,2,8,-5,-1,-10,0,goodbye
9.312572002410889,-10,-12,-7,15,0,10,13,-5,-9,0,-19,-11,-19,-2,goodbye
9.312572002410889,-7,-14,-1,4,3,18,17,0,-8,4,-21,-11,-10,3,goodbye
9.32828402519226,6,5,7,17,10,18,23,4,6,30,4,0,13,14,goodbye
9.32828402519226,3,1,3,9,5,11,8,1,11,34,12,0,7,10,goodbye
9.343351125717165,-8,-12,-9,-6,-5,5,-9,-2,11,15,-3,-10,-2,3,goodbye
9.343351125717165,-1,-6,-7,-3,-2,2,-8,5,18,16,2,-1,14,3,goodbye
9.359896421432495,0,-3,-8,-7,4,0,0,10,21,23,12,8,23,1,goodbye
9.359896421432495,-11,-15,-19,-21,-1,-4,-3,1,13,-2,-8,-4,5,0,goodbye
9.375077724456789,0,-6,-7,-11,-5,-6,-5,0,6,-23,-16,-6,-1,0,goodbye
9.375077724456789,11,4,-2,0,0,-4,0,0,8,-9,4,5,10,0,goodbye
9.390587329864502,9,0,-2,-12,-2,-4,2,0,10,-4,10,13,17,6,goodbye
9.390587329864502,20,0,5,-14,-5,-10,3,0,0,-18,6,17,13,11,goodbye
9.406589269638062,24,8,9,0,0,-18,0,-3,-11,-28,14,23,7,2,goodbye
9.406589269638062,13,9,14,1,2,-17,-8,0,-1,-16,26,35,12,4,goodbye
9.422629356384276,16,11,18,-3,2,-13,-11,3,13,0,24,32,19,6,goodbye
9.422629356384276,10,21,16,2,4,-8,-16,-4,1,-13,0,6,-8,-10,goodbye
9.43842625617981,-14,15,8,11,1,0,-16,-9,-20,-29,-20,-13,-37,-20,goodbye
9.43842625617981,-19,-2,-8,6,-1,3,0,-1,-24,-3,-12,-18,-19,-7,goodbye
9.453257083892822,-13,-5,-9,-10,-4,0,10,2,-18,8,-7,-20,-5,-4,goodbye
9.468795537948608,-22,0,-10,-6,-5,10,8,-1,-18,-8,-20,-28,-22,-15,goodbye
9.468795537948608,-18,2,-6,17,3,22,7,-2,-21,-8,-20,-24,-25,-13,goodbye
9.468795537948608,0,7,6,27,18,23,10,2,-10,13,-2,-6,-1,5,goodbye
9.484413862228394,1,4,2,15,13,17,10,5,11,25,7,-2,11,10,goodbye
9.484413862228394,-1,-4,-3,8,-1,7,2,4,12,22,9,-4,11,2,goodbye
9.499920129776,3,-1,0,13,0,-2,1,0,7,23,18,2,19,6,goodbye
9.499920129776,2,-3,-4,4,3,-7,7,0,11,20,14,0,18,10,goodbye
9.51614761352539,-7,-16,-10,-16,-6,-2,1,1,4,4,-6,-12,0,-3,goodbye
9.531195163726808,-4,-12,-9,-10,-10,-3,-7,-1,-4,-4,-9,-12,-12,-10,goodbye
9.531195163726808,1,-2,-6,-2,-4,-11,-3,-4,0,1,-8,-4,-12,-1,goodbye
9.545971632003784,-3,-9,-5,-21,-3,-2,5,0,4,4,-13,-5,-7,3,goodbye
9.545971632003784,-3,-8,0,-25,2,10,7,0,4,2,2,2,2,9,goodbye
9.561108589172363,12,1,13,-1,5,2,6,-1,2,2,16,23,5,15,goodbye
9.561108589172363,21,1,12,5,-5,-9,0,0,4,-3,0,23,0,11,goodbye
9.576742887496948,10,0,11,0,-2,-2,-7,6,10,-3,-6,18,6,7,goodbye
9.576742887496948,0,-1,4,0,5,3,-5,6,15,7,5,12,12,5,goodbye
9.592365741729736,-3,-13,-9,-13,-10,-4,-7,0,8,1,-5,-5,0,-6,goodbye
9.592365741729736,-4,-16,-8,-21,-22,-4,-17,-4,-4,-19,-18,-12,-16,-14,goodbye
9.608007669448853,-4,0,1,2,0,5,-6,0,-7,-13,0,2,-7,-6,goodbye
9.608007669448853,-1,7,0,18,10,3,7,0,-2,-2,10,12,8,0,goodbye
9.624138116836548,3,1,-11,3,-2,-11,-3,-5,-3,-19,-5,1,6,-3,goodbye
9.624138116836548,0,0,-6,-11,-6,-22,-18,-10,-14,-35,-14,-6,-5,-9,goodbye
9.639464855194092,-9,0,3,-9,0,-15,-17,-10,-24,-28,-7,-3,-8,-14,goodbye
9.639464855194092,-8,2,-6,2,-1,-6,-11,-9,-17,-17,0,-2,-2,-13,goodbye
9.65521764755249,0,17,0,10,0,-2,-6,1,4,-7,4,-4,1,-9,goodbye
9.65521764755249,10,31,18,13,6,9,5,16,30,10,20,6,13,0,goodbye
9.671053647994995,21,23,17,16,8,13,18,15,31,28,38,21,21,16,goodbye
9.671053647994995,18,14,18,20,13,7,16,11,4,30,32,13,7,18,goodbye
9.686670064926147,8,17,15,23,19,13,19,11,-8,21,6,-7,-1,6,goodbye
9.686670064926147,3,13,8,19,14,19,28,2,-4,10,-2,-5,4,5,goodbye
9.702462673187256,-4,-2,4,8,7,5,22,-7,-11,4,-2,4,2,8,goodbye
9.702462673187256,-15,-11,-3,2,6,-2,6,-9,-21,1,-12,-11,-11,-6,goodbye
9.71733045578003,-15,-11,-4,3,5,6,0,-2,-9,5,-16,-22,-14,-16,goodbye
9.71733045578003,-10,-18,-8,-1,-1,11,-1,0,1,16,-10,-14,-6,-6,goodbye
9.733391523361206,-10,-28,-21,-22,-8,4,-7,0,-2,12,-18,-11,-5,-1,goodbye
9.733391523361206,-12,-26,-22,-28,-15,1,-3,-4,0,1,-26,-17,-9,-5,goodbye
9.74927306175232,-17,-20,-18,-19,-18,-2,-3,-7,6,-1,-16,-19,-8,-1,goodbye
9.74927306175232,-16,-18,-15,-22,-8,-14,-4,0,6,-1,-7,-8,-5,6,goodbye
9.764577388763428,-3,-15,-18,-25,-2,-14,3,10,19,2,-4,0,4,10,goodbye
9.764577388763428,0,-12,-13,-17,-10,-12,-6,8,21,1,0,1,10,10,goodbye
9.780042171478271,6,2,-1,-8,-9,-13,-23,-2,1,-13,3,14,8,14,goodbye
9.780042171478271,32,20,7,5,0,-11,-17,-6,-1,-13,21,36,20,23,goodbye
9.796000719070436,41,22,13,4,-4,-11,-16,0,0,-4,41,41,27,19,goodbye
9.796000719070436,20,21,8,-6,-7,-14,-21,-2,-14,-17,22,19,0,-5,goodbye
9.811527013778688,3,27,13,11,0,-6,-9,-10,-18,-27,-3,0,-23,-19,goodbye
9.811527013778688,6,26,28,33,7,11,5,-3,-5,-13,8,5,-13,-11,goodbye
9.827131032943726,8,14,20,19,10,14,2,0,0,-3,19,8,-3,-9,sil
9.827131032943726,-1,13,9,7,7,6,-4,-6,-8,-11,-4,-4,-11,-12,sil
9.842281579971312,-18,14,4,20,5,12,5,-4,-17,-12,-24,-18,-17,-13,sil
9.842281579971312,-17,1,3,24,14,25,24,4,0,4,-20,-18,-12,-11,sil
9.858001947402954,-5,-15,6,7,16,24,27,12,24,23,-9,-5,-1,0,sil
9.858001947402954,-11,-26,-8,-3,0,9,21,9,14,24,-12,-11,3,2,sil
9.873244285583496,-20,-27,-16,-5,-7,0,21,2,-8,15,-19,-20,0,-2,sil
9.873244285583496,-12,-23,-5,-5,0,3,16,-1,-3,15,-7,-15,1,0,sil
9.887927532196043,-4,-21,-7,-8,0,-5,-2,-3,-1,10,-4,-9,5,3,sil
9.887927532196043,0,-11,-7,-11,-7,-16,-10,4,-1,0,-11,-2,5,3,sil
9.903352975845335,10,0,0,-11,0,-10,0,9,18,7,5,14,16,15,sil
9.903352975845335,13,0,7,-14,7,-6,-4,3,24,15,30,29,25,19,sil
9.919075012207031,4,0,0,-13,-5,-13,-17,-1,7,6,29,21,18,6,sil
9.919075012207031,0,-2,-11,-16,-17,-16,-15,0,-4,-7,9,-1,2,-7,sil
9.934447288513184,1,-4,-10,-24,-13,-10,-9,1,-5,-14,0,-6,-1,-13,sil
9.934447288513184,5,1,-4,-17,-5,-3,-9,0,0,-6,11,11,5,-5,sil
9.9499933719635,3,12,5,2,1,-2,-15,-8,-4,-8,12,18,4,0,sil
9.9499933719635,0,16,9,13,1,0,-18,-12,-18,-24,-5,0,-5,-2,sil
9.9660382270813,1,16,4,15,0,7,-5,-4,-9,-22,0,-3,-4,-5,sil
9.9660382270813,5,14,12,16,10,14,10,7,5,-4,10,4,-7,-4,sil
9.982046842575071,0,8,8,15,15,7,17,3,0,0,-10,-4,-22,-6,sil
9.982046842575071,-5,4,-5,10,1,1,18,-2,-10,-2,-23,-19,-22,0,sil
9.9972882270813,0,6,-5,11,-2,4,19,1,-4,1,-10,-14,-3,7,sil
9.9972882270813,2,10,3,19,12,4,13,4,2,7,1,-6,0,4,sil
10.013334274291992,1,11,6,24,18,6,5,-1,5,13,5,-3,-7,2,sil
10.013334274291992,-3,-3,-9,14,4,7,0,-5,1,15,-6,-11,-6,9,sil
10.029361248016356,-10,-22,-22,-3,-11,0,-8,-2,0,15,-20,-10,3,13,sil
10.029361248016356,-2,-17,-12,-6,-12,0,-2,0,19,22,-7,5,15,14,sil
10.050999402999878,8,-5,-10,-7,-4,3,4,-6,31,19,4,11,19,12,sil
10.050999402999878,4,-7,-16,-25,-7,-5,-13,-5,3,-11,-4,1,1,-8,sil
10.060049533843994,-3,-8,-21,-28,-6,-13,-24,0,-23,-33,-4,-3,-11,-27,sil
10.060049533843994,0,0,-6,-13,3,-11,-14,0,-18,-26,12,5,-5,-17,sil
10.075932502746582,0,8,17,-7,2,-6,-15,-2,-17,-21,17,9,-4,-7,sil
10.075932502746582,-8,5,16,2,-1,2,-7,0,-30,-16,6,-4,-11,-10,sil
10.091570138931274,-5,4,13,20,4,16,26,12,-13,13,0,-3,0,4,sil
10.091570138931274,8,1,12,17,4,20,42,16,33,50,12,12,23,30,sil
10.106856107711792,4,-14,2,-11,-9,-1,13,4,46,41,12,12,21,26,sil
10.106856107711792,-2,-22,0,-32,-18,-23,-12,4,15,2,-12,7,6,9,sil
10.121995449066162,13,-5,16,-14,-11,-16,-8,7,0,-10,-16,9,7,0,sil
10.13718605041504,21,13,30,5,0,-6,-10,-8,-9,-15,7,15,1,-8,sil
10.138186931610107,5,15,22,-1,2,-13,-23,-23,-35,-32,12,9,-13,-22,sil
10.138186931610107,-8,7,12,-2,-4,-9,-17,-12,-33,-28,-4,-10,-22,-25,sil
10.15228271484375,-11,4,20,19,1,13,7,6,-3,-4,-8,-21,-19,-6,sil
10.167600870132446,-11,2,16,31,16,23,22,7,9,8,-6,-16,-12,6,sil
10.167600870132446,-14,-9,4,15,9,15,9,1,3,9,-18,-15,-13,-1,sil
10.182671070098875,-17,-22,-8,-5,-6,11,0,4,11,6,-20,-20,-6,-6,sil
10.182671070098875,-12,-17,-12,-16,-3,5,3,4,21,1,-4,-10,14,11,sil
10.197816610336304,0,0,-1,-11,4,-2,0,-1,17,0,0,3,21,18,sil
10.197816610336304,7,3,-4,-1,5,-5,-7,-4,13,5,0,6,14,0,sil
10.214019060134888,8,3,-11,-2,4,-7,-7,-3,4,0,14,9,12,-14,sil
10.214019060134888,4,11,-12,-9,6,-8,-4,-2,-8,-9,19,9,6,-12,sil
10.22994089126587,3,18,-15,-7,5,-10,-11,0,-17,-12,8,2,-2,-8,sil
10.22994089126587,12,24,-13,8,4,-12,-12,0,-15,-7,9,12,0,-3,sil
10.245038270950316,9,19,-25,25,12,0,13,-1,0,7,15,12,2,1,sil
10.245038270950316,-9,-3,-60,13,10,16,34,0,13,22,0,-15,-5,0,sil
10.260663270950316,-21,-23,-94,-13,-2,14,27,0,16,25,-19,-30,-9,0,sil
10.260663270950316,-7,-21,-95,-20,-7,9,18,1,23,21,-14,-14,1,16,sil
10.27656316757202,11,-7,-38,-10,-6,12,15,6,26,17,2,4,15,28,sil
10.27656316757202,23,2,26,0,-9,0,0,4,6,10,12,17,17,24,sil
10.29218316078186,25,6,61,2,-10,-19,-24,-4,-23,-10,11,25,0,8,sil
10.29218316078186,16,8,63,2,-3,-11,-30,-5,-37,-32,6,14,-17,-6,sil
10.308058261871338,1,8,61,5,0,0,-24,-3,-39,-30,5,0,-20,-12,sil
10.308058261871338,-11,0,65,7,-2,-5,-21,-4,-29,-19,0,-2,-20,-13,sil
10.323224782943726,-19,-7,45,8,-9,-9,-13,-3,-14,-10,-14,-14,-24,-20,sil
10.323224782943726,-19,-1,26,17,-3,7,0,-1,-8,0,-25,-16,-21,-15,sil
10.339329957962036,-16,1,30,21,2,22,12,2,0,9,-14,1,-7,6,sil
10.339329957962036,-2,-6,25,12,-2,12,20,11,16,12,6,11,19,20,sil
10.3548481464386,15,-9,15,5,-3,0,17,18,24,19,12,18,36,21,sil
10.3548481464386,15,0,3,2,-1,-2,7,7,21,10,6,18,27,15,sil
10.370900392532349,11,3,1,0,-5,-14,-4,-8,7,-16,10,14,13,7,sil
10.370900392532349,20,12,7,1,0,-24,-9,-10,-2,-23,17,23,15,1,sil
10.386584520339966,12,13,-6,-1,3,-20,-11,-10,-1,-12,9,19,12,-9,sil
10.386584520339966,-11,6,-21,-9,-4,-11,-21,-9,-8,-21,0,0,-2,-21,sil
10.402133464813232,-11,4,-17,-6,-2,-1,-9,0,-9,-9,5,-5,-1,-15,sil
10.402133464813232,0,4,-9,-4,10,2,16,4,7,24,6,-6,4,0,sil
10.417173624038696,-5,-1,-11,-4,17,10,16,5,10,22,-6,-14,-8,4,sil
10.417173624038696,-24,-11,-38,-8,12,17,8,4,0,2,-27,-39,-25,-8,sil
10.432751178741457,-36,-23,-58,-33,1,13,9,0,0,3,-53,-65,-37,-24,sil
10.432751178741457,-29,-31,-57,-56,-5,7,10,-3,8,8,-54,-64,-35,-22,sil
10.44799256324768,-9,-20,-43,-51,-3,3,0,0,14,7,-22,-27,-5,0,sil
10.44799256324768,6,-2,-23,-33,0,-2,-14,1,11,1,3,9,17,9,sil
10.464049100875854,12,0,-13,-28,2,-9,-18,-2,10,-6,7,8,5,-2,sil
10.464049100875854,6,0,-2,-23,1,-5,-10,-3,6,-6,6,-5,-9,-9,sil
10.47986888885498,1,12,14,9,6,5,-5,-1,-8,3,14,1,0,-1,sil
10.47986888885498,5,16,28,44,8,7,-1,-2,-23,6,21,23,9,7,sil
10.495225667953491,4,7,29,39,2,5,14,1,-17,-1,16,27,5,13,sil
10.495225667953491,0,4,21,36,0,14,26,7,0,0,13,15,3,14,sil
10.510579824447632,0,4,32,49,-3,16,20,4,-2,7,15,14,5,8,sil
10.510579824447632,11,1,37,47,-13,10,17,2,-6,6,12,26,7,7,sil
10.526087045669556,20,1,19,36,-10,3,16,8,6,0,12,32,14,15,sil
10.526087045669556,20,8,14,33,0,-7,6,8,16,-2,17,33,21,20,sil
10.54173731803894,23,10,15,24,-5,-20,-6,-2,9,-4,20,28,21,15,sil
10.54173731803894,24,11,14,5,-12,-24,-22,-4,0,-10,17,20,13,6,sil
10.55735731124878,18,15,14,0,-5,-15,-28,0,-1,-7,18,19,8,3,sil
10.55735731124878,12,11,8,3,9,-7,-18,-2,0,1,20,14,11,7,sil
10.572965621948242,1,7,6,-4,12,-4,-11,-1,-8,1,7,0,6,3,sil
10.572965621948242,-17,10,0,-10,7,0,-13,-3,-20,-7,-14,-22,-10,-15,sil
10.587988376617432,-22,5,-7,-5,9,9,-4,-10,-23,-11,-24,-34,-27,-27,sil
10.587988376617432,-16,-7,-14,-15,12,14,13,-3,-10,2,-19,-35,-29,-19,sil
10.603200197219849,-28,-20,-28,-32,0,6,14,-3,0,11,-22,-37,-21,-13,sil
10.603200197219849,-38,-27,-33,-32,-12,-5,1,-8,-6,-3,-37,-36,-22,-14,sil
10.619341135025024,-24,-30,-36,-35,-14,-10,1,1,0,-5,-41,-33,-22,-10,sil
10.619341135025024,-8,-33,-30,-50,-13,-8,9,10,24,16,-30,-21,-5,0,sil
10.635035276412964,-4,-24,-12,-42,-11,-1,3,0,31,23,-12,-4,14,13,sil
10.635035276412964,2,-4,-1,-12,-7,0,-5,-8,11,0,1,6,17,16,sil
10.6515531539917,13,7,8,-1,-3,-7,-14,2,-1,-19,2,12,6,6,sil
10.6515531539917,13,2,2,-14,-6,-10,-18,5,-7,-23,0,10,0,-8,sil
10.66603946685791,8,5,1,-7,-1,-2,-13,-2,-18,-23,9,12,-7,-15,sil
10.66603946685791,9,28,21,25,18,10,-4,0,-17,-17,21,17,-11,-12,sil
10.681204795837402,4,30,23,39,20,15,3,6,0,-3,16,9,0,-4,sil
10.681204795837402,-4,10,11,22,7,13,17,5,4,3,1,0,4,0,sil
10.69633173942566,-6,1,4,18,9,12,25,0,10,13,2,-2,1,0,sil
10.71146845817566,-1,-1,-1,20,8,10,18,0,17,23,2,-2,2,9,sil
10.71146845817566,0,-10,-4,8,-6,6,10,7,6,19,-5,2,8,22,sil
10.72665786743164,2,-11,-10,-1,-10,2,6,7,0,11,0,0,12,19,sil
10.72665786743164,6,-5,-8,-5,-2,0,0,-2,12,10,7,0,9,7,sil
10.742339611053469,8,0,-4,0,0,-1,-1,-1,23,9,11,8,12,2,sil
10.742339611053469,8,5,0,3,0,-12,-5,0,11,-3,15,21,15,0,sil
10.757996320724487,11,6,5,-1,0,-20,-17,-5,-10,-14,16,24,9,-6,sil
10.757996320724487,16,4,6,-2,1,-13,-19,-5,-18,-7,19,17,4,-7,sil
10.77425217628479,7,10,14,5,3,-3,-16,0,-14,-6,22,9,2,-7,sil
10.77425217628479,0,19,18,11,4,1,-9,0,-14,-13,15,-1,-3,-9,sil
10.789453268051147,0,18,12,20,8,6,2,-2,-12,2,12,-7,-5,-2,sil
10.789453268051147,0,15,22,33,12,13,11,5,0,22,6,-6,0,9,sil
10.804926872253418,-2,10,21,31,9,15,15,5,2,8,-8,-8,-4,9,sil
10.804926872253418,-11,-6,-4,3,0,9,11,-4,-13,-11,-30,-18,-25,-3,sil
10.820457696914673,-29,-24,-27,-18,-2,11,8,-5,-15,-7,-47,-34,-41,-16,sil
10.820457696914673,-29,-26,-20,-19,-5,6,14,1,4,-1,-47,-35,-31,-13,sil
10.836463689804075,-14,-21,-10,-22,-15,-6,9,5,11,-9,-27,-14,-7,-4,sil
10.836463689804075,-10,-20,-27,-34,-19,-10,-2,-2,0,-16,-19,-4,4,0,sil
10.85197639465332,0,-13,-22,-32,-9,-7,-4,-4,0,-4,-18,0,9,10,sil
10.85197639465332,17,-1,1,-13,-4,-10,-7,1,7,11,12,19,26,19,sil
10.867141246795654,17,0,1,-1,-6,-11,-10,0,7,17,38,30,36,13,sil
10.867141246795654,18,2,1,1,0,-8,0,0,9,12,25,26,25,17,sil
10.882601499557495,18,3,4,0,1,-9,6,3,11,9,10,15,14,19,sil
10.882601499557495,0,-4,-1,-7,-3,-10,-7,0,-4,-5,0,2,-2,-3,sil
10.898349523544312,-8,-3,-2,-10,-1,-1,-11,-6,-19,-22,-15,-5,-22,-24,sil
10.898349523544312,3,10,8,6,8,6,-4,-7,-1,-6,-6,-1,-13,-17,sil
10.914522171020508,1,13,14,18,7,3,-4,0,12,14,14,1,3,-6,sil
10.914522171020508,-7,0,1,7,-1,-1,-7,1,1,2,12,-10,-1,-5,sil
10.929962635040283,-5,-5,-5,-8,-4,-1,-11,0,-5,-15,-3,-17,-12,-6,sil
10.929962635040283,-2,1,-4,-5,-3,0,-14,3,7,-4,-1,-5,-4,-6,sil
10.946017503738403,-1,8,-2,11,1,2,-4,1,17,8,14,2,9,2,sil
10.946017503738403,0,16,10,17,11,14,12,3,13,5,18,7,12,12,sil
10.961218118667604,-1,16,4,7,7,15,19,4,5,2,10,7,6,3,sil
10.961218118667604,2,9,0,1,2,2,12,0,-8,-5,5,8,-2,-6,sil
10.977068662643433,15,13,17,11,9,3,9,1,-15,-6,6,10,-3,0,sil
10.977068662643433,13,9,11,9,10,4,6,0,-7,-2,-1,0,-3,-1,sil
10.992644786834717,3,1,0,0,2,-5,-7,-6,-7,-9,-13,-3,-8,-6,sil
10.992644786834717,6,4,6,3,0,-8,-13,-2,-9,-4,0,10,1,6,sil
11.008285284042358,4,-4,4,0,0,-5,-9,0,-9,5,6,3,6,11,sil
11.008285284042358,-13,-16,-6,-13,1,-2,-7,-6,-16,-7,-18,-17,-12,-6,sil
11.024328231811523,-21,-16,-15,-9,-3,-1,-5,-5,-13,-7,-19,-14,-11,-6,sil
11.024328231811523,-13,-15,-6,-2,-14,-3,-8,0,0,8,0,3,5,5,sil
11.039938926696776,-7,-5,0,4,-8,0,-10,0,1,0,-5,0,0,2,sil
11.039938926696776,0,10,0,17,5,9,7,1,-3,0,-11,-3,-7,0,sil
11.055320739746094,6,7,2,9,4,15,31,7,2,16,0,-1,0,4,sil
11.055320739746094,0,-13,-4,-9,-5,19,34,3,17,16,-3,-11,1,-1,sil
11.070845127105711,-14,-24,-12,-15,-3,14,23,2,20,7,-15,-17,-4,-3,sil
11.070845127105711,-8,-13,-9,-3,4,5,18,10,23,20,-2,-4,1,6,sil
11.086265802383425,4,0,-6,7,3,-1,17,10,31,29,11,1,17,11,sil
11.086265802383425,5,-1,-4,-2,-4,-10,7,8,28,14,4,-2,18,9,sil
11.102277994155884,3,-10,-7,-18,-7,-18,-6,-2,12,-1,-1,0,10,9,sil
11.102277994155884,6,-7,-4,-16,-8,-19,-19,-9,-4,-11,-5,11,7,6,sil
11.118227005004885,3,0,-3,-11,-8,-12,-19,-3,-15,-20,-5,12,4,-4,sil
11.118227005004885,2,3,-7,-13,-5,-11,-19,-12,-25,-28,0,1,-6,-18,sil
11.133241891860962,6,7,1,-7,-7,-15,-31,-19,-40,-35,4,-1,-17,-24,sil
11.133241891860962,3,15,13,7,0,-6,-30,-5,-42,-36,6,3,-16,-18,sil
11.149277210235596,0,23,20,22,16,6,-9,0,-21,-17,13,6,-9,-3,goodbye
11.149277210235596,0,18,17,28,13,8,3,0,-3,7,13,4,-7,6,goodbye
11.165310382843018,-8,-1,0,14,-3,9,6,9,6,21,0,-5,-9,3,goodbye
11.165310382843018,-18,-15,-10,-10,-6,16,13,15,23,29,-4,-10,0,4,goodbye
11.180798292160034,0,-8,-9,-16,0,5,16,6,34,29,8,-1,15,19,goodbye
11.180798292160034,30,8,7,-2,2,-4,6,1,28,14,16,20,20,24,goodbye
11.196258306503296,30,19,21,2,7,0,0,0,21,0,10,26,12,10,goodbye
11.196258306503296,6,14,12,0,9,-5,-7,-4,0,-7,6,10,0,-5,goodbye
11.21147632598877,0,13,8,8,8,-13,-15,-8,-22,-19,13,4,-8,-18,goodbye
11.21147632598877,8,22,18,27,13,0,-4,-9,-9,-16,17,10,0,-13,goodbye
11.226980447769163,8,21,28,32,23,13,13,0,0,-2,10,12,11,2,goodbye
11.226980447769163,-1,0,8,16,12,15,7,2,-18,5,-3,-1,9,3,goodbye
11.242008924484251,-19,-26,-27,-14,-18,2,-6,-5,-25,-1,-22,-27,-5,-11,goodbye
11.242008924484251,-28,-33,-28,-35,-33,-12,-12,-3,-9,-16,-38,-30,-16,-14,goodbye
11.257526874542236,-16,-23,-21,-25,-18,-11,-11,3,1,-13,-24,-12,0,0,goodbye
11.257526874542236,-5,-16,-21,-15,-5,-5,-8,0,0,0,-2,-5,14,6,goodbye
11.273086309432983,-17,-13,-17,-13,-9,-3,2,-3,-4,-1,-10,-12,-5,-7,goodbye
11.289642810821531,-17,-4,-12,0,-5,7,9,1,0,-7,-20,-16,-22,-13,goodbye
11.289642810821531,8,8,6,14,9,17,11,9,9,2,-1,-1,-9,10,goodbye
11.289642810821531,19,7,14,16,13,9,16,6,10,16,8,9,2,22,goodbye
11.304270505905151,0,-7,-1,-1,0,0,19,1,5,17,-6,-2,-5,4,goodbye
11.31943154335022,-12,-14,-7,-16,-8,3,12,1,2,11,-11,-18,-15,-11,goodbye
11.31943154335022,-7,-6,-8,-6,-1,4,6,0,0,5,-4,-16,-7,-7,goodbye
11.31943154335022,-2,-2,-1,0,11,5,4,4,7,7,4,3,5,1,goodbye
11.335053443908691,0,-4,2,-4,11,6,9,10,22,20,13,10,8,7,goodbye
11.350492238998411,-2,0,-1,0,3,0,7,3,20,22,8,2,3,5,goodbye
11.350492238998411,-3,12,-1,5,1,0,-4,1,9,5,0,4,3,-3,goodbye
11.36641001701355,5,15,2,6,0,-7,-9,0,2,-9,2,11,7,-7,goodbye
11.36641001701355,13,10,11,4,-7,-16,-7,-5,-5,-11,0,13,5,2,goodbye
11.381925344467165,16,9,13,4,-15,-4,-5,-8,-4,-3,-4,9,2,15,goodbye
11.381925344467165,17,6,6,9,-10,-4,-5,-9,-5,-5,-4,4,0,8,goodbye
11.39706540107727,11,2,10,14,2,-12,-4,-2,-17,-17,-4,6,-4,1,goodbye
11.39706540107727,11,0,10,7,10,8,3,2,-8,-11,10,10,4,9,goodbye
11.412673711776732,14,0,5,-13,3,16,8,0,6,-1,23,13,17,9,goodbye
11.412673711776732,2,0,-4,-19,-2,-8,-4,-2,-4,-12,13,10,14,-9,goodbye
11.428258419036863,-6,0,-12,-4,6,-16,-17,-3,-16,-16,10,2,3,-12,goodbye
11.428258419036863,0,0,0,-3,7,-5,-14,0,-8,1,24,9,7,0,goodbye
11.44429612159729,4,4,10,-10,-8,-12,-14,0,-4,11,34,19,18,1,goodbye
11.44429612159729,1,11,11,0,-10,-23,-24,0,-13,0,32,12,7,-5,goodbye
11.460999488830566,-5,5,7,10,-1,-11,-19,-4,-12,-9,14,-4,-9,-4,goodbye
11.460999488830566,-14,-6,-2,11,0,5,-1,-5,1,-3,-12,-16,-10,-3,goodbye
11.47605323791504,-11,-1,3,17,8,12,3,-1,3,0,-22,-12,-5,-4,goodbye
11.47605323791504,-7,0,3,16,11,9,0,-2,-6,-2,-19,-15,-8,-2,goodbye
11.492154359817505,-19,-16,-16,-3,-3,5,-2,-9,-19,-9,-36,-23,-20,-5,goodbye
11.492154359817505,-16,-18,-22,-9,-10,5,0,-1,-4,-14,-39,-15,-13,-7,goodbye
11.508129119873049,5,0,-7,2,-4,5,9,12,25,-3,-12,1,6,4,goodbye
11.508129119873049,10,7,3,7,-7,12,9,11,25,6,-3,0,1,6,goodbye
11.52322006225586,4,5,-4,2,-3,19,12,4,13,7,-7,-14,-10,-5,goodbye
11.52322006225586,3,3,-4,0,5,12,21,5,21,13,0,-10,-4,-1,goodbye
11.53839373588562,-5,-1,3,-6,1,4,18,3,17,14,-1,-2,-7,0,goodbye
11.53839373588562,-9,-2,0,-9,0,0,4,-2,-7,3,-14,-5,-15,-9,goodbye
11.554607391357422,4,5,4,-6,13,-5,0,-1,-14,8,-3,3,0,0,goodbye
11.554607391357422,9,7,0,-5,15,-5,8,1,0,25,8,8,10,14,goodbye
11.57021975517273,-1,0,-10,-10,7,0,13,0,2,23,0,-4,-4,5,goodbye
11.57021975517273,-6,-2,-8,-3,8,4,9,4,0,16,-9,-12,-9,0,goodbye
11.585928916931152,-9,-3,-8,-10,6,4,7,9,0,11,-4,-9,10,0,goodbye
11.585928916931152,-12,-8,-11,-31,-2,-1,5,0,0,10,1,-3,13,-4,goodbye
11.600998163223268,-1,-6,-7,-18,-4,-4,5,-3,0,15,11,4,2,0,goodbye
11.600998163223268,4,0,0,4,-3,1,5,4,6,-14,13,6,3,7,goodbye
11.61612868309021,0,-7,3,0,-6,5,4,0,1,-58,-5,-1,-4,-2,goodbye
11.61612868309021,1,-14,5,0,-6,2,-1,-9,-6,-44,-15,0,-14,-5,goodbye
11.63119888305664,10,-6,19,18,-9,0,-14,-4,-2,-9,8,20,6,9,goodbye
11.63119888305664,9,-2,15,22,-11,-10,-21,-1,2,-3,29,26,26,9,goodbye
11.647266626358032,7,-4,3,13,-9,-20,-24,-6,-4,-5,2,6,6,-1,goodbye
11.647266626358032,12,4,7,13,-8,-16,-18,-2,-11,-3,-9,7,-2,2,goodbye
11.6623957157135,14,9,11,20,-9,-9,-4,2,0,6,27,27,21,17,goodbye
11.6623957157135,12,3,6,10,-3,-10,-3,4,9,14,33,21,23,14,goodbye
11.67793321609497,2,2,-4,-6,1,-7,-16,0,4,-1,-1,-4,0,-1,goodbye
11.67793321609497,-5,3,-11,-12,1,-1,-22,-9,-3,-7,0,-4,-4,-9,goodbye
11.694014549255373,-1,6,2,-6,0,0,-15,-4,-5,9,20,12,4,-8,goodbye
11.694014549255373,4,15,8,2,2,0,-7,1,-4,6,9,8,3,-6,goodbye
11.709412574768066,0,20,6,9,5,-3,-5,-2,-7,-5,0,-3,-2,-7,goodbye
11.709412574768066,-7,15,1,3,5,-5,-2,0,-8,0,0,-9,-5,-11,goodbye
11.72511625289917,-6,2,-2,-2,2,0,0,1,-7,-4,-3,-12,-11,-13,goodbye
11.72511625289917,-7,-2,2,-1,2,12,4,-2,-6,-13,-13,-16,-18,-13,goodbye
11.740227699279783,-8,4,0,0,7,20,17,-5,-3,-3,-14,-15,-12,-8,sil
11.740227699279783,0,5,-2,-5,13,13,23,0,-3,5,-9,-6,-5,1,sil
11.755347967147827,3,0,5,-8,9,8,20,0,0,7,-6,-4,-2,9,sil
11.755347967147827,0,3,4,5,8,11,16,2,15,11,-13,-8,-1,11,sil
11.771333456039429,0,3,2,14,13,8,12,11,21,10,-17,-4,-6,12,sil
11.771333456039429,-7,-16,-12,-2,4,1,8,7,5,7,-9,-8,-10,4,sil
11.786935329437256,-17,-20,-18,-15,-5,8,10,0,-10,4,-10,-13,-4,0,sil
11.786935329437256,-17,-8,-14,-5,-1,10,15,4,-5,2,-22,-10,-3,-2,sil
11.8024582862854,-9,-17,-21,-1,0,-2,15,2,0,0,-25,-20,-11,-9,sil
11.8024582862854,0,-19,-11,-4,-2,0,9,2,0,0,-3,-12,-9,-1,sil
11.818500280380247,3,-8,0,0,-8,14,10,3,-1,2,12,8,0,10,sil
11.818500280380247,-5,-13,-7,-3,-14,5,4,-3,-4,4,-6,0,-1,3,sil
11.834068059921265,0,-7,-4,0,-3,0,-4,0,9,4,-10,-7,6,3,sil
11.834068059921265,19,11,9,9,8,0,-3,10,38,14,29,17,30,17,sil
11.849316835403442,13,10,9,0,-4,-19,-8,3,30,9,38,28,26,9,sil
11.849316835403442,0,-3,-1,-11,-17,-32,-24,-7,5,-6,12,9,6,-1,sil
11.864939212799072,6,-1,4,-7,-11,-22,-23,0,8,-2,11,7,9,4,sil
11.864939212799072,15,0,14,-9,-7,-14,-14,3,10,7,24,16,17,6,sil
11.8803391456604,6,-4,3,-10,-11,-13,-20,-10,-6,-3,14,17,13,-5,sil
11.8803391456604,7,3,5,0,0,-6,-25,-11,-17,-22,3,23,7,-9,sil
11.895999431610107,9,18,12,8,12,0,-11,-5,-16,-24,3,18,3,-8,sil
11.911086797714232,-3,15,3,-1,5,2,-4,-11,-19,-21,-3,0,-10,-14,sil
11.911086797714232,-5,11,4,-5,0,3,-9,-12,-26,-19,-7,-1,-14,-15,sil
11.911086797714232,8,21,6,8,8,0,-2,-5,-27,-17,0,4,-2,-6,sil
11.926852226257324,7,19,8,14,11,-3,5,-1,-21,-11,-4,-2,-8,-6,sil
11.944127082824709,-5,5,4,8,3,1,3,3,-9,1,-14,-17,-21,-13,sil
11.944127082824709,-11,-3,-7,4,-3,1,2,7,-4,11,-14,-28,-17,-7,sil
11.944127082824709,-19,-6,-11,1,-7,0,5,5,-13,3,-18,-27,-18,0,sil
11.95924425125122,-22,-1,-1,8,0,12,8,3,-13,0,-19,-19,-20,0,sil
11.95924425125122,-7,0,9,16,9,30,14,6,7,11,-4,-5,-2,2,sil
11.974274396896362,3,-12,-1,11,4,26,20,6,21,24,4,0,11,14,sil
11.974274396896362,-6,-23,-16,0,-4,5,13,0,7,17,-2,-5,-3,12,sil
11.99133014678955,-12,-15,-8,-3,-2,-1,6,4,7,6,-6,-7,-9,4,sil
11.99133014678955,6,-7,-3,0,5,10,19,12,41,16,9,3,17,14,sil
12.007805824279783,15,-9,-4,-8,7,10,25,8,52,20,12,10,27,24,sil
12.007805824279783,0,-9,-8,-21,1,-7,8,4,27,4,-5,1,8,11,sil
12.020520448684692,4,-5,-8,-16,-3,-12,0,2,16,-1,-1,8,9,4,sil
12.036242246627808,22,11,10,1,0,-5,1,-2,19,7,30,37,31,17,sil
12.036242246627808,17,22,17,6,5,-9,0,-11,0,3,40,33,27,15,sil
12.057716846466064,5,10,9,-2,0,-16,-16,-7,-29,-16,15,3,-1,-8,sil
12.057716846466064,0,0,1,-7,-2,-9,-25,-4,-36,-31,-1,-5,-15,-23,sil
12.057716846466064,-5,6,-4,0,4,0,-14,-9,-26,-22,-4,-7,-13,-21,sil
12.06733775138855,-6,4,3,8,10,8,0,-4,-13,0,-11,-8,-12,-10,sil
12.083329439163208,-3,0,5,14,8,9,-3,0,-3,8,-8,-4,-5,-3,sil
12.083329439163208,0,3,1,9,4,-1,-15,-5,-14,-5,0,-5,-2,-7,sil
12.09937620162964,-11,0,-6,-6,-8,-16,-17,-9,-32,-17,-16,-24,-24,-23,sil
12.09937620162964,-28,-14,-18,-18,-22,-12,-12,-7,-25,-9,-34,-35,-34,-27,sil
12.09937620162964,-21,-13,-7,-7,-17,5,0,2,0,8,-24,-13,-5,-6,sil
12.116187334060667,-1,-7,1,3,-4,5,9,14,19,23,-7,5,18,12,sil
12.116187334060667,5,-7,-4,0,0,-8,3,8,27,16,-6,2,11,10,sil
12.13037610054016,11,2,-3,-4,-1,0,1,1,29,2,0,8,7,8,sil
12.145913124084473,23,11,4,-4,-4,10,10,7,32,3,14,23,18,15,sil
12.145913124084473,21,3,8,-10,-8,-2,6,9,21,-1,22,24,17,11,sil
12.161186933517456,9,2,0,-7,-3,-9,-3,-1,0,-15,21,14,4,-2,sil
12.161186933517456,1,17,5,5,7,-5,-7,-2,-10,-14,19,7,0,-6,sil
12.176092386245728,-2,22,20,14,10,-6,-8,1,-10,-4,18,1,2,0,sil
12.176092386245728,-8,5,9,18,6,2,-1,-7,-17,-8,4,-6,-11,-3,sil
12.192104816436768,-10,-6,-4,14,6,17,10,-9,-21,-9,-14,-12,-25,-4,sil
12.192104816436768,-2,-1,0,8,8,21,25,6,-6,16,-8,-11,-7,12,sil
12.208191871643066,2,3,4,7,8,17,34,10,0,25,0,-9,1,21,sil
12.208191871643066,-7,-11,-7,0,0,9,16,-6,-17,-7,-21,-14,-19,0,sil
12.224061012268066,-17,-34,-29,-17,-13,-3,-8,-13,-20,-19,-32,-22,-22,-12,sil
12.224061012268066,-9,-29,-24,-23,-10,-8,-11,-2,0,4,-10,-9,-1,0,sil
12.239100456237791,0,-11,-11,-17,-2,-9,-9,0,2,1,0,4,3,3,sil
12.239100456237791,-1,-9,-9,-18,-3,-14,-20,-7,-4,-18,-8,1,2,-8,sil
12.254473447799684,2,0,1,-15,0,-8,-13,3,16,-1,4,5,18,-8,sil
12.254473447799684,9,18,15,4,6,1,0,13,33,20,36,23,32,0,sil
12.269996643066406,8,23,26,17,4,0,-8,5,11,8,35,29,21,2,sil
12.269996643066406,11,27,24,27,12,7,-6,0,2,6,13,14,8,0,sil
12.285518169403076,14,33,18,38,23,16,12,2,14,18,6,2,5,3,sil
12.285518169403076,5,14,15,27,12,13,15,6,11,19,0,3,3,12,sil
12.301197052001951,1,-8,1,9,0,5,10,5,17,23,-3,3,11,15,sil
12.301197052001951,6,-12,-2,-4,-5,-6,3,1,31,13,-3,4,15,10,sil
12.31725811958313,3,-10,-3,-21,-14,-18,-10,-2,16,-10,-2,8,8,4,sil
12.31725811958313,3,-2,-4,-20,-16,-16,-11,-4,-10,-16,8,12,3,0,sil
12.33284616470337,13,11,8,0,-4,-7,-1,-3,-22,-11,18,12,-3,-3,sil
12.33284616470337,6,7,5,6,1,-6,-1,-6,-27,-19,1,-5,-21,-11,sil
12.348363637924194,-16,-4,-11,0,0,-3,-4,-8,-33,-25,-17,-22,-34,-17,sil
12.348363637924194,-27,-7,-13,0,-2,2,0,-7,-33,-19,-22,-28,-37,-15,sil
12.364471197128296,-24,-14,-16,-5,-3,5,3,-8,-27,-13,-34,-35,-38,-14,sil
12.364471197128296,-24,-21,-25,-12,-7,4,0,-4,-17,-10,-38,-31,-29,-11,sil
12.38003158569336,-20,-20,-31,-12,-8,5,3,2,0,0,-16,-23,-4,-7,sil
12.38003158569336,-6,-16,-14,-14,-3,4,7,5,13,15,-5,-16,11,-4,sil
12.395205974578856,0,-10,-3,-14,-3,0,3,6,16,11,-10,-4,9,1,sil
12.395205974578856,-2,-9,-11,-14,-6,-8,-7,3,10,-4,0,4,11,2,sil
12.410470008850098,1,-2,-3,-17,2,-9,-11,7,8,-1,22,15,24,0,sil
12.410470008850098,18,20,12,0,11,0,-2,9,8,17,31,24,31,8,sil
12.425925970077516,25,30,19,17,3,-2,-8,-1,-1,6,27,29,18,12,sil
12.425925970077516,16,17,21,1,0,-9,-20,-9,-12,-19,23,29,4,-1,sil
12.441541194915771,12,18,22,0,6,-6,-14,-3,-4,-14,23,18,3,-3,sil
12.441541194915771,11,30,31,30,15,5,0,0,7,5,12,6,0,4,sil
12.456633806228638,1,15,21,34,13,13,9,-5,6,10,-7,-4,-13,0,sil
12.456633806228638,-9,-12,-3,4,0,10,17,-4,3,5,-20,-19,-20,-3,sil
12.472275733947754,-4,-16,-7,-3,-2,16,18,5,13,11,-16,-17,-11,6,sil
12.472275733947754,2,-7,-2,11,5,23,22,13,21,19,-17,-6,-2,13,sil
12.488048791885376,-1,-4,-5,10,6,13,24,9,13,18,-25,-8,-3,11,sil
12.488048791885376,-8,-6,-12,-2,-3,0,14,0,6,13,-14,-11,1,5,sil
12.504103660583496,-3,-8,-9,-7,-8,-2,1,-1,4,11,0,0,11,3,sil
12.504103660583496,3,-3,1,-4,-4,0,3,3,0,9,7,10,17,12,sil
12.519480466842651,-1,-7,-5,-6,-3,-6,-2,-1,-8,-5,9,1,13,9,sil
12.519480466842651,-9,-17,-14,-13,-10,-20,-23,-7,-16,-28,3,0,0,-6,sil
12.535104990005491,0,-1,-4,-4,-7,-11,-13,0,-7,-26,6,10,0,-5,sil
12.535104990005491,9,14,9,12,2,2,4,4,3,-9,18,16,11,3,sil
12.550393104553224,5,4,12,8,0,-7,-6,-4,-5,-4,16,15,5,-4,sil
12.550393104553224,3,-2,3,-3,-8,-15,-22,-6,-14,-7,11,17,0,-9,sil
12.566490650177002,5,2,4,-3,-7,-12,-22,-2,-7,-12,10,12,0,0,sil
12.566490650177002,1,3,9,0,-5,-16,-19,-5,-3,-14,5,3,-1,-2,sil
12.5820050239563,1,5,11,3,0,-10,-8,0,-6,-2,6,11,-1,-4,sil
12.5820050239563,8,14,17,12,9,11,-1,6,-6,8,9,18,0,7,sil
12.597127914428713,4,13,3,15,12,17,0,0,0,2,3,-2,-2,0,sil
12.597127914428713,-6,8,-4,10,6,7,12,-2,0,-2,-4,-16,-5,-15,sil
12.612659692764282,-6,3,-1,7,6,12,25,6,4,5,-4,-10,-2,-10,sil
12.612659692764282,-6,-5,-7,-2,9,13,19,1,8,8,-7,-15,-2,-6,sil
12.628358125686646,-18,-15,-21,-22,0,0,6,-1,4,1,-22,-29,-11,-13,sil
12.628358125686646,-21,-17,-28,-26,-7,-4,7,0,0,6,-32,-32,-13,-9,sil
12.643996000289915,-5,-11,-21,-23,1,8,11,0,1,18,-26,-26,-4,-2,sil
12.65919828414917,2,-4,-14,-21,6,8,5,-2,2,11,-22,-26,-11,-4,sil
12.65919828414917,-3,-4,-15,-18,0,-10,-1,-4,-4,-1,-23,-29,-19,-3,sil
12.65919828414917,-8,-6,-11,-20,0,-14,-6,0,0,3,-14,-13,-4,1,sil
12.674330949783323,-5,-4,-11,-26,1,-4,-6,6,10,9,-8,-6,0,1,sil
12.689565181732178,-2,1,0,-14,-3,0,-5,3,6,0,-8,-1,-11,5,sil
12.689565181732178,3,11,14,8,-4,7,-7,0,0,-6,7,12,3,10,sil
12.705435991287231,9,5,11,15,-3,5,-15,-1,3,-8,17,18,19,9,sil
12.705435991287231,8,-4,10,7,-10,0,-11,0,1,-9,14,19,7,6,sil
12.720929384231567,11,0,14,14,-7,0,4,8,6,5,33,30,17,12,sil
12.720929384231567,15,10,18,27,6,1,2,5,8,9,39,37,25,15,sil
12.737030982971191,9,8,19,28,9,-2,-7,-7,-11,-15,12,30,3,4,sil
12.737030982971191,6,1,13,26,0,-10,-7,-12,-23,-27,4,21,-3,-3,sil
12.754072904586792,11,2,21,28,-6,-10,-1,-4,-12,-13,15,20,6,0,sil
12.754072904586792,13,5,21,29,0,4,8,1,0,0,9,18,10,9,sil
12.754072904586792,6,1,10,24,4,7,11,1,-1,4,3,7,7,6,sil
12.76828646659851,-6,-2,0,11,0,-3,1,2,-6,1,0,-10,-4,-7,sil
12.783451557159424,-15,-4,-10,-7,0,0,2,6,1,4,-9,-21,-14,-12,sil
12.783451557159424,-3,0,-6,-11,6,9,11,9,18,19,-5,-10,0,0,sil
12.798404216766356,6,9,-4,0,8,3,14,1,15,22,8,-6,13,9,sil
12.798404216766356,-3,12,-7,-3,0,4,15,-2,2,10,9,-14,6,2,sil
12.814541339874268,-12,3,-4,-18,0,15,9,0,6,9,0,-7,0,-2,sil
12.814541339874268,-9,-3,-8,-15,4,7,0,-2,6,6,-12,-4,-6,-8,sil
12.830188751220703,-11,-8,-11,-17,2,-1,0,-6,-5,-11,-25,-17,-18,-18,sil
12.830188751220703,-15,-15,-14,-27,-9,0,-3,-2,-6,-16,-24,-23,-16,-20,sil
12.845231533050535,-7,-14,-12,-21,-11,-12,-23,-6,-12,-4,-12,-9,-4,-7,sil
12.845231533050535,3,-2,0,-8,-3,-25,-30,-5,-25,-6,-3,4,0,1,sil
12.86110019683838,9,0,-3,-8,-4,-15,-12,0,-3,-11,3,9,7,6,sil
12.86110019683838,12,0,-5,-9,-7,-7,0,5,23,-3,8,10,11,13,sil
12.87624192237854,11,7,5,3,5,-5,3,0,10,4,4,0,1,14,sil
12.87624192237854,4,6,3,9,15,4,8,-4,-9,-1,-3,-5,-8,5,sil
12.891363859176636,-4,-3,-11,-7,1,9,9,-2,-6,-12,-8,0,-6,-4,sil
12.891363859176636,-7,-11,-15,-18,-8,-3,1,-6,-6,-15,-5,-3,-3,-13,sil
12.907254457473757,0,-2,2,0,0,-8,-6,-3,-9,-5,0,-8,-3,-7,sil
12.907254457473757,5,9,10,15,9,8,0,9,1,10,2,0,0,2,sil
12.923253774642944,-12,-4,-6,-1,0,12,0,12,3,6,-2,-7,-8,-6,sil
12.923253774642944,-27,-18,-9,-12,-9,-1,-7,10,6,0,-3,-12,-15,-13,sil
12.938341617584229,-5,3,2,8,0,0,0,11,26,18,11,7,3,2,sil
12.938341617584229,11,20,11,17,6,13,9,6,26,27,15,17,18,14,sil
12.954343795776367,1,1,2,5,2,17,9,2,5,14,5,0,6,5,sil
12.954343795776367,2,-1,5,13,0,13,11,3,3,4,0,0,-3,0,sil
12.969948768615724,18,14,27,31,2,9,9,0,6,0,-5,10,-1,7,goodbye
12.969948768615724,10,8,16,19,0,0,0,-7,-2,2,-8,3,2,11,goodbye
12.985412359237673,-1,-4,0,-5,-9,-20,-17,-9,-20,0,0,1,-2,1,goodbye
12.985412359237673,0,0,1,-5,-13,-26,-23,-11,-30,-18,13,9,-9,-15,goodbye
13.001016855239868,-1,2,1,2,0,-14,-7,-17,-21,-19,5,3,-3,-14,goodbye
13.001016855239868,-4,-2,1,2,11,-1,5,-10,-11,-11,-5,-2,2,0,goodbye
13.01615834236145,3,0,0,5,4,0,2,0,-10,-7,6,3,3,6,goodbye
13.01615834236145,15,7,5,8,3,1,4,3,-1,2,22,13,14,9,goodbye
13.03227162361145,16,11,11,4,15,9,13,6,11,14,15,13,29,14,goodbye
13.03227162361145,1,5,-1,0,2,9,5,2,10,8,0,2,22,7,goodbye
13.048333883285522,-10,-5,-7,-7,-13,3,-8,0,1,-2,-4,-11,3,-1,goodbye
13.048333883285522,-4,-8,-7,-13,0,5,-1,0,4,-3,-10,-16,-1,-3,goodbye
13.063445329666138,1,-1,-4,-12,11,13,10,6,7,-1,-17,-5,0,1,goodbye
13.063445329666138,-5,-6,-5,-12,-4,9,15,9,8,-1,-18,-2,5,1,goodbye
13.079431295394896,-12,-18,-21,-18,-15,-5,13,3,5,-3,-17,-17,6,-5,goodbye
13.079431295394896,-20,-20,-23,-26,-12,-9,1,-2,0,-15,-21,-20,-8,-11,goodbye
13.09452986717224,-23,-17,-20,-22,-11,-4,-4,-1,4,-11,-12,-12,-13,-10,goodbye
13.09452986717224,-8,-13,-5,-10,-8,-11,-10,4,3,5,4,0,0,-2,goodbye
13.110193729400637,5,0,8,5,0,-14,-15,6,0,10,12,9,6,1,goodbye
13.110193729400637,7,5,0,13,1,-5,-8,1,9,7,7,4,-3,-1,goodbye
13.12592887878418,6,9,4,5,0,1,-1,2,13,10,11,9,-7,-1,goodbye
13.12592887878418,5,16,14,13,9,0,0,0,2,13,27,16,-3,0,goodbye
13.141433715820312,2,14,9,21,13,-3,-3,-7,-9,0,17,5,-18,-5,goodbye
13.141433715820312,1,10,10,11,3,5,-4,-7,-15,0,-5,-1,-32,-4,goodbye
13.157111167907717,9,11,12,11,0,7,-3,-6,-6,11,0,10,-19,6,goodbye
13.157111167907717,17,14,19,12,2,-8,-13,0,-5,-3,16,21,-21,9,goodbye
13.172301530838013,9,12,7,4,-3,-11,-13,-1,-9,-11,11,5,-39,-2,goodbye
13.172301530838013,-4,0,-2,0,-5,-1,0,-4,-6,0,-5,-13,-34,-4,goodbye
13.1879301071167,-9,-10,7,0,7,4,2,1,-12,-8,-18,-13,-41,0,goodbye
13.1879301071167,-8,-5,-6,1,10,6,4,-1,-14,-17,-21,-12,-60,-4,goodbye
13.204026460647585,-3,2,-11,0,2,8,10,0,0,-2,-14,-3,-7,0,goodbye
13.204026460647585,6,3,-2,2,5,14,19,7,21,11,-3,0,98,11,goodbye
13.21922755241394,10,-1,-8,-5,3,12,21,4,18,8,-5,-7,130,10,goodbye
13.21922755241394,-1,-8,-9,-26,-8,5,10,2,0,-4,-11,-5,100,5,goodbye
13.235336303710938,-14,-18,-21,-28,-16,2,2,0,-1,-5,-4,-1,86,0,goodbye
13.251396894454956,-4,-14,-17,-17,-11,0,6,0,8,2,1,1,55,1,goodbye
13.251396894454956,10,0,2,0,2,0,16,2,16,12,9,12,0,9,goodbye
13.251396894454956,10,4,4,17,4,-1,5,3,8,9,15,11,-29,5,goodbye
13.267475843429564,2,4,12,9,-3,-5,-13,5,-2,-1,19,10,-32,2,goodbye
13.267475843429564,3,4,9,2,-1,-9,-13,-3,-3,0,22,8,-35,3,goodbye
13.28298544883728,5,0,3,6,-1,-13,-22,-9,-14,-6,0,-2,-46,-5,goodbye
13.28298544883728,-2,-3,7,3,-1,-10,-24,-2,-7,-8,-14,-7,-38,-15,goodbye
13.30012559890747,-4,-6,1,0,3,-8,-3,-1,12,6,4,-5,-17,-13,goodbye
13.30012559890747,-6,-4,2,-3,2,-9,-2,0,-7,-1,0,-6,-25,-12,goodbye
13.314084768295288,-21,-10,-13,-6,-2,-10,-16,-9,-30,-20,-22,-22,-40,-24,goodbye
13.329068183898926,-22,-16,-14,-15,-7,-7,-15,-8,-24,-22,-20,-24,-36,-22,goodbye
13.329068183898926,-3,0,14,-5,-4,10,3,7,-10,-8,-1,-5,-16,0,goodbye
13.345160484313965,3,17,10,15,5,17,13,6,0,8,5,3,2,9,goodbye
13.345160484313965,5,15,15,13,3,8,4,4,0,7,4,8,2,8,goodbye
13.345160484313965,15,16,23,13,8,15,13,9,6,11,16,17,9,17,goodbye
13.361696481704712,18,19,16,23,24,24,26,9,21,23,19,21,24,21,goodbye
13.361696481704712,0,14,11,16,19,15,17,10,28,23,0,20,18,12,goodbye
13.377766370773315,-16,0,-15,3,1,4,13,-2,25,26,-8,0,12,2,goodbye
13.377766370773315,-7,-14,-18,-12,-10,6,10,-6,12,16,-6,-12,14,8,goodbye
13.393308162689207,2,-12,-4,-15,-10,2,4,1,16,-2,-9,-2,15,11,goodbye
13.393308162689207,5,-4,-22,-5,-3,-14,0,-4,23,-10,-5,4,18,2,goodbye
13.409246444702148,8,-3,-6,-18,-6,-20,-16,1,-9,-21,1,13,11,0,goodbye
13.409246444702148,7,-7,0,-14,-14,-10,-20,-4,-25,-19,11,10,4,-3,goodbye
13.425220966339111,6,0,-10,6,-11,-16,-16,-20,-13,-13,7,-6,-2,-13,goodbye
13.425220966339111,0,14,12,5,0,-10,-15,-1,-23,-17,-4,-10,-19,-15,goodbye
13.440053939819336,-17,0,-20,9,6,10,4,-9,-15,5,1,-23,-12,-21,goodbye
13.440053939819336,-13,-25,-26,-4,-5,7,1,-5,-3,9,-12,-21,-10,-1,goodbye
13.456214427947998,-2,-10,-1,-9,-6,5,2,15,0,2,-29,-7,-12,12,goodbye
13.456214427947998,-5,-24,-94,10,4,-13,29,-33,31,32,2,-27,19,-9,goodbye
13.470602750778198,17,-28,31,-48,-18,-33,-25,32,-14,-17,-12,23,1,20,goodbye
13.486260890960692,19,28,86,-15,-6,13,-11,45,0,-17,1,51,13,24,goodbye
13.486260890960692,-9,-10,-244,88,40,-21,69,-140,93,71,69,-73,71,-60,goodbye
13.486260890960692,26,-32,75,-94,-21,-82,-79,54,-73,-82,-38,21,-47,17,goodbye
13.501732587814333,33,95,463,-125,-42,63,-104,229,-135,-133,-67,175,-85,83,goodbye
13.516945600509644,-37,56,-167,158,63,90,117,-147,115,120,110,-51,92,-71,goodbye
13.516945600509644,-13,-63,-254,60,36,-69,27,-137,35,50,44,-119,28,-59,goodbye
13.53302812576294,27,25,287,-115,-43,-9,-110,171,-140,-124,-78,82,-103,67,goodbye
13.53302812576294,-16,58,47,50,8,80,35,5,20,20,25,12,4,-5,goodbye
13.548682928085327,-30,-24,-157,67,23,-2,50,-89,51,53,26,-75,28,-45,goodbye
13.548682928085327,-9,-6,47,-22,-8,-15,-29,37,-46,-30,-47,2,-36,11,goodbye
13.56449055671692,-3,19,2,31,10,23,8,-5,0,19,-2,3,0,4,goodbye
13.56449055671692,1,-6,-32,34,14,8,17,-24,19,35,9,-11,10,-2,goodbye
13.580039262771606,-6,-14,6,0,0,1,-1,11,-4,5,-20,-3,-15,0,goodbye
13.580039262771606,-5,-13,-29,3,1,0,14,-8,12,20,-2,-11,-5,0,goodbye
13.595129013061523,14,-9,-2,-1,-2,2,19,1,13,22,5,4,5,14,sil
13.595129013061523,16,-6,5,-2,-13,5,16,9,15,6,-13,4,2,16,sil
13.611003398895264,8,-14,-21,-15,-14,-1,11,1,36,6,-9,-1,9,13,sil
13.611003398895264,2,-19,-5,-29,-8,-3,6,14,41,22,15,15,24,18,sil
13.626657247543337,-5,-20,-13,-11,-1,-3,4,0,23,22,10,3,20,10,sil
13.626657247543337,-2,-13,-16,-8,-5,-1,-1,-7,4,-4,-14,-6,0,5,sil
13.642426013946531,0,-4,-2,-26,-10,-6,-12,1,1,-25,-13,9,-2,0,sil
13.642426013946531,-10,-10,-18,-28,-6,-29,-23,-10,0,-27,4,7,9,-14,sil
13.657917976379396,-9,-8,-15,-31,-10,-32,-28,-4,-11,-21,14,4,9,-9,sil
13.657917976379396,5,4,2,-16,-9,-11,-18,1,-11,-15,22,17,4,-3,sil
13.673104047775269,3,13,4,4,0,-16,-17,-7,-22,-30,14,14,-6,-17,sil
13.673104047775269,-4,20,14,6,1,-20,-21,-1,-34,-38,2,0,-15,-19,sil
13.68888521194458,2,31,12,15,6,-3,-5,-1,-20,-14,14,-4,-1,-11,sil
13.68888521194458,15,37,21,32,16,4,-3,-5,-15,-8,7,0,-1,-4,sil
13.704601287841797,3,22,24,32,6,14,-3,2,-15,-6,-11,-8,-18,-2,sil
13.704601287841797,-6,0,4,24,2,28,15,6,-3,16,-11,-28,-16,0,sil
13.720318794250488,2,1,11,23,17,33,29,9,1,33,-5,-15,0,13,sil
13.720318794250488,3,-1,5,13,20,27,32,2,9,39,-7,0,9,21,sil
13.7359881401062,0,-22,-5,-13,-6,8,18,2,5,22,-10,0,1,14,sil
13.7359881401062,11,-16,7,-21,-19,-9,-3,3,-3,-4,-7,6,-2,1,sil
13.75107192993164,8,-11,-2,-17,-7,-16,-11,-3,1,-7,-7,7,7,-7,sil
13.75107192993164,-8,-23,-17,-32,-3,-7,-4,-2,1,-6,-9,1,8,-11,sil
13.76657748222351,-6,-4,-2,-18,0,0,0,-4,-7,-15,4,5,-1,-14,sil
13.76657748222351,5,28,20,23,18,1,1,-1,-8,-10,13,14,-5,-1,sil
13.782191753387451,6,28,19,33,25,12,10,6,3,11,10,8,0,12,sil
13.782191753387451,-2,9,4,11,8,17,8,3,4,7,3,-8,-4,4,sil
13.798231363296509,-11,3,-8,15,0,13,7,-3,0,3,-3,-11,-16,-3,sil
13.798231363296509,-11,-2,-15,21,3,12,14,0,11,26,-9,-11,-10,5,sil
13.81330156326294,-12,-12,8,-15,-3,16,4,21,10,23,-23,-12,-6,10,sil
13.81330156326294,-29,-24,-38,-18,-10,4,1,-4,22,13,-23,-33,-1,-16,sil
13.82891035079956,-29,-40,-82,-13,-18,-30,-9,-28,21,0,-16,-38,0,-23,sil
13.82891035079956,0,-23,18,-55,-29,-28,-38,25,-12,-31,-20,9,-9,9,sil
13.844058752059937,7,-2,11,-34,-14,-2,-9,8,16,-5,17,20,21,11,sil
13.844058752059937,8,-15,-56,-2,-6,-28,0,-36,42,9,33,-1,39,0,sil
13.859644174575806,23,-2,15,-22,-16,-43,-38,0,-5,-32,0,18,10,10,sil
13.859644174575806,26,19,30,-5,0,-17,-26,3,-8,-25,15,27,8,3,sil
13.875138998031616,22,15,6,15,12,-11,-7,-10,6,-2,46,22,13,1,sil
13.875138998031616,21,24,36,17,4,-10,-16,3,-12,-5,35,31,4,6,sil
13.890634775161743,16,34,26,28,6,1,0,0,-14,3,27,21,6,-7,sil
13.890634775161743,4,25,16,24,14,10,20,2,-12,-1,16,7,-1,-11,sil
13.90597367286682,-7,14,21,24,13,17,19,-4,-32,-18,-5,0,-20,-11,sil
13.90597367286682,-10,9,12,34,6,24,9,-8,-39,-14,-14,-4,-26,-15,sil
13.921149015426636,-12,4,8,31,10,31,19,6,-12,12,0,-2,-8,-4,sil
13.921149015426636,-16,-2,3,28,17,35,34,10,5,32,-1,-6,3,5,sil
13.93657636642456,-8,-1,-1,24,7,27,27,6,-1,23,-14,-7,-2,5,sil
13.952486991882324,1,-4,2,18,-2,14,15,2,0,14,-12,0,-1,11,sil
13.952486991882324,0,-13,3,12,-2,4,9,3,7,16,-8,3,10,26,sil
13.952486991882324,-2,-13,-7,3,-3,0,2,0,3,11,-10,-5,7,25,sil
13.967517852783203,-5,-17,-20,-16,-13,-3,-5,-5,0,0,-16,-17,-3,8,sil
13.984220027923584,-5,-21,-16,-36,-17,-9,-4,1,8,-4,-20,-11,-3,2,sil
13.984220027923584,0,-15,-20,-40,-8,-11,1,7,24,-1,-11,-4,4,5,sil
13.99842119216919,3,-10,-23,-46,-6,-10,0,10,17,0,-6,-6,3,4,sil
13.99842119216919,2,-14,-20,-58,-9,-14,-9,3,4,-4,-17,-17,-4,-6,sil
13.99941897392273,-6,-18,-28,-63,-7,-29,-25,-9,5,-13,-28,-28,-12,-22,sil
14.014273881912231,-13,-11,-30,-59,-7,-29,-39,-7,3,-25,-24,-27,-14,-25,sil
14.029028177261353,-3,1,-16,-35,0,-9,-30,-3,-1,-17,-6,-16,-2,-22,sil
14.029028177261353,9,17,1,-11,14,1,-15,-2,-4,-11,-1,-8,-2,-17,sil
14.044227600097656,5,25,7,1,18,1,-9,-2,-6,-14,-5,-8,-16,-14,sil
14.044227600097656,-8,18,7,11,17,1,-1,-6,-9,-14,4,-10,-17,-20,sil
14.065293312072754,-10,10,11,29,12,7,7,-2,-9,-5,15,-3,-10,-23,sil
14.065293312072754,-6,6,12,47,0,10,4,0,0,5,9,3,-7,-10,sil
14.065293312072754,-5,4,25,47,-6,4,-1,0,-2,9,7,18,-1,4,sil
14.07525897026062,3,6,32,45,0,3,6,-4,-11,12,31,38,15,10,sil
14.091291427612305,18,10,28,54,0,6,18,-4,-11,16,48,42,25,19,sil
14.091291427612305,17,17,36,60,0,8,20,5,-1,16,41,36,20,32,sil
14.106947183609009,10,20,31,62,10,9,24,6,12,27,35,39,23,36,sil
14.106947183609009,13,4,14,39,6,11,24,8,19,30,32,39,25,29,sil
14.122554779052734,7,-15,-2,6,-7,9,20,10,16,13,16,12,17,15,sil
14.122554779052734,0,-17,-12,-12,-10,-2,11,4,9,0,-8,-8,10,12,sil
14.138689041137695,4,-11,-11,-27,-10,-13,-5,9,3,-4,-14,0,11,19,sil
14.138689041137695,1,-24,-27,-51,-19,-19,-14,0,10,-9,-9,-3,7,3,sil
14.154435396194458,-12,-32,-33,-71,-21,-24,-18,-10,8,-23,-26,-22,-7,-17,sil
14.154435396194458,-10,-7,-18,-52,-12,-17,-23,-10,-7,-28,-33,-15,-14,-21,sil
14.170311689376833,1,15,-3,-21,-2,-7,-29,-9,-21,-19,-5,-1,-8,-18,sil
14.170311689376833,6,23,13,-9,8,1,-22,-1,-22,-15,8,-1,-5,-14,sil
14.185496091842651,-1,18,6,2,19,17,2,0,-5,-4,-2,-15,-5,-15,sil
14.185496091842651,-14,0,-9,4,14,19,15,0,0,0,-22,-29,-20,-17,sil
14.201229572296144,-14,0,-10,2,3,13,7,0,-11,-5,-32,-27,-37,-15,sil
14.201229572296144,-4,9,-5,15,6,13,5,-6,-11,1,-19,-16,-25,-11,sil
14.21632981300354,-8,0,1,10,5,13,5,0,-5,16,-8,-12,-9,-1,sil
14.21632981300354,-17,-15,-8,3,4,10,7,0,-3,19,-16,-21,-10,0,sil
14.231821537017822,-6,-6,-5,11,9,11,12,2,0,10,-21,-17,-10,6,sil
14.231821537017822,9,2,10,12,5,13,15,6,19,17,-1,3,12,24,sil
14.246968507766724,6,-11,-2,-1,-2,0,6,-1,31,30,12,7,31,27,sil
14.246968507766724,0,-15,-5,-12,-4,-15,-8,0,9,7,0,0,18,10,sil
14.262590408325195,7,-5,2,-8,-10,-17,-8,-1,-7,-10,0,7,7,2,sil
14.262590408325195,22,-5,5,-4,-19,-19,-8,-3,-7,-3,17,27,20,11,sil
14.278250217437744,22,1,13,0,-11,-16,-7,9,1,-2,24,36,25,16,sil
14.278250217437744,15,3,0,-2,1,-13,2,4,13,-11,21,20,10,0,sil
14.29419469833374,8,-10,-6,-17,-3,-13,2,4,16,-16,9,7,-9,-14,sil
14.29419469833374,-2,-3,-5,-15,-9,-8,-3,8,10,-8,5,4,-13,-17,sil
14.309253215789797,-14,14,-5,-3,-1,-12,-10,-2,-7,-11,4,0,-10,-21,sil
14.309253215789797,-21,13,-3,0,7,-8,-10,-12,-23,-27,-5,-10,-18,-28,sil
14.32517910003662,-24,3,-13,-1,11,2,-1,-16,-14,-24,-10,-22,-22,-35,sil
14.32517910003662,-13,9,4,0,9,2,-8,0,-7,-10,0,-1,-12,-15,sil
14.340712070465088,6,24,30,22,14,9,-2,7,0,7,21,20,11,12,sil
14.340712070465088,4,16,12,32,18,16,7,-5,4,13,23,-1,13,6,sil
14.355905055999756,-8,-1,0,5,0,12,0,-1,-12,-4,-3,-20,-12,-8,sil
14.355905055999756,0,-5,-3,5,-7,11,7,0,-14,0,-6,-3,-8,0,sil
14.371999502182009,12,2,9,25,3,13,11,2,0,17,11,12,12,21,sil
14.371999502182009,4,6,17,23,5,9,2,1,0,21,15,15,16,19,sil
14.38727068901062,2,4,3,19,0,7,5,-5,0,19,4,11,12,16,sil
14.38727068901062,10,0,0,13,2,5,9,7,4,17,-5,7,8,26,sil
14.402374982833862,5,-6,-9,-2,-1,2,7,9,22,25,-4,-6,14,15,sil
14.402374982833862,6,-10,-8,-16,-7,2,11,3,21,26,-10,-11,15,8,sil
14.420005798339844,11,-9,10,-5,-4,5,11,5,2,16,-17,-2,1,17,sil
14.433021306991575,-6,-21,-11,0,-8,0,5,-1,-3,2,-19,-19,-12,1,sil
14.433021306991575,-21,-34,-26,-37,-24,-3,0,1,0,-10,-30,-31,-14,-11,sil
14.433021306991575,-14,-24,-12,-47,-21,-4,-9,0,3,-13,-22,-10,-2,-5,sil
14.449064254760742,-2,-5,-1,-18,-5,-18,-25,-9,-7,-22,1,9,0,-5,sil
14.449064254760742,13,4,11,-12,-4,-15,-22,1,-17,-35,8,15,-1,-9,sil
14.46509289741516,10,7,1,-17,-4,0,-3,1,0,-26,1,7,-2,-12,sil
14.46509289741516,-2,6,-7,-13,3,-9,-6,-4,7,-19,-10,-2,-17,-13,sil
14.48089838027954,6,17,6,-2,6,-13,-8,4,2,-14,-5,5,-17,-10,sil
14.48089838027954,15,26,2,16,8,1,4,0,3,-1,19,13,1,-7,sil
14.49694037437439,0,22,2,27,15,6,0,-7,-5,-4,17,3,-3,-5,sil
14.49694037437439,-2,23,17,30,23,0,-8,-5,-5,-3,9,3,-5,-2,sil
14.512961149215698,5,16,0,28,19,-1,0,-9,1,9,19,6,9,-4,sil
14.512961149215698,-7,-2,17,3,3,0,2,13,-14,0,0,5,-8,1,sil
14.529001951217651,-32,-16,-3,15,5,17,35,8,13,25,-5,-13,-3,4,sil
14.529001951217651,-20,-26,-56,28,4,2,46,-14,42,48,2,-33,20,5,sil
14.54522156715393,9,-13,66,-40,-23,-9,-19,48,-17,-8,-33,19,-8,35,sil
14.545605897903442,-4,-5,-9,-14,-17,11,1,-5,15,22,0,16,21,10,sil
14.560325860977173,-18,-57,-221,27,2,-37,33,-114,62,64,49,-60,62,-38,sil
14.560325860977173,22,-30,54,-84,-27,-61,-62,47,-58,-58,-28,22,-25,13,sil
14.57610845565796,34,56,189,-55,-12,20,-43,98,-54,-53,-10,87,-20,27,sil
14.57610845565796,7,33,-73,59,27,19,30,-65,34,39,67,-12,44,-36,sil
14.591598510742188,3,4,-6,3,2,-18,-28,-19,-36,-32,7,-18,-16,-20,sil
14.591598510742188,3,36,92,3,0,21,-31,30,-48,-42,-17,15,-38,0,sil
14.607646226882936,1,25,-13,59,26,31,18,-27,1,20,18,-15,0,-10,sil
14.607646226882936,-3,0,1,20,15,18,7,3,-18,0,-3,-12,-14,7,sil
14.623166561126707,-12,0,5,2,0,23,14,12,-5,-3,-10,-11,-9,7,sil
14.623166561126707,-8,-8,-24,7,-7,11,18,-6,8,10,-7,-24,0,0,sil
14.63869285583496,-7,-17,-3,-8,-11,5,3,6,-1,0,-27,-14,-11,3,sil
14.63869285583496,-5,-18,-12,-7,-4,6,8,4,17,4,-23,-6,-5,5,sil
14.65412449836731,2,-6,-14,-3,0,0,9,7,24,8,-5,-1,2,8,sil
14.65412449836731,-5,-5,-4,-8,-8,-4,8,7,14,5,-9,-6,1,4,sil
14.669287919998167,-12,-19,-17,-17,-7,-4,17,-3,20,12,-21,-16,1,-3,sil
14.669287919998167,1,-8,-3,-12,2,6,20,4,34,23,-2,7,9,7,sil
14.685382843017578,7,8,13,10,6,10,17,5,35,17,20,23,16,14,sil
14.685382843017578,1,1,-3,15,7,-6,6,-4,19,1,9,3,11,4,sil
14.700341701507568,4,-7,0,-12,-1,-20,-14,0,0,-10,-9,2,0,1,sil
14.714985370635986,-5,-15,-5,-31,-18,-18,-28,-8,-10,-17,-13,4,-3,-9,sil
14.714985370635986,-26,-28,-28,-27,-23,-24,-32,-26,-26,-34,-19,-17,-14,-33,sil
14.730908155441284,-13,-13,-4,-18,-13,-24,-33,-7,-29,-31,-9,-4,-12,-22,sil
14.730908155441284,19,11,10,0,-3,-9,-15,11,7,8,26,26,18,9,sil
14.745919942855837,23,11,5,7,0,-2,0,7,17,23,35,26,30,19,sil
14.745919942855837,11,10,14,8,10,-2,-1,5,-16,3,15,11,11,12,sil
14.76141095161438,15,21,7,17,19,0,0,-3,-24,0,11,1,0,1,sil
14.76141095161438,17,23,11,10,11,1,8,-4,-11,6,21,12,6,0,sil
14.77750325202942,11,15,17,3,6,3,15,1,-5,8,23,23,13,10,sil
14.77750325202942,17,12,16,8,2,0,0,0,-13,-1,8,11,0,6,sil
14.793113231658936,16,15,17,8,-4,-2,-14,-2,-14,-13,4,1,-4,-3,sil
14.793113231658936,1,10,9,8,-4,1,0,-1,0,-6,14,0,4,-3,sil
14.80854058265686,-9,4,9,7,4,7,4,0,0,-6,0,-3,-10,-2,sil
14.80854058265686,-13,0,1,14,13,9,-2,-1,-5,-12,-22,-12,-35,-14,sil
14.824089050292969,-13,-2,-1,15,13,13,1,2,0,-8,-24,-11,-26,-12,sil
14.824089050292969,-14,1,0,1,5,20,14,12,11,0,-16,-10,-5,-1,sil
14.840146780014038,-15,-5,-17,0,1,15,12,4,7,2,-11,-17,1,-4,sil
14.840146780014038,-10,-11,-13,9,1,9,3,1,-4,1,-7,-11,-4,-3,sil
14.855374813079834,-12,-11,-13,10,0,14,10,-2,-2,15,0,-9,-4,-3,sil
14.855374813079834,-24,-15,-28,-7,-2,9,12,-8,-6,12,-13,-25,-8,-10,sil
14.870975732803345,-28,-16,-18,-11,-2,-1,5,-1,-9,0,-28,-32,-16,-5,goodbye
14.870975732803345,-13,-9,-15,-2,-4,0,8,1,11,12,-10,-25,-7,1,goodbye
14.887099504470823,-4,-7,-10,-16,-12,4,7,0,28,23,8,-6,6,5,goodbye
14.887099504470823,-5,-10,-5,-21,-15,-1,-2,0,23,8,0,-1,8,7,goodbye
14.902231216430664,8,0,-3,0,-7,-13,-8,2,11,-10,-5,0,3,10,goodbye
14.902231216430664,24,4,4,2,0,-21,-10,6,4,-15,5,14,8,5,goodbye
14.917397260665894,11,-8,-4,-20,-3,-19,-14,0,4,-6,2,9,7,-4,goodbye
14.917397260665894,0,-12,-2,-19,-6,-6,-8,-1,4,0,-11,3,1,0,goodbye
14.932926416397097,18,2,13,3,-2,0,4,6,4,4,0,20,13,15,goodbye
14.932926416397097,30,5,16,-4,-1,-8,4,4,0,1,17,28,25,23,goodbye
14.94816541671753,17,5,19,-14,-1,-9,-1,-5,-17,-5,13,17,11,11,goodbye
14.94816541671753,6,15,16,12,5,-5,-3,-10,-15,-5,9,10,4,-3,goodbye
14.964187383651732,8,13,14,11,1,-8,-7,-5,-9,0,19,20,12,-1,goodbye
14.964187383651732,6,1,11,-12,-8,0,-8,0,-5,2,21,24,7,2,goodbye
14.9795880317688,5,1,6,-3,0,3,-6,0,4,0,13,17,2,2,goodbye
14.9795880317688,10,7,12,12,10,2,-4,0,8,0,8,11,5,2,goodbye
14.99535632133484,2,2,0,10,10,12,2,-4,5,4,1,-3,0,-1,goodbye
14.99535632133484,-17,-9,-16,-4,5,8,0,-2,0,0,-9,-18,-13,-17,goodbye
15.010413885116575,-21,-8,-16,-15,0,-10,-8,0,0,-14,-13,-18,-14,-23,goodbye
15.010413885116575,-5,8,-6,0,0,-8,-2,-4,-2,-8,-5,-11,-4,-8,goodbye
15.025918960571287,5,20,19,24,9,6,2,0,-11,0,8,4,5,7,goodbye
15.025918960571287,7,15,13,24,6,6,4,3,-8,3,16,12,12,9,goodbye
15.041411399841309,1,6,-4,7,-1,1,-4,-4,-5,0,0,-2,-2,0,goodbye
15.041411399841309,-8,3,0,14,-3,3,-12,-6,-23,-11,-23,-20,-21,-11,goodbye
15.057322978973389,-14,0,-6,21,1,7,2,0,-31,-17,-28,-20,-20,-18,goodbye
15.057322978973389,-18,-8,-20,-2,3,9,18,4,-14,-14,-13,-9,-16,-14,goodbye
15.072944164276125,-24,-10,-14,-10,0,9,13,3,0,-2,-7,-18,-17,-9,goodbye
15.072944164276125,-16,-6,1,7,-1,8,12,7,8,8,-7,-19,-6,-3,goodbye
15.08893609046936,0,-7,-2,3,0,9,21,16,23,21,2,1,7,9,goodbye
15.08893609046936,-1,-13,-15,-8,5,10,19,6,25,19,1,-2,1,12,goodbye
15.104581832885742,-12,-17,-5,-5,4,9,10,-4,9,2,-19,-23,-12,0,goodbye
15.104581832885742,-2,-11,0,-4,-1,2,6,0,9,10,-10,-11,-2,0,goodbye
15.12020182609558,12,0,2,-10,-5,-11,-7,0,10,18,9,12,3,12,goodbye
15.12020182609558,13,11,10,-3,-6,-19,-21,0,2,4,3,15,0,16,goodbye
15.136488199234009,6,6,1,0,-9,-17,-14,0,10,9,5,8,17,11,goodbye
15.136488199234009,5,-6,-8,-14,-9,-16,-10,0,11,14,10,10,22,12,goodbye
15.152561902999878,13,-8,-7,-15,-3,-15,-13,0,4,-3,0,14,7,13,goodbye
15.152561902999878,26,0,0,-3,-2,-8,-8,2,8,-10,12,23,13,13,goodbye
15.167364120483398,28,9,10,-6,-5,0,0,1,3,0,34,29,24,12,goodbye
15.167364120483398,19,7,4,-13,0,-2,0,-1,-6,0,22,23,14,2,goodbye
15.182941913604736,9,7,8,-12,4,-7,-5,-5,-13,-15,12,19,0,-4,goodbye
15.182941913604736,0,15,13,-3,-2,-4,-9,-12,-23,-26,10,7,-8,-17,goodbye
15.198054552078249,-6,13,3,-1,-8,-10,-14,-14,-32,-34,-7,-16,-26,-34,goodbye
15.198054552078249,-9,2,3,-2,0,-7,-6,-2,-21,-26,-19,-20,-32,-25,goodbye
15.213313341140749,-10,2,5,9,9,12,8,4,-6,1,-9,-13,-24,-5,goodbye
15.213313341140749,-11,3,5,22,7,21,7,2,-1,14,-9,-16,-20,-4,goodbye
15.22939944267273,-11,-2,0,18,2,17,10,0,0,0,-18,-21,-16,-6,goodbye
15.22939944267273,-19,-8,-6,15,4,16,17,-1,-4,-3,-21,-23,-14,-2,goodbye
15.245421171188354,-22,-13,0,21,6,16,12,6,1,14,-21,-23,-10,0,goodbye
15.26098895072937,-14,-19,0,19,7,14,18,11,33,31,-9,-14,6,4,goodbye
15.26098895072937,-13,-16,-9,-1,8,11,19,5,35,26,1,-3,20,11,goodbye
15.26098895072937,-18,-12,-14,-14,1,7,0,0,12,15,-2,-3,19,10,goodbye
15.27710223197937,-12,-15,-16,-12,-4,3,-1,0,15,10,-7,-1,22,3,goodbye
15.27710223197937,0,-6,-3,-10,-7,-4,-2,-2,17,2,0,10,27,1,goodbye
15.292243719100952,18,7,2,-4,-3,-8,-7,-2,3,0,13,21,39,9,goodbye
15.292243719100952,31,11,11,1,5,0,5,9,4,4,26,33,56,24,goodbye
15.307510375976562,24,9,9,0,2,-5,10,9,8,3,25,32,52,22,goodbye
15.307510375976562,10,6,0,-8,-12,-20,-12,-8,-10,-9,9,12,23,-1,goodbye
15.323066234588625,11,7,3,-12,-12,-21,-26,-11,-27,-15,6,11,6,-10,goodbye
15.323066234588625,16,12,7,-8,-1,-20,-23,-6,-25,-15,20,21,12,0,goodbye
15.338201761245728,16,14,5,-4,-2,-23,-26,-5,-21,-20,18,15,8,-2,goodbye
15.35574984550476,18,16,10,2,-1,-11,-16,0,-19,-14,10,6,-9,-13,goodbye
15.35574984550476,9,20,7,16,10,2,3,4,-12,-4,6,-2,-27,-9,goodbye
15.370129108428957,-14,10,-2,10,8,0,0,0,-9,-9,-12,-18,-47,-10,goodbye
15.370129108428957,-26,-12,-16,-8,-4,0,-4,-3,-5,-6,-23,-30,-64,-18,goodbye
15.38614821434021,-11,-10,-7,0,0,5,4,-2,-2,-1,-19,-26,-76,-15,goodbye
15.38614821434021,0,9,8,23,16,15,13,0,-5,-10,-23,-20,-85,-7,goodbye
15.38614821434021,-6,6,-1,21,4,16,9,-3,0,-3,-14,-15,-82,-3,goodbye
15.40170431137085,-14,-9,-7,2,-10,5,5,0,5,7,-1,-9,-101,-2,goodbye
15.40170431137085,-13,-11,-4,1,-2,2,7,2,-3,-3,-19,-18,-112,-6,goodbye
15.41695785522461,-17,-14,-12,0,0,12,6,0,-6,-5,-29,-27,-29,-1,goodbye
15.43404483795166,-19,-22,-16,-11,-12,23,12,4,17,17,-5,-10,86,12,goodbye
15.43404483795166,-15,-20,-10,-2,-4,23,26,10,32,34,11,3,112,16,goodbye
15.43404483795166,-10,-18,-1,2,5,8,19,4,21,30,2,2,90,18,goodbye
15.448230981826782,1,-19,-1,-11,-1,-6,3,4,21,22,-5,6,92,24,goodbye
15.463801860809326,21,-4,3,-15,0,-9,0,12,30,20,8,29,93,26,sil
15.463801860809326,27,12,16,-6,11,-2,1,8,22,17,34,41,75,21,sil
15.479031801223757,10,6,13,-12,3,-5,-4,-7,-3,-1,26,21,45,2,sil
15.479031801223757,2,0,7,-23,-10,-9,-15,-12,-27,-26,-7,0,4,-16,sil
15.4951012134552,15,15,8,-9,-6,-3,-16,-6,-25,-27,-6,5,-4,-10,sil
15.4951012134552,28,27,15,11,4,-6,-4,-2,-3,-10,19,22,12,7,sil
15.510382175445557,18,15,20,12,8,-13,1,0,6,-1,20,21,10,1,sil
15.510382175445557,-3,-1,-2,0,4,-10,-9,0,2,-4,0,-6,-10,-18,sil
15.52646017074585,-13,-4,-15,-2,2,-5,-18,-1,-2,-5,-4,-15,-19,-17,sil
15.52646017074585,0,7,0,13,0,-4,-13,1,0,6,14,1,-7,2,sil
15.54448699951172,9,14,4,18,-3,-8,-12,0,3,4,20,10,-4,9,sil
15.54448699951172,-1,2,-3,2,-6,-9,-15,-2,-5,-11,-1,-3,-27,-7,sil
15.557367324829102,-14,-8,-15,-4,-5,0,-1,-2,-18,-6,-15,-21,-44,-16,sil
15.557367324829102,-16,-12,-19,-2,-5,0,4,-1,-19,0,-12,-15,-41,-8,sil
15.572408199310305,-19,-9,-13,-2,-6,0,-4,-4,-11,-9,-8,-2,-31,-5,sil
15.572408199310305,-8,0,3,2,1,3,0,-4,-5,-9,-2,-2,-25,-4,sil
15.587935209274292,9,10,14,6,3,7,19,6,-7,-8,-10,-8,-30,-1,sil
15.587935209274292,-1,-1,-7,-2,-6,8,20,0,-12,-19,-32,-18,-39,-15,sil
15.602956056594849,-25,-15,-20,-12,-1,13,11,-17,-14,-20,-36,-24,-37,-30,sil
15.602956056594849,-17,-4,-6,1,17,20,14,-4,-4,-5,-12,-14,-13,-13,sil
15.61829686164856,4,12,6,25,23,16,16,19,18,14,13,5,14,18,sil
15.61829686164856,16,15,21,28,15,6,12,18,31,29,29,22,26,29,sil
15.634350776672363,18,5,17,13,3,2,9,4,17,25,21,17,23,24,sil
15.634350776672363,16,-5,5,0,-8,3,5,0,-3,13,0,1,14,19,sil
15.650315284729004,11,-10,4,-5,-8,0,3,0,1,22,-8,-2,15,14,sil
15.650315284729004,-1,-15,-8,-19,-7,-9,-2,0,18,27,-6,-9,18,1,sil
15.66633939743042,-17,-18,-22,-36,-12,-11,-19,-3,15,4,-13,-15,12,-6,sil
15.66633939743042,-8,-8,-17,-24,-6,-5,-23,-6,12,-14,-5,0,21,0,sil
15.68245792388916,13,6,5,-3,-1,-11,-14,0,9,-21,22,26,32,14,sil
15.68245792388916,23,13,21,1,-9,-18,-12,5,-7,-22,32,34,22,14,sil
15.698071241378784,19,10,16,-1,-12,-16,-17,-7,-26,-18,12,16,5,-1,sil
15.698071241378784,0,5,11,0,-5,-17,-23,-14,-36,-18,-2,-1,-8,-21,sil
15.713173627853394,-18,11,4,10,6,0,-12,-1,-28,-8,2,-8,-16,-25,sil
15.713173627853394,-24,14,-4,27,22,30,11,6,-8,17,3,-14,-10,-14,sil
15.727933645248411,-24,0,-9,28,24,29,24,3,7,28,-3,-19,-3,-6,sil
15.727933645248411,-18,-10,-9,16,13,9,27,5,23,18,0,-6,0,8,sil
15.744606971740724,2,-9,-1,3,3,8,29,14,36,11,2,14,5,34,sil
15.744606971740724,25,-10,-1,-10,-8,0,17,8,28,5,-7,16,12,37,sil
15.760300159454346,39,-6,8,-20,-13,-21,-7,-2,6,-2,-7,17,16,16,sil
15.760300159454346,42,7,25,-9,-3,-18,-14,-4,-5,-2,3,29,16,8,sil
15.776402711868286,18,6,6,-2,0,-11,-5,-6,-7,-4,0,12,1,-3,sil
15.776402711868286,-20,-5,-21,-18,-7,-16,-5,-9,-8,-18,-8,-25,-17,-38,sil
15.79230284690857,-41,-8,-25,-19,-8,-7,-5,-5,-10,-19,-4,-37,-23,-52,sil
15.79230284690857,-39,-3,-15,6,0,7,2,-1,-17,-9,-2,-29,-26,-36,sil
15.807771682739258,-31,3,-8,13,5,13,2,2,-18,-11,-13,-24,-33,-20,sil
15.807771682739258,-10,9,-4,10,9,16,2,3,-3,-5,-12,-12,-24,-3,sil
15.823290824890137,18,13,18,26,14,22,11,0,11,14,0,9,-5,20,sil
15.823290824890137,26,10,28,26,6,20,14,0,10,22,2,12,9,28,sil
15.838424444198608,8,-9,-4,-15,-15,5,3,2,0,5,-7,0,11,15,sil
15.838424444198608,-11,-36,-34,-48,-27,-10,-11,0,-7,-8,-15,-10,0,-2,sil
15.854002714157104,-21,-35,-32,-41,-18,-11,-15,-4,0,-3,-10,-9,0,-11,sil
15.854002714157104,-13,-11,-9,-24,-4,-7,-11,1,9,7,6,14,15,-2,sil
15.869287967681885,9,4,9,-4,0,-17,-14,4,9,10,23,35,25,11,sil
15.869287967681885,26,10,20,10,0,-27,-27,-3,-4,0,23,25,9,10,sil
15.885011911392212,19,20,24,8,1,-10,-23,-4,-14,-12,13,13,-6,0,sil
15.885011911392212,12,24,15,7,10,7,0,0,-6,-16,14,11,0,-3,sil
15.90015745162964,15,26,13,17,17,6,7,2,-3,-14,10,0,3,0,sil
15.90015745162964,1,24,9,25,12,10,10,3,-3,-5,-2,-17,0,1,sil
15.915910720825195,-13,15,1,30,11,20,22,5,7,7,-1,-7,9,8,sil
15.915910720825195,0,10,9,30,16,16,19,4,5,6,1,7,11,17,sil
15.931091070175173,5,0,3,15,9,6,12,0,-8,0,-11,-9,-3,10,sil
15.931091070175173,-10,-16,-5,1,1,3,18,0,0,8,-16,-25,-10,1,sil
15.947289228439333,-8,-15,3,7,1,4,17,-3,16,14,-2,-14,-3,1,sil
15.947289228439333,-8,-13,-4,0,-5,0,0,-12,9,8,-7,-13,-7,-6,sil
15.96301007270813,-22,-26,-19,-20,-12,-6,-5,-4,0,9,-16,-17,-14,-12,sil
15.96301007270813,-10,-19,-16,-11,-1,0,5,6,8,19,0,-5,0,0,sil
15.978731870651243,11,1,1,11,5,5,0,1,9,12,8,14,15,15,sil
15.978731870651243,10,0,3,2,-1,-2,-7,0,7,2,0,19,9,13,sil
15.99431610107422,0,-17,-12,-19,-14,-11,0,9,13,1,0,6,0,-2,sil
15.99431610107422,-6,-16,-12,-28,-21,-18,-2,9,12,-4,6,6,1,-14,sil
16.00983715057373,-1,0,-6,-26,-17,-21,-9,0,7,-7,6,19,3,-9,sil
16.00983715057373,9,12,-2,-25,-10,-13,-2,-3,0,-3,4,21,2,-3,sil
16.025384187698364,15,15,14,-15,-11,-4,-11,0,-14,-7,3,20,1,-6,sil
16.025384187698364,14,11,24,0,-10,-11,-32,-9,-27,-20,10,19,0,-6,sil
16.040612936019897,5,10,20,7,0,-10,-31,-18,-32,-33,5,6,-14,-11,sil
16.040612936019897,0,15,8,14,11,12,-4,-1,-21,-24,-4,-6,-16,-11,sil
16.056309700012207,0,13,0,16,11,20,7,12,0,-8,-1,-4,-3,1,sil
16.056309700012207,0,7,-5,6,12,7,0,5,4,-4,0,-8,0,0,sil
16.07796335220337,-1,7,-7,9,17,2,0,-4,-5,1,-2,-18,0,-6,sil
16.078959226608276,4,2,2,13,11,6,8,-3,-11,10,-3,-14,-3,5,sil
16.089505434036255,2,-10,0,0,2,10,14,1,0,5,-9,-11,-5,12,sil
16.089505434036255,-2,-10,-10,0,12,17,17,4,11,7,-16,-19,0,2,sil
16.104053258895874,-9,-6,-13,3,16,17,23,1,7,18,-14,-22,1,-2,sil
16.104053258895874,-32,-27,-35,-27,-3,8,26,0,0,17,-14,-33,-4,-3,sil
16.120003700256348,-51,-46,-45,-56,-16,4,11,1,3,8,-21,-39,-8,-7,sil
16.120003700256348,-33,-30,-23,-29,-12,0,-6,-2,8,8,-20,-26,-1,-11,sil
16.135379314422607,1,0,-5,-2,-9,-10,-16,-10,4,6,-11,-2,2,-4,sil
16.135379314422607,12,7,3,-7,-5,-13,-17,0,1,-2,0,8,3,5,sil
16.150968074798584,4,1,8,-2,-1,-7,-12,9,9,-5,11,13,9,3,sil
16.166529655456543,14,10,20,21,-4,-10,-10,2,16,-5,18,29,17,3,sil
16.166529655456543,32,29,37,38,-2,-14,0,3,14,-2,35,49,22,16,sil
16.166529655456543,27,31,43,42,4,-17,4,9,7,0,55,56,22,19,sil
16.182208776474,22,27,42,42,1,-14,-8,0,-3,-4,45,49,13,9,sil
16.182208776474,33,31,36,44,0,2,-6,-5,-9,-5,24,34,0,8,sil
16.198191165924072,24,30,34,40,11,20,16,0,-4,-2,10,18,-9,9,sil
16.198191165924072,6,15,16,31,19,18,24,-4,-12,2,0,2,-7,3,sil
16.21272110939026,0,0,-11,15,9,11,14,-6,-16,8,-10,-16,-9,0,sil
16.228352069854736,-11,-15,-22,-11,-5,11,8,11,10,11,-16,-30,-16,0,sil
16.228352069854736,-21,-21,-24,-25,-9,7,3,9,24,18,-24,-26,-5,8,sil
16.244393825531006,-8,-17,-17,-23,-5,0,-7,-10,-2,18,-27,-17,3,8,sil
16.244393825531006,-2,-16,-18,-31,-7,-2,-10,-8,-14,2,-23,-17,-6,-1,sil
16.260098457336426,-11,-20,-30,-44,-9,-9,-8,1,3,-8,-18,-15,-6,-2,sil
16.260098457336426,-6,-22,-21,-41,-5,-19,-19,-2,3,-11,-6,1,9,2,sil
16.260098457336426,-4,-20,-14,-32,-3,-22,-27,-6,-6,-16,0,5,10,-11,sil
16.275431632995605,-15,-12,-17,-28,-2,-15,-21,0,-9,-26,-7,-1,-2,-29,sil
16.290926218032837,-16,-3,-10,-24,-1,-4,-8,1,-11,-25,-4,-9,-11,-33,sil
16.290926218032837,-8,-2,-3,-16,0,0,-1,-4,-15,-20,2,-19,-12,-30,sil
16.306959629058838,-15,-2,-4,-7,0,-1,-2,-7,-19,-23,-3,-21,-15,-29,sil
16.306959629058838,-21,5,-9,0,0,3,4,0,-14,-14,-5,-18,-16,-23,sil
16.32257342338562,-6,7,5,10,10,17,20,7,0,4,6,-10,-10,-5,sil
16.32257342338562,4,2,20,16,15,22,29,8,8,11,4,-2,1,13,sil
16.338419198989868,0,5,7,20,1,13,23,0,9,16,-4,-3,9,16,sil
16.338419198989868,5,14,12,24,0,11,20,8,14,29,4,3,10,18,sil
16.354451894760132,9,8,19,25,7,19,24,12,21,25,8,17,12,21,sil
16.354451894760132,0,-5,3,4,-5,7,8,0,12,5,-11,12,4,10,sil
16.371227264404297,6,1,1,-3,-14,-8,-7,-5,3,5,-13,10,3,9,sil
16.371227264404297,34,18,17,23,0,-7,-1,0,13,22,12,22,18,28,sil
16.38621759414673,37,14,17,31,6,-6,-9,0,21,19,20,25,17,28,sil
16.38621759414673,15,0,-1,9,-1,-14,-29,-4,8,3,11,16,6,8,sil
16.38621759414673,1,-1,-6,-1,-4,-21,-32,-6,0,-6,12,9,6,-3,sil
16.401402235031128,2,0,-2,-5,-3,-20,-26,-4,-2,-10,15,6,3,-8,sil
16.416946172714233,0,0,-10,-12,-2,-14,-23,-7,-15,-19,6,-2,-10,-15,sil
16.416946172714233,-6,6,-5,-13,0,-7,-14,-7,-31,-33,-4,-3,-18,-12,sil
16.432085752487183,-3,9,7,-8,3,-2,5,3,-20,-25,3,8,-7,0,sil
16.432085752487183,2,11,8,5,7,5,15,9,-2,-1,22,16,4,3,sil
16.447715759277344,0,20,14,28,14,20,15,7,0,11,20,6,1,-3,sil
16.447715759277344,-3,16,9,33,20,27,23,4,0,9,0,-9,-2,-4,sil
16.46295690536499,-7,-10,-1,6,8,19,20,0,-8,0,-16,-15,-8,0,sil
16.46295690536499,-14,-33,-9,-18,-10,15,10,-5,-13,0,-23,-16,-8,-5,sil
16.478160619735718,-19,-31,-17,-21,-8,15,18,0,6,13,-18,-20,0,0,sil
16.478160619735718,-18,-19,-15,-9,2,12,24,10,24,23,-14,-21,4,8,sil
16.49319076538086,-10,-12,-12,0,-4,6,17,7,19,20,-14,-22,0,3,sil
16.49319076538086,1,-7,-1,-1,-14,-2,5,0,5,10,-12,-13,0,0,sil
16.508403301239014,2,-1,1,-9,-7,-9,0,2,0,2,-4,-1,6,7,sil
16.508403301239014,-4,-5,-11,-18,-4,-8,-6,0,4,-3,-3,0,5,3,sil
16.524531841278076,-4,-11,-19,-23,-10,-11,-18,-4,6,-11,-17,-8,-1,-5,sil
16.524531841278076,4,-6,-12,-17,-10,-22,-28,-8,2,-12,-14,-3,-1,-11,sil
16.540154457092285,7,-2,-3,-21,-8,-27,-29,-10,-6,-13,0,7,-3,-17,sil
16.540154457092285,0,-3,-2,-28,-7,-19,-22,-9,-14,-23,-5,5,-11,-19,sil
16.55546522140503,2,1,4,-6,0,-13,-14,-5,-11,-20,-7,5,-4,-10,sil
16.55546522140503,10,12,22,13,7,-11,-10,1,-2,-5,20,24,9,0,sil
16.571113348007202,7,13,16,6,9,-2,-7,2,1,0,34,20,7,4,sil
16.571113348007202,1,9,7,5,9,5,0,0,0,-5,18,4,-4,0,sil
16.58617377281189,1,10,12,12,0,3,4,0,0,-3,12,10,-4,2,sil
16.58617377281189,1,12,7,4,-7,0,8,0,-2,4,23,15,3,10,sil
16.60220217704773,3,21,10,6,1,10,11,1,-9,3,26,9,6,10,sil
