COUNTER,F3,FC5,AF3,F7,T7,P7,O1,O2,P8,T8,F8,AF4,FC6,F4,Timestamp
17, 8150, 8170, 8182, 8183, 8185, 8153, 8146, 8175, 8215, 8165, 8165, 8168, 8168, 8097,0.0020012855529785156
17, 8150, 8170, 8182, 8183, 8185, 8153, 8146, 8175, 8215, 8165, 8165, 8168, 8168, 8097,0.0020012855529785156
18, 8147, 8158, 8168, 8178, 8188, 8147, 8155, 8171, 8138, 8179, 8168, 8141, 8160, 8099,0.01004171371459961
18, 8147, 8158, 8168, 8178, 8188, 8147, 8155, 8171, 8138, 8179, 8168, 8141, 8160, 8099,0.01004171371459961
19, 8157, 8179, 8183, 8188, 8183, 8162, 8153, 8180, 8224, 8168, 8171, 8178, 8168, 8109,0.018047332763671875
19, 8157, 8179, 8183, 8188, 8183, 8162, 8153, 8180, 8224, 8168, 8171, 8178, 8168, 8109,0.018047332763671875
20, 8143, 8152, 8176, 8181, 8192, 8149, 8156, 8168, 8163, 8170, 8177, 8141, 8159, 8097,0.02504730224609375
20, 8143, 8152, 8176, 8181, 8192, 8149, 8156, 8168, 8163, 8170, 8177, 8141, 8159, 8097,0.02504730224609375
21, 8168, 8164, 8187, 8187, 8197, 8159, 8163, 8169, 8188, 8172, 8184, 8162, 8168, 8119,0.03255915641784668
21, 8168, 8164, 8187, 8187, 8197, 8159, 8163, 8169, 8188, 8172, 8184, 8162, 8168, 8119,0.03255915641784668
22, 8145, 8167, 8181, 8181, 8187, 8159, 8167, 8173, 8218, 8160, 8182, 8175, 8165, 8111,0.0405573844909668
22, 8145, 8167, 8181, 8181, 8187, 8159, 8167, 8173, 8218, 8160, 8182, 8175, 8165, 8111,0.0405573844909668
23, 8132, 8154, 8157, 8181, 8189, 8148, 8168, 8157, 8112, 8153, 8173, 8132, 8150, 8090,0.04855918884277344
23, 8132, 8154, 8157, 8181, 8189, 8148, 8168, 8157, 8112, 8153, 8173, 8132, 8150, 8090,0.04855918884277344
24, 8164, 8181, 8176, 8188, 8178, 8154, 8150, 8156, 8185, 8133, 8165, 8175, 8168, 8102,0.056559085845947266
24, 8164, 8181, 8176, 8188, 8178, 8154, 8150, 8156, 8185, 8133, 8165, 8175, 8168, 8102,0.056559085845947266
25, 8130, 8144, 8160, 8163, 8174, 8142, 8148, 8155, 8120, 8144, 8171, 8138, 8163, 8089,0.0645606517791748
25, 8130, 8144, 8160, 8163, 8174, 8142, 8148, 8155, 8120, 8144, 8171, 8138, 8163, 8089,0.0645606517791748
26, 8140, 8151, 8155, 8177, 8168, 8153, 8145, 8157, 8104, 8150, 8163, 8143, 8161, 8098,0.07286691665649414
26, 8140, 8151, 8155, 8177, 8168, 8153, 8145, 8157, 8104, 8150, 8163, 8143, 8161, 8098,0.07286691665649414
27, 8160, 8176, 8175, 8191, 8168, 8157, 8142, 8161, 8179, 8144, 8174, 8177, 8171, 8111,0.08087348937988281
27, 8160, 8176, 8175, 8191, 8168, 8157, 8142, 8161, 8179, 8144, 8174, 8177, 8171, 8111,0.08087348937988281
28, 8152, 8156, 8175, 8187, 8189, 8160, 8162, 8168, 8129, 8173, 8198, 8136, 8167, 8114,0.08788037300109863
28, 8152, 8156, 8175, 8187, 8189, 8160, 8162, 8168, 8129, 8173, 8198, 8136, 8167, 8114,0.08788037300109863
29, 8174, 8183, 8184, 8200, 8185, 8174, 8160, 8179, 8211, 8169, 8176, 8174, 8173, 8131,0.0959005355834961
29, 8174, 8183, 8184, 8200, 8185, 8174, 8160, 8179, 8211, 8169, 8176, 8174, 8173, 8131,0.0959005355834961
30, 8164, 8173, 8175, 8187, 8191, 8152, 8161, 8160, 8158, 8155, 8169, 8156, 8161, 8129,0.10390067100524902
30, 8164, 8173, 8175, 8187, 8191, 8152, 8161, 8160, 8158, 8155, 8169, 8156, 8161, 8129,0.10390067100524902
31, 8166, 8170, 8184, 8187, 8199, 8156, 8155, 8155, 8137, 8143, 8177, 8156, 8163, 8131,0.11188101768493652
31, 8166, 8170, 8184, 8187, 8199, 8156, 8155, 8155, 8137, 8143, 8177, 8156, 8163, 8131,0.11188101768493652
32, 8152, 8176, 8184, 8186, 8180, 8157, 8138, 8163, 8192, 8128, 8157, 8182, 8170, 8115,0.12005448341369629
32, 8152, 8176, 8184, 8186, 8180, 8157, 8138, 8163, 8192, 8128, 8157, 8182, 8170, 8115,0.12005448341369629
33, 8142, 8155, 8157, 8178, 8182, 8140, 8153, 8159, 8095, 8148, 8145, 8136, 8156, 8099,0.1280529499053955
33, 8142, 8155, 8157, 8178, 8182, 8140, 8153, 8159, 8095, 8148, 8145, 8136, 8156, 8099,0.1280529499053955
34, 8177, 8181, 8170, 8190, 8182, 8148, 8157, 8167, 8171, 8147, 8130, 8170, 8167, 8112,0.1358809471130371
34, 8177, 8181, 8170, 8190, 8182, 8148, 8157, 8167, 8171, 8147, 8130, 8170, 8167, 8112,0.1358809471130371
35, 8151, 8163, 8163, 8169, 8187, 8126, 8158, 8153, 8142, 8140, 8135, 8152, 8160, 8101,0.14358949661254883
35, 8151, 8163, 8163, 8169, 8187, 8126, 8158, 8153, 8142, 8140, 8135, 8152, 8160, 8101,0.14358949661254883
36, 8143, 8159, 8165, 8170, 8199, 8133, 8160, 8146, 8106, 8138, 8158, 8145, 8160, 8104,0.15158534049987793
36, 8143, 8159, 8165, 8170, 8199, 8133, 8160, 8146, 8106, 8138, 8158, 8145, 8160, 8104,0.15158534049987793
37, 8153, 8178, 8178, 8183, 8194, 8154, 8156, 8162, 8195, 8133, 8148, 8179, 8171, 8105,0.1588754653930664
37, 8153, 8178, 8178, 8183, 8194, 8154, 8156, 8162, 8195, 8133, 8148, 8179, 8171, 8105,0.1588754653930664
38, 8150, 8154, 8153, 8170, 8200, 8140, 8173, 8164, 8122, 8153, 8131, 8132, 8152, 8094,0.16684722900390625
38, 8150, 8154, 8153, 8170, 8200, 8140, 8173, 8164, 8122, 8153, 8131, 8132, 8152, 8094,0.16684722900390625
39, 8159, 8172, 8152, 8172, 8197, 8144, 8165, 8163, 8174, 8134, 8125, 8159, 8155, 8097,0.17517805099487305
39, 8159, 8172, 8152, 8172, 8197, 8144, 8165, 8163, 8174, 8134, 8125, 8159, 8155, 8097,0.17517805099487305
40, 8115, 8156, 8145, 8162, 8207, 8138, 8155, 8151, 8151, 8127, 8142, 8149, 8158, 8074,0.18288421630859375
40, 8115, 8156, 8145, 8162, 8207, 8138, 8155, 8151, 8151, 8127, 8142, 8149, 8158, 8074,0.18288421630859375
41, 8128, 8157, 8145, 8177, 8217, 8144, 8165, 8157, 8114, 8154, 8147, 8136, 8163, 8081,0.19090795516967773
41, 8128, 8157, 8145, 8177, 8217, 8144, 8165, 8157, 8114, 8154, 8147, 8136, 8163, 8081,0.19090795516967773
42, 8166, 8187, 8157, 8189, 8204, 8138, 8164, 8167, 8204, 8152, 8132, 8174, 8175, 8104,0.1989145278930664
42, 8166, 8187, 8157, 8189, 8204, 8138, 8164, 8167, 8204, 8152, 8132, 8174, 8175, 8104,0.1989145278930664
43, 8146, 8160, 8151, 8173, 8219, 8122, 8166, 8153, 8135, 8164, 8153, 8138, 8165, 8105,0.2068498134613037
43, 8146, 8160, 8151, 8173, 8219, 8122, 8166, 8153, 8135, 8164, 8153, 8138, 8165, 8105,0.2068498134613037
44, 8155, 8179, 8174, 8193, 8221, 8145, 8154, 8164, 8210, 8168, 8163, 8175, 8172, 8117,0.21488475799560547
44, 8155, 8179, 8174, 8193, 8221, 8145, 8154, 8164, 8210, 8168, 8163, 8175, 8172, 8117,0.21488475799560547
45, 8149, 8172, 8162, 8188, 8217, 8137, 8156, 8168, 8210, 8172, 8147, 8168, 8167, 8109,0.22183513641357422
45, 8149, 8172, 8162, 8188, 8217, 8137, 8156, 8168, 8210, 8172, 8147, 8168, 8167, 8109,0.22183513641357422
46, 8150, 8154, 8149, 8174, 8227, 8133, 8164, 8154, 8131, 8173, 8152, 8141, 8161, 8115,0.22943425178527832
46, 8150, 8154, 8149, 8174, 8227, 8133, 8164, 8154, 8131, 8173, 8152, 8141, 8161, 8115,0.22943425178527832
47, 8164, 8182, 8176, 8185, 8215, 8150, 8159, 8170, 8243, 8163, 8163, 8186, 8175, 8128,0.23746657371520996
47, 8164, 8182, 8176, 8185, 8215, 8150, 8159, 8170, 8243, 8163, 8163, 8186, 8175, 8128,0.23847508430480957
48, 8154, 8160, 8163, 8178, 8212, 8137, 8182, 8181, 8191, 8188, 8160, 8139, 8162, 8121,0.24603867530822754
48, 8154, 8160, 8163, 8178, 8212, 8137, 8182, 8181, 8191, 8188, 8160, 8139, 8162, 8121,0.24603867530822754
49, 8156, 8157, 8151, 8170, 8200, 8145, 8178, 8174, 8191, 8177, 8133, 8154, 8160, 8121,0.2540411949157715
49, 8156, 8157, 8151, 8170, 8200, 8145, 8178, 8174, 8191, 8177, 8133, 8154, 8160, 8121,0.2540411949157715
50, 8121, 8147, 8142, 8151, 8188, 8146, 8165, 8168, 8197, 8159, 8129, 8168, 8158, 8102,0.2618834972381592
50, 8121, 8147, 8142, 8151, 8188, 8146, 8165, 8168, 8197, 8159, 8129, 8168, 8158, 8102,0.2618834972381592
51, 8125, 8143, 8141, 8151, 8192, 8144, 8175, 8173, 8146, 8173, 8136, 8140, 8156, 8091,0.269883394241333
51, 8125, 8143, 8141, 8151, 8192, 8144, 8175, 8173, 8146, 8173, 8136, 8140, 8156, 8091,0.269883394241333
52, 8145, 8163, 8149, 8155, 8180, 8142, 8156, 8170, 8201, 8156, 8108, 8171, 8163, 8089,0.27788233757019043
52, 8145, 8163, 8149, 8155, 8180, 8142, 8156, 8170, 8201, 8156, 8108, 8171, 8163, 8089,0.27788233757019043
53, 8112, 8124, 8122, 8138, 8181, 8119, 8144, 8147, 8089, 8150, 8101, 8130, 8146, 8071,0.2847788333892822
53, 8112, 8124, 8122, 8138, 8181, 8119, 8144, 8147, 8089, 8150, 8101, 8130, 8146, 8071,0.2847788333892822
54, 8126, 8141, 8126, 8147, 8179, 8133, 8139, 8151, 8106, 8143, 8109, 8146, 8158, 8084,0.29285502433776855
54, 8126, 8141, 8126, 8147, 8179, 8133, 8139, 8151, 8106, 8143, 8109, 8146, 8158, 8084,0.29285502433776855
55, 8120, 8154, 8134, 8144, 8172, 8137, 8135, 8158, 8147, 8141, 8112, 8164, 8165, 8081,0.30085039138793945
55, 8120, 8154, 8134, 8144, 8172, 8137, 8135, 8158, 8147, 8141, 8112, 8164, 8165, 8081,0.30085039138793945
56, 8115, 8139, 8132, 8137, 8187, 8136, 8149, 8157, 8076, 8160, 8118, 8137, 8153, 8083,0.3088812828063965
56, 8115, 8139, 8132, 8137, 8187, 8136, 8149, 8157, 8076, 8160, 8118, 8137, 8153, 8083,0.3088812828063965
57, 8147, 8167, 8153, 8151, 8190, 8149, 8149, 8170, 8177, 8152, 8118, 8179, 8172, 8105,0.3168752193450928
57, 8147, 8167, 8153, 8151, 8190, 8149, 8149, 8170, 8177, 8152, 8118, 8179, 8172, 8105,0.3178741931915283
58, 8133, 8150, 8140, 8145, 8195, 8131, 8154, 8161, 8130, 8157, 8133, 8145, 8168, 8092,0.32488155364990234
58, 8133, 8150, 8140, 8145, 8195, 8131, 8154, 8161, 8130, 8157, 8133, 8145, 8168, 8092,0.32488155364990234
59, 8140, 8161, 8140, 8149, 8189, 8142, 8153, 8158, 8129, 8149, 8129, 8152, 8167, 8094,0.3325386047363281
59, 8140, 8161, 8140, 8149, 8189, 8142, 8153, 8158, 8129, 8149, 8129, 8152, 8167, 8094,0.3325386047363281
60, 8135, 8168, 8158, 8147, 8185, 8150, 8152, 8171, 8177, 8137, 8126, 8172, 8171, 8105,0.3405289649963379
60, 8135, 8168, 8158, 8147, 8185, 8150, 8152, 8171, 8177, 8137, 8126, 8172, 8171, 8105,0.3405289649963379
61, 8139, 8154, 8170, 8155, 8205, 8150, 8165, 8170, 8115, 8159, 8148, 8139, 8166, 8119,0.34853219985961914
61, 8139, 8154, 8170, 8155, 8205, 8150, 8165, 8170, 8115, 8159, 8148, 8139, 8166, 8119,0.34853219985961914
62, 8169, 8183, 8184, 8177, 8191, 8161, 8151, 8163, 8192, 8144, 8139, 8182, 8173, 8126,0.35553979873657227
62, 8169, 8183, 8184, 8177, 8191, 8161, 8151, 8163, 8192, 8144, 8139, 8182, 8173, 8126,0.35553979873657227
63, 8138, 8151, 8161, 8157, 8184, 8147, 8151, 8153, 8120, 8135, 8130, 8151, 8161, 8098,0.36388063430786133
63, 8138, 8151, 8161, 8157, 8184, 8147, 8151, 8153, 8120, 8135, 8130, 8151, 8161, 8098,0.36388063430786133
64, 8150, 8159, 8174, 8166, 8195, 8165, 8166, 8172, 8133, 8153, 8151, 8155, 8171, 8116,0.37188005447387695
64, 8150, 8159, 8174, 8166, 8195, 8165, 8166, 8172, 8133, 8153, 8151, 8155, 8171, 8116,0.37188005447387695
65, 8157, 8182, 8189, 8177, 8188, 8172, 8168, 8182, 8228, 8166, 8173, 8187, 8178, 8129,0.37982177734375
65, 8157, 8182, 8189, 8177, 8188, 8172, 8168, 8182, 8228, 8166, 8173, 8187, 8178, 8129,0.38082027435302734
66, 8138, 8150, 8168, 8157, 8186, 8160, 8169, 8161, 8124, 8168, 8166, 8145, 8154, 8112,0.38802194595336914
66, 8138, 8150, 8168, 8157, 8186, 8160, 8169, 8161, 8124, 8168, 8166, 8145, 8154, 8112,0.38802194595336914
67, 8151, 8168, 8185, 8164, 8178, 8172, 8154, 8163, 8176, 8140, 8139, 8182, 8164, 8114,0.39602231979370117
67, 8151, 8168, 8185, 8164, 8178, 8172, 8154, 8163, 8176, 8140, 8139, 8182, 8164, 8114,0.39602231979370117
68, 8135, 8164, 8183, 8161, 8192, 8162, 8163, 8166, 8165, 8152, 8152, 8163, 8173, 8114,0.40402770042419434
68, 8135, 8164, 8183, 8161, 8192, 8162, 8163, 8166, 8165, 8152, 8152, 8163, 8173, 8114,0.40402770042419434
69, 8158, 8174, 8187, 8168, 8204, 8173, 8176, 8171, 8171, 8174, 8173, 8163, 8179, 8135,0.4121732711791992
69, 8158, 8174, 8187, 8168, 8204, 8173, 8176, 8171, 8171, 8174, 8173, 8163, 8179, 8135,0.4121732711791992
70, 8163, 8181, 8202, 8174, 8194, 8181, 8166, 8182, 8254, 8169, 8175, 8199, 8180, 8144,0.4191732406616211
70, 8163, 8181, 8202, 8174, 8194, 8181, 8166, 8182, 8254, 8169, 8175, 8199, 8180, 8144,0.4191732406616211
71, 8143, 8144, 8191, 8173, 8202, 8170, 8175, 8184, 8180, 8190, 8184, 8149, 8163, 8137,0.42738771438598633
71, 8143, 8144, 8191, 8173, 8202, 8170, 8175, 8184, 8180, 8190, 8184, 8149, 8163, 8137,0.42738771438598633
72, 8171, 8173, 8206, 8188, 8194, 8185, 8179, 8196, 8256, 8191, 8171, 8185, 8171, 8152,0.43489646911621094
72, 8171, 8173, 8206, 8188, 8194, 8185, 8179, 8196, 8256, 8191, 8171, 8185, 8171, 8152,0.43489646911621094
73, 8157, 8165, 8200, 8167, 8181, 8176, 8183, 8185, 8226, 8183, 8172, 8179, 8167, 8148,0.44289541244506836
73, 8157, 8165, 8200, 8167, 8181, 8176, 8183, 8185, 8226, 8183, 8172, 8179, 8167, 8148,0.44289541244506836
74, 8154, 8158, 8192, 8165, 8181, 8172, 8181, 8172, 8168, 8177, 8183, 8160, 8163, 8147,0.450894832611084
74, 8154, 8158, 8192, 8165, 8181, 8172, 8181, 8172, 8168, 8177, 8183, 8160, 8163, 8147,0.450894832611084
75, 8158, 8178, 8207, 8185, 8180, 8169, 8173, 8177, 8235, 8165, 8171, 8192, 8164, 8141,0.4588949680328369
75, 8158, 8178, 8207, 8185, 8180, 8169, 8173, 8177, 8235, 8165, 8171, 8192, 8164, 8141,0.4588949680328369
76, 8145, 8155, 8203, 8185, 8192, 8161, 8186, 8171, 8150, 8186, 8178, 8157, 8149, 8128,0.46698927879333496
76, 8145, 8155, 8203, 8185, 8192, 8161, 8186, 8171, 8150, 8186, 8178, 8157, 8149, 8128,0.46698927879333496
77, 8170, 8170, 8207, 8192, 8179, 8178, 8176, 8175, 8202, 8180, 8182, 8187, 8163, 8139,0.4748952388763428
77, 8170, 8170, 8207, 8192, 8179, 8178, 8176, 8175, 8202, 8180, 8182, 8187, 8163, 8139,0.4748952388763428
78, 8154, 8151, 8189, 8175, 8164, 8159, 8165, 8166, 8183, 8165, 8175, 8173, 8164, 8124,0.48189496994018555
78, 8154, 8151, 8189, 8175, 8164, 8159, 8165, 8166, 8183, 8165, 8175, 8173, 8164, 8124,0.48189496994018555
79, 8159, 8151, 8188, 8177, 8169, 8154, 8169, 8160, 8126, 8172, 8171, 8157, 8159, 8130,0.49006032943725586
79, 8159, 8151, 8188, 8177, 8169, 8154, 8169, 8160, 8126, 8172, 8171, 8157, 8159, 8130,0.49024486541748047
80, 8184, 8196, 8217, 8198, 8167, 8166, 8170, 8175, 8229, 8174, 8180, 8204, 8174, 8154,0.4975144863128662
80, 8184, 8196, 8217, 8198, 8167, 8166, 8170, 8175, 8229, 8174, 8180, 8204, 8174, 8154,0.4975144863128662
81, 8172, 8177, 8210, 8197, 8176, 8159, 8189, 8177, 8175, 8197, 8205, 8166, 8167, 8152,0.5058751106262207
81, 8172, 8177, 8210, 8197, 8176, 8159, 8189, 8177, 8175, 8197, 8205, 8166, 8167, 8152,0.5058751106262207
82, 8191, 8182, 8213, 8207, 8167, 8180, 8189, 8179, 8220, 8195, 8196, 8187, 8168, 8156,0.5138881206512451
82, 8191, 8182, 8213, 8207, 8167, 8180, 8189, 8179, 8220, 8195, 8196, 8187, 8168, 8156,0.5138881206512451
83, 8181, 8175, 8204, 8194, 8165, 8167, 8186, 8173, 8226, 8188, 8193, 8185, 8164, 8151,0.5218956470489502
83, 8181, 8175, 8204, 8194, 8165, 8167, 8186, 8173, 8226, 8188, 8193, 8185, 8164, 8151,0.5218956470489502
84, 8166, 8164, 8194, 8186, 8175, 8151, 8178, 8166, 8163, 8194, 8204, 8159, 8165, 8151,0.5294291973114014
84, 8166, 8164, 8194, 8186, 8175, 8151, 8178, 8166, 8163, 8194, 8204, 8159, 8165, 8151,0.5294291973114014
85, 8162, 8173, 8198, 8187, 8148, 8168, 8157, 8167, 8232, 8173, 8174, 8191, 8171, 8134,0.5373122692108154
85, 8162, 8173, 8198, 8187, 8148, 8168, 8157, 8167, 8232, 8173, 8174, 8191, 8171, 8134,0.5373122692108154
86, 8147, 8143, 8172, 8169, 8147, 8168, 8173, 8157, 8142, 8176, 8154, 8141, 8151, 8106,0.5458824634552002
86, 8147, 8143, 8172, 8169, 8147, 8168, 8173, 8157, 8142, 8176, 8154, 8141, 8151, 8106,0.5458824634552002
87, 8175, 8168, 8181, 8178, 8158, 8174, 8173, 8160, 8161, 8165, 8160, 8162, 8161, 8123,0.5528700351715088
87, 8175, 8168, 8181, 8178, 8158, 8174, 8173, 8160, 8161, 8165, 8160, 8162, 8161, 8123,0.5528700351715088
88, 8156, 8166, 8183, 8170, 8161, 8167, 8162, 8160, 8180, 8152, 8172, 8174, 8170, 8120,0.5608696937561035
88, 8156, 8166, 8183, 8170, 8161, 8167, 8162, 8160, 8180, 8152, 8172, 8174, 8170, 8120,0.5608696937561035
89, 8139, 8148, 8174, 8171, 8172, 8181, 8173, 8164, 8128, 8173, 8183, 8145, 8162, 8114,0.5688745975494385
89, 8139, 8148, 8174, 8171, 8172, 8181, 8173, 8164, 8128, 8173, 8183, 8145, 8162, 8114,0.5688745975494385
90, 8160, 8177, 8187, 8191, 8162, 8198, 8173, 8185, 8237, 8171, 8169, 8188, 8167, 8124,0.5768852233886719
90, 8160, 8177, 8187, 8191, 8162, 8198, 8173, 8185, 8237, 8171, 8169, 8188, 8167, 8124,0.5768852233886719
91, 8149, 8149, 8162, 8164, 8164, 8173, 8182, 8168, 8159, 8181, 8164, 8153, 8153, 8116,0.5848791599273682
91, 8149, 8149, 8162, 8164, 8164, 8173, 8182, 8168, 8159, 8181, 8164, 8153, 8153, 8116,0.5848791599273682
92, 8161, 8158, 8164, 8158, 8173, 8183, 8181, 8162, 8170, 8184, 8179, 8168, 8164, 8141,0.5928821563720703
92, 8161, 8158, 8164, 8158, 8173, 8183, 8181, 8162, 8170, 8184, 8179, 8168, 8164, 8141,0.5928821563720703
93, 8138, 8164, 8175, 8165, 8177, 8184, 8163, 8172, 8226, 8175, 8190, 8181, 8173, 8137,0.6005027294158936
93, 8138, 8164, 8175, 8165, 8177, 8184, 8163, 8172, 8226, 8175, 8190, 8181, 8173, 8137,0.6005027294158936
94, 8132, 8145, 8169, 8170, 8183, 8175, 8163, 8168, 8143, 8181, 8177, 8133, 8154, 8106,0.6083579063415527
94, 8132, 8145, 8169, 8170, 8183, 8175, 8163, 8168, 8143, 8181, 8177, 8133, 8154, 8106,0.6083579063415527
95, 8170, 8176, 8182, 8184, 8171, 8192, 8165, 8168, 8210, 8165, 8147, 8175, 8160, 8102,0.6153538227081299
95, 8170, 8176, 8182, 8184, 8171, 8192, 8165, 8168, 8210, 8165, 8147, 8175, 8160, 8102,0.6153538227081299
96, 8138, 8156, 8161, 8170, 8174, 8178, 8177, 8157, 8135, 8158, 8152, 8146, 8158, 8089,0.6238808631896973
96, 8138, 8156, 8161, 8170, 8174, 8178, 8177, 8157, 8135, 8158, 8152, 8146, 8158, 8089,0.6238808631896973
97, 8134, 8162, 8157, 8174, 8176, 8180, 8174, 8162, 8130, 8155, 8164, 8147, 8169, 8094,0.6314370632171631
97, 8134, 8162, 8157, 8174, 8176, 8180, 8174, 8162, 8130, 8155, 8164, 8147, 8169, 8094,0.6314370632171631
98, 8152, 8174, 8165, 8174, 8169, 8174, 8166, 8170, 8197, 8160, 8161, 8174, 8176, 8101,0.6394367218017578
98, 8152, 8174, 8165, 8174, 8169, 8174, 8166, 8170, 8197, 8160, 8161, 8174, 8176, 8101,0.6394367218017578
99, 8144, 8143, 8151, 8162, 8175, 8157, 8173, 8152, 8111, 8173, 8164, 8138, 8160, 8100,0.647876501083374
99, 8144, 8143, 8151, 8162, 8175, 8157, 8173, 8152, 8111, 8173, 8164, 8138, 8160, 8100,0.647876501083374
100, 8139, 8166, 8157, 8168, 8162, 8159, 8158, 8154, 8176, 8155, 8161, 8174, 8166, 8102,0.655881404876709
100, 8139, 8166, 8157, 8168, 8162, 8159, 8158, 8154, 8176, 8155, 8161, 8174, 8166, 8102,0.655881404876709
101, 8130, 8164, 8149, 8156, 8168, 8140, 8162, 8156, 8136, 8166, 8174, 8154, 8162, 8101,0.664118766784668
101, 8130, 8164, 8149, 8156, 8168, 8140, 8162, 8156, 8136, 8166, 8174, 8154, 8162, 8101,0.664118766784668
102, 8158, 8173, 8165, 8169, 8182, 8154, 8166, 8156, 8127, 8168, 8182, 8163, 8166, 8125,0.6721189022064209
102, 8158, 8173, 8165, 8169, 8182, 8154, 8166, 8156, 8127, 8168, 8182, 8163, 8166, 8125,0.6721189022064209
103, 8146, 8179, 8175, 8181, 8170, 8161, 8158, 8160, 8192, 8148, 8167, 8185, 8171, 8115,0.6798803806304932
103, 8146, 8179, 8175, 8181, 8170, 8161, 8158, 8160, 8192, 8148, 8167, 8185, 8171, 8115,0.6798803806304932
104, 8122, 8151, 8146, 8164, 8174, 8147, 8163, 8149, 8100, 8159, 8156, 8131, 8158, 8089,0.687340259552002
104, 8122, 8151, 8146, 8164, 8174, 8147, 8163, 8149, 8100, 8159, 8156, 8131, 8158, 8089,0.687340259552002
105, 8147, 8176, 8156, 8166, 8172, 8162, 8150, 8149, 8161, 8149, 8147, 8173, 8166, 8093,0.6950259208679199
105, 8147, 8176, 8156, 8166, 8172, 8162, 8150, 8149, 8161, 8149, 8147, 8173, 8166, 8093,0.6950259208679199
106, 8143, 8164, 8159, 8166, 8179, 8162, 8159, 8151, 8142, 8158, 8155, 8162, 8159, 8090,0.7030246257781982
106, 8143, 8164, 8159, 8166, 8179, 8162, 8159, 8151, 8142, 8158, 8155, 8162, 8159, 8090,0.7030246257781982
107, 8163, 8164, 8166, 8178, 8189, 8175, 8179, 8156, 8141, 8179, 8168, 8156, 8167, 8117,0.7107694149017334
107, 8163, 8164, 8166, 8178, 8189, 8175, 8179, 8156, 8141, 8179, 8168, 8156, 8167, 8117,0.7107694149017334
108, 8161, 8179, 8183, 8181, 8182, 8183, 8172, 8166, 8237, 8175, 8175, 8191, 8184, 8131,0.7185580730438232
108, 8161, 8179, 8183, 8181, 8182, 8183, 8172, 8166, 8237, 8175, 8175, 8191, 8184, 8131,0.7185580730438232
109, 8144, 8159, 8173, 8177, 8193, 8173, 8183, 8170, 8167, 8196, 8188, 8153, 8171, 8123,0.7265713214874268
109, 8144, 8159, 8173, 8177, 8193, 8173, 8183, 8170, 8167, 8196, 8188, 8153, 8171, 8123,0.7265713214874268
110, 8179, 8189, 8186, 8188, 8179, 8187, 8182, 8172, 8231, 8190, 8181, 8189, 8180, 8145,0.7348759174346924
110, 8179, 8189, 8186, 8188, 8179, 8187, 8182, 8172, 8231, 8190, 8181, 8189, 8180, 8145,0.7348759174346924
111, 8152, 8167, 8177, 8161, 8165, 8170, 8174, 8154, 8197, 8181, 8179, 8173, 8171, 8132,0.7428820133209229
111, 8152, 8167, 8177, 8161, 8165, 8170, 8174, 8154, 8197, 8181, 8179, 8173, 8171, 8132,0.7428820133209229
112, 8145, 8152, 8175, 8161, 8179, 8169, 8175, 8153, 8146, 8192, 8180, 8151, 8163, 8125,0.749880313873291
112, 8145, 8152, 8175, 8161, 8179, 8169, 8175, 8153, 8146, 8192, 8180, 8151, 8163, 8125,0.749880313873291
113, 8166, 8181, 8195, 8186, 8183, 8178, 8172, 8168, 8243, 8189, 8164, 8194, 8172, 8131,0.7576813697814941
113, 8166, 8181, 8195, 8186, 8183, 8178, 8172, 8168, 8243, 8189, 8164, 8194, 8172, 8131,0.7576813697814941
114, 8150, 8169, 8185, 8186, 8191, 8168, 8186, 8158, 8162, 8198, 8168, 8151, 8156, 8117,0.7656810283660889
114, 8150, 8169, 8185, 8186, 8191, 8168, 8186, 8158, 8162, 8198, 8168, 8151, 8156, 8117,0.7656810283660889
115, 8164, 8193, 8186, 8195, 8185, 8184, 8179, 8163, 8183, 8178, 8150, 8168, 8161, 8113,0.773881196975708
115, 8164, 8193, 8186, 8195, 8185, 8184, 8179, 8163, 8183, 8178, 8150, 8168, 8161, 8113,0.773881196975708
116, 8148, 8174, 8170, 8180, 8184, 8176, 8168, 8166, 8172, 8163, 8142, 8163, 8160, 8096,0.7818810939788818
116, 8148, 8174, 8170, 8180, 8184, 8176, 8168, 8166, 8172, 8163, 8142, 8163, 8160, 8096,0.7818810939788818
117, 8144, 8154, 8158, 8179, 8197, 8171, 8176, 8156, 8127, 8173, 8167, 8148, 8154, 8105,0.7898805141448975
117, 8144, 8154, 8158, 8179, 8197, 8171, 8176, 8156, 8127, 8173, 8167, 8148, 8154, 8105,0.7904903888702393
118, 8138, 8176, 8162, 8186, 8184, 8177, 8164, 8156, 8204, 8164, 8169, 8183, 8167, 8115,0.7978806495666504
118, 8138, 8176, 8162, 8186, 8184, 8177, 8164, 8156, 8204, 8164, 8169, 8183, 8167, 8115,0.7978806495666504
119, 8114, 8148, 8136, 8167, 8184, 8167, 8167, 8156, 8112, 8177, 8166, 8133, 8160, 8093,0.8055145740509033
119, 8114, 8148, 8136, 8167, 8184, 8167, 8167, 8156, 8112, 8177, 8166, 8133, 8160, 8093,0.8055145740509033
120, 8149, 8166, 8150, 8180, 8192, 8190, 8173, 8165, 8150, 8178, 8157, 8160, 8164, 8105,0.8125085830688477
120, 8149, 8166, 8150, 8180, 8192, 8190, 8173, 8165, 8150, 8178, 8157, 8160, 8164, 8105,0.8125085830688477
121, 8133, 8163, 8161, 8178, 8196, 8187, 8172, 8153, 8163, 8163, 8153, 8165, 8162, 8103,0.820512056350708
121, 8133, 8163, 8161, 8178, 8196, 8187, 8172, 8153, 8163, 8163, 8153, 8165, 8162, 8103,0.820512056350708
122, 8114, 8147, 8153, 8170, 8193, 8179, 8166, 8137, 8087, 8160, 8158, 8134, 8158, 8093,0.8288805484771729
122, 8114, 8147, 8153, 8170, 8193, 8179, 8166, 8137, 8087, 8160, 8158, 8134, 8158, 8093,0.829430103302002
123, 8130, 8172, 8156, 8176, 8172, 8185, 8148, 8143, 8173, 8136, 8141, 8179, 8168, 8094,0.8368456363677979
123, 8130, 8172, 8156, 8176, 8172, 8185, 8148, 8143, 8173, 8136, 8141, 8179, 8168, 8094,0.8368456363677979
124, 8112, 8145, 8136, 8164, 8177, 8166, 8154, 8138, 8093, 8133, 8134, 8139, 8158, 8071,0.8448820114135742
124, 8112, 8145, 8136, 8164, 8177, 8166, 8154, 8138, 8093, 8133, 8134, 8139, 8158, 8071,0.8448820114135742
125, 8138, 8161, 8154, 8183, 8183, 8175, 8163, 8152, 8114, 8132, 8134, 8149, 8166, 8076,0.8531160354614258
125, 8138, 8161, 8154, 8183, 8183, 8175, 8163, 8152, 8114, 8132, 8134, 8149, 8166, 8076,0.8531160354614258
126, 8144, 8170, 8165, 8190, 8185, 8173, 8181, 8164, 8164, 8135, 8137, 8163, 8171, 8089,0.8611164093017578
126, 8144, 8170, 8165, 8190, 8185, 8173, 8181, 8164, 8164, 8135, 8137, 8163, 8171, 8089,0.8611164093017578
127, 8133, 8155, 8150, 8187, 8198, 8171, 8191, 8158, 8104, 8156, 8151, 8137, 8168, 8101,0.8691310882568359
127, 8133, 8155, 8150, 8187, 8198, 8171, 8191, 8158, 8104, 8156, 8151, 8137, 8168, 8101,0.8691310882568359
239, 8144, 8177, 8158, 8193, 8188, 8185, 8173, 8173, 8211, 8149, 8154, 8184, 8179, 8110,0.8771767616271973
239, 8144, 8177, 8158, 8193, 8188, 8185, 8173, 8173, 8211, 8149, 8154, 8184, 8179, 8110,0.8771767616271973
0, 8122, 8151, 8145, 8178, 8198, 8175, 8185, 8174, 8171, 8162, 8152, 8153, 8162, 8102,0.8842194080352783
0, 8122, 8151, 8145, 8178, 8198, 8175, 8185, 8174, 8171, 8162, 8152, 8153, 8162, 8102,0.8842194080352783
1, 8133, 8156, 8149, 8186, 8205, 8183, 8188, 8169, 8161, 8160, 8138, 8159, 8163, 8106,0.8918802738189697
1, 8133, 8156, 8149, 8186, 8205, 8183, 8188, 8169, 8161, 8160, 8138, 8159, 8163, 8106,0.8918802738189697
2, 8126, 8160, 8150, 8180, 8191, 8173, 8174, 8157, 8170, 8135, 8137, 8173, 8166, 8086,0.8998749256134033
2, 8126, 8160, 8150, 8180, 8191, 8173, 8174, 8157, 8170, 8135, 8137, 8173, 8166, 8086,0.8998749256134033
3, 8118, 8143, 8140, 8170, 8198, 8170, 8180, 8151, 8091, 8142, 8154, 8139, 8155, 8079,0.9078876972198486
3, 8118, 8143, 8140, 8170, 8198, 8170, 8180, 8151, 8091, 8142, 8154, 8139, 8155, 8079,0.9078876972198486
4, 8141, 8176, 8154, 8186, 8190, 8184, 8172, 8169, 8198, 8141, 8143, 8183, 8167, 8095,0.9159011840820312
4, 8141, 8176, 8154, 8186, 8190, 8184, 8172, 8169, 8198, 8141, 8143, 8183, 8167, 8095,0.9159011840820312
5, 8115, 8154, 8134, 8174, 8182, 8159, 8173, 8163, 8139, 8140, 8133, 8150, 8153, 8074,0.9238810539245605
5, 8115, 8154, 8134, 8174, 8182, 8159, 8173, 8163, 8139, 8140, 8133, 8150, 8153, 8074,0.9238810539245605
6, 8128, 8158, 8139, 8182, 8189, 8170, 8171, 8161, 8121, 8130, 8126, 8149, 8153, 8077,0.9319374561309814
6, 8128, 8158, 8139, 8182, 8189, 8170, 8171, 8161, 8121, 8130, 8126, 8149, 8153, 8077,0.9319374561309814
7, 8143, 8174, 8162, 8188, 8198, 8179, 8173, 8170, 8206, 8137, 8131, 8175, 8172, 8087,0.9398806095123291
7, 8143, 8174, 8162, 8188, 8198, 8179, 8173, 8170, 8206, 8137, 8131, 8175, 8172, 8087,0.9398806095123291
8, 8130, 8149, 8151, 8179, 8209, 8163, 8188, 8162, 8129, 8163, 8154, 8129, 8162, 8088,0.9468991756439209
8, 8130, 8149, 8151, 8179, 8209, 8163, 8188, 8162, 8129, 8163, 8154, 8129, 8162, 8088,0.9468991756439209
9, 8137, 8167, 8150, 8177, 8188, 8172, 8169, 8159, 8176, 8138, 8147, 8167, 8165, 8101,0.9548995494842529
9, 8137, 8167, 8150, 8177, 8188, 8172, 8169, 8159, 8176, 8138, 8147, 8167, 8165, 8101,0.9548995494842529
10, 8127, 8154, 8141, 8161, 8188, 8168, 8167, 8157, 8146, 8142, 8152, 8155, 8169, 8095,0.9628980159759521
10, 8127, 8154, 8141, 8161, 8188, 8168, 8167, 8157, 8146, 8142, 8152, 8155, 8169, 8095,0.9628980159759521
11, 8151, 8164, 8156, 8178, 8209, 8172, 8181, 8170, 8166, 8166, 8167, 8153, 8175, 8114,0.9709582328796387
11, 8151, 8164, 8156, 8178, 8209, 8172, 8181, 8170, 8166, 8166, 8167, 8153, 8175, 8114,0.9709582328796387
12, 8145, 8182, 8165, 8185, 8204, 8162, 8176, 8176, 8246, 8158, 8161, 8182, 8173, 8121,0.9788806438446045
12, 8145, 8182, 8165, 8185, 8204, 8162, 8176, 8176, 8246, 8158, 8161, 8182, 8173, 8121,0.9788806438446045
13, 8121, 8154, 8142, 8163, 8205, 8148, 8187, 8166, 8144, 8169, 8160, 8143, 8159, 8101,0.9868438243865967
13, 8121, 8154, 8142, 8163, 8205, 8148, 8187, 8166, 8144, 8169, 8160, 8143, 8159, 8101,0.9868438243865967
14, 8146, 8170, 8162, 8171, 8202, 8164, 8183, 8178, 8212, 8167, 8149, 8183, 8175, 8108,0.9950945377349854
14, 8146, 8170, 8162, 8171, 8202, 8164, 8183, 8178, 8212, 8167, 8149, 8183, 8175, 8108,0.9950945377349854
15, 8125, 8150, 8160, 8163, 8208, 8146, 8174, 8173, 8197, 8163, 8142, 8162, 8163, 8096,1.0030932426452637
15, 8125, 8150, 8160, 8163, 8208, 8146, 8174, 8173, 8197, 8163, 8142, 8162, 8163, 8096,1.0030932426452637
16, 8127, 8153, 8155, 8168, 8211, 8145, 8177, 8166, 8153, 8165, 8137, 8144, 8152, 8097,1.0110936164855957
16, 8127, 8153, 8155, 8168, 8211, 8145, 8177, 8166, 8153, 8165, 8137, 8144, 8152, 8097,1.0110936164855957
17, 8138, 8180, 8163, 8179, 8199, 8152, 8174, 8175, 8224, 8156, 8125, 8174, 8167, 8100,1.0181000232696533
17, 8138, 8180, 8163, 8179, 8199, 8152, 8174, 8175, 8224, 8156, 8125, 8174, 8167, 8100,1.0181000232696533
18, 8114, 8150, 8137, 8166, 8211, 8140, 8173, 8171, 8142, 8170, 8132, 8131, 8163, 8088,1.0261003971099854
18, 8114, 8150, 8137, 8166, 8211, 8140, 8173, 8171, 8142, 8170, 8132, 8131, 8163, 8088,1.0261003971099854
19, 8126, 8163, 8141, 8167, 8202, 8159, 8164, 8176, 8210, 8178, 8142, 8172, 8177, 8107,1.0335402488708496
19, 8126, 8163, 8141, 8167, 8202, 8159, 8164, 8176, 8210, 8178, 8142, 8172, 8177, 8107,1.0335402488708496
20, 8121, 8155, 8148, 8168, 8199, 8159, 8180, 8180, 8223, 8203, 8164, 8170, 8180, 8117,1.0415401458740234
20, 8121, 8155, 8148, 8168, 8199, 8159, 8180, 8180, 8223, 8203, 8164, 8170, 8180, 8117,1.0415401458740234
21, 8132, 8157, 8157, 8181, 8224, 8167, 8190, 8183, 8198, 8216, 8178, 8147, 8172, 8127,1.0495331287384033
21, 8132, 8157, 8157, 8181, 8224, 8167, 8190, 8183, 8198, 8216, 8178, 8147, 8172, 8127,1.0505344867706299
22, 8144, 8184, 8167, 8188, 8218, 8178, 8172, 8189, 8288, 8194, 8158, 8188, 8173, 8119,1.0576293468475342
22, 8144, 8184, 8167, 8188, 8218, 8178, 8172, 8189, 8288, 8194, 8158, 8188, 8173, 8119,1.0576293468475342
23, 8136, 8154, 8155, 8178, 8210, 8156, 8183, 8178, 8198, 8208, 8159, 8156, 8160, 8116,1.0658807754516602
23, 8136, 8154, 8155, 8178, 8210, 8156, 8183, 8178, 8198, 8208, 8159, 8156, 8160, 8116,1.0658807754516602
24, 8157, 8173, 8181, 8196, 8210, 8163, 8180, 8187, 8245, 8202, 8177, 8190, 8174, 8149,1.0736875534057617
24, 8157, 8173, 8181, 8196, 8210, 8163, 8180, 8187, 8245, 8202, 8177, 8190, 8174, 8149,1.0736875534057617
25, 8143, 8182, 8183, 8188, 8214, 8157, 8176, 8191, 8264, 8203, 8185, 8187, 8174, 8140,1.0806868076324463
25, 8143, 8182, 8183, 8188, 8214, 8157, 8176, 8191, 8264, 8203, 8185, 8187, 8174, 8140,1.0806868076324463
26, 8153, 8167, 8175, 8182, 8210, 8153, 8180, 8167, 8187, 8209, 8164, 8154, 8163, 8128,1.088688611984253
26, 8153, 8167, 8175, 8182, 8210, 8153, 8180, 8167, 8187, 8209, 8164, 8154, 8163, 8128,1.088688611984253
27, 8161, 8170, 8191, 8186, 8189, 8155, 8159, 8156, 8235, 8167, 8139, 8191, 8170, 8127,1.0966873168945312
27, 8161, 8170, 8191, 8186, 8189, 8155, 8159, 8156, 8235, 8167, 8139, 8191, 8170, 8127,1.0966873168945312
28, 8128, 8146, 8179, 8173, 8197, 8141, 8161, 8159, 8151, 8172, 8158, 8152, 8163, 8109,1.1048815250396729
28, 8128, 8146, 8179, 8173, 8197, 8141, 8161, 8159, 8151, 8172, 8158, 8152, 8163, 8109,1.1048815250396729
29, 8162, 8178, 8188, 8192, 8198, 8159, 8170, 8173, 8211, 8194, 8164, 8175, 8175, 8124,1.1125702857971191
29, 8162, 8178, 8188, 8192, 8198, 8159, 8170, 8173, 8211, 8194, 8164, 8175, 8175, 8124,1.1125702857971191
30, 8166, 8172, 8184, 8184, 8194, 8148, 8172, 8167, 8236, 8186, 8149, 8184, 8173, 8132,1.1205790042877197
30, 8166, 8172, 8184, 8184, 8194, 8148, 8172, 8167, 8236, 8186, 8149, 8184, 8173, 8132,1.1205790042877197
31, 8152, 8147, 8183, 8173, 8204, 8134, 8176, 8158, 8142, 8181, 8159, 8153, 8168, 8141,1.127880573272705
31, 8152, 8147, 8183, 8173, 8204, 8134, 8176, 8158, 8142, 8181, 8159, 8153, 8168, 8141,1.127880573272705
32, 8171, 8187, 8214, 8195, 8194, 8146, 8168, 8178, 8251, 8181, 8167, 8202, 8182, 8161,1.136838674545288
32, 8171, 8187, 8214, 8195, 8194, 8146, 8168, 8178, 8251, 8181, 8167, 8202, 8182, 8161,1.136838674545288
33, 8171, 8175, 8198, 8186, 8203, 8126, 8189, 8178, 8218, 8204, 8172, 8168, 8164, 8162,1.1438524723052979
33, 8171, 8175, 8198, 8186, 8203, 8126, 8189, 8178, 8218, 8204, 8172, 8168, 8164, 8162,1.1438524723052979
34, 8187, 8180, 8190, 8182, 8213, 8123, 8194, 8171, 8208, 8188, 8161, 8170, 8164, 8166,1.1518521308898926
34, 8187, 8180, 8190, 8182, 8213, 8123, 8194, 8171, 8208, 8188, 8161, 8170, 8164, 8166,1.1518521308898926
35, 8151, 8177, 8186, 8173, 8202, 8117, 8169, 8166, 8207, 8149, 8147, 8176, 8169, 8135,1.1598803997039795
35, 8151, 8177, 8186, 8173, 8202, 8117, 8169, 8166, 8207, 8149, 8147, 8176, 8169, 8135,1.1598803997039795
36, 8142, 8160, 8175, 8173, 8200, 8123, 8167, 8168, 8138, 8160, 8150, 8145, 8158, 8112,1.1681127548217773
36, 8142, 8160, 8175, 8173, 8200, 8123, 8167, 8168, 8138, 8160, 8150, 8145, 8158, 8112,1.1681127548217773
37, 8190, 8191, 8198, 8190, 8192, 8147, 8179, 8177, 8233, 8166, 8149, 8190, 8163, 8129,1.1759898662567139
37, 8190, 8191, 8198, 8190, 8192, 8147, 8179, 8177, 8233, 8166, 8149, 8190, 8163, 8129,1.1759898662567139
38, 8162, 8169, 8190, 8174, 8201, 8132, 8197, 8160, 8156, 8160, 8157, 8153, 8156, 8119,1.1833527088165283
38, 8162, 8169, 8190, 8174, 8201, 8132, 8197, 8160, 8156, 8160, 8157, 8153, 8156, 8119,1.1843445301055908
39, 8135, 8170, 8178, 8176, 8193, 8139, 8181, 8159, 8146, 8150, 8165, 8155, 8170, 8114,1.1913535594940186
39, 8135, 8170, 8178, 8176, 8193, 8139, 8181, 8159, 8146, 8150, 8165, 8155, 8170, 8114,1.1913535594940186
40, 8142, 8174, 8171, 8180, 8172, 8145, 8167, 8174, 8212, 8158, 8166, 8182, 8180, 8118,1.1998825073242188
40, 8142, 8174, 8171, 8180, 8172, 8145, 8167, 8174, 8212, 8158, 8166, 8182, 8180, 8118,1.1998825073242188
41, 8169, 8156, 8168, 8175, 8187, 8137, 8188, 8173, 8137, 8179, 8170, 8154, 8166, 8143,1.2068448066711426
41, 8169, 8156, 8168, 8175, 8187, 8137, 8188, 8173, 8137, 8179, 8170, 8154, 8166, 8143,1.2068448066711426
42, 8177, 8178, 8189, 8178, 8178, 8145, 8175, 8175, 8221, 8161, 8173, 8202, 8179, 8167,1.214967966079712
42, 8177, 8178, 8189, 8178, 8178, 8145, 8175, 8175, 8221, 8161, 8173, 8202, 8179, 8167,1.214967966079712
43, 8142, 8155, 8179, 8166, 8164, 8138, 8171, 8178, 8196, 8184, 8195, 8171, 8174, 8148,1.2229671478271484
43, 8142, 8155, 8179, 8166, 8164, 8138, 8171, 8178, 8196, 8184, 8195, 8171, 8174, 8148,1.2229671478271484
44, 8174, 8160, 8179, 8179, 8168, 8154, 8190, 8180, 8186, 8201, 8188, 8163, 8164, 8156,1.2303752899169922
44, 8174, 8160, 8179, 8179, 8168, 8154, 8190, 8180, 8186, 8201, 8188, 8163, 8164, 8156,1.2313683032989502
45, 8171, 8168, 8180, 8172, 8161, 8153, 8181, 8169, 8225, 8166, 8161, 8190, 8163, 8151,1.2383673191070557
45, 8171, 8168, 8180, 8172, 8161, 8153, 8181, 8169, 8225, 8166, 8161, 8190, 8163, 8151,1.2383673191070557
46, 8137, 8142, 8161, 8159, 8160, 8146, 8179, 8166, 8138, 8176, 8177, 8150, 8158, 8137,1.2468461990356445
46, 8137, 8142, 8161, 8159, 8160, 8146, 8179, 8166, 8138, 8176, 8177, 8150, 8158, 8137,1.2468461990356445
47, 8176, 8181, 8183, 8181, 8155, 8179, 8192, 8189, 8248, 8194, 8187, 8189, 8173, 8157,1.254357099533081
47, 8176, 8181, 8183, 8181, 8155, 8179, 8192, 8189, 8248, 8194, 8187, 8189, 8173, 8157,1.254357099533081
48, 8165, 8171, 8177, 8167, 8165, 8179, 8197, 8178, 8225, 8196, 8175, 8159, 8159, 8136,1.2613575458526611
48, 8165, 8171, 8177, 8167, 8165, 8179, 8197, 8178, 8225, 8196, 8175, 8159, 8159, 8136,1.2613575458526611
49, 8162, 8164, 8166, 8164, 8180, 8188, 8181, 8172, 8180, 8193, 8162, 8140, 8156, 8119,1.2698535919189453
49, 8162, 8164, 8166, 8164, 8180, 8188, 8181, 8172, 8180, 8193, 8162, 8140, 8156, 8119,1.2698535919189453
50, 8169, 8176, 8169, 8175, 8182, 8200, 8176, 8185, 8262, 8194, 8162, 8179, 8180, 8131,1.2780323028564453
50, 8169, 8176, 8169, 8175, 8182, 8200, 8176, 8185, 8262, 8194, 8162, 8179, 8180, 8131,1.2780323028564453
51, 8139, 8148, 8154, 8161, 8187, 8196, 8190, 8171, 8186, 8209, 8178, 8145, 8174, 8136,1.2860267162322998
51, 8139, 8148, 8154, 8161, 8187, 8196, 8190, 8171, 8186, 8209, 8178, 8145, 8174, 8136,1.2860267162322998
52, 8154, 8173, 8167, 8173, 8171, 8208, 8173, 8179, 8239, 8196, 8166, 8173, 8170, 8138,1.293855905532837
52, 8154, 8173, 8167, 8173, 8171, 8208, 8173, 8179, 8239, 8196, 8166, 8173, 8170, 8138,1.293855905532837
53, 8161, 8168, 8161, 8180, 8179, 8195, 8182, 8192, 8231, 8208, 8159, 8161, 8162, 8132,1.302133560180664
53, 8161, 8168, 8161, 8180, 8179, 8195, 8182, 8192, 8231, 8208, 8159, 8161, 8162, 8132,1.302133560180664
54, 8156, 8161, 8158, 8178, 8194, 8200, 8204, 8188, 8209, 8223, 8172, 8150, 8165, 8145,1.3098819255828857
54, 8156, 8161, 8158, 8178, 8194, 8200, 8204, 8188, 8209, 8223, 8172, 8150, 8165, 8145,1.3098819255828857
55, 8140, 8173, 8167, 8166, 8166, 8203, 8183, 8184, 8277, 8196, 8163, 8176, 8173, 8130,1.3180837631225586
55, 8140, 8173, 8167, 8166, 8166, 8203, 8183, 8184, 8277, 8196, 8163, 8176, 8173, 8130,1.3180837631225586
56, 8141, 8150, 8152, 8161, 8170, 8180, 8186, 8172, 8169, 8196, 8155, 8128, 8154, 8108,1.3254284858703613
56, 8141, 8150, 8152, 8161, 8170, 8180, 8186, 8172, 8169, 8196, 8155, 8128, 8154, 8108,1.3254284858703613
57, 8170, 8179, 8170, 8186, 8185, 8196, 8189, 8179, 8224, 8189, 8158, 8171, 8164, 8131,1.3339347839355469
57, 8170, 8179, 8170, 8186, 8185, 8196, 8189, 8179, 8224, 8189, 8158, 8171, 8164, 8131,1.3339347839355469
58, 8126, 8164, 8158, 8170, 8176, 8188, 8174, 8175, 8215, 8168, 8152, 8162, 8160, 8101,1.3409347534179688
58, 8126, 8164, 8158, 8170, 8176, 8188, 8174, 8175, 8215, 8168, 8152, 8162, 8160, 8101,1.3409347534179688
59, 8115, 8138, 8130, 8152, 8158, 8170, 8162, 8151, 8102, 8148, 8119, 8117, 8147, 8061,1.3489351272583008
59, 8115, 8138, 8130, 8152, 8158, 8170, 8162, 8151, 8102, 8148, 8119, 8117, 8147, 8061,1.3489351272583008
60, 8128, 8154, 8135, 8154, 8136, 8166, 8154, 8151, 8154, 8135, 8111, 8159, 8162, 8064,1.3569345474243164
60, 8128, 8154, 8135, 8154, 8136, 8166, 8154, 8151, 8154, 8135, 8111, 8159, 8162, 8064,1.3569345474243164
61, 8100, 8137, 8129, 8151, 8146, 8156, 8171, 8160, 8111, 8161, 8151, 8139, 8161, 8065,1.3643991947174072
61, 8100, 8137, 8129, 8151, 8146, 8156, 8171, 8160, 8111, 8161, 8151, 8139, 8161, 8065,1.3643991947174072
62, 8125, 8163, 8144, 8170, 8155, 8165, 8169, 8168, 8164, 8158, 8148, 8169, 8169, 8085,1.372399091720581
62, 8125, 8163, 8144, 8170, 8155, 8165, 8169, 8168, 8164, 8158, 8148, 8169, 8169, 8085,1.372399091720581
63, 8120, 8154, 8149, 8161, 8159, 8151, 8163, 8162, 8170, 8151, 8139, 8172, 8166, 8095,1.3808751106262207
63, 8120, 8154, 8149, 8161, 8159, 8151, 8163, 8162, 8170, 8151, 8139, 8172, 8166, 8095,1.3808751106262207
64, 8120, 8137, 8151, 8164, 8174, 8161, 8177, 8167, 8130, 8182, 8169, 8146, 8163, 8108,1.388880968093872
64, 8120, 8137, 8151, 8164, 8174, 8161, 8177, 8167, 8130, 8182, 8169, 8146, 8163, 8108,1.388880968093872
65, 8146, 8170, 8163, 8180, 8167, 8179, 8171, 8174, 8224, 8180, 8160, 8188, 8177, 8116,1.397430181503296
65, 8146, 8170, 8163, 8180, 8167, 8179, 8171, 8174, 8224, 8180, 8160, 8188, 8177, 8116,1.397430181503296
66, 8122, 8146, 8141, 8158, 8171, 8147, 8167, 8150, 8119, 8169, 8147, 8148, 8164, 8103,1.404426097869873
66, 8122, 8146, 8141, 8158, 8171, 8147, 8167, 8150, 8119, 8169, 8147, 8148, 8164, 8103,1.404426097869873
67, 8137, 8161, 8157, 8174, 8168, 8149, 8161, 8161, 8145, 8154, 8158, 8169, 8165, 8114,1.4114298820495605
67, 8137, 8161, 8157, 8174, 8168, 8149, 8161, 8161, 8145, 8154, 8158, 8169, 8165, 8114,1.4114298820495605
68, 8160, 8173, 8180, 8188, 8163, 8153, 8168, 8175, 8195, 8151, 8160, 8179, 8162, 8108,1.4198803901672363
68, 8160, 8173, 8180, 8188, 8163, 8153, 8168, 8175, 8195, 8151, 8160, 8179, 8162, 8108,1.4198803901672363
69, 8176, 8159, 8183, 8187, 8180, 8149, 8185, 8158, 8105, 8159, 8151, 8139, 8155, 8108,1.427635908126831
69, 8176, 8159, 8183, 8187, 8180, 8149, 8185, 8158, 8105, 8159, 8151, 8139, 8155, 8108,1.427635908126831
70, 8170, 8180, 8188, 8187, 8173, 8154, 8173, 8158, 8178, 8133, 8138, 8176, 8163, 8107,1.4357569217681885
70, 8170, 8180, 8188, 8187, 8173, 8154, 8173, 8158, 8178, 8133, 8138, 8176, 8163, 8107,1.4357569217681885
71, 8130, 8159, 8152, 8161, 8177, 8131, 8177, 8161, 8126, 8138, 8139, 8135, 8147, 8079,1.4440810680389404
71, 8130, 8159, 8152, 8161, 8177, 8131, 8177, 8161, 8126, 8138, 8139, 8135, 8147, 8079,1.4440810680389404
72, 8155, 8166, 8146, 8161, 8170, 8131, 8177, 8164, 8134, 8144, 8127, 8142, 8158, 8097,1.4520795345306396
72, 8155, 8166, 8146, 8161, 8170, 8131, 8177, 8164, 8134, 8144, 8127, 8142, 8158, 8097,1.4520795345306396
73, 8144, 8158, 8147, 8149, 8148, 8122, 8161, 8157, 8163, 8127, 8117, 8162, 8173, 8108,1.4600813388824463
73, 8144, 8158, 8147, 8149, 8148, 8122, 8161, 8157, 8163, 8127, 8117, 8162, 8173, 8108,1.4600813388824463
74, 8110, 8131, 8125, 8131, 8151, 8117, 8162, 8151, 8078, 8139, 8129, 8132, 8163, 8099,1.46712327003479
74, 8110, 8131, 8125, 8131, 8151, 8117, 8162, 8151, 8078, 8139, 8129, 8132, 8163, 8099,1.46712327003479
75, 8131, 8168, 8136, 8150, 8144, 8131, 8152, 8164, 8165, 8131, 8124, 8175, 8171, 8108,1.474881649017334
75, 8131, 8168, 8136, 8150, 8144, 8131, 8152, 8164, 8165, 8131, 8124, 8175, 8171, 8108,1.474881649017334
76, 8128, 8156, 8135, 8152, 8152, 8114, 8159, 8160, 8115, 8134, 8129, 8144, 8165, 8104,1.482882022857666
76, 8128, 8156, 8135, 8152, 8152, 8114, 8159, 8160, 8115, 8134, 8129, 8144, 8165, 8104,1.482882022857666
77, 8139, 8163, 8147, 8164, 8164, 8129, 8168, 8163, 8112, 8141, 8139, 8148, 8164, 8106,1.4911983013153076
77, 8139, 8163, 8147, 8164, 8164, 8129, 8168, 8163, 8112, 8141, 8139, 8148, 8164, 8106,1.4911983013153076
78, 8141, 8176, 8146, 8168, 8160, 8136, 8161, 8166, 8164, 8138, 8129, 8170, 8162, 8090,1.4991953372955322
78, 8141, 8176, 8146, 8168, 8160, 8136, 8161, 8166, 8164, 8138, 8129, 8170, 8162, 8090,1.4991953372955322
79, 8138, 8154, 8132, 8157, 8164, 8123, 8157, 8145, 8065, 8149, 8125, 8127, 8148, 8083,1.5081944465637207
79, 8138, 8154, 8132, 8157, 8164, 8123, 8157, 8145, 8065, 8149, 8125, 8127, 8148, 8083,1.5091955661773682
80, 8159, 8180, 8164, 8171, 8158, 8134, 8142, 8153, 8161, 8140, 8128, 8181, 8166, 8111,1.5141940116882324
80, 8159, 8180, 8164, 8171, 8158, 8134, 8142, 8153, 8161, 8140, 8128, 8181, 8166, 8111,1.5151610374450684
81, 8152, 8165, 8170, 8172, 8170, 8125, 8158, 8171, 8168, 8159, 8151, 8170, 8167, 8122,1.5222156047821045
81, 8152, 8165, 8170, 8172, 8170, 8125, 8158, 8171, 8168, 8159, 8151, 8170, 8167, 8122,1.5231685638427734
82, 8173, 8162, 8178, 8178, 8183, 8134, 8179, 8185, 8167, 8174, 8165, 8158, 8171, 8141,1.5307223796844482
82, 8173, 8162, 8178, 8178, 8183, 8134, 8179, 8185, 8167, 8174, 8165, 8158, 8171, 8141,1.5307223796844482
83, 8158, 8171, 8178, 8175, 8177, 8143, 8172, 8191, 8242, 8160, 8156, 8180, 8180, 8131,1.5377235412597656
83, 8158, 8171, 8178, 8175, 8177, 8143, 8172, 8191, 8242, 8160, 8156, 8180, 8180, 8131,1.5377235412597656
84, 8129, 8149, 8144, 8172, 8184, 8127, 8173, 8174, 8158, 8172, 8153, 8141, 8159, 8107,1.5457215309143066
84, 8129, 8149, 8144, 8172, 8184, 8127, 8173, 8174, 8158, 8172, 8153, 8141, 8159, 8107,1.5457215309143066
85, 8160, 8176, 8157, 8188, 8181, 8128, 8166, 8176, 8210, 8163, 8145, 8180, 8164, 8121,1.5537216663360596
85, 8160, 8176, 8157, 8188, 8181, 8128, 8166, 8176, 8210, 8163, 8145, 8180, 8164, 8121,1.5537216663360596
86, 8143, 8154, 8157, 8168, 8180, 8119, 8171, 8182, 8178, 8161, 8149, 8162, 8166, 8119,1.5617210865020752
86, 8143, 8154, 8157, 8168, 8180, 8119, 8171, 8182, 8178, 8161, 8149, 8162, 8166, 8119,1.5617210865020752
87, 8141, 8143, 8146, 8162, 8178, 8130, 8172, 8181, 8143, 8166, 8144, 8144, 8164, 8121,1.5697236061096191
87, 8141, 8143, 8146, 8162, 8178, 8130, 8172, 8181, 8143, 8166, 8144, 8144, 8164, 8121,1.5697236061096191
88, 8145, 8171, 8153, 8176, 8166, 8141, 8167, 8180, 8225, 8160, 8133, 8175, 8171, 8118,1.5777215957641602
88, 8145, 8171, 8153, 8176, 8166, 8141, 8167, 8180, 8225, 8160, 8133, 8175, 8171, 8118,1.5777215957641602
89, 8137, 8160, 8157, 8180, 8187, 8138, 8183, 8178, 8167, 8186, 8162, 8141, 8163, 8112,1.5857222080230713
89, 8137, 8160, 8157, 8180, 8187, 8138, 8183, 8178, 8167, 8186, 8162, 8141, 8163, 8112,1.5857222080230713
90, 8169, 8180, 8181, 8194, 8197, 8147, 8174, 8186, 8245, 8189, 8179, 8180, 8178, 8141,1.5938832759857178
90, 8169, 8180, 8181, 8194, 8197, 8147, 8174, 8186, 8245, 8189, 8179, 8180, 8178, 8141,1.5938832759857178
91, 8156, 8162, 8178, 8186, 8197, 8129, 8171, 8177, 8232, 8183, 8179, 8165, 8172, 8141,1.6007449626922607
91, 8156, 8162, 8178, 8186, 8197, 8129, 8171, 8177, 8232, 8183, 8179, 8165, 8172, 8141,1.6007449626922607
92, 8162, 8163, 8177, 8193, 8200, 8144, 8180, 8173, 8175, 8177, 8172, 8142, 8158, 8133,1.6088814735412598
92, 8162, 8163, 8177, 8193, 8200, 8144, 8180, 8173, 8175, 8177, 8172, 8142, 8158, 8133,1.6088814735412598
93, 8181, 8194, 8188, 8197, 8180, 8152, 8168, 8179, 8242, 8154, 8155, 8183, 8163, 8135,1.616844892501831
93, 8181, 8194, 8188, 8197, 8180, 8152, 8168, 8179, 8242, 8154, 8155, 8183, 8163, 8135,1.616844892501831
94, 8160, 8161, 8173, 8177, 8188, 8123, 8172, 8170, 8145, 8160, 8169, 8145, 8160, 8135,1.6251916885375977
94, 8160, 8161, 8173, 8177, 8188, 8123, 8172, 8170, 8145, 8160, 8169, 8145, 8160, 8135,1.6251916885375977
95, 8166, 8173, 8186, 8185, 8188, 8144, 8172, 8183, 8198, 8151, 8175, 8177, 8171, 8156,1.6329741477966309
95, 8166, 8173, 8186, 8185, 8188, 8144, 8172, 8183, 8198, 8151, 8175, 8177, 8171, 8156,1.6329741477966309
96, 8149, 8168, 8187, 8179, 8172, 8147, 8172, 8190, 8220, 8152, 8166, 8179, 8164, 8140,1.640974998474121
96, 8149, 8168, 8187, 8179, 8172, 8147, 8172, 8190, 8220, 8152, 8166, 8179, 8164, 8140,1.640974998474121
97, 8159, 8159, 8184, 8178, 8178, 8136, 8181, 8183, 8170, 8175, 8169, 8150, 8158, 8131,1.6490004062652588
97, 8159, 8159, 8184, 8178, 8178, 8136, 8181, 8183, 8170, 8175, 8169, 8150, 8158, 8131,1.6490004062652588
98, 8189, 8185, 8205, 8187, 8168, 8138, 8176, 8188, 8260, 8170, 8172, 8191, 8169, 8147,1.656846284866333
98, 8189, 8185, 8205, 8187, 8168, 8138, 8176, 8188, 8260, 8170, 8172, 8191, 8169, 8147,1.656846284866333
99, 8182, 8155, 8198, 8174, 8167, 8122, 8185, 8177, 8176, 8176, 8185, 8165, 8159, 8152,1.6648809909820557
99, 8182, 8155, 8198, 8174, 8167, 8122, 8185, 8177, 8176, 8176, 8185, 8165, 8159, 8152,1.6648809909820557
100, 8195, 8168, 8212, 8175, 8178, 8128, 8176, 8175, 8206, 8168, 8185, 8190, 8172, 8170,1.6718809604644775
100, 8195, 8168, 8212, 8175, 8178, 8128, 8176, 8175, 8206, 8168, 8185, 8190, 8172, 8170,1.6718809604644775
101, 8162, 8168, 8207, 8157, 8183, 8119, 8164, 8179, 8229, 8157, 8189, 8190, 8172, 8150,1.6795973777770996
101, 8162, 8168, 8207, 8157, 8183, 8119, 8164, 8179, 8229, 8157, 8189, 8190, 8172, 8150,1.6795973777770996
102, 8156, 8161, 8199, 8170, 8176, 8118, 8181, 8191, 8170, 8173, 8205, 8165, 8157, 8146,1.6876039505004883
102, 8156, 8161, 8199, 8170, 8176, 8118, 8181, 8191, 8170, 8173, 8205, 8165, 8157, 8146,1.6876039505004883
103, 8198, 8192, 8223, 8201, 8167, 8127, 8184, 8199, 8269, 8167, 8191, 8213, 8168, 8166,1.6956031322479248
103, 8198, 8192, 8223, 8201, 8167, 8127, 8184, 8199, 8269, 8167, 8191, 8213, 8168, 8166,1.696599006652832
104, 8173, 8162, 8204, 8172, 8187, 8103, 8182, 8171, 8187, 8159, 8178, 8168, 8163, 8155,1.7036852836608887
104, 8173, 8162, 8204, 8172, 8187, 8103, 8182, 8171, 8187, 8159, 8178, 8168, 8163, 8155,1.7036852836608887
105, 8175, 8173, 8198, 8170, 8181, 8115, 8173, 8169, 8191, 8147, 8173, 8174, 8168, 8158,1.7118473052978516
105, 8175, 8173, 8198, 8170, 8181, 8115, 8173, 8169, 8191, 8147, 8173, 8174, 8168, 8158,1.7118473052978516
106, 8176, 8180, 8198, 8177, 8166, 8114, 8168, 8180, 8223, 8143, 8169, 8181, 8163, 8147,1.7198617458343506
106, 8176, 8180, 8198, 8177, 8166, 8114, 8168, 8180, 8223, 8143, 8169, 8181, 8163, 8147,1.7198617458343506
107, 8170, 8162, 8182, 8171, 8182, 8104, 8170, 8166, 8127, 8144, 8158, 8135, 8152, 8136,1.7278802394866943
107, 8170, 8162, 8182, 8171, 8182, 8104, 8170, 8166, 8127, 8144, 8158, 8135, 8152, 8136,1.7278802394866943
108, 8183, 8192, 8196, 8183, 8179, 8122, 8161, 8166, 8205, 8128, 8151, 8178, 8173, 8148,1.7348814010620117
108, 8183, 8192, 8196, 8183, 8179, 8122, 8161, 8166, 8205, 8128, 8151, 8178, 8173, 8148,1.7348814010620117
109, 8176, 8178, 8201, 8184, 8189, 8113, 8180, 8171, 8180, 8163, 8183, 8165, 8167, 8150,1.7431070804595947
109, 8176, 8178, 8201, 8184, 8189, 8113, 8180, 8171, 8180, 8163, 8183, 8165, 8167, 8150,1.7431070804595947
110, 8194, 8183, 8207, 8186, 8190, 8120, 8173, 8177, 8192, 8174, 8182, 8173, 8159, 8154,1.7511076927185059
110, 8194, 8183, 8207, 8186, 8190, 8120, 8173, 8177, 8192, 8174, 8182, 8173, 8159, 8154,1.7511076927185059
111, 8161, 8174, 8182, 8161, 8171, 8120, 8145, 8171, 8201, 8138, 8137, 8168, 8159, 8127,1.7591493129730225
111, 8161, 8174, 8182, 8161, 8171, 8120, 8145, 8171, 8201, 8138, 8137, 8168, 8159, 8127,1.7591493129730225
112, 8129, 8141, 8148, 8145, 8177, 8114, 8154, 8161, 8091, 8135, 8121, 8121, 8151, 8101,1.7668392658233643
112, 8129, 8141, 8148, 8145, 8177, 8114, 8154, 8161, 8091, 8135, 8121, 8121, 8151, 8101,1.7668392658233643
113, 8153, 8163, 8164, 8164, 8166, 8123, 8157, 8172, 8170, 8128, 8120, 8170, 8161, 8108,1.774846076965332
113, 8153, 8163, 8164, 8164, 8166, 8123, 8157, 8172, 8170, 8128, 8120, 8170, 8161, 8108,1.774846076965332
114, 8135, 8148, 8152, 8154, 8157, 8107, 8159, 8168, 8122, 8131, 8135, 8144, 8156, 8107,1.7828807830810547
114, 8135, 8148, 8152, 8154, 8157, 8107, 8159, 8168, 8122, 8131, 8135, 8144, 8156, 8107,1.7828807830810547
115, 8160, 8160, 8162, 8163, 8159, 8119, 8163, 8165, 8116, 8137, 8143, 8149, 8169, 8128,1.7908551692962646
115, 8160, 8160, 8162, 8163, 8159, 8119, 8163, 8165, 8116, 8137, 8143, 8149, 8169, 8128,1.7908551692962646
116, 8169, 8170, 8185, 8179, 8157, 8118, 8159, 8163, 8192, 8139, 8147, 8186, 8179, 8133,1.797872543334961
116, 8169, 8170, 8185, 8179, 8157, 8118, 8159, 8163, 8192, 8139, 8147, 8186, 8179, 8133,1.797872543334961
117, 8138, 8141, 8168, 8174, 8169, 8106, 8165, 8151, 8102, 8153, 8160, 8140, 8158, 8116,1.805884599685669
117, 8138, 8141, 8168, 8174, 8169, 8106, 8165, 8151, 8102, 8153, 8160, 8140, 8158, 8116,1.805884599685669
118, 8147, 8168, 8167, 8179, 8170, 8126, 8152, 8161, 8166, 8140, 8145, 8167, 8163, 8120,1.814267635345459
118, 8147, 8168, 8167, 8179, 8170, 8126, 8152, 8161, 8166, 8140, 8145, 8167, 8163, 8120,1.814267635345459
119, 8137, 8152, 8156, 8163, 8183, 8118, 8154, 8167, 8143, 8146, 8137, 8147, 8160, 8113,1.821272373199463
119, 8137, 8152, 8156, 8163, 8183, 8118, 8154, 8167, 8143, 8146, 8137, 8147, 8160, 8113,1.821272373199463
120, 8153, 8151, 8162, 8171, 8191, 8123, 8169, 8170, 8128, 8158, 8141, 8145, 8161, 8130,1.8297762870788574
120, 8153, 8151, 8162, 8171, 8191, 8123, 8169, 8170, 8128, 8158, 8141, 8145, 8161, 8130,1.8297762870788574
121, 8155, 8169, 8168, 8177, 8177, 8123, 8176, 8177, 8203, 8143, 8141, 8177, 8171, 8129,1.837782621383667
121, 8155, 8169, 8168, 8177, 8177, 8123, 8176, 8177, 8203, 8143, 8141, 8177, 8171, 8129,1.837782621383667
122, 8137, 8145, 8149, 8163, 8184, 8106, 8192, 8178, 8119, 8158, 8146, 8126, 8156, 8109,1.8459477424621582
122, 8137, 8145, 8149, 8163, 8184, 8106, 8192, 8178, 8119, 8158, 8146, 8126, 8156, 8109,1.8459477424621582
123, 8161, 8174, 8162, 8175, 8180, 8119, 8187, 8193, 8191, 8161, 8134, 8160, 8165, 8126,1.8538823127746582
123, 8161, 8174, 8162, 8175, 8180, 8119, 8187, 8193, 8191, 8161, 8134, 8160, 8165, 8126,1.8538823127746582
124, 8147, 8170, 8159, 8167, 8179, 8110, 8184, 8187, 8188, 8167, 8136, 8159, 8169, 8123,1.8618805408477783
124, 8147, 8170, 8159, 8167, 8179, 8110, 8184, 8187, 8188, 8167, 8136, 8159, 8169, 8123,1.8618805408477783
125, 8151, 8168, 8164, 8168, 8181, 8118, 8190, 8182, 8154, 8177, 8148, 8149, 8166, 8124,1.8688688278198242
125, 8151, 8168, 8164, 8168, 8181, 8118, 8190, 8182, 8154, 8177, 8148, 8149, 8166, 8124,1.8688688278198242
126, 8160, 8186, 8174, 8169, 8172, 8125, 8186, 8190, 8226, 8161, 8136, 8180, 8167, 8133,1.8768625259399414
126, 8160, 8186, 8174, 8169, 8172, 8125, 8186, 8190, 8226, 8161, 8136, 8180, 8167, 8133,1.8768625259399414
127, 8146, 8153, 8158, 8156, 8191, 8105, 8186, 8171, 8134, 8164, 8139, 8140, 8161, 8131,1.8848612308502197
127, 8146, 8153, 8158, 8156, 8191, 8105, 8186, 8171, 8134, 8164, 8139, 8140, 8161, 8131,1.8848612308502197
239, 8163, 8171, 8180, 8168, 8186, 8118, 8171, 8168, 8183, 8156, 8138, 8176, 8176, 8138,1.8930978775024414
239, 8163, 8171, 8180, 8168, 8186, 8118, 8171, 8168, 8183, 8156, 8138, 8176, 8176, 8138,1.8930978775024414
0, 8150, 8167, 8171, 8153, 8170, 8112, 8185, 8174, 8170, 8155, 8123, 8162, 8163, 8125,1.9010989665985107
0, 8150, 8167, 8171, 8153, 8170, 8112, 8185, 8174, 8170, 8155, 8123, 8162, 8163, 8125,1.9010989665985107
1, 8149, 8153, 8149, 8143, 8177, 8111, 8205, 8166, 8101, 8157, 8112, 8132, 8151, 8126,1.9088807106018066
1, 8149, 8153, 8149, 8143, 8177, 8111, 8205, 8166, 8101, 8157, 8112, 8132, 8151, 8126,1.9088807106018066
2, 8149, 8177, 8165, 8157, 8173, 8127, 8192, 8182, 8201, 8145, 8108, 8179, 8170, 8134,1.9168446063995361
2, 8149, 8177, 8165, 8157, 8173, 8127, 8192, 8182, 8201, 8145, 8108, 8179, 8170, 8134,1.9168446063995361
3, 8145, 8166, 8158, 8160, 8185, 8120, 8212, 8203, 8165, 8177, 8121, 8148, 8170, 8137,1.9238810539245605
3, 8145, 8166, 8158, 8160, 8185, 8120, 8212, 8203, 8165, 8177, 8121, 8148, 8170, 8137,1.9238810539245605
4, 8186, 8182, 8165, 8167, 8185, 8117, 8215, 8199, 8203, 8173, 8112, 8167, 8177, 8151,1.9318912029266357
4, 8186, 8182, 8165, 8167, 8185, 8117, 8215, 8199, 8203, 8173, 8112, 8167, 8177, 8151,1.9318912029266357
5, 8164, 8167, 8162, 8153, 8173, 8098, 8192, 8166, 8174, 8147, 8103, 8162, 8164, 8125,1.9401874542236328
5, 8164, 8167, 8162, 8153, 8173, 8098, 8192, 8166, 8174, 8147, 8103, 8162, 8164, 8125,1.9401874542236328
6, 8147, 8158, 8152, 8161, 8180, 8106, 8194, 8165, 8107, 8157, 8110, 8141, 8150, 8116,1.9478802680969238
6, 8147, 8158, 8152, 8161, 8180, 8106, 8194, 8165, 8107, 8157, 8110, 8141, 8150, 8116,1.9478802680969238
7, 8166, 8182, 8161, 8168, 8176, 8115, 8197, 8184, 8214, 8152, 8107, 8190, 8163, 8132,1.9558711051940918
7, 8166, 8182, 8161, 8168, 8176, 8115, 8197, 8184, 8214, 8152, 8107, 8190, 8163, 8132,1.9558711051940918
8, 8142, 8146, 8146, 8137, 8170, 8089, 8201, 8162, 8114, 8153, 8116, 8149, 8157, 8116,1.9638807773590088
8, 8142, 8146, 8146, 8137, 8170, 8089, 8201, 8162, 8114, 8153, 8116, 8149, 8157, 8116,1.9638807773590088
9, 8151, 8167, 8154, 8153, 8162, 8107, 8198, 8160, 8116, 8146, 8126, 8166, 8167, 8120,1.9718809127807617
9, 8151, 8167, 8154, 8153, 8162, 8107, 8198, 8160, 8116, 8146, 8126, 8166, 8167, 8120,1.9718809127807617
10, 8155, 8181, 8156, 8165, 8165, 8117, 8207, 8171, 8168, 8148, 8129, 8177, 8172, 8124,1.979341745376587
10, 8155, 8181, 8156, 8165, 8165, 8117, 8207, 8171, 8168, 8148, 8129, 8177, 8172, 8124,1.9803502559661865
11, 8153, 8158, 8149, 8150, 8169, 8105, 8212, 8165, 8101, 8159, 8137, 8138, 8166, 8125,1.9873478412628174
11, 8153, 8158, 8149, 8150, 8169, 8105, 8212, 8165, 8101, 8159, 8137, 8138, 8166, 8125,1.9873478412628174
12, 8159, 8172, 8163, 8148, 8143, 8111, 8192, 8170, 8167, 8143, 8134, 8175, 8171, 8133,1.9943559169769287
12, 8159, 8172, 8163, 8148, 8143, 8111, 8192, 8170, 8167, 8143, 8134, 8175, 8171, 8133,1.9943559169769287
13, 8143, 8157, 8146, 8146, 8148, 8101, 8203, 8165, 8106, 8150, 8135, 8146, 8155, 8123,2.0028812885284424
13, 8143, 8157, 8146, 8146, 8148, 8101, 8203, 8165, 8106, 8150, 8135, 8146, 8155, 8123,2.0028812885284424
14, 8161, 8170, 8149, 8158, 8155, 8107, 8203, 8158, 8120, 8142, 8125, 8158, 8160, 8124,2.010383367538452
14, 8161, 8170, 8149, 8158, 8155, 8107, 8203, 8158, 8120, 8142, 8125, 8158, 8160, 8124,2.011380672454834
15, 8136, 8162, 8145, 8139, 8132, 8094, 8177, 8146, 8127, 8123, 8109, 8164, 8168, 8100,2.01888108253479
15, 8136, 8162, 8145, 8139, 8132, 8094, 8177, 8146, 8127, 8123, 8109, 8164, 8168, 8100,2.01888108253479
16, 8109, 8141, 8126, 8125, 8133, 8089, 8182, 8145, 8026, 8137, 8115, 8125, 8159, 8087,2.0268454551696777
16, 8109, 8141, 8126, 8125, 8133, 8089, 8182, 8145, 8026, 8137, 8115, 8125, 8159, 8087,2.0268454551696777
17, 8134, 8172, 8138, 8147, 8141, 8110, 8192, 8168, 8136, 8136, 8116, 8178, 8168, 8101,2.0350828170776367
17, 8134, 8172, 8138, 8147, 8141, 8110, 8192, 8168, 8136, 8136, 8116, 8178, 8168, 8101,2.0350828170776367
18, 8129, 8149, 8130, 8143, 8153, 8103, 8207, 8168, 8114, 8153, 8121, 8152, 8161, 8092,2.0432326793670654
18, 8129, 8149, 8130, 8143, 8153, 8103, 8207, 8168, 8114, 8153, 8121, 8152, 8161, 8092,2.0432326793670654
19, 8145, 8158, 8141, 8150, 8149, 8113, 8202, 8172, 8121, 8162, 8115, 8153, 8170, 8109,2.0508816242218018
19, 8145, 8158, 8141, 8150, 8149, 8113, 8202, 8172, 8121, 8162, 8115, 8153, 8170, 8109,2.0508816242218018
20, 8145, 8171, 8148, 8155, 8135, 8103, 8183, 8171, 8169, 8144, 8107, 8178, 8176, 8109,2.057262897491455
20, 8145, 8171, 8148, 8155, 8135, 8103, 8183, 8171, 8169, 8144, 8107, 8178, 8176, 8109,2.057262897491455
21, 8144, 8148, 8137, 8151, 8144, 8093, 8189, 8150, 8070, 8144, 8120, 8140, 8156, 8098,2.066263198852539
21, 8144, 8148, 8137, 8151, 8144, 8093, 8189, 8150, 8070, 8144, 8120, 8140, 8156, 8098,2.066263198852539
22, 8170, 8180, 8159, 8160, 8140, 8122, 8189, 8158, 8148, 8137, 8115, 8173, 8166, 8108,2.073880910873413
22, 8170, 8180, 8159, 8160, 8140, 8122, 8189, 8158, 8148, 8137, 8115, 8173, 8166, 8108,2.073880910873413
23, 8149, 8166, 8144, 8144, 8142, 8112, 8199, 8160, 8123, 8146, 8114, 8146, 8163, 8094,2.0814359188079834
23, 8149, 8166, 8144, 8144, 8142, 8112, 8199, 8160, 8123, 8146, 8114, 8146, 8163, 8094,2.0814359188079834
24, 8158, 8164, 8136, 8146, 8145, 8114, 8196, 8154, 8093, 8149, 8115, 8146, 8158, 8095,2.0894391536712646
24, 8158, 8164, 8136, 8146, 8145, 8114, 8196, 8154, 8093, 8149, 8115, 8146, 8158, 8095,2.0894391536712646
25, 8160, 8181, 8148, 8154, 8133, 8117, 8173, 8156, 8147, 8133, 8112, 8179, 8164, 8098,2.0978643894195557
25, 8160, 8181, 8148, 8154, 8133, 8117, 8173, 8156, 8147, 8133, 8112, 8179, 8164, 8098,2.0978643894195557
26, 8145, 8156, 8140, 8145, 8134, 8104, 8178, 8148, 8072, 8145, 8122, 8143, 8160, 8099,2.1055233478546143
26, 8145, 8156, 8140, 8145, 8134, 8104, 8178, 8148, 8072, 8145, 8122, 8143, 8160, 8099,2.1055233478546143
27, 8165, 8178, 8147, 8152, 8122, 8121, 8175, 8153, 8140, 8136, 8124, 8184, 8172, 8115,2.113537073135376
27, 8165, 8178, 8147, 8152, 8122, 8121, 8175, 8153, 8140, 8136, 8124, 8184, 8172, 8115,2.113537073135376
28, 8155, 8173, 8142, 8156, 8135, 8126, 8181, 8159, 8121, 8148, 8138, 8169, 8166, 8110,2.12153959274292
28, 8155, 8173, 8142, 8156, 8135, 8126, 8181, 8159, 8121, 8148, 8138, 8169, 8166, 8110,2.12153959274292
29, 8177, 8175, 8158, 8172, 8166, 8140, 8193, 8165, 8117, 8170, 8145, 8155, 8168, 8125,2.128539562225342
29, 8177, 8175, 8158, 8172, 8166, 8140, 8193, 8165, 8117, 8170, 8145, 8155, 8168, 8125,2.128539562225342
30, 8171, 8175, 8169, 8162, 8155, 8137, 8182, 8165, 8188, 8149, 8132, 8180, 8177, 8116,2.1370482444763184
30, 8171, 8175, 8169, 8162, 8155, 8137, 8182, 8165, 8188, 8149, 8132, 8180, 8177, 8116,2.1370482444763184
31, 8137, 8145, 8141, 8141, 8148, 8125, 8183, 8159, 8082, 8149, 8128, 8130, 8158, 8080,2.1450469493865967
31, 8137, 8145, 8141, 8141, 8148, 8125, 8183, 8159, 8082, 8149, 8128, 8130, 8158, 8080,2.1450469493865967
32, 8173, 8187, 8152, 8161, 8151, 8144, 8185, 8171, 8146, 8145, 8116, 8163, 8163, 8092,2.1528820991516113
32, 8173, 8187, 8152, 8161, 8151, 8144, 8185, 8171, 8146, 8145, 8116, 8163, 8163, 8092,2.1528820991516113
33, 8150, 8176, 8151, 8146, 8154, 8120, 8186, 8164, 8135, 8138, 8118, 8154, 8160, 8092,2.1604068279266357
33, 8150, 8176, 8151, 8146, 8154, 8120, 8186, 8164, 8135, 8138, 8118, 8154, 8160, 8092,2.1604068279266357
34, 8141, 8155, 8140, 8142, 8148, 8107, 8184, 8154, 8068, 8136, 8113, 8133, 8156, 8082,2.1683998107910156
34, 8141, 8155, 8140, 8142, 8148, 8107, 8184, 8154, 8068, 8136, 8113, 8133, 8156, 8082,2.1683998107910156
35, 8162, 8177, 8142, 8154, 8140, 8118, 8180, 8155, 8143, 8123, 8097, 8173, 8164, 8085,2.1768383979797363
35, 8162, 8177, 8142, 8154, 8140, 8118, 8180, 8155, 8143, 8123, 8097, 8173, 8164, 8085,2.1768383979797363
36, 8139, 8163, 8131, 8142, 8157, 8113, 8185, 8146, 8074, 8141, 8115, 8137, 8152, 8084,2.1848814487457275
36, 8139, 8163, 8131, 8142, 8157, 8113, 8185, 8146, 8074, 8141, 8115, 8137, 8152, 8084,2.1848814487457275
37, 8159, 8184, 8156, 8158, 8153, 8128, 8171, 8159, 8137, 8144, 8115, 8169, 8167, 8100,2.1918816566467285
37, 8159, 8184, 8156, 8158, 8153, 8128, 8171, 8159, 8137, 8144, 8115, 8169, 8167, 8100,2.1918816566467285
38, 8156, 8168, 8157, 8145, 8149, 8120, 8170, 8155, 8142, 8139, 8097, 8168, 8167, 8090,2.1998817920684814
38, 8156, 8168, 8157, 8145, 8149, 8120, 8170, 8155, 8142, 8139, 8097, 8168, 8167, 8090,2.1998817920684814
39, 8140, 8148, 8142, 8129, 8159, 8117, 8170, 8139, 8069, 8142, 8103, 8144, 8160, 8091,2.207852363586426
39, 8140, 8148, 8142, 8129, 8159, 8117, 8170, 8139, 8069, 8142, 8103, 8144, 8160, 8091,2.207852363586426
40, 8147, 8176, 8153, 8146, 8149, 8129, 8160, 8155, 8175, 8144, 8118, 8188, 8179, 8108,2.2158658504486084
40, 8147, 8176, 8153, 8146, 8149, 8129, 8160, 8155, 8175, 8144, 8118, 8188, 8179, 8108,2.2158658504486084
41, 8154, 8157, 8138, 8140, 8153, 8118, 8181, 8159, 8125, 8168, 8129, 8148, 8166, 8102,2.223900318145752
41, 8154, 8157, 8138, 8140, 8153, 8118, 8181, 8159, 8125, 8168, 8129, 8148, 8166, 8102,2.223900318145752
42, 8174, 8167, 8138, 8133, 8145, 8121, 8174, 8147, 8132, 8148, 8115, 8165, 8160, 8102,2.231882095336914
42, 8174, 8167, 8138, 8133, 8145, 8121, 8174, 8147, 8132, 8148, 8115, 8165, 8160, 8102,2.231882095336914
43, 8138, 8156, 8136, 8120, 8132, 8115, 8157, 8140, 8120, 8128, 8108, 8171, 8162, 8085,2.239881992340088
43, 8138, 8156, 8136, 8120, 8132, 8115, 8157, 8140, 8120, 8128, 8108, 8171, 8162, 8085,2.239881992340088
44, 8133, 8143, 8125, 8125, 8137, 8126, 8174, 8147, 8054, 8143, 8111, 8141, 8160, 8080,2.2479424476623535
44, 8133, 8143, 8125, 8125, 8137, 8126, 8174, 8147, 8054, 8143, 8111, 8141, 8160, 8080,2.2479424476623535
45, 8159, 8179, 8141, 8143, 8133, 8139, 8174, 8157, 8154, 8144, 8106, 8181, 8169, 8094,2.254939079284668
45, 8159, 8179, 8141, 8143, 8133, 8139, 8174, 8157, 8154, 8144, 8106, 8181, 8169, 8094,2.2559313774108887
46, 8144, 8163, 8147, 8143, 8150, 8120, 8181, 8159, 8114, 8173, 8131, 8153, 8168, 8092,2.262882947921753
46, 8144, 8163, 8147, 8143, 8150, 8120, 8181, 8159, 8114, 8173, 8131, 8153, 8168, 8092,2.262882947921753
47, 8173, 8170, 8165, 8164, 8153, 8133, 8177, 8167, 8152, 8177, 8136, 8171, 8175, 8106,2.270880937576294
47, 8173, 8170, 8165, 8164, 8153, 8133, 8177, 8167, 8152, 8177, 8136, 8171, 8175, 8106,2.270880937576294
48, 8177, 8173, 8164, 8160, 8139, 8132, 8167, 8157, 8174, 8153, 8116, 8177, 8163, 8100,2.2788808345794678
48, 8177, 8173, 8164, 8160, 8139, 8132, 8167, 8157, 8174, 8153, 8116, 8177, 8163, 8100,2.2794477939605713
49, 8160, 8160, 8155, 8148, 8158, 8127, 8183, 8156, 8102, 8163, 8122, 8144, 8157, 8096,2.2866947650909424
49, 8160, 8160, 8155, 8148, 8158, 8127, 8183, 8156, 8102, 8163, 8122, 8144, 8157, 8096,2.2866947650909424
50, 8169, 8170, 8165, 8151, 8161, 8142, 8179, 8177, 8200, 8165, 8121, 8187, 8175, 8102,2.2952942848205566
50, 8169, 8170, 8165, 8151, 8161, 8142, 8179, 8177, 8200, 8165, 8121, 8187, 8175, 8102,2.2952942848205566
51, 8148, 8134, 8142, 8134, 8155, 8126, 8176, 8155, 8116, 8162, 8121, 8148, 8161, 8085,2.3032963275909424
51, 8148, 8134, 8142, 8134, 8155, 8126, 8176, 8155, 8116, 8162, 8121, 8148, 8161, 8085,2.3032963275909424
52, 8150, 8157, 8151, 8147, 8150, 8136, 8172, 8146, 8106, 8149, 8123, 8155, 8166, 8094,2.3108811378479004
52, 8150, 8157, 8151, 8147, 8150, 8136, 8172, 8146, 8106, 8149, 8123, 8155, 8166, 8094,2.3108811378479004
53, 8143, 8177, 8158, 8152, 8149, 8134, 8167, 8161, 8167, 8139, 8115, 8178, 8173, 8088,2.318880558013916
53, 8143, 8177, 8158, 8152, 8149, 8134, 8167, 8161, 8167, 8139, 8115, 8178, 8173, 8088,2.318880558013916
54, 8148, 8157, 8143, 8147, 8165, 8115, 8174, 8160, 8089, 8159, 8121, 8143, 8156, 8082,2.325880765914917
54, 8148, 8157, 8143, 8147, 8165, 8115, 8174, 8160, 8089, 8159, 8121, 8143, 8156, 8082,2.325880765914917
55, 8184, 8186, 8167, 8168, 8166, 8123, 8169, 8170, 8188, 8162, 8126, 8190, 8169, 8107,2.333954095840454
55, 8184, 8186, 8167, 8168, 8166, 8123, 8169, 8170, 8188, 8162, 8126, 8190, 8169, 8107,2.333954095840454
56, 8166, 8162, 8161, 8161, 8173, 8110, 8182, 8167, 8175, 8177, 8128, 8165, 8167, 8106,2.3419525623321533
56, 8166, 8162, 8161, 8161, 8173, 8110, 8182, 8167, 8175, 8177, 8128, 8165, 8167, 8106,2.3419525623321533
57, 8169, 8163, 8165, 8160, 8179, 8122, 8190, 8171, 8173, 8186, 8135, 8162, 8167, 8113,2.349982976913452
57, 8169, 8163, 8165, 8160, 8179, 8122, 8190, 8171, 8173, 8186, 8135, 8162, 8167, 8113,2.349982976913452
58, 8179, 8185, 8182, 8170, 8181, 8133, 8190, 8185, 8236, 8185, 8151, 8191, 8175, 8116,2.3578805923461914
58, 8179, 8185, 8182, 8170, 8181, 8133, 8190, 8185, 8236, 8185, 8151, 8191, 8175, 8116,2.3578805923461914
59, 8181, 8167, 8175, 8176, 8198, 8120, 8203, 8177, 8168, 8203, 8163, 8153, 8171, 8121,2.3659019470214844
59, 8181, 8167, 8175, 8176, 8198, 8120, 8203, 8177, 8168, 8203, 8163, 8153, 8171, 8121,2.3659019470214844
60, 8199, 8191, 8191, 8184, 8187, 8125, 8186, 8173, 8248, 8182, 8147, 8195, 8179, 8139,2.3738999366760254
60, 8199, 8191, 8191, 8184, 8187, 8125, 8186, 8173, 8248, 8182, 8147, 8195, 8179, 8139,2.3738999366760254
61, 8177, 8177, 8178, 8160, 8182, 8110, 8183, 8173, 8199, 8172, 8145, 8177, 8165, 8125,2.382025957107544
61, 8177, 8177, 8178, 8160, 8182, 8110, 8183, 8173, 8199, 8172, 8145, 8177, 8165, 8125,2.382025957107544
62, 8187, 8174, 8170, 8161, 8188, 8113, 8195, 8178, 8169, 8185, 8152, 8164, 8165, 8126,2.388880491256714
62, 8187, 8174, 8170, 8161, 8188, 8113, 8195, 8178, 8169, 8185, 8152, 8164, 8165, 8126,2.388880491256714
63, 8183, 8181, 8175, 8165, 8180, 8109, 8185, 8177, 8246, 8180, 8142, 8184, 8173, 8114,2.396894931793213
63, 8183, 8181, 8175, 8165, 8180, 8109, 8185, 8177, 8246, 8180, 8142, 8184, 8173, 8114,2.396894931793213
64, 8167, 8157, 8162, 8150, 8190, 8097, 8192, 8162, 8149, 8185, 8146, 8143, 8153, 8099,2.4049339294433594
64, 8167, 8157, 8162, 8150, 8190, 8097, 8192, 8162, 8149, 8185, 8146, 8143, 8153, 8099,2.4049339294433594
65, 8199, 8192, 8187, 8167, 8186, 8118, 8191, 8173, 8213, 8173, 8151, 8191, 8168, 8126,2.413268566131592
65, 8199, 8192, 8187, 8167, 8186, 8118, 8191, 8173, 8213, 8173, 8151, 8191, 8168, 8126,2.413268566131592
66, 8180, 8181, 8190, 8166, 8184, 8106, 8193, 8185, 8225, 8185, 8160, 8178, 8171, 8125,2.421286106109619
66, 8180, 8181, 8190, 8166, 8184, 8106, 8193, 8185, 8225, 8185, 8160, 8178, 8171, 8125,2.421286106109619
67, 8177, 8171, 8182, 8169, 8195, 8109, 8201, 8183, 8192, 8197, 8162, 8153, 8164, 8121,2.428882360458374
67, 8177, 8171, 8182, 8169, 8195, 8109, 8201, 8183, 8192, 8197, 8162, 8153, 8164, 8121,2.428882360458374
68, 8185, 8190, 8186, 8173, 8188, 8118, 8197, 8174, 8240, 8173, 8148, 8188, 8171, 8121,2.4368443489074707
68, 8185, 8190, 8186, 8173, 8188, 8118, 8197, 8174, 8240, 8173, 8148, 8188, 8171, 8121,2.4368443489074707
69, 8160, 8163, 8172, 8158, 8192, 8096, 8199, 8157, 8133, 8174, 8149, 8151, 8156, 8108,2.4444921016693115
69, 8160, 8163, 8172, 8158, 8192, 8096, 8199, 8157, 8133, 8174, 8149, 8151, 8156, 8108,2.4444921016693115
70, 8166, 8174, 8178, 8160, 8184, 8093, 8180, 8159, 8168, 8158, 8139, 8175, 8157, 8107,2.452497720718384
70, 8166, 8174, 8178, 8160, 8184, 8093, 8180, 8159, 8168, 8158, 8139, 8175, 8157, 8107,2.452497720718384
71, 8155, 8163, 8170, 8155, 8181, 8086, 8180, 8156, 8156, 8149, 8132, 8164, 8154, 8096,2.459507465362549
71, 8155, 8163, 8170, 8155, 8181, 8086, 8180, 8156, 8156, 8149, 8132, 8164, 8154, 8096,2.459507465362549
72, 8177, 8162, 8177, 8171, 8193, 8096, 8191, 8151, 8120, 8163, 8140, 8154, 8155, 8111,2.468357563018799
72, 8177, 8162, 8177, 8171, 8193, 8096, 8191, 8151, 8120, 8163, 8140, 8154, 8155, 8111,2.468357563018799
73, 8196, 8193, 8196, 8177, 8187, 8099, 8184, 8160, 8220, 8162, 8142, 8209, 8172, 8134,2.476351499557495
73, 8196, 8193, 8196, 8177, 8187, 8099, 8184, 8160, 8220, 8162, 8142, 8209, 8172, 8134,2.476351499557495
74, 8181, 8169, 8185, 8159, 8202, 8088, 8199, 8160, 8148, 8183, 8160, 8171, 8167, 8139,2.483947992324829
74, 8181, 8169, 8185, 8159, 8202, 8088, 8199, 8160, 8148, 8183, 8160, 8171, 8167, 8139,2.483947992324829
75, 8202, 8179, 8196, 8171, 8204, 8110, 8197, 8168, 8197, 8176, 8157, 8183, 8171, 8154,2.491391897201538
75, 8202, 8179, 8196, 8171, 8204, 8110, 8197, 8168, 8197, 8176, 8157, 8183, 8171, 8154,2.492382764816284
76, 8167, 8164, 8175, 8163, 8191, 8100, 8183, 8165, 8201, 8158, 8141, 8170, 8161, 8122,2.499269723892212
76, 8167, 8164, 8175, 8163, 8191, 8100, 8183, 8165, 8201, 8158, 8141, 8170, 8161, 8122,2.500263214111328
77, 8157, 8156, 8158, 8166, 8201, 8096, 8188, 8161, 8128, 8171, 8139, 8141, 8154, 8104,2.5072622299194336
77, 8157, 8156, 8158, 8166, 8201, 8096, 8188, 8161, 8128, 8171, 8139, 8141, 8154, 8104,2.5082623958587646
78, 8191, 8194, 8197, 8192, 8208, 8113, 8194, 8177, 8240, 8182, 8146, 8195, 8177, 8133,2.5158746242523193
78, 8191, 8194, 8197, 8192, 8208, 8113, 8194, 8177, 8240, 8182, 8146, 8195, 8177, 8133,2.5158746242523193
79, 8180, 8174, 8207, 8189, 8221, 8103, 8214, 8175, 8213, 8201, 8164, 8170, 8168, 8143,2.5225982666015625
79, 8180, 8174, 8207, 8189, 8221, 8103, 8214, 8175, 8213, 8201, 8164, 8170, 8168, 8143,2.5225982666015625
80, 8205, 8183, 8214, 8199, 8218, 8119, 8214, 8176, 8242, 8183, 8156, 8186, 8166, 8149,2.5306358337402344
80, 8205, 8183, 8214, 8199, 8218, 8119, 8214, 8176, 8242, 8183, 8156, 8186, 8166, 8149,2.5306358337402344
81, 8201, 8181, 8213, 8204, 8216, 8119, 8205, 8169, 8237, 8166, 8158, 8191, 8167, 8139,2.538628339767456
81, 8201, 8181, 8213, 8204, 8216, 8119, 8205, 8169, 8237, 8166, 8158, 8191, 8167, 8139,2.538628339767456
82, 8196, 8176, 8211, 8209, 8232, 8114, 8217, 8168, 8170, 8182, 8184, 8162, 8165, 8148,2.546844720840454
82, 8196, 8176, 8211, 8209, 8232, 8114, 8217, 8168, 8170, 8182, 8184, 8162, 8165, 8148,2.546844720840454
83, 8213, 8207, 8227, 8215, 8227, 8125, 8207, 8181, 8261, 8167, 8171, 8200, 8174, 8160,2.554718255996704
83, 8213, 8207, 8227, 8215, 8227, 8125, 8207, 8181, 8261, 8167, 8171, 8200, 8174, 8160,2.554718255996704
84, 8182, 8174, 8196, 8188, 8234, 8112, 8199, 8163, 8173, 8161, 8148, 8156, 8156, 8133,2.5627174377441406
84, 8182, 8174, 8196, 8188, 8234, 8112, 8199, 8163, 8173, 8161, 8148, 8156, 8156, 8133,2.5627174377441406
85, 8187, 8179, 8184, 8186, 8230, 8122, 8198, 8161, 8180, 8160, 8134, 8165, 8157, 8134,2.5707192420959473
85, 8187, 8179, 8184, 8186, 8230, 8122, 8198, 8161, 8180, 8160, 8134, 8165, 8157, 8134,2.5707192420959473
86, 8181, 8179, 8190, 8184, 8213, 8122, 8204, 8181, 8243, 8162, 8132, 8186, 8166, 8130,2.5788817405700684
86, 8181, 8179, 8190, 8184, 8213, 8122, 8204, 8181, 8243, 8162, 8132, 8186, 8166, 8130,2.5788817405700684
87, 8184, 8156, 8194, 8189, 8221, 8120, 8218, 8184, 8182, 8188, 8148, 8160, 8165, 8133,2.5862512588500977
87, 8184, 8156, 8194, 8189, 8221, 8120, 8218, 8184, 8182, 8188, 8148, 8160, 8165, 8133,2.5862512588500977
88, 8214, 8192, 8221, 8212, 8216, 8133, 8200, 8178, 8263, 8180, 8151, 8205, 8176, 8157,2.5938808917999268
88, 8214, 8192, 8221, 8212, 8216, 8133, 8200, 8178, 8263, 8180, 8151, 8205, 8176, 8157,2.5938808917999268
89, 8187, 8176, 8202, 8198, 8214, 8116, 8189, 8162, 8183, 8162, 8152, 8161, 8157, 8136,2.6013123989105225
89, 8187, 8176, 8202, 8198, 8214, 8116, 8189, 8162, 8183, 8162, 8152, 8161, 8157, 8136,2.602234363555908
90, 8186, 8169, 8183, 8196, 8211, 8131, 8186, 8160, 8140, 8140, 8134, 8154, 8156, 8117,2.6092400550842285
90, 8186, 8169, 8183, 8196, 8211, 8131, 8186, 8160, 8140, 8140, 8134, 8154, 8156, 8117,2.6092400550842285
91, 8177, 8164, 8176, 8188, 8203, 8135, 8180, 8155, 8170, 8128, 8117, 8177, 8168, 8108,2.618248462677002
91, 8177, 8164, 8176, 8188, 8203, 8135, 8180, 8155, 8170, 8128, 8117, 8177, 8168, 8108,2.618248462677002
92, 8155, 8144, 8170, 8176, 8213, 8127, 8182, 8148, 8096, 8153, 8135, 8140, 8161, 8109,2.625244617462158
92, 8155, 8144, 8170, 8176, 8213, 8127, 8182, 8148, 8096, 8153, 8135, 8140, 8161, 8109,2.625244617462158
93, 8186, 8184, 8197, 8202, 8211, 8149, 8181, 8167, 8210, 8161, 8141, 8190, 8171, 8136,2.6337521076202393
93, 8186, 8184, 8197, 8202, 8211, 8149, 8181, 8167, 8210, 8161, 8141, 8190, 8171, 8136,2.6342601776123047
94, 8192, 8176, 8200, 8200, 8227, 8136, 8200, 8169, 8207, 8177, 8153, 8179, 8169, 8145,2.6412694454193115
94, 8192, 8176, 8200, 8200, 8227, 8136, 8200, 8169, 8207, 8177, 8153, 8179, 8169, 8145,2.6412694454193115
95, 8196, 8177, 8206, 8199, 8232, 8133, 8195, 8173, 8205, 8181, 8167, 8172, 8170, 8152,2.648266077041626
95, 8196, 8177, 8206, 8199, 8232, 8133, 8195, 8173, 8205, 8181, 8167, 8172, 8170, 8152,2.648266077041626
96, 8189, 8187, 8203, 8194, 8207, 8134, 8184, 8187, 8268, 8170, 8151, 8190, 8170, 8146,2.6562659740448
96, 8189, 8187, 8203, 8194, 8207, 8134, 8184, 8187, 8268, 8170, 8151, 8190, 8170, 8146,2.6562659740448
97, 8177, 8153, 8173, 8173, 8204, 8116, 8206, 8175, 8162, 8172, 8135, 8148, 8156, 8142,2.6642680168151855
97, 8177, 8153, 8173, 8173, 8204, 8116, 8206, 8175, 8162, 8172, 8135, 8148, 8156, 8142,2.6642680168151855
98, 8178, 8165, 8177, 8171, 8188, 8121, 8184, 8166, 8205, 8143, 8126, 8187, 8166, 8143,2.6722655296325684
98, 8178, 8165, 8177, 8171, 8188, 8121, 8184, 8166, 8205, 8143, 8126, 8187, 8166, 8143,2.6722655296325684
99, 8151, 8153, 8167, 8164, 8184, 8112, 8170, 8157, 8165, 8143, 8131, 8167, 8159, 8115,2.6802661418914795
99, 8151, 8153, 8167, 8164, 8184, 8112, 8170, 8157, 8165, 8143, 8131, 8167, 8159, 8115,2.6812665462493896
100, 8171, 8158, 8177, 8181, 8198, 8125, 8183, 8151, 8135, 8159, 8139, 8157, 8162, 8123,2.6892707347869873
100, 8171, 8158, 8177, 8181, 8198, 8125, 8183, 8151, 8135, 8159, 8139, 8157, 8162, 8123,2.6892707347869873
101, 8177, 8171, 8192, 8178, 8195, 8134, 8168, 8154, 8210, 8146, 8135, 8191, 8174, 8133,2.696939468383789
101, 8177, 8171, 8192, 8178, 8195, 8134, 8168, 8154, 8210, 8146, 8135, 8191, 8174, 8133,2.696939468383789
102, 8160, 8146, 8174, 8161, 8200, 8126, 8169, 8153, 8120, 8158, 8138, 8154, 8156, 8123,2.704190731048584
102, 8160, 8146, 8174, 8161, 8200, 8126, 8169, 8153, 8120, 8158, 8138, 8154, 8156, 8123,2.7051899433135986
103, 8198, 8176, 8194, 8185, 8200, 8144, 8174, 8159, 8185, 8151, 8130, 8198, 8164, 8139,2.7131896018981934
103, 8198, 8176, 8194, 8185, 8200, 8144, 8174, 8159, 8185, 8151, 8130, 8198, 8164, 8139,2.7131896018981934
104, 8174, 8166, 8199, 8185, 8205, 8135, 8174, 8148, 8182, 8145, 8140, 8189, 8165, 8135,2.7198827266693115
104, 8174, 8166, 8199, 8185, 8205, 8135, 8174, 8148, 8182, 8145, 8140, 8189, 8165, 8135,2.7198827266693115
105, 8154, 8159, 8197, 8187, 8213, 8144, 8173, 8155, 8150, 8158, 8153, 8164, 8160, 8140,2.727874994277954
105, 8154, 8159, 8197, 8187, 8213, 8144, 8173, 8155, 8150, 8158, 8153, 8164, 8160, 8140,2.727874994277954
106, 8168, 8183, 8196, 8195, 8191, 8153, 8170, 8177, 8241, 8149, 8128, 8198, 8165, 8144,2.735975980758667
106, 8168, 8183, 8196, 8195, 8191, 8153, 8170, 8177, 8241, 8149, 8128, 8198, 8165, 8144,2.735975980758667
107, 8167, 8153, 8172, 8180, 8183, 8132, 8181, 8155, 8144, 8152, 8117, 8158, 8152, 8130,2.743971347808838
107, 8167, 8153, 8172, 8180, 8183, 8132, 8181, 8155, 8144, 8152, 8117, 8158, 8152, 8130,2.743971347808838
108, 8195, 8173, 8199, 8191, 8186, 8154, 8175, 8154, 8188, 8153, 8133, 8193, 8171, 8158,2.7518765926361084
108, 8195, 8173, 8199, 8191, 8186, 8154, 8175, 8154, 8188, 8153, 8133, 8193, 8171, 8158,2.7518765926361084
109, 8176, 8176, 8218, 8191, 8199, 8161, 8180, 8174, 8227, 8173, 8162, 8199, 8180, 8168,2.7595903873443604
109, 8176, 8176, 8218, 8191, 8199, 8161, 8180, 8174, 8227, 8173, 8162, 8199, 8180, 8168,2.7595903873443604
110, 8175, 8170, 8207, 8196, 8201, 8155, 8185, 8176, 8188, 8192, 8164, 8170, 8165, 8159,2.76788067817688
110, 8175, 8170, 8207, 8196, 8201, 8155, 8185, 8176, 8188, 8192, 8164, 8170, 8165, 8159,2.76788067817688
111, 8195, 8184, 8195, 8194, 8163, 8146, 8162, 8157, 8225, 8160, 8125, 8194, 8164, 8141,2.775986909866333
111, 8195, 8184, 8195, 8194, 8163, 8146, 8162, 8157, 8225, 8160, 8125, 8194, 8164, 8141,2.775986909866333
112, 8160, 8142, 8169, 8158, 8152, 8125, 8155, 8127, 8085, 8133, 8113, 8147, 8154, 8119,2.782987356185913
112, 8160, 8142, 8169, 8158, 8152, 8125, 8155, 8127, 8085, 8133, 8113, 8147, 8154, 8119,2.782987356185913
113, 8158, 8153, 8176, 8161, 8147, 8144, 8148, 8140, 8107, 8116, 8113, 8170, 8159, 8128,2.790881872177124
113, 8158, 8153, 8176, 8161, 8147, 8144, 8148, 8140, 8107, 8116, 8113, 8170, 8159, 8128,2.790881872177124
114, 8147, 8155, 8164, 8164, 8137, 8139, 8154, 8155, 8144, 8126, 8117, 8181, 8162, 8118,2.7988805770874023
114, 8147, 8155, 8164, 8164, 8137, 8139, 8154, 8155, 8144, 8126, 8117, 8181, 8162, 8118,2.7988805770874023
115, 8150, 8148, 8152, 8163, 8143, 8131, 8167, 8154, 8091, 8149, 8131, 8157, 8167, 8119,2.8070125579833984
115, 8150, 8148, 8152, 8163, 8143, 8131, 8167, 8154, 8091, 8149, 8131, 8157, 8167, 8119,2.8070125579833984
116, 8168, 8180, 8179, 8174, 8132, 8145, 8153, 8169, 8186, 8139, 8125, 8193, 8176, 8133,2.814573049545288
116, 8168, 8180, 8179, 8174, 8132, 8145, 8153, 8169, 8186, 8139, 8125, 8193, 8176, 8133,2.814573049545288
117, 8157, 8158, 8175, 8166, 8137, 8139, 8161, 8169, 8135, 8156, 8132, 8157, 8162, 8126,2.8225927352905273
117, 8157, 8158, 8175, 8166, 8137, 8139, 8161, 8169, 8135, 8156, 8132, 8157, 8162, 8126,2.8225927352905273
118, 8182, 8168, 8183, 8179, 8142, 8152, 8169, 8169, 8168, 8157, 8140, 8182, 8173, 8141,2.8308825492858887
118, 8182, 8168, 8183, 8179, 8142, 8152, 8169, 8169, 8168, 8157, 8140, 8182, 8173, 8141,2.8308825492858887
119, 8181, 8173, 8185, 8180, 8138, 8139, 8159, 8158, 8181, 8142, 8133, 8190, 8172, 8137,2.838573694229126
119, 8181, 8173, 8185, 8180, 8138, 8139, 8159, 8158, 8181, 8142, 8133, 8190, 8172, 8137,2.838573694229126
120, 8177, 8164, 8168, 8172, 8153, 8130, 8159, 8144, 8085, 8148, 8136, 8150, 8157, 8137,2.845583438873291
120, 8177, 8164, 8168, 8172, 8153, 8130, 8159, 8144, 8085, 8148, 8136, 8150, 8157, 8137,2.845583438873291
121, 8181, 8191, 8181, 8180, 8153, 8150, 8157, 8164, 8193, 8139, 8140, 8199, 8168, 8155,2.853882074356079
121, 8181, 8191, 8181, 8180, 8153, 8150, 8157, 8164, 8193, 8139, 8140, 8199, 8168, 8155,2.853882074356079
122, 8158, 8166, 8173, 8176, 8152, 8137, 8170, 8170, 8160, 8158, 8146, 8171, 8164, 8150,2.8618805408477783
122, 8158, 8166, 8173, 8176, 8152, 8137, 8170, 8170, 8160, 8158, 8146, 8171, 8164, 8150,2.86259388923645
123, 8176, 8171, 8174, 8185, 8143, 8138, 8160, 8163, 8157, 8164, 8145, 8178, 8176, 8151,2.870229482650757
123, 8176, 8171, 8174, 8185, 8143, 8138, 8160, 8163, 8157, 8164, 8145, 8178, 8176, 8151,2.870229482650757
124, 8162, 8178, 8172, 8179, 8135, 8145, 8141, 8160, 8198, 8152, 8157, 8195, 8178, 8134,2.877228021621704
124, 8162, 8178, 8172, 8179, 8135, 8145, 8141, 8160, 8198, 8152, 8157, 8195, 8178, 8134,2.878227710723877
125, 8161, 8167, 8171, 8184, 8153, 8154, 8162, 8161, 8130, 8169, 8168, 8155, 8160, 8133,2.885880947113037
125, 8161, 8167, 8171, 8184, 8153, 8154, 8162, 8161, 8130, 8169, 8168, 8155, 8160, 8133,2.8863651752471924
126, 8195, 8198, 8199, 8206, 8160, 8166, 8161, 8167, 8214, 8158, 8156, 8198, 8173, 8151,2.893880844116211
126, 8195, 8198, 8199, 8206, 8160, 8166, 8161, 8167, 8214, 8158, 8156, 8198, 8173, 8151,2.893880844116211
127, 8161, 8170, 8182, 8185, 8163, 8142, 8151, 8153, 8150, 8153, 8166, 8170, 8166, 8122,2.901880979537964
127, 8161, 8170, 8182, 8185, 8163, 8142, 8151, 8153, 8150, 8153, 8166, 8170, 8166, 8122,2.901880979537964
239, 8172, 8169, 8176, 8185, 8155, 8148, 8150, 8151, 8131, 8154, 8169, 8170, 8165, 8126,2.9088809490203857
239, 8172, 8169, 8176, 8185, 8155, 8148, 8150, 8151, 8131, 8154, 8169, 8170, 8165, 8126,2.9088809490203857
0, 8189, 8182, 8202, 8195, 8153, 8151, 8156, 8164, 8212, 8158, 8173, 8205, 8177, 8152,2.9169235229492188
0, 8189, 8182, 8202, 8195, 8153, 8151, 8156, 8164, 8212, 8158, 8173, 8205, 8177, 8152,2.9169235229492188
1, 8179, 8165, 8203, 8193, 8178, 8142, 8175, 8170, 8164, 8187, 8197, 8161, 8172, 8154,2.9249367713928223
1, 8179, 8165, 8203, 8193, 8178, 8142, 8175, 8170, 8164, 8187, 8197, 8161, 8172, 8154,2.9249367713928223
2, 8199, 8195, 8198, 8198, 8169, 8154, 8163, 8173, 8241, 8175, 8184, 8187, 8176, 8157,2.9331254959106445
2, 8199, 8195, 8198, 8198, 8169, 8154, 8163, 8173, 8241, 8175, 8184, 8187, 8176, 8157,2.9331254959106445
3, 8173, 8169, 8176, 8176, 8167, 8139, 8156, 8158, 8188, 8163, 8172, 8168, 8166, 8141,2.9411263465881348
3, 8173, 8169, 8176, 8176, 8167, 8139, 8156, 8158, 8188, 8163, 8172, 8168, 8166, 8141,2.9411263465881348
4, 8175, 8164, 8183, 8185, 8175, 8140, 8159, 8157, 8163, 8166, 8169, 8162, 8166, 8143,2.948881149291992
4, 8175, 8164, 8183, 8185, 8175, 8140, 8159, 8157, 8163, 8166, 8169, 8162, 8166, 8143,2.948881149291992
5, 8179, 8184, 8190, 8194, 8168, 8137, 8151, 8162, 8223, 8154, 8148, 8184, 8170, 8139,2.9572813510894775
5, 8179, 8184, 8190, 8194, 8168, 8137, 8151, 8162, 8223, 8154, 8148, 8184, 8170, 8139,2.9572813510894775
6, 8163, 8166, 8169, 8178, 8184, 8133, 8160, 8153, 8129, 8163, 8152, 8148, 8155, 8127,2.964949131011963
6, 8163, 8166, 8169, 8178, 8184, 8133, 8160, 8153, 8129, 8163, 8152, 8148, 8155, 8127,2.964949131011963
7, 8191, 8192, 8190, 8183, 8180, 8157, 8154, 8157, 8211, 8162, 8164, 8191, 8171, 8146,2.9729552268981934
7, 8191, 8192, 8190, 8183, 8180, 8157, 8154, 8157, 8211, 8162, 8164, 8191, 8171, 8146,2.9729552268981934
8, 8172, 8168, 8184, 8173, 8163, 8137, 8145, 8147, 8187, 8162, 8169, 8170, 8170, 8140,2.9799749851226807
8, 8172, 8168, 8184, 8173, 8163, 8137, 8145, 8147, 8187, 8162, 8169, 8170, 8170, 8140,2.9799749851226807
9, 8166, 8156, 8173, 8180, 8161, 8135, 8142, 8145, 8128, 8161, 8171, 8163, 8164, 8140,2.987907648086548
9, 8166, 8156, 8173, 8180, 8161, 8135, 8142, 8145, 8128, 8161, 8171, 8163, 8164, 8140,2.987907648086548
10, 8171, 8181, 8181, 8185, 8153, 8141, 8136, 8154, 8204, 8140, 8163, 8204, 8167, 8138,2.995882034301758
10, 8171, 8181, 8181, 8185, 8153, 8141, 8136, 8154, 8204, 8140, 8163, 8204, 8167, 8138,2.995882034301758
11, 8154, 8161, 8170, 8168, 8156, 8126, 8141, 8140, 8112, 8140, 8163, 8149, 8154, 8121,3.004033088684082
11, 8154, 8161, 8170, 8168, 8156, 8126, 8141, 8140, 8112, 8140, 8163, 8149, 8154, 8121,3.004033088684082
12, 8183, 8179, 8184, 8178, 8151, 8148, 8134, 8147, 8155, 8133, 8155, 8178, 8169, 8133,3.0114073753356934
12, 8183, 8179, 8184, 8178, 8151, 8148, 8134, 8147, 8155, 8133, 8155, 8178, 8169, 8133,3.0114073753356934
13, 8185, 8167, 8180, 8173, 8162, 8148, 8153, 8157, 8173, 8152, 8169, 8183, 8170, 8139,3.0194175243377686
13, 8185, 8167, 8180, 8173, 8162, 8148, 8153, 8157, 8173, 8152, 8169, 8183, 8170, 8139,3.0194175243377686
14, 8182, 8160, 8172, 8175, 8177, 8148, 8165, 8155, 8147, 8168, 8183, 8163, 8162, 8148,3.0278804302215576
14, 8182, 8160, 8172, 8175, 8177, 8148, 8165, 8155, 8147, 8168, 8183, 8163, 8162, 8148,3.0278804302215576
15, 8173, 8181, 8174, 8179, 8160, 8151, 8140, 8156, 8213, 8136, 8154, 8193, 8167, 8139,3.0359396934509277
15, 8173, 8181, 8174, 8179, 8160, 8151, 8140, 8156, 8213, 8136, 8154, 8193, 8167, 8139,3.0359396934509277
16, 8148, 8152, 8154, 8160, 8160, 8129, 8143, 8151, 8115, 8141, 8149, 8158, 8157, 8122,3.042506217956543
16, 8148, 8152, 8154, 8160, 8160, 8129, 8143, 8151, 8115, 8141, 8149, 8158, 8157, 8122,3.042506217956543
17, 8170, 8165, 8168, 8173, 8158, 8132, 8141, 8163, 8175, 8153, 8164, 8191, 8169, 8142,3.05049729347229
17, 8170, 8165, 8168, 8173, 8158, 8132, 8141, 8163, 8175, 8153, 8164, 8191, 8169, 8142,3.05049729347229
18, 8158, 8157, 8161, 8169, 8155, 8121, 8132, 8156, 8188, 8158, 8171, 8185, 8170, 8135,3.05888295173645
18, 8158, 8157, 8161, 8169, 8155, 8121, 8132, 8156, 8188, 8158, 8171, 8185, 8170, 8135,3.05888295173645
19, 8146, 8145, 8142, 8160, 8163, 8123, 8134, 8140, 8104, 8158, 8168, 8151, 8160, 8120,3.0668323040008545
19, 8146, 8145, 8142, 8160, 8163, 8123, 8134, 8140, 8104, 8158, 8168, 8151, 8160, 8120,3.0668323040008545
20, 8149, 8171, 8151, 8167, 8157, 8138, 8131, 8153, 8184, 8138, 8154, 8189, 8171, 8114,3.0748424530029297
20, 8149, 8171, 8151, 8167, 8157, 8138, 8131, 8153, 8184, 8138, 8154, 8189, 8171, 8114,3.0748424530029297
21, 8136, 8148, 8147, 8160, 8166, 8119, 8145, 8151, 8112, 8144, 8162, 8157, 8167, 8108,3.082841157913208
21, 8136, 8148, 8147, 8160, 8166, 8119, 8145, 8151, 8112, 8144, 8162, 8157, 8167, 8108,3.082841157913208
22, 8165, 8166, 8173, 8172, 8160, 8123, 8142, 8150, 8144, 8134, 8169, 8185, 8171, 8132,3.090850830078125
22, 8165, 8166, 8173, 8172, 8160, 8123, 8142, 8150, 8144, 8134, 8169, 8185, 8171, 8132,3.090850830078125
23, 8170, 8176, 8178, 8170, 8150, 8117, 8141, 8156, 8181, 8136, 8170, 8189, 8165, 8133,3.0988879203796387
23, 8170, 8176, 8178, 8170, 8150, 8117, 8141, 8156, 8181, 8136, 8170, 8189, 8165, 8133,3.0988879203796387
24, 8177, 8161, 8163, 8165, 8170, 8116, 8157, 8152, 8119, 8157, 8179, 8149, 8164, 8132,3.106743812561035
24, 8177, 8161, 8163, 8165, 8170, 8116, 8157, 8152, 8119, 8157, 8179, 8149, 8164, 8132,3.106743812561035
25, 8183, 8177, 8175, 8167, 8163, 8132, 8148, 8154, 8205, 8138, 8183, 8196, 8179, 8140,3.1137444972991943
25, 8183, 8177, 8175, 8167, 8163, 8132, 8148, 8154, 8205, 8138, 8183, 8196, 8179, 8140,3.1137444972991943
26, 8159, 8158, 8160, 8157, 8158, 8119, 8150, 8150, 8149, 8141, 8186, 8170, 8161, 8130,3.1218810081481934
26, 8159, 8158, 8160, 8157, 8158, 8119, 8150, 8150, 8149, 8141, 8186, 8170, 8161, 8130,3.1218810081481934
27, 8186, 8182, 8170, 8176, 8162, 8125, 8144, 8159, 8173, 8153, 8182, 8182, 8168, 8149,3.1298763751983643
27, 8186, 8182, 8170, 8176, 8162, 8125, 8144, 8159, 8173, 8153, 8182, 8182, 8168, 8149,3.1298763751983643
28, 8184, 8183, 8178, 8173, 8164, 8120, 8141, 8160, 8209, 8158, 8189, 8194, 8178, 8151,3.137880802154541
28, 8184, 8183, 8178, 8173, 8164, 8120, 8141, 8160, 8209, 8158, 8189, 8194, 8178, 8151,3.137880802154541
29, 8186, 8160, 8177, 8168, 8181, 8113, 8159, 8153, 8135, 8181, 8202, 8162, 8166, 8154,3.1463117599487305
29, 8186, 8160, 8177, 8168, 8181, 8113, 8159, 8153, 8135, 8181, 8202, 8162, 8166, 8154,3.1463117599487305
30, 8218, 8198, 8204, 8192, 8183, 8132, 8145, 8166, 8231, 8175, 8196, 8205, 8177, 8175,3.1543169021606445
30, 8218, 8198, 8204, 8192, 8183, 8132, 8145, 8166, 8231, 8175, 8196, 8205, 8177, 8175,3.1543169021606445
31, 8191, 8182, 8193, 8184, 8188, 8131, 8142, 8166, 8179, 8178, 8203, 8171, 8172, 8160,3.162071466445923
31, 8191, 8182, 8193, 8184, 8188, 8131, 8142, 8166, 8179, 8178, 8203, 8171, 8172, 8160,3.162071466445923
32, 8198, 8186, 8190, 8181, 8185, 8141, 8149, 8164, 8177, 8178, 8200, 8178, 8173, 8164,3.1700680255889893
32, 8198, 8186, 8190, 8181, 8185, 8141, 8149, 8164, 8177, 8178, 8200, 8178, 8173, 8164,3.1700680255889893
33, 8196, 8189, 8193, 8180, 8180, 8127, 8146, 8163, 8224, 8177, 8192, 8198, 8176, 8161,3.1780691146850586
33, 8196, 8189, 8193, 8180, 8180, 8127, 8146, 8163, 8224, 8177, 8192, 8198, 8176, 8161,3.1780691146850586
34, 8187, 8168, 8178, 8179, 8194, 8114, 8157, 8160, 8143, 8202, 8197, 8157, 8163, 8149,3.185068130493164
34, 8187, 8168, 8178, 8179, 8194, 8114, 8157, 8160, 8143, 8202, 8197, 8157, 8163, 8149,3.185068130493164
35, 8205, 8196, 8189, 8188, 8186, 8127, 8149, 8167, 8234, 8188, 8184, 8199, 8173, 8158,3.193260908126831
35, 8205, 8196, 8189, 8188, 8186, 8127, 8149, 8167, 8234, 8188, 8184, 8199, 8173, 8158,3.193260908126831
36, 8173, 8172, 8175, 8169, 8181, 8103, 8141, 8159, 8186, 8181, 8182, 8171, 8169, 8142,3.2004165649414062
36, 8173, 8172, 8175, 8169, 8181, 8103, 8141, 8159, 8186, 8181, 8182, 8171, 8169, 8142,3.2004165649414062
37, 8179, 8173, 8177, 8174, 8179, 8111, 8144, 8161, 8161, 8188, 8189, 8168, 8170, 8153,3.208415985107422
37, 8179, 8173, 8177, 8174, 8179, 8111, 8144, 8161, 8161, 8188, 8189, 8168, 8170, 8153,3.208415985107422
38, 8186, 8191, 8186, 8183, 8171, 8126, 8152, 8171, 8241, 8192, 8194, 8205, 8173, 8165,3.216416835784912
38, 8186, 8191, 8186, 8183, 8171, 8126, 8152, 8171, 8241, 8192, 8194, 8205, 8173, 8165,3.216416835784912
39, 8169, 8169, 8176, 8179, 8188, 8125, 8165, 8161, 8169, 8214, 8202, 8170, 8161, 8160,3.224881649017334
39, 8169, 8169, 8176, 8179, 8188, 8125, 8165, 8161, 8169, 8214, 8202, 8170, 8161, 8160,3.224881649017334
40, 8182, 8185, 8192, 8193, 8194, 8141, 8154, 8165, 8228, 8195, 8182, 8196, 8170, 8156,3.232881784439087
40, 8182, 8185, 8192, 8193, 8194, 8141, 8154, 8165, 8228, 8195, 8182, 8196, 8170, 8156,3.232881784439087
41, 8161, 8163, 8182, 8182, 8199, 8125, 8156, 8163, 8188, 8185, 8182, 8167, 8158, 8136,3.240278720855713
41, 8161, 8163, 8182, 8182, 8199, 8125, 8156, 8163, 8188, 8185, 8182, 8167, 8158, 8136,3.241283655166626
42, 8173, 8172, 8177, 8178, 8201, 8124, 8157, 8157, 8154, 8193, 8193, 8164, 8158, 8145,3.247284173965454
42, 8173, 8172, 8177, 8178, 8201, 8124, 8157, 8157, 8154, 8193, 8193, 8164, 8158, 8145,3.248284101486206
43, 8181, 8197, 8193, 8180, 8193, 8125, 8143, 8154, 8220, 8182, 8188, 8205, 8174, 8149,3.2552921772003174
43, 8181, 8197, 8193, 8180, 8193, 8125, 8143, 8154, 8220, 8182, 8188, 8205, 8174, 8149,3.2562851905822754
44, 8162, 8160, 8188, 8179, 8199, 8116, 8152, 8149, 8138, 8192, 8197, 8158, 8162, 8133,3.2638819217681885
44, 8162, 8160, 8188, 8179, 8199, 8116, 8152, 8149, 8138, 8192, 8197, 8158, 8162, 8133,3.2638819217681885
45, 8183, 8174, 8189, 8190, 8182, 8130, 8147, 8160, 8195, 8182, 8172, 8178, 8164, 8136,3.2723159790039062
45, 8183, 8174, 8189, 8190, 8182, 8130, 8147, 8160, 8195, 8182, 8172, 8178, 8164, 8136,3.2723159790039062
46, 8168, 8169, 8166, 8162, 8178, 8108, 8143, 8143, 8139, 8160, 8140, 8157, 8154, 8115,3.279876232147217
46, 8168, 8169, 8166, 8162, 8178, 8108, 8143, 8143, 8139, 8160, 8140, 8157, 8154, 8115,3.279876232147217
47, 8157, 8161, 8170, 8158, 8196, 8109, 8142, 8131, 8083, 8148, 8159, 8145, 8158, 8112,3.2875802516937256
47, 8157, 8161, 8170, 8158, 8196, 8109, 8142, 8131, 8083, 8148, 8159, 8145, 8158, 8112,3.2885794639587402
48, 8163, 8175, 8194, 8178, 8193, 8130, 8138, 8155, 8206, 8160, 8185, 8198, 8179, 8132,3.2957613468170166
48, 8163, 8175, 8194, 8178, 8193, 8130, 8138, 8155, 8206, 8160, 8185, 8198, 8179, 8132,3.2957613468170166
49, 8160, 8153, 8176, 8162, 8204, 8113, 8156, 8158, 8150, 8201, 8193, 8167, 8167, 8148,3.3037614822387695
49, 8160, 8153, 8176, 8162, 8204, 8113, 8156, 8158, 8150, 8201, 8193, 8167, 8167, 8148,3.3037614822387695
50, 8175, 8174, 8179, 8161, 8194, 8113, 8147, 8155, 8186, 8184, 8190, 8194, 8164, 8151,3.310882568359375
50, 8175, 8174, 8179, 8161, 8194, 8113, 8147, 8155, 8186, 8184, 8190, 8194, 8164, 8151,3.310882568359375
51, 8145, 8165, 8173, 8152, 8181, 8107, 8140, 8150, 8168, 8158, 8182, 8175, 8155, 8118,3.3188812732696533
51, 8145, 8165, 8173, 8152, 8181, 8107, 8140, 8150, 8168, 8158, 8182, 8175, 8155, 8118,3.3188812732696533
52, 8143, 8156, 8170, 8152, 8199, 8124, 8160, 8157, 8120, 8173, 8171, 8149, 8153, 8117,3.3268449306488037
52, 8143, 8156, 8170, 8152, 8199, 8124, 8160, 8157, 8120, 8173, 8171, 8149, 8153, 8117,3.3268449306488037
53, 8166, 8179, 8183, 8159, 8198, 8134, 8161, 8174, 8227, 8177, 8174, 8204, 8170, 8140,3.334879159927368
53, 8166, 8179, 8183, 8159, 8198, 8134, 8161, 8174, 8227, 8177, 8174, 8204, 8170, 8140,3.334879159927368
54, 8159, 8155, 8170, 8151, 8198, 8107, 8161, 8161, 8151, 8193, 8195, 8170, 8160, 8141,3.3429195880889893
54, 8159, 8155, 8170, 8151, 8198, 8107, 8161, 8161, 8151, 8193, 8195, 8170, 8160, 8141,3.3429195880889893
55, 8185, 8180, 8192, 8173, 8202, 8123, 8156, 8164, 8195, 8190, 8193, 8192, 8173, 8165,3.350881338119507
55, 8185, 8180, 8192, 8173, 8202, 8123, 8156, 8164, 8195, 8190, 8193, 8192, 8173, 8165,3.350881338119507
56, 8173, 8177, 8198, 8168, 8201, 8120, 8159, 8172, 8234, 8187, 8192, 8196, 8176, 8172,3.358870029449463
56, 8173, 8177, 8198, 8168, 8201, 8120, 8159, 8172, 8234, 8187, 8192, 8196, 8176, 8172,3.358870029449463
57, 8168, 8155, 8182, 8157, 8197, 8109, 8162, 8167, 8163, 8197, 8205, 8163, 8161, 8173,3.36686635017395
57, 8168, 8155, 8182, 8157, 8197, 8109, 8162, 8167, 8163, 8197, 8205, 8163, 8161, 8173,3.36686635017395
58, 8193, 8182, 8197, 8168, 8190, 8117, 8150, 8170, 8239, 8189, 8197, 8207, 8169, 8187,3.373880624771118
58, 8193, 8182, 8197, 8168, 8190, 8117, 8150, 8170, 8239, 8189, 8197, 8207, 8169, 8187,3.373880624771118
59, 8177, 8159, 8188, 8155, 8212, 8106, 8160, 8158, 8173, 8196, 8197, 8173, 8159, 8177,3.381875514984131
59, 8177, 8159, 8188, 8155, 8212, 8106, 8160, 8158, 8173, 8196, 8197, 8173, 8159, 8177,3.381875514984131
60, 8178, 8167, 8181, 8157, 8207, 8114, 8152, 8154, 8174, 8182, 8192, 8180, 8160, 8166,3.3898684978485107
60, 8178, 8167, 8181, 8157, 8207, 8114, 8152, 8154, 8174, 8182, 8192, 8180, 8160, 8166,3.3898684978485107
61, 8161, 8174, 8176, 8150, 8189, 8114, 8149, 8165, 8196, 8181, 8189, 8186, 8161, 8148,3.397871494293213
61, 8161, 8174, 8176, 8150, 8189, 8114, 8149, 8165, 8196, 8181, 8189, 8186, 8161, 8148,3.397871494293213
62, 8160, 8163, 8177, 8150, 8201, 8122, 8172, 8171, 8145, 8201, 8187, 8159, 8157, 8148,3.405919313430786
62, 8160, 8163, 8177, 8150, 8201, 8122, 8172, 8171, 8145, 8201, 8187, 8159, 8157, 8148,3.405919313430786
63, 8173, 8186, 8189, 8163, 8188, 8130, 8158, 8173, 8220, 8175, 8170, 8201, 8167, 8152,3.4134836196899414
63, 8173, 8186, 8189, 8163, 8188, 8130, 8158, 8173, 8220, 8175, 8170, 8201, 8167, 8152,3.4134836196899414
64, 8146, 8162, 8170, 8151, 8185, 8108, 8158, 8169, 8146, 8181, 8180, 8165, 8156, 8130,3.421487808227539
64, 8146, 8162, 8170, 8151, 8185, 8108, 8158, 8169, 8146, 8181, 8180, 8165, 8156, 8130,3.42248272895813
65, 8168, 8171, 8186, 8161, 8193, 8123, 8168, 8179, 8181, 8201, 8182, 8173, 8165, 8144,3.4299864768981934
65, 8168, 8171, 8186, 8161, 8193, 8123, 8168, 8179, 8181, 8201, 8182, 8173, 8165, 8144,3.4299864768981934
66, 8161, 8171, 8188, 8158, 8194, 8126, 8160, 8171, 8226, 8193, 8168, 8187, 8170, 8143,3.436845302581787
66, 8161, 8171, 8188, 8158, 8194, 8126, 8160, 8171, 8226, 8193, 8168, 8187, 8170, 8143,3.436845302581787
67, 8154, 8157, 8176, 8153, 8217, 8125, 8168, 8158, 8134, 8201, 8186, 8161, 8162, 8146,3.444880962371826
67, 8154, 8157, 8176, 8153, 8217, 8125, 8168, 8158, 8134, 8201, 8186, 8161, 8162, 8146,3.444880962371826
68, 8190, 8192, 8207, 8169, 8217, 8146, 8170, 8176, 8246, 8204, 8197, 8212, 8179, 8177,3.452580213546753
68, 8190, 8192, 8207, 8169, 8217, 8146, 8170, 8176, 8246, 8204, 8197, 8212, 8179, 8177,3.452580213546753
69, 8168, 8162, 8189, 8151, 8202, 8122, 8166, 8175, 8203, 8215, 8197, 8177, 8168, 8162,3.460881233215332
69, 8168, 8162, 8189, 8151, 8202, 8122, 8166, 8175, 8203, 8215, 8197, 8177, 8168, 8162,3.460881233215332
70, 8171, 8164, 8180, 8155, 8189, 8120, 8157, 8169, 8176, 8206, 8191, 8179, 8164, 8159,3.468881130218506
70, 8171, 8164, 8180, 8155, 8189, 8120, 8157, 8169, 8176, 8206, 8191, 8179, 8164, 8159,3.468881130218506
71, 8170, 8180, 8191, 8159, 8182, 8122, 8156, 8167, 8224, 8183, 8177, 8201, 8168, 8156,3.4765450954437256
71, 8170, 8180, 8191, 8159, 8182, 8122, 8156, 8167, 8224, 8183, 8177, 8201, 8168, 8156,3.4765450954437256
72, 8159, 8154, 8173, 8144, 8188, 8110, 8167, 8160, 8127, 8196, 8174, 8151, 8158, 8141,3.484560489654541
72, 8159, 8154, 8173, 8144, 8188, 8110, 8167, 8160, 8127, 8196, 8174, 8151, 8158, 8141,3.4855551719665527
73, 8188, 8183, 8189, 8159, 8184, 8123, 8158, 8169, 8213, 8193, 8177, 8197, 8169, 8152,3.4928810596466064
73, 8188, 8183, 8189, 8159, 8184, 8123, 8158, 8169, 8213, 8193, 8177, 8197, 8169, 8152,3.4928810596466064
74, 8175, 8174, 8197, 8167, 8194, 8114, 8170, 8162, 8209, 8195, 8189, 8184, 8166, 8157,3.500880479812622
74, 8175, 8174, 8197, 8167, 8194, 8114, 8170, 8162, 8209, 8195, 8189, 8184, 8166, 8157,3.5015664100646973
75, 8180, 8175, 8196, 8168, 8192, 8127, 8178, 8159, 8188, 8193, 8188, 8178, 8168, 8173,3.5085723400115967
75, 8180, 8175, 8196, 8168, 8192, 8127, 8178, 8159, 8188, 8193, 8188, 8178, 8168, 8173,3.5085723400115967
76, 8181, 8180, 8185, 8153, 8170, 8137, 8158, 8159, 8230, 8174, 8174, 8204, 8172, 8170,3.5156948566436768
76, 8181, 8180, 8185, 8153, 8170, 8137, 8158, 8159, 8230, 8174, 8174, 8204, 8172, 8170,3.5156948566436768
77, 8167, 8153, 8168, 8144, 8177, 8123, 8164, 8147, 8128, 8184, 8173, 8157, 8157, 8153,3.523702621459961
77, 8167, 8153, 8168, 8144, 8177, 8123, 8164, 8147, 8128, 8184, 8173, 8157, 8157, 8153,3.523702621459961
78, 8186, 8181, 8184, 8163, 8169, 8129, 8164, 8164, 8196, 8179, 8164, 8192, 8170, 8160,3.53188157081604
78, 8186, 8181, 8184, 8163, 8169, 8129, 8164, 8164, 8196, 8179, 8164, 8192, 8170, 8160,3.53188157081604
79, 8163, 8169, 8169, 8146, 8159, 8116, 8164, 8172, 8184, 8185, 8169, 8173, 8168, 8148,3.540034770965576
79, 8163, 8169, 8169, 8146, 8159, 8116, 8164, 8172, 8184, 8185, 8169, 8173, 8168, 8148,3.540034770965576
80, 8175, 8165, 8169, 8151, 8164, 8124, 8175, 8164, 8164, 8198, 8175, 8160, 8166, 8159,3.54803466796875
80, 8175, 8165, 8169, 8151, 8164, 8124, 8175, 8164, 8164, 8198, 8175, 8160, 8166, 8159,3.54803466796875
81, 8193, 8183, 8188, 8169, 8156, 8132, 8169, 8164, 8236, 8187, 8167, 8203, 8172, 8171,3.5560877323150635
81, 8193, 8183, 8188, 8169, 8156, 8132, 8169, 8164, 8236, 8187, 8167, 8203, 8172, 8171,3.5560877323150635
82, 8168, 8155, 8171, 8153, 8162, 8115, 8169, 8161, 8137, 8195, 8180, 8164, 8160, 8166,3.564124584197998
82, 8168, 8155, 8171, 8153, 8162, 8115, 8169, 8161, 8137, 8195, 8180, 8164, 8160, 8166,3.564124584197998
83, 8174, 8170, 8172, 8155, 8156, 8124, 8161, 8168, 8186, 8186, 8177, 8190, 8171, 8175,3.570441484451294
83, 8174, 8170, 8172, 8155, 8156, 8124, 8161, 8168, 8186, 8186, 8177, 8190, 8171, 8175,3.570441484451294
84, 8159, 8158, 8163, 8146, 8149, 8119, 8172, 8165, 8162, 8182, 8168, 8180, 8167, 8149,3.57844614982605
84, 8159, 8158, 8163, 8146, 8149, 8119, 8172, 8165, 8162, 8182, 8168, 8180, 8167, 8149,3.57844614982605
85, 8171, 8156, 8163, 8152, 8156, 8133, 8183, 8162, 8105, 8184, 8174, 8162, 8162, 8144,3.5868453979492188
85, 8171, 8156, 8163, 8152, 8156, 8133, 8183, 8162, 8105, 8184, 8174, 8162, 8162, 8144,3.5868453979492188
86, 8185, 8178, 8175, 8159, 8149, 8144, 8168, 8169, 8195, 8169, 8170, 8199, 8173, 8160,3.594881296157837
86, 8185, 8178, 8175, 8159, 8149, 8144, 8168, 8169, 8195, 8169, 8170, 8199, 8173, 8160,3.594881296157837
87, 8170, 8153, 8158, 8148, 8158, 8120, 8179, 8164, 8134, 8194, 8183, 8167, 8165, 8159,3.6028811931610107
87, 8170, 8153, 8158, 8148, 8158, 8120, 8179, 8164, 8134, 8194, 8183, 8167, 8165, 8159,3.6028811931610107
88, 8204, 8183, 8181, 8168, 8157, 8129, 8183, 8177, 8209, 8202, 8193, 8204, 8179, 8179,3.6108691692352295
88, 8204, 8183, 8181, 8168, 8157, 8129, 8183, 8177, 8209, 8202, 8193, 8204, 8179, 8179,3.6108691692352295
89, 8195, 8179, 8183, 8164, 8155, 8135, 8183, 8181, 8221, 8192, 8184, 8197, 8173, 8177,3.6188788414001465
89, 8195, 8179, 8183, 8164, 8155, 8135, 8183, 8181, 8221, 8192, 8184, 8197, 8173, 8177,3.6188788414001465
90, 8191, 8157, 8167, 8157, 8156, 8144, 8191, 8170, 8147, 8195, 8173, 8161, 8158, 8175,3.626922130584717
90, 8191, 8157, 8167, 8157, 8156, 8144, 8191, 8170, 8147, 8195, 8173, 8161, 8158, 8175,3.626922130584717
91, 8208, 8184, 8185, 8168, 8146, 8150, 8187, 8173, 8248, 8188, 8178, 8209, 8173, 8182,3.6351938247680664
91, 8208, 8184, 8185, 8168, 8146, 8150, 8187, 8173, 8248, 8188, 8178, 8209, 8173, 8182,3.6351938247680664
92, 8188, 8173, 8188, 8169, 8167, 8150, 8195, 8174, 8210, 8209, 8205, 8177, 8169, 8176,3.6418814659118652
92, 8188, 8173, 8188, 8169, 8167, 8150, 8195, 8174, 8210, 8209, 8205, 8177, 8169, 8176,3.6418814659118652
93, 8199, 8181, 8190, 8179, 8164, 8179, 8188, 8178, 8233, 8205, 8187, 8184, 8170, 8177,3.649881362915039
93, 8199, 8181, 8190, 8179, 8164, 8179, 8188, 8178, 8233, 8205, 8187, 8184, 8170, 8177,3.649881362915039
94, 8182, 8160, 8175, 8164, 8146, 8168, 8189, 8168, 8218, 8186, 8174, 8182, 8168, 8159,3.6578807830810547
94, 8182, 8160, 8175, 8164, 8146, 8168, 8189, 8168, 8218, 8186, 8174, 8182, 8168, 8159,3.6578807830810547
95, 8184, 8155, 8175, 8169, 8161, 8167, 8206, 8175, 8171, 8203, 8202, 8162, 8171, 8161,3.6661269664764404
95, 8184, 8155, 8175, 8169, 8161, 8167, 8206, 8175, 8171, 8203, 8202, 8162, 8171, 8161,3.6661269664764404
96, 8214, 8192, 8194, 8188, 8159, 8183, 8198, 8196, 8287, 8206, 8197, 8206, 8182, 8170,3.6741299629211426
96, 8214, 8192, 8194, 8188, 8159, 8183, 8198, 8196, 8287, 8206, 8197, 8206, 8182, 8170,3.6741299629211426
97, 8181, 8151, 8163, 8155, 8159, 8155, 8195, 8178, 8184, 8203, 8181, 8156, 8161, 8145,3.6821346282958984
97, 8181, 8151, 8163, 8155, 8159, 8155, 8195, 8178, 8184, 8203, 8181, 8156, 8161, 8145,3.6821346282958984
98, 8185, 8162, 8166, 8155, 8159, 8160, 8186, 8175, 8185, 8188, 8180, 8175, 8164, 8156,3.690156936645508
98, 8185, 8162, 8166, 8155, 8159, 8160, 8186, 8175, 8185, 8188, 8180, 8175, 8164, 8156,3.690156936645508
99, 8195, 8177, 8182, 8164, 8153, 8159, 8184, 8181, 8240, 8182, 8181, 8203, 8173, 8168,3.6971492767333984
99, 8195, 8177, 8182, 8164, 8153, 8159, 8184, 8181, 8240, 8182, 8181, 8203, 8173, 8168,3.6971492767333984
100, 8188, 8151, 8170, 8157, 8154, 8153, 8194, 8168, 8155, 8200, 8186, 8162, 8164, 8157,3.7051494121551514
100, 8188, 8151, 8170, 8157, 8154, 8153, 8194, 8168, 8155, 8200, 8186, 8162, 8164, 8157,3.7051494121551514
101, 8194, 8172, 8178, 8164, 8154, 8175, 8185, 8175, 8239, 8192, 8186, 8200, 8171, 8157,3.713149309158325
101, 8194, 8172, 8178, 8164, 8154, 8175, 8185, 8175, 8239, 8192, 8186, 8200, 8171, 8157,3.713149309158325
102, 8174, 8152, 8164, 8153, 8168, 8165, 8194, 8174, 8197, 8195, 8188, 8172, 8161, 8151,3.720154285430908
102, 8174, 8152, 8164, 8153, 8168, 8165, 8194, 8174, 8197, 8195, 8188, 8172, 8161, 8151,3.7211523056030273
103, 8181, 8158, 8164, 8156, 8162, 8171, 8198, 8175, 8201, 8193, 8183, 8179, 8168, 8162,3.72815203666687
103, 8181, 8158, 8164, 8156, 8162, 8171, 8198, 8175, 8201, 8193, 8183, 8179, 8168, 8162,3.7291533946990967
104, 8181, 8175, 8174, 8156, 8158, 8175, 8199, 8190, 8274, 8204, 8193, 8202, 8177, 8167,3.7364542484283447
104, 8181, 8175, 8174, 8156, 8158, 8175, 8199, 8190, 8274, 8204, 8193, 8202, 8177, 8167,3.7364542484283447
105, 8184, 8159, 8170, 8155, 8187, 8172, 8218, 8191, 8216, 8226, 8206, 8166, 8162, 8168,3.744455575942993
105, 8184, 8159, 8170, 8155, 8187, 8172, 8218, 8191, 8216, 8226, 8206, 8166, 8162, 8168,3.744455575942993
106, 8196, 8173, 8181, 8163, 8167, 8183, 8200, 8183, 8264, 8195, 8181, 8199, 8166, 8163,3.7524595260620117
106, 8196, 8173, 8181, 8163, 8167, 8183, 8200, 8183, 8264, 8195, 8181, 8199, 8166, 8163,3.7524595260620117
107, 8170, 8150, 8164, 8148, 8149, 8159, 8187, 8166, 8190, 8198, 8183, 8168, 8164, 8140,3.7604563236236572
107, 8170, 8150, 8164, 8148, 8149, 8159, 8187, 8166, 8190, 8198, 8183, 8168, 8164, 8140,3.7604563236236572
108, 8189, 8161, 8165, 8160, 8169, 8165, 8197, 8177, 8200, 8213, 8201, 8175, 8177, 8165,3.7684571743011475
108, 8189, 8161, 8165, 8160, 8169, 8165, 8197, 8177, 8200, 8213, 8201, 8175, 8177, 8165,3.7684571743011475
109, 8183, 8171, 8162, 8161, 8172, 8178, 8196, 8191, 8273, 8192, 8179, 8196, 8177, 8167,3.77588152885437
109, 8183, 8171, 8162, 8161, 8172, 8178, 8196, 8191, 8273, 8192, 8179, 8196, 8177, 8167,3.776254177093506
110, 8156, 8145, 8141, 8146, 8171, 8176, 8206, 8179, 8164, 8194, 8161, 8143, 8157, 8143,3.7836363315582275
110, 8156, 8145, 8141, 8146, 8171, 8176, 8206, 8179, 8164, 8194, 8161, 8143, 8157, 8143,3.7836363315582275
111, 8178, 8172, 8160, 8158, 8170, 8192, 8210, 8185, 8241, 8197, 8171, 8188, 8179, 8163,3.7916362285614014
111, 8178, 8172, 8160, 8158, 8170, 8192, 8210, 8185, 8241, 8197, 8171, 8188, 8179, 8163,3.7916362285614014
112, 8161, 8149, 8158, 8155, 8178, 8180, 8221, 8194, 8243, 8219, 8190, 8181, 8177, 8165,3.7996480464935303
112, 8161, 8149, 8158, 8155, 8178, 8180, 8221, 8194, 8243, 8219, 8190, 8181, 8177, 8165,3.7996480464935303
113, 8179, 8151, 8161, 8165, 8180, 8186, 8229, 8204, 8231, 8231, 8178, 8173, 8164, 8166,3.8078649044036865
113, 8179, 8151, 8161, 8165, 8180, 8186, 8229, 8204, 8231, 8231, 8178, 8173, 8164, 8166,3.8078649044036865
114, 8196, 8182, 8173, 8167, 8173, 8188, 8225, 8201, 8288, 8212, 8160, 8200, 8168, 8165,3.8158957958221436
114, 8196, 8182, 8173, 8167, 8173, 8188, 8225, 8201, 8288, 8212, 8160, 8200, 8168, 8165,3.8158957958221436
115, 8173, 8160, 8158, 8150, 8179, 8171, 8229, 8176, 8185, 8208, 8183, 8160, 8163, 8160,3.8238961696624756
115, 8173, 8160, 8158, 8150, 8179, 8171, 8229, 8176, 8185, 8208, 8183, 8160, 8163, 8160,3.8238961696624756
116, 8183, 8183, 8177, 8163, 8163, 8181, 8205, 8181, 8249, 8191, 8191, 8197, 8176, 8171,3.8310418128967285
116, 8183, 8183, 8177, 8163, 8163, 8181, 8205, 8181, 8249, 8191, 8191, 8197, 8176, 8171,3.8310418128967285
117, 8173, 8175, 8177, 8165, 8176, 8181, 8207, 8193, 8248, 8201, 8187, 8185, 8173, 8162,3.838880777359009
117, 8173, 8175, 8177, 8165, 8176, 8181, 8207, 8193, 8248, 8201, 8187, 8185, 8173, 8162,3.838880777359009
118, 8201, 8172, 8170, 8169, 8198, 8194, 8237, 8203, 8228, 8228, 8187, 8171, 8171, 8177,3.846914529800415
118, 8201, 8172, 8170, 8169, 8198, 8194, 8237, 8203, 8228, 8228, 8187, 8171, 8171, 8177,3.846914529800415
119, 8205, 8185, 8182, 8162, 8175, 8191, 8227, 8203, 8305, 8219, 8185, 8208, 8178, 8189,3.85493803024292
119, 8205, 8185, 8182, 8162, 8175, 8191, 8227, 8203, 8305, 8219, 8185, 8208, 8178, 8189,3.85493803024292
120, 8157, 8157, 8178, 8154, 8179, 8173, 8215, 8189, 8215, 8222, 8204, 8169, 8173, 8183,3.8628664016723633
120, 8157, 8157, 8178, 8154, 8179, 8173, 8215, 8189, 8215, 8222, 8204, 8169, 8173, 8183,3.8628664016723633
121, 8180, 8184, 8196, 8191, 8187, 8197, 8210, 8199, 8283, 8222, 8206, 8202, 8183, 8205,3.8708698749542236
121, 8180, 8184, 8196, 8191, 8187, 8197, 8210, 8199, 8283, 8222, 8206, 8202, 8183, 8205,3.8708698749542236
122, 8197, 8183, 8196, 8188, 8182, 8182, 8219, 8198, 8296, 8230, 8205, 8198, 8175, 8206,3.8789501190185547
122, 8197, 8183, 8196, 8188, 8182, 8182, 8219, 8198, 8296, 8230, 8205, 8198, 8175, 8206,3.8789501190185547
123, 8206, 8182, 8192, 8178, 8194, 8171, 8219, 8185, 8232, 8232, 8213, 8171, 8166, 8210,3.8858835697174072
123, 8206, 8182, 8192, 8178, 8194, 8171, 8219, 8185, 8232, 8232, 8213, 8171, 8166, 8210,3.8858835697174072
124, 8212, 8208, 8199, 8187, 8201, 8183, 8202, 8182, 8289, 8199, 8193, 8198, 8171, 8208,3.8948771953582764
124, 8212, 8208, 8199, 8187, 8201, 8183, 8202, 8182, 8289, 8199, 8193, 8198, 8171, 8208,3.8948771953582764
125, 8191, 8172, 8177, 8169, 8203, 8171, 8210, 8169, 8183, 8193, 8180, 8153, 8157, 8184,3.901731014251709
125, 8191, 8172, 8177, 8169, 8203, 8171, 8210, 8169, 8183, 8193, 8180, 8153, 8157, 8184,3.901731014251709
126, 8204, 8180, 8184, 8167, 8189, 8180, 8203, 8173, 8209, 8184, 8175, 8183, 8168, 8189,3.9097304344177246
126, 8204, 8180, 8184, 8167, 8189, 8180, 8203, 8173, 8209, 8184, 8175, 8183, 8168, 8189,3.9097304344177246
127, 8197, 8179, 8182, 8168, 8184, 8174, 8200, 8175, 8225, 8181, 8173, 8182, 8170, 8181,3.917745351791382
127, 8197, 8179, 8182, 8168, 8184, 8174, 8200, 8175, 8225, 8181, 8173, 8182, 8170, 8181,3.917745351791382
239, 8193, 8158, 8174, 8169, 8193, 8169, 8208, 8168, 8159, 8188, 8167, 8147, 8161, 8176,3.925840139389038
239, 8193, 8158, 8174, 8169, 8193, 8169, 8208, 8168, 8159, 8188, 8167, 8147, 8161, 8176,3.925840139389038
0, 8194, 8168, 8186, 8168, 8185, 8176, 8190, 8175, 8232, 8170, 8159, 8199, 8170, 8181,3.9338812828063965
0, 8194, 8168, 8186, 8168, 8185, 8176, 8190, 8175, 8232, 8170, 8159, 8199, 8170, 8181,3.9338812828063965
1, 8175, 8151, 8173, 8160, 8199, 8175, 8193, 8175, 8164, 8186, 8188, 8176, 8162, 8178,3.9424076080322266
1, 8175, 8151, 8173, 8160, 8199, 8175, 8193, 8175, 8164, 8186, 8188, 8176, 8162, 8178,3.9424076080322266
2, 8209, 8180, 8183, 8179, 8201, 8199, 8198, 8179, 8205, 8190, 8192, 8192, 8174, 8192,3.949854612350464
2, 8209, 8180, 8183, 8179, 8201, 8199, 8198, 8179, 8205, 8190, 8192, 8192, 8174, 8192,3.949854612350464
3, 8205, 8180, 8181, 8173, 8192, 8193, 8200, 8176, 8232, 8176, 8173, 8189, 8174, 8181,3.9568521976470947
3, 8205, 8180, 8181, 8173, 8192, 8193, 8200, 8176, 8232, 8176, 8173, 8189, 8174, 8181,3.9568521976470947
4, 8195, 8162, 8174, 8173, 8206, 8186, 8206, 8172, 8153, 8183, 8173, 8152, 8161, 8168,3.964881658554077
4, 8195, 8162, 8174, 8173, 8206, 8186, 8206, 8172, 8153, 8183, 8173, 8152, 8161, 8168,3.964881658554077
5, 8208, 8190, 8191, 8187, 8208, 8194, 8187, 8181, 8242, 8168, 8162, 8199, 8173, 8163,3.9731104373931885
5, 8208, 8190, 8191, 8187, 8208, 8194, 8187, 8181, 8242, 8168, 8162, 8199, 8173, 8163,3.9731104373931885
6, 8179, 8165, 8172, 8167, 8221, 8179, 8194, 8173, 8181, 8175, 8163, 8165, 8165, 8145,3.9811508655548096
6, 8179, 8165, 8172, 8167, 8221, 8179, 8194, 8173, 8181, 8175, 8163, 8165, 8165, 8145,3.9811508655548096
7, 8198, 8179, 8179, 8183, 8224, 8206, 8213, 8182, 8207, 8187, 8170, 8172, 8169, 8166,3.988882064819336
7, 8198, 8179, 8179, 8183, 8224, 8206, 8213, 8182, 8207, 8187, 8170, 8172, 8169, 8166,3.988882064819336
8, 8207, 8193, 8191, 8194, 8214, 8213, 8217, 8193, 8261, 8186, 8166, 8188, 8169, 8176,3.9971678256988525
8, 8207, 8193, 8191, 8194, 8214, 8213, 8217, 8193, 8261, 8186, 8166, 8188, 8169, 8176,3.9971678256988525
9, 8197, 8171, 8180, 8181, 8225, 8197, 8213, 8183, 8172, 8186, 8171, 8158, 8159, 8172,4.004785537719727
9, 8197, 8171, 8180, 8181, 8225, 8197, 8213, 8183, 8172, 8186, 8171, 8158, 8159, 8172,4.004785537719727
10, 8206, 8190, 8193, 8189, 8220, 8210, 8201, 8193, 8253, 8171, 8173, 8202, 8176, 8185,4.011780261993408
10, 8206, 8190, 8193, 8189, 8220, 8210, 8201, 8193, 8253, 8171, 8173, 8202, 8176, 8185,4.011780261993408
11, 8182, 8167, 8174, 8178, 8219, 8203, 8216, 8189, 8209, 8188, 8179, 8165, 8169, 8172,4.019880771636963
11, 8182, 8167, 8174, 8178, 8219, 8203, 8216, 8189, 8209, 8188, 8179, 8165, 8169, 8172,4.019880771636963
12, 8197, 8170, 8173, 8179, 8214, 8204, 8216, 8188, 8202, 8192, 8176, 8167, 8169, 8175,4.027880907058716
12, 8197, 8170, 8173, 8179, 8214, 8204, 8216, 8188, 8202, 8192, 8176, 8167, 8169, 8175,4.027880907058716
13, 8193, 8177, 8177, 8176, 8201, 8196, 8203, 8193, 8246, 8177, 8171, 8190, 8175, 8177,4.035913944244385
13, 8193, 8177, 8177, 8176, 8201, 8196, 8203, 8193, 8246, 8177, 8171, 8190, 8175, 8177,4.03691291809082
14, 8175, 8161, 8163, 8162, 8209, 8190, 8213, 8175, 8142, 8182, 8173, 8149, 8164, 8163,4.043910980224609
14, 8175, 8161, 8163, 8162, 8209, 8190, 8213, 8175, 8142, 8182, 8173, 8149, 8164, 8163,4.043910980224609
15, 8195, 8187, 8179, 8172, 8197, 8205, 8205, 8167, 8204, 8165, 8162, 8190, 8170, 8161,4.051367521286011
15, 8195, 8187, 8179, 8172, 8197, 8205, 8205, 8167, 8204, 8165, 8162, 8190, 8170, 8161,4.051367521286011
16, 8179, 8167, 8171, 8171, 8197, 8192, 8207, 8174, 8175, 8170, 8172, 8167, 8165, 8158,4.059380292892456
16, 8179, 8167, 8171, 8171, 8197, 8192, 8207, 8174, 8175, 8170, 8172, 8167, 8165, 8158,4.059380292892456
17, 8192, 8168, 8173, 8179, 8216, 8207, 8219, 8195, 8183, 8185, 8175, 8166, 8169, 8175,4.0673744678497314
17, 8192, 8168, 8173, 8179, 8216, 8207, 8219, 8195, 8183, 8185, 8175, 8166, 8169, 8175,4.068373918533325
18, 8191, 8176, 8180, 8174, 8213, 8212, 8218, 8201, 8246, 8177, 8159, 8198, 8177, 8165,4.075883865356445
18, 8191, 8176, 8180, 8174, 8213, 8212, 8218, 8201, 8246, 8177, 8159, 8198, 8177, 8165,4.075883865356445
19, 8169, 8149, 8165, 8165, 8215, 8189, 8227, 8186, 8152, 8193, 8171, 8160, 8166, 8157,4.083881855010986
19, 8169, 8149, 8165, 8165, 8215, 8189, 8227, 8186, 8152, 8193, 8171, 8160, 8166, 8157,4.083881855010986
20, 8194, 8186, 8183, 8183, 8214, 8199, 8212, 8191, 8240, 8190, 8181, 8200, 8179, 8186,4.090851306915283
20, 8194, 8186, 8183, 8183, 8214, 8199, 8212, 8191, 8240, 8190, 8181, 8200, 8179, 8186,4.090851306915283
21, 8173, 8172, 8176, 8167, 8212, 8188, 8198, 8184, 8219, 8186, 8182, 8182, 8169, 8176,4.0988452434539795
21, 8173, 8172, 8176, 8167, 8212, 8188, 8198, 8184, 8219, 8186, 8182, 8182, 8169, 8176,4.0988452434539795
22, 8163, 8158, 8163, 8164, 8208, 8183, 8203, 8186, 8175, 8191, 8184, 8165, 8162, 8172,4.106844663619995
22, 8163, 8158, 8163, 8164, 8208, 8183, 8203, 8186, 8175, 8191, 8184, 8165, 8162, 8172,4.106844663619995
23, 8174, 8182, 8175, 8176, 8200, 8189, 8207, 8200, 8261, 8192, 8182, 8201, 8172, 8176,4.114881753921509
23, 8174, 8182, 8175, 8176, 8200, 8189, 8207, 8200, 8261, 8192, 8182, 8201, 8172, 8176,4.114881753921509
24, 8171, 8170, 8180, 8171, 8206, 8182, 8211, 8185, 8182, 8199, 8183, 8166, 8162, 8165,4.122861385345459
24, 8171, 8170, 8180, 8171, 8206, 8182, 8211, 8185, 8182, 8199, 8183, 8166, 8162, 8165,4.122861385345459
25, 8187, 8188, 8192, 8176, 8194, 8189, 8194, 8179, 8212, 8169, 8167, 8191, 8169, 8169,4.129875421524048
25, 8187, 8188, 8192, 8176, 8194, 8189, 8194, 8179, 8212, 8169, 8167, 8191, 8169, 8169,4.1313371658325195
26, 8166, 8165, 8170, 8158, 8189, 8173, 8197, 8182, 8177, 8170, 8167, 8170, 8167, 8156,4.138881206512451
26, 8166, 8165, 8170, 8158, 8189, 8173, 8197, 8182, 8177, 8170, 8167, 8170, 8167, 8156,4.138881206512451
27, 8173, 8153, 8164, 8155, 8195, 8180, 8206, 8182, 8133, 8187, 8175, 8154, 8167, 8162,4.147346019744873
27, 8173, 8153, 8164, 8155, 8195, 8180, 8206, 8182, 8133, 8187, 8175, 8154, 8167, 8162,4.147346019744873
28, 8169, 8177, 8185, 8162, 8188, 8193, 8187, 8180, 8229, 8162, 8171, 8203, 8177, 8172,4.154876470565796
28, 8169, 8177, 8185, 8162, 8188, 8193, 8187, 8180, 8229, 8162, 8171, 8203, 8177, 8172,4.154876470565796
29, 8151, 8158, 8175, 8153, 8203, 8184, 8192, 8177, 8159, 8172, 8173, 8163, 8166, 8160,4.1618812084198
29, 8151, 8158, 8175, 8153, 8203, 8184, 8192, 8177, 8159, 8172, 8173, 8163, 8166, 8160,4.1618812084198
30, 8191, 8179, 8183, 8163, 8198, 8196, 8193, 8183, 8190, 8168, 8155, 8182, 8173, 8170,4.169485569000244
30, 8191, 8179, 8183, 8163, 8198, 8196, 8193, 8183, 8190, 8168, 8155, 8182, 8173, 8170,4.170513868331909
31, 8170, 8169, 8180, 8158, 8189, 8188, 8195, 8174, 8183, 8155, 8161, 8179, 8168, 8162,4.177509307861328
31, 8170, 8169, 8180, 8158, 8189, 8188, 8195, 8174, 8183, 8155, 8161, 8179, 8168, 8162,4.177509307861328
32, 8176, 8170, 8186, 8171, 8208, 8197, 8212, 8182, 8164, 8181, 8182, 8171, 8165, 8170,4.1858811378479
32, 8176, 8170, 8186, 8171, 8208, 8197, 8212, 8182, 8164, 8181, 8182, 8171, 8165, 8170,4.1858811378479
33, 8219, 8198, 8212, 8186, 8211, 8206, 8208, 8199, 8266, 8178, 8164, 8220, 8179, 8189,4.193868160247803
33, 8219, 8198, 8212, 8186, 8211, 8206, 8208, 8199, 8266, 8178, 8164, 8220, 8179, 8189,4.193868160247803
34, 8192, 8162, 8197, 8167, 8216, 8183, 8205, 8177, 8158, 8162, 8157, 8163, 8166, 8170,4.201868534088135
34, 8192, 8162, 8197, 8167, 8216, 8183, 8205, 8177, 8158, 8162, 8157, 8163, 8166, 8170,4.201868534088135
35, 8208, 8180, 8206, 8176, 8211, 8201, 8197, 8174, 8184, 8153, 8160, 8181, 8175, 8178,4.209887504577637
35, 8208, 8180, 8206, 8176, 8211, 8201, 8197, 8174, 8184, 8153, 8160, 8181, 8175, 8178,4.209887504577637
36, 8211, 8186, 8210, 8172, 8210, 8202, 8204, 8185, 8223, 8165, 8171, 8204, 8177, 8194,4.217891693115234
36, 8211, 8186, 8210, 8172, 8210, 8202, 8204, 8185, 8223, 8165, 8171, 8204, 8177, 8194,4.217891693115234
37, 8196, 8172, 8205, 8174, 8227, 8207, 8226, 8194, 8173, 8187, 8183, 8180, 8169, 8209,4.2248921394348145
37, 8196, 8172, 8205, 8174, 8227, 8207, 8226, 8194, 8173, 8187, 8183, 8180, 8169, 8209,4.2248921394348145
38, 8209, 8195, 8223, 8187, 8219, 8223, 8223, 8208, 8278, 8183, 8176, 8210, 8180, 8216,4.232412338256836
38, 8209, 8195, 8223, 8187, 8219, 8223, 8223, 8208, 8278, 8183, 8176, 8210, 8180, 8216,4.232412338256836
39, 8202, 8172, 8208, 8170, 8219, 8203, 8218, 8194, 8208, 8189, 8179, 8172, 8169, 8204,4.240851879119873
39, 8202, 8172, 8208, 8170, 8219, 8203, 8218, 8194, 8208, 8189, 8179, 8172, 8169, 8204,4.240851879119873
40, 8218, 8191, 8209, 8180, 8217, 8213, 8208, 8188, 8212, 8176, 8175, 8189, 8173, 8213,4.248396158218384
40, 8218, 8191, 8209, 8180, 8217, 8213, 8208, 8188, 8212, 8176, 8175, 8189, 8173, 8213,4.248396158218384
41, 8217, 8197, 8211, 8183, 8217, 8218, 8214, 8195, 8245, 8178, 8170, 8197, 8177, 8202,4.256396293640137
41, 8217, 8197, 8211, 8183, 8217, 8218, 8214, 8195, 8245, 8178, 8170, 8197, 8177, 8202,4.256396293640137
42, 8229, 8180, 8211, 8182, 8226, 8210, 8230, 8197, 8180, 8202, 8184, 8169, 8167, 8200,4.26488184928894
42, 8229, 8180, 8211, 8182, 8226, 8210, 8230, 8197, 8180, 8202, 8184, 8169, 8167, 8200,4.26488184928894
43, 8257, 8214, 8237, 8207, 8207, 8216, 8213, 8197, 8266, 8181, 8179, 8217, 8177, 8212,4.272258281707764
43, 8257, 8214, 8237, 8207, 8207, 8216, 8213, 8197, 8266, 8181, 8179, 8217, 8177, 8212,4.273252725601196
44, 8232, 8192, 8221, 8193, 8205, 8210, 8219, 8180, 8192, 8183, 8178, 8179, 8170, 8197,4.280263662338257
44, 8232, 8192, 8221, 8193, 8205, 8210, 8219, 8180, 8192, 8183, 8178, 8179, 8170, 8197,4.281252145767212
45, 8227, 8191, 8213, 8178, 8206, 8235, 8223, 8189, 8198, 8188, 8191, 8186, 8176, 8210,4.2878804206848145
45, 8227, 8191, 8213, 8178, 8206, 8235, 8223, 8189, 8198, 8188, 8191, 8186, 8176, 8210,4.2878804206848145
46, 8220, 8202, 8218, 8182, 8200, 8234, 8215, 8211, 8280, 8195, 8211, 8217, 8186, 8222,4.295881271362305
46, 8220, 8202, 8218, 8182, 8200, 8234, 8215, 8211, 8280, 8195, 8211, 8217, 8186, 8222,4.295881271362305
47, 8235, 8190, 8216, 8196, 8219, 8221, 8242, 8209, 8222, 8231, 8225, 8187, 8177, 8228,4.303783893585205
47, 8235, 8190, 8216, 8196, 8219, 8221, 8242, 8209, 8222, 8231, 8225, 8187, 8177, 8228,4.303783893585205
48, 8252, 8207, 8231, 8203, 8220, 8245, 8249, 8213, 8299, 8221, 8212, 8220, 8184, 8231,4.311778545379639
48, 8252, 8207, 8231, 8203, 8220, 8245, 8249, 8213, 8299, 8221, 8212, 8220, 8184, 8231,4.311778545379639
49, 8204, 8179, 8218, 8197, 8220, 8242, 8245, 8218, 8269, 8222, 8220, 8186, 8176, 8208,4.319880962371826
49, 8204, 8179, 8218, 8197, 8220, 8242, 8245, 8218, 8269, 8222, 8220, 8186, 8176, 8208,4.319880962371826
50, 8238, 8196, 8230, 8227, 8224, 8252, 8249, 8229, 8294, 8249, 8231, 8197, 8179, 8225,4.327791213989258
50, 8238, 8196, 8230, 8227, 8224, 8252, 8249, 8229, 8294, 8249, 8231, 8197, 8179, 8225,4.327791213989258
51, 8270, 8220, 8245, 8231, 8223, 8255, 8252, 8223, 8358, 8251, 8226, 8225, 8178, 8236,4.335882186889648
51, 8270, 8220, 8245, 8231, 8223, 8255, 8252, 8223, 8358, 8251, 8226, 8225, 8178, 8236,4.335882186889648
52, 8242, 8193, 8228, 8215, 8232, 8242, 8253, 8204, 8259, 8244, 8226, 8176, 8168, 8215,4.343880891799927
52, 8242, 8193, 8228, 8215, 8232, 8242, 8253, 8204, 8259, 8244, 8226, 8176, 8168, 8215,4.343880891799927
53, 8253, 8209, 8233, 8230, 8214, 8252, 8243, 8212, 8319, 8224, 8208, 8213, 8179, 8205,4.351881742477417
53, 8253, 8209, 8233, 8230, 8214, 8252, 8243, 8212, 8319, 8224, 8208, 8213, 8179, 8205,4.351881742477417
54, 8239, 8186, 8215, 8214, 8208, 8238, 8253, 8204, 8264, 8223, 8209, 8194, 8168, 8191,4.35886549949646
54, 8239, 8186, 8215, 8214, 8208, 8238, 8253, 8204, 8264, 8223, 8209, 8194, 8168, 8191,4.35886549949646
55, 8235, 8182, 8216, 8212, 8213, 8243, 8247, 8196, 8223, 8218, 8222, 8190, 8169, 8203,4.366863489151001
55, 8235, 8182, 8216, 8212, 8213, 8243, 8247, 8196, 8223, 8218, 8222, 8190, 8169, 8203,4.366863489151001
56, 8239, 8201, 8231, 8223, 8205, 8244, 8231, 8204, 8297, 8212, 8215, 8224, 8180, 8207,4.374881029129028
56, 8239, 8201, 8231, 8223, 8205, 8244, 8231, 8204, 8297, 8212, 8215, 8224, 8180, 8207,4.374881029129028
57, 8231, 8175, 8214, 8213, 8220, 8227, 8248, 8198, 8218, 8234, 8214, 8177, 8169, 8195,4.38279914855957
57, 8231, 8175, 8214, 8213, 8220, 8227, 8248, 8198, 8218, 8234, 8214, 8177, 8169, 8195,4.38279914855957
58, 8234, 8193, 8221, 8214, 8214, 8238, 8233, 8198, 8273, 8214, 8210, 8202, 8176, 8207,4.390790700912476
58, 8234, 8193, 8221, 8214, 8214, 8238, 8233, 8198, 8273, 8214, 8210, 8202, 8176, 8207,4.390790700912476
59, 8211, 8182, 8217, 8198, 8202, 8227, 8225, 8192, 8238, 8201, 8213, 8189, 8170, 8206,4.398881673812866
59, 8211, 8182, 8217, 8198, 8202, 8227, 8225, 8192, 8238, 8201, 8213, 8189, 8170, 8206,4.398881673812866
60, 8234, 8183, 8216, 8206, 8210, 8233, 8246, 8198, 8205, 8211, 8225, 8181, 8171, 8215,4.406838655471802
60, 8234, 8183, 8216, 8206, 8210, 8233, 8246, 8198, 8205, 8211, 8225, 8181, 8171, 8215,4.406838655471802
61, 8243, 8202, 8225, 8223, 8209, 8237, 8245, 8209, 8299, 8201, 8220, 8213, 8183, 8211,4.414851903915405
61, 8243, 8202, 8225, 8223, 8209, 8237, 8245, 8209, 8299, 8201, 8220, 8213, 8183, 8211,4.414851903915405
62, 8215, 8176, 8210, 8214, 8215, 8223, 8241, 8194, 8210, 8208, 8206, 8168, 8161, 8187,4.42186713218689
62, 8215, 8176, 8210, 8214, 8215, 8223, 8241, 8194, 8210, 8208, 8206, 8168, 8161, 8187,4.42186713218689
63, 8238, 8192, 8226, 8217, 8205, 8238, 8230, 8192, 8239, 8192, 8192, 8206, 8164, 8188,4.429794549942017
63, 8238, 8192, 8226, 8217, 8205, 8238, 8230, 8192, 8239, 8192, 8192, 8206, 8164, 8188,4.429794549942017
64, 8227, 8182, 8220, 8203, 8202, 8229, 8236, 8186, 8219, 8183, 8201, 8204, 8172, 8175,4.437876224517822
64, 8227, 8182, 8220, 8203, 8202, 8229, 8236, 8186, 8219, 8183, 8201, 8204, 8172, 8175,4.437876224517822
65, 8219, 8178, 8213, 8205, 8215, 8231, 8251, 8180, 8169, 8193, 8209, 8178, 8168, 8179,4.445899248123169
65, 8219, 8178, 8213, 8205, 8215, 8231, 8251, 8180, 8169, 8193, 8209, 8178, 8168, 8179,4.445899248123169
66, 8228, 8203, 8228, 8222, 8213, 8242, 8254, 8200, 8261, 8191, 8206, 8226, 8178, 8198,4.453902721405029
66, 8228, 8203, 8228, 8222, 8213, 8242, 8254, 8200, 8261, 8191, 8206, 8226, 8178, 8198,4.453902721405029
67, 8224, 8178, 8220, 8220, 8221, 8229, 8260, 8202, 8202, 8218, 8231, 8199, 8177, 8210,4.4615819454193115
