COUNTER,F3,FC5,AF3,F7,T7,P7,O1,O2,P8,T8,F8,AF4,FC6,F4,Timestamp
51,8171,8177,8130,8183,8181,8223,8193,8174,8237,8192,8197,8205,8172,8149,0.0071973800659179
52,8166,8158,8114,8174,8184,8219,8203,8169,8165,8194,8186,8176,8155,8143,0.0151965618133544
53,8178,8169,8123,8179,8188,8235,8192,8165,8158,8185,8172,8181,8161,8145,0.0231969356536865
54,8165,8172,8121,8183,8179,8232,8177,8161,8192,8177,8165,8186,8165,8120,0.0311110019683837
55,8169,8153,8103,8182,8192,8219,8198,8158,8125,8202,8175,8156,8156,8123,0.0379729270935058
56,8178,8179,8126,8181,8184,8224,8191,8168,8223,8193,8175,8209,8172,8146,0.0459649562835693
57,8153,8165,8124,8166,8181,8214,8193,8169,8188,8206,8190,8187,8165,8135,0.0539662837982177
58,8199,8178,8133,8190,8188,8220,8210,8175,8200,8223,8196,8193,8164,8152,0.0619647502899169
59,8201,8183,8140,8194,8188,8212,8205,8170,8245,8204,8187,8213,8169,8153,0.0702691078186035
60,8162,8159,8124,8183,8195,8205,8202,8165,8147,8203,8189,8167,8160,8138,0.0782670974731445
61,8194,8192,8137,8195,8184,8221,8197,8185,8234,8196,8173,8201,8170,8153,0.0862734317779541
62,8192,8170,8122,8175,8187,8203,8202,8174,8181,8196,8172,8181,8163,8143,0.0939347743988037
63,8183,8163,8116,8174,8193,8200,8194,8160,8136,8179,8177,8177,8163,8134,0.1020336151123046
64,8181,8184,8133,8192,8187,8212,8189,8175,8214,8165,8169,8204,8173,8131,0.1090986728668212
65,8191,8165,8134,8195,8203,8219,8219,8177,8150,8201,8177,8171,8164,8133,0.1165723800659179
66,8215,8178,8138,8195,8197,8224,8210,8171,8215,8197,8177,8210,8170,8147,0.1248235702514648
67,8173,8157,8116,8171,8187,8205,8193,8160,8176,8176,8177,8189,8165,8132,0.1328260898590088
68,8167,8158,8122,8179,8192,8211,8194,8166,8142,8179,8178,8179,8162,8129,0.141108751296997
69,8184,8175,8135,8187,8175,8226,8190,8179,8229,8186,8171,8214,8173,8130,0.1491103172302246
70,8185,8148,8110,8175,8162,8223,8208,8173,8159,8216,8178,8170,8172,8127,0.1571366786956787
71,8215,8174,8121,8187,8149,8221,8208,8179,8228,8214,8173,8205,8175,8149,0.1641352176666259
72,8185,8165,8116,8172,8155,8203,8200,8176,8201,8195,8172,8196,8161,8135,0.1721088886260986
73,8164,8152,8103,8166,8156,8207,8189,8168,8121,8182,8173,8169,8162,8123,0.1800992488861084
74,8181,8174,8115,8184,8135,8214,8180,8175,8201,8179,8164,8205,8177,8127,0.1881141662597656
75,8186,8159,8107,8174,8150,8202,8201,8168,8145,8208,8174,8169,8162,8127,0.1961114406585693
76,8193,8175,8118,8170,8153,8213,8189,8164,8195,8199,8178,8194,8166,8136,0.2041113376617431
77,8163,8160,8114,8166,8144,8206,8172,8163,8184,8191,8177,8196,8167,8118,0.2125935554504394
78,8178,8146,8106,8170,8153,8196,8185,8164,8122,8202,8173,8172,8164,8120,0.2201118469238281
78,8178,8146,8106,8170,8153,8196,8185,8164,8122,8202,8173,8172,8164,8120,0.2205955982208252
79,8187,8168,8116,8163,8140,8190,8185,8165,8203,8170,8156,8203,8173,8127,0.2276487350463867
79,8187,8168,8116,8163,8140,8190,8185,8165,8203,8170,8156,8203,8173,8127,0.2286489009857177
80,8146,8145,8102,8142,8137,8174,8191,8160,8120,8170,8164,8170,8162,8115,0.2358553409576416
81,8186,8171,8117,8169,8137,8185,8192,8176,8168,8188,8164,8198,8170,8129,0.2428538799285888
82,8197,8168,8121,8173,8142,8190,8189,8176,8206,8192,8160,8197,8174,8123,0.2511115074157715
83,8175,8150,8112,8163,8157,8198,8188,8166,8130,8194,8171,8164,8165,8117,0.2591042518615722
84,8175,8178,8117,8171,8143,8205,8176,8168,8204,8176,8150,8203,8168,8116,0.2670760154724121
85,8155,8148,8091,8158,8141,8195,8185,8156,8120,8178,8140,8163,8157,8094,0.2748036384582519
86,8173,8156,8098,8168,8148,8209,8188,8163,8137,8174,8144,8173,8163,8102,0.2832100391387939
87,8168,8161,8107,8168,8151,8205,8189,8170,8184,8173,8146,8186,8167,8103,0.2913095951080322
88,8161,8146,8099,8157,8161,8201,8198,8166,8110,8193,8161,8159,8160,8100,0.298112154006958
89,8185,8185,8118,8171,8154,8216,8191,8181,8206,8186,8167,8207,8175,8114,0.3063387870788574
90,8171,8167,8110,8164,8167,8205,8201,8176,8158,8199,8176,8176,8167,8106,0.3142757415771484
91,8171,8166,8112,8167,8168,8201,8187,8165,8151,8194,8171,8183,8165,8101,0.3222761154174804
92,8162,8173,8112,8165,8150,8191,8169,8161,8177,8177,8153,8199,8169,8086,0.3301141262054443
93,8168,8156,8103,8160,8162,8185,8181,8154,8082,8185,8157,8160,8160,8090,0.3383076190948486
94,8192,8179,8127,8171,8153,8192,8164,8155,8165,8166,8162,8210,8167,8117,0.3464400768280029
95,8166,8158,8117,8159,8149,8175,8160,8146,8117,8166,8174,8185,8160,8104,0.3544385433197021
96,8171,8160,8115,8158,8158,8174,8172,8153,8098,8170,8175,8169,8169,8110,0.3621094226837158
97,8172,8173,8124,8159,8153,8176,8163,8167,8172,8168,8179,8196,8178,8121,0.3694849014282226
98,8178,8158,8126,8173,8165,8170,8179,8165,8120,8203,8206,8172,8168,8126,0.3770759105682373
99,8203,8187,8150,8198,8172,8180,8187,8168,8212,8197,8206,8206,8179,8134,0.3851091861724853
100,8164,8165,8124,8167,8167,8172,8176,8154,8150,8171,8189,8173,8165,8104,0.3931317329406738
101,8161,8157,8106,8162,8156,8176,8161,8145,8083,8161,8175,8164,8157,8097,0.4016580581665039
102,8175,8173,8124,8180,8152,8179,8161,8159,8160,8161,8180,8204,8171,8107,0.4091086387634277
103,8165,8153,8122,8173,8170,8177,8184,8163,8104,8189,8205,8170,8162,8111,0.416658878326416
103,8165,8153,8122,8173,8170,8177,8184,8163,8104,8189,8205,8170,8162,8111,0.4176588058471679
104,8180,8178,8132,8180,8161,8199,8168,8161,8173,8183,8201,8199,8164,8117,0.4249143600463867
105,8160,8163,8119,8175,8162,8200,8159,8158,8151,8181,8195,8181,8164,8096,0.4319157600402832
106,8173,8160,8122,8187,8181,8206,8177,8165,8126,8193,8193,8168,8170,8106,0.4401082992553711
107,8191,8190,8149,8203,8178,8209,8178,8170,8229,8190,8197,8208,8176,8124,0.448103666305542
108,8175,8166,8145,8197,8189,8198,8178,8158,8149,8212,8221,8178,8168,8116,0.45611572265625
109,8201,8182,8160,8209,8186,8205,8168,8160,8191,8201,8207,8210,8179,8124,0.4641120433807373
110,8184,8173,8158,8206,8177,8190,8166,8155,8172,8185,8190,8193,8169,8113,0.4721088409423828
111,8174,8165,8153,8213,8179,8185,8169,8154,8113,8194,8194,8165,8159,8111,0.4801311492919922
112,8191,8185,8167,8219,8173,8191,8158,8165,8206,8182,8189,8209,8177,8118,0.488145112991333
113,8182,8162,8156,8202,8187,8190,8171,8162,8138,8196,8203,8176,8174,8113,0.4948625564575195
114,8208,8180,8167,8215,8184,8205,8170,8165,8183,8206,8204,8203,8172,8127,0.5031099319458008
114,8208,8180,8167,8215,8184,8205,8170,8165,8183,8206,8204,8203,8172,8127,0.5035035610198975
115,8198,8171,8167,8212,8183,8192,8162,8157,8191,8201,8203,8205,8165,8117,0.5109426975250244
116,8195,8163,8168,8211,8197,8186,8165,8155,8128,8197,8213,8175,8165,8119,0.5188724994659424
117,8209,8197,8179,8218,8184,8193,8162,8170,8223,8181,8202,8215,8176,8129,0.5268666744232178
117,8209,8197,8179,8218,8184,8193,8162,8170,8223,8181,8202,8215,8176,8129,0.5278656482696533
118,8190,8168,8154,8208,8190,8179,8182,8166,8147,8193,8203,8183,8161,8113,0.5351088047027588
119,8215,8178,8167,8227,8190,8185,8185,8177,8182,8193,8200,8194,8171,8125,0.5431108474731445
120,8203,8181,8174,8216,8183,8187,8185,8185,8229,8190,8191,8188,8179,8135,0.5512228012084961
121,8194,8161,8161,8201,8199,8191,8200,8177,8164,8207,8202,8155,8164,8136,0.5592191219329834
122,8217,8188,8173,8218,8195,8200,8193,8179,8258,8202,8209,8200,8173,8139,0.5661067962646484
123,8196,8171,8161,8209,8202,8190,8196,8172,8195,8213,8219,8160,8169,8125,0.5741086006164551
124,8199,8183,8170,8213,8209,8205,8195,8179,8210,8214,8221,8175,8171,8134,0.5822405815124512
125,8194,8187,8170,8204,8200,8202,8190,8177,8252,8201,8207,8195,8169,8129,0.5902550220489502
126,8174,8158,8133,8178,8197,8182,8188,8155,8122,8188,8188,8138,8155,8105,0.597874641418457
127,8164,8173,8137,8183,8177,8182,8166,8159,8160,8150,8165,8166,8165,8089,0.6064860820770264
239,8165,8155,8155,8189,8182,8185,8183,8169,8141,8173,8173,8160,8165,8091,0.6141092777252197
0,8214,8171,8179,8199,8197,8206,8206,8170,8189,8205,8188,8179,8172,8141,0.6221094131469727
1,8194,8179,8160,8182,8188,8205,8193,8167,8241,8191,8193,8188,8173,8136,0.6291079521179199
2,8161,8148,8116,8166,8183,8187,8194,8162,8129,8195,8189,8142,8163,8096,0.6371853351593018
3,8193,8167,8130,8176,8166,8186,8187,8163,8189,8184,8166,8182,8175,8102,0.6452667713165283
4,8173,8154,8130,8167,8170,8181,8180,8154,8143,8181,8164,8156,8163,8098,0.6532602310180664
5,8177,8168,8134,8187,8179,8198,8174,8160,8140,8190,8160,8149,8157,8100,0.6611089706420898
6,8197,8183,8149,8198,8169,8198,8173,8165,8231,8187,8155,8189,8170,8101,0.6691086292266846
7,8190,8155,8144,8183,8180,8185,8192,8160,8149,8197,8182,8164,8167,8106,0.677072286605835
8,8207,8186,8160,8198,8178,8205,8192,8175,8222,8186,8174,8195,8173,8126,0.6851096153259277
9,8190,8172,8143,8188,8177,8201,8199,8176,8207,8188,8155,8165,8163,8115,0.6921083927154541
10,8177,8156,8126,8176,8181,8190,8194,8169,8158,8184,8151,8150,8162,8105,0.6996705532073975
10,8177,8156,8126,8176,8181,8190,8194,8169,8158,8184,8151,8150,8162,8105,0.7006821632385254
11,8179,8176,8132,8183,8179,8184,8176,8173,8215,8165,8148,8181,8172,8090,0.7076411247253418
12,8180,8162,8119,8188,8197,8177,8192,8160,8121,8182,8149,8136,8163,8077,0.7156486511230469
13,8191,8180,8126,8192,8185,8184,8183,8159,8171,8175,8135,8167,8171,8084,0.7241089344024658
14,8170,8164,8128,8175,8182,8176,8181,8171,8171,8181,8139,8169,8168,8082,0.7321088314056396
15,8190,8163,8144,8187,8200,8194,8209,8188,8166,8207,8160,8162,8169,8104,0.7401084899902344
16,8200,8185,8153,8194,8184,8206,8213,8190,8265,8197,8160,8196,8181,8114,0.7481169700622559
17,8171,8149,8112,8167,8175,8179,8210,8165,8146,8198,8166,8150,8167,8098,0.7563683986663818
18,8186,8162,8122,8177,8172,8184,8198,8169,8177,8190,8170,8186,8170,8110,0.7633688449859619
19,8176,8161,8136,8181,8177,8192,8206,8179,8209,8199,8178,8190,8168,8101,0.7711093425750732
20,8184,8159,8130,8182,8191,8194,8224,8182,8168,8215,8187,8163,8167,8099,0.7791082859039307
21,8202,8188,8136,8190,8179,8185,8212,8196,8245,8198,8177,8210,8183,8110,0.7910945415496826
22,8185,8164,8127,8184,8189,8172,8218,8193,8166,8213,8182,8176,8172,8106,0.7950894832611084
23,8212,8183,8149,8203,8198,8183,8217,8194,8213,8209,8188,8189,8173,8125,0.8025972843170166
24,8196,8176,8147,8191,8182,8166,8201,8185,8225,8189,8190,8187,8173,8117,0.8105978965759277
25,8188,8155,8128,8175,8173,8157,8197,8171,8136,8200,8187,8157,8165,8105,0.8185997009277344
26,8204,8184,8137,8184,8166,8171,8184,8170,8212,8188,8164,8202,8170,8105,0.8256464004516602
27,8182,8161,8122,8181,8179,8168,8195,8163,8136,8178,8167,8170,8161,8093,0.8336000442504883
28,8202,8171,8140,8195,8181,8175,8201,8172,8164,8181,8183,8186,8172,8114,0.8416454792022705
29,8195,8173,8155,8188,8183,8167,8189,8174,8208,8189,8195,8200,8175,8116,0.8496003150939941
30,8195,8160,8147,8187,8204,8162,8190,8162,8129,8201,8203,8168,8164,8107,0.8575994968414307
30,8195,8160,8147,8187,8204,8162,8190,8162,8129,8201,8203,8168,8164,8107,0.8585987091064453
31,8228,8191,8168,8209,8195,8172,8188,8168,8233,8191,8197,8215,8184,8125,0.865734338760376
32,8203,8166,8164,8196,8188,8162,8196,8164,8188,8200,8209,8186,8182,8125,0.8741443157196045
33,8204,8169,8159,8197,8183,8168,8191,8165,8176,8194,8203,8188,8172,8125,0.8818707466125488
34,8203,8175,8151,8192,8180,8174,8190,8161,8208,8177,8187,8200,8166,8115,0.8888950347900391
35,8185,8153,8141,8179,8191,8174,8200,8147,8107,8181,8191,8158,8161,8112,0.896888256072998
36,8192,8180,8155,8190,8167,8172,8175,8148,8164,8149,8166,8197,8165,8108,0.9050028324127196
37,8184,8161,8144,8182,8158,8154,8177,8149,8121,8152,8153,8182,8152,8090,0.9130022525787354
38,8210,8163,8158,8187,8171,8165,8190,8163,8139,8177,8168,8187,8165,8115,0.9209940433502196
39,8200,8175,8172,8188,8172,8174,8186,8170,8223,8180,8184,8208,8182,8122,0.9289939403533936
40,8179,8161,8163,8183,8183,8165,8194,8167,8166,8211,8210,8179,8171,8119,0.936995267868042
41,8214,8194,8185,8204,8184,8171,8191,8181,8270,8215,8206,8221,8173,8137,0.9453999996185304
42,8207,8177,8160,8181,8196,8165,8202,8172,8222,8208,8187,8185,8160,8118,0.9532954692840576
43,8191,8167,8143,8159,8197,8170,8210,8159,8153,8193,8187,8174,8163,8110,0.9612634181976318
44,8172,8179,8164,8161,8176,8168,8200,8171,8224,8179,8195,8212,8177,8111,0.9681081771850586
45,8182,8162,8164,8171,8186,8167,8216,8188,8180,8210,8203,8177,8166,8120,0.975804567337036
46,8230,8187,8178,8191,8182,8186,8223,8194,8264,8213,8195,8212,8174,8149,0.9837808609008788
47,8196,8171,8170,8178,8184,8177,8224,8175,8235,8211,8206,8191,8168,8133,0.9917895793914796
48,8199,8176,8176,8193,8204,8186,8228,8182,8215,8227,8213,8176,8162,8131,1.000103235244751
49,8232,8200,8188,8210,8209,8198,8219,8202,8324,8222,8187,8218,8173,8150,1.0078139305114746
50,8203,8164,8161,8188,8230,8184,8219,8181,8220,8220,8182,8177,8163,8141,1.0161082744598389
50,8203,8164,8161,8188,8230,8184,8219,8181,8220,8220,8182,8177,8163,8141,1.0167222023010254
51,8209,8185,8170,8206,8234,8196,8213,8175,8257,8205,8183,8195,8166,8134,1.0230848789215088
52,8226,8191,8174,8218,8238,8202,8230,8183,8271,8216,8183,8193,8166,8133,1.0310850143432615
53,8237,8184,8167,8210,8250,8199,8234,8176,8220,8228,8185,8182,8168,8148,1.0390989780426023
54,8217,8200,8169,8197,8231,8188,8196,8171,8276,8198,8170,8211,8175,8131,1.0471930503845217
55,8198,8172,8151,8187,8234,8175,8201,8162,8175,8203,8173,8167,8161,8108,1.055185079574585
56,8229,8189,8166,8205,8236,8192,8206,8164,8220,8207,8177,8200,8174,8138,1.0631103515625
57,8198,8179,8163,8189,8226,8180,8191,8164,8241,8204,8186,8206,8176,8135,1.0712356567382812
58,8197,8167,8157,8188,8234,8164,8193,8167,8180,8219,8197,8175,8170,8125,1.0786895751953125
59,8230,8199,8184,8215,8240,8172,8194,8179,8283,8210,8204,8218,8182,8146,1.0857055187225342
60,8199,8174,8172,8204,8243,8175,8205,8175,8223,8212,8212,8184,8167,8143,1.0938735008239746
61,8205,8176,8171,8196,8218,8187,8202,8174,8218,8189,8181,8195,8163,8131,1.101956844329834
62,8205,8172,8171,8182,8204,8180,8196,8163,8205,8167,8169,8201,8164,8113,1.1099669933319092
63,8206,8164,8164,8189,8225,8178,8201,8158,8133,8179,8183,8171,8160,8121,1.118006467819214
64,8228,8194,8185,8203,8219,8174,8184,8165,8217,8161,8170,8205,8174,8135,1.1261093616485596
65,8212,8173,8191,8189,8215,8154,8178,8145,8138,8166,8195,8181,8174,8128,1.134260654449463
66,8235,8193,8221,8216,8218,8178,8182,8157,8188,8184,8226,8212,8183,8154,1.142261981964111
67,8247,8196,8223,8221,8217,8187,8194,8179,8268,8187,8209,8224,8179,8165,1.1501100063323977
68,8223,8159,8192,8193,8220,8179,8199,8157,8149,8179,8199,8176,8162,8153,1.1570720672607422
69,8214,8185,8204,8199,8199,8192,8171,8153,8204,8160,8206,8220,8174,8161,1.165111780166626
70,8210,8177,8201,8201,8197,8183,8174,8158,8168,8182,8213,8193,8168,8164,1.1731336116790771
71,8228,8171,8199,8197,8189,8172,8173,8152,8152,8178,8201,8186,8165,8163,1.1811096668243408
72,8205,8166,8188,8188,8168,8162,8155,8141,8174,8150,8187,8207,8170,8137,1.1891493797302246
73,8196,8153,8179,8185,8179,8171,8175,8145,8100,8172,8199,8183,8168,8140,1.1971476078033447
74,8220,8184,8204,8198,8177,8193,8182,8171,8205,8178,8199,8223,8177,8168,1.205110788345337
75,8194,8165,8185,8187,8180,8173,8178,8170,8167,8182,8196,8185,8166,8142,1.2131094932556152
75,8194,8165,8185,8187,8180,8173,8178,8170,8167,8182,8196,8185,8166,8142,1.2137510776519775
76,8203,8169,8174,8192,8183,8168,8170,8156,8133,8172,8190,8176,8165,8131,1.2200796604156494
77,8203,8182,8188,8190,8175,8181,8164,8158,8197,8162,8185,8211,8165,8135,1.228076696395874
78,8182,8156,8181,8172,8188,8189,8176,8157,8115,8182,8190,8172,8152,8127,1.2361083030700684
79,8191,8183,8185,8175,8180,8193,8160,8153,8163,8158,8165,8196,8163,8124,1.2441089153289795
80,8174,8166,8172,8176,8178,8181,8162,8146,8132,8156,8167,8184,8166,8120,1.252108097076416
81,8192,8157,8177,8195,8190,8194,8178,8157,8144,8189,8188,8184,8167,8146,1.2595233917236328
81,8192,8157,8177,8195,8190,8194,8178,8157,8144,8189,8188,8184,8167,8146,1.260517120361328
82,8193,8166,8185,8184,8182,8195,8170,8166,8235,8186,8178,8209,8166,8141,1.2685151100158691
83,8174,8140,8168,8160,8188,8183,8181,8158,8133,8193,8186,8165,8160,8124,1.276519775390625
84,8200,8168,8189,8189,8190,8204,8185,8169,8212,8191,8192,8204,8179,8153,1.283524513244629
85,8177,8152,8176,8171,8189,8202,8185,8165,8213,8191,8184,8192,8169,8136,1.2911088466644287
86,8172,8138,8153,8148,8187,8203,8191,8165,8155,8202,8183,8175,8162,8127,1.298424482345581
87,8181,8163,8159,8163,8179,8213,8197,8177,8247,8199,8183,8212,8176,8141,1.306938409805298
88,8149,8134,8138,8150,8190,8198,8206,8158,8148,8194,8175,8160,8154,8113,1.3151087760925293
89,8161,8144,8137,8136,8177,8195,8185,8151,8153,8163,8132,8175,8149,8097,1.3231093883514404
90,8160,8146,8131,8124,8170,8192,8187,8154,8152,8157,8114,8177,8159,8094,1.331108331680298
91,8163,8146,8132,8131,8187,8201,8206,8149,8108,8170,8129,8160,8163,8097,1.338724136352539
91,8163,8146,8132,8131,8187,8201,8206,8149,8108,8170,8129,8160,8163,8097,1.3396902084350586
92,8167,8158,8143,8140,8169,8206,8184,8146,8184,8145,8118,8195,8168,8097,1.3466362953186035
92,8167,8158,8143,8140,8169,8206,8184,8146,8184,8145,8118,8195,8168,8097,1.347630262374878
93,8148,8123,8127,8130,8169,8192,8181,8145,8099,8152,8122,8155,8158,8099,1.3535659313201904
93,8148,8123,8127,8130,8169,8192,8181,8145,8099,8152,8122,8155,8158,8099,1.354564189910889
94,8180,8153,8149,8149,8176,8203,8192,8166,8165,8166,8139,8185,8175,8117,1.3621084690093994
95,8180,8163,8154,8147,8176,8197,8195,8173,8212,8177,8148,8194,8181,8109,1.3701083660125732
96,8164,8142,8141,8143,8190,8187,8195,8166,8134,8193,8157,8164,8168,8110,1.378108263015747
97,8171,8167,8155,8157,8192,8187,8185,8169,8212,8173,8152,8203,8172,8114,1.386312484741211
98,8163,8151,8145,8146,8198,8173,8199,8156,8137,8173,8146,8162,8165,8094,1.3943123817443848
99,8194,8170,8157,8162,8188,8184,8195,8157,8155,8171,8138,8175,8170,8105,1.4023306369781494
100,8192,8179,8160,8165,8181,8180,8186,8165,8197,8165,8139,8191,8171,8102,1.4095752239227295
100,8192,8179,8160,8165,8181,8180,8186,8165,8197,8165,8139,8191,8171,8102,1.4105651378631592
101,8183,8164,8147,8155,8193,8172,8198,8159,8118,8174,8143,8157,8159,8095,1.4165735244750977
101,8183,8164,8147,8155,8193,8172,8198,8159,8118,8174,8143,8157,8159,8095,1.4175653457641602
102,8199,8189,8168,8169,8188,8180,8193,8165,8205,8163,8133,8196,8170,8103,1.4251093864440918
103,8182,8166,8166,8166,8201,8170,8195,8161,8158,8175,8148,8169,8166,8093,1.433110237121582
104,8192,8176,8168,8176,8208,8175,8188,8161,8165,8177,8154,8181,8168,8098,1.4411089420318604
105,8177,8177,8158,8168,8198,8170,8181,8160,8196,8172,8144,8201,8169,8089,1.449117660522461
106,8154,8143,8132,8155,8205,8151,8191,8148,8093,8188,8154,8158,8160,8081,1.4571149349212646
107,8167,8165,8141,8161,8188,8146,8172,8148,8165,8167,8142,8192,8172,8091,1.4651086330413818
108,8157,8154,8130,8149,8181,8141,8168,8142,8114,8159,8137,8176,8162,8074,1.4732656478881836
109,8174,8160,8135,8159,8187,8155,8169,8142,8096,8158,8143,8177,8160,8074,1.4801089763641355
110,8161,8161,8143,8155,8176,8150,8160,8143,8150,8148,8145,8194,8165,8067,1.4881083965301514
111,8145,8142,8131,8144,8178,8142,8168,8144,8069,8163,8155,8156,8158,8057,1.4959595203399658
112,8176,8180,8153,8163,8169,8156,8153,8151,8141,8148,8143,8191,8168,8069,1.5040490627288818
113,8158,8159,8157,8160,8170,8147,8157,8146,8104,8149,8149,8174,8163,8065,1.5120596885681152
114,8167,8155,8162,8170,8185,8155,8180,8162,8110,8169,8168,8178,8167,8084,1.520096778869629
115,8171,8177,8165,8169,8177,8157,8174,8177,8206,8167,8163,8202,8179,8095,1.528019905090332
116,8149,8152,8148,8148,8180,8153,8175,8164,8110,8180,8165,8152,8173,8089,1.536109447479248
117,8177,8175,8165,8164,8183,8178,8180,8170,8186,8187,8169,8197,8185,8105,1.5441102981567385
118,8175,8172,8162,8165,8196,8177,8188,8173,8191,8197,8179,8190,8174,8098,1.5511093139648438
119,8180,8170,8159,8166,8202,8170,8182,8164,8141,8187,8174,8168,8161,8091,1.5591092109680176
120,8179,8185,8166,8168,8182,8166,8169,8165,8207,8157,8159,8206,8169,8090,1.5671014785766602
121,8152,8156,8141,8156,8182,8154,8179,8159,8117,8167,8165,8169,8160,8084,1.5751008987426758
121,8152,8156,8141,8156,8182,8154,8179,8159,8117,8167,8165,8169,8160,8084,1.575439214706421
122,8166,8167,8149,8159,8173,8157,8167,8165,8159,8158,8145,8187,8160,8089,1.5828802585601809
123,8149,8158,8151,8139,8174,8145,8165,8166,8154,8153,8129,8177,8156,8067,1.5911026000976562
124,8149,8161,8145,8144,8194,8153,8184,8171,8123,8178,8149,8166,8168,8079,1.5990850925445557
125,8175,8194,8170,8180,8195,8165,8184,8192,8248,8192,8188,8215,8193,8121,1.6073343753814695
126,8193,8177,8193,8191,8215,8153,8201,8195,8224,8225,8229,8187,8185,8143,1.614335060119629
127,8229,8197,8221,8201,8230,8160,8205,8200,8289,8229,8220,8215,8185,8166,1.6221110820770264
239,8184,8187,8191,8180,8227,8155,8190,8186,8270,8212,8197,8207,8176,8142,1.6300878524780271
239,8184,8187,8191,8180,8227,8155,8190,8186,8270,8212,8197,8207,8176,8142,1.6311242580413818
0,8161,8172,8153,8173,8217,8152,8186,8176,8180,8219,8194,8169,8159,8116,1.6381125450134275
1,8194,8198,8167,8184,8200,8149,8185,8187,8261,8215,8180,8201,8168,8115,1.6461422443389893
2,8165,8172,8156,8163,8218,8130,8191,8174,8162,8206,8173,8167,8166,8099,1.654142141342163
3,8166,8189,8164,8173,8210,8143,8176,8173,8170,8177,8162,8195,8169,8093,1.6621766090393066
4,8180,8190,8175,8173,8189,8148,8175,8181,8203,8175,8165,8210,8167,8090,1.6701116561889648
5,8178,8173,8170,8165,8211,8153,8196,8187,8145,8197,8178,8170,8165,8107,1.6781730651855469
6,8176,8200,8174,8170,8204,8159,8187,8190,8236,8177,8160,8198,8176,8114,1.6851146221160889
7,8156,8169,8148,8150,8194,8141,8183,8172,8158,8180,8157,8172,8162,8090,1.6931960582733154
8,8167,8174,8152,8169,8200,8155,8180,8178,8168,8186,8161,8189,8166,8095,1.7011120319366455
9,8152,8184,8154,8187,8207,8161,8178,8191,8228,8190,8167,8195,8171,8097,1.709141492843628
10,8148,8160,8142,8172,8205,8152,8179,8180,8152,8205,8180,8162,8163,8103,1.7171437740325928
11,8169,8181,8162,8169,8185,8163,8161,8176,8218,8187,8175,8218,8177,8120,1.7251100540161133
12,8150,8173,8161,8173,8202,8166,8173,8172,8164,8196,8190,8189,8169,8109,1.7327852249145508
13,8172,8188,8170,8191,8209,8161,8176,8172,8173,8196,8190,8180,8165,8109,1.7397844791412354
14,8168,8183,8164,8176,8193,8143,8155,8172,8218,8175,8166,8197,8170,8099,1.748788595199585
15,8144,8149,8139,8160,8205,8142,8165,8166,8121,8191,8174,8156,8163,8085,1.7557942867279053
15,8144,8149,8139,8160,8205,8142,8165,8166,8121,8191,8174,8156,8163,8085,1.7568066120147705
16,8158,8168,8144,8161,8192,8149,8159,8170,8195,8178,8161,8190,8167,8082,1.7638685703277588
17,8139,8144,8131,8135,8183,8125,8154,8163,8141,8165,8144,8167,8156,8068,1.7718687057495115
18,8162,8158,8146,8155,8199,8133,8164,8174,8130,8177,8159,8168,8164,8095,1.7801084518432615
19,8170,8179,8163,8173,8202,8133,8167,8180,8211,8175,8166,8196,8173,8105,1.7881383895874023
20,8146,8144,8142,8154,8201,8125,8176,8169,8115,8180,8166,8157,8161,8084,1.7961440086364746
21,8165,8171,8155,8159,8195,8160,8182,8193,8194,8181,8162,8196,8174,8099,1.8041489124298096
22,8143,8169,8149,8155,8209,8171,8204,8205,8197,8193,8169,8177,8171,8100,1.8111536502838133
23,8145,8162,8143,8165,8214,8168,8207,8194,8168,8193,8162,8165,8165,8098,1.819108247756958
24,8151,8170,8152,8168,8200,8163,8186,8192,8237,8188,8166,8200,8177,8097,1.8270721435546875
25,8130,8147,8138,8153,8219,8161,8188,8188,8165,8217,8193,8161,8171,8093,1.835108518600464
26,8151,8173,8155,8164,8214,8164,8173,8186,8230,8204,8184,8197,8174,8107,1.843108892440796
27,8140,8159,8150,8156,8195,8142,8163,8176,8190,8177,8169,8187,8163,8087,1.851097583770752
28,8137,8156,8132,8148,8193,8144,8166,8169,8105,8168,8158,8156,8153,8071,1.8590974807739256
29,8135,8173,8136,8148,8182,8160,8152,8167,8168,8151,8146,8183,8159,8070,1.8671317100524905
29,8135,8173,8136,8148,8182,8160,8152,8167,8168,8151,8146,8183,8159,8070,1.8681323528289795
30,8122,8139,8135,8147,8192,8158,8161,8164,8102,8172,8178,8157,8161,8082,1.8741908073425293
31,8162,8171,8164,8169,8195,8172,8168,8180,8180,8183,8195,8201,8179,8113,1.882063388824463
32,8162,8179,8164,8164,8197,8170,8179,8183,8200,8185,8190,8197,8173,8106,1.8900623321533203
33,8161,8160,8152,8161,8208,8172,8184,8180,8150,8196,8198,8170,8165,8113,1.8980610370635984
34,8162,8169,8162,8166,8196,8185,8164,8182,8237,8187,8190,8207,8180,8125,1.9055752754211424
34,8162,8169,8162,8166,8196,8185,8164,8182,8237,8187,8190,8207,8180,8125,1.906430959701538
35,8149,8155,8159,8153,8205,8179,8176,8172,8166,8203,8190,8165,8168,8112,1.9134368896484373
36,8184,8187,8187,8174,8212,8180,8183,8183,8221,8205,8200,8185,8171,8127,1.922438144683838
37,8170,8186,8192,8181,8205,8177,8174,8186,8250,8198,8214,8191,8174,8123,1.9294371604919436
37,8170,8186,8192,8181,8205,8177,8174,8186,8250,8198,8214,8191,8174,8123,1.930438041687012
38,8155,8165,8169,8174,8201,8188,8175,8173,8165,8204,8214,8163,8167,8113,1.9374375343322756
39,8162,8186,8174,8171,8190,8195,8165,8181,8237,8187,8200,8202,8172,8111,1.944437026977539
39,8162,8186,8174,8171,8190,8195,8165,8181,8237,8187,8200,8202,8172,8111,1.945436716079712
40,8146,8166,8172,8167,8209,8181,8169,8184,8175,8197,8214,8167,8161,8102,1.9524385929107664
40,8146,8166,8172,8167,8209,8181,8169,8184,8175,8197,8214,8167,8161,8102,1.9534385204315183
41,8176,8182,8186,8188,8218,8199,8173,8190,8221,8208,8219,8190,8172,8123,1.961437463760376
42,8168,8180,8172,8173,8207,8201,8181,8191,8271,8211,8212,8202,8175,8122,1.9684410095214844
42,8168,8180,8172,8173,8207,8201,8181,8191,8271,8211,8212,8202,8175,8122,1.9694395065307615
43,8146,8156,8153,8165,8211,8194,8187,8181,8181,8218,8214,8158,8158,8107,1.9775516986846924
44,8170,8190,8184,8195,8207,8208,8178,8191,8263,8203,8206,8197,8170,8113,1.985103130340576
45,8175,8185,8180,8186,8219,8211,8199,8197,8228,8224,8210,8176,8170,8116,1.99310302734375
46,8182,8190,8179,8181,8213,8223,8195,8192,8237,8224,8213,8187,8172,8139,2.0012032985687256
47,8165,8185,8187,8186,8187,8220,8172,8188,8268,8207,8215,8203,8178,8142,2.00819730758667
48,8180,8172,8182,8199,8200,8224,8200,8194,8202,8242,8218,8170,8177,8143,2.016111373901367
49,8222,8211,8197,8212,8205,8247,8217,8207,8315,8244,8207,8214,8180,8166,2.024080276489258
50,8185,8183,8178,8182,8201,8243,8210,8188,8254,8228,8217,8183,8161,8149,2.032081127166748
51,8176,8174,8179,8189,8190,8252,8196,8182,8217,8219,8219,8179,8166,8138,2.040118932723999
52,8191,8190,8194,8210,8179,8251,8196,8199,8288,8221,8206,8209,8178,8140,2.0481104850769043
53,8199,8175,8183,8205,8189,8244,8210,8194,8220,8246,8211,8173,8165,8144,2.0561294555664062
54,8217,8197,8187,8206,8180,8252,8191,8187,8283,8231,8203,8203,8170,8144,2.0631296634674072
55,8181,8176,8170,8188,8185,8237,8184,8179,8225,8225,8206,8184,8166,8120,2.0711095333099365
56,8173,8177,8173,8192,8199,8245,8190,8188,8196,8227,8206,8178,8165,8116,2.0790977478027344
57,8178,8193,8176,8194,8189,8250,8189,8191,8260,8209,8182,8196,8165,8099,2.0871148109436035
58,8171,8162,8149,8178,8192,8228,8201,8179,8157,8205,8183,8150,8157,8083,2.0951082706451416
59,8188,8178,8162,8181,8178,8228,8184,8188,8217,8187,8189,8188,8171,8105,2.1030070781707764
59,8188,8178,8162,8181,8178,8228,8184,8188,8217,8187,8189,8188,8171,8105,2.104003429412842
60,8165,8168,8158,8170,8167,8225,8177,8177,8190,8190,8205,8179,8165,8105,2.1111085414886475
61,8168,8168,8155,8176,8168,8220,8175,8165,8142,8193,8214,8171,8164,8112,2.119110345840454
62,8170,8185,8159,8182,8155,8211,8159,8175,8217,8179,8199,8197,8173,8110,2.127072334289551
63,8148,8159,8130,8169,8165,8218,8176,8179,8131,8203,8200,8146,8160,8088,2.1356303691864014
64,8168,8182,8137,8183,8166,8243,8184,8195,8193,8200,8202,8181,8170,8094,2.142629861831665
65,8159,8173,8140,8187,8165,8232,8184,8198,8203,8192,8206,8183,8174,8088,2.1500937938690186
66,8165,8169,8145,8183,8182,8233,8188,8183,8153,8199,8211,8162,8171,8095,2.1578691005706787
67,8169,8193,8166,8183,8176,8238,8173,8181,8230,8189,8212,8204,8178,8102,2.1658685207366943
68,8155,8159,8154,8186,8177,8230,8180,8184,8163,8209,8223,8171,8167,8093,2.1741085052490234
69,8181,8169,8154,8198,8172,8245,8180,8191,8209,8204,8206,8187,8171,8105,2.182913303375244
70,8156,8166,8140,8181,8169,8231,8171,8184,8192,8187,8193,8177,8168,8088,2.190107822418213
71,8156,8155,8140,8179,8168,8218,8175,8182,8113,8194,8206,8154,8160,8083,2.1981046199798584
72,8182,8179,8168,8189,8155,8234,8171,8190,8211,8183,8203,8201,8169,8105,2.2046170234680176
72,8182,8179,8168,8189,8155,8234,8171,8190,8211,8183,8203,8201,8169,8105,2.2056102752685547
73,8161,8162,8153,8174,8167,8237,8177,8180,8150,8190,8206,8166,8161,8103,2.212619543075561
73,8161,8162,8153,8174,8167,8237,8177,8180,8150,8190,8206,8166,8161,8103,2.2136118412017822
74,8174,8177,8148,8180,8163,8238,8169,8181,8175,8190,8203,8183,8166,8108,2.22062087059021
74,8174,8177,8148,8180,8163,8238,8169,8181,8175,8190,8203,8183,8166,8108,2.2216484546661377
75,8161,8163,8139,8167,8148,8219,8160,8186,8185,8183,8195,8186,8164,8100,2.2291085720062256
75,8161,8163,8139,8167,8148,8219,8160,8186,8185,8183,8195,8186,8164,8100,2.229712009429932
76,8147,8146,8132,8156,8160,8214,8168,8185,8107,8192,8200,8152,8158,8101,2.237072229385376
77,8165,8179,8151,8172,8159,8222,8158,8191,8207,8179,8199,8199,8171,8107,2.244824171066284
78,8153,8154,8137,8166,8161,8213,8162,8181,8145,8186,8203,8167,8162,8095,2.2521092891693115
79,8167,8168,8146,8180,8155,8221,8161,8183,8148,8180,8201,8177,8164,8106,2.261108875274658
80,8158,8182,8156,8181,8149,8213,8151,8191,8194,8164,8202,8194,8168,8108,2.2683370113372803
81,8154,8157,8146,8176,8163,8206,8161,8189,8125,8181,8215,8161,8162,8114,2.276336669921875
82,8172,8178,8158,8189,8159,8205,8157,8195,8207,8176,8201,8199,8171,8116,2.284108877182007
83,8152,8162,8144,8178,8168,8177,8163,8188,8150,8182,8199,8170,8162,8087,2.2921149730682373
84,8174,8176,8153,8186,8168,8179,8161,8189,8146,8180,8201,8178,8163,8101,2.2999815940856934
85,8179,8189,8170,8188,8158,8193,8154,8192,8202,8166,8205,8207,8172,8118,2.3080084323883057
86,8174,8173,8169,8190,8187,8203,8178,8197,8149,8192,8231,8177,8170,8122,2.316007375717163
87,8200,8201,8184,8209,8195,8211,8181,8214,8261,8200,8233,8212,8176,8135,2.324110507965088
88,8175,8177,8159,8186,8182,8189,8169,8201,8207,8196,8225,8177,8163,8123,2.331108331680298
89,8180,8179,8154,8182,8177,8199,8163,8193,8169,8186,8223,8178,8167,8132,2.3390626907348637
90,8184,8198,8170,8186,8179,8213,8168,8199,8244,8181,8229,8214,8178,8136,2.347461462020874
91,8163,8166,8152,8173,8190,8198,8170,8187,8149,8196,8229,8164,8160,8118,2.355458498001098
92,8175,8175,8155,8178,8169,8195,8141,8182,8189,8171,8199,8188,8165,8119,2.3631105422973637
93,8156,8161,8154,8168,8169,8199,8144,8176,8159,8171,8208,8180,8165,8113,2.371504068374634
94,8172,8174,8165,8182,8188,8220,8165,8182,8149,8191,8230,8182,8164,8129,2.379108190536499
95,8190,8201,8174,8190,8184,8221,8164,8196,8239,8182,8220,8215,8172,8142,2.387073040008545
96,8176,8172,8162,8173,8192,8218,8179,8191,8166,8192,8226,8172,8167,8137,2.395129442214966
97,8196,8189,8182,8191,8184,8244,8171,8192,8240,8186,8226,8200,8176,8143,2.4031872749328613
98,8182,8179,8179,8192,8184,8243,8167,8190,8227,8184,8220,8192,8166,8135,2.410184144973755
99,8186,8171,8176,8192,8196,8247,8178,8191,8188,8195,8221,8181,8162,8150,2.418109178543091
100,8197,8191,8192,8199,8187,8254,8175,8201,8288,8196,8218,8212,8176,8160,2.426109552383423
101,8178,8167,8175,8190,8197,8242,8181,8192,8210,8212,8226,8163,8167,8144,2.434199571609497
102,8182,8182,8173,8194,8188,8243,8166,8183,8236,8193,8223,8186,8168,8142,2.4421088695526123
103,8154,8168,8161,8179,8174,8235,8157,8170,8210,8182,8220,8182,8160,8117,2.450030565261841
104,8163,8153,8162,8182,8188,8244,8174,8172,8162,8203,8227,8167,8161,8124,2.458037137985229
105,8188,8178,8186,8196,8191,8250,8177,8194,8280,8197,8227,8214,8178,8149,2.46502947807312
105,8188,8178,8186,8196,8191,8250,8177,8194,8280,8197,8227,8214,8178,8149,2.4660286903381348
106,8164,8160,8173,8189,8193,8228,8183,8187,8199,8200,8227,8170,8160,8129,2.473109006881714
107,8179,8186,8184,8208,8192,8238,8180,8185,8216,8197,8215,8187,8164,8124,2.481289863586426
108,8176,8183,8186,8203,8198,8245,8181,8189,8249,8200,8218,8203,8175,8134,2.4892940521240234
109,8176,8164,8177,8195,8200,8241,8180,8186,8191,8209,8223,8176,8167,8145,2.4970736503601074
110,8199,8198,8203,8209,8192,8260,8176,8192,8280,8199,8208,8202,8172,8144,2.5051138401031494
111,8189,8181,8200,8202,8221,8273,8198,8190,8227,8219,8223,8164,8169,8138,2.513108968734741
112,8196,8180,8196,8203,8220,8273,8183,8189,8242,8212,8226,8184,8168,8156,2.521082639694214
113,8175,8174,8181,8194,8196,8246,8168,8186,8246,8190,8209,8193,8165,8137,2.529075384140014
114,8168,8162,8169,8192,8218,8252,8199,8191,8166,8197,8206,8158,8162,8122,2.536109209060669
115,8175,8184,8173,8191,8216,8272,8192,8197,8253,8184,8192,8196,8172,8128,2.5440235137939453
116,8145,8152,8151,8171,8205,8253,8178,8181,8178,8192,8196,8165,8163,8114,2.552048921585083
117,8179,8168,8173,8199,8207,8255,8175,8186,8187,8200,8215,8184,8171,8132,2.560041904449463
118,8189,8178,8187,8204,8202,8248,8166,8183,8246,8194,8221,8205,8174,8143,2.568044185638428
119,8161,8147,8157,8179,8207,8239,8172,8170,8157,8203,8219,8160,8163,8128,2.5756821632385254
120,8167,8177,8164,8190,8207,8252,8175,8190,8237,8191,8200,8199,8174,8127,2.583688497543335
121,8159,8166,8163,8189,8216,8234,8190,8189,8191,8197,8200,8176,8162,8125,2.592113256454468
122,8173,8166,8170,8192,8205,8215,8183,8179,8171,8201,8205,8170,8160,8131,2.5991098880767822
123,8164,8174,8177,8191,8191,8208,8165,8188,8230,8192,8203,8194,8170,8118,2.6070713996887207
124,8153,8157,8162,8181,8217,8209,8178,8186,8154,8207,8213,8165,8161,8110,2.615095615386963
125,8176,8186,8168,8186,8214,8213,8169,8180,8227,8190,8209,8195,8169,8120,2.623089551925659
126,8153,8164,8159,8177,8208,8195,8166,8169,8192,8195,8221,8166,8169,8109,2.631109476089477
127,8158,8163,8171,8189,8211,8206,8178,8182,8189,8217,8237,8168,8177,8125,2.639109373092652
239,8177,8189,8183,8196,8203,8212,8179,8196,8266,8206,8224,8198,8180,8132,2.647611618041992
0,8172,8171,8167,8183,8216,8206,8185,8174,8151,8202,8220,8154,8162,8118,2.6546027660369877
0,8172,8171,8167,8183,8216,8206,8185,8174,8151,8202,8220,8154,8162,8118,2.6556012630462646
1,8174,8185,8190,8197,8217,8220,8172,8175,8207,8184,8220,8199,8174,8129,2.662109851837158
2,8161,8174,8188,8195,8216,8208,8177,8186,8210,8198,8224,8191,8170,8125,2.6701080799102783
3,8188,8179,8176,8193,8221,8208,8188,8182,8176,8209,8215,8172,8163,8130,2.678110122680664
4,8185,8189,8185,8195,8208,8210,8178,8175,8239,8185,8203,8208,8171,8124,2.6861138343811035
5,8167,8159,8183,8196,8209,8197,8184,8167,8159,8202,8216,8173,8162,8115,2.694108247756958
6,8199,8184,8197,8211,8199,8207,8173,8168,8217,8201,8209,8194,8172,8139,2.702108860015869
7,8164,8166,8177,8186,8186,8194,8163,8165,8191,8188,8198,8179,8169,8127,2.7101094722747803
8,8155,8154,8164,8179,8188,8188,8172,8170,8128,8195,8200,8164,8162,8124,2.7178282737731934
9,8183,8185,8186,8194,8190,8203,8178,8186,8237,8201,8201,8211,8176,8143,2.7260992527008057
10,8167,8165,8176,8186,8207,8209,8199,8184,8184,8228,8208,8172,8168,8141,2.733108758926392
11,8173,8175,8174,8185,8188,8206,8187,8181,8206,8210,8164,8184,8165,8137,2.7408509254455566
12,8148,8165,8163,8168,8162,8177,8163,8164,8166,8173,8115,8179,8160,8112,2.748847723007202
13,8152,8162,8157,8173,8169,8177,8161,8154,8079,8173,8109,8161,8159,8110,2.756882429122925
14,8174,8188,8165,8187,8163,8196,8154,8158,8165,8169,8098,8196,8172,8115,2.765371084213257
15,8141,8152,8146,8165,8166,8180,8163,8153,8084,8175,8088,8151,8162,8096,2.7733728885650635
16,8161,8170,8169,8177,8169,8190,8173,8178,8136,8182,8092,8184,8168,8118,2.7811086177825928
17,8176,8185,8182,8191,8178,8208,8190,8192,8209,8201,8113,8205,8171,8129,2.7891085147857666
18,8171,8173,8165,8186,8202,8211,8204,8177,8150,8220,8122,8166,8166,8123,2.7961084842681885
19,8172,8189,8170,8179,8189,8203,8183,8178,8218,8197,8102,8197,8179,8126,2.804398775100708
20,8148,8151,8148,8155,8173,8184,8175,8170,8127,8191,8104,8165,8167,8108,2.812103271484375
21,8155,8158,8139,8157,8162,8187,8166,8166,8119,8179,8092,8174,8165,8105,2.8201088905334477
22,8143,8172,8141,8156,8154,8176,8161,8165,8153,8170,8073,8183,8167,8103,2.828108310699463
23,8147,8156,8144,8161,8165,8176,8172,8164,8094,8190,8093,8157,8163,8109,2.836130142211914
24,8175,8177,8170,8181,8158,8205,8164,8175,8209,8189,8109,8210,8179,8126,2.844130039215088
25,8160,8161,8166,8165,8168,8209,8181,8176,8176,8210,8117,8179,8175,8132,2.852634906768799
26,8185,8176,8175,8175,8182,8217,8198,8187,8186,8222,8114,8178,8172,8150,2.8606507778167725
27,8181,8181,8167,8178,8175,8207,8186,8185,8226,8199,8100,8196,8164,8134,2.8673131465911865
28,8151,8152,8137,8161,8182,8202,8178,8162,8110,8193,8099,8151,8154,8110,2.875312805175781
29,8169,8183,8154,8183,8183,8223,8169,8167,8193,8185,8098,8189,8174,8114,2.8831090927124023
30,8159,8170,8151,8184,8186,8218,8177,8172,8171,8198,8107,8170,8166,8107,2.8911092281341557
31,8165,8163,8145,8175,8168,8218,8164,8169,8137,8192,8097,8167,8159,8113,2.899608373641968
32,8169,8174,8152,8165,8149,8220,8148,8169,8186,8169,8082,8194,8170,8114,2.9070723056793213
33,8166,8160,8146,8166,8172,8228,8181,8176,8123,8194,8102,8160,8167,8121,2.915346622467041
34,8174,8179,8150,8177,8163,8237,8178,8190,8203,8191,8103,8194,8174,8135,2.9230988025665283
35,8147,8159,8134,8161,8156,8215,8163,8184,8165,8182,8099,8175,8164,8114,2.930098533630371
36,8171,8173,8151,8177,8174,8223,8177,8192,8159,8195,8111,8175,8163,8128,2.938108444213867
37,8190,8196,8172,8183,8170,8235,8189,8197,8254,8197,8107,8211,8174,8144,2.94610857963562
38,8166,8154,8142,8158,8167,8221,8189,8169,8138,8194,8102,8162,8158,8125,2.954434394836426
39,8171,8165,8142,8164,8151,8218,8159,8164,8161,8158,8082,8184,8158,8123,2.9616143703460693
39,8171,8165,8142,8164,8151,8218,8159,8164,8161,8158,8082,8184,8158,8123,2.9626080989837646
40,8151,8154,8135,8153,8147,8212,8159,8165,8130,8155,8082,8176,8157,8112,2.9696078300476074
41,8170,8155,8140,8156,8167,8220,8177,8169,8094,8176,8101,8170,8163,8122,2.977606296539306
42,8198,8184,8173,8179,8170,8223,8169,8179,8199,8165,8106,8211,8175,8142,2.985613822937012
43,8189,8163,8172,8184,8180,8212,8177,8172,8126,8175,8115,8172,8167,8147,2.9926137924194336
44,8203,8181,8176,8197,8180,8219,8172,8178,8171,8163,8104,8197,8173,8154,3.000798225402832
45,8179,8167,8160,8180,8175,8203,8165,8181,8168,8151,8089,8187,8163,8130,3.008751630783081
46,8174,8156,8156,8176,8170,8202,8174,8181,8119,8169,8090,8164,8155,8128,3.016793966293335
47,8190,8183,8177,8190,8157,8219,8170,8188,8218,8168,8088,8204,8169,8139,3.024749517440796
48,8174,8157,8159,8168,8166,8210,8172,8177,8134,8169,8092,8166,8162,8130,3.0327494144439697
49,8193,8178,8169,8175,8166,8208,8164,8176,8156,8152,8087,8196,8168,8146,3.04075026512146
50,8188,8182,8178,8180,8165,8204,8163,8178,8170,8148,8087,8200,8168,8142,3.048750400543213
51,8177,8156,8160,8167,8172,8214,8171,8172,8093,8164,8088,8163,8160,8130,3.056109666824341
52,8176,8169,8160,8174,8155,8220,8152,8166,8165,8145,8074,8201,8169,8126,3.0636584758758545
53,8183,8156,8166,8176,8156,8201,8159,8159,8103,8156,8083,8177,8165,8124,3.0716545581817627
54,8227,8184,8198,8179,8152,8211,8168,8169,8149,8171,8094,8199,8176,8153,3.080108165740967
55,8193,8187,8194,8167,8144,8207,8168,8174,8193,8171,8096,8208,8180,8147,3.087618350982666
56,8174,8165,8184,8173,8157,8200,8178,8179,8122,8178,8104,8178,8170,8141,3.0956170558929443
57,8203,8186,8202,8194,8156,8211,8163,8187,8199,8160,8095,8212,8173,8149,3.103701591491699
58,8175,8162,8168,8195,8176,8199,8163,8171,8123,8173,8095,8174,8158,8128,3.1121082305908203
59,8195,8171,8167,8216,8193,8197,8174,8171,8145,8194,8096,8189,8167,8144,3.1191084384918213
60,8212,8176,8183,8201,8192,8193,8175,8179,8215,8195,8107,8210,8177,8153,3.127072095870972
61,8190,8160,8169,8172,8206,8190,8185,8174,8130,8212,8127,8171,8161,8148,3.1351094245910645
61,8190,8160,8169,8172,8206,8190,8185,8174,8130,8212,8127,8171,8161,8148,3.1357288360595703
62,8200,8176,8192,8170,8189,8197,8176,8181,8209,8201,8109,8206,8170,8153,3.14310884475708
63,8200,8144,8176,8162,8190,8187,8182,8183,8165,8204,8100,8170,8164,8137,3.150757074356079
64,8213,8171,8149,8189,8227,8205,8198,8192,8166,8210,8105,8174,8168,8149,3.159268617630005
65,8193,8200,8157,8204,8235,8214,8199,8201,8245,8199,8107,8209,8175,8158,3.167271852493286
66,8186,8164,8174,8199,8222,8208,8211,8199,8175,8214,8117,8170,8159,8156,3.175110340118408
67,8218,8183,8187,8213,8195,8208,8204,8201,8239,8198,8109,8207,8169,8170,3.1831090450286865
68,8181,8176,8165,8199,8195,8194,8202,8184,8172,8186,8118,8193,8170,8156,3.190108060836792
69,8178,8178,8173,8205,8206,8211,8207,8187,8159,8200,8128,8181,8171,8157,3.198103904724121
70,8194,8186,8189,8214,8201,8217,8203,8206,8269,8213,8119,8207,8176,8164,3.2064926624298096
71,8187,8163,8177,8205,8213,8205,8211,8192,8187,8227,8128,8174,8169,8161,3.214495897293091
72,8208,8196,8191,8213,8213,8217,8208,8197,8247,8211,8129,8208,8178,8175,3.222108602523804
73,8191,8183,8185,8198,8215,8217,8227,8214,8254,8227,8127,8184,8171,8171,3.230485677719116
74,8193,8163,8174,8190,8215,8222,8240,8212,8225,8236,8113,8164,8166,8172,3.237952709197998
75,8189,8174,8167,8181,8193,8218,8219,8196,8253,8197,8092,8193,8167,8157,3.2459778785705566
76,8173,8157,8156,8169,8201,8198,8209,8175,8131,8191,8104,8154,8154,8129,3.252976894378662
77,8208,8184,8185,8190,8207,8208,8197,8180,8199,8193,8108,8194,8168,8142,3.261343240737915
78,8197,8168,8181,8182,8213,8205,8198,8178,8201,8197,8109,8193,8173,8148,3.269295454025269
79,8187,8156,8165,8175,8211,8195,8199,8173,8138,8193,8111,8169,8171,8152,3.2773001194000244
80,8197,8183,8182,8184,8188,8189,8189,8186,8224,8181,8108,8205,8182,8156,3.285109519958496
81,8180,8158,8174,8167,8188,8184,8202,8189,8163,8205,8124,8171,8171,8152,3.29310941696167
82,8182,8166,8179,8169,8174,8188,8186,8193,8201,8197,8123,8191,8174,8157,3.301661252975464
83,8165,8157,8179,8175,8172,8162,8176,8182,8186,8182,8124,8188,8172,8143,3.309661626815796
84,8190,8158,8191,8188,8197,8164,8185,8176,8129,8195,8141,8174,8168,8156,3.316110610961914
85,8216,8187,8214,8189,8188,8190,8175,8183,8234,8186,8141,8212,8175,8169,3.324167490005493
86,8187,8156,8196,8169,8191,8181,8182,8172,8151,8193,8150,8166,8164,8152,3.331899642944336
87,8196,8170,8202,8185,8198,8181,8188,8173,8162,8188,8153,8188,8169,8166,3.339905261993408
88,8183,8169,8190,8177,8183,8179,8190,8173,8178,8177,8146,8197,8164,8159,3.348104238510132
89,8181,8153,8174,8173,8172,8184,8198,8170,8119,8188,8142,8164,8159,8147,3.355919122695923
90,8203,8175,8202,8195,8159,8184,8190,8183,8223,8189,8136,8205,8177,8166,3.364124059677124
91,8179,8144,8188,8177,8173,8162,8191,8181,8155,8207,8150,8175,8168,8168,3.3721237182617188
92,8179,8157,8180,8168,8180,8166,8184,8178,8159,8196,8150,8189,8164,8164,3.38010835647583
93,8175,8172,8194,8173,8171,8165,8178,8169,8197,8179,8146,8204,8167,8153,3.387072324752808
94,8188,8161,8205,8194,8171,8167,8194,8162,8132,8201,8168,8168,8164,8163,3.39516544342041
95,8214,8185,8223,8215,8160,8183,8192,8183,8234,8195,8175,8208,8176,8185,3.4026875495910645
95,8214,8185,8223,8215,8160,8183,8192,8183,8234,8195,8175,8208,8176,8185,3.403682231903076
96,8188,8165,8201,8193,8167,8182,8202,8185,8192,8206,8179,8183,8167,8177,3.411109685897827
97,8208,8177,8213,8198,8166,8193,8206,8181,8198,8214,8179,8192,8169,8186,3.4187276363372803
97,8208,8177,8213,8198,8166,8193,8206,8181,8198,8214,8179,8192,8169,8186,3.4197261333465576
98,8215,8183,8228,8201,8155,8186,8194,8183,8236,8199,8178,8213,8172,8188,3.427073240280152
99,8185,8151,8188,8181,8162,8182,8197,8178,8134,8202,8184,8162,8161,8178,3.4351089000701904
99,8185,8151,8188,8181,8162,8182,8197,8178,8134,8202,8184,8162,8161,8178,3.435793161392212
100,8183,8168,8176,8181,8146,8198,8185,8180,8205,8189,8170,8194,8171,8174,3.4430928230285645
101,8176,8152,8186,8178,8149,8188,8190,8171,8168,8195,8169,8180,8160,8161,3.4500956535339355
102,8202,8159,8208,8191,8157,8188,8194,8179,8159,8195,8170,8185,8158,8181,3.458109140396118
103,8198,8173,8194,8184,8143,8182,8191,8190,8211,8177,8154,8201,8165,8172,3.4661083221435547
104,8163,8146,8157,8162,8150,8173,8212,8180,8098,8186,8152,8149,8156,8141,3.47395658493042
105,8169,8169,8178,8179,8153,8188,8205,8185,8171,8178,8153,8192,8170,8151,3.481951951980591
106,8170,8161,8179,8185,8167,8182,8206,8190,8181,8189,8173,8192,8173,8156,3.4901082515716557
107,8202,8173,8179,8197,8185,8184,8221,8199,8186,8215,8191,8190,8173,8177,3.498001337051392
108,8203,8189,8185,8191,8171,8184,8207,8201,8256,8207,8177,8208,8173,8187,3.50610876083374
109,8173,8150,8161,8162,8167,8176,8200,8184,8131,8197,8167,8158,8156,8168,3.5131289958953857
110,8191,8172,8169,8176,8161,8190,8194,8187,8173,8178,8156,8193,8164,8169,3.5211308002471924
111,8184,8168,8169,8188,8165,8186,8206,8194,8179,8188,8160,8186,8165,8161,3.529109001159668
112,8190,8157,8174,8189,8167,8188,8212,8188,8141,8193,8166,8170,8162,8164,3.537073135375977
113,8200,8181,8186,8184,8148,8188,8194,8188,8212,8170,8162,8203,8171,8165,3.5446903705596924
113,8200,8181,8186,8184,8148,8188,8194,8188,8212,8170,8162,8203,8171,8165,3.5456905364990234
114,8199,8171,8185,8184,8167,8179,8209,8192,8152,8200,8186,8173,8169,8170,3.553112745285034
115,8217,8190,8204,8202,8171,8194,8212,8200,8223,8204,8191,8207,8174,8190,3.56152868270874
116,8189,8171,8181,8177,8143,8192,8195,8183,8193,8182,8173,8186,8159,8165,3.5685274600982666
117,8186,8158,8159,8162,8144,8184,8185,8169,8104,8180,8159,8151,8151,8152,3.5770742893218994
118,8184,8181,8171,8176,8149,8178,8176,8181,8188,8162,8144,8196,8166,8149,3.584108829498291
119,8159,8158,8156,8172,8148,8167,8190,8178,8112,8174,8152,8160,8157,8134,3.5923497676849365
120,8195,8176,8170,8179,8132,8184,8186,8183,8159,8177,8155,8185,8164,8163,3.599870204925537
121,8189,8171,8169,8171,8139,8179,8179,8184,8193,8173,8154,8197,8164,8174,3.60781455039978
122,8170,8152,8146,8164,8154,8162,8180,8170,8103,8169,8145,8161,8153,8153,3.6164896488189697
123,8172,8175,8158,8166,8131,8166,8164,8169,8165,8149,8133,8188,8164,8144,3.6241047382354736
124,8160,8156,8165,8161,8143,8170,8176,8174,8127,8170,8156,8161,8161,8147,3.632117509841919
125,8189,8173,8177,8180,8152,8170,8188,8187,8171,8172,8155,8182,8167,8162,3.640115737915039
126,8171,8170,8163,8161,8130,8145,8182,8183,8181,8158,8144,8184,8168,8144,3.64707612991333
127,8162,8157,8152,8153,8145,8152,8192,8189,8123,8186,8162,8154,8161,8143,3.6551122665405273
239,8212,8199,8182,8188,8171,8179,8206,8212,8267,8201,8157,8200,8172,8172,3.6631133556365967
0,8194,8171,8170,8173,8181,8163,8217,8197,8210,8202,8153,8159,8165,8162,3.671111106872559
1,8184,8173,8171,8166,8172,8170,8204,8189,8191,8187,8155,8168,8166,8158,3.6790573596954346
2,8201,8189,8187,8179,8170,8175,8200,8197,8236,8183,8152,8201,8172,8163,3.687464952468872
3,8210,8168,8185,8183,8178,8169,8215,8196,8162,8202,8169,8174,8171,8176,3.6954774856567374
4,8205,8188,8191,8183,8161,8178,8200,8204,8247,8189,8170,8207,8179,8185,3.703009366989136
5,8173,8172,8169,8165,8171,8174,8206,8201,8196,8204,8165,8167,8167,8168,3.710113763809204
6,8189,8173,8169,8179,8180,8184,8214,8208,8187,8219,8173,8165,8172,8176,3.7181103229522714
7,8187,8177,8171,8182,8164,8182,8199,8207,8239,8201,8170,8187,8170,8162,3.726020574569702
8,8174,8156,8156,8167,8174,8169,8202,8190,8137,8201,8154,8148,8151,8141,3.734020233154297
9,8197,8181,8176,8181,8177,8168,8194,8196,8201,8186,8138,8190,8167,8153,3.7421064376831055
10,8183,8166,8173,8174,8184,8162,8198,8195,8168,8180,8151,8176,8167,8151,3.749806880950928
11,8190,8171,8174,8170,8184,8172,8204,8197,8153,8179,8156,8170,8162,8165,3.7579095363616943
12,8189,8182,8176,8166,8162,8166,8195,8203,8216,8166,8149,8192,8167,8166,3.765903472900391
13,8174,8152,8153,8154,8171,8157,8200,8187,8117,8174,8157,8147,8160,8152,3.774113893508911
14,8187,8174,8155,8166,8174,8176,8191,8189,8182,8162,8146,8178,8169,8160,3.7811102867126474
15,8158,8157,8142,8156,8176,8168,8192,8196,8175,8165,8143,8167,8164,8146,3.7891104221344
16,8167,8157,8148,8164,8178,8167,8196,8199,8149,8181,8160,8163,8164,8149,3.797477960586548
17,8191,8184,8179,8177,8172,8181,8191,8202,8231,8182,8166,8201,8177,8164,3.805021524429321
18,8188,8156,8177,8170,8189,8187,8210,8198,8162,8201,8177,8166,8169,8165,3.8131089210510254
19,8216,8181,8189,8193,8190,8202,8209,8211,8247,8196,8180,8199,8173,8182,3.821108818054199
20,8199,8190,8186,8182,8187,8193,8205,8208,8240,8198,8185,8185,8171,8173,3.829108476638794
21,8184,8173,8172,8158,8186,8188,8203,8191,8158,8205,8187,8155,8166,8158,3.837071895599365
22,8174,8167,8151,8162,8164,8178,8183,8186,8215,8180,8165,8189,8168,8148,3.84411358833313
23,8148,8139,8118,8157,8168,8154,8182,8178,8112,8181,8155,8150,8152,8139,3.852133274078369
24,8171,8176,8149,8157,8170,8166,8180,8186,8146,8177,8156,8174,8167,8154,3.860129833221436
25,8166,8176,8161,8156,8172,8168,8183,8192,8176,8179,8175,8183,8176,8154,3.868109703063965
26,8176,8160,8151,8162,8171,8165,8191,8189,8129,8189,8183,8167,8166,8164,3.8761332035064697
27,8189,8184,8170,8162,8154,8166,8182,8190,8200,8171,8158,8200,8169,8164,3.884131908416748
28,8149,8154,8145,8160,8180,8159,8197,8189,8125,8191,8168,8159,8165,8147,3.8920748233795166
29,8162,8173,8142,8185,8192,8178,8197,8202,8182,8205,8182,8183,8174,8168,3.900102615356445
30,8180,8184,8154,8178,8181,8183,8193,8201,8222,8200,8174,8190,8175,8164,3.908104658126831
31,8181,8171,8150,8176,8198,8188,8212,8210,8159,8211,8171,8150,8164,8154,3.915110349655152
32,8178,8189,8154,8184,8195,8190,8199,8222,8242,8200,8164,8191,8167,8153,3.923175096511841
33,8161,8169,8147,8159,8192,8186,8203,8187,8164,8207,8181,8164,8158,8139,3.931199550628662
34,8187,8189,8165,8164,8198,8212,8221,8206,8216,8216,8185,8175,8173,8154,3.9392030239105225
35,8172,8180,8154,8157,8190,8194,8219,8252,8285,8210,8163,8178,8174,8148,3.947244167327881
36,8152,8149,8128,8158,8184,8160,8215,8210,8155,8205,8161,8142,8158,8136,3.954654216766357
37,8176,8189,8155,8193,8178,8171,8197,8169,8208,8189,8168,8194,8175,8152,3.9626541137695312
38,8159,8178,8157,8172,8181,8163,8184,8184,8182,8204,8176,8168,8170,8143,3.970656156539917
38,8159,8178,8157,8172,8181,8163,8184,8184,8182,8204,8176,8168,8170,8143,3.971668004989624
39,8173,8179,8161,8168,8182,8157,8175,8190,8186,8207,8176,8173,8162,8145,3.977659940719605
39,8173,8179,8161,8168,8182,8157,8175,8190,8186,8207,8176,8173,8162,8145,3.978669404983521
40,8177,8192,8170,8192,8196,8159,8186,8176,8228,8204,8195,8201,8168,8151,3.986109495162964
41,8172,8181,8162,8192,8222,8158,8200,8192,8168,8226,8208,8159,8167,8152,3.99410891532898
42,8186,8192,8171,8178,8197,8156,8173,8201,8246,8205,8171,8189,8174,8155,4.002062559127808
43,8157,8166,8158,8165,8185,8138,8174,8174,8178,8200,8176,8172,8160,8138,4.010061740875244
44,8179,8187,8176,8191,8196,8142,8186,8184,8174,8212,8200,8181,8166,8151,4.018108129501343
45,8198,8204,8202,8191,8191,8142,8186,8202,8255,8210,8197,8205,8184,8161,4.026096820831299
46,8195,8176,8195,8180,8201,8141,8203,8193,8188,8233,8210,8168,8173,8169,4.034125804901123
47,8219,8211,8216,8202,8200,8155,8196,8204,8286,8231,8217,8210,8176,8196,4.041128635406494
48,8196,8199,8208,8194,8201,8145,8196,8210,8266,8233,8214,8182,8171,8183,4.049125671386719
49,8200,8184,8193,8188,8189,8155,8205,8206,8220,8233,8198,8161,8169,8172,4.057123899459839
50,8200,8195,8189,8191,8171,8162,8203,8211,8278,8215,8184,8193,8169,8170,4.06512713432312
51,8180,8179,8179,8193,8195,8158,8218,8213,8208,8228,8198,8158,8162,8169,4.0731236934661865
52,8204,8197,8197,8204,8192,8165,8209,8224,8281,8224,8201,8188,8177,8186,4.081124067306519
53,8186,8177,8180,8177,8175,8153,8198,8214,8250,8222,8199,8171,8167,8168,4.089128732681274
54,8176,8183,8166,8175,8181,8158,8202,8206,8204,8226,8197,8153,8157,8155,4.097127914428711
55,8175,8203,8180,8193,8181,8160,8200,8213,8291,8212,8197,8194,8175,8158,4.104633808135986
56,8163,8166,8170,8185,8198,8150,8214,8211,8218,8231,8218,8163,8174,8165,4.111634016036987
57,8189,8187,8186,8195,8194,8160,8208,8220,8281,8229,8216,8189,8172,8183,4.11963415145874
58,8165,8178,8179,8188,8176,8151,8203,8199,8266,8210,8200,8171,8161,8156,4.127635478973389
59,8153,8160,8165,8187,8172,8149,8212,8175,8183,8204,8191,8138,8150,8135,4.135635852813721
60,8184,8188,8183,8193,8167,8154,8206,8183,8267,8196,8176,8186,8165,8137,4.144112825393677
60,8184,8188,8183,8193,8167,8154,8206,8183,8267,8196,8176,8186,8165,8137,4.144638538360596
61,8178,8174,8169,8178,8183,8147,8216,8185,8200,8213,8191,8163,8168,8132,4.151796579360962
62,8168,8186,8159,8191,8180,8163,8212,8193,8235,8209,8204,8178,8175,8142,4.159811973571777
63,8132,8177,8150,8175,8163,8160,8200,8198,8240,8197,8199,8171,8166,8129,4.167812347412109
64,8135,8163,8150,8158,8161,8154,8209,8195,8168,8208,8196,8150,8155,8128,4.175110101699829
65,8168,8193,8160,8183,8149,8160,8210,8198,8265,8212,8183,8194,8166,8148,4.183082342147827
66,8159,8171,8143,8193,8159,8150,8212,8189,8205,8227,8189,8156,8163,8146,4.19110894203186
67,8165,8176,8156,8182,8158,8153,8199,8188,8211,8204,8195,8180,8172,8146,4.199129581451416
68,8142,8176,8156,8149,8145,8147,8194,8187,8222,8183,8195,8192,8167,8124,4.207301378250122
69,8148,8166,8145,8164,8153,8142,8202,8187,8154,8206,8206,8152,8156,8123,4.215100049972534
70,8190,8194,8160,8197,8149,8148,8194,8192,8249,8198,8200,8195,8173,8139,4.223109006881714
71,8162,8163,8145,8161,8150,8140,8208,8175,8176,8190,8200,8166,8165,8123,4.231109380722046
72,8156,8165,8154,8152,8144,8153,8203,8182,8177,8183,8200,8165,8165,8127,4.238111257553101
73,8157,8178,8159,8175,8135,8150,8189,8193,8221,8180,8193,8170,8163,8118,4.246451616287232
74,8166,8164,8143,8183,8151,8140,8200,8181,8126,8196,8196,8143,8157,8111,4.254109144210815
75,8182,8188,8165,8177,8150,8155,8191,8186,8217,8187,8197,8199,8176,8128,4.261609554290772
75,8182,8188,8165,8177,8150,8155,8191,8186,8217,8187,8197,8199,8176,8128,4.262636184692383
76,8145,8164,8157,8166,8155,8148,8190,8188,8194,8199,8211,8167,8166,8115,4.269802093505859
77,8165,8175,8157,8198,8158,8142,8189,8182,8179,8203,8211,8164,8164,8115,4.277810335159302
78,8173,8189,8168,8202,8144,8133,8185,8178,8224,8189,8207,8191,8177,8116,4.2861104011535645
79,8151,8165,8154,8174,8148,8120,8195,8175,8141,8200,8213,8149,8168,8116,4.294177770614624
80,8168,8188,8152,8180,8145,8113,8187,8186,8210,8189,8193,8180,8167,8125,4.3022871017456055
81,8148,8168,8143,8177,8152,8099,8194,8183,8172,8190,8198,8166,8164,8114,4.309290409088135
82,8160,8172,8161,8189,8158,8117,8203,8192,8172,8203,8216,8167,8169,8129,4.317290544509888
83,8174,8190,8168,8191,8150,8123,8191,8198,8245,8194,8209,8190,8173,8140,4.3253257274627686
84,8155,8160,8146,8172,8163,8116,8192,8180,8131,8193,8211,8151,8165,8129,4.333109617233276
85,8169,8178,8161,8184,8153,8124,8186,8180,8178,8169,8199,8186,8172,8124,4.340845108032227
86,8160,8167,8146,8172,8145,8101,8186,8175,8140,8157,8188,8168,8161,8108,4.349138498306274
87,8164,8172,8147,8171,8157,8105,8187,8176,8093,8158,8197,8162,8166,8115,4.35706353187561
88,8182,8198,8185,8188,8156,8131,8187,8193,8198,8158,8208,8202,8183,8125,4.365108489990234
89,8179,8170,8174,8182,8161,8129,8205,8185,8125,8175,8216,8152,8162,8115,4.372110843658447
90,8181,8190,8168,8191,8151,8127,8189,8182,8158,8157,8208,8178,8162,8115,4.380108594894409
91,8160,8188,8167,8189,8157,8118,8181,8180,8153,8157,8213,8179,8167,8107,4.388108968734741
92,8168,8181,8172,8190,8176,8132,8197,8179,8120,8170,8212,8164,8168,8119,4.396109104156494
93,8169,8194,8176,8193,8163,8148,8193,8183,8201,8157,8199,8193,8179,8122,4.403609037399292
93,8169,8194,8176,8193,8163,8148,8193,8183,8201,8157,8199,8193,8179,8122,4.404601812362671
94,8141,8168,8150,8184,8157,8140,8193,8178,8119,8184,8223,8150,8171,8108,4.411609172821045
94,8141,8168,8150,8184,8157,8140,8193,8178,8119,8184,8223,8150,8171,8108,4.412603855133057
95,8153,8185,8158,8188,8134,8143,8173,8181,8159,8183,8226,8177,8171,8121,4.4201085567474365
96,8140,8176,8156,8173,8116,8126,8161,8173,8154,8161,8202,8179,8167,8109,4.428104877471924
97,8152,8161,8155,8179,8128,8128,8178,8169,8099,8176,8218,8160,8168,8114,4.434625864028931
97,8152,8161,8155,8179,8128,8128,8178,8169,8099,8176,8218,8160,8168,8114,4.435613632202148
98,8175,8187,8175,8199,8122,8151,8180,8191,8211,8181,8247,8208,8179,8140,4.442620038986206
98,8175,8187,8175,8199,8122,8151,8180,8191,8211,8181,8247,8208,8179,8140,4.44361424446106
99,8164,8175,8164,8189,8128,8145,8189,8196,8158,8201,8253,8173,8164,8143,4.450616359710693
99,8164,8175,8164,8189,8128,8145,8189,8196,8158,8201,8253,8173,8164,8143,4.451616048812866
100,8192,8196,8181,8198,8130,8151,8183,8193,8202,8202,8246,8190,8172,8159,4.458666801452637
101,8179,8190,8184,8201,8124,8156,8172,8193,8228,8193,8254,8200,8180,8154,4.46668004989624
102,8177,8175,8173,8203,8131,8156,8171,8191,8151,8197,8257,8172,8171,8150,4.475108861923218
103,8201,8200,8190,8208,8137,8144,8157,8189,8222,8182,8241,8204,8172,8151,4.483109951019287
104,8180,8175,8175,8198,8153,8130,8169,8179,8144,8188,8246,8164,8163,8135,4.491170644760132
105,8203,8200,8184,8218,8147,8148,8174,8185,8168,8187,8247,8185,8174,8151,4.498331308364868
106,8201,8206,8193,8214,8151,8145,8160,8186,8217,8185,8245,8202,8176,8152,4.505869626998901
107,8184,8169,8174,8194,8145,8143,8163,8181,8132,8197,8247,8160,8160,8139,4.514108657836914
108,8196,8194,8184,8204,8044,8166,8166,8198,8215,8186,8232,8202,8177,8148,4.522109746932983
109,8188,8189,8189,8205,7974,8163,8186,8200,8177,8206,8247,8183,8178,8153,4.530108690261841
110,8210,8189,8198,8210,7984,8162,8186,8200,8183,8208,8260,8185,8172,8166,4.538241863250732
111,8189,8180,8185,8202,7993,8155,8166,8199,8213,8179,8245,8192,8167,8145,4.54624080657959
112,8171,8163,8168,8197,8010,8151,8173,8198,8120,8192,8243,8153,8163,8132,4.554247856140137
113,8207,8194,8194,8210,8025,8158,8172,8213,8207,8193,8234,8194,8173,8154,4.562267303466797
114,8184,8173,8182,8193,8042,8145,8173,8206,8163,8190,8240,8172,8160,8140,4.568997383117676
115,8192,8178,8180,8207,8058,8148,8178,8205,8157,8196,8246,8178,8169,8141,4.57701563835144
116,8209,8199,8199,8218,8069,8147,8184,8216,8240,8200,8244,8209,8184,8155,4.585109233856201
117,8198,8176,8190,8199,8083,8139,8190,8203,8148,8210,8253,8165,8165,8157,4.593109130859375
118,8209,8188,8191,8203,8072,8151,8162,8197,8187,8180,8232,8193,8167,8155,4.601098775863648
119,8185,8169,8174,8196,8083,8150,8160,8195,8148,8173,8222,8174,8166,8128,4.609254598617554
120,8184,8172,8173,8194,8098,8156,8168,8191,8120,8176,8224,8168,8164,8130,4.617067337036133
121,8178,8179,8177,8185,8086,8148,8148,8182,8166,8148,8211,8202,8167,8133,4.625351428985596
122,8161,8151,8160,8180,8108,8143,8156,8185,8086,8167,8224,8165,8162,8129,4.632352113723755
123,8184,8185,8177,8207,8121,8161,8162,8201,8189,8181,8225,8195,8176,8147,4.640109062194824
124,8165,8165,8169,8190,8119,8146,8153,8186,8167,8175,8223,8181,8173,8137,4.648108243942261
125,8169,8158,8169,8186,8128,8144,8148,8186,8115,8179,8233,8168,8171,8141,4.656195640563965
126,8194,8194,8188,8204,8128,8144,8147,8194,8208,8176,8219,8206,8178,8140,4.664195537567139
127,8175,8161,8171,8183,8141,8127,8152,8171,8092,8172,8205,8158,8159,8118,4.672192811965942
239,8162,8163,8172,8182,8135,8144,8138,8179,8113,8141,8191,8184,8162,8115,4.680109024047852
0,8138,8150,8150,8174,8126,8135,8137,8181,8111,8134,8174,8179,8157,8091,4.687992572784424
1,8143,8140,8134,8162,8129,8122,8133,8157,8015,8137,8164,8151,8150,8080,4.694990873336792
2,8150,8168,8159,8169,8128,8136,8111,8165,8081,8121,8173,8196,8172,8090,4.703109264373779
3,8148,8152,8155,8181,8156,8140,8139,8183,8063,8158,8203,8168,8175,8097,4.711109161376953
4,8180,8170,8165,8196,8170,8144,8155,8187,8148,8179,8206,8194,8182,8119,4.719108581542969
5,8151,8165,8162,8178,8163,8135,8137,8177,8143,8164,8196,8184,8174,8104,4.727072238922119
5,8151,8165,8162,8178,8163,8135,8137,8177,8143,8164,8196,8184,8174,8104,4.7280113697052
6,8147,8152,8152,8182,8164,8136,8133,8174,8056,8153,8191,8145,8163,8095,4.734656810760498
6,8147,8152,8152,8182,8164,8136,8133,8174,8056,8153,8191,8145,8163,8095,4.735656499862671
7,8178,8178,8172,8200,8167,8131,8131,8183,8162,8145,8188,8196,8172,8114,4.7426674365997314
8,8154,8157,8167,8182,8186,8118,8144,8181,8123,8179,8206,8170,8168,8113,4.751108884811401
9,8175,8175,8172,8197,8183,8144,8146,8190,8162,8196,8200,8174,8175,8125,4.759129285812378
10,8180,8177,8170,8199,8186,8149,8146,8190,8203,8193,8195,8181,8170,8121,4.766129970550537
11,8164,8154,8164,8190,8204,8145,8158,8183,8135,8199,8208,8159,8158,8111,4.773913145065308
11,8164,8154,8164,8190,8204,8145,8158,8183,8135,8199,8208,8159,8158,8111,4.77459192276001
12,8171,8183,8182,8195,8186,8156,8150,8194,8218,8180,8195,8197,8170,8114,4.782109260559082
12,8171,8183,8182,8195,8186,8156,8150,8194,8218,8180,8195,8197,8170,8114,4.782607078552246
13,8153,8170,8172,8184,8190,8149,8157,8190,8163,8187,8197,8160,8164,8106,4.78969144821167
14,8165,8174,8176,8194,8197,8151,8147,8188,8177,8185,8198,8173,8165,8110,4.79818606376648
15,8154,8172,8176,8189,8184,8146,8129,8190,8199,8164,8186,8191,8164,8096,4.806259870529175
16,8149,8160,8165,8180,8197,8141,8137,8181,8098,8165,8187,8156,8160,8087,4.8141090869903564
17,8174,8195,8181,8193,8199,8147,8129,8178,8179,8151,8180,8195,8175,8098,4.82110857963562
18,8150,8168,8158,8175,8200,8136,8134,8173,8124,8159,8182,8162,8166,8088,4.8291096687316895
18,8150,8168,8158,8175,8200,8136,8134,8173,8124,8159,8182,8162,8166,8088,4.829555511474609
19,8161,8168,8157,8176,8203,8149,8146,8189,8123,8170,8189,8164,8166,8099,4.837269067764282
20,8166,8179,8169,8177,8198,8149,8147,8193,8200,8170,8191,8191,8176,8101,4.845269680023193
21,8158,8162,8156,8173,8211,8143,8159,8181,8132,8197,8207,8159,8168,8106,4.853305578231812
22,8179,8197,8167,8189,8206,8154,8152,8191,8218,8191,8201,8196,8173,8122,4.861356735229492
23,8151,8171,8149,8169,8194,8135,8143,8178,8155,8172,8176,8154,8158,8097,4.869084119796753
24,8150,8162,8146,8168,8187,8132,8137,8172,8100,8166,8163,8143,8159,8095,4.877081871032715
25,8159,8183,8153,8176,8180,8139,8137,8187,8167,8155,8159,8181,8170,8095,4.885108947753906
26,8145,8159,8129,8159,8182,8126,8143,8180,8070,8149,8160,8137,8157,8074,4.892109632492065
27,8159,8176,8139,8160,8159,8128,8121,8178,8114,8131,8150,8171,8172,8075,4.900108575820923
28,8141,8163,8136,8153,8156,8125,8121,8168,8085,8141,8161,8166,8172,8069,4.908062934875488
29,8144,8159,8130,8151,8164,8131,8127,8162,8038,8143,8169,8155,8161,8068,4.916184902191162
30,8151,8170,8126,8144,8148,8134,8116,8168,8104,8122,8159,8180,8166,8064,4.923393964767456
30,8151,8170,8126,8144,8148,8134,8116,8168,8104,8122,8159,8180,8166,8064,4.924391746520996
31,8136,8143,8113,8129,8160,8136,8135,8167,8048,8149,8183,8147,8168,8069,4.932392120361328
32,8148,8167,8133,8138,8162,8161,8129,8177,8134,8151,8187,8185,8174,8088,4.94010853767395
33,8127,8155,8117,8123,8153,8162,8123,8177,8120,8144,8168,8172,8164,8073,4.948456048965454
34,8134,8148,8102,8127,8163,8174,8147,8183,8079,8167,8177,8154,8170,8080,4.955604553222656
35,8154,8176,8130,8147,8168,8186,8155,8206,8201,8181,8188,8198,8181,8096,4.963599920272827
36,8144,8155,8127,8139,8184,8176,8154,8200,8136,8201,8195,8159,8165,8091,4.971103668212891
37,8155,8172,8126,8142,8179,8191,8140,8186,8159,8176,8182,8177,8171,8095,4.979104042053223
38,8140,8165,8121,8136,8168,8198,8149,8181,8149,8160,8179,8176,8169,8082,4.987072944641113
39,8152,8153,8122,8137,8174,8202,8160,8181,8086,8170,8179,8150,8157,8082,4.9951088428497314
40,8164,8170,8126,8142,8162,8199,8140,8182,8155,8143,8161,8179,8165,8083,5.00265097618103
41,8137,8147,8103,8124,8167,8189,8151,8174,8065,8144,8171,8145,8163,8071,5.009581565856934
42,8152,8169,8123,8133,8169,8208,8158,8183,8108,8146,8179,8175,8171,8084,5.018590688705444
42,8152,8169,8123,8133,8169,8208,8158,8183,8108,8146,8179,8175,8171,8084,5.019622087478638
43,8149,8171,8130,8137,8167,8208,8150,8182,8139,8144,8176,8175,8166,8071,5.025598764419556
43,8149,8171,8130,8137,8167,8208,8150,8182,8139,8144,8176,8175,8166,8071,5.026624441146851
44,8157,8155,8122,8143,8186,8207,8158,8176,8073,8157,8179,8138,8159,8075,5.034108638763428
45,8163,8175,8136,8144,8180,8214,8152,8188,8174,8146,8171,8185,8173,8093,5.042131185531616
46,8123,8146,8113,8120,8171,8201,8152,8180,8102,8149,8167,8152,8164,8070,5.050130605697632
47,8139,8160,8123,8136,8163,8205,8144,8174,8105,8145,8158,8165,8169,8076,5.058141231536865
48,8146,8173,8141,8151,8165,8196,8139,8175,8147,8145,8165,8185,8173,8087,5.06589674949646
49,8147,8156,8136,8152,8179,8187,8154,8173,8068,8153,8177,8149,8161,8085,5.073889493942261
50,8158,8171,8152,8150,8167,8191,8137,8176,8140,8127,8158,8184,8173,8081,5.081889629364014
51,8126,8144,8134,8127,8174,8171,8128,8166,8082,8138,8160,8154,8171,8062,5.088891506195068
52,8143,8156,8130,8142,8183,8173,8133,8174,8088,8150,8171,8166,8168,8075,5.096890687942505
53,8146,8168,8142,8154,8180,8177,8142,8186,8145,8144,8165,8188,8166,8081,5.104821681976318
54,8137,8144,8134,8137,8190,8171,8149,8175,8057,8152,8161,8143,8159,8077,5.11310887336731
55,8161,8170,8142,8137,8179,8175,8128,8173,8119,8129,8156,8182,8176,8082,5.121108531951904
56,8152,8159,8143,8139,8186,8170,8132,8170,8089,8128,8180,8168,8174,8072,5.129129648208618
57,8170,8169,8158,8153,8199,8174,8140,8171,8101,8137,8189,8169,8169,8089,5.137388944625855
58,8159,8181,8154,8148,8190,8165,8135,8174,8156,8127,8176,8186,8167,8090,5.145109176635742
59,8141,8154,8135,8139,8197,8168,8159,8179,8064,8146,8182,8147,8158,8082,5.154465675354004
60,8172,8177,8157,8156,8193,8190,8166,8195,8162,8147,8174,8195,8175,8105,5.1604650020599365
61,8143,8162,8147,8140,8190,8174,8159,8192,8151,8152,8178,8181,8172,8103,5.1674628257751465
61,8143,8162,8147,8140,8190,8174,8159,8192,8151,8152,8178,8181,8172,8103,5.1684629917144775
62,8138,8161,8142,8140,8186,8171,8146,8194,8124,8163,8183,8162,8167,8097,5.17546272277832
63,8160,8177,8151,8148,8175,8169,8138,8186,8190,8152,8159,8183,8174,8091,5.183462858200073
64,8152,8152,8139,8134,8188,8159,8156,8161,8096,8155,8168,8151,8170,8096,5.1914660930633545
65,8159,8179,8157,8140,8177,8180,8149,8179,8171,8150,8187,8187,8180,8121,5.199465990066528
65,8159,8179,8157,8140,8177,8180,8149,8179,8171,8150,8187,8187,8180,8121,5.200469732284546
66,8145,8165,8151,8135,8167,8176,8147,8192,8164,8161,8181,8165,8168,8104,5.207977533340454
67,8167,8162,8147,8148,8178,8171,8157,8188,8128,8171,8174,8152,8165,8105,5.215978145599365
68,8180,8190,8167,8162,8178,8180,8152,8197,8231,8161,8184,8194,8182,8123,5.222461462020874
68,8180,8190,8167,8162,8178,8180,8152,8197,8231,8161,8184,8194,8182,8123,5.223464727401733
69,8159,8161,8153,8149,8186,8179,8156,8193,8152,8181,8201,8155,8173,8118,5.231463193893433
70,8180,8178,8167,8162,8181,8182,8145,8189,8193,8173,8194,8192,8179,8125,5.239175319671631
71,8172,8184,8170,8161,8186,8176,8141,8188,8204,8165,8203,8193,8178,8127,5.247072458267212
72,8183,8186,8170,8172,8203,8185,8157,8198,8173,8186,8220,8172,8174,8144,5.254603624343872
73,8206,8207,8214,8191,8197,8192,8163,8204,8269,8187,8215,8212,8180,8158,5.262596130371094
74,8183,8170,8250,8171,8214,8185,8172,8185,8190,8192,8229,8168,8169,8146,5.271108627319336
75,8180,8182,8282,8173,8214,8194,8159,8187,8222,8175,8218,8179,8172,8143,5.279108285903931
76,8160,8183,8269,8174,8199,8168,8148,8185,8224,8165,8196,8178,8165,8119,5.2861034870147705
77,8167,8170,8261,8169,8206,8158,8155,8175,8149,8179,8201,8151,8161,8112,5.293590545654297
77,8167,8170,8261,8169,8206,8158,8155,8175,8149,8179,8201,8151,8161,8112,5.294586181640625
78,8181,8179,8285,8158,8193,8170,8138,8178,8220,8157,8197,8188,8177,8122,5.30219292640686
79,8141,8150,8266,8135,8184,8154,8133,8168,8122,8149,8199,8149,8167,8104,5.310238361358643
80,8145,8172,8273,8156,8183,8153,8131,8174,8144,8146,8190,8162,8172,8099,5.3182477951049805
81,8155,8175,8287,8163,8191,8150,8139,8187,8199,8158,8187,8174,8176,8101,5.326284885406494
82,8172,8158,8290,8156,8208,8153,8165,8186,8145,8180,8202,8155,8168,8122,5.334108829498291
83,8188,8186,8311,8165,8197,8168,8156,8192,8238,8161,8199,8197,8178,8135,5.342108488082886
84,8166,8164,8299,8158,8206,8164,8159,8193,8184,8175,8205,8161,8172,8115,5.350395917892456
85,8193,8176,8306,8169,8217,8185,8169,8199,8197,8186,8207,8176,8174,8134,5.357403755187988
86,8187,8183,8310,8163,8217,8195,8165,8201,8241,8168,8195,8189,8174,8134,5.365402936935425
87,8164,8160,8285,8152,8226,8184,8165,8194,8152,8166,8182,8142,8163,8104,5.373417377471924
88,8178,8184,8290,8159,8209,8187,8157,8198,8226,8153,8172,8185,8173,8097,5.381104707717896
89,8163,8161,8289,8154,8209,8180,8165,8200,8188,8173,8193,8169,8169,8098,5.388750553131104
90,8191,8176,8304,8178,8222,8177,8163,8205,8206,8193,8206,8174,8174,8126,5.396763324737549
91,8200,8201,8316,8186,8216,8164,8150,8203,8274,8187,8201,8194,8179,8134,5.4052894115448
92,8185,8176,8311,8175,8219,8157,8157,8191,8187,8196,8210,8158,8171,8124,5.41310977935791
93,8197,8191,8320,8186,8215,8168,8141,8190,8263,8182,8204,8199,8180,8129,5.420108795166016
94,8170,8173,8294,8172,8223,8154,8134,8177,8205,8172,8194,8164,8166,8106,5.428108215332031
95,8184,8177,8303,8178,8232,8162,8146,8182,8177,8168,8189,8152,8162,8115,5.436086177825928
96,8194,8190,8327,8185,8228,8166,8154,8200,8270,8170,8192,8194,8176,8135,5.444093704223633
97,8172,8166,8303,8168,8238,8156,8161,8191,8193,8198,8208,8159,8165,8131,5.452091932296753
98,8185,8193,8302,8175,8228,8165,8151,8191,8254,8187,8198,8184,8168,8140,5.460079669952393
99,8170,8177,8289,8169,8227,8161,8157,8192,8235,8186,8197,8168,8168,8137,5.468082904815674
100,8175,8171,8289,8174,8231,8161,8158,8192,8205,8193,8202,8157,8165,8140,5.476108312606812
101,8172,8187,8302,8175,8214,8144,8136,8188,8262,8162,8189,8183,8165,8128,5.483944177627564
102,8153,8164,8284,8159,8222,8126,8150,8177,8172,8169,8195,8147,8159,8119,5.4909656047821045
103,8183,8189,8294,8178,8222,8140,8152,8193,8251,8177,8198,8186,8176,8145,5.4991114139556885
104,8178,8185,8298,8183,8221,8128,8147,8193,8255,8172,8201,8179,8173,8131,5.507662534713745
105,8187,8184,8302,8183,8234,8131,8152,8181,8208,8176,8199,8158,8165,8120,5.514664888381958
105,8187,8184,8302,8183,8234,8131,8152,8181,8208,8176,8199,8158,8165,8120,5.515661716461182
106,8192,8198,8309,8182,8226,8141,8139,8183,8279,8166,8189,8186,8172,8125,5.522750854492188
107,8169,8161,8290,8177,8235,8130,8143,8178,8193,8181,8208,8144,8166,8132,5.530751466751099
107,8169,8161,8290,8177,8235,8130,8143,8178,8193,8181,8208,8144,8166,8132,5.5317463874816895
108,8200,8186,8309,8195,8233,8142,8146,8188,8254,8180,8207,8174,8177,8151,5.539108514785767
109,8190,8187,8302,8173,8214,8138,8148,8188,8257,8169,8190,8173,8170,8133,5.546831607818604
110,8173,8167,8277,8159,8209,8131,8147,8179,8172,8166,8183,8144,8157,8127,5.554855346679688
111,8179,8187,8292,8174,8205,8143,8141,8193,8269,8164,8178,8191,8171,8145,5.561864376068115
112,8168,8162,8285,8167,8214,8146,8160,8195,8217,8194,8191,8160,8168,8148,5.569921970367432
113,8182,8170,8280,8171,8203,8145,8150,8189,8232,8182,8184,8173,8171,8146,5.577930450439453
114,8167,8175,8274,8165,8200,8131,8144,8186,8239,8170,8172,8181,8165,8128,5.585924863815308
115,8177,8172,8280,8170,8219,8134,8168,8197,8189,8193,8190,8164,8160,8139,5.593917608261108
116,8204,8196,8299,8186,8208,8139,8158,8207,8293,8186,8198,8203,8178,8154,5.601078987121582
116,8204,8196,8299,8186,8208,8139,8158,8207,8293,8186,8198,8203,8178,8154,5.602584838867188
117,8180,8165,8285,8171,8205,8121,8154,8191,8223,8193,8205,8163,8174,8140,5.609588623046875
118,8201,8176,8300,8181,8201,8136,8163,8197,8244,8197,8210,8184,8173,8156,5.618108510971069
119,8200,8183,8304,8183,8196,8144,8166,8196,8282,8185,8211,8197,8171,8154,5.624608755111694
120,8184,8168,8288,8179,8200,8140,8164,8182,8192,8190,8211,8150,8164,8140,5.632616996765137
121,8211,8201,8314,8199,8187,8153,8158,8198,8295,8188,8208,8197,8181,8156,5.641109466552734
122,8202,8181,8303,8188,8196,8150,8168,8197,8255,8201,8217,8175,8171,8155,5.649108409881592
123,8195,8180,8285,8182,8194,8150,8153,8185,8219,8183,8204,8170,8162,8146,5.657072305679321
124,8192,8182,8284,8176,8181,8143,8147,8188,8242,8168,8192,8185,8167,8127,5.664956569671631
124,8192,8182,8284,8176,8181,8143,8147,8188,8242,8168,8192,8185,8167,8127,5.6656334400177
125,8194,8166,8284,8174,8196,8143,8169,8192,8184,8203,8225,8156,8169,8132,5.673122406005859
126,8205,8197,8293,8190,8181,8141,8150,8203,8287,8203,8238,8197,8182,8161,5.680109262466431
127,8193,8176,8268,8178,8169,8114,8144,8191,8237,8211,8232,8174,8170,8168,5.688152551651001
239,8214,8180,8279,8185,8180,8131,8154,8181,8222,8225,8231,8180,8169,8182,5.696149349212647
0,8204,8194,8297,8197,8179,8147,8149,8189,8284,8206,8223,8197,8176,8164,5.704108238220215
1,8190,8165,8273,8190,8184,8141,8160,8190,8186,8199,8217,8151,8164,8145,5.712111949920654
2,8203,8181,8273,8191,8167,8153,8148,8184,8229,8160,8196,8193,8168,8155,5.720190525054932
3,8174,8165,8258,8175,8149,8146,8138,8171,8161,8138,8186,8167,8160,8129,5.728187799453735
4,8189,8167,8258,8182,8147,8144,8143,8182,8120,8150,8181,8154,8161,8123,5.736300230026245
5,8197,8183,8271,8189,8154,8142,8145,8194,8201,8152,8176,8192,8167,8119,5.743266344070435
6,8185,8163,8263,8187,8182,8137,8165,8188,8144,8175,8197,8160,8161,8105,5.751268148422241
7,8211,8190,8285,8206,8189,8154,8168,8209,8247,8186,8208,8193,8181,8132,5.759108781814575
8,8190,8178,8276,8195,8189,8148,8170,8212,8238,8193,8214,8174,8175,8143,5.766639709472656
9,8201,8171,8263,8190,8186,8141,8177,8197,8178,8192,8219,8158,8166,8148,5.775109529495239
10,8216,8192,8268,8194,8173,8132,8168,8200,8258,8181,8221,8204,8180,8150,5.7830963134765625
11,8188,8170,8246,8186,8194,8129,8180,8200,8187,8198,8230,8165,8174,8148,5.791118383407593
12,8202,8188,8247,8195,8198,8152,8184,8206,8244,8187,8212,8183,8176,8162,5.7991087436676025
13,8189,8171,8233,8177,8189,8142,8188,8207,8242,8190,8205,8174,8169,8141,5.807072401046753
14,8192,8158,8224,8176,8191,8135,8193,8212,8192,8209,8209,8155,8167,8134,5.814271450042725
15,8203,8180,8241,8191,8185,8135,8180,8217,8271,8197,8197,8190,8177,8146,5.822243928909302
16,8165,8153,8226,8179,8199,8115,8179,8192,8164,8193,8201,8151,8158,8123,5.830242156982422
17,8181,8172,8229,8188,8200,8121,8173,8189,8192,8177,8192,8178,8158,8119,5.838284492492676
18,8188,8168,8225,8176,8194,8122,8170,8195,8210,8166,8180,8181,8163,8125,5.846104383468628
19,8172,8150,8213,8166,8190,8129,8168,8192,8135,8175,8179,8146,8163,8127,5.854116916656494
20,8175,8172,8216,8175,8163,8139,8161,8205,8220,8176,8164,8178,8172,8124,5.86211371421814
21,8171,8148,8196,8163,8165,8126,8181,8201,8155,8197,8166,8139,8161,8117,5.870108604431152
22,8182,8167,8207,8173,8174,8131,8176,8198,8166,8176,8161,8156,8166,8119,5.877072095870972
23,8162,8171,8209,8172,8180,8127,8171,8192,8177,8149,8152,8168,8170,8096,5.8851094245910645
24,8164,8152,8198,8171,8202,8115,8188,8187,8108,8167,8160,8136,8165,8097,5.893109321594238
25,8183,8174,8217,8184,8203,8114,8178,8200,8211,8167,8156,8178,8173,8114,5.90111255645752
26,8159,8148,8201,8171,8201,8118,8183,8198,8160,8176,8158,8150,8162,8098,5.908695459365845
26,8159,8148,8201,8171,8201,8118,8183,8198,8160,8176,8158,8150,8162,8098,5.909696340560913
27,8165,8153,8197,8173,8188,8135,8176,8197,8161,8166,8155,8156,8166,8099,5.916701078414917
28,8153,8158,8197,8164,8170,8114,8154,8191,8179,8140,8140,8166,8168,8095,5.925111532211304
29,8154,8147,8196,8158,8182,8104,8161,8187,8098,8159,8151,8142,8163,8108,5.933109760284424
30,8186,8184,8222,8177,8179,8124,8154,8203,8208,8158,8163,8190,8180,8137,5.94110918045044
31,8178,8165,8213,8177,8183,8119,8163,8203,8170,8163,8169,8160,8170,8127,5.94810676574707
32,8194,8168,8218,8187,8190,8126,8177,8197,8156,8163,8165,8166,8165,8133,5.956175804138184
33,8181,8177,8222,8179,8171,8118,8159,8181,8189,8143,8156,8184,8169,8126,5.963784217834473
34,8164,8157,8207,8166,8174,8100,8149,8173,8082,8142,8160,8139,8163,8115,5.971797227859497
35,8193,8185,8226,8184,8178,8116,8145,8184,8155,8125,8152,8179,8174,8128,5.980109214782715
36,8173,8168,8219,8178,8192,8120,8156,8177,8125,8131,8159,8158,8170,8115,5.988103628158569
37,8181,8175,8220,8184,8208,8129,8159,8184,8126,8151,8174,8156,8170,8128,5.996109247207642
38,8210,8202,8240,8198,8213,8133,8159,8206,8232,8163,8182,8194,8182,8156,6.003731489181519
39,8211,8175,8227,8185,8229,8131,8174,8200,8166,8182,8191,8157,8178,8163,6.010725259780884
40,8207,8189,8214,8179,8208,8135,8154,8186,8203,8156,8160,8175,8174,8157,6.018728733062744
41,8175,8184,8196,8174,8191,8113,8139,8173,8149,8142,8143,8156,8155,8135,6.027073860168457
42,8207,8196,8213,8199,8207,8129,8161,8194,8150,8165,8166,8165,8167,8161,6.034829378128052
43,8224,8206,8226,8201,8217,8159,8191,8225,8276,8173,8175,8200,8187,8174,6.042829036712647
44,8182,8162,8190,8169,8218,8143,8203,8202,8160,8167,8164,8138,8164,8138,6.051108598709106
45,8198,8183,8198,8186,8204,8130,8171,8187,8174,8144,8155,8166,8169,8137,6.059088230133057
46,8199,8185,8204,8190,8219,8127,8164,8196,8197,8165,8180,8176,8179,8148,6.0672767162323
47,8200,8182,8199,8182,8223,8145,8177,8195,8182,8184,8186,8157,8171,8160,6.075285196304321
48,8197,8193,8203,8181,8191,8155,8170,8195,8242,8149,8161,8184,8170,8154,6.082317590713501
49,8182,8165,8184,8178,8201,8146,8180,8195,8150,8154,8175,8145,8164,8138,6.090109348297119
50,8204,8185,8192,8191,8206,8157,8174,8200,8197,8156,8179,8171,8176,8152,6.097606420516968
51,8174,8177,8183,8176,8194,8146,8160,8193,8184,8145,8173,8169,8174,8144,6.105706691741943
52,8183,8175,8181,8179,8206,8138,8170,8194,8129,8157,8190,8152,8169,8152,6.1136980056762695
53,8216,8198,8207,8195,8212,8145,8174,8203,8246,8156,8195,8194,8180,8169,6.121697902679443
54,8185,8162,8195,8184,8219,8135,8181,8190,8173,8165,8197,8154,8167,8151,6.129697799682617
55,8199,8181,8196,8194,8208,8140,8179,8197,8191,8161,8193,8173,8170,8155,6.137699842453003
56,8197,8187,8192,8186,8208,8149,8191,8206,8225,8167,8208,8178,8176,8157,6.1451096534729
57,8189,8170,8190,8191,8228,8169,8200,8202,8180,8183,8222,8148,8174,8160,6.153108358383179
58,8210,8193,8209,8210,8213,8169,8173,8200,8263,8161,8202,8189,8183,8164,6.16094183921814
59,8193,8174,8189,8186,8209,8151,8179,8188,8181,8164,8212,8157,8176,8157,6.16893744468689
60,8191,8190,8191,8195,8214,8176,8189,8196,8203,8166,8214,8166,8177,8159,6.177073001861572
61,8184,8187,8186,8196,8203,8172,8170,8190,8221,8149,8181,8168,8167,8131,6.1851091384887695
62,8186,8162,8176,8178,8198,8163,8173,8180,8123,8160,8178,8139,8163,8129,6.192950248718262
63,8196,8193,8206,8193,8191,8186,8183,8210,8249,8173,8205,8197,8187,8154,6.200973033905029
64,8180,8178,8199,8197,8213,8181,8200,8216,8232,8200,8220,8172,8173,8142,6.208336591720581
65,8212,8188,8202,8206,8233,8174,8199,8206,8226,8193,8203,8173,8171,8152,6.216344833374023
66,8196,8194,8207,8196,8226,8172,8184,8194,8245,8148,8192,8181,8176,8147,6.224344491958618
67,8151,8169,8184,8183,8217,8176,8179,8180,8129,8127,8193,8137,8161,8120,6.232109546661377
68,8178,8196,8192,8197,8197,8180,8166,8185,8189,8116,8167,8179,8169,8120,6.239391803741455
68,8178,8196,8192,8197,8197,8180,8166,8185,8189,8116,8167,8179,8169,8120,6.240392446517944
69,8192,8184,8191,8193,8200,8161,8178,8183,8157,8135,8178,8160,8175,8123,6.247393846511841
69,8192,8184,8191,8193,8200,8161,8178,8183,8157,8135,8178,8160,8175,8123,6.248393774032593
70,8186,8184,8188,8197,8196,8163,8177,8182,8154,8132,8190,8156,8173,8131,6.255393743515015
70,8186,8184,8188,8197,8196,8163,8177,8182,8154,8132,8190,8156,8173,8131,6.256392240524292
71,8166,8189,8184,8195,8177,8171,8172,8191,8208,8121,8167,8178,8168,8125,6.263392686843872
71,8166,8189,8184,8195,8177,8171,8172,8191,8208,8121,8167,8178,8168,8125,6.26439356803894
72,8179,8171,8185,8189,8195,8179,8202,8204,8150,8162,8177,8146,8167,8136,6.271392107009888
72,8179,8171,8185,8189,8195,8179,8202,8204,8150,8162,8177,8146,8167,8136,6.272392272949219
73,8203,8199,8203,8200,8180,8185,8197,8217,8250,8160,8180,8187,8184,8156,6.2783918380737305
73,8203,8199,8203,8200,8180,8185,8197,8217,8250,8160,8180,8187,8184,8156,6.279392957687378
74,8164,8181,8175,8187,8161,8163,8182,8197,8192,8147,8170,8160,8169,8126,6.286392688751221
74,8164,8181,8175,8187,8161,8163,8182,8197,8192,8147,8170,8160,8169,8126,6.28739333152771
75,8176,8181,8167,8189,8171,8172,8185,8182,8142,8153,8177,8150,8163,8131,6.294396162033081
75,8176,8181,8167,8189,8171,8172,8185,8182,8142,8153,8177,8150,8163,8131,6.295396327972412
76,8185,8203,8181,8192,8166,8184,8184,8199,8232,8153,8184,8186,8176,8144,6.30289888381958
77,8166,8176,8162,8186,8172,8175,8195,8206,8165,8170,8181,8147,8168,8134,6.31090259552002
78,8181,8187,8168,8190,8173,8184,8183,8202,8217,8158,8168,8174,8171,8136,6.319109201431274
79,8159,8169,8155,8171,8171,8173,8171,8188,8177,8155,8172,8153,8165,8118,6.327072143554688
80,8173,8168,8150,8177,8164,8167,8174,8191,8132,8169,8173,8139,8165,8118,6.334757089614868
81,8181,8184,8159,8179,8152,8164,8168,8200,8217,8155,8174,8183,8173,8124,6.341752529144287
82,8133,8148,8141,8161,8166,8159,8177,8190,8123,8158,8192,8143,8160,8108,6.35010838508606
83,8142,8173,8154,8184,8159,8177,8171,8197,8167,8155,8174,8165,8167,8107,6.358108043670654
84,8152,8178,8144,8182,8152,8167,8164,8186,8158,8157,8158,8158,8163,8097,6.366109848022461
85,8166,8173,8136,8172,8174,8164,8176,8178,8097,8160,8174,8141,8158,8105,6.374084949493408
86,8174,8199,8165,8179,8182,8180,8181,8205,8212,8156,8186,8187,8180,8125,6.382080316543579
87,8150,8173,8160,8180,8188,8177,8189,8206,8165,8178,8198,8153,8178,8122,6.390109539031982
88,8173,8188,8161,8198,8171,8172,8168,8191,8178,8162,8176,8167,8173,8117,6.39707350730896
89,8177,8186,8156,8184,8163,8151,8164,8182,8164,8151,8162,8160,8166,8102,6.40510892868042
90,8169,8164,8149,8171,8181,8160,8184,8182,8098,8164,8182,8136,8161,8110,6.413108587265015
91,8158,8178,8151,8188,8167,8184,8171,8178,8161,8126,8165,8176,8165,8109,6.421128273010254
92,8141,8167,8132,8180,8165,8169,8170,8167,8064,8122,8147,8140,8157,8084,6.429125547409058
93,8173,8191,8150,8179,8171,8162,8170,8178,8104,8141,8161,8163,8173,8111,6.437073707580566
94,8158,8186,8160,8179,8173,8159,8171,8191,8166,8153,8185,8176,8176,8122,6.445306777954102
95,8161,8175,8152,8189,8185,8165,8189,8201,8121,8182,8187,8143,8170,8120,6.4533092975616455
96,8192,8204,8163,8202,8185,8179,8188,8209,8215,8177,8167,8181,8184,8130,6.461108922958374
97,8156,8165,8139,8182,8188,8173,8190,8193,8134,8172,8169,8146,8167,8118,6.468103408813477
98,8169,8175,8139,8187,8179,8176,8181,8189,8133,8165,8166,8156,8166,8132,6.476437330245972
99,8183,8194,8152,8189,8178,8174,8166,8189,8179,8155,8159,8178,8176,8140,6.484437704086304
100,8168,8165,8145,8185,8191,8179,8165,8183,8087,8156,8165,8148,8166,8128,6.4921042919158936
101,8171,8179,8155,8193,8170,8188,8157,8188,8158,8142,8156,8187,8171,8127,6.500458717346191
102,8158,8170,8151,8181,8177,8185,8176,8181,8123,8160,8168,8155,8169,8121,6.507993698120117
103,8186,8190,8166,8195,8197,8208,8186,8188,8134,8171,8175,8158,8170,8134,6.515989303588867
104,8187,8196,8166,8198,8196,8205,8178,8195,8187,8162,8170,8185,8175,8137,6.524109601974487
105,8172,8172,8152,8190,8209,8184,8187,8186,8111,8180,8185,8151,8173,8145,6.531615495681763
106,8193,8201,8175,8201,8202,8191,8175,8193,8208,8172,8178,8189,8182,8160,6.538629531860352
107,8162,8172,8150,8173,8195,8179,8167,8183,8162,8162,8165,8160,8164,8133,6.5476250648498535
108,8158,8173,8137,8178,8205,8175,8168,8181,8118,8158,8156,8148,8165,8126,6.55571174621582
109,8175,8203,8158,8194,8210,8179,8176,8196,8194,8158,8151,8176,8179,8138,6.56287145614624
110,8157,8170,8142,8168,8204,8174,8184,8188,8117,8174,8156,8143,8165,8131,6.570936918258667
111,8150,8175,8137,8164,8168,8181,8154,8186,8155,8152,8137,8185,8169,8119,6.5789289474487305
112,8144,8170,8133,8168,8172,8169,8162,8184,8113,8150,8142,8171,8172,8112,6.587072134017944
113,8173,8178,8148,8178,8193,8180,8188,8187,8119,8170,8167,8159,8177,8144,6.594679594039917
114,8173,8184,8153,8174,8173,8198,8178,8196,8214,8162,8159,8186,8179,8148,6.602112531661987
114,8173,8184,8153,8174,8173,8198,8178,8196,8214,8162,8159,8186,8179,8148,6.602681875228882
115,8148,8155,8128,8165,8179,8200,8182,8185,8103,8167,8158,8142,8163,8123,6.6094958782196045
115,8148,8155,8128,8165,8179,8200,8182,8185,8103,8167,8158,8142,8163,8123,6.610485315322876
116,8171,8188,8148,8187,8188,8211,8182,8196,8171,8165,8170,8176,8177,8141,6.61848521232605
117,8160,8178,8143,8179,8189,8200,8183,8204,8182,8176,8173,8170,8174,8137,6.626109838485718
118,8152,8162,8127,8171,8187,8205,8185,8190,8114,8181,8165,8150,8168,8131,6.634108781814575
119,8151,8179,8138,8173,8167,8204,8164,8180,8174,8158,8153,8183,8175,8128,6.642108917236328
120,8140,8153,8124,8160,8171,8175,8158,8171,8087,8167,8155,8146,8162,8117,6.650108575820923
121,8161,8169,8130,8170,8166,8177,8147,8179,8123,8155,8142,8170,8171,8130,6.658740758895874
122,8150,8164,8128,8167,8160,8180,8152,8182,8134,8152,8138,8164,8175,8131,6.665308237075806
123,8169,8159,8127,8170,8185,8187,8175,8184,8098,8179,8147,8144,8168,8147,6.673306465148926
124,8173,8181,8132,8168,8188,8197,8168,8190,8182,8164,8141,8183,8173,8146,6.681111574172974
125,8126,8152,8103,8152,8178,8185,8163,8177,8084,8154,8143,8141,8164,8109,6.689375877380371
126,8158,8167,8119,8176,8168,8183,8156,8174,8105,8146,8139,8169,8170,8122,6.697418928146362
127,8162,8173,8134,8173,8178,8174,8159,8173,8131,8151,8148,8188,8173,8131,6.705569267272949
239,8164,8177,8138,8175,8199,8185,8180,8181,8095,8180,8174,8163,8172,8139,6.713115453720093
239,8164,8177,8138,8175,8199,8185,8180,8181,8095,8180,8174,8163,8172,8139,6.713577747344971
0,8201,8205,8161,8197,8196,8201,8179,8192,8209,8176,8170,8200,8185,8162,6.720581293106079
0,8201,8205,8161,8197,8196,8201,8179,8192,8209,8176,8170,8200,8185,8162,6.721590280532837
1,8174,8162,8142,8169,8202,8185,8181,8180,8124,8168,8166,8161,8170,8151,6.728594779968262
1,8174,8162,8142,8169,8202,8185,8181,8180,8124,8168,8166,8161,8170,8151,6.729589462280273
2,8172,8169,8141,8161,8190,8191,8177,8185,8122,8158,8158,8167,8170,8144,6.735589981079102
2,8172,8169,8141,8161,8190,8191,8177,8185,8122,8158,8158,8167,8170,8144,6.736589670181274
3,8168,8181,8142,8168,8178,8187,8165,8186,8161,8156,8156,8177,8175,8137,6.7441136837005615
4,8167,8160,8128,8165,8190,8176,8156,8166,8079,8164,8163,8148,8168,8139,6.752613544464111
5,8181,8186,8141,8166,8174,8173,8144,8170,8144,8146,8151,8193,8176,8148,6.760396242141724
6,8157,8173,8135,8160,8182,8164,8163,8179,8086,8162,8153,8168,8167,8137,6.7683985233306885
7,8173,8181,8140,8179,8198,8186,8173,8188,8113,8168,8146,8177,8166,8146,6.776439905166626
8,8170,8186,8140,8171,8192,8185,8174,8190,8177,8153,8137,8190,8165,8136,6.784111499786377
9,8161,8168,8126,8161,8200,8172,8194,8189,8092,8169,8153,8150,8155,8125,6.792149066925049
10,8179,8194,8134,8179,8196,8176,8185,8198,8172,8160,8153,8188,8172,8143,6.799151420593262
11,8161,8176,8122,8170,8196,8162,8184,8193,8135,8163,8155,8165,8174,8146,6.807039737701416
12,8180,8186,8135,8178,8201,8166,8189,8194,8128,8168,8160,8170,8179,8159,6.815115213394165
13,8176,8190,8142,8182,8195,8166,8174,8195,8178,8151,8159,8191,8176,8153,6.82310938835144
14,8148,8149,8122,8169,8199,8154,8170,8184,8080,8161,8166,8144,8160,8139,6.831183910369873
15,8174,8174,8147,8184,8192,8157,8158,8191,8161,8163,8165,8190,8176,8145,6.839179515838623
16,8172,8169,8148,8181,8197,8153,8161,8184,8141,8171,8173,8178,8175,8131,6.847223520278931
17,8174,8168,8138,8186,8201,8160,8165,8174,8104,8169,8176,8159,8166,8139,6.854929685592651
18,8167,8182,8143,8192,8192,8154,8154,8169,8156,8145,8173,8183,8167,8142,6.861944675445557
19,8163,8165,8143,8188,8210,8154,8160,8165,8075,8155,8193,8157,8164,8137,6.869943380355835
20,8197,8198,8166,8207,8203,8182,8157,8187,8179,8162,8201,8199,8182,8156,6.878108263015747
20,8197,8198,8166,8207,8203,8182,8157,8187,8179,8162,8201,8199,8182,8156,6.878698825836182
21,8178,8187,8153,8200,8197,8170,8170,8191,8188,8173,8205,8178,8175,8149,6.886042833328247
22,8179,8181,8145,8199,8211,8158,8183,8185,8147,8177,8207,8159,8165,8147,6.894057273864746
23,8188,8196,8157,8205,8201,8163,8171,8194,8218,8158,8198,8201,8175,8151,6.901764154434204
24,8163,8159,8138,8190,8195,8162,8177,8189,8129,8169,8210,8160,8169,8147,6.91010856628418
25,8169,8179,8143,8194,8184,8178,8170,8182,8181,8159,8207,8181,8172,8149,6.918108224868774
26,8160,8178,8142,8187,8191,8177,8170,8170,8182,8151,8203,8179,8170,8125,6.926109790802002
27,8175,8166,8146,8192,8205,8174,8181,8170,8130,8159,8207,8163,8167,8133,6.93308424949646
28,8188,8188,8159,8198,8194,8176,8171,8183,8222,8150,8202,8196,8177,8152,6.941298723220825
29,8169,8173,8147,8187,8204,8180,8180,8178,8162,8175,8215,8155,8168,8149,6.949299335479736
30,8192,8192,8163,8205,8205,8192,8178,8184,8203,8180,8214,8180,8174,8162,6.957077503204346
31,8184,8186,8159,8195,8196,8175,8173,8180,8191,8160,8204,8180,8173,8154,6.965085744857788
32,8178,8171,8144,8184,8201,8173,8179,8169,8108,8157,8207,8150,8165,8146,6.973109483718872
33,8177,8186,8153,8188,8192,8182,8170,8174,8194,8148,8203,8188,8173,8150,6.981108665466309
34,8145,8155,8133,8175,8195,8164,8173,8166,8118,8158,8209,8156,8161,8138,6.9891037940979
35,8161,8171,8136,8189,8185,8171,8171,8169,8129,8144,8200,8173,8169,8140,6.996185064315796
36,8153,8170,8134,8185,8169,8163,8168,8176,8150,8137,8189,8178,8172,8133,7.003692388534546
37,8148,8155,8124,8181,8179,8151,8175,8176,8089,8164,8199,8148,8166,8134,7.011709928512573
38,8168,8188,8136,8196,8169,8164,8171,8184,8188,8155,8196,8189,8176,8135,7.020109415054321
39,8152,8169,8113,8179,8166,8156,8184,8182,8120,8158,8202,8152,8164,8113,7.028100252151489
40,8174,8182,8122,8188,8172,8155,8180,8184,8134,8167,8209,8167,8173,8135,7.036089181900024
41,8174,8190,8141,8196,8179,8142,8170,8184,8195,8172,8216,8191,8183,8156,7.044108629226685
42,8167,8169,8137,8191,8194,8135,8183,8182,8130,8190,8233,8155,8173,8160,7.0521087646484375
43,8190,8195,8152,8205,8186,8159,8178,8197,8229,8182,8223,8188,8177,8168,7.060109376907349
44,8184,8178,8147,8203,8195,8168,8182,8191,8186,8192,8216,8163,8171,8156,7.067074060440064
45,8201,8187,8158,8205,8199,8176,8179,8180,8166,8184,8211,8175,8174,8158,7.075103759765625
46,8197,8195,8163,8194,8183,8169,8164,8172,8194,8159,8202,8195,8175,8147,7.083108186721802
47,8185,8166,8144,8188,8195,8172,8180,8166,8099,8176,8214,8149,8168,8141,7.091144800186157
48,8189,8186,8151,8201,8188,8190,8188,8187,8192,8177,8215,8187,8180,8152,7.099140405654907
49,8164,8172,8135,8189,8178,8176,8193,8195,8182,8186,8214,8168,8168,8136,7.107072114944458
50,8184,8178,8138,8197,8188,8184,8193,8198,8183,8194,8216,8170,8165,8143,7.115109443664551
51,8191,8188,8150,8199,8188,8198,8190,8196,8240,8177,8216,8198,8175,8143,7.12324070930481
52,8175,8162,8132,8185,8189,8189,8198,8176,8121,8182,8218,8146,8166,8134,7.130236864089966
53,8193,8188,8146,8198,8185,8193,8186,8178,8180,8177,8216,8183,8177,8151,7.138108730316162
54,8190,8184,8154,8201,8211,8197,8200,8191,8197,8200,8238,8188,8178,8153,7.14570426940918
55,8220,8191,8170,8218,8236,8209,8219,8207,8223,8230,8251,8184,8179,8171,7.153703451156616
56,8226,8204,8182,8229,8218,8198,8201,8211,8306,8221,8237,8206,8184,8168,7.161706447601318
57,8204,8168,8155,8213,8216,8183,8205,8194,8180,8216,8235,8163,8168,8141,7.169708728790283
58,8225,8192,8162,8215,8213,8199,8202,8196,8215,8189,8231,8193,8176,8153,7.178548336029053
59,8195,8188,8156,8211,8207,8203,8200,8196,8213,8184,8233,8176,8173,8151,7.185555934906006
60,8190,8177,8139,8215,8199,8215,8208,8189,8163,8186,8216,8152,8168,8144,7.193102836608887
61,8200,8187,8140,8201,8181,8211,8195,8182,8211,8156,8194,8185,8175,8138,7.201109170913696
61,8200,8187,8140,8201,8181,8211,8195,8182,8211,8156,8194,8185,8175,8138,7.201455116271973
62,8167,8161,8128,8178,8193,8187,8197,8178,8123,8169,8222,8149,8166,8133,7.208557844161987
62,8167,8161,8128,8178,8193,8187,8197,8178,8123,8169,8222,8149,8166,8133,7.2095582485198975
63,8192,8189,8138,8202,8191,8197,8196,8197,8205,8185,8224,8182,8173,8151,7.216564893722534
64,8186,8183,8136,8201,8191,8195,8196,8194,8221,8182,8212,8180,8171,8138,7.225110292434692
65,8180,8169,8141,8201,8208,8199,8202,8184,8156,8181,8222,8156,8170,8134,7.233108520507812
66,8201,8195,8151,8205,8199,8209,8189,8188,8239,8165,8205,8191,8175,8137,7.241174936294556
67,8167,8161,8111,8167,8193,8188,8184,8167,8118,8162,8190,8142,8156,8110,7.2492523193359375
68,8146,8162,8109,8168,8172,8191,8161,8156,8092,8136,8186,8159,8164,8103,7.2562501430511475
69,8146,8169,8131,8191,8162,8198,8159,8170,8125,8134,8191,8175,8179,8107,7.264248132705688
70,8192,8176,8140,8206,8185,8197,8185,8183,8117,8179,8205,8160,8178,8140,7.27210259437561
71,8201,8195,8141,8199,8171,8196,8170,8185,8213,8172,8206,8201,8184,8159,7.280108690261841
72,8150,8152,8110,8174,8158,8195,8164,8173,8108,8158,8208,8151,8169,8128,7.288108587265015
73,8178,8169,8121,8194,8165,8218,8173,8181,8121,8151,8193,8154,8171,8127,7.296130895614624
74,8177,8184,8128,8194,8170,8218,8173,8180,8173,8143,8183,8175,8171,8126,7.303637266159058
75,8154,8156,8111,8180,8170,8217,8170,8169,8086,8146,8193,8147,8161,8120,7.312102794647217
75,8154,8156,8111,8180,8170,8217,8170,8169,8086,8146,8193,8147,8161,8120,7.312395334243774
76,8163,8168,8121,8183,8157,8227,8155,8176,8152,8129,8178,8178,8173,8118,7.319499731063843
76,8163,8168,8121,8183,8157,8227,8155,8176,8152,8129,8178,8178,8173,8118,7.3205015659332275
77,8128,8144,8095,8157,8161,8216,8156,8163,8079,8127,8165,8138,8163,8090,7.327500104904175
78,8122,8147,8089,8158,8152,8225,8151,8157,8066,8117,8164,8147,8164,8089,7.334499835968018
79,8125,8153,8106,8173,8147,8222,8157,8171,8133,8125,8182,8179,8175,8097,7.34250020980835
80,8131,8141,8108,8176,8169,8213,8177,8178,8081,8155,8208,8149,8171,8107,7.35049843788147
81,8156,8179,8127,8192,8159,8218,8162,8177,8152,8136,8200,8186,8180,8121,7.358498811721802
81,8156,8179,8127,8192,8159,8218,8162,8177,8152,8136,8200,8186,8180,8121,7.359499454498291
82,8150,8165,8130,8190,8168,8210,8165,8165,8105,8149,8211,8170,8173,8114,7.366499900817871
83,8175,8166,8142,8197,8183,8230,8168,8172,8120,8170,8222,8171,8175,8126,7.374500036239624
84,8165,8172,8134,8184,8159,8236,8150,8180,8172,8148,8204,8182,8178,8117,7.382500410079956
85,8139,8148,8114,8166,8155,8220,8164,8180,8076,8158,8201,8143,8166,8109,7.389501333236694
86,8163,8176,8130,8175,8152,8227,8173,8192,8171,8157,8193,8184,8173,8126,7.398102760314941
87,8140,8150,8107,8152,8143,8214,8169,8169,8119,8143,8179,8156,8162,8108,7.405690908432007
88,8132,8143,8102,8148,8140,8207,8165,8158,8061,8144,8177,8150,8160,8103,7.4136903285980225
89,8149,8166,8126,8160,8141,8205,8164,8168,8131,8145,8183,8188,8171,8115,7.42175030708313
90,8150,8142,8113,8150,8156,8196,8167,8146,8035,8147,8194,8149,8165,8120,7.430099010467529
91,8158,8161,8120,8159,8142,8200,8135,8142,8093,8128,8185,8183,8179,8135,7.438099384307861
92,8142,8154,8121,8163,8133,8192,8130,8159,8111,8153,8186,8169,8176,8133,7.446454286575317
93,8174,8157,8133,8183,8150,8200,8155,8167,8106,8180,8193,8155,8169,8143,7.453110218048096
94,8182,8176,8143,8185,8150,8197,8151,8164,8182,8156,8188,8194,8174,8143,7.460942268371582
95,8135,8145,8113,8154,8155,8184,8153,8155,8075,8153,8201,8151,8169,8130,7.468936443328857
96,8144,8170,8125,8165,8147,8199,8153,8169,8125,8144,8206,8168,8178,8139,7.476936817169189
97,8154,8170,8132,8177,8153,8188,8159,8176,8148,8155,8208,8163,8169,8130,7.48510479927063
98,8167,8155,8123,8176,8165,8179,8166,8169,8100,8169,8199,8147,8163,8138,7.493103265762329
99,8156,8169,8123,8163,8144,8182,8163,8172,8168,8140,8177,8179,8176,8146,7.501108646392822
100,8128,8144,8102,8146,8146,8173,8178,8175,8095,8148,8189,8136,8163,8132,7.509093999862671
101,8158,8165,8112,8162,8146,8174,8174,8178,8145,8151,8185,8159,8167,8143,7.517088174819946
102,8147,8166,8122,8164,8143,8163,8167,8168,8147,8147,8179,8163,8171,8127,7.524109363555908
103,8157,8163,8132,8178,8160,8165,8169,8163,8093,8169,8197,8146,8169,8119,7.532109022140503
104,8191,8199,8156,8193,8160,8170,8153,8167,8199,8164,8205,8201,8181,8139,7.540105819702148
105,8168,8171,8144,8173,8166,8150,8150,8154,8118,8164,8215,8163,8171,8140,7.548104286193848
106,8164,8170,8145,8179,8156,8144,8140,8157,8122,8152,8204,8160,8171,8141,7.5556559562683105
107,8132,8156,8128,8168,8141,8135,8135,8155,8123,8137,8189,8161,8168,8119,7.563669443130493
108,8121,8140,8116,8156,8150,8137,8151,8149,8039,8140,8190,8136,8160,8109,7.572108745574951
109,8147,8171,8145,8169,8137,8142,8144,8164,8142,8129,8181,8177,8171,8124,7.579108953475952
110,8140,8152,8138,8161,8140,8128,8157,8167,8103,8152,8197,8149,8173,8131,7.586643934249878
111,8177,8174,8157,8176,8158,8146,8173,8177,8149,8178,8217,8174,8188,8165,7.5945165157318115
111,8177,8174,8157,8176,8158,8146,8173,8177,8149,8178,8217,8174,8188,8165,7.59550929069519
112,8181,8189,8175,8182,8161,8148,8169,8177,8208,8173,8209,8187,8181,8169,7.603509426116943
113,8167,8170,8159,8180,8164,8140,8169,8162,8121,8167,8203,8141,8158,8146,7.610376358032227
113,8167,8170,8159,8180,8164,8140,8169,8162,8121,8167,8203,8141,8158,8146,7.611382246017456
114,8182,8197,8162,8192,8156,8153,8158,8172,8210,8154,8205,8184,8175,8142,7.619381666183472
115,8158,8174,8143,8172,8162,8151,8165,8171,8162,8171,8212,8158,8170,8136,7.627076864242554
116,8155,8164,8140,8162,8153,8158,8160,8164,8127,8164,8193,8153,8163,8141,7.635113954544067
117,8146,8168,8145,8163,8143,8151,8145,8161,8154,8140,8180,8174,8171,8128,7.643110513687134
118,8147,8161,8140,8172,8167,8143,8157,8160,8085,8161,8199,8143,8167,8128,7.650115013122559
119,8179,8189,8159,8184,8161,8159,8154,8170,8179,8159,8194,8187,8176,8148,7.65810227394104
120,8164,8165,8150,8169,8157,8146,8161,8170,8145,8162,8190,8163,8170,8140,7.666113138198851
121,8176,8171,8155,8181,8167,8138,8165,8176,8145,8169,8192,8157,8172,8149,7.674142122268677
122,8176,8187,8166,8180,8166,8134,8156,8176,8213,8158,8189,8186,8180,8145,7.682142019271851
123,8151,8153,8153,8169,8172,8134,8162,8164,8114,8171,8196,8148,8172,8134,7.690110445022583
124,8170,8173,8161,8188,8154,8148,8154,8173,8186,8163,8184,8181,8174,8147,7.698114633560181
125,8156,8161,8136,8167,8145,8135,8156,8167,8154,8156,8173,8161,8165,8136,7.705631017684936
125,8156,8161,8136,8167,8145,8135,8156,8167,8154,8156,8173,8161,8165,8136,7.7066240310668945
126,8138,8154,8116,8147,8145,8140,8155,8162,8106,8156,8176,8145,8172,8137,7.713623762130737
127,8131,8172,8120,8154,8131,8145,8147,8170,8187,8149,8173,8176,8180,8141,7.721377611160278
239,8134,8155,8108,8152,8142,8135,8165,8168,8109,8167,8179,8141,8160,8137,7.729114294052124
0,8164,8179,8121,8159,8139,8154,8158,8173,8171,8160,8170,8174,8166,8154,7.737074375152588
1,8145,8158,8111,8148,8134,8153,8156,8162,8155,8145,8155,8158,8162,8142,7.745460271835327
2,8150,8150,8114,8149,8145,8152,8167,8148,8086,8139,8137,8140,8155,8134,7.753462314605713
3,8164,8182,8142,8161,8137,8153,8154,8153,8146,8124,8124,8179,8166,8134,7.761111974716186
4,8148,8155,8131,8152,8136,8136,8152,8146,8055,8139,8140,8139,8162,8120,7.768110752105713
5,8175,8173,8146,8162,8137,8146,8159,8155,8118,8141,8145,8171,8179,8134,7.7761077880859375
6,8174,8180,8164,8169,8153,8158,8183,8171,8168,8161,8165,8187,8184,8146,7.78408932685852
7,8172,8176,8167,8181,8171,8174,8195,8179,8145,8193,8191,8167,8172,8165,7.792098522186279
8,8184,8191,8170,8189,8161,8177,8177,8186,8242,8189,8172,8192,8180,8178,7.80010986328125
9,8171,8164,8151,8173,8169,8160,8185,8183,8177,8209,8171,8152,8182,8175,7.808108568191528
10,8188,8189,8162,8180,8160,8167,8181,8184,8212,8205,8181,8182,8184,8186,7.816109657287598
11,8172,8182,8148,8171,8144,8165,8168,8171,8209,8181,8173,8179,8168,8166,7.824108839035034
11,8172,8182,8148,8171,8144,8165,8168,8171,8209,8181,8173,8179,8168,8166,7.824861288070679
12,8170,8153,8121,8162,8153,8168,8172,8160,8111,8175,8152,8137,8159,8150,7.832473993301392
13,8177,8180,8135,8165,8142,8164,8157,8163,8174,8153,8130,8176,8172,8150,7.838731050491333
14,8153,8163,8133,8151,8153,8153,8162,8157,8120,8175,8154,8153,8165,8149,7.846742868423462
15,8186,8173,8145,8170,8160,8174,8170,8170,8178,8193,8169,8176,8173,8176,7.8551025390625
16,8179,8174,8142,8166,8142,8162,8164,8171,8204,8181,8156,8180,8174,8160,7.862450361251831
16,8179,8174,8142,8166,8142,8162,8164,8171,8204,8181,8156,8180,8174,8160,7.8634443283081055
17,8157,8162,8130,8154,8150,8143,8168,8160,8104,8183,8158,8142,8158,8138,7.870445489883423
18,8172,8183,8145,8164,8151,8153,8161,8163,8190,8168,8151,8185,8167,8146,7.87945032119751
19,8146,8150,8122,8147,8143,8143,8157,8148,8115,8165,8150,8154,8162,8125,7.887451171875
20,8157,8162,8122,8157,8130,8147,8152,8148,8114,8175,8155,8159,8169,8130,7.895184993743896
21,8167,8185,8143,8172,8135,8149,8154,8167,8198,8192,8169,8179,8181,8146,7.902656078338623
22,8178,8171,8155,8176,8166,8147,8172,8173,8144,8216,8186,8154,8176,8153,7.910191774368286
23,8206,8199,8175,8188,8163,8163,8166,8179,8230,8202,8175,8202,8178,8163,7.918379306793213
24,8176,8182,8155,8171,8161,8164,8171,8171,8178,8203,8168,8165,8163,8152,7.926386594772339
25,8177,8181,8143,8169,8161,8163,8174,8167,8145,8196,8155,8147,8166,8153,7.934385776519775
26,8169,8181,8139,8166,8153,8153,8162,8163,8186,8174,8150,8172,8174,8143,7.942108392715454
26,8169,8181,8139,8166,8153,8153,8162,8163,8186,8174,8150,8172,8174,8143,7.942703008651733
27,8146,8151,8129,8158,8170,8157,8168,8154,8110,8191,8172,8144,8160,8141,7.949707984924316
27,8146,8151,8129,8158,8170,8157,8168,8154,8110,8191,8172,8144,8160,8141,7.950716257095337
28,8173,8178,8147,8169,8165,8180,8164,8174,8215,8194,8169,8183,8175,8166,7.957724332809448
28,8173,8178,8147,8169,8165,8180,8164,8174,8215,8194,8169,8183,8175,8166,7.958720922470093
29,8174,8170,8133,8158,8163,8169,8170,8175,8200,8203,8164,8156,8175,8159,7.96610951423645
30,8181,8178,8140,8169,8174,8169,8171,8168,8175,8211,8174,8150,8171,8157,7.974097728729248
31,8180,8196,8162,8180,8171,8176,8164,8185,8257,8206,8180,8195,8178,8160,7.981097936630249
32,8185,8169,8162,8170,8175,8173,8183,8185,8172,8218,8179,8155,8168,8163,7.989109039306641
33,8208,8193,8212,8180,8163,8182,8175,8172,8222,8189,8160,8174,8173,8176,7.997073411941528
34,8180,8181,8238,8176,8164,8172,8173,8167,8205,8188,8163,8164,8167,8156,8.005327463150024
35,8189,8173,8242,8178,8179,8174,8188,8175,8188,8217,8183,8163,8175,8163,8.013339281082153
36,8199,8194,8269,8184,8176,8182,8177,8181,8279,8207,8193,8199,8188,8180,8.021336078643799
37,8182,8178,8267,8179,8192,8176,8178,8175,8193,8214,8195,8154,8169,8168,8.029109477996826
38,8203,8197,8272,8191,8195,8177,8179,8181,8244,8211,8174,8179,8167,8166,8.037072896957397
39,8179,8178,8261,8175,8185,8162,8186,8174,8236,8206,8169,8171,8167,8156,8.044108867645264
40,8176,8168,8259,8170,8187,8162,8184,8168,8185,8211,8185,8154,8172,8175,8.05210828781128
41,8187,8191,8268,8173,8183,8165,8158,8172,8269,8201,8184,8191,8175,8185,8.059834718704224
42,8162,8164,8247,8156,8193,8159,8164,8168,8176,8210,8184,8146,8156,8160,8.067830801010132
43,8189,8184,8267,8169,8189,8181,8173,8177,8219,8203,8176,8170,8171,8176,8.075839519500732
44,8187,8182,8284,8172,8191,8168,8174,8174,8252,8209,8183,8180,8178,8186,8.084110021591187
45,8186,8172,8285,8177,8207,8158,8182,8170,8201,8226,8199,8159,8167,8191,8.091651439666748
46,8209,8200,8295,8187,8198,8176,8179,8185,8293,8211,8196,8196,8179,8199,8.100187301635742
47,8195,8178,8285,8173,8206,8171,8192,8183,8226,8228,8213,8161,8178,8184,8.107529401779175
47,8195,8178,8285,8173,8206,8171,8192,8183,8226,8228,8213,8161,8178,8184,8.108529090881348
48,8209,8190,8300,8182,8211,8177,8192,8185,8259,8233,8218,8184,8177,8190,8.115103006362915
49,8195,8183,8296,8178,8204,8179,8183,8184,8283,8219,8209,8187,8173,8189,8.123109817504883
50,8190,8161,8278,8174,8211,8185,8193,8177,8203,8225,8216,8148,8170,8192,8.131091117858887
51,8204,8186,8290,8182,8201,8195,8188,8183,8286,8210,8207,8190,8176,8195,8.13908863067627
52,8177,8162,8271,8163,8205,8181,8192,8174,8216,8213,8202,8155,8161,8175,8.147072553634644
53,8181,8172,8269,8165,8206,8182,8188,8168,8222,8213,8197,8160,8169,8181,8.155109405517578
54,8167,8178,8269,8159,8199,8178,8181,8161,8256,8200,8191,8175,8169,8173,8.162933588027954
55,8158,8163,8249,8156,8210,8175,8184,8159,8166,8207,8188,8136,8154,8163,8.170933485031128
56,8175,8184,8246,8168,8202,8174,8171,8163,8223,8187,8158,8169,8166,8168,8.178108215332031
57,8147,8151,8230,8144,8196,8160,8181,8147,8140,8179,8155,8136,8160,8147,8.18593955039978
58,8158,8156,8240,8149,8183,8177,8183,8161,8144,8177,8160,8144,8159,8146,8.193940877914429
59,8176,8173,8251,8160,8180,8182,8183,8186,8218,8177,8147,8171,8167,8153,8.201941013336182
60,8171,8153,8248,8151,8205,8169,8196,8177,8140,8195,8157,8136,8164,8157,8.21044921875
61,8181,8181,8267,8158,8188,8168,8169,8167,8209,8174,8159,8178,8172,8157,8.217874526977539
62,8170,8167,8250,8156,8178,8155,8164,8156,8154,8171,8155,8157,8161,8141,8.225872039794922
63,8179,8167,8250,8165,8192,8170,8179,8159,8139,8178,8162,8155,8166,8152,8.233882427215576
64,8171,8176,8264,8159,8189,8177,8169,8161,8204,8172,8164,8179,8173,8140,8.241933584213257
65,8155,8159,8251,8150,8211,8167,8172,8146,8101,8182,8164,8131,8156,8124,8.249109745025635
66,8173,8187,8263,8166,8212,8180,8167,8161,8178,8176,8154,8167,8169,8146,8.25697636604309
67,8155,8161,8246,8145,8197,8173,8170,8169,8167,8184,8151,8162,8170,8143,8.265425682067871
68,8159,8152,8237,8148,8201,8178,8177,8161,8136,8192,8156,8150,8164,8145,8.27342438697815
69,8159,8176,8249,8170,8208,8186,8179,8173,8237,8193,8167,8170,8175,8149,8.281108379364014
70,8154,8154,8233,8158,8215,8170,8192,8182,8170,8220,8174,8132,8169,8140,8.289108514785767
71,8187,8178,8242,8156,8202,8170,8185,8184,8206,8202,8150,8172,8171,8155,8.29713249206543
72,8161,8172,8240,8150,8206,8174,8189,8170,8190,8192,8162,8169,8171,8157,8.305320262908936
73,8164,8168,8242,8160,8217,8199,8197,8172,8181,8210,8186,8158,8174,8166,8.312147378921509
74,8193,8189,8257,8161,8200,8204,8183,8181,8268,8197,8165,8187,8179,8169,8.32014799118042
75,8171,8158,8242,8142,8200,8184,8191,8170,8166,8198,8166,8141,8166,8164,8.328108310699463
76,8189,8174,8255,8157,8202,8202,8196,8180,8229,8195,8176,8171,8175,8180,8.336109399795532
76,8189,8174,8255,8157,8202,8202,8196,8180,8229,8195,8176,8171,8175,8180,8.33658742904663
77,8192,8181,8262,8166,8217,8207,8204,8186,8261,8206,8188,8175,8173,8169,8.344108819961548
78,8201,8183,8267,8174,8238,8206,8213,8185,8219,8232,8203,8163,8171,8171,8.352081298828125
78,8201,8183,8267,8174,8238,8206,8213,8185,8219,8232,8203,8163,8171,8171,8.353113651275635
79,8214,8200,8277,8183,8232,8215,8205,8200,8321,8229,8206,8209,8187,8187,8.360126256942749
80,8188,8163,8247,8164,8236,8209,8220,8199,8246,8241,8213,8160,8173,8173,8.368123292922974
81,8191,8181,8244,8170,8218,8211,8212,8192,8252,8226,8193,8171,8169,8172,8.37610936164856
82,8177,8184,8239,8169,8204,8202,8207,8186,8250,8203,8173,8176,8169,8168,8.383108854293823
83,8174,8166,8224,8163,8219,8210,8228,8189,8188,8217,8180,8149,8169,8179,8.391109704971313
84,8174,8186,8225,8166,8204,8216,8222,8198,8276,8215,8175,8186,8176,8184,8.399084329605103
84,8174,8186,8225,8166,8204,8216,8222,8198,8276,8215,8175,8186,8176,8184,8.403114795684814
85,8147,8159,8200,8150,8194,8191,8214,8182,8189,8215,8170,8142,8160,8160,8.406628370285034
86,8171,8168,8207,8159,8193,8197,8202,8177,8200,8198,8166,8158,8164,8165,8.414628028869629
87,8175,8171,8221,8159,8187,8192,8198,8179,8242,8190,8177,8184,8172,8170,8.422628164291382
88,8176,8159,8213,8157,8186,8178,8206,8169,8155,8200,8185,8151,8164,8172,8.430625200271606
89,8187,8185,8218,8163,8159,8179,8184,8165,8199,8163,8153,8179,8167,8167,8.437625646591187
90,8157,8158,8198,8146,8151,8172,8174,8157,8112,8153,8145,8150,8157,8137,8.44562554359436
91,8175,8165,8214,8162,8161,8186,8178,8174,8147,8175,8171,8163,8167,8151,8.453625679016113
92,8186,8172,8234,8174,8166,8182,8186,8189,8233,8192,8181,8175,8176,8162,8.461625337600708
93,8183,8157,8222,8172,8172,8175,8196,8174,8140,8198,8178,8135,8166,8152,8.469625234603882
94,8191,8186,8232,8175,8152,8189,8177,8165,8188,8165,8163,8179,8173,8146,8.477626323699951
95,8162,8161,8216,8162,8154,8177,8177,8164,8134,8173,8168,8153,8164,8132,8.486109495162964
96,8178,8172,8209,8181,8166,8178,8184,8175,8144,8191,8170,8148,8166,8143,8.494109153747559
97,8161,8180,8195,8172,8152,8173,8168,8172,8196,8168,8159,8165,8168,8126,8.502116680145264
98,8116,8141,8161,8137,8146,8164,8169,8161,8078,8163,8148,8115,8153,8100,8.508653402328491
99,8145,8168,8168,8148,8132,8178,8167,8171,8141,8155,8126,8151,8162,8113,8.517072439193726
100,8149,8163,8168,8147,8134,8175,8170,8164,8120,8164,8143,8151,8161,8118,8.52533745765686
101,8168,8171,8191,8160,8145,8181,8168,8160,8116,8178,8172,8166,8169,8145,8.533377170562744
102,8180,8192,8218,8175,8145,8186,8164,8171,8208,8176,8178,8198,8178,8160,8.541329145431519
103,8178,8167,8205,8169,8159,8187,8181,8172,8139,8196,8190,8149,8163,8153,8.54892635345459
104,8210,8190,8218,8181,8152,8187,8173,8179,8207,8191,8183,8182,8170,8164,8.55693244934082
105,8195,8185,8220,8180,8153,8166,8168,8164,8173,8179,8174,8170,8172,8152,8.565109014511108
106,8192,8180,8231,8188,8168,8178,8172,8159,8128,8173,8181,8156,8169,8149,8.572199583053589
107,8199,8197,8238,8195,8164,8194,8169,8177,8221,8168,8182,8191,8172,8152,8.580109119415283
108,8185,8178,8209,8187,8175,8188,8181,8171,8152,8190,8186,8153,8163,8142,8.587631464004517
108,8185,8178,8209,8187,8175,8188,8181,8171,8152,8190,8186,8153,8163,8142,8.58863115310669
109,8194,8197,8218,8195,8175,8194,8175,8170,8213,8184,8183,8185,8176,8155,8.595656394958496
110,8177,8178,8210,8181,8173,8177,8180,8177,8206,8186,8180,8172,8170,8150,8.603655815124512
111,8188,8165,8191,8171,8177,8168,8188,8167,8127,8184,8160,8140,8157,8149,8.611790895462036
112,8183,8187,8203,8165,8161,8169,8168,8155,8183,8148,8132,8180,8167,8146,8.619804620742798
113,8153,8159,8190,8156,8159,8160,8175,8162,8111,8165,8150,8153,8161,8136,8.628102540969849
114,8183,8175,8191,8173,8151,8170,8177,8186,8171,8170,8158,8178,8172,8154,8.634912967681885
115,8178,8180,8190,8166,8160,8163,8171,8180,8190,8165,8149,8173,8178,8152,8.643064022064209
116,8196,8178,8203,8173,8191,8157,8185,8173,8142,8191,8163,8155,8172,8164,8.651057004928589
117,8228,8202,8231,8192,8182,8161,8189,8188,8248,8186,8172,8207,8176,8184,8.659108877182007
118,8189,8172,8209,8173,8172,8159,8192,8185,8177,8185,8176,8164,8162,8160,8.667126417160034
119,8196,8182,8200,8173,8168,8183,8187,8186,8194,8186,8159,8169,8168,8153,8.67513108253479
120,8184,8171,8187,8162,8164,8176,8183,8179,8199,8176,8148,8175,8167,8146,8.683347225189209
121,8153,8149,8174,8156,8167,8163,8183,8168,8104,8170,8158,8141,8155,8130,8.690596342086792
122,8172,8178,8191,8171,8160,8181,8169,8178,8191,8165,8151,8176,8165,8125,8.697587966918945
123,8179,8153,8177,8157,8173,8180,8178,8166,8123,8174,8150,8148,8159,8121,8.706109285354614
123,8179,8153,8177,8157,8173,8180,8178,8166,8123,8174,8150,8148,8159,8121,8.706598281860352
124,8177,8159,8181,8157,8168,8182,8173,8155,8118,8153,8147,8168,8165,8134,8.714104652404785
125,8164,8171,8178,8155,8158,8176,8176,8169,8165,8153,8144,8179,8168,8135,8.7225501537323
126,8180,8155,8163,8148,8176,8173,8205,8184,8110,8182,8152,8134,8161,8149,8.729851961135864
127,8186,8170,8167,8146,8157,8181,8187,8183,8180,8150,8142,8173,8175,8157,8.738109111785889
239,8150,8150,8142,8132,8144,8178,8175,8166,8106,8143,8137,8148,8168,8130,8.746362924575806
0,8193,8173,8152,8153,8156,8197,8183,8172,8127,8163,8132,8156,8167,8154,8.754360675811768
1,8196,8176,8165,8147,8160,8193,8176,8173,8187,8150,8131,8177,8169,8166,8.762365341186523
2,8169,8140,8148,8126,8165,8187,8178,8159,8094,8150,8134,8142,8160,8149,8.769066572189331
3,8216,8181,8171,8155,8158,8208,8180,8173,8199,8149,8116,8186,8173,8164,8.776906967163086
4,8212,8180,8175,8161,8178,8209,8194,8173,8183,8164,8128,8159,8164,8164,8.784889698028564
5,8203,8168,8169,8165,8192,8227,8193,8175,8156,8169,8135,8146,8160,8161,8.792903423309326
6,8218,8171,8171,8164,8180,8236,8185,8184,8216,8160,8123,8178,8172,8162,8.801109790802002
7,8226,8163,8174,8159,8186,8229,8197,8179,8157,8181,8142,8153,8170,8176,8.80910873413086
8,8243,8197,8191,8175,8184,8240,8187,8186,8240,8173,8135,8184,8174,8190,8.817072868347168
8,8243,8197,8191,8175,8184,8240,8187,8186,8240,8173,8135,8184,8174,8190,8.817927598953247
9,8212,8170,8160,8156,8191,8233,8189,8172,8182,8163,8119,8155,8163,8161,8.82493281364441
10,8201,8158,8141,8150,8197,8238,8197,8171,8136,8170,8136,8141,8166,8153,8.83294677734375
11,8199,8176,8152,8159,8183,8242,8188,8186,8228,8173,8144,8174,8175,8154,8.839946985244751
12,8192,8153,8134,8148,8189,8232,8193,8168,8134,8182,8141,8137,8161,8147,8.848108530044556
13,8206,8169,8135,8144,8176,8231,8175,8157,8162,8154,8135,8167,8169,8158,8.856109619140625
14,8182,8147,8126,8127,8157,8217,8161,8156,8137,8146,8132,8150,8164,8143,8.864109992980957
14,8182,8147,8126,8127,8157,8217,8161,8156,8137,8146,8132,8150,8164,8143,8.864545106887817
15,8188,8134,8123,8124,8160,8222,8164,8152,8080,8146,8121,8131,8157,8135,8.871712684631348
16,8195,8156,8130,8133,8152,8227,8153,8154,8138,8120,8100,8168,8163,8128,8.879712343215942
17,8183,8141,8119,8133,8162,8223,8162,8152,8050,8134,8105,8131,8155,8123,8.8881094455719
18,8216,8171,8148,8155,8170,8243,8169,8166,8122,8132,8113,8172,8171,8153,8.896109342575073
19,8211,8168,8156,8158,8177,8235,8180,8168,8152,8131,8120,8173,8169,8154,8.902469635009766
20,8207,8156,8147,8156,8184,8224,8179,8156,8086,8150,8121,8138,8154,8144,8.911109447479248
21,8212,8181,8165,8169,8174,8235,8157,8161,8168,8153,8127,8180,8169,8146,8.919098615646362
22,8197,8159,8159,8168,8191,8225,8171,8167,8125,8179,8162,8153,8173,8149,8.927097082138062
23,8212,8176,8161,8176,8189,8221,8166,8166,8167,8170,8154,8172,8173,8161,8.935116052627563
23,8212,8176,8161,8176,8189,8221,8166,8166,8167,8170,8154,8172,8173,8161,8.935623168945312
24,8187,8175,8155,8157,8172,8207,8156,8153,8154,8150,8130,8169,8160,8136,8.942600965499878
24,8187,8175,8155,8157,8172,8207,8156,8153,8154,8150,8130,8169,8160,8136,8.943646907806396
25,8174,8150,8144,8147,8175,8196,8168,8149,8065,8161,8134,8139,8154,8123,8.951110601425171
26,8178,8165,8143,8152,8163,8203,8160,8157,8143,8141,8123,8174,8166,8128,8.959624290466309
27,8152,8148,8117,8130,8167,8210,8165,8149,8059,8130,8111,8130,8153,8110,8.965444803237915
28,8174,8159,8121,8137,8170,8225,8171,8153,8066,8121,8100,8142,8155,8119,8.973458290100098
28,8174,8159,8121,8137,8170,8225,8171,8153,8066,8121,8100,8142,8155,8119,8.97445034980774
29,8160,8152,8121,8129,8163,8215,8168,8158,8105,8122,8107,8161,8165,8125,8.98210859298706
30,8159,8147,8124,8124,8172,8219,8170,8159,8060,8146,8131,8142,8164,8136,8.990108489990234
31,8200,8186,8155,8144,8163,8232,8161,8160,8161,8133,8124,8187,8175,8148,8.998152256011963
32,8177,8153,8144,8142,8164,8214,8175,8154,8095,8141,8137,8154,8165,8140,9.00610876083374
33,8202,8164,8165,8163,8166,8226,8197,8180,8141,8173,8157,8171,8169,8173,9.01410984992981
34,8227,8180,8186,8159,8158,8233,8197,8184,8224,8172,8150,8196,8174,8181,9.022109270095823
35,8207,8156,8172,8146,8166,8225,8190,8157,8110,8167,8157,8156,8164,8153,9.03010892868042
36,8227,8193,8202,8173,8175,8236,8179,8171,8202,8174,8179,8196,8181,8166,9.037073373794556
37,8225,8180,8202,8169,8191,8234,8188,8175,8205,8205,8191,8178,8174,8177,9.045098066329956
38,8221,8172,8178,8181,8189,8236,8189,8163,8188,8201,8177,8174,8166,8179,9.05309796333313
39,8203,8176,8165,8192,8175,8219,8183,8161,8219,8176,8172,8190,8170,8166,9.060651540756226
39,8203,8176,8165,8192,8175,8219,8183,8161,8219,8176,8172,8190,8170,8166,9.061669826507568
40,8193,8157,8163,8168,8175,8213,8191,8160,8133,8181,8182,8149,8164,8159,9.068655252456663
41,8213,8179,8182,8172,8156,8240,8181,8167,8205,8163,8158,8181,8172,8170,9.07666277885437
41,8213,8179,8182,8172,8156,8240,8181,8167,8205,8163,8158,8181,8172,8170,9.077654361724854
42,8190,8153,8154,8170,8157,8227,8190,8161,8154,8168,8142,8157,8160,8159,9.08510971069336
43,8187,8152,8131,8164,8155,8208,8188,8161,8121,8177,8141,8156,8160,8155,9.092997550964355
44,8181,8180,8134,8154,8133,8198,8168,8160,8179,8158,8137,8190,8165,8146,9.099997997283936
45,8173,8162,8132,8153,8153,8192,8184,8151,8091,8173,8155,8146,8157,8143,9.108039379119871
46,8196,8178,8149,8173,8161,8201,8185,8169,8179,8182,8160,8182,8172,8164,9.116145610809326
47,8175,8162,8133,8157,8151,8184,8184,8166,8167,8185,8162,8177,8169,8151,9.123936176300049
48,8191,8167,8137,8163,8159,8179,8187,8156,8126,8185,8166,8164,8165,8154,9.131954669952393
49,8199,8191,8155,8178,8156,8173,8176,8162,8211,8176,8155,8194,8173,8158,9.140105485916138
50,8158,8157,8120,8165,8170,8159,8183,8159,8122,8196,8157,8151,8163,8141,9.147528409957886
50,8158,8157,8120,8165,8170,8159,8183,8159,8122,8196,8157,8151,8163,8141,9.148537158966064
51,8169,8174,8112,8183,8181,8173,8183,8164,8168,8194,8161,8179,8172,8142,9.155112266540527
52,8166,8170,8117,8191,8191,8168,8181,8159,8169,8194,8169,8171,8167,8129,9.163111209869385
53,8163,8161,8122,8186,8196,8169,8182,8150,8114,8200,8167,8149,8160,8126,9.171112775802612
54,8160,8185,8126,8186,8177,8175,8174,8159,8187,8182,8148,8181,8172,8127,9.17936897277832
55,8135,8161,8099,8190,8187,8159,8188,8158,8105,8190,8154,8141,8164,8119,9.187072992324827
56,8125,8166,8100,8195,8184,8158,8176,8156,8135,8175,8147,8165,8167,8121,9.195118188858032
57,8090,8155,8088,8168,8166,8142,8154,8149,8121,8161,8135,8161,8161,8094,9.203121185302734
58,8113,8151,8080,8166,8168,8140,8166,8146,8055,8174,8137,8138,8158,8101,9.211108684539797
59,8144,8180,8104,8186,8158,8157,8167,8159,8161,8163,8135,8192,8177,8131,9.219108581542969
60,8119,8160,8105,8171,8158,8149,8172,8159,8105,8176,8154,8163,8170,8126,9.225918769836426
61,8146,8182,8122,8177,8156,8146,8169,8155,8138,8177,8171,8181,8173,8147,9.233919143676758
62,8151,8185,8125,8193,8163,8145,8170,8155,8175,8178,8184,8189,8180,8157,9.241914987564089
63,8152,8171,8129,8205,8180,8157,8189,8165,8122,8204,8203,8157,8175,8164,9.249914407730104
64,8167,8194,8158,8203,8169,8161,8182,8167,8212,8191,8198,8198,8177,8172,9.258294582366943
65,8142,8167,8135,8186,8172,8144,8185,8150,8146,8198,8202,8167,8167,8152,9.266111373901367
66,8155,8183,8130,8213,8183,8158,8186,8165,8174,8218,8210,8179,8176,8162,9.27403998374939
67,8139,8188,8136,8201,8177,8150,8179,8174,8208,8217,8205,8191,8174,8162,9.282053232192991
68,8113,8153,8112,8164,8170,8140,8179,8151,8084,8204,8194,8147,8156,8139,9.28905439376831
69,8117,8167,8098,8164,8151,8155,8161,8146,8132,8165,8167,8175,8161,8120,9.297054052352903
70,8089,8143,8076,8155,8152,8146,8165,8141,8063,8161,8161,8144,8153,8099,9.305092334747314
71,8115,8153,8092,8167,8149,8144,8171,8144,8061,8165,8158,8156,8161,8126,9.313109397888184
72,8130,8169,8111,8166,8143,8145,8168,8144,8133,8151,8157,8183,8173,8141,9.321098804473875
73,8116,8146,8096,8160,8159,8151,8173,8137,8052,8153,8172,8145,8161,8127,9.329098463058472
74,8143,8175,8108,8181,8152,8162,8164,8149,8125,8147,8165,8185,8165,8127,9.33709454536438
75,8154,8170,8113,8172,8160,8152,8178,8141,8102,8163,8162,8171,8164,8127,9.3451030254364
76,8160,8174,8124,8178,8176,8163,8183,8135,8100,8164,8178,8170,8170,8140,9.353094577789308
77,8136,8181,8122,8190,8155,8162,8165,8151,8163,8152,8191,8193,8172,8127,9.359538793563845
78,8129,8157,8110,8182,8144,8149,8173,8151,8075,8175,8199,8158,8160,8115,9.3675377368927
78,8129,8157,8110,8182,8144,8149,8173,8151,8075,8175,8199,8158,8160,8115,9.36853837966919
79,8156,8182,8136,8189,8140,8167,8168,8149,8143,8165,8194,8196,8172,8133,9.37610936164856
80,8123,8163,8120,8182,8155,8170,8170,8153,8115,8162,8196,8167,8166,8118,9.384110927581789
81,8123,8161,8107,8184,8159,8174,8174,8156,8084,8171,8185,8152,8162,8114,9.391579389572144
82,8131,8175,8113,8174,8134,8167,8157,8145,8138,8149,8164,8186,8169,8116,9.399579286575316
83,8104,8144,8091,8156,8133,8150,8162,8135,8023,8144,8176,8140,8156,8098,9.407585382461548
83,8104,8144,8091,8156,8133,8150,8162,8135,8023,8144,8176,8140,8156,8098,9.408594608306885
84,8116,8166,8101,8178,8127,8162,8163,8148,8081,8131,8168,8174,8158,8097,9.416110038757324
85,8102,8161,8101,8174,8128,8163,8163,8144,8081,8132,8168,8172,8158,8091,9.423100233078005
86,8115,8164,8100,8179,8145,8168,8165,8144,8048,8147,8190,8159,8162,8106,9.43109130859375
87,8123,8183,8106,8190,8131,8166,8146,8149,8120,8133,8182,8194,8169,8108,9.439108610153198
88,8094,8148,8087,8175,8128,8147,8137,8134,8007,8135,8177,8150,8160,8087,9.447072744369509
89,8124,8170,8109,8193,8134,8153,8133,8139,8061,8132,8181,8185,8174,8100,9.455163478851318
90,8126,8169,8122,8198,8143,8150,8142,8138,8091,8137,8197,8197,8170,8106,9.463093757629396
91,8125,8155,8113,8193,8137,8155,8151,8138,8040,8151,8204,8170,8162,8115,9.471110343933104
92,8129,8174,8116,8189,8112,8158,8139,8147,8115,8132,8186,8195,8171,8120,9.479300260543823
93,8098,8151,8096,8169,8125,8142,8139,8134,8026,8136,8195,8158,8161,8098,9.486110925674438
94,8105,8163,8091,8174,8118,8147,8125,8134,8046,8132,8194,8178,8167,8102,9.494093656539915
95,8098,8157,8081,8170,8102,8140,8126,8138,8062,8131,8188,8179,8165,8099,9.502094745635986
