COUNTER,F3,FC5,AF3,F7,T7,P7,O1,O2,P8,T8,F8,AF4,FC6,F4,Timestamp
85,8201,8191,8189,8175,8172,8162,8195,8188,8246,8192,8149,8194,8171,8134,0.0029993057250976
86,8194,8174,8189,8171,8176,8147,8203,8192,8219,8202,8144,8179,8163,8126,0.0112767219543457
87,8201,8176,8179,8177,8166,8149,8199,8177,8187,8198,8130,8166,8164,8121,0.0192763805389404
88,8187,8182,8172,8171,8148,8145,8178,8165,8220,8175,8116,8178,8171,8112,0.0272762775421142
89,8176,8155,8168,8156,8164,8135,8195,8169,8135,8191,8130,8143,8161,8116,0.0353598594665527
90,8193,8178,8183,8164,8150,8148,8190,8180,8210,8176,8118,8186,8168,8132,0.0424456596374511
91,8156,8159,8151,8150,8130,8135,8174,8162,8158,8160,8103,8157,8155,8095,0.049452781677246
91,8156,8159,8151,8150,8130,8135,8174,8162,8158,8160,8103,8157,8155,8095,0.0504529476165771
92,8171,8160,8153,8156,8148,8141,8179,8156,8129,8171,8109,8147,8157,8086,0.0574541091918945
92,8171,8160,8153,8156,8148,8141,8179,8156,8129,8171,8109,8147,8157,8086,0.0584545135498046
93,8191,8185,8186,8166,8160,8149,8184,8173,8225,8175,8117,8186,8174,8102,0.0662271976470947
94,8175,8159,8168,8157,8158,8139,8193,8166,8144,8183,8127,8147,8160,8105,0.0742278099060058
95,8192,8174,8170,8167,8136,8148,8177,8161,8193,8159,8118,8181,8163,8118,0.0822272300720214
96,8170,8165,8167,8156,8137,8134,8174,8158,8169,8156,8115,8164,8160,8095,0.0900521278381347
97,8178,8167,8161,8162,8151,8133,8184,8161,8127,8174,8111,8141,8154,8086,0.0975475311279296
97,8178,8167,8161,8162,8151,8133,8184,8161,8127,8174,8111,8141,8154,8086,0.0985333919525146
98,8180,8179,8164,8163,8140,8143,8170,8160,8197,8164,8100,8181,8165,8093,0.1060583591461181
99,8139,8152,8155,8143,8151,8147,8172,8151,8109,8172,8127,8149,8168,8091,0.1130781173706054
100,8177,8184,8183,8172,8156,8165,8183,8178,8190,8172,8138,8181,8186,8112,0.1210489273071289
101,8196,8176,8176,8174,8153,8148,8197,8180,8212,8182,8122,8172,8175,8114,0.1289262771606445
102,8182,8157,8155,8153,8156,8148,8190,8154,8145,8192,8115,8147,8161,8112,0.1367852687835693
103,8159,8174,8169,8152,8147,8160,8161,8153,8214,8167,8115,8185,8170,8093,0.1447834968566894
104,8139,8151,8164,8154,8152,8141,8169,8153,8120,8170,8120,8145,8152,8059,0.1530523300170898
105,8196,8183,8175,8174,8156,8156,8180,8161,8147,8165,8107,8173,8155,8085,0.1610517501831054
106,8192,8188,8173,8164,8160,8156,8175,8157,8168,8146,8104,8181,8166,8103,0.1690478324890136
106,8192,8188,8173,8164,8160,8156,8175,8157,8168,8146,8104,8181,8166,8103,0.1695599555969238
107,8167,8167,8169,8155,8164,8148,8172,8155,8115,8150,8116,8149,8164,8099,0.1765704154968261
108,8183,8177,8179,8160,8145,8148,8166,8164,8199,8160,8106,8182,8165,8090,0.1845700740814209
109,8160,8146,8157,8149,8154,8130,8173,8147,8112,8176,8105,8143,8151,8065,0.1924104690551757
110,8164,8171,8174,8175,8158,8144,8157,8142,8129,8160,8107,8163,8163,8066,0.2003600597381591
111,8168,8177,8181,8184,8143,8143,8141,8144,8165,8151,8108,8174,8164,8067,0.2080490589141845
112,8172,8148,8161,8173,8157,8139,8152,8142,8101,8162,8120,8144,8158,8083,0.2160511016845703
113,8181,8177,8178,8186,8159,8150,8144,8153,8199,8138,8117,8191,8179,8110,0.2233924865722656
113,8181,8177,8178,8186,8159,8150,8144,8153,8199,8138,8117,8191,8179,8110,0.2243998050689697
114,8165,8168,8177,8185,8151,8132,8151,8151,8146,8140,8117,8161,8171,8110,0.2313988208770752
115,8193,8175,8184,8192,8147,8134,8157,8156,8166,8154,8129,8181,8173,8131,0.2403991222381591
116,8210,8183,8199,8194,8160,8134,8171,8177,8246,8179,8157,8203,8180,8139,0.2464165687561035
116,8210,8183,8199,8194,8160,8134,8171,8177,8246,8179,8157,8203,8180,8139,0.2474448680877685
117,8214,8176,8197,8193,8179,8128,8198,8185,8196,8214,8168,8156,8171,8133,0.2550501823425293
118,8209,8192,8190,8190,8150,8132,8185,8177,8253,8175,8125,8184,8169,8119,0.2630505561828613
119,8166,8152,8156,8165,8144,8123,8178,8157,8155,8142,8111,8148,8153,8085,0.2710528373718261
120,8180,8157,8162,8177,8156,8133,8171,8160,8131,8142,8122,8151,8160,8093,0.2790811061859131
121,8190,8178,8182,8187,8155,8130,8165,8169,8208,8148,8128,8189,8172,8110,0.2873735427856445
121,8190,8178,8182,8187,8155,8130,8165,8169,8208,8148,8128,8189,8172,8110,0.2876358032226562
122,8193,8165,8185,8185,8178,8131,8197,8177,8174,8186,8159,8169,8169,8129,0.2950527667999267
123,8225,8195,8215,8204,8179,8156,8204,8203,8291,8195,8168,8209,8181,8160,0.3024868965148926
124,8202,8177,8207,8193,8181,8144,8196,8197,8257,8199,8166,8176,8172,8151,0.3105804920196533
124,8202,8177,8207,8193,8181,8144,8196,8197,8257,8199,8166,8176,8172,8151,0.3115739822387695
125,8216,8177,8203,8200,8182,8153,8193,8192,8236,8202,8165,8171,8168,8153,0.318002700805664
126,8225,8185,8205,8200,8175,8157,8194,8198,8292,8189,8155,8198,8173,8148,0.3260159492492676
127,8198,8153,8183,8179,8191,8134,8203,8181,8174,8190,8157,8142,8166,8132,0.3340494632720947
239,8217,8180,8198,8195,8181,8134,8186,8173,8236,8171,8162,8169,8179,8150,0.3420491218566894
0,8200,8166,8202,8191,8176,8125,8187,8173,8230,8177,8179,8161,8172,8155,0.3505704402923584
1,8207,8161,8206,8193,8190,8135,8210,8188,8205,8195,8177,8159,8168,8161,0.358583927154541
2,8214,8178,8208,8197,8179,8137,8205,8197,8274,8182,8158,8187,8174,8154,0.3654916286468506
2,8214,8178,8208,8197,8179,8137,8205,8197,8274,8182,8158,8187,8174,8154,0.3664906024932861
3,8186,8150,8183,8184,8181,8121,8199,8182,8178,8186,8160,8129,8154,8133,0.3734989166259765
3,8186,8150,8183,8184,8181,8121,8199,8182,8178,8186,8160,8129,8154,8133,0.374492883682251
4,8202,8180,8193,8192,8188,8130,8188,8182,8229,8173,8149,8154,8161,8142,0.3810474872589111
5,8184,8171,8180,8181,8192,8114,8182,8172,8202,8159,8137,8151,8167,8123,0.3890459537506103
6,8190,8158,8169,8182,8197,8112,8184,8162,8140,8161,8138,8150,8166,8122,0.3971881866455078
7,8199,8184,8196,8188,8188,8117,8172,8165,8223,8145,8140,8193,8167,8138,0.4051885604858398
8,8173,8162,8189,8177,8192,8095,8171,8151,8123,8146,8144,8140,8152,8122,0.4130468368530273
9,8205,8181,8200,8189,8188,8104,8169,8153,8155,8147,8138,8169,8169,8129,0.4210093021392822
10,8206,8174,8204,8183,8189,8112,8175,8161,8182,8164,8146,8178,8174,8128,0.4290177822113037
11,8196,8161,8193,8182,8201,8120,8181,8157,8138,8174,8158,8149,8165,8135,0.4370102882385254
12,8195,8179,8191,8187,8183,8126,8169,8161,8214,8150,8140,8182,8174,8138,0.4450461864471435
13,8181,8152,8174,8168,8180,8109,8178,8156,8127,8159,8134,8142,8162,8120,0.4520480632781982
14,8201,8167,8195,8173,8180,8115,8172,8158,8159,8149,8129,8167,8164,8131,0.4603853225708008
15,8189,8169,8193,8167,8177,8112,8173,8167,8193,8142,8132,8175,8167,8128,0.4683876037597656
16,8185,8157,8179,8161,8183,8122,8193,8174,8136,8164,8142,8144,8167,8124,0.4763936996459961
17,8194,8177,8192,8172,8168,8129,8173,8173,8203,8151,8127,8184,8172,8124,0.4844124317169189
18,8172,8146,8177,8159,8177,8103,8167,8156,8119,8157,8130,8146,8158,8117,0.4921131134033203
19,8185,8159,8182,8163,8183,8122,8163,8164,8151,8164,8137,8159,8172,8130,0.4994375705718994
20,8169,8166,8179,8160,8167,8123,8153,8159,8182,8156,8121,8166,8172,8116,0.5074150562286377
21,8160,8145,8165,8155,8165,8105,8158,8138,8083,8160,8118,8125,8154,8111,0.5149319171905518
22,8180,8166,8181,8166,8159,8123,8145,8147,8174,8143,8120,8170,8168,8116,0.5228602886199951
23,8164,8153,8173,8158,8172,8125,8152,8149,8138,8152,8129,8146,8165,8100,0.5310461521148682
24,8191,8178,8193,8181,8184,8134,8167,8163,8167,8164,8131,8163,8172,8127,0.5388669967651367
25,8197,8181,8205,8183,8184,8130,8176,8174,8233,8167,8135,8181,8173,8138,0.5465919971466064
26,8173,8143,8180,8164,8191,8125,8179,8158,8140,8187,8146,8133,8159,8116,0.5551908016204834
27,8188,8175,8195,8182,8184,8138,8161,8166,8222,8188,8144,8182,8177,8124,0.5631818771362305
28,8177,8167,8198,8181,8197,8131,8172,8178,8207,8206,8165,8167,8176,8129,0.5710463523864746
29,8194,8169,8202,8184,8204,8149,8185,8183,8209,8209,8170,8161,8171,8142,0.5777544975280762
30,8182,8174,8202,8175,8179,8151,8170,8170,8239,8175,8153,8180,8175,8137,0.5860464572906494
31,8154,8150,8184,8160,8177,8135,8162,8150,8124,8174,8156,8137,8161,8119,0.5942702293395996
32,8179,8173,8192,8167,8171,8150,8155,8156,8192,8166,8145,8170,8162,8114,0.6020731925964355
33,8151,8151,8172,8149,8170,8148,8165,8161,8159,8166,8143,8154,8157,8096,0.6101975440979004
34,8156,8156,8173,8162,8177,8151,8163,8167,8139,8172,8150,8160,8164,8106,0.6180458068847656
35,8184,8178,8196,8181,8178,8156,8155,8171,8222,8164,8145,8188,8176,8119,0.6262404918670654
36,8170,8147,8181,8165,8192,8159,8173,8156,8130,8170,8146,8133,8162,8108,0.6342155933380127
37,8169,8165,8176,8164,8173,8167,8161,8156,8171,8154,8135,8167,8165,8111,0.6412231922149658
38,8138,8151,8167,8153,8158,8144,8148,8153,8130,8148,8138,8161,8159,8097,0.6492214202880859
39,8156,8150,8185,8166,8174,8163,8161,8154,8097,8160,8154,8152,8164,8106,0.6570312976837158
40,8186,8180,8212,8187,8174,8191,8164,8167,8205,8155,8150,8191,8178,8125,0.6650471687316895
41,8170,8161,8185,8176,8170,8174,8173,8155,8124,8161,8150,8140,8163,8119,0.6730465888977051
42,8174,8176,8181,8175,8150,8177,8160,8148,8163,8145,8146,8164,8174,8119,0.6810462474822998
42,8174,8176,8181,8175,8150,8177,8160,8148,8163,8145,8146,8164,8174,8119,0.6816449165344238
43,8156,8166,8176,8169,8153,8172,8153,8151,8180,8155,8150,8169,8173,8103,0.6889684200286865
44,8175,8162,8177,8173,8172,8184,8167,8159,8156,8183,8158,8152,8167,8115,0.6973559856414795
45,8190,8185,8188,8176,8165,8197,8169,8170,8239,8172,8153,8188,8180,8130,0.7043569087982178
46,8163,8161,8169,8164,8171,8175,8184,8171,8162,8187,8169,8153,8172,8112,0.7123627662658691
47,8177,8177,8176,8179,8170,8179,8179,8181,8213,8186,8169,8179,8174,8111,0.720221996307373
48,8155,8171,8167,8171,8165,8183,8172,8174,8220,8170,8154,8171,8169,8087,0.7282211780548096
49,8163,8162,8165,8169,8172,8185,8189,8163,8142,8179,8157,8145,8165,8083,0.7362339496612549
50,8191,8189,8188,8179,8159,8174,8178,8167,8223,8169,8157,8198,8176,8103,0.7440464496612549
51,8164,8165,8171,8161,8161,8153,8172,8155,8148,8169,8159,8157,8163,8093,0.7520525455474854
51,8164,8165,8171,8161,8161,8153,8172,8155,8148,8169,8159,8157,8163,8093,0.7524192333221436
52,8175,8181,8177,8171,8156,8173,8165,8153,8156,8151,8145,8168,8165,8092,0.7592778205871582
52,8175,8181,8177,8171,8156,8173,8165,8153,8156,8151,8145,8168,8165,8092,0.7602701187133789
53,8169,8178,8188,8171,8149,8168,8161,8160,8173,8148,8142,8180,8166,8091,0.7682697772979736
54,8171,8157,8185,8168,8164,8167,8172,8171,8134,8180,8165,8154,8169,8113,0.7753510475158691
55,8189,8181,8192,8176,8157,8191,8165,8176,8241,8178,8160,8192,8183,8117,0.7830731868743896
56,8163,8149,8167,8155,8153,8172,8166,8152,8150,8178,8150,8150,8161,8080,0.7910721302032471
57,8163,8159,8178,8162,8152,8173,8163,8154,8148,8167,8152,8164,8162,8097,0.7990765571594238
58,8158,8176,8189,8178,8147,8182,8168,8168,8198,8163,8158,8182,8173,8109,0.8060767650604248
59,8173,8161,8174,8185,8158,8179,8187,8157,8116,8183,8158,8140,8167,8096,0.814401388168335
60,8195,8182,8189,8192,8159,8185,8174,8163,8205,8170,8147,8180,8174,8097,0.8228256702423096
61,8165,8162,8180,8184,8170,8180,8179,8174,8171,8176,8154,8156,8162,8091,0.8308186531066895
62,8190,8180,8194,8205,8176,8194,8192,8183,8184,8181,8155,8167,8165,8109,0.8379030227661133
63,8211,8198,8214,8215,8169,8191,8198,8181,8250,8176,8156,8189,8175,8118,0.8461494445800781
64,8194,8169,8195,8204,8178,8177,8198,8165,8155,8182,8163,8148,8161,8115,0.8541488647460938
65,8199,8183,8195,8212,8159,8175,8168,8163,8211,8155,8145,8188,8165,8115,0.8621494770050049
66,8185,8172,8189,8204,8154,8161,8171,8160,8190,8169,8160,8172,8163,8105,0.8701491355895996
67,8201,8189,8206,8226,8169,8183,8181,8167,8209,8194,8185,8180,8171,8126,0.8781514167785645
68,8203,8199,8216,8241,8165,8193,8172,8171,8269,8180,8170,8207,8176,8132,0.8861615657806396
69,8196,8170,8203,8229,8179,8182,8188,8160,8174,8187,8168,8163,8165,8125,0.8934745788574219
69,8196,8170,8203,8229,8179,8182,8188,8160,8174,8187,8168,8163,8165,8125,0.8944742679595947
70,8217,8196,8222,8241,8181,8197,8184,8173,8267,8185,8171,8203,8178,8132,0.9014732837677002
71,8186,8178,8209,8235,8180,8187,8175,8172,8238,8178,8166,8175,8168,8102,0.9089236259460448
72,8194,8179,8207,8244,8185,8190,8180,8165,8195,8168,8162,8157,8162,8105,0.9169249534606934
73,8208,8202,8219,8249,8178,8192,8176,8167,8273,8159,8156,8200,8168,8121,0.925048828125
74,8182,8168,8191,8231,8177,8170,8174,8153,8164,8173,8148,8155,8152,8102,0.9326827526092528
75,8188,8179,8191,8235,8163,8173,8159,8153,8197,8154,8129,8174,8163,8102,0.940680742263794
76,8159,8163,8181,8220,8158,8161,8159,8152,8185,8151,8136,8162,8165,8091,0.949047327041626
77,8174,8159,8176,8214,8164,8162,8174,8152,8142,8174,8140,8148,8162,8090,0.95701003074646
78,8201,8178,8194,8203,8155,8169,8171,8154,8217,8163,8131,8192,8175,8104,0.9653184413909912
78,8201,8178,8194,8203,8155,8169,8171,8154,8217,8163,8131,8192,8175,8104,0.9655280113220216
79,8166,8144,8179,8174,8162,8153,8167,8149,8134,8161,8148,8151,8167,8097,0.9718379974365234
80,8180,8171,8186,8203,8156,8164,8163,8166,8186,8155,8138,8173,8168,8097,0.9798381328582764
81,8183,8176,8186,8216,8156,8157,8180,8161,8184,8152,8130,8174,8164,8089,0.988046407699585
82,8171,8155,8181,8207,8154,8159,8179,8147,8119,8157,8144,8153,8159,8096,0.9960474967956544
83,8179,8174,8189,8224,8133,8167,8154,8165,8210,8150,8128,8186,8166,8097,1.0042731761932373
84,8172,8155,8168,8233,8159,8153,8174,8163,8141,8163,8124,8147,8155,8087,1.0123331546783447
85,8176,8171,8180,8243,8174,8171,8183,8163,8179,8157,8131,8173,8167,8098,1.0203349590301514
86,8153,8166,8184,8230,8155,8169,8172,8170,8207,8165,8126,8172,8170,8081,1.0280461311340332
87,8164,8156,8177,8231,8162,8158,8175,8171,8142,8184,8123,8141,8157,8083,1.0360438823699951
88,8178,8180,8181,8236,8165,8163,8165,8167,8215,8157,8120,8185,8165,8096,1.0430383682250977
89,8132,8146,8148,8188,8163,8156,8168,8149,8129,8162,8119,8138,8160,8070,1.05104660987854
90,8142,8154,8153,8168,8155,8170,8169,8159,8145,8164,8104,8148,8168,8066,1.0590460300445557
91,8147,8166,8169,8159,8156,8163,8178,8170,8186,8154,8097,8160,8170,8066,1.0665245056152344
92,8153,8160,8168,8153,8173,8160,8199,8169,8129,8177,8118,8132,8164,8078,1.0745322704315186
92,8153,8160,8168,8153,8173,8160,8199,8169,8129,8177,8118,8132,8164,8078,1.0755245685577393
93,8171,8187,8184,8154,8171,8170,8189,8180,8233,8173,8127,8185,8175,8106,1.0830469131469729
94,8133,8158,8164,8126,8181,8153,8189,8175,8157,8157,8120,8151,8162,8098,1.091048240661621
95,8150,8164,8162,8134,8185,8166,8192,8175,8139,8145,8098,8155,8163,8093,1.0990464687347412
96,8158,8171,8166,8128,8177,8162,8187,8174,8187,8144,8095,8172,8167,8084,1.1060466766357422
97,8143,8159,8167,8108,8194,8154,8197,8179,8123,8168,8122,8138,8166,8089,1.1141984462738037
98,8174,8192,8199,8122,8192,8174,8195,8195,8224,8162,8125,8188,8180,8115,1.1222002506256104
99,8170,8163,8184,8116,8196,8163,8195,8178,8174,8164,8130,8160,8163,8108,1.130046844482422
100,8171,8161,8174,8116,8199,8163,8188,8172,8151,8165,8129,8153,8163,8105,1.138044834136963
101,8148,8178,8173,8107,8184,8163,8174,8179,8208,8157,8119,8176,8169,8091,1.146036148071289
102,8136,8154,8155,8099,8190,8156,8187,8169,8119,8170,8124,8133,8150,8089,1.154036283493042
103,8158,8169,8166,8112,8182,8167,8183,8172,8182,8155,8115,8170,8159,8109,1.1620945930480957
104,8120,8146,8153,8093,8171,8158,8178,8167,8130,8149,8112,8148,8156,8087,1.169084548950195
105,8120,8150,8148,8092,8169,8161,8171,8156,8092,8151,8108,8138,8155,8081,1.177083969116211
106,8124,8174,8150,8096,8170,8156,8161,8159,8158,8144,8101,8167,8166,8079,1.1851694583892822
107,8119,8158,8142,8093,8191,8146,8178,8165,8095,8170,8127,8135,8161,8074,1.1931989192962646
108,8158,8180,8167,8111,8193,8161,8173,8172,8187,8173,8134,8173,8169,8098,1.2012619972229004
109,8138,8159,8155,8098,8195,8151,8163,8158,8161,8168,8124,8148,8158,8086,1.2088055610656738
110,8133,8152,8147,8091,8200,8151,8163,8152,8096,8152,8108,8131,8152,8072,1.2170097827911377
111,8139,8175,8164,8091,8188,8152,8160,8161,8156,8123,8100,8172,8162,8069,1.2250473499298096
112,8127,8152,8151,8085,8196,8139,8175,8158,8083,8145,8122,8135,8149,8073,1.232046127319336
113,8148,8175,8167,8102,8191,8156,8161,8162,8146,8142,8129,8164,8163,8096,1.23956036567688
113,8148,8175,8167,8102,8191,8156,8161,8162,8146,8142,8129,8164,8163,8096,1.240553617477417
114,8133,8170,8164,8089,8190,8146,8148,8155,8134,8134,8131,8159,8166,8086,1.2485554218292236
114,8133,8170,8164,8089,8190,8146,8148,8155,8134,8134,8131,8159,8166,8086,1.2486748695373535
115,8136,8164,8158,8088,8200,8137,8150,8145,8080,8149,8140,8149,8161,8094,1.2557826042175293
116,8153,8189,8176,8108,8193,8142,8144,8157,8171,8139,8141,8185,8174,8111,1.263768434524536
117,8130,8161,8158,8098,8199,8135,8154,8152,8092,8142,8140,8130,8165,8097,1.272115707397461
118,8136,8174,8154,8097,8192,8146,8153,8153,8130,8140,8122,8154,8168,8093,1.280116319656372
119,8135,8177,8154,8094,8192,8139,8165,8158,8147,8156,8129,8162,8166,8087,1.2881247997283936
120,8140,8164,8157,8099,8210,8144,8176,8161,8101,8169,8153,8142,8162,8095,1.296115159988403
120,8140,8164,8157,8099,8210,8144,8176,8161,8101,8169,8153,8142,8162,8095,1.2971158027648926
121,8139,8176,8164,8099,8203,8148,8157,8167,8195,8148,8143,8185,8176,8096,1.3030412197113037
122,8120,8158,8151,8085,8213,8125,8172,8160,8129,8171,8150,8147,8169,8091,1.3110418319702148
123,8151,8187,8179,8107,8215,8142,8177,8164,8177,8186,8165,8170,8178,8120,1.3190538883209229
124,8140,8175,8178,8105,8199,8141,8161,8163,8204,8179,8157,8180,8177,8116,1.3270525932312012
125,8131,8150,8156,8092,8201,8132,8167,8157,8118,8183,8147,8148,8161,8108,1.335047483444214
126,8149,8182,8163,8095,8188,8138,8162,8158,8187,8158,8132,8186,8162,8118,1.3430469036102295
127,8127,8154,8149,8079,8184,8129,8170,8147,8109,8158,8135,8152,8156,8109,1.3510987758636477
239,8161,8169,8171,8098,8188,8153,8177,8160,8146,8170,8144,8176,8172,8127,1.359103441238403
0,8168,8186,8184,8103,8189,8157,8170,8165,8197,8163,8148,8189,8167,8124,1.366046667098999
1,8151,8166,8169,8096,8199,8142,8170,8157,8098,8164,8153,8143,8153,8109,1.3740456104278564
2,8167,8187,8182,8108,8188,8150,8167,8164,8180,8152,8143,8188,8173,8126,1.3820462226867676
3,8152,8163,8173,8093,8191,8142,8175,8163,8146,8164,8147,8162,8166,8125,1.3904106616973877
4,8163,8172,8172,8092,8184,8147,8167,8169,8147,8161,8144,8164,8162,8130,1.3984262943267822
5,8150,8180,8172,8092,8160,8144,8155,8170,8187,8146,8141,8184,8167,8129,1.4064412117004397
6,8139,8154,8161,8089,8167,8134,8166,8156,8104,8165,8162,8144,8165,8128,1.4144816398620603
7,8164,8177,8168,8094,8162,8145,8155,8160,8175,8148,8150,8176,8170,8131,1.4220421314239502
8,8146,8163,8149,8073,8160,8145,8157,8158,8121,8141,8138,8146,8154,8111,1.4290692806243896
9,8158,8167,8157,8086,8166,8165,8168,8166,8132,8160,8154,8153,8163,8127,1.437075138092041
10,8156,8171,8158,8087,8151,8161,8165,8174,8210,8158,8152,8183,8170,8124,1.4450461864471436
11,8134,8141,8125,8060,8144,8147,8170,8160,8086,8146,8132,8133,8146,8096,1.4531426429748535
12,8153,8164,8143,8073,8139,8167,8164,8167,8144,8134,8124,8173,8163,8106,1.4611427783966064
13,8139,8144,8146,8072,8149,8155,8177,8176,8147,8161,8151,8162,8169,8108,1.4693169593811035
14,8147,8147,8143,8074,8153,8157,8181,8170,8122,8169,8157,8149,8160,8116,1.4770095348358154
15,8150,8171,8149,8076,8141,8168,8159,8168,8180,8148,8146,8177,8166,8114,1.4848649501800537
15,8150,8171,8149,8076,8141,8168,8159,8168,8180,8148,8146,8177,8166,8114,1.4858639240264893
16,8122,8136,8125,8059,8146,8156,8158,8161,8094,8167,8165,8138,8163,8100,1.4920332431793213
17,8139,8152,8131,8070,8137,8166,8152,8166,8160,8163,8165,8178,8173,8107,1.5000431537628174
18,8122,8145,8129,8063,8139,8166,8154,8162,8138,8156,8154,8161,8161,8081,1.5080413818359375
19,8121,8140,8123,8065,8146,8170,8155,8156,8077,8158,8142,8135,8152,8062,1.5168232917785645
20,8133,8161,8132,8074,8130,8167,8143,8164,8151,8142,8134,8173,8168,8062,1.5238301753997805
21,8135,8140,8134,8068,8146,8155,8161,8169,8092,8165,8161,8145,8164,8075,1.531826734542847
22,8177,8167,8161,8084,8157,8177,8168,8187,8185,8175,8175,8180,8171,8110,1.5396459102630615
23,8156,8169,8148,8079,8154,8173,8163,8180,8193,8165,8167,8168,8163,8095,1.5476784706115725
24,8136,8160,8133,8076,8158,8174,8168,8172,8116,8170,8153,8135,8155,8086,1.5546655654907229
25,8142,8173,8149,8078,8147,8184,8168,8193,8206,8165,8141,8179,8166,8099,1.5630464553833008
26,8125,8146,8130,8065,8147,8173,8181,8187,8141,8174,8160,8148,8157,8093,1.5710458755493164
27,8137,8167,8130,8080,8140,8185,8169,8181,8172,8161,8163,8170,8169,8105,1.5785832405090332
28,8123,8165,8122,8076,8137,8183,8157,8176,8166,8149,8140,8162,8166,8091,1.5865964889526367
28,8123,8165,8122,8076,8137,8183,8157,8176,8166,8149,8140,8162,8166,8091,1.5875909328460691
29,8126,8150,8110,8069,8145,8187,8163,8175,8087,8149,8129,8129,8149,8069,1.594611644744873
30,8140,8171,8122,8074,8132,8191,8149,8181,8163,8129,8123,8171,8156,8065,1.603046417236328
31,8122,8151,8111,8059,8142,8169,8155,8174,8093,8145,8133,8137,8156,8060,1.6112804412841797
32,8151,8174,8132,8083,8153,8190,8168,8188,8149,8158,8141,8162,8173,8080,1.6192810535430908
33,8149,8166,8139,8087,8147,8193,8175,8187,8194,8153,8139,8174,8173,8090,1.626335382461548
34,8133,8137,8124,8072,8149,8183,8169,8166,8105,8157,8143,8143,8162,8096,1.6336140632629397
35,8145,8168,8142,8084,8137,8195,8149,8172,8196,8149,8145,8189,8174,8099,1.6416139602661133
36,8123,8139,8135,8080,8143,8185,8167,8175,8143,8161,8153,8149,8164,8086,1.649616241455078
36,8123,8139,8135,8080,8143,8185,8167,8175,8143,8161,8153,8149,8164,8086,1.6506483554840088
37,8135,8144,8141,8083,8146,8187,8167,8174,8145,8160,8141,8153,8165,8096,1.6573359966278076
37,8135,8144,8141,8083,8146,8187,8167,8174,8145,8160,8141,8153,8165,8096,1.6583380699157717
38,8131,8163,8138,8075,8142,8174,8151,8168,8186,8155,8134,8177,8171,8082,1.666337490081787
39,8126,8145,8119,8070,8151,8164,8166,8162,8106,8164,8146,8142,8164,8076,1.6740195751190186
40,8150,8166,8140,8077,8136,8186,8162,8169,8184,8143,8135,8176,8173,8098,1.6820478439331057
41,8134,8153,8142,8069,8142,8183,8163,8162,8140,8152,8142,8150,8163,8089,1.6900475025177002
42,8163,8169,8152,8095,8159,8189,8170,8166,8148,8163,8149,8161,8169,8101,1.6970515251159668
43,8160,8172,8149,8094,8150,8182,8164,8168,8191,8146,8138,8178,8177,8105,1.7050464153289795
44,8129,8140,8133,8072,8152,8165,8166,8157,8087,8158,8145,8129,8159,8092,1.7130470275878906
45,8155,8172,8157,8090,8149,8174,8169,8169,8175,8151,8137,8175,8164,8104,1.721053123474121
46,8141,8158,8146,8083,8153,8167,8187,8169,8140,8147,8130,8158,8158,8095,1.7290465831756592
47,8150,8157,8148,8087,8155,8173,8192,8166,8113,8158,8137,8152,8164,8102,1.7370095252990725
48,8167,8182,8173,8101,8157,8171,8182,8174,8210,8162,8149,8192,8177,8120,1.745046854019165
49,8169,8164,8160,8099,8171,8156,8193,8171,8146,8174,8157,8157,8163,8123,1.753046989440918
50,8176,8173,8150,8093,8152,8161,8179,8170,8174,8150,8133,8176,8165,8117,1.760040044784546
51,8132,8149,8130,8068,8147,8148,8170,8163,8127,8146,8124,8149,8156,8092,1.7680439949035645
52,8149,8157,8140,8085,8161,8162,8183,8169,8125,8160,8137,8147,8158,8108,1.7760465145111084
53,8170,8186,8161,8107,8155,8170,8183,8182,8217,8154,8145,8191,8176,8119,1.7842187881469729
54,8144,8159,8144,8092,8166,8152,8187,8169,8110,8166,8156,8146,8165,8103,1.792219638824463
55,8154,8177,8153,8095,8162,8170,8176,8164,8154,8153,8147,8173,8169,8116,1.800046443939209
56,8142,8165,8145,8083,8155,8170,8180,8169,8163,8152,8147,8167,8166,8112,1.8084282875061035
57,8142,8154,8134,8078,8157,8165,8187,8174,8119,8161,8151,8150,8163,8115,1.8164856433868408
58,8137,8173,8141,8076,8142,8171,8165,8173,8172,8133,8130,8178,8168,8101,1.8234872817993164
59,8118,8152,8126,8062,8150,8174,8170,8155,8080,8137,8124,8129,8152,8072,1.8304874897003172
60,8140,8175,8138,8080,8155,8198,8172,8156,8139,8136,8128,8164,8160,8085,1.8384897708892824
61,8127,8161,8133,8077,8163,8188,8170,8158,8143,8135,8131,8166,8162,8082,1.8464889526367188
62,8123,8143,8127,8070,8176,8185,8169,8158,8074,8146,8136,8138,8157,8086,1.854534387588501
63,8124,8169,8143,8076,8153,8191,8157,8162,8164,8132,8132,8180,8168,8094,1.8630475997924805
64,8107,8143,8126,8063,8147,8173,8162,8150,8079,8142,8134,8141,8163,8082,1.8710472583770752
65,8142,8164,8147,8080,8157,8188,8160,8159,8113,8142,8131,8161,8175,8103,1.8787879943847656
66,8147,8176,8166,8089,8163,8184,8160,8163,8151,8140,8141,8169,8173,8114,1.8870041370391848
67,8140,8165,8158,8092,8162,8168,8158,8144,8065,8138,8150,8144,8157,8102,1.894028663635254
68,8145,8178,8164,8094,8140,8168,8135,8141,8118,8112,8121,8186,8161,8094,1.902024745941162
69,8121,8144,8150,8066,8146,8162,8149,8140,8047,8125,8115,8145,8153,8093,1.9100456237792969
70,8139,8157,8163,8073,8153,8185,8159,8149,8085,8130,8130,8161,8167,8113,1.9180612564086916
71,8133,8164,8169,8083,8149,8191,8148,8151,8128,8121,8133,8179,8169,8100,1.9260671138763428
72,8141,8152,8169,8090,8157,8192,8157,8152,8069,8146,8142,8148,8164,8103,1.9350392818450928
73,8179,8188,8202,8105,8144,8201,8152,8164,8186,8153,8157,8199,8184,8145,1.9420382976531985
74,8142,8163,8195,8095,8141,8183,8149,8153,8130,8157,8180,8169,8171,8137,1.9500412940979004
75,8150,8165,8194,8105,8146,8190,8155,8157,8124,8157,8172,8169,8171,8134,1.9570391178131104
76,8167,8174,8194,8096,8146,8188,8164,8173,8184,8157,8155,8186,8180,8136,1.965037822723389
77,8156,8153,8181,8090,8163,8183,8177,8176,8122,8175,8162,8147,8164,8134,1.9730377197265625
78,8164,8176,8193,8111,8153,8194,8169,8184,8202,8162,8146,8176,8163,8139,1.9810380935668943
79,8142,8153,8175,8097,8143,8169,8166,8166,8122,8150,8133,8142,8157,8118,1.9890377521514893
80,8153,8159,8178,8099,8141,8169,8157,8151,8080,8141,8140,8152,8165,8123,1.997042655944824
81,8157,8177,8194,8110,8148,8176,8159,8160,8166,8138,8157,8190,8174,8133,2.0050578117370605
82,8147,8156,8180,8108,8177,8167,8183,8165,8118,8161,8171,8145,8164,8141,2.012596845626831
83,8159,8173,8182,8111,8167,8176,8163,8176,8184,8154,8155,8182,8173,8151,2.0200464725494385
84,8143,8156,8167,8099,8155,8163,8159,8169,8144,8164,8151,8165,8166,8132,2.0280356407165527
85,8163,8164,8173,8115,8164,8162,8175,8164,8134,8177,8159,8157,8164,8142,2.0361125469207764
86,8154,8178,8185,8114,8158,8159,8160,8165,8197,8155,8155,8189,8171,8146,2.0441195964813232
87,8128,8148,8171,8098,8155,8144,8153,8156,8091,8161,8163,8146,8159,8134,2.0521240234375
88,8169,8175,8183,8120,8148,8146,8149,8160,8165,8160,8159,8177,8168,8148,2.0601627826690674
89,8151,8165,8170,8107,8153,8127,8155,8156,8154,8157,8158,8163,8163,8142,2.0680465698242188
90,8136,8158,8166,8099,8158,8140,8157,8162,8111,8158,8161,8150,8161,8143,2.076202392578125
91,8155,8178,8174,8113,8151,8153,8154,8172,8194,8149,8146,8180,8172,8147,2.083035945892334
92,8142,8150,8153,8096,8166,8132,8171,8154,8107,8161,8149,8139,8160,8137,2.091036081314087
93,8131,8158,8157,8089,8149,8141,8154,8162,8140,8146,8141,8176,8163,8135,2.099034547805786
94,8113,8146,8144,8085,8137,8144,8149,8170,8130,8145,8133,8162,8160,8118,2.106034755706787
95,8144,8149,8143,8099,8165,8153,8169,8167,8106,8171,8144,8138,8162,8128,2.114889621734619
96,8155,8172,8159,8103,8163,8148,8152,8167,8204,8160,8135,8183,8168,8130,2.1229214668273926
97,8117,8137,8129,8080,8153,8120,8144,8149,8086,8152,8119,8138,8152,8100,2.131019830703736
98,8138,8160,8141,8096,8152,8138,8148,8153,8103,8138,8114,8154,8168,8112,2.139040470123291
99,8141,8164,8158,8100,8160,8144,8157,8162,8140,8144,8123,8159,8172,8110,2.1470091342926025
100,8137,8144,8144,8096,8164,8139,8163,8158,8079,8149,8117,8133,8159,8099,2.1540472507476807
101,8143,8166,8143,8105,8141,8141,8158,8162,8147,8127,8098,8169,8170,8105,2.1620688438415527
102,8130,8149,8136,8098,8148,8137,8182,8168,8092,8152,8124,8139,8166,8112,2.17007064819336
103,8160,8172,8157,8111,8161,8165,8191,8183,8152,8170,8150,8169,8173,8143,2.178046703338623
104,8153,8172,8154,8106,8154,8163,8183,8178,8190,8166,8152,8175,8168,8146,2.1860499382019043
105,8131,8148,8130,8095,8149,8148,8179,8168,8109,8168,8150,8130,8157,8123,2.19396710395813
106,8133,8170,8136,8096,8128,8158,8164,8174,8182,8149,8128,8167,8170,8104,2.201977014541626
107,8113,8147,8122,8080,8130,8143,8170,8163,8116,8168,8125,8144,8163,8097,2.2099125385284424
108,8145,8157,8132,8098,8136,8146,8175,8171,8143,8181,8146,8160,8170,8122,2.2163963317871094
108,8145,8157,8132,8098,8136,8146,8175,8171,8143,8181,8146,8160,8170,8122,2.2174251079559326
109,8138,8163,8139,8100,8132,8146,8173,8174,8178,8158,8140,8175,8175,8112,2.225275993347168
110,8115,8141,8127,8090,8134,8139,8176,8156,8065,8162,8096,8139,8163,8092,2.233278751373291
111,8142,8172,8139,8108,8120,8148,8160,8160,8143,8160,8096,8176,8168,8100,2.241046667098999
112,8128,8160,8128,8097,8130,8139,8161,8162,8109,8159,8166,8142,8158,8084,2.2493197917938232
113,8138,8165,8136,8094,8135,8153,8165,8160,8109,8157,8162,8151,8166,8089,2.257010698318481
114,8132,8166,8143,8092,8120,8159,8164,8163,8157,8155,8115,8178,8171,8092,2.26504898071289
115,8117,8144,8121,8083,8132,8156,8178,8162,8073,8171,8136,8134,8161,8091,2.2730712890625
116,8135,8174,8133,8090,8130,8168,8162,8162,8141,8162,8147,8172,8178,8101,2.2800698280334477
117,8115,8151,8132,8087,8132,8151,8160,8158,8098,8169,8142,8147,8174,8085,2.288082838058472
118,8133,8152,8145,8100,8143,8157,8180,8165,8104,8176,8158,8147,8171,8099,2.296111583709717
119,8140,8174,8151,8099,8141,8156,8180,8170,8197,8178,8158,8184,8178,8106,2.3039066791534424
120,8120,8148,8125,8092,8143,8141,8175,8158,8103,8193,8154,8138,8165,8088,2.3114304542541504
120,8120,8148,8125,8092,8143,8141,8175,8158,8103,8193,8154,8138,8165,8088,2.312422275543213
121,8133,8164,8136,8103,8126,8154,8160,8159,8144,8163,8144,8166,8173,8095,2.320046186447144
122,8118,8147,8129,8088,8126,8140,8169,8156,8115,8163,8152,8157,8167,8087,2.32761287689209
123,8118,8143,8122,8092,8132,8136,8167,8157,8090,8178,8155,8150,8161,8092,2.336048126220703
124,8113,8159,8120,8094,8111,8132,8140,8157,8144,8151,8135,8172,8167,8090,2.344048023223877
125,8100,8142,8103,8078,8121,8120,8153,8141,8040,8149,8131,8128,8159,8075,2.3511605262756348
126,8131,8175,8130,8099,8133,8140,8164,8157,8115,8151,8132,8175,8171,8092,2.359160184860229
127,8129,8172,8141,8106,8134,8132,8165,8161,8124,8159,8151,8179,8171,8099,2.367010593414306
239,8144,8165,8149,8113,8135,8131,8163,8148,8077,8161,8167,8160,8163,8109,2.375190019607544
0,8147,8176,8160,8113,8127,8140,8150,8146,8151,8142,8159,8188,8171,8106,2.383291244506836
1,8119,8154,8143,8097,8138,8124,8154,8141,8069,8157,8169,8146,8165,8088,2.391122817993164
1,8119,8154,8143,8097,8138,8124,8154,8141,8069,8157,8169,8146,8165,8088,2.391657829284668
2,8152,8188,8160,8122,8135,8132,8149,8149,8128,8159,8167,8178,8173,8105,2.3986761569976807
3,8141,8180,8161,8126,8140,8127,8152,8147,8143,8154,8167,8177,8168,8102,2.406670093536377
4,8136,8161,8152,8121,8161,8129,8163,8144,8089,8163,8172,8149,8160,8106,2.414041042327881
5,8155,8184,8160,8128,8148,8137,8147,8150,8162,8148,8154,8187,8171,8108,2.4220492839813232
6,8133,8159,8145,8123,8150,8125,8151,8141,8078,8157,8159,8150,8160,8090,2.4299123287200928
7,8150,8174,8160,8145,8156,8140,8155,8151,8128,8165,8172,8169,8169,8108,2.4379148483276367
8,8140,8173,8157,8138,8152,8146,8153,8156,8153,8164,8169,8164,8169,8108,2.4460456371307373
9,8133,8153,8137,8121,8151,8155,8160,8150,8083,8168,8167,8138,8159,8096,2.454046726226806
10,8149,8179,8152,8134,8145,8163,8154,8161,8190,8161,8162,8189,8172,8099,2.4621593952178955
11,8143,8162,8153,8133,8164,8147,8166,8157,8151,8184,8173,8153,8167,8108,2.4701623916625977
12,8164,8171,8172,8142,8161,8165,8162,8151,8169,8176,8173,8165,8174,8128,2.47804594039917
13,8152,8174,8176,8130,8148,8156,8149,8147,8179,8157,8170,8179,8171,8113,2.4850471019744877
14,8150,8167,8169,8126,8166,8138,8159,8151,8108,8179,8193,8148,8167,8113,2.493046283721924
15,8181,8204,8194,8152,8168,8155,8165,8177,8235,8185,8210,8192,8182,8142,2.50122594833374
16,8166,8179,8182,8140,8172,8150,8182,8177,8205,8195,8218,8159,8164,8136,2.5087571144104004
17,8173,8175,8172,8139,8169,8151,8178,8167,8200,8189,8202,8160,8164,8133,2.516757011413574
17,8173,8175,8172,8139,8169,8151,8178,8167,8200,8189,8202,8160,8164,8133,2.517749786376953
18,8158,8172,8168,8137,8157,8149,8162,8159,8223,8167,8192,8174,8174,8118,2.5247528553009038
19,8146,8156,8161,8136,8168,8157,8172,8152,8140,8181,8209,8141,8165,8116,2.533018112182617
20,8177,8190,8181,8146,8162,8172,8164,8161,8231,8179,8204,8189,8175,8139,2.5410802364349365
21,8154,8160,8164,8131,8159,8156,8159,8154,8174,8180,8196,8162,8169,8124,2.5480847358703613
22,8162,8163,8165,8142,8165,8166,8159,8158,8161,8182,8192,8164,8171,8126,2.5560498237609863
23,8170,8188,8182,8149,8170,8177,8159,8168,8246,8189,8195,8187,8175,8130,2.564047574996948
24,8166,8168,8176,8147,8190,8180,8184,8161,8173,8209,8207,8144,8164,8120,2.572016954421997
25,8189,8188,8191,8161,8185,8195,8184,8168,8237,8185,8194,8181,8170,8134,2.58001708984375
26,8169,8174,8177,8148,8180,8181,8169,8161,8192,8177,8189,8158,8161,8133,2.588047504425049
27,8175,8175,8178,8151,8182,8187,8163,8151,8156,8181,8197,8147,8167,8142,2.595888376235962
28,8180,8187,8189,8162,8179,8189,8163,8158,8221,8169,8191,8172,8174,8130,2.6039068698883057
29,8165,8159,8163,8154,8186,8174,8169,8154,8123,8172,8180,8122,8156,8107,2.611701726913452
30,8170,8177,8164,8154,8169,8195,8148,8159,8178,8153,8172,8160,8171,8119,2.6190481185913086
31,8151,8166,8162,8143,8176,8190,8162,8165,8178,8168,8194,8160,8175,8125,2.6270129680633545
32,8168,8167,8168,8153,8192,8187,8187,8170,8165,8194,8207,8149,8170,8141,2.63504958152771
33,8174,8184,8180,8159,8169,8192,8172,8172,8250,8182,8193,8182,8175,8142,2.6430835723876958
34,8152,8155,8164,8145,8170,8189,8180,8169,8176,8200,8204,8140,8167,8136,2.651050567626953
35,8174,8182,8180,8160,8176,8214,8184,8179,8239,8206,8210,8169,8180,8153,2.659114360809326
36,8160,8179,8174,8152,8174,8210,8183,8169,8223,8201,8205,8159,8174,8138,2.667104959487915
37,8154,8163,8156,8146,8175,8201,8176,8155,8147,8198,8200,8134,8164,8128,2.674050807952881
38,8164,8176,8159,8153,8168,8199,8165,8164,8219,8181,8188,8177,8176,8137,2.682051181793213
39,8152,8152,8152,8142,8178,8189,8186,8166,8153,8198,8200,8150,8168,8142,2.689631462097168
39,8152,8152,8152,8142,8178,8189,8186,8166,8153,8198,8200,8150,8168,8142,2.6906235218048096
40,8170,8179,8172,8161,8178,8202,8191,8176,8212,8202,8206,8177,8174,8156,2.69763731956482
41,8157,8178,8171,8161,8175,8193,8189,8175,8235,8205,8202,8162,8170,8142,2.7057535648345947
42,8161,8164,8166,8154,8178,8192,8198,8170,8188,8218,8202,8132,8162,8146,2.714050531387329
43,8178,8183,8182,8160,8168,8196,8188,8178,8278,8203,8189,8181,8173,8161,2.7220489978790283
44,8154,8161,8166,8154,8185,8182,8194,8172,8203,8217,8195,8150,8167,8148,2.7300236225128174
45,8170,8182,8171,8166,8183,8197,8188,8169,8236,8220,8194,8165,8172,8156,2.738049268722534
46,8153,8177,8165,8156,8166,8192,8180,8163,8245,8203,8182,8163,8164,8144,2.745079040527344
47,8141,8157,8151,8149,8177,8186,8193,8162,8154,8208,8182,8135,8150,8134,2.75307846069336
48,8166,8186,8169,8159,8171,8200,8193,8176,8246,8195,8175,8182,8163,8141,2.7611141204833984
49,8147,8161,8160,8143,8174,8193,8195,8170,8178,8182,8175,8143,8156,8123,2.769040822982788
50,8169,8174,8168,8154,8180,8202,8194,8171,8176,8168,8165,8152,8162,8133,2.7770533561706543
51,8168,8178,8168,8152,8175,8190,8188,8166,8211,8164,8164,8168,8170,8138,2.7850542068481445
52,8155,8157,8161,8152,8178,8186,8192,8160,8141,8183,8183,8131,8163,8140,2.793046474456787
53,8183,8193,8186,8173,8172,8209,8186,8180,8242,8182,8185,8178,8171,8157,2.8010475635528564
54,8167,8172,8172,8153,8178,8193,8190,8167,8192,8189,8190,8153,8162,8146,2.807960271835327
55,8167,8166,8171,8149,8175,8196,8177,8146,8166,8179,8184,8153,8161,8143,2.8159780502319336
56,8152,8170,8179,8151,8167,8202,8162,8153,8196,8167,8177,8173,8159,8133,2.824041843414306
57,8145,8151,8164,8146,8181,8195,8177,8160,8119,8187,8190,8133,8149,8125,2.832146644592285
58,8166,8176,8173,8152,8175,8201,8167,8162,8200,8170,8179,8170,8168,8135,2.8400466442108154
59,8137,8155,8164,8141,8180,8186,8164,8152,8145,8167,8166,8146,8164,8122,2.848046064376831
60,8152,8164,8171,8150,8187,8194,8175,8158,8130,8171,8169,8147,8162,8130,2.856045961380005
61,8166,8190,8188,8155,8175,8203,8171,8163,8207,8158,8172,8177,8164,8137,2.8630635738372803
62,8155,8170,8180,8155,8185,8195,8183,8159,8132,8179,8183,8138,8161,8139,2.8710620403289795
63,8177,8193,8199,8181,8188,8202,8179,8177,8230,8181,8189,8184,8185,8159,2.879063129425049
64,8170,8176,8194,8170,8186,8189,8174,8169,8210,8179,8189,8168,8171,8148,2.8870644569396973
65,8173,8173,8192,8160,8183,8191,8167,8155,8149,8174,8176,8149,8155,8148,2.89484977722168
66,8170,8191,8203,8165,8179,8197,8163,8166,8219,8162,8169,8180,8172,8148,2.9028565883636475
67,8156,8164,8183,8154,8192,8191,8175,8165,8141,8175,8182,8143,8165,8137,2.911046028137207
68,8174,8179,8184,8154,8173,8205,8155,8161,8180,8154,8164,8167,8163,8141,2.919046401977539
69,8152,8165,8174,8144,8159,8195,8147,8152,8155,8144,8155,8151,8157,8132,2.927010536193848
70,8161,8165,8180,8160,8178,8202,8159,8158,8133,8161,8176,8143,8157,8145,2.9350528717041016
71,8182,8184,8198,8172,8179,8215,8164,8177,8231,8160,8181,8179,8167,8157,2.9421699047088623
72,8154,8148,8172,8145,8178,8201,8180,8166,8136,8167,8181,8133,8159,8142,2.950162410736084
73,8167,8166,8172,8154,8166,8217,8170,8161,8173,8153,8170,8165,8168,8147,2.958045959472656
74,8152,8164,8172,8152,8171,8210,8162,8159,8168,8150,8172,8163,8162,8139,2.9660465717315674
75,8146,8154,8177,8148,8181,8199,8174,8166,8120,8171,8192,8142,8160,8151,2.9740469455718994
76,8170,8182,8193,8163,8150,8202,8174,8186,8234,8175,8189,8188,8177,8168,2.982046365737915
77,8175,8166,8175,8165,8150,8202,8180,8178,8175,8193,8198,8146,8162,8159,2.988741159439087
78,8193,8177,8184,8176,8159,8220,8172,8167,8196,8187,8204,8165,8165,8158,2.997732162475586
79,8159,8160,8170,8159,8145,8202,8163,8151,8178,8169,8190,8168,8162,8127,3.005047082901001
80,8148,8144,8145,8148,8140,8198,8165,8146,8076,8163,8170,8128,8148,8102,3.013046979904175
81,8164,8175,8161,8157,8139,8216,8157,8158,8153,8142,8161,8165,8161,8105,3.021082162857056
82,8140,8156,8161,8150,8158,8208,8173,8156,8113,8164,8180,8140,8166,8104,3.0290818214416504
83,8159,8170,8169,8161,8158,8218,8176,8164,8160,8176,8174,8162,8172,8124,3.037082433700561
84,8144,8161,8154,8150,8144,8209,8160,8165,8175,8160,8160,8169,8162,8112,3.0450809001922607
85,8136,8141,8140,8142,8153,8202,8159,8154,8083,8167,8168,8135,8153,8100,3.053081750869751
86,8167,8187,8172,8163,8154,8222,8165,8167,8194,8169,8173,8186,8171,8119,3.061082124710083
87,8149,8170,8163,8160,8160,8216,8184,8170,8150,8177,8186,8157,8161,8118,3.069082260131836
88,8162,8170,8160,8162,8152,8224,8176,8164,8137,8160,8181,8167,8163,8123,3.0760819911956787
89,8167,8183,8169,8158,8144,8225,8162,8163,8177,8150,8177,8187,8172,8117,3.0840814113616943
90,8171,8168,8162,8160,8164,8216,8180,8162,8112,8175,8195,8150,8165,8123,3.092082500457764
91,8188,8184,8173,8170,8159,8223,8175,8166,8200,8163,8191,8191,8171,8140,3.100046396255493
92,8157,8157,8175,8151,8153,8216,8174,8163,8156,8169,8189,8162,8155,8115,3.1075618267059326
93,8169,8166,8192,8159,8155,8226,8178,8168,8159,8181,8194,8165,8158,8124,3.116046190261841
94,8164,8175,8190,8158,8149,8213,8170,8168,8211,8171,8196,8189,8173,8133,3.124068260192871
95,8146,8150,8169,8151,8156,8202,8179,8168,8125,8187,8205,8143,8166,8118,3.1320688724517822
96,8183,8180,8190,8173,8152,8232,8178,8184,8217,8183,8191,8180,8171,8124,3.1390459537506104
97,8166,8164,8181,8158,8168,8227,8182,8174,8191,8188,8190,8163,8161,8118,3.147010564804077
98,8152,8163,8184,8161,8176,8228,8179,8171,8173,8201,8206,8167,8167,8125,3.1550471782684326
99,8172,8185,8197,8180,8157,8224,8173,8177,8249,8198,8203,8201,8176,8133,3.163046836853028
99,8172,8185,8197,8180,8157,8224,8173,8177,8249,8198,8203,8201,8176,8133,3.164074182510376
100,8183,8164,8180,8174,8176,8204,8190,8160,8155,8207,8202,8155,8159,8140,3.1710805892944336
101,8182,8181,8195,8179,8178,8215,8177,8166,8206,8184,8199,8191,8168,8151,3.1787068843841557
102,8152,8170,8181,8166,8165,8212,8178,8173,8184,8184,8201,8182,8162,8129,3.18661904335022
102,8152,8170,8181,8166,8165,8212,8178,8173,8184,8184,8201,8182,8162,8129,3.187612771987915
103,8183,8177,8171,8170,8177,8221,8195,8175,8162,8206,8209,8170,8154,8138,3.195039987564087
104,8195,8194,8189,8178,8181,8221,8186,8181,8254,8200,8212,8203,8165,8151,3.2031986713409424
105,8160,8159,8182,8168,8188,8206,8183,8172,8176,8208,8230,8159,8163,8143,3.209730625152588
106,8187,8188,8196,8183,8187,8223,8174,8175,8225,8195,8227,8187,8168,8155,3.2180464267730717
107,8184,8187,8183,8175,8194,8214,8177,8164,8191,8183,8216,8172,8160,8134,3.2258899211883545
108,8178,8175,8164,8165,8199,8208,8185,8158,8126,8185,8213,8147,8158,8122,3.233461856842041
108,8178,8175,8164,8165,8199,8208,8185,8158,8126,8185,8213,8147,8158,8122,3.234461545944214
109,8178,8189,8176,8166,8175,8206,8177,8175,8229,8186,8209,8196,8171,8134,3.2414684295654297
109,8178,8189,8176,8166,8175,8206,8177,8175,8229,8186,8209,8196,8171,8134,3.2424612045288086
110,8161,8162,8171,8162,8176,8184,8190,8171,8165,8208,8222,8167,8159,8136,3.250047206878662
111,8187,8177,8177,8172,8176,8189,8189,8166,8193,8192,8211,8184,8166,8140,3.2580461502075195
112,8160,8160,8156,8150,8171,8180,8171,8155,8170,8171,8199,8172,8161,8116,3.2650468349456787
113,8152,8144,8152,8143,8173,8184,8166,8153,8104,8185,8204,8156,8154,8118,3.2725307941436768
113,8152,8144,8152,8143,8173,8184,8166,8153,8104,8185,8204,8156,8154,8118,3.2735254764556885
114,8178,8171,8178,8159,8163,8195,8161,8166,8200,8176,8196,8207,8170,8142,3.2805309295654297
114,8178,8171,8178,8159,8163,8195,8161,8166,8200,8176,8196,8207,8170,8142,3.2815256118774414
115,8151,8148,8154,8147,8170,8181,8170,8162,8110,8169,8198,8162,8157,8128,3.2895407676696777
116,8166,8168,8153,8161,8172,8197,8173,8166,8143,8164,8191,8180,8160,8129,3.2974207401275635
117,8170,8173,8169,8163,8178,8199,8175,8169,8202,8177,8189,8192,8165,8131,3.3050403594970703
118,8169,8160,8169,8164,8195,8195,8175,8163,8142,8193,8201,8159,8159,8133,3.312915802001953
119,8177,8185,8175,8182,8191,8208,8158,8166,8212,8171,8195,8196,8165,8136,3.320915937423706
120,8152,8155,8161,8175,8194,8193,8168,8165,8147,8178,8199,8160,8158,8127,3.3290460109710693
121,8175,8167,8178,8188,8183,8195,8171,8176,8176,8185,8201,8176,8170,8143,3.3360471725463867
122,8173,8183,8181,8188,8172,8188,8173,8181,8214,8181,8202,8193,8172,8135,3.343630313873291
122,8173,8183,8181,8188,8172,8188,8173,8181,8214,8181,8202,8193,8172,8135,3.3446617126464844
123,8167,8172,8168,8180,8192,8177,8199,8177,8142,8192,8210,8159,8159,8132,3.352046489715576
124,8189,8191,8180,8186,8178,8191,8189,8178,8215,8167,8192,8194,8165,8138,3.36065411567688
125,8171,8165,8168,8180,8166,8230,8178,8159,8128,8159,8184,8155,8154,8115,3.367920398712158
126,8187,8178,8183,8193,8173,8324,8175,8161,8133,8157,8196,8168,8164,8134,3.375919342041016
127,8185,8182,8191,8184,8177,8369,8173,8171,8198,8144,8203,8192,8170,8144,3.384047508239746
239,8172,8155,8173,8171,8188,8369,8175,8156,8100,8149,8202,8144,8152,8130,3.3923428058624268
0,8193,8188,8197,8192,8183,8391,8160,8161,8183,8144,8193,8189,8165,8144,3.399186134338379
1,8188,8173,8191,8189,8187,8378,8175,8170,8171,8172,8211,8175,8167,8157,3.40718674659729
2,8209,8172,8191,8197,8189,8378,8188,8179,8181,8191,8228,8176,8172,8175,3.415047168731689
3,8197,8179,8201,8196,8173,8383,8175,8175,8242,8168,8218,8202,8175,8163,3.423046588897705
4,8165,8153,8179,8183,8179,8367,8174,8153,8127,8162,8210,8154,8156,8135,3.431046962738037
4,8165,8153,8179,8183,8179,8367,8174,8153,8127,8162,8210,8154,8156,8135,3.4316372871398926
5,8181,8174,8176,8190,8168,8372,8159,8159,8183,8150,8201,8185,8166,8138,3.439047336578369
6,8155,8146,8153,8167,8164,8364,8155,8153,8158,8158,8204,8160,8161,8129,3.4470736980438232
7,8152,8139,8145,8163,8162,8364,8157,8146,8118,8161,8192,8145,8152,8126,3.455067873001098
7,8152,8139,8145,8163,8162,8364,8157,8146,8118,8161,8192,8145,8152,8126,3.456066608428955
8,8160,8168,8166,8180,8153,8364,8152,8162,8189,8147,8180,8183,8162,8127,3.4620461463928223
9,8165,8160,8179,8190,8186,8366,8177,8171,8148,8179,8216,8159,8164,8146,3.47005033493042
10,8206,8185,8206,8207,8199,8386,8183,8169,8242,8186,8223,8196,8174,8178,3.478069305419922
11,8174,8164,8183,8184,8179,8367,8167,8151,8195,8166,8193,8171,8159,8147,3.4860715866088867
12,8153,8153,8164,8174,8167,8360,8164,8143,8118,8151,8179,8149,8150,8133,3.4940474033355717
13,8157,8168,8167,8171,8162,8360,8164,8154,8188,8135,8174,8182,8159,8134,3.5022146701812744
14,8145,8143,8149,8162,8176,8344,8184,8153,8110,8153,8179,8138,8151,8121,3.510302782058716
15,8177,8180,8179,8194,8178,8356,8184,8163,8183,8147,8183,8182,8171,8150,3.5183029174804688
16,8182,8187,8200,8203,8185,8347,8181,8165,8210,8155,8204,8191,8176,8167,3.5260465145111084
17,8183,8166,8187,8197,8185,8342,8174,8152,8148,8175,8206,8157,8166,8156,3.5333495140075684
18,8179,8174,8183,8196,8160,8349,8155,8147,8197,8150,8183,8185,8174,8138,3.5410473346710205
19,8167,8157,8181,8195,8176,8342,8178,8150,8125,8163,8201,8157,8168,8139,3.5490643978118896
20,8193,8183,8200,8216,8193,8355,8186,8170,8203,8183,8215,8185,8177,8159,3.557070016860962
21,8164,8171,8182,8196,8184,8344,8178,8164,8229,8183,8212,8177,8172,8140,3.564775228500366
22,8157,8149,8169,8185,8184,8339,8184,8155,8152,8181,8215,8154,8157,8141,3.5729031562805176
23,8178,8178,8194,8204,8182,8345,8176,8173,8235,8164,8206,8200,8169,8154,3.580894947052002
24,8151,8157,8174,8186,8191,8323,8180,8164,8163,8177,8202,8150,8163,8129,3.5890491008758545
25,8159,8163,8163,8176,8180,8326,8173,8152,8165,8163,8175,8161,8157,8130,3.5960404872894287
26,8144,8157,8162,8172,8171,8320,8162,8144,8160,8139,8149,8173,8153,8125,3.604034185409546
27,8143,8152,8168,8178,8185,8317,8170,8139,8079,8151,8163,8143,8158,8121,3.6115529537200928
28,8175,8187,8193,8192,8171,8325,8164,8147,8172,8144,8158,8187,8174,8129,3.620046377182007
29,8155,8157,8173,8182,8178,8312,8173,8146,8112,8150,8143,8153,8157,8114,3.6280460357666016
30,8164,8164,8178,8194,8193,8327,8181,8165,8149,8160,8152,8169,8168,8133,3.636075735092163
30,8164,8164,8178,8194,8193,8327,8181,8165,8149,8160,8152,8169,8168,8133,3.636573553085327
31,8167,8174,8191,8195,8177,8322,8181,8170,8220,8171,8166,8191,8179,8144,3.6440987586975098
32,8163,8152,8177,8187,8178,8320,8186,8148,8119,8180,8153,8150,8160,8130,3.652108192443848
33,8174,8179,8184,8197,8191,8348,8178,8157,8189,8153,8129,8189,8166,8129,3.659670829772949
34,8155,8161,8173,8186,8203,8332,8188,8162,8148,8156,8141,8159,8162,8126,3.666675567626953
35,8174,8166,8182,8194,8188,8329,8186,8158,8132,8161,8139,8161,8172,8148,3.674671173095703
35,8174,8166,8182,8194,8188,8329,8186,8158,8132,8161,8139,8161,8172,8148,3.675672769546509
36,8169,8176,8185,8193,8160,8332,8175,8162,8186,8157,8119,8186,8177,8147,3.68304705619812
37,8143,8148,8153,8176,8162,8325,8179,8166,8112,8174,8122,8139,8155,8130,3.691047191619873
37,8143,8148,8153,8176,8162,8325,8179,8166,8112,8174,8122,8139,8155,8130,3.691685914993286
38,8153,8171,8160,8183,8152,8339,8172,8173,8188,8161,8115,8177,8163,8133,3.6990466117858887
39,8143,8159,8164,8178,8163,8323,8181,8169,8157,8165,8123,8159,8163,8132,3.70706844329834
40,8161,8162,8176,8195,8178,8318,8182,8173,8158,8178,8143,8157,8169,8156,3.7146034240722656
40,8161,8162,8176,8195,8178,8318,8182,8173,8158,8178,8143,8157,8169,8156,3.715598821640015
41,8161,8171,8185,8202,8163,8325,8172,8172,8226,8168,8147,8192,8175,8156,3.723031044006348
42,8141,8150,8175,8189,8164,8324,8187,8159,8128,8177,8160,8157,8159,8140,3.730045557022095
43,8172,8183,8194,8203,8160,8332,8186,8170,8195,8166,8157,8195,8172,8152,3.738393545150757
44,8159,8167,8183,8192,8158,8317,8189,8167,8163,8158,8146,8172,8170,8141,3.7463977336883545
45,8164,8168,8184,8202,8161,8322,8200,8169,8144,8176,8150,8157,8162,8147,3.7604944705963135
46,8186,8202,8212,8224,8159,8321,8198,8188,8264,8192,8166,8199,8168,8163,3.762047290802002
47,8183,8182,8207,8213,8175,8299,8202,8182,8184,8207,8184,8162,8166,8157,3.7699391841888423
48,8200,8200,8212,8217,8167,8309,8183,8178,8215,8188,8160,8189,8179,8163,3.7779576778411865
49,8169,8186,8197,8204,8163,8302,8177,8174,8195,8182,8154,8176,8169,8150,3.785952091217041
50,8174,8175,8198,8196,8167,8298,8196,8175,8149,8186,8157,8158,8165,8154,3.79364275932312
51,8201,8200,8230,8209,8151,8301,8201,8189,8245,8181,8117,8195,8181,8168,3.800658226013184
52,8178,8174,8221,8207,8166,8297,8210,8177,8166,8201,8100,8150,8164,8155,3.808657169342041
53,8183,8174,8213,8202,8165,8301,8190,8165,8175,8176,8111,8170,8160,8143,3.81700587272644
54,8178,8166,8197,8185,8146,8272,8181,8163,8163,8162,8129,8171,8165,8130,3.82504677772522
55,8189,8173,8197,8201,8160,8266,8204,8178,8142,8194,8146,8162,8172,8156,3.833173990249634
56,8194,8195,8208,8222,8170,8277,8207,8191,8254,8189,8148,8201,8178,8172,3.840735673904419
57,8169,8155,8177,8207,8172,8258,8209,8169,8155,8185,8146,8148,8159,8138,3.848735809326172
57,8169,8155,8177,8207,8172,8258,8209,8169,8155,8185,8146,8148,8159,8138,3.8497331142425537
58,8188,8173,8188,8210,8148,8269,8197,8170,8162,8170,8131,8173,8167,8139,3.856047153472901
59,8170,8176,8188,8195,8132,8266,8193,8180,8172,8159,8125,8183,8167,8139,3.864047050476074
60,8169,8164,8175,8201,8150,8266,8212,8181,8114,8182,8141,8156,8161,8146,3.8717617988586426
61,8198,8193,8200,8226,8152,8273,8209,8193,8223,8179,8154,8207,8180,8164,3.879863739013672
61,8198,8193,8200,8226,8152,8273,8209,8193,8223,8179,8154,8207,8180,8164,3.880862236022949
62,8168,8161,8187,8201,8150,8239,8202,8182,8140,8171,8152,8162,8169,8148,3.887872457504273
63,8172,8170,8183,8201,8132,8235,8187,8178,8143,8164,8131,8164,8167,8147,3.8959572315216064
64,8169,8174,8180,8202,8124,8232,8171,8171,8175,8160,8126,8180,8168,8137,3.903952598571777
65,8156,8153,8170,8200,8141,8219,8164,8158,8077,8165,8136,8149,8159,8127,3.911464214324951
66,8164,8178,8182,8216,8134,8221,8150,8168,8158,8153,8127,8191,8169,8131,3.919459819793701
66,8164,8178,8182,8216,8134,8221,8150,8168,8158,8153,8127,8191,8169,8131,3.9204602241516113
67,8145,8155,8169,8199,8135,8218,8163,8174,8125,8173,8139,8161,8166,8129,3.928086042404175
68,8177,8164,8180,8201,8143,8240,8169,8181,8150,8186,8150,8171,8175,8156,3.935082912445069
69,8174,8176,8183,8205,8142,8237,8167,8178,8194,8172,8143,8189,8174,8154,3.943104505538941
70,8151,8158,8162,8198,8154,8227,8185,8175,8098,8173,8151,8148,8157,8136,3.95113754272461
71,8177,8185,8170,8203,8151,8246,8179,8183,8172,8157,8149,8193,8168,8143,3.959139585494995
72,8168,8161,8159,8192,8152,8234,8178,8174,8134,8168,8155,8165,8163,8133,3.967085123062134
72,8168,8161,8159,8192,8152,8234,8178,8174,8134,8168,8155,8165,8163,8133,3.967414140701294
73,8175,8163,8173,8201,8156,8236,8183,8180,8131,8175,8159,8161,8167,8148,3.975421667098999
74,8178,8185,8195,8203,8156,8239,8186,8197,8209,8173,8161,8190,8177,8163,3.9824280738830566
74,8178,8185,8195,8203,8156,8239,8186,8197,8209,8173,8161,8190,8177,8163,3.983421087265015
75,8189,8171,8185,8197,8174,8232,8206,8197,8151,8204,8179,8153,8169,8167,3.989436149597168
76,8207,8192,8203,8218,8164,8245,8191,8198,8228,8187,8173,8192,8178,8175,3.998046875
77,8172,8172,8190,8211,8161,8234,8182,8192,8183,8180,8162,8168,8170,8159,4.005534648895264
78,8198,8173,8179,8209,8169,8234,8189,8195,8156,8195,8161,8162,8166,8177,4.014101028442383
79,8203,8187,8191,8210,8152,8235,8177,8197,8225,8184,8162,8197,8172,8182,4.022100925445557
80,8157,8156,8179,8200,8147,8223,8174,8183,8131,8189,8175,8152,8163,8154,4.030046463012695
81,8169,8174,8180,8202,8139,8226,8167,8187,8184,8176,8155,8182,8170,8157,4.038046360015869
82,8173,8163,8170,8187,8147,8216,8185,8193,8172,8180,8144,8171,8163,8157,4.046041488647461
83,8186,8169,8180,8200,8166,8226,8206,8202,8153,8200,8161,8162,8164,8172,4.0540266036987305
84,8191,8189,8190,8207,8158,8219,8189,8204,8227,8188,8157,8189,8171,8166,4.061036825180054
85,8168,8155,8164,8190,8161,8189,8179,8181,8123,8187,8143,8140,8155,8143,4.069040536880493
86,8187,8181,8179,8204,8164,8207,8176,8188,8191,8181,8133,8176,8170,8159,4.076667785644531
87,8174,8179,8176,8191,8168,8202,8187,8195,8209,8188,8141,8171,8173,8158,4.084667682647705
88,8167,8164,8163,8183,8169,8189,8191,8187,8141,8190,8145,8148,8167,8154,4.093047142028809
89,8167,8176,8168,8198,8150,8189,8176,8186,8204,8163,8124,8183,8174,8145,4.1040472984313965
90,8150,8146,8149,8190,8157,8180,8186,8178,8109,8161,8116,8139,8157,8122,4.109203100204468
90,8150,8146,8149,8190,8157,8180,8186,8178,8109,8161,8116,8139,8157,8122,4.109384775161743
91,8171,8168,8161,8196,8164,8196,8186,8189,8146,8154,8115,8168,8168,8133,4.117391586303711
92,8165,8168,8170,8195,8176,8194,8189,8195,8180,8165,8128,8178,8177,8139,4.123391628265381
93,8173,8162,8168,8207,8192,8200,8199,8185,8138,8192,8144,8148,8169,8146,4.131390571594238
93,8173,8162,8168,8207,8192,8200,8199,8185,8138,8192,8144,8148,8169,8146,4.132391929626465
94,8199,8197,8187,8222,8180,8212,8191,8188,8232,8183,8143,8190,8178,8161,4.139390707015991
95,8184,8175,8188,8209,8196,8191,8207,8188,8171,8197,8165,8163,8174,8166,4.147390842437744
96,8208,8185,8208,8228,8202,8199,8205,8200,8220,8207,8180,8186,8177,8179,4.155390739440918
97,8211,8186,8205,8231,8185,8196,8192,8197,8253,8201,8173,8190,8171,8172,4.1633923053741455
97,8211,8186,8205,8231,8185,8196,8192,8197,8253,8201,8173,8190,8171,8172,4.164391279220581
98,8199,8167,8191,8222,8192,8189,8198,8185,8162,8198,8174,8155,8166,8176,4.171391010284424
99,8204,8190,8211,8236,8189,8200,8189,8195,8232,8182,8168,8201,8183,8186,4.183393239974976
100,8187,8165,8194,8226,8188,8190,8191,8187,8160,8193,8163,8165,8167,8163,4.186391353607178
100,8187,8165,8194,8226,8188,8190,8191,8187,8160,8193,8163,8165,8167,8163,4.18739128112793
101,8202,8175,8186,8224,8177,8199,8184,8177,8163,8181,8143,8166,8161,8159,4.195040464401245
102,8181,8173,8180,8216,8172,8189,8180,8179,8195,8162,8136,8178,8169,8153,4.20295262336731
103,8164,8147,8167,8202,8185,8177,8192,8174,8102,8173,8147,8139,8163,8147,4.2104880809783936
104,8175,8172,8173,8203,8171,8190,8172,8171,8160,8148,8123,8173,8164,8140,4.218488931655884
105,8145,8147,8150,8191,8167,8180,8174,8169,8103,8151,8116,8140,8151,8111,4.227010250091553
106,8173,8154,8160,8204,8175,8186,8190,8182,8122,8177,8128,8154,8162,8132,4.235046863555908
107,8171,8166,8175,8197,8171,8183,8180,8181,8182,8174,8132,8188,8174,8144,4.243046760559082
108,8146,8147,8155,8178,8170,8170,8172,8166,8087,8173,8132,8142,8162,8130,4.250046968460083
109,8171,8172,8161,8191,8152,8170,8157,8165,8151,8156,8119,8178,8169,8143,4.25806736946106
110,8149,8150,8156,8179,8157,8166,8161,8155,8106,8162,8137,8166,8164,8137,4.266045808792114
111,8161,8159,8166,8189,8171,8192,8171,8170,8122,8180,8153,8171,8169,8146,4.274066925048828
112,8178,8177,8170,8196,8166,8184,8169,8182,8202,8175,8130,8186,8177,8150,4.282063484191895
113,8160,8147,8155,8184,8178,8164,8174,8162,8086,8172,8127,8134,8161,8136,4.290633678436279
114,8174,8172,8178,8200,8172,8193,8167,8168,8157,8159,8130,8179,8168,8139,4.298046827316284
115,8159,8166,8165,8192,8166,8184,8171,8173,8148,8166,8125,8163,8165,8126,4.306069612503052
116,8163,8162,8154,8192,8169,8173,8174,8172,8107,8166,8121,8148,8167,8136,4.312592506408691
117,8170,8168,8169,8193,8158,8183,8163,8177,8182,8155,8131,8187,8172,8149,4.321108102798462
118,8155,8149,8160,8180,8168,8189,8168,8172,8114,8185,8148,8151,8157,8145,4.329221725463867
119,8171,8180,8176,8198,8171,8204,8159,8178,8178,8186,8136,8179,8177,8154,4.33711314201355
120,8145,8151,8161,8186,8166,8180,8150,8167,8144,8168,8129,8159,8175,8137,4.345047235488892
121,8135,8129,8137,8171,8158,8166,8146,8153,8058,8156,8117,8137,8155,8123,4.353040218353272
122,8133,8159,8138,8168,8135,8170,8132,8155,8116,8135,8100,8171,8163,8113,4.361052513122559
123,8119,8140,8127,8159,8148,8157,8142,8148,8040,8146,8117,8134,8161,8109,4.369051933288574
124,8153,8158,8141,8172,8155,8177,8138,8154,8099,8141,8119,8170,8169,8134,4.377009868621826
125,8143,8155,8135,8166,8148,8182,8132,8163,8105,8140,8107,8161,8163,8119,4.384067535400391
126,8140,8144,8131,8164,8158,8175,8139,8164,8044,8151,8107,8134,8155,8121,4.392033815383911
127,8148,8163,8147,8169,8155,8168,8126,8164,8128,8134,8109,8185,8167,8137,4.40003514289856
239,8128,8138,8132,8160,8153,8150,8125,8151,8056,8143,8119,8144,8160,8121,4.408045768737793
0,8153,8157,8145,8176,8145,8168,8128,8156,8101,8141,8110,8161,8168,8129,4.420460939407349
1,8142,8153,8138,8165,8140,8171,8143,8162,8117,8132,8096,8170,8163,8121,4.42446231842041
2,8128,8138,8118,8149,8142,8167,8155,8159,8032,8136,8102,8137,8156,8102,4.432047605514526
3,8151,8173,8143,8166,8139,8177,8151,8171,8130,8133,8102,8175,8170,8103,4.44035792350769
4,8147,8162,8145,8173,8161,8170,8175,8171,8097,8158,8115,8150,8160,8109,4.4470038414001465
5,8161,8169,8151,8189,8160,8181,8175,8177,8130,8159,8117,8168,8164,8127,4.455384016036987
6,8150,8163,8146,8183,8145,8178,8171,8181,8164,8158,8116,8175,8172,8121,4.463382959365845
7,8154,8159,8146,8179,8157,8178,8200,8184,8117,8187,8133,8151,8168,8127,4.471046209335327
8,8173,8188,8161,8186,8147,8181,8187,8193,8213,8173,8128,8194,8173,8139,4.4790403842926025
9,8138,8149,8138,8169,8151,8152,8165,8176,8132,8169,8134,8153,8164,8117,4.486894845962524
10,8161,8157,8151,8185,8156,8166,8169,8178,8139,8180,8141,8166,8175,8129,4.495046854019165
11,8169,8178,8172,8189,8148,8178,8176,8189,8200,8180,8141,8188,8178,8143,4.5027756690979
12,8159,8156,8157,8180,8152,8169,8180,8178,8114,8184,8148,8139,8163,8133,4.511301040649414
13,8178,8169,8154,8186,8134,8167,8161,8169,8167,8152,8130,8173,8167,8117,4.518303155899048
14,8143,8143,8130,8161,8127,8145,8158,8154,8081,8141,8115,8148,8158,8082,4.525627613067627
14,8143,8143,8130,8161,8127,8145,8158,8154,8081,8141,8115,8148,8158,8082,4.526621580123901
15,8147,8153,8136,8164,8138,8159,8165,8159,8072,8151,8123,8151,8172,8102,4.53362512588501
15,8147,8153,8136,8164,8138,8159,8165,8159,8072,8151,8123,8151,8172,8102,4.534619331359863
16,8168,8176,8160,8182,8143,8169,8169,8178,8176,8159,8142,8182,8182,8125,4.542046785354614
17,8171,8157,8157,8181,8158,8154,8181,8175,8112,8179,8146,8144,8159,8118,4.550046920776367
18,8178,8177,8161,8185,8147,8158,8163,8176,8173,8159,8124,8180,8169,8116,4.557642698287964
19,8155,8158,8143,8177,8142,8152,8167,8174,8142,8159,8129,8157,8171,8106,4.565730810165405
20,8166,8161,8147,8187,8141,8163,8179,8180,8131,8172,8140,8158,8164,8119,4.573723316192627
21,8160,8174,8157,8183,8124,8155,8169,8182,8192,8163,8128,8189,8163,8115,4.581040859222412
22,8141,8149,8137,8169,8133,8142,8171,8167,8090,8170,8131,8140,8152,8101,4.589091062545776
23,8169,8182,8159,8191,8136,8169,8165,8176,8160,8161,8135,8178,8169,8120,4.597249746322632
24,8159,8172,8158,8183,8141,8163,8167,8170,8146,8164,8133,8163,8169,8114,4.605251312255859
25,8168,8166,8148,8183,8150,8154,8168,8162,8100,8169,8130,8145,8162,8115,4.613047361373901
26,8183,8185,8163,8193,8147,8153,8156,8173,8185,8156,8133,8194,8171,8128,4.621305465698242
27,8165,8158,8155,8183,8159,8154,8171,8175,8126,8180,8156,8163,8168,8133,4.629347085952759
28,8177,8177,8156,8188,8149,8173,8167,8180,8182,8176,8141,8177,8169,8143,4.637099504470825
29,8148,8156,8137,8173,8136,8154,8157,8165,8143,8155,8124,8160,8155,8114,4.645021200180054
30,8154,8148,8146,8183,8150,8149,8163,8164,8096,8167,8142,8154,8161,8117,4.652322053909302
31,8190,8194,8176,8204,8161,8158,8171,8188,8231,8182,8154,8201,8180,8151,4.660046339035034
32,8170,8177,8160,8189,8172,8146,8190,8187,8166,8192,8160,8151,8161,8143,4.667604684829712
33,8177,8181,8173,8199,8157,8166,8178,8188,8182,8176,8138,8172,8165,8134,4.675619125366211
33,8177,8181,8173,8199,8157,8166,8178,8188,8182,8176,8138,8172,8165,8134,4.676616907119751
34,8170,8170,8172,8196,8143,8161,8162,8177,8174,8166,8120,8176,8164,8123,4.684616088867188
35,8176,8161,8156,8189,8156,8143,8161,8164,8104,8167,8132,8149,8156,8127,4.692041397094727
36,8184,8186,8172,8195,8162,8151,8151,8175,8188,8151,8142,8182,8167,8135,4.700063467025757
37,8160,8165,8158,8184,8172,8160,8163,8171,8113,8162,8145,8138,8153,8122,4.708067178726196
38,8173,8169,8152,8189,8156,8177,8160,8163,8121,8144,8119,8159,8149,8124,4.7150492668151855
39,8149,8157,8144,8178,8139,8161,8148,8158,8125,8127,8105,8167,8154,8106,4.723046779632568
40,8151,8155,8144,8179,8155,8162,8157,8163,8074,8161,8125,8133,8160,8114,4.730902194976807
41,8184,8195,8171,8200,8157,8185,8162,8183,8196,8172,8132,8182,8177,8143,4.73890233039856
42,8164,8171,8165,8193,8164,8168,8179,8182,8149,8185,8140,8155,8167,8132,4.746901512145996
43,8176,8180,8170,8197,8161,8163,8177,8182,8160,8178,8138,8166,8170,8138,4.755046367645264
44,8163,8183,8167,8192,8152,8160,8163,8186,8191,8162,8122,8177,8170,8130,4.763134717941284
45,8153,8159,8158,8196,8170,8161,8171,8181,8114,8173,8124,8141,8162,8126,4.771125316619873
46,8172,8180,8171,8210,8166,8173,8166,8179,8193,8157,8122,8178,8173,8135,4.778139591217041
47,8153,8157,8149,8189,8166,8160,8178,8174,8130,8157,8123,8148,8160,8120,4.786217927932739
48,8161,8165,8158,8193,8172,8172,8178,8178,8122,8149,8114,8159,8160,8127,4.794046401977539
49,8160,8176,8174,8195,8166,8168,8162,8171,8163,8129,8109,8181,8171,8129,4.802353382110596
50,8156,8154,8167,8185,8178,8160,8171,8163,8072,8141,8132,8144,8167,8128,4.809866905212402
51,8176,8181,8188,8201,8176,8192,8167,8182,8166,8141,8142,8187,8175,8142,4.8180460929870605
52,8162,8170,8179,8200,8184,8185,8173,8181,8152,8159,8146,8162,8166,8138,4.82603907585144
53,8183,8177,8180,8212,8198,8175,8177,8178,8150,8172,8148,8161,8168,8149,4.83404278755188
54,8190,8189,8200,8223,8194,8179,8170,8190,8229,8168,8154,8196,8179,8152,4.841048002243042
55,8178,8170,8192,8220,8204,8180,8185,8194,8177,8193,8177,8164,8171,8155,4.849046468734741
56,8204,8198,8201,8232,8194,8182,8184,8200,8274,8195,8169,8196,8180,8170,4.857298851013184
57,8173,8174,8186,8215,8194,8164,8185,8183,8222,8188,8159,8163,8169,8145,4.865338325500488
58,8168,8170,8179,8216,8204,8184,8191,8180,8168,8178,8159,8153,8161,8139,4.873012065887451
59,8177,8193,8186,8220,8192,8190,8192,8200,8251,8160,8156,8194,8167,8145,4.88101863861084
60,8156,8162,8168,8200,8189,8161,8191,8185,8153,8167,8155,8145,8151,8130,4.889046669006348
61,8168,8179,8171,8202,8186,8168,8161,8162,8173,8144,8135,8169,8161,8132,4.896569728851318
62,8152,8175,8170,8200,8198,8164,8157,8156,8152,8143,8142,8167,8165,8127,4.905562877655029
63,8172,8182,8187,8217,8206,8170,8180,8178,8143,8177,8169,8162,8171,8147,4.912097215652466
64,8193,8205,8205,8226,8191,8177,8181,8201,8252,8181,8173,8200,8181,8165,4.920113801956177
65,8170,8173,8181,8213,8200,8161,8182,8188,8175,8191,8179,8159,8160,8155,4.928130149841309
66,8183,8186,8180,8214,8192,8170,8169,8184,8218,8179,8164,8182,8163,8165,4.936122179031372
67,8156,8171,8156,8183,8170,8166,8157,8183,8200,8166,8147,8166,8160,8149,4.944121599197388
68,8140,8150,8136,8165,8167,8169,8157,8175,8120,8163,8141,8137,8155,8140,4.952121257781982
69,8145,8169,8159,8177,8161,8166,8143,8169,8189,8144,8129,8181,8166,8140,4.96037745475769
70,8138,8151,8156,8176,8172,8147,8151,8156,8104,8152,8134,8142,8163,8124,4.968045949935913
71,8174,8176,8166,8186,8171,8171,8152,8165,8146,8146,8141,8167,8175,8141,4.974554538726807
72,8175,8179,8172,8186,8170,8170,8159,8174,8192,8156,8164,8181,8178,8151,4.9825544357299805
73,8171,8164,8174,8194,8184,8160,8173,8169,8148,8187,8186,8154,8174,8156,4.990642786026001
74,8173,8181,8183,8201,8172,8174,8153,8165,8218,8163,8158,8186,8176,8149,4.99869441986084
75,8145,8148,8155,8178,8169,8168,8149,8150,8126,8150,8140,8146,8157,8123,5.007596254348755
76,8165,8167,8163,8190,8167,8180,8153,8163,8149,8159,8147,8170,8167,8131,5.015111446380615
77,8165,8177,8167,8193,8168,8182,8157,8171,8184,8166,8157,8186,8175,8135,5.023120880126953
78,8157,8154,8155,8191,8188,8180,8168,8164,8115,8172,8165,8147,8163,8144,5.031132936477661
79,8176,8179,8173,8210,8183,8191,8168,8181,8216,8161,8154,8180,8171,8155,5.038140535354614
80,8161,8165,8157,8196,8178,8185,8183,8179,8161,8177,8152,8145,8162,8141,5.046041965484619
81,8165,8172,8152,8191,8174,8194,8174,8165,8157,8174,8150,8158,8166,8150,5.054047584533691
82,8150,8168,8150,8186,8167,8182,8157,8165,8193,8160,8146,8175,8171,8137,5.061780691146851
83,8144,8146,8141,8181,8176,8172,8168,8170,8104,8173,8146,8135,8159,8115,5.069793939590454
84,8165,8177,8162,8188,8164,8188,8161,8176,8186,8161,8134,8180,8170,8130,5.078040599822998
85,8138,8156,8152,8175,8166,8175,8162,8164,8139,8157,8136,8151,8169,8126,5.086240530014038
86,8146,8156,8150,8182,8176,8185,8160,8167,8117,8146,8133,8144,8165,8123,5.094239473342896
87,8148,8166,8157,8181,8172,8187,8153,8175,8171,8138,8130,8172,8163,8119,5.1022820472717285
88,8136,8152,8147,8176,8183,8177,8170,8172,8106,8161,8143,8141,8162,8118,5.108850717544556
89,8161,8185,8168,8198,8176,8190,8165,8176,8183,8145,8140,8180,8176,8130,5.116943359375
90,8144,8164,8171,8189,8177,8182,8161,8168,8140,8146,8149,8164,8159,8122,5.125041246414185
91,8163,8167,8179,8190,8187,8196,8172,8177,8143,8173,8157,8166,8161,8144,5.133143663406372
92,8176,8192,8187,8198,8185,8211,8182,8195,8247,8179,8157,8193,8179,8155,5.141046524047852
93,8161,8167,8166,8190,8193,8211,8196,8190,8171,8196,8172,8145,8166,8146,5.150033473968506
94,8177,8178,8173,8194,8173,8223,8185,8188,8225,8189,8166,8178,8175,8155,5.157039642333984
95,8147,8157,8161,8178,8162,8198,8177,8170,8190,8180,8164,8163,8172,8139,5.164632797241211
96,8157,8157,8162,8186,8166,8195,8177,8164,8155,8179,8169,8157,8168,8146,5.171632528305054
97,8179,8180,8179,8202,8150,8210,8171,8177,8236,8170,8164,8187,8174,8155,5.180046081542969
98,8164,8158,8161,8192,8159,8204,8184,8175,8145,8179,8169,8143,8159,8139,5.188045978546143
99,8180,8183,8165,8203,8161,8211,8175,8175,8193,8168,8164,8199,8169,8139,5.199706554412842
100,8158,8168,8154,8192,8160,8204,8166,8167,8181,8173,8161,8194,8166,8118,5.20370364189148
101,8162,8156,8149,8188,8173,8213,8176,8167,8133,8190,8169,8149,8155,8127,5.212215662002564
102,8180,8185,8167,8198,8170,8217,8179,8176,8216,8169,8162,8185,8167,8147,5.22021484375
103,8163,8167,8158,8189,8174,8198,8192,8166,8125,8167,8164,8156,8163,8135,5.228214740753174
104,8178,8181,8167,8199,8174,8210,8188,8176,8173,8173,8165,8175,8172,8142,5.236215353012085
105,8163,8173,8150,8181,8170,8203,8185,8181,8197,8186,8163,8166,8173,8136,5.243346214294434
106,8153,8161,8134,8168,8169,8208,8189,8171,8128,8196,8160,8141,8168,8130,5.250343561172485
106,8153,8161,8134,8168,8169,8208,8189,8171,8128,8196,8160,8141,8168,8130,5.25134539604187
107,8155,8173,8145,8173,8148,8226,8166,8168,8187,8164,8139,8177,8171,8122,5.258343458175659
107,8155,8173,8145,8173,8148,8226,8166,8168,8187,8164,8139,8177,8171,8122,5.25935959815979
108,8134,8141,8128,8156,8141,8203,8168,8159,8092,8157,8134,8139,8157,8103,5.2663514614105225
108,8134,8141,8128,8156,8141,8203,8168,8159,8092,8157,8134,8139,8157,8103,5.267352104187012
109,8159,8169,8149,8173,8136,8212,8174,8171,8127,8158,8136,8167,8168,8119,5.275355815887451
110,8154,8180,8157,8184,8141,8216,8171,8175,8163,8159,8144,8177,8171,8119,5.2830541133880615
111,8159,8167,8151,8191,8162,8208,8172,8168,8104,8178,8154,8143,8160,8115,5.290982961654663
112,8190,8200,8180,8210,8166,8209,8169,8181,8210,8179,8151,8189,8171,8128,5.299047470092773
113,8157,8171,8166,8193,8181,8197,8179,8171,8146,8187,8162,8156,8163,8113,5.306040525436401
114,8145,8168,8155,8189,8174,8216,8165,8165,8148,8175,8151,8162,8166,8098,5.314046621322632
115,8153,8175,8154,8188,8160,8218,8162,8173,8195,8178,8137,8174,8164,8091,5.322046041488648
116,8162,8162,8147,8188,8169,8207,8189,8165,8127,8199,8155,8143,8156,8102,5.330044269561768
117,8168,8190,8162,8199,8160,8217,8176,8159,8197,8170,8156,8185,8172,8110,5.338035106658936
117,8168,8190,8162,8199,8160,8217,8176,8159,8197,8170,8156,8185,8172,8110,5.339035272598267
118,8156,8174,8153,8192,8171,8215,8176,8163,8139,8174,8154,8156,8168,8099,5.346047639846802
119,8181,8179,8156,8196,8178,8229,8181,8176,8143,8180,8149,8162,8172,8118,5.354070663452148
120,8157,8174,8157,8186,8169,8227,8174,8173,8190,8165,8149,8183,8171,8115,5.362069606781006
121,8147,8154,8151,8179,8186,8225,8189,8172,8129,8192,8171,8147,8162,8115,5.370346546173096
122,8187,8193,8173,8197,8187,8239,8183,8188,8224,8190,8165,8185,8177,8143,5.377010583877564
123,8156,8176,8157,8187,8185,8222,8171,8168,8158,8170,8152,8155,8165,8124,5.38540506362915
124,8151,8166,8154,8191,8180,8224,8163,8152,8116,8158,8152,8155,8161,8110,5.393487453460693
125,8155,8173,8164,8192,8164,8223,8157,8156,8171,8149,8154,8184,8169,8106,5.40065336227417
126,8153,8158,8164,8195,8184,8212,8169,8157,8104,8167,8168,8153,8161,8119,5.40864372253418
127,8196,8192,8194,8225,8196,8231,8172,8177,8218,8175,8165,8203,8174,8148,5.417010307312012
239,8181,8174,8185,8206,8194,8220,8172,8175,8202,8178,8157,8175,8160,8121,5.425046443939209
0,8169,8164,8175,8194,8189,8210,8156,8158,8132,8155,8147,8146,8146,8101,5.431673765182495
0,8169,8164,8175,8194,8189,8210,8156,8158,8132,8155,8147,8146,8146,8101,5.432700872421265
1,8164,8172,8174,8194,8178,8202,8142,8154,8167,8127,8138,8175,8162,8101,5.440046310424805
2,8146,8138,8149,8176,8181,8191,8159,8146,8076,8146,8143,8140,8163,8095,5.448699712753296
3,8163,8158,8158,8181,8164,8204,8152,8153,8144,8142,8130,8177,8167,8103,5.456046581268311
4,8134,8148,8148,8166,8160,8188,8150,8153,8131,8141,8133,8169,8161,8099,5.464066982269287
5,8134,8145,8139,8164,8176,8187,8158,8158,8097,8160,8145,8152,8166,8112,5.4720680713653564
6,8148,8168,8152,8173,8166,8198,8142,8160,8185,8159,8143,8183,8175,8115,5.480046033859253
7,8134,8150,8149,8173,8179,8193,8147,8150,8108,8171,8154,8145,8156,8099,5.488045930862427
8,8157,8173,8161,8191,8191,8208,8150,8160,8159,8154,8149,8180,8163,8108,5.495067596435547
9,8136,8153,8140,8173,8184,8194,8150,8153,8139,8138,8142,8170,8165,8095,5.503080129623413
10,8132,8139,8127,8164,8175,8189,8153,8137,8066,8140,8146,8144,8160,8088,5.511249780654907
11,8149,8172,8147,8174,8166,8197,8151,8147,8155,8128,8135,8185,8164,8092,5.519046306610107
12,8136,8149,8138,8162,8180,8184,8161,8157,8094,8144,8133,8143,8151,8085,5.527083396911621
13,8160,8165,8159,8173,8176,8194,8148,8165,8147,8149,8135,8172,8169,8104,5.535047054290772
14,8149,8169,8165,8176,8168,8188,8144,8161,8176,8155,8138,8180,8174,8103,5.543047666549683
15,8146,8161,8152,8182,8186,8189,8161,8165,8124,8182,8145,8148,8167,8107,5.551045894622803
16,8166,8186,8172,8196,8194,8202,8164,8182,8225,8176,8139,8191,8177,8124,5.557859182357788
17,8152,8160,8164,8185,8199,8189,8176,8168,8150,8173,8141,8158,8162,8112,5.565870046615601
18,8166,8175,8162,8192,8186,8195,8170,8164,8163,8162,8137,8172,8166,8115,5.5742011070251465
19,8150,8174,8157,8183,8172,8180,8155,8158,8181,8153,8124,8176,8166,8107,5.582277059555054
20,8143,8152,8153,8175,8184,8167,8157,8143,8088,8156,8118,8133,8150,8095,5.590277671813965
21,8166,8183,8177,8192,8185,8183,8147,8156,8185,8151,8121,8179,8168,8104,5.598046064376831
22,8148,8170,8172,8185,8198,8173,8164,8163,8157,8177,8154,8165,8172,8107,5.606046915054321
23,8168,8181,8179,8185,8199,8177,8174,8160,8166,8168,8161,8178,8168,8119,5.614516496658325
24,8166,8182,8178,8179,8185,8171,8164,8159,8190,8140,8149,8184,8166,8105,5.62053370475769
25,8159,8160,8168,8180,8203,8161,8177,8167,8120,8165,8162,8152,8170,8107,5.628530025482178
26,8176,8184,8180,8194,8210,8168,8172,8176,8218,8168,8162,8199,8178,8128,5.637010335922241
27,8151,8164,8160,8170,8214,8156,8169,8163,8173,8177,8172,8159,8162,8113,5.645046710968018
28,8162,8170,8161,8168,8208,8168,8168,8161,8173,8181,8182,8149,8170,8118,5.65304708480835
29,8152,8172,8162,8167,8191,8164,8156,8161,8214,8164,8171,8167,8172,8115,5.661046743392944
30,8138,8146,8139,8161,8203,8154,8174,8157,8120,8174,8168,8123,8153,8109,5.668417692184448
30,8138,8146,8139,8161,8203,8154,8174,8157,8120,8174,8168,8123,8153,8109,5.669410705566406
31,8169,8185,8159,8173,8202,8174,8182,8178,8220,8171,8166,8167,8170,8132,5.677411317825317
32,8160,8176,8166,8163,8202,8162,8188,8187,8216,8182,8179,8162,8170,8138,5.685047388076782
33,8181,8173,8179,8179,8208,8164,8191,8189,8224,8200,8192,8167,8171,8159,5.693447828292847
34,8191,8184,8185,8189,8206,8164,8188,8194,8299,8198,8187,8183,8176,8157,5.70016360282898
35,8156,8155,8150,8160,8206,8140,8192,8180,8177,8192,8179,8123,8159,8131,5.7081615924835205
36,8154,8172,8151,8160,8178,8149,8178,8179,8211,8161,8163,8162,8170,8135,5.716040372848511
37,8154,8161,8152,8160,8176,8142,8187,8173,8194,8169,8169,8159,8170,8134,5.724407196044922
38,8169,8166,8164,8171,8196,8139,8187,8170,8169,8186,8176,8149,8165,8141,5.732035398483276
39,8163,8184,8175,8176,8188,8145,8169,8173,8242,8170,8161,8181,8174,8137,5.74003005027771
40,8152,8159,8156,8166,8199,8140,8182,8166,8158,8181,8165,8140,8162,8127,5.747033596038818
41,8188,8190,8174,8189,8203,8149,8184,8179,8237,8188,8170,8180,8168,8147,5.755702495574951
42,8165,8172,8171,8177,8205,8138,8182,8175,8234,8191,8177,8170,8171,8139,5.763017654418945
43,8159,8157,8159,8168,8217,8148,8189,8169,8182,8198,8187,8149,8173,8143,5.771017074584961
44,8183,8195,8176,8183,8214,8156,8187,8183,8282,8191,8184,8194,8180,8158,5.779045820236206
45,8176,8178,8176,8179,8219,8138,8196,8177,8210,8203,8189,8156,8166,8151,5.786936044692993
46,8197,8187,8191,8186,8213,8154,8187,8172,8242,8192,8177,8181,8173,8164,5.79504656791687
47,8173,8173,8180,8176,8205,8149,8179,8159,8230,8181,8171,8176,8169,8147,5.803086519241333
48,8162,8167,8170,8182,8211,8155,8180,8153,8162,8192,8180,8148,8162,8133,5.811265230178833
49,8176,8195,8188,8196,8206,8175,8171,8170,8259,8182,8174,8189,8176,8144,5.8192667961120605
50,8155,8169,8179,8186,8218,8161,8182,8174,8203,8196,8181,8148,8168,8142,5.827010154724121
51,8182,8184,8196,8199,8219,8169,8180,8175,8231,8192,8179,8169,8176,8154,5.834046363830566
52,8176,8185,8201,8200,8207,8176,8172,8168,8241,8182,8177,8181,8174,8148,5.842046499252319
53,8158,8171,8182,8192,8212,8178,8177,8164,8177,8197,8180,8147,8157,8145,5.85004734992981
54,8160,8191,8182,8192,8199,8177,8164,8172,8249,8178,8159,8179,8164,8135,5.858049392700195
55,8140,8165,8162,8173,8194,8160,8172,8161,8154,8166,8152,8142,8158,8111,5.8656957149505615
56,8154,8178,8170,8179,8186,8167,8167,8158,8156,8150,8145,8156,8165,8130,5.873691320419312
56,8154,8178,8170,8179,8186,8167,8167,8158,8156,8150,8145,8156,8165,8130,5.874686002731323
57,8146,8181,8170,8177,8176,8155,8157,8161,8182,8136,8141,8169,8165,8134,5.882046699523926
58,8140,8156,8149,8169,8176,8146,8171,8153,8085,8142,8148,8135,8158,8119,5.890046119689941
59,8145,8172,8152,8170,8157,8147,8158,8145,8141,8120,8133,8174,8166,8113,5.897003889083862
60,8119,8151,8143,8160,8166,8129,8155,8137,8076,8131,8140,8144,8162,8102,5.905163049697876
61,8151,8171,8161,8183,8171,8154,8167,8159,8113,8149,8150,8161,8173,8122,5.913247585296631
62,8148,8177,8159,8178,8150,8155,8167,8164,8175,8138,8137,8180,8171,8113,5.921041965484619
63,8120,8151,8128,8157,8145,8130,8161,8141,8058,8134,8131,8128,8152,8092,5.929046392440796
64,8142,8177,8138,8171,8132,8134,8146,8142,8117,8116,8119,8165,8162,8103,5.937009811401367
64,8142,8177,8138,8171,8132,8134,8146,8142,8117,8116,8119,8165,8162,8103,5.937619209289551
65,8123,8149,8128,8152,8130,8122,8152,8137,8066,8114,8121,8146,8157,8086,5.944639205932617
65,8123,8149,8128,8152,8130,8122,8152,8137,8066,8114,8121,8146,8157,8086,5.945633172988892
66,8130,8153,8133,8151,8132,8127,8155,8138,8046,8114,8130,8151,8163,8085,5.9530346393585205
67,8140,8178,8151,8165,8127,8127,8147,8148,8123,8114,8133,8177,8172,8095,5.961034536361694
68,8128,8152,8134,8161,8144,8122,8158,8141,8058,8133,8142,8135,8158,8096,5.968046426773071
69,8144,8169,8135,8165,8143,8136,8151,8144,8127,8119,8135,8177,8171,8102,5.976089715957642
70,8135,8161,8131,8159,8142,8122,8159,8146,8103,8130,8142,8166,8171,8102,5.984088182449341
71,8154,8165,8143,8173,8144,8134,8170,8156,8109,8146,8155,8161,8167,8128,5.992090463638306
72,8153,8173,8146,8168,8135,8153,8163,8164,8186,8135,8155,8181,8168,8126,6.000097274780273
73,8131,8146,8121,8150,8143,8152,8175,8154,8082,8145,8161,8130,8157,8102,6.008235454559326
74,8158,8182,8146,8173,8143,8170,8171,8163,8157,8141,8162,8172,8176,8115,6.016048192977905
75,8152,8177,8153,8169,8147,8162,8176,8166,8166,8154,8167,8168,8171,8113,6.023035764694214
76,8159,8167,8147,8163,8153,8165,8184,8165,8127,8164,8166,8150,8155,8120,6.031052350997925
77,8155,8179,8152,8169,8149,8176,8168,8166,8197,8143,8155,8184,8164,8126,6.039043188095093
78,8131,8155,8145,8164,8166,8170,8169,8155,8114,8157,8168,8147,8163,8118,6.047009706497192
79,8162,8181,8161,8173,8158,8191,8163,8162,8166,8153,8162,8173,8170,8120,6.055033922195435
80,8144,8169,8147,8152,8143,8181,8159,8158,8150,8135,8148,8161,8161,8097,6.06305456161499
81,8139,8157,8139,8150,8148,8166,8161,8149,8092,8140,8156,8144,8161,8099,6.071110725402832
82,8156,8182,8157,8156,8141,8161,8145,8150,8175,8132,8154,8187,8173,8114,6.079115629196167
83,8130,8152,8137,8131,8146,8150,8142,8137,8087,8138,8157,8144,8160,8102,6.08611273765564
84,8142,8173,8153,8143,8149,8165,8142,8154,8158,8152,8170,8175,8176,8120,6.094181537628174
85,8146,8182,8164,8158,8158,8153,8155,8174,8220,8173,8182,8180,8181,8128,6.102196455001831
86,8152,8167,8157,8159,8175,8147,8167,8166,8153,8175,8175,8146,8162,8122,6.110029458999634
87,8151,8179,8163,8152,8157,8160,8155,8157,8201,8142,8156,8182,8165,8117,6.118270635604858
88,8122,8156,8141,8134,8150,8147,8163,8149,8115,8149,8167,8142,8158,8104,6.1262736320495605
89,8141,8173,8143,8151,8143,8150,8154,8151,8140,8150,8160,8161,8164,8111,6.133972406387329
90,8130,8170,8147,8150,8135,8134,8140,8140,8153,8136,8147,8172,8167,8100,6.1419103145599365
91,8129,8157,8149,8146,8148,8131,8151,8134,8074,8139,8150,8139,8162,8098,6.149903774261475
92,8150,8184,8164,8166,8142,8150,8142,8151,8164,8123,8136,8177,8168,8102,6.157005071640015
93,8118,8154,8136,8157,8145,8134,8142,8144,8088,8123,8133,8135,8154,8076,6.1650474071502686
94,8135,8164,8144,8164,8156,8139,8149,8144,8100,8122,8137,8148,8164,8090,6.173047304153442
95,8151,8174,8165,8170,8157,8138,8157,8162,8174,8132,8142,8176,8174,8113,6.180578470230103
95,8151,8174,8165,8170,8157,8138,8157,8162,8174,8132,8142,8176,8174,8113,6.181581258773804
96,8140,8149,8150,8165,8158,8129,8163,8160,8106,8153,8154,8139,8164,8117,6.189222812652588
97,8143,8172,8157,8164,8146,8139,8148,8159,8178,8132,8153,8177,8171,8117,6.197242498397827
98,8132,8160,8154,8151,8153,8130,8160,8158,8141,8145,8165,8157,8165,8111,6.204998970031738
99,8163,8173,8171,8168,8155,8134,8161,8160,8154,8159,8166,8167,8174,8134,6.213047504425049
100,8157,8178,8171,8158,8142,8121,8147,8147,8182,8132,8158,8180,8178,8128,6.220057010650635
101,8138,8155,8151,8144,8153,8109,8159,8137,8080,8134,8168,8137,8160,8109,6.228034973144531
102,8166,8188,8175,8169,8149,8128,8157,8151,8177,8141,8168,8188,8173,8129,6.23604679107666
103,8147,8168,8175,8165,8154,8121,8159,8144,8145,8149,8171,8163,8169,8122,6.2440345287323
104,8163,8177,8186,8178,8169,8128,8163,8148,8134,8149,8173,8154,8167,8128,6.252034187316895
105,8171,8201,8201,8194,8160,8132,8153,8163,8222,8145,8162,8185,8173,8136,6.260047912597656
106,8142,8170,8175,8180,8159,8123,8163,8154,8127,8157,8155,8138,8155,8126,6.268064498901367
107,8157,8189,8173,8181,8151,8138,8165,8162,8173,8135,8147,8169,8162,8128,6.2756829261779785
108,8135,8169,8163,8167,8158,8130,8166,8165,8149,8133,8154,8156,8164,8109,6.28404688835144
109,8142,8163,8171,8174,8165,8130,8165,8156,8125,8145,8152,8149,8161,8119,6.290716171264648
110,8158,8193,8179,8181,8144,8121,8147,8144,8189,8123,8133,8178,8163,8122,6.298718214035034
111,8136,8173,8155,8138,8134,8100,8141,8121,8060,8118,8122,8133,8155,8095,6.306718349456787
112,8151,8182,8179,8132,8132,8118,8134,8127,8100,8114,8115,8169,8174,8107,6.315226316452026
113,8155,8156,8189,8165,8152,8117,8152,8146,8129,8130,8140,8163,8170,8118,6.323226690292358
114,8172,8150,8182,8191,8162,8116,8165,8159,8118,8147,8163,8150,8166,8130,6.331226110458374
115,8155,8179,8183,8174,8141,8122,8145,8159,8191,8136,8147,8189,8175,8125,6.33922553062439
116,8131,8155,8172,8169,8155,8113,8155,8148,8115,8162,8152,8144,8160,8118,6.347225666046143
117,8176,8179,8201,8212,8163,8125,8166,8163,8196,8173,8165,8176,8168,8141,6.354226589202881
118,8168,8186,8205,8194,8162,8122,8167,8163,8201,8165,8166,8183,8167,8138,6.362225770950317
119,8165,8181,8194,8184,8173,8125,8167,8149,8120,8161,8169,8155,8166,8143,6.370047092437744
120,8183,8189,8202,8195,8162,8127,8158,8151,8198,8137,8158,8186,8179,8155,6.378242254257202
121,8157,8160,8186,8168,8169,8116,8180,8160,8147,8161,8161,8147,8168,8152,6.386040449142456
122,8169,8181,8189,8171,8184,8138,8192,8186,8220,8188,8162,8174,8174,8164,6.394046068191528
123,8167,8176,8180,8171,8178,8129,8191,8182,8240,8188,8154,8178,8170,8150,6.402056455612183
124,8153,8159,8167,8166,8170,8120,8189,8162,8148,8181,8165,8145,8159,8143,6.410042762756348
125,8158,8190,8187,8179,8158,8139,8177,8174,8236,8165,8169,8189,8170,8152,6.4170777797698975
126,8161,8178,8183,8185,8176,8129,8199,8180,8192,8189,8173,8156,8167,8149,6.425164699554443
127,8179,8190,8184,8192,8181,8123,8197,8174,8201,8180,8167,8172,8173,8164,6.433157444000244
239,8136,8179,8176,8173,8164,8108,8167,8168,8208,8158,8171,8181,8169,8147,6.441170930862427
0,8134,8160,8167,8166,8175,8102,8177,8169,8138,8188,8178,8142,8157,8133,6.448849678039551
1,8171,8189,8184,8178,8180,8113,8186,8175,8230,8180,8164,8181,8170,8146,6.457149982452393
2,8127,8153,8161,8157,8180,8102,8179,8155,8144,8163,8175,8147,8163,8121,6.465039491653442
3,8132,8159,8160,8164,8168,8116,8161,8146,8131,8161,8178,8163,8164,8119,6.473048210144043
4,8144,8176,8169,8172,8156,8109,8156,8155,8187,8162,8175,8185,8171,8123,6.481046676635742
5,8138,8157,8164,8168,8173,8097,8175,8157,8112,8180,8192,8139,8166,8121,6.488045930862427
6,8169,8192,8190,8188,8183,8113,8174,8169,8214,8187,8192,8180,8176,8138,6.496046304702759
7,8161,8182,8189,8181,8191,8104,8186,8170,8194,8199,8194,8161,8164,8136,6.50341796875
7,8161,8182,8189,8181,8191,8104,8186,8170,8194,8199,8194,8161,8164,8136,6.504411935806274
8,8165,8182,8191,8181,8182,8108,8185,8172,8182,8187,8194,8161,8167,8144,6.51154375076294
9,8154,8187,8186,8180,8169,8103,8169,8172,8226,8176,8184,8177,8174,8138,6.520047426223755
10,8136,8163,8167,8167,8187,8093,8180,8166,8139,8193,8188,8137,8160,8126,6.528045892715454
11,8156,8186,8185,8173,8179,8108,8168,8176,8211,8175,8179,8177,8166,8135,6.536045789718628
12,8155,8172,8182,8168,8182,8093,8165,8164,8172,8176,8181,8156,8160,8141,6.544462442398071
13,8179,8177,8195,8180,8199,8097,8176,8159,8154,8185,8198,8158,8167,8166,6.552464485168457
14,8178,8190,8210,8179,8186,8102,8174,8167,8220,8166,8189,8190,8172,8155,6.5591020584106445
15,8159,8158,8188,8163,8187,8081,8188,8162,8128,8181,8187,8141,8154,8128,6.566556453704834
16,8190,8178,8201,8183,8178,8087,8182,8171,8201,8184,8189,8172,8172,8148,6.574557542800903
17,8174,8172,8195,8173,8166,8084,8174,8164,8182,8177,8187,8160,8173,8149,6.583047151565552
18,8176,8174,8187,8170,8165,8083,8171,8159,8139,8171,8179,8149,8159,8156,6.590655088424683
19,8191,8185,8201,8181,8158,8082,8171,8175,8230,8171,8183,8190,8170,8170,6.598660469055176
20,8171,8157,8195,8178,8164,8087,8194,8181,8166,8205,8209,8151,8172,8165,6.607436895370483
21,8178,8186,8201,8196,8156,8106,8190,8181,8218,8203,8200,8178,8179,8168,6.6135413646698
22,8155,8172,8183,8181,8150,8084,8176,8170,8203,8195,8190,8171,8168,8155,6.621544599533081
23,8167,8157,8185,8174,8151,8089,8177,8174,8165,8212,8202,8154,8167,8165,6.630046367645264
24,8183,8183,8202,8184,8136,8110,8171,8186,8253,8201,8200,8191,8179,8169,6.637571334838867
24,8183,8183,8202,8184,8136,8110,8171,8186,8253,8201,8200,8191,8179,8169,6.638570547103882
25,8158,8154,8174,8173,8142,8094,8177,8172,8148,8194,8199,8147,8166,8144,6.6460466384887695
26,8174,8167,8184,8187,8137,8106,8166,8169,8170,8181,8184,8170,8176,8152,6.654034852981567
27,8156,8164,8192,8188,8135,8110,8164,8170,8187,8186,8184,8171,8174,8146,6.662034749984741
28,8164,8149,8179,8188,8154,8105,8180,8166,8130,8204,8193,8149,8163,8146,6.670045852661133
29,8183,8171,8183,8179,8143,8098,8168,8162,8207,8180,8180,8188,8174,8147,6.678042411804199
30,8148,8154,8167,8142,8137,8079,8167,8149,8123,8178,8182,8147,8165,8128,6.685057640075684
31,8165,8175,8172,8162,8141,8099,8169,8158,8149,8183,8182,8169,8167,8142,6.693055152893066
32,8168,8175,8183,8185,8152,8099,8176,8170,8196,8195,8193,8178,8170,8149,6.7010767459869385
33,8161,8156,8187,8184,8157,8098,8185,8172,8146,8212,8213,8146,8164,8146,6.709047079086304
34,8175,8176,8190,8172,8128,8114,8172,8174,8219,8184,8195,8191,8172,8142,6.717012882232666
35,8161,8155,8167,8159,8132,8098,8176,8158,8140,8189,8188,8160,8165,8132,6.725047111511231
36,8178,8169,8188,8181,8142,8104,8167,8161,8159,8196,8192,8175,8173,8150,6.733030796051025
37,8162,8159,8195,8165,8121,8104,8158,8166,8182,8174,8183,8185,8166,8137,6.741039037704468
38,8155,8144,8175,8151,8122,8097,8172,8156,8080,8176,8182,8147,8154,8128,6.748049259185791
39,8191,8195,8201,8187,8125,8103,8166,8168,8196,8182,8195,8200,8172,8154,6.756046533584595
39,8191,8195,8201,8187,8125,8103,8166,8168,8196,8182,8195,8200,8172,8154,6.756431818008423
40,8176,8174,8199,8190,8132,8082,8160,8167,8169,8196,8215,8166,8165,8143,6.76402473449707
41,8180,8170,8202,8182,8144,8086,8154,8159,8143,8180,8211,8159,8168,8139,6.772024631500244
42,8191,8189,8211,8186,8149,8091,8165,8166,8203,8176,8208,8185,8172,8143,6.780045986175537
43,8188,8167,8195,8192,8158,8091,8186,8171,8143,8209,8223,8144,8157,8134,6.7884392738342285
44,8181,8178,8195,8193,8143,8106,8161,8173,8199,8187,8213,8175,8167,8132,6.796459674835205
45,8156,8162,8184,8173,8145,8093,8165,8167,8156,8190,8213,8159,8162,8129,6.803457498550415
45,8156,8162,8184,8173,8145,8093,8165,8167,8156,8190,8213,8159,8162,8129,6.804491758346558
46,8187,8173,8198,8188,8159,8104,8190,8177,8181,8219,8221,8166,8162,8150,6.811046838760376
47,8184,8183,8202,8197,8161,8113,8182,8178,8245,8209,8205,8183,8171,8144,6.819046258926392
48,8156,8158,8174,8185,8171,8106,8180,8160,8129,8201,8199,8135,8162,8124,6.826740503311157
48,8156,8158,8174,8185,8171,8106,8180,8160,8129,8201,8199,8135,8162,8124,6.827754497528076
49,8181,8181,8185,8193,8154,8121,8174,8169,8199,8184,8190,8176,8169,8128,6.834758758544922
50,8161,8165,8175,8177,8155,8115,8176,8165,8164,8178,8179,8158,8159,8108,6.842768907546997
51,8173,8171,8177,8184,8177,8121,8185,8164,8127,8178,8174,8147,8155,8114,6.850776433944702
52,8184,8190,8195,8189,8166,8117,8178,8174,8213,8171,8178,8177,8164,8118,6.8593361377716064
53,8148,8152,8168,8166,8153,8100,8172,8155,8110,8176,8185,8130,8154,8097,6.867337226867676
54,8159,8175,8169,8175,8138,8110,8165,8152,8151,8160,8170,8166,8169,8111,6.87433934211731
55,8157,8170,8174,8177,8143,8100,8181,8166,8162,8171,8178,8161,8170,8116,6.882047176361084
56,8164,8160,8175,8180,8147,8105,8189,8168,8137,8184,8187,8141,8158,8118,6.8900465965271
57,8159,8172,8166,8173,8125,8114,8167,8156,8189,8159,8162,8170,8162,8109,6.898072719573975
58,8131,8144,8135,8158,8130,8099,8167,8143,8078,8162,8155,8122,8155,8084,6.906072854995728
59,8151,8165,8155,8183,8144,8108,8163,8156,8138,8164,8157,8153,8170,8097,6.914042472839356
60,8152,8164,8168,8188,8166,8108,8173,8157,8160,8169,8165,8162,8167,8107,6.922184944152832
61,8161,8159,8170,8185,8186,8123,8183,8154,8115,8182,8180,8142,8160,8117,6.930185794830322
62,8170,8185,8184,8190,8168,8134,8164,8166,8207,8175,8181,8181,8177,8120,6.938046216964722
63,8156,8162,8170,8184,8173,8112,8174,8156,8132,8183,8184,8142,8169,8114,6.945046186447144
64,8178,8179,8181,8198,8178,8124,8181,8156,8167,8170,8174,8165,8169,8129,6.953047275543213
65,8162,8177,8175,8188,8166,8123,8172,8156,8188,8171,8175,8167,8167,8120,6.961046457290649
66,8162,8167,8167,8185,8170,8120,8175,8158,8139,8200,8198,8143,8168,8125,6.969223976135254
67,8175,8191,8187,8201,8166,8124,8165,8170,8232,8186,8192,8187,8176,8140,6.97707724571228
68,8142,8157,8169,8185,8170,8108,8170,8160,8145,8173,8189,8142,8158,8120,6.985111236572266
69,8174,8174,8174,8194,8165,8124,8172,8158,8156,8159,8183,8161,8167,8127,6.993104934692383
70,8178,8181,8185,8193,8163,8125,8166,8155,8187,8155,8182,8179,8168,8131,7.000461578369141
70,8178,8181,8185,8193,8163,8125,8166,8155,8187,8155,8182,8179,8168,8131,7.001451015472412
71,8159,8152,8177,8184,8175,8124,8166,8149,8104,8175,8195,8143,8155,8125,7.007449626922607
71,8159,8152,8177,8184,8175,8124,8166,8149,8104,8175,8195,8143,8155,8125,7.00845193862915
72,8172,8173,8180,8193,8159,8141,8160,8163,8199,8164,8188,8186,8175,8123,7.015674591064453
73,8156,8155,8161,8181,8162,8125,8175,8162,8146,8165,8193,8151,8170,8108,7.023674011230469
74,8181,8171,8188,8195,8167,8132,8178,8163,8156,8159,8197,8158,8165,8132,7.031675100326538
75,8189,8183,8209,8202,8159,8137,8175,8166,8214,8152,8189,8181,8168,8134,7.039674520492554
76,8176,8161,8185,8192,8171,8133,8186,8158,8133,8173,8195,8146,8166,8121,7.048046112060547
77,8181,8187,8194,8200,8170,8148,8175,8165,8209,8164,8194,8182,8179,8138,7.056046962738037
78,8167,8171,8196,8196,8181,8135,8183,8163,8165,8171,8200,8150,8169,8138,7.064046621322632
79,8189,8174,8197,8199,8185,8135,8175,8154,8147,8172,8194,8154,8165,8136,7.070789813995361
80,8172,8172,8183,8180,8169,8130,8146,8144,8171,8147,8173,8174,8164,8118,7.078783750534058
81,8147,8148,8163,8166,8177,8121,8157,8142,8081,8160,8172,8128,8154,8111,7.086866855621338
82,8174,8173,8174,8178,8174,8141,8163,8166,8181,8162,8166,8168,8168,8128,7.09480881690979
83,8150,8150,8156,8157,8180,8139,8172,8168,8165,8167,8174,8154,8163,8116,7.102821826934815
84,8158,8159,8168,8171,8191,8148,8188,8173,8160,8181,8188,8157,8165,8127,7.111047267913818
85,8180,8186,8189,8193,8190,8141,8182,8174,8233,8178,8191,8186,8172,8140,7.119066715240479
86,8164,8160,8174,8181,8204,8120,8172,8154,8142,8177,8199,8147,8163,8134,7.127070188522339
87,8179,8182,8191,8191,8205,8134,8158,8161,8218,8170,8196,8190,8179,8144,7.135197639465332
88,8178,8172,8190,8187,8208,8131,8166,8160,8203,8184,8200,8170,8169,8130,7.142192125320435
89,8190,8172,8186,8194,8217,8148,8188,8158,8169,8188,8204,8147,8161,8123,7.150041103363037
90,8182,8186,8192,8200,8210,8162,8188,8168,8243,8168,8197,8181,8178,8117,7.15804648399353
91,8160,8154,8174,8185,8209,8144,8186,8157,8140,8178,8204,8143,8163,8108,7.166069507598877
92,8188,8171,8191,8192,8195,8141,8172,8153,8182,8167,8196,8176,8162,8127,7.174069404602051
92,8188,8171,8191,8192,8195,8141,8172,8153,8182,8167,8196,8176,8162,8127,7.174464702606201
93,8164,8156,8177,8174,8188,8122,8168,8147,8163,8155,8187,8165,8161,8117,7.1820478439331055
93,8164,8156,8177,8174,8188,8122,8168,8147,8163,8155,8187,8165,8161,8117,7.1824352741241455
94,8148,8146,8157,8161,8188,8119,8158,8143,8095,8150,8182,8141,8161,8108,7.190045833587647
94,8148,8146,8157,8161,8188,8119,8158,8143,8095,8150,8182,8141,8161,8108,7.190564632415772
95,8160,8170,8175,8166,8176,8130,8144,8154,8190,8145,8174,8182,8171,8119,7.198029279708862
96,8151,8147,8174,8162,8193,8134,8172,8163,8161,8187,8200,8147,8166,8129,7.205190896987915
97,8163,8164,8179,8178,8200,8160,8169,8169,8223,8194,8204,8172,8179,8138,7.212728500366211
98,8137,8158,8166,8167,8191,8154,8152,8161,8201,8169,8183,8163,8170,8108,7.2210471630096436
99,8154,8156,8172,8164,8196,8151,8162,8162,8129,8174,8184,8137,8163,8109,7.229046821594238
100,8183,8185,8197,8179,8189,8163,8162,8176,8237,8174,8196,8183,8180,8133,7.237010717391968
101,8148,8152,8166,8166,8199,8156,8167,8165,8169,8188,8203,8142,8167,8114,7.2450478076934814
102,8156,8160,8136,8170,8202,8170,8161,8164,8178,8171,8188,8157,8166,8108,7.253232955932617
103,8154,8161,8132,8166,8190,8162,8157,8162,8188,8152,8184,8167,8163,8088,7.261234521865845
104,8159,8147,8187,8164,8196,8159,8165,8147,8110,8163,8192,8141,8154,8081,7.26923394203186
105,8174,8174,8146,8174,8190,8181,8154,8153,8179,8148,8173,8184,8168,8103,7.276047229766846
106,8151,8151,8143,8159,8195,8171,8168,8157,8113,8151,8172,8148,8167,8101,7.2840471267700195
107,8167,8162,8715,8161,8186,8174,8172,8163,8182,8147,8191,8161,8169,8101,7.292046546936035
108,8158,8166,9417,8160,8176,8172,8160,8161,8308,8148,8200,8178,8168,8092,7.29979133605957
109,8147,8142,9549,8163,8196,8182,8174,8166,8285,8182,8205,8145,8166,8103,7.307793140411377
110,8166,8167,9456,8175,8181,8208,8176,8183,8387,8180,8208,8192,8177,8124,7.315851926803589
111,8152,8149,9512,8157,8174,8197,8188,8174,8360,8190,8229,8168,8167,8120,7.323901891708374
112,8172,8161,9544,8164,8178,8204,8187,8176,8383,8203,8229,8171,8174,8140,7.3320465087890625
113,8164,8163,9469,8154,8155,8205,8162,8174,8402,8179,8207,8179,8171,8131,7.33947229385376
114,8138,8131,9429,8131,8142,8190,8168,8158,8275,8166,8208,8135,8153,8108,7.347046852111816
115,8164,8160,9437,8148,8141,8197,8177,8171,8364,8173,8211,8182,8173,8126,7.354956388473511
116,8159,8150,9423,8151,8148,8184,8177,8171,8331,8195,8216,8165,8168,8123,7.363046884536743
116,8159,8150,9423,8151,8148,8184,8177,8171,8331,8195,8216,8165,8168,8123,7.363430023193359
117,8174,8154,9412,8155,8137,8181,8159,8157,8279,8169,8202,8166,8157,8115,7.373672723770142
118,8177,8162,9388,8149,8129,8175,8154,8156,8310,8140,8188,8188,8166,8095,7.378672122955322
119,8157,8140,9346,8141,8150,8168,8177,8161,8230,8165,8204,8140,8161,8082,7.386672735214233
120,8167,8170,9340,8160,8146,8180,8172,8174,8306,8158,8194,8176,8168,8097,7.394673585891724
121,8149,8151,9314,8146,8140,8170,8174,8171,8275,8159,8180,8157,8162,8091,7.402681827545166
122,8158,8139,9290,8143,8136,8184,8178,8173,8250,8173,8188,8146,8168,8108,7.4096763134002686
123,8157,8156,9285,8151,8126,8184,8166,8183,8331,8168,8195,8181,8180,8119,7.418184995651245
124,8136,8140,9266,8147,8142,8159,8179,8182,8257,8188,8197,8146,8165,8106,7.426184177398682
125,8157,8162,9269,8162,8142,8179,8181,8194,8320,8181,8183,8180,8173,8115,7.434185743331909
126,8146,8141,9245,8154,8143,8176,8180,8188,8295,8179,8190,8170,8173,8115,7.442184209823608
127,8150,8138,9224,8156,8148,8171,8176,8181,8256,8197,8205,8157,8171,8121,7.450185060501099
239,8158,8169,9217,8163,8130,8178,8166,8190,8342,8193,8191,8190,8177,8112,7.458046197891235
0,8146,8147,9184,8151,8137,8167,8175,8184,8246,8197,8189,8148,8163,8097,7.466046571731567
1,8171,8164,9186,8165,8135,8167,8164,8185,8279,8178,8188,8183,8173,8112,7.473034620285034
2,8164,8158,9169,8161,8131,8151,8171,8182,8271,8172,8195,8180,8174,8108,7.481034994125366
3,8171,8155,9137,8158,8141,8150,8189,8178,8221,8188,8215,8156,8170,8117,7.489046812057495
4,8163,8170,9129,8159,8130,8152,8162,8183,8304,8170,8209,8189,8172,8118,7.497459411621094
5,8124,8133,9092,8141,8130,8135,8153,8172,8201,8173,8197,8140,8152,8086,7.505047082901001
6,8154,8151,9075,8147,8130,8147,8163,8172,8228,8179,8187,8162,8166,8100,7.513047218322754
7,8133,8144,9051,8135,8130,8142,8163,8175,8253,8180,8191,8164,8171,8105,7.5210466384887695
8,8116,8131,9030,8139,8136,8142,8167,8180,8198,8191,8193,8133,8159,8095,7.528528928756714
9,8158,8170,9038,8163,8132,8153,8178,8195,8302,8191,8192,8182,8173,8114,7.536500453948975
10,8154,8153,9021,8150,8151,8141,8193,8186,8255,8211,8217,8152,8175,8121,7.54450249671936
11,8149,8156,9005,8147,8152,8150,8174,8182,8268,8197,8205,8164,8175,8110,7.5525062084198
12,8118,8148,8966,8133,8134,8139,8161,8182,8257,8177,8179,8165,8165,8083,7.560047149658203
13,8112,8135,8940,8136,8138,8132,8169,8174,8169,8189,8185,8128,8161,8089,7.568071126937866
14,8143,8166,8959,8159,8129,8146,8159,8175,8257,8173,8183,8178,8179,8109,7.576065063476562
15,8129,8141,8935,8148,8133,8134,8166,8171,8198,8178,8184,8153,8163,8094,7.584047555923462
16,8146,8149,8920,8159,8136,8147,8160,8179,8211,8184,8182,8161,8163,8097,7.591601848602295
17,8144,8159,8914,8160,8126,8153,8152,8177,8247,8178,8188,8176,8173,8099,7.59861946105957
18,8134,8147,8892,8148,8141,8153,8172,8161,8158,8191,8203,8139,8169,8105,7.606619596481323
19,8154,8177,8889,8160,8143,8161,8173,8171,8242,8179,8189,8179,8174,8123,7.615041017532349
20,8141,8154,8855,8155,8150,8139,8183,8174,8199,8178,8185,8151,8160,8108,7.623046636581421
21,8148,8152,8840,8159,8155,8147,8190,8182,8191,8177,8183,8153,8161,8109,7.631046295166016
22,8129,8157,8828,8155,8143,8152,8178,8187,8237,8164,8173,8169,8168,8102,7.638657093048096
23,8114,8140,8796,8146,8146,8142,8189,8179,8152,8177,8185,8131,8159,8094,7.646672010421753
24,8149,8178,8801,8169,8145,8159,8196,8196,8259,8183,8189,8177,8172,8114,7.654671669006348
25,8140,8163,8776,8169,8152,8149,8198,8195,8232,8195,8188,8153,8165,8104,7.662674427032471
26,8144,8159,8763,8170,8157,8148,8189,8184,8181,8191,8199,8149,8171,8108,7.670321941375732
27,8138,8171,8757,8171,8153,8149,8172,8185,8228,8174,8200,8176,8178,8107,7.678324699401855
28,8128,8146,8715,8161,8161,8139,8179,8175,8133,8186,8192,8127,8156,8097,7.686321020126343
29,8158,8175,8721,8173,8155,8157,8180,8177,8202,8176,8197,8169,8166,8114,7.693517684936523
30,8141,8169,8725,8173,8167,8159,8193,8184,8209,8186,8222,8169,8174,8120,7.701546192169189
30,8141,8169,8725,8173,8167,8159,8193,8184,8209,8186,8222,8169,8174,8120,7.7025392055511475
31,8150,8167,8713,8193,8187,8164,8211,8199,8203,8202,8220,8159,8171,8137,7.709546089172363
32,8164,8185,8699,8214,8178,8161,8208,8208,8272,8189,8199,8183,8172,8136,7.71804666519165
33,8153,8162,8668,8212,8185,8154,8212,8198,8172,8199,8209,8142,8165,8122,7.726080894470215
34,8172,8185,8670,8232,8191,8175,8199,8205,8232,8198,8209,8179,8178,8139,7.73301887512207
35,8161,8180,8659,8231,8194,8163,8203,8197,8227,8204,8205,8168,8172,8132,7.741171836853027
36,8178,8182,8654,8239,8201,8164,8214,8187,8185,8207,8217,8154,8167,8140,7.749166250228882
37,8192,8201,8654,8249,8194,8174,8201,8197,8273,8186,8218,8196,8175,8156,7.757010459899902
38,8162,8164,8617,8229,8202,8162,8203,8190,8187,8200,8221,8146,8166,8146,7.7650465965271
39,8175,8179,8607,8233,8195,8170,8190,8183,8217,8197,8212,8170,8175,8144,7.773047208786011
40,8167,8175,8590,8228,8190,8151,8184,8171,8210,8184,8212,8177,8168,8130,7.781047105789185
40,8167,8175,8590,8228,8190,8151,8184,8171,8210,8184,8212,8177,8168,8130,7.781835079193115
41,8158,8156,8571,8218,8190,8153,8188,8159,8126,8179,8215,8149,8155,8126,7.789074659347534
42,8158,8168,8558,8212,8161,8173,8165,8163,8174,8147,8189,8176,8166,8116,7.795636177062988
43,8134,8144,8516,8199,8159,8161,8160,8159,8085,8145,8179,8138,8155,8097,7.803648233413696
44,8149,8167,8515,8209,8160,8172,8160,8166,8118,8150,8172,8164,8157,8112,7.812046766281128
45,8140,8162,8505,8189,8158,8174,8162,8161,8127,8147,8170,8168,8162,8102,7.820034503936768
46,8137,8137,8485,8189,8173,8178,8170,8155,8050,8152,8180,8141,8160,8094,7.828036069869995
47,8154,8165,8490,8216,8167,8195,8165,8171,8148,8142,8171,8184,8171,8106,7.8360466957092285
48,8130,8147,8464,8205,8178,8189,8184,8171,8102,8161,8184,8144,8165,8102,7.844037294387817
49,8154,8167,8470,8219,8198,8208,8190,8179,8150,8179,8202,8166,8174,8123,7.852046728134155
50,8161,8180,8481,8232,8206,8209,8177,8180,8203,8178,8210,8190,8178,8133,7.860046148300171
51,8166,8165,8468,8237,8212,8201,8175,8168,8113,8177,8220,8154,8166,8132,7.867037057876587
52,8195,8195,8465,8247,8199,8218,8170,8173,8194,8156,8208,8190,8175,8142,7.8750386238098145
53,8162,8170,8428,8221,8201,8212,8183,8171,8145,8170,8207,8151,8166,8128,7.883046627044678
54,8168,8172,8422,8228,8202,8216,8188,8182,8159,8185,8210,8151,8172,8135,7.891046524047852
55,8177,8182,8432,8237,8193,8218,8184,8191,8234,8184,8207,8179,8176,8136,7.899046659469604
56,8168,8161,8415,8226,8201,8224,8191,8185,8154,8198,8213,8147,8165,8131,7.907005310058594
57,8178,8185,8410,8230,8196,8233,8178,8180,8205,8184,8209,8181,8177,8142,7.915544986724853
58,8153,8174,8390,8224,8205,8214,8179,8166,8143,8183,8213,8159,8168,8133,7.922543048858643
59,8176,8188,8396,8237,8212,8225,8187,8169,8114,8174,8208,8170,8164,8141,7.930048704147339
60,8181,8191,8390,8236,8190,8223,8175,8171,8155,8148,8189,8192,8166,8131,7.938046455383301
61,8162,8155,8356,8222,8190,8211,8179,8162,8090,8172,8191,8138,8158,8118,7.946047067642212
62,8178,8179,8364,8229,8190,8224,8175,8176,8199,8184,8187,8175,8173,8138,7.954046726226807
63,8156,8164,8343,8211,8191,8204,8175,8175,8160,8190,8180,8158,8163,8128,7.962074995040893
64,8169,8158,8328,8216,8187,8202,8173,8161,8104,8188,8174,8153,8161,8127,7.970454692840576
65,8180,8172,8340,8223,8175,8216,8165,8159,8161,8168,8172,8184,8174,8130,7.978455781936645
66,8160,8151,8328,8211,8188,8211,8183,8159,8073,8175,8179,8139,8162,8122,7.98604679107666
67,8171,8175,8327,8222,8182,8218,8173,8167,8138,8164,8172,8178,8167,8129,7.994047164916992
68,8158,8159,8309,8213,8184,8205,8168,8169,8128,8172,8172,8156,8163,8119,8.00096607208252
69,8165,8150,8297,8208,8199,8217,8182,8183,8109,8195,8176,8102,8158,8128,8.008960962295532
70,8158,8164,8282,8198,8179,8225,8177,8191,8195,8186,8163,8116,8167,8130,8.017475605010986
70,8158,8164,8282,8198,8179,8225,8177,8191,8195,8186,8163,8116,8167,8130,8.018477201461792
71,8128,8131,8237,8172,8163,8198,8176,8167,8074,8181,8160,8086,8157,8103,8.024488687515259
72,8140,8151,8241,8183,8151,8201,8159,8162,8089,8160,8148,8121,8166,8102,8.032625198364258
73,8122,8142,8231,8177,8140,8189,8154,8157,8082,8153,8141,8112,8160,8093,8.04062294960022
74,8122,8127,8208,8173,8132,8184,8155,8154,8024,8158,8147,8092,8154,8092,8.049046277999878
75,8133,8152,8212,8183,8123,8200,8154,8172,8105,8151,8143,8135,8173,8098,8.056639671325684
75,8133,8152,8212,8183,8123,8200,8154,8172,8105,8151,8143,8135,8173,8098,8.057666778564453
76,8117,8135,8205,8182,8148,8199,8180,8167,8043,8175,8160,8102,8167,8094,8.063665390014648
77,8150,8159,8224,8199,8159,8207,8173,8170,8105,8178,8171,8139,8165,8111,8.071661233901978
78,8146,8157,8220,8193,8150,8196,8158,8176,8126,8175,8172,8145,8160,8109,8.079663038253784
79,8144,8148,8204,8194,8155,8202,8176,8170,8056,8189,8174,8115,8164,8112,8.08766222000122
80,8165,8175,8212,8205,8152,8214,8179,8175,8150,8180,8163,8158,8176,8118,8.096040487289429
81,8147,8151,8195,8196,8163,8207,8190,8181,8110,8194,8172,8124,8165,8112,8.104027271270752
82,8166,8170,8201,8211,8164,8241,8199,8191,8158,8199,8175,8139,8172,8132,8.111550569534302
83,8160,8172,8188,8206,8158,8256,8201,8188,8182,8197,8177,8142,8168,8121,8.12026596069336
84,8152,8152,8164,8198,8171,8263,8204,8176,8105,8209,8189,8114,8158,8117,8.127260208129883
85,8166,8172,8171,8207,8159,8284,8191,8179,8192,8192,8177,8163,8172,8128,8.135262250900269
86,8144,8142,8149,8194,8153,8273,8194,8171,8119,8192,8176,8124,8159,8101,8.14330005645752
87,8152,8150,8148,8201,8154,8284,8193,8173,8118,8187,8173,8130,8160,8097,8.15104055404663
88,8142,8159,8142,8199,8154,8290,8194,8175,8159,8179,8163,8143,8164,8093,8.159045934677124
89,8139,8138,8112,8191,8156,8282,8202,8166,8067,8188,8159,8105,8154,8083,8.167052507400513
90,8159,8159,8122,8197,8139,8285,8177,8165,8132,8163,8156,8153,8169,8090,8.17504620552063
91,8137,8149,8134,8192,8161,8276,8177,8159,8097,8170,8181,8136,8165,8089,8.182531356811523
91,8137,8149,8134,8192,8161,8276,8177,8159,8097,8170,8181,8136,8165,8089,8.183530330657959
92,8176,8176,8155,8220,8178,8289,8192,8174,8130,8194,8193,8145,8168,8113,8.190045833587646
92,8176,8176,8155,8220,8178,8289,8192,8174,8130,8194,8193,8145,8168,8113,8.19053840637207
93,8194,8185,8146,8217,8155,8277,8186,8176,8181,8180,8176,8168,8172,8122,8.198031902313232
93,8194,8185,8146,8217,8155,8277,8186,8176,8181,8180,8176,8168,8172,8122,8.19903302192688
94,8158,8142,8111,8186,8152,8252,8183,8152,8055,8168,8168,8122,8157,8103,8.206045150756836
95,8163,8163,8118,8201,8155,8267,8179,8161,8131,8161,8166,8153,8169,8108,8.213439226150513
95,8163,8163,8118,8201,8155,8267,8179,8161,8131,8161,8166,8153,8169,8108,8.21443772315979
96,8158,8159,8108,8201,8168,8265,8192,8173,8128,8186,8177,8135,8168,8113,8.222198247909546
97,8180,8166,8109,8204,8179,8268,8200,8178,8128,8198,8179,8140,8168,8129,8.230188846588135
98,8171,8169,8113,8202,8169,8258,8193,8179,8180,8172,8168,8167,8170,8123,8.238046407699585
99,8142,8137,8084,8185,8166,8244,8199,8171,8069,8175,8173,8122,8159,8107,8.246159315109253
100,8174,8164,8092,8196,8154,8261,8188,8176,8136,8173,8167,8161,8169,8119,8.253046989440918
101,8168,8155,8083,8190,8166,8252,8193,8172,8125,8176,8164,8149,8166,8110,8.260573148727417
102,8168,8157,8073,8192,8181,8256,8204,8174,8095,8173,8166,8139,8170,8120,8.268583536148071
102,8168,8157,8073,8192,8181,8256,8204,8174,8095,8173,8166,8139,8170,8120,8.269575357437134
103,8163,8175,8080,8194,8167,8252,8188,8177,8156,8157,8159,8173,8175,8123,8.277011632919312
104,8153,8154,8068,8188,8184,8235,8193,8161,8066,8175,8171,8130,8159,8115,8.285047769546509
105,8181,8181,8077,8205,8190,8259,8195,8167,8129,8166,8171,8159,8174,8129,8.292991638183594
106,8161,8164,8063,8193,8177,8247,8193,8172,8123,8163,8166,8145,8166,8110,8.300623655319214
107,8160,8151,8056,8190,8175,8223,8191,8166,8084,8174,8168,8127,8151,8109,8.308624029159546
108,8161,8174,8060,8191,8163,8223,8177,8169,8158,8156,8159,8165,8164,8115,8.317010164260864
109,8138,8142,8027,8169,8162,8226,8181,8163,8052,8161,8155,8116,8156,8093,8.324046611785889
110,8170,8160,8037,8180,8152,8244,8180,8171,8110,8165,8149,8150,8163,8103,8.332046747207642
111,8181,8171,8049,8188,8163,8239,8198,8182,8160,8183,8165,8168,8172,8116,8.339791536331177
112,8188,8166,8052,8195,8193,8244,8220,8182,8115,8200,8183,8146,8172,8130,8.347788333892822
113,8190,8177,8053,8197,8181,8250,8201,8181,8180,8176,8171,8174,8175,8129,8.356081247329712
114,8162,8150,8018,8179,8173,8229,8196,8171,8095,8176,8168,8128,8161,8107,8.364104747772217
115,8174,8171,8024,8195,8172,8242,8188,8179,8134,8179,8162,8151,8167,8115,8.371578693389893
115,8174,8171,8024,8195,8172,8242,8188,8179,8134,8179,8162,8151,8167,8115,8.372598648071289
116,8171,8173,8028,8196,8177,8240,8189,8182,8172,8187,8166,8163,8165,8121,8.378591299057007
116,8171,8173,8028,8196,8177,8240,8189,8182,8172,8187,8166,8163,8165,8121,8.37960147857666
117,8173,8155,8004,8185,8186,8235,8190,8168,8102,8193,8180,8134,8159,8131,8.386601686477661
117,8173,8155,8004,8185,8186,8235,8190,8168,8102,8193,8180,8134,8159,8131,8.387597560882568
118,8172,8168,7990,8181,8160,8239,8163,8153,8148,8151,8160,8167,8168,8121,8.395046710968018
119,8139,8140,7960,8161,8149,8223,8176,8139,8042,8149,8152,8125,8152,8089,8.403047323226929
120,8162,8162,7968,8172,8149,8243,8190,8160,8080,8164,8164,8147,8161,8108,8.41148328781128
121,8163,8167,7972,8170,8149,8247,8186,8172,8140,8160,8170,8170,8172,8120,8.419046640396118
122,8158,8150,7964,8168,8169,8234,8197,8167,8062,8167,8181,8138,8166,8120,8.427124261856079
123,8189,8193,7984,8190,8173,8247,8201,8184,8157,8168,8175,8176,8174,8129,8.434895515441895
124,8177,8175,7966,8184,8183,8239,8211,8176,8115,8186,8179,8142,8162,8120,8.442859649658203
125,8186,8165,7961,8188,8181,8248,8211,8176,8137,8196,8187,8152,8170,8137,8.450859308242798
126,8176,8168,7961,8182,8165,8240,8207,8189,8203,8195,8185,8171,8178,8141,8.458047151565552
127,8167,8157,7940,8176,8163,8220,8213,8181,8119,8209,8190,8130,8164,8132,8.465892553329468
239,8191,8183,7945,8185,8151,8224,8204,8178,8190,8192,8185,8171,8171,8135,8.473891496658325
0,8157,8150,7922,8158,8149,8218,8202,8163,8119,8184,8182,8142,8163,8114,8.481893062591553
1,8167,8156,7914,8161,8149,8232,8200,8154,8076,8176,8167,8138,8158,8120,8.489892482757568
2,8172,8174,7917,8161,8142,8228,8190,8161,8124,8150,8150,8165,8159,8120,8.497941732406616
3,8146,8146,7897,8142,8155,8216,8194,8157,8032,8155,8151,8119,8147,8099,8.505353689193726
4,8163,8171,7910,8158,8153,8229,8184,8159,8101,8151,8141,8155,8161,8106,8.512868642807007
4,8163,8171,7910,8158,8153,8229,8184,8159,8101,8151,8141,8155,8161,8106,8.513452291488647
5,8151,8162,7914,8162,8159,8221,8189,8161,8090,8165,8156,8150,8164,8108,8.520650863647461
6,8166,8159,7921,8166,8170,8236,8201,8164,8086,8182,8170,8150,8168,8131,8.528647899627686
7,8170,8164,7921,8164,8157,8232,8187,8164,8151,8170,8165,8170,8174,8143,8.536649942398071
8,8159,8145,7904,8160,8163,8211,8192,8168,8080,8187,8178,8128,8164,8134,8.544711351394653
9,8188,8180,7920,8174,8153,8231,8185,8182,8170,8185,8171,8173,8180,8142,8.553047180175781
10,8160,8155,7901,8150,8145,8227,8176,8159,8125,8170,8149,8148,8169,8118,8.56104850769043
11,8148,8135,7875,8133,8147,8219,8183,8145,8027,8144,8129,8116,8150,8098,8.568867206573486
12,8149,8155,7869,8126,8131,8221,8187,8151,8077,8109,8114,8155,8152,8090,8.57686734199524
13,8120,8131,7853,8112,8139,8216,8192,8140,7998,8126,8130,8124,8152,8084,8.585049152374268
14,8136,8160,7882,8144,8141,8236,8176,8153,8072,8136,8148,8163,8171,8099,8.591646909713745
15,8150,8166,7890,8152,8145,8231,8185,8161,8095,8147,8158,8159,8169,8101,8.6000337600708
16,8164,8154,7889,8137,8153,8229,8194,8150,8052,8158,8162,8135,8163,8118,8.608026266098022
17,8149,8167,7898,8134,8139,8229,8174,8162,8137,8141,8154,8173,8175,8125,8.616040706634521
18,8130,8147,7871,8132,8145,8214,8191,8169,8071,8160,8157,8134,8162,8111,8.624053716659546
19,8178,8172,7887,8146,8154,8233,8200,8173,8127,8165,8159,8163,8173,8133,8.632051944732666
20,8162,8169,7901,8140,8162,8231,8193,8167,8144,8156,8174,8165,8177,8129,8.64004635810852
21,8147,8158,7894,8148,8175,8230,8196,8170,8089,8166,8187,8138,8168,8125,8.648046255111694
22,8172,8181,7898,8163,8162,8241,8189,8181,8194,8169,8174,8184,8176,8136,8.655046701431274
23,8160,8153,7882,8146,8165,8228,8205,8169,8131,8184,8179,8150,8162,8123,8.663017988204956
24,8176,8172,7896,8153,8170,8238,8216,8170,8150,8173,8178,8165,8167,8128,8.671016216278076
25,8159,8175,7896,8149,8167,8232,8211,8175,8168,8161,8172,8168,8174,8119,8.679046630859375
26,8150,8154,7879,8145,8165,8222,8211,8169,8103,8174,8179,8140,8169,8118,8.687009572982788
27,8170,8175,7891,8152,8147,8219,8199,8166,8187,8162,8180,8194,8173,8135,8.695384979248047
28,8151,8153,7885,8143,8156,8198,8198,8164,8115,8169,8187,8160,8168,8120,8.703420162200928
29,8166,8170,7892,8154,8164,8204,8189,8175,8126,8168,8172,8156,8175,8118,8.71142029762268
30,8158,8177,7887,8146,8154,8197,8187,8172,8160,8158,8155,8181,8169,8116,8.718425273895264
31,8161,8162,7879,8150,8169,8195,8211,8174,8096,8180,8173,8182,8161,8122,8.725435495376587
31,8161,8162,7879,8150,8169,8195,8211,8174,8096,8180,8173,8182,8161,8122,8.726465225219727
32,8190,8194,7907,8178,8173,8213,8212,8196,8212,8186,8180,8236,8179,8136,8.73350191116333
32,8190,8194,7907,8178,8173,8213,8212,8196,8212,8186,8180,8236,8179,8136,8.734493732452393
33,8164,8172,7899,8165,8180,8195,8214,8186,8165,8191,8182,8192,8160,8127,8.742494583129883
34,8168,8169,7894,8162,8171,8191,8205,8173,8140,8174,8172,8189,8157,8130,8.749568462371826
35,8159,8171,7889,8160,8151,8188,8191,8176,8169,8154,8157,8206,8167,8116,8.757554292678833
36,8145,8148,7873,8148,8159,8184,8201,8173,8078,8173,8164,8160,8153,8114,8.76604700088501
37,8162,8176,7887,8161,8150,8196,8199,8185,8165,8163,8153,8204,8160,8128,8.774569511413574
38,8145,8156,7876,8155,8151,8172,8208,8178,8121,8159,8145,8181,8160,8108,8.781047821044922
39,8160,8156,7879,8155,8160,8166,8203,8163,8066,8149,8152,8171,8163,8114,8.788631200790405
40,8179,8176,7896,8155,8144,8168,8193,8166,8117,8137,8158,8205,8173,8131,8.796651124954224
41,8179,8158,7886,8140,8143,8155,8217,8168,8059,8168,8170,8170,8167,8131,8.805336713790894
42,8187,8182,7892,8151,8136,8162,8210,8176,8150,8167,8165,8202,8175,8131,8.813047170639038
43,8163,8166,7877,8146,8141,8145,8199,8171,8122,8162,8167,8180,8168,8117,8.821047067642212
44,8171,8163,7882,8157,8148,8141,8203,8174,8091,8166,8178,8170,8169,8128,8.829046964645386
45,8176,8177,7895,8162,8136,8142,8201,8179,8165,8155,8174,8204,8175,8132,8.837078332901001
46,8155,8146,7871,8143,8139,8132,8208,8157,8064,8162,8177,8159,8161,8111,8.844059228897095
47,8174,8168,7878,8157,8133,8144,8198,8160,8118,8152,8165,8189,8171,8109,8.852047204971313
48,8165,8160,7872,8154,8140,8130,8201,8159,8109,8149,8154,8177,8168,8099,8.8599534034729
49,8175,8163,7871,8154,8155,8137,8211,8156,8074,8155,8166,8168,8167,8111,8.867968797683716
50,8187,8182,7888,8158,8136,8150,8209,8169,8176,8153,8179,8211,8179,8125,8.876047134399414
51,8161,8140,7859,8139,8129,8132,8216,8163,8094,8169,8183,8157,8167,8112,8.884047508239746
52,8175,8162,7854,8146,8126,8137,8209,8167,8134,8164,8167,8184,8174,8124,8.892048835754395
53,8160,8164,7859,8135,8133,8131,8214,8165,8140,8170,8175,8191,8172,8126,8.89993929862976
54,8155,8145,7859,8139,8141,8129,8211,8153,8068,8170,8181,8162,8161,8121,8.907949686050415
55,8167,8162,7863,8155,8128,8124,8185,8151,8122,8129,8154,8192,8167,8111,8.915047883987427
56,8153,8151,7852,8152,8143,8103,8203,8154,8054,8143,8164,8157,8162,8104,8.923047542572021
57,8186,8183,7881,8168,8152,8119,8221,8172,8127,8162,8177,8184,8174,8132,8.931047677993774
58,8170,8173,7872,8152,8137,8112,8206,8167,8133,8145,8163,8182,8173,8109,8.939046859741211
59,8156,8152,7849,8146,8136,8102,8200,8158,8037,8148,8161,8153,8161,8083,8.94701075553894
60,8173,8181,7870,8164,8130,8112,8191,8168,8140,8153,8169,8204,8170,8104,8.95467734336853
61,8142,8156,7857,8146,8137,8096,8192,8162,8091,8164,8175,8164,8163,8106,8.96268105506897
62,8161,8171,7863,8152,8143,8102,8193,8168,8112,8160,8164,8171,8170,8111,8.971047401428223
63,8162,8180,7872,8153,8148,8107,8198,8172,8147,8158,8164,8184,8166,8101,8.978046655654907
64,8154,8157,7859,8138,8159,8106,8215,8163,8065,8168,8169,8151,8152,8094,8.985776424407959
65,8175,8180,7876,8142,8151,8114,8210,8167,8142,8149,8158,8195,8175,8104,8.99379587173462
66,8172,8178,7885,8152,8164,8109,8221,8174,8114,8170,8185,8167,8176,8110,9.00204086303711
67,8197,8192,7904,8169,8171,8125,8226,8180,8158,8193,8206,8182,8175,8142,9.01004695892334
67,8197,8192,7904,8169,8171,8125,8226,8180,8158,8193,8206,8182,8175,8142,9.010499477386476
68,8187,8185,7900,8160,8163,8116,8211,8168,8193,8180,8184,8198,8172,8139,9.018041372299194
69,8177,8166,7882,8162,8174,8111,8209,8156,8080,8176,8172,8150,8162,8121,9.025780200958252
69,8177,8166,7882,8162,8174,8111,8209,8156,8080,8176,8172,8150,8162,8121,9.026690483093262
70,8191,8195,7897,8181,8166,8138,8204,8176,8164,8160,8172,8193,8174,8124,9.033688068389893
71,8150,8160,7870,8156,8162,8125,8225,8180,8135,8177,8179,8170,8165,8106,9.042047500610352
72,8145,8152,7856,8149,8161,8131,8231,8179,8131,8188,8173,8163,8171,8104,9.049047231674194
73,8143,8166,7852,8146,8150,8138,8206,8185,8182,8166,8147,8177,8173,8088,9.057010889053345
74,8130,8143,7832,8130,8154,8127,8205,8172,8081,8167,8143,8138,8150,8072,9.06504774093628
75,8159,8173,7860,8147,8158,8135,8208,8171,8162,8170,8158,8193,8172,8097,9.072762250900269
76,8158,8170,7870,8154,8183,8132,8219,8173,8164,8191,8184,8186,8182,8109,9.081047534942629
77,8173,8173,7876,8167,8190,8147,8219,8180,8153,8194,8184,8177,8168,8119,9.089070320129396
78,8180,8182,7886,8167,8161,8145,8211,8180,8194,8166,8167,8197,8163,8112,9.097075700759888
79,8164,8156,7874,8153,8162,8135,8226,8168,8110,8177,8181,8162,8165,8103,9.104361534118652
79,8164,8156,7874,8153,8162,8135,8226,8168,8110,8177,8181,8162,8165,8103,9.105387449264526
80,8186,8180,7891,8169,8160,8161,8220,8187,8213,8186,8183,8207,8180,8128,9.111888885498049
81,8176,8161,7888,8160,8167,8153,8219,8186,8205,8189,8180,8184,8166,8131,9.119891881942747
82,8187,8160,7886,8162,8180,8144,8220,8172,8144,8182,8174,8162,8161,8136,9.12789225578308
83,8187,8180,7886,8159,8163,8145,8205,8177,8200,8163,8159,8200,8172,8132,9.135892152786257
84,8154,8145,7858,8131,8160,8145,8215,8181,8116,8173,8159,8154,8155,8108,9.144047021865845
85,8167,8163,7861,8137,8153,8162,8210,8183,8157,8154,8136,8178,8154,8103,9.152048826217651
86,8146,8153,7850,8132,8142,8144,8202,8171,8127,8147,8124,8175,8149,8085,9.159713745117188
87,8150,8145,7848,8134,8145,8136,8208,8170,8079,8166,8138,8161,8154,8093,9.167625904083252
88,8166,8172,7869,8147,8148,8141,8194,8178,8178,8154,8144,8201,8171,8108,9.17504906654358
89,8152,8155,7865,8146,8169,8125,8190,8169,8104,8162,8154,8161,8162,8106,9.1830472946167
90,8169,8169,7876,8153,8169,8135,8186,8169,8138,8157,8151,8184,8166,8124,9.190764665603638
91,8143,8160,7863,8135,8160,8134,8192,8170,8143,8149,8151,8180,8161,8114,9.19877576828003
92,8160,8160,7853,8137,8166,8137,8208,8169,8082,8163,8157,8156,8159,8118,9.207011222839355
93,8190,8189,7875,8152,8157,8135,8196,8161,8150,8144,8145,8197,8176,8133,9.214374303817747
93,8190,8189,7875,8152,8157,8135,8196,8161,8150,8144,8145,8197,8176,8133,9.21538472175598
94,8149,8153,7861,8131,8154,8115,8192,8143,8050,8132,8144,8153,8156,8111,9.22301459312439
95,8156,8162,7859,8140,8148,8137,8187,8158,8086,8127,8131,8173,8150,8109,9.231014966964722
96,8162,8172,7861,8147,8152,8136,8190,8171,8140,8138,8122,8186,8160,8108,9.238040208816528
97,8162,8160,7865,8147,8171,8122,8202,8167,8095,8165,8147,8158,8166,8124,9.246046781539915
97,8162,8160,7865,8147,8171,8122,8202,8167,8095,8165,8147,8158,8166,8124,9.246602773666382
98,8173,8176,7884,8148,8156,8130,8192,8180,8202,8162,8153,8202,8176,8141,9.253607988357544
98,8173,8176,7884,8148,8156,8130,8192,8180,8202,8162,8153,8202,8176,8141,9.254608869552612
99,8151,8143,7856,8131,8151,8118,8196,8171,8125,8164,8145,8168,8162,8119,9.26161813735962
99,8151,8143,7856,8131,8151,8118,8196,8171,8125,8164,8145,8168,8162,8119,9.262612104415894
100,8168,8158,7860,8146,8158,8134,8203,8167,8109,8147,8149,8181,8166,8126,9.270047426223757
101,8172,8177,7881,8158,8164,8146,8220,8179,8155,8143,8157,8198,8168,8133,9.277636528015137
101,8172,8177,7881,8158,8164,8146,8220,8179,8155,8143,8157,8198,8168,8133,9.27863311767578
102,8165,8159,7870,8152,8172,8142,8234,8182,8093,8170,8154,8159,8159,8125,9.28628945350647
102,8165,8159,7870,8152,8172,8142,8234,8182,8093,8170,8154,8159,8159,8125,9.286434650421144
103,8172,8176,7872,8152,8150,8140,8203,8179,8167,8154,8142,8193,8172,8126,9.293649435043337
104,8159,8156,7865,8144,8158,8121,8199,8167,8119,8160,8158,8163,8163,8122,9.301665306091309
105,8179,8174,7881,8166,8180,8131,8202,8176,8142,8175,8169,8179,8168,8139,9.310047388076782
106,8169,8186,7883,8169,8175,8127,8190,8173,8190,8166,8153,8201,8172,8130,9.317010879516602
107,8158,8161,7870,8159,8177,8126,8203,8158,8091,8168,8155,8154,8161,8118,9.324745178222656
108,8180,8185,7893,8175,8164,8154,8199,8173,8168,8159,8163,8202,8171,8131,9.332483291625977
108,8180,8185,7893,8175,8164,8154,8199,8173,8168,8159,8163,8202,8171,8131,9.333482503890991
109,8148,8166,7873,8154,8159,8143,8192,8165,8112,8163,8169,8177,8162,8120,9.34049105644226
109,8148,8166,7873,8154,8159,8143,8192,8165,8112,8163,8169,8177,8162,8120,9.341482877731323
110,8153,8166,7862,8148,8161,8148,8193,8149,8073,8151,8155,8163,8162,8120,9.34904646873474
111,8158,8171,7871,8153,8161,8162,8190,8161,8135,8134,8146,8191,8172,8118,9.357511281967165
112,8146,8148,7858,8144,8171,8153,8194,8159,8054,8156,8164,8155,8162,8114,9.365549802780151
113,8175,8186,7879,8163,8168,8159,8184,8164,8141,8155,8164,8194,8171,8133,9.372052192687988
114,8160,8177,7883,8165,8188,8165,8197,8181,8155,8175,8174,8182,8170,8131,9.380046606063845
115,8166,8169,7878,8167,8200,8190,8211,8192,8156,8197,8183,8176,8169,8138,9.387534141540527
115,8166,8169,7878,8167,8200,8190,8211,8192,8156,8197,8183,8176,8169,8138,9.388545036315918
116,8173,8184,7879,8166,8168,8193,8202,8183,8219,8176,8166,8204,8173,8135,9.39554500579834
117,8162,8164,7882,8161,8169,8179,8205,8169,8122,8181,8172,8169,8168,8135,9.404046773910522
118,8183,8183,7906,8171,8176,8191,8189,8173,8184,8178,8177,8209,8179,8160,9.412046432495115
119,8162,8162,7881,8153,8166,8174,8182,8156,8159,8168,8169,8182,8164,8137,9.420688390731812
120,8159,8154,7861,8152,8170,8181,8189,8151,8088,8163,8155,8151,8157,8116,9.427902698516846
121,8156,8173,7873,8151,8165,8197,8184,8169,8147,8143,8137,8190,8166,8109,9.435909271240234
122,8142,8145,7865,8138,8171,8184,8201,8165,8076,8155,8148,8163,8156,8103,9.443046808242798
123,8175,8175,7886,8160,8176,8191,8204,8172,8154,8158,8156,8201,8172,8128,9.451045989990234
124,8160,8176,7877,8151,8178,8179,8201,8171,8159,8159,8149,8185,8173,8127,9.459046363830566
125,8144,8159,7857,8137,8175,8175,8199,8166,8091,8168,8138,8146,8161,8117,9.46737575531006
126,8151,8171,7866,8144,8149,8179,8194,8176,8181,8157,8125,8186,8167,8115,9.475048065185549
126,8151,8171,7866,8144,8149,8179,8194,8176,8181,8157,8125,8186,8167,8115,9.47576093673706
127,8136,8142,7850,8137,8153,8160,8211,8175,8105,8167,8137,8149,8156,8111,9.482764720916748
239,8154,8165,7857,8154,8158,8171,8202,8177,8125,8158,8137,8171,8162,8123,9.491046905517578
0,8133,8159,7849,8144,8157,8169,8186,8163,8121,8140,8122,8178,8160,8103,9.499082565307615
1,8123,8137,7839,8134,8160,8169,8199,8155,8046,8146,8115,8146,8152,8099,9.506086826324465
2,8151,8163,7858,8151,8142,8186,8200,8168,8141,8137,8112,8185,8168,8117,9.513642311096191
3,8135,8138,7843,8142,8148,8175,8204,8163,8075,8145,8133,8158,8160,8103,9.52204728126526
4,8150,8151,7847,8145,8153,8174,8203,8169,8092,8143,8129,8173,8158,8105,9.530046939849854
5,8150,8161,7851,8142,8151,8162,8200,8170,8136,8134,8115,8175,8162,8100,9.538045406341553
