COUNTER,F3,FC5,AF3,F7,T7,P7,O1,O2,P8,T8,F8,AF4,FC6,F4,Timestamp
116, 8151, 8165, 8145, 8166, 8156, 8190, 8166, 8153, 8110, 8137, 8129, 8119, 8160, 8106,0.007359743118286133
116, 8151, 8165, 8145, 8166, 8156, 8190, 8166, 8153, 8110, 8137, 8129, 8119, 8160, 8106,0.007359743118286133
117, 8152, 8169, 8159, 8174, 8149, 8182, 8179, 8174, 8155, 8149, 8143, 8137, 8173, 8118,0.015361547470092773
117, 8152, 8169, 8159, 8174, 8149, 8182, 8179, 8174, 8155, 8149, 8143, 8137, 8173, 8118,0.015361547470092773
118, 8178, 8174, 8172, 8184, 8165, 8178, 8198, 8186, 8148, 8199, 8164, 8122, 8171, 8137,0.023363351821899414
118, 8178, 8174, 8172, 8184, 8165, 8178, 8198, 8186, 8148, 8199, 8164, 8122, 8171, 8137,0.023363351821899414
119, 8182, 8197, 8181, 8195, 8169, 8190, 8178, 8188, 8246, 8191, 8161, 8148, 8177, 8140,0.03143572807312012
119, 8182, 8197, 8181, 8195, 8169, 8190, 8178, 8188, 8246, 8191, 8161, 8148, 8177, 8140,0.03143572807312012
120, 8150, 8157, 8150, 8184, 8176, 8182, 8180, 8171, 8151, 8181, 8150, 8098, 8163, 8116,0.03886008262634277
120, 8150, 8157, 8150, 8184, 8176, 8182, 8180, 8171, 8151, 8181, 8150, 8098, 8163, 8116,0.03984785079956055
121, 8182, 8178, 8169, 8194, 8175, 8192, 8180, 8168, 8172, 8174, 8140, 8133, 8172, 8139,0.045850276947021484
121, 8182, 8178, 8169, 8194, 8175, 8192, 8180, 8168, 8172, 8174, 8140, 8133, 8172, 8139,0.045850276947021484
122, 8180, 8191, 8192, 8195, 8169, 8186, 8166, 8171, 8213, 8182, 8144, 8152, 8182, 8155,0.053847551345825195
122, 8180, 8191, 8192, 8195, 8169, 8186, 8166, 8171, 8213, 8182, 8144, 8152, 8182, 8155,0.054848432540893555
123, 8164, 8165, 8171, 8189, 8163, 8175, 8173, 8159, 8132, 8186, 8134, 8107, 8161, 8141,0.06244254112243652
123, 8164, 8165, 8171, 8189, 8163, 8175, 8173, 8159, 8132, 8186, 8134, 8107, 8161, 8141,0.06244254112243652
124, 8155, 8166, 8156, 8178, 8137, 8173, 8167, 8155, 8166, 8148, 8099, 8132, 8155, 8117,0.07047820091247559
124, 8155, 8166, 8156, 8178, 8137, 8173, 8167, 8155, 8166, 8148, 8099, 8132, 8155, 8117,0.07047820091247559
125, 8126, 8139, 8139, 8163, 8141, 8166, 8170, 8159, 8084, 8152, 8104, 8101, 8155, 8099,0.0784752368927002
125, 8126, 8139, 8139, 8163, 8141, 8166, 8170, 8159, 8084, 8152, 8104, 8101, 8155, 8099,0.0784752368927002
126, 8163, 8169, 8154, 8185, 8153, 8181, 8175, 8168, 8115, 8158, 8105, 8119, 8171, 8127,0.08581185340881348
126, 8163, 8169, 8154, 8185, 8153, 8181, 8175, 8168, 8115, 8158, 8105, 8119, 8171, 8127,0.08681344985961914
127, 8158, 8174, 8156, 8170, 8145, 8175, 8169, 8151, 8126, 8134, 8096, 8132, 8166, 8121,0.0938115119934082
127, 8158, 8174, 8156, 8170, 8145, 8175, 8169, 8151, 8126, 8134, 8096, 8132, 8166, 8121,0.09481406211853027
239, 8132, 8146, 8144, 8154, 8139, 8175, 8161, 8139, 8023, 8129, 8105, 8099, 8150, 8100,0.1018521785736084
239, 8132, 8146, 8144, 8154, 8139, 8175, 8161, 8139, 8023, 8129, 8105, 8099, 8150, 8100,0.10281062126159668
0, 8149, 8174, 8158, 8183, 8119, 8190, 8142, 8163, 8127, 8120, 8088, 8137, 8167, 8107,0.10981035232543945
0, 8149, 8174, 8158, 8183, 8119, 8190, 8142, 8163, 8127, 8120, 8088, 8137, 8167, 8107,0.10981035232543945
1, 8137, 8154, 8147, 8174, 8131, 8179, 8165, 8159, 8094, 8141, 8080, 8108, 8164, 8106,0.11740946769714355
1, 8137, 8154, 8147, 8174, 8131, 8179, 8165, 8159, 8094, 8141, 8080, 8108, 8164, 8106,0.11740946769714355
2, 8142, 8153, 8144, 8166, 8137, 8185, 8173, 8151, 8101, 8157, 8091, 8122, 8166, 8121,0.12538671493530273
2, 8142, 8153, 8144, 8166, 8137, 8185, 8173, 8151, 8101, 8157, 8091, 8122, 8166, 8121,0.12538671493530273
3, 8123, 8158, 8135, 8161, 8116, 8184, 8151, 8151, 8137, 8139, 8092, 8139, 8169, 8111,0.13338661193847656
3, 8123, 8158, 8135, 8161, 8116, 8184, 8151, 8151, 8137, 8139, 8092, 8139, 8169, 8111,0.13338661193847656
4, 8121, 8150, 8132, 8161, 8129, 8181, 8162, 8153, 8045, 8144, 8095, 8096, 8162, 8100,0.14167118072509766
4, 8121, 8150, 8132, 8161, 8129, 8181, 8162, 8153, 8045, 8144, 8095, 8096, 8162, 8100,0.14167118072509766
5, 8182, 8191, 8177, 8188, 8141, 8192, 8171, 8170, 8146, 8148, 8095, 8150, 8175, 8132,0.14922571182250977
5, 8182, 8191, 8177, 8188, 8141, 8192, 8171, 8170, 8146, 8148, 8095, 8150, 8175, 8132,0.14973139762878418
6, 8180, 8173, 8182, 8183, 8144, 8176, 8173, 8155, 8116, 8159, 8114, 8135, 8169, 8144,0.15773534774780273
6, 8180, 8173, 8182, 8183, 8144, 8176, 8173, 8155, 8116, 8159, 8114, 8135, 8169, 8144,0.15773534774780273
7, 8162, 8166, 8180, 8180, 8138, 8179, 8161, 8141, 8096, 8153, 8123, 8125, 8167, 8145,0.16573715209960938
7, 8162, 8166, 8180, 8180, 8138, 8179, 8161, 8141, 8096, 8153, 8123, 8125, 8167, 8145,0.16573715209960938
8, 8141, 8176, 8178, 8180, 8130, 8180, 8153, 8152, 8155, 8140, 8114, 8146, 8166, 8126,0.1734473705291748
8, 8141, 8176, 8178, 8180, 8130, 8180, 8153, 8152, 8155, 8140, 8114, 8146, 8166, 8126,0.1734473705291748
9, 8138, 8152, 8154, 8175, 8143, 8164, 8175, 8156, 8070, 8164, 8111, 8106, 8155, 8112,0.18044233322143555
9, 8138, 8152, 8154, 8175, 8143, 8164, 8175, 8156, 8070, 8164, 8111, 8106, 8155, 8112,0.18044233322143555
10, 8171, 8174, 8171, 8186, 8134, 8173, 8174, 8160, 8146, 8153, 8101, 8144, 8169, 8126,0.1884140968322754
10, 8171, 8174, 8171, 8186, 8134, 8173, 8174, 8160, 8146, 8153, 8101, 8144, 8169, 8126,0.1884140968322754
11, 8151, 8166, 8174, 8177, 8139, 8170, 8171, 8153, 8118, 8151, 8115, 8131, 8164, 8118,0.19641423225402832
11, 8151, 8166, 8174, 8177, 8139, 8170, 8171, 8153, 8118, 8151, 8115, 8131, 8164, 8118,0.19641423225402832
12, 8162, 8178, 8181, 8193, 8154, 8176, 8168, 8161, 8108, 8169, 8130, 8132, 8163, 8126,0.20398592948913574
12, 8162, 8178, 8181, 8193, 8154, 8176, 8168, 8161, 8108, 8169, 8130, 8132, 8163, 8126,0.20398592948913574
13, 8178, 8194, 8187, 8200, 8148, 8179, 8168, 8174, 8205, 8172, 8120, 8164, 8169, 8137,0.21244406700134277
13, 8178, 8194, 8187, 8200, 8148, 8179, 8168, 8174, 8205, 8172, 8120, 8164, 8169, 8137,0.21244406700134277
14, 8141, 8148, 8154, 8169, 8149, 8170, 8179, 8162, 8103, 8170, 8117, 8107, 8156, 8122,0.2203664779663086
14, 8141, 8148, 8154, 8169, 8149, 8170, 8179, 8162, 8103, 8170, 8117, 8107, 8156, 8122,0.2203664779663086
15, 8128, 8158, 8149, 8165, 8130, 8172, 8157, 8163, 8132, 8135, 8102, 8132, 8167, 8113,0.22838068008422852
15, 8128, 8158, 8149, 8165, 8130, 8172, 8157, 8163, 8132, 8135, 8102, 8132, 8167, 8113,0.22838068008422852
16, 8124, 8151, 8139, 8162, 8127, 8147, 8153, 8155, 8100, 8132, 8096, 8127, 8161, 8097,0.23638010025024414
16, 8124, 8151, 8139, 8162, 8127, 8147, 8153, 8155, 8100, 8132, 8096, 8127, 8161, 8097,0.23638010025024414
17, 8145, 8155, 8141, 8165, 8143, 8145, 8162, 8143, 8057, 8147, 8106, 8117, 8159, 8109,0.24344587326049805
17, 8145, 8155, 8141, 8165, 8143, 8145, 8162, 8143, 8057, 8147, 8106, 8117, 8159, 8109,0.24344587326049805
18, 8138, 8177, 8150, 8170, 8138, 8162, 8151, 8154, 8145, 8138, 8110, 8152, 8177, 8115,0.25139808654785156
18, 8138, 8177, 8150, 8170, 8138, 8162, 8151, 8154, 8145, 8138, 8110, 8152, 8177, 8115,0.25139808654785156
19, 8123, 8152, 8138, 8176, 8148, 8158, 8159, 8159, 8084, 8163, 8129, 8119, 8170, 8110,0.25945019721984863
19, 8123, 8152, 8138, 8176, 8148, 8158, 8159, 8159, 8084, 8163, 8129, 8119, 8170, 8110,0.25945019721984863
20, 8157, 8177, 8162, 8199, 8143, 8160, 8152, 8159, 8148, 8158, 8130, 8155, 8175, 8122,0.2674219608306885
20, 8157, 8177, 8162, 8199, 8143, 8160, 8152, 8159, 8148, 8158, 8130, 8155, 8175, 8122,0.2674219608306885
21, 8139, 8174, 8161, 8190, 8134, 8143, 8145, 8149, 8124, 8140, 8127, 8142, 8165, 8097,0.275437593460083
21, 8139, 8174, 8161, 8190, 8134, 8143, 8145, 8149, 8124, 8140, 8127, 8142, 8165, 8097,0.275437593460083
22, 8140, 8167, 8157, 8194, 8144, 8149, 8154, 8152, 8061, 8148, 8132, 8120, 8155, 8098,0.2834460735321045
22, 8140, 8167, 8157, 8194, 8144, 8149, 8154, 8152, 8061, 8148, 8132, 8120, 8155, 8098,0.2834460735321045
23, 8158, 8191, 8176, 8204, 8138, 8165, 8147, 8166, 8160, 8144, 8125, 8161, 8171, 8119,0.2914419174194336
23, 8158, 8191, 8176, 8204, 8138, 8165, 8147, 8166, 8160, 8144, 8125, 8161, 8171, 8119,0.2914419174194336
24, 8148, 8164, 8166, 8188, 8146, 8158, 8155, 8159, 8089, 8156, 8134, 8119, 8169, 8112,0.2994420528411865
24, 8148, 8164, 8166, 8188, 8146, 8158, 8155, 8159, 8089, 8156, 8134, 8119, 8169, 8112,0.2994420528411865
25, 8172, 8175, 8176, 8194, 8148, 8179, 8155, 8165, 8141, 8157, 8141, 8150, 8174, 8119,0.3074004650115967
25, 8172, 8175, 8176, 8194, 8148, 8179, 8155, 8165, 8141, 8157, 8141, 8150, 8174, 8119,0.3074004650115967
26, 8146, 8165, 8164, 8183, 8142, 8177, 8146, 8162, 8154, 8157, 8140, 8151, 8168, 8103,0.3154482841491699
26, 8146, 8165, 8164, 8183, 8142, 8177, 8146, 8162, 8154, 8157, 8140, 8151, 8168, 8103,0.3154482841491699
27, 8129, 8152, 8144, 8175, 8148, 8169, 8141, 8145, 8072, 8164, 8139, 8112, 8158, 8090,0.32244443893432617
27, 8129, 8152, 8144, 8175, 8148, 8169, 8141, 8145, 8072, 8164, 8139, 8112, 8158, 8090,0.32244443893432617
28, 8140, 8174, 8152, 8180, 8132, 8173, 8126, 8144, 8145, 8141, 8130, 8152, 8167, 8092,0.3298478126525879
28, 8140, 8174, 8152, 8180, 8132, 8173, 8126, 8144, 8145, 8141, 8130, 8152, 8167, 8092,0.3298478126525879
29, 8113, 8149, 8141, 8164, 8124, 8165, 8137, 8145, 8065, 8141, 8135, 8119, 8161, 8080,0.33785343170166016
29, 8113, 8149, 8141, 8164, 8124, 8165, 8137, 8145, 8065, 8141, 8135, 8119, 8161, 8080,0.338853120803833
30, 8130, 8171, 8158, 8178, 8120, 8181, 8137, 8154, 8093, 8134, 8131, 8140, 8166, 8095,0.34644579887390137
30, 8130, 8171, 8158, 8178, 8120, 8181, 8137, 8154, 8093, 8134, 8131, 8140, 8166, 8095,0.34644579887390137
31, 8137, 8176, 8169, 8179, 8128, 8183, 8134, 8148, 8131, 8132, 8135, 8154, 8165, 8100,0.3544447422027588
31, 8137, 8176, 8169, 8179, 8128, 8183, 8134, 8148, 8131, 8132, 8135, 8154, 8165, 8100,0.3544447422027588
32, 8131, 8155, 8158, 8166, 8141, 8170, 8140, 8138, 8053, 8143, 8145, 8118, 8162, 8097,0.3627481460571289
32, 8131, 8155, 8158, 8166, 8141, 8170, 8140, 8138, 8053, 8143, 8145, 8118, 8162, 8097,0.3627481460571289
33, 8134, 8173, 8164, 8168, 8120, 8167, 8122, 8144, 8123, 8122, 8126, 8146, 8169, 8095,0.37076377868652344
33, 8134, 8173, 8164, 8168, 8120, 8167, 8122, 8144, 8123, 8122, 8126, 8146, 8169, 8095,0.37076377868652344
34, 8111, 8147, 8147, 8156, 8126, 8170, 8129, 8133, 8053, 8137, 8130, 8115, 8155, 8081,0.37676548957824707
34, 8111, 8147, 8147, 8156, 8126, 8170, 8129, 8133, 8053, 8137, 8130, 8115, 8155, 8081,0.3777642250061035
35, 8130, 8162, 8159, 8167, 8139, 8183, 8138, 8144, 8077, 8146, 8137, 8131, 8164, 8089,0.38527560234069824
35, 8130, 8162, 8159, 8167, 8139, 8183, 8138, 8144, 8077, 8146, 8137, 8131, 8164, 8089,0.38527560234069824
36, 8129, 8164, 8162, 8162, 8130, 8165, 8135, 8156, 8122, 8133, 8129, 8143, 8170, 8084,0.39299726486206055
36, 8129, 8164, 8162, 8162, 8130, 8165, 8135, 8156, 8122, 8133, 8129, 8143, 8170, 8084,0.39299726486206055
37, 8123, 8140, 8151, 8158, 8131, 8164, 8144, 8146, 8046, 8148, 8141, 8112, 8158, 8092,0.4009521007537842
37, 8123, 8140, 8151, 8158, 8131, 8164, 8144, 8146, 8046, 8148, 8141, 8112, 8158, 8092,0.40172410011291504
38, 8151, 8178, 8174, 8184, 8128, 8185, 8140, 8157, 8158, 8149, 8147, 8160, 8174, 8121,0.40872907638549805
38, 8151, 8178, 8174, 8184, 8128, 8185, 8140, 8157, 8158, 8149, 8147, 8160, 8174, 8121,0.4097304344177246
39, 8137, 8158, 8152, 8168, 8136, 8161, 8149, 8160, 8111, 8155, 8146, 8128, 8169, 8107,0.4167308807373047
39, 8137, 8158, 8152, 8168, 8136, 8161, 8149, 8160, 8111, 8155, 8146, 8128, 8169, 8107,0.41772961616516113
40, 8145, 8156, 8141, 8164, 8138, 8163, 8154, 8157, 8097, 8158, 8140, 8130, 8165, 8105,0.42573022842407227
40, 8145, 8156, 8141, 8164, 8138, 8163, 8154, 8157, 8097, 8158, 8140, 8130, 8165, 8105,0.42573022842407227
41, 8134, 8167, 8149, 8172, 8135, 8175, 8154, 8162, 8165, 8159, 8141, 8156, 8171, 8108,0.43272995948791504
41, 8134, 8167, 8149, 8172, 8135, 8175, 8154, 8162, 8165, 8159, 8141, 8156, 8171, 8108,0.4337294101715088
42, 8116, 8149, 8133, 8163, 8150, 8164, 8162, 8161, 8080, 8165, 8145, 8118, 8163, 8109,0.44072961807250977
42, 8116, 8149, 8133, 8163, 8150, 8164, 8162, 8161, 8080, 8165, 8145, 8118, 8163, 8109,0.4417300224304199
43, 8141, 8176, 8142, 8165, 8129, 8175, 8149, 8161, 8144, 8133, 8131, 8157, 8170, 8119,0.44772934913635254
43, 8141, 8176, 8142, 8165, 8129, 8175, 8149, 8161, 8144, 8133, 8131, 8157, 8170, 8119,0.44772934913635254
44, 8131, 8161, 8139, 8164, 8126, 8174, 8156, 8153, 8115, 8143, 8146, 8137, 8164, 8106,0.45644211769104004
44, 8131, 8161, 8139, 8164, 8126, 8174, 8156, 8153, 8115, 8143, 8146, 8137, 8164, 8106,0.45644211769104004
45, 8154, 8169, 8151, 8186, 8145, 8184, 8167, 8159, 8119, 8168, 8167, 8141, 8168, 8115,0.46444153785705566
45, 8154, 8169, 8151, 8186, 8145, 8184, 8167, 8159, 8119, 8168, 8167, 8141, 8168, 8115,0.46444153785705566
46, 8158, 8185, 8163, 8190, 8142, 8189, 8164, 8168, 8197, 8171, 8174, 8175, 8174, 8122,0.4724421501159668
46, 8158, 8185, 8163, 8190, 8142, 8189, 8164, 8168, 8197, 8171, 8174, 8175, 8174, 8122,0.4724421501159668
47, 8142, 8158, 8146, 8179, 8152, 8186, 8182, 8170, 8128, 8195, 8182, 8130, 8160, 8119,0.48075270652770996
47, 8142, 8158, 8146, 8179, 8152, 8186, 8182, 8170, 8128, 8195, 8182, 8130, 8160, 8119,0.48075270652770996
48, 8175, 8182, 8153, 8198, 8147, 8196, 8180, 8179, 8200, 8183, 8162, 8158, 8166, 8122,0.4882981777191162
48, 8175, 8182, 8153, 8198, 8147, 8196, 8180, 8179, 8200, 8183, 8162, 8158, 8166, 8122,0.4882981777191162
49, 8159, 8171, 8146, 8189, 8140, 8180, 8175, 8165, 8149, 8169, 8164, 8147, 8160, 8107,0.49643564224243164
49, 8159, 8171, 8146, 8189, 8140, 8180, 8175, 8165, 8149, 8169, 8164, 8147, 8160, 8107,0.49643564224243164
50, 8155, 8170, 8150, 8189, 8143, 8189, 8175, 8161, 8122, 8167, 8185, 8142, 8165, 8123,0.5043306350708008
50, 8155, 8170, 8150, 8189, 8143, 8189, 8175, 8161, 8122, 8167, 8185, 8142, 8165, 8123,0.5043306350708008
51, 8166, 8189, 8158, 8199, 8140, 8207, 8172, 8172, 8218, 8156, 8175, 8170, 8178, 8133,0.5113246440887451
51, 8166, 8189, 8158, 8199, 8140, 8207, 8172, 8172, 8218, 8156, 8175, 8170, 8178, 8133,0.5113246440887451
52, 8166, 8164, 8145, 8198, 8154, 8210, 8186, 8163, 8133, 8181, 8173, 8131, 8166, 8126,0.5194416046142578
52, 8166, 8164, 8145, 8198, 8154, 8210, 8186, 8163, 8133, 8181, 8173, 8131, 8166, 8126,0.5194416046142578
53, 8184, 8180, 8158, 8203, 8145, 8221, 8183, 8170, 8203, 8190, 8174, 8168, 8175, 8148,0.5274629592895508
53, 8184, 8180, 8158, 8203, 8145, 8221, 8183, 8170, 8203, 8190, 8174, 8168, 8175, 8148,0.5274629592895508
54, 8141, 8165, 8142, 8177, 8142, 8200, 8179, 8173, 8195, 8186, 8184, 8153, 8175, 8136,0.5354623794555664
54, 8141, 8165, 8142, 8177, 8142, 8200, 8179, 8173, 8195, 8186, 8184, 8153, 8175, 8136,0.5354623794555664
55, 8140, 8159, 8135, 8179, 8148, 8198, 8180, 8177, 8140, 8187, 8187, 8130, 8166, 8125,0.5434608459472656
55, 8140, 8159, 8135, 8179, 8148, 8198, 8180, 8177, 8140, 8187, 8187, 8130, 8166, 8125,0.5434608459472656
56, 8173, 8179, 8149, 8185, 8132, 8202, 8175, 8183, 8219, 8172, 8160, 8165, 8166, 8131,0.5514402389526367
56, 8173, 8179, 8149, 8185, 8132, 8202, 8175, 8183, 8219, 8172, 8160, 8165, 8166, 8131,0.5514402389526367
57, 8156, 8150, 8127, 8157, 8133, 8175, 8180, 8158, 8122, 8168, 8155, 8121, 8154, 8120,0.5584259033203125
57, 8156, 8150, 8127, 8157, 8133, 8175, 8180, 8158, 8122, 8168, 8155, 8121, 8154, 8120,0.5584259033203125
58, 8162, 8170, 8133, 8173, 8128, 8168, 8155, 8151, 8154, 8152, 8149, 8150, 8167, 8119,0.5664422512054443
58, 8162, 8170, 8133, 8173, 8128, 8168, 8155, 8151, 8154, 8152, 8149, 8150, 8167, 8119,0.5664422512054443
59, 8152, 8166, 8131, 8180, 8129, 8162, 8145, 8152, 8154, 8154, 8149, 8148, 8173, 8110,0.5745539665222168
59, 8152, 8166, 8131, 8180, 8129, 8162, 8145, 8152, 8154, 8154, 8149, 8148, 8173, 8110,0.5745539665222168
60, 8145, 8152, 8118, 8169, 8139, 8170, 8157, 8150, 8091, 8166, 8155, 8121, 8162, 8106,0.582550048828125
60, 8145, 8152, 8118, 8169, 8139, 8170, 8157, 8150, 8091, 8166, 8155, 8121, 8162, 8106,0.582550048828125
61, 8140, 8167, 8114, 8161, 8120, 8169, 8143, 8151, 8162, 8146, 8136, 8157, 8161, 8094,0.5904414653778076
61, 8140, 8167, 8114, 8161, 8120, 8169, 8143, 8151, 8162, 8146, 8136, 8157, 8161, 8094,0.5904414653778076
62, 8127, 8139, 8103, 8156, 8125, 8146, 8149, 8149, 8089, 8160, 8145, 8127, 8160, 8087,0.598585844039917
62, 8127, 8139, 8103, 8156, 8125, 8146, 8149, 8149, 8089, 8160, 8145, 8127, 8160, 8087,0.598585844039917
63, 8166, 8168, 8139, 8186, 8136, 8156, 8158, 8173, 8161, 8171, 8168, 8161, 8176, 8128,0.6064417362213135
63, 8166, 8168, 8139, 8186, 8136, 8156, 8158, 8173, 8161, 8171, 8168, 8161, 8176, 8128,0.6064417362213135
64, 8155, 8168, 8141, 8177, 8127, 8154, 8148, 8163, 8170, 8159, 8163, 8158, 8164, 8123,0.6144263744354248
64, 8155, 8168, 8141, 8177, 8127, 8154, 8148, 8163, 8170, 8159, 8163, 8158, 8164, 8123,0.6144263744354248
65, 8130, 8142, 8113, 8158, 8126, 8147, 8143, 8134, 8053, 8149, 8149, 8123, 8156, 8099,0.6224427223205566
65, 8130, 8142, 8113, 8158, 8126, 8147, 8143, 8134, 8053, 8149, 8149, 8123, 8156, 8099,0.6224427223205566
66, 8133, 8170, 8125, 8176, 8124, 8150, 8142, 8154, 8150, 8144, 8147, 8174, 8176, 8105,0.6304407119750977
66, 8133, 8170, 8125, 8176, 8124, 8150, 8142, 8154, 8150, 8144, 8147, 8174, 8176, 8105,0.6304407119750977
67, 8125, 8156, 8120, 8168, 8133, 8138, 8156, 8161, 8106, 8168, 8150, 8138, 8157, 8098,0.6374051570892334
67, 8125, 8156, 8120, 8168, 8133, 8138, 8156, 8161, 8106, 8168, 8150, 8138, 8157, 8098,0.6374051570892334
68, 8151, 8164, 8125, 8161, 8123, 8143, 8139, 8144, 8104, 8148, 8134, 8143, 8156, 8101,0.6454415321350098
68, 8151, 8164, 8125, 8161, 8123, 8143, 8139, 8144, 8104, 8148, 8134, 8143, 8156, 8101,0.6454415321350098
69, 8141, 8165, 8129, 8165, 8121, 8131, 8131, 8147, 8126, 8131, 8138, 8158, 8172, 8096,0.6534416675567627
69, 8141, 8165, 8129, 8165, 8121, 8131, 8131, 8147, 8126, 8131, 8138, 8158, 8172, 8096,0.6534416675567627
70, 8144, 8158, 8130, 8175, 8144, 8127, 8159, 8165, 8077, 8170, 8160, 8132, 8173, 8109,0.6614696979522705
70, 8144, 8158, 8130, 8175, 8144, 8127, 8159, 8165, 8077, 8170, 8160, 8132, 8173, 8109,0.6614696979522705
71, 8167, 8187, 8152, 8177, 8124, 8142, 8147, 8163, 8177, 8163, 8158, 8174, 8175, 8133,0.669039249420166
71, 8167, 8187, 8152, 8177, 8124, 8142, 8147, 8163, 8177, 8163, 8158, 8174, 8175, 8133,0.669039249420166
72, 8149, 8159, 8149, 8166, 8117, 8134, 8145, 8142, 8118, 8156, 8176, 8144, 8162, 8127,0.6774053573608398
72, 8149, 8159, 8149, 8166, 8117, 8134, 8145, 8142, 8118, 8156, 8176, 8144, 8162, 8127,0.6774053573608398
73, 8176, 8171, 8168, 8193, 8136, 8149, 8166, 8158, 8147, 8160, 8183, 8152, 8171, 8140,0.6854486465454102
73, 8176, 8171, 8168, 8193, 8136, 8149, 8166, 8158, 8147, 8160, 8183, 8152, 8171, 8140,0.6854486465454102
74, 8171, 8181, 8174, 8198, 8139, 8159, 8170, 8170, 8205, 8156, 8174, 8166, 8176, 8131,0.6934418678283691
74, 8171, 8181, 8174, 8198, 8139, 8159, 8170, 8170, 8205, 8156, 8174, 8166, 8176, 8131,0.6934418678283691
75, 8163, 8166, 8158, 8194, 8147, 8160, 8173, 8160, 8123, 8173, 8183, 8130, 8162, 8127,0.7015073299407959
75, 8163, 8166, 8158, 8194, 8147, 8160, 8173, 8160, 8123, 8173, 8183, 8130, 8162, 8127,0.7015073299407959
76, 8194, 8195, 8176, 8204, 8141, 8166, 8166, 8167, 8216, 8168, 8176, 8174, 8176, 8157,0.7085103988647461
76, 8194, 8195, 8176, 8204, 8141, 8166, 8166, 8167, 8216, 8168, 8176, 8174, 8176, 8157,0.7085103988647461
77, 8166, 8165, 8165, 8177, 8136, 8143, 8165, 8164, 8168, 8171, 8178, 8141, 8171, 8143,0.7165212631225586
77, 8166, 8165, 8165, 8177, 8136, 8143, 8165, 8164, 8168, 8171, 8178, 8141, 8171, 8143,0.7169914245605469
78, 8172, 8172, 8165, 8183, 8127, 8144, 8161, 8165, 8156, 8172, 8181, 8138, 8169, 8134,0.7244415283203125
78, 8172, 8172, 8165, 8183, 8127, 8144, 8161, 8165, 8156, 8172, 8181, 8138, 8169, 8134,0.7244415283203125
79, 8176, 8191, 8167, 8195, 8121, 8154, 8164, 8168, 8211, 8166, 8174, 8166, 8173, 8134,0.7324624061584473
79, 8176, 8191, 8167, 8195, 8121, 8154, 8164, 8168, 8211, 8166, 8174, 8166, 8173, 8134,0.7324624061584473
80, 8158, 8156, 8143, 8181, 8129, 8144, 8172, 8154, 8102, 8172, 8172, 8119, 8160, 8127,0.740462064743042
80, 8158, 8156, 8143, 8181, 8129, 8144, 8172, 8154, 8102, 8172, 8172, 8119, 8160, 8127,0.7410004138946533
81, 8170, 8174, 8150, 8187, 8115, 8142, 8153, 8150, 8160, 8144, 8153, 8149, 8166, 8130,0.7487261295318604
81, 8170, 8174, 8150, 8187, 8115, 8142, 8153, 8150, 8160, 8144, 8153, 8149, 8166, 8130,0.7487261295318604
82, 8147, 8162, 8143, 8185, 8123, 8136, 8165, 8152, 8136, 8146, 8153, 8129, 8159, 8122,0.7564418315887451
82, 8147, 8162, 8143, 8185, 8123, 8136, 8165, 8152, 8136, 8146, 8153, 8129, 8159, 8122,0.7564418315887451
83, 8156, 8169, 8144, 8195, 8139, 8156, 8182, 8167, 8139, 8162, 8161, 8127, 8163, 8134,0.7647726535797119
83, 8156, 8169, 8144, 8195, 8139, 8156, 8182, 8167, 8139, 8162, 8161, 8127, 8163, 8134,0.7647726535797119
84, 8165, 8189, 8152, 8196, 8132, 8158, 8178, 8178, 8228, 8161, 8160, 8165, 8182, 8136,0.7714414596557617
84, 8165, 8189, 8152, 8196, 8132, 8158, 8178, 8178, 8228, 8161, 8160, 8165, 8182, 8136,0.7714414596557617
85, 8161, 8169, 8146, 8190, 8148, 8152, 8198, 8172, 8166, 8190, 8182, 8138, 8181, 8143,0.7794103622436523
85, 8161, 8169, 8146, 8190, 8148, 8152, 8198, 8172, 8166, 8190, 8182, 8138, 8181, 8143,0.7794103622436523
86, 8193, 8198, 8167, 8217, 8154, 8179, 8197, 8184, 8258, 8192, 8190, 8177, 8184, 8163,0.787405252456665
86, 8193, 8198, 8167, 8217, 8154, 8179, 8197, 8184, 8258, 8192, 8190, 8177, 8184, 8163,0.787405252456665
87, 8182, 8191, 8150, 8210, 8157, 8170, 8193, 8178, 8235, 8190, 8177, 8152, 8166, 8145,0.7954392433166504
87, 8182, 8191, 8150, 8210, 8157, 8170, 8193, 8178, 8235, 8190, 8177, 8152, 8166, 8145,0.7954392433166504
88, 8180, 8185, 8143, 8204, 8166, 8171, 8193, 8164, 8183, 8192, 8169, 8135, 8160, 8147,0.8034136295318604
88, 8180, 8185, 8143, 8204, 8166, 8171, 8193, 8164, 8183, 8192, 8169, 8135, 8160, 8147,0.8034136295318604
89, 8184, 8194, 8166, 8212, 8167, 8188, 8182, 8177, 8268, 8185, 8177, 8169, 8173, 8155,0.8116304874420166
89, 8184, 8194, 8166, 8212, 8167, 8188, 8182, 8177, 8268, 8185, 8177, 8169, 8173, 8155,0.8116304874420166
90, 8179, 8164, 8156, 8202, 8184, 8182, 8193, 8187, 8201, 8206, 8187, 8127, 8164, 8151,0.8194410800933838
90, 8179, 8164, 8156, 8202, 8184, 8182, 8193, 8187, 8201, 8206, 8187, 8127, 8164, 8151,0.8194410800933838
91, 8196, 8186, 8157, 8210, 8173, 8185, 8192, 8190, 8250, 8188, 8159, 8160, 8170, 8158,0.8276636600494385
91, 8196, 8186, 8157, 8210, 8173, 8185, 8192, 8190, 8250, 8188, 8159, 8160, 8170, 8158,0.8276636600494385
92, 8168, 8177, 8143, 8200, 8160, 8173, 8188, 8167, 8211, 8164, 8148, 8150, 8165, 8133,0.8346695899963379
92, 8168, 8177, 8143, 8200, 8160, 8173, 8188, 8167, 8211, 8164, 8148, 8150, 8165, 8133,0.8346695899963379
93, 8159, 8164, 8136, 8198, 8166, 8175, 8182, 8154, 8134, 8162, 8161, 8129, 8162, 8127,0.84246826171875
93, 8159, 8164, 8136, 8198, 8166, 8175, 8182, 8154, 8134, 8162, 8161, 8129, 8162, 8127,0.84246826171875
94, 8173, 8186, 8149, 8199, 8150, 8179, 8169, 8165, 8211, 8153, 8155, 8175, 8173, 8140,0.8503479957580566
94, 8173, 8186, 8149, 8199, 8150, 8179, 8169, 8165, 8211, 8153, 8155, 8175, 8173, 8140,0.8503479957580566
95, 8164, 8165, 8137, 8186, 8155, 8172, 8190, 8165, 8134, 8168, 8162, 8138, 8163, 8133,0.8582565784454346
95, 8164, 8165, 8137, 8186, 8155, 8172, 8190, 8165, 8134, 8168, 8162, 8138, 8163, 8133,0.8582565784454346
96, 8189, 8184, 8150, 8206, 8153, 8189, 8190, 8173, 8189, 8163, 8164, 8157, 8171, 8145,0.866441011428833
96, 8189, 8184, 8150, 8206, 8153, 8189, 8190, 8173, 8189, 8163, 8164, 8157, 8171, 8145,0.866441011428833
97, 8172, 8173, 8144, 8196, 8145, 8176, 8177, 8169, 8187, 8153, 8161, 8154, 8168, 8140,0.8744411468505859
97, 8172, 8173, 8144, 8196, 8145, 8176, 8177, 8169, 8187, 8153, 8161, 8154, 8168, 8140,0.8744411468505859
98, 8164, 8158, 8126, 8182, 8158, 8170, 8178, 8154, 8105, 8155, 8153, 8126, 8159, 8125,0.8824417591094971
98, 8164, 8158, 8126, 8182, 8158, 8170, 8178, 8154, 8105, 8155, 8153, 8126, 8159, 8125,0.8824417591094971
99, 8179, 8189, 8139, 8186, 8155, 8194, 8176, 8159, 8202, 8151, 8140, 8165, 8171, 8126,0.8912701606750488
99, 8179, 8189, 8139, 8186, 8155, 8194, 8176, 8159, 8202, 8151, 8140, 8165, 8171, 8126,0.8912701606750488
100, 8161, 8164, 8137, 8179, 8161, 8201, 8192, 8166, 8155, 8183, 8162, 8137, 8167, 8131,0.8983700275421143
100, 8161, 8164, 8137, 8179, 8161, 8201, 8192, 8166, 8155, 8183, 8162, 8137, 8167, 8131,0.8983700275421143
101, 8184, 8176, 8149, 8198, 8162, 8206, 8188, 8176, 8205, 8186, 8167, 8159, 8175, 8148,0.9053702354431152
101, 8184, 8176, 8149, 8198, 8162, 8206, 8188, 8176, 8205, 8186, 8167, 8159, 8175, 8148,0.9053702354431152
102, 8187, 8178, 8147, 8193, 8167, 8197, 8185, 8172, 8240, 8170, 8161, 8165, 8175, 8149,0.9134416580200195
102, 8187, 8178, 8147, 8193, 8167, 8197, 8185, 8172, 8240, 8170, 8161, 8165, 8175, 8149,0.9134416580200195
103, 8189, 8168, 8143, 8187, 8178, 8206, 8207, 8174, 8181, 8183, 8174, 8144, 8167, 8158,0.9214415550231934
103, 8189, 8168, 8143, 8187, 8178, 8206, 8207, 8174, 8181, 8183, 8174, 8144, 8167, 8158,0.9214415550231934
104, 8186, 8185, 8145, 8186, 8157, 8213, 8190, 8174, 8239, 8165, 8150, 8180, 8175, 8149,0.9294135570526123
104, 8186, 8185, 8145, 8186, 8157, 8213, 8190, 8174, 8239, 8165, 8150, 8180, 8175, 8149,0.9294135570526123
105, 8140, 8149, 8114, 8157, 8156, 8187, 8172, 8154, 8120, 8157, 8135, 8128, 8161, 8107,0.9374129772186279
105, 8140, 8149, 8114, 8157, 8156, 8187, 8172, 8154, 8120, 8157, 8135, 8128, 8161, 8107,0.9374129772186279
106, 8173, 8172, 8134, 8171, 8161, 8197, 8174, 8168, 8161, 8173, 8157, 8149, 8168, 8131,0.9454257488250732
106, 8173, 8172, 8134, 8171, 8161, 8197, 8174, 8168, 8161, 8173, 8157, 8149, 8168, 8131,0.9454257488250732
107, 8181, 8180, 8147, 8179, 8154, 8189, 8177, 8174, 8234, 8181, 8170, 8176, 8171, 8146,0.9537050724029541
107, 8181, 8180, 8147, 8179, 8154, 8189, 8177, 8174, 8234, 8181, 8170, 8176, 8171, 8146,0.9537050724029541
108, 8151, 8145, 8122, 8166, 8157, 8172, 8173, 8150, 8122, 8177, 8154, 8128, 8157, 8122,0.9616730213165283
108, 8151, 8145, 8122, 8166, 8157, 8172, 8173, 8150, 8122, 8177, 8154, 8128, 8157, 8122,0.9616730213165283
109, 8155, 8167, 8132, 8173, 8150, 8188, 8156, 8153, 8176, 8146, 8129, 8154, 8169, 8114,0.9684417247772217
109, 8155, 8167, 8132, 8173, 8150, 8188, 8156, 8153, 8176, 8146, 8129, 8154, 8169, 8114,0.9684417247772217
110, 8137, 8150, 8118, 8163, 8157, 8185, 8164, 8151, 8114, 8145, 8137, 8128, 8163, 8105,0.976485013961792
110, 8137, 8150, 8118, 8163, 8157, 8185, 8164, 8151, 8114, 8145, 8137, 8128, 8163, 8105,0.976485013961792
111, 8153, 8160, 8120, 8170, 8158, 8199, 8171, 8153, 8113, 8150, 8133, 8140, 8162, 8119,0.9844827651977539
111, 8153, 8160, 8120, 8170, 8158, 8199, 8171, 8153, 8113, 8150, 8133, 8140, 8162, 8119,0.9844827651977539
112, 8158, 8174, 8139, 8176, 8161, 8211, 8176, 8165, 8185, 8156, 8135, 8160, 8171, 8123,0.9925813674926758
112, 8158, 8174, 8139, 8176, 8161, 8211, 8176, 8165, 8185, 8156, 8135, 8160, 8171, 8123,0.9925813674926758
113, 8157, 8161, 8140, 8184, 8195, 8217, 8197, 8172, 8147, 8190, 8172, 8127, 8174, 8131,1.0005764961242676
113, 8157, 8161, 8140, 8184, 8195, 8217, 8197, 8172, 8147, 8190, 8172, 8127, 8174, 8131,1.0005764961242676
114, 8179, 8185, 8151, 8199, 8195, 8235, 8192, 8180, 8258, 8190, 8179, 8177, 8184, 8148,1.0085680484771729
114, 8179, 8185, 8151, 8199, 8195, 8235, 8192, 8180, 8258, 8190, 8179, 8177, 8184, 8148,1.0085680484771729
115, 8150, 8163, 8131, 8179, 8189, 8223, 8190, 8165, 8207, 8190, 8170, 8144, 8164, 8120,1.016615390777588
115, 8150, 8163, 8131, 8179, 8189, 8223, 8190, 8165, 8207, 8190, 8170, 8144, 8164, 8120,1.016615390777588
116, 8158, 8164, 8128, 8184, 8189, 8228, 8187, 8166, 8178, 8189, 8162, 8131, 8162, 8115,1.0246410369873047
116, 8158, 8164, 8128, 8184, 8189, 8228, 8187, 8166, 8178, 8189, 8162, 8131, 8162, 8115,1.0246410369873047
117, 8156, 8169, 8133, 8186, 8172, 8227, 8184, 8178, 8228, 8176, 8152, 8159, 8172, 8113,1.0326406955718994
117, 8156, 8169, 8133, 8186, 8172, 8227, 8184, 8178, 8228, 8176, 8152, 8159, 8172, 8113,1.0326406955718994
118, 8128, 8142, 8112, 8173, 8166, 8210, 8198, 8159, 8112, 8176, 8152, 8115, 8157, 8094,1.0394413471221924
118, 8128, 8142, 8112, 8173, 8166, 8210, 8198, 8159, 8112, 8176, 8152, 8115, 8157, 8094,1.0394413471221924
119, 8140, 8168, 8122, 8187, 8156, 8212, 8180, 8160, 8168, 8159, 8142, 8146, 8164, 8099,1.0469887256622314
119, 8140, 8168, 8122, 8187, 8156, 8212, 8180, 8160, 8168, 8159, 8142, 8146, 8164, 8099,1.0469887256622314
120, 8133, 8149, 8119, 8180, 8158, 8202, 8177, 8167, 8160, 8176, 8153, 8134, 8160, 8101,1.0554423332214355
120, 8133, 8149, 8119, 8180, 8158, 8202, 8177, 8167, 8160, 8176, 8153, 8134, 8160, 8101,1.0554423332214355
121, 8140, 8143, 8119, 8173, 8156, 8203, 8183, 8152, 8139, 8180, 8156, 8133, 8155, 8110,1.0628738403320312
121, 8140, 8143, 8119, 8173, 8156, 8203, 8183, 8152, 8139, 8180, 8156, 8133, 8155, 8110,1.0628738403320312
122, 8127, 8156, 8126, 8171, 8140, 8197, 8162, 8139, 8188, 8157, 8137, 8164, 8165, 8100,1.0708811283111572
122, 8127, 8156, 8126, 8171, 8140, 8197, 8162, 8139, 8188, 8157, 8137, 8164, 8165, 8100,1.0718834400177002
123, 8122, 8143, 8124, 8179, 8160, 8190, 8173, 8151, 8117, 8186, 8154, 8126, 8165, 8096,1.0798945426940918
123, 8122, 8143, 8124, 8179, 8160, 8190, 8173, 8151, 8117, 8186, 8154, 8126, 8165, 8096,1.0798945426940918
124, 8163, 8175, 8142, 8201, 8154, 8206, 8176, 8169, 8202, 8175, 8159, 8159, 8175, 8123,1.0874049663543701
124, 8163, 8175, 8142, 8201, 8154, 8206, 8176, 8169, 8202, 8175, 8159, 8159, 8175, 8123,1.0874049663543701
125, 8133, 8154, 8121, 8176, 8138, 8201, 8161, 8145, 8142, 8141, 8147, 8138, 8161, 8111,1.0940473079681396
125, 8133, 8154, 8121, 8176, 8138, 8201, 8161, 8145, 8142, 8141, 8147, 8138, 8161, 8111,1.0940473079681396
126, 8129, 8146, 8116, 8172, 8145, 8204, 8160, 8137, 8078, 8141, 8152, 8132, 8161, 8110,1.1026651859283447
126, 8129, 8146, 8116, 8172, 8145, 8204, 8160, 8137, 8078, 8141, 8152, 8132, 8161, 8110,1.1026651859283447
127, 8151, 8176, 8132, 8181, 8138, 8201, 8169, 8162, 8194, 8141, 8158, 8186, 8178, 8121,1.1106674671173096
127, 8151, 8176, 8132, 8181, 8138, 8201, 8169, 8162, 8194, 8141, 8158, 8186, 8178, 8121,1.1106674671173096
239, 8133, 8147, 8110, 8159, 8135, 8197, 8182, 8160, 8124, 8159, 8173, 8130, 8165, 8114,1.1186678409576416
239, 8133, 8147, 8110, 8159, 8135, 8197, 8182, 8160, 8124, 8159, 8173, 8130, 8165, 8114,1.1186678409576416
0, 8133, 8150, 8116, 8166, 8119, 8219, 8169, 8165, 8177, 8162, 8174, 8151, 8169, 8122,1.1267023086547852
0, 8133, 8150, 8116, 8166, 8119, 8219, 8169, 8165, 8177, 8162, 8174, 8151, 8169, 8122,1.1267023086547852
1, 8131, 8149, 8118, 8174, 8122, 8201, 8182, 8176, 8199, 8176, 8176, 8155, 8171, 8119,1.1347005367279053
1, 8131, 8149, 8118, 8174, 8122, 8201, 8182, 8176, 8199, 8176, 8176, 8155, 8171, 8119,1.1347005367279053
2, 8163, 8157, 8131, 8180, 8146, 8199, 8200, 8175, 8158, 8185, 8184, 8108, 8173, 8133,1.141700267791748
2, 8163, 8157, 8131, 8180, 8146, 8199, 8200, 8175, 8158, 8185, 8184, 8108, 8173, 8133,1.1427006721496582
3, 8162, 8178, 8150, 8178, 8131, 8207, 8173, 8160, 8212, 8148, 8178, 8109, 8173, 8135,1.1507015228271484
3, 8162, 8178, 8150, 8178, 8131, 8207, 8173, 8160, 8212, 8148, 8178, 8109, 8173, 8135,1.1507015228271484
4, 8121, 8141, 8116, 8156, 8126, 8175, 8169, 8139, 8081, 8139, 8169, 8070, 8153, 8101,1.1587011814117432
4, 8121, 8141, 8116, 8156, 8126, 8175, 8169, 8139, 8081, 8139, 8169, 8070, 8153, 8101,1.1587011814117432
5, 8144, 8159, 8118, 8164, 8132, 8179, 8171, 8148, 8103, 8135, 8150, 8110, 8164, 8099,1.1657114028930664
5, 8144, 8159, 8118, 8164, 8132, 8179, 8171, 8148, 8103, 8135, 8150, 8110, 8164, 8099,1.1657114028930664
6, 8141, 8161, 8123, 8157, 8135, 8195, 8165, 8146, 8135, 8138, 8153, 8114, 8165, 8094,1.1737329959869385
6, 8141, 8161, 8123, 8157, 8135, 8195, 8165, 8146, 8135, 8138, 8153, 8114, 8165, 8094,1.1737329959869385
7, 8140, 8150, 8114, 8154, 8145, 8190, 8167, 8140, 8090, 8154, 8173, 8089, 8158, 8101,1.1817374229431152
7, 8140, 8150, 8114, 8154, 8145, 8190, 8167, 8140, 8090, 8154, 8173, 8089, 8158, 8101,1.1817374229431152
8, 8159, 8176, 8134, 8175, 8144, 8179, 8159, 8161, 8191, 8148, 8171, 8134, 8174, 8117,1.1887462139129639
8, 8159, 8176, 8134, 8175, 8144, 8179, 8159, 8161, 8191, 8148, 8171, 8134, 8174, 8117,1.189774990081787
9, 8149, 8150, 8131, 8170, 8152, 8168, 8172, 8163, 8123, 8163, 8176, 8102, 8166, 8114,1.1967785358428955
9, 8149, 8150, 8131, 8170, 8152, 8168, 8172, 8163, 8123, 8163, 8176, 8102, 8166, 8114,1.1977784633636475
10, 8168, 8163, 8142, 8176, 8141, 8189, 8177, 8165, 8153, 8159, 8184, 8128, 8169, 8135,1.2056620121002197
10, 8168, 8163, 8142, 8176, 8141, 8189, 8177, 8165, 8153, 8159, 8184, 8128, 8169, 8135,1.2056620121002197
11, 8152, 8164, 8144, 8174, 8130, 8183, 8176, 8170, 8189, 8155, 8195, 8136, 8175, 8128,1.213660478591919
11, 8152, 8164, 8144, 8174, 8130, 8183, 8176, 8170, 8189, 8155, 8195, 8136, 8175, 8128,1.213660478591919
12, 8143, 8146, 8130, 8173, 8135, 8165, 8172, 8156, 8095, 8162, 8187, 8094, 8163, 8103,1.2216711044311523
12, 8143, 8146, 8130, 8173, 8135, 8165, 8172, 8156, 8095, 8162, 8187, 8094, 8163, 8103,1.2216711044311523
13, 8157, 8173, 8131, 8169, 8123, 8165, 8150, 8143, 8144, 8129, 8150, 8132, 8161, 8096,1.2284324169158936
13, 8157, 8173, 8131, 8169, 8123, 8165, 8150, 8143, 8144, 8129, 8150, 8132, 8161, 8096,1.2284324169158936
14, 8118, 8153, 8108, 8145, 8134, 8165, 8161, 8140, 8080, 8136, 8157, 8103, 8155, 8084,1.2364273071289062
14, 8118, 8153, 8108, 8145, 8134, 8165, 8161, 8140, 8080, 8136, 8157, 8103, 8155, 8084,1.2364273071289062
15, 8136, 8170, 8120, 8171, 8142, 8184, 8167, 8162, 8129, 8161, 8167, 8120, 8166, 8096,1.2444202899932861
15, 8136, 8170, 8120, 8171, 8142, 8184, 8167, 8162, 8129, 8161, 8167, 8120, 8166, 8096,1.2444202899932861
16, 8168, 8185, 8137, 8185, 8145, 8175, 8166, 8165, 8190, 8163, 8160, 8137, 8170, 8107,1.2524421215057373
16, 8168, 8185, 8137, 8185, 8145, 8175, 8166, 8165, 8190, 8163, 8160, 8137, 8170, 8107,1.2524421215057373
17, 8171, 8169, 8139, 8179, 8161, 8169, 8179, 8143, 8098, 8162, 8177, 8111, 8165, 8120,1.260441780090332
17, 8171, 8169, 8139, 8179, 8161, 8169, 8179, 8143, 8098, 8162, 8177, 8111, 8165, 8120,1.260441780090332
18, 8178, 8194, 8163, 8189, 8155, 8188, 8170, 8152, 8187, 8150, 8181, 8160, 8182, 8131,1.2687902450561523
18, 8178, 8194, 8163, 8189, 8155, 8188, 8170, 8152, 8187, 8150, 8181, 8160, 8182, 8131,1.2687902450561523
19, 8163, 8173, 8145, 8175, 8162, 8174, 8180, 8157, 8144, 8166, 8179, 8125, 8171, 8113,1.2764427661895752
19, 8163, 8173, 8145, 8175, 8162, 8174, 8180, 8157, 8144, 8166, 8179, 8125, 8171, 8113,1.27689790725708
20, 8184, 8178, 8145, 8179, 8162, 8174, 8182, 8160, 8140, 8172, 8184, 8127, 8168, 8128,1.2844367027282715
20, 8184, 8178, 8145, 8179, 8162, 8174, 8182, 8160, 8140, 8172, 8184, 8127, 8168, 8128,1.2844367027282715
21, 8179, 8186, 8157, 8180, 8154, 8178, 8168, 8171, 8211, 8169, 8190, 8155, 8174, 8133,1.2914481163024902
21, 8179, 8186, 8157, 8180, 8154, 8178, 8168, 8171, 8211, 8169, 8190, 8155, 8174, 8133,1.2914481163024902
22, 8166, 8164, 8147, 8173, 8170, 8172, 8180, 8171, 8143, 8189, 8199, 8120, 8166, 8126,1.2997281551361084
22, 8166, 8164, 8147, 8173, 8170, 8172, 8180, 8171, 8143, 8189, 8199, 8120, 8166, 8126,1.2997281551361084
23, 8185, 8189, 8159, 8183, 8155, 8173, 8172, 8172, 8215, 8167, 8188, 8158, 8172, 8128,1.3073992729187012
23, 8185, 8189, 8159, 8183, 8155, 8173, 8172, 8172, 8215, 8167, 8188, 8158, 8172, 8128,1.3073992729187012
24, 8167, 8173, 8152, 8175, 8149, 8162, 8169, 8161, 8163, 8161, 8179, 8127, 8163, 8109,1.315845012664795
24, 8167, 8173, 8152, 8175, 8149, 8162, 8169, 8161, 8163, 8161, 8179, 8127, 8163, 8109,1.315845012664795
25, 8189, 8185, 8158, 8187, 8165, 8178, 8180, 8165, 8151, 8168, 8180, 8122, 8167, 8119,1.3232312202453613
25, 8189, 8185, 8158, 8187, 8165, 8178, 8180, 8165, 8151, 8168, 8180, 8122, 8167, 8119,1.3232312202453613
26, 8185, 8198, 8159, 8188, 8164, 8179, 8183, 8170, 8223, 8158, 8191, 8161, 8173, 8123,1.331233024597168
26, 8185, 8198, 8159, 8188, 8164, 8179, 8183, 8170, 8223, 8158, 8191, 8161, 8173, 8123,1.331233024597168
27, 8159, 8159, 8144, 8174, 8178, 8165, 8192, 8169, 8144, 8185, 8209, 8129, 8159, 8116,1.3394410610198975
27, 8159, 8159, 8144, 8174, 8178, 8165, 8192, 8169, 8144, 8185, 8209, 8129, 8159, 8116,1.3394410610198975
28, 8194, 8183, 8175, 8197, 8186, 8184, 8194, 8189, 8247, 8194, 8202, 8165, 8175, 8141,1.3474040031433105
28, 8194, 8183, 8175, 8197, 8186, 8184, 8194, 8189, 8247, 8194, 8202, 8165, 8175, 8141,1.3474040031433105
29, 8202, 8187, 8188, 8206, 8193, 8183, 8207, 8180, 8233, 8186, 8210, 8148, 8177, 8142,1.3553290367126465
29, 8202, 8187, 8188, 8206, 8193, 8183, 8207, 8180, 8233, 8186, 8210, 8148, 8177, 8142,1.3553290367126465
30, 8212, 8196, 8191, 8208, 8190, 8175, 8202, 8164, 8177, 8178, 8211, 8138, 8171, 8147,1.363325595855713
30, 8212, 8196, 8191, 8208, 8190, 8175, 8202, 8164, 8177, 8178, 8211, 8138, 8171, 8147,1.363325595855713
31, 8201, 8195, 8180, 8192, 8164, 8163, 8182, 8167, 8236, 8171, 8188, 8161, 8171, 8140,1.3703863620758057
31, 8201, 8195, 8180, 8192, 8164, 8163, 8182, 8167, 8236, 8171, 8188, 8161, 8171, 8140,1.3703863620758057
32, 8164, 8144, 8137, 8161, 8157, 8150, 8189, 8159, 8129, 8179, 8177, 8106, 8153, 8104,1.3784422874450684
32, 8164, 8144, 8137, 8161, 8157, 8150, 8189, 8159, 8129, 8179, 8177, 8106, 8153, 8104,1.3784422874450684
33, 8180, 8174, 8149, 8166, 8149, 8164, 8180, 8162, 8170, 8150, 8158, 8142, 8163, 8104,1.3865461349487305
33, 8180, 8174, 8149, 8166, 8149, 8164, 8180, 8162, 8170, 8150, 8158, 8142, 8163, 8104,1.3865461349487305
34, 8184, 8184, 8166, 8167, 8161, 8163, 8185, 8170, 8178, 8159, 8171, 8147, 8172, 8127,1.3945465087890625
34, 8184, 8184, 8166, 8167, 8161, 8163, 8185, 8170, 8178, 8159, 8171, 8147, 8172, 8127,1.3945465087890625
35, 8202, 8177, 8177, 8180, 8175, 8177, 8201, 8179, 8173, 8196, 8202, 8136, 8176, 8156,1.4024417400360107
35, 8202, 8177, 8177, 8180, 8175, 8177, 8201, 8179, 8173, 8196, 8202, 8136, 8176, 8156,1.4024417400360107
36, 8200, 8187, 8176, 8179, 8147, 8179, 8179, 8176, 8243, 8175, 8179, 8167, 8175, 8143,1.4105665683746338
36, 8200, 8187, 8176, 8179, 8147, 8179, 8179, 8176, 8243, 8175, 8179, 8167, 8175, 8143,1.4105665683746338
37, 8162, 8157, 8141, 8150, 8144, 8163, 8167, 8155, 8109, 8165, 8165, 8118, 8159, 8111,1.4180054664611816
37, 8162, 8157, 8141, 8150, 8144, 8163, 8167, 8155, 8109, 8165, 8165, 8118, 8159, 8111,1.4180054664611816
38, 8176, 8175, 8156, 8163, 8153, 8187, 8169, 8165, 8164, 8166, 8175, 8142, 8169, 8126,1.424999475479126
38, 8176, 8175, 8156, 8163, 8153, 8187, 8169, 8165, 8164, 8166, 8175, 8142, 8169, 8126,1.424999475479126
39, 8161, 8168, 8162, 8166, 8155, 8186, 8176, 8173, 8196, 8169, 8181, 8142, 8165, 8115,1.433441400527954
39, 8161, 8168, 8162, 8166, 8155, 8186, 8176, 8173, 8196, 8169, 8181, 8142, 8165, 8115,1.433441400527954
40, 8169, 8167, 8164, 8170, 8163, 8182, 8186, 8172, 8144, 8177, 8183, 8126, 8164, 8109,1.4414422512054443
40, 8169, 8167, 8164, 8170, 8163, 8182, 8186, 8172, 8144, 8177, 8183, 8126, 8164, 8109,1.4414422512054443
41, 8205, 8200, 8189, 8182, 8169, 8193, 8191, 8182, 8245, 8173, 8180, 8168, 8182, 8126,1.4494414329528809
41, 8205, 8200, 8189, 8182, 8169, 8193, 8191, 8182, 8245, 8173, 8180, 8168, 8182, 8126,1.4494414329528809
42, 8190, 8176, 8169, 8175, 8195, 8187, 8210, 8176, 8179, 8184, 8188, 8126, 8164, 8120,1.45829439163208
42, 8190, 8176, 8169, 8175, 8195, 8187, 8210, 8176, 8179, 8184, 8188, 8126, 8164, 8120,1.45829439163208
43, 8198, 8189, 8160, 8187, 8190, 8192, 8206, 8176, 8204, 8167, 8173, 8143, 8162, 8121,1.465346336364746
43, 8198, 8189, 8160, 8187, 8190, 8192, 8206, 8176, 8204, 8167, 8173, 8143, 8162, 8121,1.465346336364746
44, 8186, 8181, 8160, 8176, 8174, 8175, 8204, 8175, 8224, 8168, 8173, 8148, 8171, 8115,1.4732964038848877
44, 8186, 8181, 8160, 8176, 8174, 8175, 8204, 8175, 8224, 8168, 8173, 8148, 8171, 8115,1.4732964038848877
45, 8192, 8164, 8165, 8173, 8189, 8171, 8215, 8181, 8191, 8202, 8196, 8126, 8167, 8124,1.4809355735778809
45, 8192, 8164, 8165, 8173, 8189, 8171, 8215, 8181, 8191, 8202, 8196, 8126, 8167, 8124,1.4809355735778809
46, 8211, 8192, 8172, 8180, 8181, 8176, 8197, 8188, 8284, 8182, 8185, 8171, 8170, 8136,1.4894402027130127
46, 8211, 8192, 8172, 8180, 8181, 8176, 8197, 8188, 8284, 8182, 8185, 8171, 8170, 8136,1.4894402027130127
47, 8172, 8160, 8142, 8154, 8174, 8153, 8187, 8169, 8182, 8173, 8173, 8123, 8160, 8124,1.4964399337768555
47, 8172, 8160, 8142, 8154, 8174, 8153, 8187, 8169, 8182, 8173, 8173, 8123, 8160, 8124,1.4964399337768555
48, 8181, 8165, 8151, 8162, 8178, 8157, 8182, 8172, 8196, 8178, 8170, 8131, 8167, 8136,1.504439353942871
48, 8181, 8165, 8151, 8162, 8178, 8157, 8182, 8172, 8196, 8178, 8170, 8131, 8167, 8136,1.504439353942871
49, 8187, 8174, 8162, 8171, 8184, 8162, 8188, 8174, 8237, 8171, 8173, 8150, 8168, 8132,1.512439489364624
49, 8187, 8174, 8162, 8171, 8184, 8162, 8188, 8174, 8237, 8171, 8173, 8150, 8168, 8132,1.512439489364624
50, 8179, 8162, 8143, 8163, 8192, 8164, 8202, 8158, 8143, 8167, 8168, 8113, 8155, 8115,1.5204403400421143
50, 8179, 8162, 8143, 8163, 8192, 8164, 8202, 8158, 8143, 8167, 8168, 8113, 8155, 8115,1.5204403400421143
51, 8181, 8186, 8147, 8164, 8182, 8167, 8187, 8165, 8222, 8158, 8151, 8150, 8166, 8107,1.5284397602081299
51, 8181, 8186, 8147, 8164, 8182, 8167, 8187, 8165, 8222, 8158, 8151, 8150, 8166, 8107,1.5284397602081299
52, 8164, 8170, 8150, 8162, 8197, 8152, 8191, 8173, 8193, 8185, 8174, 8133, 8167, 8103,1.5364408493041992
52, 8164, 8170, 8150, 8162, 8197, 8152, 8191, 8173, 8193, 8185, 8174, 8133, 8167, 8103,1.5364408493041992
53, 8207, 8191, 8177, 8186, 8204, 8166, 8200, 8180, 8238, 8202, 8197, 8159, 8176, 8143,1.5444419384002686
53, 8207, 8191, 8177, 8186, 8204, 8166, 8200, 8180, 8238, 8202, 8197, 8159, 8176, 8143,1.5444419384002686
54, 8209, 8194, 8185, 8186, 8195, 8169, 8193, 8178, 8278, 8185, 8196, 8173, 8175, 8151,1.5524582862854004
54, 8209, 8194, 8185, 8186, 8195, 8169, 8193, 8178, 8278, 8185, 8196, 8173, 8175, 8151,1.5524582862854004
55, 8180, 8164, 8168, 8171, 8205, 8158, 8191, 8171, 8160, 8174, 8195, 8124, 8161, 8128,1.5594637393951416
55, 8180, 8164, 8168, 8171, 8205, 8158, 8191, 8171, 8160, 8174, 8195, 8124, 8161, 8128,1.5594637393951416
56, 8192, 8196, 8184, 8183, 8194, 8164, 8170, 8183, 8237, 8160, 8180, 8164, 8172, 8133,1.5675785541534424
56, 8192, 8196, 8184, 8183, 8194, 8164, 8170, 8183, 8237, 8160, 8180, 8164, 8172, 8133,1.5675785541534424
57, 8178, 8175, 8164, 8172, 8187, 8154, 8175, 8174, 8184, 8167, 8169, 8131, 8161, 8122,1.575441598892212
57, 8178, 8175, 8164, 8172, 8187, 8154, 8175, 8174, 8184, 8167, 8169, 8131, 8161, 8122,1.575441598892212
58, 8183, 8170, 8149, 8170, 8185, 8162, 8190, 8167, 8154, 8153, 8160, 8123, 8161, 8125,1.5835096836090088
58, 8183, 8170, 8149, 8170, 8185, 8162, 8190, 8167, 8154, 8153, 8160, 8123, 8161, 8125,1.5835096836090088
59, 8160, 8178, 8144, 8165, 8174, 8165, 8175, 8174, 8210, 8132, 8150, 8145, 8164, 8112,1.5914106369018555
59, 8160, 8178, 8144, 8165, 8174, 8165, 8175, 8174, 8210, 8132, 8150, 8145, 8164, 8112,1.5914106369018555
60, 8150, 8160, 8129, 8161, 8183, 8162, 8175, 8177, 8137, 8156, 8149, 8108, 8155, 8091,1.5994048118591309
60, 8150, 8160, 8129, 8161, 8183, 8162, 8175, 8177, 8137, 8156, 8149, 8108, 8155, 8091,1.5994048118591309
61, 8182, 8183, 8141, 8165, 8178, 8165, 8177, 8178, 8204, 8146, 8138, 8143, 8169, 8102,1.607405424118042
61, 8182, 8183, 8141, 8165, 8178, 8165, 8177, 8178, 8204, 8146, 8138, 8143, 8169, 8102,1.607405424118042
62, 8147, 8156, 8120, 8136, 8178, 8136, 8177, 8159, 8145, 8139, 8157, 8118, 8164, 8102,1.6157193183898926
62, 8147, 8156, 8120, 8136, 8178, 8136, 8177, 8159, 8145, 8139, 8157, 8118, 8164, 8102,1.6157193183898926
63, 8142, 8155, 8117, 8140, 8177, 8136, 8165, 8159, 8126, 8150, 8172, 8121, 8166, 8109,1.6234421730041504
63, 8142, 8155, 8117, 8140, 8177, 8136, 8165, 8159, 8126, 8150, 8172, 8121, 8166, 8109,1.6234421730041504
64, 8161, 8175, 8139, 8163, 8163, 8152, 8160, 8168, 8205, 8141, 8155, 8160, 8177, 8108,1.6304421424865723
64, 8161, 8175, 8139, 8163, 8163, 8152, 8160, 8168, 8205, 8141, 8155, 8160, 8177, 8108,1.6304421424865723
65, 8174, 8160, 8147, 8172, 8182, 8150, 8180, 8159, 8124, 8159, 8167, 8127, 8170, 8124,1.6384656429290771
65, 8174, 8160, 8147, 8172, 8182, 8150, 8180, 8159, 8124, 8159, 8167, 8127, 8170, 8124,1.6384656429290771
66, 8211, 8202, 8183, 8197, 8195, 8164, 8177, 8170, 8233, 8168, 8192, 8172, 8181, 8156,1.6464619636535645
66, 8211, 8202, 8183, 8197, 8195, 8164, 8177, 8170, 8233, 8168, 8192, 8172, 8181, 8156,1.6464619636535645
67, 8204, 8195, 8188, 8194, 8206, 8162, 8192, 8187, 8268, 8195, 8215, 8165, 8180, 8144,1.65450119972229
67, 8204, 8195, 8188, 8194, 8206, 8162, 8192, 8187, 8268, 8195, 8215, 8165, 8180, 8144,1.65450119972229
68, 8206, 8176, 8181, 8192, 8216, 8161, 8199, 8188, 8237, 8217, 8215, 8146, 8178, 8149,1.6624422073364258
68, 8206, 8176, 8181, 8192, 8216, 8161, 8199, 8188, 8237, 8217, 8215, 8146, 8178, 8149,1.6624422073364258
69, 8195, 8191, 8183, 8194, 8204, 8163, 8175, 8180, 8283, 8181, 8195, 8167, 8178, 8142,1.670419692993164
69, 8195, 8191, 8183, 8194, 8204, 8163, 8175, 8180, 8283, 8181, 8195, 8167, 8178, 8142,1.670419692993164
70, 8182, 8178, 8170, 8191, 8218, 8168, 8189, 8173, 8181, 8170, 8199, 8123, 8157, 8111,1.6783461570739746
70, 8182, 8178, 8170, 8191, 8218, 8168, 8189, 8173, 8181, 8170, 8199, 8123, 8157, 8111,1.6783461570739746
71, 8206, 8192, 8179, 8201, 8227, 8180, 8195, 8183, 8236, 8166, 8195, 8155, 8169, 8113,1.6854417324066162
71, 8206, 8192, 8179, 8201, 8227, 8180, 8195, 8183, 8236, 8166, 8195, 8155, 8169, 8113,1.6854417324066162
72, 8164, 8168, 8149, 8180, 8228, 8161, 8191, 8179, 8220, 8169, 8190, 8137, 8173, 8105,1.6934418678283691
72, 8164, 8168, 8149, 8180, 8228, 8161, 8191, 8179, 8220, 8169, 8190, 8137, 8173, 8105,1.6934418678283691
73, 8150, 8165, 8121, 8176, 8224, 8164, 8195, 8174, 8154, 8170, 8184, 8116, 8163, 8108,1.7015912532806396
73, 8150, 8165, 8121, 8176, 8224, 8164, 8195, 8174, 8154, 8170, 8184, 8116, 8163, 8108,1.7015912532806396
74, 8170, 8193, 8138, 8188, 8205, 8165, 8182, 8182, 8240, 8154, 8171, 8166, 8165, 8119,1.7095928192138672
74, 8170, 8193, 8138, 8188, 8205, 8165, 8182, 8182, 8240, 8154, 8171, 8166, 8165, 8119,1.7095928192138672
75, 8147, 8161, 8134, 8168, 8212, 8140, 8187, 8178, 8176, 8174, 8184, 8129, 8160, 8119,1.7174007892608643
75, 8147, 8161, 8134, 8168, 8212, 8140, 8187, 8178, 8176, 8174, 8184, 8129, 8160, 8119,1.7174007892608643
76, 8158, 8179, 8139, 8169, 8204, 8160, 8188, 8187, 8233, 8173, 8185, 8148, 8173, 8140,1.7254419326782227
76, 8158, 8179, 8139, 8169, 8204, 8160, 8188, 8187, 8233, 8173, 8185, 8148, 8173, 8140,1.7254419326782227
77, 8159, 8182, 8133, 8164, 8196, 8173, 8190, 8187, 8243, 8171, 8179, 8149, 8177, 8135,1.7338881492614746
77, 8159, 8182, 8133, 8164, 8196, 8173, 8190, 8187, 8243, 8171, 8179, 8149, 8177, 8135,1.7338881492614746
78, 8169, 8171, 8139, 8171, 8208, 8184, 8198, 8177, 8178, 8182, 8188, 8132, 8174, 8132,1.7412621974945068
78, 8169, 8171, 8139, 8171, 8208, 8184, 8198, 8177, 8178, 8182, 8188, 8132, 8174, 8132,1.7412621974945068
79, 8185, 8196, 8166, 8188, 8194, 8203, 8188, 8174, 8262, 8164, 8180, 8173, 8176, 8134,1.7494447231292725
79, 8185, 8196, 8166, 8188, 8194, 8203, 8188, 8174, 8262, 8164, 8180, 8173, 8176, 8134,1.7494447231292725
80, 8175, 8176, 8155, 8177, 8198, 8197, 8189, 8161, 8174, 8159, 8174, 8133, 8159, 8108,1.7564451694488525
80, 8175, 8176, 8155, 8177, 8198, 8197, 8189, 8161, 8174, 8159, 8174, 8133, 8159, 8108,1.7564451694488525
81, 8202, 8194, 8171, 8187, 8200, 8208, 8183, 8171, 8201, 8145, 8172, 8159, 8171, 8113,1.764441728591919
81, 8202, 8194, 8171, 8187, 8200, 8208, 8183, 8171, 8201, 8145, 8172, 8159, 8171, 8113,1.764441728591919
82, 8201, 8189, 8182, 8187, 8192, 8213, 8195, 8188, 8242, 8150, 8180, 8173, 8175, 8125,1.7724499702453613
82, 8201, 8189, 8182, 8187, 8192, 8213, 8195, 8188, 8242, 8150, 8180, 8173, 8175, 8125,1.7724499702453613
83, 8197, 8166, 8176, 8184, 8202, 8218, 8215, 8193, 8194, 8172, 8197, 8140, 8165, 8142,1.780689001083374
83, 8197, 8166, 8176, 8184, 8202, 8218, 8215, 8193, 8194, 8172, 8197, 8140, 8165, 8142,1.780689001083374
84, 8203, 8189, 8186, 8199, 8194, 8225, 8196, 8196, 8289, 8160, 8194, 8178, 8172, 8146,1.7887296676635742
84, 8203, 8189, 8186, 8199, 8194, 8225, 8196, 8196, 8289, 8160, 8194, 8178, 8172, 8146,1.7887296676635742
85, 8172, 8169, 8168, 8190, 8192, 8224, 8195, 8178, 8211, 8174, 8204, 8147, 8164, 8131,1.7967298030853271
85, 8172, 8169, 8168, 8190, 8192, 8224, 8195, 8178, 8211, 8174, 8204, 8147, 8164, 8131,1.7967298030853271
86, 8179, 8184, 8171, 8192, 8193, 8250, 8199, 8182, 8230, 8178, 8209, 8157, 8169, 8149,1.8044414520263672
86, 8179, 8184, 8171, 8192, 8193, 8250, 8199, 8182, 8230, 8178, 8209, 8157, 8169, 8149,1.8044414520263672
87, 8166, 8186, 8161, 8179, 8193, 8253, 8196, 8188, 8268, 8162, 8192, 8160, 8168, 8137,1.812441110610962
87, 8166, 8186, 8161, 8179, 8193, 8253, 8196, 8188, 8268, 8162, 8192, 8160, 8168, 8137,1.812441110610962
88, 8144, 8160, 8128, 8169, 8193, 8245, 8196, 8175, 8153, 8163, 8169, 8114, 8155, 8100,1.8194408416748047
88, 8144, 8160, 8128, 8169, 8193, 8245, 8196, 8175, 8153, 8163, 8169, 8114, 8155, 8100,1.8194408416748047
89, 8146, 8178, 8128, 8171, 8163, 8247, 8176, 8169, 8195, 8136, 8134, 8146, 8164, 8090,1.8278231620788574
89, 8146, 8178, 8128, 8171, 8163, 8247, 8176, 8169, 8195, 8136, 8134, 8146, 8164, 8090,1.8278231620788574
90, 8118, 8147, 8114, 8143, 8162, 8228, 8182, 8160, 8122, 8136, 8132, 8115, 8155, 8085,1.8353993892669678
90, 8118, 8147, 8114, 8143, 8162, 8228, 8182, 8160, 8122, 8136, 8132, 8115, 8155, 8085,1.8353993892669678
91, 8137, 8154, 8118, 8157, 8164, 8242, 8192, 8171, 8143, 8151, 8148, 8132, 8161, 8102,1.843414068222046
91, 8137, 8154, 8118, 8157, 8164, 8242, 8192, 8171, 8143, 8151, 8148, 8132, 8161, 8102,1.843414068222046
92, 8137, 8170, 8127, 8168, 8148, 8247, 8183, 8173, 8209, 8142, 8158, 8161, 8175, 8105,1.8514413833618164
92, 8137, 8170, 8127, 8168, 8148, 8247, 8183, 8173, 8209, 8142, 8158, 8161, 8175, 8105,1.8520424365997314
93, 8133, 8153, 8124, 8160, 8162, 8241, 8187, 8155, 8123, 8147, 8167, 8121, 8166, 8110,1.8594415187835693
93, 8133, 8153, 8124, 8160, 8162, 8241, 8187, 8155, 8123, 8147, 8167, 8121, 8166, 8110,1.8594415187835693
94, 8171, 8177, 8149, 8170, 8165, 8259, 8184, 8169, 8217, 8144, 8158, 8164, 8175, 8136,1.8674051761627197
94, 8171, 8177, 8149, 8170, 8165, 8259, 8184, 8169, 8217, 8144, 8158, 8164, 8175, 8136,1.8674051761627197
95, 8163, 8161, 8152, 8164, 8166, 8258, 8195, 8176, 8186, 8156, 8169, 8150, 8172, 8129,1.8754420280456543
95, 8163, 8161, 8152, 8164, 8166, 8258, 8195, 8176, 8186, 8156, 8169, 8150, 8172, 8129,1.8754420280456543
96, 8183, 8175, 8166, 8179, 8168, 8264, 8195, 8178, 8170, 8157, 8174, 8150, 8170, 8126,1.8821022510528564
96, 8183, 8175, 8166, 8179, 8168, 8264, 8195, 8178, 8170, 8157, 8174, 8150, 8170, 8126,1.8821022510528564
97, 8183, 8186, 8175, 8176, 8163, 8267, 8185, 8183, 8223, 8139, 8166, 8173, 8173, 8120,1.890669345855713
97, 8183, 8186, 8175, 8176, 8163, 8267, 8185, 8183, 8223, 8139, 8166, 8173, 8173, 8120,1.890669345855713
98, 8159, 8157, 8160, 8164, 8179, 8270, 8196, 8173, 8130, 8151, 8176, 8134, 8165, 8108,1.898669719696045
98, 8159, 8157, 8160, 8164, 8179, 8270, 8196, 8173, 8130, 8151, 8176, 8134, 8165, 8108,1.898669719696045
99, 8188, 8193, 8184, 8192, 8179, 8281, 8184, 8171, 8207, 8140, 8166, 8169, 8172, 8100,1.906442403793335
99, 8188, 8193, 8184, 8192, 8179, 8281, 8184, 8171, 8207, 8140, 8166, 8169, 8172, 8100,1.906442403793335
100, 8169, 8178, 8171, 8187, 8179, 8266, 8176, 8163, 8173, 8143, 8164, 8145, 8161, 8071,1.91473388671875
100, 8169, 8178, 8171, 8187, 8179, 8266, 8176, 8163, 8173, 8143, 8164, 8145, 8161, 8071,1.91473388671875
101, 8157, 8168, 8149, 8179, 8181, 8283, 8180, 8168, 8149, 8159, 8176, 8137, 8164, 8084,1.9225084781646729
101, 8157, 8168, 8149, 8179, 8181, 8283, 8180, 8168, 8149, 8159, 8176, 8137, 8164, 8084,1.9225084781646729
102, 8148, 8181, 8149, 8173, 8169, 8290, 8179, 8175, 8224, 8149, 8174, 8168, 8176, 8099,1.9305074214935303
102, 8148, 8181, 8149, 8173, 8169, 8290, 8179, 8175, 8224, 8149, 8174, 8168, 8176, 8099,1.9305074214935303
103, 8133, 8154, 8133, 8164, 8174, 8265, 8195, 8164, 8128, 8162, 8180, 8126, 8164, 8095,1.9385221004486084
103, 8133, 8154, 8133, 8164, 8174, 8265, 8195, 8164, 8128, 8162, 8180, 8126, 8164, 8095,1.9385221004486084
104, 8151, 8175, 8141, 8174, 8165, 8282, 8193, 8171, 8198, 8161, 8176, 8158, 8172, 8114,1.9464364051818848
104, 8151, 8175, 8141, 8174, 8165, 8282, 8193, 8171, 8198, 8161, 8176, 8158, 8172, 8114,1.9464364051818848
105, 8125, 8161, 8126, 8150, 8159, 8288, 8189, 8171, 8195, 8165, 8176, 8145, 8170, 8108,1.9534308910369873
105, 8125, 8161, 8126, 8150, 8159, 8288, 8189, 8171, 8195, 8165, 8176, 8145, 8170, 8108,1.9534308910369873
106, 8136, 8158, 8119, 8145, 8165, 8287, 8195, 8169, 8155, 8173, 8175, 8130, 8168, 8110,1.9614288806915283
106, 8136, 8158, 8119, 8145, 8165, 8287, 8195, 8169, 8155, 8173, 8175, 8130, 8168, 8110,1.9614288806915283
107, 8147, 8177, 8122, 8155, 8153, 8283, 8187, 8172, 8219, 8147, 8153, 8155, 8169, 8104,1.9694411754608154
107, 8147, 8177, 8122, 8155, 8153, 8283, 8187, 8172, 8219, 8147, 8153, 8155, 8169, 8104,1.9694411754608154
108, 8119, 8144, 8101, 8136, 8151, 8268, 8183, 8158, 8105, 8134, 8136, 8102, 8147, 8077,1.9774677753448486
108, 8119, 8144, 8101, 8136, 8151, 8268, 8183, 8158, 8105, 8134, 8136, 8102, 8147, 8077,1.9774677753448486
109, 8152, 8172, 8134, 8147, 8145, 8279, 8170, 8161, 8145, 8128, 8132, 8141, 8163, 8091,1.9849796295166016
109, 8152, 8172, 8134, 8147, 8145, 8279, 8170, 8161, 8145, 8128, 8132, 8141, 8163, 8091,1.9849796295166016
110, 8161, 8176, 8149, 8153, 8155, 8276, 8176, 8156, 8162, 8149, 8159, 8153, 8172, 8105,1.9934413433074951
110, 8161, 8176, 8149, 8153, 8155, 8276, 8176, 8156, 8162, 8149, 8159, 8153, 8172, 8105,1.9940013885498047
111, 8153, 8159, 8143, 8145, 8162, 8279, 8177, 8147, 8114, 8160, 8171, 8130, 8164, 8111,2.001586437225342
111, 8153, 8159, 8143, 8145, 8162, 8279, 8177, 8147, 8114, 8160, 8171, 8130, 8164, 8111,2.001586437225342
112, 8159, 8184, 8167, 8150, 8145, 8286, 8162, 8164, 8204, 8150, 8160, 8174, 8175, 8118,2.0096888542175293
112, 8159, 8184, 8167, 8150, 8145, 8286, 8162, 8164, 8204, 8150, 8160, 8174, 8175, 8118,2.0096888542175293
113, 8163, 8180, 8176, 8158, 8174, 8282, 8188, 8178, 8172, 8185, 8190, 8171, 8177, 8127,2.0166897773742676
113, 8163, 8180, 8176, 8158, 8174, 8282, 8188, 8178, 8172, 8185, 8190, 8171, 8177, 8127,2.0166897773742676
114, 8185, 8200, 8188, 8175, 8189, 8294, 8191, 8185, 8246, 8194, 8208, 8215, 8182, 8150,2.024442195892334
114, 8185, 8200, 8188, 8175, 8189, 8294, 8191, 8185, 8246, 8194, 8208, 8215, 8182, 8150,2.024442195892334
115, 8165, 8188, 8174, 8164, 8175, 8283, 8174, 8175, 8251, 8193, 8202, 8202, 8172, 8138,2.0324432849884033
115, 8165, 8188, 8174, 8164, 8175, 8283, 8174, 8175, 8251, 8193, 8202, 8202, 8172, 8138,2.0324432849884033
116, 8173, 8183, 8168, 8174, 8186, 8282, 8182, 8169, 8189, 8215, 8212, 8166, 8170, 8145,2.040442705154419
116, 8173, 8183, 8168, 8174, 8186, 8282, 8182, 8169, 8189, 8215, 8212, 8166, 8170, 8145,2.040442705154419
117, 8183, 8208, 8177, 8190, 8191, 8294, 8176, 8172, 8278, 8200, 8206, 8209, 8179, 8153,2.048590660095215
117, 8183, 8208, 8177, 8190, 8191, 8294, 8176, 8172, 8278, 8200, 8206, 8209, 8179, 8153,2.048590660095215
118, 8144, 8170, 8143, 8163, 8190, 8283, 8174, 8150, 8164, 8190, 8186, 8160, 8155, 8112,2.0565872192382812
118, 8144, 8170, 8143, 8163, 8190, 8283, 8174, 8150, 8164, 8190, 8186, 8160, 8155, 8112,2.0565872192382812
119, 8142, 8173, 8131, 8147, 8168, 8288, 8170, 8151, 8154, 8172, 8159, 8159, 8154, 8095,2.0644357204437256
119, 8142, 8173, 8131, 8147, 8168, 8288, 8170, 8151, 8154, 8172, 8159, 8159, 8154, 8095,2.0644357204437256
120, 8102, 8162, 8110, 8128, 8149, 8277, 8169, 8169, 8178, 8156, 8143, 8162, 8156, 8077,2.0719189643859863
120, 8102, 8162, 8110, 8128, 8149, 8277, 8169, 8169, 8178, 8156, 8143, 8162, 8156, 8077,2.0719189643859863
121, 8078, 8138, 8089, 8123, 8150, 8268, 8176, 8170, 8097, 8159, 8139, 8124, 8149, 8068,2.078932762145996
121, 8078, 8138, 8089, 8123, 8150, 8268, 8176, 8170, 8097, 8159, 8139, 8124, 8149, 8068,2.078932762145996
122, 8103, 8166, 8110, 8128, 8137, 8273, 8158, 8164, 8167, 8135, 8122, 8165, 8164, 8082,2.087466239929199
122, 8103, 8166, 8110, 8128, 8137, 8273, 8158, 8164, 8167, 8135, 8122, 8165, 8164, 8082,2.087466239929199
123, 8099, 8155, 8114, 8116, 8145, 8257, 8160, 8155, 8106, 8144, 8133, 8152, 8165, 8085,2.0958547592163086
123, 8099, 8155, 8114, 8116, 8145, 8257, 8160, 8155, 8106, 8144, 8133, 8152, 8165, 8085,2.0958547592163086
124, 8137, 8179, 8140, 8145, 8152, 8268, 8166, 8164, 8145, 8163, 8154, 8182, 8172, 8122,2.102985382080078
124, 8137, 8179, 8140, 8145, 8152, 8268, 8166, 8164, 8145, 8163, 8154, 8182, 8172, 8122,2.102985382080078
125, 8157, 8196, 8167, 8159, 8157, 8276, 8158, 8164, 8193, 8165, 8163, 8197, 8174, 8131,2.110985279083252
125, 8157, 8196, 8167, 8159, 8157, 8276, 8158, 8164, 8193, 8165, 8163, 8197, 8174, 8131,2.1119818687438965
126, 8164, 8183, 8170, 8158, 8183, 8279, 8169, 8150, 8099, 8176, 8173, 8153, 8165, 8114,2.119283437728882
126, 8164, 8183, 8170, 8158, 8183, 8279, 8169, 8150, 8099, 8176, 8173, 8153, 8165, 8114,2.119283437728882
127, 8174, 8203, 8178, 8171, 8178, 8295, 8162, 8156, 8182, 8155, 8157, 8189, 8171, 8107,2.1272997856140137
127, 8174, 8203, 8178, 8171, 8178, 8295, 8162, 8156, 8182, 8155, 8157, 8189, 8171, 8107,2.1272997856140137
239, 8139, 8174, 8152, 8160, 8171, 8296, 8167, 8162, 8144, 8168, 8152, 8159, 8159, 8081,2.13543701171875
239, 8139, 8174, 8152, 8160, 8171, 8296, 8167, 8162, 8144, 8168, 8152, 8159, 8159, 8081,2.13543701171875
0, 8150, 8184, 8150, 8163, 8173, 8310, 8182, 8179, 8172, 8196, 8159, 8169, 8166, 8098,2.142796516418457
0, 8150, 8184, 8150, 8163, 8173, 8310, 8182, 8179, 8172, 8196, 8159, 8169, 8166, 8098,2.142796516418457
1, 8142, 8197, 8156, 8155, 8172, 8308, 8186, 8186, 8248, 8192, 8167, 8193, 8177, 8119,2.150442361831665
1, 8142, 8197, 8156, 8155, 8172, 8308, 8186, 8186, 8248, 8192, 8167, 8193, 8177, 8119,2.150442361831665
2, 8119, 8170, 8139, 8147, 8182, 8301, 8182, 8177, 8158, 8193, 8172, 8147, 8163, 8111,2.1584248542785645
2, 8119, 8170, 8139, 8147, 8182, 8301, 8182, 8177, 8158, 8193, 8172, 8147, 8163, 8111,2.1584248542785645
3, 8140, 8194, 8149, 8164, 8168, 8312, 8163, 8178, 8231, 8178, 8150, 8185, 8172, 8113,2.166421890258789
3, 8140, 8194, 8149, 8164, 8168, 8312, 8163, 8178, 8231, 8178, 8150, 8185, 8172, 8113,2.166421890258789
4, 8121, 8171, 8136, 8148, 8162, 8306, 8171, 8165, 8182, 8183, 8151, 8162, 8168, 8109,2.174423933029175
4, 8121, 8171, 8136, 8148, 8162, 8306, 8171, 8165, 8182, 8183, 8151, 8162, 8168, 8109,2.174423933029175
5, 8119, 8163, 8128, 8144, 8168, 8319, 8163, 8157, 8132, 8176, 8154, 8145, 8164, 8109,2.1824264526367188
5, 8119, 8163, 8128, 8144, 8168, 8319, 8163, 8157, 8132, 8176, 8154, 8145, 8164, 8109,2.1824264526367188
6, 8113, 8177, 8129, 8146, 8161, 8316, 8133, 8153, 8159, 8135, 8134, 8166, 8162, 8089,2.189987897872925
6, 8113, 8177, 8129, 8146, 8161, 8316, 8133, 8153, 8159, 8135, 8134, 8166, 8162, 8089,2.189987897872925
7, 8101, 8153, 8120, 8133, 8165, 8298, 8151, 8142, 8050, 8134, 8135, 8136, 8149, 8077,2.1984357833862305
7, 8101, 8153, 8120, 8133, 8165, 8298, 8151, 8142, 8050, 8134, 8135, 8136, 8149, 8077,2.1984357833862305
8, 8126, 8175, 8137, 8144, 8148, 8306, 8160, 8161, 8132, 8140, 8136, 8180, 8161, 8092,2.2064414024353027
8, 8126, 8175, 8137, 8144, 8148, 8306, 8160, 8161, 8132, 8140, 8136, 8180, 8161, 8092,2.2064414024353027
9, 8117, 8165, 8129, 8139, 8144, 8293, 8162, 8173, 8140, 8157, 8142, 8163, 8158, 8086,2.2134432792663574
9, 8117, 8165, 8129, 8139, 8144, 8293, 8162, 8173, 8140, 8157, 8142, 8163, 8158, 8086,2.2134432792663574
10, 8136, 8163, 8133, 8146, 8157, 8293, 8162, 8167, 8126, 8159, 8153, 8157, 8164, 8109,2.221432685852051
10, 8136, 8163, 8133, 8146, 8157, 8293, 8162, 8167, 8126, 8159, 8153, 8157, 8164, 8109,2.221432685852051
11, 8149, 8182, 8156, 8154, 8151, 8295, 8145, 8158, 8201, 8152, 8157, 8193, 8180, 8125,2.229431629180908
11, 8149, 8182, 8156, 8154, 8151, 8295, 8145, 8158, 8201, 8152, 8157, 8193, 8180, 8125,2.229431629180908
12, 8137, 8173, 8150, 8151, 8171, 8286, 8154, 8147, 8110, 8178, 8174, 8146, 8168, 8108,2.2374320030212402
12, 8137, 8173, 8150, 8151, 8171, 8286, 8154, 8147, 8110, 8178, 8174, 8146, 8168, 8108,2.2374320030212402
13, 8154, 8206, 8165, 8170, 8188, 8311, 8164, 8159, 8188, 8171, 8174, 8175, 8174, 8108,2.245441436767578
13, 8154, 8206, 8165, 8170, 8188, 8311, 8164, 8159, 8188, 8171, 8174, 8175, 8174, 8108,2.245441436767578
14, 8129, 8182, 8151, 8161, 8191, 8308, 8170, 8162, 8195, 8171, 8167, 8162, 8169, 8089,2.2534420490264893
14, 8129, 8182, 8151, 8161, 8191, 8308, 8170, 8162, 8195, 8171, 8167, 8162, 8169, 8089,2.2534420490264893
15, 8123, 8159, 8131, 8151, 8187, 8294, 8158, 8150, 8117, 8170, 8151, 8135, 8156, 8073,2.261444091796875
15, 8123, 8159, 8131, 8151, 8187, 8294, 8158, 8150, 8117, 8170, 8151, 8135, 8156, 8073,2.261444091796875
16, 8115, 8179, 8130, 8149, 8160, 8286, 8134, 8142, 8147, 8132, 8126, 8162, 8153, 8053,2.269441604614258
16, 8115, 8179, 8130, 8149, 8160, 8286, 8134, 8142, 8147, 8132, 8126, 8162, 8153, 8053,2.269441604614258
17, 8082, 8155, 8112, 8133, 8156, 8277, 8153, 8141, 8058, 8134, 8128, 8119, 8148, 8032,2.276442289352417
17, 8082, 8155, 8112, 8133, 8156, 8277, 8153, 8141, 8058, 8134, 8128, 8119, 8148, 8032,2.276442289352417
18, 8109, 8173, 8120, 8138, 8156, 8291, 8164, 8166, 8132, 8135, 8123, 8154, 8171, 8057,2.284912109375
18, 8109, 8173, 8120, 8138, 8156, 8291, 8164, 8166, 8132, 8135, 8123, 8154, 8171, 8057,2.284912109375
19, 8098, 8160, 8107, 8123, 8157, 8277, 8159, 8159, 8135, 8132, 8126, 8159, 8166, 8065,2.2920665740966797
19, 8098, 8160, 8107, 8123, 8157, 8277, 8159, 8159, 8135, 8132, 8126, 8159, 8166, 8065,2.2920665740966797
20, 8087, 8147, 8108, 8126, 8160, 8280, 8152, 8143, 8075, 8151, 8149, 8133, 8158, 8076,2.3001015186309814
20, 8087, 8147, 8108, 8126, 8160, 8280, 8152, 8143, 8075, 8151, 8149, 8133, 8158, 8076,2.3001015186309814
21, 8115, 8183, 8140, 8145, 8157, 8301, 8148, 8164, 8196, 8155, 8149, 8175, 8177, 8096,2.3082196712493896
21, 8115, 8183, 8140, 8145, 8157, 8301, 8148, 8164, 8196, 8155, 8149, 8175, 8177, 8096,2.3082196712493896
22, 8113, 8160, 8126, 8130, 8182, 8282, 8168, 8166, 8135, 8164, 8147, 8144, 8167, 8090,2.316297769546509
22, 8113, 8160, 8126, 8130, 8182, 8282, 8168, 8166, 8135, 8164, 8147, 8144, 8167, 8090,2.316297769546509
23, 8120, 8172, 8124, 8130, 8176, 8282, 8165, 8165, 8158, 8144, 8131, 8161, 8167, 8098,2.3242979049682617
23, 8120, 8172, 8124, 8130, 8176, 8282, 8165, 8165, 8158, 8144, 8131, 8161, 8167, 8098,2.3242979049682617
24, 8104, 8177, 8125, 8120, 8157, 8288, 8163, 8165, 8172, 8134, 8131, 8167, 8168, 8091,2.3330423831939697
24, 8104, 8177, 8125, 8120, 8157, 8288, 8163, 8165, 8172, 8134, 8131, 8167, 8168, 8091,2.3330423831939697
25, 8122, 8172, 8131, 8127, 8171, 8287, 8171, 8153, 8112, 8152, 8150, 8147, 8165, 8092,2.3404417037963867
25, 8122, 8172, 8131, 8127, 8171, 8287, 8171, 8153, 8112, 8152, 8150, 8147, 8165, 8092,2.3404417037963867
26, 8145, 8193, 8158, 8147, 8171, 8274, 8147, 8140, 8181, 8132, 8141, 8187, 8174, 8095,2.3474044799804688
26, 8145, 8193, 8158, 8147, 8171, 8274, 8147, 8140, 8181, 8132, 8141, 8187, 8174, 8095,2.3474044799804688
27, 8109, 8162, 8142, 8132, 8170, 8263, 8141, 8119, 8072, 8126, 8136, 8144, 8159, 8069,2.3552560806274414
27, 8109, 8162, 8142, 8132, 8170, 8263, 8141, 8119, 8072, 8126, 8136, 8144, 8159, 8069,2.3552560806274414
28, 8117, 8177, 8132, 8135, 8161, 8286, 8139, 8123, 8086, 8122, 8136, 8159, 8160, 8069,2.3632869720458984
28, 8117, 8177, 8132, 8135, 8161, 8286, 8139, 8123, 8086, 8122, 8136, 8159, 8160, 8069,2.3632869720458984
29, 8113, 8178, 8126, 8131, 8153, 8281, 8135, 8136, 8134, 8126, 8145, 8171, 8168, 8066,2.371436834335327
29, 8113, 8178, 8126, 8131, 8153, 8281, 8135, 8136, 8134, 8126, 8145, 8171, 8168, 8066,2.371436834335327
30, 8108, 8160, 8122, 8123, 8163, 8275, 8151, 8142, 8069, 8150, 8151, 8139, 8165, 8069,2.3796067237854004
30, 8108, 8160, 8122, 8123, 8163, 8275, 8151, 8142, 8069, 8150, 8151, 8139, 8165, 8069,2.3796067237854004
31, 8116, 8186, 8137, 8129, 8156, 8290, 8145, 8157, 8165, 8144, 8144, 8184, 8172, 8085,2.3874053955078125
31, 8116, 8186, 8137, 8129, 8156, 8290, 8145, 8157, 8165, 8144, 8144, 8184, 8172, 8085,2.3874053955078125
32, 8096, 8165, 8127, 8128, 8174, 8282, 8155, 8162, 8127, 8158, 8168, 8156, 8167, 8085,2.395442247390747
32, 8096, 8165, 8127, 8128, 8174, 8282, 8155, 8162, 8127, 8158, 8168, 8156, 8167, 8085,2.395442247390747
33, 8130, 8177, 8141, 8154, 8191, 8293, 8167, 8168, 8161, 8170, 8179, 8166, 8176, 8110,2.4037234783172607
33, 8130, 8177, 8141, 8154, 8191, 8293, 8167, 8168, 8161, 8170, 8179, 8166, 8176, 8110,2.4037234783172607
34, 8128, 8185, 8143, 8150, 8184, 8297, 8155, 8159, 8207, 8160, 8160, 8179, 8172, 8102,2.4107260704040527
34, 8128, 8185, 8143, 8150, 8184, 8297, 8155, 8159, 8207, 8160, 8160, 8179, 8172, 8102,2.4107260704040527
35, 8106, 8165, 8127, 8136, 8190, 8286, 8158, 8144, 8099, 8163, 8160, 8134, 8157, 8082,2.4184365272521973
35, 8106, 8165, 8127, 8136, 8190, 8286, 8158, 8144, 8099, 8163, 8160, 8134, 8157, 8082,2.4184365272521973
36, 8127, 8196, 8152, 8155, 8180, 8292, 8160, 8154, 8175, 8144, 8156, 8179, 8174, 8093,2.4264369010925293
36, 8127, 8196, 8152, 8155, 8180, 8292, 8160, 8154, 8175, 8144, 8156, 8179, 8174, 8093,2.4264369010925293
37, 8119, 8178, 8144, 8150, 8179, 8285, 8166, 8152, 8128, 8139, 8152, 8157, 8166, 8088,2.4344422817230225
37, 8119, 8178, 8144, 8150, 8179, 8285, 8166, 8152, 8128, 8139, 8152, 8157, 8166, 8088,2.4344422817230225
38, 8133, 8177, 8143, 8154, 8175, 8293, 8152, 8147, 8100, 8133, 8156, 8157, 8165, 8096,2.4423506259918213
38, 8133, 8177, 8143, 8154, 8175, 8293, 8152, 8147, 8100, 8133, 8156, 8157, 8165, 8096,2.4423506259918213
39, 8139, 8187, 8163, 8158, 8161, 8290, 8139, 8145, 8148, 8123, 8164, 8183, 8176, 8101,2.4507288932800293
39, 8139, 8187, 8163, 8158, 8161, 8290, 8139, 8145, 8148, 8123, 8164, 8183, 8176, 8101,2.4507288932800293
40, 8142, 8174, 8159, 8150, 8178, 8272, 8156, 8139, 8065, 8144, 8177, 8152, 8167, 8112,2.4577276706695557
40, 8142, 8174, 8159, 8150, 8178, 8272, 8156, 8139, 8065, 8144, 8177, 8152, 8167, 8112,2.4587275981903076
41, 8155, 8200, 8162, 8157, 8172, 8269, 8143, 8138, 8137, 8133, 8168, 8187, 8170, 8116,2.466733932495117
41, 8155, 8200, 8162, 8157, 8172, 8269, 8143, 8138, 8137, 8133, 8168, 8187, 8170, 8116,2.467109203338623
42, 8124, 8169, 8141, 8138, 8166, 8253, 8140, 8128, 8089, 8132, 8158, 8152, 8159, 8077,2.474519968032837
42, 8124, 8169, 8141, 8138, 8166, 8253, 8140, 8128, 8089, 8132, 8158, 8152, 8159, 8077,2.474519968032837
43, 8123, 8159, 8135, 8127, 8172, 8256, 8150, 8130, 8054, 8130, 8142, 8139, 8157, 8071,2.4813642501831055
43, 8123, 8159, 8135, 8127, 8172, 8256, 8150, 8130, 8054, 8130, 8142, 8139, 8157, 8071,2.4813642501831055
44, 8123, 8179, 8137, 8133, 8154, 8248, 8146, 8141, 8119, 8111, 8126, 8171, 8165, 8076,2.4894514083862305
44, 8123, 8179, 8137, 8133, 8154, 8248, 8146, 8141, 8119, 8111, 8126, 8171, 8165, 8076,2.4894514083862305
45, 8123, 8161, 8127, 8143, 8157, 8241, 8168, 8148, 8049, 8144, 8140, 8136, 8164, 8078,2.49739933013916
45, 8123, 8161, 8127, 8143, 8157, 8241, 8168, 8148, 8049, 8144, 8140, 8136, 8164, 8078,2.49739933013916
46, 8146, 8181, 8153, 8160, 8163, 8261, 8169, 8168, 8146, 8152, 8142, 8177, 8179, 8107,2.5057013034820557
46, 8146, 8181, 8153, 8160, 8163, 8261, 8169, 8168, 8146, 8152, 8142, 8177, 8179, 8107,2.5057013034820557
47, 8116, 8167, 8144, 8146, 8163, 8244, 8167, 8169, 8144, 8145, 8140, 8164, 8166, 8101,2.5137012004852295
47, 8116, 8167, 8144, 8146, 8163, 8244, 8167, 8169, 8144, 8145, 8140, 8164, 8166, 8101,2.5137012004852295
48, 8119, 8172, 8136, 8153, 8164, 8245, 8171, 8167, 8114, 8149, 8142, 8153, 8160, 8098,2.5217463970184326
48, 8119, 8172, 8136, 8153, 8164, 8245, 8171, 8167, 8114, 8149, 8142, 8153, 8160, 8098,2.5217463970184326
49, 8144, 8197, 8156, 8165, 8166, 8253, 8167, 8174, 8193, 8147, 8137, 8193, 8179, 8115,2.5298004150390625
49, 8144, 8197, 8156, 8165, 8166, 8253, 8167, 8174, 8193, 8147, 8137, 8193, 8179, 8115,2.5298004150390625
50, 8138, 8173, 8148, 8156, 8184, 8242, 8177, 8164, 8111, 8169, 8155, 8151, 8171, 8121,2.5378365516662598
50, 8138, 8173, 8148, 8156, 8184, 8242, 8177, 8164, 8111, 8169, 8155, 8151, 8171, 8121,2.5378365516662598
51, 8161, 8200, 8162, 8176, 8175, 8265, 8171, 8169, 8186, 8168, 8166, 8177, 8174, 8131,2.543917417526245
51, 8161, 8200, 8162, 8176, 8175, 8265, 8171, 8169, 8186, 8168, 8166, 8177, 8174, 8131,2.543917417526245
52, 8150, 8194, 8161, 8167, 8171, 8263, 8176, 8165, 8177, 8160, 8169, 8170, 8171, 8119,2.5529065132141113
52, 8150, 8194, 8161, 8167, 8171, 8263, 8176, 8165, 8177, 8160, 8169, 8170, 8171, 8119,2.5529065132141113
53, 8148, 8181, 8150, 8155, 8175, 8255, 8184, 8158, 8106, 8150, 8165, 8150, 8167, 8117,2.559908151626587
53, 8148, 8181, 8150, 8155, 8175, 8255, 8184, 8158, 8106, 8150, 8165, 8150, 8167, 8117,2.559908151626587
54, 8157, 8200, 8153, 8167, 8162, 8267, 8179, 8171, 8205, 8142, 8151, 8189, 8176, 8117,2.567908525466919
54, 8157, 8200, 8153, 8167, 8162, 8267, 8179, 8171, 8205, 8142, 8151, 8189, 8176, 8117,2.567908525466919
55, 8132, 8168, 8134, 8162, 8169, 8263, 8189, 8163, 8138, 8166, 8165, 8151, 8166, 8098,2.5759105682373047
55, 8132, 8168, 8134, 8162, 8169, 8263, 8189, 8163, 8138, 8166, 8165, 8151, 8166, 8098,2.5759105682373047
56, 8141, 8181, 8143, 8167, 8164, 8261, 8177, 8162, 8161, 8151, 8165, 8170, 8167, 8099,2.5839104652404785
56, 8141, 8181, 8143, 8167, 8164, 8261, 8177, 8162, 8161, 8151, 8165, 8170, 8167, 8099,2.5839104652404785
57, 8134, 8179, 8145, 8163, 8163, 8257, 8181, 8165, 8159, 8141, 8162, 8170, 8166, 8099,2.592418670654297
57, 8134, 8179, 8145, 8163, 8163, 8257, 8181, 8165, 8159, 8141, 8162, 8170, 8166, 8099,2.592418670654297
58, 8153, 8174, 8150, 8173, 8175, 8269, 8202, 8164, 8121, 8168, 8178, 8157, 8168, 8120,2.600419521331787
58, 8153, 8174, 8150, 8173, 8175, 8269, 8202, 8164, 8121, 8168, 8178, 8157, 8168, 8120,2.600419521331787
59, 8166, 8200, 8161, 8177, 8162, 8272, 8189, 8168, 8215, 8161, 8169, 8193, 8173, 8124,2.6074180603027344
59, 8166, 8200, 8161, 8177, 8162, 8272, 8189, 8168, 8215, 8161, 8169, 8193, 8173, 8124,2.6074180603027344
60, 8118, 8167, 8126, 8148, 8161, 8250, 8184, 8163, 8111, 8158, 8154, 8140, 8157, 8094,2.6154189109802246
60, 8118, 8167, 8126, 8148, 8161, 8250, 8184, 8163, 8111, 8158, 8154, 8140, 8157, 8094,2.6154189109802246
61, 8129, 8181, 8129, 8154, 8152, 8261, 8184, 8173, 8146, 8157, 8146, 8165, 8167, 8108,2.623417615890503
61, 8129, 8181, 8129, 8154, 8152, 8261, 8184, 8173, 8146, 8157, 8146, 8165, 8167, 8108,2.623417615890503
62, 8130, 8186, 8143, 8155, 8140, 8264, 8192, 8173, 8201, 8163, 8156, 8183, 8172, 8117,2.6314191818237305
62, 8130, 8186, 8143, 8155, 8140, 8264, 8192, 8173, 8201, 8163, 8156, 8183, 8172, 8117,2.6314191818237305
63, 8132, 8168, 8141, 8154, 8145, 8262, 8197, 8162, 8128, 8174, 8167, 8147, 8161, 8117,2.639432668685913
63, 8132, 8168, 8141, 8154, 8145, 8262, 8197, 8162, 8128, 8174, 8167, 8147, 8161, 8117,2.639432668685913
64, 8145, 8187, 8143, 8165, 8136, 8256, 8163, 8161, 8185, 8151, 8153, 8185, 8166, 8112,2.6473989486694336
64, 8145, 8187, 8143, 8165, 8136, 8256, 8163, 8161, 8185, 8151, 8153, 8185, 8166, 8112,2.6473989486694336
65, 8125, 8171, 8126, 8153, 8153, 8240, 8161, 8148, 8115, 8160, 8165, 8159, 8161, 8092,2.655441999435425
65, 8125, 8171, 8126, 8153, 8153, 8240, 8161, 8148, 8115, 8160, 8165, 8159, 8161, 8092,2.655441999435425
66, 8155, 8190, 8147, 8166, 8164, 8255, 8169, 8148, 8156, 8169, 8174, 8176, 8171, 8109,2.66353178024292
66, 8155, 8190, 8147, 8166, 8164, 8255, 8169, 8148, 8156, 8169, 8174, 8176, 8171, 8109,2.66353178024292
67, 8137, 8181, 8138, 8155, 8142, 8234, 8142, 8139, 8167, 8143, 8158, 8174, 8168, 8094,2.6706550121307373
67, 8137, 8181, 8138, 8155, 8142, 8234, 8142, 8139, 8167, 8143, 8158, 8174, 8168, 8094,2.6706550121307373
68, 8092, 8143, 8101, 8123, 8134, 8214, 8135, 8128, 8038, 8129, 8151, 8128, 8151, 8061,2.6786558628082275
68, 8092, 8143, 8101, 8123, 8134, 8214, 8135, 8128, 8038, 8129, 8151, 8128, 8151, 8061,2.6786558628082275
69, 8100, 8171, 8114, 8127, 8128, 8239, 8148, 8153, 8146, 8125, 8147, 8178, 8165, 8065,2.686441659927368
69, 8100, 8171, 8114, 8127, 8128, 8239, 8148, 8153, 8146, 8125, 8147, 8178, 8165, 8065,2.686441659927368
70, 8106, 8164, 8114, 8138, 8140, 8241, 8167, 8161, 8123, 8143, 8151, 8149, 8162, 8062,2.6946799755096436
70, 8106, 8164, 8114, 8138, 8140, 8241, 8167, 8161, 8123, 8143, 8151, 8149, 8162, 8062,2.6946799755096436
71, 8145, 8178, 8127, 8165, 8149, 8249, 8158, 8146, 8097, 8126, 8141, 8156, 8164, 8071,2.7021093368530273
71, 8145, 8178, 8127, 8165, 8149, 8249, 8158, 8146, 8097, 8126, 8141, 8156, 8164, 8071,2.7021093368530273
72, 8136, 8185, 8145, 8168, 8152, 8248, 8144, 8127, 8121, 8103, 8139, 8189, 8165, 8072,2.71010422706604
72, 8136, 8185, 8145, 8168, 8152, 8248, 8144, 8127, 8121, 8103, 8139, 8189, 8165, 8072,2.71010422706604
73, 8110, 8172, 8146, 8171, 8170, 8247, 8156, 8126, 8054, 8129, 8161, 8155, 8156, 8074,2.7184414863586426
73, 8110, 8172, 8146, 8171, 8170, 8247, 8156, 8126, 8054, 8129, 8161, 8155, 8156, 8074,2.7184414863586426
74, 8147, 8206, 8170, 8197, 8161, 8263, 8160, 8159, 8173, 8135, 8155, 8187, 8172, 8094,2.727006435394287
74, 8147, 8206, 8170, 8197, 8161, 8263, 8160, 8159, 8173, 8135, 8155, 8187, 8172, 8094,2.727006435394287
75, 8155, 8183, 8163, 8184, 8161, 8247, 8171, 8165, 8156, 8147, 8148, 8163, 8167, 8095,2.7341537475585938
75, 8155, 8183, 8163, 8184, 8161, 8247, 8171, 8165, 8156, 8147, 8148, 8163, 8167, 8095,2.7341537475585938
76, 8147, 8178, 8155, 8177, 8164, 8242, 8158, 8152, 8135, 8139, 8135, 8165, 8163, 8107,2.7411534786224365
76, 8147, 8178, 8155, 8177, 8164, 8242, 8158, 8152, 8135, 8139, 8135, 8165, 8163, 8107,2.7411534786224365
77, 8119, 8182, 8152, 8170, 8148, 8234, 8141, 8153, 8171, 8101, 8114, 8183, 8165, 8091,2.749441385269165
77, 8119, 8182, 8152, 8170, 8148, 8234, 8141, 8153, 8171, 8101, 8114, 8183, 8165, 8091,2.7499003410339355
78, 8120, 8163, 8146, 8162, 8166, 8226, 8159, 8150, 8071, 8107, 8126, 8141, 8155, 8075,2.7578182220458984
78, 8120, 8163, 8146, 8162, 8166, 8226, 8159, 8150, 8071, 8107, 8126, 8141, 8155, 8075,2.7578182220458984
79, 8159, 8201, 8175, 8188, 8173, 8246, 8152, 8144, 8142, 8107, 8143, 8189, 8169, 8102,2.7648603916168213
79, 8159, 8201, 8175, 8188, 8173, 8246, 8152, 8144, 8142, 8107, 8143, 8189, 8169, 8102,2.7658557891845703
80, 8143, 8185, 8174, 8191, 8165, 8250, 8152, 8130, 8100, 8113, 8155, 8179, 8164, 8102,2.773871660232544
80, 8143, 8185, 8174, 8191, 8165, 8250, 8152, 8130, 8100, 8113, 8155, 8179, 8164, 8102,2.773871660232544
81, 8158, 8183, 8171, 8193, 8173, 8264, 8166, 8137, 8084, 8124, 8160, 8172, 8166, 8105,2.780954122543335
81, 8158, 8183, 8171, 8193, 8173, 8264, 8166, 8137, 8084, 8124, 8160, 8172, 8166, 8105,2.7819526195526123
82, 8160, 8201, 8173, 8189, 8177, 8276, 8167, 8160, 8199, 8132, 8157, 8201, 8174, 8100,2.7894434928894043
82, 8160, 8201, 8173, 8189, 8177, 8276, 8167, 8160, 8199, 8132, 8157, 8201, 8174, 8100,2.7894434928894043
83, 8129, 8162, 8143, 8166, 8178, 8272, 8180, 8163, 8128, 8160, 8155, 8151, 8159, 8085,2.797405242919922
83, 8129, 8162, 8143, 8166, 8178, 8272, 8180, 8163, 8128, 8160, 8155, 8151, 8159, 8085,2.797405242919922
84, 8144, 8175, 8145, 8169, 8162, 8278, 8172, 8167, 8177, 8140, 8139, 8176, 8170, 8098,2.80431866645813
84, 8144, 8175, 8145, 8169, 8162, 8278, 8172, 8167, 8177, 8140, 8139, 8176, 8170, 8098,2.80431866645813
85, 8130, 8169, 8136, 8158, 8162, 8263, 8171, 8167, 8156, 8126, 8146, 8167, 8170, 8091,2.81231689453125
85, 8130, 8169, 8136, 8158, 8162, 8263, 8171, 8167, 8156, 8126, 8146, 8167, 8170, 8091,2.81231689453125
86, 8130, 8164, 8133, 8160, 8166, 8260, 8177, 8172, 8118, 8141, 8159, 8157, 8166, 8092,2.820312738418579
86, 8130, 8164, 8133, 8160, 8166, 8260, 8177, 8172, 8118, 8141, 8159, 8157, 8166, 8092,2.8213109970092773
87, 8135, 8180, 8151, 8171, 8161, 8260, 8172, 8174, 8191, 8138, 8144, 8187, 8173, 8097,2.8284358978271484
87, 8135, 8180, 8151, 8171, 8161, 8260, 8172, 8174, 8191, 8138, 8144, 8187, 8173, 8097,2.828725576400757
88, 8117, 8150, 8135, 8158, 8181, 8242, 8182, 8159, 8090, 8147, 8140, 8142, 8160, 8089,2.8367362022399902
88, 8117, 8150, 8135, 8158, 8181, 8242, 8182, 8159, 8090, 8147, 8140, 8142, 8160, 8089,2.8367362022399902
89, 8137, 8168, 8134, 8156, 8173, 8246, 8177, 8166, 8139, 8140, 8132, 8173, 8164, 8096,2.8447375297546387
89, 8137, 8168, 8134, 8156, 8173, 8246, 8177, 8166, 8139, 8140, 8132, 8173, 8164, 8096,2.8447375297546387
90, 8123, 8163, 8126, 8143, 8161, 8231, 8174, 8162, 8146, 8144, 8136, 8173, 8163, 8093,2.8519668579101562
90, 8123, 8163, 8126, 8143, 8161, 8231, 8174, 8162, 8146, 8144, 8136, 8173, 8163, 8093,2.852980136871338
91, 8128, 8159, 8132, 8157, 8171, 8226, 8181, 8159, 8109, 8167, 8157, 8156, 8166, 8110,2.8607535362243652
91, 8128, 8159, 8132, 8157, 8171, 8226, 8181, 8159, 8109, 8167, 8157, 8156, 8166, 8110,2.8607535362243652
92, 8147, 8189, 8153, 8177, 8166, 8226, 8174, 8173, 8218, 8168, 8154, 8197, 8177, 8121,2.867753028869629
92, 8147, 8189, 8153, 8177, 8166, 8226, 8174, 8173, 8218, 8168, 8154, 8197, 8177, 8121,2.867753028869629
93, 8130, 8161, 8131, 8162, 8174, 8205, 8177, 8159, 8139, 8170, 8157, 8157, 8161, 8104,2.8757638931274414
93, 8130, 8161, 8131, 8162, 8174, 8205, 8177, 8159, 8139, 8170, 8157, 8157, 8161, 8104,2.8757638931274414
94, 8146, 8170, 8133, 8168, 8167, 8213, 8165, 8154, 8162, 8144, 8151, 8175, 8165, 8100,2.8834068775177
94, 8146, 8170, 8133, 8168, 8167, 8213, 8165, 8154, 8162, 8144, 8151, 8175, 8165, 8100,2.8834068775177
95, 8124, 8162, 8127, 8153, 8158, 8206, 8160, 8156, 8164, 8141, 8146, 8173, 8164, 8086,2.891441583633423
95, 8124, 8162, 8127, 8153, 8158, 8206, 8160, 8156, 8164, 8141, 8146, 8173, 8164, 8086,2.891441583633423
96, 8111, 8151, 8111, 8150, 8169, 8201, 8168, 8157, 8100, 8166, 8153, 8141, 8155, 8081,2.8994648456573486
96, 8111, 8151, 8111, 8150, 8169, 8201, 8168, 8157, 8100, 8166, 8153, 8141, 8155, 8081,2.8994648456573486
97, 8121, 8172, 8114, 8161, 8159, 8205, 8152, 8154, 8172, 8141, 8133, 8175, 8161, 8070,2.9075679779052734
97, 8121, 8172, 8114, 8161, 8159, 8205, 8152, 8154, 8172, 8141, 8133, 8175, 8161, 8070,2.9075679779052734
98, 8095, 8139, 8100, 8142, 8169, 8190, 8155, 8136, 8064, 8126, 8126, 8139, 8151, 8044,2.914963722229004
98, 8095, 8139, 8100, 8142, 8169, 8190, 8155, 8136, 8064, 8126, 8126, 8139, 8151, 8044,2.914963722229004
99, 8123, 8164, 8121, 8159, 8178, 8202, 8164, 8149, 8099, 8130, 8130, 8172, 8160, 8073,2.9234421253204346
99, 8123, 8164, 8121, 8159, 8178, 8202, 8164, 8149, 8099, 8130, 8130, 8172, 8160, 8073,2.9234421253204346
100, 8118, 8176, 8122, 8163, 8170, 8195, 8161, 8154, 8138, 8130, 8128, 8182, 8161, 8075,2.9309558868408203
100, 8118, 8176, 8122, 8163, 8170, 8195, 8161, 8154, 8138, 8130, 8128, 8182, 8161, 8075,2.93194842338562
101, 8105, 8152, 8099, 8151, 8172, 8183, 8162, 8141, 8039, 8132, 8123, 8140, 8155, 8055,2.938948392868042
101, 8105, 8152, 8099, 8151, 8172, 8183, 8162, 8141, 8039, 8132, 8123, 8140, 8155, 8055,2.938948392868042
102, 8126, 8175, 8119, 8155, 8166, 8189, 8154, 8149, 8135, 8124, 8123, 8189, 8174, 8072,2.9464378356933594
102, 8126, 8175, 8119, 8155, 8166, 8189, 8154, 8149, 8135, 8124, 8123, 8189, 8174, 8072,2.9464378356933594
103, 8112, 8155, 8120, 8148, 8173, 8177, 8167, 8151, 8100, 8149, 8149, 8164, 8167, 8083,2.9544432163238525
103, 8112, 8155, 8120, 8148, 8173, 8177, 8167, 8151, 8100, 8149, 8149, 8164, 8167, 8083,2.9544432163238525
104, 8130, 8159, 8126, 8161, 8168, 8179, 8166, 8156, 8121, 8155, 8146, 8165, 8167, 8095,2.9620091915130615
104, 8130, 8159, 8126, 8161, 8168, 8179, 8166, 8156, 8121, 8155, 8146, 8165, 8167, 8095,2.9620091915130615
105, 8122, 8162, 8123, 8155, 8161, 8174, 8154, 8159, 8167, 8145, 8138, 8180, 8174, 8084,2.970017433166504
105, 8122, 8162, 8123, 8155, 8161, 8174, 8154, 8159, 8167, 8145, 8138, 8180, 8174, 8084,2.970017433166504
106, 8115, 8154, 8110, 8146, 8185, 8178, 8167, 8158, 8093, 8164, 8155, 8152, 8166, 8087,2.9784421920776367
106, 8115, 8154, 8110, 8146, 8185, 8178, 8167, 8158, 8093, 8164, 8155, 8152, 8166, 8087,2.9784421920776367
107, 8134, 8181, 8129, 8163, 8184, 8191, 8164, 8165, 8182, 8156, 8148, 8187, 8172, 8110,2.9864416122436523
107, 8134, 8181, 8129, 8163, 8184, 8191, 8164, 8165, 8182, 8156, 8148, 8187, 8172, 8110,2.9864416122436523
108, 8112, 8153, 8122, 8156, 8178, 8179, 8167, 8154, 8135, 8167, 8145, 8156, 8166, 8092,2.994147300720215
108, 8112, 8153, 8122, 8156, 8178, 8179, 8167, 8154, 8135, 8167, 8145, 8156, 8166, 8092,2.9951694011688232
109, 8135, 8162, 8133, 8158, 8179, 8198, 8168, 8151, 8143, 8176, 8152, 8173, 8169, 8103,3.001173973083496
109, 8135, 8162, 8133, 8158, 8179, 8198, 8168, 8151, 8143, 8176, 8152, 8173, 8169, 8103,3.001173973083496
110, 8138, 8180, 8146, 8156, 8184, 8211, 8170, 8164, 8211, 8175, 8164, 8195, 8170, 8110,3.0091700553894043
110, 8138, 8180, 8146, 8156, 8184, 8211, 8170, 8164, 8211, 8175, 8164, 8195, 8170, 8110,3.0091700553894043
111, 8126, 8156, 8131, 8151, 8192, 8204, 8184, 8167, 8136, 8199, 8180, 8143, 8161, 8094,3.0174059867858887
111, 8126, 8156, 8131, 8151, 8192, 8204, 8184, 8167, 8136, 8199, 8180, 8143, 8161, 8094,3.0174059867858887
112, 8145, 8179, 8142, 8166, 8172, 8212, 8166, 8169, 8219, 8182, 8167, 8184, 8175, 8097,3.025442123413086
112, 8145, 8179, 8142, 8166, 8172, 8212, 8166, 8169, 8219, 8182, 8167, 8184, 8175, 8097,3.025442123413086
113, 8124, 8164, 8135, 8159, 8186, 8211, 8176, 8166, 8185, 8183, 8168, 8164, 8165, 8095,3.0334415435791016
113, 8124, 8164, 8135, 8159, 8186, 8211, 8176, 8166, 8185, 8183, 8168, 8164, 8165, 8095,3.0334415435791016
114, 8123, 8162, 8136, 8160, 8202, 8219, 8189, 8168, 8169, 8192, 8162, 8154, 8160, 8097,3.041424036026001
114, 8123, 8162, 8136, 8160, 8202, 8219, 8189, 8168, 8169, 8192, 8162, 8154, 8160, 8097,3.041424036026001
115, 8124, 8172, 8140, 8156, 8180, 8202, 8174, 8167, 8219, 8169, 8110, 8183, 8168, 8092,3.0494306087493896
115, 8124, 8172, 8140, 8156, 8180, 8202, 8174, 8167, 8219, 8169, 8110, 8183, 8168, 8092,3.0494306087493896
116, 8125, 8155, 8136, 8151, 8186, 8188, 8183, 8159, 8122, 8181, 8069, 8150, 8167, 8108,3.0574657917022705
116, 8125, 8155, 8136, 8151, 8186, 8188, 8183, 8159, 8122, 8181, 8069, 8150, 8167, 8108,3.0574657917022705
117, 8141, 8190, 8158, 8175, 8184, 8214, 8178, 8168, 8204, 8184, 8038, 8188, 8177, 8129,3.065546989440918
117, 8141, 8190, 8158, 8175, 8184, 8214, 8178, 8168, 8204, 8184, 8038, 8188, 8177, 8129,3.065546989440918
118, 8120, 8174, 8146, 8171, 8179, 8208, 8178, 8164, 8181, 8190, 8009, 8169, 8164, 8104,3.072571277618408
118, 8120, 8174, 8146, 8171, 8179, 8208, 8178, 8164, 8181, 8190, 8009, 8169, 8164, 8104,3.072571277618408
119, 8144, 8164, 8156, 8178, 8188, 8208, 8186, 8160, 8152, 8196, 7988, 8161, 8162, 8113,3.080732583999634
119, 8144, 8164, 8156, 8178, 8188, 8208, 8186, 8160, 8152, 8196, 7988, 8161, 8162, 8113,3.080732583999634
120, 8161, 8187, 8180, 8181, 8183, 8212, 8181, 8168, 8235, 8182, 7968, 8200, 8174, 8129,3.0884392261505127
120, 8161, 8187, 8180, 8181, 8183, 8212, 8181, 8168, 8235, 8182, 7968, 8200, 8174, 8129,3.0884392261505127
121, 8140, 8170, 8159, 8171, 8192, 8196, 8181, 8158, 8134, 8187, 7958, 8160, 8157, 8115,3.0964293479919434
121, 8140, 8170, 8159, 8171, 8192, 8196, 8181, 8158, 8134, 8187, 7958, 8160, 8157, 8115,3.0964293479919434
122, 8150, 8184, 8160, 8188, 8189, 8207, 8163, 8157, 8175, 8171, 7928, 8186, 8159, 8112,3.1044414043426514
122, 8150, 8184, 8160, 8188, 8189, 8207, 8163, 8157, 8175, 8171, 7928, 8186, 8159, 8112,3.1044414043426514
123, 8131, 8154, 8140, 8155, 8183, 8209, 8155, 8152, 8146, 8166, 7903, 8167, 8158, 8089,3.1123640537261963
123, 8131, 8154, 8140, 8155, 8183, 8209, 8155, 8152, 8146, 8166, 7903, 8167, 8158, 8089,3.1123640537261963
124, 8141, 8146, 8129, 8128, 8184, 8216, 8157, 8147, 8081, 8166, 7892, 8152, 8154, 8080,3.1204423904418945
124, 8141, 8146, 8129, 8128, 8184, 8216, 8157, 8147, 8081, 8166, 7892, 8152, 8154, 8080,3.1204423904418945
125, 8168, 8178, 8152, 8157, 8173, 8221, 8151, 8152, 8176, 8158, 7883, 8198, 8167, 8094,3.1284666061401367
125, 8168, 8178, 8152, 8157, 8173, 8221, 8151, 8152, 8176, 8158, 7883, 8198, 8167, 8094,3.1284666061401367
126, 8156, 8153, 8143, 8167, 8181, 8204, 8163, 8144, 8109, 8181, 7892, 8159, 8160, 8103,3.1354665756225586
126, 8156, 8153, 8143, 8167, 8181, 8204, 8163, 8144, 8109, 8181, 7892, 8159, 8160, 8103,3.1354665756225586
127, 8162, 8171, 8144, 8160, 8180, 8207, 8161, 8155, 8150, 8174, 7881, 8180, 8163, 8110,3.1434428691864014
127, 8162, 8171, 8144, 8160, 8180, 8207, 8161, 8155, 8150, 8174, 7881, 8180, 8163, 8110,3.1434428691864014
239, 8151, 8166, 8141, 8150, 8183, 8201, 8169, 8164, 8158, 8175, 7877, 8179, 8167, 8095,3.1514358520507812
239, 8151, 8166, 8141, 8150, 8183, 8201, 8169, 8164, 8158, 8175, 7877, 8179, 8167, 8095,3.1514358520507812
0, 8172, 8153, 8141, 8166, 8199, 8203, 8186, 8158, 8116, 8194, 7883, 8161, 8171, 8113,3.15944766998291
0, 8172, 8153, 8141, 8166, 8199, 8203, 8186, 8158, 8116, 8194, 7883, 8161, 8171, 8113,3.15944766998291
1, 8186, 8177, 8153, 8168, 8191, 8204, 8173, 8157, 8201, 8173, 7865, 8201, 8173, 8127,3.167440891265869
1, 8186, 8177, 8153, 8168, 8191, 8204, 8173, 8157, 8201, 8173, 7865, 8201, 8173, 8127,3.167440891265869
2, 8152, 8154, 8137, 8145, 8198, 8195, 8178, 8152, 8113, 8173, 7865, 8163, 8157, 8102,3.1748087406158447
2, 8152, 8154, 8137, 8145, 8198, 8195, 8178, 8152, 8113, 8173, 7865, 8163, 8157, 8102,3.1748087406158447
3, 8182, 8175, 8151, 8162, 8199, 8216, 8185, 8166, 8156, 8179, 7871, 8190, 8174, 8115,3.182802677154541
3, 8182, 8175, 8151, 8162, 8199, 8216, 8185, 8166, 8156, 8179, 7871, 8190, 8174, 8115,3.1838042736053467
4, 8195, 8181, 8163, 8161, 8195, 8210, 8183, 8173, 8192, 8184, 7878, 8206, 8181, 8125,3.1914429664611816
4, 8195, 8181, 8163, 8161, 8195, 8210, 8183, 8173, 8192, 8184, 7878, 8206, 8181, 8125,3.191805124282837
5, 8193, 8170, 8166, 8165, 8211, 8209, 8182, 8167, 8133, 8196, 7886, 8178, 8167, 8128,3.1978139877319336
5, 8193, 8170, 8166, 8165, 8211, 8209, 8182, 8167, 8133, 8196, 7886, 8178, 8167, 8128,3.1978139877319336
6, 8206, 8188, 8175, 8178, 8204, 8212, 8165, 8165, 8211, 8178, 7871, 8203, 8168, 8124,3.205815315246582
6, 8206, 8188, 8175, 8178, 8204, 8212, 8165, 8165, 8211, 8178, 7871, 8203, 8168, 8124,3.2068116664886475
7, 8195, 8161, 8156, 8161, 8205, 8190, 8176, 8159, 8134, 8188, 7877, 8162, 8162, 8106,3.2138149738311768
7, 8195, 8161, 8156, 8161, 8205, 8190, 8176, 8159, 8134, 8188, 7877, 8162, 8162, 8106,3.214811325073242
8, 8225, 8184, 8171, 8172, 8210, 8202, 8185, 8170, 8168, 8192, 7881, 8190, 8171, 8126,3.221815586090088
8, 8225, 8184, 8171, 8172, 8210, 8202, 8185, 8170, 8168, 8192, 7881, 8190, 8171, 8126,3.221815586090088
9, 8221, 8184, 8169, 8169, 8201, 8197, 8166, 8161, 8173, 8167, 7864, 8198, 8164, 8121,3.2300679683685303
9, 8221, 8184, 8169, 8169, 8201, 8197, 8166, 8161, 8173, 8167, 7864, 8198, 8164, 8121,3.2300679683685303
10, 8205, 8157, 8153, 8153, 8194, 8181, 8156, 8145, 8066, 8157, 7865, 8158, 8152, 8110,3.2383224964141846
10, 8205, 8157, 8153, 8153, 8194, 8181, 8156, 8145, 8066, 8157, 7865, 8158, 8152, 8110,3.2383224964141846
11, 8221, 8190, 8179, 8168, 8188, 8195, 8154, 8164, 8193, 8160, 7870, 8209, 8173, 8129,3.2463338375091553
11, 8221, 8190, 8179, 8168, 8188, 8195, 8154, 8164, 8193, 8160, 7870, 8209, 8173, 8129,3.2463338375091553
12, 8205, 8172, 8162, 8165, 8206, 8207, 8172, 8165, 8156, 8187, 7870, 8174, 8168, 8118,3.254441976547241
12, 8205, 8172, 8162, 8165, 8206, 8207, 8172, 8165, 8156, 8187, 7870, 8174, 8168, 8118,3.254441976547241
13, 8218, 8177, 8155, 8165, 8208, 8228, 8170, 8167, 8141, 8179, 7863, 8169, 8168, 8113,3.261441946029663
13, 8218, 8177, 8155, 8165, 8208, 8228, 8170, 8167, 8141, 8179, 7863, 8169, 8168, 8113,3.261441946029663
14, 8222, 8188, 8174, 8164, 8207, 8218, 8169, 8175, 8203, 8169, 7875, 8195, 8175, 8117,3.269441604614258
14, 8222, 8188, 8174, 8164, 8207, 8218, 8169, 8175, 8203, 8169, 7875, 8195, 8175, 8117,3.269441604614258
15, 8216, 8170, 8171, 8169, 8228, 8200, 8185, 8167, 8143, 8191, 7889, 8168, 8164, 8118,3.2771525382995605
15, 8216, 8170, 8171, 8169, 8228, 8200, 8185, 8167, 8143, 8191, 7889, 8168, 8164, 8118,3.2771525382995605
16, 8225, 8192, 8176, 8181, 8217, 8212, 8168, 8170, 8218, 8173, 7878, 8204, 8172, 8119,3.2856521606445312
16, 8225, 8192, 8176, 8181, 8217, 8212, 8168, 8170, 8218, 8173, 7878, 8204, 8172, 8119,3.2856521606445312
17, 8212, 8177, 8171, 8171, 8221, 8210, 8179, 8175, 8179, 8184, 7895, 8178, 8166, 8123,3.293659210205078
17, 8212, 8177, 8171, 8171, 8221, 8210, 8179, 8175, 8179, 8184, 7895, 8178, 8166, 8123,3.293659210205078
18, 8245, 8186, 8185, 8184, 8226, 8213, 8192, 8179, 8198, 8198, 7907, 8183, 8172, 8151,3.3009750843048096
18, 8245, 8186, 8185, 8184, 8226, 8213, 8192, 8179, 8198, 8198, 7907, 8183, 8172, 8151,3.3009750843048096
19, 8233, 8184, 8183, 8176, 8213, 8206, 8175, 8170, 8252, 8175, 7899, 8202, 8176, 8144,3.3089957237243652
19, 8233, 8184, 8183, 8176, 8213, 8206, 8175, 8170, 8252, 8175, 7899, 8202, 8176, 8144,3.3089957237243652
20, 8204, 8165, 8169, 8166, 8230, 8212, 8183, 8166, 8168, 8190, 7914, 8166, 8162, 8137,3.315995454788208
20, 8204, 8165, 8169, 8166, 8230, 8212, 8183, 8166, 8168, 8190, 7914, 8166, 8162, 8137,3.315995454788208
21, 8250, 8205, 8195, 8192, 8227, 8234, 8187, 8189, 8277, 8196, 7922, 8214, 8175, 8167,3.3244431018829346
21, 8250, 8205, 8195, 8192, 8227, 8234, 8187, 8189, 8277, 8196, 7922, 8214, 8175, 8167,3.3244431018829346
22, 8235, 8175, 8183, 8173, 8214, 8215, 8184, 8183, 8245, 8194, 7929, 8190, 8170, 8149,3.332441568374634
22, 8235, 8175, 8183, 8173, 8214, 8215, 8184, 8183, 8245, 8194, 7929, 8190, 8170, 8149,3.332441568374634
23, 8222, 8163, 8171, 8165, 8213, 8216, 8179, 8172, 8203, 8191, 7917, 8178, 8163, 8129,3.3403244018554688
23, 8222, 8163, 8171, 8165, 8213, 8216, 8179, 8172, 8203, 8191, 7917, 8178, 8163, 8129,3.3403244018554688
24, 8225, 8186, 8175, 8177, 8209, 8230, 8183, 8180, 8268, 8186, 7904, 8206, 8169, 8126,3.348325490951538
24, 8225, 8186, 8175, 8177, 8209, 8230, 8183, 8180, 8268, 8186, 7904, 8206, 8169, 8126,3.348325490951538
25, 8219, 8167, 8166, 8177, 8214, 8232, 8210, 8183, 8200, 8213, 7937, 8167, 8161, 8129,3.3564419746398926
25, 8219, 8167, 8166, 8177, 8214, 8232, 8210, 8183, 8200, 8213, 7937, 8167, 8161, 8129,3.3564419746398926
26, 8244, 8190, 8187, 8190, 8192, 8246, 8203, 8189, 8292, 8212, 7943, 8209, 8169, 8149,3.3644423484802246
26, 8244, 8190, 8187, 8190, 8192, 8246, 8203, 8189, 8292, 8212, 7943, 8209, 8169, 8149,3.3644423484802246
27, 8232, 8182, 8187, 8181, 8194, 8238, 8195, 8181, 8268, 8209, 7939, 8202, 8164, 8140,3.372511148452759
27, 8232, 8182, 8187, 8181, 8194, 8238, 8195, 8181, 8268, 8209, 7939, 8202, 8164, 8140,3.372511148452759
28, 8251, 8180, 8189, 8196, 8217, 8253, 8201, 8184, 8232, 8219, 7954, 8188, 8164, 8146,3.380659818649292
28, 8251, 8180, 8189, 8196, 8217, 8253, 8201, 8184, 8232, 8219, 7954, 8188, 8164, 8146,3.380659818649292
29, 8265, 8197, 8201, 8212, 8204, 8263, 8191, 8187, 8317, 8209, 7956, 8221, 8173, 8153,3.388441324234009
29, 8265, 8197, 8201, 8212, 8204, 8263, 8191, 8187, 8317, 8209, 7956, 8221, 8173, 8153,3.388441324234009
30, 8251, 8179, 8195, 8206, 8208, 8241, 8195, 8172, 8224, 8213, 7960, 8185, 8167, 8148,3.395442485809326
30, 8251, 8179, 8195, 8206, 8208, 8241, 8195, 8172, 8224, 8213, 7960, 8185, 8167, 8148,3.395442485809326
31, 8279, 8209, 8218, 8221, 8214, 8249, 8192, 8181, 8278, 8207, 7957, 8216, 8178, 8159,3.4034423828125
31, 8279, 8209, 8218, 8221, 8214, 8249, 8192, 8181, 8278, 8207, 7957, 8216, 8178, 8159,3.404085874557495
32, 8257, 8193, 8204, 8204, 8212, 8249, 8194, 8184, 8279, 8221, 7964, 8200, 8170, 8145,3.4115524291992188
32, 8257, 8193, 8204, 8204, 8212, 8249, 8194, 8184, 8279, 8221, 7964, 8200, 8170, 8145,3.4115524291992188
33, 8243, 8175, 8184, 8196, 8212, 8250, 8197, 8175, 8220, 8231, 7969, 8179, 8165, 8144,3.4195544719696045
33, 8243, 8175, 8184, 8196, 8212, 8250, 8197, 8175, 8220, 8231, 7969, 8179, 8165, 8144,3.4195544719696045
34, 8242, 8193, 8197, 8206, 8203, 8249, 8187, 8177, 8277, 8192, 7947, 8218, 8173, 8141,3.4274063110351562
34, 8242, 8193, 8197, 8206, 8203, 8249, 8187, 8177, 8277, 8192, 7947, 8218, 8173, 8141,3.4274063110351562
35, 8231, 8168, 8193, 8193, 8212, 8241, 8201, 8172, 8180, 8191, 7953, 8178, 8159, 8127,3.4354422092437744
35, 8231, 8168, 8193, 8193, 8212, 8241, 8201, 8172, 8180, 8191, 7953, 8178, 8159, 8127,3.4354422092437744
36, 8271, 8196, 8212, 8208, 8209, 8255, 8201, 8182, 8239, 8195, 7969, 8212, 8174, 8152,3.4434421062469482
36, 8271, 8196, 8212, 8208, 8209, 8255, 8201, 8182, 8239, 8195, 7969, 8212, 8174, 8152,3.4434421062469482
37, 8259, 8196, 8206, 8216, 8208, 8240, 8196, 8183, 8261, 8198, 7973, 8213, 8180, 8147,3.451442003250122
37, 8259, 8196, 8206, 8216, 8208, 8240, 8196, 8183, 8261, 8198, 7973, 8213, 8180, 8147,3.451442003250122
38, 8244, 8177, 8186, 8218, 8221, 8237, 8198, 8170, 8195, 8206, 7970, 8178, 8169, 8131,3.4581620693206787
38, 8244, 8177, 8186, 8218, 8221, 8237, 8198, 8170, 8195, 8206, 7970, 8178, 8169, 8131,3.4581620693206787
39, 8251, 8199, 8196, 8218, 8222, 8251, 8186, 8176, 8283, 8194, 7965, 8216, 8172, 8129,3.466093063354492
39, 8251, 8199, 8196, 8218, 8222, 8251, 8186, 8176, 8283, 8194, 7965, 8216, 8172, 8129,3.466093063354492
40, 8229, 8177, 8175, 8206, 8231, 8235, 8197, 8178, 8200, 8209, 7969, 8175, 8158, 8112,3.474442481994629
40, 8229, 8177, 8175, 8206, 8231, 8235, 8197, 8178, 8200, 8209, 7969, 8175, 8158, 8112,3.474442481994629
41, 8238, 8188, 8171, 8216, 8219, 8236, 8195, 8178, 8214, 8202, 7958, 8188, 8165, 8119,3.482377767562866
41, 8238, 8188, 8171, 8216, 8219, 8236, 8195, 8178, 8214, 8202, 7958, 8188, 8165, 8119,3.482377767562866
42, 8228, 8181, 8167, 8206, 8215, 8226, 8192, 8179, 8239, 8197, 7966, 8201, 8173, 8124,3.4904730319976807
42, 8228, 8181, 8167, 8206, 8215, 8226, 8192, 8179, 8239, 8197, 7966, 8201, 8173, 8124,3.4904730319976807
43, 8232, 8167, 8163, 8205, 8236, 8217, 8209, 8187, 8185, 8219, 7992, 8176, 8171, 8137,3.498473882675171
43, 8232, 8167, 8163, 8205, 8236, 8217, 8209, 8187, 8185, 8219, 7992, 8176, 8171, 8137,3.498473882675171
44, 8238, 8197, 8177, 8216, 8224, 8223, 8204, 8193, 8288, 8206, 7985, 8210, 8175, 8141,3.5064423084259033
44, 8238, 8197, 8177, 8216, 8224, 8223, 8204, 8193, 8288, 8206, 7985, 8210, 8175, 8141,3.5064423084259033
45, 8209, 8174, 8154, 8195, 8225, 8204, 8206, 8177, 8223, 8207, 7982, 8167, 8160, 8117,3.514442205429077
45, 8209, 8174, 8154, 8195, 8225, 8204, 8206, 8177, 8223, 8207, 7982, 8167, 8160, 8117,3.514442205429077
46, 8230, 8181, 8155, 8205, 8234, 8204, 8198, 8182, 8232, 8205, 7984, 8184, 8169, 8122,3.5224809646606445
46, 8230, 8181, 8155, 8205, 8234, 8204, 8198, 8182, 8232, 8205, 7984, 8184, 8169, 8122,3.5224809646606445
47, 8226, 8182, 8157, 8210, 8226, 8195, 8188, 8184, 8254, 8192, 7979, 8204, 8171, 8110,3.529484748840332
47, 8226, 8182, 8157, 8210, 8226, 8195, 8188, 8184, 8254, 8192, 7979, 8204, 8171, 8110,3.529484748840332
48, 8211, 8159, 8141, 8195, 8222, 8186, 8191, 8170, 8154, 8193, 7974, 8166, 8155, 8099,3.5374810695648193
48, 8211, 8159, 8141, 8195, 8222, 8186, 8191, 8170, 8154, 8193, 7974, 8166, 8155, 8099,3.5374810695648193
49, 8221, 8177, 8152, 8196, 8211, 8192, 8180, 8181, 8250, 8189, 7968, 8202, 8167, 8112,3.5452044010162354
49, 8221, 8177, 8152, 8196, 8211, 8192, 8180, 8181, 8250, 8189, 7968, 8202, 8167, 8112,3.5452044010162354
50, 8210, 8152, 8148, 8190, 8225, 8187, 8195, 8189, 8237, 8221, 7995, 8181, 8169, 8114,3.5532188415527344
50, 8210, 8152, 8148, 8190, 8225, 8187, 8195, 8189, 8237, 8221, 7995, 8181, 8169, 8114,3.5532188415527344
51, 8233, 8171, 8167, 8212, 8234, 8205, 8207, 8201, 8278, 8234, 8018, 8204, 8171, 8133,3.561218738555908
51, 8233, 8171, 8167, 8212, 8234, 8205, 8207, 8201, 8278, 8234, 8018, 8204, 8171, 8133,3.561218738555908
52, 8231, 8186, 8178, 8222, 8226, 8205, 8211, 8209, 8330, 8220, 8009, 8220, 8169, 8128,3.569441080093384
52, 8231, 8186, 8178, 8222, 8226, 8205, 8211, 8209, 8330, 8220, 8009, 8220, 8169, 8128,3.569441080093384
53, 8218, 8162, 8162, 8207, 8232, 8203, 8222, 8192, 8227, 8231, 8007, 8162, 8159, 8116,3.57698392868042
53, 8218, 8162, 8162, 8207, 8232, 8203, 8222, 8192, 8227, 8231, 8007, 8162, 8159, 8116,3.57698392868042
54, 8229, 8187, 8174, 8207, 8217, 8215, 8197, 8186, 8293, 8210, 7998, 8200, 8170, 8120,3.5854880809783936
54, 8229, 8187, 8174, 8207, 8217, 8215, 8197, 8186, 8293, 8210, 7998, 8200, 8170, 8120,3.5854880809783936
55, 8206, 8169, 8164, 8200, 8218, 8194, 8192, 8184, 8240, 8202, 8006, 8182, 8161, 8106,3.592440605163574
55, 8206, 8169, 8164, 8200, 8218, 8194, 8192, 8184, 8240, 8202, 8006, 8182, 8161, 8106,3.592440605163574
56, 8218, 8176, 8167, 8216, 8228, 8199, 8206, 8190, 8233, 8204, 8009, 8178, 8163, 8116,3.6000051498413086
56, 8218, 8176, 8167, 8216, 8228, 8199, 8206, 8190, 8233, 8204, 8009, 8178, 8163, 8116,3.6000051498413086
57, 8218, 8190, 8180, 8216, 8217, 8208, 8208, 8193, 8305, 8195, 8001, 8204, 8170, 8117,3.60844087600708
57, 8218, 8190, 8180, 8216, 8217, 8208, 8208, 8193, 8305, 8195, 8001, 8204, 8170, 8117,3.60844087600708
58, 8203, 8155, 8164, 8192, 8219, 8191, 8206, 8184, 8211, 8205, 8010, 8171, 8158, 8108,3.616440773010254
58, 8203, 8155, 8164, 8192, 8219, 8191, 8206, 8184, 8211, 8205, 8010, 8171, 8158, 8108,3.616440773010254
59, 8218, 8174, 8170, 8198, 8203, 8189, 8184, 8190, 8276, 8193, 8009, 8206, 8173, 8119,3.6245291233062744
59, 8218, 8174, 8170, 8198, 8203, 8189, 8184, 8190, 8276, 8193, 8009, 8206, 8173, 8119,3.6245291233062744
60, 8201, 8172, 8164, 8195, 8196, 8184, 8188, 8183, 8245, 8196, 8018, 8180, 8173, 8114,3.632523536682129
60, 8201, 8172, 8164, 8195, 8196, 8184, 8188, 8183, 8245, 8196, 8018, 8180, 8173, 8114,3.632523536682129
61, 8218, 8174, 8174, 8198, 8205, 8186, 8193, 8175, 8214, 8201, 8021, 8174, 8167, 8125,3.6405608654022217
61, 8218, 8174, 8174, 8198, 8205, 8186, 8193, 8175, 8214, 8201, 8021, 8174, 8167, 8125,3.6405608654022217
62, 8210, 8177, 8181, 8193, 8192, 8180, 8176, 8173, 8265, 8177, 8012, 8204, 8169, 8118,3.6484410762786865
62, 8210, 8177, 8181, 8193, 8192, 8180, 8176, 8173, 8265, 8177, 8012, 8204, 8169, 8118,3.6484410762786865
63, 8180, 8152, 8152, 8178, 8182, 8175, 8181, 8164, 8150, 8167, 8011, 8156, 8153, 8089,3.656587600708008
63, 8180, 8152, 8152, 8178, 8182, 8175, 8181, 8164, 8150, 8167, 8011, 8156, 8153, 8089,3.656587600708008
64, 8219, 8190, 8168, 8189, 8172, 8187, 8185, 8180, 8222, 8154, 8005, 8197, 8163, 8112,3.6635866165161133
64, 8219, 8190, 8168, 8189, 8172, 8187, 8185, 8180, 8222, 8154, 8005, 8197, 8163, 8112,3.6635866165161133
65, 8210, 8184, 8178, 8180, 8186, 8173, 8191, 8183, 8233, 8170, 8029, 8197, 8168, 8131,3.6715919971466064
65, 8210, 8184, 8178, 8180, 8186, 8173, 8191, 8183, 8233, 8170, 8029, 8197, 8168, 8131,3.6715919971466064
66, 8198, 8168, 8173, 8183, 8194, 8172, 8187, 8170, 8186, 8177, 8038, 8179, 8166, 8135,3.6795902252197266
66, 8198, 8168, 8173, 8183, 8194, 8172, 8187, 8170, 8186, 8177, 8038, 8179, 8166, 8135,3.6795902252197266
67, 8201, 8176, 8170, 8187, 8174, 8171, 8170, 8168, 8238, 8149, 8014, 8201, 8167, 8127,3.6870968341827393
67, 8201, 8176, 8170, 8187, 8174, 8171, 8170, 8168, 8238, 8149, 8014, 8201, 8167, 8127,3.6870968341827393
68, 8183, 8155, 8153, 8174, 8189, 8161, 8189, 8170, 8157, 8167, 8035, 8159, 8162, 8118,3.695096731185913
68, 8183, 8155, 8153, 8174, 8189, 8161, 8189, 8170, 8157, 8167, 8035, 8159, 8162, 8118,3.695096731185913
69, 8203, 8188, 8176, 8186, 8194, 8181, 8193, 8185, 8239, 8178, 8056, 8198, 8175, 8135,3.7031004428863525
69, 8203, 8188, 8176, 8186, 8194, 8181, 8193, 8185, 8239, 8178, 8056, 8198, 8175, 8135,3.7031004428863525
70, 8199, 8174, 8177, 8182, 8185, 8172, 8185, 8182, 8242, 8178, 8051, 8194, 8167, 8129,3.7110986709594727
70, 8199, 8174, 8177, 8182, 8185, 8172, 8185, 8182, 8242, 8178, 8051, 8194, 8167, 8129,3.7110986709594727
71, 8200, 8157, 8167, 8183, 8188, 8169, 8187, 8178, 8178, 8188, 8053, 8166, 8164, 8133,3.71909761428833
71, 8200, 8157, 8167, 8183, 8188, 8169, 8187, 8178, 8178, 8188, 8053, 8166, 8164, 8133,3.719878911972046
72, 8193, 8175, 8163, 8178, 8172, 8184, 8179, 8183, 8244, 8166, 8039, 8195, 8175, 8126,3.726797342300415
72, 8193, 8175, 8163, 8178, 8172, 8184, 8179, 8183, 8244, 8166, 8039, 8195, 8175, 8126,3.726797342300415
73, 8164, 8144, 8133, 8151, 8170, 8184, 8188, 8163, 8132, 8156, 8026, 8150, 8155, 8100,3.7348031997680664
73, 8164, 8144, 8133, 8151, 8170, 8184, 8188, 8163, 8132, 8156, 8026, 8150, 8155, 8100,3.7348031997680664
74, 8188, 8161, 8145, 8164, 8167, 8201, 8181, 8162, 8173, 8151, 8027, 8182, 8163, 8119,3.7418107986450195
74, 8188, 8161, 8145, 8164, 8167, 8201, 8181, 8162, 8173, 8151, 8027, 8182, 8163, 8119,3.742802858352661
75, 8179, 8155, 8151, 8164, 8164, 8193, 8177, 8167, 8192, 8156, 8043, 8191, 8170, 8116,3.750440835952759
75, 8179, 8155, 8151, 8164, 8164, 8193, 8177, 8167, 8192, 8156, 8043, 8191, 8170, 8116,3.7508139610290527
76, 8186, 8147, 8148, 8173, 8177, 8188, 8191, 8167, 8126, 8169, 8054, 8167, 8166, 8114,3.7578186988830566
76, 8186, 8147, 8148, 8173, 8177, 8188, 8191, 8167, 8126, 8169, 8054, 8167, 8166, 8114,3.7578186988830566
77, 8210, 8185, 8174, 8190, 8178, 8191, 8181, 8174, 8239, 8166, 8059, 8215, 8184, 8137,3.7659032344818115
77, 8210, 8185, 8174, 8190, 8178, 8191, 8181, 8174, 8239, 8166, 8059, 8215, 8184, 8137,3.7659032344818115
78, 8180, 8165, 8177, 8174, 8188, 8170, 8180, 8171, 8195, 8191, 8090, 8185, 8179, 8137,3.774301290512085
78, 8180, 8165, 8177, 8174, 8188, 8170, 8180, 8171, 8195, 8191, 8090, 8185, 8179, 8137,3.774301290512085
79, 8195, 8183, 8189, 8196, 8186, 8182, 8186, 8181, 8233, 8188, 8087, 8195, 8171, 8141,3.782301187515259
79, 8195, 8183, 8189, 8196, 8186, 8182, 8186, 8181, 8233, 8188, 8087, 8195, 8171, 8141,3.782301187515259
80, 8210, 8187, 8180, 8201, 8183, 8183, 8195, 8182, 8249, 8170, 8066, 8194, 8162, 8140,3.7904415130615234
80, 8210, 8187, 8180, 8201, 8183, 8183, 8195, 8182, 8249, 8170, 8066, 8194, 8162, 8140,3.7904415130615234
81, 8200, 8160, 8163, 8180, 8189, 8178, 8192, 8168, 8154, 8177, 8076, 8164, 8162, 8143,3.7974061965942383
81, 8200, 8160, 8163, 8180, 8189, 8178, 8192, 8168, 8154, 8177, 8076, 8164, 8162, 8143,3.7974061965942383
82, 8185, 8175, 8173, 8177, 8170, 8191, 8165, 8169, 8228, 8157, 8077, 8203, 8175, 8136,3.8054420948028564
82, 8185, 8175, 8173, 8177, 8170, 8191, 8165, 8169, 8228, 8157, 8077, 8203, 8175, 8136,3.8054420948028564
83, 8166, 8156, 8162, 8172, 8176, 8183, 8173, 8165, 8168, 8165, 8083, 8168, 8159, 8122,3.8130745887756348
83, 8166, 8156, 8162, 8172, 8176, 8183, 8173, 8165, 8168, 8165, 8083, 8168, 8159, 8122,3.814068078994751
84, 8221, 8182, 8186, 8193, 8191, 8192, 8190, 8176, 8213, 8183, 8098, 8194, 8172, 8160,3.8210675716400146
84, 8221, 8182, 8186, 8193, 8191, 8192, 8190, 8176, 8213, 8183, 8098, 8194, 8172, 8160,3.8210675716400146
85, 8221, 8190, 8198, 8192, 8188, 8182, 8190, 8183, 8273, 8183, 8111, 8213, 8182, 8162,3.829441785812378
85, 8221, 8190, 8198, 8192, 8188, 8182, 8190, 8183, 8273, 8183, 8111, 8213, 8182, 8162,3.829441785812378
86, 8186, 8161, 8176, 8188, 8199, 8173, 8198, 8176, 8183, 8191, 8118, 8168, 8165, 8142,3.8374054431915283
86, 8186, 8161, 8176, 8188, 8199, 8173, 8198, 8176, 8183, 8191, 8118, 8168, 8165, 8142,3.8374054431915283
87, 8202, 8188, 8194, 8209, 8196, 8195, 8200, 8187, 8280, 8186, 8116, 8213, 8174, 8155,3.8459184169769287
87, 8202, 8188, 8194, 8209, 8196, 8195, 8200, 8187, 8280, 8186, 8116, 8213, 8174, 8155,3.8459184169769287
88, 8193, 8173, 8190, 8197, 8207, 8191, 8214, 8183, 8244, 8203, 8129, 8188, 8171, 8149,3.8530142307281494
88, 8193, 8173, 8190, 8197, 8207, 8191, 8214, 8183, 8244, 8203, 8129, 8188, 8171, 8149,3.8530142307281494
89, 8208, 8179, 8183, 8192, 8208, 8191, 8215, 8184, 8229, 8203, 8120, 8181, 8167, 8153,3.8605175018310547
89, 8208, 8179, 8183, 8192, 8208, 8191, 8215, 8184, 8229, 8203, 8120, 8181, 8167, 8153,3.8605175018310547
90, 8204, 8188, 8181, 8187, 8196, 8177, 8202, 8195, 8272, 8187, 8101, 8194, 8169, 8154,3.8679704666137695
90, 8204, 8188, 8181, 8187, 8196, 8177, 8202, 8195, 8272, 8187, 8101, 8194, 8169, 8154,3.8679704666137695
91, 8192, 8165, 8175, 8178, 8203, 8168, 8209, 8188, 8186, 8194, 8107, 8158, 8164, 8153,3.8759961128234863
91, 8192, 8165, 8175, 8178, 8203, 8168, 8209, 8188, 8186, 8194, 8107, 8158, 8164, 8153,3.8759961128234863
92, 8207, 8186, 8186, 8188, 8191, 8183, 8198, 8187, 8258, 8172, 8099, 8203, 8171, 8162,3.884042501449585
92, 8207, 8186, 8186, 8188, 8191, 8183, 8198, 8187, 8258, 8172, 8099, 8203, 8171, 8162,3.885035276412964
93, 8184, 8166, 8169, 8177, 8184, 8170, 8194, 8175, 8210, 8179, 8100, 8182, 8162, 8147,3.892441749572754
93, 8184, 8166, 8169, 8177, 8184, 8170, 8194, 8175, 8210, 8179, 8100, 8182, 8162, 8147,3.892441749572754
94, 8199, 8169, 8174, 8179, 8175, 8164, 8178, 8160, 8171, 8184, 8103, 8173, 8162, 8148,3.900745153427124
94, 8199, 8169, 8174, 8179, 8175, 8164, 8178, 8160, 8171, 8184, 8103, 8173, 8162, 8148,3.900745153427124
95, 8200, 8179, 8186, 8180, 8168, 8166, 8165, 8158, 8216, 8158, 8100, 8199, 8171, 8146,3.9088194370269775
95, 8200, 8179, 8186, 8180, 8168, 8166, 8165, 8158, 8216, 8158, 8100, 8199, 8171, 8146,3.9088194370269775
96, 8180, 8154, 8173, 8176, 8195, 8174, 8199, 8174, 8154, 8181, 8116, 8166, 8167, 8147,3.9158267974853516
96, 8180, 8154, 8173, 8176, 8195, 8174, 8199, 8174, 8154, 8181, 8116, 8166, 8167, 8147,3.916820764541626
97, 8203, 8180, 8191, 8189, 8191, 8192, 8203, 8194, 8254, 8188, 8112, 8202, 8175, 8158,3.9234418869018555
97, 8203, 8180, 8191, 8189, 8191, 8192, 8203, 8194, 8254, 8188, 8112, 8202, 8175, 8158,3.9234418869018555
98, 8195, 8167, 8185, 8179, 8185, 8186, 8202, 8181, 8215, 8179, 8111, 8180, 8163, 8140,3.9314167499542236
98, 8195, 8167, 8185, 8179, 8185, 8186, 8202, 8181, 8215, 8179, 8111, 8180, 8163, 8140,3.9314167499542236
99, 8200, 8165, 8186, 8185, 8196, 8201, 8210, 8181, 8172, 8175, 8118, 8171, 8162, 8150,3.939436912536621
99, 8200, 8165, 8186, 8185, 8196, 8201, 8210, 8181, 8172, 8175, 8118, 8171, 8162, 8150,3.939436912536621
100, 8199, 8188, 8204, 8192, 8197, 8204, 8204, 8199, 8267, 8179, 8121, 8205, 8180, 8158,3.947617530822754
100, 8199, 8188, 8204, 8192, 8197, 8204, 8204, 8199, 8267, 8179, 8121, 8205, 8180, 8158,3.947617530822754
101, 8190, 8166, 8188, 8184, 8217, 8185, 8219, 8188, 8191, 8205, 8134, 8161, 8168, 8143,3.9556071758270264
101, 8190, 8166, 8188, 8184, 8217, 8185, 8219, 8188, 8191, 8205, 8134, 8161, 8168, 8143,3.9556071758270264
102, 8206, 8181, 8186, 8195, 8212, 8198, 8214, 8183, 8241, 8185, 8120, 8189, 8168, 8149,3.963441848754883
102, 8206, 8181, 8186, 8195, 8212, 8198, 8214, 8183, 8241, 8185, 8120, 8189, 8168, 8149,3.963441848754883
103, 8172, 8166, 8167, 8177, 8196, 8192, 8197, 8181, 8214, 8178, 8108, 8178, 8165, 8139,3.9714410305023193
103, 8172, 8166, 8167, 8177, 8196, 8192, 8197, 8181, 8214, 8178, 8108, 8178, 8165, 8139,3.9714410305023193
104, 8171, 8160, 8168, 8170, 8196, 8185, 8197, 8185, 8168, 8195, 8121, 8164, 8170, 8145,3.9794416427612305
104, 8171, 8160, 8168, 8170, 8196, 8185, 8197, 8185, 8168, 8195, 8121, 8164, 8170, 8145,3.9794416427612305
105, 8185, 8177, 8190, 8179, 8193, 8187, 8199, 8193, 8261, 8187, 8121, 8206, 8180, 8153,3.986440896987915
105, 8185, 8177, 8190, 8179, 8193, 8187, 8199, 8193, 8261, 8187, 8121, 8206, 8180, 8153,3.986440896987915
106, 8180, 8159, 8180, 8177, 8209, 8184, 8207, 8185, 8188, 8207, 8122, 8169, 8169, 8152,3.9946460723876953
106, 8180, 8159, 8180, 8177, 8209, 8184, 8207, 8185, 8188, 8207, 8122, 8169, 8169, 8152,3.9946460723876953
107, 8211, 8192, 8206, 8192, 8206, 8204, 8205, 8196, 8249, 8209, 8121, 8193, 8176, 8175,4.002642631530762
107, 8211, 8192, 8206, 8192, 8206, 8204, 8205, 8196, 8249, 8209, 8121, 8193, 8176, 8175,4.002642631530762
108, 8190, 8176, 8198, 8174, 8192, 8193, 8212, 8195, 8237, 8197, 8121, 8175, 8166, 8155,4.010441780090332
108, 8190, 8176, 8198, 8174, 8192, 8193, 8212, 8195, 8237, 8197, 8121, 8175, 8166, 8155,4.010441780090332
109, 8177, 8156, 8174, 8165, 8199, 8187, 8214, 8185, 8166, 8196, 8118, 8155, 8160, 8140,4.018441677093506
109, 8177, 8156, 8174, 8165, 8199, 8187, 8214, 8185, 8166, 8196, 8118, 8155, 8160, 8140,4.018441677093506
110, 8196, 8185, 8196, 8185, 8201, 8198, 8200, 8195, 8268, 8188, 8108, 8210, 8179, 8157,4.026451110839844
110, 8196, 8185, 8196, 8185, 8201, 8198, 8200, 8195, 8268, 8188, 8108, 8210, 8179, 8157,4.02697491645813
111, 8184, 8162, 8194, 8178, 8201, 8196, 8216, 8189, 8194, 8202, 8121, 8169, 8170, 8155,4.034432411193848
111, 8184, 8162, 8194, 8178, 8201, 8196, 8216, 8189, 8194, 8202, 8121, 8169, 8170, 8155,4.034432411193848
112, 8189, 8178, 8198, 8183, 8187, 8205, 8211, 8193, 8233, 8197, 8126, 8188, 8171, 8157,4.04243016242981
112, 8189, 8178, 8198, 8183, 8187, 8205, 8211, 8193, 8233, 8197, 8126, 8188, 8171, 8157,4.04342794418335
113, 8182, 8183, 8199, 8185, 8190, 8185, 8210, 8201, 8270, 8203, 8132, 8203, 8173, 8157,4.049443244934082
113, 8182, 8183, 8199, 8185, 8190, 8185, 8210, 8201, 8270, 8203, 8132, 8203, 8173, 8157,4.049443244934082
114, 8194, 8172, 8209, 8191, 8206, 8173, 8233, 8202, 8225, 8233, 8159, 8180, 8176, 8182,4.057485818862915
114, 8194, 8172, 8209, 8191, 8206, 8173, 8233, 8202, 8225, 8233, 8159, 8180, 8176, 8182,4.057485818862915
115, 8205, 8198, 8226, 8199, 8193, 8179, 8219, 8199, 8313, 8217, 8156, 8211, 8184, 8188,4.065805673599243
115, 8205, 8198, 8226, 8199, 8193, 8179, 8219, 8199, 8313, 8217, 8156, 8211, 8184, 8188,4.065805673599243
116, 8178, 8168, 8193, 8184, 8201, 8162, 8208, 8180, 8206, 8197, 8134, 8163, 8159, 8148,4.072805643081665
116, 8178, 8168, 8193, 8184, 8201, 8162, 8208, 8180, 8206, 8197, 8134, 8163, 8159, 8148,4.0737996101379395
117, 8198, 8176, 8188, 8193, 8203, 8169, 8207, 8188, 8211, 8191, 8124, 8182, 8163, 8148,4.081441402435303
117, 8198, 8176, 8188, 8193, 8203, 8169, 8207, 8188, 8211, 8191, 8124, 8182, 8163, 8148,4.081441402435303
118, 8196, 8178, 8192, 8184, 8188, 8160, 8214, 8197, 8254, 8198, 8138, 8198, 8177, 8161,4.088874578475952
118, 8196, 8178, 8192, 8184, 8188, 8160, 8214, 8197, 8254, 8198, 8138, 8198, 8177, 8161,4.088874578475952
119, 8185, 8160, 8183, 8181, 8201, 8152, 8224, 8188, 8176, 8201, 8151, 8164, 8165, 8165,4.096873998641968
119, 8185, 8160, 8183, 8181, 8201, 8152, 8224, 8188, 8176, 8201, 8151, 8164, 8165, 8165,4.097866535186768
120, 8202, 8184, 8193, 8202, 8200, 8169, 8210, 8193, 8260, 8181, 8139, 8205, 8169, 8164,4.104875326156616
120, 8202, 8184, 8193, 8202, 8200, 8169, 8210, 8193, 8260, 8181, 8139, 8205, 8169, 8164,4.104875326156616
121, 8181, 8160, 8177, 8182, 8194, 8168, 8212, 8186, 8206, 8195, 8149, 8181, 8165, 8146,4.113441467285156
121, 8181, 8160, 8177, 8182, 8194, 8168, 8212, 8186, 8206, 8195, 8149, 8181, 8165, 8146,4.113441467285156
122, 8197, 8177, 8185, 8184, 8194, 8180, 8213, 8191, 8214, 8192, 8154, 8192, 8171, 8155,4.119930028915405
122, 8197, 8177, 8185, 8184, 8194, 8180, 8213, 8191, 8214, 8192, 8154, 8192, 8171, 8155,4.120919942855835
123, 8199, 8190, 8196, 8190, 8196, 8171, 8214, 8192, 8258, 8181, 8147, 8203, 8175, 8155,4.128441095352173
123, 8199, 8190, 8196, 8190, 8196, 8171, 8214, 8192, 8258, 8181, 8147, 8203, 8175, 8155,4.128441095352173
124, 8188, 8164, 8187, 8190, 8201, 8158, 8222, 8176, 8176, 8194, 8154, 8162, 8165, 8151,4.136463165283203
124, 8188, 8164, 8187, 8190, 8201, 8158, 8222, 8176, 8176, 8194, 8154, 8162, 8165, 8151,4.136463165283203
125, 8207, 8191, 8198, 8201, 8186, 8171, 8212, 8182, 8259, 8173, 8144, 8200, 8173, 8154,4.144463539123535
125, 8207, 8191, 8198, 8201, 8186, 8171, 8212, 8182, 8259, 8173, 8144, 8200, 8173, 8154,4.144463539123535
126, 8190, 8174, 8190, 8184, 8197, 8160, 8219, 8186, 8206, 8186, 8156, 8174, 8169, 8140,4.152441740036011
126, 8190, 8174, 8190, 8184, 8197, 8160, 8219, 8186, 8206, 8186, 8156, 8174, 8169, 8140,4.152441740036011
127, 8197, 8171, 8200, 8187, 8195, 8160, 8204, 8184, 8191, 8196, 8166, 8181, 8171, 8149,4.160932302474976
127, 8197, 8171, 8200, 8187, 8195, 8160, 8204, 8184, 8191, 8196, 8166, 8181, 8171, 8149,4.160932302474976
239, 8195, 8174, 8194, 8186, 8167, 8152, 8176, 8176, 8238, 8172, 8155, 8204, 8171, 8139,4.16897177696228
239, 8195, 8174, 8194, 8186, 8167, 8152, 8176, 8176, 8238, 8172, 8155, 8204, 8171, 8139,4.16897177696228
0, 8184, 8159, 8167, 8178, 8177, 8144, 8189, 8174, 8143, 8181, 8163, 8159, 8163, 8127,4.174745798110962
0, 8184, 8159, 8167, 8178, 8177, 8144, 8189, 8174, 8143, 8181, 8163, 8159, 8163, 8127,4.175740480422974
1, 8200, 8195, 8189, 8193, 8178, 8166, 8188, 8193, 8233, 8186, 8162, 8203, 8176, 8146,4.183739900588989
1, 8200, 8195, 8189, 8193, 8178, 8166, 8188, 8193, 8233, 8186, 8162, 8203, 8176, 8146,4.183739900588989
2, 8182, 8177, 8185, 8181, 8178, 8159, 8189, 8186, 8213, 8195, 8161, 8187, 8165, 8145,4.19143533706665
2, 8182, 8177, 8185, 8181, 8178, 8159, 8189, 8186, 8213, 8195, 8161, 8187, 8165, 8145,4.19143533706665
3, 8199, 8170, 8175, 8185, 8182, 8156, 8196, 8180, 8189, 8198, 8166, 8184, 8167, 8155,4.199441432952881
3, 8199, 8170, 8175, 8185, 8182, 8156, 8196, 8180, 8189, 8198, 8166, 8184, 8167, 8155,4.199441432952881
4, 8200, 8188, 8187, 8189, 8169, 8163, 8199, 8192, 8260, 8190, 8171, 8213, 8175, 8157,4.206958055496216
4, 8200, 8188, 8187, 8189, 8169, 8163, 8199, 8192, 8260, 8190, 8171, 8213, 8175, 8157,4.206958055496216
5, 8176, 8170, 8183, 8180, 8169, 8170, 8215, 8192, 8176, 8202, 8179, 8170, 8160, 8142,4.214958906173706
5, 8176, 8170, 8183, 8180, 8169, 8170, 8215, 8192, 8176, 8202, 8179, 8170, 8160, 8142,4.215951681137085
6, 8196, 8191, 8195, 8187, 8159, 8178, 8205, 8195, 8237, 8188, 8172, 8202, 8171, 8149,4.223990440368652
6, 8196, 8191, 8195, 8187, 8159, 8178, 8205, 8195, 8237, 8188, 8172, 8202, 8171, 8149,4.223990440368652
7, 8174, 8166, 8176, 8170, 8156, 8151, 8193, 8182, 8196, 8183, 8178, 8183, 8166, 8139,4.231444358825684
7, 8174, 8166, 8176, 8170, 8156, 8151, 8193, 8182, 8196, 8183, 8178, 8183, 8166, 8139,4.231444358825684
8, 8171, 8159, 8162, 8172, 8161, 8154, 8191, 8170, 8143, 8181, 8178, 8170, 8161, 8130,4.239441633224487
8, 8171, 8159, 8162, 8172, 8161, 8154, 8191, 8170, 8143, 8181, 8178, 8170, 8161, 8130,4.239441633224487
9, 8178, 8180, 8173, 8174, 8153, 8173, 8188, 8181, 8218, 8163, 8169, 8211, 8174, 8125,4.246440410614014
9, 8178, 8180, 8173, 8174, 8153, 8173, 8188, 8181, 8218, 8163, 8169, 8211, 8174, 8125,4.246440410614014
10, 8173, 8158, 8173, 8157, 8165, 8174, 8206, 8192, 8156, 8188, 8195, 8175, 8169, 8124,4.254440069198608
10, 8173, 8158, 8173, 8157, 8165, 8174, 8206, 8192, 8156, 8188, 8195, 8175, 8169, 8124,4.254440069198608
11, 8204, 8182, 8196, 8178, 8162, 8185, 8203, 8198, 8243, 8192, 8193, 8200, 8175, 8144,4.262722492218018
11, 8204, 8182, 8196, 8178, 8162, 8185, 8203, 8198, 8243, 8192, 8193, 8200, 8175, 8144,4.262722492218018
12, 8173, 8164, 8179, 8173, 8160, 8176, 8194, 8176, 8214, 8179, 8175, 8178, 8167, 8127,4.27044153213501
12, 8173, 8164, 8179, 8173, 8160, 8176, 8194, 8176, 8214, 8179, 8175, 8178, 8167, 8127,4.27044153213501
13, 8159, 8149, 8167, 8162, 8168, 8173, 8186, 8170, 8137, 8186, 8180, 8159, 8164, 8121,4.277405261993408
13, 8159, 8149, 8167, 8162, 8168, 8173, 8186, 8170, 8137, 8186, 8180, 8159, 8164, 8121,4.278766870498657
14, 8183, 8179, 8197, 8175, 8166, 8170, 8176, 8190, 8249, 8190, 8192, 8212, 8179, 8138,4.285778284072876
14, 8183, 8179, 8197, 8175, 8166, 8170, 8176, 8190, 8249, 8190, 8192, 8212, 8179, 8138,4.285778284072876
15, 8180, 8162, 8199, 8186, 8194, 8162, 8200, 8193, 8209, 8214, 8223, 8184, 8170, 8144,4.293858766555786
15, 8180, 8162, 8199, 8186, 8194, 8162, 8200, 8193, 8209, 8214, 8223, 8184, 8170, 8144,4.293858766555786
16, 8198, 8182, 8198, 8195, 8195, 8175, 8198, 8192, 8249, 8202, 8218, 8201, 8165, 8150,4.302441120147705
16, 8198, 8182, 8198, 8195, 8195, 8175, 8198, 8192, 8249, 8202, 8218, 8201, 8165, 8150,4.302441120147705
17, 8176, 8180, 8175, 8173, 8179, 8159, 8184, 8180, 8218, 8180, 8196, 8185, 8163, 8129,4.310441255569458
17, 8176, 8180, 8175, 8173, 8179, 8159, 8184, 8180, 8218, 8180, 8196, 8185, 8163, 8129,4.310441255569458
18, 8183, 8177, 8177, 8177, 8189, 8161, 8204, 8185, 8174, 8202, 8204, 8166, 8172, 8145,4.317405462265015
18, 8183, 8177, 8177, 8177, 8189, 8161, 8204, 8185, 8174, 8202, 8204, 8166, 8172, 8145,4.317405462265015
19, 8205, 8187, 8195, 8184, 8179, 8173, 8208, 8200, 8294, 8203, 8203, 8211, 8177, 8165,4.325230360031128
19, 8205, 8187, 8195, 8184, 8179, 8173, 8208, 8200, 8294, 8203, 8203, 8211, 8177, 8165,4.325230360031128
20, 8167, 8144, 8156, 8153, 8171, 8146, 8198, 8179, 8180, 8199, 8190, 8163, 8152, 8133,4.333443880081177
20, 8167, 8144, 8156, 8153, 8171, 8146, 8198, 8179, 8180, 8199, 8190, 8163, 8152, 8133,4.333443880081177
21, 8162, 8168, 8158, 8167, 8168, 8152, 8178, 8182, 8191, 8183, 8180, 8185, 8166, 8134,4.341242551803589
21, 8162, 8168, 8158, 8167, 8168, 8152, 8178, 8182, 8191, 8183, 8180, 8185, 8166, 8134,4.341242551803589
22, 8153, 8173, 8168, 8178, 8164, 8159, 8176, 8196, 8241, 8182, 8181, 8195, 8171, 8128,4.3494415283203125
22, 8153, 8173, 8168, 8178, 8164, 8159, 8176, 8196, 8241, 8182, 8181, 8195, 8171, 8128,4.3494415283203125
23, 8159, 8147, 8156, 8163, 8166, 8154, 8186, 8177, 8154, 8191, 8178, 8159, 8155, 8116,4.357163429260254
23, 8159, 8147, 8156, 8163, 8166, 8154, 8186, 8177, 8154, 8191, 8178, 8159, 8155, 8116,4.358162879943848
24, 8169, 8175, 8172, 8167, 8164, 8163, 8173, 8171, 8221, 8173, 8172, 8207, 8173, 8127,4.365946054458618
24, 8169, 8175, 8172, 8167, 8164, 8163, 8173, 8171, 8221, 8173, 8172, 8207, 8173, 8127,4.365946054458618
25, 8150, 8161, 8172, 8167, 8176, 8165, 8182, 8176, 8180, 8191, 8189, 8179, 8173, 8126,4.372967481613159
25, 8150, 8161, 8172, 8167, 8176, 8165, 8182, 8176, 8180, 8191, 8189, 8179, 8173, 8126,4.373961687088013
26, 8181, 8171, 8188, 8178, 8171, 8169, 8183, 8184, 8208, 8195, 8191, 8189, 8171, 8142,4.380441665649414
26, 8181, 8171, 8188, 8178, 8171, 8169, 8183, 8184, 8208, 8195, 8191, 8189, 8171, 8142,4.380441665649414
27, 8180, 8172, 8195, 8185, 8168, 8157, 8169, 8183, 8235, 8186, 8194, 8201, 8174, 8139,4.388146638870239
27, 8180, 8172, 8195, 8185, 8168, 8157, 8169, 8183, 8235, 8186, 8194, 8201, 8174, 8139,4.388146638870239
28, 8175, 8162, 8189, 8193, 8194, 8163, 8177, 8181, 8168, 8210, 8213, 8167, 8168, 8139,4.396144390106201
28, 8175, 8162, 8189, 8193, 8194, 8163, 8177, 8181, 8168, 8210, 8213, 8167, 8168, 8139,4.397140264511108
29, 8197, 8194, 8201, 8197, 8191, 8184, 8182, 8194, 8276, 8214, 8207, 8208, 8176, 8150,4.4041831493377686
29, 8197, 8194, 8201, 8197, 8191, 8184, 8182, 8194, 8276, 8214, 8207, 8208, 8176, 8150,4.405184268951416
30, 8172, 8165, 8178, 8174, 8192, 8172, 8193, 8190, 8214, 8222, 8212, 8178, 8168, 8135,4.412441968917847
30, 8172, 8165, 8178, 8174, 8192, 8172, 8193, 8190, 8214, 8222, 8212, 8178, 8168, 8135,4.412441968917847
31, 8170, 8168, 8170, 8178, 8188, 8182, 8185, 8177, 8192, 8204, 8206, 8176, 8168, 8138,4.420876979827881
31, 8170, 8168, 8170, 8178, 8188, 8182, 8185, 8177, 8192, 8204, 8206, 8176, 8168, 8138,4.420876979827881
32, 8159, 8174, 8168, 8167, 8168, 8178, 8174, 8171, 8214, 8186, 8183, 8180, 8168, 8131,4.428680658340454
32, 8159, 8174, 8168, 8167, 8168, 8178, 8174, 8171, 8214, 8186, 8183, 8180, 8168, 8131,4.428680658340454
33, 8141, 8147, 8148, 8149, 8175, 8167, 8178, 8174, 8122, 8201, 8185, 8141, 8155, 8119,4.436680316925049
33, 8141, 8147, 8148, 8149, 8175, 8167, 8178, 8174, 8122, 8201, 8185, 8141, 8155, 8119,4.436680316925049
34, 8150, 8173, 8149, 8162, 8170, 8193, 8161, 8185, 8214, 8181, 8177, 8185, 8163, 8119,4.443442344665527
34, 8150, 8173, 8149, 8162, 8170, 8193, 8161, 8185, 8214, 8181, 8177, 8185, 8163, 8119,4.443442344665527
35, 8134, 8161, 8137, 8155, 8174, 8197, 8169, 8172, 8176, 8181, 8179, 8159, 8161, 8108,4.45144510269165
35, 8134, 8161, 8137, 8155, 8174, 8197, 8169, 8172, 8176, 8181, 8179, 8159, 8161, 8108,4.45144510269165
36, 8153, 8169, 8148, 8155, 8178, 8204, 8175, 8173, 8161, 8186, 8188, 8163, 8169, 8120,4.459441661834717
36, 8153, 8169, 8148, 8155, 8178, 8204, 8175, 8173, 8161, 8186, 8188, 8163, 8169, 8120,4.459441661834717
37, 8153, 8176, 8154, 8149, 8168, 8206, 8161, 8177, 8213, 8170, 8186, 8195, 8170, 8119,4.467461109161377
