COUNTER,F3,FC5,AF3,F7,T7,P7,O1,O2,P8,T8,F8,AF4,FC6,F4,Timestamp
13,8182,8168,8184,8181,8165,8045,8142,8160,8132,8162,8211,8168,8164,8157,0.0020012855529785
14,8193,8177,8176,8184,8167,8068,8164,8161,8124,8180,8207,8168,8163,8162,0.0094456672668457
14,8193,8177,8176,8184,8167,8068,8164,8161,8124,8180,8207,8168,8163,8162,0.0104420185089111
15,8173,8191,8170,8178,8158,8073,8151,8171,8202,8174,8204,8188,8174,8166,0.0174429416656494
15,8173,8191,8170,8178,8158,8073,8151,8171,8202,8174,8204,8188,8174,8166,0.0184431076049804
16,8177,8170,8162,8184,8177,8057,8145,8171,8106,8195,8225,8162,8175,8172,0.0254440307617187
17,8204,8187,8180,8201,8168,8050,8135,8165,8189,8172,8214,8183,8168,8175,0.0340068340301513
17,8204,8187,8180,8201,8168,8050,8135,8165,8189,8172,8214,8183,8168,8175,0.0344462394714355
18,8167,8164,8168,8187,8170,8074,8147,8157,8122,8162,8219,8159,8161,8162,0.0419480800628662
19,8182,8174,8167,8197,8171,8088,8149,8167,8108,8182,8216,8166,8167,8174,0.0499603748321533
20,8200,8181,8187,8192,8151,8071,8134,8166,8181,8170,8196,8187,8170,8167,0.0574610233306884
20,8200,8181,8187,8192,8151,8071,8134,8166,8181,8170,8196,8187,8170,8167,0.0584657192230224
21,8174,8147,8203,8175,8165,8079,8142,8150,8045,8159,8215,8149,8163,8153,0.0663962364196777
22,8184,8188,8234,8196,8163,8089,8128,8161,8141,8147,8208,8180,8171,8155,0.0723977088928222
22,8184,8188,8234,8196,8163,8089,8128,8161,8141,8147,8208,8180,8171,8155,0.0733957290649414
23,8182,8170,8208,8186,8165,8071,8130,8161,8113,8173,8196,8164,8169,8136,0.0810065269470214
24,8188,8143,8191,8170,8160,8073,8140,8154,8053,8178,8197,8146,8160,8140,0.0894067287445068
25,8185,8176,8216,8180,8146,8092,8140,8166,8158,8159,8210,8182,8167,8159,0.0964143276214599
25,8185,8176,8216,8180,8146,8092,8140,8166,8158,8159,8210,8182,8167,8159,0.0974071025848388
26,8180,8175,8215,8192,8186,8100,8164,8174,8097,8200,8236,8169,8174,8172,0.1050066947937011
26,8180,8175,8215,8192,8186,8100,8164,8174,8097,8200,8236,8169,8174,8172,0.1054186820983886
27,8192,8186,8213,8202,8177,8091,8152,8183,8188,8194,8214,8184,8177,8169,0.1130130290985107
28,8177,8157,8199,8186,8153,8089,8152,8185,8156,8188,8212,8161,8170,8151,0.1209795475006103
29,8201,8159,8203,8182,8166,8099,8170,8181,8104,8212,8225,8162,8165,8170,0.1290004253387451
30,8189,8183,8200,8173,8157,8090,8149,8168,8192,8190,8204,8193,8168,8161,0.1360177993774414
31,8149,8150,8166,8160,8160,8079,8138,8155,8042,8180,8206,8147,8164,8125,0.1440176963806152
32,8191,8181,8187,8189,8155,8089,8135,8168,8103,8165,8197,8165,8169,8138,0.1517057418823242
33,8208,8174,8204,8184,8163,8097,8159,8168,8131,8176,8196,8171,8173,8153,0.1598007678985595
34,8194,8157,8202,8173,8186,8098,8174,8172,8066,8194,8215,8162,8174,8164,0.168008804321289
35,8184,8182,8208,8184,8172,8084,8150,8192,8181,8177,8207,8192,8173,8159,0.1758418083190918
36,8184,8154,8192,8170,8181,8078,8167,8182,8086,8205,8209,8150,8166,8154,0.1840107440948486
37,8211,8176,8207,8180,8184,8086,8175,8178,8138,8202,8202,8165,8171,8172,0.1920416355133056
38,8186,8178,8203,8192,8186,8081,8165,8185,8176,8184,8212,8177,8172,8159,0.1990406513214111
39,8189,8160,8188,8194,8197,8080,8168,8180,8081,8189,8224,8155,8167,8152,0.2073559761047363
40,8217,8187,8214,8193,8183,8085,8159,8174,8162,8157,8196,8183,8165,8157,0.215012788772583
41,8200,8167,8218,8185,8194,8090,8170,8175,8073,8167,8203,8162,8164,8159,0.2230703830718994
42,8214,8180,8220,8195,8180,8082,8163,8186,8115,8174,8207,8178,8172,8170,0.231083869934082
43,8204,8175,8213,8184,8164,8077,8155,8183,8157,8179,8210,8184,8173,8160,0.2391011714935302
44,8199,8161,8208,8183,8193,8101,8171,8184,8079,8207,8232,8162,8169,8164,0.2471191883087158
45,8214,8196,8227,8193,8190,8115,8162,8193,8212,8192,8222,8197,8175,8173,0.2550106048583984
46,8195,8165,8219,8178,8198,8119,8179,8187,8141,8208,8236,8172,8172,8163,0.2630097866058349
47,8211,8171,8223,8190,8205,8136,8184,8195,8158,8221,8239,8180,8174,8173,0.2700083255767822
48,8209,8184,8226,8191,8201,8144,8172,8197,8226,8204,8233,8200,8181,8175,0.2780084609985351
49,8207,8161,8221,8187,8216,8159,8193,8187,8122,8213,8247,8177,8174,8174,0.2859728336334228
50,8223,8185,8238,8200,8197,8170,8190,8191,8208,8197,8226,8197,8166,8155,0.2939679622650146
51,8208,8167,8222,8183,8210,8164,8195,8190,8133,8214,8226,8171,8165,8141,0.3020074367523193
52,8219,8178,8226,8185,8232,8166,8199,8202,8157,8233,8237,8185,8177,8178,0.3100073337554931
53,8206,8185,8234,8186,8217,8165,8195,8208,8246,8215,8225,8197,8179,8172,0.3179991245269775
54,8189,8152,8220,8181,8228,8167,8204,8198,8107,8219,8227,8159,8168,8151,0.3259954452514648
55,8209,8188,8228,8204,8227,8176,8186,8209,8208,8204,8223,8201,8175,8170,0.3330175876617431
55,8209,8188,8228,8204,8227,8176,8186,8209,8208,8204,8223,8201,8175,8170,0.333451509475708
56,8206,8178,8216,8198,8227,8178,8194,8210,8192,8211,8232,8182,8176,8171,0.34114670753479
57,8214,8172,8222,8194,8222,8176,8201,8201,8157,8218,8231,8169,8172,8167,0.3491635322570801
58,8205,8181,8220,8202,8216,8180,8191,8205,8222,8204,8223,8195,8177,8163,0.3560638427734375
58,8205,8181,8220,8202,8216,8180,8191,8205,8222,8204,8223,8195,8177,8163,0.3575809001922607
59,8195,8158,8204,8197,8232,8189,8198,8197,8100,8219,8246,8166,8175,8163,0.3650071620941162
60,8217,8193,8267,8209,8210,8186,8182,8188,8194,8208,8236,8201,8171,8169,0.3730065822601318
61,8210,8177,8294,8205,8211,8176,8186,8185,8189,8224,8237,8199,8168,8165,0.3810071945190429
62,8219,8166,8254,8205,8229,8176,8193,8194,8147,8227,8243,8183,8169,8171,0.3892431259155273
63,8213,8190,8236,8203,8210,8176,8185,8197,8232,8204,8225,8202,8170,8166,0.3960075378417969
64,8204,8171,8239,8196,8218,8183,8199,8189,8139,8250,8245,8180,8173,8178,0.4041647911071777
65,8229,8195,8261,8213,8218,8178,8176,8197,8239,8246,8248,8209,8186,8202,0.4121637344360351
66,8208,8176,8245,8202,8217,8162,8167,8192,8209,8218,8237,8197,8176,8187,0.4201784133911133
67,8203,8164,8227,8188,8219,8166,8180,8176,8106,8214,8224,8179,8162,8182,0.4277679920196533
68,8205,8192,8229,8192,8195,8162,8160,8175,8195,8187,8213,8208,8172,8170,0.4362125396728515
69,8193,8161,8215,8186,8208,8163,8170,8174,8087,8201,8235,8177,8173,8155,0.4439337253570556
70,8204,8170,8223,8186,8210,8173,8166,8175,8135,8192,8230,8196,8172,8171,0.4519269466400146
71,8186,8160,8211,8176,8209,8168,8159,8172,8147,8188,8222,8191,8170,8166,0.4590067863464355
72,8181,8145,8192,8171,8212,8164,8162,8170,8058,8199,8215,8165,8160,8155,0.467278242111206
73,8170,8164,8192,8163,8180,8166,8142,8174,8128,8166,8185,8189,8158,8142,0.4746310710906982
74,8160,8138,8178,8154,8194,8181,8161,8172,8033,8176,8197,8165,8166,8142,0.4826483726501465
75,8198,8164,8197,8176,8207,8193,8165,8174,8106,8191,8198,8192,8173,8176,0.4906454086303711
76,8173,8160,8192,8169,8198,8185,8149,8174,8140,8189,8185,8198,8165,8170,0.4984548091888428
76,8173,8160,8192,8169,8198,8185,8149,8174,8140,8189,8185,8198,8165,8170,0.4994540214538574
77,8167,8136,8170,8160,8206,8198,8156,8178,8038,8188,8180,8171,8164,8158,0.5069706439971924
78,8195,8165,8185,8166,8188,8217,8149,8174,8147,8162,8164,8200,8175,8163,0.5149898529052734
79,8159,8133,8176,8146,8191,8215,8147,8151,8043,8171,8164,8167,8160,8150,0.5231149196624756
80,8163,8143,8187,8158,8192,8212,8142,8158,8050,8165,8143,8182,8158,8147,0.5301156044006348
81,8185,8161,8205,8172,8197,8225,8152,8171,8125,8176,8160,8209,8181,8156,0.5381171703338623
82,8195,8150,8207,8175,8219,8234,8173,8171,8068,8222,8197,8190,8183,8181,0.5461227893829346
83,8203,8169,8214,8180,8200,8219,8158,8175,8182,8189,8139,8209,8171,8181,0.5541222095489502
84,8181,8139,8192,8166,8205,8211,8162,8168,8089,8163,8124,8178,8161,8156,0.5620067119598389
84,8181,8139,8192,8166,8205,8211,8162,8168,8089,8163,8124,8178,8161,8156,0.5625138282775879
85,8202,8155,8204,8180,8214,8215,8171,8180,8113,8177,8178,8198,8170,8175,0.5702674388885498
86,8211,8165,8222,8181,8204,8204,8171,8187,8202,8188,8197,8218,8176,8187,0.5782666206359863
87,8205,8134,8211,8164,8210,8207,8183,8170,8080,8201,8195,8180,8164,8189,0.5860095024108887
88,8205,8162,8220,8176,8191,8205,8165,8175,8176,8174,8185,8207,8167,8188,0.5930080413818359
89,8192,8146,8209,8175,8197,8187,8165,8182,8126,8187,8196,8190,8169,8171,0.6010251045227051
90,8227,8159,8222,8184,8209,8195,8172,8182,8119,8199,8182,8191,8168,8186,0.6090254783630371
91,8231,8175,8237,8185,8201,8199,8174,8176,8198,8183,8165,8208,8167,8184,0.6167275905609131
92,8199,8141,8212,8168,8214,8182,8190,8169,8067,8195,8189,8177,8162,8166,0.6247270107269287
93,8192,8165,8208,8169,8197,8165,8165,8177,8143,8165,8178,8204,8165,8161,0.6330101490020752
94,8184,8153,8194,8162,8191,8152,8164,8173,8103,8156,8161,8186,8165,8155,0.640739917755127
95,8205,8157,8202,8172,8201,8153,8174,8175,8079,8172,8161,8183,8167,8172,0.6490106582641602
96,8194,8173,8207,8177,8192,8161,8165,8186,8177,8175,8159,8202,8171,8165,0.6560299396514893
97,8182,8140,8175,8164,8203,8163,8183,8178,8054,8194,8164,8166,8165,8149,0.663546085357666
97,8182,8140,8175,8164,8203,8163,8183,8178,8054,8194,8164,8166,8165,8149,0.6645410060882568
98,8203,8160,8183,8170,8180,8142,8165,8172,8107,8157,8149,8192,8166,8157,0.6720108985900879
99,8180,8145,8188,8164,8171,8127,8153,8169,8067,8145,8156,8177,8164,8151,0.6800103187561035
99,8180,8145,8188,8164,8171,8127,8153,8169,8067,8145,8156,8177,8164,8151,0.6805887222290039
100,8199,8145,8194,8172,8185,8131,8171,8176,8026,8173,8160,8171,8161,8160,0.6880092620849609
101,8215,8170,8201,8178,8168,8120,8157,8181,8149,8158,8143,8203,8163,8160,0.6960086822509766
102,8189,8136,8177,8160,8170,8112,8150,8173,8035,8167,8151,8169,8159,8145,0.7039649486541748
103,8200,8148,8178,8158,8157,8113,8143,8177,8082,8166,8147,8187,8165,8148,0.7119722366333008
104,8183,8140,8167,8152,8152,8105,8157,8177,8075,8163,8138,8180,8171,8146,0.7200121879577637
105,8182,8140,8154,8165,8162,8107,8166,8174,8009,8171,8102,8166,8164,8154,0.7269730567932129
106,8195,8172,8167,8172,8154,8113,8159,8182,8128,8167,8083,8198,8161,8152,0.7350094318389893
107,8187,8144,8169,8154,8174,8114,8193,8191,8068,8194,8159,8172,8166,8157,0.7430093288421631
108,8200,8158,8177,8161,8159,8108,8191,8195,8115,8173,8173,8187,8169,8171,0.7510132789611816
109,8185,8151,8167,8156,8149,8104,8175,8184,8097,8164,8151,8188,8163,8153,0.7588906288146973
110,8197,8143,8175,8164,8182,8114,8190,8197,8065,8217,8190,8181,8170,8166,0.7665164470672607
111,8212,8172,8192,8173,8165,8109,8191,8214,8231,8224,8195,8214,8180,8184,0.7745134830474854
112,8187,8141,8160,8153,8162,8105,8204,8195,8112,8224,8195,8176,8168,8172,0.7825133800506592
113,8201,8166,8164,8170,8175,8116,8197,8198,8151,8225,8197,8192,8168,8175,0.7905161380767822
114,8186,8164,8154,8164,8168,8111,8183,8196,8191,8216,8161,8190,8165,8151,0.7983319759368896
115,8159,8130,8116,8133,8157,8103,8177,8169,8021,8185,8123,8142,8146,8122,0.8053765296936035
115,8159,8130,8116,8133,8157,8103,8177,8169,8021,8185,8123,8142,8146,8122,0.8063342571258545
116,8171,8168,8136,8147,8141,8104,8164,8178,8100,8159,8113,8177,8156,8129,0.8133721351623535
116,8171,8168,8136,8147,8141,8104,8164,8178,8100,8159,8113,8177,8156,8129,0.8143329620361328
117,8183,8154,8152,8153,8168,8110,8188,8189,8063,8211,8110,8168,8170,8148,0.821331262588501
117,8183,8154,8152,8153,8168,8110,8188,8189,8063,8211,8110,8168,8170,8148,0.822333574295044
118,8192,8160,8155,8154,8168,8116,8180,8182,8071,8201,8046,8176,8167,8160,0.8293318748474121
118,8192,8160,8155,8154,8168,8116,8180,8182,8071,8201,8046,8176,8167,8160,0.830331563949585
119,8167,8169,8137,8150,8146,8109,8163,8181,8086,8167,8011,8179,8163,8143,0.8373317718505859
120,8181,8160,8127,8149,8156,8106,8184,8185,7989,8204,8044,8157,8165,8147,0.846144437789917
121,8216,8186,8154,8157,8147,8105,8179,8185,8101,8205,8054,8198,8172,8151,0.8541615009307861
122,8175,8149,8134,8141,8156,8096,8171,8165,7996,8198,8063,8173,8160,8125,0.8606903553009033
123,8157,8150,8119,8142,8150,8093,8155,8161,7943,8175,8052,8166,8154,8117,0.8690066337585449
124,8168,8167,8131,8150,8135,8097,8157,8176,8014,8168,8048,8183,8165,8119,0.8767402172088623
125,8191,8148,8130,8154,8159,8101,8187,8184,7945,8209,8076,8162,8167,8131,0.885007381439209
126,8206,8172,8142,8160,8150,8096,8168,8180,8038,8183,8059,8188,8162,8137,0.8930008411407471
127,8182,8158,8148,8152,8161,8104,8165,8165,7972,8174,8077,8170,8162,8134,0.9010136127471924
240,8196,8171,8173,8171,8173,8117,8175,8171,7992,8196,8113,8187,8178,8166,0.9090125560760498
0,8188,8173,8172,8173,8144,8102,8162,8179,8093,8183,8097,8212,8178,8163,0.9169704914093018
1,8170,8123,8134,8146,8147,8096,8172,8165,7932,8192,8085,8164,8158,8132,0.9250071048736572
2,8170,8148,8140,8144,8141,8100,8163,8161,7977,8170,8070,8182,8161,8124,0.9320065975189208
3,8145,8145,8138,8142,8146,8097,8170,8169,7954,8168,8079,8177,8166,8117,0.9400315284729004
4,8175,8147,8141,8157,8153,8098,8187,8183,7950,8181,8085,8176,8159,8141,0.948007106781006
5,8186,8166,8155,8160,8131,8080,8168,8175,8028,8149,8077,8199,8162,8145,0.956029176712036
6,8169,8146,8161,8157,8142,8079,8173,8157,7889,8161,8103,8169,8171,8133,0.9635493755340576
6,8169,8146,8161,8157,8142,8079,8173,8157,7889,8161,8103,8169,8171,8133,0.9645442962646484
7,8202,8178,8192,8180,8149,8103,8184,8172,8001,8174,8110,8197,8182,8150,0.972008228302002
8,8191,8166,8176,8165,8157,8100,8194,8175,8032,8191,8126,8191,8181,8155,0.9800066947937012
9,8188,8159,8153,8161,8169,8090,8190,8169,7981,8199,8143,8178,8173,8166,0.9869701862335204
10,8196,8184,8164,8178,8157,8089,8174,8171,8072,8182,8135,8202,8172,8165,0.99505877494812
11,8175,8158,8150,8171,8173,8087,8190,8167,7959,8189,8134,8164,8165,8149,1.0030043125152588
12,8181,8175,8150,8174,8168,8086,8182,8168,7998,8152,8098,8183,8157,8144,1.0109963417053225
13,8170,8155,8151,8157,8151,8077,8167,8153,7973,8140,8103,8185,8161,8131,1.019029140472412
14,8172,8145,8157,8157,8150,8068,8164,8151,7916,8182,8145,8171,8175,8143,1.026970386505127
15,8184,8185,8178,8174,8140,8055,8156,8166,8048,8191,8131,8205,8174,8149,1.0351719856262207
16,8175,8162,8171,8169,8168,8060,8178,8162,7958,8194,8136,8176,8161,8146,1.0430104732513428
17,8199,8185,8190,8191,8174,8071,8181,8171,8029,8174,8159,8201,8180,8169,1.0499985218048096
18,8207,8196,8204,8205,8172,8064,8193,8179,8083,8194,8172,8204,8186,8179,1.057502508163452
19,8211,8179,8201,8198,8189,8067,8209,8169,8003,8225,8176,8178,8169,8185,1.0660080909729004
20,8205,8192,8207,8195,8168,8068,8181,8174,8110,8178,8149,8216,8170,8181,1.074007272720337
21,8187,8161,8191,8186,8176,8061,8196,8174,8019,8181,8144,8188,8168,8172,1.0820074081420898
22,8208,8183,8215,8197,8173,8043,8196,8173,8051,8207,8153,8203,8169,8189,1.089775562286377
23,8204,8195,8229,8200,8151,8011,8167,8178,8103,8196,8159,8216,8173,8180,1.0976920127868652
24,8206,8163,8200,8194,8152,8008,8174,8170,7979,8178,8145,8180,8163,8172,1.105747938156128
25,8199,8169,8193,8179,8137,8020,8173,8152,8030,8129,8116,8202,8161,8169,1.1128919124603271
26,8163,8148,8183,8157,8147,8020,8179,8145,7939,8132,8139,8181,8162,8157,1.120894432067871
27,8196,8171,8198,8166,8143,8008,8169,8164,7975,8154,8134,8188,8162,8170,1.1288881301879885
28,8194,8177,8205,8168,8127,8004,8164,8170,8052,8155,8121,8200,8163,8163,1.1369712352752686
29,8178,8157,8204,8181,8146,8012,8184,8162,7954,8163,8152,8182,8164,8161,1.1444473266601562
29,8178,8157,8204,8181,8146,8012,8184,8162,7954,8163,8152,8182,8164,8161,1.1454367637634275
30,8214,8195,8241,8212,8144,8004,8173,8167,8078,8149,8148,8220,8170,8179,1.1524429321289062
30,8214,8195,8241,8212,8144,8004,8173,8167,8078,8149,8148,8220,8170,8179,1.1534364223480225
31,8213,8169,8241,8200,8165,8002,8184,8161,8038,8174,8157,8200,8167,8182,1.161448955535889
32,8219,8173,8239,8206,8179,8021,8193,8164,8036,8176,8162,8199,8167,8192,1.1694867610931396
33,8213,8188,8229,8209,8162,8011,8172,8156,8083,8138,8139,8203,8165,8178,1.1769700050354004
34,8198,8152,8199,8182,8167,7998,8166,8133,7930,8136,8135,8168,8159,8169,1.1840074062347412
35,8209,8180,8218,8199,8157,8005,8152,8148,8036,8124,8121,8199,8169,8176,1.192007541656494
36,8206,8175,8221,8205,8164,8008,8157,8155,8019,8145,8127,8176,8168,8166,1.2000069618225098
37,8222,8183,8223,8198,8168,8012,8160,8142,7976,8141,8136,8178,8164,8171,1.2077796459197998
38,8217,8203,8225,8209,8152,8010,8150,8141,8039,8089,8119,8202,8165,8159,1.2157773971557615
39,8204,8176,8199,8214,8171,8008,8157,8136,7906,8094,8113,8162,8154,8137,1.2240076065063477
40,8217,8196,8206,8210,8173,8025,8144,8142,7995,8101,8115,8197,8162,8141,1.2323174476623535
41,8199,8176,8195,8192,8174,8050,8163,8157,8020,8131,8146,8193,8177,8145,1.2397122383117676
42,8212,8174,8193,8211,8173,8057,8188,8168,8006,8148,8160,8179,8180,8163,1.2477259635925293
43,8218,8199,8211,8220,8155,8047,8172,8164,8090,8117,8141,8202,8174,8160,1.2550084590911863
44,8201,8166,8200,8194,8161,8049,8176,8153,7973,8130,8144,8169,8167,8145,1.263007640838623
45,8203,8183,8196,8197,8145,8046,8165,8159,8045,8130,8128,8187,8168,8144,1.2710025310516355
46,8177,8166,8179,8191,8152,8035,8166,8166,8049,8147,8135,8178,8168,8131,1.2790076732635498
47,8191,8153,8166,8183,8170,8051,8186,8174,8008,8166,8148,8160,8168,8143,1.287003755569458
48,8189,8182,8165,8179,8141,8061,8170,8168,8103,8126,8126,8183,8167,8143,1.2952203750610352
49,8166,8166,8153,8174,8152,8057,8168,8154,7990,8130,8133,8154,8160,8126,1.30322003364563
50,8199,8183,8179,8184,8158,8056,8160,8161,8059,8136,8124,8175,8162,8132,1.311220407485962
51,8179,8167,8190,8172,8145,8064,8163,8157,8062,8124,8122,8172,8163,8123,1.3180007934570312
52,8175,8168,8193,8189,8150,8080,8183,8161,8002,8135,8146,8160,8170,8136,1.3262882232666016
53,8207,8200,8199,8202,8136,8079,8176,8174,8143,8142,8145,8198,8179,8159,1.334305763244629
54,8180,8156,8164,8163,8133,8078,8176,8160,8034,8156,8159,8162,8167,8151,1.3423070907592771
55,8176,8167,8169,8170,8115,8078,8167,8163,8062,8133,8152,8173,8160,8148,1.3500075340270996
56,8190,8180,8187,8186,8113,8079,8182,8177,8124,8145,8152,8186,8165,8151,1.3575489521026611
56,8190,8180,8187,8186,8113,8079,8182,8177,8124,8145,8152,8186,8165,8151,1.3585608005523682
57,8194,8166,8183,8180,8135,8104,8204,8173,8054,8184,8174,8165,8167,8162,1.3655657768249512
57,8194,8166,8183,8180,8135,8104,8204,8173,8054,8184,8174,8165,8167,8162,1.3665587902069092
58,8185,8184,8189,8184,8120,8108,8183,8174,8153,8146,8162,8190,8167,8152,1.3740065097808838
59,8181,8155,8175,8183,8134,8096,8195,8169,8063,8146,8159,8159,8161,8139,1.382007122039795
60,8201,8161,8179,8189,8139,8099,8185,8163,8078,8149,8151,8167,8162,8148,1.3890528678894043
61,8176,8160,8170,8177,8124,8091,8165,8163,8107,8129,8137,8172,8156,8124,1.396712064743042
62,8168,8140,8147,8164,8132,8080,8187,8169,8001,8152,8135,8143,8146,8113,1.4047071933746338
63,8167,8164,8152,8162,8114,8073,8172,8171,8104,8145,8118,8175,8156,8115,1.4130074977874756
64,8136,8138,8135,8154,8120,8067,8165,8161,8020,8140,8129,8153,8161,8108,1.4210071563720703
65,8176,8154,8162,8179,8135,8071,8178,8170,8047,8148,8141,8170,8166,8139,1.4290063381195068
66,8184,8167,8186,8184,8130,8075,8170,8173,8140,8155,8151,8190,8173,8144,1.437037467956543
67,8156,8140,8163,8173,8138,8083,8170,8154,8007,8160,8154,8154,8165,8118,1.4450342655181885
68,8165,8173,8166,8186,8131,8086,8170,8155,8080,8123,8123,8186,8160,8106,1.452030897140503
69,8152,8153,8154,8171,8142,8076,8183,8162,8036,8131,8135,8165,8155,8102,1.4600083827972412
70,8165,8151,8150,8158,8139,8069,8174,8175,8031,8148,8137,8157,8157,8127,1.468003273010254
71,8159,8160,8152,8156,8124,8061,8162,8179,8107,8143,8119,8176,8162,8127,1.4760072231292725
72,8153,8136,8144,8164,8156,8063,8187,8172,8016,8178,8153,8159,8164,8121,1.4839811325073242
73,8182,8170,8162,8181,8146,8062,8177,8178,8136,8183,8159,8194,8174,8140,1.4919819831848145
74,8160,8148,8150,8155,8130,8050,8171,8164,8077,8177,8158,8175,8169,8138,1.5000083446502686
75,8156,8134,8138,8142,8128,8037,8163,8147,7996,8158,8166,8167,8158,8133,1.508007287979126
76,8152,8147,8134,8147,8107,8024,8137,8147,8059,8128,8156,8185,8159,8118,1.516068696975708
77,8132,8121,8117,8140,8116,8027,8147,8144,7942,8146,8153,8148,8160,8114,1.5230762958526611
78,8153,8150,8133,8146,8117,8034,8148,8153,8033,8135,8140,8177,8167,8134,1.531001091003418
79,8149,8145,8134,8132,8123,8035,8154,8153,8037,8137,8152,8178,8166,8135,1.5390145778656006
80,8154,8142,8130,8140,8131,8039,8156,8152,7990,8144,8156,8171,8161,8143,1.5470223426818848
81,8170,8164,8135,8158,8123,8035,8148,8162,8093,8136,8140,8189,8167,8143,1.5550081729888916
82,8170,8142,8127,8144,8140,8036,8164,8154,7996,8168,8167,8159,8164,8140,1.5628442764282229
83,8170,8170,8146,8154,8128,8038,8144,8153,8052,8152,8161,8185,8163,8142,1.5708436965942385
84,8158,8158,8139,8159,8129,8032,8148,8158,8053,8151,8143,8174,8164,8131,1.577845811843872
85,8173,8141,8133,8152,8151,8035,8167,8163,8001,8174,8159,8157,8163,8143,1.5858449935913086
86,8163,8169,8149,8152,8133,8039,8152,8175,8121,8145,8161,8194,8167,8147,1.594348430633545
87,8155,8152,8140,8162,8148,8051,8182,8190,8051,8166,8175,8167,8170,8145,1.6020238399505615
88,8196,8174,8159,8183,8156,8058,8201,8201,8136,8181,8182,8189,8175,8169,1.6100218296051023
89,8174,8172,8161,8167,8148,8047,8189,8188,8151,8170,8193,8191,8172,8164,1.618009090423584
90,8172,8159,8152,8165,8156,8044,8184,8179,8049,8176,8194,8167,8167,8157,1.6260123252868652
91,8202,8183,8169,8181,8150,8042,8175,8184,8156,8166,8165,8192,8164,8161,1.634082555770874
92,8180,8148,8160,8157,8169,8041,8189,8177,8079,8187,8186,8164,8161,8162,1.642005443572998
93,8172,8163,8167,8158,8157,8031,8177,8182,8130,8183,8195,8184,8171,8166,1.6487164497375488
94,8163,8167,8155,8168,8129,8007,8165,8179,8157,8163,8173,8192,8166,8151,1.6572425365447998
95,8185,8152,8146,8171,8146,8015,8188,8174,8062,8176,8185,8167,8161,8167,1.665249586105347
96,8201,8186,8178,8180,8148,8029,8183,8187,8203,8172,8205,8207,8175,8184,1.6730124950408936
97,8172,8161,8171,8176,8156,8017,8177,8181,8120,8195,8216,8179,8167,8167,1.6810085773468018
98,8184,8165,8163,8179,8149,8009,8162,8167,8088,8185,8183,8171,8157,8168,1.6889631748199463
99,8172,8165,8159,8165,8138,8010,8154,8157,8118,8151,8176,8178,8163,8150,1.6966705322265625
100,8163,8143,8152,8163,8155,8017,8171,8154,8022,8161,8200,8160,8159,8138,1.704676628112793
101,8181,8172,8168,8167,8140,8018,8151,8155,8116,8140,8180,8191,8155,8143,1.712010622024536
102,8168,8155,8161,8144,8149,8016,8153,8151,8047,8147,8196,8166,8158,8138,1.720010757446289
103,8182,8168,8166,8160,8149,8021,8168,8167,8069,8169,8207,8175,8165,8148,1.7280097007751465
104,8160,8172,8154,8164,8122,8027,8163,8171,8132,8155,8183,8188,8159,8132,1.7356102466583252
104,8160,8172,8154,8164,8122,8027,8163,8171,8132,8155,8183,8188,8159,8132,1.7366094589233398
105,8141,8145,8129,8153,8143,8036,8170,8165,8011,8158,8196,8149,8158,8124,1.7438948154449463
106,8167,8179,8150,8170,8146,8029,8158,8173,8121,8160,8185,8181,8173,8140,1.7518937587738037
107,8143,8149,8130,8151,8141,8016,8154,8156,8049,8170,8170,8164,8160,8119,1.7600085735321045
108,8140,8142,8111,8145,8145,8020,8153,8149,7991,8150,8168,8156,8150,8108,1.76800799369812
109,8151,8170,8128,8155,8151,8029,8154,8166,8095,8137,8164,8181,8167,8112,1.7750015258789062
110,8146,8144,8133,8153,8167,8039,8174,8164,8016,8187,8173,8158,8166,8114,1.7830166816711426
111,8165,8163,8152,8161,8146,8040,8165,8165,8115,8183,8180,8187,8159,8117,1.7910146713256836
112,8165,8156,8148,8143,8153,8036,8173,8170,8094,8166,8186,8169,8159,8117,1.799006462097168
113,8172,8157,8137,8145,8176,8041,8174,8173,8053,8159,8167,8161,8164,8134,1.80704927444458
114,8155,8163,8123,8154,8162,8032,8150,8164,8126,8142,8165,8184,8160,8112,1.815002918243408
115,8138,8133,8114,8136,8171,8034,8163,8152,8005,8160,8212,8153,8149,8091,1.8230080604553225
116,8169,8172,8147,8156,8166,8041,8153,8168,8106,8150,8202,8183,8159,8117,1.831324815750122
117,8170,8168,8135,8176,8165,8035,8150,8170,8110,8159,8186,8169,8163,8117,1.8393256664276123
118,8169,8157,8121,8169,8171,8039,8157,8158,8037,8169,8209,8157,8155,8114,1.8460068702697756
119,8164,8179,8141,8156,8155,8035,8141,8160,8135,8138,8208,8194,8159,8109,1.8540074825286863
120,8156,8149,8129,8152,8176,8029,8153,8153,8028,8159,8213,8149,8157,8103,1.8620843887329104
121,8163,8164,8133,8156,8172,8036,8148,8154,8079,8158,8211,8160,8161,8110,1.8700852394104004
122,8140,8159,8135,8148,8168,8048,8157,8164,8108,8150,8221,8175,8165,8105,1.878085374832153
123,8151,8154,8132,8159,8183,8053,8174,8175,8063,8168,8226,8160,8158,8112,1.8860864639282229
124,8154,8177,8137,8159,8156,8044,8151,8179,8157,8153,8193,8174,8155,8106,1.894084453582764
125,8132,8142,8109,8137,8153,8040,8156,8168,8037,8161,8198,8147,8154,8093,1.9020850658416748
126,8152,8154,8106,8147,8154,8042,8156,8168,8068,8146,8205,8175,8158,8104,1.909085035324097
126,8152,8154,8106,8147,8154,8042,8156,8168,8068,8146,8205,8175,8158,8104,1.909223318099976
127,8138,8154,8114,8146,8152,8030,8143,8162,8082,8138,8211,8175,8158,8092,1.9172306060791016
240,8138,8144,8113,8145,8159,8027,8145,8148,7989,8157,8209,8148,8153,8086,1.925232410430908
0,8156,8179,8130,8162,8148,8034,8134,8145,8093,8129,8188,8184,8159,8089,1.933229684829712
1,8136,8155,8136,8160,8163,8036,8145,8155,8030,8153,8223,8170,8164,8101,1.941007375717163
2,8143,8165,8150,8169,8155,8033,8147,8180,8094,8186,8232,8184,8172,8119,1.9490067958831787
3,8127,8160,8127,8153,8136,8020,8144,8171,8113,8162,8197,8176,8161,8086,1.9569542407989504
4,8127,8137,8106,8138,8145,8020,8146,8146,7964,8143,8186,8142,8148,8075,1.9650075435638428
5,8155,8172,8146,8157,8127,8026,8133,8154,8081,8130,8192,8184,8160,8102,1.9723670482635496
5,8155,8172,8146,8157,8127,8026,8133,8154,8081,8130,8192,8184,8160,8102,1.9733588695526123
6,8144,8155,8144,8153,8144,8035,8157,8161,8048,8159,8228,8168,8163,8108,1.9793667793273928
6,8144,8155,8144,8153,8144,8035,8157,8161,8048,8159,8228,8168,8163,8108,1.9803626537323
7,8157,8170,8142,8162,8171,8044,8162,8168,8085,8169,8231,8173,8165,8118,1.9876928329467771
8,8160,8178,8147,8176,8167,8034,8159,8188,8176,8171,8213,8180,8169,8116,1.9956965446472168
9,8159,8152,8133,8169,8161,8034,8193,8197,8094,8200,8227,8149,8163,8120,2.004007577896118
10,8164,8182,8144,8165,8134,8040,8179,8178,8177,8176,8215,8183,8160,8127,2.0120081901550293
11,8152,8169,8141,8167,8149,8035,8163,8149,8095,8178,8216,8165,8157,8113,2.020007610321045
12,8181,8170,8143,8188,8159,8030,8166,8157,8085,8186,8211,8167,8159,8117,2.028006792068481
13,8159,8163,8133,8165,8126,8025,8163,8169,8143,8167,8198,8182,8158,8113,2.036013126373291
14,8129,8134,8120,8143,8132,8027,8164,8165,8032,8179,8218,8156,8155,8121,2.043015241622925
15,8171,8169,8149,8171,8133,8029,8159,8180,8172,8168,8215,8188,8163,8141,2.0506269931793213
16,8169,8150,8146,8165,8136,8033,8177,8178,8154,8183,8221,8166,8160,8132,2.059146881103516
17,8167,8157,8150,8162,8135,8038,8172,8174,8128,8203,8229,8163,8157,8140,2.066970109939575
18,8174,8184,8162,8170,8122,8036,8154,8180,8225,8194,8214,8190,8163,8141,2.0752851963043213
19,8169,8147,8145,8167,8142,8042,8172,8170,8100,8198,8222,8159,8156,8131,2.083006858825684
20,8181,8160,8152,8179,8139,8043,8159,8172,8157,8165,8212,8182,8159,8129,2.090980768203736
21,8177,8153,8143,8172,8144,8046,8163,8169,8128,8179,8206,8165,8164,8122,2.098069667816162
22,8184,8150,8145,8167,8149,8068,8174,8162,8079,8203,8207,8159,8162,8133,2.1060667037963867
23,8163,8166,8153,8165,8127,8067,8145,8166,8172,8172,8202,8188,8164,8125,2.1140856742858887
24,8158,8145,8134,8164,8146,8057,8152,8168,8076,8189,8212,8153,8159,8117,2.122363328933716
25,8194,8179,8147,8179,8150,8068,8164,8175,8165,8198,8201,8179,8160,8139,2.130007743835449
26,8166,8166,8136,8169,8146,8076,8170,8174,8174,8198,8216,8181,8166,8138,2.1380975246429443
27,8161,8145,8111,8161,8141,8069,8172,8175,8115,8209,8219,8159,8160,8138,2.14589524269104
28,8168,8166,8113,8162,8118,8067,8160,8174,8199,8198,8185,8173,8153,8122,2.1538949012756348
29,8146,8149,8108,8160,8144,8081,8180,8167,8083,8207,8203,8139,8156,8103,2.162001132965088
30,8166,8174,8114,8174,8151,8084,8177,8182,8153,8195,8201,8158,8167,8119,2.168555974960327
31,8155,8163,8095,8153,8143,8077,8170,8181,8170,8201,8182,8155,8159,8114,2.1769702434539795
32,8141,8144,8088,8144,8160,8080,8184,8171,8080,8213,8183,8138,8154,8105,2.184937000274658
33,8151,8171,8109,8166,8158,8073,8178,8176,8194,8185,8172,8174,8165,8105,2.19339656829834
34,8146,8144,8095,8154,8168,8068,8178,8171,8107,8199,8187,8149,8162,8109,2.201399087905884
35,8159,8159,8100,8151,8156,8060,8158,8176,8131,8195,8181,8162,8160,8121,2.209007501602173
36,8150,8158,8101,8147,8156,8046,8159,8182,8155,8187,8163,8161,8159,8106,2.2174551486968994
37,8156,8142,8094,8153,8191,8062,8180,8179,8082,8211,8181,8141,8156,8113,2.2250072956085205
38,8169,8176,8110,8174,8175,8070,8167,8185,8213,8197,8188,8178,8162,8121,2.2330310344696045
39,8153,8156,8097,8161,8176,8064,8184,8190,8142,8206,8194,8147,8161,8111,2.2400290966033936
40,8161,8161,8098,8156,8175,8073,8181,8191,8160,8205,8186,8152,8164,8121,2.248037576675415
41,8149,8161,8096,8151,8151,8077,8168,8184,8200,8201,8175,8158,8166,8107,2.2560079097747803
42,8148,8151,8084,8147,8160,8088,8190,8183,8097,8219,8179,8129,8158,8096,2.264007329940796
43,8153,8181,8098,8157,8160,8099,8178,8191,8207,8195,8168,8162,8159,8100,2.2720305919647217
44,8136,8146,8078,8148,8169,8096,8177,8187,8138,8207,8177,8140,8161,8097,2.279029607772827
45,8164,8154,8081,8154,8174,8103,8189,8192,8157,8217,8188,8153,8171,8120,2.28706693649292
46,8159,8175,8100,8155,8171,8103,8182,8191,8238,8201,8192,8180,8172,8125,2.295086622238159
47,8151,8151,8094,8154,8181,8088,8172,8175,8114,8219,8160,8152,8156,8122,2.3031935691833496
48,8177,8175,8112,8166,8167,8081,8156,8181,8210,8210,8091,8183,8161,8136,2.3112006187438965
49,8171,8162,8116,8165,8180,8094,8183,8193,8189,8222,8106,8166,8167,8137,2.3192009925842285
50,8182,8167,8112,8172,8183,8100,8192,8191,8167,8220,8124,8157,8160,8134,2.3267619609832764
51,8160,8164,8102,8154,8167,8085,8166,8184,8205,8183,8097,8173,8155,8115,2.334901571273804
51,8160,8164,8102,8154,8167,8085,8166,8184,8205,8183,8097,8173,8155,8115,2.3359193801879883
52,8148,8136,8097,8147,8182,8094,8185,8189,8105,8210,8122,8160,8163,8123,2.343010902404785
53,8185,8181,8129,8175,8165,8105,8188,8200,8232,8214,8142,8194,8174,8150,2.3510894775390625
54,8158,8157,8118,8159,8164,8086,8178,8183,8180,8198,8153,8166,8160,8132,2.358612537384033
55,8152,8144,8109,8156,8180,8077,8176,8186,8136,8200,8154,8159,8155,8127,2.366007089614868
56,8166,8169,8122,8169,8168,8080,8170,8193,8251,8203,8148,8191,8167,8135,2.373626708984375
56,8166,8169,8122,8169,8168,8080,8170,8193,8251,8203,8148,8191,8167,8135,2.3746554851531982
57,8151,8141,8102,8153,8177,8076,8171,8170,8127,8214,8166,8154,8159,8136,2.382009744644165
58,8159,8163,8100,8158,8164,8065,8152,8174,8170,8189,8145,8170,8152,8134,2.389683485031128
59,8153,8155,8094,8158,8158,8063,8160,8178,8148,8190,8138,8161,8154,8114,2.3976757526397705
60,8158,8146,8101,8160,8171,8069,8167,8173,8107,8196,8152,8159,8157,8115,2.406213998794556
61,8159,8162,8119,8164,8166,8067,8152,8178,8214,8175,8150,8189,8161,8115,2.4140074253082275
62,8152,8137,8106,8164,8187,8079,8176,8176,8118,8196,8175,8155,8161,8123,2.4217171669006348
63,8173,8166,8125,8184,8187,8085,8176,8191,8211,8197,8176,8181,8164,8146,2.429995059967041
64,8168,8166,8131,8174,8181,8069,8174,8196,8229,8209,8167,8177,8160,8134,2.43699312210083
65,8171,8155,8122,8165,8188,8073,8180,8185,8141,8210,8174,8157,8155,8129,2.445007085800171
66,8163,8168,8117,8168,8172,8077,8159,8181,8220,8167,8158,8182,8158,8129,2.453322172164917
67,8149,8131,8099,8150,8181,8081,8177,8182,8122,8192,8164,8150,8158,8127,2.461003065109253
68,8177,8156,8123,8157,8179,8101,8185,8187,8198,8202,8174,8175,8165,8146,2.469014883041382
69,8165,8163,8117,8162,8177,8102,8173,8182,8227,8191,8177,8173,8164,8135,2.477017402648926
70,8157,8144,8095,8153,8194,8087,8166,8172,8116,8195,8168,8142,8154,8127,2.4850072860717773
71,8165,8168,8118,8158,8182,8075,8150,8173,8205,8172,8154,8180,8158,8130,2.493006706237793
72,8165,8150,8124,8166,8194,8081,8166,8168,8137,8197,8184,8161,8160,8131,2.500006675720215
73,8185,8167,8132,8177,8187,8091,8158,8169,8168,8195,8179,8164,8159,8137,2.508026361465454
74,8164,8166,8128,8172,8175,8087,8149,8168,8184,8165,8163,8167,8156,8121,2.516023874282837
75,8174,8160,8129,8177,8205,8087,8167,8172,8126,8187,8186,8158,8162,8134,2.524007558822632
76,8197,8193,8152,8183,8199,8092,8156,8188,8277,8191,8185,8195,8172,8153,2.5320541858673096
77,8170,8157,8137,8166,8199,8104,8169,8189,8183,8207,8192,8164,8162,8141,2.540006399154663
78,8185,8166,8141,8178,8204,8113,8176,8186,8184,8205,8187,8173,8159,8146,2.548048973083496
79,8174,8173,8147,8174,8197,8103,8151,8178,8244,8181,8180,8184,8162,8134,2.55604100227356
80,8160,8146,8130,8163,8202,8096,8149,8171,8118,8179,8187,8149,8158,8127,2.56238341331482
81,8179,8178,8139,8178,8185,8098,8147,8179,8214,8164,8171,8178,8164,8135,2.5713775157928467
82,8162,8164,8133,8169,8191,8109,8165,8180,8183,8192,8188,8157,8162,8128,2.578376531600952
83,8184,8171,8142,8171,8189,8114,8171,8193,8210,8206,8200,8169,8168,8148,2.5869696140289307
84,8187,8177,8146,8169,8183,8108,8162,8193,8279,8191,8192,8194,8172,8158,2.59536361694336
85,8157,8153,8126,8163,8211,8126,8168,8178,8154,8201,8199,8153,8163,8139,2.602368116378784
86,8173,8184,8142,8183,8198,8138,8165,8197,8261,8184,8185,8176,8167,8128,2.6103689670562744
87,8192,8168,8144,8174,8197,8124,8191,8206,8249,8203,8199,8171,8170,8145,2.618368148803711
88,8202,8168,8146,8167,8205,8128,8183,8194,8239,8217,8218,8177,8167,8178,2.627370357513428
89,8178,8185,8141,8169,8188,8131,8148,8189,8313,8195,8213,8194,8168,8164,2.633378744125366
90,8181,8162,8128,8167,8200,8125,8173,8194,8203,8219,8231,8161,8164,8159,2.6420257091522217
91,8202,8187,8147,8169,8183,8120,8169,8194,8283,8204,8223,8186,8162,8170,2.650038719177246
92,8168,8168,8134,8156,8174,8114,8151,8174,8231,8191,8209,8166,8158,8147,2.657552719116211
93,8186,8164,8134,8166,8186,8120,8157,8182,8196,8213,8214,8165,8160,8160,2.6660091876983643
94,8206,8187,8161,8171,8181,8132,8166,8195,8320,8212,8226,8202,8168,8178,2.6741127967834477
95,8178,8159,8163,8158,8195,8143,8181,8182,8213,8215,8256,8171,8169,8175,2.682117462158203
96,8186,8185,8180,8185,8186,8134,8153,8183,8278,8191,8238,8191,8168,8176,2.69000506401062
97,8200,8182,8179,8193,8179,8122,8149,8184,8269,8191,8223,8178,8155,8168,2.6969656944274902
98,8218,8177,8178,8188,8186,8133,8169,8185,8210,8202,8238,8172,8154,8181,2.7050297260284424
99,8212,8199,8184,8195,8168,8135,8151,8196,8313,8187,8242,8209,8171,8184,2.7130072116851807
100,8205,8169,8165,8190,8178,8148,8156,8195,8214,8213,8248,8178,8165,8175,2.720670700073242
100,8205,8169,8165,8190,8178,8148,8156,8195,8214,8213,8248,8178,8165,8175,2.72169828414917
101,8226,8183,8166,8182,8170,8178,8158,8192,8271,8205,8223,8189,8156,8183,2.7290070056915283
102,8188,8166,8146,8157,8162,8193,8157,8191,8273,8199,8221,8177,8157,8168,2.736757755279541
103,8186,8155,8140,8166,8175,8205,8164,8194,8203,8221,8239,8164,8161,8167,2.744776725769043
104,8211,8191,8171,8185,8162,8207,8155,8187,8305,8198,8225,8198,8164,8174,2.752781391143799
105,8181,8159,8152,8167,8175,8201,8157,8169,8183,8193,8235,8161,8158,8154,2.760007619857788
106,8183,8166,8144,8170,8167,8206,8149,8177,8213,8179,8224,8178,8159,8148,2.7681868076324463
107,8178,8165,8142,8162,8156,8206,8155,8184,8243,8174,8218,8185,8158,8146,2.77576756477356
108,8183,8154,8137,8160,8169,8198,8169,8183,8166,8202,8233,8162,8158,8157,2.7837812900543213
109,8193,8183,8151,8176,8150,8192,8156,8189,8292,8201,8223,8192,8167,8156,2.791780948638916
110,8172,8155,8137,8164,8157,8195,8170,8181,8208,8201,8235,8163,8162,8143,2.800006628036499
110,8172,8155,8137,8164,8157,8195,8170,8181,8208,8201,8235,8163,8162,8143,2.800785541534424
111,8186,8169,8138,8165,8154,8196,8168,8179,8209,8173,8223,8172,8161,8155,2.8080029487609863
112,8173,8174,8132,8156,8147,8187,8153,8177,8228,8162,8209,8179,8163,8149,2.8163623809814453
113,8163,8154,8120,8158,8167,8190,8164,8177,8139,8200,8229,8148,8159,8145,2.8223717212677
113,8163,8154,8120,8158,8167,8190,8164,8177,8139,8200,8229,8148,8159,8145,2.8233582973480225
114,8184,8187,8137,8184,8155,8190,8154,8188,8269,8192,8218,8178,8159,8149,2.8310513496398926
115,8178,8170,8128,8173,8158,8187,8157,8177,8197,8193,8219,8160,8158,8145,2.8390066623687744
116,8188,8177,8133,8170,8155,8185,8151,8174,8190,8187,8221,8167,8167,8152,2.8466835021972656
116,8188,8177,8133,8170,8155,8185,8151,8174,8190,8187,8221,8167,8167,8152,2.8476827144622803
117,8175,8173,8133,8168,8151,8176,8148,8181,8243,8172,8215,8177,8169,8143,2.8550076484680176
118,8168,8148,8122,8160,8171,8182,8167,8182,8136,8179,8221,8153,8159,8144,2.862780809402466
119,8185,8184,8139,8168,8153,8182,8150,8186,8239,8157,8211,8188,8165,8157,2.870783567428589
120,8178,8171,8137,8169,8169,8166,8158,8183,8212,8194,8237,8174,8172,8162,2.87900972366333
121,8198,8178,8149,8183,8190,8165,8171,8199,8247,8239,8258,8181,8179,8189,2.886970996856689
122,8204,8189,8163,8182,8171,8165,8161,8212,8333,8230,8240,8192,8174,8196,2.8940072059631348
123,8197,8167,8150,8171,8181,8162,8167,8193,8209,8228,8240,8158,8158,8191,2.902007818222046
124,8200,8199,8149,8183,8176,8162,8159,8191,8305,8202,8230,8190,8162,8185,2.910134792327881
125,8179,8182,8128,8177,8177,8166,8176,8197,8260,8209,8231,8168,8164,8166,2.9181411266326904
126,8187,8178,8131,8174,8185,8166,8177,8195,8198,8205,8224,8159,8156,8176,2.9260025024414062
127,8181,8193,8146,8175,8167,8149,8153,8189,8269,8166,8201,8185,8159,8168,2.9342761039733887
240,8173,8162,8128,8168,8166,8148,8166,8183,8149,8182,8207,8147,8161,8154,2.944279909133911
0,8184,8181,8139,8175,8147,8159,8160,8185,8213,8167,8194,8171,8158,8158,2.949279308319092
0,8184,8181,8139,8175,8147,8159,8160,8185,8213,8167,8194,8171,8158,8158,2.950279712677002
1,8156,8161,8135,8162,8144,8147,8152,8178,8192,8176,8196,8168,8158,8144,2.9562807083129883
2,8161,8152,8132,8157,8161,8141,8149,8180,8151,8208,8206,8160,8162,8149,2.964787483215332
3,8163,8177,8134,8159,8156,8146,8131,8181,8230,8177,8184,8181,8156,8137,2.972788095474243
4,8156,8157,8119,8157,8172,8151,8150,8176,8117,8171,8192,8153,8146,8127,2.980787992477417
5,8193,8183,8146,8172,8174,8159,8156,8191,8223,8173,8202,8183,8167,8158,2.9887890815734863
6,8184,8174,8150,8163,8170,8168,8157,8193,8234,8174,8212,8176,8173,8161,2.9967877864837646
7,8179,8166,8133,8162,8168,8170,8157,8184,8137,8172,8204,8156,8154,8155,3.0047924518585205
8,8177,8184,8126,8153,8152,8161,8135,8186,8212,8152,8174,8173,8152,8149,3.0127878189086914
9,8146,8146,8105,8132,8166,8164,8141,8182,8102,8168,8182,8131,8158,8136,3.0207889080047607
10,8159,8172,8116,8160,8156,8156,8125,8184,8161,8170,8173,8152,8162,8132,3.0280065536499023
11,8159,8178,8110,8163,8151,8139,8118,8178,8175,8172,8166,8160,8157,8121,3.035966396331787
12,8158,8157,8091,8145,8167,8155,8145,8179,8092,8166,8178,8145,8160,8134,3.043591022491455
13,8154,8182,8115,8156,8153,8164,8146,8195,8215,8133,8177,8181,8169,8144,3.052034616470337
14,8143,8171,8127,8168,8178,8163,8156,8196,8145,8165,8201,8161,8170,8140,3.060141324996948
15,8177,8190,8129,8185,8192,8178,8164,8203,8188,8182,8188,8169,8169,8146,3.0680084228515625
16,8174,8182,8113,8180,8182,8178,8171,8205,8220,8182,8174,8162,8165,8134,3.076019287109375
17,8174,8167,8116,8174,8199,8170,8173,8198,8136,8214,8210,8155,8170,8154,3.084012269973755
18,8191,8205,8150,8183,8192,8175,8147,8204,8263,8207,8217,8207,8176,8179,3.091006278991699
19,8178,8180,8136,8172,8196,8185,8157,8204,8193,8209,8209,8169,8166,8169,3.098996877670288
20,8190,8185,8139,8177,8197,8181,8161,8205,8201,8199,8199,8165,8170,8177,3.106853008270264
21,8172,8187,8138,8169,8195,8168,8157,8206,8244,8184,8209,8175,8175,8166,3.1148521900177
22,8156,8161,8104,8166,8209,8162,8164,8202,8139,8209,8213,8143,8161,8146,3.1230015754699707
23,8180,8181,8108,8184,8184,8156,8148,8203,8218,8191,8166,8173,8158,8141,3.131006956100464
24,8165,8151,8105,8160,8180,8164,8167,8195,8132,8178,8162,8159,8159,8135,3.1390063762664795
25,8155,8159,8109,8153,8174,8161,8158,8190,8115,8163,8167,8161,8159,8132,3.1468937397003174
26,8159,8178,8127,8171,8156,8135,8125,8185,8166,8155,8161,8178,8162,8129,3.15381121635437
27,8190,8168,8148,8185,8184,8149,8146,8181,8090,8185,8200,8166,8167,8163,3.1623361110687256
28,8205,8195,8169,8193,8188,8158,8144,8190,8229,8171,8208,8200,8174,8174,3.1700072288513184
29,8166,8166,8141,8176,8186,8129,8134,8179,8146,8165,8196,8169,8166,8132,3.1783933639526367
30,8176,8168,8144,8178,8178,8126,8125,8167,8081,8157,8188,8167,8162,8128,3.186007499694824
31,8184,8186,8162,8180,8164,8141,8120,8169,8169,8149,8190,8193,8162,8135,3.1939961910247803
32,8176,8164,8150,8178,8186,8155,8145,8175,8080,8182,8202,8162,8159,8135,3.201995849609375
33,8198,8196,8177,8196,8179,8158,8139,8191,8195,8165,8187,8196,8170,8154,3.210004568099976
34,8191,8179,8175,8189,8178,8156,8136,8191,8183,8170,8199,8182,8172,8160,3.2180068492889404
35,8197,8170,8156,8188,8185,8169,8141,8183,8132,8173,8201,8165,8162,8161,3.22501802444458
36,8187,8194,8161,8194,8169,8168,8134,8179,8208,8142,8185,8183,8160,8145,3.2330076694488525
37,8182,8178,8160,8188,8186,8161,8147,8182,8123,8188,8203,8161,8162,8143,3.241570234298706
38,8210,8197,8164,8181,8180,8171,8138,8195,8210,8184,8190,8186,8166,8158,3.24865460395813
39,8180,8176,8137,8170,8174,8175,8135,8182,8153,8141,8181,8165,8160,8138,3.256654500961304
40,8184,8179,8135,8196,8197,8168,8140,8179,8100,8168,8200,8158,8167,8147,3.265007495880127
41,8195,8202,8151,8195,8202,8177,8139,8199,8248,8183,8205,8195,8179,8160,3.2730860710144043
42,8158,8156,8116,8148,8188,8196,8157,8191,8132,8165,8201,8153,8162,8133,3.281296968460083
43,8157,8171,8110,8155,8145,8177,8124,8171,8126,8136,8167,8159,8151,8114,3.2882986068725586
44,8158,8176,8125,8175,8162,8156,8111,8164,8111,8152,8180,8164,8158,8112,3.2960011959075928
45,8186,8168,8141,8182,8205,8179,8149,8178,8084,8173,8209,8163,8163,8132,3.303996324539185
46,8185,8180,8141,8171,8168,8174,8140,8185,8192,8153,8181,8182,8160,8132,3.3119945526123047
47,8143,8148,8103,8153,8152,8148,8125,8172,8063,8159,8184,8142,8162,8123,3.32000732421875
48,8167,8174,8118,8179,8154,8157,8124,8183,8127,8144,8185,8170,8174,8141,3.328293561935425
49,8175,8173,8143,8180,8150,8165,8135,8185,8169,8144,8182,8182,8171,8142,3.336333990097046
50,8172,8159,8144,8169,8149,8152,8134,8167,8062,8166,8197,8158,8162,8152,3.344007730484009
50,8172,8159,8144,8169,8149,8152,8134,8167,8062,8166,8197,8158,8162,8152,3.344461441040039
51,8185,8191,8161,8184,8127,8145,8117,8164,8156,8139,8164,8189,8167,8168,3.351469755172729
52,8176,8157,8153,8172,8140,8161,8143,8167,8082,8147,8145,8166,8166,8165,3.358983278274536
53,8182,8166,8150,8167,8143,8171,8148,8181,8128,8152,8157,8182,8166,8170,3.366539001464844
53,8182,8166,8150,8167,8143,8171,8148,8181,8128,8152,8157,8182,8166,8170,3.3675365447998047
54,8183,8187,8159,8179,8136,8163,8142,8185,8198,8169,8187,8195,8167,8170,3.3750078678131104
55,8203,8181,8179,8197,8151,8156,8154,8182,8140,8206,8204,8173,8165,8183,3.383533477783203
56,8207,8203,8193,8198,8134,8147,8137,8186,8242,8166,8174,8195,8169,8178,3.3905632495880127
57,8178,8177,8163,8180,8141,8149,8143,8170,8128,8152,8183,8163,8162,8156,3.3985671997070312
57,8178,8177,8163,8180,8141,8149,8143,8170,8128,8152,8183,8163,8162,8156,3.399558782577514
58,8200,8198,8178,8203,8150,8155,8147,8171,8138,8174,8200,8182,8165,8178,3.406970739364624
59,8203,8206,8188,8207,8140,8147,8145,8182,8220,8181,8197,8204,8170,8182,3.414008140563965
60,8193,8172,8164,8191,8158,8155,8159,8174,8113,8188,8197,8173,8161,8176,3.422425508499145
61,8211,8207,8186,8215,8164,8163,8145,8180,8239,8182,8189,8202,8167,8193,3.4299464225769043
62,8213,8200,8189,8223,8172,8159,8154,8192,8229,8223,8208,8180,8168,8197,3.4379515647888184
63,8224,8201,8171,8216,8162,8153,8153,8191,8203,8210,8200,8181,8159,8189,3.445962905883789
64,8204,8200,8167,8205,8144,8137,8140,8186,8238,8168,8175,8196,8157,8165,3.454007148742676
65,8198,8169,8188,8201,8152,8147,8163,8185,8145,8197,8186,8162,8160,8174,3.461913585662842
66,8213,8199,8207,8207,8131,8167,8157,8187,8251,8185,8181,8193,8168,8198,3.4699196815490723
67,8190,8185,8161,8192,8134,8154,8147,8178,8187,8180,8184,8178,8162,8180,3.478001594543457
68,8202,8189,8150,8200,8147,8149,8144,8178,8151,8199,8183,8169,8157,8175,3.48472261428833
69,8195,8208,8166,8201,8138,8168,8146,8187,8248,8189,8183,8187,8165,8180,3.492717742919922
70,8189,8181,8150,8191,8158,8181,8170,8191,8152,8199,8205,8166,8167,8190,3.501007080078125
71,8222,8205,8172,8205,8145,8180,8160,8191,8231,8181,8175,8198,8160,8196,3.5087127685546875
72,8199,8190,8166,8199,8138,8182,8159,8178,8191,8182,8155,8176,8152,8170,3.5170462131500244
73,8196,8181,8148,8202,8150,8181,8162,8183,8144,8199,8167,8159,8160,8169,3.5247392654418945
73,8196,8181,8148,8202,8150,8181,8162,8183,8144,8199,8167,8159,8160,8169,3.525739908218384
74,8197,8195,8177,8196,8126,8167,8142,8187,8240,8179,8168,8189,8171,8178,3.533062696456909
75,8174,8168,8177,8180,8127,8170,8147,8179,8133,8190,8176,8162,8164,8181,3.5409629344940186
76,8197,8197,8163,8197,8123,8176,8150,8202,8229,8204,8166,8182,8170,8192,3.5480074882507324
77,8183,8182,8140,8181,8130,8176,8165,8206,8235,8209,8183,8174,8168,8175,3.556016445159912
78,8168,8167,8137,8172,8145,8191,8172,8193,8163,8196,8201,8165,8156,8175,3.564154148101806
79,8180,8192,8149,8191,8133,8182,8154,8198,8272,8181,8195,8202,8165,8180,3.5721852779388428
80,8176,8164,8131,8184,8145,8164,8166,8191,8183,8213,8222,8170,8177,8176,3.5802102088928223
81,8180,8180,8136,8183,8135,8163,8151,8185,8224,8187,8207,8176,8166,8177,3.5882105827331543
82,8169,8168,8127,8175,8132,8159,8140,8179,8195,8161,8179,8162,8147,8157,3.5960071086883545
83,8174,8151,8126,8164,8142,8162,8147,8182,8108,8171,8196,8145,8159,8152,3.6040074825286874
84,8160,8176,8140,8172,8111,8174,8128,8195,8238,8155,8201,8183,8178,8149,3.611006736755371
85,8142,8148,8107,8174,8116,8186,8143,8184,8149,8194,8198,8149,8160,8143,3.618529081344605
86,8172,8162,8109,8168,8117,8183,8146,8173,8156,8189,8182,8159,8153,8152,3.6265385150909424
87,8143,8160,8125,8140,8098,8163,8120,8168,8150,8135,8176,8163,8159,8136,3.6346030235290527
88,8127,8139,8114,8143,8100,8161,8117,8166,8036,8132,8164,8134,8153,8126,3.64259934425354
89,8138,8156,8102,8149,8091,8160,8114,8170,8119,8126,8129,8160,8151,8117,3.650603294372559
90,8111,8132,8088,8120,8102,8160,8127,8168,8034,8138,8150,8137,8153,8106,3.6591057777404794
91,8134,8157,8111,8139,8102,8171,8125,8174,8086,8135,8164,8156,8156,8129,3.66697096824646
92,8143,8156,8099,8152,8099,8165,8124,8177,8141,8128,8153,8171,8155,8123,3.674559831619263
92,8143,8156,8099,8152,8099,8165,8124,8177,8141,8128,8153,8171,8155,8123,3.6755528450012207
93,8137,8137,8127,8147,8121,8170,8139,8183,8053,8159,8173,8149,8163,8119,3.681559801101685
94,8155,8182,8230,8155,8109,8183,8134,8202,8224,8171,8188,8188,8181,8148,3.690006971359253
95,8140,8152,8191,8141,8108,8176,8148,8196,8181,8182,8204,8162,8171,8150,3.698007106781006
96,8140,8144,8094,8155,8101,8161,8142,8185,8126,8156,8184,8157,8155,8132,3.7060296535491934
97,8150,8164,8100,8171,8098,8163,8137,8184,8166,8135,8169,8174,8161,8121,3.714024066925049
98,8168,8153,8138,8161,8129,8173,8160,8175,8095,8167,8191,8152,8167,8136,3.722008228302002
99,8163,8171,8138,8157,8111,8164,8130,8169,8182,8142,8174,8178,8161,8127,3.7300071716308594
100,8123,8149,8114,8154,8112,8167,8123,8172,8100,8134,8175,8157,8152,8099,3.738064765930176
101,8158,8169,8137,8172,8139,8190,8146,8189,8123,8162,8195,8164,8163,8131,3.744813919067383
101,8158,8169,8137,8172,8139,8190,8146,8189,8123,8162,8195,8164,8163,8131,3.745837450027466
102,8164,8186,8140,8168,8134,8191,8138,8177,8211,8157,8184,8176,8160,8135,3.753286838531494
103,8125,8143,8097,8144,8131,8179,8125,8145,8029,8135,8163,8129,8132,8084,3.7603952884674072
104,8130,8163,8100,8148,8107,8167,8107,8153,8086,8105,8135,8156,8142,8064,3.769006729125977
105,8130,8155,8116,8144,8118,8167,8127,8171,8097,8140,8165,8158,8168,8086,3.7769715785980233
106,8152,8159,8129,8147,8144,8186,8150,8191,8109,8163,8195,8162,8173,8122,3.7850072383880615
107,8147,8174,8127,8144,8132,8192,8142,8193,8204,8138,8174,8172,8165,8114,3.7930073738098153
107,8147,8174,8127,8144,8132,8192,8142,8193,8204,8138,8174,8172,8165,8114,3.793487071990967
108,8115,8135,8103,8127,8132,8183,8140,8170,8068,8144,8170,8124,8154,8095,3.8010025024414062
109,8125,8160,8116,8139,8109,8171,8120,8172,8113,8126,8154,8156,8157,8103,3.8080203533172607
110,8133,8165,8119,8145,8107,8167,8130,8179,8102,8136,8165,8169,8162,8105,3.816016674041748
111,8160,8170,8136,8161,8133,8185,8141,8181,8092,8153,8199,8173,8164,8126,3.824007511138916
112,8163,8186,8162,8169,8129,8189,8121,8181,8197,8130,8190,8193,8163,8128,3.83200740814209
113,8151,8155,8150,8158,8135,8177,8128,8171,8073,8161,8177,8158,8156,8124,3.8400068283081055
114,8178,8188,8183,8180,8133,8177,8113,8173,8157,8160,8168,8191,8160,8141,3.8480067253112793
115,8176,8189,8207,8180,8144,8192,8120,8174,8184,8139,8189,8186,8160,8122,3.8559279441833496
116,8167,8166,8176,8163,8148,8194,8148,8171,8106,8146,8202,8156,8157,8108,3.8634512424468994
116,8167,8166,8176,8163,8148,8194,8148,8171,8106,8146,8202,8156,8157,8108,3.864449977874756
117,8145,8178,8141,8155,8121,8171,8133,8174,8188,8133,8181,8178,8156,8106,3.870450258255005
117,8145,8178,8141,8155,8121,8171,8133,8174,8188,8133,8181,8178,8156,8106,3.871450185775757
118,8123,8152,8111,8140,8137,8169,8131,8168,8073,8143,8182,8144,8148,8098,3.87900710105896
119,8138,8165,8122,8135,8138,8184,8122,8169,8105,8128,8166,8161,8150,8101,3.8869705200195312
120,8132,8160,8128,8138,8136,8180,8126,8174,8147,8135,8176,8172,8162,8106,3.895008087158203
121,8151,8164,8136,8165,8151,8184,8145,8180,8118,8165,8214,8159,8173,8139,3.903001546859741
122,8168,8197,8152,8182,8130,8186,8126,8183,8233,8151,8205,8187,8172,8148,3.9110071659088135
123,8150,8163,8138,8161,8136,8173,8127,8174,8129,8177,8195,8164,8159,8129,3.9190480709075928
124,8168,8175,8161,8159,8135,8168,8126,8173,8165,8177,8187,8181,8161,8135,3.9270427227020255
125,8154,8175,8165,8156,8126,8175,8123,8177,8199,8151,8193,8174,8161,8119,3.9350085258483887
126,8149,8152,8137,8157,8142,8190,8147,8188,8100,8164,8180,8142,8152,8112,3.942007541656494
127,8163,8183,8159,8168,8127,8195,8147,8197,8220,8151,8148,8188,8166,8125,3.950007438659668
240,8161,8179,8186,8177,8138,8197,8154,8190,8187,8174,8205,8182,8177,8135,3.957350730895996
240,8161,8179,8186,8177,8138,8197,8154,8190,8187,8174,8205,8182,8177,8135,3.9583499431610103
0,8201,8205,8209,8207,8159,8203,8160,8202,8250,8209,8248,8188,8170,8159,3.965747356414795
1,8170,8190,8180,8185,8154,8205,8159,8205,8288,8192,8221,8178,8158,8142,3.973759174346924
2,8130,8149,8150,8155,8157,8214,8163,8194,8143,8171,8210,8145,8155,8122,3.982006788253784
3,8165,8192,8171,8181,8131,8207,8150,8197,8253,8164,8199,8179,8163,8133,3.9904303550720215
4,8153,8172,8145,8171,8129,8188,8159,8195,8185,8186,8199,8154,8158,8132,3.9982619285583496
5,8146,8165,8127,8163,8136,8190,8158,8197,8156,8173,8194,8159,8163,8141,4.005263328552246
6,8155,8182,8142,8172,8126,8188,8152,8190,8225,8148,8186,8172,8170,8141,4.013006925582886
7,8165,8166,8145,8173,8133,8175,8157,8171,8114,8164,8206,8138,8155,8143,4.024011611938477
7,8165,8166,8145,8173,8133,8175,8157,8171,8114,8164,8206,8138,8155,8143,4.025011301040649
8,8185,8189,8156,8183,8110,8162,8132,8178,8193,8143,8193,8179,8152,8152,4.029008388519287
9,8178,8168,8152,8177,8110,8165,8142,8176,8135,8142,8184,8170,8155,8144,4.037010431289673
10,8190,8179,8173,8190,8125,8166,8160,8177,8124,8157,8201,8163,8163,8154,4.045015811920166
11,8184,8197,8174,8194,8117,8154,8156,8187,8230,8156,8207,8180,8168,8158,4.053014755249023
11,8184,8197,8174,8194,8117,8154,8156,8187,8230,8156,8207,8180,8168,8158,4.05330491065979
12,8172,8163,8139,8177,8132,8155,8166,8181,8123,8181,8199,8153,8166,8162,4.060944557189941
13,8187,8188,8156,8186,8123,8149,8147,8184,8197,8170,8171,8178,8170,8165,4.06890606880188
14,8172,8174,8151,8180,8120,8132,8142,8177,8153,8170,8185,8156,8163,8144,4.0769031047821045
15,8172,8172,8137,8169,8120,8140,8154,8171,8105,8171,8200,8141,8156,8142,4.083905458450317
16,8165,8191,8138,8167,8109,8149,8149,8183,8201,8151,8182,8164,8151,8130,4.0919029712677
17,8161,8160,8125,8169,8124,8137,8159,8179,8090,8174,8189,8134,8143,8118,4.099903106689453
18,8172,8177,8127,8172,8108,8124,8141,8164,8132,8142,8168,8158,8152,8121,4.108072280883789
19,8133,8173,8112,8151,8110,8132,8138,8158,8101,8120,8165,8153,8158,8104,4.1160078048706055
20,8148,8181,8120,8162,8130,8162,8166,8184,8093,8152,8199,8152,8162,8125,4.123994827270508
21,8177,8208,8157,8183,8119,8167,8160,8206,8259,8163,8203,8191,8173,8154,4.131989479064941
22,8177,8179,8153,8177,8138,8160,8154,8185,8159,8184,8203,8156,8168,8152,4.139006614685059
23,8203,8197,8153,8190,8134,8168,8148,8177,8192,8168,8180,8170,8160,8154,4.146849632263184
24,8190,8189,8163,8189,8128,8171,8159,8182,8211,8170,8185,8177,8164,8153,4.154842853546143
25,8175,8173,8171,8176,8136,8177,8167,8179,8164,8192,8206,8166,8162,8162,4.16286301612854
26,8171,8186,8159,8166,8111,8164,8142,8178,8245,8157,8179,8188,8158,8151,4.170801162719727
27,8173,8159,8128,8168,8110,8145,8151,8180,8124,8166,8179,8154,8159,8138,4.178794145584106
28,8202,8189,8158,8200,8113,8153,8151,8186,8201,8189,8190,8174,8168,8158,4.186970949172974
29,8162,8188,8155,8186,8113,8155,8137,8179,8233,8181,8185,8168,8160,8138,4.195001125335693
30,8142,8154,8115,8164,8112,8136,8133,8168,8083,8165,8164,8129,8149,8112,4.203028678894043
31,8164,8174,8133,8166,8096,8130,8120,8164,8164,8142,8150,8164,8162,8114,4.209958791732788
32,8143,8156,8140,8150,8117,8142,8143,8158,8112,8163,8178,8157,8165,8121,4.218314170837402
32,8143,8156,8140,8150,8117,8142,8143,8158,8112,8163,8178,8157,8165,8121,4.218496322631836
33,8147,8175,8139,8161,8118,8137,8137,8173,8140,8160,8157,8168,8156,8126,4.226508140563965
34,8148,8173,8135,8159,8118,8121,8125,8181,8159,8154,8135,8160,8152,8113,4.233512163162232
35,8142,8145,8133,8142,8145,8128,8149,8177,8073,8177,8163,8135,8158,8120,4.242007732391357
36,8154,8182,8150,8162,8122,8127,8151,8187,8204,8159,8153,8175,8168,8129,4.249978303909302
37,8156,8174,8146,8174,8121,8115,8161,8181,8136,8169,8156,8156,8161,8120,4.257972717285156
38,8173,8183,8163,8184,8142,8111,8147,8175,8142,8173,8164,8164,8157,8132,4.26600456237793
39,8165,8184,8170,8185,8142,8108,8137,8175,8212,8161,8167,8177,8164,8138,4.273019790649414
40,8164,8165,8157,8188,8165,8126,8168,8176,8122,8184,8191,8155,8165,8150,4.280428647994995
40,8164,8165,8157,8188,8165,8126,8168,8176,8122,8184,8191,8155,8165,8150,4.281418800354004
41,8182,8201,8178,8204,8168,8136,8164,8187,8246,8180,8184,8186,8164,8156,4.289419889450073
42,8174,8178,8176,8195,8170,8121,8164,8184,8202,8200,8184,8153,8157,8141,4.297520875930786
43,8180,8174,8174,8190,8160,8121,8158,8176,8165,8196,8184,8152,8155,8147,4.30500864982605
44,8162,8185,8164,8190,8148,8125,8149,8182,8224,8160,8173,8173,8157,8141,4.313007116317749
45,8162,8164,8151,8190,8173,8131,8176,8188,8141,8187,8177,8134,8157,8141,4.321035861968994
46,8179,8190,8168,8187,8162,8136,8164,8193,8246,8198,8168,8163,8165,8154,4.329045534133911
47,8151,8171,8151,8173,8164,8138,8160,8188,8200,8207,8177,8162,8163,8152,4.33697247505188
48,8174,8175,8151,8191,8167,8135,8164,8189,8174,8197,8174,8155,8158,8168,4.344078779220581
49,8172,8186,8164,8183,8133,8119,8143,8176,8226,8147,8153,8165,8159,8145,4.352416038513184
50,8146,8151,8141,8152,8141,8115,8150,8158,8059,8156,8161,8134,8157,8122,4.3594231605529785
51,8183,8190,8160,8182,8152,8110,8147,8174,8152,8168,8158,8173,8160,8154,4.368007183074951
52,8184,8191,8178,8200,8162,8095,8141,8180,8167,8171,8169,8164,8153,8158,4.375518560409546
52,8184,8191,8178,8200,8162,8095,8141,8180,8167,8171,8169,8164,8153,8158,4.376513719558716
53,8196,8182,8187,8202,8177,8106,8149,8176,8137,8187,8189,8153,8160,8160,4.383518695831299
53,8196,8182,8187,8202,8177,8106,8149,8176,8137,8187,8189,8153,8160,8160,4.384512662887573
54,8218,8203,8203,8215,8183,8124,8153,8182,8275,8197,8200,8194,8176,8174,4.392263174057007
55,8208,8178,8185,8216,8201,8130,8166,8175,8185,8212,8217,8166,8166,8175,4.400008201599121
56,8205,8190,8175,8215,8180,8130,8146,8173,8219,8175,8185,8174,8155,8163,4.406970977783203
57,8170,8177,8167,8196,8173,8132,8146,8174,8206,8173,8172,8164,8157,8141,4.415184497833252
58,8174,8176,8170,8197,8189,8138,8171,8188,8171,8197,8180,8150,8158,8149,4.4231791496276855
59,8186,8200,8171,8204,8167,8135,8172,8198,8275,8169,8160,8173,8160,8152,4.431008100509644
60,8169,8170,8153,8192,8174,8137,8177,8187,8158,8178,8179,8149,8158,8146,4.439006805419922
61,8190,8193,8183,8209,8182,8138,8162,8189,8226,8191,8189,8175,8166,8162,4.446749448776245
61,8190,8193,8183,8209,8182,8138,8162,8189,8226,8191,8189,8175,8166,8162,4.447750091552734
62,8178,8192,8184,8200,8181,8131,8154,8181,8243,8196,8188,8169,8163,8155,4.455007553100586
63,8169,8182,8159,8196,8197,8139,8164,8179,8157,8198,8189,8149,8154,8149,4.462589740753174
64,8182,8207,8168,8207,8195,8148,8163,8196,8273,8166,8158,8176,8161,8145,4.469595432281494
65,8168,8165,8156,8183,8207,8145,8187,8188,8180,8175,8157,8139,8158,8136,4.477604866027832
66,8177,8182,8164,8190,8194,8138,8169,8180,8206,8179,8166,8162,8158,8148,4.486007213592529
67,8175,8192,8171,8198,8182,8131,8145,8178,8234,8180,8175,8179,8160,8152,4.49400782585144
68,8176,8167,8161,8191,8195,8134,8162,8176,8139,8190,8178,8157,8156,8161,4.502042531967163
69,8169,8183,8164,8186,8173,8133,8161,8186,8240,8155,8153,8181,8155,8154,4.509745597839356
70,8146,8156,8146,8167,8179,8130,8167,8181,8147,8168,8155,8146,8150,8135,4.518005132675171
71,8166,8173,8145,8172,8179,8130,8157,8178,8156,8176,8149,8155,8156,8149,4.525990009307861
72,8175,8190,8151,8182,8173,8125,8155,8187,8221,8168,8148,8174,8166,8160,4.532991886138916
73,8184,8173,8164,8186,8212,8138,8178,8189,8152,8192,8180,8155,8170,8174,4.540990591049194
74,8186,8191,8189,8188,8209,8139,8157,8185,8267,8174,8175,8183,8173,8177,4.549006938934326
75,8171,8162,8173,8181,8200,8127,8160,8180,8198,8185,8177,8159,8164,8165,4.55704140663147
76,8200,8181,8187,8203,8204,8130,8176,8192,8208,8195,8184,8164,8160,8184,4.565092325210571
77,8200,8207,8200,8210,8204,8130,8170,8189,8281,8177,8179,8176,8160,8180,4.572711944580078
78,8193,8181,8182,8204,8220,8131,8175,8172,8169,8191,8182,8148,8161,8172,4.580725908279419
79,8201,8194,8197,8206,8210,8128,8161,8176,8261,8180,8161,8182,8167,8178,4.589000940322876
80,8170,8169,8183,8186,8206,8115,8162,8176,8198,8184,8160,8158,8157,8158,4.596008539199829
81,8191,8180,8184,8192,8206,8110,8163,8177,8175,8183,8165,8158,8153,8163,4.604318380355835
82,8198,8198,8206,8204,8207,8109,8159,8185,8279,8176,8173,8197,8164,8176,4.612320184707642
83,8171,8167,8195,8196,8224,8113,8176,8188,8184,8198,8187,8166,8163,8172,4.620361804962158
84,8186,8186,8185,8197,8187,8107,8156,8182,8238,8163,8150,8175,8158,8157,4.628010272979736
85,8171,8169,8161,8176,8177,8107,8152,8160,8162,8147,8144,8160,8152,8137,4.635738372802734
86,8161,8174,8171,8184,8204,8131,8164,8165,8123,8161,8165,8164,8158,8148,4.643978595733643
87,8167,8199,8188,8205,8196,8145,8158,8187,8240,8150,8159,8191,8164,8150,4.651993751525879
88,8175,8175,8176,8201,8204,8147,8175,8189,8160,8182,8173,8161,8157,8154,4.660011291503906
89,8196,8198,8201,8213,8200,8144,8176,8201,8267,8191,8172,8192,8157,8179,4.666975498199463
90,8179,8185,8197,8206,8194,8140,8177,8199,8253,8180,8168,8178,8151,8173,4.675011396408081
91,8175,8173,8171,8198,8188,8148,8173,8174,8150,8160,8167,8152,8146,8162,4.682993412017822
92,8162,8188,8170,8198,8164,8142,8153,8166,8216,8127,8151,8177,8156,8144,4.69099235534668
93,8154,8157,8161,8188,8174,8131,8165,8174,8112,8148,8156,8157,8163,8142,4.698996067047119
94,8173,8178,8167,8190,8167,8134,8155,8178,8163,8141,8141,8177,8161,8160,4.7070088386535645
95,8138,8171,8156,8184,8158,8143,8150,8164,8159,8137,8135,8163,8152,8139,4.715234279632568
95,8138,8171,8156,8184,8158,8143,8150,8164,8159,8137,8135,8163,8152,8139,4.715357780456543
96,8147,8156,8152,8189,8154,8148,8164,8166,8100,8161,8135,8144,8151,8135,4.72301173210144
97,8164,8175,8170,8184,8130,8132,8150,8174,8204,8143,8116,8177,8161,8143,4.72969913482666
98,8134,8156,8153,8167,8155,8119,8150,8160,8095,8142,8133,8153,8161,8133,4.7376930713653564
99,8157,8181,8151,8182,8159,8129,8136,8162,8138,8133,8129,8173,8159,8137,4.745701789855957
100,8151,8167,8145,8175,8146,8139,8136,8163,8155,8133,8126,8174,8157,8133,4.754012584686279
101,8134,8149,8149,8175,8169,8145,8162,8167,8085,8153,8158,8158,8159,8146,4.762012004852295
102,8148,8191,8168,8198,8164,8140,8154,8186,8235,8144,8155,8189,8167,8157,4.770004034042358
103,8157,8161,8135,8186,8164,8145,8159,8177,8144,8169,8143,8153,8160,8147,4.7780046463012695
104,8177,8168,8137,8187,8158,8163,8158,8168,8147,8160,8136,8172,8161,8164,4.786011219024658
105,8157,8178,8155,8191,8161,8159,8157,8179,8209,8144,8152,8191,8168,8169,4.794002056121826
106,8162,8161,8145,8188,8186,8155,8170,8186,8132,8171,8165,8159,8164,8169,4.801008939743042
107,8175,8179,8145,8189,8166,8152,8152,8179,8215,8158,8137,8180,8162,8165,4.809014558792114
108,8146,8156,8141,8177,8168,8151,8162,8176,8140,8165,8133,8158,8158,8157,4.816970348358154
109,8166,8177,8155,8186,8172,8148,8169,8186,8174,8173,8107,8167,8161,8163,4.825007677078247
110,8164,8187,8150,8179,8152,8135,8148,8163,8204,8162,8080,8177,8163,8146,4.833006858825684
111,8152,8161,8146,8176,8164,8143,8149,8148,8077,8167,8101,8151,8159,8152,4.841007232666016
112,8179,8191,8177,8195,8167,8156,8151,8179,8215,8150,8100,8187,8167,8169,4.84879732131958
113,8168,8170,8173,8184,8181,8150,8167,8187,8179,8169,8118,8171,8163,8156,4.855797290802002
114,8174,8172,8172,8190,8180,8142,8169,8176,8162,8182,8125,8173,8162,8164,4.86400318145752
115,8176,8182,8174,8196,8168,8145,8163,8176,8234,8166,8106,8184,8167,8164,4.872007608413696
116,8166,8159,8163,8187,8183,8156,8167,8171,8126,8177,8113,8152,8158,8160,4.88000750541687
117,8171,8185,8173,8195,8170,8162,8147,8176,8223,8162,8110,8185,8160,8162,4.888376951217651
118,8153,8165,8156,8187,8173,8173,8162,8172,8188,8172,8126,8170,8163,8150,4.896377086639404
119,8166,8169,8153,8195,8188,8188,8171,8175,8175,8198,8140,8163,8167,8160,4.904378890991211
120,8175,8185,8163,8196,8186,8182,8157,8185,8272,8182,8120,8177,8169,8164,4.912002801895142
121,8155,8147,8142,8169,8193,8169,8167,8165,8121,8163,8107,8140,8152,8145,4.9200074672698975
122,8136,8162,8142,8169,8158,8163,8138,8150,8143,8121,8081,8164,8146,8121,4.92697024345398
123,8112,8148,8127,8167,8151,8164,8129,8147,8109,8125,8080,8152,8151,8100,4.935002088546753
124,8139,8154,8132,8177,8178,8169,8152,8157,8095,8155,8095,8150,8161,8117,4.9430999755859375
125,8143,8186,8149,8194,8173,8160,8146,8169,8210,8159,8096,8179,8163,8117,4.951116323471069
126,8120,8149,8126,8180,8185,8164,8145,8159,8093,8175,8108,8138,8155,8098,4.959006786346436
126,8120,8149,8126,8180,8185,8164,8145,8159,8093,8175,8108,8138,8155,8098,4.959521770477295
127,8140,8162,8139,8179,8182,8184,8135,8158,8158,8142,8095,8164,8165,8101,4.966588735580444
127,8140,8162,8139,8179,8182,8184,8135,8158,8158,8142,8095,8164,8165,8101,4.967612266540527
240,8143,8159,8155,8180,8178,8184,8150,8162,8166,8142,8100,8171,8166,8098,4.974680662155151
0,8149,8158,8161,8181,8183,8174,8159,8164,8111,8174,8119,8158,8160,8108,4.982964992523193
1,8150,8189,8169,8179,8169,8167,8142,8164,8215,8154,8111,8184,8164,8107,4.990965127944946
2,8155,8168,8151,8176,8189,8177,8166,8164,8123,8158,8118,8148,8160,8098,4.998007297515869
3,8173,8178,8153,8183,8192,8183,8163,8175,8177,8154,8109,8161,8158,8100,5.006282329559326
4,8128,8162,8138,8166,8191,8179,8147,8166,8173,8161,8117,8161,8158,8078,5.014273166656494
4,8128,8162,8138,8166,8191,8179,8147,8166,8173,8161,8117,8161,8158,8078,5.014483690261841
5,8127,8154,8125,8163,8205,8195,8160,8159,8097,8175,8134,8145,8158,8078,5.02298903465271
6,8146,8180,8142,8168,8190,8202,8158,8167,8207,8146,8113,8173,8160,8084,5.02998685836792
7,8125,8149,8134,8161,8199,8191,8169,8170,8119,8163,8124,8148,8161,8078,5.038029193878174
8,8150,8166,8139,8176,8191,8186,8171,8175,8179,8165,8123,8168,8166,8093,5.045317649841309
9,8132,8160,8126,8158,8175,8170,8157,8155,8184,8144,8106,8164,8157,8075,5.05331826210022
10,8113,8139,8114,8146,8188,8159,8148,8143,8057,8160,8113,8140,8149,8067,5.061007976531982
11,8136,8169,8146,8162,8182,8165,8141,8157,8184,8150,8117,8176,8162,8085,5.068981885910034
12,8127,8144,8147,8155,8190,8172,8161,8148,8118,8151,8133,8141,8166,8085,5.076908826828003
13,8140,8162,8150,8166,8180,8171,8152,8146,8117,8143,8112,8145,8160,8085,5.08490777015686
14,8133,8170,8144,8163,8174,8170,8145,8153,8147,8129,8099,8157,8156,8069,5.093005657196045
15,8127,8144,8133,8151,8210,8188,8179,8160,8080,8159,8123,8136,8159,8079,5.10100793838501
16,8146,8171,8145,8163,8204,8195,8183,8181,8237,8173,8107,8173,8170,8098,5.108996629714966
17,8132,8151,8128,8152,8203,8190,8180,8178,8172,8181,8104,8152,8162,8087,5.11798906326294
18,8141,8163,8136,8159,8205,8194,8177,8177,8172,8170,8113,8160,8159,8100,5.123987913131714
19,8156,8180,8154,8174,8199,8198,8189,8183,8265,8179,8116,8173,8174,8113,5.131989240646362
20,8159,8160,8142,8162,8224,8207,8201,8167,8156,8197,8116,8134,8169,8107,5.1399900913238525
21,8149,8182,8147,8152,8224,8208,8172,8165,8230,8145,8098,8163,8158,8092,5.147993803024292
22,8137,8167,8141,8151,8225,8202,8189,8176,8209,8168,8126,8154,8162,8087,5.155993223190308
22,8137,8167,8141,8151,8225,8202,8189,8176,8209,8168,8126,8154,8162,8087,5.156339645385742
23,8161,8175,8151,8168,8209,8200,8196,8177,8212,8207,8150,8155,8170,8103,5.163855791091919
24,8148,8184,8162,8167,8186,8188,8169,8171,8260,8176,8141,8171,8165,8091,5.17185640335083
25,8146,8160,8161,8162,8209,8189,8190,8178,8161,8187,8156,8147,8157,8097,5.179853916168213
26,8160,8181,8175,8164,8194,8199,8188,8184,8272,8198,8153,8183,8164,8121,5.187856197357178
27,8122,8156,8157,8143,8194,8199,8180,8173,8220,8206,8165,8168,8163,8108,5.194854497909546
28,8145,8169,8165,8165,8220,8208,8191,8187,8207,8205,8180,8162,8164,8114,5.202902793884277
29,8171,8194,8174,8178,8214,8219,8196,8197,8325,8186,8162,8181,8169,8111,5.211209297180176
30,8146,8153,8145,8152,8222,8220,8203,8179,8196,8209,8169,8141,8160,8102,5.219007253646851
31,8152,8178,8163,8167,8212,8199,8171,8174,8262,8198,8168,8168,8160,8119,5.226970672607422
32,8148,8172,8163,8169,8206,8183,8159,8168,8233,8181,8170,8164,8160,8109,5.235007047653198
33,8165,8160,8137,8167,8210,8194,8179,8167,8157,8186,8170,8155,8159,8104,5.243001461029053
34,8172,8183,8126,8173,8200,8196,8179,8172,8266,8183,8157,8174,8164,8109,5.251016855239868
35,8143,8156,8123,8155,8229,8195,8185,8167,8182,8207,8178,8141,8166,8110,5.25801682472229
36,8148,8173,8140,8155,8229,8204,8176,8174,8245,8182,8177,8171,8171,8112,5.266056299209595
37,8149,8167,8119,8160,8217,8212,8186,8174,8238,8172,8170,8169,8161,8099,5.2740092277526855
38,8161,8155,8101,8158,8220,8218,8201,8161,8158,8185,8170,8151,8155,8111,5.282032489776611
39,8151,8173,8137,8149,8201,8211,8172,8158,8248,8152,8157,8179,8164,8114,5.290032386779785
40,8134,8150,8115,8141,8210,8215,8181,8166,8154,8168,8169,8147,8160,8106,5.298007011413574
41,8170,8170,8094,8160,8210,8224,8184,8172,8204,8177,8164,8162,8159,8115,5.305901288986206
42,8157,8163,8251,8156,8208,8214,8165,8160,8226,8169,8178,8164,8165,8107,5.313907861709595
43,8154,8148,8521,8152,8212,8213,8170,8164,8190,8195,8194,8143,8165,8110,5.321390390396118
44,8164,8174,8621,8152,8188,8223,8176,8177,8340,8182,8153,8172,8161,8113,5.329407691955566
45,8134,8149,8548,8136,8198,8233,8192,8167,8247,8180,8141,8146,8158,8111,5.337404012680054
46,8151,8170,8563,8153,8191,8242,8184,8176,8275,8184,8136,8159,8167,8130,5.345007419586182
47,8151,8171,8588,8149,8177,8245,8187,8186,8329,8191,8133,8162,8166,8123,5.352505683898926
48,8143,8144,8545,8135,8188,8255,8206,8177,8239,8205,8144,8137,8156,8117,5.361018180847168
49,8153,8168,8543,8146,8160,8255,8188,8174,8326,8178,8121,8170,8160,8119,5.369006633758545
50,8147,8150,8530,8141,8165,8254,8193,8171,8243,8184,8131,8154,8161,8117,5.377021789550781
51,8178,8181,8537,8161,8186,8261,8196,8182,8293,8200,8150,8172,8169,8145,5.384028673171997
52,8179,8196,8548,8170,8182,8255,8188,8179,8368,8197,8150,8182,8167,8143,5.39208459854126
53,8165,8166,8523,8158,8187,8255,8200,8160,8231,8190,8143,8147,8155,8122,5.399943113327026
54,8168,8183,8508,8158,8175,8256,8192,8167,8310,8160,8124,8173,8161,8119,5.408083915710449
55,8148,8155,8477,8140,8179,8237,8196,8171,8251,8181,8150,8152,8164,8125,5.416116714477539
56,8162,8168,8479,8154,8175,8232,8189,8173,8248,8187,8168,8162,8162,8138,5.424107551574707
57,8168,8186,8479,8167,8166,8246,8183,8181,8333,8178,8154,8179,8162,8125,5.43214750289917
58,8160,8152,8447,8143,8189,8247,8203,8179,8239,8211,8158,8143,8156,8124,5.440182209014893
59,8160,8177,8451,8139,8178,8228,8186,8178,8318,8197,8152,8172,8161,8130,5.446431636810303
60,8150,8168,8439,8147,8183,8226,8197,8170,8252,8197,8163,8161,8161,8111,5.455431699752808
61,8172,8173,8436,8159,8199,8241,8213,8174,8233,8200,8171,8162,8155,8115,5.463007688522339
62,8170,8190,8440,8156,8188,8229,8200,8189,8336,8192,8184,8184,8164,8121,5.471007823944092
63,8167,8171,8413,8158,8200,8227,8216,8187,8253,8237,8231,8162,8179,8138,5.479007005691528
64,8195,8205,8406,8182,8201,8250,8217,8187,8375,8246,8233,8202,8185,8165,5.487047433853149
65,8180,8187,8375,8175,8210,8247,8219,8191,8368,8251,8224,8183,8170,8159,5.495085000991821
66,8179,8169,8330,8160,8209,8224,8213,8191,8287,8242,8211,8151,8159,8147,5.503099679946899
67,8157,8180,8280,8152,8181,8215,8198,8185,8319,8202,8185,8168,8159,8122,5.511095285415649
68,8140,8163,8207,8157,8199,8229,8222,8193,8223,8239,8202,8151,8159,8121,5.518001556396484
69,8177,8196,8166,8178,8205,8227,8218,8208,8333,8256,8208,8182,8170,8155,5.525869846343994
70,8166,8182,8116,8168,8202,8214,8212,8188,8300,8243,8209,8174,8168,8157,5.533869743347168
71,8175,8173,8093,8171,8212,8224,8221,8183,8218,8247,8214,8168,8157,8159,5.542007923126221
72,8192,8198,8099,8176,8208,8220,8211,8199,8327,8225,8202,8195,8166,8156,5.54957389831543
72,8192,8198,8099,8176,8208,8220,8211,8199,8327,8225,8202,8195,8166,8156,5.550568342208862
73,8170,8167,8066,8158,8213,8208,8223,8194,8212,8219,8213,8155,8170,8151,5.557566642761231
74,8179,8183,8062,8169,8193,8204,8219,8194,8258,8215,8210,8177,8163,8171,5.566212177276611
75,8175,8180,8067,8172,8195,8200,8216,8192,8287,8228,8218,8187,8158,8168,5.574212074279785
76,8184,8174,8064,8172,8214,8198,8224,8190,8238,8245,8232,8173,8166,8167,5.58200740814209
77,8187,8195,8066,8173,8193,8195,8208,8202,8353,8236,8219,8198,8171,8167,5.5890069007873535
78,8160,8157,8043,8161,8204,8198,8214,8197,8246,8261,8234,8164,8159,8156,5.596670150756836
79,8179,8180,8052,8182,8197,8193,8206,8188,8270,8240,8227,8176,8160,8161,5.604669809341431
80,8186,8189,8064,8179,8180,8177,8195,8177,8273,8215,8214,8184,8164,8155,5.612724542617798
81,8189,8167,8070,8170,8197,8186,8199,8176,8181,8236,8226,8174,8161,8164,5.62100887298584
82,8204,8195,8083,8190,8187,8198,8192,8194,8321,8231,8221,8206,8165,8173,5.629007339477539
83,8193,8170,8058,8181,8201,8197,8211,8188,8245,8241,8232,8168,8162,8163,5.636964321136475
84,8189,8172,8052,8181,8209,8199,8204,8188,8253,8237,8229,8179,8165,8174,5.644700765609741
85,8170,8180,8049,8185,8203,8206,8200,8202,8317,8240,8230,8199,8171,8178,5.651715755462647
86,8173,8166,8043,8181,8219,8221,8222,8195,8229,8246,8240,8167,8164,8175,5.660006046295166
87,8173,8182,8038,8172,8190,8213,8195,8180,8291,8198,8207,8186,8159,8158,5.668006896972656
88,8150,8156,8013,8161,8186,8200,8193,8176,8196,8219,8211,8169,8157,8147,5.676003217697144
89,8178,8174,8146,8173,8207,8211,8203,8180,8219,8222,8221,8181,8162,8167,5.684016466140747
90,8162,8174,8359,8156,8197,8209,8181,8162,8269,8160,8200,8187,8159,8145,5.692017078399658
91,8151,8145,8421,8143,8188,8204,8173,8154,8144,8168,8203,8157,8149,8130,5.700007200241089
92,8189,8187,8410,8169,8178,8209,8176,8180,8280,8193,8210,8197,8162,8156,5.708007097244263
93,8171,8173,8368,8172,8200,8206,8193,8179,8261,8219,8236,8179,8172,8161,5.715006589889526
94,8168,8169,8284,8177,8195,8204,8181,8164,8219,8211,8229,8169,8166,8157,5.723007678985596
95,8166,8180,8191,8178,8175,8211,8171,8167,8269,8188,8215,8188,8162,8156,5.731306314468384
96,8160,8156,8137,8171,8206,8212,8197,8178,8183,8223,8238,8165,8160,8174,5.738305807113648
96,8160,8156,8137,8171,8206,8212,8197,8178,8183,8223,8238,8165,8160,8174,5.739305019378662
97,8176,8185,8110,8181,8210,8200,8187,8183,8277,8217,8229,8191,8165,8181,5.747309923171997
98,8166,8173,8071,8176,8218,8208,8193,8175,8233,8214,8242,8174,8166,8174,5.754307508468628
98,8166,8173,8071,8176,8218,8208,8193,8175,8233,8214,8242,8174,8166,8174,5.755308628082275
99,8193,8181,8089,8194,8223,8221,8200,8179,8226,8228,8263,8178,8165,8203,5.763334035873413
100,8204,8202,8102,8197,8208,8205,8175,8173,8312,8205,8240,8201,8157,8202,5.770772933959961
101,8193,8175,8080,8178,8228,8211,8184,8157,8176,8209,8229,8164,8149,8183,5.778770923614502
102,8214,8204,8119,8199,8214,8230,8181,8170,8260,8211,8211,8194,8158,8194,5.78577995300293
103,8200,8194,8104,8201,8201,8225,8178,8168,8234,8211,8204,8188,8157,8184,5.794001817703247
104,8201,8185,8109,8202,8216,8226,8178,8157,8172,8198,8214,8173,8153,8175,5.801875829696655
105,8199,8200,8299,8210,8205,8229,8173,8173,8307,8191,8213,8188,8163,8168,5.80987548828125
106,8188,8165,8495,8190,8207,8230,8203,8185,8251,8238,8222,8151,8168,8169,5.81800651550293
107,8199,8185,8537,8187,8209,8231,8200,8187,8335,8228,8212,8182,8166,8183,5.826007604598999
108,8180,8188,8501,8193,8213,8224,8195,8178,8338,8213,8219,8185,8159,8172,5.834289073944092
109,8208,8191,8537,8213,8218,8226,8214,8185,8298,8239,8247,8178,8172,8200,5.842292547225952
110,8234,8216,8564,8216,8211,8227,8210,8201,8439,8243,8255,8220,8189,8241,5.849297761917114
111,8203,8182,8513,8196,8229,8222,8210,8183,8333,8259,8255,8185,8166,8225,5.856971263885498
112,8208,8201,8513,8203,8219,8224,8196,8173,8346,8226,8222,8188,8152,8200,5.864531755447388
112,8208,8201,8513,8203,8219,8224,8196,8173,8346,8226,8222,8188,8152,8200,5.865527868270874
113,8207,8198,8509,8194,8213,8221,8193,8171,8338,8202,8209,8187,8159,8180,5.8725316524505615
113,8207,8198,8509,8194,8213,8221,8193,8171,8338,8202,8209,8187,8159,8180,5.873525857925415
114,8205,8178,8494,8190,8228,8211,8193,8164,8234,8213,8195,8163,8153,8175,5.881006717681885
115,8203,8197,8502,8198,8206,8203,8180,8170,8317,8189,8153,8190,8150,8164,5.889006614685059
116,8177,8166,8481,8174,8210,8213,8200,8170,8234,8210,8182,8165,8159,8158,5.897038221359253
117,8180,8177,8469,8174,8200,8213,8188,8174,8285,8222,8193,8175,8172,8175,5.905003547668457
118,8168,8171,8457,8177,8187,8191,8178,8182,8314,8216,8175,8177,8170,8170,5.9121387004852295
119,8177,8159,8448,8175,8211,8197,8208,8196,8234,8236,8196,8164,8164,8187,5.919343709945679
119,8177,8159,8448,8175,8211,8197,8208,8196,8234,8236,8196,8164,8164,8187,5.920342922210693
120,8196,8193,8448,8176,8201,8209,8201,8204,8355,8222,8186,8199,8170,8206,5.928343296051025
121,8163,8157,8410,8152,8200,8198,8195,8186,8249,8209,8165,8158,8161,8192,5.936007022857666
122,8163,8162,8409,8152,8197,8195,8185,8187,8246,8196,8164,8165,8158,8194,5.943736553192139
123,8179,8184,8430,8161,8194,8206,8189,8202,8332,8216,8184,8192,8166,8191,5.952007293701172
124,8185,8171,8421,8171,8220,8214,8213,8197,8247,8246,8189,8165,8159,8182,5.960074663162232
125,8178,8188,8421,8179,8206,8200,8198,8189,8313,8207,8155,8187,8159,8173,5.967504024505615
125,8178,8188,8421,8179,8206,8200,8198,8189,8313,8207,8155,8187,8159,8173,5.968502521514893
126,8160,8165,8412,8165,8204,8194,8202,8184,8231,8206,8170,8163,8160,8164,5.9750025272369385
127,8181,8175,8421,8176,8216,8206,8205,8189,8245,8210,8190,8167,8162,8171,5.98300838470459
240,8170,8181,8414,8181,8208,8202,8199,8190,8322,8195,8187,8184,8169,8162,5.990721702575684
240,8170,8181,8414,8181,8208,8202,8199,8190,8322,8195,8187,8184,8169,8162,5.99173378944397
0,8165,8161,8387,8175,8206,8197,8224,8188,8213,8221,8194,8156,8171,8175,5.998737812042236
1,8186,8195,8401,8188,8187,8200,8216,8199,8308,8207,8180,8186,8173,8194,6.0067338943481445
1,8186,8195,8401,8188,8187,8200,8216,8199,8308,8207,8180,8186,8173,8194,6.007732152938843
2,8170,8173,8396,8176,8190,8200,8210,8191,8266,8212,8189,8170,8164,8183,6.015007972717285
3,8179,8169,8390,8162,8184,8199,8207,8184,8251,8225,8198,8172,8165,8202,6.022564172744751
4,8161,8177,8380,8156,8165,8192,8196,8188,8317,8207,8189,8188,8171,8196,6.030567169189453
4,8161,8177,8380,8156,8165,8192,8196,8188,8317,8207,8189,8188,8171,8196,6.031560897827148
5,8133,8151,8355,8161,8173,8192,8201,8177,8176,8215,8195,8143,8158,8162,6.039007663726807
6,8151,8189,8372,8186,8151,8186,8179,8169,8239,8196,8177,8176,8155,8155,6.045593023300171
7,8147,8178,8369,8185,8158,8182,8184,8167,8208,8194,8183,8175,8160,8153,6.0537872314453125
8,8165,8169,8363,8178,8170,8188,8195,8170,8165,8193,8191,8159,8163,8161,6.062007904052734
9,8171,8189,8370,8167,8144,8168,8164,8169,8238,8162,8179,8174,8161,8150,6.070007085800171
10,8171,8173,8355,8174,8161,8159,8173,8164,8135,8189,8203,8154,8158,8148,6.077847480773926
11,8206,8204,8373,8212,8167,8172,8190,8176,8242,8199,8204,8192,8165,8175,6.085841417312622
12,8178,8186,8368,8192,8166,8161,8183,8172,8224,8181,8194,8171,8160,8162,6.093940258026123
13,8162,8165,8347,8172,8171,8152,8170,8163,8125,8156,8185,8143,8155,8147,6.101403474807739
13,8162,8165,8347,8172,8171,8152,8170,8163,8125,8156,8185,8143,8155,8147,6.1024017333984375
14,8161,8183,8339,8181,8156,8161,8166,8166,8216,8144,8180,8177,8167,8152,6.108415126800537
14,8161,8183,8339,8181,8156,8161,8166,8166,8216,8144,8180,8177,8167,8152,6.109401702880859
15,8139,8153,8319,8169,8172,8166,8187,8170,8142,8200,8204,8148,8171,8162,6.116970777511597
16,8154,8168,8327,8174,8169,8158,8182,8184,8226,8206,8201,8167,8165,8170,6.125007390975952
17,8131,8161,8318,8169,8156,8151,8177,8167,8209,8175,8206,8170,8156,8152,6.133476734161377
18,8122,8159,8313,8171,8162,8160,8173,8157,8115,8172,8219,8159,8158,8155,6.141558408737183
19,8147,8188,8325,8175,8148,8161,8161,8176,8245,8176,8198,8185,8165,8156,6.1485912799835205
20,8138,8146,8288,8153,8159,8154,8177,8160,8134,8185,8194,8149,8150,8131,6.15638542175293
20,8138,8146,8288,8153,8159,8154,8177,8160,8134,8185,8194,8149,8150,8131,6.157372951507568
21,8140,8161,8287,8167,8151,8150,8162,8157,8133,8156,8184,8161,8150,8123,6.165461301803589
22,8137,8172,8303,8181,8137,8153,8164,8174,8163,8169,8181,8165,8163,8117,6.173007249832153
23,8148,8156,8302,8175,8154,8173,8185,8169,8095,8196,8192,8152,8162,8124,6.180007696151733
24,8150,8182,8307,8175,8155,8175,8155,8162,8196,8151,8179,8184,8163,8122,6.188007116317749
25,8134,8161,8295,8167,8160,8166,8154,8159,8098,8150,8189,8157,8161,8124,6.195774555206299
26,8155,8167,8308,8170,8144,8159,8149,8158,8124,8157,8191,8175,8166,8161,6.204020023345947
27,8147,8169,8303,8167,8131,8147,8131,8148,8163,8145,8186,8181,8168,8161,6.211988925933838
28,8148,8163,8286,8168,8150,8149,8137,8144,8053,8155,8200,8151,8164,8149,6.219990968704224
28,8148,8163,8286,8168,8150,8149,8137,8144,8053,8155,8200,8151,8164,8149,6.220217227935791
29,8157,8200,8303,8179,8146,8160,8127,8151,8156,8147,8190,8186,8166,8143,6.228284597396851
30,8140,8180,8296,8180,8160,8175,8138,8146,8098,8165,8197,8162,8159,8131,6.236291885375977
31,8174,8193,8312,8199,8157,8180,8138,8143,8108,8159,8192,8168,8158,8146,6.242291688919067
31,8174,8193,8312,8199,8157,8180,8138,8143,8108,8159,8192,8168,8158,8146,6.243291139602661
32,8178,8196,8324,8185,8133,8165,8129,8140,8155,8143,8172,8182,8159,8152,6.251298904418945
33,8162,8170,8307,8162,8152,8161,8146,8145,8053,8167,8173,8154,8160,8161,6.259296178817749
34,8164,8199,8313,8177,8152,8165,8134,8158,8158,8136,8164,8186,8164,8166,6.266802787780762
35,8140,8173,8297,8177,8160,8166,8139,8149,8100,8136,8186,8169,8162,8147,6.274801731109619
36,8163,8173,8299,8188,8169,8164,8146,8157,8117,8178,8208,8176,8175,8169,6.282549381256104
37,8165,8195,8311,8191,8167,8155,8133,8161,8216,8176,8214,8200,8181,8183,6.291009426116943
38,8142,8178,8305,8174,8188,8152,8138,8145,8095,8170,8220,8167,8161,8169,6.299082040786743
39,8159,8211,8308,8179,8165,8142,8125,8152,8176,8146,8176,8187,8150,8159,6.306008100509644
39,8159,8211,8308,8179,8165,8142,8125,8152,8176,8146,8176,8187,8150,8159,6.306370735168457
40,8152,8190,8267,8175,8152,8133,8123,8144,8093,8122,8139,8161,8143,8127,6.314392328262329
41,8151,8179,8250,8176,8163,8143,8126,8121,7993,8085,8133,8153,8145,8112,6.321391820907593
41,8151,8179,8250,8176,8163,8143,8126,8121,7993,8085,8133,8153,8145,8112,6.3223912715911865
42,8128,8191,8257,8158,8152,8140,8107,8115,8057,8065,8139,8178,8156,8106,6.330007314682007
43,8106,8164,8233,8146,8155,8129,8105,8130,7985,8123,8157,8156,8162,8114,6.337461948394775
44,8149,8194,8253,8186,8161,8142,8126,8166,8141,8167,8152,8195,8179,8150,6.345467805862427
44,8149,8194,8253,8186,8161,8142,8126,8166,8141,8167,8152,8195,8179,8150,6.346476078033447
45,8179,8204,8284,8201,8206,8170,8181,8190,8213,8206,8195,8192,8192,8180,6.354008913040161
46,8195,8214,8302,8206,8237,8190,8201,8198,8224,8212,8231,8184,8189,8204,6.36200761795044
47,8190,8229,8304,8216,8218,8192,8189,8200,8326,8179,8193,8203,8175,8193,6.369007110595703
48,8199,8206,8297,8220,8242,8195,8216,8194,8232,8209,8203,8171,8170,8198,6.376905202865601
49,8231,8242,8321,8238,8248,8197,8204,8199,8319,8210,8231,8196,8185,8225,6.385156631469727
50,8213,8230,8317,8229,8241,8187,8195,8197,8308,8203,8232,8178,8176,8198,6.393146753311157
51,8235,8220,8319,8232,8259,8192,8219,8192,8250,8220,8226,8165,8156,8193,6.4010069370269775
52,8253,8249,8340,8246,8259,8198,8211,8200,8378,8209,8228,8211,8165,8213,6.409006357192993
53,8228,8217,8314,8232,8265,8194,8221,8203,8282,8230,8244,8182,8176,8220,6.416970014572144
54,8240,8226,8310,8226,8252,8192,8225,8206,8320,8223,8224,8194,8175,8228,6.425193548202515
55,8223,8219,8313,8220,8250,8191,8222,8197,8326,8202,8222,8196,8168,8218,6.433194637298584
56,8214,8202,8295,8222,8252,8186,8219,8191,8227,8206,8221,8173,8159,8213,6.44000768661499
57,8216,8215,8285,8216,8218,8170,8199,8189,8295,8186,8185,8199,8162,8206,6.448110342025757
58,8197,8185,8270,8207,8234,8162,8202,8180,8185,8188,8202,8176,8166,8195,6.455524206161499
59,8211,8206,8266,8220,8242,8163,8182,8182,8210,8166,8198,8186,8163,8191,6.4635515213012695
59,8211,8206,8266,8220,8242,8163,8182,8182,8210,8166,8198,8186,8163,8191,6.464547634124756
60,8197,8204,8252,8211,8228,8163,8174,8175,8228,8164,8181,8187,8160,8167,6.472008466720581
61,8213,8195,8274,8225,8247,8189,8209,8179,8171,8202,8206,8172,8163,8177,6.480007410049439
62,8238,8232,8310,8248,8243,8195,8208,8199,8309,8179,8193,8203,8168,8193,6.488022804260254
63,8197,8193,8271,8212,8233,8173,8202,8186,8194,8166,8188,8173,8161,8175,6.496007442474365
64,8209,8201,8268,8216,8220,8168,8201,8183,8208,8184,8204,8196,8169,8192,6.502984285354614
65,8232,8219,8290,8232,8228,8168,8203,8194,8298,8204,8219,8211,8177,8209,6.510982513427734
66,8223,8195,8271,8215,8248,8161,8206,8191,8196,8211,8227,8175,8172,8213,6.519007205963135
67,8219,8218,8264,8216,8216,8142,8190,8194,8284,8183,8215,8204,8174,8212,6.526970863342285
67,8219,8218,8264,8216,8216,8142,8190,8194,8284,8183,8215,8204,8174,8212,6.527382850646973
68,8208,8200,8248,8209,8217,8128,8203,8189,8231,8218,8238,8188,8171,8203,6.535208940505981
69,8213,8203,8254,8213,8232,8136,8199,8191,8239,8246,8237,8190,8173,8206,6.543208837509155
70,8200,8200,8247,8204,8222,8136,8188,8190,8278,8217,8197,8191,8170,8179,6.55130672454834
71,8193,8172,8216,8191,8224,8130,8198,8178,8135,8196,8196,8157,8156,8156,6.559003114700317
72,8199,8204,8232,8210,8209,8126,8184,8185,8232,8169,8199,8190,8164,8157,6.566534996032715
73,8189,8197,8235,8212,8225,8138,8210,8188,8203,8193,8204,8172,8169,8160,6.573540925979614
74,8210,8202,8238,8212,8246,8150,8224,8190,8188,8211,8204,8179,8164,8181,6.582167148590088
75,8206,8211,8240,8216,8231,8130,8190,8193,8265,8198,8209,8206,8169,8178,6.590170383453369
76,8214,8196,8242,8229,8242,8131,8200,8192,8186,8222,8229,8173,8178,8186,6.5981833934783936
77,8240,8231,8272,8241,8239,8140,8198,8191,8302,8215,8225,8209,8184,8210,6.606220722198486
78,8205,8205,8250,8218,8240,8122,8186,8181,8256,8224,8234,8199,8175,8195,6.614007472991943
79,8205,8192,8228,8211,8228,8121,8189,8181,8199,8222,8228,8184,8172,8185,6.6212568283081055
79,8205,8192,8228,8211,8228,8121,8189,8181,8199,8222,8228,8184,8172,8185,6.622255086898804
80,8201,8206,8239,8213,8190,8133,8194,8185,8284,8188,8203,8202,8173,8173,6.629256248474121
81,8181,8174,8226,8205,8200,8142,8214,8190,8171,8219,8214,8169,8158,8163,6.6369712352752686
82,8206,8198,8221,8210,8210,8141,8204,8202,8233,8215,8193,8191,8157,8167,6.645007371902466
83,8185,8185,8207,8200,8218,8132,8194,8184,8194,8196,8182,8186,8164,8149,6.653007745742798
84,8180,8174,8210,8203,8221,8134,8185,8173,8121,8205,8194,8177,8164,8157,6.660960912704468
85,8197,8194,8226,8208,8199,8142,8172,8183,8224,8184,8183,8200,8167,8167,6.668969631195068
86,8193,8169,8218,8201,8214,8152,8191,8176,8137,8186,8191,8175,8169,8166,6.676971435546875
87,8208,8198,8231,8223,8206,8149,8179,8181,8221,8199,8182,8199,8177,8179,6.685008764266968
88,8187,8186,8208,8206,8190,8137,8174,8182,8218,8209,8169,8187,8168,8171,6.693007946014404
89,8169,8158,8179,8184,8189,8138,8183,8171,8101,8190,8157,8167,8154,8165,6.700007200241089
90,8173,8178,8193,8197,8162,8136,8162,8170,8171,8152,8128,8199,8156,8153,6.708147048950195
91,8170,8154,8189,8191,8168,8143,8174,8170,8073,8175,8142,8173,8157,8140,6.716209650039673
92,8183,8172,8195,8195,8168,8157,8179,8179,8133,8171,8157,8195,8164,8151,6.7242112159729
93,8176,8175,8192,8197,8163,8153,8178,8180,8180,8165,8163,8195,8170,8148,6.7320075035095215
94,8199,8166,8197,8201,8180,8163,8189,8173,8116,8190,8175,8172,8173,8161,6.740272283554077
95,8219,8197,8224,8215,8173,8173,8181,8183,8243,8179,8175,8213,8175,8180,6.748273849487305
96,8194,8170,8193,8200,8184,8168,8201,8186,8164,8196,8183,8183,8164,8173,6.756284475326538
97,8193,8169,8167,8193,8177,8172,8199,8185,8165,8187,8162,8176,8159,8165,6.764007806777954
98,8175,8165,8154,8191,8162,8173,8178,8180,8182,8172,8154,8178,8163,8146,6.771173000335693
99,8172,8153,8149,8195,8175,8169,8183,8175,8096,8199,8170,8161,8164,8146,6.779178619384766
100,8185,8187,8179,8203,8165,8169,8174,8179,8219,8181,8155,8193,8164,8152,6.787178993225098
101,8180,8169,8180,8198,8169,8189,8185,8180,8156,8184,8167,8166,8161,8148,6.795180797576904
102,8200,8181,8172,8206,8165,8193,8182,8182,8157,8178,8166,8174,8164,8157,6.803180456161499
103,8178,8181,8159,8189,8151,8169,8162,8173,8177,8149,8152,8182,8167,8138,6.810513496398926
104,8170,8154,8156,8182,8165,8164,8166,8162,8063,8170,8167,8147,8164,8134,6.818508148193359
105,8191,8191,8182,8203,8151,8169,8164,8172,8194,8175,8159,8179,8166,8152,6.826007604598999
106,8170,8169,8178,8191,8158,8170,8183,8174,8138,8171,8161,8156,8160,8137,6.833550214767456
107,8181,8162,8203,8188,8162,8168,8177,8172,8095,8151,8152,8146,8156,8124,6.841579914093018
108,8171,8172,8233,8181,8154,8156,8160,8161,8143,8143,8136,8163,8159,8108,6.8495917320251465
109,8149,8158,8235,8177,8182,8162,8177,8160,8062,8179,8169,8155,8166,8125,6.858055114746094
110,8179,8198,8240,8202,8170,8165,8171,8186,8209,8173,8180,8195,8177,8153,6.865589618682861
111,8177,8172,8196,8188,8160,8154,8178,8181,8161,8183,8174,8164,8168,8136,6.8740081787109375
112,8171,8161,8182,8175,8155,8148,8176,8159,8081,8174,8163,8150,8156,8124,6.88200831413269
113,8161,8180,8199,8178,8139,8147,8153,8154,8138,8136,8151,8175,8161,8115,6.89000678062439
114,8154,8157,8161,8169,8163,8150,8161,8154,8032,8165,8161,8142,8161,8115,6.898079872131348
115,8162,8183,8139,8176,8157,8141,8152,8161,8115,8157,8150,8170,8170,8123,6.90448784828186
116,8142,8171,8126,8172,8151,8131,8156,8155,8085,8135,8160,8163,8174,8109,6.91249418258667
116,8142,8171,8126,8172,8151,8131,8156,8155,8085,8135,8160,8163,8174,8109,6.91348671913147
117,8162,8169,8129,8174,8168,8138,8170,8157,8044,8149,8178,8154,8167,8110,6.921008586883545
117,8162,8169,8129,8174,8168,8138,8170,8157,8044,8149,8178,8154,8167,8110,6.921454906463623
118,8161,8182,8141,8177,8166,8137,8159,8167,8150,8148,8162,8180,8162,8112,6.929467439651489
119,8140,8154,8129,8176,8174,8137,8171,8163,8053,8165,8177,8155,8162,8123,6.9374680519104
120,8173,8193,8148,8195,8174,8141,8172,8172,8145,8172,8195,8187,8174,8146,6.945629835128784
121,8165,8187,8146,8189,8179,8138,8171,8172,8152,8179,8202,8173,8165,8126,6.952696323394775
122,8155,8172,8127,8181,8179,8139,8167,8160,8061,8166,8191,8147,8153,8110,6.959816217422485
123,8153,8190,8121,8176,8159,8135,8151,8156,8137,8137,8185,8180,8164,8113,6.967902898788452
124,8135,8161,8106,8165,8178,8131,8170,8156,8044,8164,8210,8159,8168,8115,6.9760072231292725
124,8135,8161,8106,8165,8178,8131,8170,8156,8044,8164,8210,8159,8168,8115,6.976524353027344
125,8155,8181,8125,8185,8176,8136,8173,8173,8134,8169,8195,8181,8173,8133,6.984007358551025
126,8156,8181,8127,8180,8169,8137,8180,8180,8193,8191,8194,8185,8179,8140,6.992351055145264
127,8167,8174,8122,8178,8183,8146,8202,8184,8148,8228,8214,8173,8173,8149,7.000357389450073
240,8166,8192,8133,8188,8178,8150,8192,8185,8237,8188,8194,8196,8161,8135,7.008358478546143
0,8135,8155,8108,8172,8193,8141,8197,8168,8106,8188,8191,8159,8160,8118,7.016396045684815
1,8151,8169,8106,8177,8187,8130,8181,8162,8122,8188,8178,8176,8167,8129,7.02400803565979
2,8142,8177,8111,8177,8174,8120,8162,8157,8132,8150,8170,8181,8162,8117,7.031010627746582
3,8147,8167,8109,8180,8189,8133,8184,8161,8051,8155,8182,8157,8162,8128,7.039072751998901
4,8166,8186,8114,8185,8182,8142,8187,8180,8190,8165,8161,8189,8169,8145,7.047318696975708
5,8146,8155,8096,8173,8195,8137,8192,8172,8119,8186,8169,8162,8163,8135,7.055318355560303
6,8174,8177,8120,8193,8199,8146,8195,8176,8160,8195,8189,8177,8173,8153,7.063007593154907
7,8180,8183,8129,8190,8195,8153,8200,8184,8240,8211,8197,8192,8176,8155,7.0710062980651855
8,8160,8150,8100,8171,8213,8154,8206,8172,8132,8220,8194,8155,8158,8144,7.078469753265381
9,8163,8173,8100,8178,8193,8148,8185,8171,8202,8176,8164,8175,8158,8139,7.086472511291504
9,8163,8173,8100,8178,8193,8148,8185,8171,8202,8176,8164,8175,8158,8139,7.087468862533569
10,8155,8151,8094,8173,8200,8146,8195,8175,8125,8170,8184,8156,8168,8132,7.09346866607666
10,8155,8151,8094,8173,8200,8146,8195,8175,8125,8170,8184,8156,8168,8132,7.094466924667358
11,8175,8163,8102,8187,8218,8150,8201,8180,8149,8176,8193,8168,8171,8147,7.102008104324341
12,8172,8174,8106,8185,8204,8155,8198,8180,8237,8186,8178,8185,8168,8143,7.109644174575806
13,8160,8151,8093,8165,8205,8165,8210,8178,8132,8216,8201,8158,8165,8138,7.117645740509033
14,8169,8185,8094,8172,8195,8166,8196,8189,8227,8187,8195,8186,8172,8144,7.126009225845337
15,8154,8161,8061,8165,8207,8163,8206,8184,8170,8189,8178,8158,8165,8127,7.134150981903076
16,8152,8153,8050,8164,8212,8166,8205,8177,8131,8198,8166,8154,8156,8114,7.142007827758789
17,8144,8170,8062,8169,8200,8169,8189,8182,8195,8172,8151,8169,8156,8097,7.150001049041748
18,8153,8150,8057,8165,8209,8179,8207,8172,8085,8182,8155,8140,8156,8097,7.157011985778809
19,8165,8165,8072,8162,8182,8173,8187,8164,8162,8165,8148,8183,8160,8111,7.1652772426605225
20,8132,8136,8055,8145,8175,8162,8184,8167,8119,8163,8157,8174,8156,8107,7.173007726669312
21,8147,8134,8043,8146,8188,8172,8197,8173,8092,8168,8161,8164,8158,8124,7.180305480957031
21,8147,8134,8043,8146,8188,8172,8197,8173,8092,8168,8161,8164,8158,8124,7.181304216384888
22,8148,8158,8059,8148,8176,8168,8181,8176,8184,8152,8160,8187,8165,8126,7.18902587890625
23,8135,8138,8059,8149,8192,8161,8194,8175,8081,8188,8174,8151,8160,8114,7.197025060653687
24,8157,8161,8064,8168,8184,8165,8192,8175,8161,8179,8148,8168,8164,8108,7.2050089836120605
25,8142,8145,8048,8162,8176,8160,8184,8165,8134,8159,8144,8161,8166,8091,7.213009119033813
26,8157,8145,8058,8165,8186,8161,8191,8177,8101,8183,8159,8157,8162,8114,7.220376253128052
26,8157,8145,8058,8165,8186,8161,8191,8177,8101,8183,8159,8157,8162,8114,7.221368312835693
27,8169,8172,8074,8166,8182,8165,8194,8190,8235,8188,8152,8188,8166,8137,7.228368282318115
28,8145,8143,8050,8151,8200,8165,8208,8178,8136,8194,8171,8158,8168,8133,7.23600697517395
29,8166,8168,8064,8163,8192,8156,8192,8181,8189,8176,8163,8176,8171,8133,7.244007349014282
30,8168,8158,8066,8156,8191,8154,8190,8174,8178,8187,8158,8162,8164,8120,7.251614332199097
31,8158,8141,8054,8150,8203,8175,8203,8167,8104,8202,8169,8146,8160,8119,7.25963568687439
32,8151,8174,8060,8163,8171,8169,8186,8181,8212,8167,8144,8179,8164,8109,7.268160820007324
33,8151,8149,8047,8149,8171,8145,8193,8173,8094,8169,8135,8145,8159,8098,7.276008605957031
34,8169,8155,8050,8138,8174,8154,8194,8168,8126,8161,8141,8162,8164,8118,7.284001588821411
35,8140,8151,8030,8141,8164,8166,8188,8173,8162,8160,8149,8169,8163,8113,7.290927410125732
36,8142,8138,8010,8155,8170,8159,8188,8169,8084,8181,8149,8150,8156,8108,7.299007177352905
37,8154,8155,8027,8149,8160,8150,8169,8165,8179,8162,8135,8176,8162,8107,7.307002544403076
38,8130,8135,8023,8136,8175,8159,8187,8172,8099,8184,8159,8144,8163,8095,7.315048933029175
39,8155,8163,8036,8164,8178,8171,8195,8187,8153,8194,8156,8156,8167,8103,7.32258415222168
40,8152,8158,8046,8159,8174,8174,8192,8182,8202,8185,8150,8162,8170,8101,7.330631017684936
41,8151,8141,8048,8152,8192,8177,8205,8176,8115,8205,8170,8145,8170,8115,7.338582754135132
42,8179,8179,8072,8170,8179,8164,8190,8185,8233,8186,8156,8184,8168,8133,7.346585988998413
43,8165,8154,8069,8154,8174,8156,8192,8175,8153,8184,8162,8163,8164,8127,7.353585481643677
44,8181,8170,8080,8166,8175,8156,8193,8178,8159,8171,8167,8174,8170,8131,7.362092018127441
45,8194,8187,8083,8182,8192,8139,8191,8182,8211,8159,8160,8180,8171,8117,7.370091915130615
46,8177,8151,8058,8166,8212,8132,8202,8173,8092,8178,8167,8140,8159,8105,7.37809419631958
47,8154,8159,8060,8155,8170,8132,8186,8180,8179,8154,8150,8169,8155,8102,7.386007785797119
48,8149,8145,8060,8152,8165,8125,8207,8191,8145,8167,8162,8162,8163,8108,7.394008159637451
49,8191,8162,8075,8171,8174,8118,8221,8200,8176,8189,8177,8171,8180,8137,7.402007341384888
50,8173,8172,8075,8163,8150,8108,8198,8189,8235,8176,8178,8184,8176,8133,7.409406661987305
50,8173,8172,8075,8163,8150,8108,8198,8189,8235,8176,8178,8184,8176,8133,7.410400390625
51,8140,8145,8057,8138,8165,8108,8201,8179,8112,8191,8202,8150,8162,8128,7.418399333953857
52,8153,8166,8062,8145,8160,8099,8189,8194,8209,8183,8191,8177,8171,8131,7.42543625831604
53,8151,8143,8042,8146,8146,8082,8192,8183,8134,8175,8167,8148,8164,8103,7.433003425598144
54,8178,8154,8059,8160,8140,8079,8196,8172,8085,8171,8154,8141,8153,8108,7.44045352935791
55,8171,8175,8088,8157,8134,8077,8182,8176,8187,8159,8160,8175,8164,8120,7.449008464813232
56,8139,8139,8068,8140,8150,8082,8194,8176,8079,8165,8180,8148,8161,8113,7.45703387260437
57,8159,8166,8076,8163,8136,8096,8203,8190,8161,8148,8159,8175,8161,8118,7.46455979347229
58,8152,8153,8078,8164,8140,8102,8221,8197,8157,8166,8170,8166,8167,8113,7.473007678985596
59,8153,8141,8068,8158,8148,8092,8213,8190,8110,8174,8186,8152,8163,8112,7.480989456176758
60,8154,8161,8058,8162,8119,8075,8184,8180,8166,8135,8159,8173,8156,8098,7.487996339797974
61,8143,8136,8039,8153,8125,8080,8191,8170,8045,8150,8164,8148,8152,8093,7.495391607284546
61,8143,8136,8039,8153,8125,8080,8191,8170,8045,8150,8164,8148,8152,8093,7.496379137039185
62,8152,8155,8046,8145,8128,8085,8182,8180,8137,8155,8164,8170,8161,8105,7.5043792724609375
63,8126,8136,8019,8126,8129,8086,8185,8178,8124,8151,8162,8150,8166,8088,7.512079477310181
64,8121,8124,8001,8129,8129,8096,8195,8171,8048,8144,8178,8141,8176,8096,7.520073890686035
65,8137,8159,8030,8142,8113,8091,8177,8180,8173,8143,8187,8181,8182,8110,7.528008222579956
66,8141,8143,8030,8135,8140,8083,8186,8179,8091,8194,8204,8147,8164,8106,7.535910367965698
67,8146,8162,8038,8149,8140,8086,8175,8178,8136,8181,8197,8168,8162,8111,7.544002532958984
68,8132,8155,8040,8153,8129,8082,8168,8178,8151,8161,8199,8179,8168,8116,7.552029609680176
69,8157,8147,8047,8158,8148,8083,8184,8177,8098,8187,8205,8166,8161,8135,7.559029579162598
70,8162,8175,8064,8164,8138,8092,8177,8177,8197,8170,8177,8186,8161,8126,7.566970348358154
71,8137,8150,8038,8146,8137,8094,8181,8168,8079,8168,8170,8148,8160,8103,7.575010538101196
72,8161,8172,8037,8155,8137,8094,8168,8169,8110,8155,8163,8169,8160,8122,7.582975387573242
73,8147,8168,8046,8158,8141,8086,8159,8169,8146,8150,8179,8178,8165,8125,7.590975284576416
74,8143,8142,8038,8150,8143,8090,8173,8162,8066,8170,8197,8148,8165,8126,7.598987817764282
75,8150,8164,8043,8141,8114,8098,8162,8163,8167,8146,8174,8177,8163,8126,7.606964349746704
76,8121,8140,8025,8127,8137,8097,8168,8168,8087,8161,8184,8156,8162,8117,7.6139795780181885
77,8144,8154,8028,8142,8148,8103,8169,8181,8127,8172,8185,8164,8168,8137,7.621977090835571
78,8138,8154,8026,8131,8135,8103,8163,8171,8162,8151,8170,8166,8163,8130,7.630205154418945
78,8138,8154,8026,8131,8135,8103,8163,8171,8162,8151,8170,8166,8163,8130,7.630647659301758
79,8123,8134,8019,8128,8157,8102,8179,8163,8045,8165,8178,8141,8160,8114,7.638007164001465
80,8151,8167,8033,8154,8149,8103,8183,8183,8170,8164,8172,8175,8167,8120,7.646007061004639
80,8151,8167,8033,8154,8149,8103,8183,8183,8170,8164,8172,8175,8167,8120,7.647029638290405
81,8145,8147,8026,8145,8152,8112,8201,8185,8133,8180,8197,8158,8163,8129,7.65374755859375
81,8145,8147,8026,8145,8152,8112,8201,8185,8133,8180,8197,8158,8163,8129,7.654743432998657
82,8153,8162,8052,8153,8167,8117,8193,8190,8177,8192,8224,8181,8170,8157,7.662274122238159
83,8167,8173,8078,8162,8161,8103,8184,8193,8273,8197,8222,8199,8177,8163,7.670007705688477
84,8166,8136,8070,8146,8160,8096,8196,8176,8141,8200,8215,8153,8164,8151,7.678002595901489
85,8151,8160,8086,8139,8141,8081,8166,8170,8178,8152,8190,8172,8160,8131,7.685016393661499
86,8133,8151,8086,8131,8148,8068,8169,8169,8106,8157,8204,8158,8162,8116,7.693015813827515
86,8133,8151,8086,8131,8148,8068,8169,8169,8106,8157,8204,8158,8162,8116,7.694016933441162
87,8165,8158,8095,8144,8160,8083,8189,8185,8136,8197,8221,8169,8169,8147,7.70100736618042
88,8162,8166,8097,8154,8156,8095,8191,8204,8263,8212,8209,8189,8177,8154,7.70899510383606
89,8153,8142,8079,8151,8177,8094,8206,8202,8169,8220,8223,8153,8169,8149,7.716999292373657
90,8174,8174,8095,8160,8165,8080,8182,8198,8250,8187,8218,8181,8167,8161,7.725018262863159
91,8158,8163,8093,8149,8162,8067,8179,8187,8201,8187,8217,8166,8164,8153,7.733007192611694
92,8164,8159,8090,8150,8167,8073,8195,8179,8149,8184,8217,8153,8160,8150,7.741361379623413
93,8161,8171,8093,8151,8155,8073,8185,8179,8214,8156,8201,8167,8160,8138,7.748717308044434
94,8149,8147,8074,8139,8181,8071,8188,8172,8098,8180,8203,8132,8156,8132,7.755717039108276
95,8167,8174,8083,8152,8187,8073,8182,8179,8190,8179,8186,8163,8163,8133,7.764008283615112
96,8153,8156,8072,8157,8188,8077,8190,8188,8188,8182,8191,8160,8165,8125,7.772018194198608
97,8158,8152,8067,8161,8190,8085,8193,8194,8159,8201,8201,8154,8163,8141,7.780003070831299
98,8163,8185,8088,8164,8176,8072,8171,8189,8267,8190,8197,8182,8168,8142,7.788015127182007
99,8145,8153,8078,8155,8193,8069,8180,8175,8142,8191,8211,8144,8161,8131,7.795012235641479
100,8154,8166,8078,8157,8175,8074,8169,8174,8166,8154,8187,8159,8159,8135,7.804064512252808
101,8143,8166,8074,8149,8161,8064,8161,8173,8152,8151,8183,8160,8162,8121,7.811064958572388
102,8161,8160,8079,8162,8185,8075,8179,8177,8112,8188,8206,8155,8162,8135,7.819066286087036
103,8166,8176,8091,8168,8175,8087,8167,8181,8227,8170,8192,8180,8161,8143,7.827064514160156
104,8138,8150,8079,8146,8172,8084,8167,8171,8103,8172,8195,8141,8162,8122,7.835068941116333
105,8165,8181,8103,8163,8170,8093,8166,8176,8161,8168,8200,8162,8178,8135,7.843111276626587
106,8166,8174,8106,8172,8176,8093,8164,8169,8200,8168,8212,8168,8175,8145,7.850999116897583
107,8163,8150,8089,8165,8180,8079,8166,8152,8096,8182,8218,8143,8157,8147,7.858513593673706
108,8170,8177,8099,8164,8161,8085,8162,8167,8183,8147,8188,8171,8158,8144,7.867048740386963
109,8141,8150,8083,8152,8183,8110,8182,8185,8105,8143,8190,8146,8160,8132,7.875008583068848
110,8158,8169,8091,8169,8181,8106,8174,8198,8163,8165,8196,8160,8166,8139,7.882556915283203
111,8178,8178,8101,8176,8179,8085,8178,8191,8220,8185,8205,8165,8170,8137,7.890008211135864
112,8178,8157,8094,8170,8211,8093,8198,8177,8133,8188,8225,8142,8169,8140,7.897620916366577
113,8158,8171,8105,8169,8189,8099,8166,8176,8230,8147,8204,8171,8167,8135,7.905630111694336
114,8136,8147,8083,8153,8181,8087,8162,8168,8131,8159,8195,8141,8156,8120,7.914008140563965
115,8168,8170,8082,8165,8186,8075,8168,8169,8129,8166,8195,8153,8158,8137,7.922007322311401
116,8157,8174,8091,8170,8177,8075,8159,8173,8180,8149,8202,8176,8165,8139,7.929990768432617
117,8155,8150,8083,8169,8188,8093,8171,8175,8094,8175,8210,8153,8164,8142,7.93800687789917
118,8181,8182,8092,8175,8176,8103,8170,8181,8206,8168,8186,8176,8166,8146,7.945007562637329
119,8157,8164,8086,8158,8183,8105,8181,8175,8131,8156,8197,8147,8160,8130,7.953105926513672
120,8169,8172,8102,8165,8191,8100,8171,8176,8115,8140,8200,8160,8164,8144,7.960108518600464
120,8169,8172,8102,8165,8191,8100,8171,8176,8115,8140,8200,8160,8164,8144,7.961618185043335
121,8176,8185,8120,8170,8181,8095,8164,8179,8195,8144,8197,8189,8174,8158,7.969008207321167
122,8173,8167,8114,8172,8200,8116,8197,8182,8144,8194,8220,8161,8172,8167,7.976916790008545
123,8181,8188,8111,8175,8186,8108,8176,8187,8249,8173,8196,8179,8169,8162,7.98463773727417
124,8146,8154,8086,8136,8176,8077,8150,8166,8125,8146,8180,8153,8161,8123,7.992629528045654
125,8157,8160,8102,8146,8183,8092,8162,8167,8080,8148,8189,8160,8161,8127,8.001006841659546
126,8183,8185,8118,8182,8188,8110,8173,8185,8217,8151,8195,8187,8167,8150,8.008007049560547
127,8175,8153,8097,8172,8209,8101,8180,8167,8113,8158,8208,8154,8164,8154,8.015642881393433
127,8175,8153,8097,8172,8209,8101,8180,8167,8113,8158,8208,8154,8164,8154,8.016653537750244
240,8179,8178,8130,8176,8191,8101,8167,8166,8174,8129,8192,8187,8170,8153,8.024156332015991
0,8175,8168,8140,8179,8181,8104,8181,8182,8165,8148,8191,8174,8170,8151,8.03167462348938
1,8191,8166,8123,8179,8187,8103,8180,8190,8150,8175,8204,8166,8168,8168,8.039674997329712
2,8187,8196,8135,8189,8178,8096,8164,8192,8268,8179,8210,8199,8171,8176,8.04800796508789
3,8184,8179,8149,8201,8191,8081,8183,8182,8181,8210,8217,8167,8165,8181,8.056008338928223
4,8199,8193,8169,8207,8177,8060,8163,8165,8200,8160,8186,8178,8160,8175,8.063738107681274
4,8199,8193,8169,8207,8177,8060,8163,8165,8200,8160,8186,8178,8160,8175,8.064733505249023
5,8172,8172,8163,8188,8185,8059,8145,8153,8137,8126,8184,8170,8153,8140,8.072001695632935
6,8196,8168,8170,8200,8209,8086,8165,8175,8127,8160,8208,8170,8156,8159,8.079007863998413
7,8212,8188,8170,8204,8183,8087,8167,8188,8261,8159,8200,8194,8171,8178,8.087046146392822
8,8176,8160,8129,8184,8177,8083,8168,8172,8124,8166,8210,8154,8170,8168,8.09452772140503
9,8199,8190,8135,8206,8171,8093,8158,8177,8178,8163,8206,8177,8167,8180,8.102513313293457
10,8206,8188,8134,8212,8173,8097,8169,8179,8202,8161,8217,8177,8167,8177,8.111007690429688
11,8192,8171,8108,8200,8173,8103,8179,8170,8123,8166,8231,8154,8162,8170,8.119006872177124
12,8181,8188,8103,8191,8135,8088,8149,8166,8202,8139,8193,8177,8156,8155,8.126842260360718
13,8174,8161,8100,8171,8150,8072,8159,8156,8087,8154,8203,8152,8161,8147,8.134851217269897
14,8202,8199,8137,8195,8173,8091,8178,8171,8169,8173,8248,8184,8180,8175,8.141853094100952
15,8205,8212,8150,8219,8173,8101,8182,8184,8253,8187,8254,8195,8174,8180,8.149630784988403
16,8211,8180,8129,8215,8183,8080,8175,8169,8139,8185,8225,8164,8155,8169,8.157620906829834
17,8197,8193,8125,8202,8168,8058,8150,8167,8192,8144,8208,8185,8160,8143,8.166007280349731
18,8171,8182,8113,8197,8179,8076,8179,8186,8141,8173,8251,8163,8167,8133,8.173532485961914
18,8171,8182,8113,8197,8179,8076,8179,8186,8141,8173,8251,8163,8167,8133,8.174525737762451
19,8211,8203,8134,8216,8187,8090,8197,8202,8225,8211,8258,8184,8170,8174,8.181532859802246
20,8201,8191,8130,8194,8176,8065,8174,8177,8239,8190,8234,8185,8167,8176,8.190007209777832
21,8171,8167,8109,8182,8179,8061,8172,8156,8089,8161,8232,8148,8164,8157,8.198004245758057
22,8194,8208,8129,8211,8168,8084,8175,8180,8215,8141,8215,8187,8174,8174,8.204996585845947
23,8194,8178,8109,8191,8176,8090,8192,8178,8162,8166,8212,8168,8162,8178,8.213001489639282
24,8183,8170,8097,8175,8168,8077,8171,8159,8118,8138,8191,8161,8151,8158,8.22100830078125
25,8176,8187,8102,8187,8161,8065,8152,8161,8152,8107,8172,8175,8160,8135,8.229007244110107
26,8210,8178,8101,8194,8187,8067,8174,8167,8082,8172,8197,8165,8164,8158,8.236971139907837
27,8222,8200,8116,8195,8175,8063,8159,8166,8191,8161,8187,8196,8164,8165,8.244702577590942
28,8173,8175,8100,8181,8172,8050,8154,8156,8092,8110,8173,8160,8154,8122,8.252724885940552
29,8194,8182,8098,8187,8175,8042,8162,8154,8051,8107,8174,8161,8153,8136,8.261008501052856
29,8194,8182,8098,8187,8175,8042,8162,8154,8051,8107,8174,8161,8153,8136,8.261435747146606
30,8209,8199,8119,8196,8172,8039,8163,8158,8153,8129,8190,8194,8163,8165,8.269323110580444
31,8201,8183,8122,8205,8196,8043,8177,8168,8088,8159,8214,8170,8172,8172,8.276323556900024
32,8212,8205,8115,8206,8186,8043,8164,8179,8192,8140,8191,8190,8175,8171,8.284007549285889
33,8177,8181,8095,8171,8186,8045,8170,8172,8150,8141,8192,8170,8167,8162,8.292007446289062
34,8195,8203,8119,8185,8200,8062,8194,8186,8159,8161,8207,8178,8176,8189,8.300242185592651
35,8225,8240,8142,8209,8197,8063,8195,8196,8296,8182,8203,8209,8180,8202,8.308256149291992
36,8202,8202,8124,8196,8207,8052,8190,8175,8175,8205,8216,8169,8162,8193,8.315691947937012
37,8211,8221,8144,8206,8190,8046,8169,8179,8232,8156,8199,8188,8161,8195,8.323691606521606
37,8211,8221,8144,8206,8190,8046,8169,8179,8232,8156,8199,8188,8161,8195,8.324685335159302
38,8206,8204,8133,8189,8180,8045,8167,8174,8184,8138,8186,8169,8158,8167,8.332246780395508
39,8184,8188,8106,8168,8173,8043,8153,8152,8076,8141,8183,8146,8148,8137,8.33900761604309
40,8177,8218,8114,8182,8168,8034,8137,8147,8151,8118,8178,8178,8159,8137,8.3469717502594
41,8195,8202,8110,8196,8207,8047,8178,8151,8087,8152,8219,8164,8175,8171,8.354778528213501
42,8209,8216,8117,8198,8191,8051,8174,8174,8190,8161,8236,8188,8184,8197,8.363303422927856
43,8178,8202,8100,8183,8160,8034,8167,8197,8214,8178,8240,8178,8183,8182,8.371007204055786
44,8186,8197,8081,8190,8178,8043,8197,8205,8187,8220,8254,8164,8179,8190,8.379190444946289
44,8186,8197,8081,8190,8178,8043,8197,8205,8187,8220,8254,8164,8179,8190,8.37970232963562
45,8190,8215,8087,8193,8178,8051,8196,8206,8292,8199,8245,8190,8173,8194,8.386972665786743
46,8178,8176,8077,8172,8182,8044,8203,8192,8163,8189,8245,8153,8162,8178,8.397336721420288
47,8197,8190,8091,8179,8176,8041,8188,8178,8191,8174,8226,8179,8166,8179,8.401334285736084
47,8197,8190,8091,8179,8176,8041,8188,8178,8191,8174,8226,8179,8166,8179,8.402335405349731
48,8173,8189,8091,8182,8173,8035,8164,8167,8185,8167,8208,8180,8161,8157,8.409335851669312
48,8173,8189,8091,8182,8173,8035,8164,8167,8185,8167,8208,8180,8161,8157,8.410334348678589
49,8165,8173,8079,8184,8178,8039,8164,8161,8075,8167,8195,8140,8145,8132,8.417334079742432
49,8165,8173,8079,8184,8178,8039,8164,8161,8075,8167,8195,8140,8145,8132,8.418334007263184
50,8160,8187,8076,8175,8157,8044,8155,8158,8144,8132,8166,8160,8153,8114,8.42533540725708
50,8160,8187,8076,8175,8157,8044,8155,8158,8144,8132,8166,8160,8153,8114,8.426335573196411
51,8134,8163,8055,8154,8174,8046,8167,8155,8046,8147,8178,8142,8166,8117,8.433338165283203
51,8134,8163,8055,8154,8174,8046,8167,8155,8046,8147,8178,8142,8166,8117,8.434336185455322
52,8174,8187,8076,8167,8172,8044,8169,8165,8107,8150,8186,8166,8170,8156,8.44133472442627
52,8174,8187,8076,8167,8172,8044,8169,8165,8107,8150,8186,8166,8170,8156,8.4423348903656
53,8172,8179,8076,8161,8151,8041,8166,8165,8143,8134,8180,8172,8167,8158,8.45022988319397
54,8151,8160,8050,8157,8172,8055,8183,8185,8069,8162,8186,8146,8166,8162,8.4582359790802
55,8172,8196,8061,8174,8175,8060,8193,8220,8237,8179,8170,8177,8172,8171,8.465742826461792
56,8163,8157,8045,8153,8181,8051,8205,8199,8158,8182,8155,8144,8165,8150,8.47274398803711
57,8152,8151,8035,8145,8166,8047,8178,8174,8117,8151,8188,8151,8158,8146,8.480825424194336
58,8133,8164,8033,8145,8151,8046,8160,8176,8170,8136,8367,8172,8159,8137,8.488500833511353
59,8143,8154,8035,8145,8182,8056,8178,8182,8124,8160,8598,8145,8163,8129,8.496422052383423
60,8174,8187,8061,8163,8176,8068,8166,8189,8257,8147,8694,8173,8168,8134,8.50500774383545
61,8170,8173,8053,8170,8173,8080,8178,8179,8207,8160,8758,8159,8160,8134,8.513009309768677
62,8188,8181,8059,8171,8179,8093,8190,8176,8232,8160,8840,8170,8168,8152,8.521002531051636
63,8172,8186,8071,8153,8182,8095,8178,8186,8338,8153,8901,8184,8181,8156,8.529074668884277
64,8149,8165,8069,8155,8204,8103,8185,8187,8267,8188,8952,8150,8171,8161,8.536067008972168
65,8168,8193,8087,8177,8184,8105,8181,8194,8366,8177,8951,8178,8167,8164,8.544151782989502
66,8169,8171,8071,8155,8183,8107,8205,8201,8323,8177,8956,8156,8166,8151,8.551487684249878
66,8169,8171,8071,8155,8183,8107,8205,8201,8323,8177,8956,8156,8166,8151,8.552480459213257
67,8176,8174,8067,8150,8205,8114,8210,8206,8325,8186,8970,8156,8171,8161,8.559487104415894
67,8176,8174,8067,8150,8205,8114,8210,8206,8325,8186,8970,8156,8171,8161,8.560481071472168
68,8167,8197,8085,8168,8205,8107,8189,8204,8415,8189,8977,8181,8177,8156,8.567500352859497
69,8172,8177,8086,8170,8216,8107,8199,8193,8305,8220,9000,8154,8163,8144,8.57545804977417
69,8172,8177,8086,8170,8216,8107,8199,8193,8305,8220,9000,8154,8163,8144,8.576452255249023
70,8189,8194,8096,8175,8206,8110,8184,8189,8377,8190,8988,8185,8157,8135,8.583451986312866
71,8155,8168,8072,8159,8209,8103,8180,8181,8327,8169,8985,8166,8162,8118,8.591464281082153
72,8171,8171,8068,8160,8213,8106,8188,8184,8285,8177,8982,8150,8166,8136,8.599679231643677
73,8169,8193,8080,8160,8191,8095,8164,8182,8355,8154,8964,8175,8166,8137,8.606889724731445
74,8137,8156,8057,8149,8202,8092,8165,8171,8217,8164,8975,8146,8164,8123,8.614896059036255
75,8170,8184,8072,8173,8208,8116,8176,8183,8320,8162,8971,8170,8174,8149,8.623007535934448
76,8171,8184,8085,8175,8223,8130,8186,8184,8341,8171,8985,8171,8176,8164,8.63100790977478
77,8170,8176,8089,8169,8234,8129,8185,8184,8282,8200,8994,8164,8170,8171,8.639007329940796
78,8187,8198,8096,8183,8218,8138,8190,8195,8403,8192,8970,8182,8172,8169,8.646970510482788
79,8183,8173,8089,8183,8232,8154,8217,8187,8322,8194,8981,8152,8166,8162,8.655001640319824
80,8184,8190,8124,8178,8219,8142,8195,8189,8358,8177,8973,8184,8164,8153,8.662983179092407
81,8171,8183,8147,8158,8202,8120,8178,8182,8327,8173,8954,8175,8164,8127,8.669979810714722
82,8177,8169,8151,8166,8215,8131,8188,8168,8240,8178,8953,8150,8167,8134,8.678007125854492
83,8174,8185,8166,8177,8202,8136,8175,8179,8344,8157,8939,8187,8171,8141,8.686007976531982
84,8163,8156,8179,8152,8207,8129,8189,8189,8258,8184,8937,8155,8166,8138,8.694077491760254
85,8183,8181,8233,8154,8197,8129,8179,8191,8309,8173,8925,8169,8169,8162,8.702082633972168
86,8160,8183,8243,8156,8188,8121,8158,8180,8321,8156,8914,8174,8166,8153,8.710082054138184
87,8160,8164,8214,8160,8204,8131,8176,8181,8234,8185,8911,8153,8164,8145,8.718008041381836
88,8183,8193,8231,8177,8196,8151,8185,8196,8368,8170,8895,8190,8174,8160,8.726007461547852
89,8169,8174,8230,8169,8204,8143,8183,8187,8277,8162,8893,8156,8164,8149,8.733981847763062
90,8178,8183,8224,8168,8191,8128,8159,8178,8250,8145,8867,8158,8156,8128,8.740981817245483
91,8160,8177,8217,8164,8167,8132,8158,8184,8290,8147,8860,8174,8165,8112,8.749007225036621
92,8161,8165,8213,8172,8178,8134,8184,8194,8237,8183,8880,8163,8174,8138,8.756727457046509
93,8181,8196,8225,8189,8165,8126,8168,8188,8338,8169,8854,8194,8173,8148,8.765008926391602
94,8155,8164,8198,8164,8175,8140,8170,8174,8236,8178,8849,8166,8161,8123,8.772794961929321
95,8171,8176,8197,8153,8176,8154,8178,8184,8252,8187,8844,8178,8166,8139,8.78080153465271
96,8171,8189,8212,8153,8160,8144,8174,8187,8316,8167,8821,8185,8169,8141,8.788836479187012
97,8158,8163,8206,8165,8162,8153,8183,8181,8198,8179,8818,8153,8163,8136,8.796009302139282
98,8177,8196,8215,8188,8144,8160,8174,8195,8308,8180,8813,8191,8170,8156,8.80400800704956
99,8176,8183,8212,8180,8165,8149,8182,8186,8266,8182,8820,8169,8161,8155,8.811769723892212
100,8200,8183,8229,8189,8182,8150,8181,8179,8244,8169,8791,8165,8155,8143,8.819769620895386
101,8197,8184,8227,8182,8165,8152,8166,8178,8295,8162,8762,8179,8164,8122,8.827812194824219
102,8174,8154,8198,8162,8178,8162,8181,8170,8179,8183,8779,8148,8165,8125,8.835853576660156
103,8185,8190,8207,8180,8170,8169,8170,8182,8275,8154,8755,8179,8165,8136,8.843848705291748
104,8171,8172,8188,8177,8154,8155,8166,8178,8221,8150,8741,8167,8163,8124,8.85185194015503
105,8169,8154,8170,8170,8151,8158,8176,8173,8171,8155,8742,8161,8169,8135,8.85985279083252
106,8167,8172,8170,8170,8156,8172,8171,8182,8262,8150,8721,8179,8177,8144,8.867011308670044
107,8172,8160,8164,8171,8175,8173,8177,8180,8169,8196,8725,8153,8169,8149,8.875074863433838
108,8187,8186,8173,8184,8157,8168,8163,8180,8245,8179,8710,8181,8165,8154,8.882867574691772
109,8173,8163,8153,8169,8148,8164,8173,8182,8200,8150,8685,8161,8164,8131,8.891000986099243
110,8191,8163,8154,8167,8158,8155,8182,8189,8155,8164,8677,8153,8161,8128,8.898914337158203
111,8188,8188,8165,8185,8154,8122,8167,8189,8257,8160,8669,8182,8162,8120,8.907108783721924
112,8178,8156,8136,8183,8178,8112,8190,8177,8142,8171,8673,8148,8165,8112,8.915112495422363
113,8212,8180,8143,8175,8175,8141,8195,8185,8219,8168,8660,8174,8173,8139,8.923007726669312
114,8196,8175,8147,8165,8169,8158,8192,8190,8241,8176,8662,8178,8174,8152,8.930007219314575
115,8198,8171,8142,8190,8184,8156,8198,8198,8198,8188,8666,8169,8171,8164,8.938007354736328
116,8212,8192,8140,8192,8168,8150,8189,8205,8299,8189,8640,8187,8171,8160,8.946153163909912
116,8212,8192,8140,8192,8168,8150,8189,8205,8299,8189,8640,8187,8171,8160,8.947163105010986
117,8183,8150,8112,8158,8172,8162,8196,8194,8175,8210,8634,8145,8165,8151,8.954063415527344
118,8192,8166,8132,8173,8165,8172,8183,8199,8231,8182,8627,8171,8171,8166,8.962068796157837
119,8201,8172,8147,8179,8164,8167,8188,8199,8271,8180,8631,8177,8168,8158,8.97025990486145
120,8199,8158,8129,8172,8183,8163,8191,8182,8178,8197,8622,8149,8151,8151,8.978087425231934
121,8177,8164,8114,8171,8160,8158,8156,8175,8228,8138,8569,8166,8147,8133,8.986007452011108
122,8163,8134,8095,8161,8156,8170,8168,8174,8114,8140,8573,8135,8159,8113,8.993922710418701
123,8198,8166,8120,8179,8156,8181,8173,8183,8173,8173,8589,8162,8180,8144,9.000922441482544
124,8195,8179,8127,8181,8160,8164,8161,8183,8222,8169,8574,8175,8171,8157,9.009002685546877
125,8195,8158,8118,8173,8179,8168,8175,8178,8135,8183,8572,8146,8158,8158,9.01697039604187
126,8196,8170,8129,8180,8159,8180,8166,8183,8238,8172,8565,8173,8170,8154,9.025007963180542
127,8166,8141,8101,8160,8157,8170,8157,8172,8135,8160,8552,8151,8162,8137,9.03260374069214
127,8166,8141,8101,8160,8157,8170,8157,8172,8135,8160,8552,8151,8162,8137,9.033565759658812
240,8172,8157,8091,8158,8154,8163,8148,8169,8124,8139,8515,8159,8153,8135,9.040597677230837
0,8161,8166,8093,8173,8149,8173,8154,8176,8174,8141,8503,8161,8163,8124,9.049006938934326
1,8165,8147,8093,8177,8178,8189,8177,8173,8089,8167,8516,8133,8161,8126,9.056008100509644
2,8183,8176,8112,8175,8175,8189,8167,8172,8190,8140,8486,8167,8155,8125,9.064008474349976
3,8153,8149,8096,8163,8175,8186,8176,8174,8122,8155,8484,8138,8158,8104,9.071937322616575
4,8154,8148,8085,8160,8164,8189,8177,8183,8123,8168,8479,8142,8160,8109,9.08000874519348
5,8148,8159,8090,8148,8156,8186,8162,8179,8184,8154,8457,8171,8160,8112,9.087589025497437
6,8146,8140,8085,8151,8177,8194,8179,8175,8084,8187,8467,8147,8162,8119,9.095634937286375
7,8166,8171,8092,8169,8149,8193,8167,8183,8186,8178,8462,8172,8174,8132,9.103631496429443
8,8144,8151,8075,8146,8145,8174,8160,8171,8118,8165,8457,8159,8170,8130,9.1122567653656
9,8157,8146,8074,8143,8166,8177,8167,8165,8077,8160,8438,8160,8164,8141,9.12025785446167
10,8159,8159,8083,8156,8156,8191,8166,8170,8167,8156,8430,8174,8165,8133,9.127356052398682
11,8145,8141,8075,8158,8165,8199,8178,8171,8080,8178,8454,8145,8163,8129,9.135008335113524
12,8165,8170,8092,8165,8161,8200,8166,8174,8146,8153,8424,8170,8163,8139,9.143007040023804
13,8149,8147,8080,8147,8164,8194,8162,8162,8074,8136,8407,8146,8156,8120,9.151005744934082
14,8156,8147,8071,8153,8173,8203,8165,8171,8052,8144,8414,8141,8162,8125,9.158994913101196
15,8161,8172,8071,8151,8168,8215,8166,8182,8177,8146,8399,8176,8169,8141,9.16697120666504
16,8135,8144,8045,8130,8175,8221,8179,8166,8058,8164,8398,8140,8159,8141,9.17508339881897
17,8144,8167,8049,8144,8148,8218,8160,8174,8125,8147,8379,8158,8168,8137,9.183070182800291
18,8150,8158,8041,8146,8150,8225,8173,8180,8126,8152,8369,8159,8173,8126,9.19000792503357
19,8166,8156,8042,8160,8188,8247,8197,8174,8084,8167,8367,8160,8164,8144,9.198006868362429
20,8163,8180,8065,8174,8181,8251,8174,8178,8191,8144,8352,8185,8166,8145,9.206027746200562
21,8142,8146,8050,8152,8174,8247,8166,8166,8074,8158,8362,8142,8164,8128,9.214027881622314
22,8149,8160,8046,8149,8163,8245,8157,8162,8102,8146,8342,8160,8161,8127,9.222007989883425
23,8141,8153,8041,8144,8172,8249,8172,8168,8099,8135,8317,8158,8156,8107,9.230007648468018
24,8155,8142,8043,8143,8187,8269,8191,8177,8054,8154,8321,8138,8158,8111,9.238027811050417
25,8149,8163,8041,8141,8161,8269,8170,8176,8171,8141,8311,8168,8167,8123,9.246153831481934
26,8132,8143,8014,8130,8172,8265,8177,8166,8073,8155,8315,8142,8167,8123,9.25270652770996
27,8173,8172,8040,8154,8176,8275,8172,8174,8127,8158,8306,8164,8166,8140,9.260705709457396
28,8167,8173,8046,8165,8174,8267,8159,8176,8163,8161,8299,8162,8163,8139,9.269007205963137
29,8159,8154,8030,8159,8193,8267,8174,8169,8090,8169,8296,8137,8163,8138,9.276970863342283
30,8173,8175,8051,8161,8175,8281,8172,8169,8198,8138,8278,8175,8166,8133,9.285112380981444
31,8163,8147,8043,8150,8171,8273,8162,8158,8105,8151,8285,8150,8162,8124,9.293116331100464
32,8178,8168,8046,8162,8180,8261,8145,8162,8136,8151,8276,8162,8170,8141,9.301002979278564
33,8174,8176,8054,8171,8199,8272,8161,8176,8208,8150,8279,8177,8170,8142,9.309008836746216
34,8182,8160,8050,8173,8213,8292,8188,8177,8142,8183,8295,8148,8160,8146,9.316971063613892
34,8182,8160,8050,8173,8213,8292,8188,8177,8142,8183,8295,8148,8160,8146,9.317646026611328
35,8200,8190,8065,8172,8187,8281,8162,8168,8248,8166,8264,8171,8165,8154,9.324007987976074
36,8173,8163,8046,8151,8200,8274,8163,8161,8166,8166,8256,8151,8165,8142,9.332008123397827
37,8172,8165,8029,8155,8197,8283,8166,8165,8153,8159,8244,8157,8158,8144,9.340007305145264
38,8153,8167,8019,8146,8167,8280,8148,8154,8169,8129,8222,8163,8156,8133,9.348083734512327
38,8153,8167,8019,8146,8167,8280,8148,8154,8169,8129,8222,8163,8156,8133,9.348711252212524
39,8151,8147,8014,8142,8179,8283,8157,8152,8058,8139,8229,8142,8158,8129,9.35578989982605
40,8171,8176,8026,8156,8177,8285,8150,8166,8177,8128,8223,8178,8169,8132,9.364248514175417
41,8150,8157,8005,8142,8187,8287,8163,8160,8126,8137,8227,8151,8162,8131,9.371310234069824
41,8150,8157,8005,8142,8187,8287,8163,8160,8126,8137,8227,8151,8162,8131,9.37231707572937
42,8175,8167,8011,8156,8194,8288,8172,8171,8130,8151,8224,8153,8157,8152,9.380316495895386
43,8177,8177,8013,8163,8171,8265,8150,8176,8191,8137,8209,8172,8161,8136,9.387317180633543
44,8156,8152,7985,8148,8183,8268,8155,8159,8051,8145,8211,8138,8157,8121,9.395008087158203
45,8182,8189,8009,8164,8186,8286,8163,8172,8162,8132,8198,8172,8162,8137,9.403008937835692
46,8171,8170,8015,8163,8180,8268,8167,8179,8154,8155,8206,8157,8165,8132,9.411661386489868
46,8171,8170,8015,8163,8180,8268,8167,8179,8154,8155,8206,8157,8165,8132,9.412190437316896
47,8169,8157,7992,8157,8174,8246,8152,8175,8110,8173,8200,8150,8161,8136,9.418375015258787
47,8169,8157,7992,8157,8174,8246,8152,8175,8110,8173,8200,8150,8161,8136,9.419375658035278
48,8170,8169,7977,8153,8169,8256,8153,8176,8176,8151,8177,8170,8160,8143,9.42737889289856
49,8161,8145,7973,8154,8186,8276,8183,8179,8090,8169,8195,8143,8161,8143,9.435007333755491
49,8161,8145,7973,8154,8186,8276,8183,8179,8090,8169,8195,8143,8161,8143,9.435447931289673
50,8168,8171,7983,8170,8158,8262,8161,8187,8184,8164,8179,8167,8168,8145,9.442760467529297
51,8152,8150,7950,8146,8146,8247,8159,8176,8125,8160,8152,8144,8160,8132,9.450844049453735
