COUNTER,F3,FC5,AF3,F7,T7,P7,O1,O2,P8,T8,F8,AF4,FC6,F4,Timestamp
66, 8169, 8154, 8163, 8160, 8123, 8185, 8170, 8157, 8041, 8115, 8096, 8144, 8157, 8088,0.00400090217590332
66, 8169, 8154, 8163, 8160, 8123, 8185, 8170, 8157, 8041, 8115, 8096, 8144, 8157, 8088,0.00400090217590332
67, 8167, 8178, 8178, 8177, 8109, 8185, 8142, 8153, 8140, 8100, 8099, 8184, 8160, 8097,0.011001110076904297
67, 8167, 8178, 8178, 8177, 8109, 8185, 8142, 8153, 8140, 8100, 8099, 8184, 8160, 8097,0.012001991271972656
68, 8150, 8155, 8159, 8171, 8124, 8191, 8164, 8166, 8076, 8145, 8117, 8151, 8162, 8084,0.019001245498657227
68, 8150, 8155, 8159, 8171, 8124, 8191, 8164, 8166, 8076, 8145, 8117, 8151, 8162, 8084,0.019999980926513672
69, 8190, 8181, 8163, 8173, 8132, 8189, 8183, 8185, 8162, 8155, 8112, 8176, 8171, 8109,0.027999401092529297
69, 8190, 8181, 8163, 8173, 8132, 8189, 8183, 8185, 8162, 8155, 8112, 8176, 8171, 8109,0.027999401092529297
70, 8164, 8168, 8153, 8145, 8113, 8164, 8162, 8165, 8161, 8120, 8096, 8173, 8164, 8100,0.033998966217041016
70, 8164, 8168, 8153, 8145, 8113, 8164, 8162, 8165, 8161, 8120, 8096, 8173, 8164, 8100,0.034999847412109375
71, 8133, 8143, 8152, 8141, 8118, 8164, 8149, 8152, 8044, 8122, 8103, 8138, 8153, 8084,0.043001413345336914
71, 8133, 8143, 8152, 8141, 8118, 8164, 8149, 8152, 8044, 8122, 8103, 8138, 8153, 8084,0.043001413345336914
72, 8152, 8179, 8176, 8167, 8112, 8169, 8145, 8174, 8178, 8118, 8096, 8176, 8161, 8086,0.05100369453430176
72, 8152, 8179, 8176, 8167, 8112, 8169, 8145, 8174, 8178, 8118, 8096, 8176, 8161, 8086,0.05100369453430176
73, 8148, 8153, 8147, 8151, 8115, 8151, 8159, 8164, 8097, 8124, 8094, 8144, 8156, 8078,0.05800485610961914
73, 8148, 8153, 8147, 8151, 8115, 8151, 8159, 8164, 8097, 8124, 8094, 8144, 8156, 8078,0.05900406837463379
74, 8157, 8158, 8144, 8143, 8107, 8144, 8135, 8150, 8094, 8122, 8088, 8159, 8166, 8096,0.06600403785705566
74, 8157, 8158, 8144, 8143, 8107, 8144, 8135, 8150, 8094, 8122, 8088, 8159, 8166, 8096,0.06700396537780762
75, 8140, 8164, 8158, 8143, 8098, 8151, 8125, 8157, 8136, 8126, 8105, 8175, 8173, 8106,0.07451176643371582
75, 8140, 8164, 8158, 8143, 8098, 8151, 8125, 8157, 8136, 8126, 8105, 8175, 8173, 8106,0.07451176643371582
76, 8153, 8164, 8165, 8160, 8120, 8173, 8165, 8172, 8081, 8151, 8131, 8147, 8165, 8116,0.08251142501831055
76, 8153, 8164, 8165, 8160, 8120, 8173, 8165, 8172, 8081, 8151, 8131, 8147, 8165, 8116,0.08251142501831055
77, 8189, 8201, 8190, 8182, 8130, 8188, 8171, 8186, 8232, 8151, 8115, 8185, 8169, 8126,0.09051179885864258
77, 8189, 8201, 8190, 8182, 8130, 8188, 8171, 8186, 8232, 8151, 8115, 8185, 8169, 8126,0.09051179885864258
78, 8168, 8169, 8177, 8168, 8144, 8181, 8171, 8175, 8166, 8169, 8116, 8158, 8162, 8118,0.09751129150390625
78, 8168, 8169, 8177, 8168, 8144, 8181, 8171, 8175, 8166, 8169, 8116, 8158, 8162, 8118,0.09751129150390625
79, 8172, 8174, 8176, 8175, 8137, 8177, 8176, 8170, 8149, 8161, 8111, 8159, 8160, 8123,0.10551285743713379
79, 8172, 8174, 8176, 8175, 8137, 8177, 8176, 8170, 8149, 8161, 8111, 8159, 8160, 8123,0.10551285743713379
80, 8158, 8179, 8173, 8170, 8124, 8173, 8171, 8168, 8183, 8141, 8095, 8166, 8164, 8104,0.11351370811462402
80, 8158, 8179, 8173, 8170, 8124, 8173, 8171, 8168, 8183, 8141, 8095, 8166, 8164, 8104,0.11351370811462402
81, 8136, 8145, 8150, 8149, 8136, 8168, 8163, 8160, 8066, 8152, 8097, 8132, 8158, 8093,0.12151193618774414
81, 8136, 8145, 8150, 8149, 8136, 8168, 8163, 8160, 8066, 8152, 8097, 8132, 8158, 8093,0.12196946144104004
82, 8134, 8162, 8160, 8151, 8115, 8162, 8142, 8166, 8149, 8118, 8081, 8165, 8157, 8091,0.12979936599731445
82, 8134, 8162, 8160, 8151, 8115, 8162, 8142, 8166, 8149, 8118, 8081, 8165, 8157, 8091,0.12979936599731445
83, 8122, 8147, 8152, 8144, 8119, 8170, 8158, 8165, 8100, 8130, 8090, 8143, 8153, 8082,0.13779926300048828
83, 8122, 8147, 8152, 8144, 8119, 8170, 8158, 8165, 8100, 8130, 8090, 8143, 8153, 8082,0.13779926300048828
84, 8159, 8165, 8160, 8162, 8134, 8186, 8165, 8171, 8127, 8160, 8101, 8154, 8161, 8103,0.14565777778625488
84, 8159, 8165, 8160, 8162, 8134, 8186, 8165, 8171, 8127, 8160, 8101, 8154, 8161, 8103,0.14565777778625488
85, 8160, 8174, 8168, 8159, 8126, 8172, 8147, 8169, 8191, 8139, 8090, 8169, 8163, 8091,0.153764009475708
85, 8160, 8174, 8168, 8159, 8126, 8172, 8147, 8169, 8191, 8139, 8090, 8169, 8163, 8091,0.153764009475708
86, 8140, 8139, 8148, 8138, 8136, 8162, 8154, 8148, 8045, 8132, 8095, 8124, 8150, 8074,0.1606452465057373
86, 8140, 8139, 8148, 8138, 8136, 8162, 8154, 8148, 8045, 8132, 8095, 8124, 8150, 8074,0.1606452465057373
87, 8145, 8167, 8156, 8150, 8125, 8169, 8147, 8157, 8133, 8123, 8082, 8168, 8158, 8086,0.16846823692321777
87, 8145, 8167, 8156, 8150, 8125, 8169, 8147, 8157, 8133, 8123, 8082, 8168, 8158, 8086,0.16846823692321777
88, 8120, 8156, 8154, 8147, 8132, 8165, 8155, 8168, 8116, 8149, 8095, 8159, 8163, 8082,0.17662310600280762
88, 8120, 8156, 8154, 8147, 8132, 8165, 8155, 8168, 8116, 8149, 8095, 8159, 8163, 8082,0.17662310600280762
89, 8141, 8155, 8160, 8152, 8140, 8162, 8158, 8169, 8100, 8156, 8105, 8157, 8161, 8092,0.18465280532836914
89, 8141, 8155, 8160, 8152, 8140, 8162, 8158, 8169, 8100, 8156, 8105, 8157, 8161, 8092,0.18465280532836914
90, 8162, 8167, 8162, 8152, 8124, 8165, 8147, 8161, 8165, 8121, 8083, 8180, 8160, 8098,0.19265532493591309
90, 8162, 8167, 8162, 8152, 8124, 8165, 8147, 8161, 8165, 8121, 8083, 8180, 8160, 8098,0.19265532493591309
91, 8147, 8144, 8148, 8146, 8149, 8171, 8167, 8153, 8054, 8130, 8095, 8140, 8160, 8101,0.2006516456604004
91, 8147, 8144, 8148, 8146, 8149, 8171, 8167, 8153, 8054, 8130, 8095, 8140, 8160, 8101,0.2006516456604004
92, 8151, 8174, 8171, 8163, 8146, 8167, 8150, 8166, 8158, 8129, 8106, 8175, 8170, 8104,0.2086505889892578
92, 8151, 8174, 8171, 8163, 8146, 8167, 8150, 8166, 8158, 8129, 8106, 8175, 8170, 8104,0.2086505889892578
93, 8138, 8156, 8158, 8149, 8134, 8155, 8145, 8159, 8113, 8135, 8105, 8158, 8160, 8080,0.21639060974121094
93, 8138, 8156, 8158, 8149, 8134, 8155, 8145, 8159, 8113, 8135, 8105, 8158, 8160, 8080,0.21639060974121094
94, 8146, 8150, 8152, 8142, 8142, 8166, 8162, 8152, 8033, 8122, 8098, 8143, 8155, 8089,0.22464394569396973
94, 8146, 8150, 8152, 8142, 8142, 8166, 8162, 8152, 8033, 8122, 8098, 8143, 8155, 8089,0.22464394569396973
95, 8146, 8174, 8171, 8154, 8133, 8166, 8148, 8161, 8127, 8090, 8087, 8177, 8169, 8100,0.23165297508239746
95, 8146, 8174, 8171, 8154, 8133, 8166, 8148, 8161, 8127, 8090, 8087, 8177, 8169, 8100,0.23165297508239746
96, 8135, 8148, 8154, 8149, 8141, 8149, 8152, 8154, 8021, 8125, 8093, 8138, 8161, 8090,0.23956298828125
96, 8135, 8148, 8154, 8149, 8141, 8149, 8152, 8154, 8021, 8125, 8093, 8138, 8161, 8090,0.23956298828125
97, 8153, 8170, 8163, 8149, 8135, 8150, 8155, 8158, 8094, 8131, 8087, 8166, 8159, 8098,0.24757599830627441
97, 8153, 8170, 8163, 8149, 8135, 8150, 8155, 8158, 8094, 8131, 8087, 8166, 8159, 8098,0.24757599830627441
98, 8143, 8160, 8167, 8141, 8140, 8158, 8165, 8166, 8119, 8136, 8112, 8169, 8167, 8103,0.2556445598602295
98, 8143, 8160, 8167, 8141, 8140, 8158, 8165, 8166, 8119, 8136, 8112, 8169, 8167, 8103,0.2556445598602295
99, 8160, 8156, 8167, 8149, 8157, 8159, 8168, 8171, 8095, 8167, 8140, 8160, 8175, 8124,0.26365017890930176
99, 8160, 8156, 8167, 8149, 8157, 8159, 8168, 8171, 8095, 8167, 8140, 8160, 8175, 8124,0.26365017890930176
100, 8170, 8181, 8177, 8151, 8141, 8156, 8156, 8170, 8208, 8157, 8134, 8191, 8176, 8133,0.2723419666290283
100, 8170, 8181, 8177, 8151, 8141, 8156, 8156, 8170, 8208, 8157, 8134, 8191, 8176, 8133,0.2723419666290283
101, 8151, 8149, 8168, 8131, 8147, 8166, 8178, 8166, 8112, 8168, 8151, 8155, 8165, 8126,0.27933812141418457
101, 8151, 8149, 8168, 8131, 8147, 8166, 8178, 8166, 8112, 8168, 8151, 8155, 8165, 8126,0.27933812141418457
102, 8163, 8159, 8173, 8141, 8145, 8169, 8166, 8176, 8157, 8163, 8139, 8171, 8167, 8128,0.2876553535461426
102, 8163, 8159, 8173, 8141, 8145, 8169, 8166, 8176, 8157, 8163, 8139, 8171, 8167, 8128,0.2876553535461426
103, 8131, 8147, 8145, 8129, 8140, 8153, 8154, 8163, 8119, 8134, 8106, 8153, 8154, 8092,0.2956514358520508
103, 8131, 8147, 8145, 8129, 8140, 8153, 8154, 8163, 8119, 8134, 8106, 8153, 8154, 8092,0.2956514358520508
104, 8128, 8142, 8127, 8120, 8147, 8155, 8170, 8153, 8026, 8124, 8106, 8135, 8151, 8082,0.3026542663574219
104, 8128, 8142, 8127, 8120, 8147, 8155, 8170, 8153, 8026, 8124, 8106, 8135, 8151, 8082,0.3026542663574219
105, 8145, 8176, 8153, 8136, 8136, 8158, 8161, 8168, 8158, 8125, 8115, 8185, 8171, 8101,0.31096363067626953
105, 8145, 8176, 8153, 8136, 8136, 8158, 8161, 8168, 8158, 8125, 8115, 8185, 8171, 8101,0.31096363067626953
106, 8127, 8151, 8142, 8140, 8154, 8155, 8167, 8163, 8078, 8153, 8135, 8153, 8163, 8100,0.318958044052124
106, 8127, 8151, 8142, 8140, 8154, 8155, 8167, 8163, 8078, 8153, 8135, 8153, 8163, 8100,0.318958044052124
107, 8142, 8167, 8141, 8149, 8156, 8160, 8160, 8162, 8108, 8129, 8126, 8169, 8157, 8101,0.32696056365966797
107, 8142, 8167, 8141, 8149, 8156, 8160, 8160, 8162, 8108, 8129, 8126, 8169, 8157, 8101,0.32696056365966797
108, 8132, 8164, 8143, 8135, 8149, 8155, 8151, 8164, 8136, 8116, 8123, 8177, 8162, 8094,0.3350083827972412
108, 8132, 8164, 8143, 8135, 8149, 8155, 8151, 8164, 8136, 8116, 8123, 8177, 8162, 8094,0.3350083827972412
109, 8135, 8147, 8143, 8135, 8168, 8160, 8165, 8168, 8081, 8155, 8136, 8152, 8164, 8106,0.3426530361175537
109, 8135, 8147, 8143, 8135, 8168, 8160, 8165, 8168, 8081, 8155, 8136, 8152, 8164, 8106,0.3426530361175537
110, 8139, 8163, 8142, 8141, 8158, 8168, 8160, 8175, 8187, 8136, 8110, 8180, 8164, 8099,0.35005736351013184
110, 8139, 8163, 8142, 8141, 8158, 8168, 8160, 8175, 8187, 8136, 8110, 8180, 8164, 8099,0.3510589599609375
111, 8098, 8118, 8107, 8113, 8156, 8153, 8162, 8162, 8048, 8115, 8106, 8139, 8148, 8066,0.3580787181854248
111, 8098, 8118, 8107, 8113, 8156, 8153, 8162, 8162, 8048, 8115, 8106, 8139, 8148, 8066,0.3590731620788574
112, 8113, 8142, 8125, 8128, 8141, 8135, 8153, 8154, 8039, 8100, 8105, 8157, 8151, 8076,0.36565375328063965
112, 8113, 8142, 8125, 8128, 8141, 8135, 8153, 8154, 8039, 8100, 8105, 8157, 8151, 8076,0.36565375328063965
113, 8121, 8164, 8144, 8139, 8134, 8129, 8152, 8152, 8097, 8108, 8104, 8175, 8163, 8075,0.3736743927001953
113, 8121, 8164, 8144, 8139, 8134, 8129, 8152, 8152, 8097, 8108, 8104, 8175, 8163, 8075,0.3736743927001953
114, 8118, 8140, 8136, 8129, 8162, 8132, 8163, 8152, 8011, 8132, 8118, 8145, 8157, 8073,0.38167667388916016
114, 8118, 8140, 8136, 8129, 8162, 8132, 8163, 8152, 8011, 8132, 8118, 8145, 8157, 8073,0.38167667388916016
115, 8130, 8163, 8157, 8139, 8153, 8129, 8138, 8159, 8111, 8100, 8114, 8182, 8159, 8087,0.38968777656555176
115, 8130, 8163, 8157, 8139, 8153, 8129, 8138, 8159, 8111, 8100, 8114, 8182, 8159, 8087,0.38968777656555176
116, 8121, 8151, 8154, 8147, 8160, 8128, 8143, 8151, 8061, 8118, 8132, 8154, 8160, 8086,0.3976554870605469
116, 8121, 8151, 8154, 8147, 8160, 8128, 8143, 8151, 8061, 8118, 8132, 8154, 8160, 8086,0.3981046676635742
117, 8147, 8172, 8165, 8171, 8175, 8140, 8153, 8157, 8109, 8142, 8129, 8159, 8168, 8096,0.4056551456451416
117, 8147, 8172, 8165, 8171, 8175, 8140, 8153, 8157, 8109, 8142, 8129, 8159, 8168, 8096,0.4062321186065674
118, 8144, 8181, 8181, 8176, 8178, 8147, 8148, 8162, 8174, 8130, 8118, 8170, 8168, 8092,0.4132850170135498
118, 8144, 8181, 8181, 8176, 8178, 8147, 8148, 8162, 8174, 8130, 8118, 8170, 8168, 8092,0.4132850170135498
119, 8136, 8157, 8176, 8165, 8194, 8160, 8153, 8155, 8060, 8147, 8131, 8133, 8158, 8096,0.42128491401672363
119, 8136, 8157, 8176, 8165, 8194, 8160, 8153, 8155, 8060, 8147, 8131, 8133, 8158, 8096,0.42128491401672363
120, 8153, 8181, 8173, 8169, 8177, 8156, 8134, 8156, 8160, 8129, 8113, 8170, 8165, 8104,0.4286496639251709
120, 8153, 8181, 8173, 8169, 8177, 8156, 8134, 8156, 8160, 8129, 8113, 8170, 8165, 8104,0.4286496639251709
121, 8133, 8152, 8147, 8163, 8176, 8141, 8137, 8147, 8088, 8133, 8112, 8146, 8165, 8086,0.4363734722137451
121, 8133, 8152, 8147, 8163, 8176, 8141, 8137, 8147, 8088, 8133, 8112, 8146, 8165, 8086,0.4363734722137451
122, 8144, 8162, 8155, 8177, 8175, 8144, 8136, 8149, 8066, 8147, 8113, 8153, 8165, 8094,0.44437336921691895
122, 8144, 8162, 8155, 8177, 8175, 8144, 8136, 8149, 8066, 8147, 8113, 8153, 8165, 8094,0.44437336921691895
123, 8133, 8174, 8167, 8173, 8163, 8142, 8127, 8152, 8145, 8124, 8099, 8174, 8162, 8086,0.45237278938293457
123, 8133, 8174, 8167, 8173, 8163, 8142, 8127, 8152, 8145, 8124, 8099, 8174, 8162, 8086,0.453380823135376
124, 8116, 8142, 8148, 8162, 8182, 8140, 8147, 8144, 8035, 8120, 8108, 8130, 8150, 8075,0.460651159286499
124, 8116, 8142, 8148, 8162, 8182, 8140, 8147, 8144, 8035, 8120, 8108, 8130, 8150, 8075,0.460651159286499
125, 8130, 8169, 8153, 8175, 8165, 8129, 8133, 8154, 8118, 8105, 8095, 8163, 8158, 8081,0.4684779644012451
125, 8130, 8169, 8153, 8175, 8165, 8129, 8133, 8154, 8118, 8105, 8095, 8163, 8158, 8081,0.4684779644012451
126, 8103, 8149, 8142, 8156, 8156, 8112, 8124, 8146, 8054, 8115, 8090, 8139, 8154, 8063,0.4766528606414795
126, 8103, 8149, 8142, 8156, 8156, 8112, 8124, 8146, 8054, 8115, 8090, 8139, 8154, 8063,0.4766528606414795
127, 8119, 8151, 8152, 8164, 8166, 8118, 8134, 8144, 8028, 8130, 8097, 8139, 8153, 8071,0.48465514183044434
127, 8119, 8151, 8152, 8164, 8166, 8118, 8134, 8144, 8028, 8130, 8097, 8139, 8153, 8071,0.48465514183044434
240, 8132, 8179, 8166, 8179, 8165, 8118, 8134, 8160, 8149, 8124, 8103, 8178, 8161, 8087,0.49265503883361816
240, 8132, 8179, 8166, 8179, 8165, 8118, 8134, 8160, 8149, 8124, 8103, 8178, 8161, 8087,0.49265503883361816
0, 8121, 8151, 8154, 8168, 8182, 8113, 8139, 8161, 8061, 8151, 8117, 8143, 8156, 8092,0.49961376190185547
0, 8121, 8151, 8154, 8168, 8182, 8113, 8139, 8161, 8061, 8151, 8117, 8143, 8156, 8092,0.49961376190185547
1, 8137, 8167, 8176, 8178, 8166, 8114, 8124, 8165, 8145, 8152, 8102, 8170, 8163, 8098,0.5076498985290527
1, 8137, 8167, 8176, 8178, 8166, 8114, 8124, 8165, 8145, 8152, 8102, 8170, 8163, 8098,0.5076498985290527
2, 8123, 8154, 8166, 8166, 8160, 8104, 8139, 8164, 8120, 8147, 8102, 8156, 8160, 8082,0.5156888961791992
2, 8123, 8154, 8166, 8166, 8160, 8104, 8139, 8164, 8120, 8147, 8102, 8156, 8160, 8082,0.5156888961791992
3, 8126, 8157, 8154, 8160, 8174, 8108, 8155, 8166, 8078, 8129, 8098, 8141, 8158, 8084,0.5233066082000732
3, 8126, 8157, 8154, 8160, 8174, 8108, 8155, 8166, 8078, 8129, 8098, 8141, 8158, 8084,0.5233066082000732
4, 8124, 8176, 8165, 8166, 8167, 8121, 8143, 8169, 8175, 8109, 8072, 8166, 8158, 8081,0.5313129425048828
4, 8124, 8176, 8165, 8166, 8167, 8121, 8143, 8169, 8175, 8109, 8072, 8166, 8158, 8081,0.5313129425048828
5, 8120, 8145, 8153, 8157, 8175, 8122, 8160, 8163, 8070, 8144, 8089, 8134, 8148, 8076,0.5393166542053223
5, 8120, 8145, 8153, 8157, 8175, 8122, 8160, 8163, 8070, 8144, 8089, 8134, 8148, 8076,0.5393166542053223
6, 8144, 8171, 8166, 8162, 8157, 8112, 8151, 8169, 8144, 8131, 8097, 8164, 8162, 8097,0.5476498603820801
6, 8144, 8171, 8166, 8162, 8157, 8112, 8151, 8169, 8144, 8131, 8097, 8164, 8162, 8097,0.5476498603820801
7, 8121, 8161, 8161, 8152, 8144, 8109, 8144, 8165, 8130, 8118, 8092, 8145, 8167, 8088,0.5552947521209717
7, 8121, 8161, 8161, 8152, 8144, 8109, 8144, 8165, 8130, 8118, 8092, 8145, 8167, 8088,0.5552947521209717
8, 8128, 8155, 8162, 8154, 8147, 8110, 8152, 8158, 8061, 8131, 8088, 8127, 8157, 8085,0.5622940063476562
8, 8128, 8155, 8162, 8154, 8147, 8110, 8152, 8158, 8061, 8131, 8088, 8127, 8157, 8085,0.5622940063476562
9, 8144, 8182, 8181, 8163, 8134, 8098, 8141, 8165, 8165, 8113, 8077, 8173, 8155, 8088,0.5703668594360352
9, 8144, 8182, 8181, 8163, 8134, 8098, 8141, 8165, 8165, 8113, 8077, 8173, 8155, 8088,0.5703668594360352
10, 8130, 8156, 8169, 8158, 8151, 8107, 8164, 8173, 8084, 8135, 8094, 8146, 8157, 8094,0.5788304805755615
10, 8130, 8156, 8169, 8158, 8151, 8107, 8164, 8173, 8084, 8135, 8094, 8146, 8157, 8094,0.5788304805755615
11, 8158, 8176, 8181, 8173, 8139, 8122, 8172, 8184, 8170, 8143, 8096, 8178, 8177, 8119,0.5868310928344727
11, 8158, 8176, 8181, 8173, 8139, 8122, 8172, 8184, 8170, 8143, 8096, 8178, 8177, 8119,0.5868310928344727
12, 8147, 8168, 8183, 8155, 8126, 8104, 8160, 8169, 8175, 8136, 8106, 8173, 8174, 8114,0.5946500301361084
12, 8147, 8168, 8183, 8155, 8126, 8104, 8160, 8169, 8175, 8136, 8106, 8173, 8174, 8114,0.5946500301361084
13, 8138, 8153, 8178, 8146, 8149, 8096, 8156, 8160, 8073, 8138, 8108, 8137, 8158, 8104,0.6026501655578613
13, 8138, 8153, 8178, 8146, 8149, 8096, 8156, 8160, 8073, 8138, 8108, 8137, 8158, 8104,0.6026501655578613
14, 8152, 8180, 8189, 8165, 8144, 8108, 8155, 8173, 8175, 8123, 8080, 8170, 8160, 8102,0.6106491088867188
14, 8152, 8180, 8189, 8165, 8144, 8108, 8155, 8173, 8175, 8123, 8080, 8170, 8160, 8102,0.6106491088867188
15, 8144, 8158, 8180, 8158, 8155, 8117, 8184, 8174, 8104, 8146, 8109, 8153, 8161, 8108,0.618300199508667
15, 8144, 8158, 8180, 8158, 8155, 8117, 8184, 8174, 8104, 8146, 8109, 8153, 8161, 8108,0.618300199508667
16, 8165, 8182, 8204, 8169, 8152, 8115, 8182, 8184, 8174, 8158, 8130, 8179, 8172, 8129,0.6252989768981934
16, 8165, 8182, 8204, 8169, 8152, 8115, 8182, 8184, 8174, 8158, 8130, 8179, 8172, 8129,0.6252989768981934
17, 8155, 8174, 8201, 8156, 8138, 8103, 8167, 8178, 8182, 8161, 8104, 8165, 8165, 8108,0.6336500644683838
17, 8155, 8174, 8201, 8156, 8138, 8103, 8167, 8178, 8182, 8161, 8104, 8165, 8165, 8108,0.6336500644683838
18, 8141, 8147, 8174, 8143, 8146, 8106, 8162, 8168, 8051, 8150, 8090, 8133, 8148, 8098,0.6416497230529785
18, 8141, 8147, 8174, 8143, 8146, 8106, 8162, 8168, 8051, 8150, 8090, 8133, 8148, 8098,0.6416497230529785
19, 8152, 8183, 8193, 8159, 8137, 8109, 8155, 8186, 8171, 8124, 8093, 8188, 8164, 8113,0.6499953269958496
19, 8152, 8183, 8193, 8159, 8137, 8109, 8155, 8186, 8171, 8124, 8093, 8188, 8164, 8113,0.6499953269958496
20, 8147, 8163, 8191, 8149, 8140, 8096, 8177, 8181, 8119, 8160, 8118, 8160, 8173, 8112,0.6580023765563965
20, 8147, 8163, 8191, 8149, 8140, 8096, 8177, 8181, 8119, 8160, 8118, 8160, 8173, 8112,0.6580023765563965
21, 8162, 8175, 8196, 8154, 8134, 8097, 8172, 8173, 8131, 8161, 8116, 8161, 8166, 8119,0.6656520366668701
21, 8162, 8175, 8196, 8154, 8134, 8097, 8172, 8173, 8131, 8161, 8116, 8161, 8166, 8119,0.6656520366668701
22, 8160, 8187, 8208, 8163, 8134, 8095, 8169, 8175, 8166, 8146, 8115, 8171, 8163, 8119,0.673649787902832
22, 8160, 8187, 8208, 8163, 8134, 8095, 8169, 8175, 8166, 8146, 8115, 8171, 8163, 8119,0.673649787902832
23, 8176, 8176, 8212, 8170, 8157, 8089, 8188, 8179, 8099, 8179, 8139, 8154, 8171, 8140,0.681673526763916
23, 8176, 8176, 8212, 8170, 8157, 8089, 8188, 8179, 8099, 8179, 8139, 8154, 8171, 8140,0.681673526763916
24, 8185, 8195, 8219, 8175, 8150, 8093, 8174, 8188, 8218, 8164, 8134, 8191, 8178, 8152,0.6886813640594482
24, 8185, 8195, 8219, 8175, 8150, 8093, 8174, 8188, 8218, 8164, 8134, 8191, 8178, 8152,0.6886813640594482
25, 8160, 8159, 8198, 8160, 8156, 8093, 8181, 8179, 8134, 8162, 8135, 8156, 8160, 8133,0.6967668533325195
25, 8160, 8159, 8198, 8160, 8156, 8093, 8181, 8179, 8134, 8162, 8135, 8156, 8160, 8133,0.6967668533325195
26, 8181, 8170, 8205, 8167, 8147, 8080, 8174, 8177, 8133, 8167, 8127, 8165, 8162, 8148,0.7047176361083984
26, 8181, 8170, 8205, 8167, 8147, 8080, 8174, 8177, 8133, 8167, 8127, 8165, 8162, 8148,0.7047176361083984
27, 8170, 8179, 8206, 8155, 8129, 8070, 8151, 8170, 8173, 8149, 8106, 8179, 8164, 8141,0.712651252746582
27, 8170, 8179, 8206, 8155, 8129, 8070, 8151, 8170, 8173, 8149, 8106, 8179, 8164, 8141,0.712651252746582
28, 8156, 8157, 8192, 8142, 8151, 8081, 8164, 8156, 8043, 8146, 8102, 8140, 8151, 8120,0.7201745510101318
28, 8156, 8157, 8192, 8142, 8151, 8081, 8164, 8156, 8043, 8146, 8102, 8140, 8151, 8120,0.7201745510101318
29, 8172, 8189, 8209, 8159, 8146, 8081, 8162, 8169, 8144, 8137, 8084, 8175, 8163, 8120,0.7281820774078369
29, 8172, 8189, 8209, 8159, 8146, 8081, 8162, 8169, 8144, 8137, 8084, 8175, 8163, 8120,0.7281820774078369
30, 8158, 8168, 8201, 8150, 8147, 8072, 8169, 8178, 8107, 8174, 8098, 8155, 8169, 8121,0.737189531326294
30, 8158, 8168, 8201, 8150, 8147, 8072, 8169, 8178, 8107, 8174, 8098, 8155, 8169, 8121,0.737189531326294
31, 8174, 8173, 8210, 8160, 8155, 8079, 8177, 8178, 8121, 8188, 8114, 8160, 8170, 8140,0.7446451187133789
31, 8174, 8173, 8210, 8160, 8155, 8079, 8177, 8178, 8121, 8188, 8114, 8160, 8170, 8140,0.7446451187133789
32, 8162, 8183, 8206, 8158, 8154, 8073, 8175, 8176, 8200, 8160, 8105, 8175, 8166, 8132,0.7526497840881348
32, 8162, 8183, 8206, 8158, 8154, 8073, 8175, 8176, 8200, 8160, 8105, 8175, 8166, 8132,0.7526497840881348
33, 8143, 8155, 8180, 8140, 8173, 8067, 8188, 8179, 8097, 8174, 8115, 8138, 8161, 8124,0.759613037109375
33, 8143, 8155, 8180, 8140, 8173, 8067, 8188, 8179, 8097, 8174, 8115, 8138, 8161, 8124,0.759613037109375
34, 8171, 8187, 8208, 8158, 8160, 8073, 8179, 8195, 8211, 8184, 8118, 8178, 8175, 8143,0.7676496505737305
34, 8171, 8187, 8208, 8158, 8160, 8073, 8179, 8195, 8211, 8184, 8118, 8178, 8175, 8143,0.7676496505737305
35, 8162, 8178, 8205, 8157, 8158, 8068, 8185, 8188, 8179, 8206, 8131, 8159, 8168, 8138,0.775627613067627
35, 8162, 8178, 8205, 8157, 8158, 8068, 8185, 8188, 8179, 8206, 8131, 8159, 8168, 8138,0.775627613067627
36, 8165, 8178, 8194, 8155, 8168, 8063, 8185, 8184, 8147, 8199, 8128, 8150, 8158, 8139,0.7836217880249023
36, 8165, 8178, 8194, 8155, 8168, 8063, 8185, 8184, 8147, 8199, 8128, 8150, 8158, 8139,0.7836217880249023
37, 8169, 8186, 8211, 8158, 8165, 8059, 8175, 8192, 8252, 8174, 8113, 8183, 8167, 8140,0.7916498184204102
37, 8169, 8186, 8211, 8158, 8165, 8059, 8175, 8192, 8252, 8174, 8113, 8183, 8167, 8140,0.7916498184204102
38, 8168, 8159, 8208, 8154, 8180, 8060, 8191, 8186, 8162, 8203, 8128, 8147, 8163, 8143,0.7996928691864014
38, 8168, 8159, 8208, 8154, 8180, 8060, 8191, 8186, 8162, 8203, 8128, 8147, 8163, 8143,0.7996928691864014
39, 8181, 8191, 8208, 8163, 8161, 8057, 8170, 8181, 8215, 8186, 8112, 8169, 8159, 8142,0.8077023029327393
39, 8181, 8191, 8208, 8163, 8161, 8057, 8170, 8181, 8215, 8186, 8112, 8169, 8159, 8142,0.8077023029327393
40, 8143, 8167, 8185, 8140, 8153, 8051, 8158, 8165, 8147, 8168, 8105, 8154, 8156, 8115,0.815619945526123
40, 8143, 8167, 8185, 8140, 8153, 8051, 8158, 8165, 8147, 8168, 8105, 8154, 8156, 8115,0.815619945526123
41, 8137, 8149, 8175, 8128, 8163, 8056, 8166, 8163, 8096, 8180, 8112, 8149, 8159, 8124,0.8226141929626465
41, 8137, 8149, 8175, 8128, 8163, 8056, 8166, 8163, 8096, 8180, 8112, 8149, 8159, 8124,0.8226141929626465
42, 8155, 8178, 8189, 8138, 8154, 8049, 8165, 8181, 8210, 8172, 8108, 8184, 8166, 8140,0.8306498527526855
42, 8155, 8178, 8189, 8138, 8154, 8049, 8165, 8181, 8210, 8172, 8108, 8184, 8166, 8140,0.8306498527526855
43, 8156, 8164, 8193, 8145, 8169, 8043, 8184, 8187, 8124, 8196, 8125, 8145, 8161, 8145,0.8386518955230713
43, 8156, 8164, 8193, 8145, 8169, 8043, 8184, 8187, 8124, 8196, 8125, 8145, 8161, 8145,0.8386518955230713
44, 8168, 8183, 8208, 8149, 8158, 8045, 8178, 8194, 8196, 8193, 8111, 8167, 8163, 8152,0.8459672927856445
44, 8168, 8183, 8208, 8149, 8158, 8045, 8178, 8194, 8196, 8193, 8111, 8167, 8163, 8152,0.8469600677490234
45, 8141, 8164, 8189, 8128, 8161, 8046, 8179, 8184, 8170, 8179, 8101, 8160, 8159, 8133,0.8549766540527344
45, 8141, 8164, 8189, 8128, 8161, 8046, 8179, 8184, 8170, 8179, 8101, 8160, 8159, 8133,0.8549766540527344
46, 8149, 8160, 8188, 8138, 8176, 8056, 8186, 8177, 8110, 8179, 8112, 8153, 8161, 8134,0.8619856834411621
46, 8149, 8160, 8188, 8138, 8176, 8056, 8186, 8177, 8110, 8179, 8112, 8153, 8161, 8134,0.8619856834411621
47, 8157, 8188, 8206, 8145, 8145, 8048, 8162, 8178, 8211, 8155, 8098, 8185, 8165, 8128,0.8705160617828369
47, 8157, 8188, 8206, 8145, 8145, 8048, 8162, 8178, 8211, 8155, 8098, 8185, 8165, 8128,0.8705160617828369
48, 8126, 8158, 8181, 8118, 8146, 8037, 8165, 8164, 8078, 8153, 8092, 8139, 8151, 8100,0.8786509037017822
48, 8126, 8158, 8181, 8118, 8146, 8037, 8165, 8164, 8078, 8153, 8092, 8139, 8151, 8100,0.8786509037017822
49, 8136, 8175, 8183, 8128, 8150, 8046, 8164, 8165, 8126, 8142, 8080, 8166, 8156, 8106,0.8856508731842041
49, 8136, 8175, 8183, 8128, 8150, 8046, 8164, 8165, 8126, 8142, 8080, 8166, 8156, 8106,0.8856508731842041
50, 8127, 8163, 8178, 8128, 8141, 8047, 8166, 8166, 8157, 8161, 8084, 8166, 8163, 8117,0.893651008605957
50, 8127, 8163, 8178, 8128, 8141, 8047, 8166, 8166, 8157, 8161, 8084, 8166, 8163, 8117,0.893651008605957
51, 8132, 8149, 8172, 8125, 8142, 8031, 8167, 8163, 8082, 8174, 8085, 8137, 8159, 8133,0.9012234210968018
51, 8132, 8149, 8172, 8125, 8142, 8031, 8167, 8163, 8082, 8174, 8085, 8137, 8159, 8133,0.9012234210968018
52, 8132, 8169, 8188, 8128, 8121, 8007, 8134, 8163, 8146, 8121, 8055, 8169, 8161, 8119,0.9092228412628174
52, 8132, 8169, 8188, 8128, 8121, 8007, 8134, 8163, 8146, 8121, 8055, 8169, 8161, 8119,0.9092228412628174
53, 8107, 8129, 8169, 8106, 8123, 8002, 8137, 8151, 8010, 8132, 8070, 8140, 8157, 8103,0.917224645614624
53, 8107, 8129, 8169, 8106, 8123, 8002, 8137, 8151, 8010, 8132, 8070, 8140, 8157, 8103,0.917224645614624
54, 8130, 8153, 8176, 8117, 8125, 8021, 8150, 8159, 8062, 8150, 8082, 8163, 8167, 8136,0.9253189563751221
54, 8130, 8153, 8176, 8117, 8125, 8021, 8150, 8159, 8062, 8150, 8082, 8163, 8167, 8136,0.9263064861297607
55, 8120, 8165, 8175, 8124, 8125, 8014, 8146, 8159, 8112, 8148, 8076, 8165, 8165, 8129,0.9336495399475098
55, 8120, 8165, 8175, 8124, 8125, 8014, 8146, 8159, 8112, 8148, 8076, 8165, 8165, 8129,0.9336495399475098
56, 8116, 8145, 8170, 8121, 8139, 8005, 8143, 8154, 8016, 8164, 8075, 8134, 8157, 8105,0.941638708114624
56, 8116, 8145, 8170, 8121, 8139, 8005, 8143, 8154, 8016, 8164, 8075, 8134, 8157, 8105,0.941638708114624
57, 8135, 8171, 8193, 8129, 8136, 8014, 8140, 8168, 8124, 8152, 8057, 8170, 8164, 8107,0.9496357440948486
57, 8135, 8171, 8193, 8129, 8136, 8014, 8140, 8168, 8124, 8152, 8057, 8170, 8164, 8107,0.9496357440948486
58, 8120, 8153, 8177, 8115, 8148, 8013, 8158, 8164, 8055, 8152, 8064, 8141, 8154, 8106,0.9566488265991211
58, 8120, 8153, 8177, 8115, 8148, 8013, 8158, 8164, 8055, 8152, 8064, 8141, 8154, 8106,0.9566488265991211
59, 8126, 8167, 8174, 8121, 8135, 8003, 8143, 8156, 8067, 8134, 8063, 8158, 8158, 8110,0.9646499156951904
59, 8126, 8167, 8174, 8121, 8135, 8003, 8143, 8156, 8067, 8134, 8063, 8158, 8158, 8110,0.9646499156951904
60, 8112, 8168, 8171, 8124, 8117, 7991, 8128, 8156, 8086, 8119, 8055, 8169, 8159, 8096,0.9724059104919434
60, 8112, 8168, 8171, 8124, 8117, 7991, 8128, 8156, 8086, 8119, 8055, 8169, 8159, 8096,0.9724059104919434
61, 8111, 8142, 8156, 8116, 8128, 7996, 8146, 8158, 7979, 8138, 8057, 8134, 8148, 8098,0.9804017543792725
61, 8111, 8142, 8156, 8116, 8128, 7996, 8146, 8158, 7979, 8138, 8057, 8134, 8148, 8098,0.9804017543792725
62, 8127, 8168, 8169, 8114, 8112, 8001, 8133, 8158, 8094, 8129, 8043, 8170, 8160, 8108,0.988408088684082
62, 8127, 8168, 8169, 8114, 8112, 8001, 8133, 8158, 8094, 8129, 8043, 8170, 8160, 8108,0.988408088684082
63, 8107, 8149, 8160, 8103, 8134, 7993, 8135, 8146, 8043, 8146, 8066, 8145, 8165, 8095,0.9963994026184082
63, 8107, 8149, 8160, 8103, 8134, 7993, 8135, 8146, 8043, 8146, 8066, 8145, 8165, 8095,0.9963994026184082
64, 8117, 8155, 8167, 8120, 8160, 7994, 8134, 8151, 8052, 8145, 8071, 8155, 8162, 8102,1.0043978691101074
64, 8117, 8155, 8167, 8120, 8160, 7994, 8134, 8151, 8052, 8145, 8071, 8155, 8162, 8102,1.0043978691101074
65, 8115, 8161, 8173, 8118, 8151, 7993, 8121, 8158, 8103, 8130, 8054, 8172, 8159, 8101,1.0124015808105469
65, 8115, 8161, 8173, 8118, 8151, 7993, 8121, 8158, 8103, 8130, 8054, 8172, 8159, 8101,1.0124015808105469
66, 8123, 8152, 8166, 8117, 8159, 7993, 8131, 8155, 8019, 8161, 8074, 8153, 8166, 8117,1.019402027130127
66, 8123, 8152, 8166, 8117, 8159, 7993, 8131, 8155, 8019, 8161, 8074, 8153, 8166, 8117,1.019402027130127
67, 8146, 8184, 8185, 8139, 8147, 7987, 8121, 8161, 8144, 8145, 8064, 8193, 8170, 8134,1.0276813507080078
67, 8146, 8184, 8185, 8139, 8147, 7987, 8121, 8161, 8144, 8145, 8064, 8193, 8170, 8134,1.0276813507080078
68, 8120, 8150, 8175, 8125, 8152, 7982, 8127, 8151, 8073, 8136, 8050, 8152, 8152, 8107,1.0360686779022217
68, 8120, 8150, 8175, 8125, 8152, 7982, 8127, 8151, 8073, 8136, 8050, 8152, 8152, 8107,1.0360686779022217
69, 8133, 8157, 8173, 8128, 8155, 8000, 8137, 8153, 8059, 8153, 8063, 8154, 8161, 8110,1.04306960105896
69, 8133, 8157, 8173, 8128, 8155, 8000, 8137, 8153, 8059, 8153, 8063, 8154, 8161, 8110,1.0440680980682373
70, 8135, 8176, 8185, 8134, 8142, 8017, 8142, 8166, 8163, 8160, 8086, 8188, 8178, 8128,1.051654577255249
70, 8135, 8176, 8185, 8134, 8142, 8017, 8142, 8166, 8163, 8160, 8086, 8188, 8178, 8128,1.051654577255249
71, 8131, 8144, 8186, 8130, 8162, 8027, 8157, 8162, 8069, 8175, 8098, 8145, 8162, 8139,1.0596168041229248
71, 8131, 8144, 8186, 8130, 8162, 8027, 8157, 8162, 8069, 8175, 8098, 8145, 8162, 8139,1.0596168041229248
72, 8146, 8162, 8191, 8135, 8148, 8017, 8126, 8150, 8126, 8138, 8067, 8169, 8156, 8135,1.0676531791687012
72, 8146, 8162, 8191, 8135, 8148, 8017, 8126, 8150, 8126, 8138, 8067, 8169, 8156, 8135,1.0681324005126953
73, 8092, 8138, 8156, 8104, 8133, 8003, 8109, 8131, 8039, 8126, 8073, 8149, 8155, 8097,1.075650930404663
73, 8092, 8138, 8156, 8104, 8133, 8003, 8109, 8131, 8039, 8126, 8073, 8149, 8155, 8097,1.075650930404663
74, 8083, 8146, 8149, 8109, 8139, 8015, 8125, 8148, 8010, 8133, 8077, 8140, 8158, 8097,1.0836787223815918
74, 8083, 8146, 8149, 8109, 8139, 8015, 8125, 8148, 8010, 8133, 8077, 8140, 8158, 8097,1.0836787223815918
75, 8119, 8168, 8171, 8131, 8142, 8018, 8138, 8166, 8115, 8115, 8049, 8168, 8164, 8111,1.09067964553833
75, 8119, 8168, 8171, 8131, 8142, 8018, 8138, 8166, 8115, 8115, 8049, 8168, 8164, 8111,1.09067964553833
76, 8127, 8132, 8171, 8118, 8150, 8017, 8150, 8143, 8007, 8135, 8066, 8144, 8162, 8119,1.0987157821655273
76, 8127, 8132, 8171, 8118, 8150, 8017, 8150, 8143, 8007, 8135, 8066, 8144, 8162, 8119,1.0987157821655273
77, 8131, 8159, 8194, 8122, 8129, 8020, 8128, 8143, 8108, 8147, 8078, 8186, 8164, 8130,1.1066553592681885
77, 8131, 8159, 8194, 8122, 8129, 8020, 8128, 8143, 8108, 8147, 8078, 8186, 8164, 8130,1.1066553592681885
78, 8119, 8155, 8188, 8119, 8140, 8002, 8130, 8153, 8102, 8148, 8074, 8167, 8152, 8113,1.114652156829834
78, 8119, 8155, 8188, 8119, 8140, 8002, 8130, 8153, 8102, 8148, 8074, 8167, 8152, 8113,1.114652156829834
79, 8144, 8153, 8188, 8123, 8157, 7997, 8140, 8149, 8031, 8121, 8066, 8148, 8152, 8116,1.1226255893707275
79, 8144, 8153, 8188, 8123, 8157, 7997, 8140, 8149, 8031, 8121, 8066, 8148, 8152, 8116,1.1226255893707275
80, 8144, 8178, 8208, 8130, 8137, 8002, 8125, 8147, 8120, 8101, 8075, 8189, 8174, 8129,1.1306264400482178
80, 8144, 8178, 8208, 8130, 8137, 8002, 8125, 8147, 8120, 8101, 8075, 8189, 8174, 8129,1.1306264400482178
81, 8126, 8157, 8190, 8130, 8163, 8000, 8144, 8150, 8041, 8143, 8093, 8155, 8166, 8131,1.1386172771453857
81, 8126, 8157, 8190, 8130, 8163, 8000, 8144, 8150, 8041, 8143, 8093, 8155, 8166, 8131,1.1386172771453857
82, 8148, 8178, 8202, 8137, 8178, 8006, 8152, 8161, 8115, 8126, 8070, 8172, 8157, 8133,1.1466169357299805
82, 8148, 8178, 8202, 8137, 8178, 8006, 8152, 8161, 8115, 8126, 8070, 8172, 8157, 8133,1.1466169357299805
83, 8131, 8160, 8206, 8127, 8170, 8012, 8153, 8159, 8113, 8120, 8077, 8163, 8163, 8120,1.1536173820495605
83, 8131, 8160, 8206, 8127, 8170, 8012, 8153, 8159, 8113, 8120, 8077, 8163, 8163, 8120,1.1536173820495605
84, 8149, 8153, 8206, 8141, 8160, 8012, 8159, 8161, 8087, 8158, 8095, 8153, 8171, 8143,1.1616239547729492
84, 8149, 8153, 8206, 8141, 8160, 8012, 8159, 8161, 8087, 8158, 8095, 8153, 8171, 8143,1.1616239547729492
85, 8164, 8181, 8221, 8147, 8140, 8008, 8157, 8175, 8219, 8157, 8084, 8192, 8171, 8155,1.1696231365203857
85, 8164, 8181, 8221, 8147, 8140, 8008, 8157, 8175, 8219, 8157, 8084, 8192, 8171, 8155,1.1696231365203857
86, 8131, 8148, 8206, 8128, 8157, 8010, 8169, 8168, 8100, 8159, 8095, 8156, 8157, 8130,1.177816390991211
86, 8131, 8148, 8206, 8128, 8157, 8010, 8169, 8168, 8100, 8159, 8095, 8156, 8157, 8130,1.177816390991211
87, 8140, 8153, 8216, 8141, 8157, 8012, 8147, 8155, 8118, 8128, 8081, 8172, 8159, 8128,1.1858153343200684
87, 8140, 8153, 8216, 8141, 8157, 8012, 8147, 8155, 8118, 8128, 8081, 8172, 8159, 8128,1.1858153343200684
88, 8124, 8145, 8210, 8128, 8158, 8006, 8138, 8139, 8098, 8111, 8064, 8168, 8152, 8111,1.1938157081604004
88, 8124, 8145, 8210, 8128, 8158, 8006, 8138, 8139, 8098, 8111, 8064, 8168, 8152, 8111,1.1938157081604004
89, 8130, 8145, 8204, 8125, 8180, 8019, 8162, 8149, 8023, 8135, 8083, 8159, 8152, 8114,1.2018156051635742
89, 8130, 8145, 8204, 8125, 8180, 8019, 8162, 8149, 8023, 8135, 8083, 8159, 8152, 8114,1.2018156051635742
90, 8165, 8175, 8225, 8140, 8171, 8035, 8163, 8170, 8179, 8146, 8110, 8206, 8180, 8140,1.209815502166748
90, 8165, 8175, 8225, 8140, 8171, 8035, 8163, 8170, 8179, 8146, 8110, 8206, 8180, 8140,1.209815502166748
91, 8144, 8135, 8202, 8112, 8177, 8040, 8179, 8162, 8123, 8177, 8138, 8168, 8178, 8143,1.2176501750946045
91, 8144, 8135, 8202, 8112, 8177, 8040, 8179, 8162, 8123, 8177, 8138, 8168, 8178, 8143,1.2176501750946045
92, 8127, 8146, 8196, 8109, 8168, 8044, 8168, 8167, 8157, 8165, 8113, 8179, 8163, 8141,1.224672794342041
92, 8127, 8146, 8196, 8109, 8168, 8044, 8168, 8167, 8157, 8165, 8113, 8179, 8163, 8141,1.224672794342041
93, 8120, 8152, 8198, 8113, 8157, 8038, 8154, 8174, 8178, 8150, 8094, 8180, 8159, 8126,1.2326667308807373
93, 8120, 8152, 8198, 8113, 8157, 8038, 8154, 8174, 8178, 8150, 8094, 8180, 8159, 8126,1.2326667308807373
94, 8152, 8143, 8190, 8115, 8177, 8037, 8166, 8165, 8097, 8168, 8115, 8159, 8166, 8142,1.2406494617462158
94, 8152, 8143, 8190, 8115, 8177, 8037, 8166, 8165, 8097, 8168, 8115, 8159, 8166, 8142,1.2406494617462158
95, 8159, 8160, 8187, 8107, 8157, 8026, 8146, 8148, 8164, 8136, 8093, 8191, 8168, 8148,1.2486512660980225
95, 8159, 8160, 8187, 8107, 8157, 8026, 8146, 8148, 8164, 8136, 8093, 8191, 8168, 8148,1.2486512660980225
96, 8103, 8117, 8166, 8075, 8142, 8019, 8137, 8126, 8015, 8120, 8081, 8147, 8147, 8118,1.2568774223327637
96, 8103, 8117, 8166, 8075, 8142, 8019, 8137, 8126, 8015, 8120, 8081, 8147, 8147, 8118,1.2568774223327637
97, 8117, 8140, 8190, 8098, 8140, 8033, 8139, 8150, 8056, 8125, 8090, 8167, 8159, 8124,1.264878511428833
97, 8117, 8140, 8190, 8098, 8140, 8033, 8139, 8150, 8056, 8125, 8090, 8167, 8159, 8124,1.264878511428833
98, 8147, 8167, 8199, 8117, 8146, 8040, 8160, 8180, 8151, 8141, 8085, 8183, 8170, 8125,1.2729644775390625
98, 8147, 8167, 8199, 8117, 8146, 8040, 8160, 8180, 8151, 8141, 8085, 8183, 8170, 8125,1.2729644775390625
99, 8151, 8142, 8179, 8099, 8168, 8056, 8184, 8170, 8057, 8165, 8083, 8147, 8157, 8126,1.2792460918426514
99, 8151, 8142, 8179, 8099, 8168, 8056, 8184, 8170, 8057, 8165, 8083, 8147, 8157, 8126,1.2792460918426514
100, 8139, 8163, 8192, 8104, 8159, 8068, 8170, 8169, 8172, 8142, 8087, 8186, 8163, 8132,1.2877473831176758
100, 8139, 8163, 8192, 8104, 8159, 8068, 8170, 8169, 8172, 8142, 8087, 8186, 8163, 8132,1.2877473831176758
101, 8116, 8146, 8178, 8108, 8160, 8052, 8180, 8175, 8118, 8145, 8102, 8154, 8159, 8119,1.2957465648651123
101, 8116, 8146, 8178, 8108, 8160, 8052, 8180, 8175, 8118, 8145, 8102, 8154, 8159, 8119,1.2957465648651123
102, 8139, 8151, 8170, 8110, 8148, 8046, 8176, 8170, 8098, 8144, 8089, 8151, 8158, 8128,1.303650140762329
102, 8139, 8151, 8170, 8110, 8148, 8046, 8176, 8170, 8098, 8144, 8089, 8151, 8158, 8128,1.303650140762329
103, 8121, 8150, 8166, 8094, 8127, 8054, 8154, 8157, 8125, 8128, 8081, 8163, 8159, 8123,1.3116495609283447
103, 8121, 8150, 8166, 8094, 8127, 8054, 8154, 8157, 8125, 8128, 8081, 8163, 8159, 8123,1.3116495609283447
104, 8101, 8127, 8156, 8093, 8130, 8056, 8166, 8149, 8010, 8134, 8091, 8126, 8151, 8112,1.3196141719818115
104, 8101, 8127, 8156, 8093, 8130, 8056, 8166, 8149, 8010, 8134, 8091, 8126, 8151, 8112,1.3201382160186768
105, 8113, 8149, 8172, 8103, 8107, 8047, 8151, 8151, 8094, 8096, 8056, 8163, 8154, 8110,1.3282489776611328
105, 8113, 8149, 8172, 8103, 8107, 8047, 8151, 8151, 8094, 8096, 8056, 8163, 8154, 8110,1.3282489776611328
106, 8088, 8120, 8158, 8082, 8101, 8044, 8137, 8135, 8011, 8100, 8053, 8141, 8151, 8100,1.3360278606414795
106, 8088, 8120, 8158, 8082, 8101, 8044, 8137, 8135, 8011, 8100, 8053, 8141, 8151, 8100,1.3360278606414795
107, 8106, 8131, 8160, 8090, 8096, 8043, 8136, 8134, 7991, 8125, 8069, 8140, 8158, 8112,1.3430290222167969
107, 8106, 8131, 8160, 8090, 8096, 8043, 8136, 8134, 7991, 8125, 8069, 8140, 8158, 8112,1.3430290222167969
108, 8117, 8146, 8169, 8095, 8082, 8037, 8137, 8142, 8083, 8114, 8063, 8171, 8163, 8110,1.350649118423462
108, 8117, 8146, 8169, 8095, 8082, 8037, 8137, 8142, 8083, 8114, 8063, 8171, 8163, 8110,1.350649118423462
109, 8119, 8125, 8162, 8096, 8102, 8047, 8150, 8143, 8011, 8130, 8078, 8146, 8157, 8109,1.3586490154266357
109, 8119, 8125, 8162, 8096, 8102, 8047, 8150, 8143, 8011, 8130, 8078, 8146, 8157, 8109,1.3592407703399658
110, 8149, 8165, 8189, 8123, 8097, 8048, 8142, 8159, 8136, 8128, 8077, 8180, 8169, 8123,1.3666255474090576
110, 8149, 8165, 8189, 8123, 8097, 8048, 8142, 8159, 8136, 8128, 8077, 8180, 8169, 8123,1.3666255474090576
111, 8120, 8138, 8171, 8106, 8103, 8045, 8148, 8152, 8090, 8131, 8087, 8154, 8171, 8121,1.3748373985290527
111, 8120, 8138, 8171, 8106, 8103, 8045, 8148, 8152, 8090, 8131, 8087, 8154, 8171, 8121,1.3748373985290527
112, 8115, 8126, 8150, 8100, 8109, 8058, 8146, 8144, 8035, 8138, 8090, 8144, 8166, 8128,1.382875919342041
112, 8115, 8126, 8150, 8100, 8109, 8058, 8146, 8144, 8035, 8138, 8090, 8144, 8166, 8128,1.382875919342041
113, 8120, 8148, 8155, 8098, 8088, 8057, 8134, 8146, 8110, 8123, 8081, 8172, 8165, 8120,1.3906497955322266
113, 8120, 8148, 8155, 8098, 8088, 8057, 8134, 8146, 8110, 8123, 8081, 8172, 8165, 8120,1.3906497955322266
114, 8108, 8126, 8151, 8088, 8110, 8058, 8152, 8141, 8011, 8128, 8100, 8138, 8159, 8117,1.3986496925354004
114, 8108, 8126, 8151, 8088, 8110, 8058, 8152, 8141, 8011, 8128, 8100, 8138, 8159, 8117,1.3986496925354004
115, 8127, 8153, 8172, 8110, 8111, 8069, 8143, 8147, 8100, 8115, 8092, 8172, 8164, 8135,1.4066603183746338
115, 8127, 8153, 8172, 8110, 8111, 8069, 8143, 8147, 8100, 8115, 8092, 8172, 8164, 8135,1.4066603183746338
116, 8120, 8142, 8168, 8111, 8101, 8066, 8144, 8148, 8087, 8132, 8093, 8161, 8166, 8129,1.4136595726013184
116, 8120, 8142, 8168, 8111, 8101, 8066, 8144, 8148, 8087, 8132, 8093, 8161, 8166, 8129,1.4136595726013184
117, 8129, 8144, 8165, 8111, 8111, 8070, 8152, 8159, 8081, 8154, 8109, 8151, 8169, 8147,1.4210693836212158
117, 8129, 8144, 8165, 8111, 8111, 8070, 8152, 8159, 8081, 8154, 8109, 8151, 8169, 8147,1.4220554828643799
118, 8126, 8162, 8169, 8112, 8103, 8073, 8131, 8159, 8188, 8133, 8095, 8179, 8164, 8147,1.429062843322754
118, 8126, 8162, 8169, 8112, 8103, 8073, 8131, 8159, 8188, 8133, 8095, 8179, 8164, 8147,1.430056095123291
119, 8118, 8132, 8151, 8103, 8109, 8068, 8139, 8141, 8057, 8144, 8091, 8139, 8149, 8117,1.4380710124969482
119, 8118, 8132, 8151, 8103, 8109, 8068, 8139, 8141, 8057, 8144, 8091, 8139, 8149, 8117,1.4380710124969482
120, 8158, 8167, 8177, 8123, 8111, 8076, 8151, 8152, 8150, 8155, 8096, 8174, 8164, 8130,1.4455876350402832
120, 8158, 8167, 8177, 8123, 8111, 8076, 8151, 8152, 8150, 8155, 8096, 8174, 8164, 8130,1.4455876350402832
121, 8150, 8165, 8182, 8117, 8124, 8079, 8164, 8160, 8189, 8172, 8120, 8170, 8174, 8148,1.4539337158203125
121, 8150, 8165, 8182, 8117, 8124, 8079, 8164, 8160, 8189, 8172, 8120, 8170, 8174, 8148,1.4539337158203125
122, 8141, 8145, 8170, 8108, 8127, 8075, 8161, 8155, 8117, 8167, 8121, 8148, 8167, 8154,1.4619431495666504
122, 8141, 8145, 8170, 8108, 8127, 8075, 8161, 8155, 8117, 8167, 8121, 8148, 8167, 8154,1.4619431495666504
123, 8137, 8154, 8168, 8107, 8104, 8068, 8139, 8159, 8179, 8127, 8078, 8166, 8160, 8128,1.4699397087097168
123, 8137, 8154, 8168, 8107, 8104, 8068, 8139, 8159, 8179, 8127, 8078, 8166, 8160, 8128,1.4699397087097168
124, 8115, 8126, 8141, 8091, 8121, 8070, 8156, 8155, 8063, 8154, 8079, 8120, 8152, 8106,1.4766507148742676
124, 8115, 8126, 8141, 8091, 8121, 8070, 8156, 8155, 8063, 8154, 8079, 8120, 8152, 8106,1.477046012878418
125, 8127, 8150, 8141, 8102, 8121, 8072, 8150, 8158, 8130, 8152, 8089, 8152, 8163, 8128,1.4846515655517578
125, 8127, 8150, 8141, 8102, 8121, 8072, 8150, 8158, 8130, 8152, 8089, 8152, 8163, 8128,1.4846515655517578
126, 8115, 8146, 8134, 8103, 8115, 8060, 8143, 8154, 8137, 8132, 8084, 8153, 8160, 8117,1.4928417205810547
126, 8115, 8146, 8134, 8103, 8115, 8060, 8143, 8154, 8137, 8132, 8084, 8153, 8160, 8117,1.4928417205810547
127, 8129, 8137, 8137, 8114, 8133, 8072, 8162, 8150, 8061, 8158, 8088, 8128, 8157, 8120,1.500511884689331
127, 8129, 8137, 8137, 8114, 8133, 8072, 8162, 8150, 8061, 8158, 8088, 8128, 8157, 8120,1.500511884689331
240, 8145, 8168, 8163, 8136, 8127, 8082, 8157, 8162, 8194, 8150, 8088, 8172, 8175, 8138,1.5085058212280273
240, 8145, 8168, 8163, 8136, 8127, 8082, 8157, 8162, 8194, 8150, 8088, 8172, 8175, 8138,1.5085058212280273
0, 8117, 8139, 8140, 8120, 8138, 8075, 8159, 8158, 8098, 8146, 8101, 8136, 8165, 8123,1.5166504383087158
0, 8117, 8139, 8140, 8120, 8138, 8075, 8159, 8158, 8098, 8146, 8101, 8136, 8165, 8123,1.5166504383087158
1, 8128, 8154, 8141, 8117, 8130, 8078, 8151, 8163, 8122, 8140, 8091, 8144, 8159, 8121,1.5245585441589355
1, 8128, 8154, 8141, 8117, 8130, 8078, 8151, 8163, 8122, 8140, 8091, 8144, 8159, 8121,1.5245585441589355
2, 8133, 8162, 8150, 8123, 8124, 8084, 8161, 8176, 8176, 8157, 8094, 8148, 8164, 8128,1.5326504707336426
2, 8133, 8162, 8150, 8123, 8124, 8084, 8161, 8176, 8176, 8157, 8094, 8148, 8164, 8128,1.5326504707336426
3, 8140, 8145, 8148, 8125, 8146, 8090, 8186, 8178, 8115, 8181, 8116, 8131, 8164, 8145,1.5402555465698242
3, 8140, 8145, 8148, 8125, 8146, 8090, 8186, 8178, 8115, 8181, 8116, 8131, 8164, 8145,1.5402555465698242
4, 8139, 8164, 8158, 8120, 8131, 8084, 8166, 8179, 8228, 8155, 8106, 8175, 8169, 8147,1.5472631454467773
4, 8139, 8164, 8158, 8120, 8131, 8084, 8166, 8179, 8228, 8155, 8106, 8175, 8169, 8147,1.5472631454467773
5, 8120, 8135, 8140, 8104, 8132, 8077, 8162, 8171, 8151, 8171, 8113, 8141, 8163, 8137,1.5552716255187988
5, 8120, 8135, 8140, 8104, 8132, 8077, 8162, 8171, 8151, 8171, 8113, 8141, 8163, 8137,1.5552716255187988
6, 8144, 8150, 8152, 8127, 8127, 8079, 8153, 8167, 8160, 8168, 8113, 8148, 8161, 8148,1.5633010864257812
6, 8144, 8150, 8152, 8127, 8127, 8079, 8153, 8167, 8160, 8168, 8113, 8148, 8161, 8148,1.5633010864257812
7, 8131, 8155, 8153, 8124, 8116, 8074, 8138, 8159, 8177, 8141, 8108, 8162, 8163, 8137,1.571760654449463
7, 8131, 8155, 8153, 8124, 8116, 8074, 8138, 8159, 8177, 8141, 8108, 8162, 8163, 8137,1.571760654449463
8, 8125, 8137, 8144, 8111, 8131, 8084, 8145, 8156, 8086, 8155, 8129, 8143, 8169, 8144,1.579613208770752
8, 8125, 8137, 8144, 8111, 8131, 8084, 8145, 8156, 8086, 8155, 8129, 8143, 8169, 8144,1.579613208770752
9, 8154, 8172, 8177, 8135, 8119, 8094, 8140, 8175, 8234, 8157, 8134, 8183, 8185, 8161,1.5873024463653564
9, 8154, 8172, 8177, 8135, 8119, 8094, 8140, 8175, 8234, 8157, 8134, 8183, 8185, 8161,1.5873024463653564
10, 8146, 8152, 8180, 8139, 8124, 8084, 8154, 8168, 8173, 8170, 8133, 8140, 8167, 8139,1.5957486629486084
10, 8146, 8152, 8180, 8139, 8124, 8084, 8154, 8168, 8173, 8170, 8133, 8140, 8167, 8139,1.5957486629486084
11, 8149, 8155, 8178, 8137, 8131, 8075, 8139, 8144, 8132, 8145, 8111, 8136, 8150, 8131,1.603750467300415
11, 8149, 8155, 8178, 8137, 8131, 8075, 8139, 8144, 8132, 8145, 8111, 8136, 8150, 8131,1.603750467300415
12, 8122, 8157, 8176, 8124, 8122, 8073, 8104, 8135, 8155, 8112, 8099, 8161, 8156, 8111,1.6106491088867188
12, 8122, 8157, 8176, 8124, 8122, 8073, 8104, 8135, 8155, 8112, 8099, 8161, 8156, 8111,1.6106491088867188
13, 8119, 8136, 8166, 8127, 8135, 8085, 8122, 8139, 8055, 8133, 8106, 8132, 8158, 8103,1.6188318729400635
13, 8119, 8136, 8166, 8127, 8135, 8085, 8122, 8139, 8055, 8133, 8106, 8132, 8158, 8103,1.6188318729400635
14, 8152, 8167, 8189, 8151, 8126, 8095, 8123, 8142, 8167, 8114, 8088, 8166, 8162, 8117,1.6268339157104492
14, 8152, 8167, 8189, 8151, 8126, 8095, 8123, 8142, 8167, 8114, 8088, 8166, 8162, 8117,1.6268339157104492
15, 8135, 8147, 8191, 8144, 8134, 8090, 8122, 8131, 8122, 8127, 8112, 8146, 8162, 8112,1.6346499919891357
15, 8135, 8147, 8191, 8144, 8134, 8090, 8122, 8131, 8122, 8127, 8112, 8146, 8162, 8112,1.6346499919891357
16, 8154, 8157, 8203, 8158, 8143, 8085, 8122, 8139, 8128, 8150, 8127, 8150, 8173, 8126,1.6426501274108887
16, 8154, 8157, 8203, 8158, 8143, 8085, 8122, 8139, 8128, 8150, 8127, 8150, 8173, 8126,1.6426501274108887
17, 8149, 8174, 8199, 8162, 8129, 8067, 8112, 8140, 8197, 8118, 8103, 8167, 8173, 8119,1.6506953239440918
17, 8149, 8174, 8199, 8162, 8129, 8067, 8112, 8140, 8197, 8118, 8103, 8167, 8173, 8119,1.6506953239440918
18, 8142, 8152, 8184, 8154, 8142, 8065, 8128, 8132, 8080, 8125, 8123, 8133, 8164, 8121,1.658158302307129
18, 8142, 8152, 8184, 8154, 8142, 8065, 8128, 8132, 8080, 8125, 8123, 8133, 8164, 8121,1.6591520309448242
19, 8180, 8182, 8219, 8175, 8141, 8093, 8125, 8146, 8197, 8133, 8132, 8176, 8174, 8154,1.6661584377288818
19, 8180, 8182, 8219, 8175, 8141, 8093, 8125, 8146, 8197, 8133, 8132, 8176, 8174, 8154,1.66715407371521
20, 8158, 8156, 8219, 8172, 8146, 8101, 8116, 8135, 8157, 8134, 8130, 8155, 8168, 8138,1.6736505031585693
20, 8158, 8156, 8219, 8172, 8146, 8101, 8116, 8135, 8157, 8134, 8130, 8155, 8168, 8138,1.6736505031585693
21, 8165, 8157, 8216, 8178, 8147, 8088, 8105, 8123, 8104, 8126, 8128, 8149, 8161, 8126,1.681030511856079
21, 8165, 8157, 8216, 8178, 8147, 8088, 8105, 8123, 8104, 8126, 8128, 8149, 8161, 8126,1.6820321083068848
22, 8181, 8185, 8228, 8176, 8123, 8084, 8103, 8134, 8191, 8112, 8124, 8185, 8168, 8135,1.6895229816436768
22, 8181, 8185, 8228, 8176, 8123, 8084, 8103, 8134, 8191, 8112, 8124, 8185, 8168, 8135,1.6895229816436768
23, 8164, 8157, 8219, 8161, 8129, 8104, 8127, 8133, 8083, 8130, 8139, 8148, 8166, 8142,1.6975126266479492
23, 8164, 8157, 8219, 8161, 8129, 8104, 8127, 8133, 8083, 8130, 8139, 8148, 8166, 8142,1.6975126266479492
24, 8172, 8176, 8235, 8176, 8127, 8112, 8112, 8133, 8155, 8115, 8134, 8173, 8170, 8149,1.7056515216827393
24, 8172, 8176, 8235, 8176, 8127, 8112, 8112, 8133, 8155, 8115, 8134, 8173, 8170, 8149,1.7060298919677734
25, 8168, 8168, 8235, 8175, 8146, 8097, 8109, 8130, 8147, 8124, 8144, 8168, 8167, 8149,1.7141685485839844
25, 8168, 8168, 8235, 8175, 8146, 8097, 8109, 8130, 8147, 8124, 8144, 8168, 8167, 8149,1.7141685485839844
26, 8189, 8174, 8239, 8181, 8168, 8106, 8117, 8135, 8122, 8144, 8151, 8164, 8169, 8179,1.721649169921875
26, 8189, 8174, 8239, 8181, 8168, 8106, 8117, 8135, 8122, 8144, 8151, 8164, 8169, 8179,1.721649169921875
27, 8188, 8187, 8241, 8179, 8152, 8120, 8104, 8137, 8215, 8124, 8143, 8185, 8178, 8176,1.7296128273010254
27, 8188, 8187, 8241, 8179, 8152, 8120, 8104, 8137, 8215, 8124, 8143, 8185, 8178, 8176,1.7296128273010254
28, 8158, 8148, 8209, 8160, 8154, 8116, 8111, 8127, 8094, 8137, 8155, 8140, 8166, 8148,1.7376899719238281
28, 8158, 8148, 8209, 8160, 8154, 8116, 8111, 8127, 8094, 8137, 8155, 8140, 8166, 8148,1.7376899719238281
29, 8174, 8178, 8219, 8177, 8149, 8115, 8103, 8134, 8161, 8137, 8140, 8167, 8165, 8156,1.7446932792663574
29, 8174, 8178, 8219, 8177, 8149, 8115, 8103, 8134, 8161, 8137, 8140, 8167, 8165, 8156,1.7446932792663574
30, 8168, 8170, 8221, 8176, 8164, 8121, 8110, 8130, 8158, 8138, 8139, 8158, 8162, 8146,1.7526957988739014
30, 8168, 8170, 8221, 8176, 8164, 8121, 8110, 8130, 8158, 8138, 8139, 8158, 8162, 8146,1.7526957988739014
31, 8176, 8157, 8211, 8173, 8186, 8132, 8125, 8128, 8095, 8146, 8154, 8138, 8157, 8143,1.7606492042541504
31, 8176, 8157, 8211, 8173, 8186, 8132, 8125, 8128, 8095, 8146, 8154, 8138, 8157, 8143,1.7606492042541504
32, 8181, 8186, 8211, 8175, 8170, 8129, 8111, 8140, 8213, 8141, 8144, 8167, 8166, 8141,1.7686512470245361
32, 8181, 8186, 8211, 8175, 8170, 8129, 8111, 8140, 8213, 8141, 8144, 8167, 8166, 8141,1.7686512470245361
33, 8161, 8154, 8190, 8158, 8179, 8126, 8118, 8133, 8125, 8169, 8155, 8122, 8168, 8139,1.77665376663208
33, 8161, 8154, 8190, 8158, 8179, 8126, 8118, 8133, 8125, 8169, 8155, 8122, 8168, 8139,1.77665376663208
34, 8169, 8160, 8197, 8158, 8167, 8122, 8108, 8133, 8162, 8150, 8145, 8149, 8174, 8152,1.7848191261291504
34, 8169, 8160, 8197, 8158, 8167, 8122, 8108, 8133, 8162, 8150, 8145, 8149, 8174, 8152,1.7848191261291504
35, 8146, 8154, 8183, 8145, 8150, 8105, 8095, 8131, 8140, 8128, 8128, 8150, 8163, 8130,1.7928235530853271
35, 8146, 8154, 8183, 8145, 8150, 8105, 8095, 8131, 8140, 8128, 8128, 8150, 8163, 8130,1.7928235530853271
36, 8154, 8148, 8174, 8143, 8172, 8109, 8102, 8128, 8057, 8150, 8138, 8120, 8158, 8124,1.8006436824798584
36, 8154, 8148, 8174, 8143, 8172, 8109, 8102, 8128, 8057, 8150, 8138, 8120, 8158, 8124,1.8006436824798584
37, 8180, 8171, 8203, 8154, 8177, 8120, 8101, 8145, 8194, 8155, 8154, 8165, 8177, 8146,1.807649850845337
37, 8180, 8171, 8203, 8154, 8177, 8120, 8101, 8145, 8194, 8155, 8154, 8165, 8177, 8146,1.807649850845337
38, 8162, 8141, 8189, 8148, 8194, 8131, 8130, 8154, 8129, 8184, 8183, 8143, 8177, 8152,1.8156495094299316
38, 8162, 8141, 8189, 8148, 8194, 8131, 8130, 8154, 8129, 8184, 8183, 8143, 8177, 8152,1.8156495094299316
39, 8166, 8159, 8177, 8159, 8193, 8147, 8139, 8159, 8181, 8183, 8172, 8151, 8174, 8148,1.823645830154419
39, 8166, 8159, 8177, 8159, 8193, 8147, 8139, 8159, 8181, 8183, 8172, 8151, 8174, 8148,1.823645830154419
40, 8147, 8152, 8159, 8140, 8181, 8148, 8139, 8160, 8219, 8182, 8147, 8147, 8167, 8119,1.8316590785980225
40, 8147, 8152, 8159, 8140, 8181, 8148, 8139, 8160, 8219, 8182, 8147, 8147, 8167, 8119,1.8316590785980225
41, 8140, 8132, 8144, 8124, 8193, 8151, 8154, 8161, 8132, 8210, 8149, 8123, 8158, 8112,1.839658498764038
41, 8140, 8132, 8144, 8124, 8193, 8151, 8154, 8161, 8132, 8210, 8149, 8123, 8158, 8112,1.839658498764038
42, 8144, 8156, 8154, 8132, 8181, 8142, 8128, 8155, 8218, 8180, 8133, 8159, 8163, 8110,1.847649335861206
42, 8144, 8156, 8154, 8132, 8181, 8142, 8128, 8155, 8218, 8180, 8133, 8159, 8163, 8110,1.847649335861206
43, 8121, 8122, 8134, 8121, 8183, 8126, 8115, 8127, 8100, 8169, 8138, 8122, 8160, 8100,1.8556454181671143
43, 8121, 8122, 8134, 8121, 8183, 8126, 8115, 8127, 8100, 8169, 8138, 8122, 8160, 8100,1.8556454181671143
44, 8134, 8133, 8135, 8124, 8179, 8129, 8111, 8126, 8100, 8162, 8129, 8141, 8170, 8117,1.863982915878296
44, 8134, 8133, 8135, 8124, 8179, 8129, 8111, 8126, 8100, 8162, 8129, 8141, 8170, 8117,1.863982915878296
45, 8122, 8144, 8127, 8111, 8170, 8133, 8115, 8139, 8153, 8153, 8114, 8152, 8172, 8103,1.8704991340637207
45, 8122, 8144, 8127, 8111, 8170, 8133, 8115, 8139, 8153, 8153, 8114, 8152, 8172, 8103,1.8714978694915771
46, 8117, 8129, 8112, 8105, 8183, 8139, 8140, 8152, 8086, 8183, 8137, 8116, 8164, 8097,1.8790619373321533
46, 8117, 8129, 8112, 8105, 8183, 8139, 8140, 8152, 8086, 8183, 8137, 8116, 8164, 8097,1.8790619373321533
47, 8131, 8152, 8136, 8121, 8173, 8133, 8127, 8165, 8223, 8184, 8146, 8161, 8176, 8119,1.8870635032653809
47, 8131, 8152, 8136, 8121, 8173, 8133, 8127, 8165, 8223, 8184, 8146, 8161, 8176, 8119,1.8870635032653809
48, 8108, 8121, 8122, 8110, 8179, 8115, 8119, 8148, 8154, 8194, 8146, 8134, 8173, 8115,1.8946490287780762
48, 8108, 8121, 8122, 8110, 8179, 8115, 8119, 8148, 8154, 8194, 8146, 8134, 8173, 8115,1.8946490287780762
49, 8123, 8136, 8125, 8121, 8180, 8122, 8112, 8136, 8130, 8180, 8137, 8133, 8163, 8117,1.9026498794555664
49, 8123, 8136, 8125, 8121, 8180, 8122, 8112, 8136, 8130, 8180, 8137, 8133, 8163, 8117,1.9026498794555664
50, 8127, 8162, 8145, 8131, 8175, 8133, 8116, 8143, 8180, 8157, 8148, 8155, 8159, 8109,1.9106402397155762
50, 8127, 8162, 8145, 8131, 8175, 8133, 8116, 8143, 8180, 8157, 8148, 8155, 8159, 8109,1.9106402397155762
51, 8123, 8140, 8130, 8122, 8195, 8135, 8143, 8148, 8084, 8173, 8172, 8125, 8155, 8100,1.9186499118804932
51, 8123, 8140, 8130, 8122, 8195, 8135, 8143, 8148, 8084, 8173, 8172, 8125, 8155, 8100,1.9186499118804932
52, 8132, 8159, 8123, 8123, 8182, 8133, 8129, 8151, 8187, 8162, 8141, 8155, 8164, 8097,1.926673412322998
52, 8132, 8159, 8123, 8123, 8182, 8133, 8129, 8151, 8187, 8162, 8141, 8155, 8164, 8097,1.926673412322998
53, 8119, 8142, 8112, 8118, 8189, 8135, 8137, 8147, 8138, 8184, 8128, 8130, 8162, 8087,1.934668779373169
53, 8119, 8142, 8112, 8118, 8189, 8135, 8137, 8147, 8138, 8184, 8128, 8130, 8162, 8087,1.934668779373169
54, 8153, 8156, 8141, 8138, 8208, 8137, 8148, 8159, 8146, 8200, 8135, 8139, 8169, 8121,1.9416494369506836
54, 8153, 8156, 8141, 8138, 8208, 8137, 8148, 8159, 8146, 8200, 8135, 8139, 8169, 8121,1.9416494369506836
55, 8161, 8177, 8171, 8147, 8206, 8137, 8137, 8172, 8256, 8191, 8138, 8166, 8180, 8141,1.9496128559112549
55, 8161, 8177, 8171, 8147, 8206, 8137, 8137, 8172, 8256, 8191, 8138, 8166, 8180, 8141,1.9496128559112549
56, 8146, 8146, 8150, 8138, 8222, 8143, 8158, 8169, 8172, 8219, 8152, 8123, 8168, 8129,1.9576497077941895
56, 8146, 8146, 8150, 8138, 8222, 8143, 8158, 8169, 8172, 8219, 8152, 8123, 8168, 8129,1.9576497077941895
57, 8146, 8156, 8140, 8134, 8206, 8144, 8158, 8176, 8261, 8203, 8134, 8151, 8163, 8119,1.9656498432159424
57, 8146, 8156, 8140, 8134, 8206, 8144, 8158, 8176, 8261, 8203, 8134, 8151, 8163, 8119,1.9663758277893066
58, 8108, 8132, 8122, 8110, 8193, 8141, 8158, 8173, 8212, 8192, 8126, 8131, 8160, 8102,1.973644495010376
58, 8108, 8132, 8122, 8110, 8193, 8141, 8158, 8173, 8212, 8192, 8126, 8131, 8160, 8102,1.973644495010376
59, 8119, 8138, 8129, 8121, 8193, 8152, 8158, 8172, 8182, 8203, 8124, 8124, 8158, 8105,1.9816527366638184
59, 8119, 8138, 8129, 8121, 8193, 8152, 8158, 8172, 8182, 8203, 8124, 8124, 8158, 8105,1.9816527366638184
60, 8129, 8154, 8138, 8130, 8182, 8148, 8147, 8171, 8257, 8181, 8110, 8147, 8156, 8097,1.9896574020385742
60, 8129, 8154, 8138, 8130, 8182, 8148, 8147, 8171, 8257, 8181, 8110, 8147, 8156, 8097,1.9896574020385742
61, 8116, 8124, 8121, 8112, 8190, 8128, 8161, 8163, 8124, 8170, 8128, 8112, 8154, 8097,1.9976513385772705
61, 8116, 8124, 8121, 8112, 8190, 8128, 8161, 8163, 8124, 8170, 8128, 8112, 8154, 8097,1.9976513385772705
62, 8147, 8162, 8146, 8130, 8179, 8120, 8154, 8174, 8208, 8162, 8138, 8154, 8169, 8121,2.0046498775482178
62, 8147, 8162, 8146, 8130, 8179, 8120, 8154, 8174, 8208, 8162, 8138, 8154, 8169, 8121,2.0046498775482178
63, 8144, 8156, 8146, 8130, 8179, 8119, 8148, 8164, 8203, 8183, 8148, 8146, 8171, 8118,2.012650489807129
63, 8144, 8156, 8146, 8130, 8179, 8119, 8148, 8164, 8203, 8183, 8148, 8146, 8171, 8118,2.012650489807129
64, 8146, 8150, 8141, 8127, 8183, 8122, 8149, 8158, 8166, 8192, 8151, 8136, 8169, 8137,2.0204927921295166
64, 8146, 8150, 8141, 8127, 8183, 8122, 8149, 8158, 8166, 8192, 8151, 8136, 8169, 8137,2.0204927921295166
65, 8147, 8167, 8159, 8131, 8169, 8119, 8146, 8183, 8293, 8187, 8143, 8175, 8176, 8154,2.0284838676452637
65, 8147, 8167, 8159, 8131, 8169, 8119, 8146, 8183, 8293, 8187, 8143, 8175, 8176, 8154,2.0284838676452637
66, 8129, 8125, 8135, 8115, 8176, 8114, 8155, 8179, 8189, 8208, 8147, 8129, 8167, 8139,2.036484956741333
66, 8129, 8125, 8135, 8115, 8176, 8114, 8155, 8179, 8189, 8208, 8147, 8129, 8167, 8139,2.036484956741333
67, 8130, 8141, 8125, 8114, 8152, 8117, 8130, 8159, 8199, 8162, 8117, 8137, 8167, 8124,2.0444839000701904
67, 8130, 8141, 8125, 8114, 8152, 8117, 8130, 8159, 8199, 8162, 8117, 8137, 8167, 8124,2.0444839000701904
68, 8111, 8146, 8131, 8115, 8154, 8123, 8131, 8155, 8171, 8151, 8126, 8135, 8165, 8108,2.0524823665618896
68, 8111, 8146, 8131, 8115, 8154, 8123, 8131, 8155, 8171, 8151, 8126, 8135, 8165, 8108,2.0524823665618896
69, 8141, 8154, 8168, 8144, 8183, 8145, 8155, 8171, 8145, 8194, 8165, 8149, 8165, 8131,2.060805559158325
69, 8141, 8154, 8168, 8144, 8183, 8145, 8155, 8171, 8145, 8194, 8165, 8149, 8165, 8131,2.060971736907959
70, 8173, 8186, 8201, 8169, 8160, 8138, 8141, 8173, 8268, 8171, 8162, 8195, 8171, 8147,2.0681300163269043
70, 8173, 8186, 8201, 8169, 8160, 8138, 8141, 8173, 8268, 8171, 8162, 8195, 8171, 8147,2.0681300163269043
71, 8157, 8166, 8187, 8169, 8163, 8119, 8144, 8161, 8159, 8166, 8186, 8154, 8171, 8144,2.075657844543457
71, 8157, 8166, 8187, 8169, 8163, 8119, 8144, 8161, 8159, 8166, 8186, 8154, 8171, 8144,2.075657844543457
72, 8186, 8198, 8224, 8196, 8172, 8131, 8146, 8175, 8238, 8178, 8209, 8191, 8186, 8169,2.083648920059204
72, 8186, 8198, 8224, 8196, 8172, 8131, 8146, 8175, 8238, 8178, 8209, 8191, 8186, 8169,2.083648920059204
73, 8197, 8195, 8246, 8196, 8178, 8144, 8158, 8179, 8290, 8196, 8214, 8203, 8188, 8178,2.091630697250366
73, 8197, 8195, 8246, 8196, 8178, 8144, 8158, 8179, 8290, 8196, 8214, 8203, 8188, 8178,2.091630697250366
74, 8197, 8173, 8236, 8199, 8200, 8141, 8160, 8165, 8212, 8206, 8221, 8173, 8175, 8191,2.0996360778808594
74, 8197, 8173, 8236, 8199, 8200, 8141, 8160, 8165, 8212, 8206, 8221, 8173, 8175, 8191,2.0996360778808594
75, 8189, 8198, 8244, 8218, 8179, 8120, 8119, 8154, 8294, 8178, 8214, 8197, 8171, 8182,2.107649803161621
75, 8189, 8198, 8244, 8218, 8179, 8120, 8119, 8154, 8294, 8178, 8214, 8197, 8171, 8182,2.107649803161621
76, 8183, 8174, 8238, 8203, 8168, 8112, 8116, 8140, 8183, 8185, 8225, 8157, 8164, 8158,2.115649938583374
76, 8183, 8174, 8238, 8203, 8168, 8112, 8116, 8140, 8183, 8185, 8225, 8157, 8164, 8158,2.115649938583374
77, 8214, 8189, 8248, 8198, 8166, 8121, 8112, 8141, 8197, 8167, 8220, 8176, 8170, 8176,2.123649835586548
77, 8214, 8189, 8248, 8198, 8166, 8121, 8112, 8141, 8197, 8167, 8220, 8176, 8170, 8176,2.123649835586548
78, 8195, 8193, 8242, 8196, 8162, 8111, 8102, 8137, 8197, 8133, 8207, 8184, 8168, 8173,2.131669759750366
78, 8195, 8193, 8242, 8196, 8162, 8111, 8102, 8137, 8197, 8133, 8207, 8184, 8168, 8173,2.131669759750366
79, 8210, 8190, 8249, 8213, 8171, 8114, 8119, 8142, 8119, 8150, 8210, 8162, 8169, 8173,2.1386706829071045
79, 8210, 8190, 8249, 8213, 8171, 8114, 8119, 8142, 8119, 8150, 8210, 8162, 8169, 8173,2.1386706829071045
80, 8246, 8218, 8274, 8226, 8161, 8127, 8114, 8158, 8262, 8148, 8203, 8200, 8182, 8184,2.146650552749634
80, 8246, 8218, 8274, 8226, 8161, 8127, 8114, 8158, 8262, 8148, 8203, 8200, 8182, 8184,2.146650552749634
81, 8213, 8178, 8247, 8199, 8168, 8116, 8110, 8139, 8172, 8157, 8220, 8168, 8167, 8172,2.154649496078491
81, 8213, 8178, 8247, 8199, 8168, 8116, 8110, 8139, 8172, 8157, 8220, 8168, 8167, 8172,2.154649496078491
82, 8217, 8190, 8244, 8208, 8160, 8101, 8092, 8139, 8177, 8162, 8222, 8177, 8166, 8181,2.1627185344696045
82, 8217, 8190, 8244, 8208, 8160, 8101, 8092, 8139, 8177, 8162, 8222, 8177, 8166, 8181,2.1627185344696045
83, 8222, 8204, 8256, 8215, 8152, 8103, 8088, 8149, 8245, 8164, 8220, 8185, 8173, 8181,2.1708977222442627
83, 8222, 8204, 8256, 8215, 8152, 8103, 8088, 8149, 8245, 8164, 8220, 8185, 8173, 8181,2.1708977222442627
84, 8225, 8182, 8249, 8209, 8177, 8120, 8115, 8137, 8158, 8178, 8229, 8152, 8164, 8179,2.1781368255615234
84, 8225, 8182, 8249, 8209, 8177, 8120, 8115, 8137, 8158, 8178, 8229, 8152, 8164, 8179,2.1791274547576904
85, 8224, 8204, 8246, 8216, 8164, 8120, 8103, 8138, 8245, 8154, 8207, 8185, 8169, 8178,2.1861329078674316
85, 8224, 8204, 8246, 8216, 8164, 8120, 8103, 8138, 8245, 8154, 8207, 8185, 8169, 8178,2.187126398086548
86, 8181, 8169, 8211, 8197, 8160, 8106, 8093, 8132, 8153, 8159, 8206, 8146, 8165, 8158,2.1946489810943604
86, 8181, 8169, 8211, 8197, 8160, 8106, 8093, 8132, 8153, 8159, 8206, 8146, 8165, 8158,2.195138454437256
87, 8191, 8170, 8211, 8198, 8161, 8111, 8092, 8130, 8143, 8156, 8197, 8147, 8162, 8163,2.201677083969116
87, 8191, 8170, 8211, 8198, 8161, 8111, 8092, 8130, 8143, 8156, 8197, 8147, 8162, 8163,2.201677083969116
88, 8194, 8185, 8220, 8200, 8154, 8116, 8090, 8135, 8210, 8144, 8179, 8174, 8165, 8157,2.209719181060791
88, 8194, 8185, 8220, 8200, 8154, 8116, 8090, 8135, 8210, 8144, 8179, 8174, 8165, 8157,2.209719181060791
89, 8187, 8164, 8209, 8196, 8170, 8112, 8098, 8127, 8102, 8163, 8187, 8144, 8160, 8151,2.2171640396118164
89, 8187, 8164, 8209, 8196, 8170, 8112, 8098, 8127, 8102, 8163, 8187, 8144, 8160, 8151,2.218163251876831
90, 8205, 8192, 8224, 8213, 8151, 8107, 8083, 8129, 8195, 8144, 8181, 8175, 8163, 8153,2.2251620292663574
90, 8205, 8192, 8224, 8213, 8151, 8107, 8083, 8129, 8195, 8144, 8181, 8175, 8163, 8153,2.2251620292663574
91, 8195, 8174, 8212, 8207, 8151, 8109, 8099, 8138, 8172, 8171, 8199, 8149, 8164, 8146,2.233161449432373
91, 8195, 8174, 8212, 8207, 8151, 8109, 8099, 8138, 8172, 8171, 8199, 8149, 8164, 8146,2.233161449432373
92, 8204, 8177, 8218, 8207, 8168, 8124, 8115, 8152, 8201, 8205, 8227, 8161, 8177, 8174,2.241161823272705
92, 8204, 8177, 8218, 8207, 8168, 8124, 8115, 8152, 8201, 8205, 8227, 8161, 8177, 8174,2.241161823272705
93, 8186, 8182, 8231, 8205, 8160, 8126, 8109, 8156, 8291, 8186, 8224, 8191, 8179, 8176,2.249161720275879
93, 8186, 8182, 8231, 8205, 8160, 8126, 8109, 8156, 8291, 8186, 8224, 8191, 8179, 8176,2.249161720275879
94, 8174, 8150, 8206, 8200, 8170, 8123, 8120, 8153, 8174, 8200, 8221, 8143, 8164, 8158,2.257164239883423
94, 8174, 8150, 8206, 8200, 8170, 8123, 8120, 8153, 8174, 8200, 8221, 8143, 8164, 8158,2.257164239883423
95, 8200, 8186, 8210, 8216, 8176, 8127, 8106, 8154, 8274, 8195, 8214, 8176, 8173, 8168,2.2641654014587402
95, 8200, 8186, 8210, 8216, 8176, 8127, 8106, 8154, 8274, 8195, 8214, 8176, 8173, 8168,2.2651660442352295
96, 8177, 8176, 8190, 8200, 8191, 8130, 8112, 8141, 8243, 8190, 8226, 8162, 8172, 8159,2.272671937942505
96, 8177, 8176, 8190, 8200, 8191, 8130, 8112, 8141, 8243, 8190, 8226, 8162, 8172, 8159,2.272671937942505
97, 8174, 8164, 8173, 8188, 8192, 8138, 8121, 8143, 8186, 8184, 8219, 8139, 8166, 8147,2.2806713581085205
97, 8174, 8164, 8173, 8188, 8192, 8138, 8121, 8143, 8186, 8184, 8219, 8139, 8166, 8147,2.2806713581085205
98, 8177, 8167, 8180, 8183, 8181, 8135, 8113, 8150, 8258, 8161, 8192, 8156, 8168, 8135,2.2886757850646973
98, 8177, 8167, 8180, 8183, 8181, 8135, 8113, 8150, 8258, 8161, 8192, 8156, 8168, 8135,2.2886757850646973
99, 8156, 8143, 8173, 8175, 8197, 8130, 8122, 8139, 8142, 8178, 8199, 8127, 8160, 8131,2.2965774536132812
99, 8156, 8143, 8173, 8175, 8197, 8130, 8122, 8139, 8142, 8178, 8199, 8127, 8160, 8131,2.2965774536132812
100, 8156, 8173, 8176, 8188, 8168, 8127, 8100, 8142, 8207, 8169, 8179, 8158, 8160, 8130,2.3046507835388184
100, 8156, 8173, 8176, 8188, 8168, 8127, 8100, 8142, 8207, 8169, 8179, 8158, 8160, 8130,2.3046507835388184
101, 8156, 8157, 8157, 8176, 8157, 8120, 8106, 8146, 8184, 8173, 8168, 8143, 8162, 8120,2.3126490116119385
101, 8156, 8157, 8157, 8176, 8157, 8120, 8106, 8146, 8184, 8173, 8168, 8143, 8162, 8120,2.3126490116119385
102, 8186, 8153, 8152, 8173, 8176, 8125, 8133, 8155, 8152, 8195, 8181, 8137, 8176, 8153,2.3206980228424072
102, 8186, 8153, 8152, 8173, 8176, 8125, 8133, 8155, 8152, 8195, 8181, 8137, 8176, 8153,2.3206980228424072
103, 8172, 8174, 8163, 8174, 8168, 8123, 8121, 8166, 8266, 8193, 8181, 8169, 8184, 8167,2.3271989822387695
103, 8172, 8174, 8163, 8174, 8168, 8123, 8121, 8166, 8266, 8193, 8181, 8169, 8184, 8167,2.3271989822387695
104, 8133, 8145, 8151, 8165, 8188, 8127, 8127, 8162, 8171, 8216, 8195, 8128, 8170, 8147,2.335218667984009
104, 8133, 8145, 8151, 8165, 8188, 8127, 8127, 8162, 8171, 8216, 8195, 8128, 8170, 8147,2.335218667984009
105, 8161, 8163, 8163, 8179, 8186, 8141, 8128, 8172, 8240, 8200, 8177, 8154, 8175, 8152,2.343651056289673
105, 8161, 8163, 8163, 8179, 8186, 8141, 8128, 8172, 8240, 8200, 8177, 8154, 8175, 8152,2.343651056289673
106, 8163, 8147, 8152, 8158, 8170, 8137, 8131, 8167, 8213, 8188, 8164, 8149, 8173, 8143,2.351649522781372
106, 8163, 8147, 8152, 8158, 8170, 8137, 8131, 8167, 8213, 8188, 8164, 8149, 8173, 8143,2.351649522781372
107, 8150, 8134, 8144, 8143, 8177, 8136, 8133, 8153, 8122, 8194, 8173, 8125, 8154, 8132,2.359687328338623
107, 8150, 8134, 8144, 8143, 8177, 8136, 8133, 8153, 8122, 8194, 8173, 8125, 8154, 8132,2.359687328338623
108, 8128, 8164, 8153, 8154, 8170, 8135, 8103, 8151, 8215, 8171, 8157, 8149, 8149, 8108,2.367687702178955
108, 8128, 8164, 8153, 8154, 8170, 8135, 8103, 8151, 8215, 8171, 8157, 8149, 8149, 8108,2.367687702178955
109, 8117, 8138, 8130, 8148, 8184, 8132, 8100, 8133, 8092, 8176, 8145, 8108, 8150, 8093,2.37565016746521
109, 8117, 8138, 8130, 8148, 8184, 8132, 8100, 8133, 8092, 8176, 8145, 8108, 8150, 8093,2.37565016746521
110, 8159, 8164, 8152, 8158, 8178, 8137, 8099, 8130, 8132, 8165, 8139, 8148, 8161, 8115,2.383697032928467
110, 8159, 8164, 8152, 8158, 8178, 8137, 8099, 8130, 8132, 8165, 8139, 8148, 8161, 8115,2.383697032928467
111, 8156, 8168, 8167, 8157, 8171, 8136, 8103, 8146, 8180, 8175, 8158, 8165, 8163, 8112,2.391650915145874
111, 8156, 8168, 8167, 8157, 8171, 8136, 8103, 8146, 8180, 8175, 8158, 8165, 8163, 8112,2.391650915145874
112, 8147, 8139, 8140, 8145, 8186, 8141, 8121, 8156, 8120, 8195, 8166, 8133, 8160, 8113,2.3986496925354004
112, 8147, 8139, 8140, 8145, 8186, 8141, 8121, 8156, 8120, 8195, 8166, 8133, 8160, 8113,2.3986496925354004
113, 8144, 8148, 8123, 8135, 8165, 8146, 8114, 8154, 8195, 8160, 8126, 8148, 8167, 8116,2.4061410427093506
113, 8144, 8148, 8123, 8135, 8165, 8146, 8114, 8154, 8195, 8160, 8126, 8148, 8167, 8116,2.4061410427093506
114, 8115, 8124, 8098, 8118, 8167, 8151, 8127, 8146, 8087, 8166, 8118, 8106, 8157, 8105,2.414640426635742
114, 8115, 8124, 8098, 8118, 8167, 8151, 8127, 8146, 8087, 8166, 8118, 8106, 8157, 8105,2.414640426635742
115, 8124, 8148, 8107, 8124, 8171, 8163, 8125, 8159, 8144, 8173, 8117, 8132, 8158, 8112,2.422640323638916
115, 8124, 8148, 8107, 8124, 8171, 8163, 8125, 8159, 8144, 8173, 8117, 8132, 8158, 8112,2.422640323638916
116, 8116, 8146, 8106, 8115, 8168, 8166, 8122, 8162, 8176, 8160, 8109, 8134, 8159, 8098,2.4306492805480957
116, 8116, 8146, 8106, 8115, 8168, 8166, 8122, 8162, 8176, 8160, 8109, 8134, 8159, 8098,2.4306492805480957
117, 8118, 8130, 8101, 8112, 8181, 8170, 8136, 8157, 8067, 8166, 8112, 8097, 8154, 8094,2.4386584758758545
117, 8118, 8130, 8101, 8112, 8181, 8170, 8136, 8157, 8067, 8166, 8112, 8097, 8154, 8094,2.4386584758758545
118, 8122, 8151, 8119, 8115, 8165, 8165, 8121, 8161, 8178, 8154, 8099, 8141, 8158, 8093,2.446650505065918
118, 8122, 8151, 8119, 8115, 8165, 8165, 8121, 8161, 8178, 8154, 8099, 8141, 8158, 8093,2.446650505065918
119, 8094, 8118, 8091, 8095, 8171, 8159, 8130, 8150, 8101, 8165, 8106, 8110, 8144, 8074,2.454676628112793
119, 8094, 8118, 8091, 8095, 8171, 8159, 8130, 8150, 8101, 8165, 8106, 8110, 8144, 8074,2.454676628112793
120, 8118, 8142, 8090, 8113, 8178, 8171, 8131, 8156, 8111, 8151, 8100, 8119, 8144, 8082,2.4616940021514893
120, 8118, 8142, 8090, 8113, 8178, 8171, 8131, 8156, 8111, 8151, 8100, 8119, 8144, 8082,2.4616940021514893
121, 8114, 8157, 8107, 8119, 8178, 8174, 8122, 8161, 8166, 8137, 8097, 8139, 8158, 8070,2.4696130752563477
121, 8114, 8157, 8107, 8119, 8178, 8174, 8122, 8161, 8166, 8137, 8097, 8139, 8158, 8070,2.470033645629883
122, 8103, 8129, 8102, 8113, 8193, 8169, 8133, 8149, 8081, 8172, 8121, 8112, 8168, 8065,2.4780397415161133
122, 8103, 8129, 8102, 8113, 8193, 8169, 8133, 8149, 8081, 8172, 8121, 8112, 8168, 8065,2.4780397415161133
123, 8123, 8153, 8112, 8127, 8176, 8167, 8121, 8150, 8187, 8162, 8114, 8145, 8176, 8092,2.485048294067383
123, 8123, 8153, 8112, 8127, 8176, 8167, 8121, 8150, 8187, 8162, 8114, 8145, 8176, 8092,2.4860377311706543
124, 8109, 8135, 8092, 8112, 8173, 8172, 8130, 8150, 8120, 8154, 8118, 8115, 8168, 8095,2.493649959564209
124, 8109, 8135, 8092, 8112, 8173, 8172, 8130, 8150, 8120, 8154, 8118, 8115, 8168, 8095,2.494046449661255
125, 8120, 8147, 8091, 8115, 8174, 8177, 8135, 8160, 8126, 8159, 8129, 8125, 8170, 8105,2.502107620239258
125, 8120, 8147, 8091, 8115, 8174, 8177, 8135, 8160, 8126, 8159, 8129, 8125, 8170, 8105,2.502107620239258
126, 8120, 8153, 8104, 8122, 8171, 8175, 8131, 8159, 8207, 8176, 8138, 8152, 8173, 8113,2.5092973709106445
126, 8120, 8153, 8104, 8122, 8171, 8175, 8131, 8159, 8207, 8176, 8138, 8152, 8173, 8113,2.5092973709106445
127, 8119, 8131, 8105, 8111, 8187, 8178, 8143, 8144, 8125, 8198, 8162, 8122, 8165, 8122,2.5172975063323975
127, 8119, 8131, 8105, 8111, 8187, 8178, 8143, 8144, 8125, 8198, 8162, 8122, 8165, 8122,2.5172975063323975
240, 8133, 8163, 8121, 8117, 8178, 8177, 8126, 8151, 8226, 8166, 8154, 8152, 8171, 8120,2.5256505012512207
240, 8133, 8163, 8121, 8117, 8178, 8177, 8126, 8151, 8226, 8166, 8154, 8152, 8171, 8120,2.5256505012512207
0, 8114, 8140, 8104, 8108, 8183, 8178, 8128, 8150, 8154, 8175, 8151, 8128, 8163, 8095,2.5326499938964844
0, 8114, 8140, 8104, 8108, 8183, 8178, 8128, 8150, 8154, 8175, 8151, 8128, 8163, 8095,2.5326499938964844
1, 8136, 8149, 8112, 8121, 8186, 8191, 8127, 8145, 8135, 8182, 8152, 8137, 8161, 8105,2.540579080581665
1, 8136, 8149, 8112, 8121, 8186, 8191, 8127, 8145, 8135, 8182, 8152, 8137, 8161, 8105,2.540579080581665
2, 8128, 8160, 8118, 8120, 8171, 8191, 8114, 8142, 8216, 8150, 8138, 8160, 8163, 8098,2.5485763549804688
2, 8128, 8160, 8118, 8120, 8171, 8191, 8114, 8142, 8216, 8150, 8138, 8160, 8163, 8098,2.5485763549804688
3, 8099, 8113, 8082, 8096, 8187, 8189, 8128, 8142, 8089, 8164, 8133, 8107, 8152, 8084,2.5565712451934814
3, 8099, 8113, 8082, 8096, 8187, 8189, 8128, 8142, 8089, 8164, 8133, 8107, 8152, 8084,2.5565712451934814
4, 8124, 8141, 8091, 8108, 8181, 8192, 8132, 8168, 8193, 8175, 8130, 8138, 8166, 8109,2.5641939640045166
4, 8124, 8141, 8091, 8108, 8181, 8192, 8132, 8168, 8193, 8175, 8130, 8138, 8166, 8109,2.5641939640045166
5, 8121, 8141, 8095, 8108, 8179, 8184, 8147, 8178, 8205, 8210, 8167, 8137, 8177, 8126,2.571272850036621
5, 8121, 8141, 8095, 8108, 8179, 8184, 8147, 8178, 8205, 8210, 8167, 8137, 8177, 8126,2.571272850036621
6, 8134, 8143, 8110, 8121, 8187, 8187, 8155, 8169, 8192, 8232, 8191, 8141, 8173, 8145,2.579272747039795
6, 8134, 8143, 8110, 8121, 8187, 8187, 8155, 8169, 8192, 8232, 8191, 8141, 8173, 8145,2.579272747039795
7, 8136, 8159, 8127, 8126, 8173, 8183, 8140, 8158, 8271, 8196, 8170, 8162, 8167, 8142,2.5876500606536865
7, 8136, 8159, 8127, 8126, 8173, 8183, 8140, 8158, 8271, 8196, 8170, 8162, 8167, 8142,2.5876500606536865
8, 8130, 8137, 8108, 8114, 8183, 8182, 8146, 8152, 8141, 8192, 8169, 8121, 8156, 8129,2.5956497192382812
8, 8130, 8137, 8108, 8114, 8183, 8182, 8146, 8152, 8141, 8192, 8169, 8121, 8156, 8129,2.5956497192382812
9, 8164, 8163, 8124, 8134, 8179, 8199, 8142, 8163, 8218, 8184, 8164, 8162, 8162, 8144,2.6031277179718018
9, 8164, 8163, 8124, 8134, 8179, 8199, 8142, 8163, 8218, 8184, 8164, 8162, 8162, 8144,2.604121208190918
10, 8139, 8147, 8125, 8127, 8190, 8202, 8145, 8160, 8209, 8178, 8171, 8152, 8160, 8132,2.6111278533935547
10, 8139, 8147, 8125, 8127, 8190, 8202, 8145, 8160, 8209, 8178, 8171, 8152, 8160, 8132,2.612123489379883
11, 8126, 8140, 8117, 8128, 8205, 8198, 8149, 8161, 8143, 8169, 8166, 8129, 8158, 8126,2.6191351413726807
11, 8126, 8140, 8117, 8128, 8205, 8198, 8149, 8161, 8143, 8169, 8166, 8129, 8158, 8126,2.620148181915283
12, 8141, 8158, 8121, 8134, 8180, 8188, 8137, 8160, 8202, 8139, 8137, 8161, 8163, 8119,2.627650737762451
12, 8141, 8158, 8121, 8134, 8180, 8188, 8137, 8160, 8202, 8139, 8137, 8161, 8163, 8119,2.627650737762451
13, 8136, 8129, 8109, 8121, 8189, 8183, 8143, 8145, 8083, 8157, 8155, 8132, 8159, 8106,2.635648727416992
13, 8136, 8129, 8109, 8121, 8189, 8183, 8143, 8145, 8083, 8157, 8155, 8132, 8159, 8106,2.635648727416992
14, 8153, 8155, 8121, 8131, 8192, 8178, 8130, 8159, 8164, 8150, 8152, 8157, 8168, 8119,2.643831253051758
14, 8153, 8155, 8121, 8131, 8192, 8178, 8130, 8159, 8164, 8150, 8152, 8157, 8168, 8119,2.643831253051758
15, 8139, 8137, 8108, 8109, 8178, 8170, 8123, 8155, 8155, 8135, 8140, 8146, 8170, 8123,2.6518328189849854
15, 8139, 8137, 8108, 8109, 8178, 8170, 8123, 8155, 8155, 8135, 8140, 8146, 8170, 8123,2.6518328189849854
16, 8145, 8124, 8104, 8105, 8176, 8181, 8130, 8141, 8088, 8153, 8155, 8134, 8167, 8135,2.6596133708953857
16, 8145, 8124, 8104, 8105, 8176, 8181, 8130, 8141, 8088, 8153, 8155, 8134, 8167, 8135,2.6596133708953857
17, 8156, 8165, 8129, 8132, 8176, 8186, 8123, 8162, 8236, 8162, 8155, 8183, 8174, 8141,2.666649103164673
17, 8156, 8165, 8129, 8132, 8176, 8186, 8123, 8162, 8236, 8162, 8155, 8183, 8174, 8141,2.666649103164673
18, 8145, 8145, 8124, 8128, 8200, 8184, 8139, 8169, 8163, 8184, 8164, 8148, 8166, 8145,2.674852132797241
18, 8145, 8145, 8124, 8128, 8200, 8184, 8139, 8169, 8163, 8184, 8164, 8148, 8166, 8145,2.674852132797241
19, 8159, 8150, 8130, 8122, 8183, 8177, 8127, 8155, 8182, 8164, 8147, 8162, 8161, 8158,2.6826815605163574
19, 8159, 8150, 8130, 8122, 8183, 8177, 8127, 8155, 8182, 8164, 8147, 8162, 8161, 8158,2.6826815605163574
20, 8138, 8138, 8126, 8114, 8177, 8165, 8119, 8144, 8167, 8154, 8142, 8160, 8160, 8133,2.690676212310791
20, 8138, 8138, 8126, 8114, 8177, 8165, 8119, 8144, 8167, 8154, 8142, 8160, 8160, 8133,2.690676212310791
21, 8152, 8143, 8137, 8139, 8210, 8183, 8143, 8157, 8117, 8176, 8167, 8154, 8170, 8141,2.6986489295959473
21, 8152, 8143, 8137, 8139, 8210, 8183, 8143, 8157, 8117, 8176, 8167, 8154, 8170, 8141,2.6986489295959473
22, 8177, 8178, 8170, 8161, 8195, 8200, 8144, 8167, 8262, 8161, 8166, 8201, 8176, 8162,2.7066495418548584
22, 8177, 8178, 8170, 8161, 8195, 8200, 8144, 8167, 8262, 8161, 8166, 8201, 8176, 8162,2.7066495418548584
23, 8152, 8141, 8150, 8140, 8190, 8191, 8152, 8148, 8153, 8161, 8172, 8146, 8149, 8136,2.714648485183716
23, 8152, 8141, 8150, 8140, 8190, 8191, 8152, 8148, 8153, 8161, 8172, 8146, 8149, 8136,2.714648485183716
24, 8170, 8162, 8153, 8149, 8198, 8186, 8145, 8154, 8174, 8154, 8167, 8152, 8152, 8128,2.721644639968872
24, 8170, 8162, 8153, 8149, 8198, 8186, 8145, 8154, 8174, 8154, 8167, 8152, 8152, 8128,2.721644639968872
25, 8167, 8179, 8152, 8156, 8206, 8187, 8143, 8167, 8235, 8154, 8166, 8169, 8170, 8129,2.729745388031006
25, 8167, 8179, 8152, 8156, 8206, 8187, 8143, 8167, 8235, 8154, 8166, 8169, 8170, 8129,2.729745388031006
26, 8161, 8158, 8134, 8151, 8216, 8182, 8156, 8163, 8153, 8172, 8175, 8139, 8159, 8139,2.7377517223358154
26, 8161, 8158, 8134, 8151, 8216, 8182, 8156, 8163, 8153, 8172, 8175, 8139, 8159, 8139,2.7377517223358154
27, 8162, 8170, 8143, 8148, 8193, 8166, 8139, 8160, 8238, 8155, 8171, 8170, 8162, 8146,2.745650291442871
27, 8162, 8170, 8143, 8148, 8193, 8166, 8139, 8160, 8238, 8155, 8171, 8170, 8162, 8146,2.745650291442871
28, 8141, 8139, 8134, 8134, 8207, 8164, 8149, 8156, 8160, 8175, 8186, 8142, 8167, 8144,2.753650188446045
28, 8141, 8139, 8134, 8134, 8207, 8164, 8149, 8156, 8160, 8175, 8186, 8142, 8167, 8144,2.753650188446045
29, 8167, 8162, 8151, 8153, 8212, 8182, 8158, 8176, 8215, 8190, 8181, 8162, 8166, 8164,2.7616500854492188
29, 8167, 8162, 8151, 8153, 8212, 8182, 8158, 8176, 8215, 8190, 8181, 8162, 8166, 8164,2.7616500854492188
30, 8165, 8177, 8164, 8164, 8201, 8188, 8162, 8197, 8310, 8195, 8185, 8180, 8168, 8163,2.7691993713378906
30, 8165, 8177, 8164, 8164, 8201, 8188, 8162, 8197, 8310, 8195, 8185, 8180, 8168, 8163,2.7691993713378906
31, 8157, 8152, 8154, 8159, 8217, 8196, 8190, 8196, 8243, 8224, 8212, 8151, 8168, 8172,2.7777180671691895
31, 8157, 8152, 8154, 8159, 8217, 8196, 8190, 8196, 8243, 8224, 8212, 8151, 8168, 8172,2.7777180671691895
32, 8164, 8174, 8164, 8162, 8195, 8194, 8170, 8193, 8337, 8198, 8191, 8186, 8169, 8178,2.7857234477996826
32, 8164, 8174, 8164, 8162, 8195, 8194, 8170, 8193, 8337, 8198, 8191, 8186, 8169, 8178,2.7857234477996826
33, 8149, 8151, 8149, 8144, 8185, 8173, 8155, 8179, 8219, 8188, 8172, 8154, 8150, 8146,2.792726993560791
33, 8149, 8151, 8149, 8144, 8185, 8173, 8155, 8179, 8219, 8188, 8172, 8154, 8150, 8146,2.792726993560791
34, 8171, 8156, 8157, 8151, 8188, 8172, 8155, 8172, 8181, 8174, 8161, 8155, 8147, 8143,2.8006503582000732
34, 8171, 8156, 8157, 8151, 8188, 8172, 8155, 8172, 8181, 8174, 8161, 8155, 8147, 8143,2.8006503582000732
35, 8157, 8162, 8152, 8153, 8180, 8174, 8151, 8173, 8235, 8152, 8148, 8160, 8153, 8131,2.8086726665496826
35, 8157, 8162, 8152, 8153, 8180, 8174, 8151, 8173, 8235, 8152, 8148, 8160, 8153, 8131,2.8086726665496826
36, 8142, 8141, 8124, 8146, 8184, 8175, 8162, 8172, 8126, 8181, 8156, 8119, 8157, 8124,2.8166725635528564
36, 8142, 8141, 8124, 8146, 8184, 8175, 8162, 8172, 8126, 8181, 8156, 8119, 8157, 8124,2.8166725635528564
37, 8165, 8170, 8151, 8152, 8162, 8179, 8151, 8180, 8235, 8176, 8156, 8174, 8174, 8148,2.8246493339538574
37, 8165, 8170, 8151, 8152, 8162, 8179, 8151, 8180, 8235, 8176, 8156, 8174, 8174, 8148,2.8246493339538574
38, 8157, 8145, 8150, 8135, 8158, 8183, 8154, 8176, 8187, 8176, 8172, 8157, 8166, 8155,2.8326499462127686
38, 8157, 8145, 8150, 8135, 8158, 8183, 8154, 8176, 8187, 8176, 8172, 8157, 8166, 8155,2.8326499462127686
39, 8168, 8148, 8138, 8137, 8156, 8188, 8147, 8164, 8147, 8172, 8176, 8146, 8160, 8163,2.8407034873962402
39, 8168, 8148, 8138, 8137, 8156, 8188, 8147, 8164, 8147, 8172, 8176, 8146, 8160, 8163,2.8407034873962402
40, 8162, 8167, 8152, 8148, 8148, 8186, 8139, 8158, 8227, 8159, 8164, 8179, 8166, 8156,2.848644971847534
40, 8162, 8167, 8152, 8148, 8148, 8186, 8139, 8158, 8227, 8159, 8164, 8179, 8166, 8156,2.848644971847534
41, 8157, 8142, 8161, 8152, 8175, 8192, 8168, 8172, 8166, 8196, 8180, 8156, 8158, 8163,2.8556454181671143
41, 8157, 8142, 8161, 8152, 8175, 8192, 8168, 8172, 8166, 8196, 8180, 8156, 8158, 8163,2.8556454181671143
42, 8174, 8163, 8169, 8163, 8162, 8196, 8160, 8197, 8283, 8197, 8166, 8185, 8156, 8178,2.8636603355407715
42, 8174, 8163, 8169, 8163, 8162, 8196, 8160, 8197, 8283, 8197, 8166, 8185, 8156, 8178,2.8636603355407715
43, 8149, 8143, 8143, 8141, 8153, 8190, 8160, 8182, 8220, 8189, 8148, 8155, 8149, 8149,2.871838331222534
43, 8149, 8143, 8143, 8141, 8153, 8190, 8160, 8182, 8220, 8189, 8148, 8155, 8149, 8149,2.871838331222534
44, 8163, 8150, 8152, 8146, 8170, 8193, 8170, 8171, 8158, 8178, 8148, 8147, 8156, 8145,2.880033254623413
44, 8163, 8150, 8152, 8146, 8170, 8193, 8170, 8171, 8158, 8178, 8148, 8147, 8156, 8145,2.880033254623413
45, 8189, 8180, 8184, 8165, 8164, 8194, 8162, 8182, 8264, 8169, 8158, 8183, 8169, 8154,2.8880348205566406
45, 8189, 8180, 8184, 8165, 8164, 8194, 8162, 8182, 8264, 8169, 8158, 8183, 8169, 8154,2.8880348205566406
46, 8181, 8153, 8179, 8167, 8171, 8195, 8173, 8178, 8176, 8206, 8182, 8148, 8164, 8154,2.895033836364746
46, 8181, 8153, 8179, 8167, 8171, 8195, 8173, 8178, 8176, 8206, 8182, 8148, 8164, 8154,2.895033836364746
47, 8182, 8168, 8177, 8176, 8164, 8197, 8160, 8177, 8244, 8194, 8170, 8174, 8166, 8157,2.9035842418670654
47, 8182, 8168, 8177, 8176, 8164, 8197, 8160, 8177, 8244, 8194, 8170, 8174, 8166, 8157,2.9040791988372803
48, 8159, 8147, 8144, 8152, 8160, 8190, 8157, 8171, 8196, 8176, 8162, 8155, 8160, 8139,2.911649703979492
48, 8159, 8147, 8144, 8152, 8160, 8190, 8157, 8171, 8196, 8176, 8162, 8155, 8160, 8139,2.911649703979492
49, 8163, 8144, 8135, 8149, 8171, 8196, 8166, 8176, 8142, 8193, 8168, 8142, 8159, 8151,2.918674945831299
49, 8163, 8144, 8135, 8149, 8171, 8196, 8166, 8176, 8142, 8193, 8168, 8142, 8159, 8151,2.918674945831299
50, 8161, 8175, 8156, 8171, 8174, 8204, 8160, 8191, 8277, 8200, 8168, 8181, 8171, 8171,2.92667293548584
50, 8161, 8175, 8156, 8171, 8174, 8204, 8160, 8191, 8277, 8200, 8168, 8181, 8171, 8171,2.92667293548584
51, 8150, 8152, 8142, 8173, 8193, 8203, 8176, 8181, 8194, 8222, 8191, 8148, 8163, 8174,2.9346489906311035
51, 8150, 8152, 8142, 8173, 8193, 8203, 8176, 8181, 8194, 8222, 8191, 8148, 8163, 8174,2.9346489906311035
52, 8175, 8173, 8157, 8180, 8186, 8200, 8170, 8187, 8253, 8201, 8185, 8177, 8166, 8181,2.9426491260528564
52, 8175, 8173, 8157, 8180, 8186, 8200, 8170, 8187, 8253, 8201, 8185, 8177, 8166, 8181,2.9426491260528564
53, 8159, 8168, 8157, 8170, 8189, 8201, 8171, 8191, 8250, 8190, 8174, 8167, 8166, 8162,2.950826406478882
53, 8159, 8168, 8157, 8170, 8189, 8201, 8171, 8191, 8250, 8190, 8174, 8167, 8166, 8162,2.950826406478882
54, 8176, 8165, 8149, 8178, 8204, 8207, 8182, 8187, 8195, 8217, 8176, 8148, 8160, 8164,2.9587907791137695
54, 8176, 8165, 8149, 8178, 8204, 8207, 8182, 8187, 8195, 8217, 8176, 8148, 8160, 8164,2.9587907791137695
55, 8201, 8189, 8168, 8184, 8186, 8200, 8167, 8181, 8283, 8203, 8163, 8181, 8158, 8164,2.9668846130371094
55, 8201, 8189, 8168, 8184, 8186, 8200, 8167, 8181, 8283, 8203, 8163, 8181, 8158, 8164,2.9668846130371094
56, 8167, 8153, 8158, 8157, 8196, 8199, 8168, 8166, 8147, 8191, 8163, 8139, 8151, 8147,2.974881410598755
56, 8167, 8153, 8158, 8157, 8196, 8199, 8168, 8166, 8147, 8191, 8163, 8139, 8151, 8147,2.974881410598755
57, 8178, 8173, 8165, 8171, 8196, 8212, 8161, 8182, 8212, 8181, 8155, 8162, 8163, 8159,2.9829695224761963
57, 8178, 8173, 8165, 8171, 8196, 8212, 8161, 8182, 8212, 8181, 8155, 8162, 8163, 8159,2.9829695224761963
58, 8179, 8177, 8156, 8170, 8192, 8215, 8167, 8194, 8267, 8196, 8165, 8170, 8171, 8161,2.989968776702881
58, 8179, 8177, 8156, 8170, 8192, 8215, 8167, 8194, 8267, 8196, 8165, 8170, 8171, 8161,2.989968776702881
59, 8171, 8159, 8143, 8160, 8203, 8219, 8175, 8179, 8183, 8216, 8182, 8147, 8165, 8166,2.9976491928100586
59, 8171, 8159, 8143, 8160, 8203, 8219, 8175, 8179, 8183, 8216, 8182, 8147, 8165, 8166,2.9976491928100586
60, 8176, 8178, 8155, 8175, 8185, 8224, 8162, 8178, 8297, 8201, 8170, 8183, 8167, 8172,3.005650281906128
60, 8176, 8178, 8155, 8175, 8185, 8224, 8162, 8178, 8297, 8201, 8170, 8183, 8167, 8172,3.005650281906128
61, 8168, 8151, 8148, 8172, 8203, 8222, 8190, 8193, 8255, 8227, 8198, 8155, 8173, 8180,3.0136501789093018
61, 8168, 8151, 8148, 8172, 8203, 8222, 8190, 8193, 8255, 8227, 8198, 8155, 8173, 8180,3.0136501789093018
62, 8185, 8173, 8163, 8173, 8206, 8222, 8199, 8211, 8307, 8230, 8210, 8176, 8183, 8202,3.021148681640625
62, 8185, 8173, 8163, 8173, 8206, 8222, 8199, 8211, 8307, 8230, 8210, 8176, 8183, 8202,3.0221409797668457
63, 8177, 8174, 8158, 8166, 8190, 8219, 8179, 8192, 8307, 8217, 8195, 8177, 8171, 8182,3.0291411876678467
63, 8177, 8174, 8158, 8166, 8190, 8219, 8179, 8192, 8307, 8217, 8195, 8177, 8171, 8182,3.0291411876678467
64, 8188, 8162, 8150, 8173, 8206, 8216, 8175, 8170, 8193, 8221, 8210, 8145, 8161, 8170,3.0371415615081787
64, 8188, 8162, 8150, 8173, 8206, 8216, 8175, 8170, 8193, 8221, 8210, 8145, 8161, 8170,3.0381414890289307
65, 8208, 8199, 8175, 8191, 8203, 8209, 8161, 8178, 8299, 8183, 8198, 8182, 8166, 8167,3.0455760955810547
65, 8208, 8199, 8175, 8191, 8203, 8209, 8161, 8178, 8299, 8183, 8198, 8182, 8166, 8167,3.0455760955810547
66, 8198, 8166, 8172, 8177, 8213, 8206, 8177, 8180, 8218, 8193, 8186, 8157, 8153, 8155,3.052574872970581
66, 8198, 8166, 8172, 8177, 8213, 8206, 8177, 8180, 8218, 8193, 8186, 8157, 8153, 8155,3.052574872970581
67, 8211, 8167, 8177, 8182, 8207, 8203, 8171, 8175, 8226, 8197, 8187, 8177, 8159, 8178,3.0606493949890137
67, 8211, 8167, 8177, 8182, 8207, 8203, 8171, 8175, 8226, 8197, 8187, 8177, 8159, 8178,3.0606493949890137
68, 8185, 8174, 8167, 8183, 8188, 8185, 8145, 8166, 8257, 8172, 8191, 8187, 8168, 8174,3.068863868713379
68, 8185, 8174, 8167, 8183, 8188, 8185, 8145, 8166, 8257, 8172, 8191, 8187, 8168, 8174,3.068863868713379
69, 8179, 8153, 8156, 8178, 8202, 8194, 8156, 8165, 8154, 8192, 8209, 8156, 8163, 8171,3.077000141143799
69, 8179, 8153, 8156, 8178, 8202, 8194, 8156, 8165, 8154, 8192, 8209, 8156, 8163, 8171,3.077000141143799
70, 8199, 8181, 8183, 8187, 8185, 8207, 8152, 8175, 8270, 8189, 8214, 8206, 8176, 8190,3.0839993953704834
70, 8199, 8181, 8183, 8187, 8185, 8207, 8152, 8175, 8270, 8189, 8214, 8206, 8176, 8190,3.0839993953704834
71, 8169, 8164, 8169, 8180, 8169, 8190, 8151, 8160, 8189, 8193, 8215, 8176, 8168, 8180,3.0920004844665527
71, 8169, 8164, 8169, 8180, 8169, 8190, 8151, 8160, 8189, 8193, 8215, 8176, 8168, 8180,3.0920004844665527
72, 8182, 8166, 8163, 8181, 8152, 8183, 8145, 8148, 8151, 8182, 8189, 8170, 8156, 8185,3.100649356842041
72, 8182, 8166, 8163, 8181, 8152, 8183, 8145, 8148, 8151, 8182, 8189, 8170, 8156, 8185,3.100649356842041
73, 8176, 8169, 8166, 8172, 8138, 8184, 8133, 8153, 8204, 8154, 8183, 8184, 8156, 8173,3.108142614364624
73, 8176, 8169, 8166, 8172, 8138, 8184, 8133, 8153, 8204, 8154, 8183, 8184, 8156, 8173,3.108142614364624
74, 8157, 8145, 8145, 8167, 8159, 8177, 8137, 8155, 8106, 8164, 8201, 8142, 8150, 8149,3.115142345428467
74, 8157, 8145, 8145, 8167, 8159, 8177, 8137, 8155, 8106, 8164, 8201, 8142, 8150, 8149,3.115142345428467
75, 8180, 8170, 8163, 8177, 8156, 8175, 8127, 8161, 8212, 8156, 8177, 8176, 8153, 8152,3.1235289573669434
75, 8180, 8170, 8163, 8177, 8156, 8175, 8127, 8161, 8212, 8156, 8177, 8176, 8153, 8152,3.1235289573669434
76, 8165, 8157, 8167, 8162, 8165, 8183, 8134, 8158, 8165, 8169, 8179, 8159, 8151, 8151,3.1316492557525635
76, 8165, 8157, 8167, 8162, 8165, 8183, 8134, 8158, 8165, 8169, 8179, 8159, 8151, 8151,3.1316492557525635
77, 8173, 8168, 8165, 8178, 8171, 8180, 8123, 8162, 8125, 8174, 8179, 8155, 8153, 8151,3.1394197940826416
77, 8173, 8168, 8165, 8178, 8171, 8180, 8123, 8162, 8125, 8174, 8179, 8155, 8153, 8151,3.1394197940826416
78, 8182, 8172, 8158, 8172, 8152, 8163, 8113, 8164, 8179, 8153, 8158, 8170, 8154, 8136,3.1474215984344482
78, 8182, 8172, 8158, 8172, 8152, 8163, 8113, 8164, 8179, 8153, 8158, 8170, 8154, 8136,3.1474215984344482
79, 8161, 8131, 8137, 8136, 8159, 8171, 8141, 8150, 8061, 8162, 8173, 8131, 8150, 8141,3.1554253101348877
79, 8161, 8131, 8137, 8136, 8159, 8171, 8141, 8150, 8061, 8162, 8173, 8131, 8150, 8141,3.1554253101348877
80, 8146, 8154, 8151, 8148, 8151, 8173, 8117, 8148, 8143, 8150, 8180, 8177, 8163, 8159,3.1636509895324707
80, 8146, 8154, 8151, 8148, 8151, 8173, 8117, 8148, 8143, 8150, 8180, 8177, 8163, 8159,3.1636509895324707
81, 8119, 8134, 8138, 8148, 8150, 8146, 8093, 8135, 8087, 8141, 8182, 8164, 8155, 8132,3.17138934135437
81, 8119, 8134, 8138, 8148, 8150, 8146, 8093, 8135, 8087, 8141, 8182, 8164, 8155, 8132,3.17138934135437
82, 8142, 8135, 8133, 8148, 8151, 8150, 8111, 8136, 8043, 8137, 8185, 8149, 8157, 8131,3.1784143447875977
82, 8142, 8135, 8133, 8148, 8151, 8150, 8111, 8136, 8043, 8137, 8185, 8149, 8157, 8131,3.1784143447875977
83, 8148, 8165, 8142, 8156, 8141, 8170, 8127, 8156, 8167, 8139, 8193, 8180, 8175, 8140,3.1864073276519775
83, 8148, 8165, 8142, 8156, 8141, 8170, 8127, 8156, 8167, 8139, 8193, 8180, 8175, 8140,3.1864073276519775
84, 8133, 8141, 8117, 8150, 8166, 8165, 8132, 8143, 8069, 8164, 8198, 8142, 8154, 8116,3.1946516036987305
84, 8133, 8141, 8117, 8150, 8166, 8165, 8132, 8143, 8069, 8164, 8198, 8142, 8154, 8116,3.1946516036987305
85, 8160, 8167, 8130, 8156, 8158, 8150, 8101, 8127, 8099, 8121, 8150, 8165, 8138, 8095,3.2026500701904297
85, 8160, 8167, 8130, 8156, 8158, 8150, 8101, 8127, 8099, 8121, 8150, 8165, 8138, 8095,3.2026500701904297
86, 8156, 8161, 8137, 8150, 8145, 8144, 8104, 8125, 8054, 8110, 8133, 8152, 8143, 8089,3.2107203006744385
86, 8156, 8161, 8137, 8150, 8145, 8144, 8104, 8125, 8054, 8110, 8133, 8152, 8143, 8089,3.2107203006744385
87, 8171, 8163, 8146, 8159, 8162, 8156, 8127, 8146, 8036, 8152, 8160, 8143, 8160, 8120,3.2187209129333496
87, 8171, 8163, 8146, 8159, 8162, 8156, 8127, 8146, 8036, 8152, 8160, 8143, 8160, 8120,3.2187209129333496
88, 8181, 8184, 8159, 8168, 8172, 8161, 8118, 8169, 8188, 8152, 8168, 8182, 8172, 8139,3.226651191711426
88, 8181, 8184, 8159, 8168, 8172, 8161, 8118, 8169, 8188, 8152, 8168, 8182, 8172, 8139,3.226651191711426
89, 8166, 8145, 8144, 8158, 8199, 8165, 8138, 8165, 8118, 8175, 8192, 8149, 8162, 8143,3.235044240951538
89, 8166, 8145, 8144, 8158, 8199, 8165, 8138, 8165, 8118, 8175, 8192, 8149, 8162, 8143,3.235044240951538
90, 8167, 8165, 8149, 8163, 8191, 8164, 8139, 8168, 8183, 8167, 8185, 8172, 8158, 8148,3.2426493167877197
90, 8167, 8165, 8149, 8163, 8191, 8164, 8139, 8168, 8183, 8167, 8185, 8172, 8158, 8148,3.2426493167877197
91, 8121, 8150, 8118, 8137, 8177, 8146, 8128, 8162, 8157, 8149, 8162, 8160, 8151, 8122,3.2503650188446045
91, 8121, 8150, 8118, 8137, 8177, 8146, 8128, 8162, 8157, 8149, 8162, 8160, 8151, 8122,3.2503650188446045
92, 8131, 8134, 8102, 8138, 8191, 8153, 8143, 8159, 8083, 8163, 8158, 8143, 8151, 8129,3.257723331451416
92, 8131, 8134, 8102, 8138, 8191, 8153, 8143, 8159, 8083, 8163, 8158, 8143, 8151, 8129,3.257723331451416
93, 8165, 8164, 8133, 8152, 8182, 8161, 8147, 8165, 8202, 8152, 8150, 8186, 8159, 8139,3.265721082687378
93, 8165, 8164, 8133, 8152, 8182, 8161, 8147, 8165, 8202, 8152, 8150, 8186, 8159, 8139,3.265721082687378
94, 8136, 8132, 8117, 8123, 8186, 8148, 8148, 8159, 8096, 8150, 8161, 8148, 8149, 8114,3.2740323543548584
94, 8136, 8132, 8117, 8123, 8186, 8148, 8148, 8159, 8096, 8150, 8161, 8148, 8149, 8114,3.2740323543548584
95, 8145, 8153, 8124, 8138, 8182, 8152, 8137, 8173, 8151, 8147, 8156, 8167, 8160, 8120,3.2810301780700684
95, 8145, 8153, 8124, 8138, 8182, 8152, 8137, 8173, 8151, 8147, 8156, 8167, 8160, 8120,3.282029867172241
96, 8151, 8164, 8142, 8159, 8187, 8161, 8143, 8176, 8208, 8177, 8164, 8169, 8172, 8125,3.289612293243408
96, 8151, 8164, 8142, 8159, 8187, 8161, 8143, 8176, 8208, 8177, 8164, 8169, 8172, 8125,3.289612293243408
97, 8164, 8164, 8153, 8174, 8215, 8162, 8157, 8172, 8166, 8211, 8197, 8152, 8170, 8138,3.296893835067749
97, 8164, 8164, 8153, 8174, 8215, 8162, 8157, 8172, 8166, 8211, 8197, 8152, 8170, 8138,3.2978925704956055
98, 8182, 8195, 8169, 8185, 8209, 8153, 8146, 8187, 8296, 8187, 8200, 8198, 8170, 8152,3.3058922290802
98, 8182, 8195, 8169, 8185, 8209, 8153, 8146, 8187, 8296, 8187, 8200, 8198, 8170, 8152,3.3058922290802
99, 8156, 8156, 8146, 8159, 8213, 8142, 8162, 8184, 8194, 8196, 8202, 8160, 8162, 8150,3.3138928413391113
99, 8156, 8156, 8146, 8159, 8213, 8142, 8162, 8184, 8194, 8196, 8202, 8160, 8162, 8150,3.3138928413391113
100, 8153, 8152, 8136, 8156, 8195, 8136, 8163, 8182, 8196, 8201, 8173, 8162, 8161, 8157,3.3208930492401123
100, 8153, 8152, 8136, 8156, 8195, 8136, 8163, 8182, 8196, 8201, 8173, 8162, 8161, 8157,3.3208930492401123
101, 8128, 8145, 8114, 8142, 8180, 8123, 8148, 8176, 8198, 8185, 8147, 8165, 8154, 8136,3.328892707824707
101, 8128, 8145, 8114, 8142, 8180, 8123, 8148, 8176, 8198, 8185, 8147, 8165, 8154, 8136,3.328892707824707
102, 8121, 8130, 8099, 8131, 8199, 8122, 8144, 8163, 8085, 8185, 8158, 8139, 8148, 8132,3.3358914852142334
102, 8121, 8130, 8099, 8131, 8199, 8122, 8144, 8163, 8085, 8185, 8158, 8139, 8148, 8132,3.3368918895721436
103, 8146, 8159, 8123, 8146, 8185, 8124, 8125, 8162, 8187, 8160, 8150, 8173, 8159, 8145,3.3448920249938965
103, 8146, 8159, 8123, 8146, 8185, 8124, 8125, 8162, 8187, 8160, 8150, 8173, 8159, 8145,3.3448920249938965
104, 8142, 8136, 8115, 8138, 8187, 8111, 8135, 8149, 8090, 8157, 8148, 8134, 8149, 8127,3.351893901824951
104, 8142, 8136, 8115, 8138, 8187, 8111, 8135, 8149, 8090, 8157, 8148, 8134, 8149, 8127,3.3529417514801025
105, 8159, 8156, 8121, 8144, 8189, 8103, 8130, 8145, 8077, 8152, 8143, 8145, 8149, 8125,3.360952854156494
105, 8159, 8156, 8121, 8144, 8189, 8103, 8130, 8145, 8077, 8152, 8143, 8145, 8149, 8125,3.360952854156494
106, 8163, 8171, 8128, 8151, 8190, 8104, 8130, 8156, 8141, 8151, 8141, 8162, 8160, 8131,3.367997646331787
106, 8163, 8171, 8128, 8151, 8190, 8104, 8130, 8156, 8141, 8151, 8141, 8162, 8160, 8131,3.3689544200897217
107, 8182, 8153, 8122, 8153, 8216, 8118, 8166, 8164, 8085, 8176, 8163, 8137, 8162, 8156,3.376516580581665
107, 8182, 8153, 8122, 8153, 8216, 8118, 8166, 8164, 8085, 8176, 8163, 8137, 8162, 8156,3.376516580581665
108, 8182, 8174, 8136, 8152, 8204, 8117, 8155, 8172, 8198, 8158, 8168, 8182, 8167, 8169,3.382918119430542
108, 8182, 8174, 8136, 8152, 8204, 8117, 8155, 8172, 8198, 8158, 8168, 8182, 8167, 8169,3.3838722705841064
109, 8132, 8148, 8124, 8136, 8200, 8105, 8148, 8169, 8123, 8166, 8178, 8155, 8157, 8145,3.3909971714019775
109, 8132, 8148, 8124, 8136, 8200, 8105, 8148, 8169, 8123, 8166, 8178, 8155, 8157, 8145,3.3909971714019775
110, 8158, 8158, 8133, 8150, 8194, 8117, 8156, 8177, 8134, 8180, 8179, 8161, 8158, 8158,3.3996129035949707
110, 8158, 8158, 8133, 8150, 8194, 8117, 8156, 8177, 8134, 8180, 8179, 8161, 8158, 8158,3.3996129035949707
111, 8178, 8165, 8136, 8147, 8178, 8122, 8154, 8176, 8209, 8171, 8184, 8179, 8165, 8168,3.4070992469787598
111, 8178, 8165, 8136, 8147, 8178, 8122, 8154, 8176, 8209, 8171, 8184, 8179, 8165, 8168,3.4070992469787598
112, 8163, 8140, 8121, 8132, 8198, 8121, 8166, 8166, 8094, 8188, 8205, 8141, 8159, 8168,3.4150917530059814
112, 8163, 8140, 8121, 8132, 8198, 8121, 8166, 8166, 8094, 8188, 8205, 8141, 8159, 8168,3.4160916805267334
113, 8164, 8179, 8140, 8144, 8199, 8125, 8157, 8180, 8198, 8179, 8191, 8179, 8162, 8167,3.4241063594818115
113, 8164, 8179, 8140, 8144, 8199, 8125, 8157, 8180, 8198, 8179, 8191, 8179, 8162, 8167,3.4241063594818115
114, 8161, 8171, 8138, 8144, 8205, 8127, 8171, 8184, 8174, 8191, 8188, 8151, 8155, 8151,3.4311695098876953
114, 8161, 8171, 8138, 8144, 8205, 8127, 8171, 8184, 8174, 8191, 8188, 8151, 8155, 8151,3.43218994140625
115, 8201, 8168, 8144, 8154, 8209, 8129, 8181, 8183, 8154, 8184, 8186, 8141, 8155, 8168,3.439342498779297
115, 8201, 8168, 8144, 8154, 8209, 8129, 8181, 8183, 8154, 8184, 8186, 8141, 8155, 8168,3.439342498779297
116, 8185, 8169, 8139, 8143, 8192, 8111, 8157, 8178, 8216, 8151, 8176, 8167, 8165, 8168,3.446357488632202
116, 8185, 8169, 8139, 8143, 8192, 8111, 8157, 8178, 8216, 8151, 8176, 8167, 8165, 8168,3.446357488632202
117, 8140, 8138, 8103, 8124, 8199, 8095, 8156, 8171, 8101, 8176, 8186, 8129, 8162, 8160,3.455066680908203
117, 8140, 8138, 8103, 8124, 8199, 8095, 8156, 8171, 8101, 8176, 8186, 8129, 8162, 8160,3.455066680908203
118, 8155, 8173, 8114, 8140, 8186, 8098, 8158, 8179, 8193, 8180, 8171, 8161, 8167, 8173,3.4630725383758545
118, 8155, 8173, 8114, 8140, 8186, 8098, 8158, 8179, 8193, 8180, 8171, 8161, 8167, 8173,3.4630725383758545
119, 8143, 8158, 8110, 8132, 8184, 8110, 8180, 8176, 8167, 8182, 8178, 8147, 8162, 8166,3.4704203605651855
119, 8143, 8158, 8110, 8132, 8184, 8110, 8180, 8176, 8167, 8182, 8178, 8147, 8162, 8166,3.4704203605651855
120, 8154, 8146, 8104, 8133, 8186, 8114, 8177, 8170, 8113, 8177, 8181, 8139, 8156, 8172,3.4781394004821777
120, 8154, 8146, 8104, 8133, 8186, 8114, 8177, 8170, 8113, 8177, 8181, 8139, 8156, 8172,3.4781394004821777
121, 8164, 8163, 8117, 8139, 8163, 8094, 8145, 8167, 8173, 8144, 8148, 8168, 8156, 8164,3.4861392974853516
121, 8164, 8163, 8117, 8139, 8163, 8094, 8145, 8167, 8173, 8144, 8148, 8168, 8156, 8164,3.4871339797973633
122, 8154, 8146, 8113, 8133, 8174, 8094, 8164, 8166, 8069, 8159, 8153, 8132, 8153, 8151,3.4946506023406982
122, 8154, 8146, 8113, 8133, 8174, 8094, 8164, 8166, 8069, 8159, 8153, 8132, 8153, 8151,3.4946506023406982
123, 8173, 8177, 8133, 8157, 8170, 8105, 8170, 8180, 8162, 8153, 8162, 8160, 8162, 8167,3.502650499343872
123, 8173, 8177, 8133, 8157, 8170, 8105, 8170, 8180, 8162, 8153, 8162, 8160, 8162, 8167,3.502650499343872
124, 8162, 8164, 8135, 8159, 8164, 8092, 8163, 8175, 8142, 8150, 8170, 8151, 8155, 8159,3.5106494426727295
124, 8162, 8164, 8135, 8159, 8164, 8092, 8163, 8175, 8142, 8150, 8170, 8151, 8155, 8159,3.5106494426727295
125, 8177, 8159, 8131, 8158, 8162, 8089, 8167, 8169, 8081, 8160, 8168, 8138, 8149, 8157,3.517650604248047
125, 8177, 8159, 8131, 8158, 8162, 8089, 8167, 8169, 8081, 8160, 8168, 8138, 8149, 8157,3.517650604248047
126, 8182, 8179, 8137, 8161, 8150, 8096, 8161, 8178, 8189, 8146, 8156, 8168, 8159, 8156,3.5260355472564697
126, 8182, 8179, 8137, 8161, 8150, 8096, 8161, 8178, 8189, 8146, 8156, 8168, 8159, 8156,3.5260355472564697
127, 8159, 8147, 8121, 8150, 8174, 8098, 8172, 8174, 8095, 8175, 8185, 8131, 8160, 8160,3.533656120300293
127, 8159, 8147, 8121, 8150, 8174, 8098, 8172, 8174, 8095, 8175, 8185, 8131, 8160, 8160,3.533656120300293
240, 8178, 8174, 8129, 8166, 8171, 8099, 8167, 8178, 8175, 8180, 8192, 8159, 8173, 8189,3.541564702987671
240, 8178, 8174, 8129, 8166, 8171, 8099, 8167, 8178, 8175, 8180, 8192, 8159, 8173, 8189,3.541564702987671
0, 8157, 8165, 8115, 8152, 8150, 8090, 8158, 8166, 8174, 8168, 8181, 8144, 8166, 8178,3.549938201904297
0, 8157, 8165, 8115, 8152, 8150, 8090, 8158, 8166, 8174, 8168, 8181, 8144, 8166, 8178,3.549938201904297
1, 8146, 8151, 8106, 8138, 8140, 8084, 8150, 8157, 8074, 8173, 8173, 8117, 8147, 8166,3.5576438903808594
1, 8146, 8151, 8106, 8138, 8140, 8084, 8150, 8157, 8074, 8173, 8173, 8117, 8147, 8166,3.5576438903808594
2, 8160, 8180, 8129, 8150, 8126, 8094, 8150, 8170, 8178, 8160, 8157, 8159, 8157, 8167,3.5650618076324463
2, 8160, 8180, 8129, 8150, 8126, 8094, 8150, 8170, 8178, 8160, 8157, 8159, 8157, 8167,3.5650618076324463
3, 8158, 8160, 8127, 8149, 8149, 8116, 8185, 8170, 8116, 8174, 8178, 8133, 8166, 8168,3.5737006664276123
3, 8158, 8160, 8127, 8149, 8149, 8116, 8185, 8170, 8116, 8174, 8178, 8133, 8166, 8168,3.5737006664276123
4, 8183, 8182, 8152, 8167, 8158, 8124, 8183, 8182, 8192, 8169, 8196, 8162, 8171, 8191,3.580700159072876
4, 8183, 8182, 8152, 8167, 8158, 8124, 8183, 8182, 8192, 8169, 8196, 8162, 8171, 8191,3.580700159072876
5, 8184, 8185, 8165, 8170, 8173, 8112, 8181, 8191, 8230, 8175, 8204, 8165, 8169, 8196,3.588649272918701
5, 8184, 8185, 8165, 8170, 8173, 8112, 8181, 8191, 8230, 8175, 8204, 8165, 8169, 8196,3.588649272918701
6, 8196, 8176, 8163, 8175, 8204, 8119, 8198, 8183, 8153, 8195, 8203, 8138, 8159, 8200,3.596649169921875
6, 8196, 8176, 8163, 8175, 8204, 8119, 8198, 8183, 8153, 8195, 8203, 8138, 8159, 8200,3.596649169921875
7, 8214, 8203, 8178, 8185, 8187, 8128, 8185, 8185, 8258, 8177, 8183, 8175, 8161, 8196,3.6047513484954834
7, 8214, 8203, 8178, 8185, 8187, 8128, 8185, 8185, 8258, 8177, 8183, 8175, 8161, 8196,3.6047513484954834
8, 8190, 8168, 8154, 8167, 8185, 8132, 8196, 8184, 8181, 8193, 8207, 8141, 8164, 8189,3.6126272678375244
8, 8190, 8168, 8154, 8167, 8185, 8132, 8196, 8184, 8181, 8193, 8207, 8141, 8164, 8189,3.6126272678375244
9, 8186, 8175, 8151, 8172, 8182, 8143, 8194, 8188, 8223, 8198, 8216, 8156, 8173, 8202,3.6206352710723877
9, 8186, 8175, 8151, 8172, 8182, 8143, 8194, 8188, 8223, 8198, 8216, 8156, 8173, 8202,3.6206352710723877
10, 8188, 8183, 8156, 8175, 8172, 8144, 8183, 8182, 8252, 8189, 8191, 8162, 8161, 8187,3.6286489963531494
10, 8188, 8183, 8156, 8175, 8172, 8144, 8183, 8182, 8252, 8189, 8191, 8162, 8161, 8187,3.6286489963531494
11, 8209, 8167, 8157, 8176, 8189, 8151, 8195, 8174, 8152, 8194, 8190, 8137, 8155, 8196,3.636650800704956
11, 8209, 8167, 8157, 8176, 8189, 8151, 8195, 8174, 8152, 8194, 8190, 8137, 8155, 8196,3.636650800704956
12, 8207, 8189, 8181, 8191, 8181, 8158, 8182, 8185, 8270, 8172, 8201, 8187, 8176, 8221,3.64416241645813
12, 8207, 8189, 8181, 8191, 8181, 8158, 8182, 8185, 8270, 8172, 8201, 8187, 8176, 8221,3.6451568603515625
13, 8176, 8170, 8168, 8190, 8187, 8151, 8192, 8185, 8203, 8194, 8215, 8158, 8167, 8205,3.651162624359131
13, 8176, 8170, 8168, 8190, 8187, 8151, 8192, 8185, 8203, 8194, 8215, 8158, 8167, 8205,3.6521594524383545
14, 8203, 8182, 8166, 8190, 8193, 8157, 8201, 8188, 8219, 8206, 8200, 8155, 8161, 8199,3.6601719856262207
14, 8203, 8182, 8166, 8190, 8193, 8157, 8201, 8188, 8219, 8206, 8200, 8155, 8161, 8199,3.6601719856262207
15, 8182, 8179, 8158, 8169, 8185, 8161, 8196, 8195, 8274, 8191, 8191, 8160, 8164, 8178,3.6671833992004395
15, 8182, 8179, 8158, 8169, 8185, 8161, 8196, 8195, 8274, 8191, 8191, 8160, 8164, 8178,3.668214797973633
16, 8167, 8159, 8148, 8169, 8196, 8165, 8207, 8197, 8174, 8202, 8211, 8131, 8161, 8178,3.6757683753967285
16, 8167, 8159, 8148, 8169, 8196, 8165, 8207, 8197, 8174, 8202, 8211, 8131, 8161, 8178,3.6757683753967285
17, 8200, 8194, 8181, 8194, 8189, 8164, 8194, 8200, 8283, 8190, 8201, 8169, 8168, 8201,3.683774948120117
17, 8200, 8194, 8181, 8194, 8189, 8164, 8194, 8200, 8283, 8190, 8201, 8169, 8168, 8201,3.683774948120117
18, 8180, 8167, 8166, 8178, 8202, 8154, 8197, 8193, 8222, 8202, 8201, 8131, 8162, 8188,3.6916496753692627
18, 8180, 8167, 8166, 8178, 8202, 8154, 8197, 8193, 8222, 8202, 8201, 8131, 8162, 8188,3.6916496753692627
19, 8186, 8168, 8152, 8179, 8209, 8155, 8200, 8192, 8212, 8206, 8197, 8134, 8164, 8191,3.6996123790740967
19, 8186, 8168, 8152, 8179, 8209, 8155, 8200, 8192, 8212, 8206, 8197, 8134, 8164, 8191,3.6996123790740967
20, 8187, 8180, 8158, 8182, 8188, 8157, 8187, 8185, 8281, 8187, 8191, 8165, 8171, 8196,3.7066490650177
20, 8187, 8180, 8158, 8182, 8188, 8157, 8187, 8185, 8281, 8187, 8191, 8165, 8171, 8196,3.7066490650177
21, 8191, 8164, 8164, 8182, 8203, 8163, 8200, 8183, 8191, 8205, 8213, 8138, 8167, 8209,3.7146248817443848
21, 8191, 8164, 8164, 8182, 8203, 8163, 8200, 8183, 8191, 8205, 8213, 8138, 8167, 8209,3.7146248817443848
22, 8222, 8204, 8193, 8203, 8210, 8169, 8202, 8204, 8312, 8202, 8211, 8178, 8175, 8232,3.722618341445923
22, 8222, 8204, 8193, 8203, 8210, 8169, 8202, 8204, 8312, 8202, 8211, 8178, 8175, 8232,3.722618341445923
23, 8203, 8180, 8178, 8190, 8213, 8165, 8200, 8194, 8258, 8206, 8213, 8154, 8165, 8211,3.730644702911377
23, 8203, 8180, 8178, 8190, 8213, 8165, 8200, 8194, 8258, 8206, 8213, 8154, 8165, 8211,3.730644702911377
24, 8201, 8166, 8164, 8180, 8200, 8157, 8184, 8171, 8181, 8195, 8196, 8138, 8152, 8186,3.738649845123291
24, 8201, 8166, 8164, 8180, 8200, 8157, 8184, 8171, 8181, 8195, 8196, 8138, 8152, 8186,3.738649845123291
25, 8183, 8179, 8163, 8175, 8180, 8151, 8172, 8174, 8226, 8172, 8173, 8161, 8159, 8165,3.7466509342193604
25, 8183, 8179, 8163, 8175, 8180, 8151, 8172, 8174, 8226, 8172, 8173, 8161, 8159, 8165,3.7466509342193604
26, 8167, 8165, 8158, 8179, 8204, 8166, 8200, 8193, 8150, 8204, 8201, 8140, 8161, 8176,3.7546496391296387
26, 8167, 8165, 8158, 8179, 8204, 8166, 8200, 8193, 8150, 8204, 8201, 8140, 8161, 8176,3.7546496391296387
27, 8196, 8197, 8186, 8205, 8198, 8175, 8197, 8204, 8265, 8184, 8195, 8170, 8161, 8193,3.76267147064209
27, 8196, 8197, 8186, 8205, 8198, 8175, 8197, 8204, 8265, 8184, 8195, 8170, 8161, 8193,3.76267147064209
28, 8182, 8174, 8172, 8184, 8189, 8163, 8188, 8186, 8207, 8162, 8182, 8140, 8154, 8172,3.770672082901001
28, 8182, 8174, 8172, 8184, 8189, 8163, 8188, 8186, 8207, 8162, 8182, 8140, 8154, 8172,3.770672082901001
29, 8187, 8164, 8157, 8174, 8197, 8162, 8180, 8186, 8155, 8186, 8195, 8139, 8163, 8184,3.7776503562927246
29, 8187, 8164, 8157, 8174, 8197, 8162, 8180, 8186, 8155, 8186, 8195, 8139, 8163, 8184,3.7776503562927246
30, 8188, 8180, 8166, 8176, 8182, 8168, 8165, 8193, 8260, 8189, 8205, 8178, 8174, 8195,3.7856955528259277
30, 8188, 8180, 8166, 8176, 8182, 8168, 8165, 8193, 8260, 8189, 8205, 8178, 8174, 8195,3.7856955528259277
31, 8178, 8162, 8163, 8170, 8189, 8175, 8186, 8183, 8163, 8197, 8213, 8136, 8168, 8194,3.793649673461914
31, 8178, 8162, 8163, 8170, 8189, 8175, 8186, 8183, 8163, 8197, 8213, 8136, 8168, 8194,3.7942187786102295
32, 8211, 8200, 8187, 8197, 8191, 8188, 8189, 8196, 8265, 8199, 8202, 8166, 8175, 8217,3.8012349605560303
32, 8211, 8200, 8187, 8197, 8191, 8188, 8189, 8196, 8265, 8199, 8202, 8166, 8175, 8217,3.8022305965423584
33, 8200, 8181, 8174, 8196, 8197, 8189, 8189, 8197, 8270, 8226, 8214, 8164, 8172, 8215,3.809234857559204
33, 8200, 8181, 8174, 8196, 8197, 8189, 8189, 8197, 8270, 8226, 8214, 8164, 8172, 8215,3.8102304935455322
34, 8202, 8169, 8169, 8198, 8202, 8188, 8191, 8187, 8193, 8225, 8223, 8160, 8163, 8212,3.817650079727173
34, 8202, 8169, 8169, 8198, 8202, 8188, 8191, 8187, 8193, 8225, 8223, 8160, 8163, 8212,3.817650079727173
35, 8215, 8202, 8195, 8211, 8191, 8188, 8181, 8192, 8283, 8176, 8205, 8192, 8165, 8213,3.825650215148926
35, 8215, 8202, 8195, 8211, 8191, 8188, 8181, 8192, 8283, 8176, 8205, 8192, 8165, 8213,3.825650215148926
36, 8207, 8172, 8180, 8203, 8211, 8198, 8195, 8189, 8196, 8190, 8211, 8140, 8157, 8209,3.833682060241699
36, 8207, 8172, 8180, 8203, 8211, 8198, 8195, 8189, 8196, 8190, 8211, 8140, 8157, 8209,3.833682060241699
37, 8221, 8181, 8173, 8207, 8205, 8203, 8182, 8185, 8242, 8185, 8193, 8162, 8156, 8201,3.840691328048706
37, 8221, 8181, 8173, 8207, 8205, 8203, 8182, 8185, 8242, 8185, 8193, 8162, 8156, 8201,3.840691328048706
38, 8201, 8170, 8167, 8199, 8197, 8193, 8175, 8174, 8203, 8166, 8181, 8166, 8152, 8171,3.8486459255218506
38, 8201, 8170, 8167, 8199, 8197, 8193, 8175, 8174, 8203, 8166, 8181, 8166, 8152, 8171,3.8486459255218506
39, 8203, 8170, 8173, 8206, 8209, 8190, 8192, 8179, 8132, 8174, 8202, 8146, 8160, 8190,3.8566668033599854
39, 8203, 8170, 8173, 8206, 8209, 8190, 8192, 8179, 8132, 8174, 8202, 8146, 8160, 8190,3.8566668033599854
40, 8220, 8203, 8192, 8217, 8200, 8184, 8191, 8204, 8288, 8183, 8208, 8186, 8180, 8225,3.8646624088287354
40, 8220, 8203, 8192, 8217, 8200, 8184, 8191, 8204, 8288, 8183, 8208, 8186, 8180, 8225,3.8646624088287354
41, 8197, 8163, 8163, 8197, 8209, 8176, 8208, 8199, 8224, 8226, 8221, 8154, 8170, 8214,3.8726508617401123
41, 8197, 8163, 8163, 8197, 8209, 8176, 8208, 8199, 8224, 8226, 8221, 8154, 8170, 8214,3.8726508617401123
42, 8193, 8167, 8159, 8198, 8187, 8175, 8198, 8191, 8249, 8213, 8208, 8164, 8163, 8207,3.8806490898132324
42, 8193, 8167, 8159, 8198, 8187, 8175, 8198, 8191, 8249, 8213, 8208, 8164, 8163, 8207,3.8806490898132324
43, 8175, 8171, 8158, 8199, 8175, 8160, 8186, 8187, 8244, 8187, 8198, 8167, 8162, 8202,3.888775110244751
43, 8175, 8171, 8158, 8199, 8175, 8160, 8186, 8187, 8244, 8187, 8198, 8167, 8162, 8202,3.888775110244751
44, 8179, 8159, 8158, 8207, 8204, 8159, 8193, 8187, 8176, 8211, 8217, 8159, 8164, 8210,3.8967885971069336
44, 8179, 8159, 8158, 8207, 8204, 8159, 8193, 8187, 8176, 8211, 8217, 8159, 8164, 8210,3.8967885971069336
45, 8199, 8185, 8176, 8221, 8194, 8168, 8176, 8195, 8301, 8205, 8211, 8194, 8172, 8204,3.9037976264953613
45, 8199, 8185, 8176, 8221, 8194, 8168, 8176, 8195, 8301, 8205, 8211, 8194, 8172, 8204,3.9037976264953613
46, 8191, 8166, 8162, 8210, 8200, 8165, 8182, 8180, 8191, 8203, 8207, 8146, 8157, 8180,3.911608934402466
46, 8191, 8166, 8162, 8210, 8200, 8165, 8182, 8180, 8191, 8203, 8207, 8146, 8157, 8180,3.911608934402466
47, 8214, 8183, 8172, 8218, 8203, 8163, 8182, 8182, 8205, 8186, 8202, 8166, 8160, 8198,3.9196062088012695
47, 8214, 8183, 8172, 8218, 8203, 8163, 8182, 8182, 8205, 8186, 8202, 8166, 8160, 8198,3.9196062088012695
48, 8208, 8179, 8174, 8213, 8192, 8163, 8180, 8187, 8246, 8184, 8202, 8176, 8166, 8201,3.927650213241577
48, 8208, 8179, 8174, 8213, 8192, 8163, 8180, 8187, 8246, 8184, 8202, 8176, 8166, 8201,3.927650213241577
49, 8193, 8159, 8160, 8206, 8202, 8167, 8185, 8171, 8131, 8202, 8204, 8139, 8155, 8188,3.9356491565704346
49, 8193, 8159, 8160, 8206, 8202, 8167, 8185, 8171, 8131, 8202, 8204, 8139, 8155, 8188,3.9356491565704346
50, 8191, 8192, 8172, 8214, 8191, 8162, 8162, 8168, 8221, 8167, 8178, 8183, 8159, 8176,3.9436497688293457
50, 8191, 8192, 8172, 8214, 8191, 8162, 8162, 8168, 8221, 8167, 8178, 8183, 8159, 8176,3.9436497688293457
51, 8176, 8171, 8160, 8203, 8198, 8153, 8172, 8167, 8154, 8164, 8186, 8155, 8166, 8164,3.9516680240631104
51, 8176, 8171, 8160, 8203, 8198, 8153, 8172, 8167, 8154, 8164, 8186, 8155, 8166, 8164,3.952671766281128
52, 8191, 8178, 8166, 8213, 8201, 8154, 8167, 8164, 8164, 8168, 8197, 8159, 8175, 8181,3.9597561359405518
52, 8191, 8178, 8166, 8213, 8201, 8154, 8167, 8164, 8164, 8168, 8197, 8159, 8175, 8181,3.9597561359405518
53, 8177, 8175, 8164, 8208, 8183, 8151, 8153, 8162, 8202, 8158, 8188, 8173, 8171, 8175,3.967756748199463
53, 8177, 8175, 8164, 8208, 8183, 8151, 8153, 8162, 8202, 8158, 8188, 8173, 8171, 8175,3.967756748199463
54, 8172, 8150, 8145, 8194, 8189, 8155, 8176, 8176, 8108, 8181, 8189, 8138, 8164, 8171,3.9747960567474365
54, 8172, 8150, 8145, 8194, 8189, 8155, 8176, 8176, 8108, 8181, 8189, 8138, 8164, 8171,3.9747960567474365
55, 8188, 8181, 8157, 8204, 8185, 8154, 8179, 8192, 8228, 8178, 8173, 8173, 8170, 8186,3.9829609394073486
55, 8188, 8181, 8157, 8204, 8185, 8154, 8179, 8192, 8228, 8178, 8173, 8173, 8170, 8186,3.9829609394073486
56, 8167, 8156, 8141, 8192, 8198, 8147, 8184, 8174, 8160, 8179, 8176, 8151, 8159, 8180,3.9907374382019043
56, 8167, 8156, 8141, 8192, 8198, 8147, 8184, 8174, 8160, 8179, 8176, 8151, 8159, 8180,3.9907374382019043
57, 8180, 8160, 8146, 8197, 8200, 8148, 8177, 8168, 8149, 8182, 8186, 8154, 8161, 8185,3.9987268447875977
57, 8180, 8160, 8146, 8197, 8200, 8148, 8177, 8168, 8149, 8182, 8186, 8154, 8161, 8185,3.9987268447875977
58, 8176, 8172, 8153, 8199, 8190, 8140, 8160, 8174, 8221, 8182, 8181, 8166, 8167, 8169,4.006648540496826
58, 8176, 8172, 8153, 8199, 8190, 8140, 8160, 8174, 8221, 8182, 8181, 8166, 8167, 8169,4.006648540496826
59, 8167, 8150, 8145, 8201, 8218, 8140, 8169, 8171, 8119, 8193, 8183, 8135, 8161, 8163,4.014722108840942
59, 8167, 8150, 8145, 8201, 8218, 8140, 8169, 8171, 8119, 8193, 8183, 8135, 8161, 8163,4.014722108840942
60, 8191, 8184, 8176, 8230, 8214, 8147, 8165, 8181, 8227, 8168, 8174, 8183, 8173, 8176,4.022720098495483
60, 8191, 8184, 8176, 8230, 8214, 8147, 8165, 8181, 8227, 8168, 8174, 8183, 8173, 8176,4.022720098495483
61, 8189, 8171, 8173, 8223, 8217, 8154, 8183, 8187, 8207, 8195, 8201, 8167, 8173, 8179,4.0306549072265625
61, 8189, 8171, 8173, 8223, 8217, 8154, 8183, 8187, 8207, 8195, 8201, 8167, 8173, 8179,4.0306549072265625
62, 8206, 8171, 8170, 8215, 8227, 8164, 8193, 8193, 8209, 8229, 8218, 8163, 8175, 8205,4.037650108337402
62, 8206, 8171, 8170, 8215, 8227, 8164, 8193, 8193, 8209, 8229, 8218, 8163, 8175, 8205,4.037650108337402
63, 8180, 8176, 8165, 8203, 8208, 8155, 8172, 8188, 8277, 8199, 8200, 8180, 8179, 8190,4.045655727386475
63, 8180, 8176, 8165, 8203, 8208, 8155, 8172, 8188, 8277, 8199, 8200, 8180, 8179, 8190,4.045655727386475
64, 8164, 8155, 8138, 8194, 8216, 8143, 8182, 8169, 8133, 8205, 8203, 8132, 8162, 8166,4.05331563949585
64, 8164, 8155, 8138, 8194, 8216, 8143, 8182, 8169, 8133, 8205, 8203, 8132, 8162, 8166,4.05331563949585
65, 8200, 8190, 8154, 8210, 8219, 8138, 8172, 8171, 8205, 8197, 8186, 8160, 8159, 8184,4.061322450637817
65, 8200, 8190, 8154, 8210, 8219, 8138, 8172, 8171, 8205, 8197, 8186, 8160, 8159, 8184,4.061322450637817
66, 8167, 8166, 8149, 8187, 8229, 8131, 8166, 8170, 8182, 8185, 8190, 8149, 8163, 8171,4.0696187019348145
66, 8167, 8166, 8149, 8187, 8229, 8131, 8166, 8170, 8182, 8185, 8190, 8149, 8163, 8171,4.0696187019348145
67, 8167, 8160, 8140, 8184, 8229, 8139, 8179, 8175, 8149, 8183, 8196, 8147, 8167, 8165,4.0783936977386475
67, 8167, 8160, 8140, 8184, 8229, 8139, 8179, 8175, 8149, 8183, 8196, 8147, 8167, 8165,4.0783936977386475
68, 8183, 8183, 8154, 8202, 8208, 8140, 8177, 8182, 8239, 8173, 8181, 8175, 8166, 8167,4.084918737411499
68, 8183, 8183, 8154, 8202, 8208, 8140, 8177, 8182, 8239, 8173, 8181, 8175, 8166, 8167,4.085924386978149
69, 8164, 8151, 8159, 8204, 8225, 8134, 8185, 8181, 8151, 8202, 8212, 8132, 8164, 8166,4.093924045562744
69, 8164, 8151, 8159, 8204, 8225, 8134, 8185, 8181, 8151, 8202, 8212, 8132, 8164, 8166,4.093924045562744
70, 8187, 8176, 8175, 8210, 8224, 8138, 8184, 8193, 8258, 8209, 8223, 8168, 8177, 8182,4.101654529571533
70, 8187, 8176, 8175, 8210, 8224, 8138, 8184, 8193, 8258, 8209, 8223, 8168, 8177, 8182,4.101654529571533
71, 8182, 8169, 8151, 8197, 8223, 8140, 8196, 8189, 8249, 8211, 8213, 8161, 8172, 8178,4.108410120010376
71, 8182, 8169, 8151, 8197, 8223, 8140, 8196, 8189, 8249, 8211, 8213, 8161, 8172, 8178,4.108410120010376
72, 8176, 8159, 8141, 8206, 8233, 8143, 8199, 8184, 8176, 8209, 8213, 8138, 8164, 8174,4.1164116859436035
72, 8176, 8159, 8141, 8206, 8233, 8143, 8199, 8184, 8176, 8209, 8213, 8138, 8164, 8174,4.1164116859436035
73, 8186, 8187, 8165, 8216, 8222, 8138, 8185, 8198, 8286, 8202, 8207, 8175, 8169, 8171,4.1244542598724365
73, 8186, 8187, 8165, 8216, 8222, 8138, 8185, 8198, 8286, 8202, 8207, 8175, 8169, 8171,4.1244542598724365
74, 8195, 8168, 8162, 8201, 8234, 8136, 8206, 8191, 8201, 8233, 8220, 8150, 8161, 8183,4.132409334182739
74, 8195, 8168, 8162, 8201, 8234, 8136, 8206, 8191, 8201, 8233, 8220, 8150, 8161, 8183,4.132409334182739
75, 8204, 8182, 8181, 8205, 8219, 8135, 8190, 8183, 8251, 8203, 8224, 8173, 8168, 8205,4.140410661697388
75, 8204, 8182, 8181, 8205, 8219, 8135, 8190, 8183, 8251, 8203, 8224, 8173, 8168, 8205,4.140410661697388
76, 8178, 8170, 8171, 8203, 8205, 8129, 8174, 8189, 8251, 8187, 8235, 8166, 8172, 8185,4.149038791656494
76, 8178, 8170, 8171, 8203, 8205, 8129, 8174, 8189, 8251, 8187, 8235, 8166, 8172, 8185,4.149038791656494
77, 8196, 8159, 8149, 8201, 8220, 8141, 8197, 8190, 8179, 8216, 8227, 8144, 8162, 8177,4.156064033508301
77, 8196, 8159, 8149, 8201, 8220, 8141, 8197, 8190, 8179, 8216, 8227, 8144, 8162, 8177,4.1570539474487305
78, 8200, 8175, 8158, 8193, 8213, 8143, 8195, 8187, 8269, 8192, 8199, 8178, 8158, 8174,4.1646568775177
78, 8200, 8175, 8158, 8193, 8213, 8143, 8195, 8187, 8269, 8192, 8199, 8178, 8158, 8174,4.1646568775177
79, 8161, 8147, 8152, 8176, 8219, 8132, 8200, 8188, 8170, 8195, 8220, 8147, 8158, 8162,4.171703577041626
79, 8161, 8147, 8152, 8176, 8219, 8132, 8200, 8188, 8170, 8195, 8220, 8147, 8158, 8162,4.171703577041626
80, 8186, 8172, 8160, 8193, 8205, 8134, 8195, 8197, 8207, 8192, 8209, 8168, 8165, 8175,4.179206609725952
80, 8186, 8172, 8160, 8193, 8205, 8134, 8195, 8197, 8207, 8192, 8209, 8168, 8165, 8175,4.179206609725952
81, 8190, 8169, 8157, 8186, 8190, 8135, 8187, 8176, 8201, 8178, 8187, 8165, 8159, 8169,4.1872076988220215
81, 8190, 8169, 8157, 8186, 8190, 8135, 8187, 8176, 8201, 8178, 8187, 8165, 8159, 8169,4.1872076988220215
82, 8178, 8150, 8156, 8183, 8205, 8132, 8188, 8170, 8119, 8191, 8202, 8142, 8155, 8171,4.195644855499268
82, 8178, 8150, 8156, 8183, 8205, 8132, 8188, 8170, 8119, 8191, 8202, 8142, 8155, 8171,4.195644855499268
83, 8184, 8181, 8167, 8203, 8191, 8122, 8180, 8197, 8255, 8177, 8193, 8176, 8165, 8180,4.203880071640015
83, 8184, 8181, 8167, 8203, 8191, 8122, 8180, 8197, 8255, 8177, 8193, 8176, 8165, 8180,4.203880071640015
84, 8174, 8155, 8139, 8183, 8187, 8117, 8196, 8183, 8156, 8177, 8179, 8131, 8156, 8166,4.211879730224609
84, 8174, 8155, 8139, 8183, 8187, 8117, 8196, 8183, 8156, 8177, 8179, 8131, 8156, 8166,4.211879730224609
85, 8188, 8165, 8152, 8182, 8179, 8119, 8190, 8169, 8161, 8170, 8179, 8155, 8165, 8171,4.2199156284332275
85, 8188, 8165, 8152, 8182, 8179, 8119, 8190, 8169, 8161, 8170, 8179, 8155, 8165, 8171,4.2199156284332275
86, 8185, 8174, 8173, 8191, 8179, 8117, 8185, 8187, 8235, 8182, 8202, 8180, 8178, 8170,4.227655649185181
86, 8185, 8174, 8173, 8191, 8179, 8117, 8185, 8187, 8235, 8182, 8202, 8180, 8178, 8170,4.227655649185181
87, 8196, 8167, 8166, 8189, 8206, 8129, 8204, 8196, 8172, 8216, 8220, 8142, 8171, 8186,4.235382080078125
87, 8196, 8167, 8166, 8189, 8206, 8129, 8204, 8196, 8172, 8216, 8220, 8142, 8171, 8186,4.235382080078125
88, 8203, 8193, 8175, 8183, 8191, 8131, 8186, 8187, 8261, 8198, 8199, 8168, 8169, 8193,4.242394924163818
88, 8203, 8193, 8175, 8183, 8191, 8131, 8186, 8187, 8261, 8198, 8199, 8168, 8169, 8193,4.242394924163818
89, 8167, 8153, 8151, 8162, 8178, 8113, 8177, 8166, 8146, 8195, 8191, 8135, 8156, 8158,4.250397682189941
89, 8167, 8153, 8151, 8162, 8178, 8113, 8177, 8166, 8146, 8195, 8191, 8135, 8156, 8158,4.250397682189941
90, 8176, 8157, 8148, 8167, 8169, 8098, 8167, 8164, 8114, 8167, 8175, 8141, 8153, 8153,4.258650064468384
90, 8176, 8157, 8148, 8167, 8169, 8098, 8167, 8164, 8114, 8167, 8175, 8141, 8153, 8153,4.258650064468384
91, 8163, 8169, 8151, 8165, 8165, 8089, 8157, 8163, 8141, 8127, 8162, 8155, 8158, 8146,4.2672295570373535
91, 8163, 8169, 8151, 8165, 8165, 8089, 8157, 8163, 8141, 8127, 8162, 8155, 8158, 8146,4.2672295570373535
92, 8156, 8146, 8144, 8162, 8180, 8098, 8173, 8156, 8036, 8146, 8169, 8125, 8154, 8135,4.274462938308716
92, 8156, 8146, 8144, 8162, 8180, 8098, 8173, 8156, 8036, 8146, 8169, 8125, 8154, 8135,4.274462938308716
93, 8184, 8177, 8169, 8177, 8162, 8111, 8169, 8174, 8158, 8154, 8163, 8173, 8166, 8144,4.282455921173096
93, 8184, 8177, 8169, 8177, 8162, 8111, 8169, 8174, 8158, 8154, 8163, 8173, 8166, 8144,4.282455921173096
94, 8175, 8163, 8168, 8163, 8178, 8114, 8191, 8185, 8137, 8173, 8190, 8158, 8173, 8156,4.290649890899658
94, 8175, 8163, 8168, 8163, 8178, 8114, 8191, 8185, 8137, 8173, 8190, 8158, 8173, 8156,4.290649890899658
95, 8193, 8166, 8175, 8162, 8191, 8124, 8211, 8194, 8164, 8179, 8199, 8158, 8171, 8180,4.2979090213775635
95, 8193, 8166, 8175, 8162, 8191, 8124, 8211, 8194, 8164, 8179, 8199, 8158, 8171, 8180,4.2979090213775635
96, 8180, 8167, 8164, 8155, 8169, 8121, 8195, 8188, 8219, 8170, 8169, 8163, 8160, 8160,4.305649518966675
96, 8180, 8167, 8164, 8155, 8169, 8121, 8195, 8188, 8219, 8170, 8169, 8163, 8160, 8160,4.305649518966675
97, 8154, 8144, 8135, 8145, 8178, 8115, 8186, 8168, 8066, 8174, 8165, 8118, 8147, 8133,4.313597202301025
97, 8154, 8144, 8135, 8145, 8178, 8115, 8186, 8168, 8066, 8174, 8165, 8118, 8147, 8133,4.313597202301025
98, 8174, 8181, 8163, 8160, 8172, 8118, 8170, 8170, 8153, 8138, 8165, 8161, 8161, 8149,4.321603536605835
98, 8174, 8181, 8163, 8160, 8172, 8118, 8170, 8170, 8153, 8138, 8165, 8161, 8161, 8149,4.321603536605835
99, 8172, 8163, 8176, 8152, 8162, 8125, 8179, 8171, 8140, 8146, 8181, 8153, 8166, 8158,4.329636335372925
99, 8172, 8163, 8176, 8152, 8162, 8125, 8179, 8171, 8140, 8146, 8181, 8153, 8166, 8158,4.329636335372925
100, 8196, 8164, 8184, 8161, 8155, 8129, 8176, 8170, 8127, 8168, 8185, 8156, 8166, 8175,4.337651014328003
100, 8196, 8164, 8184, 8161, 8155, 8129, 8176, 8170, 8127, 8168, 8185, 8156, 8166, 8175,4.337651014328003
101, 8191, 8178, 8195, 8165, 8141, 8123, 8156, 8163, 8193, 8147, 8178, 8185, 8169, 8175,4.34564995765686
101, 8191, 8178, 8195, 8165, 8141, 8123, 8156, 8163, 8193, 8147, 8178, 8185, 8169, 8175,4.34564995765686
102, 8173, 8148, 8188, 8152, 8148, 8125, 8169, 8160, 8081, 8159, 8201, 8153, 8166, 8172,4.353649616241455
102, 8173, 8148, 8188, 8152, 8148, 8125, 8169, 8160, 8081, 8159, 8201, 8153, 8166, 8172,4.353649616241455
103, 8212, 8183, 8220, 8182, 8142, 8127, 8170, 8179, 8197, 8157, 8203, 8195, 8175, 8194,4.362110376358032
103, 8212, 8183, 8220, 8182, 8142, 8127, 8170, 8179, 8197, 8157, 8203, 8195, 8175, 8194,4.362110376358032
104, 8212, 8182, 8236, 8196, 8163, 8122, 8181, 8178, 8204, 8161, 8219, 8182, 8169, 8195,4.3696112632751465
104, 8212, 8182, 8236, 8196, 8163, 8122, 8181, 8178, 8204, 8161, 8219, 8182, 8169, 8195,4.3696112632751465
105, 8217, 8183, 8241, 8203, 8179, 8130, 8193, 8181, 8175, 8174, 8223, 8164, 8163, 8199,4.37615704536438
105, 8217, 8183, 8241, 8203, 8179, 8130, 8193, 8181, 8175, 8174, 8223, 8164, 8163, 8199,4.377155303955078
106, 8224, 8207, 8249, 8208, 8161, 8127, 8182, 8189, 8268, 8162, 8206, 8195, 8169, 8188,4.38416051864624
106, 8224, 8207, 8249, 8208, 8161, 8127, 8182, 8189, 8268, 8162, 8206, 8195, 8169, 8188,4.38416051864624
107, 8208, 8179, 8229, 8198, 8181, 8119, 8189, 8174, 8161, 8171, 8226, 8161, 8163, 8176,4.392196893692017
107, 8208, 8179, 8229, 8198, 8181, 8119, 8189, 8174, 8161, 8171, 8226, 8161, 8163, 8176,4.392196893692017
108, 8208, 8185, 8221, 8196, 8175, 8113, 8167, 8165, 8220, 8142, 8214, 8171, 8162, 8178,4.400193691253662
108, 8208, 8185, 8221, 8196, 8175, 8113, 8167, 8165, 8220, 8142, 8214, 8171, 8162, 8178,4.400193691253662
109, 8169, 8155, 8184, 8168, 8162, 8096, 8147, 8151, 8150, 8111, 8175, 8141, 8152, 8146,4.408193588256836
109, 8169, 8155, 8184, 8168, 8162, 8096, 8147, 8151, 8150, 8111, 8175, 8141, 8152, 8146,4.408193588256836
110, 8169, 8150, 8179, 8170, 8172, 8097, 8155, 8148, 8048, 8117, 8164, 8137, 8146, 8145,4.416195869445801
110, 8169, 8150, 8179, 8170, 8172, 8097, 8155, 8148, 8048, 8117, 8164, 8137, 8146, 8145,4.416195869445801
111, 8193, 8195, 8219, 8192, 8161, 8104, 8162, 8175, 8191, 8140, 8189, 8196, 8165, 8179,4.424193859100342
111, 8193, 8195, 8219, 8192, 8161, 8104, 8162, 8175, 8191, 8140, 8189, 8196, 8165, 8179,4.424193859100342
112, 8192, 8172, 8217, 8185, 8172, 8101, 8184, 8187, 8150, 8183, 8230, 8161, 8170, 8200,4.4311933517456055
112, 8192, 8172, 8217, 8185, 8172, 8101, 8184, 8187, 8150, 8183, 8230, 8161, 8170, 8200,4.4311933517456055
113, 8214, 8181, 8223, 8187, 8171, 8102, 8177, 8186, 8219, 8161, 8222, 8182, 8173, 8212,4.439194202423096
113, 8214, 8181, 8223, 8187, 8171, 8102, 8177, 8186, 8219, 8161, 8222, 8182, 8173, 8212,4.439194202423096
114, 8191, 8170, 8205, 8172, 8170, 8108, 8174, 8176, 8211, 8148, 8221, 8175, 8165, 8189,4.447193622589111
114, 8191, 8170, 8205, 8172, 8170, 8108, 8174, 8176, 8211, 8148, 8221, 8175, 8165, 8189,4.447193622589111
115, 8175, 8160, 8186, 8171, 8186, 8120, 8174, 8169, 8125, 8169, 8232, 8145, 8154, 8177,4.455193758010864
115, 8175, 8160, 8186, 8171, 8186, 8120, 8174, 8169, 8125, 8169, 8232, 8145, 8154, 8177,4.455193758010864
116, 8186, 8181, 8195, 8179, 8177, 8127, 8155, 8168, 8209, 8136, 8191, 8179, 8155, 8168,4.463198900222778
