COUNTER,F3,FC5,AF3,F7,T7,P7,O1,O2,P8,T8,F8,AF4,FC6,F4,Timestamp
68, 8128, 8142, 8163, 8171, 8145, 8186, 8160, 8169, 8130, 8142, 8153, 8136, 8129, 8108,0.02749776840209961
69, 8154, 8147, 8150, 8171, 8143, 8169, 8160, 8157, 8166, 8165, 8180, 8151, 8161, 8128,0.02749776840209961
70, 8178, 8157, 8192, 8161, 8130, 8151, 8129, 8184, 8157, 8146, 8182, 8173, 8156, 8138,0.04216432571411133
71, 8169, 8149, 8162, 8173, 8138, 8144, 8123, 8145, 8147, 8131, 8184, 8164, 8148, 8109,0.05739140510559082
72, 8166, 8152, 8174, 8164, 8146, 8140, 8118, 8164, 8128, 8113, 8183, 8166, 8144, 8111,0.05739140510559082
73, 8180, 8182, 8184, 8179, 8155, 8155, 8129, 8177, 8124, 8111, 8193, 8183, 8147, 8121,0.07402944564819336
74, 8186, 8188, 8164, 8200, 8166, 8159, 8139, 8142, 8129, 8120, 8209, 8181, 8147, 8110,0.07402944564819336
75, 8173, 8182, 8199, 8192, 8166, 8169, 8130, 8170, 8110, 8122, 8188, 8176, 8131, 8116,0.0891103744506836
76, 8150, 8156, 8155, 8204, 8161, 8178, 8152, 8156, 8126, 8150, 8162, 8142, 8136, 8114,0.0891103744506836
77, 8153, 8127, 8157, 8166, 8139, 8152, 8142, 8166, 8131, 8140, 8132, 8130, 8132, 8123,0.10444211959838867
78, 8163, 8145, 8178, 8134, 8130, 8127, 8108, 8168, 8128, 8123, 8153, 8160, 8140, 8119,0.10444211959838867
79, 8153, 8164, 8142, 8156, 8152, 8127, 8101, 8135, 8122, 8122, 8181, 8157, 8145, 8089,0.12099075317382812
80, 8142, 8165, 8173, 8161, 8162, 8163, 8120, 8175, 8100, 8103, 8142, 8129, 8105, 8088,0.12099075317382812
81, 8133, 8145, 8148, 8166, 8156, 8194, 8160, 8160, 8122, 8134, 8120, 8106, 8096, 8091,0.13767671585083008
82, 8135, 8119, 8141, 8137, 8145, 8184, 8160, 8164, 8149, 8161, 8118, 8112, 8118, 8100,0.13767671585083008
83, 8133, 8117, 8163, 8101, 8142, 8182, 8147, 8190, 8173, 8159, 8127, 8133, 8139, 8100,0.13767671585083008
84, 8131, 8119, 8129, 8097, 8143, 8171, 8139, 8155, 8188, 8155, 8141, 8126, 8142, 8084,0.15135669708251953
85, 8147, 8132, 8154, 8084, 8142, 8157, 8115, 8178, 8160, 8137, 8138, 8137, 8127, 8093,0.16647100448608398
86, 8143, 8139, 8133, 8093, 8148, 8159, 8125, 8160, 8156, 8139, 8146, 8136, 8127, 8078,0.16647100448608398
87, 8126, 8134, 8126, 8087, 8148, 8161, 8132, 8155, 8150, 8125, 8138, 8113, 8106, 8061,0.1820230484008789
88, 8120, 8148, 8155, 8089, 8154, 8185, 8146, 8184, 8145, 8131, 8137, 8110, 8093, 8070,0.1820230484008789
89, 8119, 8150, 8121, 8118, 8168, 8193, 8172, 8157, 8163, 8168, 8140, 8096, 8102, 8067,0.19741153717041016
90, 8123, 8154, 8152, 8122, 8161, 8195, 8167, 8186, 8151, 8153, 8113, 8093, 8085, 8078,0.19741153717041016
91, 8122, 8156, 8139, 8143, 8159, 8206, 8176, 8178, 8160, 8156, 8109, 8091, 8085, 8082,0.2130753993988037
92, 8116, 8131, 8122, 8133, 8158, 8196, 8177, 8169, 8171, 8175, 8102, 8085, 8092, 8089,0.2130753993988037
93, 8124, 8130, 8157, 8105, 8148, 8195, 8172, 8194, 8180, 8190, 8104, 8110, 8109, 8116,0.22809457778930664
94, 8150, 8139, 8132, 8113, 8152, 8182, 8169, 8163, 8215, 8212, 8149, 8136, 8147, 8120,0.22809457778930664
95, 8161, 8148, 8157, 8093, 8154, 8160, 8136, 8184, 8199, 8184, 8163, 8159, 8143, 8117,0.24419474601745605
96, 8138, 8166, 8145, 8100, 8158, 8165, 8128, 8164, 8167, 8162, 8164, 8159, 8128, 8095,0.24419474601745605
97, 8138, 8176, 8138, 8130, 8169, 8172, 8136, 8146, 8150, 8169, 8166, 8142, 8123, 8093,0.25942325592041016
98, 8152, 8177, 8180, 8146, 8177, 8195, 8153, 8186, 8157, 8193, 8163, 8142, 8123, 8119,0.25942325592041016
99, 8134, 8143, 8131, 8142, 8178, 8202, 8181, 8160, 8196, 8226, 8165, 8123, 8134, 8113,0.27466750144958496
100, 8131, 8117, 8138, 8097, 8158, 8182, 8162, 8176, 8197, 8204, 8143, 8123, 8137, 8115,0.27466750144958496
101, 8146, 8137, 8141, 8089, 8152, 8165, 8141, 8172, 8191, 8189, 8148, 8138, 8150, 8110,0.2897639274597168
102, 8154, 8158, 8133, 8110, 8158, 8144, 8137, 8149, 8167, 8184, 8172, 8140, 8152, 8095,0.2897639274597168
103, 8148, 8177, 8168, 8127, 8157, 8156, 8132, 8174, 8135, 8160, 8163, 8146, 8131, 8094,0.30489063262939453
104, 8127, 8168, 8129, 8153, 8159, 8186, 8153, 8147, 8152, 8174, 8141, 8121, 8122, 8086,0.30489063262939453
105, 8122, 8148, 8138, 8127, 8159, 8193, 8172, 8170, 8157, 8192, 8110, 8107, 8119, 8107,0.3201122283935547
106, 8130, 8141, 8136, 8098, 8153, 8183, 8179, 8177, 8175, 8209, 8139, 8126, 8146, 8120,0.3201122283935547
107, 8135, 8130, 8113, 8088, 8136, 8149, 8147, 8153, 8183, 8192, 8177, 8139, 8164, 8105,0.3362109661102295
108, 8137, 8156, 8157, 8089, 8133, 8142, 8109, 8177, 8146, 8144, 8158, 8148, 8138, 8093,0.3362109661102295
109, 8131, 8182, 8127, 8123, 8161, 8161, 8127, 8150, 8139, 8151, 8165, 8143, 8127, 8073,0.3514080047607422
110, 8130, 8176, 8141, 8121, 8165, 8165, 8127, 8165, 8126, 8150, 8174, 8144, 8121, 8079,0.3514080047607422
111, 8129, 8175, 8166, 8129, 8163, 8176, 8133, 8169, 8116, 8137, 8169, 8141, 8122, 8082,0.36744070053100586
112, 8127, 8162, 8135, 8148, 8179, 8183, 8157, 8140, 8124, 8147, 8160, 8126, 8120, 8075,0.36744070053100586
113, 8130, 8147, 8164, 8130, 8178, 8195, 8159, 8183, 8132, 8162, 8147, 8133, 8109, 8100,0.3834211826324463
114, 8120, 8132, 8142, 8139, 8168, 8198, 8166, 8164, 8156, 8189, 8150, 8121, 8123, 8106,0.3834211826324463
115, 8120, 8125, 8143, 8132, 8160, 8182, 8161, 8165, 8147, 8176, 8138, 8115, 8125, 8111,0.39849090576171875
116, 8120, 8124, 8147, 8112, 8159, 8185, 8167, 8181, 8151, 8175, 8145, 8130, 8126, 8117,0.39849090576171875
117, 8120, 8110, 8118, 8112, 8165, 8178, 8174, 8156, 8179, 8202, 8158, 8122, 8138, 8114,0.41401004791259766
118, 8138, 8122, 8164, 8102, 8151, 8162, 8149, 8181, 8174, 8189, 8153, 8138, 8139, 8129,0.41401004791259766
119, 8141, 8138, 8142, 8110, 8141, 8151, 8136, 8155, 8172, 8172, 8178, 8159, 8150, 8115,0.4299890995025635
120, 8133, 8145, 8137, 8115, 8153, 8139, 8118, 8154, 8142, 8136, 8175, 8154, 8129, 8097,0.4299890995025635
121, 8135, 8172, 8168, 8146, 8170, 8156, 8119, 8175, 8119, 8126, 8166, 8155, 8115, 8099,0.44597363471984863
122, 8138, 8175, 8141, 8179, 8170, 8167, 8138, 8148, 8147, 8165, 8193, 8157, 8142, 8104,0.44597363471984863
123, 8128, 8164, 8174, 8159, 8156, 8169, 8130, 8180, 8147, 8165, 8183, 8162, 8136, 8117,0.46063876152038574
124, 8109, 8157, 8148, 8174, 8159, 8176, 8135, 8161, 8137, 8163, 8165, 8138, 8125, 8104,0.46063876152038574
125, 8112, 8143, 8133, 8171, 8153, 8179, 8143, 8156, 8138, 8176, 8160, 8126, 8136, 8110,0.47641801834106445
126, 8123, 8135, 8161, 8135, 8140, 8192, 8152, 8188, 8167, 8201, 8170, 8155, 8157, 8135,0.49201416969299316
127, 8126, 8125, 8129, 8132, 8139, 8177, 8163, 8155, 8196, 8228, 8190, 8152, 8172, 8128,0.49201416969299316
236, 8133, 8133, 8162, 8129, 8133, 8164, 8145, 8174, 8173, 8201, 8174, 8143, 8157, 8125,0.49201416969299316
0, 8133, 8142, 8154, 8141, 8137, 8175, 8153, 8164, 8184, 8193, 8168, 8147, 8160, 8122,0.5071957111358643
1, 8145, 8135, 8144, 8132, 8140, 8155, 8148, 8154, 8194, 8190, 8184, 8168, 8173, 8130,0.5071957111358643
2, 8164, 8155, 8183, 8122, 8142, 8136, 8120, 8174, 8159, 8158, 8205, 8204, 8176, 8136,0.5227746963500977
3, 8169, 8169, 8153, 8141, 8155, 8130, 8114, 8136, 8139, 8138, 8212, 8194, 8177, 8111,0.5237751007080078
4, 8172, 8168, 8180, 8123, 8148, 8135, 8107, 8159, 8128, 8126, 8199, 8185, 8161, 8115,0.5399658679962158
5, 8165, 8171, 8175, 8127, 8145, 8148, 8116, 8153, 8140, 8149, 8216, 8196, 8163, 8114,0.5399658679962158
6, 8157, 8173, 8155, 8149, 8162, 8145, 8113, 8140, 8131, 8140, 8207, 8187, 8152, 8099,0.5533826351165771
7, 8157, 8190, 8188, 8158, 8170, 8158, 8112, 8172, 8112, 8121, 8183, 8180, 8129, 8105,0.571000337600708
8, 8156, 8185, 8158, 8175, 8162, 8169, 8132, 8143, 8128, 8152, 8194, 8167, 8130, 8102,0.571000337600708
9, 8150, 8166, 8179, 8163, 8153, 8174, 8128, 8166, 8124, 8144, 8163, 8160, 8116, 8107,0.571000337600708
10, 8133, 8150, 8169, 8167, 8161, 8196, 8152, 8167, 8144, 8149, 8134, 8151, 8123, 8109,0.5841598510742188
11, 8138, 8134, 8150, 8169, 8164, 8198, 8179, 8152, 8174, 8184, 8148, 8150, 8147, 8120,0.5993568897247314
12, 8167, 8154, 8202, 8162, 8164, 8200, 8176, 8189, 8180, 8199, 8170, 8180, 8171, 8152,0.5993568897247314
13, 8172, 8158, 8162, 8178, 8160, 8182, 8170, 8155, 8189, 8199, 8183, 8179, 8212, 8145,0.6144962310791016
14, 8169, 8139, 8165, 8150, 8135, 8145, 8140, 8165, 8168, 8158, 8163, 8179, 8219, 8142,0.6144962310791016
15, 8175, 8145, 8177, 8132, 8135, 8147, 8133, 8178, 8179, 8158, 8176, 8202, 8230, 8145,0.6300771236419678
16, 8178, 8147, 8152, 8133, 8145, 8142, 8127, 8153, 8188, 8183, 8205, 8205, 8257, 8133,0.6300771236419678
17, 8177, 8160, 8188, 8133, 8143, 8135, 8099, 8171, 8138, 8148, 8189, 8204, 8247, 8122,0.6461842060089111
18, 8167, 8178, 8167, 8179, 8160, 8151, 8113, 8142, 8127, 8138, 8179, 8189, 8228, 8100,0.6461842060089111
19, 8165, 8184, 8183, 8195, 8168, 8161, 8124, 8163, 8125, 8145, 8172, 8185, 8209, 8109,0.66123366355896
20, 8169, 8193, 8200, 8196, 8165, 8170, 8131, 8183, 8116, 8154, 8184, 8196, 8212, 8125,0.66123366355896
21, 8176, 8187, 8171, 8209, 8176, 8172, 8146, 8152, 8130, 8174, 8196, 8193, 8216, 8128,0.6772644519805908
22, 8182, 8184, 8208, 8203, 8178, 8188, 8150, 8176, 8137, 8176, 8176, 8191, 8194, 8141,0.6772644519805908
23, 8166, 8175, 8178, 8218, 8171, 8201, 8171, 8155, 8149, 8188, 8168, 8167, 8190, 8129,0.6931197643280029
24, 8163, 8158, 8171, 8192, 8162, 8184, 8165, 8163, 8144, 8183, 8155, 8162, 8182, 8136,0.6931197643280029
25, 8171, 8155, 8185, 8156, 8161, 8168, 8149, 8182, 8161, 8187, 8158, 8187, 8183, 8149,0.7083308696746826
26, 8173, 8152, 8152, 8167, 8166, 8155, 8155, 8149, 8193, 8198, 8169, 8183, 8192, 8126,0.7083308696746826
27, 8178, 8151, 8185, 8163, 8160, 8155, 8152, 8178, 8188, 8183, 8161, 8186, 8186, 8131,0.7234563827514648
28, 8170, 8140, 8154, 8145, 8159, 8157, 8157, 8162, 8200, 8193, 8186, 8188, 8203, 8133,0.7234563827514648
29, 8171, 8149, 8145, 8143, 8162, 8141, 8137, 8158, 8187, 8177, 8198, 8188, 8201, 8121,0.7393476963043213
30, 8178, 8184, 8176, 8185, 8162, 8140, 8117, 8174, 8159, 8152, 8188, 8200, 8185, 8108,0.7393476963043213
31, 8176, 8178, 8141, 8207, 8161, 8132, 8117, 8140, 8151, 8152, 8188, 8181, 8176, 8091,0.755101203918457
32, 8176, 8168, 8167, 8172, 8158, 8133, 8104, 8162, 8136, 8135, 8182, 8174, 8159, 8105,0.755101203918457
33, 8165, 8182, 8160, 8196, 8178, 8154, 8121, 8149, 8160, 8148, 8187, 8179, 8166, 8104,0.7703413963317871
34, 8169, 8181, 8160, 8216, 8195, 8163, 8141, 8157, 8168, 8153, 8175, 8173, 8162, 8105,0.7703413963317871
35, 8164, 8168, 8173, 8198, 8185, 8179, 8158, 8181, 8149, 8147, 8152, 8156, 8136, 8109,0.7864089012145996
36, 8134, 8144, 8123, 8200, 8175, 8182, 8182, 8143, 8161, 8168, 8136, 8120, 8128, 8093,0.7864089012145996
37, 8137, 8145, 8160, 8188, 8168, 8182, 8178, 8184, 8168, 8173, 8111, 8131, 8132, 8114,0.8021585941314697
38, 8155, 8152, 8154, 8190, 8171, 8190, 8187, 8184, 8181, 8194, 8126, 8150, 8152, 8132,0.8021585941314697
39, 8159, 8132, 8132, 8175, 8160, 8171, 8183, 8159, 8182, 8201, 8141, 8144, 8158, 8136,0.8173270225524902
40, 8159, 8132, 8170, 8149, 8145, 8158, 8163, 8178, 8179, 8181, 8133, 8163, 8160, 8144,0.8173270225524902
41, 8161, 8137, 8141, 8154, 8150, 8138, 8152, 8148, 8188, 8175, 8140, 8170, 8174, 8129,0.8325791358947754
42, 8158, 8133, 8157, 8129, 8147, 8114, 8125, 8171, 8152, 8142, 8126, 8162, 8154, 8119,0.8325791358947754
43, 8154, 8139, 8147, 8124, 8147, 8128, 8129, 8167, 8151, 8143, 8144, 8163, 8158, 8108,0.8479690551757812
44, 8164, 8151, 8141, 8134, 8154, 8137, 8140, 8152, 8167, 8155, 8178, 8178, 8174, 8109,0.8479690551757812
45, 8161, 8180, 8181, 8145, 8168, 8148, 8154, 8186, 8145, 8147, 8166, 8179, 8155, 8114,0.8640539646148682
46, 8145, 8177, 8134, 8183, 8183, 8163, 8190, 8158, 8141, 8165, 8151, 8146, 8143, 8100,0.8640539646148682
47, 8153, 8164, 8164, 8183, 8176, 8173, 8181, 8177, 8133, 8165, 8139, 8147, 8133, 8116,0.880178689956665
48, 8158, 8170, 8177, 8184, 8179, 8191, 8190, 8183, 8155, 8179, 8150, 8160, 8143, 8126,0.880178689956665
49, 8151, 8153, 8138, 8172, 8178, 8181, 8209, 8168, 8194, 8201, 8143, 8148, 8152, 8126,0.8962204456329346
50, 8155, 8137, 8173, 8138, 8161, 8175, 8186, 8196, 8202, 8194, 8123, 8155, 8147, 8141,0.8962204456329346
51, 8158, 8132, 8146, 8152, 8163, 8182, 8180, 8162, 8210, 8204, 8137, 8148, 8157, 8128,0.9115614891052246
52, 8156, 8134, 8152, 8144, 8163, 8179, 8186, 8178, 8194, 8196, 8130, 8142, 8153, 8130,0.9115614891052246
53, 8158, 8142, 8157, 8126, 8152, 8167, 8186, 8185, 8188, 8188, 8138, 8158, 8164, 8139,0.9272358417510986
54, 8172, 8137, 8138, 8120, 8148, 8138, 8157, 8156, 8191, 8176, 8151, 8164, 8175, 8126,0.9272358417510986
55, 8182, 8149, 8183, 8108, 8153, 8140, 8134, 8185, 8175, 8147, 8140, 8175, 8160, 8130,0.9424560070037842
56, 8174, 8165, 8149, 8129, 8164, 8147, 8153, 8152, 8178, 8156, 8161, 8175, 8165, 8121,0.9424560070037842
57, 8181, 8173, 8155, 8128, 8163, 8134, 8142, 8161, 8161, 8146, 8176, 8183, 8162, 8117,0.9582443237304688
58, 8184, 8185, 8175, 8128, 8165, 8143, 8140, 8180, 8167, 8148, 8187, 8199, 8159, 8120,0.9582443237304688
59, 8170, 8180, 8147, 8143, 8177, 8149, 8154, 8152, 8196, 8172, 8195, 8191, 8168, 8116,0.974494218826294
60, 8170, 8188, 8187, 8141, 8174, 8148, 8149, 8182, 8177, 8157, 8181, 8198, 8158, 8124,0.974494218826294
61, 8163, 8188, 8151, 8155, 8169, 8145, 8161, 8161, 8167, 8165, 8179, 8184, 8156, 8107,0.9901578426361084
62, 8154, 8172, 8151, 8146, 8168, 8144, 8159, 8165, 8154, 8171, 8162, 8165, 8138, 8108,0.9901578426361084
63, 8153, 8177, 8180, 8157, 8178, 8176, 8160, 8177, 8151, 8163, 8155, 8165, 8124, 8118,1.005265712738037
64, 8154, 8176, 8148, 8180, 8185, 8184, 8175, 8146, 8170, 8174, 8171, 8156, 8139, 8113,1.005265712738037
65, 8165, 8183, 8185, 8162, 8178, 8175, 8174, 8189, 8172, 8185, 8169, 8172, 8149, 8139,1.0209765434265137
66, 8158, 8174, 8155, 8175, 8181, 8183, 8189, 8171, 8195, 8208, 8168, 8169, 8151, 8133,1.0209765434265137
67, 8143, 8148, 8142, 8170, 8179, 8185, 8191, 8161, 8188, 8195, 8140, 8143, 8126, 8113,1.0360455513000488
68, 8140, 8153, 8168, 8152, 8177, 8204, 8193, 8189, 8170, 8190, 8134, 8147, 8122, 8119,1.0360455513000488
69, 8143, 8153, 8128, 8164, 8188, 8203, 8211, 8165, 8175, 8209, 8156, 8149, 8140, 8128,1.0513176918029785
70, 8152, 8150, 8164, 8159, 8178, 8186, 8201, 8188, 8157, 8192, 8133, 8152, 8128, 8145,1.0513176918029785
71, 8155, 8149, 8159, 8170, 8168, 8187, 8205, 8168, 8168, 8201, 8127, 8149, 8132, 8135,1.0684418678283691
72, 8159, 8138, 8154, 8163, 8165, 8186, 8196, 8162, 8174, 8198, 8138, 8150, 8136, 8131,1.0684418678283691
73, 8161, 8146, 8183, 8148, 8167, 8192, 8185, 8187, 8169, 8190, 8142, 8167, 8143, 8145,1.0824341773986816
74, 8171, 8149, 8153, 8164, 8171, 8180, 8200, 8157, 8189, 8213, 8154, 8176, 8165, 8147,1.0824341773986816
75, 8185, 8146, 8188, 8145, 8158, 8165, 8186, 8187, 8181, 8195, 8147, 8195, 8161, 8160,1.0991060733795166
76, 8167, 8141, 8159, 8129, 8150, 8160, 8174, 8172, 8181, 8179, 8164, 8187, 8160, 8135,1.0991060733795166
77, 8155, 8142, 8132, 8121, 8157, 8147, 8167, 8155, 8170, 8165, 8172, 8168, 8152, 8102,1.114326000213623
78, 8163, 8171, 8180, 8127, 8167, 8161, 8170, 8187, 8145, 8142, 8166, 8187, 8138, 8111,1.114326000213623
79, 8165, 8183, 8152, 8162, 8180, 8175, 8185, 8158, 8153, 8155, 8184, 8188, 8145, 8117,1.1286158561706543
80, 8164, 8180, 8177, 8168, 8185, 8184, 8179, 8182, 8145, 8163, 8169, 8177, 8139, 8134,1.1442251205444336
81, 8149, 8178, 8172, 8193, 8191, 8208, 8207, 8179, 8160, 8191, 8151, 8159, 8143, 8133,1.1442251205444336
82, 8141, 8161, 8152, 8193, 8190, 8211, 8228, 8161, 8179, 8208, 8150, 8153, 8154, 8129,1.1598148345947266
83, 8156, 8164, 8186, 8169, 8189, 8218, 8228, 8191, 8178, 8199, 8156, 8173, 8158, 8148,1.1598148345947266
84, 8168, 8167, 8148, 8192, 8202, 8218, 8241, 8164, 8198, 8218, 8173, 8166, 8176, 8149,1.177138090133667
85, 8177, 8163, 8178, 8180, 8193, 8195, 8217, 8190, 8193, 8213, 8163, 8178, 8179, 8164,1.177138090133667
86, 8176, 8157, 8177, 8164, 8171, 8176, 8201, 8185, 8196, 8214, 8167, 8199, 8183, 8163,1.177138090133667
87, 8181, 8141, 8155, 8152, 8159, 8153, 8195, 8162, 8197, 8217, 8175, 8193, 8190, 8156,1.1917212009429932
88, 8194, 8153, 8204, 8137, 8157, 8156, 8180, 8196, 8185, 8200, 8184, 8215, 8190, 8171,1.207263469696045
89, 8188, 8165, 8165, 8158, 8165, 8146, 8176, 8157, 8199, 8203, 8203, 8220, 8201, 8154,1.207625389099121
90, 8187, 8168, 8181, 8153, 8161, 8127, 8149, 8169, 8186, 8186, 8184, 8219, 8188, 8150,1.2233631610870361
91, 8194, 8181, 8192, 8160, 8165, 8146, 8153, 8180, 8196, 8191, 8197, 8236, 8190, 8153,1.2233631610870361
92, 8201, 8182, 8163, 8172, 8174, 8143, 8167, 8149, 8203, 8195, 8224, 8233, 8195, 8143,1.2400751113891602
93, 8212, 8202, 8218, 8173, 8177, 8141, 8160, 8180, 8172, 8163, 8210, 8239, 8177, 8153,1.2400751113891602
94, 8214, 8213, 8197, 8211, 8193, 8164, 8186, 8160, 8185, 8179, 8213, 8240, 8180, 8150,1.2400751113891602
95, 8222, 8202, 8194, 8221, 8193, 8169, 8198, 8169, 8192, 8190, 8221, 8238, 8180, 8154,1.2544591426849365
96, 8230, 8212, 8209, 8223, 8191, 8169, 8197, 8181, 8185, 8190, 8228, 8235, 8182, 8157,1.2700538635253906
97, 8233, 8221, 8186, 8247, 8206, 8168, 8205, 8157, 8192, 8203, 8230, 8224, 8182, 8147,1.2700538635253906
98, 8238, 8221, 8216, 8251, 8216, 8188, 8213, 8192, 8192, 8199, 8215, 8231, 8169, 8165,1.2860517501831055
99, 8224, 8203, 8176, 8263, 8217, 8205, 8234, 8171, 8208, 8215, 8214, 8215, 8179, 8167,1.2860517501831055
100, 8211, 8187, 8172, 8251, 8206, 8192, 8225, 8170, 8207, 8209, 8189, 8188, 8166, 8166,1.3013012409210205
101, 8209, 8197, 8194, 8246, 8203, 8194, 8225, 8189, 8207, 8204, 8182, 8190, 8156, 8166,1.3013012409210205
102, 8205, 8186, 8152, 8256, 8203, 8193, 8238, 8161, 8221, 8228, 8205, 8193, 8182, 8160,1.3171875476837158
103, 8210, 8173, 8187, 8227, 8186, 8186, 8220, 8193, 8216, 8232, 8185, 8204, 8179, 8179,1.3171875476837158
104, 8215, 8168, 8174, 8220, 8179, 8174, 8210, 8174, 8235, 8234, 8181, 8205, 8180, 8172,1.3323068618774414
105, 8226, 8168, 8162, 8210, 8173, 8145, 8181, 8162, 8226, 8201, 8192, 8213, 8185, 8161,1.3323068618774414
106, 8231, 8184, 8192, 8190, 8163, 8143, 8157, 8180, 8206, 8178, 8201, 8232, 8189, 8170,1.3474197387695312
107, 8233, 8174, 8166, 8193, 8165, 8153, 8174, 8154, 8223, 8200, 8215, 8225, 8207, 8173,1.3474197387695312
108, 8253, 8179, 8198, 8191, 8172, 8153, 8167, 8180, 8213, 8195, 8217, 8238, 8211, 8186,1.3628101348876953
109, 8264, 8215, 8200, 8226, 8186, 8158, 8165, 8167, 8206, 8198, 8237, 8252, 8214, 8176,1.3628101348876953
110, 8254, 8221, 8204, 8253, 8191, 8173, 8182, 8167, 8202, 8198, 8229, 8236, 8194, 8169,1.3787295818328857
111, 8233, 8210, 8219, 8259, 8194, 8204, 8206, 8194, 8196, 8197, 8193, 8218, 8170, 8179,1.3787295818328857
112, 8228, 8195, 8170, 8269, 8201, 8202, 8225, 8156, 8220, 8237, 8194, 8203, 8189, 8185,1.3947594165802002
113, 8252, 8193, 8205, 8229, 8190, 8176, 8201, 8181, 8232, 8238, 8210, 8231, 8217, 8211,1.3947594165802002
114, 8263, 8199, 8201, 8214, 8184, 8165, 8187, 8174, 8236, 8218, 8246, 8259, 8242, 8196,1.4102365970611572
115, 8257, 8201, 8179, 8223, 8188, 8153, 8176, 8158, 8205, 8202, 8260, 8251, 8227, 8167,1.4102365970611572
116, 8251, 8223, 8214, 8238, 8200, 8167, 8174, 8188, 8180, 8194, 8245, 8245, 8203, 8173,1.4254975318908691
117, 8243, 8223, 8184, 8279, 8214, 8195, 8213, 8160, 8217, 8227, 8245, 8229, 8222, 8176,1.4254975318908691
118, 8237, 8196, 8206, 8260, 8204, 8211, 8229, 8187, 8234, 8247, 8224, 8227, 8223, 8196,1.441354513168335
119, 8221, 8173, 8194, 8222, 8191, 8207, 8227, 8188, 8260, 8264, 8220, 8230, 8226, 8202,1.441354513168335
120, 8219, 8167, 8161, 8195, 8189, 8170, 8205, 8158, 8267, 8240, 8228, 8229, 8238, 8187,1.4564530849456787
121, 8233, 8197, 8211, 8190, 8193, 8160, 8176, 8182, 8223, 8197, 8231, 8251, 8225, 8179,1.4564530849456787
122, 8232, 8212, 8188, 8233, 8213, 8182, 8186, 8156, 8214, 8212, 8249, 8247, 8216, 8170,1.4720184803009033
123, 8229, 8208, 8195, 8246, 8219, 8206, 8197, 8174, 8212, 8220, 8234, 8231, 8207, 8188,1.4720184803009033
124, 8221, 8204, 8201, 8251, 8211, 8236, 8228, 8183, 8221, 8238, 8221, 8218, 8211, 8196,1.4873149394989014
125, 8215, 8176, 8174, 8235, 8197, 8225, 8242, 8163, 8241, 8257, 8222, 8206, 8225, 8193,1.4873149394989014
126, 8228, 8169, 8203, 8199, 8189, 8198, 8215, 8186, 8248, 8237, 8223, 8233, 8235, 8204,1.50331449508667
127, 8233, 8180, 8168, 8206, 8200, 8180, 8203, 8159, 8256, 8232, 8243, 8239, 8241, 8174,1.50331449508667
236, 8224, 8187, 8187, 8202, 8198, 8171, 8181, 8181, 8219, 8207, 8231, 8223, 8209, 8151,1.51835036277771
0, 8213, 8202, 8204, 8218, 8199, 8194, 8188, 8190, 8199, 8200, 8219, 8223, 8193, 8157,1.51835036277771
1, 8213, 8193, 8165, 8239, 8211, 8202, 8216, 8157, 8213, 8226, 8209, 8214, 8202, 8175,1.5335636138916016
2, 8222, 8174, 8207, 8214, 8201, 8203, 8215, 8192, 8218, 8232, 8186, 8220, 8197, 8200,1.5335636138916016
3, 8221, 8156, 8185, 8207, 8192, 8198, 8217, 8169, 8247, 8251, 8203, 8224, 8218, 8191,1.5493190288543701
4, 8225, 8155, 8188, 8190, 8187, 8176, 8190, 8176, 8251, 8241, 8207, 8234, 8226, 8189,1.5493190288543701
5, 8224, 8171, 8199, 8188, 8185, 8169, 8162, 8186, 8240, 8214, 8205, 8244, 8222, 8184,1.5653407573699951
6, 8217, 8174, 8161, 8201, 8185, 8153, 8153, 8143, 8225, 8197, 8217, 8231, 8220, 8157,1.5653407573699951
7, 8218, 8191, 8206, 8186, 8189, 8154, 8146, 8179, 8192, 8178, 8216, 8241, 8205, 8157,1.5810506343841553
8, 8201, 8204, 8186, 8211, 8205, 8174, 8164, 8162, 8194, 8195, 8226, 8231, 8200, 8144,1.5810506343841553
9, 8197, 8200, 8190, 8231, 8207, 8185, 8167, 8158, 8191, 8194, 8211, 8214, 8187, 8148,1.5964806079864502
10, 8211, 8198, 8215, 8241, 8207, 8210, 8193, 8178, 8194, 8207, 8200, 8220, 8185, 8172,1.5964806079864502
11, 8207, 8170, 8169, 8251, 8209, 8215, 8231, 8151, 8220, 8243, 8206, 8205, 8203, 8172,1.6124253273010254
12, 8199, 8159, 8207, 8222, 8196, 8206, 8226, 8188, 8217, 8231, 8189, 8204, 8229, 8182,1.6124253273010254
13, 8190, 8155, 8186, 8214, 8190, 8196, 8229, 8174, 8230, 8234, 8187, 8205, 8248, 8175,1.6284427642822266
14, 8198, 8140, 8173, 8194, 8177, 8168, 8209, 8166, 8222, 8222, 8182, 8210, 8255, 8173,1.6284427642822266
15, 8212, 8156, 8203, 8172, 8165, 8158, 8180, 8185, 8206, 8194, 8191, 8237, 8377, 8176,1.6441493034362793
16, 8213, 8167, 8168, 8181, 8177, 8151, 8179, 8151, 8226, 8196, 8222, 8238, 8543, 8155,1.6441493034362793
17, 8209, 8176, 8209, 8177, 8188, 8155, 8170, 8183, 8216, 8179, 8220, 8238, 8547, 8154,1.6593859195709229
18, 8195, 8194, 8190, 8205, 8195, 8175, 8184, 8172, 8215, 8190, 8223, 8233, 8485, 8142,1.6593859195709229
19, 8187, 8189, 8167, 8212, 8194, 8179, 8189, 8159, 8202, 8193, 8212, 8217, 8455, 8130,1.6745378971099854
20, 8183, 8189, 8204, 8206, 8198, 8194, 8186, 8185, 8179, 8180, 8191, 8212, 8427, 8138,1.6745378971099854
21, 8183, 8179, 8165, 8229, 8206, 8200, 8208, 8158, 8205, 8209, 8194, 8196, 8415, 8142,1.6904938220977783
22, 8189, 8166, 8196, 8213, 8191, 8194, 8212, 8191, 8216, 8213, 8176, 8199, 8400, 8168,1.6904938220977783
23, 8175, 8153, 8188, 8202, 8178, 8195, 8224, 8178, 8232, 8217, 8170, 8193, 8391, 8161,1.7063348293304443
24, 8169, 8132, 8162, 8180, 8166, 8171, 8207, 8158, 8228, 8210, 8162, 8178, 8375, 8145,1.7063348293304443
25, 8185, 8140, 8203, 8151, 8157, 8161, 8181, 8194, 8211, 8191, 8164, 8202, 8360, 8165,1.7214386463165283
26, 8200, 8152, 8178, 8173, 8162, 8160, 8189, 8162, 8232, 8213, 8209, 8219, 8381, 8171,1.7214386463165283
27, 8213, 8164, 8215, 8176, 8158, 8151, 8162, 8177, 8213, 8197, 8219, 8238, 8373, 8173,1.7371153831481934
28, 8215, 8182, 8220, 8193, 8164, 8153, 8152, 8168, 8187, 8178, 8227, 8255, 8352, 8157,1.7371153831481934
29, 8215, 8189, 8201, 8221, 8175, 8146, 8161, 8144, 8167, 8179, 8249, 8260, 8345, 8149,1.752089023590088
30, 8212, 8202, 8251, 8233, 8169, 8151, 8151, 8177, 8137, 8167, 8247, 8271, 8323, 8161,1.7682063579559326
31, 8196, 8195, 8219, 8277, 8173, 8162, 8158, 8147, 8143, 8177, 8240, 8254, 8307, 8148,1.7682063579559326
32, 8200, 8187, 8245, 8291, 8179, 8177, 8172, 8170, 8147, 8184, 8227, 8260, 8297, 8165,1.7682063579559326
33, 8206, 8185, 8249, 8287, 8172, 8196, 8199, 8178, 8163, 8206, 8238, 8279, 8303, 8183,1.7833425998687744
34, 8208, 8159, 8210, 8280, 8154, 8169, 8191, 8149, 8166, 8201, 8234, 8277, 8290, 8178,1.7988231182098389
35, 8227, 8164, 8263, 8260, 8137, 8145, 8154, 8181, 8141, 8155, 8220, 8307, 8269, 8191,1.7988231182098389
36, 8239, 8175, 8236, 8269, 8139, 8137, 8148, 8152, 8151, 8153, 8263, 8323, 8291, 8186,1.8146512508392334
37, 8248, 8179, 8249, 8263, 8141, 8129, 8131, 8162, 8138, 8148, 8282, 8323, 8285, 8186,1.8146512508392334
38, 8247, 8206, 8267, 8283, 8154, 8147, 8132, 8168, 8118, 8149, 8278, 8332, 8271, 8181,1.8303632736206055
39, 8249, 8222, 8237, 8317, 8179, 8168, 8165, 8145, 8120, 8164, 8280, 8325, 8272, 8177,1.8303632736206055
40, 8251, 8224, 8268, 8309, 8190, 8197, 8192, 8193, 8128, 8165, 8256, 8310, 8250, 8202,1.8469531536102295
41, 8230, 8211, 8219, 8323, 8200, 8216, 8227, 8172, 8164, 8197, 8241, 8273, 8243, 8196,1.8469531536102295
42, 8221, 8212, 8220, 8314, 8205, 8209, 8228, 8179, 8164, 8203, 8220, 8255, 8237, 8194,1.861093282699585
43, 8213, 8211, 8233, 8287, 8202, 8209, 8223, 8194, 8168, 8207, 8201, 8252, 8231, 8197,1.861093282699585
44, 8231, 8197, 8205, 8297, 8225, 8219, 8256, 8170, 8228, 8248, 8227, 8263, 8260, 8217,1.877171516418457
45, 8336, 8281, 8313, 8358, 8304, 8273, 8326, 8231, 8311, 8308, 8320, 8373, 8342, 8316,1.877171516418457
46, 8436, 8389, 8351, 8458, 8400, 8326, 8412, 8234, 8413, 8406, 8446, 8468, 8442, 8388,1.8926236629486084
47, 8448, 8396, 8348, 8474, 8423, 8309, 8414, 8229, 8423, 8429, 8466, 8470, 8447, 8390,1.8926236629486084
48, 8431, 8387, 8351, 8466, 8415, 8301, 8400, 8238, 8389, 8407, 8445, 8463, 8416, 8376,1.9083199501037598
49, 8430, 8390, 8315, 8494, 8429, 8313, 8437, 8207, 8411, 8425, 8460, 8459, 8425, 8377,1.9083199501037598
50, 8419, 8373, 8355, 8476, 8424, 8316, 8447, 8241, 8415, 8429, 8434, 8445, 8408, 8394,1.9240388870239258
51, 8396, 8348, 8317, 8480, 8421, 8319, 8460, 8224, 8431, 8454, 8415, 8415, 8402, 8390,1.9240388870239258
52, 8403, 8333, 8301, 8479, 8417, 8305, 8468, 8221, 8442, 8469, 8413, 8414, 8411, 8402,1.9391758441925049
53, 8411, 8321, 8333, 8446, 8396, 8293, 8465, 8243, 8444, 8460, 8406, 8433, 8419, 8412,1.9391758441925049
54, 8404, 8294, 8279, 8417, 8391, 8270, 8460, 8201, 8455, 8456, 8403, 8415, 8422, 8391,1.954810619354248
55, 8407, 8294, 8300, 8377, 8387, 8251, 8432, 8225, 8427, 8415, 8389, 8414, 8396, 8393,1.954810619354248
56, 8406, 8304, 8292, 8384, 8381, 8255, 8432, 8209, 8419, 8401, 8401, 8415, 8395, 8377,1.9704442024230957
57, 8403, 8298, 8277, 8384, 8382, 8245, 8425, 8196, 8408, 8388, 8398, 8408, 8398, 8358,1.9704442024230957
58, 8403, 8319, 8303, 8372, 8403, 8252, 8420, 8230, 8395, 8367, 8394, 8424, 8389, 8365,1.9864697456359863
59, 8386, 8324, 8260, 8396, 8417, 8257, 8438, 8193, 8405, 8380, 8401, 8403, 8375, 8349,1.9864697456359863
60, 8372, 8312, 8296, 8397, 8397, 8262, 8434, 8214, 8384, 8375, 8360, 8376, 8340, 8346,2.0080513954162598
61, 8366, 8310, 8289, 8419, 8398, 8281, 8451, 8216, 8395, 8391, 8350, 8367, 8345, 8347,2.0080513954162598
62, 8367, 8292, 8259, 8414, 8399, 8270, 8456, 8200, 8410, 8399, 8354, 8355, 8345, 8344,2.0080513954162598
63, 8366, 8278, 8295, 8380, 8376, 8263, 8447, 8224, 8411, 8398, 8336, 8357, 8331, 8355,2.0171971321105957
64, 8372, 8270, 8261, 8388, 8376, 8258, 8455, 8195, 8454, 8424, 8351, 8365, 8360, 8357,2.0331873893737793
65, 8390, 8275, 8284, 8360, 8383, 8241, 8424, 8220, 8455, 8398, 8351, 8385, 8363, 8364,2.0331873893737793
66, 8381, 8283, 8277, 8348, 8383, 8238, 8399, 8209, 8434, 8383, 8354, 8383, 8349, 8345,2.0482780933380127
67, 8374, 8278, 8249, 8363, 8380, 8220, 8384, 8184, 8415, 8386, 8375, 8376, 8355, 8328,2.0482780933380127
68, 8380, 8299, 8293, 8362, 8376, 8218, 8377, 8224, 8384, 8361, 8382, 8395, 8348, 8333,2.063446044921875
69, 8359, 8308, 8252, 8378, 8386, 8232, 8404, 8196, 8390, 8363, 8381, 8369, 8329, 8305,2.063446044921875
70, 8347, 8308, 8266, 8378, 8394, 8245, 8404, 8212, 8385, 8366, 8360, 8348, 8303, 8306,2.0793890953063965
71, 8345, 8305, 8273, 8392, 8396, 8269, 8414, 8218, 8392, 8388, 8355, 8349, 8306, 8323,2.0793890953063965
72, 8336, 8267, 8243, 8386, 8383, 8263, 8429, 8192, 8412, 8415, 8346, 8330, 8317, 8329,2.0950300693511963
73, 8331, 8241, 8279, 8335, 8358, 8243, 8407, 8221, 8401, 8405, 8320, 8330, 8308, 8339,2.0950300693511963
74, 8324, 8229, 8227, 8316, 8350, 8222, 8389, 8185, 8399, 8394, 8322, 8323, 8312, 8317,2.1101109981536865
75, 8328, 8235, 8239, 8295, 8344, 8199, 8358, 8197, 8375, 8357, 8326, 8330, 8307, 8314,2.1101109981536865
76, 8332, 8268, 8274, 8307, 8344, 8203, 8349, 8210, 8359, 8341, 8345, 8347, 8304, 8313,2.12636399269104
77, 8336, 8277, 8244, 8333, 8352, 8206, 8360, 8176, 8356, 8352, 8354, 8334, 8300, 8290,2.12636399269104
78, 8341, 8282, 8281, 8326, 8355, 8224, 8360, 8211, 8334, 8333, 8334, 8345, 8278, 8300,2.142040252685547
79, 8325, 8286, 8249, 8349, 8362, 8234, 8374, 8189, 8331, 8330, 8340, 8342, 8275, 8298,2.142040252685547
80, 8316, 8274, 8252, 8348, 8357, 8221, 8369, 8193, 8322, 8324, 8321, 8318, 8261, 8300,2.157350778579712
81, 8316, 8263, 8274, 8342, 8357, 8244, 8386, 8210, 8349, 8351, 8304, 8314, 8264, 8313,2.157350778579712
82, 8302, 8241, 8230, 8351, 8362, 8261, 8414, 8186, 8383, 8383, 8313, 8305, 8282, 8307,2.172844886779785
83, 8287, 8232, 8252, 8322, 8349, 8260, 8400, 8224, 8359, 8363, 8295, 8296, 8261, 8308,2.172844886779785
84, 8284, 8227, 8220, 8314, 8343, 8247, 8392, 8196, 8379, 8381, 8305, 8290, 8264, 8297,2.1887667179107666
85, 8302, 8226, 8230, 8296, 8335, 8214, 8365, 8192, 8397, 8381, 8323, 8311, 8289, 8300,2.1887667179107666
86, 8307, 8239, 8258, 8278, 8326, 8210, 8344, 8217, 8387, 8354, 8333, 8327, 8311, 8300,2.2044918537139893
87, 8304, 8234, 8210, 8281, 8329, 8206, 8351, 8181, 8395, 8361, 8351, 8313, 8324, 8282,2.2044918537139893
88, 8321, 8248, 8259, 8274, 8330, 8198, 8341, 8208, 8379, 8350, 8354, 8334, 8317, 8296,2.220118761062622
89, 8311, 8265, 8247, 8306, 8334, 8197, 8340, 8190, 8359, 8345, 8350, 8325, 8311, 8282,2.220118761062622
90, 8280, 8248, 8226, 8310, 8331, 8198, 8324, 8180, 8327, 8330, 8304, 8274, 8269, 8257,2.2363181114196777
91, 8270, 8246, 8248, 8306, 8332, 8229, 8319, 8207, 8313, 8330, 8283, 8271, 8243, 8259,2.2363181114196777
92, 8269, 8239, 8206, 8329, 8336, 8235, 8340, 8176, 8334, 8358, 8300, 8271, 8260, 8255,2.2516956329345703
93, 8265, 8231, 8243, 8305, 8320, 8228, 8330, 8203, 8328, 8341, 8270, 8266, 8245, 8268,2.2516956329345703
94, 8267, 8231, 8233, 8296, 8317, 8243, 8344, 8192, 8352, 8351, 8268, 8265, 8254, 8277,2.2670438289642334
95, 8285, 8217, 8221, 8285, 8312, 8234, 8353, 8189, 8370, 8367, 8282, 8272, 8273, 8292,2.2670438289642334
96, 8289, 8217, 8251, 8252, 8289, 8224, 8333, 8219, 8360, 8351, 8274, 8288, 8268, 8297,2.2821147441864014
97, 8277, 8209, 8199, 8245, 8288, 8212, 8319, 8177, 8376, 8349, 8281, 8278, 8279, 8272,2.2821147441864014
98, 8289, 8213, 8238, 8227, 8293, 8201, 8301, 8200, 8361, 8325, 8285, 8288, 8281, 8277,2.2975997924804688
99, 8285, 8224, 8234, 8233, 8295, 8201, 8301, 8194, 8346, 8316, 8293, 8291, 8277, 8260,2.2975997924804688
100, 8265, 8218, 8199, 8240, 8297, 8189, 8283, 8171, 8329, 8297, 8280, 8270, 8260, 8227,2.3133151531219482
101, 8262, 8236, 8241, 8237, 8300, 8197, 8261, 8200, 8303, 8267, 8273, 8279, 8245, 8227,2.3133151531219482
102, 8255, 8243, 8204, 8255, 8307, 8205, 8268, 8164, 8288, 8262, 8294, 8271, 8239, 8207,2.329096794128418
103, 8237, 8225, 8211, 8238, 8307, 8209, 8256, 8178, 8235, 8229, 8250, 8243, 8192, 8189,2.329096794128418
104, 8202, 8198, 8193, 8240, 8317, 8243, 8278, 8176, 8230, 8235, 8198, 8208, 8169, 8178,2.3441717624664307
105, 8191, 8176, 8166, 8249, 8321, 8249, 8303, 8163, 8258, 8270, 8200, 8195, 8185, 8188,2.3441717624664307
106, 8219, 8192, 8226, 8243, 8300, 8230, 8304, 8213, 8288, 8298, 8232, 8237, 8213, 8231,2.3602068424224854
107, 8238, 8202, 8200, 8273, 8279, 8211, 8330, 8192, 8350, 8348, 8270, 8254, 8254, 8243,2.3602068424224854
108, 8244, 8197, 8212, 8264, 8269, 8192, 8312, 8200, 8340, 8328, 8253, 8251, 8249, 8246,2.3753509521484375
109, 8247, 8205, 8225, 8249, 8278, 8186, 8278, 8200, 8315, 8297, 8254, 8259, 8246, 8242,2.3753509521484375
110, 8259, 8208, 8204, 8246, 8286, 8177, 8276, 8180, 8334, 8314, 8292, 8264, 8270, 8235,2.3909811973571777
111, 8269, 8222, 8242, 8233, 8274, 8180, 8278, 8212, 8333, 8302, 8296, 8281, 8263, 8245,2.3909811973571777
112, 8253, 8233, 8203, 8258, 8272, 8175, 8274, 8173, 8312, 8273, 8292, 8269, 8242, 8221,2.4070911407470703
113, 8244, 8237, 8217, 8268, 8281, 8182, 8257, 8185, 8269, 8247, 8271, 8254, 8211, 8210,2.4070911407470703
114, 8238, 8237, 8233, 8287, 8299, 8237, 8289, 8206, 8286, 8290, 8268, 8248, 8216, 8226,2.4248054027557373
115, 8227, 8205, 8184, 8287, 8298, 8243, 8319, 8177, 8341, 8351, 8269, 8228, 8237, 8234,2.4248054027557373
116, 8235, 8196, 8221, 8233, 8273, 8201, 8278, 8202, 8317, 8308, 8247, 8244, 8225, 8237,2.4384119510650635
117, 8242, 8202, 8196, 8226, 8267, 8177, 8252, 8168, 8282, 8245, 8257, 8257, 8222, 8212,2.4384119510650635
118, 8238, 8187, 8194, 8214, 8263, 8165, 8243, 8175, 8264, 8218, 8256, 8256, 8214, 8209,2.455430507659912
119, 8237, 8195, 8209, 8201, 8256, 8170, 8239, 8200, 8270, 8244, 8260, 8266, 8215, 8213,2.455430507659912
120, 8251, 8216, 8184, 8227, 8262, 8162, 8231, 8165, 8278, 8266, 8288, 8275, 8236, 8204,2.4709484577178955
121, 8263, 8239, 8242, 8238, 8264, 8169, 8214, 8192, 8249, 8234, 8295, 8292, 8232, 8218,2.4709484577178955
122, 8243, 8242, 8212, 8261, 8272, 8188, 8224, 8173, 8248, 8244, 8299, 8270, 8219, 8202,2.4864723682403564
123, 8238, 8236, 8214, 8262, 8269, 8180, 8210, 8179, 8242, 8250, 8289, 8251, 8204, 8198,2.4864723682403564
124, 8249, 8251, 8257, 8262, 8260, 8196, 8209, 8202, 8239, 8240, 8296, 8271, 8210, 8220,2.5020880699157715
125, 8230, 8235, 8202, 8275, 8261, 8221, 8250, 8161, 8250, 8247, 8295, 8246, 8213, 8212,2.5020880699157715
126, 8213, 8215, 8220, 8255, 8254, 8232, 8255, 8192, 8239, 8242, 8243, 8218, 8178, 8208,2.518247365951538
127, 8223, 8205, 8211, 8257, 8250, 8227, 8255, 8184, 8273, 8268, 8237, 8224, 8193, 8210,2.518247365951538
236, 8249, 8196, 8210, 8237, 8239, 8193, 8241, 8177, 8291, 8271, 8265, 8254, 8229, 8234,2.532259941101074
0, 8256, 8215, 8238, 8218, 8228, 8176, 8214, 8198, 8261, 8243, 8290, 8280, 8239, 8239,2.548330307006836
1, 8245, 8228, 8196, 8243, 8234, 8168, 8204, 8159, 8246, 8236, 8302, 8261, 8232, 8197,2.548330307006836
2, 8249, 8240, 8241, 8250, 8239, 8186, 8202, 8186, 8225, 8220, 8278, 8257, 8199, 8202,2.548330307006836
3, 8235, 8233, 8226, 8271, 8246, 8221, 8240, 8179, 8235, 8241, 8267, 8240, 8197, 8213,2.564425230026245
4, 8216, 8195, 8192, 8257, 8234, 8214, 8245, 8171, 8245, 8254, 8248, 8206, 8200, 8207,2.564425230026245
5, 8220, 8184, 8228, 8218, 8216, 8203, 8223, 8200, 8246, 8231, 8223, 8220, 8192, 8212,2.580113649368286
6, 8235, 8187, 8190, 8221, 8218, 8185, 8219, 8158, 8262, 8226, 8230, 8229, 8201, 8202,2.580113649368286
7, 8245, 8201, 8221, 8201, 8212, 8163, 8190, 8182, 8236, 8206, 8241, 8243, 8203, 8199,2.5944952964782715
8, 8231, 8222, 8219, 8203, 8216, 8173, 8191, 8184, 8229, 8209, 8266, 8247, 8203, 8174,2.610074043273926
9, 8217, 8214, 8196, 8231, 8235, 8188, 8204, 8165, 8226, 8213, 8243, 8215, 8182, 8160,2.610074043273926
10, 8223, 8208, 8241, 8251, 8243, 8212, 8216, 8197, 8221, 8225, 8197, 8203, 8168, 8196,2.610074043273926
11, 8231, 8203, 8206, 8270, 8239, 8214, 8254, 8172, 8264, 8282, 8225, 8210, 8204, 8218,2.6271286010742188
12, 8241, 8195, 8227, 8237, 8220, 8187, 8242, 8195, 8264, 8266, 8236, 8230, 8217, 8229,2.6271286010742188
13, 8236, 8189, 8222, 8218, 8215, 8177, 8215, 8191, 8244, 8233, 8219, 8231, 8216, 8213,2.6417815685272217
14, 8241, 8178, 8194, 8223, 8219, 8167, 8203, 8165, 8247, 8240, 8212, 8225, 8221, 8201,2.657208204269409
15, 8255, 8190, 8245, 8215, 8209, 8170, 8195, 8202, 8249, 8230, 8217, 8250, 8217, 8216,2.657208204269409
16, 8248, 8200, 8205, 8235, 8211, 8168, 8196, 8164, 8246, 8211, 8245, 8245, 8223, 8189,2.672180652618408
17, 8249, 8206, 8215, 8229, 8219, 8159, 8171, 8170, 8202, 8175, 8244, 8243, 8208, 8172,2.672180652618408
18, 8251, 8218, 8228, 8234, 8231, 8175, 8175, 8182, 8199, 8181, 8252, 8259, 8201, 8176,2.6883761882781982
19, 8239, 8214, 8197, 8252, 8233, 8176, 8190, 8160, 8215, 8202, 8258, 8250, 8205, 8170,2.6883761882781982
20, 8232, 8229, 8242, 8258, 8234, 8180, 8180, 8196, 8196, 8190, 8239, 8248, 8194, 8175,2.7037529945373535
21, 8236, 8244, 8222, 8299, 8257, 8192, 8199, 8173, 8216, 8215, 8259, 8248, 8202, 8173,2.7037529945373535
22, 8250, 8241, 8236, 8287, 8258, 8181, 8194, 8183, 8211, 8215, 8266, 8256, 8191, 8185,2.719863176345825
23, 8241, 8244, 8250, 8274, 8246, 8187, 8185, 8189, 8195, 8214, 8258, 8254, 8187, 8189,2.719863176345825
24, 8218, 8230, 8208, 8288, 8250, 8200, 8197, 8160, 8206, 8231, 8250, 8226, 8196, 8179,2.7362120151519775
25, 8204, 8216, 8236, 8263, 8245, 8218, 8205, 8200, 8204, 8216, 8214, 8214, 8170, 8182,2.7362120151519775
26, 8190, 8198, 8193, 8263, 8237, 8227, 8229, 8175, 8220, 8227, 8201, 8193, 8157, 8164,2.7520463466644287
27, 8192, 8185, 8198, 8263, 8225, 8212, 8221, 8177, 8213, 8219, 8193, 8186, 8162, 8172,2.7520463466644287
28, 8195, 8197, 8225, 8248, 8218, 8214, 8212, 8195, 8205, 8207, 8196, 8193, 8180, 8187,2.7530357837677
29, 8200, 8186, 8180, 8236, 8216, 8208, 8221, 8167, 8229, 8230, 8211, 8185, 8198, 8178,2.7671315670013428
30, 8220, 8192, 8226, 8222, 8207, 8191, 8201, 8202, 8236, 8221, 8214, 8211, 8197, 8196,2.7822866439819336
31, 8230, 8216, 8217, 8251, 8208, 8175, 8196, 8183, 8255, 8219, 8241, 8232, 8225, 8199,2.7822866439819336
32, 8238, 8212, 8214, 8243, 8201, 8159, 8180, 8177, 8246, 8205, 8241, 8234, 8227, 8198,2.798044204711914
33, 8241, 8213, 8239, 8222, 8196, 8164, 8167, 8195, 8223, 8185, 8229, 8244, 8204, 8193,2.798044204711914
34, 8231, 8213, 8192, 8233, 8203, 8148, 8170, 8155, 8207, 8172, 8236, 8222, 8194, 8156,2.8141064643859863
35, 8234, 8224, 8228, 8222, 8200, 8146, 8157, 8183, 8162, 8142, 8220, 8208, 8164, 8147,2.8141064643859863
36, 8237, 8231, 8216, 8250, 8207, 8178, 8175, 8169, 8158, 8159, 8215, 8200, 8150, 8148,2.829289674758911
37, 8240, 8219, 8212, 8269, 8212, 8184, 8193, 8163, 8166, 8173, 8202, 8190, 8148, 8157,2.829289674758911
38, 8241, 8226, 8248, 8267, 8219, 8200, 8211, 8197, 8175, 8177, 8189, 8200, 8154, 8173,2.844454526901245
39, 8241, 8223, 8199, 8280, 8229, 8213, 8230, 8168, 8194, 8193, 8202, 8192, 8165, 8164,2.844454526901245
40, 8254, 8216, 8229, 8264, 8218, 8212, 8217, 8192, 8178, 8179, 8191, 8203, 8157, 8180,2.859994649887085
41, 8255, 8211, 8226, 8271, 8203, 8209, 8229, 8183, 8192, 8203, 8187, 8208, 8170, 8194,2.859994649887085
42, 8246, 8189, 8205, 8251, 8187, 8184, 8223, 8172, 8196, 8206, 8174, 8188, 8165, 8184,2.8754994869232178
43, 8239, 8178, 8219, 8205, 8178, 8185, 8215, 8198, 8178, 8172, 8154, 8188, 8145, 8175,2.8754994869232178
44, 8240, 8168, 8170, 8200, 8189, 8189, 8239, 8167, 8210, 8191, 8166, 8186, 8167, 8169,2.8914542198181152
45, 8266, 8179, 8219, 8194, 8193, 8176, 8225, 8206, 8233, 8202, 8175, 8203, 8180, 8199,2.8914542198181152
46, 8280, 8199, 8222, 8219, 8194, 8172, 8216, 8198, 8247, 8206, 8201, 8219, 8189, 8200,2.9064829349517822
47, 8264, 8185, 8177, 8215, 8192, 8151, 8199, 8161, 8235, 8189, 8206, 8205, 8192, 8172,2.9064829349517822
48, 8251, 8180, 8198, 8171, 8185, 8147, 8166, 8194, 8203, 8156, 8189, 8204, 8176, 8165,2.922072410583496
49, 8253, 8188, 8165, 8184, 8187, 8155, 8169, 8165, 8199, 8165, 8208, 8199, 8177, 8141,2.922072410583496
50, 8270, 8211, 8208, 8205, 8196, 8158, 8163, 8177, 8171, 8146, 8198, 8200, 8161, 8143,2.937401294708252
51, 8276, 8244, 8219, 8236, 8215, 8165, 8165, 8178, 8171, 8144, 8200, 8205, 8153, 8156,2.937401294708252
52, 8271, 8235, 8182, 8243, 8222, 8151, 8170, 8157, 8185, 8166, 8220, 8201, 8155, 8161,2.9529733657836914
53, 8257, 8219, 8216, 8212, 8201, 8150, 8160, 8192, 8160, 8163, 8208, 8201, 8140, 8166,2.9529733657836914
54, 8239, 8214, 8181, 8231, 8194, 8164, 8174, 8163, 8159, 8175, 8202, 8181, 8138, 8147,2.9689550399780273
55, 8254, 8221, 8209, 8247, 8199, 8170, 8179, 8186, 8156, 8174, 8184, 8184, 8132, 8164,2.9689550399780273
56, 8256, 8218, 8221, 8243, 8202, 8190, 8202, 8200, 8176, 8199, 8179, 8170, 8145, 8177,2.9836106300354004
57, 8231, 8180, 8167, 8221, 8197, 8191, 8208, 8172, 8199, 8219, 8172, 8116, 8148, 8159,2.9836106300354004
58, 8223, 8172, 8200, 8185, 8182, 8187, 8184, 8202, 8173, 8184, 8146, 8163, 8123, 8160,2.999391794204712
59, 8217, 8171, 8167, 8192, 8182, 8187, 8200, 8172, 8187, 8190, 8147, 8156, 8136, 8153,2.999391794204712
60, 8218, 8160, 8177, 8177, 8179, 8183, 8203, 8181, 8201, 8194, 8139, 8097, 8140, 8156,3.0144309997558594
61, 8209, 8161, 8191, 8165, 8166, 8197, 8199, 8192, 8190, 8187, 8136, 8417, 8127, 8148,3.0144309997558594
62, 8197, 8149, 8148, 8167, 8164, 8196, 8205, 8158, 8187, 8198, 8143, 8975, 8131, 8135,3.030182123184204
63, 8213, 8156, 8194, 8141, 8169, 8191, 8195, 8200, 8195, 8195, 8136, 9152, 8138, 8160,3.030182123184204
64, 8224, 8157, 8165, 8138, 8173, 8180, 8194, 8180, 8230, 8195, 8140, 8923, 8149, 8158,3.0462229251861572
65, 8224, 8144, 8160, 8123, 8163, 8167, 8181, 8177, 8218, 8171, 8127, 8751, 8131, 8152,3.0462229251861572
66, 8221, 8154, 8194, 8124, 8163, 8193, 8193, 8198, 8210, 8175, 8137, 8663, 8131, 8156,3.061931848526001
67, 8219, 8147, 8160, 8134, 8174, 8190, 8206, 8174, 8232, 8204, 8152, 8512, 8147, 8145,3.061931848526001
68, 8225, 8144, 8193, 8097, 8166, 8168, 8179, 8203, 8216, 8178, 8128, 8432, 8136, 8155,3.077216625213623
69, 8234, 8155, 8170, 8101, 8161, 8158, 8172, 8167, 8213, 8171, 8161, 8392, 8153, 8147,3.077216625213623
70, 8247, 8161, 8176, 8107, 8158, 8140, 8146, 8161, 8188, 8166, 8198, 8356, 8160, 8138,3.0932552814483643
71, 8241, 8177, 8212, 8100, 8165, 8150, 8135, 8197, 8171, 8165, 8192, 8339, 8156, 8142,3.0932552814483643
72, 8224, 8168, 8160, 8103, 8170, 8156, 8160, 8159, 8194, 8170, 8184, 8299, 8165, 8129,3.1092565059661865
73, 8223, 8167, 8187, 8084, 8154, 8143, 8141, 8182, 8167, 8132, 8168, 8281, 8146, 8124,3.1092565059661865
74, 8214, 8195, 8182, 8117, 8165, 8154, 8140, 8176, 8149, 8136, 8176, 8259, 8133, 8109,3.1245243549346924
75, 8206, 8203, 8183, 8151, 8188, 8183, 8162, 8175, 8162, 8157, 8175, 8231, 8127, 8115,3.1245243549346924
76, 8208, 8192, 8212, 8160, 8193, 8221, 8182, 8204, 8185, 8170, 8162, 8230, 8128, 8140,3.139976978302002
77, 8199, 8164, 8158, 8164, 8192, 8224, 8203, 8174, 8204, 8195, 8159, 8204, 8136, 8132,3.139976978302002
78, 8192, 8160, 8188, 8128, 8177, 8214, 8201, 8198, 8178, 8180, 8128, 8186, 8116, 8135,3.1551742553710938
79, 8194, 8174, 8181, 8143, 8180, 8224, 8213, 8180, 8176, 8177, 8124, 8180, 8117, 8128,3.1551742553710938
80, 8200, 8167, 8161, 8161, 8188, 8214, 8207, 8160, 8168, 8173, 8128, 8166, 8118, 8124,3.170380115509033
81, 8188, 8148, 8189, 8115, 8168, 8205, 8195, 8190, 8152, 8167, 8113, 8162, 8102, 8133,3.170380115509033
82, 8172, 8123, 8143, 8089, 8153, 8196, 8208, 8161, 8179, 8193, 8119, 8148, 8113, 8119,3.1864795684814453
83, 8198, 8130, 8188, 8088, 8153, 8183, 8196, 8197, 8189, 8183, 8125, 8169, 8124, 8139,3.2020556926727295
84, 8213, 8145, 8194, 8112, 8162, 8183, 8196, 8199, 8201, 8188, 8156, 8194, 8149, 8155,3.2020556926727295
85, 8196, 8126, 8156, 8103, 8154, 8161, 8182, 8166, 8192, 8191, 8168, 8182, 8160, 8141,3.2020556926727295
86, 8189, 8132, 8192, 8074, 8142, 8151, 8147, 8189, 8156, 8144, 8161, 8185, 8151, 8131,3.2182068824768066
87, 8190, 8151, 8156, 8097, 8149, 8148, 8140, 8158, 8148, 8121, 8184, 8180, 8158, 8105,3.2182068824768066
88, 8198, 8169, 8180, 8104, 8155, 8148, 8126, 8179, 8125, 8114, 8182, 8185, 8143, 8105,3.233564853668213
89, 8195, 8185, 8189, 8121, 8165, 8165, 8134, 8183, 8134, 8134, 8190, 8193, 8146, 8107,3.2513790130615234
90, 8190, 8176, 8153, 8133, 8164, 8154, 8140, 8159, 8159, 8150, 8204, 8182, 8160, 8103,3.2513790130615234
91, 8195, 8185, 8195, 8121, 8157, 8153, 8128, 8193, 8142, 8141, 8189, 8177, 8153, 8118,3.2513790130615234
92, 8181, 8191, 8167, 8147, 8169, 8170, 8146, 8158, 8134, 8148, 8179, 8142, 8148, 8101,3.2649781703948975
93, 8164, 8176, 8174, 8141, 8164, 8184, 8150, 8172, 8122, 8130, 8154, 8121, 8120, 8101,3.2649781703948975
94, 8155, 8173, 8179, 8146, 8162, 8209, 8170, 8182, 8136, 8149, 8152, 8130, 8119, 8114,3.2814276218414307
95, 8154, 8157, 8149, 8160, 8172, 8205, 8192, 8156, 8159, 8187, 8156, 8122, 8144, 8112,3.2973949909210205
96, 8157, 8153, 8189, 8134, 8163, 8200, 8185, 8203, 8143, 8172, 8138, 8129, 8139, 8129,3.2973949909210205
97, 8160, 8159, 8157, 8147, 8158, 8208, 8200, 8179, 8153, 8179, 8157, 8127, 8148, 8131,3.3121256828308105
98, 8169, 8153, 8173, 8146, 8150, 8199, 8195, 8176, 8149, 8178, 8146, 8121, 8145, 8137,3.3121256828308105
99, 8161, 8147, 8187, 8127, 8140, 8194, 8183, 8188, 8151, 8171, 8122, 8122, 8134, 8134,3.327425956726074
100, 8146, 8130, 8136, 8112, 8136, 8177, 8175, 8159, 8168, 8171, 8133, 8108, 8141, 8117,3.327425956726074
101, 8148, 8135, 8174, 8083, 8125, 8167, 8151, 8185, 8151, 8148, 8136, 8115, 8137, 8119,3.3443429470062256
102, 8154, 8146, 8147, 8094, 8126, 8161, 8155, 8162, 8167, 8159, 8154, 8124, 8150, 8111,3.3443429470062256
103, 8178, 8162, 8162, 8100, 8133, 8146, 8147, 8168, 8164, 8150, 8166, 8140, 8154, 8117,3.3600571155548096
104, 8195, 8197, 8205, 8120, 8148, 8158, 8142, 8190, 8139, 8131, 8179, 8153, 8150, 8119,3.3600571155548096
105, 8174, 8196, 8161, 8148, 8163, 8164, 8151, 8156, 8126, 8137, 8187, 8132, 8143, 8093,3.3600571155548096
106, 8159, 8189, 8193, 8131, 8157, 8170, 8138, 8185, 8114, 8125, 8173, 8138, 8127, 8100,3.3740694522857666
107, 8159, 8194, 8176, 8158, 8155, 8189, 8146, 8163, 8140, 8147, 8185, 8142, 8142, 8103,3.3899617195129395
108, 8164, 8178, 8171, 8171, 8159, 8194, 8150, 8156, 8137, 8152, 8163, 8121, 8132, 8105,3.3899617195129395
109, 8154, 8160, 8194, 8152, 8162, 8211, 8169, 8185, 8129, 8147, 8123, 8109, 8106, 8110,3.4053962230682373
110, 8141, 8142, 8143, 8151, 8155, 8214, 8197, 8160, 8152, 8170, 8118, 8095, 8113, 8103,3.4053962230682373
111, 8153, 8140, 8180, 8131, 8137, 8211, 8185, 8195, 8149, 8164, 8117, 8112, 8122, 8128,3.4211368560791016
112, 8166, 8139, 8172, 8130, 8139, 8207, 8179, 8177, 8169, 8174, 8143, 8130, 8146, 8135,3.4211368560791016
113, 8178, 8135, 8156, 8114, 8136, 8174, 8154, 8168, 8170, 8156, 8160, 8142, 8156, 8125,3.4371306896209717
114, 8191, 8171, 8196, 8119, 8132, 8171, 8133, 8202, 8144, 8130, 8182, 8166, 8159, 8126,3.4371306896209717
115, 8187, 8193, 8164, 8172, 8153, 8181, 8153, 8156, 8145, 8148, 8207, 8148, 8163, 8106,3.4523844718933105
116, 8175, 8187, 8186, 8177, 8161, 8188, 8153, 8173, 8121, 8136, 8163, 8121, 8131, 8110,3.4523844718933105
117, 8147, 8160, 8153, 8175, 8149, 8201, 8167, 8168, 8115, 8136, 8128, 8101, 8117, 8106,3.4675586223602295
118, 8141, 8127, 8130, 8157, 8146, 8200, 8179, 8158, 8133, 8156, 8128, 8092, 8122, 8105,3.4675586223602295
119, 8160, 8138, 8180, 8130, 8152, 8208, 8174, 8201, 8158, 8174, 8132, 8116, 8137, 8132,3.483069896697998
120, 8160, 8146, 8134, 8137, 8151, 8187, 8164, 8166, 8180, 8186, 8156, 8122, 8162, 8122,3.483069896697998
121, 8156, 8155, 8158, 8130, 8131, 8150, 8124, 8174, 8141, 8141, 8168, 8136, 8144, 8097,3.498323440551758
122, 8162, 8184, 8171, 8153, 8144, 8160, 8117, 8171, 8122, 8119, 8182, 8145, 8133, 8081,3.498323440551758
123, 8164, 8176, 8147, 8166, 8162, 8175, 8133, 8158, 8125, 8132, 8170, 8117, 8126, 8090,3.5139658451080322
124, 8147, 8154, 8176, 8153, 8150, 8191, 8147, 8183, 8120, 8137, 8131, 8103, 8106, 8109,3.5139658451080322
125, 8130, 8133, 8133, 8158, 8141, 8193, 8174, 8153, 8161, 8171, 8132, 8090, 8123, 8102,3.5296671390533447
126, 8140, 8121, 8158, 8113, 8136, 8182, 8159, 8186, 8171, 8172, 8135, 8098, 8138, 8114,3.5296671390533447
127, 8144, 8128, 8158, 8089, 8134, 8181, 8144, 8182, 8160, 8161, 8145, 8113, 8141, 8107,3.5452656745910645
236, 8154, 8139, 8133, 8109, 8131, 8158, 8131, 8149, 8155, 8149, 8157, 8118, 8139, 8092,3.5452656745910645
0, 8180, 8172, 8197, 8119, 8133, 8154, 8105, 8190, 8132, 8122, 8170, 8148, 8136, 8111,3.560201644897461
1, 8167, 8178, 8157, 8142, 8150, 8160, 8110, 8153, 8120, 8127, 8185, 8135, 8137, 8091,3.560201644897461
2, 8130, 8155, 8150, 8132, 8146, 8156, 8116, 8156, 8092, 8116, 8142, 8099, 8107, 8071,3.576235294342041
3, 8118, 8152, 8167, 8144, 8150, 8185, 8152, 8183, 8110, 8143, 8131, 8092, 8115, 8087,3.576235294342041
4, 8134, 8141, 8145, 8166, 8162, 8201, 8180, 8169, 8159, 8197, 8155, 8099, 8158, 8117,3.5915021896362305
5, 8148, 8133, 8188, 8131, 8140, 8192, 8157, 8198, 8160, 8188, 8147, 8124, 8160, 8141,3.5915021896362305
6, 8141, 8127, 8151, 8125, 8127, 8182, 8153, 8168, 8162, 8179, 8156, 8120, 8156, 8118,3.60685133934021
7, 8151, 8130, 8164, 8126, 8130, 8166, 8137, 8178, 8151, 8161, 8149, 8115, 8142, 8114,3.60685133934021
8, 8164, 8141, 8199, 8116, 8119, 8155, 8120, 8188, 8150, 8145, 8156, 8147, 8151, 8122,3.6227188110351562
9, 8167, 8143, 8166, 8123, 8112, 8132, 8112, 8141, 8136, 8135, 8207, 8173, 8176, 8105,3.6227188110351562
10, 8175, 8185, 8218, 8164, 8136, 8147, 8101, 8170, 8082, 8111, 8228, 8196, 8163, 8112,3.6383554935455322
11, 8172, 8210, 8206, 8239, 8163, 8188, 8132, 8158, 8097, 8146, 8237, 8183, 8167, 8113,3.6383554935455322
12, 8175, 8179, 8208, 8231, 8139, 8184, 8137, 8169, 8135, 8173, 8232, 8176, 8182, 8128,3.6543681621551514
13, 8190, 8174, 8241, 8210, 8116, 8167, 8113, 8189, 8148, 8160, 8241, 8212, 8195, 8145,3.6543681621551514
14, 8214, 8198, 8221, 8237, 8124, 8139, 8099, 8149, 8143, 8142, 8269, 8240, 8207, 8133,3.670414924621582
15, 8230, 8221, 8267, 8234, 8124, 8128, 8085, 8179, 8090, 8099, 8269, 8262, 8187, 8130,3.670414924621582
16, 8194, 8207, 8225, 8256, 8128, 8152, 8106, 8159, 8059, 8097, 8258, 8235, 8166, 8111,3.685365676879883
17, 8171, 8173, 8207, 8263, 8125, 8167, 8125, 8152, 8058, 8118, 8233, 8208, 8161, 8116,3.685365676879883
18, 8201, 8176, 8255, 8243, 8113, 8166, 8127, 8183, 8094, 8149, 8246, 8248, 8195, 8155,3.701488733291626
19, 8235, 8185, 8232, 8246, 8110, 8134, 8102, 8150, 8127, 8166, 8290, 8276, 8237, 8162,3.701488733291626
20, 8243, 8207, 8268, 8238, 8103, 8117, 8046, 8175, 8078, 8108, 8276, 8283, 8214, 8156,3.717312812805176
21, 8225, 8225, 8243, 8263, 8115, 8147, 8058, 8165, 8057, 8087, 8257, 8261, 8189, 8134,3.717312812805176
22, 8217, 8197, 8219, 8269, 8129, 8176, 8095, 8155, 8068, 8113, 8231, 8228, 8175, 8133,3.732424736022949
23, 8216, 8168, 8245, 8235, 8121, 8194, 8115, 8181, 8091, 8141, 8203, 8218, 8168, 8152,3.732424736022949
24, 8203, 8153, 8189, 8207, 8116, 8174, 8124, 8148, 8126, 8152, 8207, 8204, 8185, 8138,3.748411178588867
25, 8197, 8167, 8203, 8172, 8121, 8143, 8089, 8171, 8086, 8089, 8197, 8210, 8167, 8127,3.748411178588867
26, 8186, 8192, 8190, 8190, 8132, 8151, 8079, 8159, 8050, 8074, 8205, 8206, 8154, 8110,3.7631561756134033
27, 8175, 8188, 8173, 8207, 8133, 8160, 8089, 8151, 8057, 8111, 8217, 8188, 8154, 8109,3.7631561756134033
28, 8171, 8188, 8210, 8201, 8131, 8175, 8096, 8188, 8069, 8116, 8199, 8189, 8143, 8125,3.7792463302612305
29, 8162, 8177, 8165, 8215, 8137, 8183, 8118, 8143, 8074, 8116, 8171, 8160, 8131, 8102,3.7792463302612305
30, 8158, 8162, 8185, 8184, 8126, 8191, 8121, 8169, 8059, 8110, 8130, 8138, 8114, 8100,3.7947139739990234
31, 8148, 8151, 8169, 8161, 8125, 8206, 8138, 8184, 8097, 8137, 8134, 8137, 8134, 8103,3.7947139739990234
32, 8145, 8128, 8126, 8137, 8129, 8175, 8132, 8158, 8130, 8142, 8147, 8134, 8152, 8094,3.8102927207946777
33, 8149, 8131, 8168, 8088, 8118, 8150, 8100, 8180, 8109, 8109, 8144, 8153, 8155, 8103,3.8102927207946777
34, 8147, 8141, 8129, 8092, 8117, 8145, 8101, 8150, 8108, 8109, 8170, 8161, 8175, 8095,3.8263323307037354
35, 8160, 8152, 8154, 8102, 8122, 8137, 8084, 8167, 8092, 8095, 8172, 8166, 8158, 8102,3.8263323307037354
36, 8168, 8171, 8182, 8129, 8130, 8155, 8079, 8166, 8087, 8103, 8178, 8163, 8147, 8104,3.8420169353485107
37, 8160, 8165, 8153, 8153, 8134, 8167, 8096, 8139, 8089, 8112, 8174, 8133, 8144, 8089,3.8420169353485107
38, 8147, 8161, 8180, 8142, 8131, 8185, 8113, 8178, 8071, 8094, 8127, 8114, 8113, 8092,3.8571650981903076
39, 8123, 8138, 8131, 8145, 8137, 8195, 8139, 8154, 8089, 8122, 8107, 8080, 8104, 8080,3.8571650981903076
40, 8111, 8101, 8133, 8109, 8113, 8172, 8116, 8167, 8091, 8131, 8097, 8070, 8106, 8080,3.872591018676758
41, 8111, 8094, 8138, 8075, 8089, 8151, 8095, 8172, 8106, 8135, 8105, 8094, 8122, 8086,3.872591018676758
42, 8118, 8095, 8105, 8063, 8092, 8133, 8098, 8142, 8135, 8144, 8111, 8095, 8135, 8084,3.8882992267608643
43, 8141, 8111, 8167, 8045, 8099, 8137, 8088, 8179, 8116, 8107, 8093, 8105, 8120, 8095,3.8882992267608643
44, 8158, 8122, 8146, 8066, 8107, 8143, 8099, 8150, 8118, 8099, 8113, 8119, 8128, 8078,3.9043993949890137
45, 8167, 8134, 8154, 8069, 8108, 8137, 8100, 8159, 8122, 8102, 8126, 8131, 8131, 8083,3.9043993949890137
46, 8159, 8159, 8179, 8079, 8117, 8157, 8106, 8186, 8114, 8106, 8126, 8134, 8125, 8088,3.918527841567993
47, 8132, 8153, 8134, 8096, 8134, 8169, 8120, 8150, 8104, 8110, 8119, 8103, 8107, 8056,3.934124708175659
48, 8114, 8146, 8165, 8079, 8121, 8178, 8118, 8177, 8082, 8095, 8079, 8083, 8074, 8057,3.934124708175659
49, 8096, 8137, 8128, 8097, 8112, 8200, 8140, 8160, 8098, 8113, 8067, 8059, 8085, 8057,3.949338912963867
50, 8091, 8117, 8121, 8090, 8114, 8201, 8145, 8171, 8110, 8116, 8064, 8052, 8095, 8061,3.949338912963867
51, 8102, 8114, 8153, 8069, 8115, 8201, 8155, 8197, 8146, 8132, 8069, 8067, 8102, 8081,3.965440511703491
52, 8120, 8102, 8114, 8069, 8110, 8187, 8169, 8162, 8194, 8166, 8085, 8064, 8122, 8090,3.965440511703491
53, 8136, 8106, 8153, 8043, 8099, 8169, 8143, 8191, 8177, 8135, 8079, 8088, 8126, 8103,3.981076240539551
54, 8132, 8129, 8140, 8058, 8111, 8152, 8133, 8169, 8169, 8117, 8107, 8104, 8140, 8088,3.981076240539551
55, 8135, 8135, 8132, 8069, 8117, 8121, 8111, 8152, 8140, 8103, 8122, 8100, 8125, 8076,3.996185779571533
56, 8132, 8147, 8154, 8063, 8115, 8130, 8104, 8173, 8102, 8079, 8106, 8101, 8095, 8069,3.996185779571533
57, 8115, 8155, 8110, 8089, 8128, 8144, 8133, 8146, 8117, 8088, 8106, 8078, 8097, 8047,4.016390562057495
58, 8119, 8167, 8154, 8096, 8130, 8142, 8127, 8179, 8113, 8081, 8095, 8079, 8083, 8054,4.016390562057495
59, 8111, 8168, 8137, 8110, 8126, 8149, 8132, 8165, 8117, 8093, 8086, 8075, 8071, 8053,4.016390562057495
60, 8095, 8139, 8108, 8097, 8120, 8155, 8141, 8154, 8124, 8106, 8060, 8050, 8062, 8057,4.027188062667847
61, 8091, 8127, 8142, 8079, 8117, 8169, 8148, 8190, 8129, 8117, 8052, 8053, 8068, 8076,4.043011903762817
62, 8091, 8116, 8102, 8092, 8122, 8165, 8168, 8158, 8153, 8154, 8081, 8048, 8100, 8076,4.043011903762817
63, 8101, 8114, 8131, 8071, 8115, 8162, 8159, 8181, 8152, 8152, 8064, 8057, 8103, 8100,4.058330535888672
64, 8106, 8119, 8128, 8070, 8112, 8171, 8159, 8175, 8165, 8153, 8064, 8072, 8110, 8105,4.058330535888672
65, 8113, 8108, 8114, 8065, 8110, 8149, 8152, 8160, 8170, 8153, 8082, 8069, 8116, 8098,4.0738115310668945
66, 8125, 8121, 8164, 8047, 8108, 8146, 8142, 8196, 8173, 8148, 8087, 8088, 8119, 8114,4.0738115310668945
67, 8131, 8129, 8121, 8063, 8113, 8141, 8143, 8162, 8197, 8161, 8110, 8103, 8144, 8104,4.089386701583862
68, 8143, 8139, 8144, 8048, 8108, 8117, 8107, 8174, 8157, 8115, 8113, 8118, 8132, 8100,4.089386701583862
69, 8146, 8158, 8154, 8057, 8112, 8121, 8094, 8164, 8124, 8091, 8122, 8120, 8115, 8091,4.1049864292144775
70, 8140, 8153, 8130, 8075, 8119, 8121, 8098, 8139, 8119, 8103, 8129, 8108, 8114, 8074,4.1049864292144775
71, 8133, 8161, 8165, 8070, 8120, 8132, 8096, 8175, 8105, 8103, 8122, 8112, 8102, 8082,4.120022773742676
72, 8116, 8159, 8122, 8103, 8134, 8159, 8124, 8152, 8116, 8127, 8117, 8087, 8097, 8079,4.120022773742676
73, 8106, 8136, 8139, 8099, 8130, 8168, 8135, 8177, 8112, 8121, 8070, 8062, 8078, 8085,4.1361777782440186
74, 8093, 8120, 8140, 8082, 8108, 8164, 8148, 8179, 8126, 8127, 8046, 8052, 8076, 8079,4.1361777782440186
75, 8092, 8109, 8111, 8079, 8109, 8155, 8158, 8152, 8147, 8149, 8058, 8050, 8093, 8077,4.151683807373047
76, 8114, 8122, 8168, 8066, 8119, 8158, 8147, 8191, 8146, 8146, 8059, 8079, 8102, 8106,4.151683807373047
77, 8117, 8125, 8129, 8065, 8117, 8141, 8141, 8155, 8163, 8145, 8067, 8074, 8118, 8093,4.1674158573150635
78, 8121, 8126, 8140, 8048, 8109, 8120, 8106, 8160, 8151, 8114, 8079, 8077, 8119, 8088,4.1674158573150635
79, 8131, 8143, 8169, 8056, 8121, 8135, 8094, 8177, 8156, 8114, 8116, 8110, 8132, 8101,4.18268084526062
80, 8133, 8133, 8132, 8065, 8123, 8127, 8101, 8150, 8171, 8130, 8122, 8103, 8131, 8088,4.18268084526062
81, 8137, 8138, 8163, 8047, 8116, 8121, 8087, 8180, 8145, 8100, 8093, 8097, 8108, 8082,4.1980321407318115
82, 8136, 8154, 8140, 8077, 8136, 8138, 8102, 8156, 8151, 8115, 8127, 8106, 8129, 8073,4.1980321407318115
83, 8131, 8149, 8148, 8079, 8132, 8132, 8103, 8163, 8140, 8121, 8142, 8113, 8125, 8074,4.214060068130493
84, 8117, 8144, 8160, 8064, 8115, 8126, 8090, 8170, 8110, 8097, 8123, 8109, 8101, 8064,4.214060068130493
85, 8110, 8135, 8113, 8071, 8118, 8119, 8082, 8127, 8107, 8089, 8121, 8092, 8103, 8043,4.229324579238892
86, 8113, 8152, 8154, 8071, 8120, 8133, 8078, 8167, 8104, 8083, 8112, 8105, 8098, 8057,4.229324579238892
87, 8112, 8174, 8144, 8118, 8141, 8170, 8113, 8157, 8132, 8122, 8132, 8108, 8111, 8068,4.245348215103149
88, 8127, 8182, 8167, 8149, 8158, 8176, 8114, 8157, 8138, 8139, 8142, 8110, 8115, 8089,4.245348215103149
89, 8143, 8191, 8202, 8161, 8153, 8174, 8105, 8174, 8123, 8127, 8131, 8122, 8101, 8096,4.260434150695801
90, 8127, 8163, 8136, 8162, 8144, 8171, 8122, 8139, 8126, 8129, 8112, 8091, 8089, 8069,4.260434150695801
91, 8103, 8134, 8155, 8113, 8135, 8185, 8120, 8172, 8107, 8121, 8079, 8070, 8071, 8073,4.276624917984009
92, 8094, 8131, 8138, 8112, 8141, 8199, 8146, 8158, 8118, 8142, 8082, 8067, 8086, 8069,4.276624917984009
93, 8111, 8128, 8130, 8117, 8139, 8178, 8158, 8155, 8135, 8145, 8079, 8071, 8100, 8077,4.292020797729492
94, 8123, 8129, 8167, 8090, 8128, 8171, 8138, 8186, 8145, 8136, 8075, 8088, 8104, 8099,4.292020797729492
95, 8125, 8120, 8130, 8085, 8127, 8161, 8120, 8149, 8165, 8150, 8102, 8093, 8124, 8087,4.308061122894287
96, 8136, 8126, 8162, 8076, 8124, 8147, 8105, 8180, 8158, 8140, 8107, 8109, 8126, 8092,4.308061122894287
97, 8134, 8131, 8137, 8078, 8128, 8148, 8121, 8176, 8171, 8148, 8109, 8104, 8128, 8088,4.323097229003906
98, 8141, 8135, 8125, 8073, 8129, 8131, 8118, 8156, 8152, 8124, 8110, 8104, 8118, 8076,4.323097229003906
99, 8161, 8171, 8180, 8086, 8130, 8136, 8108, 8178, 8109, 8083, 8121, 8134, 8108, 8081,4.338235378265381
100, 8147, 8172, 8137, 8115, 8137, 8142, 8121, 8148, 8104, 8100, 8139, 8118, 8111, 8063,4.338235378265381
101, 8135, 8167, 8162, 8099, 8141, 8143, 8113, 8177, 8091, 8099, 8115, 8105, 8094, 8065,4.353802442550659
102, 8143, 8189, 8172, 8125, 8157, 8169, 8123, 8178, 8122, 8107, 8119, 8118, 8099, 8075,4.3691418170928955
103, 8155, 8186, 8164, 8154, 8161, 8170, 8127, 8160, 8138, 8121, 8128, 8114, 8105, 8088,4.370142698287964
104, 8142, 8171, 8188, 8136, 8146, 8175, 8132, 8183, 8106, 8125, 8101, 8104, 8088, 8094,4.370142698287964
105, 8113, 8141, 8123, 8121, 8139, 8180, 8159, 8146, 8125, 8151, 8084, 8071, 8094, 8074,4.384379148483276
106, 8119, 8118, 8146, 8083, 8127, 8165, 8144, 8171, 8145, 8143, 8071, 8070, 8097, 8085,4.399986505508423
107, 8129, 8127, 8156, 8089, 8125, 8161, 8142, 8175, 8156, 8149, 8091, 8091, 8109, 8092,4.399986505508423
108, 8118, 8131, 8124, 8109, 8130, 8160, 8150, 8152, 8155, 8159, 8096, 8077, 8110, 8084,4.415022611618042
109, 8119, 8133, 8163, 8088, 8127, 8162, 8135, 8191, 8139, 8137, 8074, 8074, 8095, 8092,4.415022611618042
110, 8132, 8131, 8133, 8081, 8128, 8142, 8126, 8164, 8160, 8134, 8101, 8089, 8120, 8083,4.415022611618042
111, 8139, 8146, 8144, 8070, 8127, 8118, 8097, 8172, 8147, 8110, 8116, 8115, 8125, 8077,4.431085109710693
112, 8128, 8175, 8150, 8098, 8136, 8124, 8095, 8171, 8117, 8098, 8119, 8115, 8109, 8060,4.447535276412964
113, 8125, 8179, 8144, 8132, 8149, 8132, 8118, 8154, 8105, 8106, 8122, 8099, 8096, 8051,4.447535276412964
114, 8130, 8180, 8176, 8131, 8155, 8164, 8134, 8183, 8108, 8110, 8109, 8107, 8094, 8071,4.447535276412964
115, 8119, 8170, 8126, 8154, 8164, 8180, 8154, 8149, 8143, 8137, 8107, 8094, 8107, 8071,4.463229417800903
116, 8124, 8164, 8164, 8147, 8160, 8175, 8144, 8180, 8145, 8143, 8096, 8098, 8098, 8088,4.463229417800903
117, 8133, 8165, 8170, 8144, 8157, 8186, 8160, 8192, 8162, 8164, 8106, 8108, 8110, 8100,4.479423522949219
118, 8132, 8142, 8119, 8144, 8147, 8175, 8182, 8156, 8179, 8173, 8097, 8084, 8116, 8089,4.479423522949219
119, 8131, 8138, 8174, 8112, 8125, 8166, 8163, 8193, 8146, 8134, 8061, 8090, 8090, 8094,4.4953293800354
120, 8117, 8133, 8136, 8118, 8126, 8171, 8160, 8153, 8145, 8139, 8078, 8087, 8096, 8083,4.4953293800354
121, 8122, 8121, 8124, 8119, 8137, 8163, 8148, 8146, 8143, 8136, 8084, 8079, 8105, 8092,4.5103795528411865
122, 8142, 8147, 8161, 8123, 8145, 8163, 8141, 8179, 8149, 8128, 8089, 8098, 8118, 8108,4.527003049850464
123, 8144, 8146, 8126, 8126, 8140, 8140, 8134, 8155, 8174, 8143, 8111, 8098, 8142, 8095,4.527003049850464
124, 8143, 8135, 8152, 8089, 8121, 8121, 8098, 8182, 8161, 8122, 8109, 8110, 8141, 8105,4.527003049850464
125, 8150, 8153, 8137, 8097, 8134, 8132, 8103, 8164, 8148, 8116, 8121, 8124, 8143, 8098,4.542093753814697
126, 8163, 8170, 8138, 8117, 8155, 8138, 8117, 8154, 8134, 8110, 8127, 8120, 8131, 8084,4.558273077011108
127, 8162, 8183, 8173, 8127, 8149, 8149, 8117, 8178, 8134, 8104, 8128, 8115, 8111, 8081,4.558273077011108
236, 8139, 8176, 8126, 8146, 8137, 8151, 8123, 8151, 8146, 8116, 8132, 8095, 8103, 8060,4.558273077011108
0, 8125, 8178, 8150, 8139, 8136, 8164, 8125, 8174, 8123, 8109, 8113, 8101, 8096, 8065,4.57334041595459
1, 8127, 8184, 8148, 8163, 8153, 8188, 8143, 8158, 8128, 8122, 8119, 8102, 8104, 8076,4.5899622440338135
2, 8135, 8165, 8138, 8168, 8158, 8182, 8143, 8153, 8123, 8120, 8104, 8078, 8091, 8077,4.5899622440338135
3, 8129, 8149, 8157, 8146, 8145, 8196, 8146, 8181, 8115, 8123, 8075, 8075, 8083, 8081,4.5899622440338135
4, 8121, 8135, 8111, 8151, 8140, 8205, 8166, 8149, 8154, 8163, 8095, 8079, 8115, 8085,4.604004621505737
5, 8135, 8135, 8149, 8139, 8135, 8190, 8149, 8182, 8156, 8157, 8101, 8098, 8116, 8113,4.619614839553833
6, 8136, 8136, 8139, 8139, 8139, 8188, 8149, 8171, 8152, 8158, 8095, 8090, 8115, 8108,4.619614839553833
7, 8130, 8120, 8112, 8117, 8135, 8175, 8141, 8148, 8154, 8155, 8087, 8071, 8118, 8097,4.635435104370117
8, 8131, 8124, 8147, 8085, 8119, 8157, 8113, 8171, 8137, 8109, 8083, 8087, 8107, 8101,4.635435104370117
9, 8135, 8130, 8114, 8095, 8123, 8145, 8110, 8141, 8135, 8096, 8101, 8094, 8113, 8080,4.652198314666748
10, 8156, 8141, 8149, 8088, 8130, 8149, 8110, 8176, 8129, 8097, 8102, 8112, 8118, 8091,4.652198314666748
11, 8159, 8150, 8147, 8099, 8128, 8151, 8125, 8176, 8148, 8112, 8119, 8123, 8134, 8099,4.652198314666748
12, 8155, 8147, 8129, 8109, 8124, 8126, 8116, 8149, 8137, 8107, 8128, 8113, 8132, 8084,4.666242837905884
13, 8157, 8167, 8171, 8103, 8128, 8127, 8090, 8173, 8100, 8082, 8117, 8111, 8107, 8077,4.682248115539551
14, 8145, 8172, 8125, 8129, 8135, 8135, 8104, 8143, 8109, 8088, 8126, 8096, 8104, 8066,4.682248115539551
15, 8143, 8170, 8150, 8142, 8129, 8130, 8102, 8167, 8085, 8066, 8112, 8095, 8089, 8078,4.69830060005188
16, 8144, 8178, 8160, 8154, 8134, 8148, 8103, 8162, 8073, 8076, 8118, 8095, 8092, 8075,4.69830060005188
17, 8138, 8167, 8130, 8152, 8149, 8161, 8115, 8139, 8099, 8109, 8128, 8084, 8101, 8070,4.714342832565308
18, 8135, 8162, 8170, 8138, 8155, 8172, 8121, 8179, 8104, 8103, 8108, 8095, 8086, 8091,4.714342832565308
19, 8133, 8148, 8132, 8161, 8153, 8177, 8142, 8146, 8112, 8114, 8110, 8084, 8090, 8087,4.729956865310669
20, 8143, 8139, 8146, 8149, 8130, 8165, 8141, 8161, 8106, 8118, 8105, 8078, 8087, 8097,4.729956865310669
21, 8138, 8143, 8155, 8137, 8122, 8167, 8150, 8178, 8125, 8141, 8101, 8089, 8101, 8110,4.729956865310669
22, 8132, 8122, 8117, 8133, 8128, 8161, 8153, 8158, 8146, 8160, 8101, 8084, 8124, 8110,4.74648904800415
23, 8154, 8125, 8167, 8118, 8124, 8162, 8145, 8195, 8139, 8147, 8099, 8097, 8126, 8133,4.761869192123413
24, 8168, 8139, 8155, 8142, 8137, 8168, 8167, 8167, 8170, 8167, 8118, 8100, 8147, 8136,4.761869192123413
25, 8165, 8128, 8159, 8125, 8137, 8146, 8139, 8168, 8169, 8157, 8112, 8101, 8151, 8128,4.777180433273315
26, 8152, 8131, 8159, 8101, 8122, 8131, 8099, 8173, 8140, 8120, 8123, 8117, 8144, 8106,4.777180433273315
27, 8146, 8148, 8126, 8123, 8124, 8121, 8092, 8137, 8115, 8100, 8146, 8111, 8133, 8078,4.792952537536621
28, 8154, 8179, 8178, 8142, 8143, 8136, 8086, 8168, 8085, 8089, 8133, 8113, 8112, 8089,4.793954133987427
29, 8156, 8184, 8157, 8182, 8155, 8160, 8116, 8154, 8107, 8115, 8132, 8108, 8120, 8093,4.793954133987427
30, 8155, 8152, 8156, 8168, 8134, 8160, 8136, 8166, 8125, 8129, 8122, 8103, 8121, 8106,4.808002233505249
31, 8147, 8132, 8162, 8130, 8120, 8157, 8134, 8181, 8134, 8132, 8106, 8096, 8118, 8111,4.824090480804443
32, 8144, 8123, 8118, 8129, 8129, 8133, 8116, 8143, 8144, 8123, 8104, 8083, 8129, 8091,4.824090480804443
33, 8163, 8142, 8168, 8120, 8128, 8127, 8087, 8175, 8124, 8097, 8117, 8122, 8134, 8103,4.8392274379730225
34, 8162, 8160, 8152, 8137, 8138, 8149, 8102, 8155, 8122, 8110, 8157, 8141, 8146, 8101,4.8392274379730225
35, 8150, 8153, 8150, 8154, 8144, 8154, 8113, 8154, 8106, 8094, 8137, 8116, 8131, 8092,4.854819059371948
36, 8146, 8153, 8180, 8178, 8139, 8175, 8128, 8182, 8092, 8090, 8101, 8105, 8111, 8100,4.854819059371948
37, 8142, 8140, 8140, 8200, 8153, 8189, 8151, 8150, 8113, 8142, 8105, 8091, 8115, 8103,4.870391607284546
38, 8151, 8136, 8173, 8173, 8157, 8190, 8139, 8181, 8129, 8146, 8104, 8107, 8127, 8120,4.870391607284546
39, 8164, 8147, 8158, 8164, 8137, 8177, 8136, 8172, 8161, 8140, 8134, 8140, 8168, 8122,4.886042833328247
40, 8175, 8154, 8153, 8138, 8127, 8144, 8104, 8157, 8136, 8112, 8151, 8153, 8165, 8116,4.886042833328247
41, 8169, 8175, 8175, 8138, 8148, 8146, 8080, 8167, 8089, 8074, 8139, 8145, 8133, 8098,4.901762008666992
42, 8160, 8174, 8139, 8169, 8156, 8147, 8092, 8137, 8086, 8071, 8132, 8120, 8129, 8064,4.901762008666992
43, 8163, 8174, 8196, 8141, 8135, 8141, 8079, 8180, 8063, 8059, 8124, 8138, 8119, 8075,4.9170753955841064
44, 8155, 8179, 8137, 8167, 8150, 8145, 8097, 8145, 8082, 8101, 8162, 8138, 8140, 8082,4.9170753955841064
45, 8156, 8173, 8127, 8196, 8168, 8138, 8105, 8132, 8087, 8115, 8165, 8118, 8140, 8089,4.932248830795288
46, 8159, 8190, 8225, 8190, 8158, 8169, 8099, 8190, 8055, 8084, 8127, 8130, 8109, 8103,4.932248830795288
47, 8147, 8185, 8165, 8220, 8159, 8183, 8116, 8144, 8069, 8103, 8125, 8109, 8116, 8085,4.948010206222534
48, 8154, 8182, 8201, 8214, 8159, 8180, 8107, 8174, 8070, 8106, 8116, 8114, 8119, 8108,4.948010206222534
49, 8153, 8181, 8182, 8223, 8167, 8201, 8135, 8169, 8099, 8126, 8135, 8120, 8136, 8117,4.963224172592163
50, 8149, 8157, 8150, 8212, 8165, 8193, 8145, 8153, 8107, 8132, 8140, 8112, 8141, 8104,4.963224172592163
51, 8156, 8167, 8205, 8200, 8161, 8198, 8133, 8193, 8095, 8129, 8125, 8133, 8136, 8117,4.979332685470581
52, 8160, 8165, 8156, 8233, 8171, 8205, 8158, 8150, 8133, 8168, 8151, 8128, 8156, 8114,4.979332685470581
53, 8166, 8161, 8198, 8212, 8164, 8202, 8157, 8180, 8138, 8156, 8153, 8139, 8154, 8125,4.995414972305298
54, 8156, 8169, 8170, 8204, 8164, 8211, 8164, 8178, 8153, 8163, 8156, 8143, 8162, 8119,4.995414972305298
55, 8155, 8152, 8138, 8196, 8164, 8193, 8154, 8158, 8153, 8173, 8153, 8130, 8160, 8114,5.0112693309783936
56, 8167, 8159, 8196, 8186, 8154, 8180, 8129, 8187, 8127, 8140, 8136, 8145, 8149, 8135,5.0112693309783936
57, 8165, 8161, 8152, 8207, 8153, 8169, 8124, 8143, 8139, 8143, 8149, 8145, 8166, 8128,5.027372360229492
58, 8166, 8153, 8179, 8184, 8142, 8159, 8104, 8162, 8119, 8134, 8145, 8158, 8160, 8134,5.027372360229492
59, 8163, 8154, 8179, 8179, 8132, 8165, 8111, 8168, 8102, 8125, 8141, 8157, 8155, 8122,5.042043685913086
60, 8162, 8151, 8141, 8193, 8129, 8152, 8112, 8139, 8108, 8122, 8141, 8131, 8152, 8102,5.042043685913086
61, 8172, 8165, 8181, 8185, 8137, 8154, 8099, 8174, 8114, 8119, 8152, 8146, 8149, 8119,5.057331800460815
62, 8176, 8178, 8165, 8197, 8157, 8163, 8109, 8152, 8138, 8142, 8189, 8157, 8171, 8117,5.057331800460815
63, 8173, 8183, 8177, 8192, 8153, 8148, 8087, 8165, 8125, 8135, 8180, 8151, 8164, 8109,5.072883367538452
64, 8163, 8191, 8170, 8201, 8151, 8150, 8073, 8173, 8115, 8130, 8169, 8152, 8147, 8107,5.072883367538452
65, 8161, 8183, 8137, 8208, 8163, 8155, 8086, 8138, 8102, 8121, 8176, 8146, 8134, 8102,5.088541507720947
66, 8152, 8178, 8167, 8178, 8147, 8158, 8087, 8165, 8063, 8089, 8160, 8135, 8109, 8097,5.088541507720947
67, 8129, 8175, 8133, 8189, 8136, 8162, 8106, 8148, 8074, 8108, 8155, 8111, 8110, 8071,5.104130268096924
68, 8139, 8173, 8150, 8205, 8146, 8166, 8110, 8148, 8077, 8113, 8140, 8110, 8103, 8075,5.104130268096924
69, 8147, 8175, 8168, 8207, 8152, 8186, 8112, 8157, 8068, 8100, 8132, 8114, 8100, 8084,5.119418621063232
70, 8128, 8151, 8126, 8193, 8149, 8186, 8127, 8140, 8078, 8111, 8129, 8096, 8111, 8073,5.119418621063232
71, 8125, 8145, 8159, 8164, 8145, 8182, 8127, 8180, 8083, 8118, 8113, 8104, 8106, 8097,5.135010242462158
72, 8141, 8155, 8138, 8176, 8148, 8176, 8129, 8155, 8113, 8139, 8125, 8115, 8123, 8111,5.135010242462158
73, 8157, 8154, 8145, 8161, 8136, 8153, 8102, 8155, 8112, 8121, 8128, 8127, 8130, 8109,5.1502180099487305
74, 8148, 8161, 8164, 8142, 8129, 8150, 8081, 8174, 8093, 8097, 8131, 8132, 8122, 8095,5.1502180099487305
75, 8127, 8160, 8124, 8151, 8135, 8144, 8080, 8131, 8082, 8093, 8135, 8109, 8120, 8072,5.166320562362671
76, 8123, 8161, 8151, 8127, 8122, 8135, 8069, 8150, 8046, 8062, 8111, 8107, 8105, 8078,5.166320562362671
77, 8123, 8160, 8135, 8122, 8112, 8143, 8083, 8141, 8045, 8057, 8119, 8100, 8099, 8069,5.181514739990234
78, 8127, 8156, 8142, 8123, 8121, 8154, 8089, 8146, 8053, 8060, 8121, 8086, 8092, 8066,5.181514739990234
79, 8117, 8160, 8156, 8131, 8134, 8174, 8097, 8165, 8060, 8079, 8105, 8083, 8092, 8070,5.1971189975738525
80, 8099, 8146, 8115, 8142, 8135, 8171, 8116, 8134, 8078, 8109, 8104, 8070, 8096, 8058,5.1971189975738525
81, 8105, 8148, 8160, 8124, 8134, 8175, 8115, 8175, 8079, 8097, 8097, 8082, 8089, 8080,5.213025093078613
82, 8108, 8152, 8141, 8136, 8147, 8198, 8133, 8166, 8103, 8108, 8099, 8087, 8101, 8083,5.213025093078613
83, 8110, 8134, 8125, 8128, 8139, 8193, 8138, 8156, 8110, 8123, 8090, 8080, 8095, 8078,5.229032754898071
84, 8119, 8129, 8157, 8107, 8126, 8192, 8144, 8190, 8115, 8125, 8087, 8095, 8088, 8096,5.229032754898071
85, 8106, 8111, 8115, 8110, 8136, 8188, 8164, 8158, 8145, 8140, 8094, 8092, 8107, 8090,5.243466377258301
86, 8099, 8102, 8132, 8084, 8132, 8179, 8153, 8179, 8143, 8132, 8070, 8087, 8099, 8090,5.243466377258301
87, 8110, 8121, 8128, 8090, 8131, 8179, 8156, 8176, 8159, 8149, 8084, 8091, 8106, 8098,5.259373188018799
88, 8125, 8124, 8130, 8092, 8131, 8162, 8149, 8163, 8168, 8151, 8108, 8105, 8126, 8108,5.259373188018799
89, 8132, 8127, 8161, 8074, 8119, 8157, 8127, 8183, 8150, 8123, 8103, 8124, 8134, 8111,5.275392293930054
90, 8131, 8129, 8122, 8090, 8120, 8148, 8126, 8150, 8154, 8122, 8117, 8117, 8141, 8089,5.276391983032227
91, 8132, 8138, 8158, 8086, 8113, 8135, 8108, 8173, 8128, 8097, 8116, 8123, 8117, 8084,5.29102897644043
92, 8115, 8143, 8152, 8092, 8103, 8139, 8106, 8164, 8106, 8083, 8115, 8127, 8105, 8068,5.29102897644043
93, 8113, 8134, 8132, 8102, 8108, 8138, 8113, 8145, 8111, 8096, 8119, 8123, 8116, 8059,5.307084083557129
94, 8129, 8153, 8175, 8107, 8124, 8153, 8116, 8179, 8122, 8108, 8130, 8139, 8121, 8074,5.307084083557129
95, 8124, 8158, 8148, 8139, 8134, 8159, 8129, 8148, 8133, 8133, 8152, 8139, 8133, 8066,5.322553396224976
96, 8127, 8153, 8177, 8152, 8126, 8164, 8126, 8167, 8114, 8124, 8140, 8144, 8125, 8084,5.33822774887085
97, 8128, 8156, 8175, 8166, 8129, 8183, 8141, 8172, 8123, 8125, 8135, 8143, 8121, 8097,5.33822774887085
98, 8118, 8145, 8149, 8163, 8139, 8179, 8155, 8152, 8144, 8142, 8135, 8124, 8125, 8088,5.33822774887085
99, 8114, 8143, 8183, 8150, 8140, 8188, 8152, 8190, 8145, 8146, 8125, 8129, 8127, 8098,5.354009389877319
100, 8109, 8136, 8148, 8170, 8143, 8197, 8157, 8159, 8164, 8168, 8131, 8123, 8132, 8094,5.369506120681763
101, 8120, 8132, 8168, 8151, 8136, 8185, 8144, 8162, 8155, 8163, 8128, 8125, 8126, 8104,5.369506120681763
102, 8127, 8131, 8170, 8123, 8128, 8189, 8155, 8173, 8157, 8161, 8138, 8133, 8144, 8116,5.369506120681763
103, 8120, 8110, 8130, 8115, 8125, 8187, 8167, 8152, 8177, 8167, 8130, 8113, 8146, 8109,5.386163949966431
104, 8118, 8115, 8161, 8108, 8124, 8175, 8150, 8189, 8178, 8157, 8116, 8119, 8135, 8109,5.386163949966431
105, 8117, 8126, 8128, 8108, 8123, 8156, 8141, 8168, 8185, 8161, 8144, 8127, 8151, 8086,5.401275873184204
106, 8122, 8121, 8135, 8072, 8106, 8137, 8119, 8165, 8164, 8132, 8134, 8126, 8134, 8082,5.401275873184204
107, 8127, 8127, 8156, 8077, 8110, 8152, 8126, 8176, 8164, 8130, 8121, 8130, 8131, 8097,5.4173424243927
108, 8133, 8128, 8134, 8110, 8126, 8156, 8151, 8151, 8189, 8160, 8144, 8130, 8162, 8095,5.4173424243927
109, 8137, 8135, 8168, 8096, 8127, 8156, 8141, 8180, 8172, 8141, 8146, 8141, 8149, 8098,5.432990789413452
110, 8125, 8147, 8144, 8118, 8137, 8168, 8152, 8160, 8179, 8153, 8147, 8134, 8138, 8089,5.432990789413452
111, 8115, 8149, 8152, 8140, 8137, 8168, 8158, 8169, 8183, 8170, 8135, 8123, 8139, 8092,5.448411226272583
112, 8113, 8151, 8171, 8142, 8130, 8173, 8159, 8191, 8179, 8165, 8125, 8128, 8137, 8102,5.4644083976745605
113, 8124, 8145, 8141, 8154, 8146, 8177, 8170, 8155, 8186, 8177, 8139, 8128, 8139, 8102,5.4644083976745605
114, 8134, 8150, 8180, 8143, 8157, 8188, 8165, 8183, 8170, 8184, 8138, 8139, 8132, 8118,5.4644083976745605
115, 8121, 8145, 8153, 8144, 8149, 8189, 8182, 8171, 8180, 8194, 8144, 8135, 8145, 8116,5.479065418243408
116, 8116, 8119, 8142, 8118, 8129, 8169, 8182, 8167, 8190, 8183, 8143, 8129, 8149, 8116,5.495161771774292
117, 8123, 8114, 8166, 8095, 8119, 8173, 8170, 8194, 8200, 8183, 8142, 8139, 8143, 8124,5.495161771774292
118, 8122, 8114, 8128, 8111, 8127, 8171, 8171, 8161, 8221, 8196, 8146, 8132, 8146, 8114,5.495161771774292
119, 8124, 8125, 8161, 8101, 8126, 8160, 8149, 8175, 8192, 8162, 8128, 8132, 8132, 8120,5.511244058609009
120, 8127, 8134, 8153, 8108, 8128, 8157, 8141, 8159, 8186, 8160, 8148, 8138, 8146, 8113,5.51224422454834
121, 8139, 8132, 8148, 8114, 8127, 8138, 8132, 8158, 8186, 8162, 8160, 8141, 8161, 8108,5.528326988220215
122, 8143, 8146, 8174, 8103, 8120, 8140, 8117, 8186, 8168, 8149, 8152, 8154, 8157, 8121,5.528326988220215
123, 8132, 8146, 8135, 8107, 8124, 8144, 8120, 8146, 8168, 8162, 8167, 8153, 8162, 8107,5.543421506881714
124, 8138, 8154, 8163, 8103, 8126, 8142, 8119, 8168, 8155, 8143, 8157, 8158, 8147, 8104,5.543421506881714
125, 8142, 8173, 8154, 8127, 8132, 8159, 8133, 8164, 8163, 8127, 8145, 8148, 8142, 8094,5.559082746505737
126, 8147, 8167, 8143, 8131, 8135, 8164, 8132, 8148, 8166, 8127, 8148, 8141, 8141, 8091,5.559082746505737
127, 8156, 8175, 8176, 8129, 8136, 8168, 8130, 8179, 8146, 8122, 8162, 8164, 8136, 8107,5.575117111206055
236, 8146, 8181, 8141, 8162, 8143, 8168, 8145, 8153, 8141, 8131, 8172, 8149, 8137, 8099,5.575117111206055
0, 8136, 8173, 8161, 8147, 8140, 8161, 8128, 8174, 8124, 8117, 8139, 8131, 8121, 8102,5.589279651641846
1, 8128, 8168, 8152, 8142, 8140, 8167, 8133, 8171, 8134, 8124, 8134, 8128, 8120, 8097,5.589279651641846
2, 8120, 8160, 8134, 8158, 8138, 8168, 8147, 8148, 8140, 8127, 8141, 8113, 8114, 8084,5.605421781539917
3, 8115, 8170, 8168, 8160, 8142, 8191, 8157, 8185, 8141, 8129, 8130, 8115, 8111, 8102,5.620830059051514
4, 8114, 8166, 8132, 8176, 8163, 8209, 8184, 8165, 8177, 8173, 8144, 8122, 8138, 8114,5.620830059051514
5, 8124, 8150, 8151, 8157, 8155, 8198, 8177, 8179, 8171, 8167, 8137, 8130, 8132, 8127,5.636120080947876
6, 8118, 8145, 8146, 8138, 8137, 8187, 8176, 8177, 8169, 8154, 8124, 8122, 8123, 8117,5.636120080947876
7, 8117, 8134, 8119, 8124, 8129, 8163, 8176, 8151, 8183, 8153, 8121, 8112, 8126, 8107,5.636120080947876
8, 8134, 8138, 8152, 8101, 8114, 8158, 8161, 8180, 8175, 8132, 8111, 8130, 8122, 8125,5.6513776779174805
9, 8135, 8138, 8117, 8110, 8111, 8160, 8166, 8151, 8183, 8139, 8120, 8136, 8138, 8123,5.667106866836548
10, 8137, 8140, 8136, 8097, 8114, 8147, 8145, 8165, 8170, 8132, 8129, 8150, 8144, 8127,5.667106866836548
11, 8138, 8157, 8153, 8098, 8124, 8149, 8132, 8169, 8154, 8121, 8147, 8159, 8141, 8119,5.682222127914429
12, 8135, 8156, 8135, 8117, 8131, 8151, 8142, 8131, 8134, 8109, 8141, 8133, 8123, 8096,5.682222127914429
13, 8135, 8161, 8173, 8116, 8131, 8165, 8139, 8165, 8108, 8092, 8111, 8124, 8103, 8106,5.698445558547974
14, 8130, 8167, 8138, 8137, 8137, 8175, 8156, 8149, 8131, 8118, 8118, 8116, 8124, 8106,5.698445558547974
15, 8132, 8162, 8149, 8137, 8141, 8181, 8170, 8163, 8140, 8133, 8118, 8114, 8126, 8115,5.714369058609009
16, 8134, 8164, 8164, 8136, 8148, 8203, 8187, 8187, 8152, 8146, 8116, 8127, 8120, 8129,5.714369058609009
17, 8127, 8148, 8124, 8140, 8144, 8198, 8193, 8155, 8175, 8164, 8123, 8127, 8135, 8128,5.729429006576538
18, 8118, 8135, 8154, 8117, 8133, 8184, 8176, 8181, 8164, 8150, 8116, 8134, 8138, 8138,5.729429006576538
19, 8109, 8124, 8126, 8111, 8137, 8182, 8178, 8168, 8185, 8168, 8132, 8127, 8154, 8131,5.745030403137207
20, 8122, 8121, 8129, 8091, 8131, 8167, 8159, 8164, 8198, 8174, 8137, 8132, 8159, 8139,5.745030403137207
21, 8141, 8142, 8161, 8092, 8124, 8160, 8138, 8171, 8179, 8155, 8151, 8163, 8158, 8150,5.7600486278533936
22, 8147, 8149, 8138, 8115, 8131, 8151, 8137, 8142, 8163, 8146, 8173, 8166, 8167, 8135,5.7600486278533936
23, 8150, 8162, 8171, 8104, 8140, 8152, 8132, 8174, 8139, 8121, 8158, 8163, 8155, 8134,5.775198221206665
24, 8152, 8178, 8154, 8135, 8154, 8171, 8159, 8157, 8152, 8134, 8160, 8155, 8149, 8125,5.775198221206665
25, 8154, 8175, 8160, 8159, 8156, 8177, 8172, 8156, 8155, 8151, 8153, 8141, 8138, 8127,5.791295528411865
26, 8140, 8175, 8180, 8151, 8148, 8194, 8180, 8188, 8152, 8155, 8133, 8135, 8137, 8142,5.791295528411865
27, 8131, 8159, 8133, 8150, 8150, 8204, 8199, 8159, 8182, 8180, 8137, 8121, 8153, 8136,5.806605100631714
28, 8143, 8145, 8156, 8123, 8142, 8191, 8182, 8180, 8191, 8181, 8132, 8131, 8155, 8139,5.806605100631714
29, 8135, 8137, 8130, 8114, 8129, 8171, 8167, 8160, 8192, 8175, 8137, 8131, 8158, 8122,5.822535991668701
30, 8122, 8134, 8120, 8102, 8123, 8147, 8145, 8145, 8167, 8144, 8133, 8125, 8144, 8107,5.822535991668701
31, 8137, 8162, 8165, 8103, 8135, 8161, 8138, 8176, 8154, 8133, 8140, 8147, 8144, 8122,5.838058233261108
32, 8152, 8179, 8143, 8140, 8161, 8172, 8159, 8150, 8177, 8169, 8173, 8154, 8165, 8122,5.838058233261108
33, 8146, 8174, 8165, 8144, 8163, 8176, 8156, 8178, 8155, 8163, 8161, 8151, 8154, 8120,5.853748083114624
34, 8121, 8168, 8144, 8157, 8162, 8199, 8174, 8178, 8159, 8178, 8152, 8134, 8155, 8116,5.853748083114624
35, 8118, 8158, 8137, 8161, 8167, 8203, 8193, 8162, 8183, 8207, 8156, 8132, 8159, 8125,5.86899733543396
36, 8129, 8151, 8168, 8145, 8159, 8194, 8190, 8186, 8180, 8199, 8140, 8146, 8151, 8137,5.86899733543396
37, 8125, 8133, 8121, 8141, 8147, 8176, 8186, 8153, 8184, 8198, 8136, 8134, 8165, 8127,5.884474754333496
38, 8132, 8138, 8152, 8119, 8145, 8168, 8160, 8177, 8179, 8194, 8140, 8155, 8174, 8147,5.884474754333496
39, 8143, 8158, 8158, 8126, 8154, 8169, 8154, 8174, 8189, 8201, 8159, 8175, 8182, 8149,5.900036811828613
40, 8156, 8162, 8145, 8138, 8153, 8146, 8142, 8147, 8179, 8185, 8168, 8165, 8182, 8131,5.900036811828613
41, 8159, 8184, 8182, 8142, 8155, 8150, 8128, 8177, 8147, 8159, 8168, 8169, 8169, 8132,5.916064023971558
42, 8131, 8183, 8143, 8172, 8162, 8165, 8147, 8149, 8145, 8168, 8162, 8145, 8158, 8108,5.916064023971558
43, 8118, 8157, 8160, 8152, 8139, 8164, 8152, 8167, 8134, 8160, 8120, 8127, 8142, 8114,5.931421279907227
44, 8130, 8150, 8157, 8128, 8128, 8160, 8157, 8176, 8156, 8172, 8126, 8146, 8167, 8142,5.931421279907227
45, 8147, 8155, 8136, 8124, 8135, 8141, 8145, 8154, 8169, 8173, 8155, 8161, 8185, 8139,5.947356224060059
46, 8148, 8177, 8178, 8120, 8141, 8152, 8123, 8184, 8143, 8131, 8139, 8169, 8154, 8125,5.947356224060059
47, 8128, 8174, 8144, 8148, 8157, 8171, 8139, 8157, 8151, 8141, 8140, 8153, 8149, 8107,5.963012456893921
48, 8128, 8160, 8156, 8150, 8157, 8170, 8152, 8168, 8158, 8165, 8135, 8145, 8155, 8128,5.963012456893921
49, 8150, 8168, 8172, 8154, 8151, 8178, 8167, 8182, 8178, 8186, 8137, 8160, 8174, 8150,5.978289604187012
50, 8162, 8164, 8153, 8159, 8150, 8168, 8160, 8155, 8199, 8191, 8155, 8170, 8197, 8146,5.978289604187012
51, 8165, 8175, 8190, 8140, 8151, 8156, 8130, 8180, 8181, 8169, 8165, 8189, 8195, 8156,5.993957281112671
52, 8163, 8194, 8166, 8160, 8163, 8161, 8137, 8154, 8168, 8176, 8185, 8188, 8194, 8141,5.993957281112671
53, 8157, 8193, 8176, 8173, 8168, 8176, 8144, 8163, 8142, 8172, 8164, 8172, 8178, 8133,6.009141206741333
54, 8136, 8171, 8166, 8167, 8160, 8195, 8156, 8180, 8146, 8176, 8132, 8158, 8171, 8144,6.009141206741333
55, 8129, 8138, 8133, 8131, 8143, 8172, 8160, 8159, 8174, 8185, 8130, 8156, 8183, 8146,6.032643556594849
56, 8143, 8150, 8163, 8103, 8140, 8152, 8139, 8179, 8162, 8163, 8151, 8183, 8196, 8146,6.032643556594849
57, 8140, 8169, 8123, 8149, 8159, 8158, 8145, 8138, 8155, 8173, 8176, 8173, 8204, 8118,6.032643556594849
58, 8142, 8175, 8202, 8149, 8155, 8167, 8135, 8173, 8126, 8160, 8149, 8172, 8166, 8123,6.041275501251221
59, 8142, 8194, 8229, 8154, 8154, 8187, 8144, 8202, 8117, 8157, 8143, 8180, 8155, 8135,6.057359218597412
60, 8138, 8184, 8168, 8184, 8166, 8186, 8150, 8155, 8126, 8165, 8152, 8164, 8168, 8124,6.057359218597412
61, 8140, 8177, 8234, 8159, 8154, 8195, 8137, 8196, 8120, 8152, 8131, 8186, 8157, 8143,6.073396682739258
62, 8135, 8168, 8159, 8163, 8147, 8198, 8181, 8159, 8175, 8202, 8164, 8190, 8192, 8144,6.073396682739258
63, 8148, 8156, 8153, 8161, 8139, 8160, 8173, 8154, 8184, 8202, 8176, 8193, 8203, 8151,6.089043378829956
64, 8165, 8171, 8212, 8183, 8129, 8156, 8136, 8189, 8155, 8162, 8180, 8227, 8195, 8156,6.089043378829956
65, 8176, 8184, 8167, 8229, 8134, 8152, 8138, 8137, 8155, 8163, 8228, 8244, 8215, 8144,6.104245662689209
66, 8195, 8204, 8225, 8223, 8135, 8138, 8122, 8165, 8123, 8133, 8232, 8269, 8198, 8163,6.104245662689209
67, 8195, 8214, 8232, 8263, 8142, 8154, 8129, 8166, 8118, 8130, 8226, 8275, 8182, 8160,6.119416236877441
68, 8195, 8206, 8235, 8312, 8144, 8169, 8149, 8158, 8136, 8153, 8232, 8275, 8188, 8164,6.119416236877441
69, 8207, 8211, 8250, 8313, 8136, 8171, 8158, 8177, 8158, 8168, 8238, 8293, 8204, 8190,6.135002851486206
70, 8231, 8214, 8239, 8306, 8128, 8149, 8153, 8160, 8169, 8170, 8252, 8312, 8227, 8197,6.135002851486206
71, 8258, 8238, 8281, 8313, 8138, 8144, 8140, 8180, 8145, 8159, 8273, 8341, 8242, 8207,6.150584697723389
72, 8240, 8249, 8214, 8341, 8154, 8142, 8144, 8140, 8138, 8162, 8287, 8310, 8237, 8170,6.150584697723389
73, 8209, 8230, 8228, 8303, 8132, 8116, 8112, 8144, 8097, 8110, 8236, 8272, 8175, 8136,6.166274070739746
74, 8201, 8235, 8251, 8287, 8125, 8138, 8116, 8179, 8089, 8100, 8220, 8287, 8158, 8156,6.166274070739746
75, 8200, 8229, 8172, 8329, 8149, 8162, 8155, 8135, 8135, 8160, 8251, 8269, 8199, 8168,6.180438756942749
76, 8190, 8215, 8227, 8295, 8144, 8158, 8129, 8175, 8114, 8142, 8205, 8236, 8177, 8164,6.196026086807251
77, 8164, 8199, 8186, 8270, 8141, 8165, 8132, 8171, 8129, 8147, 8180, 8213, 8162, 8139,6.196026086807251
78, 8165, 8182, 8145, 8252, 8155, 8167, 8149, 8150, 8169, 8185, 8189, 8211, 8183, 8148,6.211327791213989
79, 8175, 8189, 8197, 8219, 8160, 8169, 8135, 8186, 8161, 8178, 8184, 8222, 8185, 8169,6.211327791213989
80, 8169, 8187, 8160, 8217, 8155, 8155, 8134, 8150, 8167, 8172, 8196, 8217, 8181, 8149,6.227417945861816
81, 8174, 8189, 8175, 8191, 8143, 8149, 8138, 8168, 8173, 8171, 8197, 8235, 8177, 8157,6.227417945861816
82, 8178, 8198, 8159, 8183, 8147, 8156, 8142, 8171, 8173, 8186, 8200, 8231, 8186, 8152,6.244302988052368
83, 8181, 8194, 8156, 8186, 8159, 8152, 8123, 8150, 8152, 8174, 8202, 8212, 8176, 8123,6.244302988052368
84, 8186, 8211, 8193, 8190, 8170, 8179, 8130, 8182, 8140, 8153, 8198, 8221, 8160, 8136,6.244302988052368
85, 8176, 8215, 8160, 8209, 8181, 8193, 8167, 8154, 8151, 8160, 8189, 8205, 8160, 8145,6.2582786083221436
86, 8170, 8200, 8175, 8192, 8167, 8176, 8160, 8164, 8134, 8147, 8155, 8183, 8139, 8148,6.274306774139404
87, 8170, 8196, 8164, 8187, 8159, 8190, 8171, 8183, 8152, 8170, 8146, 8172, 8140, 8154,6.274306774139404
88, 8165, 8178, 8140, 8176, 8160, 8192, 8189, 8166, 8177, 8198, 8145, 8161, 8155, 8156,6.289442539215088
89, 8151, 8163, 8163, 8141, 8143, 8174, 8162, 8183, 8154, 8174, 8123, 8160, 8142, 8146,6.289442539215088
90, 8138, 8160, 8123, 8141, 8147, 8174, 8164, 8156, 8176, 8191, 8142, 8162, 8163, 8128,6.305035829544067
91, 8162, 8159, 8133, 8138, 8168, 8178, 8188, 8169, 8206, 8220, 8173, 8179, 8200, 8158,6.305035829544067
92, 8193, 8181, 8219, 8131, 8171, 8180, 8172, 8205, 8183, 8192, 8179, 8209, 8197, 8187,6.321112871170044
93, 8179, 8193, 8194, 8142, 8164, 8170, 8141, 8163, 8156, 8156, 8175, 8200, 8172, 8152,6.321112871170044
94, 8158, 8180, 8119, 8137, 8165, 8159, 8141, 8152, 8146, 8146, 8167, 8171, 8159, 8115,6.336650848388672
95, 8159, 8172, 8139, 8136, 8174, 8171, 8166, 8168, 8158, 8161, 8171, 8171, 8165, 8115,6.336650848388672
96, 8158, 8179, 8175, 8137, 8174, 8185, 8173, 8184, 8171, 8176, 8170, 8177, 8159, 8131,6.352127313613892
97, 8150, 8183, 8131, 8142, 8174, 8188, 8173, 8174, 8178, 8189, 8170, 8167, 8161, 8134,6.352127313613892
98, 8162, 8185, 8148, 8153, 8181, 8190, 8180, 8169, 8172, 8197, 8172, 8169, 8165, 8136,6.367377519607544
99, 8170, 8192, 8180, 8167, 8190, 8211, 8197, 8196, 8178, 8209, 8167, 8175, 8157, 8142,6.367377519607544
100, 8147, 8175, 8099, 8182, 8195, 8214, 8219, 8151, 8205, 8225, 8166, 8150, 8157, 8124,6.382423162460327
101, 8147, 8175, 8163, 8154, 8189, 8208, 8202, 8175, 8181, 8183, 8139, 8159, 8142, 8141,6.382423162460327
102, 8155, 8197, 8192, 8159, 8192, 8225, 8211, 8205, 8184, 8185, 8140, 8178, 8146, 8163,6.398406267166138
103, 8144, 8166, 8112, 8169, 8187, 8207, 8230, 8157, 8211, 8228, 8151, 8145, 8157, 8141,6.398406267166138
104, 8137, 8145, 8161, 8118, 8162, 8187, 8208, 8190, 8188, 8204, 8116, 8137, 8138, 8141,6.413412094116211
105, 8145, 8151, 8126, 8122, 8159, 8181, 8212, 8171, 8207, 8208, 8129, 8143, 8167, 8137,6.413412094116211
106, 8180, 8162, 8155, 8117, 8160, 8162, 8190, 8176, 8209, 8214, 8168, 8175, 8202, 8144,6.429287433624268
107, 8187, 8196, 8205, 8122, 8172, 8184, 8181, 8203, 8194, 8205, 8190, 8202, 8199, 8155,6.429287433624268
108, 8156, 8190, 8135, 8161, 8187, 8197, 8212, 8147, 8203, 8215, 8177, 8161, 8175, 8132,6.444342136383057
109, 8143, 8160, 8154, 8132, 8168, 8187, 8204, 8172, 8180, 8198, 8123, 8140, 8143, 8133,6.444342136383057
110, 8133, 8145, 8130, 8122, 8160, 8192, 8199, 8171, 8180, 8193, 8113, 8131, 8144, 8126,6.4603471755981445
111, 8122, 8145, 8132, 8134, 8172, 8195, 8193, 8156, 8180, 8185, 8115, 8119, 8136, 8116,6.4603471755981445
112, 8124, 8145, 8151, 8121, 8170, 8197, 8193, 8179, 8186, 8194, 8115, 8124, 8146, 8121,6.476383686065674
113, 8125, 8116, 8112, 8096, 8156, 8176, 8187, 8154, 8205, 8218, 8130, 8126, 8183, 8110,6.476383686065674
114, 8126, 8120, 8146, 8078, 8150, 8165, 8156, 8174, 8184, 8196, 8121, 8140, 8183, 8120,6.4924116134643555
115, 8130, 8144, 8129, 8111, 8164, 8174, 8169, 8168, 8194, 8208, 8136, 8143, 8189, 8127,6.4924116134643555
116, 8143, 8139, 8134, 8120, 8168, 8164, 8179, 8166, 8206, 8218, 8157, 8145, 8201, 8129,6.508116006851196
117, 8156, 8153, 8163, 8115, 8167, 8172, 8170, 8192, 8194, 8193, 8161, 8161, 8205, 8138,6.508116006851196
118, 8157, 8164, 8131, 8127, 8170, 8168, 8170, 8151, 8190, 8179, 8160, 8163, 8201, 8122,6.52370023727417
119, 8155, 8160, 8161, 8107, 8159, 8144, 8153, 8162, 8159, 8147, 8126, 8156, 8164, 8110,6.52370023727417
120, 8143, 8162, 8144, 8108, 8161, 8151, 8154, 8162, 8153, 8156, 8119, 8142, 8154, 8100,6.539352178573608
121, 8152, 8173, 8145, 8128, 8178, 8170, 8169, 8152, 8172, 8194, 8145, 8151, 8178, 8108,6.539352178573608
122, 8173, 8193, 8197, 8144, 8179, 8183, 8184, 8187, 8183, 8209, 8158, 8175, 8192, 8135,6.554900407791138
123, 8161, 8178, 8155, 8156, 8170, 8176, 8195, 8160, 8200, 8229, 8157, 8154, 8205, 8130,6.554900407791138
124, 8144, 8146, 8144, 8124, 8165, 8177, 8185, 8169, 8195, 8226, 8135, 8138, 8196, 8128,6.570023536682129
125, 8134, 8142, 8145, 8118, 8171, 8197, 8200, 8183, 8191, 8213, 8124, 8128, 8177, 8123,6.570023536682129
126, 8130, 8146, 8141, 8141, 8172, 8193, 8207, 8161, 8186, 8197, 8105, 8100, 8156, 8104,6.586745977401733
127, 8138, 8156, 8154, 8147, 8171, 8192, 8197, 8181, 8190, 8204, 8095, 8105, 8151, 8109,6.586745977401733
236, 8139, 8147, 8128, 8128, 8172, 8195, 8208, 8165, 8217, 8234, 8121, 8118, 8175, 8115,6.602429151535034
0, 8128, 8132, 8141, 8089, 8155, 8184, 8202, 8169, 8204, 8216, 8107, 8116, 8173, 8124,6.602429151535034
1, 8124, 8139, 8127, 8109, 8151, 8179, 8197, 8171, 8199, 8211, 8090, 8113, 8171, 8117,6.61804723739624
2, 8132, 8146, 8121, 8133, 8166, 8174, 8198, 8159, 8218, 8227, 8108, 8119, 8179, 8103,6.61804723739624
3, 8133, 8149, 8142, 8111, 8163, 8171, 8190, 8183, 8208, 8216, 8117, 8130, 8176, 8106,6.6336400508880615
4, 8128, 8145, 8111, 8122, 8150, 8158, 8179, 8153, 8198, 8211, 8129, 8129, 8186, 8095,6.6336400508880615
5, 8141, 8153, 8144, 8127, 8156, 8154, 8155, 8165, 8190, 8195, 8127, 8137, 8185, 8098,6.649326801300049
6, 8141, 8170, 8124, 8128, 8180, 8167, 8165, 8172, 8205, 8190, 8129, 8131, 8189, 8095,6.649326801300049
7, 8134, 8169, 8115, 8121, 8173, 8149, 8166, 8152, 8201, 8181, 8128, 8122, 8177, 8082,6.66541600227356
8, 8139, 8183, 8177, 8112, 8154, 8149, 8151, 8191, 8166, 8161, 8113, 8133, 8148, 8095,6.66541600227356
9, 8138, 8186, 8119, 8150, 8170, 8171, 8180, 8157, 8174, 8184, 8131, 8122, 8164, 8087,6.681124448776245
10, 8147, 8184, 8139, 8158, 8180, 8173, 8190, 8156, 8171, 8193, 8134, 8129, 8174, 8093,6.681124448776245
11, 8142, 8192, 8150, 8157, 8179, 8177, 8189, 8175, 8162, 8199, 8124, 8132, 8162, 8105,6.697178363800049
12, 8124, 8177, 8110, 8165, 8180, 8173, 8199, 8145, 8167, 8204, 8115, 8099, 8149, 8094,6.697178363800049
13, 8122, 8166, 8161, 8147, 8173, 8176, 8197, 8184, 8159, 8176, 8094, 8095, 8137, 8102,6.712601900100708
14, 8112, 8154, 8118, 8153, 8169, 8185, 8213, 8174, 8174, 8183, 8095, 8087, 8148, 8096,6.712601900100708
15, 8103, 8135, 8097, 8133, 8160, 8180, 8215, 8169, 8175, 8190, 8091, 8081, 8147, 8096,6.7286858558654785
16, 8101, 8135, 8123, 8102, 8152, 8170, 8212, 8187, 8179, 8191, 8086, 8092, 8152, 8107,6.7286858558654785
17, 8109, 8131, 8110, 8094, 8143, 8141, 8196, 8152, 8185, 8193, 8089, 8086, 8168, 8095,6.744529724121094
18, 8119, 8134, 8131, 8079, 8129, 8125, 8165, 8179, 8167, 8178, 8088, 8098, 8167, 8102,6.744529724121094
19, 8115, 8143, 8114, 8093, 8135, 8135, 8177, 8177, 8188, 8198, 8118, 8120, 8186, 8112,6.7599992752075195
20, 8123, 8145, 8126, 8098, 8141, 8134, 8180, 8163, 8200, 8197, 8129, 8134, 8197, 8115,6.7599992752075195
21, 8138, 8154, 8148, 8095, 8134, 8134, 8162, 8185, 8187, 8185, 8137, 8147, 8195, 8118,6.77607536315918
22, 8135, 8158, 8126, 8117, 8132, 8127, 8160, 8160, 8182, 8200, 8169, 8147, 8198, 8108,6.77607536315918
23, 8133, 8167, 8152, 8117, 8135, 8126, 8157, 8165, 8159, 8179, 8158, 8144, 8180, 8109,6.792056560516357
24, 8134, 8176, 8149, 8119, 8140, 8144, 8167, 8160, 8152, 8159, 8140, 8130, 8158, 8103,6.792056560516357
25, 8131, 8168, 8149, 8131, 8138, 8151, 8169, 8155, 8145, 8154, 8143, 8124, 8141, 8094,6.807990312576294
26, 8132, 8178, 8152, 8143, 8142, 8157, 8165, 8176, 8143, 8159, 8146, 8136, 8146, 8100,6.807990312576294
27, 8146, 8187, 8146, 8168, 8159, 8158, 8169, 8159, 8166, 8185, 8152, 8141, 8165, 8107,6.823349714279175
28, 8157, 8176, 8190, 8167, 8161, 8167, 8170, 8179, 8158, 8190, 8142, 8151, 8158, 8127,6.823349714279175
29, 8139, 8152, 8149, 8162, 8157, 8180, 8190, 8164, 8151, 8199, 8133, 8139, 8152, 8124,6.838872671127319
30, 8133, 8136, 8130, 8146, 8151, 8172, 8188, 8146, 8151, 8196, 8118, 8127, 8145, 8118,6.838872671127319
31, 8144, 8143, 8159, 8136, 8144, 8172, 8176, 8184, 8158, 8188, 8116, 8136, 8146, 8130,6.854781627655029
32, 8129, 8129, 8116, 8140, 8142, 8169, 8183, 8155, 8174, 8199, 8128, 8122, 8162, 8108,6.854781627655029
33, 8117, 8123, 8139, 8118, 8140, 8165, 8172, 8162, 8153, 8178, 8112, 8116, 8148, 8106,6.870021343231201
34, 8128, 8145, 8146, 8131, 8147, 8180, 8180, 8173, 8155, 8168, 8109, 8118, 8141, 8114,6.870021343231201
35, 8138, 8145, 8119, 8139, 8148, 8172, 8197, 8149, 8176, 8187, 8123, 8111, 8158, 8103,6.886188745498657
36, 8140, 8137, 8140, 8107, 8139, 8151, 8184, 8173, 8162, 8188, 8133, 8122, 8165, 8106,6.886188745498657
37, 8143, 8138, 8132, 8118, 8144, 8142, 8169, 8158, 8146, 8178, 8149, 8134, 8173, 8102,6.901526689529419
38, 8153, 8138, 8143, 8127, 8142, 8135, 8157, 8162, 8132, 8158, 8149, 8145, 8167, 8106,6.901526689529419
39, 8158, 8133, 8137, 8116, 8133, 8139, 8169, 8171, 8136, 8165, 8151, 8156, 8162, 8116,6.917174339294434
40, 8167, 8135, 8140, 8122, 8131, 8133, 8162, 8149, 8134, 8172, 8165, 8160, 8173, 8114,6.917174339294434
41, 8174, 8156, 8168, 8143, 8134, 8126, 8119, 8166, 8102, 8147, 8171, 8155, 8170, 8111,6.9323554039001465
42, 8165, 8168, 8137, 8173, 8137, 8129, 8114, 8146, 8088, 8136, 8176, 8136, 8153, 8090,6.9323554039001465
43, 8176, 8170, 8155, 8175, 8137, 8137, 8124, 8156, 8085, 8131, 8173, 8148, 8148, 8097,6.948412179946899
44, 8195, 8175, 8171, 8184, 8144, 8144, 8135, 8172, 8097, 8151, 8198, 8181, 8176, 8120,6.948412179946899
45, 8200, 8180, 8177, 8205, 8159, 8144, 8136, 8147, 8101, 8170, 8225, 8192, 8184, 8122,6.964065790176392
46, 8203, 8202, 8215, 8218, 8167, 8162, 8135, 8170, 8086, 8158, 8209, 8192, 8167, 8132,6.964065790176392
47, 8196, 8204, 8177, 8242, 8170, 8163, 8156, 8156, 8110, 8173, 8213, 8180, 8183, 8126,6.9791505336761475
48, 8189, 8188, 8195, 8219, 8160, 8148, 8149, 8166, 8122, 8184, 8225, 8184, 8185, 8134,6.9791505336761475
49, 8192, 8199, 8204, 8216, 8170, 8171, 8147, 8177, 8121, 8187, 8226, 8184, 8174, 8144,6.99455714225769
50, 8205, 8201, 8178, 8254, 8182, 8176, 8165, 8145, 8132, 8190, 8221, 8167, 8178, 8136,6.99455714225769
51, 8211, 8193, 8216, 8242, 8162, 8164, 8169, 8179, 8127, 8181, 8199, 8176, 8173, 8146,7.010334730148315
52, 8199, 8181, 8181, 8230, 8155, 8177, 8182, 8166, 8136, 8197, 8198, 8177, 8177, 8145,7.010334730148315
53, 8209, 8175, 8185, 8233, 8172, 8182, 8177, 8159, 8130, 8193, 8192, 8171, 8178, 8152,7.026369333267212
54, 8227, 8189, 8193, 8244, 8177, 8172, 8180, 8178, 8140, 8193, 8195, 8179, 8193, 8167,7.026369333267212
55, 8223, 8182, 8174, 8239, 8165, 8162, 8191, 8160, 8166, 8204, 8193, 8181, 8205, 8162,7.042324781417847
56, 8213, 8181, 8212, 8207, 8162, 8167, 8177, 8188, 8152, 8171, 8163, 8185, 8181, 8161,7.042324781417847
57, 8221, 8196, 8165, 8228, 8182, 8161, 8172, 8160, 8148, 8167, 8192, 8187, 8191, 8147,7.057256460189819
58, 8243, 8211, 8189, 8241, 8184, 8141, 8154, 8161, 8126, 8159, 8219, 8204, 8198, 8144,7.057256460189819
59, 8233, 8230, 8218, 8245, 8178, 8160, 8151, 8197, 8114, 8142, 8201, 8204, 8180, 8143,7.073276996612549
60, 8213, 8218, 8159, 8264, 8191, 8176, 8180, 8156, 8141, 8168, 8192, 8169, 8178, 8129,7.073276996612549
61, 8213, 8193, 8192, 8237, 8186, 8172, 8190, 8173, 8133, 8176, 8171, 8169, 8166, 8143,7.089321136474609
62, 8203, 8177, 8170, 8221, 8170, 8162, 8198, 8169, 8146, 8178, 8162, 8170, 8174, 8144,7.089321136474609
63, 8205, 8178, 8159, 8211, 8166, 8141, 8176, 8153, 8165, 8177, 8172, 8172, 8194, 8139,7.104903221130371
64, 8223, 8203, 8203, 8204, 8168, 8148, 8152, 8181, 8151, 8167, 8190, 8197, 8194, 8145,7.104903221130371
65, 8215, 8209, 8165, 8224, 8169, 8149, 8158, 8152, 8140, 8164, 8204, 8188, 8181, 8120,7.120201349258423
66, 8203, 8205, 8168, 8224, 8170, 8153, 8154, 8165, 8125, 8151, 8179, 8176, 8169, 8120,7.120201349258423
67, 8204, 8201, 8189, 8235, 8177, 8185, 8179, 8186, 8145, 8171, 8166, 8174, 8182, 8150,7.135351181030273
68, 8202, 8181, 8177, 8236, 8169, 8178, 8193, 8170, 8173, 8192, 8166, 8162, 8194, 8157,7.135351181030273
69, 8202, 8179, 8166, 8212, 8156, 8149, 8158, 8170, 8165, 8175, 8173, 8168, 8193, 8146,7.151582956314087
70, 8211, 8201, 8163, 8222, 8168, 8144, 8138, 8151, 8154, 8161, 8202, 8190, 8197, 8129,7.151582956314087
71, 8225, 8220, 8201, 8244, 8184, 8157, 8160, 8174, 8141, 8160, 8207, 8202, 8195, 8142,7.166298151016235
72, 8222, 8218, 8186, 8267, 8189, 8179, 8202, 8179, 8149, 8188, 8200, 8188, 8197, 8157,7.166298151016235
73, 8210, 8201, 8169, 8267, 8178, 8183, 8200, 8157, 8151, 8194, 8187, 8165, 8186, 8153,7.181338787078857
74, 8203, 8199, 8184, 8251, 8164, 8180, 8180, 8180, 8136, 8172, 8168, 8163, 8171, 8154,7.19649600982666
75, 8208, 8192, 8156, 8251, 8174, 8173, 8198, 8159, 8153, 8195, 8182, 8168, 8192, 8160,7.19649600982666
76, 8216, 8189, 8182, 8228, 8173, 8168, 8198, 8174, 8169, 8208, 8192, 8184, 8204, 8180,7.213153600692749
77, 8206, 8194, 8166, 8227, 8165, 8170, 8186, 8182, 8178, 8209, 8190, 8181, 8197, 8171,7.213153600692749
78, 8196, 8177, 8149, 8227, 8164, 8161, 8180, 8157, 8162, 8202, 8179, 8161, 8181, 8146,7.213153600692749
79, 8202, 8173, 8169, 8200, 8168, 8162, 8184, 8177, 8146, 8182, 8171, 8165, 8174, 8155,7.2282209396362305
80, 8197, 8178, 8129, 8203, 8171, 8153, 8186, 8150, 8160, 8173, 8189, 8160, 8187, 8137,7.2436559200286865
81, 8190, 8190, 8187, 8199, 8165, 8148, 8147, 8170, 8132, 8139, 8186, 8174, 8173, 8127,7.2436559200286865
82, 8186, 8205, 8175, 8212, 8174, 8167, 8155, 8179, 8123, 8151, 8199, 8177, 8173, 8130,7.259568452835083
83, 8185, 8196, 8128, 8223, 8177, 8154, 8183, 8141, 8129, 8173, 8217, 8154, 8178, 8124,7.259568452835083
84, 8190, 8203, 8194, 8218, 8169, 8152, 8166, 8177, 8105, 8148, 8202, 8168, 8157, 8138,7.274431943893433
85, 8188, 8207, 8163, 8243, 8186, 8176, 8177, 8158, 8116, 8164, 8206, 8170, 8167, 8126,7.274431943893433
86, 8184, 8192, 8162, 8228, 8193, 8178, 8184, 8154, 8123, 8176, 8197, 8159, 8169, 8123,7.29045295715332
87, 8174, 8186, 8168, 8220, 8183, 8177, 8177, 8175, 8134, 8181, 8185, 8146, 8161, 8138,7.29045295715332
88, 8164, 8170, 8136, 8226, 8176, 8168, 8178, 8149, 8149, 8196, 8183, 8131, 8163, 8131,7.306617259979248
89, 8166, 8166, 8163, 8188, 8169, 8163, 8173, 8172, 8131, 8173, 8161, 8141, 8151, 8133,7.306617259979248
90, 8166, 8169, 8137, 8182, 8161, 8169, 8182, 8161, 8143, 8165, 8158, 8144, 8158, 8132,7.322131633758545
91, 8185, 8169, 8156, 8187, 8155, 8165, 8176, 8160, 8167, 8174, 8169, 8156, 8185, 8146,7.322131633758545
92, 8211, 8184, 8187, 8187, 8166, 8165, 8168, 8185, 8178, 8181, 8197, 8185, 8204, 8164,7.339288949966431
93, 8213, 8188, 8159, 8193, 8174, 8162, 8162, 8155, 8179, 8172, 8212, 8191, 8172, 8152,7.339288949966431
94, 8211, 8190, 8186, 8172, 8170, 8166, 8155, 8175, 8168, 8159, 8190, 8189, 8119, 8155,7.339288949966431
95, 8213, 8193, 8186, 8173, 8176, 8171, 8172, 8175, 8182, 8188, 8204, 8183, 8125, 8156,7.354187488555908
96, 8206, 8185, 8160, 8187, 8176, 8160, 8167, 8151, 8181, 8183, 8210, 8173, 8130, 8137,7.354187488555908
97, 8197, 8188, 8165, 8180, 8169, 8166, 8152, 8165, 8161, 8147, 8192, 8174, 8098, 8128,7.3696160316467285
98, 8195, 8195, 8173, 8181, 8175, 8170, 8165, 8157, 8159, 8164, 8202, 8169, 8085, 8132,7.385443687438965
99, 8192, 8193, 8177, 8184, 8180, 8167, 8171, 8170, 8152, 8173, 8200, 8152, 8080, 8136,7.385443687438965
100, 8168, 8179, 8137, 8184, 8185, 8183, 8180, 8167, 8165, 8167, 8180, 8131, 8079, 8119,7.401028633117676
101, 8149, 8165, 8141, 8163, 8185, 8188, 8185, 8165, 8176, 8168, 8163, 8122, 8067, 8110,7.401028633117676
102, 8150, 8165, 8163, 8154, 8173, 8190, 8188, 8191, 8172, 8172, 8155, 8125, 8047, 8123,7.4161577224731445
103, 8152, 8159, 8134, 8168, 8173, 8198, 8202, 8167, 8197, 8194, 8155, 8125, 8057, 8127,7.4161577224731445
104, 8155, 8148, 8150, 8140, 8170, 8202, 8201, 8183, 8208, 8197, 8135, 8132, 8065, 8143,7.431530237197876
105, 8157, 8145, 8138, 8124, 8160, 8204, 8204, 8185, 8211, 8201, 8127, 8125, 8065, 8147,7.431530237197876
106, 8157, 8139, 8135, 8117, 8152, 8181, 8196, 8165, 8211, 8199, 8131, 8119, 8058, 8137,7.447151184082031
107, 8157, 8140, 8154, 8095, 8143, 8169, 8187, 8183, 8206, 8190, 8130, 8129, 8061, 8140,7.447151184082031
108, 8159, 8135, 8127, 8099, 8148, 8173, 8190, 8159, 8227, 8210, 8148, 8130, 8086, 8141,7.462160110473633
109, 8171, 8135, 8164, 8096, 8151, 8167, 8169, 8179, 8234, 8208, 8159, 8146, 8090, 8157,7.462160110473633
110, 8170, 8149, 8155, 8109, 8157, 8162, 8165, 8182, 8237, 8194, 8166, 8148, 8088, 8147,7.477428197860718
111, 8169, 8156, 8136, 8108, 8162, 8158, 8170, 8154, 8231, 8182, 8162, 8135, 8084, 8122,7.477428197860718
112, 8173, 8164, 8165, 8084, 8168, 8167, 8161, 8182, 8212, 8173, 8158, 8148, 8079, 8130,7.493020534515381
113, 8163, 8157, 8133, 8095, 8172, 8166, 8159, 8160, 8205, 8178, 8173, 8145, 8083, 8121,7.493020534515381
114, 8167, 8163, 8163, 8103, 8166, 8167, 8154, 8169, 8186, 8161, 8164, 8145, 8072, 8118,7.509130001068115
115, 8169, 8187, 8167, 8121, 8177, 8188, 8175, 8175, 8196, 8166, 8161, 8147, 8075, 8120,7.509130001068115
116, 8157, 8174, 8142, 8129, 8183, 8193, 8188, 8153, 8201, 8169, 8153, 8127, 8068, 8107,7.524616241455078
117, 8144, 8156, 8160, 8104, 8173, 8206, 8189, 8188, 8180, 8150, 8115, 8105, 8037, 8108,7.524616241455078
118, 8130, 8143, 8116, 8099, 8173, 8218, 8218, 8171, 8199, 8165, 8102, 8077, 8036, 8097,7.540191173553467
119, 8134, 8142, 8140, 8094, 8177, 8206, 8226, 8175, 8205, 8165, 8105, 8090, 8046, 8107,7.540191173553467
120, 8137, 8153, 8151, 8107, 8181, 8199, 8220, 8187, 8199, 8171, 8121, 8113, 8059, 8125,7.555437803268433
121, 8128, 8141, 8133, 8112, 8173, 8188, 8202, 8160, 8204, 8191, 8129, 8108, 8072, 8122,7.555437803268433
122, 8130, 8141, 8150, 8097, 8159, 8186, 8180, 8182, 8204, 8185, 8123, 8113, 8072, 8130,7.570990562438965
123, 8133, 8146, 8111, 8112, 8164, 8182, 8196, 8160, 8220, 8192, 8139, 8112, 8080, 8124,7.570990562438965
124, 8136, 8142, 8166, 8098, 8166, 8172, 8190, 8181, 8214, 8180, 8136, 8124, 8073, 8133,7.586703777313232
125, 8134, 8145, 8165, 8096, 8159, 8180, 8178, 8203, 8228, 8180, 8143, 8135, 8077, 8142,7.586703777313232
126, 8139, 8143, 8113, 8113, 8154, 8161, 8171, 8157, 8235, 8183, 8162, 8132, 8087, 8130,7.602260589599609
127, 8156, 8159, 8177, 8107, 8158, 8153, 8155, 8179, 8200, 8157, 8156, 8155, 8075, 8136,7.602260589599609
236, 8164, 8174, 8150, 8133, 8179, 8160, 8166, 8163, 8213, 8173, 8180, 8157, 8087, 8126,7.617495536804199
0, 8159, 8173, 8148, 8134, 8181, 8140, 8149, 8157, 8201, 8168, 8178, 8150, 8080, 8115,7.617495536804199
1, 8146, 8186, 8180, 8133, 8172, 8150, 8137, 8183, 8164, 8141, 8164, 8158, 8064, 8113,7.632505416870117
2, 8144, 8196, 8144, 8161, 8179, 8164, 8162, 8148, 8169, 8142, 8179, 8144, 8068, 8102,7.632505416870117
3, 8150, 8204, 8167, 8144, 8176, 8162, 8156, 8167, 8157, 8126, 8156, 8133, 8049, 8110,7.648040056228638
4, 8137, 8201, 8167, 8136, 8171, 8175, 8160, 8176, 8151, 8134, 8137, 8130, 8045, 8110,7.648040056228638
5, 8135, 8188, 8154, 8152, 8173, 8183, 8180, 8159, 8160, 8152, 8151, 8131, 8062, 8110,7.664087295532227
6, 8141, 8184, 8159, 8154, 8169, 8173, 8172, 8169, 8151, 8143, 8152, 8131, 8061, 8115,7.664087295532227
7, 8122, 8166, 8145, 8140, 8155, 8158, 8155, 8150, 8136, 8133, 8129, 8106, 8044, 8097,7.67926812171936
8, 8112, 8153, 8150, 8119, 8146, 8160, 8160, 8165, 8120, 8132, 8107, 8092, 8030, 8103,7.67926812171936
9, 8118, 8151, 8129, 8129, 8146, 8165, 8187, 8165, 8134, 8145, 8120, 8101, 8046, 8117,7.695306301116943
10, 8123, 8136, 8127, 8131, 8140, 8164, 8190, 8154, 8155, 8151, 8121, 8105, 8057, 8112,7.695306301116943
11, 8119, 8128, 8128, 8113, 8135, 8168, 8186, 8176, 8174, 8159, 8113, 8096, 8057, 8107,7.710447549819946
12, 8116, 8130, 8102, 8114, 8139, 8156, 8192, 8157, 8193, 8168, 8129, 8093, 8070, 8102,7.710447549819946
13, 8125, 8140, 8136, 8113, 8135, 8139, 8175, 8179, 8185, 8154, 8136, 8112, 8074, 8117,7.726539373397827
14, 8134, 8150, 8125, 8124, 8134, 8142, 8169, 8178, 8195, 8167, 8152, 8119, 8080, 8121,7.726539373397827
15, 8144, 8153, 8125, 8123, 8136, 8141, 8159, 8156, 8191, 8167, 8164, 8120, 8081, 8114,7.742608547210693
16, 8145, 8167, 8159, 8113, 8135, 8141, 8145, 8175, 8163, 8137, 8155, 8130, 8076, 8116,7.742608547210693
17, 8141, 8169, 8130, 8128, 8135, 8128, 8149, 8147, 8159, 8137, 8167, 8121, 8082, 8103,7.758551359176636
18, 8157, 8179, 8161, 8122, 8132, 8119, 8139, 8170, 8152, 8129, 8176, 8130, 8077, 8108,7.758551359176636
19, 8164, 8211, 8158, 8139, 8143, 8141, 8147, 8183, 8164, 8133, 8190, 8142, 8084, 8115,7.774072885513306
20, 8150, 8213, 8143, 8152, 8150, 8143, 8147, 8153, 8168, 8140, 8193, 8132, 8088, 8113,7.774072885513306
21, 8138, 8201, 8164, 8139, 8148, 8148, 8139, 8180, 8157, 8138, 8165, 8126, 8068, 8122,7.7902302742004395
22, 8128, 8196, 8123, 8159, 8158, 8163, 8162, 8164, 8171, 8157, 8148, 8104, 8060, 8105,7.7902302742004395
23, 8120, 8194, 8146, 8156, 8152, 8160, 8158, 8164, 8156, 8148, 8125, 8084, 8045, 8094,7.80527663230896
24, 8107, 8188, 8148, 8153, 8148, 8169, 8164, 8173, 8155, 8158, 8127, 8079, 8042, 8105,7.80527663230896
25, 8107, 8163, 8119, 8149, 8155, 8172, 8183, 8159, 8186, 8192, 8136, 8081, 8067, 8114,7.81977391242981
26, 8117, 8148, 8150, 8106, 8141, 8148, 8154, 8189, 8177, 8173, 8120, 8103, 8072, 8118,7.835308790206909
27, 8112, 8147, 8116, 8099, 8127, 8126, 8128, 8159, 8170, 8147, 8129, 8106, 8075, 8097,7.835308790206909
28, 8120, 8147, 8111, 8101, 8135, 8124, 8125, 8149, 8169, 8136, 8141, 8103, 8076, 8093,7.850440263748169
29, 8140, 8153, 8181, 8091, 8140, 8136, 8127, 8188, 8154, 8129, 8143, 8124, 8076, 8112,7.850440263748169
30, 8148, 8159, 8170, 8109, 8139, 8134, 8124, 8158, 8143, 8135, 8160, 8133, 8087, 8105,7.86619234085083
31, 8149, 8173, 8131, 8131, 8138, 8129, 8111, 8149, 8135, 8124, 8172, 8134, 8091, 8108,7.86619234085083
32, 8154, 8180, 8143, 8139, 8142, 8132, 8116, 8153, 8145, 8123, 8179, 8141, 8101, 8121,7.86619234085083
33, 8162, 8179, 8174, 8140, 8148, 8134, 8130, 8162, 8137, 8132, 8179, 8148, 8098, 8127,7.881734132766724
34, 8163, 8190, 8169, 8155, 8157, 8148, 8139, 8176, 8124, 8139, 8174, 8145, 8085, 8126,7.897128582000732
35, 8154, 8192, 8154, 8172, 8160, 8157, 8143, 8151, 8147, 8142, 8169, 8130, 8087, 8113,7.897128582000732
36, 8147, 8186, 8172, 8165, 8149, 8160, 8147, 8170, 8166, 8136, 8156, 8122, 8090, 8116,7.912707805633545
37, 8136, 8172, 8154, 8164, 8148, 8169, 8167, 8171, 8173, 8161, 8156, 8117, 8104, 8122,7.912707805633545
38, 8131, 8150, 8159, 8151, 8146, 8176, 8168, 8168, 8170, 8174, 8151, 8116, 8110, 8134,7.9283435344696045
39, 8138, 8146, 8165, 8133, 8137, 8177, 8159, 8185, 8182, 8170, 8143, 8124, 8109, 8144,7.9283435344696045
40, 8135, 8141, 8132, 8134, 8136, 8149, 8165, 8153, 8199, 8184, 8149, 8124, 8116, 8128,7.943396806716919
41, 8132, 8141, 8159, 8116, 8130, 8133, 8155, 8170, 8180, 8170, 8140, 8127, 8110, 8130,7.943396806716919
42, 8144, 8155, 8147, 8119, 8134, 8151, 8159, 8170, 8188, 8159, 8160, 8135, 8127, 8132,7.959090709686279
43, 8168, 8170, 8154, 8126, 8141, 8142, 8151, 8160, 8201, 8154, 8183, 8161, 8136, 8132,7.959090709686279
44, 8172, 8194, 8187, 8143, 8150, 8140, 8137, 8183, 8181, 8151, 8175, 8173, 8117, 8136,7.9747374057769775
45, 8158, 8197, 8158, 8181, 8163, 8162, 8145, 8157, 8168, 8167, 8172, 8143, 8106, 8116,7.9747374057769775
46, 8161, 8192, 8186, 8177, 8164, 8176, 8141, 8176, 8154, 8160, 8165, 8142, 8102, 8123,7.990785598754883
47, 8153, 8188, 8163, 8172, 8158, 8177, 8150, 8168, 8149, 8160, 8161, 8144, 8108, 8124,7.990785598754883
48, 8138, 8176, 8168, 8160, 8152, 8175, 8158, 8161, 8132, 8153, 8139, 8131, 8100, 8122,8.006419897079468
49, 8133, 8172, 8156, 8160, 8161, 8191, 8179, 8173, 8152, 8166, 8138, 8125, 8101, 8130,8.006419897079468
50, 8135, 8145, 8103, 8155, 8160, 8174, 8184, 8133, 8187, 8182, 8147, 8111, 8106, 8119,8.022024393081665
51, 8154, 8148, 8223, 8107, 8130, 8156, 8140, 8194, 8156, 8135, 8113, 8147, 8087, 8143,8.022024393081665
52, 8155, 8167, 8164, 8129, 8128, 8154, 8146, 8179, 8168, 8145, 8138, 8166, 8119, 8143,8.043321371078491
53, 8154, 8163, 8130, 8131, 8139, 8128, 8133, 8147, 8155, 8142, 8163, 8157, 8125, 8121,8.043321371078491
54, 8155, 8190, 8220, 8119, 8146, 8153, 8122, 8197, 8116, 8111, 8149, 8166, 8092, 8120,8.043321371078491
55, 8137, 8188, 8114, 8175, 8161, 8181, 8170, 8136, 8157, 8158, 8158, 8129, 8103, 8095,8.05438756942749
56, 8128, 8160, 8142, 8152, 8153, 8168, 8158, 8159, 8160, 8156, 8124, 8109, 8088, 8104,8.06928038597107
57, 8127, 8160, 8183, 8127, 8142, 8179, 8158, 8197, 8169, 8154, 8105, 8115, 8090, 8125,8.06928038597107
58, 8142, 8155, 8106, 8154, 8146, 8173, 8193, 8141, 8220, 8194, 8140, 8112, 8136, 8120,8.084496259689331
59, 8157, 8163, 8189, 8122, 8149, 8151, 8164, 8186, 8202, 8170, 8153, 8153, 8144, 8136,8.084496259689331
60, 8150, 8192, 8236, 8111, 8155, 8153, 8140, 8202, 8179, 8150, 8163, 8183, 8142, 8134,8.100109338760376
61, 8145, 8195, 8110, 8154, 8156, 8145, 8156, 8138, 8192, 8176, 8179, 8147, 8145, 8107,8.100109338760376
62, 8154, 8185, 8095, 8156, 8150, 8127, 8148, 8135, 8177, 8165, 8171, 8125, 8130, 8100,8.116111755371094
63, 8146, 8193, 8176, 8132, 8152, 8136, 8128, 8159, 8150, 8131, 8155, 8137, 8106, 8097,8.116111755371094
64, 8121, 8191, 8148, 8139, 8153, 8162, 8143, 8167, 8152, 8145, 8141, 8128, 8098, 8096,8.130994081497192
65, 8108, 8165, 8110, 8152, 8149, 8177, 8168, 8150, 8165, 8180, 8130, 8109, 8106, 8101,8.130994081497192
66, 8116, 8142, 8141, 8123, 8139, 8170, 8166, 8162, 8166, 8176, 8124, 8111, 8113, 8111,8.146383047103882
67, 8126, 8150, 8146, 8104, 8128, 8159, 8157, 8180, 8169, 8168, 8141, 8126, 8123, 8111,8.146383047103882
68, 8127, 8169, 8136, 8130, 8135, 8150, 8144, 8157, 8163, 8174, 8166, 8138, 8133, 8096,8.162324666976929
69, 8145, 8188, 8175, 8144, 8147, 8161, 8125, 8177, 8144, 8160, 8178, 8163, 8131, 8107,8.162324666976929
70, 8162, 8194, 8164, 8155, 8158, 8169, 8139, 8169, 8158, 8160, 8198, 8175, 8138, 8115,8.177335739135742
71, 8157, 8185, 8163, 8154, 8159, 8166, 8151, 8164, 8157, 8159, 8186, 8162, 8126, 8118,8.177335739135742
72, 8136, 8182, 8169, 8160, 8156, 8189, 8157, 8178, 8149, 8161, 8160, 8144, 8110, 8119,8.192785739898682
73, 8122, 8171, 8145, 8183, 8162, 8199, 8175, 8147, 8169, 8179, 8157, 8133, 8118, 8108,8.192785739898682
74, 8141, 8171, 8187, 8167, 8160, 8186, 8170, 8177, 8175, 8175, 8153, 8160, 8124, 8132,8.208400011062622
75, 8170, 8176, 8176, 8167, 8151, 8171, 8157, 8174, 8186, 8173, 8184, 8185, 8148, 8148,8.208400011062622
76, 8186, 8185, 8186, 8192, 8138, 8145, 8132, 8159, 8169, 8151, 8217, 8206, 8155, 8142,8.22441029548645
77, 8181, 8217, 8216, 8232, 8134, 8146, 8130, 8180, 8140, 8132, 8226, 8223, 8144, 8136,8.22441029548645
78, 8177, 8215, 8192, 8272, 8143, 8168, 8160, 8155, 8149, 8151, 8238, 8218, 8154, 8136,8.239982843399048
79, 8188, 8198, 8228, 8269, 8134, 8178, 8165, 8176, 8145, 8148, 8229, 8230, 8152, 8167,8.239982843399048
80, 8187, 8201, 8214, 8276, 8126, 8167, 8166, 8165, 8154, 8155, 8235, 8241, 8160, 8172,8.25563097000122
81, 8201, 8204, 8216, 8271, 8122, 8146, 8147, 8148, 8166, 8163, 8260, 8263, 8188, 8174,8.25563097000122
82, 8226, 8223, 8258, 8270, 8124, 8146, 8119, 8176, 8158, 8147, 8284, 8301, 8202, 8197,8.270945310592651
83, 8228, 8235, 8229, 8299, 8132, 8141, 8121, 8140, 8140, 8132, 8288, 8288, 8187, 8180,8.270945310592651
84, 8226, 8240, 8253, 8303, 8131, 8148, 8121, 8160, 8101, 8111, 8250, 8263, 8156, 8167,8.286515235900879
85, 8222, 8234, 8233, 8320, 8139, 8181, 8151, 8171, 8115, 8134, 8238, 8249, 8167, 8171,8.286515235900879
86, 8214, 8207, 8210, 8304, 8134, 8176, 8170, 8158, 8146, 8158, 8242, 8244, 8187, 8179,8.30198335647583
87, 8216, 8206, 8230, 8261, 8119, 8154, 8149, 8182, 8138, 8138, 8231, 8254, 8187, 8186,8.30198335647583
88, 8220, 8218, 8192, 8265, 8128, 8141, 8133, 8148, 8130, 8132, 8238, 8245, 8190, 8163,8.318115949630737
89, 8220, 8220, 8219, 8252, 8134, 8135, 8112, 8159, 8112, 8118, 8224, 8239, 8174, 8157,8.318115949630737
90, 8206, 8213, 8201, 8242, 8135, 8140, 8114, 8164, 8117, 8122, 8220, 8228, 8168, 8151,8.333720922470093
91, 8193, 8203, 8172, 8241, 8138, 8143, 8129, 8144, 8121, 8127, 8222, 8204, 8162, 8136,8.333720922470093
92, 8189, 8208, 8204, 8222, 8139, 8165, 8139, 8173, 8107, 8111, 8188, 8189, 8131, 8142,8.349699258804321
93, 8170, 8191, 8158, 8228, 8138, 8176, 8154, 8145, 8122, 8129, 8164, 8157, 8123, 8130,8.349699258804321
94, 8170, 8174, 8170, 8214, 8129, 8171, 8154, 8163, 8134, 8140, 8157, 8159, 8131, 8141,8.365224838256836
95, 8180, 8185, 8183, 8199, 8138, 8186, 8171, 8183, 8163, 8164, 8173, 8179, 8152, 8166,8.365224838256836
96, 8174, 8177, 8153, 8183, 8141, 8170, 8165, 8150, 8177, 8175, 8171, 8159, 8155, 8162,8.380580425262451
97, 8165, 8160, 8173, 8148, 8122, 8143, 8132, 8174, 8150, 8141, 8150, 8150, 8140, 8148,8.380580425262451
98, 8160, 8155, 8144, 8152, 8125, 8140, 8135, 8156, 8160, 8144, 8165, 8159, 8153, 8128,8.396189451217651
99, 8163, 8164, 8149, 8147, 8139, 8141, 8132, 8155, 8152, 8139, 8166, 8162, 8151, 8132,8.396189451217651
100, 8153, 8177, 8145, 8138, 8137, 8140, 8120, 8169, 8122, 8121, 8156, 8153, 8133, 8125,8.411452770233154
101, 8137, 8173, 8122, 8149, 8136, 8133, 8118, 8147, 8121, 8119, 8151, 8136, 8122, 8099,8.411452770233154
102, 8139, 8176, 8162, 8157, 8145, 8155, 8129, 8178, 8131, 8127, 8125, 8136, 8115, 8119,8.426955223083496
103, 8137, 8156, 8127, 8158, 8144, 8177, 8162, 8157, 8156, 8150, 8109, 8115, 8120, 8127,8.442565679550171
104, 8136, 8127, 8131, 8111, 8125, 8155, 8148, 8149, 8151, 8130, 8101, 8107, 8107, 8116,8.442565679550171
105, 8142, 8152, 8158, 8096, 8130, 8139, 8120, 8168, 8139, 8112, 8128, 8141, 8110, 8114,8.442565679550171
106, 8153, 8177, 8141, 8136, 8152, 8137, 8133, 8147, 8140, 8131, 8162, 8158, 8136, 8115,8.458627939224243
107, 8166, 8186, 8178, 8145, 8153, 8152, 8147, 8180, 8131, 8132, 8149, 8154, 8134, 8134,8.458627939224243
108, 8161, 8191, 8161, 8159, 8158, 8169, 8164, 8170, 8153, 8145, 8149, 8140, 8134, 8129,8.474287986755371
109, 8153, 8188, 8166, 8163, 8166, 8167, 8160, 8166, 8156, 8143, 8145, 8143, 8129, 8118,8.474287986755371
110, 8147, 8184, 8172, 8163, 8159, 8171, 8162, 8189, 8156, 8145, 8131, 8142, 8121, 8123,8.489363431930542
111, 8138, 8164, 8135, 8167, 8147, 8172, 8182, 8163, 8182, 8175, 8132, 8123, 8130, 8127,8.50547194480896
112, 8142, 8159, 8177, 8147, 8144, 8175, 8180, 8186, 8171, 8168, 8127, 8135, 8130, 8143,8.50547194480896
113, 8137, 8159, 8152, 8151, 8153, 8174, 8187, 8171, 8170, 8165, 8128, 8131, 8134, 8130,8.50547194480896
114, 8129, 8143, 8127, 8133, 8144, 8147, 8174, 8159, 8177, 8166, 8118, 8112, 8125, 8111,8.521533727645874
115, 8143, 8150, 8149, 8111, 8132, 8140, 8160, 8190, 8183, 8170, 8131, 8137, 8133, 8126,8.521533727645874
116, 8173, 8169, 8144, 8135, 8143, 8139, 8169, 8167, 8208, 8185, 8172, 8163, 8175, 8138,8.536125183105469
117, 8187, 8181, 8183, 8140, 8148, 8130, 8161, 8185, 8209, 8173, 8164, 8170, 8181, 8153,8.536125183105469
118, 8175, 8177, 8149, 8147, 8153, 8133, 8165, 8170, 8207, 8180, 8165, 8162, 8177, 8139,8.553922414779663
119, 8181, 8177, 8150, 8145, 8166, 8130, 8157, 8155, 8198, 8169, 8177, 8167, 8173, 8125,8.553922414779663
120, 8182, 8198, 8186, 8138, 8168, 8131, 8146, 8189, 8186, 8144, 8163, 8168, 8155, 8131,8.567239999771118
121, 8155, 8188, 8131, 8146, 8165, 8128, 8159, 8157, 8187, 8155, 8161, 8137, 8151, 8108,8.582331895828247
122, 8150, 8177, 8163, 8131, 8159, 8130, 8161, 8174, 8174, 8148, 8158, 8140, 8144, 8106,8.582331895828247
123, 8152, 8189, 8169, 8149, 8163, 8147, 8176, 8175, 8199, 8154, 8159, 8145, 8140, 8115,8.598011493682861
124, 8150, 8177, 8153, 8154, 8156, 8141, 8178, 8157, 8220, 8162, 8151, 8134, 8135, 8122,8.598011493682861
125, 8157, 8170, 8179, 8141, 8150, 8154, 8179, 8196, 8217, 8157, 8139, 8144, 8139, 8144,8.613457441329956
126, 8152, 8169, 8140, 8174, 8159, 8163, 8192, 8164, 8240, 8166, 8137, 8128, 8146, 8126,8.613457441329956
127, 8147, 8171, 8160, 8175, 8157, 8155, 8165, 8165, 8235, 8156, 8122, 8123, 8127, 8110,8.628602504730225
236, 8150, 8176, 8156, 8162, 8160, 8163, 8165, 8175, 8235, 8170, 8129, 8133, 8132, 8119,8.628602504730225
0, 8153, 8169, 8162, 8150, 8161, 8158, 8178, 8165, 8240, 8181, 8134, 8135, 8141, 8138,8.644333124160767
1, 8154, 8174, 8164, 8151, 8167, 8163, 8187, 8179, 8258, 8185, 8146, 8147, 8157, 8147,8.644333124160767
2, 8151, 8162, 8101, 8166, 8164, 8161, 8197, 8147, 8290, 8211, 8169, 8141, 8181, 8127,8.659926652908325
3, 8152, 8157, 8203, 8111, 8106, 8151, 8157, 8189, 8234, 8164, 8125, 8141, 8137, 8140,8.659926652908325
4, 8163, 8193, 8230, 8125, 8118, 8176, 8167, 8201, 8234, 8162, 8130, 8155, 8135, 8161,8.675439596176147
5, 8187, 8204, 8150, 8196, 8201, 8180, 8214, 8154, 8315, 8223, 8191, 8170, 8197, 8159,8.675439596176147
6, 8188, 8189, 8210, 8170, 8206, 8167, 8193, 8203, 8313, 8211, 8181, 8194, 8194, 8169,8.691157579421997
7, 8174, 8187, 8199, 8151, 8174, 8162, 8176, 8191, 8292, 8202, 8170, 8187, 8184, 8157,8.691157579421997
8, 8182, 8194, 8130, 8172, 8184, 8149, 8178, 8152, 8298, 8205, 8180, 8170, 8199, 8144,8.70632004737854
9, 8177, 8183, 8112, 8172, 8212, 8142, 8179, 8159, 8304, 8193, 8177, 8168, 8198, 8145,8.70632004737854
10, 8157, 8161, 8174, 8123, 8211, 8129, 8158, 8176, 8277, 8173, 8150, 8170, 8169, 8139,8.72205662727356
11, 8139, 8158, 8140, 8101, 8203, 8128, 8157, 8169, 8252, 8170, 8136, 8148, 8157, 8118,8.72205662727356
12, 8139, 8141, 8016, 8141, 8227, 8119, 8183, 8102, 8268, 8188, 8164, 8111, 8180, 8094,8.737574577331543
13, 8175, 8158, 8213, 8126, 8263, 8125, 8154, 8187, 8246, 8154, 8164, 8168, 8171, 8141,8.737574577331543
14, 8183, 8193, 8270, 8137, 8297, 8160, 8153, 8225, 8258, 8161, 8176, 8206, 8179, 8153,8.753267049789429
15, 8162, 8162, 8076, 8171, 8323, 8140, 8171, 8119, 8284, 8189, 8180, 8146, 8183, 8102,8.753267049789429
16, 8161, 8150, 8146, 8138, 8318, 8121, 8139, 8167, 8239, 8147, 8131, 8141, 8139, 8111,8.769258975982666
17, 8150, 8169, 8190, 8127, 8306, 8139, 8142, 8188, 8228, 8143, 8130, 8153, 8138, 8115,8.769258975982666
18, 8144, 8168, 8138, 8142, 8340, 8142, 8156, 8153, 8235, 8162, 8155, 8137, 8156, 8107,8.784830570220947
19, 8149, 8163, 8134, 8157, 8376, 8146, 8156, 8169, 8218, 8154, 8147, 8124, 8144, 8116,8.784830570220947
20, 8140, 8157, 8141, 8165, 8363, 8151, 8168, 8164, 8213, 8153, 8133, 8113, 8133, 8114,8.800353765487671
21, 8142, 8169, 8162, 8166, 8361, 8162, 8186, 8180, 8227, 8170, 8138, 8126, 8145, 8133,8.800353765487671
22, 8147, 8169, 8139, 8188, 8386, 8169, 8195, 8167, 8244, 8195, 8150, 8130, 8165, 8139,8.816387414932251
23, 8151, 8148, 8155, 8179, 8378, 8167, 8187, 8170, 8227, 8194, 8144, 8129, 8160, 8142,8.816387414932251
24, 8162, 8148, 8164, 8155, 8364, 8174, 8197, 8199, 8232, 8206, 8149, 8146, 8160, 8166,8.83241057395935
25, 8156, 8147, 8133, 8157, 8365, 8166, 8208, 8171, 8259, 8225, 8147, 8139, 8169, 8161,8.83241057395935
26, 8141, 8133, 8145, 8138, 8340, 8159, 8203, 8178, 8245, 8196, 8113, 8117, 8149, 8145,8.848065853118896
27, 8134, 8125, 8132, 8121, 8321, 8166, 8215, 8180, 8243, 8192, 8113, 8114, 8139, 8140,8.848065853118896
28, 8139, 8123, 8133, 8112, 8312, 8156, 8200, 8170, 8241, 8198, 8116, 8122, 8139, 8144,8.863153457641602
29, 8141, 8134, 8147, 8108, 8303, 8153, 8178, 8189, 8230, 8180, 8105, 8126, 8138, 8146,8.863153457641602
30, 8143, 8140, 8122, 8125, 8298, 8152, 8191, 8167, 8261, 8189, 8126, 8127, 8157, 8139,8.87822699546814
31, 8153, 8143, 8148, 8120, 8284, 8141, 8175, 8182, 8268, 8187, 8133, 8141, 8162, 8146,8.87822699546814
32, 8150, 8148, 8138, 8120, 8271, 8121, 8143, 8176, 8246, 8178, 8130, 8139, 8160, 8136,8.894283533096313
33, 8151, 8148, 8134, 8117, 8260, 8109, 8129, 8158, 8235, 8177, 8137, 8134, 8160, 8129,8.894283533096313
34, 8158, 8162, 8161, 8118, 8252, 8132, 8141, 8183, 8234, 8180, 8148, 8146, 8160, 8143,8.910364389419556
35, 8154, 8167, 8135, 8141, 8253, 8146, 8162, 8153, 8228, 8176, 8157, 8138, 8165, 8119,8.910364389419556
36, 8155, 8177, 8160, 8136, 8253, 8141, 8164, 8169, 8207, 8154, 8147, 8137, 8159, 8107,8.926406383514404
37, 8156, 8194, 8165, 8150, 8255, 8156, 8182, 8186, 8223, 8172, 8155, 8141, 8160, 8120,8.926406383514404
38, 8157, 8185, 8151, 8166, 8245, 8165, 8192, 8166, 8233, 8181, 8160, 8134, 8155, 8121,8.942312955856323
39, 8153, 8178, 8167, 8144, 8220, 8166, 8180, 8188, 8210, 8151, 8130, 8127, 8138, 8121,8.942312955856323
40, 8130, 8176, 8132, 8145, 8209, 8169, 8191, 8166, 8217, 8159, 8112, 8100, 8135, 8106,8.958494186401367
41, 8121, 8168, 8153, 8148, 8201, 8170, 8194, 8178, 8222, 8164, 8097, 8094, 8123, 8112,8.958494186401367
42, 8134, 8159, 8160, 8157, 8186, 8178, 8207, 8190, 8237, 8173, 8104, 8108, 8133, 8130,8.97434687614441
