COUNTER,F3,FC5,AF3,F7,T7,P7,O1,O2,P8,T8,F8,AF4,FC6,F4,Timestamp
28,8130,8139,8126,8138,8138,8197,8151,8155,8063,8119,8224,8194,8150,8084,0.0030000209808349
29,8103,8151,8115,8148,8161,8195,8153,8162,7989,8143,8260,8132,8160,8070,0.0110094547271728
30,8143,8189,8147,8172,8149,8198,8157,8187,8147,8158,8292,8144,8178,8065,0.0190112590789794
31,8142,8144,8130,8165,8151,8198,8173,8170,8070,8175,8296,8152,8167,8058,0.0275230407714843
32,8126,8154,8141,8172,8152,8199,8154,8166,8094,8159,8277,8176,8157,8057,0.0355620384216308
33,8124,8161,8172,8157,8142,8201,8158,8181,8126,8150,8293,8157,8160,8037,0.0419909954071044
34,8161,8149,8168,8156,8142,8199,8187,8182,8073,8163,8297,8155,8163,8058,0.0499897003173828
35,8158,8176,8158,8165,8131,8183,8158,8175,8172,8145,8271,8184,8169,8075,0.0579919815063476
35,8158,8176,8158,8165,8131,8183,8158,8175,8172,8145,8271,8184,8169,8075,0.0589926242828369
36,8116,8161,8147,8150,8152,8183,8164,8176,8077,8163,8305,8149,8164,8053,0.0658891201019287
37,8148,8172,8166,8165,8155,8191,8186,8205,8144,8173,8328,8195,8166,8077,0.0744779109954834
38,8148,8168,8157,8161,8141,8178,8177,8210,8209,8173,8321,8196,8167,8079,0.0824775695800781
39,8141,8152,8133,8142,8149,8178,8178,8188,8085,8183,8332,8129,8159,8053,0.0903804302215576
39,8141,8152,8133,8142,8149,8178,8178,8188,8085,8183,8332,8129,8159,8053,0.0908224582672119
40,8160,8179,8151,8149,8132,8189,8184,8190,8167,8154,8328,8170,8163,8053,0.0976309776306152
41,8136,8161,8144,8159,8145,8187,8202,8194,8118,8163,8339,8174,8162,8072,0.1056311130523681
42,8143,8184,8141,8178,8155,8184,8191,8196,8145,8172,8357,8160,8173,8082,0.113494873046875
43,8162,8191,8150,8167,8138,8179,8184,8198,8202,8166,8337,8180,8171,8069,0.1215021610260009
44,8164,8160,8156,8151,8153,8177,8196,8194,8111,8187,8319,8188,8156,8086,0.1293799877166748
45,8150,8191,8152,8152,8147,8169,8171,8193,8204,8169,8325,8194,8173,8091,0.1373763084411621
46,8132,8186,8125,8145,8153,8166,8182,8188,8133,8177,8337,8144,8180,8069,0.1454036235809326
47,8183,8187,8225,8170,8168,8178,8205,8198,8153,8193,8322,8177,8170,8093,0.1534044742584228
48,8171,8185,8381,8166,8163,8171,8188,8192,8254,8186,8329,8201,8170,8094,0.160616397857666
49,8129,8174,8433,8140,8174,8155,8181,8177,8152,8202,8357,8144,8175,8080,0.1683690547943115
50,8165,8211,8447,8168,8167,8159,8183,8193,8256,8192,8331,8192,8169,8099,0.1763761043548584
51,8160,8170,8445,8158,8169,8152,8190,8187,8210,8195,8335,8182,8153,8094,0.1843903064727783
52,8149,8169,8451,8132,8163,8140,8169,8178,8153,8187,8341,8149,8163,8079,0.1923789978027343
53,8154,8208,8441,8142,8151,8144,8162,8184,8227,8158,8309,8183,8168,8076,0.2004079818725586
54,8148,8179,8418,8152,8172,8156,8195,8179,8127,8177,8318,8168,8152,8090,0.2084152698516845
55,8151,8195,8436,8163,8162,8144,8180,8184,8219,8177,8314,8176,8165,8096,0.2164387702941894
56,8138,8185,8430,8154,8158,8135,8171,8188,8202,8185,8309,8154,8175,8069,0.2243578433990478
57,8162,8187,8424,8157,8162,8158,8184,8194,8158,8194,8312,8160,8171,8076,0.2322402000427246
58,8176,8216,8440,8163,8149,8166,8183,8206,8269,8181,8309,8199,8169,8099,0.2402434349060058
59,8167,8182,8432,8154,8174,8158,8202,8202,8187,8201,8320,8165,8164,8108,0.2473769187927246
60,8173,8189,8423,8157,8168,8155,8185,8195,8242,8186,8303,8182,8174,8112,0.254805326461792
60,8173,8189,8423,8157,8168,8155,8185,8195,8242,8186,8303,8182,8174,8112,0.2558345794677734
61,8153,8184,8403,8143,8159,8150,8172,8182,8208,8180,8308,8163,8175,8091,0.2636499404907226
61,8153,8184,8403,8143,8159,8150,8172,8182,8208,8180,8308,8163,8175,8091,0.2638435363769531
62,8161,8179,8401,8145,8169,8152,8190,8185,8139,8182,8309,8150,8162,8090,0.2715175151824951
62,8161,8179,8401,8145,8169,8152,8190,8185,8139,8182,8309,8150,8162,8090,0.2720456123352051
63,8158,8193,8412,8147,8151,8146,8181,8197,8234,8152,8273,8187,8158,8087,0.2790586948394775
64,8136,8169,8392,8129,8161,8139,8181,8193,8134,8178,8276,8148,8156,8079,0.2870943546295166
64,8136,8169,8392,8129,8161,8139,8181,8193,8134,8178,8276,8148,8156,8079,0.2878181934356689
65,8154,8187,8380,8137,8159,8138,8173,8196,8179,8176,8262,8165,8159,8091,0.2958278656005859
66,8130,8170,8347,8123,8144,8133,8170,8188,8152,8152,8242,8161,8158,8066,0.3034186363220215
67,8115,8152,8326,8112,8153,8132,8172,8176,8049,8162,8242,8142,8159,8050,0.3104250431060791
68,8127,8181,8345,8126,8151,8130,8161,8183,8160,8154,8238,8184,8172,8064,0.3183741569519043
69,8135,8165,8346,8143,8169,8147,8185,8199,8118,8175,8269,8167,8177,8084,0.3263378143310547
70,8174,8189,8361,8165,8170,8164,8183,8212,8200,8190,8257,8188,8176,8108,0.3340191841125488
70,8174,8189,8361,8165,8170,8164,8183,8212,8200,8190,8257,8188,8176,8108,0.3350141048431396
71,8151,8179,8341,8139,8162,8149,8164,8191,8186,8183,8207,8181,8162,8089,0.3420133590698242
72,8134,8155,8311,8128,8175,8148,8176,8176,8051,8176,8198,8155,8158,8082,0.350374698638916
73,8158,8186,8326,8153,8161,8152,8173,8193,8180,8149,8197,8198,8173,8096,0.3583741188049316
74,8145,8159,8316,8144,8170,8146,8174,8189,8104,8160,8196,8169,8168,8087,0.3664529323577881
75,8166,8170,8326,8151,8180,8162,8171,8186,8107,8164,8184,8178,8165,8097,0.3732175827026367
76,8166,8170,8337,8156,8178,8175,8179,8191,8176,8160,8184,8195,8168,8105,0.3812179565429687
77,8151,8137,8308,8147,8179,8167,8193,8187,8087,8165,8179,8166,8163,8109,0.3887717723846435
77,8151,8137,8308,8147,8179,8167,8193,8187,8087,8165,8179,8166,8163,8109,0.3897643089294433
78,8152,8168,8295,8150,8156,8165,8166,8186,8163,8144,8145,8191,8163,8097,0.3977658748626709
79,8131,8155,8281,8143,8163,8172,8162,8177,8084,8161,8153,8160,8158,8075,0.4053754806518554
80,8147,8158,8288,8156,8161,8172,8163,8175,8084,8155,8157,8165,8160,8091,0.4133749008178711
81,8141,8165,8282,8162,8149,8165,8154,8174,8136,8121,8135,8180,8158,8080,0.4214720726013183
82,8134,8147,8256,8150,8171,8171,8170,8170,8014,8131,8121,8141,8146,8063,0.4294660091400146
83,8143,8168,8262,8149,8156,8173,8163,8173,8086,8114,8101,8176,8153,8070,0.4364786148071289
84,8122,8145,8251,8144,8150,8172,8165,8173,8044,8125,8124,8175,8163,8075,0.4443743228912353
85,8146,8154,8257,8155,8152,8178,8169,8183,8062,8146,8133,8182,8171,8101,0.4524924755096435
86,8150,8166,8264,8149,8143,8168,8158,8181,8132,8118,8111,8194,8170,8098,0.4606506824493408
87,8144,8141,8251,8145,8154,8165,8165,8165,8009,8122,8124,8161,8163,8091,0.4683816432952881
88,8166,8175,8261,8166,8146,8168,8151,8170,8101,8124,8118,8191,8169,8102,0.4763815402984619
89,8151,8166,8242,8155,8155,8160,8156,8169,8065,8127,8108,8168,8163,8088,0.4843742847442627
90,8165,8172,8240,8170,8168,8165,8168,8171,8036,8124,8106,8161,8160,8087,0.4926705360412597
91,8175,8192,8260,8190,8155,8171,8162,8179,8146,8122,8109,8191,8170,8093,0.5006711483001709
92,8163,8156,8247,8169,8169,8165,8173,8171,8050,8156,8128,8157,8168,8098,0.5077030658721924
93,8158,8167,8239,8159,8152,8149,8153,8163,8091,8118,8099,8170,8167,8087,0.5147662162780762
94,8122,8148,8209,8147,8132,8131,8146,8149,8021,8087,8080,8152,8158,8053,0.523317813873291
95,8132,8143,8206,8152,8142,8136,8159,8152,7970,8109,8097,8148,8155,8071,0.5313761234283447
96,8152,8169,8226,8165,8146,8146,8155,8166,8100,8114,8104,8183,8165,8089,0.5396881103515625
97,8145,8142,8203,8158,8168,8150,8171,8159,8010,8134,8118,8148,8165,8081,0.5476884841918945
98,8147,8156,8202,8156,8147,8142,8158,8159,8065,8125,8102,8167,8167,8087,0.555375337600708
99,8129,8143,8206,8139,8123,8122,8148,8150,8054,8119,8096,8158,8159,8073,0.5633740425109863
100,8135,8141,8209,8139,8137,8120,8151,8133,7969,8110,8102,8137,8155,8067,0.5704889297485352
101,8135,8165,8208,8146,8127,8122,8129,8133,8045,8079,8073,8171,8164,8063,0.5784912109375
102,8124,8133,8176,8133,8130,8111,8139,8135,7933,8107,8066,8143,8160,8059,0.5863380432128906
103,8142,8157,8183,8148,8122,8100,8136,8140,7978,8099,8059,8160,8159,8069,0.5943746566772461
104,8121,8163,8190,8150,8119,8095,8140,8148,8008,8085,8061,8163,8163,8060,0.6023683547973633
105,8125,8144,8181,8145,8134,8109,8164,8156,7951,8114,8061,8141,8163,8064,0.6104528903961182
106,8130,8151,8176,8134,8105,8107,8152,8156,8040,8099,8035,8165,8164,8065,0.6184542179107666
107,8098,8125,8154,8121,8091,8091,8145,8141,7926,8102,8051,8134,8160,8058,0.6264626979827881
108,8111,8146,8159,8134,8085,8087,8135,8140,7955,8091,8053,8151,8163,8063,0.6343767642974854
109,8099,8134,8147,8118,8075,8088,8135,8133,7967,8073,8037,8153,8160,8043,0.6414432525634766
110,8107,8120,8140,8125,8084,8099,8156,8136,7878,8096,8059,8135,8163,8060,0.6489479541778564
111,8150,8174,8173,8162,8079,8109,8162,8168,8053,8102,8073,8182,8180,8093,0.6569638252258301
112,8131,8148,8154,8142,8085,8107,8173,8157,7996,8108,8069,8149,8167,8071,0.6653742790222168
113,8122,8141,8137,8136,8072,8096,8150,8132,7949,8084,8041,8149,8153,8062,0.6733744144439697
114,8117,8153,8133,8150,8061,8080,8132,8138,7982,8076,8040,8163,8162,8063,0.6813738346099854
115,8125,8143,8128,8148,8078,8089,8160,8155,7942,8121,8067,8143,8168,8074,0.6891529560089111
116,8142,8171,8153,8153,8055,8103,8158,8163,8092,8124,8057,8179,8173,8094,0.6971533298492432
117,8119,8142,8140,8144,8056,8101,8158,8150,8015,8121,8052,8151,8167,8089,0.7043752670288086
118,8123,8151,8135,8152,8073,8102,8158,8148,7985,8116,8052,8151,8166,8089,0.7123739719390869
119,8122,8176,8144,8157,8072,8111,8157,8151,8068,8124,8059,8172,8168,8084,0.7203755378723145
120,8132,8161,8137,8158,8100,8129,8179,8153,8010,8153,8085,8148,8169,8098,0.7284026145935059
121,8160,8183,8151,8172,8098,8128,8168,8170,8135,8128,8070,8181,8172,8107,0.7364065647125244
122,8138,8159,8135,8158,8079,8105,8165,8168,8073,8136,8072,8159,8163,8089,0.7445363998413086
123,8148,8164,8136,8164,8067,8105,8168,8168,8045,8159,8088,8160,8164,8106,0.7525382041931152
124,8150,8178,8149,8168,8063,8112,8168,8175,8135,8138,8079,8180,8168,8106,0.7603750228881836
125,8136,8146,8130,8156,8084,8114,8185,8161,8007,8134,8078,8135,8154,8088,0.7673740386962891
126,8154,8174,8144,8167,8073,8120,8171,8156,8090,8134,8079,8168,8163,8104,0.7753744125366211
127,8143,8165,8142,8162,8084,8118,8168,8156,8100,8155,8104,8162,8171,8110,0.783440113067627
240,8149,8160,8130,8163,8102,8103,8164,8155,8060,8140,8108,8149,8162,8110,0.7914385795593262
0,8151,8173,8132,8169,8087,8096,8148,8151,8125,8104,8096,8178,8162,8106,0.799433708190918
1,8138,8141,8122,8158,8101,8118,8173,8145,8041,8145,8114,8152,8165,8111,0.8074367046356201
2,8153,8162,8124,8167,8094,8128,8174,8161,8138,8150,8102,8174,8170,8120,0.8154358863830566
3,8144,8156,8116,8169,8090,8111,8171,8163,8117,8136,8106,8163,8165,8100,0.8227784633636475
4,8145,8153,8125,8170,8094,8112,8177,8153,8057,8143,8120,8151,8161,8097,0.8297781944274902
5,8142,8176,8139,8165,8070,8109,8159,8147,8140,8119,8102,8175,8161,8095,0.8383746147155762
6,8135,8156,8132,8152,8090,8105,8167,8141,8022,8129,8116,8140,8157,8091,0.8463377952575684
7,8147,8174,8162,8163,8096,8104,8164,8148,8088,8126,8123,8169,8167,8108,0.8543744087219238
8,8123,8155,8154,8151,8081,8095,8156,8142,8078,8114,8115,8160,8165,8096,0.8622865676879883
9,8148,8151,8131,8158,8083,8102,8167,8150,8005,8137,8121,8138,8161,8105,0.8702902793884277
10,8173,8187,8142,8177,8091,8108,8164,8163,8142,8130,8116,8177,8167,8118,0.8784120082855225
11,8135,8148,8128,8154,8123,8102,8170,8145,8049,8120,8130,8149,8158,8103,0.8863334655761719
12,8151,8165,8140,8164,8108,8102,8162,8150,8088,8107,8131,8167,8163,8112,0.8933463096618652
13,8154,8170,8134,8166,8094,8108,8161,8152,8126,8117,8132,8168,8168,8112,0.90134596824646
14,8139,8152,8109,8160,8113,8113,8167,8134,8028,8130,8136,8143,8159,8104,0.9093842506408693
15,8149,8183,8129,8172,8098,8104,8152,8142,8125,8096,8106,8179,8159,8100,0.9173738956451416
16,8145,8163,8131,8163,8102,8106,8173,8157,8071,8113,8110,8151,8157,8099,0.9252984523773192
16,8145,8163,8131,8163,8102,8106,8173,8157,8071,8113,8110,8151,8157,8099,0.9262981414794922
17,8157,8166,8126,8159,8099,8117,8173,8163,8101,8120,8116,8159,8161,8111,0.9330377578735352
18,8138,8161,8113,8144,8086,8104,8156,8150,8115,8100,8111,8166,8165,8101,0.9410364627838136
18,8138,8161,8113,8144,8086,8104,8156,8150,8115,8100,8111,8166,8165,8101,0.9420294761657716
19,8137,8148,8108,8141,8096,8103,8167,8145,8032,8116,8113,8143,8160,8109,0.9493749141693116
19,8137,8148,8108,8141,8096,8103,8167,8145,8032,8116,8113,8143,8160,8109,0.949756383895874
20,8154,8172,8123,8153,8088,8119,8167,8154,8142,8108,8099,8173,8158,8116,0.9573752880096436
21,8134,8141,8120,8144,8107,8123,8180,8148,8057,8118,8122,8148,8157,8101,0.964374542236328
22,8149,8158,8150,8154,8112,8124,8178,8152,8078,8115,8128,8158,8165,8112,0.9721448421478271
22,8149,8158,8150,8154,8112,8124,8178,8152,8078,8115,8128,8158,8165,8112,0.9731426239013672
23,8145,8169,8164,8150,8097,8127,8170,8156,8147,8103,8120,8170,8169,8111,0.9804785251617432
24,8142,8141,8146,8144,8122,8131,8184,8148,8035,8117,8127,8139,8163,8109,0.9884777069091796
25,8157,8173,8154,8156,8121,8133,8177,8148,8133,8096,8108,8175,8165,8110,0.996337890625
26,8138,8164,8141,8143,8119,8139,8185,8148,8091,8117,8114,8156,8162,8098,1.0057275295257568
27,8153,8170,8149,8147,8131,8147,8185,8159,8088,8128,8110,8156,8163,8113,1.0117290019989014
28,8151,8178,8161,8158,8128,8140,8177,8164,8169,8103,8092,8173,8166,8117,1.020232915878296
29,8148,8157,8140,8159,8128,8143,8202,8155,8085,8133,8115,8144,8163,8124,1.0272369384765625
30,8162,8184,8147,8162,8113,8145,8197,8164,8189,8138,8116,8180,8167,8138,1.0352375507354736
31,8142,8165,8144,8154,8126,8139,8198,8168,8156,8142,8117,8167,8167,8124,1.0432381629943848
32,8155,8169,8142,8168,8137,8145,8204,8161,8138,8143,8140,8166,8168,8132,1.0512371063232422
33,8159,8186,8139,8172,8128,8143,8189,8160,8211,8128,8139,8184,8163,8127,1.0592362880706787
34,8150,8156,8126,8156,8142,8140,8199,8156,8084,8137,8128,8145,8153,8113,1.067237138748169
35,8164,8182,8144,8163,8129,8146,8188,8153,8158,8125,8110,8174,8166,8125,1.0752363204956057
36,8152,8177,8135,8165,8137,8149,8187,8150,8142,8139,8126,8165,8169,8120,1.0832364559173584
37,8171,8177,8126,8184,8159,8159,8200,8165,8123,8145,8130,8156,8163,8120,1.0912458896636963
38,8178,8188,8124,8188,8142,8165,8198,8169,8225,8122,8105,8174,8166,8116,1.098658323287964
39,8153,8155,8103,8160,8154,8170,8213,8153,8095,8142,8122,8141,8160,8118,1.106511116027832
40,8168,8183,8133,8174,8155,8172,8202,8171,8189,8147,8140,8185,8170,8146,1.114229679107666
41,8171,8176,8141,8174,8151,8161,8204,8186,8243,8171,8155,8187,8180,8154,1.122375249862671
42,8181,8164,8117,8161,8153,8161,8213,8172,8165,8184,8144,8158,8165,8151,1.130378246307373
43,8159,8181,8104,8154,8128,8168,8193,8156,8207,8132,8113,8174,8151,8128,1.1384000778198242
44,8122,8147,8088,8145,8138,8171,8201,8152,8099,8129,8126,8142,8153,8112,1.1464018821716309
45,8161,8170,8109,8173,8137,8167,8200,8168,8163,8135,8112,8171,8164,8128,1.1544606685638428
46,8161,8175,8106,8169,8130,8169,8188,8157,8161,8124,8102,8173,8159,8124,1.1616299152374268
47,8144,8159,8081,8150,8138,8181,8176,8139,8070,8119,8111,8146,8155,8122,1.1693756580352783
48,8151,8175,8092,8161,8129,8187,8166,8153,8169,8101,8090,8178,8165,8119,1.1773927211761477
49,8142,8149,8095,8167,8149,8204,8197,8157,8091,8129,8106,8153,8161,8115,1.1853985786437988
50,8153,8168,8101,8173,8147,8215,8188,8153,8151,8128,8128,8173,8162,8129,1.1933746337890625
51,8145,8174,8098,8163,8133,8202,8172,8152,8184,8109,8128,8177,8169,8118,1.201374053955078
52,8162,8166,8103,8173,8150,8202,8197,8150,8099,8131,8128,8152,8171,8128,1.2087221145629885
52,8162,8166,8103,8173,8150,8202,8197,8150,8099,8131,8128,8152,8171,8128,1.2097795009613037
53,8176,8183,8117,8186,8149,8201,8191,8157,8209,8124,8110,8184,8168,8135,1.2167844772338867
53,8176,8183,8117,8186,8149,8201,8191,8157,8209,8124,8110,8184,8168,8135,1.2177841663360596
54,8135,8141,8088,8164,8155,8187,8183,8152,8114,8129,8110,8149,8154,8106,1.225616455078125
55,8144,8162,8085,8169,8151,8191,8181,8156,8133,8130,8106,8154,8161,8112,1.232375144958496
56,8136,8166,8075,8162,8145,8184,8180,8155,8175,8120,8101,8163,8164,8109,1.24037504196167
57,8123,8132,8053,8146,8154,8169,8185,8150,8053,8127,8097,8133,8149,8090,1.2480568885803225
58,8148,8171,8082,8162,8142,8173,8175,8162,8165,8117,8071,8172,8157,8098,1.255969524383545
59,8147,8168,8089,8169,8165,8188,8190,8163,8141,8141,8087,8159,8164,8111,1.2643766403198242
60,8153,8170,8083,8173,8173,8191,8189,8160,8142,8126,8091,8161,8162,8113,1.2719919681549072
60,8153,8170,8083,8173,8173,8191,8189,8160,8142,8126,8091,8161,8162,8113,1.2730224132537842
61,8136,8167,8068,8159,8148,8177,8177,8150,8158,8099,8068,8167,8157,8086,1.280071496963501
61,8136,8167,8068,8159,8148,8177,8177,8150,8158,8099,8068,8167,8157,8086,1.281074285507202
62,8136,8148,8056,8161,8171,8186,8199,8151,8065,8151,8090,8141,8159,8092,1.28827166557312
63,8157,8184,8080,8187,8179,8200,8192,8179,8215,8152,8100,8180,8171,8115,1.295271873474121
64,8143,8166,8079,8173,8173,8192,8193,8178,8173,8133,8107,8163,8163,8104,1.3031539916992188
65,8172,8173,8101,8175,8171,8186,8196,8166,8152,8138,8114,8167,8164,8128,1.3115065097808838
66,8175,8187,8122,8184,8168,8184,8186,8168,8239,8141,8112,8184,8179,8139,1.3195087909698486
67,8152,8156,8091,8173,8175,8180,8194,8162,8121,8151,8110,8141,8174,8123,1.3275134563446045
68,8149,8172,8089,8169,8145,8168,8180,8161,8186,8126,8088,8169,8167,8115,1.3353700637817385
69,8125,8149,8088,8153,8138,8159,8182,8156,8143,8131,8090,8156,8160,8097,1.34336256980896
70,8138,8151,8091,8158,8141,8164,8182,8148,8092,8132,8088,8145,8157,8099,1.351363182067871
71,8138,8177,8092,8170,8124,8164,8157,8141,8152,8114,8082,8165,8158,8094,1.3583743572235107
72,8128,8154,8082,8173,8140,8165,8166,8135,8048,8143,8109,8137,8158,8094,1.3663382530212402
73,8152,8181,8111,8184,8131,8169,8166,8144,8151,8133,8113,8174,8172,8119,1.374377965927124
74,8138,8172,8100,8170,8130,8162,8168,8144,8134,8124,8120,8163,8166,8114,1.382374286651611
75,8143,8164,8078,8171,8147,8163,8172,8148,8070,8132,8118,8150,8157,8109,1.389780044555664
75,8143,8164,8078,8171,8147,8163,8172,8148,8070,8132,8118,8150,8157,8109,1.3907742500305176
76,8157,8184,8097,8185,8130,8163,8163,8157,8182,8117,8100,8186,8171,8107,1.3977727890014648
76,8157,8184,8097,8185,8130,8163,8163,8157,8182,8117,8100,8186,8171,8107,1.3987720012664795
77,8155,8162,8101,8179,8132,8155,8170,8147,8097,8140,8128,8160,8172,8112,1.4063398838043213
78,8165,8183,8103,8183,8120,8147,8147,8142,8139,8131,8131,8176,8164,8123,1.414374589920044
79,8151,8177,8091,8185,8122,8150,8148,8145,8124,8117,8120,8164,8157,8110,1.4213738441467283
80,8166,8172,8101,8193,8142,8161,8170,8143,8067,8118,8123,8150,8160,8116,1.4293739795684814
81,8159,8183,8111,8180,8111,8149,8143,8127,8146,8087,8104,8171,8162,8108,1.437482833862305
82,8121,8147,8085,8152,8097,8147,8138,8115,8017,8102,8112,8128,8154,8088,1.445481777191162
83,8143,8181,8116,8180,8102,8167,8139,8138,8088,8115,8128,8158,8166,8104,1.4533700942993164
84,8149,8189,8137,8193,8115,8165,8151,8149,8149,8125,8137,8175,8173,8111,1.4613745212554932
85,8163,8177,8131,8191,8131,8163,8174,8145,8088,8146,8143,8164,8164,8128,1.468374490737915
86,8183,8207,8146,8208,8124,8166,8164,8152,8207,8126,8133,8197,8169,8137,1.4773688316345217
87,8164,8172,8131,8197,8141,8161,8159,8140,8115,8125,8141,8163,8169,8122,1.4843742847442627
88,8160,8172,8122,8191,8128,8161,8141,8129,8103,8106,8126,8171,8161,8116,1.4918773174285889
89,8144,8176,8108,8183,8115,8159,8142,8131,8112,8091,8112,8175,8156,8100,1.49987530708313
90,8155,8164,8096,8186,8146,8162,8169,8140,8050,8121,8131,8155,8166,8114,1.5078775882720947
91,8173,8189,8120,8207,8141,8169,8160,8160,8200,8134,8133,8192,8181,8135,1.5163378715515137
92,8159,8165,8120,8199,8147,8176,8172,8156,8139,8155,8148,8162,8171,8129,1.524390459060669
93,8176,8180,8119,8199,8157,8176,8174,8153,8143,8133,8140,8167,8167,8141,1.5323755741119385
94,8166,8181,8107,8190,8149,8160,8163,8151,8193,8119,8126,8177,8174,8135,1.5399725437164309
95,8154,8155,8105,8184,8152,8165,8175,8146,8115,8162,8145,8149,8173,8133,1.5479736328125
96,8168,8188,8133,8200,8135,8174,8169,8155,8228,8152,8126,8179,8167,8138,1.5553743839263916
97,8164,8172,8121,8189,8151,8174,8186,8151,8146,8148,8116,8151,8158,8125,1.5633738040924072
98,8180,8178,8127,8188,8165,8171,8183,8151,8129,8155,8120,8156,8165,8133,1.5709853172302246
98,8180,8178,8127,8188,8165,8171,8183,8151,8129,8155,8120,8156,8165,8133,1.571995496749878
99,8166,8187,8128,8181,8143,8154,8157,8147,8182,8139,8107,8178,8166,8127,1.5793602466583252
100,8156,8161,8112,8172,8149,8151,8169,8138,8060,8140,8107,8146,8158,8121,1.5869436264038086
101,8174,8183,8133,8185,8142,8150,8166,8149,8159,8120,8107,8175,8167,8121,1.594956398010254
102,8150,8158,8117,8177,8139,8130,8163,8145,8112,8129,8121,8153,8163,8103,1.6033742427825928
103,8163,8161,8100,8173,8132,8124,8169,8138,8074,8137,8106,8143,8155,8112,1.6113743782043457
104,8166,8181,8105,8165,8120,8135,8170,8142,8157,8119,8098,8167,8160,8118,1.6183738708496094
105,8146,8159,8102,8166,8146,8148,8173,8139,8066,8128,8128,8141,8159,8118,1.626498460769653
106,8159,8174,8115,8179,8142,8142,8153,8143,8150,8122,8119,8171,8167,8127,1.6343743801116943
107,8145,8151,8108,8161,8140,8129,8161,8139,8114,8145,8126,8160,8172,8112,1.64239501953125
108,8158,8156,8104,8170,8151,8136,8173,8138,8083,8160,8137,8149,8170,8116,1.6503956317901611
109,8154,8173,8107,8179,8145,8132,8163,8139,8173,8126,8121,8166,8166,8121,1.6583735942840576
110,8130,8140,8094,8161,8154,8112,8172,8132,8060,8141,8133,8137,8162,8114,1.6663377285003662
111,8154,8175,8110,8174,8131,8103,8156,8142,8142,8142,8123,8175,8168,8119,1.6745998859405518
112,8149,8173,8097,8173,8129,8112,8163,8148,8144,8140,8120,8160,8161,8115,1.6808266639709473
112,8149,8173,8097,8173,8129,8112,8163,8148,8144,8140,8120,8160,8161,8115,1.6818208694458008
113,8153,8160,8089,8174,8160,8126,8185,8149,8094,8145,8136,8139,8157,8127,1.68882417678833
114,8150,8172,8105,8170,8147,8115,8164,8143,8174,8118,8124,8170,8165,8116,1.6973741054534912
115,8126,8138,8080,8149,8142,8112,8169,8133,8040,8129,8120,8134,8156,8091,1.7053751945495603
116,8142,8166,8081,8166,8138,8124,8169,8143,8093,8121,8112,8159,8161,8100,1.713515281677246
117,8139,8166,8088,8171,8146,8124,8171,8142,8119,8120,8115,8163,8172,8101,1.7216486930847168
118,8146,8147,8082,8168,8155,8125,8183,8146,8064,8146,8122,8143,8171,8114,1.7293741703033447
119,8151,8167,8091,8172,8137,8122,8171,8161,8172,8137,8118,8176,8171,8119,1.7369108200073242
119,8151,8167,8091,8172,8137,8122,8171,8161,8172,8137,8118,8176,8171,8119,1.7379193305969238
120,8138,8144,8094,8163,8160,8115,8179,8149,8081,8144,8133,8149,8169,8112,1.7453739643096924
121,8156,8159,8107,8174,8158,8117,8180,8146,8123,8137,8123,8158,8170,8122,1.751967191696167
121,8156,8159,8107,8174,8158,8117,8180,8146,8123,8137,8123,8158,8170,8122,1.752967119216919
122,8142,8159,8096,8175,8144,8121,8182,8150,8149,8146,8124,8153,8164,8109,1.7603754997253418
123,8148,8147,8097,8174,8164,8131,8185,8148,8079,8166,8145,8138,8166,8112,1.7683632373809814
124,8161,8171,8125,8179,8158,8131,8165,8149,8196,8139,8138,8178,8176,8122,1.7763605117797852
125,8141,8151,8112,8167,8164,8124,8176,8143,8115,8154,8147,8149,8164,8115,1.7843785285949707
126,8160,8168,8117,8173,8164,8132,8178,8147,8140,8156,8138,8155,8160,8121,1.792374610900879
127,8152,8165,8113,8162,8156,8138,8179,8147,8174,8133,8119,8153,8166,8104,1.8005642890930176
240,8142,8150,8095,8155,8163,8133,8187,8141,8068,8141,8124,8127,8168,8099,1.8083746433258057
0,8156,8188,8114,8175,8152,8122,8165,8144,8173,8134,8116,8173,8168,8110,1.8153822422027588
1,8148,8160,8107,8168,8170,8124,8175,8135,8105,8144,8133,8151,8158,8099,1.8228604793548584
1,8148,8160,8107,8168,8170,8124,8175,8135,8105,8144,8133,8151,8158,8099,1.823862075805664
2,8168,8166,8109,8174,8181,8138,8182,8135,8113,8137,8143,8155,8162,8107,1.8308663368225095
2,8168,8166,8109,8174,8181,8138,8182,8135,8113,8137,8143,8155,8162,8107,1.8318610191345213
3,8168,8186,8108,8179,8177,8129,8177,8141,8178,8124,8130,8172,8170,8116,1.838857650756836
4,8159,8165,8090,8173,8194,8127,8200,8142,8090,8154,8142,8145,8164,8117,1.8474698066711424
5,8166,8186,8107,8179,8188,8134,8202,8162,8216,8154,8141,8176,8172,8117,1.854986906051636
6,8158,8166,8105,8169,8200,8127,8215,8170,8191,8169,8159,8159,8178,8124,1.8629937171936035
7,8169,8175,8107,8182,8202,8124,8218,8166,8195,8187,8176,8162,8177,8147,1.8709583282470703
8,8161,8189,8115,8192,8187,8119,8207,8163,8268,8180,8167,8174,8172,8138,1.877957820892334
9,8158,8168,8112,8181,8212,8121,8223,8164,8161,8184,8172,8143,8165,8132,1.886337757110596
10,8172,8192,8128,8181,8210,8115,8214,8167,8244,8161,8170,8177,8169,8134,1.8940162658691408
11,8150,8165,8119,8166,8203,8099,8205,8147,8186,8178,8184,8154,8165,8109,1.9023754596710205
12,8166,8169,8128,8173,8202,8109,8200,8141,8155,8185,8182,8147,8161,8113,1.9100592136383057
13,8166,8196,8140,8181,8194,8122,8196,8156,8259,8167,8169,8175,8166,8117,1.9180574417114256
14,8155,8161,8118,8175,8211,8119,8214,8160,8171,8204,8180,8145,8169,8116,1.926074981689453
15,8181,8173,8126,8183,8201,8111,8204,8159,8251,8192,8167,8172,8168,8126,1.9343762397766116
16,8153,8163,8116,8170,8198,8114,8204,8146,8218,8170,8172,8160,8159,8106,1.942375421524048
17,8143,8159,8103,8169,8201,8123,8210,8148,8160,8175,8167,8146,8162,8101,1.949453592300415
18,8145,8166,8104,8164,8182,8114,8192,8159,8234,8162,8144,8170,8169,8104,1.957180976867676
18,8145,8166,8104,8164,8182,8114,8192,8159,8234,8162,8144,8170,8169,8104,1.958198308944702
19,8131,8138,8091,8154,8191,8108,8202,8157,8133,8177,8169,8138,8161,8100,1.9649815559387207
19,8131,8138,8091,8154,8191,8108,8202,8157,8133,8177,8169,8138,8161,8100,1.965893268585205
20,8160,8173,8113,8177,8182,8108,8199,8166,8227,8179,8165,8167,8167,8110,1.9728984832763672
20,8160,8173,8113,8177,8182,8108,8199,8166,8227,8179,8165,8167,8167,8110,1.973893642425537
21,8149,8167,8116,8172,8181,8104,8193,8160,8213,8180,8154,8164,8164,8104,1.9813740253448489
22,8145,8156,8110,8166,8198,8112,8201,8153,8146,8181,8170,8151,8154,8110,1.9894814491271973
23,8153,8183,8122,8170,8193,8105,8193,8164,8273,8164,8167,8179,8164,8109,1.9973740577697756
24,8137,8157,8110,8164,8204,8087,8198,8155,8167,8178,8170,8146,8165,8093,2.0053958892822266
25,8149,8179,8128,8178,8194,8084,8190,8150,8199,8165,8168,8172,8166,8101,2.012408971786499
26,8140,8174,8133,8167,8184,8081,8191,8152,8219,8162,8180,8176,8163,8096,2.019617080688477
27,8141,8155,8118,8150,8193,8078,8197,8153,8141,8179,8186,8146,8158,8093,2.028315305709839
28,8136,8178,8118,8154,8181,8079,8174,8156,8218,8155,8157,8164,8166,8083,2.0360708236694336
29,8113,8151,8101,8149,8195,8093,8192,8150,8123,8177,8167,8136,8164,8072,2.04437518119812
30,8131,8164,8116,8164,8193,8098,8193,8155,8178,8183,8180,8163,8164,8094,2.0520904064178467
31,8127,8161,8119,8168,8175,8078,8183,8152,8204,8163,8177,8168,8165,8088,2.060314893722534
32,8125,8151,8106,8158,8175,8080,8195,8145,8106,8172,8177,8140,8164,8083,2.068314552307129
33,8115,8177,8110,8155,8154,8088,8176,8154,8209,8160,8158,8173,8166,8085,2.0763378143310547
34,8092,8141,8093,8141,8162,8082,8177,8153,8121,8174,8167,8142,8159,8072,2.083374500274658
35,8112,8149,8102,8149,8156,8086,8174,8148,8130,8176,8170,8152,8163,8079,2.090954303741455
36,8102,8164,8100,8147,8142,8087,8168,8148,8172,8169,8155,8167,8163,8074,2.0999464988708496
37,8103,8152,8091,8142,8161,8077,8171,8144,8069,8175,8161,8141,8154,8077,2.1069509983062744
38,8129,8181,8123,8161,8141,8074,8152,8143,8174,8146,8160,8175,8159,8082,2.11495041847229
39,8121,8160,8123,8162,8149,8092,8172,8145,8123,8167,8172,8155,8161,8075,2.123457193374634
40,8144,8168,8122,8174,8173,8104,8184,8154,8135,8179,8164,8162,8163,8098,2.1314568519592285
41,8138,8176,8126,8171,8165,8090,8172,8151,8209,8160,8161,8179,8168,8102,2.139456987380981
42,8117,8146,8116,8157,8160,8095,8193,8150,8113,8171,8176,8148,8165,8087,2.146458387374878
43,8131,8167,8123,8157,8146,8103,8193,8160,8195,8152,8153,8173,8165,8087,2.154458522796631
44,8123,8153,8122,8146,8160,8086,8186,8149,8143,8167,8165,8156,8162,8092,2.1624562740325928
45,8137,8164,8133,8164,8162,8082,8176,8150,8140,8187,8173,8158,8159,8096,2.170457124710083
46,8136,8174,8124,8167,8144,8092,8170,8149,8191,8153,8147,8166,8157,8075,2.178374767303467
47,8124,8145,8102,8151,8163,8101,8186,8140,8073,8153,8164,8137,8159,8079,2.186338186264038
48,8145,8180,8127,8171,8155,8100,8176,8165,8209,8161,8173,8182,8172,8100,2.194246768951416
49,8143,8170,8124,8176,8157,8105,8184,8169,8202,8179,8180,8165,8171,8092,2.202246189117432
50,8156,8171,8127,8184,8173,8119,8188,8146,8158,8186,8194,8155,8167,8109,2.210374355316162
51,8141,8191,8139,8182,8156,8107,8161,8141,8239,8171,8195,8186,8167,8112,2.2173750400543213
52,8127,8165,8118,8172,8156,8099,8167,8151,8132,8182,8192,8153,8161,8100,2.2253530025482178
53,8168,8189,8139,8191,8155,8110,8172,8165,8223,8177,8175,8176,8168,8123,2.2333526611328125
54,8151,8165,8143,8172,8164,8107,8177,8156,8208,8192,8204,8169,8165,8126,2.241374254226685
55,8140,8149,8135,8164,8163,8101,8170,8151,8136,8191,8228,8159,8160,8124,2.2493736743927
56,8160,8179,8149,8174,8148,8101,8156,8162,8233,8159,8204,8191,8173,8134,2.257366180419922
57,8155,8157,8133,8165,8175,8099,8172,8157,8137,8181,8218,8162,8173,8141,2.265364646911621
58,8157,8167,8127,8174,8167,8088,8160,8157,8183,8178,8226,8176,8168,8136,2.272376775741577
59,8144,8154,8120,8168,8155,8090,8162,8153,8182,8173,8222,8164,8160,8114,2.280391931533813
60,8162,8156,8129,8172,8171,8102,8179,8159,8141,8189,8216,8152,8161,8135,2.2885358333587646
61,8163,8180,8143,8176,8157,8092,8163,8172,8245,8165,8190,8180,8166,8137,2.29653263092041
62,8134,8135,8119,8154,8159,8082,8173,8156,8123,8176,8185,8140,8154,8104,2.3043758869171143
62,8134,8135,8119,8154,8159,8082,8173,8156,8123,8176,8185,8140,8154,8104,2.304762363433838
63,8154,8151,8128,8155,8154,8082,8169,8153,8159,8178,8171,8163,8156,8117,2.3123745918273926
64,8151,8159,8135,8155,8148,8082,8166,8166,8193,8166,8177,8172,8164,8129,2.320363998413086
65,8160,8149,8138,8166,8162,8091,8180,8170,8137,8175,8201,8149,8168,8138,2.32839584350586
66,8175,8177,8162,8178,8158,8091,8164,8160,8237,8162,8192,8181,8172,8140,2.336338996887207
67,8162,8156,8152,8168,8165,8076,8166,8142,8123,8167,8183,8156,8158,8129,2.3433752059936523
68,8168,8165,8153,8170,8160,8072,8158,8143,8128,8145,8167,8169,8155,8129,2.351348161697388
69,8142,8161,8148,8158,8156,8072,8153,8146,8152,8130,8169,8166,8162,8117,2.359348058700561
70,8146,8150,8144,8157,8171,8082,8177,8157,8083,8162,8184,8140,8165,8127,2.3673737049102783
71,8172,8185,8167,8180,8157,8078,8169,8175,8228,8165,8170,8188,8171,8141,2.375375986099243
72,8156,8154,8152,8164,8163,8063,8167,8156,8149,8171,8173,8163,8164,8129,2.383685350418091
73,8164,8159,8151,8158,8160,8072,8171,8146,8129,8146,8172,8159,8163,8140,2.391685724258423
74,8161,8179,8161,8171,8154,8080,8184,8164,8198,8142,8178,8178,8173,8146,2.399374961853028
74,8161,8179,8161,8171,8154,8080,8184,8164,8198,8142,8178,8178,8173,8146,2.3997504711151123
75,8171,8165,8159,8177,8192,8075,8192,8171,8142,8193,8196,8159,8172,8149,2.406339406967163
76,8185,8183,8173,8173,8191,8072,8161,8170,8247,8175,8177,8179,8166,8148,2.414374589920044
77,8155,8160,8158,8160,8183,8073,8167,8162,8177,8167,8173,8149,8161,8134,2.4224419593811035
78,8163,8174,8153,8173,8182,8072,8178,8173,8186,8184,8178,8167,8167,8148,2.430450201034546
79,8168,8180,8152,8168,8177,8066,8175,8185,8258,8184,8170,8184,8166,8144,2.4384572505950928
80,8150,8151,8143,8151,8196,8081,8194,8174,8142,8196,8172,8138,8158,8131,2.446332693099976
81,8139,8176,8146,8158,8185,8085,8181,8169,8223,8170,8151,8168,8163,8129,2.454547643661499
82,8122,8150,8106,8145,8188,8066,8183,8169,8170,8175,8160,8155,8158,8123,2.462547540664673
83,8158,8156,8095,8155,8196,8075,8198,8181,8166,8192,8173,8154,8162,8146,2.4703755378723145
84,8165,8178,8113,8160,8179,8090,8194,8182,8260,8183,8153,8174,8167,8151,2.4773738384246826
85,8135,8149,8100,8144,8193,8095,8199,8171,8132,8190,8156,8141,8157,8137,2.4854576587677
86,8148,8178,8111,8158,8193,8098,8188,8181,8217,8175,8159,8172,8165,8140,2.493457078933716
87,8140,8161,8105,8151,8198,8100,8199,8178,8210,8189,8174,8161,8171,8138,2.501455783843994
88,8143,8149,8104,8145,8200,8100,8207,8176,8159,8204,8173,8148,8165,8137,2.509373903274536
89,8141,8171,8116,8145,8176,8082,8181,8180,8221,8172,8145,8169,8161,8121,2.51737380027771
90,8127,8147,8105,8138,8182,8078,8182,8168,8109,8174,8157,8148,8154,8121,2.5247466564178467
90,8127,8147,8105,8138,8182,8078,8182,8168,8109,8174,8157,8148,8154,8121,2.525740146636963
91,8147,8162,8129,8148,8176,8092,8180,8173,8197,8177,8166,8180,8166,8142,2.5327465534210205
91,8147,8162,8129,8148,8176,8092,8180,8173,8197,8177,8166,8180,8166,8142,2.5337400436401367
92,8130,8149,8128,8132,8179,8087,8180,8173,8198,8183,8174,8163,8171,8127,2.540374994277954
92,8130,8149,8128,8132,8179,8087,8180,8173,8198,8183,8174,8163,8171,8127,2.5407469272613525
93,8137,8148,8107,8134,8192,8077,8180,8167,8132,8183,8164,8146,8162,8121,2.548344612121582
94,8154,8173,8107,8150,8182,8075,8172,8170,8214,8163,8140,8182,8162,8123,2.556344509124756
95,8141,8141,8095,8129,8193,8073,8183,8164,8114,8182,8159,8148,8156,8115,2.564422130584717
96,8148,8152,8096,8120,8177,8066,8163,8161,8167,8166,8146,8162,8158,8116,2.572492837905884
97,8136,8146,8091,8125,8178,8066,8164,8158,8169,8162,8145,8166,8164,8116,2.580490827560425
98,8155,8146,8104,8147,8201,8081,8187,8166,8127,8201,8171,8162,8164,8142,2.5883750915527344
99,8163,8168,8115,8146,8180,8084,8170,8174,8234,8183,8150,8186,8164,8141,2.5963380336761475
100,8129,8134,8091,8125,8191,8094,8183,8166,8120,8173,8148,8142,8161,8111,2.603374481201172
101,8149,8154,8107,8142,8200,8110,8192,8176,8187,8171,8160,8168,8168,8122,2.611374855041504
102,8147,8152,8103,8131,8178,8107,8185,8171,8216,8170,8155,8170,8164,8119,2.619398832321167
103,8140,8137,8090,8122,8178,8103,8183,8160,8092,8173,8153,8140,8162,8117,2.627408742904663
104,8155,8173,8124,8148,8188,8104,8170,8173,8214,8153,8151,8184,8170,8129,2.6353752613067627
105,8155,8149,8121,8150,8212,8112,8179,8173,8172,8183,8162,8156,8161,8128,2.6433629989624023
106,8167,8159,8117,8150,8197,8126,8169,8170,8180,8183,8150,8159,8160,8130,2.651604413986206
107,8145,8165,8111,8142,8180,8126,8161,8174,8204,8161,8151,8174,8163,8116,2.659374237060547
108,8146,8143,8103,8136,8202,8129,8182,8175,8130,8178,8168,8154,8165,8124,2.667667865753174
109,8163,8166,8122,8147,8201,8138,8173,8179,8251,8175,8154,8187,8173,8142,2.674669027328491
110,8145,8151,8111,8143,8207,8141,8176,8174,8185,8196,8159,8169,8165,8136,2.682666778564453
111,8163,8168,8113,8151,8198,8141,8172,8171,8183,8187,8151,8176,8164,8145,2.690124273300171
112,8159,8169,8115,8140,8187,8133,8161,8164,8216,8153,8132,8180,8165,8132,2.6981241703033447
113,8142,8136,8096,8125,8209,8137,8172,8161,8100,8167,8142,8143,8157,8118,2.706338405609131
114,8152,8160,8114,8132,8192,8144,8159,8167,8199,8162,8131,8176,8157,8122,2.714374542236328
115,8144,8146,8129,8128,8186,8145,8157,8151,8140,8164,8137,8158,8158,8117,2.722374439239502
116,8164,8159,8145,8141,8189,8159,8159,8155,8140,8159,8146,8166,8165,8131,2.730260133743286
117,8157,8165,8144,8137,8178,8171,8155,8167,8225,8157,8142,8184,8168,8127,2.7373125553131104
118,8134,8135,8117,8125,8204,8182,8170,8163,8115,8188,8146,8143,8156,8112,2.7453436851501465
119,8147,8169,8127,8148,8204,8185,8159,8167,8214,8175,8132,8174,8164,8114,2.753375768661499
120,8143,8155,8131,8149,8202,8189,8164,8165,8192,8181,8150,8172,8174,8110,2.7613744735717773
121,8176,8164,8149,8169,8216,8205,8177,8171,8182,8194,8166,8175,8171,8135,2.769374370574951
122,8180,8191,8162,8177,8212,8205,8168,8175,8271,8167,8151,8190,8162,8139,2.777052640914917
123,8151,8159,8146,8151,8211,8206,8174,8165,8155,8177,8160,8154,8158,8120,2.7849481105804443
124,8165,8174,8155,8152,8189,8215,8167,8171,8234,8187,8151,8188,8168,8119,2.793368339538574
125,8152,8159,8146,8148,8190,8211,8170,8166,8210,8186,8152,8175,8163,8112,2.801375150680542
126,8158,8155,8151,8155,8195,8209,8178,8161,8159,8177,8160,8156,8160,8126,2.808465003967285
127,8161,8175,8175,8159,8171,8212,8168,8169,8259,8161,8155,8186,8172,8131,2.81646466255188
240,8148,8147,8165,8147,8177,8215,8181,8168,8154,8180,8170,8165,8166,8125,2.82437515258789
0,8170,8171,8178,8169,8168,8218,8180,8178,8221,8167,8155,8193,8164,8140,2.8323750495910645
1,8159,8174,8176,8175,8161,8218,8187,8183,8233,8176,8153,8190,8168,8145,2.840374708175659
2,8177,8169,8170,8172,8168,8212,8185,8176,8190,8201,8173,8180,8171,8163,2.848472833633423
3,8188,8178,8175,8170,8155,8198,8163,8168,8282,8175,8165,8201,8170,8154,2.8554816246032715
4,8165,8151,8165,8170,8164,8202,8188,8174,8186,8199,8167,8156,8165,8136,2.863375186920166
5,8182,8179,8178,8188,8153,8207,8194,8191,8261,8202,8157,8180,8168,8157,2.8709332942962646
6,8172,8174,8159,8174,8153,8193,8180,8180,8266,8185,8163,8182,8163,8149,2.8789315223693848
7,8175,8159,8137,8168,8170,8203,8193,8175,8178,8201,8176,8156,8159,8146,2.886932849884033
8,8169,8173,8144,8165,8140,8208,8177,8181,8273,8180,8147,8182,8164,8144,2.8949341773986816
9,8137,8136,8121,8138,8138,8195,8155,8159,8147,8168,8135,8147,8154,8119,2.9034411907196045
10,8157,8163,8130,8149,8144,8201,8132,8155,8161,8161,8129,8168,8159,8120,2.9109482765197754
11,8158,8169,8135,8156,8140,8215,8135,8174,8212,8170,8141,8177,8167,8116,2.918107032775879
12,8158,8141,8118,8146,8152,8216,8146,8173,8133,8180,8154,8147,8158,8113,2.926649570465088
13,8163,8168,8133,8147,8138,8201,8116,8160,8217,8157,8134,8181,8158,8113,2.934376716613769
14,8148,8154,8143,8153,8145,8189,8121,8160,8149,8186,8157,8167,8167,8118,2.9423751831054688
15,8181,8176,8160,8182,8151,8193,8128,8182,8206,8195,8172,8180,8175,8149,2.9500889778137207
16,8178,8177,8149,8168,8146,8192,8124,8175,8245,8176,8152,8181,8165,8138,2.958374500274658
17,8137,8135,8110,8139,8148,8189,8122,8150,8090,8167,8135,8136,8148,8106,2.9666547775268555
18,8121,8153,8098,8141,8120,8187,8095,8158,8155,8129,8108,8157,8149,8087,2.974671602249145
19,8116,8140,8084,8124,8125,8188,8111,8165,8103,8157,8123,8143,8152,8087,2.9823076725006104
20,8143,8151,8102,8130,8130,8195,8122,8169,8131,8183,8140,8163,8162,8110,2.989835262298584
21,8136,8158,8119,8138,8112,8186,8096,8169,8190,8149,8135,8177,8163,8106,2.9968273639678955
21,8136,8158,8119,8138,8112,8186,8096,8169,8190,8149,8135,8177,8163,8106,2.9978270530700684
22,8129,8137,8107,8134,8118,8176,8096,8157,8065,8144,8137,8137,8153,8101,3.005375385284424
23,8152,8172,8125,8148,8106,8177,8090,8157,8162,8142,8130,8174,8160,8115,3.013374090194702
24,8137,8154,8134,8135,8114,8172,8098,8155,8135,8166,8162,8167,8166,8119,3.0215084552764893
25,8149,8151,8144,8135,8127,8163,8094,8157,8126,8169,8177,8163,8165,8125,3.0295255184173584
26,8147,8165,8134,8137,8118,8149,8079,8158,8200,8145,8155,8176,8162,8112,3.037541151046753
26,8147,8165,8134,8137,8118,8149,8079,8158,8200,8145,8155,8176,8162,8112,3.03854775428772
27,8141,8142,8115,8129,8136,8149,8103,8166,8113,8185,8170,8148,8162,8119,3.044749021530152
27,8141,8142,8115,8129,8136,8149,8103,8166,8113,8185,8170,8148,8162,8119,3.045755624771118
28,8162,8166,8144,8141,8132,8148,8101,8175,8214,8192,8170,8181,8172,8137,3.0527632236480717
28,8162,8166,8144,8141,8132,8148,8101,8175,8214,8192,8170,8181,8172,8137,3.0537564754486084
29,8146,8154,8145,8143,8130,8142,8093,8148,8151,8163,8169,8162,8164,8115,3.060755491256714
30,8170,8170,8150,8158,8140,8161,8098,8152,8128,8160,8175,8166,8163,8133,3.068347215652466
31,8175,8191,8164,8162,8131,8157,8097,8180,8259,8167,8166,8196,8172,8153,3.0763392448425293
32,8147,8149,8144,8147,8137,8137,8102,8162,8120,8167,8160,8142,8161,8131,3.084957361221313
33,8158,8168,8148,8161,8129,8132,8085,8152,8153,8137,8141,8163,8162,8121,3.0919525623321533
34,8150,8164,8142,8153,8138,8131,8080,8161,8152,8154,8147,8166,8166,8122,3.0999984741210938
35,8168,8160,8145,8153,8153,8135,8088,8166,8122,8178,8154,8157,8165,8142,3.10837459564209
36,8167,8173,8161,8161,8139,8132,8088,8164,8215,8153,8136,8183,8167,8138,3.116400241851806
37,8142,8140,8152,8148,8152,8124,8093,8157,8102,8161,8143,8157,8161,8124,3.1234748363494877
38,8161,8168,8163,8156,8150,8116,8070,8166,8172,8154,8137,8187,8169,8142,3.1318392753601074
39,8160,8168,8159,8153,8157,8114,8081,8164,8197,8159,8145,8183,8175,8142,3.1393744945526123
39,8160,8168,8159,8153,8157,8114,8081,8164,8197,8159,8145,8183,8175,8142,3.1398510932922363
40,8179,8160,8159,8160,8179,8123,8108,8162,8147,8176,8167,8168,8171,8151,3.1478757858276367
41,8194,8185,8167,8168,8165,8117,8084,8168,8235,8145,8158,8199,8169,8156,3.15537428855896
42,8167,8156,8136,8149,8182,8107,8096,8156,8113,8151,8155,8160,8157,8139,3.163395881652832
43,8164,8162,8138,8146,8181,8111,8101,8147,8146,8148,8136,8176,8158,8139,3.171396493911743
44,8153,8161,8139,8145,8171,8106,8079,8150,8170,8135,8140,8187,8169,8138,3.1804354190826416
45,8165,8165,8131,8160,8189,8105,8069,8158,8102,8146,8159,8165,8169,8154,3.1874349117279053
46,8167,8191,8142,8169,8182,8119,8074,8162,8211,8133,8137,8189,8164,8153,3.194436550140381
47,8143,8157,8130,8156,8192,8129,8107,8159,8139,8158,8143,8167,8160,8144,3.202434778213501
48,8163,8182,8134,8176,8195,8117,8081,8160,8171,8154,8144,8189,8166,8155,3.210439920425415
48,8163,8182,8134,8176,8195,8117,8081,8160,8171,8154,8144,8189,8166,8155,3.2106518745422363
49,8157,8187,8131,8173,8191,8096,8047,8146,8180,8123,8149,8190,8167,8136,3.218660354614258
50,8156,8157,8124,8153,8200,8104,8069,8135,8082,8132,8169,8167,8168,8136,3.226165771484375
51,8168,8181,8139,8163,8186,8109,8065,8140,8191,8127,8142,8198,8168,8147,3.234163999557495
52,8147,8155,8121,8156,8195,8097,8064,8128,8098,8149,8129,8157,8150,8128,3.242163896560669
53,8161,8158,8123,8156,8190,8098,8060,8131,8104,8145,8133,8165,8152,8136,3.2501637935638428
54,8152,8165,8134,8158,8176,8102,8058,8141,8164,8123,8126,8183,8162,8140,3.2571771144866943
55,8134,8149,8129,8162,8195,8107,8071,8140,8065,8140,8130,8157,8160,8137,3.265190362930298
56,8156,8179,8139,8177,8183,8115,8070,8158,8187,8138,8136,8200,8170,8147,3.273223876953125
57,8164,8166,8127,8173,8192,8126,8100,8160,8165,8171,8158,8182,8168,8153,3.2813549041748047
58,8164,8175,8129,8177,8203,8124,8092,8145,8160,8177,8151,8176,8163,8161,3.289364814758301
59,8140,8176,8129,8169,8176,8097,8044,8136,8189,8142,8127,8187,8162,8138,3.2973744869232178
60,8147,8144,8110,8161,8170,8096,8055,8128,8050,8142,8126,8153,8156,8126,3.305335998535156
61,8167,8176,8131,8170,8160,8106,8059,8130,8131,8117,8110,8185,8164,8143,3.3134827613830566
62,8137,8166,8143,8165,8174,8101,8060,8136,8101,8131,8126,8179,8167,8150,3.3214828968048096
62,8137,8166,8143,8165,8174,8101,8060,8136,8101,8131,8126,8179,8167,8150,3.3219919204711914
63,8171,8175,8162,8189,8187,8115,8083,8155,8125,8168,8143,8183,8166,8175,3.3283698558807373
64,8190,8189,8172,8188,8181,8117,8091,8155,8224,8154,8134,8195,8165,8173,3.3365445137023926
65,8168,8158,8150,8164,8202,8104,8093,8140,8096,8160,8149,8161,8162,8167,3.3443753719329834
66,8182,8183,8155,8183,8188,8105,8080,8157,8183,8164,8144,8194,8171,8186,3.352545976638794
67,8164,8164,8143,8179,8170,8113,8085,8160,8163,8160,8138,8175,8165,8170,3.3604915142059326
68,8158,8152,8131,8168,8171,8111,8077,8149,8092,8132,8134,8162,8157,8159,3.368462324142456
68,8158,8152,8131,8168,8171,8111,8077,8149,8092,8132,8134,8162,8157,8159,3.369478225708008
69,8152,8165,8132,8161,8161,8103,8059,8146,8156,8119,8128,8194,8164,8157,3.376084327697754
69,8152,8165,8132,8161,8161,8103,8059,8146,8156,8119,8128,8194,8164,8157,3.3770055770874023
70,8146,8140,8117,8152,8179,8109,8083,8147,8066,8166,8145,8162,8162,8161,3.384002447128296
71,8177,8172,8141,8173,8178,8118,8087,8165,8183,8163,8139,8192,8167,8174,3.3913683891296387
72,8165,8166,8147,8169,8175,8113,8094,8170,8196,8163,8144,8190,8167,8162,3.399380683898926
73,8163,8159,8145,8165,8177,8106,8097,8164,8130,8173,8150,8167,8162,8170,3.4073894023895264
74,8169,8183,8160,8170,8166,8110,8083,8169,8229,8156,8138,8195,8165,8176,3.41555118560791
75,8163,8153,8150,8165,8185,8139,8110,8172,8153,8184,8157,8173,8166,8171,3.423374652862549
76,8171,8162,8159,8171,8177,8158,8105,8175,8222,8176,8155,8190,8172,8181,3.4315662384033203
77,8143,8148,8144,8158,8175,8148,8093,8171,8228,8176,8150,8180,8167,8171,3.439370393753052
78,8154,8142,8136,8159,8195,8160,8109,8175,8164,8207,8154,8166,8158,8169,3.447374105453491
79,8172,8168,8160,8167,8173,8170,8101,8181,8262,8194,8140,8198,8164,8158,3.454398393630981
80,8148,8136,8139,8152,8175,8151,8102,8163,8151,8196,8153,8161,8164,8146,3.4623947143554688
81,8163,8158,8141,8163,8182,8144,8090,8159,8191,8171,8140,8180,8167,8156,3.4702844619750977
82,8155,8164,8152,8168,8175,8151,8080,8155,8199,8138,8118,8185,8163,8136,3.478281259536743
83,8138,8135,8126,8154,8167,8166,8080,8141,8075,8150,8128,8156,8154,8126,3.4863381385803223
84,8131,8150,8112,8142,8145,8168,8070,8149,8163,8146,8124,8188,8161,8129,3.494345664978028
85,8126,8142,8119,8140,8173,8172,8099,8159,8114,8163,8137,8163,8163,8118,3.5023741722106934
86,8151,8170,8150,8168,8187,8182,8100,8167,8174,8168,8148,8180,8171,8133,3.5103235244750977
87,8132,8160,8124,8157,8171,8176,8086,8165,8208,8161,8161,8184,8170,8132,3.518328905105591
88,8126,8131,8093,8139,8186,8186,8106,8162,8099,8172,8177,8142,8158,8116,3.5253751277923584
89,8146,8163,8129,8156,8173,8197,8091,8164,8208,8154,8164,8176,8159,8111,3.533374547958374
90,8125,8138,8118,8142,8168,8194,8082,8151,8121,8161,8165,8156,8155,8104,3.5416369438171387
91,8139,8144,8108,8147,8170,8202,8089,8159,8108,8149,8146,8152,8156,8106,3.549337863922119
92,8148,8155,8130,8158,8166,8201,8092,8166,8175,8128,8121,8162,8162,8096,3.557339191436768
93,8134,8130,8108,8137,8165,8200,8092,8147,8066,8143,8131,8141,8152,8098,3.565368413925171
94,8126,8148,8078,8127,8132,8209,8074,8145,8143,8124,8116,8175,8156,8104,3.5733628273010254
95,8112,8127,8070,8129,8134,8211,8090,8154,8104,8139,8118,8150,8167,8098,3.5813634395599365
96,8132,8141,8108,8154,8138,8211,8095,8165,8125,8157,8134,8154,8173,8117,3.588375806808472
97,8130,8154,8113,8151,8120,8211,8080,8159,8200,8143,8130,8175,8169,8116,3.5963375568389893
98,8121,8124,8091,8133,8130,8216,8088,8144,8082,8156,8131,8143,8158,8106,3.604170560836792
99,8144,8157,8115,8151,8115,8216,8076,8155,8173,8141,8123,8177,8160,8112,3.612197160720825
99,8144,8157,8115,8151,8115,8216,8076,8155,8173,8141,8123,8177,8160,8112,3.61322832107544
100,8140,8151,8113,8153,8117,8216,8083,8155,8141,8140,8134,8159,8159,8105,3.620379686355591
100,8140,8151,8113,8153,8117,8216,8083,8155,8141,8140,8134,8159,8159,8105,3.621046781539917
101,8152,8148,8116,8156,8120,8220,8097,8145,8105,8144,8124,8151,8161,8111,3.628060102462769
102,8136,8155,8122,8150,8094,8207,8080,8145,8166,8126,8102,8171,8158,8099,3.6363353729248047
103,8118,8130,8109,8142,8103,8195,8080,8142,8054,8138,8124,8141,8154,8095,3.6443798542022714
104,8140,8158,8135,8154,8098,8202,8075,8149,8146,8127,8119,8177,8171,8112,3.652689695358277
105,8124,8143,8141,8148,8100,8212,8091,8149,8135,8147,8113,8165,8171,8103,3.659346103668213
106,8137,8145,8145,8167,8118,8207,8101,8155,8124,8176,8126,8151,8166,8118,3.66734790802002
107,8147,8170,8155,8172,8104,8179,8089,8164,8240,8149,8121,8177,8172,8126,3.6753551959991455
108,8130,8147,8145,8150,8106,8177,8108,8156,8117,8158,8132,8146,8167,8111,3.683579206466675
109,8158,8182,8171,8174,8106,8200,8108,8165,8203,8164,8144,8174,8170,8122,3.6913774013519287
110,8151,8171,8166,8174,8113,8200,8110,8168,8223,8166,8161,8165,8167,8119,3.699432373046875
111,8140,8148,8153,8165,8117,8189,8111,8162,8123,8160,8159,8148,8163,8119,3.707432985305786
112,8150,8178,8179,8183,8099,8183,8095,8166,8205,8154,8145,8182,8174,8126,3.715376377105713
113,8153,8164,8178,8181,8121,8187,8120,8167,8139,8194,8172,8149,8176,8131,3.722378253936768
114,8165,8181,8178,8182,8119,8190,8117,8174,8199,8179,8167,8161,8175,8133,3.7304587364196777
115,8137,8167,8170,8174,8103,8182,8102,8168,8191,8152,8159,8161,8169,8113,3.73845648765564
116,8135,8153,8170,8179,8110,8178,8112,8164,8117,8173,8174,8149,8168,8124,3.746418476104736
117,8149,8182,8176,8185,8107,8168,8100,8167,8229,8172,8157,8179,8171,8129,3.7544546127319336
118,8133,8151,8150,8168,8128,8170,8101,8151,8122,8181,8157,8140,8159,8108,3.762452125549317
119,8151,8166,8165,8181,8121,8179,8097,8153,8153,8169,8145,8157,8162,8121,3.770376443862915
120,8140,8170,8175,8181,8108,8160,8094,8153,8180,8150,8110,8167,8164,8116,3.7783613204956055
121,8140,8158,8173,8173,8132,8155,8106,8143,8080,8169,8095,8144,8161,8106,3.786359071731568
122,8162,8189,8197,8184,8130,8168,8102,8154,8200,8160,8090,8175,8172,8113,3.79335618019104
123,8145,8163,8179,8170,8140,8168,8113,8156,8137,8156,8104,8148,8168,8114,3.801375150680542
124,8157,8168,8175,8172,8142,8156,8108,8161,8145,8146,8090,8159,8164,8128,3.809417486190796
125,8166,8177,8198,8182,8137,8147,8108,8167,8202,8150,8087,8174,8170,8136,3.817416667938232
126,8178,8166,8207,8186,8149,8157,8133,8167,8150,8185,8120,8150,8173,8154,3.8253753185272217
127,8178,8184,8194,8177,8125,8155,8113,8164,8246,8156,8106,8181,8167,8152,3.833374977111816
240,8135,8148,8153,8146,8121,8139,8099,8146,8113,8131,8097,8150,8153,8118,3.840911626815796
240,8135,8148,8153,8146,8121,8139,8099,8146,8113,8131,8097,8150,8153,8118,3.841905117034912
0,8152,8158,8165,8160,8129,8141,8103,8150,8097,8137,8096,8153,8159,8119,3.848906993865967
1,8155,8169,8176,8171,8124,8143,8109,8153,8182,8146,8095,8174,8168,8121,3.8563387393951416
2,8139,8143,8154,8167,8132,8144,8115,8142,8073,8151,8108,8146,8163,8127,3.8643758296966553
3,8160,8180,8183,8186,8124,8152,8099,8155,8184,8125,8108,8181,8173,8145,3.87243127822876
4,8152,8173,8194,8173,8131,8156,8111,8158,8168,8154,8129,8163,8173,8138,3.880428552627564
5,8158,8168,8188,8168,8135,8162,8116,8157,8146,8169,8125,8161,8163,8139,3.88837480545044
6,8147,8167,8180,8171,8132,8158,8107,8153,8194,8136,8110,8181,8162,8129,3.8964531421661377
7,8144,8148,8165,8170,8152,8155,8131,8147,8093,8150,8130,8151,8168,8125,3.904491186141968
8,8171,8185,8177,8179,8134,8152,8122,8154,8192,8149,8119,8182,8173,8133,3.9114773273468018
9,8148,8166,8165,8164,8131,8144,8116,8151,8148,8155,8113,8161,8157,8122,3.91905689239502
10,8151,8160,8159,8166,8145,8150,8119,8143,8096,8143,8109,8148,8152,8128,3.9275641441345215
11,8151,8173,8168,8172,8133,8161,8109,8141,8176,8108,8100,8177,8163,8122,3.9355640411376953
12,8144,8148,8164,8171,8150,8167,8130,8154,8099,8149,8135,8154,8162,8123,3.943564176559448
13,8167,8179,8182,8183,8146,8162,8125,8171,8212,8161,8140,8187,8166,8146,3.951450109481812
14,8147,8164,8170,8172,8148,8168,8121,8163,8193,8159,8129,8177,8165,8140,3.959165811538696
15,8153,8158,8166,8176,8158,8192,8137,8161,8136,8171,8128,8161,8162,8140,3.96716833114624
16,8149,8183,8179,8173,8133,8179,8125,8161,8223,8143,8113,8183,8159,8125,3.975377321243286
16,8149,8183,8179,8173,8133,8179,8125,8161,8223,8143,8113,8183,8159,8125,3.975751876831055
17,8124,8148,8165,8150,8144,8170,8125,8144,8098,8149,8117,8147,8150,8098,3.982213258743286
18,8153,8165,8183,8167,8151,8194,8128,8160,8181,8160,8122,8175,8169,8114,3.990374803543091
18,8153,8165,8183,8167,8151,8194,8128,8160,8181,8160,8122,8175,8169,8114,3.990731239318848
19,8145,8159,8184,8167,8153,8194,8133,8164,8202,8162,8133,8172,8175,8115,3.9983630180358887
20,8131,8149,8172,8163,8159,8170,8126,8143,8106,8149,8133,8152,8154,8100,4.00637412071228
21,8146,8184,8194,8183,8150,8168,8117,8157,8216,8136,8126,8193,8158,8104,4.014378309249878
22,8156,8165,8198,8185,8170,8188,8149,8173,8164,8180,8159,8172,8170,8124,4.021905183792114
22,8156,8165,8198,8185,8170,8188,8149,8173,8164,8180,8159,8172,8170,8124,4.0229010581970215
23,8165,8175,8200,8181,8159,8190,8140,8168,8208,8171,8155,8187,8170,8136,4.0299072265625
24,8148,8171,8191,8165,8145,8177,8123,8157,8199,8144,8142,8182,8166,8114,4.038092613220215
25,8166,8165,8195,8180,8175,8193,8141,8161,8136,8160,8168,8166,8177,8128,4.045368432998657
26,8173,8187,8208,8190,8175,8199,8134,8170,8272,8158,8168,8204,8185,8144,4.053362607955933
27,8149,8155,8174,8159,8172,8176,8135,8157,8168,8177,8164,8166,8165,8131,4.061362981796265
28,8173,8179,8180,8173,8168,8166,8126,8159,8179,8168,8151,8177,8163,8140,4.069249868392944
29,8157,8184,8191,8187,8173,8178,8124,8160,8220,8142,8151,8190,8170,8129,4.077363967895508
30,8133,8152,8170,8181,8190,8189,8138,8154,8127,8152,8151,8160,8160,8116,4.085355043411255
31,8144,8175,8178,8178,8172,8191,8133,8162,8231,8150,8122,8188,8155,8119,4.0933756828308105
32,8140,8163,8174,8172,8190,8205,8159,8172,8183,8177,8142,8169,8162,8121,4.101374387741089
33,8167,8176,8183,8192,8206,8225,8172,8180,8222,8183,8163,8184,8176,8142,4.10936427116394
34,8159,8174,8185,8187,8199,8214,8159,8161,8253,8168,8155,8189,8167,8131,4.116361141204834
35,8136,8152,8176,8167,8208,8193,8147,8140,8118,8172,8155,8149,8153,8111,4.124375343322754
36,8149,8183,8193,8177,8191,8185,8124,8157,8218,8145,8135,8182,8160,8106,4.13190484046936
37,8147,8159,8182,8171,8193,8193,8140,8160,8161,8156,8136,8165,8154,8094,4.140592098236084
38,8166,8174,8197,8181,8197,8205,8146,8159,8155,8157,8143,8173,8158,8111,4.148370981216431
39,8170,8196,8221,8194,8186,8197,8138,8163,8235,8143,8150,8194,8171,8120,4.1563379764556885
40,8171,8164,8201,8189,8209,8196,8164,8158,8152,8171,8171,8164,8165,8122,4.164541244506836
41,8171,8180,8183,8190,8206,8207,8153,8158,8241,8158,8149,8185,8161,8122,4.17255425453186
42,8130,8161,8150,8173,8203,8198,8141,8146,8156,8151,8140,8154,8157,8101,4.179553031921387
43,8147,8162,8156,8172,8208,8174,8144,8145,8117,8158,8152,8155,8160,8112,4.187367916107178
44,8169,8180,8174,8178,8206,8163,8140,8163,8228,8151,8157,8186,8170,8129,4.194708824157715
44,8169,8180,8174,8178,8206,8163,8140,8163,8228,8151,8157,8186,8170,8129,4.19573450088501
45,8170,8165,8173,8182,8217,8176,8160,8168,8162,8181,8174,8154,8171,8144,4.202785015106201
45,8170,8165,8173,8182,8217,8176,8160,8168,8162,8181,8174,8154,8171,8144,4.203785419464111
46,8187,8190,8199,8196,8193,8174,8155,8170,8260,8177,8166,8186,8173,8156,4.211803436279297
47,8156,8166,8192,8172,8192,8159,8154,8155,8209,8162,8165,8170,8165,8134,4.219374895095825
48,8170,8163,8190,8172,8211,8170,8164,8153,8154,8166,8156,8158,8163,8138,4.227375984191895
49,8186,8184,8205,8183,8195,8164,8152,8159,8249,8151,8134,8184,8164,8136,4.235374927520752
50,8158,8156,8194,8172,8201,8147,8148,8148,8136,8162,8149,8151,8159,8111,4.242632150650024
51,8158,8183,8202,8182,8195,8163,8134,8153,8200,8164,8149,8177,8165,8111,4.250640630722046
52,8151,8177,8190,8178,8196,8191,8148,8162,8208,8181,8146,8169,8164,8119,4.260657072067261
53,8170,8170,8182,8180,8205,8203,8171,8166,8166,8185,8141,8152,8161,8134,4.266656875610352
54,8164,8186,8197,8183,8188,8193,8159,8163,8257,8155,8132,8181,8165,8125,4.274663686752319
55,8145,8158,8186,8174,8205,8191,8175,8165,8167,8180,8159,8150,8160,8124,4.281656503677368
55,8145,8158,8186,8174,8205,8191,8175,8165,8167,8180,8159,8150,8160,8124,4.282655715942383
56,8175,8185,8191,8187,8195,8202,8176,8179,8241,8180,8151,8168,8164,8153,4.289656162261963
56,8175,8185,8191,8187,8195,8202,8176,8179,8241,8180,8151,8168,8164,8153,4.2906575202941895
57,8169,8184,8188,8183,8183,8195,8178,8176,8251,8173,8148,8166,8172,8150,4.2976555824279785
57,8169,8184,8188,8183,8183,8195,8178,8176,8251,8173,8148,8166,8172,8150,4.298656702041626
58,8175,8170,8193,8182,8202,8194,8195,8181,8200,8194,8181,8156,8174,8158,4.3046555519104
58,8175,8170,8193,8182,8202,8194,8195,8181,8200,8194,8181,8156,8174,8158,4.3056581020355225
59,8184,8194,8211,8185,8187,8197,8184,8193,8321,8190,8184,8190,8175,8167,4.3136632442474365
60,8166,8166,8191,8177,8174,8194,8186,8175,8210,8209,8184,8153,8163,8149,4.321166753768921
61,8173,8180,8191,8179,8158,8194,8178,8165,8214,8185,8175,8165,8159,8140,4.329170942306519
62,8153,8177,8193,8161,8151,8187,8170,8160,8211,8153,8178,8169,8159,8126,4.337173700332642
63,8149,8165,8192,8164,8159,8188,8173,8161,8129,8167,8188,8153,8158,8132,4.345376253128052
64,8164,8186,8197,8174,8135,8189,8168,8168,8244,8164,8162,8183,8164,8131,4.352642059326172
64,8164,8186,8197,8174,8135,8189,8168,8168,8244,8164,8162,8183,8164,8131,4.353668451309204
65,8155,8154,8175,8140,8135,8189,8189,8158,8149,8177,8163,8149,8154,8116,4.360988616943359
66,8175,8185,8195,8153,8140,8196,8181,8164,8170,8165,8176,8172,8159,8139,4.368985652923584
67,8175,8201,8208,8178,8141,8202,8167,8177,8238,8164,8185,8191,8174,8142,4.3769941329956055
68,8186,8170,8190,8167,8157,8215,8192,8172,8160,8199,8197,8157,8176,8146,4.384368419647217
69,8189,8189,8191,8154,8140,8217,8187,8173,8255,8172,8183,8183,8170,8155,4.392381429672241
70,8139,8165,8166,8142,8137,8213,8185,8170,8165,8163,8176,8154,8155,8133,4.400373220443726
71,8157,8174,8165,8160,8132,8221,8186,8173,8173,8175,8168,8161,8162,8142,4.408374786376953
72,8180,8184,8178,8155,8125,8221,8185,8175,8247,8169,8177,8182,8175,8156,4.416337728500366
73,8166,8167,8168,8140,8139,8216,8189,8167,8135,8170,8188,8150,8163,8148,4.424109935760498
74,8160,8192,8162,8150,8115,8215,8174,8164,8196,8146,8156,8171,8159,8133,4.432106018066406
75,8135,8169,8142,8137,8113,8215,8184,8157,8125,8156,8172,8152,8162,8129,4.4393699169158936
76,8148,8176,8154,8145,8122,8219,8180,8166,8130,8164,8190,8157,8164,8151,4.447324752807617
77,8148,8188,8162,8156,8114,8219,8166,8173,8209,8148,8167,8171,8161,8134,4.454916000366211
78,8143,8159,8149,8151,8137,8227,8191,8164,8111,8174,8181,8140,8160,8128,4.462922811508179
79,8163,8189,8173,8164,8135,8223,8182,8171,8228,8182,8196,8183,8173,8156,4.471374273300171
80,8148,8180,8162,8161,8139,8210,8175,8170,8198,8183,8199,8168,8165,8147,4.479374647140503
81,8153,8178,8143,8166,8155,8219,8180,8164,8150,8164,8181,8152,8153,8137,4.487297058105469
82,8150,8192,8152,8164,8146,8224,8175,8164,8222,8149,8166,8173,8158,8128,4.495374917984009
83,8147,8171,8143,8154,8149,8216,8183,8160,8113,8184,8183,8149,8159,8131,4.503398418426514
84,8169,8196,8154,8165,8138,8212,8164,8161,8176,8154,8170,8183,8165,8149,4.510412454605103
85,8153,8181,8155,8157,8152,8218,8172,8160,8156,8143,8181,8170,8171,8148,4.518374443054199
86,8169,8192,8168,8164,8169,8233,8199,8168,8148,8190,8209,8161,8173,8165,4.526339054107666
87,8173,8221,8181,8174,8155,8229,8186,8172,8263,8189,8203,8189,8167,8161,4.534374713897705
88,8151,8175,8157,8152,8165,8229,8193,8166,8140,8178,8201,8151,8155,8146,4.5424323081970215
89,8170,8192,8174,8150,8153,8237,8193,8179,8205,8166,8195,8181,8169,8170,4.550368547439575
90,8166,8201,8188,8155,8149,8224,8194,8176,8223,8186,8202,8176,8172,8174,4.558381795883179
91,8167,8184,8180,8165,8160,8224,8195,8161,8142,8185,8191,8147,8155,8167,4.566375017166138
92,8156,8178,8166,8153,8139,8242,8176,8161,8202,8137,8158,8176,8157,8149,4.573374509811401
93,8141,8143,8145,8135,8153,8250,8192,8165,8118,8166,8183,8154,8167,8143,4.581476449966431
94,8170,8169,8173,8165,8162,8250,8200,8183,8222,8193,8200,8175,8173,8168,4.589469194412232
95,8158,8168,8179,8163,8161,8248,8204,8188,8249,8189,8194,8170,8164,8168,4.597373962402344
96,8157,8154,8169,8146,8167,8251,8212,8176,8153,8196,8194,8152,8159,8170,4.604880094528198
96,8157,8154,8169,8146,8167,8251,8212,8176,8153,8196,8194,8152,8159,8170,4.605873346328735
97,8165,8174,8182,8154,8146,8243,8196,8175,8259,8186,8184,8184,8169,8167,4.612885236740112
98,8144,8145,8164,8150,8154,8238,8202,8171,8168,8192,8188,8144,8160,8149,4.621374130249023
99,8158,8163,8171,8156,8155,8236,8189,8166,8181,8161,8175,8157,8159,8156,4.629374504089356
100,8148,8164,8184,8150,8152,8234,8181,8157,8201,8143,8177,8171,8167,8147,4.636337995529175
101,8150,8148,8178,8156,8172,8247,8201,8165,8132,8174,8192,8148,8166,8148,4.64436149597168
102,8170,8177,8184,8169,8156,8237,8192,8181,8249,8167,8172,8180,8165,8163,4.652381420135498
103,8148,8153,8177,8146,8157,8218,8193,8171,8171,8177,8186,8159,8161,8166,4.660374164581299
104,8157,8165,8193,8154,8158,8227,8191,8178,8204,8184,8195,8171,8164,8179,4.668368339538574
105,8153,8166,8182,8154,8148,8230,8187,8180,8248,8178,8179,8170,8159,8163,4.676337718963623
106,8146,8138,8152,8140,8161,8220,8193,8162,8118,8180,8174,8137,8149,8156,4.684355735778809
107,8161,8168,8163,8145,8152,8219,8175,8166,8210,8150,8165,8179,8159,8167,4.692383289337158
108,8148,8149,8158,8141,8158,8235,8196,8173,8157,8164,8185,8159,8162,8162,4.700375318527222
109,8159,8156,8164,8152,8158,8245,8209,8179,8160,8174,8189,8157,8159,8168,4.707374095916748
110,8153,8166,8165,8144,8150,8233,8189,8173,8205,8147,8172,8169,8154,8155,4.715374231338501
111,8153,8149,8157,8135,8169,8244,8200,8164,8104,8159,8188,8144,8157,8154,4.723373889923096
112,8167,8173,8174,8149,8158,8260,8195,8175,8218,8151,8186,8179,8174,8167,4.731375217437744
113,8148,8148,8168,8141,8164,8253,8195,8165,8160,8166,8190,8154,8173,8162,4.739398002624512
114,8171,8161,8179,8151,8175,8253,8199,8160,8148,8189,8201,8159,8168,8185,4.747397184371948
115,8167,8178,8187,8156,8157,8257,8196,8170,8247,8165,8198,8184,8167,8191,4.755374431610107
116,8149,8145,8167,8148,8163,8269,8214,8170,8134,8161,8201,8147,8159,8180,4.76337456703186
117,8172,8177,8185,8165,8160,8284,8206,8177,8231,8164,8186,8177,8165,8187,4.770362615585327
118,8158,8169,8177,8156,8164,8294,8203,8174,8226,8185,8187,8162,8160,8175,4.778362512588501
119,8163,8165,8165,8154,8176,8309,8207,8174,8188,8183,8181,8150,8154,8177,4.785895824432373
120,8166,8176,8168,8158,8179,8310,8203,8177,8269,8165,8171,8183,8163,8175,4.794374942779541
121,8157,8148,8153,8143,8204,8303,8220,8173,8180,8204,8203,8161,8165,8173,4.802832365036011
122,8173,8178,8160,8151,8195,8305,8211,8178,8257,8198,8202,8183,8171,8184,4.810375452041626
123,8163,8169,8157,8153,8192,8311,8220,8177,8231,8181,8194,8168,8171,8173,4.818374633789063
124,8177,8160,8160,8155,8211,8313,8234,8176,8185,8186,8206,8166,8172,8186,4.826337814331055
125,8187,8188,8170,8157,8209,8305,8228,8188,8302,8189,8207,8197,8173,8200,4.833374977111816
126,8174,8166,8149,8150,8219,8302,8242,8189,8211,8212,8205,8153,8164,8193,4.841375112533569
127,8179,8179,8152,8157,8198,8300,8224,8188,8265,8183,8191,8178,8171,8194,4.849375486373901
240,8167,8170,8147,8151,8191,8291,8222,8180,8260,8184,8207,8178,8174,8186,4.857398986816406
0,8170,8158,8139,8152,8207,8294,8230,8171,8176,8205,8218,8148,8162,8186,4.865397691726685
1,8161,8177,8146,8151,8187,8280,8196,8169,8245,8164,8186,8174,8161,8174,4.873374938964844
2,8150,8157,8138,8145,8199,8261,8201,8167,8139,8165,8193,8152,8162,8173,4.8813769817352295
3,8182,8183,8160,8169,8199,8259,8206,8176,8193,8161,8193,8174,8164,8192,4.889376878738403
4,8164,8170,8162,8152,8178,8244,8194,8164,8186,8146,8173,8168,8155,8170,4.896337985992432
5,8156,8153,8163,8141,8188,8233,8197,8160,8098,8158,8179,8150,8158,8168,4.904490232467651
6,8181,8190,8184,8167,8190,8233,8196,8184,8245,8152,8183,8191,8175,8188,4.912375450134277
7,8168,8162,8158,8158,8205,8235,8215,8178,8167,8171,8193,8159,8168,8180,4.92037558555603
7,8168,8162,8158,8158,8205,8235,8215,8178,8167,8171,8193,8159,8168,8180,4.9207444190979
8,8170,8169,8150,8160,8205,8234,8213,8169,8181,8179,8192,8171,8162,8179,4.928636312484741
9,8156,8173,8151,8162,8203,8219,8204,8170,8218,8167,8195,8180,8164,8165,4.935976505279541
10,8157,8158,8147,8164,8220,8218,8213,8173,8133,8174,8213,8159,8172,8168,4.943976402282715
11,8175,8185,8174,8173,8198,8223,8208,8184,8251,8172,8208,8199,8180,8185,4.952374458312988
11,8175,8185,8174,8173,8198,8223,8208,8184,8251,8172,8208,8199,8180,8185,4.952974081039429
12,8153,8160,8170,8157,8197,8214,8219,8179,8176,8182,8211,8169,8163,8169,4.959945201873779
13,8162,8170,8172,8162,8192,8199,8212,8173,8168,8160,8194,8172,8159,8157,4.966944694519043
14,8160,8177,8184,8164,8189,8189,8210,8179,8228,8160,8201,8194,8175,8157,4.974945068359375
15,8159,8152,8179,8159,8210,8196,8234,8191,8162,8199,8233,8170,8172,8174,4.982944965362549
16,8167,8176,8179,8158,8184,8192,8225,8193,8253,8173,8202,8197,8164,8171,4.990944623947144
17,8143,8158,8168,8144,8191,8177,8230,8180,8169,8186,8200,8174,8166,8148,4.999841213226318
18,8170,8176,8193,8162,8215,8175,8232,8188,8197,8214,8219,8183,8177,8174,5.0068559646606445
19,8175,8190,8209,8168,8202,8174,8222,8195,8290,8190,8214,8204,8175,8185,5.014937877655029
20,8157,8163,8198,8157,8208,8188,8237,8195,8180,8203,8228,8172,8166,8173,5.023054838180542
21,8173,8189,8205,8161,8202,8198,8235,8205,8279,8203,8212,8193,8169,8168,5.030054330825806
22,8149,8161,8174,8138,8202,8183,8240,8186,8202,8185,8191,8158,8155,8145,5.038375616073608
23,8147,8158,8172,8141,8194,8169,8234,8177,8133,8163,8192,8164,8152,8155,5.046338319778442
24,8161,8181,8203,8154,8173,8160,8225,8198,8244,8176,8207,8200,8169,8174,5.0543739795684814
25,8164,8155,8187,8145,8187,8164,8254,8203,8179,8224,8225,8153,8164,8170,5.061791658401489
25,8164,8155,8187,8145,8187,8164,8254,8203,8179,8224,8225,8153,8164,8170,5.062784433364868
26,8165,8174,8179,8148,8176,8164,8250,8200,8248,8192,8199,8172,8158,8159,5.070783376693726
27,8141,8161,8164,8140,8169,8159,8244,8186,8187,8173,8197,8167,8157,8146,5.077800035476685
27,8141,8161,8164,8140,8169,8159,8244,8186,8187,8173,8197,8167,8157,8146,5.078802108764648
28,8157,8157,8167,8144,8174,8163,8240,8177,8136,8185,8218,8164,8163,8166,5.085838317871094
29,8158,8175,8178,8149,8152,8164,8222,8184,8235,8172,8218,8188,8168,8163,5.093845844268799
30,8139,8152,8156,8141,8154,8169,8234,8186,8132,8188,8224,8153,8162,8146,5.10152006149292
31,8154,8177,8155,8155,8147,8167,8225,8190,8196,8176,8207,8181,8169,8151,5.109510183334351
32,8141,8164,8148,8146,8147,8148,8220,8185,8184,8183,8207,8174,8169,8142,5.117373943328857
33,8149,8156,8152,8141,8156,8155,8231,8182,8127,8202,8217,8160,8163,8150,5.1253743171691895
34,8161,8186,8176,8159,8153,8172,8231,8189,8235,8180,8207,8190,8167,8149,5.133401870727539
35,8160,8167,8174,8165,8171,8172,8246,8187,8168,8199,8223,8159,8164,8145,5.141512155532837
36,8184,8189,8189,8170,8159,8169,8236,8198,8264,8210,8236,8184,8172,8167,5.149505138397217
37,8165,8181,8178,8155,8154,8176,8229,8200,8278,8216,8246,8180,8178,8163,5.157376289367676
38,8167,8168,8165,8159,8165,8180,8239,8194,8189,8224,8238,8158,8169,8159,5.1639723777771
39,8174,8192,8175,8167,8149,8170,8227,8198,8281,8194,8221,8189,8162,8154,5.171972274780273
39,8174,8192,8175,8167,8149,8170,8227,8198,8281,8194,8221,8189,8162,8154,5.172967433929443
40,8146,8159,8148,8149,8162,8171,8230,8193,8176,8199,8245,8154,8162,8145,5.180374383926392
41,8172,8178,8153,8164,8163,8180,8231,8194,8222,8209,8245,8172,8177,8163,5.188374280929565
42,8181,8183,8167,8163,8158,8175,8239,8194,8276,8222,8249,8188,8173,8170,5.196336030960083
43,8183,8171,8172,8158,8171,8174,8251,8194,8209,8230,8274,8170,8164,8175,5.20382571220398
43,8183,8171,8172,8158,8171,8174,8251,8194,8209,8230,8274,8170,8164,8175,5.204818487167358
44,8182,8196,8191,8171,8155,8178,8226,8192,8295,8189,8253,8194,8169,8166,5.211840152740479
44,8182,8196,8191,8171,8155,8178,8226,8192,8295,8189,8253,8194,8169,8166,5.212834119796753
45,8160,8167,8172,8164,8163,8178,8228,8174,8193,8196,8252,8165,8165,8154,5.220747232437134
46,8181,8177,8177,8171,8166,8189,8226,8176,8223,8199,8255,8177,8167,8176,5.228375434875488
47,8164,8176,8174,8158,8153,8193,8215,8176,8242,8171,8231,8173,8161,8153,5.235720634460449
48,8139,8152,8153,8141,8164,8195,8224,8163,8101,8169,8219,8144,8150,8123,5.243350267410278
49,8152,8179,8161,8153,8156,8189,8204,8161,8192,8154,8211,8183,8165,8130,5.251343727111816
50,8144,8158,8145,8148,8163,8173,8207,8157,8131,8168,8232,8158,8169,8137,5.259379386901856
51,8145,8170,8144,8154,8162,8166,8215,8171,8149,8178,8237,8169,8170,8147,5.267362594604492
52,8135,8177,8146,8151,8152,8170,8221,8185,8219,8179,8229,8185,8171,8139,5.275375127792358
53,8157,8156,8150,8158,8178,8181,8238,8181,8133,8202,8254,8159,8168,8153,5.283378601074219
54,8193,8191,8180,8183,8184,8175,8220,8182,8254,8194,8257,8198,8176,8174,5.291375398635864
54,8193,8191,8180,8183,8184,8175,8220,8182,8254,8194,8257,8198,8176,8174,5.2919769287109375
55,8168,8175,8169,8169,8201,8169,8222,8172,8204,8211,8262,8172,8172,8158,5.298726797103882
56,8171,8178,8166,8170,8198,8178,8228,8175,8181,8204,8254,8170,8163,8160,5.306742191314697
57,8180,8193,8177,8177,8163,8171,8228,8176,8251,8178,8239,8190,8162,8161,5.314371109008789
58,8176,8171,8170,8168,8176,8160,8241,8164,8150,8206,8252,8151,8160,8158,5.3226158618927
59,8182,8195,8176,8171,8171,8151,8215,8163,8217,8193,8239,8176,8166,8158,5.330604076385498
60,8166,8178,8168,8159,8163,8135,8207,8154,8155,8187,8244,8165,8167,8144,5.34260368347168
61,8191,8191,8187,8174,8163,8125,8219,8152,8149,8200,8265,8172,8171,8162,5.346602201461792
62,8197,8215,8209,8190,8153,8121,8218,8158,8254,8185,8263,8205,8175,8169,5.3536012172698975
62,8197,8215,8209,8190,8153,8121,8218,8158,8254,8185,8263,8205,8175,8169,5.354600667953491
63,8185,8188,8204,8188,8173,8119,8224,8156,8143,8208,8268,8167,8170,8161,5.362602710723877
64,8206,8214,8227,8204,8166,8107,8196,8156,8224,8206,8261,8192,8171,8170,5.3696019649505615
65,8187,8197,8221,8191,8165,8091,8186,8150,8198,8185,8269,8187,8166,8159,5.377601861953735
66,8190,8188,8208,8178,8177,8096,8201,8156,8136,8169,8260,8171,8161,8153,5.38560152053833
67,8194,8215,8214,8177,8167,8099,8194,8160,8227,8159,8234,8192,8165,8145,5.393601894378662
68,8180,8199,8200,8178,8182,8098,8197,8145,8134,8183,8256,8168,8161,8140,5.401601314544678
69,8206,8219,8211,8201,8186,8105,8187,8152,8201,8161,8250,8194,8170,8155,5.409608364105225
70,8203,8206,8214,8196,8194,8104,8190,8156,8194,8162,8246,8189,8170,8160,5.416606903076172
70,8203,8206,8214,8196,8194,8104,8190,8156,8194,8162,8246,8189,8170,8160,5.417607307434082
71,8204,8206,8222,8194,8197,8111,8199,8152,8139,8184,8265,8183,8164,8178,5.424609184265137
72,8206,8244,8241,8205,8178,8111,8186,8165,8256,8167,8266,8215,8169,8177,5.432374954223633
73,8202,8218,8222,8207,8199,8108,8199,8168,8176,8194,8269,8174,8164,8163,5.440042495727539
74,8229,8228,8226,8216,8200,8108,8189,8156,8225,8188,8242,8194,8162,8174,5.448050260543823
75,8193,8211,8231,8188,8196,8100,8176,8139,8211,8159,8239,8196,8163,8162,5.456338167190552
76,8182,8193,8227,8183,8210,8105,8187,8152,8132,8170,8253,8179,8166,8161,5.464375257492065
77,8213,8222,8226,8215,8191,8106,8176,8167,8260,8174,8229,8215,8169,8164,5.472373962402344
78,8194,8187,8194,8193,8199,8101,8182,8142,8138,8180,8223,8171,8153,8140,5.480313539505005
79,8187,8193,8202,8179,8202,8102,8180,8141,8136,8153,8221,8185,8158,8143,5.488287448883057
80,8190,8201,8218,8192,8196,8103,8182,8165,8212,8155,8231,8213,8175,8157,5.49528169631958
81,8205,8192,8222,8208,8208,8105,8190,8164,8170,8193,8255,8192,8174,8174,5.503369331359863
81,8205,8192,8222,8208,8208,8105,8190,8164,8170,8193,8255,8192,8174,8174,5.503889322280884
82,8196,8213,8231,8205,8184,8096,8164,8145,8236,8164,8232,8205,8165,8164,5.51137375831604
83,8174,8181,8206,8180,8185,8097,8171,8133,8109,8160,8222,8175,8161,8144,5.519361972808838
84,8208,8201,8213,8191,8198,8109,8177,8152,8151,8175,8229,8196,8169,8159,5.527886390686035
85,8199,8212,8221,8195,8198,8109,8175,8160,8222,8170,8229,8201,8162,8151,5.535375118255615
85,8199,8212,8221,8195,8198,8109,8175,8160,8222,8170,8229,8201,8162,8151,5.535896062850952
86,8192,8186,8214,8201,8214,8119,8193,8151,8109,8180,8238,8173,8160,8153,5.542907238006592
87,8222,8210,8229,8221,8202,8119,8174,8157,8202,8166,8230,8214,8174,8170,5.5512611865997314
88,8209,8187,8208,8199,8200,8096,8163,8144,8123,8174,8227,8187,8164,8163,5.558374404907227
89,8196,8184,8193,8182,8185,8094,8155,8130,8093,8153,8206,8184,8155,8153,5.566397428512573
90,8179,8193,8191,8183,8164,8105,8149,8136,8143,8125,8187,8205,8163,8134,5.574397087097168
91,8190,8181,8194,8201,8190,8118,8170,8147,8067,8164,8211,8182,8165,8149,5.582402467727661
92,8215,8212,8212,8217,8193,8128,8165,8156,8195,8173,8204,8210,8166,8167,5.589928388595581
93,8178,8188,8188,8188,8196,8123,8158,8143,8135,8170,8194,8186,8160,8138,5.597936153411865
94,8179,8188,8188,8187,8205,8119,8148,8144,8090,8165,8193,8189,8163,8140,5.606009483337402
95,8190,8199,8204,8192,8209,8123,8145,8151,8166,8159,8191,8216,8166,8152,5.613375425338745
96,8184,8171,8189,8183,8224,8132,8164,8141,8082,8178,8202,8183,8159,8147,5.620817422866821
96,8184,8171,8189,8183,8224,8132,8164,8141,8082,8178,8202,8183,8159,8147,5.6218321323394775
97,8204,8193,8196,8196,8205,8136,8157,8155,8198,8175,8191,8212,8170,8148,5.628827095031738
97,8204,8193,8196,8196,8205,8136,8157,8155,8198,8175,8191,8212,8170,8148,5.629826307296753
98,8184,8173,8174,8181,8207,8139,8170,8165,8175,8192,8190,8191,8170,8135,5.637375593185425
99,8172,8169,8159,8170,8214,8151,8176,8163,8130,8200,8178,8176,8159,8138,5.64537525177002
100,8169,8180,8175,8170,8191,8147,8158,8163,8212,8173,8153,8207,8163,8132,5.653432846069336
101,8156,8143,8160,8160,8201,8143,8167,8158,8090,8164,8160,8171,8156,8115,5.661565780639648
102,8165,8172,8157,8166,8198,8143,8154,8157,8133,8138,8145,8192,8159,8117,5.6693737506866455
103,8150,8170,8154,8162,8196,8145,8160,8161,8120,8153,8155,8185,8168,8117,5.6766357421875
104,8164,8166,8165,8171,8207,8161,8184,8176,8118,8183,8175,8175,8171,8134,5.68463134765625
105,8162,8183,8170,8170,8196,8158,8173,8179,8222,8164,8160,8201,8167,8122,5.692376375198364
106,8136,8146,8141,8147,8199,8150,8175,8166,8085,8182,8170,8167,8159,8102,5.700374841690064
107,8158,8171,8159,8160,8182,8145,8161,8174,8156,8181,8173,8199,8168,8121,5.708374261856079
108,8150,8172,8158,8162,8176,8132,8159,8171,8182,8177,8178,8199,8170,8121,5.716573476791382
109,8154,8156,8138,8159,8184,8137,8171,8168,8104,8190,8180,8178,8163,8124,5.72437596321106
110,8163,8172,8147,8159,8158,8138,8156,8177,8179,8169,8163,8206,8169,8127,5.73239803314209
111,8144,8153,8149,8152,8169,8128,8162,8170,8083,8179,8182,8175,8165,8121,5.740397214889526
112,8163,8180,8166,8170,8179,8131,8174,8176,8144,8173,8177,8197,8168,8134,5.748374223709106
113,8152,8173,8164,8160,8175,8121,8182,8178,8170,8166,8172,8196,8173,8135,5.75537371635437
114,8152,8156,8157,8150,8168,8098,8177,8175,8091,8187,8192,8167,8168,8140,5.763410329818726
115,8162,8179,8166,8155,8135,8087,8156,8181,8189,8172,8178,8201,8169,8141,5.771409749984741
116,8147,8151,8150,8147,8150,8092,8157,8177,8099,8180,8181,8172,8162,8131,5.779448747634888
117,8175,8180,8173,8170,8160,8084,8138,8183,8148,8190,8183,8182,8163,8151,5.787374258041382
118,8153,8182,8181,8164,8144,8071,8142,8178,8184,8184,8171,8188,8157,8135,5.795375108718872
119,8131,8144,8149,8142,8152,8087,8177,8165,8052,8183,8160,8161,8152,8107,5.803374528884888
120,8155,8173,8156,8154,8146,8094,8145,8166,8149,8162,8155,8201,8166,8113,5.811374664306641
121,8150,8162,8161,8158,8149,8082,8120,8162,8097,8176,8184,8180,8167,8124,5.81917142868042
122,8157,8162,8157,8155,8137,8075,8129,8153,8085,8170,8168,8177,8162,8137,5.826692342758179
123,8140,8159,8139,8135,8123,8068,8133,8142,8107,8158,8145,8185,8157,8124,5.834696531295776
124,8142,8152,8139,8144,8147,8075,8142,8150,8039,8185,8176,8166,8162,8125,5.84270977973938
125,8173,8193,8177,8186,8148,8079,8133,8185,8197,8181,8187,8204,8176,8147,5.85067892074585
126,8162,8171,8167,8180,8162,8071,8148,8190,8160,8200,8193,8182,8168,8149,5.858687162399292
127,8178,8173,8162,8172,8167,8075,8150,8178,8145,8203,8186,8188,8158,8162,5.866686820983887
240,8173,8181,8165,8170,8146,8079,8135,8172,8201,8173,8174,8202,8160,8153,5.874374628067017
0,8156,8152,8140,8154,8155,8082,8144,8164,8070,8173,8173,8163,8162,8139,5.882375240325928
1,8157,8176,8143,8153,8149,8087,8129,8165,8131,8152,8152,8200,8163,8131,5.889079570770264
2,8142,8166,8139,8157,8153,8094,8131,8165,8102,8183,8166,8191,8163,8121,5.897073268890381
3,8164,8172,8143,8176,8157,8104,8137,8168,8111,8202,8174,8184,8169,8148,5.905375003814697
4,8163,8183,8150,8174,8144,8099,8121,8167,8185,8149,8141,8191,8165,8148,5.913375377655029
5,8153,8152,8141,8160,8155,8101,8141,8165,8072,8154,8132,8155,8149,8136,5.920985698699951
6,8173,8178,8165,8168,8139,8105,8144,8184,8189,8173,8130,8198,8160,8152,5.929201602935791
7,8152,8162,8158,8149,8136,8087,8133,8177,8160,8181,8143,8183,8169,8142,5.937130928039551
7,8152,8162,8158,8149,8136,8087,8133,8177,8160,8181,8143,8183,8169,8142,5.938121318817139
8,8147,8149,8147,8137,8147,8076,8118,8149,8056,8166,8151,8171,8167,8134,5.945221662521362
9,8154,8174,8156,8150,8137,8080,8112,8144,8134,8142,8145,8208,8170,8133,5.952293634414673
10,8158,8160,8145,8156,8158,8085,8134,8153,8071,8172,8165,8172,8167,8137,5.960410833358765
11,8172,8180,8153,8164,8159,8078,8114,8167,8154,8174,8154,8184,8170,8144,5.967974424362183
12,8143,8154,8138,8142,8153,8076,8118,8161,8125,8165,8140,8174,8164,8126,5.975966453552246
13,8136,8141,8122,8137,8158,8088,8141,8160,8056,8158,8138,8165,8158,8128,5.984666109085083
14,8143,8170,8128,8149,8144,8086,8117,8163,8149,8133,8124,8195,8161,8123,5.992375135421753
15,8129,8144,8114,8139,8154,8083,8107,8146,8038,8149,8140,8161,8159,8110,6.00056004524231
16,8146,8165,8126,8152,8146,8095,8102,8150,8095,8141,8143,8185,8170,8119,6.00855827331543
17,8145,8161,8126,8148,8143,8105,8116,8159,8110,8136,8142,8184,8168,8110,6.0155580043792725
18,8157,8149,8125,8145,8153,8111,8127,8158,8047,8163,8155,8166,8162,8118,6.023062944412232
19,8160,8171,8133,8152,8132,8098,8102,8154,8147,8144,8142,8199,8165,8125,6.031074285507202
20,8132,8136,8107,8136,8143,8086,8101,8134,8010,8124,8135,8161,8153,8098,6.039345264434815
21,8148,8149,8112,8140,8140,8101,8098,8139,8028,8108,8112,8173,8156,8093,6.047346353530884
22,8127,8149,8108,8125,8117,8102,8091,8144,8065,8113,8109,8178,8165,8092,6.05537486076355
23,8111,8135,8096,8125,8125,8103,8093,8135,7977,8130,8128,8153,8160,8092,6.063241004943848
24,8135,8167,8118,8150,8126,8119,8088,8149,8091,8113,8123,8187,8164,8092,6.071336269378662
25,8133,8140,8113,8136,8143,8134,8112,8158,8036,8135,8143,8163,8163,8095,6.0793280601501465
26,8132,8145,8120,8132,8134,8141,8113,8157,8065,8131,8143,8173,8164,8112,6.08647346496582
27,8118,8153,8123,8138,8119,8148,8112,8158,8109,8117,8125,8176,8164,8098,6.09381103515625
28,8146,8146,8133,8148,8141,8164,8137,8168,8055,8159,8142,8160,8160,8105,6.101824522018433
29,8169,8175,8160,8156,8133,8162,8119,8171,8182,8153,8143,8206,8164,8123,6.110635757446289
30,8132,8150,8132,8144,8138,8160,8114,8157,8087,8143,8140,8171,8160,8111,6.118374347686768
31,8141,8154,8124,8143,8143,8172,8117,8159,8064,8128,8123,8173,8160,8113,6.126007080078125
32,8141,8161,8139,8144,8136,8166,8102,8157,8126,8117,8126,8195,8168,8103,6.134375333786011
33,8144,8150,8134,8158,8152,8164,8112,8152,8045,8143,8149,8165,8168,8104,6.142394065856934
34,8156,8174,8135,8159,8140,8168,8113,8153,8128,8121,8126,8188,8167,8115,6.149398565292358
35,8114,8143,8113,8120,8140,8162,8102,8141,8046,8112,8127,8160,8155,8096,6.157374382019043
36,8126,8154,8122,8139,8145,8160,8094,8151,8053,8132,8137,8169,8155,8101,6.165375709533691
37,8142,8172,8144,8161,8138,8166,8111,8158,8157,8144,8133,8194,8164,8104,6.173291921615601
38,8124,8143,8131,8149,8157,8177,8129,8144,8051,8152,8149,8152,8165,8096,6.181336402893066
39,8129,8171,8128,8157,8152,8175,8102,8147,8119,8114,8136,8176,8164,8092,6.189333438873291
40,8116,8156,8115,8146,8161,8171,8110,8148,8069,8118,8134,8166,8156,8083,6.197376251220703
41,8146,8158,8137,8162,8164,8181,8128,8150,8075,8148,8146,8175,8163,8112,6.205374956130981
42,8164,8181,8170,8184,8142,8179,8111,8156,8191,8138,8146,8207,8175,8121,6.213363885879517
43,8148,8154,8154,8166,8155,8179,8113,8146,8073,8144,8159,8167,8171,8111,6.219364166259766
43,8148,8154,8154,8166,8155,8179,8113,8146,8073,8144,8159,8167,8171,8111,6.220870733261108
44,8161,8175,8158,8159,8153,8189,8108,8146,8145,8137,8151,8187,8172,8125,6.22837495803833
45,8144,8160,8150,8149,8159,8190,8118,8151,8131,8147,8153,8175,8164,8116,6.236337900161743
46,8143,8153,8149,8155,8170,8195,8124,8157,8085,8155,8157,8166,8162,8117,6.244596719741821
47,8159,8181,8157,8167,8159,8197,8110,8156,8187,8140,8149,8190,8171,8131,6.252594947814941
48,8164,8156,8140,8158,8173,8190,8123,8142,8083,8163,8164,8159,8166,8138,6.260375022888184
49,8172,8170,8153,8167,8165,8184,8115,8153,8150,8151,8159,8188,8165,8149,6.268369197845459
50,8154,8165,8150,8168,8157,8183,8120,8163,8175,8153,8165,8183,8165,8139,6.27535080909729
51,8162,8161,8142,8168,8165,8186,8142,8164,8121,8175,8178,8167,8167,8139,6.283344268798828
52,8161,8177,8150,8167,8155,8177,8128,8169,8207,8153,8153,8196,8171,8134,6.291374444961548
53,8143,8148,8130,8155,8170,8179,8130,8159,8107,8171,8147,8159,8159,8123,6.299373626708984
54,8159,8176,8133,8171,8166,8188,8127,8163,8173,8183,8146,8182,8162,8132,6.307369709014893
55,8152,8176,8132,8174,8166,8184,8136,8171,8211,8186,8154,8185,8164,8133,6.315376043319702
56,8164,8161,8132,8174,8192,8183,8154,8167,8133,8184,8162,8160,8160,8143,6.323452949523926
57,8172,8184,8134,8174,8173,8173,8126,8156,8204,8148,8141,8183,8167,8132,6.331403017044067
58,8146,8157,8112,8162,8172,8162,8124,8139,8102,8165,8153,8154,8164,8114,6.339311361312866
59,8168,8177,8137,8184,8183,8168,8123,8142,8151,8173,8160,8183,8169,8137,6.34633994102478
60,8169,8179,8149,8182,8186,8166,8116,8142,8182,8161,8151,8195,8170,8133,6.35437536239624
61,8175,8163,8141,8177,8195,8164,8134,8147,8103,8183,8154,8169,8167,8130,6.362401723861694
62,8191,8192,8160,8186,8178,8165,8130,8162,8229,8174,8148,8199,8173,8141,6.370375394821167
63,8162,8165,8143,8169,8187,8166,8131,8157,8141,8170,8155,8163,8162,8125,6.378401041030884
64,8179,8177,8143,8182,8187,8168,8135,8164,8144,8162,8140,8169,8159,8120,6.386403322219849
65,8177,8183,8153,8183,8176,8163,8145,8163,8189,8158,8137,8183,8166,8114,6.3943750858306885
66,8168,8160,8146,8177,8196,8168,8160,8150,8085,8178,8162,8154,8163,8121,6.402374982833862
67,8185,8188,8158,8187,8193,8180,8148,8161,8203,8165,8149,8184,8164,8131,6.409374237060547
68,8161,8167,8146,8162,8191,8177,8153,8156,8153,8174,8150,8160,8160,8119,6.417684078216553
69,8163,8167,8147,8158,8179,8163,8143,8148,8131,8168,8141,8164,8157,8126,6.424951314926148
69,8163,8167,8147,8158,8179,8163,8143,8148,8131,8168,8141,8164,8157,8126,6.425950527191162
70,8160,8177,8150,8171,8168,8155,8125,8149,8186,8157,8126,8185,8159,8121,6.432950496673584
71,8161,8156,8137,8171,8180,8156,8129,8143,8086,8193,8143,8157,8162,8124,6.440752744674683
72,8174,8180,8136,8170,8153,8147,8110,8144,8159,8177,8139,8189,8166,8137,6.448749303817749
73,8147,8159,8117,8157,8142,8145,8121,8146,8096,8165,8141,8174,8158,8121,6.456751108169556
74,8159,8167,8129,8172,8146,8160,8134,8150,8085,8173,8138,8170,8157,8120,6.464750051498413
75,8150,8176,8138,8173,8129,8153,8117,8147,8150,8158,8118,8182,8160,8106,6.471749305725098
76,8132,8144,8120,8150,8134,8146,8121,8136,8016,8154,8124,8147,8152,8091,6.47974967956543
76,8132,8144,8120,8150,8134,8146,8121,8136,8016,8154,8124,8147,8152,8091,6.480750322341919
77,8161,8172,8143,8153,8124,8160,8113,8140,8107,8142,8123,8186,8158,8107,6.487750291824341
78,8145,8153,8140,8153,8129,8170,8119,8143,8110,8173,8156,8177,8163,8113,6.495750188827515
79,8136,8149,8134,8173,8141,8175,8127,8156,8093,8184,8182,8168,8168,8122,6.504376411437988
80,8161,8180,8163,8183,8129,8165,8121,8165,8188,8161,8160,8196,8170,8129,6.512374877929688
81,8180,8162,8164,8162,8146,8164,8138,8149,8090,8185,8164,8165,8159,8139,6.520374774932861
81,8180,8162,8164,8162,8146,8164,8138,8149,8090,8185,8164,8165,8159,8139,6.520769834518433
82,8167,8180,8156,8162,8134,8169,8119,8145,8159,8167,8171,8186,8162,8137,6.5283753871917725
82,8167,8180,8156,8162,8134,8169,8119,8145,8159,8167,8171,8186,8162,8137,6.528786659240723
83,8135,8162,8133,8165,8126,8163,8119,8150,8134,8158,8178,8169,8159,8099,6.536332845687866
84,8169,8151,8132,8173,8144,8165,8140,8147,8076,8171,8172,8155,8155,8103,6.543342590332031
85,8168,8171,8139,8170,8136,8156,8117,8138,8169,8144,8168,8189,8165,8106,6.551353454589844
86,8140,8147,8122,8161,8143,8144,8119,8143,8078,8171,8201,8158,8167,8097,6.559375524520874
87,8179,8173,8146,8179,8136,8149,8132,8170,8174,8195,8204,8181,8176,8126,6.567374229431152
87,8179,8173,8146,8179,8136,8149,8132,8170,8174,8195,8204,8181,8176,8126,6.56785249710083
88,8167,8166,8148,8168,8133,8151,8142,8171,8198,8182,8203,8181,8175,8126,6.574864387512207
89,8149,8152,8125,8163,8139,8148,8144,8158,8116,8184,8214,8163,8162,8120,6.582864046096802
89,8149,8152,8125,8163,8139,8148,8144,8158,8116,8184,8214,8163,8162,8120,6.583858013153076
90,8156,8171,8124,8171,8123,8150,8126,8164,8203,8183,8206,8196,8164,8122,6.591886520385742
91,8150,8150,8121,8158,8142,8169,8139,8163,8117,8201,8227,8166,8166,8123,6.59936785697937
92,8176,8177,8145,8166,8146,8179,8148,8167,8188,8191,8228,8182,8171,8135,6.60640287399292
93,8163,8167,8141,8169,8143,8169,8149,8169,8215,8192,8213,8184,8167,8120,6.614397764205933
94,8163,8150,8131,8170,8158,8181,8145,8163,8128,8210,8228,8166,8163,8119,6.622374057769775
95,8180,8183,8146,8166,8143,8188,8118,8152,8230,8179,8237,8195,8169,8123,6.630374670028687
96,8145,8140,8119,8142,8143,8174,8126,8134,8117,8169,8237,8151,8161,8104,6.638374090194702
97,8146,8140,8113,8156,8132,8170,8125,8145,8116,8164,8199,8159,8155,8105,6.64633846282959
98,8148,8155,8117,8156,8127,8167,8120,8156,8161,8163,8178,8173,8156,8103,6.654119253158569
99,8147,8140,8113,8147,8160,8168,8146,8162,8096,8184,8213,8156,8165,8113,6.662119150161743
100,8154,8163,8135,8167,8151,8171,8146,8177,8222,8179,8226,8195,8177,8124,6.670259475708008
101,8141,8141,8131,8161,8144,8165,8142,8159,8139,8197,8223,8160,8159,8114,6.677602291107178
102,8152,8145,8127,8152,8144,8147,8123,8141,8110,8171,8191,8156,8150,8111,6.6853532791137695
103,8143,8150,8121,8146,8137,8134,8115,8142,8147,8140,8172,8167,8161,8092,6.693346977233887
104,8151,8140,8120,8154,8152,8144,8142,8153,8069,8182,8194,8148,8164,8096,6.701374530792236
105,8173,8174,8145,8169,8149,8148,8137,8167,8190,8185,8192,8187,8169,8117,6.709362506866455
106,8146,8146,8134,8150,8161,8143,8145,8156,8131,8182,8202,8157,8168,8107,6.717370986938477
107,8162,8149,8141,8166,8161,8151,8147,8160,8125,8186,8208,8157,8171,8116,6.725374698638916
108,8167,8166,8159,8181,8147,8153,8135,8171,8214,8181,8202,8183,8170,8127,6.733768939971924
109,8146,8137,8146,8159,8156,8153,8148,8154,8104,8191,8207,8145,8159,8124,6.740375518798828
110,8151,8158,8152,8158,8140,8149,8140,8153,8174,8161,8190,8173,8165,8114,6.7483744621276855
111,8137,8143,8132,8154,8150,8147,8140,8163,8138,8171,8200,8167,8165,8098,6.756335258483887
112,8151,8146,8124,8159,8166,8163,8147,8167,8131,8195,8209,8167,8165,8118,6.764331579208374
113,8157,8164,8140,8157,8147,8163,8144,8161,8223,8178,8196,8182,8168,8124,6.7723352909088135
114,8150,8140,8127,8151,8148,8147,8152,8152,8111,8178,8203,8146,8158,8108,6.78035831451416
114,8150,8140,8127,8151,8148,8147,8152,8152,8111,8178,8203,8146,8158,8108,6.781358957290649
115,8155,8160,8132,8158,8135,8135,8126,8151,8164,8154,8184,8174,8158,8106,6.788374423980713
116,8137,8144,8135,8143,8139,8137,8125,8145,8124,8154,8178,8161,8164,8099,6.796472787857056
117,8162,8153,8149,8153,8154,8156,8145,8149,8109,8168,8197,8159,8168,8119,6.804450035095215
118,8162,8181,8155,8173,8142,8154,8137,8155,8223,8156,8197,8183,8167,8123,6.811048269271851
119,8136,8142,8135,8158,8157,8149,8150,8148,8108,8174,8202,8141,8160,8113,6.819048404693604
120,8156,8158,8156,8157,8154,8159,8155,8152,8165,8161,8184,8174,8167,8122,6.827048301696777
120,8156,8158,8156,8157,8154,8159,8155,8152,8165,8161,8184,8174,8167,8122,6.828060626983643
121,8152,8158,8147,8153,8145,8152,8156,8149,8152,8149,8177,8173,8158,8108,6.835368394851685
122,8160,8151,8137,8155,8147,8134,8145,8139,8080,8151,8182,8151,8153,8117,6.843363046646118
123,8160,8168,8152,8158,8132,8127,8123,8143,8169,8139,8166,8172,8166,8126,6.85135555267334
124,8142,8144,8138,8147,8151,8136,8144,8145,8076,8166,8173,8140,8165,8117,6.859375
125,8161,8166,8149,8151,8153,8140,8143,8154,8145,8157,8175,8169,8166,8128,6.86633825302124
126,8159,8160,8153,8153,8152,8136,8140,8151,8164,8148,8180,8171,8161,8130,6.874374628067017
127,8163,8150,8148,8164,8171,8141,8155,8148,8105,8174,8195,8152,8161,8139,6.882397651672363
240,8163,8174,8158,8168,8160,8140,8143,8161,8221,8159,8181,8181,8170,8134,6.890393018722534
0,8135,8146,8142,8151,8166,8136,8151,8151,8108,8155,8177,8141,8158,8109,6.898406028747559
1,8147,8167,8145,8162,8157,8141,8143,8144,8109,8142,8159,8155,8154,8106,6.906422853469849
2,8148,8168,8139,8151,8146,8138,8135,8138,8125,8130,8151,8167,8157,8096,6.914374828338623
3,8158,8156,8135,8153,8162,8133,8145,8134,8048,8137,8162,8143,8154,8105,6.921909093856812
3,8158,8156,8135,8153,8162,8133,8145,8134,8048,8137,8162,8143,8154,8105,6.92290735244751
4,8170,8184,8154,8176,8158,8128,8133,8142,8157,8116,8150,8175,8158,8115,6.930374383926392
4,8170,8184,8154,8176,8158,8128,8133,8142,8157,8116,8150,8175,8158,8115,6.930911779403687
5,8138,8150,8131,8151,8169,8131,8147,8137,8074,8134,8162,8149,8156,8101,6.9373743534088135
6,8148,8161,8133,8147,8169,8142,8158,8144,8105,8140,8157,8157,8161,8109,6.945514917373657
7,8150,8166,8146,8153,8170,8140,8160,8155,8166,8133,8139,8166,8166,8107,6.953514337539673
8,8146,8143,8138,8149,8184,8144,8172,8158,8088,8159,8148,8144,8165,8107,6.961375236511231
9,8150,8172,8147,8152,8157,8146,8165,8166,8213,8160,8152,8182,8169,8116,6.969374895095825
10,8126,8152,8136,8140,8161,8138,8176,8159,8143,8167,8166,8154,8163,8111,6.977373838424683
11,8148,8157,8138,8153,8176,8138,8174,8155,8119,8144,8144,8150,8160,8112,6.984390735626221
12,8148,8168,8138,8152,8169,8134,8164,8148,8153,8107,8119,8158,8157,8089,6.993395090103149
13,8136,8149,8124,8148,8180,8139,8178,8139,8044,8127,8138,8131,8156,8088,7.000375509262085
14,8152,8171,8143,8161,8169,8143,8166,8155,8161,8140,8135,8170,8170,8112,7.008400201797485
15,8132,8150,8138,8146,8179,8136,8163,8158,8120,8154,8147,8148,8167,8097,7.016864061355591
16,8144,8160,8142,8155,8185,8147,8167,8151,8094,8145,8151,8148,8159,8091,7.024684190750122
17,8140,8170,8144,8159,8166,8155,8163,8146,8157,8126,8137,8170,8159,8090,7.0326924324035645
18,8130,8136,8121,8148,8179,8153,8173,8149,8064,8149,8155,8138,8163,8090,7.040691614151001
19,8143,8162,8132,8161,8172,8157,8163,8155,8157,8133,8142,8169,8169,8094,7.048375368118286
20,8111,8144,8119,8151,8165,8164,8166,8146,8098,8127,8127,8151,8156,8074,7.056375980377197
21,8124,8141,8110,8148,8165,8167,8171,8155,8066,8134,8132,8144,8153,8081,7.0633320808410645
22,8138,8164,8117,8152,8153,8161,8166,8165,8168,8116,8130,8167,8161,8085,7.071377754211426
23,8126,8141,8109,8142,8162,8156,8182,8153,8055,8129,8134,8135,8152,8076,7.079046964645386
24,8148,8171,8133,8158,8161,8152,8168,8157,8129,8128,8135,8175,8161,8090,7.08678150177002
24,8148,8171,8133,8158,8161,8152,8168,8157,8129,8128,8135,8175,8161,8090,7.08778715133667
25,8143,8161,8132,8162,8168,8149,8162,8162,8135,8145,8158,8173,8168,8100,7.094794750213623
25,8143,8161,8132,8162,8168,8149,8162,8162,8135,8145,8158,8173,8168,8100,7.095787286758423
26,8149,8151,8123,8156,8167,8153,8171,8157,8088,8145,8156,8156,8164,8116,7.10337495803833
27,8146,8169,8129,8145,8146,8147,8164,8155,8155,8105,8137,8181,8159,8106,7.111375093460083
28,8126,8143,8113,8138,8161,8145,8173,8153,8044,8128,8161,8142,8152,8086,7.119388103485107
29,8143,8161,8128,8159,8152,8149,8161,8165,8122,8136,8161,8155,8160,8098,7.126918792724609
30,8137,8149,8129,8149,8142,8155,8172,8162,8123,8131,8147,8151,8161,8092,7.134376049041748
31,8134,8140,8120,8139,8152,8159,8189,8151,8038,8127,8136,8139,8151,8089,7.142375230789185
32,8135,8174,8130,8150,8138,8142,8169,8155,8128,8093,8115,8161,8155,8081,7.150374889373779
33,8142,8159,8128,8153,8155,8137,8190,8157,8054,8126,8134,8128,8160,8083,7.158374309539795
34,8155,8172,8145,8159,8156,8152,8193,8168,8132,8149,8146,8158,8169,8103,7.166338443756104
35,8128,8160,8139,8146,8136,8143,8177,8173,8153,8140,8147,8160,8169,8090,7.174596786499023
36,8146,8154,8132,8146,8140,8141,8187,8169,8075,8143,8159,8139,8167,8099,7.182596683502197
37,8163,8181,8145,8156,8128,8146,8182,8165,8184,8127,8148,8175,8170,8111,7.189626932144165
38,8137,8149,8133,8145,8131,8147,8191,8158,8095,8151,8163,8150,8165,8104,7.19737434387207
39,8156,8170,8146,8162,8126,8153,8189,8170,8140,8154,8176,8170,8169,8125,7.205374717712402
40,8152,8173,8145,8161,8121,8154,8188,8168,8184,8136,8167,8175,8165,8124,7.213363409042358
41,8150,8150,8138,8149,8133,8152,8195,8155,8077,8143,8161,8142,8153,8116,7.220883131027222
42,8168,8183,8155,8157,8118,8144,8175,8157,8158,8118,8141,8173,8155,8115,7.229374408721924
43,8150,8165,8136,8149,8130,8142,8182,8147,8071,8113,8155,8146,8154,8106,7.237109422683716
44,8157,8174,8139,8159,8133,8155,8177,8148,8094,8109,8165,8160,8164,8115,7.245104074478149
45,8160,8179,8146,8161,8123,8151,8165,8159,8168,8119,8162,8174,8167,8116,7.253375291824341
46,8164,8157,8135,8149,8143,8154,8189,8162,8090,8148,8174,8138,8157,8118,7.260374546051025
47,8175,8183,8150,8155,8130,8162,8193,8173,8205,8130,8168,8166,8164,8119,7.268374443054199
48,8151,8160,8149,8145,8128,8152,8205,8173,8151,8142,8185,8147,8167,8112,7.27633786201477
49,8164,8165,8164,8160,8134,8151,8206,8177,8154,8163,8190,8157,8167,8135,7.284693717956543
50,8163,8177,8170,8171,8123,8157,8201,8182,8231,8163,8178,8174,8164,8134,7.29269814491272
51,8157,8161,8151,8164,8134,8158,8213,8173,8128,8171,8184,8144,8159,8124,7.300370216369629
52,8170,8184,8158,8163,8127,8147,8197,8174,8212,8150,8167,8174,8165,8125,7.3083655834198
53,8146,8155,8141,8140,8132,8142,8196,8168,8155,8159,8168,8148,8164,8114,7.31641960144043
54,8159,8161,8141,8145,8133,8143,8201,8164,8126,8154,8161,8144,8158,8128,7.323943853378296
55,8153,8178,8151,8145,8119,8133,8187,8153,8184,8116,8143,8162,8155,8122,7.331376791000366
56,8140,8146,8138,8136,8141,8142,8196,8144,8069,8141,8165,8129,8157,8119,7.339346885681152
57,8172,8179,8155,8157,8137,8146,8183,8152,8168,8152,8161,8169,8166,8146,7.347373962402344
58,8152,8171,8151,8148,8130,8136,8180,8146,8139,8146,8162,8157,8161,8138,7.355885505676269
59,8154,8161,8147,8149,8136,8146,8189,8156,8105,8146,8166,8136,8161,8136,7.363375425338745
60,8157,8172,8149,8150,8125,8153,8179,8166,8204,8136,8156,8157,8166,8133,7.370909452438354
60,8157,8172,8149,8150,8125,8153,8179,8166,8204,8136,8156,8157,8166,8133,7.371905088424683
61,8139,8149,8123,8131,8137,8151,8192,8154,8090,8153,8162,8126,8155,8118,7.378911018371582
62,8152,8175,8125,8137,8133,8157,8192,8161,8154,8135,8141,8148,8154,8123,7.387370347976685
63,8134,8155,8115,8127,8135,8162,8187,8157,8139,8131,8141,8136,8158,8114,7.394382238388061
64,8140,8147,8116,8130,8136,8160,8181,8141,8073,8143,8152,8125,8160,8112,7.40238094329834
65,8156,8182,8143,8147,8122,8151,8172,8146,8164,8129,8144,8157,8165,8116,7.410375118255615
66,8155,8163,8142,8143,8151,8155,8194,8151,8079,8151,8163,8126,8161,8127,7.41847038269043
67,8164,8174,8147,8143,8149,8168,8193,8154,8146,8134,8163,8152,8169,8144,7.426009178161621
67,8164,8174,8147,8143,8149,8168,8193,8154,8146,8134,8163,8152,8169,8144,7.42700457572937
68,8136,8159,8138,8135,8136,8159,8188,8150,8145,8128,8165,8153,8171,8134,7.434016704559326
69,8144,8153,8154,8144,8153,8151,8189,8144,8086,8157,8182,8135,8161,8144,7.4423747062683105
70,8167,8188,8190,8161,8147,8155,8176,8149,8207,8142,8174,8172,8161,8147,7.450362920761108
71,8159,8159,8163,8154,8155,8161,8198,8154,8111,8145,8165,8136,8159,8132,7.457374572753906
72,8171,8166,8155,8154,8147,8161,8199,8161,8146,8139,8148,8147,8163,8142,7.465396642684936
73,8148,8159,8155,8141,8132,8158,8189,8153,8167,8137,8149,8150,8157,8124,7.47339129447937
74,8137,8146,8142,8138,8140,8168,8191,8145,8063,8142,8152,8130,8149,8108,7.481196880340576
75,8148,8176,8149,8148,8135,8175,8178,8158,8156,8116,8125,8162,8164,8112,7.48920202255249
76,8136,8151,8138,8132,8153,8184,8202,8162,8098,8142,8135,8133,8166,8111,7.4971923828125
77,8143,8163,8139,8138,8145,8202,8206,8163,8139,8159,8144,8151,8165,8121,7.505374431610107
78,8126,8161,8130,8135,8134,8206,8194,8152,8157,8144,8133,8157,8164,8114,7.513441801071167
78,8126,8161,8130,8135,8134,8206,8194,8152,8157,8144,8133,8157,8164,8114,7.514441967010498
79,8127,8144,8133,8138,8160,8206,8201,8143,8055,8143,8135,8124,8159,8113,7.520944356918335
80,8145,8182,8156,8155,8144,8203,8193,8153,8169,8133,8124,8156,8162,8113,7.527998447418213
80,8145,8182,8156,8155,8144,8203,8193,8153,8169,8133,8124,8156,8162,8113,7.528948545455933
81,8121,8157,8122,8133,8141,8204,8203,8155,8093,8152,8129,8126,8157,8100,7.535948514938354
82,8134,8159,8115,8132,8149,8207,8200,8153,8094,8137,8122,8128,8160,8108,7.543949127197266
83,8141,8168,8136,8143,8145,8192,8189,8146,8142,8109,8115,8139,8166,8096,7.551949501037598
84,8134,8150,8133,8138,8157,8188,8202,8142,8047,8136,8128,8112,8160,8096,7.559971332550049
85,8136,8178,8138,8135,8137,8193,8187,8156,8173,8125,8110,8147,8161,8112,7.567931175231934
86,8129,8161,8128,8130,8139,8193,8194,8149,8134,8130,8119,8130,8161,8110,7.575931072235107
87,8152,8168,8141,8152,8154,8203,8205,8146,8129,8145,8136,8139,8159,8125,7.583930253982544
87,8152,8168,8141,8152,8154,8203,8205,8146,8129,8145,8136,8139,8159,8125,7.584932804107666
88,8127,8175,8146,8150,8146,8198,8191,8153,8204,8138,8133,8151,8159,8120,7.590930461883545
89,8118,8151,8127,8143,8153,8186,8196,8154,8110,8156,8140,8116,8163,8116,7.599154472351074
90,8174,8181,8153,8168,8149,8188,8193,8156,8213,8144,8126,8162,8169,8133,7.607375383377075
91,8157,8160,8157,8152,8160,8190,8191,8141,8169,8138,8142,8150,8159,8122,7.614891290664673
92,8137,8160,8142,8143,8163,8189,8186,8142,8140,8142,8151,8133,8162,8121,7.6229774951934814
93,8153,8182,8138,8153,8155,8185,8191,8159,8235,8144,8129,8156,8171,8128,7.631373882293701
94,8170,8157,8140,8149,8181,8194,8215,8153,8136,8174,8145,8134,8162,8141,7.639394521713257
95,8165,8174,8159,8156,8172,8198,8196,8147,8201,8140,8138,8158,8161,8135,7.64738917350769
96,8108,8149,8124,8143,8157,8192,8187,8141,8140,8110,8104,8129,8155,8091,7.655738353729248
97,8121,8145,8113,8148,8157,8195,8196,8147,8078,8126,8095,8121,8157,8102,7.662375450134277
98,8149,8175,8143,8159,8140,8188,8184,8151,8192,8129,8115,8165,8167,8130,7.670374393463135
99,8130,8152,8129,8144,8147,8196,8201,8142,8101,8140,8130,8128,8152,8118,7.678257703781128
100,8140,8169,8134,8153,8145,8212,8202,8152,8164,8136,8105,8140,8147,8113,7.68618893623352
101,8132,8161,8139,8151,8154,8204,8200,8156,8166,8155,8117,8138,8159,8111,7.694429874420166
102,8140,8163,8145,8154,8169,8198,8205,8158,8137,8172,8142,8133,8168,8123,7.702430248260498
103,8150,8188,8162,8157,8153,8197,8196,8162,8257,8151,8135,8167,8173,8130,7.710374593734741
104,8142,8154,8155,8152,8160,8199,8217,8148,8149,8164,8151,8135,8168,8131,7.718309640884399
105,8164,8176,8168,8178,8154,8207,8210,8156,8199,8154,8146,8153,8169,8140,7.724943876266479
106,8146,8179,8167,8175,8155,8205,8195,8162,8223,8158,8150,8153,8167,8134,7.732942819595337
107,8151,8165,8169,8171,8175,8203,8205,8158,8156,8184,8172,8140,8165,8152,7.740711212158203
107,8151,8165,8169,8171,8175,8203,8205,8158,8156,8184,8172,8140,8165,8152,7.74172830581665
108,8165,8185,8180,8174,8158,8200,8204,8168,8257,8151,8145,8170,8160,8153,7.749730587005615
109,8139,8154,8149,8157,8163,8191,8205,8161,8127,8138,8117,8127,8142,8123,7.757742881774902
110,8154,8175,8160,8171,8158,8192,8187,8151,8134,8127,8105,8142,8151,8130,7.76577877998352
111,8159,8180,8179,8170,8150,8207,8193,8150,8183,8117,8123,8161,8169,8132,7.773375034332275
112,8162,8159,8166,8156,8167,8210,8205,8147,8085,8128,8127,8141,8160,8124,7.781648635864258
113,8151,8174,8156,8157,8157,8189,8171,8144,8143,8106,8094,8163,8149,8107,7.789647579193115
114,8123,8151,8144,8150,8172,8199,8185,8138,8071,8113,8115,8138,8151,8095,7.7966468334198
115,8156,8171,8167,8168,8184,8236,8209,8149,8136,8114,8130,8165,8166,8120,7.804342985153198
116,8159,8171,8166,8169,8173,8222,8199,8154,8187,8114,8114,8167,8166,8123,7.812150478363037
117,8140,8145,8149,8156,8173,8203,8189,8139,8073,8129,8125,8131,8161,8126,7.820114850997925
118,8148,8179,8177,8162,8142,8209,8169,8134,8176,8109,8132,8174,8163,8134,7.828192710876465
119,8152,8170,8173,8161,8148,8206,8183,8140,8126,8141,8147,8157,8155,8129,7.836198568344116
120,8170,8176,8179,8179,8171,8196,8188,8150,8144,8155,8152,8161,8162,8146,7.844373941421509
121,8164,8173,8189,8181,8166,8188,8181,8148,8198,8124,8147,8172,8171,8138,7.851300954818726
122,8167,8152,8173,8172,8176,8196,8200,8146,8092,8147,8157,8144,8164,8138,7.859242677688599
123,8177,8184,8172,8182,8156,8198,8187,8154,8199,8150,8138,8170,8160,8147,7.8672425746917725
124,8149,8154,8155,8168,8144,8188,8183,8142,8137,8137,8134,8140,8155,8128,7.875243425369263
125,8159,8155,8156,8170,8141,8191,8186,8143,8102,8125,8142,8147,8162,8134,7.883274078369141
126,8161,8186,8161,8171,8131,8188,8187,8153,8178,8134,8133,8174,8168,8143,7.891374588012695
127,8157,8164,8156,8165,8151,8180,8211,8148,8092,8170,8146,8138,8161,8152,7.899396896362305
240,8183,8178,8183,8175,8148,8187,8207,8161,8209,8152,8146,8168,8170,8164,7.907400846481323
0,8163,8162,8175,8166,8147,8199,8208,8158,8175,8153,8143,8154,8168,8149,7.9153687953948975
1,8163,8164,8164,8175,8137,8193,8197,8145,8108,8165,8133,8150,8160,8146,7.922465085983276
2,8174,8176,8167,8177,8122,8174,8177,8145,8175,8149,8126,8178,8163,8141,7.930473566055298
3,8163,8147,8151,8155,8143,8175,8191,8137,8075,8151,8145,8142,8155,8134,7.938348054885864
4,8162,8169,8151,8158,8127,8175,8178,8133,8134,8125,8121,8160,8151,8132,7.946346759796143
5,8138,8149,8134,8148,8122,8165,8181,8131,8088,8133,8113,8147,8149,8111,7.954375505447388
6,8148,8146,8133,8155,8143,8170,8198,8148,8055,8159,8129,8138,8152,8112,7.962374925613403
7,8148,8174,8145,8162,8134,8169,8185,8155,8172,8132,8118,8167,8156,8110,7.970258712768555
8,8120,8142,8114,8140,8134,8163,8193,8135,8051,8135,8119,8133,8152,8098,7.978491544723511
9,8146,8164,8113,8145,8119,8166,8190,8143,8106,8143,8102,8158,8164,8110,7.985491514205933
10,8150,8167,8124,8149,8122,8161,8189,8155,8132,8158,8119,8155,8169,8111,7.993494510650635
11,8160,8156,8123,8152,8144,8168,8199,8153,8089,8163,8144,8143,8163,8118,8.001355171203613
12,8157,8168,8120,8147,8131,8173,8187,8148,8175,8142,8109,8180,8162,8115,8.008826732635498
12,8157,8168,8120,8147,8131,8173,8187,8148,8175,8142,8109,8180,8162,8115,8.009846925735474
13,8133,8142,8115,8137,8134,8162,8185,8138,8055,8169,8118,8147,8160,8107,8.016844987869263
14,8161,8173,8145,8162,8132,8155,8175,8142,8116,8157,8154,8164,8168,8128,8.025380373001099
15,8141,8171,8141,8164,8129,8161,8181,8148,8159,8134,8163,8161,8166,8117,8.033375024795532
16,8131,8151,8126,8152,8143,8178,8200,8154,8081,8160,8143,8128,8158,8103,8.041374444961548
17,8141,8171,8136,8141,8133,8179,8188,8161,8181,8151,8131,8165,8163,8104,8.048443794250488
18,8128,8145,8123,8130,8148,8170,8195,8157,8108,8154,8163,8155,8162,8104,8.056440591812134
19,8153,8166,8143,8157,8159,8169,8198,8161,8156,8165,8148,8172,8161,8124,8.064375638961792
20,8153,8173,8158,8163,8157,8164,8205,8168,8198,8174,8114,8173,8161,8127,8.072374820709229
21,8160,8160,8152,8155,8162,8162,8222,8174,8114,8177,8109,8151,8166,8137,8.080411434173584
22,8169,8185,8154,8155,8132,8151,8200,8170,8205,8138,8092,8180,8174,8144,8.088224411010742
23,8139,8145,8123,8136,8129,8136,8197,8151,8096,8142,8092,8145,8157,8121,8.096216678619385
24,8146,8151,8125,8145,8132,8140,8194,8158,8095,8143,8087,8155,8152,8117,8.104215621948242
25,8143,8168,8140,8150,8126,8142,8185,8162,8147,8131,8068,8166,8161,8110,8.112235069274902
26,8133,8146,8129,8138,8141,8140,8198,8142,8027,8140,8059,8130,8149,8101,8.11922550201416
27,8135,8159,8132,8143,8127,8134,8186,8142,8087,8102,8037,8160,8147,8092,8.1276216506958
28,8129,8142,8119,8145,8127,8133,8195,8146,8007,8106,8038,8138,8154,8088,8.135642290115356
29,8151,8161,8129,8152,8127,8148,8198,8148,8014,8125,8044,8145,8160,8117,8.143649101257324
30,8131,8167,8134,8139,8120,8153,8180,8149,8088,8107,8046,8166,8163,8113,8.151649951934814
31,8123,8137,8121,8136,8139,8154,8183,8148,7992,8121,8063,8136,8163,8112,8.159374237060547
32,8155,8172,8148,8166,8131,8164,8176,8160,8114,8125,8061,8170,8168,8138,8.167564630508423
33,8118,8151,8136,8146,8140,8168,8178,8149,8063,8121,8066,8145,8158,8118,8.175567388534546
34,8087,8133,8097,8120,8142,8156,8158,8135,7974,8095,8043,8125,8150,8086,8.182369709014893
35,8091,8143,8084,8122,8122,8143,8136,8134,8013,8080,8013,8145,8153,8069,8.190375089645386
36,8112,8137,8098,8139,8145,8159,8172,8137,7946,8122,8051,8124,8154,8086,8.198350429534912
37,8142,8179,8135,8161,8144,8167,8182,8156,8095,8124,8072,8157,8161,8119,8.206347703933716
38,8123,8159,8119,8134,8142,8157,8186,8165,8095,8133,8069,8145,8160,8115,8.21437406539917
39,8133,8152,8106,8127,8159,8170,8204,8179,8068,8149,8072,8143,8165,8121,8.222203969955444
40,8143,8177,8118,8143,8157,8182,8207,8186,8167,8131,8076,8170,8167,8121,8.23019552230835
41,8128,8145,8099,8137,8164,8179,8211,8165,8045,8138,8092,8134,8155,8119,8.238376379013062
42,8146,8162,8113,8142,8154,8170,8189,8160,8105,8129,8081,8165,8165,8140,8.246338367462158
43,8144,8160,8130,8142,8158,8161,8189,8156,8110,8145,8101,8166,8170,8145,8.253376960754395
44,8161,8162,8144,8158,8169,8173,8202,8158,8077,8163,8117,8155,8161,8152,8.261263370513916
45,8152,8174,8142,8153,8141,8174,8187,8166,8167,8121,8080,8168,8157,8134,8.26926302909851
46,8121,8140,8115,8126,8147,8162,8199,8160,8046,8124,8083,8125,8158,8121,8.277374505996704
47,8155,8172,8133,8143,8156,8165,8202,8170,8124,8148,8102,8158,8170,8150,8.285277843475342
48,8148,8169,8119,8146,8151,8160,8203,8171,8147,8157,8110,8159,8166,8143,8.293273687362671
49,8135,8142,8091,8139,8149,8148,8207,8153,8042,8141,8095,8129,8155,8132,8.301270008087158
50,8143,8160,8114,8134,8131,8134,8179,8144,8117,8112,8077,8162,8157,8131,8.309059619903564
51,8141,8144,8124,8123,8144,8132,8179,8146,8037,8148,8107,8142,8156,8132,8.316058158874512
52,8164,8166,8138,8146,8148,8138,8186,8159,8097,8147,8108,8156,8162,8148,8.32437539100647
53,8151,8166,8138,8143,8149,8130,8194,8158,8126,8122,8096,8151,8163,8135,8.332375288009644
54,8144,8144,8121,8125,8159,8133,8203,8149,8042,8142,8095,8133,8158,8130,8.340373754501343
55,8141,8149,8112,8127,8137,8132,8186,8153,8137,8137,8080,8170,8162,8129,8.348189353942871
56,8117,8118,8090,8120,8152,8131,8201,8156,8048,8146,8093,8133,8151,8108,8.356220960617065
57,8130,8149,8105,8136,8165,8149,8209,8169,8074,8138,8095,8147,8155,8109,8.364369630813599
57,8130,8149,8105,8136,8165,8149,8209,8169,8074,8138,8095,8147,8155,8109,8.364718437194824
58,8118,8158,8115,8142,8154,8150,8197,8167,8107,8134,8092,8168,8171,8115,8.371377229690552
59,8119,8130,8106,8124,8149,8133,8189,8144,7996,8156,8107,8136,8162,8119,8.379490852355957
60,8141,8165,8125,8134,8127,8122,8170,8146,8099,8130,8098,8161,8156,8116,8.387484788894653
61,8135,8150,8121,8144,8147,8126,8190,8155,8054,8134,8103,8140,8160,8117,8.395374298095703
62,8154,8158,8128,8136,8157,8133,8191,8164,8089,8148,8115,8148,8166,8145,8.403510093688965
63,8147,8172,8136,8133,8140,8131,8180,8166,8163,8149,8120,8160,8160,8143,8.411517858505249
64,8153,8160,8139,8161,8155,8132,8198,8152,8064,8161,8123,8142,8155,8139,8.41937518119812
65,8178,8189,8160,8174,8148,8133,8186,8158,8174,8158,8106,8189,8171,8152,8.427374362945557
66,8145,8162,8133,8137,8159,8148,8195,8169,8153,8201,8139,8162,8175,8147,8.434375047683716
67,8142,8163,8123,8148,8170,8173,8202,8171,8153,8208,8159,8148,8164,8145,8.442375659942627
68,8143,8178,8134,8164,8158,8175,8188,8157,8182,8154,8121,8155,8150,8118,8.450374603271484
69,8137,8148,8120,8145,8169,8177,8200,8146,8041,8145,8103,8115,8145,8104,8.458374738693237
70,8142,8164,8113,8131,8149,8180,8193,8154,8128,8120,8092,8147,8159,8123,8.466171503067017
71,8114,8142,8096,8112,8134,8167,8188,8146,8079,8111,8108,8138,8155,8112,8.47437572479248
72,8124,8150,8119,8135,8135,8158,8180,8147,8057,8128,8124,8140,8157,8113,8.482395887374878
73,8137,8175,8148,8146,8130,8161,8167,8153,8167,8134,8120,8166,8167,8113,8.49039912223816
74,8126,8147,8128,8125,8146,8169,8183,8146,8066,8160,8137,8134,8160,8103,8.498344898223877
75,8134,8169,8137,8138,8136,8167,8181,8153,8146,8150,8135,8162,8163,8108,8.506357669830322
76,8124,8161,8136,8142,8144,8162,8185,8153,8132,8146,8130,8140,8165,8103,8.514360904693604
77,8139,8165,8127,8140,8157,8160,8183,8150,8081,8137,8120,8125,8160,8111,8.521374940872192
78,8137,8185,8123,8131,8120,8139,8160,8142,8139,8095,8106,8155,8155,8101,8.529371500015259
79,8118,8142,8107,8119,8122,8138,8170,8129,8009,8105,8134,8115,8152,8094,8.537386894226074
80,8138,8155,8138,8139,8134,8167,8170,8146,8094,8111,8150,8139,8165,8111,8.545385360717773
81,8137,8158,8150,8133,8138,8168,8176,8156,8126,8129,8155,8140,8169,8110,8.553618431091309
82,8152,8163,8140,8119,8139,8160,8192,8158,8097,8162,8161,8128,8167,8131,8.561376333236694
83,8147,8178,8143,8126,8114,8160,8186,8166,8204,8151,8142,8148,8166,8124,8.569374322891235
84,8111,8144,8125,8127,8121,8161,8195,8159,8090,8153,8140,8109,8152,8091,8.576338529586792
85,8131,8166,8132,8131,8111,8163,8187,8164,8134,8131,8131,8142,8157,8108,8.58438229560852
85,8131,8166,8132,8131,8111,8163,8187,8164,8134,8131,8131,8142,8157,8108,8.58523678779602
86,8142,8162,8134,8115,8098,8166,8195,8161,8143,8128,8134,8154,8167,8126,8.592407703399658
87,8145,8150,8134,8122,8112,8176,8205,8150,8064,8149,8151,8127,8166,8129,8.600144624710083
88,8139,8175,8141,8139,8107,8173,8182,8158,8172,8136,8138,8146,8168,8113,8.608148336410522
89,8114,8144,8118,8114,8110,8163,8197,8156,8086,8160,8146,8122,8161,8096,8.616148471832275
90,8127,8159,8124,8119,8095,8161,8197,8150,8112,8151,8138,8137,8157,8101,8.623656511306763
90,8127,8159,8124,8119,8095,8161,8197,8150,8112,8151,8138,8137,8157,8101,8.62465763092041
91,8120,8168,8123,8128,8094,8156,8184,8144,8121,8118,8121,8128,8153,8086,8.631656169891357
91,8120,8168,8123,8128,8094,8156,8184,8144,8121,8118,8121,8128,8153,8086,8.632657766342163
92,8123,8157,8120,8126,8119,8159,8188,8143,8028,8123,8129,8113,8151,8087,8.640658378601074
93,8139,8178,8143,8139,8112,8159,8185,8157,8159,8125,8131,8159,8161,8107,8.646656513214111
93,8139,8178,8143,8139,8112,8159,8185,8157,8159,8125,8131,8159,8161,8107,8.647658348083496
94,8128,8146,8124,8134,8125,8161,8209,8159,8108,8150,8153,8126,8161,8118,8.654657363891602
94,8128,8146,8124,8134,8125,8161,8209,8159,8108,8150,8153,8126,8161,8118,8.655657291412354
95,8144,8152,8123,8133,8115,8164,8202,8156,8124,8134,8157,8135,8167,8131,8.662656545639038
95,8144,8152,8123,8133,8115,8164,8202,8156,8124,8134,8157,8135,8167,8131,8.663656949996948
96,8133,8154,8140,8122,8097,8149,8181,8151,8167,8123,8162,8160,8172,8121,8.670658588409424
96,8133,8154,8140,8122,8097,8149,8181,8151,8167,8123,8162,8160,8172,8121,8.67165732383728
97,8143,8139,8145,8129,8114,8156,8205,8153,8101,8168,8175,8142,8164,8122,8.679637432098389
98,8168,8166,8148,8145,8096,8165,8201,8160,8213,8154,8147,8161,8159,8123,8.687642574310303
99,8123,8137,8117,8120,8100,8145,8184,8143,8116,8135,8155,8131,8154,8102,8.695642471313477
100,8126,8150,8121,8132,8117,8141,8175,8150,8122,8146,8165,8148,8163,8118,8.70337462425232
101,8151,8164,8130,8145,8105,8157,8182,8162,8212,8148,8151,8162,8161,8124,8.71039891242981
102,8147,8131,8108,8129,8108,8166,8201,8149,8094,8148,8154,8120,8150,8116,8.71837592124939
103,8139,8158,8117,8139,8106,8158,8182,8149,8184,8132,8146,8160,8160,8120,8.726598501205444
104,8127,8147,8117,8145,8120,8152,8192,8158,8162,8156,8159,8154,8166,8118,8.73459792137146
105,8171,8153,8129,8157,8122,8161,8210,8165,8167,8168,8166,8150,8168,8143,8.742374181747437
106,8169,8168,8137,8149,8113,8161,8193,8158,8244,8145,8170,8165,8166,8153,8.750618696212769
107,8141,8143,8112,8138,8127,8159,8192,8148,8138,8155,8189,8131,8158,8144,8.758644580841064
108,8161,8170,8122,8153,8114,8164,8194,8160,8230,8149,8168,8159,8165,8145,8.766338109970093
109,8144,8150,8114,8143,8118,8164,8201,8161,8193,8159,8174,8141,8161,8134,8.773337602615356
110,8145,8137,8105,8143,8125,8154,8194,8152,8137,8163,8185,8132,8152,8131,8.78125
111,8140,8153,8112,8144,8110,8145,8183,8148,8201,8139,8167,8157,8154,8118,8.789374828338623
112,8124,8137,8107,8133,8134,8157,8203,8152,8102,8151,8183,8127,8153,8114,8.797441959381104
113,8146,8166,8120,8146,8138,8165,8197,8173,8197,8133,8181,8161,8162,8129,8.80546498298645
114,8148,8156,8118,8149,8137,8157,8207,8174,8196,8140,8179,8155,8167,8126,8.813475370407104
115,8167,8164,8129,8158,8146,8163,8220,8162,8159,8178,8190,8143,8163,8147,8.821375370025635
116,8165,8190,8136,8162,8132,8164,8200,8162,8254,8157,8185,8170,8159,8153,8.829174280166626
117,8145,8152,8106,8148,8141,8158,8200,8152,8138,8155,8187,8140,8153,8135,8.836174011230469
118,8166,8172,8122,8153,8132,8156,8186,8147,8184,8153,8181,8168,8163,8143,8.844373941421509
119,8159,8171,8140,8151,8129,8153,8188,8147,8188,8164,8202,8165,8167,8145,8.852375507354736
120,8174,8161,8144,8171,8154,8158,8213,8164,8166,8183,8221,8150,8163,8159,8.860374212265015
121,8188,8185,8152,8179,8150,8161,8209,8181,8299,8162,8196,8177,8169,8165,8.868529558181763
122,8160,8157,8131,8144,8155,8167,8213,8167,8177,8164,8190,8136,8166,8151,8.87653112411499
123,8161,8169,8132,8143,8144,8168,8198,8163,8193,8153,8179,8156,8160,8149,8.884546995162964
124,8144,8158,8122,8140,8135,8158,8192,8155,8203,8153,8173,8163,8152,8136,8.891910314559937
125,8139,8139,8107,8136,8138,8163,8205,8147,8106,8165,8183,8140,8156,8134,8.89991807937622
126,8148,8168,8129,8142,8120,8166,8189,8158,8202,8151,8178,8174,8164,8130,8.907374620437622
127,8148,8154,8133,8135,8142,8173,8198,8162,8153,8186,8194,8151,8154,8136,8.915665864944458
240,8174,8176,8148,8153,8156,8179,8208,8169,8228,8188,8191,8164,8161,8161,8.92275857925415
240,8174,8176,8148,8153,8156,8179,8208,8169,8228,8188,8191,8164,8161,8161,8.923750877380371
0,8160,8174,8149,8166,8156,8170,8215,8174,8273,8178,8190,8166,8172,8145,8.931758403778076
1,8163,8157,8141,8171,8176,8183,8229,8178,8193,8210,8217,8143,8169,8149,8.938778638839722
1,8163,8157,8141,8171,8176,8183,8229,8178,8193,8210,8217,8143,8169,8149,8.93978762626648
2,8179,8187,8145,8169,8163,8193,8212,8174,8304,8197,8202,8179,8170,8166,8.9474458694458
3,8146,8157,8116,8140,8154,8179,8214,8156,8199,8186,8185,8144,8157,8146,8.955441236495972
3,8146,8157,8116,8140,8154,8179,8214,8156,8199,8186,8185,8144,8157,8146,8.956439971923828
4,8167,8167,8126,8146,8149,8184,8215,8169,8201,8187,8179,8145,8155,8152,8.963561296463013
5,8182,8177,8144,8150,8156,8194,8213,8180,8260,8190,8180,8160,8165,8159,8.970375061035156
6,8168,8156,8133,8145,8177,8192,8219,8161,8137,8198,8184,8134,8163,8159,8.978478908538818
7,8167,8181,8137,8152,8156,8191,8199,8158,8210,8161,8161,8165,8161,8155,8.98647141456604
8,8146,8150,8117,8135,8155,8187,8198,8156,8131,8160,8166,8141,8152,8133,8.994479417800903
9,8151,8151,8116,8138,8155,8186,8194,8153,8104,8166,8176,8152,8155,8137,9.002375602722168
10,8146,8174,8131,8144,8138,8192,8191,8152,8179,8155,8177,8177,8168,8151,9.010583877563477
11,8154,8160,8131,8138,8153,8207,8214,8150,8105,8184,8193,8145,8166,8166,9.018372297286987
12,8175,8180,8150,8149,8149,8202,8196,8154,8201,8182,8179,8175,8164,8169,9.025904178619385
12,8175,8180,8150,8149,8149,8202,8196,8154,8201,8182,8179,8175,8164,8169,9.02689790725708
13,8144,8157,8146,8146,8159,8192,8192,8147,8142,8181,8183,8154,8161,8145,9.03390383720398
13,8144,8157,8146,8146,8159,8192,8192,8147,8142,8181,8183,8154,8161,8145,9.034902095794678
14,8154,8161,8154,8154,8173,8207,8204,8150,8128,8178,8189,8149,8168,8152,9.041374683380129
15,8153,8175,8148,8153,8154,8204,8186,8152,8197,8158,8179,8166,8164,8151,9.050359010696411
16,8129,8142,8113,8138,8149,8183,8177,8138,8057,8174,8180,8125,8152,8135,9.057272911071776
17,8144,8167,8134,8147,8142,8179,8173,8143,8152,8164,8167,8157,8170,8145,9.065279245376589
18,8135,8156,8143,8141,8153,8196,8190,8149,8159,8170,8179,8154,8172,8140,9.07337498664856
19,8140,8149,8132,8142,8158,8210,8185,8151,8103,8178,8181,8145,8157,8138,9.081264972686768
19,8140,8149,8132,8142,8158,8210,8185,8151,8103,8178,8181,8145,8157,8138,9.082279443740845
20,8139,8164,8133,8142,8138,8198,8157,8146,8154,8148,8154,8162,8156,8126,9.089348316192629
21,8129,8138,8120,8132,8155,8201,8180,8131,8044,8149,8163,8128,8156,8115,9.09734034538269
22,8146,8164,8132,8144,8152,8221,8193,8147,8133,8135,8155,8155,8161,8125,9.104336023330688
23,8137,8157,8125,8134,8151,8224,8192,8154,8129,8149,8140,8142,8161,8119,9.112353801727297
24,8149,8155,8132,8134,8166,8228,8187,8137,8077,8166,8147,8131,8160,8129,9.119884729385376
25,8162,8183,8161,8151,8158,8236,8175,8139,8193,8140,8154,8172,8167,8139,9.127904415130615
26,8161,8158,8158,8152,8182,8249,8193,8142,8115,8172,8174,8144,8164,8146,9.135903120040894
27,8174,8180,8165,8157,8185,8256,8176,8141,8176,8176,8161,8162,8159,8151,9.143906116485596
28,8156,8170,8150,8148,8171,8246,8167,8135,8158,8150,8144,8152,8152,8122,9.151907444000244
29,8165,8158,8146,8154,8175,8248,8184,8137,8071,8153,8150,8130,8157,8128,9.160377740859984
30,8175,8189,8169,8165,8163,8256,8172,8152,8201,8154,8158,8171,8173,8143,9.167376279830933
31,8160,8167,8152,8150,8177,8257,8182,8150,8140,8182,8180,8147,8166,8137,9.175050735473633
32,8175,8179,8148,8156,8178,8252,8176,8145,8167,8168,8165,8158,8156,8142,9.183590412139893
33,8153,8173,8149,8153,8172,8242,8163,8138,8154,8153,8158,8154,8156,8124,9.191591262817385
34,8162,8165,8159,8164,8188,8251,8177,8145,8086,8186,8182,8136,8163,8127,9.199377298355104
35,8195,8189,8174,8173,8172,8258,8171,8154,8230,8176,8173,8174,8168,8147,9.207377433776855
36,8160,8152,8149,8144,8176,8258,8170,8139,8146,8176,8185,8144,8158,8144,9.21537947654724
37,8168,8171,8155,8156,8174,8249,8157,8147,8158,8172,8185,8154,8158,8150,9.223625421524048
38,8179,8186,8155,8165,8164,8236,8153,8147,8192,8159,8160,8160,8159,8140,9.23145604133606
39,8172,8160,8134,8153,8182,8242,8172,8137,8089,8162,8159,8134,8156,8137,9.238483667373655
40,8169,8175,8145,8153,8172,8242,8169,8149,8184,8148,8153,8172,8162,8139,9.24648094177246
41,8148,8150,8141,8144,8178,8235,8178,8144,8111,8167,8166,8152,8159,8128,9.25437831878662
41,8148,8150,8141,8144,8178,8235,8178,8144,8111,8167,8166,8152,8159,8128,9.25489068031311
42,8172,8171,8160,8167,8189,8250,8172,8146,8142,8168,8175,8161,8165,8148,9.262378931045532
43,8180,8191,8175,8179,8192,8256,8162,8157,8245,8167,8181,8179,8174,8162,9.27037239074707
44,8175,8167,8156,8176,8199,8254,8178,8157,8162,8204,8197,8145,8168,8166,9.278367280960085
45,8173,8183,8155,8176,8167,8255,8161,8154,8230,8182,8171,8168,8161,8158,9.2867329120636
46,8147,8161,8152,8159,8161,8265,8164,8148,8157,8174,8170,8145,8154,8144,9.29388189315796
47,8177,8174,8174,8174,8171,8289,8183,8168,8186,8198,8188,8157,8165,8166,9.300898790359495
48,8178,8184,8179,8174,8166,8289,8176,8182,8288,8202,8186,8179,8169,8162,9.308910369873049
49,8159,8153,8156,8152,8170,8278,8175,8161,8157,8211,8177,8137,8155,8150,9.31737470626831
50,8173,8184,8172,8163,8146,8291,8164,8158,8229,8193,8165,8170,8166,8165,9.32537579536438
51,8156,8163,8155,8159,8133,8298,8164,8161,8187,8190,8182,8157,8165,8152,9.332918167114258
51,8156,8163,8155,8159,8133,8298,8164,8161,8187,8190,8182,8157,8165,8152,9.333916664123535
52,8160,8153,8140,8153,8126,8289,8155,8151,8124,8185,8168,8149,8150,8146,9.340922117233276
52,8160,8153,8140,8153,8126,8289,8155,8151,8124,8185,8168,8149,8150,8146,9.341918230056764
53,8156,8175,8156,8154,8119,8284,8148,8152,8201,8181,8169,8176,8158,8153,9.349375247955322
54,8151,8152,8151,8162,8152,8294,8173,8164,8136,8218,8204,8144,8167,8159,9.35737442970276
55,8174,8171,8157,8180,8148,8297,8163,8174,8215,8197,8091,8164,8160,8160,9.36537480354309
56,8154,8162,8152,8172,8145,8293,8165,8163,8156,8188,7928,8153,8154,8144,9.372396230697632
57,8158,8165,8155,8170,8156,8298,8176,8166,8109,8210,7877,8153,8167,8158,9.380394697189333
58,8167,8186,8158,8168,8138,8284,8160,8180,8216,8199,7881,8179,8172,8158,9.38837456703186
59,8158,8158,8139,8157,8150,8270,8169,8172,8098,8215,7883,8141,8156,8147,9.39590048789978
60,8166,8170,8144,8167,8143,8257,8160,8157,8129,8196,7860,8161,8156,8151,9.40389084815979
61,8139,8150,8120,8152,8132,8230,8147,8143,8086,8175,7862,8151,8156,8126,9.411951780319214
62,8143,8146,8119,8151,8144,8224,8148,8152,8018,8176,7887,8140,8157,8124,9.41996693611145
63,8157,8174,8151,8165,8135,8225,8143,8167,8145,8161,7897,8176,8166,8135,9.42850112915039
64,8139,8139,8131,8145,8136,8219,8154,8157,8053,8182,7921,8138,8158,8131,9.435375213623049
65,8146,8160,8132,8147,8116,8214,8135,8161,8095,8172,7930,8156,8159,8133,9.443374395370483
66,8144,8166,8139,8158,8115,8217,8138,8170,8120,8166,7948,8166,8165,8130,9.451364755630491
67,8156,8152,8134,8162,8145,8223,8162,8171,8061,8184,7972,8147,8162,8147,9.459362030029297
68,8151,8168,8133,8161,8132,8210,8145,8177,8163,8164,7962,8176,8160,8144,9.46737027168274
69,8125,8143,8113,8151,8127,8205,8153,8172,8071,8171,7970,8146,8158,8126,9.474983930587769
70,8142,8164,8121,8158,8118,8208,8149,8168,8104,8165,7970,8163,8167,8142,9.483454465866089
71,8132,8159,8121,8135,8112,8192,8129,8153,8104,8149,7969,8162,8159,8130,9.491452693939207
72,8129,8142,8109,8133,8127,8182,8131,8142,7993,8156,7989,8135,8150,8122,9.499374628067017
73,8140,8176,8123,8156,8109,8179,8116,8154,8117,8153,7997,8174,8168,8136,9.506338834762571
