COUNTER,F3,FC5,AF3,F7,T7,P7,O1,O2,P8,T8,F8,AF4,FC6,F4,Timestamp
85, 8088, 8143, 8140, 8059, 8126, 8156, 8099, 8186, 8165, 8131, 8130, 8114, 8122, 8078,0.02741837501525879
86, 8097, 8143, 8102, 8084, 8132, 8164, 8130, 8157, 8175, 8143, 8138, 8111, 8129, 8071,0.02841925621032715
87, 8115, 8142, 8143, 8071, 8130, 8165, 8127, 8176, 8157, 8118, 8111, 8114, 8116, 8083,0.0438838005065918
88, 8103, 8141, 8129, 8059, 8123, 8170, 8125, 8169, 8134, 8096, 8093, 8103, 8098, 8069,0.0438838005065918
89, 8087, 8123, 8089, 8053, 8119, 8158, 8124, 8150, 8125, 8094, 8080, 8077, 8080, 8042,0.05881524085998535
90, 8085, 8131, 8125, 8047, 8123, 8164, 8119, 8189, 8138, 8096, 8070, 8080, 8069, 8048,0.05881524085998535
91, 8079, 8133, 8082, 8068, 8135, 8170, 8131, 8153, 8169, 8115, 8092, 8071, 8086, 8037,0.07351517677307129
92, 8087, 8133, 8108, 8060, 8128, 8158, 8111, 8165, 8132, 8089, 8087, 8070, 8081, 8043,0.08900094032287598
93, 8097, 8158, 8131, 8084, 8119, 8152, 8094, 8163, 8104, 8081, 8095, 8082, 8082, 8057,0.08900094032287598
94, 8095, 8158, 8117, 8111, 8120, 8143, 8091, 8138, 8110, 8096, 8105, 8077, 8089, 8052,0.10490822792053223
95, 8083, 8141, 8142, 8089, 8125, 8170, 8107, 8187, 8111, 8104, 8077, 8072, 8078, 8062,0.10590934753417969
96, 8061, 8107, 8084, 8086, 8123, 8196, 8155, 8159, 8148, 8139, 8070, 8049, 8081, 8059,0.10590934753417969
97, 8054, 8085, 8098, 8057, 8101, 8185, 8145, 8164, 8156, 8135, 8061, 8048, 8072, 8064,0.12149190902709961
98, 8063, 8099, 8103, 8036, 8102, 8183, 8123, 8178, 8159, 8130, 8062, 8071, 8079, 8067,0.12149190902709961
99, 8081, 8104, 8080, 8044, 8112, 8162, 8108, 8147, 8151, 8125, 8074, 8079, 8093, 8056,0.1366269588470459
100, 8096, 8116, 8143, 8040, 8098, 8142, 8076, 8168, 8111, 8086, 8087, 8097, 8081, 8053,0.13762640953063965
101, 8090, 8130, 8108, 8070, 8109, 8146, 8086, 8142, 8118, 8096, 8108, 8087, 8087, 8036,0.1517345905303955
102, 8091, 8140, 8118, 8073, 8131, 8150, 8101, 8165, 8115, 8097, 8081, 8076, 8077, 8050,0.1666579246520996
103, 8089, 8148, 8138, 8076, 8133, 8161, 8110, 8179, 8099, 8084, 8071, 8081, 8064, 8060,0.1666579246520996
104, 8077, 8131, 8098, 8098, 8127, 8170, 8129, 8137, 8109, 8099, 8103, 8074, 8080, 8056,0.18283939361572266
105, 8083, 8122, 8145, 8084, 8122, 8191, 8146, 8182, 8126, 8115, 8103, 8090, 8098, 8093,0.18283939361572266
106, 8076, 8108, 8109, 8070, 8118, 8191, 8166, 8169, 8166, 8149, 8113, 8084, 8118, 8086,0.19781088829040527
107, 8077, 8101, 8099, 8034, 8113, 8163, 8148, 8163, 8177, 8161, 8139, 8084, 8124, 8073,0.19781088829040527
108, 8092, 8117, 8124, 8018, 8114, 8171, 8140, 8182, 8182, 8166, 8158, 8108, 8134, 8091,0.2138826847076416
109, 8082, 8107, 8080, 8018, 8111, 8164, 8141, 8145, 8187, 8166, 8152, 8092, 8131, 8068,0.2138826847076416
110, 8070, 8104, 8111, 7982, 8093, 8141, 8103, 8170, 8153, 8133, 8145, 8097, 8117, 8056,0.2294013500213623
111, 8076, 8112, 8088, 7985, 8093, 8137, 8098, 8153, 8152, 8141, 8189, 8113, 8148, 8062,0.2294013500213623
112, 8092, 8106, 8090, 7986, 8097, 8138, 8109, 8152, 8160, 8148, 8205, 8113, 8165, 8080,0.2454369068145752
113, 8093, 8116, 8123, 7981, 8103, 8155, 8112, 8179, 8160, 8146, 8196, 8122, 8163, 8090,0.2454369068145752
114, 8095, 8116, 8089, 7997, 8117, 8158, 8114, 8141, 8178, 8170, 8224, 8133, 8188, 8085,0.2614634037017822
115, 8101, 8117, 8124, 7986, 8111, 8150, 8098, 8171, 8164, 8154, 8223, 8147, 8175, 8087,0.2614634037017822
116, 8073, 8128, 8094, 7997, 8112, 8151, 8109, 8161, 8158, 8142, 8196, 8121, 8147, 8055,0.27767157554626465
117, 8052, 8122, 8082, 7995, 8125, 8142, 8110, 8144, 8145, 8136, 8166, 8092, 8123, 8037,0.27767157554626465
118, 8058, 8116, 8112, 7973, 8125, 8141, 8094, 8169, 8121, 8118, 8151, 8099, 8107, 8046,0.29281044006347656
119, 8053, 8109, 8067, 7987, 8120, 8133, 8090, 8127, 8111, 8123, 8153, 8090, 8113, 8031,0.29281044006347656
120, 8063, 8124, 8115, 7994, 8116, 8139, 8088, 8155, 8093, 8123, 8145, 8104, 8113, 8052,0.3088366985321045
121, 8079, 8140, 8111, 8020, 8128, 8160, 8114, 8160, 8120, 8154, 8183, 8126, 8141, 8077,0.3088366985321045
122, 8075, 8124, 8093, 8022, 8125, 8151, 8107, 8145, 8125, 8156, 8198, 8121, 8149, 8068,0.3248600959777832
123, 8064, 8123, 8130, 8006, 8113, 8158, 8089, 8175, 8095, 8127, 8156, 8109, 8119, 8058,0.3248600959777832
124, 8047, 8109, 8080, 8019, 8121, 8172, 8122, 8142, 8115, 8147, 8138, 8082, 8108, 8048,0.3408687114715576
125, 8037, 8094, 8100, 8006, 8120, 8172, 8132, 8164, 8116, 8151, 8118, 8074, 8095, 8056,0.3408687114715576
126, 8031, 8094, 8089, 8007, 8109, 8184, 8138, 8161, 8126, 8167, 8118, 8067, 8103, 8048,0.3564724922180176
127, 8031, 8076, 8060, 8003, 8103, 8178, 8139, 8143, 8146, 8179, 8116, 8052, 8112, 8040,0.3564724922180176
236, 8035, 8074, 8101, 7979, 8101, 8166, 8119, 8179, 8135, 8155, 8101, 8067, 8108, 8056,0.3715982437133789
0, 8034, 8073, 8065, 7987, 8099, 8149, 8110, 8142, 8138, 8150, 8117, 8069, 8116, 8038,0.3715982437133789
1, 8046, 8075, 8089, 7972, 8084, 8133, 8082, 8160, 8130, 8128, 8113, 8077, 8111, 8033,0.3874192237854004
2, 8052, 8101, 8091, 7977, 8088, 8134, 8081, 8172, 8132, 8123, 8128, 8095, 8114, 8030,0.3874192237854004
3, 8058, 8117, 8078, 8001, 8101, 8129, 8092, 8141, 8122, 8131, 8158, 8101, 8115, 8021,0.40274906158447266
4, 8064, 8126, 8137, 8002, 8103, 8142, 8083, 8167, 8092, 8116, 8141, 8108, 8097, 8035,0.40274906158447266
5, 8052, 8119, 8098, 8031, 8120, 8163, 8103, 8142, 8110, 8124, 8123, 8088, 8100, 8031,0.4178121089935303
6, 8045, 8111, 8108, 8037, 8126, 8171, 8120, 8164, 8121, 8128, 8125, 8082, 8102, 8039,0.4178121089935303
7, 8036, 8101, 8106, 8029, 8119, 8181, 8139, 8178, 8131, 8150, 8136, 8086, 8108, 8051,0.4337730407714844
8, 8035, 8077, 8068, 8011, 8110, 8165, 8146, 8147, 8143, 8166, 8129, 8078, 8119, 8049,0.4337730407714844
9, 8048, 8085, 8119, 7986, 8099, 8153, 8122, 8179, 8134, 8144, 8121, 8099, 8123, 8062,0.4489014148712158
10, 8048, 8089, 8083, 8001, 8104, 8152, 8122, 8148, 8149, 8164, 8144, 8098, 8138, 8051,0.4489014148712158
11, 8055, 8074, 8091, 7992, 8100, 8142, 8116, 8157, 8140, 8176, 8130, 8089, 8131, 8054,0.46484827995300293
12, 8064, 8088, 8119, 8003, 8099, 8149, 8115, 8175, 8146, 8176, 8133, 8113, 8138, 8074,0.46484827995300293
13, 8073, 8097, 8091, 8033, 8104, 8133, 8103, 8130, 8165, 8173, 8162, 8121, 8158, 8068,0.48043394088745117
14, 8078, 8103, 8137, 8015, 8096, 8116, 8070, 8166, 8124, 8137, 8150, 8124, 8138, 8060,0.48043394088745117
15, 8071, 8114, 8112, 8031, 8105, 8127, 8087, 8150, 8111, 8144, 8163, 8122, 8142, 8050,0.4955165386199951
16, 8082, 8117, 8126, 8037, 8115, 8130, 8099, 8141, 8116, 8149, 8181, 8130, 8155, 8069,0.4955165386199951
17, 8092, 8124, 8151, 8027, 8107, 8129, 8093, 8163, 8112, 8140, 8179, 8140, 8153, 8073,0.5116672515869141
18, 8075, 8124, 8102, 8041, 8110, 8122, 8096, 8141, 8108, 8145, 8174, 8122, 8143, 8045,0.5116672515869141
19, 8067, 8136, 8141, 8040, 8118, 8135, 8085, 8177, 8090, 8129, 8165, 8126, 8122, 8054,0.5275650024414062
20, 8067, 8135, 8120, 8053, 8120, 8144, 8093, 8154, 8105, 8138, 8183, 8124, 8128, 8048,0.5275650024414062
21, 8072, 8123, 8124, 8055, 8116, 8127, 8089, 8142, 8106, 8134, 8175, 8123, 8124, 8041,0.5429949760437012
22, 8075, 8142, 8156, 8068, 8123, 8141, 8087, 8171, 8107, 8132, 8168, 8134, 8120, 8059,0.5429949760437012
23, 8069, 8136, 8111, 8100, 8125, 8148, 8104, 8145, 8132, 8150, 8174, 8114, 8130, 8055,0.5584101676940918
24, 8069, 8125, 8144, 8086, 8107, 8147, 8103, 8176, 8118, 8132, 8140, 8110, 8112, 8063,0.5584101676940918
25, 8064, 8125, 8120, 8092, 8111, 8161, 8121, 8157, 8123, 8148, 8142, 8112, 8120, 8065,0.5744802951812744
26, 8065, 8116, 8115, 8087, 8122, 8159, 8123, 8142, 8130, 8168, 8159, 8109, 8136, 8069,0.5744802951812744
27, 8075, 8120, 8154, 8082, 8120, 8174, 8126, 8174, 8132, 8166, 8151, 8124, 8130, 8084,0.5905678272247314
28, 8077, 8122, 8109, 8118, 8126, 8181, 8150, 8145, 8154, 8179, 8154, 8124, 8132, 8077,0.5905678272247314
29, 8085, 8135, 8144, 8109, 8128, 8166, 8135, 8178, 8139, 8164, 8153, 8132, 8137, 8090,0.6057355403900146
30, 8087, 8140, 8134, 8110, 8127, 8160, 8136, 8171, 8136, 8166, 8162, 8133, 8149, 8091,0.6057355403900146
31, 8084, 8118, 8109, 8104, 8114, 8147, 8135, 8148, 8141, 8169, 8158, 8124, 8143, 8082,0.6217844486236572
32, 8083, 8106, 8137, 8050, 8096, 8148, 8119, 8183, 8144, 8155, 8150, 8136, 8141, 8093,0.6217844486236572
33, 8095, 8106, 8100, 8051, 8104, 8145, 8118, 8154, 8171, 8171, 8167, 8141, 8169, 8096,0.6376469135284424
34, 8133, 8139, 8156, 8108, 8120, 8138, 8098, 8171, 8165, 8172, 8177, 8171, 8177, 8121,0.6376469135284424
35, 8143, 8168, 8167, 8164, 8128, 8133, 8089, 8164, 8167, 8171, 8202, 8195, 8188, 8119,0.65289306640625
36, 8130, 8155, 8138, 8155, 8121, 8111, 8077, 8142, 8156, 8142, 8200, 8186, 8187, 8095,0.65289306640625
37, 8139, 8173, 8185, 8159, 8111, 8117, 8054, 8178, 8121, 8102, 8166, 8196, 8161, 8100,0.6684479713439941
38, 8154, 8195, 8169, 8227, 8119, 8122, 8062, 8143, 8133, 8122, 8177, 8209, 8167, 8098,0.6684479713439941
39, 8171, 8199, 8214, 8248, 8123, 8112, 8063, 8158, 8124, 8118, 8180, 8234, 8173, 8113,0.6838562488555908
40, 8175, 8212, 8227, 8265, 8126, 8124, 8072, 8164, 8104, 8106, 8163, 8247, 8165, 8110,0.6838562488555908
41, 8172, 8213, 8199, 8291, 8124, 8118, 8070, 8133, 8094, 8099, 8147, 8230, 8143, 8088,0.699887752532959
42, 8188, 8232, 8249, 8307, 8123, 8123, 8061, 8170, 8076, 8073, 8143, 8242, 8137, 8106,0.699887752532959
43, 8204, 8249, 8227, 8349, 8140, 8147, 8088, 8149, 8092, 8084, 8169, 8253, 8166, 8117,0.7154684066772461
44, 8207, 8252, 8254, 8343, 8137, 8144, 8088, 8160, 8084, 8080, 8148, 8250, 8154, 8123,0.7154684066772461
45, 8194, 8254, 8250, 8342, 8126, 8140, 8085, 8162, 8063, 8069, 8124, 8231, 8136, 8121,0.7308838367462158
46, 8192, 8243, 8203, 8363, 8126, 8142, 8084, 8130, 8064, 8070, 8128, 8208, 8142, 8112,0.7308838367462158
47, 8202, 8243, 8247, 8344, 8126, 8165, 8082, 8181, 8080, 8082, 8129, 8226, 8141, 8135,0.7465767860412598
48, 8194, 8237, 8209, 8342, 8139, 8184, 8128, 8161, 8118, 8127, 8151, 8219, 8158, 8140,0.7465767860412598
49, 8193, 8226, 8213, 8336, 8142, 8175, 8140, 8157, 8108, 8114, 8133, 8190, 8148, 8132,0.761591911315918
50, 8184, 8222, 8222, 8329, 8145, 8186, 8132, 8171, 8090, 8088, 8100, 8185, 8126, 8125,0.761591911315918
51, 8169, 8200, 8175, 8315, 8153, 8187, 8142, 8142, 8098, 8114, 8103, 8184, 8140, 8123,0.7774617671966553
52, 8183, 8204, 8220, 8290, 8149, 8182, 8139, 8179, 8101, 8131, 8113, 8203, 8161, 8157,0.7774617671966553
53, 8191, 8211, 8194, 8311, 8152, 8189, 8153, 8160, 8138, 8143, 8127, 8201, 8179, 8162,0.7925734519958496
54, 8181, 8191, 8188, 8292, 8154, 8182, 8152, 8162, 8146, 8136, 8110, 8192, 8168, 8157,0.7925734519958496
55, 8172, 8187, 8205, 8265, 8153, 8181, 8152, 8186, 8144, 8139, 8105, 8195, 8163, 8161,0.807734489440918
56, 8170, 8186, 8164, 8274, 8143, 8166, 8158, 8151, 8162, 8138, 8119, 8182, 8180, 8148,0.8231587409973145
57, 8178, 8191, 8201, 8254, 8139, 8157, 8146, 8181, 8151, 8115, 8104, 8192, 8175, 8155,0.8231587409973145
58, 8183, 8192, 8178, 8253, 8158, 8160, 8154, 8164, 8170, 8166, 8123, 8194, 8182, 8149,0.8390295505523682
59, 8194, 8186, 8176, 8248, 8163, 8153, 8151, 8154, 8179, 8197, 8137, 8190, 8186, 8145,0.8390295505523682
60, 8198, 8201, 8202, 8247, 8160, 8154, 8144, 8182, 8165, 8171, 8125, 8203, 8185, 8147,0.8390295505523682
61, 8191, 8195, 8159, 8258, 8171, 8134, 8136, 8143, 8162, 8163, 8134, 8198, 8183, 8121,0.854637622833252
62, 8196, 8190, 8202, 8222, 8165, 8132, 8112, 8169, 8131, 8136, 8136, 8208, 8166, 8117,0.854637622833252
63, 8201, 8208, 8186, 8230, 8163, 8154, 8129, 8166, 8140, 8139, 8151, 8218, 8183, 8119,0.8707194328308105
64, 8214, 8219, 8185, 8256, 8169, 8145, 8139, 8158, 8155, 8159, 8159, 8218, 8193, 8131,0.8707194328308105
65, 8212, 8229, 8228, 8248, 8169, 8153, 8134, 8182, 8139, 8156, 8150, 8222, 8176, 8148,0.8877952098846436
66, 8190, 8210, 8172, 8244, 8175, 8165, 8149, 8143, 8142, 8163, 8146, 8199, 8171, 8128,0.8877952098846436
67, 8192, 8198, 8199, 8232, 8169, 8162, 8139, 8173, 8139, 8154, 8132, 8196, 8165, 8134,0.9027025699615479
68, 8196, 8216, 8192, 8253, 8167, 8166, 8144, 8171, 8151, 8162, 8145, 8196, 8168, 8135,0.9027025699615479
69, 8183, 8212, 8169, 8260, 8174, 8168, 8149, 8150, 8143, 8157, 8136, 8176, 8158, 8119,0.9179577827453613
70, 8172, 8196, 8194, 8236, 8177, 8186, 8149, 8181, 8132, 8149, 8116, 8178, 8149, 8129,0.9179577827453613
71, 8172, 8190, 8153, 8252, 8186, 8197, 8173, 8149, 8172, 8189, 8144, 8182, 8177, 8135,0.934260368347168
72, 8193, 8212, 8204, 8264, 8193, 8198, 8169, 8180, 8179, 8192, 8153, 8193, 8190, 8154,0.934260368347168
73, 8204, 8232, 8210, 8291, 8204, 8211, 8176, 8187, 8179, 8194, 8151, 8201, 8194, 8154,0.9497988224029541
74, 8205, 8215, 8180, 8287, 8205, 8208, 8200, 8166, 8202, 8214, 8152, 8204, 8195, 8157,0.9648618698120117
75, 8201, 8199, 8211, 8240, 8192, 8214, 8212, 8201, 8214, 8206, 8140, 8209, 8188, 8178,0.9648618698120117
76, 8185, 8187, 8160, 8248, 8189, 8204, 8216, 8161, 8209, 8201, 8131, 8178, 8187, 8153,0.9648618698120117
77, 8188, 8188, 8191, 8243, 8189, 8186, 8194, 8174, 8186, 8189, 8120, 8183, 8179, 8157,0.9807252883911133
78, 8191, 8191, 8203, 8213, 8196, 8201, 8211, 8189, 8219, 8216, 8146, 8214, 8203, 8179,0.9807252883911133
79, 8181, 8179, 8160, 8203, 8194, 8193, 8221, 8161, 8239, 8234, 8163, 8200, 8223, 8167,0.9958798885345459
80, 8191, 8199, 8200, 8223, 8184, 8178, 8196, 8191, 8203, 8212, 8157, 8203, 8209, 8163,0.9958798885345459
81, 8201, 8211, 8180, 8260, 8196, 8179, 8196, 8165, 8221, 8229, 8184, 8216, 8223, 8160,1.0119245052337646
82, 8202, 8203, 8204, 8240, 8198, 8178, 8180, 8173, 8231, 8221, 8181, 8226, 8226, 8167,1.027531623840332
83, 8191, 8203, 8196, 8229, 8193, 8184, 8176, 8180, 8225, 8200, 8163, 8218, 8216, 8158,1.027531623840332
84, 8183, 8186, 8147, 8224, 8196, 8170, 8190, 8153, 8224, 8197, 8158, 8192, 8209, 8140,1.027531623840332
85, 8187, 8189, 8192, 8198, 8187, 8155, 8174, 8193, 8203, 8182, 8144, 8201, 8198, 8150,1.0444550514221191
86, 8189, 8197, 8163, 8222, 8187, 8155, 8169, 8162, 8218, 8208, 8167, 8210, 8221, 8142,1.0444550514221191
87, 8198, 8193, 8180, 8218, 8191, 8157, 8166, 8165, 8223, 8216, 8168, 8215, 8224, 8142,1.059584140777588
88, 8195, 8200, 8197, 8200, 8193, 8168, 8168, 8186, 8208, 8199, 8150, 8212, 8202, 8147,1.0737831592559814
89, 8185, 8190, 8150, 8197, 8190, 8158, 8173, 8151, 8203, 8194, 8152, 8194, 8197, 8132,1.0737831592559814
90, 8188, 8193, 8193, 8179, 8185, 8154, 8165, 8185, 8192, 8176, 8151, 8209, 8193, 8139,1.0908136367797852
91, 8186, 8203, 8163, 8194, 8195, 8171, 8181, 8164, 8213, 8186, 8163, 8205, 8194, 8132,1.091813325881958
92, 8188, 8198, 8162, 8184, 8196, 8170, 8176, 8162, 8218, 8181, 8149, 8189, 8181, 8129,1.091813325881958
93, 8184, 8199, 8182, 8172, 8192, 8168, 8176, 8191, 8220, 8182, 8141, 8197, 8178, 8134,1.105423927307129
94, 8170, 8189, 8140, 8188, 8197, 8161, 8198, 8158, 8234, 8203, 8148, 8182, 8185, 8123,1.1229710578918457
95, 8167, 8188, 8179, 8183, 8198, 8173, 8190, 8185, 8206, 8176, 8115, 8165, 8162, 8133,1.1229710578918457
96, 8158, 8187, 8150, 8199, 8203, 8187, 8195, 8170, 8199, 8172, 8102, 8143, 8152, 8122,1.1229710578918457
97, 8156, 8177, 8143, 8194, 8192, 8172, 8192, 8169, 8197, 8184, 8095, 8127, 8148, 8117,1.1368756294250488
98, 8158, 8180, 8168, 8180, 8184, 8183, 8198, 8191, 8204, 8197, 8083, 8142, 8150, 8137,1.1516835689544678
99, 8157, 8177, 8127, 8202, 8205, 8201, 8230, 8151, 8239, 8219, 8091, 8146, 8169, 8141,1.1516835689544678
100, 8173, 8189, 8177, 8207, 8217, 8214, 8231, 8189, 8240, 8210, 8094, 8158, 8166, 8158,1.1672389507293701
101, 8181, 8194, 8153, 8211, 8211, 8217, 8233, 8183, 8261, 8227, 8107, 8159, 8174, 8156,1.1672389507293701
102, 8184, 8177, 8136, 8182, 8197, 8184, 8211, 8166, 8263, 8226, 8116, 8169, 8193, 8156,1.182034969329834
103, 8191, 8191, 8182, 8164, 8193, 8168, 8181, 8192, 8228, 8199, 8143, 8201, 8206, 8166,1.182034969329834
104, 8197, 8206, 8146, 8206, 8208, 8167, 8185, 8150, 8218, 8205, 8180, 8197, 8214, 8147,1.1979291439056396
105, 8208, 8218, 8183, 8208, 8217, 8176, 8184, 8177, 8208, 8195, 8160, 8197, 8193, 8152,1.1979291439056396
106, 8207, 8229, 8178, 8214, 8227, 8195, 8200, 8181, 8219, 8197, 8150, 8194, 8193, 8155,1.2131166458129883
107, 8203, 8216, 8161, 8227, 8236, 8197, 8203, 8162, 8217, 8201, 8151, 8178, 8192, 8150,1.2131166458129883
108, 8208, 8215, 8198, 8225, 8241, 8218, 8211, 8191, 8210, 8213, 8138, 8181, 8186, 8169,1.2286930084228516
109, 8206, 8200, 8157, 8238, 8243, 8227, 8241, 8158, 8232, 8246, 8144, 8170, 8203, 8167,1.2286930084228516
110, 8208, 8193, 8190, 8231, 8237, 8211, 8231, 8179, 8217, 8231, 8141, 8173, 8195, 8173,1.2447307109832764
111, 8210, 8210, 8193, 8246, 8246, 8218, 8239, 8184, 8228, 8243, 8159, 8185, 8201, 8183,1.2447307109832764
112, 8218, 8203, 8171, 8242, 8241, 8208, 8248, 8168, 8258, 8271, 8170, 8184, 8227, 8190,1.2603950500488281
113, 8229, 8196, 8196, 8202, 8216, 8186, 8218, 8201, 8246, 8242, 8154, 8203, 8229, 8200,1.2603950500488281
114, 8232, 8193, 8147, 8204, 8217, 8171, 8205, 8161, 8239, 8225, 8174, 8212, 8233, 8179,1.275501012802124
115, 8233, 8203, 8183, 8199, 8226, 8173, 8199, 8172, 8221, 8211, 8180, 8211, 8220, 8171,1.275501012802124
116, 8216, 8218, 8193, 8214, 8235, 8196, 8219, 8180, 8220, 8209, 8174, 8196, 8203, 8161,1.2916266918182373
117, 8205, 8210, 8153, 8228, 8238, 8196, 8232, 8153, 8216, 8207, 8164, 8171, 8191, 8149,1.2916266918182373
118, 8216, 8214, 8193, 8214, 8233, 8207, 8220, 8192, 8191, 8198, 8149, 8173, 8181, 8167,1.3074617385864258
119, 8212, 8209, 8163, 8235, 8242, 8221, 8234, 8167, 8219, 8232, 8167, 8165, 8199, 8169,1.3074617385864258
120, 8211, 8192, 8185, 8221, 8243, 8211, 8235, 8181, 8248, 8243, 8172, 8172, 8208, 8188,1.3226323127746582
121, 8221, 8185, 8197, 8199, 8233, 8215, 8241, 8194, 8273, 8251, 8173, 8193, 8229, 8208,1.3226323127746582
122, 8226, 8172, 8158, 8201, 8225, 8204, 8234, 8159, 8281, 8266, 8173, 8184, 8247, 8198,1.3381226062774658
123, 8228, 8176, 8195, 8181, 8216, 8187, 8198, 8193, 8254, 8241, 8168, 8188, 8232, 8199,1.3381226062774658
124, 8224, 8181, 8156, 8184, 8216, 8176, 8191, 8166, 8258, 8236, 8194, 8190, 8241, 8181,1.3539259433746338
125, 8229, 8188, 8176, 8184, 8214, 8168, 8184, 8164, 8241, 8217, 8198, 8197, 8238, 8173,1.3539259433746338
126, 8233, 8215, 8215, 8209, 8227, 8180, 8184, 8181, 8219, 8204, 8196, 8205, 8217, 8177,1.3719558715820312
127, 8232, 8218, 8182, 8246, 8248, 8182, 8197, 8152, 8219, 8221, 8205, 8190, 8216, 8169,1.3719558715820312
236, 8231, 8218, 8218, 8240, 8242, 8195, 8198, 8185, 8199, 8219, 8187, 8195, 8212, 8184,1.3858721256256104
0, 8214, 8208, 8183, 8250, 8231, 8205, 8212, 8163, 8206, 8228, 8183, 8185, 8211, 8176,1.3858721256256104
1, 8210, 8185, 8179, 8237, 8226, 8193, 8204, 8165, 8202, 8215, 8173, 8169, 8200, 8175,1.4019207954406738
2, 8214, 8193, 8196, 8227, 8226, 8206, 8201, 8191, 8203, 8218, 8168, 8178, 8208, 8191,1.4019207954406738
3, 8213, 8192, 8158, 8240, 8226, 8207, 8212, 8155, 8226, 8249, 8177, 8174, 8224, 8183,1.4174668788909912
4, 8219, 8183, 8201, 8210, 8219, 8197, 8200, 8186, 8224, 8236, 8166, 8173, 8209, 8189,1.4174668788909912
5, 8205, 8176, 8163, 8201, 8222, 8199, 8208, 8173, 8242, 8246, 8172, 8157, 8209, 8175,1.43359375
6, 8194, 8171, 8149, 8194, 8214, 8188, 8199, 8166, 8241, 8244, 8162, 8151, 8203, 8158,1.43359375
7, 8200, 8186, 8184, 8186, 8207, 8189, 8188, 8189, 8233, 8224, 8158, 8174, 8199, 8165,1.4489200115203857
8, 8206, 8181, 8144, 8191, 8216, 8183, 8197, 8151, 8247, 8236, 8178, 8172, 8218, 8160,1.4489200115203857
9, 8211, 8176, 8179, 8167, 8209, 8170, 8168, 8180, 8215, 8210, 8164, 8179, 8208, 8160,1.4649035930633545
10, 8203, 8185, 8164, 8177, 8211, 8160, 8154, 8162, 8195, 8184, 8170, 8185, 8199, 8138,1.4649035930633545
11, 8204, 8195, 8162, 8198, 8219, 8146, 8154, 8144, 8187, 8180, 8183, 8182, 8194, 8131,1.480449914932251
12, 8210, 8212, 8204, 8212, 8220, 8170, 8165, 8188, 8181, 8197, 8184, 8191, 8185, 8155,1.480449914932251
13, 8198, 8199, 8162, 8234, 8235, 8194, 8198, 8159, 8201, 8225, 8183, 8176, 8183, 8151,1.4958584308624268
14, 8193, 8180, 8193, 8205, 8234, 8198, 8205, 8176, 8195, 8214, 8152, 8170, 8167, 8159,1.4958584308624268
15, 8189, 8170, 8169, 8186, 8214, 8199, 8214, 8177, 8213, 8223, 8149, 8162, 8172, 8159,1.5109515190124512
16, 8191, 8150, 8144, 8176, 8202, 8178, 8200, 8164, 8229, 8224, 8152, 8155, 8179, 8155,1.5109515190124512
17, 8199, 8166, 8194, 8167, 8205, 8167, 8177, 8189, 8208, 8197, 8150, 8179, 8175, 8165,1.5265610218048096
18, 8196, 8184, 8156, 8184, 8206, 8161, 8177, 8147, 8200, 8192, 8182, 8184, 8184, 8146,1.5265610218048096
19, 8199, 8185, 8184, 8164, 8199, 8156, 8156, 8168, 8181, 8167, 8186, 8189, 8172, 8136,1.5419445037841797
20, 8203, 8195, 8189, 8185, 8219, 8179, 8165, 8178, 8193, 8180, 8188, 8191, 8176, 8139,1.5419445037841797
21, 8205, 8201, 8172, 8229, 8234, 8194, 8185, 8161, 8209, 8213, 8193, 8177, 8187, 8147,1.557114839553833
22, 8201, 8194, 8203, 8206, 8218, 8210, 8190, 8194, 8190, 8204, 8169, 8169, 8167, 8154,1.557114839553833
23, 8184, 8163, 8142, 8178, 8205, 8206, 8212, 8159, 8205, 8213, 8152, 8148, 8158, 8133,1.572800636291504
24, 8193, 8161, 8166, 8173, 8202, 8186, 8204, 8179, 8211, 8210, 8139, 8162, 8159, 8149,1.572800636291504
25, 8208, 8178, 8178, 8193, 8198, 8180, 8179, 8184, 8206, 8201, 8152, 8185, 8176, 8160,1.5879180431365967
26, 8212, 8165, 8147, 8169, 8189, 8152, 8145, 8137, 8186, 8187, 8170, 8177, 8180, 8136,1.5879180431365967
27, 8211, 8180, 8189, 8137, 8188, 8144, 8125, 8168, 8158, 8165, 8168, 8191, 8163, 8134,1.6036944389343262
28, 8199, 8191, 8155, 8178, 8199, 8158, 8147, 8149, 8165, 8174, 8170, 8185, 8168, 8116,1.6036944389343262
29, 8197, 8179, 8170, 8179, 8190, 8159, 8151, 8160, 8158, 8162, 8154, 8164, 8158, 8113,1.619131088256836
30, 8189, 8181, 8179, 8171, 8195, 8172, 8165, 8178, 8175, 8182, 8162, 8160, 8160, 8125,1.619131088256836
31, 8182, 8173, 8148, 8195, 8216, 8181, 8182, 8155, 8201, 8218, 8179, 8160, 8172, 8125,1.6348917484283447
32, 8194, 8177, 8196, 8200, 8207, 8193, 8179, 8190, 8191, 8207, 8159, 8174, 8169, 8144,1.6348917484283447
33, 8190, 8178, 8160, 8213, 8200, 8194, 8201, 8162, 8204, 8219, 8157, 8159, 8181, 8142,1.6495208740234375
34, 8169, 8156, 8158, 8190, 8200, 8178, 8189, 8166, 8187, 8203, 8143, 8146, 8165, 8137,1.6495208740234375
35, 8160, 8144, 8173, 8172, 8194, 8177, 8171, 8185, 8175, 8194, 8137, 8156, 8158, 8142,1.6647663116455078
36, 8169, 8136, 8139, 8179, 8184, 8166, 8181, 8147, 8200, 8222, 8153, 8149, 8184, 8138,1.6808757781982422
37, 8172, 8142, 8174, 8156, 8167, 8162, 8176, 8182, 8194, 8200, 8144, 8151, 8179, 8145,1.6818768978118896
38, 8160, 8141, 8135, 8161, 8168, 8167, 8183, 8172, 8199, 8191, 8151, 8148, 8179, 8136,1.696460485458374
39, 8168, 8137, 8142, 8159, 8169, 8155, 8178, 8172, 8198, 8190, 8154, 8158, 8186, 8140,1.6974461078643799
40, 8175, 8153, 8170, 8151, 8168, 8147, 8170, 8184, 8188, 8176, 8148, 8173, 8183, 8138,1.6974461078643799
41, 8172, 8158, 8130, 8156, 8170, 8130, 8157, 8146, 8190, 8170, 8151, 8160, 8178, 8112,1.7115709781646729
42, 8190, 8171, 8182, 8149, 8174, 8132, 8130, 8179, 8178, 8164, 8151, 8172, 8174, 8127,1.7268881797790527
43, 8196, 8180, 8160, 8168, 8187, 8147, 8141, 8163, 8183, 8182, 8178, 8185, 8196, 8134,1.7268881797790527
44, 8197, 8181, 8154, 8168, 8182, 8142, 8140, 8156, 8173, 8176, 8184, 8191, 8194, 8132,1.7427146434783936
45, 8204, 8202, 8192, 8162, 8177, 8162, 8135, 8184, 8166, 8167, 8178, 8198, 8179, 8137,1.7427146434783936
46, 8196, 8195, 8151, 8173, 8186, 8165, 8152, 8143, 8172, 8178, 8179, 8175, 8180, 8116,1.7577033042907715
47, 8192, 8190, 8191, 8161, 8184, 8152, 8138, 8171, 8136, 8150, 8152, 8175, 8162, 8119,1.7577033042907715
48, 8197, 8198, 8179, 8187, 8190, 8174, 8151, 8165, 8142, 8153, 8156, 8185, 8169, 8124,1.7726869583129883
49, 8203, 8190, 8168, 8196, 8199, 8188, 8172, 8152, 8157, 8166, 8162, 8174, 8170, 8126,1.7726869583129883
50, 8198, 8188, 8199, 8182, 8200, 8195, 8170, 8183, 8143, 8158, 8143, 8162, 8151, 8131,1.7883265018463135
51, 8180, 8174, 8147, 8206, 8203, 8193, 8174, 8150, 8156, 8175, 8140, 8138, 8153, 8111,1.7883265018463135
52, 8181, 8165, 8178, 8187, 8195, 8187, 8168, 8178, 8156, 8173, 8128, 8139, 8148, 8123,1.803849697113037
53, 8179, 8169, 8168, 8172, 8188, 8193, 8186, 8173, 8161, 8182, 8133, 8139, 8153, 8136,1.803849697113037
54, 8165, 8155, 8136, 8168, 8184, 8181, 8181, 8148, 8154, 8185, 8126, 8121, 8153, 8121,1.8198826313018799
55, 8150, 8146, 8166, 8145, 8172, 8173, 8155, 8180, 8141, 8168, 8106, 8118, 8140, 8108,1.8198826313018799
56, 8146, 8137, 8123, 8144, 8166, 8169, 8168, 8147, 8163, 8185, 8122, 8108, 8152, 8096,1.835763931274414
57, 8162, 8139, 8152, 8131, 8163, 8173, 8173, 8173, 8162, 8180, 8126, 8123, 8156, 8116,1.835763931274414
58, 8167, 8147, 8153, 8139, 8168, 8186, 8181, 8180, 8172, 8181, 8132, 8142, 8156, 8117,1.851874589920044
59, 8160, 8138, 8130, 8136, 8161, 8160, 8167, 8149, 8173, 8174, 8134, 8135, 8150, 8105,1.851874589920044
60, 8154, 8150, 8165, 8112, 8152, 8149, 8138, 8175, 8134, 8143, 8126, 8147, 8141, 8112,1.8676178455352783
61, 8153, 8158, 8125, 8129, 8165, 8153, 8144, 8145, 8137, 8152, 8147, 8156, 8159, 8099,1.8676178455352783
62, 8171, 8155, 8161, 8120, 8160, 8144, 8132, 8167, 8140, 8147, 8146, 8168, 8155, 8108,1.882798433303833
63, 8174, 8162, 8172, 8116, 8151, 8145, 8122, 8176, 8141, 8152, 8147, 8176, 8158, 8117,1.882798433303833
64, 8176, 8170, 8146, 8136, 8162, 8143, 8129, 8141, 8148, 8162, 8168, 8176, 8175, 8114,1.8989067077636719
65, 8198, 8187, 8202, 8145, 8173, 8162, 8140, 8182, 8154, 8157, 8179, 8197, 8178, 8138,1.8989067077636719
66, 8189, 8179, 8158, 8150, 8175, 8168, 8158, 8164, 8175, 8183, 8193, 8189, 8191, 8127,1.9144439697265625
67, 8166, 8164, 8153, 8105, 8154, 8145, 8125, 8163, 8140, 8160, 8161, 8164, 8160, 8100,1.9144439697265625
68, 8155, 8177, 8163, 8102, 8143, 8151, 8109, 8165, 8120, 8124, 8138, 8152, 8127, 8080,1.930521011352539
69, 8158, 8177, 8140, 8133, 8154, 8164, 8132, 8135, 8139, 8135, 8153, 8146, 8139, 8072,1.930521011352539
70, 8162, 8178, 8181, 8121, 8157, 8169, 8133, 8176, 8120, 8137, 8150, 8158, 8142, 8092,1.9457550048828125
71, 8154, 8181, 8143, 8137, 8161, 8171, 8134, 8154, 8111, 8144, 8151, 8140, 8136, 8084,1.9457550048828125
72, 8163, 8190, 8165, 8150, 8167, 8172, 8126, 8156, 8101, 8139, 8144, 8137, 8129, 8092,1.9619777202606201
73, 8171, 8206, 8192, 8164, 8175, 8187, 8143, 8178, 8114, 8146, 8149, 8156, 8142, 8110,1.9619777202606201
74, 8154, 8181, 8139, 8171, 8174, 8178, 8163, 8145, 8141, 8160, 8149, 8131, 8146, 8094,1.977515697479248
75, 8142, 8159, 8168, 8139, 8158, 8173, 8149, 8175, 8124, 8141, 8118, 8117, 8125, 8100,1.977515697479248
76, 8148, 8161, 8142, 8153, 8164, 8188, 8168, 8158, 8127, 8155, 8124, 8123, 8134, 8105,1.993605375289917
77, 8164, 8167, 8154, 8166, 8173, 8189, 8176, 8163, 8132, 8162, 8133, 8135, 8139, 8112,1.993605375289917
78, 8162, 8174, 8182, 8159, 8170, 8198, 8170, 8191, 8140, 8162, 8131, 8136, 8140, 8117,2.013756513595581
79, 8149, 8156, 8137, 8159, 8170, 8197, 8169, 8154, 8169, 8185, 8143, 8121, 8161, 8111,2.014758586883545
80, 8157, 8149, 8178, 8142, 8164, 8196, 8156, 8184, 8173, 8184, 8145, 8140, 8168, 8131,2.014758586883545
81, 8155, 8150, 8154, 8148, 8161, 8189, 8162, 8167, 8180, 8203, 8155, 8142, 8175, 8132,2.024799108505249
82, 8154, 8136, 8145, 8136, 8149, 8163, 8145, 8157, 8166, 8194, 8144, 8125, 8171, 8122,2.0405969619750977
83, 8155, 8141, 8168, 8112, 8140, 8166, 8133, 8184, 8163, 8167, 8148, 8141, 8177, 8119,2.0405969619750977
84, 8138, 8134, 8115, 8108, 8141, 8168, 8151, 8152, 8190, 8174, 8166, 8135, 8184, 8100,2.0555830001831055
85, 8143, 8132, 8158, 8092, 8138, 8171, 8150, 8184, 8181, 8158, 8130, 8127, 8158, 8109,2.0555830001831055
86, 8163, 8149, 8154, 8114, 8154, 8177, 8154, 8166, 8178, 8155, 8132, 8139, 8163, 8104,2.070730447769165
87, 8168, 8160, 8146, 8125, 8166, 8156, 8134, 8144, 8130, 8144, 8165, 8154, 8163, 8085,2.070730447769165
88, 8159, 8169, 8182, 8117, 8153, 8147, 8110, 8181, 8065, 8123, 8163, 8164, 8138, 8083,2.0861995220184326
89, 8153, 8153, 8135, 8129, 8146, 8140, 8116, 8148, 8066, 8133, 8158, 8144, 8142, 8072,2.0861995220184326
90, 8158, 8154, 8161, 8116, 8149, 8139, 8105, 8167, 8059, 8118, 8145, 8138, 8137, 8081,2.101743221282959
91, 8148, 8175, 8152, 8137, 8157, 8164, 8119, 8161, 8059, 8121, 8148, 8135, 8132, 8079,2.101743221282959
92, 8136, 8167, 8136, 8148, 8156, 8167, 8129, 8138, 8052, 8120, 8145, 8123, 8120, 8066,2.1170575618743896
93, 8128, 8162, 8168, 8124, 8149, 8174, 8120, 8171, 8029, 8100, 8126, 8124, 8100, 8066,2.1170575618743896
94, 8108, 8157, 8116, 8138, 8158, 8184, 8137, 8144, 8050, 8117, 8117, 8098, 8102, 8049,2.1326773166656494
95, 8107, 8156, 8145, 8134, 8156, 8188, 8132, 8171, 8061, 8118, 8097, 8091, 8095, 8062,2.1326773166656494
96, 8114, 8161, 8149, 8142, 8158, 8201, 8131, 8178, 8078, 8128, 8110, 8110, 8104, 8073,2.147852897644043
97, 8122, 8154, 8132, 8161, 8165, 8195, 8142, 8151, 8088, 8147, 8123, 8113, 8122, 8074,2.147852897644043
98, 8130, 8153, 8177, 8148, 8155, 8201, 8148, 8180, 8072, 8146, 8101, 8117, 8115, 8095,2.1637110710144043
99, 8119, 8138, 8124, 8132, 8140, 8197, 8158, 8152, 8080, 8144, 8098, 8107, 8117, 8082,2.1637110710144043
100, 8115, 8129, 8134, 8091, 8129, 8167, 8129, 8163, 8064, 8106, 8096, 8117, 8113, 8071,2.1787750720977783
101, 8123, 8150, 8143, 8095, 8141, 8168, 8117, 8165, 8061, 8103, 8119, 8136, 8123, 8073,2.1787750720977783
102, 8138, 8156, 8124, 8125, 8157, 8173, 8122, 8141, 8081, 8129, 8141, 8138, 8137, 8071,2.194474220275879
103, 8153, 8175, 8178, 8129, 8156, 8176, 8112, 8185, 8075, 8119, 8134, 8158, 8134, 8080,2.2094993591308594
104, 8147, 8181, 8144, 8146, 8153, 8175, 8117, 8156, 8071, 8128, 8159, 8157, 8147, 8072,2.2094993591308594
105, 8149, 8169, 8158, 8134, 8147, 8171, 8111, 8161, 8049, 8118, 8166, 8159, 8141, 8078,2.2094993591308594
106, 8149, 8185, 8170, 8149, 8157, 8184, 8129, 8179, 8056, 8117, 8158, 8168, 8134, 8078,2.22588849067688
107, 8150, 8200, 8145, 8189, 8171, 8184, 8151, 8150, 8084, 8141, 8159, 8156, 8139, 8067,2.22588849067688
108, 8155, 8205, 8193, 8179, 8162, 8187, 8139, 8182, 8074, 8135, 8148, 8152, 8125, 8083,2.240468978881836
109, 8147, 8195, 8147, 8187, 8167, 8192, 8148, 8150, 8077, 8141, 8155, 8136, 8127, 8077,2.257413387298584
110, 8148, 8189, 8154, 8188, 8178, 8190, 8150, 8157, 8066, 8137, 8151, 8139, 8126, 8086,2.257413387298584
111, 8140, 8190, 8171, 8180, 8173, 8202, 8153, 8187, 8055, 8131, 8144, 8149, 8124, 8093,2.271777391433716
112, 8121, 8168, 8119, 8171, 8161, 8197, 8158, 8147, 8065, 8137, 8132, 8122, 8115, 8059,2.271777391433716
113, 8127, 8173, 8167, 8166, 8162, 8200, 8148, 8178, 8061, 8132, 8114, 8129, 8099, 8068,2.2878661155700684
114, 8131, 8184, 8150, 8205, 8179, 8207, 8167, 8163, 8078, 8157, 8133, 8133, 8116, 8083,2.2878661155700684
115, 8133, 8164, 8145, 8191, 8166, 8185, 8161, 8158, 8073, 8152, 8125, 8119, 8113, 8082,2.3035471439361572
116, 8149, 8161, 8169, 8165, 8152, 8193, 8164, 8188, 8075, 8157, 8117, 8135, 8117, 8099,2.3035471439361572
117, 8157, 8156, 8144, 8187, 8162, 8203, 8196, 8158, 8097, 8181, 8133, 8142, 8143, 8112,2.3205721378326416
118, 8149, 8153, 8188, 8177, 8156, 8198, 8182, 8181, 8080, 8148, 8114, 8135, 8127, 8116,2.3205721378326416
119, 8131, 8147, 8139, 8164, 8153, 8195, 8180, 8170, 8094, 8149, 8115, 8112, 8122, 8084,2.3205721378326416
120, 8129, 8139, 8123, 8153, 8160, 8193, 8187, 8166, 8100, 8162, 8118, 8112, 8126, 8079,2.335697650909424
121, 8146, 8158, 8179, 8165, 8162, 8207, 8186, 8186, 8078, 8151, 8115, 8136, 8127, 8110,2.350776433944702
122, 8153, 8161, 8146, 8188, 8155, 8187, 8184, 8147, 8083, 8152, 8127, 8125, 8139, 8104,2.3517770767211914
123, 8149, 8148, 8166, 8149, 8136, 8158, 8159, 8181, 8078, 8135, 8118, 8128, 8136, 8099,2.3668770790100098
124, 8138, 8138, 8142, 8134, 8137, 8161, 8164, 8169, 8105, 8156, 8125, 8131, 8143, 8093,2.3668770790100098
125, 8145, 8143, 8140, 8144, 8146, 8158, 8172, 8152, 8126, 8181, 8141, 8126, 8149, 8100,2.3835084438323975
126, 8161, 8168, 8183, 8144, 8136, 8164, 8169, 8189, 8112, 8165, 8150, 8152, 8155, 8119,2.3835084438323975
127, 8167, 8167, 8147, 8157, 8138, 8160, 8174, 8150, 8108, 8160, 8169, 8168, 8176, 8109,2.3976497650146484
236, 8175, 8169, 8185, 8150, 8149, 8153, 8158, 8167, 8092, 8146, 8154, 8180, 8170, 8121,2.3986520767211914
0, 8161, 8172, 8168, 8153, 8155, 8162, 8161, 8167, 8108, 8148, 8151, 8173, 8162, 8113,2.3986520767211914
1, 8149, 8152, 8140, 8139, 8148, 8155, 8159, 8150, 8122, 8150, 8160, 8152, 8152, 8086,2.4128596782684326
2, 8138, 8155, 8170, 8118, 8138, 8150, 8134, 8181, 8102, 8131, 8143, 8151, 8134, 8084,2.428892135620117
3, 8130, 8163, 8130, 8145, 8150, 8148, 8132, 8147, 8115, 8143, 8149, 8145, 8144, 8076,2.428892135620117
4, 8155, 8169, 8173, 8143, 8154, 8149, 8131, 8174, 8124, 8146, 8163, 8161, 8147, 8090,2.4445605278015137
5, 8169, 8181, 8179, 8152, 8149, 8152, 8145, 8174, 8123, 8143, 8173, 8172, 8147, 8090,2.4445605278015137
6, 8165, 8189, 8165, 8178, 8149, 8141, 8147, 8140, 8095, 8121, 8167, 8164, 8141, 8079,2.460360288619995
7, 8176, 8209, 8221, 8191, 8157, 8153, 8139, 8177, 8060, 8100, 8167, 8183, 8137, 8096,2.460360288619995
8, 8187, 8207, 8187, 8226, 8171, 8158, 8154, 8149, 8077, 8134, 8202, 8192, 8158, 8099,2.4764244556427
9, 8196, 8206, 8220, 8236, 8164, 8149, 8141, 8166, 8081, 8140, 8213, 8207, 8163, 8117,2.4764244556427
10, 8191, 8220, 8229, 8252, 8164, 8166, 8144, 8179, 8101, 8154, 8231, 8218, 8169, 8123,2.4921133518218994
11, 8182, 8203, 8190, 8268, 8170, 8167, 8163, 8146, 8129, 8175, 8234, 8206, 8177, 8112,2.4921133518218994
12, 8198, 8205, 8246, 8270, 8167, 8172, 8172, 8184, 8129, 8168, 8215, 8228, 8179, 8142,2.5076613426208496
13, 8205, 8213, 8221, 8297, 8175, 8185, 8196, 8166, 8151, 8194, 8236, 8236, 8200, 8153,2.5076613426208496
14, 8193, 8200, 8226, 8282, 8163, 8170, 8183, 8175, 8150, 8190, 8233, 8233, 8196, 8152,2.5225090980529785
15, 8193, 8204, 8235, 8282, 8157, 8168, 8180, 8189, 8151, 8189, 8225, 8245, 8201, 8157,2.5225090980529785
16, 8216, 8204, 8208, 8309, 8182, 8173, 8192, 8154, 8160, 8211, 8236, 8243, 8217, 8161,2.538538932800293
17, 8230, 8205, 8254, 8298, 8189, 8179, 8176, 8181, 8136, 8200, 8230, 8249, 8206, 8180,2.538538932800293
18, 8217, 8194, 8217, 8297, 8178, 8180, 8182, 8153, 8135, 8206, 8233, 8243, 8211, 8172,2.5541021823883057
19, 8212, 8175, 8216, 8272, 8159, 8173, 8176, 8157, 8127, 8189, 8213, 8236, 8204, 8169,2.5541021823883057
20, 8207, 8176, 8220, 8246, 8153, 8188, 8178, 8179, 8138, 8176, 8202, 8232, 8192, 8167,2.5698249340057373
21, 8189, 8165, 8170, 8243, 8160, 8184, 8192, 8152, 8177, 8198, 8207, 8208, 8198, 8149,2.5698249340057373
22, 8186, 8161, 8207, 8214, 8151, 8170, 8174, 8191, 8170, 8187, 8185, 8206, 8190, 8158,2.584947347640991
23, 8181, 8158, 8173, 8212, 8144, 8163, 8171, 8167, 8167, 8179, 8185, 8198, 8194, 8143,2.584947347640991
24, 8189, 8155, 8178, 8208, 8142, 8162, 8173, 8163, 8164, 8171, 8187, 8198, 8195, 8144,2.6004574298858643
25, 8208, 8179, 8215, 8209, 8155, 8173, 8184, 8195, 8182, 8190, 8196, 8220, 8206, 8171,2.6004574298858643
26, 8215, 8186, 8175, 8218, 8165, 8146, 8178, 8158, 8206, 8212, 8221, 8214, 8223, 8158,2.6164917945861816
27, 8223, 8194, 8219, 8196, 8155, 8128, 8144, 8179, 8159, 8171, 8222, 8218, 8203, 8150,2.6164917945861816
28, 8226, 8214, 8210, 8220, 8166, 8151, 8159, 8161, 8141, 8156, 8239, 8228, 8198, 8140,2.632857322692871
29, 8230, 8224, 8206, 8234, 8183, 8156, 8174, 8160, 8148, 8154, 8235, 8229, 8198, 8137,2.632857322692871
30, 8218, 8230, 8223, 8224, 8189, 8163, 8174, 8185, 8132, 8140, 8213, 8221, 8185, 8139,2.648411273956299
31, 8198, 8217, 8173, 8244, 8194, 8170, 8195, 8140, 8136, 8150, 8216, 8194, 8186, 8123,2.648411273956299
32, 8204, 8220, 8221, 8246, 8199, 8184, 8204, 8181, 8155, 8162, 8210, 8204, 8186, 8146,2.663938045501709
33, 8209, 8230, 8211, 8264, 8213, 8206, 8221, 8186, 8201, 8215, 8225, 8216, 8215, 8165,2.663938045501709
34, 8212, 8209, 8190, 8264, 8212, 8192, 8213, 8160, 8210, 8247, 8228, 8209, 8233, 8173,2.6794662475585938
35, 8224, 8201, 8221, 8244, 8194, 8188, 8203, 8186, 8198, 8234, 8217, 8217, 8226, 8190,2.6794662475585938
36, 8224, 8191, 8173, 8241, 8194, 8188, 8218, 8160, 8222, 8235, 8227, 8210, 8233, 8183,2.695556879043579
37, 8214, 8180, 8194, 8205, 8193, 8178, 8198, 8186, 8205, 8212, 8209, 8205, 8215, 8176,2.695556879043579
38, 8201, 8181, 8180, 8198, 8193, 8175, 8196, 8177, 8198, 8207, 8211, 8200, 8208, 8158,2.71169376373291
39, 8211, 8182, 8169, 8207, 8193, 8154, 8204, 8154, 8203, 8205, 8225, 8199, 8215, 8148,2.71169376373291
40, 8224, 8201, 8208, 8198, 8182, 8149, 8188, 8191, 8186, 8176, 8213, 8211, 8204, 8153,2.726747989654541
41, 8208, 8203, 8161, 8203, 8177, 8153, 8193, 8164, 8197, 8177, 8219, 8194, 8208, 8136,2.726747989654541
42, 8201, 8201, 8192, 8188, 8179, 8160, 8197, 8186, 8209, 8185, 8230, 8202, 8219, 8148,2.7418770790100098
43, 8207, 8207, 8194, 8206, 8189, 8176, 8202, 8192, 8230, 8209, 8237, 8213, 8230, 8151,2.7418770790100098
44, 8217, 8206, 8172, 8233, 8194, 8165, 8190, 8165, 8223, 8204, 8229, 8202, 8218, 8134,2.757605791091919
45, 8223, 8221, 8214, 8221, 8187, 8163, 8173, 8196, 8193, 8170, 8230, 8213, 8209, 8148,2.757605791091919
46, 8218, 8218, 8164, 8228, 8195, 8179, 8193, 8156, 8196, 8183, 8261, 8206, 8225, 8144,2.772871971130371
47, 8223, 8214, 8185, 8230, 8205, 8185, 8192, 8161, 8175, 8177, 8246, 8202, 8208, 8141,2.772871971130371
48, 8216, 8224, 8193, 8238, 8212, 8184, 8190, 8172, 8171, 8163, 8232, 8207, 8197, 8132,2.7878639698028564
49, 8205, 8213, 8157, 8234, 8203, 8169, 8184, 8148, 8179, 8160, 8238, 8191, 8198, 8116,2.7878639698028564
50, 8221, 8217, 8206, 8216, 8191, 8175, 8174, 8185, 8172, 8152, 8227, 8195, 8191, 8139,2.8034794330596924
51, 8218, 8222, 8172, 8237, 8211, 8185, 8197, 8163, 8204, 8189, 8244, 8203, 8211, 8147,2.8034794330596924
52, 8203, 8214, 8178, 8226, 8217, 8186, 8198, 8178, 8201, 8200, 8244, 8204, 8207, 8149,2.818551540374756
53, 8196, 8216, 8185, 8228, 8205, 8203, 8201, 8189, 8181, 8190, 8221, 8187, 8186, 8138,2.818551540374756
54, 8190, 8208, 8147, 8243, 8207, 8199, 8213, 8149, 8182, 8186, 8198, 8155, 8175, 8120,2.8346869945526123
55, 8186, 8210, 8189, 8213, 8213, 8204, 8211, 8189, 8175, 8178, 8191, 8164, 8173, 8143,2.8346869945526123
56, 8180, 8212, 8159, 8224, 8222, 8217, 8230, 8171, 8195, 8211, 8219, 8169, 8191, 8144,2.85080885887146
57, 8187, 8201, 8171, 8237, 8213, 8206, 8221, 8169, 8189, 8209, 8203, 8163, 8177, 8139,2.85080885887146
58, 8201, 8211, 8196, 8252, 8213, 8216, 8225, 8192, 8187, 8203, 8194, 8181, 8178, 8157,2.8666839599609375
59, 8216, 8217, 8164, 8267, 8223, 8224, 8247, 8160, 8210, 8230, 8216, 8188, 8207, 8166,2.8666839599609375
60, 8221, 8215, 8206, 8237, 8207, 8218, 8226, 8183, 8189, 8212, 8201, 8190, 8192, 8174,2.8826284408569336
61, 8208, 8207, 8177, 8245, 8198, 8211, 8223, 8163, 8185, 8206, 8201, 8183, 8184, 8158,2.8826284408569336
62, 8224, 8215, 8195, 8261, 8207, 8209, 8228, 8170, 8198, 8210, 8210, 8195, 8197, 8174,2.8973660469055176
63, 8243, 8233, 8226, 8256, 8207, 8220, 8220, 8199, 8210, 8218, 8212, 8209, 8211, 8202,2.8973660469055176
64, 8233, 8205, 8166, 8246, 8197, 8199, 8205, 8155, 8212, 8222, 8213, 8185, 8212, 8180,2.912816286087036
65, 8231, 8193, 8201, 8226, 8194, 8184, 8189, 8180, 8192, 8207, 8200, 8190, 8197, 8179,2.912816286087036
66, 8223, 8198, 8177, 8234, 8203, 8206, 8210, 8173, 8220, 8239, 8214, 8193, 8217, 8179,2.9284257888793945
67, 8214, 8181, 8165, 8214, 8195, 8202, 8207, 8168, 8233, 8244, 8213, 8186, 8227, 8175,2.9284257888793945
68, 8221, 8188, 8198, 8193, 8184, 8184, 8190, 8192, 8211, 8204, 8194, 8197, 8215, 8173,2.944427490234375
69, 8235, 8193, 8162, 8215, 8185, 8167, 8199, 8156, 8212, 8206, 8206, 8193, 8223, 8160,2.944427490234375
70, 8250, 8200, 8200, 8209, 8183, 8173, 8197, 8191, 8210, 8211, 8223, 8210, 8235, 8184,2.9600963592529297
71, 8246, 8210, 8185, 8219, 8197, 8191, 8209, 8187, 8237, 8223, 8242, 8214, 8249, 8187,2.9600963592529297
72, 8242, 8198, 8176, 8220, 8202, 8173, 8200, 8167, 8245, 8222, 8231, 8201, 8241, 8174,2.975698471069336
73, 8246, 8198, 8213, 8205, 8191, 8162, 8177, 8193, 8211, 8200, 8216, 8210, 8222, 8176,2.975698471069336
74, 8248, 8203, 8172, 8221, 8193, 8158, 8184, 8156, 8206, 8200, 8227, 8205, 8225, 8167,2.9916930198669434
75, 8256, 8212, 8211, 8211, 8196, 8156, 8176, 8177, 8190, 8179, 8211, 8213, 8216, 8180,2.9916930198669434
76, 8250, 8212, 8204, 8220, 8200, 8159, 8177, 8167, 8171, 8171, 8210, 8214, 8214, 8173,3.006970167160034
77, 8240, 8197, 8174, 8220, 8199, 8146, 8169, 8144, 8149, 8167, 8210, 8198, 8208, 8146,3.006970167160034
78, 8236, 8212, 8210, 8204, 8202, 8164, 8163, 8181, 8144, 8167, 8204, 8215, 8202, 8155,3.0228447914123535
79, 8231, 8217, 8182, 8234, 8215, 8179, 8185, 8150, 8181, 8196, 8225, 8216, 8217, 8157,3.0228447914123535
80, 8231, 8209, 8213, 8230, 8205, 8154, 8172, 8170, 8172, 8186, 8212, 8198, 8202, 8158,3.037889003753662
81, 8223, 8218, 8197, 8224, 8199, 8148, 8166, 8174, 8166, 8190, 8210, 8198, 8202, 8152,3.037889003753662
82, 8221, 8218, 8165, 8227, 8203, 8154, 8166, 8148, 8167, 8190, 8223, 8206, 8210, 8143,3.0539488792419434
83, 8209, 8210, 8205, 8205, 8193, 8153, 8156, 8181, 8148, 8152, 8199, 8196, 8177, 8144,3.0539488792419434
84, 8181, 8195, 8157, 8206, 8191, 8152, 8181, 8155, 8171, 8172, 8188, 8166, 8172, 8130,3.06947660446167
85, 8193, 8199, 8178, 8195, 8199, 8174, 8191, 8182, 8189, 8200, 8185, 8182, 8187, 8149,3.06947660446167
86, 8205, 8211, 8187, 8211, 8209, 8192, 8198, 8201, 8203, 8210, 8196, 8199, 8196, 8159,3.084843635559082
87, 8189, 8190, 8149, 8221, 8203, 8162, 8196, 8161, 8202, 8211, 8196, 8168, 8187, 8139,3.084843635559082
88, 8184, 8183, 8188, 8184, 8189, 8162, 8184, 8188, 8177, 8197, 8172, 8166, 8172, 8149,3.0998847484588623
89, 8183, 8189, 8158, 8198, 8195, 8179, 8200, 8162, 8186, 8206, 8177, 8164, 8176, 8143,3.1151511669158936
90, 8190, 8195, 8184, 8221, 8193, 8167, 8196, 8168, 8177, 8184, 8173, 8163, 8165, 8146,3.1151511669158936
91, 8194, 8200, 8199, 8225, 8192, 8176, 8206, 8187, 8185, 8184, 8171, 8168, 8173, 8162,3.130783796310425
92, 8191, 8182, 8152, 8212, 8202, 8180, 8221, 8157, 8217, 8215, 8167, 8151, 8187, 8159,3.130783796310425
93, 8196, 8182, 8192, 8186, 8198, 8181, 8204, 8187, 8210, 8202, 8142, 8157, 8170, 8164,3.1317837238311768
94, 8191, 8174, 8157, 8185, 8194, 8184, 8212, 8160, 8223, 8211, 8148, 8160, 8178, 8148,3.1464755535125732
95, 8186, 8154, 8155, 8154, 8186, 8163, 8205, 8158, 8223, 8213, 8151, 8160, 8187, 8146,3.1637535095214844
96, 8192, 8180, 8177, 8151, 8186, 8151, 8186, 8174, 8210, 8193, 8173, 8185, 8200, 8152,3.1637535095214844
97, 8192, 8200, 8149, 8179, 8196, 8143, 8176, 8139, 8193, 8170, 8202, 8190, 8207, 8125,3.1637535095214844
98, 8177, 8204, 8191, 8177, 8195, 8155, 8163, 8180, 8164, 8146, 8177, 8181, 8167, 8119,3.178189516067505
99, 8161, 8195, 8163, 8208, 8206, 8185, 8194, 8169, 8198, 8189, 8167, 8163, 8157, 8124,3.194476842880249
100, 8176, 8184, 8174, 8212, 8213, 8190, 8221, 8166, 8225, 8219, 8167, 8164, 8184, 8146,3.194476842880249
101, 8190, 8192, 8205, 8189, 8207, 8192, 8234, 8197, 8231, 8216, 8157, 8179, 8190, 8164,3.2095015048980713
102, 8174, 8172, 8144, 8181, 8203, 8184, 8247, 8167, 8247, 8226, 8147, 8164, 8173, 8146,3.2095015048980713
103, 8159, 8147, 8166, 8137, 8187, 8173, 8225, 8192, 8224, 8198, 8123, 8162, 8218, 8144,3.2254886627197266
104, 8161, 8151, 8152, 8118, 8181, 8166, 8215, 8170, 8223, 8188, 8138, 8166, 8365, 8138,3.226489782333374
105, 8186, 8166, 8162, 8126, 8182, 8148, 8200, 8156, 8223, 8195, 8155, 8178, 8439, 8151,3.241614818572998
106, 8205, 8182, 8202, 8136, 8180, 8146, 8178, 8186, 8199, 8189, 8164, 8206, 8412, 8172,3.241614818572998
107, 8202, 8184, 8164, 8152, 8188, 8138, 8166, 8155, 8191, 8179, 8196, 8213, 8408, 8151,3.258791446685791
108, 8206, 8203, 8200, 8143, 8197, 8138, 8139, 8175, 8168, 8151, 8197, 8222, 8387, 8148,3.258791446685791
109, 8192, 8210, 8174, 8162, 8201, 8154, 8145, 8154, 8161, 8162, 8189, 8196, 8350, 8135,3.258791446685791
110, 8176, 8179, 8155, 8160, 8191, 8152, 8157, 8140, 8158, 8173, 8173, 8163, 8334, 8121,3.273421049118042
111, 8171, 8168, 8193, 8140, 8184, 8167, 8171, 8186, 8169, 8177, 8157, 8174, 8327, 8134,3.273421049118042
112, 8151, 8159, 8136, 8157, 8192, 8182, 8206, 8154, 8193, 8198, 8148, 8156, 8315, 8119,3.287863254547119
113, 8131, 8145, 8146, 8135, 8183, 8184, 8208, 8179, 8176, 8177, 8107, 8129, 8281, 8109,3.303950071334839
114, 8120, 8134, 8129, 8120, 8174, 8192, 8209, 8187, 8197, 8184, 8104, 8118, 8283, 8106,3.303950071334839
115, 8134, 8129, 8120, 8117, 8173, 8174, 8199, 8168, 8228, 8206, 8129, 8130, 8305, 8113,3.3204612731933594
116, 8154, 8152, 8167, 8102, 8177, 8164, 8180, 8196, 8220, 8194, 8142, 8161, 8309, 8129,3.3204612731933594
117, 8154, 8152, 8116, 8108, 8182, 8160, 8188, 8156, 8230, 8198, 8161, 8153, 8317, 8111,3.3204612731933594
118, 8156, 8151, 8143, 8095, 8172, 8149, 8173, 8173, 8202, 8175, 8151, 8151, 8299, 8105,3.3346338272094727
119, 8158, 8179, 8150, 8116, 8185, 8155, 8167, 8178, 8167, 8156, 8155, 8157, 8284, 8098,3.3498969078063965
120, 8159, 8192, 8134, 8151, 8204, 8157, 8176, 8158, 8169, 8161, 8166, 8154, 8279, 8100,3.3498969078063965
121, 8164, 8201, 8189, 8152, 8201, 8180, 8189, 8195, 8187, 8166, 8165, 8169, 8277, 8124,3.365955352783203
122, 8164, 8196, 8147, 8171, 8214, 8197, 8214, 8158, 8207, 8192, 8176, 8153, 8289, 8116,3.365955352783203
123, 8168, 8184, 8160, 8172, 8223, 8191, 8206, 8167, 8185, 8188, 8154, 8142, 8273, 8129,3.3814857006073
124, 8160, 8183, 8161, 8168, 8210, 8203, 8217, 8177, 8198, 8205, 8141, 8148, 8272, 8147,3.3814857006073
125, 8148, 8164, 8120, 8149, 8199, 8204, 8231, 8149, 8231, 8230, 8148, 8138, 8288, 8140,3.396611213684082
126, 8157, 8160, 8164, 8124, 8199, 8201, 8215, 8186, 8215, 8211, 8140, 8148, 8276, 8144,3.396611213684082
127, 8160, 8156, 8131, 8143, 8196, 8183, 8219, 8159, 8221, 8213, 8145, 8142, 8271, 8133,3.4117913246154785
236, 8159, 8144, 8136, 8113, 8178, 8151, 8194, 8169, 8215, 8195, 8138, 8135, 8261, 8136,3.4117913246154785
0, 8156, 8148, 8144, 8089, 8165, 8145, 8168, 8190, 8203, 8182, 8137, 8152, 8261, 8135,3.4275591373443604
1, 8152, 8145, 8113, 8109, 8168, 8135, 8161, 8159, 8193, 8183, 8152, 8156, 8267, 8111,3.4275591373443604
2, 8161, 8161, 8164, 8103, 8172, 8131, 8148, 8189, 8169, 8156, 8156, 8169, 8250, 8120,3.442685842514038
3, 8167, 8179, 8143, 8124, 8180, 8136, 8165, 8162, 8176, 8161, 8171, 8171, 8245, 8123,3.442685842514038
4, 8180, 8181, 8164, 8138, 8176, 8138, 8169, 8159, 8157, 8153, 8164, 8176, 8237, 8127,3.457972764968872
5, 8184, 8191, 8186, 8144, 8180, 8153, 8166, 8184, 8139, 8148, 8166, 8178, 8234, 8131,3.457972764968872
6, 8175, 8189, 8149, 8166, 8191, 8151, 8168, 8155, 8160, 8163, 8183, 8163, 8240, 8123,3.4740192890167236
7, 8184, 8197, 8202, 8171, 8191, 8156, 8157, 8187, 8159, 8149, 8156, 8172, 8222, 8146,3.4740192890167236
8, 8188, 8197, 8177, 8187, 8195, 8169, 8167, 8168, 8170, 8167, 8150, 8166, 8222, 8146,3.4896905422210693
9, 8186, 8180, 8175, 8182, 8195, 8170, 8163, 8162, 8170, 8184, 8161, 8161, 8227, 8143,3.4896905422210693
10, 8190, 8180, 8200, 8189, 8209, 8194, 8180, 8190, 8182, 8193, 8169, 8183, 8241, 8167,3.5055651664733887
11, 8185, 8170, 8153, 8209, 8225, 8200, 8215, 8157, 8224, 8219, 8175, 8174, 8260, 8167,3.5055651664733887
12, 8173, 8162, 8187, 8175, 8204, 8184, 8204, 8189, 8221, 8207, 8151, 8162, 8237, 8161,3.5216526985168457
13, 8156, 8154, 8160, 8160, 8191, 8183, 8208, 8179, 8228, 8211, 8154, 8154, 8229, 8147,3.5216526985168457
14, 8159, 8136, 8149, 8139, 8191, 8167, 8205, 8168, 8241, 8214, 8156, 8157, 8234, 8146,3.5372087955474854
15, 8170, 8140, 8185, 8116, 8177, 8153, 8181, 8195, 8239, 8201, 8154, 8174, 8236, 8153,3.5372087955474854
16, 8172, 8147, 8145, 8136, 8168, 8143, 8176, 8157, 8240, 8199, 8173, 8174, 8245, 8138,3.5525128841400146
17, 8175, 8159, 8178, 8122, 8163, 8137, 8155, 8175, 8199, 8163, 8167, 8184, 8225, 8137,3.5525128841400146
18, 8169, 8163, 8163, 8118, 8161, 8133, 8145, 8160, 8181, 8150, 8173, 8183, 8217, 8127,3.567608594894409
19, 8180, 8165, 8161, 8133, 8161, 8119, 8138, 8149, 8179, 8150, 8181, 8177, 8216, 8130,3.567608594894409
20, 8195, 8193, 8211, 8155, 8168, 8139, 8139, 8186, 8170, 8146, 8181, 8191, 8211, 8144,3.5828816890716553
21, 8175, 8185, 8164, 8176, 8174, 8144, 8148, 8145, 8169, 8152, 8178, 8169, 8203, 8113,3.5828816890716553
22, 8150, 8160, 8175, 8143, 8165, 8138, 8127, 8167, 8142, 8124, 8137, 8149, 8168, 8107,3.5984716415405273
23, 8146, 8171, 8168, 8159, 8180, 8166, 8150, 8180, 8160, 8141, 8143, 8159, 8177, 8122,3.5985727310180664
24, 8165, 8175, 8171, 8200, 8197, 8178, 8191, 8165, 8189, 8174, 8171, 8173, 8214, 8137,3.613985300064087
25, 8170, 8172, 8212, 8192, 8188, 8182, 8198, 8189, 8188, 8172, 8156, 8184, 8214, 8156,3.613985300064087
26, 8148, 8149, 8149, 8177, 8185, 8173, 8199, 8151, 8202, 8186, 8143, 8164, 8205, 8138,3.6299946308135986
27, 8148, 8142, 8170, 8147, 8183, 8161, 8183, 8180, 8201, 8187, 8141, 8164, 8202, 8144,3.6299946308135986
28, 8161, 8166, 8181, 8161, 8195, 8182, 8195, 8194, 8235, 8215, 8172, 8183, 8231, 8167,3.645230293273926
29, 8171, 8165, 8158, 8178, 8200, 8176, 8199, 8161, 8264, 8238, 8191, 8190, 8249, 8167,3.645230293273926
30, 8177, 8160, 8195, 8149, 8178, 8154, 8175, 8190, 8238, 8205, 8181, 8205, 8240, 8164,3.661775827407837
31, 8174, 8159, 8147, 8150, 8175, 8144, 8177, 8161, 8235, 8196, 8192, 8196, 8243, 8145,3.661775827407837
32, 8183, 8162, 8171, 8141, 8186, 8147, 8165, 8173, 8221, 8186, 8189, 8205, 8228, 8153,3.6769933700561523
33, 8188, 8174, 8187, 8144, 8188, 8160, 8162, 8183, 8208, 8181, 8199, 8223, 8226, 8154,3.6769933700561523
34, 8183, 8167, 8153, 8157, 8184, 8149, 8160, 8155, 8208, 8176, 8207, 8203, 8225, 8131,3.69240665435791
35, 8176, 8170, 8195, 8150, 8187, 8148, 8144, 8189, 8191, 8153, 8184, 8202, 8198, 8136,3.69240665435791
36, 8168, 8175, 8167, 8173, 8202, 8159, 8163, 8162, 8202, 8175, 8197, 8201, 8205, 8135,3.7078535556793213
37, 8175, 8176, 8189, 8181, 8202, 8162, 8167, 8170, 8205, 8189, 8201, 8196, 8209, 8145,3.7078535556793213
38, 8167, 8176, 8192, 8189, 8198, 8177, 8169, 8187, 8204, 8193, 8180, 8183, 8197, 8141,3.7232320308685303
39, 8143, 8152, 8135, 8195, 8197, 8175, 8182, 8154, 8200, 8193, 8164, 8151, 8186, 8118,3.7232320308685303
40, 8136, 8144, 8172, 8168, 8186, 8176, 8182, 8190, 8192, 8182, 8151, 8150, 8180, 8130,3.739842176437378
41, 8135, 8138, 8143, 8163, 8182, 8171, 8188, 8171, 8235, 8209, 8165, 8153, 8203, 8126,3.739842176437378
42, 8153, 8133, 8156, 8140, 8177, 8149, 8162, 8170, 8240, 8202, 8169, 8165, 8210, 8127,3.7552921772003174
43, 8168, 8158, 8182, 8133, 8170, 8145, 8145, 8181, 8206, 8175, 8179, 8190, 8209, 8134,3.770822525024414
44, 8159, 8158, 8142, 8157, 8167, 8130, 8139, 8143, 8187, 8165, 8194, 8185, 8209, 8110,3.770822525024414
45, 8155, 8153, 8186, 8146, 8161, 8121, 8112, 8177, 8158, 8136, 8178, 8184, 8186, 8110,3.770822525024414
46, 8147, 8157, 8160, 8161, 8170, 8143, 8127, 8159, 8166, 8148, 8181, 8168, 8184, 8100,3.7859299182891846
47, 8144, 8157, 8158, 8176, 8184, 8169, 8156, 8160, 8179, 8169, 8172, 8157, 8184, 8105,3.8017845153808594
48, 8148, 8158, 8188, 8180, 8191, 8195, 8179, 8198, 8192, 8189, 8162, 8170, 8184, 8138,3.8017845153808594
49, 8147, 8137, 8142, 8174, 8185, 8183, 8188, 8159, 8214, 8217, 8167, 8161, 8202, 8141,3.8017845153808594
50, 8156, 8138, 8180, 8141, 8165, 8168, 8169, 8185, 8214, 8208, 8163, 8175, 8209, 8149,3.8169023990631104
51, 8166, 8149, 8168, 8157, 8171, 8169, 8174, 8175, 8239, 8215, 8189, 8193, 8224, 8150,3.8328657150268555
52, 8170, 8145, 8166, 8156, 8180, 8145, 8156, 8159, 8234, 8199, 8196, 8196, 8222, 8145,3.8328657150268555
53, 8165, 8161, 8193, 8133, 8170, 8136, 8126, 8178, 8196, 8160, 8182, 8205, 8213, 8138,3.849543571472168
54, 8155, 8170, 8138, 8153, 8170, 8141, 8132, 8141, 8182, 8158, 8193, 8192, 8211, 8112,3.849543571472168
55, 8153, 8171, 8168, 8155, 8170, 8152, 8133, 8173, 8159, 8147, 8184, 8182, 8179, 8111,3.849543571472168
56, 8143, 8170, 8156, 8169, 8173, 8171, 8160, 8170, 8170, 8161, 8182, 8170, 8176, 8105,3.864022970199585
57, 8136, 8154, 8140, 8175, 8172, 8163, 8172, 8151, 8180, 8175, 8176, 8160, 8189, 8108,3.8808646202087402
58, 8134, 8157, 8176, 8167, 8170, 8167, 8167, 8190, 8172, 8171, 8162, 8170, 8183, 8123,3.8808646202087402
59, 8133, 8156, 8139, 8185, 8176, 8183, 8193, 8163, 8192, 8196, 8179, 8160, 8196, 8118,3.895103693008423
60, 8153, 8153, 8175, 8179, 8178, 8195, 8202, 8181, 8191, 8193, 8175, 8164, 8200, 8139,3.895103693008423
61, 8154, 8155, 8163, 8189, 8182, 8201, 8207, 8178, 8203, 8192, 8173, 8173, 8203, 8148,3.910806179046631
62, 8146, 8143, 8141, 8191, 8172, 8184, 8198, 8159, 8221, 8195, 8175, 8175, 8206, 8141,3.910806179046631
63, 8158, 8149, 8184, 8172, 8162, 8186, 8183, 8198, 8224, 8200, 8172, 8187, 8206, 8157,3.910806179046631
64, 8156, 8140, 8133, 8171, 8166, 8179, 8188, 8165, 8239, 8224, 8178, 8169, 8218, 8146,3.926454782485962
65, 8154, 8131, 8151, 8144, 8159, 8160, 8176, 8171, 8223, 8201, 8167, 8168, 8215, 8144,3.9274470806121826
66, 8159, 8146, 8161, 8152, 8164, 8174, 8192, 8180, 8232, 8204, 8185, 8184, 8224, 8147,3.9421215057373047
67, 8163, 8138, 8144, 8169, 8173, 8175, 8206, 8169, 8249, 8224, 8201, 8179, 8228, 8144,3.9572207927703857
68, 8163, 8131, 8180, 8148, 8166, 8170, 8187, 8200, 8236, 8200, 8187, 8189, 8215, 8157,3.9572207927703857
69, 8156, 8131, 8130, 8151, 8170, 8162, 8187, 8154, 8252, 8208, 8202, 8192, 8229, 8147,3.9724032878875732
70, 8157, 8137, 8151, 8134, 8169, 8149, 8172, 8165, 8239, 8203, 8201, 8192, 8222, 8141,3.9724032878875732
71, 8156, 8145, 8169, 8135, 8167, 8156, 8166, 8181, 8218, 8192, 8196, 8196, 8209, 8131,3.987837076187134
72, 8165, 8146, 8141, 8161, 8178, 8152, 8171, 8151, 8224, 8189, 8204, 8196, 8213, 8119,3.987837076187134
73, 8178, 8169, 8185, 8159, 8178, 8149, 8164, 8185, 8218, 8166, 8198, 8212, 8207, 8136,4.0039215087890625
74, 8172, 8176, 8150, 8170, 8177, 8145, 8173, 8160, 8223, 8175, 8206, 8203, 8211, 8129,4.0039215087890625
75, 8174, 8164, 8169, 8164, 8170, 8140, 8162, 8162, 8201, 8174, 8199, 8196, 8195, 8132,4.0254786014556885
76, 8178, 8177, 8188, 8172, 8170, 8159, 8163, 8177, 8192, 8174, 8203, 8206, 8186, 8143,4.02647852897644
77, 8171, 8178, 8149, 8194, 8177, 8164, 8176, 8155, 8215, 8190, 8214, 8201, 8196, 8139,4.02647852897644
78, 8169, 8176, 8188, 8188, 8176, 8167, 8168, 8194, 8204, 8177, 8197, 8200, 8185, 8149,4.035539627075195
79, 8163, 8170, 8154, 8203, 8182, 8175, 8179, 8166, 8201, 8179, 8194, 8179, 8176, 8129,4.051729440689087
80, 8157, 8159, 8161, 8192, 8181, 8171, 8180, 8163, 8193, 8176, 8180, 8177, 8165, 8124,4.051729440689087
81, 8147, 8167, 8184, 8181, 8180, 8179, 8194, 8189, 8204, 8184, 8169, 8191, 8167, 8137,4.066738605499268
82, 8135, 8159, 8135, 8193, 8180, 8173, 8211, 8153, 8219, 8196, 8165, 8160, 8170, 8121,4.066738605499268
83, 8131, 8150, 8167, 8168, 8166, 8169, 8186, 8186, 8182, 8164, 8134, 8147, 8146, 8119,4.082611083984375
84, 8122, 8145, 8145, 8168, 8167, 8186, 8193, 8177, 8192, 8169, 8141, 8155, 8154, 8117,4.082611083984375
85, 8132, 8147, 8150, 8170, 8175, 8190, 8209, 8172, 8222, 8184, 8156, 8166, 8163, 8131,4.09804105758667
86, 8142, 8155, 8175, 8175, 8173, 8192, 8213, 8189, 8224, 8188, 8146, 8169, 8157, 8141,4.09804105758667
87, 8142, 8143, 8139, 8191, 8166, 8183, 8216, 8154, 8229, 8208, 8151, 8159, 8171, 8128,4.113628387451172
88, 8174, 8156, 8197, 8180, 8164, 8182, 8211, 8200, 8240, 8212, 8179, 8206, 8194, 8163,4.113628387451172
89, 8199, 8178, 8187, 8200, 8178, 8186, 8227, 8190, 8276, 8227, 8226, 8251, 8221, 8190,4.128881216049194
90, 8197, 8165, 8176, 8199, 8171, 8159, 8202, 8163, 8258, 8218, 8222, 8245, 8213, 8177,4.128881216049194
91, 8203, 8169, 8214, 8182, 8152, 8149, 8164, 8185, 8218, 8201, 8213, 8255, 8207, 8172,4.144620418548584
92, 8216, 8184, 8183, 8212, 8158, 8146, 8169, 8148, 8220, 8207, 8249, 8276, 8234, 8171,4.144620418548584
93, 8213, 8193, 8224, 8215, 8163, 8139, 8155, 8172, 8191, 8176, 8259, 8299, 8228, 8180,4.160284042358398
94, 8190, 8195, 8207, 8231, 8167, 8143, 8147, 8169, 8172, 8172, 8268, 8293, 8212, 8160,4.160284042358398
95, 8184, 8193, 8198, 8257, 8165, 8144, 8149, 8154, 8168, 8179, 8257, 8272, 8191, 8141,4.176154375076294
96, 8180, 8197, 8245, 8272, 8160, 8166, 8156, 8184, 8162, 8169, 8226, 8270, 8172, 8153,4.176154375076294
97, 8166, 8179, 8194, 8287, 8163, 8175, 8179, 8149, 8178, 8179, 8231, 8252, 8175, 8142,4.191772699356079
98, 8164, 8169, 8211, 8259, 8150, 8166, 8162, 8172, 8164, 8165, 8214, 8249, 8164, 8140,4.191772699356079
99, 8152, 8169, 8197, 8256, 8135, 8169, 8150, 8171, 8160, 8162, 8190, 8243, 8166, 8130,4.207561492919922
100, 8149, 8150, 8173, 8257, 8132, 8159, 8149, 8144, 8157, 8152, 8177, 8227, 8163, 8125,4.207561492919922
101, 8163, 8155, 8214, 8233, 8133, 8166, 8152, 8180, 8150, 8135, 8162, 8234, 8146, 8143,4.2226243019104
102, 8150, 8145, 8163, 8224, 8129, 8165, 8163, 8154, 8179, 8162, 8158, 8215, 8151, 8125,4.2226243019104
103, 8140, 8130, 8177, 8192, 8114, 8149, 8140, 8172, 8179, 8155, 8143, 8211, 8144, 8120,4.238541603088379
104, 8160, 8143, 8185, 8195, 8122, 8159, 8138, 8175, 8183, 8151, 8161, 8235, 8160, 8141,4.238541603088379
105, 8187, 8145, 8168, 8206, 8137, 8151, 8127, 8148, 8197, 8166, 8191, 8250, 8192, 8160,4.254277467727661
106, 8192, 8152, 8206, 8180, 8129, 8140, 8097, 8184, 8191, 8163, 8195, 8262, 8190, 8170,4.254277467727661
107, 8173, 8146, 8156, 8175, 8120, 8131, 8104, 8154, 8189, 8160, 8197, 8241, 8183, 8139,4.269799709320068
108, 8159, 8128, 8167, 8147, 8108, 8117, 8099, 8161, 8155, 8120, 8168, 8222, 8156, 8128,4.269799709320068
109, 8140, 8136, 8163, 8128, 8105, 8127, 8101, 8172, 8146, 8110, 8158, 8216, 8134, 8117,4.28542685508728
110, 8128, 8142, 8123, 8138, 8122, 8133, 8111, 8146, 8153, 8129, 8165, 8199, 8132, 8085,4.28542685508728
111, 8134, 8145, 8168, 8138, 8130, 8143, 8109, 8187, 8128, 8113, 8146, 8199, 8124, 8086,4.300588130950928
112, 8119, 8133, 8123, 8141, 8125, 8142, 8119, 8155, 8128, 8116, 8145, 8181, 8125, 8072,4.300588130950928
113, 8102, 8126, 8129, 8115, 8113, 8130, 8105, 8156, 8122, 8111, 8133, 8162, 8107, 8065,4.315856695175171
114, 8097, 8133, 8145, 8120, 8119, 8153, 8115, 8175, 8133, 8123, 8115, 8154, 8098, 8074,4.315856695175171
115, 8099, 8113, 8112, 8143, 8130, 8168, 8141, 8144, 8161, 8157, 8106, 8138, 8109, 8076,4.3319175243377686
116, 8110, 8112, 8161, 8125, 8125, 8174, 8128, 8180, 8142, 8143, 8097, 8146, 8098, 8094,4.3319175243377686
117, 8114, 8129, 8132, 8147, 8138, 8180, 8136, 8153, 8136, 8137, 8110, 8139, 8101, 8087,4.346668481826782
118, 8115, 8123, 8138, 8149, 8137, 8171, 8138, 8146, 8123, 8135, 8096, 8129, 8097, 8086,4.346668481826782
119, 8113, 8113, 8160, 8123, 8123, 8178, 8135, 8171, 8115, 8138, 8084, 8136, 8094, 8097,4.361828804016113
120, 8109, 8105, 8116, 8123, 8130, 8173, 8149, 8147, 8136, 8150, 8099, 8128, 8105, 8094,4.361828804016113
121, 8108, 8113, 8148, 8099, 8128, 8161, 8144, 8188, 8135, 8135, 8083, 8132, 8104, 8101,4.377502918243408
122, 8097, 8106, 8113, 8092, 8116, 8158, 8143, 8171, 8154, 8137, 8086, 8126, 8115, 8090,4.377502918243408
123, 8096, 8087, 8103, 8077, 8100, 8142, 8130, 8158, 8158, 8123, 8083, 8117, 8108, 8080,4.393653392791748
124, 8092, 8096, 8123, 8059, 8094, 8144, 8123, 8179, 8148, 8120, 8070, 8121, 8094, 8076,4.393653392791748
125, 8078, 8092, 8083, 8065, 8097, 8150, 8129, 8146, 8159, 8146, 8084, 8112, 8101, 8063,4.408737421035767
126, 8088, 8094, 8129, 8060, 8092, 8157, 8114, 8175, 8142, 8123, 8090, 8128, 8100, 8082,4.408737421035767
127, 8097, 8115, 8109, 8085, 8103, 8158, 8123, 8163, 8145, 8117, 8110, 8130, 8114, 8080,4.4229419231414795
236, 8106, 8126, 8106, 8091, 8119, 8142, 8121, 8153, 8144, 8116, 8122, 8127, 8114, 8068,4.438448429107666
0, 8125, 8142, 8153, 8090, 8124, 8147, 8109, 8178, 8127, 8103, 8125, 8155, 8105, 8080,4.438448429107666
1, 8133, 8144, 8123, 8122, 8126, 8138, 8119, 8140, 8130, 8117, 8142, 8156, 8123, 8079,4.454082012176514
2, 8141, 8153, 8167, 8120, 8123, 8134, 8107, 8168, 8118, 8111, 8138, 8165, 8130, 8097,4.454082012176514
3, 8137, 8165, 8145, 8125, 8130, 8152, 8102, 8162, 8128, 8127, 8155, 8179, 8141, 8098,4.469015836715698
4, 8129, 8150, 8114, 8116, 8127, 8138, 8089, 8141, 8124, 8137, 8157, 8165, 8131, 8082,4.469015836715698
5, 8120, 8148, 8151, 8102, 8120, 8139, 8079, 8178, 8112, 8119, 8134, 8150, 8108, 8080,4.484443426132202
6, 8119, 8154, 8112, 8129, 8132, 8160, 8110, 8157, 8147, 8139, 8154, 8151, 8126, 8074,4.484443426132202
7, 8125, 8156, 8138, 8115, 8135, 8162, 8120, 8180, 8155, 8146, 8157, 8165, 8132, 8088,4.500532150268555
8, 8107, 8148, 8126, 8107, 8132, 8157, 8128, 8170, 8154, 8141, 8138, 8141, 8110, 8074,4.500532150268555
9, 8099, 8137, 8105, 8115, 8136, 8155, 8133, 8149, 8156, 8136, 8121, 8109, 8089, 8056,4.5160510540008545
10, 8110, 8154, 8153, 8116, 8146, 8176, 8145, 8190, 8152, 8140, 8113, 8125, 8091, 8078,4.5160510540008545
11, 8103, 8147, 8116, 8131, 8152, 8179, 8166, 8151, 8169, 8158, 8118, 8114, 8102, 8072,4.531728744506836
12, 8096, 8131, 8137, 8109, 8141, 8165, 8142, 8162, 8154, 8131, 8095, 8098, 8083, 8069,4.531728744506836
13, 8104, 8142, 8139, 8112, 8139, 8179, 8146, 8175, 8149, 8135, 8092, 8106, 8089, 8074,4.5468971729278564
14, 8120, 8137, 8123, 8130, 8140, 8176, 8163, 8150, 8147, 8147, 8098, 8106, 8096, 8077,4.5468971729278564
15, 8135, 8140, 8177, 8131, 8135, 8169, 8154, 8187, 8135, 8126, 8095, 8126, 8089, 8105,4.562035322189331
16, 8129, 8137, 8134, 8142, 8135, 8165, 8151, 8159, 8164, 8158, 8117, 8128, 8121, 8107,4.562035322189331
17, 8133, 8123, 8144, 8110, 8128, 8156, 8128, 8162, 8165, 8173, 8118, 8128, 8132, 8114,4.577473163604736
18, 8155, 8133, 8167, 8115, 8137, 8170, 8133, 8172, 8169, 8171, 8132, 8147, 8134, 8131,4.577473163604736
19, 8165, 8142, 8141, 8153, 8157, 8165, 8148, 8146, 8189, 8179, 8149, 8154, 8146, 8132,4.593610763549805
20, 8160, 8144, 8166, 8127, 8147, 8160, 8139, 8182, 8180, 8172, 8130, 8162, 8142, 8134,4.593610763549805
21, 8133, 8114, 8114, 8094, 8139, 8156, 8156, 8158, 8193, 8177, 8129, 8137, 8143, 8106,4.608856439590454
22, 8107, 8088, 8113, 8059, 8129, 8133, 8152, 8164, 8186, 8154, 8103, 8110, 8114, 8083,4.608856439590454
23, 8093, 8101, 8121, 8054, 8119, 8136, 8143, 8187, 8181, 8149, 8087, 8108, 8093, 8074,4.6244542598724365
24, 8100, 8108, 8095, 8066, 8123, 8142, 8144, 8157, 8209, 8172, 8117, 8111, 8116, 8073,4.6244542598724365
25, 8112, 8120, 8151, 8055, 8120, 8141, 8124, 8183, 8198, 8153, 8125, 8134, 8125, 8088,4.6395955085754395
26, 8102, 8127, 8111, 8072, 8115, 8134, 8124, 8154, 8170, 8138, 8121, 8125, 8115, 8061,4.6395955085754395
27, 8112, 8131, 8114, 8076, 8124, 8135, 8127, 8156, 8149, 8128, 8119, 8120, 8105, 8057,4.654943943023682
28, 8136, 8161, 8157, 8092, 8141, 8162, 8141, 8184, 8166, 8141, 8142, 8144, 8124, 8083,4.654943943023682
29, 8138, 8167, 8123, 8126, 8143, 8150, 8148, 8142, 8169, 8152, 8151, 8133, 8124, 8074,4.670886754989624
30, 8132, 8158, 8153, 8107, 8131, 8131, 8122, 8167, 8122, 8111, 8116, 8121, 8083, 8071,4.670886754989624
31, 8127, 8162, 8132, 8121, 8143, 8145, 8128, 8155, 8133, 8124, 8131, 8121, 8094, 8074,4.6858813762664795
32, 8142, 8175, 8152, 8152, 8153, 8154, 8136, 8152, 8156, 8153, 8150, 8135, 8122, 8093,4.6858813762664795
33, 8149, 8186, 8188, 8161, 8159, 8168, 8139, 8175, 8157, 8152, 8142, 8145, 8118, 8104,4.701910495758057
34, 8133, 8163, 8141, 8167, 8169, 8177, 8163, 8138, 8163, 8160, 8149, 8123, 8118, 8087,4.701910495758057
35, 8134, 8155, 8184, 8152, 8167, 8191, 8176, 8179, 8156, 8169, 8150, 8132, 8124, 8115,4.717983722686768
36, 8140, 8161, 8159, 8155, 8169, 8206, 8200, 8179, 8194, 8206, 8152, 8138, 8140, 8127,4.717983722686768
37, 8127, 8138, 8128, 8132, 8154, 8185, 8199, 8166, 8204, 8202, 8122, 8108, 8121, 8097,4.7339723110198975
38, 8103, 8123, 8149, 8112, 8139, 8181, 8195, 8191, 8183, 8175, 8096, 8091, 8096, 8080,4.7339723110198975
39, 8098, 8117, 8109, 8129, 8155, 8191, 8219, 8161, 8220, 8202, 8119, 8086, 8122, 8080,4.749560117721558
40, 8123, 8125, 8151, 8104, 8158, 8191, 8208, 8196, 8230, 8197, 8121, 8108, 8132, 8112,4.749560117721558
41, 8131, 8130, 8135, 8102, 8148, 8180, 8199, 8185, 8216, 8177, 8124, 8123, 8135, 8115,4.764784812927246
42, 8137, 8128, 8125, 8114, 8142, 8155, 8191, 8158, 8211, 8167, 8132, 8128, 8140, 8108,4.764784812927246
43, 8157, 8157, 8178, 8113, 8146, 8165, 8182, 8196, 8208, 8156, 8130, 8144, 8140, 8125,4.780230522155762
44, 8163, 8165, 8135, 8129, 8158, 8162, 8180, 8160, 8210, 8156, 8137, 8139, 8146, 8110,4.780230522155762
45, 8175, 8167, 8168, 8121, 8152, 8137, 8148, 8173, 8179, 8142, 8147, 8164, 8145, 8116,4.7961647510528564
46, 8183, 8190, 8176, 8140, 8153, 8142, 8146, 8174, 8185, 8169, 8179, 8190, 8164, 8132,4.7961647510528564
47, 8184, 8192, 8154, 8157, 8165, 8146, 8153, 8150, 8194, 8181, 8184, 8178, 8166, 8125,4.811721563339233
48, 8182, 8200, 8194, 8153, 8177, 8158, 8146, 8179, 8167, 8156, 8167, 8184, 8150, 8121,4.811721563339233
49, 8166, 8202, 8157, 8182, 8188, 8169, 8167, 8147, 8175, 8175, 8188, 8178, 8161, 8106,4.827430486679077
50, 8155, 8194, 8177, 8173, 8176, 8169, 8174, 8169, 8171, 8172, 8176, 8168, 8146, 8116,4.827430486679077
51, 8153, 8196, 8169, 8165, 8171, 8171, 8190, 8182, 8175, 8172, 8170, 8169, 8139, 8116,4.842470407485962
52, 8162, 8192, 8143, 8182, 8174, 8163, 8199, 8162, 8182, 8193, 8193, 8168, 8154, 8105,4.842470407485962
53, 8168, 8200, 8190, 8177, 8168, 8178, 8189, 8204, 8181, 8196, 8185, 8176, 8150, 8125,4.858320474624634
54, 8153, 8198, 8146, 8180, 8183, 8193, 8203, 8169, 8205, 8213, 8185, 8162, 8152, 8123,4.858320474624634
55, 8163, 8197, 8172, 8175, 8193, 8189, 8200, 8174, 8199, 8209, 8183, 8168, 8153, 8129,4.875881195068359
56, 8176, 8202, 8185, 8192, 8187, 8206, 8212, 8194, 8209, 8215, 8178, 8181, 8163, 8141,4.875881195068359
57, 8166, 8176, 8141, 8190, 8181, 8199, 8223, 8161, 8227, 8220, 8165, 8166, 8167, 8140,4.889431715011597
58, 8179, 8176, 8185, 8153, 8173, 8180, 8197, 8186, 8203, 8195, 8157, 8178, 8157, 8158,4.889431715011597
59, 8200, 8196, 8167, 8178, 8175, 8168, 8186, 8162, 8210, 8199, 8187, 8191, 8179, 8156,4.905472040176392
60, 8211, 8208, 8190, 8186, 8174, 8153, 8165, 8170, 8220, 8191, 8195, 8211, 8193, 8156,4.905472040176392
61, 8215, 8232, 8209, 8201, 8183, 8159, 8160, 8184, 8212, 8192, 8212, 8239, 8202, 8158,4.921555757522583
62, 8224, 8252, 8185, 8262, 8213, 8173, 8179, 8154, 8211, 8220, 8239, 8236, 8214, 8157,4.921555757522583
63, 8233, 8268, 8233, 8280, 8237, 8206, 8192, 8193, 8211, 8233, 8236, 8238, 8207, 8177,4.936805248260498
64, 8224, 8262, 8191, 8286, 8252, 8228, 8233, 8171, 8240, 8262, 8247, 8228, 8219, 8175,4.936805248260498
65, 8215, 8232, 8181, 8271, 8246, 8219, 8252, 8175, 8240, 8258, 8223, 8213, 8211, 8178,4.952401638031006
66, 8197, 8211, 8192, 8254, 8234, 8224, 8256, 8204, 8239, 8241, 8191, 8206, 8191, 8182,4.952401638031006
67, 8185, 8193, 8145, 8246, 8226, 8217, 8267, 8171, 8262, 8258, 8202, 8194, 8203, 8164,4.967579126358032
68, 8203, 8200, 8184, 8220, 8216, 8203, 8258, 8205, 8257, 8248, 8207, 8214, 8215, 8182,4.982969045639038
69, 8216, 8207, 8162, 8225, 8223, 8198, 8257, 8188, 8269, 8250, 8231, 8230, 8238, 8191,4.982969045639038
70, 8219, 8205, 8164, 8216, 8219, 8175, 8229, 8175, 8255, 8234, 8240, 8236, 8238, 8185,4.998631715774536
71, 8214, 8222, 8190, 8210, 8209, 8163, 8198, 8194, 8224, 8210, 8235, 8240, 8223, 8180,4.998631715774536
72, 8211, 8220, 8150, 8232, 8210, 8156, 8205, 8154, 8227, 8227, 8244, 8225, 8228, 8168,5.0138139724731445
73, 8229, 8225, 8203, 8222, 8215, 8158, 8204, 8188, 8222, 8224, 8246, 8245, 8229, 8190,5.0138139724731445
74, 8227, 8234, 8189, 8230, 8222, 8170, 8205, 8179, 8223, 8220, 8261, 8253, 8227, 8188,5.030484914779663
75, 8221, 8229, 8179, 8241, 8220, 8168, 8188, 8162, 8193, 8207, 8249, 8240, 8207, 8179,5.030484914779663
76, 8240, 8248, 8221, 8255, 8224, 8180, 8181, 8191, 8172, 8202, 8239, 8259, 8206, 8199,5.030484914779663
77, 8242, 8246, 8179, 8279, 8233, 8180, 8193, 8153, 8195, 8223, 8255, 8257, 8223, 8193,5.044687509536743
78, 8224, 8224, 8204, 8259, 8222, 8178, 8174, 8174, 8180, 8205, 8234, 8239, 8200, 8186,5.060304641723633
79, 8208, 8212, 8190, 8270, 8225, 8199, 8196, 8173, 8184, 8217, 8232, 8225, 8194, 8171,5.060304641723633
80, 8208, 8204, 8176, 8283, 8227, 8200, 8232, 8166, 8206, 8244, 8242, 8220, 8202, 8171,5.076209545135498
81, 8200, 8210, 8208, 8266, 8215, 8203, 8240, 8201, 8202, 8233, 8226, 8220, 8195, 8190,5.076209545135498
82, 8183, 8195, 8157, 8277, 8216, 8201, 8248, 8166, 8208, 8232, 8217, 8187, 8194, 8170,5.091769695281982
83, 8195, 8189, 8189, 8275, 8221, 8195, 8242, 8192, 8203, 8226, 8208, 8193, 8188, 8168,5.091769695281982
84, 8201, 8204, 8191, 8285, 8224, 8207, 8257, 8194, 8219, 8246, 8221, 8217, 8203, 8180,5.1077563762664795
85, 8194, 8193, 8165, 8275, 8217, 8192, 8255, 8164, 8221, 8253, 8220, 8203, 8213, 8182,5.1077563762664795
86, 8202, 8187, 8202, 8251, 8201, 8189, 8228, 8200, 8198, 8232, 8202, 8198, 8190, 8189,5.123459815979004
87, 8221, 8191, 8171, 8280, 8209, 8201, 8238, 8170, 8222, 8250, 8218, 8213, 8198, 8187,5.123459815979004
88, 8245, 8203, 8213, 8279, 8219, 8199, 8241, 8184, 8230, 8247, 8219, 8243, 8218, 8217,5.138659477233887
89, 8253, 8216, 8220, 8274, 8218, 8193, 8237, 8191, 8233, 8243, 8233, 8254, 8238, 8227,5.138659477233887
90, 8258, 8213, 8189, 8278, 8215, 8166, 8221, 8164, 8232, 8239, 8259, 8254, 8245, 8209,5.154697418212891
91, 8264, 8223, 8232, 8262, 8208, 8153, 8192, 8195, 8202, 8209, 8254, 8278, 8236, 8219,5.154697418212891
92, 8254, 8222, 8188, 8268, 8211, 8152, 8187, 8156, 8203, 8210, 8266, 8270, 8243, 8208,5.169651508331299
93, 8250, 8227, 8209, 8264, 8217, 8151, 8177, 8159, 8181, 8201, 8268, 8257, 8226, 8195,5.169651508331299
94, 8233, 8240, 8221, 8280, 8237, 8180, 8201, 8173, 8157, 8200, 8254, 8240, 8203, 8180,5.185663938522339
95, 8203, 8210, 8167, 8293, 8240, 8194, 8233, 8150, 8163, 8206, 8233, 8198, 8188, 8159,5.185663938522339
96, 8190, 8195, 8197, 8270, 8222, 8199, 8229, 8193, 8173, 8199, 8207, 8192, 8174, 8174,5.201756000518799
97, 8183, 8201, 8165, 8282, 8227, 8203, 8250, 8170, 8204, 8233, 8212, 8187, 8196, 8173,5.201756000518799
98, 8188, 8191, 8175, 8268, 8225, 8197, 8252, 8181, 8208, 8244, 8214, 8191, 8203, 8178,5.217428922653198
99, 8203, 8194, 8198, 8250, 8217, 8203, 8253, 8208, 8225, 8250, 8232, 8224, 8212, 8203,5.217428922653198
100, 8214, 8203, 8171, 8258, 8222, 8189, 8264, 8173, 8250, 8272, 8251, 8234, 8231, 8212,5.232959747314453
101, 8220, 8210, 8209, 8247, 8215, 8174, 8241, 8199, 8226, 8249, 8233, 8238, 8228, 8221,5.232959747314453
102, 8219, 8199, 8173, 8248, 8208, 8172, 8234, 8178, 8233, 8240, 8241, 8235, 8236, 8206,5.248445749282837
103, 8232, 8196, 8187, 8235, 8211, 8165, 8221, 8179, 8242, 8240, 8244, 8246, 8239, 8208,5.248445749282837
104, 8244, 8226, 8217, 8238, 8220, 8168, 8210, 8197, 8236, 8238, 8248, 8259, 8240, 8216,5.264005661010742
105, 8247, 8231, 8173, 8259, 8226, 8159, 8206, 8156, 8232, 8233, 8262, 8247, 8249, 8201,5.264005661010742
106, 8256, 8233, 8217, 8245, 8220, 8156, 8178, 8183, 8208, 8208, 8256, 8266, 8239, 8210,5.279763460159302
107, 8252, 8241, 8194, 8258, 8223, 8158, 8180, 8166, 8210, 8222, 8273, 8271, 8242, 8202,5.279763460159302
108, 8246, 8233, 8191, 8262, 8226, 8156, 8191, 8163, 8204, 8222, 8271, 8255, 8235, 8189,5.295875549316406
109, 8238, 8236, 8219, 8254, 8232, 8186, 8210, 8191, 8194, 8201, 8254, 8256, 8220, 8186,5.295875549316406
110, 8224, 8226, 8173, 8260, 8235, 8194, 8226, 8152, 8204, 8209, 8252, 8240, 8212, 8167,5.311651229858398
111, 8219, 8220, 8207, 8232, 8217, 8182, 8216, 8187, 8190, 8195, 8228, 8230, 8190, 8174,5.311651229858398
112, 8207, 8216, 8186, 8234, 8222, 8196, 8241, 8187, 8208, 8206, 8232, 8221, 8192, 8173,5.326645851135254
113, 8206, 8208, 8177, 8245, 8240, 8198, 8249, 8171, 8220, 8212, 8232, 8218, 8195, 8170,5.326645851135254
114, 8215, 8219, 8214, 8242, 8241, 8199, 8231, 8200, 8201, 8206, 8215, 8233, 8189, 8185,5.342911720275879
115, 8212, 8206, 8168, 8248, 8234, 8196, 8235, 8166, 8207, 8230, 8225, 8221, 8204, 8183,5.342911720275879
116, 8217, 8194, 8201, 8230, 8222, 8196, 8231, 8188, 8206, 8219, 8211, 8213, 8201, 8196,5.3588666915893555
117, 8227, 8204, 8199, 8255, 8233, 8207, 8244, 8183, 8218, 8231, 8215, 8223, 8208, 8203,5.3588666915893555
118, 8237, 8204, 8191, 8263, 8243, 8201, 8235, 8163, 8213, 8240, 8233, 8238, 8221, 8205,5.373611211776733
119, 8240, 8212, 8223, 8231, 8235, 8205, 8220, 8194, 8191, 8219, 8230, 8246, 8218, 8216,5.373611211776733
120, 8228, 8207, 8171, 8243, 8235, 8201, 8235, 8158, 8210, 8231, 8230, 8223, 8227, 8204,5.388844728469849
121, 8237, 8205, 8210, 8239, 8231, 8197, 8227, 8179, 8211, 8236, 8230, 8237, 8225, 8222,5.388844728469849
122, 8243, 8211, 8211, 8235, 8229, 8215, 8235, 8185, 8228, 8251, 8247, 8248, 8235, 8228,5.4048333168029785
123, 8228, 8199, 8179, 8232, 8221, 8204, 8246, 8169, 8247, 8256, 8239, 8223, 8242, 8209,5.4048333168029785
124, 8218, 8196, 8208, 8211, 8208, 8193, 8239, 8205, 8238, 8242, 8211, 8223, 8227, 8214,5.4203407764434814
125, 8204, 8180, 8148, 8205, 8206, 8192, 8250, 8171, 8247, 8256, 8212, 8207, 8223, 8197,5.4203407764434814
126, 8198, 8167, 8163, 8169, 8204, 8187, 8244, 8191, 8237, 8240, 8204, 8198, 8214, 8191,5.435907602310181
127, 8207, 8175, 8179, 8160, 8207, 8194, 8246, 8197, 8251, 8234, 8214, 8216, 8225, 8201,5.435907602310181
236, 8226, 8176, 8165, 8172, 8212, 8178, 8241, 8162, 8261, 8241, 8230, 8225, 8232, 8202,5.4519288539886475
0, 8231, 8186, 8199, 8152, 8204, 8167, 8210, 8198, 8223, 8210, 8214, 8231, 8211, 8201,5.4519288539886475
1, 8221, 8185, 8153, 8158, 8201, 8168, 8211, 8165, 8223, 8206, 8224, 8220, 8220, 8183,5.467496156692505
2, 8239, 8182, 8183, 8159, 8205, 8169, 8209, 8168, 8229, 8206, 8229, 8226, 8224, 8196,5.467496156692505
3, 8243, 8194, 8200, 8167, 8210, 8176, 8211, 8185, 8231, 8203, 8229, 8238, 8218, 8203,5.483553647994995
4, 8231, 8190, 8159, 8175, 8205, 8160, 8207, 8159, 8229, 8201, 8236, 8229, 8215, 8187,5.483553647994995
5, 8239, 8198, 8199, 8166, 8202, 8154, 8185, 8191, 8209, 8197, 8232, 8242, 8206, 8195,5.499604225158691
6, 8240, 8207, 8168, 8194, 8213, 8162, 8183, 8166, 8222, 8213, 8241, 8235, 8209, 8185,5.499604225158691
7, 8227, 8198, 8179, 8191, 8203, 8154, 8163, 8172, 8218, 8190, 8227, 8221, 8194, 8178,5.514782667160034
8, 8205, 8199, 8185, 8180, 8192, 8164, 8168, 8189, 8218, 8185, 8214, 8219, 8187, 8166,5.514782667160034
9, 8183, 8192, 8132, 8192, 8206, 8174, 8198, 8154, 8217, 8202, 8207, 8191, 8175, 8135,5.530102014541626
10, 8169, 8187, 8171, 8181, 8209, 8195, 8205, 8192, 8192, 8181, 8178, 8172, 8140, 8144,5.530102014541626
11, 8162, 8174, 8142, 8191, 8208, 8215, 8236, 8178, 8227, 8207, 8177, 8157, 8154, 8154,5.546225547790527
12, 8169, 8161, 8143, 8180, 8194, 8203, 8238, 8180, 8246, 8227, 8169, 8159, 8167, 8160,5.546225547790527
13, 8165, 8167, 8164, 8173, 8186, 8209, 8231, 8205, 8236, 8225, 8172, 8176, 8160, 8169,5.56172776222229
14, 8165, 8157, 8129, 8181, 8192, 8207, 8243, 8165, 8242, 8230, 8190, 8169, 8164, 8166,5.56172776222229
15, 8192, 8170, 8183, 8157, 8186, 8195, 8232, 8189, 8235, 8212, 8183, 8185, 8166, 8181,5.576721906661987
16, 8208, 8187, 8165, 8164, 8185, 8186, 8224, 8181, 8264, 8231, 8216, 8208, 8198, 8185,5.576721906661987
17, 8219, 8173, 8166, 8166, 8186, 8169, 8203, 8182, 8276, 8240, 8244, 8225, 8210, 8194,5.592975378036499
18, 8231, 8180, 8197, 8162, 8189, 8173, 8179, 8193, 8248, 8209, 8235, 8231, 8194, 8200,5.592975378036499
19, 8227, 8194, 8155, 8182, 8200, 8166, 8176, 8144, 8232, 8204, 8239, 8215, 8194, 8173,5.608975648880005
20, 8227, 8211, 8203, 8185, 8204, 8162, 8163, 8180, 8217, 8207, 8243, 8230, 8190, 8180,5.608975648880005
21, 8220, 8213, 8191, 8201, 8204, 8172, 8166, 8169, 8227, 8215, 8244, 8226, 8188, 8180,5.624775171279907
22, 8197, 8184, 8160, 8183, 8192, 8171, 8160, 8146, 8207, 8187, 8211, 8184, 8158, 8154,5.624775171279907
23, 8168, 8175, 8171, 8165, 8191, 8191, 8170, 8186, 8180, 8171, 8180, 8164, 8128, 8141,5.639910936355591
24, 8154, 8169, 8131, 8197, 8210, 8207, 8212, 8165, 8215, 8219, 8196, 8156, 8147, 8138,5.639910936355591
25, 8171, 8170, 8182, 8192, 8206, 8204, 8218, 8191, 8229, 8219, 8193, 8171, 8156, 8165,5.65519118309021
26, 8174, 8179, 8174, 8199, 8194, 8206, 8225, 8185, 8229, 8207, 8189, 8176, 8153, 8165,5.65519118309021
27, 8167, 8174, 8148, 8208, 8191, 8202, 8231, 8165, 8220, 8206, 8181, 8171, 8150, 8153,5.670786619186401
28, 8168, 8171, 8182, 8176, 8186, 8206, 8232, 8202, 8215, 8210, 8170, 8180, 8158, 8172,5.670786619186401
29, 8165, 8160, 8143, 8173, 8184, 8196, 8243, 8171, 8237, 8238, 8186, 8168, 8176, 8172,5.686110496520996
30, 8178, 8165, 8178, 8172, 8178, 8189, 8225, 8188, 8212, 8222, 8175, 8173, 8164, 8179,5.686110496520996
31, 8189, 8177, 8177, 8182, 8185, 8208, 8234, 8187, 8208, 8219, 8177, 8186, 8171, 8185,5.701990604400635
32, 8198, 8169, 8167, 8187, 8197, 8205, 8247, 8169, 8235, 8242, 8207, 8198, 8200, 8197,5.701990604400635
33, 8214, 8182, 8216, 8177, 8196, 8194, 8226, 8208, 8235, 8248, 8223, 8224, 8212, 8223,5.71721625328064
34, 8213, 8181, 8165, 8184, 8196, 8184, 8220, 8169, 8242, 8259, 8236, 8216, 8224, 8205,5.71721625328064
35, 8209, 8176, 8185, 8170, 8195, 8176, 8201, 8175, 8235, 8240, 8229, 8214, 8216, 8195,5.733001232147217
36, 8207, 8193, 8196, 8190, 8209, 8180, 8192, 8176, 8235, 8233, 8233, 8225, 8212, 8189,5.733001232147217
37, 8205, 8178, 8162, 8188, 8208, 8160, 8185, 8141, 8223, 8224, 8226, 8210, 8201, 8170,5.747910976409912
38, 8197, 8161, 8186, 8136, 8188, 8152, 8172, 8175, 8180, 8179, 8191, 8197, 8166, 8159,5.747910976409912
39, 8178, 8170, 8139, 8156, 8191, 8151, 8180, 8151, 8173, 8167, 8190, 8174, 8155, 8127,5.763500928878784
40, 8180, 8184, 8161, 8167, 8186, 8144, 8168, 8169, 8164, 8156, 8189, 8176, 8147, 8128,5.764501094818115
41, 8182, 8184, 8173, 8156, 8180, 8163, 8173, 8185, 8175, 8161, 8197, 8193, 8150, 8138,5.779522657394409
42, 8181, 8169, 8139, 8164, 8188, 8161, 8188, 8151, 8194, 8181, 8202, 8187, 8161, 8129,5.779522657394409
43, 8185, 8189, 8192, 8163, 8191, 8160, 8177, 8192, 8179, 8171, 8184, 8196, 8149, 8143,5.794692277908325
44, 8180, 8196, 8164, 8179, 8189, 8166, 8184, 8171, 8189, 8180, 8201, 8198, 8154, 8136,5.810795307159424
45, 8186, 8183, 8177, 8174, 8180, 8149, 8171, 8170, 8182, 8171, 8205, 8205, 8157, 8146,5.810795307159424
46, 8197, 8201, 8200, 8185, 8182, 8153, 8167, 8187, 8179, 8171, 8208, 8223, 8163, 8166,5.810795307159424
47, 8205, 8213, 8165, 8203, 8192, 8167, 8179, 8160, 8191, 8192, 8221, 8216, 8172, 8160,5.826546907424927
48, 8211, 8213, 8207, 8185, 8190, 8172, 8165, 8192, 8168, 8175, 8203, 8219, 8160, 8166,5.841722249984741
49, 8199, 8201, 8180, 8196, 8193, 8164, 8161, 8163, 8172, 8179, 8205, 8210, 8166, 8161,5.841722249984741
50, 8201, 8199, 8188, 8200, 8198, 8163, 8150, 8165, 8176, 8182, 8211, 8205, 8169, 8164,5.858415126800537
51, 8197, 8216, 8208, 8197, 8201, 8194, 8163, 8192, 8177, 8182, 8204, 8212, 8165, 8163,5.858415126800537
52, 8163, 8195, 8154, 8200, 8200, 8198, 8193, 8156, 8183, 8190, 8186, 8183, 8156, 8138,5.872533082962036
53, 8148, 8180, 8188, 8182, 8191, 8192, 8184, 8188, 8154, 8167, 8156, 8173, 8128, 8141,5.872533082962036
54, 8154, 8188, 8169, 8206, 8203, 8200, 8195, 8172, 8162, 8177, 8170, 8174, 8136, 8131,5.889536380767822
55, 8159, 8181, 8165, 8210, 8211, 8200, 8201, 8170, 8174, 8181, 8176, 8170, 8143, 8126,5.889536380767822
56, 8149, 8173, 8182, 8187, 8203, 8213, 8199, 8209, 8183, 8185, 8168, 8169, 8143, 8142,5.903717041015625
57, 8139, 8158, 8133, 8191, 8196, 8205, 8211, 8170, 8213, 8217, 8169, 8160, 8157, 8140,5.903717041015625
58, 8153, 8158, 8184, 8178, 8188, 8186, 8203, 8191, 8201, 8202, 8146, 8175, 8144, 8154,5.919819355010986
59, 8162, 8162, 8174, 8190, 8192, 8190, 8213, 8181, 8203, 8204, 8156, 8183, 8144, 8155,5.919819355010986
60, 8167, 8156, 8158, 8182, 8194, 8181, 8204, 8164, 8204, 8212, 8168, 8178, 8151, 8157,5.935841798782349
61, 8175, 8165, 8192, 8159, 8180, 8172, 8183, 8193, 8193, 8208, 8168, 8190, 8156, 8173,5.935841798782349
62, 8180, 8159, 8157, 8182, 8171, 8155, 8185, 8162, 8216, 8228, 8190, 8193, 8182, 8166,5.95185399055481
63, 8193, 8162, 8196, 8175, 8167, 8153, 8173, 8182, 8220, 8217, 8186, 8207, 8181, 8173,5.95185399055481
64, 8201, 8177, 8186, 8172, 8172, 8174, 8180, 8174, 8222, 8209, 8183, 8211, 8176, 8174,5.967901706695557
65, 8202, 8167, 8169, 8179, 8170, 8162, 8177, 8160, 8211, 8197, 8182, 8204, 8177, 8167,5.967901706695557
66, 8194, 8168, 8201, 8178, 8167, 8153, 8169, 8194, 8195, 8181, 8186, 8220, 8177, 8167,5.984435558319092
67, 8179, 8173, 8152, 8179, 8175, 8157, 8187, 8159, 8205, 8190, 8198, 8213, 8182, 8149,5.984435558319092
68, 8186, 8179, 8189, 8161, 8173, 8163, 8179, 8182, 8190, 8172, 8186, 8219, 8174, 8156,5.998840808868408
69, 8193, 8181, 8198, 8191, 8171, 8177, 8183, 8183, 8195, 8175, 8212, 8232, 8189, 8156,5.998840808868408
70, 8184, 8171, 8173, 8206, 8163, 8162, 8176, 8156, 8187, 8174, 8236, 8226, 8191, 8140,6.015474796295166
71, 8180, 8192, 8208, 8196, 8156, 8156, 8153, 8188, 8155, 8139, 8224, 8237, 8167, 8141,6.015474796295166
72, 8185, 8205, 8179, 8242, 8168, 8161, 8166, 8155, 8164, 8143, 8235, 8236, 8165, 8131,6.015474796295166
73, 8198, 8209, 8222, 8266, 8166, 8162, 8163, 8174, 8156, 8140, 8235, 8236, 8155, 8141,6.037561655044556
74, 8193, 8219, 8222, 8280, 8167, 8179, 8168, 8182, 8146, 8147, 8234, 8241, 8155, 8149,6.037561655044556
75, 8186, 8204, 8184, 8289, 8179, 8185, 8186, 8151, 8143, 8156, 8231, 8235, 8159, 8144,6.046609401702881
76, 8202, 8204, 8238, 8285, 8176, 8201, 8193, 8190, 8137, 8152, 8214, 8243, 8153, 8168,6.046609401702881
77, 8205, 8209, 8204, 8319, 8171, 8202, 8205, 8164, 8168, 8185, 8220, 8232, 8170, 8170,6.06165075302124
78, 8204, 8198, 8209, 8302, 8167, 8181, 8184, 8168, 8170, 8188, 8214, 8236, 8173, 8175,6.076997995376587
79, 8203, 8194, 8212, 8264, 8169, 8188, 8172, 8179, 8178, 8186, 8213, 8247, 8173, 8177,6.076997995376587
80, 8207, 8185, 8173, 8257, 8164, 8179, 8172, 8150, 8188, 8188, 8215, 8230, 8181, 8158,6.092576026916504
81, 8211, 8184, 8205, 8236, 8153, 8165, 8155, 8180, 8152, 8152, 8196, 8228, 8170, 8158,6.092576026916504
82, 8187, 8174, 8156, 8223, 8161, 8156, 8155, 8152, 8146, 8146, 8206, 8218, 8171, 8141,6.108466863632202
83, 8175, 8174, 8169, 8198, 8161, 8154, 8144, 8165, 8140, 8139, 8205, 8215, 8164, 8131,6.108466863632202
84, 8184, 8197, 8192, 8200, 8156, 8173, 8147, 8188, 8131, 8135, 8202, 8220, 8159, 8132,6.123645067214966
85, 8179, 8186, 8146, 8216, 8166, 8170, 8156, 8144, 8133, 8145, 8202, 8192, 8150, 8121,6.123645067214966
86, 8160, 8179, 8186, 8202, 8179, 8169, 8146, 8179, 8116, 8134, 8169, 8177, 8123, 8131,6.1388959884643555
87, 8161, 8190, 8171, 8228, 8193, 8196, 8174, 8168, 8140, 8162, 8175, 8179, 8138, 8137,6.1388959884643555
88, 8185, 8186, 8181, 8230, 8190, 8207, 8192, 8166, 8158, 8180, 8184, 8193, 8151, 8158,6.154484510421753
89, 8175, 8176, 8192, 8203, 8179, 8208, 8191, 8191, 8152, 8172, 8163, 8188, 8141, 8164,6.154484510421753
90, 8160, 8157, 8147, 8205, 8184, 8205, 8204, 8158, 8161, 8183, 8156, 8160, 8148, 8147,6.169524431228638
91, 8184, 8161, 8193, 8195, 8183, 8206, 8196, 8188, 8161, 8180, 8152, 8181, 8154, 8170,6.169524431228638
92, 8189, 8166, 8165, 8192, 8177, 8194, 8187, 8173, 8181, 8191, 8167, 8200, 8170, 8170,6.1846678256988525
93, 8181, 8155, 8154, 8162, 8168, 8166, 8161, 8166, 8181, 8179, 8171, 8194, 8175, 8157,6.1846678256988525
94, 8185, 8168, 8185, 8153, 8171, 8178, 8159, 8194, 8184, 8177, 8183, 8205, 8183, 8168,6.200768232345581
95, 8180, 8177, 8150, 8185, 8190, 8185, 8185, 8159, 8216, 8208, 8204, 8207, 8202, 8166,6.200768232345581
96, 8182, 8181, 8194, 8172, 8192, 8180, 8179, 8187, 8216, 8194, 8184, 8211, 8189, 8168,6.216622829437256
97, 8180, 8176, 8172, 8171, 8191, 8183, 8188, 8179, 8229, 8191, 8191, 8199, 8184, 8146,6.216622829437256
98, 8172, 8162, 8152, 8170, 8189, 8168, 8184, 8172, 8227, 8186, 8202, 8188, 8183, 8130,6.2316319942474365
99, 8165, 8169, 8181, 8151, 8189, 8171, 8173, 8199, 8208, 8172, 8191, 8197, 8175, 8139,6.2316319942474365
100, 8157, 8153, 8127, 8141, 8182, 8169, 8179, 8147, 8212, 8185, 8192, 8176, 8175, 8122,6.2476465702056885
101, 8163, 8145, 8162, 8127, 8172, 8167, 8165, 8170, 8195, 8175, 8185, 8175, 8163, 8124,6.2476465702056885
102, 8177, 8169, 8176, 8166, 8191, 8188, 8177, 8182, 8207, 8184, 8196, 8195, 8174, 8136,6.262709856033325
103, 8197, 8179, 8171, 8180, 8202, 8188, 8186, 8167, 8223, 8199, 8204, 8200, 8184, 8153,6.262709856033325
104, 8217, 8198, 8211, 8164, 8192, 8188, 8178, 8197, 8210, 8198, 8213, 8219, 8184, 8181,6.278773307800293
105, 8216, 8203, 8175, 8186, 8196, 8176, 8186, 8161, 8205, 8204, 8235, 8221, 8194, 8170,6.278773307800293
106, 8207, 8191, 8205, 8173, 8190, 8154, 8163, 8175, 8178, 8170, 8208, 8219, 8174, 8163,6.294631481170654
107, 8196, 8189, 8197, 8170, 8183, 8157, 8155, 8174, 8182, 8169, 8198, 8215, 8168, 8155,6.294631481170654
108, 8197, 8188, 8170, 8178, 8193, 8160, 8155, 8158, 8197, 8189, 8211, 8209, 8177, 8147,6.310746908187866
109, 8201, 8198, 8202, 8168, 8200, 8170, 8150, 8197, 8183, 8178, 8208, 8219, 8170, 8160,6.310746908187866
110, 8184, 8193, 8154, 8180, 8200, 8169, 8167, 8163, 8194, 8190, 8217, 8205, 8174, 8143,6.326403856277466
111, 8171, 8187, 8179, 8166, 8194, 8162, 8155, 8174, 8188, 8186, 8203, 8198, 8159, 8139,6.326403856277466
112, 8151, 8185, 8169, 8154, 8187, 8169, 8149, 8176, 8181, 8181, 8185, 8188, 8142, 8130,6.34193754196167
113, 8139, 8167, 8130, 8152, 8182, 8160, 8160, 8149, 8176, 8181, 8179, 8168, 8135, 8107,6.34193754196167
114, 8150, 8179, 8182, 8149, 8182, 8176, 8169, 8191, 8162, 8168, 8175, 8178, 8121, 8118,6.357243061065674
115, 8152, 8188, 8153, 8180, 8194, 8196, 8189, 8157, 8173, 8179, 8183, 8162, 8123, 8116,6.357243061065674
116, 8164, 8182, 8177, 8177, 8192, 8180, 8178, 8164, 8153, 8159, 8160, 8154, 8112, 8125,6.372549772262573
117, 8177, 8191, 8189, 8180, 8192, 8186, 8185, 8185, 8148, 8156, 8161, 8178, 8117, 8142,6.372549772262573
118, 8189, 8195, 8160, 8207, 8196, 8193, 8203, 8157, 8170, 8180, 8180, 8183, 8133, 8149,6.388075828552246
119, 8200, 8203, 8217, 8200, 8188, 8191, 8186, 8189, 8159, 8172, 8170, 8191, 8126, 8165,6.388075828552246
120, 8191, 8194, 8181, 8204, 8191, 8185, 8180, 8163, 8166, 8176, 8172, 8185, 8133, 8156,6.403909206390381
121, 8194, 8189, 8191, 8202, 8185, 8181, 8175, 8168, 8160, 8166, 8164, 8186, 8128, 8166,6.403909206390381
122, 8199, 8209, 8215, 8213, 8187, 8197, 8189, 8191, 8158, 8174, 8164, 8190, 8126, 8176,6.4198760986328125
123, 8182, 8191, 8165, 8213, 8197, 8192, 8199, 8154, 8176, 8198, 8178, 8175, 8135, 8159,6.4198760986328125
124, 8165, 8169, 8190, 8174, 8185, 8192, 8185, 8185, 8175, 8182, 8157, 8179, 8126, 8159,6.434973478317261
125, 8159, 8172, 8161, 8190, 8187, 8211, 8214, 8177, 8201, 8202, 8156, 8172, 8131, 8154,6.434973478317261
126, 8158, 8172, 8166, 8192, 8197, 8209, 8219, 8183, 8208, 8217, 8165, 8162, 8129, 8148,6.450516700744629
127, 8139, 8166, 8176, 8162, 8190, 8204, 8200, 8197, 8192, 8209, 8162, 8159, 8125, 8134,6.450516700744629
236, 8120, 8144, 8128, 8161, 8177, 8193, 8201, 8158, 8196, 8208, 8148, 8132, 8122, 8105,6.465746164321899
0, 8131, 8145, 8179, 8160, 8167, 8189, 8195, 8190, 8189, 8189, 8130, 8136, 8102, 8118,6.465746164321899
1, 8142, 8163, 8166, 8177, 8178, 8198, 8213, 8175, 8205, 8206, 8152, 8149, 8116, 8133,6.4818336963653564
2, 8160, 8173, 8173, 8174, 8190, 8193, 8221, 8168, 8201, 8224, 8160, 8154, 8130, 8159,6.4818336963653564
3, 8185, 8182, 8210, 8171, 8189, 8200, 8219, 8200, 8198, 8219, 8159, 8174, 8129, 8186,6.497668266296387
4, 8180, 8165, 8159, 8174, 8180, 8197, 8220, 8161, 8217, 8214, 8163, 8168, 8129, 8160,6.497668266296387
5, 8166, 8158, 8185, 8136, 8169, 8184, 8187, 8179, 8186, 8176, 8127, 8155, 8105, 8146,6.512784957885742
6, 8165, 8162, 8168, 8140, 8171, 8181, 8173, 8167, 8184, 8175, 8132, 8152, 8107, 8150,6.512784957885742
7, 8182, 8155, 8153, 8145, 8166, 8175, 8163, 8154, 8193, 8178, 8151, 8163, 8118, 8155,6.529448747634888
8, 8189, 8161, 8182, 8129, 8160, 8188, 8160, 8185, 8181, 8160, 8144, 8180, 8120, 8160,6.529448747634888
9, 8177, 8154, 8140, 8139, 8171, 8183, 8179, 8152, 8197, 8171, 8152, 8166, 8137, 8145,6.544565677642822
10, 8174, 8149, 8176, 8122, 8168, 8176, 8183, 8183, 8206, 8172, 8152, 8173, 8135, 8155,6.544565677642822
11, 8160, 8152, 8165, 8125, 8165, 8189, 8207, 8183, 8230, 8189, 8164, 8179, 8140, 8150,6.560261249542236
12, 8147, 8146, 8144, 8130, 8168, 8180, 8216, 8163, 8233, 8190, 8160, 8156, 8133, 8127,6.560261249542236
13, 8152, 8160, 8173, 8118, 8172, 8177, 8203, 8198, 8211, 8166, 8145, 8154, 8112, 8127,6.575629472732544
14, 8150, 8160, 8128, 8127, 8177, 8167, 8203, 8161, 8211, 8175, 8165, 8151, 8116, 8117,6.576631546020508
15, 8144, 8149, 8156, 8117, 8165, 8151, 8182, 8177, 8188, 8158, 8159, 8151, 8108, 8119,6.590775489807129
16, 8139, 8160, 8146, 8130, 8164, 8154, 8175, 8178, 8178, 8146, 8148, 8148, 8100, 8109,6.60646653175354
17, 8144, 8161, 8126, 8136, 8167, 8145, 8154, 8149, 8166, 8135, 8136, 8142, 8088, 8098,6.60746693611145
18, 8153, 8165, 8177, 8118, 8162, 8156, 8131, 8175, 8140, 8116, 8125, 8166, 8079, 8121,6.623769760131836
19, 8163, 8167, 8146, 8146, 8177, 8170, 8154, 8143, 8153, 8137, 8155, 8178, 8100, 8126,6.623769760131836
20, 8182, 8178, 8177, 8153, 8182, 8163, 8153, 8171, 8143, 8137, 8159, 8183, 8099, 8133,6.623769760131836
21, 8174, 8196, 8176, 8161, 8177, 8175, 8158, 8179, 8136, 8142, 8155, 8177, 8094, 8125,6.639334201812744
22, 8165, 8187, 8147, 8171, 8184, 8185, 8175, 8142, 8146, 8152, 8170, 8168, 8100, 8115,6.639334201812744
23, 8163, 8184, 8197, 8157, 8182, 8188, 8162, 8177, 8136, 8134, 8173, 8182, 8098, 8129,6.652474403381348
24, 8136, 8170, 8137, 8163, 8173, 8166, 8153, 8151, 8128, 8134, 8157, 8155, 8092, 8104,6.667670726776123
25, 8108, 8145, 8122, 8127, 8152, 8131, 8131, 8155, 8093, 8106, 8112, 8125, 8056, 8076,6.667670726776123
26, 8080, 8122, 8121, 8087, 8130, 8131, 8116, 8166, 8086, 8090, 8101, 8108, 8039, 8061,6.682496786117554
27, 8058, 8099, 8086, 8085, 8117, 8129, 8105, 8138, 8097, 8102, 8105, 8085, 8044, 8049,6.682496786117554
28, 8073, 8122, 8142, 8090, 8118, 8139, 8097, 8179, 8091, 8100, 8087, 8104, 8036, 8073,6.697657585144043
29, 8098, 8139, 8125, 8120, 8134, 8156, 8128, 8159, 8118, 8126, 8106, 8120, 8055, 8081,6.697657585144043
30, 8109, 8130, 8145, 8115, 8130, 8153, 8136, 8165, 8114, 8120, 8111, 8124, 8065, 8087,6.712953805923462
31, 8104, 8132, 8156, 8103, 8122, 8160, 8141, 8182, 8095, 8099, 8088, 8116, 8047, 8091,6.712953805923462
32, 8097, 8118, 8106, 8101, 8124, 8158, 8150, 8141, 8095, 8100, 8064, 8081, 8029, 8074,6.728591203689575
33, 8114, 8123, 8157, 8085, 8119, 8156, 8140, 8176, 8084, 8087, 8049, 8091, 8026, 8091,6.728591203689575
34, 8121, 8138, 8142, 8114, 8116, 8158, 8161, 8161, 8099, 8103, 8070, 8107, 8049, 8098,6.743647336959839
35, 8115, 8124, 8139, 8110, 8112, 8149, 8159, 8160, 8097, 8105, 8061, 8095, 8038, 8095,6.743647336959839
36, 8115, 8123, 8159, 8093, 8120, 8164, 8145, 8186, 8098, 8103, 8058, 8095, 8039, 8099,6.758786678314209
37, 8117, 8125, 8126, 8116, 8136, 8173, 8155, 8157, 8141, 8142, 8092, 8101, 8080, 8101,6.758786678314209
38, 8117, 8128, 8167, 8113, 8139, 8177, 8154, 8191, 8157, 8158, 8093, 8117, 8086, 8122,6.774456024169922
39, 8096, 8124, 8127, 8110, 8141, 8186, 8166, 8169, 8173, 8164, 8087, 8098, 8073, 8100,6.774456024169922
40, 8084, 8112, 8111, 8092, 8132, 8174, 8158, 8153, 8162, 8147, 8076, 8073, 8060, 8074,6.789466381072998
41, 8091, 8116, 8145, 8084, 8132, 8175, 8153, 8188, 8138, 8140, 8072, 8091, 8065, 8086,6.789466381072998
42, 8093, 8108, 8108, 8100, 8144, 8172, 8171, 8157, 8153, 8157, 8088, 8093, 8081, 8083,6.804909944534302
43, 8104, 8114, 8146, 8086, 8142, 8168, 8174, 8187, 8157, 8141, 8083, 8099, 8074, 8093,6.804909944534302
44, 8112, 8130, 8138, 8094, 8148, 8173, 8189, 8182, 8183, 8153, 8099, 8113, 8093, 8099,6.820426940917969
45, 8120, 8123, 8132, 8084, 8143, 8158, 8184, 8167, 8188, 8161, 8109, 8117, 8108, 8106,6.820426940917969
46, 8126, 8126, 8163, 8068, 8121, 8147, 8159, 8186, 8161, 8146, 8101, 8128, 8098, 8118,6.836449384689331
47, 8135, 8128, 8131, 8101, 8121, 8134, 8136, 8150, 8162, 8151, 8122, 8132, 8104, 8114,6.836449384689331
48, 8148, 8134, 8179, 8099, 8131, 8133, 8106, 8180, 8161, 8134, 8122, 8148, 8101, 8125,6.851601600646973
49, 8139, 8135, 8152, 8092, 8138, 8149, 8119, 8168, 8176, 8145, 8115, 8132, 8104, 8109,6.851601600646973
50, 8136, 8121, 8132, 8087, 8132, 8145, 8125, 8148, 8163, 8155, 8111, 8111, 8101, 8095,6.866847038269043
51, 8143, 8137, 8182, 8085, 8130, 8161, 8116, 8188, 8143, 8137, 8121, 8135, 8096, 8111,6.883416414260864
52, 8129, 8140, 8128, 8108, 8140, 8168, 8148, 8150, 8177, 8155, 8138, 8127, 8110, 8103,6.883416414260864
53, 8125, 8126, 8150, 8085, 8131, 8156, 8155, 8170, 8168, 8150, 8112, 8122, 8097, 8105,6.883416414260864
54, 8121, 8121, 8148, 8080, 8125, 8167, 8163, 8173, 8159, 8150, 8110, 8127, 8090, 8102,6.898444890975952
55, 8118, 8117, 8126, 8094, 8131, 8172, 8172, 8155, 8180, 8163, 8123, 8123, 8101, 8099,6.899444103240967
56, 8130, 8132, 8175, 8094, 8132, 8178, 8159, 8201, 8184, 8163, 8114, 8142, 8107, 8122,6.912867784500122
57, 8138, 8134, 8145, 8112, 8138, 8171, 8162, 8167, 8184, 8178, 8133, 8143, 8120, 8113,6.929183006286621
58, 8141, 8137, 8177, 8104, 8131, 8153, 8149, 8175, 8166, 8167, 8136, 8147, 8116, 8114,6.929183006286621
59, 8144, 8144, 8175, 8098, 8121, 8159, 8147, 8184, 8176, 8168, 8136, 8159, 8123, 8120,6.929183006286621
60, 8165, 8137, 8147, 8093, 8127, 8154, 8153, 8157, 8187, 8174, 8151, 8164, 8132, 8122,6.943439245223999
61, 8189, 8157, 8213, 8104, 8133, 8150, 8147, 8183, 8168, 8148, 8160, 8189, 8124, 8149,6.958922386169434
62, 8180, 8161, 8189, 8158, 8124, 8141, 8150, 8148, 8164, 8145, 8175, 8194, 8129, 8142,6.958922386169434
63, 8191, 8158, 8207, 8170, 8103, 8127, 8123, 8163, 8136, 8131, 8179, 8212, 8134, 8141,6.974809646606445
64, 8222, 8200, 8242, 8217, 8120, 8138, 8118, 8176, 8129, 8131, 8211, 8255, 8155, 8163,6.974809646606445
65, 8237, 8212, 8239, 8275, 8141, 8134, 8130, 8136, 8145, 8148, 8247, 8283, 8177, 8169,6.990837097167969
66, 8244, 8190, 8281, 8235, 8116, 8124, 8118, 8174, 8130, 8143, 8249, 8303, 8175, 8182,6.990837097167969
67, 8241, 8191, 8238, 8234, 8109, 8128, 8122, 8156, 8133, 8150, 8260, 8288, 8184, 8168,7.006085157394409
68, 8233, 8202, 8246, 8267, 8131, 8130, 8118, 8156, 8126, 8128, 8248, 8283, 8167, 8158,7.006085157394409
69, 8217, 8191, 8253, 8267, 8141, 8143, 8123, 8173, 8125, 8122, 8245, 8294, 8153, 8154,7.02165961265564
70, 8214, 8186, 8215, 8265, 8131, 8142, 8134, 8144, 8130, 8137, 8257, 8279, 8159, 8141,7.02165961265564
71, 8232, 8217, 8269, 8261, 8122, 8150, 8125, 8179, 8115, 8122, 8241, 8282, 8155, 8154,7.036717176437378
72, 8232, 8208, 8231, 8265, 8138, 8157, 8141, 8159, 8141, 8146, 8247, 8279, 8168, 8151,7.036717176437378
73, 8233, 8183, 8216, 8241, 8137, 8140, 8142, 8152, 8140, 8145, 8241, 8269, 8167, 8152,7.0529398918151855
74, 8237, 8204, 8234, 8236, 8117, 8147, 8132, 8172, 8117, 8131, 8234, 8271, 8168, 8162,7.0529398918151855
75, 8229, 8204, 8192, 8245, 8125, 8150, 8132, 8140, 8126, 8150, 8238, 8252, 8181, 8150,7.068512916564941
76, 8233, 8199, 8234, 8224, 8147, 8149, 8119, 8177, 8121, 8136, 8213, 8244, 8166, 8157,7.068512916564941
77, 8234, 8208, 8206, 8235, 8154, 8160, 8134, 8158, 8130, 8141, 8216, 8240, 8167, 8153,7.08453893661499
78, 8231, 8197, 8189, 8218, 8140, 8156, 8133, 8150, 8130, 8155, 8220, 8236, 8172, 8156,7.08453893661499
79, 8225, 8190, 8203, 8195, 8135, 8161, 8122, 8183, 8114, 8146, 8207, 8223, 8162, 8150,7.100248098373413
80, 8202, 8175, 8149, 8204, 8146, 8150, 8125, 8146, 8102, 8130, 8196, 8185, 8143, 8104,7.100248098373413
81, 8188, 8167, 8179, 8179, 8144, 8143, 8121, 8169, 8086, 8117, 8180, 8190, 8128, 8107,7.1158506870269775
82, 8193, 8167, 8160, 8173, 8147, 8159, 8159, 8164, 8132, 8163, 8207, 8205, 8156, 8128,7.1158506870269775
83, 8205, 8160, 8156, 8178, 8151, 8163, 8180, 8161, 8151, 8176, 8217, 8200, 8163, 8130,7.131717681884766
84, 8195, 8177, 8191, 8178, 8148, 8172, 8168, 8194, 8120, 8141, 8198, 8199, 8142, 8126,7.131717681884766
85, 8179, 8171, 8141, 8181, 8143, 8172, 8166, 8156, 8138, 8154, 8201, 8182, 8151, 8109,7.146796703338623
86, 8175, 8161, 8172, 8155, 8136, 8167, 8145, 8182, 8134, 8157, 8178, 8174, 8138, 8113,7.146796703338623
87, 8163, 8175, 8166, 8173, 8154, 8177, 8151, 8172, 8116, 8151, 8166, 8160, 8119, 8099,7.162828683853149
88, 8167, 8170, 8155, 8195, 8164, 8178, 8165, 8148, 8111, 8143, 8173, 8151, 8121, 8101,7.162828683853149
89, 8173, 8157, 8187, 8179, 8153, 8186, 8170, 8191, 8118, 8156, 8160, 8166, 8125, 8134,7.177933931350708
90, 8154, 8144, 8134, 8180, 8148, 8186, 8182, 8160, 8149, 8201, 8152, 8155, 8140, 8134,7.177933931350708
91, 8166, 8146, 8169, 8167, 8144, 8176, 8169, 8172, 8154, 8191, 8147, 8158, 8145, 8143,7.193797826766968
92, 8183, 8147, 8175, 8167, 8153, 8176, 8180, 8185, 8176, 8196, 8166, 8174, 8163, 8155,7.193797826766968
93, 8168, 8131, 8143, 8159, 8153, 8161, 8189, 8169, 8182, 8213, 8162, 8160, 8161, 8150,7.209361553192139
94, 8148, 8140, 8171, 8135, 8137, 8159, 8170, 8188, 8152, 8187, 8134, 8147, 8135, 8141,7.209361553192139
95, 8146, 8146, 8131, 8148, 8139, 8160, 8170, 8148, 8154, 8176, 8153, 8139, 8148, 8113,7.224501132965088
96, 8167, 8151, 8164, 8136, 8146, 8148, 8153, 8170, 8134, 8161, 8164, 8154, 8148, 8118,7.224501132965088
97, 8164, 8166, 8173, 8142, 8151, 8156, 8150, 8180, 8125, 8154, 8168, 8161, 8137, 8121,7.24052357673645
98, 8141, 8152, 8132, 8148, 8140, 8150, 8155, 8148, 8137, 8148, 8170, 8140, 8129, 8105,7.24052357673645
99, 8139, 8151, 8169, 8124, 8126, 8147, 8145, 8185, 8134, 8140, 8164, 8146, 8120, 8107,7.255670547485352
100, 8154, 8168, 8152, 8157, 8150, 8151, 8159, 8162, 8152, 8168, 8192, 8157, 8142, 8103,7.255670547485352
101, 8174, 8186, 8191, 8180, 8170, 8149, 8160, 8169, 8141, 8163, 8204, 8173, 8147, 8127,7.271625757217407
102, 8176, 8199, 8201, 8183, 8164, 8162, 8166, 8177, 8130, 8160, 8196, 8177, 8147, 8141,7.271625757217407
103, 8173, 8190, 8161, 8185, 8155, 8154, 8168, 8146, 8136, 8177, 8188, 8156, 8149, 8128,7.286794662475586
104, 8178, 8192, 8206, 8170, 8152, 8152, 8140, 8181, 8112, 8152, 8178, 8170, 8139, 8145,7.286794662475586
105, 8171, 8185, 8166, 8181, 8158, 8156, 8135, 8155, 8115, 8149, 8192, 8170, 8141, 8136,7.302955150604248
106, 8172, 8182, 8172, 8172, 8161, 8143, 8120, 8158, 8119, 8154, 8186, 8162, 8136, 8124,7.302955150604248
107, 8179, 8200, 8191, 8172, 8166, 8153, 8113, 8176, 8125, 8162, 8187, 8171, 8143, 8129,7.317736625671387
108, 8179, 8191, 8157, 8187, 8177, 8163, 8130, 8143, 8138, 8180, 8201, 8167, 8158, 8127,7.317736625671387
109, 8182, 8188, 8208, 8172, 8177, 8172, 8141, 8184, 8134, 8173, 8189, 8179, 8153, 8143,7.333408355712891
110, 8181, 8196, 8180, 8181, 8183, 8170, 8163, 8166, 8154, 8181, 8196, 8181, 8166, 8139,7.333408355712891
111, 8178, 8192, 8169, 8167, 8181, 8151, 8158, 8158, 8144, 8163, 8191, 8180, 8161, 8129,7.34855055809021
112, 8164, 8193, 8185, 8154, 8175, 8157, 8155, 8191, 8128, 8145, 8173, 8180, 8135, 8116,7.34855055809021
113, 8157, 8185, 8147, 8175, 8172, 8165, 8165, 8165, 8145, 8162, 8170, 8163, 8131, 8096,7.363713502883911
114, 8178, 8194, 8193, 8172, 8173, 8169, 8162, 8190, 8149, 8164, 8165, 8180, 8137, 8121,7.37911319732666
115, 8180, 8202, 8176, 8183, 8190, 8176, 8187, 8175, 8168, 8177, 8181, 8186, 8153, 8131,7.37911319732666
116, 8176, 8185, 8172, 8177, 8186, 8179, 8190, 8174, 8156, 8170, 8162, 8171, 8144, 8135,7.37911319732666
117, 8179, 8183, 8193, 8171, 8167, 8188, 8182, 8192, 8129, 8157, 8131, 8175, 8132, 8149,7.3945183753967285
118, 8177, 8183, 8151, 8187, 8170, 8169, 8187, 8146, 8135, 8168, 8147, 8178, 8147, 8138,7.3945183753967285
119, 8185, 8190, 8199, 8168, 8172, 8163, 8166, 8176, 8129, 8157, 8160, 8198, 8145, 8147,7.410568475723267
120, 8182, 8194, 8179, 8174, 8170, 8183, 8168, 8166, 8144, 8167, 8170, 8194, 8147, 8149,7.410568475723267
121, 8180, 8182, 8173, 8183, 8161, 8175, 8163, 8153, 8147, 8171, 8160, 8182, 8142, 8151,7.426720380783081
122, 8196, 8199, 8222, 8186, 8166, 8183, 8151, 8189, 8148, 8173, 8164, 8204, 8145, 8170,7.426720380783081
123, 8197, 8206, 8174, 8199, 8179, 8187, 8164, 8149, 8165, 8199, 8196, 8202, 8161, 8162,7.441763877868652
124, 8182, 8195, 8193, 8167, 8165, 8178, 8161, 8172, 8140, 8177, 8177, 8196, 8147, 8159,7.458529949188232
125, 8170, 8188, 8179, 8161, 8169, 8196, 8190, 8183, 8154, 8179, 8166, 8193, 8149, 8153,7.458529949188232
126, 8169, 8179, 8162, 8163, 8189, 8205, 8217, 8174, 8189, 8195, 8163, 8181, 8150, 8145,7.458529949188232
127, 8160, 8181, 8186, 8141, 8179, 8208, 8211, 8205, 8188, 8183, 8135, 8176, 8129, 8143,7.472764253616333
236, 8145, 8170, 8138, 8148, 8167, 8197, 8210, 8171, 8192, 8195, 8140, 8168, 8137, 8128,7.4877870082855225
0, 8149, 8169, 8178, 8140, 8166, 8175, 8188, 8188, 8176, 8193, 8155, 8185, 8147, 8141,7.4877870082855225
1, 8147, 8174, 8170, 8142, 8170, 8171, 8184, 8179, 8168, 8189, 8151, 8184, 8143, 8136,7.5034260749816895
2, 8145, 8160, 8139, 8142, 8165, 8171, 8187, 8152, 8150, 8168, 8118, 8160, 8122, 8121,7.5034260749816895
3, 8146, 8165, 8183, 8125, 8157, 8181, 8175, 8188, 8123, 8143, 8100, 8165, 8109, 8138,7.519475221633911
4, 8132, 8160, 8138, 8124, 8161, 8177, 8177, 8148, 8140, 8167, 8120, 8150, 8118, 8125,7.519475221633911
5, 8132, 8150, 8154, 8107, 8159, 8170, 8162, 8164, 8132, 8161, 8105, 8141, 8103, 8124,7.520475625991821
6, 8141, 8161, 8162, 8126, 8160, 8188, 8166, 8182, 8132, 8166, 8099, 8153, 8107, 8136,7.534685850143433
7, 8138, 8158, 8132, 8138, 8164, 8182, 8171, 8146, 8147, 8182, 8105, 8149, 8124, 8128,7.549851655960083
8, 8120, 8152, 8164, 8103, 8166, 8181, 8164, 8171, 8136, 8162, 8087, 8142, 8106, 8126,7.549851655960083
9, 8100, 8143, 8116, 8107, 8171, 8190, 8179, 8150, 8145, 8172, 8098, 8126, 8106, 8114,7.565413236618042
10, 8112, 8144, 8129, 8102, 8165, 8186, 8178, 8173, 8144, 8180, 8101, 8127, 8109, 8125,7.565413236618042
11, 8122, 8156, 8142, 8103, 8163, 8197, 8197, 8196, 8171, 8189, 8099, 8135, 8117, 8136,7.581935882568359
12, 8113, 8144, 8113, 8112, 8167, 8195, 8216, 8167, 8206, 8202, 8098, 8124, 8122, 8121,7.581935882568359
13, 8108, 8141, 8153, 8089, 8160, 8192, 8198, 8199, 8183, 8183, 8077, 8127, 8099, 8120,7.598031997680664
14, 8097, 8137, 8104, 8081, 8149, 8192, 8198, 8174, 8176, 8181, 8084, 8116, 8094, 8099,7.598031997680664
15, 8096, 8124, 8113, 8066, 8136, 8182, 8183, 8176, 8162, 8164, 8081, 8114, 8093, 8098,7.614012956619263
16, 8110, 8135, 8150, 8081, 8144, 8184, 8174, 8192, 8161, 8159, 8088, 8139, 8105, 8117,7.614012956619263
17, 8129, 8141, 8124, 8106, 8160, 8174, 8182, 8157, 8184, 8180, 8112, 8142, 8124, 8126,7.629629135131836
18, 8151, 8150, 8167, 8089, 8151, 8171, 8166, 8185, 8168, 8170, 8109, 8152, 8122, 8153,7.629629135131836
19, 8149, 8148, 8139, 8107, 8150, 8171, 8164, 8157, 8156, 8161, 8107, 8149, 8127, 8141,7.645596265792847
20, 8139, 8132, 8139, 8094, 8154, 8151, 8151, 8147, 8131, 8124, 8080, 8129, 8104, 8111,7.645596265792847
21, 8130, 8136, 8152, 8066, 8142, 8158, 8142, 8169, 8118, 8102, 8076, 8126, 8091, 8105,7.660768985748291
22, 8132, 8139, 8112, 8093, 8136, 8159, 8146, 8140, 8137, 8129, 8116, 8133, 8113, 8103,7.660768985748291
23, 8143, 8158, 8161, 8109, 8142, 8151, 8125, 8173, 8124, 8122, 8120, 8152, 8102, 8107,7.675896167755127
24, 8130, 8173, 8134, 8116, 8151, 8160, 8128, 8153, 8115, 8114, 8110, 8131, 8083, 8084,7.675896167755127
25, 8120, 8168, 8129, 8106, 8152, 8164, 8134, 8151, 8113, 8110, 8106, 8118, 8082, 8087,7.691493988037109
26, 8121, 8176, 8159, 8104, 8160, 8174, 8144, 8188, 8120, 8118, 8112, 8136, 8088, 8109,7.691493988037109
27, 8120, 8166, 8114, 8129, 8173, 8181, 8170, 8151, 8141, 8146, 8115, 8115, 8086, 8097,7.706517696380615
28, 8132, 8156, 8154, 8120, 8167, 8198, 8173, 8184, 8140, 8146, 8094, 8112, 8075, 8111,7.706517696380615
29, 8130, 8153, 8139, 8125, 8170, 8213, 8189, 8181, 8161, 8176, 8105, 8123, 8098, 8121,7.722602844238281
30, 8131, 8143, 8129, 8126, 8169, 8202, 8189, 8159, 8160, 8183, 8105, 8118, 8107, 8117,7.722602844238281
31, 8139, 8154, 8168, 8122, 8151, 8201, 8176, 8181, 8141, 8157, 8084, 8124, 8091, 8123,7.738260984420776
32, 8137, 8154, 8126, 8137, 8152, 8191, 8182, 8150, 8168, 8176, 8102, 8123, 8101, 8126,7.738260984420776
33, 8148, 8148, 8164, 8123, 8155, 8176, 8167, 8181, 8178, 8180, 8112, 8138, 8106, 8150,7.753425359725952
34, 8160, 8152, 8163, 8131, 8155, 8178, 8161, 8176, 8187, 8191, 8128, 8149, 8120, 8149,7.753425359725952
35, 8165, 8154, 8151, 8136, 8153, 8163, 8150, 8157, 8186, 8197, 8134, 8157, 8128, 8145,7.768963575363159
36, 8179, 8171, 8193, 8128, 8155, 8161, 8142, 8197, 8181, 8181, 8130, 8189, 8131, 8173,7.768963575363159
37, 8187, 8174, 8148, 8140, 8158, 8165, 8161, 8166, 8212, 8188, 8156, 8189, 8151, 8160,7.784653425216675
38, 8182, 8169, 8175, 8116, 8141, 8156, 8153, 8180, 8195, 8174, 8153, 8179, 8138, 8146,7.784653425216675
39, 8165, 8168, 8164, 8110, 8137, 8160, 8160, 8179, 8183, 8167, 8140, 8173, 8127, 8138,7.80054783821106
40, 8160, 8157, 8127, 8109, 8151, 8161, 8168, 8151, 8187, 8161, 8135, 8160, 8123, 8123,7.80054783821106
41, 8168, 8170, 8169, 8097, 8155, 8176, 8165, 8188, 8170, 8148, 8146, 8172, 8120, 8131,7.816167593002319
42, 8173, 8178, 8144, 8122, 8155, 8175, 8172, 8164, 8172, 8165, 8181, 8181, 8147, 8132,7.816167593002319
43, 8183, 8182, 8174, 8127, 8151, 8155, 8149, 8178, 8150, 8149, 8175, 8193, 8147, 8150,7.831829786300659
44, 8178, 8194, 8176, 8141, 8160, 8165, 8141, 8176, 8138, 8142, 8172, 8193, 8136, 8148,7.831829786300659
45, 8168, 8183, 8150, 8157, 8164, 8164, 8144, 8141, 8129, 8139, 8172, 8173, 8128, 8130,7.8469398021698
46, 8176, 8191, 8203, 8150, 8159, 8173, 8142, 8178, 8112, 8119, 8161, 8187, 8120, 8153,7.8469398021698
47, 8177, 8196, 8167, 8171, 8167, 8186, 8169, 8158, 8137, 8153, 8176, 8189, 8140, 8155,7.862521409988403
48, 8166, 8180, 8168, 8160, 8158, 8177, 8163, 8171, 8126, 8154, 8155, 8171, 8128, 8142,7.862521409988403
49, 8147, 8175, 8160, 8154, 8150, 8187, 8152, 8177, 8112, 8134, 8129, 8152, 8103, 8134,7.878490924835205
50, 8142, 8168, 8129, 8167, 8163, 8190, 8155, 8146, 8133, 8148, 8130, 8137, 8107, 8131,7.878490924835205
51, 8152, 8167, 8184, 8155, 8165, 8189, 8147, 8183, 8132, 8155, 8121, 8151, 8112, 8149,7.8937668800354
52, 8147, 8159, 8146, 8168, 8164, 8187, 8159, 8151, 8135, 8171, 8132, 8148, 8125, 8147,7.8937668800354
53, 8149, 8152, 8150, 8155, 8157, 8175, 8153, 8154, 8117, 8161, 8125, 8145, 8118, 8145,7.909494161605835
54, 8145, 8153, 8167, 8144, 8151, 8185, 8160, 8184, 8116, 8156, 8114, 8147, 8107, 8138,7.909494161605835
55, 8142, 8139, 8132, 8159, 8152, 8182, 8183, 8153, 8142, 8174, 8131, 8135, 8121, 8129,7.92557692527771
56, 8158, 8147, 8176, 8136, 8149, 8178, 8181, 8184, 8144, 8171, 8142, 8156, 8135, 8158,7.92557692527771
57, 8153, 8147, 8137, 8128, 8147, 8181, 8194, 8164, 8162, 8181, 8149, 8155, 8141, 8145,7.94163703918457
58, 8142, 8128, 8135, 8113, 8134, 8166, 8186, 8163, 8156, 8167, 8125, 8132, 8117, 8129,7.94163703918457
59, 8153, 8139, 8168, 8111, 8127, 8160, 8168, 8184, 8140, 8153, 8121, 8148, 8113, 8149,7.957114934921265
60, 8171, 8148, 8137, 8133, 8134, 8145, 8157, 8144, 8145, 8163, 8150, 8171, 8137, 8152,7.957114934921265
61, 8186, 8156, 8182, 8123, 8132, 8138, 8136, 8181, 8139, 8149, 8149, 8193, 8139, 8159,7.972850322723389
62, 8183, 8160, 8159, 8136, 8134, 8146, 8137, 8173, 8154, 8157, 8163, 8187, 8148, 8151,7.9732666015625
63, 8180, 8160, 8156, 8134, 8134, 8141, 8132, 8157, 8143, 8149, 8174, 8185, 8142, 8144,7.988451719284058
64, 8183, 8173, 8189, 8124, 8132, 8150, 8126, 8176, 8122, 8124, 8160, 8191, 8128, 8142,7.988451719284058
65, 8176, 8166, 8143, 8136, 8143, 8151, 8129, 8144, 8133, 8128, 8150, 8161, 8123, 8117,8.003596067428589
66, 8164, 8162, 8175, 8125, 8151, 8162, 8118, 8178, 8124, 8122, 8139, 8154, 8103, 8116,8.003596067428589
67, 8150, 8169, 8161, 8142, 8162, 8187, 8146, 8167, 8133, 8143, 8151, 8156, 8111, 8114,8.019102811813354
68, 8158, 8168, 8159, 8158, 8167, 8182, 8164, 8153, 8129, 8157, 8148, 8143, 8119, 8120,8.019102811813354
69, 8167, 8179, 8190, 8160, 8160, 8185, 8161, 8186, 8113, 8149, 8145, 8156, 8118, 8140,8.039802551269531
70, 8157, 8172, 8140, 8174, 8161, 8187, 8183, 8151, 8133, 8168, 8160, 8153, 8135, 8134,8.042844295501709
71, 8156, 8156, 8179, 8149, 8159, 8185, 8176, 8178, 8133, 8157, 8131, 8141, 8122, 8140,8.042844295501709
72, 8151, 8144, 8166, 8143, 8153, 8192, 8176, 8176, 8142, 8166, 8125, 8132, 8115, 8137,8.049965620040894
73, 8145, 8128, 8140, 8139, 8137, 8178, 8177, 8148, 8137, 8175, 8135, 8129, 8120, 8137,8.065614223480225
74, 8150, 8139, 8176, 8126, 8131, 8178, 8168, 8177, 8116, 8159, 8118, 8138, 8118, 8146,8.065614223480225
75, 8154, 8144, 8137, 8152, 8151, 8182, 8181, 8156, 8144, 8181, 8129, 8138, 8130, 8134,8.081639051437378
76, 8170, 8146, 8175, 8146, 8162, 8179, 8177, 8185, 8160, 8193, 8150, 8170, 8139, 8157,8.081639051437378
77, 8185, 8157, 8182, 8146, 8165, 8187, 8184, 8181, 8182, 8205, 8165, 8186, 8155, 8177,8.096784114837646
78, 8193, 8150, 8157, 8147, 8163, 8168, 8172, 8150, 8198, 8203, 8159, 8166, 8162, 8161,8.096784114837646
79, 8193, 8155, 8191, 8129, 8151, 8155, 8141, 8184, 8185, 8185, 8158, 8177, 8156, 8155,8.112414360046387
80, 8182, 8157, 8151, 8145, 8156, 8158, 8150, 8150, 8195, 8199, 8188, 8186, 8169, 8146,8.112414360046387
81, 8185, 8162, 8173, 8134, 8157, 8154, 8148, 8163, 8182, 8184, 8174, 8189, 8157, 8150,8.128001689910889
82, 8181, 8177, 8165, 8130, 8151, 8154, 8145, 8172, 8163, 8165, 8160, 8182, 8139, 8130,8.128001689910889
83, 8172, 8173, 8132, 8142, 8148, 8144, 8150, 8144, 8148, 8150, 8165, 8165, 8128, 8102,8.143661260604858
84, 8177, 8183, 8191, 8140, 8152, 8156, 8158, 8181, 8129, 8126, 8155, 8175, 8111, 8115,8.143661260604858
85, 8170, 8183, 8156, 8165, 8174, 8172, 8179, 8156, 8143, 8144, 8162, 8161, 8113, 8108,8.158855199813843
86, 8163, 8174, 8161, 8177, 8176, 8182, 8179, 8165, 8142, 8149, 8150, 8148, 8114, 8117,8.158855199813843
87, 8161, 8182, 8171, 8188, 8168, 8204, 8202, 8181, 8153, 8165, 8144, 8149, 8131, 8139,8.174419403076172
88, 8160, 8165, 8144, 8185, 8165, 8192, 8213, 8151, 8161, 8186, 8138, 8128, 8139, 8136,8.189916849136353
89, 8171, 8156, 8188, 8156, 8158, 8179, 8190, 8183, 8137, 8162, 8119, 8134, 8120, 8150,8.189916849136353
90, 8180, 8160, 8155, 8179, 8158, 8185, 8214, 8158, 8158, 8175, 8144, 8147, 8145, 8156,8.209948301315308
91, 8192, 8165, 8170, 8189, 8149, 8173, 8210, 8164, 8162, 8181, 8161, 8160, 8169, 8172,8.209948301315308
92, 8197, 8173, 8186, 8180, 8148, 8170, 8180, 8181, 8157, 8178, 8164, 8173, 8166, 8183,8.209948301315308
93, 8188, 8153, 8144, 8169, 8155, 8168, 8172, 8143, 8174, 8186, 8165, 8169, 8165, 8168,8.22248387336731
94, 8179, 8148, 8182, 8139, 8145, 8170, 8164, 8178, 8162, 8166, 8152, 8178, 8160, 8165,8.22248387336731
95, 8167, 8157, 8142, 8148, 8142, 8167, 8169, 8160, 8171, 8172, 8170, 8171, 8166, 8148,8.238532543182373
96, 8165, 8150, 8137, 8134, 8142, 8149, 8157, 8156, 8173, 8165, 8169, 8169, 8152, 8140,8.238532543182373
97, 8162, 8149, 8160, 8115, 8142, 8155, 8154, 8183, 8165, 8155, 8156, 8181, 8145, 8143,8.253553867340088
98, 8158, 8152, 8119, 8132, 8146, 8159, 8162, 8151, 8181, 8171, 8169, 8166, 8160, 8133,8.268592596054077
99, 8165, 8164, 8162, 8124, 8146, 8158, 8143, 8182, 8170, 8157, 8163, 8166, 8149, 8141,8.268592596054077
100, 8158, 8163, 8142, 8138, 8153, 8152, 8148, 8165, 8160, 8156, 8166, 8168, 8146, 8128,8.283588409423828
101, 8159, 8156, 8141, 8143, 8154, 8142, 8148, 8154, 8147, 8154, 8176, 8173, 8146, 8127,8.283588409423828
102, 8174, 8175, 8178, 8140, 8155, 8161, 8145, 8176, 8138, 8143, 8184, 8188, 8148, 8146,8.299614906311035
103, 8179, 8179, 8143, 8158, 8168, 8158, 8153, 8141, 8139, 8149, 8193, 8177, 8153, 8132,8.299614906311035
104, 8177, 8182, 8182, 8156, 8170, 8152, 8142, 8177, 8122, 8140, 8174, 8176, 8130, 8134,8.315625190734863
105, 8164, 8186, 8173, 8177, 8172, 8177, 8160, 8170, 8139, 8159, 8171, 8169, 8133, 8140,8.315625190734863
106, 8161, 8169, 8164, 8175, 8167, 8176, 8165, 8152, 8141, 8165, 8167, 8157, 8141, 8143,8.33063554763794
107, 8158, 8165, 8183, 8159, 8157, 8175, 8146, 8182, 8127, 8156, 8149, 8158, 8129, 8146,8.33063554763794
108, 8140, 8155, 8131, 8173, 8158, 8182, 8154, 8151, 8154, 8185, 8144, 8135, 8129, 8125,8.345782279968262
109, 8137, 8144, 8168, 8149, 8154, 8192, 8162, 8178, 8148, 8188, 8125, 8130, 8128, 8132,8.345782279968262
110, 8130, 8139, 8149, 8133, 8158, 8197, 8179, 8172, 8146, 8186, 8125, 8132, 8134, 8129,8.362059831619263
111, 8119, 8127, 8112, 8122, 8157, 8177, 8177, 8151, 8150, 8171, 8121, 8121, 8123, 8114,8.362059831619263
112, 8121, 8136, 8153, 8106, 8148, 8174, 8171, 8184, 8150, 8159, 8113, 8133, 8118, 8126,8.377990007400513
113, 8126, 8132, 8126, 8119, 8141, 8166, 8179, 8150, 8177, 8185, 8138, 8138, 8149, 8124,8.377990007400513
114, 8135, 8131, 8156, 8102, 8137, 8150, 8147, 8174, 8165, 8169, 8144, 8149, 8150, 8128,8.39346432685852
115, 8138, 8158, 8147, 8111, 8149, 8154, 8134, 8176, 8153, 8155, 8157, 8151, 8150, 8119,8.39346432685852
116, 8150, 8175, 8138, 8140, 8157, 8153, 8137, 8147, 8137, 8151, 8165, 8139, 8149, 8108,8.408657789230347
117, 8166, 8195, 8201, 8149, 8155, 8164, 8140, 8182, 8106, 8126, 8154, 8151, 8127, 8122,8.408657789230347
118, 8155, 8185, 8159, 8164, 8159, 8165, 8149, 8148, 8113, 8136, 8159, 8143, 8124, 8111,8.423785924911499
119, 8158, 8176, 8184, 8161, 8159, 8161, 8129, 8164, 8113, 8145, 8150, 8140, 8125, 8126,8.423785924911499
120, 8176, 8198, 8200, 8185, 8174, 8185, 8137, 8182, 8130, 8171, 8166, 8159, 8149, 8153,8.43990969657898
121, 8175, 8189, 8171, 8186, 8177, 8181, 8151, 8150, 8127, 8175, 8183, 8156, 8165, 8145,8.43990969657898
122, 8162, 8181, 8203, 8150, 8158, 8171, 8136, 8177, 8091, 8142, 8165, 8154, 8152, 8139,8.455496311187744
123, 8158, 8184, 8162, 8177, 8164, 8180, 8155, 8151, 8120, 8168, 8172, 8147, 8162, 8135,8.455496311187744
124, 8166, 8175, 8182, 8179, 8167, 8181, 8165, 8169, 8133, 8174, 8157, 8147, 8152, 8141,8.470707178115845
125, 8158, 8170, 8187, 8160, 8161, 8187, 8174, 8187, 8120, 8157, 8140, 8145, 8136, 8131,8.470707178115845
126, 8157, 8168, 8148, 8165, 8166, 8186, 8189, 8153, 8123, 8165, 8147, 8132, 8147, 8126,8.486270666122437
127, 8170, 8179, 8193, 8163, 8164, 8189, 8172, 8185, 8115, 8158, 8135, 8143, 8149, 8151,8.486270666122437
236, 8164, 8180, 8157, 8181, 8171, 8186, 8162, 8159, 8127, 8165, 8140, 8138, 8147, 8132,8.501920223236084
0, 8164, 8178, 8169, 8183, 8177, 8171, 8139, 8160, 8117, 8152, 8142, 8142, 8132, 8117,8.501920223236084
1, 8161, 8186, 8185, 8190, 8178, 8188, 8147, 8180, 8114, 8149, 8145, 8159, 8142, 8126,8.517501592636108
2, 8149, 8174, 8142, 8201, 8182, 8193, 8182, 8150, 8139, 8171, 8153, 8143, 8164, 8121,8.517501592636108
3, 8150, 8170, 8183, 8175, 8174, 8178, 8167, 8180, 8130, 8157, 8133, 8139, 8150, 8124,8.532745361328125
4, 8150, 8169, 8155, 8179, 8166, 8169, 8149, 8155, 8125, 8148, 8134, 8132, 8145, 8109,8.532745361328125
5, 8156, 8167, 8160, 8175, 8165, 8173, 8152, 8159, 8132, 8147, 8145, 8140, 8151, 8117,8.547881841659546
6, 8167, 8185, 8190, 8174, 8180, 8199, 8181, 8192, 8167, 8182, 8163, 8164, 8175, 8148,8.547881841659546
7, 8177, 8184, 8159, 8201, 8194, 8190, 8194, 8153, 8193, 8219, 8177, 8160, 8192, 8148,8.56346321105957
8, 8182, 8183, 8198, 8189, 8181, 8175, 8163, 8175, 8156, 8186, 8160, 8165, 8166, 8156,8.56346321105957
9, 8170, 8172, 8163, 8182, 8179, 8185, 8165, 8161, 8148, 8178, 8163, 8161, 8159, 8149,8.578549146652222
10, 8174, 8158, 8164, 8179, 8182, 8181, 8179, 8161, 8151, 8182, 8167, 8162, 8162, 8140,8.578549146652222
11, 8177, 8176, 8200, 8188, 8176, 8183, 8190, 8196, 8153, 8184, 8174, 8183, 8166, 8146,8.594674587249756
12, 8154, 8159, 8138, 8188, 8170, 8182, 8195, 8161, 8176, 8203, 8176, 8162, 8173, 8137,8.594674587249756
13, 8150, 8138, 8166, 8140, 8160, 8179, 8170, 8181, 8149, 8176, 8136, 8142, 8145, 8138,8.609878540039062
14, 8160, 8153, 8163, 8152, 8158, 8182, 8173, 8162, 8132, 8167, 8136, 8144, 8142, 8128,8.609878540039062
15, 8162, 8161, 8159, 8179, 8155, 8168, 8169, 8148, 8134, 8177, 8155, 8156, 8154, 8132,8.625500679016113
16, 8160, 8167, 8186, 8172, 8159, 8176, 8165, 8190, 8132, 8183, 8153, 8171, 8151, 8158,8.625500679016113
17, 8158, 8165, 8140, 8178, 8166, 8184, 8186, 8159, 8156, 8201, 8164, 8157, 8165, 8151,8.641589164733887
18, 8172, 8169, 8183, 8166, 8155, 8183, 8171, 8176, 8163, 8187, 8164, 8165, 8168, 8154,8.641589164733887
19, 8181, 8182, 8184, 8185, 8156, 8188, 8168, 8172, 8175, 8193, 8176, 8178, 8177, 8160,8.657466650009155
20, 8187, 8181, 8173, 8201, 8167, 8179, 8170, 8157, 8169, 8209, 8184, 8179, 8190, 8171,8.657466650009155
21, 8186, 8176, 8208, 8190, 8160, 8180, 8156, 8186, 8155, 8202, 8179, 8198, 8192, 8186,8.67254376411438
22, 8164, 8154, 8150, 8191, 8148, 8170, 8161, 8146, 8170, 8202, 8184, 8188, 8187, 8152,8.67254376411438
23, 8161, 8154, 8171, 8171, 8143, 8161, 8165, 8172, 8158, 8187, 8173, 8179, 8161, 8144,8.68860411643982
24, 8170, 8170, 8176, 8181, 8154, 8173, 8181, 8180, 8163, 8192, 8187, 8184, 8164, 8148,8.68860411643982
25, 8171, 8164, 8164, 8199, 8156, 8167, 8171, 8152, 8156, 8175, 8189, 8186, 8166, 8138,8.704731941223145
26, 8177, 8185, 8216, 8212, 8143, 8164, 8150, 8183, 8121, 8135, 8170, 8204, 8154, 8158,8.704731941223145
27, 8198, 8203, 8192, 8256, 8151, 8167, 8169, 8148, 8137, 8156, 8205, 8225, 8180, 8170,8.72083044052124
28, 8224, 8199, 8230, 8258, 8154, 8163, 8169, 8165, 8146, 8157, 8227, 8261, 8196, 8186,8.72083044052124
29, 8225, 8202, 8236, 8256, 8150, 8163, 8164, 8176, 8150, 8148, 8225, 8271, 8195, 8190,8.736690521240234
30, 8218, 8197, 8197, 8263, 8149, 8145, 8157, 8148, 8152, 8155, 8214, 8247, 8187, 8171,8.736690521240234
31, 8208, 8198, 8226, 8249, 8146, 8141, 8142, 8185, 8135, 8144, 8189, 8244, 8169, 8161,8.75291633605957
32, 8192, 8193, 8173, 8255, 8149, 8148, 8158, 8152, 8142, 8146, 8192, 8229, 8170, 8141,8.75291633605957
33, 8195, 8189, 8185, 8230, 8143, 8138, 8139, 8155, 8123, 8128, 8182, 8226, 8154, 8146,8.768884658813477
34, 8197, 8202, 8199, 8222, 8145, 8144, 8119, 8172, 8114, 8126, 8190, 8239, 8151, 8151,8.768884658813477
35, 8193, 8191, 8167, 8230, 8154, 8142, 8121, 8142, 8131, 8136, 8213, 8228, 8172, 8140,8.78390383720398
36, 8197, 8191, 8206, 8206, 8150, 8147, 8119, 8174, 8116, 8126, 8200, 8233, 8171, 8153,8.78390383720398
37, 8186, 8196, 8165, 8213, 8155, 8150, 8141, 8152, 8120, 8143, 8200, 8225, 8169, 8139,8.799883604049683
38, 8173, 8187, 8173, 8202, 8160, 8137, 8143, 8156, 8113, 8127, 8190, 8207, 8154, 8125,8.799883604049683
39, 8175, 8195, 8193, 8197, 8170, 8159, 8151, 8176, 8116, 8122, 8196, 8209, 8164, 8134,8.814563512802124
40, 8181, 8193, 8159, 8217, 8171, 8174, 8167, 8153, 8147, 8164, 8223, 8211, 8194, 8140,8.814563512802124
41, 8185, 8185, 8198, 8195, 8156, 8168, 8156, 8191, 8143, 8156, 8210, 8210, 8181, 8151,8.830034732818604
42, 8169, 8179, 8163, 8196, 8166, 8169, 8177, 8165, 8145, 8149, 8195, 8180, 8165, 8131,8.830034732818604
43, 8161, 8176, 8162, 8194, 8177, 8168, 8175, 8157, 8130, 8143, 8174, 8160, 8149, 8122,8.845181465148926
44, 8152, 8169, 8176, 8180, 8169, 8179, 8154, 8181, 8119, 8141, 8146, 8143, 8132, 8117,8.845181465148926
45, 8139, 8145, 8125, 8180, 8170, 8181, 8160, 8145, 8134, 8152, 8133, 8109, 8126, 8104,8.8604736328125
46, 8154, 8159, 8173, 8173, 8184, 8193, 8170, 8180, 8128, 8143, 8135, 8137, 8133, 8144,8.8604736328125
47, 8165, 8172, 8159, 8195, 8191, 8206, 8189, 8167, 8147, 8165, 8168, 8166, 8171, 8164,8.877029657363892
48, 8172, 8144, 8156, 8181, 8168, 8191, 8176, 8154, 8152, 8159, 8164, 8157, 8175, 8160,8.877029657363892
49, 8184, 8142, 8185, 8148, 8152, 8191, 8169, 8181, 8144, 8138, 8141, 8160, 8157, 8170,8.891582012176514
50, 8177, 8143, 8139, 8152, 8158, 8187, 8186, 8146, 8163, 8157, 8142, 8149, 8168, 8152,8.891582012176514
51, 8156, 8129, 8160, 8123, 8144, 8176, 8176, 8172, 8159, 8155, 8130, 8139, 8159, 8132,8.90670132637024
52, 8124, 8114, 8120, 8103, 8133, 8177, 8188, 8160, 8164, 8162, 8141, 8128, 8157, 8106,8.921764850616455
53, 8122, 8112, 8113, 8100, 8143, 8168, 8186, 8152, 8166, 8159, 8151, 8120, 8165, 8108,8.921764850616455
54, 8146, 8141, 8166, 8111, 8148, 8170, 8169, 8197, 8169, 8145, 8146, 8146, 8168, 8140,8.937110185623169
55, 8156, 8140, 8122, 8132, 8147, 8164, 8177, 8158, 8193, 8147, 8154, 8154, 8172, 8139,8.937110185623169
56, 8161, 8132, 8156, 8106, 8145, 8160, 8176, 8177, 8178, 8125, 8137, 8150, 8159, 8140,8.952828168869019
57, 8162, 8144, 8157, 8114, 8149, 8168, 8180, 8180, 8178, 8140, 8134, 8140, 8160, 8132,8.952828168869019
58, 8167, 8147, 8151, 8139, 8145, 8155, 8169, 8154, 8181, 8158, 8138, 8137, 8155, 8127,8.968489408493042
59, 8171, 8159, 8191, 8142, 8150, 8160, 8153, 8177, 8176, 8153, 8138, 8161, 8152, 8145,8.968489408493042
60, 8163, 8161, 8140, 8149, 8171, 8162, 8168, 8146, 8201, 8171, 8169, 8161, 8181, 8134,8.983920097351074
