COUNTER,F3,FC5,AF3,F7,T7,P7,O1,O2,P8,T8,F8,AF4,FC6,F4,Timestamp
35, 8190, 8161, 8172, 8168, 8189, 8183, 8161, 8168, 8057, 8176, 8235, 8156, 8169, 8126,0.008000373840332031
35, 8190, 8161, 8172, 8168, 8189, 8183, 8161, 8168, 8057, 8176, 8235, 8156, 8169, 8126,0.008000373840332031
36, 8187, 8190, 8192, 8178, 8185, 8191, 8145, 8172, 8180, 8170, 8231, 8184, 8177, 8137,0.016000986099243164
36, 8187, 8190, 8192, 8178, 8185, 8191, 8145, 8172, 8180, 8170, 8231, 8184, 8177, 8137,0.016000986099243164
37, 8164, 8157, 8169, 8161, 8196, 8179, 8155, 8167, 8098, 8187, 8241, 8150, 8171, 8122,0.023000240325927734
37, 8164, 8157, 8169, 8161, 8196, 8179, 8155, 8167, 8098, 8187, 8241, 8150, 8171, 8122,0.023000240325927734
38, 8182, 8166, 8169, 8162, 8187, 8170, 8146, 8166, 8127, 8176, 8238, 8162, 8171, 8126,0.031000137329101562
38, 8182, 8166, 8169, 8162, 8187, 8170, 8146, 8166, 8127, 8176, 8238, 8162, 8171, 8126,0.031000137329101562
39, 8157, 8167, 8166, 8161, 8165, 8170, 8127, 8153, 8139, 8155, 8218, 8160, 8164, 8103,0.03900575637817383
39, 8157, 8167, 8166, 8161, 8165, 8170, 8127, 8153, 8139, 8155, 8218, 8160, 8164, 8103,0.03900575637817383
40, 8158, 8153, 8157, 8161, 8185, 8179, 8142, 8145, 8026, 8168, 8203, 8130, 8155, 8100,0.04700517654418945
40, 8158, 8153, 8157, 8161, 8185, 8179, 8142, 8145, 8026, 8168, 8203, 8130, 8155, 8100,0.04700517654418945
41, 8177, 8177, 8169, 8160, 8185, 8174, 8128, 8160, 8120, 8145, 8190, 8169, 8163, 8112,0.05451250076293945
41, 8177, 8177, 8169, 8160, 8185, 8174, 8128, 8160, 8120, 8145, 8190, 8169, 8163, 8112,0.055512189865112305
42, 8145, 8142, 8148, 8144, 8184, 8167, 8125, 8151, 8032, 8151, 8207, 8141, 8161, 8092,0.06351208686828613
42, 8145, 8142, 8148, 8144, 8184, 8167, 8125, 8151, 8032, 8151, 8207, 8141, 8161, 8092,0.06351208686828613
43, 8168, 8152, 8157, 8160, 8176, 8174, 8133, 8148, 8045, 8152, 8197, 8151, 8166, 8100,0.0705111026763916
43, 8168, 8152, 8157, 8160, 8176, 8174, 8133, 8148, 8045, 8152, 8197, 8151, 8166, 8100,0.0705111026763916
44, 8175, 8170, 8171, 8156, 8179, 8174, 8139, 8158, 8117, 8143, 8201, 8173, 8175, 8109,0.07851266860961914
44, 8175, 8170, 8171, 8156, 8179, 8174, 8139, 8158, 8117, 8143, 8201, 8173, 8175, 8109,0.07851266860961914
45, 8156, 8160, 8167, 8159, 8205, 8187, 8153, 8169, 8060, 8176, 8251, 8154, 8170, 8112,0.08651518821716309
45, 8156, 8160, 8167, 8159, 8205, 8187, 8153, 8169, 8060, 8176, 8251, 8154, 8170, 8112,0.08751344680786133
46, 8171, 8186, 8183, 8191, 8188, 8199, 8138, 8174, 8182, 8173, 8240, 8189, 8170, 8111,0.09352636337280273
46, 8171, 8186, 8183, 8191, 8188, 8199, 8138, 8174, 8182, 8173, 8240, 8189, 8170, 8111,0.09464192390441895
47, 8168, 8160, 8164, 8160, 8186, 8195, 8144, 8157, 8083, 8168, 8212, 8155, 8162, 8097,0.10222029685974121
47, 8168, 8160, 8164, 8160, 8186, 8195, 8144, 8157, 8083, 8168, 8212, 8155, 8162, 8097,0.10222029685974121
48, 8177, 8172, 8164, 8146, 8197, 8204, 8158, 8165, 8074, 8162, 8215, 8160, 8164, 8114,0.11021733283996582
48, 8177, 8172, 8164, 8146, 8197, 8204, 8158, 8165, 8074, 8162, 8215, 8160, 8164, 8114,0.11021733283996582
49, 8164, 8181, 8181, 8172, 8201, 8214, 8156, 8182, 8183, 8155, 8230, 8188, 8172, 8118,0.11803221702575684
49, 8164, 8181, 8181, 8172, 8201, 8214, 8156, 8182, 8183, 8155, 8230, 8188, 8172, 8118,0.11803221702575684
50, 8160, 8153, 8174, 8177, 8208, 8217, 8165, 8173, 8092, 8175, 8242, 8159, 8166, 8110,0.1260690689086914
50, 8160, 8153, 8174, 8177, 8208, 8217, 8165, 8173, 8092, 8175, 8242, 8159, 8166, 8110,0.1260690689086914
51, 8185, 8193, 8184, 8172, 8175, 8210, 8154, 8175, 8173, 8159, 8216, 8183, 8165, 8113,0.1340789794921875
51, 8185, 8193, 8184, 8172, 8175, 8210, 8154, 8175, 8173, 8159, 8216, 8183, 8165, 8113,0.1340789794921875
52, 8172, 8170, 8167, 8167, 8176, 8197, 8163, 8174, 8114, 8158, 8207, 8151, 8161, 8100,0.14208292961120605
52, 8172, 8170, 8167, 8167, 8176, 8197, 8163, 8174, 8114, 8158, 8207, 8151, 8161, 8100,0.14208292961120605
53, 8175, 8149, 8162, 8178, 8186, 8194, 8160, 8164, 8073, 8150, 8201, 8144, 8162, 8099,0.14988923072814941
53, 8175, 8149, 8162, 8178, 8186, 8194, 8160, 8164, 8073, 8150, 8201, 8144, 8162, 8099,0.14988923072814941
54, 8151, 8160, 8177, 8156, 8165, 8196, 8138, 8151, 8141, 8134, 8196, 8172, 8165, 8097,0.1564643383026123
54, 8151, 8160, 8177, 8156, 8165, 8196, 8138, 8151, 8141, 8134, 8196, 8172, 8165, 8097,0.15745830535888672
55, 8139, 8146, 8172, 8141, 8178, 8201, 8155, 8154, 8060, 8169, 8228, 8148, 8162, 8112,0.16545891761779785
55, 8139, 8146, 8172, 8141, 8178, 8201, 8155, 8154, 8060, 8169, 8228, 8148, 8162, 8112,0.16545891761779785
56, 8195, 8177, 8194, 8181, 8178, 8199, 8154, 8176, 8187, 8177, 8234, 8186, 8178, 8143,0.17307448387145996
56, 8195, 8177, 8194, 8181, 8178, 8199, 8154, 8176, 8187, 8177, 8234, 8186, 8178, 8143,0.17307448387145996
57, 8196, 8164, 8200, 8177, 8171, 8189, 8150, 8171, 8178, 8189, 8241, 8177, 8180, 8149,0.18155789375305176
57, 8196, 8164, 8200, 8177, 8171, 8189, 8150, 8171, 8178, 8189, 8241, 8177, 8180, 8149,0.18155789375305176
58, 8184, 8165, 8199, 8165, 8168, 8192, 8148, 8169, 8145, 8205, 8249, 8170, 8175, 8159,0.18861818313598633
58, 8184, 8165, 8199, 8165, 8168, 8192, 8148, 8169, 8145, 8205, 8249, 8170, 8175, 8159,0.18961167335510254
59, 8191, 8183, 8195, 8176, 8155, 8190, 8151, 8188, 8251, 8196, 8235, 8190, 8176, 8156,0.19761276245117188
59, 8191, 8183, 8195, 8176, 8155, 8190, 8151, 8188, 8251, 8196, 8235, 8190, 8176, 8156,0.19761276245117188
60, 8195, 8154, 8179, 8175, 8169, 8187, 8177, 8194, 8167, 8215, 8241, 8153, 8167, 8162,0.20561909675598145
60, 8195, 8154, 8179, 8175, 8169, 8187, 8177, 8194, 8167, 8215, 8241, 8153, 8167, 8162,0.20561909675598145
61, 8204, 8182, 8199, 8185, 8166, 8188, 8165, 8202, 8246, 8208, 8237, 8187, 8169, 8173,0.21306824684143066
61, 8204, 8182, 8199, 8185, 8166, 8188, 8165, 8202, 8246, 8208, 8237, 8187, 8169, 8173,0.21306824684143066
62, 8191, 8177, 8199, 8183, 8166, 8182, 8167, 8200, 8236, 8213, 8243, 8180, 8167, 8150,0.22107148170471191
62, 8191, 8177, 8199, 8183, 8166, 8182, 8167, 8200, 8236, 8213, 8243, 8180, 8167, 8150,0.22107148170471191
63, 8205, 8167, 8197, 8187, 8170, 8190, 8184, 8193, 8180, 8221, 8245, 8161, 8163, 8155,0.22803497314453125
63, 8205, 8167, 8197, 8187, 8170, 8190, 8184, 8193, 8180, 8221, 8245, 8161, 8163, 8155,0.22803497314453125
64, 8196, 8182, 8202, 8182, 8160, 8203, 8176, 8195, 8260, 8193, 8224, 8190, 8165, 8157,0.2360544204711914
64, 8196, 8182, 8202, 8182, 8160, 8203, 8176, 8195, 8260, 8193, 8224, 8190, 8165, 8157,0.2360544204711914
65, 8178, 8161, 8179, 8166, 8178, 8199, 8184, 8185, 8140, 8205, 8233, 8158, 8159, 8136,0.24408531188964844
65, 8178, 8161, 8179, 8166, 8178, 8199, 8184, 8185, 8140, 8205, 8233, 8158, 8159, 8136,0.24408531188964844
66, 8201, 8182, 8189, 8181, 8165, 8178, 8169, 8186, 8191, 8195, 8226, 8177, 8160, 8139,0.25228047370910645
66, 8201, 8182, 8189, 8181, 8165, 8178, 8169, 8186, 8191, 8195, 8226, 8177, 8160, 8139,0.25228047370910645
67, 8176, 8164, 8181, 8165, 8157, 8169, 8169, 8187, 8192, 8184, 8221, 8170, 8161, 8136,0.2600705623626709
67, 8176, 8164, 8181, 8165, 8157, 8169, 8169, 8187, 8192, 8184, 8221, 8170, 8161, 8136,0.2600705623626709
68, 8173, 8156, 8170, 8158, 8173, 8191, 8190, 8188, 8136, 8202, 8229, 8156, 8165, 8140,0.2680678367614746
68, 8173, 8156, 8170, 8158, 8173, 8191, 8190, 8188, 8136, 8202, 8229, 8156, 8165, 8140,0.2680678367614746
69, 8190, 8189, 8186, 8169, 8151, 8195, 8179, 8192, 8240, 8187, 8215, 8192, 8170, 8142,0.27590346336364746
69, 8190, 8189, 8186, 8169, 8151, 8195, 8179, 8192, 8240, 8187, 8215, 8192, 8170, 8142,0.27590346336364746
70, 8176, 8156, 8178, 8151, 8157, 8184, 8182, 8186, 8132, 8191, 8232, 8165, 8162, 8146,0.2829134464263916
70, 8176, 8156, 8178, 8151, 8157, 8184, 8182, 8186, 8132, 8191, 8232, 8165, 8162, 8146,0.2829134464263916
71, 8196, 8177, 8191, 8158, 8160, 8182, 8180, 8191, 8189, 8182, 8227, 8188, 8169, 8165,0.2910647392272949
71, 8196, 8177, 8191, 8158, 8160, 8182, 8180, 8191, 8189, 8182, 8227, 8188, 8169, 8165,0.2910647392272949
72, 8184, 8180, 8192, 8168, 8156, 8177, 8172, 8182, 8210, 8166, 8210, 8183, 8171, 8146,0.2990708351135254
72, 8184, 8180, 8192, 8168, 8156, 8177, 8172, 8182, 8210, 8166, 8210, 8183, 8171, 8146,0.2990708351135254
73, 8184, 8164, 8181, 8174, 8168, 8179, 8177, 8169, 8101, 8168, 8215, 8150, 8162, 8138,0.30692529678344727
73, 8184, 8164, 8181, 8174, 8168, 8179, 8177, 8169, 8101, 8168, 8215, 8150, 8162, 8138,0.30692529678344727
74, 8198, 8196, 8188, 8174, 8151, 8179, 8160, 8166, 8191, 8149, 8204, 8182, 8165, 8138,0.31504130363464355
74, 8198, 8196, 8188, 8174, 8151, 8179, 8160, 8166, 8191, 8149, 8204, 8182, 8165, 8138,0.31504130363464355
75, 8178, 8174, 8168, 8160, 8155, 8183, 8164, 8159, 8095, 8163, 8209, 8155, 8162, 8121,0.3230412006378174
75, 8178, 8174, 8168, 8160, 8155, 8183, 8164, 8159, 8095, 8163, 8209, 8155, 8162, 8121,0.3230412006378174
76, 8197, 8177, 8171, 8174, 8161, 8197, 8163, 8166, 8107, 8154, 8192, 8166, 8164, 8130,0.331043004989624
76, 8197, 8177, 8171, 8174, 8161, 8197, 8163, 8166, 8107, 8154, 8192, 8166, 8164, 8130,0.331043004989624
77, 8173, 8171, 8166, 8164, 8155, 8199, 8153, 8161, 8135, 8145, 8178, 8166, 8165, 8124,0.3390686511993408
77, 8173, 8171, 8166, 8164, 8155, 8199, 8153, 8161, 8135, 8145, 8178, 8166, 8165, 8124,0.3390686511993408
78, 8165, 8160, 8158, 8162, 8173, 8211, 8168, 8162, 8064, 8186, 8199, 8144, 8163, 8130,0.34706950187683105
78, 8165, 8160, 8158, 8162, 8173, 8211, 8168, 8162, 8064, 8186, 8199, 8144, 8163, 8130,0.34706950187683105
79, 8197, 8190, 8179, 8179, 8171, 8222, 8168, 8179, 8206, 8179, 8198, 8188, 8166, 8145,0.3535764217376709
79, 8197, 8190, 8179, 8179, 8171, 8222, 8168, 8179, 8206, 8179, 8198, 8188, 8166, 8145,0.3545706272125244
80, 8181, 8158, 8170, 8168, 8172, 8209, 8176, 8173, 8144, 8174, 8204, 8160, 8161, 8134,0.36257290840148926
80, 8181, 8158, 8170, 8168, 8172, 8209, 8176, 8173, 8144, 8174, 8204, 8160, 8161, 8134,0.36257290840148926
81, 8187, 8168, 8177, 8173, 8161, 8197, 8162, 8170, 8139, 8172, 8200, 8167, 8166, 8145,0.3700687885284424
81, 8187, 8168, 8177, 8173, 8161, 8197, 8162, 8170, 8139, 8172, 8200, 8167, 8166, 8145,0.3700687885284424
82, 8173, 8172, 8173, 8167, 8157, 8197, 8145, 8170, 8167, 8160, 8188, 8173, 8162, 8140,0.37830662727355957
82, 8173, 8172, 8173, 8167, 8157, 8197, 8145, 8170, 8167, 8160, 8188, 8173, 8162, 8140,0.37830662727355957
83, 8163, 8150, 8150, 8168, 8190, 8208, 8170, 8161, 8053, 8167, 8186, 8137, 8156, 8135,0.3863081932067871
83, 8163, 8150, 8150, 8168, 8190, 8208, 8170, 8161, 8053, 8167, 8186, 8137, 8156, 8135,0.3863081932067871
84, 8183, 8183, 8167, 8190, 8193, 8213, 8169, 8169, 8172, 8144, 8171, 8179, 8170, 8141,0.3940694332122803
84, 8183, 8183, 8167, 8190, 8193, 8213, 8169, 8169, 8172, 8144, 8171, 8179, 8170, 8141,0.3940694332122803
85, 8172, 8163, 8163, 8176, 8196, 8203, 8168, 8173, 8128, 8159, 8190, 8161, 8166, 8130,0.4020693302154541
85, 8172, 8163, 8163, 8176, 8196, 8203, 8168, 8173, 8128, 8159, 8190, 8161, 8166, 8130,0.4020693302154541
86, 8181, 8164, 8160, 8174, 8190, 8195, 8167, 8170, 8106, 8172, 8194, 8154, 8161, 8139,0.41008996963500977
86, 8181, 8164, 8160, 8174, 8190, 8195, 8167, 8170, 8106, 8172, 8194, 8154, 8161, 8139,0.41008996963500977
87, 8176, 8178, 8161, 8181, 8178, 8194, 8167, 8173, 8179, 8163, 8187, 8174, 8170, 8143,0.41709256172180176
87, 8176, 8178, 8161, 8181, 8178, 8194, 8167, 8173, 8179, 8163, 8187, 8174, 8170, 8143,0.41709256172180176
88, 8172, 8154, 8149, 8176, 8192, 8203, 8182, 8174, 8104, 8177, 8212, 8152, 8168, 8141,0.42507004737854004
88, 8172, 8154, 8149, 8176, 8192, 8203, 8182, 8174, 8104, 8177, 8212, 8152, 8168, 8141,0.42507004737854004
89, 8182, 8177, 8156, 8178, 8172, 8203, 8159, 8171, 8193, 8152, 8203, 8183, 8165, 8135,0.43310546875
89, 8182, 8177, 8156, 8178, 8172, 8203, 8159, 8171, 8193, 8152, 8203, 8183, 8165, 8135,0.43310546875
90, 8159, 8162, 8140, 8167, 8178, 8195, 8160, 8159, 8122, 8152, 8187, 8152, 8154, 8118,0.44111204147338867
90, 8159, 8162, 8140, 8167, 8178, 8195, 8160, 8159, 8122, 8152, 8187, 8152, 8154, 8118,0.44111204147338867
91, 8167, 8163, 8143, 8177, 8200, 8201, 8167, 8165, 8093, 8166, 8181, 8148, 8156, 8131,0.4491100311279297
91, 8167, 8163, 8143, 8177, 8200, 8201, 8167, 8165, 8093, 8166, 8181, 8148, 8156, 8131,0.4491100311279297
92, 8170, 8181, 8157, 8186, 8186, 8201, 8158, 8178, 8202, 8162, 8184, 8183, 8170, 8137,0.45662975311279297
92, 8170, 8181, 8157, 8186, 8186, 8201, 8158, 8178, 8202, 8162, 8184, 8183, 8170, 8137,0.45662975311279297
93, 8166, 8161, 8145, 8177, 8192, 8199, 8178, 8171, 8104, 8176, 8200, 8150, 8167, 8133,0.46512770652770996
93, 8166, 8161, 8145, 8177, 8192, 8199, 8178, 8171, 8104, 8176, 8200, 8150, 8167, 8133,0.46552085876464844
94, 8173, 8181, 8155, 8179, 8188, 8194, 8166, 8171, 8162, 8154, 8184, 8176, 8163, 8133,0.4725677967071533
94, 8173, 8181, 8155, 8179, 8188, 8194, 8166, 8171, 8162, 8154, 8184, 8176, 8163, 8133,0.47348880767822266
95, 8152, 8164, 8142, 8170, 8188, 8186, 8164, 8168, 8122, 8159, 8185, 8160, 8161, 8120,0.4795870780944824
95, 8152, 8164, 8142, 8170, 8188, 8186, 8164, 8168, 8122, 8159, 8185, 8160, 8161, 8120,0.48048853874206543
96, 8173, 8170, 8139, 8177, 8190, 8196, 8171, 8173, 8098, 8169, 8192, 8154, 8166, 8131,0.4880332946777344
96, 8173, 8170, 8139, 8177, 8190, 8196, 8171, 8173, 8098, 8169, 8192, 8154, 8166, 8131,0.488328218460083
97, 8179, 8191, 8155, 8185, 8184, 8195, 8165, 8181, 8209, 8146, 8191, 8186, 8177, 8131,0.496082067489624
97, 8179, 8191, 8155, 8185, 8184, 8195, 8165, 8181, 8209, 8146, 8191, 8186, 8177, 8131,0.496082067489624
98, 8165, 8160, 8142, 8179, 8206, 8191, 8185, 8176, 8106, 8168, 8217, 8148, 8172, 8127,0.5040721893310547
98, 8165, 8160, 8142, 8179, 8206, 8191, 8185, 8176, 8106, 8168, 8217, 8148, 8172, 8127,0.5040721893310547
99, 8196, 8184, 8150, 8186, 8195, 8200, 8185, 8180, 8179, 8164, 8207, 8170, 8172, 8140,0.5115153789520264
99, 8196, 8184, 8150, 8186, 8195, 8200, 8185, 8180, 8179, 8164, 8207, 8170, 8172, 8140,0.5115153789520264
100, 8180, 8168, 8152, 8161, 8189, 8201, 8182, 8173, 8168, 8156, 8197, 8166, 8167, 8127,0.5195891857147217
100, 8180, 8168, 8152, 8161, 8189, 8201, 8182, 8173, 8168, 8156, 8197, 8166, 8167, 8127,0.5195891857147217
101, 8164, 8155, 8150, 8167, 8203, 8189, 8176, 8167, 8102, 8167, 8202, 8148, 8160, 8127,0.5275838375091553
101, 8164, 8155, 8150, 8167, 8203, 8189, 8176, 8167, 8102, 8167, 8202, 8148, 8160, 8127,0.5285823345184326
102, 8165, 8183, 8144, 8187, 8183, 8168, 8146, 8160, 8179, 8140, 8165, 8166, 8159, 8116,0.536069393157959
102, 8165, 8183, 8144, 8187, 8183, 8168, 8146, 8160, 8179, 8140, 8165, 8166, 8159, 8116,0.536069393157959
103, 8153, 8161, 8123, 8166, 8187, 8170, 8156, 8143, 8056, 8148, 8156, 8135, 8153, 8102,0.5433163642883301
103, 8153, 8161, 8123, 8166, 8187, 8170, 8156, 8143, 8056, 8148, 8156, 8135, 8153, 8102,0.5433163642883301
104, 8171, 8178, 8148, 8175, 8185, 8181, 8158, 8159, 8119, 8153, 8159, 8166, 8165, 8127,0.5513150691986084
104, 8171, 8178, 8148, 8175, 8185, 8181, 8158, 8159, 8119, 8153, 8159, 8166, 8165, 8127,0.5513150691986084
105, 8160, 8164, 8146, 8172, 8179, 8170, 8150, 8162, 8120, 8142, 8162, 8161, 8169, 8120,0.5590689182281494
105, 8160, 8164, 8146, 8172, 8179, 8170, 8150, 8162, 8120, 8142, 8162, 8161, 8169, 8120,0.5590689182281494
106, 8161, 8154, 8132, 8169, 8198, 8171, 8160, 8153, 8043, 8145, 8166, 8146, 8160, 8108,0.5670802593231201
106, 8161, 8154, 8132, 8169, 8198, 8171, 8160, 8153, 8043, 8145, 8166, 8146, 8160, 8108,0.5670802593231201
107, 8183, 8195, 8160, 8188, 8203, 8181, 8167, 8171, 8188, 8138, 8162, 8192, 8167, 8122,0.5754520893096924
107, 8183, 8195, 8160, 8188, 8203, 8181, 8167, 8171, 8188, 8138, 8162, 8192, 8167, 8122,0.5754520893096924
108, 8177, 8172, 8157, 8180, 8224, 8182, 8183, 8176, 8122, 8162, 8185, 8158, 8173, 8131,0.5824601650238037
108, 8177, 8172, 8157, 8180, 8224, 8182, 8183, 8176, 8122, 8162, 8185, 8158, 8173, 8131,0.5834519863128662
109, 8180, 8177, 8152, 8176, 8219, 8187, 8170, 8177, 8145, 8154, 8176, 8171, 8172, 8135,0.5910689830780029
109, 8180, 8177, 8152, 8176, 8219, 8187, 8170, 8177, 8145, 8154, 8176, 8171, 8172, 8135,0.5910689830780029
110, 8163, 8169, 8138, 8167, 8212, 8188, 8180, 8182, 8169, 8149, 8153, 8175, 8161, 8119,0.5990686416625977
110, 8163, 8169, 8138, 8167, 8212, 8188, 8180, 8182, 8169, 8149, 8153, 8175, 8161, 8119,0.5990686416625977
111, 8169, 8157, 8137, 8170, 8230, 8192, 8203, 8184, 8105, 8167, 8162, 8152, 8159, 8127,0.6070706844329834
111, 8169, 8157, 8137, 8170, 8230, 8192, 8203, 8184, 8105, 8167, 8162, 8152, 8159, 8127,0.6070706844329834
112, 8182, 8193, 8165, 8186, 8214, 8193, 8179, 8186, 8231, 8150, 8170, 8191, 8175, 8143,0.6143980026245117
112, 8182, 8193, 8165, 8186, 8214, 8193, 8179, 8186, 8231, 8150, 8170, 8191, 8175, 8143,0.6143980026245117
113, 8180, 8176, 8160, 8187, 8221, 8191, 8187, 8182, 8168, 8173, 8187, 8166, 8173, 8145,0.6223986148834229
113, 8180, 8176, 8160, 8187, 8221, 8191, 8187, 8182, 8168, 8173, 8187, 8166, 8173, 8145,0.6223986148834229
114, 8210, 8193, 8173, 8198, 8222, 8197, 8193, 8185, 8192, 8177, 8186, 8182, 8170, 8163,0.6304137706756592
114, 8210, 8193, 8173, 8198, 8222, 8197, 8193, 8185, 8192, 8177, 8186, 8182, 8170, 8163,0.6304137706756592
115, 8194, 8195, 8177, 8186, 8201, 8189, 8175, 8177, 8217, 8165, 8183, 8197, 8170, 8151,0.6380321979522705
115, 8194, 8195, 8177, 8186, 8201, 8189, 8175, 8177, 8217, 8165, 8183, 8197, 8170, 8151,0.6380321979522705
116, 8194, 8173, 8167, 8180, 8215, 8185, 8186, 8165, 8113, 8182, 8190, 8166, 8173, 8149,0.6460690498352051
116, 8194, 8173, 8167, 8180, 8215, 8185, 8186, 8165, 8113, 8182, 8190, 8166, 8173, 8149,0.6460690498352051
117, 8221, 8201, 8190, 8197, 8223, 8185, 8185, 8174, 8231, 8163, 8182, 8193, 8185, 8161,0.6540694236755371
117, 8221, 8201, 8190, 8197, 8223, 8185, 8185, 8174, 8231, 8163, 8182, 8193, 8185, 8161,0.6540694236755371
118, 8192, 8170, 8175, 8182, 8230, 8169, 8180, 8168, 8151, 8167, 8183, 8160, 8166, 8145,0.6620686054229736
118, 8192, 8170, 8175, 8182, 8230, 8169, 8180, 8168, 8151, 8167, 8183, 8160, 8166, 8145,0.6620686054229736
119, 8195, 8169, 8169, 8181, 8212, 8164, 8167, 8160, 8114, 8167, 8166, 8167, 8152, 8144,0.6700685024261475
119, 8195, 8169, 8169, 8181, 8212, 8164, 8167, 8160, 8114, 8167, 8166, 8167, 8152, 8144,0.6700685024261475
120, 8199, 8178, 8174, 8183, 8195, 8176, 8166, 8168, 8173, 8157, 8162, 8188, 8161, 8144,0.6771736145019531
120, 8199, 8178, 8174, 8183, 8195, 8176, 8166, 8168, 8173, 8157, 8162, 8188, 8161, 8144,0.6771736145019531
121, 8198, 8164, 8166, 8179, 8218, 8182, 8182, 8170, 8099, 8175, 8185, 8156, 8167, 8153,0.6851751804351807
121, 8198, 8164, 8166, 8179, 8218, 8182, 8182, 8170, 8099, 8175, 8185, 8156, 8167, 8153,0.6851751804351807
122, 8206, 8188, 8174, 8184, 8208, 8168, 8168, 8169, 8193, 8151, 8162, 8181, 8170, 8159,0.6930687427520752
122, 8206, 8188, 8174, 8184, 8208, 8168, 8168, 8169, 8193, 8151, 8162, 8181, 8170, 8159,0.6930687427520752
123, 8175, 8153, 8146, 8166, 8220, 8164, 8176, 8164, 8115, 8146, 8149, 8151, 8161, 8135,0.7009191513061523
123, 8175, 8153, 8146, 8166, 8220, 8164, 8176, 8164, 8115, 8146, 8149, 8151, 8161, 8135,0.7009191513061523
124, 8179, 8158, 8143, 8165, 8249, 8173, 8171, 8172, 8105, 8153, 8152, 8154, 8168, 8139,0.7089273929595947
124, 8179, 8158, 8143, 8165, 8249, 8173, 8171, 8172, 8105, 8153, 8152, 8154, 8168, 8139,0.7089273929595947
125, 8183, 8181, 8160, 8170, 8261, 8163, 8158, 8173, 8196, 8153, 8152, 8181, 8178, 8142,0.7170717716217041
125, 8183, 8181, 8160, 8170, 8261, 8163, 8158, 8173, 8196, 8153, 8152, 8181, 8178, 8142,0.7170717716217041
126, 8176, 8163, 8151, 8169, 8276, 8163, 8183, 8164, 8091, 8172, 8172, 8150, 8165, 8137,0.7250688076019287
126, 8176, 8163, 8151, 8169, 8276, 8163, 8183, 8164, 8091, 8172, 8172, 8150, 8165, 8137,0.7250688076019287
127, 8190, 8193, 8157, 8184, 8256, 8170, 8173, 8174, 8179, 8154, 8157, 8181, 8162, 8139,0.7334215641021729
127, 8190, 8193, 8157, 8184, 8256, 8170, 8173, 8174, 8179, 8154, 8157, 8181, 8162, 8139,0.7334215641021729
240, 8169, 8173, 8149, 8168, 8258, 8164, 8168, 8170, 8147, 8159, 8152, 8164, 8165, 8126,0.7414951324462891
240, 8169, 8173, 8149, 8168, 8258, 8164, 8168, 8170, 8147, 8159, 8152, 8164, 8165, 8126,0.7414951324462891
0, 8177, 8169, 8161, 8168, 8271, 8170, 8175, 8167, 8121, 8168, 8162, 8165, 8167, 8138,0.7484931945800781
0, 8177, 8169, 8161, 8168, 8271, 8170, 8175, 8167, 8121, 8168, 8162, 8165, 8167, 8138,0.7484931945800781
1, 8178, 8186, 8165, 8170, 8257, 8174, 8161, 8165, 8192, 8141, 8152, 8189, 8161, 8133,0.756070613861084
1, 8178, 8186, 8165, 8170, 8257, 8174, 8161, 8165, 8192, 8141, 8152, 8189, 8161, 8133,0.756070613861084
2, 8161, 8155, 8141, 8151, 8257, 8171, 8164, 8153, 8056, 8141, 8152, 8146, 8153, 8113,0.7640693187713623
2, 8161, 8155, 8141, 8151, 8257, 8171, 8164, 8153, 8056, 8141, 8152, 8146, 8153, 8113,0.7640693187713623
3, 8176, 8177, 8160, 8164, 8243, 8179, 8153, 8159, 8128, 8123, 8135, 8172, 8164, 8118,0.7720036506652832
3, 8176, 8177, 8160, 8164, 8243, 8179, 8153, 8159, 8128, 8123, 8135, 8172, 8164, 8118,0.7720036506652832
4, 8161, 8163, 8155, 8160, 8245, 8191, 8157, 8157, 8118, 8129, 8139, 8163, 8160, 8114,0.7800688743591309
4, 8161, 8163, 8155, 8160, 8245, 8191, 8157, 8157, 8118, 8129, 8139, 8163, 8160, 8114,0.7800688743591309
5, 8163, 8157, 8143, 8155, 8255, 8202, 8170, 8155, 8087, 8146, 8154, 8159, 8157, 8124,0.788438081741333
5, 8163, 8157, 8143, 8155, 8255, 8202, 8170, 8155, 8087, 8146, 8154, 8159, 8157, 8124,0.788438081741333
6, 8158, 8174, 8153, 8155, 8238, 8195, 8154, 8158, 8181, 8122, 8148, 8189, 8161, 8119,0.795600175857544
6, 8158, 8174, 8153, 8155, 8238, 8195, 8154, 8158, 8181, 8122, 8148, 8189, 8161, 8119,0.7966089248657227
7, 8145, 8149, 8153, 8151, 8239, 8192, 8160, 8155, 8062, 8136, 8154, 8153, 8156, 8108,0.8036060333251953
7, 8145, 8149, 8153, 8151, 8239, 8192, 8160, 8155, 8062, 8136, 8154, 8153, 8156, 8108,0.8036060333251953
8, 8178, 8178, 8184, 8172, 8222, 8202, 8157, 8169, 8130, 8142, 8144, 8178, 8165, 8128,0.8106138706207275
8, 8178, 8178, 8184, 8172, 8222, 8202, 8157, 8169, 8130, 8142, 8144, 8178, 8165, 8128,0.8106138706207275
9, 8169, 8172, 8183, 8159, 8215, 8199, 8161, 8171, 8141, 8142, 8149, 8174, 8168, 8129,0.8190686702728271
9, 8169, 8172, 8183, 8159, 8215, 8199, 8161, 8171, 8141, 8142, 8149, 8174, 8168, 8129,0.8190686702728271
10, 8164, 8160, 8156, 8151, 8220, 8196, 8168, 8162, 8079, 8144, 8155, 8155, 8161, 8126,0.827068567276001
10, 8164, 8160, 8156, 8151, 8220, 8196, 8168, 8162, 8079, 8144, 8155, 8155, 8161, 8126,0.827068567276001
11, 8167, 8180, 8148, 8162, 8199, 8200, 8159, 8164, 8168, 8124, 8133, 8186, 8164, 8115,0.8350403308868408
11, 8167, 8180, 8148, 8162, 8199, 8200, 8159, 8164, 8168, 8124, 8133, 8186, 8164, 8115,0.8350403308868408
12, 8162, 8156, 8142, 8161, 8218, 8201, 8176, 8167, 8079, 8151, 8151, 8163, 8161, 8122,0.8430490493774414
12, 8162, 8156, 8142, 8161, 8218, 8201, 8176, 8167, 8079, 8151, 8151, 8163, 8161, 8122,0.8430490493774414
13, 8188, 8181, 8159, 8174, 8216, 8191, 8164, 8174, 8146, 8149, 8160, 8184, 8163, 8142,0.8510534763336182
13, 8188, 8181, 8159, 8174, 8216, 8191, 8164, 8174, 8146, 8149, 8160, 8184, 8163, 8142,0.8510534763336182
14, 8165, 8175, 8143, 8165, 8197, 8175, 8155, 8157, 8134, 8137, 8147, 8175, 8166, 8111,0.8590655326843262
14, 8165, 8175, 8143, 8165, 8197, 8175, 8155, 8157, 8134, 8137, 8147, 8175, 8166, 8111,0.8590655326843262
15, 8158, 8163, 8135, 8166, 8214, 8172, 8163, 8150, 8037, 8145, 8152, 8155, 8170, 8105,0.8671605587005615
15, 8158, 8163, 8135, 8166, 8214, 8172, 8163, 8150, 8037, 8145, 8152, 8155, 8170, 8105,0.8671605587005615
16, 8186, 8200, 8168, 8186, 8210, 8167, 8157, 8171, 8180, 8142, 8163, 8197, 8176, 8130,0.8740694522857666
16, 8186, 8200, 8168, 8186, 8210, 8167, 8157, 8171, 8180, 8142, 8163, 8197, 8176, 8130,0.8740694522857666
17, 8181, 8174, 8163, 8179, 8215, 8172, 8177, 8172, 8132, 8187, 8194, 8165, 8168, 8129,0.8821003437042236
17, 8181, 8174, 8163, 8179, 8215, 8172, 8177, 8172, 8132, 8187, 8194, 8165, 8168, 8129,0.8821003437042236
18, 8190, 8177, 8166, 8184, 8212, 8183, 8176, 8172, 8163, 8188, 8187, 8174, 8168, 8132,0.8896489143371582
18, 8190, 8177, 8166, 8184, 8212, 8183, 8176, 8172, 8163, 8188, 8187, 8174, 8168, 8132,0.8896489143371582
19, 8176, 8175, 8165, 8176, 8209, 8170, 8167, 8170, 8173, 8151, 8173, 8179, 8164, 8129,0.8976485729217529
19, 8176, 8175, 8165, 8176, 8209, 8170, 8167, 8170, 8173, 8151, 8173, 8179, 8164, 8129,0.8976485729217529
20, 8185, 8161, 8155, 8172, 8218, 8165, 8175, 8162, 8071, 8155, 8176, 8156, 8155, 8136,0.9060695171356201
20, 8185, 8161, 8155, 8172, 8218, 8165, 8175, 8162, 8071, 8155, 8176, 8156, 8155, 8136,0.9066636562347412
21, 8202, 8192, 8163, 8179, 8198, 8163, 8163, 8162, 8174, 8147, 8161, 8186, 8162, 8137,0.9136714935302734
21, 8202, 8192, 8163, 8179, 8198, 8163, 8163, 8162, 8174, 8147, 8161, 8186, 8162, 8137,0.9146997928619385
22, 8171, 8171, 8147, 8166, 8203, 8162, 8175, 8155, 8107, 8154, 8180, 8153, 8165, 8127,0.9220690727233887
22, 8171, 8171, 8147, 8166, 8203, 8162, 8175, 8155, 8107, 8154, 8180, 8153, 8165, 8127,0.9220690727233887
23, 8179, 8179, 8149, 8175, 8191, 8166, 8171, 8160, 8130, 8157, 8183, 8166, 8166, 8129,0.9299061298370361
23, 8179, 8179, 8149, 8175, 8191, 8166, 8171, 8160, 8130, 8157, 8183, 8166, 8166, 8129,0.9299061298370361
24, 8169, 8174, 8150, 8166, 8180, 8160, 8157, 8163, 8161, 8154, 8171, 8178, 8158, 8105,0.9380326271057129
24, 8169, 8174, 8150, 8166, 8180, 8160, 8157, 8163, 8161, 8154, 8171, 8178, 8158, 8105,0.9380326271057129
25, 8166, 8159, 8147, 8163, 8205, 8154, 8172, 8161, 8070, 8163, 8183, 8152, 8155, 8107,0.9450693130493164
25, 8166, 8159, 8147, 8163, 8205, 8154, 8172, 8161, 8070, 8163, 8183, 8152, 8155, 8107,0.9450693130493164
26, 8189, 8196, 8166, 8184, 8191, 8158, 8165, 8168, 8201, 8154, 8170, 8196, 8167, 8133,0.9532735347747803
26, 8189, 8196, 8166, 8184, 8191, 8158, 8165, 8168, 8201, 8154, 8170, 8196, 8167, 8133,0.9532735347747803
27, 8159, 8160, 8141, 8163, 8189, 8170, 8171, 8163, 8133, 8186, 8166, 8164, 8159, 8121,0.9612815380096436
27, 8159, 8160, 8141, 8163, 8189, 8170, 8171, 8163, 8133, 8186, 8166, 8164, 8159, 8121,0.9612815380096436
28, 8162, 8157, 8139, 8159, 8198, 8175, 8177, 8167, 8126, 8186, 8160, 8160, 8157, 8121,0.9690682888031006
28, 8162, 8157, 8139, 8159, 8198, 8175, 8177, 8167, 8126, 8186, 8160, 8160, 8157, 8121,0.9690682888031006
29, 8164, 8174, 8149, 8164, 8191, 8161, 8173, 8173, 8190, 8153, 8149, 8186, 8167, 8113,0.9772665500640869
29, 8164, 8174, 8149, 8164, 8191, 8161, 8173, 8173, 8190, 8153, 8149, 8186, 8167, 8113,0.9772665500640869
30, 8165, 8156, 8136, 8166, 8207, 8172, 8181, 8169, 8082, 8180, 8154, 8156, 8166, 8105,0.9850633144378662
30, 8165, 8156, 8136, 8166, 8207, 8172, 8181, 8169, 8082, 8180, 8154, 8156, 8166, 8105,0.9850633144378662
31, 8183, 8183, 8156, 8179, 8210, 8198, 8167, 8176, 8185, 8170, 8144, 8182, 8171, 8118,0.9930696487426758
31, 8183, 8183, 8156, 8179, 8210, 8198, 8167, 8176, 8185, 8170, 8144, 8182, 8171, 8118,0.9930696487426758
32, 8169, 8167, 8153, 8167, 8218, 8196, 8173, 8177, 8154, 8164, 8160, 8171, 8171, 8121,1.001042127609253
32, 8169, 8167, 8153, 8167, 8218, 8196, 8173, 8177, 8154, 8164, 8160, 8171, 8171, 8121,1.001042127609253
33, 8186, 8169, 8154, 8170, 8216, 8191, 8181, 8179, 8144, 8176, 8168, 8180, 8173, 8139,1.0080394744873047
33, 8186, 8169, 8154, 8170, 8216, 8191, 8181, 8179, 8144, 8176, 8168, 8180, 8173, 8139,1.0080394744873047
34, 8184, 8185, 8169, 8175, 8195, 8181, 8167, 8177, 8220, 8163, 8161, 8200, 8175, 8141,1.016068935394287
34, 8184, 8185, 8169, 8175, 8195, 8181, 8167, 8177, 8220, 8163, 8161, 8200, 8175, 8141,1.016068935394287
35, 8180, 8170, 8163, 8174, 8209, 8175, 8180, 8171, 8125, 8175, 8173, 8159, 8164, 8140,1.0240702629089355
35, 8180, 8170, 8163, 8174, 8209, 8175, 8180, 8171, 8125, 8175, 8173, 8159, 8164, 8140,1.0240702629089355
36, 8196, 8192, 8167, 8182, 8202, 8176, 8172, 8176, 8209, 8158, 8155, 8184, 8165, 8143,1.032052755355835
36, 8196, 8192, 8167, 8182, 8202, 8176, 8172, 8176, 8209, 8158, 8155, 8184, 8165, 8143,1.032052755355835
37, 8176, 8166, 8155, 8169, 8196, 8174, 8168, 8169, 8164, 8161, 8166, 8172, 8169, 8129,1.0397450923919678
37, 8176, 8166, 8155, 8169, 8196, 8174, 8168, 8169, 8164, 8161, 8166, 8172, 8169, 8129,1.0397450923919678
38, 8194, 8168, 8159, 8172, 8198, 8179, 8174, 8171, 8131, 8184, 8184, 8171, 8166, 8143,1.0477564334869385
38, 8194, 8168, 8159, 8172, 8198, 8179, 8174, 8171, 8131, 8184, 8184, 8171, 8166, 8143,1.0477564334869385
39, 8194, 8185, 8162, 8169, 8180, 8185, 8170, 8175, 8209, 8168, 8163, 8188, 8161, 8141,1.056070327758789
39, 8194, 8185, 8162, 8169, 8180, 8185, 8170, 8175, 8209, 8168, 8163, 8188, 8161, 8141,1.056070327758789
40, 8174, 8154, 8149, 8163, 8187, 8188, 8174, 8164, 8085, 8155, 8177, 8152, 8161, 8133,1.0640690326690674
40, 8174, 8154, 8149, 8163, 8187, 8188, 8174, 8164, 8085, 8155, 8177, 8152, 8161, 8133,1.0640690326690674
41, 8213, 8191, 8178, 8187, 8183, 8179, 8157, 8168, 8178, 8143, 8192, 8196, 8177, 8157,1.0720689296722412
41, 8213, 8191, 8178, 8187, 8183, 8179, 8157, 8168, 8178, 8143, 8192, 8196, 8177, 8157,1.0720689296722412
42, 8212, 8181, 8173, 8174, 8185, 8174, 8160, 8163, 8179, 8164, 8189, 8187, 8168, 8155,1.0792768001556396
42, 8212, 8181, 8173, 8174, 8185, 8174, 8160, 8163, 8179, 8164, 8189, 8187, 8168, 8155,1.0792768001556396
43, 8195, 8168, 8159, 8165, 8190, 8186, 8167, 8157, 8100, 8166, 8178, 8158, 8158, 8147,1.0872771739959717
43, 8195, 8168, 8159, 8165, 8190, 8186, 8167, 8157, 8100, 8166, 8178, 8158, 8158, 8147,1.0872771739959717
44, 8202, 8192, 8170, 8182, 8181, 8193, 8165, 8169, 8194, 8146, 8169, 8181, 8172, 8139,1.0950641632080078
44, 8202, 8192, 8170, 8182, 8181, 8193, 8165, 8169, 8194, 8146, 8169, 8181, 8172, 8139,1.0950641632080078
45, 8211, 8165, 8159, 8177, 8201, 8204, 8194, 8167, 8133, 8192, 8194, 8155, 8171, 8141,1.1025817394256592
45, 8211, 8165, 8159, 8177, 8201, 8204, 8194, 8167, 8133, 8192, 8194, 8155, 8171, 8141,1.1025817394256592
46, 8210, 8183, 8172, 8182, 8192, 8214, 8180, 8166, 8205, 8185, 8200, 8187, 8175, 8154,1.110579252243042
46, 8210, 8183, 8172, 8182, 8192, 8214, 8180, 8166, 8205, 8185, 8200, 8187, 8175, 8154,1.110579252243042
47, 8167, 8172, 8169, 8176, 8178, 8209, 8160, 8163, 8182, 8149, 8194, 8181, 8171, 8133,1.1185805797576904
47, 8167, 8172, 8169, 8176, 8178, 8209, 8160, 8163, 8182, 8149, 8194, 8181, 8171, 8133,1.1185805797576904
48, 8192, 8166, 8167, 8178, 8192, 8218, 8171, 8164, 8122, 8169, 8198, 8169, 8163, 8147,1.1265816688537598
48, 8192, 8166, 8167, 8178, 8192, 8218, 8171, 8164, 8122, 8169, 8198, 8169, 8163, 8147,1.1265816688537598
49, 8236, 8198, 8196, 8187, 8189, 8228, 8166, 8171, 8254, 8181, 8201, 8216, 8169, 8181,1.1345796585083008
49, 8236, 8198, 8196, 8187, 8189, 8228, 8166, 8171, 8254, 8181, 8201, 8216, 8169, 8181,1.1345796585083008
50, 8218, 8173, 8199, 8181, 8203, 8223, 8170, 8163, 8156, 8188, 8221, 8178, 8165, 8177,1.1415824890136719
50, 8218, 8173, 8199, 8181, 8203, 8223, 8170, 8163, 8156, 8188, 8221, 8178, 8165, 8177,1.1415824890136719
51, 8219, 8188, 8202, 8190, 8185, 8215, 8161, 8164, 8183, 8160, 8204, 8183, 8163, 8160,1.1495823860168457
51, 8219, 8188, 8202, 8190, 8185, 8215, 8161, 8164, 8183, 8160, 8204, 8183, 8163, 8160,1.1495823860168457
52, 8208, 8180, 8183, 8176, 8169, 8212, 8162, 8159, 8194, 8154, 8185, 8184, 8158, 8144,1.1580884456634521
52, 8208, 8180, 8183, 8176, 8169, 8212, 8162, 8159, 8194, 8154, 8185, 8184, 8158, 8144,1.1580884456634521
53, 8204, 8162, 8172, 8166, 8186, 8230, 8176, 8151, 8106, 8166, 8190, 8164, 8158, 8162,1.1660890579223633
53, 8204, 8162, 8172, 8166, 8186, 8230, 8176, 8151, 8106, 8166, 8190, 8164, 8158, 8162,1.1660890579223633
54, 8194, 8184, 8186, 8172, 8170, 8238, 8153, 8156, 8187, 8129, 8174, 8194, 8169, 8165,1.1740880012512207
54, 8194, 8184, 8186, 8172, 8170, 8238, 8153, 8156, 8187, 8129, 8174, 8194, 8169, 8165,1.1740880012512207
55, 8177, 8158, 8166, 8168, 8173, 8235, 8161, 8159, 8099, 8144, 8182, 8171, 8161, 8152,1.1820697784423828
55, 8177, 8158, 8166, 8168, 8173, 8235, 8161, 8159, 8099, 8144, 8182, 8171, 8161, 8152,1.1820697784423828
56, 8218, 8179, 8182, 8195, 8181, 8250, 8179, 8176, 8169, 8168, 8189, 8200, 8160, 8177,1.1900689601898193
56, 8218, 8179, 8182, 8195, 8181, 8250, 8179, 8176, 8169, 8168, 8189, 8200, 8160, 8177,1.1900689601898193
57, 8218, 8183, 8192, 8191, 8185, 8257, 8183, 8176, 8226, 8157, 8192, 8202, 8164, 8178,1.1977393627166748
57, 8218, 8183, 8192, 8191, 8185, 8257, 8183, 8176, 8226, 8157, 8192, 8202, 8164, 8178,1.1977393627166748
58, 8192, 8152, 8169, 8165, 8200, 8248, 8183, 8161, 8103, 8146, 8188, 8162, 8159, 8158,1.2047333717346191
58, 8192, 8152, 8169, 8165, 8200, 8248, 8183, 8161, 8103, 8146, 8188, 8162, 8159, 8158,1.2047333717346191
59, 8186, 8175, 8172, 8169, 8184, 8244, 8161, 8166, 8190, 8133, 8174, 8199, 8165, 8150,1.2127265930175781
59, 8186, 8175, 8172, 8169, 8184, 8244, 8161, 8166, 8190, 8133, 8174, 8199, 8165, 8150,1.2127265930175781
60, 8173, 8164, 8167, 8165, 8191, 8244, 8167, 8170, 8134, 8157, 8201, 8177, 8167, 8155,1.2210693359375
60, 8173, 8164, 8167, 8165, 8191, 8244, 8167, 8170, 8134, 8157, 8201, 8177, 8167, 8155,1.2210693359375
61, 8193, 8175, 8176, 8174, 8195, 8243, 8159, 8170, 8154, 8146, 8202, 8183, 8169, 8173,1.22930908203125
61, 8193, 8175, 8176, 8174, 8195, 8243, 8159, 8170, 8154, 8146, 8202, 8183, 8169, 8173,1.22930908203125
62, 8184, 8176, 8172, 8176, 8181, 8241, 8149, 8170, 8202, 8132, 8183, 8191, 8162, 8152,1.2373130321502686
62, 8184, 8176, 8172, 8176, 8181, 8241, 8149, 8170, 8202, 8132, 8183, 8191, 8162, 8152,1.2373130321502686
63, 8184, 8161, 8161, 8183, 8186, 8246, 8170, 8173, 8105, 8166, 8189, 8160, 8157, 8139,1.2450690269470215
63, 8184, 8161, 8161, 8183, 8186, 8246, 8170, 8173, 8105, 8166, 8189, 8160, 8157, 8139,1.2450690269470215
64, 8206, 8190, 8179, 8193, 8176, 8253, 8164, 8177, 8207, 8151, 8177, 8198, 8170, 8151,1.253401279449463
64, 8206, 8190, 8179, 8193, 8176, 8253, 8164, 8177, 8207, 8151, 8177, 8198, 8170, 8151,1.253401279449463
65, 8173, 8157, 8157, 8168, 8194, 8265, 8172, 8166, 8136, 8142, 8181, 8175, 8164, 8137,1.2614145278930664
65, 8173, 8157, 8157, 8168, 8194, 8265, 8172, 8166, 8136, 8142, 8181, 8175, 8164, 8137,1.2614145278930664
66, 8167, 8161, 8148, 8172, 8203, 8280, 8177, 8176, 8129, 8149, 8182, 8171, 8158, 8136,1.2689752578735352
66, 8167, 8161, 8148, 8172, 8203, 8280, 8177, 8176, 8129, 8149, 8182, 8171, 8158, 8136,1.2689752578735352
67, 8168, 8177, 8155, 8177, 8179, 8264, 8165, 8188, 8205, 8161, 8171, 8190, 8167, 8139,1.2764086723327637
67, 8168, 8177, 8155, 8177, 8179, 8264, 8165, 8188, 8205, 8161, 8171, 8190, 8167, 8139,1.2764086723327637
68, 8170, 8158, 8154, 8166, 8185, 8257, 8176, 8178, 8116, 8196, 8189, 8169, 8173, 8152,1.2844085693359375
68, 8170, 8158, 8154, 8166, 8185, 8257, 8176, 8178, 8116, 8196, 8189, 8169, 8173, 8152,1.2844085693359375
69, 8180, 8186, 8180, 8179, 8177, 8263, 8171, 8183, 8228, 8178, 8186, 8203, 8175, 8169,1.2920687198638916
69, 8180, 8186, 8180, 8179, 8177, 8263, 8171, 8183, 8228, 8178, 8186, 8203, 8175, 8169,1.2920687198638916
70, 8153, 8155, 8158, 8165, 8173, 8249, 8173, 8173, 8157, 8168, 8164, 8167, 8154, 8140,1.299520492553711
70, 8153, 8155, 8158, 8165, 8173, 8249, 8173, 8173, 8157, 8168, 8164, 8167, 8154, 8140,1.300513744354248
71, 8154, 8140, 8130, 8148, 8168, 8241, 8158, 8148, 8066, 8154, 8139, 8153, 8147, 8120,1.3085169792175293
71, 8154, 8140, 8130, 8148, 8168, 8241, 8158, 8148, 8066, 8154, 8139, 8153, 8147, 8120,1.3085169792175293
72, 8138, 8153, 8130, 8136, 8157, 8244, 8131, 8144, 8122, 8132, 8141, 8187, 8161, 8118,1.3160693645477295
72, 8138, 8153, 8130, 8136, 8157, 8244, 8131, 8144, 8122, 8132, 8141, 8187, 8161, 8118,1.3165242671966553
73, 8133, 8139, 8135, 8142, 8182, 8253, 8152, 8159, 8065, 8176, 8175, 8167, 8169, 8135,1.3240642547607422
73, 8133, 8139, 8135, 8142, 8182, 8253, 8152, 8159, 8065, 8176, 8175, 8167, 8169, 8135,1.3240642547607422
74, 8175, 8180, 8172, 8172, 8184, 8260, 8158, 8178, 8194, 8187, 8175, 8203, 8177, 8158,1.3320693969726562
74, 8175, 8180, 8172, 8172, 8184, 8260, 8158, 8178, 8194, 8187, 8175, 8203, 8177, 8158,1.3320693969726562
75, 8158, 8169, 8170, 8166, 8191, 8258, 8161, 8178, 8173, 8175, 8180, 8187, 8168, 8148,1.3390486240386963
75, 8158, 8169, 8170, 8166, 8191, 8258, 8161, 8178, 8173, 8175, 8180, 8187, 8168, 8148,1.3390486240386963
76, 8158, 8163, 8156, 8164, 8200, 8254, 8171, 8182, 8138, 8180, 8183, 8169, 8163, 8149,1.3470439910888672
76, 8158, 8163, 8156, 8164, 8200, 8254, 8171, 8182, 8138, 8180, 8183, 8169, 8163, 8149,1.3470439910888672
77, 8162, 8177, 8159, 8158, 8177, 8246, 8165, 8183, 8227, 8180, 8168, 8189, 8171, 8140,1.355069637298584
77, 8162, 8177, 8159, 8158, 8177, 8246, 8165, 8183, 8227, 8180, 8168, 8189, 8171, 8140,1.355069637298584
78, 8135, 8146, 8140, 8141, 8177, 8239, 8168, 8163, 8103, 8189, 8188, 8158, 8161, 8120,1.363070011138916
78, 8135, 8146, 8140, 8141, 8177, 8239, 8168, 8163, 8103, 8189, 8188, 8158, 8161, 8120,1.363070011138916
79, 8151, 8172, 8148, 8160, 8163, 8230, 8148, 8162, 8153, 8157, 8184, 8187, 8162, 8123,1.370509147644043
79, 8151, 8172, 8148, 8160, 8163, 8230, 8148, 8162, 8153, 8157, 8184, 8187, 8162, 8123,1.3715016841888428
80, 8150, 8168, 8154, 8156, 8174, 8231, 8157, 8165, 8133, 8163, 8183, 8179, 8168, 8116,1.3795044422149658
80, 8150, 8168, 8154, 8156, 8174, 8231, 8157, 8165, 8133, 8163, 8183, 8179, 8168, 8116,1.3795044422149658
81, 8147, 8159, 8152, 8148, 8197, 8239, 8176, 8165, 8083, 8192, 8192, 8163, 8166, 8119,1.3870694637298584
81, 8147, 8159, 8152, 8148, 8197, 8239, 8176, 8165, 8083, 8192, 8192, 8163, 8166, 8119,1.3870694637298584
82, 8142, 8175, 8145, 8148, 8177, 8218, 8163, 8168, 8192, 8171, 8179, 8190, 8170, 8121,1.3950693607330322
82, 8142, 8175, 8145, 8148, 8177, 8218, 8163, 8168, 8192, 8171, 8179, 8190, 8170, 8121,1.3950693607330322
83, 8135, 8151, 8133, 8142, 8190, 8206, 8174, 8169, 8109, 8183, 8202, 8167, 8176, 8125,1.4019839763641357
83, 8135, 8151, 8133, 8142, 8190, 8206, 8174, 8169, 8109, 8183, 8202, 8167, 8176, 8125,1.4019839763641357
84, 8151, 8178, 8157, 8161, 8190, 8210, 8166, 8181, 8172, 8180, 8201, 8192, 8175, 8134,1.4099903106689453
84, 8151, 8178, 8157, 8161, 8190, 8210, 8166, 8181, 8172, 8180, 8201, 8192, 8175, 8134,1.4099903106689453
85, 8131, 8172, 8148, 8154, 8176, 8194, 8157, 8169, 8146, 8169, 8175, 8171, 8160, 8110,1.4179816246032715
85, 8131, 8172, 8148, 8154, 8176, 8194, 8157, 8169, 8146, 8169, 8175, 8171, 8160, 8110,1.4179816246032715
86, 8131, 8154, 8136, 8146, 8182, 8185, 8156, 8154, 8053, 8170, 8175, 8147, 8164, 8108,1.4259841442108154
86, 8131, 8154, 8136, 8146, 8182, 8185, 8156, 8154, 8053, 8170, 8175, 8147, 8164, 8108,1.4259841442108154
87, 8137, 8175, 8156, 8152, 8170, 8183, 8140, 8164, 8168, 8159, 8167, 8186, 8174, 8109,1.4339818954467773
87, 8137, 8175, 8156, 8152, 8170, 8183, 8140, 8164, 8168, 8159, 8167, 8186, 8174, 8109,1.4339818954467773
88, 8120, 8151, 8143, 8143, 8172, 8182, 8155, 8156, 8062, 8175, 8161, 8145, 8155, 8093,1.4419898986816406
88, 8120, 8151, 8143, 8143, 8172, 8182, 8155, 8156, 8062, 8175, 8161, 8145, 8155, 8093,1.4419898986816406
89, 8133, 8169, 8144, 8144, 8162, 8183, 8148, 8154, 8082, 8152, 8146, 8160, 8158, 8098,1.4495880603790283
89, 8133, 8169, 8144, 8144, 8162, 8183, 8148, 8154, 8082, 8152, 8146, 8160, 8158, 8098,1.4495880603790283
90, 8121, 8164, 8142, 8138, 8153, 8179, 8146, 8169, 8136, 8149, 8150, 8171, 8171, 8092,1.4576754570007324
90, 8121, 8164, 8142, 8138, 8153, 8179, 8146, 8169, 8136, 8149, 8150, 8171, 8171, 8092,1.4576754570007324
91, 8115, 8142, 8129, 8145, 8157, 8184, 8165, 8171, 8073, 8173, 8157, 8141, 8166, 8093,1.465069055557251
91, 8115, 8142, 8129, 8145, 8157, 8184, 8165, 8171, 8073, 8173, 8157, 8141, 8166, 8093,1.465069055557251
92, 8104, 8160, 8129, 8145, 8133, 8177, 8147, 8159, 8139, 8142, 8133, 8166, 8161, 8080,1.4730687141418457
92, 8104, 8160, 8129, 8145, 8133, 8177, 8147, 8159, 8139, 8142, 8133, 8166, 8161, 8080,1.4730687141418457
93, 8082, 8128, 8111, 8121, 8135, 8164, 8149, 8152, 8027, 8149, 8135, 8134, 8151, 8060,1.481104850769043
93, 8082, 8128, 8111, 8121, 8135, 8164, 8149, 8152, 8027, 8149, 8135, 8134, 8151, 8060,1.481104850769043
94, 8124, 8150, 8128, 8139, 8137, 8173, 8156, 8166, 8077, 8161, 8135, 8151, 8160, 8089,1.4891047477722168
94, 8124, 8150, 8128, 8139, 8137, 8173, 8156, 8166, 8077, 8161, 8135, 8151, 8160, 8089,1.4891047477722168
95, 8120, 8165, 8140, 8144, 8135, 8179, 8158, 8161, 8144, 8157, 8146, 8169, 8170, 8101,1.4971039295196533
95, 8120, 8165, 8140, 8144, 8135, 8179, 8158, 8161, 8144, 8157, 8146, 8169, 8170, 8101,1.4971039295196533
96, 8102, 8145, 8135, 8137, 8141, 8172, 8160, 8152, 8043, 8166, 8162, 8141, 8163, 8091,1.5051076412200928
96, 8102, 8145, 8135, 8137, 8141, 8172, 8160, 8152, 8043, 8166, 8162, 8141, 8163, 8091,1.5051076412200928
97, 8127, 8165, 8148, 8150, 8119, 8163, 8138, 8163, 8132, 8143, 8135, 8166, 8162, 8086,1.513071060180664
97, 8127, 8165, 8148, 8150, 8119, 8163, 8138, 8163, 8132, 8143, 8135, 8166, 8162, 8086,1.5134496688842773
98, 8128, 8142, 8137, 8140, 8139, 8168, 8150, 8150, 8064, 8150, 8143, 8148, 8160, 8085,1.5210704803466797
98, 8128, 8142, 8137, 8140, 8139, 8168, 8150, 8150, 8064, 8150, 8143, 8148, 8160, 8085,1.5210704803466797
99, 8143, 8165, 8156, 8149, 8158, 8180, 8158, 8152, 8094, 8161, 8161, 8165, 8168, 8102,1.5285069942474365
99, 8143, 8165, 8156, 8149, 8158, 8180, 8158, 8152, 8094, 8161, 8161, 8165, 8168, 8102,1.5295071601867676
100, 8132, 8176, 8158, 8149, 8137, 8171, 8148, 8166, 8153, 8155, 8151, 8168, 8166, 8085,1.5355150699615479
100, 8132, 8176, 8158, 8149, 8137, 8171, 8148, 8166, 8153, 8155, 8151, 8168, 8166, 8085,1.5355150699615479
101, 8130, 8143, 8133, 8138, 8144, 8166, 8162, 8162, 8047, 8172, 8153, 8133, 8156, 8087,1.5435419082641602
101, 8130, 8143, 8133, 8138, 8144, 8166, 8162, 8162, 8047, 8172, 8153, 8133, 8156, 8087,1.5435419082641602
102, 8145, 8167, 8155, 8147, 8141, 8172, 8156, 8160, 8166, 8157, 8154, 8177, 8169, 8112,1.5519542694091797
102, 8145, 8167, 8155, 8147, 8141, 8172, 8156, 8160, 8166, 8157, 8154, 8177, 8169, 8112,1.5519542694091797
103, 8117, 8149, 8146, 8139, 8133, 8166, 8156, 8158, 8110, 8163, 8166, 8151, 8170, 8093,1.5594723224639893
103, 8117, 8149, 8146, 8139, 8133, 8166, 8156, 8158, 8110, 8163, 8166, 8151, 8170, 8093,1.5594723224639893
104, 8139, 8157, 8133, 8147, 8128, 8162, 8150, 8161, 8076, 8170, 8154, 8146, 8162, 8092,1.5674803256988525
104, 8139, 8157, 8133, 8147, 8128, 8162, 8150, 8161, 8076, 8170, 8154, 8146, 8162, 8092,1.568481683731079
105, 8150, 8171, 8140, 8147, 8127, 8160, 8135, 8152, 8138, 8148, 8136, 8172, 8161, 8096,1.5760698318481445
105, 8150, 8171, 8140, 8147, 8127, 8160, 8135, 8152, 8138, 8148, 8136, 8172, 8161, 8096,1.5760698318481445
106, 8126, 8145, 8136, 8136, 8145, 8169, 8151, 8150, 8048, 8162, 8164, 8146, 8168, 8091,1.5840697288513184
106, 8126, 8145, 8136, 8136, 8145, 8169, 8151, 8150, 8048, 8162, 8164, 8146, 8168, 8091,1.5840697288513184
107, 8137, 8168, 8148, 8145, 8126, 8172, 8147, 8175, 8162, 8166, 8162, 8176, 8179, 8102,1.5918288230895996
107, 8137, 8168, 8148, 8145, 8126, 8172, 8147, 8175, 8162, 8166, 8162, 8176, 8179, 8102,1.5918288230895996
108, 8124, 8148, 8139, 8133, 8123, 8165, 8149, 8168, 8113, 8173, 8154, 8152, 8167, 8102,1.598829984664917
108, 8124, 8148, 8139, 8133, 8123, 8165, 8149, 8168, 8113, 8173, 8154, 8152, 8167, 8102,1.598829984664917
109, 8121, 8155, 8141, 8135, 8125, 8158, 8149, 8155, 8066, 8169, 8161, 8151, 8159, 8106,1.60703706741333
109, 8121, 8155, 8141, 8135, 8125, 8158, 8149, 8155, 8066, 8169, 8161, 8151, 8159, 8106,1.60703706741333
110, 8120, 8179, 8142, 8143, 8104, 8139, 8140, 8162, 8153, 8155, 8154, 8179, 8163, 8097,1.6150364875793457
110, 8120, 8179, 8142, 8143, 8104, 8139, 8140, 8162, 8153, 8155, 8154, 8179, 8163, 8097,1.6150364875793457
111, 8117, 8149, 8124, 8135, 8121, 8136, 8152, 8161, 8052, 8176, 8157, 8143, 8162, 8098,1.6230733394622803
111, 8117, 8149, 8124, 8135, 8121, 8136, 8152, 8161, 8052, 8176, 8157, 8143, 8162, 8098,1.6230733394622803
112, 8124, 8166, 8149, 8142, 8119, 8141, 8133, 8159, 8128, 8164, 8154, 8176, 8169, 8105,1.6310725212097168
112, 8124, 8166, 8149, 8142, 8119, 8141, 8133, 8159, 8128, 8164, 8154, 8176, 8169, 8105,1.6310725212097168
113, 8108, 8153, 8149, 8138, 8119, 8134, 8134, 8155, 8112, 8163, 8169, 8167, 8167, 8085,1.639073371887207
113, 8108, 8153, 8149, 8138, 8119, 8134, 8134, 8155, 8112, 8163, 8169, 8167, 8167, 8085,1.639073371887207
114, 8134, 8153, 8143, 8140, 8130, 8138, 8153, 8154, 8073, 8160, 8177, 8150, 8165, 8093,1.6470718383789062
114, 8134, 8153, 8143, 8140, 8130, 8138, 8153, 8154, 8073, 8160, 8177, 8150, 8165, 8093,1.6470718383789062
115, 8127, 8171, 8148, 8129, 8107, 8135, 8134, 8147, 8136, 8121, 8152, 8168, 8164, 8086,1.6550726890563965
115, 8127, 8171, 8148, 8129, 8107, 8135, 8134, 8147, 8136, 8121, 8152, 8168, 8164, 8086,1.6550726890563965
116, 8104, 8144, 8138, 8121, 8110, 8128, 8132, 8133, 8009, 8140, 8155, 8132, 8150, 8068,1.6629319190979004
116, 8104, 8144, 8138, 8121, 8110, 8128, 8132, 8133, 8009, 8140, 8155, 8132, 8150, 8068,1.6629319190979004
117, 8138, 8173, 8164, 8149, 8118, 8136, 8131, 8140, 8101, 8147, 8156, 8167, 8158, 8095,1.6699347496032715
117, 8138, 8173, 8164, 8149, 8118, 8136, 8131, 8140, 8101, 8147, 8156, 8167, 8158, 8095,1.6699347496032715
118, 8123, 8161, 8165, 8144, 8126, 8139, 8135, 8144, 8120, 8143, 8173, 8172, 8169, 8101,1.678030014038086
118, 8123, 8161, 8165, 8144, 8126, 8139, 8135, 8144, 8120, 8143, 8173, 8172, 8169, 8101,1.678030014038086
119, 8129, 8149, 8158, 8141, 8128, 8142, 8142, 8155, 8081, 8167, 8193, 8161, 8168, 8111,1.6863901615142822
119, 8129, 8149, 8158, 8141, 8128, 8142, 8142, 8155, 8081, 8167, 8193, 8161, 8168, 8111,1.6863901615142822
120, 8148, 8176, 8173, 8153, 8113, 8149, 8136, 8170, 8217, 8174, 8189, 8185, 8169, 8124,1.694389820098877
120, 8148, 8176, 8173, 8153, 8113, 8149, 8136, 8170, 8217, 8174, 8189, 8185, 8169, 8124,1.694389820098877
121, 8127, 8148, 8157, 8138, 8130, 8154, 8153, 8156, 8105, 8174, 8194, 8137, 8162, 8109,1.7020742893218994
121, 8127, 8148, 8157, 8138, 8130, 8154, 8153, 8156, 8105, 8174, 8194, 8137, 8162, 8109,1.7020742893218994
122, 8139, 8164, 8160, 8143, 8122, 8147, 8143, 8156, 8116, 8139, 8167, 8154, 8164, 8106,1.710047721862793
122, 8139, 8164, 8160, 8143, 8122, 8147, 8143, 8156, 8116, 8139, 8167, 8154, 8164, 8106,1.710047721862793
123, 8130, 8159, 8156, 8139, 8106, 8134, 8134, 8164, 8127, 8138, 8152, 8158, 8162, 8103,1.7180371284484863
123, 8130, 8159, 8156, 8139, 8106, 8134, 8134, 8164, 8127, 8138, 8152, 8158, 8162, 8103,1.7180371284484863
124, 8116, 8140, 8139, 8124, 8113, 8143, 8139, 8151, 8056, 8153, 8155, 8131, 8154, 8099,1.726445198059082
124, 8116, 8140, 8139, 8124, 8113, 8143, 8139, 8151, 8056, 8153, 8155, 8131, 8154, 8099,1.726445198059082
125, 8111, 8156, 8138, 8119, 8101, 8151, 8123, 8142, 8136, 8122, 8131, 8159, 8156, 8082,1.7335410118103027
125, 8111, 8156, 8138, 8119, 8101, 8151, 8123, 8142, 8136, 8122, 8131, 8159, 8156, 8082,1.7335410118103027
126, 8106, 8131, 8125, 8113, 8114, 8153, 8137, 8147, 8048, 8147, 8143, 8135, 8157, 8085,1.741222858428955
126, 8106, 8131, 8125, 8113, 8114, 8153, 8137, 8147, 8048, 8147, 8143, 8135, 8157, 8085,1.741222858428955
127, 8127, 8154, 8139, 8125, 8112, 8157, 8135, 8157, 8098, 8143, 8140, 8156, 8162, 8104,1.7491631507873535
127, 8127, 8154, 8139, 8125, 8112, 8157, 8135, 8157, 8098, 8143, 8140, 8156, 8162, 8104,1.7491631507873535
240, 8101, 8151, 8133, 8122, 8097, 8142, 8123, 8146, 8103, 8113, 8124, 8153, 8162, 8077,1.7573235034942627
240, 8101, 8151, 8133, 8122, 8097, 8142, 8123, 8146, 8103, 8113, 8124, 8153, 8162, 8077,1.7573235034942627
0, 8095, 8129, 8122, 8136, 8105, 8137, 8129, 8140, 8001, 8135, 8135, 8124, 8160, 8077,1.7651450634002686
0, 8095, 8129, 8122, 8136, 8105, 8137, 8129, 8140, 8001, 8135, 8135, 8124, 8160, 8077,1.7651450634002686
1, 8127, 8167, 8153, 8175, 8098, 8146, 8130, 8157, 8130, 8129, 8141, 8171, 8167, 8107,1.773336410522461
1, 8127, 8167, 8153, 8175, 8098, 8146, 8130, 8157, 8130, 8129, 8141, 8171, 8167, 8107,1.773336410522461
2, 8127, 8158, 8152, 8172, 8114, 8150, 8155, 8162, 8077, 8138, 8157, 8152, 8160, 8105,1.7811391353607178
2, 8127, 8158, 8152, 8172, 8114, 8150, 8155, 8162, 8077, 8138, 8157, 8152, 8160, 8105,1.7811391353607178
3, 8138, 8164, 8152, 8167, 8113, 8148, 8143, 8165, 8093, 8139, 8143, 8156, 8165, 8106,1.7891318798065186
3, 8138, 8164, 8152, 8167, 8113, 8148, 8143, 8165, 8093, 8139, 8143, 8156, 8165, 8106,1.7891318798065186
4, 8128, 8151, 8139, 8153, 8105, 8136, 8118, 8155, 8117, 8128, 8126, 8159, 8168, 8096,1.7974441051483154
4, 8128, 8151, 8139, 8153, 8105, 8136, 8118, 8155, 8117, 8128, 8126, 8159, 8168, 8096,1.7974441051483154
5, 8121, 8135, 8121, 8146, 8130, 8133, 8135, 8142, 8010, 8138, 8143, 8134, 8160, 8096,1.8038554191589355
5, 8121, 8135, 8121, 8146, 8130, 8133, 8135, 8142, 8010, 8138, 8143, 8134, 8160, 8096,1.8038554191589355
6, 8128, 8171, 8143, 8157, 8124, 8137, 8137, 8151, 8121, 8127, 8142, 8170, 8166, 8101,1.8118767738342285
6, 8128, 8171, 8143, 8157, 8124, 8137, 8137, 8151, 8121, 8127, 8142, 8170, 8166, 8101,1.8118767738342285
7, 8112, 8146, 8142, 8144, 8127, 8143, 8147, 8152, 8070, 8142, 8152, 8145, 8161, 8096,1.8198652267456055
7, 8112, 8146, 8142, 8144, 8127, 8143, 8147, 8152, 8070, 8142, 8152, 8145, 8161, 8096,1.8198652267456055
8, 8123, 8152, 8142, 8153, 8123, 8144, 8140, 8152, 8068, 8132, 8148, 8152, 8158, 8106,1.828033208847046
8, 8123, 8152, 8142, 8153, 8123, 8144, 8140, 8152, 8068, 8132, 8148, 8152, 8158, 8106,1.828033208847046
9, 8110, 8163, 8134, 8152, 8110, 8135, 8121, 8146, 8104, 8113, 8135, 8162, 8162, 8090,1.8360693454742432
9, 8110, 8163, 8134, 8152, 8110, 8135, 8121, 8146, 8104, 8113, 8135, 8162, 8162, 8090,1.8360693454742432
10, 8107, 8142, 8124, 8145, 8131, 8144, 8131, 8137, 7993, 8129, 8154, 8131, 8163, 8087,1.8444545269012451
10, 8107, 8142, 8124, 8145, 8131, 8144, 8131, 8137, 7993, 8129, 8154, 8131, 8163, 8087,1.8444545269012451
11, 8124, 8173, 8140, 8168, 8123, 8147, 8122, 8146, 8099, 8107, 8154, 8168, 8168, 8103,1.8524703979492188
11, 8124, 8173, 8140, 8168, 8123, 8147, 8122, 8146, 8099, 8107, 8154, 8168, 8168, 8103,1.8524703979492188
12, 8098, 8149, 8118, 8153, 8127, 8134, 8122, 8140, 8040, 8114, 8149, 8140, 8159, 8090,1.8595516681671143
12, 8098, 8149, 8118, 8153, 8127, 8134, 8122, 8140, 8040, 8114, 8149, 8140, 8159, 8090,1.8595516681671143
13, 8120, 8151, 8122, 8149, 8135, 8138, 8122, 8142, 8043, 8141, 8148, 8145, 8169, 8101,1.8675549030303955
13, 8120, 8151, 8122, 8149, 8135, 8138, 8122, 8142, 8043, 8141, 8148, 8145, 8169, 8101,1.8675549030303955
14, 8136, 8167, 8144, 8161, 8117, 8135, 8118, 8154, 8149, 8136, 8156, 8176, 8179, 8106,1.8750693798065186
14, 8136, 8167, 8144, 8161, 8117, 8135, 8118, 8154, 8149, 8136, 8156, 8176, 8179, 8106,1.8750693798065186
15, 8115, 8133, 8120, 8149, 8115, 8120, 8129, 8141, 8011, 8128, 8170, 8136, 8154, 8088,1.8826017379760742
15, 8115, 8133, 8120, 8149, 8115, 8120, 8129, 8141, 8011, 8128, 8170, 8136, 8154, 8088,1.8826017379760742
16, 8110, 8148, 8109, 8142, 8096, 8110, 8111, 8130, 8053, 8097, 8142, 8154, 8145, 8081,1.8906168937683105
16, 8110, 8148, 8109, 8142, 8096, 8110, 8111, 8130, 8053, 8097, 8142, 8154, 8145, 8081,1.8916120529174805
17, 8084, 8134, 8101, 8127, 8090, 8103, 8106, 8118, 8003, 8107, 8133, 8132, 8151, 8070,1.8986151218414307
17, 8084, 8134, 8101, 8127, 8090, 8103, 8106, 8118, 8003, 8107, 8133, 8132, 8151, 8070,1.8996098041534424
18, 8093, 8140, 8111, 8130, 8093, 8105, 8107, 8120, 7963, 8109, 8139, 8131, 8156, 8075,1.9060688018798828
18, 8093, 8140, 8111, 8130, 8093, 8105, 8107, 8120, 7963, 8109, 8139, 8131, 8156, 8075,1.906615972518921
19, 8105, 8154, 8121, 8130, 8089, 8101, 8096, 8127, 8047, 8081, 8134, 8162, 8161, 8076,1.9146490097045898
19, 8105, 8154, 8121, 8130, 8089, 8101, 8096, 8127, 8047, 8081, 8134, 8162, 8161, 8076,1.9156489372253418
20, 8105, 8129, 8112, 8132, 8120, 8096, 8104, 8120, 7970, 8114, 8151, 8134, 8161, 8081,1.923213243484497
20, 8105, 8129, 8112, 8132, 8120, 8096, 8104, 8120, 7970, 8114, 8151, 8134, 8161, 8081,1.923213243484497
21, 8125, 8162, 8134, 8152, 8125, 8098, 8096, 8131, 8083, 8130, 8149, 8168, 8168, 8094,1.9302151203155518
21, 8125, 8162, 8134, 8152, 8125, 8098, 8096, 8131, 8083, 8130, 8149, 8168, 8168, 8094,1.9302151203155518
22, 8112, 8150, 8145, 8137, 8126, 8103, 8113, 8136, 8078, 8136, 8160, 8162, 8165, 8087,1.938032627105713
22, 8112, 8150, 8145, 8137, 8126, 8103, 8113, 8136, 8078, 8136, 8160, 8162, 8165, 8087,1.938032627105713
23, 8120, 8145, 8179, 8140, 8131, 8106, 8132, 8140, 8049, 8143, 8172, 8150, 8166, 8102,1.9460699558258057
23, 8120, 8145, 8179, 8140, 8131, 8106, 8132, 8140, 8049, 8143, 8172, 8150, 8166, 8102,1.9460699558258057
24, 8122, 8167, 8221, 8142, 8118, 8098, 8116, 8153, 8162, 8124, 8153, 8174, 8165, 8102,1.9540693759918213
24, 8122, 8167, 8221, 8142, 8118, 8098, 8116, 8153, 8162, 8124, 8153, 8174, 8165, 8102,1.9540693759918213
25, 8100, 8136, 8213, 8125, 8138, 8105, 8134, 8155, 8070, 8151, 8167, 8140, 8154, 8092,1.9623594284057617
25, 8100, 8136, 8213, 8125, 8138, 8105, 8134, 8155, 8070, 8151, 8167, 8140, 8154, 8092,1.9623594284057617
26, 8123, 8160, 8234, 8148, 8137, 8117, 8142, 8161, 8149, 8160, 8174, 8170, 8164, 8109,1.9703574180603027
26, 8123, 8160, 8234, 8148, 8137, 8117, 8142, 8161, 8149, 8160, 8174, 8170, 8164, 8109,1.9703574180603027
27, 8114, 8154, 8241, 8142, 8129, 8105, 8142, 8153, 8151, 8150, 8181, 8167, 8169, 8105,1.9780325889587402
27, 8114, 8154, 8241, 8142, 8129, 8105, 8142, 8153, 8151, 8150, 8181, 8167, 8169, 8105,1.9780325889587402
28, 8112, 8142, 8235, 8131, 8134, 8104, 8147, 8147, 8080, 8143, 8183, 8145, 8165, 8103,1.9850695133209229
28, 8112, 8142, 8235, 8131, 8134, 8104, 8147, 8147, 8080, 8143, 8183, 8145, 8165, 8103,1.9850695133209229
29, 8122, 8172, 8275, 8145, 8125, 8115, 8141, 8153, 8181, 8130, 8158, 8176, 8165, 8102,1.9930682182312012
29, 8122, 8172, 8275, 8145, 8125, 8115, 8141, 8153, 8181, 8130, 8158, 8176, 8165, 8102,1.9930682182312012
30, 8115, 8148, 8305, 8141, 8148, 8117, 8153, 8147, 8097, 8154, 8168, 8147, 8157, 8097,2.0010690689086914
30, 8115, 8148, 8305, 8141, 8148, 8117, 8153, 8147, 8097, 8154, 8168, 8147, 8157, 8097,2.0010690689086914
31, 8133, 8158, 8333, 8142, 8140, 8114, 8135, 8150, 8153, 8142, 8171, 8164, 8166, 8106,2.008594512939453
31, 8133, 8158, 8333, 8142, 8140, 8114, 8135, 8150, 8153, 8142, 8171, 8164, 8166, 8106,2.008594512939453
32, 8119, 8158, 8345, 8140, 8129, 8119, 8132, 8153, 8176, 8130, 8173, 8160, 8173, 8100,2.0165915489196777
32, 8119, 8158, 8345, 8140, 8129, 8119, 8132, 8153, 8176, 8130, 8173, 8160, 8173, 8100,2.017587184906006
33, 8139, 8161, 8361, 8162, 8157, 8139, 8160, 8157, 8121, 8160, 8190, 8146, 8168, 8118,2.025625467300415
33, 8139, 8161, 8361, 8162, 8157, 8139, 8160, 8157, 8121, 8160, 8190, 8146, 8168, 8118,2.025625467300415
34, 8167, 8190, 8387, 8174, 8157, 8139, 8145, 8159, 8248, 8163, 8187, 8185, 8166, 8129,2.033068895339966
34, 8167, 8190, 8387, 8174, 8157, 8139, 8145, 8159, 8248, 8163, 8187, 8185, 8166, 8129,2.033068895339966
35, 8131, 8157, 8383, 8144, 8156, 8127, 8128, 8137, 8137, 8157, 8192, 8142, 8155, 8101,2.04011607170105
35, 8131, 8157, 8383, 8144, 8156, 8127, 8128, 8137, 8137, 8157, 8192, 8142, 8155, 8101,2.04011607170105
36, 8124, 8171, 8406, 8149, 8146, 8128, 8113, 8133, 8129, 8117, 8171, 8144, 8152, 8094,2.048001527786255
36, 8124, 8171, 8406, 8149, 8146, 8128, 8113, 8133, 8129, 8117, 8171, 8144, 8152, 8094,2.048001527786255
37, 8108, 8171, 8411, 8151, 8150, 8136, 8124, 8141, 8174, 8109, 8162, 8159, 8157, 8090,2.0565390586853027
37, 8108, 8171, 8411, 8151, 8150, 8136, 8124, 8141, 8174, 8109, 8162, 8159, 8157, 8090,2.057528018951416
38, 8118, 8156, 8407, 8149, 8180, 8156, 8161, 8150, 8131, 8160, 8181, 8145, 8160, 8103,2.0635344982147217
38, 8118, 8156, 8407, 8149, 8180, 8156, 8161, 8150, 8131, 8160, 8181, 8145, 8160, 8103,2.0645275115966797
39, 8149, 8190, 8432, 8164, 8171, 8163, 8160, 8161, 8255, 8153, 8178, 8176, 8166, 8117,2.072068929672241
39, 8149, 8190, 8432, 8164, 8171, 8163, 8160, 8161, 8255, 8153, 8178, 8176, 8166, 8117,2.072068929672241
40, 8136, 8167, 8421, 8157, 8177, 8155, 8165, 8160, 8183, 8162, 8200, 8153, 8164, 8116,2.0800681114196777
40, 8136, 8167, 8421, 8157, 8177, 8155, 8165, 8160, 8183, 8162, 8200, 8153, 8164, 8116,2.0805389881134033
41, 8158, 8179, 8423, 8170, 8177, 8154, 8168, 8172, 8225, 8183, 8214, 8169, 8170, 8134,2.0875425338745117
41, 8158, 8179, 8423, 8170, 8177, 8154, 8168, 8172, 8225, 8183, 8214, 8169, 8170, 8134,2.0875425338745117
42, 8147, 8179, 8406, 8164, 8159, 8153, 8156, 8172, 8276, 8174, 8197, 8170, 8166, 8124,2.0955564975738525
42, 8147, 8179, 8406, 8164, 8159, 8153, 8156, 8172, 8276, 8174, 8197, 8170, 8166, 8124,2.0955564975738525
43, 8127, 8148, 8375, 8146, 8170, 8161, 8161, 8162, 8154, 8175, 8184, 8130, 8154, 8111,2.103818416595459
43, 8127, 8148, 8375, 8146, 8170, 8161, 8161, 8162, 8154, 8175, 8184, 8130, 8154, 8111,2.103818416595459
44, 8150, 8181, 8399, 8160, 8171, 8161, 8154, 8164, 8257, 8160, 8176, 8174, 8161, 8122,2.1120705604553223
44, 8150, 8181, 8399, 8160, 8171, 8161, 8154, 8164, 8257, 8160, 8176, 8174, 8161, 8122,2.1120705604553223
45, 8151, 8173, 8406, 8165, 8184, 8151, 8160, 8158, 8206, 8178, 8202, 8159, 8166, 8128,2.1200692653656006
45, 8151, 8173, 8406, 8165, 8184, 8151, 8160, 8158, 8206, 8178, 8202, 8159, 8166, 8128,2.1200692653656006
46, 8171, 8182, 8412, 8175, 8184, 8168, 8164, 8168, 8221, 8186, 8212, 8164, 8171, 8153,2.1269185543060303
46, 8171, 8182, 8412, 8175, 8184, 8168, 8164, 8168, 8221, 8186, 8212, 8164, 8171, 8153,2.1269185543060303
47, 8178, 8194, 8416, 8177, 8163, 8177, 8165, 8173, 8307, 8172, 8199, 8185, 8170, 8156,2.134918451309204
47, 8178, 8194, 8416, 8177, 8163, 8177, 8165, 8173, 8307, 8172, 8199, 8185, 8170, 8156,2.134918451309204
48, 8173, 8176, 8406, 8175, 8169, 8171, 8166, 8156, 8197, 8188, 8210, 8153, 8162, 8150,2.142987012863159
48, 8173, 8176, 8406, 8175, 8169, 8171, 8166, 8156, 8197, 8188, 8210, 8153, 8162, 8150,2.142987012863159
49, 8171, 8194, 8412, 8179, 8158, 8167, 8139, 8158, 8270, 8173, 8194, 8177, 8164, 8144,2.1510603427886963
49, 8171, 8194, 8412, 8179, 8158, 8167, 8139, 8158, 8270, 8173, 8194, 8177, 8164, 8144,2.1510603427886963
50, 8153, 8163, 8386, 8157, 8158, 8166, 8154, 8158, 8207, 8170, 8183, 8154, 8153, 8128,2.1590688228607178
50, 8153, 8163, 8386, 8157, 8158, 8166, 8154, 8158, 8207, 8170, 8183, 8154, 8153, 8128,2.1590688228607178
51, 8169, 8164, 8375, 8160, 8152, 8167, 8168, 8160, 8173, 8160, 8183, 8155, 8156, 8143,2.16693377494812
51, 8169, 8164, 8375, 8160, 8152, 8167, 8168, 8160, 8173, 8160, 8183, 8155, 8156, 8143,2.16693377494812
52, 8159, 8176, 8369, 8157, 8128, 8163, 8146, 8166, 8237, 8138, 8165, 8178, 8161, 8128,2.174929141998291
52, 8159, 8176, 8369, 8157, 8128, 8163, 8146, 8166, 8237, 8138, 8165, 8178, 8161, 8128,2.174929141998291
53, 8150, 8147, 8345, 8142, 8137, 8166, 8158, 8156, 8119, 8160, 8171, 8143, 8152, 8108,2.1830687522888184
53, 8150, 8147, 8345, 8142, 8137, 8166, 8158, 8156, 8119, 8160, 8171, 8143, 8152, 8108,2.1830687522888184
54, 8171, 8176, 8365, 8156, 8129, 8167, 8153, 8156, 8207, 8150, 8175, 8176, 8165, 8125,2.1900689601898193
54, 8171, 8176, 8365, 8156, 8129, 8167, 8153, 8156, 8207, 8150, 8175, 8176, 8165, 8125,2.1900689601898193
55, 8150, 8163, 8363, 8146, 8126, 8174, 8156, 8159, 8191, 8156, 8191, 8162, 8169, 8124,2.1979448795318604
55, 8150, 8163, 8363, 8146, 8126, 8174, 8156, 8159, 8191, 8156, 8191, 8162, 8169, 8124,2.1979448795318604
56, 8155, 8160, 8350, 8150, 8130, 8196, 8165, 8167, 8165, 8170, 8198, 8153, 8162, 8128,2.205947160720825
56, 8155, 8160, 8350, 8150, 8130, 8196, 8165, 8167, 8165, 8170, 8198, 8153, 8162, 8128,2.205947160720825
57, 8165, 8180, 8352, 8162, 8120, 8199, 8155, 8167, 8264, 8170, 8197, 8182, 8164, 8131,2.213944911956787
57, 8165, 8180, 8352, 8162, 8120, 8199, 8155, 8167, 8264, 8170, 8197, 8182, 8164, 8131,2.213944911956787
58, 8157, 8146, 8349, 8153, 8138, 8194, 8163, 8157, 8170, 8197, 8216, 8152, 8165, 8134,2.221947193145752
58, 8157, 8146, 8349, 8153, 8138, 8194, 8163, 8157, 8170, 8197, 8216, 8152, 8165, 8134,2.222355365753174
59, 8159, 8163, 8367, 8157, 8124, 8194, 8147, 8162, 8238, 8172, 8194, 8175, 8160, 8135,2.2293622493743896
59, 8159, 8163, 8367, 8157, 8124, 8194, 8147, 8162, 8238, 8172, 8194, 8175, 8160, 8135,2.230361223220825
60, 8121, 8152, 8344, 8141, 8114, 8180, 8135, 8152, 8189, 8154, 8182, 8155, 8149, 8105,2.2373619079589844
60, 8121, 8152, 8344, 8141, 8114, 8180, 8135, 8152, 8189, 8154, 8182, 8155, 8149, 8105,2.238311290740967
61, 8128, 8145, 8315, 8137, 8132, 8173, 8134, 8148, 8114, 8168, 8191, 8140, 8155, 8104,2.246316432952881
61, 8128, 8145, 8315, 8137, 8132, 8173, 8134, 8148, 8114, 8168, 8191, 8140, 8155, 8104,2.246316432952881
62, 8152, 8169, 8319, 8148, 8130, 8181, 8137, 8165, 8238, 8162, 8190, 8182, 8174, 8120,2.253319025039673
62, 8152, 8169, 8319, 8148, 8130, 8181, 8137, 8165, 8238, 8162, 8190, 8182, 8174, 8120,2.253319025039673
63, 8134, 8147, 8310, 8147, 8141, 8187, 8170, 8164, 8167, 8188, 8211, 8152, 8170, 8121,2.2605485916137695
63, 8134, 8147, 8310, 8147, 8141, 8187, 8170, 8164, 8167, 8188, 8211, 8152, 8170, 8121,2.2605485916137695
64, 8140, 8166, 8313, 8151, 8128, 8182, 8159, 8159, 8213, 8184, 8201, 8169, 8158, 8115,2.268502712249756
64, 8140, 8166, 8313, 8151, 8128, 8182, 8159, 8159, 8213, 8184, 8201, 8169, 8158, 8115,2.268502712249756
65, 8131, 8158, 8303, 8139, 8112, 8172, 8144, 8157, 8190, 8175, 8191, 8162, 8153, 8091,2.277071714401245
65, 8131, 8158, 8303, 8139, 8112, 8172, 8144, 8157, 8190, 8175, 8191, 8162, 8153, 8091,2.277071714401245
66, 8148, 8156, 8298, 8147, 8118, 8178, 8160, 8163, 8110, 8187, 8195, 8143, 8158, 8097,2.285308361053467
66, 8148, 8156, 8298, 8147, 8118, 8178, 8160, 8163, 8110, 8187, 8195, 8143, 8158, 8097,2.285308361053467
67, 8153, 8181, 8311, 8157, 8116, 8182, 8151, 8162, 8208, 8165, 8191, 8182, 8167, 8110,2.2933077812194824
67, 8153, 8181, 8311, 8157, 8116, 8182, 8151, 8162, 8208, 8165, 8191, 8182, 8167, 8110,2.2933077812194824
68, 8119, 8151, 8302, 8151, 8136, 8184, 8150, 8151, 8115, 8170, 8217, 8157, 8160, 8100,2.3010687828063965
68, 8119, 8151, 8302, 8151, 8136, 8184, 8150, 8151, 8115, 8170, 8217, 8157, 8160, 8100,2.3010687828063965
69, 8150, 8175, 8315, 8171, 8125, 8192, 8147, 8164, 8173, 8172, 8215, 8172, 8160, 8109,2.3093531131744385
69, 8150, 8175, 8315, 8171, 8125, 8192, 8147, 8164, 8173, 8172, 8215, 8172, 8160, 8109,2.3093531131744385
70, 8162, 8171, 8312, 8162, 8114, 8194, 8146, 8153, 8192, 8167, 8201, 8172, 8161, 8105,2.316359519958496
70, 8162, 8171, 8312, 8162, 8114, 8194, 8146, 8153, 8192, 8167, 8201, 8172, 8161, 8105,2.316359519958496
71, 8152, 8152, 8309, 8156, 8135, 8199, 8153, 8136, 8097, 8169, 8216, 8157, 8158, 8107,2.324064254760742
71, 8152, 8152, 8309, 8156, 8135, 8199, 8153, 8136, 8097, 8169, 8216, 8157, 8158, 8107,2.324064254760742
72, 8157, 8187, 8335, 8176, 8124, 8197, 8145, 8157, 8215, 8153, 8217, 8193, 8166, 8114,2.3321359157562256
72, 8157, 8187, 8335, 8176, 8124, 8197, 8145, 8157, 8215, 8153, 8217, 8193, 8166, 8114,2.3321359157562256
73, 8157, 8162, 8317, 8165, 8131, 8199, 8164, 8164, 8147, 8183, 8222, 8155, 8161, 8111,2.340242624282837
73, 8157, 8162, 8317, 8165, 8131, 8199, 8164, 8164, 8147, 8183, 8222, 8155, 8161, 8111,2.340242624282837
74, 8175, 8175, 8315, 8173, 8140, 8212, 8166, 8156, 8172, 8186, 8220, 8169, 8163, 8132,2.348242998123169
74, 8175, 8175, 8315, 8173, 8140, 8212, 8166, 8156, 8172, 8186, 8220, 8169, 8163, 8132,2.348242998123169
75, 8157, 8184, 8320, 8175, 8138, 8199, 8154, 8147, 8199, 8156, 8220, 8185, 8165, 8131,2.356069326400757
75, 8157, 8184, 8320, 8175, 8138, 8199, 8154, 8147, 8199, 8156, 8220, 8185, 8165, 8131,2.356069326400757
76, 8160, 8160, 8314, 8161, 8145, 8189, 8159, 8143, 8094, 8157, 8231, 8155, 8159, 8136,2.364069938659668
76, 8160, 8160, 8314, 8161, 8145, 8189, 8159, 8143, 8094, 8157, 8231, 8155, 8159, 8136,2.364069938659668
77, 8188, 8187, 8331, 8170, 8131, 8187, 8151, 8153, 8202, 8151, 8224, 8191, 8165, 8152,2.372020959854126
77, 8188, 8187, 8331, 8170, 8131, 8187, 8151, 8153, 8202, 8151, 8224, 8191, 8165, 8152,2.372020959854126
78, 8175, 8174, 8313, 8177, 8145, 8183, 8170, 8153, 8147, 8171, 8233, 8166, 8165, 8143,2.3800692558288574
78, 8175, 8174, 8313, 8177, 8145, 8183, 8170, 8153, 8147, 8171, 8233, 8166, 8165, 8143,2.3800692558288574
79, 8182, 8180, 8309, 8186, 8152, 8189, 8176, 8162, 8174, 8178, 8221, 8167, 8168, 8148,2.3865182399749756
79, 8182, 8180, 8309, 8186, 8152, 8189, 8176, 8162, 8174, 8178, 8221, 8167, 8168, 8148,2.3875181674957275
80, 8173, 8177, 8310, 8173, 8143, 8187, 8164, 8168, 8232, 8172, 8206, 8176, 8166, 8146,2.3945250511169434
80, 8173, 8177, 8310, 8173, 8143, 8187, 8164, 8168, 8232, 8172, 8206, 8176, 8166, 8146,2.3945250511169434
81, 8169, 8155, 8298, 8167, 8162, 8180, 8169, 8157, 8116, 8180, 8220, 8152, 8159, 8144,2.4030702114105225
81, 8169, 8155, 8298, 8167, 8162, 8180, 8169, 8157, 8116, 8180, 8220, 8152, 8159, 8144,2.4030702114105225
82, 8184, 8180, 8304, 8181, 8149, 8172, 8150, 8153, 8196, 8157, 8203, 8186, 8164, 8142,2.4110589027404785
82, 8184, 8180, 8304, 8181, 8149, 8172, 8150, 8153, 8196, 8157, 8203, 8186, 8164, 8142,2.4110589027404785
83, 8156, 8155, 8277, 8160, 8141, 8163, 8152, 8147, 8121, 8166, 8195, 8151, 8154, 8122,2.4190595149993896
83, 8156, 8155, 8277, 8160, 8141, 8163, 8152, 8147, 8121, 8166, 8195, 8151, 8154, 8122,2.4190595149993896
84, 8165, 8164, 8273, 8160, 8146, 8172, 8162, 8154, 8107, 8162, 8186, 8149, 8153, 8133,2.4270691871643066
84, 8165, 8164, 8273, 8160, 8146, 8172, 8162, 8154, 8107, 8162, 8186, 8149, 8153, 8133,2.4270691871643066
85, 8173, 8180, 8287, 8170, 8155, 8190, 8172, 8172, 8203, 8154, 8193, 8177, 8172, 8143,2.435065984725952
85, 8173, 8180, 8287, 8170, 8155, 8190, 8172, 8172, 8203, 8154, 8193, 8177, 8172, 8143,2.435065984725952
86, 8165, 8159, 8273, 8167, 8178, 8194, 8190, 8180, 8140, 8199, 8231, 8150, 8174, 8145,2.4430694580078125
86, 8165, 8159, 8273, 8167, 8178, 8194, 8190, 8180, 8140, 8199, 8231, 8150, 8174, 8145,2.4430694580078125
87, 8170, 8185, 8279, 8176, 8155, 8178, 8169, 8174, 8228, 8187, 8213, 8175, 8166, 8144,2.4495866298675537
87, 8170, 8185, 8279, 8176, 8155, 8178, 8169, 8174, 8228, 8187, 8213, 8175, 8166, 8144,2.4505786895751953
88, 8144, 8166, 8270, 8160, 8161, 8173, 8170, 8156, 8151, 8178, 8199, 8152, 8155, 8134,2.4581124782562256
88, 8144, 8166, 8270, 8160, 8161, 8173, 8170, 8156, 8151, 8178, 8199, 8152, 8155, 8134,2.4581124782562256
89, 8167, 8175, 8275, 8163, 8185, 8187, 8181, 8159, 8132, 8191, 8214, 8156, 8163, 8152,2.466069459915161
89, 8167, 8175, 8275, 8163, 8185, 8187, 8181, 8159, 8132, 8191, 8214, 8156, 8163, 8152,2.466069459915161
90, 8175, 8194, 8279, 8163, 8172, 8175, 8168, 8160, 8235, 8180, 8217, 8186, 8171, 8150,2.474090337753296
90, 8175, 8194, 8279, 8163, 8172, 8175, 8168, 8160, 8235, 8180, 8217, 8186, 8171, 8150,2.474090337753296
91, 8148, 8159, 8247, 8145, 8175, 8160, 8172, 8142, 8109, 8194, 8211, 8145, 8154, 8131,2.4820914268493652
91, 8148, 8159, 8247, 8145, 8175, 8160, 8172, 8142, 8109, 8194, 8211, 8145, 8154, 8131,2.4820914268493652
92, 8158, 8180, 8248, 8148, 8159, 8165, 8161, 8146, 8164, 8182, 8185, 8166, 8152, 8130,2.4900715351104736
92, 8158, 8180, 8248, 8148, 8159, 8165, 8161, 8146, 8164, 8182, 8185, 8166, 8152, 8130,2.4900715351104736
93, 8145, 8165, 8244, 8138, 8164, 8166, 8168, 8153, 8147, 8177, 8201, 8155, 8161, 8129,2.4975533485412598
93, 8145, 8165, 8244, 8138, 8164, 8166, 8168, 8153, 8147, 8177, 8201, 8155, 8161, 8129,2.4975533485412598
94, 8156, 8159, 8238, 8151, 8179, 8169, 8179, 8156, 8123, 8181, 8216, 8148, 8166, 8143,2.5056521892547607
94, 8156, 8159, 8238, 8151, 8179, 8169, 8179, 8156, 8123, 8181, 8216, 8148, 8166, 8143,2.5066189765930176
95, 8159, 8182, 8243, 8161, 8167, 8163, 8161, 8157, 8215, 8165, 8201, 8176, 8164, 8136,2.5135602951049805
95, 8159, 8182, 8243, 8161, 8167, 8163, 8161, 8157, 8215, 8165, 8201, 8176, 8164, 8136,2.5135602951049805
96, 8157, 8162, 8233, 8152, 8180, 8160, 8169, 8158, 8116, 8193, 8217, 8142, 8159, 8133,2.5205602645874023
96, 8157, 8162, 8233, 8152, 8180, 8160, 8169, 8158, 8116, 8193, 8217, 8142, 8159, 8133,2.5205602645874023
97, 8180, 8184, 8237, 8159, 8164, 8159, 8163, 8162, 8184, 8184, 8202, 8163, 8163, 8145,2.5285608768463135
97, 8180, 8184, 8237, 8159, 8164, 8159, 8163, 8162, 8184, 8184, 8202, 8163, 8163, 8145,2.5285608768463135
98, 8141, 8160, 8212, 8133, 8155, 8144, 8150, 8147, 8146, 8164, 8187, 8147, 8154, 8121,2.53656005859375
98, 8141, 8160, 8212, 8133, 8155, 8144, 8150, 8147, 8146, 8164, 8187, 8147, 8154, 8121,2.53656005859375
99, 8148, 8151, 8215, 8140, 8180, 8153, 8158, 8147, 8089, 8186, 8208, 8136, 8158, 8130,2.5453059673309326
99, 8148, 8151, 8215, 8140, 8180, 8153, 8158, 8147, 8089, 8186, 8208, 8136, 8158, 8130,2.5453059673309326
100, 8175, 8187, 8244, 8165, 8175, 8175, 8159, 8161, 8215, 8189, 8210, 8176, 8174, 8148,2.552312135696411
100, 8175, 8187, 8244, 8165, 8175, 8175, 8159, 8161, 8215, 8189, 8210, 8176, 8174, 8148,2.552312135696411
101, 8155, 8159, 8227, 8148, 8178, 8187, 8173, 8156, 8113, 8196, 8207, 8143, 8164, 8137,2.561063528060913
101, 8155, 8159, 8227, 8148, 8178, 8187, 8173, 8156, 8113, 8196, 8207, 8143, 8164, 8137,2.561063528060913
102, 8166, 8172, 8231, 8147, 8174, 8188, 8165, 8159, 8166, 8182, 8193, 8167, 8167, 8150,2.5690689086914062
102, 8166, 8172, 8231, 8147, 8174, 8188, 8165, 8159, 8166, 8182, 8193, 8167, 8167, 8150,2.5690689086914062
103, 8156, 8166, 8224, 8145, 8177, 8179, 8162, 8156, 8184, 8190, 8201, 8169, 8173, 8148,2.5773210525512695
103, 8156, 8166, 8224, 8145, 8177, 8179, 8162, 8156, 8184, 8190, 8201, 8169, 8173, 8148,2.5773210525512695
104, 8154, 8158, 8216, 8150, 8192, 8185, 8177, 8155, 8112, 8208, 8222, 8153, 8165, 8150,2.5843210220336914
104, 8154, 8158, 8216, 8150, 8192, 8185, 8177, 8155, 8112, 8208, 8222, 8153, 8165, 8150,2.5843210220336914
105, 8167, 8186, 8228, 8166, 8176, 8181, 8171, 8169, 8223, 8191, 8207, 8181, 8165, 8154,2.5923848152160645
105, 8167, 8186, 8228, 8166, 8176, 8181, 8171, 8169, 8223, 8191, 8207, 8181, 8165, 8154,2.5923848152160645
106, 8161, 8154, 8204, 8150, 8177, 8161, 8175, 8156, 8135, 8206, 8212, 8146, 8162, 8152,2.6003916263580322
106, 8161, 8154, 8204, 8150, 8177, 8161, 8175, 8156, 8135, 8206, 8212, 8146, 8162, 8152,2.6003916263580322
107, 8166, 8163, 8210, 8150, 8172, 8160, 8154, 8147, 8166, 8193, 8221, 8170, 8167, 8165,2.608393907546997
107, 8166, 8163, 8210, 8150, 8172, 8160, 8154, 8147, 8166, 8193, 8221, 8170, 8167, 8165,2.608393907546997
108, 8159, 8171, 8224, 8160, 8170, 8177, 8150, 8165, 8201, 8185, 8231, 8177, 8167, 8157,2.616413116455078
108, 8159, 8171, 8224, 8160, 8170, 8177, 8150, 8165, 8201, 8185, 8231, 8177, 8167, 8157,2.616413116455078
109, 8175, 8164, 8218, 8164, 8189, 8192, 8178, 8169, 8127, 8210, 8236, 8145, 8164, 8154,2.6240692138671875
109, 8175, 8164, 8218, 8164, 8189, 8192, 8178, 8169, 8127, 8210, 8236, 8145, 8164, 8154,2.6240692138671875
110, 8165, 8179, 8215, 8156, 8176, 8189, 8165, 8159, 8217, 8183, 8213, 8177, 8171, 8147,2.632079601287842
110, 8165, 8179, 8215, 8156, 8176, 8189, 8165, 8159, 8217, 8183, 8213, 8177, 8171, 8147,2.632079601287842
111, 8136, 8147, 8194, 8147, 8181, 8189, 8169, 8157, 8134, 8187, 8224, 8147, 8164, 8135,2.6400978565216064
111, 8136, 8147, 8194, 8147, 8181, 8189, 8169, 8157, 8134, 8187, 8224, 8147, 8164, 8135,2.6400978565216064
112, 8175, 8169, 8209, 8164, 8180, 8205, 8177, 8169, 8166, 8195, 8228, 8159, 8167, 8150,2.6481080055236816
112, 8175, 8169, 8209, 8164, 8180, 8205, 8177, 8169, 8166, 8195, 8228, 8159, 8167, 8150,2.6481080055236816
113, 8166, 8174, 8207, 8155, 8173, 8200, 8169, 8159, 8198, 8180, 8213, 8171, 8170, 8143,2.6550698280334473
113, 8166, 8174, 8207, 8155, 8173, 8200, 8169, 8159, 8198, 8180, 8213, 8171, 8170, 8143,2.6550698280334473
114, 8134, 8139, 8176, 8145, 8189, 8188, 8166, 8144, 8077, 8183, 8207, 8129, 8157, 8131,2.663238763809204
114, 8134, 8139, 8176, 8145, 8189, 8188, 8166, 8144, 8077, 8183, 8207, 8129, 8157, 8131,2.663238763809204
115, 8144, 8160, 8183, 8154, 8174, 8190, 8150, 8154, 8167, 8168, 8192, 8153, 8157, 8125,2.6712045669555664
115, 8144, 8160, 8183, 8154, 8174, 8190, 8150, 8154, 8167, 8168, 8192, 8153, 8157, 8125,2.6712045669555664
116, 8134, 8148, 8175, 8140, 8174, 8205, 8160, 8152, 8109, 8185, 8214, 8137, 8162, 8119,2.6792056560516357
116, 8134, 8148, 8175, 8140, 8174, 8205, 8160, 8152, 8109, 8185, 8214, 8137, 8162, 8119,2.6792056560516357
117, 8145, 8167, 8175, 8147, 8178, 8208, 8160, 8160, 8135, 8187, 8223, 8151, 8170, 8141,2.6870696544647217
117, 8145, 8167, 8175, 8147, 8178, 8208, 8160, 8160, 8135, 8187, 8223, 8151, 8170, 8141,2.6870696544647217
118, 8141, 8174, 8178, 8150, 8172, 8198, 8167, 8177, 8210, 8177, 8216, 8164, 8173, 8138,2.695068836212158
118, 8141, 8174, 8178, 8150, 8172, 8198, 8167, 8177, 8210, 8177, 8216, 8164, 8173, 8138,2.695068836212158
119, 8145, 8158, 8174, 8149, 8188, 8207, 8195, 8175, 8111, 8206, 8233, 8136, 8167, 8131,2.7030696868896484
119, 8145, 8158, 8174, 8149, 8188, 8207, 8195, 8175, 8111, 8206, 8233, 8136, 8167, 8131,2.7030696868896484
120, 8171, 8193, 8195, 8168, 8179, 8204, 8175, 8169, 8216, 8197, 8227, 8182, 8167, 8145,2.7105486392974854
120, 8171, 8193, 8195, 8168, 8179, 8204, 8175, 8169, 8216, 8197, 8227, 8182, 8167, 8145,2.7105486392974854
121, 8149, 8159, 8182, 8156, 8193, 8187, 8168, 8155, 8166, 8198, 8232, 8163, 8162, 8142,2.7180323600769043
121, 8149, 8159, 8182, 8156, 8193, 8187, 8168, 8155, 8166, 8198, 8232, 8163, 8162, 8142,2.7185516357421875
122, 8150, 8154, 8184, 8155, 8206, 8190, 8168, 8158, 8153, 8202, 8236, 8160, 8165, 8151,2.7265710830688477
122, 8150, 8154, 8184, 8155, 8206, 8190, 8168, 8158, 8153, 8202, 8236, 8160, 8165, 8151,2.7265710830688477
123, 8159, 8178, 8196, 8164, 8195, 8183, 8164, 8168, 8233, 8196, 8241, 8186, 8171, 8153,2.734069585800171
123, 8159, 8178, 8196, 8164, 8195, 8183, 8164, 8168, 8233, 8196, 8241, 8186, 8171, 8153,2.734069585800171
124, 8162, 8159, 8181, 8165, 8208, 8178, 8184, 8167, 8133, 8216, 8264, 8156, 8169, 8160,2.742579221725464
124, 8162, 8159, 8181, 8165, 8208, 8178, 8184, 8167, 8133, 8216, 8264, 8156, 8169, 8160,2.742579221725464
125, 8169, 8180, 8185, 8174, 8192, 8183, 8172, 8174, 8218, 8194, 8243, 8177, 8171, 8165,2.750579595565796
125, 8169, 8180, 8185, 8174, 8192, 8183, 8172, 8174, 8218, 8194, 8243, 8177, 8171, 8165,2.750579595565796
126, 8143, 8157, 8171, 8159, 8189, 8173, 8167, 8167, 8158, 8184, 8228, 8154, 8159, 8140,2.7584586143493652
126, 8143, 8157, 8171, 8159, 8189, 8173, 8167, 8167, 8158, 8184, 8228, 8154, 8159, 8140,2.7584586143493652
127, 8156, 8153, 8180, 8163, 8198, 8163, 8166, 8163, 8121, 8188, 8232, 8154, 8158, 8140,2.7660725116729736
127, 8156, 8153, 8180, 8163, 8198, 8163, 8166, 8163, 8121, 8188, 8232, 8154, 8158, 8140,2.7660725116729736
240, 8163, 8171, 8192, 8170, 8185, 8157, 8149, 8168, 8215, 8177, 8226, 8180, 8165, 8138,2.7741873264312744
240, 8163, 8171, 8192, 8170, 8185, 8157, 8149, 8168, 8215, 8177, 8226, 8180, 8165, 8138,2.7741873264312744
0, 8154, 8151, 8171, 8163, 8201, 8150, 8159, 8156, 8095, 8184, 8229, 8142, 8155, 8133,2.782177686691284
0, 8154, 8151, 8171, 8163, 8201, 8150, 8159, 8156, 8095, 8184, 8229, 8142, 8155, 8133,2.782177686691284
1, 8175, 8180, 8192, 8179, 8194, 8152, 8154, 8160, 8173, 8174, 8225, 8180, 8167, 8151,2.7891793251037598
1, 8175, 8180, 8192, 8179, 8194, 8152, 8154, 8160, 8173, 8174, 8225, 8180, 8167, 8151,2.7891793251037598
2, 8159, 8164, 8195, 8165, 8178, 8156, 8159, 8162, 8183, 8198, 8243, 8177, 8177, 8151,2.797220230102539
2, 8159, 8164, 8195, 8165, 8178, 8156, 8159, 8162, 8183, 8198, 8243, 8177, 8177, 8151,2.797220230102539
3, 8161, 8151, 8183, 8157, 8176, 8158, 8164, 8164, 8142, 8209, 8241, 8162, 8168, 8162,2.805070161819458
3, 8161, 8151, 8183, 8157, 8176, 8158, 8164, 8164, 8142, 8209, 8241, 8162, 8168, 8162,2.805070161819458
4, 8160, 8171, 8178, 8166, 8174, 8148, 8148, 8166, 8199, 8165, 8212, 8181, 8164, 8157,2.8132686614990234
4, 8160, 8171, 8178, 8166, 8174, 8148, 8148, 8166, 8199, 8165, 8212, 8181, 8164, 8157,2.8132686614990234
5, 8137, 8149, 8159, 8152, 8197, 8152, 8157, 8156, 8076, 8173, 8221, 8142, 8164, 8136,2.821268320083618
5, 8137, 8149, 8159, 8152, 8197, 8152, 8157, 8156, 8076, 8173, 8221, 8142, 8164, 8136,2.821268320083618
6, 8160, 8173, 8176, 8159, 8186, 8162, 8154, 8163, 8163, 8180, 8215, 8167, 8170, 8144,2.829068899154663
6, 8160, 8173, 8176, 8159, 8186, 8162, 8154, 8163, 8163, 8180, 8215, 8167, 8170, 8144,2.829068899154663
7, 8162, 8162, 8175, 8152, 8173, 8153, 8151, 8154, 8143, 8170, 8205, 8158, 8160, 8135,2.837297201156616
7, 8162, 8162, 8175, 8152, 8173, 8153, 8151, 8154, 8143, 8170, 8205, 8158, 8160, 8135,2.837297201156616
8, 8160, 8152, 8166, 8149, 8180, 8148, 8145, 8137, 8032, 8152, 8208, 8141, 8158, 8127,2.844301223754883
8, 8160, 8152, 8166, 8149, 8180, 8148, 8145, 8137, 8032, 8152, 8208, 8141, 8158, 8127,2.844301223754883
9, 8156, 8175, 8172, 8154, 8165, 8147, 8133, 8147, 8137, 8132, 8196, 8173, 8173, 8128,2.8520734310150146
9, 8156, 8175, 8172, 8154, 8165, 8147, 8133, 8147, 8137, 8132, 8196, 8173, 8173, 8128,2.8520734310150146
10, 8157, 8151, 8169, 8153, 8179, 8155, 8163, 8155, 8090, 8174, 8217, 8142, 8172, 8138,2.8600690364837646
10, 8157, 8151, 8169, 8153, 8179, 8155, 8163, 8155, 8090, 8174, 8217, 8142, 8172, 8138,2.8600690364837646
11, 8193, 8176, 8195, 8168, 8179, 8172, 8169, 8166, 8175, 8187, 8229, 8168, 8176, 8158,2.867716073989868
11, 8193, 8176, 8195, 8168, 8179, 8172, 8169, 8166, 8175, 8187, 8229, 8168, 8176, 8158,2.867716073989868
12, 8168, 8167, 8185, 8152, 8169, 8180, 8159, 8163, 8187, 8181, 8225, 8168, 8174, 8145,2.875730276107788
12, 8168, 8167, 8185, 8152, 8169, 8180, 8159, 8163, 8187, 8181, 8225, 8168, 8174, 8145,2.8767266273498535
13, 8156, 8144, 8162, 8148, 8174, 8184, 8158, 8152, 8091, 8187, 8218, 8143, 8167, 8146,2.884049892425537
13, 8156, 8144, 8162, 8148, 8174, 8184, 8158, 8152, 8091, 8187, 8218, 8143, 8167, 8146,2.884049892425537
14, 8178, 8179, 8185, 8164, 8161, 8180, 8145, 8153, 8187, 8158, 8199, 8179, 8170, 8154,2.892068862915039
14, 8178, 8179, 8185, 8164, 8161, 8180, 8145, 8153, 8187, 8158, 8199, 8179, 8170, 8154,2.892068862915039
15, 8169, 8162, 8179, 8152, 8172, 8178, 8158, 8143, 8090, 8160, 8207, 8143, 8163, 8144,2.8998451232910156
15, 8169, 8162, 8179, 8152, 8172, 8178, 8158, 8143, 8090, 8160, 8207, 8143, 8163, 8144,2.8998451232910156
16, 8182, 8176, 8173, 8158, 8153, 8175, 8146, 8140, 8090, 8144, 8191, 8152, 8160, 8138,2.906360149383545
16, 8182, 8176, 8173, 8158, 8153, 8175, 8146, 8140, 8090, 8144, 8191, 8152, 8160, 8138,2.907353401184082
17, 8169, 8179, 8167, 8157, 8130, 8167, 8136, 8140, 8103, 8134, 8177, 8157, 8158, 8113,2.915353536605835
17, 8169, 8179, 8167, 8157, 8130, 8167, 8136, 8140, 8103, 8134, 8177, 8157, 8158, 8113,2.915353536605835
18, 8165, 8160, 8161, 8151, 8147, 8178, 8165, 8145, 8044, 8168, 8196, 8129, 8158, 8110,2.9230692386627197
18, 8165, 8160, 8161, 8151, 8147, 8178, 8165, 8145, 8044, 8168, 8196, 8129, 8158, 8110,2.9230692386627197
19, 8178, 8179, 8168, 8156, 8137, 8187, 8160, 8156, 8179, 8164, 8189, 8166, 8174, 8120,2.9310691356658936
19, 8178, 8179, 8168, 8156, 8137, 8187, 8160, 8156, 8179, 8164, 8189, 8166, 8174, 8120,2.9310691356658936
20, 8169, 8156, 8152, 8150, 8147, 8182, 8166, 8158, 8114, 8180, 8191, 8144, 8172, 8122,2.9390690326690674
20, 8169, 8156, 8152, 8150, 8147, 8182, 8166, 8158, 8114, 8180, 8191, 8144, 8172, 8122,2.9390690326690674
21, 8188, 8172, 8169, 8163, 8156, 8180, 8177, 8167, 8147, 8187, 8195, 8156, 8173, 8148,2.947075605392456
21, 8188, 8172, 8169, 8163, 8156, 8180, 8177, 8167, 8147, 8187, 8195, 8156, 8173, 8148,2.947075605392456
22, 8178, 8172, 8176, 8156, 8139, 8167, 8165, 8162, 8189, 8175, 8195, 8166, 8176, 8140,2.9555585384368896
22, 8178, 8172, 8176, 8156, 8139, 8167, 8165, 8162, 8189, 8175, 8195, 8166, 8176, 8140,2.9555585384368896
23, 8181, 8150, 8165, 8144, 8145, 8164, 8163, 8148, 8063, 8183, 8204, 8137, 8170, 8133,2.9635605812072754
23, 8181, 8150, 8165, 8144, 8145, 8164, 8163, 8148, 8063, 8183, 8204, 8137, 8170, 8133,2.9635605812072754
24, 8206, 8183, 8178, 8161, 8141, 8165, 8150, 8152, 8152, 8153, 8187, 8171, 8171, 8145,2.971069574356079
24, 8206, 8183, 8178, 8161, 8141, 8165, 8150, 8152, 8152, 8153, 8187, 8171, 8171, 8145,2.971069574356079
25, 8177, 8161, 8158, 8158, 8143, 8149, 8154, 8141, 8088, 8157, 8190, 8139, 8164, 8127,2.9780941009521484
25, 8177, 8161, 8158, 8158, 8143, 8149, 8154, 8141, 8088, 8157, 8190, 8139, 8164, 8127,2.9780941009521484
26, 8185, 8172, 8162, 8169, 8137, 8150, 8151, 8147, 8104, 8172, 8191, 8139, 8165, 8125,2.986069440841675
26, 8185, 8172, 8162, 8169, 8137, 8150, 8151, 8147, 8104, 8172, 8191, 8139, 8165, 8125,2.986069440841675
27, 8184, 8187, 8171, 8172, 8135, 8156, 8150, 8162, 8192, 8167, 8179, 8159, 8167, 8119,2.9940693378448486
27, 8184, 8187, 8171, 8172, 8135, 8156, 8150, 8162, 8192, 8167, 8179, 8159, 8167, 8119,2.9940693378448486
28, 8175, 8165, 8148, 8169, 8157, 8156, 8171, 8158, 8104, 8184, 8191, 8130, 8161, 8120,3.0020194053649902
28, 8175, 8165, 8148, 8169, 8157, 8156, 8171, 8158, 8104, 8184, 8191, 8130, 8161, 8120,3.0020194053649902
29, 8188, 8186, 8152, 8175, 8139, 8153, 8157, 8163, 8206, 8178, 8195, 8162, 8174, 8134,3.010019063949585
29, 8188, 8186, 8152, 8175, 8139, 8153, 8157, 8163, 8206, 8178, 8195, 8162, 8174, 8134,3.010019063949585
30, 8160, 8155, 8140, 8152, 8139, 8158, 8159, 8164, 8156, 8187, 8212, 8138, 8176, 8126,3.0180153846740723
30, 8160, 8155, 8140, 8152, 8139, 8158, 8159, 8164, 8156, 8187, 8212, 8138, 8176, 8126,3.0180153846740723
31, 8155, 8156, 8136, 8155, 8146, 8157, 8161, 8161, 8123, 8188, 8206, 8143, 8170, 8132,3.0260696411132812
31, 8155, 8156, 8136, 8155, 8146, 8157, 8161, 8161, 8123, 8188, 8206, 8143, 8170, 8132,3.0260696411132812
32, 8153, 8172, 8136, 8160, 8136, 8140, 8149, 8153, 8182, 8176, 8191, 8169, 8172, 8131,3.034069061279297
32, 8153, 8172, 8136, 8160, 8136, 8140, 8149, 8153, 8182, 8176, 8191, 8169, 8172, 8131,3.034069061279297
33, 8152, 8147, 8122, 8152, 8152, 8145, 8162, 8144, 8069, 8187, 8211, 8129, 8167, 8128,3.041053056716919
33, 8152, 8147, 8122, 8152, 8152, 8145, 8162, 8144, 8069, 8187, 8211, 8129, 8167, 8128,3.041053056716919
34, 8176, 8176, 8136, 8168, 8131, 8147, 8152, 8158, 8153, 8157, 8200, 8157, 8166, 8136,3.049082040786743
34, 8176, 8176, 8136, 8168, 8131, 8147, 8152, 8158, 8153, 8157, 8200, 8157, 8166, 8136,3.049082040786743
35, 8163, 8161, 8123, 8154, 8124, 8130, 8153, 8156, 8120, 8158, 8194, 8148, 8164, 8133,3.0565967559814453
35, 8163, 8161, 8123, 8154, 8124, 8130, 8153, 8156, 8120, 8158, 8194, 8148, 8164, 8133,3.0565967559814453
36, 8171, 8158, 8123, 8150, 8143, 8134, 8151, 8148, 8084, 8171, 8194, 8140, 8163, 8138,3.065070390701294
36, 8171, 8158, 8123, 8150, 8143, 8134, 8151, 8148, 8084, 8171, 8194, 8140, 8163, 8138,3.065070390701294
37, 8184, 8178, 8149, 8165, 8139, 8138, 8145, 8155, 8177, 8157, 8187, 8160, 8166, 8127,3.072453260421753
37, 8184, 8178, 8149, 8165, 8139, 8138, 8145, 8155, 8177, 8157, 8187, 8160, 8166, 8127,3.0734524726867676
38, 8188, 8152, 8149, 8164, 8153, 8131, 8168, 8160, 8084, 8176, 8207, 8129, 8163, 8125,3.0804574489593506
38, 8188, 8152, 8149, 8164, 8153, 8131, 8168, 8160, 8084, 8176, 8207, 8129, 8163, 8125,3.081453561782837
39, 8200, 8175, 8154, 8164, 8143, 8129, 8155, 8159, 8164, 8164, 8197, 8166, 8169, 8139,3.088496208190918
39, 8200, 8175, 8154, 8164, 8143, 8129, 8155, 8159, 8164, 8164, 8197, 8166, 8169, 8139,3.088496208190918
40, 8162, 8157, 8129, 8147, 8132, 8125, 8147, 8146, 8138, 8156, 8188, 8155, 8161, 8120,3.0970699787139893
40, 8162, 8157, 8129, 8147, 8132, 8125, 8147, 8146, 8138, 8156, 8188, 8155, 8161, 8120,3.0970699787139893
41, 8164, 8143, 8115, 8147, 8144, 8129, 8160, 8152, 8081, 8172, 8194, 8139, 8161, 8129,3.10547137260437
41, 8164, 8143, 8115, 8147, 8144, 8129, 8160, 8152, 8081, 8172, 8194, 8139, 8161, 8129,3.10547137260437
42, 8178, 8168, 8135, 8158, 8142, 8140, 8157, 8168, 8201, 8172, 8194, 8174, 8173, 8147,3.112471580505371
42, 8178, 8168, 8135, 8158, 8142, 8140, 8157, 8168, 8201, 8172, 8194, 8174, 8173, 8147,3.112471580505371
43, 8173, 8148, 8126, 8157, 8150, 8151, 8170, 8162, 8121, 8193, 8211, 8140, 8168, 8145,3.1200690269470215
43, 8173, 8148, 8126, 8157, 8150, 8151, 8170, 8162, 8121, 8193, 8211, 8140, 8168, 8145,3.1200690269470215
44, 8198, 8170, 8132, 8167, 8144, 8162, 8166, 8163, 8197, 8182, 8202, 8158, 8171, 8154,3.1284308433532715
44, 8198, 8170, 8132, 8167, 8144, 8162, 8166, 8163, 8197, 8182, 8202, 8158, 8171, 8154,3.1284308433532715
45, 8177, 8167, 8131, 8153, 8158, 8173, 8164, 8163, 8209, 8178, 8206, 8158, 8173, 8144,3.1356310844421387
45, 8177, 8167, 8131, 8153, 8158, 8173, 8164, 8163, 8209, 8178, 8206, 8158, 8173, 8144,3.136617422103882
46, 8183, 8157, 8134, 8163, 8176, 8185, 8174, 8160, 8140, 8198, 8219, 8144, 8172, 8144,3.1440601348876953
46, 8183, 8157, 8134, 8163, 8176, 8185, 8174, 8160, 8140, 8198, 8219, 8144, 8172, 8144,3.1440601348876953
47, 8195, 8171, 8140, 8174, 8148, 8181, 8156, 8150, 8221, 8171, 8198, 8170, 8166, 8138,3.15205717086792
47, 8195, 8171, 8140, 8174, 8148, 8181, 8156, 8150, 8221, 8171, 8198, 8170, 8166, 8138,3.15205717086792
48, 8159, 8144, 8117, 8145, 8146, 8178, 8153, 8140, 8090, 8166, 8197, 8135, 8152, 8116,3.160393714904785
48, 8159, 8144, 8117, 8145, 8146, 8178, 8153, 8140, 8090, 8166, 8197, 8135, 8152, 8116,3.160393714904785
49, 8173, 8171, 8133, 8155, 8147, 8188, 8149, 8161, 8137, 8170, 8193, 8161, 8168, 8128,3.168083906173706
49, 8173, 8171, 8133, 8155, 8147, 8188, 8149, 8161, 8137, 8170, 8193, 8161, 8168, 8128,3.168083906173706
50, 8177, 8167, 8142, 8157, 8154, 8195, 8155, 8173, 8192, 8176, 8203, 8169, 8180, 8140,3.175036907196045
50, 8177, 8167, 8142, 8157, 8154, 8195, 8155, 8173, 8192, 8176, 8203, 8169, 8180, 8140,3.175036907196045
51, 8185, 8148, 8139, 8159, 8167, 8202, 8173, 8169, 8140, 8200, 8227, 8152, 8175, 8163,3.1830368041992188
51, 8185, 8148, 8139, 8159, 8167, 8202, 8173, 8169, 8140, 8200, 8227, 8152, 8175, 8163,3.1830368041992188
52, 8200, 8176, 8156, 8177, 8144, 8195, 8163, 8173, 8248, 8192, 8221, 8186, 8180, 8179,3.1910488605499268
52, 8200, 8176, 8156, 8177, 8144, 8195, 8163, 8173, 8248, 8192, 8221, 8186, 8180, 8179,3.1910488605499268
53, 8189, 8156, 8145, 8166, 8159, 8191, 8174, 8168, 8161, 8213, 8236, 8152, 8177, 8173,3.199064016342163
53, 8189, 8156, 8145, 8166, 8159, 8191, 8174, 8168, 8161, 8213, 8236, 8152, 8177, 8173,3.199064016342163
54, 8206, 8175, 8149, 8166, 8172, 8204, 8176, 8170, 8201, 8218, 8237, 8165, 8173, 8181,3.207068920135498
54, 8206, 8175, 8149, 8166, 8172, 8204, 8176, 8170, 8201, 8218, 8237, 8165, 8173, 8181,3.207068920135498
55, 8187, 8180, 8150, 8166, 8167, 8199, 8173, 8168, 8229, 8199, 8222, 8176, 8169, 8170,3.2150561809539795
55, 8187, 8180, 8150, 8166, 8167, 8199, 8173, 8168, 8229, 8199, 8222, 8176, 8169, 8170,3.2150561809539795
56, 8186, 8164, 8147, 8176, 8175, 8193, 8187, 8164, 8126, 8206, 8235, 8149, 8166, 8172,3.2230565547943115
56, 8186, 8164, 8147, 8176, 8175, 8193, 8187, 8164, 8126, 8206, 8235, 8149, 8166, 8172,3.2230565547943115
57, 8208, 8190, 8162, 8180, 8157, 8191, 8167, 8168, 8225, 8199, 8228, 8175, 8167, 8172,3.2310543060302734
57, 8208, 8190, 8162, 8180, 8157, 8191, 8167, 8168, 8225, 8199, 8228, 8175, 8167, 8172,3.2310543060302734
58, 8187, 8162, 8141, 8162, 8168, 8188, 8164, 8148, 8128, 8208, 8220, 8137, 8154, 8144,3.2380337715148926
58, 8187, 8162, 8141, 8162, 8168, 8188, 8164, 8148, 8128, 8208, 8220, 8137, 8154, 8144,3.2380337715148926
59, 8196, 8169, 8144, 8177, 8175, 8193, 8163, 8145, 8120, 8186, 8211, 8143, 8163, 8150,3.2460694313049316
59, 8196, 8169, 8144, 8177, 8175, 8193, 8163, 8145, 8120, 8186, 8211, 8143, 8163, 8150,3.2460694313049316
60, 8186, 8174, 8154, 8170, 8159, 8190, 8153, 8162, 8190, 8178, 8219, 8168, 8179, 8158,3.254464864730835
60, 8186, 8174, 8154, 8170, 8159, 8190, 8153, 8162, 8190, 8178, 8219, 8168, 8179, 8158,3.254464864730835
61, 8184, 8155, 8147, 8161, 8167, 8196, 8168, 8165, 8130, 8223, 8243, 8152, 8173, 8167,3.262484550476074
61, 8184, 8155, 8147, 8161, 8167, 8196, 8168, 8165, 8130, 8223, 8243, 8152, 8173, 8167,3.262484550476074
62, 8207, 8188, 8164, 8182, 8161, 8204, 8170, 8169, 8249, 8212, 8233, 8180, 8172, 8180,3.2698514461517334
62, 8207, 8188, 8164, 8182, 8161, 8204, 8170, 8169, 8249, 8212, 8233, 8180, 8172, 8180,3.2698514461517334
63, 8187, 8162, 8144, 8163, 8175, 8202, 8176, 8165, 8173, 8202, 8235, 8143, 8170, 8163,3.2778451442718506
63, 8187, 8162, 8144, 8163, 8175, 8202, 8176, 8165, 8173, 8202, 8235, 8143, 8170, 8163,3.2778451442718506
64, 8200, 8165, 8141, 8159, 8187, 8208, 8172, 8167, 8158, 8208, 8234, 8152, 8174, 8164,3.2858431339263916
64, 8200, 8165, 8141, 8159, 8187, 8208, 8172, 8167, 8158, 8208, 8234, 8152, 8174, 8164,3.2858431339263916
65, 8206, 8184, 8151, 8173, 8182, 8215, 8172, 8173, 8251, 8211, 8237, 8186, 8174, 8167,3.2938430309295654
65, 8206, 8184, 8151, 8173, 8182, 8215, 8172, 8173, 8251, 8211, 8237, 8186, 8174, 8167,3.2938430309295654
66, 8204, 8164, 8141, 8173, 8200, 8214, 8187, 8169, 8161, 8232, 8252, 8151, 8171, 8170,3.301844358444214
66, 8204, 8164, 8141, 8173, 8200, 8214, 8187, 8169, 8161, 8232, 8252, 8151, 8171, 8170,3.301844358444214
67, 8224, 8192, 8158, 8183, 8188, 8199, 8161, 8168, 8241, 8209, 8228, 8177, 8176, 8177,3.308844804763794
67, 8224, 8192, 8158, 8183, 8188, 8199, 8161, 8168, 8241, 8209, 8228, 8177, 8176, 8177,3.308844804763794
68, 8213, 8179, 8155, 8183, 8191, 8194, 8163, 8162, 8193, 8202, 8237, 8161, 8163, 8172,3.3168437480926514
68, 8213, 8179, 8155, 8183, 8191, 8194, 8163, 8162, 8193, 8202, 8237, 8161, 8163, 8172,3.3168437480926514
69, 8221, 8183, 8159, 8187, 8199, 8210, 8174, 8160, 8170, 8202, 8248, 8159, 8160, 8187,3.3248441219329834
69, 8221, 8183, 8159, 8187, 8199, 8210, 8174, 8160, 8170, 8202, 8248, 8159, 8160, 8187,3.3248441219329834
70, 8215, 8194, 8168, 8182, 8184, 8207, 8151, 8156, 8241, 8182, 8233, 8183, 8172, 8180,3.332845449447632
70, 8215, 8194, 8168, 8182, 8184, 8207, 8151, 8156, 8241, 8182, 8233, 8183, 8172, 8180,3.332845449447632
71, 8210, 8167, 8152, 8180, 8202, 8193, 8156, 8147, 8133, 8200, 8246, 8155, 8168, 8175,3.3408472537994385
71, 8210, 8167, 8152, 8180, 8202, 8193, 8156, 8147, 8133, 8200, 8246, 8155, 8168, 8175,3.3408472537994385
72, 8230, 8188, 8155, 8187, 8195, 8191, 8157, 8158, 8210, 8190, 8236, 8182, 8165, 8188,3.3488478660583496
72, 8230, 8188, 8155, 8187, 8195, 8191, 8157, 8158, 8210, 8190, 8236, 8182, 8165, 8188,3.3488478660583496
73, 8202, 8160, 8140, 8160, 8180, 8188, 8163, 8154, 8152, 8181, 8227, 8163, 8164, 8165,3.357069969177246
73, 8202, 8160, 8140, 8160, 8180, 8188, 8163, 8154, 8152, 8181, 8227, 8163, 8164, 8165,3.357069969177246
74, 8197, 8158, 8150, 8167, 8187, 8193, 8161, 8151, 8107, 8177, 8234, 8153, 8172, 8157,3.364877939224243
74, 8197, 8158, 8150, 8167, 8187, 8193, 8161, 8151, 8107, 8177, 8234, 8153, 8172, 8157,3.364877939224243
75, 8204, 8186, 8162, 8187, 8185, 8199, 8157, 8160, 8223, 8170, 8224, 8176, 8174, 8157,3.37300181388855
75, 8204, 8186, 8162, 8187, 8185, 8199, 8157, 8160, 8223, 8170, 8224, 8176, 8174, 8157,3.37300181388855
76, 8208, 8159, 8125, 8174, 8204, 8203, 8187, 8159, 8131, 8211, 8233, 8145, 8167, 8163,3.3801076412200928
76, 8208, 8159, 8125, 8174, 8204, 8203, 8187, 8159, 8131, 8211, 8233, 8145, 8167, 8163,3.3801076412200928
77, 8219, 8182, 8119, 8178, 8208, 8204, 8171, 8167, 8211, 8200, 8237, 8182, 8177, 8181,3.388113260269165
77, 8219, 8182, 8119, 8178, 8208, 8204, 8171, 8167, 8211, 8200, 8237, 8182, 8177, 8181,3.388113260269165
78, 8183, 8176, 8117, 8172, 8206, 8193, 8163, 8166, 8210, 8189, 8247, 8175, 8175, 8169,3.396069288253784
78, 8183, 8176, 8117, 8172, 8206, 8193, 8163, 8166, 8210, 8189, 8247, 8175, 8175, 8169,3.396069288253784
79, 8194, 8171, 8116, 8176, 8205, 8183, 8186, 8168, 8154, 8208, 8253, 8157, 8166, 8174,3.404068946838379
79, 8194, 8171, 8116, 8176, 8205, 8183, 8186, 8168, 8154, 8208, 8253, 8157, 8166, 8174,3.404068946838379
80, 8223, 8190, 8116, 8187, 8205, 8169, 8183, 8167, 8248, 8193, 8230, 8185, 8170, 8179,3.412069082260132
80, 8223, 8190, 8116, 8187, 8205, 8169, 8183, 8167, 8248, 8193, 8230, 8185, 8170, 8179,3.412069082260132
81, 8204, 8159, 8095, 8177, 8244, 8164, 8183, 8149, 8134, 8199, 8235, 8152, 8163, 8164,3.4202513694763184
81, 8204, 8159, 8095, 8177, 8244, 8164, 8183, 8149, 8134, 8199, 8235, 8152, 8163, 8164,3.4202513694763184
82, 8207, 8177, 8115, 8183, 8234, 8168, 8173, 8159, 8190, 8190, 8236, 8180, 8167, 8161,3.428342342376709
82, 8207, 8177, 8115, 8183, 8234, 8168, 8173, 8159, 8190, 8190, 8236, 8180, 8167, 8161,3.428342342376709
83, 8202, 8172, 8115, 8171, 8212, 8164, 8185, 8170, 8212, 8197, 8234, 8177, 8168, 8158,3.4354021549224854
83, 8202, 8172, 8115, 8171, 8212, 8164, 8185, 8170, 8212, 8197, 8234, 8177, 8168, 8158,3.4354021549224854
84, 8205, 8162, 8097, 8167, 8224, 8163, 8199, 8165, 8133, 8208, 8236, 8154, 8166, 8173,3.4434080123901367
84, 8205, 8162, 8097, 8167, 8224, 8163, 8199, 8165, 8133, 8208, 8236, 8154, 8166, 8173,3.4434080123901367
85, 8209, 8191, 8105, 8184, 8206, 8148, 8170, 8165, 8222, 8177, 8219, 8186, 8176, 8171,3.4510693550109863
85, 8209, 8191, 8105, 8184, 8206, 8148, 8170, 8165, 8222, 8177, 8219, 8186, 8176, 8171,3.4510693550109863
86, 8204, 8163, 8093, 8176, 8205, 8132, 8168, 8154, 8123, 8178, 8218, 8154, 8172, 8154,3.459069013595581
86, 8204, 8163, 8093, 8176, 8205, 8132, 8168, 8154, 8123, 8178, 8218, 8154, 8172, 8154,3.459069013595581
87, 8217, 8170, 8098, 8168, 8202, 8140, 8165, 8148, 8139, 8160, 8202, 8171, 8168, 8162,3.466536045074463
87, 8217, 8170, 8098, 8168, 8202, 8140, 8165, 8148, 8139, 8160, 8202, 8171, 8168, 8162,3.467548370361328
88, 8192, 8168, 8113, 8154, 8198, 8135, 8161, 8145, 8154, 8155, 8203, 8175, 8169, 8151,3.474550247192383
88, 8192, 8168, 8113, 8154, 8198, 8135, 8161, 8145, 8154, 8155, 8203, 8175, 8169, 8151,3.474550247192383
89, 8191, 8159, 8132, 8160, 8213, 8117, 8166, 8141, 8071, 8181, 8218, 8148, 8168, 8150,3.4825503826141357
89, 8191, 8159, 8132, 8160, 8213, 8117, 8166, 8141, 8071, 8181, 8218, 8148, 8168, 8150,3.483548641204834
90, 8209, 8192, 8158, 8178, 8206, 8116, 8160, 8149, 8172, 8160, 8203, 8186, 8171, 8161,3.4910695552825928
90, 8209, 8192, 8158, 8178, 8206, 8116, 8160, 8149, 8172, 8160, 8203, 8186, 8171, 8161,3.4910695552825928
91, 8198, 8168, 8151, 8172, 8220, 8131, 8180, 8150, 8105, 8173, 8220, 8163, 8166, 8159,3.4990689754486084
91, 8198, 8168, 8151, 8172, 8220, 8131, 8180, 8150, 8105, 8173, 8220, 8163, 8166, 8159,3.4990689754486084
92, 8218, 8176, 8163, 8177, 8213, 8129, 8169, 8155, 8147, 8193, 8227, 8172, 8171, 8168,3.506091356277466
92, 8218, 8176, 8163, 8177, 8213, 8129, 8169, 8155, 8147, 8193, 8227, 8172, 8171, 8168,3.506091356277466
93, 8214, 8180, 8165, 8172, 8202, 8113, 8160, 8155, 8179, 8192, 8215, 8180, 8175, 8164,3.514087438583374
93, 8214, 8180, 8165, 8172, 8202, 8113, 8160, 8155, 8179, 8192, 8215, 8180, 8175, 8164,3.514087438583374
94, 8214, 8167, 8160, 8176, 8228, 8125, 8184, 8153, 8086, 8184, 8228, 8155, 8166, 8158,3.5220694541931152
94, 8214, 8167, 8160, 8176, 8228, 8125, 8184, 8153, 8086, 8184, 8228, 8155, 8166, 8158,3.5220694541931152
95, 8224, 8191, 8177, 8188, 8219, 8132, 8180, 8167, 8221, 8159, 8234, 8190, 8170, 8151,3.5300345420837402
95, 8224, 8191, 8177, 8188, 8219, 8132, 8180, 8167, 8221, 8159, 8234, 8190, 8170, 8151,3.5300345420837402
96, 8195, 8160, 8152, 8168, 8218, 8121, 8186, 8170, 8163, 8193, 8248, 8158, 8168, 8140,3.5380325317382812
96, 8195, 8160, 8152, 8168, 8218, 8121, 8186, 8170, 8163, 8193, 8248, 8158, 8168, 8140,3.5380325317382812
97, 8210, 8172, 8158, 8176, 8225, 8119, 8188, 8171, 8170, 8215, 8245, 8166, 8171, 8160,3.5463016033172607
97, 8210, 8172, 8158, 8176, 8225, 8119, 8188, 8171, 8170, 8215, 8245, 8166, 8171, 8160,3.5463016033172607
98, 8216, 8183, 8176, 8186, 8230, 8116, 8185, 8169, 8245, 8200, 8237, 8192, 8175, 8157,3.553799629211426
98, 8216, 8183, 8176, 8186, 8230, 8116, 8185, 8169, 8245, 8200, 8237, 8192, 8175, 8157,3.553799629211426
99, 8206, 8158, 8161, 8179, 8250, 8115, 8193, 8165, 8147, 8208, 8248, 8160, 8169, 8147,3.56180477142334
99, 8206, 8158, 8161, 8179, 8250, 8115, 8193, 8165, 8147, 8208, 8248, 8160, 8169, 8147,3.56180477142334
100, 8213, 8185, 8167, 8181, 8221, 8106, 8175, 8173, 8228, 8195, 8231, 8183, 8172, 8155,3.5688037872314453
100, 8213, 8185, 8167, 8181, 8221, 8106, 8175, 8173, 8228, 8195, 8231, 8183, 8172, 8155,3.5688037872314453
101, 8196, 8161, 8159, 8164, 8211, 8099, 8182, 8167, 8161, 8213, 8231, 8164, 8170, 8149,3.576808214187622
101, 8196, 8161, 8159, 8164, 8211, 8099, 8182, 8167, 8161, 8213, 8231, 8164, 8170, 8149,3.576808214187622
102, 8218, 8167, 8165, 8176, 8222, 8119, 8194, 8170, 8169, 8220, 8237, 8177, 8172, 8168,3.585143566131592
102, 8218, 8167, 8165, 8176, 8222, 8119, 8194, 8170, 8169, 8220, 8237, 8177, 8172, 8168,3.585143566131592
103, 8217, 8185, 8171, 8179, 8213, 8122, 8184, 8177, 8249, 8191, 8222, 8188, 8166, 8168,3.5931172370910645
103, 8217, 8185, 8171, 8179, 8213, 8122, 8184, 8177, 8249, 8191, 8222, 8188, 8166, 8168,3.5931172370910645
104, 8198, 8153, 8161, 8154, 8214, 8101, 8188, 8167, 8111, 8190, 8209, 8138, 8156, 8145,3.601048469543457
104, 8198, 8153, 8161, 8154, 8214, 8101, 8188, 8167, 8111, 8190, 8209, 8138, 8156, 8145,3.601048469543457
105, 8206, 8170, 8185, 8158, 8195, 8095, 8168, 8166, 8178, 8167, 8194, 8175, 8169, 8142,3.608603000640869
105, 8206, 8170, 8185, 8158, 8195, 8095, 8168, 8166, 8178, 8167, 8194, 8175, 8169, 8142,3.608603000640869
106, 8184, 8157, 8190, 8154, 8194, 8100, 8172, 8166, 8157, 8175, 8218, 8172, 8169, 8138,3.6166160106658936
106, 8184, 8157, 8190, 8154, 8194, 8100, 8172, 8166, 8157, 8175, 8218, 8172, 8169, 8138,3.6166160106658936
107, 8196, 8156, 8186, 8155, 8190, 8097, 8180, 8163, 8125, 8182, 8209, 8157, 8159, 8142,3.6250693798065186
107, 8196, 8156, 8186, 8155, 8190, 8097, 8180, 8163, 8125, 8182, 8209, 8157, 8159, 8142,3.6250693798065186
108, 8190, 8155, 8172, 8142, 8159, 8086, 8156, 8142, 8146, 8149, 8165, 8164, 8153, 8116,3.6320648193359375
108, 8190, 8155, 8172, 8142, 8159, 8086, 8156, 8142, 8146, 8149, 8165, 8164, 8153, 8116,3.6320648193359375
109, 8158, 8125, 8149, 8127, 8155, 8097, 8158, 8126, 7999, 8158, 8183, 8137, 8152, 8101,3.6400887966156006
109, 8158, 8125, 8149, 8127, 8155, 8097, 8158, 8126, 7999, 8158, 8183, 8137, 8152, 8101,3.6400887966156006
110, 8171, 8166, 8169, 8150, 8139, 8101, 8150, 8144, 8091, 8142, 8196, 8182, 8168, 8122,3.6483914852142334
110, 8171, 8166, 8169, 8150, 8139, 8101, 8150, 8144, 8091, 8142, 8196, 8182, 8168, 8122,3.6483914852142334
111, 8166, 8158, 8160, 8149, 8137, 8088, 8149, 8144, 8080, 8128, 8196, 8164, 8166, 8114,3.655639171600342
111, 8166, 8158, 8160, 8149, 8137, 8088, 8149, 8144, 8080, 8128, 8196, 8164, 8166, 8114,3.655639171600342
112, 8177, 8152, 8156, 8148, 8141, 8095, 8153, 8143, 8030, 8143, 8200, 8145, 8159, 8111,3.66363787651062
112, 8177, 8152, 8156, 8148, 8141, 8095, 8153, 8143, 8030, 8143, 8200, 8145, 8159, 8111,3.66363787651062
113, 8181, 8180, 8180, 8159, 8124, 8104, 8147, 8157, 8134, 8153, 8195, 8180, 8171, 8110,3.6720376014709473
113, 8181, 8180, 8180, 8159, 8124, 8104, 8147, 8157, 8134, 8153, 8195, 8180, 8171, 8110,3.6720376014709473
114, 8182, 8159, 8175, 8158, 8143, 8112, 8181, 8163, 8076, 8184, 8213, 8149, 8171, 8119,3.680037498474121
114, 8182, 8159, 8175, 8158, 8143, 8112, 8181, 8163, 8076, 8184, 8213, 8149, 8171, 8119,3.680037498474121
115, 8205, 8179, 8183, 8161, 8140, 8122, 8189, 8173, 8181, 8174, 8209, 8172, 8172, 8137,3.688032388687134
115, 8205, 8179, 8183, 8161, 8140, 8122, 8189, 8173, 8181, 8174, 8209, 8172, 8172, 8137,3.688032388687134
116, 8180, 8164, 8176, 8145, 8135, 8122, 8181, 8171, 8174, 8177, 8205, 8168, 8173, 8123,3.6950690746307373
116, 8180, 8164, 8176, 8145, 8135, 8122, 8181, 8171, 8174, 8177, 8205, 8168, 8173, 8123,3.6950690746307373
117, 8183, 8153, 8175, 8150, 8160, 8132, 8189, 8172, 8127, 8205, 8214, 8159, 8174, 8128,3.7030696868896484
117, 8183, 8153, 8175, 8150, 8160, 8132, 8189, 8172, 8127, 8205, 8214, 8159, 8174, 8128,3.7030696868896484
118, 8195, 8172, 8185, 8162, 8149, 8135, 8181, 8169, 8240, 8175, 8197, 8185, 8170, 8122,3.711089849472046
118, 8195, 8172, 8185, 8162, 8149, 8135, 8181, 8169, 8240, 8175, 8197, 8185, 8170, 8122,3.711089849472046
119, 8171, 8146, 8163, 8150, 8143, 8131, 8181, 8146, 8092, 8153, 8190, 8137, 8159, 8100,3.719090223312378
119, 8171, 8146, 8163, 8150, 8143, 8131, 8181, 8146, 8092, 8153, 8190, 8137, 8159, 8100,3.719090223312378
120, 8182, 8175, 8179, 8166, 8142, 8135, 8167, 8154, 8117, 8151, 8185, 8164, 8166, 8123,3.727069854736328
120, 8182, 8175, 8179, 8166, 8142, 8135, 8167, 8154, 8117, 8151, 8185, 8164, 8166, 8123,3.727069854736328
121, 8172, 8171, 8182, 8159, 8145, 8136, 8165, 8162, 8162, 8168, 8192, 8173, 8166, 8127,3.73507022857666
121, 8172, 8171, 8182, 8159, 8145, 8136, 8165, 8162, 8162, 8168, 8192, 8173, 8166, 8127,3.73507022857666
122, 8179, 8152, 8172, 8152, 8145, 8146, 8173, 8149, 8086, 8170, 8192, 8144, 8163, 8121,3.743069648742676
122, 8179, 8152, 8172, 8152, 8145, 8146, 8173, 8149, 8086, 8170, 8192, 8144, 8163, 8121,3.743069648742676
123, 8197, 8178, 8195, 8170, 8132, 8153, 8162, 8149, 8180, 8148, 8176, 8176, 8174, 8122,3.7507245540618896
123, 8197, 8178, 8195, 8170, 8132, 8153, 8162, 8149, 8180, 8148, 8176, 8176, 8174, 8122,3.7507245540618896
124, 8181, 8151, 8189, 8159, 8153, 8157, 8171, 8156, 8115, 8180, 8199, 8152, 8168, 8118,3.7582387924194336
124, 8181, 8151, 8189, 8159, 8153, 8157, 8171, 8156, 8115, 8180, 8199, 8152, 8168, 8118,3.7582387924194336
125, 8190, 8164, 8198, 8157, 8151, 8171, 8169, 8172, 8172, 8185, 8199, 8168, 8168, 8132,3.7660725116729736
125, 8190, 8164, 8198, 8157, 8151, 8171, 8169, 8172, 8172, 8185, 8199, 8168, 8168, 8132,3.7660725116729736
126, 8171, 8160, 8206, 8151, 8139, 8182, 8177, 8179, 8202, 8172, 8188, 8167, 8170, 8118,3.7739925384521484
126, 8171, 8160, 8206, 8151, 8139, 8182, 8177, 8179, 8202, 8172, 8188, 8167, 8170, 8118,3.7739925384521484
127, 8162, 8140, 8201, 8146, 8146, 8185, 8193, 8168, 8108, 8181, 8187, 8139, 8165, 8106,3.781747579574585
127, 8162, 8140, 8201, 8146, 8146, 8185, 8193, 8168, 8108, 8181, 8187, 8139, 8165, 8106,3.781747579574585
240, 8176, 8175, 8222, 8155, 8130, 8179, 8170, 8164, 8216, 8163, 8169, 8177, 8169, 8116,3.789755344390869
240, 8176, 8175, 8222, 8155, 8130, 8179, 8170, 8164, 8216, 8163, 8169, 8177, 8169, 8116,3.789755344390869
0, 8160, 8160, 8224, 8152, 8136, 8174, 8174, 8159, 8137, 8172, 8191, 8153, 8162, 8114,3.7980260848999023
0, 8160, 8160, 8224, 8152, 8136, 8174, 8174, 8159, 8137, 8172, 8191, 8153, 8162, 8114,3.7980260848999023
1, 8173, 8169, 8238, 8170, 8138, 8166, 8170, 8160, 8143, 8168, 8198, 8163, 8168, 8114,3.806069850921631
1, 8173, 8169, 8238, 8170, 8138, 8166, 8170, 8160, 8143, 8168, 8198, 8163, 8168, 8114,3.806069850921631
2, 8170, 8172, 8241, 8169, 8141, 8154, 8166, 8156, 8185, 8158, 8184, 8169, 8176, 8113,3.8140692710876465
2, 8170, 8172, 8241, 8169, 8141, 8154, 8166, 8156, 8185, 8158, 8184, 8169, 8176, 8113,3.8140692710876465
3, 8169, 8151, 8233, 8158, 8164, 8161, 8183, 8154, 8105, 8175, 8199, 8140, 8169, 8132,3.8220694065093994
3, 8169, 8151, 8233, 8158, 8164, 8161, 8183, 8154, 8105, 8175, 8199, 8140, 8169, 8132,3.8220694065093994
4, 8184, 8175, 8249, 8170, 8144, 8154, 8163, 8167, 8224, 8161, 8189, 8182, 8168, 8140,3.8290560245513916
4, 8184, 8175, 8249, 8170, 8144, 8154, 8163, 8167, 8224, 8161, 8189, 8182, 8168, 8140,3.8290560245513916
5, 8174, 8155, 8237, 8162, 8150, 8139, 8169, 8164, 8161, 8185, 8188, 8164, 8165, 8124,3.8371245861053467
5, 8174, 8155, 8237, 8162, 8150, 8139, 8169, 8164, 8161, 8185, 8188, 8164, 8165, 8124,3.8371245861053467
6, 8183, 8164, 8238, 8163, 8158, 8146, 8185, 8165, 8156, 8189, 8188, 8165, 8168, 8132,3.845142126083374
6, 8183, 8164, 8238, 8163, 8158, 8146, 8185, 8165, 8156, 8189, 8188, 8165, 8168, 8132,3.845142126083374
7, 8167, 8168, 8238, 8153, 8134, 8139, 8174, 8163, 8202, 8150, 8170, 8172, 8165, 8121,3.853604793548584
7, 8167, 8168, 8238, 8153, 8134, 8139, 8174, 8163, 8202, 8150, 8170, 8172, 8165, 8121,3.853604793548584
8, 8163, 8146, 8233, 8147, 8146, 8132, 8176, 8151, 8095, 8163, 8168, 8140, 8158, 8121,3.861189842224121
8, 8163, 8146, 8233, 8147, 8146, 8132, 8176, 8151, 8095, 8163, 8168, 8140, 8158, 8121,3.861189842224121
9, 8189, 8179, 8256, 8165, 8153, 8139, 8173, 8163, 8203, 8163, 8160, 8181, 8169, 8141,3.86851167678833
9, 8189, 8179, 8256, 8165, 8153, 8139, 8173, 8163, 8203, 8163, 8160, 8181, 8169, 8141,3.86851167678833
10, 8171, 8164, 8241, 8156, 8162, 8138, 8185, 8168, 8156, 8161, 8168, 8161, 8166, 8132,3.8769400119781494
10, 8171, 8164, 8241, 8156, 8162, 8138, 8185, 8168, 8156, 8161, 8168, 8161, 8166, 8132,3.8769400119781494
11, 8182, 8170, 8240, 8164, 8165, 8136, 8190, 8169, 8146, 8154, 8170, 8160, 8165, 8139,3.884939670562744
11, 8182, 8170, 8240, 8164, 8165, 8136, 8190, 8169, 8146, 8154, 8170, 8160, 8165, 8139,3.884939670562744
12, 8187, 8183, 8253, 8166, 8154, 8136, 8183, 8170, 8246, 8149, 8168, 8188, 8178, 8144,3.89294171333313
12, 8187, 8183, 8253, 8166, 8154, 8136, 8183, 8170, 8246, 8149, 8168, 8188, 8178, 8144,3.89294171333313
13, 8174, 8152, 8237, 8155, 8167, 8137, 8192, 8157, 8137, 8178, 8182, 8148, 8170, 8139,3.899946928024292
13, 8174, 8152, 8237, 8155, 8167, 8137, 8192, 8157, 8137, 8178, 8182, 8148, 8170, 8139,3.899946928024292
14, 8190, 8180, 8252, 8173, 8160, 8138, 8179, 8159, 8205, 8159, 8173, 8175, 8165, 8145,3.9080324172973633
14, 8190, 8180, 8252, 8173, 8160, 8138, 8179, 8159, 8205, 8159, 8173, 8175, 8165, 8145,3.9080324172973633
15, 8183, 8170, 8259, 8168, 8166, 8138, 8189, 8166, 8188, 8167, 8196, 8174, 8167, 8143,3.916069746017456
15, 8183, 8170, 8259, 8168, 8166, 8138, 8189, 8166, 8188, 8167, 8196, 8174, 8167, 8143,3.916069746017456
16, 8195, 8170, 8260, 8165, 8170, 8138, 8190, 8166, 8166, 8184, 8205, 8172, 8167, 8152,3.924069881439209
16, 8195, 8170, 8260, 8165, 8170, 8138, 8190, 8166, 8166, 8184, 8205, 8172, 8167, 8152,3.924069881439209
17, 8183, 8181, 8249, 8168, 8152, 8130, 8165, 8153, 8218, 8143, 8165, 8178, 8158, 8133,3.932145833969116
17, 8183, 8181, 8249, 8168, 8152, 8130, 8165, 8153, 8218, 8143, 8165, 8178, 8158, 8133,3.932145833969116
18, 8165, 8145, 8230, 8159, 8170, 8133, 8177, 8145, 8084, 8142, 8168, 8140, 8154, 8120,3.939927816390991
18, 8165, 8145, 8230, 8159, 8170, 8133, 8177, 8145, 8084, 8142, 8168, 8140, 8154, 8120,3.939927816390991
19, 8195, 8174, 8258, 8168, 8166, 8139, 8177, 8168, 8183, 8153, 8182, 8186, 8172, 8149,3.9478375911712646
19, 8195, 8174, 8258, 8168, 8166, 8139, 8177, 8168, 8183, 8153, 8182, 8186, 8172, 8149,3.9478375911712646
20, 8182, 8171, 8251, 8164, 8158, 8130, 8174, 8173, 8193, 8156, 8184, 8179, 8172, 8146,3.9560649394989014
20, 8182, 8171, 8251, 8164, 8158, 8130, 8174, 8173, 8193, 8156, 8184, 8179, 8172, 8146,3.9560649394989014
21, 8186, 8162, 8236, 8173, 8164, 8133, 8174, 8164, 8136, 8159, 8178, 8162, 8163, 8142,3.9628515243530273
21, 8186, 8162, 8236, 8173, 8164, 8133, 8174, 8164, 8136, 8159, 8178, 8162, 8163, 8142,3.9628515243530273
22, 8196, 8177, 8246, 8179, 8154, 8139, 8172, 8166, 8227, 8165, 8172, 8194, 8166, 8143,3.971033811569214
22, 8196, 8177, 8246, 8179, 8154, 8139, 8172, 8166, 8227, 8165, 8172, 8194, 8166, 8143,3.971033811569214
23, 8176, 8150, 8230, 8160, 8170, 8140, 8188, 8159, 8131, 8190, 8189, 8159, 8160, 8142,3.979043960571289
23, 8176, 8150, 8230, 8160, 8170, 8140, 8188, 8159, 8131, 8190, 8189, 8159, 8160, 8142,3.979043960571289
24, 8186, 8170, 8227, 8169, 8168, 8144, 8171, 8164, 8186, 8164, 8179, 8179, 8160, 8149,3.987069606781006
24, 8186, 8170, 8227, 8169, 8168, 8144, 8171, 8164, 8186, 8164, 8179, 8179, 8160, 8149,3.987069606781006
25, 8170, 8159, 8205, 8160, 8163, 8143, 8170, 8161, 8170, 8147, 8173, 8179, 8156, 8139,3.9950695037841797
25, 8170, 8159, 8205, 8160, 8163, 8143, 8170, 8161, 8170, 8147, 8173, 8179, 8156, 8139,3.9950695037841797
26, 8181, 8159, 8204, 8165, 8175, 8144, 8186, 8161, 8112, 8165, 8183, 8168, 8159, 8151,4.002464532852173
26, 8181, 8159, 8204, 8165, 8175, 8144, 8186, 8161, 8112, 8165, 8183, 8168, 8159, 8151,4.003458738327026
27, 8201, 8190, 8235, 8180, 8166, 8136, 8170, 8168, 8235, 8163, 8175, 8199, 8168, 8163,4.011459827423096
27, 8201, 8190, 8235, 8180, 8166, 8136, 8170, 8168, 8235, 8163, 8175, 8199, 8168, 8163,4.011459827423096
28, 8176, 8150, 8207, 8160, 8172, 8133, 8173, 8154, 8125, 8170, 8180, 8161, 8159, 8149,4.0190699100494385
28, 8176, 8150, 8207, 8160, 8172, 8133, 8173, 8154, 8125, 8170, 8180, 8161, 8159, 8149,4.0190699100494385
29, 8168, 8158, 8189, 8161, 8160, 8137, 8166, 8150, 8144, 8151, 8164, 8173, 8161, 8142,4.0260701179504395
29, 8168, 8158, 8189, 8161, 8160, 8137, 8166, 8150, 8144, 8151, 8164, 8173, 8161, 8142,4.0260701179504395
30, 8150, 8155, 8181, 8152, 8155, 8127, 8157, 8143, 8148, 8152, 8160, 8167, 8165, 8123,4.0340704917907715
30, 8150, 8155, 8181, 8152, 8155, 8127, 8157, 8143, 8148, 8152, 8160, 8167, 8165, 8123,4.0340704917907715
31, 8159, 8143, 8181, 8149, 8174, 8126, 8167, 8141, 8075, 8177, 8176, 8150, 8167, 8133,4.042226552963257
31, 8159, 8143, 8181, 8149, 8174, 8126, 8167, 8141, 8075, 8177, 8176, 8150, 8167, 8133,4.042226552963257
32, 8174, 8176, 8196, 8168, 8160, 8129, 8162, 8162, 8211, 8153, 8170, 8190, 8171, 8143,4.050099849700928
32, 8174, 8176, 8196, 8168, 8160, 8129, 8162, 8162, 8211, 8153, 8170, 8190, 8171, 8143,4.050099849700928
33, 8151, 8150, 8174, 8161, 8169, 8120, 8166, 8156, 8127, 8159, 8180, 8154, 8158, 8123,4.058157444000244
33, 8151, 8150, 8174, 8161, 8169, 8120, 8166, 8156, 8127, 8159, 8180, 8154, 8158, 8123,4.058157444000244
34, 8158, 8154, 8170, 8157, 8165, 8106, 8150, 8143, 8118, 8154, 8169, 8165, 8160, 8126,4.066168546676636
34, 8158, 8154, 8170, 8157, 8165, 8106, 8150, 8143, 8118, 8154, 8169, 8165, 8160, 8126,4.066168546676636
35, 8154, 8155, 8173, 8153, 8154, 8101, 8145, 8141, 8145, 8141, 8167, 8183, 8165, 8129,4.074254751205444
35, 8154, 8155, 8173, 8153, 8154, 8101, 8145, 8141, 8145, 8141, 8167, 8183, 8165, 8129,4.074254751205444
36, 8161, 8147, 8172, 8161, 8173, 8112, 8161, 8145, 8080, 8156, 8188, 8160, 8159, 8139,4.081566572189331
36, 8161, 8147, 8172, 8161, 8173, 8112, 8161, 8145, 8080, 8156, 8188, 8160, 8159, 8139,4.081566572189331
37, 8175, 8179, 8188, 8166, 8160, 8108, 8140, 8148, 8172, 8142, 8164, 8185, 8162, 8139,4.08955979347229
37, 8175, 8179, 8188, 8166, 8160, 8108, 8140, 8148, 8172, 8142, 8164, 8185, 8162, 8139,4.08955979347229
38, 8152, 8149, 8176, 8149, 8165, 8099, 8143, 8139, 8079, 8161, 8164, 8158, 8156, 8125,4.0965576171875
38, 8152, 8149, 8176, 8149, 8165, 8099, 8143, 8139, 8079, 8161, 8164, 8158, 8156, 8125,4.0965576171875
39, 8162, 8157, 8188, 8167, 8177, 8107, 8151, 8140, 8109, 8160, 8174, 8176, 8158, 8138,4.105300188064575
39, 8162, 8157, 8188, 8167, 8177, 8107, 8151, 8140, 8109, 8160, 8174, 8176, 8158, 8138,4.105300188064575
40, 8151, 8165, 8188, 8170, 8166, 8105, 8144, 8138, 8168, 8132, 8170, 8188, 8167, 8130,4.112593412399292
40, 8151, 8165, 8188, 8170, 8166, 8105, 8144, 8138, 8168, 8132, 8170, 8188, 8167, 8130,4.113588571548462
41, 8146, 8143, 8159, 8152, 8165, 8099, 8153, 8134, 8053, 8147, 8179, 8151, 8168, 8122,4.120593309402466
41, 8146, 8143, 8159, 8152, 8165, 8099, 8153, 8134, 8053, 8147, 8179, 8151, 8168, 8122,4.121588706970215
42, 8158, 8166, 8162, 8149, 8154, 8097, 8137, 8133, 8140, 8131, 8175, 8185, 8168, 8127,4.1286396980285645
42, 8158, 8166, 8162, 8149, 8154, 8097, 8137, 8133, 8140, 8131, 8175, 8185, 8168, 8127,4.1286396980285645
43, 8127, 8153, 8155, 8144, 8169, 8103, 8132, 8120, 8077, 8133, 8180, 8162, 8164, 8113,4.137423992156982
43, 8127, 8153, 8155, 8144, 8169, 8103, 8132, 8120, 8077, 8133, 8180, 8162, 8164, 8113,4.137423992156982
44, 8153, 8172, 8163, 8169, 8172, 8122, 8140, 8133, 8099, 8154, 8174, 8166, 8166, 8124,4.14450740814209
44, 8153, 8172, 8163, 8169, 8172, 8122, 8140, 8133, 8099, 8154, 8174, 8166, 8166, 8124,4.145487070083618
45, 8157, 8172, 8167, 8170, 8161, 8131, 8145, 8150, 8190, 8156, 8165, 8182, 8164, 8129,4.152440309524536
45, 8157, 8172, 8167, 8170, 8161, 8131, 8145, 8150, 8190, 8156, 8165, 8182, 8164, 8129,4.152440309524536
46, 8133, 8135, 8147, 8153, 8177, 8134, 8163, 8147, 8081, 8170, 8177, 8146, 8156, 8121,4.160329103469849
46, 8133, 8135, 8147, 8153, 8177, 8134, 8163, 8147, 8081, 8170, 8177, 8146, 8156, 8121,4.160329103469849
47, 8147, 8163, 8150, 8159, 8159, 8131, 8151, 8151, 8159, 8156, 8154, 8176, 8157, 8111,4.168243885040283
47, 8147, 8163, 8150, 8159, 8159, 8131, 8151, 8151, 8159, 8156, 8154, 8176, 8157, 8111,4.168243885040283
48, 8134, 8142, 8132, 8144, 8157, 8121, 8153, 8148, 8111, 8162, 8148, 8157, 8154, 8096,4.176241397857666
48, 8134, 8142, 8132, 8144, 8157, 8121, 8153, 8148, 8111, 8162, 8148, 8157, 8154, 8096,4.176241397857666
49, 8151, 8146, 8140, 8148, 8167, 8127, 8162, 8151, 8103, 8167, 8165, 8164, 8165, 8121,4.184240818023682
49, 8151, 8146, 8140, 8148, 8167, 8127, 8162, 8151, 8103, 8167, 8165, 8164, 8165, 8121,4.184240818023682
50, 8153, 8167, 8157, 8149, 8151, 8128, 8153, 8150, 8194, 8151, 8167, 8194, 8175, 8125,4.192321538925171
50, 8153, 8167, 8157, 8149, 8151, 8128, 8153, 8150, 8194, 8151, 8167, 8194, 8175, 8125,4.192321538925171
51, 8136, 8136, 8138, 8139, 8162, 8119, 8157, 8140, 8078, 8172, 8176, 8156, 8163, 8108,4.200068950653076
51, 8136, 8136, 8138, 8139, 8162, 8119, 8157, 8140, 8078, 8172, 8176, 8156, 8163, 8108,4.200068950653076
52, 8155, 8161, 8149, 8158, 8163, 8121, 8137, 8149, 8163, 8163, 8169, 8186, 8169, 8120,4.208031892776489
52, 8155, 8161, 8149, 8158, 8163, 8121, 8137, 8149, 8163, 8163, 8169, 8186, 8169, 8120,4.208031892776489
53, 8150, 8156, 8152, 8152, 8169, 8140, 8145, 8157, 8157, 8170, 8182, 8179, 8170, 8125,4.215853452682495
53, 8150, 8156, 8152, 8152, 8169, 8140, 8145, 8157, 8157, 8170, 8182, 8179, 8170, 8125,4.215853452682495
54, 8160, 8157, 8161, 8152, 8181, 8164, 8160, 8165, 8139, 8183, 8202, 8175, 8169, 8139,4.223070859909058
54, 8160, 8157, 8161, 8152, 8181, 8164, 8160, 8165, 8139, 8183, 8202, 8175, 8169, 8139,4.223070859909058
55, 8163, 8173, 8167, 8160, 8171, 8164, 8147, 8164, 8235, 8163, 8195, 8199, 8172, 8133,4.231041669845581
55, 8163, 8173, 8167, 8160, 8171, 8164, 8147, 8164, 8235, 8163, 8195, 8199, 8172, 8133,4.2317023277282715
56, 8152, 8142, 8136, 8147, 8182, 8161, 8159, 8146, 8108, 8182, 8190, 8154, 8161, 8115,4.238720417022705
56, 8152, 8142, 8136, 8147, 8182, 8161, 8159, 8146, 8108, 8182, 8190, 8154, 8161, 8115,4.238720417022705
57, 8164, 8166, 8144, 8155, 8175, 8171, 8156, 8151, 8162, 8174, 8172, 8180, 8160, 8118,4.246735334396362
57, 8164, 8166, 8144, 8155, 8175, 8171, 8156, 8151, 8162, 8174, 8172, 8180, 8160, 8118,4.246735334396362
58, 8149, 8162, 8154, 8161, 8175, 8177, 8159, 8154, 8176, 8165, 8183, 8183, 8157, 8111,4.255069017410278
58, 8149, 8162, 8154, 8161, 8175, 8177, 8159, 8154, 8176, 8165, 8183, 8183, 8157, 8111,4.255069017410278
59, 8154, 8161, 8148, 8160, 8176, 8181, 8168, 8152, 8139, 8170, 8197, 8169, 8160, 8119,4.263296842575073
59, 8154, 8161, 8148, 8160, 8176, 8181, 8168, 8152, 8139, 8170, 8197, 8169, 8160, 8119,4.263296842575073
60, 8158, 8181, 8142, 8152, 8152, 8178, 8160, 8163, 8231, 8159, 8177, 8193, 8176, 8120,4.270988702774048
60, 8158, 8181, 8142, 8152, 8152, 8178, 8160, 8163, 8231, 8159, 8177, 8193, 8176, 8120,4.270988702774048
61, 8150, 8154, 8134, 8148, 8173, 8183, 8178, 8163, 8140, 8186, 8192, 8162, 8171, 8121,4.278999090194702
61, 8150, 8154, 8134, 8148, 8173, 8183, 8178, 8163, 8140, 8186, 8192, 8162, 8171, 8121,4.278999090194702
62, 8170, 8180, 8159, 8178, 8180, 8192, 8164, 8164, 8218, 8180, 8205, 8192, 8172, 8142,4.2860682010650635
62, 8170, 8180, 8159, 8178, 8180, 8192, 8164, 8164, 8218, 8180, 8205, 8192, 8172, 8142,4.2860682010650635
63, 8158, 8175, 8156, 8173, 8175, 8191, 8149, 8162, 8229, 8173, 8211, 8189, 8174, 8129,4.294069528579712
63, 8158, 8175, 8156, 8173, 8175, 8191, 8149, 8162, 8229, 8173, 8211, 8189, 8174, 8129,4.294069528579712
64, 8159, 8160, 8139, 8159, 8181, 8200, 8161, 8156, 8150, 8188, 8208, 8160, 8167, 8118,4.302069664001465
64, 8159, 8160, 8139, 8159, 8181, 8200, 8161, 8156, 8150, 8188, 8208, 8160, 8167, 8118,4.302069664001465
65, 8157, 8176, 8139, 8158, 8139, 8189, 8149, 8153, 8228, 8169, 8179, 8188, 8162, 8116,4.309666872024536
65, 8157, 8176, 8139, 8158, 8139, 8189, 8149, 8153, 8228, 8169, 8179, 8188, 8162, 8116,4.310663223266602
66, 8144, 8150, 8125, 8148, 8107, 8175, 8158, 8156, 8127, 8175, 8195, 8164, 8161, 8115,4.318192720413208
66, 8144, 8150, 8125, 8148, 8107, 8175, 8158, 8156, 8127, 8175, 8195, 8164, 8161, 8115,4.318192720413208
67, 8178, 8175, 8152, 8163, 8079, 8185, 8166, 8179, 8196, 8170, 8203, 8192, 8173, 8130,4.32619309425354
67, 8178, 8175, 8152, 8163, 8079, 8185, 8166, 8179, 8196, 8170, 8203, 8192, 8173, 8130,4.32619309425354
68, 8173, 8174, 8152, 8156, 8059, 8188, 8167, 8179, 8221, 8166, 8190, 8188, 8171, 8123,4.334069490432739
68, 8173, 8174, 8152, 8156, 8059, 8188, 8167, 8179, 8221, 8166, 8190, 8188, 8171, 8123,4.334676504135132
69, 8166, 8150, 8131, 8144, 8056, 8194, 8171, 8160, 8110, 8176, 8192, 8163, 8164, 8129,4.342068910598755
69, 8166, 8150, 8131, 8144, 8056, 8194, 8171, 8160, 8110, 8176, 8192, 8163, 8164, 8129,4.342068910598755
70, 8175, 8176, 8150, 8152, 8026, 8204, 8161, 8163, 8220, 8152, 8183, 8205, 8173, 8131,4.350068807601929
70, 8175, 8176, 8150, 8152, 8026, 8204, 8161, 8163, 8220, 8152, 8183, 8205, 8173, 8131,4.350068807601929
71, 8158, 8157, 8146, 8146, 8027, 8212, 8170, 8158, 8152, 8165, 8185, 8173, 8170, 8113,4.36017632484436
71, 8158, 8157, 8146, 8146, 8027, 8212, 8170, 8158, 8152, 8165, 8185, 8173, 8170, 8113,4.36017632484436
72, 8166, 8169, 8145, 8158, 8019, 8220, 8156, 8150, 8153, 8152, 8170, 8179, 8167, 8119,4.365175724029541
72, 8166, 8169, 8145, 8158, 8019, 8220, 8156, 8150, 8153, 8152, 8170, 8179, 8167, 8119,4.365175724029541
73, 8152, 8168, 8137, 8153, 7998, 8218, 8150, 8146, 8171, 8134, 8163, 8186, 8165, 8110,4.373175382614136
73, 8152, 8168, 8137, 8153, 7998, 8218, 8150, 8146, 8171, 8134, 8163, 8186, 8165, 8110,4.373175382614136
74, 8142, 8144, 8127, 8143, 7995, 8220, 8165, 8148, 8080, 8172, 8180, 8158, 8165, 8112,4.381174087524414
74, 8142, 8144, 8127, 8143, 7995, 8220, 8165, 8148, 8080, 8172, 8180, 8158, 8165, 8112,4.381174087524414
75, 8153, 8165, 8139, 8151, 7970, 8216, 8142, 8154, 8180, 8159, 8171, 8188, 8164, 8115,4.389174461364746
75, 8153, 8165, 8139, 8151, 7970, 8216, 8142, 8154, 8180, 8159, 8171, 8188, 8164, 8115,4.389174461364746
76, 8136, 8144, 8122, 8145, 7976, 8213, 8150, 8146, 8101, 8148, 8177, 8157, 8156, 8101,4.39717435836792
76, 8136, 8144, 8122, 8145, 7976, 8213, 8150, 8146, 8101, 8148, 8177, 8157, 8156, 8101,4.39717435836792
77, 8158, 8163, 8134, 8157, 7974, 8226, 8165, 8152, 8110, 8148, 8172, 8163, 8166, 8112,4.405174732208252
77, 8158, 8163, 8134, 8157, 7974, 8226, 8165, 8152, 8110, 8148, 8172, 8163, 8166, 8112,4.405174732208252
78, 8156, 8173, 8140, 8158, 7951, 8223, 8154, 8152, 8154, 8138, 8157, 8176, 8168, 8104,4.413174867630005
78, 8156, 8173, 8140, 8158, 7951, 8223, 8154, 8152, 8154, 8138, 8157, 8176, 8168, 8104,4.413174867630005
79, 8136, 8140, 8113, 8144, 7955, 8212, 8149, 8131, 8015, 8137, 8165, 8144, 8154, 8093,4.421178817749023
79, 8136, 8140, 8113, 8144, 7955, 8212, 8149, 8131, 8015, 8137, 8165, 8144, 8154, 8093,4.421362638473511
80, 8144, 8170, 8124, 8145, 7947, 8220, 8134, 8134, 8108, 8125, 8164, 8178, 8160, 8100,4.4273681640625
80, 8144, 8170, 8124, 8145, 7947, 8220, 8134, 8134, 8108, 8125, 8164, 8178, 8160, 8100,4.428369522094727
81, 8132, 8156, 8121, 8146, 7960, 8240, 8146, 8142, 8081, 8147, 8180, 8155, 8165, 8092,4.43536901473999
81, 8132, 8156, 8121, 8146, 7960, 8240, 8146, 8142, 8081, 8147, 8180, 8155, 8165, 8092,4.4363694190979
82, 8158, 8158, 8115, 8171, 7959, 8245, 8155, 8150, 8079, 8146, 8169, 8154, 8169, 8093,4.4440693855285645
82, 8158, 8158, 8115, 8171, 7959, 8245, 8155, 8150, 8079, 8146, 8169, 8154, 8169, 8093,4.4440693855285645
83, 8163, 8169, 8121, 8165, 7937, 8224, 8151, 8150, 8147, 8128, 8154, 8187, 8172, 8097,4.451389789581299
83, 8163, 8169, 8121, 8165, 7937, 8224, 8151, 8150, 8147, 8128, 8154, 8187, 8172, 8097,4.452390670776367
84, 8156, 8152, 8126, 8150, 7958, 8219, 8169, 8144, 8074, 8157, 8192, 8170, 8172, 8120,4.460013389587402
84, 8156, 8152, 8126, 8150, 7958, 8219, 8169, 8144, 8074, 8157, 8192, 8170, 8172, 8120,4.460013389587402
85, 8174, 8188, 8140, 8173, 7958, 8232, 8160, 8163, 8199, 8146, 8185, 8197, 8174, 8132,4.4680140018463135
