COUNTER,F3,FC5,AF3,F7,T7,P7,O1,O2,P8,T8,F8,AF4,FC6,F4,Timestamp
55, 8264, 8221, 8242, 8331, 8197, 8168, 8230, 8171, 8212, 8208, 8320, 8313, 8208, 8202,0.02709674835205078
56, 8281, 8230, 8283, 8340, 8196, 8174, 8221, 8179, 8220, 8218, 8345, 8348, 8221, 8221,0.02709674835205078
57, 8284, 8221, 8247, 8340, 8195, 8173, 8227, 8179, 8243, 8240, 8355, 8345, 8237, 8233,0.04234457015991211
58, 8284, 8215, 8267, 8325, 8190, 8160, 8215, 8171, 8234, 8236, 8340, 8346, 8232, 8232,0.04234457015991211
59, 8291, 8226, 8266, 8335, 8186, 8159, 8199, 8173, 8215, 8214, 8339, 8353, 8229, 8226,0.0577700138092041
60, 8291, 8221, 8235, 8325, 8178, 8150, 8181, 8164, 8206, 8199, 8351, 8345, 8226, 8216,0.0577700138092041
61, 8283, 8216, 8265, 8295, 8175, 8150, 8161, 8165, 8194, 8193, 8341, 8342, 8222, 8208,0.07411766052246094
62, 8281, 8222, 8225, 8312, 8188, 8157, 8167, 8168, 8202, 8203, 8324, 8319, 8226, 8200,0.07411766052246094
63, 8278, 8223, 8230, 8299, 8191, 8144, 8161, 8171, 8193, 8187, 8308, 8300, 8205, 8188,0.08924603462219238
64, 8251, 8225, 8223, 8264, 8192, 8144, 8162, 8169, 8179, 8172, 8293, 8279, 8177, 8164,0.08924603462219238
65, 8232, 8229, 8189, 8273, 8202, 8162, 8179, 8158, 8172, 8177, 8271, 8248, 8165, 8145,0.10491323471069336
66, 8233, 8229, 8227, 8283, 8209, 8183, 8191, 8165, 8168, 8179, 8250, 8238, 8157, 8153,0.10491323471069336
67, 8227, 8216, 8191, 8278, 8213, 8195, 8205, 8166, 8191, 8200, 8241, 8212, 8158, 8166,0.12120914459228516
68, 8228, 8200, 8193, 8254, 8204, 8184, 8196, 8164, 8206, 8204, 8219, 8203, 8158, 8164,0.12120914459228516
69, 8232, 8193, 8200, 8224, 8198, 8175, 8194, 8172, 8222, 8201, 8214, 8217, 8170, 8157,0.13431692123413086
70, 8227, 8189, 8159, 8211, 8204, 8166, 8203, 8171, 8232, 8202, 8231, 8210, 8184, 8148,0.1509227752685547
71, 8220, 8199, 8203, 8219, 8206, 8157, 8191, 8174, 8202, 8186, 8230, 8210, 8170, 8148,0.1509227752685547
72, 8209, 8199, 8180, 8238, 8205, 8162, 8196, 8165, 8185, 8196, 8217, 8195, 8159, 8145,0.1509227752685547
73, 8199, 8181, 8167, 8216, 8204, 8179, 8209, 8156, 8191, 8213, 8195, 8173, 8160, 8147,0.16527080535888672
74, 8194, 8171, 8169, 8188, 8203, 8190, 8217, 8172, 8208, 8220, 8180, 8165, 8161, 8153,0.18135762214660645
75, 8198, 8164, 8136, 8183, 8206, 8170, 8215, 8176, 8228, 8222, 8185, 8165, 8171, 8148,0.18135762214660645
76, 8212, 8181, 8187, 8175, 8203, 8163, 8195, 8176, 8221, 8204, 8188, 8188, 8173, 8145,0.19695425033569336
77, 8208, 8201, 8162, 8180, 8209, 8179, 8191, 8171, 8209, 8195, 8191, 8176, 8162, 8134,0.19695425033569336
78, 8200, 8198, 8154, 8178, 8217, 8181, 8190, 8162, 8192, 8186, 8182, 8156, 8142, 8117,0.2120809555053711
79, 8205, 8200, 8192, 8182, 8216, 8186, 8196, 8169, 8180, 8186, 8172, 8155, 8137, 8121,0.2120809555053711
80, 8207, 8198, 8161, 8202, 8220, 8190, 8217, 8170, 8188, 8198, 8174, 8142, 8145, 8132,0.22808074951171875
81, 8202, 8189, 8184, 8192, 8218, 8191, 8217, 8173, 8184, 8203, 8161, 8148, 8140, 8136,0.22808074951171875
82, 8198, 8180, 8162, 8186, 8216, 8197, 8210, 8175, 8196, 8214, 8144, 8143, 8147, 8139,0.2435157299041748
83, 8210, 8175, 8162, 8182, 8221, 8192, 8205, 8175, 8217, 8213, 8137, 8146, 8155, 8148,0.2435157299041748
84, 8214, 8180, 8186, 8163, 8221, 8194, 8222, 8183, 8223, 8211, 8132, 8162, 8149, 8157,0.25916385650634766
85, 8191, 8170, 8128, 8144, 8212, 8193, 8246, 8175, 8233, 8224, 8133, 8135, 8149, 8141,0.25916385650634766
86, 8176, 8160, 8156, 8124, 8205, 8187, 8233, 8176, 8230, 8214, 8138, 8133, 8145, 8128,0.2743961811065674
87, 8177, 8165, 8151, 8129, 8212, 8180, 8224, 8176, 8226, 8211, 8146, 8147, 8150, 8125,0.2743961811065674
88, 8184, 8168, 8136, 8129, 8209, 8165, 8216, 8168, 8211, 8209, 8148, 8146, 8154, 8118,0.28957557678222656
89, 8190, 8175, 8181, 8121, 8203, 8167, 8196, 8178, 8196, 8191, 8156, 8160, 8152, 8124,0.28957557678222656
90, 8194, 8175, 8154, 8136, 8212, 8169, 8189, 8173, 8200, 8188, 8171, 8161, 8160, 8129,0.3053004741668701
91, 8206, 8188, 8181, 8149, 8218, 8165, 8176, 8170, 8196, 8194, 8171, 8160, 8164, 8135,0.3053004741668701
92, 8200, 8205, 8175, 8168, 8218, 8175, 8179, 8181, 8209, 8215, 8177, 8159, 8167, 8137,0.3215043544769287
93, 8179, 8190, 8151, 8168, 8212, 8175, 8189, 8176, 8212, 8215, 8175, 8154, 8158, 8127,0.3215043544769287
94, 8175, 8177, 8183, 8152, 8216, 8186, 8210, 8174, 8202, 8196, 8150, 8146, 8143, 8125,0.33756446838378906
95, 8181, 8169, 8142, 8154, 8230, 8210, 8249, 8175, 8229, 8226, 8151, 8126, 8159, 8141,0.33756446838378906
96, 8190, 8162, 8170, 8144, 8215, 8202, 8247, 8178, 8241, 8243, 8163, 8144, 8173, 8157,0.35316920280456543
97, 8200, 8165, 8178, 8147, 8199, 8181, 8223, 8181, 8238, 8234, 8159, 8154, 8177, 8153,0.35316920280456543
98, 8199, 8162, 8145, 8151, 8208, 8179, 8211, 8173, 8242, 8229, 8145, 8130, 8181, 8144,0.3683173656463623
99, 8188, 8155, 8176, 8127, 8214, 8188, 8205, 8180, 8239, 8228, 8136, 8136, 8178, 8149,0.3683173656463623
100, 8183, 8146, 8142, 8117, 8201, 8174, 8201, 8176, 8232, 8225, 8141, 8136, 8174, 8140,0.38390636444091797
101, 8190, 8149, 8153, 8115, 8190, 8159, 8187, 8169, 8214, 8196, 8132, 8136, 8167, 8131,0.38390636444091797
102, 8190, 8164, 8159, 8126, 8200, 8165, 8193, 8178, 8222, 8194, 8139, 8146, 8181, 8142,0.3994276523590088
103, 8191, 8169, 8141, 8136, 8209, 8158, 8197, 8173, 8225, 8205, 8166, 8151, 8192, 8138,0.3994276523590088
104, 8192, 8178, 8189, 8126, 8202, 8156, 8183, 8173, 8193, 8182, 8156, 8158, 8168, 8119,0.41449952125549316
105, 8187, 8190, 8158, 8147, 8216, 8165, 8193, 8169, 8195, 8191, 8152, 8145, 8169, 8117,0.41449952125549316
106, 8200, 8199, 8180, 8172, 8232, 8168, 8199, 8165, 8209, 8213, 8182, 8163, 8194, 8136,0.43009471893310547
107, 8203, 8203, 8202, 8175, 8226, 8178, 8193, 8172, 8207, 8211, 8188, 8179, 8193, 8141,0.43009471893310547
108, 8192, 8188, 8160, 8175, 8224, 8179, 8193, 8169, 8210, 8209, 8163, 8155, 8179, 8136,0.44597387313842773
109, 8204, 8194, 8200, 8175, 8233, 8180, 8195, 8174, 8213, 8210, 8160, 8163, 8180, 8149,0.44597387313842773
110, 8206, 8201, 8177, 8191, 8240, 8190, 8214, 8175, 8220, 8220, 8182, 8171, 8192, 8154,0.46105217933654785
111, 8183, 8182, 8171, 8183, 8232, 8196, 8219, 8172, 8213, 8217, 8166, 8159, 8180, 8143,0.46105217933654785
112, 8166, 8162, 8180, 8160, 8220, 8201, 8214, 8178, 8214, 8216, 8134, 8139, 8164, 8126,0.4771702289581299
113, 8163, 8154, 8142, 8163, 8214, 8195, 8225, 8175, 8230, 8223, 8128, 8118, 8160, 8117,0.4771702289581299
114, 8165, 8161, 8182, 8167, 8210, 8196, 8227, 8176, 8220, 8215, 8128, 8128, 8154, 8127,0.4923412799835205
115, 8157, 8156, 8153, 8160, 8212, 8204, 8233, 8178, 8218, 8222, 8127, 8117, 8156, 8127,0.4923412799835205
116, 8151, 8137, 8136, 8128, 8203, 8191, 8232, 8180, 8225, 8215, 8113, 8101, 8155, 8120,0.5083985328674316
117, 8157, 8141, 8162, 8117, 8195, 8178, 8228, 8188, 8228, 8194, 8112, 8112, 8156, 8122,0.5083985328674316
118, 8168, 8150, 8133, 8141, 8200, 8175, 8218, 8176, 8227, 8191, 8132, 8116, 8172, 8120,0.5239999294281006
119, 8180, 8155, 8168, 8142, 8197, 8178, 8191, 8169, 8211, 8182, 8140, 8138, 8174, 8122,0.5239999294281006
120, 8172, 8149, 8145, 8139, 8197, 8177, 8189, 8171, 8209, 8181, 8141, 8136, 8169, 8123,0.5391161441802979
121, 8152, 8138, 8126, 8128, 8192, 8160, 8180, 8163, 8190, 8171, 8131, 8107, 8157, 8106,0.5391161441802979
122, 8146, 8151, 8162, 8121, 8181, 8157, 8159, 8161, 8160, 8151, 8124, 8108, 8146, 8096,0.5542666912078857
123, 8164, 8167, 8137, 8147, 8195, 8172, 8172, 8158, 8165, 8165, 8147, 8124, 8159, 8106,0.5542666912078857
124, 8188, 8184, 8180, 8160, 8212, 8183, 8181, 8173, 8177, 8181, 8167, 8154, 8169, 8127,0.5694742202758789
125, 8183, 8195, 8179, 8174, 8212, 8190, 8180, 8183, 8195, 8187, 8167, 8154, 8171, 8133,0.5694742202758789
126, 8173, 8190, 8160, 8189, 8214, 8187, 8182, 8174, 8200, 8187, 8153, 8138, 8160, 8123,0.5855770111083984
127, 8176, 8192, 8190, 8196, 8225, 8195, 8197, 8179, 8185, 8190, 8143, 8143, 8151, 8124,0.5855770111083984
236, 8168, 8181, 8148, 8195, 8220, 8199, 8212, 8174, 8183, 8192, 8134, 8124, 8156, 8124,0.6010758876800537
0, 8156, 8159, 8163, 8171, 8197, 8195, 8201, 8170, 8174, 8170, 8112, 8113, 8146, 8123,0.6010758876800537
1, 8149, 8155, 8155, 8166, 8199, 8200, 8195, 8172, 8178, 8176, 8117, 8115, 8146, 8125,0.6164987087249756
2, 8165, 8161, 8144, 8173, 8207, 8192, 8197, 8172, 8199, 8196, 8137, 8125, 8161, 8134,0.6164987087249756
3, 8184, 8167, 8188, 8165, 8200, 8194, 8199, 8185, 8209, 8191, 8143, 8150, 8169, 8150,0.6323916912078857
4, 8185, 8164, 8156, 8167, 8205, 8195, 8209, 8183, 8214, 8198, 8155, 8150, 8186, 8151,0.6323916912078857
5, 8193, 8166, 8184, 8168, 8210, 8187, 8205, 8174, 8202, 8193, 8162, 8160, 8189, 8151,0.6479005813598633
6, 8199, 8171, 8187, 8171, 8208, 8196, 8204, 8173, 8201, 8181, 8159, 8158, 8176, 8152,0.6479005813598633
7, 8198, 8162, 8153, 8161, 8204, 8188, 8194, 8168, 8206, 8176, 8161, 8141, 8174, 8145,0.6633589267730713
8, 8200, 8171, 8192, 8150, 8199, 8173, 8177, 8177, 8192, 8169, 8169, 8156, 8182, 8144,0.6633589267730713
9, 8199, 8185, 8165, 8173, 8205, 8175, 8185, 8180, 8195, 8180, 8181, 8166, 8193, 8146,0.679218053817749
10, 8209, 8192, 8194, 8180, 8209, 8185, 8180, 8176, 8199, 8184, 8186, 8184, 8185, 8153,0.679218053817749
11, 8223, 8199, 8216, 8184, 8210, 8196, 8181, 8177, 8197, 8188, 8194, 8191, 8185, 8160,0.695253849029541
12, 8222, 8197, 8181, 8200, 8212, 8187, 8194, 8175, 8183, 8184, 8194, 8167, 8190, 8153,0.695253849029541
13, 8217, 8202, 8216, 8199, 8219, 8182, 8195, 8178, 8165, 8165, 8182, 8166, 8186, 8152,0.7112822532653809
14, 8217, 8205, 8190, 8210, 8232, 8191, 8203, 8172, 8178, 8172, 8180, 8164, 8194, 8156,0.7112822532653809
15, 8211, 8194, 8189, 8214, 8225, 8197, 8197, 8170, 8172, 8173, 8166, 8151, 8189, 8150,0.7273759841918945
16, 8199, 8183, 8190, 8203, 8213, 8200, 8203, 8183, 8171, 8187, 8159, 8144, 8188, 8151,0.7273759841918945
17, 8197, 8179, 8160, 8191, 8214, 8195, 8222, 8178, 8209, 8213, 8175, 8146, 8212, 8167,0.742943286895752
18, 8201, 8184, 8205, 8180, 8207, 8187, 8200, 8173, 8214, 8200, 8170, 8162, 8216, 8172,0.742943286895752
19, 8198, 8176, 8171, 8186, 8191, 8168, 8176, 8167, 8189, 8180, 8163, 8148, 8201, 8149,0.7579746246337891
20, 8203, 8175, 8172, 8179, 8185, 8148, 8168, 8165, 8162, 8161, 8174, 8151, 8193, 8139,0.7579746246337891
21, 8203, 8194, 8201, 8184, 8199, 8163, 8168, 8175, 8159, 8152, 8185, 8169, 8195, 8147,0.7740960121154785
22, 8192, 8197, 8164, 8210, 8211, 8182, 8171, 8169, 8173, 8164, 8177, 8151, 8182, 8140,0.7902798652648926
23, 8192, 8188, 8198, 8210, 8206, 8186, 8174, 8172, 8162, 8174, 8153, 8146, 8161, 8142,0.7902798652648926
24, 8189, 8175, 8170, 8201, 8203, 8192, 8195, 8170, 8161, 8186, 8146, 8142, 8173, 8152,0.7902798652648926
25, 8188, 8164, 8156, 8181, 8196, 8181, 8191, 8158, 8169, 8179, 8144, 8142, 8180, 8149,0.8058042526245117
26, 8199, 8177, 8188, 8170, 8186, 8164, 8168, 8168, 8171, 8162, 8152, 8157, 8178, 8142,0.8058042526245117
27, 8209, 8186, 8167, 8185, 8191, 8156, 8168, 8173, 8183, 8176, 8186, 8164, 8197, 8142,0.8203744888305664
28, 8212, 8193, 8208, 8183, 8200, 8157, 8162, 8173, 8180, 8183, 8201, 8182, 8205, 8146,0.8368880748748779
29, 8201, 8202, 8193, 8196, 8207, 8159, 8159, 8174, 8179, 8171, 8185, 8171, 8194, 8133,0.8368880748748779
30, 8196, 8199, 8185, 8222, 8206, 8167, 8171, 8176, 8185, 8168, 8166, 8161, 8187, 8130,0.8539402484893799
31, 8203, 8197, 8214, 8228, 8206, 8191, 8193, 8183, 8185, 8185, 8169, 8178, 8193, 8154,0.8539402484893799
32, 8211, 8193, 8170, 8230, 8210, 8195, 8207, 8169, 8184, 8202, 8184, 8171, 8207, 8164,0.8539402484893799
33, 8215, 8195, 8204, 8233, 8207, 8185, 8192, 8171, 8164, 8195, 8180, 8177, 8207, 8161,0.868351936340332
34, 8204, 8199, 8199, 8244, 8206, 8186, 8189, 8180, 8169, 8202, 8181, 8182, 8209, 8160,0.868351936340332
35, 8209, 8192, 8180, 8238, 8207, 8185, 8196, 8175, 8189, 8208, 8185, 8183, 8212, 8166,0.884394645690918
36, 8226, 8195, 8216, 8225, 8216, 8191, 8202, 8185, 8203, 8196, 8182, 8201, 8215, 8177,0.9003195762634277
37, 8220, 8189, 8171, 8232, 8223, 8177, 8204, 8182, 8212, 8205, 8181, 8196, 8227, 8174,0.9003195762634277
38, 8212, 8184, 8190, 8219, 8206, 8153, 8170, 8170, 8185, 8192, 8177, 8198, 8220, 8171,0.9003195762634277
39, 8222, 8201, 8199, 8226, 8203, 8155, 8160, 8172, 8174, 8181, 8182, 8206, 8215, 8176,0.9164218902587891
40, 8238, 8210, 8189, 8252, 8219, 8158, 8180, 8172, 8174, 8181, 8191, 8206, 8222, 8175,0.9164218902587891
41, 8240, 8206, 8222, 8243, 8219, 8162, 8183, 8172, 8161, 8174, 8197, 8219, 8224, 8178,0.9313640594482422
42, 8229, 8197, 8176, 8233, 8219, 8164, 8180, 8164, 8168, 8191, 8206, 8215, 8229, 8172,0.9313640594482422
43, 8231, 8214, 8205, 8241, 8230, 8157, 8165, 8169, 8166, 8184, 8200, 8220, 8222, 8156,0.9469521045684814
44, 8233, 8233, 8222, 8255, 8233, 8164, 8168, 8180, 8168, 8175, 8206, 8218, 8216, 8145,0.9632072448730469
45, 8222, 8215, 8184, 8234, 8221, 8160, 8175, 8168, 8174, 8190, 8216, 8204, 8217, 8143,0.9632072448730469
46, 8219, 8214, 8212, 8215, 8220, 8160, 8168, 8170, 8159, 8192, 8207, 8212, 8212, 8148,0.9632072448730469
47, 8218, 8234, 8188, 8255, 8237, 8178, 8174, 8171, 8150, 8185, 8200, 8197, 8209, 8145,0.9799304008483887
48, 8218, 8234, 8208, 8271, 8238, 8190, 8179, 8165, 8142, 8178, 8199, 8195, 8205, 8145,0.9799304008483887
49, 8221, 8228, 8218, 8259, 8235, 8196, 8191, 8167, 8145, 8196, 8208, 8209, 8219, 8156,0.9943654537200928
50, 8224, 8227, 8190, 8274, 8244, 8193, 8191, 8168, 8159, 8206, 8211, 8205, 8237, 8163,0.9943654537200928
51, 8222, 8229, 8224, 8277, 8235, 8189, 8175, 8175, 8176, 8201, 8192, 8204, 8235, 8163,1.0109951496124268
52, 8211, 8217, 8180, 8261, 8219, 8181, 8183, 8173, 8197, 8217, 8185, 8191, 8235, 8159,1.0109951496124268
53, 8203, 8208, 8181, 8237, 8215, 8175, 8190, 8175, 8185, 8215, 8193, 8196, 8235, 8166,1.0251612663269043
54, 8203, 8208, 8198, 8232, 8218, 8183, 8199, 8187, 8186, 8209, 8206, 8209, 8247, 8179,1.0400283336639404
55, 8212, 8196, 8163, 8233, 8213, 8166, 8200, 8176, 8206, 8213, 8205, 8197, 8256, 8169,1.0400283336639404
56, 8224, 8198, 8201, 8217, 8204, 8153, 8181, 8176, 8191, 8198, 8195, 8202, 8242, 8162,1.0555369853973389
57, 8225, 8213, 8176, 8227, 8215, 8164, 8183, 8176, 8187, 8196, 8213, 8209, 8247, 8164,1.0555369853973389
58, 8220, 8215, 8177, 8236, 8223, 8159, 8173, 8165, 8178, 8187, 8226, 8216, 8254, 8156,1.070929765701294
59, 8209, 8208, 8194, 8227, 8212, 8148, 8149, 8167, 8155, 8167, 8209, 8215, 8234, 8141,1.070929765701294
60, 8202, 8203, 8150, 8218, 8207, 8144, 8153, 8165, 8161, 8170, 8205, 8194, 8224, 8130,1.086268424987793
61, 8196, 8213, 8184, 8213, 8210, 8154, 8160, 8171, 8161, 8170, 8210, 8193, 8218, 8129,1.086268424987793
62, 8174, 8210, 8157, 8230, 8213, 8168, 8169, 8176, 8158, 8183, 8190, 8171, 8198, 8125,1.1023893356323242
63, 8167, 8193, 8150, 8232, 8210, 8171, 8173, 8172, 8166, 8199, 8163, 8154, 8188, 8132,1.1023893356323242
64, 8181, 8190, 8185, 8215, 8202, 8170, 8184, 8180, 8183, 8203, 8168, 8173, 8204, 8148,1.11789870262146
65, 8184, 8181, 8148, 8198, 8195, 8158, 8188, 8178, 8201, 8210, 8191, 8178, 8226, 8149,1.11789870262146
66, 8193, 8191, 8185, 8184, 8199, 8151, 8164, 8175, 8190, 8196, 8196, 8194, 8225, 8148,1.1339027881622314
67, 8200, 8205, 8180, 8204, 8208, 8148, 8159, 8172, 8177, 8178, 8195, 8190, 8216, 8136,1.1339027881622314
68, 8202, 8198, 8169, 8215, 8205, 8140, 8163, 8169, 8167, 8171, 8193, 8179, 8202, 8128,1.1499712467193604
69, 8209, 8207, 8212, 8212, 8205, 8156, 8168, 8173, 8167, 8184, 8204, 8203, 8208, 8142,1.1499712467193604
70, 8211, 8220, 8189, 8239, 8221, 8181, 8186, 8170, 8183, 8211, 8221, 8204, 8234, 8151,1.1653053760528564
71, 8208, 8220, 8216, 8255, 8230, 8194, 8192, 8180, 8184, 8211, 8209, 8201, 8229, 8157,1.1653053760528564
72, 8207, 8223, 8209, 8265, 8233, 8207, 8204, 8187, 8202, 8225, 8207, 8203, 8227, 8171,1.1804614067077637
73, 8208, 8222, 8193, 8261, 8230, 8202, 8208, 8176, 8216, 8235, 8214, 8199, 8235, 8177,1.1804614067077637
74, 8193, 8202, 8205, 8223, 8213, 8190, 8199, 8183, 8201, 8219, 8186, 8187, 8217, 8164,1.195997953414917
75, 8170, 8177, 8146, 8200, 8204, 8188, 8206, 8182, 8199, 8225, 8163, 8164, 8198, 8149,1.195997953414917
76, 8183, 8186, 8180, 8198, 8207, 8188, 8205, 8178, 8208, 8229, 8166, 8180, 8201, 8161,1.2119226455688477
77, 8198, 8203, 8186, 8205, 8216, 8187, 8206, 8190, 8234, 8233, 8186, 8188, 8221, 8176,1.2119226455688477
78, 8187, 8190, 8148, 8197, 8214, 8177, 8202, 8186, 8243, 8231, 8193, 8174, 8216, 8163,1.2273883819580078
79, 8188, 8186, 8185, 8178, 8207, 8173, 8189, 8177, 8219, 8210, 8188, 8187, 8201, 8157,1.2273883819580078
80, 8203, 8195, 8162, 8182, 8210, 8169, 8187, 8169, 8214, 8201, 8196, 8188, 8213, 8163,1.2429192066192627
81, 8211, 8201, 8181, 8178, 8209, 8162, 8174, 8168, 8207, 8192, 8202, 8193, 8216, 8159,1.2429192066192627
82, 8203, 8203, 8180, 8175, 8208, 8165, 8169, 8169, 8188, 8182, 8197, 8193, 8210, 8149,1.258047342300415
83, 8200, 8198, 8162, 8177, 8211, 8158, 8172, 8161, 8174, 8172, 8196, 8185, 8206, 8145,1.258047342300415
84, 8199, 8201, 8208, 8173, 8209, 8155, 8168, 8172, 8162, 8160, 8199, 8198, 8193, 8150,1.2735438346862793
85, 8183, 8195, 8163, 8174, 8200, 8159, 8167, 8175, 8159, 8165, 8190, 8180, 8185, 8130,1.2735438346862793
86, 8174, 8187, 8168, 8154, 8187, 8159, 8157, 8171, 8155, 8155, 8173, 8170, 8177, 8115,1.289323091506958
87, 8179, 8202, 8187, 8155, 8197, 8170, 8168, 8185, 8179, 8163, 8182, 8183, 8179, 8127,1.289323091506958
88, 8184, 8201, 8151, 8174, 8217, 8186, 8193, 8190, 8206, 8193, 8190, 8176, 8186, 8133,1.3050284385681152
89, 8167, 8178, 8177, 8159, 8213, 8202, 8192, 8188, 8189, 8190, 8164, 8160, 8165, 8126,1.3050284385681152
90, 8143, 8162, 8145, 8152, 8207, 8205, 8193, 8173, 8183, 8177, 8143, 8131, 8143, 8116,1.3210957050323486
91, 8151, 8169, 8153, 8152, 8203, 8194, 8191, 8170, 8178, 8164, 8145, 8129, 8135, 8114,1.3210957050323486
92, 8170, 8183, 8179, 8161, 8203, 8201, 8198, 8186, 8183, 8183, 8167, 8153, 8155, 8132,1.337188482284546
93, 8175, 8173, 8147, 8167, 8207, 8198, 8215, 8182, 8224, 8229, 8191, 8163, 8191, 8160,1.337188482284546
94, 8175, 8160, 8172, 8136, 8194, 8188, 8203, 8185, 8240, 8233, 8180, 8171, 8195, 8171,1.35325026512146
95, 8171, 8157, 8143, 8128, 8185, 8177, 8184, 8184, 8228, 8215, 8173, 8155, 8187, 8149,1.35325026512146
96, 8179, 8169, 8156, 8142, 8192, 8158, 8161, 8173, 8206, 8195, 8190, 8161, 8192, 8144,1.3690459728240967
97, 8196, 8194, 8191, 8150, 8203, 8160, 8155, 8176, 8200, 8186, 8203, 8193, 8199, 8157,1.3690459728240967
98, 8191, 8189, 8151, 8156, 8205, 8168, 8172, 8179, 8212, 8190, 8198, 8194, 8197, 8153,1.3843426704406738
99, 8189, 8178, 8188, 8145, 8193, 8168, 8178, 8186, 8205, 8183, 8195, 8197, 8195, 8152,1.3843426704406738
100, 8197, 8188, 8171, 8148, 8191, 8172, 8190, 8179, 8207, 8186, 8207, 8191, 8200, 8150,1.400048017501831
101, 8210, 8197, 8167, 8158, 8200, 8168, 8194, 8167, 8197, 8171, 8202, 8194, 8187, 8143,1.400048017501831
102, 8213, 8199, 8205, 8160, 8206, 8173, 8193, 8179, 8188, 8164, 8203, 8214, 8185, 8149,1.4150826930999756
103, 8200, 8193, 8168, 8162, 8206, 8184, 8201, 8181, 8206, 8193, 8223, 8203, 8201, 8151,1.4150826930999756
104, 8191, 8193, 8199, 8151, 8205, 8190, 8200, 8182, 8198, 8188, 8205, 8194, 8186, 8143,1.4303629398345947
105, 8181, 8197, 8181, 8163, 8215, 8188, 8210, 8183, 8194, 8181, 8192, 8180, 8179, 8140,1.4303629398345947
106, 8175, 8196, 8160, 8171, 8214, 8179, 8209, 8179, 8202, 8187, 8196, 8163, 8184, 8144,1.4453630447387695
107, 8180, 8199, 8195, 8161, 8201, 8188, 8201, 8185, 8196, 8184, 8180, 8164, 8174, 8145,1.4453630447387695
108, 8185, 8187, 8162, 8171, 8200, 8192, 8214, 8180, 8196, 8195, 8178, 8155, 8179, 8146,1.4609458446502686
109, 8183, 8174, 8186, 8165, 8197, 8181, 8209, 8174, 8186, 8201, 8178, 8157, 8186, 8152,1.4609458446502686
110, 8168, 8168, 8165, 8161, 8190, 8179, 8200, 8173, 8185, 8196, 8163, 8145, 8182, 8143,1.4760115146636963
111, 8158, 8157, 8140, 8158, 8188, 8176, 8199, 8171, 8196, 8192, 8157, 8132, 8175, 8134,1.4760115146636963
112, 8162, 8163, 8182, 8150, 8190, 8183, 8205, 8180, 8212, 8201, 8170, 8156, 8182, 8145,1.4922480583190918
113, 8169, 8165, 8149, 8151, 8198, 8187, 8223, 8178, 8236, 8224, 8188, 8159, 8201, 8151,1.4922480583190918
114, 8175, 8159, 8172, 8137, 8195, 8181, 8214, 8183, 8233, 8219, 8191, 8164, 8213, 8154,1.5073115825653076
115, 8169, 8159, 8165, 8135, 8190, 8177, 8199, 8186, 8235, 8212, 8199, 8172, 8224, 8153,1.522970199584961
116, 8164, 8155, 8136, 8136, 8191, 8161, 8190, 8170, 8234, 8200, 8199, 8168, 8213, 8143,1.522970199584961
117, 8173, 8164, 8186, 8128, 8191, 8157, 8178, 8176, 8214, 8184, 8196, 8179, 8200, 8146,1.522970199584961
118, 8178, 8170, 8163, 8137, 8194, 8158, 8179, 8178, 8213, 8195, 8208, 8178, 8217, 8150,1.538203239440918
119, 8180, 8175, 8181, 8146, 8184, 8153, 8173, 8172, 8202, 8181, 8213, 8191, 8218, 8143,1.538203239440918
120, 8176, 8180, 8186, 8162, 8183, 8160, 8178, 8174, 8194, 8169, 8210, 8194, 8200, 8140,1.5543222427368164
121, 8173, 8178, 8157, 8171, 8199, 8172, 8197, 8170, 8202, 8180, 8205, 8172, 8193, 8145,1.5543222427368164
122, 8169, 8180, 8193, 8161, 8198, 8180, 8202, 8180, 8205, 8177, 8192, 8171, 8187, 8144,1.5714311599731445
123, 8147, 8169, 8156, 8165, 8182, 8171, 8201, 8183, 8214, 8176, 8177, 8151, 8179, 8132,1.5714311599731445
124, 8139, 8155, 8154, 8161, 8170, 8160, 8195, 8175, 8211, 8167, 8159, 8135, 8163, 8132,1.5849435329437256
125, 8148, 8160, 8164, 8163, 8175, 8173, 8204, 8173, 8215, 8165, 8153, 8140, 8157, 8142,1.5849435329437256
126, 8157, 8166, 8143, 8177, 8181, 8181, 8210, 8178, 8232, 8186, 8161, 8146, 8172, 8145,1.6009283065795898
127, 8169, 8169, 8185, 8174, 8179, 8178, 8205, 8195, 8245, 8203, 8166, 8167, 8186, 8156,1.6009283065795898
236, 8175, 8165, 8152, 8177, 8177, 8170, 8214, 8188, 8261, 8211, 8177, 8163, 8198, 8165,1.6163842678070068
0, 8176, 8159, 8151, 8167, 8167, 8153, 8191, 8170, 8247, 8191, 8178, 8161, 8193, 8156,1.631330966949463
1, 8174, 8167, 8166, 8154, 8166, 8150, 8167, 8176, 8234, 8178, 8179, 8173, 8189, 8150,1.631330966949463
2, 8173, 8166, 8134, 8154, 8172, 8147, 8173, 8174, 8236, 8184, 8192, 8170, 8191, 8140,1.6470704078674316
3, 8179, 8169, 8176, 8148, 8168, 8144, 8166, 8168, 8211, 8165, 8194, 8180, 8178, 8132,1.6470704078674316
4, 8176, 8177, 8151, 8157, 8167, 8143, 8154, 8166, 8196, 8160, 8198, 8174, 8175, 8131,1.6624140739440918
5, 8177, 8181, 8155, 8163, 8166, 8140, 8147, 8166, 8186, 8167, 8204, 8173, 8178, 8136,1.6624140739440918
6, 8180, 8194, 8187, 8175, 8169, 8155, 8158, 8173, 8179, 8171, 8197, 8178, 8168, 8143,1.6780314445495605
7, 8166, 8190, 8146, 8188, 8178, 8161, 8173, 8166, 8178, 8170, 8178, 8154, 8154, 8133,1.6780314445495605
8, 8159, 8174, 8175, 8172, 8171, 8160, 8170, 8166, 8165, 8161, 8171, 8151, 8147, 8127,1.693688154220581
9, 8163, 8166, 8157, 8175, 8161, 8172, 8180, 8172, 8178, 8178, 8183, 8153, 8160, 8136,1.693688154220581
10, 8173, 8168, 8154, 8179, 8161, 8174, 8184, 8176, 8200, 8195, 8183, 8162, 8172, 8153,1.7093913555145264
11, 8183, 8175, 8185, 8165, 8164, 8170, 8186, 8187, 8212, 8201, 8188, 8180, 8188, 8168,1.7093913555145264
12, 8187, 8163, 8144, 8166, 8158, 8164, 8189, 8177, 8221, 8211, 8198, 8171, 8204, 8166,1.7254328727722168
13, 8188, 8156, 8176, 8158, 8145, 8152, 8164, 8167, 8201, 8190, 8178, 8173, 8189, 8160,1.7254328727722168
14, 8183, 8165, 8163, 8150, 8150, 8144, 8152, 8169, 8181, 8173, 8175, 8172, 8182, 8150,1.7414984703063965
15, 8186, 8179, 8152, 8153, 8163, 8145, 8146, 8167, 8164, 8167, 8195, 8165, 8183, 8140,1.7414984703063965
16, 8189, 8200, 8200, 8177, 8171, 8157, 8137, 8173, 8162, 8166, 8200, 8174, 8173, 8138,1.7575128078460693
17, 8181, 8198, 8167, 8202, 8181, 8166, 8158, 8171, 8191, 8190, 8193, 8169, 8176, 8138,1.7575128078460693
18, 8175, 8180, 8180, 8182, 8178, 8177, 8175, 8171, 8189, 8194, 8172, 8170, 8174, 8141,1.773148536682129
19, 8169, 8176, 8169, 8178, 8175, 8188, 8182, 8173, 8185, 8192, 8163, 8162, 8167, 8140,1.773148536682129
20, 8173, 8185, 8163, 8196, 8182, 8187, 8195, 8173, 8211, 8209, 8181, 8167, 8181, 8152,1.7890346050262451
21, 8182, 8186, 8207, 8189, 8183, 8187, 8206, 8185, 8223, 8219, 8188, 8196, 8196, 8170,1.7890346050262451
22, 8177, 8166, 8160, 8175, 8169, 8169, 8200, 8179, 8212, 8207, 8176, 8179, 8193, 8160,1.804490327835083
23, 8180, 8161, 8170, 8159, 8157, 8154, 8176, 8174, 8202, 8183, 8167, 8174, 8181, 8149,1.804490327835083
24, 8192, 8175, 8174, 8161, 8168, 8170, 8177, 8183, 8219, 8193, 8178, 8192, 8196, 8158,1.8200185298919678
25, 8196, 8178, 8163, 8173, 8176, 8166, 8182, 8174, 8224, 8193, 8188, 8193, 8202, 8158,1.8200185298919678
26, 8194, 8188, 8207, 8173, 8171, 8157, 8164, 8171, 8199, 8157, 8179, 8187, 8178, 8139,1.8359489440917969
27, 8181, 8192, 8169, 8179, 8172, 8158, 8154, 8168, 8183, 8144, 8172, 8168, 8165, 8122,1.8359489440917969
28, 8181, 8186, 8184, 8168, 8170, 8148, 8142, 8166, 8167, 8141, 8165, 8179, 8161, 8122,1.851341724395752
29, 8182, 8183, 8191, 8165, 8166, 8148, 8138, 8165, 8164, 8139, 8162, 8184, 8163, 8125,1.851341724395752
30, 8175, 8182, 8160, 8179, 8169, 8149, 8136, 8158, 8162, 8141, 8164, 8160, 8163, 8117,1.8667349815368652
31, 8175, 8195, 8203, 8189, 8177, 8161, 8139, 8171, 8154, 8150, 8160, 8163, 8160, 8130,1.8667349815368652
32, 8180, 8193, 8177, 8205, 8188, 8179, 8168, 8177, 8180, 8190, 8168, 8166, 8181, 8156,1.8822627067565918
33, 8183, 8166, 8182, 8192, 8174, 8176, 8174, 8169, 8188, 8192, 8168, 8173, 8189, 8160,1.8822627067565918
34, 8176, 8154, 8184, 8170, 8149, 8166, 8160, 8169, 8168, 8162, 8161, 8182, 8178, 8146,1.8974714279174805
35, 8175, 8163, 8157, 8182, 8154, 8150, 8149, 8166, 8168, 8159, 8185, 8194, 8188, 8142,1.8974714279174805
36, 8192, 8187, 8221, 8194, 8173, 8153, 8133, 8168, 8165, 8157, 8216, 8233, 8208, 8152,1.913532018661499
37, 8205, 8202, 8209, 8227, 8180, 8163, 8139, 8164, 8162, 8163, 8231, 8232, 8218, 8153,1.913532018661499
38, 8207, 8211, 8220, 8269, 8177, 8162, 8143, 8161, 8147, 8160, 8226, 8223, 8205, 8150,1.9281938076019287
39, 8207, 8219, 8248, 8290, 8182, 8170, 8150, 8171, 8146, 8156, 8226, 8240, 8202, 8161,1.9281938076019287
40, 8207, 8197, 8214, 8281, 8172, 8164, 8164, 8167, 8164, 8167, 8233, 8246, 8219, 8175,1.9434776306152344
41, 8214, 8182, 8248, 8263, 8146, 8148, 8145, 8166, 8154, 8153, 8235, 8270, 8223, 8183,1.9434776306152344
42, 8221, 8192, 8229, 8271, 8144, 8140, 8125, 8160, 8145, 8131, 8252, 8286, 8226, 8172,1.9592349529266357
43, 8227, 8204, 8233, 8273, 8157, 8141, 8119, 8157, 8130, 8114, 8257, 8286, 8212, 8157,1.9592349529266357
44, 8221, 8218, 8263, 8294, 8164, 8161, 8124, 8165, 8112, 8117, 8243, 8278, 8195, 8157,1.9746618270874023
45, 8209, 8208, 8220, 8321, 8161, 8166, 8130, 8153, 8117, 8130, 8216, 8249, 8202, 8160,1.9746618270874023
46, 8212, 8188, 8246, 8288, 8149, 8153, 8121, 8155, 8116, 8121, 8194, 8253, 8230, 8170,1.9900095462799072
47, 8216, 8185, 8226, 8266, 8147, 8153, 8124, 8168, 8129, 8137, 8220, 8265, 8268, 8172,1.9900095462799072
48, 8213, 8189, 8209, 8260, 8150, 8143, 8113, 8160, 8135, 8144, 8235, 8264, 8250, 8153,2.0124545097351074
49, 8213, 8197, 8237, 8255, 8150, 8136, 8096, 8156, 8127, 8128, 8217, 8269, 8283, 8147,2.0124545097351074
50, 8211, 8200, 8199, 8264, 8159, 8145, 8102, 8158, 8137, 8141, 8234, 8256, 8463, 8150,2.0124545097351074
51, 8197, 8199, 8218, 8244, 8157, 8150, 8092, 8165, 8130, 8139, 8237, 8242, 8572, 8134,2.0221266746520996
52, 8172, 8193, 8185, 8221, 8151, 8148, 8086, 8161, 8106, 8117, 8203, 8211, 8505, 8105,2.0378947257995605
53, 8159, 8179, 8162, 8216, 8155, 8150, 8099, 8153, 8088, 8111, 8179, 8183, 8433, 8097,2.0378947257995605
54, 8155, 8174, 8195, 8210, 8160, 8170, 8122, 8171, 8107, 8135, 8174, 8178, 8421, 8109,2.052852153778076
55, 8140, 8155, 8141, 8203, 8160, 8181, 8135, 8169, 8134, 8158, 8170, 8156, 8395, 8109,2.052852153778076
56, 8139, 8147, 8159, 8178, 8153, 8181, 8121, 8164, 8115, 8149, 8160, 8151, 8357, 8114,2.0694291591644287
57, 8143, 8156, 8159, 8168, 8147, 8178, 8131, 8174, 8126, 8168, 8154, 8148, 8344, 8119,2.0694291591644287
58, 8146, 8152, 8135, 8163, 8143, 8161, 8137, 8170, 8159, 8180, 8154, 8150, 8336, 8120,2.084249496459961
59, 8164, 8162, 8183, 8153, 8146, 8160, 8117, 8171, 8155, 8157, 8171, 8188, 8338, 8132,2.084249496459961
60, 8172, 8175, 8161, 8164, 8156, 8161, 8119, 8167, 8148, 8157, 8188, 8191, 8336, 8129,2.1003592014312744
61, 8163, 8177, 8177, 8164, 8161, 8159, 8118, 8167, 8137, 8149, 8171, 8176, 8297, 8114,2.1007542610168457
62, 8144, 8169, 8165, 8167, 8173, 8182, 8133, 8172, 8134, 8141, 8151, 8157, 8262, 8105,2.115900993347168
63, 8138, 8148, 8131, 8165, 8168, 8191, 8155, 8166, 8146, 8153, 8135, 8137, 8251, 8107,2.115900993347168
64, 8152, 8142, 8172, 8141, 8142, 8185, 8153, 8178, 8154, 8162, 8124, 8148, 8247, 8128,2.131897449493408
65, 8159, 8143, 8139, 8145, 8149, 8180, 8154, 8178, 8169, 8174, 8129, 8147, 8252, 8137,2.131897449493408
66, 8166, 8150, 8152, 8145, 8166, 8174, 8150, 8174, 8168, 8166, 8132, 8157, 8247, 8129,2.147451162338257
67, 8168, 8165, 8159, 8137, 8160, 8170, 8142, 8176, 8156, 8143, 8136, 8168, 8237, 8118,2.147451162338257
68, 8171, 8176, 8137, 8151, 8157, 8164, 8133, 8168, 8139, 8128, 8144, 8159, 8227, 8117,2.162566661834717
69, 8168, 8191, 8185, 8166, 8173, 8177, 8138, 8175, 8130, 8125, 8143, 8162, 8215, 8126,2.162566661834717
70, 8151, 8184, 8148, 8171, 8186, 8196, 8167, 8177, 8159, 8148, 8140, 8144, 8219, 8119,2.1784191131591797
71, 8143, 8163, 8146, 8147, 8175, 8196, 8174, 8176, 8176, 8156, 8131, 8138, 8215, 8112,2.1784191131591797
72, 8140, 8161, 8157, 8138, 8170, 8202, 8171, 8185, 8176, 8163, 8122, 8138, 8196, 8110,2.1939218044281006
73, 8139, 8160, 8120, 8152, 8176, 8207, 8182, 8176, 8176, 8172, 8098, 8121, 8188, 8104,2.1939218044281006
74, 8139, 8149, 8150, 8141, 8164, 8206, 8181, 8170, 8152, 8156, 8050, 8126, 8182, 8103,2.209026336669922
75, 8142, 8136, 8122, 8131, 8151, 8199, 8173, 8174, 8154, 8161, 8052, 8132, 8186, 8112,2.209026336669922
76, 8154, 8140, 8136, 8127, 8150, 8186, 8165, 8182, 8179, 8172, 8095, 8153, 8199, 8131,2.224257469177246
77, 8157, 8152, 8160, 8124, 8150, 8183, 8172, 8187, 8191, 8172, 8108, 8160, 8202, 8137,2.224257469177246
78, 8148, 8142, 8113, 8113, 8147, 8172, 8167, 8167, 8184, 8169, 8098, 8136, 8191, 8117,2.2402632236480713
79, 8155, 8134, 8152, 8096, 8146, 8163, 8136, 8167, 8174, 8155, 8108, 8156, 8183, 8110,2.2402632236480713
80, 8156, 8140, 8140, 8108, 8151, 8162, 8138, 8175, 8178, 8155, 8135, 8171, 8196, 8111,2.2558443546295166
81, 8148, 8141, 8136, 8102, 8148, 8151, 8138, 8162, 8147, 8134, 8126, 8158, 8185, 8098,2.2558443546295166
82, 8158, 8150, 8164, 8101, 8147, 8160, 8131, 8164, 8126, 8124, 8112, 8159, 8170, 8103,2.2713842391967773
83, 8166, 8156, 8132, 8128, 8165, 8178, 8145, 8170, 8150, 8155, 8130, 8152, 8183, 8114,2.2713842391967773
84, 8148, 8159, 8163, 8124, 8167, 8185, 8145, 8173, 8137, 8155, 8131, 8146, 8173, 8102,2.286999464035034
85, 8127, 8159, 8139, 8123, 8156, 8181, 8144, 8170, 8117, 8145, 8124, 8140, 8157, 8091,2.286999464035034
86, 8134, 8160, 8136, 8139, 8159, 8179, 8146, 8168, 8120, 8152, 8122, 8145, 8158, 8104,2.3023946285247803
87, 8139, 8166, 8171, 8144, 8170, 8196, 8151, 8180, 8127, 8159, 8111, 8149, 8155, 8117,2.317993402481079
88, 8124, 8153, 8118, 8140, 8169, 8200, 8159, 8173, 8135, 8162, 8105, 8129, 8150, 8108,2.317993402481079
89, 8122, 8148, 8145, 8129, 8162, 8195, 8153, 8170, 8131, 8153, 8101, 8137, 8146, 8106,2.317993402481079
90, 8131, 8156, 8146, 8147, 8172, 8204, 8162, 8175, 8148, 8164, 8101, 8139, 8154, 8111,2.333487033843994
91, 8141, 8157, 8136, 8159, 8177, 8196, 8167, 8174, 8164, 8177, 8107, 8140, 8167, 8116,2.3491098880767822
92, 8146, 8163, 8172, 8142, 8169, 8188, 8164, 8180, 8163, 8180, 8116, 8163, 8178, 8128,2.3491098880767822
93, 8143, 8156, 8132, 8135, 8169, 8182, 8169, 8171, 8174, 8188, 8119, 8157, 8176, 8126,2.364314317703247
94, 8149, 8147, 8156, 8131, 8171, 8169, 8153, 8163, 8166, 8168, 8115, 8160, 8164, 8126,2.364314317703247
95, 8157, 8156, 8159, 8142, 8178, 8164, 8147, 8167, 8159, 8164, 8147, 8179, 8183, 8132,2.3809847831726074
96, 8168, 8160, 8151, 8142, 8178, 8162, 8151, 8171, 8169, 8185, 8184, 8201, 8205, 8135,2.3809847831726074
97, 8182, 8170, 8200, 8136, 8178, 8166, 8150, 8179, 8172, 8183, 8185, 8224, 8195, 8139,2.3809847831726074
98, 8191, 8186, 8176, 8176, 8189, 8164, 8154, 8171, 8175, 8176, 8185, 8218, 8197, 8145,2.396024227142334
99, 8207, 8205, 8211, 8200, 8189, 8162, 8144, 8172, 8163, 8173, 8195, 8231, 8201, 8154,2.396024227142334
100, 8203, 8201, 8207, 8189, 8182, 8171, 8144, 8174, 8150, 8176, 8198, 8231, 8188, 8147,2.411176919937134
101, 8182, 8178, 8163, 8171, 8176, 8167, 8146, 8162, 8140, 8167, 8182, 8200, 8169, 8126,2.4272711277008057
102, 8181, 8192, 8205, 8168, 8181, 8175, 8140, 8172, 8134, 8160, 8162, 8205, 8160, 8129,2.4272711277008057
103, 8179, 8197, 8169, 8176, 8189, 8185, 8157, 8177, 8139, 8179, 8160, 8193, 8166, 8134,2.4433529376983643
104, 8167, 8173, 8167, 8155, 8176, 8178, 8163, 8166, 8128, 8169, 8154, 8176, 8154, 8126,2.4433529376983643
105, 8166, 8181, 8183, 8163, 8178, 8181, 8164, 8168, 8137, 8159, 8145, 8177, 8146, 8121,2.4590861797332764
106, 8170, 8195, 8167, 8185, 8195, 8188, 8179, 8171, 8162, 8178, 8131, 8166, 8152, 8123,2.4590861797332764
107, 8172, 8176, 8197, 8161, 8186, 8194, 8190, 8184, 8161, 8198, 8133, 8174, 8155, 8136,2.4590861797332764
108, 8171, 8161, 8155, 8160, 8171, 8191, 8201, 8185, 8167, 8207, 8158, 8177, 8164, 8144,2.474395275115967
109, 8173, 8178, 8173, 8183, 8173, 8183, 8194, 8175, 8164, 8189, 8151, 8177, 8154, 8140,2.490393877029419
110, 8172, 8183, 8190, 8184, 8180, 8197, 8193, 8182, 8165, 8191, 8125, 8178, 8142, 8134,2.490393877029419
111, 8164, 8159, 8145, 8165, 8175, 8199, 8203, 8185, 8183, 8206, 8126, 8173, 8149, 8129,2.505362033843994
112, 8165, 8159, 8184, 8140, 8156, 8179, 8190, 8187, 8178, 8185, 8136, 8183, 8152, 8132,2.505362033843994
113, 8166, 8162, 8161, 8141, 8147, 8165, 8182, 8179, 8179, 8192, 8151, 8183, 8159, 8140,2.521021604537964
114, 8171, 8153, 8163, 8140, 8155, 8167, 8180, 8173, 8190, 8212, 8146, 8188, 8161, 8149,2.521021604537964
115, 8169, 8153, 8175, 8125, 8161, 8174, 8177, 8177, 8185, 8194, 8119, 8176, 8141, 8135,2.536116361618042
116, 8161, 8150, 8122, 8113, 8152, 8158, 8164, 8166, 8171, 8173, 8109, 8147, 8128, 8111,2.536116361618042
117, 8160, 8149, 8157, 8101, 8136, 8148, 8139, 8171, 8154, 8163, 8116, 8165, 8122, 8115,2.551640272140503
118, 8144, 8138, 8138, 8105, 8142, 8154, 8143, 8175, 8163, 8168, 8122, 8166, 8122, 8116,2.551640272140503
119, 8148, 8135, 8135, 8103, 8157, 8154, 8146, 8171, 8157, 8154, 8117, 8157, 8120, 8103,2.5674097537994385
120, 8165, 8152, 8169, 8099, 8157, 8157, 8140, 8175, 8141, 8134, 8112, 8165, 8110, 8095,2.5674097537994385
121, 8159, 8154, 8130, 8108, 8158, 8158, 8146, 8166, 8154, 8138, 8113, 8152, 8098, 8086,2.582963228225708
122, 8156, 8153, 8163, 8105, 8170, 8168, 8149, 8169, 8160, 8135, 8111, 8158, 8098, 8089,2.582963228225708
123, 8173, 8163, 8163, 8125, 8187, 8185, 8167, 8178, 8176, 8157, 8131, 8173, 8129, 8109,2.598041534423828
124, 8187, 8163, 8165, 8134, 8179, 8174, 8173, 8176, 8177, 8170, 8146, 8178, 8138, 8118,2.598041534423828
125, 8172, 8164, 8189, 8121, 8168, 8162, 8155, 8182, 8153, 8152, 8122, 8171, 8119, 8105,2.6135754585266113
126, 8168, 8165, 8145, 8136, 8181, 8165, 8158, 8177, 8161, 8164, 8122, 8152, 8126, 8099,2.6135754585266113
127, 8175, 8166, 8183, 8132, 8187, 8178, 8166, 8177, 8176, 8181, 8137, 8166, 8139, 8118,2.6293582916259766
236, 8156, 8163, 8165, 8116, 8179, 8190, 8177, 8173, 8179, 8182, 8125, 8155, 8138, 8112,2.6293582916259766
0, 8136, 8150, 8132, 8115, 8169, 8178, 8171, 8165, 8169, 8172, 8107, 8131, 8127, 8090,2.645146131515503
1, 8141, 8158, 8177, 8127, 8178, 8182, 8169, 8179, 8175, 8178, 8125, 8155, 8133, 8101,2.645146131515503
2, 8154, 8172, 8156, 8156, 8206, 8208, 8205, 8182, 8204, 8205, 8149, 8169, 8153, 8119,2.660290479660034
3, 8165, 8176, 8182, 8169, 8218, 8222, 8221, 8178, 8206, 8208, 8136, 8169, 8146, 8127,2.660290479660034
4, 8162, 8171, 8169, 8176, 8216, 8222, 8226, 8183, 8219, 8216, 8136, 8163, 8142, 8133,2.675614833831787
5, 8150, 8158, 8140, 8166, 8209, 8208, 8221, 8179, 8224, 8222, 8136, 8153, 8140, 8129,2.675614833831787
6, 8148, 8169, 8176, 8163, 8208, 8203, 8210, 8179, 8203, 8208, 8111, 8154, 8125, 8124,2.6912410259246826
7, 8150, 8172, 8140, 8187, 8219, 8200, 8219, 8178, 8219, 8220, 8118, 8150, 8135, 8129,2.6912410259246826
8, 8149, 8156, 8156, 8164, 8208, 8188, 8201, 8177, 8225, 8221, 8137, 8162, 8142, 8129,2.706392288208008
9, 8147, 8150, 8154, 8138, 8182, 8181, 8173, 8176, 8207, 8207, 8131, 8151, 8133, 8115,2.706392288208008
10, 8160, 8155, 8135, 8146, 8176, 8167, 8167, 8172, 8198, 8201, 8128, 8137, 8139, 8112,2.7222139835357666
11, 8182, 8166, 8185, 8142, 8174, 8160, 8171, 8180, 8194, 8187, 8149, 8173, 8150, 8130,2.7222139835357666
12, 8176, 8162, 8145, 8138, 8177, 8161, 8168, 8171, 8198, 8180, 8160, 8173, 8149, 8124,2.7382447719573975
13, 8174, 8162, 8161, 8141, 8185, 8163, 8148, 8170, 8195, 8185, 8155, 8169, 8151, 8120,2.7382447719573975
14, 8179, 8172, 8181, 8151, 8184, 8164, 8150, 8180, 8201, 8202, 8177, 8191, 8171, 8138,2.753941774368286
15, 8172, 8171, 8144, 8151, 8179, 8150, 8151, 8165, 8192, 8192, 8184, 8183, 8167, 8130,2.753941774368286
16, 8172, 8187, 8182, 8151, 8194, 8157, 8135, 8162, 8161, 8168, 8158, 8178, 8134, 8113,2.769298791885376
17, 8179, 8203, 8160, 8175, 8213, 8171, 8143, 8167, 8164, 8185, 8163, 8174, 8138, 8114,2.769298791885376
18, 8175, 8194, 8161, 8164, 8198, 8158, 8151, 8169, 8170, 8189, 8177, 8174, 8150, 8119,2.785182476043701
19, 8172, 8195, 8179, 8153, 8188, 8155, 8156, 8179, 8173, 8193, 8182, 8183, 8153, 8128,2.785182476043701
20, 8184, 8201, 8161, 8173, 8198, 8166, 8161, 8177, 8180, 8211, 8195, 8181, 8162, 8138,2.8007938861846924
21, 8186, 8199, 8201, 8177, 8200, 8173, 8153, 8174, 8159, 8189, 8184, 8179, 8147, 8129,2.8007938861846924
22, 8173, 8200, 8166, 8186, 8206, 8174, 8158, 8173, 8152, 8175, 8169, 8167, 8127, 8117,2.8165907859802246
23, 8176, 8206, 8173, 8190, 8204, 8170, 8159, 8173, 8160, 8187, 8174, 8171, 8126, 8131,2.8165907859802246
24, 8173, 8199, 8194, 8177, 8187, 8168, 8156, 8180, 8163, 8191, 8178, 8178, 8136, 8139,2.832367420196533
25, 8153, 8178, 8141, 8162, 8174, 8158, 8160, 8171, 8158, 8189, 8171, 8163, 8133, 8122,2.832367420196533
26, 8149, 8182, 8170, 8147, 8164, 8159, 8146, 8165, 8132, 8172, 8153, 8158, 8105, 8120,2.8479325771331787
27, 8142, 8184, 8150, 8164, 8161, 8170, 8145, 8157, 8127, 8166, 8136, 8133, 8091, 8115,2.8479325771331787
28, 8136, 8173, 8148, 8174, 8167, 8174, 8155, 8158, 8139, 8171, 8134, 8129, 8094, 8112,2.863203525543213
29, 8153, 8181, 8182, 8163, 8174, 8186, 8170, 8181, 8166, 8194, 8159, 8162, 8118, 8135,2.863203525543213
30, 8161, 8182, 8146, 8168, 8178, 8189, 8182, 8177, 8185, 8217, 8174, 8163, 8138, 8149,2.881920099258423
31, 8160, 8188, 8181, 8175, 8178, 8187, 8173, 8173, 8167, 8195, 8151, 8162, 8117, 8142,2.881920099258423
32, 8157, 8194, 8163, 8179, 8180, 8193, 8180, 8179, 8174, 8184, 8140, 8151, 8102, 8133,2.894937038421631
33, 8157, 8186, 8144, 8161, 8174, 8192, 8184, 8176, 8193, 8197, 8149, 8151, 8106, 8134,2.894937038421631
34, 8164, 8192, 8174, 8152, 8172, 8194, 8176, 8184, 8192, 8204, 8156, 8173, 8115, 8147,2.9103927612304688
35, 8172, 8189, 8137, 8160, 8177, 8187, 8178, 8176, 8194, 8201, 8166, 8172, 8123, 8142,2.9103927612304688
36, 8173, 8176, 8166, 8136, 8173, 8173, 8170, 8170, 8185, 8180, 8169, 8176, 8115, 8129,2.925018548965454
37, 8166, 8180, 8157, 8136, 8176, 8177, 8173, 8174, 8186, 8184, 8171, 8175, 8113, 8132,2.925018548965454
38, 8172, 8187, 8148, 8161, 8181, 8175, 8173, 8168, 8190, 8194, 8170, 8177, 8119, 8139,2.9410452842712402
39, 8181, 8194, 8195, 8162, 8183, 8173, 8157, 8173, 8192, 8191, 8174, 8196, 8120, 8144,2.9410452842712402
40, 8179, 8196, 8159, 8162, 8189, 8165, 8148, 8171, 8191, 8201, 8187, 8191, 8122, 8137,2.956587553024292
41, 8181, 8203, 8184, 8159, 8185, 8155, 8141, 8169, 8154, 8187, 8191, 8196, 8106, 8127,2.956587553024292
42, 8170, 8203, 8180, 8166, 8178, 8163, 8144, 8165, 8134, 8167, 8187, 8185, 8085, 8115,2.9728996753692627
43, 8152, 8192, 8150, 8174, 8175, 8173, 8147, 8153, 8139, 8162, 8170, 8153, 8070, 8107,2.9728996753692627
44, 8155, 8201, 8190, 8179, 8181, 8184, 8141, 8158, 8127, 8154, 8160, 8165, 8062, 8109,2.9879159927368164
45, 8170, 8203, 8159, 8185, 8190, 8194, 8144, 8162, 8132, 8166, 8174, 8175, 8083, 8112,2.9879159927368164
46, 8179, 8193, 8179, 8174, 8185, 8200, 8147, 8171, 8149, 8179, 8176, 8181, 8095, 8130,3.0039565563201904
47, 8174, 8190, 8187, 8185, 8183, 8207, 8171, 8178, 8176, 8200, 8172, 8177, 8098, 8150,3.0039565563201904
48, 8176, 8179, 8164, 8190, 8180, 8197, 8181, 8168, 8198, 8217, 8183, 8166, 8113, 8152,3.020533561706543
49, 8177, 8171, 8195, 8157, 8166, 8184, 8158, 8172, 8190, 8198, 8180, 8176, 8113, 8145,3.020533561706543
50, 8165, 8169, 8153, 8153, 8172, 8174, 8148, 8168, 8182, 8188, 8181, 8172, 8103, 8130,3.034322500228882
51, 8176, 8183, 8184, 8175, 8187, 8168, 8140, 8161, 8171, 8183, 8199, 8194, 8109, 8134,3.0501420497894287
52, 8199, 8207, 8214, 8196, 8189, 8178, 8147, 8170, 8169, 8183, 8224, 8218, 8128, 8146,3.0501420497894287
53, 8193, 8203, 8171, 8198, 8190, 8174, 8152, 8168, 8162, 8180, 8213, 8190, 8113, 8131,3.065373182296753
54, 8174, 8195, 8200, 8188, 8185, 8178, 8134, 8169, 8136, 8156, 8179, 8176, 8082, 8113,3.065373182296753
55, 8168, 8198, 8169, 8208, 8187, 8196, 8150, 8165, 8146, 8162, 8185, 8175, 8090, 8116,3.0813894271850586
56, 8179, 8203, 8177, 8212, 8192, 8195, 8170, 8169, 8177, 8186, 8199, 8179, 8109, 8134,3.0813894271850586
57, 8191, 8201, 8204, 8204, 8188, 8186, 8171, 8182, 8200, 8217, 8200, 8188, 8131, 8154,3.0969760417938232
58, 8196, 8193, 8178, 8205, 8179, 8176, 8161, 8172, 8199, 8223, 8210, 8200, 8148, 8157,3.0969760417938232
59, 8207, 8203, 8223, 8192, 8178, 8177, 8136, 8169, 8167, 8184, 8221, 8231, 8137, 8152,3.0979676246643066
60, 8214, 8219, 8207, 8205, 8190, 8184, 8139, 8173, 8163, 8188, 8233, 8237, 8136, 8151,3.1121575832366943
61, 8217, 8226, 8210, 8222, 8191, 8180, 8150, 8175, 8164, 8207, 8238, 8232, 8144, 8157,3.1282553672790527
62, 8201, 8215, 8216, 8203, 8178, 8182, 8144, 8171, 8146, 8187, 8220, 8210, 8132, 8154,3.1282553672790527
63, 8179, 8188, 8157, 8190, 8173, 8184, 8140, 8154, 8138, 8170, 8197, 8170, 8113, 8140,3.144340753555298
64, 8183, 8197, 8201, 8206, 8183, 8193, 8143, 8163, 8136, 8173, 8193, 8183, 8109, 8143,3.144340753555298
65, 8186, 8210, 8191, 8224, 8190, 8202, 8159, 8173, 8153, 8191, 8208, 8190, 8125, 8149,3.1594700813293457
66, 8177, 8181, 8167, 8194, 8172, 8189, 8154, 8162, 8156, 8187, 8200, 8170, 8125, 8141,3.1594700813293457
67, 8169, 8170, 8183, 8175, 8165, 8185, 8157, 8171, 8154, 8185, 8184, 8167, 8120, 8140,3.1750144958496094
68, 8176, 8183, 8155, 8203, 8186, 8185, 8180, 8177, 8181, 8206, 8201, 8178, 8142, 8157,3.1750144958496094
69, 8199, 8187, 8199, 8204, 8184, 8174, 8169, 8180, 8189, 8200, 8217, 8206, 8155, 8177,3.190272331237793
70, 8204, 8185, 8183, 8198, 8165, 8168, 8153, 8180, 8189, 8195, 8226, 8207, 8159, 8176,3.190272331237793
71, 8198, 8184, 8164, 8194, 8161, 8154, 8148, 8168, 8182, 8199, 8224, 8198, 8157, 8164,3.2063074111938477
72, 8193, 8190, 8190, 8189, 8161, 8145, 8143, 8166, 8168, 8183, 8214, 8201, 8148, 8157,3.2063074111938477
73, 8185, 8193, 8148, 8194, 8157, 8142, 8136, 8162, 8159, 8173, 8221, 8186, 8144, 8146,3.2213594913482666
74, 8188, 8192, 8177, 8186, 8154, 8144, 8117, 8166, 8145, 8170, 8231, 8192, 8134, 8141,3.2213594913482666
75, 8182, 8192, 8167, 8189, 8166, 8144, 8111, 8157, 8141, 8168, 8220, 8184, 8126, 8129,3.237351417541504
76, 8158, 8184, 8139, 8182, 8166, 8129, 8103, 8140, 8121, 8132, 8192, 8155, 8109, 8107,3.237351417541504
77, 8152, 8180, 8167, 8157, 8153, 8141, 8103, 8154, 8097, 8106, 8172, 8152, 8084, 8102,3.253871440887451
78, 8165, 8185, 8138, 8181, 8161, 8166, 8131, 8170, 8121, 8139, 8180, 8149, 8093, 8108,3.253871440887451
79, 8173, 8198, 8177, 8212, 8174, 8174, 8143, 8179, 8146, 8159, 8190, 8160, 8117, 8116,3.2691152095794678
80, 8165, 8199, 8176, 8215, 8180, 8180, 8152, 8180, 8159, 8173, 8192, 8157, 8124, 8123,3.2691152095794678
81, 8161, 8179, 8142, 8201, 8178, 8183, 8159, 8171, 8159, 8182, 8179, 8137, 8107, 8123,3.28511118888855
82, 8159, 8172, 8180, 8182, 8165, 8188, 8146, 8168, 8140, 8158, 8161, 8146, 8091, 8119,3.28511118888855
83, 8147, 8166, 8148, 8177, 8165, 8181, 8147, 8156, 8145, 8157, 8164, 8142, 8095, 8112,3.3013558387756348
84, 8149, 8165, 8163, 8176, 8167, 8168, 8142, 8155, 8145, 8169, 8156, 8138, 8096, 8113,3.3013558387756348
85, 8151, 8169, 8165, 8174, 8158, 8162, 8137, 8165, 8144, 8169, 8152, 8142, 8103, 8119,3.316896438598633
86, 8150, 8144, 8127, 8135, 8143, 8145, 8133, 8161, 8149, 8153, 8153, 8146, 8110, 8121,3.316896438598633
87, 8148, 8134, 8157, 8106, 8143, 8144, 8115, 8162, 8138, 8140, 8149, 8161, 8104, 8122,3.3323349952697754
88, 8142, 8143, 8129, 8137, 8147, 8148, 8115, 8158, 8139, 8152, 8157, 8148, 8108, 8112,3.3323349952697754
89, 8151, 8158, 8151, 8149, 8141, 8130, 8106, 8159, 8132, 8145, 8154, 8143, 8104, 8108,3.3473782539367676
90, 8161, 8172, 8161, 8140, 8150, 8138, 8101, 8169, 8119, 8136, 8152, 8155, 8103, 8114,3.3473782539367676
91, 8154, 8157, 8113, 8123, 8153, 8150, 8110, 8164, 8112, 8137, 8160, 8142, 8106, 8100,3.363388776779175
92, 8141, 8147, 8146, 8101, 8141, 8140, 8104, 8161, 8104, 8116, 8148, 8136, 8091, 8085,3.363388776779175
93, 8139, 8153, 8125, 8109, 8140, 8129, 8100, 8156, 8117, 8113, 8140, 8134, 8084, 8085,3.3795275688171387
94, 8142, 8155, 8138, 8114, 8146, 8143, 8102, 8163, 8115, 8121, 8144, 8137, 8079, 8082,3.3795275688171387
95, 8125, 8153, 8147, 8105, 8153, 8180, 8127, 8175, 8109, 8121, 8129, 8119, 8069, 8067,3.394979238510132
96, 8107, 8147, 8105, 8115, 8158, 8186, 8136, 8159, 8111, 8116, 8109, 8088, 8067, 8056,3.394979238510132
97, 8121, 8150, 8161, 8117, 8151, 8179, 8116, 8157, 8103, 8113, 8112, 8110, 8069, 8077,3.410155773162842
98, 8124, 8147, 8142, 8114, 8151, 8187, 8130, 8168, 8115, 8132, 8121, 8111, 8075, 8086,3.410155773162842
99, 8113, 8139, 8121, 8105, 8153, 8194, 8149, 8170, 8128, 8140, 8111, 8094, 8073, 8081,3.4256324768066406
100, 8115, 8143, 8141, 8099, 8151, 8198, 8154, 8174, 8139, 8137, 8103, 8093, 8073, 8088,3.4256324768066406
101, 8109, 8132, 8104, 8098, 8148, 8181, 8157, 8162, 8142, 8132, 8089, 8067, 8061, 8078,3.441272258758545
102, 8092, 8116, 8131, 8069, 8134, 8167, 8149, 8163, 8122, 8112, 8065, 8064, 8041, 8057,3.441272258758545
103, 8088, 8116, 8117, 8061, 8130, 8175, 8162, 8178, 8140, 8127, 8082, 8080, 8058, 8064,3.4562783241271973
104, 8101, 8117, 8117, 8071, 8131, 8165, 8162, 8174, 8158, 8138, 8102, 8087, 8074, 8080,3.4562783241271973
105, 8105, 8113, 8144, 8067, 8121, 8152, 8138, 8171, 8145, 8122, 8085, 8086, 8064, 8066,3.4723808765411377
106, 8090, 8107, 8103, 8067, 8126, 8153, 8138, 8167, 8157, 8127, 8086, 8073, 8073, 8049,3.4723808765411377
107, 8095, 8118, 8139, 8052, 8132, 8153, 8138, 8171, 8170, 8128, 8099, 8091, 8086, 8062,3.487971067428589
108, 8113, 8132, 8131, 8064, 8128, 8151, 8129, 8169, 8169, 8131, 8100, 8103, 8089, 8071,3.487971067428589
109, 8122, 8140, 8123, 8085, 8131, 8148, 8112, 8157, 8165, 8130, 8098, 8103, 8086, 8061,3.5039706230163574
110, 8128, 8156, 8165, 8081, 8142, 8153, 8110, 8167, 8160, 8120, 8108, 8123, 8085, 8064,3.5039706230163574
111, 8139, 8157, 8134, 8084, 8149, 8152, 8125, 8166, 8151, 8124, 8122, 8128, 8093, 8073,3.519388198852539
112, 8151, 8162, 8166, 8085, 8146, 8147, 8124, 8166, 8126, 8114, 8119, 8135, 8084, 8078,3.519388198852539
113, 8143, 8171, 8155, 8095, 8144, 8151, 8126, 8172, 8134, 8115, 8125, 8131, 8074, 8077,3.5352840423583984
114, 8139, 8164, 8137, 8097, 8139, 8147, 8131, 8164, 8144, 8114, 8117, 8122, 8076, 8072,3.5352840423583984
115, 8143, 8160, 8179, 8095, 8147, 8163, 8137, 8169, 8139, 8106, 8088, 8125, 8072, 8070,3.5514047145843506
116, 8131, 8151, 8131, 8107, 8160, 8184, 8153, 8167, 8153, 8129, 8087, 8107, 8072, 8066,3.5514047145843506
117, 8120, 8149, 8152, 8099, 8151, 8187, 8147, 8167, 8148, 8127, 8096, 8106, 8067, 8073,3.5667927265167236
118, 8114, 8151, 8157, 8103, 8143, 8182, 8143, 8171, 8132, 8112, 8087, 8102, 8067, 8073,3.5667927265167236
119, 8114, 8136, 8126, 8109, 8148, 8178, 8160, 8168, 8131, 8124, 8080, 8092, 8073, 8064,3.582519769668579
120, 8123, 8137, 8162, 8098, 8149, 8192, 8176, 8178, 8141, 8135, 8092, 8113, 8077, 8080,3.582519769668579
121, 8122, 8139, 8125, 8105, 8147, 8189, 8172, 8173, 8153, 8136, 8096, 8103, 8079, 8086,3.5975937843322754
122, 8120, 8127, 8133, 8096, 8137, 8165, 8146, 8165, 8139, 8122, 8076, 8095, 8071, 8072,3.5975937843322754
123, 8123, 8124, 8137, 8080, 8136, 8160, 8137, 8172, 8135, 8118, 8081, 8109, 8073, 8067,3.6135780811309814
124, 8122, 8128, 8112, 8082, 8139, 8150, 8127, 8164, 8137, 8111, 8102, 8113, 8080, 8063,3.6135780811309814
125, 8130, 8143, 8163, 8089, 8142, 8141, 8104, 8160, 8118, 8099, 8110, 8134, 8083, 8062,3.6291260719299316
126, 8151, 8162, 8147, 8117, 8155, 8146, 8120, 8165, 8132, 8125, 8138, 8151, 8109, 8075,3.6291260719299316
127, 8161, 8165, 8168, 8118, 8152, 8140, 8120, 8171, 8134, 8127, 8149, 8155, 8108, 8080,3.644437789916992
236, 8145, 8159, 8178, 8103, 8138, 8136, 8104, 8170, 8111, 8107, 8132, 8140, 8085, 8068,3.644437789916992
0, 8143, 8153, 8140, 8111, 8146, 8145, 8124, 8162, 8117, 8111, 8133, 8130, 8087, 8068,3.6599855422973633
1, 8155, 8157, 8178, 8114, 8156, 8167, 8146, 8173, 8127, 8118, 8134, 8143, 8085, 8074,3.6599855422973633
2, 8135, 8145, 8145, 8117, 8150, 8177, 8160, 8172, 8126, 8124, 8115, 8118, 8075, 8062,3.6749167442321777
3, 8123, 8132, 8147, 8116, 8141, 8179, 8167, 8169, 8119, 8126, 8099, 8110, 8081, 8071,3.6749167442321777
4, 8141, 8141, 8173, 8127, 8146, 8189, 8175, 8181, 8140, 8151, 8122, 8136, 8110, 8106,3.6900739669799805
5, 8148, 8131, 8131, 8127, 8137, 8165, 8159, 8172, 8161, 8168, 8145, 8133, 8131, 8111,3.6900739669799805
6, 8146, 8125, 8155, 8098, 8116, 8136, 8118, 8168, 8140, 8139, 8132, 8135, 8123, 8099,3.7053420543670654
7, 8153, 8145, 8140, 8109, 8128, 8137, 8111, 8169, 8136, 8128, 8137, 8136, 8121, 8088,3.7053420543670654
8, 8163, 8168, 8153, 8137, 8148, 8134, 8106, 8163, 8132, 8122, 8154, 8141, 8120, 8084,3.720977306365967
9, 8153, 8180, 8174, 8148, 8148, 8138, 8098, 8162, 8110, 8106, 8151, 8146, 8106, 8084,3.720977306365967
10, 8138, 8169, 8127, 8159, 8151, 8152, 8117, 8157, 8106, 8113, 8139, 8124, 8096, 8082,3.7360589504241943
11, 8142, 8163, 8163, 8156, 8153, 8166, 8141, 8166, 8121, 8131, 8128, 8128, 8098, 8091,3.752288341522217
12, 8145, 8155, 8134, 8151, 8142, 8169, 8154, 8168, 8147, 8143, 8120, 8124, 8101, 8094,3.752288341522217
13, 8139, 8133, 8112, 8132, 8126, 8150, 8139, 8157, 8144, 8134, 8106, 8103, 8089, 8090,3.752288341522217
14, 8138, 8127, 8145, 8109, 8122, 8146, 8128, 8165, 8139, 8133, 8112, 8108, 8096, 8093,3.7679572105407715
15, 8143, 8132, 8116, 8114, 8132, 8147, 8135, 8167, 8154, 8140, 8131, 8122, 8124, 8087,3.7679572105407715
16, 8149, 8148, 8157, 8119, 8130, 8136, 8122, 8165, 8133, 8112, 8139, 8140, 8122, 8080,3.7826263904571533
17, 8143, 8156, 8147, 8127, 8126, 8128, 8122, 8161, 8110, 8104, 8147, 8134, 8114, 8077,3.797501564025879
18, 8141, 8153, 8133, 8130, 8128, 8128, 8130, 8154, 8111, 8117, 8144, 8122, 8108, 8078,3.797501564025879
19, 8137, 8156, 8170, 8136, 8127, 8146, 8133, 8168, 8112, 8117, 8124, 8120, 8096, 8076,3.8135409355163574
20, 8115, 8141, 8123, 8147, 8120, 8157, 8141, 8171, 8120, 8128, 8111, 8094, 8097, 8068,3.8135409355163574
21, 8113, 8124, 8148, 8132, 8114, 8163, 8142, 8167, 8130, 8137, 8119, 8102, 8105, 8084,3.8292863368988037
22, 8130, 8132, 8151, 8138, 8130, 8174, 8158, 8169, 8156, 8164, 8146, 8118, 8129, 8109,3.8292863368988037
23, 8131, 8127, 8122, 8140, 8135, 8154, 8159, 8168, 8167, 8179, 8143, 8106, 8140, 8104,3.8449463844299316
24, 8114, 8116, 8138, 8108, 8120, 8130, 8132, 8163, 8137, 8149, 8107, 8098, 8119, 8081,3.8449463844299316
25, 8114, 8119, 8103, 8114, 8123, 8129, 8129, 8151, 8122, 8127, 8113, 8094, 8113, 8075,3.860182523727417
26, 8135, 8133, 8143, 8123, 8134, 8128, 8128, 8158, 8101, 8110, 8138, 8119, 8125, 8079,3.860182523727417
27, 8141, 8139, 8150, 8120, 8138, 8122, 8122, 8163, 8085, 8102, 8144, 8129, 8127, 8075,3.8756513595581055
28, 8144, 8145, 8131, 8128, 8138, 8124, 8121, 8149, 8090, 8109, 8150, 8126, 8128, 8080,3.8756513595581055
29, 8153, 8160, 8177, 8134, 8137, 8144, 8121, 8159, 8085, 8110, 8147, 8141, 8128, 8089,3.8909177780151367
30, 8134, 8150, 8132, 8136, 8136, 8146, 8126, 8164, 8077, 8107, 8138, 8117, 8116, 8074,3.8909177780151367
31, 8128, 8143, 8148, 8132, 8136, 8141, 8122, 8160, 8067, 8100, 8132, 8109, 8096, 8073,3.9069406986236572
32, 8144, 8161, 8168, 8151, 8144, 8161, 8132, 8164, 8082, 8117, 8134, 8120, 8103, 8092,3.9069406986236572
33, 8131, 8151, 8129, 8159, 8143, 8159, 8141, 8163, 8101, 8129, 8116, 8096, 8102, 8085,3.923011064529419
34, 8118, 8141, 8160, 8140, 8133, 8156, 8138, 8171, 8109, 8121, 8102, 8096, 8080, 8086,3.923011064529419
35, 8138, 8150, 8146, 8154, 8141, 8176, 8162, 8173, 8144, 8152, 8130, 8116, 8104, 8113,3.93904709815979
36, 8159, 8149, 8166, 8160, 8142, 8174, 8169, 8171, 8156, 8166, 8133, 8126, 8128, 8122,3.93904709815979
37, 8144, 8138, 8160, 8132, 8126, 8152, 8149, 8169, 8142, 8143, 8102, 8110, 8111, 8103,3.9544837474823
38, 8123, 8123, 8105, 8102, 8111, 8130, 8129, 8153, 8134, 8117, 8090, 8090, 8095, 8083,3.9544837474823
39, 8129, 8135, 8152, 8096, 8105, 8127, 8120, 8162, 8125, 8101, 8103, 8112, 8098, 8089,3.9700379371643066
40, 8147, 8151, 8146, 8122, 8114, 8126, 8128, 8172, 8132, 8120, 8131, 8131, 8118, 8099,3.9700379371643066
41, 8157, 8155, 8156, 8126, 8119, 8119, 8118, 8166, 8125, 8118, 8140, 8148, 8119, 8098,3.9854516983032227
42, 8146, 8162, 8174, 8123, 8114, 8132, 8116, 8168, 8112, 8099, 8139, 8151, 8108, 8087,3.9854516983032227
43, 8139, 8164, 8145, 8141, 8121, 8142, 8135, 8161, 8114, 8105, 8147, 8131, 8106, 8080,4.000690698623657
44, 8153, 8169, 8192, 8151, 8132, 8152, 8134, 8161, 8106, 8113, 8141, 8144, 8105, 8093,4.000690698623657
45, 8146, 8168, 8163, 8162, 8137, 8164, 8134, 8164, 8111, 8131, 8132, 8137, 8106, 8094,4.024280786514282
46, 8132, 8160, 8150, 8155, 8132, 8163, 8134, 8162, 8117, 8139, 8123, 8120, 8093, 8086,4.025281667709351
47, 8138, 8160, 8185, 8148, 8132, 8167, 8150, 8172, 8132, 8147, 8123, 8126, 8093, 8101,4.025281667709351
48, 8150, 8157, 8153, 8160, 8142, 8167, 8178, 8174, 8162, 8176, 8137, 8123, 8123, 8121,4.032309532165527
49, 8155, 8153, 8173, 8143, 8137, 8162, 8169, 8180, 8160, 8175, 8135, 8135, 8132, 8126,4.047367334365845
50, 8145, 8146, 8142, 8126, 8126, 8158, 8152, 8178, 8153, 8163, 8126, 8132, 8120, 8116,4.047367334365845
51, 8154, 8141, 8143, 8127, 8131, 8149, 8147, 8167, 8146, 8156, 8134, 8135, 8122, 8118,4.063267469406128
52, 8172, 8156, 8187, 8132, 8140, 8151, 8144, 8172, 8144, 8143, 8151, 8159, 8131, 8128,4.063267469406128
53, 8167, 8167, 8146, 8139, 8135, 8146, 8134, 8170, 8152, 8133, 8152, 8148, 8124, 8110,4.078306674957275
54, 8154, 8169, 8179, 8128, 8131, 8145, 8120, 8166, 8131, 8118, 8130, 8139, 8097, 8090,4.078306674957275
55, 8141, 8163, 8164, 8140, 8139, 8166, 8144, 8159, 8121, 8128, 8119, 8126, 8087, 8088,4.0943381786346436
56, 8139, 8147, 8137, 8153, 8131, 8170, 8167, 8159, 8135, 8145, 8116, 8115, 8094, 8099,4.0943381786346436
57, 8149, 8152, 8178, 8150, 8117, 8164, 8164, 8180, 8149, 8156, 8122, 8135, 8112, 8118,4.110260963439941
58, 8154, 8155, 8151, 8155, 8122, 8161, 8169, 8178, 8168, 8174, 8142, 8142, 8136, 8133,4.110260963439941
59, 8156, 8149, 8174, 8144, 8123, 8161, 8157, 8171, 8164, 8164, 8142, 8148, 8139, 8138,4.126373767852783
60, 8160, 8155, 8171, 8153, 8128, 8162, 8144, 8174, 8153, 8155, 8154, 8155, 8150, 8135,4.126373767852783
61, 8175, 8166, 8164, 8173, 8130, 8149, 8137, 8162, 8138, 8149, 8176, 8167, 8156, 8125,4.142284870147705
62, 8186, 8183, 8212, 8172, 8121, 8146, 8127, 8160, 8114, 8133, 8180, 8188, 8142, 8120,4.142284870147705
63, 8183, 8188, 8179, 8193, 8128, 8156, 8131, 8163, 8110, 8142, 8193, 8177, 8142, 8114,4.15721869468689
64, 8177, 8181, 8207, 8221, 8138, 8163, 8130, 8167, 8099, 8141, 8194, 8173, 8134, 8113,4.15721869468689
65, 8172, 8171, 8213, 8233, 8131, 8166, 8138, 8168, 8101, 8141, 8178, 8182, 8128, 8121,4.1729583740234375
66, 8178, 8159, 8183, 8227, 8118, 8158, 8146, 8160, 8122, 8154, 8178, 8189, 8147, 8129,4.1729583740234375
67, 8195, 8170, 8228, 8222, 8121, 8153, 8136, 8164, 8127, 8148, 8203, 8222, 8171, 8142,4.1879870891571045
68, 8203, 8184, 8210, 8239, 8133, 8145, 8130, 8159, 8123, 8137, 8231, 8242, 8184, 8141,4.1879870891571045
69, 8213, 8194, 8237, 8244, 8127, 8139, 8118, 8155, 8098, 8127, 8244, 8260, 8179, 8133,4.203338384628296
70, 8218, 8207, 8249, 8266, 8131, 8163, 8127, 8162, 8095, 8134, 8254, 8263, 8170, 8138,4.203338384628296
71, 8214, 8203, 8213, 8297, 8146, 8176, 8144, 8155, 8112, 8143, 8247, 8253, 8167, 8147,4.219501733779907
72, 8211, 8190, 8246, 8276, 8135, 8169, 8135, 8157, 8109, 8147, 8230, 8268, 8171, 8154,4.219501733779907
73, 8207, 8172, 8205, 8258, 8124, 8161, 8135, 8159, 8120, 8157, 8236, 8252, 8185, 8152,4.235227823257446
74, 8210, 8165, 8206, 8247, 8122, 8146, 8126, 8162, 8126, 8139, 8240, 8246, 8189, 8151,4.235227823257446
75, 8208, 8173, 8223, 8235, 8121, 8144, 8116, 8163, 8115, 8125, 8246, 8267, 8188, 8148,4.2509074211120605
76, 8203, 8178, 8192, 8247, 8133, 8150, 8119, 8150, 8106, 8136, 8255, 8264, 8185, 8140,4.2509074211120605
77, 8208, 8197, 8230, 8270, 8146, 8163, 8121, 8162, 8102, 8143, 8253, 8261, 8180, 8148,4.266953945159912
78, 8195, 8189, 8193, 8282, 8151, 8168, 8134, 8164, 8110, 8160, 8252, 8244, 8186, 8147,4.266953945159912
79, 8170, 8155, 8182, 8252, 8143, 8156, 8134, 8150, 8094, 8151, 8237, 8232, 8172, 8132,4.282115459442139
80, 8164, 8154, 8197, 8239, 8144, 8171, 8141, 8161, 8088, 8139, 8226, 8231, 8157, 8131,4.282115459442139
81, 8178, 8163, 8161, 8246, 8153, 8185, 8160, 8168, 8123, 8176, 8240, 8216, 8173, 8144,4.298230886459351
82, 8184, 8161, 8198, 8218, 8152, 8177, 8158, 8175, 8144, 8194, 8240, 8215, 8182, 8146,4.298230886459351
83, 8172, 8152, 8167, 8204, 8149, 8164, 8155, 8171, 8153, 8188, 8232, 8203, 8183, 8138,4.313656568527222
84, 8173, 8145, 8149, 8199, 8144, 8152, 8144, 8158, 8144, 8176, 8229, 8200, 8177, 8139,4.313656568527222
85, 8173, 8151, 8171, 8180, 8146, 8159, 8142, 8167, 8140, 8170, 8226, 8200, 8170, 8136,4.329437255859375
86, 8156, 8150, 8127, 8158, 8151, 8159, 8159, 8171, 8153, 8179, 8228, 8182, 8176, 8118,4.329437255859375
87, 8157, 8151, 8164, 8143, 8146, 8151, 8151, 8171, 8146, 8178, 8225, 8200, 8177, 8121,4.345027446746826
88, 8164, 8155, 8153, 8159, 8150, 8154, 8146, 8167, 8140, 8179, 8223, 8201, 8173, 8123,4.345027446746826
89, 8157, 8157, 8141, 8162, 8159, 8156, 8148, 8160, 8133, 8163, 8211, 8175, 8157, 8104,4.360433101654053
90, 8150, 8166, 8173, 8150, 8167, 8168, 8157, 8163, 8129, 8143, 8195, 8169, 8143, 8100,4.360433101654053
91, 8157, 8164, 8139, 8160, 8178, 8177, 8174, 8159, 8146, 8162, 8202, 8165, 8153, 8105,4.376129150390625
92, 8163, 8167, 8173, 8157, 8178, 8177, 8162, 8163, 8151, 8171, 8212, 8176, 8156, 8110,4.376129150390625
93, 8149, 8166, 8154, 8154, 8175, 8174, 8154, 8171, 8157, 8174, 8211, 8166, 8148, 8105,4.391268491744995
94, 8137, 8150, 8129, 8155, 8171, 8166, 8159, 8169, 8154, 8177, 8190, 8142, 8134, 8101,4.391268491744995
95, 8143, 8151, 8171, 8160, 8170, 8177, 8174, 8177, 8148, 8177, 8174, 8145, 8130, 8109,4.407293081283569
96, 8150, 8158, 8143, 8179, 8182, 8194, 8207, 8180, 8170, 8190, 8181, 8140, 8144, 8115,4.407293081283569
97, 8151, 8150, 8163, 8166, 8183, 8199, 8215, 8178, 8176, 8187, 8169, 8139, 8136, 8114,4.422900676727295
98, 8137, 8139, 8149, 8152, 8171, 8202, 8211, 8171, 8182, 8190, 8150, 8126, 8124, 8110,4.422900676727295
99, 8137, 8139, 8135, 8161, 8169, 8209, 8216, 8165, 8197, 8201, 8155, 8119, 8131, 8116,4.4382483959198
100, 8154, 8153, 8183, 8164, 8180, 8227, 8226, 8180, 8192, 8199, 8169, 8143, 8140, 8133,4.4382483959198
101, 8141, 8140, 8135, 8156, 8186, 8216, 8229, 8175, 8184, 8206, 8172, 8129, 8139, 8125,4.453908681869507
102, 8116, 8120, 8137, 8129, 8172, 8190, 8203, 8162, 8172, 8193, 8153, 8111, 8123, 8106,4.468986749649048
103, 8113, 8119, 8140, 8118, 8155, 8193, 8199, 8170, 8180, 8185, 8142, 8110, 8124, 8104,4.468986749649048
104, 8122, 8119, 8117, 8119, 8157, 8194, 8210, 8172, 8203, 8201, 8152, 8110, 8141, 8110,4.484243631362915
105, 8132, 8134, 8161, 8119, 8167, 8193, 8208, 8177, 8218, 8211, 8165, 8137, 8146, 8118,4.484243631362915
106, 8136, 8139, 8132, 8136, 8163, 8186, 8205, 8173, 8228, 8217, 8175, 8139, 8152, 8116,4.499509811401367
107, 8135, 8131, 8148, 8122, 8149, 8164, 8178, 8168, 8201, 8195, 8160, 8133, 8149, 8107,4.499509811401367
108, 8125, 8135, 8155, 8109, 8150, 8159, 8162, 8168, 8176, 8176, 8152, 8139, 8142, 8098,4.51540207862854
109, 8125, 8146, 8124, 8120, 8154, 8158, 8174, 8158, 8169, 8170, 8173, 8141, 8140, 8089,4.51540207862854
110, 8131, 8157, 8170, 8115, 8143, 8154, 8172, 8164, 8148, 8150, 8165, 8140, 8119, 8078,4.531424045562744
111, 8115, 8143, 8130, 8109, 8152, 8154, 8170, 8168, 8152, 8151, 8144, 8115, 8111, 8065,4.531424045562744
112, 8109, 8126, 8136, 8101, 8161, 8156, 8165, 8170, 8170, 8164, 8165, 8126, 8129, 8075,4.5471272468566895
113, 8127, 8142, 8167, 8111, 8162, 8166, 8169, 8177, 8187, 8186, 8206, 8153, 8150, 8093,4.5471272468566895
114, 8135, 8156, 8134, 8128, 8169, 8168, 8184, 8169, 8196, 8204, 8210, 8136, 8155, 8093,4.5471272468566895
115, 8129, 8161, 8172, 8123, 8176, 8169, 8184, 8175, 8187, 8198, 8194, 8134, 8149, 8094,4.561947584152222
116, 8127, 8164, 8148, 8136, 8179, 8166, 8184, 8177, 8197, 8210, 8212, 8142, 8162, 8102,4.578013181686401
117, 8138, 8161, 8151, 8138, 8173, 8158, 8177, 8166, 8195, 8210, 8220, 8147, 8164, 8099,4.578013181686401
118, 8129, 8160, 8172, 8135, 8174, 8169, 8179, 8172, 8185, 8195, 8201, 8142, 8152, 8087,4.593178033828735
119, 8114, 8159, 8128, 8151, 8186, 8177, 8197, 8173, 8201, 8198, 8188, 8124, 8143, 8080,4.593178033828735
120, 8118, 8162, 8162, 8141, 8187, 8184, 8199, 8174, 8212, 8198, 8181, 8134, 8130, 8086,4.609345197677612
121, 8118, 8156, 8144, 8137, 8194, 8194, 8207, 8171, 8224, 8212, 8188, 8126, 8137, 8088,4.609345197677612
122, 8113, 8140, 8140, 8140, 8197, 8190, 8210, 8169, 8224, 8222, 8191, 8115, 8147, 8093,4.624538421630859
123, 8116, 8140, 8164, 8138, 8188, 8192, 8214, 8180, 8221, 8222, 8187, 8123, 8149, 8110,4.624538421630859
124, 8123, 8148, 8130, 8152, 8191, 8192, 8223, 8172, 8233, 8229, 8183, 8114, 8155, 8111,4.640002250671387
125, 8127, 8163, 8179, 8162, 8201, 8191, 8217, 8167, 8217, 8210, 8174, 8124, 8144, 8104,4.640002250671387
126, 8122, 8164, 8162, 8168, 8203, 8197, 8227, 8170, 8206, 8202, 8183, 8129, 8138, 8100,4.6555163860321045
127, 8133, 8146, 8142, 8163, 8193, 8195, 8233, 8173, 8213, 8205, 8184, 8128, 8141, 8105,4.6555163860321045
236, 8151, 8150, 8187, 8164, 8188, 8196, 8231, 8185, 8225, 8212, 8173, 8145, 8147, 8118,4.671168088912964
0, 8140, 8154, 8151, 8179, 8196, 8196, 8239, 8177, 8240, 8237, 8176, 8143, 8154, 8117,4.671168088912964
1, 8128, 8150, 8170, 8170, 8199, 8192, 8223, 8171, 8226, 8228, 8175, 8148, 8146, 8111,4.686344146728516
2, 8137, 8155, 8166, 8178, 8204, 8197, 8222, 8176, 8222, 8225, 8180, 8158, 8157, 8115,4.686344146728516
3, 8146, 8152, 8152, 8188, 8198, 8191, 8231, 8178, 8235, 8243, 8187, 8159, 8167, 8125,4.701963663101196
4, 8137, 8144, 8177, 8167, 8184, 8183, 8217, 8181, 8230, 8231, 8175, 8159, 8147, 8124,4.701963663101196
5, 8126, 8132, 8132, 8159, 8176, 8172, 8210, 8173, 8226, 8208, 8162, 8147, 8141, 8113,4.718040943145752
6, 8139, 8135, 8165, 8152, 8168, 8163, 8206, 8171, 8217, 8198, 8161, 8168, 8153, 8116,4.718040943145752
7, 8149, 8145, 8168, 8155, 8171, 8170, 8211, 8174, 8224, 8213, 8176, 8183, 8165, 8121,4.734130620956421
8, 8141, 8137, 8136, 8151, 8178, 8165, 8209, 8171, 8229, 8211, 8176, 8175, 8160, 8118,4.734130620956421
9, 8131, 8128, 8165, 8115, 8173, 8160, 8204, 8181, 8225, 8194, 8164, 8186, 8157, 8123,4.7492406368255615
10, 8142, 8138, 8140, 8127, 8178, 8173, 8214, 8176, 8239, 8214, 8186, 8195, 8181, 8132,4.7492406368255615
11, 8176, 8177, 8188, 8184, 8198, 8182, 8211, 8174, 8234, 8226, 8208, 8231, 8194, 8149,4.7652268409729
12, 8181, 8194, 8199, 8222, 8209, 8176, 8212, 8184, 8236, 8219, 8207, 8249, 8194, 8157,4.7652268409729
13, 8159, 8170, 8155, 8206, 8191, 8156, 8204, 8172, 8238, 8203, 8200, 8222, 8186, 8135,4.780442953109741
14, 8164, 8175, 8198, 8204, 8170, 8157, 8182, 8168, 8219, 8178, 8175, 8217, 8169, 8122,4.780442953109741
15, 8179, 8194, 8176, 8247, 8180, 8165, 8185, 8169, 8222, 8175, 8161, 8215, 8169, 8126,4.795515298843384
16, 8181, 8195, 8190, 8249, 8189, 8167, 8189, 8174, 8222, 8185, 8182, 8234, 8177, 8136,4.795515298843384
17, 8179, 8204, 8205, 8241, 8200, 8187, 8204, 8185, 8229, 8213, 8218, 8255, 8189, 8149,4.810708045959473
18, 8179, 8200, 8171, 8241, 8209, 8179, 8206, 8179, 8230, 8215, 8214, 8234, 8181, 8139,4.810708045959473
19, 8175, 8187, 8195, 8218, 8192, 8154, 8174, 8174, 8199, 8171, 8177, 8222, 8153, 8118,4.826380968093872
20, 8167, 8181, 8153, 8218, 8183, 8155, 8173, 8165, 8187, 8160, 8170, 8210, 8145, 8112,4.826380968093872
21, 8172, 8186, 8171, 8225, 8195, 8170, 8188, 8164, 8186, 8163, 8167, 8203, 8142, 8118,4.8421056270599365
22, 8176, 8201, 8199, 8232, 8198, 8179, 8188, 8169, 8181, 8167, 8159, 8201, 8142, 8118,4.8421056270599365
23, 8172, 8196, 8154, 8234, 8184, 8164, 8177, 8156, 8182, 8175, 8163, 8193, 8145, 8112,4.857657194137573
24, 8163, 8188, 8187, 8216, 8174, 8167, 8167, 8162, 8180, 8164, 8155, 8201, 8129, 8110,4.857657194137573
25, 8148, 8185, 8164, 8217, 8188, 8183, 8180, 8168, 8183, 8170, 8144, 8179, 8124, 8103,4.873287677764893
26, 8143, 8183, 8158, 8217, 8194, 8183, 8188, 8164, 8173, 8172, 8141, 8165, 8127, 8099,4.873287677764893
27, 8147, 8188, 8172, 8209, 8187, 8189, 8195, 8178, 8178, 8174, 8149, 8176, 8133, 8105,4.889339208602905
28, 8145, 8178, 8129, 8210, 8184, 8185, 8208, 8173, 8199, 8184, 8146, 8158, 8134, 8105,4.889339208602905
29, 8147, 8171, 8169, 8207, 8183, 8183, 8204, 8168, 8190, 8173, 8126, 8155, 8120, 8110,4.905200958251953
30, 8148, 8178, 8156, 8217, 8193, 8191, 8216, 8179, 8199, 8192, 8139, 8162, 8135, 8121,4.905200958251953
31, 8152, 8180, 8152, 8212, 8201, 8188, 8220, 8186, 8212, 8217, 8161, 8172, 8158, 8130,4.92065691947937
32, 8155, 8179, 8174, 8206, 8196, 8191, 8209, 8186, 8200, 8202, 8151, 8181, 8156, 8135,4.92065691947937
33, 8152, 8170, 8134, 8219, 8188, 8198, 8214, 8174, 8202, 8191, 8141, 8167, 8157, 8132,4.9365270137786865
34, 8152, 8168, 8170, 8210, 8182, 8195, 8209, 8175, 8202, 8194, 8150, 8177, 8162, 8133,4.9365270137786865
35, 8153, 8166, 8158, 8202, 8183, 8194, 8203, 8177, 8200, 8199, 8145, 8174, 8153, 8130,4.952198266983032
36, 8162, 8165, 8151, 8210, 8189, 8194, 8201, 8174, 8186, 8188, 8132, 8173, 8146, 8134,4.952198266983032
37, 8171, 8178, 8185, 8214, 8200, 8198, 8202, 8179, 8187, 8190, 8157, 8197, 8167, 8149,4.967729568481445
38, 8166, 8179, 8145, 8215, 8210, 8198, 8209, 8175, 8205, 8218, 8189, 8189, 8185, 8149,4.967729568481445
39, 8166, 8175, 8171, 8201, 8202, 8201, 8203, 8177, 8192, 8211, 8167, 8180, 8163, 8143,4.982666254043579
40, 8166, 8176, 8156, 8198, 8195, 8207, 8204, 8177, 8191, 8191, 8142, 8175, 8158, 8140,4.982666254043579
41, 8174, 8177, 8142, 8196, 8190, 8197, 8202, 8172, 8210, 8195, 8158, 8185, 8179, 8145,4.99919867515564
42, 8184, 8180, 8187, 8188, 8187, 8193, 8195, 8184, 8224, 8213, 8178, 8208, 8192, 8159,4.99919867515564
43, 8163, 8164, 8141, 8186, 8186, 8185, 8193, 8179, 8229, 8219, 8179, 8192, 8194, 8148,5.014401197433472
44, 8150, 8158, 8156, 8170, 8180, 8176, 8182, 8172, 8212, 8196, 8161, 8186, 8182, 8131,5.014401197433472
45, 8162, 8169, 8158, 8176, 8179, 8181, 8189, 8176, 8203, 8193, 8158, 8192, 8178, 8131,5.029958009719849
46, 8161, 8161, 8134, 8180, 8177, 8172, 8187, 8170, 8193, 8187, 8161, 8184, 8172, 8129,5.029958009719849
47, 8148, 8156, 8169, 8164, 8169, 8164, 8172, 8171, 8178, 8159, 8150, 8194, 8161, 8125,5.045520305633545
48, 8150, 8157, 8134, 8167, 8163, 8161, 8177, 8169, 8189, 8169, 8153, 8195, 8169, 8129,5.045520305633545
49, 8164, 8155, 8152, 8161, 8153, 8159, 8170, 8169, 8184, 8167, 8146, 8192, 8160, 8129,5.061574459075928
50, 8163, 8159, 8153, 8159, 8159, 8167, 8171, 8173, 8179, 8164, 8147, 8192, 8159, 8120,5.061574459075928
51, 8166, 8156, 8128, 8165, 8171, 8162, 8178, 8170, 8189, 8171, 8180, 8209, 8187, 8121,5.077183961868286
52, 8180, 8167, 8180, 8159, 8168, 8160, 8166, 8176, 8170, 8151, 8194, 8238, 8190, 8124,5.077183961868286
53, 8177, 8180, 8152, 8175, 8172, 8168, 8173, 8172, 8153, 8146, 8178, 8216, 8172, 8112,5.092497825622559
54, 8175, 8183, 8169, 8190, 8183, 8172, 8177, 8172, 8140, 8151, 8174, 8216, 8165, 8120,5.092497825622559
55, 8179, 8187, 8191, 8199, 8186, 8180, 8171, 8181, 8149, 8162, 8200, 8244, 8181, 8141,5.108112096786499
56, 8185, 8185, 8162, 8211, 8189, 8181, 8170, 8170, 8167, 8171, 8204, 8234, 8193, 8141,5.108112096786499
57, 8188, 8192, 8209, 8214, 8189, 8176, 8165, 8172, 8158, 8165, 8183, 8231, 8182, 8145,5.123361587524414
58, 8179, 8193, 8180, 8231, 8187, 8172, 8173, 8171, 8156, 8174, 8184, 8228, 8178, 8147,5.139476537704468
59, 8174, 8181, 8179, 8233, 8178, 8162, 8159, 8163, 8145, 8165, 8182, 8224, 8173, 8135,5.1399986743927
60, 8173, 8179, 8198, 8226, 8177, 8165, 8142, 8169, 8132, 8156, 8182, 8226, 8170, 8137,5.1399986743927
61, 8161, 8169, 8154, 8227, 8181, 8171, 8148, 8163, 8139, 8166, 8180, 8212, 8167, 8136,5.155569314956665
62, 8150, 8156, 8179, 8209, 8164, 8166, 8151, 8164, 8137, 8157, 8159, 8205, 8158, 8127,5.155569314956665
63, 8145, 8146, 8146, 8202, 8158, 8163, 8162, 8162, 8144, 8160, 8162, 8193, 8167, 8124,5.171332359313965
64, 8146, 8141, 8147, 8192, 8163, 8168, 8173, 8161, 8151, 8172, 8167, 8193, 8167, 8126,5.171332359313965
65, 8140, 8137, 8172, 8178, 8158, 8175, 8173, 8175, 8151, 8169, 8151, 8191, 8157, 8120,5.186381578445435
66, 8139, 8132, 8127, 8178, 8147, 8155, 8162, 8168, 8159, 8164, 8152, 8179, 8166, 8114,5.186381578445435
67, 8169, 8155, 8175, 8178, 8149, 8148, 8150, 8170, 8161, 8153, 8178, 8224, 8187, 8136,5.202909469604492
68, 8192, 8178, 8173, 8198, 8165, 8163, 8160, 8175, 8170, 8143, 8202, 8250, 8205, 8152,5.202909469604492
69, 8183, 8169, 8160, 8191, 8160, 8151, 8153, 8168, 8163, 8117, 8188, 8228, 8196, 8144,5.217929124832153
70, 8170, 8163, 8178, 8169, 8147, 8136, 8144, 8174, 8152, 8091, 8160, 8220, 8178, 8131,5.217929124832153
71, 8170, 8160, 8142, 8175, 8147, 8132, 8149, 8164, 8155, 8076, 8158, 8215, 8172, 8120,5.234974384307861
72, 8171, 8159, 8176, 8164, 8142, 8130, 8131, 8158, 8131, 8041, 8150, 8218, 8159, 8115,5.234974384307861
73, 8165, 8162, 8159, 8160, 8146, 8136, 8134, 8165, 8123, 8029, 8145, 8203, 8157, 8110,5.2501325607299805
74, 8167, 8165, 8151, 8167, 8154, 8131, 8145, 8164, 8142, 8037, 8154, 8199, 8162, 8104,5.2501325607299805
75, 8170, 8173, 8189, 8173, 8152, 8132, 8135, 8160, 8143, 8029, 8155, 8216, 8154, 8104,5.264179468154907
76, 8170, 8178, 8152, 8194, 8160, 8135, 8140, 8156, 8137, 8024, 8151, 8204, 8153, 8106,5.279195308685303
77, 8180, 8193, 8193, 8206, 8174, 8136, 8146, 8163, 8124, 8013, 8157, 8211, 8154, 8110,5.279195308685303
78, 8179, 8203, 8190, 8218, 8178, 8143, 8147, 8158, 8134, 8026, 8166, 8209, 8150, 8111,5.29489803314209
79, 8165, 8192, 8156, 8223, 8173, 8150, 8145, 8148, 8138, 8044, 8150, 8187, 8143, 8104,5.29489803314209
80, 8148, 8185, 8179, 8226, 8177, 8165, 8152, 8167, 8128, 8043, 8135, 8177, 8139, 8102,5.310119867324829
81, 8134, 8170, 8134, 8227, 8185, 8169, 8170, 8176, 8152, 8057, 8135, 8157, 8150, 8101,5.310119867324829
82, 8150, 8155, 8156, 8194, 8168, 8161, 8165, 8171, 8170, 8069, 8128, 8161, 8152, 8115,5.325537443161011
83, 8169, 8163, 8161, 8185, 8154, 8154, 8159, 8169, 8175, 8077, 8142, 8182, 8166, 8129,5.325537443161011
84, 8168, 8174, 8136, 8200, 8157, 8131, 8146, 8165, 8166, 8067, 8164, 8193, 8178, 8120,5.341556787490845
85, 8169, 8182, 8175, 8195, 8157, 8124, 8131, 8171, 8155, 8061, 8174, 8205, 8180, 8115,5.341556787490845
86, 8175, 8189, 8151, 8199, 8153, 8137, 8148, 8164, 8166, 8093, 8189, 8196, 8187, 8119,5.356767892837524
87, 8170, 8192, 8176, 8205, 8150, 8142, 8148, 8160, 8148, 8089, 8179, 8188, 8174, 8119,5.356767892837524
88, 8159, 8185, 8177, 8220, 8166, 8154, 8147, 8171, 8136, 8078, 8159, 8178, 8170, 8114,5.372133731842041
89, 8160, 8167, 8132, 8219, 8177, 8164, 8159, 8167, 8153, 8100, 8160, 8165, 8182, 8117,5.372133731842041
90, 8156, 8160, 8163, 8183, 8159, 8169, 8162, 8168, 8151, 8099, 8157, 8176, 8175, 8128,5.387654781341553
91, 8143, 8154, 8131, 8176, 8143, 8165, 8162, 8164, 8148, 8090, 8141, 8168, 8168, 8126,5.387654781341553
92, 8157, 8154, 8148, 8173, 8137, 8150, 8139, 8163, 8145, 8080, 8140, 8175, 8172, 8124,5.403364181518555
93, 8169, 8165, 8170, 8162, 8138, 8146, 8128, 8173, 8144, 8076, 8171, 8201, 8184, 8122,5.403364181518555
94, 8167, 8171, 8139, 8168, 8151, 8146, 8140, 8167, 8145, 8089, 8195, 8202, 8188, 8114,5.4193360805511475
95, 8176, 8192, 8194, 8185, 8165, 8156, 8145, 8171, 8144, 8099, 8190, 8212, 8183, 8117,5.4193360805511475
96, 8179, 8201, 8178, 8209, 8174, 8165, 8151, 8170, 8154, 8107, 8190, 8206, 8183, 8121,5.434369325637817
97, 8169, 8189, 8170, 8200, 8174, 8160, 8148, 8167, 8146, 8098, 8190, 8198, 8173, 8120,5.434369325637817
98, 8155, 8187, 8175, 8179, 8172, 8172, 8154, 8173, 8141, 8095, 8173, 8192, 8160, 8119,5.4501307010650635
99, 8144, 8172, 8133, 8180, 8173, 8183, 8172, 8163, 8147, 8103, 8150, 8160, 8152, 8111,5.4501307010650635
100, 8147, 8162, 8173, 8181, 8165, 8183, 8175, 8164, 8131, 8103, 8135, 8159, 8141, 8111,5.465011358261108
101, 8148, 8163, 8149, 8184, 8159, 8181, 8176, 8167, 8132, 8118, 8139, 8161, 8151, 8116,5.465011358261108
102, 8141, 8153, 8136, 8166, 8159, 8174, 8167, 8160, 8139, 8113, 8126, 8146, 8149, 8111,5.480303525924683
103, 8138, 8146, 8154, 8152, 8162, 8178, 8166, 8165, 8149, 8105, 8109, 8135, 8138, 8108,5.480303525924683
104, 8142, 8137, 8116, 8144, 8155, 8179, 8182, 8168, 8168, 8129, 8124, 8136, 8154, 8118,5.495724439620972
105, 8150, 8134, 8148, 8115, 8142, 8173, 8174, 8172, 8168, 8132, 8130, 8163, 8169, 8135,5.495724439620972
106, 8146, 8134, 8127, 8113, 8152, 8172, 8172, 8170, 8168, 8116, 8119, 8158, 8163, 8128,5.511305093765259
107, 8141, 8128, 8124, 8112, 8157, 8165, 8169, 8164, 8164, 8109, 8118, 8152, 8158, 8114,5.511305093765259
108, 8153, 8135, 8158, 8101, 8147, 8161, 8155, 8173, 8163, 8126, 8141, 8181, 8175, 8128,5.526925563812256
109, 8171, 8149, 8126, 8118, 8147, 8154, 8154, 8169, 8174, 8139, 8173, 8191, 8194, 8146,5.526925563812256
110, 8184, 8161, 8166, 8128, 8150, 8154, 8148, 8168, 8161, 8117, 8171, 8197, 8184, 8146,5.542992353439331
111, 8170, 8163, 8150, 8131, 8159, 8160, 8150, 8167, 8148, 8117, 8160, 8185, 8171, 8127,5.542992353439331
112, 8155, 8162, 8130, 8129, 8165, 8158, 8148, 8156, 8138, 8124, 8159, 8169, 8166, 8113,5.559213876724243
113, 8162, 8169, 8166, 8120, 8156, 8166, 8146, 8162, 8126, 8112, 8155, 8174, 8152, 8115,5.559213876724243
114, 8164, 8167, 8137, 8127, 8152, 8165, 8154, 8163, 8136, 8121, 8150, 8164, 8147, 8112,5.57429838180542
115, 8166, 8176, 8177, 8134, 8164, 8162, 8146, 8167, 8133, 8122, 8142, 8168, 8147, 8110,5.57429838180542
116, 8162, 8184, 8169, 8145, 8179, 8183, 8156, 8172, 8135, 8121, 8149, 8168, 8152, 8115,5.590217351913452
117, 8159, 8174, 8141, 8151, 8177, 8192, 8170, 8170, 8153, 8133, 8163, 8165, 8147, 8122,5.590217351913452
118, 8154, 8170, 8183, 8147, 8168, 8193, 8165, 8179, 8147, 8130, 8150, 8163, 8126, 8120,5.606308460235596
119, 8139, 8155, 8132, 8144, 8167, 8192, 8170, 8169, 8133, 8128, 8126, 8130, 8119, 8102,5.606308460235596
120, 8138, 8148, 8143, 8129, 8171, 8195, 8177, 8164, 8128, 8128, 8124, 8135, 8127, 8110,5.622373342514038
121, 8147, 8162, 8160, 8146, 8179, 8209, 8191, 8172, 8156, 8146, 8148, 8154, 8142, 8133,5.622373342514038
122, 8146, 8153, 8135, 8157, 8172, 8202, 8195, 8170, 8172, 8161, 8146, 8137, 8145, 8126,5.637941360473633
123, 8142, 8141, 8160, 8128, 8157, 8196, 8193, 8180, 8164, 8157, 8128, 8142, 8142, 8122,5.637941360473633
124, 8143, 8135, 8122, 8119, 8159, 8196, 8209, 8176, 8192, 8173, 8134, 8143, 8152, 8131,5.653529405593872
125, 8143, 8127, 8145, 8107, 8153, 8178, 8201, 8169, 8200, 8162, 8126, 8133, 8152, 8128,5.653529405593872
126, 8136, 8128, 8154, 8105, 8144, 8163, 8186, 8177, 8177, 8147, 8114, 8129, 8149, 8118,5.6690802574157715
127, 8140, 8131, 8119, 8120, 8151, 8157, 8183, 8169, 8161, 8148, 8121, 8133, 8142, 8113,5.6690802574157715
236, 8153, 8145, 8166, 8119, 8157, 8164, 8179, 8167, 8163, 8144, 8123, 8156, 8135, 8126,5.684481382369995
0, 8153, 8150, 8144, 8121, 8165, 8162, 8186, 8169, 8183, 8152, 8134, 8158, 8158, 8136,5.684481382369995
1, 8158, 8146, 8151, 8119, 8170, 8152, 8180, 8168, 8169, 8141, 8145, 8165, 8168, 8133,5.700544595718384
2, 8170, 8152, 8163, 8127, 8173, 8161, 8179, 8168, 8163, 8137, 8153, 8177, 8163, 8133,5.700544595718384
3, 8177, 8161, 8137, 8139, 8176, 8158, 8189, 8163, 8184, 8153, 8164, 8172, 8168, 8134,5.715359687805176
4, 8183, 8177, 8187, 8132, 8175, 8150, 8180, 8168, 8171, 8144, 8170, 8184, 8168, 8136,5.715359687805176
5, 8178, 8185, 8164, 8145, 8176, 8157, 8179, 8166, 8158, 8140, 8176, 8176, 8171, 8130,5.730493068695068
6, 8182, 8177, 8169, 8157, 8176, 8160, 8177, 8166, 8156, 8143, 8172, 8177, 8164, 8134,5.730493068695068
7, 8193, 8179, 8195, 8157, 8179, 8168, 8178, 8182, 8159, 8153, 8177, 8190, 8159, 8142,5.746192932128906
8, 8194, 8183, 8162, 8167, 8182, 8169, 8185, 8176, 8167, 8166, 8183, 8167, 8164, 8130,5.746192932128906
9, 8194, 8187, 8197, 8171, 8178, 8166, 8176, 8170, 8157, 8157, 8167, 8163, 8154, 8129,5.7630815505981445
10, 8194, 8185, 8170, 8180, 8187, 8177, 8179, 8173, 8165, 8167, 8172, 8170, 8161, 8140,5.7630815505981445
11, 8192, 8180, 8167, 8176, 8190, 8186, 8186, 8173, 8173, 8182, 8185, 8171, 8171, 8147,5.777159929275513
12, 8184, 8185, 8192, 8175, 8187, 8189, 8199, 8178, 8169, 8185, 8174, 8165, 8164, 8147,5.777159929275513
13, 8175, 8169, 8148, 8181, 8187, 8183, 8215, 8170, 8173, 8190, 8152, 8142, 8159, 8142,5.793678283691406
14, 8166, 8152, 8168, 8157, 8175, 8180, 8201, 8168, 8168, 8179, 8135, 8138, 8151, 8138,5.793678283691406
15, 8149, 8145, 8137, 8144, 8162, 8180, 8193, 8171, 8180, 8182, 8137, 8126, 8150, 8131,5.809479236602783
16, 8156, 8140, 8130, 8138, 8159, 8164, 8183, 8169, 8188, 8188, 8153, 8131, 8159, 8132,5.823967933654785
17, 8179, 8162, 8175, 8138, 8161, 8157, 8168, 8177, 8181, 8179, 8176, 8169, 8172, 8138,5.823967933654785
18, 8182, 8179, 8141, 8156, 8172, 8155, 8166, 8169, 8173, 8174, 8192, 8173, 8174, 8131,5.823967933654785
19, 8185, 8183, 8173, 8158, 8176, 8157, 8160, 8166, 8162, 8164, 8189, 8171, 8161, 8130,5.839342355728149
20, 8192, 8185, 8165, 8176, 8185, 8167, 8173, 8174, 8175, 8183, 8191, 8162, 8164, 8138,5.855004549026489
21, 8190, 8189, 8154, 8196, 8195, 8172, 8189, 8174, 8179, 8206, 8193, 8148, 8166, 8140,5.855004549026489
22, 8182, 8198, 8191, 8194, 8192, 8185, 8190, 8179, 8167, 8197, 8178, 8155, 8156, 8143,5.870335102081299
23, 8180, 8186, 8150, 8198, 8191, 8191, 8201, 8172, 8185, 8203, 8179, 8150, 8161, 8142,5.870335102081299
24, 8186, 8176, 8178, 8196, 8200, 8191, 8210, 8179, 8196, 8219, 8185, 8160, 8168, 8151,5.886371612548828
25, 8182, 8174, 8176, 8200, 8202, 8197, 8218, 8187, 8197, 8236, 8188, 8161, 8180, 8164,5.886371612548828
26, 8179, 8162, 8152, 8198, 8185, 8185, 8210, 8176, 8198, 8234, 8184, 8150, 8181, 8163,5.901389837265015
27, 8179, 8153, 8182, 8176, 8173, 8173, 8194, 8177, 8193, 8220, 8167, 8157, 8164, 8157,5.901389837265015
28, 8171, 8148, 8138, 8168, 8174, 8165, 8196, 8176, 8204, 8226, 8164, 8150, 8167, 8156,5.9170567989349365
29, 8181, 8150, 8163, 8164, 8171, 8163, 8192, 8175, 8202, 8222, 8171, 8161, 8174, 8168,5.9170567989349365
30, 8189, 8150, 8165, 8167, 8172, 8167, 8189, 8175, 8199, 8224, 8179, 8166, 8179, 8169,5.932016134262085
31, 8187, 8146, 8134, 8167, 8174, 8158, 8181, 8169, 8199, 8226, 8183, 8154, 8181, 8159,5.932016134262085
32, 8196, 8162, 8184, 8160, 8168, 8153, 8169, 8176, 8184, 8205, 8186, 8174, 8173, 8160,5.9471659660339355
33, 8205, 8169, 8160, 8172, 8176, 8157, 8177, 8171, 8186, 8199, 8198, 8179, 8177, 8159,5.9471659660339355
34, 8206, 8166, 8172, 8164, 8185, 8158, 8170, 8167, 8182, 8193, 8195, 8182, 8178, 8153,5.962352752685547
35, 8202, 8179, 8186, 8164, 8182, 8164, 8168, 8171, 8177, 8195, 8192, 8185, 8181, 8148,5.962352752685547
36, 8199, 8187, 8166, 8177, 8188, 8161, 8175, 8165, 8181, 8207, 8196, 8177, 8185, 8149,5.978254556655884
37, 8203, 8189, 8205, 8177, 8191, 8162, 8172, 8171, 8183, 8200, 8187, 8183, 8172, 8156,5.978254556655884
38, 8197, 8190, 8165, 8188, 8193, 8163, 8181, 8169, 8182, 8193, 8179, 8165, 8164, 8148,5.993292570114136
39, 8184, 8184, 8170, 8189, 8191, 8161, 8183, 8164, 8160, 8191, 8167, 8152, 8161, 8140,5.993292570114136
40, 8174, 8176, 8183, 8182, 8190, 8177, 8188, 8173, 8157, 8204, 8152, 8144, 8163, 8143,6.009396076202393
41, 8176, 8161, 8143, 8181, 8186, 8179, 8198, 8165, 8172, 8211, 8143, 8125, 8163, 8145,6.009396076202393
42, 8178, 8150, 8174, 8166, 8172, 8177, 8194, 8169, 8165, 8196, 8135, 8134, 8151, 8148,6.0309953689575195
43, 8168, 8137, 8140, 8161, 8174, 8189, 8206, 8175, 8183, 8211, 8131, 8129, 8150, 8142,6.031998157501221
44, 8165, 8139, 8143, 8158, 8184, 8191, 8213, 8170, 8201, 8225, 8123, 8118, 8154, 8140,6.031998157501221
45, 8172, 8157, 8173, 8164, 8188, 8188, 8219, 8175, 8204, 8219, 8140, 8129, 8163, 8151,6.0410895347595215
46, 8171, 8145, 8130, 8161, 8182, 8178, 8225, 8176, 8213, 8220, 8162, 8132, 8172, 8150,6.056306600570679
47, 8172, 8138, 8156, 8136, 8174, 8173, 8204, 8176, 8204, 8209, 8150, 8136, 8161, 8144,6.056306600570679
48, 8173, 8149, 8140, 8145, 8178, 8172, 8196, 8169, 8199, 8213, 8145, 8129, 8160, 8147,6.072261571884155
49, 8177, 8152, 8148, 8155, 8175, 8155, 8197, 8169, 8192, 8217, 8154, 8133, 8165, 8153,6.072261571884155
50, 8186, 8161, 8178, 8148, 8172, 8152, 8190, 8181, 8189, 8209, 8163, 8149, 8168, 8150,6.088068962097168
51, 8189, 8174, 8135, 8155, 8180, 8159, 8188, 8168, 8186, 8203, 8173, 8140, 8169, 8137,6.088068962097168
52, 8190, 8183, 8176, 8157, 8184, 8159, 8179, 8167, 8161, 8185, 8170, 8151, 8157, 8137,6.103309154510498
53, 8184, 8183, 8171, 8173, 8190, 8161, 8193, 8177, 8167, 8192, 8169, 8148, 8157, 8144,6.103309154510498
54, 8181, 8171, 8155, 8182, 8185, 8163, 8203, 8170, 8176, 8201, 8160, 8132, 8153, 8142,6.119284629821777
55, 8180, 8169, 8180, 8177, 8175, 8168, 8193, 8165, 8166, 8191, 8152, 8139, 8145, 8144,6.119284629821777
56, 8179, 8173, 8149, 8189, 8179, 8166, 8194, 8164, 8177, 8199, 8171, 8143, 8163, 8158,6.134371995925903
57, 8188, 8175, 8192, 8186, 8181, 8165, 8196, 8175, 8183, 8211, 8173, 8160, 8170, 8176,6.134371995925903
58, 8186, 8162, 8175, 8174, 8175, 8168, 8199, 8173, 8183, 8216, 8158, 8157, 8165, 8175,6.149974822998047
59, 8182, 8150, 8145, 8156, 8172, 8154, 8189, 8160, 8192, 8200, 8163, 8147, 8175, 8165,6.149974822998047
60, 8183, 8164, 8185, 8145, 8171, 8150, 8174, 8175, 8198, 8189, 8176, 8163, 8185, 8162,6.165040016174316
61, 8185, 8169, 8148, 8152, 8171, 8143, 8174, 8175, 8199, 8191, 8174, 8156, 8174, 8151,6.165040016174316
62, 8193, 8173, 8174, 8143, 8170, 8133, 8171, 8166, 8178, 8164, 8163, 8152, 8154, 8143,6.180311679840088
63, 8186, 8181, 8175, 8153, 8176, 8149, 8184, 8173, 8184, 8166, 8162, 8148, 8152, 8143,6.180311679840088
64, 8170, 8174, 8152, 8174, 8178, 8159, 8184, 8171, 8192, 8179, 8148, 8137, 8142, 8133,6.195919990539551
65, 8170, 8179, 8194, 8174, 8174, 8162, 8169, 8170, 8164, 8154, 8129, 8138, 8120, 8127,6.195919990539551
66, 8172, 8171, 8158, 8177, 8178, 8167, 8183, 8170, 8165, 8167, 8134, 8124, 8132, 8134,6.211081027984619
67, 8168, 8155, 8172, 8169, 8171, 8171, 8187, 8177, 8183, 8196, 8142, 8128, 8146, 8147,6.226588010787964
68, 8164, 8163, 8172, 8166, 8171, 8177, 8188, 8178, 8200, 8202, 8141, 8130, 8147, 8151,6.226588010787964
69, 8166, 8162, 8141, 8169, 8178, 8169, 8190, 8170, 8208, 8202, 8137, 8120, 8151, 8149,6.226588010787964
70, 8172, 8153, 8178, 8150, 8167, 8167, 8179, 8179, 8210, 8203, 8135, 8137, 8156, 8153,6.242078065872192
71, 8165, 8151, 8139, 8145, 8162, 8168, 8183, 8174, 8221, 8209, 8144, 8129, 8162, 8147,6.2577064037323
72, 8162, 8162, 8150, 8140, 8164, 8152, 8172, 8166, 8201, 8188, 8148, 8131, 8157, 8134,6.2577064037323
73, 8169, 8173, 8170, 8138, 8164, 8145, 8158, 8171, 8185, 8179, 8159, 8158, 8163, 8134,6.2577064037323
74, 8177, 8173, 8145, 8147, 8167, 8146, 8159, 8167, 8198, 8197, 8174, 8163, 8172, 8140,6.274234771728516
75, 8194, 8189, 8195, 8156, 8168, 8154, 8164, 8175, 8193, 8193, 8172, 8170, 8162, 8150,6.274234771728516
76, 8199, 8191, 8173, 8169, 8175, 8157, 8175, 8176, 8183, 8183, 8171, 8160, 8157, 8145,6.289301633834839
77, 8185, 8179, 8171, 8156, 8175, 8153, 8169, 8167, 8164, 8171, 8161, 8147, 8143, 8134,6.289301633834839
78, 8154, 8173, 8171, 8152, 8166, 8168, 8174, 8167, 8151, 8166, 8135, 8125, 8126, 8124,6.30570912361145
79, 8135, 8157, 8129, 8165, 8157, 8181, 8193, 8163, 8156, 8172, 8114, 8097, 8123, 8116,6.30570912361145
80, 8145, 8147, 8170, 8154, 8155, 8179, 8192, 8173, 8161, 8174, 8105, 8112, 8126, 8129,6.320343255996704
81, 8156, 8146, 8151, 8158, 8161, 8169, 8194, 8174, 8178, 8191, 8122, 8124, 8138, 8143,6.320343255996704
82, 8171, 8147, 8161, 8161, 8162, 8167, 8196, 8172, 8193, 8200, 8147, 8139, 8153, 8157,6.3359973430633545
83, 8185, 8155, 8186, 8161, 8164, 8176, 8199, 8186, 8213, 8204, 8161, 8166, 8171, 8178,6.351926326751709
84, 8186, 8151, 8146, 8168, 8153, 8149, 8186, 8177, 8213, 8193, 8169, 8166, 8178, 8172,6.351926326751709
85, 8181, 8154, 8183, 8154, 8133, 8125, 8155, 8165, 8169, 8157, 8176, 8174, 8165, 8155,6.366940975189209
86, 8179, 8163, 8165, 8162, 8136, 8137, 8154, 8166, 8162, 8155, 8195, 8180, 8169, 8148,6.366940975189209
87, 8186, 8165, 8171, 8188, 8145, 8136, 8144, 8165, 8163, 8157, 8197, 8188, 8166, 8150,6.382978439331055
88, 8196, 8182, 8209, 8207, 8145, 8135, 8131, 8166, 8149, 8153, 8200, 8197, 8160, 8150,6.382978439331055
89, 8196, 8198, 8179, 8222, 8151, 8146, 8144, 8163, 8158, 8170, 8227, 8193, 8175, 8149,6.382978439331055
90, 8195, 8206, 8231, 8225, 8149, 8150, 8143, 8165, 8139, 8149, 8222, 8212, 8166, 8147,6.400113344192505
91, 8199, 8205, 8222, 8249, 8150, 8144, 8145, 8158, 8115, 8123, 8197, 8209, 8149, 8136,6.400113344192505
92, 8199, 8198, 8204, 8261, 8151, 8140, 8146, 8152, 8110, 8127, 8183, 8198, 8142, 8132,6.414145231246948
93, 8186, 8199, 8234, 8254, 8133, 8155, 8145, 8159, 8108, 8136, 8169, 8206, 8134, 8139,6.43044900894165
94, 8180, 8188, 8187, 8257, 8125, 8158, 8156, 8152, 8110, 8149, 8164, 8192, 8134, 8144,6.43044900894165
95, 8194, 8179, 8206, 8241, 8127, 8144, 8152, 8159, 8111, 8146, 8161, 8194, 8137, 8153,6.447442531585693
96, 8197, 8181, 8197, 8237, 8128, 8147, 8153, 8169, 8133, 8156, 8155, 8192, 8144, 8154,6.447442531585693
97, 8201, 8180, 8181, 8235, 8132, 8150, 8160, 8160, 8140, 8162, 8150, 8183, 8148, 8144,6.462026119232178
98, 8205, 8185, 8218, 8216, 8134, 8146, 8149, 8164, 8128, 8143, 8162, 8196, 8144, 8143,6.462026119232178
99, 8197, 8183, 8172, 8212, 8138, 8134, 8137, 8157, 8129, 8137, 8178, 8187, 8143, 8137,6.477642774581909
100, 8191, 8187, 8193, 8205, 8136, 8125, 8128, 8152, 8111, 8129, 8169, 8178, 8130, 8126,6.477642774581909
101, 8180, 8196, 8198, 8206, 8137, 8133, 8134, 8163, 8103, 8125, 8156, 8165, 8120, 8121,6.492697477340698
102, 8172, 8188, 8177, 8211, 8139, 8143, 8140, 8166, 8119, 8134, 8156, 8151, 8125, 8125,6.492697477340698
103, 8178, 8187, 8215, 8212, 8154, 8166, 8158, 8176, 8137, 8153, 8161, 8169, 8134, 8141,6.508317947387695
104, 8179, 8187, 8176, 8226, 8167, 8175, 8185, 8176, 8164, 8186, 8167, 8160, 8150, 8148,6.508317947387695
105, 8178, 8181, 8188, 8211, 8148, 8163, 8168, 8171, 8169, 8192, 8154, 8143, 8155, 8148,6.523376226425171
106, 8167, 8168, 8182, 8179, 8134, 8160, 8158, 8169, 8162, 8181, 8142, 8135, 8150, 8146,6.523376226425171
107, 8165, 8147, 8147, 8151, 8134, 8148, 8167, 8164, 8161, 8171, 8142, 8131, 8147, 8144,6.539473056793213
108, 8184, 8152, 8190, 8139, 8127, 8144, 8161, 8176, 8167, 8164, 8144, 8151, 8157, 8156,6.539473056793213
109, 8191, 8164, 8157, 8153, 8124, 8142, 8161, 8175, 8182, 8172, 8145, 8144, 8167, 8154,6.554894924163818
110, 8183, 8159, 8167, 8136, 8125, 8131, 8160, 8166, 8165, 8155, 8130, 8134, 8150, 8141,6.554894924163818
111, 8175, 8153, 8174, 8120, 8124, 8134, 8162, 8171, 8142, 8140, 8127, 8139, 8143, 8139,6.570316791534424
112, 8176, 8154, 8142, 8134, 8123, 8136, 8156, 8168, 8133, 8144, 8140, 8140, 8148, 8141,6.570316791534424
113, 8183, 8164, 8186, 8134, 8121, 8135, 8139, 8173, 8123, 8141, 8132, 8150, 8142, 8135,6.586071491241455
114, 8171, 8162, 8153, 8127, 8126, 8142, 8153, 8171, 8142, 8152, 8132, 8138, 8151, 8126,6.586071491241455
115, 8176, 8165, 8162, 8120, 8135, 8151, 8163, 8170, 8155, 8156, 8145, 8147, 8163, 8135,6.60119104385376
116, 8202, 8183, 8194, 8136, 8150, 8165, 8156, 8181, 8164, 8169, 8161, 8171, 8172, 8152,6.60119104385376
117, 8201, 8184, 8157, 8148, 8154, 8160, 8152, 8175, 8171, 8185, 8171, 8160, 8168, 8152,6.617285490036011
118, 8185, 8183, 8189, 8131, 8142, 8155, 8152, 8177, 8151, 8163, 8155, 8157, 8149, 8147,6.617285490036011
119, 8183, 8180, 8169, 8138, 8143, 8164, 8171, 8174, 8151, 8163, 8152, 8157, 8155, 8144,6.633370876312256
120, 8184, 8167, 8171, 8139, 8145, 8163, 8172, 8167, 8154, 8173, 8160, 8160, 8154, 8138,6.633370876312256
121, 8175, 8171, 8193, 8137, 8148, 8164, 8167, 8176, 8148, 8172, 8157, 8157, 8139, 8135,6.649584531784058
122, 8176, 8181, 8162, 8159, 8157, 8169, 8182, 8172, 8155, 8180, 8154, 8142, 8142, 8131,6.649584531784058
123, 8180, 8180, 8202, 8150, 8148, 8176, 8175, 8171, 8146, 8169, 8138, 8144, 8134, 8126,6.664892673492432
124, 8167, 8167, 8172, 8139, 8148, 8184, 8178, 8177, 8145, 8163, 8122, 8123, 8124, 8127,6.664892673492432
125, 8174, 8170, 8175, 8162, 8169, 8191, 8192, 8179, 8157, 8178, 8134, 8124, 8139, 8141,6.680995225906372
126, 8186, 8182, 8216, 8173, 8176, 8199, 8192, 8182, 8166, 8196, 8157, 8148, 8152, 8151,6.680995225906372
127, 8173, 8161, 8162, 8152, 8163, 8194, 8201, 8172, 8168, 8203, 8147, 8120, 8139, 8140,6.697051048278809
236, 8169, 8152, 8187, 8131, 8159, 8208, 8215, 8176, 8153, 8182, 8127, 8113, 8123, 8136,6.697051048278809
0, 8184, 8173, 8185, 8154, 8176, 8230, 8233, 8183, 8176, 8180, 8142, 8134, 8142, 8147,6.7130959033966064
1, 8199, 8173, 8173, 8165, 8179, 8214, 8223, 8176, 8202, 8197, 8149, 8144, 8156, 8156,6.7130959033966064
2, 8201, 8164, 8200, 8149, 8162, 8196, 8200, 8175, 8180, 8211, 8138, 8149, 8152, 8158,6.729147672653198
3, 8201, 8169, 8167, 8162, 8163, 8191, 8199, 8166, 8164, 8215, 8146, 8150, 8161, 8160,6.729147672653198
4, 8218, 8185, 8206, 8173, 8177, 8192, 8197, 8170, 8176, 8204, 8158, 8170, 8170, 8173,6.744959592819214
5, 8229, 8187, 8208, 8176, 8182, 8202, 8209, 8179, 8204, 8230, 8180, 8179, 8191, 8182,6.744959592819214
6, 8223, 8172, 8187, 8166, 8170, 8196, 8210, 8178, 8206, 8248, 8190, 8174, 8205, 8185,6.760146379470825
7, 8215, 8169, 8208, 8149, 8167, 8182, 8193, 8183, 8186, 8218, 8173, 8175, 8188, 8185,6.760146379470825
8, 8207, 8163, 8159, 8151, 8170, 8169, 8194, 8173, 8188, 8209, 8170, 8153, 8184, 8170,6.776255369186401
9, 8207, 8165, 8190, 8146, 8163, 8163, 8192, 8167, 8185, 8213, 8166, 8157, 8190, 8162,6.776255369186401
10, 8203, 8167, 8190, 8146, 8166, 8168, 8194, 8171, 8176, 8208, 8163, 8164, 8187, 8160,6.791898488998413
11, 8188, 8147, 8148, 8125, 8162, 8156, 8187, 8164, 8162, 8195, 8159, 8142, 8172, 8147,6.791898488998413
12, 8172, 8146, 8182, 8097, 8151, 8152, 8174, 8170, 8155, 8182, 8138, 8137, 8159, 8144,6.8079774379730225
13, 8175, 8163, 8159, 8123, 8163, 8164, 8193, 8174, 8181, 8199, 8140, 8138, 8172, 8149,6.8079774379730225
14, 8195, 8169, 8186, 8135, 8171, 8169, 8200, 8177, 8199, 8204, 8164, 8155, 8185, 8149,6.82305383682251
15, 8197, 8167, 8186, 8121, 8166, 8174, 8200, 8181, 8206, 8205, 8179, 8168, 8191, 8148,6.82305383682251
16, 8193, 8170, 8154, 8125, 8168, 8170, 8203, 8174, 8199, 8207, 8170, 8160, 8194, 8151,6.838231325149536
17, 8208, 8192, 8209, 8144, 8169, 8167, 8200, 8180, 8188, 8198, 8167, 8175, 8198, 8160,6.838231325149536
18, 8214, 8191, 8183, 8158, 8170, 8168, 8205, 8174, 8204, 8205, 8180, 8174, 8207, 8154,6.854943752288818
19, 8206, 8176, 8183, 8139, 8168, 8161, 8184, 8163, 8181, 8183, 8161, 8168, 8188, 8137,6.854943752288818
20, 8198, 8185, 8193, 8142, 8170, 8162, 8165, 8170, 8153, 8161, 8150, 8172, 8170, 8132,6.870081186294556
21, 8193, 8192, 8165, 8160, 8171, 8154, 8165, 8167, 8162, 8171, 8179, 8172, 8181, 8133,6.870081186294556
22, 8193, 8191, 8204, 8153, 8170, 8147, 8162, 8170, 8162, 8171, 8193, 8183, 8186, 8136,6.885621786117554
23, 8196, 8194, 8178, 8173, 8178, 8154, 8170, 8169, 8175, 8177, 8191, 8171, 8188, 8140,6.885621786117554
24, 8201, 8193, 8191, 8187, 8184, 8161, 8169, 8165, 8185, 8180, 8188, 8163, 8183, 8147,6.900810956954956
25, 8188, 8190, 8200, 8175, 8195, 8178, 8169, 8170, 8183, 8184, 8180, 8152, 8173, 8142,6.900810956954956
26, 8171, 8185, 8150, 8177, 8211, 8181, 8177, 8165, 8188, 8183, 8169, 8121, 8167, 8127,6.9159770011901855
27, 8176, 8192, 8198, 8186, 8200, 8176, 8175, 8174, 8193, 8168, 8168, 8133, 8172, 8139,6.9159770011901855
28, 8181, 8194, 8183, 8205, 8184, 8178, 8178, 8179, 8205, 8187, 8176, 8143, 8188, 8149,6.931928396224976
29, 8180, 8182, 8173, 8193, 8187, 8171, 8178, 8172, 8195, 8202, 8169, 8140, 8180, 8142,6.931928396224976
30, 8178, 8183, 8195, 8178, 8194, 8178, 8183, 8175, 8190, 8202, 8167, 8142, 8171, 8143,6.9470696449279785
31, 8175, 8186, 8164, 8200, 8190, 8182, 8187, 8168, 8201, 8210, 8173, 8129, 8180, 8140,6.9470696449279785
32, 8178, 8185, 8198, 8198, 8181, 8183, 8183, 8172, 8197, 8213, 8164, 8138, 8183, 8146,6.962267160415649
33, 8177, 8172, 8165, 8177, 8188, 8191, 8209, 8182, 8220, 8244, 8177, 8149, 8203, 8168,6.962267160415649
34, 8177, 8164, 8157, 8169, 8196, 8191, 8216, 8183, 8240, 8263, 8191, 8151, 8214, 8173,6.978273391723633
35, 8180, 8177, 8194, 8178, 8192, 8192, 8206, 8184, 8232, 8250, 8175, 8146, 8202, 8158,6.978273391723633
36, 8183, 8175, 8152, 8189, 8193, 8195, 8221, 8176, 8237, 8259, 8166, 8133, 8198, 8159,6.994134426116943
37, 8192, 8173, 8187, 8178, 8194, 8199, 8220, 8177, 8236, 8262, 8179, 8163, 8203, 8179,6.994134426116943
38, 8197, 8182, 8181, 8180, 8189, 8183, 8199, 8175, 8237, 8246, 8193, 8174, 8218, 8178,7.009289741516113
39, 8201, 8173, 8165, 8167, 8178, 8156, 8178, 8172, 8240, 8232, 8184, 8162, 8220, 8170,7.009289741516113
40, 8204, 8165, 8197, 8147, 8176, 8166, 8177, 8184, 8236, 8233, 8181, 8180, 8212, 8178,7.024967670440674
41, 8209, 8175, 8171, 8178, 8182, 8179, 8191, 8177, 8233, 8238, 8205, 8191, 8221, 8176,7.024967670440674
42, 8230, 8193, 8217, 8200, 8175, 8172, 8174, 8173, 8220, 8225, 8208, 8209, 8222, 8174,7.040530204772949
43, 8239, 8197, 8213, 8198, 8178, 8172, 8165, 8178, 8228, 8234, 8213, 8216, 8227, 8178,7.040530204772949
44, 8237, 8195, 8191, 8200, 8188, 8164, 8166, 8170, 8234, 8237, 8237, 8219, 8244, 8176,7.056410551071167
45, 8239, 8203, 8237, 8206, 8180, 8160, 8158, 8174, 8218, 8215, 8248, 8234, 8245, 8175,7.056410551071167
46, 8237, 8206, 8208, 8218, 8177, 8172, 8173, 8176, 8217, 8217, 8248, 8225, 8237, 8170,7.071275234222412
47, 8246, 8217, 8234, 8221, 8192, 8179, 8181, 8177, 8208, 8220, 8252, 8232, 8233, 8177,7.071275234222412
48, 8248, 8220, 8232, 8231, 8206, 8183, 8181, 8179, 8203, 8223, 8244, 8231, 8231, 8182,7.087381362915039
49, 8225, 8193, 8193, 8224, 8194, 8187, 8183, 8177, 8202, 8222, 8207, 8195, 8215, 8167,7.087381362915039
50, 8217, 8185, 8224, 8210, 8183, 8198, 8196, 8187, 8209, 8222, 8182, 8186, 8209, 8176,7.103044509887695
51, 8234, 8191, 8196, 8222, 8199, 8196, 8217, 8184, 8245, 8252, 8201, 8193, 8237, 8203,7.103044509887695
52, 8250, 8188, 8215, 8210, 8199, 8183, 8208, 8180, 8248, 8257, 8217, 8209, 8249, 8213,7.119133710861206
53, 8253, 8185, 8217, 8199, 8177, 8187, 8209, 8182, 8233, 8238, 8209, 8209, 8243, 8207,7.119133710861206
54, 8261, 8184, 8194, 8213, 8178, 8179, 8217, 8175, 8240, 8240, 8208, 8208, 8246, 8203,7.134385347366333
55, 8260, 8186, 8233, 8203, 8188, 8166, 8196, 8177, 8224, 8238, 8220, 8223, 8243, 8196,7.134385347366333
56, 8235, 8176, 8185, 8185, 8183, 8156, 8176, 8167, 8193, 8218, 8224, 8201, 8231, 8172,7.150038480758667
57, 8235, 8178, 8203, 8183, 8176, 8148, 8167, 8168, 8177, 8199, 8217, 8200, 8221, 8168,7.150038480758667
58, 8256, 8201, 8237, 8207, 8191, 8164, 8180, 8188, 8198, 8215, 8239, 8227, 8234, 8181,7.165204763412476
59, 8257, 8203, 8204, 8218, 8205, 8169, 8194, 8184, 8214, 8224, 8254, 8216, 8240, 8183,7.165204763412476
60, 8245, 8200, 8238, 8207, 8188, 8165, 8190, 8179, 8190, 8197, 8221, 8204, 8220, 8177,7.181311130523682
61, 8230, 8201, 8209, 8223, 8186, 8180, 8204, 8180, 8191, 8216, 8207, 8191, 8219, 8175,7.181311130523682
62, 8221, 8188, 8202, 8229, 8198, 8194, 8210, 8179, 8202, 8242, 8205, 8188, 8221, 8180,7.196329832077026
63, 8211, 8176, 8205, 8217, 8195, 8190, 8198, 8174, 8196, 8233, 8192, 8185, 8215, 8178,7.196329832077026
64, 8202, 8169, 8171, 8206, 8190, 8172, 8190, 8165, 8196, 8223, 8199, 8173, 8223, 8171,7.212032079696655
65, 8215, 8180, 8222, 8199, 8195, 8173, 8182, 8177, 8198, 8217, 8210, 8196, 8225, 8180,7.212032079696655
66, 8232, 8192, 8199, 8221, 8203, 8178, 8196, 8182, 8222, 8234, 8212, 8199, 8229, 8193,7.229108572006226
67, 8238, 8183, 8196, 8211, 8195, 8171, 8202, 8177, 8232, 8239, 8214, 8197, 8235, 8197,7.229108572006226
68, 8231, 8172, 8223, 8171, 8186, 8176, 8195, 8183, 8224, 8223, 8220, 8211, 8233, 8191,7.242929697036743
69, 8220, 8165, 8179, 8181, 8181, 8167, 8186, 8170, 8216, 8212, 8223, 8199, 8228, 8173,7.258527755737305
70, 8229, 8186, 8222, 8210, 8177, 8158, 8170, 8168, 8192, 8200, 8231, 8209, 8225, 8175,7.258527755737305
71, 8240, 8209, 8217, 8227, 8191, 8164, 8171, 8173, 8185, 8208, 8251, 8221, 8233, 8188,7.275086402893066
72, 8241, 8201, 8212, 8219, 8196, 8158, 8167, 8169, 8176, 8208, 8253, 8221, 8227, 8183,7.275086402893066
73, 8247, 8203, 8254, 8219, 8190, 8171, 8172, 8179, 8165, 8203, 8248, 8230, 8224, 8183,7.275086402893066
74, 8252, 8212, 8215, 8250, 8191, 8180, 8194, 8176, 8174, 8210, 8248, 8214, 8225, 8186,7.289193391799927
75, 8246, 8206, 8232, 8257, 8193, 8172, 8179, 8173, 8163, 8198, 8228, 8201, 8198, 8179,7.305047512054443
76, 8225, 8196, 8212, 8255, 8204, 8188, 8183, 8175, 8171, 8212, 8221, 8190, 8194, 8166,7.305047512054443
77, 8218, 8189, 8199, 8254, 8206, 8203, 8217, 8173, 8193, 8233, 8222, 8184, 8208, 8165,7.320404529571533
78, 8222, 8190, 8228, 8253, 8195, 8203, 8227, 8184, 8192, 8225, 8215, 8189, 8214, 8181,7.320404529571533
79, 8222, 8184, 8183, 8256, 8197, 8204, 8219, 8180, 8199, 8239, 8225, 8179, 8227, 8189,7.335982084274292
79, 8222, 8184, 8183, 8256, 8197, 8204, 8219, 8180, 8199, 8239, 8225, 8179, 8227, 8189,7.335982084274292
80, 8230, 8181, 8218, 8236, 8201, 8204, 8211, 8178, 8198, 8251, 8230, 8189, 8231, 8195,7.351079940795898
81, 8230, 8185, 8218, 8239, 8205, 8207, 8220, 8179, 8194, 8252, 8231, 8195, 8236, 8197,7.351079940795898
82, 8235, 8179, 8198, 8244, 8200, 8199, 8220, 8176, 8196, 8260, 8243, 8203, 8253, 8203,7.367177724838257
83, 8235, 8173, 8229, 8215, 8185, 8190, 8200, 8180, 8192, 8254, 8237, 8228, 8250, 8203,7.367177724838257
84, 8212, 8160, 8173, 8206, 8186, 8177, 8190, 8171, 8193, 8234, 8222, 8210, 8239, 8177,7.382306814193726
85, 8212, 8162, 8196, 8209, 8189, 8171, 8189, 8171, 8188, 8214, 8215, 8206, 8238, 8169,7.382306814193726
86, 8229, 8178, 8217, 8220, 8188, 8175, 8201, 8177, 8194, 8220, 8227, 8221, 8244, 8180,7.39835524559021
87, 8235, 8178, 8195, 8227, 8185, 8162, 8187, 8165, 8187, 8207, 8228, 8217, 8234, 8168,7.39835524559021
88, 8235, 8185, 8230, 8221, 8185, 8157, 8165, 8169, 8166, 8171, 8214, 8216, 8217, 8154,7.4141693115234375
89, 8242, 8196, 8198, 8234, 8193, 8166, 8191, 8175, 8179, 8187, 8217, 8202, 8226, 8162,7.4141693115234375
90, 8243, 8203, 8219, 8241, 8197, 8170, 8202, 8176, 8185, 8205, 8224, 8205, 8225, 8174,7.429346561431885
91, 8234, 8206, 8226, 8250, 8201, 8175, 8196, 8179, 8191, 8215, 8237, 8212, 8221, 8175,7.429346561431885
92, 8233, 8199, 8191, 8260, 8205, 8170, 8198, 8175, 8197, 8225, 8244, 8199, 8230, 8175,7.445234298706055
93, 8235, 8208, 8228, 8260, 8210, 8179, 8200, 8181, 8184, 8216, 8230, 8197, 8231, 8176,7.445234298706055
94, 8229, 8213, 8193, 8268, 8219, 8194, 8212, 8181, 8198, 8231, 8227, 8182, 8228, 8174,7.460275411605835
95, 8229, 8202, 8196, 8255, 8211, 8195, 8207, 8180, 8216, 8246, 8221, 8186, 8220, 8176,7.460275411605835
96, 8235, 8203, 8212, 8249, 8203, 8196, 8197, 8181, 8221, 8245, 8211, 8201, 8224, 8183,7.47642970085144
97, 8241, 8209, 8182, 8255, 8209, 8194, 8201, 8172, 8218, 8240, 8214, 8194, 8229, 8188,7.47642970085144
98, 8245, 8215, 8221, 8250, 8207, 8197, 8196, 8175, 8203, 8234, 8220, 8205, 8219, 8187,7.491985559463501
99, 8235, 8212, 8189, 8247, 8205, 8195, 8194, 8171, 8202, 8233, 8221, 8198, 8227, 8175,7.491985559463501
100, 8230, 8205, 8189, 8231, 8214, 8182, 8188, 8167, 8192, 8210, 8215, 8189, 8233, 8169,7.508005857467651
101, 8234, 8207, 8215, 8234, 8222, 8188, 8188, 8177, 8197, 8206, 8220, 8202, 8231, 8175,7.508005857467651
102, 8235, 8205, 8188, 8247, 8217, 8187, 8184, 8171, 8215, 8224, 8237, 8209, 8239, 8171,7.52396297454834
103, 8242, 8210, 8230, 8228, 8198, 8164, 8155, 8171, 8197, 8208, 8245, 8222, 8238, 8171,7.52396297454834
104, 8243, 8209, 8201, 8225, 8192, 8153, 8150, 8174, 8191, 8204, 8250, 8210, 8232, 8169,7.538987874984741
105, 8236, 8198, 8188, 8222, 8191, 8158, 8156, 8163, 8181, 8202, 8236, 8196, 8213, 8155,7.538987874984741
106, 8227, 8199, 8213, 8204, 8191, 8176, 8162, 8164, 8151, 8179, 8218, 8188, 8192, 8143,7.554996013641357
107, 8221, 8204, 8180, 8225, 8204, 8181, 8175, 8164, 8144, 8178, 8220, 8168, 8191, 8137,7.554996013641357
108, 8219, 8212, 8219, 8248, 8212, 8189, 8176, 8169, 8149, 8187, 8212, 8174, 8196, 8142,7.570324897766113
109, 8210, 8201, 8195, 8246, 8212, 8209, 8191, 8171, 8170, 8210, 8202, 8160, 8200, 8149,7.570324897766113
110, 8203, 8173, 8178, 8220, 8203, 8201, 8201, 8167, 8177, 8221, 8193, 8141, 8195, 8150,7.585423469543457
111, 8199, 8169, 8204, 8199, 8193, 8184, 8185, 8177, 8170, 8209, 8178, 8152, 8193, 8145,7.585423469543457
112, 8192, 8167, 8150, 8192, 8183, 8175, 8166, 8171, 8176, 8198, 8180, 8146, 8202, 8136,7.60129976272583
113, 8197, 8169, 8184, 8176, 8174, 8166, 8152, 8167, 8162, 8178, 8190, 8154, 8197, 8139,7.60129976272583
114, 8203, 8189, 8191, 8195, 8191, 8168, 8156, 8170, 8149, 8171, 8195, 8159, 8189, 8137,7.616911888122559
115, 8204, 8197, 8172, 8205, 8212, 8174, 8151, 8170, 8141, 8164, 8183, 8153, 8180, 8122,7.616911888122559
116, 8199, 8192, 8195, 8190, 8202, 8186, 8143, 8179, 8134, 8159, 8176, 8154, 8172, 8119,7.6319568157196045
117, 8181, 8176, 8159, 8201, 8191, 8192, 8159, 8170, 8148, 8184, 8184, 8132, 8177, 8128,7.6319568157196045
118, 8175, 8164, 8195, 8202, 8196, 8204, 8169, 8167, 8161, 8202, 8182, 8135, 8179, 8140,7.64803409576416
119, 8184, 8162, 8185, 8187, 8194, 8217, 8177, 8174, 8182, 8212, 8178, 8140, 8184, 8142,7.64803409576416
120, 8195, 8155, 8149, 8168, 8174, 8204, 8161, 8166, 8190, 8203, 8172, 8136, 8186, 8135,7.6629958152771
121, 8210, 8169, 8193, 8162, 8174, 8196, 8133, 8168, 8173, 8183, 8181, 8165, 8189, 8136,7.6629958152771
122, 8211, 8183, 8169, 8180, 8198, 8192, 8132, 8161, 8158, 8183, 8189, 8166, 8188, 8130,7.678398132324219
123, 8194, 8177, 8188, 8163, 8186, 8185, 8120, 8159, 8132, 8162, 8172, 8151, 8163, 8118,7.678398132324219
124, 8184, 8168, 8181, 8143, 8170, 8196, 8120, 8168, 8137, 8152, 8169, 8148, 8154, 8111,7.694003105163574
125, 8187, 8172, 8156, 8153, 8187, 8197, 8134, 8162, 8156, 8163, 8171, 8147, 8161, 8112,7.694003105163574
126, 8189, 8186, 8204, 8157, 8195, 8201, 8142, 8168, 8151, 8171, 8173, 8158, 8164, 8122,7.710223913192749
127, 8177, 8174, 8162, 8156, 8189, 8213, 8164, 8171, 8163, 8188, 8183, 8149, 8170, 8120,7.710223913192749
236, 8166, 8158, 8171, 8140, 8187, 8213, 8167, 8173, 8161, 8173, 8161, 8135, 8149, 8114,7.725218772888184
0, 8155, 8166, 8188, 8140, 8194, 8212, 8167, 8175, 8152, 8163, 8128, 8119, 8134, 8112,7.725218772888184
1, 8152, 8161, 8156, 8158, 8196, 8211, 8177, 8167, 8162, 8186, 8132, 8112, 8154, 8112,7.740893125534058
2, 8160, 8159, 8189, 8154, 8188, 8220, 8178, 8178, 8172, 8189, 8152, 8132, 8163, 8124,7.740893125534058
3, 8148, 8155, 8150, 8149, 8188, 8223, 8178, 8177, 8178, 8186, 8153, 8114, 8155, 8124,7.756955146789551
4, 8139, 8142, 8162, 8138, 8188, 8214, 8178, 8173, 8183, 8193, 8140, 8106, 8152, 8119,7.756955146789551
5, 8143, 8142, 8177, 8125, 8188, 8222, 8194, 8182, 8215, 8211, 8144, 8124, 8159, 8127,7.772407293319702
6, 8144, 8142, 8139, 8113, 8178, 8212, 8195, 8179, 8230, 8220, 8153, 8120, 8165, 8128,7.772407293319702
7, 8146, 8138, 8181, 8103, 8161, 8193, 8171, 8178, 8204, 8201, 8140, 8128, 8157, 8131,7.787919998168945
8, 8132, 8130, 8147, 8109, 8164, 8187, 8171, 8170, 8201, 8194, 8135, 8122, 8154, 8130,7.787919998168945
9, 8120, 8130, 8140, 8099, 8169, 8182, 8174, 8167, 8203, 8184, 8138, 8127, 8155, 8120,7.803484678268433
10, 8128, 8146, 8167, 8096, 8166, 8185, 8176, 8179, 8199, 8183, 8145, 8147, 8169, 8119,7.803484678268433
11, 8137, 8148, 8141, 8109, 8170, 8184, 8178, 8173, 8206, 8194, 8163, 8146, 8182, 8127,7.819171667098999
12, 8140, 8149, 8184, 8097, 8172, 8177, 8157, 8173, 8186, 8172, 8161, 8164, 8166, 8131,7.819171667098999
13, 8137, 8155, 8166, 8102, 8171, 8171, 8150, 8177, 8174, 8167, 8156, 8171, 8164, 8127,7.834670305252075
14, 8142, 8157, 8163, 8104, 8161, 8163, 8147, 8169, 8178, 8172, 8161, 8166, 8171, 8128,7.834670305252075
15, 8141, 8163, 8192, 8105, 8155, 8164, 8135, 8170, 8173, 8157, 8159, 8163, 8162, 8124,7.850098371505737
16, 8134, 8161, 8156, 8122, 8162, 8161, 8130, 8169, 8176, 8151, 8158, 8151, 8162, 8113,7.866963148117065
17, 8129, 8157, 8177, 8099, 8159, 8156, 8119, 8168, 8166, 8150, 8155, 8160, 8163, 8115,7.866963148117065
18, 8119, 8151, 8153, 8089, 8153, 8157, 8128, 8160, 8164, 8159, 8159, 8154, 8165, 8110,7.866963148117065
19, 8127, 8156, 8164, 8114, 8157, 8153, 8135, 8158, 8171, 8158, 8165, 8154, 8162, 8106,7.882241249084473
20, 8141, 8176, 8212, 8130, 8163, 8157, 8133, 8171, 8171, 8157, 8170, 8173, 8164, 8119,7.882241249084473
21, 8130, 8172, 8160, 8134, 8157, 8155, 8144, 8158, 8163, 8164, 8176, 8156, 8166, 8114,7.898259162902832
22, 8117, 8162, 8183, 8119, 8146, 8146, 8136, 8150, 8133, 8143, 8162, 8146, 8144, 8097,7.898259162902832
23, 8116, 8169, 8184, 8128, 8163, 8154, 8143, 8160, 8140, 8147, 8165, 8151, 8146, 8101,7.914121866226196
24, 8119, 8179, 8176, 8152, 8181, 8161, 8158, 8163, 8151, 8169, 8186, 8156, 8166, 8114,7.914121866226196
25, 8116, 8181, 8206, 8158, 8172, 8165, 8147, 8166, 8130, 8155, 8180, 8150, 8158, 8114,7.929223299026489
26, 8111, 8169, 8162, 8163, 8169, 8166, 8149, 8165, 8140, 8159, 8173, 8129, 8155, 8112,7.943379163742065
27, 8118, 8168, 8192, 8167, 8174, 8165, 8162, 8174, 8160, 8178, 8183, 8140, 8163, 8121,7.943379163742065
28, 8109, 8167, 8183, 8168, 8171, 8171, 8174, 8177, 8165, 8181, 8187, 8132, 8161, 8116,7.960134744644165
29, 8089, 8147, 8142, 8147, 8166, 8169, 8166, 8162, 8162, 8167, 8163, 8107, 8150, 8101,7.960134744644165
30, 8081, 8146, 8173, 8126, 8164, 8172, 8161, 8167, 8169, 8168, 8147, 8113, 8144, 8109,7.974628210067749
31, 8073, 8137, 8128, 8128, 8157, 8166, 8167, 8170, 8191, 8184, 8150, 8101, 8148, 8109,7.974628210067749
32, 8077, 8118, 8140, 8117, 8142, 8157, 8148, 8170, 8193, 8166, 8145, 8104, 8146, 8099,7.989765882492065
33, 8095, 8130, 8160, 8131, 8153, 8171, 8150, 8179, 8210, 8177, 8160, 8128, 8157, 8108,7.989765882492065
34, 8116, 8149, 8151, 8148, 8167, 8161, 8156, 8175, 8217, 8199, 8183, 8140, 8174, 8119,8.005282402038574
35, 8126, 8160, 8188, 8132, 8157, 8141, 8136, 8176, 8188, 8170, 8185, 8156, 8172, 8120,8.005282402038574
36, 8119, 8157, 8151, 8136, 8157, 8145, 8141, 8171, 8177, 8150, 8189, 8146, 8166, 8112,8.021286487579346
37, 8123, 8159, 8173, 8136, 8164, 8162, 8149, 8168, 8161, 8152, 8189, 8143, 8153, 8101,8.021286487579346
38, 8131, 8172, 8189, 8139, 8173, 8168, 8146, 8173, 8150, 8162, 8191, 8160, 8152, 8099,8.042952537536621
39, 8131, 8171, 8157, 8155, 8177, 8151, 8137, 8168, 8163, 8165, 8196, 8152, 8157, 8107,8.042952537536621
40, 8139, 8173, 8209, 8163, 8168, 8156, 8136, 8178, 8179, 8167, 8193, 8159, 8156, 8121,8.042952537536621
41, 8136, 8168, 8185, 8178, 8170, 8174, 8160, 8177, 8194, 8195, 8188, 8158, 8169, 8126,8.052517175674438
42, 8120, 8150, 8173, 8160, 8164, 8170, 8162, 8168, 8175, 8188, 8169, 8145, 8161, 8124,8.067943096160889
43, 8107, 8142, 8173, 8140, 8151, 8176, 8161, 8171, 8161, 8160, 8148, 8128, 8143, 8116,8.067943096160889
44, 8115, 8142, 8146, 8144, 8156, 8179, 8175, 8169, 8183, 8169, 8156, 8127, 8161, 8115,8.083514928817749
45, 8136, 8152, 8199, 8139, 8162, 8166, 8165, 8176, 8190, 8184, 8179, 8167, 8187, 8139,8.083514928817749
46, 8146, 8158, 8175, 8146, 8156, 8154, 8148, 8178, 8192, 8182, 8199, 8173, 8199, 8148,8.099243402481079
47, 8160, 8167, 8178, 8155, 8157, 8151, 8140, 8174, 8185, 8170, 8207, 8178, 8198, 8140,8.099243402481079
48, 8161, 8181, 8205, 8160, 8172, 8159, 8143, 8180, 8172, 8170, 8206, 8187, 8196, 8136,8.11426329612732
49, 8137, 8167, 8161, 8164, 8175, 8165, 8151, 8170, 8164, 8172, 8192, 8155, 8180, 8121,8.11426329612732
50, 8119, 8151, 8184, 8154, 8164, 8175, 8150, 8168, 8154, 8160, 8166, 8141, 8157, 8112,8.1303231716156
51, 8111, 8145, 8148, 8154, 8161, 8180, 8160, 8170, 8164, 8172, 8155, 8132, 8159, 8111,8.1303231716156
52, 8104, 8134, 8137, 8136, 8143, 8166, 8151, 8160, 8165, 8173, 8149, 8125, 8159, 8107,8.145560264587402
53, 8105, 8135, 8165, 8116, 8131, 8160, 8135, 8165, 8162, 8158, 8147, 8134, 8159, 8105,8.145560264587402
54, 8120, 8147, 8134, 8127, 8147, 8160, 8147, 8167, 8183, 8170, 8167, 8141, 8171, 8112,8.160743474960327
55, 8133, 8156, 8182, 8130, 8150, 8151, 8143, 8169, 8175, 8163, 8178, 8160, 8169, 8119,8.160743474960327
56, 8118, 8154, 8164, 8125, 8143, 8144, 8126, 8163, 8149, 8139, 8170, 8147, 8159, 8104,8.175871849060059
57, 8106, 8157, 8144, 8131, 8149, 8149, 8118, 8156, 8131, 8124, 8163, 8127, 8145, 8090,8.175871849060059
58, 8111, 8173, 8183, 8154, 8158, 8171, 8131, 8167, 8136, 8129, 8168, 8136, 8139, 8091,8.191035985946655
59, 8110, 8168, 8143, 8175, 8157, 8174, 8149, 8165, 8151, 8150, 8170, 8117, 8142, 8088,8.191035985946655
60, 8110, 8160, 8167, 8159, 8152, 8169, 8148, 8171, 8144, 8144, 8152, 8109, 8139, 8104,8.206629514694214
61, 8114, 8162, 8171, 8155, 8152, 8174, 8165, 8179, 8161, 8157, 8153, 8127, 8156, 8129,8.206629514694214
62, 8120, 8154, 8157, 8151, 8146, 8165, 8168, 8175, 8185, 8180, 8163, 8142, 8177, 8131,8.222363471984863
63, 8133, 8156, 8183, 8139, 8146, 8162, 8149, 8180, 8186, 8176, 8168, 8148, 8179, 8134,8.222363471984863
64, 8140, 8164, 8147, 8152, 8158, 8160, 8144, 8170, 8192, 8181, 8186, 8142, 8187, 8131,8.23794150352478
65, 8136, 8166, 8181, 8147, 8152, 8146, 8126, 8166, 8171, 8166, 8189, 8153, 8184, 8119,8.23794150352478
66, 8124, 8160, 8176, 8136, 8144, 8139, 8112, 8170, 8146, 8147, 8182, 8147, 8170, 8112,8.253970623016357
67, 8130, 8159, 8152, 8138, 8153, 8133, 8113, 8163, 8141, 8143, 8186, 8137, 8163, 8105,8.253970623016357
68, 8144, 8184, 8202, 8151, 8161, 8153, 8129, 8172, 8146, 8151, 8188, 8155, 8165, 8103,8.269180297851562
69, 8134, 8190, 8165, 8183, 8164, 8172, 8153, 8169, 8160, 8174, 8190, 8137, 8172, 8102,8.269180297851562
70, 8126, 8179, 8179, 8192, 8165, 8166, 8143, 8161, 8151, 8171, 8187, 8127, 8160, 8109,8.284968852996826
71, 8126, 8176, 8190, 8176, 8172, 8175, 8149, 8167, 8147, 8168, 8185, 8139, 8159, 8114,8.284968852996826
72, 8122, 8155, 8163, 8138, 8174, 8187, 8170, 8166, 8158, 8172, 8167, 8121, 8157, 8103,8.300039768218994
73, 8117, 8142, 8195, 8124, 8164, 8188, 8166, 8173, 8161, 8164, 8145, 8116, 8141, 8104,8.300039768218994
74, 8110, 8147, 8149, 8175, 8163, 8176, 8164, 8170, 8178, 8182, 8174, 8132, 8160, 8113,8.315461158752441
75, 8121, 8151, 8168, 8187, 8159, 8160, 8158, 8167, 8174, 8193, 8208, 8162, 8184, 8130,8.330578565597534
76, 8140, 8168, 8203, 8185, 8156, 8163, 8155, 8174, 8164, 8186, 8214, 8179, 8186, 8145,8.330578565597534
77, 8151, 8191, 8182, 8221, 8160, 8161, 8154, 8167, 8173, 8186, 8224, 8185, 8196, 8139,8.346328496932983
78, 8154, 8202, 8227, 8221, 8146, 8155, 8140, 8169, 8169, 8179, 8242, 8218, 8206, 8129,8.346328496932983
79, 8162, 8197, 8204, 8224, 8140, 8151, 8136, 8169, 8162, 8176, 8259, 8224, 8208, 8127,8.346328496932983
80, 8177, 8202, 8215, 8259, 8153, 8150, 8126, 8167, 8150, 8165, 8261, 8232, 8200, 8141,8.362367391586304
81, 8177, 8220, 8238, 8295, 8164, 8160, 8128, 8173, 8156, 8167, 8267, 8255, 8202, 8152,8.362367391586304
82, 8175, 8221, 8212, 8307, 8167, 8167, 8143, 8167, 8161, 8181, 8274, 8247, 8203, 8152,8.37906002998352
83, 8180, 8225, 8259, 8309, 8165, 8178, 8142, 8171, 8135, 8169, 8251, 8238, 8176, 8152,8.39324688911438
84, 8174, 8218, 8228, 8321, 8163, 8190, 8157, 8169, 8140, 8174, 8227, 8220, 8165, 8143,8.39324688911438
85, 8173, 8199, 8216, 8301, 8155, 8188, 8169, 8164, 8159, 8183, 8228, 8224, 8180, 8143,8.39324688911438
86, 8184, 8199, 8237, 8285, 8143, 8188, 8172, 8175, 8162, 8181, 8231, 8232, 8190, 8160,8.410367250442505
87, 8185, 8191, 8199, 8294, 8140, 8184, 8178, 8169, 8172, 8186, 8226, 8219, 8192, 8168,8.410367250442505
88, 8188, 8182, 8230, 8285, 8145, 8180, 8167, 8169, 8178, 8186, 8225, 8238, 8196, 8168,8.425058364868164
89, 8175, 8179, 8198, 8270, 8154, 8181, 8158, 8171, 8185, 8192, 8228, 8230, 8204, 8155,8.440264225006104
90, 8154, 8165, 8181, 8253, 8147, 8166, 8146, 8161, 8167, 8171, 8212, 8208, 8190, 8134,8.440264225006104
91, 8159, 8168, 8211, 8253, 8143, 8154, 8139, 8162, 8148, 8148, 8205, 8220, 8178, 8132,8.456300258636475
92, 8176, 8184, 8172, 8271, 8152, 8149, 8134, 8158, 8154, 8150, 8223, 8214, 8184, 8135,8.456300258636475
93, 8180, 8193, 8208, 8256, 8142, 8150, 8116, 8162, 8145, 8141, 8225, 8210, 8181, 8132,8.456300258636475
94, 8162, 8188, 8191, 8248, 8142, 8157, 8136, 8172, 8146, 8152, 8219, 8201, 8179, 8123,8.472212791442871
95, 8145, 8180, 8165, 8258, 8158, 8162, 8163, 8167, 8143, 8162, 8202, 8175, 8159, 8113,8.487726211547852
96, 8135, 8177, 8191, 8248, 8160, 8179, 8160, 8163, 8125, 8155, 8181, 8156, 8142, 8113,8.487726211547852
97, 8134, 8164, 8153, 8240, 8159, 8188, 8165, 8166, 8143, 8181, 8189, 8152, 8163, 8129,8.50342583656311
98, 8151, 8167, 8187, 8243, 8166, 8186, 8172, 8181, 8171, 8202, 8199, 8181, 8174, 8154,8.50342583656311
99, 8147, 8173, 8179, 8245, 8175, 8189, 8176, 8177, 8182, 8202, 8193, 8170, 8163, 8150,8.50342583656311
100, 8131, 8149, 8142, 8212, 8165, 8178, 8164, 8162, 8179, 8201, 8182, 8139, 8157, 8131,8.519094228744507
101, 8134, 8135, 8165, 8179, 8154, 8178, 8161, 8176, 8191, 8216, 8191, 8160, 8176, 8142,8.534380197525024
102, 8138, 8140, 8135, 8186, 8157, 8181, 8181, 8179, 8221, 8229, 8197, 8163, 8195, 8150,8.534380197525024
103, 8134, 8143, 8161, 8175, 8150, 8166, 8163, 8171, 8198, 8202, 8171, 8149, 8177, 8139,8.5509672164917
104, 8133, 8139, 8151, 8166, 8144, 8160, 8146, 8166, 8168, 8188, 8173, 8145, 8174, 8130,8.5509672164917
105, 8151, 8139, 8133, 8169, 8151, 8160, 8161, 8165, 8184, 8199, 8207, 8160, 8197, 8133,8.565365552902222
106, 8160, 8153, 8188, 8155, 8161, 8166, 8174, 8180, 8196, 8192, 8210, 8179, 8192, 8138,8.565365552902222
107, 8149, 8149, 8150, 8155, 8163, 8165, 8179, 8177, 8190, 8188, 8203, 8155, 8179, 8130,8.58122205734253
108, 8146, 8150, 8163, 8157, 8161, 8158, 8169, 8170, 8170, 8180, 8200, 8151, 8168, 8120,8.58122205734253
109, 8138, 8169, 8174, 8163, 8174, 8171, 8167, 8173, 8165, 8176, 8198, 8159, 8153, 8112,8.596233129501343
110, 8121, 8170, 8146, 8173, 8184, 8180, 8176, 8164, 8159, 8170, 8197, 8143, 8146, 8112,8.596233129501343
111, 8119, 8164, 8183, 8171, 8175, 8182, 8185, 8172, 8138, 8165, 8190, 8140, 8149, 8117,8.611622333526611
112, 8121, 8155, 8144, 8172, 8176, 8186, 8200, 8175, 8142, 8190, 8180, 8130, 8150, 8116,8.611622333526611
113, 8118, 8142, 8147, 8155, 8177, 8190, 8187, 8168, 8142, 8186, 8157, 8126, 8134, 8117,8.627632856369019
114, 8108, 8139, 8158, 8152, 8171, 8200, 8180, 8170, 8149, 8168, 8145, 8120, 8134, 8117,8.627632856369019
115, 8097, 8128, 8118, 8152, 8175, 8196, 8192, 8169, 8177, 8186, 8150, 8111, 8145, 8115,8.643537044525146
116, 8090, 8117, 8142, 8116, 8171, 8191, 8183, 8177, 8185, 8190, 8141, 8123, 8136, 8113,8.643537044525146
117, 8086, 8119, 8111, 8105, 8160, 8189, 8182, 8176, 8195, 8189, 8136, 8111, 8140, 8103,8.659431219100952
118, 8100, 8134, 8128, 8115, 8157, 8188, 8184, 8171, 8199, 8190, 8147, 8115, 8158, 8107,8.659431219100952
119, 8110, 8143, 8147, 8116, 8163, 8184, 8176, 8175, 8191, 8190, 8156, 8138, 8168, 8119,8.675307035446167
120, 8102, 8129, 8106, 8109, 8159, 8160, 8169, 8167, 8180, 8177, 8151, 8125, 8163, 8104,8.675307035446167
121, 8111, 8132, 8156, 8097, 8148, 8157, 8175, 8173, 8172, 8153, 8142, 8131, 8155, 8096,8.690467596054077
122, 8117, 8147, 8139, 8108, 8155, 8175, 8193, 8180, 8190, 8166, 8162, 8142, 8167, 8109,8.690467596054077
123, 8116, 8151, 8134, 8107, 8153, 8167, 8172, 8175, 8174, 8170, 8174, 8143, 8163, 8113,8.706231117248535
124, 8115, 8153, 8160, 8098, 8154, 8167, 8158, 8174, 8148, 8154, 8149, 8136, 8136, 8097,8.706231117248535
125, 8103, 8139, 8121, 8115, 8169, 8178, 8184, 8163, 8161, 8156, 8124, 8110, 8120, 8085,8.72117805480957
126, 8093, 8139, 8164, 8125, 8157, 8193, 8198, 8166, 8161, 8158, 8115, 8112, 8112, 8095,8.72117805480957
127, 8093, 8148, 8153, 8134, 8148, 8201, 8210, 8172, 8163, 8176, 8125, 8117, 8123, 8109,8.736740112304688
236, 8108, 8141, 8146, 8131, 8161, 8183, 8205, 8167, 8171, 8186, 8135, 8124, 8134, 8118,8.736740112304688
0, 8125, 8138, 8183, 8126, 8165, 8177, 8191, 8176, 8180, 8182, 8148, 8149, 8144, 8127,8.752259254455566
1, 8135, 8134, 8144, 8127, 8156, 8176, 8186, 8173, 8192, 8182, 8165, 8150, 8158, 8121,8.752259254455566
2, 8142, 8140, 8174, 8103, 8147, 8163, 8166, 8172, 8176, 8160, 8163, 8163, 8151, 8114,8.768275022506714
3, 8138, 8162, 8163, 8110, 8158, 8162, 8166, 8178, 8175, 8161, 8173, 8167, 8153, 8117,8.768275022506714
4, 8129, 8159, 8146, 8129, 8169, 8168, 8172, 8168, 8175, 8174, 8174, 8150, 8146, 8110,8.783893346786499
5, 8115, 8138, 8167, 8113, 8161, 8172, 8165, 8166, 8160, 8167, 8142, 8129, 8117, 8097,8.783893346786499
6, 8106, 8130, 8118, 8110, 8161, 8175, 8181, 8166, 8162, 8169, 8122, 8103, 8112, 8095,8.799532175064087
7, 8126, 8142, 8160, 8119, 8174, 8190, 8208, 8175, 8173, 8174, 8126, 8128, 8127, 8125,8.799532175064087
8, 8140, 8141, 8161, 8120, 8170, 8190, 8209, 8176, 8193, 8192, 8139, 8145, 8143, 8144,8.814962387084961
9, 8141, 8122, 8128, 8092, 8143, 8156, 8176, 8165, 8186, 8185, 8135, 8130, 8141, 8129,8.814962387084961
10, 8142, 8127, 8164, 8076, 8140, 8153, 8161, 8169, 8161, 8146, 8115, 8136, 8129, 8114,8.83102297782898
11, 8130, 8125, 8130, 8090, 8158, 8164, 8177, 8162, 8165, 8142, 8109, 8126, 8127, 8104,8.83102297782898
12, 8127, 8114, 8150, 8070, 8145, 8144, 8165, 8164, 8154, 8145, 8117, 8128, 8126, 8111,8.84652328491211
13, 8132, 8123, 8148, 8061, 8137, 8134, 8161, 8172, 8147, 8147, 8133, 8139, 8133, 8118,8.84652328491211
14, 8125, 8129, 8123, 8081, 8159, 8146, 8167, 8164, 8144, 8143, 8131, 8130, 8129, 8103,8.862379550933838
15, 8111, 8136, 8162, 8076, 8164, 8157, 8155, 8170, 8123, 8124, 8116, 8122, 8101, 8084,8.862379550933838
16, 8104, 8148, 8124, 8084, 8158, 8142, 8167, 8169, 8133, 8134, 8121, 8106, 8093, 8075,8.87789249420166
17, 8121, 8162, 8157, 8104, 8168, 8132, 8177, 8169, 8149, 8148, 8129, 8120, 8105, 8090,8.87789249420166
18, 8137, 8176, 8182, 8124, 8184, 8156, 8173, 8175, 8155, 8161, 8140, 8140, 8119, 8110,8.89395809173584
19, 8135, 8172, 8143, 8132, 8183, 8162, 8166, 8167, 8155, 8163, 8143, 8127, 8125, 8106,8.89395809173584
20, 8124, 8171, 8179, 8130, 8174, 8164, 8162, 8173, 8144, 8151, 8129, 8122, 8115, 8097,8.90951418876648
21, 8118, 8167, 8153, 8142, 8187, 8188, 8187, 8173, 8160, 8176, 8130, 8112, 8122, 8098,8.90951418876648
22, 8119, 8158, 8159, 8133, 8202, 8204, 8196, 8170, 8171, 8184, 8124, 8108, 8120, 8098,8.925134658813477
23, 8112, 8156, 8168, 8132, 8210, 8203, 8197, 8174, 8166, 8162, 8108, 8100, 8109, 8098,8.925134658813477
24, 8114, 8155, 8137, 8151, 8208, 8191, 8205, 8173, 8173, 8169, 8112, 8092, 8113, 8110,8.9412522315979
25, 8132, 8156, 8179, 8136, 8193, 8195, 8200, 8184, 8181, 8190, 8122, 8117, 8125, 8127,8.9412522315979
26, 8127, 8140, 8143, 8121, 8178, 8199, 8191, 8178, 8186, 8199, 8120, 8112, 8136, 8123,8.9564208984375
27, 8120, 8126, 8143, 8118, 8172, 8186, 8176, 8163, 8175, 8189, 8114, 8106, 8134, 8119,8.9564208984375
28, 8132, 8139, 8170, 8118, 8182, 8184, 8181, 8171, 8181, 8193, 8121, 8122, 8138, 8128,8.971977233886719
29, 8136, 8146, 8139, 8113, 8187, 8179, 8187, 8169, 8200, 8203, 8136, 8116, 8152, 8124,8.971977233886719
