COUNTER,F3,FC5,AF3,F7,T7,P7,O1,O2,P8,T8,F8,AF4,FC6,F4,Timestamp
118, 8218, 8204, 8204, 8203, 8208, 8222, 8208, 8191, 8280, 8191, 8020, 8170, 8171, 8165,0.0009984970092773438
119, 8206, 8192, 8176, 8203, 8197, 8223, 8214, 8181, 8283, 8173, 7981, 8155, 8155, 8130,0.009006738662719727
119, 8206, 8192, 8176, 8203, 8197, 8223, 8214, 8181, 8283, 8173, 7981, 8155, 8155, 8130,0.009006738662719727
120, 8175, 8161, 8135, 8175, 8211, 8222, 8208, 8161, 8159, 8167, 7969, 8131, 8153, 8105,0.017015457153320312
120, 8175, 8161, 8135, 8175, 8211, 8222, 8208, 8161, 8159, 8167, 7969, 8131, 8153, 8105,0.017015457153320312
121, 8169, 8187, 8151, 8172, 8198, 8215, 8171, 8171, 8248, 8148, 7971, 8168, 8167, 8107,0.024013280868530273
121, 8169, 8187, 8151, 8172, 8198, 8215, 8171, 8171, 8248, 8148, 7971, 8168, 8167, 8107,0.024013280868530273
122, 8171, 8159, 8145, 8169, 8205, 8212, 8186, 8174, 8166, 8173, 7972, 8143, 8158, 8103,0.03247404098510742
122, 8171, 8159, 8145, 8169, 8205, 8212, 8186, 8174, 8166, 8173, 7972, 8143, 8158, 8103,0.03247404098510742
123, 8177, 8161, 8146, 8172, 8201, 8211, 8181, 8166, 8186, 8162, 7957, 8153, 8159, 8111,0.04005861282348633
123, 8177, 8161, 8146, 8172, 8201, 8211, 8181, 8166, 8186, 8162, 7957, 8153, 8159, 8111,0.04005861282348633
124, 8150, 8157, 8157, 8166, 8180, 8207, 8162, 8167, 8213, 8147, 7974, 8159, 8166, 8106,0.04805254936218262
124, 8150, 8157, 8157, 8166, 8180, 8207, 8162, 8167, 8213, 8147, 7974, 8159, 8166, 8106,0.04805254936218262
125, 8163, 8144, 8156, 8168, 8183, 8220, 8183, 8179, 8139, 8184, 7987, 8143, 8163, 8114,0.056052446365356445
125, 8163, 8144, 8156, 8168, 8183, 8220, 8183, 8179, 8139, 8184, 7987, 8143, 8163, 8114,0.057051897048950195
126, 8184, 8170, 8157, 8171, 8173, 8229, 8188, 8176, 8239, 8177, 7967, 8174, 8166, 8121,0.06505155563354492
126, 8184, 8170, 8157, 8171, 8173, 8229, 8188, 8176, 8239, 8177, 7967, 8174, 8166, 8121,0.06505155563354492
127, 8157, 8149, 8151, 8160, 8186, 8222, 8187, 8160, 8166, 8172, 8002, 8144, 8169, 8111,0.07205319404602051
127, 8157, 8149, 8151, 8160, 8186, 8222, 8187, 8160, 8166, 8172, 8002, 8144, 8169, 8111,0.07205319404602051
240, 8161, 8169, 8165, 8176, 8186, 8220, 8172, 8174, 8204, 8169, 8016, 8152, 8167, 8114,0.08005094528198242
240, 8161, 8169, 8165, 8176, 8186, 8220, 8172, 8174, 8204, 8169, 8016, 8152, 8167, 8114,0.08005094528198242
0, 8158, 8174, 8154, 8174, 8176, 8219, 8171, 8182, 8254, 8169, 7988, 8158, 8161, 8101,0.08805251121520996
0, 8158, 8174, 8154, 8174, 8176, 8219, 8171, 8182, 8254, 8169, 7988, 8158, 8161, 8101,0.08805251121520996
1, 8176, 8154, 8146, 8168, 8188, 8224, 8191, 8174, 8160, 8189, 7996, 8141, 8162, 8111,0.09505057334899902
1, 8176, 8154, 8146, 8168, 8188, 8224, 8191, 8174, 8160, 8189, 7996, 8141, 8162, 8111,0.09505057334899902
2, 8204, 8191, 8175, 8184, 8181, 8229, 8183, 8180, 8277, 8173, 8010, 8188, 8170, 8137,0.10305047035217285
2, 8204, 8191, 8175, 8184, 8181, 8229, 8183, 8180, 8277, 8173, 8010, 8188, 8170, 8137,0.10305047035217285
3, 8173, 8178, 8163, 8171, 8195, 8233, 8194, 8181, 8222, 8186, 8025, 8164, 8166, 8130,0.11105012893676758
3, 8173, 8178, 8163, 8171, 8195, 8233, 8194, 8181, 8222, 8186, 8025, 8164, 8166, 8130,0.11105012893676758
4, 8178, 8179, 8161, 8177, 8196, 8232, 8192, 8185, 8223, 8189, 8018, 8158, 8167, 8127,0.11905670166015625
4, 8178, 8179, 8161, 8177, 8196, 8232, 8192, 8185, 8223, 8189, 8018, 8158, 8167, 8127,0.11905670166015625
5, 8185, 8181, 8166, 8189, 8174, 8229, 8180, 8184, 8281, 8172, 8005, 8169, 8171, 8119,0.12705564498901367
5, 8185, 8181, 8166, 8189, 8174, 8229, 8180, 8184, 8281, 8172, 8005, 8169, 8171, 8119,0.12705564498901367
6, 8178, 8155, 8145, 8179, 8184, 8245, 8202, 8176, 8179, 8195, 8020, 8137, 8167, 8120,0.13530921936035156
6, 8178, 8155, 8145, 8179, 8184, 8245, 8202, 8176, 8179, 8195, 8020, 8137, 8167, 8120,0.13530921936035156
7, 8171, 8175, 8141, 8169, 8168, 8250, 8195, 8179, 8267, 8183, 8011, 8164, 8165, 8121,0.14330697059631348
7, 8171, 8175, 8141, 8169, 8168, 8250, 8195, 8179, 8267, 8183, 8011, 8164, 8165, 8121,0.14330697059631348
8, 8133, 8148, 8116, 8146, 8166, 8235, 8186, 8170, 8186, 8171, 8015, 8148, 8157, 8103,0.15047955513000488
8, 8133, 8148, 8116, 8146, 8166, 8235, 8186, 8170, 8186, 8171, 8015, 8148, 8157, 8103,0.15047955513000488
9, 8143, 8154, 8125, 8158, 8162, 8228, 8175, 8165, 8154, 8168, 8023, 8155, 8164, 8114,0.1584768295288086
9, 8143, 8154, 8125, 8158, 8162, 8228, 8175, 8165, 8154, 8168, 8023, 8155, 8164, 8114,0.1584768295288086
10, 8150, 8179, 8149, 8173, 8137, 8226, 8166, 8174, 8252, 8166, 8020, 8177, 8169, 8120,0.1665046215057373
10, 8150, 8179, 8149, 8173, 8137, 8226, 8166, 8174, 8252, 8166, 8020, 8177, 8169, 8120,0.1665046215057373
11, 8158, 8160, 8140, 8174, 8158, 8238, 8182, 8178, 8176, 8199, 8039, 8147, 8160, 8130,0.1744976043701172
11, 8158, 8160, 8140, 8174, 8158, 8238, 8182, 8178, 8176, 8199, 8039, 8147, 8160, 8130,0.17488765716552734
12, 8195, 8184, 8156, 8185, 8160, 8230, 8166, 8183, 8273, 8200, 8034, 8178, 8172, 8154,0.18247652053833008
12, 8195, 8184, 8156, 8185, 8160, 8230, 8166, 8183, 8273, 8200, 8034, 8178, 8172, 8154,0.18247652053833008
13, 8176, 8164, 8145, 8164, 8143, 8204, 8163, 8170, 8221, 8200, 8025, 8158, 8176, 8139,0.19048094749450684
13, 8176, 8164, 8145, 8164, 8143, 8204, 8163, 8170, 8221, 8200, 8025, 8158, 8176, 8139,0.19048094749450684
14, 8174, 8162, 8129, 8162, 8139, 8217, 8183, 8172, 8169, 8196, 8011, 8150, 8166, 8137,0.1980135440826416
14, 8174, 8162, 8129, 8162, 8139, 8217, 8183, 8172, 8169, 8196, 8011, 8150, 8166, 8137,0.1980135440826416
15, 8176, 8181, 8143, 8176, 8147, 8231, 8189, 8183, 8275, 8181, 8005, 8179, 8164, 8144,0.20601177215576172
15, 8176, 8181, 8143, 8176, 8147, 8231, 8189, 8183, 8275, 8181, 8005, 8179, 8164, 8144,0.20601177215576172
16, 8153, 8148, 8141, 8166, 8165, 8215, 8188, 8170, 8172, 8194, 8030, 8140, 8163, 8132,0.2144780158996582
16, 8153, 8148, 8141, 8166, 8165, 8215, 8188, 8170, 8172, 8194, 8030, 8140, 8163, 8132,0.2144780158996582
17, 8163, 8169, 8148, 8175, 8139, 8204, 8168, 8171, 8223, 8173, 8016, 8161, 8164, 8120,0.2214803695678711
17, 8163, 8169, 8148, 8175, 8139, 8204, 8168, 8171, 8223, 8173, 8016, 8161, 8164, 8120,0.2214803695678711
18, 8168, 8170, 8148, 8177, 8140, 8208, 8182, 8178, 8221, 8184, 8016, 8165, 8162, 8113,0.22922801971435547
18, 8168, 8170, 8148, 8177, 8140, 8208, 8182, 8178, 8221, 8184, 8016, 8165, 8162, 8113,0.22922801971435547
19, 8171, 8165, 8155, 8172, 8152, 8211, 8186, 8175, 8180, 8203, 8031, 8150, 8161, 8120,0.23722386360168457
19, 8171, 8165, 8155, 8172, 8152, 8211, 8186, 8175, 8180, 8203, 8031, 8150, 8161, 8120,0.23722386360168457
20, 8153, 8174, 8144, 8166, 8121, 8208, 8155, 8165, 8241, 8170, 8010, 8156, 8160, 8099,0.2454819679260254
20, 8153, 8174, 8144, 8166, 8121, 8208, 8155, 8165, 8241, 8170, 8010, 8156, 8160, 8099,0.2454819679260254
21, 8145, 8146, 8119, 8157, 8145, 8220, 8177, 8161, 8136, 8185, 8021, 8133, 8157, 8093,0.2534773349761963
21, 8145, 8146, 8119, 8157, 8145, 8220, 8177, 8161, 8136, 8185, 8021, 8133, 8157, 8093,0.2534773349761963
22, 8158, 8162, 8139, 8159, 8151, 8216, 8172, 8172, 8217, 8184, 8023, 8166, 8164, 8111,0.261476993560791
22, 8158, 8162, 8139, 8159, 8151, 8216, 8172, 8172, 8217, 8184, 8023, 8166, 8164, 8111,0.261476993560791
23, 8133, 8145, 8129, 8149, 8115, 8197, 8151, 8164, 8193, 8172, 8009, 8149, 8159, 8093,0.26947641372680664
23, 8133, 8145, 8129, 8149, 8115, 8197, 8151, 8164, 8193, 8172, 8009, 8149, 8159, 8093,0.26947641372680664
24, 8160, 8150, 8120, 8163, 8118, 8206, 8168, 8156, 8116, 8181, 8016, 8129, 8152, 8098,0.2779057025909424
24, 8160, 8150, 8120, 8163, 8118, 8206, 8168, 8156, 8116, 8181, 8016, 8129, 8152, 8098,0.2779057025909424
25, 8172, 8183, 8146, 8167, 8139, 8210, 8165, 8164, 8239, 8156, 8021, 8171, 8163, 8100,0.28409624099731445
25, 8172, 8183, 8146, 8167, 8139, 8210, 8165, 8164, 8239, 8156, 8021, 8171, 8163, 8100,0.28409624099731445
26, 8140, 8144, 8137, 8151, 8148, 8199, 8161, 8160, 8132, 8161, 8028, 8143, 8160, 8085,0.2919938564300537
26, 8140, 8144, 8137, 8151, 8148, 8199, 8161, 8160, 8132, 8161, 8028, 8143, 8160, 8085,0.2919938564300537
27, 8170, 8164, 8145, 8170, 8122, 8195, 8153, 8152, 8162, 8161, 8017, 8156, 8156, 8105,0.29999375343322754
27, 8170, 8164, 8145, 8170, 8122, 8195, 8153, 8152, 8162, 8161, 8017, 8156, 8156, 8105,0.29999375343322754
28, 8167, 8173, 8151, 8165, 8134, 8191, 8155, 8146, 8199, 8164, 8032, 8165, 8170, 8111,0.30847787857055664
28, 8167, 8173, 8151, 8165, 8134, 8191, 8155, 8146, 8199, 8164, 8032, 8165, 8170, 8111,0.30847787857055664
29, 8161, 8158, 8145, 8157, 8157, 8190, 8169, 8152, 8133, 8178, 8049, 8150, 8178, 8114,0.3164796829223633
29, 8161, 8158, 8145, 8157, 8157, 8190, 8169, 8152, 8133, 8178, 8049, 8150, 8178, 8114,0.3164796829223633
30, 8177, 8181, 8158, 8167, 8122, 8187, 8159, 8160, 8231, 8150, 8039, 8179, 8169, 8117,0.32454490661621094
30, 8177, 8181, 8158, 8167, 8122, 8187, 8159, 8160, 8231, 8150, 8039, 8179, 8169, 8117,0.32454490661621094
31, 8157, 8155, 8146, 8153, 8130, 8183, 8162, 8145, 8128, 8150, 8065, 8147, 8163, 8111,0.3318617343902588
31, 8157, 8155, 8146, 8153, 8130, 8183, 8162, 8145, 8128, 8150, 8065, 8147, 8163, 8111,0.3328537940979004
32, 8170, 8167, 8146, 8164, 8143, 8184, 8150, 8146, 8143, 8148, 8059, 8162, 8171, 8126,0.34088706970214844
32, 8170, 8167, 8146, 8164, 8143, 8184, 8150, 8146, 8143, 8148, 8059, 8162, 8171, 8126,0.34088706970214844
33, 8171, 8172, 8144, 8164, 8126, 8182, 8140, 8152, 8185, 8145, 8038, 8176, 8164, 8121,0.3484764099121094
33, 8171, 8172, 8144, 8164, 8126, 8182, 8140, 8152, 8185, 8145, 8038, 8176, 8164, 8121,0.3484764099121094
34, 8159, 8153, 8131, 8156, 8132, 8177, 8147, 8146, 8090, 8157, 8047, 8144, 8155, 8110,0.35547637939453125
34, 8159, 8153, 8131, 8156, 8132, 8177, 8147, 8146, 8090, 8157, 8047, 8144, 8155, 8110,0.35547637939453125
35, 8174, 8181, 8144, 8176, 8132, 8169, 8139, 8155, 8195, 8138, 8043, 8170, 8167, 8116,0.3634777069091797
35, 8174, 8181, 8144, 8176, 8132, 8169, 8139, 8155, 8195, 8138, 8043, 8170, 8167, 8116,0.3634777069091797
36, 8177, 8166, 8146, 8172, 8147, 8182, 8160, 8150, 8143, 8161, 8050, 8152, 8168, 8122,0.37192249298095703
36, 8177, 8166, 8146, 8172, 8147, 8182, 8160, 8150, 8143, 8161, 8050, 8152, 8168, 8122,0.37192249298095703
37, 8180, 8175, 8161, 8168, 8146, 8189, 8157, 8145, 8155, 8164, 8044, 8160, 8165, 8127,0.37992072105407715
37, 8180, 8175, 8161, 8168, 8146, 8189, 8157, 8145, 8155, 8164, 8044, 8160, 8165, 8127,0.37992072105407715
38, 8171, 8178, 8164, 8166, 8142, 8172, 8150, 8153, 8199, 8140, 8040, 8166, 8165, 8112,0.3879687786102295
38, 8171, 8178, 8164, 8166, 8142, 8172, 8150, 8153, 8199, 8140, 8040, 8166, 8165, 8112,0.3879687786102295
39, 8179, 8159, 8153, 8166, 8169, 8177, 8172, 8158, 8109, 8156, 8063, 8138, 8163, 8119,0.39496564865112305
39, 8179, 8159, 8153, 8166, 8169, 8177, 8172, 8158, 8109, 8156, 8063, 8138, 8163, 8119,0.39496564865112305
40, 8172, 8187, 8162, 8176, 8144, 8185, 8150, 8154, 8215, 8145, 8055, 8173, 8171, 8129,0.40296506881713867
40, 8172, 8187, 8162, 8176, 8144, 8185, 8150, 8154, 8215, 8145, 8055, 8173, 8171, 8129,0.40296506881713867
41, 8153, 8165, 8154, 8165, 8138, 8167, 8153, 8153, 8159, 8160, 8055, 8160, 8175, 8122,0.4109652042388916
41, 8153, 8165, 8154, 8165, 8138, 8167, 8153, 8153, 8159, 8160, 8055, 8160, 8175, 8122,0.4109652042388916
42, 8194, 8174, 8164, 8176, 8163, 8169, 8172, 8169, 8173, 8173, 8070, 8168, 8178, 8146,0.4179694652557373
42, 8194, 8174, 8164, 8176, 8163, 8169, 8172, 8169, 8173, 8173, 8070, 8168, 8178, 8146,0.41896939277648926
43, 8189, 8185, 8171, 8185, 8164, 8182, 8163, 8160, 8239, 8156, 8065, 8172, 8170, 8133,0.42647480964660645
43, 8189, 8185, 8171, 8185, 8164, 8182, 8163, 8160, 8239, 8156, 8065, 8172, 8170, 8133,0.42647480964660645
44, 8166, 8157, 8151, 8184, 8173, 8190, 8171, 8141, 8105, 8168, 8053, 8133, 8156, 8105,0.434476375579834
44, 8166, 8157, 8151, 8184, 8173, 8190, 8171, 8141, 8105, 8168, 8053, 8133, 8156, 8105,0.434476375579834
45, 8184, 8188, 8155, 8192, 8166, 8189, 8160, 8157, 8202, 8157, 8036, 8175, 8164, 8111,0.4424746036529541
45, 8184, 8188, 8155, 8192, 8166, 8189, 8160, 8157, 8202, 8157, 8036, 8175, 8164, 8111,0.4424746036529541
46, 8168, 8173, 8148, 8184, 8173, 8188, 8165, 8163, 8187, 8175, 8058, 8160, 8163, 8104,0.4504737854003906
46, 8168, 8173, 8148, 8184, 8173, 8188, 8165, 8163, 8187, 8175, 8058, 8160, 8163, 8104,0.4504737854003906
47, 8181, 8162, 8151, 8193, 8176, 8209, 8185, 8166, 8172, 8195, 8062, 8147, 8158, 8107,0.45864105224609375
47, 8181, 8162, 8151, 8193, 8176, 8209, 8185, 8166, 8172, 8195, 8062, 8147, 8158, 8107,0.45864105224609375
48, 8170, 8160, 8137, 8175, 8155, 8219, 8178, 8167, 8239, 8163, 8031, 8162, 8163, 8101,0.46666812896728516
48, 8170, 8160, 8137, 8175, 8155, 8219, 8178, 8167, 8239, 8163, 8031, 8162, 8163, 8101,0.46666812896728516
49, 8117, 8120, 8094, 8138, 8157, 8209, 8160, 8144, 8082, 8142, 8033, 8125, 8153, 8083,0.47467660903930664
49, 8117, 8120, 8094, 8138, 8157, 8209, 8160, 8144, 8082, 8142, 8033, 8125, 8153, 8083,0.47467660903930664
50, 8127, 8149, 8112, 8153, 8139, 8202, 8143, 8144, 8138, 8128, 8026, 8153, 8155, 8083,0.4816758632659912
50, 8127, 8149, 8112, 8153, 8139, 8202, 8143, 8144, 8138, 8128, 8026, 8153, 8155, 8083,0.4816758632659912
51, 8155, 8158, 8133, 8170, 8153, 8211, 8171, 8164, 8162, 8163, 8038, 8151, 8170, 8092,0.4894747734069824
51, 8155, 8158, 8133, 8170, 8153, 8211, 8171, 8164, 8162, 8163, 8038, 8151, 8170, 8092,0.4894747734069824
52, 8178, 8167, 8139, 8174, 8181, 8223, 8181, 8173, 8166, 8192, 8057, 8144, 8175, 8121,0.4974379539489746
52, 8178, 8167, 8139, 8174, 8181, 8223, 8181, 8173, 8166, 8192, 8057, 8144, 8175, 8121,0.4974379539489746
53, 8158, 8173, 8137, 8163, 8159, 8214, 8157, 8163, 8230, 8159, 8035, 8162, 8156, 8109,0.5054688453674316
53, 8158, 8173, 8137, 8163, 8159, 8214, 8157, 8163, 8230, 8159, 8035, 8162, 8156, 8109,0.5054688453674316
54, 8130, 8130, 8104, 8144, 8158, 8212, 8172, 8149, 8072, 8143, 8027, 8124, 8142, 8077,0.5134737491607666
54, 8130, 8130, 8104, 8144, 8158, 8212, 8172, 8149, 8072, 8143, 8027, 8124, 8142, 8077,0.5134737491607666
55, 8156, 8159, 8117, 8155, 8152, 8219, 8173, 8163, 8150, 8141, 8034, 8152, 8164, 8096,0.5218524932861328
55, 8156, 8159, 8117, 8155, 8152, 8219, 8173, 8163, 8150, 8141, 8034, 8152, 8164, 8096,0.5218524932861328
56, 8156, 8163, 8127, 8155, 8149, 8219, 8180, 8175, 8197, 8171, 8061, 8158, 8171, 8116,0.5293917655944824
56, 8156, 8163, 8127, 8155, 8149, 8219, 8180, 8175, 8197, 8171, 8061, 8158, 8171, 8116,0.5293917655944824
57, 8156, 8151, 8114, 8152, 8162, 8220, 8192, 8171, 8148, 8175, 8062, 8139, 8158, 8116,0.5374376773834229
57, 8156, 8151, 8114, 8152, 8162, 8220, 8192, 8171, 8148, 8175, 8062, 8139, 8158, 8116,0.5374376773834229
58, 8141, 8164, 8107, 8150, 8161, 8215, 8168, 8168, 8213, 8135, 8034, 8153, 8154, 8097,0.5453987121582031
58, 8141, 8164, 8107, 8150, 8161, 8215, 8168, 8168, 8213, 8135, 8034, 8153, 8154, 8097,0.5453987121582031
59, 8126, 8135, 8088, 8140, 8172, 8213, 8167, 8160, 8095, 8151, 8046, 8125, 8150, 8088,0.552398681640625
59, 8126, 8135, 8088, 8140, 8172, 8213, 8167, 8160, 8095, 8151, 8046, 8125, 8150, 8088,0.552398681640625
60, 8156, 8156, 8098, 8152, 8163, 8216, 8167, 8161, 8155, 8146, 8042, 8152, 8158, 8102,0.560474157333374
60, 8156, 8156, 8098, 8152, 8163, 8216, 8167, 8161, 8155, 8146, 8042, 8152, 8158, 8102,0.560474157333374
61, 8132, 8154, 8093, 8140, 8162, 8214, 8165, 8151, 8162, 8132, 8037, 8148, 8160, 8086,0.5684738159179688
61, 8132, 8154, 8093, 8140, 8162, 8214, 8165, 8151, 8162, 8132, 8037, 8148, 8160, 8086,0.5684738159179688
62, 8131, 8143, 8094, 8136, 8173, 8221, 8174, 8143, 8071, 8142, 8048, 8129, 8156, 8081,0.5764498710632324
62, 8131, 8143, 8094, 8136, 8173, 8221, 8174, 8143, 8071, 8142, 8048, 8129, 8156, 8081,0.5764498710632324
63, 8161, 8167, 8123, 8147, 8159, 8224, 8166, 8148, 8174, 8109, 8034, 8167, 8161, 8085,0.5844748020172119
63, 8161, 8167, 8123, 8147, 8159, 8224, 8166, 8148, 8174, 8109, 8034, 8167, 8161, 8085,0.5844748020172119
64, 8134, 8142, 8106, 8129, 8176, 8217, 8168, 8149, 8091, 8120, 8050, 8135, 8162, 8085,0.5924978256225586
64, 8134, 8142, 8106, 8129, 8176, 8217, 8168, 8149, 8091, 8120, 8050, 8135, 8162, 8085,0.5924978256225586
65, 8133, 8153, 8102, 8137, 8179, 8217, 8157, 8168, 8134, 8147, 8049, 8147, 8168, 8104,0.6006605625152588
65, 8133, 8153, 8102, 8137, 8179, 8217, 8157, 8168, 8134, 8147, 8049, 8147, 8168, 8104,0.6006605625152588
66, 8134, 8138, 8096, 8133, 8169, 8227, 8168, 8170, 8170, 8142, 8030, 8151, 8165, 8101,0.6083402633666992
66, 8134, 8138, 8096, 8133, 8169, 8227, 8168, 8170, 8170, 8142, 8030, 8151, 8165, 8101,0.6083402633666992
67, 8120, 8120, 8080, 8120, 8178, 8226, 8186, 8156, 8079, 8134, 8036, 8118, 8152, 8092,0.6153512001037598
67, 8120, 8120, 8080, 8120, 8178, 8226, 8186, 8156, 8079, 8134, 8036, 8118, 8152, 8092,0.6153512001037598
68, 8115, 8158, 8092, 8133, 8166, 8216, 8166, 8168, 8186, 8126, 8035, 8147, 8158, 8084,0.6234688758850098
68, 8115, 8158, 8092, 8133, 8166, 8216, 8166, 8168, 8186, 8126, 8035, 8147, 8158, 8084,0.6234688758850098
69, 8112, 8135, 8083, 8133, 8184, 8236, 8187, 8170, 8127, 8154, 8039, 8129, 8161, 8085,0.6314742565155029
69, 8112, 8135, 8083, 8133, 8184, 8236, 8187, 8170, 8127, 8154, 8039, 8129, 8161, 8085,0.6314742565155029
70, 8132, 8142, 8088, 8137, 8195, 8256, 8201, 8169, 8162, 8146, 8031, 8143, 8162, 8110,0.6394977569580078
70, 8132, 8142, 8088, 8137, 8195, 8256, 8201, 8169, 8162, 8146, 8031, 8143, 8162, 8110,0.6394977569580078
71, 8123, 8148, 8090, 8126, 8179, 8229, 8179, 8168, 8204, 8132, 8029, 8150, 8164, 8103,0.6474382877349854
71, 8123, 8148, 8090, 8126, 8179, 8229, 8179, 8168, 8204, 8132, 8029, 8150, 8164, 8103,0.6474382877349854
72, 8115, 8130, 8080, 8114, 8178, 8207, 8167, 8152, 8075, 8144, 8039, 8114, 8160, 8088,0.6554641723632812
72, 8115, 8130, 8080, 8114, 8178, 8207, 8167, 8152, 8075, 8144, 8039, 8114, 8160, 8088,0.6554641723632812
73, 8121, 8161, 8092, 8125, 8163, 8213, 8150, 8146, 8155, 8130, 8029, 8147, 8164, 8084,0.6634640693664551
73, 8121, 8161, 8092, 8125, 8163, 8213, 8150, 8146, 8155, 8130, 8029, 8147, 8164, 8084,0.6634640693664551
74, 8122, 8147, 8097, 8127, 8187, 8226, 8181, 8159, 8130, 8163, 8046, 8138, 8166, 8090,0.6716079711914062
74, 8122, 8147, 8097, 8127, 8187, 8226, 8181, 8159, 8130, 8163, 8046, 8138, 8166, 8090,0.6720051765441895
75, 8156, 8158, 8107, 8133, 8205, 8232, 8200, 8172, 8167, 8160, 8036, 8145, 8164, 8118,0.679473876953125
75, 8156, 8158, 8107, 8133, 8205, 8232, 8200, 8172, 8167, 8160, 8036, 8145, 8164, 8118,0.679473876953125
76, 8130, 8162, 8095, 8118, 8181, 8213, 8172, 8162, 8201, 8122, 8025, 8148, 8164, 8104,0.6869380474090576
76, 8130, 8162, 8095, 8118, 8181, 8213, 8172, 8162, 8201, 8122, 8025, 8148, 8164, 8104,0.6869380474090576
77, 8112, 8139, 8091, 8123, 8193, 8216, 8177, 8157, 8094, 8154, 8054, 8124, 8167, 8096,0.694474458694458
77, 8112, 8139, 8091, 8123, 8193, 8216, 8177, 8157, 8094, 8154, 8054, 8124, 8167, 8096,0.6949567794799805
78, 8150, 8173, 8130, 8146, 8201, 8229, 8178, 8168, 8223, 8163, 8048, 8168, 8172, 8123,0.7029726505279541
78, 8150, 8173, 8130, 8146, 8201, 8229, 8178, 8168, 8223, 8163, 8048, 8168, 8172, 8123,0.7029726505279541
79, 8141, 8156, 8127, 8126, 8204, 8209, 8175, 8161, 8184, 8166, 8055, 8151, 8169, 8120,0.7104551792144775
79, 8141, 8156, 8127, 8126, 8204, 8209, 8175, 8161, 8184, 8166, 8055, 8151, 8169, 8120,0.7104551792144775
80, 8157, 8159, 8132, 8132, 8199, 8196, 8177, 8167, 8183, 8176, 8073, 8147, 8172, 8127,0.7184572219848633
80, 8157, 8159, 8132, 8132, 8199, 8196, 8177, 8167, 8183, 8176, 8073, 8147, 8172, 8127,0.7184572219848633
81, 8157, 8174, 8140, 8141, 8190, 8201, 8185, 8178, 8279, 8169, 8071, 8160, 8169, 8130,0.7264747619628906
81, 8157, 8174, 8140, 8141, 8190, 8201, 8185, 8178, 8279, 8169, 8071, 8160, 8169, 8130,0.7264747619628906
82, 8148, 8157, 8126, 8140, 8214, 8201, 8203, 8172, 8180, 8198, 8083, 8128, 8161, 8134,0.734473705291748
82, 8148, 8157, 8126, 8140, 8214, 8201, 8203, 8172, 8180, 8198, 8083, 8128, 8161, 8134,0.734473705291748
83, 8175, 8193, 8147, 8158, 8206, 8189, 8186, 8178, 8277, 8191, 8068, 8159, 8167, 8141,0.7424941062927246
83, 8175, 8193, 8147, 8158, 8206, 8189, 8186, 8178, 8277, 8191, 8068, 8159, 8167, 8141,0.7424941062927246
84, 8154, 8167, 8129, 8132, 8198, 8172, 8184, 8173, 8232, 8173, 8057, 8142, 8161, 8125,0.7494940757751465
84, 8154, 8167, 8129, 8132, 8198, 8172, 8184, 8173, 8232, 8173, 8057, 8142, 8161, 8125,0.7505075931549072
85, 8143, 8145, 8103, 8110, 8187, 8160, 8182, 8165, 8166, 8171, 8053, 8132, 8157, 8134,0.7576122283935547
85, 8143, 8145, 8103, 8110, 8187, 8160, 8182, 8165, 8166, 8171, 8053, 8132, 8157, 8134,0.7576122283935547
86, 8131, 8163, 8113, 8115, 8159, 8151, 8162, 8161, 8230, 8155, 8041, 8160, 8166, 8129,0.7656083106994629
86, 8131, 8163, 8113, 8115, 8159, 8151, 8162, 8161, 8230, 8155, 8041, 8160, 8166, 8129,0.7656083106994629
87, 8118, 8145, 8105, 8112, 8168, 8159, 8171, 8158, 8118, 8162, 8057, 8131, 8162, 8117,0.7734758853912354
87, 8118, 8145, 8105, 8112, 8168, 8159, 8171, 8158, 8118, 8162, 8057, 8131, 8162, 8117,0.7734758853912354
88, 8144, 8164, 8110, 8120, 8162, 8160, 8166, 8170, 8203, 8158, 8047, 8156, 8159, 8132,0.7814750671386719
88, 8144, 8164, 8110, 8120, 8162, 8160, 8166, 8170, 8203, 8158, 8047, 8156, 8159, 8132,0.7814750671386719
89, 8137, 8152, 8114, 8118, 8161, 8156, 8172, 8164, 8195, 8172, 8042, 8153, 8156, 8136,0.7894737720489502
89, 8137, 8152, 8114, 8118, 8161, 8156, 8172, 8164, 8195, 8172, 8042, 8153, 8156, 8136,0.7894737720489502
90, 8145, 8157, 8126, 8126, 8167, 8166, 8180, 8160, 8141, 8176, 8057, 8146, 8162, 8145,0.7975664138793945
90, 8145, 8157, 8126, 8126, 8167, 8166, 8180, 8160, 8141, 8176, 8057, 8146, 8162, 8145,0.7975664138793945
91, 8154, 8177, 8132, 8134, 8156, 8160, 8168, 8164, 8237, 8145, 8049, 8166, 8170, 8141,0.8055765628814697
91, 8154, 8177, 8132, 8134, 8156, 8160, 8168, 8164, 8237, 8145, 8049, 8166, 8170, 8141,0.8055765628814697
92, 8140, 8144, 8115, 8128, 8171, 8150, 8178, 8158, 8134, 8168, 8060, 8135, 8162, 8130,0.8129386901855469
92, 8140, 8144, 8115, 8128, 8171, 8150, 8178, 8158, 8134, 8168, 8060, 8135, 8162, 8130,0.8139393329620361
93, 8162, 8175, 8132, 8148, 8154, 8147, 8168, 8170, 8199, 8168, 8070, 8166, 8165, 8146,0.8199377059936523
93, 8162, 8175, 8132, 8148, 8154, 8147, 8168, 8170, 8199, 8168, 8070, 8166, 8165, 8146,0.8199377059936523
94, 8161, 8177, 8132, 8146, 8148, 8149, 8175, 8169, 8212, 8163, 8082, 8160, 8170, 8144,0.8284687995910645
94, 8161, 8177, 8132, 8146, 8148, 8149, 8175, 8169, 8212, 8163, 8082, 8160, 8170, 8144,0.8284687995910645
95, 8161, 8168, 8128, 8146, 8170, 8159, 8197, 8160, 8152, 8180, 8082, 8134, 8167, 8145,0.8364744186401367
95, 8161, 8168, 8128, 8146, 8170, 8159, 8197, 8160, 8152, 8180, 8082, 8134, 8167, 8145,0.8364744186401367
96, 8173, 8200, 8155, 8160, 8150, 8155, 8186, 8174, 8276, 8173, 8069, 8167, 8169, 8163,0.8450381755828857
96, 8173, 8200, 8155, 8160, 8150, 8155, 8186, 8174, 8276, 8173, 8069, 8167, 8169, 8163,0.8450381755828857
97, 8162, 8169, 8145, 8145, 8146, 8156, 8194, 8175, 8198, 8186, 8093, 8144, 8168, 8172,0.8520114421844482
97, 8162, 8169, 8145, 8145, 8146, 8156, 8194, 8175, 8198, 8186, 8093, 8144, 8168, 8172,0.8529281616210938
98, 8167, 8170, 8141, 8147, 8137, 8153, 8185, 8165, 8219, 8181, 8081, 8159, 8169, 8167,0.859933614730835
98, 8167, 8170, 8141, 8147, 8137, 8153, 8185, 8165, 8219, 8181, 8081, 8159, 8169, 8167,0.8609297275543213
99, 8159, 8171, 8138, 8148, 8133, 8125, 8179, 8151, 8210, 8165, 8063, 8154, 8160, 8139,0.868955135345459
99, 8159, 8171, 8138, 8148, 8133, 8125, 8179, 8151, 8210, 8165, 8063, 8154, 8160, 8139,0.868955135345459
100, 8161, 8164, 8133, 8146, 8149, 8115, 8187, 8141, 8109, 8149, 8078, 8128, 8153, 8124,0.8759782314300537
100, 8161, 8164, 8133, 8146, 8149, 8115, 8187, 8141, 8109, 8149, 8078, 8128, 8153, 8124,0.8759782314300537
101, 8172, 8190, 8149, 8157, 8140, 8135, 8171, 8147, 8206, 8120, 8073, 8163, 8158, 8111,0.8834748268127441
101, 8172, 8190, 8149, 8157, 8140, 8135, 8171, 8147, 8206, 8120, 8073, 8163, 8158, 8111,0.8834748268127441
102, 8174, 8170, 8149, 8160, 8156, 8149, 8187, 8154, 8158, 8156, 8089, 8147, 8161, 8110,0.891709566116333
102, 8174, 8170, 8149, 8160, 8156, 8149, 8187, 8154, 8158, 8156, 8089, 8147, 8161, 8110,0.891709566116333
103, 8194, 8181, 8166, 8171, 8154, 8146, 8189, 8160, 8214, 8166, 8102, 8163, 8169, 8141,0.8991703987121582
103, 8194, 8181, 8166, 8171, 8154, 8146, 8189, 8160, 8214, 8166, 8102, 8163, 8169, 8141,0.8991703987121582
104, 8172, 8177, 8156, 8160, 8121, 8132, 8166, 8149, 8220, 8139, 8095, 8161, 8168, 8130,0.9071700572967529
104, 8172, 8177, 8156, 8160, 8121, 8132, 8166, 8149, 8220, 8139, 8095, 8161, 8168, 8130,0.9071700572967529
105, 8172, 8166, 8142, 8151, 8127, 8133, 8170, 8143, 8097, 8149, 8099, 8132, 8161, 8126,0.9154741764068604
105, 8172, 8166, 8142, 8151, 8127, 8133, 8170, 8143, 8097, 8149, 8099, 8132, 8161, 8126,0.9154741764068604
106, 8191, 8195, 8167, 8159, 8126, 8141, 8172, 8163, 8226, 8151, 8098, 8172, 8172, 8145,0.9234743118286133
106, 8191, 8195, 8167, 8159, 8126, 8141, 8172, 8163, 8226, 8151, 8098, 8172, 8172, 8145,0.9239630699157715
107, 8167, 8160, 8146, 8153, 8124, 8138, 8180, 8160, 8172, 8172, 8106, 8148, 8167, 8132,0.9315054416656494
107, 8167, 8160, 8146, 8153, 8124, 8138, 8180, 8160, 8172, 8172, 8106, 8148, 8167, 8132,0.9315054416656494
108, 8171, 8171, 8144, 8168, 8119, 8129, 8157, 8149, 8150, 8153, 8083, 8148, 8156, 8127,0.9395067691802979
108, 8171, 8171, 8144, 8168, 8119, 8129, 8157, 8149, 8150, 8153, 8083, 8148, 8156, 8127,0.9395067691802979
109, 8162, 8182, 8158, 8166, 8125, 8126, 8145, 8155, 8191, 8127, 8067, 8159, 8158, 8122,0.9464738368988037
109, 8162, 8182, 8158, 8166, 8125, 8126, 8145, 8155, 8191, 8127, 8067, 8159, 8158, 8122,0.9464738368988037
110, 8169, 8158, 8149, 8160, 8148, 8147, 8172, 8164, 8119, 8160, 8096, 8141, 8159, 8132,0.9543452262878418
110, 8169, 8158, 8149, 8160, 8148, 8147, 8172, 8164, 8119, 8160, 8096, 8141, 8159, 8132,0.9548521041870117
111, 8192, 8191, 8166, 8178, 8124, 8163, 8167, 8163, 8225, 8144, 8093, 8180, 8164, 8141,0.962475061416626
111, 8192, 8191, 8166, 8178, 8124, 8163, 8167, 8163, 8225, 8144, 8093, 8180, 8164, 8141,0.962475061416626
112, 8169, 8174, 8166, 8169, 8117, 8147, 8169, 8150, 8150, 8134, 8078, 8149, 8157, 8120,0.9704742431640625
112, 8169, 8174, 8166, 8169, 8117, 8147, 8169, 8150, 8150, 8134, 8078, 8149, 8157, 8120,0.9704742431640625
113, 8179, 8174, 8168, 8162, 8121, 8140, 8171, 8154, 8141, 8146, 8063, 8146, 8151, 8121,0.9784951210021973
113, 8179, 8174, 8168, 8162, 8121, 8140, 8171, 8154, 8141, 8146, 8063, 8146, 8151, 8121,0.9784951210021973
114, 8165, 8176, 8160, 8147, 8117, 8157, 8163, 8156, 8222, 8147, 8071, 8178, 8157, 8118,0.9864938259124756
114, 8165, 8176, 8160, 8147, 8117, 8157, 8163, 8156, 8222, 8147, 8071, 8178, 8157, 8118,0.9874932765960693
115, 8150, 8146, 8141, 8141, 8131, 8159, 8170, 8147, 8109, 8171, 8102, 8151, 8162, 8122,0.9945082664489746
115, 8150, 8146, 8141, 8141, 8131, 8159, 8170, 8147, 8109, 8171, 8102, 8151, 8162, 8122,0.9945082664489746
116, 8177, 8174, 8170, 8164, 8122, 8128, 8148, 8151, 8194, 8162, 8092, 8173, 8169, 8145,1.0019006729125977
116, 8177, 8174, 8170, 8164, 8122, 8128, 8148, 8151, 8194, 8162, 8092, 8173, 8169, 8145,1.0028893947601318
117, 8160, 8165, 8179, 8162, 8133, 8134, 8156, 8155, 8177, 8166, 8103, 8161, 8167, 8145,1.008897066116333
117, 8160, 8165, 8179, 8162, 8133, 8134, 8156, 8155, 8177, 8166, 8103, 8161, 8167, 8145,1.009889841079712
118, 8171, 8168, 8178, 8163, 8136, 8173, 8176, 8167, 8176, 8172, 8107, 8158, 8166, 8152,1.017906665802002
118, 8171, 8168, 8178, 8163, 8136, 8173, 8176, 8167, 8176, 8172, 8107, 8158, 8166, 8152,1.017906665802002
119, 8182, 8176, 8193, 8163, 8120, 8163, 8171, 8178, 8268, 8164, 8093, 8177, 8171, 8151,1.0254762172698975
119, 8182, 8176, 8193, 8163, 8120, 8163, 8171, 8178, 8268, 8164, 8093, 8177, 8171, 8151,1.0254762172698975
120, 8173, 8142, 8198, 8163, 8142, 8156, 8190, 8177, 8176, 8188, 8109, 8148, 8164, 8148,1.0330829620361328
120, 8173, 8142, 8198, 8163, 8142, 8156, 8190, 8177, 8176, 8188, 8109, 8148, 8164, 8148,1.0330829620361328
121, 8173, 8156, 8192, 8167, 8128, 8170, 8185, 8170, 8234, 8158, 8077, 8161, 8156, 8132,1.041090488433838
121, 8173, 8156, 8192, 8167, 8128, 8170, 8185, 8170, 8234, 8158, 8077, 8161, 8156, 8132,1.041090488433838
122, 8142, 8142, 8163, 8141, 8120, 8158, 8177, 8149, 8148, 8125, 8056, 8136, 8151, 8100,1.0491068363189697
122, 8142, 8142, 8163, 8141, 8120, 8158, 8177, 8149, 8148, 8125, 8056, 8136, 8151, 8100,1.0491068363189697
123, 8164, 8161, 8176, 8150, 8148, 8148, 8183, 8154, 8105, 8142, 8083, 8142, 8160, 8121,1.0570151805877686
123, 8164, 8161, 8176, 8150, 8148, 8148, 8183, 8154, 8105, 8142, 8083, 8142, 8160, 8121,1.0570151805877686
124, 8188, 8193, 8198, 8166, 8153, 8160, 8178, 8173, 8250, 8160, 8098, 8176, 8167, 8143,1.0656299591064453
124, 8188, 8193, 8198, 8166, 8153, 8160, 8178, 8173, 8250, 8160, 8098, 8176, 8167, 8143,1.0656299591064453
125, 8172, 8157, 8180, 8147, 8170, 8173, 8183, 8161, 8155, 8181, 8110, 8137, 8162, 8143,1.0736243724822998
125, 8172, 8157, 8180, 8147, 8170, 8173, 8183, 8161, 8155, 8181, 8110, 8137, 8162, 8143,1.0736243724822998
126, 8194, 8186, 8207, 8164, 8170, 8169, 8172, 8162, 8231, 8165, 8102, 8161, 8170, 8158,1.0806248188018799
126, 8194, 8186, 8207, 8164, 8170, 8169, 8172, 8162, 8231, 8165, 8102, 8161, 8170, 8158,1.0806248188018799
127, 8196, 8186, 8210, 8163, 8169, 8159, 8180, 8170, 8262, 8182, 8104, 8158, 8169, 8160,1.0884740352630615
127, 8196, 8186, 8210, 8163, 8169, 8159, 8180, 8170, 8262, 8182, 8104, 8158, 8169, 8160,1.0884740352630615
240, 8178, 8169, 8178, 8141, 8161, 8160, 8179, 8165, 8187, 8193, 8108, 8137, 8161, 8161,1.0964958667755127
240, 8178, 8169, 8178, 8141, 8161, 8160, 8179, 8165, 8187, 8193, 8108, 8137, 8161, 8161,1.0964958667755127
0, 8166, 8188, 8177, 8153, 8128, 8164, 8156, 8164, 8252, 8147, 8084, 8153, 8162, 8145,1.1044948101043701
0, 8166, 8188, 8177, 8153, 8128, 8164, 8156, 8164, 8252, 8147, 8084, 8153, 8162, 8145,1.1044948101043701
1, 8173, 8156, 8174, 8168, 8143, 8176, 8175, 8156, 8157, 8158, 8090, 8128, 8159, 8131,1.1119320392608643
1, 8173, 8156, 8174, 8168, 8143, 8176, 8175, 8156, 8157, 8158, 8090, 8128, 8159, 8131,1.1129395961761475
2, 8192, 8159, 8185, 8171, 8148, 8192, 8169, 8154, 8212, 8158, 8099, 8164, 8163, 8145,1.1205909252166748
2, 8192, 8159, 8185, 8171, 8148, 8192, 8169, 8154, 8212, 8158, 8099, 8164, 8163, 8145,1.1205909252166748
3, 8172, 8151, 8172, 8152, 8141, 8182, 8157, 8155, 8202, 8158, 8104, 8154, 8163, 8137,1.1280980110168457
3, 8172, 8151, 8172, 8152, 8141, 8182, 8157, 8155, 8202, 8158, 8104, 8154, 8163, 8137,1.1280980110168457
4, 8174, 8139, 8154, 8142, 8137, 8166, 8164, 8148, 8095, 8172, 8100, 8120, 8156, 8137,1.1364693641662598
4, 8174, 8139, 8154, 8142, 8137, 8166, 8164, 8148, 8095, 8172, 8100, 8120, 8156, 8137,1.1364693641662598
5, 8157, 8152, 8150, 8134, 8099, 8164, 8147, 8142, 8163, 8125, 8072, 8153, 8156, 8129,1.1434738636016846
5, 8157, 8152, 8150, 8134, 8099, 8164, 8147, 8142, 8163, 8125, 8072, 8153, 8156, 8129,1.1434738636016846
6, 8117, 8120, 8128, 8115, 8100, 8162, 8148, 8134, 8054, 8115, 8075, 8121, 8152, 8116,1.1514739990234375
6, 8117, 8120, 8128, 8115, 8100, 8162, 8148, 8134, 8054, 8115, 8075, 8121, 8152, 8116,1.1514739990234375
7, 8147, 8146, 8150, 8134, 8117, 8156, 8153, 8148, 8109, 8130, 8084, 8132, 8159, 8142,1.1595268249511719
7, 8147, 8146, 8150, 8134, 8117, 8156, 8153, 8148, 8109, 8130, 8084, 8132, 8159, 8142,1.1595268249511719
8, 8153, 8170, 8166, 8148, 8124, 8161, 8157, 8160, 8187, 8153, 8103, 8150, 8165, 8150,1.1675260066986084
8, 8153, 8170, 8166, 8148, 8124, 8161, 8157, 8160, 8187, 8153, 8103, 8150, 8165, 8150,1.1675260066986084
9, 8156, 8167, 8157, 8150, 8135, 8182, 8171, 8157, 8134, 8177, 8120, 8133, 8161, 8147,1.175527572631836
9, 8156, 8167, 8157, 8150, 8135, 8182, 8171, 8157, 8134, 8177, 8120, 8133, 8161, 8147,1.175527572631836
10, 8168, 8185, 8161, 8148, 8122, 8178, 8152, 8153, 8215, 8141, 8091, 8155, 8156, 8134,1.1835265159606934
10, 8168, 8185, 8161, 8148, 8122, 8178, 8152, 8153, 8215, 8141, 8091, 8155, 8156, 8134,1.1835265159606934
11, 8153, 8148, 8144, 8128, 8125, 8164, 8153, 8135, 8093, 8136, 8088, 8122, 8147, 8105,1.1915266513824463
11, 8153, 8148, 8144, 8128, 8125, 8164, 8153, 8135, 8093, 8136, 8088, 8122, 8147, 8105,1.1915266513824463
12, 8171, 8161, 8153, 8139, 8116, 8161, 8160, 8142, 8105, 8141, 8089, 8135, 8158, 8116,1.1995246410369873
12, 8171, 8161, 8153, 8139, 8116, 8161, 8160, 8142, 8105, 8141, 8089, 8135, 8158, 8116,1.1995246410369873
13, 8152, 8164, 8149, 8132, 8114, 8143, 8148, 8149, 8153, 8121, 8080, 8142, 8164, 8120,1.2065260410308838
13, 8152, 8164, 8149, 8132, 8114, 8143, 8148, 8149, 8153, 8121, 8080, 8142, 8164, 8120,1.2065260410308838
14, 8130, 8137, 8127, 8115, 8138, 8141, 8153, 8147, 8040, 8120, 8086, 8113, 8149, 8111,1.214529275894165
14, 8130, 8137, 8127, 8115, 8138, 8141, 8153, 8147, 8040, 8120, 8086, 8113, 8149, 8111,1.214529275894165
15, 8139, 8164, 8146, 8120, 8121, 8155, 8150, 8152, 8146, 8123, 8080, 8152, 8156, 8116,1.2225291728973389
15, 8139, 8164, 8146, 8120, 8121, 8155, 8150, 8152, 8146, 8123, 8080, 8152, 8156, 8116,1.2225291728973389
16, 8126, 8145, 8149, 8118, 8122, 8146, 8162, 8146, 8105, 8158, 8102, 8137, 8167, 8124,1.2300379276275635
16, 8126, 8145, 8149, 8118, 8122, 8146, 8162, 8146, 8105, 8158, 8102, 8137, 8167, 8124,1.2300379276275635
17, 8154, 8156, 8164, 8145, 8137, 8130, 8158, 8154, 8122, 8150, 8108, 8141, 8166, 8137,1.238036870956421
17, 8154, 8156, 8164, 8145, 8137, 8130, 8158, 8154, 8122, 8150, 8108, 8141, 8166, 8137,1.238036870956421
18, 8161, 8167, 8163, 8149, 8136, 8127, 8153, 8160, 8180, 8119, 8084, 8149, 8160, 8118,1.2464749813079834
18, 8161, 8167, 8163, 8149, 8136, 8127, 8153, 8160, 8180, 8119, 8084, 8149, 8160, 8118,1.2464749813079834
19, 8143, 8136, 8129, 8123, 8149, 8129, 8166, 8142, 8047, 8139, 8082, 8115, 8151, 8104,1.2544748783111572
19, 8143, 8136, 8129, 8123, 8149, 8129, 8166, 8142, 8047, 8139, 8082, 8115, 8151, 8104,1.2544748783111572
20, 8139, 8152, 8128, 8122, 8134, 8108, 8134, 8134, 8112, 8121, 8065, 8148, 8149, 8104,1.2624750137329102
20, 8139, 8152, 8128, 8122, 8134, 8108, 8134, 8134, 8112, 8121, 8065, 8148, 8149, 8104,1.2624750137329102
21, 8120, 8134, 8125, 8118, 8139, 8092, 8132, 8136, 8067, 8115, 8075, 8138, 8150, 8095,1.2695441246032715
21, 8120, 8134, 8125, 8118, 8139, 8092, 8132, 8136, 8067, 8115, 8075, 8138, 8150, 8095,1.2695441246032715
22, 8135, 8145, 8127, 8124, 8150, 8107, 8143, 8151, 8079, 8132, 8085, 8142, 8156, 8112,1.2774388790130615
22, 8135, 8145, 8127, 8124, 8150, 8107, 8143, 8151, 8079, 8132, 8085, 8142, 8156, 8112,1.2774388790130615
23, 8129, 8157, 8116, 8116, 8135, 8101, 8133, 8154, 8144, 8126, 8060, 8148, 8156, 8103,1.2856500148773193
23, 8129, 8157, 8116, 8116, 8135, 8101, 8133, 8154, 8144, 8126, 8060, 8148, 8156, 8103,1.2856500148773193
24, 8121, 8130, 8106, 8105, 8151, 8090, 8152, 8142, 8017, 8140, 8060, 8111, 8156, 8096,1.2936458587646484
24, 8121, 8130, 8106, 8105, 8151, 8090, 8152, 8142, 8017, 8140, 8060, 8111, 8156, 8096,1.2936458587646484
25, 8147, 8164, 8140, 8127, 8151, 8099, 8155, 8149, 8139, 8139, 8078, 8154, 8167, 8122,1.3011798858642578
25, 8147, 8164, 8140, 8127, 8151, 8099, 8155, 8149, 8139, 8139, 8078, 8154, 8167, 8122,1.3011798858642578
26, 8125, 8150, 8135, 8121, 8156, 8104, 8159, 8150, 8137, 8152, 8103, 8146, 8160, 8119,1.3097686767578125
26, 8125, 8150, 8135, 8121, 8156, 8104, 8159, 8150, 8137, 8152, 8103, 8146, 8160, 8119,1.3097686767578125
27, 8130, 8142, 8126, 8118, 8165, 8102, 8159, 8148, 8081, 8157, 8090, 8126, 8156, 8116,1.3178730010986328
27, 8130, 8142, 8126, 8118, 8165, 8102, 8159, 8148, 8081, 8157, 8090, 8126, 8156, 8116,1.3178730010986328
28, 8146, 8161, 8143, 8125, 8153, 8097, 8149, 8147, 8158, 8134, 8071, 8146, 8160, 8112,1.3248803615570068
28, 8146, 8161, 8143, 8125, 8153, 8097, 8149, 8147, 8158, 8134, 8071, 8146, 8160, 8112,1.3258717060089111
29, 8143, 8145, 8140, 8128, 8170, 8114, 8166, 8143, 8070, 8138, 8093, 8123, 8150, 8106,1.3338754177093506
29, 8143, 8145, 8140, 8128, 8170, 8114, 8166, 8143, 8070, 8138, 8093, 8123, 8150, 8106,1.3338754177093506
30, 8162, 8168, 8141, 8141, 8165, 8128, 8169, 8157, 8143, 8121, 8073, 8147, 8150, 8105,1.3408849239349365
30, 8162, 8168, 8141, 8141, 8165, 8128, 8169, 8157, 8143, 8121, 8073, 8147, 8150, 8105,1.3408849239349365
31, 8146, 8147, 8124, 8122, 8161, 8110, 8165, 8153, 8123, 8128, 8062, 8141, 8159, 8092,1.3484704494476318
31, 8146, 8147, 8124, 8122, 8161, 8110, 8165, 8153, 8123, 8128, 8062, 8141, 8159, 8092,1.3484704494476318
32, 8140, 8136, 8122, 8114, 8165, 8096, 8156, 8145, 8078, 8143, 8078, 8133, 8162, 8103,1.3564839363098145
32, 8140, 8136, 8122, 8114, 8165, 8096, 8156, 8145, 8078, 8143, 8078, 8133, 8162, 8103,1.3564839363098145
33, 8126, 8151, 8118, 8114, 8144, 8095, 8141, 8147, 8154, 8125, 8066, 8154, 8163, 8103,1.364485740661621
33, 8126, 8151, 8118, 8114, 8144, 8095, 8141, 8147, 8154, 8125, 8066, 8154, 8163, 8103,1.364485740661621
34, 8107, 8120, 8091, 8108, 8162, 8098, 8164, 8145, 8033, 8145, 8075, 8124, 8166, 8094,1.3724744319915771
34, 8107, 8120, 8091, 8108, 8162, 8098, 8164, 8145, 8033, 8145, 8075, 8124, 8166, 8094,1.3724744319915771
35, 8133, 8151, 8115, 8130, 8165, 8095, 8161, 8152, 8112, 8135, 8074, 8152, 8169, 8103,1.3804738521575928
35, 8133, 8151, 8115, 8130, 8165, 8095, 8161, 8152, 8112, 8135, 8074, 8152, 8169, 8103,1.3804738521575928
36, 8131, 8151, 8122, 8116, 8157, 8089, 8155, 8145, 8127, 8137, 8075, 8144, 8159, 8100,1.3884739875793457
36, 8131, 8151, 8122, 8116, 8157, 8089, 8155, 8145, 8127, 8137, 8075, 8144, 8159, 8100,1.3884739875793457
37, 8144, 8139, 8117, 8112, 8171, 8099, 8166, 8147, 8073, 8163, 8096, 8130, 8163, 8119,1.3963582515716553
37, 8144, 8139, 8117, 8112, 8171, 8099, 8166, 8147, 8073, 8163, 8096, 8130, 8163, 8119,1.3963582515716553
38, 8161, 8166, 8139, 8137, 8173, 8102, 8161, 8163, 8210, 8145, 8094, 8167, 8177, 8124,1.4033739566802979
38, 8161, 8166, 8139, 8137, 8173, 8102, 8161, 8163, 8210, 8145, 8094, 8167, 8177, 8124,1.4033739566802979
39, 8149, 8140, 8128, 8127, 8185, 8103, 8180, 8151, 8109, 8148, 8090, 8132, 8159, 8100,1.4113895893096924
39, 8149, 8140, 8128, 8127, 8185, 8103, 8180, 8151, 8109, 8148, 8090, 8132, 8159, 8100,1.4113895893096924
40, 8159, 8155, 8134, 8124, 8173, 8105, 8173, 8141, 8117, 8138, 8079, 8148, 8152, 8102,1.4194746017456055
40, 8159, 8155, 8134, 8124, 8173, 8105, 8173, 8141, 8117, 8138, 8079, 8148, 8152, 8102,1.4194746017456055
41, 8144, 8154, 8136, 8120, 8169, 8089, 8162, 8150, 8141, 8137, 8092, 8154, 8165, 8104,1.426959753036499
41, 8144, 8154, 8136, 8120, 8169, 8089, 8162, 8150, 8141, 8137, 8092, 8154, 8165, 8104,1.426959753036499
42, 8135, 8133, 8120, 8117, 8186, 8085, 8171, 8152, 8068, 8153, 8110, 8126, 8167, 8113,1.4354345798492432
42, 8135, 8133, 8120, 8117, 8186, 8085, 8171, 8152, 8068, 8153, 8110, 8126, 8167, 8113,1.4354345798492432
43, 8137, 8155, 8122, 8129, 8174, 8087, 8159, 8153, 8168, 8145, 8097, 8156, 8167, 8116,1.443434715270996
43, 8137, 8155, 8122, 8129, 8174, 8087, 8159, 8153, 8168, 8145, 8097, 8156, 8167, 8116,1.443434715270996
44, 8131, 8137, 8110, 8130, 8187, 8080, 8161, 8152, 8092, 8172, 8107, 8138, 8162, 8105,1.45143461227417
44, 8131, 8137, 8110, 8130, 8187, 8080, 8161, 8152, 8092, 8172, 8107, 8138, 8162, 8105,1.45143461227417
45, 8145, 8150, 8105, 8131, 8179, 8070, 8142, 8148, 8098, 8146, 8089, 8143, 8155, 8110,1.4595215320587158
45, 8145, 8150, 8105, 8131, 8179, 8070, 8142, 8148, 8098, 8146, 8089, 8143, 8155, 8110,1.4595215320587158
46, 8127, 8148, 8086, 8116, 8151, 8063, 8136, 8140, 8099, 8110, 8073, 8141, 8153, 8100,1.4665157794952393
46, 8127, 8148, 8086, 8116, 8151, 8063, 8136, 8140, 8099, 8110, 8073, 8141, 8153, 8100,1.4665157794952393
47, 8131, 8129, 8078, 8111, 8161, 8074, 8160, 8144, 8006, 8135, 8097, 8123, 8157, 8098,1.4745137691497803
47, 8131, 8129, 8078, 8111, 8161, 8074, 8160, 8144, 8006, 8135, 8097, 8123, 8157, 8098,1.4745137691497803
48, 8143, 8155, 8113, 8122, 8161, 8075, 8147, 8150, 8119, 8118, 8089, 8159, 8160, 8099,1.4824745655059814
48, 8143, 8155, 8113, 8122, 8161, 8075, 8147, 8150, 8119, 8118, 8089, 8159, 8160, 8099,1.4824745655059814
49, 8130, 8138, 8119, 8128, 8176, 8066, 8150, 8138, 8047, 8111, 8085, 8128, 8150, 8083,1.4904682636260986
49, 8130, 8138, 8119, 8128, 8176, 8066, 8150, 8138, 8047, 8111, 8085, 8128, 8150, 8083,1.4904682636260986
50, 8161, 8153, 8132, 8144, 8179, 8074, 8153, 8142, 8061, 8116, 8094, 8136, 8160, 8090,1.4982821941375732
50, 8161, 8153, 8132, 8144, 8179, 8074, 8153, 8142, 8061, 8116, 8094, 8136, 8160, 8090,1.4982821941375732
51, 8142, 8152, 8137, 8121, 8167, 8081, 8139, 8141, 8125, 8112, 8120, 8162, 8174, 8090,1.5062813758850098
51, 8142, 8152, 8137, 8121, 8167, 8081, 8139, 8141, 8125, 8112, 8120, 8162, 8174, 8090,1.5062813758850098
52, 8108, 8126, 8126, 8103, 8172, 8074, 8135, 8130, 8023, 8128, 8137, 8139, 8167, 8097,1.514021635055542
52, 8108, 8126, 8126, 8103, 8172, 8074, 8135, 8130, 8023, 8128, 8137, 8139, 8167, 8097,1.5152308940887451
53, 8132, 8161, 8138, 8132, 8144, 8058, 8121, 8139, 8108, 8116, 8095, 8158, 8161, 8101,1.5231082439422607
53, 8132, 8161, 8138, 8132, 8144, 8058, 8121, 8139, 8108, 8116, 8095, 8158, 8161, 8101,1.5231082439422607
54, 8133, 8137, 8126, 8121, 8144, 8059, 8140, 8129, 8040, 8115, 8087, 8136, 8155, 8082,1.5308868885040283
54, 8133, 8137, 8126, 8121, 8144, 8059, 8140, 8129, 8040, 8115, 8087, 8136, 8155, 8082,1.5308868885040283
55, 8141, 8136, 8132, 8119, 8154, 8073, 8149, 8125, 8041, 8116, 8110, 8149, 8164, 8096,1.5368871688842773
55, 8141, 8136, 8132, 8119, 8154, 8073, 8149, 8125, 8041, 8116, 8110, 8149, 8164, 8096,1.5378856658935547
56, 8142, 8157, 8136, 8131, 8140, 8070, 8139, 8136, 8124, 8109, 8107, 8163, 8169, 8102,1.5454745292663574
56, 8142, 8157, 8136, 8131, 8140, 8070, 8139, 8136, 8124, 8109, 8107, 8163, 8169, 8102,1.5454745292663574
57, 8139, 8139, 8116, 8122, 8148, 8071, 8150, 8135, 8005, 8122, 8100, 8123, 8156, 8094,1.5534744262695312
57, 8139, 8139, 8116, 8122, 8148, 8071, 8150, 8135, 8005, 8122, 8100, 8123, 8156, 8094,1.5534744262695312
58, 8157, 8168, 8139, 8134, 8143, 8080, 8149, 8149, 8104, 8115, 8080, 8156, 8164, 8100,1.5614748001098633
58, 8157, 8168, 8139, 8134, 8143, 8080, 8149, 8149, 8104, 8115, 8080, 8156, 8164, 8100,1.5614748001098633
59, 8152, 8156, 8144, 8133, 8148, 8078, 8167, 8158, 8098, 8136, 8080, 8141, 8164, 8099,1.569474220275879
59, 8152, 8156, 8144, 8133, 8148, 8078, 8167, 8158, 8098, 8136, 8080, 8141, 8164, 8099,1.569474220275879
60, 8158, 8152, 8139, 8129, 8146, 8072, 8169, 8147, 8064, 8134, 8077, 8132, 8147, 8096,1.5774383544921875
60, 8158, 8152, 8139, 8129, 8146, 8072, 8169, 8147, 8064, 8134, 8077, 8132, 8147, 8096,1.5774383544921875
61, 8140, 8158, 8133, 8125, 8131, 8072, 8155, 8150, 8145, 8117, 8071, 8156, 8156, 8075,1.585583209991455
61, 8140, 8158, 8133, 8125, 8131, 8072, 8155, 8150, 8145, 8117, 8071, 8156, 8156, 8075,1.585583209991455
62, 8130, 8131, 8110, 8120, 8152, 8086, 8173, 8159, 8075, 8172, 8106, 8124, 8179, 8084,1.593576431274414
62, 8130, 8131, 8110, 8120, 8152, 8086, 8173, 8159, 8075, 8172, 8106, 8124, 8179, 8084,1.593576431274414
63, 8158, 8165, 8131, 8129, 8145, 8091, 8161, 8152, 8160, 8162, 8115, 8151, 8184, 8117,1.600576639175415
63, 8158, 8165, 8131, 8129, 8145, 8091, 8161, 8152, 8160, 8162, 8115, 8151, 8184, 8117,1.600576639175415
64, 8146, 8156, 8141, 8133, 8142, 8083, 8153, 8146, 8114, 8129, 8114, 8149, 8165, 8111,1.6085841655731201
64, 8146, 8156, 8141, 8133, 8142, 8083, 8153, 8146, 8114, 8129, 8114, 8149, 8165, 8111,1.6085841655731201
65, 8167, 8142, 8130, 8144, 8149, 8090, 8163, 8163, 8067, 8141, 8099, 8140, 8157, 8110,1.6160614490509033
65, 8167, 8142, 8130, 8144, 8149, 8090, 8163, 8163, 8067, 8141, 8099, 8140, 8157, 8110,1.6160614490509033
66, 8170, 8152, 8121, 8124, 8127, 8097, 8155, 8159, 8167, 8138, 8081, 8161, 8166, 8104,1.624061107635498
66, 8170, 8152, 8121, 8124, 8127, 8097, 8155, 8159, 8167, 8138, 8081, 8161, 8166, 8104,1.624061107635498
67, 8136, 8133, 8108, 8116, 8139, 8098, 8164, 8145, 8075, 8156, 8106, 8133, 8166, 8096,1.6327323913574219
67, 8136, 8133, 8108, 8116, 8139, 8098, 8164, 8145, 8075, 8156, 8106, 8133, 8166, 8096,1.6327323913574219
68, 8167, 8164, 8128, 8157, 8147, 8101, 8167, 8161, 8160, 8146, 8096, 8159, 8166, 8110,1.6404695510864258
68, 8167, 8164, 8128, 8157, 8147, 8101, 8167, 8161, 8160, 8146, 8096, 8159, 8166, 8110,1.6404695510864258
69, 8174, 8151, 8130, 8138, 8156, 8106, 8178, 8155, 8158, 8134, 8094, 8156, 8162, 8104,1.6487412452697754
69, 8174, 8151, 8130, 8138, 8156, 8106, 8178, 8155, 8158, 8134, 8094, 8156, 8162, 8104,1.6487412452697754
70, 8168, 8141, 8131, 8121, 8161, 8115, 8181, 8147, 8094, 8149, 8113, 8142, 8160, 8106,1.6567423343658447
70, 8168, 8141, 8131, 8121, 8161, 8115, 8181, 8147, 8094, 8149, 8113, 8142, 8160, 8106,1.6567423343658447
71, 8174, 8170, 8149, 8150, 8140, 8105, 8162, 8161, 8193, 8146, 8099, 8167, 8163, 8098,1.6644783020019531
71, 8174, 8170, 8149, 8150, 8140, 8105, 8162, 8161, 8193, 8146, 8099, 8167, 8163, 8098,1.6644783020019531
72, 8162, 8145, 8132, 8148, 8144, 8092, 8175, 8152, 8084, 8151, 8105, 8135, 8157, 8082,1.6714773178100586
72, 8162, 8145, 8132, 8148, 8144, 8092, 8175, 8152, 8084, 8151, 8105, 8135, 8157, 8082,1.6714773178100586
73, 8158, 8155, 8126, 8135, 8126, 8087, 8162, 8150, 8113, 8128, 8101, 8152, 8165, 8086,1.6790449619293213
73, 8158, 8155, 8126, 8135, 8126, 8087, 8162, 8150, 8113, 8128, 8101, 8152, 8165, 8086,1.6790449619293213
74, 8139, 8143, 8111, 8123, 8123, 8087, 8157, 8155, 8121, 8135, 8099, 8147, 8173, 8080,1.687044382095337
74, 8139, 8143, 8111, 8123, 8123, 8087, 8157, 8155, 8121, 8135, 8099, 8147, 8173, 8080,1.6880383491516113
75, 8146, 8136, 8106, 8133, 8152, 8099, 8175, 8149, 8069, 8164, 8113, 8130, 8165, 8090,1.6952307224273682
75, 8146, 8136, 8106, 8133, 8152, 8099, 8175, 8149, 8069, 8164, 8113, 8130, 8165, 8090,1.6952307224273682
76, 8151, 8168, 8131, 8148, 8134, 8096, 8153, 8145, 8184, 8144, 8102, 8165, 8159, 8101,1.7034788131713867
76, 8151, 8168, 8131, 8148, 8134, 8096, 8153, 8145, 8184, 8144, 8102, 8165, 8159, 8101,1.7034788131713867
77, 8146, 8138, 8130, 8134, 8133, 8097, 8149, 8140, 8079, 8142, 8106, 8136, 8154, 8097,1.7114779949188232
77, 8146, 8138, 8130, 8134, 8133, 8097, 8149, 8140, 8079, 8142, 8106, 8136, 8154, 8097,1.7114779949188232
78, 8174, 8155, 8140, 8143, 8136, 8114, 8150, 8145, 8112, 8136, 8107, 8149, 8162, 8110,1.718672752380371
78, 8174, 8155, 8140, 8143, 8136, 8114, 8150, 8145, 8112, 8136, 8107, 8149, 8162, 8110,1.718672752380371
79, 8157, 8161, 8118, 8145, 8130, 8109, 8147, 8145, 8155, 8141, 8100, 8150, 8164, 8103,1.72743558883667
79, 8157, 8161, 8118, 8145, 8130, 8109, 8147, 8145, 8155, 8141, 8100, 8150, 8164, 8103,1.72743558883667
80, 8147, 8145, 8079, 8128, 8140, 8103, 8149, 8138, 8061, 8147, 8097, 8126, 8156, 8095,1.734452724456787
80, 8147, 8145, 8079, 8128, 8140, 8103, 8149, 8138, 8061, 8147, 8097, 8126, 8156, 8095,1.734452724456787
81, 8148, 8168, 8079, 8123, 8126, 8105, 8135, 8143, 8137, 8109, 8082, 8154, 8153, 8081,1.74245285987854
81, 8148, 8168, 8079, 8123, 8126, 8105, 8135, 8143, 8137, 8109, 8082, 8154, 8153, 8081,1.74245285987854
82, 8121, 8134, 8062, 8115, 8122, 8104, 8149, 8139, 8023, 8122, 8090, 8119, 8146, 8057,1.7506649494171143
82, 8121, 8134, 8062, 8115, 8122, 8104, 8149, 8139, 8023, 8122, 8090, 8119, 8146, 8057,1.7506649494171143
83, 8143, 8143, 8067, 8130, 8117, 8105, 8152, 8136, 8028, 8123, 8093, 8137, 8157, 8073,1.7587833404541016
83, 8143, 8143, 8067, 8130, 8117, 8105, 8152, 8136, 8028, 8123, 8093, 8137, 8157, 8073,1.7587833404541016
84, 8142, 8155, 8070, 8131, 8122, 8114, 8152, 8135, 8095, 8109, 8097, 8164, 8167, 8084,1.7664780616760254
84, 8142, 8155, 8070, 8131, 8122, 8114, 8152, 8135, 8095, 8109, 8097, 8164, 8167, 8084,1.7664780616760254
85, 8124, 8126, 8049, 8117, 8138, 8128, 8166, 8132, 8008, 8127, 8106, 8128, 8160, 8082,1.7744512557983398
85, 8124, 8126, 8049, 8117, 8138, 8128, 8166, 8132, 8008, 8127, 8106, 8128, 8160, 8082,1.7744512557983398
86, 8126, 8140, 8059, 8121, 8111, 8111, 8144, 8139, 8117, 8125, 8085, 8145, 8162, 8085,1.7824487686157227
86, 8126, 8140, 8059, 8121, 8111, 8111, 8144, 8139, 8117, 8125, 8085, 8145, 8162, 8085,1.7824487686157227
87, 8124, 8129, 8065, 8120, 8118, 8100, 8145, 8136, 8095, 8159, 8100, 8131, 8162, 8099,1.7904775142669678
87, 8124, 8129, 8065, 8120, 8118, 8100, 8145, 8136, 8095, 8159, 8100, 8131, 8162, 8099,1.7904775142669678
88, 8166, 8159, 8098, 8138, 8139, 8116, 8148, 8143, 8135, 8170, 8121, 8149, 8168, 8140,1.797438144683838
88, 8166, 8159, 8098, 8138, 8139, 8116, 8148, 8143, 8135, 8170, 8121, 8149, 8168, 8140,1.797438144683838
89, 8172, 8172, 8114, 8143, 8134, 8111, 8140, 8146, 8191, 8131, 8121, 8168, 8170, 8141,1.8059444427490234
89, 8172, 8172, 8114, 8143, 8134, 8111, 8140, 8146, 8191, 8131, 8121, 8168, 8170, 8141,1.8059444427490234
90, 8160, 8145, 8089, 8143, 8138, 8104, 8154, 8135, 8065, 8133, 8126, 8135, 8162, 8126,1.8139619827270508
90, 8160, 8145, 8089, 8143, 8138, 8104, 8154, 8135, 8065, 8133, 8126, 8135, 8162, 8126,1.8139619827270508
91, 8170, 8173, 8092, 8151, 8126, 8115, 8149, 8138, 8155, 8126, 8108, 8160, 8162, 8125,1.821474313735962
91, 8170, 8173, 8092, 8151, 8126, 8115, 8149, 8138, 8155, 8126, 8108, 8160, 8162, 8125,1.821474313735962
92, 8142, 8151, 8076, 8130, 8134, 8124, 8158, 8137, 8100, 8128, 8110, 8136, 8157, 8097,1.8294684886932373
92, 8142, 8151, 8076, 8130, 8134, 8124, 8158, 8137, 8100, 8128, 8110, 8136, 8157, 8097,1.8294684886932373
93, 8140, 8145, 8069, 8126, 8131, 8128, 8157, 8128, 8056, 8113, 8104, 8132, 8155, 8081,1.837437391281128
93, 8140, 8145, 8069, 8126, 8131, 8128, 8157, 8128, 8056, 8113, 8104, 8132, 8155, 8081,1.837437391281128
94, 8124, 8154, 8078, 8122, 8111, 8118, 8130, 8115, 8109, 8095, 8089, 8156, 8158, 8075,1.845461130142212
94, 8124, 8154, 8078, 8122, 8111, 8118, 8130, 8115, 8109, 8095, 8089, 8156, 8158, 8075,1.845461130142212
95, 8116, 8131, 8075, 8115, 8131, 8127, 8146, 8121, 8024, 8130, 8116, 8130, 8159, 8093,1.8534607887268066
95, 8116, 8131, 8075, 8115, 8131, 8127, 8146, 8121, 8024, 8130, 8116, 8130, 8159, 8093,1.8534607887268066
96, 8155, 8159, 8095, 8128, 8126, 8152, 8157, 8150, 8150, 8127, 8123, 8156, 8166, 8122,1.8604741096496582
96, 8155, 8159, 8095, 8128, 8126, 8152, 8157, 8150, 8150, 8127, 8123, 8156, 8166, 8122,1.8604741096496582
97, 8140, 8147, 8094, 8119, 8127, 8151, 8156, 8148, 8132, 8120, 8123, 8142, 8167, 8113,1.868471384048462
97, 8140, 8147, 8094, 8119, 8127, 8151, 8156, 8148, 8132, 8120, 8123, 8142, 8167, 8113,1.868471384048462
98, 8141, 8152, 8093, 8130, 8139, 8139, 8152, 8142, 8097, 8131, 8118, 8143, 8164, 8121,1.8765087127685547
98, 8141, 8152, 8093, 8130, 8139, 8139, 8152, 8142, 8097, 8131, 8118, 8143, 8164, 8121,1.8775084018707275
99, 8147, 8172, 8104, 8143, 8129, 8146, 8157, 8147, 8194, 8128, 8115, 8169, 8167, 8133,1.8845224380493164
99, 8147, 8172, 8104, 8143, 8129, 8146, 8157, 8147, 8194, 8128, 8115, 8169, 8167, 8133,1.8845224380493164
100, 8135, 8142, 8102, 8133, 8145, 8156, 8172, 8143, 8101, 8151, 8140, 8139, 8162, 8134,1.892519474029541
100, 8135, 8142, 8102, 8133, 8145, 8156, 8172, 8143, 8101, 8151, 8140, 8139, 8162, 8134,1.892519474029541
101, 8156, 8159, 8116, 8143, 8140, 8143, 8145, 8145, 8167, 8135, 8115, 8161, 8165, 8133,1.9004740715026855
101, 8156, 8159, 8116, 8143, 8140, 8143, 8145, 8145, 8167, 8135, 8115, 8161, 8165, 8133,1.9004740715026855
102, 8148, 8152, 8119, 8136, 8134, 8135, 8141, 8138, 8129, 8121, 8104, 8148, 8163, 8110,1.9084644317626953
102, 8148, 8152, 8119, 8136, 8134, 8135, 8141, 8138, 8129, 8121, 8104, 8148, 8163, 8110,1.9084644317626953
103, 8158, 8159, 8129, 8142, 8142, 8146, 8158, 8134, 8074, 8133, 8126, 8139, 8159, 8110,1.9164752960205078
103, 8158, 8159, 8129, 8142, 8142, 8146, 8158, 8134, 8074, 8133, 8126, 8139, 8159, 8110,1.9164752960205078
104, 8166, 8178, 8128, 8146, 8136, 8132, 8149, 8137, 8182, 8123, 8122, 8166, 8162, 8114,1.9238641262054443
104, 8166, 8178, 8128, 8146, 8136, 8132, 8149, 8137, 8182, 8123, 8122, 8166, 8162, 8114,1.9248840808868408
105, 8143, 8139, 8092, 8131, 8147, 8127, 8165, 8132, 8080, 8142, 8129, 8134, 8162, 8115,1.931084156036377
105, 8143, 8139, 8092, 8131, 8147, 8127, 8165, 8132, 8080, 8142, 8129, 8134, 8162, 8115,1.931084156036377
106, 8151, 8163, 8104, 8145, 8139, 8142, 8169, 8143, 8149, 8144, 8131, 8158, 8171, 8128,1.9390828609466553
106, 8151, 8163, 8104, 8145, 8139, 8142, 8169, 8143, 8149, 8144, 8131, 8158, 8171, 8128,1.9390828609466553
107, 8138, 8158, 8112, 8134, 8137, 8135, 8162, 8147, 8159, 8139, 8146, 8155, 8166, 8122,1.9474380016326904
107, 8138, 8158, 8112, 8134, 8137, 8135, 8162, 8147, 8159, 8139, 8146, 8155, 8166, 8122,1.9474380016326904
108, 8145, 8147, 8116, 8132, 8153, 8131, 8172, 8147, 8094, 8149, 8154, 8137, 8158, 8130,1.9554743766784668
108, 8145, 8147, 8116, 8132, 8153, 8131, 8172, 8147, 8094, 8149, 8154, 8137, 8158, 8130,1.9554743766784668
109, 8162, 8179, 8139, 8152, 8138, 8138, 8174, 8157, 8207, 8130, 8129, 8170, 8168, 8136,1.9634745121002197
109, 8162, 8179, 8139, 8152, 8138, 8138, 8174, 8157, 8207, 8130, 8129, 8170, 8168, 8136,1.9634745121002197
110, 8146, 8149, 8129, 8142, 8150, 8133, 8175, 8144, 8101, 8136, 8140, 8145, 8165, 8129,1.9716219902038574
110, 8146, 8149, 8129, 8142, 8150, 8133, 8175, 8144, 8101, 8136, 8140, 8145, 8165, 8129,1.9716219902038574
111, 8154, 8160, 8134, 8147, 8160, 8127, 8154, 8135, 8121, 8131, 8138, 8161, 8155, 8135,1.9790983200073242
111, 8154, 8160, 8134, 8147, 8160, 8127, 8154, 8135, 8121, 8131, 8138, 8161, 8155, 8135,1.9790983200073242
112, 8154, 8168, 8125, 8156, 8164, 8138, 8162, 8134, 8151, 8129, 8130, 8161, 8152, 8124,1.9871013164520264
112, 8154, 8168, 8125, 8156, 8164, 8138, 8162, 8134, 8151, 8129, 8130, 8161, 8152, 8124,1.9871013164520264
113, 8166, 8164, 8113, 8159, 8176, 8146, 8187, 8138, 8084, 8133, 8138, 8137, 8158, 8120,1.9944746494293213
113, 8166, 8164, 8113, 8159, 8176, 8146, 8187, 8138, 8084, 8133, 8138, 8137, 8158, 8120,1.9944746494293213
114, 8175, 8185, 8132, 8157, 8155, 8126, 8168, 8146, 8178, 8112, 8129, 8166, 8162, 8111,2.002474308013916
114, 8175, 8185, 8132, 8157, 8155, 8126, 8168, 8146, 8178, 8112, 8129, 8166, 8162, 8111,2.002474308013916
115, 8158, 8155, 8118, 8147, 8161, 8119, 8168, 8141, 8105, 8137, 8150, 8140, 8161, 8099,2.010474443435669
115, 8158, 8155, 8118, 8147, 8161, 8119, 8168, 8141, 8105, 8137, 8150, 8140, 8161, 8099,2.010474443435669
116, 8168, 8172, 8112, 8155, 8156, 8135, 8163, 8145, 8148, 8137, 8152, 8152, 8168, 8109,2.0182347297668457
116, 8168, 8172, 8112, 8155, 8156, 8135, 8163, 8145, 8148, 8137, 8152, 8152, 8168, 8109,2.0182347297668457
117, 8151, 8171, 8113, 8139, 8151, 8130, 8157, 8140, 8172, 8124, 8146, 8158, 8166, 8107,2.025607109069824
117, 8151, 8171, 8113, 8139, 8151, 8130, 8157, 8140, 8172, 8124, 8146, 8158, 8166, 8107,2.025607109069824
118, 8150, 8144, 8123, 8140, 8181, 8123, 8170, 8134, 8086, 8155, 8168, 8134, 8162, 8127,2.034116744995117
118, 8150, 8144, 8123, 8140, 8181, 8123, 8170, 8134, 8086, 8155, 8168, 8134, 8162, 8127,2.034116744995117
119, 8161, 8172, 8139, 8169, 8166, 8129, 8158, 8141, 8210, 8156, 8158, 8162, 8169, 8138,2.042468309402466
119, 8161, 8172, 8139, 8169, 8166, 8129, 8158, 8141, 8210, 8156, 8158, 8162, 8169, 8138,2.042468309402466
120, 8146, 8155, 8115, 8153, 8161, 8139, 8169, 8130, 8120, 8161, 8151, 8135, 8156, 8108,2.0502281188964844
120, 8146, 8155, 8115, 8153, 8161, 8139, 8169, 8130, 8120, 8161, 8151, 8135, 8156, 8108,2.0502281188964844
121, 8168, 8165, 8121, 8153, 8164, 8145, 8166, 8127, 8113, 8144, 8156, 8151, 8157, 8115,2.0577523708343506
121, 8168, 8165, 8121, 8153, 8164, 8145, 8166, 8127, 8113, 8144, 8156, 8151, 8157, 8115,2.0577523708343506
122, 8163, 8174, 8125, 8162, 8157, 8140, 8153, 8136, 8187, 8128, 8157, 8166, 8170, 8121,2.0657525062561035
122, 8163, 8174, 8125, 8162, 8157, 8140, 8153, 8136, 8187, 8128, 8157, 8166, 8170, 8121,2.0657525062561035
123, 8148, 8154, 8105, 8152, 8174, 8153, 8171, 8132, 8086, 8150, 8154, 8127, 8158, 8109,2.073474645614624
123, 8148, 8154, 8105, 8152, 8174, 8153, 8171, 8132, 8086, 8150, 8154, 8127, 8158, 8109,2.073474645614624
124, 8160, 8180, 8116, 8159, 8182, 8176, 8170, 8137, 8170, 8131, 8137, 8158, 8153, 8103,2.081475019454956
124, 8160, 8180, 8116, 8159, 8182, 8176, 8170, 8137, 8170, 8131, 8137, 8158, 8153, 8103,2.081475019454956
125, 8161, 8165, 8120, 8169, 8200, 8179, 8175, 8140, 8127, 8139, 8145, 8141, 8158, 8091,2.089780330657959
125, 8161, 8165, 8120, 8169, 8200, 8179, 8175, 8140, 8127, 8139, 8145, 8141, 8158, 8091,2.089780330657959
126, 8183, 8174, 8128, 8174, 8196, 8167, 8166, 8130, 8119, 8138, 8140, 8139, 8156, 8094,2.097782850265503
126, 8183, 8174, 8128, 8174, 8196, 8167, 8166, 8130, 8119, 8138, 8140, 8139, 8156, 8094,2.097782850265503
127, 8154, 8179, 8128, 8154, 8173, 8159, 8147, 8120, 8171, 8117, 8136, 8162, 8157, 8088,2.1054739952087402
127, 8154, 8179, 8128, 8154, 8173, 8159, 8147, 8120, 8171, 8117, 8136, 8162, 8157, 8088,2.1054739952087402
240, 8131, 8151, 8119, 8151, 8183, 8180, 8170, 8136, 8081, 8159, 8164, 8139, 8164, 8090,2.1128199100494385
240, 8131, 8151, 8119, 8151, 8183, 8180, 8170, 8136, 8081, 8159, 8164, 8139, 8164, 8090,2.113818407058716
0, 8166, 8177, 8138, 8173, 8179, 8196, 8179, 8155, 8204, 8156, 8155, 8168, 8168, 8110,2.120598793029785
0, 8166, 8177, 8138, 8173, 8179, 8196, 8179, 8155, 8204, 8156, 8155, 8168, 8168, 8110,2.120598793029785
1, 8146, 8154, 8122, 8159, 8197, 8197, 8188, 8148, 8182, 8136, 8155, 8153, 8159, 8109,2.128108501434326
1, 8146, 8154, 8122, 8159, 8197, 8197, 8188, 8148, 8182, 8136, 8155, 8153, 8159, 8109,2.128108501434326
2, 8138, 8155, 8111, 8161, 8214, 8203, 8193, 8160, 8165, 8149, 8163, 8146, 8162, 8122,2.1364738941192627
2, 8138, 8155, 8111, 8161, 8214, 8203, 8193, 8160, 8165, 8149, 8163, 8146, 8162, 8122,2.1364738941192627
3, 8154, 8177, 8124, 8173, 8194, 8198, 8183, 8167, 8259, 8164, 8152, 8167, 8166, 8134,2.1444735527038574
3, 8154, 8177, 8124, 8173, 8194, 8198, 8183, 8167, 8259, 8164, 8152, 8167, 8166, 8134,2.1444735527038574
4, 8159, 8160, 8128, 8174, 8204, 8206, 8193, 8141, 8160, 8181, 8167, 8141, 8158, 8136,2.1524624824523926
4, 8159, 8160, 8128, 8174, 8204, 8206, 8193, 8141, 8160, 8181, 8167, 8141, 8158, 8136,2.1524624824523926
5, 8171, 8190, 8154, 8183, 8200, 8225, 8182, 8145, 8230, 8151, 8166, 8164, 8161, 8136,2.1604554653167725
5, 8171, 8190, 8154, 8183, 8200, 8225, 8182, 8145, 8230, 8151, 8166, 8164, 8161, 8136,2.1604554653167725
6, 8148, 8166, 8144, 8156, 8194, 8226, 8174, 8142, 8182, 8152, 8170, 8142, 8158, 8113,2.1684741973876953
6, 8148, 8166, 8144, 8156, 8194, 8226, 8174, 8142, 8182, 8152, 8170, 8142, 8158, 8113,2.1684741973876953
7, 8150, 8151, 8130, 8148, 8194, 8222, 8169, 8123, 8115, 8167, 8172, 8130, 8156, 8106,2.1764752864837646
7, 8150, 8151, 8130, 8148, 8194, 8222, 8169, 8123, 8115, 8167, 8172, 8130, 8156, 8106,2.1764752864837646
8, 8173, 8178, 8147, 8168, 8176, 8227, 8161, 8127, 8205, 8147, 8160, 8161, 8164, 8099,2.1841416358947754
8, 8173, 8178, 8147, 8168, 8176, 8227, 8161, 8127, 8205, 8147, 8160, 8161, 8164, 8099,2.1841416358947754
9, 8190, 8157, 8142, 8166, 8191, 8237, 8186, 8136, 8110, 8157, 8173, 8138, 8159, 8102,2.191135883331299
9, 8190, 8157, 8142, 8166, 8191, 8237, 8186, 8136, 8110, 8157, 8173, 8138, 8159, 8102,2.191135883331299
10, 8207, 8177, 8152, 8173, 8189, 8232, 8183, 8148, 8194, 8153, 8163, 8165, 8161, 8121,2.1994740962982178
10, 8207, 8177, 8152, 8173, 8189, 8232, 8183, 8148, 8194, 8153, 8163, 8165, 8161, 8121,2.1994740962982178
11, 8184, 8170, 8144, 8168, 8198, 8224, 8184, 8151, 8201, 8159, 8158, 8152, 8163, 8111,2.2074382305145264
11, 8184, 8170, 8144, 8168, 8198, 8224, 8184, 8151, 8201, 8159, 8158, 8152, 8163, 8111,2.2074382305145264
12, 8187, 8158, 8136, 8165, 8216, 8235, 8192, 8150, 8130, 8168, 8170, 8131, 8159, 8117,2.2151682376861572
12, 8187, 8158, 8136, 8165, 8216, 8235, 8192, 8150, 8130, 8168, 8170, 8131, 8159, 8117,2.2151682376861572
13, 8195, 8182, 8153, 8171, 8196, 8227, 8176, 8153, 8235, 8152, 8168, 8168, 8164, 8125,2.2231709957122803
13, 8195, 8182, 8153, 8171, 8196, 8227, 8176, 8153, 8235, 8152, 8168, 8168, 8164, 8125,2.2231709957122803
14, 8186, 8161, 8152, 8168, 8200, 8214, 8188, 8149, 8164, 8187, 8181, 8142, 8164, 8124,2.2314741611480713
14, 8186, 8161, 8152, 8168, 8200, 8214, 8188, 8149, 8164, 8187, 8181, 8142, 8164, 8124,2.2314741611480713
15, 8200, 8178, 8174, 8172, 8199, 8228, 8188, 8150, 8226, 8196, 8172, 8156, 8168, 8135,2.2392618656158447
15, 8200, 8178, 8174, 8172, 8199, 8228, 8188, 8150, 8226, 8196, 8172, 8156, 8168, 8135,2.2392618656158447
16, 8180, 8172, 8176, 8157, 8191, 8231, 8181, 8146, 8228, 8182, 8159, 8154, 8162, 8119,2.2472617626190186
16, 8180, 8172, 8176, 8157, 8191, 8231, 8181, 8146, 8228, 8182, 8159, 8154, 8162, 8119,2.2472617626190186
17, 8180, 8158, 8168, 8159, 8193, 8223, 8181, 8142, 8140, 8185, 8164, 8135, 8154, 8113,2.2542531490325928
17, 8180, 8158, 8168, 8159, 8193, 8223, 8181, 8142, 8140, 8185, 8164, 8135, 8154, 8113,2.2542531490325928
18, 8186, 8179, 8184, 8180, 8182, 8225, 8168, 8147, 8240, 8164, 8167, 8164, 8164, 8111,2.2622532844543457
18, 8186, 8179, 8184, 8180, 8182, 8225, 8168, 8147, 8240, 8164, 8167, 8164, 8164, 8111,2.2622532844543457
19, 8168, 8150, 8172, 8174, 8195, 8229, 8185, 8146, 8157, 8175, 8184, 8135, 8166, 8101,2.2702550888061523
19, 8168, 8150, 8172, 8174, 8195, 8229, 8185, 8146, 8157, 8175, 8184, 8135, 8166, 8101,2.2702550888061523
20, 8189, 8163, 8170, 8169, 8189, 8223, 8180, 8155, 8204, 8180, 8175, 8155, 8166, 8123,2.278254270553589
20, 8189, 8163, 8170, 8169, 8189, 8223, 8180, 8155, 8204, 8180, 8175, 8155, 8166, 8123,2.278254270553589
21, 8179, 8166, 8162, 8158, 8181, 8210, 8166, 8158, 8241, 8177, 8176, 8169, 8163, 8131,2.2862548828125
21, 8179, 8166, 8162, 8158, 8181, 8210, 8166, 8158, 8241, 8177, 8176, 8169, 8163, 8131,2.2862548828125
22, 8182, 8157, 8153, 8159, 8192, 8213, 8178, 8145, 8148, 8182, 8184, 8145, 8160, 8135,2.2942540645599365
22, 8182, 8157, 8153, 8159, 8192, 8213, 8178, 8145, 8148, 8182, 8184, 8145, 8160, 8135,2.2942540645599365
23, 8194, 8176, 8161, 8159, 8173, 8217, 8162, 8129, 8225, 8154, 8155, 8165, 8164, 8129,2.302253484725952
23, 8194, 8176, 8161, 8159, 8173, 8217, 8162, 8129, 8225, 8154, 8155, 8165, 8164, 8129,2.302253484725952
24, 8159, 8140, 8149, 8141, 8186, 8228, 8166, 8120, 8136, 8166, 8162, 8138, 8157, 8112,2.3102545738220215
24, 8159, 8140, 8149, 8141, 8186, 8228, 8166, 8120, 8136, 8166, 8162, 8138, 8157, 8112,2.3102545738220215
25, 8173, 8158, 8171, 8161, 8199, 8246, 8184, 8146, 8174, 8167, 8157, 8153, 8159, 8118,2.317396640777588
25, 8173, 8158, 8171, 8161, 8199, 8246, 8184, 8146, 8174, 8167, 8157, 8153, 8159, 8118,2.317396640777588
26, 8172, 8167, 8173, 8153, 8174, 8235, 8188, 8149, 8212, 8145, 8129, 8158, 8161, 8102,2.3253965377807617
26, 8172, 8167, 8173, 8153, 8174, 8235, 8188, 8149, 8212, 8145, 8129, 8158, 8161, 8102,2.3253965377807617
27, 8155, 8140, 8155, 8135, 8168, 8229, 8194, 8132, 8098, 8165, 8146, 8133, 8158, 8099,2.333406448364258
27, 8155, 8140, 8155, 8135, 8168, 8229, 8194, 8132, 8098, 8165, 8146, 8133, 8158, 8099,2.333406448364258
28, 8177, 8175, 8184, 8166, 8164, 8241, 8181, 8153, 8240, 8174, 8162, 8177, 8171, 8119,2.3414759635925293
28, 8177, 8175, 8184, 8166, 8164, 8241, 8181, 8153, 8240, 8174, 8162, 8177, 8171, 8119,2.3414759635925293
29, 8184, 8167, 8187, 8171, 8179, 8242, 8188, 8164, 8208, 8180, 8170, 8148, 8166, 8113,2.3493940830230713
29, 8184, 8167, 8187, 8171, 8179, 8242, 8188, 8164, 8208, 8180, 8170, 8148, 8166, 8113,2.3493940830230713
30, 8197, 8169, 8175, 8163, 8176, 8237, 8188, 8150, 8159, 8157, 8146, 8137, 8152, 8104,2.3573873043060303
30, 8197, 8169, 8175, 8163, 8176, 8237, 8188, 8150, 8159, 8157, 8146, 8137, 8152, 8104,2.3573873043060303
31, 8173, 8163, 8157, 8145, 8163, 8232, 8186, 8139, 8180, 8141, 8136, 8156, 8157, 8095,2.3654744625091553
31, 8173, 8163, 8157, 8145, 8163, 8232, 8186, 8139, 8180, 8141, 8136, 8156, 8157, 8095,2.3654744625091553
32, 8143, 8138, 8142, 8131, 8168, 8233, 8198, 8146, 8090, 8167, 8161, 8133, 8163, 8105,2.3734755516052246
32, 8143, 8138, 8142, 8131, 8168, 8233, 8198, 8146, 8090, 8167, 8161, 8133, 8163, 8105,2.3734755516052246
33, 8152, 8175, 8157, 8150, 8143, 8226, 8175, 8157, 8200, 8146, 8142, 8159, 8160, 8115,2.3817081451416016
33, 8152, 8175, 8157, 8150, 8143, 8226, 8175, 8157, 8200, 8146, 8142, 8159, 8160, 8115,2.3817081451416016
34, 8160, 8160, 8141, 8153, 8156, 8213, 8184, 8150, 8158, 8161, 8139, 8140, 8157, 8109,2.38871169090271
34, 8160, 8160, 8141, 8153, 8156, 8213, 8184, 8150, 8158, 8161, 8139, 8140, 8157, 8109,2.38871169090271
35, 8198, 8161, 8141, 8159, 8177, 8216, 8203, 8150, 8155, 8186, 8152, 8144, 8163, 8132,2.396716833114624
35, 8198, 8161, 8141, 8159, 8177, 8216, 8203, 8150, 8155, 8186, 8152, 8144, 8163, 8132,2.396716833114624
36, 8188, 8179, 8153, 8158, 8168, 8228, 8190, 8154, 8255, 8166, 8150, 8166, 8166, 8133,2.4047152996063232
36, 8188, 8179, 8153, 8158, 8168, 8228, 8190, 8154, 8255, 8166, 8150, 8166, 8166, 8133,2.4047152996063232
37, 8168, 8158, 8139, 8159, 8185, 8244, 8197, 8149, 8166, 8191, 8169, 8141, 8166, 8133,2.4124741554260254
37, 8168, 8158, 8139, 8159, 8185, 8244, 8197, 8149, 8166, 8191, 8169, 8141, 8166, 8133,2.4124741554260254
38, 8187, 8178, 8142, 8172, 8164, 8238, 8183, 8147, 8233, 8182, 8158, 8169, 8171, 8145,2.4204742908477783
38, 8187, 8178, 8142, 8172, 8164, 8238, 8183, 8147, 8233, 8182, 8158, 8169, 8171, 8145,2.4204742908477783
39, 8156, 8155, 8128, 8151, 8147, 8224, 8167, 8132, 8149, 8150, 8137, 8147, 8154, 8118,2.4284024238586426
39, 8156, 8155, 8128, 8151, 8147, 8224, 8167, 8132, 8149, 8150, 8137, 8147, 8154, 8118,2.4284024238586426
40, 8154, 8156, 8134, 8158, 8167, 8230, 8166, 8130, 8092, 8145, 8130, 8139, 8150, 8105,2.436399221420288
40, 8154, 8156, 8134, 8158, 8167, 8230, 8166, 8130, 8092, 8145, 8130, 8139, 8150, 8105,2.436399221420288
41, 8161, 8177, 8145, 8166, 8161, 8236, 8171, 8129, 8183, 8135, 8136, 8164, 8163, 8100,2.444413900375366
41, 8161, 8177, 8145, 8166, 8161, 8236, 8171, 8129, 8183, 8135, 8136, 8164, 8163, 8100,2.444413900375366
42, 8139, 8140, 8127, 8146, 8154, 8243, 8181, 8120, 8062, 8139, 8158, 8129, 8157, 8099,2.4514293670654297
42, 8139, 8140, 8127, 8146, 8154, 8243, 8181, 8120, 8062, 8139, 8158, 8129, 8157, 8099,2.4514293670654297
43, 8153, 8163, 8151, 8158, 8134, 8247, 8158, 8134, 8141, 8129, 8147, 8159, 8163, 8120,2.459266424179077
43, 8153, 8163, 8151, 8158, 8134, 8247, 8158, 8134, 8141, 8129, 8147, 8159, 8163, 8120,2.459266424179077
44, 8155, 8158, 8158, 8158, 8139, 8237, 8164, 8138, 8157, 8156, 8159, 8160, 8173, 8123,2.4672205448150635
44, 8155, 8158, 8158, 8158, 8139, 8237, 8164, 8138, 8157, 8156, 8159, 8160, 8173, 8123,2.4672205448150635
45, 8163, 8148, 8146, 8144, 8158, 8236, 8178, 8131, 8112, 8174, 8176, 8144, 8169, 8126,2.4752235412597656
45, 8163, 8148, 8146, 8144, 8158, 8236, 8178, 8131, 8112, 8174, 8176, 8144, 8169, 8126,2.4752235412597656
46, 8161, 8170, 8148, 8148, 8143, 8245, 8166, 8135, 8196, 8142, 8144, 8161, 8165, 8118,2.4832205772399902
46, 8161, 8170, 8148, 8148, 8143, 8245, 8166, 8135, 8196, 8142, 8144, 8161, 8165, 8118,2.4832205772399902
47, 8146, 8146, 8128, 8150, 8152, 8249, 8185, 8133, 8087, 8161, 8145, 8127, 8164, 8114,2.4914748668670654
47, 8146, 8146, 8128, 8150, 8152, 8249, 8185, 8133, 8087, 8161, 8145, 8127, 8164, 8114,2.4914748668670654
48, 8152, 8157, 8123, 8154, 8149, 8235, 8174, 8138, 8153, 8167, 8152, 8149, 8169, 8126,2.4998056888580322
48, 8152, 8157, 8123, 8154, 8149, 8235, 8174, 8138, 8153, 8167, 8152, 8149, 8169, 8126,2.4998056888580322
49, 8139, 8147, 8114, 8145, 8145, 8211, 8155, 8132, 8156, 8161, 8153, 8143, 8162, 8116,2.5068135261535645
49, 8139, 8147, 8114, 8145, 8145, 8211, 8155, 8132, 8156, 8161, 8153, 8143, 8162, 8116,2.5068135261535645
50, 8157, 8147, 8116, 8152, 8147, 8226, 8167, 8123, 8073, 8161, 8158, 8129, 8160, 8124,2.515237808227539
50, 8157, 8147, 8116, 8152, 8147, 8226, 8167, 8123, 8073, 8161, 8158, 8129, 8160, 8124,2.515237808227539
51, 8160, 8171, 8131, 8152, 8132, 8247, 8162, 8136, 8181, 8137, 8153, 8166, 8169, 8131,2.522475242614746
51, 8160, 8171, 8131, 8152, 8132, 8247, 8162, 8136, 8181, 8137, 8153, 8166, 8169, 8131,2.52299165725708
52, 8127, 8137, 8111, 8135, 8149, 8235, 8171, 8138, 8107, 8160, 8168, 8132, 8164, 8117,2.53047513961792
52, 8127, 8137, 8111, 8135, 8149, 8235, 8171, 8138, 8107, 8160, 8168, 8132, 8164, 8117,2.53047513961792
53, 8147, 8159, 8112, 8150, 8148, 8220, 8174, 8136, 8146, 8172, 8158, 8141, 8160, 8120,2.538541316986084
53, 8147, 8159, 8112, 8150, 8148, 8220, 8174, 8136, 8146, 8172, 8158, 8141, 8160, 8120,2.538541316986084
54, 8139, 8160, 8111, 8138, 8151, 8221, 8178, 8137, 8160, 8169, 8154, 8147, 8156, 8114,2.5465381145477295
54, 8139, 8160, 8111, 8138, 8151, 8221, 8178, 8137, 8160, 8169, 8154, 8147, 8156, 8114,2.5465381145477295
55, 8126, 8140, 8103, 8127, 8172, 8233, 8192, 8142, 8095, 8182, 8169, 8135, 8156, 8116,2.554537534713745
55, 8126, 8140, 8103, 8127, 8172, 8233, 8192, 8142, 8095, 8182, 8169, 8135, 8156, 8116,2.554537534713745
56, 8136, 8168, 8118, 8153, 8156, 8226, 8180, 8141, 8215, 8166, 8154, 8167, 8168, 8119,2.5625624656677246
56, 8136, 8168, 8118, 8153, 8156, 8226, 8180, 8141, 8215, 8166, 8154, 8167, 8168, 8119,2.5625624656677246
57, 8127, 8149, 8108, 8148, 8168, 8221, 8184, 8125, 8126, 8175, 8159, 8136, 8162, 8116,2.5697946548461914
57, 8127, 8149, 8108, 8148, 8168, 8221, 8184, 8125, 8126, 8175, 8159, 8136, 8162, 8116,2.570788860321045
58, 8144, 8167, 8120, 8151, 8175, 8237, 8179, 8135, 8157, 8181, 8167, 8152, 8159, 8133,2.5777881145477295
58, 8144, 8167, 8120, 8151, 8175, 8237, 8179, 8135, 8157, 8181, 8167, 8152, 8159, 8133,2.5787882804870605
59, 8144, 8173, 8139, 8155, 8163, 8236, 8181, 8151, 8226, 8183, 8177, 8164, 8167, 8134,2.585796594619751
59, 8144, 8173, 8139, 8155, 8163, 8236, 8181, 8151, 8226, 8183, 8177, 8164, 8167, 8134,2.585796594619751
60, 8148, 8149, 8145, 8149, 8178, 8228, 8190, 8142, 8144, 8189, 8188, 8137, 8170, 8136,2.5938007831573486
60, 8148, 8149, 8145, 8149, 8178, 8228, 8190, 8142, 8144, 8189, 8188, 8137, 8170, 8136,2.5938007831573486
61, 8151, 8179, 8171, 8155, 8173, 8224, 8165, 8143, 8241, 8168, 8173, 8171, 8168, 8132,2.601475715637207
61, 8151, 8179, 8171, 8155, 8173, 8224, 8165, 8143, 8241, 8168, 8173, 8171, 8168, 8132,2.601475715637207
62, 8143, 8164, 8174, 8161, 8174, 8220, 8177, 8144, 8178, 8203, 8184, 8152, 8159, 8116,2.609464406967163
62, 8143, 8164, 8174, 8161, 8174, 8220, 8177, 8144, 8178, 8203, 8184, 8152, 8159, 8116,2.610459804534912
63, 8178, 8170, 8184, 8171, 8167, 8210, 8185, 8139, 8180, 8203, 8177, 8155, 8163, 8129,2.6172194480895996
63, 8178, 8170, 8184, 8171, 8167, 8210, 8185, 8139, 8180, 8203, 8177, 8155, 8163, 8129,2.6172194480895996
64, 8155, 8169, 8181, 8142, 8155, 8199, 8160, 8127, 8204, 8156, 8167, 8167, 8166, 8127,2.6262154579162598
64, 8155, 8169, 8181, 8142, 8155, 8199, 8160, 8127, 8204, 8156, 8167, 8167, 8166, 8127,2.6262154579162598
65, 8133, 8146, 8164, 8134, 8167, 8205, 8161, 8123, 8096, 8174, 8185, 8144, 8159, 8122,2.6334750652313232
65, 8133, 8146, 8164, 8134, 8167, 8205, 8161, 8123, 8096, 8174, 8185, 8144, 8159, 8122,2.6334750652313232
66, 8166, 8175, 8178, 8164, 8148, 8201, 8163, 8139, 8203, 8178, 8165, 8176, 8161, 8133,2.641474962234497
66, 8166, 8175, 8178, 8164, 8148, 8201, 8163, 8139, 8203, 8178, 8165, 8176, 8161, 8133,2.641839027404785
67, 8156, 8161, 8170, 8150, 8159, 8188, 8170, 8135, 8147, 8171, 8168, 8155, 8162, 8131,2.648846387863159
67, 8156, 8161, 8170, 8150, 8159, 8188, 8170, 8135, 8147, 8171, 8168, 8155, 8162, 8131,2.648846387863159
68, 8157, 8170, 8163, 8146, 8173, 8189, 8159, 8133, 8137, 8165, 8178, 8149, 8160, 8132,2.6568477153778076
68, 8157, 8170, 8163, 8146, 8173, 8189, 8159, 8133, 8137, 8165, 8178, 8149, 8160, 8132,2.6568477153778076
69, 8142, 8166, 8151, 8149, 8146, 8180, 8143, 8132, 8185, 8160, 8156, 8152, 8159, 8116,2.664475440979004
69, 8142, 8166, 8151, 8149, 8146, 8180, 8143, 8132, 8185, 8160, 8156, 8152, 8159, 8116,2.664475440979004
70, 8131, 8140, 8146, 8151, 8151, 8179, 8172, 8136, 8074, 8184, 8164, 8126, 8160, 8122,2.6724746227264404
70, 8131, 8140, 8146, 8151, 8151, 8179, 8172, 8136, 8074, 8184, 8164, 8126, 8160, 8122,2.6724746227264404
71, 8162, 8186, 8176, 8174, 8159, 8182, 8178, 8151, 8199, 8170, 8172, 8167, 8167, 8138,2.6809210777282715
71, 8162, 8186, 8176, 8174, 8159, 8182, 8178, 8151, 8199, 8170, 8172, 8167, 8167, 8138,2.6809210777282715
72, 8149, 8168, 8156, 8156, 8171, 8169, 8175, 8134, 8150, 8171, 8176, 8143, 8159, 8116,2.687917709350586
72, 8149, 8168, 8156, 8156, 8171, 8169, 8175, 8134, 8150, 8171, 8176, 8143, 8159, 8116,2.688917636871338
73, 8141, 8153, 8153, 8150, 8170, 8165, 8168, 8132, 8093, 8179, 8169, 8134, 8156, 8119,2.6967217922210693
73, 8141, 8153, 8153, 8150, 8170, 8165, 8168, 8132, 8093, 8179, 8169, 8134, 8156, 8119,2.6967217922210693
74, 8156, 8177, 8184, 8169, 8164, 8179, 8174, 8157, 8227, 8183, 8176, 8175, 8168, 8138,2.7044739723205566
74, 8156, 8177, 8184, 8169, 8164, 8179, 8174, 8157, 8227, 8183, 8176, 8175, 8168, 8138,2.7044739723205566
75, 8169, 8159, 8173, 8168, 8187, 8199, 8208, 8152, 8171, 8210, 8211, 8151, 8164, 8148,2.7124736309051514
75, 8169, 8159, 8173, 8168, 8187, 8199, 8208, 8152, 8171, 8210, 8211, 8151, 8164, 8148,2.7124736309051514
76, 8165, 8173, 8171, 8168, 8165, 8190, 8186, 8142, 8230, 8179, 8197, 8164, 8162, 8146,2.7189509868621826
76, 8165, 8173, 8171, 8168, 8165, 8190, 8186, 8142, 8230, 8179, 8197, 8164, 8162, 8146,2.7189509868621826
77, 8140, 8156, 8166, 8156, 8159, 8170, 8176, 8144, 8190, 8175, 8189, 8150, 8162, 8132,2.727407693862915
77, 8140, 8156, 8166, 8156, 8159, 8170, 8176, 8144, 8190, 8175, 8189, 8150, 8162, 8132,2.727407693862915
78, 8160, 8156, 8170, 8155, 8182, 8180, 8187, 8148, 8151, 8195, 8207, 8151, 8161, 8150,2.735560655593872
78, 8160, 8156, 8170, 8155, 8182, 8180, 8187, 8148, 8151, 8195, 8207, 8151, 8161, 8150,2.735560655593872
79, 8167, 8182, 8185, 8161, 8173, 8190, 8181, 8154, 8261, 8179, 8207, 8181, 8166, 8156,2.7435970306396484
79, 8167, 8182, 8185, 8161, 8173, 8190, 8181, 8154, 8261, 8179, 8207, 8181, 8166, 8156,2.7435970306396484
80, 8157, 8159, 8170, 8158, 8178, 8194, 8205, 8157, 8179, 8197, 8211, 8144, 8167, 8153,2.751474618911743
80, 8157, 8159, 8170, 8158, 8178, 8194, 8205, 8157, 8179, 8197, 8211, 8144, 8167, 8153,2.751474618911743
81, 8169, 8173, 8168, 8162, 8166, 8190, 8196, 8158, 8237, 8192, 8196, 8171, 8174, 8163,2.759795904159546
81, 8169, 8173, 8168, 8162, 8166, 8190, 8196, 8158, 8237, 8192, 8196, 8171, 8174, 8163,2.759795904159546
82, 8146, 8159, 8157, 8147, 8164, 8175, 8182, 8152, 8217, 8195, 8204, 8170, 8170, 8151,2.767469882965088
82, 8146, 8159, 8157, 8147, 8164, 8175, 8182, 8152, 8217, 8195, 8204, 8170, 8170, 8151,2.7684669494628906
83, 8159, 8156, 8165, 8152, 8184, 8178, 8195, 8158, 8180, 8210, 8225, 8153, 8165, 8165,2.7755229473114014
83, 8159, 8156, 8165, 8152, 8184, 8178, 8195, 8158, 8180, 8210, 8225, 8153, 8165, 8165,2.7755229473114014
84, 8172, 8185, 8181, 8167, 8177, 8183, 8191, 8166, 8297, 8186, 8207, 8183, 8165, 8167,2.782524585723877
84, 8172, 8185, 8181, 8167, 8177, 8183, 8191, 8166, 8297, 8186, 8207, 8183, 8165, 8167,2.782524585723877
85, 8154, 8159, 8158, 8163, 8187, 8179, 8198, 8153, 8168, 8187, 8203, 8146, 8155, 8142,2.7904741764068604
85, 8154, 8159, 8158, 8163, 8187, 8179, 8198, 8153, 8168, 8187, 8203, 8146, 8155, 8142,2.7904741764068604
86, 8176, 8178, 8172, 8170, 8185, 8177, 8193, 8154, 8215, 8186, 8197, 8159, 8158, 8154,2.7985787391662598
86, 8176, 8178, 8172, 8170, 8185, 8177, 8193, 8154, 8215, 8186, 8197, 8159, 8158, 8154,2.7985787391662598
87, 8164, 8163, 8170, 8154, 8175, 8175, 8192, 8155, 8245, 8187, 8194, 8159, 8163, 8151,2.806469678878784
87, 8164, 8163, 8170, 8154, 8175, 8175, 8192, 8155, 8245, 8187, 8194, 8159, 8163, 8151,2.806469678878784
88, 8162, 8143, 8152, 8158, 8181, 8176, 8196, 8146, 8145, 8180, 8193, 8140, 8159, 8139,2.8147201538085938
88, 8162, 8143, 8152, 8158, 8181, 8176, 8196, 8146, 8145, 8180, 8193, 8140, 8159, 8139,2.8147201538085938
89, 8168, 8179, 8165, 8178, 8178, 8168, 8173, 8147, 8225, 8148, 8174, 8171, 8160, 8138,2.822474956512451
89, 8168, 8179, 8165, 8178, 8178, 8168, 8173, 8147, 8225, 8148, 8174, 8171, 8160, 8138,2.822474956512451
90, 8146, 8166, 8153, 8158, 8196, 8165, 8179, 8142, 8140, 8183, 8177, 8136, 8156, 8129,2.830474376678467
90, 8146, 8166, 8153, 8158, 8196, 8165, 8179, 8142, 8140, 8183, 8177, 8136, 8156, 8129,2.830474376678467
91, 8159, 8179, 8154, 8157, 8188, 8170, 8179, 8139, 8167, 8185, 8155, 8143, 8154, 8120,2.8384740352630615
91, 8159, 8179, 8154, 8157, 8188, 8170, 8179, 8139, 8167, 8185, 8155, 8143, 8154, 8120,2.8384740352630615
92, 8142, 8167, 8158, 8152, 8182, 8169, 8177, 8138, 8170, 8144, 8141, 8152, 8154, 8100,2.8454957008361816
92, 8142, 8167, 8158, 8152, 8182, 8169, 8177, 8138, 8170, 8144, 8141, 8152, 8154, 8100,2.8454957008361816
93, 8142, 8144, 8166, 8146, 8207, 8177, 8193, 8144, 8092, 8158, 8162, 8144, 8161, 8115,2.8534953594207764
93, 8142, 8144, 8166, 8146, 8207, 8177, 8193, 8144, 8092, 8158, 8162, 8144, 8161, 8115,2.8534953594207764
94, 8168, 8178, 8195, 8164, 8193, 8181, 8184, 8155, 8240, 8169, 8163, 8185, 8171, 8138,2.861919641494751
94, 8168, 8178, 8195, 8164, 8193, 8181, 8184, 8155, 8240, 8169, 8163, 8185, 8171, 8138,2.861919641494751
95, 8157, 8160, 8191, 8166, 8199, 8179, 8194, 8146, 8185, 8184, 8177, 8156, 8164, 8133,2.8694684505462646
95, 8157, 8160, 8191, 8166, 8199, 8179, 8194, 8146, 8185, 8184, 8177, 8156, 8164, 8133,2.8694684505462646
96, 8179, 8174, 8203, 8170, 8205, 8184, 8201, 8151, 8204, 8180, 8180, 8162, 8163, 8148,2.8774802684783936
96, 8179, 8174, 8203, 8170, 8205, 8184, 8201, 8151, 8204, 8180, 8180, 8162, 8163, 8148,2.8774802684783936
97, 8180, 8185, 8211, 8169, 8197, 8175, 8206, 8161, 8274, 8188, 8187, 8175, 8170, 8154,2.885481119155884
97, 8180, 8185, 8211, 8169, 8197, 8175, 8206, 8161, 8274, 8188, 8187, 8175, 8170, 8154,2.885481119155884
98, 8173, 8166, 8193, 8179, 8210, 8172, 8217, 8155, 8197, 8222, 8199, 8151, 8163, 8150,2.8934743404388428
98, 8173, 8166, 8193, 8179, 8210, 8172, 8217, 8155, 8197, 8222, 8199, 8151, 8163, 8150,2.8934743404388428
99, 8174, 8178, 8178, 8180, 8194, 8173, 8188, 8146, 8256, 8188, 8160, 8173, 8158, 8135,2.9014742374420166
99, 8174, 8178, 8178, 8180, 8194, 8173, 8188, 8146, 8256, 8188, 8160, 8173, 8158, 8135,2.9014742374420166
100, 8145, 8140, 8149, 8149, 8193, 8169, 8188, 8143, 8140, 8167, 8148, 8141, 8156, 8114,2.9095287322998047
100, 8145, 8140, 8149, 8149, 8193, 8169, 8188, 8143, 8140, 8167, 8148, 8141, 8156, 8114,2.9095287322998047
101, 8161, 8155, 8155, 8159, 8199, 8173, 8206, 8164, 8157, 8172, 8158, 8151, 8163, 8127,2.9164748191833496
101, 8161, 8155, 8155, 8159, 8199, 8173, 8206, 8164, 8157, 8172, 8158, 8151, 8163, 8127,2.9164748191833496
102, 8158, 8177, 8154, 8168, 8195, 8173, 8203, 8165, 8246, 8173, 8157, 8169, 8163, 8123,2.9238498210906982
102, 8158, 8177, 8154, 8168, 8195, 8173, 8203, 8165, 8246, 8173, 8157, 8169, 8163, 8123,2.9248454570770264
103, 8141, 8149, 8131, 8160, 8205, 8168, 8204, 8147, 8132, 8198, 8171, 8136, 8160, 8119,2.932877779006958
103, 8141, 8149, 8131, 8160, 8205, 8168, 8204, 8147, 8132, 8198, 8171, 8136, 8160, 8119,2.932877779006958
104, 8161, 8171, 8148, 8165, 8193, 8162, 8193, 8151, 8228, 8188, 8168, 8169, 8170, 8124,2.939890146255493
104, 8161, 8171, 8148, 8165, 8193, 8162, 8193, 8151, 8228, 8188, 8168, 8169, 8170, 8124,2.939890146255493
105, 8150, 8158, 8143, 8153, 8212, 8170, 8201, 8145, 8186, 8185, 8172, 8154, 8164, 8104,2.9484739303588867
105, 8150, 8158, 8143, 8153, 8212, 8170, 8201, 8145, 8186, 8185, 8172, 8154, 8164, 8104,2.9484739303588867
106, 8155, 8167, 8144, 8167, 8227, 8177, 8203, 8145, 8158, 8184, 8158, 8146, 8158, 8113,2.9563260078430176
106, 8155, 8167, 8144, 8167, 8227, 8177, 8203, 8145, 8158, 8184, 8158, 8146, 8158, 8113,2.9563260078430176
107, 8145, 8173, 8146, 8171, 8203, 8165, 8191, 8149, 8218, 8168, 8139, 8159, 8161, 8115,2.964325428009033
107, 8145, 8173, 8146, 8171, 8203, 8165, 8191, 8149, 8218, 8168, 8139, 8159, 8161, 8115,2.964325428009033
108, 8133, 8143, 8130, 8157, 8210, 8166, 8199, 8141, 8104, 8183, 8154, 8132, 8159, 8107,2.9723246097564697
108, 8133, 8143, 8130, 8157, 8210, 8166, 8199, 8141, 8104, 8183, 8154, 8132, 8159, 8107,2.9723246097564697
109, 8161, 8180, 8146, 8172, 8201, 8167, 8187, 8148, 8194, 8167, 8145, 8164, 8164, 8115,2.979335308074951
109, 8161, 8180, 8146, 8172, 8201, 8167, 8187, 8148, 8194, 8167, 8145, 8164, 8164, 8115,2.979335308074951
110, 8146, 8167, 8132, 8162, 8193, 8163, 8195, 8143, 8153, 8160, 8153, 8150, 8159, 8104,2.987438440322876
110, 8146, 8167, 8132, 8162, 8193, 8163, 8195, 8143, 8153, 8160, 8153, 8150, 8159, 8104,2.987438440322876
111, 8158, 8162, 8133, 8168, 8198, 8166, 8200, 8143, 8129, 8181, 8179, 8153, 8162, 8116,2.9955410957336426
111, 8158, 8162, 8133, 8168, 8198, 8166, 8200, 8143, 8129, 8181, 8179, 8153, 8162, 8116,2.9955410957336426
112, 8180, 8188, 8165, 8182, 8200, 8149, 8184, 8158, 8263, 8196, 8185, 8181, 8171, 8131,3.003666877746582
112, 8180, 8188, 8165, 8182, 8200, 8149, 8184, 8158, 8263, 8196, 8185, 8181, 8171, 8131,3.003666877746582
113, 8157, 8158, 8156, 8157, 8222, 8138, 8200, 8154, 8156, 8206, 8190, 8135, 8160, 8123,3.011655569076538
113, 8157, 8158, 8156, 8157, 8222, 8138, 8200, 8154, 8156, 8206, 8190, 8135, 8160, 8123,3.011655569076538
114, 8152, 8165, 8157, 8157, 8201, 8146, 8199, 8157, 8200, 8170, 8170, 8160, 8159, 8118,3.0194742679595947
114, 8152, 8165, 8157, 8157, 8201, 8146, 8199, 8157, 8200, 8170, 8170, 8160, 8159, 8118,3.0194742679595947
115, 8154, 8154, 8157, 8162, 8188, 8137, 8196, 8151, 8187, 8176, 8170, 8161, 8164, 8116,3.0276806354522705
115, 8154, 8154, 8157, 8162, 8188, 8137, 8196, 8151, 8187, 8176, 8170, 8161, 8164, 8116,3.0276806354522705
116, 8158, 8151, 8152, 8154, 8189, 8117, 8182, 8130, 8115, 8188, 8172, 8140, 8161, 8117,3.03568696975708
116, 8158, 8151, 8152, 8154, 8189, 8117, 8182, 8130, 8115, 8188, 8172, 8140, 8161, 8117,3.03568696975708
117, 8140, 8172, 8154, 8148, 8168, 8116, 8165, 8126, 8182, 8151, 8150, 8162, 8160, 8100,3.042469024658203
117, 8140, 8172, 8154, 8148, 8168, 8116, 8165, 8126, 8182, 8151, 8150, 8162, 8160, 8100,3.042469024658203
118, 8142, 8151, 8155, 8157, 8195, 8139, 8203, 8141, 8107, 8166, 8175, 8142, 8158, 8099,3.0499496459960938
118, 8142, 8151, 8155, 8157, 8195, 8139, 8203, 8141, 8107, 8166, 8175, 8142, 8158, 8099,3.0509490966796875
119, 8175, 8175, 8187, 8182, 8205, 8145, 8202, 8161, 8206, 8171, 8188, 8168, 8166, 8121,3.058274507522583
119, 8175, 8175, 8187, 8182, 8205, 8145, 8202, 8161, 8206, 8171, 8188, 8168, 8166, 8121,3.058274507522583
120, 8154, 8163, 8181, 8165, 8197, 8124, 8182, 8150, 8196, 8165, 8173, 8156, 8165, 8109,3.0662035942077637
120, 8154, 8163, 8181, 8165, 8197, 8124, 8182, 8150, 8196, 8165, 8173, 8156, 8165, 8109,3.0662035942077637
121, 8150, 8147, 8164, 8152, 8204, 8122, 8183, 8133, 8091, 8162, 8165, 8135, 8155, 8106,3.074476718902588
121, 8150, 8147, 8164, 8152, 8204, 8122, 8183, 8133, 8091, 8162, 8165, 8135, 8155, 8106,3.074476718902588
122, 8152, 8172, 8172, 8164, 8194, 8135, 8179, 8143, 8189, 8145, 8167, 8167, 8162, 8105,3.082474946975708
122, 8152, 8172, 8172, 8164, 8194, 8135, 8179, 8143, 8189, 8145, 8167, 8167, 8162, 8105,3.082474946975708
123, 8135, 8147, 8152, 8154, 8202, 8140, 8204, 8148, 8114, 8178, 8191, 8142, 8167, 8103,3.09063720703125
123, 8135, 8147, 8152, 8154, 8202, 8140, 8204, 8148, 8114, 8178, 8191, 8142, 8167, 8103,3.09063720703125
124, 8148, 8161, 8150, 8156, 8186, 8138, 8199, 8149, 8162, 8169, 8184, 8157, 8166, 8119,3.0986366271972656
124, 8148, 8161, 8150, 8156, 8186, 8138, 8199, 8149, 8162, 8169, 8184, 8157, 8166, 8119,3.0986366271972656
125, 8135, 8159, 8148, 8152, 8182, 8140, 8198, 8157, 8199, 8158, 8185, 8158, 8161, 8112,3.1064746379852295
125, 8135, 8159, 8148, 8152, 8182, 8140, 8198, 8157, 8199, 8158, 8185, 8158, 8161, 8112,3.1064746379852295
126, 8149, 8145, 8144, 8150, 8211, 8144, 8223, 8165, 8133, 8182, 8190, 8140, 8152, 8115,3.1134743690490723
126, 8149, 8145, 8144, 8150, 8211, 8144, 8223, 8165, 8133, 8182, 8190, 8140, 8152, 8115,3.1139183044433594
127, 8153, 8163, 8152, 8151, 8192, 8132, 8201, 8153, 8212, 8150, 8163, 8171, 8151, 8115,3.121474504470825
127, 8153, 8163, 8152, 8151, 8192, 8132, 8201, 8153, 8212, 8150, 8163, 8171, 8151, 8115,3.121474504470825
240, 8119, 8137, 8141, 8143, 8177, 8120, 8190, 8146, 8119, 8159, 8186, 8142, 8158, 8112,3.129474401473999
240, 8119, 8137, 8141, 8143, 8177, 8120, 8190, 8146, 8119, 8159, 8186, 8142, 8158, 8112,3.129474401473999
0, 8158, 8167, 8158, 8158, 8169, 8129, 8201, 8168, 8183, 8188, 8193, 8156, 8169, 8137,3.1374382972717285
0, 8158, 8167, 8158, 8158, 8169, 8129, 8201, 8168, 8183, 8188, 8193, 8156, 8169, 8137,3.1374382972717285
1, 8162, 8166, 8150, 8148, 8157, 8136, 8211, 8163, 8224, 8175, 8177, 8162, 8164, 8125,3.1452362537384033
1, 8162, 8166, 8150, 8148, 8157, 8136, 8211, 8163, 8224, 8175, 8177, 8162, 8164, 8125,3.1452362537384033
2, 8131, 8137, 8118, 8145, 8159, 8134, 8207, 8143, 8087, 8161, 8183, 8133, 8151, 8105,3.1532299518585205
2, 8131, 8137, 8118, 8145, 8159, 8134, 8207, 8143, 8087, 8161, 8183, 8133, 8151, 8105,3.1532299518585205
3, 8143, 8174, 8121, 8168, 8162, 8128, 8181, 8148, 8165, 8142, 8166, 8157, 8151, 8102,3.161475419998169
3, 8143, 8174, 8121, 8168, 8162, 8128, 8181, 8148, 8165, 8142, 8166, 8157, 8151, 8102,3.161475419998169
4, 8139, 8151, 8114, 8152, 8187, 8136, 8192, 8143, 8093, 8157, 8173, 8132, 8153, 8093,3.169670581817627
4, 8139, 8151, 8114, 8152, 8187, 8136, 8192, 8143, 8093, 8157, 8173, 8132, 8153, 8093,3.169670581817627
5, 8151, 8157, 8135, 8158, 8172, 8154, 8199, 8151, 8132, 8158, 8189, 8154, 8165, 8110,3.1761724948883057
5, 8151, 8157, 8135, 8158, 8172, 8154, 8199, 8151, 8132, 8158, 8189, 8154, 8165, 8110,3.1761724948883057
6, 8153, 8180, 8141, 8168, 8148, 8157, 8202, 8160, 8218, 8155, 8184, 8168, 8172, 8118,3.1841721534729004
6, 8153, 8180, 8141, 8168, 8148, 8157, 8202, 8160, 8218, 8155, 8184, 8168, 8172, 8118,3.1841721534729004
7, 8148, 8165, 8122, 8162, 8177, 8168, 8221, 8153, 8109, 8178, 8192, 8129, 8164, 8120,3.192476272583008
7, 8148, 8165, 8122, 8162, 8177, 8168, 8221, 8153, 8109, 8178, 8192, 8129, 8164, 8120,3.192476272583008
8, 8154, 8188, 8146, 8171, 8171, 8173, 8203, 8164, 8220, 8166, 8192, 8164, 8167, 8127,3.200449228286743
8, 8154, 8188, 8146, 8171, 8171, 8173, 8203, 8164, 8220, 8166, 8192, 8164, 8167, 8127,3.200449228286743
9, 8152, 8167, 8146, 8165, 8167, 8167, 8205, 8167, 8198, 8195, 8201, 8152, 8166, 8131,3.208472967147827
9, 8152, 8167, 8146, 8165, 8167, 8167, 8205, 8167, 8198, 8195, 8201, 8152, 8166, 8131,3.208472967147827
10, 8171, 8178, 8145, 8164, 8181, 8184, 8212, 8163, 8191, 8210, 8193, 8149, 8161, 8146,3.2165050506591797
10, 8171, 8178, 8145, 8164, 8181, 8184, 8212, 8163, 8191, 8210, 8193, 8149, 8161, 8146,3.2165050506591797
11, 8150, 8193, 8143, 8153, 8186, 8191, 8197, 8153, 8229, 8162, 8165, 8157, 8157, 8119,3.2244746685028076
11, 8150, 8193, 8143, 8153, 8186, 8191, 8197, 8153, 8229, 8162, 8165, 8157, 8157, 8119,3.2244746685028076
12, 8133, 8167, 8129, 8153, 8202, 8182, 8199, 8142, 8102, 8152, 8155, 8125, 8151, 8099,3.2330024242401123
12, 8133, 8167, 8129, 8153, 8202, 8182, 8199, 8142, 8102, 8152, 8155, 8125, 8151, 8099,3.2330024242401123
13, 8153, 8197, 8154, 8177, 8187, 8192, 8193, 8165, 8212, 8153, 8149, 8163, 8160, 8124,3.2406628131866455
13, 8153, 8197, 8154, 8177, 8187, 8192, 8193, 8165, 8212, 8153, 8149, 8163, 8160, 8124,3.2406628131866455
14, 8142, 8174, 8149, 8161, 8179, 8208, 8212, 8180, 8196, 8169, 8166, 8152, 8161, 8125,3.247664213180542
14, 8142, 8174, 8149, 8161, 8179, 8208, 8212, 8180, 8196, 8169, 8166, 8152, 8161, 8125,3.247664213180542
15, 8161, 8148, 8141, 8154, 8173, 8206, 8218, 8170, 8155, 8168, 8164, 8143, 8157, 8122,3.255474805831909
15, 8161, 8148, 8141, 8154, 8173, 8206, 8218, 8170, 8155, 8168, 8164, 8143, 8157, 8122,3.255474805831909
16, 8155, 8150, 8153, 8163, 8155, 8198, 8195, 8161, 8213, 8137, 8144, 8161, 8153, 8105,3.263665199279785
16, 8155, 8150, 8153, 8163, 8155, 8198, 8195, 8161, 8213, 8137, 8144, 8161, 8153, 8105,3.263665199279785
17, 8143, 8138, 8149, 8167, 8176, 8216, 8205, 8165, 8116, 8151, 8162, 8138, 8152, 8099,3.271690845489502
17, 8143, 8138, 8149, 8167, 8176, 8216, 8205, 8165, 8116, 8151, 8162, 8138, 8152, 8099,3.271690845489502
18, 8169, 8170, 8157, 8174, 8170, 8219, 8197, 8168, 8204, 8154, 8151, 8168, 8165, 8119,3.279362916946411
18, 8169, 8170, 8157, 8174, 8170, 8219, 8197, 8168, 8204, 8154, 8151, 8168, 8165, 8119,3.2799129486083984
19, 8143, 8148, 8140, 8155, 8157, 8200, 8184, 8147, 8156, 8147, 8140, 8147, 8159, 8120,3.287724256515503
19, 8143, 8148, 8140, 8155, 8157, 8200, 8184, 8147, 8156, 8147, 8140, 8147, 8159, 8120,3.287724256515503
20, 8148, 8145, 8127, 8155, 8164, 8211, 8184, 8146, 8100, 8130, 8137, 8132, 8152, 8132,3.2954750061035156
20, 8148, 8145, 8127, 8155, 8164, 8211, 8184, 8146, 8100, 8130, 8137, 8132, 8152, 8132,3.2954750061035156
21, 8152, 8161, 8129, 8155, 8156, 8229, 8176, 8162, 8204, 8106, 8126, 8162, 8162, 8127,3.3037314414978027
21, 8152, 8161, 8129, 8155, 8156, 8229, 8176, 8162, 8204, 8106, 8126, 8162, 8162, 8127,3.3037314414978027
22, 8127, 8126, 8122, 8139, 8165, 8239, 8183, 8159, 8109, 8145, 8151, 8138, 8158, 8113,3.3107316493988037
22, 8127, 8126, 8122, 8139, 8165, 8239, 8183, 8159, 8109, 8145, 8151, 8138, 8158, 8113,3.3107316493988037
23, 8155, 8159, 8149, 8149, 8155, 8250, 8180, 8168, 8192, 8162, 8151, 8164, 8156, 8128,3.318474054336548
23, 8155, 8159, 8149, 8149, 8155, 8250, 8180, 8168, 8192, 8162, 8151, 8164, 8156, 8128,3.318474054336548
24, 8150, 8160, 8148, 8147, 8149, 8256, 8184, 8169, 8195, 8150, 8150, 8156, 8155, 8125,3.3266570568084717
24, 8150, 8160, 8148, 8147, 8149, 8256, 8184, 8169, 8195, 8150, 8150, 8156, 8155, 8125,3.3266570568084717
25, 8144, 8152, 8142, 8157, 8158, 8271, 8194, 8162, 8130, 8145, 8156, 8141, 8157, 8129,3.3339457511901855
25, 8144, 8152, 8142, 8157, 8158, 8271, 8194, 8162, 8130, 8145, 8156, 8141, 8157, 8129,3.3349449634552
26, 8157, 8172, 8157, 8171, 8154, 8279, 8189, 8162, 8230, 8131, 8140, 8173, 8163, 8130,3.3449838161468506
26, 8157, 8172, 8157, 8171, 8154, 8279, 8189, 8162, 8230, 8131, 8140, 8173, 8163, 8130,3.3449838161468506
27, 8149, 8144, 8142, 8161, 8172, 8279, 8199, 8157, 8138, 8143, 8146, 8143, 8159, 8122,3.3499834537506104
27, 8149, 8144, 8142, 8161, 8172, 8279, 8199, 8157, 8138, 8143, 8146, 8143, 8159, 8122,3.3499834537506104
28, 8158, 8169, 8150, 8167, 8163, 8293, 8191, 8169, 8195, 8132, 8139, 8160, 8160, 8128,3.3579838275909424
28, 8158, 8169, 8150, 8167, 8163, 8293, 8191, 8169, 8195, 8132, 8139, 8160, 8160, 8128,3.3579838275909424
29, 8160, 8175, 8166, 8166, 8161, 8311, 8204, 8171, 8220, 8144, 8150, 8168, 8162, 8124,3.3667492866516113
29, 8160, 8175, 8166, 8166, 8161, 8311, 8204, 8171, 8220, 8144, 8150, 8168, 8162, 8124,3.3667492866516113
30, 8185, 8170, 8181, 8181, 8178, 8309, 8221, 8165, 8167, 8164, 8172, 8159, 8163, 8138,3.37275767326355
30, 8185, 8170, 8181, 8181, 8178, 8309, 8221, 8165, 8167, 8164, 8172, 8159, 8163, 8138,3.373756170272827
31, 8195, 8196, 8200, 8201, 8152, 8287, 8194, 8176, 8277, 8138, 8165, 8192, 8169, 8156,3.3807573318481445
31, 8195, 8196, 8200, 8201, 8152, 8287, 8194, 8176, 8277, 8138, 8165, 8192, 8169, 8156,3.3817574977874756
32, 8174, 8174, 8189, 8188, 8157, 8280, 8201, 8174, 8194, 8168, 8184, 8163, 8167, 8160,3.3887553215026855
32, 8174, 8174, 8189, 8188, 8157, 8280, 8201, 8174, 8194, 8168, 8184, 8163, 8167, 8160,3.3897571563720703
33, 8186, 8199, 8206, 8192, 8169, 8286, 8205, 8176, 8253, 8177, 8195, 8181, 8165, 8170,3.3967549800872803
33, 8186, 8199, 8206, 8192, 8169, 8286, 8205, 8176, 8253, 8177, 8195, 8181, 8165, 8170,3.3977553844451904
34, 8185, 8210, 8213, 8190, 8168, 8280, 8211, 8179, 8306, 8169, 8198, 8188, 8165, 8163,3.404754638671875
34, 8185, 8210, 8213, 8190, 8168, 8280, 8211, 8179, 8306, 8169, 8198, 8188, 8165, 8163,3.4057555198669434
35, 8197, 8198, 8206, 8176, 8180, 8283, 8226, 8175, 8214, 8192, 8207, 8162, 8166, 8172,3.412754535675049
35, 8197, 8198, 8206, 8176, 8180, 8283, 8226, 8175, 8214, 8192, 8207, 8162, 8166, 8172,3.413759231567383
36, 8196, 8221, 8217, 8177, 8165, 8287, 8200, 8179, 8311, 8174, 8200, 8191, 8171, 8166,3.4207584857940674
36, 8196, 8221, 8217, 8177, 8165, 8287, 8200, 8179, 8311, 8174, 8200, 8191, 8171, 8166,3.421757936477661
37, 8173, 8196, 8200, 8179, 8178, 8295, 8209, 8184, 8266, 8192, 8223, 8166, 8169, 8153,3.429474115371704
37, 8173, 8196, 8200, 8179, 8178, 8295, 8209, 8184, 8266, 8192, 8223, 8166, 8169, 8153,3.429474115371704
38, 8207, 8212, 8206, 8198, 8184, 8300, 8214, 8183, 8307, 8202, 8222, 8177, 8168, 8177,3.436474561691284
38, 8207, 8212, 8206, 8198, 8184, 8300, 8214, 8183, 8307, 8202, 8222, 8177, 8168, 8177,3.436474561691284
39, 8203, 8210, 8196, 8186, 8171, 8277, 8191, 8162, 8311, 8176, 8190, 8180, 8162, 8166,3.4444775581359863
39, 8203, 8210, 8196, 8186, 8171, 8277, 8191, 8162, 8311, 8176, 8190, 8180, 8162, 8166,3.4448232650756836
40, 8175, 8180, 8170, 8171, 8181, 8268, 8193, 8148, 8165, 8170, 8190, 8141, 8154, 8145,3.4528329372406006
40, 8175, 8180, 8170, 8171, 8181, 8268, 8193, 8148, 8165, 8170, 8190, 8141, 8154, 8145,3.4528329372406006
41, 8166, 8202, 8187, 8179, 8162, 8265, 8189, 8157, 8261, 8141, 8186, 8175, 8158, 8142,3.460524082183838
41, 8166, 8202, 8187, 8179, 8162, 8265, 8189, 8157, 8261, 8141, 8186, 8175, 8158, 8142,3.460524082183838
42, 8140, 8172, 8180, 8165, 8162, 8250, 8195, 8154, 8186, 8153, 8182, 8158, 8155, 8130,3.4685235023498535
42, 8140, 8172, 8180, 8165, 8162, 8250, 8195, 8154, 8186, 8153, 8182, 8158, 8155, 8130,3.4685235023498535
43, 8170, 8184, 8179, 8178, 8180, 8250, 8196, 8160, 8185, 8177, 8174, 8163, 8159, 8142,3.4764747619628906
43, 8170, 8184, 8179, 8178, 8180, 8250, 8196, 8160, 8185, 8177, 8174, 8163, 8159, 8142,3.4764747619628906
44, 8187, 8209, 8195, 8190, 8189, 8254, 8195, 8167, 8281, 8175, 8180, 8185, 8165, 8154,3.4844746589660645
44, 8187, 8209, 8195, 8190, 8189, 8254, 8195, 8167, 8281, 8175, 8180, 8185, 8165, 8154,3.4847984313964844
45, 8168, 8178, 8191, 8177, 8193, 8249, 8200, 8161, 8186, 8178, 8202, 8154, 8162, 8153,3.4924631118774414
45, 8168, 8178, 8191, 8177, 8193, 8249, 8200, 8161, 8186, 8178, 8202, 8154, 8162, 8153,3.4924631118774414
46, 8161, 8190, 8183, 8171, 8154, 8232, 8165, 8160, 8248, 8150, 8182, 8173, 8164, 8141,3.500457525253296
46, 8161, 8190, 8183, 8171, 8154, 8232, 8165, 8160, 8248, 8150, 8182, 8173, 8164, 8141,3.500457525253296
47, 8149, 8176, 8173, 8153, 8156, 8227, 8164, 8147, 8169, 8157, 8175, 8153, 8156, 8125,3.5074586868286133
47, 8149, 8176, 8173, 8153, 8156, 8227, 8164, 8147, 8169, 8157, 8175, 8153, 8156, 8125,3.5074586868286133
48, 8164, 8187, 8194, 8161, 8170, 8233, 8175, 8145, 8132, 8151, 8169, 8157, 8152, 8131,3.5154571533203125
48, 8164, 8187, 8194, 8161, 8170, 8233, 8175, 8145, 8132, 8151, 8169, 8157, 8152, 8131,3.5154571533203125
49, 8154, 8193, 8185, 8164, 8144, 8224, 8163, 8146, 8182, 8104, 8141, 8166, 8154, 8116,3.5234580039978027
49, 8154, 8193, 8185, 8164, 8144, 8224, 8163, 8146, 8182, 8104, 8141, 8166, 8154, 8116,3.5234580039978027
50, 8139, 8153, 8145, 8140, 8145, 8218, 8168, 8131, 8046, 8119, 8146, 8131, 8153, 8111,3.5315332412719727
50, 8139, 8153, 8145, 8140, 8145, 8218, 8168, 8131, 8046, 8119, 8146, 8131, 8153, 8111,3.5315332412719727
51, 8144, 8177, 8166, 8145, 8149, 8213, 8148, 8137, 8141, 8132, 8150, 8173, 8165, 8131,3.5394742488861084
51, 8144, 8177, 8166, 8145, 8149, 8213, 8148, 8137, 8141, 8132, 8150, 8173, 8165, 8131,3.5394742488861084
52, 8128, 8171, 8170, 8157, 8164, 8214, 8161, 8149, 8157, 8149, 8160, 8165, 8164, 8121,3.547689914703369
52, 8128, 8171, 8170, 8157, 8164, 8214, 8161, 8149, 8157, 8149, 8160, 8165, 8164, 8121,3.547689914703369
53, 8159, 8173, 8160, 8170, 8174, 8231, 8193, 8151, 8133, 8150, 8160, 8156, 8158, 8124,3.5559351444244385
53, 8159, 8173, 8160, 8170, 8174, 8231, 8193, 8151, 8133, 8150, 8160, 8156, 8158, 8124,3.5559351444244385
54, 8163, 8194, 8169, 8172, 8167, 8223, 8177, 8146, 8192, 8115, 8153, 8185, 8165, 8129,3.5629334449768066
54, 8163, 8194, 8169, 8172, 8167, 8223, 8177, 8146, 8192, 8115, 8153, 8185, 8165, 8129,3.5629334449768066
55, 8144, 8171, 8168, 8170, 8189, 8212, 8169, 8142, 8072, 8121, 8170, 8156, 8162, 8127,3.5699334144592285
55, 8144, 8171, 8168, 8170, 8189, 8212, 8169, 8142, 8072, 8121, 8170, 8156, 8162, 8127,3.570934534072876
56, 8175, 8196, 8182, 8180, 8181, 8219, 8164, 8146, 8148, 8114, 8156, 8176, 8156, 8129,3.577969789505005
56, 8175, 8196, 8182, 8180, 8181, 8219, 8164, 8146, 8148, 8114, 8156, 8176, 8156, 8129,3.577969789505005
57, 8158, 8179, 8174, 8154, 8175, 8206, 8159, 8129, 8125, 8118, 8150, 8165, 8150, 8109,3.5864760875701904
57, 8158, 8179, 8174, 8154, 8175, 8206, 8159, 8129, 8125, 8118, 8150, 8165, 8150, 8109,3.5864760875701904
58, 8138, 8159, 8170, 8141, 8188, 8192, 8146, 8121, 8056, 8121, 8150, 8156, 8152, 8110,3.594463348388672
58, 8138, 8159, 8170, 8141, 8188, 8192, 8146, 8121, 8056, 8121, 8150, 8156, 8152, 8110,3.594463348388672
59, 8139, 8172, 8179, 8151, 8176, 8203, 8140, 8144, 8166, 8103, 8139, 8185, 8161, 8115,3.602463483810425
59, 8139, 8172, 8179, 8151, 8176, 8203, 8140, 8144, 8166, 8103, 8139, 8185, 8161, 8115,3.602463483810425
60, 8136, 8158, 8164, 8151, 8183, 8212, 8169, 8155, 8090, 8121, 8161, 8159, 8162, 8121,3.61047625541687
60, 8136, 8158, 8164, 8151, 8183, 8212, 8169, 8155, 8090, 8121, 8161, 8159, 8162, 8121,3.61047625541687
61, 8150, 8191, 8177, 8160, 8181, 8207, 8161, 8151, 8149, 8111, 8162, 8180, 8164, 8136,3.618478298187256
61, 8150, 8191, 8177, 8160, 8181, 8207, 8161, 8151, 8149, 8111, 8162, 8180, 8164, 8136,3.618478298187256
62, 8138, 8172, 8169, 8147, 8183, 8203, 8153, 8146, 8154, 8121, 8163, 8174, 8160, 8127,3.6264755725860596
62, 8138, 8172, 8169, 8147, 8183, 8203, 8153, 8146, 8154, 8121, 8163, 8174, 8160, 8127,3.6264755725860596
63, 8152, 8138, 8153, 8139, 8191, 8208, 8167, 8150, 8095, 8148, 8159, 8157, 8156, 8131,3.6333112716674805
63, 8152, 8138, 8153, 8139, 8191, 8208, 8167, 8150, 8095, 8148, 8159, 8157, 8156, 8131,3.6333112716674805
64, 8159, 8148, 8162, 8138, 8170, 8210, 8158, 8143, 8179, 8113, 8124, 8179, 8158, 8124,3.6413052082061768
64, 8159, 8148, 8162, 8138, 8170, 8210, 8158, 8143, 8179, 8113, 8124, 8179, 8158, 8124,3.6413052082061768
65, 8137, 8130, 8153, 8135, 8176, 8218, 8161, 8129, 8060, 8109, 8130, 8146, 8152, 8105,3.6494741439819336
65, 8137, 8130, 8153, 8135, 8176, 8218, 8161, 8129, 8060, 8109, 8130, 8146, 8152, 8105,3.6494741439819336
66, 8171, 8166, 8174, 8168, 8180, 8221, 8161, 8146, 8123, 8116, 8137, 8171, 8162, 8123,3.657437801361084
66, 8171, 8166, 8174, 8168, 8180, 8221, 8161, 8146, 8123, 8116, 8137, 8171, 8162, 8123,3.657437801361084
67, 8176, 8165, 8181, 8166, 8192, 8216, 8167, 8151, 8176, 8122, 8143, 8180, 8170, 8131,3.6654746532440186
67, 8176, 8165, 8181, 8166, 8192, 8216, 8167, 8151, 8176, 8122, 8143, 8180, 8170, 8131,3.6654746532440186
68, 8173, 8145, 8172, 8160, 8217, 8222, 8177, 8146, 8107, 8139, 8163, 8154, 8163, 8136,3.673473834991455
68, 8173, 8145, 8172, 8160, 8217, 8222, 8177, 8146, 8107, 8139, 8163, 8154, 8163, 8136,3.673473834991455
69, 8189, 8184, 8191, 8185, 8201, 8217, 8166, 8160, 8231, 8140, 8161, 8185, 8167, 8143,3.6814699172973633
69, 8189, 8184, 8191, 8185, 8201, 8217, 8166, 8160, 8231, 8140, 8161, 8185, 8167, 8143,3.6814699172973633
70, 8176, 8168, 8193, 8180, 8214, 8213, 8182, 8161, 8172, 8169, 8182, 8168, 8171, 8143,3.689483642578125
70, 8176, 8168, 8193, 8180, 8214, 8213, 8182, 8161, 8172, 8169, 8182, 8168, 8171, 8143,3.689483642578125
71, 8177, 8174, 8194, 8175, 8220, 8217, 8172, 8163, 8208, 8162, 8181, 8180, 8168, 8154,3.696484088897705
71, 8177, 8174, 8194, 8175, 8220, 8217, 8172, 8163, 8208, 8162, 8181, 8180, 8168, 8154,3.696484088897705
72, 8159, 8165, 8175, 8163, 8199, 8198, 8158, 8158, 8232, 8150, 8165, 8176, 8161, 8143,3.7045178413391113
72, 8159, 8165, 8175, 8163, 8199, 8198, 8158, 8158, 8232, 8150, 8165, 8176, 8161, 8143,3.7045178413391113
73, 8154, 8140, 8161, 8156, 8201, 8189, 8179, 8146, 8121, 8170, 8170, 8147, 8161, 8141,3.712475061416626
73, 8154, 8140, 8161, 8156, 8201, 8189, 8179, 8146, 8121, 8170, 8170, 8147, 8161, 8141,3.712475061416626
74, 8160, 8164, 8164, 8156, 8172, 8191, 8163, 8147, 8196, 8137, 8151, 8171, 8160, 8130,3.7204747200012207
74, 8160, 8164, 8164, 8156, 8172, 8191, 8163, 8147, 8196, 8137, 8151, 8171, 8160, 8130,3.720897674560547
75, 8148, 8151, 8138, 8150, 8176, 8188, 8161, 8140, 8101, 8133, 8155, 8141, 8153, 8109,3.7281265258789062
75, 8148, 8151, 8138, 8150, 8176, 8188, 8161, 8140, 8101, 8133, 8155, 8141, 8153, 8109,3.7281265258789062
76, 8179, 8177, 8160, 8179, 8203, 8195, 8169, 8153, 8145, 8155, 8172, 8164, 8166, 8138,3.736142635345459
76, 8179, 8177, 8160, 8179, 8203, 8195, 8169, 8153, 8145, 8155, 8172, 8164, 8166, 8138,3.736142635345459
77, 8190, 8189, 8187, 8188, 8206, 8187, 8164, 8163, 8257, 8167, 8176, 8191, 8175, 8154,3.7444748878479004
77, 8190, 8189, 8187, 8188, 8206, 8187, 8164, 8163, 8257, 8167, 8176, 8191, 8175, 8154,3.7444748878479004
78, 8175, 8158, 8166, 8167, 8209, 8182, 8167, 8149, 8145, 8179, 8180, 8151, 8161, 8139,3.7524774074554443
78, 8175, 8158, 8166, 8167, 8209, 8182, 8167, 8149, 8145, 8179, 8180, 8151, 8161, 8139,3.7524774074554443
79, 8166, 8180, 8168, 8164, 8194, 8189, 8167, 8154, 8214, 8153, 8166, 8168, 8161, 8121,3.760331630706787
79, 8166, 8180, 8168, 8164, 8194, 8189, 8167, 8154, 8214, 8153, 8166, 8168, 8161, 8121,3.760331630706787
80, 8141, 8161, 8159, 8155, 8207, 8186, 8182, 8158, 8156, 8150, 8169, 8146, 8158, 8103,3.7673239707946777
80, 8141, 8161, 8159, 8155, 8207, 8186, 8182, 8158, 8156, 8150, 8169, 8146, 8158, 8103,3.7673239707946777
81, 8152, 8159, 8156, 8158, 8206, 8171, 8160, 8147, 8120, 8141, 8159, 8148, 8152, 8103,3.7754740715026855
81, 8152, 8159, 8156, 8158, 8206, 8171, 8160, 8147, 8120, 8141, 8159, 8148, 8152, 8103,3.7754740715026855
82, 8150, 8165, 8168, 8154, 8188, 8154, 8139, 8142, 8169, 8132, 8145, 8171, 8157, 8097,3.7834737300872803
82, 8150, 8165, 8168, 8154, 8188, 8154, 8139, 8142, 8169, 8132, 8145, 8171, 8157, 8097,3.7834737300872803
83, 8150, 8147, 8170, 8146, 8213, 8157, 8176, 8153, 8100, 8169, 8166, 8140, 8159, 8114,3.7914745807647705
83, 8150, 8147, 8170, 8146, 8213, 8157, 8176, 8153, 8100, 8169, 8166, 8140, 8159, 8114,3.7914745807647705
84, 8168, 8178, 8181, 8163, 8211, 8158, 8174, 8169, 8228, 8159, 8160, 8162, 8162, 8140,3.7995166778564453
84, 8168, 8178, 8181, 8163, 8211, 8158, 8174, 8169, 8228, 8159, 8160, 8162, 8162, 8140,3.7995166778564453
85, 8146, 8156, 8155, 8153, 8200, 8146, 8163, 8158, 8175, 8157, 8149, 8147, 8156, 8122,3.807514190673828
85, 8146, 8156, 8155, 8153, 8200, 8146, 8163, 8158, 8175, 8157, 8149, 8147, 8156, 8122,3.807514190673828
86, 8154, 8150, 8143, 8145, 8189, 8146, 8163, 8145, 8111, 8152, 8133, 8147, 8155, 8115,3.815582513809204
86, 8154, 8150, 8143, 8145, 8189, 8146, 8163, 8145, 8111, 8152, 8133, 8147, 8155, 8115,3.815582513809204
87, 8152, 8165, 8142, 8146, 8169, 8151, 8161, 8153, 8187, 8133, 8122, 8163, 8164, 8112,3.8235907554626465
87, 8152, 8165, 8142, 8146, 8169, 8151, 8161, 8153, 8187, 8133, 8122, 8163, 8164, 8112,3.8235907554626465
88, 8138, 8139, 8125, 8136, 8181, 8160, 8181, 8158, 8086, 8163, 8137, 8123, 8162, 8106,3.8305115699768066
88, 8138, 8139, 8125, 8136, 8181, 8160, 8181, 8158, 8086, 8163, 8137, 8123, 8162, 8106,3.8305115699768066
89, 8148, 8167, 8151, 8138, 8176, 8164, 8164, 8155, 8156, 8147, 8120, 8154, 8159, 8116,3.8385136127471924
89, 8148, 8167, 8151, 8138, 8176, 8164, 8164, 8155, 8156, 8147, 8120, 8154, 8159, 8116,3.8385136127471924
90, 8122, 8158, 8156, 8134, 8175, 8161, 8156, 8148, 8138, 8138, 8125, 8148, 8158, 8111,3.8465657234191895
90, 8122, 8158, 8156, 8134, 8175, 8161, 8156, 8148, 8138, 8138, 8125, 8148, 8158, 8111,3.8465657234191895
91, 8139, 8150, 8152, 8147, 8176, 8161, 8172, 8151, 8113, 8158, 8145, 8136, 8163, 8122,3.8545241355895996
91, 8139, 8150, 8152, 8147, 8176, 8161, 8172, 8151, 8113, 8158, 8145, 8136, 8163, 8122,3.8545241355895996
92, 8150, 8162, 8160, 8140, 8152, 8147, 8163, 8155, 8188, 8134, 8129, 8160, 8160, 8123,3.8628933429718018
92, 8150, 8162, 8160, 8140, 8152, 8147, 8163, 8155, 8188, 8134, 8129, 8160, 8160, 8123,3.8628933429718018
93, 8133, 8144, 8154, 8125, 8157, 8122, 8160, 8147, 8057, 8132, 8129, 8131, 8148, 8120,3.8708107471466064
93, 8133, 8144, 8154, 8125, 8157, 8122, 8160, 8147, 8057, 8132, 8129, 8131, 8148, 8120,3.8708107471466064
94, 8163, 8180, 8187, 8154, 8153, 8108, 8148, 8155, 8147, 8148, 8136, 8163, 8159, 8135,3.8788206577301025
94, 8163, 8180, 8187, 8154, 8153, 8108, 8148, 8155, 8147, 8148, 8136, 8163, 8159, 8135,3.8788206577301025
95, 8157, 8165, 8191, 8159, 8160, 8125, 8159, 8155, 8172, 8172, 8151, 8160, 8167, 8124,3.886821746826172
95, 8157, 8165, 8191, 8159, 8160, 8125, 8159, 8155, 8172, 8172, 8151, 8160, 8167, 8124,3.886821746826172
96, 8156, 8147, 8172, 8156, 8177, 8148, 8174, 8158, 8114, 8172, 8143, 8142, 8159, 8123,3.894474744796753
96, 8156, 8147, 8172, 8156, 8177, 8148, 8174, 8158, 8114, 8172, 8143, 8142, 8159, 8123,3.894474744796753
97, 8160, 8172, 8170, 8154, 8155, 8128, 8150, 8166, 8214, 8144, 8119, 8171, 8162, 8126,3.901299238204956
97, 8160, 8172, 8170, 8154, 8155, 8128, 8150, 8166, 8214, 8144, 8119, 8171, 8162, 8126,3.901299238204956
98, 8131, 8142, 8142, 8131, 8155, 8113, 8156, 8155, 8100, 8155, 8132, 8136, 8158, 8116,3.9092297554016113
98, 8131, 8142, 8142, 8131, 8155, 8113, 8156, 8155, 8100, 8155, 8132, 8136, 8158, 8116,3.9092297554016113
99, 8130, 8155, 8130, 8138, 8148, 8127, 8164, 8162, 8124, 8149, 8121, 8144, 8154, 8115,3.9172279834747314
99, 8130, 8155, 8130, 8138, 8148, 8127, 8164, 8162, 8124, 8149, 8121, 8144, 8154, 8115,3.9182345867156982
100, 8120, 8156, 8131, 8144, 8150, 8115, 8146, 8162, 8134, 8143, 8115, 8141, 8160, 8104,3.925543785095215
100, 8120, 8156, 8131, 8144, 8150, 8115, 8146, 8162, 8134, 8143, 8115, 8141, 8160, 8104,3.925543785095215
101, 8124, 8146, 8119, 8130, 8154, 8102, 8172, 8143, 8052, 8139, 8115, 8122, 8158, 8107,3.933549642562866
101, 8124, 8146, 8119, 8130, 8154, 8102, 8172, 8143, 8052, 8139, 8115, 8122, 8158, 8107,3.933549642562866
102, 8125, 8161, 8110, 8112, 8122, 8107, 8213, 8141, 8130, 8112, 8091, 8151, 8154, 8113,3.9415321350097656
102, 8125, 8161, 8110, 8112, 8122, 8107, 8213, 8141, 8130, 8112, 8091, 8151, 8154, 8113,3.9415321350097656
103, 8119, 8140, 8119, 8117, 8144, 8098, 8169, 8145, 8056, 8148, 8123, 8134, 8154, 8120,3.949202060699463
103, 8119, 8140, 8119, 8117, 8144, 8098, 8169, 8145, 8056, 8148, 8123, 8134, 8154, 8120,3.949202060699463
104, 8163, 8177, 8164, 8164, 8162, 8080, 8073, 8154, 8142, 8166, 8143, 8159, 8165, 8144,3.957113027572632
104, 8163, 8177, 8164, 8164, 8162, 8080, 8073, 8154, 8142, 8166, 8143, 8159, 8165, 8144,3.957113027572632
105, 8161, 8175, 8161, 8155, 8149, 8085, 8095, 8151, 8174, 8154, 8127, 8156, 8159, 8131,3.9644742012023926
105, 8161, 8175, 8161, 8155, 8149, 8085, 8095, 8151, 8174, 8154, 8127, 8156, 8159, 8131,3.9644742012023926
106, 8153, 8144, 8148, 8133, 8156, 8101, 8152, 8142, 8056, 8167, 8138, 8126, 8148, 8114,3.97245192527771
106, 8153, 8144, 8148, 8133, 8156, 8101, 8152, 8142, 8056, 8167, 8138, 8126, 8148, 8114,3.97245192527771
107, 8167, 8175, 8174, 8152, 8154, 8100, 8121, 8148, 8156, 8134, 8138, 8162, 8160, 8110,3.980475425720215
107, 8167, 8175, 8174, 8152, 8154, 8100, 8121, 8148, 8156, 8134, 8138, 8162, 8160, 8110,3.980475425720215
108, 8144, 8150, 8157, 8143, 8161, 8097, 8136, 8151, 8080, 8126, 8141, 8140, 8158, 8099,3.9887194633483887
108, 8144, 8150, 8157, 8143, 8161, 8097, 8136, 8151, 8080, 8126, 8141, 8140, 8158, 8099,3.9887194633483887
109, 8149, 8157, 8152, 8151, 8158, 8103, 8150, 8161, 8106, 8148, 8133, 8144, 8152, 8110,3.9967200756073
109, 8149, 8157, 8152, 8151, 8158, 8103, 8150, 8161, 8106, 8148, 8133, 8144, 8152, 8110,3.9967200756073
110, 8145, 8163, 8149, 8155, 8158, 8102, 8132, 8150, 8158, 8154, 8126, 8149, 8156, 8103,4.004474401473999
110, 8145, 8163, 8149, 8155, 8158, 8102, 8132, 8150, 8158, 8154, 8126, 8149, 8156, 8103,4.004474401473999
111, 8127, 8133, 8127, 8136, 8165, 8100, 8142, 8134, 8031, 8143, 8133, 8122, 8158, 8100,4.0124757289886475
111, 8127, 8133, 8127, 8136, 8165, 8100, 8142, 8134, 8031, 8143, 8133, 8122, 8158, 8100,4.0124757289886475
112, 8125, 8154, 8139, 8137, 8146, 8093, 8127, 8150, 8118, 8122, 8121, 8156, 8161, 8111,4.020461559295654
112, 8125, 8154, 8139, 8137, 8146, 8093, 8127, 8150, 8118, 8122, 8121, 8156, 8161, 8111,4.020461559295654
113, 8123, 8139, 8137, 8139, 8159, 8094, 8137, 8157, 8084, 8156, 8133, 8140, 8160, 8104,4.027459621429443
113, 8123, 8139, 8137, 8139, 8159, 8094, 8137, 8157, 8084, 8156, 8133, 8140, 8160, 8104,4.027459621429443
114, 8154, 8154, 8145, 8154, 8166, 8099, 8148, 8157, 8107, 8161, 8141, 8149, 8169, 8110,4.035297870635986
114, 8154, 8154, 8145, 8154, 8166, 8099, 8148, 8157, 8107, 8161, 8141, 8149, 8169, 8110,4.035297870635986
115, 8148, 8171, 8154, 8155, 8151, 8087, 8131, 8151, 8168, 8137, 8137, 8165, 8169, 8109,4.043476104736328
115, 8148, 8171, 8154, 8155, 8151, 8087, 8131, 8151, 8168, 8137, 8137, 8165, 8169, 8109,4.043476104736328
116, 8139, 8152, 8149, 8153, 8166, 8090, 8133, 8145, 8067, 8166, 8145, 8132, 8159, 8115,4.051538944244385
116, 8139, 8152, 8149, 8153, 8166, 8090, 8133, 8145, 8067, 8166, 8145, 8132, 8159, 8115,4.051538944244385
117, 8156, 8173, 8161, 8159, 8157, 8091, 8129, 8152, 8157, 8158, 8128, 8157, 8162, 8118,4.059545040130615
117, 8156, 8173, 8161, 8159, 8157, 8091, 8129, 8152, 8157, 8158, 8128, 8157, 8162, 8118,4.059545040130615
118, 8131, 8156, 8151, 8144, 8163, 8078, 8139, 8145, 8092, 8149, 8131, 8140, 8158, 8098,4.067439556121826
118, 8131, 8156, 8151, 8144, 8163, 8078, 8139, 8145, 8092, 8149, 8131, 8140, 8158, 8098,4.067439556121826
119, 8142, 8167, 8166, 8158, 8174, 8080, 8132, 8143, 8074, 8155, 8139, 8150, 8159, 8114,4.075310230255127
119, 8142, 8167, 8166, 8158, 8174, 8080, 8132, 8143, 8074, 8155, 8139, 8150, 8159, 8114,4.075310230255127
120, 8150, 8174, 8181, 8168, 8161, 8078, 8115, 8148, 8158, 8144, 8136, 8173, 8162, 8123,4.083309888839722
120, 8150, 8174, 8181, 8168, 8161, 8078, 8115, 8148, 8158, 8144, 8136, 8173, 8162, 8123,4.083309888839722
121, 8140, 8145, 8153, 8158, 8179, 8074, 8135, 8145, 8055, 8153, 8154, 8133, 8158, 8115,4.0913543701171875
121, 8140, 8145, 8153, 8158, 8179, 8074, 8135, 8145, 8055, 8153, 8154, 8133, 8158, 8115,4.0913543701171875
122, 8160, 8180, 8164, 8176, 8174, 8076, 8136, 8157, 8157, 8139, 8146, 8162, 8162, 8118,4.098475933074951
122, 8160, 8180, 8164, 8176, 8174, 8076, 8136, 8157, 8157, 8139, 8146, 8162, 8162, 8118,4.098475933074951
123, 8159, 8162, 8169, 8169, 8168, 8067, 8133, 8154, 8130, 8149, 8137, 8146, 8159, 8105,4.106921434402466
123, 8159, 8162, 8169, 8169, 8168, 8067, 8133, 8154, 8130, 8149, 8137, 8146, 8159, 8105,4.106921434402466
124, 8151, 8143, 8161, 8155, 8170, 8059, 8125, 8138, 8065, 8148, 8123, 8129, 8155, 8097,4.114390134811401
124, 8151, 8143, 8161, 8155, 8170, 8059, 8125, 8138, 8065, 8148, 8123, 8129, 8155, 8097,4.114390134811401
125, 8117, 8155, 8156, 8150, 8150, 8052, 8115, 8141, 8134, 8122, 8105, 8160, 8158, 8087,4.122389793395996
125, 8117, 8155, 8156, 8150, 8150, 8052, 8115, 8141, 8134, 8122, 8105, 8160, 8158, 8087,4.122389793395996
126, 8114, 8131, 8137, 8144, 8156, 8056, 8135, 8145, 8035, 8147, 8118, 8134, 8155, 8099,4.130476474761963
126, 8114, 8131, 8137, 8144, 8156, 8056, 8135, 8145, 8035, 8147, 8118, 8134, 8155, 8099,4.130476474761963
127, 8146, 8150, 8142, 8144, 8140, 8060, 8117, 8138, 8099, 8134, 8107, 8146, 8159, 8118,4.138474225997925
127, 8146, 8150, 8142, 8144, 8140, 8060, 8117, 8138, 8099, 8134, 8107, 8146, 8159, 8118,4.138474225997925
240, 8112, 8136, 8141, 8135, 8131, 8067, 8115, 8131, 8077, 8134, 8107, 8137, 8162, 8098,4.146471261978149
240, 8112, 8136, 8141, 8135, 8131, 8067, 8115, 8131, 8077, 8134, 8107, 8137, 8162, 8098,4.146471261978149
0, 8125, 8139, 8160, 8145, 8147, 8080, 8141, 8151, 8053, 8166, 8131, 8142, 8164, 8123,4.154446601867676
0, 8125, 8139, 8160, 8145, 8147, 8080, 8141, 8151, 8053, 8166, 8131, 8142, 8164, 8123,4.154446601867676
1, 8158, 8167, 8181, 8149, 8141, 8066, 8128, 8164, 8188, 8157, 8143, 8180, 8170, 8156,4.161449909210205
1, 8158, 8167, 8181, 8149, 8141, 8066, 8128, 8164, 8188, 8157, 8143, 8180, 8170, 8156,4.161449909210205
2, 8148, 8143, 8159, 8147, 8159, 8059, 8122, 8151, 8096, 8164, 8157, 8145, 8160, 8141,4.169475078582764
2, 8148, 8143, 8159, 8147, 8159, 8059, 8122, 8151, 8096, 8164, 8157, 8145, 8160, 8141,4.169475078582764
3, 8158, 8166, 8174, 8173, 8163, 8073, 8114, 8147, 8145, 8158, 8131, 8157, 8156, 8124,4.177437782287598
3, 8158, 8166, 8174, 8173, 8163, 8073, 8114, 8147, 8145, 8158, 8131, 8157, 8156, 8124,4.177437782287598
4, 8142, 8158, 8176, 8164, 8165, 8067, 8122, 8147, 8146, 8162, 8128, 8156, 8158, 8112,4.185550689697266
4, 8142, 8158, 8176, 8164, 8165, 8067, 8122, 8147, 8146, 8162, 8128, 8156, 8158, 8112,4.185550689697266
5, 8162, 8152, 8169, 8169, 8178, 8071, 8149, 8168, 8109, 8187, 8164, 8151, 8164, 8134,4.193556785583496
5, 8162, 8152, 8169, 8169, 8178, 8071, 8149, 8168, 8109, 8187, 8164, 8151, 8164, 8134,4.193556785583496
6, 8191, 8186, 8196, 8189, 8168, 8083, 8151, 8188, 8247, 8182, 8169, 8183, 8171, 8145,4.201470851898193
6, 8191, 8186, 8196, 8189, 8168, 8083, 8151, 8188, 8247, 8182, 8169, 8183, 8171, 8145,4.201470851898193
7, 8167, 8158, 8200, 8173, 8187, 8086, 8158, 8172, 8151, 8194, 8162, 8147, 8162, 8120,4.209475994110107
7, 8167, 8158, 8200, 8173, 8187, 8086, 8158, 8172, 8151, 8194, 8162, 8147, 8162, 8120,4.209475994110107
8, 8170, 8163, 8199, 8170, 8190, 8092, 8156, 8174, 8187, 8173, 8139, 8162, 8161, 8116,4.217459201812744
8, 8170, 8163, 8199, 8170, 8190, 8092, 8156, 8174, 8187, 8173, 8139, 8162, 8161, 8116,4.217459201812744
9, 8159, 8159, 8180, 8158, 8183, 8102, 8161, 8178, 8216, 8163, 8146, 8159, 8162, 8115,4.225069999694824
9, 8159, 8159, 8180, 8158, 8183, 8102, 8161, 8178, 8216, 8163, 8146, 8159, 8162, 8115,4.225069999694824
10, 8159, 8148, 8173, 8155, 8197, 8101, 8168, 8168, 8128, 8187, 8163, 8134, 8159, 8117,4.232577085494995
10, 8159, 8148, 8173, 8155, 8197, 8101, 8168, 8168, 8128, 8187, 8163, 8134, 8159, 8117,4.232577085494995
11, 8179, 8181, 8193, 8172, 8183, 8086, 8145, 8173, 8230, 8170, 8141, 8168, 8163, 8124,4.240474462509155
11, 8179, 8181, 8193, 8172, 8183, 8086, 8145, 8173, 8230, 8170, 8141, 8168, 8163, 8124,4.240474462509155
12, 8178, 8156, 8176, 8169, 8182, 8085, 8153, 8177, 8162, 8176, 8155, 8143, 8163, 8135,4.2488853931427
12, 8178, 8156, 8176, 8169, 8182, 8085, 8153, 8177, 8162, 8176, 8155, 8143, 8163, 8135,4.2488853931427
13, 8189, 8160, 8170, 8177, 8168, 8086, 8150, 8175, 8181, 8174, 8155, 8154, 8167, 8143,4.256634473800659
13, 8189, 8160, 8170, 8177, 8168, 8086, 8150, 8175, 8181, 8174, 8155, 8154, 8167, 8143,4.256634473800659
14, 8173, 8164, 8155, 8168, 8156, 8074, 8135, 8158, 8182, 8156, 8133, 8157, 8163, 8118,4.26466965675354
14, 8173, 8164, 8155, 8168, 8156, 8074, 8135, 8158, 8182, 8156, 8133, 8157, 8163, 8118,4.26466965675354
15, 8177, 8150, 8136, 8154, 8167, 8085, 8142, 8148, 8073, 8174, 8144, 8130, 8158, 8121,4.272245168685913
15, 8177, 8150, 8136, 8154, 8167, 8085, 8142, 8148, 8073, 8174, 8144, 8130, 8158, 8121,4.272245168685913
16, 8194, 8168, 8154, 8164, 8150, 8093, 8127, 8162, 8193, 8174, 8146, 8171, 8163, 8137,4.2802417278289795
16, 8194, 8168, 8154, 8164, 8150, 8093, 8127, 8162, 8193, 8174, 8146, 8171, 8163, 8137,4.2802417278289795
17, 8176, 8142, 8150, 8163, 8164, 8084, 8128, 8158, 8131, 8180, 8151, 8151, 8161, 8121,4.287438631057739
17, 8176, 8142, 8150, 8163, 8164, 8084, 8128, 8158, 8131, 8180, 8151, 8151, 8161, 8121,4.287438631057739
18, 8194, 8165, 8159, 8178, 8183, 8093, 8130, 8166, 8154, 8180, 8154, 8157, 8161, 8122,4.2954747676849365
18, 8194, 8165, 8159, 8178, 8183, 8093, 8130, 8166, 8154, 8180, 8154, 8157, 8161, 8122,4.2954747676849365
19, 8186, 8177, 8165, 8176, 8174, 8104, 8128, 8180, 8237, 8184, 8161, 8176, 8165, 8112,4.3034751415252686
19, 8186, 8177, 8165, 8176, 8174, 8104, 8128, 8180, 8237, 8184, 8161, 8176, 8165, 8112,4.3034751415252686
20, 8177, 8144, 8152, 8166, 8176, 8103, 8140, 8170, 8132, 8201, 8178, 8148, 8163, 8115,4.311461687088013
20, 8177, 8144, 8152, 8166, 8176, 8103, 8140, 8170, 8132, 8201, 8178, 8148, 8163, 8115,4.311461687088013
21, 8199, 8171, 8174, 8182, 8168, 8102, 8134, 8170, 8214, 8170, 8162, 8177, 8165, 8136,4.319877862930298
21, 8199, 8171, 8174, 8182, 8168, 8102, 8134, 8170, 8214, 8170, 8162, 8177, 8165, 8136,4.319877862930298
22, 8188, 8157, 8182, 8178, 8187, 8108, 8144, 8173, 8158, 8179, 8159, 8160, 8160, 8126,4.326876878738403
22, 8188, 8157, 8182, 8178, 8187, 8108, 8144, 8173, 8158, 8179, 8159, 8160, 8160, 8126,4.3278772830963135
23, 8203, 8162, 8184, 8180, 8197, 8115, 8147, 8178, 8157, 8195, 8152, 8162, 8165, 8121,4.335474729537964
23, 8203, 8162, 8184, 8180, 8197, 8115, 8147, 8178, 8157, 8195, 8152, 8162, 8165, 8121,4.335474729537964
24, 8199, 8167, 8170, 8177, 8181, 8106, 8137, 8172, 8232, 8173, 8147, 8176, 8171, 8118,4.342471599578857
24, 8199, 8167, 8170, 8177, 8181, 8106, 8137, 8172, 8232, 8173, 8147, 8176, 8171, 8118,4.342471599578857
25, 8183, 8135, 8154, 8167, 8186, 8104, 8135, 8155, 8115, 8176, 8162, 8145, 8159, 8115,4.35147500038147
25, 8183, 8135, 8154, 8167, 8186, 8104, 8135, 8155, 8115, 8176, 8162, 8145, 8159, 8115,4.35147500038147
26, 8189, 8162, 8170, 8171, 8168, 8106, 8117, 8165, 8193, 8160, 8137, 8173, 8161, 8113,4.3594746589660645
26, 8189, 8162, 8170, 8171, 8168, 8106, 8117, 8165, 8193, 8160, 8137, 8173, 8161, 8113,4.3594746589660645
27, 8164, 8145, 8148, 8157, 8168, 8107, 8134, 8175, 8156, 8163, 8130, 8151, 8164, 8102,4.3664751052856445
27, 8164, 8145, 8148, 8157, 8168, 8107, 8134, 8175, 8156, 8163, 8130, 8151, 8164, 8102,4.3664751052856445
28, 8166, 8141, 8135, 8155, 8174, 8112, 8144, 8175, 8124, 8168, 8137, 8145, 8160, 8114,4.374291181564331
28, 8166, 8141, 8135, 8155, 8174, 8112, 8144, 8175, 8124, 8168, 8137, 8145, 8160, 8114,4.374291181564331
29, 8167, 8160, 8148, 8154, 8164, 8110, 8124, 8169, 8197, 8157, 8133, 8170, 8164, 8112,4.382286548614502
29, 8167, 8160, 8148, 8154, 8164, 8110, 8124, 8169, 8197, 8157, 8133, 8170, 8164, 8112,4.382286548614502
30, 8168, 8141, 8152, 8149, 8193, 8115, 8132, 8157, 8098, 8189, 8150, 8139, 8164, 8104,4.390474557876587
30, 8168, 8141, 8152, 8149, 8193, 8115, 8132, 8157, 8098, 8189, 8150, 8139, 8164, 8104,4.390474557876587
31, 8186, 8167, 8170, 8167, 8182, 8121, 8123, 8155, 8173, 8171, 8135, 8166, 8159, 8101,4.398474454879761
31, 8186, 8167, 8170, 8167, 8182, 8121, 8123, 8155, 8173, 8171, 8135, 8166, 8159, 8101,4.398474454879761
32, 8179, 8156, 8163, 8173, 8171, 8112, 8128, 8159, 8160, 8160, 8148, 8164, 8158, 8093,4.405498266220093
32, 8179, 8156, 8163, 8173, 8171, 8112, 8128, 8159, 8160, 8160, 8148, 8164, 8158, 8093,4.405498266220093
33, 8198, 8161, 8166, 8183, 8189, 8108, 8134, 8168, 8147, 8177, 8176, 8160, 8164, 8116,4.414510011672974
33, 8198, 8161, 8166, 8183, 8189, 8108, 8134, 8168, 8147, 8177, 8176, 8160, 8164, 8116,4.414510011672974
34, 8183, 8169, 8163, 8163, 8171, 8099, 8111, 8155, 8209, 8159, 8146, 8166, 8160, 8104,4.4214746952056885
34, 8183, 8169, 8163, 8163, 8171, 8099, 8111, 8155, 8209, 8159, 8146, 8166, 8160, 8104,4.4214746952056885
35, 8150, 8125, 8128, 8135, 8171, 8094, 8125, 8146, 8059, 8159, 8134, 8123, 8152, 8085,4.429474115371704
35, 8150, 8125, 8128, 8135, 8171, 8094, 8125, 8146, 8059, 8159, 8134, 8123, 8152, 8085,4.429474115371704
36, 8184, 8162, 8147, 8171, 8175, 8099, 8130, 8174, 8158, 8150, 8143, 8160, 8165, 8108,4.4377827644348145
36, 8184, 8162, 8147, 8171, 8175, 8099, 8130, 8174, 8158, 8150, 8143, 8160, 8165, 8108,4.4377827644348145
37, 8183, 8170, 8150, 8173, 8176, 8094, 8124, 8169, 8180, 8170, 8152, 8160, 8165, 8102,4.444782733917236
37, 8183, 8170, 8150, 8173, 8176, 8094, 8124, 8169, 8180, 8170, 8152, 8160, 8165, 8102,4.4457831382751465
38, 8170, 8144, 8133, 8149, 8169, 8090, 8125, 8154, 8090, 8187, 8150, 8139, 8161, 8101,4.45278263092041
38, 8170, 8144, 8133, 8149, 8169, 8090, 8125, 8154, 8090, 8187, 8150, 8139, 8161, 8101,4.453783273696899
39, 8171, 8155, 8152, 8160, 8156, 8082, 8117, 8167, 8190, 8158, 8145, 8165, 8168, 8103,4.460782766342163
39, 8171, 8155, 8152, 8160, 8156, 8082, 8117, 8167, 8190, 8158, 8145, 8165, 8168, 8103,4.461782693862915
