COUNTER,F3,FC5,AF3,F7,T7,P7,O1,O2,P8,T8,F8,AF4,FC6,F4,Timestamp
101, 8196, 8186, 8180, 8155, 8193, 8178, 8200, 8180, 8204, 8197, 8169, 8185, 8204, 8143,0.04109454154968262
102, 8202, 8194, 8161, 8169, 8197, 8178, 8194, 8165, 8218, 8207, 8174, 8184, 8211, 8138,0.04109454154968262
103, 8178, 8175, 8187, 8126, 8184, 8171, 8178, 8160, 8211, 8186, 8156, 8180, 8194, 8126,0.05682682991027832
104, 8181, 8165, 8162, 8130, 8194, 8176, 8191, 8175, 8222, 8189, 8158, 8179, 8189, 8136,0.05682682991027832
105, 8204, 8182, 8188, 8172, 8203, 8179, 8198, 8175, 8234, 8212, 8180, 8191, 8198, 8143,0.07275223731994629
106, 8184, 8183, 8184, 8161, 8197, 8174, 8188, 8175, 8217, 8206, 8167, 8181, 8187, 8122,0.07275223731994629
107, 8155, 8168, 8136, 8138, 8205, 8173, 8187, 8161, 8202, 8190, 8137, 8148, 8167, 8091,0.08820581436157227
108, 8165, 8178, 8179, 8143, 8214, 8182, 8188, 8164, 8199, 8189, 8139, 8154, 8166, 8093,0.08820581436157227
109, 8167, 8182, 8158, 8147, 8208, 8182, 8190, 8168, 8208, 8197, 8155, 8148, 8171, 8101,0.10402560234069824
110, 8145, 8168, 8150, 8136, 8203, 8176, 8180, 8162, 8202, 8190, 8140, 8125, 8156, 8090,0.10402560234069824
111, 8142, 8180, 8163, 8162, 8210, 8193, 8188, 8178, 8207, 8192, 8121, 8127, 8150, 8093,0.11913013458251953
112, 8155, 8178, 8142, 8186, 8216, 8207, 8218, 8174, 8241, 8215, 8126, 8130, 8166, 8109,0.11913013458251953
113, 8158, 8156, 8178, 8155, 8210, 8205, 8225, 8178, 8250, 8228, 8126, 8138, 8170, 8123,0.13477683067321777
114, 8159, 8154, 8146, 8133, 8207, 8196, 8222, 8180, 8249, 8238, 8121, 8142, 8181, 8130,0.13477683067321777
115, 8170, 8163, 8142, 8126, 8198, 8174, 8204, 8156, 8237, 8215, 8125, 8155, 8188, 8128,0.1498558521270752
116, 8171, 8173, 8170, 8125, 8190, 8165, 8180, 8167, 8210, 8178, 8139, 8168, 8183, 8121,0.1498558521270752
117, 8165, 8181, 8139, 8145, 8200, 8173, 8186, 8177, 8211, 8187, 8155, 8161, 8184, 8107,0.1653578281402588
118, 8172, 8188, 8173, 8147, 8212, 8178, 8197, 8178, 8228, 8202, 8155, 8169, 8179, 8111,0.1653578281402588
119, 8166, 8181, 8156, 8136, 8206, 8172, 8196, 8179, 8239, 8198, 8142, 8157, 8172, 8114,0.18143463134765625
120, 8155, 8174, 8145, 8134, 8187, 8166, 8188, 8164, 8224, 8181, 8120, 8136, 8163, 8098,0.18143463134765625
121, 8159, 8180, 8173, 8144, 8187, 8183, 8199, 8172, 8217, 8183, 8112, 8144, 8154, 8097,0.19697260856628418
122, 8157, 8177, 8145, 8156, 8201, 8193, 8218, 8177, 8231, 8213, 8121, 8144, 8163, 8113,0.19697260856628418
123, 8152, 8172, 8170, 8151, 8202, 8188, 8212, 8172, 8227, 8212, 8116, 8140, 8168, 8121,0.2123887538909912
124, 8145, 8167, 8153, 8159, 8206, 8197, 8220, 8175, 8229, 8199, 8113, 8136, 8165, 8114,0.2123887538909912
125, 8143, 8168, 8148, 8166, 8210, 8206, 8234, 8168, 8229, 8205, 8117, 8134, 8165, 8113,0.22800850868225098
126, 8151, 8180, 8180, 8159, 8204, 8211, 8235, 8178, 8220, 8209, 8116, 8139, 8172, 8131,0.22800850868225098
127, 8157, 8176, 8144, 8164, 8201, 8215, 8243, 8175, 8233, 8220, 8121, 8138, 8179, 8131,0.24312829971313477
236, 8157, 8171, 8175, 8154, 8194, 8203, 8231, 8170, 8231, 8212, 8112, 8151, 8172, 8122,0.24312829971313477
0, 8155, 8174, 8160, 8142, 8192, 8198, 8223, 8181, 8230, 8212, 8110, 8148, 8175, 8134,0.2591257095336914
1, 8152, 8162, 8138, 8149, 8203, 8203, 8237, 8173, 8261, 8242, 8138, 8146, 8196, 8146,0.2591257095336914
2, 8148, 8165, 8179, 8147, 8207, 8200, 8235, 8181, 8270, 8238, 8133, 8158, 8192, 8135,0.27425074577331543
3, 8150, 8180, 8140, 8147, 8200, 8181, 8211, 8177, 8258, 8209, 8117, 8153, 8175, 8115,0.27425074577331543
4, 8171, 8189, 8167, 8149, 8198, 8173, 8187, 8168, 8256, 8199, 8159, 8181, 8188, 8127,0.28975772857666016
5, 8181, 8195, 8183, 8159, 8200, 8177, 8191, 8179, 8259, 8211, 8203, 8215, 8213, 8156,0.2901339530944824
6, 8175, 8198, 8164, 8162, 8191, 8164, 8189, 8166, 8236, 8210, 8207, 8213, 8212, 8148,0.30524349212646484
7, 8169, 8199, 8195, 8161, 8186, 8170, 8182, 8164, 8210, 8200, 8201, 8211, 8194, 8134,0.30524349212646484
8, 8153, 8189, 8158, 8182, 8204, 8197, 8197, 8170, 8217, 8211, 8183, 8190, 8187, 8131,0.32074499130249023
9, 8153, 8191, 8176, 8192, 8211, 8198, 8190, 8166, 8208, 8212, 8156, 8183, 8181, 8125,0.32074499130249023
10, 8176, 8210, 8193, 8193, 8206, 8193, 8180, 8171, 8197, 8213, 8173, 8204, 8190, 8131,0.3368091583251953
11, 8175, 8197, 8166, 8192, 8205, 8198, 8189, 8165, 8203, 8215, 8193, 8202, 8203, 8138,0.3368091583251953
12, 8155, 8181, 8183, 8186, 8200, 8213, 8195, 8178, 8199, 8207, 8163, 8184, 8192, 8138,0.35204148292541504
13, 8152, 8186, 8154, 8206, 8201, 8213, 8205, 8179, 8202, 8212, 8153, 8167, 8188, 8135,0.35204148292541504
14, 8158, 8175, 8163, 8196, 8196, 8196, 8204, 8166, 8208, 8204, 8156, 8164, 8188, 8131,0.368072509765625
15, 8151, 8162, 8153, 8168, 8185, 8187, 8199, 8184, 8221, 8208, 8152, 8165, 8193, 8136,0.368072509765625
16, 8150, 8164, 8128, 8176, 8175, 8174, 8199, 8181, 8236, 8236, 8167, 8170, 8208, 8141,0.38406920433044434
17, 8154, 8167, 8173, 8173, 8166, 8169, 8196, 8170, 8227, 8225, 8173, 8187, 8201, 8146,0.38406920433044434
18, 8149, 8159, 8134, 8166, 8169, 8176, 8207, 8171, 8231, 8203, 8169, 8180, 8189, 8141,0.3991715908050537
19, 8163, 8165, 8142, 8170, 8174, 8167, 8195, 8170, 8235, 8197, 8173, 8189, 8192, 8134,0.3991715908050537
20, 8181, 8187, 8180, 8181, 8168, 8156, 8170, 8178, 8217, 8196, 8183, 8217, 8204, 8145,0.4152390956878662
21, 8169, 8184, 8150, 8184, 8157, 8149, 8165, 8163, 8198, 8188, 8187, 8216, 8212, 8138,0.4152390956878662
22, 8166, 8175, 8184, 8173, 8150, 8150, 8153, 8164, 8184, 8179, 8198, 8229, 8209, 8135,0.43021368980407715
23, 8195, 8187, 8194, 8204, 8157, 8150, 8143, 8178, 8185, 8189, 8234, 8255, 8215, 8160,0.43021368980407715
24, 8216, 8207, 8222, 8253, 8164, 8140, 8140, 8168, 8172, 8185, 8250, 8278, 8212, 8170,0.44711804389953613
25, 8211, 8221, 8243, 8272, 8163, 8143, 8139, 8172, 8148, 8167, 8239, 8283, 8196, 8158,0.44711804389953613
26, 8207, 8225, 8214, 8288, 8171, 8153, 8142, 8168, 8147, 8158, 8247, 8270, 8187, 8148,0.4619109630584717
27, 8223, 8231, 8257, 8305, 8179, 8165, 8145, 8160, 8138, 8145, 8251, 8285, 8183, 8158,0.4619109630584717
28, 8233, 8228, 8253, 8327, 8178, 8177, 8160, 8169, 8130, 8152, 8247, 8306, 8192, 8177,0.4779655933380127
29, 8233, 8216, 8248, 8338, 8176, 8175, 8172, 8164, 8137, 8170, 8254, 8313, 8203, 8189,0.4779655933380127
30, 8235, 8213, 8256, 8326, 8177, 8179, 8176, 8172, 8149, 8168, 8247, 8307, 8200, 8193,0.4935600757598877
31, 8232, 8205, 8218, 8316, 8169, 8189, 8178, 8175, 8163, 8177, 8231, 8295, 8194, 8182,0.4935600757598877
32, 8231, 8195, 8245, 8314, 8163, 8185, 8170, 8169, 8162, 8179, 8221, 8308, 8195, 8181,0.5081329345703125
33, 8233, 8193, 8228, 8317, 8169, 8178, 8170, 8174, 8168, 8173, 8217, 8308, 8207, 8196,0.5081329345703125
34, 8231, 8184, 8211, 8302, 8163, 8169, 8165, 8165, 8174, 8180, 8218, 8298, 8215, 8198,0.523961067199707
35, 8217, 8185, 8229, 8283, 8153, 8168, 8159, 8170, 8162, 8175, 8212, 8295, 8204, 8187,0.523961067199707
36, 8205, 8189, 8195, 8282, 8153, 8166, 8163, 8167, 8162, 8165, 8211, 8285, 8202, 8179,0.5411262512207031
37, 8216, 8186, 8221, 8265, 8149, 8155, 8146, 8163, 8157, 8156, 8215, 8296, 8208, 8182,0.5411262512207031
38, 8228, 8190, 8211, 8256, 8156, 8155, 8136, 8176, 8162, 8165, 8221, 8302, 8211, 8181,0.5546259880065918
39, 8225, 8193, 8185, 8254, 8176, 8167, 8149, 8163, 8181, 8176, 8227, 8289, 8207, 8174,0.569849967956543
40, 8216, 8190, 8207, 8237, 8178, 8167, 8145, 8165, 8177, 8167, 8222, 8284, 8193, 8172,0.569849967956543
41, 8206, 8180, 8178, 8225, 8170, 8146, 8128, 8168, 8162, 8166, 8218, 8275, 8189, 8159,0.5868270397186279
42, 8211, 8183, 8205, 8220, 8166, 8140, 8118, 8160, 8155, 8160, 8214, 8275, 8189, 8153,0.5868270397186279
43, 8214, 8191, 8200, 8222, 8168, 8156, 8132, 8172, 8167, 8159, 8215, 8272, 8189, 8157,0.5868270397186279
44, 8197, 8180, 8177, 8217, 8176, 8155, 8148, 8166, 8167, 8167, 8214, 8257, 8184, 8147,0.6009140014648438
45, 8184, 8179, 8212, 8201, 8175, 8156, 8138, 8170, 8152, 8167, 8195, 8252, 8167, 8143,0.616356372833252
46, 8182, 8185, 8170, 8214, 8176, 8165, 8134, 8170, 8160, 8177, 8184, 8237, 8161, 8144,0.616356372833252
47, 8189, 8190, 8186, 8220, 8185, 8167, 8129, 8162, 8155, 8172, 8187, 8236, 8157, 8138,0.6324212551116943
48, 8196, 8190, 8205, 8209, 8193, 8173, 8134, 8171, 8150, 8166, 8201, 8246, 8154, 8144,0.6324212551116943
49, 8193, 8180, 8179, 8212, 8189, 8171, 8151, 8166, 8162, 8176, 8193, 8234, 8151, 8145,0.6480295658111572
50, 8180, 8188, 8200, 8218, 8185, 8176, 8158, 8173, 8154, 8174, 8166, 8219, 8140, 8142,0.6480295658111572
51, 8172, 8192, 8168, 8228, 8194, 8193, 8165, 8171, 8161, 8177, 8172, 8202, 8147, 8142,0.6629905700683594
52, 8172, 8181, 8183, 8217, 8191, 8192, 8162, 8164, 8173, 8174, 8182, 8203, 8156, 8137,0.6629905700683594
53, 8160, 8184, 8181, 8200, 8188, 8189, 8177, 8187, 8174, 8174, 8178, 8200, 8157, 8135,0.68068528175354
54, 8146, 8174, 8133, 8192, 8188, 8187, 8193, 8178, 8176, 8183, 8165, 8176, 8150, 8124,0.68068528175354
55, 8143, 8159, 8174, 8180, 8177, 8187, 8180, 8168, 8170, 8176, 8140, 8168, 8135, 8115,0.6939620971679688
56, 8148, 8169, 8160, 8193, 8186, 8192, 8185, 8174, 8175, 8192, 8142, 8167, 8139, 8121,0.6939620971679688
57, 8165, 8180, 8165, 8197, 8203, 8205, 8194, 8169, 8182, 8206, 8161, 8180, 8147, 8136,0.7098400592803955
58, 8162, 8168, 8175, 8170, 8195, 8217, 8182, 8177, 8189, 8195, 8153, 8181, 8143, 8147,0.7098400592803955
59, 8141, 8153, 8137, 8159, 8185, 8205, 8179, 8172, 8209, 8192, 8133, 8161, 8139, 8134,0.7252035140991211
60, 8141, 8155, 8172, 8161, 8183, 8196, 8189, 8175, 8222, 8195, 8134, 8174, 8143, 8136,0.7252035140991211
61, 8154, 8150, 8156, 8161, 8183, 8202, 8203, 8182, 8239, 8210, 8149, 8185, 8156, 8154,0.7411036491394043
62, 8163, 8147, 8157, 8147, 8178, 8199, 8200, 8174, 8251, 8220, 8152, 8187, 8163, 8157,0.7411036491394043
63, 8166, 8163, 8186, 8149, 8176, 8191, 8192, 8187, 8254, 8225, 8153, 8196, 8170, 8162,0.7561166286468506
64, 8163, 8167, 8163, 8166, 8181, 8174, 8182, 8180, 8260, 8234, 8177, 8200, 8192, 8170,0.7561166286468506
65, 8173, 8171, 8193, 8159, 8180, 8165, 8162, 8173, 8260, 8227, 8194, 8217, 8205, 8175,0.7722005844116211
66, 8186, 8183, 8175, 8159, 8173, 8170, 8164, 8185, 8267, 8228, 8199, 8226, 8204, 8169,0.7722005844116211
67, 8183, 8192, 8176, 8174, 8177, 8171, 8168, 8169, 8258, 8222, 8203, 8223, 8196, 8155,0.788219690322876
68, 8181, 8205, 8204, 8178, 8195, 8181, 8163, 8165, 8226, 8205, 8210, 8223, 8191, 8152,0.788219690322876
69, 8171, 8201, 8167, 8176, 8199, 8186, 8168, 8169, 8211, 8208, 8212, 8211, 8190, 8143,0.8040890693664551
70, 8158, 8196, 8190, 8178, 8190, 8186, 8163, 8172, 8208, 8206, 8195, 8203, 8170, 8136,0.8040890693664551
71, 8162, 8201, 8178, 8201, 8196, 8198, 8171, 8179, 8222, 8216, 8196, 8202, 8176, 8155,0.8188562393188477
72, 8168, 8193, 8170, 8201, 8202, 8202, 8192, 8175, 8238, 8245, 8208, 8205, 8205, 8178,0.8188562393188477
73, 8156, 8177, 8194, 8173, 8203, 8202, 8204, 8189, 8242, 8245, 8191, 8201, 8204, 8180,0.8349335193634033
74, 8151, 8167, 8156, 8166, 8199, 8195, 8209, 8182, 8262, 8230, 8176, 8181, 8192, 8167,0.8349335193634033
75, 8171, 8170, 8184, 8157, 8187, 8181, 8199, 8172, 8273, 8229, 8184, 8195, 8195, 8171,0.8503546714782715
76, 8181, 8177, 8178, 8152, 8189, 8175, 8186, 8183, 8270, 8229, 8200, 8212, 8206, 8176,0.8503546714782715
77, 8190, 8188, 8172, 8160, 8203, 8169, 8176, 8173, 8262, 8216, 8219, 8222, 8210, 8169,0.8659811019897461
78, 8199, 8206, 8215, 8161, 8200, 8176, 8167, 8176, 8249, 8215, 8231, 8241, 8209, 8179,0.8659811019897461
79, 8185, 8205, 8174, 8168, 8203, 8188, 8180, 8178, 8248, 8231, 8230, 8222, 8207, 8179,0.8810524940490723
80, 8172, 8200, 8190, 8176, 8216, 8199, 8201, 8176, 8251, 8228, 8216, 8202, 8194, 8172,0.8810524940490723
81, 8179, 8206, 8199, 8194, 8222, 8218, 8227, 8191, 8269, 8242, 8210, 8207, 8194, 8187,0.896620512008667
82, 8180, 8192, 8177, 8206, 8219, 8219, 8243, 8185, 8286, 8271, 8207, 8206, 8200, 8191,0.896620512008667
83, 8170, 8170, 8191, 8175, 8203, 8195, 8233, 8185, 8277, 8258, 8188, 8199, 8193, 8181,0.9117555618286133
84, 8167, 8162, 8149, 8151, 8193, 8172, 8216, 8178, 8274, 8240, 8194, 8198, 8196, 8177,0.9117555618286133
85, 8177, 8173, 8173, 8149, 8197, 8173, 8190, 8165, 8265, 8227, 8220, 8217, 8201, 8174,0.927778959274292
86, 8178, 8195, 8180, 8159, 8206, 8182, 8188, 8177, 8254, 8222, 8230, 8215, 8195, 8159,0.927778959274292
87, 8171, 8208, 8150, 8176, 8211, 8172, 8200, 8171, 8246, 8229, 8220, 8195, 8189, 8144,0.9438331127166748
88, 8174, 8212, 8186, 8172, 8215, 8180, 8191, 8176, 8239, 8224, 8207, 8202, 8186, 8152,0.9438331127166748
89, 8169, 8202, 8160, 8176, 8220, 8200, 8196, 8179, 8243, 8219, 8212, 8197, 8184, 8162,0.9592523574829102
90, 8159, 8191, 8168, 8179, 8216, 8196, 8197, 8170, 8234, 8210, 8205, 8186, 8174, 8162,0.9592523574829102
91, 8152, 8192, 8174, 8173, 8211, 8187, 8188, 8187, 8231, 8215, 8190, 8185, 8177, 8159,0.9744312763214111
92, 8143, 8173, 8139, 8159, 8195, 8176, 8179, 8176, 8238, 8229, 8185, 8171, 8177, 8147,0.9744312763214111
93, 8136, 8155, 8166, 8143, 8184, 8177, 8176, 8164, 8222, 8213, 8162, 8162, 8150, 8146,0.9900827407836914
94, 8133, 8151, 8139, 8147, 8196, 8194, 8193, 8173, 8225, 8209, 8142, 8149, 8140, 8148,0.9900827407836914
95, 8139, 8143, 8138, 8132, 8194, 8192, 8198, 8171, 8240, 8216, 8156, 8153, 8155, 8139,1.006187915802002
96, 8147, 8142, 8149, 8115, 8178, 8186, 8199, 8178, 8242, 8214, 8172, 8166, 8164, 8146,1.006187915802002
97, 8147, 8139, 8125, 8122, 8180, 8190, 8214, 8172, 8251, 8215, 8156, 8157, 8164, 8156,1.0222902297973633
98, 8150, 8137, 8166, 8116, 8180, 8188, 8206, 8178, 8256, 8205, 8133, 8159, 8165, 8154,1.0222902297973633
99, 8159, 8140, 8141, 8113, 8172, 8169, 8188, 8185, 8260, 8208, 8155, 8163, 8179, 8148,1.037858247756958
100, 8172, 8147, 8139, 8111, 8175, 8153, 8176, 8169, 8252, 8210, 8177, 8164, 8180, 8145,1.0530967712402344
101, 8172, 8154, 8165, 8107, 8173, 8153, 8167, 8177, 8231, 8188, 8159, 8170, 8164, 8148,1.0530967712402344
102, 8162, 8150, 8132, 8109, 8169, 8144, 8158, 8168, 8217, 8168, 8155, 8171, 8155, 8140,1.0530967712402344
103, 8158, 8155, 8166, 8106, 8172, 8143, 8142, 8160, 8198, 8146, 8164, 8173, 8142, 8132,1.0691773891448975
104, 8153, 8169, 8151, 8123, 8178, 8158, 8151, 8169, 8195, 8148, 8173, 8161, 8137, 8135,1.0691773891448975
105, 8164, 8168, 8150, 8133, 8178, 8155, 8153, 8162, 8200, 8168, 8178, 8163, 8142, 8135,1.0848050117492676
106, 8167, 8163, 8176, 8121, 8177, 8151, 8138, 8166, 8195, 8178, 8173, 8166, 8142, 8131,1.0848050117492676
107, 8144, 8163, 8137, 8131, 8182, 8161, 8152, 8162, 8196, 8181, 8167, 8140, 8138, 8123,1.100299596786499
108, 8140, 8168, 8171, 8148, 8187, 8178, 8176, 8167, 8199, 8182, 8163, 8141, 8140, 8132,1.116076946258545
109, 8149, 8163, 8159, 8150, 8195, 8185, 8195, 8178, 8223, 8201, 8168, 8145, 8165, 8146,1.116076946258545
110, 8149, 8156, 8149, 8153, 8200, 8184, 8200, 8173, 8242, 8218, 8170, 8140, 8169, 8148,1.116076946258545
111, 8147, 8162, 8179, 8153, 8189, 8188, 8196, 8186, 8237, 8212, 8161, 8143, 8176, 8153,1.1307978630065918
112, 8139, 8148, 8126, 8135, 8170, 8168, 8184, 8176, 8240, 8194, 8140, 8119, 8257, 8134,1.1458752155303955
113, 8142, 8137, 8151, 8107, 8158, 8149, 8158, 8167, 8225, 8169, 8131, 8124, 8333, 8114,1.1458752155303955
114, 8164, 8159, 8167, 8125, 8172, 8165, 8163, 8178, 8217, 8176, 8163, 8161, 8340, 8129,1.1610980033874512
115, 8177, 8178, 8156, 8147, 8185, 8163, 8171, 8164, 8212, 8187, 8188, 8179, 8333, 8145,1.1610980033874512
116, 8181, 8183, 8179, 8137, 8175, 8148, 8154, 8168, 8180, 8168, 8179, 8186, 8332, 8147,1.1772181987762451
117, 8185, 8178, 8153, 8144, 8171, 8144, 8149, 8168, 8168, 8159, 8179, 8180, 8312, 8142,1.1772181987762451
118, 8178, 8171, 8190, 8141, 8174, 8144, 8147, 8164, 8173, 8151, 8179, 8180, 8281, 8141,1.1941096782684326
119, 8164, 8173, 8177, 8143, 8178, 8166, 8158, 8180, 8193, 8171, 8172, 8170, 8272, 8144,1.1941096782684326
120, 8170, 8183, 8156, 8175, 8188, 8189, 8171, 8177, 8213, 8204, 8181, 8158, 8276, 8146,1.1941096782684326
121, 8174, 8197, 8211, 8188, 8186, 8196, 8170, 8182, 8203, 8201, 8190, 8176, 8276, 8158,1.2088470458984375
122, 8152, 8179, 8159, 8179, 8175, 8189, 8180, 8178, 8197, 8201, 8181, 8174, 8265, 8155,1.2241170406341553
123, 8141, 8151, 8156, 8151, 8165, 8182, 8183, 8170, 8191, 8197, 8148, 8153, 8239, 8140,1.2241170406341553
124, 8143, 8152, 8166, 8141, 8172, 8183, 8187, 8181, 8190, 8197, 8130, 8137, 8222, 8140,1.2392361164093018
125, 8140, 8148, 8134, 8140, 8167, 8171, 8193, 8172, 8195, 8202, 8144, 8138, 8217, 8133,1.2392361164093018
126, 8141, 8141, 8164, 8119, 8146, 8156, 8182, 8175, 8196, 8181, 8143, 8158, 8207, 8126,1.2551193237304688
127, 8155, 8157, 8148, 8127, 8156, 8157, 8178, 8183, 8208, 8176, 8148, 8166, 8216, 8139,1.2551193237304688
236, 8174, 8182, 8169, 8147, 8177, 8159, 8176, 8174, 8211, 8184, 8174, 8188, 8227, 8159,1.2703189849853516
0, 8177, 8185, 8181, 8146, 8174, 8162, 8175, 8181, 8215, 8183, 8186, 8205, 8209, 8162,1.2703189849853516
1, 8171, 8176, 8159, 8141, 8166, 8159, 8168, 8177, 8221, 8189, 8182, 8190, 8189, 8148,1.2860612869262695
2, 8173, 8189, 8193, 8141, 8164, 8153, 8144, 8173, 8193, 8177, 8177, 8187, 8172, 8142,1.2860612869262695
3, 8162, 8193, 8165, 8150, 8154, 8157, 8139, 8167, 8161, 8151, 8161, 8169, 8149, 8131,1.301192045211792
4, 8136, 8163, 8153, 8137, 8131, 8158, 8131, 8157, 8152, 8141, 8135, 8143, 8117, 8115,1.301192045211792
5, 8111, 8122, 8138, 8094, 8112, 8144, 8104, 8168, 8147, 8146, 8117, 8128, 8094, 8112,1.3168320655822754
6, 8099, 8112, 8113, 8088, 8107, 8131, 8101, 8162, 8150, 8149, 8121, 8126, 8092, 8111,1.3168320655822754
7, 8120, 8137, 8165, 8113, 8121, 8148, 8124, 8165, 8174, 8155, 8135, 8152, 8105, 8127,1.332000970840454
8, 8145, 8148, 8148, 8113, 8139, 8155, 8135, 8183, 8199, 8173, 8155, 8166, 8123, 8142,1.332000970840454
9, 8138, 8145, 8139, 8086, 8131, 8143, 8118, 8172, 8176, 8158, 8167, 8164, 8114, 8123,1.3475546836853027
10, 8119, 8161, 8157, 8090, 8125, 8149, 8117, 8165, 8141, 8127, 8160, 8164, 8090, 8106,1.3475546836853027
11, 8117, 8176, 8143, 8128, 8145, 8161, 8134, 8161, 8142, 8124, 8158, 8160, 8087, 8107,1.3635118007659912
12, 8126, 8179, 8181, 8144, 8160, 8173, 8132, 8163, 8137, 8124, 8156, 8163, 8077, 8108,1.3635118007659912
13, 8121, 8178, 8159, 8150, 8161, 8182, 8137, 8168, 8137, 8138, 8150, 8147, 8065, 8108,1.378188133239746
14, 8116, 8163, 8150, 8148, 8153, 8177, 8148, 8161, 8157, 8156, 8142, 8137, 8079, 8117,1.378188133239746
15, 8121, 8158, 8171, 8147, 8144, 8181, 8150, 8173, 8177, 8164, 8142, 8147, 8101, 8135,1.3939199447631836
16, 8132, 8162, 8147, 8159, 8148, 8182, 8151, 8172, 8194, 8185, 8162, 8157, 8120, 8146,1.3939199447631836
17, 8144, 8159, 8180, 8142, 8148, 8170, 8147, 8170, 8194, 8190, 8175, 8175, 8132, 8150,1.4092719554901123
18, 8141, 8153, 8159, 8124, 8140, 8167, 8144, 8178, 8195, 8181, 8179, 8170, 8141, 8151,1.4092719554901123
19, 8138, 8152, 8142, 8123, 8142, 8164, 8129, 8161, 8198, 8174, 8177, 8165, 8139, 8147,1.424954891204834
20, 8151, 8170, 8180, 8133, 8151, 8162, 8119, 8174, 8197, 8166, 8180, 8188, 8136, 8150,1.424954891204834
21, 8156, 8177, 8155, 8153, 8159, 8167, 8126, 8177, 8196, 8163, 8198, 8196, 8133, 8143,1.440521001815796
22, 8153, 8175, 8178, 8151, 8164, 8166, 8115, 8162, 8168, 8150, 8201, 8201, 8117, 8133,1.440521001815796
23, 8150, 8181, 8167, 8151, 8169, 8163, 8118, 8168, 8152, 8153, 8192, 8196, 8117, 8136,1.4559242725372314
24, 8147, 8178, 8151, 8161, 8168, 8164, 8133, 8158, 8150, 8156, 8185, 8177, 8122, 8125,1.4559242725372314
25, 8131, 8173, 8176, 8162, 8169, 8183, 8135, 8162, 8134, 8138, 8163, 8160, 8098, 8110,1.4710185527801514
26, 8110, 8163, 8128, 8168, 8173, 8193, 8151, 8174, 8142, 8145, 8146, 8137, 8086, 8105,1.4710185527801514
27, 8112, 8155, 8149, 8159, 8167, 8183, 8162, 8173, 8159, 8157, 8145, 8139, 8095, 8111,1.486238718032837
28, 8125, 8156, 8158, 8160, 8168, 8192, 8175, 8175, 8168, 8170, 8148, 8150, 8105, 8129,1.486238718032837
29, 8135, 8150, 8136, 8165, 8168, 8194, 8186, 8167, 8172, 8184, 8150, 8155, 8110, 8146,1.5027711391448975
30, 8146, 8148, 8168, 8148, 8151, 8183, 8175, 8178, 8169, 8184, 8151, 8171, 8115, 8158,1.5027711391448975
31, 8154, 8150, 8145, 8143, 8147, 8169, 8166, 8177, 8178, 8193, 8161, 8167, 8129, 8159,1.5172059535980225
32, 8169, 8159, 8175, 8149, 8152, 8156, 8155, 8164, 8175, 8182, 8168, 8177, 8134, 8158,1.5172059535980225
33, 8183, 8175, 8188, 8157, 8149, 8155, 8149, 8172, 8166, 8165, 8179, 8202, 8138, 8167,1.5324013233184814
34, 8186, 8179, 8165, 8157, 8144, 8152, 8145, 8164, 8157, 8169, 8195, 8205, 8146, 8165,1.5324013233184814
35, 8184, 8184, 8194, 8150, 8150, 8154, 8139, 8174, 8150, 8174, 8199, 8210, 8148, 8166,1.5480058193206787
36, 8180, 8188, 8164, 8168, 8160, 8158, 8145, 8179, 8170, 8182, 8216, 8210, 8161, 8166,1.563533067703247
37, 8174, 8188, 8171, 8164, 8160, 8153, 8140, 8161, 8171, 8176, 8228, 8205, 8156, 8148,1.563533067703247
38, 8157, 8180, 8167, 8144, 8156, 8155, 8138, 8173, 8147, 8166, 8204, 8183, 8124, 8132,1.5800902843475342
39, 8142, 8170, 8136, 8168, 8164, 8161, 8151, 8171, 8146, 8167, 8178, 8148, 8106, 8121,1.5800902843475342
40, 8134, 8179, 8178, 8189, 8172, 8178, 8155, 8165, 8147, 8163, 8170, 8141, 8094, 8120,1.5800902843475342
41, 8119, 8171, 8140, 8177, 8166, 8184, 8160, 8165, 8140, 8171, 8166, 8131, 8081, 8116,1.594285249710083
42, 8118, 8143, 8137, 8149, 8151, 8166, 8162, 8164, 8147, 8176, 8157, 8126, 8076, 8118,1.6099600791931152
43, 8124, 8136, 8161, 8138, 8142, 8158, 8160, 8184, 8170, 8171, 8153, 8136, 8083, 8137,1.6099600791931152
44, 8130, 8144, 8140, 8152, 8144, 8166, 8165, 8178, 8185, 8184, 8160, 8144, 8096, 8145,1.6249260902404785
45, 8158, 8156, 8184, 8155, 8146, 8171, 8168, 8170, 8182, 8192, 8160, 8162, 8099, 8154,1.6249260902404785
46, 8179, 8162, 8171, 8153, 8147, 8157, 8170, 8174, 8184, 8187, 8169, 8169, 8105, 8165,1.6404056549072266
47, 8176, 8164, 8170, 8149, 8150, 8140, 8146, 8167, 8166, 8161, 8173, 8174, 8108, 8163,1.6404056549072266
48, 8172, 8167, 8184, 8147, 8145, 8141, 8113, 8171, 8143, 8133, 8163, 8174, 8097, 8152,1.6560039520263672
49, 8173, 8165, 8157, 8151, 8139, 8139, 8113, 8161, 8144, 8128, 8173, 8164, 8087, 8135,1.6560039520263672
50, 8167, 8175, 8194, 8148, 8148, 8143, 8125, 8161, 8132, 8129, 8182, 8171, 8079, 8125,1.6718721389770508
51, 8157, 8191, 8174, 8165, 8172, 8161, 8133, 8166, 8127, 8134, 8175, 8164, 8078, 8117,1.6718721389770508
52, 8155, 8188, 8167, 8177, 8172, 8162, 8132, 8153, 8127, 8132, 8172, 8157, 8071, 8115,1.6874275207519531
53, 8154, 8179, 8188, 8168, 8154, 8163, 8141, 8168, 8121, 8132, 8171, 8158, 8065, 8125,1.6874275207519531
54, 8145, 8167, 8155, 8176, 8157, 8177, 8168, 8171, 8144, 8149, 8165, 8140, 8068, 8125,1.703434705734253
55, 8142, 8161, 8190, 8182, 8164, 8189, 8180, 8166, 8165, 8163, 8154, 8142, 8063, 8130,1.703434705734253
56, 8145, 8163, 8177, 8179, 8159, 8190, 8190, 8177, 8183, 8194, 8162, 8155, 8078, 8144,1.7190515995025635
57, 8146, 8156, 8159, 8163, 8147, 8176, 8183, 8167, 8198, 8204, 8171, 8161, 8109, 8147,1.7190515995025635
58, 8150, 8161, 8189, 8155, 8142, 8175, 8152, 8172, 8189, 8171, 8163, 8175, 8109, 8150,1.734215497970581
59, 8155, 8173, 8162, 8173, 8155, 8166, 8132, 8170, 8178, 8157, 8179, 8181, 8100, 8150,1.734215497970581
60, 8160, 8182, 8189, 8162, 8165, 8147, 8117, 8162, 8159, 8150, 8200, 8189, 8100, 8141,1.7497458457946777
61, 8154, 8195, 8181, 8160, 8173, 8158, 8129, 8167, 8157, 8146, 8195, 8181, 8097, 8138,1.7497458457946777
62, 8147, 8191, 8164, 8190, 8177, 8176, 8150, 8156, 8168, 8153, 8173, 8158, 8082, 8131,1.765779972076416
63, 8145, 8170, 8188, 8196, 8171, 8182, 8157, 8168, 8169, 8160, 8160, 8147, 8078, 8132,1.765779972076416
64, 8139, 8155, 8144, 8174, 8166, 8184, 8176, 8177, 8186, 8174, 8165, 8137, 8097, 8142,1.7808384895324707
65, 8148, 8166, 8173, 8145, 8167, 8179, 8176, 8169, 8193, 8173, 8162, 8152, 8106, 8152,1.7808384895324707
66, 8163, 8188, 8180, 8152, 8177, 8169, 8161, 8170, 8187, 8169, 8170, 8170, 8107, 8148,1.7968535423278809
67, 8162, 8191, 8158, 8175, 8179, 8160, 8146, 8159, 8172, 8159, 8188, 8165, 8094, 8119,1.7968535423278809
68, 8150, 8194, 8194, 8180, 8178, 8175, 8145, 8172, 8156, 8135, 8185, 8167, 8073, 8110,1.8124794960021973
69, 8144, 8191, 8165, 8193, 8186, 8198, 8180, 8177, 8188, 8159, 8178, 8163, 8080, 8124,1.8124794960021973
70, 8161, 8183, 8191, 8191, 8178, 8207, 8211, 8175, 8236, 8199, 8182, 8175, 8102, 8147,1.8280270099639893
71, 8177, 8177, 8203, 8178, 8166, 8200, 8219, 8188, 8244, 8203, 8196, 8193, 8119, 8169,1.8280270099639893
72, 8174, 8170, 8165, 8158, 8167, 8175, 8203, 8169, 8208, 8176, 8207, 8193, 8122, 8157,1.8441026210784912
73, 8170, 8182, 8191, 8144, 8170, 8170, 8183, 8167, 8177, 8149, 8203, 8193, 8103, 8138,1.8441026210784912
74, 8172, 8201, 8177, 8181, 8186, 8184, 8194, 8180, 8197, 8169, 8200, 8181, 8096, 8140,1.8596737384796143
75, 8179, 8206, 8200, 8213, 8199, 8192, 8210, 8180, 8210, 8201, 8201, 8180, 8107, 8154,1.8596737384796143
76, 8175, 8194, 8201, 8192, 8185, 8192, 8209, 8183, 8210, 8211, 8192, 8175, 8111, 8162,1.875518560409546
77, 8166, 8172, 8165, 8165, 8174, 8175, 8196, 8164, 8220, 8203, 8183, 8165, 8109, 8150,1.875518560409546
78, 8173, 8181, 8201, 8160, 8180, 8163, 8181, 8166, 8209, 8178, 8190, 8187, 8109, 8145,1.8914551734924316
79, 8175, 8192, 8169, 8170, 8182, 8165, 8182, 8173, 8193, 8166, 8209, 8188, 8110, 8139,1.8914551734924316
80, 8154, 8187, 8169, 8169, 8179, 8169, 8177, 8161, 8182, 8158, 8199, 8173, 8095, 8125,1.9064788818359375
81, 8141, 8184, 8191, 8177, 8188, 8188, 8191, 8177, 8192, 8172, 8181, 8174, 8089, 8130,1.9064788818359375
82, 8153, 8177, 8162, 8196, 8190, 8206, 8228, 8183, 8228, 8204, 8185, 8167, 8107, 8146,1.9221367835998535
83, 8165, 8171, 8188, 8180, 8180, 8201, 8230, 8186, 8244, 8203, 8174, 8165, 8113, 8156,1.9221367835998535
84, 8163, 8171, 8159, 8159, 8178, 8184, 8212, 8187, 8251, 8199, 8165, 8175, 8120, 8156,1.9374823570251465
85, 8167, 8176, 8166, 8151, 8179, 8167, 8195, 8175, 8241, 8188, 8181, 8192, 8124, 8147,1.9374823570251465
86, 8177, 8188, 8194, 8157, 8182, 8164, 8187, 8182, 8211, 8167, 8187, 8199, 8118, 8141,1.9531006813049316
87, 8183, 8200, 8171, 8186, 8191, 8173, 8190, 8172, 8208, 8167, 8189, 8191, 8116, 8136,1.9531006813049316
88, 8187, 8214, 8211, 8204, 8197, 8189, 8185, 8170, 8216, 8174, 8191, 8193, 8111, 8145,1.9681367874145508
89, 8176, 8207, 8183, 8209, 8203, 8200, 8197, 8182, 8229, 8194, 8188, 8176, 8115, 8156,1.9681367874145508
90, 8171, 8185, 8172, 8195, 8194, 8190, 8208, 8173, 8239, 8209, 8186, 8163, 8129, 8158,1.9841580390930176
91, 8176, 8177, 8191, 8174, 8171, 8173, 8193, 8177, 8231, 8188, 8185, 8173, 8132, 8161,1.9841580390930176
92, 8179, 8172, 8151, 8163, 8165, 8152, 8178, 8172, 8220, 8170, 8192, 8180, 8133, 8153,1.999847412109375
93, 8190, 8181, 8192, 8161, 8170, 8151, 8178, 8177, 8210, 8172, 8197, 8199, 8133, 8151,1.999847412109375
94, 8184, 8192, 8179, 8187, 8178, 8174, 8197, 8188, 8216, 8179, 8191, 8187, 8124, 8151,2.023374080657959
95, 8160, 8177, 8151, 8200, 8175, 8180, 8205, 8173, 8206, 8171, 8168, 8148, 8100, 8133,2.023374080657959
96, 8160, 8166, 8177, 8191, 8171, 8192, 8215, 8180, 8195, 8177, 8148, 8143, 8092, 8132,2.023374080657959
97, 8174, 8167, 8151, 8194, 8180, 8196, 8231, 8181, 8220, 8208, 8157, 8156, 8107, 8151,2.0309231281280518
98, 8181, 8172, 8184, 8178, 8176, 8174, 8202, 8173, 8217, 8187, 8162, 8174, 8111, 8157,2.0464086532592773
99, 8185, 8186, 8180, 8175, 8179, 8166, 8187, 8177, 8198, 8155, 8173, 8180, 8116, 8146,2.0621650218963623
100, 8196, 8198, 8177, 8208, 8201, 8173, 8203, 8173, 8189, 8167, 8190, 8188, 8119, 8141,2.0621650218963623
101, 8190, 8199, 8212, 8222, 8204, 8184, 8207, 8184, 8186, 8189, 8178, 8190, 8109, 8157,2.0621650218963623
102, 8169, 8175, 8155, 8204, 8189, 8190, 8219, 8177, 8208, 8208, 8164, 8159, 8115, 8165,2.0778698921203613
103, 8167, 8153, 8170, 8166, 8171, 8186, 8214, 8167, 8215, 8203, 8156, 8155, 8123, 8165,2.0778698921203613
104, 8175, 8151, 8168, 8146, 8162, 8169, 8187, 8176, 8211, 8191, 8152, 8164, 8122, 8167,2.0933237075805664
105, 8181, 8158, 8150, 8145, 8161, 8157, 8174, 8165, 8221, 8186, 8167, 8168, 8129, 8162,2.1093368530273438
106, 8190, 8183, 8198, 8153, 8172, 8176, 8179, 8178, 8222, 8184, 8191, 8195, 8136, 8164,2.1093368530273438
107, 8185, 8190, 8165, 8175, 8190, 8181, 8189, 8180, 8207, 8192, 8190, 8188, 8130, 8154,2.1093368530273438
108, 8164, 8165, 8172, 8161, 8186, 8171, 8183, 8164, 8191, 8186, 8155, 8160, 8102, 8130,2.1250534057617188
109, 8152, 8157, 8181, 8155, 8176, 8191, 8199, 8181, 8220, 8196, 8151, 8155, 8104, 8138,2.1250534057617188
110, 8161, 8163, 8160, 8182, 8182, 8204, 8225, 8183, 8262, 8226, 8171, 8161, 8136, 8164,2.1401944160461426
111, 8166, 8162, 8181, 8166, 8186, 8180, 8203, 8174, 8248, 8205, 8152, 8160, 8133, 8159,2.1561646461486816
112, 8149, 8151, 8145, 8137, 8168, 8147, 8164, 8171, 8220, 8164, 8132, 8139, 8108, 8118,2.1561646461486816
113, 8145, 8153, 8152, 8137, 8146, 8139, 8150, 8164, 8214, 8160, 8153, 8144, 8109, 8104,2.1561646461486816
114, 8156, 8164, 8165, 8142, 8156, 8155, 8157, 8174, 8221, 8179, 8172, 8155, 8122, 8121,2.1711173057556152
115, 8152, 8161, 8147, 8142, 8176, 8169, 8157, 8167, 8207, 8175, 8153, 8137, 8104, 8112,2.1711173057556152
116, 8146, 8162, 8177, 8147, 8177, 8178, 8155, 8170, 8175, 8157, 8134, 8127, 8078, 8104,2.1871447563171387
117, 8148, 8168, 8156, 8166, 8175, 8179, 8169, 8179, 8180, 8171, 8145, 8126, 8091, 8118,2.2022292613983154
118, 8146, 8163, 8168, 8166, 8172, 8173, 8158, 8171, 8185, 8179, 8140, 8129, 8102, 8124,2.2022292613983154
119, 8141, 8152, 8173, 8150, 8167, 8187, 8158, 8180, 8186, 8182, 8120, 8129, 8104, 8132,2.217867612838745
120, 8143, 8139, 8145, 8151, 8171, 8198, 8188, 8178, 8209, 8197, 8119, 8124, 8113, 8143,2.217867612838745
121, 8141, 8143, 8183, 8150, 8177, 8202, 8193, 8175, 8211, 8193, 8107, 8127, 8101, 8148,2.234374761581421
122, 8131, 8141, 8150, 8144, 8172, 8203, 8197, 8176, 8205, 8185, 8089, 8113, 8088, 8140,2.234374761581421
123, 8134, 8134, 8145, 8123, 8155, 8190, 8211, 8170, 8212, 8183, 8085, 8107, 8092, 8129,2.250265598297119
124, 8137, 8148, 8169, 8118, 8154, 8188, 8214, 8184, 8222, 8189, 8094, 8121, 8100, 8133,2.250265598297119
125, 8142, 8165, 8141, 8139, 8174, 8196, 8217, 8178, 8236, 8204, 8122, 8133, 8117, 8141,2.264085531234741
126, 8155, 8174, 8179, 8135, 8178, 8196, 8216, 8181, 8235, 8199, 8135, 8147, 8119, 8149,2.264085531234741
127, 8160, 8173, 8160, 8131, 8171, 8188, 8220, 8189, 8233, 8203, 8128, 8137, 8119, 8149,2.280202865600586
236, 8163, 8165, 8157, 8134, 8168, 8172, 8211, 8177, 8233, 8209, 8137, 8137, 8136, 8140,2.280202865600586
0, 8162, 8165, 8186, 8133, 8172, 8168, 8194, 8186, 8225, 8190, 8152, 8159, 8144, 8141,2.2957241535186768
1, 8155, 8168, 8161, 8144, 8179, 8161, 8189, 8176, 8208, 8173, 8154, 8153, 8133, 8131,2.296725273132324
2, 8165, 8176, 8201, 8147, 8177, 8153, 8177, 8167, 8178, 8163, 8143, 8147, 8117, 8123,2.296725273132324
3, 8176, 8180, 8181, 8159, 8176, 8165, 8175, 8177, 8174, 8171, 8157, 8149, 8127, 8133,2.3108601570129395
4, 8169, 8173, 8167, 8172, 8176, 8168, 8173, 8166, 8174, 8171, 8162, 8154, 8126, 8131,2.3269541263580322
5, 8152, 8174, 8200, 8176, 8176, 8173, 8178, 8170, 8159, 8161, 8129, 8150, 8102, 8121,2.3269541263580322
6, 8154, 8172, 8171, 8194, 8186, 8184, 8200, 8173, 8170, 8188, 8132, 8134, 8116, 8126,2.342535972595215
7, 8173, 8163, 8201, 8187, 8183, 8184, 8202, 8176, 8181, 8201, 8158, 8156, 8139, 8148,2.342535972595215
8, 8165, 8149, 8166, 8161, 8168, 8180, 8200, 8179, 8189, 8191, 8153, 8161, 8135, 8152,2.358980178833008
9, 8139, 8137, 8135, 8141, 8158, 8172, 8198, 8164, 8186, 8178, 8130, 8134, 8124, 8129,2.358980178833008
10, 8147, 8137, 8187, 8137, 8157, 8171, 8189, 8177, 8173, 8169, 8137, 8149, 8132, 8131,2.37473726272583
11, 8163, 8137, 8167, 8159, 8163, 8171, 8194, 8176, 8193, 8191, 8181, 8177, 8160, 8139,2.37473726272583
12, 8179, 8159, 8204, 8181, 8164, 8169, 8185, 8167, 8210, 8202, 8200, 8200, 8175, 8146,2.3897619247436523
13, 8202, 8184, 8216, 8211, 8166, 8162, 8168, 8180, 8204, 8189, 8204, 8217, 8182, 8164,2.3897619247436523
14, 8213, 8177, 8206, 8228, 8168, 8143, 8153, 8166, 8186, 8172, 8233, 8239, 8184, 8170,2.405107259750366
15, 8215, 8187, 8255, 8216, 8162, 8138, 8132, 8167, 8154, 8157, 8259, 8258, 8187, 8157,2.405107259750366
16, 8211, 8206, 8234, 8230, 8160, 8138, 8130, 8164, 8132, 8148, 8254, 8246, 8182, 8138,2.420607805252075
17, 8211, 8208, 8258, 8275, 8164, 8140, 8137, 8155, 8119, 8133, 8249, 8259, 8164, 8140,2.420607805252075
18, 8218, 8209, 8262, 8322, 8170, 8156, 8145, 8173, 8127, 8149, 8280, 8287, 8179, 8156,2.4357411861419678
19, 8221, 8209, 8239, 8323, 8166, 8160, 8142, 8166, 8123, 8173, 8292, 8283, 8193, 8151,2.4357411861419678
20, 8213, 8207, 8268, 8299, 8154, 8156, 8127, 8158, 8091, 8148, 8259, 8274, 8166, 8151,2.4514176845550537
21, 8201, 8201, 8232, 8321, 8157, 8160, 8131, 8157, 8090, 8134, 8242, 8261, 8155, 8154,2.4514176845550537
22, 8209, 8200, 8252, 8345, 8167, 8175, 8141, 8160, 8103, 8144, 8249, 8266, 8175, 8152,2.467036008834839
23, 8220, 8200, 8260, 8330, 8164, 8185, 8154, 8174, 8111, 8159, 8264, 8280, 8190, 8166,2.467036008834839
24, 8207, 8181, 8218, 8306, 8152, 8175, 8158, 8165, 8128, 8174, 8269, 8274, 8196, 8179,2.48215651512146
25, 8196, 8174, 8243, 8297, 8145, 8169, 8150, 8169, 8136, 8170, 8249, 8262, 8187, 8176,2.48215651512146
26, 8199, 8175, 8213, 8300, 8141, 8164, 8161, 8176, 8150, 8170, 8236, 8244, 8180, 8168,2.497523784637451
27, 8203, 8165, 8213, 8274, 8133, 8150, 8158, 8166, 8149, 8174, 8237, 8252, 8188, 8168,2.497523784637451
28, 8195, 8167, 8215, 8252, 8134, 8149, 8145, 8168, 8139, 8168, 8235, 8255, 8194, 8168,2.5128674507141113
29, 8188, 8169, 8175, 8252, 8128, 8145, 8137, 8157, 8136, 8149, 8215, 8225, 8179, 8149,2.5128674507141113
30, 8203, 8171, 8209, 8236, 8118, 8142, 8126, 8162, 8129, 8136, 8206, 8228, 8174, 8149,2.5289132595062256
31, 8217, 8180, 8194, 8239, 8141, 8149, 8134, 8175, 8137, 8161, 8233, 8246, 8207, 8173,2.5289132595062256
32, 8218, 8187, 8194, 8245, 8155, 8150, 8133, 8163, 8145, 8169, 8244, 8251, 8216, 8176,2.544908285140991
33, 8209, 8181, 8200, 8224, 8144, 8153, 8119, 8169, 8137, 8147, 8223, 8239, 8186, 8157,2.544908285140991
34, 8199, 8172, 8162, 8210, 8149, 8150, 8120, 8168, 8127, 8134, 8209, 8212, 8171, 8135,2.5599324703216553
35, 8195, 8179, 8187, 8209, 8157, 8142, 8126, 8165, 8117, 8130, 8205, 8213, 8166, 8135,2.5599324703216553
36, 8184, 8182, 8168, 8214, 8157, 8154, 8131, 8173, 8124, 8144, 8203, 8212, 8166, 8140,2.575408697128296
37, 8171, 8164, 8159, 8204, 8168, 8161, 8129, 8163, 8125, 8151, 8194, 8195, 8168, 8118,2.575408697128296
38, 8160, 8154, 8168, 8180, 8167, 8155, 8132, 8173, 8116, 8142, 8177, 8182, 8162, 8105,2.5909769535064697
39, 8164, 8164, 8152, 8184, 8146, 8150, 8146, 8176, 8125, 8148, 8186, 8179, 8166, 8120,2.5909769535064697
40, 8174, 8179, 8196, 8193, 8149, 8154, 8149, 8172, 8125, 8154, 8195, 8186, 8176, 8132,2.60638165473938
41, 8163, 8174, 8163, 8192, 8171, 8166, 8157, 8173, 8112, 8156, 8174, 8169, 8174, 8119,2.60638165473938
42, 8160, 8170, 8155, 8198, 8167, 8168, 8160, 8161, 8106, 8153, 8165, 8159, 8165, 8111,2.621526002883911
43, 8165, 8181, 8196, 8206, 8150, 8167, 8148, 8171, 8105, 8136, 8157, 8163, 8149, 8123,2.621526002883911
44, 8157, 8166, 8152, 8196, 8158, 8162, 8157, 8167, 8113, 8135, 8135, 8139, 8133, 8119,2.6373047828674316
45, 8162, 8149, 8170, 8177, 8172, 8169, 8167, 8163, 8116, 8143, 8127, 8135, 8127, 8117,2.6373047828674316
46, 8176, 8164, 8171, 8195, 8172, 8187, 8175, 8179, 8128, 8153, 8138, 8148, 8140, 8137,2.6528048515319824
47, 8161, 8160, 8150, 8208, 8163, 8191, 8182, 8167, 8135, 8153, 8126, 8136, 8141, 8135,2.6528048515319824
48, 8143, 8138, 8163, 8178, 8148, 8186, 8170, 8163, 8120, 8137, 8097, 8120, 8121, 8111,2.6688294410705566
49, 8144, 8130, 8126, 8169, 8145, 8173, 8163, 8159, 8117, 8135, 8106, 8115, 8121, 8103,2.6688294410705566
50, 8148, 8136, 8151, 8167, 8146, 8171, 8165, 8156, 8119, 8138, 8112, 8125, 8127, 8113,2.6843113899230957
51, 8147, 8135, 8150, 8160, 8147, 8180, 8171, 8169, 8131, 8145, 8102, 8125, 8132, 8115,2.6843113899230957
52, 8146, 8122, 8136, 8151, 8144, 8158, 8162, 8162, 8134, 8143, 8108, 8130, 8148, 8106,2.700253486633301
53, 8149, 8127, 8169, 8132, 8136, 8132, 8143, 8169, 8121, 8127, 8124, 8154, 8155, 8111,2.700253486633301
54, 8149, 8147, 8138, 8131, 8137, 8134, 8142, 8164, 8125, 8129, 8141, 8154, 8157, 8108,2.715838670730591
55, 8159, 8172, 8169, 8143, 8146, 8148, 8136, 8155, 8114, 8124, 8150, 8161, 8155, 8107,2.715838670730591
56, 8162, 8189, 8181, 8163, 8161, 8164, 8143, 8175, 8102, 8127, 8159, 8174, 8159, 8114,2.7312374114990234
57, 8162, 8184, 8158, 8174, 8171, 8159, 8150, 8170, 8109, 8130, 8157, 8169, 8156, 8109,2.7312374114990234
58, 8165, 8183, 8197, 8167, 8160, 8152, 8135, 8171, 8103, 8116, 8146, 8176, 8144, 8116,2.747126579284668
59, 8161, 8187, 8174, 8183, 8156, 8159, 8132, 8175, 8104, 8136, 8153, 8177, 8155, 8127,2.747126579284668
60, 8166, 8184, 8194, 8188, 8163, 8171, 8140, 8164, 8110, 8161, 8148, 8170, 8167, 8136,2.7630670070648193
61, 8177, 8179, 8198, 8182, 8164, 8183, 8160, 8175, 8129, 8172, 8142, 8162, 8175, 8150,2.7630670070648193
62, 8182, 8170, 8161, 8186, 8155, 8172, 8156, 8170, 8149, 8174, 8148, 8162, 8183, 8152,2.778968572616577
63, 8191, 8179, 8199, 8165, 8149, 8151, 8122, 8165, 8133, 8152, 8139, 8183, 8174, 8153,2.778968572616577
64, 8192, 8189, 8173, 8154, 8158, 8149, 8122, 8160, 8114, 8139, 8142, 8179, 8181, 8143,2.7954750061035156
65, 8169, 8181, 8166, 8150, 8158, 8147, 8127, 8147, 8094, 8127, 8157, 8160, 8216, 8112,2.7954750061035156
66, 8145, 8172, 8160, 8142, 8150, 8147, 8127, 8160, 8084, 8112, 8148, 8150, 8240, 8085,2.810452938079834
67, 8146, 8173, 8135, 8152, 8152, 8157, 8145, 8161, 8090, 8116, 8125, 8133, 8241, 8084,2.81111741065979
68, 8154, 8174, 8186, 8155, 8157, 8178, 8156, 8175, 8093, 8134, 8106, 8128, 8285, 8107,2.8257436752319336
69, 8148, 8167, 8155, 8161, 8171, 8182, 8169, 8184, 8114, 8159, 8120, 8126, 8381, 8120,2.8257436752319336
70, 8147, 8160, 8152, 8156, 8167, 8175, 8174, 8167, 8124, 8164, 8144, 8142, 8414, 8114,2.8418421745300293
71, 8146, 8153, 8172, 8141, 8149, 8178, 8161, 8168, 8103, 8150, 8122, 8147, 8367, 8110,2.8418421745300293
72, 8134, 8132, 8129, 8133, 8147, 8173, 8155, 8156, 8096, 8140, 8090, 8118, 8335, 8108,2.856318950653076
73, 8144, 8133, 8162, 8127, 8149, 8171, 8159, 8162, 8109, 8140, 8096, 8126, 8336, 8119,2.856318950653076
74, 8168, 8149, 8157, 8136, 8151, 8183, 8169, 8182, 8134, 8169, 8128, 8151, 8348, 8145,2.8719515800476074
75, 8182, 8147, 8160, 8131, 8153, 8173, 8159, 8170, 8147, 8182, 8142, 8167, 8345, 8152,2.886963129043579
76, 8180, 8148, 8181, 8115, 8148, 8159, 8145, 8171, 8144, 8164, 8134, 8168, 8324, 8142,2.886963129043579
77, 8171, 8146, 8146, 8117, 8145, 8155, 8143, 8166, 8141, 8153, 8137, 8151, 8308, 8129,2.9038190841674805
78, 8177, 8153, 8177, 8112, 8143, 8149, 8120, 8159, 8110, 8120, 8139, 8161, 8283, 8119,2.9038190841674805
79, 8178, 8175, 8162, 8126, 8153, 8156, 8121, 8160, 8093, 8102, 8140, 8161, 8263, 8113,2.9038190841674805
80, 8166, 8184, 8157, 8151, 8172, 8169, 8154, 8156, 8103, 8126, 8144, 8143, 8257, 8106,2.9203999042510986
81, 8146, 8171, 8178, 8147, 8179, 8187, 8166, 8173, 8106, 8140, 8132, 8133, 8234, 8108,2.9340646266937256
82, 8124, 8144, 8128, 8127, 8172, 8192, 8162, 8172, 8121, 8146, 8111, 8114, 8206, 8105,2.9340646266937256
83, 8123, 8137, 8152, 8115, 8169, 8189, 8163, 8171, 8144, 8162, 8096, 8109, 8199, 8110,2.9501211643218994
84, 8132, 8141, 8156, 8123, 8174, 8191, 8172, 8186, 8161, 8188, 8104, 8118, 8207, 8124,2.9501211643218994
85, 8139, 8135, 8144, 8122, 8168, 8184, 8163, 8172, 8158, 8183, 8110, 8130, 8193, 8123,2.965728521347046
86, 8143, 8134, 8169, 8104, 8160, 8180, 8155, 8172, 8150, 8158, 8096, 8137, 8165, 8128,2.965728521347046
87, 8152, 8130, 8140, 8094, 8156, 8176, 8167, 8168, 8160, 8166, 8103, 8130, 8156, 8132,2.9812698364257812
88, 8174, 8136, 8171, 8083, 8151, 8161, 8151, 8159, 8152, 8154, 8118, 8147, 8146, 8128,2.9812698364257812
89, 8190, 8161, 8180, 8099, 8162, 8155, 8139, 8174, 8136, 8127, 8133, 8171, 8133, 8138,2.9967808723449707
90, 8186, 8177, 8165, 8128, 8173, 8161, 8148, 8168, 8129, 8128, 8140, 8168, 8118, 8139,2.9967808723449707
91, 8169, 8174, 8183, 8125, 8165, 8171, 8144, 8169, 8116, 8133, 8125, 8155, 8097, 8130,3.0128190517425537
92, 8151, 8151, 8144, 8126, 8162, 8174, 8144, 8173, 8123, 8147, 8108, 8127, 8092, 8128,3.0128190517425537
93, 8148, 8137, 8168, 8132, 8165, 8180, 8158, 8169, 8131, 8159, 8092, 8123, 8092, 8130,3.030888557434082
94, 8149, 8144, 8166, 8126, 8171, 8197, 8178, 8178, 8144, 8168, 8084, 8128, 8089, 8125,3.030888557434082
95, 8131, 8129, 8124, 8095, 8165, 8188, 8177, 8166, 8156, 8162, 8086, 8115, 8087, 8102,3.030888557434082
96, 8108, 8107, 8139, 8052, 8143, 8163, 8155, 8167, 8138, 8127, 8071, 8111, 8071, 8081,3.0442700386047363
97, 8098, 8110, 8102, 8050, 8136, 8154, 8146, 8168, 8131, 8113, 8065, 8101, 8061, 8067,3.059814691543579
98, 8112, 8134, 8128, 8071, 8148, 8155, 8141, 8166, 8135, 8119, 8086, 8113, 8067, 8072,3.0602688789367676
99, 8128, 8150, 8153, 8099, 8164, 8176, 8156, 8183, 8140, 8138, 8117, 8138, 8087, 8092,3.0757806301116943
100, 8123, 8145, 8127, 8121, 8176, 8186, 8177, 8172, 8130, 8149, 8125, 8131, 8090, 8093,3.0757806301116943
101, 8116, 8142, 8156, 8116, 8179, 8182, 8173, 8169, 8105, 8135, 8097, 8111, 8065, 8091,3.091146469116211
102, 8115, 8137, 8122, 8117, 8172, 8184, 8179, 8168, 8113, 8139, 8081, 8088, 8062, 8098,3.091146469116211
103, 8111, 8123, 8132, 8109, 8156, 8182, 8183, 8161, 8117, 8146, 8085, 8092, 8071, 8102,3.1069324016571045
104, 8119, 8124, 8147, 8102, 8154, 8177, 8178, 8180, 8124, 8159, 8102, 8114, 8084, 8117,3.1069324016571045
105, 8148, 8139, 8127, 8120, 8167, 8171, 8177, 8178, 8163, 8191, 8132, 8121, 8112, 8141,3.123047113418579
106, 8169, 8147, 8183, 8120, 8157, 8166, 8162, 8176, 8175, 8195, 8143, 8140, 8123, 8156,3.123047113418579
107, 8167, 8141, 8157, 8115, 8142, 8148, 8144, 8172, 8157, 8181, 8152, 8155, 8122, 8144,3.1382174491882324
108, 8168, 8144, 8151, 8114, 8147, 8138, 8131, 8157, 8142, 8168, 8164, 8161, 8126, 8131,3.1382174491882324
109, 8155, 8155, 8172, 8110, 8156, 8153, 8135, 8171, 8131, 8165, 8161, 8153, 8120, 8129,3.1539268493652344
110, 8123, 8144, 8130, 8110, 8158, 8156, 8151, 8165, 8120, 8166, 8139, 8122, 8091, 8105,3.1539268493652344
111, 8104, 8127, 8144, 8098, 8153, 8166, 8152, 8163, 8109, 8150, 8111, 8102, 8063, 8088,3.169069290161133
112, 8093, 8113, 8113, 8093, 8147, 8185, 8170, 8172, 8123, 8164, 8102, 8082, 8074, 8099,3.169069290161133
113, 8098, 8106, 8119, 8093, 8141, 8179, 8184, 8160, 8137, 8183, 8104, 8088, 8093, 8111,3.1849968433380127
114, 8113, 8116, 8149, 8086, 8139, 8166, 8169, 8170, 8140, 8170, 8111, 8107, 8091, 8116,3.1849968433380127
115, 8109, 8112, 8106, 8082, 8143, 8151, 8153, 8170, 8142, 8161, 8123, 8099, 8093, 8100,3.20029878616333
116, 8111, 8118, 8141, 8077, 8138, 8133, 8148, 8166, 8122, 8151, 8129, 8112, 8094, 8091,3.20029878616333
117, 8126, 8145, 8145, 8100, 8147, 8139, 8156, 8172, 8111, 8139, 8135, 8121, 8092, 8094,3.2161619663238525
118, 8134, 8154, 8149, 8131, 8166, 8160, 8156, 8162, 8113, 8140, 8140, 8110, 8093, 8088,3.2161619663238525
119, 8130, 8158, 8185, 8147, 8170, 8174, 8160, 8173, 8118, 8163, 8139, 8117, 8097, 8105,3.231973648071289
120, 8130, 8158, 8158, 8164, 8175, 8174, 8177, 8171, 8129, 8185, 8143, 8124, 8103, 8134,3.231973648071289
121, 8132, 8151, 8176, 8151, 8175, 8167, 8159, 8165, 8116, 8167, 8136, 8125, 8105, 8137,3.247405529022217
122, 8124, 8143, 8151, 8126, 8157, 8168, 8138, 8174, 8114, 8156, 8115, 8108, 8109, 8119,3.247405529022217
123, 8123, 8133, 8135, 8120, 8144, 8164, 8145, 8160, 8134, 8169, 8112, 8103, 8119, 8115,3.262728452682495
124, 8129, 8129, 8167, 8113, 8147, 8162, 8159, 8169, 8147, 8170, 8122, 8113, 8125, 8131,3.262728452682495
125, 8122, 8120, 8131, 8097, 8142, 8154, 8167, 8179, 8160, 8166, 8126, 8100, 8127, 8131,3.2788496017456055
126, 8119, 8111, 8146, 8066, 8128, 8144, 8160, 8171, 8155, 8153, 8116, 8107, 8114, 8117,3.2788496017456055
127, 8115, 8107, 8129, 8060, 8127, 8146, 8150, 8168, 8140, 8137, 8113, 8113, 8105, 8097,3.2941365242004395
236, 8104, 8109, 8113, 8071, 8129, 8136, 8129, 8158, 8118, 8115, 8115, 8099, 8096, 8079,3.2941365242004395
0, 8110, 8136, 8166, 8087, 8133, 8140, 8123, 8168, 8100, 8109, 8115, 8104, 8087, 8091,3.309030532836914
1, 8123, 8153, 8146, 8124, 8144, 8164, 8149, 8166, 8114, 8133, 8123, 8107, 8097, 8104,3.309030532836914
2, 8128, 8145, 8170, 8133, 8141, 8180, 8157, 8161, 8120, 8136, 8111, 8109, 8093, 8103,3.3245339393615723
3, 8127, 8142, 8168, 8131, 8141, 8188, 8159, 8176, 8124, 8143, 8100, 8104, 8088, 8119,3.3245339393615723
4, 8125, 8137, 8136, 8131, 8140, 8170, 8158, 8160, 8130, 8160, 8106, 8092, 8101, 8129,3.340153694152832
5, 8126, 8128, 8171, 8109, 8127, 8145, 8132, 8155, 8121, 8151, 8112, 8102, 8106, 8133,3.340153694152832
6, 8147, 8136, 8157, 8117, 8135, 8139, 8122, 8160, 8123, 8160, 8150, 8138, 8127, 8145,3.3557960987091064
7, 8179, 8164, 8188, 8142, 8154, 8136, 8114, 8154, 8110, 8166, 8192, 8177, 8156, 8149,3.3557960987091064
8, 8166, 8177, 8187, 8143, 8158, 8128, 8098, 8159, 8091, 8148, 8184, 8164, 8147, 8129,3.371220111846924
9, 8124, 8158, 8145, 8134, 8157, 8127, 8102, 8153, 8103, 8144, 8157, 8127, 8121, 8106,3.371220111846924
10, 8113, 8142, 8176, 8126, 8155, 8148, 8128, 8168, 8121, 8149, 8140, 8125, 8113, 8108,3.3870975971221924
11, 8109, 8123, 8138, 8118, 8147, 8162, 8155, 8176, 8142, 8160, 8128, 8111, 8114, 8105,3.3870975971221924
12, 8093, 8108, 8137, 8101, 8133, 8154, 8157, 8163, 8161, 8169, 8124, 8098, 8106, 8101,3.402728796005249
13, 8096, 8120, 8150, 8102, 8138, 8159, 8165, 8178, 8179, 8177, 8140, 8113, 8117, 8117,3.402728796005249
14, 8124, 8134, 8130, 8109, 8151, 8154, 8173, 8175, 8175, 8172, 8149, 8128, 8130, 8119,3.4192543029785156
15, 8146, 8150, 8177, 8099, 8146, 8144, 8143, 8168, 8132, 8134, 8142, 8147, 8113, 8112,3.4192543029785156
16, 8142, 8158, 8159, 8118, 8145, 8146, 8130, 8163, 8103, 8122, 8143, 8133, 8099, 8109,3.4348108768463135
17, 8133, 8144, 8161, 8138, 8149, 8153, 8144, 8154, 8095, 8131, 8127, 8105, 8084, 8101,3.4348108768463135
18, 8136, 8140, 8185, 8145, 8155, 8174, 8158, 8174, 8119, 8147, 8115, 8108, 8085, 8114,3.4502129554748535
19, 8146, 8146, 8159, 8148, 8162, 8179, 8164, 8174, 8173, 8186, 8143, 8125, 8126, 8137,3.4502129554748535
20, 8154, 8145, 8189, 8121, 8148, 8157, 8144, 8170, 8184, 8190, 8160, 8151, 8146, 8143,3.4657232761383057
21, 8153, 8138, 8163, 8110, 8141, 8136, 8122, 8166, 8160, 8160, 8160, 8152, 8134, 8127,3.4657232761383057
22, 8146, 8148, 8156, 8124, 8158, 8135, 8115, 8152, 8131, 8142, 8174, 8143, 8129, 8106,3.481173515319824
23, 8133, 8164, 8174, 8131, 8176, 8161, 8128, 8170, 8119, 8152, 8173, 8131, 8126, 8103,3.481173515319824
24, 8114, 8151, 8140, 8147, 8178, 8183, 8157, 8171, 8131, 8170, 8153, 8106, 8116, 8103,3.4968101978302
25, 8109, 8137, 8167, 8152, 8175, 8184, 8167, 8164, 8144, 8165, 8141, 8111, 8114, 8108,3.4968101978302
26, 8109, 8134, 8150, 8134, 8169, 8167, 8164, 8165, 8150, 8165, 8138, 8114, 8123, 8113,3.512549877166748
27, 8107, 8125, 8142, 8106, 8156, 8148, 8151, 8150, 8137, 8159, 8138, 8112, 8127, 8102,3.512549877166748
28, 8116, 8131, 8170, 8103, 8149, 8152, 8139, 8161, 8117, 8136, 8142, 8126, 8122, 8100,3.528153657913208
29, 8119, 8143, 8140, 8124, 8154, 8155, 8138, 8160, 8111, 8124, 8148, 8116, 8112, 8099,3.528153657913208
30, 8113, 8143, 8172, 8119, 8151, 8155, 8134, 8153, 8096, 8114, 8130, 8106, 8092, 8090,3.543856620788574
31, 8107, 8138, 8159, 8124, 8146, 8174, 8151, 8170, 8109, 8137, 8117, 8102, 8095, 8095,3.543856620788574
32, 8109, 8134, 8143, 8147, 8155, 8182, 8173, 8171, 8146, 8176, 8123, 8100, 8108, 8114,3.559804916381836
33, 8128, 8137, 8182, 8147, 8164, 8177, 8173, 8174, 8161, 8179, 8130, 8117, 8107, 8127,3.559804916381836
34, 8150, 8138, 8157, 8146, 8166, 8171, 8161, 8165, 8176, 8169, 8153, 8142, 8127, 8123,3.5750300884246826
35, 8157, 8150, 8183, 8138, 8163, 8155, 8126, 8159, 8167, 8150, 8162, 8160, 8136, 8120,3.5750300884246826
36, 8142, 8169, 8171, 8138, 8168, 8144, 8109, 8168, 8136, 8135, 8155, 8143, 8117, 8109,3.590761661529541
37, 8131, 8168, 8150, 8154, 8177, 8162, 8130, 8156, 8125, 8139, 8158, 8124, 8111, 8096,3.590761661529541
38, 8126, 8165, 8179, 8156, 8174, 8187, 8140, 8163, 8129, 8137, 8154, 8127, 8111, 8100,3.6071810722351074
39, 8104, 8155, 8125, 8149, 8170, 8185, 8144, 8161, 8137, 8134, 8143, 8101, 8098, 8089,3.6071810722351074
40, 8086, 8137, 8137, 8133, 8164, 8179, 8146, 8155, 8129, 8127, 8122, 8078, 8080, 8080,3.6218838691711426
41, 8084, 8132, 8141, 8127, 8154, 8189, 8156, 8172, 8134, 8135, 8111, 8075, 8083, 8090,3.6218838691711426
42, 8095, 8130, 8119, 8130, 8147, 8185, 8168, 8165, 8149, 8149, 8115, 8076, 8098, 8089,3.637099027633667
43, 8108, 8125, 8155, 8116, 8146, 8187, 8170, 8172, 8149, 8144, 8114, 8085, 8100, 8097,3.637099027633667
44, 8116, 8116, 8127, 8111, 8151, 8186, 8174, 8181, 8161, 8155, 8119, 8084, 8111, 8117,3.652365207672119
45, 8136, 8123, 8153, 8108, 8146, 8164, 8160, 8173, 8167, 8161, 8133, 8101, 8125, 8134,3.6679487228393555
46, 8153, 8137, 8167, 8112, 8143, 8160, 8146, 8178, 8159, 8153, 8139, 8117, 8132, 8146,3.6679487228393555
47, 8155, 8138, 8137, 8125, 8145, 8157, 8138, 8166, 8156, 8149, 8145, 8118, 8140, 8140,3.683682680130005
48, 8163, 8152, 8181, 8130, 8145, 8149, 8125, 8167, 8157, 8156, 8161, 8145, 8151, 8145,3.683682680130005
49, 8180, 8172, 8175, 8154, 8155, 8155, 8136, 8172, 8176, 8178, 8184, 8160, 8168, 8162,3.698812484741211
50, 8185, 8183, 8190, 8170, 8162, 8165, 8142, 8168, 8172, 8172, 8191, 8165, 8167, 8162,3.698812484741211
51, 8165, 8185, 8185, 8161, 8157, 8165, 8128, 8180, 8143, 8158, 8181, 8158, 8148, 8141,3.698812484741211
52, 8144, 8167, 8143, 8151, 8153, 8156, 8122, 8162, 8133, 8158, 8163, 8131, 8124, 8113,3.7139439582824707
53, 8142, 8158, 8176, 8144, 8157, 8166, 8131, 8161, 8136, 8147, 8145, 8125, 8107, 8110,3.7290639877319336
54, 8136, 8157, 8146, 8150, 8167, 8181, 8152, 8174, 8149, 8151, 8146, 8112, 8111, 8114,3.7290639877319336
55, 8131, 8154, 8151, 8148, 8171, 8183, 8155, 8167, 8150, 8157, 8140, 8099, 8104, 8105,3.744757890701294
56, 8136, 8158, 8173, 8156, 8174, 8191, 8156, 8175, 8146, 8151, 8124, 8102, 8094, 8109,3.744757890701294
57, 8131, 8155, 8137, 8170, 8174, 8193, 8178, 8167, 8159, 8158, 8124, 8097, 8108, 8122,3.7608883380889893
58, 8125, 8146, 8166, 8149, 8167, 8195, 8191, 8168, 8164, 8161, 8114, 8099, 8110, 8134,3.7608883380889893
59, 8129, 8140, 8144, 8147, 8170, 8199, 8199, 8173, 8178, 8167, 8108, 8094, 8106, 8135,3.7763571739196777
60, 8136, 8141, 8147, 8156, 8174, 8190, 8192, 8159, 8185, 8168, 8114, 8097, 8108, 8134,3.7763571739196777
61, 8145, 8154, 8182, 8150, 8171, 8183, 8185, 8172, 8179, 8164, 8119, 8121, 8116, 8145,3.791731834411621
62, 8160, 8150, 8156, 8155, 8165, 8171, 8177, 8170, 8188, 8170, 8138, 8137, 8146, 8149,3.791731834411621
63, 8171, 8141, 8187, 8143, 8152, 8153, 8157, 8164, 8184, 8162, 8147, 8153, 8168, 8149,3.8077454566955566
64, 8165, 8148, 8167, 8130, 8154, 8156, 8164, 8170, 8181, 8159, 8150, 8152, 8174, 8151,3.8077454566955566
65, 8166, 8155, 8157, 8134, 8157, 8152, 8165, 8161, 8176, 8160, 8163, 8154, 8180, 8144,3.8228397369384766
66, 8169, 8162, 8183, 8138, 8148, 8143, 8141, 8168, 8151, 8148, 8161, 8158, 8175, 8137,3.8228397369384766
67, 8154, 8159, 8148, 8142, 8149, 8145, 8141, 8162, 8143, 8145, 8156, 8143, 8159, 8130,3.8389697074890137
68, 8145, 8153, 8173, 8130, 8148, 8146, 8138, 8163, 8143, 8139, 8166, 8149, 8152, 8125,3.8389697074890137
69, 8143, 8155, 8161, 8135, 8144, 8144, 8126, 8173, 8142, 8140, 8174, 8149, 8155, 8119,3.8545072078704834
70, 8141, 8162, 8158, 8160, 8157, 8150, 8130, 8155, 8127, 8145, 8163, 8136, 8145, 8113,3.8545072078704834
71, 8146, 8166, 8191, 8167, 8174, 8170, 8139, 8158, 8108, 8137, 8148, 8135, 8137, 8118,3.869849920272827
72, 8143, 8153, 8152, 8163, 8174, 8170, 8147, 8163, 8116, 8139, 8155, 8126, 8145, 8118,3.869849920272827
73, 8141, 8149, 8178, 8156, 8166, 8164, 8149, 8165, 8124, 8141, 8151, 8121, 8139, 8118,3.885185718536377
74, 8143, 8149, 8168, 8164, 8165, 8175, 8164, 8176, 8130, 8152, 8136, 8112, 8141, 8128,3.885185718536377
75, 8143, 8135, 8143, 8157, 8159, 8167, 8173, 8163, 8127, 8170, 8132, 8108, 8150, 8132,3.901257038116455
76, 8143, 8132, 8180, 8138, 8157, 8161, 8163, 8166, 8131, 8177, 8139, 8130, 8157, 8143,3.901257038116455
77, 8150, 8144, 8152, 8152, 8162, 8164, 8161, 8168, 8154, 8179, 8165, 8148, 8184, 8157,3.9171102046966553
78, 8171, 8168, 8172, 8157, 8154, 8154, 8149, 8164, 8155, 8154, 8189, 8176, 8198, 8159,3.9171102046966553
79, 8179, 8186, 8174, 8154, 8160, 8151, 8151, 8178, 8156, 8148, 8205, 8198, 8193, 8157,3.932278633117676
80, 8165, 8178, 8157, 8162, 8176, 8159, 8163, 8168, 8160, 8160, 8200, 8189, 8189, 8148,3.932278633117676
81, 8154, 8174, 8189, 8163, 8168, 8169, 8162, 8171, 8151, 8151, 8180, 8177, 8172, 8138,3.947824716567993
82, 8150, 8175, 8150, 8174, 8165, 8171, 8183, 8177, 8167, 8161, 8177, 8160, 8159, 8132,3.947824716567993
83, 8146, 8167, 8168, 8174, 8174, 8177, 8195, 8172, 8170, 8172, 8171, 8154, 8150, 8127,3.963261365890503
84, 8140, 8152, 8167, 8166, 8165, 8187, 8186, 8178, 8153, 8168, 8158, 8146, 8148, 8125,3.963261365890503
85, 8141, 8137, 8138, 8160, 8148, 8176, 8181, 8165, 8158, 8173, 8161, 8136, 8159, 8125,3.9788849353790283
86, 8152, 8143, 8191, 8154, 8146, 8174, 8185, 8170, 8171, 8177, 8159, 8154, 8158, 8145,3.9788849353790283
87, 8162, 8150, 8164, 8163, 8162, 8178, 8197, 8174, 8186, 8185, 8157, 8159, 8162, 8159,3.994025707244873
88, 8172, 8147, 8164, 8157, 8162, 8164, 8187, 8168, 8185, 8180, 8166, 8169, 8178, 8160,3.994025707244873
89, 8177, 8147, 8172, 8146, 8146, 8150, 8170, 8182, 8180, 8169, 8176, 8191, 8189, 8171,4.009903192520142
90, 8180, 8145, 8143, 8139, 8138, 8140, 8162, 8169, 8174, 8158, 8176, 8185, 8185, 8166,4.010410308837891
91, 8191, 8155, 8188, 8126, 8142, 8141, 8146, 8164, 8155, 8146, 8169, 8187, 8178, 8161,4.0321738719940186
92, 8197, 8173, 8167, 8141, 8154, 8145, 8139, 8170, 8154, 8154, 8185, 8194, 8185, 8163,4.0321738719940186
93, 8192, 8175, 8164, 8149, 8153, 8142, 8135, 8162, 8147, 8153, 8194, 8192, 8179, 8151,4.0321738719940186
94, 8187, 8176, 8185, 8148, 8158, 8156, 8141, 8171, 8135, 8151, 8187, 8191, 8170, 8146,4.0412209033966064
95, 8191, 8179, 8165, 8163, 8173, 8168, 8156, 8169, 8149, 8169, 8196, 8192, 8180, 8151,4.056197881698608
96, 8181, 8176, 8194, 8154, 8163, 8156, 8150, 8170, 8146, 8162, 8184, 8185, 8168, 8142,4.056197881698608
97, 8152, 8163, 8160, 8140, 8149, 8155, 8158, 8174, 8137, 8151, 8158, 8153, 8149, 8122,4.072126388549805
98, 8156, 8163, 8163, 8151, 8160, 8172, 8180, 8171, 8143, 8155, 8155, 8153, 8152, 8126,4.072126388549805
99, 8179, 8182, 8192, 8171, 8171, 8186, 8191, 8184, 8154, 8161, 8167, 8174, 8158, 8145,4.0868096351623535
100, 8170, 8178, 8155, 8181, 8169, 8186, 8195, 8170, 8159, 8172, 8167, 8160, 8155, 8142,4.0868096351623535
101, 8156, 8162, 8181, 8171, 8171, 8189, 8193, 8164, 8142, 8159, 8138, 8150, 8132, 8126,4.102875471115112
102, 8149, 8151, 8153, 8168, 8171, 8191, 8199, 8179, 8144, 8156, 8115, 8138, 8117, 8110,4.102875471115112
103, 8142, 8141, 8140, 8158, 8153, 8174, 8194, 8170, 8161, 8169, 8125, 8134, 8120, 8113,4.118780136108398
104, 8148, 8145, 8171, 8140, 8145, 8169, 8192, 8177, 8174, 8182, 8146, 8157, 8137, 8141,4.118780136108398
105, 8153, 8139, 8135, 8141, 8152, 8162, 8195, 8174, 8190, 8197, 8159, 8168, 8158, 8152,4.13410210609436
106, 8151, 8131, 8159, 8135, 8142, 8148, 8166, 8166, 8183, 8185, 8152, 8174, 8159, 8148,4.13410210609436
107, 8147, 8137, 8142, 8130, 8139, 8146, 8155, 8173, 8183, 8175, 8153, 8167, 8165, 8149,4.150509357452393
108, 8147, 8133, 8126, 8118, 8144, 8142, 8160, 8163, 8182, 8170, 8164, 8164, 8169, 8141,4.150509357452393
109, 8147, 8130, 8157, 8102, 8137, 8140, 8146, 8167, 8158, 8140, 8161, 8172, 8151, 8134,4.1651082038879395
110, 8143, 8147, 8122, 8118, 8141, 8140, 8143, 8161, 8146, 8118, 8158, 8160, 8135, 8128,4.1651082038879395
111, 8147, 8163, 8152, 8126, 8144, 8146, 8148, 8157, 8139, 8115, 8163, 8167, 8130, 8125,4.180753469467163
112, 8150, 8156, 8152, 8126, 8142, 8152, 8156, 8168, 8138, 8128, 8168, 8178, 8130, 8125,4.180753469467163
113, 8149, 8144, 8132, 8129, 8140, 8145, 8158, 8160, 8133, 8123, 8157, 8163, 8116, 8106,4.195774555206299
114, 8133, 8149, 8156, 8122, 8132, 8142, 8145, 8169, 8120, 8102, 8134, 8152, 8099, 8094,4.212801218032837
115, 8115, 8148, 8116, 8125, 8129, 8143, 8141, 8166, 8123, 8114, 8131, 8140, 8101, 8097,4.212801218032837
116, 8124, 8149, 8146, 8126, 8133, 8143, 8139, 8155, 8125, 8123, 8135, 8140, 8106, 8099,4.212801218032837
117, 8131, 8153, 8156, 8132, 8136, 8152, 8144, 8170, 8128, 8125, 8139, 8141, 8115, 8101,4.227859258651733
118, 8124, 8145, 8136, 8140, 8136, 8151, 8142, 8164, 8127, 8131, 8145, 8140, 8125, 8097,4.227859258651733
119, 8125, 8149, 8169, 8133, 8145, 8151, 8132, 8163, 8119, 8125, 8142, 8148, 8121, 8107,4.244784116744995
120, 8123, 8150, 8136, 8142, 8146, 8162, 8148, 8164, 8132, 8136, 8133, 8137, 8122, 8121,4.260026931762695
121, 8118, 8132, 8145, 8150, 8132, 8168, 8161, 8160, 8133, 8143, 8112, 8130, 8116, 8119,4.260026931762695
122, 8128, 8128, 8153, 8145, 8134, 8176, 8157, 8169, 8120, 8134, 8105, 8128, 8106, 8111,4.260026931762695
123, 8144, 8132, 8139, 8139, 8136, 8167, 8155, 8156, 8132, 8135, 8126, 8133, 8116, 8112,4.274122476577759
124, 8154, 8127, 8175, 8133, 8119, 8155, 8153, 8165, 8150, 8143, 8140, 8164, 8139, 8129,4.274122476577759
125, 8163, 8133, 8161, 8156, 8121, 8152, 8146, 8176, 8164, 8147, 8149, 8179, 8154, 8138,4.28982400894165
126, 8176, 8154, 8193, 8174, 8131, 8140, 8126, 8158, 8151, 8126, 8163, 8197, 8151, 8135,4.28982400894165
127, 8173, 8167, 8200, 8177, 8121, 8136, 8121, 8162, 8122, 8102, 8169, 8212, 8144, 8128,4.305091619491577
236, 8159, 8167, 8170, 8200, 8125, 8139, 8127, 8163, 8110, 8087, 8163, 8202, 8134, 8109,4.320532560348511
0, 8169, 8178, 8217, 8220, 8144, 8145, 8126, 8164, 8104, 8079, 8165, 8209, 8118, 8106,4.320532560348511
1, 8178, 8188, 8202, 8238, 8150, 8159, 8143, 8170, 8122, 8107, 8180, 8209, 8121, 8120,4.336095094680786
2, 8172, 8187, 8208, 8254, 8143, 8172, 8156, 8167, 8139, 8130, 8170, 8201, 8130, 8123,4.336095094680786
3, 8167, 8172, 8211, 8251, 8144, 8175, 8161, 8169, 8136, 8127, 8151, 8196, 8137, 8121,4.3512938022613525
4, 8164, 8144, 8168, 8228, 8137, 8159, 8165, 8149, 8143, 8128, 8153, 8188, 8159, 8116,4.3512938022613525
5, 8153, 8141, 8197, 8198, 8115, 8151, 8150, 8154, 8148, 8133, 8142, 8181, 8174, 8110,4.366973400115967
6, 8149, 8147, 8161, 8197, 8118, 8150, 8142, 8164, 8149, 8137, 8139, 8168, 8185, 8105,4.366973400115967
7, 8161, 8143, 8161, 8184, 8129, 8139, 8142, 8150, 8139, 8122, 8162, 8184, 8202, 8115,4.382110357284546
8, 8160, 8151, 8182, 8157, 8120, 8137, 8142, 8161, 8135, 8110, 8171, 8199, 8211, 8129,4.382110357284546
9, 8155, 8153, 8134, 8157, 8127, 8134, 8143, 8155, 8144, 8125, 8163, 8174, 8214, 8122,4.397790908813477
10, 8170, 8160, 8176, 8166, 8143, 8130, 8129, 8155, 8132, 8121, 8158, 8179, 8216, 8123,4.397790908813477
11, 8168, 8172, 8164, 8167, 8144, 8135, 8132, 8164, 8127, 8110, 8160, 8187, 8218, 8129,4.412933588027954
12, 8146, 8157, 8141, 8135, 8130, 8137, 8147, 8154, 8130, 8112, 8155, 8174, 8206, 8117,4.412933588027954
13, 8141, 8147, 8161, 8120, 8137, 8148, 8155, 8168, 8138, 8116, 8150, 8170, 8195, 8112,4.429046154022217
14, 8145, 8150, 8131, 8148, 8156, 8154, 8146, 8169, 8151, 8124, 8154, 8160, 8198, 8104,4.429046154022217
15, 8146, 8153, 8173, 8149, 8149, 8146, 8122, 8159, 8126, 8111, 8140, 8161, 8183, 8089,4.444836378097534
16, 8147, 8165, 8166, 8153, 8146, 8148, 8141, 8160, 8111, 8114, 8144, 8161, 8176, 8094,4.444836378097534
17, 8148, 8170, 8152, 8162, 8160, 8153, 8167, 8155, 8112, 8124, 8156, 8155, 8189, 8105,4.460028409957886
18, 8144, 8171, 8177, 8150, 8162, 8164, 8165, 8170, 8103, 8112, 8134, 8155, 8193, 8113,4.460028409957886
19, 8137, 8165, 8131, 8150, 8161, 8171, 8180, 8167, 8112, 8122, 8125, 8142, 8198, 8111,4.475485563278198
20, 8137, 8163, 8163, 8152, 8167, 8174, 8189, 8164, 8118, 8129, 8131, 8143, 8193, 8108,4.475485563278198
21, 8128, 8161, 8165, 8155, 8172, 8179, 8179, 8177, 8121, 8129, 8121, 8134, 8176, 8106,4.491126775741577
22, 8120, 8153, 8144, 8163, 8162, 8176, 8176, 8164, 8123, 8132, 8103, 8119, 8170, 8100,4.491126775741577
23, 8132, 8156, 8173, 8169, 8162, 8187, 8187, 8164, 8124, 8140, 8113, 8138, 8192, 8120,4.507220029830933
24, 8146, 8155, 8148, 8175, 8173, 8199, 8197, 8165, 8135, 8163, 8143, 8149, 8220, 8144,4.507220029830933
25, 8145, 8153, 8169, 8167, 8168, 8189, 8184, 8162, 8129, 8159, 8140, 8147, 8206, 8137,4.522769451141357
26, 8129, 8151, 8161, 8164, 8160, 8185, 8187, 8173, 8122, 8145, 8117, 8136, 8182, 8117,4.522769451141357
27, 8119, 8139, 8138, 8158, 8154, 8187, 8207, 8164, 8133, 8146, 8118, 8130, 8186, 8110,4.5387959480285645
28, 8126, 8139, 8163, 8140, 8151, 8187, 8209, 8170, 8147, 8151, 8135, 8143, 8193, 8126,4.5387959480285645
29, 8131, 8140, 8132, 8142, 8156, 8178, 8207, 8175, 8170, 8164, 8141, 8140, 8195, 8133,4.554099082946777
30, 8140, 8143, 8166, 8147, 8160, 8167, 8191, 8170, 8170, 8170, 8143, 8145, 8201, 8136,4.554099082946777
31, 8154, 8154, 8180, 8152, 8166, 8169, 8183, 8181, 8162, 8182, 8161, 8159, 8217, 8152,4.570351600646973
32, 8162, 8153, 8151, 8158, 8164, 8169, 8193, 8167, 8169, 8194, 8168, 8160, 8220, 8157,4.570351600646973
33, 8158, 8147, 8181, 8146, 8155, 8163, 8194, 8164, 8165, 8181, 8147, 8163, 8205, 8152,4.58634090423584
34, 8153, 8146, 8157, 8147, 8159, 8154, 8194, 8174, 8166, 8174, 8143, 8163, 8205, 8144,4.58634090423584
35, 8166, 8152, 8173, 8155, 8167, 8152, 8191, 8169, 8165, 8177, 8164, 8177, 8215, 8141,4.60198450088501
36, 8179, 8165, 8187, 8166, 8165, 8162, 8191, 8176, 8171, 8182, 8174, 8188, 8220, 8148,4.60198450088501
37, 8181, 8166, 8167, 8182, 8166, 8155, 8189, 8168, 8178, 8181, 8173, 8189, 8226, 8146,4.617133855819702
38, 8187, 8165, 8204, 8176, 8174, 8147, 8175, 8170, 8168, 8170, 8175, 8202, 8229, 8158,4.617133855819702
39, 8183, 8165, 8166, 8171, 8173, 8147, 8176, 8169, 8168, 8173, 8182, 8190, 8233, 8165,4.63298487663269
40, 8174, 8165, 8165, 8167, 8158, 8144, 8184, 8158, 8156, 8162, 8173, 8176, 8224, 8151,4.63298487663269
41, 8161, 8159, 8171, 8155, 8151, 8152, 8190, 8170, 8147, 8154, 8162, 8173, 8211, 8142,4.649111986160278
42, 8149, 8142, 8135, 8153, 8155, 8151, 8189, 8164, 8159, 8160, 8171, 8164, 8209, 8139,4.649111986160278
43, 8161, 8154, 8179, 8155, 8151, 8150, 8179, 8171, 8163, 8150, 8175, 8177, 8206, 8139,4.664156436920166
44, 8175, 8172, 8151, 8171, 8157, 8164, 8190, 8182, 8180, 8166, 8189, 8191, 8219, 8147,4.664156436920166
45, 8179, 8173, 8149, 8178, 8166, 8164, 8190, 8167, 8187, 8184, 8207, 8203, 8230, 8158,4.679866313934326
46, 8183, 8179, 8184, 8178, 8164, 8155, 8175, 8166, 8160, 8167, 8201, 8209, 8222, 8159,4.679866313934326
47, 8184, 8178, 8153, 8184, 8161, 8143, 8169, 8155, 8137, 8150, 8195, 8197, 8219, 8143,4.695208787918091
48, 8188, 8177, 8184, 8182, 8164, 8140, 8157, 8158, 8121, 8148, 8200, 8214, 8221, 8142,4.695208787918091
49, 8190, 8185, 8169, 8196, 8172, 8144, 8156, 8165, 8116, 8162, 8212, 8226, 8227, 8149,4.7108235359191895
50, 8186, 8186, 8172, 8201, 8168, 8137, 8149, 8150, 8112, 8155, 8209, 8212, 8232, 8146,4.7108235359191895
51, 8183, 8181, 8197, 8189, 8160, 8139, 8140, 8164, 8116, 8145, 8191, 8202, 8231, 8146,4.726931095123291
52, 8182, 8171, 8150, 8197, 8170, 8149, 8153, 8165, 8130, 8163, 8193, 8193, 8224, 8139,4.726931095123291
53, 8177, 8174, 8181, 8202, 8176, 8161, 8162, 8155, 8121, 8157, 8203, 8193, 8238, 8136,4.742061614990234
54, 8172, 8181, 8177, 8210, 8175, 8176, 8179, 8159, 8120, 8148, 8193, 8179, 8289, 8144,4.742061614990234
55, 8172, 8171, 8156, 8209, 8180, 8174, 8189, 8155, 8122, 8166, 8177, 8164, 8324, 8138,4.758098840713501
56, 8165, 8169, 8166, 8199, 8180, 8168, 8190, 8167, 8113, 8167, 8175, 8166, 8311, 8128,4.758098840713501
57, 8146, 8175, 8138, 8214, 8174, 8170, 8202, 8171, 8121, 8158, 8173, 8148, 8278, 8120,4.773761034011841
58, 8137, 8171, 8163, 8206, 8167, 8172, 8191, 8168, 8123, 8159, 8148, 8136, 8236, 8114,4.773761034011841
59, 8132, 8163, 8134, 8186, 8170, 8169, 8176, 8169, 8125, 8164, 8140, 8135, 8217, 8113,4.788829565048218
60, 8138, 8168, 8130, 8191, 8177, 8159, 8173, 8158, 8126, 8156, 8164, 8148, 8224, 8119,4.788829565048218
61, 8150, 8181, 8181, 8201, 8168, 8163, 8170, 8172, 8119, 8153, 8170, 8164, 8222, 8129,4.804254770278931
62, 8142, 8165, 8138, 8197, 8154, 8165, 8164, 8173, 8124, 8167, 8158, 8150, 8207, 8121,4.804254770278931
63, 8138, 8146, 8149, 8176, 8154, 8164, 8153, 8160, 8123, 8156, 8148, 8145, 8188, 8112,4.819784879684448
64, 8158, 8164, 8165, 8191, 8174, 8176, 8163, 8174, 8130, 8159, 8160, 8158, 8191, 8127,4.819784879684448
65, 8182, 8185, 8170, 8232, 8187, 8180, 8175, 8172, 8156, 8194, 8191, 8179, 8218, 8150,4.835810899734497
66, 8181, 8186, 8193, 8231, 8184, 8180, 8164, 8168, 8160, 8194, 8197, 8194, 8212, 8152,4.851358652114868
67, 8169, 8173, 8145, 8210, 8186, 8182, 8169, 8163, 8156, 8179, 8174, 8172, 8191, 8132,4.851358652114868
68, 8171, 8167, 8165, 8196, 8183, 8188, 8183, 8157, 8158, 8174, 8158, 8164, 8192, 8126,4.851358652114868
69, 8163, 8159, 8166, 8193, 8180, 8192, 8188, 8170, 8161, 8171, 8162, 8166, 8194, 8135,4.867333650588989
70, 8144, 8141, 8136, 8189, 8173, 8176, 8181, 8165, 8162, 8168, 8154, 8153, 8175, 8121,4.867333650588989
71, 8141, 8140, 8161, 8177, 8166, 8172, 8176, 8171, 8161, 8171, 8137, 8155, 8166, 8120,4.882590055465698
72, 8135, 8142, 8126, 8175, 8167, 8176, 8179, 8179, 8170, 8187, 8151, 8156, 8181, 8134,4.882590055465698
73, 8128, 8140, 8138, 8171, 8166, 8163, 8170, 8172, 8165, 8180, 8161, 8152, 8175, 8127,4.898209810256958
74, 8139, 8147, 8155, 8174, 8165, 8164, 8178, 8178, 8168, 8174, 8153, 8150, 8157, 8125,4.898209810256958
75, 8154, 8153, 8134, 8177, 8163, 8167, 8186, 8162, 8180, 8188, 8162, 8158, 8164, 8131,4.914168357849121
76, 8154, 8151, 8160, 8150, 8151, 8152, 8156, 8156, 8157, 8170, 8160, 8176, 8166, 8133,4.914168357849121
77, 8153, 8145, 8129, 8139, 8143, 8131, 8135, 8163, 8140, 8151, 8156, 8174, 8163, 8131,4.930304527282715
78, 8167, 8147, 8142, 8139, 8142, 8121, 8121, 8154, 8135, 8148, 8164, 8179, 8158, 8125,4.930304527282715
79, 8175, 8157, 8162, 8137, 8140, 8131, 8111, 8161, 8131, 8145, 8160, 8186, 8149, 8121,4.946095705032349
80, 8174, 8162, 8139, 8148, 8143, 8137, 8116, 8159, 8142, 8147, 8169, 8186, 8163, 8127,4.946095705032349
81, 8182, 8171, 8178, 8150, 8151, 8143, 8114, 8164, 8151, 8148, 8189, 8203, 8177, 8135,4.96106481552124
82, 8180, 8178, 8143, 8155, 8160, 8149, 8121, 8164, 8156, 8157, 8189, 8188, 8171, 8126,4.96106481552124
83, 8171, 8171, 8143, 8147, 8159, 8146, 8138, 8148, 8138, 8143, 8168, 8170, 8148, 8113,4.977091312408447
84, 8158, 8161, 8164, 8121, 8149, 8151, 8143, 8162, 8123, 8127, 8165, 8180, 8133, 8111,4.977091312408447
85, 8142, 8154, 8118, 8114, 8144, 8156, 8149, 8169, 8144, 8142, 8177, 8175, 8140, 8104,4.992268800735474
86, 8151, 8168, 8156, 8123, 8157, 8165, 8166, 8183, 8178, 8158, 8175, 8172, 8142, 8113,4.992268800735474
87, 8165, 8181, 8146, 8140, 8173, 8170, 8187, 8189, 8205, 8177, 8187, 8166, 8144, 8120,5.007776498794556
88, 8165, 8171, 8142, 8138, 8159, 8152, 8170, 8170, 8200, 8183, 8202, 8171, 8148, 8115,5.007776498794556
89, 8170, 8174, 8176, 8128, 8150, 8147, 8151, 8183, 8184, 8178, 8203, 8196, 8159, 8134,5.024764537811279
90, 8181, 8175, 8145, 8132, 8161, 8154, 8158, 8175, 8181, 8175, 8204, 8198, 8171, 8145,5.040880918502808
91, 8178, 8171, 8173, 8125, 8154, 8145, 8143, 8161, 8155, 8152, 8194, 8195, 8155, 8134,5.040880918502808
92, 8174, 8175, 8168, 8133, 8154, 8151, 8139, 8175, 8149, 8158, 8199, 8195, 8152, 8137,5.040880918502808
93, 8193, 8186, 8171, 8159, 8178, 8171, 8155, 8169, 8172, 8185, 8217, 8202, 8171, 8148,5.055989503860474
94, 8205, 8199, 8200, 8167, 8189, 8175, 8154, 8170, 8169, 8190, 8206, 8206, 8169, 8150,5.055989503860474
95, 8200, 8193, 8160, 8162, 8178, 8155, 8147, 8169, 8138, 8186, 8199, 8188, 8164, 8145,5.07133936882019
96, 8198, 8182, 8185, 8145, 8171, 8149, 8141, 8166, 8107, 8183, 8207, 8192, 8165, 8141,5.07133936882019
97, 8190, 8181, 8174, 8146, 8172, 8167, 8143, 8170, 8098, 8186, 8204, 8192, 8160, 8133,5.086961269378662
98, 8167, 8159, 8144, 8136, 8162, 8164, 8137, 8153, 8059, 8174, 8180, 8166, 8132, 8110,5.086961269378662
99, 8136, 8144, 8160, 8099, 8145, 8157, 8129, 8156, 7998, 8142, 8153, 8148, 8101, 8095,5.102570533752441
100, 8117, 8149, 8125, 8105, 8152, 8163, 8146, 8163, 8009, 8144, 8147, 8132, 8098, 8090,5.118937969207764
101, 8129, 8152, 8152, 8128, 8169, 8173, 8156, 8166, 8037, 8160, 8155, 8135, 8109, 8093,5.118937969207764
102, 8144, 8156, 8152, 8131, 8172, 8181, 8160, 8173, 8040, 8169, 8168, 8148, 8121, 8101,5.118937969207764
103, 8138, 8163, 8142, 8129, 8165, 8179, 8164, 8162, 8036, 8170, 8165, 8151, 8116, 8104,5.134225606918335
104, 8137, 8170, 8183, 8136, 8163, 8186, 8166, 8173, 8033, 8157, 8150, 8152, 8106, 8114,5.134225606918335
105, 8144, 8169, 8149, 8160, 8179, 8198, 8188, 8174, 8042, 8170, 8153, 8148, 8124, 8125,5.1508073806762695
106, 8157, 8169, 8169, 8169, 8187, 8210, 8205, 8163, 8058, 8192, 8160, 8163, 8138, 8138,5.1508073806762695
107, 8164, 8170, 8177, 8170, 8178, 8218, 8206, 8179, 8084, 8201, 8168, 8172, 8139, 8150,5.164928436279297
108, 8158, 8155, 8146, 8164, 8176, 8203, 8195, 8176, 8113, 8217, 8180, 8163, 8148, 8147,5.180363416671753
109, 8167, 8155, 8176, 8153, 8174, 8188, 8184, 8177, 8114, 8229, 8180, 8168, 8154, 8159,5.180363416671753
110, 8178, 8162, 8147, 8154, 8175, 8182, 8181, 8171, 8112, 8224, 8181, 8167, 8156, 8165,5.196082353591919
111, 8171, 8152, 8153, 8137, 8173, 8164, 8157, 8154, 8107, 8202, 8182, 8175, 8154, 8147,5.196082353591919
112, 8153, 8140, 8153, 8121, 8164, 8160, 8150, 8167, 8102, 8199, 8176, 8174, 8152, 8144,5.196082353591919
113, 8149, 8129, 8118, 8112, 8153, 8162, 8170, 8165, 8105, 8196, 8165, 8144, 8146, 8139,5.211769342422485
114, 8140, 8125, 8144, 8092, 8141, 8149, 8153, 8165, 8089, 8153, 8143, 8136, 8118, 8113,5.227792501449585
115, 8121, 8125, 8110, 8098, 8142, 8145, 8139, 8171, 8087, 8135, 8143, 8140, 8107, 8095,5.227792501449585
116, 8122, 8130, 8121, 8102, 8150, 8158, 8148, 8171, 8104, 8148, 8156, 8141, 8121, 8099,5.243186712265015
117, 8120, 8132, 8140, 8088, 8151, 8166, 8150, 8177, 8108, 8151, 8152, 8136, 8125, 8098,5.243186712265015
118, 8120, 8132, 8113, 8097, 8145, 8163, 8143, 8157, 8094, 8146, 8159, 8130, 8115, 8084,5.2611167430877686
119, 8141, 8154, 8161, 8112, 8150, 8167, 8137, 8153, 8070, 8140, 8171, 8148, 8105, 8096,5.2611167430877686
120, 8154, 8167, 8146, 8122, 8159, 8159, 8135, 8161, 8063, 8140, 8167, 8145, 8105, 8107,5.2611167430877686
121, 8161, 8167, 8156, 8132, 8154, 8141, 8125, 8155, 8061, 8126, 8164, 8148, 8104, 8107,5.274167537689209
122, 8183, 8187, 8202, 8154, 8156, 8157, 8131, 8168, 8070, 8128, 8181, 8179, 8115, 8134,5.289158344268799
123, 8192, 8199, 8180, 8183, 8166, 8174, 8140, 8160, 8088, 8158, 8196, 8181, 8132, 8151,5.289158344268799
124, 8179, 8188, 8187, 8178, 8158, 8171, 8120, 8156, 8078, 8157, 8179, 8167, 8120, 8141,5.305245399475098
125, 8168, 8176, 8159, 8170, 8151, 8168, 8116, 8169, 8077, 8154, 8170, 8158, 8122, 8137,5.305245399475098
126, 8171, 8171, 8172, 8173, 8153, 8170, 8127, 8158, 8092, 8165, 8177, 8169, 8140, 8149,5.3207688331604
127, 8166, 8163, 8194, 8163, 8149, 8186, 8144, 8161, 8109, 8163, 8169, 8169, 8130, 8154,5.3207688331604
236, 8144, 8142, 8138, 8148, 8146, 8188, 8175, 8164, 8125, 8162, 8152, 8134, 8114, 8132,5.336790561676025
0, 8136, 8138, 8155, 8125, 8145, 8167, 8184, 8172, 8139, 8166, 8138, 8136, 8121, 8122,5.336790561676025
1, 8142, 8142, 8139, 8112, 8141, 8159, 8174, 8185, 8170, 8167, 8144, 8149, 8132, 8127,5.35274863243103
2, 8144, 8142, 8135, 8111, 8137, 8155, 8157, 8170, 8174, 8150, 8158, 8143, 8122, 8115,5.35274863243103
3, 8151, 8154, 8170, 8116, 8141, 8149, 8142, 8171, 8138, 8132, 8157, 8147, 8112, 8107,5.367771148681641
4, 8163, 8163, 8143, 8132, 8144, 8146, 8142, 8167, 8124, 8135, 8162, 8157, 8121, 8116,5.367771148681641
5, 8181, 8176, 8188, 8145, 8148, 8151, 8140, 8161, 8113, 8127, 8173, 8179, 8124, 8132,5.382760286331177
6, 8186, 8185, 8197, 8171, 8163, 8162, 8149, 8169, 8104, 8129, 8174, 8176, 8116, 8143,5.382760286331177
7, 8177, 8167, 8178, 8183, 8167, 8170, 8163, 8161, 8113, 8149, 8159, 8157, 8109, 8144,5.39812159538269
8, 8177, 8159, 8193, 8167, 8156, 8186, 8168, 8174, 8134, 8172, 8146, 8158, 8111, 8152,5.39812159538269
9, 8176, 8158, 8157, 8165, 8153, 8184, 8173, 8175, 8159, 8196, 8150, 8158, 8126, 8156,5.413607358932495
10, 8183, 8154, 8190, 8161, 8154, 8166, 8154, 8168, 8163, 8192, 8167, 8181, 8139, 8167,5.413607358932495
11, 8200, 8165, 8189, 8160, 8161, 8159, 8141, 8177, 8157, 8190, 8189, 8207, 8155, 8184,5.4292662143707275
12, 8197, 8176, 8158, 8153, 8161, 8150, 8143, 8162, 8137, 8182, 8189, 8199, 8156, 8160,5.4292662143707275
13, 8181, 8176, 8184, 8132, 8153, 8153, 8136, 8166, 8115, 8144, 8172, 8183, 8121, 8126,5.44485068321228
14, 8173, 8178, 8155, 8154, 8157, 8168, 8151, 8176, 8132, 8147, 8177, 8168, 8105, 8123,5.44485068321228
15, 8167, 8181, 8176, 8178, 8169, 8177, 8169, 8172, 8142, 8169, 8167, 8158, 8105, 8131,5.460116863250732
16, 8142, 8166, 8165, 8169, 8170, 8188, 8177, 8176, 8136, 8170, 8137, 8135, 8092, 8119,5.460116863250732
17, 8131, 8139, 8129, 8160, 8158, 8193, 8178, 8163, 8135, 8169, 8133, 8118, 8087, 8101,5.476080656051636
18, 8143, 8146, 8177, 8152, 8154, 8194, 8186, 8168, 8131, 8172, 8141, 8141, 8099, 8121,5.476080656051636
19, 8152, 8160, 8157, 8156, 8168, 8188, 8200, 8166, 8141, 8195, 8155, 8152, 8127, 8144,5.4917473793029785
20, 8166, 8157, 8171, 8151, 8166, 8167, 8173, 8152, 8132, 8183, 8157, 8165, 8130, 8141,5.4917473793029785
21, 8175, 8162, 8181, 8146, 8152, 8154, 8140, 8164, 8115, 8144, 8153, 8181, 8117, 8133,5.506880521774292
22, 8177, 8173, 8158, 8151, 8157, 8153, 8134, 8165, 8125, 8138, 8172, 8183, 8125, 8132,5.506880521774292
23, 8184, 8185, 8198, 8150, 8166, 8156, 8124, 8171, 8134, 8149, 8184, 8198, 8136, 8140,5.522095441818237
24, 8184, 8191, 8175, 8171, 8170, 8157, 8123, 8166, 8149, 8171, 8189, 8195, 8146, 8139,5.522095441818237
25, 8185, 8194, 8193, 8184, 8174, 8154, 8124, 8158, 8166, 8188, 8202, 8195, 8155, 8144,5.53816556930542
26, 8189, 8192, 8205, 8180, 8177, 8163, 8129, 8178, 8170, 8193, 8210, 8204, 8154, 8154,5.53816556930542
27, 8181, 8178, 8163, 8184, 8180, 8169, 8151, 8168, 8167, 8189, 8192, 8185, 8132, 8142,5.5537943840026855
28, 8164, 8176, 8196, 8185, 8175, 8181, 8163, 8161, 8143, 8166, 8161, 8162, 8105, 8130,5.5537943840026855
29, 8159, 8181, 8176, 8195, 8178, 8200, 8179, 8175, 8148, 8172, 8160, 8146, 8118, 8136,5.569291591644287
30, 8166, 8169, 8175, 8187, 8180, 8196, 8191, 8173, 8174, 8197, 8166, 8151, 8130, 8141,5.569291591644287
31, 8168, 8156, 8184, 8168, 8166, 8185, 8181, 8177, 8173, 8190, 8150, 8155, 8113, 8142,5.58446478843689
32, 8164, 8151, 8148, 8170, 8156, 8174, 8171, 8169, 8167, 8174, 8146, 8149, 8108, 8141,5.58446478843689
33, 8167, 8152, 8181, 8153, 8150, 8167, 8160, 8167, 8171, 8174, 8157, 8165, 8118, 8144,5.600142955780029
34, 8168, 8147, 8159, 8135, 8145, 8170, 8155, 8170, 8186, 8191, 8165, 8170, 8131, 8151,5.600142955780029
35, 8173, 8155, 8165, 8139, 8145, 8167, 8145, 8158, 8186, 8192, 8169, 8177, 8141, 8156,5.6157591342926025
36, 8192, 8181, 8206, 8158, 8152, 8160, 8137, 8164, 8178, 8183, 8175, 8198, 8148, 8164,5.6157591342926025
37, 8205, 8191, 8183, 8178, 8159, 8154, 8133, 8156, 8167, 8181, 8190, 8206, 8162, 8163,5.631959438323975
38, 8210, 8190, 8213, 8174, 8164, 8158, 8123, 8161, 8152, 8168, 8199, 8221, 8166, 8168,5.631959438323975
39, 8203, 8191, 8189, 8170, 8172, 8154, 8131, 8175, 8168, 8172, 8208, 8218, 8160, 8170,5.647060871124268
40, 8189, 8186, 8171, 8169, 8171, 8141, 8133, 8157, 8164, 8171, 8203, 8197, 8143, 8151,5.647060871124268
41, 8181, 8192, 8201, 8170, 8164, 8155, 8130, 8165, 8139, 8154, 8184, 8191, 8128, 8137,5.663062572479248
42, 8175, 8187, 8167, 8182, 8165, 8171, 8154, 8174, 8159, 8161, 8185, 8184, 8131, 8135,5.663062572479248
43, 8176, 8188, 8195, 8194, 8168, 8173, 8166, 8173, 8168, 8161, 8188, 8188, 8133, 8142,5.678849458694458
44, 8180, 8204, 8190, 8219, 8175, 8182, 8167, 8179, 8154, 8163, 8194, 8195, 8141, 8154,5.678849458694458
45, 8191, 8199, 8186, 8228, 8176, 8183, 8177, 8169, 8157, 8181, 8203, 8204, 8162, 8167,5.694145202636719
46, 8205, 8186, 8221, 8217, 8165, 8184, 8181, 8177, 8166, 8184, 8209, 8221, 8175, 8184,5.70975399017334
47, 8204, 8185, 8185, 8242, 8157, 8183, 8179, 8175, 8172, 8186, 8219, 8223, 8178, 8186,5.70975399017334
48, 8203, 8186, 8208, 8256, 8148, 8169, 8163, 8164, 8164, 8175, 8209, 8231, 8164, 8178,5.710176944732666
49, 8200, 8174, 8201, 8234, 8133, 8158, 8156, 8167, 8158, 8167, 8202, 8234, 8159, 8181,5.725752592086792
50, 8196, 8162, 8178, 8225, 8118, 8150, 8150, 8156, 8152, 8165, 8208, 8229, 8159, 8181,5.725752592086792
51, 8203, 8178, 8220, 8250, 8123, 8155, 8142, 8163, 8148, 8155, 8208, 8247, 8151, 8180,5.74206018447876
52, 8220, 8203, 8211, 8285, 8140, 8164, 8153, 8165, 8169, 8167, 8230, 8265, 8173, 8184,5.74206018447876
53, 8242, 8217, 8247, 8291, 8137, 8155, 8151, 8157, 8175, 8170, 8260, 8287, 8200, 8193,5.757030487060547
54, 8247, 8218, 8246, 8289, 8133, 8144, 8140, 8166, 8164, 8155, 8256, 8292, 8191, 8192,5.757030487060547
55, 8235, 8207, 8215, 8289, 8129, 8131, 8129, 8156, 8153, 8141, 8244, 8277, 8174, 8171,5.772634744644165
56, 8240, 8213, 8253, 8283, 8119, 8129, 8121, 8161, 8141, 8137, 8256, 8294, 8179, 8174,5.789232015609741
57, 8251, 8226, 8230, 8300, 8124, 8139, 8133, 8166, 8146, 8140, 8273, 8307, 8193, 8194,5.789232015609741
58, 8247, 8221, 8238, 8299, 8132, 8143, 8129, 8154, 8143, 8125, 8263, 8302, 8178, 8188,5.789232015609741
59, 8239, 8215, 8240, 8286, 8133, 8151, 8126, 8165, 8131, 8123, 8248, 8289, 8163, 8171,5.805306911468506
60, 8245, 8226, 8227, 8303, 8148, 8159, 8146, 8163, 8135, 8141, 8256, 8282, 8172, 8168,5.805306911468506
61, 8252, 8247, 8270, 8320, 8167, 8165, 8156, 8166, 8138, 8141, 8254, 8284, 8170, 8183,5.821240663528442
62, 8234, 8232, 8220, 8312, 8165, 8164, 8152, 8163, 8133, 8133, 8218, 8242, 8144, 8171,5.821240663528442
63, 8206, 8200, 8206, 8278, 8152, 8166, 8149, 8149, 8112, 8111, 8172, 8208, 8120, 8139,5.836751222610474
64, 8201, 8195, 8220, 8264, 8160, 8184, 8163, 8168, 8124, 8115, 8170, 8215, 8130, 8147,5.836751222610474
65, 8212, 8191, 8189, 8271, 8168, 8185, 8179, 8167, 8169, 8161, 8188, 8215, 8148, 8168,5.851930141448975
66, 8206, 8176, 8205, 8242, 8155, 8178, 8173, 8166, 8185, 8190, 8173, 8203, 8143, 8166,5.851930141448975
67, 8177, 8161, 8162, 8212, 8153, 8184, 8182, 8173, 8196, 8201, 8165, 8176, 8151, 8153,5.867440223693848
68, 8169, 8153, 8158, 8195, 8159, 8185, 8189, 8164, 8200, 8190, 8175, 8168, 8160, 8155,5.867440223693848
69, 8176, 8158, 8180, 8184, 8159, 8185, 8184, 8174, 8198, 8181, 8179, 8177, 8155, 8168,5.882609605789185
70, 8179, 8155, 8145, 8172, 8161, 8175, 8179, 8175, 8219, 8197, 8189, 8176, 8166, 8170,5.882609605789185
71, 8184, 8148, 8172, 8152, 8154, 8158, 8166, 8176, 8236, 8201, 8198, 8190, 8180, 8179,5.898231267929077
72, 8187, 8156, 8158, 8158, 8153, 8150, 8169, 8172, 8230, 8194, 8205, 8196, 8181, 8178,5.898231267929077
73, 8193, 8173, 8166, 8157, 8161, 8146, 8164, 8149, 8198, 8168, 8204, 8189, 8169, 8144,5.914801359176636
74, 8190, 8188, 8187, 8141, 8163, 8151, 8148, 8156, 8169, 8142, 8194, 8171, 8152, 8123,5.914801359176636
75, 8175, 8182, 8146, 8157, 8172, 8159, 8156, 8158, 8174, 8156, 8189, 8140, 8145, 8122,5.929852247238159
76, 8172, 8165, 8172, 8172, 8176, 8170, 8159, 8160, 8172, 8164, 8171, 8131, 8134, 8126,5.929852247238159
77, 8166, 8154, 8150, 8165, 8172, 8184, 8169, 8170, 8175, 8160, 8146, 8127, 8129, 8136,5.945443868637085
78, 8166, 8148, 8137, 8149, 8173, 8188, 8184, 8167, 8197, 8176, 8133, 8133, 8137, 8148,5.945443868637085
79, 8176, 8147, 8167, 8136, 8171, 8190, 8194, 8178, 8209, 8191, 8128, 8151, 8138, 8155,5.961739778518677
80, 8162, 8136, 8132, 8134, 8162, 8181, 8200, 8172, 8209, 8192, 8129, 8137, 8135, 8145,5.961739778518677
81, 8146, 8137, 8160, 8123, 8152, 8177, 8194, 8171, 8195, 8186, 8121, 8126, 8136, 8133,5.977770566940308
82, 8146, 8140, 8141, 8116, 8152, 8178, 8197, 8180, 8207, 8193, 8120, 8120, 8144, 8121,5.977770566940308
83, 8140, 8122, 8116, 8109, 8153, 8169, 8194, 8163, 8223, 8196, 8129, 8108, 8144, 8111,5.991966724395752
84, 8136, 8123, 8147, 8093, 8152, 8176, 8187, 8167, 8211, 8176, 8123, 8111, 8130, 8113,5.991966724395752
85, 8145, 8136, 8115, 8097, 8155, 8178, 8193, 8168, 8210, 8167, 8113, 8112, 8126, 8112,6.008049249649048
86, 8161, 8141, 8148, 8098, 8152, 8160, 8179, 8158, 8202, 8150, 8113, 8122, 8129, 8114,6.023226976394653
87, 8157, 8140, 8148, 8090, 8149, 8156, 8164, 8164, 8191, 8139, 8126, 8121, 8131, 8116,6.023226976394653
88, 8142, 8130, 8119, 8075, 8149, 8154, 8164, 8155, 8181, 8135, 8122, 8112, 8123, 8096,6.043154001235962
89, 8143, 8135, 8151, 8069, 8152, 8153, 8171, 8171, 8181, 8132, 8118, 8122, 8122, 8094,6.044155120849609
90, 8156, 8146, 8131, 8092, 8153, 8155, 8178, 8179, 8202, 8156, 8146, 8130, 8141, 8108,6.044155120849609
91, 8164, 8153, 8161, 8096, 8148, 8154, 8169, 8167, 8197, 8160, 8160, 8142, 8143, 8110,6.054220676422119
92, 8156, 8153, 8156, 8100, 8159, 8154, 8163, 8176, 8195, 8154, 8156, 8148, 8145, 8112,6.069870948791504
93, 8152, 8148, 8133, 8117, 8170, 8149, 8162, 8169, 8210, 8169, 8157, 8146, 8157, 8115,6.069870948791504
94, 8154, 8148, 8171, 8102, 8154, 8142, 8151, 8169, 8200, 8165, 8143, 8144, 8139, 8110,6.085777759552002
95, 8143, 8146, 8135, 8096, 8144, 8150, 8160, 8166, 8190, 8158, 8136, 8121, 8125, 8099,6.085777759552002
96, 8142, 8156, 8159, 8118, 8164, 8173, 8179, 8164, 8197, 8165, 8153, 8129, 8141, 8108,6.100781440734863
97, 8148, 8165, 8171, 8133, 8176, 8182, 8187, 8179, 8201, 8172, 8157, 8139, 8147, 8116,6.100781440734863
98, 8129, 8138, 8121, 8118, 8158, 8169, 8184, 8157, 8187, 8162, 8124, 8099, 8127, 8086,6.1159069538116455
99, 8112, 8119, 8151, 8098, 8145, 8173, 8182, 8155, 8176, 8152, 8093, 8090, 8122, 8080,6.1159069538116455
100, 8127, 8137, 8145, 8119, 8156, 8185, 8202, 8174, 8199, 8174, 8111, 8115, 8149, 8115,6.13197922706604
101, 8153, 8150, 8171, 8134, 8161, 8178, 8209, 8169, 8212, 8188, 8135, 8135, 8160, 8133,6.13197922706604
102, 8158, 8134, 8174, 8108, 8153, 8174, 8204, 8175, 8207, 8184, 8129, 8140, 8155, 8135,6.147160768508911
103, 8151, 8123, 8127, 8084, 8151, 8159, 8186, 8168, 8213, 8176, 8119, 8131, 8156, 8127,6.147160768508911
104, 8152, 8142, 8167, 8091, 8144, 8144, 8152, 8164, 8201, 8152, 8116, 8141, 8154, 8115,6.162776708602905
105, 8153, 8152, 8148, 8113, 8141, 8136, 8142, 8161, 8188, 8144, 8134, 8145, 8160, 8105,6.162776708602905
106, 8153, 8145, 8150, 8097, 8143, 8128, 8130, 8151, 8175, 8139, 8141, 8145, 8152, 8100,6.178856372833252
107, 8150, 8158, 8167, 8090, 8145, 8136, 8119, 8161, 8162, 8124, 8131, 8146, 8135, 8102,6.178856372833252
108, 8144, 8166, 8137, 8121, 8148, 8140, 8129, 8157, 8161, 8124, 8133, 8138, 8128, 8093,6.194140911102295
109, 8138, 8168, 8166, 8121, 8143, 8135, 8128, 8159, 8149, 8119, 8129, 8134, 8114, 8082,6.194140911102295
110, 8121, 8166, 8138, 8119, 8144, 8149, 8135, 8165, 8152, 8123, 8114, 8113, 8105, 8079,6.210170745849609
111, 8121, 8161, 8137, 8143, 8151, 8171, 8151, 8158, 8163, 8139, 8108, 8104, 8112, 8085,6.2106773853302
112, 8135, 8170, 8161, 8159, 8160, 8184, 8159, 8171, 8167, 8157, 8121, 8115, 8125, 8102,6.225762128829956
113, 8128, 8166, 8124, 8154, 8159, 8174, 8165, 8165, 8185, 8166, 8132, 8104, 8132, 8101,6.225762128829956
114, 8118, 8149, 8154, 8133, 8147, 8166, 8164, 8162, 8189, 8160, 8120, 8102, 8128, 8102,6.2408013343811035
115, 8119, 8140, 8133, 8127, 8143, 8178, 8161, 8170, 8181, 8164, 8107, 8099, 8123, 8109,6.2408013343811035
116, 8120, 8127, 8123, 8107, 8132, 8173, 8154, 8153, 8174, 8157, 8095, 8086, 8114, 8097,6.256439924240112
117, 8125, 8125, 8151, 8086, 8121, 8160, 8160, 8165, 8184, 8150, 8085, 8090, 8113, 8096,6.256439924240112
118, 8129, 8126, 8110, 8097, 8124, 8163, 8183, 8171, 8206, 8167, 8101, 8097, 8127, 8106,6.271803855895996
119, 8130, 8123, 8131, 8084, 8121, 8164, 8179, 8163, 8203, 8160, 8106, 8107, 8128, 8109,6.271803855895996
120, 8131, 8126, 8125, 8074, 8122, 8151, 8163, 8170, 8204, 8153, 8102, 8103, 8130, 8113,6.287858009338379
121, 8143, 8139, 8124, 8086, 8128, 8138, 8151, 8163, 8209, 8157, 8117, 8113, 8143, 8120,6.287858009338379
122, 8155, 8151, 8155, 8084, 8129, 8143, 8139, 8163, 8193, 8138, 8125, 8133, 8140, 8122,6.303736925125122
123, 8151, 8151, 8115, 8088, 8124, 8142, 8138, 8155, 8183, 8136, 8124, 8118, 8135, 8106,6.303736925125122
124, 8155, 8158, 8150, 8095, 8120, 8141, 8125, 8157, 8180, 8146, 8132, 8124, 8136, 8099,6.319086074829102
125, 8158, 8167, 8155, 8094, 8134, 8154, 8119, 8172, 8186, 8149, 8149, 8141, 8146, 8109,6.319086074829102
126, 8149, 8159, 8131, 8090, 8146, 8146, 8121, 8156, 8181, 8145, 8157, 8137, 8149, 8103,6.33432936668396
127, 8140, 8156, 8166, 8097, 8139, 8137, 8122, 8159, 8162, 8134, 8146, 8133, 8130, 8093,6.33432936668396
236, 8136, 8159, 8137, 8125, 8137, 8148, 8135, 8161, 8159, 8135, 8137, 8121, 8113, 8090,6.35024619102478
0, 8137, 8160, 8151, 8125, 8142, 8157, 8134, 8155, 8161, 8136, 8136, 8119, 8111, 8093,6.35024619102478
1, 8140, 8164, 8156, 8117, 8142, 8160, 8139, 8167, 8169, 8141, 8139, 8119, 8123, 8096,6.365790843963623
2, 8149, 8168, 8153, 8135, 8144, 8162, 8151, 8161, 8170, 8144, 8141, 8118, 8126, 8100,6.365790843963623
3, 8157, 8175, 8192, 8145, 8149, 8172, 8142, 8161, 8152, 8135, 8137, 8134, 8117, 8118,6.381786584854126
4, 8154, 8169, 8152, 8146, 8152, 8171, 8141, 8158, 8150, 8142, 8130, 8125, 8126, 8119,6.381786584854126
5, 8154, 8157, 8167, 8144, 8146, 8159, 8142, 8151, 8151, 8152, 8114, 8112, 8133, 8111,6.39727258682251
6, 8150, 8150, 8167, 8133, 8130, 8161, 8144, 8167, 8158, 8154, 8101, 8108, 8131, 8118,6.39727258682251
7, 8130, 8127, 8117, 8100, 8119, 8157, 8152, 8159, 8168, 8143, 8094, 8095, 8125, 8105,6.412954807281494
8, 8116, 8114, 8134, 8073, 8115, 8151, 8149, 8156, 8157, 8125, 8078, 8084, 8112, 8085,6.412954807281494
9, 8113, 8116, 8110, 8090, 8117, 8159, 8146, 8164, 8161, 8133, 8083, 8076, 8113, 8089,6.42803168296814
10, 8115, 8118, 8134, 8098, 8117, 8163, 8144, 8162, 8170, 8138, 8094, 8089, 8120, 8098,6.42803168296814
11, 8118, 8127, 8141, 8086, 8117, 8155, 8134, 8174, 8166, 8137, 8095, 8104, 8122, 8098,6.443342685699463
12, 8120, 8138, 8107, 8088, 8119, 8137, 8108, 8161, 8174, 8149, 8105, 8108, 8135, 8100,6.443342685699463
13, 8125, 8149, 8155, 8094, 8125, 8139, 8095, 8159, 8174, 8143, 8112, 8127, 8142, 8109,6.4588963985443115
14, 8140, 8157, 8141, 8109, 8138, 8154, 8129, 8169, 8179, 8146, 8121, 8134, 8149, 8117,6.4588963985443115
15, 8168, 8168, 8156, 8118, 8140, 8149, 8148, 8163, 8186, 8153, 8142, 8150, 8166, 8129,6.474430322647095
16, 8176, 8181, 8180, 8120, 8136, 8142, 8141, 8168, 8182, 8149, 8148, 8166, 8174, 8137,6.474430322647095
17, 8159, 8168, 8133, 8116, 8133, 8143, 8150, 8153, 8174, 8156, 8131, 8142, 8161, 8121,6.48995304107666
18, 8148, 8154, 8151, 8094, 8126, 8150, 8143, 8158, 8161, 8148, 8106, 8124, 8140, 8111,6.48995304107666
19, 8142, 8149, 8124, 8093, 8131, 8155, 8127, 8172, 8168, 8135, 8104, 8114, 8140, 8105,6.505834102630615
20, 8137, 8146, 8127, 8094, 8139, 8148, 8115, 8158, 8164, 8123, 8105, 8117, 8139, 8093,6.505834102630615
21, 8126, 8153, 8146, 8088, 8139, 8148, 8112, 8165, 8147, 8115, 8098, 8126, 8127, 8090,6.521270275115967
22, 8121, 8155, 8108, 8103, 8142, 8153, 8126, 8163, 8151, 8118, 8107, 8116, 8122, 8081,6.521270275115967
23, 8140, 8164, 8154, 8105, 8147, 8159, 8131, 8155, 8146, 8108, 8106, 8120, 8116, 8080,6.536776065826416
24, 8146, 8174, 8150, 8105, 8151, 8168, 8139, 8156, 8144, 8111, 8095, 8113, 8112, 8083,6.552852630615234
25, 8137, 8167, 8144, 8120, 8151, 8177, 8159, 8160, 8158, 8131, 8098, 8100, 8113, 8086,6.552852630615234
26, 8145, 8164, 8171, 8137, 8154, 8202, 8190, 8179, 8177, 8156, 8103, 8110, 8120, 8108,6.552852630615234
27, 8143, 8154, 8134, 8133, 8160, 8205, 8198, 8164, 8194, 8181, 8104, 8110, 8131, 8118,6.5682244300842285
28, 8126, 8140, 8149, 8095, 8153, 8182, 8163, 8155, 8193, 8181, 8101, 8111, 8134, 8113,6.5682244300842285
29, 8122, 8140, 8131, 8088, 8149, 8175, 8151, 8176, 8198, 8178, 8113, 8113, 8147, 8119,6.584218978881836
30, 8137, 8145, 8131, 8105, 8149, 8166, 8154, 8165, 8202, 8168, 8128, 8126, 8157, 8125,6.584218978881836
31, 8151, 8160, 8169, 8102, 8143, 8154, 8143, 8167, 8196, 8143, 8129, 8145, 8151, 8122,6.600765943527222
32, 8154, 8169, 8135, 8106, 8147, 8155, 8147, 8174, 8201, 8149, 8137, 8144, 8155, 8113,6.600765943527222
33, 8148, 8167, 8165, 8106, 8147, 8166, 8147, 8167, 8178, 8144, 8128, 8141, 8138, 8101,6.6152918338775635
34, 8132, 8168, 8157, 8111, 8145, 8172, 8142, 8163, 8152, 8123, 8106, 8120, 8108, 8086,6.630996465682983
35, 8129, 8170, 8140, 8130, 8149, 8170, 8145, 8151, 8143, 8119, 8095, 8105, 8103, 8078,6.630996465682983
36, 8133, 8170, 8179, 8139, 8156, 8175, 8153, 8159, 8134, 8132, 8091, 8118, 8107, 8094,6.63199782371521
37, 8131, 8158, 8143, 8145, 8163, 8179, 8162, 8157, 8140, 8164, 8092, 8110, 8120, 8107,6.6470372676849365
38, 8136, 8138, 8151, 8127, 8154, 8174, 8157, 8157, 8154, 8171, 8101, 8108, 8137, 8108,6.6470372676849365
39, 8130, 8126, 8138, 8097, 8144, 8170, 8161, 8175, 8178, 8162, 8106, 8108, 8140, 8109,6.6631152629852295
40, 8122, 8130, 8119, 8098, 8147, 8162, 8168, 8161, 8185, 8154, 8087, 8095, 8129, 8104,6.679173707962036
41, 8143, 8150, 8169, 8120, 8147, 8168, 8162, 8163, 8176, 8150, 8083, 8106, 8128, 8108,6.679173707962036
42, 8163, 8157, 8144, 8134, 8150, 8171, 8166, 8168, 8194, 8164, 8114, 8121, 8146, 8113,6.679173707962036
43, 8170, 8163, 8164, 8129, 8151, 8155, 8157, 8156, 8192, 8152, 8122, 8141, 8154, 8119,6.694068908691406
44, 8180, 8181, 8184, 8148, 8156, 8142, 8142, 8164, 8173, 8142, 8133, 8166, 8163, 8128,6.708916664123535
45, 8185, 8182, 8163, 8169, 8161, 8136, 8128, 8160, 8166, 8149, 8155, 8168, 8167, 8119,6.708916664123535
46, 8179, 8181, 8188, 8153, 8163, 8143, 8112, 8160, 8149, 8128, 8136, 8165, 8148, 8115,6.72502064704895
47, 8176, 8190, 8155, 8158, 8166, 8145, 8124, 8161, 8145, 8121, 8130, 8166, 8147, 8121,6.72502064704895
48, 8182, 8192, 8169, 8165, 8165, 8136, 8129, 8160, 8147, 8122, 8155, 8175, 8150, 8117,6.72502064704895
49, 8179, 8189, 8171, 8157, 8168, 8150, 8129, 8175, 8155, 8118, 8153, 8163, 8140, 8112,6.740156412124634
50, 8170, 8190, 8140, 8177, 8173, 8167, 8150, 8165, 8174, 8135, 8140, 8143, 8139, 8112,6.756054878234863
51, 8166, 8199, 8186, 8196, 8177, 8173, 8162, 8168, 8172, 8149, 8143, 8154, 8144, 8118,6.756054878234863
52, 8154, 8189, 8152, 8187, 8170, 8176, 8165, 8169, 8163, 8153, 8150, 8149, 8152, 8121,6.771079063415527
53, 8148, 8166, 8145, 8171, 8154, 8163, 8153, 8153, 8149, 8139, 8131, 8131, 8137, 8112,6.771079063415527
54, 8148, 8164, 8163, 8174, 8153, 8155, 8143, 8167, 8129, 8130, 8104, 8122, 8116, 8108,6.786276578903198
55, 8146, 8161, 8134, 8171, 8158, 8158, 8155, 8161, 8137, 8146, 8116, 8124, 8132, 8121,6.786276578903198
56, 8159, 8164, 8179, 8169, 8156, 8172, 8166, 8163, 8164, 8163, 8140, 8154, 8163, 8149,6.802361726760864
57, 8173, 8170, 8164, 8202, 8166, 8176, 8167, 8179, 8197, 8179, 8147, 8155, 8166, 8150,6.802361726760864
58, 8179, 8168, 8162, 8198, 8172, 8159, 8154, 8168, 8208, 8180, 8151, 8153, 8163, 8138,6.817880392074585
59, 8187, 8174, 8191, 8179, 8164, 8159, 8150, 8168, 8204, 8186, 8174, 8184, 8183, 8157,6.817880392074585
60, 8186, 8176, 8167, 8197, 8162, 8165, 8159, 8161, 8201, 8201, 8186, 8193, 8194, 8161,6.8339526653289795
61, 8178, 8168, 8192, 8184, 8151, 8155, 8146, 8160, 8185, 8179, 8164, 8185, 8177, 8144,6.8339526653289795
62, 8175, 8165, 8166, 8163, 8140, 8142, 8135, 8171, 8181, 8154, 8154, 8178, 8173, 8140,6.849175691604614
63, 8189, 8173, 8167, 8177, 8156, 8145, 8139, 8167, 8178, 8152, 8169, 8188, 8175, 8135,6.849175691604614
64, 8203, 8187, 8201, 8196, 8171, 8158, 8146, 8174, 8167, 8156, 8186, 8205, 8175, 8132,6.86474609375
65, 8203, 8192, 8169, 8202, 8167, 8150, 8147, 8169, 8169, 8160, 8204, 8204, 8192, 8138,6.86474609375
66, 8209, 8197, 8198, 8199, 8163, 8144, 8133, 8164, 8159, 8151, 8202, 8215, 8193, 8141,6.880338191986084
67, 8213, 8204, 8191, 8215, 8173, 8152, 8134, 8166, 8148, 8153, 8199, 8216, 8187, 8138,6.880338191986084
68, 8203, 8208, 8188, 8232, 8175, 8146, 8136, 8153, 8142, 8158, 8204, 8205, 8186, 8138,6.895984649658203
69, 8199, 8215, 8219, 8239, 8173, 8151, 8143, 8168, 8140, 8148, 8196, 8209, 8178, 8152,6.895984649658203
70, 8202, 8206, 8184, 8251, 8186, 8171, 8170, 8171, 8150, 8156, 8186, 8199, 8180, 8155,6.911126375198364
71, 8202, 8201, 8210, 8241, 8184, 8183, 8183, 8163, 8155, 8177, 8175, 8191, 8186, 8159,6.911126375198364
72, 8206, 8207, 8203, 8239, 8175, 8185, 8200, 8177, 8175, 8199, 8175, 8190, 8197, 8178,6.927166700363159
73, 8215, 8196, 8183, 8241, 8173, 8167, 8204, 8167, 8187, 8196, 8189, 8201, 8211, 8182,6.927166700363159
74, 8216, 8192, 8217, 8225, 8171, 8155, 8173, 8166, 8173, 8170, 8204, 8229, 8221, 8182,6.942789554595947
75, 8222, 8201, 8187, 8223, 8178, 8153, 8154, 8171, 8184, 8174, 8212, 8230, 8228, 8184,6.942789554595947
76, 8236, 8204, 8205, 8221, 8177, 8147, 8144, 8169, 8187, 8178, 8199, 8224, 8218, 8175,6.959089040756226
77, 8219, 8201, 8191, 8216, 8170, 8143, 8136, 8168, 8164, 8157, 8175, 8205, 8195, 8149,6.959089040756226
78, 8194, 8197, 8164, 8212, 8172, 8137, 8135, 8152, 8138, 8128, 8169, 8182, 8175, 8126,6.974177598953247
79, 8199, 8212, 8204, 8210, 8178, 8147, 8143, 8163, 8126, 8120, 8184, 8196, 8175, 8134,6.974177598953247
80, 8202, 8222, 8170, 8228, 8181, 8161, 8153, 8166, 8134, 8139, 8194, 8201, 8186, 8140,6.9898576736450195
81, 8200, 8223, 8198, 8242, 8184, 8157, 8143, 8162, 8124, 8138, 8179, 8194, 8179, 8135,6.9898576736450195
82, 8195, 8222, 8211, 8254, 8191, 8158, 8145, 8176, 8122, 8147, 8177, 8188, 8178, 8141,7.005919694900513
83, 8185, 8211, 8178, 8260, 8190, 8168, 8162, 8162, 8140, 8168, 8190, 8184, 8189, 8144,7.005919694900513
84, 8182, 8207, 8215, 8248, 8184, 8178, 8157, 8158, 8133, 8159, 8178, 8191, 8180, 8154,7.022032737731934
85, 8185, 8203, 8182, 8247, 8181, 8176, 8152, 8158, 8127, 8167, 8170, 8180, 8180, 8158,7.022032737731934
86, 8188, 8195, 8187, 8238, 8175, 8166, 8148, 8153, 8128, 8174, 8169, 8181, 8186, 8151,7.038106203079224
87, 8188, 8186, 8198, 8225, 8173, 8168, 8153, 8170, 8142, 8163, 8164, 8189, 8187, 8151,7.038106203079224
88, 8185, 8172, 8168, 8224, 8163, 8171, 8164, 8160, 8164, 8164, 8170, 8182, 8191, 8149,7.053683757781982
89, 8177, 8173, 8190, 8206, 8151, 8162, 8150, 8158, 8153, 8154, 8169, 8184, 8186, 8147,7.053683757781982
90, 8164, 8173, 8146, 8189, 8164, 8146, 8145, 8165, 8142, 8143, 8167, 8175, 8185, 8138,7.06926965713501
91, 8162, 8161, 8150, 8175, 8171, 8142, 8151, 8159, 8147, 8138, 8170, 8170, 8183, 8122,7.06926965713501
92, 8165, 8165, 8169, 8163, 8157, 8154, 8147, 8166, 8143, 8132, 8169, 8167, 8169, 8115,7.085243225097656
93, 8179, 8184, 8148, 8179, 8167, 8152, 8137, 8152, 8140, 8136, 8190, 8176, 8178, 8124,7.085243225097656
94, 8206, 8205, 8204, 8203, 8181, 8144, 8116, 8149, 8135, 8140, 8216, 8212, 8197, 8143,7.100780725479126
95, 8210, 8222, 8193, 8232, 8185, 8149, 8113, 8162, 8135, 8143, 8224, 8211, 8195, 8146,7.100780725479126
96, 8198, 8224, 8182, 8243, 8193, 8157, 8124, 8156, 8143, 8146, 8222, 8190, 8176, 8136,7.116859197616577
97, 8191, 8216, 8197, 8230, 8195, 8166, 8137, 8168, 8152, 8156, 8211, 8181, 8169, 8133,7.116859197616577
98, 8181, 8203, 8173, 8228, 8186, 8163, 8154, 8165, 8148, 8169, 8195, 8159, 8168, 8123,7.132758855819702
99, 8179, 8200, 8199, 8228, 8178, 8157, 8162, 8155, 8121, 8151, 8181, 8153, 8153, 8122,7.132758855819702
100, 8174, 8188, 8165, 8221, 8176, 8162, 8171, 8158, 8111, 8133, 8174, 8147, 8145, 8123,7.1489527225494385
101, 8167, 8169, 8159, 8209, 8166, 8166, 8170, 8153, 8109, 8135, 8161, 8142, 8149, 8119,7.1489527225494385
102, 8176, 8181, 8195, 8211, 8164, 8175, 8167, 8168, 8123, 8154, 8164, 8161, 8165, 8137,7.164482116699219
103, 8185, 8188, 8168, 8224, 8175, 8170, 8166, 8170, 8158, 8175, 8189, 8167, 8183, 8147,7.164482116699219
104, 8185, 8188, 8200, 8219, 8173, 8156, 8142, 8163, 8171, 8182, 8191, 8174, 8189, 8144,7.179834365844727
105, 8201, 8201, 8193, 8218, 8173, 8163, 8141, 8172, 8194, 8201, 8207, 8195, 8209, 8163,7.180253505706787
106, 8224, 8200, 8190, 8211, 8174, 8161, 8154, 8166, 8214, 8203, 8232, 8216, 8226, 8176,7.195784568786621
107, 8223, 8195, 8213, 8195, 8168, 8155, 8152, 8175, 8196, 8172, 8224, 8220, 8210, 8167,7.195784568786621
108, 8205, 8187, 8166, 8195, 8167, 8157, 8155, 8167, 8180, 8157, 8207, 8195, 8186, 8143,7.210742473602295
109, 8199, 8184, 8189, 8186, 8169, 8156, 8154, 8153, 8156, 8135, 8197, 8187, 8165, 8119,7.210742473602295
110, 8197, 8188, 8179, 8182, 8172, 8147, 8144, 8154, 8128, 8115, 8188, 8183, 8162, 8105,7.226242780685425
111, 8194, 8189, 8163, 8183, 8169, 8133, 8126, 8141, 8116, 8118, 8189, 8181, 8178, 8111,7.226242780685425
112, 8196, 8199, 8197, 8180, 8167, 8138, 8123, 8156, 8126, 8132, 8209, 8199, 8196, 8135,7.241923809051514
113, 8197, 8208, 8163, 8202, 8178, 8148, 8146, 8162, 8142, 8151, 8222, 8197, 8204, 8142,7.241923809051514
114, 8199, 8205, 8188, 8207, 8184, 8153, 8158, 8158, 8135, 8149, 8202, 8186, 8185, 8131,7.25802755355835
115, 8189, 8196, 8182, 8194, 8180, 8160, 8169, 8176, 8138, 8143, 8194, 8169, 8171, 8125,7.25802755355835
116, 8180, 8191, 8154, 8192, 8179, 8164, 8183, 8174, 8167, 8164, 8212, 8164, 8185, 8129,7.274353981018066
117, 8180, 8192, 8183, 8186, 8181, 8174, 8192, 8180, 8184, 8190, 8210, 8173, 8192, 8137,7.274353981018066
118, 8162, 8178, 8138, 8176, 8184, 8177, 8210, 8176, 8184, 8192, 8194, 8144, 8181, 8129,7.290343999862671
119, 8142, 8165, 8145, 8153, 8181, 8173, 8211, 8164, 8167, 8168, 8179, 8131, 8165, 8115,7.290343999862671
120, 8145, 8166, 8147, 8145, 8175, 8184, 8213, 8177, 8169, 8170, 8171, 8144, 8167, 8125,7.305735111236572
121, 8155, 8157, 8127, 8150, 8170, 8189, 8220, 8173, 8191, 8191, 8175, 8142, 8179, 8136,7.305735111236572
122, 8157, 8150, 8162, 8130, 8158, 8184, 8207, 8176, 8191, 8179, 8167, 8131, 8168, 8134,7.321150064468384
123, 8153, 8153, 8132, 8129, 8154, 8181, 8207, 8178, 8200, 8177, 8151, 8115, 8157, 8128,7.321150064468384
124, 8151, 8149, 8151, 8129, 8150, 8179, 8199, 8171, 8206, 8181, 8138, 8120, 8154, 8130,7.336660623550415
125, 8144, 8124, 8150, 8105, 8144, 8177, 8188, 8177, 8203, 8186, 8132, 8123, 8154, 8133,7.336660623550415
126, 8133, 8104, 8111, 8089, 8143, 8169, 8195, 8164, 8202, 8202, 8136, 8109, 8159, 8122,7.352096080780029
127, 8143, 8126, 8158, 8099, 8152, 8179, 8197, 8169, 8193, 8199, 8135, 8120, 8163, 8127,7.352096080780029
236, 8151, 8149, 8137, 8129, 8165, 8199, 8200, 8177, 8200, 8202, 8148, 8127, 8173, 8137,7.3675243854522705
0, 8151, 8142, 8140, 8124, 8163, 8198, 8198, 8172, 8203, 8202, 8161, 8124, 8165, 8133,7.3675243854522705
1, 8148, 8131, 8158, 8102, 8156, 8194, 8207, 8182, 8202, 8191, 8146, 8120, 8146, 8127,7.383117198944092
2, 8138, 8120, 8119, 8093, 8153, 8178, 8212, 8172, 8203, 8180, 8127, 8106, 8139, 8116,7.383117198944092
3, 8144, 8119, 8149, 8072, 8139, 8161, 8193, 8172, 8197, 8165, 8121, 8109, 8138, 8119,7.398169040679932
4, 8166, 8135, 8150, 8080, 8139, 8168, 8194, 8182, 8220, 8190, 8146, 8121, 8161, 8136,7.398169040679932
5, 8182, 8154, 8167, 8106, 8156, 8172, 8198, 8170, 8231, 8217, 8171, 8138, 8181, 8152,7.414235830307007
6, 8173, 8152, 8169, 8102, 8157, 8156, 8175, 8169, 8208, 8200, 8165, 8143, 8177, 8149,7.414235830307007
7, 8158, 8134, 8116, 8081, 8148, 8130, 8148, 8158, 8182, 8167, 8152, 8122, 8161, 8119,7.429899454116821
8, 8153, 8138, 8146, 8062, 8141, 8128, 8131, 8158, 8157, 8136, 8148, 8125, 8147, 8104,7.429899454116821
9, 8141, 8139, 8131, 8067, 8133, 8138, 8140, 8167, 8165, 8134, 8152, 8128, 8149, 8108,7.445404767990112
10, 8140, 8125, 8135, 8073, 8119, 8136, 8148, 8160, 8181, 8135, 8143, 8121, 8147, 8100,7.445404767990112
11, 8144, 8132, 8159, 8072, 8118, 8139, 8154, 8170, 8169, 8125, 8135, 8122, 8131, 8090,7.461532115936279
12, 8137, 8132, 8120, 8077, 8127, 8142, 8166, 8165, 8162, 8128, 8152, 8115, 8130, 8082,7.461532115936279
13, 8137, 8129, 8166, 8078, 8128, 8144, 8160, 8161, 8159, 8129, 8167, 8121, 8139, 8085,7.477305173873901
14, 8146, 8150, 8165, 8106, 8140, 8158, 8163, 8169, 8157, 8142, 8176, 8121, 8151, 8097,7.477305173873901
15, 8145, 8163, 8148, 8135, 8151, 8165, 8164, 8163, 8152, 8153, 8176, 8120, 8154, 8097,7.492886781692505
16, 8130, 8152, 8160, 8123, 8143, 8163, 8157, 8172, 8142, 8147, 8161, 8120, 8137, 8094,7.492886781692505
17, 8127, 8140, 8125, 8120, 8143, 8168, 8172, 8166, 8150, 8154, 8150, 8105, 8133, 8095,7.508859157562256
18, 8139, 8149, 8169, 8133, 8150, 8178, 8187, 8158, 8153, 8155, 8142, 8110, 8137, 8100,7.508859157562256
19, 8138, 8151, 8159, 8142, 8150, 8183, 8195, 8170, 8164, 8149, 8134, 8111, 8133, 8105,7.524449586868286
20, 8128, 8133, 8129, 8127, 8145, 8173, 8195, 8171, 8178, 8144, 8130, 8100, 8132, 8105,7.524449586868286
21, 8129, 8136, 8157, 8117, 8139, 8172, 8191, 8180, 8177, 8149, 8126, 8105, 8143, 8115,7.5399110317230225
22, 8136, 8143, 8130, 8129, 8139, 8174, 8191, 8171, 8182, 8177, 8132, 8103, 8155, 8122,7.5399110317230225
23, 8149, 8140, 8164, 8119, 8135, 8165, 8183, 8160, 8185, 8186, 8144, 8118, 8160, 8127,7.554991245269775
24, 8154, 8142, 8163, 8116, 8131, 8158, 8185, 8173, 8197, 8196, 8159, 8138, 8175, 8141,7.554991245269775
25, 8142, 8126, 8124, 8107, 8119, 8134, 8172, 8161, 8193, 8197, 8149, 8124, 8167, 8130,7.570599317550659
26, 8137, 8106, 8147, 8069, 8094, 8113, 8125, 8161, 8158, 8152, 8128, 8118, 8136, 8111,7.570599317550659
27, 8139, 8113, 8128, 8061, 8091, 8118, 8110, 8163, 8140, 8118, 8143, 8122, 8133, 8098,7.585796594619751
28, 8141, 8133, 8153, 8072, 8104, 8126, 8119, 8156, 8124, 8105, 8149, 8130, 8131, 8090,7.585796594619751
29, 8145, 8143, 8154, 8085, 8116, 8142, 8132, 8166, 8117, 8105, 8142, 8127, 8123, 8095,7.602118968963623
30, 8149, 8140, 8139, 8113, 8130, 8159, 8145, 8160, 8134, 8122, 8146, 8120, 8135, 8105,7.602118968963623
31, 8151, 8155, 8179, 8135, 8143, 8175, 8154, 8169, 8150, 8145, 8149, 8131, 8154, 8125,7.617162704467773
32, 8161, 8162, 8149, 8151, 8148, 8187, 8172, 8179, 8170, 8178, 8158, 8131, 8173, 8136,7.617162704467773
33, 8175, 8147, 8164, 8144, 8142, 8185, 8172, 8167, 8175, 8187, 8162, 8136, 8178, 8132,7.632778167724609
34, 8161, 8137, 8168, 8133, 8137, 8178, 8160, 8166, 8171, 8172, 8149, 8137, 8170, 8131,7.632778167724609
35, 8151, 8139, 8136, 8132, 8134, 8163, 8153, 8159, 8183, 8162, 8151, 8135, 8172, 8134,7.649303674697876
36, 8172, 8154, 8177, 8124, 8133, 8155, 8143, 8169, 8188, 8157, 8173, 8158, 8182, 8143,7.649303674697876
37, 8178, 8160, 8152, 8129, 8137, 8149, 8136, 8173, 8185, 8154, 8185, 8163, 8186, 8136,7.664215564727783
38, 8172, 8165, 8161, 8138, 8139, 8145, 8121, 8155, 8168, 8141, 8179, 8158, 8171, 8121,7.6792356967926025
39, 8182, 8186, 8193, 8155, 8159, 8165, 8129, 8168, 8160, 8147, 8181, 8160, 8156, 8132,7.679777145385742
40, 8181, 8182, 8171, 8177, 8178, 8176, 8161, 8169, 8168, 8170, 8185, 8153, 8159, 8138,7.679777145385742
41, 8166, 8162, 8191, 8170, 8162, 8180, 8164, 8168, 8162, 8164, 8166, 8147, 8162, 8134,7.69528865814209
42, 8164, 8159, 8159, 8162, 8152, 8183, 8164, 8171, 8176, 8172, 8161, 8136, 8179, 8145,7.69528865814209
43, 8175, 8165, 8170, 8160, 8160, 8173, 8169, 8162, 8200, 8196, 8173, 8152, 8202, 8156,7.709990501403809
44, 8175, 8156, 8190, 8150, 8158, 8166, 8168, 8171, 8205, 8187, 8175, 8171, 8199, 8148,7.7265849113464355
45, 8168, 8148, 8142, 8142, 8145, 8156, 8151, 8159, 8189, 8159, 8179, 8157, 8194, 8120,7.7265849113464355
46, 8176, 8174, 8172, 8143, 8146, 8148, 8128, 8156, 8153, 8135, 8182, 8166, 8194, 8113,7.7265849113464355
47, 8174, 8190, 8163, 8176, 8167, 8159, 8139, 8167, 8142, 8139, 8182, 8171, 8199, 8120,7.740749359130859
48, 8169, 8179, 8169, 8199, 8177, 8173, 8156, 8159, 8146, 8149, 8179, 8163, 8194, 8117,7.756394386291504
49, 8168, 8179, 8189, 8194, 8174, 8192, 8160, 8168, 8151, 8159, 8170, 8160, 8187, 8125,7.756394386291504
50, 8158, 8169, 8143, 8188, 8172, 8200, 8168, 8163, 8166, 8181, 8161, 8149, 8195, 8136,7.77182412147522
51, 8160, 8152, 8171, 8168, 8166, 8192, 8171, 8159, 8173, 8186, 8158, 8156, 8197, 8148,7.77182412147522
52, 8171, 8150, 8156, 8159, 8159, 8182, 8180, 8171, 8194, 8193, 8171, 8164, 8206, 8162,7.787209510803223
53, 8179, 8152, 8145, 8153, 8149, 8168, 8174, 8169, 8215, 8203, 8182, 8174, 8227, 8165,7.787209510803223
54, 8183, 8158, 8176, 8133, 8143, 8156, 8150, 8175, 8204, 8191, 8186, 8197, 8236, 8167,7.8032591342926025
55, 8194, 8161, 8147, 8139, 8149, 8140, 8145, 8162, 8187, 8169, 8197, 8197, 8224, 8157,7.8032591342926025
56, 8208, 8171, 8180, 8152, 8151, 8139, 8145, 8157, 8171, 8146, 8189, 8193, 8206, 8148,7.819263458251953
57, 8195, 8176, 8170, 8152, 8145, 8146, 8139, 8168, 8162, 8147, 8176, 8192, 8211, 8144,7.819263458251953
58, 8176, 8162, 8144, 8147, 8143, 8135, 8126, 8150, 8150, 8149, 8176, 8194, 8210, 8135,7.8348424434661865
59, 8178, 8163, 8174, 8150, 8155, 8143, 8126, 8157, 8139, 8138, 8177, 8193, 8188, 8133,7.8348424434661865
60, 8180, 8179, 8154, 8171, 8171, 8164, 8155, 8168, 8158, 8149, 8178, 8175, 8182, 8132,7.850937604904175
61, 8180, 8187, 8185, 8184, 8175, 8170, 8168, 8163, 8170, 8160, 8176, 8172, 8180, 8136,7.850937604904175
62, 8183, 8184, 8179, 8192, 8173, 8175, 8165, 8169, 8164, 8164, 8173, 8172, 8177, 8145,7.8670549392700195
63, 8177, 8175, 8156, 8193, 8173, 8176, 8163, 8161, 8153, 8166, 8173, 8168, 8171, 8143,7.8670549392700195
64, 8169, 8170, 8182, 8182, 8175, 8180, 8166, 8170, 8156, 8164, 8169, 8175, 8159, 8144,7.882201910018921
65, 8167, 8162, 8145, 8186, 8182, 8188, 8182, 8173, 8183, 8188, 8167, 8164, 8161, 8145,7.882201910018921
66, 8168, 8154, 8166, 8176, 8177, 8186, 8178, 8163, 8180, 8199, 8160, 8165, 8165, 8147,7.897354364395142
67, 8170, 8154, 8162, 8170, 8168, 8185, 8175, 8172, 8173, 8196, 8156, 8170, 8164, 8154,7.897354364395142
68, 8178, 8153, 8139, 8179, 8174, 8187, 8189, 8168, 8201, 8208, 8163, 8161, 8169, 8161,7.913411378860474
69, 8191, 8160, 8186, 8169, 8177, 8185, 8188, 8176, 8221, 8218, 8176, 8183, 8178, 8175,7.913411378860474
70, 8198, 8167, 8161, 8170, 8179, 8176, 8185, 8179, 8223, 8217, 8203, 8210, 8196, 8174,7.929068326950073
71, 8207, 8181, 8183, 8180, 8182, 8174, 8178, 8168, 8207, 8201, 8222, 8220, 8204, 8164,7.929068326950073
72, 8211, 8196, 8200, 8184, 8185, 8184, 8174, 8177, 8197, 8203, 8219, 8212, 8195, 8158,7.9439616203308105
73, 8200, 8185, 8161, 8182, 8184, 8175, 8170, 8167, 8193, 8207, 8215, 8209, 8187, 8149,7.9439616203308105
74, 8191, 8179, 8182, 8172, 8177, 8161, 8160, 8168, 8173, 8182, 8212, 8217, 8179, 8145,7.9593682289123535
75, 8182, 8176, 8164, 8182, 8174, 8162, 8166, 8172, 8173, 8184, 8209, 8193, 8173, 8139,7.9593682289123535
76, 8176, 8171, 8182, 8192, 8178, 8170, 8177, 8159, 8177, 8199, 8195, 8181, 8160, 8135,7.974383592605591
77, 8178, 8180, 8185, 8200, 8186, 8186, 8185, 8168, 8178, 8202, 8198, 8198, 8160, 8148,7.974383592605591
78, 8178, 8174, 8155, 8206, 8183, 8185, 8183, 8166, 8181, 8205, 8208, 8194, 8170, 8149,7.990045070648193
79, 8176, 8164, 8201, 8194, 8177, 8176, 8171, 8172, 8174, 8195, 8175, 8180, 8152, 8143,7.990045070648193
80, 8172, 8169, 8169, 8204, 8186, 8189, 8192, 8180, 8192, 8203, 8166, 8170, 8145, 8150,8.005766153335571
81, 8174, 8171, 8162, 8211, 8190, 8204, 8210, 8167, 8206, 8226, 8196, 8176, 8165, 8154,8.005766153335571
82, 8172, 8169, 8184, 8199, 8183, 8200, 8197, 8172, 8202, 8238, 8198, 8183, 8180, 8156,8.020904779434204
83, 8165, 8160, 8146, 8189, 8169, 8174, 8182, 8165, 8204, 8238, 8186, 8177, 8180, 8156,8.020904779434204
84, 8165, 8149, 8170, 8168, 8154, 8156, 8162, 8163, 8194, 8218, 8180, 8183, 8171, 8155,8.036994457244873
85, 8166, 8152, 8151, 8160, 8161, 8165, 8165, 8172, 8204, 8218, 8179, 8183, 8176, 8153,8.036994457244873
86, 8176, 8162, 8161, 8162, 8174, 8169, 8182, 8168, 8226, 8223, 8187, 8191, 8182, 8158,8.060112953186035
87, 8184, 8167, 8190, 8164, 8170, 8164, 8184, 8172, 8222, 8213, 8190, 8203, 8180, 8160,8.060518503189087
88, 8180, 8165, 8149, 8172, 8169, 8154, 8180, 8163, 8209, 8205, 8188, 8189, 8180, 8140,8.060518503189087
89, 8187, 8177, 8184, 8169, 8175, 8157, 8175, 8168, 8206, 8190, 8196, 8202, 8179, 8136,8.06919813156128
90, 8196, 8186, 8169, 8174, 8179, 8159, 8174, 8177, 8214, 8187, 8206, 8208, 8176, 8142,8.085166454315186
91, 8194, 8181, 8156, 8176, 8175, 8142, 8162, 8157, 8207, 8178, 8200, 8186, 8160, 8126,8.085166454315186
92, 8188, 8188, 8187, 8169, 8173, 8151, 8158, 8167, 8191, 8163, 8188, 8184, 8146, 8120,8.101183891296387
93, 8184, 8188, 8157, 8182, 8181, 8165, 8179, 8169, 8183, 8167, 8196, 8185, 8157, 8121,8.101183891296387
94, 8182, 8181, 8185, 8178, 8176, 8157, 8175, 8162, 8171, 8161, 8196, 8186, 8158, 8119,8.116894483566284
95, 8173, 8177, 8171, 8171, 8167, 8159, 8165, 8172, 8185, 8159, 8183, 8173, 8144, 8123,8.116894483566284
96, 8172, 8179, 8164, 8180, 8175, 8178, 8183, 8171, 8208, 8179, 8178, 8166, 8147, 8126,8.132823467254639
97, 8181, 8185, 8200, 8190, 8186, 8193, 8204, 8182, 8204, 8190, 8170, 8175, 8154, 8138,8.132823467254639
98, 8179, 8175, 8163, 8207, 8187, 8179, 8208, 8174, 8198, 8189, 8167, 8169, 8153, 8148,8.14898133277893
99, 8178, 8172, 8195, 8216, 8179, 8174, 8201, 8165, 8207, 8191, 8180, 8186, 8162, 8158,8.14898133277893
100, 8181, 8178, 8196, 8211, 8176, 8185, 8211, 8180, 8227, 8210, 8196, 8201, 8177, 8171,8.164154052734375
101, 8189, 8162, 8170, 8203, 8176, 8174, 8205, 8164, 8229, 8206, 8188, 8196, 8171, 8168,8.164154052734375
102, 8206, 8161, 8210, 8206, 8173, 8167, 8177, 8165, 8213, 8187, 8190, 8221, 8168, 8169,8.17987060546875
103, 8220, 8175, 8196, 8221, 8170, 8170, 8182, 8171, 8217, 8205, 8225, 8250, 8203, 8181,8.17987060546875
104, 8229, 8175, 8223, 8216, 8162, 8158, 8181, 8162, 8212, 8202, 8240, 8264, 8216, 8185,8.194971799850464
105, 8229, 8179, 8222, 8230, 8164, 8151, 8172, 8171, 8210, 8184, 8247, 8268, 8208, 8179,8.194971799850464
106, 8234, 8198, 8206, 8261, 8170, 8146, 8178, 8167, 8224, 8193, 8270, 8283, 8218, 8174,8.210326194763184
107, 8244, 8215, 8253, 8258, 8167, 8137, 8172, 8168, 8208, 8186, 8274, 8303, 8219, 8183,8.210326194763184
108, 8251, 8214, 8236, 8266, 8169, 8137, 8164, 8173, 8205, 8185, 8279, 8306, 8221, 8190,8.226141452789307
109, 8262, 8222, 8258, 8302, 8168, 8144, 8158, 8172, 8207, 8189, 8286, 8321, 8229, 8192,8.226141452789307
110, 8265, 8245, 8264, 8330, 8172, 8156, 8164, 8179, 8187, 8177, 8273, 8318, 8221, 8196,8.240954637527466
111, 8253, 8237, 8234, 8332, 8197, 8168, 8179, 8169, 8180, 8177, 8266, 8295, 8209, 8191,8.240954637527466
112, 8248, 8223, 8265, 8320, 8199, 8176, 8187, 8173, 8177, 8187, 8262, 8299, 8203, 8183,8.256940603256226
113, 8242, 8226, 8228, 8328, 8174, 8173, 8192, 8170, 8173, 8186, 8250, 8291, 8205, 8183,8.256940603256226
114, 8240, 8226, 8237, 8324, 8170, 8173, 8186, 8160, 8171, 8178, 8242, 8281, 8206, 8193,8.27231740951538
115, 8248, 8217, 8249, 8318, 8185, 8183, 8193, 8180, 8181, 8193, 8245, 8281, 8210, 8203,8.27231740951538
116, 8247, 8207, 8208, 8328, 8187, 8174, 8202, 8172, 8194, 8208, 8241, 8268, 8210, 8194,8.287818670272827
117, 8246, 8207, 8237, 8315, 8182, 8169, 8188, 8167, 8192, 8194, 8231, 8270, 8205, 8198,8.287818670272827
118, 8237, 8184, 8201, 8281, 8180, 8176, 8187, 8174, 8207, 8205, 8237, 8265, 8213, 8204,8.303876161575317
119, 8217, 8151, 8189, 8246, 8167, 8171, 8190, 8163, 8209, 8212, 8219, 8239, 8206, 8189,8.303876161575317
120, 8205, 8156, 8203, 8241, 8163, 8178, 8190, 8168, 8195, 8200, 8184, 8217, 8187, 8175,8.320098161697388
121, 8210, 8165, 8169, 8248, 8175, 8178, 8193, 8165, 8195, 8200, 8188, 8206, 8188, 8169,8.320098161697388
122, 8217, 8165, 8202, 8220, 8177, 8165, 8182, 8167, 8196, 8194, 8212, 8220, 8201, 8176,8.335387468338013
123, 8209, 8166, 8179, 8214, 8177, 8167, 8176, 8175, 8210, 8200, 8221, 8222, 8212, 8179,8.335387468338013
124, 8205, 8170, 8174, 8225, 8174, 8164, 8170, 8165, 8207, 8200, 8209, 8219, 8204, 8173,8.351002931594849
125, 8209, 8175, 8204, 8218, 8165, 8153, 8163, 8171, 8190, 8188, 8209, 8231, 8199, 8176,8.351002931594849
126, 8219, 8174, 8176, 8214, 8169, 8150, 8172, 8162, 8197, 8196, 8236, 8241, 8219, 8177,8.366635799407959
127, 8228, 8179, 8202, 8199, 8176, 8159, 8165, 8162, 8193, 8185, 8230, 8249, 8217, 8177,8.366635799407959
236, 8215, 8183, 8182, 8193, 8171, 8156, 8162, 8174, 8177, 8166, 8205, 8228, 8198, 8171,8.381889820098877
0, 8207, 8180, 8179, 8203, 8169, 8138, 8169, 8166, 8165, 8172, 8219, 8220, 8197, 8164,8.381889820098877
1, 8216, 8189, 8208, 8207, 8179, 8153, 8175, 8174, 8176, 8188, 8244, 8236, 8210, 8176,8.397917747497559
2, 8216, 8196, 8168, 8212, 8178, 8171, 8181, 8172, 8204, 8195, 8240, 8222, 8211, 8176,8.397917747497559
3, 8211, 8202, 8200, 8222, 8166, 8170, 8178, 8171, 8200, 8186, 8218, 8213, 8198, 8171,8.413295984268188
4, 8217, 8212, 8198, 8244, 8175, 8176, 8183, 8179, 8192, 8184, 8215, 8215, 8197, 8180,8.413295984268188
5, 8220, 8199, 8178, 8240, 8185, 8184, 8183, 8162, 8199, 8186, 8213, 8201, 8196, 8178,8.429298877716064
6, 8201, 8180, 8197, 8206, 8182, 8195, 8189, 8172, 8199, 8182, 8186, 8185, 8177, 8170,8.429298877716064
7, 8182, 8172, 8161, 8204, 8189, 8200, 8216, 8174, 8210, 8194, 8176, 8174, 8178, 8172,8.444496393203735
8, 8181, 8169, 8182, 8209, 8188, 8194, 8223, 8169, 8230, 8208, 8191, 8187, 8198, 8183,8.444496393203735
9, 8183, 8163, 8170, 8194, 8179, 8194, 8226, 8194, 8254, 8227, 8192, 8190, 8203, 8186,8.460701942443848
10, 8191, 8160, 8152, 8177, 8172, 8188, 8227, 8189, 8263, 8234, 8174, 8179, 8193, 8179,8.460701942443848
11, 8198, 8173, 8187, 8170, 8166, 8173, 8205, 8176, 8248, 8213, 8180, 8190, 8193, 8183,8.475788116455078
12, 8187, 8168, 8156, 8166, 8173, 8160, 8195, 8169, 8244, 8210, 8210, 8189, 8207, 8179,8.475788116455078
13, 8177, 8145, 8165, 8137, 8170, 8151, 8183, 8164, 8237, 8205, 8204, 8187, 8201, 8165,8.491793155670166
14, 8175, 8148, 8162, 8127, 8162, 8149, 8169, 8175, 8235, 8194, 8189, 8189, 8196, 8164,8.491793155670166
15, 8179, 8168, 8154, 8147, 8175, 8149, 8176, 8173, 8251, 8205, 8213, 8195, 8213, 8170,8.507225275039673
16, 8196, 8172, 8193, 8142, 8183, 8153, 8183, 8180, 8261, 8218, 8224, 8211, 8219, 8180,8.507225275039673
17, 8203, 8163, 8157, 8146, 8178, 8154, 8186, 8178, 8264, 8233, 8227, 8211, 8221, 8184,8.523825883865356
18, 8210, 8183, 8188, 8171, 8189, 8158, 8184, 8171, 8253, 8233, 8249, 8221, 8226, 8181,8.523825883865356
19, 8217, 8213, 8201, 8185, 8209, 8164, 8181, 8181, 8241, 8220, 8252, 8225, 8223, 8179,8.538881063461304
20, 8205, 8197, 8160, 8175, 8202, 8150, 8168, 8163, 8214, 8202, 8229, 8209, 8210, 8167,8.538881063461304
21, 8203, 8185, 8200, 8170, 8190, 8148, 8160, 8164, 8179, 8188, 8222, 8213, 8198, 8168,8.554270505905151
22, 8214, 8200, 8185, 8198, 8203, 8167, 8188, 8177, 8202, 8216, 8243, 8216, 8211, 8187,8.554270505905151
23, 8217, 8201, 8196, 8206, 8206, 8180, 8202, 8172, 8218, 8232, 8236, 8216, 8214, 8194,8.571202516555786
24, 8199, 8187, 8197, 8203, 8201, 8189, 8208, 8183, 8201, 8222, 8211, 8209, 8197, 8192,8.571202516555786
25, 8182, 8172, 8153, 8208, 8208, 8194, 8223, 8180, 8213, 8236, 8219, 8192, 8198, 8189,8.58579158782959
26, 8178, 8169, 8184, 8191, 8207, 8192, 8213, 8182, 8220, 8241, 8219, 8193, 8200, 8183,8.58579158782959
27, 8183, 8167, 8162, 8194, 8196, 8175, 8204, 8182, 8207, 8226, 8202, 8175, 8189, 8172,8.600826263427734
28, 8196, 8169, 8173, 8200, 8190, 8160, 8205, 8170, 8204, 8213, 8188, 8162, 8178, 8169,8.616283893585205
29, 8193, 8180, 8186, 8188, 8189, 8180, 8208, 8180, 8219, 8222, 8185, 8176, 8184, 8182,8.616283893585205
30, 8177, 8168, 8144, 8181, 8185, 8191, 8217, 8174, 8235, 8237, 8187, 8178, 8200, 8184,8.631897449493408
31, 8172, 8150, 8176, 8157, 8179, 8184, 8223, 8176, 8232, 8227, 8180, 8175, 8197, 8180,8.631897449493408
32, 8167, 8150, 8149, 8144, 8185, 8179, 8231, 8185, 8237, 8223, 8168, 8156, 8182, 8170,8.647120714187622
33, 8171, 8162, 8155, 8154, 8188, 8173, 8224, 8173, 8238, 8223, 8155, 8156, 8171, 8163,8.647120714187622
34, 8194, 8178, 8197, 8170, 8187, 8171, 8217, 8181, 8232, 8217, 8163, 8186, 8181, 8177,8.662750482559204
35, 8209, 8183, 8160, 8179, 8189, 8153, 8213, 8175, 8235, 8210, 8182, 8187, 8199, 8178,8.662750482559204
36, 8206, 8181, 8184, 8165, 8184, 8139, 8193, 8174, 8223, 8187, 8173, 8183, 8188, 8172,8.6801118850708
37, 8202, 8174, 8171, 8161, 8180, 8146, 8202, 8187, 8228, 8190, 8172, 8185, 8182, 8179,8.6801118850708
38, 8198, 8170, 8160, 8158, 8178, 8147, 8209, 8171, 8234, 8198, 8178, 8183, 8181, 8170,8.694819450378418
39, 8190, 8179, 8179, 8142, 8175, 8141, 8188, 8171, 8212, 8171, 8157, 8178, 8167, 8154,8.694819450378418
40, 8182, 8176, 8144, 8140, 8174, 8134, 8177, 8170, 8192, 8153, 8150, 8172, 8168, 8143,8.709920406341553
41, 8185, 8176, 8174, 8145, 8173, 8137, 8175, 8165, 8174, 8146, 8153, 8181, 8161, 8137,8.709920406341553
42, 8185, 8190, 8165, 8159, 8178, 8149, 8189, 8171, 8178, 8156, 8150, 8173, 8153, 8135,8.725112199783325
43, 8182, 8188, 8156, 8155, 8184, 8146, 8194, 8163, 8182, 8165, 8153, 8164, 8161, 8130,8.725112199783325
44, 8172, 8179, 8184, 8136, 8185, 8147, 8187, 8170, 8170, 8147, 8138, 8157, 8146, 8121,8.740559339523315
45, 8162, 8182, 8144, 8147, 8188, 8165, 8200, 8169, 8175, 8143, 8122, 8137, 8122, 8110,8.740559339523315
46, 8173, 8191, 8174, 8165, 8197, 8173, 8201, 8170, 8181, 8148, 8130, 8149, 8125, 8118,8.756617307662964
47, 8168, 8187, 8169, 8166, 8202, 8171, 8192, 8184, 8185, 8158, 8138, 8153, 8144, 8126,8.756617307662964
48, 8148, 8168, 8139, 8157, 8189, 8170, 8196, 8170, 8183, 8166, 8123, 8126, 8141, 8110,8.772161722183228
49, 8151, 8166, 8172, 8151, 8183, 8182, 8209, 8176, 8180, 8170, 8114, 8128, 8136, 8113,8.772161722183228
50, 8155, 8159, 8148, 8162, 8189, 8188, 8208, 8176, 8189, 8187, 8128, 8132, 8151, 8126,8.788139343261719
51, 8149, 8147, 8170, 8159, 8185, 8182, 8188, 8163, 8178, 8189, 8129, 8130, 8155, 8127,8.788139343261719
52, 8160, 8164, 8177, 8172, 8195, 8198, 8208, 8183, 8194, 8202, 8143, 8145, 8173, 8149,8.803297758102417
53, 8177, 8171, 8164, 8190, 8212, 8206, 8240, 8184, 8236, 8229, 8161, 8163, 8199, 8165,8.803297758102417
54, 8167, 8159, 8188, 8173, 8208, 8194, 8229, 8181, 8234, 8230, 8150, 8160, 8186, 8159,8.818845272064209
55, 8155, 8158, 8148, 8173, 8203, 8181, 8221, 8177, 8228, 8224, 8153, 8148, 8178, 8159,8.818845272064209
56, 8171, 8166, 8168, 8168, 8190, 8161, 8201, 8164, 8214, 8197, 8158, 8167, 8185, 8158,8.833932638168335
57, 8159, 8144, 8157, 8125, 8153, 8129, 8151, 8155, 8161, 8144, 8126, 8164, 8160, 8135,8.833932638168335
58, 8117, 8108, 8101, 8090, 8126, 8097, 8113, 8139, 8115, 8105, 8098, 8120, 8115, 8093,8.848975658416748
59, 8105, 8115, 8130, 8084, 8127, 8099, 8102, 8154, 8107, 8093, 8105, 8108, 8105, 8070,8.848975658416748
60, 8114, 8140, 8116, 8106, 8137, 8122, 8121, 8163, 8120, 8107, 8122, 8115, 8121, 8071,8.864763498306274
61, 8124, 8162, 8147, 8130, 8146, 8135, 8133, 8156, 8116, 8110, 8115, 8121, 8114, 8088,8.864763498306274
62, 8131, 8167, 8171, 8154, 8162, 8146, 8128, 8171, 8109, 8103, 8098, 8113, 8093, 8100,8.88076400756836
63, 8125, 8149, 8139, 8162, 8167, 8153, 8134, 8164, 8119, 8113, 8100, 8101, 8098, 8094,8.88076400756836
64, 8122, 8145, 8170, 8144, 8164, 8163, 8154, 8171, 8140, 8139, 8112, 8126, 8119, 8110,8.896341562271118
65, 8132, 8145, 8144, 8142, 8166, 8165, 8179, 8187, 8176, 8176, 8115, 8130, 8140, 8131,8.896341562271118
66, 8143, 8142, 8153, 8145, 8159, 8146, 8175, 8171, 8184, 8179, 8110, 8122, 8142, 8132,8.912336111068726
67, 8147, 8159, 8171, 8144, 8151, 8134, 8158, 8169, 8170, 8150, 8119, 8143, 8142, 8134,8.912336111068726
68, 8158, 8170, 8136, 8142, 8158, 8128, 8139, 8163, 8162, 8134, 8139, 8158, 8152, 8126,8.927165269851685
69, 8177, 8171, 8182, 8136, 8163, 8132, 8123, 8166, 8142, 8125, 8143, 8167, 8154, 8123,8.927165269851685
70, 8181, 8176, 8177, 8168, 8170, 8151, 8149, 8176, 8142, 8144, 8144, 8156, 8154, 8137,8.942782640457153
71, 8178, 8183, 8178, 8200, 8186, 8176, 8183, 8170, 8155, 8159, 8130, 8141, 8145, 8139,8.942782640457153
72, 8173, 8183, 8192, 8190, 8182, 8190, 8187, 8181, 8149, 8149, 8111, 8138, 8137, 8140,8.958330392837524
73, 8176, 8173, 8160, 8189, 8172, 8175, 8182, 8174, 8142, 8154, 8126, 8137, 8152, 8143,8.958330392837524
74, 8193, 8185, 8206, 8200, 8180, 8174, 8189, 8171, 8146, 8161, 8144, 8163, 8163, 8157,8.974416494369507
75, 8192, 8192, 8188, 8197, 8180, 8190, 8206, 8178, 8166, 8168, 8142, 8170, 8170, 8170,8.974416494369507
76, 8172, 8161, 8159, 8167, 8157, 8173, 8196, 8161, 8157, 8158, 8134, 8149, 8172, 8159,8.989139556884766
