COUNTER,F3,FC5,AF3,F7,T7,P7,O1,O2,P8,T8,F8,AF4,FC6,F4,Timestamp
123, 8145, 8154, 8137, 8101, 8138, 8152, 8148, 8176, 8212, 8187, 8163, 8176, 8179, 8127,0.041413068771362305
124, 8145, 8149, 8138, 8099, 8144, 8144, 8147, 8171, 8201, 8183, 8179, 8180, 8185, 8123,0.041413068771362305
125, 8151, 8149, 8175, 8105, 8149, 8168, 8150, 8172, 8206, 8181, 8180, 8200, 8195, 8134,0.05668473243713379
126, 8151, 8156, 8142, 8121, 8157, 8175, 8148, 8170, 8216, 8191, 8182, 8192, 8197, 8134,0.05668473243713379
127, 8152, 8167, 8174, 8115, 8166, 8167, 8144, 8177, 8185, 8178, 8180, 8183, 8186, 8127,0.07166218757629395
237, 8149, 8165, 8158, 8122, 8168, 8163, 8153, 8168, 8177, 8177, 8188, 8173, 8185, 8122,0.07166218757629395
0, 8149, 8162, 8143, 8121, 8157, 8156, 8139, 8162, 8185, 8175, 8180, 8172, 8164, 8121,0.08769965171813965
1, 8148, 8168, 8165, 8120, 8157, 8167, 8130, 8175, 8176, 8167, 8161, 8173, 8143, 8112,0.08769965171813965
2, 8134, 8158, 8128, 8129, 8170, 8180, 8154, 8174, 8172, 8173, 8163, 8147, 8154, 8103,0.10302281379699707
3, 8121, 8153, 8155, 8114, 8162, 8184, 8158, 8172, 8162, 8165, 8146, 8140, 8153, 8104,0.10302281379699707
4, 8107, 8141, 8135, 8118, 8154, 8188, 8159, 8170, 8169, 8164, 8130, 8130, 8141, 8095,0.11857438087463379
5, 8115, 8125, 8118, 8121, 8155, 8196, 8176, 8171, 8175, 8172, 8139, 8127, 8144, 8105,0.11857438087463379
6, 8136, 8134, 8156, 8110, 8156, 8195, 8188, 8182, 8182, 8185, 8151, 8154, 8163, 8135,0.13461065292358398
7, 8135, 8131, 8116, 8102, 8151, 8163, 8176, 8174, 8204, 8190, 8150, 8147, 8175, 8132,0.13461065292358398
8, 8132, 8126, 8133, 8077, 8138, 8143, 8142, 8171, 8188, 8156, 8143, 8150, 8158, 8110,0.1500401496887207
9, 8141, 8143, 8142, 8087, 8140, 8153, 8140, 8174, 8179, 8158, 8165, 8161, 8160, 8102,0.1500401496887207
10, 8150, 8158, 8146, 8111, 8148, 8154, 8144, 8166, 8176, 8160, 8168, 8156, 8163, 8112,0.16604995727539062
11, 8148, 8171, 8180, 8119, 8150, 8156, 8137, 8171, 8159, 8135, 8148, 8167, 8146, 8113,0.16604995727539062
12, 8136, 8172, 8128, 8133, 8153, 8167, 8158, 8175, 8177, 8148, 8150, 8154, 8142, 8098,0.18197131156921387
13, 8124, 8161, 8146, 8133, 8146, 8169, 8173, 8180, 8189, 8169, 8137, 8142, 8142, 8101,0.18197131156921387
14, 8121, 8143, 8150, 8127, 8148, 8173, 8184, 8176, 8198, 8192, 8129, 8132, 8148, 8110,0.19810843467712402
15, 8127, 8127, 8117, 8104, 8144, 8178, 8180, 8170, 8212, 8198, 8138, 8132, 8154, 8114,0.19810843467712402
16, 8131, 8133, 8155, 8095, 8139, 8183, 8158, 8182, 8205, 8181, 8145, 8162, 8155, 8118,0.21413564682006836
17, 8140, 8133, 8128, 8119, 8147, 8166, 8159, 8176, 8201, 8172, 8155, 8156, 8171, 8118,0.21413564682006836
18, 8150, 8131, 8148, 8101, 8141, 8139, 8145, 8168, 8192, 8161, 8157, 8162, 8175, 8119,0.23009777069091797
19, 8145, 8143, 8159, 8091, 8139, 8147, 8133, 8170, 8184, 8160, 8155, 8174, 8164, 8111,0.23009777069091797
20, 8136, 8143, 8130, 8122, 8146, 8162, 8145, 8163, 8164, 8159, 8139, 8150, 8141, 8098,0.24612069129943848
21, 8138, 8145, 8172, 8124, 8140, 8170, 8152, 8165, 8149, 8155, 8138, 8141, 8127, 8099,0.24612069129943848
22, 8144, 8146, 8145, 8124, 8147, 8184, 8168, 8161, 8174, 8171, 8155, 8133, 8150, 8107,0.26155805587768555
23, 8151, 8139, 8154, 8130, 8161, 8183, 8171, 8164, 8172, 8168, 8141, 8140, 8160, 8108,0.26155805587768555
24, 8148, 8137, 8161, 8127, 8156, 8181, 8176, 8176, 8176, 8162, 8129, 8148, 8157, 8111,0.27707934379577637
25, 8146, 8131, 8116, 8108, 8140, 8163, 8174, 8165, 8193, 8176, 8137, 8139, 8173, 8114,0.27707934379577637
26, 8150, 8133, 8156, 8092, 8140, 8140, 8141, 8158, 8172, 8157, 8130, 8152, 8167, 8105,0.29261112213134766
27, 8138, 8142, 8135, 8113, 8145, 8139, 8127, 8153, 8166, 8132, 8132, 8146, 8146, 8079,0.29261112213134766
28, 8140, 8152, 8138, 8115, 8139, 8150, 8121, 8158, 8178, 8127, 8142, 8139, 8143, 8067,0.30816078186035156
29, 8148, 8157, 8158, 8104, 8137, 8171, 8129, 8165, 8177, 8139, 8138, 8141, 8151, 8076,0.30816078186035156
30, 8136, 8151, 8125, 8121, 8142, 8162, 8142, 8155, 8163, 8144, 8131, 8132, 8143, 8074,0.32378268241882324
31, 8132, 8156, 8169, 8129, 8146, 8156, 8134, 8163, 8151, 8129, 8126, 8147, 8125, 8070,0.32378268241882324
32, 8130, 8162, 8150, 8125, 8158, 8180, 8153, 8168, 8166, 8141, 8137, 8133, 8136, 8070,0.339306116104126
33, 8132, 8161, 8146, 8116, 8169, 8177, 8159, 8164, 8166, 8151, 8143, 8118, 8144, 8077,0.339306116104126
34, 8136, 8168, 8180, 8137, 8167, 8169, 8146, 8171, 8164, 8144, 8138, 8135, 8147, 8090,0.35498905181884766
35, 8129, 8162, 8139, 8158, 8156, 8163, 8153, 8174, 8176, 8157, 8138, 8128, 8164, 8086,0.35498905181884766
36, 8124, 8151, 8160, 8128, 8147, 8171, 8163, 8178, 8171, 8158, 8132, 8127, 8176, 8078,0.37004637718200684
37, 8118, 8142, 8136, 8112, 8148, 8187, 8179, 8171, 8168, 8162, 8124, 8115, 8208, 8066,0.37004637718200684
38, 8110, 8124, 8122, 8123, 8142, 8181, 8170, 8167, 8169, 8158, 8113, 8102, 8234, 8060,0.38568758964538574
39, 8107, 8139, 8163, 8135, 8146, 8192, 8158, 8178, 8180, 8165, 8119, 8116, 8240, 8076,0.38568758964538574
40, 8115, 8154, 8129, 8140, 8164, 8193, 8163, 8172, 8198, 8199, 8140, 8116, 8245, 8088,0.4016087055206299
41, 8122, 8140, 8144, 8115, 8151, 8175, 8150, 8168, 8188, 8181, 8127, 8117, 8219, 8083,0.4016087055206299
42, 8107, 8133, 8132, 8118, 8137, 8174, 8159, 8171, 8182, 8163, 8103, 8102, 8202, 8075,0.41704297065734863
43, 8105, 8134, 8123, 8131, 8143, 8175, 8177, 8172, 8180, 8165, 8100, 8096, 8199, 8080,0.41704297065734863
44, 8133, 8150, 8162, 8121, 8146, 8183, 8182, 8178, 8169, 8162, 8113, 8120, 8196, 8091,0.4327425956726074
45, 8147, 8154, 8133, 8127, 8145, 8183, 8175, 8168, 8176, 8179, 8129, 8129, 8205, 8095,0.4327425956726074
46, 8133, 8142, 8154, 8124, 8138, 8168, 8145, 8163, 8170, 8182, 8124, 8140, 8194, 8100,0.4488663673400879
47, 8120, 8137, 8143, 8124, 8143, 8153, 8139, 8162, 8172, 8179, 8114, 8125, 8168, 8088,0.4488663673400879
48, 8127, 8133, 8121, 8124, 8150, 8152, 8152, 8162, 8188, 8179, 8113, 8115, 8155, 8075,0.4649069309234619
49, 8132, 8135, 8157, 8110, 8138, 8159, 8156, 8176, 8185, 8171, 8116, 8135, 8158, 8086,0.4649069309234619
50, 8117, 8124, 8108, 8106, 8123, 8147, 8147, 8170, 8181, 8156, 8119, 8118, 8152, 8075,0.47966527938842773
51, 8112, 8125, 8122, 8091, 8112, 8136, 8127, 8163, 8159, 8135, 8118, 8121, 8127, 8056,0.47966527938842773
52, 8123, 8136, 8136, 8093, 8119, 8143, 8134, 8160, 8154, 8141, 8125, 8145, 8136, 8066,0.49571752548217773
53, 8140, 8127, 8114, 8106, 8131, 8152, 8135, 8157, 8162, 8139, 8125, 8143, 8149, 8079,0.49571752548217773
54, 8149, 8143, 8158, 8116, 8134, 8159, 8126, 8168, 8150, 8134, 8126, 8151, 8141, 8081,0.5109410285949707
55, 8148, 8163, 8136, 8146, 8148, 8147, 8137, 8159, 8151, 8150, 8140, 8149, 8142, 8074,0.5109410285949707
56, 8143, 8153, 8146, 8137, 8147, 8140, 8133, 8152, 8127, 8123, 8132, 8145, 8134, 8072,0.5271077156066895
57, 8142, 8154, 8164, 8128, 8136, 8160, 8129, 8157, 8111, 8114, 8148, 8162, 8140, 8083,0.5274732112884521
58, 8166, 8183, 8166, 8171, 8152, 8168, 8140, 8164, 8131, 8156, 8203, 8194, 8165, 8108,0.5426721572875977
59, 8184, 8205, 8216, 8197, 8166, 8168, 8154, 8180, 8144, 8169, 8216, 8212, 8164, 8114,0.5426721572875977
60, 8167, 8185, 8170, 8202, 8154, 8168, 8157, 8171, 8157, 8152, 8206, 8189, 8150, 8082,0.5578212738037109
61, 8167, 8184, 8195, 8221, 8134, 8150, 8127, 8162, 8142, 8118, 8211, 8202, 8142, 8083,0.5578212738037109
62, 8183, 8214, 8246, 8264, 8136, 8138, 8107, 8161, 8116, 8107, 8226, 8237, 8148, 8107,0.5729796886444092
63, 8199, 8224, 8227, 8294, 8150, 8146, 8121, 8151, 8119, 8131, 8251, 8252, 8167, 8117,0.5729796886444092
64, 8217, 8230, 8281, 8309, 8156, 8170, 8129, 8162, 8125, 8144, 8273, 8287, 8187, 8136,0.5886523723602295
65, 8214, 8230, 8266, 8340, 8157, 8174, 8136, 8168, 8127, 8149, 8288, 8291, 8201, 8145,0.5886523723602295
66, 8207, 8221, 8260, 8327, 8144, 8149, 8134, 8160, 8104, 8132, 8274, 8284, 8185, 8137,0.6046862602233887
67, 8205, 8215, 8274, 8326, 8143, 8152, 8134, 8165, 8103, 8132, 8264, 8298, 8172, 8137,0.6046862602233887
68, 8200, 8196, 8231, 8344, 8152, 8172, 8151, 8163, 8127, 8148, 8264, 8278, 8177, 8143,0.6198291778564453
69, 8201, 8192, 8252, 8316, 8144, 8182, 8150, 8164, 8127, 8138, 8246, 8272, 8177, 8150,0.6198291778564453
70, 8210, 8208, 8229, 8317, 8146, 8181, 8153, 8166, 8136, 8147, 8254, 8274, 8195, 8157,0.6358811855316162
71, 8215, 8204, 8226, 8316, 8155, 8167, 8153, 8168, 8148, 8156, 8253, 8266, 8202, 8162,0.6358811855316162
72, 8198, 8188, 8234, 8293, 8154, 8176, 8146, 8172, 8158, 8157, 8227, 8250, 8177, 8150,0.6515777111053467
73, 8177, 8179, 8172, 8279, 8151, 8178, 8148, 8171, 8172, 8172, 8213, 8212, 8168, 8130,0.6515777111053467
74, 8180, 8172, 8193, 8250, 8149, 8154, 8136, 8181, 8171, 8167, 8210, 8212, 8181, 8133,0.6667146682739258
75, 8175, 8162, 8173, 8227, 8157, 8146, 8134, 8174, 8178, 8164, 8219, 8216, 8191, 8135,0.6667146682739258
76, 8156, 8160, 8153, 8213, 8155, 8153, 8133, 8161, 8169, 8163, 8205, 8202, 8176, 8122,0.682816743850708
77, 8153, 8166, 8177, 8210, 8142, 8163, 8132, 8164, 8156, 8156, 8189, 8192, 8164, 8114,0.682816743850708
78, 8158, 8155, 8136, 8198, 8142, 8158, 8139, 8157, 8153, 8149, 8189, 8170, 8172, 8110,0.6986098289489746
79, 8146, 8142, 8154, 8160, 8138, 8151, 8116, 8159, 8124, 8122, 8177, 8169, 8149, 8102,0.6986098289489746
80, 8130, 8142, 8129, 8138, 8136, 8162, 8108, 8163, 8121, 8122, 8172, 8157, 8129, 8086,0.7146482467651367
81, 8137, 8154, 8110, 8134, 8149, 8161, 8117, 8163, 8144, 8140, 8174, 8145, 8172, 8083,0.7146482467651367
82, 8151, 8174, 8166, 8141, 8161, 8154, 8125, 8171, 8161, 8139, 8175, 8172, 8235, 8100,0.7288024425506592
83, 8149, 8170, 8147, 8150, 8153, 8154, 8139, 8170, 8169, 8142, 8181, 8176, 8261, 8110,0.7449111938476562
84, 8152, 8164, 8173, 8153, 8142, 8159, 8129, 8171, 8146, 8145, 8185, 8174, 8252, 8110,0.7449111938476562
85, 8151, 8174, 8170, 8168, 8161, 8163, 8138, 8168, 8132, 8154, 8172, 8145, 8241, 8100,0.7449111938476562
86, 8140, 8167, 8142, 8171, 8176, 8151, 8147, 8157, 8131, 8150, 8143, 8116, 8218, 8089,0.76004958152771
87, 8139, 8153, 8166, 8149, 8167, 8174, 8144, 8167, 8139, 8154, 8141, 8136, 8199, 8093,0.7766249179840088
88, 8130, 8151, 8124, 8150, 8161, 8200, 8153, 8171, 8162, 8193, 8160, 8134, 8203, 8092,0.7766249179840088
89, 8120, 8159, 8149, 8161, 8164, 8184, 8145, 8163, 8161, 8198, 8153, 8123, 8186, 8087,0.7766249179840088
90, 8125, 8160, 8156, 8166, 8168, 8182, 8152, 8163, 8161, 8181, 8138, 8114, 8166, 8095,0.7916550636291504
91, 8124, 8137, 8107, 8149, 8160, 8184, 8161, 8169, 8162, 8172, 8118, 8102, 8151, 8094,0.8069627285003662
92, 8110, 8124, 8127, 8107, 8152, 8174, 8156, 8181, 8162, 8163, 8100, 8104, 8135, 8088,0.8072829246520996
93, 8102, 8124, 8105, 8105, 8161, 8172, 8168, 8175, 8197, 8189, 8110, 8095, 8140, 8093,0.8229954242706299
94, 8119, 8132, 8124, 8104, 8168, 8175, 8172, 8176, 8211, 8199, 8121, 8105, 8142, 8098,0.8229954242706299
95, 8126, 8142, 8126, 8088, 8168, 8177, 8172, 8178, 8194, 8182, 8114, 8108, 8144, 8089,0.8229954242706299
96, 8116, 8127, 8090, 8087, 8166, 8164, 8170, 8165, 8177, 8171, 8105, 8091, 8152, 8081,0.8386807441711426
97, 8123, 8132, 8144, 8101, 8157, 8167, 8159, 8164, 8148, 8158, 8117, 8107, 8147, 8097,0.8386807441711426
98, 8139, 8159, 8136, 8131, 8159, 8166, 8155, 8158, 8137, 8153, 8141, 8120, 8154, 8102,0.8541865348815918
99, 8145, 8162, 8143, 8129, 8161, 8146, 8135, 8159, 8131, 8135, 8137, 8133, 8153, 8092,0.8702304363250732
100, 8139, 8157, 8158, 8122, 8158, 8143, 8134, 8165, 8141, 8132, 8138, 8145, 8149, 8093,0.8702304363250732
101, 8143, 8154, 8129, 8126, 8165, 8141, 8145, 8155, 8158, 8139, 8148, 8129, 8144, 8099,0.8858516216278076
102, 8143, 8163, 8162, 8112, 8165, 8140, 8116, 8155, 8124, 8109, 8124, 8119, 8118, 8090,0.8858516216278076
103, 8122, 8163, 8125, 8121, 8162, 8133, 8098, 8147, 8085, 8101, 8116, 8103, 8116, 8067,0.9013442993164062
104, 8129, 8159, 8129, 8129, 8155, 8124, 8106, 8141, 8079, 8105, 8136, 8105, 8130, 8067,0.9013442993164062
105, 8138, 8168, 8167, 8140, 8151, 8141, 8129, 8154, 8105, 8107, 8136, 8113, 8130, 8075,0.9170379638671875
106, 8135, 8163, 8136, 8160, 8163, 8153, 8140, 8163, 8142, 8123, 8132, 8106, 8137, 8076,0.917377233505249
107, 8148, 8167, 8176, 8164, 8170, 8163, 8133, 8171, 8151, 8130, 8139, 8115, 8141, 8093,0.9326190948486328
108, 8138, 8170, 8160, 8175, 8173, 8161, 8141, 8167, 8156, 8148, 8142, 8075, 8135, 8088,0.9326190948486328
109, 8122, 8157, 8146, 8164, 8176, 8162, 8138, 8164, 8151, 8153, 8121, 8033, 8113, 8076,0.9336113929748535
110, 8129, 8165, 8178, 8166, 8186, 8192, 8148, 8170, 8143, 8151, 8114, 8053, 8117, 8095,0.9479231834411621
111, 8139, 8168, 8150, 8199, 8185, 8200, 8174, 8160, 8152, 8162, 8136, 8063, 8144, 8111,0.9632971286773682
112, 8147, 8163, 8180, 8190, 8169, 8188, 8170, 8167, 8147, 8162, 8136, 8063, 8153, 8120,0.9632971286773682
113, 8157, 8160, 8161, 8183, 8177, 8193, 8171, 8171, 8156, 8173, 8131, 8056, 8161, 8125,0.9789392948150635
114, 8156, 8146, 8146, 8182, 8176, 8190, 8164, 8160, 8154, 8154, 8125, 8047, 8145, 8123,0.9789392948150635
115, 8145, 8151, 8179, 8177, 8168, 8184, 8143, 8160, 8139, 8132, 8115, 8038, 8126, 8117,0.9940218925476074
116, 8146, 8157, 8140, 8182, 8182, 8184, 8152, 8164, 8169, 8163, 8125, 8013, 8134, 8115,0.9940218925476074
117, 8151, 8154, 8156, 8169, 8177, 8176, 8160, 8174, 8184, 8166, 8123, 8019, 8134, 8123,1.0096368789672852
118, 8137, 8148, 8137, 8170, 8157, 8162, 8148, 8167, 8164, 8146, 8117, 8014, 8130, 8110,1.0096368789672852
119, 8138, 8147, 8123, 8165, 8157, 8150, 8138, 8157, 8140, 8138, 8120, 8000, 8131, 8099,1.0248045921325684
120, 8163, 8153, 8173, 8156, 8163, 8156, 8147, 8166, 8133, 8136, 8125, 8015, 8129, 8117,1.0248045921325684
121, 8164, 8148, 8129, 8184, 8166, 8172, 8156, 8160, 8147, 8132, 8139, 7991, 8130, 8118,1.0399630069732666
122, 8135, 8151, 8134, 8190, 8168, 8174, 8140, 8156, 8136, 8128, 8130, 7963, 8119, 8090,1.0399630069732666
123, 8115, 8148, 8132, 8168, 8172, 8166, 8140, 8164, 8146, 8159, 8127, 7956, 8116, 8072,1.055980920791626
124, 8137, 8139, 8116, 8148, 8170, 8151, 8145, 8165, 8171, 8180, 8151, 7964, 8141, 8094,1.055980920791626
125, 8166, 8154, 8163, 8147, 8167, 8155, 8139, 8172, 8173, 8169, 8160, 7990, 8158, 8122,1.071993350982666
126, 8157, 8165, 8133, 8167, 8172, 8166, 8159, 8168, 8172, 8175, 8150, 7976, 8148, 8112,1.071993350982666
127, 8149, 8158, 8150, 8158, 8172, 8160, 8166, 8160, 8153, 8173, 8145, 7960, 8135, 8101,1.0875914096832275
237, 8152, 8145, 8150, 8146, 8173, 8159, 8148, 8160, 8152, 8160, 8147, 7956, 8137, 8100,1.0875914096832275
0, 8147, 8140, 8112, 8139, 8166, 8155, 8136, 8159, 8155, 8147, 8132, 7944, 8131, 8091,1.102724313735962
1, 8147, 8153, 8156, 8133, 8163, 8154, 8133, 8168, 8143, 8143, 8124, 7961, 8125, 8090,1.102724313735962
2, 8157, 8163, 8141, 8155, 8180, 8159, 8148, 8165, 8150, 8157, 8148, 7963, 8141, 8093,1.1188397407531738
3, 8161, 8163, 8154, 8158, 8181, 8148, 8132, 8161, 8134, 8131, 8152, 7961, 8126, 8089,1.1188397407531738
4, 8149, 8162, 8155, 8144, 8168, 8151, 8114, 8159, 8118, 8103, 8148, 7957, 8099, 8085,1.134667158126831
5, 8144, 8157, 8130, 8139, 8167, 8158, 8132, 8158, 8122, 8114, 8156, 7947, 8113, 8087,1.134667158126831
6, 8156, 8171, 8183, 8157, 8175, 8156, 8147, 8172, 8123, 8122, 8147, 7963, 8126, 8098,1.1498427391052246
7, 8168, 8188, 8158, 8195, 8184, 8164, 8157, 8169, 8137, 8125, 8137, 7951, 8114, 8103,1.1498427391052246
8, 8177, 8194, 8165, 8196, 8184, 8171, 8155, 8165, 8140, 8130, 8142, 7946, 8102, 8113,1.1658971309661865
9, 8174, 8190, 8184, 8182, 8186, 8176, 8166, 8174, 8152, 8150, 8150, 7951, 8122, 8131,1.1658971309661865
10, 8155, 8157, 8137, 8174, 8183, 8173, 8177, 8168, 8173, 8170, 8135, 7924, 8132, 8129,1.1817078590393066
11, 8153, 8141, 8165, 8157, 8169, 8187, 8173, 8171, 8180, 8165, 8123, 7935, 8114, 8123,1.1817078590393066
12, 8156, 8155, 8148, 8153, 8166, 8189, 8188, 8175, 8195, 8176, 8142, 7944, 8126, 8127,1.196855068206787
13, 8151, 8152, 8139, 8137, 8172, 8161, 8165, 8173, 8190, 8177, 8130, 7938, 8132, 8120,1.196855068206787
14, 8157, 8145, 8155, 8127, 8177, 8162, 8142, 8171, 8185, 8171, 8128, 7947, 8126, 8106,1.2122149467468262
15, 8166, 8146, 8130, 8139, 8182, 8172, 8154, 8161, 8197, 8171, 8146, 7946, 8131, 8105,1.2122149467468262
16, 8165, 8154, 8167, 8131, 8173, 8170, 8143, 8165, 8177, 8143, 8136, 7947, 8119, 8111,1.2278518676757812
17, 8156, 8149, 8138, 8112, 8166, 8166, 8148, 8167, 8162, 8139, 8133, 7939, 8120, 8100,1.2278518676757812
18, 8148, 8129, 8121, 8096, 8160, 8158, 8154, 8165, 8164, 8146, 8138, 7942, 8116, 8088,1.2438633441925049
19, 8141, 8137, 8157, 8104, 8162, 8170, 8146, 8167, 8169, 8143, 8135, 7946, 8096, 8087,1.2438633441925049
20, 8143, 8153, 8125, 8125, 8172, 8167, 8149, 8163, 8183, 8159, 8132, 7929, 8100, 8084,1.259164810180664
21, 8159, 8161, 8157, 8117, 8169, 8152, 8134, 8167, 8170, 8159, 8140, 7946, 8111, 8088,1.259164810180664
22, 8157, 8164, 8155, 8119, 8173, 8157, 8127, 8159, 8167, 8156, 8150, 7953, 8111, 8093,1.2747116088867188
23, 8144, 8153, 8138, 8121, 8178, 8158, 8126, 8154, 8173, 8154, 8140, 7944, 8094, 8089,1.2747116088867188
24, 8128, 8149, 8153, 8105, 8169, 8160, 8136, 8167, 8155, 8137, 8124, 7933, 8082, 8070,1.290550947189331
25, 8116, 8150, 8112, 8110, 8171, 8160, 8153, 8159, 8154, 8136, 8124, 7906, 8080, 8051,1.290550947189331
26, 8131, 8158, 8153, 8111, 8180, 8163, 8143, 8159, 8170, 8144, 8131, 7926, 8068, 8063,1.3059329986572266
27, 8143, 8171, 8159, 8122, 8191, 8177, 8148, 8168, 8187, 8162, 8138, 7940, 8076, 8080,1.3059329986572266
28, 8137, 8170, 8142, 8136, 8193, 8186, 8164, 8168, 8185, 8172, 8134, 7921, 8096, 8077,1.321190595626831
29, 8129, 8164, 8174, 8123, 8184, 8203, 8178, 8180, 8189, 8177, 8121, 7929, 8100, 8091,1.321190595626831
30, 8119, 8139, 8122, 8116, 8182, 8203, 8192, 8184, 8212, 8195, 8127, 7934, 8099, 8104,1.3372600078582764
31, 8119, 8122, 8134, 8096, 8175, 8192, 8187, 8181, 8204, 8183, 8124, 7937, 8093, 8102,1.3372600078582764
32, 8110, 8125, 8133, 8079, 8165, 8186, 8192, 8177, 8205, 8186, 8104, 7922, 8103, 8099,1.3519673347473145
33, 8109, 8120, 8104, 8071, 8157, 8161, 8185, 8168, 8223, 8194, 8107, 7919, 8115, 8098,1.3519673347473145
34, 8131, 8133, 8143, 8062, 8150, 8158, 8155, 8168, 8217, 8163, 8129, 7964, 8115, 8111,1.3679778575897217
35, 8145, 8147, 8118, 8086, 8158, 8167, 8151, 8164, 8212, 8155, 8150, 7975, 8127, 8109,1.3679778575897217
36, 8150, 8142, 8142, 8091, 8166, 8156, 8159, 8168, 8199, 8155, 8146, 7963, 8125, 8100,1.3836193084716797
37, 8147, 8146, 8163, 8094, 8171, 8157, 8162, 8173, 8193, 8158, 8143, 7967, 8121, 8102,1.3836193084716797
38, 8145, 8152, 8141, 8112, 8175, 8163, 8161, 8164, 8190, 8155, 8148, 7965, 8120, 8103,1.3996164798736572
39, 8131, 8154, 8175, 8112, 8174, 8171, 8157, 8160, 8169, 8140, 8128, 7959, 8101, 8094,1.3996164798736572
40, 8113, 8138, 8132, 8116, 8180, 8176, 8168, 8157, 8178, 8168, 8116, 7938, 8101, 8087,1.415006399154663
41, 8123, 8129, 8134, 8105, 8171, 8169, 8170, 8165, 8195, 8181, 8120, 7947, 8112, 8109,1.415006399154663
42, 8129, 8134, 8150, 8102, 8154, 8169, 8162, 8174, 8203, 8180, 8126, 7967, 8123, 8121,1.4308874607086182
43, 8129, 8126, 8123, 8114, 8155, 8173, 8161, 8167, 8218, 8196, 8129, 7960, 8133, 8115,1.4484484195709229
44, 8142, 8127, 8162, 8108, 8159, 8175, 8168, 8176, 8219, 8191, 8123, 7970, 8137, 8127,1.4484484195709229
45, 8142, 8130, 8134, 8113, 8162, 8166, 8171, 8177, 8222, 8189, 8127, 7973, 8145, 8129,1.4484484195709229
46, 8145, 8143, 8145, 8121, 8164, 8155, 8144, 8171, 8203, 8190, 8132, 7995, 8149, 8130,1.4630653858184814
47, 8166, 8159, 8180, 8128, 8167, 8160, 8138, 8175, 8193, 8194, 8151, 8024, 8161, 8141,1.4630653858184814
48, 8179, 8150, 8150, 8126, 8164, 8155, 8149, 8164, 8205, 8180, 8165, 8010, 8167, 8139,1.4787099361419678
49, 8178, 8157, 8185, 8117, 8154, 8146, 8133, 8162, 8184, 8157, 8159, 8021, 8154, 8128,1.4787099361419678
50, 8172, 8165, 8154, 8131, 8157, 8144, 8131, 8159, 8168, 8159, 8158, 8028, 8147, 8116,1.493743658065796
51, 8163, 8156, 8141, 8130, 8160, 8142, 8132, 8154, 8151, 8143, 8149, 8015, 8136, 8104,1.509864330291748
52, 8154, 8164, 8176, 8134, 8169, 8150, 8134, 8162, 8145, 8141, 8145, 8015, 8132, 8105,1.509864330291748
53, 8151, 8168, 8145, 8156, 8179, 8152, 8139, 8157, 8159, 8152, 8149, 8006, 8122, 8113,1.509864330291748
54, 8151, 8164, 8169, 8148, 8169, 8151, 8126, 8160, 8145, 8137, 8140, 8002, 8098, 8108,1.5249440670013428
55, 8145, 8159, 8150, 8152, 8168, 8161, 8138, 8165, 8151, 8145, 8144, 7995, 8100, 8095,1.540841817855835
56, 8140, 8148, 8141, 8158, 8169, 8161, 8153, 8165, 8154, 8152, 8137, 8000, 8106, 8101,1.540841817855835
57, 8137, 8141, 8161, 8152, 8162, 8162, 8154, 8167, 8143, 8144, 8119, 8010, 8098, 8109,1.540841817855835
58, 8134, 8141, 8121, 8154, 8154, 8164, 8160, 8156, 8141, 8155, 8127, 7985, 8096, 8105,1.5570731163024902
59, 8138, 8138, 8151, 8137, 8148, 8161, 8151, 8163, 8138, 8160, 8134, 7994, 8099, 8110,1.5570731163024902
60, 8140, 8124, 8134, 8126, 8148, 8169, 8151, 8172, 8161, 8174, 8135, 8006, 8111, 8119,1.572723150253296
61, 8143, 8127, 8120, 8129, 8143, 8168, 8164, 8171, 8181, 8188, 8141, 7999, 8125, 8135,1.572723150253296
62, 8146, 8138, 8163, 8133, 8135, 8158, 8169, 8174, 8181, 8186, 8152, 8009, 8135, 8138,1.587660312652588
63, 8153, 8130, 8125, 8131, 8136, 8148, 8163, 8165, 8184, 8185, 8157, 8012, 8148, 8120,1.5886452198028564
64, 8165, 8136, 8151, 8116, 8139, 8151, 8143, 8162, 8174, 8174, 8156, 8036, 8141, 8127,1.60365891456604
65, 8164, 8157, 8157, 8136, 8147, 8165, 8143, 8165, 8170, 8174, 8174, 8045, 8134, 8138,1.60365891456604
66, 8167, 8164, 8148, 8153, 8159, 8154, 8143, 8165, 8161, 8176, 8190, 8043, 8150, 8129,1.6201505661010742
67, 8186, 8178, 8194, 8147, 8167, 8151, 8129, 8170, 8158, 8178, 8201, 8067, 8157, 8127,1.6201505661010742
68, 8173, 8175, 8158, 8157, 8162, 8159, 8133, 8162, 8170, 8180, 8189, 8043, 8137, 8123,1.6343085765838623
69, 8139, 8145, 8153, 8152, 8143, 8161, 8131, 8165, 8156, 8162, 8149, 8017, 8102, 8118,1.6497583389282227
70, 8131, 8145, 8146, 8152, 8146, 8179, 8151, 8176, 8156, 8174, 8152, 8022, 8107, 8123,1.6497583389282227
71, 8151, 8157, 8140, 8158, 8158, 8184, 8172, 8172, 8168, 8195, 8175, 8033, 8128, 8128,1.6649377346038818
72, 8157, 8143, 8176, 8143, 8144, 8183, 8154, 8173, 8171, 8182, 8160, 8040, 8118, 8128,1.6649377346038818
73, 8134, 8122, 8121, 8129, 8134, 8169, 8151, 8174, 8187, 8190, 8146, 8014, 8116, 8117,1.681006908416748
74, 8127, 8127, 8131, 8126, 8141, 8151, 8150, 8177, 8192, 8199, 8149, 8022, 8121, 8112,1.681006908416748
75, 8144, 8144, 8156, 8144, 8153, 8161, 8147, 8174, 8197, 8209, 8165, 8049, 8137, 8124,1.6967549324035645
76, 8154, 8132, 8127, 8145, 8146, 8156, 8133, 8163, 8196, 8212, 8175, 8048, 8151, 8132,1.6967549324035645
77, 8145, 8123, 8151, 8120, 8132, 8146, 8120, 8167, 8173, 8180, 8164, 8051, 8134, 8125,1.7118051052093506
78, 8137, 8125, 8123, 8117, 8138, 8147, 8143, 8160, 8174, 8171, 8160, 8033, 8129, 8102,1.7118051052093506
79, 8146, 8129, 8135, 8112, 8142, 8145, 8133, 8157, 8175, 8158, 8163, 8040, 8132, 8096,1.7271535396575928
80, 8147, 8143, 8149, 8113, 8137, 8155, 8122, 8166, 8173, 8144, 8174, 8064, 8131, 8109,1.7275276184082031
81, 8145, 8149, 8127, 8123, 8135, 8140, 8126, 8159, 8169, 8159, 8182, 8061, 8128, 8106,1.7428498268127441
82, 8160, 8158, 8181, 8123, 8138, 8127, 8113, 8160, 8148, 8159, 8175, 8068, 8122, 8101,1.7428498268127441
83, 8160, 8165, 8157, 8152, 8150, 8152, 8115, 8160, 8149, 8161, 8175, 8066, 8127, 8109,1.7579443454742432
84, 8151, 8163, 8149, 8168, 8156, 8169, 8116, 8160, 8134, 8153, 8168, 8066, 8118, 8111,1.7579443454742432
85, 8144, 8168, 8174, 8151, 8153, 8160, 8131, 8165, 8109, 8146, 8160, 8060, 8114, 8103,1.7730960845947266
86, 8140, 8152, 8138, 8141, 8149, 8151, 8152, 8161, 8125, 8162, 8159, 8046, 8128, 8101,1.7730960845947266
87, 8142, 8135, 8159, 8140, 8142, 8164, 8152, 8165, 8132, 8159, 8138, 8051, 8114, 8106,1.7887189388275146
88, 8138, 8142, 8137, 8169, 8145, 8171, 8155, 8161, 8134, 8154, 8120, 8038, 8097, 8100,1.7887189388275146
89, 8142, 8153, 8143, 8177, 8156, 8166, 8152, 8165, 8137, 8157, 8126, 8041, 8103, 8106,1.8038177490234375
90, 8151, 8151, 8176, 8153, 8161, 8179, 8157, 8178, 8149, 8167, 8132, 8068, 8122, 8124,1.8038177490234375
91, 8156, 8139, 8138, 8154, 8153, 8184, 8164, 8166, 8160, 8180, 8137, 8074, 8130, 8124,1.818962574005127
92, 8170, 8150, 8175, 8159, 8146, 8174, 8157, 8163, 8140, 8173, 8153, 8092, 8131, 8133,1.818962574005127
93, 8171, 8152, 8162, 8160, 8149, 8168, 8154, 8161, 8152, 8177, 8168, 8099, 8153, 8141,1.834585189819336
94, 8167, 8140, 8139, 8138, 8142, 8158, 8145, 8156, 8178, 8169, 8161, 8103, 8158, 8133,1.834585189819336
95, 8166, 8151, 8171, 8123, 8133, 8153, 8142, 8167, 8183, 8161, 8157, 8113, 8145, 8123,1.8502278327941895
96, 8165, 8154, 8137, 8142, 8140, 8149, 8147, 8165, 8176, 8163, 8173, 8102, 8147, 8112,1.8502278327941895
97, 8178, 8153, 8171, 8135, 8140, 8139, 8137, 8160, 8148, 8136, 8175, 8119, 8149, 8119,1.8659071922302246
98, 8182, 8157, 8182, 8158, 8144, 8145, 8141, 8165, 8151, 8137, 8187, 8144, 8160, 8129,1.8659071922302246
99, 8181, 8163, 8175, 8191, 8160, 8164, 8152, 8174, 8155, 8153, 8206, 8156, 8164, 8124,1.8817126750946045
100, 8190, 8176, 8213, 8197, 8159, 8174, 8165, 8177, 8142, 8146, 8213, 8167, 8156, 8122,1.8817126750946045
101, 8200, 8175, 8195, 8216, 8152, 8158, 8177, 8160, 8150, 8144, 8230, 8164, 8157, 8129,1.8972604274749756
102, 8204, 8181, 8235, 8231, 8138, 8151, 8151, 8158, 8149, 8141, 8235, 8193, 8162, 8144,1.8972604274749756
103, 8209, 8192, 8239, 8271, 8133, 8165, 8140, 8163, 8147, 8148, 8235, 8215, 8173, 8150,1.9129762649536133
104, 8227, 8190, 8231, 8298, 8137, 8155, 8158, 8159, 8138, 8152, 8242, 8217, 8184, 8165,1.9129762649536133
105, 8241, 8190, 8278, 8285, 8137, 8144, 8161, 8167, 8132, 8161, 8254, 8239, 8203, 8189,1.928586483001709
106, 8237, 8179, 8229, 8278, 8136, 8148, 8161, 8165, 8163, 8181, 8265, 8233, 8223, 8188,1.928586483001709
107, 8237, 8182, 8247, 8271, 8129, 8149, 8149, 8159, 8163, 8160, 8249, 8241, 8215, 8181,1.9446766376495361
108, 8253, 8208, 8274, 8282, 8139, 8145, 8152, 8151, 8146, 8144, 8251, 8258, 8211, 8179,1.9446766376495361
109, 8260, 8198, 8251, 8275, 8144, 8129, 8141, 8145, 8139, 8128, 8261, 8252, 8203, 8173,1.9598283767700195
110, 8243, 8177, 8277, 8248, 8127, 8131, 8103, 8156, 8122, 8100, 8245, 8258, 8180, 8157,1.9598283767700195
111, 8228, 8179, 8242, 8258, 8133, 8142, 8104, 8154, 8124, 8117, 8246, 8243, 8185, 8139,1.974982738494873
112, 8231, 8192, 8261, 8265, 8140, 8137, 8114, 8155, 8120, 8126, 8247, 8241, 8191, 8143,1.974982738494873
113, 8225, 8193, 8275, 8267, 8132, 8135, 8106, 8156, 8122, 8112, 8239, 8250, 8175, 8143,1.9905896186828613
114, 8217, 8191, 8244, 8273, 8135, 8142, 8113, 8150, 8141, 8114, 8230, 8237, 8166, 8138,1.9905896186828613
115, 8217, 8201, 8275, 8278, 8139, 8146, 8131, 8158, 8136, 8115, 8208, 8233, 8158, 8137,2.011695384979248
116, 8198, 8181, 8225, 8282, 8133, 8141, 8143, 8153, 8131, 8110, 8179, 8190, 8138, 8112,2.0126917362213135
117, 8179, 8152, 8222, 8263, 8122, 8138, 8118, 8148, 8130, 8099, 8153, 8164, 8117, 8096,2.02227783203125
118, 8175, 8159, 8240, 8270, 8128, 8152, 8114, 8156, 8128, 8108, 8145, 8178, 8118, 8105,2.02227783203125
119, 8181, 8167, 8203, 8289, 8134, 8151, 8135, 8152, 8129, 8122, 8142, 8172, 8125, 8105,2.037733554840088
120, 8198, 8169, 8242, 8267, 8128, 8149, 8132, 8159, 8141, 8117, 8146, 8189, 8131, 8112,2.037733554840088
121, 8209, 8180, 8222, 8262, 8131, 8157, 8143, 8163, 8167, 8126, 8177, 8212, 8155, 8141,2.0527901649475098
122, 8214, 8181, 8209, 8257, 8130, 8153, 8148, 8162, 8157, 8130, 8184, 8215, 8154, 8149,2.0527901649475098
123, 8208, 8171, 8210, 8236, 8128, 8160, 8145, 8168, 8156, 8135, 8171, 8195, 8141, 8124,2.0681545734405518
124, 8192, 8160, 8170, 8222, 8133, 8154, 8148, 8162, 8170, 8147, 8172, 8175, 8153, 8109,2.0836822986602783
125, 8183, 8157, 8208, 8206, 8131, 8137, 8126, 8162, 8149, 8131, 8171, 8196, 8159, 8116,2.0836822986602783
126, 8178, 8153, 8184, 8203, 8120, 8137, 8112, 8160, 8139, 8121, 8180, 8190, 8164, 8114,2.098982334136963
127, 8179, 8153, 8176, 8184, 8110, 8131, 8117, 8158, 8130, 8110, 8185, 8175, 8159, 8103,2.098982334136963
237, 8179, 8160, 8209, 8156, 8118, 8142, 8129, 8167, 8126, 8109, 8180, 8178, 8142, 8105,2.11428165435791
0, 8163, 8150, 8166, 8158, 8120, 8156, 8138, 8161, 8136, 8134, 8169, 8148, 8135, 8105,2.11428165435791
1, 8152, 8142, 8185, 8159, 8121, 8160, 8140, 8157, 8118, 8133, 8140, 8129, 8124, 8091,2.129944324493408
2, 8143, 8143, 8169, 8159, 8144, 8175, 8165, 8160, 8116, 8148, 8137, 8116, 8130, 8083,2.129944324493408
3, 8145, 8132, 8158, 8149, 8154, 8178, 8163, 8166, 8142, 8180, 8151, 8124, 8151, 8096,2.1460371017456055
4, 8159, 8130, 8187, 8134, 8141, 8178, 8148, 8174, 8167, 8183, 8154, 8152, 8164, 8117,2.1460371017456055
5, 8163, 8128, 8148, 8120, 8126, 8165, 8157, 8167, 8177, 8177, 8163, 8142, 8181, 8116,2.161952257156372
6, 8166, 8123, 8174, 8084, 8115, 8147, 8140, 8164, 8157, 8141, 8162, 8140, 8167, 8105,2.161952257156372
7, 8164, 8137, 8171, 8092, 8120, 8153, 8135, 8154, 8129, 8115, 8143, 8140, 8141, 8095,2.1776347160339355
8, 8157, 8154, 8156, 8126, 8141, 8177, 8152, 8150, 8108, 8130, 8136, 8134, 8146, 8098,2.1776347160339355
9, 8142, 8157, 8180, 8124, 8152, 8200, 8158, 8166, 8114, 8154, 8139, 8128, 8157, 8096,2.1927855014801025
10, 8120, 8133, 8130, 8112, 8153, 8187, 8160, 8164, 8151, 8174, 8127, 8093, 8150, 8077,2.1927855014801025
11, 8126, 8114, 8145, 8095, 8138, 8182, 8160, 8166, 8171, 8175, 8111, 8096, 8141, 8085,2.207973003387451
12, 8143, 8125, 8147, 8095, 8124, 8197, 8181, 8173, 8183, 8188, 8122, 8114, 8167, 8113,2.207973003387451
13, 8143, 8127, 8131, 8099, 8119, 8180, 8186, 8171, 8182, 8179, 8125, 8107, 8171, 8112,2.2235798835754395
14, 8133, 8126, 8169, 8087, 8116, 8167, 8179, 8180, 8166, 8149, 8105, 8102, 8144, 8101,2.2235798835754395
15, 8135, 8119, 8133, 8085, 8123, 8168, 8187, 8179, 8174, 8154, 8102, 8090, 8155, 8101,2.238973617553711
16, 8145, 8121, 8148, 8079, 8130, 8168, 8181, 8178, 8168, 8161, 8118, 8109, 8169, 8110,2.238973617553711
17, 8142, 8129, 8154, 8081, 8140, 8171, 8190, 8177, 8165, 8169, 8137, 8125, 8173, 8112,2.254176616668701
18, 8136, 8110, 8124, 8069, 8141, 8161, 8182, 8168, 8176, 8154, 8123, 8110, 8161, 8103,2.254176616668701
19, 8127, 8107, 8157, 8044, 8124, 8159, 8150, 8174, 8165, 8124, 8094, 8100, 8134, 8083,2.269655466079712
20, 8113, 8112, 8119, 8047, 8124, 8162, 8158, 8175, 8182, 8144, 8097, 8079, 8129, 8055,2.269655466079712
21, 8118, 8111, 8133, 8037, 8132, 8150, 8174, 8171, 8193, 8147, 8098, 8079, 8127, 8054,2.28572154045105
22, 8122, 8110, 8157, 8036, 8132, 8144, 8178, 8165, 8181, 8124, 8086, 8085, 8127, 8066,2.28572154045105
23, 8117, 8110, 8118, 8049, 8130, 8150, 8172, 8157, 8166, 8124, 8089, 8081, 8124, 8063,2.3009212017059326
24, 8118, 8136, 8153, 8042, 8136, 8162, 8167, 8167, 8141, 8139, 8108, 8100, 8126, 8063,2.3009212017059326
25, 8115, 8139, 8136, 8051, 8149, 8161, 8170, 8169, 8143, 8148, 8117, 8097, 8145, 8061,2.31858491897583
26, 8115, 8121, 8143, 8055, 8142, 8156, 8157, 8165, 8139, 8123, 8094, 8089, 8129, 8057,2.31858491897583
27, 8113, 8140, 8157, 8066, 8139, 8163, 8164, 8169, 8134, 8119, 8087, 8097, 8110, 8055,2.3316092491149902
28, 8109, 8158, 8122, 8076, 8150, 8153, 8178, 8169, 8147, 8146, 8110, 8087, 8127, 8049,2.3316092491149902
29, 8105, 8146, 8161, 8058, 8142, 8145, 8164, 8175, 8153, 8144, 8107, 8088, 8132, 8052,2.3471553325653076
30, 8109, 8143, 8147, 8074, 8138, 8156, 8164, 8174, 8181, 8143, 8107, 8093, 8126, 8063,2.3471553325653076
31, 8129, 8164, 8161, 8094, 8140, 8156, 8173, 8172, 8182, 8148, 8116, 8110, 8133, 8080,2.3626697063446045
32, 8132, 8171, 8190, 8099, 8147, 8165, 8181, 8179, 8166, 8172, 8122, 8125, 8151, 8092,2.3626697063446045
33, 8118, 8144, 8142, 8105, 8164, 8173, 8200, 8170, 8186, 8194, 8126, 8103, 8149, 8083,2.3787102699279785
34, 8118, 8130, 8165, 8089, 8159, 8176, 8195, 8166, 8184, 8170, 8104, 8096, 8124, 8075,2.3787102699279785
35, 8117, 8134, 8144, 8096, 8153, 8184, 8184, 8170, 8165, 8172, 8093, 8095, 8129, 8072,2.394721031188965
36, 8116, 8135, 8148, 8103, 8156, 8172, 8190, 8172, 8157, 8182, 8100, 8104, 8143, 8080,2.394721031188965
37, 8120, 8136, 8187, 8100, 8156, 8176, 8204, 8174, 8167, 8173, 8100, 8124, 8139, 8090,2.4107515811920166
38, 8120, 8122, 8133, 8098, 8145, 8179, 8202, 8160, 8164, 8170, 8086, 8103, 8129, 8078,2.4107515811920166
39, 8124, 8120, 8153, 8083, 8135, 8164, 8180, 8167, 8142, 8169, 8064, 8109, 8121, 8078,2.4268171787261963
40, 8134, 8131, 8151, 8099, 8148, 8167, 8189, 8172, 8159, 8178, 8075, 8120, 8140, 8091,2.4268171787261963
41, 8143, 8128, 8147, 8107, 8151, 8169, 8198, 8165, 8168, 8168, 8084, 8116, 8152, 8097,2.4428389072418213
42, 8144, 8130, 8176, 8096, 8136, 8165, 8183, 8176, 8164, 8161, 8090, 8137, 8154, 8108,2.4428389072418213
43, 8143, 8126, 8133, 8082, 8122, 8154, 8172, 8175, 8165, 8170, 8114, 8136, 8171, 8104,2.458113431930542
44, 8154, 8118, 8165, 8067, 8116, 8144, 8149, 8167, 8139, 8148, 8119, 8144, 8169, 8094,2.458113431930542
45, 8161, 8132, 8171, 8093, 8127, 8142, 8149, 8164, 8140, 8151, 8135, 8160, 8165, 8098,2.4739816188812256
46, 8161, 8158, 8163, 8103, 8141, 8138, 8162, 8167, 8153, 8175, 8158, 8168, 8177, 8107,2.4739816188812256
47, 8156, 8171, 8201, 8100, 8154, 8151, 8164, 8170, 8145, 8168, 8154, 8170, 8165, 8094,2.4896867275238037
48, 8145, 8160, 8165, 8130, 8158, 8160, 8165, 8154, 8134, 8158, 8135, 8141, 8142, 8073,2.4896867275238037
49, 8144, 8149, 8191, 8143, 8157, 8166, 8157, 8160, 8128, 8161, 8123, 8144, 8139, 8081,2.5057361125946045
50, 8142, 8149, 8188, 8137, 8166, 8191, 8175, 8175, 8144, 8183, 8135, 8156, 8158, 8100,2.5057361125946045
51, 8141, 8142, 8153, 8132, 8161, 8195, 8190, 8164, 8144, 8195, 8141, 8150, 8165, 8110,2.521580219268799
52, 8147, 8142, 8187, 8128, 8149, 8184, 8181, 8165, 8139, 8189, 8136, 8164, 8167, 8116,2.521580219268799
53, 8151, 8142, 8157, 8125, 8155, 8187, 8190, 8176, 8180, 8204, 8147, 8173, 8191, 8124,2.536621332168579
54, 8157, 8148, 8165, 8111, 8156, 8186, 8190, 8183, 8191, 8206, 8149, 8186, 8191, 8131,2.536621332168579
55, 8152, 8143, 8163, 8100, 8142, 8175, 8185, 8168, 8171, 8184, 8129, 8166, 8170, 8115,2.5522537231445312
56, 8148, 8131, 8141, 8109, 8137, 8158, 8171, 8153, 8166, 8160, 8116, 8149, 8170, 8105,2.5522537231445312
57, 8159, 8154, 8189, 8115, 8144, 8157, 8155, 8167, 8159, 8149, 8134, 8190, 8178, 8118,2.56789231300354
58, 8150, 8161, 8147, 8106, 8150, 8150, 8172, 8165, 8156, 8168, 8144, 8180, 8171, 8108,2.56789231300354
59, 8146, 8143, 8147, 8094, 8144, 8126, 8174, 8159, 8148, 8160, 8127, 8158, 8149, 8094,2.5830278396606445
60, 8163, 8154, 8176, 8106, 8138, 8136, 8168, 8169, 8161, 8146, 8141, 8178, 8152, 8105,2.5830278396606445
61, 8161, 8169, 8150, 8124, 8147, 8158, 8169, 8170, 8167, 8166, 8161, 8178, 8157, 8107,2.599039316177368
62, 8147, 8165, 8174, 8122, 8155, 8160, 8165, 8168, 8140, 8161, 8139, 8160, 8139, 8093,2.599039316177368
63, 8136, 8154, 8144, 8130, 8154, 8148, 8165, 8161, 8143, 8141, 8121, 8141, 8134, 8081,2.6146085262298584
64, 8134, 8149, 8154, 8124, 8145, 8147, 8153, 8163, 8146, 8133, 8119, 8159, 8126, 8085,2.6146085262298584
65, 8132, 8147, 8171, 8125, 8141, 8160, 8163, 8169, 8139, 8147, 8119, 8167, 8122, 8094,2.6297271251678467
66, 8125, 8137, 8127, 8134, 8148, 8149, 8172, 8163, 8141, 8162, 8125, 8143, 8128, 8092,2.6297271251678467
67, 8131, 8141, 8165, 8124, 8146, 8152, 8154, 8164, 8130, 8149, 8127, 8148, 8116, 8091,2.6449179649353027
68, 8126, 8139, 8144, 8141, 8143, 8173, 8158, 8156, 8127, 8162, 8115, 8131, 8109, 8087,2.6449179649353027
69, 8123, 8113, 8134, 8133, 8136, 8169, 8159, 8157, 8130, 8171, 8104, 8126, 8117, 8090,2.6606314182281494
70, 8130, 8109, 8161, 8107, 8130, 8173, 8156, 8168, 8136, 8175, 8119, 8153, 8135, 8104,2.6606314182281494
71, 8133, 8121, 8141, 8130, 8143, 8181, 8168, 8160, 8144, 8189, 8127, 8152, 8144, 8112,2.6767613887786865
72, 8138, 8135, 8186, 8144, 8148, 8174, 8169, 8165, 8135, 8178, 8110, 8155, 8130, 8120,2.6767613887786865
73, 8133, 8139, 8159, 8135, 8144, 8159, 8173, 8171, 8151, 8186, 8120, 8146, 8133, 8117,2.6928153038024902
74, 8129, 8123, 8137, 8110, 8137, 8149, 8165, 8164, 8167, 8192, 8123, 8139, 8137, 8105,2.6928153038024902
75, 8130, 8118, 8169, 8108, 8127, 8156, 8153, 8168, 8158, 8177, 8104, 8148, 8127, 8108,2.7080025672912598
76, 8142, 8122, 8139, 8127, 8131, 8152, 8162, 8167, 8165, 8177, 8113, 8152, 8131, 8111,2.724043369293213
77, 8142, 8124, 8161, 8106, 8130, 8143, 8164, 8171, 8161, 8165, 8125, 8169, 8134, 8111,2.724043369293213
78, 8114, 8108, 8133, 8081, 8122, 8136, 8166, 8166, 8150, 8159, 8117, 8154, 8139, 8095,2.724043369293213
79, 8120, 8088, 8120, 8074, 8108, 8126, 8154, 8155, 8141, 8149, 8099, 8137, 8126, 8086,2.739616870880127
80, 8149, 8117, 8175, 8092, 8108, 8142, 8146, 8169, 8142, 8147, 8103, 8163, 8125, 8106,2.739616870880127
81, 8161, 8144, 8161, 8122, 8128, 8153, 8161, 8174, 8164, 8172, 8141, 8178, 8158, 8117,2.7559194564819336
82, 8173, 8136, 8189, 8113, 8126, 8142, 8150, 8172, 8145, 8163, 8149, 8189, 8157, 8110,2.7559194564819336
83, 8167, 8123, 8167, 8112, 8120, 8133, 8137, 8162, 8133, 8144, 8127, 8176, 8139, 8092,2.771854877471924
84, 8149, 8123, 8140, 8121, 8125, 8143, 8139, 8155, 8141, 8136, 8119, 8160, 8134, 8080,2.771854877471924
85, 8156, 8145, 8185, 8124, 8137, 8155, 8140, 8163, 8134, 8149, 8136, 8181, 8138, 8083,2.7869222164154053
86, 8177, 8150, 8152, 8140, 8147, 8146, 8141, 8163, 8147, 8176, 8159, 8188, 8150, 8086,2.7869222164154053
87, 8178, 8147, 8178, 8137, 8140, 8141, 8130, 8159, 8145, 8154, 8158, 8186, 8141, 8087,2.8030285835266113
88, 8164, 8156, 8195, 8157, 8139, 8145, 8130, 8154, 8142, 8144, 8158, 8177, 8141, 8082,2.8030285835266113
89, 8166, 8164, 8175, 8184, 8146, 8132, 8133, 8159, 8137, 8161, 8165, 8173, 8151, 8085,2.818713903427124
90, 8178, 8174, 8209, 8177, 8152, 8136, 8137, 8167, 8127, 8164, 8157, 8190, 8153, 8097,2.818713903427124
91, 8168, 8166, 8170, 8176, 8158, 8154, 8151, 8153, 8143, 8172, 8154, 8176, 8143, 8091,2.8338778018951416
92, 8152, 8163, 8183, 8161, 8150, 8144, 8136, 8152, 8121, 8157, 8145, 8170, 8125, 8080,2.8338778018951416
93, 8155, 8172, 8197, 8176, 8139, 8139, 8127, 8160, 8108, 8152, 8149, 8182, 8135, 8085,2.8495547771453857
94, 8174, 8174, 8173, 8217, 8136, 8145, 8141, 8151, 8132, 8177, 8158, 8177, 8154, 8099,2.8495547771453857
95, 8185, 8176, 8209, 8216, 8140, 8155, 8149, 8162, 8143, 8188, 8148, 8187, 8158, 8114,2.864896297454834
96, 8176, 8174, 8170, 8201, 8162, 8162, 8160, 8171, 8153, 8190, 8154, 8186, 8170, 8115,2.864896297454834
97, 8166, 8168, 8178, 8182, 8171, 8148, 8157, 8163, 8143, 8182, 8159, 8174, 8173, 8106,2.880471706390381
98, 8162, 8163, 8195, 8177, 8168, 8153, 8161, 8166, 8151, 8184, 8154, 8173, 8168, 8102,2.880471706390381
99, 8166, 8167, 8161, 8194, 8182, 8171, 8183, 8170, 8169, 8199, 8159, 8176, 8176, 8113,2.897918939590454
100, 8176, 8183, 8204, 8205, 8195, 8166, 8181, 8176, 8166, 8204, 8162, 8202, 8189, 8131,2.897918939590454
101, 8178, 8175, 8183, 8215, 8191, 8150, 8173, 8169, 8178, 8213, 8165, 8194, 8195, 8130,2.9115681648254395
102, 8184, 8167, 8186, 8206, 8173, 8148, 8165, 8169, 8187, 8211, 8168, 8194, 8196, 8132,2.9125688076019287
103, 8194, 8191, 8202, 8200, 8168, 8161, 8171, 8178, 8190, 8215, 8185, 8221, 8205, 8143,2.9267680644989014
104, 8190, 8197, 8168, 8190, 8174, 8151, 8180, 8164, 8190, 8215, 8182, 8209, 8211, 8135,2.942147970199585
105, 8188, 8184, 8205, 8168, 8163, 8142, 8166, 8164, 8181, 8180, 8159, 8209, 8198, 8127,2.942147970199585
106, 8194, 8178, 8171, 8173, 8161, 8148, 8166, 8167, 8188, 8170, 8167, 8207, 8191, 8125,2.957294464111328
107, 8197, 8179, 8163, 8175, 8163, 8138, 8150, 8166, 8182, 8184, 8178, 8215, 8191, 8125,2.957294464111328
108, 8199, 8192, 8198, 8188, 8170, 8139, 8140, 8169, 8174, 8192, 8186, 8235, 8199, 8126,2.9728612899780273
109, 8208, 8203, 8170, 8215, 8180, 8145, 8163, 8160, 8187, 8191, 8205, 8230, 8211, 8122,2.9728612899780273
110, 8225, 8214, 8214, 8217, 8184, 8155, 8160, 8164, 8184, 8184, 8220, 8253, 8204, 8134,2.9880218505859375
111, 8225, 8210, 8210, 8214, 8187, 8162, 8160, 8169, 8174, 8196, 8235, 8254, 8217, 8140,2.9880218505859375
112, 8211, 8182, 8194, 8191, 8178, 8145, 8156, 8164, 8152, 8183, 8223, 8234, 8218, 8119,3.0036191940307617
113, 8201, 8179, 8212, 8181, 8175, 8147, 8149, 8161, 8153, 8163, 8200, 8231, 8189, 8104,3.0036191940307617
114, 8200, 8191, 8173, 8202, 8187, 8160, 8162, 8159, 8183, 8184, 8195, 8226, 8183, 8110,3.01875638961792
115, 8204, 8195, 8204, 8188, 8183, 8159, 8159, 8166, 8172, 8187, 8195, 8236, 8190, 8116,3.01875638961792
116, 8198, 8198, 8205, 8188, 8184, 8159, 8162, 8161, 8160, 8179, 8199, 8221, 8189, 8104,3.034287214279175
117, 8197, 8199, 8196, 8222, 8198, 8169, 8166, 8157, 8159, 8182, 8184, 8211, 8173, 8104,3.034287214279175
118, 8204, 8199, 8221, 8234, 8199, 8191, 8166, 8167, 8145, 8181, 8165, 8220, 8155, 8114,3.049440383911133
119, 8196, 8186, 8171, 8223, 8192, 8184, 8180, 8160, 8148, 8173, 8159, 8187, 8155, 8107,3.049440383911133
120, 8189, 8174, 8193, 8201, 8193, 8174, 8186, 8168, 8160, 8175, 8157, 8188, 8158, 8111,3.0650501251220703
121, 8188, 8174, 8183, 8190, 8192, 8189, 8197, 8178, 8185, 8214, 8164, 8203, 8170, 8116,3.0650501251220703
122, 8184, 8164, 8148, 8188, 8178, 8186, 8196, 8169, 8190, 8219, 8158, 8186, 8164, 8110,3.0809576511383057
123, 8177, 8164, 8184, 8180, 8173, 8185, 8192, 8165, 8169, 8179, 8136, 8180, 8148, 8112,3.0809576511383057
124, 8176, 8158, 8155, 8177, 8180, 8181, 8201, 8160, 8171, 8184, 8132, 8178, 8159, 8112,3.096935987472534
125, 8186, 8142, 8166, 8151, 8174, 8174, 8184, 8169, 8176, 8196, 8135, 8192, 8168, 8119,3.096935987472534
126, 8182, 8143, 8158, 8145, 8172, 8181, 8186, 8177, 8188, 8202, 8140, 8191, 8179, 8131,3.1122405529022217
127, 8178, 8149, 8134, 8154, 8163, 8166, 8203, 8166, 8201, 8203, 8146, 8187, 8187, 8126,3.1122405529022217
237, 8183, 8162, 8179, 8142, 8149, 8161, 8195, 8168, 8198, 8177, 8141, 8206, 8173, 8115,3.128092050552368
0, 8178, 8159, 8138, 8154, 8168, 8176, 8185, 8170, 8191, 8169, 8138, 8191, 8170, 8104,3.128092050552368
1, 8175, 8148, 8139, 8149, 8183, 8172, 8179, 8163, 8163, 8166, 8136, 8181, 8167, 8100,3.1430182456970215
2, 8173, 8145, 8155, 8135, 8175, 8169, 8199, 8160, 8157, 8168, 8133, 8185, 8169, 8105,3.1430182456970215
3, 8172, 8139, 8137, 8137, 8174, 8167, 8207, 8158, 8166, 8162, 8133, 8179, 8173, 8101,3.159104108810425
4, 8174, 8161, 8172, 8133, 8174, 8169, 8192, 8169, 8149, 8129, 8125, 8188, 8153, 8091,3.159104108810425
5, 8163, 8176, 8138, 8147, 8183, 8179, 8211, 8170, 8158, 8146, 8126, 8175, 8148, 8091,3.1746268272399902
6, 8159, 8159, 8157, 8148, 8199, 8188, 8218, 8170, 8168, 8168, 8117, 8165, 8148, 8105,3.1746268272399902
7, 8161, 8152, 8177, 8158, 8213, 8199, 8219, 8174, 8165, 8165, 8099, 8166, 8137, 8107,3.1907107830047607
8, 8159, 8151, 8135, 8171, 8210, 8200, 8233, 8172, 8182, 8178, 8095, 8154, 8138, 8106,3.1907107830047607
9, 8155, 8141, 8170, 8142, 8187, 8200, 8228, 8183, 8192, 8183, 8087, 8168, 8153, 8118,3.206719160079956
10, 8148, 8130, 8143, 8129, 8182, 8195, 8223, 8174, 8196, 8187, 8084, 8170, 8158, 8114,3.206719160079956
11, 8158, 8137, 8146, 8133, 8192, 8179, 8217, 8161, 8195, 8170, 8089, 8170, 8140, 8112,3.2218732833862305
12, 8163, 8151, 8174, 8136, 8183, 8172, 8209, 8173, 8194, 8163, 8100, 8184, 8148, 8116,3.2218732833862305
13, 8159, 8138, 8132, 8121, 8166, 8162, 8201, 8172, 8191, 8171, 8114, 8179, 8162, 8115,3.2373650074005127
14, 8170, 8140, 8166, 8105, 8171, 8157, 8191, 8170, 8179, 8159, 8117, 8193, 8150, 8128,3.2373650074005127
15, 8177, 8150, 8155, 8130, 8188, 8166, 8193, 8169, 8189, 8166, 8120, 8199, 8161, 8125,3.2531487941741943
16, 8174, 8149, 8153, 8128, 8186, 8167, 8188, 8168, 8171, 8161, 8119, 8198, 8169, 8108,3.2531487941741943
17, 8163, 8154, 8176, 8110, 8182, 8169, 8192, 8163, 8141, 8144, 8126, 8206, 8159, 8108,3.268583297729492
18, 8165, 8158, 8145, 8130, 8186, 8170, 8199, 8149, 8153, 8140, 8132, 8198, 8149, 8112,3.268583297729492
19, 8191, 8189, 8206, 8159, 8188, 8172, 8190, 8164, 8159, 8144, 8129, 8216, 8154, 8122,3.284031867980957
20, 8193, 8208, 8202, 8177, 8200, 8178, 8205, 8174, 8172, 8168, 8146, 8214, 8181, 8126,3.284031867980957
21, 8168, 8186, 8172, 8165, 8200, 8184, 8217, 8168, 8170, 8162, 8138, 8184, 8182, 8118,3.299105405807495
22, 8163, 8180, 8201, 8167, 8200, 8199, 8216, 8173, 8169, 8163, 8115, 8190, 8178, 8114,3.299105405807495
23, 8178, 8183, 8175, 8194, 8208, 8203, 8226, 8169, 8195, 8187, 8125, 8201, 8190, 8119,3.3158187866210938
24, 8172, 8172, 8190, 8174, 8203, 8198, 8230, 8173, 8190, 8176, 8127, 8202, 8174, 8128,3.3158187866210938
25, 8162, 8163, 8166, 8155, 8209, 8202, 8237, 8177, 8206, 8176, 8126, 8186, 8164, 8132,3.3312838077545166
26, 8175, 8168, 8154, 8162, 8206, 8196, 8231, 8178, 8227, 8191, 8124, 8188, 8159, 8135,3.3312838077545166
27, 8181, 8168, 8186, 8165, 8184, 8196, 8223, 8180, 8217, 8191, 8122, 8205, 8173, 8138,3.3468964099884033
28, 8175, 8160, 8144, 8169, 8187, 8186, 8227, 8169, 8216, 8190, 8137, 8197, 8287, 8132,3.3468964099884033
29, 8185, 8166, 8173, 8156, 8194, 8155, 8212, 8171, 8205, 8182, 8150, 8216, 8408, 8131,3.362048387527466
30, 8193, 8162, 8165, 8151, 8182, 8151, 8207, 8168, 8200, 8182, 8157, 8221, 8413, 8131,3.362048387527466
31, 8186, 8158, 8136, 8143, 8169, 8143, 8194, 8155, 8180, 8171, 8157, 8203, 8380, 8127,3.3776042461395264
32, 8186, 8189, 8190, 8143, 8180, 8134, 8165, 8167, 8163, 8158, 8166, 8221, 8379, 8123,3.3776042461395264
33, 8190, 8206, 8171, 8177, 8200, 8152, 8178, 8173, 8187, 8178, 8172, 8213, 8365, 8120,3.3931498527526855
34, 8191, 8194, 8186, 8187, 8200, 8174, 8198, 8176, 8200, 8191, 8149, 8203, 8334, 8133,3.3931498527526855
35, 8192, 8191, 8185, 8188, 8198, 8195, 8215, 8181, 8211, 8205, 8150, 8211, 8337, 8144,3.408396005630493
36, 8190, 8182, 8158, 8179, 8195, 8196, 8231, 8175, 8220, 8221, 8163, 8213, 8342, 8141,3.408396005630493
37, 8182, 8172, 8191, 8154, 8186, 8188, 8222, 8177, 8216, 8203, 8155, 8228, 8327, 8143,3.4244792461395264
38, 8179, 8180, 8154, 8156, 8185, 8174, 8211, 8171, 8213, 8194, 8166, 8222, 8324, 8144,3.4244792461395264
39, 8198, 8198, 8173, 8163, 8190, 8156, 8194, 8167, 8207, 8194, 8183, 8234, 8319, 8142,3.443077802658081
40, 8215, 8219, 8203, 8184, 8203, 8164, 8199, 8170, 8213, 8200, 8199, 8251, 8320, 8140,3.455993175506592
41, 8221, 8227, 8184, 8201, 8215, 8166, 8213, 8167, 8209, 8199, 8206, 8248, 8319, 8143,3.455993175506592
42, 8222, 8228, 8206, 8191, 8213, 8170, 8205, 8171, 8185, 8165, 8181, 8254, 8282, 8150,3.455993175506592
43, 8201, 8216, 8163, 8182, 8212, 8175, 8211, 8169, 8178, 8158, 8162, 8227, 8252, 8130,3.471550703048706
44, 8195, 8206, 8183, 8181, 8218, 8182, 8210, 8172, 8179, 8167, 8166, 8228, 8249, 8117,3.471550703048706
45, 8198, 8204, 8208, 8200, 8216, 8200, 8214, 8176, 8183, 8177, 8172, 8239, 8245, 8134,3.4878787994384766
46, 8185, 8189, 8163, 8209, 8203, 8190, 8220, 8169, 8186, 8194, 8164, 8208, 8233, 8142,3.4878787994384766
47, 8198, 8197, 8202, 8201, 8201, 8188, 8218, 8175, 8185, 8200, 8168, 8220, 8228, 8148,3.5029296875
48, 8217, 8214, 8194, 8223, 8218, 8200, 8247, 8176, 8214, 8220, 8193, 8242, 8248, 8164,3.5029296875
49, 8224, 8208, 8203, 8227, 8222, 8197, 8258, 8175, 8230, 8222, 8191, 8251, 8251, 8178,3.517270803451538
50, 8225, 8210, 8224, 8212, 8215, 8202, 8255, 8181, 8225, 8222, 8183, 8252, 8247, 8177,3.5328211784362793
51, 8222, 8201, 8181, 8208, 8211, 8198, 8251, 8171, 8225, 8233, 8197, 8246, 8255, 8171,3.5328211784362793
52, 8226, 8188, 8210, 8195, 8206, 8180, 8226, 8168, 8216, 8212, 8203, 8273, 8242, 8175,3.547773838043213
53, 8223, 8191, 8191, 8202, 8211, 8166, 8224, 8165, 8214, 8204, 8198, 8273, 8224, 8173,3.547773838043213
54, 8220, 8196, 8181, 8202, 8203, 8156, 8216, 8165, 8199, 8204, 8191, 8258, 8214, 8166,3.563236951828003
55, 8228, 8200, 8210, 8191, 8196, 8160, 8205, 8173, 8197, 8200, 8206, 8264, 8222, 8168,3.563236951828003
56, 8235, 8204, 8188, 8214, 8219, 8174, 8224, 8173, 8227, 8213, 8238, 8273, 8229, 8176,3.5792577266693115
57, 8230, 8217, 8223, 8228, 8224, 8191, 8235, 8181, 8217, 8209, 8230, 8282, 8203, 8182,3.5792577266693115
58, 8210, 8214, 8200, 8240, 8213, 8200, 8236, 8180, 8202, 8225, 8213, 8257, 8194, 8171,3.5958034992218018
59, 8218, 8200, 8186, 8242, 8222, 8198, 8245, 8177, 8214, 8252, 8212, 8246, 8208, 8167,3.5958034992218018
60, 8235, 8199, 8217, 8220, 8231, 8202, 8265, 8186, 8235, 8255, 8194, 8270, 8209, 8183,3.6116721630096436
61, 8227, 8189, 8174, 8211, 8218, 8189, 8251, 8179, 8247, 8250, 8199, 8273, 8208, 8184,3.6116721630096436
62, 8225, 8191, 8205, 8196, 8209, 8168, 8211, 8180, 8216, 8230, 8235, 8282, 8210, 8179,3.6267528533935547
63, 8224, 8199, 8199, 8188, 8217, 8172, 8216, 8175, 8194, 8222, 8248, 8280, 8204, 8172,3.6267528533935547
64, 8216, 8186, 8173, 8185, 8206, 8177, 8221, 8165, 8188, 8211, 8231, 8268, 8174, 8156,3.642817258834839
65, 8221, 8201, 8219, 8209, 8206, 8194, 8228, 8185, 8191, 8218, 8227, 8282, 8168, 8163,3.642817258834839
66, 8232, 8217, 8189, 8254, 8233, 8208, 8259, 8192, 8229, 8261, 8241, 8276, 8191, 8183,3.657811403274536
67, 8224, 8205, 8198, 8227, 8227, 8190, 8253, 8185, 8231, 8252, 8220, 8265, 8171, 8188,3.657811403274536
68, 8211, 8190, 8186, 8198, 8206, 8184, 8241, 8181, 8228, 8239, 8202, 8257, 8152, 8177,3.672959089279175
69, 8228, 8190, 8168, 8207, 8205, 8189, 8236, 8174, 8228, 8239, 8215, 8259, 8154, 8171,3.672959089279175
70, 8238, 8200, 8211, 8201, 8213, 8188, 8219, 8179, 8198, 8205, 8217, 8272, 8145, 8171,3.689049243927002
71, 8219, 8192, 8174, 8194, 8221, 8176, 8210, 8172, 8186, 8189, 8215, 8258, 8140, 8156,3.689049243927002
72, 8214, 8190, 8189, 8181, 8211, 8172, 8201, 8165, 8183, 8196, 8220, 8265, 8141, 8153,3.7046263217926025
73, 8217, 8207, 8199, 8192, 8207, 8180, 8213, 8168, 8189, 8217, 8240, 8273, 8152, 8155,3.7046263217926025
74, 8219, 8207, 8177, 8211, 8225, 8179, 8225, 8171, 8197, 8222, 8235, 8249, 8151, 8150,3.720580577850342
75, 8212, 8202, 8214, 8210, 8233, 8195, 8217, 8180, 8202, 8218, 8203, 8250, 8135, 8158,3.720580577850342
76, 8202, 8192, 8165, 8215, 8231, 8210, 8223, 8175, 8210, 8236, 8196, 8239, 8133, 8159,3.7357664108276367
77, 8200, 8193, 8169, 8202, 8230, 8204, 8228, 8174, 8181, 8226, 8190, 8235, 8139, 8158,3.7357664108276367
78, 8198, 8204, 8191, 8208, 8240, 8203, 8244, 8176, 8177, 8225, 8198, 8243, 8152, 8162,3.750901937484741
79, 8205, 8193, 8162, 8213, 8239, 8199, 8252, 8168, 8212, 8243, 8217, 8246, 8156, 8174,3.750901937484741
80, 8214, 8186, 8192, 8194, 8220, 8196, 8228, 8176, 8220, 8243, 8216, 8269, 8154, 8184,3.7666983604431152
81, 8206, 8184, 8167, 8192, 8220, 8194, 8225, 8174, 8220, 8245, 8217, 8255, 8164, 8172,3.7666983604431152
82, 8205, 8180, 8177, 8186, 8226, 8186, 8220, 8166, 8211, 8236, 8209, 8248, 8160, 8168,3.7826411724090576
83, 8214, 8183, 8195, 8187, 8228, 8187, 8204, 8168, 8207, 8229, 8215, 8271, 8160, 8175,3.7826411724090576
84, 8217, 8177, 8159, 8192, 8226, 8176, 8204, 8167, 8206, 8220, 8230, 8272, 8172, 8168,3.7984349727630615
85, 8212, 8180, 8194, 8178, 8219, 8165, 8198, 8175, 8185, 8206, 8228, 8282, 8166, 8158,3.7984349727630615
86, 8207, 8196, 8181, 8181, 8219, 8171, 8197, 8172, 8189, 8212, 8232, 8280, 8158, 8155,3.814055919647217
87, 8213, 8208, 8189, 8188, 8223, 8175, 8190, 8164, 8188, 8207, 8231, 8277, 8155, 8155,3.814055919647217
88, 8217, 8213, 8212, 8208, 8232, 8183, 8190, 8167, 8165, 8204, 8225, 8277, 8157, 8149,3.829747438430786
89, 8209, 8208, 8181, 8228, 8235, 8192, 8205, 8164, 8151, 8209, 8214, 8255, 8150, 8143,3.829747438430786
90, 8199, 8202, 8209, 8213, 8225, 8196, 8202, 8164, 8144, 8202, 8194, 8252, 8128, 8146,3.8459465503692627
91, 8197, 8192, 8175, 8216, 8227, 8199, 8207, 8163, 8166, 8218, 8198, 8253, 8139, 8151,3.8459465503692627
92, 8205, 8183, 8171, 8218, 8231, 8189, 8204, 8170, 8180, 8232, 8209, 8260, 8152, 8158,3.8616998195648193
93, 8210, 8186, 8200, 8194, 8225, 8192, 8199, 8173, 8184, 8229, 8206, 8266, 8140, 8166,3.8616998195648193
94, 8205, 8180, 8151, 8173, 8212, 8190, 8207, 8160, 8190, 8241, 8203, 8249, 8152, 8167,3.8769004344940186
95, 8205, 8167, 8179, 8162, 8202, 8175, 8190, 8170, 8176, 8233, 8199, 8262, 8157, 8164,3.8769004344940186
96, 8201, 8165, 8169, 8181, 8198, 8172, 8191, 8173, 8174, 8213, 8204, 8261, 8138, 8153,3.892216920852661
97, 8200, 8167, 8156, 8182, 8189, 8160, 8199, 8161, 8161, 8198, 8210, 8254, 8138, 8145,3.892216920852661
98, 8208, 8169, 8193, 8165, 8185, 8154, 8178, 8165, 8144, 8184, 8216, 8281, 8149, 8149,3.9076662063598633
99, 8202, 8173, 8161, 8184, 8186, 8147, 8160, 8158, 8149, 8187, 8231, 8283, 8153, 8146,3.9076662063598633
100, 8201, 8193, 8202, 8206, 8180, 8143, 8150, 8155, 8139, 8173, 8238, 8288, 8144, 8143,3.9228124618530273
101, 8219, 8216, 8219, 8239, 8190, 8165, 8162, 8158, 8133, 8170, 8249, 8300, 8143, 8147,3.9228124618530273
102, 8237, 8218, 8214, 8276, 8210, 8175, 8172, 8163, 8134, 8181, 8258, 8315, 8147, 8155,3.9388701915740967
103, 8242, 8223, 8257, 8294, 8219, 8192, 8187, 8177, 8137, 8189, 8266, 8334, 8157, 8169,3.9388701915740967
104, 8237, 8222, 8226, 8307, 8218, 8205, 8211, 8171, 8157, 8217, 8274, 8318, 8177, 8174,3.954133987426758
105, 8235, 8205, 8235, 8295, 8204, 8191, 8190, 8166, 8161, 8217, 8260, 8318, 8165, 8173,3.954133987426758
106, 8225, 8194, 8219, 8280, 8197, 8181, 8175, 8164, 8162, 8208, 8248, 8313, 8155, 8169,3.9700698852539062
107, 8222, 8194, 8201, 8278, 8201, 8176, 8184, 8160, 8173, 8213, 8260, 8310, 8168, 8169,3.9700698852539062
108, 8244, 8212, 8249, 8277, 8200, 8181, 8188, 8175, 8192, 8216, 8281, 8337, 8184, 8185,3.985703229904175
109, 8242, 8208, 8198, 8266, 8197, 8169, 8188, 8175, 8210, 8217, 8272, 8319, 8192, 8175,3.985703229904175
110, 8218, 8189, 8192, 8222, 8190, 8153, 8170, 8174, 8198, 8190, 8236, 8291, 8164, 8149,4.001689195632935
111, 8213, 8192, 8198, 8208, 8197, 8170, 8175, 8179, 8193, 8196, 8235, 8284, 8150, 8139,4.001689195632935
112, 8228, 8202, 8178, 8232, 8218, 8184, 8179, 8171, 8196, 8219, 8260, 8293, 8168, 8142,4.024799585342407
113, 8226, 8216, 8230, 8231, 8225, 8184, 8172, 8178, 8182, 8206, 8256, 8305, 8166, 8151,4.024799585342407
114, 8198, 8201, 8192, 8221, 8218, 8170, 8182, 8175, 8195, 8202, 8236, 8274, 8158, 8143,4.024799585342407
115, 8186, 8180, 8177, 8201, 8201, 8161, 8171, 8167, 8193, 8197, 8225, 8260, 8145, 8136,4.033268690109253
116, 8188, 8196, 8189, 8207, 8204, 8174, 8172, 8167, 8175, 8195, 8214, 8256, 8133, 8133,4.048911809921265
117, 8188, 8192, 8166, 8218, 8220, 8190, 8195, 8169, 8186, 8202, 8193, 8236, 8132, 8132,4.048911809921265
118, 8189, 8177, 8195, 8192, 8213, 8205, 8212, 8182, 8195, 8210, 8185, 8242, 8144, 8152,4.065003871917725
119, 8186, 8170, 8159, 8189, 8205, 8201, 8222, 8179, 8208, 8243, 8202, 8243, 8163, 8161,4.065003871917725
120, 8191, 8164, 8164, 8193, 8204, 8195, 8215, 8172, 8198, 8235, 8189, 8237, 8141, 8150,4.080415487289429
121, 8185, 8163, 8181, 8191, 8200, 8208, 8220, 8170, 8182, 8209, 8163, 8231, 8117, 8139,4.080415487289429
122, 8173, 8155, 8132, 8183, 8195, 8193, 8215, 8167, 8190, 8220, 8170, 8216, 8123, 8130,4.09607458114624
123, 8173, 8158, 8162, 8152, 8185, 8165, 8191, 8175, 8181, 8218, 8170, 8223, 8126, 8126,4.09607458114624
124, 8180, 8165, 8147, 8151, 8188, 8165, 8197, 8170, 8185, 8206, 8172, 8226, 8134, 8120,4.111617088317871
125, 8187, 8161, 8151, 8159, 8186, 8172, 8202, 8169, 8192, 8200, 8183, 8234, 8135, 8133,4.111617088317871
126, 8175, 8161, 8170, 8152, 8180, 8177, 8196, 8177, 8187, 8210, 8187, 8241, 8136, 8138,4.12773323059082
127, 8168, 8155, 8129, 8149, 8188, 8161, 8190, 8166, 8191, 8211, 8185, 8219, 8141, 8116,4.12773323059082
237, 8183, 8166, 8175, 8152, 8199, 8151, 8178, 8169, 8190, 8186, 8181, 8232, 8135, 8120,4.143960952758789
0, 8183, 8188, 8164, 8167, 8207, 8170, 8187, 8171, 8200, 8190, 8190, 8242, 8141, 8130,4.143960952758789
1, 8169, 8188, 8145, 8149, 8202, 8167, 8189, 8167, 8191, 8181, 8179, 8219, 8136, 8115,4.159615755081177
2, 8155, 8179, 8167, 8141, 8205, 8171, 8194, 8170, 8173, 8163, 8158, 8203, 8115, 8101,4.159615755081177
3, 8150, 8163, 8126, 8171, 8217, 8191, 8232, 8163, 8187, 8194, 8170, 8193, 8118, 8103,4.174682855606079
4, 8161, 8147, 8150, 8160, 8203, 8197, 8246, 8172, 8205, 8220, 8175, 8206, 8128, 8124,4.174682855606079
5, 8168, 8152, 8133, 8162, 8202, 8193, 8229, 8184, 8224, 8234, 8176, 8204, 8139, 8141,4.189892292022705
6, 8177, 8169, 8128, 8179, 8218, 8170, 8203, 8179, 8219, 8218, 8183, 8204, 8151, 8133,4.189892292022705
7, 8183, 8174, 8174, 8170, 8214, 8153, 8187, 8175, 8200, 8185, 8187, 8229, 8149, 8117,4.204913377761841
8, 8178, 8159, 8138, 8167, 8203, 8155, 8191, 8168, 8198, 8199, 8204, 8228, 8154, 8128,4.204913377761841
9, 8188, 8161, 8167, 8163, 8201, 8162, 8192, 8176, 8192, 8215, 8224, 8241, 8170, 8150,4.2209861278533936
10, 8204, 8178, 8169, 8173, 8208, 8174, 8203, 8181, 8208, 8219, 8234, 8245, 8180, 8143,4.2209861278533936
11, 8204, 8189, 8148, 8177, 8219, 8178, 8204, 8171, 8202, 8216, 8230, 8234, 8159, 8132,4.236111879348755
12, 8203, 8197, 8187, 8173, 8222, 8180, 8203, 8174, 8176, 8204, 8231, 8248, 8146, 8141,4.236111879348755
13, 8203, 8188, 8161, 8196, 8220, 8177, 8218, 8170, 8191, 8205, 8235, 8242, 8158, 8142,4.251250743865967
14, 8198, 8197, 8184, 8212, 8213, 8181, 8200, 8172, 8185, 8203, 8219, 8248, 8150, 8139,4.267261743545532
15, 8195, 8214, 8177, 8218, 8219, 8192, 8203, 8179, 8190, 8220, 8227, 8234, 8149, 8138,4.267261743545532
16, 8196, 8195, 8154, 8204, 8230, 8199, 8241, 8180, 8216, 8239, 8230, 8198, 8154, 8133,4.282803058624268
17, 8188, 8186, 8194, 8194, 8228, 8218, 8238, 8185, 8203, 8236, 8210, 8214, 8143, 8132,4.282803058624268
18, 8175, 8180, 8149, 8203, 8223, 8221, 8221, 8171, 8197, 8234, 8206, 8219, 8143, 8132,4.298811912536621
19, 8183, 8177, 8168, 8196, 8216, 8207, 8226, 8168, 8200, 8232, 8203, 8212, 8143, 8141,4.299812316894531
20, 8194, 8186, 8188, 8208, 8215, 8203, 8233, 8182, 8208, 8252, 8214, 8223, 8153, 8145,4.299812316894531
21, 8188, 8180, 8149, 8208, 8207, 8191, 8213, 8180, 8208, 8241, 8218, 8230, 8156, 8135,4.314260959625244
22, 8188, 8182, 8181, 8184, 8201, 8201, 8215, 8179, 8192, 8204, 8194, 8233, 8147, 8147,4.330282688140869
23, 8197, 8189, 8157, 8199, 8207, 8216, 8246, 8178, 8203, 8234, 8203, 8229, 8171, 8165,4.330282688140869
24, 8209, 8181, 8165, 8199, 8205, 8197, 8229, 8190, 8220, 8262, 8228, 8248, 8192, 8164,4.330282688140869
25, 8213, 8188, 8190, 8185, 8212, 8200, 8226, 8197, 8241, 8246, 8236, 8254, 8191, 8164,4.345851182937622
26, 8211, 8191, 8171, 8188, 8214, 8211, 8241, 8181, 8249, 8232, 8228, 8247, 8189, 8178,4.362623453140259
27, 8207, 8180, 8191, 8179, 8190, 8198, 8216, 8179, 8230, 8231, 8221, 8266, 8189, 8189,4.362623453140259
28, 8195, 8174, 8148, 8179, 8180, 8180, 8207, 8178, 8226, 8243, 8221, 8244, 8193, 8171,4.362623453140259
29, 8203, 8177, 8166, 8184, 8186, 8171, 8208, 8176, 8219, 8224, 8215, 8237, 8186, 8154,4.376705884933472
30, 8220, 8186, 8201, 8191, 8191, 8182, 8202, 8179, 8217, 8201, 8236, 8276, 8188, 8167,4.391995429992676
31, 8210, 8192, 8167, 8192, 8195, 8183, 8202, 8171, 8203, 8210, 8250, 8276, 8194, 8169,4.391995429992676
32, 8204, 8198, 8202, 8180, 8198, 8175, 8197, 8171, 8175, 8212, 8231, 8264, 8187, 8146,4.4073405265808105
33, 8220, 8194, 8184, 8197, 8205, 8179, 8200, 8174, 8201, 8211, 8239, 8263, 8194, 8134,4.4073405265808105
34, 8233, 8202, 8190, 8203, 8202, 8184, 8188, 8175, 8204, 8202, 8256, 8281, 8196, 8156,4.422950029373169
35, 8223, 8218, 8219, 8195, 8192, 8185, 8184, 8173, 8175, 8205, 8253, 8284, 8194, 8171,4.422950029373169
36, 8216, 8197, 8182, 8200, 8199, 8172, 8201, 8165, 8194, 8228, 8254, 8267, 8204, 8165,4.4386069774627686
37, 8228, 8181, 8220, 8198, 8212, 8183, 8198, 8177, 8214, 8224, 8243, 8286, 8186, 8171,4.4386069774627686
38, 8227, 8193, 8202, 8217, 8212, 8216, 8194, 8175, 8202, 8211, 8230, 8270, 8166, 8164,4.454218626022339
39, 8227, 8211, 8197, 8230, 8200, 8211, 8201, 8162, 8184, 8207, 8246, 8249, 8188, 8161,4.454218626022339
40, 8238, 8230, 8242, 8237, 8207, 8191, 8211, 8178, 8200, 8225, 8268, 8289, 8219, 8193,4.469627141952515
41, 8238, 8221, 8197, 8255, 8215, 8190, 8201, 8183, 8217, 8243, 8269, 8309, 8213, 8205,4.469627141952515
42, 8229, 8209, 8208, 8243, 8204, 8202, 8176, 8180, 8189, 8215, 8255, 8299, 8193, 8186,4.485124111175537
43, 8211, 8204, 8194, 8225, 8207, 8207, 8206, 8175, 8183, 8215, 8245, 8259, 8203, 8164,4.485124111175537
44, 8203, 8187, 8175, 8208, 8206, 8196, 8233, 8171, 8195, 8237, 8227, 8237, 8203, 8165,4.5010292530059814
45, 8206, 8186, 8205, 8204, 8190, 8200, 8220, 8177, 8202, 8235, 8221, 8261, 8190, 8178,4.5010292530059814
46, 8205, 8193, 8173, 8223, 8197, 8208, 8219, 8174, 8218, 8247, 8231, 8263, 8198, 8175,4.516237497329712
47, 8208, 8187, 8194, 8214, 8199, 8207, 8216, 8180, 8209, 8261, 8233, 8261, 8205, 8173,4.516237497329712
48, 8217, 8175, 8185, 8208, 8186, 8214, 8228, 8183, 8223, 8267, 8245, 8257, 8210, 8177,4.53202486038208
49, 8221, 8168, 8163, 8213, 8182, 8220, 8234, 8178, 8246, 8248, 8250, 8258, 8200, 8183,4.53202486038208
50, 8209, 8171, 8190, 8194, 8179, 8223, 8210, 8182, 8236, 8219, 8229, 8267, 8181, 8181,4.547654151916504
51, 8194, 8170, 8151, 8185, 8179, 8213, 8195, 8175, 8231, 8229, 8223, 8238, 8189, 8172,4.547654151916504
52, 8207, 8184, 8184, 8204, 8191, 8202, 8195, 8180, 8233, 8247, 8235, 8236, 8206, 8179,4.562955379486084
53, 8219, 8198, 8195, 8232, 8204, 8203, 8214, 8187, 8250, 8266, 8262, 8251, 8226, 8182,4.562955379486084
54, 8222, 8190, 8176, 8214, 8199, 8187, 8223, 8178, 8261, 8255, 8269, 8253, 8230, 8175,4.5780463218688965
55, 8226, 8190, 8213, 8186, 8191, 8183, 8209, 8177, 8237, 8222, 8240, 8268, 8209, 8177,4.5780463218688965
56, 8204, 8181, 8167, 8197, 8188, 8190, 8200, 8170, 8215, 8218, 8223, 8256, 8201, 8163,4.593744277954102
57, 8183, 8163, 8172, 8180, 8174, 8175, 8183, 8165, 8200, 8191, 8206, 8247, 8182, 8138,4.593744277954102
58, 8182, 8166, 8184, 8168, 8173, 8172, 8179, 8166, 8207, 8185, 8201, 8248, 8167, 8135,4.609173536300659
59, 8196, 8173, 8160, 8177, 8184, 8169, 8169, 8168, 8212, 8215, 8214, 8242, 8181, 8148,4.609173536300659
60, 8212, 8190, 8207, 8183, 8184, 8168, 8151, 8179, 8199, 8208, 8220, 8256, 8193, 8155,4.624719142913818
61, 8214, 8202, 8187, 8209, 8192, 8170, 8178, 8170, 8213, 8201, 8233, 8252, 8198, 8157,4.624719142913818
62, 8221, 8190, 8201, 8209, 8193, 8165, 8192, 8169, 8215, 8207, 8243, 8261, 8192, 8173,4.640570402145386
63, 8230, 8185, 8213, 8199, 8178, 8179, 8186, 8178, 8209, 8216, 8248, 8276, 8196, 8183,4.640570402145386
64, 8221, 8179, 8170, 8193, 8172, 8186, 8190, 8168, 8213, 8209, 8238, 8262, 8202, 8164,4.65596866607666
65, 8208, 8171, 8201, 8174, 8175, 8176, 8183, 8166, 8194, 8172, 8216, 8259, 8188, 8147,4.65596866607666
66, 8206, 8160, 8179, 8189, 8176, 8173, 8182, 8170, 8194, 8169, 8216, 8248, 8178, 8143,4.671497106552124
67, 8211, 8158, 8186, 8202, 8165, 8181, 8170, 8176, 8205, 8176, 8214, 8247, 8166, 8147,4.671497106552124
68, 8203, 8172, 8195, 8192, 8167, 8191, 8163, 8180, 8205, 8171, 8206, 8251, 8156, 8144,4.686880350112915
69, 8200, 8176, 8150, 8198, 8181, 8178, 8165, 8169, 8198, 8168, 8215, 8244, 8163, 8136,4.686880350112915
70, 8208, 8187, 8199, 8221, 8183, 8177, 8162, 8179, 8192, 8170, 8220, 8263, 8168, 8139,4.7029709815979
71, 8200, 8199, 8183, 8246, 8196, 8196, 8181, 8183, 8211, 8191, 8215, 8247, 8167, 8139,4.7029709815979
72, 8199, 8197, 8173, 8242, 8198, 8201, 8188, 8168, 8198, 8186, 8196, 8225, 8152, 8142,4.718571901321411
73, 8206, 8199, 8209, 8241, 8185, 8205, 8190, 8166, 8175, 8178, 8194, 8235, 8141, 8154,4.718571901321411
74, 8205, 8190, 8174, 8262, 8194, 8201, 8190, 8170, 8188, 8199, 8213, 8234, 8154, 8153,4.73404598236084
75, 8206, 8183, 8200, 8258, 8207, 8199, 8177, 8178, 8190, 8197, 8204, 8244, 8160, 8156,4.73404598236084
76, 8197, 8182, 8183, 8254, 8197, 8207, 8196, 8168, 8188, 8204, 8196, 8237, 8168, 8164,4.749662637710571
77, 8198, 8187, 8174, 8245, 8179, 8206, 8205, 8166, 8180, 8214, 8211, 8244, 8181, 8175,4.749662637710571
78, 8222, 8207, 8221, 8249, 8188, 8198, 8183, 8182, 8175, 8211, 8238, 8293, 8201, 8185,4.765024662017822
79, 8238, 8214, 8200, 8272, 8193, 8166, 8173, 8174, 8184, 8209, 8259, 8303, 8218, 8184,4.765024662017822
80, 8230, 8208, 8224, 8248, 8171, 8137, 8162, 8169, 8169, 8182, 8263, 8298, 8204, 8177,4.780164957046509
81, 8222, 8201, 8213, 8241, 8170, 8146, 8157, 8169, 8160, 8176, 8282, 8299, 8203, 8162,4.780164957046509
82, 8237, 8219, 8216, 8280, 8186, 8153, 8157, 8167, 8155, 8189, 8307, 8318, 8221, 8159,4.79573655128479
83, 8252, 8261, 8273, 8319, 8191, 8166, 8169, 8175, 8150, 8183, 8320, 8344, 8221, 8175,4.79573655128479
84, 8248, 8253, 8241, 8341, 8199, 8178, 8189, 8172, 8170, 8189, 8325, 8337, 8224, 8188,4.8109307289123535
85, 8239, 8220, 8251, 8328, 8195, 8177, 8181, 8173, 8162, 8193, 8300, 8329, 8214, 8193,4.8109307289123535
86, 8229, 8229, 8242, 8332, 8187, 8176, 8174, 8169, 8142, 8191, 8287, 8313, 8206, 8180,4.8266847133636475
87, 8232, 8250, 8238, 8348, 8185, 8165, 8168, 8157, 8127, 8181, 8312, 8316, 8217, 8173,4.8266847133636475
88, 8247, 8254, 8288, 8348, 8184, 8168, 8149, 8169, 8122, 8172, 8327, 8355, 8229, 8190,4.8437769412994385
89, 8250, 8246, 8244, 8360, 8192, 8179, 8152, 8167, 8146, 8178, 8313, 8345, 8226, 8190,4.8437769412994385
90, 8244, 8238, 8251, 8351, 8200, 8187, 8176, 8164, 8150, 8183, 8303, 8326, 8219, 8182,4.8569183349609375
91, 8236, 8226, 8246, 8336, 8197, 8197, 8199, 8174, 8158, 8212, 8319, 8327, 8231, 8191,4.872071981430054
92, 8234, 8214, 8207, 8331, 8182, 8195, 8183, 8180, 8175, 8217, 8301, 8320, 8215, 8185,4.872071981430054
93, 8233, 8220, 8241, 8318, 8182, 8196, 8163, 8184, 8173, 8199, 8265, 8315, 8191, 8172,4.887652635574341
94, 8211, 8203, 8196, 8298, 8192, 8193, 8179, 8173, 8170, 8204, 8268, 8279, 8197, 8169,4.887652635574341
95, 8191, 8175, 8181, 8265, 8175, 8191, 8164, 8175, 8158, 8182, 8243, 8262, 8177, 8165,4.902919769287109
96, 8191, 8191, 8187, 8271, 8173, 8201, 8165, 8185, 8172, 8179, 8218, 8269, 8172, 8164,4.902919769287109
97, 8198, 8205, 8163, 8274, 8186, 8187, 8189, 8176, 8190, 8207, 8243, 8258, 8196, 8164,4.918045282363892
98, 8209, 8187, 8199, 8237, 8181, 8179, 8182, 8178, 8175, 8198, 8248, 8256, 8190, 8164,4.918045282363892
99, 8216, 8175, 8178, 8242, 8184, 8191, 8185, 8176, 8166, 8195, 8226, 8248, 8185, 8164,4.933569669723511
100, 8216, 8193, 8194, 8252, 8190, 8188, 8187, 8172, 8160, 8197, 8221, 8259, 8193, 8174,4.933569669723511
101, 8211, 8205, 8204, 8248, 8186, 8182, 8183, 8172, 8169, 8199, 8230, 8258, 8199, 8176,4.9492151737213135
102, 8211, 8185, 8164, 8214, 8153, 8175, 8168, 8162, 8165, 8195, 8217, 8225, 8187, 8155,4.9492151737213135
103, 8212, 8178, 8198, 8157, 8142, 8189, 8146, 8167, 8146, 8175, 8209, 8235, 8180, 8154,4.964615821838379
104, 8205, 8191, 8173, 8193, 8193, 8219, 8158, 8178, 8180, 8204, 8243, 8253, 8210, 8172,4.964615821838379
105, 8210, 8200, 8179, 8260, 8222, 8208, 8166, 8180, 8192, 8227, 8250, 8253, 8216, 8179,4.980025768280029
106, 8213, 8197, 8203, 8249, 8206, 8191, 8174, 8173, 8174, 8213, 8230, 8242, 8195, 8172,4.980025768280029
107, 8206, 8181, 8156, 8205, 8204, 8193, 8189, 8172, 8198, 8210, 8220, 8224, 8196, 8169,4.996142625808716
108, 8200, 8179, 8182, 8187, 8196, 8192, 8171, 8189, 8202, 8199, 8214, 8240, 8190, 8165,4.996142625808716
109, 8187, 8173, 8163, 8194, 8180, 8184, 8166, 8181, 8182, 8190, 8211, 8230, 8174, 8143,5.011804580688477
110, 8182, 8157, 8158, 8173, 8182, 8176, 8184, 8170, 8179, 8185, 8201, 8198, 8168, 8137,5.011804580688477
111, 8177, 8156, 8169, 8143, 8173, 8179, 8187, 8177, 8185, 8182, 8179, 8187, 8169, 8141,5.027036666870117
112, 8156, 8134, 8112, 8126, 8161, 8181, 8176, 8170, 8177, 8181, 8157, 8172, 8152, 8124,5.027457237243652
113, 8145, 8114, 8147, 8100, 8165, 8189, 8174, 8179, 8178, 8184, 8150, 8179, 8137, 8117,5.042230129241943
114, 8143, 8124, 8139, 8094, 8167, 8188, 8189, 8184, 8202, 8192, 8161, 8176, 8154, 8119,5.042230129241943
115, 8143, 8137, 8125, 8097, 8159, 8176, 8172, 8172, 8176, 8162, 8162, 8171, 8161, 8113,5.057831525802612
116, 8158, 8162, 8173, 8113, 8170, 8192, 8166, 8175, 8151, 8152, 8175, 8194, 8159, 8117,5.057831525802612
117, 8176, 8168, 8150, 8127, 8189, 8195, 8189, 8170, 8177, 8191, 8205, 8202, 8173, 8129,5.0728442668914795
118, 8181, 8151, 8173, 8109, 8175, 8173, 8159, 8165, 8168, 8179, 8197, 8212, 8162, 8129,5.0728442668914795
119, 8164, 8145, 8151, 8101, 8158, 8169, 8136, 8165, 8154, 8154, 8173, 8197, 8144, 8107,5.087627172470093
120, 8162, 8154, 8132, 8096, 8159, 8166, 8156, 8171, 8160, 8154, 8174, 8182, 8150, 8102,5.087627172470093
121, 8178, 8165, 8181, 8088, 8164, 8168, 8169, 8182, 8160, 8155, 8181, 8195, 8152, 8120,5.103211402893066
122, 8164, 8150, 8136, 8095, 8162, 8175, 8159, 8172, 8165, 8157, 8174, 8172, 8136, 8108,5.103211402893066
123, 8147, 8146, 8144, 8085, 8156, 8183, 8151, 8171, 8156, 8145, 8156, 8166, 8118, 8093,5.119035005569458
124, 8146, 8154, 8145, 8085, 8166, 8193, 8173, 8178, 8155, 8155, 8165, 8177, 8124, 8101,5.119035005569458
125, 8143, 8148, 8130, 8091, 8172, 8184, 8181, 8174, 8163, 8169, 8181, 8172, 8128, 8097,5.134734392166138
126, 8138, 8162, 8171, 8098, 8168, 8184, 8174, 8178, 8163, 8165, 8181, 8177, 8128, 8091,5.134734392166138
127, 8145, 8166, 8142, 8112, 8176, 8187, 8181, 8173, 8171, 8171, 8183, 8174, 8145, 8102,5.150415420532227
237, 8160, 8148, 8165, 8091, 8172, 8169, 8168, 8167, 8150, 8151, 8168, 8186, 8129, 8110,5.150415420532227
0, 8149, 8143, 8160, 8086, 8158, 8172, 8163, 8159, 8124, 8134, 8145, 8176, 8105, 8091,5.166919946670532
1, 8131, 8142, 8125, 8112, 8156, 8187, 8170, 8155, 8124, 8139, 8131, 8145, 8106, 8080,5.167425155639648
2, 8130, 8136, 8168, 8105, 8160, 8194, 8173, 8173, 8133, 8144, 8127, 8154, 8107, 8096,5.181346416473389
3, 8136, 8121, 8135, 8099, 8166, 8193, 8191, 8176, 8166, 8169, 8132, 8156, 8112, 8106,5.182345628738403
4, 8144, 8123, 8141, 8104, 8164, 8189, 8189, 8180, 8175, 8173, 8122, 8164, 8110, 8110,5.198171615600586
5, 8137, 8139, 8143, 8110, 8158, 8192, 8180, 8184, 8174, 8168, 8121, 8165, 8110, 8106,5.198171615600586
6, 8137, 8136, 8104, 8106, 8154, 8182, 8179, 8173, 8193, 8174, 8136, 8158, 8121, 8108,5.211955547332764
7, 8152, 8133, 8148, 8095, 8154, 8173, 8161, 8174, 8192, 8159, 8134, 8178, 8127, 8119,5.211955547332764
8, 8151, 8140, 8131, 8111, 8157, 8165, 8147, 8171, 8179, 8152, 8142, 8179, 8133, 8113,5.22818398475647
9, 8150, 8155, 8136, 8109, 8145, 8161, 8132, 8170, 8155, 8152, 8166, 8187, 8130, 8106,5.244824171066284
10, 8160, 8168, 8152, 8110, 8142, 8175, 8129, 8173, 8154, 8154, 8181, 8198, 8141, 8114,5.244824171066284
11, 8170, 8173, 8130, 8130, 8166, 8179, 8139, 8171, 8168, 8159, 8183, 8194, 8153, 8119,5.244824171066284
12, 8180, 8192, 8185, 8136, 8179, 8188, 8147, 8179, 8162, 8158, 8182, 8212, 8134, 8129,5.2606360912323
13, 8177, 8197, 8160, 8150, 8175, 8196, 8165, 8174, 8155, 8161, 8191, 8199, 8127, 8129,5.275665760040283
14, 8166, 8179, 8147, 8138, 8170, 8183, 8152, 8168, 8131, 8142, 8170, 8183, 8126, 8124,5.275665760040283
15, 8148, 8178, 8159, 8125, 8172, 8191, 8139, 8168, 8115, 8146, 8138, 8186, 8114, 8116,5.275665760040283
16, 8135, 8166, 8116, 8144, 8171, 8201, 8163, 8158, 8122, 8170, 8132, 8164, 8110, 8105,5.290985345840454
17, 8148, 8149, 8161, 8139, 8163, 8186, 8168, 8167, 8131, 8164, 8144, 8176, 8123, 8126,5.290985345840454
18, 8165, 8147, 8150, 8131, 8165, 8174, 8163, 8176, 8168, 8180, 8166, 8195, 8155, 8151,5.306825876235962
19, 8171, 8145, 8138, 8119, 8159, 8174, 8154, 8172, 8174, 8192, 8164, 8195, 8156, 8140,5.321934938430786
20, 8166, 8147, 8167, 8114, 8152, 8182, 8156, 8176, 8158, 8182, 8158, 8205, 8145, 8130,5.321934938430786
21, 8166, 8156, 8137, 8127, 8163, 8169, 8169, 8169, 8163, 8182, 8178, 8205, 8151, 8133,5.338123798370361
22, 8181, 8177, 8174, 8130, 8170, 8157, 8151, 8164, 8142, 8161, 8202, 8217, 8156, 8130,5.338123798370361
23, 8183, 8193, 8168, 8158, 8181, 8169, 8150, 8165, 8136, 8164, 8216, 8219, 8167, 8121,5.339122533798218
24, 8175, 8192, 8159, 8171, 8185, 8170, 8154, 8170, 8147, 8181, 8202, 8216, 8165, 8120,5.353565216064453
25, 8170, 8196, 8187, 8154, 8180, 8174, 8136, 8178, 8139, 8166, 8185, 8223, 8155, 8125,5.369237184524536
26, 8168, 8196, 8153, 8161, 8178, 8180, 8129, 8167, 8135, 8156, 8194, 8212, 8159, 8130,5.369237184524536
27, 8178, 8200, 8194, 8173, 8177, 8190, 8139, 8164, 8131, 8159, 8195, 8225, 8159, 8147,5.384921312332153
28, 8189, 8198, 8191, 8185, 8182, 8204, 8166, 8172, 8141, 8176, 8189, 8234, 8161, 8156,5.384921312332153
29, 8190, 8180, 8161, 8170, 8182, 8199, 8169, 8177, 8155, 8185, 8180, 8231, 8164, 8158,5.400108337402344
30, 8181, 8165, 8180, 8147, 8166, 8194, 8163, 8183, 8165, 8178, 8161, 8228, 8159, 8165,5.400108337402344
31, 8178, 8150, 8141, 8138, 8159, 8178, 8172, 8170, 8178, 8180, 8164, 8208, 8173, 8165,5.415692567825317
32, 8196, 8150, 8175, 8123, 8162, 8161, 8175, 8173, 8170, 8179, 8186, 8230, 8199, 8170,5.415692567825317
33, 8199, 8167, 8179, 8138, 8168, 8170, 8187, 8184, 8176, 8200, 8201, 8244, 8209, 8173,5.4309611320495605
34, 8185, 8171, 8153, 8156, 8166, 8172, 8180, 8176, 8173, 8202, 8191, 8225, 8190, 8163,5.4309611320495605
35, 8180, 8177, 8191, 8144, 8158, 8171, 8159, 8174, 8141, 8169, 8185, 8239, 8168, 8151,5.44614839553833
36, 8176, 8178, 8157, 8137, 8162, 8173, 8158, 8167, 8144, 8157, 8196, 8247, 8176, 8139,5.44614839553833
37, 8184, 8180, 8183, 8132, 8166, 8169, 8142, 8166, 8148, 8148, 8190, 8254, 8171, 8142,5.460868835449219
38, 8196, 8190, 8201, 8147, 8173, 8165, 8144, 8166, 8150, 8157, 8203, 8258, 8166, 8149,5.460868835449219
39, 8198, 8190, 8178, 8159, 8179, 8158, 8167, 8161, 8145, 8172, 8224, 8247, 8181, 8142,5.475979328155518
40, 8185, 8191, 8206, 8146, 8173, 8167, 8156, 8165, 8119, 8152, 8201, 8240, 8169, 8127,5.475979328155518
41, 8166, 8190, 8163, 8161, 8169, 8180, 8139, 8157, 8124, 8150, 8178, 8218, 8149, 8121,5.491336345672607
42, 8175, 8195, 8179, 8179, 8171, 8189, 8136, 8166, 8142, 8168, 8185, 8233, 8148, 8140,5.491336345672607
43, 8193, 8201, 8200, 8181, 8182, 8210, 8155, 8181, 8166, 8190, 8192, 8253, 8165, 8156,5.506804704666138
44, 8186, 8175, 8159, 8169, 8179, 8207, 8167, 8172, 8177, 8189, 8171, 8230, 8161, 8153,5.506804704666138
45, 8175, 8169, 8182, 8157, 8171, 8190, 8169, 8174, 8162, 8173, 8159, 8219, 8147, 8152,5.5222015380859375
46, 8180, 8186, 8158, 8185, 8183, 8187, 8195, 8179, 8179, 8192, 8177, 8203, 8166, 8148,5.5222015380859375
47, 8196, 8190, 8179, 8197, 8186, 8190, 8197, 8180, 8199, 8210, 8188, 8223, 8175, 8161,5.538334608078003
48, 8203, 8191, 8200, 8181, 8181, 8203, 8194, 8181, 8214, 8228, 8203, 8261, 8184, 8183,5.538334608078003
49, 8198, 8186, 8152, 8159, 8183, 8191, 8199, 8171, 8226, 8233, 8211, 8247, 8193, 8171,5.553694486618042
50, 8195, 8193, 8184, 8144, 8176, 8172, 8180, 8173, 8214, 8205, 8192, 8244, 8183, 8157,5.553694486618042
51, 8206, 8206, 8168, 8163, 8174, 8176, 8163, 8173, 8208, 8214, 8197, 8256, 8189, 8158,5.56922459602356
52, 8223, 8204, 8174, 8157, 8181, 8176, 8144, 8174, 8193, 8221, 8208, 8268, 8196, 8172,5.56922459602356
53, 8216, 8203, 8199, 8144, 8183, 8172, 8146, 8179, 8187, 8196, 8204, 8268, 8186, 8179,5.584953784942627
54, 8200, 8199, 8157, 8159, 8178, 8163, 8162, 8171, 8190, 8183, 8201, 8248, 8172, 8164,5.584953784942627
55, 8206, 8199, 8199, 8160, 8173, 8159, 8156, 8179, 8171, 8181, 8194, 8251, 8159, 8152,5.599972486495972
56, 8208, 8202, 8192, 8175, 8182, 8171, 8164, 8179, 8178, 8206, 8198, 8247, 8172, 8150,5.599972486495972
57, 8207, 8199, 8179, 8178, 8190, 8175, 8167, 8170, 8181, 8206, 8191, 8244, 8178, 8155,5.6159303188323975
58, 8201, 8195, 8201, 8171, 8192, 8181, 8163, 8174, 8173, 8185, 8177, 8237, 8163, 8152,5.6159303188323975
59, 8189, 8189, 8168, 8184, 8197, 8188, 8175, 8173, 8188, 8201, 8185, 8214, 8170, 8142,5.631426811218262
60, 8192, 8189, 8200, 8184, 8197, 8198, 8183, 8178, 8197, 8209, 8180, 8234, 8179, 8151,5.631426811218262
61, 8177, 8174, 8169, 8179, 8195, 8204, 8186, 8175, 8194, 8207, 8165, 8225, 8175, 8148,5.648171901702881
62, 8153, 8155, 8144, 8171, 8182, 8194, 8168, 8167, 8181, 8201, 8159, 8193, 8173, 8131,5.648171901702881
63, 8159, 8166, 8181, 8163, 8173, 8188, 8155, 8177, 8189, 8199, 8157, 8209, 8180, 8136,5.662723779678345
64, 8167, 8162, 8140, 8154, 8178, 8174, 8158, 8172, 8206, 8206, 8161, 8215, 8188, 8147,5.662723779678345
65, 8162, 8149, 8166, 8129, 8175, 8161, 8141, 8168, 8181, 8185, 8156, 8221, 8184, 8145,5.678835868835449
66, 8159, 8162, 8166, 8139, 8172, 8166, 8134, 8170, 8165, 8172, 8142, 8221, 8187, 8135,5.678835868835449
67, 8169, 8165, 8145, 8145, 8173, 8158, 8136, 8164, 8163, 8163, 8136, 8222, 8180, 8131,5.694330453872681
68, 8182, 8166, 8187, 8127, 8180, 8156, 8137, 8168, 8159, 8147, 8164, 8249, 8180, 8139,5.694330453872681
69, 8186, 8184, 8168, 8154, 8195, 8167, 8149, 8171, 8169, 8154, 8190, 8248, 8196, 8139,5.709712982177734
70, 8185, 8201, 8196, 8183, 8204, 8187, 8154, 8179, 8167, 8158, 8168, 8240, 8186, 8140,5.725764036178589
71, 8177, 8200, 8188, 8192, 8212, 8211, 8179, 8181, 8176, 8179, 8165, 8225, 8183, 8145,5.725764036178589
72, 8169, 8191, 8151, 8194, 8213, 8211, 8187, 8174, 8175, 8191, 8181, 8214, 8192, 8145,5.74114727973938
73, 8158, 8191, 8181, 8187, 8196, 8215, 8175, 8182, 8160, 8180, 8174, 8224, 8181, 8143,5.74114727973938
74, 8151, 8165, 8140, 8173, 8187, 8221, 8189, 8173, 8177, 8188, 8157, 8208, 8176, 8141,5.74114727973938
75, 8157, 8138, 8148, 8125, 8177, 8202, 8183, 8167, 8176, 8185, 8141, 8200, 8175, 8144,5.756990194320679
76, 8156, 8139, 8142, 8104, 8166, 8182, 8170, 8169, 8170, 8183, 8146, 8203, 8183, 8141,5.772006034851074
77, 8157, 8135, 8111, 8112, 8165, 8163, 8166, 8166, 8189, 8174, 8159, 8207, 8187, 8139,5.772006034851074
78, 8161, 8138, 8157, 8092, 8160, 8149, 8142, 8172, 8189, 8144, 8154, 8220, 8173, 8138,5.772006034851074
79, 8147, 8145, 8122, 8081, 8153, 8146, 8135, 8163, 8178, 8151, 8164, 8196, 8180, 8117,5.78689980506897
80, 8140, 8154, 8132, 8087, 8152, 8153, 8126, 8159, 8167, 8159, 8176, 8198, 8189, 8105,5.8020102977752686
81, 8152, 8171, 8159, 8106, 8169, 8169, 8126, 8165, 8174, 8145, 8175, 8218, 8183, 8110,5.8020102977752686
82, 8156, 8170, 8136, 8114, 8178, 8170, 8151, 8158, 8165, 8138, 8176, 8195, 8178, 8110,5.817371129989624
83, 8160, 8176, 8182, 8107, 8174, 8185, 8165, 8164, 8134, 8149, 8180, 8206, 8177, 8118,5.817371129989624
84, 8172, 8188, 8163, 8129, 8192, 8198, 8180, 8167, 8147, 8169, 8178, 8224, 8185, 8129,5.832999229431152
85, 8183, 8188, 8172, 8136, 8208, 8188, 8192, 8167, 8163, 8160, 8173, 8222, 8185, 8142,5.832999229431152
86, 8172, 8181, 8190, 8129, 8201, 8196, 8204, 8174, 8172, 8168, 8189, 8223, 8191, 8154,5.849059820175171
87, 8159, 8160, 8144, 8117, 8184, 8197, 8194, 8173, 8196, 8193, 8193, 8221, 8196, 8153,5.849059820175171
88, 8167, 8150, 8173, 8096, 8168, 8182, 8170, 8173, 8191, 8177, 8168, 8233, 8184, 8150,5.8646559715271
89, 8176, 8161, 8154, 8113, 8173, 8183, 8180, 8164, 8175, 8169, 8174, 8227, 8192, 8145,5.8646559715271
90, 8176, 8180, 8157, 8121, 8172, 8182, 8168, 8164, 8145, 8165, 8190, 8231, 8193, 8143,5.879726886749268
91, 8174, 8192, 8189, 8108, 8160, 8181, 8155, 8173, 8132, 8153, 8182, 8248, 8177, 8144,5.879726886749268
92, 8175, 8184, 8167, 8115, 8172, 8174, 8182, 8161, 8147, 8150, 8174, 8231, 8172, 8135,5.895831346511841
93, 8174, 8185, 8203, 8129, 8188, 8183, 8194, 8165, 8149, 8154, 8167, 8224, 8170, 8134,5.895831346511841
94, 8154, 8177, 8165, 8140, 8185, 8207, 8197, 8171, 8161, 8177, 8159, 8215, 8168, 8139,5.911872863769531
95, 8145, 8154, 8149, 8115, 8173, 8198, 8200, 8168, 8171, 8171, 8146, 8212, 8170, 8145,5.911872863769531
96, 8151, 8158, 8183, 8101, 8166, 8181, 8206, 8174, 8169, 8160, 8152, 8216, 8182, 8148,5.927417516708374
97, 8157, 8162, 8142, 8115, 8166, 8177, 8198, 8169, 8176, 8181, 8158, 8207, 8183, 8146,5.927417516708374
98, 8172, 8155, 8174, 8096, 8162, 8178, 8164, 8171, 8168, 8163, 8142, 8233, 8164, 8151,5.9429919719696045
99, 8178, 8162, 8173, 8095, 8166, 8168, 8160, 8166, 8158, 8136, 8152, 8238, 8167, 8142,5.9429919719696045
100, 8176, 8179, 8163, 8109, 8171, 8154, 8171, 8162, 8152, 8136, 8166, 8228, 8169, 8130,5.958796739578247
101, 8177, 8192, 8196, 8106, 8176, 8170, 8171, 8172, 8151, 8143, 8159, 8233, 8163, 8133,5.958796739578247
102, 8171, 8181, 8160, 8113, 8181, 8167, 8176, 8163, 8147, 8145, 8161, 8207, 8172, 8127,5.974808692932129
103, 8165, 8184, 8189, 8120, 8181, 8147, 8169, 8159, 8119, 8123, 8163, 8201, 8163, 8115,5.974808692932129
104, 8158, 8195, 8179, 8137, 8184, 8174, 8173, 8163, 8123, 8131, 8165, 8208, 8157, 8116,5.9908692836761475
105, 8165, 8181, 8159, 8142, 8178, 8201, 8189, 8169, 8148, 8161, 8163, 8211, 8165, 8132,5.9908692836761475
106, 8183, 8189, 8210, 8138, 8177, 8197, 8196, 8181, 8157, 8175, 8167, 8223, 8173, 8147,6.007152080535889
107, 8181, 8201, 8175, 8164, 8202, 8195, 8199, 8175, 8174, 8193, 8186, 8215, 8187, 8147,6.007493495941162
108, 8168, 8177, 8184, 8158, 8203, 8198, 8192, 8175, 8172, 8186, 8176, 8216, 8176, 8145,6.02860426902771
109, 8155, 8154, 8175, 8124, 8175, 8191, 8195, 8173, 8173, 8175, 8145, 8200, 8160, 8131,6.02860426902771
110, 8158, 8163, 8150, 8126, 8177, 8189, 8191, 8164, 8176, 8181, 8144, 8188, 8171, 8127,6.02860426902771
111, 8178, 8191, 8203, 8163, 8212, 8219, 8192, 8184, 8182, 8198, 8171, 8225, 8196, 8156,6.038183212280273
112, 8181, 8180, 8166, 8174, 8225, 8225, 8216, 8189, 8215, 8217, 8184, 8225, 8212, 8165,6.054195404052734
113, 8160, 8152, 8154, 8122, 8191, 8195, 8201, 8176, 8197, 8195, 8144, 8202, 8183, 8143,6.054195404052734
114, 8134, 8137, 8138, 8086, 8172, 8187, 8184, 8173, 8170, 8174, 8112, 8190, 8151, 8122,6.070021390914917
115, 8120, 8108, 8099, 8068, 8169, 8172, 8186, 8172, 8184, 8169, 8113, 8176, 8147, 8114,6.070021390914917
116, 8128, 8097, 8147, 8053, 8157, 8154, 8180, 8177, 8195, 8160, 8109, 8179, 8143, 8116,6.085963726043701
117, 8140, 8120, 8130, 8088, 8165, 8160, 8185, 8174, 8201, 8176, 8123, 8174, 8162, 8114,6.085963726043701
118, 8154, 8144, 8147, 8102, 8171, 8161, 8161, 8176, 8184, 8162, 8148, 8206, 8180, 8119,6.1009416580200195
119, 8161, 8143, 8164, 8092, 8166, 8150, 8142, 8177, 8174, 8141, 8156, 8231, 8180, 8122,6.1009416580200195
120, 8157, 8131, 8135, 8102, 8168, 8146, 8157, 8162, 8175, 8152, 8153, 8199, 8173, 8105,6.116623878479004
121, 8152, 8146, 8177, 8110, 8168, 8170, 8166, 8164, 8165, 8158, 8148, 8202, 8165, 8103,6.116977691650391
122, 8147, 8157, 8150, 8115, 8169, 8175, 8174, 8169, 8171, 8159, 8151, 8209, 8164, 8112,6.1320953369140625
123, 8149, 8148, 8156, 8107, 8173, 8154, 8172, 8172, 8159, 8151, 8146, 8192, 8156, 8107,6.1320953369140625
124, 8144, 8147, 8181, 8113, 8174, 8164, 8172, 8174, 8144, 8158, 8139, 8178, 8154, 8102,6.147647857666016
125, 8130, 8136, 8137, 8121, 8154, 8165, 8166, 8158, 8139, 8147, 8114, 8153, 8141, 8096,6.147647857666016
126, 8120, 8128, 8162, 8106, 8139, 8163, 8156, 8157, 8119, 8114, 8085, 8143, 8117, 8093,6.162746906280518
127, 8111, 8129, 8140, 8115, 8158, 8187, 8176, 8169, 8141, 8151, 8101, 8142, 8135, 8102,6.162746906280518
237, 8117, 8121, 8130, 8100, 8148, 8189, 8171, 8179, 8167, 8170, 8105, 8155, 8148, 8111,6.177940368652344
0, 8126, 8112, 8147, 8073, 8118, 8173, 8155, 8176, 8155, 8129, 8094, 8163, 8135, 8102,6.177940368652344
1, 8135, 8118, 8126, 8086, 8133, 8160, 8167, 8164, 8142, 8124, 8117, 8160, 8139, 8094,6.194215774536133
2, 8147, 8145, 8177, 8097, 8150, 8157, 8165, 8170, 8126, 8123, 8128, 8190, 8136, 8103,6.194215774536133
3, 8146, 8142, 8165, 8101, 8145, 8161, 8167, 8163, 8125, 8111, 8117, 8186, 8125, 8097,6.2098166942596436
4, 8141, 8129, 8160, 8118, 8171, 8165, 8178, 8159, 8135, 8120, 8122, 8177, 8140, 8100,6.2098166942596436
5, 8139, 8164, 8185, 8131, 8168, 8177, 8169, 8167, 8128, 8131, 8123, 8181, 8152, 8109,6.224843502044678
6, 8144, 8178, 8142, 8100, 8110, 8177, 8147, 8154, 8118, 8126, 8100, 8145, 8114, 8087,6.224843502044678
7, 8160, 8151, 8183, 8080, 8121, 8179, 8143, 8166, 8128, 8136, 8104, 8166, 8096, 8094,6.240584135055542
8, 8167, 8138, 8176, 8136, 8177, 8192, 8170, 8179, 8155, 8173, 8146, 8199, 8161, 8122,6.240584135055542
9, 8176, 8141, 8167, 8167, 8158, 8182, 8171, 8173, 8149, 8167, 8149, 8197, 8155, 8135,6.255917310714722
10, 8179, 8139, 8203, 8168, 8127, 8170, 8166, 8179, 8146, 8146, 8141, 8212, 8130, 8140,6.255917310714722
11, 8167, 8127, 8146, 8201, 8143, 8172, 8186, 8176, 8177, 8161, 8173, 8218, 8355, 8144,6.27131986618042
12, 8176, 8133, 8182, 8196, 8141, 8176, 8184, 8168, 8171, 8155, 8188, 8226, 8623, 8150,6.27131986618042
13, 8194, 8153, 8207, 8198, 8141, 8178, 8175, 8166, 8164, 8156, 8191, 8230, 8635, 8145,6.286813974380493
14, 8201, 8149, 8184, 8237, 8150, 8168, 8170, 8169, 8168, 8174, 8207, 8247, 8542, 8150,6.287171363830566
15, 8199, 8137, 8211, 8238, 8141, 8165, 8165, 8180, 8161, 8169, 8217, 8277, 8544, 8159,6.302818775177002
16, 8192, 8134, 8179, 8234, 8140, 8160, 8158, 8173, 8164, 8154, 8222, 8273, 8560, 8146,6.302818775177002
17, 8212, 8152, 8214, 8234, 8136, 8142, 8132, 8170, 8146, 8127, 8223, 8292, 8522, 8145,6.318932771682739
18, 8240, 8169, 8232, 8255, 8144, 8142, 8138, 8174, 8148, 8127, 8242, 8317, 8523, 8164,6.318932771682739
19, 8230, 8153, 8205, 8268, 8154, 8143, 8147, 8164, 8155, 8128, 8249, 8310, 8523, 8164,6.3349409103393555
20, 8201, 8135, 8221, 8240, 8129, 8142, 8132, 8165, 8131, 8109, 8226, 8307, 8489, 8146,6.3349409103393555
21, 8202, 8147, 8187, 8244, 8123, 8143, 8143, 8168, 8144, 8121, 8234, 8294, 8485, 8139,6.35057806968689
22, 8231, 8178, 8230, 8257, 8138, 8144, 8142, 8168, 8155, 8130, 8242, 8304, 8486, 8154,6.35057806968689
23, 8240, 8181, 8248, 8260, 8143, 8152, 8143, 8167, 8145, 8143, 8242, 8322, 8476, 8170,6.366272211074829
24, 8229, 8160, 8202, 8263, 8137, 8144, 8149, 8169, 8138, 8159, 8259, 8316, 8465, 8172,6.366272211074829
25, 8218, 8169, 8226, 8263, 8138, 8149, 8143, 8180, 8132, 8150, 8258, 8308, 8446, 8160,6.381845235824585
26, 8209, 8170, 8198, 8260, 8148, 8159, 8156, 8171, 8149, 8158, 8232, 8273, 8422, 8146,6.381845235824585
27, 8211, 8164, 8207, 8245, 8147, 8156, 8151, 8169, 8155, 8174, 8231, 8268, 8413, 8149,6.397403001785278
28, 8210, 8182, 8217, 8262, 8145, 8168, 8145, 8183, 8166, 8190, 8261, 8281, 8424, 8155,6.397403001785278
29, 8196, 8174, 8181, 8268, 8147, 8167, 8155, 8176, 8185, 8184, 8251, 8257, 8415, 8144,6.413031101226807
30, 8186, 8159, 8210, 8235, 8144, 8168, 8146, 8170, 8176, 8158, 8213, 8247, 8382, 8140,6.413031101226807
31, 8180, 8156, 8170, 8239, 8152, 8182, 8143, 8168, 8169, 8168, 8202, 8233, 8369, 8143,6.428673505783081
32, 8174, 8142, 8163, 8233, 8156, 8182, 8150, 8181, 8166, 8173, 8185, 8225, 8354, 8142,6.428673505783081
33, 8168, 8137, 8180, 8205, 8155, 8189, 8171, 8187, 8173, 8182, 8174, 8227, 8337, 8141,6.443692207336426
34, 8163, 8127, 8142, 8188, 8157, 8188, 8179, 8169, 8183, 8195, 8169, 8201, 8328, 8134,6.443692207336426
35, 8157, 8127, 8171, 8177, 8153, 8186, 8158, 8172, 8179, 8170, 8156, 8187, 8318, 8127,6.459036111831665
36, 8148, 8135, 8143, 8192, 8154, 8200, 8159, 8178, 8191, 8171, 8160, 8183, 8326, 8128,6.459036111831665
37, 8150, 8132, 8139, 8190, 8154, 8202, 8168, 8178, 8192, 8188, 8165, 8193, 8331, 8140,6.475058555603027
38, 8156, 8131, 8166, 8174, 8149, 8200, 8173, 8179, 8185, 8188, 8165, 8200, 8322, 8147,6.475058555603027
39, 8162, 8130, 8130, 8173, 8146, 8186, 8175, 8168, 8181, 8188, 8170, 8198, 8312, 8146,6.490755081176758
40, 8175, 8137, 8171, 8161, 8144, 8171, 8165, 8171, 8175, 8179, 8161, 8223, 8300, 8155,6.490755081176758
41, 8167, 8131, 8151, 8156, 8150, 8168, 8169, 8178, 8205, 8187, 8155, 8205, 8298, 8151,6.505796670913696
42, 8150, 8109, 8127, 8137, 8147, 8162, 8169, 8177, 8211, 8176, 8144, 8176, 8281, 8135,6.505796670913696
43, 8145, 8110, 8153, 8115, 8133, 8160, 8156, 8179, 8178, 8150, 8132, 8181, 8265, 8125,6.52101469039917
44, 8145, 8120, 8114, 8132, 8133, 8154, 8146, 8176, 8170, 8162, 8145, 8173, 8270, 8120,6.52101469039917
45, 8149, 8123, 8150, 8137, 8133, 8159, 8136, 8184, 8170, 8172, 8158, 8184, 8261, 8128,6.536035776138306
46, 8139, 8118, 8141, 8132, 8126, 8169, 8143, 8180, 8186, 8167, 8156, 8180, 8255, 8120,6.552761077880859
47, 8137, 8123, 8124, 8127, 8129, 8161, 8142, 8173, 8184, 8159, 8155, 8180, 8258, 8113,6.552761077880859
48, 8164, 8149, 8179, 8134, 8139, 8163, 8140, 8185, 8177, 8171, 8176, 8225, 8266, 8139,6.552761077880859
49, 8172, 8153, 8153, 8144, 8138, 8163, 8154, 8171, 8194, 8198, 8198, 8225, 8274, 8143,6.567004442214966
50, 8153, 8145, 8159, 8115, 8132, 8150, 8147, 8161, 8181, 8173, 8174, 8199, 8249, 8112,6.582975625991821
51, 8142, 8152, 8144, 8120, 8145, 8151, 8151, 8167, 8180, 8150, 8158, 8185, 8232, 8097,6.582975625991821
52, 8155, 8162, 8138, 8154, 8153, 8164, 8153, 8168, 8194, 8159, 8181, 8194, 8238, 8114,6.599614381790161
53, 8155, 8167, 8177, 8149, 8138, 8170, 8140, 8171, 8174, 8158, 8185, 8207, 8232, 8123,6.599614381790161
54, 8135, 8154, 8128, 8147, 8133, 8157, 8144, 8164, 8163, 8160, 8173, 8178, 8226, 8107,6.599614381790161
55, 8144, 8157, 8165, 8157, 8137, 8158, 8133, 8168, 8166, 8170, 8171, 8185, 8220, 8109,6.61466121673584
56, 8159, 8172, 8185, 8159, 8152, 8173, 8131, 8173, 8171, 8173, 8185, 8206, 8221, 8114,6.630165100097656
57, 8145, 8162, 8147, 8150, 8154, 8151, 8131, 8158, 8162, 8142, 8189, 8179, 8219, 8096,6.630165100097656
58, 8132, 8153, 8181, 8143, 8136, 8141, 8119, 8158, 8146, 8122, 8166, 8164, 8205, 8089,6.6470677852630615
59, 8140, 8152, 8153, 8151, 8141, 8160, 8133, 8160, 8161, 8158, 8162, 8167, 8212, 8098,6.6470677852630615
60, 8153, 8166, 8172, 8163, 8154, 8165, 8139, 8162, 8161, 8161, 8164, 8180, 8214, 8107,6.64773154258728
61, 8141, 8179, 8182, 8190, 8161, 8177, 8142, 8161, 8151, 8145, 8157, 8169, 8196, 8104,6.663140773773193
62, 8125, 8158, 8139, 8182, 8159, 8183, 8144, 8159, 8153, 8155, 8146, 8151, 8183, 8097,6.663140773773193
63, 8131, 8146, 8172, 8147, 8147, 8175, 8136, 8181, 8151, 8157, 8150, 8171, 8190, 8106,6.677769184112549
64, 8143, 8155, 8157, 8165, 8154, 8167, 8144, 8176, 8160, 8164, 8170, 8162, 8204, 8111,6.692973852157593
65, 8151, 8163, 8167, 8181, 8165, 8175, 8141, 8162, 8154, 8166, 8159, 8151, 8196, 8105,6.692973852157593
66, 8148, 8171, 8169, 8186, 8160, 8197, 8145, 8163, 8153, 8170, 8154, 8156, 8198, 8102,6.70903754234314
67, 8151, 8169, 8140, 8191, 8157, 8190, 8164, 8161, 8167, 8171, 8173, 8151, 8210, 8109,6.70903754234314
68, 8162, 8170, 8192, 8186, 8161, 8184, 8165, 8174, 8165, 8171, 8182, 8171, 8205, 8121,6.726147174835205
69, 8162, 8166, 8164, 8202, 8168, 8193, 8167, 8179, 8184, 8205, 8180, 8175, 8210, 8127,6.726147174835205
70, 8170, 8155, 8162, 8194, 8160, 8179, 8159, 8171, 8189, 8197, 8161, 8174, 8212, 8142,6.726659536361694
71, 8174, 8159, 8192, 8174, 8155, 8171, 8152, 8170, 8180, 8175, 8169, 8179, 8216, 8149,6.739796161651611
72, 8168, 8159, 8153, 8177, 8164, 8175, 8159, 8172, 8187, 8198, 8191, 8171, 8229, 8142,6.756078481674194
73, 8174, 8166, 8186, 8180, 8166, 8175, 8159, 8181, 8185, 8202, 8182, 8182, 8231, 8149,6.756078481674194
74, 8178, 8180, 8171, 8202, 8162, 8170, 8156, 8169, 8192, 8202, 8182, 8176, 8239, 8150,6.771589517593384
75, 8178, 8184, 8163, 8204, 8155, 8161, 8142, 8166, 8194, 8199, 8191, 8179, 8238, 8148,6.771589517593384
76, 8176, 8191, 8183, 8188, 8153, 8168, 8143, 8180, 8190, 8184, 8183, 8187, 8232, 8153,6.786797046661377
77, 8174, 8182, 8140, 8190, 8154, 8167, 8152, 8169, 8186, 8177, 8168, 8166, 8227, 8142,6.786797046661377
78, 8181, 8174, 8171, 8172, 8157, 8161, 8145, 8169, 8176, 8173, 8167, 8179, 8208, 8135,6.801906585693359
79, 8182, 8174, 8157, 8165, 8164, 8165, 8149, 8173, 8185, 8185, 8179, 8186, 8211, 8135,6.801906585693359
80, 8173, 8169, 8142, 8165, 8156, 8155, 8136, 8164, 8163, 8164, 8170, 8167, 8206, 8130,6.817122459411621
81, 8172, 8176, 8178, 8167, 8154, 8149, 8130, 8160, 8141, 8136, 8170, 8167, 8193, 8129,6.817493438720703
82, 8179, 8188, 8155, 8185, 8165, 8155, 8151, 8158, 8167, 8162, 8200, 8173, 8210, 8132,6.832567453384399
83, 8171, 8190, 8177, 8178, 8157, 8162, 8137, 8169, 8170, 8171, 8196, 8184, 8212, 8129,6.832567453384399
84, 8151, 8178, 8144, 8169, 8150, 8159, 8125, 8162, 8159, 8158, 8171, 8160, 8196, 8111,6.848672151565552
85, 8158, 8174, 8129, 8166, 8152, 8149, 8123, 8148, 8144, 8141, 8165, 8148, 8189, 8109,6.848672151565552
86, 8177, 8183, 8182, 8168, 8153, 8159, 8116, 8163, 8142, 8136, 8173, 8181, 8196, 8125,6.86467432975769
87, 8175, 8174, 8142, 8179, 8160, 8161, 8125, 8167, 8167, 8130, 8177, 8172, 8198, 8120,6.86467432975769
88, 8173, 8170, 8160, 8159, 8157, 8147, 8123, 8165, 8157, 8078, 8161, 8166, 8184, 8115,6.880850315093994
89, 8169, 8183, 8166, 8150, 8161, 8152, 8130, 8165, 8145, 8078, 8166, 8170, 8185, 8118,6.880850315093994
90, 8161, 8189, 8152, 8153, 8167, 8157, 8136, 8161, 8160, 8138, 8182, 8164, 8190, 8109,6.895955324172974
91, 8164, 8187, 8185, 8146, 8150, 8157, 8127, 8169, 8168, 8169, 8172, 8168, 8180, 8102,6.895955324172974
92, 8173, 8182, 8142, 8152, 8150, 8150, 8128, 8169, 8171, 8171, 8163, 8155, 8181, 8108,6.91155743598938
93, 8181, 8191, 8168, 8154, 8166, 8143, 8130, 8170, 8158, 8158, 8169, 8170, 8184, 8116,6.91155743598938
94, 8173, 8187, 8175, 8150, 8171, 8151, 8138, 8173, 8164, 8148, 8170, 8176, 8181, 8113,6.927069902420044
95, 8160, 8158, 8136, 8131, 8161, 8147, 8135, 8166, 8171, 8135, 8153, 8147, 8176, 8100,6.927069902420044
96, 8165, 8167, 8175, 8126, 8164, 8149, 8133, 8167, 8157, 8127, 8150, 8155, 8176, 8106,6.942638397216797
97, 8166, 8182, 8150, 8143, 8173, 8157, 8148, 8164, 8166, 8131, 8160, 8154, 8181, 8110,6.942638397216797
98, 8153, 8171, 8154, 8128, 8168, 8153, 8135, 8164, 8160, 8110, 8129, 8136, 8156, 8093,6.958681344985962
99, 8142, 8167, 8155, 8132, 8174, 8160, 8128, 8165, 8143, 8102, 8101, 8120, 8134, 8076,6.958681344985962
100, 8144, 8162, 8127, 8145, 8178, 8158, 8133, 8161, 8148, 8121, 8120, 8122, 8132, 8076,6.97391939163208
101, 8145, 8165, 8164, 8125, 8161, 8160, 8126, 8172, 8145, 8123, 8126, 8144, 8123, 8088,6.97391939163208
102, 8135, 8165, 8128, 8138, 8157, 8180, 8144, 8171, 8155, 8138, 8110, 8122, 8121, 8090,6.990049600601196
103, 8133, 8147, 8135, 8145, 8164, 8187, 8155, 8166, 8170, 8146, 8100, 8104, 8118, 8094,6.990049600601196
104, 8126, 8137, 8148, 8129, 8165, 8183, 8152, 8169, 8182, 8147, 8106, 8108, 8122, 8097,7.00608491897583
105, 8131, 8138, 8114, 8133, 8163, 8170, 8160, 8168, 8190, 8156, 8113, 8109, 8141, 8104,7.00608491897583
106, 8151, 8157, 8162, 8127, 8154, 8172, 8159, 8178, 8191, 8153, 8121, 8136, 8149, 8118,7.021653413772583
107, 8150, 8163, 8135, 8121, 8149, 8176, 8150, 8173, 8193, 8160, 8139, 8137, 8155, 8110,7.021653413772583
108, 8156, 8154, 8137, 8113, 8157, 8159, 8138, 8175, 8170, 8154, 8136, 8143, 8153, 8113,7.037148952484131
109, 8171, 8170, 8177, 8121, 8170, 8157, 8149, 8179, 8167, 8156, 8141, 8169, 8150, 8127,7.037148952484131
110, 8164, 8182, 8145, 8137, 8171, 8160, 8150, 8157, 8174, 8164, 8150, 8162, 8139, 8117,7.053278923034668
111, 8156, 8181, 8184, 8131, 8171, 8166, 8129, 8161, 8149, 8139, 8135, 8156, 8121, 8110,7.053278923034668
112, 8154, 8181, 8169, 8156, 8188, 8184, 8151, 8170, 8161, 8144, 8140, 8138, 8130, 8109,7.068614959716797
113, 8152, 8172, 8156, 8168, 8182, 8188, 8167, 8165, 8174, 8161, 8139, 8122, 8127, 8107,7.068614959716797
114, 8143, 8158, 8166, 8138, 8162, 8189, 8162, 8169, 8175, 8161, 8128, 8125, 8120, 8111,7.084634304046631
115, 8128, 8140, 8110, 8113, 8150, 8179, 8166, 8169, 8195, 8166, 8135, 8113, 8138, 8115,7.084634304046631
116, 8138, 8143, 8146, 8099, 8142, 8174, 8157, 8178, 8195, 8154, 8131, 8130, 8138, 8119,7.100144386291504
117, 8158, 8156, 8144, 8117, 8151, 8180, 8162, 8178, 8199, 8157, 8125, 8141, 8137, 8122,7.100144386291504
118, 8160, 8153, 8132, 8124, 8149, 8167, 8157, 8174, 8196, 8167, 8133, 8144, 8145, 8125,7.115663290023804
119, 8153, 8156, 8170, 8113, 8139, 8160, 8144, 8180, 8181, 8155, 8150, 8155, 8143, 8122,7.115663290023804
120, 8154, 8167, 8143, 8127, 8159, 8164, 8147, 8170, 8180, 8146, 8169, 8147, 8149, 8114,7.131040096282959
121, 8163, 8183, 8174, 8141, 8172, 8164, 8138, 8167, 8159, 8135, 8169, 8161, 8151, 8120,7.131040096282959
122, 8161, 8188, 8167, 8163, 8161, 8163, 8148, 8164, 8158, 8139, 8169, 8161, 8145, 8122,7.146719694137573
123, 8158, 8178, 8156, 8171, 8159, 8162, 8151, 8162, 8159, 8142, 8166, 8145, 8131, 8114,7.146719694137573
124, 8152, 8177, 8189, 8164, 8166, 8170, 8135, 8171, 8132, 8133, 8149, 8147, 8116, 8116,7.162636756896973
125, 8138, 8162, 8143, 8168, 8159, 8162, 8141, 8161, 8136, 8140, 8138, 8127, 8115, 8112,7.162636756896973
126, 8131, 8148, 8165, 8155, 8143, 8157, 8145, 8163, 8155, 8146, 8127, 8133, 8110, 8115,7.177839040756226
127, 8133, 8148, 8164, 8148, 8147, 8171, 8146, 8172, 8172, 8160, 8131, 8145, 8122, 8121,7.177839040756226
237, 8145, 8139, 8143, 8139, 8145, 8152, 8136, 8166, 8169, 8158, 8145, 8140, 8139, 8115,7.19298529624939
0, 8151, 8150, 8184, 8133, 8128, 8135, 8119, 8166, 8151, 8144, 8153, 8156, 8140, 8113,7.19298529624939
1, 8146, 8167, 8153, 8158, 8135, 8147, 8127, 8161, 8154, 8149, 8161, 8157, 8137, 8110,7.208621978759766
2, 8150, 8169, 8170, 8160, 8145, 8161, 8130, 8161, 8150, 8140, 8164, 8159, 8122, 8103,7.208621978759766
3, 8144, 8165, 8171, 8149, 8142, 8163, 8129, 8165, 8149, 8145, 8166, 8156, 8116, 8094,7.2246413230896
4, 8132, 8162, 8142, 8142, 8139, 8146, 8122, 8160, 8143, 8140, 8147, 8142, 8106, 8087,7.2246413230896
5, 8125, 8167, 8175, 8139, 8143, 8148, 8118, 8165, 8130, 8120, 8118, 8143, 8075, 8088,7.240724086761475
6, 8121, 8163, 8149, 8161, 8155, 8166, 8143, 8166, 8151, 8143, 8119, 8125, 8070, 8094,7.240724086761475
7, 8128, 8164, 8168, 8165, 8158, 8172, 8154, 8168, 8157, 8146, 8127, 8120, 8086, 8105,7.257014751434326
8, 8129, 8172, 8167, 8162, 8149, 8175, 8149, 8170, 8147, 8140, 8130, 8117, 8098, 8109,7.257014751434326
9, 8117, 8159, 8129, 8169, 8138, 8176, 8150, 8164, 8142, 8159, 8124, 8101, 8092, 8106,7.2721266746521
10, 8122, 8158, 8173, 8177, 8136, 8189, 8156, 8168, 8137, 8156, 8113, 8112, 8079, 8102,7.2721266746521
11, 8132, 8164, 8137, 8193, 8149, 8197, 8166, 8171, 8157, 8167, 8124, 8114, 8098, 8114,7.288060426712036
12, 8135, 8152, 8138, 8166, 8145, 8181, 8155, 8178, 8175, 8175, 8132, 8118, 8112, 8138,7.288060426712036
13, 8133, 8145, 8162, 8137, 8134, 8173, 8158, 8176, 8190, 8166, 8128, 8123, 8103, 8129,7.3035852909088135
14, 8147, 8149, 8126, 8147, 8139, 8171, 8166, 8165, 8194, 8167, 8125, 8118, 8098, 8114,7.3035852909088135
15, 8163, 8160, 8160, 8153, 8140, 8166, 8152, 8169, 8168, 8155, 8121, 8130, 8094, 8125,7.318902015686035
16, 8148, 8159, 8135, 8155, 8134, 8160, 8148, 8163, 8159, 8144, 8135, 8116, 8102, 8119,7.318902015686035
17, 8143, 8160, 8136, 8136, 8131, 8151, 8136, 8164, 8155, 8143, 8147, 8119, 8109, 8112,7.335023880004883
18, 8157, 8178, 8166, 8138, 8137, 8159, 8134, 8176, 8152, 8158, 8144, 8138, 8114, 8119,7.335023880004883
19, 8164, 8176, 8137, 8171, 8142, 8152, 8145, 8166, 8158, 8170, 8149, 8129, 8115, 8115,7.3506386280059814
20, 8164, 8167, 8171, 8155, 8139, 8131, 8139, 8171, 8151, 8154, 8154, 8142, 8107, 8119,7.3506386280059814
21, 8149, 8164, 8140, 8128, 8136, 8129, 8144, 8174, 8162, 8154, 8157, 8135, 8120, 8116,7.365796089172363
22, 8146, 8165, 8139, 8133, 8133, 8134, 8145, 8165, 8156, 8159, 8159, 8121, 8128, 8108,7.365796089172363
23, 8152, 8176, 8186, 8151, 8145, 8143, 8146, 8163, 8140, 8157, 8164, 8137, 8119, 8115,7.381184101104736
24, 8138, 8172, 8134, 8157, 8152, 8133, 8142, 8156, 8141, 8150, 8154, 8125, 8112, 8107,7.381184101104736
25, 8132, 8169, 8149, 8141, 8128, 8127, 8115, 8163, 8127, 8128, 8128, 8121, 8101, 8097,7.396363735198975
26, 8140, 8173, 8153, 8152, 8121, 8146, 8127, 8167, 8137, 8137, 8131, 8122, 8105, 8102,7.396363735198975
27, 8141, 8176, 8150, 8158, 8136, 8151, 8145, 8155, 8137, 8138, 8134, 8119, 8100, 8099,7.411943435668945
28, 8131, 8180, 8175, 8155, 8144, 8156, 8140, 8157, 8117, 8119, 8117, 8122, 8081, 8093,7.411943435668945
29, 8123, 8173, 8135, 8169, 8148, 8164, 8149, 8157, 8122, 8120, 8108, 8095, 8074, 8088,7.428756237030029
30, 8121, 8172, 8159, 8160, 8149, 8172, 8155, 8160, 8120, 8109, 8100, 8086, 8065, 8084,7.428756237030029
31, 8116, 8173, 8148, 8160, 8150, 8176, 8170, 8160, 8132, 8120, 8102, 8087, 8066, 8081,7.443326711654663
32, 8116, 8163, 8137, 8168, 8146, 8171, 8178, 8162, 8148, 8144, 8109, 8084, 8077, 8083,7.443326711654663
33, 8126, 8168, 8175, 8162, 8145, 8188, 8173, 8184, 8146, 8155, 8111, 8102, 8086, 8100,7.459191083908081
34, 8141, 8171, 8139, 8161, 8152, 8188, 8188, 8181, 8161, 8166, 8116, 8105, 8097, 8114,7.474837779998779
35, 8151, 8162, 8172, 8152, 8142, 8167, 8186, 8174, 8168, 8154, 8101, 8115, 8088, 8122,7.474837779998779
36, 8147, 8163, 8174, 8156, 8136, 8170, 8175, 8176, 8176, 8156, 8104, 8123, 8089, 8129,7.490070104598999
37, 8152, 8171, 8151, 8161, 8146, 8163, 8176, 8175, 8188, 8164, 8135, 8128, 8115, 8140,7.490070104598999
38, 8159, 8186, 8194, 8164, 8148, 8156, 8183, 8181, 8194, 8162, 8158, 8148, 8139, 8151,7.490070104598999
39, 8152, 8183, 8159, 8174, 8145, 8154, 8176, 8170, 8201, 8174, 8164, 8137, 8144, 8139,7.505658864974976
40, 8149, 8175, 8171, 8159, 8144, 8137, 8139, 8163, 8176, 8154, 8158, 8135, 8124, 8126,7.521885395050049
41, 8145, 8185, 8173, 8169, 8145, 8134, 8134, 8166, 8160, 8146, 8168, 8137, 8125, 8122,7.522885084152222
42, 8145, 8178, 8143, 8179, 8141, 8141, 8144, 8162, 8162, 8158, 8172, 8137, 8127, 8124,7.522885084152222
43, 8155, 8170, 8189, 8149, 8136, 8139, 8129, 8165, 8148, 8139, 8157, 8156, 8112, 8122,7.538076162338257
44, 8152, 8171, 8167, 8151, 8145, 8129, 8136, 8164, 8139, 8127, 8153, 8146, 8112, 8108,7.538076162338257
45, 8155, 8184, 8190, 8175, 8147, 8129, 8144, 8166, 8125, 8121, 8161, 8156, 8115, 8113,7.55363917350769
46, 8161, 8203, 8209, 8200, 8142, 8147, 8142, 8164, 8134, 8131, 8183, 8178, 8125, 8125,7.55363917350769
47, 8153, 8195, 8172, 8210, 8139, 8144, 8135, 8154, 8147, 8146, 8196, 8168, 8133, 8124,7.568281650543213
48, 8160, 8192, 8222, 8213, 8142, 8142, 8132, 8167, 8130, 8138, 8193, 8181, 8125, 8133,7.583844900131226
49, 8175, 8203, 8209, 8246, 8148, 8159, 8145, 8168, 8121, 8148, 8204, 8194, 8133, 8144,7.583844900131226
50, 8176, 8199, 8212, 8251, 8143, 8165, 8137, 8162, 8111, 8147, 8204, 8202, 8128, 8145,7.583844900131226
51, 8170, 8183, 8230, 8243, 8142, 8166, 8141, 8166, 8121, 8140, 8201, 8209, 8120, 8141,7.599047422409058
52, 8176, 8178, 8201, 8258, 8148, 8173, 8165, 8165, 8152, 8154, 8202, 8207, 8129, 8145,7.614121913909912
53, 8196, 8194, 8247, 8261, 8150, 8182, 8173, 8177, 8169, 8162, 8197, 8232, 8137, 8164,7.614121913909912
54, 8197, 8196, 8227, 8270, 8156, 8177, 8181, 8178, 8190, 8172, 8220, 8229, 8147, 8166,7.629740953445435
55, 8187, 8182, 8217, 8261, 8136, 8163, 8160, 8172, 8172, 8162, 8230, 8224, 8144, 8160,7.629740953445435
56, 8181, 8185, 8231, 8253, 8110, 8170, 8140, 8173, 8145, 8149, 8214, 8237, 8147, 8166,7.645953416824341
57, 8183, 8180, 8191, 8266, 8115, 8164, 8141, 8163, 8155, 8159, 8221, 8226, 8164, 8166,7.645953416824341
58, 8194, 8174, 8231, 8250, 8117, 8154, 8134, 8167, 8145, 8154, 8228, 8239, 8149, 8168,7.661330461502075
59, 8207, 8179, 8221, 8246, 8125, 8160, 8149, 8169, 8148, 8156, 8233, 8252, 8151, 8180,7.661330461502075
60, 8220, 8182, 8224, 8250, 8140, 8155, 8169, 8169, 8171, 8167, 8245, 8256, 8179, 8197,7.676660776138306
61, 8210, 8176, 8243, 8236, 8135, 8152, 8170, 8173, 8172, 8172, 8242, 8254, 8180, 8196,7.6770336627960205
62, 8187, 8162, 8173, 8221, 8131, 8150, 8156, 8158, 8160, 8171, 8223, 8224, 8163, 8165,7.692577600479126
63, 8190, 8169, 8200, 8212, 8135, 8152, 8134, 8164, 8150, 8162, 8213, 8232, 8161, 8159,7.692577600479126
64, 8195, 8176, 8200, 8219, 8137, 8164, 8144, 8172, 8171, 8180, 8227, 8240, 8176, 8173,7.708591461181641
65, 8184, 8162, 8171, 8202, 8122, 8162, 8142, 8161, 8164, 8177, 8220, 8222, 8166, 8168,7.708591461181641
66, 8172, 8161, 8189, 8181, 8116, 8165, 8126, 8157, 8146, 8154, 8196, 8211, 8141, 8153,7.7242515087127686
67, 8166, 8148, 8151, 8180, 8133, 8160, 8147, 8158, 8173, 8159, 8188, 8186, 8133, 8140,7.7242515087127686
68, 8169, 8149, 8182, 8164, 8140, 8155, 8158, 8167, 8175, 8152, 8186, 8187, 8135, 8136,7.739580869674683
69, 8172, 8175, 8183, 8179, 8149, 8158, 8157, 8165, 8164, 8148, 8195, 8192, 8136, 8131,7.739580869674683
70, 8173, 8188, 8172, 8206, 8159, 8152, 8156, 8162, 8158, 8148, 8200, 8178, 8120, 8125,7.754827499389648
71, 8172, 8191, 8205, 8207, 8157, 8168, 8154, 8171, 8142, 8155, 8198, 8180, 8121, 8131,7.754827499389648
72, 8167, 8180, 8154, 8198, 8159, 8172, 8157, 8161, 8146, 8178, 8202, 8177, 8141, 8134,7.769848823547363
73, 8166, 8178, 8175, 8183, 8157, 8152, 8145, 8161, 8152, 8174, 8192, 8185, 8127, 8132,7.769848823547363
74, 8162, 8193, 8178, 8200, 8160, 8163, 8151, 8171, 8161, 8177, 8180, 8180, 8118, 8133,7.785901308059692
75, 8163, 8188, 8151, 8211, 8171, 8166, 8165, 8167, 8157, 8172, 8173, 8158, 8122, 8127,7.785901308059692
76, 8156, 8182, 8176, 8186, 8169, 8150, 8150, 8165, 8146, 8147, 8171, 8144, 8106, 8112,7.8010358810424805
77, 8137, 8181, 8125, 8180, 8159, 8155, 8142, 8158, 8149, 8157, 8176, 8123, 8101, 8094,7.8010358810424805
78, 8136, 8171, 8143, 8172, 8156, 8170, 8151, 8164, 8149, 8156, 8158, 8143, 8101, 8103,7.816690683364868
79, 8136, 8166, 8152, 8173, 8164, 8172, 8175, 8170, 8164, 8154, 8153, 8147, 8107, 8110,7.816690683364868
80, 8122, 8165, 8112, 8166, 8165, 8170, 8171, 8168, 8165, 8179, 8162, 8113, 8114, 8101,7.831984996795654
81, 8120, 8165, 8152, 8137, 8173, 8178, 8161, 8183, 8154, 8184, 8146, 8117, 8105, 8103,7.831984996795654
82, 8125, 8164, 8127, 8147, 8183, 8180, 8191, 8179, 8179, 8182, 8145, 8114, 8111, 8099,7.8476362228393555
83, 8129, 8169, 8136, 8160, 8169, 8184, 8189, 8173, 8177, 8179, 8159, 8115, 8112, 8103,7.8476362228393555
84, 8125, 8173, 8146, 8153, 8172, 8198, 8184, 8175, 8162, 8173, 8150, 8115, 8099, 8106,7.8628151416778564
85, 8115, 8158, 8106, 8143, 8179, 8181, 8189, 8158, 8158, 8165, 8126, 8088, 8092, 8094,7.8628151416778564
86, 8111, 8155, 8140, 8134, 8164, 8173, 8168, 8157, 8142, 8161, 8126, 8097, 8086, 8090,7.8789167404174805
87, 8121, 8158, 8124, 8144, 8175, 8189, 8181, 8168, 8158, 8178, 8142, 8111, 8086, 8105,7.8789167404174805
88, 8140, 8157, 8142, 8149, 8196, 8187, 8207, 8171, 8169, 8163, 8128, 8111, 8086, 8119,7.89494252204895
89, 8125, 8161, 8152, 8154, 8183, 8184, 8198, 8167, 8151, 8154, 8128, 8093, 8093, 8096,7.89494252204895
90, 8106, 8150, 8103, 8153, 8167, 8174, 8173, 8162, 8146, 8167, 8141, 8086, 8090, 8076,7.910584449768066
91, 8128, 8156, 8147, 8141, 8175, 8174, 8171, 8172, 8153, 8161, 8124, 8116, 8082, 8096,7.910584449768066
92, 8134, 8164, 8129, 8161, 8184, 8195, 8189, 8171, 8164, 8189, 8113, 8107, 8101, 8111,7.926219940185547
93, 8124, 8142, 8119, 8147, 8173, 8191, 8181, 8172, 8163, 8201, 8113, 8096, 8102, 8113,7.926219940185547
94, 8134, 8137, 8151, 8121, 8171, 8176, 8182, 8178, 8177, 8180, 8124, 8110, 8107, 8118,7.9418439865112305
95, 8139, 8164, 8128, 8152, 8182, 8176, 8197, 8166, 8190, 8190, 8147, 8107, 8127, 8117,7.9418439865112305
96, 8132, 8184, 8158, 8165, 8176, 8192, 8185, 8173, 8176, 8198, 8150, 8122, 8116, 8122,7.956970691680908
97, 8138, 8169, 8141, 8152, 8170, 8189, 8184, 8180, 8195, 8204, 8150, 8122, 8119, 8133,7.956970691680908
98, 8164, 8160, 8145, 8144, 8172, 8172, 8178, 8175, 8206, 8210, 8154, 8122, 8142, 8143,7.972572565078735
99, 8169, 8171, 8172, 8149, 8177, 8174, 8171, 8173, 8192, 8204, 8145, 8142, 8140, 8151,7.972572565078735
100, 8154, 8159, 8124, 8144, 8179, 8158, 8185, 8162, 8202, 8193, 8136, 8122, 8132, 8137,7.988617897033691
101, 8145, 8155, 8153, 8121, 8171, 8149, 8169, 8171, 8196, 8185, 8129, 8113, 8137, 8118,7.988617897033691
102, 8142, 8163, 8136, 8136, 8168, 8163, 8152, 8176, 8186, 8194, 8129, 8124, 8139, 8117,8.004645347595215
103, 8158, 8159, 8139, 8151, 8177, 8138, 8157, 8163, 8191, 8186, 8143, 8144, 8135, 8130,8.004645347595215
104, 8179, 8165, 8200, 8140, 8187, 8130, 8155, 8167, 8195, 8180, 8177, 8174, 8148, 8131,8.019770860671997
105, 8174, 8165, 8147, 8144, 8191, 8165, 8151, 8166, 8187, 8184, 8197, 8164, 8159, 8114,8.019770860671997
106, 8180, 8177, 8155, 8152, 8187, 8187, 8156, 8174, 8164, 8167, 8193, 8160, 8144, 8126,8.042892456054688
107, 8191, 8197, 8159, 8157, 8186, 8178, 8184, 8182, 8165, 8169, 8186, 8151, 8139, 8149,8.042892456054688
108, 8187, 8196, 8151, 8141, 8186, 8153, 8184, 8165, 8161, 8160, 8162, 8135, 8141, 8139,8.042892456054688
109, 8176, 8197, 8194, 8142, 8184, 8153, 8151, 8156, 8149, 8150, 8159, 8144, 8153, 8129,8.050907611846924
110, 8158, 8177, 8152, 8179, 8187, 8163, 8130, 8158, 8173, 8191, 8185, 8150, 8175, 8128,8.066093921661377
111, 8153, 8146, 8164, 8162, 8177, 8153, 8120, 8169, 8174, 8194, 8172, 8173, 8155, 8126,8.08264708518982
112, 8163, 8144, 8163, 8126, 8169, 8154, 8139, 8172, 8171, 8177, 8159, 8178, 8135, 8122,8.08264708518982
113, 8165, 8147, 8141, 8112, 8170, 8155, 8145, 8161, 8172, 8175, 8163, 8143, 8134, 8113,8.08264708518982
114, 8163, 8156, 8182, 8129, 8168, 8157, 8137, 8164, 8158, 8160, 8145, 8139, 8120, 8100,8.097158908843994
115, 8172, 8172, 8156, 8170, 8183, 8170, 8163, 8166, 8168, 8162, 8148, 8140, 8122, 8099,8.097158908843994
116, 8170, 8175, 8174, 8155, 8195, 8175, 8174, 8172, 8163, 8161, 8151, 8135, 8123, 8110,8.112897634506226
117, 8145, 8166, 8172, 8141, 8190, 8169, 8175, 8172, 8150, 8167, 8133, 8114, 8114, 8104,8.112897634506226
118, 8139, 8159, 8136, 8159, 8178, 8166, 8173, 8161, 8155, 8174, 8118, 8095, 8100, 8092,8.129591703414917
119, 8150, 8157, 8171, 8151, 8172, 8185, 8167, 8172, 8166, 8163, 8105, 8108, 8088, 8099,8.129591703414917
120, 8142, 8140, 8129, 8144, 8179, 8192, 8186, 8169, 8183, 8170, 8101, 8095, 8096, 8097,8.143630266189575
121, 8137, 8133, 8135, 8131, 8179, 8178, 8195, 8168, 8177, 8171, 8099, 8091, 8100, 8099,8.159613132476807
122, 8135, 8141, 8154, 8121, 8178, 8173, 8199, 8178, 8181, 8173, 8100, 8105, 8095, 8109,8.159613132476807
123, 8141, 8128, 8124, 8124, 8172, 8153, 8192, 8173, 8187, 8182, 8093, 8110, 8092, 8103,8.159613132476807
124, 8154, 8126, 8167, 8114, 8165, 8144, 8157, 8172, 8165, 8169, 8105, 8130, 8100, 8105,8.1757173538208
125, 8152, 8155, 8144, 8129, 8183, 8158, 8141, 8163, 8175, 8166, 8150, 8129, 8120, 8108,8.1757173538208
126, 8161, 8182, 8162, 8155, 8188, 8158, 8139, 8160, 8187, 8162, 8167, 8145, 8126, 8108,8.19029450416565
127, 8167, 8186, 8197, 8176, 8178, 8163, 8150, 8166, 8168, 8160, 8161, 8147, 8128, 8105,8.205920696258545
237, 8145, 8168, 8142, 8178, 8185, 8183, 8176, 8167, 8162, 8176, 8146, 8107, 8118, 8104,8.205920696258545
0, 8138, 8159, 8159, 8149, 8188, 8197, 8183, 8176, 8173, 8184, 8111, 8117, 8093, 8108,8.222769021987915
1, 8156, 8161, 8148, 8161, 8193, 8202, 8197, 8172, 8197, 8212, 8115, 8131, 8108, 8114,8.222769021987915
2, 8177, 8177, 8165, 8191, 8207, 8208, 8210, 8176, 8214, 8234, 8143, 8138, 8135, 8141,8.222769021987915
3, 8183, 8195, 8196, 8195, 8217, 8224, 8216, 8186, 8238, 8233, 8150, 8154, 8141, 8156,8.236806631088257
4, 8171, 8181, 8147, 8188, 8214, 8215, 8216, 8173, 8250, 8234, 8157, 8146, 8150, 8140,8.25286602973938
5, 8169, 8176, 8172, 8176, 8195, 8202, 8192, 8174, 8228, 8223, 8158, 8150, 8147, 8133,8.25286602973938
6, 8168, 8181, 8156, 8172, 8188, 8202, 8185, 8176, 8232, 8219, 8141, 8131, 8133, 8129,8.268760442733765
7, 8164, 8168, 8142, 8155, 8191, 8194, 8189, 8170, 8233, 8221, 8132, 8118, 8128, 8124,8.268760442733765
8, 8165, 8168, 8167, 8164, 8196, 8202, 8198, 8176, 8226, 8241, 8149, 8145, 8139, 8138,8.2842435836792
9, 8174, 8166, 8139, 8186, 8198, 8201, 8211, 8172, 8231, 8254, 8162, 8141, 8145, 8147,8.2842435836792
10, 8178, 8158, 8178, 8164, 8188, 8184, 8204, 8177, 8222, 8226, 8153, 8138, 8127, 8143,8.299656867980957
11, 8171, 8163, 8159, 8163, 8191, 8180, 8211, 8181, 8227, 8222, 8148, 8140, 8125, 8139,8.299656867980957
12, 8177, 8172, 8145, 8181, 8201, 8182, 8205, 8172, 8219, 8218, 8143, 8128, 8128, 8137,8.315766334533691
13, 8178, 8176, 8181, 8185, 8199, 8192, 8192, 8177, 8212, 8206, 8151, 8125, 8127, 8136,8.315766334533691
14, 8158, 8161, 8128, 8183, 8188, 8184, 8197, 8171, 8237, 8222, 8171, 8121, 8136, 8121,8.3317232131958
15, 8149, 8158, 8156, 8171, 8180, 8172, 8185, 8170, 8211, 8212, 8159, 8132, 8124, 8114,8.3317232131958
16, 8162, 8174, 8167, 8180, 8188, 8176, 8196, 8173, 8191, 8205, 8154, 8138, 8116, 8128,8.346638202667236
17, 8171, 8168, 8143, 8179, 8190, 8167, 8205, 8169, 8206, 8218, 8162, 8142, 8123, 8136,8.346638202667236
18, 8151, 8152, 8170, 8160, 8184, 8168, 8170, 8167, 8189, 8199, 8146, 8142, 8115, 8124,8.362621307373047
19, 8138, 8148, 8133, 8167, 8187, 8172, 8152, 8156, 8180, 8179, 8137, 8113, 8107, 8112,8.362621307373047
20, 8152, 8163, 8158, 8162, 8175, 8172, 8161, 8160, 8179, 8177, 8147, 8125, 8110, 8117,8.377750873565674
21, 8155, 8180, 8163, 8167, 8180, 8194, 8168, 8168, 8184, 8191, 8163, 8143, 8135, 8122,8.377750873565674
22, 8160, 8174, 8142, 8175, 8195, 8187, 8147, 8163, 8192, 8191, 8169, 8138, 8154, 8123,8.393799304962158
23, 8175, 8173, 8184, 8159, 8180, 8156, 8132, 8167, 8173, 8182, 8165, 8153, 8152, 8125,8.393799304962158
24, 8173, 8170, 8153, 8169, 8173, 8154, 8156, 8163, 8164, 8202, 8168, 8154, 8154, 8127,8.408981084823608
25, 8186, 8173, 8180, 8173, 8190, 8168, 8166, 8167, 8174, 8201, 8179, 8174, 8154, 8146,8.408981084823608
26, 8196, 8181, 8190, 8165, 8195, 8172, 8167, 8172, 8187, 8190, 8192, 8184, 8164, 8152,8.424580335617065
27, 8179, 8167, 8145, 8158, 8182, 8164, 8155, 8164, 8180, 8178, 8176, 8153, 8160, 8133,8.424580335617065
28, 8170, 8170, 8177, 8149, 8180, 8168, 8134, 8164, 8168, 8159, 8157, 8146, 8136, 8120,8.439762592315674
29, 8169, 8178, 8153, 8158, 8184, 8168, 8140, 8160, 8177, 8173, 8169, 8136, 8146, 8110,8.439762592315674
30, 8167, 8170, 8159, 8153, 8174, 8154, 8135, 8160, 8163, 8166, 8166, 8145, 8152, 8107,8.455806732177734
31, 8166, 8168, 8169, 8150, 8173, 8164, 8134, 8161, 8150, 8149, 8156, 8158, 8140, 8110,8.455806732177734
32, 8168, 8166, 8145, 8152, 8181, 8171, 8147, 8156, 8155, 8171, 8165, 8146, 8142, 8116,8.470948696136475
33, 8174, 8170, 8188, 8137, 8191, 8162, 8147, 8171, 8156, 8189, 8169, 8166, 8149, 8132,8.470948696136475
34, 8173, 8177, 8160, 8158, 8203, 8161, 8156, 8172, 8172, 8192, 8181, 8172, 8156, 8133,8.485989570617676
35, 8184, 8184, 8165, 8182, 8193, 8171, 8155, 8168, 8173, 8182, 8182, 8172, 8141, 8130,8.485989570617676
36, 8196, 8186, 8196, 8182, 8186, 8180, 8150, 8177, 8178, 8193, 8176, 8180, 8136, 8139,8.50205683708191
37, 8196, 8182, 8170, 8183, 8197, 8164, 8150, 8167, 8177, 8201, 8184, 8166, 8148, 8132,8.50205683708191
38, 8185, 8199, 8203, 8193, 8193, 8174, 8139, 8157, 8140, 8175, 8181, 8168, 8138, 8119,8.517660140991211
39, 8177, 8190, 8172, 8206, 8192, 8195, 8152, 8157, 8159, 8166, 8163, 8165, 8122, 8121,8.517660140991211
40, 8189, 8171, 8176, 8188, 8206, 8168, 8166, 8166, 8181, 8154, 8152, 8149, 8122, 8122,8.533174991607666
41, 8188, 8199, 8210, 8197, 8203, 8165, 8152, 8175, 8151, 8153, 8174, 8148, 8135, 8115,8.533174991607666
42, 8172, 8199, 8159, 8217, 8180, 8171, 8134, 8161, 8123, 8166, 8171, 8145, 8123, 8111,8.549278497695923
43, 8174, 8172, 8197, 8191, 8173, 8157, 8133, 8162, 8113, 8151, 8138, 8160, 8099, 8120,8.549278497695923
44, 8180, 8183, 8200, 8197, 8193, 8172, 8160, 8166, 8149, 8160, 8159, 8161, 8119, 8128,8.564377784729004
45, 8180, 8202, 8186, 8221, 8198, 8191, 8170, 8166, 8176, 8182, 8178, 8156, 8142, 8138,8.564377784729004
46, 8189, 8206, 8215, 8238, 8199, 8195, 8184, 8182, 8184, 8205, 8172, 8179, 8153, 8153,8.579955339431763
47, 8204, 8215, 8193, 8268, 8214, 8196, 8216, 8180, 8210, 8242, 8198, 8199, 8174, 8167,8.579955339431763
48, 8215, 8227, 8237, 8270, 8212, 8203, 8204, 8171, 8205, 8236, 8208, 8222, 8171, 8184,8.596043109893799
49, 8210, 8221, 8218, 8257, 8210, 8201, 8191, 8164, 8184, 8225, 8203, 8212, 8167, 8179,8.596043109893799
50, 8207, 8212, 8197, 8251, 8208, 8194, 8197, 8171, 8184, 8231, 8225, 8213, 8185, 8171,8.611814498901367
51, 8219, 8225, 8250, 8265, 8194, 8201, 8198, 8186, 8208, 8224, 8253, 8252, 8200, 8192,8.611814498901367
52, 8229, 8229, 8222, 8296, 8193, 8188, 8191, 8172, 8237, 8230, 8265, 8258, 8212, 8199,8.627634048461914
53, 8238, 8227, 8246, 8300, 8200, 8175, 8174, 8176, 8246, 8226, 8260, 8275, 8205, 8191,8.627634048461914
54, 8240, 8236, 8246, 8306, 8199, 8180, 8187, 8183, 8257, 8231, 8267, 8285, 8208, 8190,8.643019437789917
55, 8240, 8241, 8233, 8320, 8193, 8172, 8184, 8167, 8235, 8232, 8279, 8282, 8220, 8189,8.643019437789917
56, 8253, 8255, 8282, 8333, 8202, 8168, 8154, 8166, 8193, 8206, 8282, 8298, 8214, 8180,8.659009218215942
57, 8266, 8262, 8249, 8361, 8216, 8165, 8155, 8166, 8193, 8193, 8285, 8287, 8213, 8171,8.659009218215942
58, 8267, 8261, 8263, 8352, 8204, 8158, 8147, 8166, 8189, 8184, 8283, 8288, 8207, 8179,8.67364501953125
59, 8260, 8261, 8264, 8343, 8196, 8158, 8140, 8166, 8189, 8185, 8281, 8288, 8205, 8173,8.67364501953125
60, 8269, 8254, 8238, 8354, 8204, 8155, 8149, 8168, 8205, 8192, 8276, 8278, 8211, 8167,8.689626216888428
61, 8277, 8254, 8271, 8341, 8205, 8155, 8144, 8171, 8197, 8191, 8271, 8294, 8209, 8184,8.689626216888428
62, 8259, 8242, 8231, 8332, 8198, 8155, 8137, 8156, 8182, 8187, 8268, 8274, 8197, 8171,8.705066680908203
63, 8239, 8227, 8241, 8323, 8188, 8154, 8126, 8157, 8161, 8158, 8246, 8251, 8177, 8141,8.705066680908203
64, 8229, 8225, 8241, 8317, 8199, 8168, 8137, 8162, 8164, 8169, 8249, 8252, 8177, 8140,8.721105098724365
65, 8221, 8216, 8201, 8308, 8210, 8174, 8147, 8152, 8173, 8197, 8260, 8235, 8174, 8140,8.721105098724365
66, 8208, 8211, 8236, 8294, 8192, 8182, 8140, 8166, 8170, 8187, 8232, 8219, 8154, 8127,8.737022638320923
67, 8201, 8212, 8205, 8303, 8190, 8190, 8163, 8175, 8197, 8203, 8220, 8203, 8157, 8131,8.737022638320923
68, 8208, 8212, 8208, 8289, 8200, 8185, 8167, 8175, 8204, 8221, 8230, 8216, 8160, 8146,8.751752853393555
69, 8204, 8203, 8215, 8269, 8196, 8181, 8157, 8178, 8195, 8220, 8220, 8216, 8158, 8143,8.751752853393555
70, 8195, 8184, 8167, 8255, 8193, 8164, 8163, 8167, 8203, 8223, 8199, 8189, 8166, 8142,8.767197132110596
71, 8190, 8183, 8197, 8229, 8188, 8150, 8161, 8164, 8191, 8210, 8186, 8189, 8155, 8145,8.767197132110596
72, 8175, 8182, 8168, 8238, 8181, 8153, 8162, 8162, 8171, 8203, 8181, 8163, 8137, 8118,8.78308916091919
73, 8179, 8177, 8172, 8240, 8179, 8153, 8155, 8167, 8161, 8200, 8172, 8151, 8131, 8109,8.78308916091919
74, 8194, 8182, 8197, 8229, 8182, 8153, 8153, 8173, 8183, 8203, 8175, 8168, 8146, 8136,8.798687219619751
75, 8186, 8164, 8146, 8221, 8173, 8136, 8149, 8157, 8192, 8194, 8171, 8152, 8151, 8132,8.798687219619751
76, 8181, 8161, 8173, 8208, 8164, 8135, 8154, 8167, 8179, 8175, 8154, 8157, 8138, 8122,8.813802480697632
77, 8196, 8187, 8165, 8233, 8192, 8161, 8202, 8187, 8219, 8207, 8171, 8168, 8152, 8140,8.813802480697632
78, 8209, 8194, 8164, 8239, 8203, 8158, 8208, 8187, 8238, 8220, 8189, 8170, 8161, 8154,8.82849931716919
79, 8202, 8188, 8178, 8216, 8187, 8152, 8186, 8183, 8215, 8208, 8180, 8169, 8155, 8144,8.843582391738892
80, 8190, 8185, 8130, 8214, 8189, 8152, 8198, 8178, 8215, 8224, 8179, 8155, 8165, 8133,8.843582391738892
81, 8201, 8194, 8173, 8210, 8196, 8154, 8202, 8188, 8214, 8215, 8185, 8168, 8166, 8140,8.859137535095215
82, 8212, 8194, 8165, 8208, 8195, 8166, 8204, 8184, 8219, 8201, 8192, 8168, 8159, 8137,8.859137535095215
83, 8201, 8180, 8147, 8188, 8188, 8155, 8195, 8173, 8213, 8194, 8178, 8150, 8150, 8129,8.87510895729065
84, 8176, 8168, 8160, 8158, 8183, 8136, 8175, 8177, 8202, 8194, 8154, 8145, 8140, 8120,8.87510895729065
85, 8169, 8159, 8115, 8156, 8179, 8137, 8174, 8177, 8219, 8206, 8161, 8140, 8143, 8111,8.89105486869812
86, 8181, 8173, 8154, 8155, 8173, 8148, 8176, 8182, 8215, 8193, 8173, 8159, 8145, 8122,8.89105486869812
87, 8175, 8184, 8155, 8160, 8177, 8145, 8186, 8178, 8202, 8190, 8181, 8161, 8153, 8130,8.90617322921753
88, 8179, 8176, 8149, 8157, 8181, 8132, 8186, 8178, 8207, 8209, 8185, 8157, 8162, 8133,8.90617322921753
89, 8182, 8170, 8175, 8145, 8181, 8141, 8179, 8187, 8213, 8203, 8175, 8162, 8157, 8134,8.92186188697815
90, 8157, 8159, 8115, 8142, 8178, 8143, 8179, 8170, 8210, 8185, 8159, 8122, 8136, 8115,8.92186188697815
91, 8153, 8169, 8150, 8138, 8174, 8142, 8175, 8168, 8196, 8183, 8149, 8119, 8120, 8114,8.937043190002441
92, 8168, 8190, 8166, 8163, 8187, 8158, 8189, 8177, 8214, 8207, 8167, 8142, 8139, 8128,8.937043190002441
93, 8169, 8185, 8140, 8174, 8196, 8149, 8190, 8174, 8224, 8205, 8178, 8138, 8140, 8124,8.952592134475708
94, 8171, 8189, 8183, 8163, 8198, 8147, 8188, 8181, 8212, 8194, 8172, 8140, 8125, 8129,8.952592134475708
95, 8167, 8193, 8158, 8181, 8208, 8169, 8226, 8182, 8231, 8219, 8165, 8121, 8140, 8133,8.968585729598999
96, 8160, 8185, 8172, 8187, 8210, 8182, 8242, 8187, 8236, 8222, 8146, 8112, 8135, 8126,8.968585729598999
97, 8163, 8189, 8170, 8190, 8213, 8188, 8239, 8187, 8231, 8219, 8143, 8115, 8121, 8124,8.984069347381592
98, 8168, 8185, 8143, 8182, 8209, 8178, 8235, 8175, 8233, 8220, 8137, 8111, 8118, 8130,8.984069347381592
