COUNTER,F3,FC5,AF3,F7,T7,P7,O1,O2,P8,T8,F8,AF4,FC6,F4,Timestamp
117, 8234, 8218, 8214, 8237, 8235, 8213, 8235, 8178, 8223, 8244, 8220, 8226, 8205, 8191,0.028565645217895508
118, 8234, 8216, 8198, 8260, 8246, 8216, 8256, 8177, 8237, 8264, 8222, 8218, 8215, 8196,0.028565645217895508
119, 8229, 8208, 8224, 8220, 8245, 8217, 8258, 8181, 8230, 8252, 8201, 8224, 8203, 8194,0.04412245750427246
120, 8233, 8205, 8190, 8219, 8254, 8229, 8261, 8173, 8242, 8261, 8208, 8226, 8207, 8194,0.04412245750427246
121, 8232, 8210, 8222, 8249, 8248, 8222, 8249, 8173, 8243, 8264, 8217, 8226, 8210, 8196,0.05971169471740723
122, 8218, 8204, 8209, 8257, 8238, 8210, 8253, 8180, 8246, 8268, 8208, 8212, 8204, 8192,0.05971169471740723
123, 8221, 8196, 8182, 8251, 8248, 8213, 8268, 8181, 8264, 8272, 8192, 8205, 8203, 8192,0.07504916191101074
124, 8219, 8209, 8219, 8257, 8259, 8226, 8276, 8191, 8279, 8261, 8183, 8211, 8199, 8193,0.07504916191101074
125, 8211, 8210, 8177, 8270, 8260, 8221, 8280, 8183, 8290, 8266, 8190, 8195, 8205, 8182,0.0910341739654541
126, 8228, 8209, 8202, 8257, 8252, 8209, 8268, 8178, 8274, 8264, 8191, 8209, 8209, 8185,0.0910341739654541
127, 8227, 8208, 8206, 8258, 8247, 8212, 8263, 8185, 8265, 8259, 8192, 8214, 8208, 8187,0.10671162605285645
236, 8200, 8186, 8163, 8245, 8239, 8197, 8253, 8178, 8268, 8250, 8181, 8190, 8193, 8173,0.10671162605285645
0, 8194, 8180, 8193, 8211, 8227, 8178, 8223, 8177, 8249, 8225, 8160, 8200, 8174, 8161,0.12087106704711914
1, 8203, 8195, 8171, 8225, 8231, 8176, 8218, 8175, 8227, 8211, 8166, 8200, 8178, 8150,0.1218717098236084
2, 8209, 8213, 8203, 8238, 8238, 8178, 8222, 8173, 8208, 8203, 8182, 8203, 8178, 8149,0.13756346702575684
3, 8213, 8232, 8220, 8244, 8247, 8194, 8232, 8175, 8217, 8213, 8191, 8212, 8183, 8151,0.13756346702575684
4, 8211, 8228, 8183, 8252, 8261, 8206, 8242, 8174, 8240, 8224, 8187, 8194, 8189, 8152,0.15095806121826172
5, 8201, 8215, 8212, 8244, 8262, 8207, 8241, 8178, 8234, 8214, 8164, 8181, 8166, 8157,0.1666111946105957
6, 8179, 8193, 8172, 8238, 8253, 8199, 8245, 8171, 8228, 8217, 8139, 8161, 8143, 8145,0.1666111946105957
7, 8167, 8172, 8170, 8215, 8236, 8188, 8234, 8166, 8218, 8214, 8123, 8152, 8138, 8132,0.18186497688293457
8, 8185, 8181, 8188, 8208, 8234, 8179, 8238, 8181, 8232, 8228, 8134, 8168, 8162, 8147,0.18186497688293457
9, 8200, 8188, 8163, 8216, 8239, 8160, 8253, 8185, 8268, 8246, 8148, 8184, 8179, 8159,0.19809532165527344
10, 8191, 8178, 8191, 8187, 8230, 8168, 8242, 8186, 8264, 8223, 8134, 8194, 8166, 8152,0.19809532165527344
11, 8181, 8173, 8157, 8174, 8226, 8179, 8235, 8176, 8247, 8213, 8132, 8176, 8162, 8136,0.21311259269714355
12, 8203, 8202, 8186, 8200, 8232, 8163, 8230, 8170, 8236, 8219, 8156, 8192, 8168, 8137,0.21311259269714355
13, 8220, 8229, 8224, 8233, 8245, 8170, 8243, 8184, 8242, 8217, 8178, 8222, 8174, 8152,0.22904253005981445
14, 8190, 8202, 8164, 8224, 8241, 8173, 8250, 8176, 8235, 8203, 8161, 8189, 8165, 8141,0.22904253005981445
15, 8163, 8182, 8176, 8188, 8226, 8170, 8225, 8170, 8198, 8180, 8128, 8164, 8133, 8118,0.24464964866638184
16, 8167, 8199, 8167, 8207, 8237, 8187, 8228, 8176, 8205, 8188, 8142, 8166, 8135, 8113,0.24464964866638184
17, 8183, 8206, 8176, 8225, 8244, 8192, 8237, 8177, 8224, 8193, 8157, 8175, 8146, 8123,0.26043701171875
18, 8178, 8193, 8187, 8209, 8231, 8187, 8231, 8179, 8217, 8180, 8135, 8166, 8129, 8124,0.26043701171875
19, 8156, 8178, 8139, 8209, 8223, 8183, 8235, 8168, 8211, 8182, 8121, 8138, 8118, 8111,0.2766563892364502
20, 8152, 8180, 8176, 8205, 8215, 8180, 8231, 8168, 8194, 8186, 8131, 8147, 8127, 8109,0.2766563892364502
21, 8145, 8174, 8158, 8200, 8212, 8186, 8228, 8168, 8189, 8195, 8135, 8148, 8128, 8107,0.2919425964355469
22, 8144, 8167, 8149, 8199, 8221, 8194, 8227, 8164, 8191, 8191, 8116, 8139, 8115, 8107,0.2919425964355469
23, 8164, 8194, 8199, 8219, 8236, 8199, 8232, 8177, 8200, 8194, 8137, 8164, 8136, 8123,0.30803418159484863
24, 8169, 8201, 8161, 8234, 8232, 8194, 8235, 8175, 8214, 8215, 8170, 8166, 8160, 8128,0.30803418159484863
25, 8154, 8178, 8168, 8202, 8210, 8195, 8227, 8172, 8193, 8198, 8120, 8147, 8124, 8117,0.3240025043487549
26, 8146, 8168, 8158, 8200, 8208, 8205, 8237, 8177, 8183, 8196, 8090, 8137, 8113, 8109,0.3240025043487549
27, 8150, 8165, 8153, 8208, 8213, 8199, 8233, 8178, 8193, 8215, 8136, 8151, 8145, 8114,0.3391296863555908
28, 8149, 8162, 8185, 8187, 8208, 8196, 8232, 8184, 8205, 8221, 8165, 8171, 8160, 8129,0.3391296863555908
29, 8147, 8149, 8138, 8176, 8209, 8201, 8259, 8179, 8227, 8243, 8167, 8159, 8167, 8130,0.35480213165283203
30, 8147, 8142, 8162, 8161, 8205, 8198, 8251, 8179, 8213, 8242, 8165, 8162, 8167, 8128,0.35480213165283203
31, 8148, 8149, 8164, 8161, 8205, 8200, 8235, 8187, 8202, 8226, 8167, 8168, 8174, 8130,0.3708760738372803
32, 8167, 8152, 8149, 8160, 8215, 8197, 8240, 8179, 8218, 8222, 8180, 8170, 8186, 8134,0.3708760738372803
33, 8179, 8159, 8188, 8149, 8213, 8191, 8233, 8175, 8222, 8217, 8187, 8190, 8179, 8139,0.3869009017944336
34, 8159, 8161, 8145, 8157, 8208, 8181, 8229, 8168, 8222, 8222, 8183, 8178, 8178, 8138,0.3869009017944336
35, 8158, 8162, 8166, 8156, 8211, 8174, 8223, 8169, 8218, 8218, 8181, 8180, 8188, 8140,0.4026930332183838
36, 8173, 8174, 8180, 8156, 8216, 8179, 8218, 8173, 8226, 8217, 8196, 8199, 8198, 8149,0.4026930332183838
37, 8175, 8176, 8159, 8160, 8216, 8171, 8204, 8166, 8217, 8212, 8208, 8206, 8197, 8150,0.4182131290435791
38, 8175, 8174, 8191, 8154, 8212, 8171, 8185, 8169, 8179, 8185, 8198, 8211, 8185, 8139,0.4182131290435791
39, 8172, 8168, 8156, 8157, 8213, 8180, 8201, 8171, 8184, 8176, 8189, 8194, 8184, 8122,0.43407106399536133
40, 8161, 8163, 8170, 8139, 8206, 8174, 8210, 8175, 8189, 8169, 8182, 8193, 8174, 8114,0.43407106399536133
41, 8145, 8161, 8169, 8124, 8193, 8164, 8209, 8179, 8173, 8172, 8179, 8190, 8164, 8109,0.45011234283447266
42, 8148, 8164, 8140, 8136, 8193, 8161, 8219, 8168, 8173, 8180, 8184, 8178, 8166, 8107,0.45011234283447266
43, 8166, 8188, 8194, 8158, 8205, 8180, 8221, 8175, 8187, 8181, 8191, 8201, 8172, 8124,0.4657409191131592
44, 8174, 8200, 8177, 8183, 8215, 8195, 8220, 8185, 8202, 8191, 8207, 8200, 8183, 8136,0.4657409191131592
45, 8173, 8194, 8178, 8177, 8207, 8189, 8206, 8181, 8198, 8184, 8209, 8189, 8177, 8131,0.4819328784942627
46, 8163, 8191, 8188, 8166, 8204, 8190, 8196, 8177, 8198, 8177, 8200, 8185, 8161, 8120,0.4819328784942627
47, 8162, 8188, 8173, 8181, 8206, 8187, 8202, 8168, 8201, 8192, 8206, 8182, 8161, 8114,0.4969162940979004
48, 8182, 8204, 8239, 8219, 8206, 8188, 8209, 8178, 8190, 8206, 8225, 8214, 8181, 8131,0.4969162940979004
49, 8194, 8219, 8214, 8258, 8215, 8190, 8213, 8181, 8199, 8215, 8243, 8226, 8195, 8142,0.5127484798431396
50, 8198, 8211, 8214, 8260, 8208, 8181, 8196, 8172, 8192, 8209, 8253, 8237, 8188, 8149,0.5127484798431396
51, 8213, 8226, 8270, 8284, 8205, 8194, 8205, 8177, 8184, 8219, 8285, 8282, 8209, 8175,0.5276815891265869
52, 8228, 8237, 8257, 8325, 8220, 8203, 8227, 8175, 8203, 8235, 8306, 8295, 8235, 8184,0.5276815891265869
53, 8224, 8222, 8274, 8306, 8210, 8193, 8212, 8178, 8200, 8221, 8287, 8289, 8218, 8176,0.5428366661071777
54, 8206, 8204, 8238, 8293, 8189, 8190, 8213, 8171, 8194, 8221, 8285, 8276, 8213, 8174,0.5428366661071777
55, 8210, 8200, 8235, 8298, 8183, 8185, 8210, 8163, 8182, 8210, 8285, 8279, 8222, 8177,0.5583481788635254
56, 8221, 8201, 8258, 8283, 8178, 8184, 8196, 8179, 8181, 8199, 8277, 8290, 8224, 8177,0.5583481788635254
57, 8223, 8199, 8215, 8275, 8183, 8181, 8203, 8176, 8199, 8222, 8281, 8275, 8227, 8178,0.5739498138427734
58, 8237, 8211, 8252, 8279, 8194, 8181, 8205, 8166, 8186, 8211, 8266, 8273, 8219, 8181,0.5739498138427734
59, 8234, 8209, 8226, 8281, 8199, 8187, 8210, 8170, 8180, 8199, 8255, 8261, 8217, 8174,0.5890188217163086
60, 8213, 8189, 8200, 8248, 8193, 8181, 8207, 8177, 8193, 8213, 8259, 8254, 8222, 8168,0.5890188217163086
61, 8209, 8193, 8229, 8224, 8195, 8188, 8208, 8183, 8211, 8228, 8259, 8265, 8230, 8175,0.6046140193939209
62, 8222, 8196, 8189, 8240, 8207, 8190, 8221, 8178, 8227, 8236, 8253, 8251, 8233, 8171,0.6046140193939209
63, 8227, 8191, 8210, 8223, 8202, 8173, 8204, 8179, 8199, 8216, 8245, 8254, 8216, 8157,0.6198694705963135
64, 8215, 8185, 8195, 8197, 8191, 8172, 8196, 8174, 8176, 8209, 8253, 8257, 8214, 8152,0.6198694705963135
65, 8225, 8192, 8187, 8207, 8192, 8177, 8200, 8166, 8179, 8212, 8253, 8250, 8220, 8157,0.6359469890594482
66, 8246, 8219, 8237, 8231, 8201, 8178, 8195, 8179, 8178, 8201, 8239, 8257, 8212, 8164,0.6359469890594482
67, 8244, 8223, 8203, 8243, 8210, 8177, 8199, 8175, 8175, 8198, 8247, 8253, 8215, 8158,0.6512236595153809
68, 8235, 8212, 8221, 8219, 8208, 8179, 8195, 8163, 8161, 8189, 8252, 8255, 8209, 8152,0.6512236595153809
69, 8230, 8217, 8220, 8215, 8216, 8184, 8198, 8171, 8167, 8202, 8252, 8251, 8207, 8155,0.6666607856750488
70, 8228, 8219, 8203, 8237, 8226, 8187, 8208, 8177, 8180, 8235, 8266, 8250, 8225, 8163,0.6666607856750488
71, 8224, 8217, 8237, 8240, 8220, 8198, 8205, 8181, 8168, 8232, 8269, 8255, 8233, 8166,0.6821630001068115
72, 8211, 8209, 8190, 8229, 8210, 8189, 8200, 8173, 8159, 8214, 8250, 8227, 8222, 8147,0.6821630001068115
73, 8208, 8208, 8207, 8205, 8208, 8170, 8184, 8170, 8152, 8214, 8252, 8235, 8211, 8140,0.6978521347045898
74, 8216, 8215, 8222, 8214, 8214, 8180, 8189, 8171, 8166, 8241, 8287, 8264, 8229, 8161,0.6978521347045898
75, 8214, 8207, 8200, 8240, 8211, 8188, 8203, 8169, 8186, 8250, 8286, 8259, 8240, 8169,0.7128665447235107
76, 8206, 8203, 8229, 8234, 8206, 8191, 8195, 8183, 8178, 8231, 8253, 8252, 8226, 8157,0.7128665447235107
77, 8203, 8203, 8187, 8234, 8217, 8198, 8198, 8178, 8178, 8241, 8254, 8241, 8222, 8147,0.7279517650604248
78, 8205, 8188, 8201, 8227, 8213, 8201, 8197, 8172, 8173, 8242, 8256, 8244, 8217, 8152,0.7450535297393799
79, 8200, 8180, 8216, 8229, 8204, 8206, 8201, 8176, 8166, 8229, 8247, 8241, 8215, 8154,0.7450535297393799
80, 8198, 8188, 8188, 8246, 8211, 8201, 8202, 8169, 8163, 8222, 8244, 8220, 8217, 8145,0.7450535297393799
81, 8201, 8193, 8227, 8236, 8210, 8207, 8189, 8172, 8154, 8217, 8240, 8227, 8212, 8147,0.7596435546875
82, 8201, 8176, 8192, 8232, 8199, 8219, 8201, 8176, 8170, 8236, 8241, 8227, 8222, 8156,0.7596435546875
83, 8206, 8172, 8194, 8235, 8195, 8205, 8206, 8175, 8173, 8229, 8233, 8224, 8222, 8157,0.7752273082733154
84, 8208, 8190, 8210, 8248, 8208, 8201, 8207, 8181, 8177, 8225, 8228, 8227, 8217, 8152,0.7752273082733154
85, 8209, 8185, 8178, 8256, 8214, 8208, 8210, 8172, 8191, 8246, 8232, 8220, 8225, 8151,0.7909302711486816
86, 8216, 8173, 8212, 8242, 8206, 8206, 8193, 8173, 8180, 8234, 8223, 8234, 8218, 8160,0.7909302711486816
87, 8207, 8173, 8179, 8247, 8216, 8196, 8190, 8177, 8186, 8229, 8223, 8222, 8212, 8159,0.8080089092254639
88, 8205, 8171, 8183, 8245, 8223, 8187, 8195, 8177, 8195, 8244, 8236, 8212, 8220, 8163,0.8080089092254639
89, 8213, 8174, 8212, 8236, 8211, 8182, 8193, 8181, 8196, 8252, 8242, 8233, 8237, 8170,0.82259202003479
90, 8207, 8169, 8163, 8224, 8202, 8164, 8181, 8172, 8201, 8240, 8248, 8233, 8249, 8153,0.8235936164855957
91, 8203, 8173, 8192, 8200, 8201, 8157, 8164, 8173, 8187, 8216, 8251, 8228, 8240, 8139,0.8386385440826416
92, 8201, 8187, 8179, 8207, 8204, 8162, 8170, 8172, 8184, 8219, 8251, 8211, 8238, 8140,0.8386385440826416
93, 8203, 8195, 8177, 8217, 8201, 8156, 8164, 8165, 8185, 8219, 8248, 8219, 8247, 8142,0.8538053035736084
94, 8213, 8211, 8217, 8222, 8203, 8164, 8158, 8177, 8185, 8215, 8260, 8249, 8252, 8151,0.8538053035736084
95, 8214, 8215, 8186, 8236, 8210, 8162, 8165, 8173, 8178, 8218, 8264, 8234, 8241, 8142,0.8698337078094482
96, 8210, 8216, 8205, 8222, 8204, 8147, 8151, 8163, 8152, 8191, 8239, 8220, 8221, 8122,0.8698337078094482
97, 8220, 8223, 8192, 8226, 8205, 8154, 8152, 8164, 8166, 8191, 8248, 8221, 8242, 8126,0.8858702182769775
98, 8242, 8232, 8200, 8250, 8213, 8161, 8156, 8167, 8177, 8207, 8272, 8228, 8257, 8143,0.8858702182769775
99, 8238, 8244, 8237, 8262, 8213, 8162, 8149, 8168, 8146, 8198, 8255, 8225, 8234, 8143,0.9019560813903809
100, 8214, 8233, 8186, 8266, 8216, 8170, 8162, 8156, 8144, 8199, 8235, 8195, 8222, 8132,0.9019560813903809
101, 8210, 8216, 8205, 8244, 8214, 8182, 8175, 8164, 8157, 8214, 8231, 8194, 8224, 8140,0.9179620742797852
102, 8207, 8203, 8192, 8226, 8209, 8189, 8186, 8174, 8167, 8235, 8231, 8188, 8237, 8148,0.9179620742797852
103, 8195, 8182, 8160, 8216, 8199, 8177, 8181, 8167, 8174, 8229, 8221, 8175, 8243, 8142,0.9340143203735352
104, 8201, 8184, 8190, 8206, 8190, 8169, 8169, 8176, 8182, 8216, 8228, 8204, 8249, 8155,0.9340143203735352
105, 8220, 8203, 8168, 8218, 8200, 8159, 8167, 8176, 8193, 8227, 8263, 8226, 8265, 8166,0.9496281147003174
106, 8236, 8223, 8207, 8230, 8213, 8156, 8159, 8172, 8172, 8212, 8264, 8229, 8250, 8153,0.9496281147003174
107, 8234, 8236, 8206, 8243, 8214, 8171, 8170, 8176, 8158, 8199, 8247, 8213, 8230, 8142,0.9647152423858643
108, 8223, 8227, 8176, 8239, 8206, 8175, 8177, 8170, 8162, 8211, 8241, 8198, 8226, 8148,0.9647152423858643
109, 8214, 8211, 8209, 8226, 8201, 8187, 8177, 8172, 8157, 8209, 8216, 8201, 8212, 8151,0.9801626205444336
110, 8205, 8196, 8168, 8228, 8200, 8196, 8194, 8172, 8157, 8205, 8191, 8174, 8199, 8141,0.9801626205444336
111, 8201, 8186, 8181, 8208, 8185, 8177, 8189, 8174, 8160, 8208, 8203, 8173, 8201, 8147,0.9959101676940918
112, 8199, 8185, 8194, 8196, 8172, 8164, 8180, 8174, 8183, 8226, 8220, 8194, 8212, 8154,0.9959101676940918
113, 8200, 8190, 8172, 8200, 8175, 8154, 8178, 8162, 8183, 8221, 8213, 8199, 8213, 8146,1.0129611492156982
114, 8206, 8202, 8209, 8190, 8177, 8149, 8164, 8166, 8156, 8191, 8231, 8215, 8212, 8143,1.0129611492156982
115, 8196, 8195, 8174, 8182, 8169, 8155, 8159, 8166, 8158, 8203, 8257, 8204, 8214, 8133,1.028024435043335
116, 8177, 8179, 8181, 8162, 8162, 8159, 8147, 8165, 8153, 8211, 8233, 8191, 8196, 8120,1.028024435043335
117, 8171, 8187, 8195, 8161, 8176, 8167, 8147, 8168, 8140, 8203, 8213, 8192, 8183, 8115,1.0440468788146973
118, 8186, 8192, 8172, 8183, 8188, 8168, 8157, 8164, 8144, 8208, 8228, 8193, 8191, 8116,1.0440468788146973
119, 8192, 8193, 8216, 8182, 8178, 8177, 8157, 8174, 8142, 8215, 8227, 8201, 8191, 8127,1.0589509010314941
120, 8174, 8196, 8181, 8191, 8183, 8185, 8168, 8173, 8149, 8229, 8208, 8176, 8189, 8126,1.0589509010314941
121, 8174, 8194, 8178, 8188, 8181, 8177, 8166, 8165, 8141, 8211, 8186, 8162, 8173, 8115,1.0750255584716797
122, 8176, 8188, 8188, 8171, 8165, 8179, 8162, 8171, 8124, 8189, 8171, 8165, 8157, 8113,1.0892746448516846
123, 8154, 8162, 8137, 8157, 8160, 8177, 8170, 8166, 8129, 8202, 8165, 8146, 8155, 8108,1.0892746448516846
124, 8152, 8157, 8168, 8141, 8151, 8175, 8165, 8171, 8140, 8216, 8159, 8146, 8154, 8114,1.1058712005615234
125, 8171, 8174, 8166, 8156, 8154, 8181, 8173, 8184, 8162, 8226, 8167, 8153, 8162, 8128,1.1058712005615234
126, 8185, 8179, 8183, 8171, 8171, 8183, 8190, 8185, 8171, 8229, 8169, 8165, 8170, 8141,1.1058712005615234
127, 8180, 8175, 8195, 8166, 8185, 8201, 8214, 8187, 8186, 8248, 8172, 8177, 8186, 8153,1.1209402084350586
236, 8164, 8164, 8140, 8163, 8188, 8211, 8226, 8182, 8211, 8266, 8177, 8157, 8197, 8143,1.1379411220550537
0, 8160, 8166, 8176, 8144, 8184, 8201, 8209, 8185, 8207, 8237, 8154, 8151, 8179, 8126,1.1379411220550537
1, 8170, 8167, 8162, 8126, 8183, 8185, 8206, 8183, 8206, 8231, 8167, 8163, 8184, 8128,1.1379411220550537
2, 8182, 8171, 8152, 8118, 8170, 8165, 8191, 8172, 8194, 8233, 8202, 8185, 8191, 8135,1.152496576309204
3, 8170, 8191, 8184, 8124, 8166, 8170, 8175, 8175, 8171, 8208, 8184, 8179, 8166, 8116,1.1675994396209717
4, 8149, 8188, 8147, 8140, 8177, 8191, 8190, 8176, 8172, 8208, 8152, 8135, 8140, 8093,1.1675994396209717
5, 8151, 8170, 8170, 8134, 8181, 8204, 8206, 8187, 8184, 8224, 8150, 8139, 8134, 8107,1.1831154823303223
6, 8150, 8163, 8153, 8131, 8181, 8207, 8229, 8188, 8218, 8244, 8161, 8140, 8152, 8120,1.1831154823303223
7, 8152, 8155, 8141, 8122, 8176, 8199, 8230, 8176, 8227, 8249, 8154, 8126, 8158, 8117,1.1991581916809082
8, 8165, 8153, 8173, 8108, 8169, 8201, 8211, 8188, 8211, 8250, 8156, 8151, 8152, 8130,1.1991581916809082
9, 8181, 8167, 8151, 8138, 8169, 8196, 8217, 8187, 8227, 8263, 8180, 8170, 8172, 8145,1.2147586345672607
10, 8197, 8182, 8192, 8134, 8172, 8184, 8216, 8182, 8238, 8248, 8185, 8191, 8184, 8149,1.2147586345672607
11, 8192, 8168, 8171, 8095, 8167, 8175, 8205, 8185, 8235, 8265, 8192, 8201, 8179, 8141,1.2299225330352783
12, 8184, 8168, 8151, 8104, 8160, 8168, 8197, 8178, 8224, 8310, 8205, 8188, 8176, 8129,1.2299225330352783
13, 8197, 8212, 8212, 8150, 8173, 8187, 8205, 8179, 8215, 8321, 8202, 8184, 8173, 8130,1.245332956314087
14, 8203, 8220, 8180, 8166, 8199, 8200, 8222, 8176, 8229, 8316, 8203, 8184, 8171, 8141,1.245332956314087
15, 8192, 8199, 8195, 8147, 8195, 8194, 8218, 8184, 8225, 8310, 8204, 8198, 8167, 8150,1.2610139846801758
16, 8181, 8209, 8202, 8168, 8186, 8201, 8227, 8192, 8222, 8322, 8204, 8191, 8171, 8147,1.2610139846801758
17, 8181, 8205, 8172, 8178, 8194, 8200, 8234, 8176, 8224, 8323, 8190, 8168, 8168, 8138,1.2769429683685303
18, 8179, 8189, 8197, 8156, 8196, 8202, 8224, 8180, 8216, 8309, 8168, 8173, 8154, 8144,1.2769429683685303
19, 8175, 8185, 8161, 8166, 8192, 8202, 8230, 8181, 8230, 8315, 8163, 8165, 8161, 8150,1.2917935848236084
20, 8174, 8174, 8162, 8150, 8173, 8176, 8216, 8169, 8224, 8293, 8151, 8160, 8154, 8137,1.2917935848236084
21, 8162, 8163, 8153, 8128, 8159, 8160, 8201, 8167, 8207, 8268, 8141, 8148, 8140, 8118,1.306908369064331
22, 8161, 8168, 8129, 8131, 8167, 8160, 8198, 8170, 8202, 8267, 8150, 8138, 8147, 8118,1.306908369064331
23, 8175, 8187, 8182, 8128, 8175, 8161, 8186, 8180, 8189, 8256, 8164, 8160, 8145, 8119,1.322383165359497
24, 8169, 8192, 8162, 8142, 8180, 8165, 8184, 8177, 8188, 8253, 8169, 8162, 8135, 8103,1.322383165359497
25, 8168, 8188, 8175, 8155, 8186, 8168, 8186, 8170, 8188, 8255, 8164, 8164, 8133, 8106,1.3376498222351074
26, 8172, 8191, 8187, 8161, 8190, 8179, 8194, 8176, 8192, 8261, 8166, 8172, 8148, 8121,1.3376498222351074
27, 8157, 8176, 8147, 8155, 8180, 8187, 8204, 8174, 8199, 8274, 8163, 8160, 8151, 8112,1.3529305458068848
28, 8152, 8173, 8181, 8147, 8170, 8191, 8204, 8177, 8201, 8281, 8150, 8165, 8140, 8119,1.3529305458068848
29, 8169, 8178, 8167, 8158, 8180, 8185, 8209, 8180, 8215, 8284, 8158, 8163, 8151, 8142,1.3684656620025635
30, 8176, 8170, 8165, 8143, 8177, 8172, 8202, 8177, 8212, 8275, 8171, 8169, 8168, 8149,1.3684656620025635
31, 8173, 8162, 8171, 8130, 8166, 8175, 8202, 8181, 8213, 8282, 8188, 8192, 8186, 8151,1.383890151977539
32, 8187, 8169, 8153, 8142, 8173, 8174, 8203, 8179, 8225, 8292, 8206, 8200, 8194, 8155,1.383890151977539
33, 8196, 8181, 8201, 8137, 8170, 8167, 8185, 8174, 8205, 8265, 8207, 8214, 8182, 8150,1.399029016494751
34, 8183, 8167, 8173, 8134, 8164, 8160, 8179, 8167, 8186, 8247, 8202, 8212, 8181, 8138,1.399029016494751
35, 8180, 8164, 8173, 8138, 8168, 8159, 8174, 8168, 8181, 8243, 8198, 8205, 8182, 8135,1.4142084121704102
36, 8183, 8185, 8199, 8148, 8167, 8168, 8174, 8179, 8181, 8238, 8198, 8197, 8165, 8130,1.4142084121704102
37, 8165, 8172, 8150, 8162, 8162, 8163, 8181, 8172, 8181, 8236, 8183, 8171, 8143, 8114,1.430238962173462
38, 8151, 8153, 8179, 8154, 8163, 8165, 8169, 8173, 8172, 8231, 8168, 8174, 8137, 8115,1.430238962173462
39, 8150, 8158, 8171, 8151, 8163, 8181, 8172, 8177, 8183, 8246, 8178, 8170, 8153, 8119,1.4460182189941406
40, 8144, 8146, 8155, 8152, 8149, 8177, 8174, 8165, 8176, 8239, 8166, 8151, 8147, 8105,1.4460182189941406
41, 8146, 8140, 8179, 8159, 8152, 8181, 8180, 8172, 8162, 8235, 8149, 8159, 8140, 8114,1.461597204208374
42, 8167, 8152, 8156, 8171, 8170, 8191, 8200, 8174, 8181, 8260, 8175, 8171, 8167, 8143,1.461597204208374
43, 8180, 8151, 8189, 8148, 8155, 8180, 8190, 8172, 8184, 8244, 8185, 8190, 8174, 8151,1.4775872230529785
44, 8170, 8142, 8167, 8135, 8137, 8169, 8177, 8175, 8185, 8229, 8181, 8187, 8168, 8141,1.4775872230529785
45, 8178, 8148, 8155, 8141, 8143, 8167, 8176, 8172, 8193, 8243, 8199, 8192, 8180, 8144,1.4936857223510742
46, 8203, 8170, 8207, 8147, 8156, 8169, 8167, 8172, 8185, 8231, 8208, 8222, 8191, 8154,1.4936857223510742
47, 8210, 8177, 8179, 8166, 8164, 8163, 8164, 8165, 8179, 8219, 8210, 8223, 8197, 8150,1.5078144073486328
48, 8208, 8183, 8200, 8162, 8168, 8163, 8161, 8165, 8168, 8219, 8213, 8215, 8191, 8142,1.5078144073486328
49, 8192, 8181, 8190, 8154, 8171, 8170, 8164, 8166, 8164, 8217, 8202, 8188, 8176, 8126,1.524355411529541
50, 8179, 8175, 8172, 8168, 8174, 8167, 8164, 8162, 8159, 8204, 8181, 8163, 8158, 8121,1.524355411529541
51, 8180, 8181, 8213, 8182, 8178, 8181, 8169, 8176, 8150, 8197, 8166, 8170, 8143, 8131,1.5390620231628418
52, 8176, 8169, 8171, 8182, 8180, 8196, 8193, 8176, 8165, 8224, 8165, 8155, 8151, 8130,1.5390620231628418
53, 8169, 8155, 8181, 8165, 8175, 8199, 8200, 8172, 8173, 8238, 8162, 8147, 8156, 8130,1.5546295642852783
54, 8166, 8165, 8182, 8180, 8179, 8203, 8201, 8170, 8172, 8239, 8159, 8136, 8148, 8126,1.569678783416748
55, 8168, 8162, 8163, 8187, 8176, 8185, 8192, 8161, 8163, 8232, 8156, 8121, 8143, 8115,1.569678783416748
56, 8170, 8145, 8199, 8147, 8157, 8176, 8174, 8174, 8163, 8224, 8159, 8141, 8157, 8129,1.569678783416748
57, 8167, 8137, 8155, 8136, 8149, 8179, 8177, 8176, 8185, 8243, 8171, 8139, 8176, 8136,1.5850410461425781
58, 8166, 8149, 8167, 8148, 8154, 8167, 8162, 8165, 8168, 8229, 8154, 8129, 8155, 8117,1.600689172744751
59, 8167, 8169, 8185, 8168, 8169, 8172, 8157, 8171, 8158, 8207, 8152, 8138, 8146, 8111,1.600689172744751
60, 8176, 8169, 8164, 8173, 8179, 8189, 8175, 8169, 8180, 8217, 8188, 8153, 8171, 8120,1.6157705783843994
61, 8187, 8171, 8206, 8160, 8173, 8185, 8168, 8170, 8171, 8206, 8194, 8169, 8173, 8127,1.6157705783843994
62, 8183, 8180, 8174, 8181, 8182, 8172, 8163, 8164, 8155, 8193, 8177, 8152, 8159, 8122,1.630944013595581
63, 8176, 8184, 8182, 8194, 8188, 8173, 8165, 8163, 8143, 8184, 8166, 8142, 8142, 8111,1.630944013595581
64, 8177, 8184, 8202, 8194, 8186, 8194, 8178, 8174, 8151, 8194, 8170, 8147, 8142, 8108,1.6470420360565186
65, 8178, 8175, 8170, 8208, 8193, 8210, 8194, 8173, 8181, 8226, 8177, 8140, 8156, 8116,1.6470420360565186
66, 8175, 8173, 8204, 8202, 8188, 8222, 8195, 8182, 8188, 8235, 8169, 8145, 8158, 8132,1.6628661155700684
67, 8158, 8159, 8167, 8183, 8177, 8214, 8198, 8179, 8194, 8232, 8163, 8129, 8156, 8129,1.6628661155700684
68, 8166, 8156, 8166, 8168, 8177, 8190, 8191, 8167, 8206, 8227, 8171, 8130, 8157, 8132,1.6781108379364014
69, 8201, 8181, 8204, 8189, 8188, 8193, 8195, 8178, 8222, 8236, 8194, 8168, 8175, 8156,1.6781108379364014
70, 8203, 8174, 8168, 8205, 8179, 8183, 8190, 8171, 8213, 8231, 8200, 8171, 8185, 8155,1.6936514377593994
71, 8191, 8160, 8195, 8181, 8160, 8155, 8156, 8162, 8174, 8187, 8191, 8178, 8166, 8139,1.6936514377593994
72, 8209, 8180, 8197, 8199, 8173, 8158, 8160, 8167, 8176, 8186, 8222, 8200, 8175, 8148,1.7088167667388916
73, 8240, 8202, 8230, 8240, 8178, 8168, 8174, 8169, 8178, 8203, 8260, 8228, 8193, 8168,1.7088167667388916
74, 8246, 8225, 8276, 8267, 8175, 8178, 8163, 8173, 8164, 8199, 8272, 8250, 8193, 8168,1.7248601913452148
75, 8228, 8227, 8234, 8295, 8183, 8179, 8154, 8164, 8169, 8196, 8276, 8239, 8191, 8150,1.7248601913452148
76, 8213, 8211, 8261, 8298, 8180, 8173, 8147, 8165, 8154, 8178, 8262, 8236, 8178, 8146,1.7399911880493164
77, 8210, 8207, 8250, 8313, 8183, 8184, 8168, 8172, 8150, 8193, 8261, 8231, 8178, 8160,1.7399911880493164
78, 8231, 8211, 8249, 8329, 8190, 8196, 8182, 8170, 8171, 8219, 8274, 8239, 8194, 8172,1.7555055618286133
79, 8242, 8209, 8278, 8319, 8177, 8189, 8164, 8176, 8175, 8215, 8277, 8260, 8207, 8177,1.7555055618286133
80, 8234, 8197, 8228, 8306, 8159, 8161, 8147, 8165, 8172, 8211, 8281, 8258, 8223, 8174,1.7716212272644043
81, 8247, 8201, 8258, 8299, 8162, 8149, 8131, 8163, 8169, 8204, 8290, 8281, 8233, 8179,1.7716212272644043
82, 8265, 8210, 8261, 8313, 8176, 8161, 8130, 8166, 8178, 8210, 8303, 8297, 8234, 8181,1.7879047393798828
83, 8271, 8206, 8247, 8307, 8171, 8156, 8127, 8158, 8168, 8201, 8299, 8292, 8226, 8173,1.7879047393798828
84, 8260, 8211, 8267, 8280, 8164, 8152, 8121, 8167, 8143, 8173, 8280, 8288, 8208, 8164,1.803863286972046
85, 8241, 8209, 8212, 8282, 8175, 8150, 8128, 8164, 8137, 8171, 8271, 8256, 8195, 8148,1.803863286972046
86, 8226, 8199, 8227, 8279, 8178, 8154, 8126, 8162, 8125, 8170, 8258, 8234, 8179, 8141,1.8189234733581543
87, 8210, 8194, 8217, 8269, 8174, 8174, 8147, 8166, 8131, 8181, 8244, 8219, 8177, 8143,1.8189234733581543
88, 8202, 8187, 8182, 8258, 8175, 8184, 8170, 8166, 8147, 8192, 8225, 8197, 8178, 8144,1.8351280689239502
89, 8198, 8181, 8202, 8242, 8180, 8196, 8174, 8180, 8150, 8196, 8205, 8187, 8168, 8148,1.8351280689239502
90, 8178, 8163, 8155, 8233, 8180, 8200, 8185, 8176, 8175, 8219, 8205, 8167, 8176, 8139,1.8506097793579102
91, 8174, 8153, 8172, 8198, 8166, 8181, 8181, 8171, 8186, 8213, 8201, 8174, 8180, 8134,1.8506097793579102
92, 8194, 8163, 8176, 8180, 8162, 8171, 8174, 8175, 8184, 8196, 8201, 8185, 8180, 8139,1.8666718006134033
93, 8195, 8162, 8144, 8187, 8171, 8158, 8163, 8169, 8185, 8193, 8208, 8173, 8186, 8134,1.8666718006134033
94, 8181, 8162, 8181, 8175, 8166, 8150, 8148, 8174, 8183, 8190, 8208, 8183, 8186, 8132,1.8827426433563232
95, 8185, 8165, 8157, 8178, 8167, 8152, 8152, 8170, 8188, 8198, 8224, 8187, 8193, 8138,1.8827426433563232
96, 8199, 8180, 8177, 8183, 8183, 8159, 8146, 8165, 8182, 8199, 8231, 8197, 8188, 8140,1.8982410430908203
97, 8192, 8189, 8184, 8180, 8190, 8168, 8148, 8172, 8186, 8198, 8217, 8193, 8175, 8132,1.8982410430908203
98, 8175, 8166, 8144, 8170, 8180, 8163, 8152, 8163, 8183, 8188, 8197, 8157, 8159, 8117,1.9138617515563965
99, 8165, 8158, 8179, 8158, 8173, 8168, 8142, 8166, 8149, 8163, 8184, 8149, 8136, 8109,1.9138617515563965
100, 8156, 8167, 8149, 8165, 8179, 8186, 8163, 8169, 8148, 8169, 8176, 8137, 8131, 8102,1.9289112091064453
101, 8166, 8174, 8159, 8161, 8187, 8190, 8180, 8169, 8170, 8180, 8168, 8136, 8137, 8111,1.9289112091064453
102, 8175, 8180, 8184, 8167, 8189, 8192, 8174, 8174, 8184, 8181, 8168, 8145, 8145, 8122,1.9449758529663086
103, 8158, 8163, 8147, 8172, 8178, 8190, 8170, 8165, 8174, 8173, 8157, 8124, 8134, 8104,1.9449758529663086
104, 8145, 8149, 8167, 8148, 8168, 8197, 8177, 8170, 8157, 8158, 8138, 8119, 8111, 8091,1.9610095024108887
105, 8150, 8156, 8138, 8157, 8185, 8216, 8202, 8177, 8186, 8188, 8154, 8122, 8133, 8113,1.9610095024108887
106, 8157, 8153, 8145, 8166, 8196, 8218, 8203, 8177, 8208, 8214, 8163, 8129, 8151, 8130,1.9770207405090332
107, 8150, 8145, 8167, 8151, 8190, 8214, 8199, 8183, 8207, 8207, 8149, 8125, 8142, 8123,1.9770207405090332
108, 8144, 8143, 8127, 8145, 8187, 8204, 8213, 8179, 8207, 8210, 8147, 8109, 8143, 8124,1.9926319122314453
109, 8152, 8143, 8160, 8134, 8177, 8200, 8208, 8178, 8199, 8210, 8144, 8122, 8148, 8142,1.9926319122314453
110, 8149, 8135, 8139, 8133, 8173, 8195, 8197, 8175, 8208, 8204, 8148, 8122, 8157, 8142,2.015671491622925
111, 8154, 8131, 8140, 8123, 8174, 8174, 8185, 8175, 8219, 8199, 8167, 8128, 8169, 8139,2.015671491622925
112, 8167, 8146, 8168, 8111, 8168, 8176, 8185, 8174, 8220, 8202, 8172, 8142, 8171, 8148,2.0171756744384766
113, 8161, 8147, 8125, 8117, 8170, 8176, 8194, 8159, 8213, 8193, 8157, 8128, 8160, 8146,2.023691177368164
114, 8163, 8152, 8167, 8120, 8176, 8168, 8185, 8172, 8200, 8168, 8156, 8146, 8162, 8146,2.0389468669891357
115, 8169, 8166, 8158, 8128, 8173, 8171, 8183, 8183, 8209, 8179, 8180, 8154, 8173, 8135,2.0389468669891357
116, 8153, 8162, 8132, 8111, 8157, 8165, 8169, 8169, 8201, 8170, 8168, 8123, 8143, 8105,2.054959774017334
117, 8137, 8150, 8157, 8105, 8152, 8173, 8166, 8177, 8182, 8155, 8131, 8106, 8111, 8105,2.054959774017334
118, 8138, 8137, 8124, 8139, 8170, 8201, 8202, 8185, 8206, 8201, 8136, 8101, 8141, 8121,2.07104754447937
119, 8143, 8127, 8144, 8109, 8168, 8199, 8202, 8181, 8215, 8211, 8133, 8108, 8167, 8122,2.07104754447937
120, 8140, 8124, 8130, 8072, 8153, 8174, 8187, 8179, 8224, 8193, 8122, 8104, 8166, 8122,2.087280035018921
121, 8146, 8140, 8126, 8103, 8161, 8164, 8185, 8179, 8231, 8192, 8142, 8112, 8177, 8133,2.087280035018921
122, 8162, 8177, 8175, 8140, 8181, 8169, 8176, 8179, 8206, 8173, 8155, 8139, 8186, 8133,2.1030924320220947
123, 8169, 8180, 8147, 8156, 8191, 8161, 8174, 8161, 8194, 8168, 8160, 8129, 8175, 8118,2.1030924320220947
124, 8166, 8160, 8178, 8162, 8183, 8167, 8167, 8161, 8179, 8167, 8160, 8123, 8147, 8119,2.119030475616455
125, 8156, 8164, 8175, 8182, 8201, 8192, 8182, 8176, 8177, 8187, 8165, 8130, 8145, 8125,2.119030475616455
126, 8167, 8161, 8154, 8187, 8229, 8199, 8204, 8177, 8200, 8220, 8171, 8130, 8166, 8129,2.1340720653533936
127, 8190, 8141, 8195, 8166, 8224, 8198, 8200, 8185, 8220, 8223, 8173, 8144, 8177, 8153,2.1340720653533936
236, 8176, 8126, 8146, 8140, 8204, 8176, 8180, 8177, 8219, 8193, 8168, 8133, 8182, 8147,2.149608850479126
0, 8161, 8131, 8152, 8110, 8199, 8151, 8158, 8164, 8192, 8160, 8159, 8135, 8161, 8116,2.149608850479126
1, 8170, 8142, 8166, 8117, 8227, 8161, 8172, 8170, 8199, 8181, 8176, 8152, 8147, 8123,2.1649577617645264
2, 8168, 8134, 8146, 8134, 8259, 8173, 8190, 8169, 8211, 8194, 8176, 8142, 8152, 8135,2.1649577617645264
3, 8153, 8128, 8182, 8130, 8272, 8187, 8194, 8175, 8188, 8173, 8136, 8133, 8134, 8111,2.1803293228149414
4, 8136, 8116, 8138, 8123, 8276, 8197, 8213, 8176, 8195, 8185, 8108, 8109, 8117, 8095,2.1803293228149414
5, 8128, 8099, 8133, 8094, 8263, 8187, 8214, 8176, 8218, 8199, 8105, 8108, 8122, 8114,2.196690320968628
6, 8130, 8099, 8148, 8091, 8263, 8192, 8211, 8179, 8217, 8198, 8117, 8117, 8136, 8123,2.196690320968628
7, 8142, 8100, 8135, 8123, 8282, 8197, 8211, 8176, 8205, 8200, 8126, 8115, 8138, 8119,2.2126882076263428
8, 8147, 8112, 8172, 8115, 8282, 8188, 8197, 8182, 8205, 8195, 8127, 8134, 8135, 8130,2.2126882076263428
9, 8141, 8119, 8127, 8098, 8277, 8185, 8196, 8173, 8221, 8197, 8135, 8127, 8151, 8124,2.2280101776123047
10, 8153, 8117, 8145, 8100, 8275, 8190, 8194, 8168, 8210, 8189, 8132, 8127, 8162, 8120,2.2280101776123047
11, 8168, 8113, 8181, 8104, 8264, 8188, 8183, 8182, 8199, 8185, 8142, 8149, 8176, 8142,2.243522882461548
12, 8173, 8104, 8142, 8101, 8254, 8162, 8175, 8178, 8205, 8188, 8164, 8153, 8189, 8144,2.243522882461548
13, 8172, 8123, 8175, 8098, 8249, 8156, 8166, 8174, 8191, 8172, 8151, 8157, 8176, 8122,2.2596116065979004
14, 8160, 8139, 8156, 8114, 8252, 8177, 8177, 8168, 8188, 8167, 8137, 8146, 8170, 8104,2.2596116065979004
15, 8156, 8126, 8157, 8108, 8246, 8177, 8171, 8161, 8176, 8157, 8145, 8152, 8169, 8102,2.275686502456665
16, 8152, 8124, 8175, 8103, 8238, 8171, 8158, 8170, 8167, 8149, 8149, 8161, 8170, 8098,2.275686502456665
17, 8144, 8126, 8137, 8120, 8234, 8175, 8164, 8165, 8177, 8162, 8144, 8141, 8175, 8086,2.2905969619750977
18, 8152, 8132, 8182, 8117, 8223, 8185, 8160, 8168, 8166, 8157, 8135, 8146, 8168, 8090,2.2905969619750977
19, 8149, 8136, 8170, 8120, 8213, 8182, 8161, 8173, 8167, 8156, 8137, 8139, 8167, 8091,2.307241916656494
20, 8127, 8129, 8151, 8117, 8201, 8173, 8160, 8166, 8165, 8154, 8129, 8122, 8159, 8078,2.307241916656494
21, 8111, 8124, 8164, 8107, 8200, 8188, 8170, 8173, 8156, 8145, 8112, 8121, 8150, 8075,2.322645664215088
22, 8114, 8120, 8134, 8120, 8203, 8198, 8192, 8173, 8166, 8160, 8103, 8108, 8156, 8082,2.322645664215088
23, 8132, 8135, 8182, 8133, 8202, 8198, 8197, 8177, 8175, 8174, 8104, 8122, 8155, 8100,2.338158130645752
24, 8141, 8153, 8167, 8149, 8204, 8209, 8212, 8181, 8197, 8185, 8122, 8131, 8167, 8108,2.338158130645752
25, 8138, 8137, 8141, 8141, 8191, 8201, 8210, 8175, 8209, 8177, 8114, 8118, 8168, 8099,2.353954553604126
26, 8126, 8120, 8162, 8124, 8169, 8192, 8196, 8176, 8194, 8160, 8081, 8110, 8155, 8094,2.353954553604126
27, 8121, 8114, 8113, 8124, 8162, 8189, 8199, 8170, 8188, 8163, 8081, 8098, 8161, 8098,2.36934757232666
28, 8129, 8112, 8133, 8102, 8147, 8178, 8180, 8169, 8174, 8154, 8094, 8110, 8164, 8098,2.36934757232666
29, 8121, 8110, 8127, 8098, 8133, 8176, 8171, 8168, 8171, 8151, 8089, 8105, 8163, 8083,2.3852107524871826
30, 8110, 8113, 8107, 8108, 8134, 8170, 8170, 8161, 8175, 8154, 8084, 8089, 8160, 8071,2.3852107524871826
31, 8125, 8130, 8146, 8103, 8133, 8162, 8167, 8173, 8177, 8159, 8102, 8114, 8164, 8087,2.4006428718566895
32, 8149, 8141, 8126, 8119, 8133, 8158, 8170, 8176, 8191, 8180, 8138, 8143, 8193, 8104,2.4006428718566895
33, 8154, 8148, 8158, 8124, 8141, 8161, 8153, 8170, 8179, 8167, 8145, 8155, 8202, 8098,2.416073799133301
34, 8143, 8159, 8154, 8125, 8149, 8172, 8148, 8166, 8175, 8154, 8140, 8136, 8191, 8082,2.416073799133301
35, 8135, 8155, 8127, 8122, 8145, 8168, 8153, 8166, 8183, 8154, 8135, 8117, 8182, 8072,2.4321553707122803
36, 8126, 8151, 8161, 8105, 8133, 8165, 8144, 8175, 8158, 8139, 8123, 8129, 8178, 8072,2.4321553707122803
37, 8114, 8147, 8120, 8110, 8132, 8165, 8141, 8164, 8138, 8141, 8129, 8121, 8189, 8063,2.447798490524292
38, 8124, 8151, 8139, 8119, 8131, 8158, 8131, 8164, 8133, 8143, 8131, 8118, 8191, 8056,2.447798490524292
39, 8133, 8166, 8154, 8128, 8134, 8164, 8133, 8175, 8147, 8145, 8128, 8122, 8184, 8063,2.463131904602051
40, 8123, 8170, 8133, 8130, 8139, 8168, 8147, 8165, 8153, 8141, 8128, 8120, 8177, 8066,2.463131904602051
41, 8120, 8176, 8171, 8134, 8142, 8175, 8156, 8169, 8144, 8132, 8130, 8129, 8171, 8070,2.4786558151245117
42, 8125, 8177, 8141, 8152, 8147, 8185, 8174, 8176, 8153, 8150, 8135, 8116, 8179, 8074,2.4786558151245117
43, 8134, 8181, 8154, 8142, 8145, 8190, 8172, 8172, 8150, 8146, 8135, 8123, 8179, 8082,2.4947540760040283
44, 8133, 8186, 8166, 8132, 8144, 8192, 8162, 8175, 8144, 8129, 8137, 8133, 8176, 8083,2.4947540760040283
45, 8120, 8167, 8133, 8143, 8150, 8188, 8165, 8176, 8144, 8137, 8131, 8109, 8175, 8076,2.5108656883239746
46, 8125, 8164, 8173, 8146, 8148, 8206, 8172, 8180, 8144, 8152, 8120, 8112, 8177, 8086,2.5108656883239746
47, 8139, 8172, 8152, 8158, 8153, 8218, 8189, 8178, 8168, 8165, 8127, 8121, 8187, 8100,2.5267350673675537
48, 8139, 8171, 8158, 8160, 8154, 8192, 8182, 8172, 8167, 8156, 8129, 8127, 8184, 8109,2.5267350673675537
49, 8131, 8171, 8169, 8155, 8144, 8179, 8171, 8175, 8148, 8150, 8125, 8124, 8182, 8109,2.542346715927124
50, 8137, 8164, 8139, 8157, 8141, 8182, 8178, 8172, 8161, 8165, 8131, 8113, 8189, 8105,2.542346715927124
51, 8149, 8163, 8175, 8141, 8136, 8177, 8178, 8170, 8168, 8163, 8128, 8131, 8190, 8111,2.5580899715423584
52, 8142, 8158, 8140, 8126, 8124, 8169, 8174, 8164, 8153, 8156, 8117, 8130, 8187, 8106,2.5580899715423584
53, 8140, 8153, 8134, 8118, 8123, 8167, 8168, 8165, 8141, 8150, 8113, 8129, 8185, 8094,2.573094606399536
54, 8146, 8161, 8162, 8119, 8133, 8186, 8180, 8180, 8161, 8158, 8131, 8149, 8198, 8101,2.573094606399536
55, 8146, 8159, 8127, 8127, 8126, 8187, 8188, 8172, 8185, 8163, 8140, 8143, 8206, 8109,2.588925838470459
56, 8151, 8154, 8162, 8121, 8106, 8164, 8159, 8169, 8161, 8137, 8126, 8147, 8188, 8105,2.588925838470459
57, 8159, 8162, 8156, 8132, 8121, 8157, 8150, 8176, 8146, 8133, 8142, 8161, 8192, 8102,2.604482650756836
58, 8174, 8174, 8163, 8139, 8139, 8156, 8149, 8171, 8147, 8140, 8171, 8186, 8205, 8110,2.604482650756836
59, 8179, 8182, 8194, 8141, 8129, 8154, 8140, 8169, 8140, 8141, 8169, 8194, 8195, 8113,2.6198806762695312
60, 8170, 8182, 8146, 8157, 8131, 8143, 8146, 8165, 8134, 8141, 8159, 8169, 8187, 8101,2.6198806762695312
61, 8176, 8188, 8177, 8147, 8138, 8140, 8157, 8171, 8129, 8121, 8160, 8180, 8187, 8104,2.635915756225586
62, 8179, 8191, 8178, 8142, 8133, 8152, 8171, 8179, 8146, 8132, 8167, 8185, 8193, 8112,2.635915756225586
63, 8162, 8179, 8162, 8142, 8126, 8156, 8165, 8171, 8141, 8137, 8144, 8158, 8175, 8102,2.6519789695739746
64, 8144, 8178, 8180, 8146, 8132, 8173, 8160, 8170, 8115, 8104, 8107, 8140, 8145, 8089,2.6519789695739746
65, 8142, 8175, 8136, 8159, 8139, 8188, 8171, 8162, 8117, 8100, 8101, 8128, 8146, 8082,2.666999578475952
66, 8147, 8170, 8167, 8144, 8129, 8182, 8161, 8164, 8112, 8113, 8112, 8147, 8157, 8090,2.666999578475952
67, 8151, 8180, 8178, 8162, 8144, 8190, 8176, 8181, 8137, 8144, 8139, 8168, 8174, 8108,2.6828434467315674
68, 8167, 8196, 8176, 8206, 8169, 8199, 8199, 8180, 8166, 8165, 8148, 8173, 8186, 8122,2.6828434467315674
69, 8176, 8202, 8203, 8205, 8158, 8186, 8188, 8174, 8144, 8146, 8126, 8176, 8180, 8121,2.6979408264160156
70, 8170, 8182, 8154, 8175, 8136, 8164, 8184, 8164, 8142, 8143, 8125, 8172, 8187, 8115,2.6979408264160156
71, 8173, 8175, 8185, 8154, 8130, 8167, 8187, 8172, 8168, 8152, 8137, 8195, 8195, 8135,2.714937448501587
72, 8179, 8199, 8193, 8181, 8145, 8181, 8195, 8178, 8175, 8153, 8146, 8202, 8200, 8147,2.714937448501587
73, 8175, 8203, 8157, 8198, 8148, 8175, 8191, 8166, 8158, 8142, 8150, 8181, 8206, 8135,2.7294387817382812
74, 8178, 8204, 8188, 8177, 8140, 8176, 8178, 8179, 8152, 8137, 8154, 8199, 8212, 8141,2.7294387817382812
75, 8191, 8214, 8166, 8191, 8151, 8180, 8182, 8182, 8177, 8159, 8178, 8221, 8233, 8155,2.7459869384765625
76, 8206, 8222, 8195, 8208, 8162, 8174, 8173, 8174, 8178, 8162, 8195, 8236, 8243, 8157,2.7459869384765625
77, 8202, 8226, 8206, 8208, 8158, 8167, 8164, 8174, 8169, 8151, 8193, 8235, 8242, 8151,2.7602717876434326
78, 8193, 8221, 8172, 8199, 8145, 8147, 8154, 8160, 8160, 8138, 8191, 8222, 8236, 8140,2.7768735885620117
79, 8202, 8222, 8212, 8188, 8140, 8148, 8137, 8164, 8142, 8131, 8195, 8237, 8230, 8138,2.7768735885620117
80, 8209, 8224, 8188, 8201, 8147, 8161, 8146, 8169, 8149, 8147, 8203, 8236, 8242, 8144,2.791198968887329
81, 8213, 8231, 8204, 8202, 8146, 8150, 8147, 8168, 8149, 8147, 8203, 8233, 8246, 8147,2.791198968887329
82, 8210, 8244, 8218, 8209, 8146, 8148, 8137, 8173, 8148, 8151, 8206, 8236, 8239, 8133,2.80669903755188
83, 8207, 8240, 8179, 8219, 8149, 8146, 8136, 8165, 8149, 8152, 8208, 8230, 8234, 8118,2.80669903755188
84, 8220, 8249, 8219, 8205, 8146, 8143, 8135, 8168, 8137, 8132, 8211, 8244, 8236, 8133,2.822803020477295
85, 8222, 8256, 8197, 8212, 8159, 8151, 8146, 8167, 8150, 8142, 8224, 8232, 8247, 8141,2.822803020477295
86, 8208, 8242, 8196, 8219, 8166, 8158, 8141, 8162, 8138, 8145, 8205, 8211, 8228, 8120,2.822803020477295
87, 8193, 8236, 8211, 8212, 8153, 8161, 8135, 8164, 8102, 8119, 8181, 8209, 8200, 8108,2.838277578353882
88, 8182, 8238, 8174, 8212, 8147, 8147, 8138, 8155, 8094, 8104, 8185, 8197, 8193, 8106,2.8539040088653564
89, 8191, 8246, 8217, 8217, 8153, 8145, 8121, 8158, 8099, 8097, 8184, 8204, 8194, 8107,2.8539040088653564
90, 8197, 8252, 8203, 8241, 8168, 8160, 8123, 8158, 8110, 8110, 8186, 8203, 8200, 8109,2.8709616661071777
91, 8191, 8244, 8196, 8251, 8168, 8162, 8142, 8156, 8116, 8125, 8183, 8196, 8197, 8113,2.8709616661071777
92, 8178, 8231, 8208, 8242, 8156, 8165, 8158, 8172, 8130, 8133, 8170, 8191, 8194, 8120,2.8709616661071777
93, 8167, 8213, 8149, 8233, 8152, 8166, 8164, 8174, 8145, 8140, 8166, 8174, 8204, 8118,2.88698673248291
94, 8169, 8210, 8179, 8218, 8149, 8169, 8157, 8175, 8133, 8133, 8168, 8181, 8201, 8115,2.88698673248291
95, 8174, 8218, 8182, 8233, 8155, 8172, 8166, 8176, 8136, 8148, 8167, 8176, 8198, 8113,2.903064489364624
96, 8177, 8214, 8168, 8241, 8162, 8165, 8166, 8168, 8135, 8149, 8162, 8167, 8195, 8114,2.903064489364624
97, 8174, 8210, 8178, 8220, 8162, 8167, 8165, 8172, 8132, 8137, 8167, 8175, 8196, 8119,2.91815447807312
98, 8163, 8190, 8134, 8207, 8154, 8167, 8176, 8166, 8151, 8155, 8170, 8162, 8202, 8117,2.932769298553467
99, 8154, 8178, 8165, 8192, 8142, 8158, 8169, 8165, 8143, 8153, 8156, 8163, 8188, 8114,2.932769298553467
100, 8154, 8186, 8155, 8194, 8150, 8164, 8178, 8174, 8133, 8150, 8159, 8162, 8188, 8111,2.948249340057373
101, 8159, 8183, 8136, 8193, 8156, 8165, 8179, 8170, 8137, 8156, 8158, 8152, 8192, 8107,2.948249340057373
102, 8159, 8180, 8170, 8182, 8150, 8164, 8159, 8171, 8133, 8146, 8151, 8165, 8184, 8107,2.963810920715332
103, 8165, 8186, 8149, 8202, 8155, 8164, 8157, 8172, 8140, 8152, 8170, 8177, 8202, 8116,2.963810920715332
104, 8181, 8198, 8189, 8209, 8169, 8167, 8159, 8182, 8143, 8162, 8179, 8197, 8215, 8138,2.979264259338379
105, 8181, 8203, 8182, 8200, 8175, 8173, 8168, 8183, 8155, 8169, 8176, 8201, 8208, 8148,2.979264259338379
106, 8174, 8188, 8153, 8181, 8156, 8156, 8167, 8170, 8157, 8158, 8184, 8198, 8196, 8133,2.995162010192871
107, 8170, 8178, 8185, 8162, 8136, 8147, 8155, 8176, 8146, 8146, 8174, 8201, 8188, 8123,2.995162010192871
108, 8173, 8184, 8156, 8177, 8153, 8163, 8167, 8177, 8160, 8172, 8171, 8192, 8205, 8128,3.011197090148926
109, 8189, 8203, 8191, 8179, 8166, 8167, 8172, 8177, 8163, 8174, 8198, 8220, 8216, 8141,3.011197090148926
110, 8196, 8206, 8194, 8174, 8157, 8158, 8165, 8178, 8159, 8156, 8218, 8238, 8213, 8140,3.0267224311828613
111, 8200, 8204, 8170, 8183, 8158, 8153, 8162, 8171, 8158, 8152, 8208, 8226, 8211, 8129,3.0267224311828613
112, 8205, 8223, 8215, 8188, 8164, 8163, 8159, 8176, 8145, 8151, 8201, 8241, 8206, 8132,3.042032241821289
113, 8192, 8211, 8176, 8185, 8164, 8160, 8161, 8166, 8133, 8144, 8194, 8225, 8193, 8123,3.042032241821289
114, 8183, 8183, 8180, 8148, 8155, 8146, 8145, 8156, 8118, 8119, 8170, 8206, 8168, 8110,3.0575873851776123
115, 8181, 8187, 8186, 8135, 8150, 8152, 8138, 8165, 8123, 8121, 8171, 8207, 8165, 8114,3.0575873851776123
116, 8173, 8190, 8155, 8154, 8154, 8151, 8147, 8160, 8125, 8127, 8174, 8196, 8166, 8110,3.0736122131347656
117, 8167, 8180, 8192, 8150, 8157, 8152, 8152, 8163, 8103, 8109, 8151, 8194, 8148, 8101,3.0736122131347656
118, 8164, 8168, 8163, 8142, 8156, 8161, 8164, 8169, 8113, 8111, 8153, 8181, 8144, 8101,3.0896661281585693
119, 8162, 8166, 8163, 8131, 8155, 8160, 8162, 8169, 8130, 8111, 8154, 8169, 8145, 8100,3.0896661281585693
120, 8149, 8173, 8164, 8132, 8170, 8171, 8172, 8173, 8137, 8115, 8138, 8156, 8147, 8086,3.1049985885620117
121, 8137, 8164, 8128, 8136, 8180, 8187, 8192, 8170, 8154, 8137, 8137, 8142, 8153, 8087,3.1049985885620117
122, 8141, 8160, 8172, 8131, 8171, 8197, 8188, 8178, 8159, 8142, 8130, 8157, 8147, 8112,3.1209170818328857
123, 8143, 8159, 8144, 8140, 8171, 8197, 8192, 8182, 8172, 8153, 8121, 8149, 8146, 8113,3.1209170818328857
124, 8137, 8141, 8133, 8123, 8163, 8190, 8186, 8176, 8177, 8158, 8122, 8140, 8143, 8099,3.136927366256714
125, 8133, 8127, 8154, 8103, 8144, 8194, 8175, 8178, 8172, 8159, 8125, 8152, 8141, 8105,3.136927366256714
126, 8144, 8129, 8132, 8110, 8136, 8176, 8167, 8171, 8176, 8162, 8129, 8156, 8150, 8111,3.1525633335113525
127, 8165, 8148, 8173, 8109, 8143, 8155, 8153, 8170, 8168, 8143, 8144, 8182, 8158, 8115,3.1525633335113525
236, 8165, 8151, 8150, 8104, 8150, 8153, 8152, 8169, 8172, 8139, 8164, 8187, 8167, 8111,3.168041229248047
0, 8148, 8142, 8148, 8096, 8141, 8145, 8145, 8164, 8157, 8137, 8150, 8170, 8146, 8098,3.168041229248047
1, 8141, 8156, 8181, 8113, 8144, 8159, 8149, 8163, 8140, 8123, 8132, 8165, 8121, 8086,3.1835925579071045
2, 8142, 8155, 8144, 8141, 8159, 8186, 8170, 8158, 8157, 8137, 8138, 8153, 8122, 8085,3.1835925579071045
3, 8147, 8143, 8172, 8125, 8153, 8192, 8172, 8170, 8164, 8156, 8141, 8161, 8134, 8111,3.199176549911499
4, 8153, 8147, 8152, 8116, 8152, 8181, 8179, 8176, 8181, 8170, 8145, 8168, 8158, 8129,3.199176549911499
5, 8165, 8148, 8144, 8117, 8152, 8164, 8173, 8167, 8189, 8157, 8147, 8174, 8162, 8122,3.2148735523223877
6, 8166, 8142, 8179, 8097, 8144, 8156, 8152, 8176, 8177, 8138, 8150, 8190, 8153, 8113,3.2148735523223877
7, 8159, 8145, 8141, 8096, 8154, 8154, 8153, 8174, 8182, 8144, 8167, 8191, 8164, 8110,3.2308802604675293
8, 8174, 8179, 8176, 8124, 8170, 8167, 8151, 8170, 8177, 8138, 8173, 8207, 8161, 8113,3.2308802604675293
9, 8170, 8188, 8169, 8152, 8171, 8179, 8152, 8166, 8162, 8131, 8155, 8187, 8138, 8098,3.2460219860076904
10, 8143, 8157, 8147, 8137, 8167, 8180, 8165, 8162, 8160, 8135, 8130, 8150, 8124, 8085,3.2460219860076904
11, 8139, 8156, 8178, 8119, 8169, 8201, 8186, 8181, 8181, 8152, 8130, 8165, 8132, 8106,3.2617146968841553
12, 8148, 8160, 8137, 8132, 8166, 8207, 8200, 8178, 8186, 8161, 8133, 8169, 8134, 8112,3.2617146968841553
13, 8143, 8141, 8156, 8117, 8146, 8179, 8180, 8163, 8151, 8127, 8102, 8156, 8108, 8096,3.2777018547058105
14, 8139, 8130, 8156, 8101, 8135, 8166, 8162, 8164, 8152, 8116, 8098, 8147, 8105, 8098,3.2777018547058105
15, 8163, 8139, 8150, 8107, 8140, 8161, 8159, 8166, 8176, 8131, 8144, 8175, 8135, 8107,3.293102741241455
16, 8185, 8167, 8207, 8121, 8151, 8162, 8164, 8181, 8179, 8138, 8180, 8225, 8160, 8116,3.293102741241455
17, 8182, 8179, 8180, 8149, 8163, 8172, 8179, 8180, 8188, 8160, 8198, 8221, 8177, 8131,3.308013677597046
18, 8196, 8183, 8200, 8160, 8173, 8188, 8181, 8175, 8188, 8169, 8213, 8226, 8179, 8145,3.308013677597046
19, 8212, 8199, 8215, 8178, 8188, 8207, 8200, 8183, 8197, 8172, 8230, 8240, 8184, 8145,3.3235719203948975
20, 8196, 8201, 8193, 8188, 8190, 8203, 8212, 8179, 8204, 8173, 8217, 8218, 8174, 8137,3.3235719203948975
21, 8183, 8190, 8215, 8173, 8182, 8202, 8203, 8176, 8177, 8159, 8181, 8201, 8145, 8132,3.339054822921753
22, 8175, 8175, 8173, 8173, 8178, 8210, 8214, 8173, 8167, 8159, 8167, 8184, 8137, 8117,3.339054822921753
23, 8155, 8161, 8174, 8163, 8165, 8207, 8210, 8173, 8170, 8154, 8145, 8175, 8126, 8097,3.3550314903259277
24, 8148, 8162, 8174, 8158, 8163, 8211, 8206, 8175, 8186, 8164, 8139, 8176, 8124, 8101,3.3550314903259277
25, 8170, 8164, 8152, 8166, 8167, 8203, 8208, 8168, 8210, 8184, 8166, 8189, 8147, 8123,3.3699567317962646
26, 8174, 8161, 8187, 8148, 8149, 8187, 8186, 8169, 8200, 8166, 8165, 8202, 8143, 8124,3.3699567317962646
27, 8147, 8149, 8142, 8131, 8141, 8183, 8173, 8165, 8183, 8154, 8148, 8174, 8127, 8102,3.3860082626342773
28, 8146, 8146, 8148, 8117, 8152, 8180, 8164, 8162, 8173, 8151, 8154, 8179, 8137, 8104,3.3860082626342773
29, 8171, 8168, 8181, 8128, 8159, 8180, 8161, 8171, 8176, 8148, 8182, 8218, 8162, 8118,3.4016196727752686
30, 8187, 8183, 8163, 8163, 8166, 8179, 8166, 8169, 8177, 8142, 8200, 8214, 8163, 8117,3.4016196727752686
31, 8185, 8191, 8199, 8169, 8165, 8184, 8158, 8166, 8152, 8120, 8183, 8203, 8137, 8108,3.4166953563690186
32, 8171, 8192, 8169, 8169, 8164, 8192, 8166, 8162, 8150, 8128, 8171, 8191, 8127, 8095,3.4166953563690186
33, 8167, 8187, 8166, 8172, 8166, 8192, 8171, 8164, 8159, 8142, 8172, 8193, 8132, 8096,3.432673692703247
34, 8163, 8186, 8186, 8182, 8162, 8201, 8179, 8174, 8165, 8147, 8173, 8192, 8138, 8112,3.432673692703247
35, 8161, 8178, 8154, 8195, 8161, 8206, 8196, 8167, 8174, 8168, 8175, 8180, 8140, 8119,3.4478225708007812
36, 8174, 8180, 8196, 8190, 8169, 8211, 8200, 8174, 8172, 8176, 8178, 8195, 8140, 8133,3.4478225708007812
37, 8177, 8184, 8177, 8196, 8180, 8219, 8210, 8181, 8188, 8191, 8184, 8193, 8158, 8147,3.463308811187744
38, 8177, 8178, 8168, 8191, 8176, 8219, 8217, 8176, 8203, 8206, 8185, 8192, 8169, 8151,3.463308811187744
39, 8183, 8175, 8192, 8175, 8170, 8217, 8219, 8182, 8206, 8199, 8185, 8211, 8161, 8153,3.479065179824829
40, 8177, 8166, 8150, 8164, 8162, 8195, 8210, 8172, 8202, 8182, 8181, 8205, 8153, 8145,3.479065179824829
41, 8176, 8163, 8176, 8143, 8142, 8176, 8193, 8165, 8184, 8157, 8174, 8208, 8148, 8141,3.495027542114258
42, 8187, 8167, 8167, 8151, 8150, 8183, 8198, 8169, 8187, 8163, 8187, 8209, 8163, 8143,3.495027542114258
43, 8192, 8176, 8170, 8165, 8170, 8185, 8188, 8165, 8179, 8162, 8202, 8215, 8167, 8139,3.510592222213745
44, 8182, 8195, 8209, 8168, 8171, 8185, 8165, 8168, 8160, 8148, 8208, 8230, 8159, 8127,3.510592222213745
45, 8178, 8199, 8169, 8183, 8179, 8188, 8174, 8166, 8162, 8153, 8219, 8221, 8165, 8119,3.527130365371704
46, 8194, 8202, 8201, 8185, 8191, 8191, 8177, 8171, 8146, 8155, 8221, 8231, 8162, 8131,3.527130365371704
47, 8195, 8203, 8199, 8193, 8189, 8194, 8179, 8175, 8145, 8169, 8228, 8232, 8162, 8142,3.5422749519348145
48, 8184, 8189, 8177, 8193, 8178, 8186, 8189, 8167, 8161, 8174, 8226, 8214, 8165, 8138,3.5422749519348145
49, 8183, 8192, 8213, 8190, 8180, 8189, 8195, 8170, 8161, 8162, 8214, 8217, 8158, 8142,3.5579702854156494
50, 8189, 8199, 8184, 8214, 8191, 8201, 8204, 8170, 8170, 8177, 8216, 8217, 8161, 8149,3.5579702854156494
51, 8189, 8186, 8203, 8206, 8174, 8203, 8199, 8174, 8174, 8188, 8206, 8221, 8160, 8156,3.5730671882629395
52, 8180, 8169, 8184, 8176, 8152, 8193, 8201, 8174, 8186, 8191, 8198, 8217, 8165, 8163,3.5730671882629395
53, 8187, 8168, 8159, 8164, 8152, 8170, 8196, 8166, 8195, 8180, 8209, 8224, 8181, 8164,3.587825298309326
54, 8209, 8190, 8217, 8181, 8158, 8165, 8180, 8178, 8186, 8170, 8231, 8261, 8193, 8173,3.587825298309326
55, 8211, 8191, 8196, 8207, 8157, 8165, 8182, 8178, 8189, 8183, 8252, 8269, 8206, 8173,3.6048576831817627
56, 8200, 8179, 8202, 8200, 8146, 8156, 8177, 8171, 8178, 8172, 8256, 8271, 8203, 8165,3.6048576831817627
57, 8200, 8194, 8214, 8217, 8151, 8164, 8184, 8172, 8169, 8162, 8266, 8283, 8194, 8162,3.6202707290649414
58, 8212, 8211, 8221, 8258, 8169, 8175, 8197, 8163, 8171, 8169, 8285, 8293, 8191, 8158,3.6202707290649414
59, 8218, 8214, 8268, 8268, 8169, 8183, 8183, 8170, 8164, 8161, 8290, 8310, 8191, 8167,3.6352615356445312
60, 8209, 8206, 8227, 8277, 8163, 8181, 8178, 8170, 8164, 8156, 8283, 8293, 8191, 8167,3.6352615356445312
61, 8206, 8202, 8244, 8285, 8161, 8179, 8180, 8164, 8154, 8149, 8260, 8288, 8174, 8155,3.650369644165039
62, 8207, 8204, 8260, 8289, 8162, 8191, 8196, 8169, 8160, 8160, 8250, 8297, 8174, 8156,3.66709566116333
63, 8204, 8193, 8215, 8288, 8155, 8183, 8207, 8169, 8189, 8183, 8261, 8281, 8193, 8167,3.6675994396209717
64, 8194, 8182, 8233, 8266, 8147, 8175, 8198, 8178, 8191, 8189, 8246, 8279, 8186, 8169,3.6675994396209717
65, 8179, 8165, 8188, 8246, 8148, 8176, 8194, 8173, 8185, 8195, 8222, 8264, 8171, 8155,3.6810641288757324
66, 8187, 8157, 8191, 8223, 8143, 8163, 8176, 8166, 8179, 8179, 8225, 8264, 8170, 8151,3.6970205307006836
67, 8205, 8171, 8213, 8213, 8148, 8165, 8166, 8173, 8183, 8163, 8247, 8285, 8189, 8164,3.6970205307006836
68, 8212, 8175, 8180, 8221, 8156, 8169, 8160, 8167, 8189, 8167, 8254, 8282, 8202, 8162,3.711876153945923
69, 8216, 8181, 8219, 8211, 8147, 8159, 8141, 8164, 8177, 8157, 8237, 8285, 8186, 8154,3.711876153945923
70, 8212, 8189, 8194, 8201, 8150, 8161, 8149, 8156, 8176, 8155, 8238, 8280, 8181, 8146,3.727914810180664
71, 8203, 8188, 8187, 8193, 8166, 8170, 8159, 8157, 8169, 8156, 8243, 8276, 8186, 8145,3.727914810180664
72, 8206, 8192, 8218, 8203, 8171, 8181, 8165, 8181, 8179, 8168, 8247, 8284, 8190, 8155,3.7435731887817383
73, 8216, 8193, 8193, 8221, 8177, 8189, 8180, 8182, 8202, 8191, 8248, 8267, 8187, 8162,3.7435731887817383
74, 8209, 8190, 8212, 8208, 8178, 8196, 8178, 8169, 8179, 8178, 8218, 8249, 8168, 8159,3.759193181991577
75, 8184, 8178, 8174, 8205, 8173, 8199, 8183, 8166, 8166, 8165, 8192, 8226, 8159, 8143,3.759193181991577
76, 8175, 8162, 8170, 8199, 8163, 8191, 8186, 8168, 8171, 8167, 8189, 8218, 8157, 8141,3.774226665496826
77, 8175, 8159, 8195, 8181, 8158, 8197, 8190, 8179, 8176, 8177, 8185, 8224, 8158, 8150,3.774226665496826
78, 8168, 8149, 8143, 8168, 8162, 8197, 8208, 8178, 8198, 8195, 8178, 8215, 8161, 8145,3.7899372577667236
79, 8171, 8144, 8171, 8148, 8160, 8186, 8208, 8181, 8207, 8190, 8175, 8228, 8154, 8141,3.7899372577667236
80, 8170, 8147, 8161, 8150, 8161, 8185, 8204, 8180, 8213, 8190, 8187, 8225, 8160, 8143,3.8054442405700684
81, 8168, 8147, 8146, 8149, 8161, 8177, 8187, 8175, 8201, 8187, 8199, 8222, 8169, 8135,3.8054442405700684
82, 8174, 8164, 8181, 8141, 8159, 8173, 8170, 8179, 8180, 8167, 8207, 8245, 8162, 8120,3.820910692214966
83, 8175, 8176, 8150, 8157, 8168, 8177, 8179, 8170, 8186, 8167, 8220, 8237, 8164, 8109,3.820910692214966
84, 8179, 8181, 8186, 8154, 8177, 8185, 8185, 8175, 8187, 8174, 8219, 8236, 8165, 8116,3.8371522426605225
85, 8172, 8183, 8181, 8153, 8182, 8190, 8193, 8182, 8189, 8187, 8222, 8236, 8167, 8120,3.8371522426605225
86, 8151, 8166, 8150, 8157, 8176, 8188, 8190, 8168, 8180, 8177, 8214, 8220, 8155, 8105,3.852638006210327
87, 8138, 8157, 8174, 8150, 8166, 8196, 8180, 8172, 8167, 8155, 8185, 8211, 8130, 8099,3.852638006210327
88, 8141, 8161, 8144, 8162, 8171, 8196, 8193, 8176, 8186, 8172, 8177, 8201, 8130, 8110,3.868983507156372
89, 8143, 8162, 8169, 8163, 8177, 8196, 8203, 8172, 8190, 8180, 8168, 8208, 8129, 8120,3.868983507156372
90, 8135, 8146, 8150, 8145, 8170, 8199, 8209, 8173, 8190, 8179, 8150, 8198, 8126, 8118,3.8850042819976807
91, 8142, 8128, 8119, 8116, 8149, 8176, 8203, 8175, 8204, 8185, 8150, 8196, 8140, 8123,3.8850042819976807
92, 8162, 8145, 8175, 8105, 8142, 8164, 8189, 8182, 8211, 8183, 8169, 8235, 8156, 8134,3.9005844593048096
93, 8163, 8166, 8149, 8130, 8162, 8167, 8186, 8174, 8216, 8193, 8185, 8233, 8169, 8125,3.9005844593048096
94, 8162, 8165, 8155, 8128, 8165, 8157, 8170, 8172, 8201, 8186, 8180, 8223, 8164, 8115,3.9172446727752686
95, 8168, 8174, 8166, 8129, 8165, 8165, 8174, 8181, 8193, 8177, 8192, 8238, 8160, 8117,3.9172446727752686
96, 8171, 8190, 8155, 8153, 8172, 8178, 8187, 8172, 8192, 8178, 8200, 8240, 8158, 8112,3.9327874183654785
97, 8171, 8194, 8197, 8157, 8164, 8178, 8174, 8169, 8175, 8165, 8180, 8241, 8136, 8107,3.9327874183654785
98, 8172, 8190, 8163, 8167, 8166, 8179, 8178, 8166, 8178, 8163, 8177, 8229, 8125, 8107,3.9480020999908447
99, 8169, 8185, 8170, 8166, 8175, 8185, 8187, 8166, 8174, 8159, 8175, 8225, 8120, 8104,3.9480020999908447
100, 8148, 8174, 8173, 8160, 8177, 8197, 8197, 8175, 8162, 8162, 8157, 8214, 8117, 8089,3.9635210037231445
101, 8138, 8157, 8138, 8162, 8173, 8197, 8202, 8170, 8169, 8169, 8144, 8195, 8117, 8082,3.9635210037231445
102, 8146, 8157, 8171, 8155, 8172, 8199, 8196, 8172, 8176, 8166, 8139, 8202, 8112, 8097,3.9790661334991455
103, 8137, 8151, 8131, 8156, 8174, 8203, 8205, 8176, 8189, 8181, 8143, 8193, 8124, 8106,3.9790661334991455
104, 8143, 8140, 8143, 8151, 8170, 8197, 8208, 8176, 8191, 8185, 8148, 8199, 8139, 8113,3.9939608573913574
105, 8162, 8152, 8177, 8151, 8176, 8200, 8207, 8182, 8195, 8187, 8162, 8222, 8152, 8124,3.9939608573913574
106, 8158, 8151, 8141, 8148, 8180, 8191, 8199, 8175, 8201, 8194, 8169, 8217, 8159, 8121,4.017556667327881
107, 8159, 8154, 8180, 8133, 8165, 8171, 8171, 8173, 8191, 8186, 8165, 8232, 8153, 8127,4.017556667327881
108, 8176, 8166, 8163, 8143, 8160, 8167, 8166, 8165, 8196, 8193, 8177, 8240, 8157, 8130,4.017556667327881
109, 8183, 8166, 8160, 8144, 8166, 8171, 8170, 8159, 8186, 8187, 8181, 8232, 8157, 8121,4.0255608558654785
110, 8176, 8167, 8183, 8140, 8165, 8171, 8173, 8171, 8172, 8179, 8178, 8232, 8162, 8122,4.040609121322632
111, 8176, 8166, 8147, 8148, 8163, 8161, 8179, 8163, 8179, 8180, 8182, 8224, 8169, 8118,4.040609121322632
112, 8183, 8171, 8178, 8139, 8163, 8161, 8161, 8162, 8172, 8165, 8174, 8230, 8154, 8108,4.056657552719116
113, 8179, 8178, 8169, 8144, 8168, 8169, 8156, 8171, 8178, 8175, 8179, 8233, 8160, 8112,4.056657552719116
114, 8179, 8177, 8171, 8150, 8171, 8163, 8159, 8167, 8173, 8178, 8185, 8234, 8168, 8121,4.072051286697388
115, 8179, 8177, 8189, 8136, 8171, 8163, 8153, 8162, 8153, 8161, 8170, 8229, 8148, 8105,4.072051286697388
116, 8161, 8171, 8143, 8137, 8172, 8165, 8150, 8151, 8151, 8159, 8154, 8206, 8128, 8076,4.087632656097412
117, 8152, 8179, 8180, 8146, 8171, 8172, 8142, 8153, 8137, 8143, 8148, 8213, 8121, 8078,4.087632656097412
118, 8160, 8183, 8174, 8157, 8177, 8180, 8152, 8158, 8135, 8144, 8151, 8212, 8130, 8090,4.103087425231934
119, 8159, 8170, 8155, 8144, 8176, 8171, 8155, 8154, 8140, 8159, 8144, 8201, 8129, 8079,4.103087425231934
120, 8142, 8170, 8179, 8133, 8168, 8179, 8153, 8164, 8135, 8146, 8131, 8201, 8114, 8076,4.119117021560669
121, 8135, 8171, 8143, 8149, 8166, 8188, 8162, 8160, 8141, 8139, 8126, 8179, 8113, 8081,4.119117021560669
122, 8146, 8169, 8172, 8147, 8167, 8184, 8158, 8157, 8150, 8156, 8129, 8185, 8121, 8091,4.134951591491699
123, 8148, 8167, 8165, 8136, 8170, 8189, 8172, 8177, 8179, 8190, 8149, 8198, 8147, 8108,4.134951591491699
124, 8144, 8159, 8142, 8123, 8172, 8183, 8180, 8183, 8199, 8196, 8159, 8199, 8165, 8115,4.150977849960327
125, 8157, 8167, 8179, 8126, 8176, 8173, 8167, 8177, 8193, 8177, 8143, 8209, 8150, 8107,4.150977849960327
126, 8171, 8181, 8151, 8156, 8178, 8161, 8165, 8166, 8190, 8178, 8150, 8206, 8149, 8093,4.167230129241943
127, 8172, 8190, 8179, 8159, 8173, 8162, 8167, 8173, 8186, 8178, 8170, 8214, 8158, 8092,4.167230129241943
236, 8162, 8206, 8184, 8170, 8200, 8197, 8185, 8182, 8201, 8186, 8174, 8211, 8153, 8092,4.184305667877197
0, 8142, 8197, 8144, 8174, 8209, 8183, 8176, 8165, 8186, 8171, 8139, 8172, 8114, 8067,4.184305667877197
1, 8135, 8190, 8176, 8165, 8184, 8150, 8156, 8163, 8157, 8151, 8112, 8169, 8093, 8059,4.197901248931885
2, 8174, 8225, 8178, 8226, 8232, 8201, 8222, 8184, 8233, 8225, 8170, 8212, 8157, 8112,4.197901248931885
3, 8124, 8169, 8140, 8166, 8202, 8173, 8183, 8169, 8208, 8198, 8118, 8161, 8114, 8077,4.213281154632568
4, 7957, 8006, 8009, 7968, 8037, 8036, 8012, 8112, 8032, 8030, 7934, 8005, 7945, 7923,4.213281154632568
5, 7922, 7970, 7972, 7930, 7992, 8028, 7982, 8102, 7989, 7986, 7902, 7971, 7915, 7886,4.229174613952637
6, 8015, 8060, 8098, 8024, 8068, 8127, 8070, 8150, 8068, 8068, 8001, 8069, 8003, 7974,4.229174613952637
7, 8002, 8048, 8052, 8012, 8058, 8118, 8060, 8144, 8065, 8071, 8001, 8059, 8003, 7971,4.244714736938477
8, 7953, 8002, 8022, 7949, 8012, 8074, 8001, 8125, 8015, 8012, 7951, 8012, 7951, 7924,4.244714736938477
9, 7980, 8034, 8064, 7973, 8033, 8106, 8028, 8148, 8042, 8028, 7976, 8034, 7965, 7947,4.259836673736572
10, 7983, 8027, 8034, 7972, 8031, 8097, 8041, 8141, 8062, 8049, 7987, 8033, 7976, 7953,4.259836673736572
11, 7972, 8012, 8065, 7942, 8008, 8076, 8019, 8134, 8048, 8025, 7976, 8037, 7978, 7949,4.275190591812134
12, 7984, 8037, 8052, 7964, 8018, 8088, 8029, 8141, 8059, 8026, 7991, 8041, 7998, 7958,4.275190591812134
13, 7990, 8042, 8052, 7957, 8015, 8087, 8018, 8138, 8056, 8023, 7992, 8045, 7988, 7954,4.291074514389038
14, 8003, 8047, 8080, 7956, 8014, 8094, 8015, 8146, 8068, 8033, 7997, 8066, 7991, 7969,4.291074514389038
15, 8025, 8063, 8074, 7992, 8021, 8095, 8028, 8148, 8095, 8053, 8024, 8076, 8021, 7984,4.307088136672974
16, 8040, 8086, 8122, 8002, 8027, 8098, 8020, 8154, 8086, 8046, 8036, 8101, 8024, 7981,4.307088136672974
17, 8028, 8089, 8090, 7999, 8037, 8104, 8010, 8152, 8069, 8034, 8031, 8090, 8007, 7960,4.323067665100098
18, 8013, 8078, 8084, 7991, 8033, 8097, 7996, 8142, 8047, 8012, 8021, 8067, 7986, 7946,4.323067665100098
19, 8003, 8084, 8113, 7998, 8026, 8095, 7985, 8142, 8028, 7998, 8013, 8062, 7974, 7949,4.338602066040039
20, 7990, 8079, 8067, 8017, 8027, 8100, 7995, 8136, 8024, 8005, 7997, 8039, 7970, 7945,4.338602066040039
21, 7984, 8065, 8089, 8013, 8026, 8119, 8010, 8144, 8021, 8017, 7975, 8039, 7961, 7946,4.354633569717407
22, 7995, 8066, 8081, 8019, 8035, 8141, 8039, 8150, 8057, 8034, 7988, 8050, 7985, 7957,4.354633569717407
23, 8010, 8060, 8080, 8010, 8041, 8138, 8044, 8144, 8078, 8024, 8002, 8054, 8005, 7965,4.369662046432495
24, 8001, 8048, 8093, 7978, 8034, 8127, 8023, 8151, 8056, 8013, 7988, 8055, 7990, 7958,4.369662046432495
25, 7998, 8049, 8049, 7977, 8026, 8109, 8013, 8146, 8044, 8025, 7989, 8050, 8022, 7945,4.3857574462890625
26, 8024, 8073, 8105, 7995, 8025, 8098, 8003, 8142, 8034, 8005, 8008, 8077, 8126, 7951,4.3857574462890625
27, 8031, 8086, 8113, 8012, 8033, 8111, 8005, 8140, 8028, 7994, 8020, 8086, 8212, 7957,4.4018473625183105
28, 8015, 8076, 8094, 8012, 8040, 8116, 8006, 8137, 8019, 8004, 8014, 8069, 8205, 7954,4.4018473625183105
29, 8017, 8078, 8129, 8013, 8037, 8124, 8013, 8150, 8022, 8012, 8013, 8070, 8185, 7961,4.417978286743164
30, 8025, 8076, 8099, 8033, 8037, 8140, 8041, 8151, 8042, 8037, 8012, 8067, 8205, 7971,4.417978286743164
31, 8017, 8071, 8114, 8024, 8042, 8147, 8046, 8151, 8033, 8029, 7986, 8066, 8194, 7972,4.432935953140259
32, 8000, 8069, 8098, 8016, 8046, 8144, 8044, 8153, 8027, 8016, 7983, 8055, 8166, 7959,4.432935953140259
33, 7994, 8061, 8078, 8020, 8049, 8137, 8040, 8142, 8032, 8027, 8001, 8047, 8162, 7952,4.448990345001221
34, 8004, 8066, 8119, 8025, 8051, 8140, 8034, 8146, 8029, 8027, 8000, 8056, 8160, 7961,4.448990345001221
35, 8011, 8067, 8088, 8035, 8050, 8137, 8046, 8148, 8035, 8031, 7994, 8048, 8160, 7966,4.464550495147705
36, 8011, 8058, 8104, 8018, 8035, 8128, 8049, 8145, 8030, 8024, 7982, 8055, 8156, 7962,4.464550495147705
37, 8002, 8057, 8093, 8015, 8032, 8133, 8050, 8147, 8035, 8022, 7976, 8052, 8147, 7956,4.480067014694214
38, 8003, 8064, 8072, 8036, 8042, 8137, 8052, 8144, 8048, 8035, 7988, 8038, 8144, 7957,4.480067014694214
39, 8020, 8077, 8123, 8041, 8041, 8146, 8053, 8153, 8051, 8041, 8004, 8068, 8155, 7977,4.4959471225738525
40, 8030, 8077, 8093, 8050, 8044, 8144, 8065, 8153, 8070, 8045, 8023, 8086, 8169, 7993,4.4959471225738525
41, 8036, 8076, 8116, 8057, 8044, 8133, 8055, 8147, 8067, 8036, 8038, 8095, 8160, 7997,4.511228561401367
42, 8040, 8080, 8131, 8061, 8035, 8138, 8044, 8148, 8053, 8040, 8052, 8105, 8154, 8003,4.511228561401367
43, 8051, 8081, 8110, 8070, 8036, 8131, 8038, 8145, 8053, 8042, 8064, 8116, 8162, 8008,4.527098178863525
44, 8078, 8110, 8174, 8106, 8046, 8131, 8038, 8155, 8063, 8039, 8088, 8160, 8173, 8031,4.527098178863525
45, 8094, 8133, 8167, 8162, 8059, 8145, 8058, 8150, 8078, 8059, 8126, 8182, 8188, 8053,4.542705535888672
46, 8098, 8129, 8175, 8160, 8050, 8129, 8046, 8136, 8053, 8050, 8114, 8186, 8167, 8044,4.542705535888672
47, 8105, 8134, 8192, 8165, 8034, 8113, 8029, 8142, 8038, 8036, 8097, 8193, 8152, 8032,4.557832956314087
48, 8122, 8151, 8177, 8215, 8031, 8113, 8038, 8146, 8056, 8049, 8130, 8209, 8176, 8046,4.557832956314087
49, 8137, 8164, 8224, 8217, 8028, 8111, 8030, 8146, 8047, 8035, 8145, 8240, 8172, 8064,4.574011325836182
50, 8135, 8159, 8199, 8201, 8028, 8103, 8022, 8144, 8043, 8022, 8136, 8230, 8156, 8056,4.5891432762146
51, 8142, 8157, 8211, 8211, 8035, 8098, 8020, 8146, 8050, 8027, 8142, 8231, 8161, 8059,4.5891432762146
52, 8151, 8168, 8239, 8226, 8043, 8110, 8025, 8157, 8048, 8033, 8152, 8251, 8165, 8071,4.5891432762146
53, 8151, 8169, 8199, 8231, 8051, 8115, 8029, 8144, 8043, 8035, 8148, 8237, 8152, 8059,4.604892253875732
54, 8153, 8169, 8229, 8227, 8051, 8115, 8025, 8138, 8035, 8025, 8137, 8231, 8134, 8052,4.604892253875732
55, 8147, 8169, 8205, 8228, 8058, 8120, 8036, 8147, 8045, 8032, 8137, 8221, 8136, 8055,4.621147871017456
56, 8147, 8166, 8193, 8212, 8065, 8123, 8038, 8151, 8048, 8042, 8138, 8220, 8135, 8062,4.621147871017456
57, 8151, 8159, 8211, 8200, 8063, 8124, 8036, 8150, 8044, 8041, 8136, 8226, 8122, 8063,4.635705947875977
58, 8135, 8143, 8163, 8191, 8057, 8112, 8040, 8143, 8049, 8033, 8126, 8192, 8105, 8046,4.635705947875977
59, 8120, 8145, 8180, 8163, 8056, 8114, 8032, 8153, 8043, 8028, 8116, 8179, 8098, 8044,4.6518309116363525
60, 8122, 8158, 8165, 8166, 8073, 8132, 8043, 8155, 8059, 8055, 8130, 8187, 8116, 8057,4.6518309116363525
61, 8122, 8152, 8160, 8174, 8077, 8134, 8053, 8145, 8071, 8052, 8128, 8181, 8111, 8052,4.667953014373779
62, 8113, 8150, 8181, 8164, 8073, 8146, 8055, 8155, 8069, 8044, 8122, 8170, 8095, 8047,4.683989524841309
63, 8121, 8154, 8148, 8174, 8094, 8158, 8071, 8152, 8080, 8075, 8132, 8151, 8107, 8055,4.683989524841309
64, 8134, 8152, 8184, 8177, 8107, 8149, 8070, 8148, 8064, 8066, 8114, 8142, 8100, 8056,4.683989524841309
65, 8118, 8145, 8162, 8173, 8096, 8148, 8071, 8152, 8055, 8054, 8100, 8119, 8081, 8046,4.698474884033203
66, 8110, 8135, 8134, 8167, 8090, 8156, 8078, 8149, 8067, 8072, 8102, 8100, 8082, 8048,4.71364164352417
67, 8119, 8137, 8166, 8157, 8083, 8165, 8075, 8150, 8060, 8071, 8084, 8099, 8077, 8057,4.71364164352417
68, 8106, 8127, 8121, 8158, 8070, 8161, 8082, 8145, 8055, 8069, 8079, 8073, 8066, 8049,4.71364164352417
69, 8095, 8124, 8145, 8156, 8087, 8162, 8096, 8152, 8070, 8088, 8090, 8074, 8067, 8051,4.729134798049927
70, 8098, 8134, 8137, 8161, 8084, 8166, 8102, 8158, 8091, 8120, 8097, 8078, 8083, 8058,4.744643449783325
71, 8091, 8121, 8105, 8144, 8026, 8145, 8081, 8149, 8077, 8120, 8091, 8054, 8074, 8048,4.744643449783325
72, 8086, 8115, 8150, 8126, 8068, 8152, 8083, 8157, 8064, 8095, 8091, 8052, 8059, 8049,4.759828090667725
73, 8083, 8116, 8115, 8147, 8160, 8161, 8107, 8152, 8079, 8097, 8090, 8041, 8065, 8051,4.759828090667725
74, 8077, 8109, 8119, 8131, 8069, 8133, 8081, 8143, 8061, 8093, 8068, 8034, 8053, 8044,4.774919509887695
75, 8085, 8108, 8123, 8108, 7997, 8139, 8080, 8158, 8077, 8108, 8085, 8046, 8067, 8058,4.774919509887695
76, 8104, 8109, 8112, 8117, 8119, 8159, 8114, 8168, 8122, 8126, 8115, 8061, 8099, 8081,4.790756702423096
77, 8096, 8114, 8154, 8113, 8172, 8157, 8105, 8169, 8113, 8112, 8104, 8075, 8089, 8077,4.790756702423096
78, 8083, 8117, 8110, 8118, 8101, 8148, 8089, 8158, 8105, 8117, 8105, 8059, 8080, 8059,4.805881977081299
79, 8102, 8128, 8127, 8122, 8089, 8139, 8079, 8157, 8115, 8118, 8124, 8066, 8096, 8071,4.805881977081299
80, 8118, 8140, 8156, 8129, 8125, 8142, 8086, 8171, 8118, 8109, 8131, 8085, 8109, 8091,4.821064710617065
81, 8121, 8137, 8127, 8132, 8122, 8142, 8105, 8161, 8114, 8109, 8137, 8080, 8107, 8080,4.821064710617065
82, 8130, 8143, 8156, 8118, 8109, 8136, 8108, 8154, 8112, 8104, 8141, 8084, 8099, 8074,4.837279558181763
83, 8133, 8143, 8130, 8124, 8113, 8130, 8110, 8153, 8118, 8103, 8134, 8070, 8095, 8072,4.837279558181763
84, 8133, 8130, 8135, 8120, 8115, 8131, 8110, 8155, 8107, 8094, 8123, 8064, 8078, 8068,4.852808475494385
85, 8133, 8129, 8144, 8110, 8120, 8143, 8113, 8166, 8117, 8100, 8123, 8071, 8075, 8074,4.852808475494385
86, 8137, 8136, 8119, 8112, 8123, 8142, 8115, 8163, 8144, 8112, 8133, 8067, 8090, 8079,4.868394136428833
87, 8146, 8146, 8163, 8112, 8117, 8143, 8111, 8164, 8129, 8093, 8130, 8076, 8086, 8079,4.868394136428833
88, 8141, 8149, 8145, 8129, 8123, 8147, 8125, 8161, 8113, 8091, 8133, 8070, 8078, 8076,4.884071350097656
89, 8143, 8152, 8157, 8128, 8135, 8145, 8125, 8161, 8112, 8103, 8146, 8078, 8087, 8082,4.884071350097656
90, 8150, 8155, 8175, 8114, 8136, 8147, 8114, 8165, 8113, 8108, 8152, 8092, 8097, 8086,4.899617910385132
91, 8134, 8149, 8131, 8119, 8136, 8146, 8124, 8147, 8107, 8110, 8135, 8068, 8086, 8079,4.899617910385132
92, 8125, 8154, 8164, 8131, 8143, 8153, 8130, 8148, 8090, 8102, 8110, 8056, 8065, 8082,4.915170669555664
93, 8135, 8165, 8151, 8160, 8155, 8166, 8141, 8163, 8107, 8115, 8121, 8053, 8072, 8087,4.915170669555664
94, 8149, 8159, 8147, 8137, 8150, 8163, 8142, 8167, 8129, 8130, 8134, 8058, 8084, 8091,4.9309422969818115
95, 8141, 8155, 8164, 8099, 8149, 8165, 8137, 8166, 8129, 8129, 8123, 8054, 8078, 8092,4.9309422969818115
96, 8121, 8148, 8118, 8126, 8158, 8168, 8134, 8150, 8125, 8133, 8115, 8025, 8076, 8079,4.946983337402344
97, 8118, 8147, 8152, 8150, 8151, 8165, 8126, 8150, 8106, 8120, 8106, 8030, 8068, 8073,4.946983337402344
98, 8118, 8155, 8139, 8147, 8155, 8170, 8149, 8161, 8113, 8120, 8093, 8029, 8062, 8079,4.962835311889648
99, 8114, 8144, 8116, 8141, 8163, 8172, 8153, 8156, 8116, 8127, 8067, 8007, 8053, 8077,4.962835311889648
100, 8111, 8136, 8142, 8136, 8161, 8174, 8138, 8155, 8101, 8121, 8061, 8012, 8051, 8076,4.978852272033691
101, 8115, 8137, 8114, 8135, 8158, 8175, 8150, 8153, 8113, 8129, 8079, 8015, 8061, 8079,4.978852272033691
102, 8123, 8145, 8145, 8129, 8150, 8173, 8146, 8160, 8117, 8125, 8071, 8022, 8045, 8079,4.994417428970337
103, 8125, 8150, 8131, 8136, 8154, 8178, 8144, 8162, 8119, 8127, 8066, 8023, 8049, 8076,4.994417428970337
104, 8137, 8154, 8121, 8137, 8168, 8173, 8154, 8159, 8147, 8147, 8094, 8034, 8085, 8093,5.0100085735321045
105, 8150, 8164, 8173, 8139, 8176, 8171, 8154, 8177, 8167, 8161, 8108, 8057, 8095, 8121,5.0100085735321045
106, 8144, 8154, 8130, 8149, 8177, 8169, 8156, 8180, 8177, 8166, 8099, 8044, 8087, 8118,5.0255653858184814
107, 8144, 8151, 8140, 8141, 8176, 8171, 8163, 8175, 8180, 8161, 8093, 8049, 8090, 8115,5.0255653858184814
108, 8145, 8161, 8142, 8144, 8177, 8183, 8179, 8176, 8191, 8167, 8099, 8054, 8102, 8116,5.040759325027466
109, 8131, 8153, 8115, 8143, 8176, 8171, 8177, 8165, 8177, 8155, 8088, 8035, 8086, 8099,5.040759325027466
110, 8118, 8146, 8134, 8125, 8169, 8163, 8157, 8171, 8151, 8136, 8071, 8030, 8063, 8088,5.056819438934326
111, 8111, 8136, 8091, 8121, 8162, 8159, 8149, 8173, 8165, 8149, 8076, 8018, 8074, 8084,5.056819438934326
112, 8116, 8127, 8115, 8105, 8158, 8145, 8133, 8160, 8164, 8142, 8075, 8024, 8075, 8084,5.071580171585083
113, 8122, 8131, 8119, 8103, 8159, 8152, 8136, 8155, 8154, 8125, 8065, 8024, 8056, 8083,5.071580171585083
114, 8121, 8127, 8089, 8106, 8154, 8156, 8143, 8151, 8148, 8128, 8068, 8016, 8054, 8084,5.08772873878479
115, 8126, 8126, 8131, 8088, 8146, 8149, 8139, 8161, 8145, 8143, 8084, 8042, 8071, 8098,5.08772873878479
116, 8133, 8131, 8103, 8089, 8155, 8149, 8154, 8166, 8156, 8161, 8093, 8043, 8085, 8104,5.103105306625366
117, 8147, 8135, 8120, 8093, 8165, 8156, 8157, 8164, 8148, 8146, 8086, 8043, 8076, 8102,5.103105306625366
118, 8161, 8143, 8138, 8103, 8175, 8167, 8156, 8168, 8154, 8140, 8102, 8062, 8085, 8108,5.118717670440674
119, 8161, 8143, 8113, 8110, 8179, 8162, 8149, 8163, 8172, 8157, 8123, 8071, 8102, 8115,5.118717670440674
120, 8159, 8151, 8155, 8102, 8172, 8156, 8132, 8165, 8153, 8145, 8111, 8081, 8092, 8120,5.134814262390137
121, 8161, 8157, 8128, 8117, 8180, 8157, 8143, 8158, 8136, 8137, 8105, 8065, 8083, 8114,5.134814262390137
122, 8157, 8149, 8131, 8119, 8175, 8159, 8144, 8157, 8128, 8131, 8099, 8045, 8070, 8105,5.150890350341797
123, 8141, 8146, 8147, 8116, 8164, 8168, 8142, 8169, 8135, 8136, 8082, 8039, 8061, 8105,5.150890350341797
124, 8138, 8136, 8109, 8128, 8171, 8162, 8164, 8164, 8156, 8161, 8076, 8029, 8067, 8111,5.165884494781494
125, 8148, 8120, 8138, 8117, 8167, 8161, 8174, 8165, 8165, 8156, 8068, 8032, 8062, 8114,5.165884494781494
126, 8144, 8104, 8110, 8097, 8156, 8171, 8178, 8163, 8182, 8155, 8054, 8025, 8064, 8110,5.1810595989227295
127, 8141, 8101, 8117, 8085, 8156, 8166, 8171, 8159, 8181, 8158, 8057, 8033, 8067, 8112,5.1810595989227295
236, 8146, 8119, 8145, 8093, 8157, 8161, 8161, 8165, 8169, 8153, 8082, 8048, 8070, 8115,5.197608709335327
0, 8164, 8129, 8114, 8102, 8154, 8153, 8160, 8160, 8171, 8151, 8103, 8050, 8084, 8108,5.19861364364624
1, 8182, 8139, 8166, 8092, 8156, 8154, 8158, 8166, 8158, 8139, 8100, 8081, 8093, 8118,5.212687253952026
2, 8172, 8140, 8151, 8095, 8158, 8162, 8159, 8167, 8158, 8142, 8100, 8084, 8097, 8122,5.212687253952026
3, 8166, 8132, 8131, 8093, 8148, 8152, 8150, 8156, 8152, 8131, 8097, 8066, 8089, 8104,5.22778582572937
4, 8177, 8150, 8164, 8099, 8158, 8153, 8155, 8165, 8141, 8123, 8107, 8080, 8089, 8105,5.243391990661621
5, 8172, 8170, 8144, 8133, 8183, 8162, 8169, 8159, 8146, 8142, 8124, 8076, 8094, 8111,5.243391990661621
6, 8162, 8174, 8170, 8132, 8176, 8157, 8151, 8151, 8131, 8129, 8103, 8064, 8075, 8093,5.243391990661621
7, 8158, 8160, 8149, 8116, 8160, 8151, 8148, 8155, 8128, 8118, 8082, 8046, 8066, 8077,5.2589545249938965
8, 8157, 8151, 8143, 8117, 8160, 8154, 8154, 8157, 8130, 8120, 8079, 8041, 8065, 8088,5.2589545249938965
9, 8150, 8158, 8167, 8123, 8159, 8165, 8152, 8162, 8128, 8128, 8069, 8052, 8058, 8103,5.275037050247192
10, 8142, 8142, 8114, 8126, 8156, 8165, 8162, 8160, 8144, 8147, 8065, 8034, 8059, 8099,5.275037050247192
11, 8147, 8129, 8146, 8112, 8157, 8170, 8168, 8170, 8154, 8151, 8067, 8036, 8063, 8103,5.29112982749939
12, 8147, 8133, 8139, 8114, 8159, 8181, 8175, 8174, 8166, 8157, 8075, 8037, 8079, 8103,5.305846691131592
13, 8140, 8129, 8109, 8117, 8149, 8164, 8171, 8158, 8160, 8143, 8067, 8026, 8084, 8091,5.305846691131592
14, 8139, 8127, 8145, 8103, 8141, 8157, 8159, 8160, 8151, 8122, 8058, 8040, 8081, 8097,5.305846691131592
15, 8146, 8124, 8118, 8103, 8149, 8159, 8158, 8161, 8170, 8147, 8087, 8056, 8114, 8114,5.320880889892578
16, 8163, 8136, 8153, 8105, 8150, 8147, 8141, 8160, 8176, 8163, 8120, 8091, 8139, 8122,5.338338375091553
17, 8172, 8158, 8168, 8128, 8157, 8150, 8135, 8163, 8178, 8156, 8128, 8103, 8138, 8112,5.338338375091553
18, 8183, 8157, 8148, 8142, 8167, 8155, 8139, 8158, 8183, 8156, 8131, 8100, 8142, 8114,5.338338375091553
19, 8190, 8157, 8183, 8137, 8169, 8158, 8131, 8159, 8171, 8155, 8140, 8118, 8144, 8129,5.353963613510132
20, 8180, 8168, 8153, 8156, 8175, 8167, 8137, 8151, 8153, 8151, 8140, 8105, 8132, 8124,5.353963613510132
21, 8179, 8170, 8168, 8170, 8178, 8169, 8149, 8150, 8130, 8143, 8118, 8096, 8117, 8124,5.369027137756348
22, 8182, 8160, 8170, 8174, 8181, 8171, 8167, 8167, 8137, 8162, 8117, 8099, 8127, 8140,5.369027137756348
23, 8176, 8139, 8140, 8160, 8174, 8172, 8173, 8165, 8163, 8182, 8130, 8095, 8137, 8138,5.384377717971802
24, 8172, 8127, 8172, 8129, 8156, 8171, 8166, 8161, 8160, 8162, 8121, 8097, 8130, 8127,5.401320219039917
25, 8173, 8131, 8142, 8129, 8163, 8160, 8180, 8164, 8162, 8156, 8120, 8090, 8138, 8123,5.401320219039917
26, 8185, 8148, 8160, 8132, 8172, 8150, 8177, 8170, 8160, 8152, 8130, 8108, 8145, 8123,5.4168596267700195
27, 8184, 8162, 8173, 8132, 8163, 8149, 8158, 8166, 8142, 8139, 8139, 8125, 8140, 8118,5.4168596267700195
28, 8177, 8162, 8149, 8143, 8165, 8145, 8153, 8152, 8136, 8144, 8151, 8118, 8141, 8115,5.4329514503479
29, 8183, 8171, 8201, 8160, 8185, 8167, 8161, 8164, 8142, 8164, 8166, 8138, 8153, 8125,5.4329514503479
30, 8182, 8176, 8182, 8196, 8199, 8195, 8178, 8166, 8158, 8192, 8167, 8134, 8158, 8130,5.4329514503479
31, 8182, 8168, 8181, 8201, 8189, 8190, 8178, 8160, 8159, 8197, 8146, 8118, 8153, 8134,5.446140766143799
32, 8189, 8164, 8186, 8179, 8181, 8184, 8182, 8178, 8174, 8198, 8144, 8121, 8165, 8147,5.462259292602539
33, 8194, 8161, 8148, 8168, 8183, 8173, 8178, 8178, 8187, 8201, 8160, 8127, 8179, 8144,5.462259292602539
34, 8203, 8179, 8198, 8167, 8187, 8163, 8157, 8170, 8162, 8186, 8168, 8155, 8172, 8139,5.477964162826538
35, 8211, 8199, 8191, 8193, 8199, 8169, 8168, 8168, 8161, 8191, 8185, 8166, 8180, 8149,5.477964162826538
36, 8213, 8196, 8193, 8208, 8206, 8170, 8182, 8166, 8166, 8193, 8188, 8162, 8181, 8158,5.493159294128418
37, 8211, 8191, 8210, 8211, 8201, 8177, 8187, 8173, 8160, 8198, 8170, 8160, 8169, 8162,5.493159294128418
38, 8204, 8182, 8168, 8219, 8195, 8174, 8197, 8170, 8170, 8223, 8166, 8142, 8175, 8166,5.508213520050049
39, 8198, 8171, 8197, 8192, 8186, 8161, 8179, 8166, 8164, 8209, 8159, 8148, 8181, 8170,5.508213520050049
40, 8200, 8162, 8180, 8174, 8185, 8158, 8170, 8162, 8166, 8196, 8158, 8159, 8188, 8170,5.523821830749512
41, 8220, 8167, 8181, 8182, 8184, 8152, 8166, 8163, 8170, 8200, 8177, 8173, 8189, 8167,5.523821830749512
42, 8229, 8190, 8211, 8194, 8187, 8148, 8151, 8172, 8153, 8189, 8189, 8184, 8180, 8158,5.539015293121338
43, 8210, 8191, 8173, 8207, 8198, 8150, 8151, 8158, 8141, 8175, 8180, 8154, 8162, 8141,5.539015293121338
44, 8191, 8175, 8195, 8208, 8198, 8167, 8163, 8159, 8135, 8176, 8165, 8135, 8140, 8141,5.554592609405518
45, 8179, 8167, 8170, 8215, 8192, 8183, 8190, 8176, 8162, 8206, 8166, 8137, 8151, 8148,5.554592609405518
46, 8177, 8153, 8151, 8198, 8180, 8172, 8193, 8174, 8185, 8214, 8168, 8148, 8171, 8155,5.570224285125732
47, 8177, 8150, 8179, 8178, 8178, 8180, 8190, 8176, 8188, 8212, 8169, 8158, 8175, 8170,5.570224285125732
48, 8183, 8158, 8139, 8193, 8196, 8194, 8212, 8176, 8208, 8234, 8181, 8147, 8189, 8172,5.586033582687378
49, 8194, 8165, 8171, 8190, 8194, 8186, 8203, 8175, 8205, 8226, 8180, 8169, 8188, 8167,5.586033582687378
50, 8195, 8166, 8174, 8190, 8188, 8176, 8191, 8175, 8195, 8216, 8186, 8189, 8183, 8169,5.601927042007446
51, 8202, 8163, 8153, 8199, 8199, 8169, 8193, 8170, 8195, 8218, 8199, 8183, 8190, 8171,5.601927042007446
52, 8214, 8170, 8189, 8187, 8201, 8165, 8180, 8168, 8185, 8201, 8198, 8189, 8184, 8164,5.617006778717041
53, 8206, 8173, 8155, 8182, 8192, 8157, 8165, 8155, 8168, 8185, 8191, 8178, 8169, 8149,5.617006778717041
54, 8201, 8183, 8178, 8184, 8195, 8156, 8157, 8159, 8150, 8171, 8187, 8179, 8151, 8146,5.632136583328247
55, 8200, 8191, 8176, 8193, 8207, 8168, 8171, 8167, 8161, 8180, 8187, 8175, 8149, 8148,5.632136583328247
56, 8187, 8180, 8146, 8194, 8208, 8173, 8187, 8156, 8171, 8194, 8173, 8157, 8148, 8142,5.647934436798096
57, 8180, 8184, 8190, 8198, 8212, 8185, 8196, 8169, 8169, 8196, 8169, 8170, 8144, 8150,5.647934436798096
58, 8179, 8178, 8161, 8208, 8217, 8194, 8207, 8172, 8188, 8216, 8194, 8167, 8152, 8156,5.663866281509399
59, 8174, 8146, 8167, 8180, 8203, 8188, 8202, 8162, 8189, 8225, 8193, 8158, 8151, 8156,5.663866281509399
60, 8167, 8131, 8165, 8159, 8199, 8191, 8208, 8168, 8196, 8228, 8179, 8155, 8164, 8164,5.6786980628967285
61, 8172, 8137, 8141, 8164, 8205, 8191, 8218, 8166, 8210, 8230, 8190, 8158, 8178, 8170,5.6786980628967285
62, 8185, 8154, 8190, 8161, 8198, 8184, 8203, 8169, 8204, 8217, 8191, 8180, 8167, 8173,5.694766998291016
63, 8179, 8149, 8152, 8162, 8185, 8170, 8191, 8166, 8208, 8214, 8183, 8171, 8162, 8157,5.694766998291016
64, 8166, 8133, 8143, 8139, 8174, 8150, 8169, 8160, 8196, 8197, 8175, 8164, 8159, 8134,5.7108519077301025
65, 8163, 8138, 8157, 8125, 8172, 8150, 8161, 8165, 8185, 8191, 8180, 8170, 8162, 8133,5.7108519077301025
66, 8168, 8145, 8143, 8140, 8184, 8151, 8168, 8162, 8199, 8205, 8198, 8169, 8174, 8142,5.726993560791016
67, 8159, 8157, 8183, 8139, 8184, 8151, 8155, 8158, 8184, 8193, 8194, 8171, 8166, 8131,5.726993560791016
68, 8148, 8166, 8152, 8150, 8181, 8165, 8164, 8149, 8164, 8190, 8186, 8152, 8153, 8113,5.7420454025268555
69, 8165, 8165, 8165, 8161, 8189, 8174, 8186, 8158, 8163, 8192, 8183, 8153, 8151, 8122,5.7420454025268555
70, 8169, 8161, 8186, 8160, 8197, 8185, 8201, 8179, 8180, 8193, 8180, 8163, 8160, 8133,5.7575843334198
71, 8146, 8149, 8142, 8163, 8188, 8184, 8209, 8169, 8195, 8202, 8171, 8140, 8159, 8124,5.7575843334198
72, 8140, 8146, 8173, 8155, 8176, 8185, 8200, 8167, 8180, 8193, 8156, 8133, 8146, 8126,5.773662567138672
73, 8142, 8139, 8150, 8150, 8183, 8195, 8209, 8178, 8190, 8203, 8161, 8132, 8153, 8129,5.773662567138672
74, 8141, 8128, 8143, 8133, 8180, 8187, 8205, 8177, 8215, 8219, 8165, 8142, 8161, 8131,5.789586544036865
75, 8147, 8134, 8168, 8123, 8171, 8177, 8193, 8180, 8227, 8221, 8174, 8161, 8166, 8142,5.789586544036865
76, 8154, 8136, 8137, 8136, 8177, 8175, 8199, 8173, 8235, 8228, 8191, 8159, 8185, 8147,5.804607391357422
77, 8160, 8142, 8174, 8136, 8178, 8176, 8194, 8172, 8224, 8222, 8197, 8176, 8193, 8140,5.804607391357422
78, 8164, 8157, 8162, 8141, 8181, 8168, 8180, 8174, 8220, 8212, 8212, 8182, 8189, 8124,5.819831132888794
79, 8167, 8165, 8158, 8148, 8188, 8160, 8163, 8172, 8216, 8200, 8223, 8177, 8181, 8121,5.819831132888794
80, 8179, 8181, 8194, 8159, 8192, 8181, 8176, 8183, 8215, 8209, 8225, 8190, 8190, 8137,5.83586311340332
81, 8187, 8192, 8159, 8177, 8199, 8189, 8193, 8179, 8224, 8229, 8232, 8187, 8203, 8138,5.83586311340332
82, 8182, 8185, 8185, 8174, 8196, 8188, 8187, 8175, 8209, 8214, 8225, 8189, 8185, 8133,5.850987195968628
83, 8166, 8166, 8167, 8173, 8194, 8207, 8206, 8179, 8207, 8216, 8207, 8178, 8174, 8139,5.850987195968628
84, 8159, 8153, 8149, 8166, 8194, 8209, 8220, 8175, 8209, 8223, 8190, 8161, 8179, 8142,5.867122411727905
85, 8155, 8153, 8179, 8154, 8185, 8192, 8197, 8173, 8193, 8207, 8182, 8164, 8177, 8142,5.867122411727905
86, 8139, 8135, 8132, 8149, 8172, 8173, 8178, 8157, 8177, 8199, 8185, 8154, 8173, 8130,5.882716178894043
87, 8152, 8132, 8160, 8135, 8168, 8173, 8167, 8157, 8171, 8188, 8186, 8172, 8172, 8124,5.882716178894043
88, 8172, 8154, 8172, 8151, 8181, 8191, 8174, 8168, 8199, 8193, 8195, 8185, 8187, 8134,5.897848129272461
89, 8172, 8152, 8152, 8158, 8183, 8178, 8173, 8167, 8208, 8200, 8198, 8173, 8194, 8136,5.897848129272461
90, 8168, 8141, 8170, 8124, 8170, 8159, 8161, 8171, 8188, 8191, 8200, 8183, 8183, 8127,5.91301965713501
91, 8167, 8151, 8134, 8126, 8170, 8168, 8163, 8159, 8186, 8187, 8221, 8185, 8179, 8116,5.91301965713501
92, 8171, 8177, 8172, 8150, 8176, 8185, 8162, 8156, 8179, 8177, 8231, 8188, 8171, 8115,5.929166793823242
93, 8172, 8181, 8182, 8156, 8183, 8193, 8173, 8176, 8186, 8186, 8226, 8185, 8173, 8116,5.929166793823242
94, 8177, 8167, 8157, 8142, 8190, 8188, 8182, 8177, 8203, 8202, 8229, 8184, 8183, 8121,5.944842338562012
95, 8184, 8181, 8206, 8133, 8190, 8189, 8178, 8176, 8195, 8188, 8232, 8203, 8178, 8136,5.944842338562012
96, 8178, 8191, 8182, 8155, 8195, 8194, 8189, 8170, 8190, 8179, 8227, 8189, 8171, 8131,5.960729360580444
97, 8174, 8180, 8191, 8162, 8193, 8187, 8176, 8162, 8180, 8168, 8212, 8177, 8158, 8116,5.960729360580444
98, 8173, 8176, 8193, 8159, 8185, 8181, 8162, 8163, 8175, 8168, 8212, 8178, 8158, 8114,5.975877046585083
99, 8168, 8173, 8163, 8159, 8177, 8174, 8169, 8158, 8172, 8175, 8219, 8174, 8164, 8113,5.975877046585083
100, 8168, 8176, 8201, 8149, 8174, 8184, 8162, 8160, 8158, 8161, 8206, 8184, 8152, 8113,5.991939544677734
101, 8171, 8179, 8167, 8160, 8183, 8187, 8158, 8157, 8168, 8170, 8204, 8180, 8154, 8116,5.992940664291382
102, 8174, 8176, 8177, 8167, 8184, 8176, 8159, 8162, 8168, 8181, 8208, 8189, 8165, 8124,6.0070273876190186
103, 8175, 8189, 8200, 8179, 8190, 8190, 8174, 8176, 8161, 8185, 8212, 8195, 8169, 8135,6.032224178314209
104, 8179, 8192, 8169, 8191, 8198, 8191, 8189, 8162, 8167, 8187, 8217, 8182, 8170, 8135,6.032224178314209
105, 8185, 8181, 8206, 8177, 8194, 8179, 8177, 8163, 8167, 8179, 8213, 8196, 8164, 8139,6.032224178314209
106, 8173, 8174, 8175, 8188, 8196, 8186, 8179, 8170, 8175, 8188, 8214, 8190, 8165, 8140,6.032224178314209
107, 8176, 8180, 8177, 8194, 8196, 8197, 8192, 8168, 8175, 8199, 8220, 8187, 8168, 8142,6.039119720458984
108, 8191, 8178, 8196, 8181, 8193, 8204, 8209, 8172, 8179, 8208, 8217, 8192, 8167, 8147,6.054624795913696
109, 8187, 8161, 8151, 8178, 8193, 8194, 8211, 8171, 8199, 8213, 8204, 8170, 8167, 8146,6.0690412521362305
110, 8190, 8168, 8192, 8179, 8196, 8191, 8198, 8179, 8200, 8210, 8200, 8180, 8176, 8155,6.0690412521362305
111, 8205, 8184, 8190, 8196, 8207, 8202, 8209, 8184, 8211, 8231, 8223, 8202, 8197, 8166,6.085093021392822
112, 8209, 8179, 8189, 8191, 8197, 8187, 8203, 8176, 8210, 8224, 8228, 8208, 8195, 8163,6.085093021392822
113, 8201, 8172, 8205, 8177, 8184, 8171, 8186, 8174, 8200, 8199, 8217, 8209, 8185, 8154,6.101152658462524
114, 8198, 8170, 8162, 8184, 8189, 8174, 8197, 8174, 8216, 8213, 8229, 8199, 8196, 8149,6.101152658462524
115, 8200, 8179, 8189, 8174, 8185, 8180, 8196, 8182, 8215, 8208, 8227, 8201, 8192, 8149,6.118114709854126
116, 8195, 8173, 8171, 8170, 8183, 8171, 8182, 8173, 8209, 8193, 8218, 8193, 8187, 8140,6.118114709854126
117, 8205, 8168, 8172, 8185, 8193, 8159, 8176, 8163, 8210, 8197, 8226, 8197, 8192, 8143,6.118114709854126
118, 8211, 8186, 8204, 8200, 8197, 8178, 8188, 8177, 8210, 8203, 8235, 8208, 8195, 8154,6.131953477859497
119, 8204, 8184, 8157, 8195, 8195, 8183, 8198, 8173, 8214, 8213, 8245, 8191, 8204, 8149,6.147201299667358
120, 8202, 8180, 8191, 8180, 8200, 8172, 8177, 8171, 8201, 8211, 8256, 8197, 8202, 8141,6.147201299667358
121, 8200, 8200, 8190, 8205, 8214, 8181, 8181, 8178, 8200, 8212, 8263, 8199, 8200, 8135,6.163164138793945
122, 8201, 8200, 8172, 8217, 8215, 8190, 8192, 8170, 8198, 8201, 8245, 8184, 8187, 8128,6.163164138793945
123, 8198, 8190, 8207, 8205, 8208, 8193, 8194, 8174, 8197, 8199, 8237, 8191, 8178, 8135,6.17864727973938
124, 8187, 8184, 8172, 8218, 8210, 8198, 8219, 8178, 8222, 8239, 8253, 8186, 8199, 8147,6.17864727973938
125, 8193, 8175, 8190, 8208, 8208, 8203, 8231, 8180, 8223, 8238, 8231, 8182, 8195, 8154,6.1937360763549805
126, 8201, 8171, 8178, 8191, 8204, 8206, 8232, 8180, 8218, 8215, 8210, 8172, 8176, 8154,6.1937360763549805
127, 8201, 8171, 8157, 8190, 8203, 8193, 8225, 8173, 8230, 8229, 8230, 8172, 8183, 8161,6.208799600601196
236, 8208, 8176, 8199, 8189, 8203, 8190, 8213, 8182, 8240, 8249, 8246, 8197, 8200, 8178,6.208799600601196
0, 8216, 8181, 8172, 8195, 8205, 8190, 8212, 8178, 8256, 8248, 8250, 8198, 8213, 8179,6.22395658493042
1, 8229, 8189, 8198, 8190, 8200, 8182, 8208, 8177, 8264, 8233, 8256, 8212, 8218, 8184,6.22395658493042
2, 8234, 8187, 8198, 8197, 8201, 8184, 8216, 8186, 8271, 8243, 8263, 8223, 8226, 8197,6.240038156509399
3, 8222, 8173, 8168, 8201, 8205, 8180, 8223, 8177, 8262, 8241, 8258, 8208, 8221, 8185,6.240038156509399
4, 8219, 8180, 8209, 8184, 8205, 8181, 8224, 8181, 8250, 8231, 8256, 8218, 8216, 8180,6.256129026412964
5, 8231, 8191, 8180, 8194, 8211, 8187, 8231, 8184, 8270, 8253, 8272, 8225, 8235, 8196,6.256129026412964
6, 8248, 8190, 8203, 8201, 8204, 8177, 8216, 8176, 8256, 8242, 8279, 8238, 8238, 8198,6.272023916244507
7, 8253, 8196, 8224, 8205, 8198, 8166, 8205, 8174, 8234, 8228, 8277, 8240, 8230, 8183,6.272023916244507
8, 8256, 8197, 8192, 8218, 8210, 8159, 8205, 8176, 8249, 8238, 8274, 8227, 8225, 8180,6.28769326210022
9, 8253, 8193, 8218, 8208, 8209, 8162, 8194, 8181, 8240, 8221, 8255, 8230, 8208, 8176,6.28769326210022
10, 8239, 8182, 8183, 8194, 8196, 8159, 8205, 8172, 8228, 8195, 8253, 8227, 8213, 8171,6.303276777267456
11, 8239, 8178, 8197, 8188, 8194, 8152, 8214, 8170, 8236, 8188, 8271, 8245, 8231, 8191,6.303276777267456
12, 8243, 8192, 8219, 8200, 8208, 8174, 8212, 8181, 8248, 8182, 8278, 8258, 8229, 8197,6.319235324859619
13, 8248, 8196, 8183, 8214, 8218, 8187, 8213, 8176, 8240, 8151, 8269, 8238, 8222, 8180,6.319235324859619
14, 8252, 8202, 8219, 8207, 8213, 8178, 8213, 8181, 8230, 8156, 8263, 8245, 8223, 8183,6.334777355194092
15, 8243, 8196, 8196, 8203, 8211, 8176, 8228, 8188, 8258, 8226, 8267, 8237, 8226, 8186,6.334777355194092
16, 8237, 8182, 8195, 8191, 8205, 8178, 8224, 8178, 8254, 8230, 8260, 8230, 8223, 8172,6.350879430770874
17, 8245, 8196, 8213, 8201, 8209, 8179, 8216, 8177, 8233, 8194, 8272, 8253, 8230, 8176,6.350879430770874
18, 8248, 8200, 8178, 8209, 8221, 8164, 8217, 8174, 8239, 8215, 8273, 8248, 8230, 8180,6.366941928863525
19, 8240, 8195, 8211, 8192, 8216, 8161, 8204, 8177, 8236, 8230, 8243, 8236, 8213, 8171,6.366941928863525
20, 8239, 8211, 8196, 8213, 8214, 8169, 8208, 8178, 8245, 8234, 8262, 8246, 8229, 8172,6.3826744556427
21, 8243, 8208, 8193, 8212, 8213, 8156, 8202, 8172, 8240, 8232, 8291, 8268, 8236, 8175,6.3826744556427
22, 8236, 8194, 8211, 8188, 8210, 8160, 8196, 8176, 8223, 8212, 8280, 8266, 8224, 8172,6.39789605140686
23, 8243, 8204, 8186, 8220, 8215, 8177, 8214, 8172, 8241, 8222, 8290, 8261, 8246, 8175,6.39789605140686
24, 8267, 8227, 8240, 8247, 8215, 8175, 8213, 8178, 8244, 8235, 8308, 8296, 8254, 8185,6.413859128952026
25, 8267, 8221, 8219, 8236, 8216, 8164, 8206, 8181, 8226, 8235, 8299, 8290, 8237, 8182,6.413859128952026
26, 8262, 8198, 8199, 8213, 8219, 8162, 8208, 8176, 8218, 8227, 8287, 8271, 8231, 8182,6.429912805557251
27, 8265, 8196, 8227, 8203, 8213, 8177, 8216, 8186, 8229, 8211, 8284, 8287, 8232, 8194,6.429912805557251
28, 8257, 8195, 8182, 8213, 8205, 8176, 8224, 8180, 8233, 8210, 8275, 8271, 8226, 8180,6.448002815246582
29, 8259, 8209, 8218, 8219, 8206, 8171, 8217, 8179, 8217, 8217, 8266, 8270, 8222, 8175,6.448002815246582
30, 8267, 8226, 8221, 8228, 8221, 8184, 8224, 8183, 8234, 8245, 8284, 8289, 8232, 8192,6.462078094482422
31, 8267, 8219, 8204, 8234, 8225, 8188, 8228, 8177, 8242, 8247, 8294, 8289, 8232, 8196,6.462078094482422
32, 8264, 8227, 8235, 8234, 8223, 8190, 8224, 8180, 8225, 8227, 8277, 8277, 8224, 8188,6.4775989055633545
33, 8251, 8226, 8190, 8232, 8228, 8184, 8225, 8174, 8233, 8226, 8265, 8258, 8225, 8173,6.4775989055633545
34, 8242, 8212, 8204, 8207, 8222, 8173, 8209, 8174, 8238, 8211, 8264, 8277, 8217, 8172,6.492952823638916
35, 8239, 8208, 8200, 8206, 8214, 8181, 8211, 8183, 8237, 8216, 8277, 8286, 8222, 8179,6.492952823638916
36, 8238, 8210, 8183, 8219, 8219, 8183, 8217, 8174, 8224, 8225, 8274, 8257, 8224, 8168,6.50832462310791
37, 8233, 8215, 8221, 8214, 8216, 8177, 8205, 8175, 8202, 8204, 8256, 8252, 8206, 8158,6.50832462310791
38, 8222, 8211, 8181, 8215, 8205, 8173, 8210, 8176, 8207, 8207, 8260, 8249, 8197, 8158,6.523868083953857
39, 8224, 8201, 8195, 8196, 8193, 8177, 8208, 8176, 8204, 8211, 8254, 8250, 8190, 8157,6.523868083953857
40, 8228, 8197, 8201, 8194, 8198, 8192, 8204, 8174, 8197, 8200, 8241, 8246, 8189, 8147,6.538953065872192
41, 8225, 8204, 8181, 8214, 8208, 8190, 8201, 8166, 8198, 8188, 8241, 8237, 8190, 8143,6.538953065872192
42, 8219, 8217, 8224, 8215, 8199, 8179, 8191, 8175, 8192, 8183, 8241, 8248, 8185, 8149,6.554967403411865
43, 8210, 8216, 8194, 8216, 8197, 8183, 8197, 8174, 8202, 8200, 8240, 8240, 8189, 8145,6.554967403411865
44, 8207, 8215, 8203, 8217, 8215, 8192, 8202, 8167, 8207, 8209, 8237, 8239, 8181, 8135,6.570368051528931
45, 8205, 8222, 8210, 8228, 8231, 8205, 8218, 8175, 8221, 8224, 8238, 8236, 8178, 8145,6.570368051528931
46, 8212, 8217, 8184, 8238, 8223, 8214, 8234, 8176, 8249, 8254, 8242, 8233, 8202, 8173,6.586898326873779
47, 8222, 8211, 8223, 8226, 8207, 8214, 8230, 8180, 8249, 8260, 8240, 8257, 8219, 8184,6.586898326873779
48, 8210, 8199, 8182, 8218, 8206, 8193, 8226, 8171, 8240, 8253, 8230, 8245, 8208, 8167,6.602819919586182
49, 8209, 8194, 8182, 8208, 8201, 8179, 8221, 8170, 8234, 8243, 8221, 8244, 8194, 8168,6.602819919586182
50, 8230, 8208, 8207, 8210, 8203, 8197, 8232, 8190, 8252, 8251, 8237, 8276, 8219, 8182,6.6183881759643555
51, 8238, 8206, 8174, 8213, 8207, 8189, 8233, 8184, 8270, 8259, 8256, 8277, 8242, 8165,6.6183881759643555
52, 8230, 8207, 8210, 8200, 8203, 8177, 8212, 8174, 8250, 8238, 8253, 8276, 8220, 8151,6.633988857269287
53, 8221, 8214, 8194, 8218, 8214, 8187, 8218, 8175, 8245, 8238, 8263, 8275, 8214, 8155,6.633988857269287
54, 8226, 8219, 8203, 8240, 8226, 8187, 8222, 8178, 8237, 8238, 8254, 8269, 8210, 8156,6.649357795715332
55, 8228, 8223, 8219, 8249, 8222, 8192, 8225, 8182, 8226, 8237, 8225, 8260, 8197, 8159,6.649357795715332
56, 8218, 8202, 8173, 8249, 8213, 8196, 8235, 8176, 8238, 8258, 8225, 8246, 8203, 8162,6.6647419929504395
57, 8212, 8183, 8201, 8218, 8209, 8190, 8220, 8176, 8234, 8253, 8224, 8250, 8208, 8164,6.6647419929504395
58, 8217, 8187, 8174, 8214, 8215, 8179, 8215, 8176, 8243, 8251, 8217, 8247, 8216, 8166,6.680835485458374
59, 8232, 8195, 8175, 8231, 8214, 8164, 8213, 8177, 8250, 8247, 8225, 8265, 8222, 8169,6.680835485458374
60, 8237, 8201, 8213, 8231, 8204, 8163, 8200, 8182, 8239, 8230, 8234, 8286, 8217, 8162,6.696860313415527
61, 8228, 8191, 8168, 8220, 8207, 8159, 8194, 8167, 8230, 8228, 8231, 8264, 8215, 8144,6.696860313415527
62, 8229, 8191, 8198, 8210, 8212, 8156, 8186, 8166, 8210, 8223, 8227, 8269, 8213, 8142,6.712791442871094
63, 8234, 8210, 8198, 8233, 8212, 8166, 8190, 8171, 8205, 8224, 8250, 8284, 8222, 8153,6.712791442871094
64, 8237, 8216, 8197, 8244, 8206, 8164, 8193, 8162, 8196, 8218, 8271, 8292, 8223, 8157,6.729120969772339
65, 8239, 8218, 8232, 8241, 8202, 8160, 8193, 8170, 8185, 8211, 8275, 8315, 8215, 8157,6.729120969772339
66, 8243, 8227, 8203, 8275, 8215, 8161, 8198, 8172, 8199, 8216, 8276, 8310, 8216, 8159,6.745122194290161
67, 8254, 8243, 8246, 8300, 8218, 8172, 8196, 8176, 8197, 8209, 8278, 8312, 8215, 8168,6.745122194290161
68, 8260, 8248, 8250, 8318, 8216, 8188, 8212, 8182, 8205, 8230, 8295, 8322, 8225, 8172,6.760754823684692
69, 8268, 8246, 8242, 8342, 8220, 8183, 8212, 8173, 8207, 8248, 8309, 8340, 8241, 8181,6.760754823684692
70, 8280, 8254, 8284, 8353, 8219, 8170, 8195, 8173, 8186, 8233, 8320, 8374, 8250, 8202,6.776763677597046
71, 8276, 8245, 8247, 8361, 8218, 8165, 8203, 8169, 8182, 8232, 8332, 8372, 8252, 8198,6.776763677597046
72, 8277, 8238, 8275, 8363, 8221, 8177, 8202, 8177, 8182, 8235, 8320, 8367, 8242, 8192,6.791914224624634
73, 8281, 8241, 8280, 8377, 8230, 8197, 8206, 8185, 8192, 8241, 8311, 8366, 8251, 8205,6.791914224624634
74, 8273, 8229, 8248, 8369, 8229, 8194, 8214, 8172, 8192, 8232, 8306, 8356, 8254, 8203,6.8069305419921875
75, 8267, 8223, 8263, 8345, 8217, 8199, 8210, 8179, 8176, 8216, 8285, 8348, 8241, 8196,6.8069305419921875
76, 8267, 8220, 8223, 8345, 8221, 8197, 8214, 8187, 8190, 8236, 8279, 8328, 8251, 8203,6.823045253753662
77, 8267, 8219, 8248, 8328, 8224, 8179, 8216, 8188, 8200, 8242, 8285, 8339, 8260, 8214,6.823045253753662
78, 8258, 8222, 8249, 8319, 8222, 8191, 8223, 8188, 8202, 8237, 8282, 8345, 8253, 8210,6.8387134075164795
79, 8261, 8213, 8210, 8315, 8220, 8193, 8214, 8179, 8198, 8236, 8267, 8320, 8249, 8198,6.8387134075164795
80, 8267, 8207, 8241, 8290, 8214, 8174, 8195, 8180, 8188, 8216, 8251, 8317, 8247, 8194,6.854574203491211
81, 8248, 8199, 8198, 8277, 8208, 8164, 8198, 8178, 8195, 8215, 8246, 8303, 8241, 8187,6.854574203491211
82, 8244, 8195, 8207, 8267, 8196, 8161, 8186, 8174, 8185, 8210, 8237, 8295, 8224, 8178,6.8706910610198975
83, 8258, 8206, 8224, 8267, 8203, 8163, 8186, 8175, 8182, 8201, 8238, 8301, 8232, 8173,6.8706910610198975
84, 8265, 8209, 8201, 8275, 8220, 8167, 8203, 8171, 8200, 8200, 8261, 8311, 8259, 8180,6.885844707489014
85, 8267, 8217, 8244, 8273, 8223, 8177, 8196, 8177, 8200, 8206, 8267, 8325, 8257, 8187,6.885844707489014
86, 8267, 8220, 8216, 8280, 8227, 8178, 8193, 8175, 8205, 8235, 8268, 8312, 8253, 8172,6.901946067810059
87, 8271, 8216, 8226, 8270, 8232, 8171, 8199, 8176, 8219, 8250, 8288, 8325, 8269, 8176,6.901946067810059
88, 8264, 8222, 8245, 8266, 8237, 8175, 8205, 8186, 8222, 8243, 8295, 8332, 8269, 8192,6.9179298877716064
89, 8250, 8223, 8202, 8274, 8232, 8165, 8207, 8176, 8197, 8216, 8270, 8296, 8241, 8171,6.9179298877716064
90, 8249, 8228, 8237, 8269, 8226, 8154, 8195, 8174, 8169, 8188, 8257, 8295, 8220, 8154,6.932600498199463
91, 8250, 8232, 8215, 8286, 8238, 8169, 8208, 8180, 8190, 8213, 8277, 8299, 8234, 8176,6.932600498199463
92, 8240, 8220, 8200, 8290, 8238, 8178, 8211, 8181, 8202, 8241, 8266, 8284, 8242, 8192,6.9487199783325195
93, 8227, 8209, 8211, 8273, 8228, 8180, 8209, 8185, 8203, 8242, 8250, 8279, 8242, 8181,6.9487199783325195
94, 8226, 8207, 8181, 8271, 8233, 8181, 8228, 8186, 8223, 8242, 8265, 8273, 8249, 8170,6.964660167694092
95, 8234, 8210, 8218, 8259, 8234, 8187, 8229, 8192, 8218, 8237, 8249, 8276, 8237, 8183,6.964660167694092
96, 8232, 8198, 8192, 8249, 8225, 8191, 8230, 8186, 8214, 8245, 8227, 8266, 8232, 8193,6.980135679244995
97, 8233, 8184, 8189, 8242, 8209, 8170, 8220, 8175, 8208, 8237, 8225, 8261, 8230, 8184,6.980135679244995
98, 8241, 8195, 8222, 8237, 8202, 8169, 8213, 8184, 8201, 8227, 8234, 8276, 8235, 8189,6.995678186416626
99, 8252, 8199, 8184, 8236, 8209, 8181, 8230, 8183, 8229, 8249, 8252, 8284, 8259, 8206,6.995678186416626
100, 8259, 8195, 8216, 8215, 8207, 8172, 8225, 8185, 8241, 8247, 8252, 8303, 8266, 8212,7.011760473251343
101, 8251, 8197, 8201, 8206, 8211, 8165, 8221, 8191, 8236, 8239, 8253, 8293, 8263, 8202,7.011760473251343
102, 8245, 8190, 8185, 8203, 8217, 8170, 8226, 8183, 8235, 8243, 8251, 8272, 8255, 8193,7.0271313190460205
103, 8242, 8186, 8210, 8192, 8210, 8179, 8230, 8185, 8240, 8241, 8241, 8279, 8252, 8192,7.0271313190460205
104, 8222, 8183, 8159, 8186, 8211, 8163, 8224, 8179, 8239, 8237, 8239, 8266, 8250, 8172,7.043040752410889
105, 8213, 8186, 8184, 8175, 8212, 8148, 8200, 8178, 8217, 8215, 8236, 8265, 8229, 8156,7.043040752410889
106, 8226, 8197, 8195, 8190, 8217, 8165, 8209, 8186, 8228, 8221, 8251, 8277, 8233, 8165,7.058925151824951
107, 8240, 8201, 8193, 8205, 8224, 8172, 8222, 8183, 8244, 8246, 8271, 8289, 8251, 8177,7.058925151824951
108, 8237, 8208, 8229, 8196, 8223, 8172, 8211, 8185, 8227, 8244, 8265, 8295, 8239, 8171,7.074646234512329
109, 8217, 8200, 8185, 8201, 8222, 8175, 8206, 8178, 8216, 8230, 8237, 8259, 8216, 8145,7.074646234512329
110, 8215, 8193, 8202, 8194, 8223, 8180, 8207, 8179, 8204, 8218, 8220, 8247, 8206, 8144,7.090636730194092
111, 8227, 8203, 8211, 8191, 8230, 8190, 8222, 8187, 8216, 8240, 8244, 8263, 8221, 8165,7.090636730194092
112, 8230, 8204, 8200, 8205, 8231, 8184, 8218, 8172, 8227, 8247, 8243, 8260, 8220, 8166,7.105809926986694
113, 8221, 8205, 8231, 8213, 8226, 8182, 8200, 8170, 8211, 8228, 8210, 8257, 8198, 8158,7.105809926986694
114, 8215, 8196, 8184, 8207, 8224, 8185, 8221, 8183, 8223, 8244, 8217, 8245, 8206, 8164,7.121222496032715
115, 8222, 8186, 8197, 8183, 8218, 8189, 8235, 8186, 8230, 8243, 8218, 8247, 8210, 8174,7.121222496032715
116, 8213, 8179, 8194, 8187, 8215, 8198, 8238, 8176, 8224, 8234, 8194, 8247, 8199, 8166,7.136753797531128
117, 8204, 8168, 8158, 8183, 8213, 8188, 8237, 8167, 8236, 8252, 8203, 8243, 8209, 8164,7.136753797531128
118, 8219, 8186, 8206, 8153, 8208, 8179, 8222, 8181, 8237, 8247, 8224, 8267, 8220, 8172,7.1524598598480225
119, 8214, 8201, 8176, 8170, 8210, 8183, 8216, 8176, 8217, 8223, 8212, 8252, 8203, 8149,7.1524598598480225
120, 8192, 8184, 8177, 8185, 8215, 8190, 8216, 8170, 8202, 8214, 8182, 8224, 8174, 8135,7.167224168777466
121, 8182, 8166, 8187, 8173, 8215, 8199, 8230, 8188, 8233, 8246, 8184, 8220, 8181, 8149,7.167224168777466
122, 8194, 8163, 8158, 8168, 8211, 8185, 8225, 8188, 8265, 8269, 8197, 8221, 8199, 8154,7.1828083992004395
123, 8194, 8163, 8183, 8152, 8206, 8168, 8197, 8185, 8253, 8239, 8188, 8231, 8190, 8145,7.1828083992004395
124, 8173, 8156, 8141, 8147, 8207, 8161, 8200, 8173, 8244, 8218, 8190, 8217, 8186, 8123,7.198845386505127
125, 8172, 8173, 8162, 8164, 8208, 8170, 8212, 8165, 8220, 8215, 8195, 8211, 8180, 8107,7.198845386505127
126, 8180, 8192, 8194, 8191, 8214, 8197, 8226, 8180, 8206, 8227, 8182, 8213, 8175, 8121,7.214874267578125
127, 8179, 8165, 8145, 8192, 8222, 8198, 8242, 8182, 8226, 8242, 8175, 8199, 8182, 8142,7.214874267578125
236, 8178, 8152, 8177, 8168, 8213, 8189, 8239, 8181, 8228, 8235, 8180, 8208, 8180, 8147,7.230661392211914
0, 8180, 8169, 8164, 8180, 8216, 8195, 8239, 8178, 8232, 8240, 8183, 8208, 8192, 8143,7.230661392211914
1, 8189, 8175, 8163, 8175, 8223, 8180, 8226, 8177, 8232, 8234, 8186, 8220, 8205, 8143,7.245752334594727
2, 8194, 8183, 8187, 8159, 8223, 8165, 8209, 8184, 8223, 8220, 8197, 8234, 8195, 8137,7.245752334594727
3, 8187, 8188, 8155, 8182, 8228, 8173, 8212, 8172, 8223, 8226, 8188, 8201, 8171, 8118,7.261214733123779
4, 8177, 8180, 8185, 8192, 8221, 8193, 8215, 8173, 8222, 8232, 8162, 8191, 8163, 8122,7.261214733123779
5, 8174, 8180, 8165, 8193, 8222, 8209, 8229, 8189, 8249, 8264, 8181, 8202, 8190, 8141,7.276667356491089
6, 8190, 8188, 8166, 8191, 8228, 8206, 8238, 8193, 8267, 8275, 8204, 8217, 8205, 8153,7.276667356491089
7, 8198, 8183, 8190, 8173, 8215, 8189, 8223, 8185, 8237, 8233, 8191, 8223, 8192, 8144,7.292636156082153
8, 8184, 8170, 8139, 8163, 8197, 8169, 8200, 8163, 8193, 8195, 8188, 8202, 8178, 8113,7.292636156082153
9, 8180, 8184, 8181, 8166, 8198, 8171, 8182, 8165, 8168, 8177, 8193, 8211, 8168, 8107,7.307894945144653
10, 8179, 8192, 8182, 8180, 8213, 8187, 8201, 8174, 8185, 8193, 8186, 8215, 8164, 8123,7.3239922523498535
11, 8174, 8171, 8160, 8173, 8209, 8189, 8222, 8176, 8204, 8208, 8170, 8195, 8158, 8124,7.3239922523498535
12, 8171, 8164, 8179, 8159, 8203, 8197, 8232, 8191, 8221, 8218, 8158, 8187, 8162, 8126,7.3239922523498535
13, 8170, 8161, 8135, 8154, 8204, 8192, 8239, 8184, 8240, 8234, 8173, 8181, 8183, 8125,7.339846849441528
14, 8183, 8173, 8178, 8153, 8204, 8174, 8212, 8180, 8217, 8218, 8193, 8204, 8191, 8125,7.339846849441528
15, 8199, 8200, 8193, 8185, 8217, 8186, 8211, 8189, 8212, 8215, 8203, 8214, 8195, 8134,7.355135917663574
16, 8193, 8186, 8166, 8190, 8220, 8200, 8238, 8183, 8230, 8232, 8185, 8192, 8189, 8136,7.355135917663574
17, 8175, 8157, 8185, 8158, 8206, 8204, 8252, 8188, 8232, 8234, 8164, 8187, 8173, 8133,7.370812177658081
18, 8168, 8148, 8149, 8156, 8197, 8190, 8244, 8184, 8239, 8229, 8174, 8191, 8185, 8133,7.370812177658081
19, 8183, 8160, 8176, 8155, 8194, 8165, 8210, 8175, 8222, 8207, 8181, 8215, 8196, 8135,7.386016607284546
20, 8201, 8176, 8189, 8169, 8198, 8162, 8205, 8177, 8206, 8201, 8190, 8229, 8198, 8136,7.402078628540039
21, 8207, 8183, 8183, 8184, 8202, 8158, 8211, 8174, 8196, 8204, 8201, 8232, 8198, 8140,7.402078628540039
22, 8207, 8191, 8222, 8177, 8202, 8159, 8204, 8178, 8176, 8194, 8198, 8246, 8191, 8146,7.402078628540039
23, 8203, 8191, 8183, 8196, 8213, 8176, 8226, 8180, 8186, 8205, 8191, 8228, 8185, 8148,7.418864011764526
24, 8204, 8186, 8201, 8208, 8213, 8195, 8243, 8182, 8201, 8208, 8179, 8226, 8176, 8152,7.418864011764526
25, 8203, 8178, 8204, 8203, 8207, 8206, 8250, 8187, 8210, 8214, 8176, 8240, 8187, 8160,7.434494972229004
26, 8205, 8162, 8168, 8189, 8204, 8189, 8246, 8184, 8217, 8223, 8176, 8238, 8208, 8167,7.434494972229004
27, 8211, 8173, 8206, 8169, 8201, 8173, 8228, 8187, 8215, 8216, 8180, 8257, 8215, 8177,7.447784185409546
28, 8212, 8192, 8179, 8175, 8208, 8167, 8222, 8176, 8210, 8217, 8203, 8271, 8225, 8170,7.46321702003479
29, 8209, 8189, 8183, 8174, 8206, 8147, 8203, 8167, 8177, 8198, 8204, 8265, 8218, 8150,7.46321702003479
30, 8201, 8189, 8188, 8175, 8202, 8140, 8182, 8173, 8159, 8185, 8191, 8246, 8201, 8136,7.478973388671875
31, 8201, 8193, 8169, 8189, 8210, 8146, 8176, 8170, 8173, 8198, 8201, 8237, 8196, 8136,7.478973388671875
32, 8207, 8196, 8217, 8187, 8212, 8156, 8182, 8177, 8170, 8206, 8198, 8252, 8190, 8146,7.494605541229248
33, 8200, 8190, 8179, 8198, 8210, 8165, 8207, 8175, 8170, 8220, 8183, 8228, 8184, 8143,7.494605541229248
34, 8199, 8179, 8180, 8202, 8211, 8181, 8218, 8173, 8174, 8222, 8175, 8214, 8176, 8145,7.510118722915649
35, 8205, 8175, 8201, 8190, 8208, 8191, 8221, 8182, 8187, 8222, 8175, 8232, 8177, 8162,7.510118722915649
36, 8210, 8173, 8167, 8189, 8200, 8166, 8225, 8176, 8206, 8237, 8182, 8236, 8198, 8171,7.525720119476318
37, 8230, 8189, 8218, 8195, 8198, 8154, 8215, 8176, 8205, 8235, 8196, 8262, 8218, 8191,7.525720119476318
38, 8239, 8193, 8194, 8195, 8200, 8154, 8212, 8176, 8213, 8228, 8206, 8270, 8231, 8200,7.540939092636108
39, 8235, 8177, 8174, 8173, 8192, 8132, 8192, 8171, 8211, 8210, 8193, 8264, 8221, 8184,7.540939092636108
40, 8234, 8189, 8203, 8169, 8185, 8130, 8171, 8177, 8191, 8189, 8192, 8275, 8205, 8167,7.556877374649048
41, 8228, 8203, 8178, 8188, 8191, 8141, 8177, 8166, 8181, 8187, 8210, 8273, 8203, 8157,7.556877374649048
42, 8221, 8206, 8211, 8183, 8189, 8145, 8183, 8167, 8174, 8184, 8207, 8271, 8197, 8159,7.572970867156982
43, 8207, 8204, 8191, 8190, 8192, 8158, 8199, 8176, 8190, 8192, 8199, 8254, 8195, 8153,7.572970867156982
44, 8197, 8199, 8182, 8192, 8198, 8164, 8204, 8169, 8190, 8189, 8193, 8240, 8191, 8139,7.589009523391724
45, 8196, 8194, 8203, 8187, 8197, 8162, 8204, 8171, 8179, 8187, 8189, 8235, 8188, 8138,7.589009523391724
46, 8192, 8179, 8159, 8193, 8199, 8165, 8220, 8174, 8200, 8207, 8191, 8220, 8194, 8146,7.604565143585205
47, 8192, 8176, 8189, 8184, 8194, 8169, 8213, 8181, 8207, 8208, 8184, 8236, 8190, 8161,7.604565143585205
48, 8190, 8175, 8169, 8181, 8189, 8167, 8204, 8180, 8213, 8212, 8180, 8235, 8193, 8159,7.620601654052734
49, 8187, 8164, 8148, 8168, 8180, 8150, 8197, 8166, 8218, 8210, 8171, 8218, 8191, 8146,7.620601654052734
50, 8183, 8160, 8179, 8144, 8171, 8138, 8182, 8170, 8207, 8190, 8162, 8232, 8183, 8145,7.637139558792114
51, 8183, 8158, 8144, 8152, 8171, 8130, 8173, 8172, 8208, 8186, 8176, 8235, 8182, 8142,7.637139558792114
52, 8196, 8171, 8177, 8150, 8167, 8129, 8152, 8173, 8198, 8177, 8179, 8243, 8170, 8138,7.6527419090271
53, 8198, 8188, 8172, 8143, 8169, 8136, 8153, 8174, 8196, 8173, 8178, 8237, 8162, 8129,7.6527419090271
54, 8187, 8182, 8152, 8149, 8171, 8134, 8160, 8164, 8187, 8171, 8181, 8224, 8161, 8118,7.667771100997925
55, 8179, 8185, 8195, 8167, 8179, 8154, 8161, 8169, 8177, 8169, 8176, 8234, 8156, 8119,7.667771100997925
56, 8173, 8188, 8156, 8188, 8190, 8170, 8173, 8175, 8196, 8187, 8172, 8218, 8156, 8118,7.682898759841919
57, 8174, 8176, 8169, 8177, 8180, 8165, 8175, 8178, 8194, 8187, 8153, 8208, 8146, 8113,7.682898759841919
58, 8181, 8170, 8181, 8175, 8182, 8174, 8196, 8180, 8195, 8192, 8150, 8218, 8149, 8126,7.698253393173218
59, 8200, 8175, 8169, 8183, 8193, 8170, 8206, 8178, 8222, 8211, 8181, 8238, 8179, 8150,7.698253393173218
60, 8217, 8191, 8209, 8176, 8187, 8158, 8187, 8187, 8226, 8206, 8196, 8269, 8197, 8161,7.714044809341431
61, 8217, 8205, 8179, 8187, 8190, 8152, 8183, 8177, 8207, 8198, 8203, 8274, 8198, 8149,7.714044809341431
62, 8219, 8211, 8202, 8195, 8199, 8148, 8180, 8169, 8177, 8177, 8210, 8284, 8187, 8144,7.7289934158325195
63, 8224, 8213, 8213, 8213, 8205, 8165, 8188, 8180, 8182, 8183, 8212, 8282, 8186, 8156,7.7289934158325195
64, 8228, 8202, 8179, 8227, 8209, 8178, 8206, 8181, 8215, 8218, 8201, 8258, 8195, 8170,7.745067119598389
65, 8221, 8189, 8204, 8202, 8200, 8174, 8208, 8188, 8226, 8221, 8182, 8262, 8190, 8172,7.745067119598389
66, 8210, 8173, 8160, 8184, 8187, 8161, 8201, 8184, 8227, 8213, 8187, 8260, 8192, 8158,7.761242866516113
67, 8230, 8175, 8174, 8173, 8187, 8150, 8181, 8179, 8217, 8204, 8196, 8263, 8197, 8152,7.761242866516113
68, 8236, 8196, 8196, 8174, 8201, 8160, 8182, 8183, 8213, 8203, 8200, 8268, 8196, 8151,7.776727914810181
69, 8208, 8195, 8156, 8192, 8209, 8171, 8200, 8174, 8205, 8208, 8196, 8255, 8184, 8142,7.776727914810181
70, 8202, 8189, 8188, 8197, 8203, 8183, 8197, 8181, 8189, 8211, 8187, 8261, 8174, 8150,7.792314767837524
71, 8207, 8181, 8155, 8194, 8198, 8179, 8196, 8181, 8213, 8230, 8190, 8248, 8192, 8159,7.792314767837524
72, 8211, 8175, 8158, 8174, 8189, 8155, 8184, 8170, 8219, 8219, 8198, 8254, 8204, 8154,7.80808424949646
73, 8218, 8195, 8194, 8174, 8194, 8152, 8167, 8178, 8189, 8200, 8219, 8286, 8207, 8149,7.80808424949646
74, 8215, 8207, 8165, 8201, 8208, 8159, 8176, 8175, 8173, 8207, 8228, 8273, 8203, 8141,7.823340177536011
75, 8211, 8211, 8198, 8205, 8208, 8171, 8193, 8174, 8173, 8208, 8208, 8260, 8190, 8143,7.823340177536011
76, 8201, 8201, 8176, 8203, 8207, 8186, 8205, 8174, 8188, 8217, 8196, 8249, 8192, 8144,7.838684320449829
77, 8189, 8182, 8163, 8190, 8203, 8182, 8192, 8173, 8192, 8215, 8190, 8239, 8178, 8137,7.838684320449829
78, 8190, 8176, 8176, 8181, 8198, 8183, 8195, 8182, 8199, 8214, 8182, 8238, 8170, 8138,7.854017019271851
79, 8209, 8172, 8147, 8185, 8204, 8189, 8215, 8179, 8226, 8236, 8190, 8239, 8197, 8154,7.854017019271851
80, 8223, 8174, 8189, 8171, 8198, 8188, 8200, 8180, 8231, 8236, 8203, 8262, 8212, 8172,7.8695290088653564
81, 8210, 8176, 8168, 8168, 8190, 8179, 8186, 8178, 8236, 8230, 8216, 8255, 8216, 8163,7.8695290088653564
82, 8204, 8176, 8160, 8179, 8196, 8174, 8182, 8172, 8229, 8228, 8219, 8247, 8222, 8151,7.885615348815918
83, 8213, 8195, 8197, 8185, 8201, 8179, 8175, 8176, 8205, 8216, 8220, 8262, 8220, 8153,7.885615348815918
84, 8216, 8203, 8164, 8188, 8199, 8175, 8174, 8170, 8198, 8207, 8232, 8254, 8210, 8140,7.9010984897613525
85, 8213, 8196, 8197, 8181, 8196, 8173, 8162, 8172, 8184, 8197, 8221, 8251, 8193, 8124,7.9010984897613525
86, 8205, 8198, 8184, 8192, 8200, 8183, 8169, 8179, 8181, 8210, 8212, 8241, 8190, 8124,7.9172751903533936
87, 8205, 8208, 8170, 8204, 8201, 8186, 8180, 8175, 8189, 8214, 8214, 8233, 8190, 8130,7.9172751903533936
88, 8215, 8223, 8214, 8213, 8207, 8199, 8184, 8177, 8191, 8218, 8210, 8248, 8187, 8142,7.932870864868164
89, 8218, 8221, 8180, 8230, 8215, 8203, 8192, 8169, 8197, 8237, 8207, 8245, 8195, 8145,7.932870864868164
90, 8213, 8207, 8203, 8223, 8204, 8198, 8189, 8167, 8183, 8219, 8194, 8245, 8186, 8146,7.948058843612671
91, 8212, 8198, 8201, 8218, 8193, 8205, 8197, 8176, 8194, 8212, 8189, 8252, 8185, 8155,7.948058843612671
92, 8228, 8191, 8185, 8218, 8191, 8191, 8187, 8175, 8218, 8227, 8206, 8271, 8210, 8168,7.9638402462005615
93, 8247, 8201, 8227, 8227, 8195, 8181, 8177, 8181, 8221, 8228, 8232, 8305, 8227, 8181,7.9638402462005615
94, 8247, 8206, 8202, 8263, 8204, 8190, 8209, 8177, 8237, 8244, 8251, 8311, 8238, 8189,7.978992462158203
95, 8253, 8207, 8234, 8266, 8201, 8184, 8203, 8174, 8234, 8237, 8255, 8325, 8236, 8189,7.978992462158203
96, 8263, 8211, 8244, 8261, 8188, 8167, 8168, 8181, 8213, 8211, 8268, 8345, 8234, 8180,7.994042873382568
97, 8261, 8206, 8223, 8274, 8176, 8153, 8150, 8166, 8187, 8198, 8279, 8346, 8238, 8175,7.994042873382568
98, 8251, 8214, 8263, 8275, 8170, 8152, 8139, 8161, 8165, 8187, 8274, 8357, 8237, 8175,8.009648084640503
99, 8249, 8220, 8237, 8284, 8182, 8148, 8139, 8164, 8168, 8184, 8276, 8354, 8240, 8169,8.009648084640503
100, 8261, 8219, 8259, 8288, 8187, 8143, 8132, 8165, 8160, 8179, 8272, 8361, 8232, 8169,8.034029960632324
101, 8259, 8232, 8264, 8298, 8191, 8161, 8144, 8162, 8164, 8193, 8267, 8359, 8224, 8172,8.034029960632324
102, 8244, 8235, 8230, 8308, 8203, 8171, 8164, 8155, 8173, 8203, 8265, 8335, 8220, 8168,8.034029960632324
103, 8241, 8228, 8264, 8290, 8195, 8173, 8162, 8167, 8160, 8183, 8252, 8335, 8220, 8172,8.055965662002563
104, 8238, 8214, 8219, 8284, 8187, 8179, 8169, 8171, 8170, 8192, 8241, 8317, 8224, 8174,8.055965662002563
105, 8238, 8208, 8219, 8279, 8197, 8186, 8167, 8166, 8183, 8204, 8226, 8304, 8210, 8166,8.055965662002563
106, 8233, 8211, 8236, 8278, 8214, 8198, 8171, 8175, 8194, 8205, 8224, 8304, 8209, 8164,8.071139812469482
107, 8227, 8193, 8193, 8270, 8212, 8191, 8184, 8173, 8209, 8214, 8226, 8285, 8221, 8166,8.08672308921814
108, 8236, 8185, 8218, 8239, 8191, 8184, 8181, 8176, 8207, 8207, 8209, 8288, 8214, 8174,8.08672308921814
109, 8241, 8190, 8195, 8236, 8191, 8187, 8191, 8172, 8219, 8210, 8211, 8289, 8223, 8176,8.08672308921814
110, 8238, 8183, 8201, 8220, 8196, 8176, 8193, 8169, 8230, 8213, 8213, 8287, 8236, 8177,8.101798057556152
111, 8233, 8182, 8213, 8197, 8188, 8173, 8181, 8178, 8224, 8206, 8202, 8286, 8230, 8171,8.117829084396362
112, 8228, 8183, 8167, 8201, 8181, 8175, 8177, 8165, 8206, 8186, 8190, 8269, 8207, 8141,8.117829084396362
113, 8224, 8192, 8210, 8198, 8183, 8174, 8174, 8169, 8184, 8160, 8181, 8275, 8180, 8127,8.133376359939575
114, 8212, 8204, 8193, 8206, 8197, 8173, 8185, 8184, 8200, 8178, 8197, 8268, 8186, 8136,8.133376359939575
115, 8206, 8205, 8188, 8214, 8205, 8178, 8182, 8177, 8206, 8197, 8199, 8252, 8192, 8134,8.149023294448853
116, 8198, 8195, 8211, 8214, 8209, 8200, 8185, 8174, 8194, 8196, 8166, 8237, 8173, 8126,8.149023294448853
117, 8186, 8174, 8158, 8206, 8208, 8193, 8202, 8171, 8206, 8207, 8150, 8217, 8168, 8131,8.164133787155151
118, 8198, 8171, 8190, 8180, 8191, 8167, 8193, 8180, 8211, 8205, 8166, 8239, 8178, 8148,8.164133787155151
119, 8210, 8185, 8180, 8174, 8190, 8164, 8187, 8180, 8212, 8203, 8188, 8253, 8195, 8148,8.179797649383545
120, 8208, 8184, 8165, 8169, 8192, 8161, 8182, 8171, 8205, 8191, 8183, 8251, 8199, 8140,8.179797649383545
121, 8206, 8178, 8194, 8155, 8184, 8161, 8174, 8179, 8206, 8191, 8172, 8259, 8192, 8136,8.195255517959595
122, 8197, 8163, 8151, 8152, 8182, 8160, 8172, 8176, 8224, 8213, 8176, 8241, 8195, 8123,8.195255517959595
123, 8186, 8163, 8174, 8137, 8184, 8157, 8161, 8176, 8210, 8196, 8172, 8237, 8183, 8117,8.211023092269897
124, 8176, 8180, 8168, 8150, 8194, 8170, 8175, 8178, 8201, 8188, 8164, 8228, 8167, 8102,8.211023092269897
125, 8171, 8181, 8159, 8178, 8207, 8195, 8194, 8174, 8205, 8200, 8154, 8200, 8152, 8082,8.226112842559814
126, 8167, 8174, 8192, 8181, 8213, 8220, 8197, 8181, 8202, 8197, 8153, 8195, 8150, 8091,8.226112842559814
127, 8163, 8174, 8159, 8187, 8214, 8218, 8198, 8178, 8217, 8205, 8163, 8193, 8166, 8109,8.241646528244019
236, 8171, 8184, 8192, 8191, 8211, 8205, 8192, 8179, 8220, 8214, 8153, 8204, 8167, 8112,8.241646528244019
0, 8177, 8183, 8181, 8196, 8208, 8202, 8204, 8180, 8228, 8223, 8144, 8200, 8165, 8115,8.25728726387024
1, 8173, 8158, 8148, 8176, 8199, 8188, 8212, 8173, 8238, 8216, 8145, 8194, 8166, 8120,8.25728726387024
2, 8167, 8150, 8182, 8149, 8195, 8189, 8207, 8177, 8226, 8199, 8135, 8202, 8158, 8119,8.273029327392578
3, 8168, 8156, 8145, 8168, 8198, 8196, 8220, 8175, 8227, 8200, 8131, 8185, 8156, 8110,8.273029327392578
4, 8178, 8164, 8167, 8169, 8194, 8186, 8223, 8177, 8239, 8203, 8137, 8190, 8165, 8116,8.288744688034058
5, 8179, 8170, 8175, 8158, 8195, 8186, 8221, 8185, 8249, 8211, 8148, 8209, 8180, 8132,8.288744688034058
6, 8182, 8173, 8154, 8173, 8204, 8186, 8215, 8178, 8237, 8208, 8160, 8216, 8192, 8138,8.304219722747803
7, 8198, 8189, 8195, 8185, 8209, 8185, 8197, 8180, 8225, 8207, 8175, 8242, 8210, 8146,8.304219722747803
8, 8208, 8199, 8167, 8191, 8213, 8184, 8198, 8178, 8235, 8226, 8197, 8245, 8232, 8146,8.32017707824707
9, 8206, 8200, 8189, 8184, 8206, 8174, 8190, 8172, 8210, 8206, 8194, 8242, 8212, 8138,8.32017707824707
10, 8195, 8204, 8198, 8189, 8200, 8166, 8184, 8171, 8194, 8191, 8189, 8240, 8195, 8140,8.335760116577148
11, 8193, 8202, 8160, 8193, 8202, 8164, 8193, 8165, 8202, 8206, 8193, 8228, 8207, 8143,8.335760116577148
12, 8197, 8204, 8196, 8187, 8205, 8186, 8203, 8178, 8190, 8195, 8173, 8227, 8198, 8139,8.350903511047363
13, 8185, 8196, 8160, 8200, 8211, 8193, 8216, 8180, 8191, 8192, 8161, 8206, 8186, 8128,8.350903511047363
14, 8179, 8188, 8162, 8193, 8210, 8178, 8208, 8175, 8201, 8203, 8165, 8200, 8189, 8130,8.366957426071167
15, 8186, 8200, 8182, 8189, 8211, 8195, 8214, 8184, 8220, 8220, 8165, 8209, 8194, 8141,8.366957426071167
16, 8182, 8193, 8147, 8197, 8211, 8203, 8225, 8173, 8229, 8232, 8159, 8195, 8193, 8142,8.383023262023926
17, 8175, 8183, 8186, 8187, 8201, 8180, 8210, 8167, 8197, 8212, 8151, 8197, 8181, 8144,8.383023262023926
18, 8186, 8192, 8174, 8195, 8206, 8179, 8216, 8173, 8185, 8208, 8157, 8201, 8183, 8149,8.399245500564575
19, 8205, 8200, 8180, 8205, 8215, 8198, 8225, 8174, 8196, 8214, 8159, 8211, 8189, 8158,8.399245500564575
20, 8201, 8195, 8195, 8197, 8207, 8202, 8223, 8174, 8200, 8210, 8156, 8212, 8184, 8157,8.415324211120605
21, 8188, 8178, 8160, 8179, 8187, 8183, 8217, 8171, 8204, 8205, 8159, 8197, 8182, 8152,8.415324211120605
22, 8190, 8179, 8195, 8158, 8176, 8182, 8205, 8179, 8208, 8197, 8163, 8212, 8185, 8167,8.4313485622406
23, 8191, 8179, 8166, 8169, 8188, 8189, 8211, 8180, 8224, 8210, 8176, 8207, 8193, 8173,8.4313485622406
24, 8201, 8173, 8167, 8175, 8191, 8181, 8216, 8181, 8228, 8221, 8190, 8205, 8194, 8172,8.447055339813232
25, 8208, 8185, 8198, 8165, 8182, 8178, 8206, 8187, 8218, 8210, 8194, 8225, 8201, 8176,8.447055339813232
26, 8199, 8184, 8158, 8165, 8179, 8163, 8191, 8172, 8209, 8189, 8191, 8218, 8210, 8171,8.462602138519287
27, 8210, 8186, 8199, 8165, 8178, 8157, 8191, 8172, 8202, 8180, 8195, 8232, 8212, 8174,8.462602138519287
28, 8223, 8200, 8198, 8183, 8181, 8172, 8211, 8183, 8219, 8208, 8225, 8248, 8231, 8185,8.477975130081177
29, 8217, 8195, 8183, 8182, 8180, 8165, 8204, 8175, 8213, 8202, 8227, 8240, 8230, 8176,8.477975130081177
30, 8206, 8191, 8202, 8167, 8179, 8156, 8190, 8176, 8193, 8178, 8208, 8231, 8208, 8160,8.493247032165527
31, 8192, 8191, 8163, 8169, 8184, 8159, 8194, 8170, 8197, 8189, 8212, 8216, 8196, 8147,8.493247032165527
32, 8175, 8193, 8191, 8166, 8179, 8160, 8178, 8158, 8173, 8167, 8199, 8204, 8174, 8131,8.508865356445312
33, 8169, 8194, 8183, 8184, 8184, 8172, 8184, 8161, 8164, 8151, 8185, 8187, 8163, 8127,8.508865356445312
34, 8182, 8194, 8175, 8197, 8199, 8186, 8205, 8172, 8183, 8175, 8191, 8194, 8169, 8140,8.524905920028687
35, 8187, 8202, 8216, 8190, 8195, 8190, 8201, 8184, 8176, 8188, 8192, 8212, 8163, 8149,8.524905920028687
36, 8184, 8205, 8182, 8208, 8190, 8183, 8198, 8173, 8167, 8189, 8185, 8196, 8163, 8142,8.540963411331177
37, 8194, 8202, 8208, 8218, 8203, 8187, 8200, 8177, 8166, 8183, 8183, 8199, 8169, 8144,8.540963411331177
38, 8189, 8191, 8197, 8208, 8200, 8200, 8212, 8191, 8182, 8191, 8185, 8199, 8175, 8150,8.556991338729858
39, 8176, 8178, 8168, 8198, 8183, 8197, 8214, 8179, 8196, 8196, 8170, 8184, 8166, 8149,8.556991338729858
40, 8180, 8188, 8209, 8200, 8183, 8190, 8207, 8177, 8187, 8188, 8160, 8197, 8160, 8151,8.572810649871826
41, 8182, 8188, 8172, 8208, 8189, 8186, 8218, 8178, 8187, 8196, 8170, 8190, 8178, 8148,8.572810649871826
42, 8181, 8175, 8187, 8187, 8170, 8185, 8211, 8177, 8185, 8194, 8168, 8190, 8185, 8156,8.58789324760437
43, 8186, 8175, 8194, 8181, 8167, 8196, 8209, 8186, 8197, 8198, 8168, 8198, 8195, 8170,8.58789324760437
44, 8203, 8183, 8172, 8190, 8191, 8194, 8223, 8188, 8216, 8209, 8182, 8200, 8213, 8176,8.603299379348755
45, 8210, 8184, 8209, 8176, 8195, 8193, 8221, 8189, 8212, 8204, 8188, 8208, 8211, 8176,8.603299379348755
46, 8185, 8166, 8163, 8164, 8183, 8184, 8203, 8174, 8197, 8196, 8179, 8184, 8201, 8155,8.618881225585938
47, 8174, 8157, 8167, 8147, 8169, 8161, 8174, 8167, 8172, 8166, 8163, 8178, 8182, 8135,8.618881225585938
48, 8195, 8175, 8188, 8158, 8174, 8169, 8180, 8179, 8180, 8160, 8177, 8202, 8187, 8142,8.634909868240356
49, 8212, 8182, 8168, 8177, 8191, 8178, 8188, 8174, 8193, 8175, 8197, 8203, 8203, 8152,8.634909868240356
50, 8204, 8182, 8204, 8161, 8188, 8173, 8167, 8174, 8167, 8156, 8186, 8197, 8185, 8142,8.650055885314941
51, 8197, 8192, 8178, 8170, 8190, 8178, 8179, 8178, 8179, 8162, 8189, 8192, 8181, 8133,8.650055885314941
52, 8207, 8196, 8195, 8181, 8204, 8191, 8201, 8180, 8206, 8185, 8208, 8210, 8197, 8146,8.66560173034668
53, 8206, 8197, 8215, 8179, 8213, 8199, 8205, 8181, 8199, 8185, 8218, 8216, 8203, 8158,8.66560173034668
54, 8198, 8200, 8179, 8192, 8209, 8189, 8204, 8170, 8189, 8187, 8216, 8194, 8195, 8150,8.680758953094482
55, 8208, 8212, 8226, 8214, 8208, 8193, 8193, 8174, 8190, 8192, 8202, 8207, 8190, 8151,8.680758953094482
56, 8202, 8206, 8204, 8239, 8215, 8199, 8193, 8173, 8198, 8200, 8196, 8206, 8195, 8151,8.696868419647217
57, 8183, 8189, 8190, 8222, 8202, 8185, 8190, 8168, 8183, 8197, 8195, 8192, 8193, 8145,8.696868419647217
58, 8186, 8199, 8209, 8205, 8200, 8193, 8196, 8180, 8180, 8205, 8199, 8206, 8197, 8152,8.714972734451294
59, 8196, 8196, 8181, 8216, 8211, 8204, 8211, 8179, 8192, 8216, 8192, 8204, 8201, 8153,8.714972734451294
60, 8188, 8179, 8216, 8205, 8197, 8194, 8201, 8178, 8173, 8195, 8166, 8195, 8181, 8146,8.72834300994873
61, 8180, 8180, 8192, 8206, 8185, 8192, 8206, 8175, 8179, 8203, 8175, 8188, 8185, 8144,8.72834300994873
62, 8201, 8186, 8191, 8214, 8185, 8202, 8221, 8174, 8195, 8217, 8197, 8202, 8207, 8155,8.74404501914978
63, 8204, 8186, 8218, 8211, 8184, 8211, 8224, 8184, 8185, 8205, 8194, 8217, 8208, 8160,8.74404501914978
64, 8183, 8179, 8170, 8216, 8190, 8198, 8220, 8175, 8180, 8200, 8188, 8194, 8199, 8141,8.759572505950928
65, 8189, 8187, 8206, 8215, 8194, 8185, 8206, 8173, 8182, 8199, 8187, 8204, 8202, 8143,8.759572505950928
66, 8205, 8187, 8197, 8216, 8192, 8184, 8213, 8177, 8197, 8210, 8186, 8217, 8225, 8161,8.77558445930481
67, 8195, 8169, 8174, 8202, 8194, 8179, 8219, 8173, 8199, 8202, 8168, 8204, 8223, 8154,8.77558445930481
68, 8177, 8170, 8206, 8202, 8204, 8190, 8217, 8178, 8190, 8194, 8156, 8199, 8198, 8142,8.79162335395813
69, 8181, 8173, 8178, 8226, 8207, 8190, 8221, 8174, 8199, 8203, 8168, 8193, 8206, 8147,8.79162335395813
70, 8202, 8178, 8210, 8218, 8197, 8168, 8199, 8177, 8188, 8180, 8167, 8210, 8217, 8152,8.807146549224854
71, 8210, 8190, 8208, 8222, 8200, 8164, 8188, 8178, 8179, 8166, 8173, 8218, 8215, 8146,8.807146549224854
72, 8213, 8199, 8199, 8252, 8211, 8167, 8187, 8161, 8172, 8171, 8195, 8221, 8212, 8145,8.822700262069702
73, 8216, 8203, 8223, 8252, 8215, 8165, 8177, 8169, 8161, 8166, 8198, 8233, 8208, 8150,8.822700262069702
74, 8209, 8203, 8173, 8249, 8200, 8157, 8175, 8173, 8160, 8164, 8195, 8217, 8204, 8140,8.837755680084229
75, 8209, 8214, 8211, 8265, 8201, 8171, 8178, 8169, 8145, 8155, 8194, 8215, 8187, 8142,8.837755680084229
76, 8202, 8211, 8215, 8285, 8230, 8199, 8206, 8170, 8155, 8176, 8190, 8204, 8174, 8145,8.853837728500366
77, 8190, 8196, 8170, 8281, 8194, 8193, 8216, 8169, 8176, 8202, 8182, 8181, 8180, 8139,8.853837728500366
78, 8206, 8201, 8207, 8263, 8159, 8179, 8199, 8182, 8184, 8176, 8193, 8212, 8207, 8161,8.86899209022522
79, 8231, 8201, 8192, 8259, 8227, 8180, 8201, 8180, 8211, 8172, 8232, 8243, 8230, 8181,8.86899209022522
80, 8241, 8206, 8217, 8253, 8265, 8178, 8199, 8176, 8217, 8214, 8250, 8260, 8264, 8178,8.88458514213562
81, 8228, 8228, 8223, 8263, 8224, 8170, 8189, 8181, 8200, 8235, 8249, 8259, 8371, 8171,8.88458514213562
82, 8216, 8230, 8196, 8270, 8214, 8164, 8181, 8172, 8181, 8204, 8246, 8243, 8456, 8164,8.89975118637085
83, 8215, 8223, 8229, 8269, 8229, 8184, 8185, 8172, 8163, 8188, 8233, 8237, 8439, 8166,8.900752305984497
84, 8206, 8210, 8195, 8279, 8215, 8196, 8204, 8172, 8176, 8223, 8225, 8224, 8422, 8176,8.915838956832886
85, 8199, 8193, 8201, 8248, 8204, 8174, 8192, 8172, 8190, 8227, 8223, 8232, 8434, 8183,8.915838956832886
86, 8197, 8195, 8199, 8222, 8206, 8163, 8172, 8174, 8187, 8209, 8223, 8237, 8426, 8174,8.931214570999146
87, 8198, 8196, 8166, 8227, 8200, 8151, 8169, 8168, 8177, 8192, 8219, 8223, 8399, 8155,8.94696855545044
88, 8206, 8196, 8211, 8219, 8191, 8143, 8166, 8177, 8170, 8169, 8217, 8239, 8378, 8153,8.94696855545044
89, 8208, 8207, 8185, 8225, 8203, 8156, 8176, 8182, 8189, 8184, 8234, 8244, 8378, 8158,8.94696855545044
90, 8207, 8219, 8197, 8239, 8220, 8165, 8182, 8180, 8187, 8192, 8234, 8237, 8371, 8162,8.96262001991272
91, 8205, 8222, 8219, 8258, 8218, 8174, 8188, 8181, 8168, 8180, 8211, 8222, 8351, 8159,8.96262001991272
92, 8195, 8204, 8173, 8258, 8207, 8184, 8198, 8169, 8170, 8188, 8193, 8196, 8339, 8155,8.978813886642456
