COUNTER,F3,FC5,AF3,F7,T7,P7,O1,O2,P8,T8,F8,AF4,FC6,F4,Timestamp
57, 8123, 8128, 8193, 8126, 8138, 8175, 8181, 8175, 8140, 8156, 8110, 8135, 8121, 8123,0.037069082260131836
58, 8120, 8127, 8130, 8131, 8135, 8169, 8196, 8174, 8162, 8168, 8114, 8142, 8129, 8123,0.037069082260131836
59, 8133, 8133, 8146, 8133, 8142, 8157, 8195, 8165, 8170, 8173, 8112, 8145, 8129, 8125,0.05198311805725098
60, 8133, 8146, 8186, 8123, 8143, 8171, 8188, 8170, 8163, 8161, 8109, 8143, 8126, 8129,0.05198311805725098
61, 8116, 8131, 8104, 8123, 8146, 8160, 8180, 8167, 8174, 8162, 8117, 8120, 8138, 8113,0.06804800033569336
62, 8118, 8141, 8186, 8115, 8148, 8148, 8168, 8176, 8178, 8171, 8125, 8139, 8140, 8106,0.0839242935180664
63, 8122, 8149, 8139, 8129, 8149, 8148, 8174, 8170, 8191, 8195, 8141, 8146, 8146, 8115,0.0839242935180664
64, 8130, 8145, 8145, 8132, 8136, 8147, 8154, 8159, 8177, 8174, 8142, 8139, 8148, 8116,0.0839242935180664
65, 8136, 8151, 8193, 8123, 8135, 8156, 8137, 8170, 8155, 8142, 8143, 8161, 8144, 8111,0.09998083114624023
66, 8129, 8144, 8106, 8128, 8141, 8142, 8145, 8168, 8158, 8153, 8159, 8159, 8144, 8108,0.09998083114624023
67, 8132, 8154, 8193, 8114, 8132, 8142, 8135, 8173, 8143, 8148, 8145, 8154, 8137, 8110,0.11514830589294434
68, 8130, 8153, 8158, 8114, 8141, 8158, 8150, 8170, 8157, 8154, 8127, 8146, 8137, 8106,0.11514830589294434
69, 8114, 8131, 8130, 8104, 8142, 8153, 8157, 8163, 8175, 8165, 8133, 8140, 8138, 8104,0.13088583946228027
70, 8112, 8131, 8186, 8096, 8129, 8155, 8145, 8170, 8161, 8165, 8144, 8151, 8139, 8108,0.13088583946228027
71, 8132, 8137, 8119, 8123, 8134, 8153, 8160, 8164, 8171, 8183, 8153, 8151, 8155, 8118,0.14690923690795898
72, 8161, 8158, 8208, 8122, 8134, 8155, 8165, 8176, 8187, 8191, 8173, 8185, 8168, 8139,0.14690923690795898
73, 8167, 8165, 8181, 8124, 8136, 8149, 8159, 8173, 8194, 8200, 8200, 8207, 8176, 8145,0.16299748420715332
74, 8163, 8155, 8145, 8133, 8146, 8136, 8144, 8156, 8170, 8189, 8192, 8194, 8167, 8128,0.16299748420715332
75, 8162, 8167, 8213, 8134, 8155, 8157, 8138, 8164, 8144, 8171, 8174, 8188, 8149, 8119,0.1780400276184082
76, 8149, 8159, 8125, 8140, 8151, 8165, 8154, 8162, 8148, 8184, 8177, 8167, 8148, 8121,0.1780400276184082
77, 8143, 8152, 8183, 8128, 8141, 8170, 8155, 8168, 8143, 8182, 8163, 8163, 8149, 8129,0.19318866729736328
78, 8143, 8149, 8166, 8137, 8153, 8186, 8170, 8172, 8156, 8189, 8156, 8161, 8161, 8143,0.19318866729736328
79, 8146, 8140, 8129, 8146, 8166, 8179, 8185, 8169, 8175, 8204, 8163, 8155, 8166, 8150,0.20837974548339844
80, 8152, 8153, 8208, 8136, 8155, 8174, 8184, 8179, 8180, 8207, 8166, 8176, 8168, 8151,0.20837974548339844
81, 8149, 8140, 8118, 8134, 8145, 8159, 8179, 8165, 8190, 8208, 8169, 8173, 8180, 8146,0.22391510009765625
82, 8159, 8139, 8170, 8115, 8144, 8154, 8156, 8166, 8172, 8184, 8169, 8180, 8172, 8142,0.22391510009765625
83, 8163, 8158, 8175, 8121, 8155, 8172, 8173, 8179, 8166, 8179, 8186, 8194, 8174, 8147,0.23909640312194824
84, 8156, 8153, 8120, 8132, 8160, 8168, 8192, 8169, 8161, 8177, 8187, 8177, 8178, 8135,0.23909640312194824
85, 8145, 8156, 8198, 8122, 8156, 8165, 8173, 8170, 8137, 8153, 8169, 8175, 8164, 8119,0.25596094131469727
86, 8134, 8152, 8125, 8133, 8165, 8164, 8181, 8168, 8153, 8162, 8179, 8171, 8171, 8128,0.25596094131469727
87, 8147, 8154, 8171, 8132, 8162, 8168, 8182, 8175, 8154, 8169, 8175, 8166, 8174, 8147,0.27118873596191406
88, 8142, 8156, 8178, 8134, 8155, 8176, 8170, 8178, 8144, 8172, 8156, 8161, 8166, 8138,0.27118873596191406
89, 8120, 8141, 8112, 8139, 8156, 8168, 8169, 8162, 8158, 8188, 8148, 8147, 8164, 8124,0.28557705879211426
90, 8120, 8146, 8197, 8123, 8155, 8180, 8170, 8170, 8172, 8194, 8148, 8153, 8161, 8136,0.3036653995513916
91, 8122, 8140, 8124, 8129, 8162, 8184, 8182, 8168, 8190, 8210, 8162, 8147, 8165, 8143,0.3036653995513916
92, 8136, 8145, 8160, 8136, 8161, 8178, 8176, 8168, 8191, 8205, 8166, 8158, 8171, 8153,0.3036653995513916
93, 8159, 8165, 8195, 8147, 8159, 8180, 8168, 8172, 8195, 8206, 8172, 8182, 8184, 8169,0.318234920501709
94, 8161, 8153, 8122, 8148, 8158, 8163, 8162, 8164, 8196, 8211, 8176, 8165, 8178, 8157,0.318234920501709
95, 8152, 8147, 8198, 8111, 8151, 8162, 8151, 8176, 8178, 8178, 8155, 8161, 8152, 8140,0.33138179779052734
96, 8142, 8138, 8132, 8106, 8154, 8158, 8166, 8170, 8192, 8178, 8153, 8159, 8158, 8141,0.34694766998291016
97, 8146, 8134, 8152, 8116, 8146, 8146, 8158, 8160, 8187, 8182, 8161, 8169, 8168, 8142,0.34694766998291016
98, 8154, 8149, 8191, 8118, 8141, 8154, 8142, 8163, 8160, 8162, 8159, 8187, 8158, 8140,0.3639965057373047
99, 8163, 8156, 8123, 8125, 8154, 8144, 8151, 8159, 8165, 8172, 8158, 8177, 8157, 8153,0.3639965057373047
100, 8175, 8168, 8221, 8131, 8156, 8146, 8150, 8170, 8161, 8183, 8169, 8194, 8165, 8170,0.378173828125
101, 8165, 8153, 8164, 8143, 8159, 8158, 8154, 8167, 8157, 8174, 8178, 8195, 8168, 8161,0.378173828125
102, 8154, 8144, 8153, 8117, 8163, 8158, 8148, 8163, 8152, 8153, 8158, 8172, 8149, 8138,0.3933687210083008
103, 8154, 8160, 8200, 8110, 8169, 8166, 8157, 8174, 8168, 8177, 8160, 8180, 8154, 8143,0.3933687210083008
104, 8162, 8157, 8129, 8144, 8171, 8161, 8179, 8167, 8191, 8209, 8190, 8191, 8180, 8159,0.40919041633605957
105, 8179, 8168, 8214, 8133, 8169, 8169, 8169, 8176, 8169, 8176, 8188, 8203, 8171, 8166,0.40919041633605957
106, 8181, 8172, 8170, 8128, 8175, 8170, 8174, 8178, 8165, 8176, 8180, 8190, 8170, 8165,0.42492222785949707
107, 8176, 8161, 8152, 8131, 8169, 8154, 8170, 8167, 8163, 8181, 8169, 8181, 8171, 8154,0.42492222785949707
108, 8168, 8167, 8207, 8121, 8160, 8168, 8153, 8172, 8147, 8157, 8157, 8194, 8155, 8147,0.44106268882751465
109, 8161, 8160, 8128, 8131, 8168, 8167, 8152, 8170, 8151, 8167, 8170, 8184, 8155, 8149,0.44106268882751465
110, 8168, 8164, 8207, 8135, 8163, 8156, 8142, 8175, 8142, 8173, 8168, 8190, 8159, 8147,0.45652198791503906
111, 8162, 8164, 8173, 8142, 8159, 8157, 8150, 8168, 8144, 8167, 8152, 8186, 8157, 8141,0.45652198791503906
112, 8165, 8162, 8151, 8155, 8165, 8158, 8155, 8161, 8142, 8165, 8159, 8180, 8153, 8143,0.472487211227417
113, 8189, 8188, 8228, 8180, 8181, 8177, 8157, 8173, 8142, 8185, 8186, 8203, 8169, 8157,0.472487211227417
114, 8188, 8179, 8143, 8206, 8200, 8180, 8178, 8166, 8169, 8224, 8200, 8196, 8195, 8171,0.4882204532623291
115, 8174, 8161, 8205, 8191, 8191, 8180, 8172, 8172, 8168, 8217, 8188, 8196, 8194, 8176,0.4882204532623291
116, 8175, 8166, 8192, 8196, 8184, 8180, 8166, 8176, 8165, 8206, 8197, 8206, 8194, 8177,0.5032272338867188
117, 8185, 8174, 8158, 8206, 8186, 8171, 8167, 8168, 8167, 8200, 8200, 8195, 8192, 8174,0.5032272338867188
118, 8179, 8179, 8227, 8196, 8183, 8182, 8166, 8175, 8156, 8183, 8173, 8192, 8175, 8169,0.5193297863006592
119, 8171, 8163, 8138, 8211, 8186, 8177, 8173, 8169, 8170, 8198, 8172, 8180, 8180, 8164,0.5193297863006592
120, 8183, 8172, 8199, 8206, 8185, 8176, 8162, 8175, 8173, 8206, 8174, 8185, 8184, 8166,0.5353882312774658
121, 8176, 8179, 8196, 8196, 8187, 8192, 8168, 8177, 8177, 8213, 8174, 8189, 8183, 8163,0.5353882312774658
122, 8162, 8163, 8143, 8198, 8189, 8187, 8181, 8161, 8180, 8217, 8177, 8176, 8180, 8157,0.5513045787811279
123, 8171, 8175, 8222, 8198, 8188, 8183, 8178, 8171, 8177, 8206, 8173, 8189, 8169, 8168,0.5513045787811279
124, 8170, 8168, 8140, 8206, 8191, 8178, 8192, 8173, 8202, 8222, 8172, 8182, 8179, 8169,0.5670068264007568
125, 8170, 8161, 8185, 8187, 8182, 8186, 8196, 8178, 8210, 8233, 8169, 8184, 8193, 8166,0.5670068264007568
126, 8183, 8168, 8198, 8185, 8181, 8200, 8199, 8182, 8221, 8245, 8181, 8198, 8202, 8184,0.5823209285736084
127, 8188, 8161, 8142, 8194, 8188, 8184, 8201, 8168, 8236, 8256, 8192, 8191, 8211, 8187,0.5823209285736084
236, 8183, 8170, 8224, 8175, 8185, 8185, 8188, 8171, 8224, 8242, 8184, 8198, 8209, 8176,0.5979313850402832
0, 8174, 8166, 8138, 8171, 8179, 8181, 8185, 8165, 8210, 8240, 8178, 8186, 8206, 8176,0.5979313850402832
1, 8179, 8160, 8170, 8157, 8164, 8169, 8172, 8165, 8187, 8229, 8180, 8185, 8206, 8179,0.6130845546722412
2, 8177, 8163, 8202, 8147, 8166, 8178, 8174, 8171, 8195, 8235, 8198, 8201, 8220, 8175,0.6130845546722412
3, 8170, 8154, 8129, 8150, 8177, 8171, 8177, 8164, 8219, 8242, 8198, 8187, 8211, 8170,0.6281166076660156
4, 8174, 8158, 8204, 8137, 8162, 8164, 8154, 8174, 8205, 8218, 8178, 8188, 8183, 8169,0.6281166076660156
5, 8166, 8157, 8141, 8135, 8162, 8159, 8161, 8170, 8200, 8223, 8190, 8195, 8196, 8163,0.6433265209197998
6, 8170, 8168, 8169, 8133, 8173, 8157, 8165, 8171, 8187, 8214, 8197, 8200, 8199, 8155,0.6433265209197998
7, 8174, 8179, 8205, 8150, 8176, 8162, 8158, 8176, 8161, 8189, 8183, 8193, 8174, 8153,0.6593766212463379
8, 8163, 8164, 8126, 8162, 8171, 8156, 8163, 8158, 8152, 8190, 8178, 8164, 8167, 8145,0.6593766212463379
9, 8160, 8169, 8208, 8132, 8160, 8170, 8158, 8166, 8139, 8187, 8173, 8172, 8171, 8141,0.6749653816223145
10, 8160, 8162, 8151, 8138, 8167, 8179, 8163, 8174, 8145, 8196, 8174, 8182, 8178, 8148,0.6749653816223145
11, 8159, 8151, 8156, 8149, 8172, 8172, 8162, 8169, 8149, 8189, 8162, 8171, 8169, 8148,0.6900508403778076
12, 8154, 8163, 8203, 8145, 8173, 8182, 8171, 8174, 8148, 8184, 8152, 8161, 8162, 8146,0.6900508403778076
13, 8149, 8157, 8129, 8156, 8179, 8179, 8187, 8166, 8143, 8201, 8166, 8154, 8172, 8148,0.7061638832092285
14, 8157, 8156, 8210, 8142, 8172, 8183, 8170, 8162, 8114, 8182, 8156, 8170, 8161, 8146,0.7061638832092285
15, 8157, 8155, 8155, 8143, 8180, 8193, 8176, 8162, 8131, 8182, 8143, 8162, 8160, 8146,0.721930980682373
16, 8153, 8152, 8144, 8154, 8185, 8185, 8187, 8174, 8160, 8200, 8142, 8153, 8168, 8153,0.721930980682373
17, 8150, 8162, 8201, 8160, 8173, 8188, 8181, 8184, 8165, 8202, 8142, 8168, 8166, 8155,0.7375266551971436
18, 8152, 8153, 8116, 8169, 8168, 8184, 8185, 8170, 8170, 8201, 8142, 8158, 8163, 8153,0.7375266551971436
19, 8164, 8158, 8198, 8164, 8171, 8184, 8183, 8174, 8151, 8188, 8139, 8167, 8159, 8161,0.7531692981719971
20, 8154, 8160, 8161, 8179, 8178, 8181, 8192, 8169, 8152, 8198, 8148, 8173, 8166, 8159,0.7531692981719971
21, 8146, 8146, 8134, 8167, 8178, 8168, 8186, 8159, 8156, 8196, 8149, 8163, 8161, 8152,0.7687475681304932
22, 8157, 8154, 8205, 8140, 8171, 8183, 8180, 8169, 8144, 8178, 8147, 8175, 8155, 8161,0.7687475681304932
23, 8159, 8154, 8120, 8156, 8174, 8188, 8195, 8160, 8155, 8191, 8149, 8166, 8166, 8163,0.7842435836791992
24, 8157, 8159, 8183, 8157, 8173, 8184, 8183, 8164, 8153, 8190, 8129, 8163, 8155, 8150,0.8003051280975342
25, 8157, 8152, 8161, 8152, 8176, 8180, 8181, 8170, 8151, 8190, 8133, 8168, 8152, 8149,0.8003051280975342
26, 8171, 8144, 8136, 8151, 8179, 8172, 8191, 8173, 8162, 8200, 8156, 8175, 8169, 8172,0.8003051280975342
27, 8181, 8170, 8216, 8147, 8175, 8181, 8188, 8187, 8173, 8206, 8162, 8194, 8178, 8191,0.815892219543457
28, 8178, 8167, 8132, 8158, 8184, 8168, 8192, 8169, 8187, 8215, 8161, 8183, 8177, 8180,0.815892219543457
29, 8187, 8165, 8187, 8152, 8190, 8167, 8180, 8162, 8165, 8186, 8160, 8190, 8170, 8168,0.8320107460021973
30, 8176, 8170, 8174, 8148, 8191, 8182, 8180, 8171, 8147, 8168, 8160, 8195, 8171, 8166,0.8320107460021973
31, 8160, 8159, 8125, 8138, 8184, 8164, 8184, 8164, 8142, 8169, 8153, 8174, 8166, 8155,0.8480415344238281
32, 8177, 8172, 8210, 8135, 8181, 8159, 8182, 8169, 8137, 8165, 8151, 8186, 8163, 8157,0.8480415344238281
33, 8182, 8166, 8135, 8157, 8188, 8163, 8196, 8163, 8154, 8182, 8156, 8182, 8171, 8163,0.8632392883300781
34, 8173, 8164, 8180, 8148, 8180, 8170, 8189, 8166, 8151, 8174, 8147, 8180, 8156, 8156,0.8632392883300781
35, 8169, 8175, 8183, 8148, 8183, 8179, 8191, 8175, 8154, 8164, 8158, 8201, 8151, 8155,0.8793108463287354
36, 8167, 8160, 8127, 8146, 8188, 8160, 8187, 8170, 8162, 8169, 8164, 8194, 8162, 8152,0.8793108463287354
37, 8172, 8161, 8209, 8132, 8182, 8164, 8165, 8172, 8149, 8161, 8152, 8194, 8160, 8149,0.8950271606445312
38, 8181, 8165, 8139, 8160, 8194, 8176, 8174, 8162, 8157, 8170, 8173, 8200, 8167, 8159,0.8950271606445312
39, 8183, 8168, 8182, 8161, 8196, 8174, 8171, 8165, 8150, 8163, 8185, 8209, 8167, 8165,0.9110832214355469
40, 8166, 8167, 8196, 8143, 8184, 8171, 8167, 8175, 8146, 8160, 8179, 8207, 8165, 8154,0.9110832214355469
41, 8168, 8163, 8127, 8157, 8184, 8158, 8176, 8164, 8162, 8173, 8190, 8202, 8171, 8149,0.9272329807281494
42, 8191, 8184, 8220, 8167, 8191, 8167, 8173, 8172, 8159, 8167, 8187, 8225, 8166, 8166,0.9272329807281494
43, 8182, 8180, 8158, 8171, 8200, 8170, 8175, 8171, 8161, 8174, 8178, 8219, 8168, 8172,0.9433867931365967
44, 8184, 8176, 8180, 8172, 8200, 8166, 8166, 8168, 8144, 8172, 8178, 8218, 8172, 8167,0.9433867931365967
45, 8195, 8190, 8211, 8185, 8198, 8172, 8167, 8176, 8136, 8168, 8176, 8229, 8170, 8169,0.9579577445983887
46, 8180, 8175, 8141, 8191, 8197, 8164, 8167, 8161, 8145, 8171, 8172, 8208, 8165, 8169,0.9579577445983887
47, 8173, 8177, 8226, 8177, 8193, 8174, 8151, 8166, 8131, 8161, 8173, 8219, 8158, 8168,0.9731073379516602
48, 8169, 8176, 8160, 8188, 8197, 8179, 8165, 8169, 8125, 8170, 8178, 8218, 8160, 8159,0.9731073379516602
49, 8166, 8160, 8165, 8187, 8189, 8172, 8170, 8166, 8122, 8168, 8167, 8200, 8151, 8154,0.9891431331634521
50, 8173, 8164, 8218, 8189, 8194, 8191, 8170, 8173, 8140, 8182, 8174, 8215, 8157, 8174,1.0062038898468018
51, 8178, 8162, 8142, 8203, 8210, 8190, 8185, 8167, 8165, 8210, 8183, 8215, 8172, 8181,1.0062038898468018
52, 8177, 8164, 8211, 8185, 8199, 8182, 8176, 8173, 8148, 8193, 8161, 8207, 8151, 8169,1.0062038898468018
53, 8170, 8158, 8154, 8187, 8192, 8185, 8176, 8165, 8155, 8196, 8161, 8196, 8149, 8169,1.0202856063842773
54, 8177, 8150, 8156, 8186, 8193, 8184, 8182, 8162, 8170, 8206, 8169, 8199, 8167, 8180,1.0348825454711914
55, 8183, 8158, 8214, 8167, 8193, 8186, 8189, 8176, 8168, 8198, 8171, 8220, 8171, 8188,1.0348825454711914
56, 8183, 8160, 8127, 8169, 8196, 8175, 8199, 8166, 8189, 8209, 8187, 8214, 8175, 8187,1.051269769668579
57, 8192, 8172, 8205, 8163, 8194, 8180, 8192, 8168, 8197, 8203, 8183, 8218, 8181, 8181,1.051269769668579
58, 8185, 8169, 8168, 8172, 8195, 8186, 8199, 8171, 8195, 8196, 8181, 8220, 8193, 8177,1.051269769668579
59, 8184, 8170, 8154, 8176, 8192, 8169, 8192, 8170, 8179, 8191, 8192, 8228, 8190, 8176,1.0664324760437012
60, 8198, 8190, 8224, 8166, 8193, 8174, 8181, 8174, 8170, 8189, 8198, 8247, 8183, 8173,1.0842297077178955
61, 8194, 8171, 8135, 8167, 8200, 8171, 8199, 8165, 8188, 8199, 8197, 8226, 8190, 8163,1.0842297077178955
62, 8185, 8166, 8200, 8157, 8191, 8171, 8193, 8179, 8170, 8181, 8188, 8218, 8177, 8163,1.0842297077178955
63, 8182, 8179, 8181, 8178, 8190, 8187, 8196, 8180, 8162, 8189, 8199, 8219, 8173, 8175,1.0982792377471924
64, 8188, 8178, 8156, 8199, 8199, 8188, 8202, 8163, 8174, 8208, 8201, 8212, 8184, 8180,1.0992779731750488
65, 8188, 8179, 8224, 8191, 8201, 8192, 8191, 8173, 8168, 8199, 8180, 8215, 8181, 8172,1.1124510765075684
66, 8176, 8158, 8129, 8190, 8206, 8183, 8195, 8170, 8173, 8205, 8175, 8193, 8173, 8169,1.1292355060577393
67, 8180, 8156, 8193, 8183, 8195, 8179, 8192, 8167, 8178, 8214, 8179, 8196, 8173, 8187,1.1292355060577393
68, 8188, 8163, 8187, 8190, 8182, 8178, 8188, 8168, 8196, 8227, 8187, 8213, 8186, 8196,1.1456990242004395
69, 8187, 8146, 8133, 8176, 8168, 8156, 8166, 8165, 8199, 8211, 8178, 8197, 8181, 8178,1.1456990242004395
70, 8177, 8153, 8207, 8143, 8160, 8162, 8145, 8169, 8180, 8185, 8169, 8201, 8168, 8169,1.1614253520965576
71, 8162, 8153, 8130, 8155, 8170, 8161, 8156, 8155, 8180, 8192, 8176, 8205, 8173, 8171,1.1614253520965576
72, 8175, 8154, 8179, 8160, 8166, 8148, 8148, 8159, 8161, 8177, 8165, 8213, 8159, 8170,1.1614253520965576
73, 8190, 8164, 8185, 8162, 8161, 8150, 8143, 8165, 8160, 8174, 8169, 8219, 8156, 8163,1.1762237548828125
74, 8187, 8164, 8140, 8158, 8167, 8150, 8146, 8157, 8167, 8184, 8184, 8211, 8172, 8158,1.1762237548828125
75, 8193, 8180, 8231, 8147, 8177, 8167, 8148, 8172, 8154, 8174, 8190, 8228, 8174, 8170,1.1903293132781982
76, 8192, 8175, 8151, 8167, 8184, 8163, 8159, 8162, 8154, 8178, 8203, 8225, 8171, 8168,1.206310510635376
77, 8175, 8165, 8176, 8161, 8172, 8147, 8136, 8154, 8125, 8158, 8182, 8212, 8149, 8145,1.206310510635376
78, 8158, 8165, 8190, 8150, 8168, 8156, 8129, 8170, 8112, 8141, 8159, 8205, 8135, 8140,1.2217323780059814
79, 8163, 8160, 8133, 8163, 8179, 8160, 8152, 8169, 8143, 8157, 8169, 8195, 8144, 8144,1.2217323780059814
80, 8175, 8177, 8219, 8167, 8182, 8170, 8150, 8170, 8146, 8159, 8170, 8209, 8141, 8143,1.2373924255371094
81, 8169, 8176, 8148, 8182, 8188, 8172, 8155, 8164, 8143, 8166, 8164, 8198, 8139, 8145,1.2373924255371094
82, 8172, 8175, 8174, 8182, 8188, 8173, 8166, 8168, 8141, 8162, 8155, 8190, 8138, 8150,1.252922534942627
83, 8168, 8179, 8198, 8178, 8187, 8189, 8177, 8170, 8150, 8154, 8151, 8197, 8136, 8150,1.252922534942627
84, 8153, 8156, 8119, 8179, 8188, 8181, 8175, 8150, 8148, 8152, 8152, 8174, 8128, 8140,1.2682924270629883
85, 8156, 8163, 8209, 8171, 8182, 8178, 8158, 8161, 8122, 8144, 8148, 8174, 8121, 8138,1.2682924270629883
86, 8160, 8175, 8153, 8194, 8192, 8185, 8168, 8171, 8133, 8165, 8151, 8175, 8138, 8146,1.28403902053833
87, 8163, 8169, 8159, 8197, 8197, 8190, 8169, 8166, 8138, 8170, 8147, 8175, 8139, 8153,1.28403902053833
88, 8162, 8168, 8196, 8183, 8190, 8200, 8171, 8163, 8137, 8167, 8150, 8186, 8142, 8154,1.2989792823791504
89, 8157, 8160, 8123, 8185, 8190, 8188, 8181, 8154, 8157, 8189, 8159, 8177, 8161, 8154,1.2989792823791504
90, 8161, 8171, 8206, 8179, 8191, 8186, 8169, 8164, 8151, 8192, 8153, 8188, 8157, 8166,1.3144583702087402
91, 8161, 8170, 8149, 8184, 8192, 8180, 8176, 8157, 8154, 8196, 8163, 8191, 8161, 8173,1.3144583702087402
92, 8170, 8164, 8151, 8173, 8181, 8162, 8172, 8154, 8159, 8193, 8171, 8193, 8172, 8169,1.3299813270568848
93, 8182, 8172, 8214, 8157, 8180, 8167, 8154, 8174, 8156, 8186, 8175, 8212, 8175, 8166,1.3303747177124023
94, 8172, 8159, 8130, 8148, 8190, 8153, 8156, 8164, 8166, 8192, 8188, 8206, 8177, 8160,1.3460042476654053
95, 8167, 8161, 8198, 8109, 8182, 8142, 8146, 8165, 8159, 8173, 8183, 8212, 8173, 8160,1.3460042476654053
96, 8162, 8168, 8156, 8111, 8178, 8146, 8144, 8168, 8158, 8166, 8182, 8210, 8167, 8155,1.361900806427002
97, 8163, 8175, 8147, 8136, 8182, 8147, 8143, 8161, 8154, 8166, 8192, 8206, 8164, 8147,1.361900806427002
98, 8168, 8192, 8218, 8148, 8189, 8168, 8147, 8167, 8146, 8164, 8189, 8218, 8164, 8149,1.3772644996643066
99, 8158, 8177, 8130, 8167, 8203, 8169, 8165, 8157, 8144, 8167, 8169, 8187, 8152, 8144,1.3772644996643066
100, 8150, 8180, 8192, 8166, 8207, 8172, 8169, 8161, 8127, 8151, 8155, 8173, 8128, 8134,1.3927295207977295
101, 8147, 8186, 8162, 8173, 8207, 8181, 8189, 8166, 8139, 8170, 8165, 8185, 8139, 8140,1.3927295207977295
102, 8146, 8169, 8136, 8166, 8200, 8177, 8193, 8159, 8152, 8189, 8161, 8179, 8157, 8144,1.4092507362365723
103, 8146, 8164, 8205, 8141, 8193, 8186, 8178, 8167, 8147, 8175, 8148, 8171, 8152, 8139,1.4092507362365723
104, 8149, 8155, 8119, 8137, 8197, 8179, 8189, 8160, 8160, 8177, 8154, 8165, 8152, 8142,1.4251489639282227
105, 8162, 8168, 8183, 8122, 8188, 8169, 8178, 8162, 8154, 8168, 8149, 8184, 8153, 8153,1.4251489639282227
106, 8160, 8174, 8166, 8117, 8177, 8167, 8163, 8165, 8156, 8163, 8150, 8185, 8160, 8155,1.4400482177734375
107, 8164, 8167, 8133, 8127, 8184, 8159, 8166, 8163, 8163, 8163, 8161, 8179, 8160, 8149,1.4400482177734375
108, 8182, 8192, 8225, 8133, 8202, 8174, 8174, 8173, 8149, 8154, 8166, 8210, 8153, 8148,1.4551465511322021
109, 8170, 8192, 8134, 8139, 8209, 8171, 8183, 8164, 8142, 8155, 8168, 8197, 8153, 8140,1.4551465511322021
110, 8149, 8180, 8179, 8123, 8187, 8160, 8163, 8167, 8117, 8135, 8151, 8174, 8134, 8131,1.470198631286621
111, 8142, 8184, 8188, 8140, 8189, 8177, 8175, 8172, 8119, 8134, 8145, 8179, 8128, 8140,1.470198631286621
112, 8151, 8181, 8142, 8168, 8210, 8190, 8207, 8166, 8145, 8153, 8150, 8181, 8143, 8150,1.485811471939087
113, 8161, 8185, 8222, 8158, 8209, 8201, 8210, 8181, 8153, 8162, 8147, 8192, 8150, 8160,1.485811471939087
114, 8153, 8168, 8139, 8150, 8202, 8194, 8214, 8174, 8179, 8195, 8158, 8185, 8164, 8170,1.5009722709655762
115, 8157, 8164, 8174, 8136, 8189, 8183, 8203, 8171, 8186, 8199, 8160, 8183, 8170, 8171,1.5009722709655762
116, 8157, 8171, 8183, 8129, 8189, 8185, 8200, 8175, 8183, 8189, 8152, 8183, 8170, 8156,1.5169939994812012
117, 8158, 8159, 8119, 8121, 8197, 8173, 8194, 8162, 8181, 8185, 8152, 8171, 8179, 8150,1.5169939994812012
118, 8173, 8170, 8217, 8112, 8189, 8172, 8171, 8168, 8166, 8168, 8159, 8197, 8188, 8165,1.5321826934814453
119, 8175, 8183, 8161, 8143, 8193, 8163, 8175, 8167, 8170, 8172, 8175, 8202, 8192, 8160,1.5482122898101807
120, 8186, 8199, 8191, 8159, 8207, 8162, 8176, 8170, 8162, 8169, 8183, 8205, 8186, 8157,1.5482122898101807
121, 8203, 8211, 8218, 8168, 8214, 8179, 8176, 8178, 8164, 8173, 8195, 8223, 8195, 8179,1.5633325576782227
122, 8195, 8196, 8149, 8182, 8210, 8175, 8185, 8169, 8185, 8185, 8202, 8207, 8206, 8179,1.5633325576782227
123, 8185, 8196, 8225, 8165, 8209, 8179, 8187, 8178, 8173, 8174, 8186, 8207, 8194, 8168,1.5633325576782227
124, 8181, 8186, 8154, 8159, 8216, 8177, 8196, 8178, 8170, 8181, 8187, 8201, 8192, 8170,1.5798563957214355
125, 8176, 8181, 8171, 8157, 8202, 8174, 8186, 8170, 8167, 8179, 8177, 8181, 8179, 8169,1.5956506729125977
126, 8165, 8185, 8199, 8160, 8192, 8199, 8186, 8168, 8165, 8173, 8159, 8178, 8166, 8159,1.5956506729125977
127, 8157, 8159, 8116, 8162, 8198, 8198, 8202, 8162, 8178, 8185, 8163, 8174, 8169, 8156,1.6103596687316895
236, 8160, 8159, 8206, 8135, 8187, 8189, 8197, 8176, 8172, 8179, 8148, 8185, 8158, 8164,1.6103596687316895
0, 8171, 8172, 8155, 8148, 8186, 8188, 8207, 8174, 8191, 8200, 8151, 8187, 8174, 8176,1.6107308864593506
1, 8192, 8174, 8159, 8167, 8196, 8185, 8202, 8166, 8209, 8217, 8184, 8204, 8199, 8192,1.626344919204712
2, 8191, 8177, 8213, 8156, 8192, 8185, 8184, 8174, 8202, 8203, 8202, 8227, 8198, 8197,1.626344919204712
3, 8180, 8163, 8131, 8145, 8183, 8164, 8178, 8169, 8199, 8200, 8205, 8222, 8203, 8186,1.6419086456298828
4, 8197, 8176, 8211, 8133, 8177, 8160, 8161, 8174, 8190, 8192, 8211, 8233, 8208, 8178,1.6583492755889893
5, 8201, 8190, 8175, 8152, 8187, 8165, 8166, 8164, 8194, 8189, 8219, 8227, 8208, 8172,1.6583492755889893
6, 8196, 8183, 8167, 8159, 8184, 8154, 8167, 8157, 8178, 8179, 8210, 8220, 8207, 8164,1.6583492755889893
7, 8207, 8193, 8228, 8157, 8178, 8167, 8160, 8176, 8170, 8187, 8223, 8246, 8220, 8177,1.6741993427276611
8, 8199, 8185, 8141, 8172, 8189, 8168, 8167, 8173, 8189, 8213, 8236, 8228, 8216, 8184,1.6741993427276611
9, 8176, 8178, 8207, 8162, 8186, 8168, 8165, 8173, 8170, 8193, 8204, 8198, 8184, 8167,1.6893277168273926
10, 8167, 8172, 8178, 8170, 8193, 8185, 8189, 8170, 8163, 8189, 8191, 8190, 8187, 8164,1.6893277168273926
11, 8184, 8170, 8153, 8186, 8202, 8191, 8199, 8162, 8165, 8195, 8195, 8187, 8196, 8172,1.7062652111053467
12, 8190, 8180, 8217, 8177, 8189, 8195, 8181, 8171, 8158, 8184, 8183, 8194, 8180, 8169,1.7062652111053467
13, 8176, 8160, 8128, 8166, 8181, 8186, 8192, 8165, 8177, 8197, 8180, 8181, 8179, 8164,1.7199537754058838
14, 8179, 8157, 8196, 8150, 8182, 8192, 8197, 8172, 8179, 8197, 8176, 8185, 8186, 8171,1.7199537754058838
15, 8183, 8168, 8179, 8157, 8187, 8195, 8199, 8171, 8183, 8197, 8177, 8193, 8189, 8177,1.7363653182983398
16, 8184, 8162, 8136, 8154, 8181, 8176, 8207, 8164, 8200, 8208, 8183, 8191, 8189, 8177,1.7363653182983398
17, 8184, 8164, 8206, 8136, 8172, 8189, 8213, 8185, 8202, 8214, 8178, 8199, 8186, 8184,1.7501945495605469
18, 8172, 8158, 8114, 8148, 8176, 8191, 8215, 8180, 8210, 8215, 8176, 8179, 8189, 8183,1.7671771049499512
19, 8180, 8165, 8179, 8143, 8178, 8177, 8191, 8171, 8206, 8194, 8174, 8187, 8184, 8177,1.7671771049499512
20, 8193, 8169, 8184, 8144, 8183, 8180, 8185, 8171, 8206, 8194, 8182, 8207, 8184, 8178,1.7671771049499512
21, 8192, 8161, 8126, 8153, 8175, 8173, 8180, 8164, 8199, 8198, 8183, 8196, 8184, 8180,1.7817373275756836
22, 8188, 8171, 8204, 8138, 8159, 8171, 8159, 8168, 8180, 8183, 8176, 8201, 8177, 8174,1.7972824573516846
23, 8195, 8167, 8131, 8145, 8167, 8165, 8168, 8159, 8194, 8195, 8195, 8205, 8194, 8174,1.7972824573516846
24, 8222, 8182, 8185, 8160, 8177, 8163, 8163, 8168, 8196, 8202, 8212, 8224, 8210, 8191,1.8123912811279297
25, 8211, 8191, 8197, 8162, 8173, 8163, 8156, 8181, 8193, 8208, 8220, 8229, 8207, 8184,1.8123912811279297
26, 8183, 8162, 8125, 8151, 8167, 8152, 8156, 8167, 8194, 8206, 8212, 8204, 8195, 8155,1.828467845916748
27, 8195, 8173, 8205, 8145, 8177, 8170, 8147, 8170, 8180, 8186, 8204, 8215, 8181, 8155,1.828467845916748
28, 8201, 8190, 8142, 8173, 8202, 8177, 8160, 8166, 8182, 8201, 8224, 8224, 8182, 8168,1.8444018363952637
29, 8193, 8188, 8178, 8166, 8196, 8163, 8152, 8165, 8169, 8201, 8226, 8227, 8175, 8162,1.8444018363952637
30, 8189, 8184, 8195, 8151, 8181, 8167, 8146, 8170, 8168, 8192, 8219, 8228, 8182, 8159,1.8600819110870361
31, 8183, 8169, 8122, 8152, 8187, 8161, 8155, 8161, 8175, 8192, 8219, 8203, 8184, 8155,1.8600819110870361
32, 8176, 8177, 8211, 8142, 8185, 8166, 8152, 8169, 8153, 8170, 8201, 8202, 8154, 8142,1.875105619430542
33, 8166, 8179, 8146, 8156, 8187, 8165, 8163, 8167, 8164, 8178, 8195, 8198, 8150, 8139,1.875105619430542
34, 8164, 8172, 8158, 8151, 8189, 8160, 8159, 8166, 8172, 8190, 8199, 8193, 8162, 8142,1.8903422355651855
35, 8160, 8169, 8191, 8141, 8187, 8173, 8158, 8175, 8167, 8194, 8201, 8197, 8166, 8139,1.8908476829528809
36, 8156, 8161, 8118, 8154, 8186, 8173, 8172, 8168, 8176, 8202, 8200, 8185, 8166, 8146,1.9062292575836182
37, 8175, 8175, 8207, 8153, 8177, 8179, 8167, 8173, 8164, 8191, 8190, 8197, 8155, 8165,1.9062292575836182
38, 8179, 8169, 8156, 8164, 8179, 8174, 8163, 8167, 8160, 8194, 8190, 8191, 8155, 8164,1.922300100326538
39, 8156, 8153, 8151, 8152, 8175, 8160, 8149, 8163, 8153, 8186, 8176, 8167, 8146, 8144,1.922300100326538
40, 8144, 8162, 8190, 8141, 8166, 8177, 8152, 8176, 8151, 8178, 8167, 8171, 8143, 8139,1.9383747577667236
41, 8160, 8158, 8120, 8160, 8170, 8184, 8179, 8171, 8168, 8192, 8178, 8171, 8155, 8150,1.9383747577667236
42, 8182, 8169, 8213, 8160, 8181, 8193, 8186, 8176, 8167, 8192, 8172, 8183, 8154, 8163,1.9539494514465332
43, 8180, 8180, 8164, 8173, 8195, 8199, 8197, 8172, 8179, 8206, 8173, 8182, 8159, 8164,1.9539494514465332
44, 8179, 8179, 8150, 8179, 8185, 8184, 8187, 8167, 8176, 8203, 8172, 8174, 8161, 8152,1.9694886207580566
45, 8177, 8177, 8206, 8162, 8175, 8182, 8176, 8176, 8165, 8187, 8164, 8184, 8151, 8150,1.9694886207580566
46, 8162, 8158, 8121, 8159, 8186, 8179, 8191, 8169, 8183, 8206, 8165, 8174, 8153, 8151,1.9850130081176758
47, 8172, 8171, 8202, 8164, 8186, 8193, 8190, 8178, 8187, 8218, 8174, 8190, 8162, 8162,1.9850130081176758
48, 8186, 8185, 8182, 8192, 8190, 8203, 8197, 8180, 8200, 8234, 8195, 8209, 8178, 8181,2.007066488265991
49, 8189, 8177, 8162, 8195, 8192, 8184, 8190, 8167, 8204, 8225, 8189, 8203, 8180, 8176,2.007066488265991
50, 8179, 8177, 8215, 8171, 8177, 8182, 8174, 8172, 8193, 8208, 8174, 8200, 8175, 8159,2.007066488265991
51, 8161, 8157, 8118, 8169, 8167, 8177, 8183, 8168, 8195, 8222, 8168, 8177, 8167, 8153,2.0171265602111816
52, 8157, 8158, 8189, 8160, 8167, 8181, 8181, 8171, 8178, 8209, 8150, 8169, 8137, 8148,2.033186674118042
53, 8154, 8162, 8167, 8160, 8169, 8190, 8185, 8169, 8188, 8204, 8155, 8169, 8134, 8142,2.033186674118042
54, 8158, 8149, 8128, 8161, 8163, 8180, 8187, 8167, 8202, 8217, 8173, 8177, 8152, 8152,2.0495381355285645
55, 8179, 8168, 8215, 8172, 8170, 8190, 8189, 8186, 8201, 8220, 8178, 8210, 8161, 8179,2.0495381355285645
56, 8186, 8171, 8136, 8191, 8181, 8189, 8201, 8175, 8222, 8233, 8183, 8207, 8174, 8192,2.0682268142700195
57, 8180, 8160, 8181, 8155, 8162, 8182, 8188, 8172, 8211, 8225, 8172, 8199, 8171, 8185,2.0682268142700195
58, 8176, 8159, 8172, 8147, 8164, 8187, 8192, 8175, 8200, 8225, 8168, 8197, 8173, 8185,2.0682268142700195
59, 8185, 8161, 8133, 8172, 8178, 8181, 8194, 8166, 8211, 8226, 8183, 8192, 8186, 8187,2.0802958011627197
60, 8188, 8165, 8212, 8145, 8159, 8184, 8177, 8174, 8203, 8210, 8181, 8203, 8181, 8181,2.0959911346435547
61, 8172, 8144, 8120, 8120, 8145, 8173, 8180, 8170, 8198, 8219, 8175, 8189, 8179, 8172,2.0959911346435547
62, 8183, 8150, 8174, 8126, 8149, 8172, 8170, 8170, 8204, 8211, 8175, 8198, 8185, 8174,2.1113977432250977
63, 8197, 8173, 8188, 8153, 8163, 8184, 8166, 8172, 8224, 8197, 8178, 8217, 8187, 8173,2.1113977432250977
64, 8182, 8161, 8122, 8153, 8161, 8161, 8159, 8160, 8212, 8189, 8169, 8193, 8175, 8150,2.1275150775909424
65, 8171, 8160, 8199, 8123, 8149, 8153, 8136, 8170, 8178, 8171, 8162, 8193, 8166, 8135,2.1275150775909424
66, 8164, 8164, 8129, 8134, 8160, 8160, 8147, 8166, 8182, 8171, 8175, 8199, 8173, 8137,2.1434459686279297
67, 8162, 8166, 8168, 8134, 8166, 8160, 8149, 8166, 8165, 8163, 8171, 8201, 8159, 8135,2.1434459686279297
68, 8157, 8162, 8186, 8126, 8153, 8159, 8138, 8171, 8148, 8167, 8171, 8203, 8152, 8132,2.1595728397369385
69, 8160, 8159, 8127, 8145, 8154, 8152, 8136, 8164, 8155, 8170, 8175, 8196, 8160, 8134,2.1595728397369385
70, 8178, 8188, 8223, 8160, 8174, 8167, 8139, 8174, 8154, 8154, 8167, 8208, 8156, 8140,2.1749532222747803
71, 8175, 8190, 8148, 8174, 8192, 8173, 8159, 8171, 8176, 8185, 8183, 8199, 8170, 8144,2.1749532222747803
72, 8178, 8188, 8169, 8177, 8186, 8169, 8148, 8168, 8175, 8201, 8194, 8196, 8182, 8155,2.1909329891204834
73, 8189, 8207, 8214, 8193, 8187, 8177, 8138, 8171, 8159, 8184, 8181, 8210, 8177, 8163,2.1909329891204834
74, 8183, 8189, 8137, 8199, 8198, 8174, 8157, 8161, 8177, 8188, 8166, 8192, 8178, 8160,2.2069666385650635
75, 8175, 8179, 8199, 8170, 8190, 8190, 8166, 8172, 8188, 8197, 8157, 8187, 8175, 8164,2.2069666385650635
76, 8164, 8174, 8136, 8177, 8183, 8195, 8175, 8170, 8191, 8200, 8160, 8178, 8175, 8160,2.2240114212036133
77, 8164, 8166, 8154, 8176, 8179, 8184, 8166, 8165, 8180, 8187, 8149, 8171, 8176, 8150,2.2240114212036133
78, 8160, 8162, 8193, 8153, 8165, 8189, 8158, 8170, 8167, 8180, 8134, 8174, 8169, 8148,2.2381675243377686
79, 8149, 8143, 8109, 8142, 8149, 8171, 8163, 8156, 8168, 8175, 8137, 8162, 8165, 8148,2.2381675243377686
80, 8157, 8152, 8203, 8141, 8144, 8168, 8163, 8166, 8174, 8166, 8150, 8187, 8174, 8161,2.2533295154571533
81, 8164, 8160, 8162, 8172, 8160, 8176, 8181, 8174, 8201, 8196, 8163, 8201, 8197, 8174,2.2533295154571533
82, 8160, 8153, 8147, 8175, 8152, 8169, 8177, 8165, 8190, 8191, 8154, 8182, 8188, 8168,2.268364191055298
83, 8154, 8159, 8198, 8160, 8137, 8178, 8172, 8170, 8175, 8170, 8155, 8187, 8184, 8164,2.268364191055298
84, 8165, 8153, 8124, 8185, 8150, 8178, 8199, 8170, 8214, 8200, 8183, 8198, 8220, 8177,2.284000873565674
85, 8179, 8159, 8201, 8188, 8151, 8176, 8192, 8175, 8218, 8203, 8185, 8216, 8229, 8194,2.284000873565674
86, 8172, 8156, 8156, 8184, 8148, 8174, 8185, 8167, 8207, 8190, 8182, 8209, 8220, 8194,2.299348831176758
87, 8178, 8154, 8140, 8184, 8154, 8163, 8186, 8163, 8210, 8188, 8183, 8201, 8217, 8181,2.299348831176758
88, 8183, 8171, 8213, 8174, 8154, 8169, 8182, 8176, 8213, 8183, 8176, 8218, 8224, 8184,2.3144876956939697
89, 8173, 8161, 8125, 8173, 8151, 8155, 8184, 8165, 8214, 8193, 8184, 8214, 8234, 8183,2.3144876956939697
90, 8183, 8163, 8191, 8173, 8149, 8145, 8165, 8166, 8191, 8187, 8194, 8224, 8228, 8172,2.329613208770752
91, 8193, 8171, 8173, 8189, 8150, 8155, 8160, 8168, 8186, 8177, 8193, 8226, 8227, 8173,2.329613208770752
92, 8195, 8164, 8147, 8178, 8139, 8151, 8159, 8167, 8183, 8160, 8176, 8207, 8217, 8174,2.3452401161193848
93, 8202, 8178, 8225, 8164, 8139, 8155, 8154, 8181, 8177, 8155, 8173, 8223, 8208, 8176,2.3452401161193848
94, 8200, 8180, 8141, 8193, 8161, 8157, 8163, 8169, 8192, 8177, 8189, 8221, 8218, 8179,2.3611764907836914
95, 8198, 8184, 8198, 8187, 8165, 8164, 8159, 8171, 8176, 8161, 8176, 8211, 8207, 8175,2.3611764907836914
96, 8194, 8182, 8182, 8177, 8159, 8173, 8168, 8176, 8177, 8154, 8167, 8206, 8198, 8164,2.3767523765563965
97, 8183, 8167, 8136, 8171, 8152, 8164, 8159, 8167, 8186, 8160, 8165, 8191, 8194, 8158,2.3767523765563965
98, 8179, 8178, 8220, 8162, 8152, 8175, 8141, 8174, 8162, 8144, 8148, 8190, 8177, 8157,2.392338991165161
99, 8172, 8173, 8134, 8181, 8165, 8177, 8160, 8172, 8167, 8150, 8138, 8165, 8170, 8152,2.392338991165161
100, 8175, 8169, 8176, 8179, 8161, 8176, 8161, 8175, 8180, 8149, 8135, 8161, 8157, 8147,2.4079670906066895
101, 8181, 8180, 8186, 8183, 8159, 8184, 8161, 8177, 8188, 8160, 8154, 8184, 8165, 8155,2.4079670906066895
102, 8175, 8168, 8131, 8180, 8165, 8173, 8169, 8167, 8183, 8172, 8160, 8179, 8180, 8159,2.423100233078003
103, 8170, 8163, 8205, 8160, 8164, 8185, 8168, 8175, 8172, 8164, 8146, 8181, 8168, 8161,2.423100233078003
104, 8174, 8160, 8136, 8175, 8172, 8197, 8188, 8172, 8199, 8185, 8162, 8182, 8175, 8171,2.4391465187072754
105, 8189, 8166, 8179, 8179, 8175, 8198, 8193, 8174, 8211, 8195, 8164, 8196, 8190, 8183,2.4391465187072754
106, 8185, 8170, 8188, 8172, 8175, 8198, 8191, 8178, 8202, 8187, 8138, 8195, 8188, 8182,2.453139305114746
107, 8171, 8158, 8123, 8169, 8171, 8177, 8186, 8166, 8199, 8180, 8132, 8167, 8175, 8177,2.4697108268737793
108, 8173, 8163, 8204, 8148, 8159, 8182, 8168, 8176, 8192, 8166, 8145, 8177, 8171, 8176,2.4697108268737793
109, 8167, 8154, 8122, 8146, 8167, 8186, 8178, 8174, 8202, 8178, 8151, 8179, 8179, 8171,2.4702236652374268
110, 8172, 8154, 8156, 8148, 8183, 8182, 8189, 8172, 8205, 8182, 8147, 8184, 8179, 8176,2.4856700897216797
111, 8186, 8172, 8200, 8158, 8186, 8193, 8194, 8181, 8215, 8186, 8166, 8203, 8191, 8189,2.5013017654418945
112, 8183, 8159, 8123, 8160, 8169, 8179, 8190, 8173, 8225, 8194, 8179, 8193, 8200, 8182,2.5013017654418945
113, 8173, 8157, 8194, 8136, 8154, 8164, 8164, 8178, 8205, 8176, 8160, 8192, 8178, 8166,2.5163261890411377
114, 8167, 8156, 8133, 8139, 8157, 8155, 8154, 8169, 8194, 8168, 8158, 8184, 8171, 8154,2.5163261890411377
115, 8176, 8149, 8152, 8135, 8151, 8146, 8138, 8159, 8177, 8159, 8165, 8186, 8177, 8154,2.5163261890411377
116, 8182, 8160, 8199, 8138, 8157, 8159, 8142, 8170, 8182, 8159, 8172, 8205, 8182, 8164,2.533245086669922
117, 8183, 8162, 8125, 8162, 8178, 8157, 8158, 8162, 8194, 8168, 8185, 8201, 8184, 8165,2.547426223754883
118, 8184, 8170, 8206, 8143, 8163, 8155, 8135, 8166, 8158, 8143, 8179, 8202, 8169, 8155,2.547426223754883
119, 8163, 8157, 8146, 8135, 8150, 8160, 8133, 8170, 8162, 8152, 8173, 8184, 8167, 8146,2.547426223754883
120, 8161, 8155, 8149, 8148, 8169, 8167, 8149, 8172, 8187, 8175, 8181, 8179, 8175, 8151,2.561962604522705
121, 8173, 8181, 8212, 8163, 8191, 8186, 8164, 8181, 8187, 8178, 8200, 8209, 8181, 8168,2.577366828918457
122, 8172, 8171, 8127, 8180, 8195, 8179, 8176, 8169, 8201, 8181, 8202, 8199, 8187, 8177,2.577366828918457
123, 8181, 8171, 8202, 8175, 8186, 8176, 8159, 8172, 8193, 8171, 8181, 8194, 8176, 8173,2.592912435531616
124, 8178, 8171, 8162, 8183, 8190, 8184, 8159, 8172, 8181, 8184, 8187, 8196, 8178, 8175,2.592912435531616
125, 8162, 8156, 8144, 8179, 8183, 8183, 8163, 8163, 8177, 8188, 8185, 8184, 8181, 8179,2.609435796737671
126, 8159, 8159, 8207, 8163, 8166, 8192, 8166, 8169, 8181, 8182, 8167, 8185, 8176, 8177,2.609435796737671
127, 8158, 8146, 8117, 8159, 8167, 8185, 8175, 8164, 8200, 8200, 8170, 8172, 8182, 8169,2.609435796737671
236, 8157, 8143, 8181, 8139, 8163, 8181, 8154, 8171, 8189, 8187, 8160, 8166, 8175, 8163,2.626023292541504
0, 8159, 8146, 8153, 8136, 8159, 8176, 8150, 8168, 8185, 8172, 8158, 8165, 8174, 8160,2.640968084335327
1, 8168, 8143, 8124, 8126, 8155, 8154, 8151, 8160, 8184, 8166, 8175, 8176, 8186, 8156,2.640968084335327
2, 8169, 8161, 8201, 8121, 8151, 8154, 8141, 8173, 8166, 8156, 8186, 8201, 8184, 8153,2.640968084335327
3, 8161, 8167, 8130, 8165, 8166, 8151, 8145, 8168, 8159, 8159, 8190, 8186, 8174, 8150,2.6563000679016113
4, 8170, 8177, 8198, 8183, 8172, 8162, 8141, 8171, 8148, 8151, 8188, 8192, 8175, 8160,2.6714389324188232
5, 8168, 8173, 8177, 8183, 8171, 8180, 8147, 8174, 8162, 8160, 8189, 8198, 8187, 8165,2.6714389324188232
6, 8156, 8154, 8134, 8190, 8175, 8179, 8157, 8168, 8173, 8181, 8181, 8173, 8181, 8156,2.687232494354248
7, 8164, 8170, 8219, 8188, 8178, 8194, 8162, 8174, 8171, 8193, 8176, 8184, 8180, 8167,2.687232494354248
8, 8166, 8161, 8130, 8184, 8175, 8185, 8174, 8164, 8196, 8200, 8182, 8182, 8197, 8176,2.7022900581359863
9, 8163, 8148, 8173, 8161, 8163, 8168, 8162, 8170, 8193, 8176, 8170, 8169, 8181, 8164,2.7022900581359863
10, 8166, 8164, 8181, 8162, 8172, 8178, 8169, 8184, 8199, 8190, 8181, 8178, 8180, 8168,2.7183187007904053
11, 8177, 8172, 8139, 8177, 8182, 8171, 8179, 8178, 8208, 8205, 8201, 8190, 8197, 8178,2.7183187007904053
12, 8182, 8177, 8227, 8171, 8178, 8166, 8153, 8182, 8174, 8160, 8182, 8203, 8178, 8166,2.7341597080230713
13, 8174, 8170, 8150, 8175, 8186, 8164, 8154, 8177, 8176, 8162, 8180, 8192, 8169, 8157,2.7341597080230713
14, 8181, 8177, 8192, 8172, 8186, 8172, 8164, 8178, 8186, 8189, 8192, 8196, 8173, 8167,2.7491331100463867
15, 8179, 8181, 8204, 8181, 8183, 8183, 8171, 8182, 8172, 8174, 8186, 8202, 8165, 8167,2.7491331100463867
16, 8173, 8164, 8136, 8184, 8185, 8172, 8170, 8171, 8156, 8145, 8180, 8190, 8150, 8148,2.76427960395813
17, 8186, 8175, 8223, 8170, 8185, 8174, 8162, 8178, 8155, 8143, 8184, 8200, 8153, 8150,2.76427960395813
18, 8188, 8180, 8156, 8192, 8192, 8174, 8180, 8175, 8172, 8166, 8187, 8188, 8170, 8166,2.7794628143310547
19, 8185, 8182, 8178, 8203, 8185, 8167, 8176, 8173, 8156, 8150, 8179, 8185, 8164, 8164,2.7794628143310547
20, 8188, 8182, 8199, 8207, 8178, 8179, 8174, 8177, 8148, 8145, 8184, 8198, 8158, 8165,2.795198678970337
21, 8179, 8160, 8128, 8212, 8188, 8182, 8187, 8168, 8164, 8170, 8184, 8174, 8159, 8175,2.795198678970337
22, 8166, 8160, 8212, 8193, 8187, 8195, 8183, 8179, 8162, 8164, 8171, 8169, 8157, 8176,2.810302734375
23, 8156, 8155, 8140, 8199, 8180, 8193, 8188, 8173, 8170, 8169, 8172, 8159, 8167, 8168,2.810302734375
24, 8160, 8148, 8147, 8192, 8171, 8178, 8179, 8166, 8159, 8167, 8154, 8148, 8155, 8164,2.825812578201294
25, 8164, 8155, 8186, 8177, 8169, 8181, 8172, 8174, 8156, 8160, 8141, 8161, 8147, 8163,2.825812578201294
26, 8163, 8147, 8110, 8184, 8168, 8171, 8178, 8165, 8176, 8168, 8154, 8160, 8164, 8162,2.8413190841674805
27, 8172, 8157, 8199, 8176, 8157, 8168, 8161, 8173, 8169, 8160, 8154, 8170, 8168, 8165,2.8413190841674805
28, 8169, 8152, 8151, 8175, 8165, 8164, 8162, 8174, 8180, 8164, 8153, 8165, 8172, 8157,2.85636830329895
29, 8170, 8142, 8150, 8170, 8169, 8152, 8161, 8170, 8189, 8158, 8152, 8161, 8173, 8154,2.85636830329895
30, 8181, 8165, 8199, 8168, 8164, 8162, 8158, 8177, 8182, 8155, 8160, 8181, 8172, 8174,2.872980833053589
31, 8186, 8164, 8121, 8177, 8169, 8155, 8161, 8165, 8183, 8165, 8179, 8181, 8184, 8178,2.872980833053589
32, 8193, 8169, 8208, 8166, 8177, 8158, 8151, 8172, 8173, 8152, 8185, 8195, 8185, 8170,2.888096332550049
33, 8189, 8181, 8170, 8184, 8197, 8171, 8162, 8176, 8172, 8151, 8188, 8193, 8174, 8167,2.888096332550049
34, 8182, 8173, 8157, 8201, 8199, 8170, 8165, 8165, 8151, 8141, 8165, 8170, 8152, 8158,2.904507637023926
35, 8173, 8168, 8209, 8198, 8188, 8183, 8165, 8168, 8130, 8123, 8142, 8168, 8143, 8154,2.904507637023926
36, 8160, 8153, 8116, 8203, 8194, 8182, 8181, 8163, 8142, 8141, 8152, 8153, 8149, 8155,2.9193520545959473
37, 8161, 8153, 8189, 8184, 8185, 8181, 8167, 8171, 8136, 8142, 8144, 8146, 8136, 8157,2.9193520545959473
38, 8164, 8153, 8168, 8180, 8177, 8178, 8161, 8174, 8161, 8152, 8146, 8154, 8152, 8170,2.9353933334350586
39, 8185, 8159, 8152, 8191, 8184, 8163, 8166, 8170, 8204, 8180, 8182, 8184, 8192, 8187,2.9353933334350586
40, 8205, 8180, 8221, 8194, 8185, 8168, 8160, 8179, 8204, 8181, 8209, 8216, 8201, 8189,2.951447010040283
41, 8186, 8165, 8131, 8198, 8174, 8156, 8159, 8167, 8182, 8164, 8205, 8195, 8182, 8174,2.951447010040283
42, 8175, 8166, 8197, 8182, 8161, 8143, 8151, 8170, 8156, 8140, 8187, 8192, 8160, 8164,2.9670114517211914
43, 8179, 8178, 8181, 8187, 8173, 8154, 8157, 8174, 8159, 8152, 8186, 8195, 8161, 8159,2.9832980632781982
44, 8176, 8170, 8138, 8199, 8183, 8163, 8160, 8169, 8154, 8155, 8180, 8173, 8159, 8151,2.9832980632781982
45, 8167, 8177, 8213, 8202, 8184, 8188, 8162, 8180, 8150, 8143, 8170, 8175, 8157, 8150,2.9832980632781982
46, 8156, 8167, 8126, 8215, 8198, 8199, 8190, 8169, 8183, 8166, 8174, 8166, 8167, 8151,2.9977762699127197
47, 8156, 8160, 8179, 8198, 8194, 8196, 8190, 8171, 8191, 8167, 8159, 8162, 8156, 8155,2.9977762699127197
48, 8159, 8163, 8176, 8194, 8186, 8195, 8192, 8182, 8208, 8187, 8156, 8169, 8160, 8172,3.01472806930542
49, 8171, 8163, 8127, 8207, 8191, 8184, 8197, 8170, 8233, 8213, 8175, 8169, 8183, 8179,3.01472806930542
50, 8178, 8175, 8208, 8198, 8196, 8184, 8189, 8173, 8215, 8192, 8175, 8188, 8180, 8175,3.0300958156585693
51, 8167, 8167, 8126, 8195, 8189, 8172, 8203, 8170, 8209, 8187, 8175, 8185, 8179, 8171,3.0443499088287354
52, 8167, 8164, 8172, 8173, 8168, 8160, 8187, 8174, 8208, 8185, 8179, 8182, 8183, 8164,3.0443499088287354
53, 8169, 8172, 8187, 8174, 8169, 8161, 8161, 8176, 8207, 8181, 8186, 8187, 8186, 8153,3.0600433349609375
54, 8177, 8173, 8137, 8207, 8189, 8157, 8159, 8165, 8208, 8185, 8191, 8185, 8188, 8148,3.0600433349609375
55, 8197, 8197, 8230, 8216, 8195, 8176, 8163, 8176, 8197, 8179, 8194, 8209, 8183, 8156,3.0600433349609375
56, 8193, 8202, 8155, 8228, 8208, 8183, 8178, 8172, 8201, 8194, 8214, 8210, 8190, 8167,3.0761072635650635
57, 8182, 8194, 8180, 8227, 8215, 8177, 8174, 8171, 8190, 8194, 8212, 8199, 8188, 8171,3.0761072635650635
58, 8167, 8186, 8200, 8222, 8204, 8183, 8171, 8174, 8170, 8180, 8189, 8185, 8172, 8162,3.0933682918548584
59, 8154, 8164, 8127, 8219, 8192, 8169, 8168, 8159, 8162, 8171, 8175, 8158, 8159, 8152,3.0933682918548584
60, 8162, 8175, 8206, 8213, 8193, 8177, 8166, 8167, 8160, 8172, 8175, 8173, 8165, 8167,3.1058971881866455
61, 8161, 8177, 8138, 8227, 8204, 8193, 8193, 8170, 8192, 8207, 8196, 8179, 8189, 8178,3.121570348739624
62, 8155, 8162, 8158, 8208, 8193, 8191, 8199, 8173, 8204, 8214, 8198, 8173, 8187, 8175,3.121570348739624
63, 8155, 8158, 8197, 8186, 8179, 8189, 8195, 8180, 8203, 8202, 8194, 8181, 8179, 8178,3.138308525085449
64, 8158, 8147, 8118, 8185, 8171, 8170, 8193, 8169, 8208, 8198, 8191, 8168, 8182, 8177,3.138308525085449
65, 8166, 8159, 8204, 8168, 8162, 8164, 8167, 8176, 8191, 8178, 8180, 8174, 8171, 8173,3.138308525085449
66, 8164, 8163, 8155, 8180, 8169, 8161, 8168, 8175, 8199, 8189, 8196, 8182, 8176, 8167,3.152395486831665
67, 8163, 8157, 8156, 8174, 8168, 8150, 8167, 8168, 8200, 8190, 8203, 8191, 8187, 8161,3.168400764465332
68, 8164, 8162, 8199, 8158, 8159, 8156, 8152, 8174, 8187, 8169, 8195, 8203, 8183, 8161,3.168400764465332
69, 8160, 8161, 8126, 8180, 8163, 8148, 8152, 8170, 8189, 8168, 8199, 8186, 8173, 8155,3.185137987136841
70, 8158, 8175, 8211, 8176, 8169, 8161, 8153, 8176, 8176, 8161, 8195, 8188, 8160, 8151,3.185137987136841
71, 8151, 8175, 8162, 8176, 8180, 8175, 8164, 8170, 8174, 8167, 8191, 8183, 8160, 8151,3.185137987136841
72, 8158, 8175, 8153, 8199, 8175, 8155, 8149, 8164, 8164, 8173, 8196, 8173, 8153, 8146,3.1992921829223633
73, 8166, 8192, 8219, 8225, 8173, 8165, 8145, 8181, 8154, 8180, 8212, 8193, 8151, 8146,3.2153027057647705
74, 8157, 8184, 8138, 8247, 8186, 8181, 8174, 8172, 8172, 8195, 8224, 8195, 8168, 8150,3.2153027057647705
75, 8162, 8189, 8217, 8249, 8183, 8185, 8170, 8174, 8166, 8186, 8214, 8209, 8173, 8161,3.231358528137207
76, 8173, 8192, 8192, 8265, 8178, 8180, 8170, 8174, 8166, 8190, 8219, 8217, 8175, 8178,3.231358528137207
77, 8181, 8177, 8170, 8278, 8170, 8175, 8177, 8163, 8169, 8182, 8217, 8205, 8163, 8176,3.247441291809082
78, 8180, 8183, 8232, 8285, 8157, 8181, 8172, 8170, 8161, 8163, 8201, 8215, 8150, 8170,3.247441291809082
79, 8188, 8186, 8154, 8301, 8167, 8172, 8182, 8171, 8190, 8187, 8225, 8238, 8182, 8192,3.2630302906036377
80, 8215, 8196, 8237, 8298, 8168, 8171, 8182, 8178, 8211, 8200, 8258, 8274, 8210, 8218,3.2630302906036377
81, 8214, 8189, 8217, 8311, 8149, 8164, 8173, 8173, 8204, 8192, 8259, 8268, 8207, 8210,3.2801051139831543
82, 8235, 8200, 8193, 8344, 8166, 8163, 8185, 8171, 8207, 8198, 8267, 8273, 8219, 8218,3.2801051139831543
83, 8318, 8281, 8307, 8399, 8238, 8220, 8247, 8201, 8269, 8246, 8329, 8358, 8272, 8285,3.2946696281433105
84, 8356, 8301, 8236, 8447, 8286, 8236, 8304, 8199, 8326, 8297, 8377, 8391, 8313, 8322,3.2946696281433105
85, 8334, 8277, 8273, 8426, 8268, 8205, 8282, 8191, 8291, 8267, 8360, 8374, 8299, 8304,3.310023069381714
86, 8329, 8288, 8265, 8428, 8267, 8209, 8281, 8192, 8287, 8256, 8363, 8369, 8300, 8300,3.31044602394104
87, 8350, 8291, 8223, 8450, 8285, 8210, 8301, 8186, 8315, 8283, 8377, 8364, 8316, 8310,3.3260583877563477
88, 8346, 8278, 8286, 8425, 8278, 8202, 8282, 8194, 8296, 8272, 8363, 8367, 8305, 8310,3.3260583877563477
89, 8320, 8260, 8195, 8417, 8281, 8202, 8282, 8187, 8298, 8277, 8364, 8345, 8300, 8304,3.3431267738342285
90, 8312, 8258, 8242, 8416, 8287, 8217, 8285, 8189, 8302, 8285, 8347, 8325, 8290, 8298,3.3431267738342285
91, 8297, 8250, 8236, 8413, 8281, 8222, 8285, 8192, 8289, 8278, 8320, 8310, 8272, 8285,3.3431267738342285
92, 8286, 8232, 8167, 8404, 8271, 8200, 8282, 8181, 8274, 8264, 8309, 8292, 8259, 8275,3.357639789581299
93, 8292, 8237, 8252, 8373, 8259, 8211, 8272, 8186, 8259, 8251, 8292, 8295, 8255, 8274,3.3727598190307617
94, 8279, 8218, 8165, 8352, 8260, 8216, 8280, 8179, 8266, 8258, 8277, 8272, 8261, 8260,3.3727598190307617
95, 8263, 8202, 8183, 8325, 8255, 8205, 8274, 8181, 8260, 8244, 8264, 8252, 8244, 8251,3.3877384662628174
96, 8255, 8204, 8203, 8316, 8251, 8209, 8274, 8186, 8255, 8245, 8262, 8252, 8235, 8255,3.3877384662628174
97, 8248, 8186, 8134, 8305, 8248, 8197, 8276, 8175, 8258, 8260, 8262, 8240, 8248, 8246,3.4032654762268066
98, 8245, 8187, 8210, 8271, 8226, 8193, 8256, 8183, 8248, 8240, 8254, 8247, 8245, 8239,3.4032654762268066
99, 8247, 8193, 8141, 8274, 8225, 8191, 8259, 8177, 8268, 8249, 8268, 8246, 8248, 8250,3.4193613529205322
100, 8250, 8194, 8167, 8270, 8235, 8180, 8247, 8173, 8268, 8252, 8267, 8246, 8247, 8247,3.4193613529205322
101, 8241, 8200, 8208, 8260, 8231, 8183, 8230, 8181, 8255, 8235, 8258, 8253, 8238, 8233,3.4351770877838135
102, 8244, 8200, 8140, 8274, 8228, 8189, 8243, 8173, 8271, 8243, 8274, 8248, 8248, 8231,3.4351770877838135
103, 8261, 8216, 8222, 8270, 8233, 8197, 8239, 8180, 8265, 8245, 8277, 8261, 8252, 8237,3.4504897594451904
104, 8247, 8198, 8158, 8266, 8241, 8183, 8232, 8179, 8258, 8248, 8276, 8258, 8249, 8234,3.4504897594451904
105, 8237, 8184, 8164, 8252, 8232, 8175, 8226, 8179, 8255, 8237, 8284, 8259, 8247, 8231,3.4664628505706787
106, 8247, 8210, 8215, 8250, 8231, 8195, 8239, 8187, 8257, 8234, 8287, 8273, 8250, 8233,3.4664628505706787
107, 8244, 8209, 8142, 8263, 8236, 8183, 8245, 8175, 8251, 8240, 8271, 8242, 8236, 8219,3.481341600418091
108, 8237, 8208, 8221, 8250, 8229, 8175, 8222, 8181, 8219, 8212, 8252, 8229, 8214, 8204,3.481341600418091
109, 8224, 8201, 8163, 8252, 8236, 8190, 8232, 8180, 8222, 8210, 8260, 8225, 8221, 8209,3.4973771572113037
110, 8213, 8194, 8156, 8249, 8240, 8201, 8242, 8175, 8227, 8216, 8250, 8213, 8218, 8213,3.4973771572113037
111, 8218, 8208, 8223, 8253, 8244, 8213, 8243, 8185, 8225, 8218, 8235, 8219, 8213, 8217,3.513211250305176
112, 8223, 8199, 8143, 8275, 8256, 8204, 8262, 8175, 8240, 8236, 8248, 8217, 8229, 8226,3.513211250305176
113, 8231, 8203, 8214, 8270, 8255, 8211, 8257, 8181, 8237, 8233, 8251, 8222, 8226, 8235,3.529294490814209
114, 8229, 8210, 8172, 8274, 8256, 8231, 8259, 8184, 8253, 8240, 8247, 8214, 8224, 8235,3.529294490814209
115, 8226, 8195, 8147, 8265, 8258, 8229, 8263, 8178, 8260, 8239, 8238, 8206, 8226, 8236,3.544973134994507
116, 8227, 8190, 8212, 8244, 8248, 8225, 8259, 8185, 8241, 8224, 8225, 8213, 8213, 8232,3.544973134994507
117, 8220, 8182, 8127, 8251, 8239, 8207, 8262, 8175, 8241, 8228, 8219, 8187, 8202, 8215,3.5600802898406982
118, 8223, 8192, 8195, 8245, 8233, 8210, 8252, 8180, 8241, 8224, 8212, 8190, 8204, 8221,3.5600802898406982
119, 8223, 8194, 8173, 8250, 8234, 8219, 8257, 8182, 8256, 8241, 8227, 8211, 8227, 8235,3.575207471847534
120, 8222, 8179, 8141, 8252, 8233, 8202, 8257, 8174, 8257, 8251, 8232, 8203, 8229, 8226,3.575207471847534
121, 8221, 8185, 8216, 8229, 8229, 8204, 8243, 8181, 8234, 8234, 8216, 8204, 8211, 8211,3.590935707092285
122, 8211, 8177, 8129, 8221, 8230, 8192, 8247, 8174, 8245, 8235, 8215, 8196, 8220, 8213,3.590935707092285
123, 8222, 8181, 8185, 8211, 8219, 8181, 8241, 8175, 8252, 8229, 8216, 8208, 8226, 8229,3.607003688812256
124, 8223, 8190, 8175, 8222, 8220, 8196, 8246, 8175, 8253, 8235, 8231, 8218, 8230, 8227,3.607003688812256
125, 8214, 8183, 8135, 8234, 8224, 8195, 8245, 8169, 8246, 8243, 8239, 8202, 8233, 8213,3.6222853660583496
126, 8224, 8195, 8221, 8226, 8222, 8199, 8232, 8186, 8244, 8237, 8228, 8210, 8225, 8213,3.6222853660583496
127, 8240, 8200, 8145, 8241, 8237, 8201, 8245, 8184, 8275, 8250, 8240, 8219, 8236, 8222,3.637263059616089
236, 8254, 8214, 8206, 8237, 8243, 8201, 8242, 8181, 8270, 8239, 8257, 8235, 8243, 8223,3.637263059616089
0, 8255, 8225, 8216, 8237, 8243, 8201, 8249, 8182, 8261, 8232, 8271, 8245, 8242, 8224,3.654263973236084
1, 8252, 8215, 8153, 8244, 8244, 8184, 8252, 8175, 8266, 8245, 8272, 8229, 8238, 8216,3.654263973236084
2, 8244, 8218, 8230, 8230, 8235, 8183, 8230, 8185, 8244, 8230, 8248, 8226, 8225, 8200,3.6682848930358887
3, 8234, 8210, 8152, 8239, 8242, 8182, 8230, 8175, 8232, 8221, 8238, 8215, 8230, 8197,3.6682848930358887
4, 8252, 8217, 8196, 8249, 8250, 8185, 8230, 8174, 8221, 8213, 8247, 8230, 8236, 8208,3.684400796890259
5, 8254, 8230, 8215, 8250, 8245, 8193, 8231, 8183, 8217, 8215, 8249, 8244, 8229, 8206,3.684400796890259
6, 8230, 8205, 8138, 8235, 8227, 8176, 8232, 8172, 8216, 8215, 8223, 8207, 8209, 8186,3.700282573699951
7, 8233, 8207, 8222, 8218, 8220, 8180, 8228, 8182, 8208, 8199, 8211, 8205, 8199, 8191,3.700282573699951
8, 8241, 8211, 8161, 8240, 8236, 8186, 8247, 8187, 8224, 8216, 8238, 8217, 8217, 8213,3.715296983718872
9, 8233, 8203, 8183, 8235, 8236, 8188, 8248, 8185, 8217, 8212, 8235, 8212, 8206, 8204,3.715296983718872
10, 8218, 8197, 8204, 8216, 8227, 8198, 8243, 8181, 8202, 8199, 8209, 8195, 8183, 8184,3.7313191890716553
11, 8201, 8177, 8125, 8214, 8222, 8183, 8233, 8166, 8200, 8204, 8197, 8168, 8188, 8171,3.7313191890716553
12, 8195, 8180, 8203, 8195, 8217, 8185, 8212, 8173, 8187, 8191, 8188, 8178, 8193, 8175,3.7457211017608643
13, 8191, 8182, 8140, 8205, 8223, 8198, 8231, 8170, 8206, 8207, 8200, 8186, 8204, 8194,3.746720552444458
14, 8200, 8185, 8160, 8218, 8219, 8201, 8236, 8169, 8223, 8226, 8208, 8185, 8213, 8206,3.761340379714966
15, 8204, 8187, 8207, 8209, 8211, 8205, 8227, 8178, 8223, 8228, 8201, 8187, 8210, 8197,3.7773802280426025
16, 8194, 8159, 8116, 8193, 8207, 8188, 8234, 8165, 8231, 8226, 8199, 8168, 8206, 8187,3.7773802280426025
17, 8192, 8165, 8194, 8165, 8190, 8183, 8219, 8172, 8221, 8212, 8201, 8175, 8206, 8194,3.7773802280426025
18, 8200, 8178, 8158, 8177, 8188, 8186, 8217, 8177, 8221, 8222, 8213, 8186, 8221, 8196,3.793921709060669
19, 8214, 8173, 8159, 8189, 8191, 8174, 8211, 8175, 8218, 8213, 8216, 8195, 8217, 8182,3.793921709060669
20, 8209, 8182, 8206, 8183, 8187, 8173, 8200, 8178, 8218, 8195, 8216, 8201, 8212, 8177,3.8103299140930176
21, 8192, 8183, 8123, 8191, 8195, 8171, 8202, 8168, 8220, 8202, 8222, 8180, 8220, 8177,3.8103299140930176
22, 8199, 8195, 8197, 8196, 8197, 8179, 8196, 8178, 8193, 8195, 8222, 8192, 8212, 8176,3.8257150650024414
23, 8204, 8196, 8167, 8212, 8196, 8185, 8209, 8179, 8189, 8186, 8228, 8207, 8214, 8181,3.8257150650024414
24, 8200, 8183, 8155, 8206, 8196, 8187, 8218, 8171, 8197, 8191, 8224, 8195, 8217, 8184,3.840247392654419
25, 8194, 8191, 8206, 8204, 8208, 8205, 8218, 8182, 8210, 8197, 8223, 8196, 8213, 8182,3.856342315673828
26, 8184, 8188, 8123, 8225, 8220, 8197, 8224, 8178, 8225, 8189, 8232, 8186, 8215, 8177,3.856342315673828
27, 8178, 8188, 8192, 8205, 8210, 8193, 8212, 8176, 8199, 8185, 8201, 8179, 8196, 8175,3.856342315673828
28, 8168, 8176, 8154, 8194, 8201, 8201, 8209, 8167, 8188, 8226, 8178, 8164, 8178, 8167,3.8700146675109863
29, 8169, 8166, 8125, 8198, 8197, 8190, 8204, 8169, 8202, 8243, 8201, 8156, 8185, 8160,3.885136604309082
30, 8179, 8180, 8202, 8192, 8201, 8199, 8204, 8190, 8214, 8221, 8222, 8180, 8206, 8176,3.885136604309082
31, 8175, 8167, 8121, 8204, 8212, 8205, 8224, 8175, 8230, 8235, 8214, 8171, 8221, 8187,3.9004876613616943
32, 8177, 8165, 8181, 8199, 8199, 8197, 8214, 8173, 8210, 8224, 8195, 8166, 8213, 8179,3.9004876613616943
33, 8171, 8166, 8160, 8180, 8186, 8186, 8199, 8183, 8192, 8194, 8193, 8166, 8209, 8174,3.91648006439209
34, 8164, 8150, 8116, 8163, 8184, 8177, 8187, 8172, 8199, 8194, 8188, 8156, 8207, 8177,3.91648006439209
35, 8170, 8163, 8204, 8164, 8182, 8194, 8186, 8174, 8210, 8202, 8184, 8171, 8206, 8178,3.9324228763580322
36, 8168, 8162, 8120, 8177, 8186, 8194, 8201, 8174, 8229, 8214, 8194, 8164, 8214, 8167,3.9324228763580322
37, 8162, 8155, 8164, 8153, 8186, 8188, 8192, 8177, 8210, 8187, 8179, 8156, 8193, 8161,3.947962760925293
38, 8157, 8158, 8170, 8154, 8183, 8190, 8200, 8174, 8200, 8178, 8170, 8155, 8185, 8166,3.947962760925293
39, 8171, 8160, 8120, 8172, 8180, 8172, 8220, 8170, 8218, 8202, 8180, 8154, 8207, 8176,3.9630093574523926
40, 8192, 8171, 8206, 8150, 8176, 8182, 8218, 8183, 8219, 8200, 8172, 8177, 8213, 8189,3.9630093574523926
41, 8187, 8165, 8137, 8156, 8187, 8189, 8219, 8172, 8228, 8202, 8168, 8173, 8214, 8189,3.9796669483184814
42, 8188, 8174, 8178, 8174, 8184, 8175, 8204, 8173, 8221, 8199, 8176, 8178, 8215, 8184,3.9796669483184814
43, 8187, 8185, 8186, 8178, 8177, 8175, 8197, 8184, 8225, 8205, 8186, 8191, 8220, 8182,3.995657444000244
44, 8172, 8160, 8114, 8157, 8185, 8179, 8206, 8170, 8245, 8214, 8178, 8167, 8216, 8173,3.995657444000244
45, 8176, 8167, 8205, 8139, 8187, 8187, 8199, 8173, 8237, 8202, 8159, 8173, 8211, 8178,4.0163373947143555
46, 8194, 8178, 8151, 8171, 8183, 8175, 8203, 8174, 8236, 8211, 8182, 8194, 8227, 8199,4.0163373947143555
47, 8196, 8172, 8175, 8163, 8168, 8164, 8188, 8169, 8222, 8200, 8190, 8201, 8222, 8198,4.0163373947143555
48, 8171, 8163, 8188, 8127, 8167, 8174, 8174, 8172, 8212, 8184, 8163, 8184, 8196, 8169,4.025514841079712
49, 8159, 8157, 8117, 8130, 8176, 8169, 8184, 8169, 8213, 8191, 8152, 8159, 8186, 8153,4.041515827178955
50, 8179, 8181, 8210, 8147, 8171, 8171, 8183, 8172, 8194, 8173, 8152, 8177, 8183, 8162,4.041515827178955
51, 8187, 8186, 8148, 8164, 8175, 8169, 8189, 8165, 8203, 8176, 8164, 8181, 8193, 8174,4.05726432800293
52, 8190, 8175, 8161, 8150, 8168, 8156, 8182, 8171, 8202, 8181, 8177, 8187, 8204, 8180,4.05726432800293
53, 8191, 8174, 8209, 8145, 8155, 8161, 8172, 8184, 8184, 8169, 8186, 8206, 8211, 8183,4.072768688201904
54, 8184, 8173, 8133, 8164, 8158, 8157, 8176, 8167, 8179, 8165, 8181, 8191, 8207, 8174,4.072768688201904
55, 8189, 8196, 8216, 8164, 8169, 8163, 8166, 8169, 8164, 8158, 8165, 8193, 8197, 8165,4.088425636291504
56, 8192, 8196, 8171, 8180, 8181, 8170, 8174, 8173, 8174, 8176, 8181, 8203, 8212, 8172,4.088425636291504
57, 8194, 8188, 8169, 8184, 8183, 8165, 8182, 8175, 8189, 8184, 8202, 8215, 8224, 8187,4.103968620300293
58, 8193, 8200, 8208, 8174, 8182, 8179, 8187, 8184, 8186, 8178, 8203, 8228, 8211, 8190,4.103968620300293
59, 8182, 8189, 8123, 8185, 8181, 8171, 8189, 8166, 8174, 8171, 8190, 8199, 8194, 8167,4.1195969581604
60, 8189, 8194, 8210, 8185, 8171, 8165, 8172, 8171, 8153, 8147, 8175, 8194, 8185, 8159,4.1195969581604
61, 8201, 8203, 8174, 8193, 8177, 8177, 8182, 8174, 8164, 8155, 8182, 8201, 8200, 8174,4.1354334354400635
62, 8208, 8200, 8163, 8197, 8181, 8181, 8184, 8169, 8171, 8172, 8183, 8198, 8206, 8185,4.1354334354400635
63, 8209, 8212, 8234, 8200, 8178, 8188, 8186, 8183, 8176, 8180, 8185, 8207, 8202, 8191,4.150962591171265
64, 8197, 8204, 8145, 8213, 8189, 8181, 8211, 8175, 8192, 8186, 8182, 8194, 8203, 8185,4.150962591171265
65, 8196, 8200, 8206, 8198, 8189, 8188, 8205, 8178, 8180, 8161, 8153, 8186, 8186, 8179,4.167032480239868
66, 8210, 8205, 8187, 8206, 8189, 8198, 8205, 8185, 8195, 8181, 8168, 8191, 8194, 8192,4.167032480239868
67, 8224, 8206, 8164, 8211, 8191, 8190, 8198, 8179, 8207, 8205, 8194, 8193, 8213, 8198,4.182930946350098
68, 8214, 8213, 8226, 8192, 8187, 8198, 8180, 8178, 8177, 8181, 8168, 8195, 8197, 8185,4.182930946350098
69, 8200, 8198, 8143, 8203, 8188, 8197, 8190, 8170, 8173, 8181, 8155, 8175, 8190, 8183,4.198033571243286
70, 8219, 8204, 8209, 8208, 8185, 8201, 8195, 8181, 8180, 8193, 8172, 8190, 8203, 8203,4.198033571243286
71, 8216, 8205, 8193, 8201, 8184, 8207, 8195, 8184, 8192, 8208, 8192, 8210, 8216, 8210,4.213306188583374
72, 8189, 8181, 8148, 8181, 8175, 8186, 8186, 8172, 8192, 8210, 8184, 8187, 8200, 8189,4.213306188583374
73, 8188, 8190, 8218, 8164, 8161, 8184, 8181, 8181, 8177, 8191, 8163, 8175, 8176, 8174,4.229344844818115
74, 8195, 8190, 8133, 8175, 8174, 8192, 8200, 8174, 8191, 8201, 8175, 8170, 8186, 8174,4.229344844818115
75, 8209, 8193, 8197, 8176, 8196, 8210, 8211, 8178, 8208, 8217, 8190, 8190, 8209, 8196,4.245130777359009
76, 8223, 8209, 8207, 8200, 8215, 8231, 8240, 8189, 8234, 8235, 8196, 8208, 8227, 8221,4.245130777359009
77, 8229, 8212, 8158, 8224, 8227, 8222, 8258, 8181, 8243, 8237, 8196, 8205, 8224, 8225,4.259984254837036
78, 8237, 8223, 8243, 8220, 8227, 8231, 8252, 8190, 8242, 8232, 8199, 8222, 8220, 8231,4.259984254837036
79, 8239, 8219, 8167, 8233, 8234, 8237, 8276, 8188, 8274, 8260, 8212, 8211, 8233, 8241,4.275919675827026
80, 8235, 8212, 8199, 8224, 8232, 8227, 8280, 8188, 8271, 8257, 8204, 8195, 8219, 8234,4.275919675827026
81, 8220, 8208, 8200, 8212, 8225, 8228, 8273, 8188, 8255, 8252, 8201, 8194, 8207, 8221,4.2921693325042725
82, 8219, 8202, 8145, 8219, 8223, 8219, 8284, 8181, 8267, 8266, 8212, 8193, 8226, 8230,4.2921693325042725
83, 8232, 8217, 8234, 8212, 8223, 8220, 8284, 8193, 8267, 8262, 8215, 8211, 8236, 8244,4.3072123527526855
84, 8228, 8212, 8153, 8219, 8234, 8212, 8283, 8184, 8272, 8271, 8214, 8204, 8239, 8239,4.3072123527526855
85, 8230, 8210, 8180, 8222, 8227, 8205, 8269, 8184, 8269, 8269, 8203, 8199, 8234, 8236,4.322325706481934
86, 8239, 8217, 8214, 8233, 8219, 8216, 8273, 8194, 8278, 8270, 8211, 8213, 8242, 8245,4.322325706481934
87, 8243, 8206, 8147, 8243, 8226, 8209, 8282, 8182, 8289, 8276, 8225, 8207, 8251, 8252,4.337889671325684
88, 8255, 8218, 8230, 8230, 8227, 8214, 8274, 8185, 8269, 8261, 8215, 8213, 8242, 8253,4.337889671325684
89, 8253, 8213, 8159, 8231, 8231, 8210, 8277, 8181, 8267, 8266, 8211, 8209, 8247, 8252,4.3549416065216064
90, 8251, 8198, 8168, 8214, 8226, 8185, 8254, 8179, 8260, 8255, 8208, 8213, 8249, 8246,4.3549416065216064
91, 8251, 8207, 8212, 8202, 8223, 8188, 8231, 8185, 8250, 8237, 8216, 8228, 8246, 8244,4.370010137557983
92, 8244, 8200, 8135, 8210, 8228, 8190, 8236, 8176, 8260, 8248, 8224, 8212, 8254, 8240,4.370010137557983
93, 8242, 8204, 8215, 8198, 8221, 8191, 8231, 8184, 8255, 8252, 8211, 8220, 8255, 8240,4.385454416275024
94, 8230, 8199, 8161, 8200, 8220, 8180, 8234, 8184, 8258, 8259, 8213, 8218, 8253, 8235,4.385454416275024
95, 8220, 8188, 8157, 8184, 8212, 8172, 8219, 8179, 8240, 8247, 8214, 8196, 8238, 8216,4.401393890380859
96, 8222, 8195, 8204, 8170, 8208, 8188, 8208, 8182, 8220, 8235, 8212, 8202, 8236, 8211,4.401393890380859
97, 8228, 8195, 8131, 8192, 8224, 8187, 8227, 8175, 8239, 8246, 8229, 8214, 8255, 8228,4.416979789733887
98, 8235, 8208, 8216, 8195, 8230, 8188, 8229, 8184, 8242, 8239, 8238, 8235, 8257, 8235,4.416979789733887
99, 8226, 8201, 8172, 8200, 8225, 8178, 8227, 8179, 8240, 8241, 8237, 8222, 8252, 8218,4.432131052017212
100, 8229, 8198, 8167, 8214, 8218, 8160, 8222, 8173, 8234, 8244, 8236, 8213, 8249, 8215,4.432131052017212
101, 8244, 8227, 8236, 8229, 8222, 8184, 8227, 8188, 8228, 8244, 8244, 8237, 8250, 8233,4.448162317276001
102, 8233, 8211, 8147, 8227, 8225, 8188, 8235, 8181, 8230, 8250, 8243, 8217, 8251, 8226,4.448162317276001
103, 8213, 8190, 8206, 8188, 8209, 8175, 8211, 8182, 8203, 8224, 8209, 8192, 8223, 8204,4.463898420333862
104, 8200, 8194, 8174, 8197, 8214, 8182, 8213, 8182, 8202, 8220, 8196, 8186, 8207, 8202,4.463898420333862
105, 8198, 8191, 8155, 8219, 8227, 8188, 8225, 8174, 8219, 8231, 8210, 8187, 8220, 8212,4.480009078979492
106, 8196, 8192, 8218, 8202, 8220, 8190, 8220, 8186, 8227, 8233, 8208, 8201, 8231, 8218,4.480009078979492
107, 8196, 8187, 8131, 8213, 8211, 8179, 8230, 8185, 8233, 8247, 8199, 8185, 8230, 8220,4.495043754577637
108, 8211, 8196, 8203, 8222, 8200, 8186, 8227, 8183, 8211, 8234, 8187, 8178, 8213, 8216,4.495043754577637
109, 8212, 8186, 8188, 8204, 8195, 8199, 8225, 8177, 8207, 8222, 8178, 8176, 8208, 8209,4.510291576385498
110, 8196, 8163, 8150, 8182, 8186, 8189, 8224, 8175, 8216, 8218, 8165, 8167, 8199, 8210,4.510640859603882
111, 8187, 8174, 8217, 8179, 8181, 8199, 8224, 8192, 8216, 8212, 8157, 8175, 8185, 8207,4.526066780090332
112, 8177, 8169, 8125, 8190, 8192, 8196, 8241, 8181, 8226, 8224, 8165, 8157, 8192, 8189,4.526066780090332
113, 8164, 8159, 8179, 8172, 8193, 8189, 8231, 8176, 8205, 8205, 8149, 8149, 8181, 8184,4.542067527770996
114, 8152, 8158, 8173, 8177, 8192, 8199, 8223, 8181, 8201, 8194, 8141, 8151, 8167, 8192,4.558095932006836
115, 8171, 8161, 8130, 8194, 8196, 8191, 8224, 8177, 8221, 8217, 8163, 8150, 8182, 8194,4.558095932006836
116, 8202, 8182, 8225, 8189, 8196, 8188, 8214, 8182, 8206, 8222, 8174, 8168, 8193, 8200,4.558095932006836
117, 8184, 8166, 8141, 8192, 8187, 8179, 8209, 8168, 8196, 8212, 8161, 8148, 8176, 8189,4.574221611022949
118, 8165, 8152, 8168, 8171, 8170, 8178, 8194, 8171, 8189, 8189, 8139, 8139, 8151, 8172,4.574221611022949
119, 8163, 8156, 8179, 8155, 8175, 8192, 8199, 8183, 8202, 8199, 8148, 8153, 8164, 8181,4.588347673416138
120, 8161, 8147, 8125, 8154, 8178, 8179, 8202, 8175, 8220, 8219, 8155, 8142, 8181, 8182,4.588347673416138
121, 8168, 8162, 8204, 8157, 8164, 8173, 8185, 8179, 8207, 8202, 8140, 8148, 8168, 8172,4.606390953063965
122, 8173, 8165, 8137, 8182, 8167, 8172, 8193, 8172, 8203, 8199, 8145, 8150, 8169, 8172,4.606390953063965
123, 8183, 8162, 8177, 8174, 8172, 8177, 8193, 8174, 8201, 8200, 8155, 8150, 8175, 8176,4.62095308303833
124, 8192, 8170, 8199, 8169, 8173, 8187, 8196, 8184, 8213, 8210, 8168, 8166, 8185, 8184,4.62095308303833
125, 8191, 8165, 8129, 8180, 8174, 8169, 8199, 8171, 8222, 8221, 8177, 8169, 8197, 8191,4.634977579116821
126, 8193, 8174, 8215, 8163, 8162, 8169, 8177, 8173, 8198, 8201, 8170, 8179, 8189, 8193,4.6501147747039795
127, 8187, 8171, 8145, 8163, 8168, 8168, 8173, 8170, 8196, 8192, 8177, 8175, 8185, 8182,4.6501147747039795
236, 8186, 8175, 8164, 8162, 8184, 8158, 8166, 8169, 8191, 8179, 8185, 8179, 8181, 8173,4.665563344955444
0, 8191, 8195, 8208, 8163, 8186, 8170, 8165, 8179, 8187, 8177, 8185, 8189, 8180, 8175,4.665563344955444
1, 8197, 8190, 8141, 8182, 8182, 8160, 8171, 8171, 8199, 8193, 8188, 8178, 8181, 8176,4.681682825088501
2, 8207, 8192, 8227, 8177, 8170, 8154, 8152, 8173, 8182, 8173, 8184, 8192, 8172, 8172,4.681682825088501
3, 8198, 8184, 8165, 8181, 8170, 8156, 8149, 8168, 8171, 8158, 8176, 8181, 8163, 8160,4.699344635009766
4, 8184, 8170, 8162, 8173, 8171, 8150, 8146, 8168, 8158, 8147, 8157, 8152, 8145, 8156,4.699344635009766
5, 8171, 8170, 8210, 8163, 8173, 8164, 8146, 8179, 8156, 8150, 8150, 8162, 8142, 8158,4.699344635009766
6, 8163, 8165, 8137, 8181, 8182, 8170, 8163, 8171, 8171, 8172, 8167, 8157, 8158, 8156,4.716285467147827
7, 8178, 8176, 8217, 8180, 8180, 8184, 8168, 8183, 8163, 8162, 8159, 8151, 8152, 8164,4.716285467147827
8, 8176, 8164, 8163, 8178, 8171, 8190, 8178, 8184, 8181, 8164, 8144, 8142, 8154, 8173,4.728335618972778
9, 8159, 8143, 8148, 8167, 8163, 8180, 8163, 8173, 8187, 8171, 8134, 8139, 8154, 8165,4.74389123916626
10, 8159, 8155, 8211, 8166, 8172, 8184, 8149, 8177, 8166, 8173, 8140, 8151, 8149, 8162,4.74389123916626
11, 8166, 8153, 8132, 8175, 8180, 8171, 8164, 8169, 8172, 8187, 8145, 8137, 8158, 8169,4.761601686477661
12, 8161, 8152, 8197, 8149, 8158, 8169, 8157, 8175, 8174, 8176, 8124, 8139, 8156, 8165,4.761601686477661
13, 8154, 8157, 8154, 8147, 8157, 8175, 8152, 8173, 8182, 8171, 8132, 8142, 8160, 8155,4.761601686477661
14, 8176, 8163, 8132, 8151, 8166, 8164, 8142, 8163, 8177, 8160, 8153, 8146, 8160, 8151,4.775278329849243
15, 8184, 8178, 8205, 8142, 8161, 8169, 8125, 8171, 8160, 8139, 8145, 8165, 8149, 8142,4.791278123855591
16, 8159, 8164, 8123, 8155, 8169, 8170, 8131, 8164, 8160, 8144, 8135, 8152, 8143, 8127,4.791278123855591
17, 8157, 8167, 8186, 8149, 8171, 8169, 8126, 8171, 8143, 8135, 8134, 8150, 8135, 8119,4.807358741760254
18, 8153, 8169, 8161, 8148, 8166, 8166, 8128, 8174, 8144, 8131, 8143, 8151, 8136, 8120,4.807358741760254
19, 8135, 8151, 8128, 8149, 8159, 8158, 8128, 8166, 8144, 8131, 8135, 8132, 8129, 8117,4.824153900146484
20, 8133, 8156, 8202, 8144, 8151, 8171, 8118, 8177, 8121, 8121, 8119, 8128, 8121, 8117,4.824153900146484
21, 8130, 8143, 8112, 8161, 8160, 8173, 8127, 8169, 8122, 8134, 8123, 8110, 8133, 8121,4.824153900146484
22, 8127, 8137, 8165, 8162, 8161, 8179, 8128, 8170, 8116, 8129, 8112, 8107, 8124, 8123,4.840168476104736
23, 8127, 8145, 8158, 8159, 8154, 8188, 8141, 8172, 8117, 8127, 8101, 8110, 8111, 8124,4.840168476104736
24, 8122, 8133, 8111, 8144, 8148, 8175, 8152, 8163, 8127, 8136, 8110, 8103, 8115, 8126,4.854303598403931
25, 8125, 8136, 8195, 8133, 8155, 8186, 8152, 8175, 8134, 8139, 8120, 8123, 8127, 8140,4.869912385940552
26, 8130, 8140, 8117, 8160, 8160, 8186, 8165, 8172, 8155, 8160, 8130, 8124, 8137, 8144,4.869912385940552
27, 8129, 8144, 8158, 8148, 8139, 8173, 8150, 8169, 8142, 8147, 8115, 8114, 8121, 8130,4.885361671447754
28, 8115, 8139, 8162, 8127, 8133, 8174, 8140, 8170, 8128, 8129, 8104, 8108, 8111, 8118,4.885361671447754
29, 8117, 8132, 8108, 8131, 8140, 8162, 8147, 8167, 8141, 8137, 8115, 8100, 8119, 8125,4.900307655334473
30, 8134, 8151, 8199, 8130, 8133, 8162, 8135, 8178, 8148, 8137, 8128, 8123, 8127, 8139,4.900307655334473
31, 8129, 8148, 8128, 8132, 8133, 8154, 8127, 8168, 8150, 8144, 8138, 8127, 8137, 8131,4.916321516036987
32, 8131, 8149, 8158, 8115, 8134, 8140, 8112, 8165, 8126, 8131, 8131, 8127, 8131, 8125,4.916321516036987
33, 8139, 8165, 8178, 8114, 8138, 8145, 8112, 8171, 8130, 8131, 8136, 8134, 8133, 8131,4.9322731494903564
34, 8147, 8160, 8116, 8131, 8148, 8143, 8122, 8169, 8155, 8146, 8155, 8132, 8153, 8130,4.9322731494903564
35, 8161, 8176, 8204, 8137, 8153, 8158, 8116, 8181, 8145, 8138, 8163, 8154, 8153, 8133,4.9472832679748535
36, 8152, 8182, 8138, 8154, 8158, 8166, 8127, 8172, 8147, 8144, 8165, 8144, 8141, 8136,4.9472832679748535
37, 8143, 8172, 8164, 8149, 8159, 8169, 8138, 8168, 8152, 8147, 8156, 8129, 8134, 8136,4.9629151821136475
38, 8140, 8173, 8199, 8151, 8164, 8188, 8156, 8182, 8157, 8157, 8156, 8135, 8136, 8146,4.9629151821136475
39, 8124, 8157, 8115, 8160, 8160, 8181, 8161, 8165, 8152, 8159, 8154, 8113, 8126, 8140,4.978448390960693
40, 8118, 8151, 8184, 8138, 8139, 8181, 8139, 8163, 8132, 8143, 8134, 8108, 8111, 8126,4.978448390960693
41, 8123, 8149, 8128, 8132, 8139, 8183, 8144, 8172, 8151, 8165, 8145, 8110, 8136, 8135,4.994350910186768
42, 8136, 8148, 8146, 8126, 8138, 8168, 8133, 8172, 8159, 8169, 8159, 8118, 8151, 8143,4.994350910186768
43, 8136, 8157, 8194, 8118, 8129, 8166, 8116, 8170, 8153, 8152, 8150, 8133, 8141, 8135,5.009254217147827
44, 8135, 8160, 8119, 8134, 8139, 8158, 8117, 8161, 8164, 8157, 8157, 8129, 8142, 8133,5.009254217147827
45, 8155, 8183, 8208, 8142, 8147, 8160, 8104, 8175, 8157, 8148, 8183, 8151, 8150, 8144,5.024976491928101
46, 8152, 8177, 8161, 8155, 8151, 8167, 8111, 8176, 8165, 8151, 8203, 8156, 8163, 8141,5.024976491928101
47, 8132, 8158, 8152, 8151, 8151, 8165, 8112, 8170, 8156, 8148, 8181, 8134, 8143, 8121,5.0402209758758545
48, 8127, 8172, 8205, 8149, 8153, 8175, 8114, 8179, 8136, 8144, 8154, 8132, 8118, 8115,5.0402209758758545
49, 8133, 8163, 8121, 8177, 8164, 8182, 8142, 8173, 8154, 8165, 8157, 8125, 8134, 8125,5.056253910064697
50, 8138, 8156, 8196, 8163, 8153, 8190, 8142, 8176, 8156, 8162, 8151, 8128, 8133, 8135,5.056253910064697
51, 8129, 8148, 8158, 8142, 8141, 8184, 8144, 8173, 8158, 8166, 8152, 8127, 8126, 8141,5.072368860244751
52, 8129, 8135, 8132, 8130, 8132, 8167, 8141, 8171, 8167, 8177, 8153, 8128, 8130, 8142,5.072368860244751
53, 8136, 8155, 8200, 8129, 8129, 8173, 8124, 8182, 8173, 8176, 8151, 8149, 8138, 8146,5.088311195373535
54, 8143, 8163, 8123, 8145, 8138, 8161, 8120, 8163, 8185, 8182, 8172, 8148, 8153, 8147,5.088311195373535
55, 8161, 8167, 8193, 8133, 8137, 8159, 8100, 8164, 8166, 8164, 8191, 8162, 8154, 8146,5.103412628173828
56, 8162, 8173, 8168, 8140, 8137, 8166, 8091, 8173, 8157, 8149, 8187, 8166, 8145, 8137,5.103412628173828
57, 8151, 8173, 8133, 8149, 8136, 8153, 8095, 8166, 8143, 8132, 8166, 8144, 8126, 8116,5.1190831661224365
58, 8145, 8173, 8208, 8133, 8135, 8164, 8101, 8169, 8115, 8112, 8155, 8142, 8109, 8104,5.1190831661224365
59, 8131, 8150, 8126, 8134, 8142, 8168, 8120, 8165, 8117, 8123, 8157, 8126, 8110, 8105,5.13432765007019
60, 8129, 8153, 8178, 8132, 8142, 8171, 8126, 8171, 8115, 8130, 8136, 8118, 8108, 8112,5.13432765007019
61, 8128, 8159, 8158, 8140, 8145, 8181, 8143, 8174, 8132, 8152, 8128, 8116, 8116, 8117,5.150378465652466
62, 8124, 8136, 8115, 8131, 8136, 8172, 8152, 8169, 8171, 8172, 8138, 8110, 8128, 8126,5.150378465652466
63, 8128, 8138, 8200, 8099, 8117, 8172, 8136, 8176, 8189, 8161, 8140, 8129, 8132, 8138,5.1660239696502686
64, 8127, 8137, 8124, 8094, 8121, 8161, 8122, 8164, 8195, 8162, 8156, 8123, 8139, 8128,5.1660239696502686
65, 8134, 8148, 8174, 8091, 8123, 8149, 8100, 8169, 8179, 8145, 8163, 8132, 8138, 8113,5.180249214172363
66, 8134, 8158, 8173, 8097, 8115, 8151, 8097, 8171, 8164, 8128, 8159, 8149, 8139, 8115,5.180249214172363
67, 8130, 8146, 8122, 8102, 8111, 8143, 8094, 8150, 8147, 8121, 8166, 8135, 8139, 8115,5.196613788604736
68, 8143, 8161, 8215, 8100, 8119, 8149, 8088, 8163, 8131, 8116, 8172, 8148, 8134, 8117,5.196613788604736
69, 8152, 8172, 8146, 8134, 8136, 8157, 8123, 8171, 8152, 8140, 8180, 8153, 8145, 8126,5.213520526885986
70, 8154, 8172, 8180, 8145, 8133, 8165, 8138, 8168, 8148, 8143, 8173, 8145, 8140, 8133,5.213520526885986
71, 8141, 8165, 8188, 8138, 8127, 8176, 8130, 8172, 8141, 8139, 8169, 8142, 8126, 8133,5.228136301040649
72, 8127, 8154, 8118, 8134, 8130, 8173, 8128, 8165, 8150, 8147, 8166, 8129, 8127, 8134,5.228136301040649
73, 8123, 8163, 8201, 8112, 8129, 8180, 8125, 8170, 8142, 8134, 8150, 8128, 8125, 8134,5.242684841156006
74, 8112, 8145, 8128, 8113, 8127, 8172, 8134, 8168, 8156, 8141, 8144, 8114, 8122, 8125,5.258340358734131
75, 8122, 8139, 8151, 8120, 8116, 8165, 8123, 8168, 8151, 8135, 8136, 8114, 8112, 8127,5.258340358734131
76, 8137, 8165, 8192, 8134, 8119, 8179, 8124, 8168, 8138, 8127, 8135, 8130, 8122, 8136,5.273752927780151
77, 8131, 8156, 8119, 8133, 8129, 8164, 8139, 8158, 8148, 8134, 8139, 8116, 8126, 8126,5.273752927780151
78, 8128, 8153, 8195, 8107, 8122, 8162, 8122, 8172, 8142, 8126, 8134, 8116, 8110, 8123,5.29007887840271
79, 8130, 8155, 8134, 8116, 8119, 8165, 8113, 8165, 8146, 8130, 8143, 8119, 8160, 8129,5.29007887840271
80, 8135, 8159, 8150, 8118, 8115, 8150, 8104, 8155, 8138, 8121, 8149, 8127, 8198, 8121,5.306176424026489
81, 8135, 8170, 8195, 8114, 8119, 8154, 8108, 8166, 8130, 8116, 8152, 8135, 8149, 8119,5.306176424026489
82, 8137, 8157, 8113, 8122, 8134, 8156, 8126, 8165, 8150, 8127, 8159, 8122, 8115, 8122,5.321395397186279
83, 8143, 8162, 8195, 8112, 8132, 8154, 8117, 8172, 8152, 8121, 8148, 8137, 8126, 8122,5.321395397186279
84, 8134, 8165, 8144, 8118, 8129, 8148, 8115, 8165, 8158, 8127, 8149, 8134, 8131, 8123,5.321395397186279
85, 8136, 8159, 8137, 8118, 8124, 8147, 8109, 8160, 8148, 8125, 8154, 8125, 8123, 8118,5.335967540740967
86, 8145, 8166, 8193, 8116, 8124, 8159, 8102, 8176, 8133, 8113, 8157, 8143, 8130, 8119,5.3520307540893555
87, 8132, 8155, 8112, 8123, 8127, 8139, 8105, 8168, 8138, 8113, 8160, 8134, 8132, 8120,5.3520307540893555
88, 8131, 8162, 8186, 8110, 8124, 8140, 8098, 8169, 8134, 8109, 8150, 8132, 8126, 8115,5.366310358047485
89, 8135, 8167, 8148, 8131, 8141, 8158, 8113, 8169, 8139, 8128, 8153, 8125, 8135, 8116,5.366310358047485
90, 8132, 8164, 8139, 8150, 8154, 8150, 8115, 8166, 8130, 8127, 8161, 8119, 8129, 8127,5.381946563720703
91, 8137, 8178, 8207, 8141, 8143, 8158, 8112, 8177, 8127, 8114, 8169, 8145, 8133, 8139,5.381946563720703
92, 8147, 8166, 8118, 8145, 8143, 8172, 8131, 8172, 8157, 8140, 8174, 8139, 8150, 8139,5.397980690002441
93, 8150, 8160, 8182, 8134, 8142, 8178, 8129, 8178, 8149, 8136, 8151, 8126, 8132, 8139,5.397980690002441
94, 8135, 8156, 8157, 8128, 8132, 8167, 8128, 8176, 8137, 8129, 8146, 8123, 8119, 8133,5.413292646408081
95, 8132, 8148, 8131, 8129, 8127, 8151, 8115, 8165, 8131, 8133, 8150, 8116, 8121, 8119,5.413292646408081
96, 8139, 8163, 8200, 8139, 8135, 8165, 8103, 8171, 8120, 8123, 8142, 8117, 8119, 8119,5.4293906688690186
97, 8133, 8159, 8117, 8157, 8146, 8168, 8130, 8165, 8140, 8138, 8153, 8107, 8124, 8127,5.4293906688690186
98, 8136, 8157, 8183, 8140, 8135, 8168, 8131, 8174, 8150, 8150, 8162, 8116, 8130, 8134,5.444936752319336
99, 8136, 8161, 8171, 8143, 8132, 8171, 8124, 8175, 8154, 8149, 8162, 8117, 8135, 8139,5.444936752319336
100, 8140, 8161, 8135, 8163, 8142, 8164, 8133, 8161, 8151, 8139, 8156, 8107, 8135, 8140,5.461030006408691
101, 8148, 8170, 8220, 8154, 8140, 8178, 8137, 8171, 8148, 8142, 8153, 8125, 8133, 8147,5.461030006408691
102, 8143, 8158, 8134, 8154, 8142, 8173, 8145, 8172, 8179, 8177, 8173, 8125, 8154, 8156,5.47623872756958
103, 8148, 8159, 8176, 8146, 8146, 8171, 8143, 8173, 8183, 8179, 8182, 8132, 8157, 8156,5.47623872756958
104, 8142, 8156, 8173, 8141, 8146, 8184, 8143, 8172, 8171, 8165, 8172, 8135, 8143, 8148,5.492316484451294
105, 8133, 8137, 8120, 8132, 8136, 8164, 8133, 8165, 8170, 8154, 8155, 8115, 8141, 8141,5.492316484451294
106, 8140, 8156, 8210, 8122, 8130, 8166, 8126, 8175, 8171, 8150, 8145, 8125, 8144, 8145,5.507978916168213
107, 8137, 8156, 8136, 8136, 8138, 8173, 8143, 8164, 8185, 8169, 8149, 8122, 8143, 8143,5.507978916168213
108, 8135, 8146, 8163, 8124, 8130, 8161, 8134, 8161, 8172, 8153, 8141, 8115, 8133, 8136,5.523295879364014
109, 8143, 8161, 8174, 8116, 8128, 8164, 8137, 8172, 8170, 8150, 8142, 8123, 8144, 8142,5.523295879364014
110, 8143, 8156, 8118, 8117, 8129, 8161, 8142, 8163, 8179, 8173, 8149, 8116, 8159, 8144,5.539398193359375
111, 8140, 8147, 8198, 8096, 8117, 8160, 8119, 8171, 8161, 8155, 8139, 8125, 8144, 8138,5.539398193359375
112, 8142, 8138, 8125, 8103, 8124, 8156, 8126, 8170, 8163, 8139, 8139, 8121, 8140, 8132,5.555330038070679
113, 8145, 8144, 8154, 8095, 8122, 8149, 8118, 8165, 8150, 8120, 8128, 8115, 8132, 8127,5.555330038070679
114, 8133, 8152, 8178, 8086, 8113, 8152, 8103, 8165, 8136, 8110, 8121, 8121, 8117, 8122,5.571374893188477
115, 8136, 8145, 8110, 8104, 8115, 8150, 8111, 8157, 8150, 8127, 8136, 8126, 8128, 8125,5.571374893188477
116, 8167, 8168, 8212, 8113, 8121, 8160, 8109, 8168, 8144, 8134, 8155, 8155, 8146, 8140,5.5872626304626465
117, 8173, 8179, 8157, 8131, 8138, 8153, 8116, 8163, 8137, 8137, 8170, 8149, 8153, 8144,5.5872626304626465
118, 8167, 8170, 8161, 8126, 8137, 8137, 8111, 8159, 8122, 8121, 8161, 8136, 8139, 8136,5.6033103466033936
119, 8169, 8177, 8203, 8120, 8128, 8148, 8114, 8171, 8115, 8118, 8160, 8150, 8131, 8136,5.6033103466033936
120, 8170, 8179, 8136, 8141, 8136, 8150, 8134, 8170, 8129, 8131, 8173, 8140, 8134, 8144,5.620237112045288
121, 8175, 8194, 8221, 8144, 8143, 8154, 8125, 8177, 8115, 8114, 8161, 8146, 8124, 8148,5.620237112045288
122, 8167, 8184, 8161, 8143, 8144, 8146, 8112, 8169, 8105, 8107, 8143, 8143, 8115, 8135,5.620237112045288
123, 8145, 8166, 8151, 8128, 8134, 8143, 8102, 8156, 8093, 8104, 8129, 8120, 8099, 8114,5.636925458908081
124, 8117, 8169, 8192, 8126, 8127, 8171, 8113, 8165, 8087, 8111, 8122, 8107, 8087, 8107,5.636925458908081
125, 8098, 8146, 8103, 8132, 8128, 8171, 8134, 8161, 8102, 8131, 8120, 8086, 8091, 8108,5.652079343795776
126, 8107, 8138, 8181, 8108, 8122, 8171, 8129, 8170, 8109, 8125, 8103, 8090, 8090, 8111,5.666314125061035
127, 8113, 8139, 8141, 8108, 8128, 8175, 8141, 8172, 8138, 8138, 8099, 8094, 8103, 8114,5.666314125061035
236, 8120, 8136, 8132, 8109, 8127, 8156, 8138, 8167, 8143, 8152, 8114, 8101, 8115, 8124,5.681909084320068
0, 8133, 8158, 8197, 8113, 8120, 8158, 8129, 8172, 8132, 8150, 8130, 8129, 8122, 8143,5.681909084320068
1, 8141, 8162, 8112, 8136, 8127, 8158, 8145, 8167, 8161, 8171, 8143, 8128, 8136, 8152,5.697097539901733
2, 8151, 8164, 8183, 8122, 8126, 8155, 8130, 8175, 8165, 8167, 8134, 8129, 8127, 8146,5.697097539901733
3, 8149, 8162, 8158, 8121, 8130, 8155, 8121, 8172, 8159, 8160, 8133, 8129, 8123, 8142,5.713163614273071
4, 8153, 8163, 8138, 8137, 8136, 8151, 8135, 8166, 8166, 8169, 8147, 8134, 8144, 8153,5.713163614273071
5, 8164, 8174, 8209, 8129, 8132, 8160, 8145, 8179, 8174, 8169, 8151, 8152, 8157, 8171,5.729024171829224
6, 8157, 8156, 8118, 8122, 8130, 8146, 8148, 8169, 8183, 8168, 8152, 8128, 8150, 8158,5.729024171829224
7, 8155, 8157, 8180, 8115, 8122, 8141, 8128, 8171, 8170, 8152, 8145, 8129, 8144, 8141,5.744304656982422
8, 8154, 8162, 8171, 8115, 8114, 8149, 8125, 8177, 8168, 8162, 8147, 8146, 8157, 8146,5.744304656982422
9, 8151, 8143, 8126, 8101, 8108, 8134, 8125, 8168, 8165, 8160, 8141, 8130, 8152, 8146,5.759454727172852
10, 8148, 8147, 8193, 8082, 8100, 8136, 8125, 8170, 8156, 8135, 8135, 8134, 8133, 8143,5.759454727172852
11, 8144, 8149, 8117, 8100, 8105, 8137, 8141, 8161, 8164, 8144, 8151, 8139, 8140, 8141,5.774607181549072
12, 8156, 8155, 8181, 8101, 8115, 8142, 8130, 8164, 8147, 8144, 8150, 8148, 8140, 8135,5.774607181549072
13, 8159, 8160, 8177, 8101, 8122, 8151, 8125, 8169, 8148, 8148, 8157, 8154, 8147, 8140,5.790018796920776
14, 8160, 8154, 8130, 8111, 8125, 8140, 8127, 8164, 8159, 8154, 8167, 8149, 8157, 8149,5.79041051864624
15, 8167, 8172, 8220, 8114, 8133, 8148, 8118, 8176, 8135, 8133, 8154, 8155, 8141, 8145,5.805171966552734
16, 8160, 8173, 8140, 8138, 8145, 8151, 8133, 8174, 8141, 8137, 8151, 8144, 8137, 8141,5.805171966552734
17, 8160, 8173, 8176, 8144, 8138, 8152, 8139, 8178, 8156, 8148, 8148, 8152, 8143, 8153,5.821238040924072
18, 8157, 8174, 8185, 8145, 8140, 8162, 8139, 8180, 8154, 8159, 8149, 8157, 8156, 8154,5.821238040924072
19, 8140, 8157, 8119, 8150, 8145, 8154, 8137, 8163, 8135, 8158, 8147, 8128, 8151, 8137,5.836325168609619
20, 8133, 8160, 8201, 8145, 8136, 8162, 8133, 8171, 8120, 8138, 8132, 8131, 8130, 8132,5.836325168609619
21, 8129, 8151, 8134, 8158, 8140, 8173, 8152, 8170, 8141, 8153, 8140, 8134, 8147, 8134,5.852319002151489
22, 8142, 8151, 8165, 8158, 8145, 8178, 8155, 8171, 8140, 8165, 8156, 8138, 8173, 8143,5.852319002151489
23, 8158, 8167, 8194, 8168, 8151, 8184, 8164, 8180, 8143, 8162, 8161, 8152, 8178, 8157,5.868387222290039
24, 8154, 8147, 8123, 8180, 8148, 8172, 8171, 8170, 8164, 8163, 8146, 8139, 8171, 8156,5.868387222290039
25, 8148, 8140, 8202, 8158, 8128, 8173, 8150, 8174, 8153, 8162, 8134, 8140, 8165, 8152,5.884372711181641
26, 8147, 8146, 8140, 8165, 8128, 8171, 8152, 8169, 8151, 8186, 8158, 8144, 8178, 8159,5.884372711181641
27, 8150, 8153, 8158, 8169, 8133, 8160, 8145, 8164, 8147, 8177, 8159, 8147, 8177, 8159,5.899244546890259
28, 8154, 8159, 8194, 8165, 8132, 8168, 8142, 8172, 8151, 8161, 8151, 8155, 8178, 8157,5.899244546890259
29, 8163, 8149, 8120, 8170, 8132, 8158, 8151, 8165, 8172, 8187, 8166, 8151, 8193, 8165,5.915255546569824
30, 8164, 8164, 8205, 8159, 8124, 8153, 8136, 8173, 8163, 8188, 8169, 8162, 8183, 8167,5.915255546569824
31, 8154, 8174, 8150, 8172, 8139, 8159, 8137, 8168, 8160, 8171, 8177, 8160, 8177, 8152,5.930890321731567
32, 8168, 8175, 8153, 8168, 8153, 8152, 8142, 8161, 8151, 8157, 8182, 8161, 8176, 8147,5.930890321731567
33, 8176, 8181, 8202, 8155, 8143, 8153, 8143, 8173, 8138, 8162, 8184, 8175, 8173, 8153,5.9464991092681885
34, 8170, 8175, 8119, 8166, 8142, 8148, 8149, 8170, 8150, 8178, 8197, 8166, 8185, 8153,5.9464991092681885
35, 8187, 8192, 8206, 8162, 8153, 8156, 8143, 8178, 8153, 8163, 8198, 8181, 8189, 8160,5.962493419647217
36, 8193, 8197, 8173, 8172, 8161, 8165, 8155, 8176, 8168, 8166, 8200, 8184, 8188, 8174,5.962493419647217
37, 8192, 8194, 8159, 8180, 8157, 8164, 8154, 8169, 8173, 8182, 8212, 8179, 8189, 8180,5.97763991355896
38, 8201, 8212, 8217, 8188, 8165, 8183, 8150, 8180, 8176, 8197, 8225, 8199, 8204, 8186,5.97763991355896
39, 8189, 8201, 8134, 8200, 8179, 8178, 8170, 8177, 8187, 8213, 8221, 8181, 8210, 8180,5.993300437927246
40, 8172, 8189, 8200, 8185, 8167, 8170, 8164, 8178, 8161, 8183, 8186, 8161, 8177, 8160,5.993300437927246
41, 8171, 8186, 8173, 8183, 8163, 8172, 8165, 8176, 8162, 8178, 8174, 8154, 8164, 8149,6.00934910774231
42, 8175, 8178, 8149, 8175, 8173, 8172, 8184, 8177, 8182, 8198, 8183, 8149, 8172, 8162,6.00934910774231
43, 8160, 8174, 8198, 8154, 8171, 8183, 8189, 8183, 8172, 8185, 8170, 8149, 8161, 8172,6.0331871509552
44, 8146, 8152, 8112, 8151, 8162, 8176, 8189, 8167, 8171, 8177, 8147, 8128, 8149, 8154,6.0331871509552
45, 8166, 8164, 8194, 8146, 8158, 8179, 8184, 8179, 8182, 8190, 8148, 8145, 8159, 8157,6.0331871509552
46, 8173, 8180, 8180, 8160, 8170, 8195, 8196, 8188, 8196, 8209, 8173, 8168, 8185, 8189,6.041352272033691
47, 8160, 8162, 8132, 8158, 8166, 8189, 8196, 8171, 8173, 8189, 8163, 8145, 8179, 8184,6.057936429977417
48, 8157, 8161, 8197, 8123, 8150, 8189, 8188, 8172, 8152, 8175, 8140, 8135, 8161, 8157,6.057936429977417
49, 8151, 8150, 8114, 8115, 8157, 8185, 8208, 8170, 8185, 8212, 8155, 8133, 8176, 8159,6.071264266967773
50, 8152, 8144, 8168, 8109, 8153, 8182, 8201, 8176, 8191, 8210, 8159, 8145, 8178, 8170,6.071264266967773
51, 8155, 8147, 8162, 8104, 8145, 8176, 8192, 8175, 8188, 8197, 8158, 8149, 8173, 8171,6.0867931842803955
52, 8161, 8141, 8119, 8109, 8151, 8158, 8192, 8164, 8197, 8204, 8164, 8144, 8179, 8171,6.0867931842803955
53, 8168, 8154, 8206, 8112, 8158, 8168, 8185, 8179, 8192, 8203, 8163, 8164, 8181, 8179,6.103188991546631
54, 8160, 8151, 8120, 8112, 8163, 8164, 8180, 8169, 8201, 8210, 8174, 8160, 8186, 8177,6.103188991546631
55, 8166, 8151, 8163, 8100, 8157, 8151, 8154, 8163, 8196, 8198, 8183, 8165, 8187, 8170,6.11758017539978
56, 8173, 8165, 8184, 8117, 8154, 8156, 8152, 8172, 8188, 8193, 8186, 8175, 8196, 8174,6.11758017539978
57, 8173, 8161, 8128, 8125, 8154, 8149, 8156, 8163, 8173, 8195, 8191, 8166, 8203, 8177,6.134136438369751
58, 8181, 8174, 8210, 8117, 8162, 8157, 8143, 8167, 8144, 8172, 8193, 8181, 8192, 8171,6.134136438369751
59, 8179, 8179, 8139, 8148, 8182, 8165, 8167, 8167, 8151, 8170, 8196, 8171, 8180, 8157,6.14916467666626
60, 8172, 8176, 8171, 8144, 8178, 8158, 8171, 8167, 8146, 8157, 8174, 8150, 8158, 8144,6.14916467666626
61, 8163, 8173, 8194, 8132, 8170, 8166, 8166, 8169, 8139, 8146, 8150, 8142, 8148, 8139,6.1652562618255615
62, 8151, 8157, 8119, 8147, 8174, 8170, 8182, 8165, 8152, 8161, 8149, 8127, 8154, 8144,6.181525230407715
63, 8148, 8163, 8190, 8135, 8167, 8183, 8183, 8178, 8142, 8164, 8149, 8135, 8155, 8163,6.181525230407715
64, 8153, 8161, 8127, 8148, 8171, 8182, 8190, 8172, 8149, 8180, 8156, 8137, 8167, 8172,6.181525230407715
65, 8171, 8163, 8163, 8171, 8181, 8179, 8190, 8170, 8163, 8190, 8160, 8147, 8173, 8169,6.198049306869507
66, 8176, 8171, 8203, 8170, 8187, 8197, 8195, 8182, 8176, 8196, 8166, 8165, 8179, 8175,6.198049306869507
67, 8173, 8156, 8121, 8155, 8182, 8183, 8205, 8168, 8187, 8208, 8169, 8154, 8194, 8182,6.212436199188232
68, 8180, 8166, 8205, 8141, 8169, 8176, 8196, 8169, 8170, 8190, 8162, 8160, 8187, 8177,6.225943565368652
69, 8180, 8168, 8148, 8159, 8178, 8182, 8207, 8168, 8174, 8186, 8166, 8161, 8182, 8170,6.225943565368652
70, 8183, 8157, 8149, 8152, 8181, 8171, 8202, 8168, 8184, 8185, 8160, 8160, 8182, 8169,6.241331577301025
71, 8187, 8168, 8201, 8140, 8171, 8168, 8184, 8177, 8186, 8186, 8167, 8181, 8190, 8176,6.241331577301025
72, 8186, 8176, 8127, 8164, 8181, 8160, 8176, 8169, 8196, 8197, 8192, 8184, 8202, 8176,6.256932258605957
73, 8189, 8189, 8203, 8164, 8186, 8163, 8160, 8177, 8190, 8191, 8193, 8193, 8199, 8170,6.256932258605957
74, 8185, 8183, 8160, 8166, 8182, 8161, 8167, 8176, 8191, 8196, 8189, 8189, 8198, 8165,6.272364616394043
75, 8183, 8173, 8156, 8161, 8174, 8151, 8166, 8168, 8168, 8181, 8184, 8175, 8189, 8161,6.272364616394043
76, 8180, 8189, 8219, 8161, 8181, 8163, 8157, 8177, 8148, 8172, 8184, 8186, 8187, 8158,6.2878968715667725
77, 8171, 8185, 8138, 8188, 8196, 8163, 8163, 8172, 8160, 8194, 8192, 8178, 8195, 8156,6.2878968715667725
78, 8172, 8180, 8204, 8193, 8189, 8172, 8169, 8174, 8150, 8187, 8174, 8175, 8181, 8163,6.304000377655029
79, 8172, 8176, 8171, 8198, 8192, 8190, 8191, 8179, 8155, 8190, 8162, 8169, 8179, 8165,6.304000377655029
80, 8172, 8170, 8150, 8195, 8194, 8183, 8188, 8178, 8163, 8198, 8168, 8159, 8184, 8162,6.320169448852539
81, 8166, 8179, 8209, 8184, 8182, 8183, 8171, 8178, 8150, 8187, 8166, 8165, 8174, 8164,6.320169448852539
82, 8154, 8161, 8119, 8190, 8180, 8181, 8186, 8167, 8157, 8193, 8152, 8147, 8169, 8159,6.335231065750122
83, 8159, 8153, 8180, 8174, 8180, 8185, 8197, 8179, 8160, 8187, 8134, 8142, 8162, 8149,6.335231065750122
84, 8164, 8158, 8154, 8173, 8186, 8190, 8209, 8181, 8174, 8190, 8145, 8147, 8165, 8150,6.351346969604492
85, 8164, 8162, 8128, 8198, 8189, 8186, 8214, 8171, 8183, 8202, 8158, 8154, 8171, 8162,6.351346969604492
86, 8172, 8180, 8214, 8205, 8183, 8194, 8203, 8180, 8167, 8198, 8159, 8183, 8171, 8173,6.3669140338897705
87, 8172, 8165, 8126, 8194, 8174, 8181, 8200, 8169, 8159, 8195, 8163, 8174, 8176, 8170,6.3669140338897705
88, 8172, 8157, 8178, 8171, 8164, 8174, 8181, 8168, 8148, 8180, 8154, 8167, 8169, 8161,6.382444143295288
89, 8167, 8161, 8176, 8180, 8170, 8177, 8179, 8174, 8162, 8182, 8150, 8169, 8166, 8166,6.382444143295288
90, 8163, 8154, 8122, 8175, 8168, 8157, 8186, 8168, 8178, 8193, 8150, 8156, 8175, 8168,6.397960424423218
91, 8166, 8159, 8190, 8150, 8156, 8159, 8179, 8178, 8169, 8187, 8149, 8162, 8172, 8165,6.397960424423218
92, 8159, 8149, 8117, 8158, 8159, 8158, 8172, 8168, 8177, 8196, 8159, 8158, 8172, 8162,6.413393974304199
93, 8169, 8154, 8173, 8158, 8159, 8148, 8149, 8163, 8166, 8183, 8166, 8167, 8172, 8167,6.413393974304199
94, 8181, 8171, 8180, 8170, 8161, 8155, 8157, 8169, 8155, 8183, 8174, 8181, 8176, 8177,6.429422616958618
95, 8183, 8163, 8119, 8176, 8166, 8153, 8173, 8163, 8162, 8197, 8174, 8173, 8177, 8177,6.429422616958618
96, 8184, 8164, 8205, 8151, 8163, 8157, 8157, 8170, 8160, 8188, 8162, 8184, 8171, 8170,6.44499659538269
97, 8172, 8161, 8132, 8159, 8166, 8153, 8159, 8169, 8170, 8191, 8172, 8178, 8173, 8160,6.44499659538269
98, 8173, 8167, 8161, 8163, 8162, 8146, 8150, 8173, 8169, 8175, 8180, 8181, 8170, 8159,6.46039891242981
99, 8188, 8184, 8191, 8172, 8165, 8150, 8151, 8180, 8175, 8170, 8190, 8205, 8181, 8177,6.46039891242981
100, 8195, 8185, 8140, 8193, 8170, 8140, 8164, 8171, 8177, 8187, 8212, 8211, 8197, 8189,6.476191759109497
101, 8192, 8193, 8223, 8183, 8163, 8141, 8144, 8177, 8152, 8173, 8212, 8216, 8188, 8180,6.476191759109497
102, 8177, 8180, 8140, 8180, 8164, 8145, 8137, 8172, 8152, 8170, 8192, 8186, 8172, 8165,6.49163818359375
103, 8172, 8170, 8155, 8175, 8162, 8159, 8144, 8172, 8148, 8173, 8168, 8163, 8155, 8165,6.49163818359375
104, 8176, 8180, 8200, 8178, 8168, 8179, 8165, 8185, 8149, 8182, 8167, 8174, 8157, 8178,6.507482528686523
105, 8176, 8175, 8132, 8195, 8179, 8171, 8180, 8176, 8165, 8192, 8175, 8163, 8166, 8178,6.507482528686523
106, 8175, 8175, 8202, 8181, 8165, 8175, 8164, 8180, 8159, 8184, 8159, 8159, 8156, 8168,6.52240514755249
107, 8165, 8158, 8134, 8168, 8163, 8179, 8164, 8181, 8178, 8204, 8165, 8155, 8169, 8174,6.52240514755249
108, 8169, 8144, 8144, 8156, 8168, 8166, 8161, 8177, 8187, 8206, 8173, 8156, 8183, 8186,6.537444114685059
109, 8177, 8163, 8202, 8160, 8158, 8169, 8165, 8178, 8187, 8188, 8167, 8169, 8181, 8191,6.537444114685059
110, 8178, 8167, 8126, 8174, 8157, 8162, 8182, 8168, 8207, 8206, 8179, 8167, 8194, 8192,6.5529725551605225
111, 8185, 8175, 8197, 8160, 8166, 8163, 8173, 8179, 8194, 8213, 8188, 8179, 8201, 8195,6.5529725551605225
112, 8178, 8174, 8149, 8168, 8173, 8164, 8168, 8179, 8174, 8201, 8188, 8173, 8199, 8187,6.569003343582153
113, 8174, 8169, 8149, 8176, 8167, 8154, 8158, 8169, 8165, 8181, 8184, 8165, 8189, 8173,6.569003343582153
114, 8180, 8176, 8208, 8167, 8165, 8165, 8154, 8177, 8162, 8185, 8185, 8178, 8186, 8173,6.584374189376831
115, 8179, 8162, 8128, 8163, 8166, 8157, 8161, 8171, 8166, 8198, 8193, 8173, 8192, 8174,6.584374189376831
116, 8188, 8174, 8208, 8159, 8159, 8151, 8141, 8174, 8156, 8169, 8189, 8184, 8182, 8175,6.599961757659912
117, 8187, 8188, 8163, 8182, 8166, 8157, 8143, 8171, 8169, 8169, 8190, 8183, 8181, 8176,6.599961757659912
118, 8175, 8173, 8128, 8174, 8168, 8149, 8150, 8167, 8173, 8182, 8187, 8168, 8182, 8166,6.616044044494629
119, 8178, 8183, 8206, 8161, 8167, 8162, 8149, 8176, 8159, 8177, 8191, 8185, 8185, 8168,6.616044044494629
120, 8192, 8197, 8144, 8199, 8184, 8168, 8167, 8166, 8170, 8195, 8215, 8196, 8202, 8192,6.631169319152832
121, 8203, 8199, 8207, 8207, 8188, 8169, 8174, 8174, 8159, 8188, 8210, 8201, 8191, 8205,6.631169319152832
122, 8184, 8182, 8174, 8197, 8188, 8178, 8189, 8178, 8154, 8184, 8196, 8186, 8177, 8189,6.646581649780273
123, 8173, 8173, 8141, 8206, 8194, 8188, 8203, 8174, 8171, 8201, 8188, 8166, 8180, 8183,6.646581649780273
124, 8180, 8183, 8215, 8196, 8188, 8196, 8201, 8185, 8181, 8201, 8173, 8166, 8170, 8193,6.662123203277588
125, 8173, 8162, 8130, 8177, 8174, 8173, 8200, 8168, 8191, 8207, 8168, 8146, 8167, 8185,6.662123203277588
126, 8181, 8171, 8186, 8169, 8171, 8170, 8189, 8168, 8180, 8209, 8171, 8159, 8180, 8186,6.6773200035095215
127, 8184, 8186, 8175, 8190, 8183, 8181, 8189, 8177, 8183, 8208, 8184, 8180, 8193, 8198,6.694394588470459
236, 8173, 8164, 8128, 8176, 8171, 8154, 8168, 8164, 8177, 8184, 8185, 8162, 8184, 8185,6.694394588470459
0, 8187, 8176, 8216, 8152, 8155, 8150, 8141, 8167, 8155, 8159, 8182, 8174, 8183, 8179,6.694394588470459
1, 8212, 8190, 8149, 8183, 8168, 8154, 8158, 8164, 8175, 8176, 8200, 8197, 8204, 8197,6.710928678512573
2, 8211, 8186, 8191, 8184, 8169, 8153, 8156, 8165, 8181, 8177, 8202, 8205, 8197, 8200,6.710928678512573
3, 8191, 8183, 8184, 8169, 8169, 8161, 8152, 8172, 8173, 8176, 8203, 8191, 8184, 8182,6.725011825561523
4, 8198, 8185, 8140, 8186, 8175, 8156, 8160, 8167, 8169, 8174, 8205, 8178, 8182, 8174,6.725011825561523
5, 8215, 8201, 8237, 8198, 8167, 8160, 8152, 8172, 8151, 8149, 8195, 8205, 8171, 8181,6.741168022155762
6, 8200, 8190, 8156, 8203, 8171, 8157, 8152, 8163, 8151, 8151, 8194, 8196, 8172, 8184,6.74216890335083
7, 8188, 8183, 8186, 8191, 8180, 8158, 8150, 8169, 8141, 8155, 8188, 8183, 8165, 8182,6.755707740783691
8, 8181, 8184, 8203, 8194, 8178, 8171, 8160, 8184, 8141, 8162, 8181, 8194, 8160, 8177,6.755707740783691
9, 8164, 8165, 8127, 8191, 8167, 8156, 8159, 8171, 8142, 8160, 8168, 8172, 8156, 8162,6.772424936294556
10, 8156, 8167, 8203, 8157, 8153, 8150, 8137, 8170, 8123, 8130, 8150, 8156, 8139, 8158,6.772424936294556
11, 8149, 8160, 8137, 8168, 8161, 8154, 8150, 8169, 8135, 8139, 8156, 8145, 8139, 8159,6.78825044631958
12, 8146, 8157, 8158, 8184, 8166, 8160, 8152, 8170, 8136, 8148, 8154, 8144, 8140, 8154,6.789252996444702
13, 8141, 8161, 8185, 8175, 8155, 8171, 8143, 8171, 8123, 8134, 8135, 8148, 8127, 8149,6.803952217102051
14, 8139, 8143, 8115, 8164, 8147, 8155, 8144, 8159, 8124, 8132, 8124, 8131, 8121, 8147,6.803952217102051
15, 8152, 8150, 8204, 8161, 8144, 8158, 8143, 8170, 8131, 8141, 8136, 8145, 8134, 8163,6.82001805305481
16, 8149, 8157, 8140, 8179, 8151, 8172, 8160, 8170, 8154, 8164, 8156, 8151, 8157, 8176,6.82001805305481
17, 8140, 8151, 8135, 8165, 8148, 8171, 8165, 8165, 8148, 8149, 8139, 8140, 8146, 8163,6.835521697998047
18, 8138, 8155, 8176, 8153, 8149, 8173, 8174, 8173, 8150, 8146, 8125, 8142, 8139, 8157,6.835521697998047
19, 8137, 8143, 8102, 8167, 8157, 8170, 8191, 8166, 8181, 8180, 8144, 8134, 8157, 8168,6.853378534317017
20, 8147, 8146, 8186, 8158, 8151, 8178, 8181, 8174, 8172, 8174, 8153, 8145, 8159, 8173,6.853378534317017
21, 8152, 8155, 8146, 8160, 8154, 8172, 8176, 8168, 8171, 8176, 8168, 8151, 8169, 8171,6.868004322052002
22, 8162, 8157, 8146, 8155, 8154, 8153, 8166, 8164, 8178, 8180, 8178, 8157, 8180, 8170,6.868004322052002
23, 8171, 8168, 8202, 8153, 8155, 8165, 8164, 8176, 8175, 8171, 8172, 8173, 8181, 8170,6.88155460357666
24, 8162, 8160, 8122, 8167, 8165, 8163, 8178, 8163, 8174, 8166, 8174, 8155, 8179, 8164,6.88155460357666
25, 8164, 8166, 8199, 8150, 8158, 8159, 8165, 8167, 8150, 8143, 8168, 8156, 8162, 8159,6.898361921310425
26, 8163, 8175, 8162, 8156, 8161, 8165, 8170, 8171, 8154, 8146, 8175, 8172, 8162, 8159,6.914999723434448
27, 8165, 8178, 8147, 8172, 8168, 8159, 8171, 8167, 8162, 8157, 8191, 8182, 8169, 8165,6.914999723434448
28, 8170, 8181, 8212, 8160, 8163, 8157, 8156, 8177, 8154, 8154, 8193, 8191, 8168, 8167,6.914999723434448
29, 8162, 8164, 8125, 8161, 8169, 8151, 8162, 8171, 8167, 8164, 8189, 8168, 8168, 8160,6.930301666259766
30, 8165, 8178, 8198, 8174, 8178, 8162, 8157, 8176, 8161, 8164, 8190, 8172, 8167, 8167,6.930301666259766
31, 8169, 8189, 8178, 8197, 8180, 8169, 8159, 8179, 8154, 8173, 8208, 8187, 8172, 8173,6.946769952774048
32, 8161, 8173, 8141, 8191, 8171, 8157, 8159, 8170, 8149, 8169, 8199, 8177, 8166, 8167,6.946769952774048
33, 8152, 8175, 8212, 8175, 8170, 8167, 8153, 8175, 8141, 8150, 8172, 8171, 8152, 8162,6.9602601528167725
34, 8145, 8164, 8130, 8193, 8178, 8168, 8160, 8164, 8145, 8157, 8167, 8143, 8156, 8159,6.9602601528167725
35, 8147, 8162, 8189, 8185, 8169, 8170, 8155, 8164, 8127, 8151, 8158, 8141, 8152, 8163,6.974924802780151
36, 8140, 8158, 8182, 8168, 8159, 8183, 8164, 8172, 8133, 8153, 8161, 8151, 8152, 8163,6.989915609359741
37, 8141, 8140, 8123, 8166, 8155, 8174, 8174, 8169, 8160, 8164, 8163, 8136, 8157, 8159,6.989915609359741
38, 8152, 8157, 8192, 8167, 8154, 8171, 8166, 8174, 8157, 8157, 8147, 8141, 8157, 8165,7.005344390869141
39, 8147, 8162, 8133, 8171, 8155, 8165, 8169, 8169, 8161, 8172, 8158, 8149, 8174, 8171,7.005344390869141
40, 8149, 8156, 8177, 8157, 8148, 8164, 8166, 8169, 8165, 8179, 8178, 8162, 8181, 8171,7.021398305892944
41, 8157, 8157, 8173, 8164, 8150, 8173, 8168, 8167, 8168, 8165, 8176, 8160, 8171, 8164,7.021398305892944
42, 8153, 8150, 8127, 8167, 8149, 8155, 8163, 8157, 8156, 8147, 8168, 8149, 8168, 8156,7.036929607391357
43, 8154, 8159, 8212, 8148, 8132, 8152, 8146, 8169, 8144, 8148, 8177, 8173, 8172, 8159,7.036929607391357
44, 8156, 8160, 8147, 8168, 8137, 8149, 8148, 8164, 8160, 8168, 8194, 8179, 8183, 8161,7.05237340927124
45, 8168, 8168, 8187, 8179, 8144, 8146, 8134, 8162, 8152, 8150, 8198, 8186, 8181, 8157,7.05237340927124
46, 8177, 8179, 8204, 8182, 8146, 8162, 8128, 8166, 8147, 8145, 8222, 8211, 8192, 8167,7.068039417266846
47, 8185, 8175, 8148, 8204, 8157, 8153, 8136, 8162, 8157, 8162, 8250, 8228, 8213, 8181,7.068039417266846
48, 8195, 8187, 8244, 8207, 8151, 8145, 8122, 8174, 8142, 8153, 8242, 8248, 8210, 8183,7.083140134811401
49, 8202, 8189, 8179, 8221, 8144, 8143, 8126, 8165, 8144, 8159, 8243, 8236, 8208, 8182,7.083140134811401
50, 8217, 8193, 8201, 8235, 8145, 8147, 8132, 8159, 8144, 8153, 8250, 8227, 8203, 8179,7.098302125930786
51, 8210, 8201, 8223, 8240, 8150, 8160, 8128, 8164, 8130, 8132, 8240, 8232, 8193, 8170,7.098302125930786
52, 8185, 8180, 8138, 8226, 8139, 8141, 8113, 8151, 8115, 8121, 8214, 8209, 8182, 8157,7.113046407699585
53, 8188, 8184, 8222, 8203, 8121, 8139, 8104, 8161, 8100, 8105, 8201, 8210, 8176, 8159,7.113046407699585
54, 8200, 8191, 8173, 8227, 8137, 8152, 8139, 8167, 8118, 8114, 8223, 8218, 8189, 8171,7.128075122833252
55, 8206, 8190, 8187, 8238, 8151, 8152, 8142, 8165, 8120, 8117, 8228, 8221, 8187, 8172,7.128075122833252
56, 8196, 8202, 8226, 8230, 8150, 8158, 8122, 8169, 8119, 8117, 8222, 8231, 8189, 8166,7.144154787063599
57, 8179, 8191, 8138, 8227, 8155, 8158, 8130, 8162, 8142, 8139, 8228, 8215, 8203, 8164,7.144154787063599
58, 8176, 8192, 8212, 8213, 8155, 8169, 8132, 8172, 8133, 8132, 8212, 8202, 8183, 8164,7.16023325920105
59, 8174, 8191, 8167, 8230, 8158, 8167, 8141, 8169, 8134, 8131, 8197, 8186, 8170, 8160,7.16023325920105
60, 8177, 8186, 8168, 8234, 8163, 8161, 8141, 8159, 8138, 8146, 8200, 8185, 8173, 8161,7.175939559936523
61, 8180, 8193, 8224, 8221, 8170, 8178, 8143, 8170, 8140, 8159, 8207, 8201, 8177, 8174,7.175939559936523
62, 8177, 8188, 8137, 8233, 8175, 8173, 8158, 8164, 8149, 8165, 8202, 8179, 8176, 8171,7.191425561904907
63, 8187, 8193, 8212, 8232, 8165, 8172, 8146, 8163, 8121, 8137, 8182, 8177, 8161, 8160,7.191425561904907
64, 8191, 8184, 8177, 8234, 8170, 8182, 8149, 8168, 8121, 8140, 8191, 8185, 8167, 8169,7.206947326660156
65, 8187, 8176, 8157, 8233, 8181, 8179, 8160, 8170, 8151, 8164, 8200, 8177, 8178, 8180,7.206947326660156
66, 8186, 8196, 8218, 8226, 8182, 8188, 8164, 8171, 8156, 8165, 8190, 8176, 8170, 8173,7.222596168518066
67, 8181, 8187, 8133, 8232, 8181, 8187, 8177, 8161, 8147, 8163, 8182, 8159, 8165, 8162,7.222596168518066
68, 8180, 8180, 8200, 8218, 8169, 8181, 8167, 8174, 8130, 8146, 8169, 8162, 8158, 8164,7.2381250858306885
69, 8176, 8186, 8176, 8218, 8170, 8178, 8170, 8176, 8149, 8157, 8178, 8168, 8161, 8164,7.2381250858306885
70, 8180, 8185, 8149, 8223, 8178, 8173, 8176, 8163, 8164, 8172, 8192, 8157, 8166, 8155,7.253242015838623
71, 8178, 8186, 8213, 8206, 8177, 8187, 8171, 8171, 8150, 8162, 8178, 8157, 8157, 8154,7.253242015838623
72, 8154, 8160, 8121, 8196, 8174, 8183, 8175, 8163, 8158, 8164, 8161, 8137, 8144, 8151,7.269335508346558
73, 8155, 8158, 8183, 8180, 8160, 8174, 8161, 8166, 8152, 8153, 8149, 8142, 8129, 8140,7.269335508346558
74, 8158, 8169, 8168, 8190, 8160, 8178, 8161, 8169, 8139, 8150, 8144, 8146, 8131, 8140,7.286340951919556
75, 8149, 8158, 8118, 8190, 8167, 8178, 8161, 8160, 8138, 8155, 8138, 8127, 8139, 8144,7.286340951919556
76, 8145, 8153, 8194, 8160, 8158, 8183, 8149, 8170, 8147, 8157, 8133, 8136, 8143, 8142,7.301236391067505
77, 8135, 8136, 8112, 8155, 8158, 8167, 8159, 8167, 8159, 8169, 8136, 8125, 8145, 8131,7.301236391067505
78, 8137, 8141, 8162, 8152, 8158, 8170, 8161, 8171, 8141, 8153, 8120, 8119, 8127, 8126,7.31738018989563
79, 8149, 8156, 8166, 8164, 8157, 8187, 8169, 8172, 8150, 8151, 8120, 8130, 8128, 8128,7.331913709640503
80, 8153, 8145, 8113, 8166, 8148, 8167, 8168, 8162, 8175, 8160, 8134, 8128, 8145, 8125,7.331913709640503
81, 8152, 8145, 8198, 8148, 8140, 8167, 8152, 8171, 8162, 8156, 8134, 8142, 8142, 8131,7.331913709640503
82, 8154, 8146, 8122, 8160, 8152, 8174, 8171, 8168, 8172, 8176, 8138, 8144, 8148, 8147,7.347265958786011
83, 8162, 8153, 8162, 8158, 8152, 8164, 8176, 8168, 8181, 8178, 8140, 8149, 8155, 8157,7.347265958786011
84, 8159, 8163, 8175, 8153, 8145, 8158, 8167, 8175, 8179, 8175, 8150, 8156, 8159, 8161,7.364287614822388
85, 8156, 8151, 8104, 8149, 8144, 8146, 8161, 8168, 8180, 8178, 8153, 8147, 8158, 8155,7.364287614822388
86, 8159, 8150, 8192, 8124, 8138, 8156, 8153, 8177, 8176, 8164, 8140, 8157, 8148, 8148,7.380297899246216
87, 8156, 8149, 8132, 8137, 8138, 8158, 8163, 8165, 8191, 8173, 8153, 8161, 8160, 8148,7.380297899246216
88, 8168, 8159, 8161, 8146, 8134, 8144, 8152, 8162, 8176, 8164, 8162, 8169, 8164, 8151,7.394662857055664
89, 8173, 8170, 8189, 8134, 8138, 8146, 8143, 8176, 8156, 8149, 8148, 8176, 8151, 8151,7.394662857055664
90, 8168, 8158, 8118, 8133, 8152, 8145, 8152, 8165, 8165, 8155, 8153, 8166, 8153, 8145,7.411242246627808
91, 8174, 8167, 8210, 8131, 8155, 8156, 8152, 8172, 8163, 8151, 8172, 8187, 8166, 8147,7.411242246627808
92, 8166, 8167, 8150, 8145, 8158, 8158, 8164, 8172, 8170, 8152, 8176, 8180, 8164, 8145,7.427274465560913
93, 8162, 8168, 8159, 8151, 8157, 8143, 8155, 8166, 8163, 8138, 8163, 8158, 8141, 8136,7.427274465560913
94, 8170, 8185, 8202, 8160, 8158, 8155, 8151, 8174, 8158, 8142, 8171, 8166, 8144, 8143,7.443248271942139
95, 8161, 8170, 8123, 8173, 8163, 8160, 8165, 8168, 8165, 8163, 8176, 8149, 8150, 8144,7.458179712295532
96, 8150, 8174, 8201, 8161, 8162, 8168, 8157, 8172, 8148, 8144, 8153, 8141, 8127, 8135,7.458179712295532
97, 8152, 8181, 8153, 8176, 8174, 8172, 8170, 8171, 8156, 8155, 8162, 8142, 8138, 8142,7.458179712295532
98, 8161, 8173, 8156, 8175, 8178, 8174, 8185, 8170, 8161, 8179, 8176, 8144, 8163, 8157,7.473814487457275
99, 8152, 8173, 8201, 8158, 8167, 8191, 8191, 8172, 8153, 8169, 8154, 8143, 8155, 8152,7.473814487457275
100, 8142, 8158, 8114, 8169, 8168, 8183, 8200, 8160, 8163, 8163, 8136, 8123, 8140, 8145,7.4902966022491455
101, 8162, 8162, 8200, 8173, 8173, 8181, 8194, 8175, 8165, 8161, 8138, 8141, 8136, 8165,7.4902966022491455
102, 8166, 8164, 8164, 8174, 8177, 8189, 8208, 8183, 8191, 8183, 8163, 8160, 8161, 8187,7.505050182342529
103, 8156, 8152, 8144, 8152, 8169, 8181, 8211, 8173, 8208, 8193, 8160, 8148, 8166, 8183,7.505050182342529
104, 8158, 8158, 8197, 8136, 8162, 8176, 8191, 8170, 8193, 8176, 8137, 8142, 8141, 8168,7.520191192626953
105, 8163, 8150, 8113, 8144, 8163, 8158, 8182, 8162, 8186, 8172, 8141, 8142, 8143, 8166,7.520191192626953
106, 8172, 8159, 8193, 8133, 8155, 8161, 8175, 8173, 8173, 8161, 8146, 8169, 8147, 8173,7.5379698276519775
107, 8165, 8172, 8169, 8142, 8164, 8169, 8179, 8171, 8168, 8156, 8148, 8163, 8143, 8163,7.5379698276519775
108, 8162, 8171, 8138, 8150, 8169, 8145, 8162, 8153, 8154, 8137, 8140, 8139, 8135, 8140,7.554004192352295
109, 8171, 8173, 8207, 8139, 8152, 8144, 8144, 8164, 8142, 8122, 8141, 8158, 8134, 8143,7.554004192352295
110, 8165, 8153, 8124, 8136, 8147, 8149, 8151, 8163, 8154, 8137, 8152, 8158, 8140, 8146,7.569544553756714
111, 8162, 8157, 8179, 8118, 8147, 8147, 8139, 8165, 8136, 8112, 8134, 8148, 8124, 8131,7.569544553756714
112, 8161, 8169, 8164, 8122, 8154, 8154, 8148, 8172, 8142, 8114, 8131, 8141, 8124, 8127,7.583445310592651
113, 8162, 8162, 8132, 8134, 8162, 8153, 8161, 8169, 8159, 8147, 8151, 8137, 8141, 8137,7.583445310592651
114, 8161, 8169, 8209, 8128, 8157, 8153, 8149, 8173, 8141, 8139, 8152, 8155, 8142, 8139,7.599034786224365
115, 8153, 8161, 8126, 8129, 8155, 8142, 8159, 8166, 8150, 8129, 8144, 8150, 8140, 8131,7.599034786224365
116, 8155, 8164, 8178, 8117, 8152, 8141, 8153, 8171, 8157, 8125, 8138, 8147, 8134, 8133,7.61516547203064
117, 8158, 8176, 8177, 8127, 8152, 8154, 8149, 8170, 8152, 8136, 8138, 8150, 8133, 8132,7.616163969039917
118, 8164, 8168, 8130, 8141, 8153, 8152, 8160, 8158, 8145, 8147, 8141, 8148, 8135, 8126,7.631338834762573
119, 8174, 8173, 8220, 8129, 8155, 8165, 8158, 8170, 8132, 8135, 8144, 8169, 8136, 8135,7.646913528442383
120, 8168, 8164, 8137, 8141, 8165, 8169, 8165, 8165, 8140, 8135, 8143, 8155, 8138, 8144,7.646913528442383
121, 8152, 8150, 8161, 8131, 8155, 8174, 8176, 8167, 8139, 8141, 8110, 8129, 8122, 8141,7.646913528442383
122, 8133, 8143, 8174, 8119, 8140, 8177, 8187, 8179, 8140, 8152, 8087, 8123, 8114, 8132,7.662169456481934
123, 8134, 8141, 8121, 8135, 8146, 8161, 8178, 8172, 8143, 8150, 8090, 8110, 8119, 8127,7.676722049713135
124, 8148, 8162, 8204, 8141, 8160, 8180, 8169, 8174, 8138, 8139, 8091, 8118, 8114, 8135,7.676722049713135
125, 8140, 8154, 8131, 8150, 8166, 8190, 8191, 8166, 8157, 8160, 8096, 8120, 8115, 8136,7.692356824874878
126, 8141, 8144, 8161, 8142, 8151, 8175, 8176, 8166, 8145, 8153, 8091, 8116, 8112, 8129,7.692356824874878
127, 8152, 8159, 8188, 8151, 8153, 8174, 8164, 8174, 8135, 8144, 8097, 8123, 8124, 8135,7.707965135574341
236, 8153, 8160, 8121, 8176, 8166, 8166, 8186, 8166, 8156, 8164, 8122, 8125, 8146, 8149,7.707965135574341
0, 8161, 8169, 8213, 8172, 8161, 8171, 8182, 8178, 8156, 8161, 8136, 8155, 8157, 8163,7.707965135574341
1, 8161, 8166, 8153, 8181, 8163, 8175, 8183, 8173, 8158, 8172, 8146, 8161, 8174, 8167,7.724023342132568
2, 8154, 8163, 8158, 8184, 8163, 8169, 8175, 8159, 8143, 8172, 8137, 8148, 8164, 8157,7.724023342132568
3, 8154, 8172, 8192, 8178, 8155, 8173, 8166, 8167, 8133, 8156, 8134, 8148, 8152, 8153,7.739933013916016
4, 8163, 8166, 8118, 8174, 8152, 8158, 8169, 8171, 8157, 8167, 8150, 8140, 8173, 8158,7.754968881607056
5, 8175, 8178, 8199, 8166, 8154, 8156, 8159, 8177, 8160, 8175, 8159, 8152, 8183, 8165,7.754968881607056
6, 8173, 8185, 8155, 8187, 8165, 8157, 8162, 8163, 8158, 8182, 8168, 8156, 8186, 8166,7.770244121551514
7, 8177, 8184, 8163, 8189, 8152, 8148, 8158, 8153, 8144, 8160, 8156, 8155, 8183, 8163,7.770244121551514
8, 8184, 8192, 8208, 8181, 8144, 8163, 8157, 8168, 8134, 8152, 8144, 8169, 8174, 8165,7.785368919372559
9, 8171, 8169, 8119, 8181, 8153, 8159, 8163, 8163, 8140, 8166, 8153, 8154, 8172, 8162,7.785368919372559
10, 8157, 8166, 8193, 8145, 8129, 8144, 8138, 8162, 8114, 8129, 8135, 8142, 8158, 8142,7.801464796066284
11, 8159, 8189, 8157, 8155, 8108, 8149, 8139, 8158, 8113, 8119, 8123, 8140, 8160, 8136,7.801464796066284
12, 8177, 8187, 8150, 8175, 8093, 8156, 8148, 8161, 8134, 8133, 8139, 8154, 8173, 8144,7.8164331912994385
13, 8186, 8175, 8204, 8163, 8113, 8163, 8150, 8180, 8147, 8122, 8156, 8173, 8174, 8149,7.8164331912994385
14, 8187, 8185, 8120, 8192, 8209, 8146, 8163, 8170, 8154, 8137, 8169, 8159, 8177, 8154,7.8324408531188965
15, 8183, 8211, 8192, 8193, 8176, 8140, 8142, 8166, 8116, 8139, 8146, 8154, 8167, 8142,7.8324408531188965
16, 8172, 8188, 8161, 8164, 8038, 8152, 8134, 8167, 8102, 8128, 8129, 8148, 8161, 8133,7.848006248474121
17, 8197, 8181, 8152, 8183, 8098, 8156, 8154, 8171, 8144, 8139, 8156, 8163, 8174, 8163,7.848006248474121
18, 8221, 8219, 8234, 8227, 8248, 8160, 8163, 8183, 8170, 8163, 8188, 8201, 8183, 8187,7.863641262054443
19, 8190, 8197, 8133, 8206, 8218, 8141, 8154, 8167, 8158, 8165, 8179, 8175, 8178, 8157,7.863641262054443
20, 8174, 8172, 8184, 8145, 8154, 8140, 8138, 8167, 8134, 8148, 8157, 8157, 8163, 8138,7.879413366317749
21, 8192, 8182, 8180, 8162, 8207, 8155, 8152, 8171, 8149, 8163, 8169, 8170, 8173, 8156,7.879413366317749
22, 8199, 8182, 8149, 8193, 8242, 8149, 8160, 8164, 8156, 8155, 8170, 8169, 8180, 8163,7.89429235458374
23, 8189, 8178, 8216, 8162, 8242, 8151, 8158, 8178, 8141, 8135, 8149, 8174, 8169, 8165,7.89429235458374
24, 8177, 8153, 8129, 8142, 8256, 8140, 8171, 8177, 8155, 8173, 8154, 8159, 8173, 8165,7.909974098205566
25, 8191, 8160, 8187, 8154, 8268, 8147, 8161, 8179, 8161, 8183, 8173, 8167, 8180, 8173,7.909974098205566
26, 8197, 8179, 8188, 8182, 8287, 8167, 8167, 8181, 8166, 8168, 8187, 8186, 8179, 8185,7.924996852874756
27, 8183, 8158, 8137, 8160, 8272, 8152, 8180, 8169, 8160, 8170, 8171, 8165, 8163, 8177,7.924996852874756
28, 8177, 8154, 8212, 8124, 8257, 8161, 8177, 8178, 8151, 8172, 8150, 8159, 8155, 8165,7.9403605461120605
29, 8165, 8145, 8127, 8149, 8285, 8173, 8181, 8177, 8164, 8174, 8149, 8146, 8158, 8157,7.9403605461120605
30, 8160, 8145, 8171, 8156, 8282, 8165, 8169, 8177, 8156, 8163, 8145, 8142, 8142, 8156,7.9561803340911865
31, 8162, 8158, 8191, 8152, 8261, 8161, 8170, 8181, 8166, 8180, 8154, 8153, 8151, 8166,7.9561803340911865
32, 8162, 8149, 8129, 8152, 8254, 8149, 8173, 8167, 8174, 8184, 8146, 8143, 8158, 8164,7.971359968185425
33, 8163, 8144, 8202, 8136, 8233, 8159, 8160, 8171, 8144, 8149, 8112, 8135, 8129, 8151,7.971359968185425
34, 8160, 8138, 8134, 8151, 8229, 8174, 8183, 8169, 8158, 8157, 8106, 8121, 8122, 8149,7.987471580505371
35, 8164, 8143, 8165, 8159, 8234, 8183, 8195, 8168, 8173, 8174, 8111, 8125, 8132, 8160,7.987471580505371
36, 8169, 8147, 8189, 8152, 8227, 8188, 8192, 8171, 8165, 8183, 8121, 8145, 8145, 8166,8.00302267074585
37, 8168, 8131, 8123, 8143, 8209, 8170, 8189, 8167, 8164, 8182, 8120, 8131, 8142, 8161,8.00302267074585
38, 8167, 8136, 8194, 8126, 8194, 8174, 8182, 8177, 8151, 8157, 8093, 8123, 8122, 8159,8.019059419631958
39, 8158, 8127, 8121, 8130, 8197, 8177, 8195, 8166, 8150, 8159, 8087, 8114, 8123, 8160,8.019059419631958
40, 8158, 8115, 8140, 8115, 8188, 8165, 8188, 8159, 8144, 8158, 8090, 8112, 8126, 8159,8.042343378067017
41, 8159, 8125, 8182, 8107, 8175, 8167, 8180, 8172, 8147, 8158, 8088, 8121, 8124, 8164,8.042343378067017
42, 8159, 8126, 8116, 8130, 8173, 8168, 8189, 8168, 8165, 8182, 8097, 8120, 8134, 8168,8.042343378067017
43, 8174, 8143, 8209, 8146, 8175, 8174, 8177, 8172, 8163, 8187, 8106, 8142, 8142, 8173,8.049344539642334
44, 8173, 8152, 8151, 8166, 8184, 8169, 8177, 8169, 8177, 8196, 8113, 8142, 8142, 8173,8.06535267829895
45, 8169, 8149, 8143, 8153, 8171, 8165, 8176, 8164, 8175, 8190, 8104, 8134, 8130, 8159,8.06535267829895
46, 8165, 8151, 8191, 8133, 8154, 8179, 8168, 8170, 8160, 8169, 8095, 8137, 8122, 8152,8.081118106842041
47, 8155, 8134, 8111, 8143, 8155, 8164, 8162, 8161, 8162, 8165, 8101, 8116, 8128, 8146,8.081118106842041
48, 8154, 8141, 8184, 8128, 8151, 8164, 8149, 8167, 8145, 8145, 8101, 8130, 8125, 8137,8.096856832504272
49, 8151, 8154, 8139, 8129, 8157, 8177, 8167, 8165, 8149, 8146, 8108, 8141, 8129, 8142,8.096856832504272
50, 8163, 8155, 8137, 8144, 8158, 8166, 8171, 8164, 8160, 8160, 8117, 8136, 8132, 8154,8.111957550048828
51, 8186, 8169, 8206, 8149, 8158, 8172, 8161, 8179, 8162, 8163, 8126, 8159, 8145, 8162,8.111957550048828
52, 8187, 8166, 8126, 8154, 8172, 8172, 8165, 8168, 8171, 8157, 8145, 8164, 8168, 8159,8.128080606460571
53, 8184, 8176, 8200, 8144, 8171, 8169, 8155, 8164, 8144, 8130, 8135, 8163, 8151, 8150,8.128080606460571
54, 8182, 8179, 8171, 8154, 8168, 8173, 8159, 8162, 8128, 8133, 8124, 8153, 8128, 8142,8.144276857376099
55, 8175, 8167, 8141, 8152, 8163, 8166, 8159, 8160, 8128, 8128, 8120, 8138, 8121, 8134,8.144276857376099
56, 8168, 8176, 8204, 8149, 8157, 8175, 8153, 8173, 8118, 8106, 8118, 8142, 8115, 8133,8.160002708435059
57, 8168, 8172, 8124, 8173, 8167, 8175, 8161, 8162, 8114, 8121, 8129, 8133, 8124, 8133,8.175052404403687
58, 8171, 8171, 8191, 8169, 8174, 8177, 8148, 8163, 8105, 8125, 8134, 8139, 8130, 8137,8.175052404403687
59, 8162, 8165, 8174, 8165, 8175, 8187, 8148, 8169, 8124, 8134, 8132, 8141, 8136, 8142,8.175052404403687
60, 8162, 8151, 8132, 8169, 8169, 8182, 8158, 8167, 8135, 8144, 8117, 8128, 8131, 8145,8.191342830657959
61, 8170, 8162, 8200, 8164, 8160, 8184, 8163, 8175, 8127, 8143, 8114, 8138, 8129, 8152,8.191342830657959
62, 8176, 8157, 8121, 8171, 8167, 8182, 8182, 8166, 8156, 8164, 8134, 8141, 8154, 8161,8.206374168395996
63, 8188, 8157, 8184, 8163, 8168, 8181, 8175, 8165, 8164, 8157, 8128, 8154, 8160, 8167,8.206374168395996
64, 8178, 8160, 8175, 8159, 8155, 8173, 8161, 8169, 8150, 8145, 8123, 8159, 8153, 8162,8.223111391067505
65, 8159, 8141, 8111, 8135, 8135, 8152, 8154, 8162, 8142, 8142, 8122, 8141, 8152, 8143,8.223111391067505
66, 8161, 8145, 8191, 8105, 8133, 8163, 8140, 8169, 8144, 8130, 8124, 8156, 8157, 8140,8.238373756408691
67, 8171, 8158, 8124, 8131, 8149, 8164, 8145, 8163, 8165, 8142, 8156, 8167, 8176, 8151,8.238373756408691
68, 8189, 8175, 8176, 8148, 8151, 8156, 8144, 8171, 8151, 8144, 8171, 8185, 8174, 8154,8.2549409866333
69, 8188, 8176, 8192, 8150, 8156, 8165, 8150, 8176, 8132, 8142, 8159, 8187, 8161, 8152,8.2549409866333
70, 8176, 8160, 8131, 8153, 8167, 8161, 8153, 8157, 8124, 8136, 8153, 8165, 8154, 8141,8.271328926086426
71, 8182, 8175, 8209, 8148, 8169, 8171, 8148, 8170, 8111, 8124, 8161, 8189, 8153, 8139,8.271328926086426
72, 8178, 8178, 8142, 8166, 8174, 8174, 8165, 8175, 8132, 8146, 8173, 8193, 8163, 8150,8.285251379013062
73, 8171, 8178, 8178, 8176, 8173, 8170, 8155, 8167, 8137, 8147, 8160, 8168, 8153, 8155,8.300278186798096
74, 8176, 8183, 8201, 8187, 8169, 8180, 8146, 8166, 8124, 8142, 8149, 8162, 8145, 8148,8.300278186798096
75, 8183, 8163, 8132, 8193, 8172, 8178, 8158, 8166, 8129, 8158, 8160, 8164, 8153, 8154,8.316100120544434
76, 8186, 8165, 8211, 8175, 8170, 8189, 8155, 8182, 8129, 8149, 8158, 8177, 8148, 8171,8.316100120544434
77, 8171, 8166, 8137, 8187, 8172, 8196, 8156, 8171, 8138, 8153, 8141, 8159, 8140, 8161,8.33121109008789
78, 8168, 8156, 8145, 8180, 8164, 8190, 8147, 8164, 8141, 8163, 8127, 8152, 8138, 8152,8.33121109008789
79, 8178, 8158, 8181, 8161, 8157, 8188, 8144, 8176, 8148, 8157, 8140, 8177, 8151, 8168,8.346252918243408
80, 8177, 8155, 8115, 8165, 8162, 8170, 8145, 8165, 8156, 8156, 8157, 8182, 8164, 8173,8.346252918243408
81, 8174, 8162, 8192, 8154, 8148, 8165, 8129, 8166, 8145, 8153, 8155, 8190, 8158, 8168,8.364212036132812
82, 8169, 8161, 8135, 8157, 8142, 8163, 8136, 8167, 8155, 8159, 8164, 8184, 8164, 8170,8.364212036132812
83, 8184, 8171, 8151, 8162, 8153, 8156, 8137, 8167, 8155, 8151, 8171, 8188, 8170, 8172,8.364212036132812
84, 8193, 8186, 8204, 8165, 8165, 8169, 8141, 8173, 8141, 8145, 8181, 8209, 8172, 8170,8.3799409866333
85, 8169, 8165, 8119, 8172, 8168, 8169, 8152, 8162, 8127, 8144, 8183, 8177, 8167, 8153,8.3799409866333
86, 8154, 8169, 8194, 8164, 8163, 8171, 8140, 8167, 8097, 8127, 8149, 8148, 8141, 8138,8.394125938415527
87, 8155, 8169, 8150, 8178, 8169, 8184, 8149, 8171, 8110, 8155, 8141, 8144, 8141, 8143,8.408263206481934
88, 8161, 8155, 8138, 8187, 8169, 8186, 8155, 8170, 8127, 8174, 8155, 8147, 8154, 8151,8.408263206481934
89, 8159, 8167, 8194, 8182, 8161, 8189, 8159, 8175, 8128, 8168, 8153, 8152, 8154, 8152,8.424284219741821
90, 8151, 8160, 8115, 8181, 8162, 8178, 8187, 8169, 8161, 8188, 8155, 8134, 8155, 8154,8.424284219741821
91, 8166, 8163, 8194, 8172, 8162, 8189, 8191, 8182, 8186, 8197, 8165, 8147, 8159, 8167,8.440003871917725
92, 8182, 8175, 8164, 8182, 8170, 8198, 8188, 8184, 8202, 8211, 8177, 8166, 8179, 8174,8.440003871917725
93, 8181, 8167, 8134, 8173, 8164, 8177, 8180, 8173, 8193, 8209, 8169, 8160, 8184, 8166,8.455068588256836
94, 8172, 8170, 8199, 8152, 8156, 8174, 8174, 8177, 8170, 8186, 8155, 8165, 8171, 8161,8.455068588256836
95, 8173, 8169, 8122, 8162, 8165, 8165, 8176, 8169, 8171, 8180, 8161, 8162, 8173, 8162,8.470179080963135
96, 8187, 8173, 8192, 8157, 8158, 8154, 8153, 8175, 8159, 8165, 8160, 8177, 8167, 8163,8.470179080963135
97, 8184, 8171, 8175, 8159, 8156, 8159, 8156, 8173, 8157, 8172, 8163, 8187, 8172, 8171,8.486231803894043
98, 8178, 8170, 8141, 8160, 8165, 8156, 8168, 8164, 8155, 8183, 8177, 8184, 8176, 8175,8.486231803894043
99, 8177, 8187, 8208, 8151, 8162, 8160, 8158, 8177, 8141, 8169, 8181, 8195, 8165, 8167,8.502298355102539
100, 8177, 8181, 8125, 8170, 8162, 8155, 8159, 8165, 8150, 8170, 8181, 8187, 8168, 8163,8.502298355102539
101, 8190, 8182, 8189, 8165, 8163, 8159, 8155, 8161, 8147, 8164, 8182, 8196, 8172, 8168,8.518316268920898
102, 8181, 8183, 8184, 8150, 8165, 8163, 8155, 8173, 8154, 8175, 8198, 8200, 8178, 8166,8.518316268920898
103, 8164, 8175, 8134, 8152, 8167, 8150, 8155, 8173, 8150, 8177, 8193, 8177, 8171, 8156,8.534108877182007
104, 8168, 8191, 8214, 8160, 8169, 8164, 8146, 8174, 8123, 8149, 8165, 8182, 8149, 8157,8.534108877182007
105, 8163, 8186, 8135, 8172, 8173, 8170, 8153, 8162, 8129, 8161, 8165, 8171, 8149, 8159,8.549123048782349
106, 8151, 8173, 8172, 8155, 8162, 8171, 8153, 8165, 8123, 8170, 8155, 8155, 8142, 8153,8.549123048782349
107, 8148, 8165, 8173, 8154, 8159, 8190, 8167, 8168, 8121, 8167, 8139, 8149, 8134, 8149,8.564241886138916
108, 8152, 8149, 8115, 8169, 8160, 8189, 8183, 8162, 8142, 8178, 8137, 8138, 8141, 8155,8.564241886138916
109, 8162, 8166, 8201, 8164, 8159, 8187, 8174, 8175, 8147, 8176, 8133, 8151, 8138, 8168,8.57985806465149
110, 8163, 8164, 8130, 8154, 8160, 8173, 8167, 8164, 8157, 8176, 8139, 8155, 8138, 8165,8.57985806465149
111, 8163, 8155, 8155, 8121, 8128, 8154, 8144, 8156, 8146, 8159, 8141, 8163, 8139, 8151,8.595380783081055
112, 8172, 8177, 8186, 8138, 8123, 8160, 8141, 8170, 8141, 8153, 8150, 8178, 8149, 8157,8.595380783081055
113, 8179, 8184, 8136, 8173, 8154, 8160, 8150, 8167, 8147, 8160, 8164, 8174, 8149, 8161,8.610911846160889
114, 8166, 8172, 8209, 8132, 8144, 8157, 8127, 8168, 8127, 8146, 8159, 8179, 8128, 8147,8.610911846160889
115, 8145, 8170, 8130, 8121, 8135, 8149, 8128, 8163, 8126, 8148, 8156, 8161, 8129, 8135,8.626938819885254
116, 8151, 8185, 8156, 8151, 8150, 8160, 8149, 8173, 8136, 8150, 8150, 8144, 8133, 8136,8.626938819885254
117, 8141, 8167, 8193, 8154, 8153, 8189, 8171, 8183, 8151, 8155, 8139, 8141, 8121, 8138,8.642999172210693
118, 8120, 8130, 8110, 8134, 8151, 8182, 8180, 8167, 8159, 8167, 8125, 8119, 8117, 8133,8.642999172210693
119, 8133, 8151, 8189, 8127, 8150, 8180, 8166, 8176, 8141, 8159, 8117, 8133, 8123, 8141,8.659088611602783
120, 8143, 8160, 8138, 8155, 8139, 8172, 8168, 8172, 8153, 8163, 8136, 8145, 8126, 8152,8.659088611602783
121, 8141, 8144, 8145, 8138, 8121, 8146, 8151, 8156, 8155, 8154, 8132, 8144, 8117, 8139,8.67437219619751
122, 8143, 8148, 8188, 8111, 8122, 8142, 8136, 8166, 8140, 8149, 8124, 8154, 8127, 8129,8.67437219619751
123, 8152, 8151, 8114, 8135, 8143, 8134, 8138, 8164, 8142, 8166, 8150, 8152, 8141, 8140,8.690109729766846
124, 8158, 8170, 8197, 8131, 8143, 8143, 8110, 8164, 8119, 8140, 8156, 8161, 8129, 8146,8.690109729766846
125, 8140, 8168, 8148, 8118, 8146, 8155, 8103, 8161, 8110, 8125, 8144, 8150, 8117, 8126,8.705167770385742
126, 8141, 8167, 8145, 8145, 8217, 8156, 8120, 8166, 8132, 8144, 8146, 8145, 8120, 8121,8.705167770385742
127, 8160, 8189, 8213, 8178, 8306, 8173, 8128, 8179, 8149, 8162, 8160, 8164, 8132, 8148,8.721585273742676
236, 8142, 8154, 8121, 8159, 8324, 8171, 8134, 8166, 8154, 8169, 8161, 8146, 8139, 8152,8.721585273742676
0, 8126, 8141, 8181, 8130, 8334, 8174, 8137, 8175, 8148, 8163, 8141, 8147, 8125, 8139,8.737645864486694
1, 8136, 8164, 8154, 8164, 8408, 8190, 8157, 8177, 8167, 8180, 8136, 8151, 8121, 8146,8.737645864486694
2, 8150, 8157, 8138, 8163, 8445, 8185, 8158, 8163, 8170, 8185, 8145, 8144, 8124, 8157,8.753341674804688
3, 8153, 8150, 8202, 8128, 8438, 8175, 8144, 8170, 8161, 8176, 8156, 8162, 8128, 8158,8.753341674804688
4, 8146, 8145, 8119, 8135, 8459, 8160, 8148, 8166, 8168, 8181, 8163, 8159, 8140, 8150,8.768375873565674
5, 8155, 8147, 8185, 8127, 8471, 8169, 8140, 8168, 8161, 8173, 8155, 8163, 8141, 8156,8.768375873565674
6, 8163, 8149, 8168, 8132, 8472, 8176, 8149, 8169, 8182, 8192, 8174, 8176, 8155, 8175,8.783902406692505
7, 8168, 8155, 8137, 8152, 8468, 8155, 8157, 8168, 8196, 8204, 8196, 8180, 8162, 8179,8.783902406692505
8, 8173, 8173, 8209, 8147, 8455, 8160, 8153, 8179, 8176, 8186, 8194, 8194, 8146, 8171,8.799011945724487
9, 8168, 8163, 8128, 8154, 8449, 8165, 8165, 8167, 8178, 8184, 8195, 8184, 8142, 8157,8.799011945724487
10, 8164, 8165, 8181, 8153, 8427, 8159, 8153, 8162, 8164, 8165, 8186, 8178, 8126, 8142,8.814295530319214
11, 8158, 8170, 8167, 8158, 8392, 8163, 8146, 8162, 8152, 8161, 8183, 8179, 8121, 8142,8.814295530319214
12, 8158, 8153, 8126, 8162, 8354, 8154, 8144, 8160, 8148, 8167, 8184, 8170, 8128, 8148,8.829882621765137
13, 8165, 8158, 8207, 8150, 8328, 8156, 8135, 8171, 8128, 8147, 8170, 8172, 8117, 8150,8.829882621765137
14, 8156, 8153, 8120, 8152, 8317, 8161, 8153, 8165, 8142, 8154, 8166, 8154, 8114, 8146,8.845020055770874
15, 8146, 8151, 8169, 8154, 8293, 8174, 8160, 8171, 8155, 8165, 8163, 8145, 8116, 8142,8.845020055770874
16, 8142, 8162, 8186, 8177, 8279, 8193, 8170, 8184, 8161, 8172, 8164, 8146, 8121, 8142,8.86026120185852
17, 8154, 8164, 8130, 8196, 8274, 8191, 8185, 8174, 8166, 8183, 8166, 8143, 8126, 8155,8.86026120185852
18, 8176, 8180, 8213, 8189, 8258, 8200, 8186, 8172, 8157, 8180, 8157, 8165, 8125, 8169,8.876361608505249
19, 8165, 8166, 8140, 8188, 8240, 8197, 8192, 8164, 8156, 8175, 8146, 8157, 8124, 8159,8.876361608505249
20, 8152, 8152, 8166, 8171, 8221, 8188, 8182, 8162, 8141, 8167, 8134, 8147, 8115, 8147,8.892952919006348
21, 8160, 8172, 8186, 8180, 8216, 8201, 8192, 8168, 8156, 8187, 8149, 8158, 8127, 8161,8.892952919006348
22, 8170, 8168, 8129, 8194, 8207, 8192, 8208, 8171, 8189, 8207, 8167, 8159, 8150, 8178,8.908050060272217
23, 8177, 8166, 8214, 8168, 8184, 8189, 8192, 8187, 8186, 8194, 8165, 8179, 8159, 8192,8.908050060272217
24, 8177, 8166, 8148, 8169, 8176, 8184, 8197, 8174, 8200, 8207, 8178, 8181, 8172, 8204,8.924610137939453
25, 8185, 8177, 8172, 8172, 8169, 8175, 8193, 8167, 8205, 8204, 8182, 8180, 8169, 8203,8.924610137939453
26, 8188, 8193, 8209, 8177, 8169, 8182, 8180, 8179, 8192, 8184, 8181, 8188, 8160, 8192,8.940597534179688
27, 8178, 8178, 8132, 8186, 8174, 8166, 8180, 8167, 8185, 8184, 8176, 8164, 8159, 8180,8.940597534179688
28, 8170, 8172, 8200, 8160, 8149, 8155, 8174, 8171, 8166, 8165, 8152, 8162, 8144, 8171,8.954298496246338
29, 8164, 8171, 8143, 8156, 8133, 8155, 8183, 8175, 8168, 8159, 8154, 8165, 8135, 8159,8.971914052963257
30, 8178, 8184, 8163, 8166, 8144, 8163, 8174, 8171, 8170, 8155, 8164, 8167, 8138, 8157,8.971914052963257
31, 8188, 8203, 8211, 8172, 8152, 8174, 8161, 8173, 8173, 8158, 8172, 8183, 8153, 8166,8.984936714172363
32, 8181, 8190, 8134, 8180, 8147, 8156, 8161, 8161, 8173, 8171, 8193, 8179, 8167, 8168,8.984936714172363
