COUNTER,F3,FC5,AF3,F7,T7,P7,O1,O2,P8,T8,F8,AF4,FC6,F4,Timestamp
21, 8172, 8156, 8129, 8182, 8157, 8169, 8203, 8178, 8188, 8189, 8181, 8149, 8197, 8186,0.013041019439697266
22, 8188, 8176, 8211, 8179, 8165, 8171, 8191, 8175, 8196, 8188, 8185, 8168, 8200, 8197,0.02860116958618164
23, 8183, 8167, 8146, 8192, 8171, 8171, 8200, 8171, 8202, 8202, 8186, 8160, 8202, 8193,0.02860116958618164
24, 8180, 8160, 8173, 8182, 8166, 8165, 8199, 8176, 8194, 8195, 8178, 8151, 8188, 8171,0.04388093948364258
25, 8183, 8165, 8165, 8169, 8168, 8160, 8198, 8180, 8200, 8194, 8181, 8156, 8191, 8168,0.04388093948364258
26, 8189, 8160, 8131, 8174, 8174, 8148, 8188, 8165, 8208, 8207, 8200, 8159, 8206, 8175,0.059726715087890625
27, 8195, 8170, 8216, 8175, 8166, 8154, 8160, 8164, 8179, 8193, 8203, 8172, 8198, 8171,0.059726715087890625
28, 8182, 8161, 8145, 8171, 8166, 8151, 8153, 8160, 8161, 8176, 8198, 8158, 8192, 8163,0.07484769821166992
29, 8173, 8154, 8163, 8140, 8162, 8141, 8141, 8158, 8146, 8143, 8185, 8151, 8185, 8150,0.07484769821166992
30, 8187, 8179, 8189, 8154, 8165, 8158, 8154, 8172, 8144, 8134, 8188, 8170, 8189, 8157,0.09101343154907227
31, 8203, 8198, 8154, 8212, 8187, 8171, 8189, 8173, 8159, 8165, 8215, 8180, 8208, 8181,0.09101343154907227
32, 8204, 8197, 8227, 8216, 8192, 8188, 8195, 8179, 8158, 8177, 8223, 8189, 8209, 8189,0.10617470741271973
33, 8186, 8171, 8159, 8199, 8186, 8198, 8206, 8176, 8175, 8201, 8210, 8169, 8204, 8179,0.10617470741271973
34, 8183, 8167, 8178, 8199, 8189, 8201, 8217, 8176, 8191, 8217, 8196, 8159, 8206, 8189,0.12175846099853516
35, 8195, 8181, 8207, 8204, 8193, 8206, 8221, 8184, 8202, 8211, 8202, 8171, 8220, 8207,0.12175846099853516
36, 8192, 8158, 8131, 8183, 8181, 8176, 8207, 8170, 8206, 8198, 8209, 8164, 8221, 8191,0.13689088821411133
37, 8189, 8158, 8204, 8159, 8167, 8161, 8179, 8170, 8186, 8178, 8198, 8177, 8211, 8176,0.1515347957611084
38, 8193, 8175, 8160, 8179, 8177, 8164, 8184, 8171, 8184, 8178, 8212, 8184, 8217, 8178,0.1515347957611084
39, 8196, 8181, 8162, 8174, 8183, 8161, 8181, 8169, 8174, 8161, 8227, 8180, 8207, 8163,0.16665291786193848
40, 8181, 8186, 8195, 8165, 8186, 8171, 8172, 8177, 8163, 8154, 8214, 8183, 8184, 8148,0.16665291786193848
41, 8159, 8172, 8126, 8192, 8195, 8170, 8174, 8166, 8166, 8175, 8199, 8165, 8180, 8144,0.18528199195861816
42, 8165, 8176, 8203, 8194, 8190, 8173, 8164, 8169, 8155, 8172, 8200, 8166, 8181, 8143,0.18528199195861816
43, 8177, 8178, 8165, 8191, 8189, 8183, 8178, 8171, 8158, 8178, 8205, 8177, 8191, 8150,0.18528199195861816
44, 8180, 8168, 8155, 8192, 8193, 8188, 8189, 8163, 8141, 8168, 8174, 8167, 8184, 8153,0.19820189476013184
45, 8167, 8160, 8195, 8185, 8191, 8198, 8186, 8172, 8121, 8144, 8142, 8142, 8158, 8149,0.21364665031433105
46, 8161, 8146, 8123, 8184, 8192, 8193, 8205, 8171, 8160, 8167, 8158, 8131, 8166, 8154,0.21364665031433105
47, 8176, 8161, 8199, 8187, 8196, 8196, 8209, 8174, 8192, 8209, 8191, 8171, 8196, 8177,0.2290022373199463
48, 8178, 8170, 8171, 8209, 8206, 8199, 8198, 8176, 8194, 8232, 8209, 8177, 8209, 8188,0.2290022373199463
49, 8177, 8161, 8151, 8207, 8199, 8184, 8187, 8172, 8182, 8209, 8194, 8148, 8191, 8175,0.24460959434509277
50, 8179, 8166, 8201, 8180, 8180, 8180, 8194, 8178, 8182, 8188, 8182, 8159, 8181, 8175,0.24460959434509277
51, 8173, 8151, 8126, 8171, 8168, 8170, 8200, 8164, 8192, 8203, 8194, 8164, 8195, 8181,0.25995516777038574
52, 8181, 8153, 8195, 8163, 8163, 8170, 8179, 8165, 8179, 8203, 8199, 8174, 8205, 8182,0.25995516777038574
53, 8190, 8175, 8179, 8177, 8188, 8190, 8192, 8176, 8193, 8215, 8215, 8184, 8218, 8182,0.27611827850341797
54, 8177, 8163, 8136, 8175, 8203, 8186, 8202, 8171, 8204, 8218, 8217, 8165, 8207, 8163,0.27611827850341797
55, 8162, 8154, 8187, 8148, 8184, 8179, 8177, 8173, 8188, 8190, 8193, 8151, 8182, 8141,0.2908158302307129
56, 8168, 8171, 8126, 8166, 8186, 8167, 8168, 8165, 8197, 8190, 8206, 8156, 8194, 8143,0.2908158302307129
57, 8191, 8192, 8190, 8176, 8191, 8164, 8162, 8168, 8186, 8178, 8227, 8187, 8202, 8152,0.3068852424621582
58, 8195, 8180, 8177, 8165, 8177, 8164, 8168, 8174, 8163, 8158, 8230, 8198, 8194, 8152,0.3068852424621582
59, 8193, 8164, 8139, 8165, 8170, 8155, 8173, 8164, 8156, 8162, 8232, 8193, 8193, 8160,0.3230006694793701
60, 8203, 8186, 8224, 8181, 8180, 8175, 8160, 8167, 8142, 8168, 8225, 8214, 8192, 8172,0.3230006694793701
61, 8193, 8192, 8158, 8217, 8197, 8182, 8170, 8162, 8136, 8184, 8232, 8210, 8196, 8169,0.3380253314971924
62, 8191, 8194, 8201, 8223, 8202, 8177, 8186, 8167, 8137, 8185, 8246, 8215, 8197, 8172,0.3380253314971924
63, 8201, 8196, 8216, 8224, 8202, 8185, 8186, 8181, 8144, 8179, 8244, 8220, 8193, 8172,0.35375428199768066
64, 8198, 8176, 8163, 8241, 8193, 8176, 8172, 8167, 8136, 8165, 8221, 8194, 8180, 8156,0.3541533946990967
65, 8196, 8179, 8224, 8249, 8191, 8183, 8172, 8167, 8131, 8160, 8217, 8196, 8171, 8160,0.36896705627441406
66, 8204, 8186, 8169, 8267, 8206, 8198, 8203, 8173, 8169, 8186, 8238, 8204, 8189, 8179,0.36896705627441406
67, 8217, 8184, 8206, 8260, 8198, 8202, 8208, 8174, 8184, 8184, 8235, 8213, 8203, 8191,0.3849763870239258
68, 8206, 8168, 8209, 8237, 8178, 8197, 8196, 8172, 8173, 8178, 8224, 8212, 8201, 8191,0.3849763870239258
69, 8183, 8143, 8140, 8224, 8175, 8179, 8184, 8159, 8162, 8185, 8217, 8191, 8193, 8178,0.4010443687438965
70, 8175, 8155, 8209, 8210, 8178, 8183, 8166, 8168, 8146, 8184, 8205, 8194, 8185, 8169,0.4010443687438965
71, 8165, 8155, 8147, 8203, 8180, 8181, 8172, 8165, 8155, 8201, 8207, 8184, 8193, 8163,0.41663146018981934
72, 8158, 8145, 8161, 8181, 8163, 8162, 8155, 8155, 8153, 8186, 8207, 8176, 8187, 8144,0.41663146018981934
73, 8161, 8159, 8187, 8183, 8155, 8161, 8133, 8167, 8145, 8149, 8203, 8186, 8180, 8138,0.432725191116333
74, 8178, 8167, 8134, 8204, 8166, 8161, 8151, 8173, 8161, 8159, 8218, 8193, 8200, 8158,0.432725191116333
75, 8199, 8174, 8220, 8191, 8170, 8167, 8163, 8179, 8162, 8171, 8236, 8220, 8219, 8182,0.44802045822143555
76, 8191, 8166, 8162, 8188, 8170, 8162, 8163, 8171, 8162, 8160, 8233, 8215, 8215, 8173,0.44802045822143555
77, 8180, 8167, 8159, 8190, 8174, 8161, 8156, 8169, 8154, 8147, 8214, 8199, 8193, 8153,0.46369385719299316
78, 8184, 8186, 8199, 8196, 8190, 8183, 8169, 8187, 8157, 8171, 8220, 8211, 8195, 8164,0.46369385719299316
79, 8186, 8177, 8130, 8205, 8200, 8178, 8185, 8175, 8166, 8203, 8234, 8204, 8209, 8162,0.4787287712097168
80, 8183, 8175, 8202, 8198, 8181, 8173, 8170, 8169, 8148, 8188, 8211, 8192, 8191, 8142,0.4787287712097168
81, 8168, 8176, 8159, 8219, 8181, 8187, 8176, 8169, 8160, 8184, 8198, 8174, 8181, 8141,0.49460816383361816
82, 8162, 8165, 8152, 8221, 8193, 8190, 8182, 8166, 8177, 8185, 8199, 8162, 8185, 8143,0.49460816383361816
83, 8169, 8166, 8203, 8210, 8190, 8194, 8181, 8175, 8173, 8183, 8196, 8179, 8189, 8144,0.5101439952850342
84, 8173, 8158, 8136, 8224, 8189, 8191, 8195, 8170, 8176, 8204, 8206, 8187, 8203, 8167,0.5101439952850342
85, 8183, 8157, 8204, 8209, 8191, 8195, 8191, 8175, 8169, 8211, 8205, 8195, 8207, 8195,0.5257842540740967
86, 8188, 8163, 8172, 8215, 8200, 8201, 8202, 8175, 8181, 8226, 8208, 8193, 8214, 8198,0.5257842540740967
87, 8187, 8161, 8157, 8235, 8201, 8197, 8205, 8165, 8182, 8239, 8207, 8193, 8220, 8185,0.5418233871459961
88, 8183, 8166, 8214, 8223, 8193, 8201, 8193, 8172, 8175, 8226, 8200, 8198, 8214, 8181,0.5418233871459961
89, 8185, 8159, 8136, 8211, 8189, 8185, 8202, 8171, 8204, 8228, 8202, 8177, 8209, 8185,0.5576956272125244
90, 8204, 8161, 8197, 8198, 8180, 8176, 8198, 8178, 8208, 8212, 8195, 8188, 8205, 8191,0.5576956272125244
91, 8205, 8157, 8179, 8192, 8176, 8178, 8189, 8178, 8193, 8191, 8194, 8203, 8211, 8192,0.572833776473999
92, 8195, 8148, 8150, 8188, 8173, 8159, 8177, 8163, 8185, 8176, 8192, 8196, 8209, 8180,0.572833776473999
93, 8199, 8168, 8212, 8191, 8178, 8159, 8167, 8168, 8176, 8170, 8196, 8215, 8207, 8180,0.5880208015441895
94, 8203, 8177, 8148, 8206, 8189, 8161, 8169, 8171, 8170, 8183, 8212, 8222, 8218, 8188,0.5880208015441895
95, 8207, 8180, 8196, 8199, 8177, 8152, 8156, 8171, 8146, 8163, 8201, 8217, 8204, 8175,0.6039857864379883
96, 8200, 8182, 8188, 8207, 8181, 8152, 8152, 8168, 8140, 8150, 8194, 8208, 8186, 8164,0.6039857864379883
97, 8202, 8182, 8163, 8223, 8200, 8156, 8158, 8168, 8151, 8162, 8209, 8204, 8193, 8168,0.6196184158325195
98, 8215, 8201, 8224, 8236, 8199, 8173, 8166, 8187, 8160, 8172, 8212, 8215, 8200, 8170,0.6196184158325195
99, 8206, 8199, 8156, 8252, 8198, 8176, 8176, 8178, 8164, 8179, 8201, 8198, 8196, 8170,0.6347870826721191
100, 8191, 8182, 8193, 8236, 8197, 8177, 8165, 8166, 8148, 8159, 8186, 8190, 8181, 8177,0.6347870826721191
101, 8190, 8180, 8184, 8235, 8196, 8189, 8176, 8178, 8164, 8172, 8185, 8198, 8186, 8185,0.6508281230926514
102, 8195, 8185, 8147, 8242, 8201, 8189, 8202, 8176, 8188, 8202, 8179, 8189, 8190, 8183,0.6508281230926514
103, 8185, 8181, 8213, 8209, 8197, 8193, 8201, 8172, 8170, 8191, 8160, 8182, 8167, 8173,0.6659765243530273
104, 8165, 8143, 8132, 8182, 8178, 8184, 8198, 8168, 8170, 8190, 8154, 8167, 8158, 8166,0.6659765243530273
105, 8173, 8144, 8168, 8170, 8164, 8183, 8201, 8176, 8189, 8204, 8163, 8173, 8176, 8184,0.6815216541290283
106, 8187, 8175, 8191, 8172, 8174, 8201, 8216, 8186, 8210, 8227, 8184, 8192, 8199, 8205,0.6815216541290283
107, 8183, 8162, 8133, 8172, 8179, 8183, 8215, 8173, 8216, 8239, 8181, 8180, 8199, 8186,0.6971840858459473
108, 8174, 8152, 8204, 8152, 8170, 8170, 8190, 8178, 8206, 8223, 8157, 8173, 8180, 8167,0.6971840858459473
109, 8167, 8151, 8138, 8150, 8170, 8173, 8195, 8179, 8217, 8229, 8174, 8169, 8186, 8178,0.7127914428710938
110, 8182, 8154, 8152, 8141, 8163, 8161, 8185, 8171, 8203, 8215, 8193, 8181, 8198, 8181,0.7127914428710938
111, 8196, 8165, 8192, 8140, 8158, 8154, 8176, 8175, 8188, 8197, 8190, 8196, 8211, 8178,0.7289328575134277
112, 8182, 8155, 8130, 8142, 8160, 8151, 8182, 8165, 8204, 8200, 8190, 8175, 8218, 8169,0.7289328575134277
113, 8178, 8161, 8191, 8122, 8149, 8156, 8163, 8166, 8184, 8185, 8187, 8178, 8200, 8164,0.7439675331115723
114, 8188, 8168, 8148, 8126, 8149, 8146, 8164, 8170, 8172, 8183, 8192, 8190, 8199, 8168,0.7439675331115723
115, 8193, 8158, 8164, 8125, 8153, 8136, 8166, 8169, 8181, 8188, 8192, 8193, 8205, 8168,0.7599921226501465
116, 8182, 8155, 8194, 8115, 8151, 8149, 8152, 8173, 8173, 8186, 8186, 8194, 8202, 8164,0.7599921226501465
117, 8165, 8151, 8123, 8117, 8147, 8139, 8151, 8165, 8159, 8178, 8192, 8176, 8200, 8153,0.776714563369751
118, 8160, 8158, 8189, 8103, 8140, 8136, 8152, 8175, 8149, 8158, 8182, 8165, 8184, 8144,0.776714563369751
119, 8157, 8154, 8145, 8107, 8152, 8152, 8162, 8177, 8159, 8162, 8167, 8148, 8174, 8139,0.7917571067810059
120, 8162, 8154, 8150, 8117, 8163, 8157, 8160, 8165, 8155, 8175, 8173, 8154, 8183, 8153,0.8078653812408447
121, 8165, 8165, 8201, 8128, 8165, 8171, 8170, 8172, 8163, 8185, 8183, 8179, 8194, 8169,0.8078653812408447
122, 8154, 8146, 8124, 8140, 8168, 8182, 8199, 8173, 8198, 8198, 8161, 8153, 8183, 8156,0.8078653812408447
123, 8154, 8142, 8184, 8129, 8164, 8196, 8204, 8181, 8206, 8205, 8129, 8137, 8168, 8153,0.8229155540466309
124, 8152, 8145, 8149, 8134, 8165, 8194, 8218, 8182, 8213, 8235, 8138, 8142, 8183, 8171,0.8229155540466309
125, 8147, 8135, 8140, 8133, 8166, 8173, 8213, 8169, 8205, 8234, 8143, 8140, 8182, 8165,0.8385591506958008
126, 8140, 8140, 8194, 8111, 8162, 8179, 8186, 8175, 8194, 8204, 8145, 8146, 8174, 8155,0.8385591506958008
127, 8142, 8139, 8113, 8109, 8160, 8165, 8177, 8168, 8216, 8215, 8174, 8150, 8201, 8166,0.8546187877655029
236, 8165, 8149, 8185, 8106, 8146, 8138, 8156, 8168, 8195, 8201, 8186, 8173, 8207, 8173,0.8546187877655029
0, 8173, 8164, 8174, 8118, 8151, 8142, 8155, 8173, 8173, 8183, 8186, 8182, 8196, 8168,0.8716917037963867
1, 8178, 8179, 8149, 8142, 8173, 8159, 8172, 8166, 8185, 8193, 8196, 8176, 8207, 8170,0.8716917037963867
2, 8188, 8197, 8222, 8154, 8181, 8176, 8166, 8173, 8176, 8189, 8199, 8186, 8217, 8179,0.887714147567749
3, 8181, 8180, 8144, 8162, 8184, 8174, 8159, 8165, 8160, 8184, 8199, 8173, 8213, 8174,0.887714147567749
4, 8177, 8177, 8195, 8157, 8186, 8179, 8162, 8167, 8156, 8183, 8188, 8169, 8207, 8169,0.9028117656707764
5, 8172, 8182, 8195, 8172, 8189, 8190, 8185, 8175, 8173, 8204, 8175, 8165, 8216, 8177,0.9028117656707764
6, 8168, 8165, 8149, 8176, 8188, 8187, 8196, 8167, 8177, 8218, 8173, 8152, 8220, 8180,0.9179961681365967
7, 8175, 8172, 8206, 8160, 8183, 8193, 8194, 8175, 8179, 8221, 8172, 8164, 8219, 8188,0.9179961681365967
8, 8177, 8170, 8140, 8161, 8179, 8181, 8205, 8168, 8201, 8232, 8168, 8161, 8224, 8189,0.9335963726043701
9, 8184, 8165, 8189, 8142, 8167, 8166, 8193, 8171, 8193, 8213, 8170, 8175, 8220, 8180,0.9335963726043701
10, 8192, 8178, 8195, 8137, 8174, 8171, 8187, 8182, 8184, 8201, 8201, 8201, 8225, 8181,0.9486167430877686
11, 8191, 8185, 8148, 8172, 8194, 8172, 8192, 8167, 8176, 8198, 8207, 8188, 8221, 8174,0.9496190547943115
12, 8185, 8192, 8217, 8196, 8197, 8187, 8192, 8174, 8155, 8187, 8181, 8181, 8199, 8168,0.9648866653442383
13, 8177, 8181, 8152, 8208, 8197, 8191, 8205, 8179, 8173, 8204, 8185, 8176, 8206, 8179,0.9802920818328857
14, 8178, 8169, 8185, 8196, 8193, 8186, 8201, 8175, 8182, 8204, 8180, 8169, 8208, 8192,0.9802920818328857
15, 8175, 8162, 8189, 8187, 8185, 8198, 8203, 8176, 8173, 8197, 8159, 8157, 8193, 8185,0.9802920818328857
16, 8176, 8147, 8132, 8190, 8183, 8197, 8215, 8170, 8177, 8207, 8163, 8146, 8195, 8181,0.9953405857086182
17, 8188, 8161, 8212, 8189, 8185, 8195, 8208, 8174, 8176, 8203, 8171, 8169, 8202, 8198,0.9953405857086182
18, 8184, 8163, 8149, 8208, 8190, 8189, 8216, 8168, 8190, 8210, 8174, 8172, 8207, 8200,1.0129539966583252
19, 8178, 8149, 8171, 8191, 8179, 8175, 8207, 8169, 8189, 8212, 8175, 8169, 8205, 8192,1.0129539966583252
20, 8178, 8149, 8199, 8162, 8177, 8177, 8201, 8178, 8183, 8212, 8180, 8179, 8214, 8199,1.0291471481323242
21, 8167, 8139, 8125, 8161, 8179, 8167, 8211, 8166, 8190, 8210, 8183, 8166, 8218, 8200,1.0291471481323242
22, 8159, 8138, 8190, 8148, 8155, 8161, 8190, 8168, 8175, 8182, 8173, 8170, 8206, 8190,1.0427846908569336
23, 8170, 8145, 8145, 8150, 8152, 8159, 8174, 8171, 8172, 8189, 8195, 8185, 8227, 8190,1.0580036640167236
24, 8190, 8156, 8161, 8155, 8163, 8153, 8174, 8172, 8178, 8199, 8213, 8195, 8235, 8191,1.0580036640167236
25, 8182, 8156, 8191, 8148, 8155, 8157, 8177, 8177, 8182, 8185, 8190, 8190, 8210, 8188,1.0580036640167236
26, 8164, 8137, 8121, 8134, 8140, 8141, 8169, 8165, 8179, 8175, 8178, 8171, 8198, 8178,1.0746219158172607
27, 8183, 8155, 8204, 8125, 8142, 8142, 8155, 8173, 8162, 8170, 8193, 8193, 8205, 8176,1.0926892757415771
28, 8197, 8173, 8172, 8165, 8165, 8157, 8170, 8180, 8176, 8184, 8214, 8207, 8212, 8183,1.0926892757415771
29, 8190, 8174, 8164, 8184, 8171, 8151, 8164, 8169, 8174, 8180, 8212, 8198, 8196, 8180,1.0926892757415771
30, 8187, 8183, 8203, 8171, 8171, 8158, 8150, 8169, 8153, 8171, 8211, 8201, 8189, 8178,1.1072194576263428
31, 8191, 8181, 8143, 8179, 8188, 8166, 8170, 8168, 8156, 8180, 8215, 8191, 8204, 8182,1.1072194576263428
32, 8195, 8183, 8208, 8186, 8192, 8175, 8179, 8176, 8152, 8172, 8199, 8192, 8195, 8180,1.123849868774414
33, 8175, 8171, 8168, 8192, 8179, 8179, 8180, 8177, 8159, 8178, 8184, 8173, 8179, 8175,1.123849868774414
34, 8156, 8149, 8152, 8177, 8170, 8179, 8182, 8167, 8162, 8187, 8166, 8150, 8175, 8175,1.1398961544036865
35, 8159, 8144, 8196, 8154, 8165, 8182, 8188, 8170, 8153, 8178, 8149, 8160, 8180, 8183,1.1398961544036865
36, 8159, 8130, 8120, 8144, 8155, 8158, 8193, 8165, 8161, 8179, 8151, 8159, 8187, 8181,1.152115821838379
37, 8160, 8137, 8187, 8130, 8144, 8153, 8168, 8168, 8153, 8164, 8162, 8168, 8189, 8178,1.1677017211914062
38, 8174, 8159, 8175, 8146, 8156, 8165, 8164, 8170, 8156, 8158, 8184, 8183, 8203, 8179,1.1677017211914062
39, 8187, 8161, 8149, 8146, 8161, 8147, 8155, 8161, 8158, 8153, 8186, 8187, 8202, 8174,1.183990478515625
40, 8180, 8165, 8198, 8124, 8151, 8142, 8136, 8168, 8141, 8137, 8167, 8192, 8183, 8164,1.183990478515625
41, 8171, 8169, 8134, 8147, 8161, 8155, 8152, 8167, 8138, 8141, 8171, 8180, 8185, 8157,1.183990478515625
42, 8180, 8180, 8201, 8163, 8172, 8166, 8161, 8169, 8131, 8136, 8174, 8183, 8186, 8157,1.1988637447357178
43, 8178, 8180, 8189, 8164, 8182, 8170, 8171, 8174, 8145, 8148, 8178, 8188, 8189, 8164,1.214991569519043
44, 8173, 8172, 8151, 8183, 8185, 8175, 8185, 8170, 8161, 8171, 8171, 8175, 8190, 8170,1.214991569519043
45, 8179, 8183, 8216, 8193, 8178, 8195, 8188, 8177, 8159, 8168, 8150, 8176, 8178, 8177,1.2320067882537842
46, 8180, 8170, 8143, 8188, 8182, 8189, 8203, 8172, 8182, 8180, 8158, 8168, 8184, 8181,1.2320067882537842
47, 8185, 8162, 8186, 8168, 8182, 8184, 8209, 8171, 8195, 8196, 8163, 8171, 8192, 8188,1.2479279041290283
48, 8188, 8168, 8187, 8168, 8181, 8196, 8214, 8176, 8197, 8206, 8161, 8176, 8191, 8193,1.2479279041290283
49, 8186, 8155, 8143, 8163, 8173, 8170, 8203, 8167, 8202, 8199, 8168, 8168, 8191, 8182,1.2648890018463135
50, 8192, 8165, 8216, 8140, 8161, 8147, 8173, 8176, 8196, 8184, 8177, 8188, 8199, 8179,1.2648890018463135
51, 8188, 8172, 8144, 8145, 8157, 8142, 8163, 8172, 8183, 8185, 8187, 8193, 8202, 8177,1.2648890018463135
52, 8188, 8169, 8172, 8141, 8157, 8145, 8155, 8168, 8156, 8163, 8184, 8187, 8178, 8165,1.2803871631622314
53, 8189, 8176, 8192, 8149, 8169, 8159, 8165, 8185, 8168, 8163, 8179, 8183, 8171, 8170,1.2803871631622314
54, 8182, 8182, 8137, 8174, 8179, 8163, 8181, 8179, 8187, 8187, 8178, 8177, 8184, 8177,1.2936596870422363
55, 8176, 8185, 8205, 8168, 8179, 8174, 8184, 8172, 8162, 8178, 8173, 8186, 8181, 8169,1.309941291809082
56, 8171, 8167, 8153, 8173, 8183, 8177, 8208, 8172, 8170, 8187, 8170, 8173, 8192, 8172,1.309941291809082
57, 8182, 8168, 8177, 8173, 8176, 8171, 8214, 8178, 8198, 8210, 8160, 8172, 8208, 8191,1.309941291809082
58, 8181, 8182, 8195, 8167, 8166, 8166, 8205, 8185, 8205, 8216, 8159, 8183, 8208, 8198,1.324561595916748
59, 8165, 8162, 8135, 8157, 8169, 8147, 8199, 8167, 8197, 8206, 8165, 8166, 8199, 8181,1.339587688446045
60, 8164, 8156, 8205, 8130, 8157, 8148, 8181, 8167, 8175, 8174, 8155, 8172, 8185, 8174,1.339587688446045
61, 8167, 8162, 8145, 8132, 8151, 8153, 8184, 8169, 8178, 8167, 8161, 8187, 8193, 8177,1.3551251888275146
62, 8179, 8168, 8161, 8130, 8158, 8142, 8178, 8170, 8178, 8166, 8176, 8198, 8197, 8176,1.3551251888275146
63, 8192, 8183, 8205, 8130, 8160, 8142, 8161, 8176, 8165, 8163, 8183, 8206, 8192, 8177,1.3699171543121338
64, 8186, 8182, 8139, 8156, 8158, 8131, 8149, 8158, 8157, 8162, 8188, 8194, 8195, 8169,1.3699171543121338
65, 8184, 8192, 8214, 8167, 8165, 8138, 8140, 8163, 8144, 8155, 8193, 8210, 8200, 8166,1.3855347633361816
66, 8191, 8200, 8176, 8179, 8186, 8157, 8159, 8174, 8158, 8179, 8201, 8214, 8210, 8177,1.3855347633361816
67, 8195, 8194, 8175, 8184, 8185, 8154, 8164, 8168, 8155, 8187, 8190, 8200, 8200, 8183,1.4006683826446533
68, 8191, 8197, 8219, 8192, 8180, 8164, 8161, 8171, 8140, 8176, 8184, 8208, 8191, 8185,1.4006683826446533
69, 8184, 8184, 8142, 8194, 8192, 8175, 8178, 8165, 8150, 8185, 8187, 8194, 8196, 8182,1.4159202575683594
70, 8174, 8171, 8196, 8172, 8183, 8182, 8178, 8167, 8136, 8177, 8163, 8178, 8175, 8175,1.4159202575683594
71, 8162, 8161, 8160, 8181, 8177, 8185, 8180, 8172, 8136, 8186, 8154, 8172, 8168, 8176,1.4320309162139893
72, 8166, 8158, 8149, 8195, 8184, 8180, 8179, 8172, 8156, 8202, 8165, 8181, 8184, 8181,1.4320309162139893
73, 8173, 8170, 8206, 8177, 8176, 8179, 8170, 8177, 8168, 8198, 8169, 8198, 8189, 8189,1.447594404220581
74, 8170, 8159, 8133, 8165, 8164, 8162, 8175, 8168, 8175, 8208, 8172, 8188, 8190, 8195,1.447594404220581
75, 8189, 8164, 8196, 8161, 8168, 8164, 8180, 8176, 8177, 8215, 8178, 8202, 8205, 8206,1.4632236957550049
76, 8207, 8178, 8179, 8180, 8189, 8176, 8192, 8179, 8201, 8222, 8199, 8226, 8234, 8215,1.4632236957550049
77, 8209, 8177, 8157, 8189, 8198, 8166, 8184, 8168, 8204, 8220, 8211, 8228, 8231, 8215,1.4787616729736328
78, 8207, 8182, 8211, 8174, 8195, 8165, 8166, 8175, 8180, 8208, 8208, 8229, 8207, 8210,1.4787616729736328
79, 8193, 8171, 8133, 8178, 8192, 8151, 8167, 8167, 8181, 8204, 8209, 8215, 8201, 8192,1.4946987628936768
80, 8193, 8184, 8192, 8181, 8183, 8151, 8155, 8165, 8171, 8192, 8211, 8222, 8200, 8180,1.4946987628936768
81, 8196, 8203, 8185, 8191, 8194, 8167, 8165, 8172, 8165, 8198, 8224, 8227, 8203, 8183,1.5092079639434814
82, 8184, 8186, 8146, 8187, 8198, 8155, 8171, 8161, 8160, 8187, 8222, 8205, 8193, 8174,1.5092079639434814
83, 8172, 8180, 8201, 8176, 8185, 8155, 8156, 8169, 8146, 8159, 8198, 8197, 8172, 8158,1.524766445159912
84, 8160, 8178, 8122, 8197, 8185, 8165, 8170, 8173, 8151, 8169, 8191, 8179, 8166, 8149,1.524766445159912
85, 8158, 8183, 8177, 8198, 8182, 8177, 8175, 8174, 8155, 8173, 8189, 8178, 8167, 8156,1.540729284286499
86, 8157, 8184, 8183, 8196, 8185, 8186, 8182, 8177, 8168, 8182, 8188, 8188, 8177, 8172,1.540729284286499
87, 8152, 8163, 8125, 8196, 8186, 8182, 8196, 8168, 8178, 8199, 8178, 8173, 8172, 8174,1.5562591552734375
88, 8156, 8155, 8193, 8171, 8170, 8186, 8192, 8179, 8166, 8195, 8157, 8168, 8150, 8174,1.5718905925750732
89, 8170, 8156, 8145, 8176, 8165, 8177, 8202, 8175, 8178, 8211, 8172, 8171, 8165, 8188,1.5718905925750732
90, 8190, 8167, 8185, 8177, 8168, 8170, 8203, 8169, 8182, 8220, 8184, 8191, 8182, 8204,1.5718905925750732
91, 8189, 8170, 8185, 8162, 8169, 8175, 8189, 8175, 8173, 8204, 8176, 8195, 8171, 8202,1.5875163078308105
92, 8179, 8157, 8125, 8150, 8165, 8159, 8172, 8161, 8164, 8179, 8178, 8178, 8162, 8181,1.5885169506072998
93, 8186, 8167, 8203, 8140, 8159, 8151, 8156, 8160, 8148, 8156, 8178, 8192, 8162, 8174,1.6036217212677002
94, 8189, 8174, 8144, 8148, 8157, 8146, 8151, 8164, 8156, 8163, 8175, 8183, 8163, 8179,1.6036217212677002
95, 8194, 8180, 8166, 8144, 8155, 8143, 8139, 8167, 8153, 8156, 8180, 8177, 8160, 8175,1.6192271709442139
96, 8197, 8192, 8200, 8154, 8162, 8155, 8147, 8170, 8143, 8146, 8195, 8198, 8160, 8169,1.6339366436004639
97, 8185, 8181, 8141, 8166, 8171, 8155, 8161, 8160, 8144, 8150, 8191, 8189, 8149, 8164,1.6339366436004639
98, 8181, 8185, 8208, 8161, 8174, 8165, 8159, 8172, 8140, 8148, 8180, 8181, 8137, 8166,1.6339366436004639
99, 8185, 8195, 8162, 8185, 8190, 8178, 8183, 8175, 8161, 8168, 8192, 8176, 8159, 8174,1.6495146751403809
100, 8192, 8202, 8180, 8200, 8195, 8181, 8193, 8168, 8171, 8177, 8195, 8186, 8174, 8187,1.6495146751403809
101, 8195, 8209, 8213, 8202, 8189, 8193, 8192, 8179, 8178, 8187, 8190, 8200, 8169, 8201,1.6655364036560059
102, 8191, 8194, 8146, 8207, 8196, 8195, 8209, 8177, 8201, 8214, 8188, 8184, 8176, 8203,1.6665377616882324
103, 8193, 8189, 8210, 8190, 8200, 8206, 8215, 8177, 8201, 8214, 8178, 8185, 8174, 8201,1.682025671005249
104, 8189, 8185, 8157, 8185, 8191, 8202, 8219, 8173, 8204, 8218, 8177, 8182, 8173, 8192,1.6967153549194336
105, 8189, 8181, 8160, 8180, 8175, 8179, 8211, 8168, 8205, 8222, 8182, 8180, 8179, 8181,1.6967153549194336
106, 8192, 8191, 8207, 8166, 8173, 8184, 8201, 8174, 8208, 8217, 8194, 8200, 8190, 8188,1.7138235569000244
107, 8190, 8182, 8131, 8159, 8176, 8178, 8190, 8164, 8215, 8216, 8201, 8197, 8200, 8190,1.7138235569000244
108, 8189, 8180, 8196, 8146, 8165, 8163, 8160, 8162, 8199, 8196, 8184, 8197, 8188, 8179,1.7138235569000244
109, 8192, 8187, 8170, 8161, 8170, 8157, 8163, 8166, 8209, 8199, 8191, 8205, 8191, 8178,1.729416847229004
110, 8212, 8194, 8159, 8178, 8182, 8159, 8177, 8168, 8214, 8205, 8211, 8221, 8201, 8187,1.743027925491333
111, 8214, 8199, 8204, 8167, 8179, 8168, 8164, 8175, 8192, 8182, 8200, 8226, 8191, 8179,1.743027925491333
112, 8188, 8180, 8130, 8166, 8173, 8154, 8150, 8164, 8179, 8168, 8189, 8195, 8172, 8157,1.7598938941955566
113, 8186, 8186, 8203, 8166, 8173, 8159, 8145, 8170, 8160, 8157, 8192, 8196, 8156, 8155,1.7598938941955566
114, 8189, 8197, 8183, 8180, 8188, 8181, 8167, 8176, 8155, 8164, 8193, 8203, 8161, 8162,1.7598938941955566
115, 8180, 8188, 8152, 8184, 8194, 8176, 8174, 8169, 8156, 8165, 8182, 8188, 8161, 8159,1.774846076965332
116, 8173, 8192, 8207, 8182, 8189, 8177, 8169, 8178, 8148, 8159, 8181, 8185, 8150, 8164,1.7893192768096924
117, 8168, 8180, 8129, 8193, 8193, 8181, 8180, 8168, 8158, 8177, 8182, 8169, 8153, 8170,1.7893192768096924
118, 8173, 8173, 8188, 8184, 8188, 8189, 8173, 8165, 8161, 8177, 8162, 8170, 8153, 8170,1.8050129413604736
119, 8172, 8174, 8183, 8187, 8185, 8198, 8182, 8174, 8174, 8190, 8164, 8180, 8159, 8177,1.8050129413604736
120, 8163, 8160, 8143, 8184, 8180, 8188, 8194, 8164, 8185, 8199, 8174, 8174, 8158, 8175,1.8205301761627197
121, 8163, 8161, 8209, 8168, 8165, 8188, 8181, 8172, 8186, 8194, 8165, 8182, 8156, 8174,1.8205301761627197
122, 8167, 8161, 8143, 8180, 8168, 8182, 8176, 8175, 8200, 8214, 8176, 8177, 8173, 8182,1.8365767002105713
123, 8175, 8160, 8187, 8165, 8168, 8176, 8171, 8171, 8190, 8209, 8183, 8180, 8181, 8182,1.8365767002105713
124, 8181, 8162, 8180, 8156, 8163, 8179, 8183, 8171, 8187, 8201, 8178, 8186, 8181, 8181,1.853104829788208
125, 8190, 8162, 8136, 8172, 8163, 8168, 8192, 8168, 8197, 8208, 8183, 8187, 8186, 8184,1.853104829788208
126, 8208, 8183, 8220, 8172, 8167, 8174, 8180, 8184, 8198, 8205, 8197, 8217, 8194, 8200,1.853104829788208
127, 8214, 8183, 8158, 8178, 8173, 8170, 8185, 8176, 8210, 8210, 8218, 8223, 8209, 8209,1.8685722351074219
236, 8214, 8176, 8186, 8168, 8169, 8150, 8168, 8165, 8194, 8195, 8215, 8216, 8194, 8190,1.8846242427825928
0, 8211, 8187, 8193, 8165, 8171, 8150, 8153, 8175, 8189, 8181, 8203, 8216, 8178, 8174,1.8846242427825928
1, 8214, 8186, 8145, 8175, 8174, 8151, 8157, 8167, 8200, 8185, 8203, 8207, 8180, 8179,1.9016506671905518
2, 8210, 8184, 8217, 8159, 8161, 8154, 8144, 8167, 8166, 8170, 8199, 8206, 8170, 8177,1.9016506671905518
3, 8189, 8171, 8148, 8154, 8157, 8149, 8145, 8165, 8143, 8167, 8203, 8191, 8169, 8156,1.9180371761322021
4, 8197, 8177, 8181, 8168, 8168, 8150, 8154, 8169, 8152, 8170, 8211, 8204, 8179, 8155,1.9180371761322021
5, 8209, 8193, 8214, 8188, 8175, 8163, 8161, 8177, 8161, 8179, 8224, 8226, 8184, 8180,1.9180371761322021
6, 8197, 8180, 8147, 8192, 8170, 8159, 8160, 8162, 8154, 8190, 8228, 8212, 8177, 8187,1.9315485954284668
7, 8188, 8177, 8217, 8182, 8169, 8175, 8157, 8169, 8141, 8183, 8207, 8204, 8163, 8181,1.9475898742675781
8, 8181, 8169, 8160, 8196, 8183, 8190, 8184, 8175, 8166, 8194, 8189, 8183, 8166, 8180,1.9475898742675781
9, 8182, 8158, 8172, 8193, 8174, 8183, 8184, 8171, 8178, 8201, 8174, 8171, 8161, 8178,1.9629201889038086
10, 8193, 8167, 8209, 8185, 8158, 8184, 8173, 8172, 8172, 8206, 8179, 8188, 8157, 8180,1.9629201889038086
11, 8194, 8160, 8140, 8187, 8162, 8175, 8187, 8160, 8179, 8215, 8194, 8186, 8171, 8184,1.978147268295288
12, 8190, 8157, 8204, 8165, 8164, 8176, 8192, 8166, 8176, 8199, 8190, 8187, 8179, 8181,1.978147268295288
13, 8186, 8157, 8154, 8167, 8169, 8184, 8197, 8170, 8186, 8213, 8194, 8187, 8185, 8177,1.9936752319335938
14, 8193, 8157, 8160, 8172, 8169, 8177, 8189, 8169, 8187, 8225, 8199, 8187, 8182, 8184,1.9936752319335938
15, 8204, 8172, 8210, 8166, 8165, 8179, 8181, 8177, 8185, 8218, 8209, 8205, 8191, 8193,2.0165724754333496
16, 8212, 8176, 8142, 8171, 8170, 8169, 8186, 8168, 8205, 8227, 8232, 8213, 8209, 8189,2.017573118209839
17, 8213, 8181, 8209, 8157, 8169, 8159, 8166, 8173, 8189, 8207, 8223, 8218, 8191, 8181,2.017573118209839
18, 8196, 8175, 8166, 8163, 8171, 8157, 8161, 8170, 8166, 8183, 8208, 8204, 8172, 8173,2.0249269008636475
19, 8207, 8179, 8156, 8176, 8173, 8155, 8165, 8161, 8164, 8178, 8217, 8207, 8175, 8172,2.04093599319458
20, 8226, 8206, 8222, 8184, 8180, 8170, 8170, 8179, 8177, 8185, 8229, 8229, 8187, 8183,2.04093599319458
21, 8216, 8202, 8153, 8206, 8199, 8169, 8182, 8173, 8188, 8197, 8232, 8211, 8197, 8186,2.0559887886047363
22, 8215, 8200, 8206, 8207, 8202, 8173, 8179, 8169, 8163, 8183, 8226, 8207, 8186, 8186,2.0559887886047363
23, 8215, 8201, 8171, 8208, 8198, 8188, 8188, 8175, 8159, 8178, 8220, 8204, 8173, 8184,2.0713744163513184
24, 8208, 8183, 8151, 8212, 8196, 8192, 8196, 8171, 8175, 8186, 8210, 8187, 8175, 8182,2.0713744163513184
25, 8205, 8176, 8212, 8212, 8196, 8203, 8201, 8179, 8179, 8198, 8206, 8192, 8183, 8186,2.0869908332824707
26, 8188, 8165, 8129, 8211, 8200, 8194, 8211, 8171, 8185, 8208, 8192, 8173, 8175, 8180,2.0869908332824707
27, 8186, 8164, 8183, 8190, 8197, 8195, 8209, 8171, 8191, 8205, 8176, 8169, 8154, 8179,2.10260009765625
28, 8207, 8166, 8176, 8200, 8206, 8208, 8231, 8178, 8228, 8237, 8210, 8198, 8190, 8203,2.10260009765625
29, 8223, 8168, 8145, 8211, 8208, 8191, 8231, 8174, 8248, 8254, 8232, 8214, 8220, 8214,2.118523597717285
30, 8228, 8187, 8215, 8191, 8196, 8180, 8194, 8177, 8224, 8222, 8217, 8223, 8192, 8202,2.118523597717285
31, 8225, 8184, 8147, 8193, 8195, 8173, 8185, 8168, 8214, 8210, 8227, 8217, 8237, 8191,2.1334927082061768
32, 8219, 8181, 8188, 8184, 8187, 8162, 8173, 8168, 8195, 8199, 8229, 8220, 8330, 8183,2.1334927082061768
33, 8215, 8189, 8185, 8180, 8189, 8152, 8161, 8176, 8182, 8193, 8226, 8222, 8314, 8181,2.1495394706726074
34, 8228, 8196, 8155, 8199, 8209, 8153, 8163, 8170, 8176, 8196, 8236, 8215, 8219, 8186,2.1495394706726074
35, 8232, 8207, 8228, 8206, 8216, 8180, 8170, 8175, 8158, 8184, 8223, 8217, 8177, 8186,2.1645777225494385
36, 8201, 8181, 8143, 8198, 8201, 8183, 8182, 8170, 8158, 8180, 8198, 8183, 8178, 8171,2.1645777225494385
37, 8187, 8162, 8168, 8175, 8186, 8173, 8173, 8169, 8157, 8170, 8181, 8163, 8151, 8161,2.180661678314209
38, 8194, 8177, 8183, 8184, 8198, 8188, 8177, 8173, 8166, 8173, 8181, 8177, 8150, 8168,2.180661678314209
39, 8196, 8179, 8142, 8208, 8208, 8196, 8194, 8164, 8172, 8187, 8185, 8182, 8168, 8173,2.1958954334259033
40, 8206, 8192, 8217, 8213, 8207, 8204, 8198, 8176, 8165, 8182, 8184, 8195, 8165, 8184,2.1958954334259033
41, 8206, 8189, 8157, 8218, 8212, 8203, 8208, 8180, 8186, 8200, 8194, 8190, 8176, 8196,2.211928367614746
42, 8196, 8164, 8178, 8189, 8197, 8192, 8203, 8175, 8192, 8213, 8193, 8187, 8184, 8190,2.211928367614746
43, 8187, 8154, 8189, 8167, 8179, 8191, 8193, 8177, 8182, 8206, 8180, 8184, 8178, 8182,2.227548360824585
44, 8186, 8149, 8123, 8166, 8175, 8181, 8192, 8168, 8177, 8183, 8165, 8161, 8163, 8170,2.227548360824585
45, 8182, 8150, 8181, 8149, 8168, 8186, 8185, 8176, 8172, 8162, 8156, 8164, 8152, 8161,2.242921829223633
46, 8170, 8140, 8128, 8150, 8165, 8188, 8193, 8181, 8196, 8193, 8169, 8166, 8171, 8169,2.242921829223633
47, 8183, 8148, 8160, 8149, 8165, 8178, 8187, 8175, 8203, 8204, 8174, 8168, 8180, 8179,2.2589995861053467
48, 8193, 8163, 8193, 8145, 8171, 8184, 8191, 8178, 8198, 8191, 8174, 8183, 8177, 8178,2.2589995861053467
49, 8192, 8160, 8130, 8160, 8181, 8179, 8208, 8175, 8214, 8202, 8192, 8192, 8191, 8178,2.2749698162078857
50, 8206, 8175, 8207, 8154, 8171, 8176, 8185, 8181, 8212, 8199, 8195, 8207, 8190, 8183,2.2749698162078857
51, 8194, 8160, 8146, 8130, 8163, 8169, 8160, 8173, 8196, 8185, 8167, 8178, 8164, 8166,2.289989471435547
52, 8179, 8143, 8134, 8118, 8163, 8156, 8145, 8158, 8177, 8159, 8147, 8161, 8146, 8148,2.289989471435547
53, 8195, 8169, 8191, 8143, 8163, 8165, 8150, 8166, 8180, 8153, 8170, 8200, 8165, 8161,2.3056483268737793
54, 8203, 8170, 8136, 8160, 8166, 8162, 8155, 8168, 8194, 8175, 8187, 8200, 8179, 8163,2.3056483268737793
55, 8186, 8161, 8196, 8131, 8156, 8157, 8131, 8167, 8166, 8160, 8162, 8172, 8152, 8140,2.3208720684051514
56, 8174, 8170, 8154, 8152, 8164, 8161, 8134, 8166, 8156, 8151, 8162, 8156, 8142, 8136,2.3208720684051514
57, 8191, 8183, 8160, 8195, 8186, 8170, 8146, 8168, 8170, 8166, 8181, 8163, 8153, 8148,2.335825204849243
58, 8203, 8190, 8222, 8203, 8195, 8191, 8151, 8176, 8171, 8180, 8184, 8179, 8164, 8156,2.351250410079956
59, 8194, 8179, 8141, 8209, 8201, 8187, 8163, 8166, 8178, 8190, 8185, 8167, 8172, 8155,2.351250410079956
60, 8191, 8180, 8201, 8209, 8199, 8180, 8156, 8171, 8170, 8176, 8170, 8160, 8158, 8156,2.351250410079956
61, 8189, 8177, 8174, 8222, 8191, 8182, 8157, 8172, 8172, 8180, 8169, 8150, 8161, 8160,2.366408348083496
62, 8191, 8169, 8154, 8232, 8188, 8179, 8164, 8159, 8174, 8194, 8186, 8153, 8186, 8168,2.366408348083496
63, 8196, 8176, 8219, 8223, 8198, 8190, 8167, 8174, 8173, 8198, 8193, 8172, 8197, 8178,2.3826146125793457
64, 8187, 8158, 8135, 8213, 8204, 8188, 8178, 8172, 8190, 8210, 8189, 8150, 8190, 8174,2.383619546890259
65, 8183, 8157, 8183, 8195, 8190, 8192, 8175, 8173, 8192, 8200, 8179, 8146, 8179, 8165,2.3985848426818848
66, 8185, 8174, 8174, 8207, 8188, 8199, 8187, 8181, 8207, 8199, 8190, 8164, 8189, 8171,2.3985848426818848
67, 8206, 8177, 8150, 8217, 8199, 8188, 8199, 8174, 8228, 8220, 8213, 8174, 8209, 8188,2.413611888885498
68, 8215, 8182, 8218, 8193, 8190, 8177, 8171, 8175, 8205, 8204, 8206, 8182, 8206, 8188,2.429166078567505
69, 8185, 8165, 8135, 8167, 8141, 8152, 8132, 8159, 8162, 8162, 8169, 8147, 8177, 8153,2.429166078567505
70, 8189, 8158, 8181, 8169, 8134, 8151, 8121, 8162, 8152, 8154, 8165, 8147, 8171, 8150,2.4445486068725586
71, 8228, 8173, 8195, 8224, 8207, 8172, 8151, 8179, 8197, 8203, 8221, 8193, 8218, 8196,2.4445486068725586
72, 8217, 8186, 8149, 8230, 8205, 8153, 8144, 8163, 8187, 8183, 8215, 8184, 8216, 8183,2.462078809738159
73, 8181, 8198, 8199, 8174, 8136, 8145, 8111, 8156, 8130, 8107, 8156, 8156, 8153, 8141,2.462078809738159
74, 8182, 8185, 8138, 8179, 8161, 8162, 8138, 8163, 8153, 8134, 8175, 8161, 8156, 8155,2.462078809738159
75, 8206, 8185, 8189, 8201, 8204, 8159, 8151, 8174, 8181, 8175, 8214, 8200, 8202, 8180,2.475689172744751
76, 8211, 8201, 8199, 8198, 8182, 8151, 8138, 8172, 8166, 8171, 8211, 8213, 8219, 8174,2.492743968963623
77, 8215, 8192, 8149, 8199, 8175, 8153, 8140, 8161, 8166, 8186, 8217, 8201, 8215, 8174,2.492743968963623
78, 8216, 8186, 8217, 8181, 8185, 8168, 8131, 8172, 8175, 8198, 8224, 8208, 8201, 8179,2.492743968963623
79, 8201, 8178, 8151, 8168, 8174, 8161, 8128, 8172, 8184, 8200, 8216, 8194, 8200, 8164,2.5087952613830566
80, 8207, 8182, 8178, 8170, 8166, 8153, 8129, 8169, 8180, 8196, 8216, 8194, 8209, 8160,2.5087952613830566
81, 8212, 8194, 8196, 8176, 8182, 8169, 8144, 8177, 8183, 8205, 8221, 8204, 8211, 8177,2.5249178409576416
82, 8204, 8177, 8140, 8170, 8181, 8157, 8157, 8172, 8182, 8200, 8218, 8190, 8200, 8175,2.5249178409576416
83, 8210, 8180, 8216, 8154, 8167, 8158, 8154, 8179, 8163, 8177, 8207, 8195, 8190, 8166,2.54095458984375
84, 8202, 8189, 8157, 8176, 8183, 8180, 8168, 8178, 8166, 8195, 8203, 8186, 8196, 8169,2.556117057800293
85, 8192, 8186, 8170, 8183, 8190, 8185, 8168, 8174, 8162, 8205, 8185, 8169, 8184, 8173,2.556117057800293
86, 8189, 8177, 8196, 8167, 8179, 8181, 8165, 8178, 8157, 8186, 8167, 8163, 8167, 8165,2.5709054470062256
87, 8184, 8167, 8130, 8171, 8185, 8178, 8176, 8165, 8172, 8176, 8162, 8146, 8165, 8159,2.5709054470062256
88, 8186, 8178, 8201, 8179, 8192, 8198, 8175, 8171, 8176, 8176, 8149, 8147, 8159, 8168,2.588014841079712
89, 8188, 8171, 8147, 8194, 8189, 8205, 8183, 8176, 8193, 8199, 8150, 8145, 8161, 8171,2.588014841079712
90, 8180, 8152, 8145, 8173, 8185, 8195, 8184, 8171, 8189, 8193, 8138, 8134, 8146, 8162,2.601628303527832
91, 8169, 8154, 8182, 8144, 8183, 8197, 8188, 8177, 8170, 8175, 8122, 8132, 8130, 8163,2.601628303527832
92, 8166, 8147, 8110, 8148, 8174, 8182, 8194, 8166, 8172, 8179, 8125, 8124, 8133, 8167,2.617112636566162
93, 8185, 8155, 8190, 8145, 8160, 8187, 8179, 8168, 8160, 8167, 8117, 8142, 8128, 8170,2.617112636566162
94, 8194, 8168, 8164, 8154, 8169, 8203, 8200, 8174, 8172, 8181, 8123, 8149, 8141, 8181,2.6343536376953125
95, 8190, 8163, 8148, 8154, 8171, 8197, 8215, 8175, 8196, 8203, 8130, 8136, 8152, 8183,2.6343536376953125
96, 8195, 8165, 8198, 8146, 8162, 8196, 8205, 8182, 8203, 8204, 8124, 8149, 8149, 8183,2.6343536376953125
97, 8199, 8156, 8135, 8143, 8167, 8181, 8212, 8169, 8216, 8208, 8126, 8152, 8151, 8187,2.6518938541412354
98, 8185, 8147, 8178, 8114, 8156, 8161, 8191, 8166, 8206, 8185, 8116, 8140, 8140, 8178,2.6518938541412354
99, 8159, 8141, 8136, 8108, 8147, 8161, 8167, 8170, 8195, 8169, 8100, 8119, 8130, 8157,2.6636862754821777
100, 8167, 8149, 8134, 8124, 8151, 8174, 8178, 8166, 8194, 8179, 8103, 8127, 8138, 8158,2.678567886352539
101, 8197, 8175, 8201, 8133, 8160, 8191, 8201, 8175, 8215, 8198, 8134, 8162, 8160, 8192,2.678567886352539
102, 8198, 8171, 8129, 8140, 8170, 8175, 8202, 8171, 8243, 8214, 8156, 8158, 8177, 8198,2.694000482559204
103, 8190, 8166, 8189, 8127, 8166, 8166, 8183, 8172, 8230, 8201, 8140, 8157, 8170, 8183,2.694000482559204
104, 8188, 8167, 8173, 8126, 8161, 8175, 8189, 8176, 8234, 8193, 8131, 8151, 8162, 8182,2.709087610244751
105, 8182, 8154, 8132, 8120, 8155, 8163, 8187, 8170, 8256, 8191, 8128, 8125, 8154, 8171,2.709087610244751
106, 8170, 8155, 8188, 8103, 8152, 8161, 8177, 8173, 8260, 8183, 8117, 8130, 8147, 8156,2.725128650665283
107, 8165, 8149, 8127, 8108, 8152, 8164, 8183, 8164, 8264, 8180, 8114, 8127, 8144, 8152,2.725128650665283
108, 8175, 8153, 8175, 8098, 8145, 8169, 8172, 8166, 8256, 8157, 8105, 8125, 8126, 8154,2.740753412246704
109, 8172, 8164, 8164, 8099, 8150, 8168, 8173, 8176, 8266, 8153, 8104, 8128, 8125, 8152,2.740753412246704
110, 8172, 8158, 8127, 8113, 8155, 8151, 8185, 8171, 8278, 8163, 8113, 8132, 8143, 8158,2.7557778358459473
111, 8185, 8164, 8201, 8117, 8149, 8158, 8182, 8176, 8266, 8162, 8111, 8143, 8145, 8170,2.7557778358459473
112, 8173, 8154, 8134, 8121, 8147, 8166, 8184, 8167, 8269, 8174, 8106, 8121, 8140, 8167,2.771791696548462
113, 8159, 8141, 8161, 8106, 8147, 8164, 8174, 8161, 8265, 8162, 8095, 8110, 8131, 8158,2.771791696548462
114, 8166, 8146, 8168, 8107, 8155, 8168, 8179, 8176, 8262, 8159, 8091, 8120, 8133, 8159,2.7870068550109863
115, 8171, 8148, 8127, 8114, 8151, 8158, 8189, 8175, 8258, 8171, 8094, 8118, 8136, 8159,2.8031084537506104
116, 8162, 8147, 8194, 8096, 8129, 8156, 8174, 8170, 8240, 8155, 8091, 8118, 8126, 8148,2.8031084537506104
117, 8157, 8140, 8129, 8101, 8132, 8162, 8183, 8169, 8255, 8165, 8098, 8112, 8133, 8143,2.8031084537506104
118, 8174, 8156, 8159, 8111, 8149, 8170, 8195, 8172, 8272, 8190, 8115, 8128, 8150, 8158,2.8187432289123535
119, 8184, 8172, 8183, 8125, 8153, 8179, 8192, 8175, 8269, 8194, 8133, 8149, 8161, 8176,2.8187432289123535
120, 8185, 8164, 8132, 8139, 8147, 8163, 8182, 8171, 8266, 8190, 8140, 8147, 8165, 8173,2.8338093757629395
121, 8191, 8179, 8209, 8127, 8146, 8160, 8171, 8180, 8259, 8189, 8141, 8162, 8164, 8170,2.8338093757629395
122, 8183, 8178, 8154, 8131, 8160, 8163, 8179, 8171, 8265, 8205, 8149, 8163, 8169, 8175,2.848942518234253
123, 8180, 8171, 8172, 8135, 8161, 8160, 8162, 8163, 8253, 8191, 8140, 8153, 8158, 8173,2.848942518234253
124, 8184, 8180, 8199, 8130, 8150, 8164, 8150, 8175, 8239, 8172, 8132, 8157, 8140, 8163,2.865593910217285
125, 8183, 8169, 8123, 8126, 8150, 8151, 8157, 8169, 8242, 8178, 8146, 8154, 8143, 8155,2.865593910217285
126, 8186, 8172, 8195, 8110, 8155, 8153, 8151, 8173, 8236, 8172, 8152, 8168, 8149, 8164,2.8820343017578125
127, 8180, 8178, 8161, 8125, 8163, 8166, 8162, 8172, 8247, 8169, 8156, 8170, 8150, 8170,2.8820343017578125
236, 8180, 8178, 8167, 8138, 8160, 8159, 8164, 8162, 8233, 8154, 8150, 8166, 8136, 8150,2.895967483520508
0, 8181, 8186, 8203, 8133, 8153, 8155, 8149, 8169, 8203, 8139, 8136, 8170, 8124, 8137,2.895967483520508
1, 8170, 8171, 8131, 8130, 8152, 8145, 8145, 8162, 8198, 8139, 8133, 8155, 8117, 8140,2.911613941192627
2, 8163, 8160, 8196, 8105, 8142, 8141, 8137, 8169, 8185, 8118, 8125, 8154, 8097, 8128,2.911613941192627
3, 8155, 8160, 8154, 8109, 8140, 8142, 8151, 8176, 8197, 8119, 8125, 8152, 8102, 8109,2.9275498390197754
4, 8162, 8165, 8147, 8121, 8151, 8155, 8168, 8167, 8211, 8129, 8135, 8153, 8117, 8126,2.9275498390197754
5, 8172, 8178, 8206, 8116, 8160, 8176, 8166, 8173, 8197, 8124, 8144, 8169, 8110, 8143,2.94364595413208
6, 8164, 8170, 8129, 8131, 8164, 8162, 8162, 8168, 8193, 8138, 8140, 8152, 8097, 8126,2.94364595413208
7, 8162, 8172, 8184, 8148, 8165, 8168, 8157, 8171, 8191, 8145, 8118, 8142, 8088, 8121,2.959238052368164
8, 8161, 8176, 8161, 8160, 8177, 8195, 8178, 8180, 8192, 8153, 8117, 8138, 8096, 8143,2.959238052368164
9, 8169, 8164, 8146, 8155, 8182, 8190, 8193, 8179, 8200, 8166, 8127, 8131, 8104, 8155,2.9749679565429688
10, 8186, 8169, 8210, 8149, 8179, 8194, 8200, 8185, 8229, 8192, 8137, 8156, 8116, 8170,2.9749679565429688
11, 8180, 8160, 8135, 8153, 8181, 8189, 8214, 8170, 8263, 8225, 8149, 8163, 8138, 8174,2.990330219268799
12, 8160, 8151, 8180, 8133, 8169, 8170, 8200, 8169, 8243, 8209, 8135, 8150, 8129, 8152,2.990330219268799
13, 8153, 8149, 8158, 8127, 8163, 8170, 8193, 8179, 8219, 8189, 8130, 8138, 8117, 8148,3.00596022605896
14, 8158, 8145, 8131, 8119, 8159, 8165, 8180, 8168, 8207, 8174, 8137, 8144, 8116, 8147,3.00596022605896
15, 8163, 8157, 8206, 8109, 8146, 8153, 8148, 8167, 8191, 8154, 8134, 8170, 8112, 8140,3.0216064453125
16, 8168, 8162, 8140, 8136, 8156, 8146, 8145, 8165, 8197, 8164, 8146, 8169, 8125, 8142,3.0226056575775146
17, 8178, 8172, 8187, 8137, 8168, 8161, 8146, 8170, 8192, 8164, 8161, 8177, 8128, 8143,3.038546085357666
18, 8177, 8175, 8178, 8130, 8163, 8167, 8153, 8171, 8195, 8165, 8164, 8187, 8123, 8141,3.038546085357666
19, 8177, 8172, 8136, 8144, 8158, 8149, 8152, 8164, 8201, 8169, 8159, 8177, 8121, 8140,3.053631544113159
20, 8184, 8187, 8214, 8148, 8165, 8161, 8144, 8176, 8187, 8154, 8159, 8187, 8120, 8143,3.053631544113159
21, 8178, 8175, 8150, 8148, 8171, 8162, 8160, 8169, 8187, 8155, 8164, 8185, 8122, 8141,3.068103075027466
22, 8183, 8171, 8187, 8148, 8166, 8148, 8160, 8171, 8193, 8167, 8165, 8190, 8126, 8150,3.0838987827301025
23, 8185, 8184, 8196, 8170, 8175, 8159, 8151, 8186, 8208, 8187, 8173, 8194, 8137, 8163,3.0838987827301025
24, 8174, 8179, 8138, 8172, 8182, 8164, 8146, 8169, 8206, 8182, 8173, 8172, 8134, 8148,3.0842628479003906
25, 8171, 8184, 8202, 8148, 8174, 8165, 8140, 8165, 8176, 8153, 8156, 8176, 8117, 8134,3.1000962257385254
26, 8168, 8178, 8145, 8162, 8173, 8154, 8154, 8173, 8186, 8164, 8152, 8174, 8117, 8140,3.1000962257385254
27, 8170, 8169, 8171, 8166, 8168, 8147, 8154, 8176, 8190, 8162, 8147, 8170, 8114, 8150,3.1167244911193848
28, 8160, 8169, 8178, 8153, 8172, 8165, 8155, 8179, 8172, 8145, 8142, 8165, 8108, 8138,3.1167244911193848
29, 8142, 8164, 8119, 8153, 8177, 8173, 8165, 8172, 8169, 8155, 8142, 8144, 8109, 8120,3.1317484378814697
30, 8148, 8179, 8198, 8168, 8170, 8182, 8161, 8177, 8163, 8160, 8139, 8154, 8106, 8133,3.1317484378814697
31, 8155, 8179, 8149, 8188, 8173, 8187, 8166, 8170, 8166, 8168, 8144, 8153, 8113, 8150,3.147812604904175
32, 8152, 8162, 8160, 8177, 8174, 8186, 8169, 8164, 8153, 8163, 8135, 8141, 8112, 8142,3.147812604904175
33, 8147, 8167, 8185, 8176, 8168, 8188, 8169, 8172, 8145, 8156, 8132, 8146, 8114, 8144,3.161104440689087
34, 8136, 8158, 8125, 8187, 8168, 8173, 8168, 8165, 8161, 8166, 8145, 8136, 8121, 8149,3.161104440689087
35, 8132, 8152, 8194, 8163, 8160, 8172, 8155, 8171, 8165, 8172, 8141, 8136, 8113, 8141,3.176542043685913
36, 8140, 8153, 8146, 8163, 8152, 8181, 8159, 8169, 8177, 8185, 8137, 8139, 8121, 8138,3.192568063735962
37, 8149, 8150, 8150, 8164, 8155, 8182, 8156, 8159, 8181, 8183, 8133, 8142, 8125, 8149,3.192568063735962
38, 8142, 8147, 8188, 8145, 8163, 8187, 8149, 8167, 8174, 8177, 8122, 8143, 8117, 8155,3.208564281463623
39, 8133, 8136, 8119, 8141, 8154, 8169, 8151, 8165, 8176, 8180, 8117, 8133, 8116, 8145,3.208564281463623
40, 8145, 8147, 8189, 8133, 8139, 8162, 8150, 8170, 8187, 8176, 8130, 8158, 8133, 8149,3.22391676902771
41, 8154, 8149, 8159, 8137, 8148, 8168, 8161, 8176, 8221, 8196, 8163, 8171, 8161, 8164,3.22391676902771
42, 8154, 8149, 8157, 8146, 8160, 8157, 8154, 8170, 8230, 8199, 8168, 8161, 8162, 8160,3.2418572902679443
43, 8156, 8164, 8201, 8146, 8160, 8157, 8144, 8175, 8216, 8176, 8150, 8170, 8149, 8154,3.2418572902679443
44, 8152, 8146, 8117, 8130, 8152, 8152, 8149, 8172, 8209, 8169, 8155, 8162, 8154, 8145,3.2549424171447754
45, 8146, 8141, 8174, 8100, 8138, 8151, 8140, 8176, 8188, 8160, 8166, 8165, 8155, 8137,3.2549424171447754
46, 8150, 8168, 8163, 8129, 8152, 8160, 8159, 8179, 8192, 8164, 8175, 8178, 8149, 8145,3.27095627784729
47, 8164, 8184, 8154, 8167, 8174, 8166, 8181, 8175, 8200, 8166, 8173, 8179, 8137, 8150,3.27095627784729
48, 8156, 8181, 8203, 8151, 8168, 8173, 8172, 8178, 8182, 8153, 8162, 8173, 8127, 8140,3.286630153656006
49, 8141, 8166, 8132, 8150, 8164, 8162, 8168, 8164, 8176, 8158, 8164, 8154, 8134, 8133,3.286630153656006
50, 8153, 8171, 8192, 8164, 8166, 8164, 8159, 8166, 8167, 8160, 8160, 8158, 8132, 8143,3.3019299507141113
51, 8147, 8165, 8167, 8171, 8168, 8179, 8168, 8176, 8170, 8167, 8147, 8152, 8124, 8145,3.3019299507141113
52, 8133, 8154, 8132, 8164, 8169, 8176, 8184, 8170, 8182, 8178, 8139, 8138, 8122, 8137,3.31784725189209
53, 8145, 8171, 8202, 8166, 8166, 8186, 8190, 8177, 8192, 8189, 8143, 8158, 8132, 8144,3.31784725189209
54, 8156, 8171, 8136, 8182, 8170, 8184, 8198, 8171, 8215, 8215, 8164, 8169, 8157, 8165,3.335217237472534
55, 8166, 8163, 8183, 8164, 8165, 8171, 8188, 8168, 8217, 8212, 8170, 8178, 8163, 8178,3.335217237472534
56, 8170, 8162, 8177, 8150, 8159, 8159, 8174, 8173, 8211, 8204, 8173, 8184, 8163, 8172,3.349090814590454
57, 8167, 8160, 8137, 8147, 8159, 8143, 8153, 8168, 8206, 8204, 8182, 8182, 8169, 8158,3.349090814590454
58, 8171, 8179, 8210, 8135, 8158, 8153, 8137, 8174, 8191, 8190, 8186, 8194, 8164, 8152,3.3651037216186523
59, 8161, 8178, 8138, 8140, 8156, 8149, 8146, 8168, 8181, 8181, 8192, 8179, 8160, 8141,3.3651037216186523
60, 8154, 8169, 8172, 8134, 8147, 8136, 8134, 8168, 8159, 8158, 8185, 8168, 8150, 8130,3.38071608543396
61, 8162, 8178, 8184, 8147, 8157, 8149, 8132, 8176, 8160, 8161, 8182, 8173, 8144, 8139,3.38071608543396
62, 8161, 8176, 8134, 8155, 8166, 8153, 8138, 8162, 8157, 8170, 8176, 8159, 8135, 8133,3.39669132232666
63, 8144, 8171, 8201, 8137, 8154, 8158, 8121, 8162, 8125, 8145, 8156, 8153, 8121, 8120,3.39669132232666
64, 8141, 8167, 8139, 8159, 8160, 8164, 8130, 8165, 8142, 8156, 8163, 8151, 8137, 8131,3.4128949642181396
65, 8156, 8173, 8164, 8162, 8162, 8163, 8136, 8163, 8154, 8167, 8165, 8152, 8143, 8138,3.4128949642181396
66, 8146, 8170, 8174, 8140, 8153, 8171, 8134, 8171, 8138, 8157, 8148, 8149, 8130, 8129,3.4283695220947266
67, 8133, 8150, 8120, 8153, 8155, 8178, 8147, 8164, 8145, 8170, 8148, 8142, 8137, 8129,3.4283695220947266
68, 8145, 8164, 8205, 8163, 8160, 8188, 8158, 8172, 8158, 8179, 8151, 8158, 8145, 8142,3.4436583518981934
69, 8143, 8161, 8148, 8159, 8158, 8182, 8174, 8172, 8173, 8180, 8145, 8148, 8145, 8143,3.4436583518981934
70, 8148, 8141, 8161, 8147, 8147, 8177, 8169, 8166, 8169, 8175, 8138, 8147, 8140, 8143,3.459169864654541
71, 8162, 8154, 8193, 8156, 8149, 8188, 8162, 8177, 8170, 8182, 8147, 8171, 8147, 8150,3.459169864654541
72, 8154, 8158, 8131, 8162, 8153, 8168, 8163, 8170, 8180, 8184, 8153, 8157, 8152, 8145,3.474717855453491
73, 8143, 8151, 8203, 8131, 8133, 8156, 8141, 8167, 8150, 8156, 8130, 8147, 8134, 8133,3.474717855453491
74, 8137, 8138, 8146, 8122, 8121, 8157, 8132, 8161, 8130, 8154, 8127, 8142, 8133, 8119,3.4908299446105957
75, 8140, 8140, 8143, 8122, 8124, 8155, 8131, 8158, 8152, 8162, 8146, 8148, 8143, 8124,3.4908299446105957
76, 8140, 8156, 8189, 8121, 8129, 8164, 8132, 8169, 8168, 8162, 8156, 8168, 8149, 8139,3.5060248374938965
77, 8136, 8148, 8123, 8126, 8132, 8150, 8127, 8160, 8107, 8155, 8149, 8163, 8144, 8125,3.5060248374938965
78, 8145, 8150, 8195, 8114, 8129, 8142, 8105, 8161, 8008, 8126, 8137, 8169, 8129, 8110,3.5218770503997803
79, 8143, 8155, 8157, 8118, 8134, 8146, 8106, 8162, 8000, 8129, 8150, 8169, 8136, 8117,3.5218770503997803
80, 8143, 8159, 8146, 8123, 8139, 8140, 8105, 8157, 8017, 8139, 8155, 8166, 8136, 8119,3.5375192165374756
81, 8158, 8176, 8201, 8133, 8148, 8151, 8098, 8166, 8005, 8139, 8155, 8183, 8130, 8122,3.5375192165374756
82, 8165, 8176, 8137, 8157, 8155, 8155, 8110, 8163, 8015, 8157, 8172, 8183, 8140, 8133,3.5527026653289795
83, 8166, 8185, 8211, 8154, 8150, 8152, 8110, 8169, 8009, 8147, 8176, 8191, 8137, 8142,3.5527026653289795
84, 8165, 8188, 8185, 8164, 8155, 8151, 8116, 8170, 8001, 8138, 8173, 8194, 8138, 8144,3.568593740463257
85, 8162, 8168, 8154, 8164, 8149, 8149, 8112, 8159, 8003, 8135, 8162, 8175, 8135, 8130,3.568593740463257
86, 8149, 8163, 8205, 8138, 8133, 8158, 8106, 8169, 8000, 8126, 8146, 8165, 8120, 8123,3.5838968753814697
87, 8138, 8163, 8133, 8147, 8139, 8148, 8122, 8163, 8006, 8134, 8148, 8158, 8124, 8131,3.5838968753814697
88, 8151, 8173, 8192, 8163, 8143, 8148, 8112, 8165, 7999, 8131, 8150, 8170, 8129, 8138,3.5993545055389404
89, 8154, 8173, 8174, 8170, 8146, 8171, 8114, 8172, 8010, 8144, 8152, 8172, 8134, 8143,3.5993545055389404
90, 8142, 8152, 8138, 8158, 8149, 8176, 8129, 8161, 8017, 8159, 8139, 8154, 8136, 8146,3.6149699687957764
91, 8138, 8146, 8195, 8143, 8145, 8181, 8130, 8168, 8009, 8156, 8128, 8155, 8129, 8145,3.6149699687957764
92, 8134, 8144, 8116, 8162, 8149, 8174, 8135, 8168, 8031, 8170, 8140, 8151, 8140, 8140,3.6299808025360107
93, 8137, 8153, 8167, 8155, 8143, 8168, 8134, 8174, 8044, 8173, 8137, 8162, 8150, 8142,3.6299808025360107
94, 8137, 8151, 8162, 8139, 8136, 8171, 8148, 8177, 8059, 8179, 8138, 8168, 8152, 8152,3.645953416824341
95, 8133, 8133, 8124, 8142, 8137, 8162, 8145, 8162, 8066, 8184, 8151, 8160, 8151, 8151,3.645953416824341
96, 8142, 8152, 8203, 8147, 8136, 8168, 8133, 8168, 8052, 8171, 8155, 8176, 8155, 8150,3.6614928245544434
97, 8147, 8161, 8126, 8148, 8142, 8162, 8145, 8166, 8063, 8175, 8158, 8171, 8163, 8143,3.6614928245544434
98, 8153, 8155, 8159, 8135, 8147, 8146, 8130, 8165, 8058, 8166, 8152, 8172, 8150, 8136,3.676586866378784
99, 8157, 8163, 8181, 8155, 8154, 8149, 8124, 8173, 8048, 8160, 8154, 8192, 8147, 8147,3.676586866378784
100, 8162, 8168, 8143, 8171, 8154, 8148, 8134, 8167, 8053, 8163, 8166, 8191, 8158, 8153,3.692608594894409
101, 8166, 8178, 8212, 8152, 8143, 8149, 8117, 8172, 8037, 8148, 8162, 8193, 8151, 8144,3.692608594894409
102, 8154, 8171, 8142, 8159, 8148, 8146, 8106, 8167, 8031, 8152, 8165, 8181, 8153, 8127,3.7078869342803955
103, 8163, 8178, 8182, 8166, 8155, 8155, 8114, 8168, 8038, 8154, 8177, 8192, 8159, 8132,3.7078869342803955
104, 8174, 8195, 8206, 8171, 8157, 8172, 8131, 8176, 8046, 8150, 8182, 8208, 8158, 8151,3.7235171794891357
105, 8162, 8183, 8138, 8173, 8154, 8159, 8126, 8160, 8035, 8149, 8167, 8182, 8152, 8140,3.7385733127593994
106, 8160, 8184, 8203, 8165, 8156, 8160, 8106, 8162, 8019, 8144, 8155, 8183, 8149, 8127,3.7385733127593994
107, 8165, 8190, 8151, 8179, 8168, 8166, 8124, 8165, 8039, 8162, 8175, 8194, 8157, 8134,3.7385733127593994
108, 8162, 8184, 8171, 8176, 8160, 8161, 8130, 8162, 8035, 8153, 8174, 8188, 8142, 8137,3.7546467781066895
109, 8147, 8175, 8189, 8168, 8154, 8167, 8114, 8167, 8018, 8128, 8147, 8175, 8123, 8121,3.7546467781066895
110, 8144, 8168, 8125, 8177, 8159, 8168, 8117, 8163, 8019, 8128, 8141, 8162, 8124, 8116,3.7698566913604736
111, 8150, 8180, 8205, 8167, 8152, 8180, 8128, 8168, 8012, 8130, 8145, 8175, 8124, 8130,3.7698566913604736
112, 8138, 8168, 8150, 8168, 8157, 8183, 8146, 8168, 8022, 8143, 8144, 8164, 8125, 8130,3.785536050796509
113, 8138, 8159, 8149, 8174, 8163, 8175, 8145, 8168, 8023, 8143, 8132, 8157, 8123, 8123,3.8018851280212402
114, 8151, 8174, 8194, 8179, 8160, 8185, 8147, 8175, 8029, 8149, 8134, 8173, 8131, 8141,3.8018851280212402
115, 8153, 8162, 8131, 8183, 8163, 8184, 8165, 8164, 8047, 8166, 8142, 8164, 8139, 8154,3.8018851280212402
116, 8147, 8152, 8193, 8165, 8157, 8180, 8157, 8165, 8035, 8151, 8132, 8162, 8128, 8143,3.8164520263671875
117, 8143, 8155, 8155, 8172, 8156, 8175, 8162, 8165, 8050, 8163, 8136, 8163, 8132, 8143,3.8164520263671875
118, 8150, 8152, 8154, 8173, 8159, 8173, 8169, 8161, 8069, 8183, 8143, 8165, 8125, 8155,3.8320746421813965
119, 8143, 8148, 8185, 8150, 8147, 8183, 8159, 8168, 8056, 8174, 8132, 8167, 8097, 8150,3.848701000213623
120, 8135, 8142, 8112, 8156, 8145, 8173, 8150, 8162, 8058, 8179, 8136, 8154, 8107, 8143,3.848701000213623
121, 8157, 8159, 8194, 8170, 8160, 8174, 8140, 8169, 8072, 8187, 8149, 8170, 8138, 8155,3.848701000213623
122, 8161, 8155, 8160, 8163, 8166, 8184, 8145, 8172, 8086, 8193, 8155, 8175, 8151, 8163,3.8639936447143555
123, 8148, 8133, 8131, 8129, 8148, 8163, 8133, 8164, 8086, 8183, 8142, 8164, 8145, 8150,3.8639936447143555
124, 8156, 8146, 8190, 8119, 8140, 8147, 8116, 8172, 8082, 8172, 8137, 8178, 8151, 8145,3.8798627853393555
125, 8163, 8157, 8121, 8145, 8145, 8142, 8122, 8164, 8082, 8178, 8158, 8178, 8168, 8143,3.8965237140655518
126, 8161, 8163, 8183, 8133, 8143, 8152, 8113, 8168, 8062, 8167, 8169, 8189, 8164, 8140,3.8965237140655518
127, 8162, 8168, 8167, 8131, 8153, 8159, 8117, 8172, 8072, 8170, 8181, 8202, 8166, 8146,3.8965237140655518
236, 8166, 8171, 8140, 8143, 8162, 8147, 8123, 8159, 8081, 8171, 8186, 8202, 8174, 8145,3.909609794616699
0, 8170, 8187, 8202, 8141, 8165, 8155, 8119, 8165, 8069, 8157, 8184, 8212, 8174, 8139,3.9255857467651367
1, 8172, 8183, 8134, 8161, 8173, 8159, 8131, 8168, 8079, 8170, 8195, 8206, 8179, 8143,3.9255857467651367
2, 8176, 8178, 8185, 8159, 8161, 8145, 8117, 8169, 8064, 8153, 8175, 8204, 8166, 8142,3.940603733062744
3, 8160, 8179, 8172, 8160, 8160, 8149, 8113, 8172, 8052, 8141, 8158, 8199, 8149, 8138,3.940603733062744
4, 8152, 8173, 8140, 8180, 8176, 8172, 8131, 8164, 8064, 8166, 8173, 8185, 8171, 8143,3.956603765487671
5, 8153, 8161, 8208, 8165, 8166, 8194, 8145, 8169, 8067, 8187, 8171, 8182, 8231, 8152,3.956603765487671
6, 8132, 8133, 8121, 8139, 8149, 8181, 8165, 8166, 8069, 8193, 8148, 8157, 8280, 8146,3.972759962081909
7, 8131, 8143, 8158, 8135, 8148, 8172, 8162, 8169, 8063, 8183, 8144, 8156, 8278, 8146,3.972759962081909
8, 8152, 8172, 8176, 8159, 8155, 8187, 8157, 8180, 8076, 8200, 8181, 8182, 8286, 8163,3.9882006645202637
9, 8154, 8154, 8129, 8152, 8145, 8177, 8154, 8170, 8086, 8210, 8192, 8180, 8301, 8159,3.9882006645202637
10, 8146, 8147, 8192, 8125, 8125, 8168, 8138, 8165, 8068, 8186, 8170, 8176, 8287, 8146,4.003711462020874
11, 8132, 8144, 8123, 8128, 8128, 8162, 8141, 8159, 8077, 8186, 8164, 8165, 8279, 8136,4.003711462020874
12, 8123, 8135, 8152, 8113, 8135, 8158, 8143, 8165, 8079, 8186, 8161, 8167, 8273, 8129,4.025214910507202
13, 8130, 8151, 8180, 8123, 8145, 8164, 8145, 8175, 8069, 8180, 8175, 8189, 8277, 8138,4.0262110233306885
14, 8158, 8175, 8143, 8159, 8157, 8155, 8143, 8162, 8069, 8171, 8197, 8207, 8288, 8152,4.0262110233306885
15, 8179, 8190, 8217, 8147, 8162, 8164, 8134, 8169, 8062, 8154, 8197, 8229, 8285, 8158,4.034923076629639
16, 8165, 8170, 8146, 8127, 8156, 8167, 8140, 8168, 8058, 8167, 8193, 8215, 8286, 8151,4.050325393676758
17, 8154, 8164, 8162, 8122, 8139, 8153, 8130, 8160, 8039, 8170, 8192, 8201, 8278, 8145,4.050325393676758
18, 8152, 8177, 8190, 8133, 8141, 8158, 8135, 8168, 8039, 8152, 8185, 8204, 8263, 8140,4.066102981567383
19, 8145, 8166, 8125, 8131, 8146, 8153, 8148, 8166, 8055, 8148, 8173, 8185, 8251, 8125,4.066102981567383
20, 8159, 8181, 8206, 8127, 8141, 8158, 8138, 8177, 8043, 8154, 8175, 8190, 8246, 8128,4.0818586349487305
21, 8173, 8193, 8166, 8159, 8149, 8168, 8153, 8176, 8053, 8169, 8195, 8202, 8263, 8152,4.0818586349487305
22, 8167, 8182, 8168, 8152, 8146, 8161, 8159, 8166, 8060, 8159, 8188, 8200, 8266, 8153,4.096954345703125
23, 8159, 8186, 8196, 8142, 8144, 8171, 8152, 8176, 8055, 8157, 8171, 8198, 8252, 8145,4.096954345703125
24, 8160, 8176, 8131, 8172, 8162, 8182, 8168, 8175, 8076, 8186, 8176, 8183, 8256, 8149,4.112603187561035
25, 8153, 8153, 8198, 8152, 8156, 8191, 8180, 8178, 8092, 8187, 8162, 8178, 8255, 8153,4.112603187561035
26, 8125, 8128, 8135, 8118, 8133, 8184, 8182, 8172, 8090, 8180, 8133, 8153, 8236, 8143,4.127814054489136
27, 8116, 8124, 8122, 8110, 8127, 8172, 8166, 8160, 8063, 8165, 8118, 8139, 8217, 8138,4.127814054489136
28, 8132, 8146, 8180, 8117, 8132, 8172, 8153, 8164, 8048, 8145, 8116, 8159, 8221, 8152,4.1437742710113525
29, 8144, 8145, 8111, 8128, 8132, 8153, 8147, 8159, 8064, 8149, 8123, 8155, 8235, 8155,4.1437742710113525
30, 8146, 8141, 8173, 8112, 8122, 8156, 8128, 8166, 8059, 8151, 8125, 8157, 8230, 8144,4.158610820770264
31, 8138, 8140, 8145, 8107, 8128, 8172, 8140, 8169, 8070, 8165, 8139, 8163, 8241, 8145,4.158610820770264
32, 8150, 8147, 8136, 8112, 8133, 8165, 8153, 8165, 8094, 8174, 8151, 8166, 8255, 8156,4.1738598346710205
33, 8162, 8163, 8191, 8110, 8127, 8160, 8145, 8176, 8092, 8156, 8148, 8175, 8241, 8158,4.1738598346710205
34, 8150, 8149, 8113, 8114, 8131, 8149, 8143, 8167, 8083, 8148, 8150, 8166, 8230, 8143,4.188988924026489
35, 8158, 8150, 8178, 8110, 8125, 8147, 8128, 8166, 8075, 8141, 8149, 8178, 8229, 8141,4.188988924026489
36, 8161, 8161, 8161, 8115, 8120, 8153, 8128, 8170, 8088, 8147, 8150, 8184, 8233, 8139,4.204543828964233
37, 8142, 8151, 8129, 8112, 8129, 8146, 8133, 8168, 8078, 8146, 8142, 8168, 8218, 8122,4.204543828964233
38, 8136, 8156, 8192, 8109, 8144, 8160, 8131, 8176, 8059, 8134, 8139, 8172, 8205, 8120,4.220078706741333
39, 8137, 8149, 8124, 8119, 8149, 8170, 8142, 8166, 8080, 8141, 8151, 8166, 8217, 8124,4.220078706741333
40, 8141, 8152, 8176, 8110, 8140, 8169, 8137, 8165, 8075, 8133, 8151, 8169, 8214, 8129,4.23574423789978
41, 8140, 8166, 8168, 8124, 8150, 8173, 8133, 8175, 8070, 8148, 8158, 8174, 8218, 8133,4.23574423789978
42, 8132, 8161, 8136, 8137, 8154, 8161, 8127, 8168, 8084, 8170, 8157, 8151, 8229, 8127,4.251774549484253
43, 8135, 8164, 8207, 8132, 8143, 8164, 8122, 8172, 8085, 8163, 8150, 8157, 8233, 8128,4.251774549484253
44, 8147, 8163, 8141, 8155, 8153, 8172, 8146, 8172, 8092, 8172, 8170, 8175, 8240, 8148,4.265989542007446
45, 8155, 8167, 8182, 8157, 8158, 8179, 8151, 8171, 8084, 8170, 8167, 8180, 8234, 8161,4.265989542007446
46, 8150, 8170, 8184, 8156, 8153, 8188, 8149, 8178, 8084, 8172, 8150, 8167, 8227, 8157,4.2815611362457275
47, 8156, 8167, 8150, 8183, 8160, 8183, 8153, 8169, 8086, 8181, 8161, 8166, 8224, 8154,4.2815611362457275
48, 8157, 8176, 8221, 8190, 8163, 8188, 8146, 8166, 8070, 8162, 8169, 8188, 8217, 8153,4.298629999160767
49, 8143, 8166, 8146, 8191, 8158, 8186, 8154, 8161, 8086, 8165, 8167, 8182, 8227, 8153,4.298629999160767
50, 8151, 8157, 8178, 8185, 8149, 8179, 8154, 8165, 8098, 8175, 8156, 8185, 8224, 8162,4.314681529998779
51, 8155, 8158, 8189, 8181, 8141, 8180, 8152, 8169, 8096, 8174, 8154, 8188, 8216, 8171,4.314681529998779
52, 8145, 8147, 8132, 8171, 8133, 8163, 8148, 8157, 8098, 8170, 8154, 8165, 8219, 8161,4.330690860748291
53, 8147, 8153, 8202, 8151, 8124, 8161, 8136, 8169, 8082, 8155, 8135, 8167, 8205, 8149,4.330690860748291
54, 8148, 8156, 8143, 8164, 8128, 8166, 8141, 8174, 8081, 8154, 8128, 8164, 8197, 8147,4.344947814941406
55, 8155, 8165, 8173, 8172, 8132, 8159, 8130, 8165, 8084, 8143, 8140, 8171, 8208, 8153,4.361482381820679
56, 8166, 8183, 8205, 8173, 8134, 8157, 8120, 8167, 8089, 8140, 8163, 8196, 8226, 8166,4.361482381820679
57, 8167, 8175, 8138, 8183, 8138, 8151, 8120, 8157, 8094, 8144, 8171, 8198, 8232, 8161,4.361482381820679
58, 8179, 8184, 8213, 8185, 8136, 8154, 8110, 8161, 8093, 8133, 8175, 8221, 8236, 8158,4.3775200843811035
59, 8194, 8206, 8181, 8207, 8146, 8151, 8120, 8163, 8108, 8151, 8207, 8241, 8250, 8174,4.3775200843811035
60, 8196, 8208, 8187, 8213, 8145, 8142, 8119, 8157, 8088, 8149, 8211, 8237, 8235, 8169,4.39306378364563
61, 8180, 8195, 8207, 8200, 8142, 8149, 8111, 8166, 8056, 8122, 8193, 8233, 8216, 8157,4.393587112426758
62, 8169, 8183, 8146, 8203, 8144, 8147, 8121, 8162, 8052, 8120, 8192, 8223, 8219, 8160,4.408606290817261
63, 8178, 8194, 8220, 8214, 8141, 8163, 8130, 8166, 8060, 8131, 8190, 8232, 8217, 8171,4.408606290817261
64, 8174, 8189, 8180, 8232, 8150, 8185, 8158, 8169, 8100, 8160, 8189, 8225, 8223, 8178,4.424644470214844
65, 8162, 8169, 8169, 8220, 8155, 8181, 8163, 8167, 8109, 8158, 8173, 8200, 8220, 8173,4.424644470214844
66, 8164, 8171, 8207, 8202, 8152, 8178, 8145, 8171, 8091, 8143, 8147, 8200, 8203, 8171,4.439688682556152
67, 8173, 8164, 8148, 8201, 8153, 8174, 8148, 8160, 8106, 8160, 8149, 8206, 8212, 8179,4.455053091049194
68, 8170, 8157, 8204, 8174, 8136, 8171, 8148, 8162, 8108, 8163, 8163, 8215, 8229, 8183,4.455053091049194
69, 8158, 8151, 8160, 8161, 8124, 8164, 8146, 8169, 8106, 8162, 8167, 8204, 8230, 8173,4.455053091049194
70, 8168, 8151, 8146, 8158, 8127, 8153, 8135, 8167, 8114, 8157, 8157, 8197, 8213, 8160,4.470721006393433
71, 8181, 8167, 8196, 8152, 8135, 8163, 8129, 8167, 8122, 8144, 8152, 8209, 8206, 8156,4.470721006393433
72, 8168, 8162, 8122, 8152, 8138, 8160, 8129, 8158, 8122, 8141, 8160, 8199, 8210, 8148,4.486877918243408
73, 8161, 8162, 8177, 8135, 8132, 8158, 8112, 8160, 8094, 8128, 8163, 8200, 8196, 8147,4.486877918243408
74, 8164, 8170, 8163, 8149, 8137, 8160, 8119, 8166, 8089, 8126, 8164, 8199, 8195, 8150,4.504518985748291
75, 8170, 8175, 8152, 8178, 8153, 8161, 8132, 8160, 8096, 8137, 8161, 8193, 8204, 8151,4.504518985748291
76, 8179, 8193, 8218, 8190, 8164, 8191, 8139, 8169, 8101, 8157, 8170, 8216, 8215, 8173,4.517882823944092
77, 8173, 8178, 8143, 8200, 8166, 8200, 8154, 8166, 8115, 8177, 8175, 8208, 8216, 8178,4.51888108253479
78, 8152, 8155, 8183, 8177, 8152, 8184, 8147, 8160, 8105, 8161, 8132, 8178, 8188, 8151,4.534872770309448
79, 8136, 8144, 8161, 8154, 8141, 8180, 8151, 8162, 8111, 8156, 8111, 8161, 8180, 8140,4.534872770309448
80, 8147, 8134, 8124, 8150, 8136, 8177, 8164, 8155, 8117, 8161, 8129, 8163, 8190, 8150,4.549972295761108
81, 8156, 8146, 8201, 8148, 8133, 8182, 8164, 8165, 8106, 8151, 8131, 8186, 8187, 8160,4.550973653793335
82, 8143, 8144, 8131, 8148, 8141, 8174, 8174, 8167, 8125, 8163, 8138, 8185, 8200, 8165,4.563677072525024
83, 8148, 8136, 8165, 8123, 8137, 8167, 8161, 8169, 8139, 8167, 8149, 8187, 8215, 8167,4.5806286334991455
84, 8160, 8143, 8171, 8118, 8131, 8174, 8150, 8173, 8133, 8162, 8149, 8192, 8212, 8159,4.5806286334991455
85, 8153, 8147, 8128, 8127, 8132, 8164, 8154, 8164, 8136, 8172, 8146, 8180, 8205, 8153,4.5806286334991455
86, 8158, 8156, 8197, 8116, 8130, 8164, 8151, 8172, 8139, 8164, 8144, 8192, 8204, 8158,4.5958092212677
87, 8163, 8152, 8131, 8126, 8138, 8166, 8161, 8166, 8145, 8153, 8152, 8200, 8212, 8156,4.5958092212677
88, 8162, 8161, 8166, 8132, 8145, 8163, 8160, 8164, 8135, 8141, 8160, 8205, 8213, 8146,4.6105358600616455
89, 8160, 8172, 8184, 8136, 8150, 8166, 8163, 8174, 8134, 8146, 8164, 8204, 8211, 8143,4.6255974769592285
90, 8164, 8158, 8123, 8142, 8153, 8154, 8166, 8162, 8151, 8157, 8159, 8187, 8215, 8141,4.6255974769592285
91, 8161, 8164, 8190, 8127, 8150, 8160, 8152, 8167, 8153, 8156, 8154, 8190, 8217, 8139,4.641716718673706
92, 8142, 8165, 8129, 8137, 8153, 8164, 8157, 8173, 8164, 8174, 8162, 8176, 8216, 8131,4.641716718673706
93, 8148, 8166, 8159, 8145, 8157, 8155, 8151, 8173, 8148, 8163, 8151, 8167, 8196, 8122,4.657063007354736
94, 8158, 8177, 8186, 8138, 8159, 8165, 8144, 8174, 8128, 8145, 8142, 8176, 8187, 8119,4.657063007354736
95, 8148, 8164, 8111, 8138, 8154, 8164, 8146, 8159, 8130, 8150, 8151, 8164, 8183, 8121,4.672592878341675
96, 8145, 8167, 8189, 8139, 8146, 8169, 8140, 8169, 8115, 8140, 8139, 8165, 8169, 8126,4.672592878341675
97, 8148, 8170, 8139, 8150, 8153, 8169, 8155, 8171, 8120, 8144, 8138, 8161, 8176, 8130,4.687845468521118
98, 8154, 8163, 8147, 8143, 8154, 8157, 8159, 8163, 8123, 8148, 8145, 8157, 8183, 8133,4.687845468521118
99, 8154, 8172, 8191, 8147, 8151, 8165, 8149, 8171, 8122, 8150, 8146, 8168, 8184, 8142,4.70410943031311
100, 8146, 8166, 8113, 8165, 8157, 8166, 8151, 8161, 8126, 8160, 8140, 8148, 8182, 8137,4.70410943031311
101, 8153, 8158, 8186, 8148, 8150, 8177, 8147, 8168, 8108, 8151, 8116, 8134, 8162, 8130,4.719603061676025
102, 8155, 8147, 8149, 8147, 8153, 8188, 8161, 8169, 8115, 8155, 8113, 8129, 8167, 8143,4.719603061676025
103, 8152, 8146, 8140, 8149, 8157, 8184, 8166, 8158, 8122, 8155, 8127, 8138, 8191, 8153,4.735292911529541
104, 8157, 8162, 8187, 8142, 8150, 8183, 8160, 8168, 8117, 8151, 8128, 8152, 8186, 8145,4.735292911529541
105, 8154, 8150, 8117, 8148, 8145, 8170, 8164, 8163, 8131, 8158, 8115, 8130, 8167, 8135,4.750988245010376
106, 8155, 8146, 8181, 8129, 8142, 8175, 8157, 8168, 8141, 8151, 8100, 8133, 8162, 8140,4.750988245010376
107, 8151, 8147, 8143, 8120, 8149, 8186, 8160, 8173, 8151, 8160, 8115, 8144, 8180, 8147,4.766218185424805
108, 8153, 8144, 8130, 8122, 8144, 8175, 8161, 8161, 8155, 8169, 8128, 8145, 8194, 8148,4.766218185424805
109, 8167, 8160, 8194, 8127, 8135, 8173, 8161, 8168, 8163, 8165, 8129, 8162, 8198, 8158,4.782743215560913
110, 8166, 8153, 8123, 8132, 8145, 8161, 8167, 8168, 8180, 8165, 8147, 8169, 8206, 8161,4.782743215560913
111, 8160, 8148, 8175, 8105, 8137, 8148, 8141, 8166, 8161, 8144, 8156, 8183, 8194, 8147,4.798294305801392
112, 8152, 8150, 8150, 8100, 8127, 8145, 8128, 8161, 8150, 8141, 8155, 8174, 8185, 8128,4.798294305801392
113, 8151, 8154, 8129, 8116, 8128, 8139, 8125, 8155, 8150, 8141, 8151, 8155, 8183, 8121,4.813915491104126
114, 8161, 8177, 8198, 8120, 8129, 8150, 8120, 8168, 8144, 8128, 8151, 8181, 8180, 8138,4.813915491104126
115, 8167, 8177, 8132, 8125, 8137, 8156, 8138, 8164, 8152, 8140, 8163, 8189, 8186, 8142,4.829965114593506
116, 8168, 8175, 8182, 8128, 8135, 8153, 8134, 8162, 8142, 8143, 8167, 8180, 8181, 8133,4.829965114593506
117, 8164, 8180, 8183, 8141, 8128, 8156, 8129, 8169, 8142, 8143, 8162, 8175, 8174, 8140,4.845775842666626
118, 8165, 8168, 8146, 8137, 8132, 8161, 8135, 8165, 8145, 8142, 8146, 8162, 8167, 8145,4.845775842666626
119, 8155, 8159, 8188, 8126, 8138, 8178, 8133, 8167, 8137, 8134, 8134, 8158, 8159, 8138,4.8606953620910645
120, 8142, 8144, 8127, 8140, 8135, 8174, 8139, 8166, 8146, 8151, 8131, 8144, 8161, 8136,4.8606953620910645
121, 8149, 8142, 8176, 8135, 8129, 8170, 8144, 8164, 8138, 8155, 8113, 8135, 8157, 8141,4.876181602478027
122, 8145, 8143, 8166, 8122, 8132, 8182, 8165, 8165, 8139, 8156, 8112, 8133, 8163, 8146,4.876181602478027
123, 8134, 8132, 8118, 8110, 8121, 8173, 8167, 8159, 8154, 8159, 8121, 8129, 8171, 8142,4.892038583755493
124, 8148, 8139, 8188, 8092, 8107, 8162, 8144, 8164, 8155, 8149, 8112, 8142, 8166, 8139,4.892038583755493
125, 8161, 8149, 8134, 8106, 8119, 8145, 8144, 8164, 8159, 8151, 8120, 8150, 8175, 8136,4.908113479614258
126, 8162, 8165, 8168, 8119, 8135, 8139, 8141, 8168, 8149, 8138, 8149, 8173, 8185, 8133,4.908113479614258
127, 8160, 8181, 8179, 8133, 8146, 8157, 8140, 8176, 8146, 8140, 8167, 8181, 8186, 8136,4.923808574676514
236, 8159, 8178, 8135, 8156, 8146, 8161, 8141, 8163, 8148, 8163, 8163, 8159, 8177, 8136,4.923808574676514
0, 8154, 8178, 8204, 8157, 8141, 8166, 8127, 8167, 8127, 8152, 8146, 8155, 8156, 8130,4.9388978481292725
1, 8138, 8163, 8140, 8158, 8145, 8171, 8129, 8166, 8122, 8146, 8141, 8140, 8149, 8133,4.9388978481292725
2, 8137, 8148, 8162, 8151, 8142, 8179, 8145, 8161, 8140, 8162, 8136, 8141, 8156, 8148,4.955140829086304
3, 8149, 8152, 8187, 8147, 8139, 8184, 8163, 8169, 8172, 8185, 8137, 8157, 8169, 8158,4.955140829086304
4, 8156, 8149, 8125, 8144, 8143, 8158, 8159, 8163, 8185, 8185, 8147, 8148, 8173, 8145,4.970618963241577
5, 8162, 8158, 8193, 8114, 8135, 8143, 8128, 8166, 8158, 8153, 8146, 8153, 8163, 8135,4.970618963241577
6, 8158, 8154, 8141, 8105, 8128, 8141, 8127, 8166, 8164, 8152, 8153, 8157, 8173, 8141,4.986093044281006
7, 8164, 8150, 8160, 8112, 8129, 8137, 8130, 8165, 8175, 8155, 8163, 8171, 8184, 8147,4.986093044281006
8, 8173, 8175, 8201, 8127, 8141, 8152, 8130, 8173, 8158, 8146, 8169, 8193, 8179, 8153,5.001832962036133
9, 8169, 8177, 8132, 8140, 8149, 8151, 8136, 8165, 8145, 8144, 8173, 8179, 8175, 8150,5.001832962036133
10, 8165, 8173, 8202, 8133, 8140, 8154, 8128, 8168, 8134, 8130, 8163, 8173, 8167, 8141,5.017532110214233
11, 8155, 8172, 8153, 8151, 8151, 8175, 8137, 8164, 8135, 8138, 8155, 8161, 8166, 8139,5.017532110214233
12, 8148, 8165, 8142, 8162, 8164, 8183, 8140, 8156, 8135, 8153, 8148, 8144, 8161, 8144,5.033134460449219
13, 8142, 8155, 8187, 8146, 8152, 8185, 8137, 8171, 8135, 8151, 8141, 8145, 8152, 8141,5.033134460449219
14, 8129, 8134, 8110, 8142, 8143, 8177, 8151, 8164, 8138, 8154, 8129, 8127, 8145, 8122,5.048770904541016
15, 8122, 8140, 8172, 8137, 8144, 8184, 8151, 8158, 8119, 8150, 8106, 8120, 8127, 8112,5.048770904541016
16, 8122, 8143, 8142, 8139, 8146, 8183, 8157, 8162, 8132, 8156, 8113, 8127, 8135, 8115,5.06375527381897
17, 8135, 8132, 8127, 8124, 8140, 8162, 8157, 8160, 8160, 8158, 8131, 8142, 8159, 8123,5.06375527381897
18, 8147, 8145, 8189, 8117, 8137, 8165, 8146, 8164, 8165, 8160, 8143, 8168, 8173, 8143,5.079035043716431
19, 8147, 8153, 8125, 8139, 8140, 8155, 8139, 8157, 8170, 8168, 8158, 8166, 8179, 8151,5.094909429550171
20, 8161, 8164, 8191, 8132, 8134, 8143, 8119, 8168, 8160, 8154, 8157, 8179, 8176, 8146,5.094909429550171
21, 8173, 8166, 8175, 8133, 8138, 8150, 8124, 8173, 8169, 8158, 8168, 8192, 8185, 8149,5.094909429550171
22, 8168, 8155, 8145, 8134, 8139, 8143, 8120, 8154, 8163, 8152, 8180, 8187, 8184, 8153,5.109978199005127
23, 8165, 8168, 8201, 8122, 8133, 8138, 8100, 8159, 8124, 8125, 8174, 8197, 8164, 8142,5.109978199005127
24, 8161, 8173, 8135, 8147, 8143, 8140, 8108, 8162, 8122, 8135, 8171, 8183, 8160, 8124,5.125511169433594
25, 8161, 8181, 8191, 8156, 8150, 8157, 8109, 8164, 8129, 8136, 8165, 8177, 8157, 8125,5.126510381698608
26, 8152, 8177, 8172, 8153, 8153, 8173, 8122, 8166, 8139, 8137, 8153, 8171, 8154, 8131,5.140650987625122
27, 8135, 8151, 8128, 8155, 8150, 8176, 8145, 8160, 8147, 8149, 8129, 8142, 8148, 8121,5.140650987625122
28, 8133, 8148, 8192, 8145, 8137, 8187, 8148, 8173, 8147, 8154, 8111, 8139, 8147, 8125,5.156179189682007
29, 8139, 8142, 8116, 8138, 8133, 8167, 8146, 8166, 8167, 8164, 8124, 8142, 8166, 8139,5.1727211475372314
30, 8150, 8139, 8158, 8123, 8131, 8140, 8129, 8158, 8172, 8155, 8120, 8149, 8164, 8136,5.1727211475372314
31, 8147, 8148, 8163, 8117, 8129, 8143, 8120, 8166, 8177, 8152, 8117, 8152, 8153, 8125,5.1727211475372314
32, 8148, 8149, 8117, 8119, 8128, 8135, 8115, 8162, 8176, 8152, 8139, 8160, 8157, 8126,5.1885926723480225
33, 8154, 8163, 8190, 8122, 8129, 8139, 8108, 8172, 8157, 8134, 8148, 8185, 8160, 8134,5.20270299911499
34, 8146, 8159, 8128, 8147, 8141, 8146, 8121, 8166, 8146, 8138, 8147, 8168, 8158, 8128,5.20270299911499
35, 8150, 8157, 8164, 8142, 8140, 8146, 8120, 8158, 8135, 8142, 8149, 8158, 8150, 8123,5.20270299911499
36, 8161, 8161, 8180, 8142, 8140, 8165, 8125, 8171, 8152, 8154, 8152, 8176, 8159, 8140,5.218875885009766
37, 8165, 8155, 8129, 8168, 8157, 8180, 8147, 8167, 8176, 8175, 8145, 8172, 8168, 8151,5.2372095584869385
38, 8159, 8167, 8202, 8172, 8165, 8189, 8154, 8168, 8167, 8173, 8133, 8167, 8162, 8147,5.2372095584869385
39, 8143, 8161, 8140, 8167, 8156, 8182, 8154, 8165, 8169, 8178, 8123, 8146, 8156, 8141,5.250926733016968
40, 8145, 8144, 8153, 8151, 8141, 8173, 8140, 8161, 8163, 8170, 8106, 8141, 8145, 8144,5.250926733016968
41, 8158, 8148, 8181, 8139, 8144, 8177, 8148, 8165, 8165, 8161, 8104, 8157, 8146, 8157,5.250926733016968
42, 8172, 8157, 8134, 8153, 8149, 8171, 8166, 8160, 8189, 8177, 8131, 8167, 8167, 8168,5.266868829727173
43, 8186, 8170, 8202, 8168, 8139, 8168, 8153, 8165, 8178, 8174, 8139, 8187, 8166, 8166,5.266868829727173
44, 8171, 8164, 8140, 8175, 8138, 8155, 8149, 8160, 8159, 8156, 8116, 8173, 8150, 8150,5.28098726272583
45, 8157, 8166, 8155, 8156, 8144, 8152, 8145, 8157, 8152, 8145, 8123, 8166, 8151, 8143,5.298938751220703
46, 8167, 8176, 8195, 8144, 8152, 8170, 8144, 8170, 8157, 8157, 8159, 8184, 8171, 8145,5.298938751220703
47, 8164, 8163, 8126, 8147, 8151, 8157, 8145, 8161, 8154, 8154, 8149, 8168, 8171, 8130,5.3148651123046875
48, 8151, 8174, 8187, 8147, 8140, 8148, 8121, 8161, 8116, 8118, 8126, 8171, 8150, 8118,5.3148651123046875
49, 8146, 8183, 8149, 8166, 8150, 8160, 8121, 8166, 8110, 8125, 8154, 8181, 8159, 8121,5.329321384429932
50, 8146, 8172, 8148, 8166, 8151, 8166, 8126, 8163, 8122, 8136, 8158, 8168, 8166, 8121,5.329321384429932
51, 8142, 8171, 8185, 8158, 8144, 8174, 8122, 8172, 8118, 8123, 8130, 8162, 8147, 8117,5.343946933746338
52, 8140, 8167, 8124, 8175, 8158, 8178, 8140, 8164, 8119, 8124, 8120, 8154, 8132, 8117,5.343946933746338
53, 8150, 8174, 8198, 8178, 8159, 8191, 8149, 8159, 8114, 8123, 8114, 8155, 8125, 8128,5.35908317565918
54, 8156, 8171, 8162, 8186, 8156, 8196, 8159, 8166, 8133, 8154, 8127, 8150, 8143, 8144,5.35908317565918
55, 8154, 8156, 8141, 8181, 8158, 8181, 8162, 8168, 8138, 8167, 8119, 8141, 8143, 8140,5.3743650913238525
56, 8147, 8155, 8186, 8154, 8144, 8183, 8170, 8168, 8132, 8147, 8109, 8152, 8139, 8140,5.3743650913238525
57, 8145, 8145, 8120, 8149, 8134, 8183, 8187, 8159, 8165, 8164, 8138, 8155, 8162, 8153,5.3895344734191895
58, 8157, 8150, 8186, 8148, 8134, 8167, 8167, 8169, 8168, 8171, 8134, 8156, 8156, 8152,5.3895344734191895
59, 8160, 8157, 8160, 8150, 8135, 8147, 8145, 8172, 8147, 8151, 8127, 8154, 8145, 8130,5.4046971797943115
60, 8160, 8153, 8131, 8148, 8132, 8137, 8127, 8158, 8130, 8130, 8163, 8168, 8153, 8119,5.4046971797943115
61, 8168, 8174, 8202, 8161, 8141, 8161, 8124, 8170, 8122, 8131, 8184, 8192, 8156, 8137,5.4199206829071045
62, 8165, 8183, 8141, 8204, 8163, 8176, 8147, 8168, 8134, 8157, 8171, 8170, 8157, 8147,5.4199206829071045
63, 8160, 8170, 8188, 8195, 8161, 8178, 8148, 8167, 8133, 8164, 8148, 8156, 8154, 8144,5.436002016067505
64, 8158, 8158, 8170, 8173, 8148, 8182, 8150, 8173, 8160, 8177, 8146, 8151, 8158, 8147,5.436002016067505
65, 8166, 8160, 8135, 8175, 8140, 8167, 8150, 8163, 8192, 8186, 8161, 8147, 8169, 8148,5.451584815979004
66, 8180, 8175, 8203, 8169, 8139, 8154, 8129, 8167, 8175, 8166, 8165, 8172, 8176, 8154,5.451584815979004
67, 8177, 8167, 8129, 8170, 8146, 8138, 8111, 8163, 8161, 8155, 8166, 8178, 8182, 8159,5.4669787883758545
68, 8175, 8167, 8170, 8152, 8142, 8143, 8096, 8162, 8155, 8143, 8163, 8179, 8178, 8149,5.4669787883758545
69, 8166, 8177, 8174, 8149, 8146, 8159, 8107, 8163, 8145, 8137, 8161, 8168, 8162, 8131,5.482846975326538
70, 8156, 8169, 8126, 8170, 8159, 8150, 8119, 8155, 8128, 8131, 8152, 8146, 8137, 8114,5.482846975326538
71, 8158, 8179, 8197, 8167, 8161, 8156, 8118, 8170, 8125, 8116, 8136, 8149, 8127, 8119,5.498943328857422
72, 8151, 8178, 8137, 8174, 8165, 8167, 8134, 8167, 8150, 8130, 8146, 8143, 8147, 8132,5.498943328857422
73, 8151, 8165, 8173, 8180, 8166, 8173, 8147, 8160, 8153, 8148, 8142, 8145, 8152, 8139,5.514178514480591
74, 8155, 8159, 8181, 8187, 8162, 8182, 8159, 8170, 8152, 8155, 8117, 8144, 8145, 8149,5.514178514480591
75, 8155, 8151, 8125, 8176, 8149, 8164, 8150, 8162, 8159, 8151, 8118, 8128, 8151, 8149,5.529850006103516
76, 8160, 8157, 8199, 8144, 8144, 8155, 8129, 8166, 8154, 8139, 8139, 8148, 8156, 8143,5.529850006103516
77, 8168, 8154, 8135, 8154, 8157, 8151, 8150, 8163, 8163, 8153, 8151, 8151, 8164, 8144,5.545938014984131
78, 8182, 8160, 8161, 8158, 8149, 8144, 8155, 8158, 8160, 8143, 8146, 8144, 8168, 8149,5.545938014984131
79, 8176, 8174, 8192, 8149, 8144, 8155, 8138, 8167, 8153, 8128, 8149, 8157, 8166, 8141,5.562030076980591
80, 8155, 8162, 8127, 8160, 8158, 8153, 8135, 8161, 8136, 8132, 8146, 8142, 8147, 8116,5.562030076980591
81, 8148, 8162, 8192, 8163, 8158, 8165, 8134, 8166, 8107, 8117, 8122, 8124, 8117, 8108,5.577940464019775
82, 8138, 8156, 8133, 8162, 8158, 8181, 8152, 8166, 8119, 8128, 8110, 8109, 8121, 8113,5.577940464019775
83, 8147, 8157, 8155, 8165, 8166, 8183, 8166, 8163, 8138, 8150, 8108, 8117, 8137, 8126,5.59306001663208
84, 8168, 8170, 8203, 8181, 8165, 8187, 8173, 8172, 8151, 8169, 8124, 8137, 8148, 8145,5.59306001663208
85, 8163, 8148, 8124, 8164, 8150, 8173, 8169, 8159, 8164, 8181, 8137, 8121, 8149, 8148,5.6085827350616455
86, 8155, 8140, 8183, 8114, 8130, 8166, 8142, 8161, 8146, 8152, 8118, 8124, 8135, 8142,5.6085827350616455
87, 8157, 8144, 8141, 8115, 8128, 8163, 8137, 8165, 8144, 8132, 8114, 8135, 8136, 8134,5.623934030532837
88, 8156, 8139, 8139, 8110, 8125, 8146, 8126, 8159, 8138, 8125, 8123, 8137, 8139, 8122,5.623934030532837
89, 8150, 8148, 8185, 8091, 8120, 8144, 8115, 8161, 8123, 8127, 8138, 8150, 8138, 8122,5.639948129653931
90, 8149, 8152, 8119, 8112, 8131, 8142, 8127, 8154, 8124, 8139, 8151, 8144, 8144, 8125,5.639948129653931
91, 8151, 8160, 8187, 8124, 8135, 8148, 8121, 8160, 8101, 8120, 8137, 8141, 8133, 8114,5.655167818069458
92, 8137, 8158, 8144, 8138, 8137, 8157, 8129, 8161, 8096, 8119, 8127, 8123, 8123, 8107,5.655167818069458
93, 8135, 8146, 8127, 8146, 8137, 8164, 8144, 8158, 8115, 8134, 8125, 8110, 8121, 8122,5.67008113861084
94, 8146, 8147, 8190, 8143, 8134, 8182, 8148, 8172, 8125, 8136, 8113, 8123, 8122, 8140,5.67008113861084
95, 8140, 8134, 8116, 8147, 8139, 8177, 8158, 8161, 8128, 8136, 8100, 8109, 8120, 8128,5.685608386993408
96, 8130, 8125, 8163, 8122, 8132, 8166, 8152, 8155, 8108, 8120, 8084, 8095, 8102, 8111,5.685608386993408
97, 8118, 8121, 8129, 8102, 8125, 8157, 8145, 8160, 8117, 8124, 8081, 8090, 8105, 8118,5.70118260383606
98, 8120, 8119, 8111, 8093, 8123, 8144, 8132, 8155, 8136, 8135, 8092, 8100, 8126, 8123,5.717142820358276
99, 8137, 8139, 8184, 8093, 8118, 8151, 8120, 8163, 8136, 8131, 8104, 8127, 8133, 8120,5.717142820358276
100, 8143, 8142, 8114, 8112, 8116, 8146, 8118, 8161, 8136, 8130, 8114, 8122, 8129, 8113,5.717142820358276
101, 8142, 8147, 8167, 8107, 8119, 8137, 8101, 8159, 8115, 8110, 8113, 8123, 8112, 8104,5.732758283615112
102, 8144, 8161, 8160, 8112, 8138, 8142, 8111, 8161, 8113, 8114, 8122, 8132, 8119, 8107,5.732758283615112
103, 8156, 8163, 8132, 8131, 8144, 8146, 8128, 8157, 8125, 8126, 8131, 8135, 8135, 8112,5.74890398979187
104, 8159, 8169, 8197, 8126, 8139, 8153, 8125, 8169, 8120, 8113, 8127, 8150, 8131, 8113,5.74890398979187
105, 8147, 8159, 8125, 8127, 8151, 8151, 8135, 8165, 8132, 8128, 8127, 8139, 8125, 8108,5.763844966888428
106, 8143, 8150, 8166, 8125, 8152, 8159, 8132, 8160, 8133, 8136, 8114, 8119, 8113, 8104,5.763844966888428
107, 8135, 8148, 8164, 8132, 8144, 8170, 8130, 8166, 8127, 8128, 8109, 8108, 8108, 8110,5.778612852096558
108, 8140, 8153, 8130, 8147, 8141, 8153, 8135, 8161, 8117, 8127, 8117, 8115, 8110, 8121,5.793979167938232
109, 8155, 8170, 8202, 8148, 8145, 8157, 8131, 8169, 8100, 8120, 8113, 8143, 8106, 8130,5.793979167938232
110, 8149, 8153, 8131, 8146, 8145, 8167, 8142, 8165, 8111, 8124, 8104, 8124, 8105, 8126,5.809547662734985
111, 8146, 8137, 8161, 8128, 8134, 8168, 8150, 8157, 8118, 8129, 8089, 8108, 8099, 8120,5.809547662734985
112, 8147, 8141, 8171, 8129, 8143, 8180, 8160, 8157, 8126, 8144, 8093, 8126, 8102, 8122,5.8248610496521
113, 8142, 8134, 8123, 8135, 8153, 8181, 8166, 8157, 8146, 8154, 8115, 8130, 8116, 8125,5.8248610496521
114, 8160, 8147, 8197, 8124, 8145, 8184, 8163, 8172, 8150, 8154, 8129, 8142, 8125, 8144,5.841310262680054
115, 8171, 8149, 8143, 8135, 8148, 8173, 8176, 8167, 8159, 8173, 8135, 8146, 8133, 8157,5.841310262680054
116, 8160, 8142, 8163, 8130, 8148, 8157, 8174, 8158, 8174, 8172, 8130, 8147, 8130, 8155,5.841310262680054
117, 8159, 8155, 8182, 8128, 8145, 8169, 8168, 8169, 8206, 8181, 8139, 8151, 8137, 8153,5.855397701263428
118, 8178, 8162, 8137, 8149, 8154, 8162, 8156, 8165, 8221, 8205, 8163, 8156, 8159, 8156,5.871263742446899
119, 8195, 8171, 8212, 8143, 8157, 8145, 8131, 8166, 8189, 8188, 8176, 8187, 8164, 8166,5.871263742446899
120, 8189, 8167, 8145, 8130, 8157, 8137, 8135, 8160, 8174, 8164, 8166, 8186, 8152, 8166,5.88696813583374
121, 8177, 8164, 8155, 8116, 8148, 8132, 8123, 8156, 8160, 8142, 8140, 8163, 8133, 8145,5.88696813583374
122, 8169, 8175, 8190, 8119, 8141, 8137, 8112, 8166, 8149, 8143, 8143, 8161, 8132, 8125,5.904902458190918
123, 8162, 8167, 8117, 8129, 8146, 8137, 8119, 8163, 8149, 8153, 8162, 8159, 8137, 8119,5.904902458190918
124, 8173, 8177, 8195, 8129, 8148, 8147, 8108, 8169, 8135, 8133, 8163, 8172, 8120, 8129,5.904902458190918
125, 8184, 8191, 8166, 8160, 8155, 8149, 8119, 8166, 8150, 8147, 8186, 8182, 8134, 8148,5.918686866760254
126, 8189, 8188, 8170, 8170, 8162, 8151, 8137, 8158, 8161, 8171, 8193, 8179, 8151, 8151,5.9347450733184814
127, 8184, 8192, 8209, 8172, 8177, 8178, 8148, 8171, 8161, 8176, 8173, 8176, 8141, 8156,5.9347450733184814
236, 8184, 8181, 8140, 8200, 8191, 8177, 8169, 8170, 8187, 8200, 8178, 8172, 8151, 8178,5.935730934143066
0, 8191, 8172, 8203, 8183, 8171, 8169, 8169, 8174, 8198, 8216, 8189, 8192, 8169, 8188,5.950159788131714
1, 8182, 8161, 8160, 8156, 8155, 8167, 8158, 8175, 8202, 8223, 8186, 8187, 8173, 8183,5.965390205383301
2, 8177, 8155, 8146, 8147, 8159, 8156, 8141, 8163, 8193, 8199, 8171, 8173, 8164, 8175,5.965390205383301
3, 8178, 8161, 8191, 8138, 8153, 8155, 8138, 8165, 8178, 8170, 8163, 8183, 8160, 8169,5.980986833572388
4, 8174, 8150, 8117, 8131, 8139, 8145, 8147, 8159, 8187, 8182, 8177, 8173, 8164, 8163,5.980986833572388
5, 8188, 8159, 8188, 8129, 8143, 8151, 8141, 8166, 8186, 8179, 8183, 8189, 8165, 8165,5.9970033168792725
6, 8189, 8167, 8161, 8147, 8157, 8160, 8157, 8175, 8190, 8169, 8181, 8195, 8170, 8163,5.9970033168792725
7, 8175, 8156, 8133, 8135, 8147, 8144, 8165, 8169, 8189, 8165, 8171, 8172, 8160, 8144,6.013264179229736
8, 8186, 8171, 8208, 8123, 8140, 8147, 8151, 8171, 8178, 8163, 8174, 8188, 8155, 8152,6.013264179229736
9, 8199, 8183, 8148, 8159, 8163, 8151, 8155, 8161, 8182, 8171, 8199, 8206, 8173, 8171,6.0358312129974365
10, 8190, 8181, 8191, 8157, 8166, 8145, 8147, 8167, 8164, 8147, 8194, 8201, 8166, 8161,6.0358312129974365
11, 8171, 8168, 8164, 8130, 8150, 8141, 8144, 8172, 8154, 8134, 8168, 8173, 8147, 8141,6.0358312129974365
12, 8164, 8154, 8130, 8126, 8149, 8136, 8148, 8160, 8155, 8141, 8153, 8150, 8137, 8136,6.0458664894104
13, 8155, 8162, 8198, 8135, 8156, 8155, 8157, 8172, 8152, 8143, 8141, 8154, 8127, 8136,6.0458664894104
14, 8136, 8153, 8122, 8145, 8156, 8164, 8175, 8172, 8167, 8147, 8125, 8132, 8118, 8124,6.060375452041626
15, 8141, 8143, 8168, 8131, 8144, 8162, 8163, 8167, 8165, 8134, 8102, 8125, 8108, 8121,6.076451778411865
16, 8148, 8140, 8169, 8131, 8148, 8169, 8164, 8170, 8161, 8139, 8107, 8138, 8115, 8133,6.076451778411865
17, 8147, 8138, 8130, 8145, 8165, 8165, 8181, 8165, 8168, 8156, 8129, 8144, 8128, 8148,6.09398889541626
18, 8161, 8161, 8209, 8147, 8160, 8175, 8185, 8174, 8178, 8158, 8135, 8165, 8131, 8162,6.09398889541626
19, 8162, 8152, 8141, 8151, 8160, 8174, 8190, 8169, 8195, 8175, 8131, 8154, 8138, 8154,6.09398889541626
20, 8154, 8144, 8166, 8139, 8162, 8169, 8188, 8168, 8201, 8185, 8123, 8149, 8145, 8149,6.108949184417725
21, 8159, 8164, 8178, 8144, 8163, 8174, 8194, 8179, 8224, 8192, 8130, 8169, 8152, 8161,6.123088121414185
22, 8177, 8162, 8131, 8147, 8167, 8162, 8187, 8170, 8233, 8192, 8137, 8166, 8159, 8162,6.123088121414185
23, 8186, 8160, 8195, 8125, 8162, 8156, 8166, 8167, 8201, 8171, 8130, 8164, 8157, 8159,6.139086484909058
24, 8177, 8163, 8138, 8133, 8165, 8147, 8173, 8164, 8198, 8167, 8145, 8169, 8156, 8157,6.139086484909058
25, 8176, 8174, 8171, 8149, 8171, 8145, 8170, 8167, 8197, 8160, 8162, 8186, 8144, 8146,6.1538777351379395
26, 8173, 8182, 8188, 8165, 8188, 8162, 8166, 8180, 8190, 8164, 8165, 8190, 8142, 8142,6.1538777351379395
27, 8169, 8174, 8131, 8183, 8201, 8163, 8176, 8174, 8196, 8177, 8163, 8172, 8143, 8150,6.169551610946655
28, 8185, 8181, 8210, 8188, 8193, 8170, 8179, 8179, 8188, 8173, 8158, 8183, 8136, 8161,6.169551610946655
29, 8193, 8177, 8159, 8206, 8195, 8180, 8195, 8183, 8201, 8195, 8170, 8190, 8160, 8175,6.184657573699951
30, 8199, 8171, 8178, 8217, 8194, 8176, 8202, 8180, 8208, 8206, 8177, 8189, 8176, 8183,6.184657573699951
31, 8196, 8173, 8213, 8221, 8190, 8182, 8211, 8180, 8210, 8203, 8173, 8193, 8171, 8183,6.200730800628662
32, 8175, 8157, 8136, 8211, 8186, 8186, 8230, 8170, 8228, 8213, 8170, 8177, 8171, 8179,6.200730800628662
33, 8169, 8158, 8199, 8187, 8173, 8183, 8218, 8169, 8217, 8202, 8156, 8174, 8156, 8173,6.216537952423096
34, 8168, 8163, 8153, 8188, 8172, 8172, 8206, 8162, 8204, 8193, 8153, 8164, 8144, 8162,6.216537952423096
35, 8164, 8162, 8150, 8176, 8170, 8167, 8194, 8156, 8191, 8177, 8152, 8159, 8145, 8157,6.233213901519775
36, 8171, 8174, 8197, 8171, 8160, 8169, 8188, 8169, 8182, 8167, 8151, 8174, 8149, 8168,6.233213901519775
37, 8192, 8181, 8141, 8201, 8165, 8153, 8190, 8163, 8193, 8188, 8171, 8180, 8165, 8181,6.248957395553589
38, 8213, 8197, 8210, 8199, 8180, 8155, 8181, 8167, 8197, 8195, 8197, 8208, 8188, 8191,6.248957395553589
39, 8200, 8189, 8160, 8180, 8178, 8155, 8184, 8172, 8204, 8191, 8201, 8200, 8191, 8190,6.264207363128662
40, 8190, 8166, 8143, 8169, 8159, 8137, 8171, 8163, 8201, 8183, 8176, 8174, 8164, 8176,6.264207363128662
41, 8201, 8177, 8205, 8171, 8170, 8150, 8162, 8169, 8200, 8181, 8172, 8195, 8165, 8181,6.280003786087036
42, 8205, 8185, 8141, 8187, 8188, 8158, 8183, 8170, 8218, 8196, 8189, 8203, 8196, 8185,6.280003786087036
43, 8200, 8188, 8194, 8173, 8177, 8153, 8176, 8175, 8216, 8184, 8181, 8196, 8192, 8170,6.294907808303833
44, 8194, 8186, 8164, 8167, 8178, 8156, 8174, 8174, 8223, 8182, 8183, 8191, 8184, 8166,6.294907808303833
45, 8202, 8186, 8148, 8170, 8183, 8155, 8191, 8168, 8230, 8195, 8197, 8195, 8196, 8175,6.310469388961792
46, 8201, 8190, 8208, 8158, 8171, 8155, 8190, 8176, 8215, 8196, 8198, 8200, 8199, 8179,6.310469388961792
47, 8186, 8167, 8129, 8151, 8170, 8147, 8182, 8169, 8206, 8194, 8199, 8183, 8194, 8174,6.325884580612183
48, 8187, 8163, 8181, 8140, 8172, 8153, 8172, 8168, 8192, 8170, 8198, 8189, 8184, 8172,6.325884580612183
49, 8191, 8178, 8181, 8151, 8172, 8163, 8177, 8171, 8191, 8169, 8198, 8196, 8185, 8177,6.341084718704224
50, 8199, 8182, 8158, 8169, 8176, 8157, 8173, 8166, 8190, 8187, 8201, 8192, 8187, 8180,6.341084718704224
51, 8210, 8196, 8214, 8176, 8190, 8174, 8176, 8174, 8191, 8196, 8206, 8210, 8184, 8192,6.3566694259643555
52, 8201, 8185, 8148, 8193, 8205, 8185, 8206, 8168, 8213, 8211, 8201, 8191, 8184, 8199,6.3566694259643555
53, 8192, 8168, 8195, 8190, 8192, 8182, 8204, 8163, 8202, 8204, 8171, 8162, 8161, 8187,6.372762680053711
54, 8178, 8161, 8174, 8174, 8176, 8185, 8197, 8174, 8198, 8207, 8164, 8158, 8152, 8175,6.372762680053711
55, 8160, 8153, 8125, 8159, 8186, 8182, 8208, 8173, 8217, 8225, 8173, 8150, 8163, 8172,6.388554334640503
56, 8152, 8157, 8192, 8154, 8189, 8190, 8209, 8173, 8215, 8224, 8161, 8145, 8154, 8172,6.388554334640503
57, 8141, 8138, 8120, 8154, 8175, 8182, 8209, 8166, 8217, 8218, 8147, 8126, 8146, 8160,6.40406346321106
58, 8141, 8133, 8157, 8125, 8166, 8165, 8201, 8167, 8218, 8192, 8133, 8125, 8140, 8151,6.40406346321106
59, 8154, 8157, 8169, 8131, 8177, 8161, 8202, 8176, 8231, 8181, 8136, 8145, 8141, 8151,6.419649124145508
60, 8165, 8162, 8123, 8155, 8177, 8145, 8194, 8168, 8246, 8192, 8166, 8163, 8159, 8155,6.419649124145508
61, 8165, 8158, 8196, 8128, 8158, 8138, 8166, 8167, 8235, 8188, 8176, 8179, 8169, 8160,6.435142517089844
62, 8163, 8154, 8131, 8124, 8159, 8134, 8166, 8162, 8234, 8193, 8168, 8162, 8163, 8152,6.435142517089844
63, 8180, 8172, 8165, 8144, 8172, 8136, 8168, 8167, 8227, 8182, 8169, 8169, 8149, 8145,6.4508538246154785
64, 8188, 8191, 8192, 8156, 8181, 8152, 8170, 8176, 8217, 8171, 8175, 8192, 8145, 8153,6.4508538246154785
65, 8180, 8176, 8124, 8147, 8182, 8145, 8169, 8161, 8210, 8177, 8172, 8177, 8144, 8153,6.465952396392822
66, 8178, 8174, 8199, 8133, 8174, 8149, 8151, 8172, 8194, 8168, 8170, 8184, 8138, 8147,6.465952396392822
67, 8174, 8181, 8155, 8170, 8186, 8156, 8160, 8174, 8195, 8175, 8180, 8184, 8143, 8152,6.481890439987183
68, 8176, 8180, 8168, 8181, 8192, 8150, 8164, 8164, 8184, 8177, 8177, 8174, 8141, 8154,6.481890439987183
69, 8182, 8181, 8197, 8163, 8187, 8163, 8171, 8174, 8184, 8175, 8171, 8177, 8137, 8157,6.496985673904419
70, 8173, 8173, 8133, 8176, 8192, 8173, 8187, 8174, 8197, 8176, 8164, 8165, 8131, 8150,6.496985673904419
71, 8156, 8170, 8197, 8178, 8190, 8178, 8178, 8180, 8191, 8163, 8143, 8159, 8113, 8139,6.513131141662598
72, 8148, 8157, 8142, 8173, 8189, 8179, 8192, 8180, 8219, 8195, 8151, 8155, 8131, 8146,6.513131141662598
73, 8155, 8143, 8147, 8166, 8189, 8188, 8217, 8175, 8238, 8221, 8158, 8157, 8147, 8157,6.528650283813477
74, 8155, 8152, 8194, 8164, 8189, 8196, 8220, 8177, 8218, 8203, 8137, 8161, 8128, 8153,6.528650283813477
75, 8145, 8144, 8120, 8166, 8184, 8173, 8205, 8166, 8203, 8197, 8129, 8144, 8126, 8150,6.544783353805542
76, 8154, 8144, 8185, 8153, 8176, 8173, 8194, 8168, 8202, 8201, 8142, 8157, 8140, 8163,6.544783353805542
77, 8159, 8148, 8157, 8156, 8188, 8188, 8214, 8173, 8228, 8211, 8163, 8170, 8152, 8175,6.559924840927124
78, 8159, 8147, 8149, 8147, 8183, 8167, 8198, 8163, 8237, 8200, 8161, 8169, 8147, 8177,6.559924840927124
79, 8163, 8158, 8198, 8134, 8169, 8153, 8167, 8167, 8227, 8189, 8159, 8180, 8146, 8174,6.575518846511841
80, 8162, 8151, 8133, 8145, 8177, 8148, 8180, 8169, 8230, 8201, 8177, 8179, 8149, 8162,6.575518846511841
81, 8170, 8153, 8189, 8140, 8173, 8146, 8176, 8173, 8215, 8187, 8171, 8190, 8138, 8157,6.591921091079712
82, 8174, 8155, 8154, 8136, 8162, 8141, 8163, 8170, 8210, 8176, 8163, 8195, 8140, 8159,6.591921091079712
83, 8169, 8151, 8134, 8128, 8164, 8132, 8157, 8158, 8199, 8171, 8166, 8186, 8133, 8152,6.606673002243042
84, 8165, 8168, 8195, 8133, 8174, 8144, 8159, 8167, 8169, 8160, 8161, 8189, 8115, 8141,6.622725009918213
85, 8160, 8168, 8131, 8163, 8184, 8149, 8173, 8163, 8178, 8167, 8172, 8182, 8122, 8139,6.622725009918213
86, 8172, 8174, 8193, 8159, 8185, 8159, 8174, 8166, 8197, 8173, 8186, 8191, 8134, 8148,6.622725009918213
87, 8178, 8181, 8179, 8169, 8192, 8174, 8184, 8173, 8200, 8175, 8179, 8188, 8132, 8153,6.637544631958008
88, 8169, 8177, 8143, 8202, 8201, 8169, 8190, 8168, 8190, 8167, 8158, 8166, 8120, 8144,6.637544631958008
89, 8165, 8182, 8206, 8209, 8197, 8174, 8188, 8175, 8184, 8168, 8157, 8176, 8118, 8150,6.651617765426636
90, 8166, 8171, 8138, 8215, 8196, 8173, 8193, 8164, 8194, 8194, 8174, 8177, 8130, 8160,6.666756868362427
91, 8167, 8163, 8183, 8203, 8192, 8174, 8184, 8167, 8184, 8187, 8157, 8174, 8124, 8160,6.666756868362427
92, 8156, 8155, 8169, 8189, 8189, 8187, 8199, 8176, 8190, 8181, 8140, 8166, 8119, 8157,6.682765960693359
93, 8151, 8143, 8125, 8193, 8193, 8179, 8213, 8161, 8208, 8190, 8146, 8153, 8120, 8152,6.682765960693359
94, 8155, 8156, 8204, 8195, 8187, 8176, 8201, 8166, 8196, 8183, 8145, 8168, 8117, 8159,6.698654890060425
95, 8144, 8146, 8129, 8183, 8170, 8170, 8197, 8165, 8191, 8174, 8127, 8154, 8121, 8155,6.698654890060425
96, 8140, 8127, 8155, 8144, 8155, 8165, 8184, 8161, 8182, 8157, 8111, 8139, 8109, 8139,6.713710784912109
97, 8155, 8139, 8174, 8146, 8168, 8167, 8177, 8174, 8195, 8165, 8136, 8162, 8112, 8143,6.713710784912109
98, 8170, 8158, 8130, 8176, 8180, 8147, 8176, 8173, 8211, 8185, 8176, 8188, 8144, 8152,6.729657173156738
99, 8166, 8169, 8195, 8170, 8171, 8142, 8157, 8174, 8182, 8161, 8169, 8191, 8142, 8142,6.729657173156738
100, 8148, 8159, 8132, 8164, 8175, 8148, 8151, 8163, 8160, 8142, 8144, 8156, 8109, 8123,6.7455360889434814
101, 8155, 8159, 8162, 8165, 8172, 8153, 8151, 8156, 8144, 8131, 8139, 8148, 8098, 8119,6.7455360889434814
102, 8157, 8161, 8177, 8179, 8170, 8166, 8166, 8166, 8143, 8141, 8141, 8161, 8110, 8132,6.761008024215698
103, 8143, 8140, 8111, 8185, 8168, 8163, 8179, 8166, 8155, 8154, 8125, 8139, 8097, 8138,6.761008024215698
104, 8149, 8138, 8182, 8161, 8153, 8170, 8175, 8172, 8154, 8148, 8109, 8141, 8082, 8145,6.776537895202637
105, 8154, 8135, 8131, 8153, 8161, 8173, 8183, 8168, 8173, 8174, 8129, 8148, 8114, 8155,6.776537895202637
106, 8151, 8131, 8145, 8150, 8162, 8154, 8160, 8159, 8178, 8171, 8141, 8153, 8128, 8151,6.793061017990112
107, 8153, 8148, 8178, 8151, 8147, 8147, 8137, 8165, 8172, 8139, 8148, 8169, 8117, 8142,6.793061017990112
108, 8168, 8153, 8124, 8159, 8160, 8147, 8154, 8164, 8186, 8156, 8182, 8179, 8134, 8150,6.808508634567261
109, 8185, 8166, 8199, 8158, 8180, 8159, 8156, 8169, 8191, 8176, 8207, 8206, 8158, 8167,6.808508634567261
110, 8176, 8174, 8164, 8188, 8186, 8165, 8159, 8166, 8187, 8171, 8209, 8208, 8158, 8167,6.823940277099609
111, 8156, 8157, 8151, 8207, 8186, 8170, 8170, 8160, 8165, 8161, 8185, 8184, 8128, 8152,6.823940277099609
112, 8157, 8147, 8175, 8197, 8184, 8188, 8189, 8173, 8159, 8173, 8164, 8177, 8114, 8159,6.839984893798828
113, 8171, 8147, 8139, 8189, 8179, 8184, 8204, 8174, 8188, 8189, 8170, 8183, 8136, 8180,6.839984893798828
114, 8171, 8155, 8201, 8175, 8172, 8176, 8190, 8169, 8197, 8180, 8176, 8195, 8152, 8181,6.855884075164795
115, 8161, 8145, 8142, 8173, 8170, 8159, 8178, 8164, 8195, 8177, 8174, 8184, 8151, 8168,6.855884075164795
116, 8167, 8137, 8141, 8158, 8157, 8138, 8164, 8162, 8183, 8164, 8168, 8181, 8126, 8165,6.8719024658203125
117, 8174, 8145, 8196, 8153, 8152, 8149, 8159, 8170, 8172, 8140, 8179, 8200, 8118, 8168,6.8719024658203125
118, 8170, 8137, 8128, 8168, 8161, 8155, 8162, 8162, 8169, 8142, 8193, 8191, 8141, 8153,6.887348890304565
119, 8173, 8145, 8190, 8156, 8162, 8154, 8148, 8162, 8149, 8139, 8175, 8184, 8127, 8141,6.887348890304565
120, 8161, 8149, 8159, 8161, 8162, 8161, 8156, 8168, 8149, 8143, 8163, 8170, 8099, 8147,6.902641773223877
121, 8153, 8133, 8133, 8171, 8165, 8173, 8176, 8167, 8164, 8154, 8167, 8156, 8113, 8157,6.902641773223877
122, 8169, 8146, 8195, 8173, 8172, 8192, 8195, 8181, 8177, 8168, 8169, 8173, 8149, 8176,6.917905569076538
123, 8176, 8139, 8131, 8178, 8174, 8182, 8210, 8178, 8198, 8189, 8175, 8179, 8157, 8190,6.917905569076538
124, 8179, 8116, 8185, 8146, 8150, 8160, 8193, 8172, 8194, 8175, 8163, 8189, 8124, 8190,6.9338672161102295
125, 8179, 8128, 8168, 8138, 8144, 8150, 8183, 8172, 8186, 8161, 8163, 8195, 8126, 8182,6.9338672161102295
126, 8179, 8152, 8133, 8157, 8154, 8140, 8174, 8168, 8170, 8158, 8200, 8192, 8154, 8169,6.949860095977783
127, 8183, 8153, 8203, 8155, 8155, 8148, 8158, 8179, 8150, 8152, 8219, 8204, 8140, 8166,6.949860095977783
236, 8172, 8139, 8139, 8167, 8162, 8157, 8169, 8169, 8153, 8166, 8203, 8186, 8118, 8164,6.964570760726929
0, 8165, 8160, 8178, 8188, 8172, 8172, 8175, 8162, 8144, 8162, 8186, 8175, 8120, 8165,6.964570760726929
1, 8173, 8163, 8182, 8209, 8183, 8188, 8185, 8173, 8158, 8172, 8193, 8184, 8121, 8177,6.980668544769287
2, 8188, 8134, 8153, 8203, 8177, 8180, 8192, 8171, 8183, 8194, 8196, 8187, 8118, 8183,6.980668544769287
3, 8186, 8149, 8214, 8184, 8164, 8184, 8184, 8175, 8178, 8190, 8185, 8194, 8129, 8186,6.996622085571289
4, 8179, 8158, 8143, 8197, 8173, 8180, 8189, 8166, 8198, 8198, 8186, 8183, 8144, 8194,6.996622085571289
5, 8205, 8148, 8191, 8196, 8178, 8168, 8187, 8165, 8219, 8203, 8205, 8196, 8147, 8207,7.01166558265686
6, 8216, 8150, 8197, 8176, 8166, 8169, 8182, 8178, 8213, 8206, 8225, 8220, 8154, 8217,7.01166558265686
7, 8195, 8144, 8131, 8160, 8160, 8155, 8176, 8169, 8197, 8199, 8204, 8203, 8144, 8211,7.026837110519409
8, 8199, 8151, 8205, 8153, 8172, 8151, 8168, 8173, 8187, 8173, 8192, 8205, 8140, 8201,7.026837110519409
9, 8216, 8166, 8159, 8174, 8186, 8153, 8178, 8176, 8196, 8166, 8228, 8217, 8165, 8192,7.042889356613159
10, 8219, 8182, 8183, 8186, 8180, 8152, 8164, 8170, 8172, 8152, 8229, 8223, 8144, 8182,7.042889356613159
11, 8211, 8180, 8196, 8190, 8176, 8161, 8158, 8174, 8146, 8142, 8214, 8219, 8110, 8183,7.058800935745239
12, 8204, 8165, 8138, 8198, 8184, 8160, 8168, 8164, 8153, 8150, 8229, 8204, 8125, 8181,7.058800935745239
13, 8208, 8180, 8211, 8202, 8187, 8169, 8163, 8170, 8151, 8147, 8227, 8212, 8132, 8177,7.073567867279053
14, 8196, 8170, 8156, 8212, 8184, 8172, 8169, 8175, 8155, 8149, 8212, 8199, 8116, 8170,7.073567867279053
15, 8185, 8150, 8168, 8199, 8172, 8170, 8169, 8170, 8154, 8158, 8206, 8190, 8108, 8166,7.089605093002319
16, 8193, 8159, 8206, 8199, 8174, 8186, 8175, 8177, 8162, 8175, 8210, 8207, 8119, 8181,7.089605093002319
17, 8196, 8159, 8144, 8219, 8185, 8189, 8193, 8172, 8180, 8187, 8210, 8195, 8125, 8192,7.104814052581787
18, 8191, 8155, 8205, 8199, 8172, 8187, 8187, 8173, 8172, 8169, 8193, 8183, 8116, 8185,7.104814052581787
19, 8180, 8143, 8151, 8179, 8165, 8182, 8189, 8166, 8181, 8174, 8191, 8178, 8118, 8180,7.12028169631958
20, 8178, 8139, 8144, 8167, 8167, 8169, 8181, 8164, 8185, 8180, 8195, 8184, 8121, 8182,7.12028169631958
21, 8188, 8159, 8192, 8168, 8173, 8172, 8164, 8176, 8182, 8168, 8206, 8197, 8134, 8185,7.135934591293335
22, 8201, 8167, 8141, 8191, 8185, 8164, 8166, 8165, 8199, 8174, 8232, 8204, 8158, 8185,7.135934591293335
23, 8202, 8171, 8208, 8186, 8177, 8159, 8154, 8168, 8190, 8169, 8235, 8220, 8143, 8180,7.151594400405884
24, 8188, 8167, 8165, 8186, 8177, 8166, 8156, 8174, 8181, 8164, 8229, 8204, 8124, 8163,7.151594400405884
25, 8187, 8167, 8157, 8208, 8194, 8172, 8172, 8164, 8175, 8160, 8218, 8180, 8119, 8151,7.167337894439697
26, 8180, 8168, 8208, 8214, 8193, 8190, 8180, 8170, 8167, 8158, 8194, 8182, 8113, 8161,7.182994365692139
27, 8166, 8147, 8128, 8209, 8189, 8194, 8195, 8170, 8178, 8181, 8195, 8168, 8121, 8172,7.182994365692139
28, 8174, 8148, 8181, 8201, 8189, 8197, 8200, 8174, 8185, 8190, 8204, 8166, 8131, 8173,7.182994365692139
29, 8173, 8153, 8158, 8211, 8185, 8193, 8204, 8175, 8201, 8189, 8197, 8170, 8135, 8173,7.198635816574097
30, 8173, 8140, 8139, 8202, 8176, 8174, 8194, 8162, 8202, 8179, 8183, 8161, 8131, 8172,7.198635816574097
31, 8185, 8154, 8196, 8187, 8179, 8183, 8194, 8172, 8195, 8175, 8188, 8168, 8137, 8176,7.213704824447632
32, 8184, 8162, 8124, 8198, 8192, 8179, 8208, 8175, 8212, 8188, 8202, 8168, 8150, 8174,7.213704824447632
33, 8183, 8167, 8177, 8187, 8187, 8159, 8185, 8177, 8209, 8172, 8202, 8180, 8142, 8169,7.230148077011108
34, 8191, 8179, 8169, 8191, 8190, 8160, 8174, 8177, 8207, 8170, 8219, 8187, 8145, 8175,7.230148077011108
35, 8191, 8179, 8140, 8197, 8197, 8158, 8168, 8167, 8201, 8174, 8229, 8180, 8158, 8171,7.24523401260376
36, 8184, 8184, 8200, 8186, 8192, 8157, 8149, 8171, 8175, 8157, 8213, 8191, 8148, 8160,7.24523401260376
37, 8179, 8180, 8132, 8201, 8196, 8147, 8150, 8158, 8166, 8159, 8208, 8175, 8133, 8145,7.261958837509155
38, 8179, 8178, 8180, 8210, 8189, 8151, 8147, 8159, 8151, 8153, 8197, 8157, 8121, 8139,7.261958837509155
39, 8167, 8177, 8173, 8206, 8185, 8173, 8154, 8174, 8143, 8147, 8184, 8153, 8117, 8144,7.276031970977783
40, 8156, 8169, 8132, 8206, 8198, 8180, 8167, 8163, 8150, 8150, 8180, 8143, 8113, 8147,7.276031970977783
41, 8154, 8165, 8202, 8204, 8202, 8193, 8175, 8168, 8161, 8158, 8174, 8146, 8111, 8148,7.292663097381592
42, 8144, 8137, 8130, 8198, 8193, 8189, 8191, 8170, 8191, 8179, 8170, 8132, 8124, 8147,7.292663097381592
43, 8139, 8129, 8160, 8171, 8178, 8179, 8185, 8167, 8192, 8169, 8160, 8122, 8120, 8149,7.307576656341553
44, 8134, 8146, 8164, 8163, 8177, 8185, 8177, 8171, 8191, 8159, 8153, 8122, 8118, 8151,7.307576656341553
45, 8138, 8147, 8117, 8168, 8182, 8178, 8176, 8164, 8208, 8169, 8157, 8124, 8132, 8148,7.323702335357666
46, 8156, 8156, 8198, 8156, 8177, 8172, 8167, 8171, 8197, 8160, 8165, 8151, 8137, 8157,7.323702335357666
47, 8153, 8156, 8141, 8158, 8173, 8159, 8168, 8167, 8172, 8145, 8168, 8148, 8136, 8159,7.338617324829102
48, 8156, 8162, 8169, 8161, 8169, 8154, 8160, 8159, 8150, 8123, 8165, 8146, 8129, 8145,7.338617324829102
49, 8173, 8182, 8196, 8166, 8181, 8169, 8164, 8169, 8162, 8127, 8183, 8165, 8134, 8147,7.354868173599243
50, 8166, 8177, 8134, 8171, 8194, 8170, 8172, 8169, 8179, 8154, 8192, 8154, 8135, 8152,7.354868173599243
51, 8148, 8176, 8195, 8171, 8187, 8178, 8163, 8173, 8161, 8146, 8161, 8137, 8115, 8147,7.369992256164551
52, 8133, 8167, 8143, 8195, 8186, 8185, 8173, 8169, 8158, 8139, 8139, 8110, 8103, 8139,7.384544372558594
53, 8133, 8152, 8152, 8185, 8185, 8180, 8177, 8164, 8159, 8141, 8131, 8104, 8095, 8137,7.384544372558594
54, 8137, 8160, 8173, 8176, 8183, 8186, 8182, 8170, 8159, 8147, 8124, 8123, 8105, 8148,7.399896621704102
55, 8137, 8159, 8115, 8199, 8176, 8178, 8194, 8163, 8166, 8158, 8121, 8115, 8131, 8148,7.399896621704102
56, 8143, 8159, 8192, 8193, 8171, 8183, 8191, 8168, 8175, 8159, 8124, 8119, 8141, 8144,7.416744232177734
57, 8147, 8158, 8146, 8177, 8180, 8182, 8196, 8172, 8205, 8174, 8142, 8131, 8147, 8151,7.416744232177734
58, 8147, 8156, 8144, 8152, 8167, 8153, 8174, 8167, 8198, 8154, 8140, 8134, 8135, 8152,7.430947780609131
59, 8143, 8159, 8182, 8136, 8146, 8149, 8148, 8173, 8169, 8122, 8129, 8131, 8121, 8146,7.430947780609131
60, 8143, 8154, 8118, 8154, 8156, 8161, 8168, 8166, 8180, 8145, 8136, 8118, 8129, 8149,7.446568250656128
61, 8152, 8163, 8188, 8150, 8163, 8168, 8172, 8170, 8180, 8154, 8131, 8129, 8133, 8160,7.446568250656128
62, 8157, 8164, 8151, 8143, 8158, 8155, 8158, 8173, 8169, 8144, 8135, 8140, 8134, 8156,7.462774753570557
63, 8166, 8169, 8141, 8143, 8154, 8145, 8148, 8164, 8151, 8126, 8144, 8144, 8131, 8146,7.462774753570557
64, 8167, 8188, 8190, 8146, 8158, 8157, 8146, 8171, 8146, 8114, 8137, 8147, 8119, 8143,7.478533983230591
65, 8156, 8179, 8123, 8147, 8168, 8148, 8151, 8168, 8174, 8131, 8134, 8135, 8118, 8136,7.478533983230591
66, 8164, 8179, 8186, 8134, 8169, 8148, 8143, 8170, 8178, 8133, 8141, 8150, 8125, 8142,7.494548797607422
67, 8165, 8183, 8160, 8146, 8168, 8163, 8148, 8168, 8158, 8131, 8144, 8146, 8126, 8147,7.494548797607422
68, 8151, 8180, 8137, 8161, 8168, 8162, 8150, 8154, 8133, 8123, 8136, 8121, 8106, 8129,7.510571718215942
69, 8144, 8185, 8188, 8158, 8168, 8169, 8152, 8163, 8121, 8120, 8125, 8127, 8096, 8124,7.510571718215942
70, 8132, 8170, 8117, 8160, 8170, 8173, 8167, 8160, 8130, 8132, 8116, 8116, 8108, 8134,7.525628566741943
71, 8137, 8167, 8176, 8162, 8171, 8182, 8169, 8165, 8130, 8127, 8105, 8113, 8105, 8138,7.525628566741943
72, 8150, 8177, 8163, 8177, 8180, 8194, 8183, 8179, 8159, 8140, 8121, 8119, 8108, 8145,7.540719985961914
73, 8151, 8170, 8133, 8175, 8178, 8187, 8187, 8173, 8183, 8159, 8129, 8111, 8118, 8144,7.540719985961914
74, 8146, 8172, 8191, 8154, 8168, 8190, 8175, 8177, 8175, 8155, 8110, 8115, 8110, 8137,7.556386947631836
75, 8137, 8161, 8116, 8160, 8173, 8187, 8180, 8171, 8186, 8157, 8105, 8106, 8106, 8133,7.556386947631836
76, 8140, 8155, 8162, 8151, 8168, 8180, 8184, 8169, 8191, 8159, 8113, 8114, 8114, 8143,7.571934700012207
77, 8145, 8162, 8160, 8144, 8159, 8180, 8188, 8175, 8187, 8168, 8128, 8129, 8131, 8153,7.571934700012207
78, 8156, 8163, 8124, 8154, 8160, 8168, 8181, 8162, 8176, 8164, 8131, 8129, 8133, 8150,7.587571144104004
79, 8163, 8174, 8201, 8151, 8160, 8172, 8168, 8166, 8158, 8139, 8124, 8148, 8126, 8154,7.587571144104004
80, 8170, 8179, 8136, 8157, 8167, 8166, 8178, 8168, 8175, 8148, 8150, 8163, 8139, 8163,7.602587699890137
81, 8182, 8187, 8169, 8154, 8162, 8148, 8164, 8170, 8176, 8145, 8166, 8172, 8139, 8156,7.602587699890137
82, 8174, 8188, 8177, 8155, 8162, 8147, 8150, 8176, 8170, 8134, 8159, 8171, 8135, 8147,7.618542671203613
83, 8167, 8175, 8133, 8164, 8173, 8152, 8155, 8167, 8181, 8148, 8169, 8172, 8151, 8151,7.618542671203613
84, 8179, 8190, 8208, 8165, 8175, 8170, 8145, 8172, 8175, 8146, 8185, 8191, 8159, 8154,7.634062767028809
85, 8178, 8198, 8145, 8189, 8179, 8168, 8147, 8171, 8168, 8150, 8184, 8176, 8149, 8148,7.634062767028809
86, 8171, 8199, 8177, 8194, 8175, 8166, 8149, 8170, 8145, 8145, 8163, 8162, 8131, 8144,7.649723052978516
87, 8167, 8198, 8196, 8197, 8180, 8187, 8163, 8173, 8144, 8146, 8162, 8171, 8138, 8153,7.649723052978516
88, 8177, 8183, 8136, 8220, 8198, 8182, 8184, 8167, 8171, 8169, 8179, 8170, 8158, 8165,7.665618896484375
89, 8192, 8188, 8223, 8209, 8201, 8182, 8183, 8180, 8177, 8181, 8179, 8189, 8159, 8178,7.665618896484375
90, 8178, 8178, 8155, 8200, 8192, 8190, 8191, 8173, 8189, 8197, 8176, 8182, 8164, 8182,7.681136608123779
91, 8167, 8154, 8154, 8201, 8177, 8184, 8188, 8169, 8188, 8186, 8158, 8158, 8155, 8174,7.681136608123779
92, 8172, 8151, 8192, 8196, 8168, 8180, 8184, 8182, 8176, 8171, 8142, 8157, 8142, 8175,7.697256565093994
93, 8164, 8148, 8122, 8185, 8166, 8172, 8191, 8165, 8182, 8174, 8151, 8154, 8152, 8175,7.697256565093994
94, 8167, 8158, 8194, 8172, 8163, 8177, 8181, 8169, 8180, 8167, 8156, 8171, 8163, 8177,7.7127907276153564
95, 8180, 8163, 8152, 8188, 8170, 8168, 8178, 8170, 8187, 8179, 8168, 8181, 8174, 8182,7.7127907276153564
96, 8186, 8160, 8153, 8182, 8163, 8141, 8162, 8157, 8185, 8178, 8174, 8185, 8173, 8177,7.728854417800903
97, 8179, 8171, 8189, 8175, 8153, 8138, 8148, 8165, 8168, 8158, 8165, 8194, 8162, 8164,7.728854417800903
98, 8166, 8167, 8112, 8185, 8164, 8141, 8153, 8164, 8155, 8148, 8154, 8173, 8151, 8143,7.7437903881073
99, 8168, 8165, 8180, 8159, 8160, 8147, 8144, 8167, 8139, 8129, 8145, 8168, 8139, 8138,7.7437903881073
100, 8172, 8172, 8150, 8155, 8154, 8150, 8156, 8167, 8156, 8136, 8152, 8177, 8150, 8145,7.759653329849243
101, 8179, 8184, 8150, 8174, 8159, 8144, 8156, 8164, 8160, 8148, 8160, 8181, 8152, 8146,7.759653329849243
102, 8177, 8195, 8196, 8179, 8162, 8154, 8141, 8179, 8143, 8150, 8166, 8186, 8138, 8148,7.7748284339904785
103, 8160, 8174, 8121, 8179, 8166, 8154, 8149, 8169, 8144, 8162, 8170, 8169, 8139, 8141,7.7748284339904785
104, 8163, 8182, 8190, 8174, 8174, 8156, 8146, 8162, 8138, 8158, 8161, 8175, 8142, 8141,7.790895462036133
105, 8172, 8203, 8173, 8199, 8186, 8170, 8143, 8172, 8141, 8159, 8161, 8179, 8138, 8150,7.790895462036133
106, 8172, 8194, 8154, 8216, 8188, 8171, 8148, 8169, 8136, 8152, 8159, 8166, 8128, 8144,7.8065245151519775
107, 8171, 8190, 8201, 8207, 8183, 8179, 8157, 8166, 8125, 8153, 8158, 8170, 8132, 8144,7.8065245151519775
108, 8164, 8177, 8130, 8201, 8179, 8179, 8167, 8160, 8143, 8174, 8160, 8160, 8145, 8150,7.821533679962158
109, 8156, 8170, 8187, 8191, 8178, 8186, 8169, 8171, 8156, 8169, 8145, 8158, 8138, 8150,7.821533679962158
110, 8161, 8171, 8171, 8198, 8187, 8203, 8193, 8178, 8179, 8190, 8156, 8169, 8154, 8162,7.83707857131958
111, 8181, 8176, 8154, 8201, 8181, 8197, 8200, 8173, 8197, 8213, 8176, 8179, 8174, 8180,7.83707857131958
112, 8187, 8192, 8218, 8203, 8179, 8193, 8186, 8183, 8185, 8192, 8158, 8180, 8164, 8175,7.852628707885742
113, 8176, 8182, 8140, 8215, 8190, 8181, 8188, 8177, 8186, 8186, 8142, 8152, 8160, 8160,7.852628707885742
114, 8182, 8172, 8175, 8184, 8173, 8179, 8184, 8173, 8192, 8198, 8145, 8154, 8163, 8166,7.868358850479126
115, 8181, 8168, 8173, 8164, 8164, 8187, 8186, 8177, 8205, 8211, 8152, 8171, 8166, 8176,7.868358850479126
116, 8178, 8164, 8147, 8179, 8174, 8175, 8184, 8166, 8208, 8208, 8154, 8168, 8167, 8173,7.885956287384033
117, 8190, 8179, 8201, 8185, 8171, 8173, 8176, 8175, 8192, 8191, 8156, 8179, 8168, 8175,7.885956287384033
118, 8192, 8171, 8137, 8179, 8165, 8170, 8182, 8178, 8194, 8190, 8165, 8182, 8179, 8176,7.898962497711182
119, 8189, 8163, 8184, 8157, 8165, 8167, 8177, 8167, 8193, 8183, 8165, 8188, 8183, 8175,7.898962497711182
120, 8182, 8169, 8178, 8156, 8170, 8166, 8176, 8165, 8189, 8172, 8165, 8189, 8175, 8168,7.9148900508880615
121, 8175, 8169, 8133, 8166, 8171, 8155, 8177, 8167, 8186, 8171, 8172, 8180, 8173, 8155,7.9319679737091064
122, 8188, 8188, 8207, 8167, 8173, 8161, 8174, 8171, 8173, 8181, 8186, 8194, 8185, 8164,7.9319679737091064
123, 8191, 8199, 8150, 8192, 8186, 8159, 8180, 8170, 8167, 8185, 8197, 8194, 8191, 8175,7.9319679737091064
124, 8188, 8200, 8183, 8201, 8187, 8158, 8164, 8175, 8150, 8163, 8184, 8194, 8173, 8162,7.946006536483765
125, 8189, 8203, 8202, 8204, 8187, 8172, 8161, 8177, 8148, 8174, 8180, 8205, 8179, 8160,7.946006536483765
126, 8192, 8198, 8152, 8217, 8197, 8166, 8184, 8168, 8154, 8198, 8184, 8197, 8198, 8169,7.962846279144287
127, 8192, 8203, 8223, 8219, 8194, 8180, 8189, 8177, 8151, 8185, 8175, 8198, 8183, 8172,7.963851690292358
236, 8188, 8190, 8162, 8231, 8194, 8196, 8198, 8171, 8172, 8197, 8173, 8190, 8174, 8169,7.978970050811768
0, 8186, 8172, 8172, 8206, 8192, 8186, 8202, 8168, 8180, 8211, 8161, 8183, 8179, 8170,7.978970050811768
1, 8175, 8170, 8194, 8159, 8175, 8183, 8207, 8186, 8184, 8205, 8147, 8182, 8185, 8178,7.992981672286987
2, 8175, 8156, 8129, 8157, 8160, 8168, 8206, 8171, 8191, 8199, 8151, 8169, 8187, 8174,8.00871992111206
3, 8192, 8166, 8201, 8168, 8161, 8152, 8179, 8163, 8168, 8178, 8159, 8188, 8182, 8165,8.00871992111206
4, 8192, 8187, 8160, 8176, 8181, 8153, 8171, 8168, 8165, 8181, 8178, 8203, 8193, 8169,8.024560689926147
5, 8193, 8200, 8171, 8170, 8194, 8169, 8168, 8170, 8157, 8182, 8193, 8207, 8192, 8167,8.024560689926147
6, 8201, 8207, 8207, 8187, 8196, 8185, 8175, 8180, 8144, 8174, 8195, 8210, 8185, 8159,8.049950361251831
7, 8192, 8192, 8134, 8204, 8196, 8170, 8194, 8174, 8160, 8186, 8192, 8189, 8185, 8150,8.049950361251831
8, 8179, 8189, 8198, 8183, 8200, 8176, 8196, 8176, 8171, 8192, 8178, 8178, 8172, 8151,8.049950361251831
9, 8183, 8195, 8169, 8210, 8213, 8201, 8213, 8177, 8190, 8213, 8180, 8173, 8184, 8170,8.049950361251831
10, 8208, 8196, 8174, 8244, 8207, 8194, 8212, 8171, 8204, 8237, 8190, 8192, 8219, 8200,8.05894660949707
11, 8227, 8202, 8227, 8225, 8196, 8170, 8184, 8179, 8201, 8247, 8201, 8233, 8235, 8222,8.070931434631348
12, 8226, 8193, 8157, 8214, 8194, 8153, 8174, 8169, 8200, 8252, 8212, 8232, 8237, 8220,8.08800196647644
13, 8227, 8191, 8210, 8197, 8170, 8154, 8170, 8167, 8171, 8217, 8207, 8219, 8228, 8207,8.08800196647644
14, 8205, 8181, 8166, 8172, 8144, 8146, 8177, 8170, 8149, 8184, 8200, 8204, 8216, 8185,8.103107690811157
15, 8181, 8172, 8139, 8151, 8140, 8129, 8174, 8162, 8139, 8155, 8188, 8189, 8193, 8158,8.103107690811157
16, 8180, 8185, 8197, 8151, 8145, 8147, 8170, 8170, 8135, 8141, 8177, 8191, 8180, 8149,8.120779991149902
17, 8193, 8186, 8137, 8181, 8161, 8159, 8193, 8173, 8152, 8174, 8203, 8197, 8203, 8166,8.120779991149902
18, 8208, 8203, 8205, 8201, 8174, 8164, 8193, 8176, 8157, 8195, 8219, 8226, 8221, 8190,8.120779991149902
19, 8204, 8211, 8194, 8211, 8187, 8179, 8183, 8177, 8167, 8206, 8211, 8232, 8225, 8196,8.135035276412964
20, 8201, 8199, 8168, 8214, 8193, 8180, 8189, 8171, 8178, 8216, 8210, 8208, 8224, 8188,8.151600360870361
21, 8205, 8208, 8226, 8227, 8192, 8192, 8206, 8182, 8181, 8214, 8206, 8205, 8213, 8187,8.151600360870361
22, 8188, 8199, 8149, 8235, 8201, 8199, 8230, 8181, 8207, 8228, 8199, 8181, 8211, 8176,8.166134119033813
23, 8176, 8190, 8195, 8210, 8199, 8196, 8234, 8182, 8207, 8230, 8191, 8169, 8214, 8169,8.166134119033813
24, 8178, 8194, 8184, 8207, 8193, 8191, 8234, 8185, 8186, 8223, 8185, 8174, 8222, 8179,8.166134119033813
25, 8181, 8186, 8142, 8202, 8191, 8179, 8231, 8173, 8180, 8218, 8180, 8177, 8224, 8187,8.180687427520752
26, 8197, 8193, 8219, 8185, 8192, 8179, 8226, 8180, 8197, 8218, 8189, 8204, 8226, 8202,8.19688105583191
27, 8213, 8193, 8159, 8199, 8194, 8166, 8227, 8175, 8220, 8221, 8195, 8206, 8236, 8209,8.19688105583191
28, 8200, 8176, 8187, 8183, 8181, 8159, 8202, 8169, 8202, 8196, 8165, 8192, 8220, 8188,8.19688105583191
29, 8170, 8160, 8179, 8160, 8174, 8163, 8198, 8182, 8199, 8195, 8159, 8186, 8205, 8171,8.212920188903809
30, 8166, 8151, 8124, 8165, 8171, 8155, 8210, 8180, 8217, 8210, 8172, 8176, 8207, 8168,8.212920188903809
31, 8177, 8165, 8191, 8162, 8170, 8166, 8198, 8177, 8206, 8197, 8168, 8180, 8205, 8168,8.227447032928467
32, 8173, 8168, 8131, 8166, 8187, 8172, 8201, 8169, 8208, 8209, 8188, 8179, 8217, 8166,8.242630958557129
33, 8175, 8172, 8165, 8163, 8196, 8165, 8205, 8173, 8215, 8220, 8217, 8193, 8230, 8170,8.242630958557129
34, 8175, 8182, 8185, 8165, 8194, 8170, 8209, 8182, 8218, 8214, 8225, 8206, 8233, 8178,8.258321523666382
35, 8173, 8175, 8128, 8170, 8193, 8163, 8201, 8166, 8210, 8209, 8216, 8200, 8226, 8173,8.258321523666382
36, 8186, 8181, 8200, 8157, 8188, 8164, 8180, 8170, 8191, 8194, 8207, 8212, 8212, 8169,8.273615837097168
37, 8192, 8189, 8152, 8171, 8194, 8164, 8193, 8173, 8199, 8204, 8215, 8212, 8212, 8171,8.273615837097168
38, 8187, 8191, 8176, 8185, 8198, 8161, 8192, 8168, 8189, 8208, 8216, 8206, 8202, 8173,8.289559602737427
39, 8184, 8196, 8202, 8189, 8196, 8172, 8187, 8176, 8178, 8206, 8215, 8207, 8203, 8169,8.289559602737427
40, 8183, 8191, 8139, 8195, 8202, 8172, 8205, 8175, 8193, 8219, 8219, 8190, 8214, 8160,8.30555772781372
41, 8179, 8198, 8209, 8194, 8203, 8180, 8209, 8178, 8187, 8221, 8215, 8194, 8206, 8164,8.30555772781372
42, 8168, 8194, 8160, 8205, 8206, 8181, 8206, 8167, 8185, 8229, 8219, 8194, 8205, 8167,8.321056127548218
43, 8170, 8185, 8160, 8197, 8205, 8170, 8194, 8159, 8180, 8223, 8211, 8186, 8209, 8160,8.321056127548218
44, 8172, 8183, 8196, 8186, 8205, 8183, 8200, 8176, 8178, 8219, 8195, 8189, 8211, 8171,8.33665680885315
45, 8168, 8171, 8136, 8195, 8209, 8186, 8221, 8173, 8200, 8229, 8197, 8182, 8211, 8184,8.33665680885315
46, 8178, 8182, 8207, 8192, 8201, 8186, 8224, 8174, 8209, 8215, 8188, 8189, 8200, 8185,8.35267186164856
47, 8177, 8178, 8163, 8189, 8199, 8190, 8238, 8180, 8216, 8211, 8170, 8171, 8191, 8174,8.35267186164856
48, 8168, 8158, 8147, 8172, 8199, 8187, 8244, 8179, 8218, 8215, 8158, 8148, 8183, 8163,8.3685302734375
49, 8167, 8170, 8196, 8161, 8193, 8198, 8240, 8189, 8224, 8223, 8161, 8163, 8189, 8165,8.3685302734375
50, 8170, 8168, 8131, 8164, 8196, 8194, 8253, 8181, 8245, 8247, 8182, 8171, 8212, 8175,8.383593082427979
51, 8184, 8167, 8190, 8146, 8196, 8179, 8243, 8177, 8242, 8247, 8202, 8190, 8221, 8181,8.383593082427979
52, 8186, 8171, 8159, 8147, 8194, 8167, 8216, 8167, 8232, 8235, 8211, 8199, 8221, 8182,8.39905571937561
53, 8177, 8169, 8143, 8149, 8187, 8155, 8193, 8158, 8227, 8224, 8202, 8189, 8218, 8174,8.39905571937561
54, 8183, 8183, 8200, 8149, 8194, 8162, 8193, 8180, 8236, 8227, 8207, 8201, 8222, 8171,8.41460108757019
55, 8189, 8186, 8140, 8173, 8210, 8156, 8198, 8173, 8244, 8237, 8233, 8202, 8225, 8167,8.41460108757019
56, 8178, 8184, 8195, 8167, 8194, 8139, 8158, 8162, 8201, 8203, 8222, 8199, 8200, 8152,8.430240392684937
57, 8165, 8185, 8171, 8163, 8186, 8140, 8148, 8170, 8175, 8184, 8200, 8188, 8185, 8137,8.430240392684937
58, 8174, 8189, 8148, 8177, 8197, 8154, 8169, 8169, 8176, 8194, 8201, 8184, 8190, 8140,8.44586706161499
59, 8183, 8199, 8206, 8184, 8202, 8176, 8173, 8170, 8163, 8191, 8204, 8208, 8187, 8153,8.44586706161499
60, 8178, 8192, 8141, 8196, 8205, 8172, 8177, 8164, 8169, 8197, 8207, 8204, 8190, 8159,8.46141791343689
61, 8185, 8194, 8197, 8194, 8206, 8168, 8171, 8167, 8169, 8193, 8189, 8192, 8181, 8157,8.46141791343689
62, 8179, 8183, 8182, 8191, 8207, 8181, 8177, 8172, 8170, 8203, 8165, 8182, 8167, 8155,8.476598262786865
63, 8173, 8165, 8141, 8190, 8200, 8175, 8180, 8166, 8177, 8219, 8161, 8178, 8175, 8159,8.476598262786865
64, 8191, 8178, 8211, 8194, 8194, 8178, 8173, 8175, 8180, 8215, 8181, 8196, 8186, 8177,8.491991996765137
65, 8193, 8174, 8146, 8211, 8199, 8177, 8192, 8168, 8196, 8225, 8202, 8192, 8193, 8180,8.491991996765137
66, 8184, 8163, 8181, 8190, 8197, 8176, 8200, 8164, 8209, 8230, 8196, 8195, 8196, 8170,8.50716257095337
67, 8181, 8166, 8180, 8170, 8199, 8182, 8200, 8177, 8232, 8238, 8199, 8202, 8201, 8174,8.50716257095337
68, 8179, 8161, 8131, 8175, 8198, 8167, 8198, 8171, 8237, 8237, 8206, 8191, 8188, 8175,8.521972179412842
69, 8187, 8174, 8211, 8172, 8186, 8165, 8188, 8170, 8217, 8215, 8202, 8205, 8176, 8170,8.53751277923584
70, 8203, 8179, 8154, 8181, 8184, 8172, 8193, 8169, 8221, 8219, 8218, 8215, 8206, 8174,8.53751277923584
71, 8214, 8174, 8181, 8175, 8189, 8174, 8188, 8169, 8222, 8218, 8226, 8228, 8224, 8183,8.53751277923584
72, 8203, 8182, 8201, 8173, 8200, 8169, 8188, 8171, 8228, 8213, 8227, 8244, 8223, 8190,8.5530526638031
73, 8193, 8184, 8151, 8188, 8206, 8153, 8188, 8164, 8238, 8219, 8234, 8233, 8227, 8183,8.5530526638031
74, 8204, 8191, 8219, 8184, 8194, 8153, 8166, 8174, 8220, 8209, 8238, 8234, 8220, 8175,8.569803476333618
75, 8203, 8187, 8158, 8185, 8189, 8147, 8163, 8172, 8213, 8211, 8244, 8233, 8215, 8176,8.569803476333618
76, 8201, 8183, 8178, 8177, 8192, 8147, 8171, 8168, 8201, 8203, 8239, 8233, 8211, 8177,8.585576295852661
77, 8200, 8189, 8208, 8172, 8192, 8170, 8183, 8180, 8196, 8189, 8231, 8229, 8207, 8166,8.585576295852661
78, 8192, 8180, 8142, 8186, 8192, 8159, 8182, 8171, 8201, 8187, 8224, 8203, 8198, 8150,8.599968671798706
79, 8187, 8191, 8211, 8192, 8193, 8156, 8167, 8171, 8186, 8182, 8213, 8205, 8182, 8160,8.599968671798706
80, 8181, 8195, 8164, 8206, 8202, 8175, 8181, 8169, 8182, 8197, 8217, 8207, 8191, 8172,8.617587089538574
81, 8180, 8186, 8168, 8204, 8203, 8174, 8175, 8160, 8178, 8194, 8214, 8197, 8192, 8164,8.617587089538574
82, 8177, 8184, 8204, 8198, 8202, 8175, 8148, 8167, 8175, 8192, 8199, 8194, 8183, 8164,8.633125066757202
83, 8175, 8174, 8140, 8207, 8207, 8179, 8151, 8164, 8189, 8211, 8202, 8188, 8200, 8173,8.633125066757202
84, 8183, 8178, 8206, 8196, 8196, 8187, 8163, 8171, 8191, 8207, 8201, 8197, 8195, 8179,8.647790431976318
85, 8182, 8170, 8165, 8190, 8192, 8187, 8187, 8170, 8209, 8217, 8192, 8192, 8192, 8181,8.647790431976318
86, 8185, 8164, 8162, 8183, 8199, 8185, 8197, 8159, 8224, 8234, 8190, 8193, 8266, 8186,8.661903858184814
87, 8184, 8172, 8202, 8179, 8197, 8189, 8195, 8171, 8221, 8235, 8197, 8211, 8327, 8191,8.661903858184814
88, 8172, 8157, 8125, 8175, 8181, 8163, 8187, 8172, 8226, 8237, 8200, 8200, 8266, 8180,8.676315307617188
89, 8175, 8157, 8189, 8152, 8164, 8147, 8158, 8178, 8221, 8229, 8188, 8203, 8195, 8170,8.692754983901978
90, 8184, 8168, 8164, 8160, 8170, 8150, 8157, 8177, 8221, 8227, 8199, 8214, 8221, 8182,8.692754983901978
91, 8186, 8163, 8151, 8166, 8172, 8139, 8150, 8161, 8197, 8205, 8211, 8214, 8225, 8183,8.70803427696228
92, 8185, 8172, 8205, 8159, 8174, 8146, 8134, 8167, 8157, 8176, 8208, 8214, 8185, 8164,8.70803427696228
93, 8182, 8180, 8140, 8186, 8194, 8157, 8151, 8167, 8159, 8186, 8210, 8194, 8181, 8156,8.723552703857422
94, 8184, 8188, 8199, 8197, 8194, 8165, 8164, 8168, 8163, 8192, 8199, 8184, 8183, 8164,8.723552703857422
95, 8180, 8188, 8174, 8203, 8197, 8174, 8180, 8174, 8173, 8202, 8192, 8169, 8188, 8160,8.739598751068115
96, 8174, 8178, 8139, 8214, 8203, 8173, 8190, 8176, 8184, 8215, 8186, 8150, 8188, 8152,8.739598751068115
97, 8170, 8169, 8197, 8192, 8182, 8178, 8185, 8181, 8179, 8212, 8175, 8159, 8180, 8168,8.75479769706726
98, 8166, 8151, 8126, 8165, 8164, 8170, 8189, 8166, 8200, 8212, 8177, 8157, 8188, 8180,8.75479769706726
99, 8167, 8156, 8173, 8152, 8168, 8162, 8174, 8164, 8204, 8191, 8178, 8165, 8190, 8165,8.770218849182129
100, 8165, 8167, 8169, 8158, 8182, 8165, 8154, 8172, 8189, 8186, 8182, 8171, 8185, 8149,8.770218849182129
101, 8172, 8167, 8138, 8162, 8190, 8153, 8140, 8160, 8176, 8193, 8197, 8168, 8187, 8151,8.785866498947144
102, 8187, 8189, 8210, 8176, 8200, 8157, 8141, 8166, 8168, 8181, 8212, 8187, 8194, 8169,8.785866498947144
103, 8175, 8184, 8145, 8204, 8210, 8161, 8162, 8171, 8168, 8182, 8214, 8174, 8193, 8161,8.801922082901001
104, 8157, 8166, 8175, 8189, 8200, 8163, 8157, 8170, 8149, 8175, 8187, 8148, 8173, 8136,8.801922082901001
105, 8148, 8168, 8170, 8185, 8196, 8179, 8166, 8178, 8161, 8188, 8176, 8141, 8172, 8141,8.818034648895264
106, 8149, 8158, 8127, 8199, 8193, 8185, 8192, 8174, 8193, 8218, 8182, 8132, 8183, 8157,8.818034648895264
107, 8153, 8155, 8196, 8183, 8181, 8187, 8192, 8178, 8194, 8216, 8169, 8130, 8172, 8164,8.83352255821228
108, 8145, 8155, 8130, 8175, 8175, 8174, 8184, 8175, 8208, 8225, 8168, 8119, 8179, 8167,8.83352255821228
109, 8149, 8151, 8158, 8156, 8166, 8164, 8162, 8171, 8220, 8232, 8176, 8126, 8189, 8170,8.848886013031006
110, 8161, 8151, 8180, 8145, 8163, 8166, 8148, 8173, 8220, 8225, 8184, 8149, 8185, 8173,8.848886013031006
111, 8170, 8148, 8134, 8153, 8169, 8151, 8144, 8160, 8206, 8211, 8195, 8149, 8188, 8172,8.86434268951416
112, 8181, 8166, 8203, 8147, 8174, 8155, 8138, 8170, 8178, 8192, 8198, 8160, 8193, 8169,8.86434268951416
113, 8188, 8179, 8153, 8166, 8187, 8159, 8153, 8169, 8175, 8194, 8208, 8167, 8195, 8170,8.879896879196167
114, 8190, 8182, 8180, 8182, 8194, 8151, 8158, 8162, 8162, 8182, 8210, 8164, 8186, 8170,8.879896879196167
115, 8180, 8188, 8203, 8186, 8200, 8167, 8166, 8181, 8165, 8183, 8203, 8160, 8185, 8168,8.895520210266113
116, 8170, 8184, 8137, 8192, 8207, 8180, 8184, 8181, 8192, 8205, 8193, 8146, 8182, 8164,8.895520210266113
117, 8163, 8183, 8198, 8184, 8195, 8187, 8177, 8173, 8182, 8201, 8176, 8142, 8160, 8166,8.910608768463135
118, 8147, 8165, 8144, 8189, 8185, 8191, 8179, 8166, 8180, 8205, 8170, 8128, 8161, 8171,8.910608768463135
119, 8150, 8159, 8151, 8185, 8190, 8192, 8186, 8168, 8195, 8215, 8178, 8136, 8183, 8176,8.925770282745361
120, 8167, 8175, 8190, 8179, 8196, 8196, 8186, 8180, 8209, 8225, 8187, 8163, 8199, 8187,8.925770282745361
121, 8180, 8169, 8138, 8181, 8184, 8175, 8184, 8173, 8221, 8236, 8192, 8165, 8207, 8197,8.941397428512573
122, 8198, 8174, 8213, 8171, 8166, 8152, 8160, 8177, 8209, 8213, 8203, 8189, 8202, 8198,8.941397428512573
123, 8207, 8187, 8169, 8184, 8178, 8149, 8148, 8178, 8202, 8191, 8225, 8202, 8200, 8190,8.957198143005371
124, 8206, 8193, 8167, 8197, 8190, 8158, 8149, 8174, 8187, 8182, 8221, 8186, 8192, 8180,8.957198143005371
125, 8192, 8194, 8213, 8190, 8186, 8173, 8156, 8183, 8170, 8177, 8199, 8167, 8171, 8170,8.972028255462646
