COUNTER,F3,FC5,AF3,F7,T7,P7,O1,O2,P8,T8,F8,AF4,FC6,F4,Timestamp
5, 8092, 8146, 8116, 8124, 8141, 8151, 8148, 8149, 8153, 8167, 8131, 8115, 8146, 8126,0.040323734283447266
6, 8109, 8162, 8188, 8122, 8141, 8148, 8134, 8160, 8146, 8152, 8147, 8138, 8157, 8138,0.05682539939880371
7, 8112, 8173, 8139, 8145, 8151, 8152, 8140, 8171, 8142, 8154, 8163, 8137, 8156, 8135,0.05682539939880371
8, 8102, 8173, 8152, 8154, 8160, 8156, 8142, 8163, 8133, 8156, 8162, 8127, 8141, 8123,0.05682539939880371
9, 8103, 8184, 8197, 8162, 8166, 8175, 8155, 8170, 8148, 8162, 8163, 8138, 8147, 8130,0.0721275806427002
10, 8104, 8171, 8120, 8175, 8170, 8173, 8183, 8165, 8164, 8181, 8166, 8119, 8156, 8137,0.08768224716186523
11, 8103, 8165, 8182, 8162, 8170, 8185, 8197, 8173, 8147, 8180, 8148, 8112, 8142, 8144,0.08808517456054688
12, 8102, 8165, 8143, 8165, 8174, 8198, 8216, 8173, 8179, 8194, 8145, 8114, 8152, 8157,0.10359764099121094
13, 8111, 8167, 8137, 8158, 8167, 8177, 8211, 8166, 8216, 8204, 8154, 8121, 8169, 8166,0.10359764099121094
14, 8114, 8178, 8182, 8129, 8158, 8165, 8182, 8175, 8195, 8185, 8148, 8138, 8162, 8155,0.11897921562194824
15, 8107, 8165, 8112, 8126, 8163, 8153, 8165, 8163, 8167, 8161, 8141, 8126, 8149, 8125,0.11897921562194824
16, 8107, 8170, 8183, 8131, 8159, 8149, 8148, 8166, 8144, 8137, 8135, 8126, 8131, 8118,0.13684296607971191
17, 8104, 8181, 8162, 8153, 8161, 8164, 8158, 8176, 8145, 8151, 8139, 8123, 8128, 8136,0.13684296607971191
18, 8108, 8165, 8141, 8160, 8165, 8171, 8168, 8164, 8150, 8166, 8141, 8118, 8137, 8146,0.13684296607971191
19, 8114, 8157, 8192, 8149, 8158, 8175, 8172, 8171, 8156, 8169, 8142, 8126, 8151, 8153,0.15006089210510254
20, 8113, 8150, 8128, 8153, 8156, 8162, 8190, 8172, 8177, 8196, 8147, 8107, 8171, 8165,0.165574312210083
21, 8122, 8156, 8181, 8136, 8155, 8156, 8177, 8170, 8181, 8195, 8141, 8106, 8175, 8171,0.165574312210083
22, 8136, 8166, 8160, 8138, 8154, 8155, 8162, 8168, 8188, 8181, 8159, 8123, 8184, 8169,0.1816244125366211
23, 8141, 8173, 8147, 8150, 8162, 8143, 8159, 8161, 8189, 8183, 8196, 8140, 8194, 8164,0.1816244125366211
24, 8129, 8182, 8209, 8135, 8168, 8155, 8148, 8171, 8174, 8182, 8206, 8153, 8189, 8161,0.19694852828979492
25, 8110, 8171, 8133, 8140, 8169, 8166, 8155, 8171, 8173, 8184, 8190, 8127, 8182, 8156,0.19694852828979492
26, 8116, 8167, 8180, 8156, 8162, 8174, 8166, 8170, 8169, 8180, 8164, 8111, 8174, 8157,0.21274042129516602
27, 8126, 8170, 8181, 8164, 8164, 8191, 8183, 8177, 8188, 8199, 8163, 8117, 8188, 8173,0.21274042129516602
28, 8132, 8164, 8145, 8156, 8163, 8189, 8189, 8173, 8210, 8221, 8181, 8133, 8206, 8185,0.2287735939025879
29, 8142, 8172, 8200, 8151, 8157, 8171, 8168, 8176, 8193, 8206, 8193, 8164, 8206, 8185,0.2287735939025879
30, 8138, 8171, 8141, 8157, 8165, 8152, 8149, 8164, 8177, 8181, 8195, 8164, 8202, 8173,0.2442460060119629
31, 8137, 8176, 8183, 8147, 8170, 8154, 8143, 8157, 8154, 8155, 8185, 8161, 8190, 8156,0.2442460060119629
32, 8139, 8192, 8186, 8168, 8179, 8170, 8163, 8174, 8146, 8167, 8188, 8165, 8187, 8156,0.2599005699157715
33, 8136, 8182, 8148, 8188, 8180, 8172, 8174, 8176, 8161, 8191, 8183, 8149, 8190, 8169,0.2599005699157715
34, 8122, 8163, 8202, 8163, 8166, 8188, 8168, 8175, 8162, 8182, 8158, 8138, 8182, 8175,0.27559518814086914
35, 8102, 8145, 8124, 8152, 8156, 8184, 8185, 8163, 8171, 8179, 8155, 8125, 8181, 8161,0.27559518814086914
36, 8106, 8149, 8159, 8139, 8139, 8159, 8171, 8161, 8175, 8172, 8156, 8127, 8178, 8148,0.29075002670288086
37, 8114, 8160, 8178, 8122, 8143, 8157, 8146, 8176, 8181, 8176, 8161, 8140, 8185, 8159,0.29075002670288086
38, 8105, 8149, 8120, 8118, 8161, 8153, 8141, 8162, 8176, 8178, 8170, 8133, 8191, 8151,0.30681586265563965
39, 8099, 8166, 8188, 8115, 8159, 8148, 8130, 8161, 8155, 8149, 8161, 8130, 8168, 8129,0.30681586265563965
40, 8108, 8185, 8138, 8143, 8164, 8147, 8138, 8170, 8163, 8159, 8168, 8131, 8170, 8132,0.3225269317626953
41, 8129, 8187, 8170, 8162, 8175, 8156, 8143, 8168, 8159, 8179, 8186, 8150, 8186, 8153,0.3225269317626953
42, 8125, 8186, 8199, 8155, 8173, 8168, 8145, 8165, 8146, 8168, 8182, 8153, 8181, 8158,0.3379380702972412
43, 8100, 8173, 8129, 8155, 8170, 8159, 8152, 8158, 8140, 8151, 8151, 8115, 8201, 8134,0.3379380702972412
44, 8096, 8177, 8194, 8161, 8180, 8172, 8156, 8169, 8120, 8148, 8129, 8114, 8231, 8127,0.3537442684173584
45, 8100, 8175, 8150, 8180, 8195, 8188, 8179, 8169, 8138, 8176, 8147, 8123, 8213, 8146,0.3537442684173584
46, 8095, 8166, 8161, 8166, 8189, 8183, 8183, 8165, 8166, 8182, 8147, 8119, 8173, 8152,0.3698151111602783
47, 8083, 8160, 8185, 8146, 8177, 8188, 8179, 8175, 8161, 8173, 8121, 8113, 8166, 8145,0.3698151111602783
48, 8077, 8143, 8111, 8152, 8175, 8183, 8192, 8164, 8159, 8183, 8116, 8095, 8165, 8138,0.3859059810638428
49, 8085, 8148, 8181, 8140, 8165, 8181, 8192, 8169, 8164, 8184, 8119, 8108, 8156, 8146,0.3859059810638428
50, 8084, 8150, 8139, 8124, 8156, 8181, 8192, 8175, 8170, 8194, 8131, 8120, 8172, 8154,0.4017317295074463
51, 8088, 8143, 8137, 8116, 8153, 8169, 8184, 8165, 8165, 8194, 8139, 8121, 8177, 8152,0.4017317295074463
52, 8101, 8158, 8194, 8128, 8156, 8169, 8171, 8170, 8168, 8180, 8137, 8135, 8173, 8148,0.4169583320617676
53, 8105, 8166, 8130, 8150, 8163, 8160, 8174, 8163, 8183, 8181, 8154, 8144, 8188, 8150,0.4169583320617676
54, 8118, 8182, 8195, 8146, 8169, 8156, 8163, 8168, 8165, 8172, 8177, 8175, 8191, 8165,0.4325428009033203
55, 8124, 8195, 8173, 8158, 8175, 8151, 8149, 8169, 8157, 8164, 8188, 8182, 8191, 8168,0.4325428009033203
56, 8113, 8190, 8156, 8164, 8163, 8136, 8131, 8156, 8141, 8146, 8182, 8165, 8176, 8147,0.44761085510253906
57, 8107, 8195, 8207, 8156, 8148, 8144, 8127, 8166, 8115, 8129, 8179, 8173, 8158, 8139,0.44761085510253906
58, 8114, 8197, 8150, 8177, 8158, 8147, 8132, 8160, 8113, 8145, 8192, 8174, 8163, 8149,0.4627368450164795
59, 8119, 8207, 8207, 8203, 8170, 8148, 8118, 8161, 8100, 8136, 8191, 8170, 8161, 8160,0.4627368450164795
60, 8111, 8208, 8179, 8219, 8172, 8164, 8131, 8171, 8100, 8123, 8171, 8158, 8156, 8158,0.47792530059814453
61, 8112, 8192, 8155, 8206, 8166, 8171, 8146, 8163, 8114, 8136, 8155, 8153, 8156, 8152,0.47792530059814453
62, 8124, 8189, 8217, 8193, 8168, 8181, 8144, 8170, 8122, 8154, 8165, 8170, 8169, 8168,0.49399852752685547
63, 8129, 8177, 8150, 8209, 8177, 8186, 8161, 8173, 8142, 8170, 8177, 8162, 8188, 8186,0.49399852752685547
64, 8128, 8174, 8198, 8194, 8169, 8193, 8169, 8170, 8144, 8167, 8159, 8158, 8183, 8178,0.5095436573028564
65, 8115, 8176, 8183, 8183, 8169, 8196, 8170, 8171, 8152, 8177, 8156, 8162, 8179, 8172,0.5095436573028564
66, 8112, 8167, 8141, 8180, 8171, 8177, 8163, 8166, 8160, 8175, 8167, 8158, 8189, 8178,0.5246384143829346
67, 8120, 8171, 8200, 8154, 8155, 8170, 8151, 8174, 8154, 8162, 8159, 8169, 8195, 8180,0.5246384143829346
68, 8120, 8169, 8141, 8155, 8156, 8163, 8156, 8173, 8173, 8187, 8173, 8175, 8211, 8183,0.5398852825164795
69, 8131, 8174, 8185, 8159, 8163, 8155, 8155, 8174, 8185, 8190, 8190, 8190, 8220, 8189,0.5398852825164795
70, 8139, 8184, 8183, 8158, 8165, 8161, 8164, 8177, 8192, 8180, 8189, 8193, 8216, 8188,0.5559666156768799
71, 8141, 8184, 8138, 8162, 8168, 8153, 8172, 8164, 8198, 8187, 8194, 8186, 8217, 8182,0.5559666156768799
72, 8146, 8191, 8205, 8155, 8164, 8151, 8156, 8174, 8183, 8179, 8201, 8203, 8213, 8187,0.5715842247009277
73, 8137, 8191, 8141, 8158, 8171, 8148, 8158, 8173, 8176, 8169, 8199, 8187, 8208, 8179,0.5715842247009277
74, 8122, 8195, 8163, 8163, 8180, 8155, 8159, 8163, 8155, 8152, 8174, 8159, 8184, 8155,0.5866022109985352
75, 8116, 8195, 8174, 8172, 8186, 8185, 8174, 8175, 8148, 8153, 8159, 8156, 8166, 8153,0.602304220199585
76, 8110, 8176, 8123, 8175, 8185, 8187, 8199, 8172, 8164, 8172, 8151, 8149, 8165, 8158,0.602304220199585
77, 8097, 8168, 8182, 8155, 8172, 8182, 8192, 8170, 8155, 8165, 8122, 8135, 8150, 8148,0.602304220199585
78, 8083, 8155, 8125, 8146, 8166, 8182, 8192, 8169, 8149, 8160, 8114, 8115, 8139, 8139,0.6179518699645996
79, 8088, 8144, 8142, 8135, 8165, 8184, 8196, 8163, 8155, 8167, 8119, 8119, 8145, 8146,0.6179518699645996
80, 8099, 8153, 8165, 8128, 8170, 8189, 8195, 8171, 8171, 8182, 8116, 8136, 8153, 8163,0.634516716003418
81, 8104, 8151, 8117, 8128, 8169, 8171, 8192, 8167, 8188, 8185, 8122, 8135, 8154, 8168,0.634516716003418
82, 8117, 8156, 8182, 8116, 8156, 8161, 8180, 8172, 8187, 8171, 8142, 8152, 8161, 8171,0.6500110626220703
83, 8128, 8165, 8139, 8124, 8158, 8162, 8187, 8174, 8191, 8179, 8164, 8165, 8180, 8177,0.6500110626220703
84, 8133, 8174, 8159, 8130, 8167, 8155, 8177, 8166, 8173, 8171, 8164, 8178, 8178, 8172,0.6639254093170166
85, 8129, 8179, 8187, 8136, 8165, 8143, 8156, 8166, 8146, 8146, 8154, 8182, 8164, 8160,0.6639254093170166
86, 8120, 8158, 8124, 8131, 8160, 8140, 8154, 8161, 8150, 8144, 8154, 8156, 8161, 8146,0.6780829429626465
87, 8125, 8164, 8195, 8111, 8174, 8159, 8159, 8174, 8167, 8153, 8169, 8171, 8168, 8152,0.6937906742095947
88, 8112, 8173, 8149, 8134, 8183, 8160, 8167, 8175, 8179, 8173, 8186, 8183, 8177, 8159,0.6937906742095947
89, 8100, 8162, 8145, 8152, 8168, 8156, 8156, 8163, 8161, 8165, 8167, 8160, 8161, 8147,0.7092514038085938
90, 8111, 8167, 8197, 8146, 8175, 8181, 8161, 8175, 8153, 8154, 8156, 8160, 8150, 8147,0.7092514038085938
91, 8100, 8157, 8123, 8145, 8187, 8181, 8181, 8164, 8162, 8169, 8160, 8154, 8154, 8148,0.7249100208282471
92, 8084, 8141, 8175, 8137, 8170, 8177, 8171, 8158, 8147, 8162, 8130, 8136, 8139, 8141,0.7249100208282471
93, 8093, 8140, 8152, 8152, 8170, 8193, 8188, 8177, 8171, 8172, 8119, 8130, 8144, 8149,0.7400476932525635
94, 8102, 8142, 8140, 8143, 8178, 8189, 8208, 8181, 8203, 8192, 8132, 8143, 8156, 8164,0.7400476932525635
95, 8094, 8141, 8184, 8108, 8168, 8186, 8202, 8180, 8209, 8197, 8130, 8151, 8152, 8167,0.755657434463501
96, 8093, 8132, 8115, 8112, 8173, 8180, 8200, 8171, 8227, 8208, 8140, 8137, 8163, 8164,0.755657434463501
97, 8097, 8137, 8176, 8103, 8162, 8166, 8179, 8173, 8213, 8186, 8143, 8151, 8167, 8158,0.7711882591247559
98, 8090, 8141, 8149, 8094, 8152, 8154, 8168, 8171, 8198, 8174, 8140, 8161, 8164, 8152,0.7711882591247559
99, 8102, 8146, 8127, 8111, 8164, 8149, 8167, 8161, 8198, 8186, 8147, 8158, 8166, 8152,0.7868340015411377
100, 8112, 8159, 8193, 8116, 8162, 8163, 8165, 8178, 8192, 8179, 8153, 8170, 8163, 8149,0.7868340015411377
101, 8092, 8150, 8120, 8121, 8164, 8163, 8174, 8173, 8197, 8181, 8162, 8162, 8164, 8140,0.8025550842285156
102, 8095, 8158, 8178, 8118, 8174, 8165, 8165, 8169, 8188, 8177, 8163, 8167, 8155, 8143,0.8025550842285156
103, 8110, 8170, 8175, 8126, 8185, 8184, 8178, 8180, 8189, 8177, 8157, 8175, 8148, 8154,0.8180038928985596
104, 8103, 8160, 8132, 8150, 8191, 8183, 8198, 8173, 8191, 8174, 8142, 8158, 8141, 8153,0.8180038928985596
105, 8092, 8161, 8196, 8162, 8188, 8180, 8182, 8173, 8168, 8165, 8129, 8159, 8130, 8151,0.83384108543396
106, 8090, 8152, 8133, 8165, 8183, 8178, 8178, 8160, 8170, 8180, 8134, 8150, 8134, 8150,0.83384108543396
107, 8102, 8151, 8177, 8161, 8175, 8183, 8189, 8163, 8180, 8187, 8127, 8151, 8140, 8157,0.8498916625976562
108, 8114, 8161, 8179, 8174, 8172, 8193, 8195, 8178, 8187, 8191, 8129, 8164, 8145, 8174,0.8498916625976562
109, 8116, 8150, 8128, 8171, 8166, 8181, 8183, 8164, 8193, 8194, 8146, 8161, 8149, 8173,0.8653082847595215
110, 8116, 8153, 8197, 8148, 8170, 8176, 8171, 8171, 8202, 8192, 8155, 8173, 8156, 8174,0.8653082847595215
111, 8119, 8148, 8141, 8152, 8180, 8168, 8185, 8174, 8227, 8210, 8167, 8179, 8175, 8182,0.8806843757629395
112, 8124, 8133, 8167, 8130, 8161, 8152, 8172, 8163, 8216, 8196, 8167, 8185, 8169, 8174,0.8806843757629395
113, 8112, 8145, 8173, 8110, 8151, 8152, 8152, 8163, 8192, 8165, 8153, 8180, 8150, 8158,0.8967101573944092
114, 8105, 8154, 8118, 8126, 8158, 8143, 8149, 8161, 8183, 8160, 8148, 8161, 8151, 8144,0.8967101573944092
115, 8115, 8159, 8187, 8126, 8154, 8140, 8139, 8167, 8171, 8158, 8156, 8175, 8152, 8144,0.9125595092773438
116, 8105, 8152, 8136, 8127, 8156, 8140, 8137, 8165, 8163, 8151, 8165, 8167, 8144, 8138,0.9125595092773438
117, 8100, 8150, 8158, 8141, 8162, 8145, 8132, 8162, 8146, 8131, 8148, 8145, 8122, 8126,0.9277069568634033
118, 8119, 8165, 8187, 8163, 8174, 8166, 8151, 8171, 8147, 8137, 8141, 8151, 8119, 8138,0.9277069568634033
119, 8125, 8167, 8139, 8170, 8192, 8171, 8178, 8165, 8168, 8162, 8155, 8154, 8134, 8152,0.9437005519866943
120, 8116, 8171, 8202, 8174, 8193, 8179, 8176, 8175, 8165, 8164, 8153, 8161, 8137, 8151,0.9437005519866943
121, 8111, 8167, 8149, 8205, 8191, 8179, 8184, 8180, 8180, 8176, 8151, 8152, 8144, 8150,0.958815336227417
122, 8113, 8167, 8162, 8203, 8192, 8177, 8187, 8169, 8191, 8182, 8154, 8147, 8147, 8156,0.958815336227417
123, 8109, 8162, 8194, 8181, 8186, 8190, 8183, 8174, 8187, 8188, 8156, 8158, 8148, 8162,0.9748797416687012
124, 8111, 8138, 8128, 8179, 8173, 8171, 8180, 8165, 8187, 8197, 8158, 8150, 8154, 8165,0.9748797416687012
125, 8122, 8145, 8189, 8158, 8157, 8151, 8158, 8163, 8171, 8170, 8147, 8145, 8145, 8160,0.9907262325286865
126, 8121, 8147, 8146, 8147, 8158, 8156, 8160, 8168, 8175, 8170, 8149, 8144, 8147, 8151,0.9907262325286865
127, 8127, 8139, 8149, 8142, 8159, 8158, 8168, 8164, 8188, 8188, 8160, 8157, 8163, 8158,1.006798505783081
236, 8141, 8160, 8198, 8146, 8165, 8157, 8166, 8167, 8193, 8183, 8178, 8180, 8180, 8171,1.006798505783081
0, 8142, 8173, 8133, 8178, 8187, 8152, 8165, 8165, 8210, 8187, 8198, 8184, 8194, 8168,1.0225341320037842
1, 8145, 8177, 8194, 8188, 8176, 8154, 8146, 8173, 8204, 8177, 8189, 8190, 8183, 8167,1.0225341320037842
2, 8139, 8170, 8167, 8172, 8152, 8151, 8142, 8170, 8183, 8163, 8178, 8180, 8171, 8163,1.0379884243011475
3, 8136, 8167, 8153, 8161, 8161, 8145, 8146, 8158, 8164, 8155, 8182, 8170, 8165, 8146,1.0379884243011475
4, 8145, 8184, 8207, 8194, 8180, 8159, 8150, 8171, 8165, 8148, 8179, 8172, 8157, 8151,1.0531792640686035
5, 8137, 8176, 8144, 8232, 8178, 8167, 8166, 8168, 8175, 8156, 8168, 8151, 8155, 8166,1.0531792640686035
6, 8134, 8161, 8193, 8213, 8173, 8187, 8181, 8169, 8171, 8168, 8156, 8157, 8160, 8172,1.06886625289917
7, 8142, 8159, 8170, 8207, 8186, 8197, 8212, 8180, 8203, 8191, 8164, 8169, 8178, 8189,1.06886625289917
8, 8139, 8145, 8143, 8205, 8175, 8170, 8220, 8173, 8225, 8198, 8165, 8159, 8183, 8195,1.0849566459655762
9, 8129, 8140, 8187, 8156, 8144, 8162, 8205, 8178, 8206, 8185, 8144, 8162, 8174, 8189,1.0849566459655762
10, 8129, 8138, 8119, 8138, 8145, 8157, 8195, 8169, 8198, 8180, 8145, 8159, 8178, 8180,1.1006600856781006
11, 8148, 8148, 8182, 8159, 8156, 8149, 8175, 8162, 8188, 8157, 8163, 8170, 8179, 8173,1.1006600856781006
12, 8147, 8163, 8175, 8180, 8157, 8150, 8168, 8172, 8187, 8157, 8172, 8175, 8182, 8167,1.116941213607788
13, 8136, 8166, 8133, 8177, 8155, 8141, 8158, 8168, 8185, 8160, 8168, 8161, 8172, 8151,1.116941213607788
14, 8142, 8173, 8202, 8175, 8171, 8159, 8153, 8173, 8171, 8152, 8170, 8174, 8153, 8157,1.1319985389709473
15, 8142, 8161, 8140, 8206, 8184, 8179, 8187, 8170, 8188, 8181, 8172, 8170, 8161, 8178,1.1319985389709473
16, 8140, 8155, 8177, 8201, 8167, 8173, 8196, 8167, 8187, 8185, 8146, 8155, 8161, 8179,1.1480977535247803
17, 8128, 8151, 8170, 8188, 8166, 8178, 8184, 8172, 8169, 8167, 8134, 8144, 8146, 8167,1.1480977535247803
18, 8118, 8130, 8122, 8183, 8169, 8185, 8190, 8163, 8177, 8170, 8137, 8138, 8143, 8169,1.1637253761291504
19, 8125, 8132, 8191, 8150, 8145, 8182, 8190, 8171, 8188, 8177, 8129, 8156, 8157, 8179,1.1637253761291504
20, 8130, 8131, 8129, 8145, 8142, 8165, 8181, 8169, 8199, 8185, 8139, 8155, 8177, 8178,1.1798095703125
21, 8131, 8128, 8156, 8150, 8153, 8155, 8161, 8165, 8194, 8172, 8147, 8153, 8174, 8172,1.1798095703125
22, 8127, 8141, 8170, 8148, 8153, 8157, 8155, 8175, 8194, 8165, 8152, 8160, 8171, 8173,1.195828914642334
23, 8142, 8153, 8132, 8154, 8156, 8147, 8153, 8170, 8199, 8169, 8175, 8169, 8184, 8173,1.195828914642334
24, 8159, 8173, 8208, 8170, 8160, 8148, 8138, 8173, 8181, 8156, 8194, 8189, 8184, 8176,1.2119488716125488
25, 8144, 8170, 8145, 8183, 8162, 8150, 8147, 8171, 8178, 8156, 8189, 8174, 8176, 8175,1.2119488716125488
26, 8139, 8155, 8163, 8166, 8165, 8153, 8151, 8163, 8170, 8151, 8167, 8164, 8159, 8165,1.2277584075927734
27, 8147, 8159, 8196, 8183, 8172, 8170, 8163, 8167, 8170, 8146, 8163, 8173, 8151, 8161,1.2277584075927734
28, 8138, 8157, 8137, 8209, 8176, 8170, 8186, 8165, 8188, 8157, 8167, 8153, 8151, 8164,1.2431325912475586
29, 8132, 8159, 8198, 8178, 8169, 8180, 8188, 8180, 8185, 8158, 8148, 8148, 8145, 8172,1.2431325912475586
30, 8138, 8151, 8155, 8174, 8170, 8186, 8199, 8177, 8195, 8174, 8144, 8152, 8152, 8178,1.2587101459503174
31, 8144, 8138, 8166, 8178, 8161, 8169, 8186, 8163, 8195, 8174, 8142, 8153, 8150, 8176,1.2587101459503174
32, 8138, 8142, 8190, 8156, 8155, 8168, 8159, 8175, 8183, 8153, 8135, 8159, 8143, 8168,1.2737557888031006
33, 8135, 8146, 8125, 8149, 8163, 8165, 8163, 8164, 8190, 8157, 8143, 8158, 8150, 8158,1.2737557888031006
34, 8156, 8156, 8198, 8148, 8154, 8159, 8162, 8161, 8185, 8156, 8151, 8180, 8150, 8167,1.2888851165771484
35, 8165, 8160, 8159, 8161, 8154, 8157, 8150, 8168, 8175, 8156, 8170, 8190, 8151, 8172,1.2888851165771484
36, 8153, 8166, 8155, 8165, 8160, 8152, 8138, 8163, 8155, 8148, 8182, 8181, 8150, 8153,1.3048977851867676
37, 8157, 8182, 8205, 8174, 8167, 8165, 8156, 8177, 8153, 8148, 8188, 8190, 8151, 8158,1.3048977851867676
38, 8162, 8178, 8144, 8198, 8174, 8167, 8185, 8179, 8174, 8171, 8202, 8192, 8165, 8183,1.321000099182129
39, 8159, 8179, 8201, 8199, 8173, 8176, 8173, 8179, 8167, 8172, 8195, 8189, 8167, 8185,1.321000099182129
40, 8150, 8168, 8169, 8196, 8177, 8193, 8177, 8178, 8172, 8187, 8182, 8169, 8167, 8178,1.3370442390441895
41, 8152, 8149, 8156, 8182, 8174, 8187, 8195, 8173, 8190, 8207, 8177, 8155, 8171, 8182,1.3370442390441895
42, 8151, 8155, 8195, 8164, 8161, 8181, 8190, 8182, 8187, 8204, 8174, 8164, 8174, 8185,1.3531172275543213
43, 8143, 8154, 8117, 8169, 8153, 8163, 8171, 8167, 8189, 8196, 8175, 8166, 8182, 8175,1.3531172275543213
44, 8160, 8162, 8186, 8163, 8159, 8159, 8149, 8162, 8194, 8181, 8188, 8196, 8189, 8176,1.3678834438323975
45, 8169, 8176, 8179, 8162, 8172, 8168, 8158, 8173, 8203, 8187, 8208, 8209, 8198, 8180,1.3678834438323975
46, 8162, 8179, 8149, 8178, 8176, 8169, 8164, 8168, 8192, 8178, 8195, 8188, 8193, 8169,1.383805513381958
47, 8163, 8187, 8208, 8194, 8179, 8182, 8161, 8172, 8170, 8161, 8170, 8185, 8185, 8165,1.383805513381958
48, 8168, 8176, 8153, 8206, 8189, 8184, 8182, 8170, 8165, 8179, 8178, 8174, 8190, 8168,1.3990933895111084
49, 8173, 8172, 8197, 8200, 8189, 8194, 8196, 8172, 8159, 8191, 8178, 8178, 8188, 8173,1.3990933895111084
50, 8167, 8175, 8175, 8202, 8188, 8205, 8208, 8174, 8177, 8196, 8164, 8180, 8191, 8181,1.4155983924865723
51, 8165, 8161, 8135, 8184, 8180, 8180, 8205, 8161, 8187, 8196, 8158, 8162, 8189, 8174,1.4155983924865723
52, 8168, 8158, 8198, 8148, 8161, 8164, 8176, 8170, 8169, 8181, 8159, 8171, 8180, 8160,1.4305713176727295
53, 8170, 8163, 8143, 8153, 8164, 8159, 8168, 8171, 8171, 8179, 8175, 8190, 8192, 8152,1.4305713176727295
54, 8186, 8183, 8190, 8171, 8176, 8161, 8164, 8168, 8165, 8171, 8196, 8217, 8195, 8156,1.4457283020019531
55, 8183, 8196, 8187, 8189, 8186, 8173, 8171, 8174, 8149, 8163, 8206, 8221, 8191, 8158,1.4457283020019531
56, 8155, 8176, 8140, 8194, 8187, 8175, 8177, 8163, 8135, 8162, 8185, 8191, 8183, 8150,1.4608378410339355
57, 8152, 8168, 8209, 8184, 8186, 8186, 8178, 8169, 8126, 8164, 8161, 8193, 8171, 8163,1.4608378410339355
58, 8164, 8163, 8149, 8193, 8192, 8190, 8202, 8172, 8156, 8194, 8166, 8192, 8183, 8180,1.4768471717834473
59, 8159, 8156, 8173, 8178, 8175, 8183, 8200, 8168, 8161, 8192, 8160, 8179, 8187, 8169,1.4768471717834473
60, 8156, 8164, 8180, 8168, 8172, 8185, 8195, 8174, 8155, 8173, 8156, 8185, 8185, 8160,1.4946441650390625
61, 8182, 8172, 8139, 8177, 8189, 8172, 8202, 8172, 8177, 8178, 8181, 8208, 8200, 8173,1.4946441650390625
62, 8196, 8188, 8215, 8166, 8179, 8162, 8183, 8177, 8171, 8170, 8191, 8232, 8198, 8172,1.5104320049285889
63, 8175, 8185, 8151, 8182, 8172, 8160, 8176, 8174, 8162, 8166, 8181, 8216, 8183, 8154,1.5104320049285889
64, 8175, 8184, 8175, 8202, 8191, 8171, 8184, 8171, 8163, 8164, 8170, 8208, 8170, 8147,1.5244064331054688
65, 8181, 8198, 8205, 8211, 8203, 8196, 8200, 8180, 8169, 8171, 8171, 8207, 8173, 8161,1.5244064331054688
66, 8166, 8183, 8133, 8211, 8188, 8189, 8210, 8170, 8173, 8187, 8175, 8189, 8180, 8165,1.539306879043579
67, 8164, 8171, 8196, 8186, 8171, 8183, 8205, 8179, 8174, 8188, 8171, 8200, 8184, 8170,1.539306879043579
68, 8162, 8163, 8151, 8190, 8173, 8183, 8212, 8181, 8188, 8200, 8169, 8196, 8192, 8177,1.5566253662109375
69, 8151, 8158, 8155, 8194, 8167, 8170, 8202, 8166, 8171, 8190, 8150, 8179, 8176, 8164,1.5566253662109375
70, 8148, 8160, 8184, 8180, 8155, 8170, 8191, 8170, 8165, 8178, 8136, 8190, 8168, 8155,1.5726633071899414
71, 8154, 8153, 8127, 8172, 8158, 8170, 8201, 8168, 8204, 8193, 8152, 8196, 8195, 8162,1.5726633071899414
72, 8164, 8172, 8197, 8169, 8172, 8173, 8196, 8177, 8219, 8194, 8175, 8214, 8213, 8173,1.5867252349853516
73, 8160, 8177, 8149, 8180, 8186, 8163, 8191, 8177, 8213, 8195, 8189, 8215, 8209, 8165,1.587730884552002
74, 8155, 8163, 8145, 8169, 8176, 8144, 8178, 8165, 8187, 8176, 8174, 8201, 8191, 8146,1.6028721332550049
75, 8149, 8170, 8193, 8161, 8162, 8152, 8163, 8171, 8153, 8150, 8158, 8197, 8172, 8139,1.6028721332550049
76, 8138, 8172, 8129, 8175, 8170, 8156, 8162, 8165, 8148, 8152, 8165, 8183, 8166, 8131,1.6193671226501465
77, 8141, 8175, 8192, 8171, 8175, 8160, 8155, 8172, 8147, 8148, 8153, 8182, 8158, 8131,1.6193671226501465
78, 8141, 8170, 8159, 8182, 8178, 8173, 8169, 8175, 8156, 8155, 8143, 8167, 8152, 8145,1.6345181465148926
79, 8149, 8164, 8146, 8198, 8183, 8183, 8184, 8161, 8166, 8176, 8151, 8152, 8150, 8150,1.6345181465148926
80, 8151, 8167, 8201, 8184, 8180, 8191, 8187, 8175, 8164, 8182, 8147, 8157, 8147, 8151,1.6487627029418945
81, 8133, 8149, 8126, 8173, 8173, 8184, 8194, 8170, 8161, 8174, 8130, 8137, 8144, 8149,1.6487627029418945
82, 8131, 8146, 8177, 8173, 8165, 8189, 8188, 8158, 8155, 8159, 8118, 8133, 8131, 8147,1.6648690700531006
83, 8137, 8151, 8158, 8171, 8165, 8195, 8196, 8168, 8173, 8173, 8126, 8140, 8136, 8148,1.6648690700531006
84, 8134, 8145, 8133, 8148, 8159, 8180, 8200, 8171, 8182, 8176, 8133, 8134, 8147, 8157,1.6829609870910645
85, 8138, 8152, 8194, 8133, 8146, 8175, 8185, 8173, 8168, 8158, 8129, 8150, 8146, 8170,1.6829609870910645
86, 8146, 8149, 8129, 8145, 8149, 8160, 8182, 8165, 8171, 8167, 8143, 8167, 8157, 8169,1.6971135139465332
87, 8153, 8154, 8170, 8135, 8151, 8154, 8174, 8167, 8166, 8161, 8152, 8190, 8161, 8165,1.6971135139465332
88, 8158, 8168, 8164, 8141, 8161, 8170, 8173, 8173, 8171, 8156, 8162, 8201, 8167, 8167,1.7131881713867188
89, 8166, 8168, 8149, 8154, 8170, 8168, 8164, 8165, 8173, 8162, 8172, 8201, 8168, 8159,1.7131881713867188
90, 8161, 8174, 8208, 8141, 8165, 8165, 8147, 8171, 8150, 8148, 8166, 8205, 8153, 8149,1.7289466857910156
91, 8136, 8168, 8130, 8149, 8163, 8158, 8147, 8163, 8145, 8143, 8160, 8178, 8142, 8139,1.7289466857910156
92, 8134, 8175, 8176, 8161, 8165, 8156, 8133, 8159, 8134, 8140, 8156, 8171, 8128, 8134,1.7445735931396484
93, 8150, 8190, 8187, 8177, 8178, 8167, 8141, 8172, 8139, 8152, 8156, 8188, 8125, 8150,1.7445735931396484
94, 8146, 8171, 8144, 8172, 8179, 8172, 8168, 8168, 8158, 8161, 8146, 8177, 8131, 8155,1.7606971263885498
95, 8123, 8155, 8203, 8147, 8165, 8187, 8174, 8174, 8156, 8152, 8124, 8158, 8127, 8141,1.7606971263885498
96, 8107, 8153, 8137, 8161, 8173, 8194, 8187, 8170, 8172, 8170, 8123, 8141, 8126, 8144,1.7760958671569824
97, 8125, 8163, 8169, 8172, 8176, 8193, 8192, 8163, 8181, 8177, 8118, 8155, 8125, 8156,1.7760958671569824
98, 8141, 8162, 8184, 8168, 8164, 8193, 8192, 8169, 8178, 8174, 8112, 8173, 8136, 8158,1.7917547225952148
99, 8137, 8144, 8132, 8165, 8162, 8171, 8187, 8161, 8179, 8185, 8126, 8165, 8150, 8162,1.7917547225952148
100, 8138, 8152, 8194, 8145, 8162, 8157, 8166, 8170, 8176, 8183, 8136, 8174, 8150, 8171,1.808971881866455
101, 8140, 8157, 8135, 8143, 8155, 8146, 8159, 8170, 8184, 8181, 8148, 8177, 8158, 8165,1.808971881866455
102, 8145, 8155, 8163, 8137, 8141, 8140, 8148, 8159, 8168, 8167, 8159, 8188, 8160, 8152,1.8225512504577637
103, 8144, 8162, 8187, 8135, 8149, 8156, 8142, 8170, 8161, 8170, 8168, 8205, 8160, 8160,1.8225512504577637
104, 8148, 8162, 8130, 8148, 8167, 8154, 8150, 8169, 8184, 8189, 8178, 8198, 8175, 8168,1.8376924991607666
105, 8170, 8173, 8212, 8146, 8163, 8151, 8152, 8172, 8183, 8178, 8183, 8214, 8184, 8173,1.8557355403900146
106, 8172, 8173, 8159, 8153, 8162, 8155, 8165, 8170, 8182, 8179, 8195, 8219, 8190, 8169,1.8557355403900146
107, 8157, 8164, 8156, 8141, 8166, 8149, 8157, 8164, 8173, 8171, 8186, 8203, 8179, 8151,1.8557355403900146
108, 8146, 8165, 8191, 8134, 8172, 8155, 8149, 8170, 8161, 8155, 8170, 8198, 8165, 8145,1.8708510398864746
109, 8147, 8168, 8132, 8163, 8181, 8156, 8164, 8165, 8169, 8165, 8173, 8183, 8165, 8144,1.8708510398864746
110, 8153, 8184, 8198, 8168, 8178, 8168, 8160, 8176, 8163, 8162, 8167, 8176, 8155, 8139,1.8875932693481445
111, 8142, 8178, 8154, 8162, 8181, 8177, 8168, 8177, 8166, 8168, 8164, 8164, 8157, 8144,1.8875932693481445
112, 8138, 8165, 8154, 8166, 8188, 8168, 8173, 8163, 8163, 8167, 8165, 8161, 8154, 8150,1.9016201496124268
113, 8133, 8172, 8192, 8166, 8190, 8172, 8167, 8169, 8141, 8152, 8150, 8163, 8135, 8140,1.9016201496124268
114, 8117, 8158, 8115, 8161, 8184, 8174, 8170, 8163, 8136, 8153, 8136, 8143, 8128, 8128,1.9187920093536377
115, 8119, 8156, 8179, 8149, 8172, 8180, 8167, 8166, 8147, 8155, 8132, 8153, 8128, 8139,1.9197919368743896
116, 8116, 8155, 8148, 8158, 8175, 8180, 8168, 8163, 8169, 8163, 8135, 8160, 8131, 8152,1.9339404106140137
117, 8108, 8142, 8131, 8148, 8172, 8168, 8158, 8154, 8168, 8161, 8126, 8141, 8126, 8141,1.9339404106140137
118, 8120, 8149, 8184, 8139, 8164, 8179, 8157, 8173, 8170, 8168, 8127, 8146, 8127, 8138,1.9506981372833252
119, 8127, 8144, 8119, 8151, 8169, 8184, 8178, 8166, 8189, 8188, 8148, 8154, 8142, 8145,1.9506981372833252
120, 8127, 8136, 8177, 8127, 8163, 8180, 8167, 8159, 8179, 8175, 8148, 8172, 8145, 8147,1.9657440185546875
121, 8130, 8147, 8158, 8126, 8158, 8177, 8158, 8171, 8185, 8173, 8144, 8173, 8150, 8149,1.9808506965637207
122, 8135, 8154, 8136, 8142, 8163, 8169, 8158, 8167, 8194, 8180, 8147, 8162, 8150, 8147,1.9808506965637207
123, 8141, 8162, 8195, 8135, 8161, 8168, 8152, 8166, 8180, 8170, 8157, 8177, 8151, 8148,1.9808506965637207
124, 8148, 8166, 8132, 8138, 8164, 8155, 8152, 8158, 8184, 8172, 8187, 8188, 8170, 8151,1.997560739517212
125, 8156, 8175, 8185, 8135, 8164, 8150, 8139, 8162, 8181, 8173, 8197, 8198, 8178, 8157,2.022663116455078
126, 8147, 8171, 8167, 8128, 8160, 8152, 8135, 8169, 8180, 8173, 8187, 8190, 8173, 8155,2.022663116455078
127, 8145, 8165, 8132, 8126, 8161, 8142, 8133, 8163, 8183, 8166, 8193, 8183, 8173, 8144,2.022663116455078
236, 8168, 8189, 8206, 8138, 8170, 8152, 8138, 8175, 8179, 8164, 8209, 8214, 8184, 8151,2.022663116455078
0, 8171, 8191, 8140, 8162, 8176, 8148, 8156, 8169, 8183, 8180, 8206, 8208, 8190, 8153,2.0436151027679443
1, 8156, 8186, 8179, 8153, 8167, 8144, 8148, 8161, 8167, 8162, 8186, 8189, 8165, 8140,2.0436151027679443
2, 8147, 8194, 8181, 8164, 8178, 8171, 8160, 8173, 8173, 8168, 8193, 8188, 8164, 8143,2.0436151027679443
3, 8152, 8183, 8140, 8190, 8188, 8191, 8195, 8171, 8202, 8202, 8194, 8178, 8184, 8160,2.059659481048584
4, 8152, 8181, 8205, 8181, 8180, 8206, 8209, 8173, 8212, 8207, 8169, 8176, 8183, 8173,2.059659481048584
5, 8143, 8180, 8135, 8186, 8189, 8205, 8215, 8169, 8232, 8228, 8178, 8170, 8189, 8173,2.075073719024658
6, 8149, 8172, 8169, 8188, 8187, 8188, 8198, 8173, 8234, 8234, 8188, 8178, 8190, 8167,2.075073719024658
7, 8155, 8171, 8186, 8187, 8181, 8187, 8193, 8180, 8238, 8227, 8187, 8187, 8193, 8177,2.0927860736846924
8, 8161, 8172, 8136, 8187, 8190, 8180, 8205, 8165, 8264, 8236, 8198, 8183, 8211, 8190,2.0927860736846924
9, 8173, 8188, 8209, 8179, 8189, 8178, 8197, 8171, 8266, 8233, 8196, 8199, 8211, 8184,2.106973171234131
10, 8170, 8188, 8151, 8187, 8188, 8171, 8193, 8171, 8258, 8232, 8195, 8194, 8204, 8170,2.106973171234131
11, 8170, 8180, 8167, 8173, 8185, 8160, 8180, 8166, 8237, 8217, 8189, 8186, 8201, 8169,2.1206066608428955
12, 8170, 8183, 8182, 8163, 8186, 8170, 8175, 8174, 8230, 8198, 8186, 8194, 8198, 8170,2.1357829570770264
13, 8168, 8183, 8125, 8175, 8194, 8170, 8180, 8167, 8237, 8191, 8192, 8193, 8191, 8165,2.1357829570770264
14, 8172, 8194, 8204, 8169, 8192, 8167, 8166, 8177, 8220, 8183, 8194, 8208, 8186, 8167,2.1515252590179443
15, 8171, 8195, 8156, 8182, 8198, 8161, 8163, 8179, 8210, 8197, 8202, 8203, 8195, 8165,2.1515252590179443
16, 8177, 8204, 8170, 8198, 8210, 8163, 8168, 8163, 8198, 8199, 8207, 8195, 8188, 8163,2.16672682762146
17, 8181, 8217, 8207, 8192, 8217, 8178, 8173, 8167, 8187, 8184, 8204, 8204, 8170, 8168,2.16672682762146
18, 8169, 8202, 8143, 8188, 8214, 8171, 8170, 8168, 8192, 8181, 8198, 8192, 8166, 8164,2.182058572769165
19, 8167, 8200, 8205, 8189, 8210, 8171, 8162, 8175, 8183, 8180, 8191, 8190, 8168, 8168,2.182058572769165
20, 8165, 8191, 8161, 8204, 8213, 8183, 8186, 8175, 8186, 8192, 8190, 8181, 8168, 8176,2.1975815296173096
21, 8156, 8171, 8156, 8200, 8204, 8186, 8189, 8168, 8187, 8187, 8168, 8163, 8154, 8164,2.1975815296173096
22, 8142, 8169, 8188, 8182, 8198, 8187, 8167, 8178, 8184, 8185, 8153, 8157, 8148, 8152,2.2127952575683594
23, 8129, 8163, 8125, 8182, 8205, 8179, 8171, 8173, 8201, 8201, 8164, 8149, 8160, 8153,2.2127952575683594
24, 8134, 8172, 8192, 8185, 8205, 8191, 8182, 8173, 8204, 8192, 8158, 8158, 8155, 8157,2.2279720306396484
25, 8130, 8165, 8153, 8186, 8199, 8195, 8195, 8174, 8207, 8193, 8148, 8147, 8149, 8153,2.2279720306396484
26, 8119, 8139, 8137, 8156, 8187, 8173, 8191, 8165, 8206, 8201, 8150, 8136, 8151, 8145,2.2440028190612793
27, 8121, 8151, 8186, 8139, 8179, 8172, 8178, 8169, 8206, 8199, 8156, 8158, 8161, 8149,2.2440028190612793
28, 8126, 8162, 8120, 8158, 8184, 8171, 8175, 8164, 8224, 8207, 8165, 8159, 8177, 8151,2.259938955307007
29, 8139, 8167, 8183, 8161, 8185, 8170, 8162, 8169, 8218, 8206, 8171, 8167, 8182, 8159,2.259938955307007
30, 8153, 8177, 8170, 8174, 8188, 8175, 8165, 8174, 8219, 8208, 8188, 8183, 8195, 8178,2.2756094932556152
31, 8168, 8191, 8163, 8184, 8191, 8164, 8159, 8162, 8211, 8195, 8205, 8194, 8199, 8182,2.2756094932556152
32, 8177, 8212, 8233, 8190, 8192, 8164, 8144, 8168, 8173, 8175, 8216, 8211, 8191, 8173,2.290811538696289
33, 8173, 8205, 8160, 8212, 8199, 8161, 8145, 8164, 8154, 8180, 8222, 8201, 8192, 8162,2.290811538696289
34, 8172, 8205, 8200, 8200, 8191, 8151, 8127, 8163, 8151, 8167, 8211, 8202, 8185, 8159,2.3068246841430664
35, 8170, 8213, 8192, 8196, 8187, 8152, 8122, 8166, 8158, 8160, 8210, 8209, 8185, 8167,2.3068246841430664
36, 8177, 8211, 8168, 8221, 8195, 8155, 8130, 8160, 8156, 8165, 8225, 8210, 8197, 8168,2.32206130027771
37, 8188, 8222, 8230, 8224, 8197, 8172, 8137, 8172, 8158, 8172, 8240, 8225, 8209, 8176,2.32206130027771
38, 8178, 8218, 8156, 8222, 8204, 8173, 8150, 8170, 8173, 8188, 8237, 8209, 8203, 8177,2.3377292156219482
39, 8161, 8202, 8188, 8211, 8201, 8167, 8134, 8163, 8144, 8165, 8192, 8180, 8162, 8150,2.3377292156219482
40, 8150, 8196, 8180, 8209, 8195, 8175, 8125, 8168, 8127, 8150, 8170, 8162, 8148, 8130,2.352830648422241
41, 8158, 8196, 8150, 8220, 8202, 8184, 8149, 8166, 8153, 8175, 8195, 8172, 8175, 8148,2.352830648422241
42, 8174, 8207, 8224, 8221, 8214, 8195, 8171, 8180, 8175, 8196, 8202, 8197, 8188, 8174,2.3685805797576904
43, 8165, 8194, 8149, 8221, 8214, 8185, 8183, 8178, 8190, 8208, 8191, 8172, 8186, 8165,2.3685805797576904
44, 8151, 8180, 8176, 8203, 8198, 8186, 8172, 8169, 8181, 8199, 8183, 8154, 8180, 8147,2.3837223052978516
45, 8152, 8181, 8190, 8201, 8203, 8203, 8173, 8175, 8184, 8203, 8181, 8164, 8185, 8155,2.3837223052978516
46, 8157, 8173, 8143, 8202, 8206, 8194, 8185, 8175, 8202, 8214, 8173, 8158, 8193, 8164,2.401008367538452
47, 8158, 8175, 8205, 8185, 8191, 8193, 8180, 8180, 8186, 8194, 8157, 8169, 8185, 8170,2.401008367538452
48, 8151, 8166, 8143, 8189, 8188, 8192, 8183, 8173, 8182, 8194, 8160, 8169, 8182, 8175,2.4145684242248535
49, 8153, 8158, 8161, 8170, 8183, 8180, 8173, 8169, 8191, 8206, 8163, 8152, 8180, 8168,2.4145684242248535
50, 8156, 8156, 8174, 8147, 8178, 8185, 8162, 8174, 8193, 8208, 8160, 8148, 8173, 8159,2.429687976837158
51, 8154, 8150, 8118, 8150, 8179, 8182, 8167, 8161, 8190, 8205, 8167, 8150, 8174, 8164,2.429687976837158
52, 8160, 8169, 8190, 8141, 8179, 8184, 8163, 8168, 8184, 8194, 8169, 8164, 8180, 8172,2.44671893119812
53, 8158, 8167, 8140, 8141, 8182, 8183, 8166, 8171, 8202, 8200, 8170, 8151, 8181, 8168,2.44671893119812
54, 8153, 8145, 8145, 8125, 8172, 8174, 8162, 8166, 8207, 8195, 8163, 8140, 8167, 8154,2.4627597332000732
55, 8155, 8149, 8176, 8112, 8167, 8174, 8163, 8180, 8210, 8189, 8165, 8161, 8171, 8156,2.4627597332000732
56, 8160, 8155, 8124, 8128, 8175, 8158, 8164, 8175, 8215, 8198, 8176, 8171, 8185, 8166,2.475863218307495
57, 8167, 8163, 8193, 8123, 8170, 8155, 8142, 8170, 8190, 8183, 8171, 8178, 8172, 8171,2.494959592819214
58, 8168, 8166, 8156, 8123, 8176, 8166, 8151, 8174, 8193, 8186, 8180, 8180, 8174, 8171,2.494959592819214
59, 8174, 8169, 8163, 8134, 8187, 8161, 8157, 8167, 8199, 8190, 8184, 8186, 8181, 8161,2.494959592819214
60, 8172, 8172, 8190, 8133, 8183, 8158, 8144, 8168, 8180, 8173, 8172, 8185, 8165, 8152,2.509605646133423
61, 8159, 8160, 8117, 8123, 8176, 8144, 8140, 8164, 8178, 8167, 8171, 8168, 8154, 8148,2.509605646133423
62, 8166, 8168, 8190, 8109, 8164, 8139, 8130, 8170, 8169, 8154, 8165, 8178, 8150, 8151,2.5226328372955322
63, 8164, 8173, 8155, 8123, 8157, 8148, 8132, 8170, 8158, 8153, 8160, 8175, 8154, 8151,2.5376482009887695
64, 8156, 8161, 8143, 8126, 8168, 8155, 8133, 8163, 8155, 8160, 8165, 8161, 8156, 8145,2.5376482009887695
65, 8159, 8168, 8202, 8128, 8184, 8173, 8143, 8175, 8166, 8170, 8171, 8170, 8155, 8146,2.552687168121338
66, 8158, 8162, 8134, 8160, 8182, 8180, 8163, 8169, 8182, 8191, 8167, 8156, 8157, 8150,2.552687168121338
67, 8160, 8165, 8188, 8177, 8174, 8191, 8165, 8172, 8175, 8186, 8158, 8149, 8153, 8163,2.5677285194396973
68, 8155, 8165, 8164, 8187, 8189, 8204, 8188, 8180, 8195, 8189, 8166, 8150, 8162, 8169,2.5677285194396973
69, 8148, 8143, 8135, 8166, 8187, 8197, 8201, 8169, 8213, 8198, 8159, 8143, 8163, 8157,2.583728551864624
70, 8137, 8137, 8180, 8129, 8160, 8189, 8182, 8173, 8202, 8199, 8142, 8146, 8154, 8154,2.583728551864624
71, 8134, 8132, 8110, 8122, 8154, 8165, 8168, 8167, 8208, 8205, 8149, 8133, 8158, 8153,2.5988285541534424
72, 8151, 8138, 8167, 8104, 8154, 8148, 8149, 8166, 8195, 8190, 8155, 8140, 8154, 8146,2.5988285541534424
73, 8148, 8153, 8153, 8104, 8155, 8154, 8144, 8170, 8178, 8179, 8162, 8148, 8149, 8143,2.6148359775543213
74, 8145, 8164, 8127, 8129, 8163, 8148, 8147, 8163, 8178, 8169, 8172, 8145, 8149, 8138,2.6148359775543213
75, 8163, 8178, 8204, 8142, 8169, 8151, 8148, 8176, 8173, 8155, 8174, 8163, 8142, 8140,2.630563259124756
76, 8165, 8173, 8142, 8160, 8180, 8157, 8154, 8172, 8171, 8163, 8182, 8160, 8137, 8147,2.630563259124756
77, 8157, 8173, 8184, 8171, 8180, 8166, 8152, 8169, 8160, 8159, 8163, 8152, 8128, 8150,2.646637439727783
78, 8150, 8172, 8179, 8179, 8181, 8182, 8168, 8177, 8162, 8167, 8135, 8136, 8122, 8150,2.646637439727783
79, 8141, 8156, 8130, 8172, 8190, 8183, 8184, 8162, 8164, 8187, 8135, 8114, 8123, 8141,2.662942886352539
80, 8136, 8155, 8195, 8152, 8187, 8191, 8180, 8169, 8162, 8197, 8154, 8128, 8130, 8143,2.662942886352539
81, 8132, 8141, 8132, 8143, 8176, 8180, 8189, 8171, 8185, 8218, 8170, 8131, 8152, 8156,2.678575038909912
82, 8141, 8139, 8163, 8128, 8168, 8164, 8181, 8164, 8188, 8203, 8167, 8132, 8152, 8157,2.678575038909912
83, 8154, 8159, 8174, 8136, 8176, 8166, 8171, 8171, 8185, 8174, 8166, 8145, 8138, 8151,2.693652629852295
84, 8154, 8158, 8127, 8140, 8178, 8153, 8165, 8170, 8185, 8164, 8167, 8143, 8130, 8141,2.693652629852295
85, 8150, 8163, 8195, 8123, 8174, 8149, 8147, 8175, 8168, 8151, 8165, 8151, 8128, 8138,2.708775043487549
86, 8151, 8164, 8136, 8140, 8181, 8155, 8153, 8171, 8179, 8160, 8169, 8145, 8135, 8136,2.708775043487549
87, 8151, 8165, 8160, 8148, 8178, 8157, 8156, 8169, 8182, 8166, 8164, 8141, 8134, 8135,2.724764347076416
88, 8141, 8172, 8178, 8140, 8174, 8159, 8157, 8184, 8177, 8174, 8173, 8147, 8140, 8142,2.724764347076416
89, 8145, 8167, 8121, 8145, 8179, 8155, 8160, 8179, 8185, 8184, 8184, 8139, 8151, 8143,2.739903688430786
90, 8153, 8170, 8195, 8145, 8179, 8166, 8144, 8172, 8172, 8168, 8167, 8138, 8139, 8140,2.739903688430786
91, 8147, 8169, 8147, 8157, 8181, 8175, 8144, 8166, 8165, 8162, 8165, 8125, 8130, 8138,2.7556543350219727
92, 8148, 8168, 8160, 8158, 8182, 8177, 8152, 8165, 8158, 8150, 8164, 8123, 8124, 8138,2.7556543350219727
93, 8147, 8172, 8186, 8153, 8183, 8191, 8163, 8175, 8155, 8142, 8146, 8129, 8121, 8140,2.770925998687744
94, 8147, 8162, 8126, 8169, 8192, 8183, 8181, 8170, 8172, 8165, 8148, 8119, 8133, 8149,2.770925998687744
95, 8166, 8173, 8205, 8179, 8189, 8186, 8185, 8178, 8178, 8181, 8164, 8137, 8147, 8171,2.7871346473693848
96, 8170, 8175, 8164, 8183, 8189, 8197, 8194, 8182, 8185, 8193, 8164, 8139, 8163, 8177,2.7871346473693848
97, 8154, 8155, 8151, 8166, 8190, 8186, 8185, 8172, 8183, 8194, 8147, 8118, 8160, 8160,2.802218198776245
98, 8142, 8149, 8183, 8157, 8178, 8185, 8177, 8174, 8186, 8192, 8137, 8112, 8146, 8152,2.817659378051758
99, 8144, 8150, 8119, 8161, 8169, 8186, 8194, 8169, 8205, 8198, 8140, 8106, 8152, 8154,2.818086862564087
100, 8152, 8155, 8182, 8142, 8164, 8186, 8190, 8176, 8205, 8192, 8140, 8123, 8156, 8163,2.818086862564087
101, 8151, 8152, 8152, 8145, 8167, 8178, 8187, 8174, 8211, 8200, 8151, 8127, 8158, 8172,2.8337466716766357
102, 8149, 8148, 8146, 8153, 8162, 8160, 8174, 8162, 8211, 8197, 8154, 8120, 8156, 8163,2.8337466716766357
103, 8148, 8156, 8191, 8136, 8157, 8159, 8156, 8171, 8198, 8183, 8149, 8136, 8156, 8153,2.8489058017730713
104, 8144, 8148, 8121, 8133, 8164, 8158, 8158, 8164, 8204, 8195, 8163, 8140, 8169, 8160,2.8489058017730713
105, 8153, 8153, 8183, 8135, 8164, 8163, 8158, 8169, 8210, 8188, 8170, 8154, 8173, 8169,2.864339828491211
106, 8168, 8165, 8171, 8149, 8169, 8168, 8167, 8183, 8222, 8181, 8179, 8163, 8181, 8171,2.864339828491211
107, 8178, 8164, 8150, 8158, 8172, 8161, 8169, 8169, 8228, 8191, 8189, 8160, 8189, 8169,2.881105899810791
108, 8185, 8175, 8203, 8151, 8169, 8166, 8159, 8169, 8220, 8187, 8190, 8175, 8191, 8175,2.8959121704101562
109, 8178, 8173, 8138, 8151, 8168, 8161, 8151, 8171, 8217, 8179, 8188, 8173, 8191, 8177,2.8959121704101562
110, 8167, 8168, 8176, 8132, 8159, 8155, 8136, 8170, 8190, 8158, 8174, 8157, 8164, 8159,2.91158127784729
111, 8160, 8168, 8158, 8131, 8161, 8160, 8142, 8166, 8178, 8157, 8167, 8141, 8148, 8138,2.91158127784729
112, 8159, 8168, 8144, 8149, 8167, 8159, 8148, 8157, 8171, 8161, 8169, 8142, 8151, 8132,2.91158127784729
113, 8163, 8178, 8208, 8154, 8167, 8172, 8143, 8170, 8152, 8157, 8166, 8159, 8148, 8146,2.9277796745300293
114, 8155, 8171, 8135, 8166, 8172, 8176, 8157, 8167, 8158, 8171, 8164, 8136, 8147, 8153,2.9277796745300293
115, 8153, 8164, 8178, 8165, 8172, 8176, 8161, 8163, 8159, 8170, 8154, 8124, 8145, 8145,2.9438443183898926
116, 8150, 8165, 8182, 8174, 8173, 8179, 8169, 8171, 8163, 8177, 8155, 8131, 8149, 8143,2.9438443183898926
117, 8148, 8156, 8139, 8177, 8169, 8170, 8181, 8171, 8174, 8193, 8155, 8123, 8149, 8144,2.9598512649536133
118, 8155, 8154, 8194, 8155, 8157, 8181, 8178, 8181, 8179, 8196, 8144, 8129, 8143, 8153,2.9598512649536133
119, 8152, 8141, 8128, 8146, 8156, 8186, 8191, 8177, 8205, 8215, 8158, 8138, 8157, 8165,2.97589373588562
120, 8156, 8144, 8172, 8135, 8155, 8172, 8188, 8174, 8210, 8217, 8165, 8148, 8164, 8169,2.97589373588562
121, 8166, 8163, 8184, 8140, 8156, 8168, 8175, 8182, 8209, 8206, 8160, 8143, 8171, 8171,2.9910097122192383
122, 8176, 8167, 8132, 8158, 8159, 8168, 8171, 8170, 8219, 8207, 8176, 8139, 8184, 8174,3.0072364807128906
123, 8179, 8176, 8208, 8149, 8155, 8171, 8167, 8170, 8208, 8198, 8189, 8169, 8179, 8176,3.0072364807128906
124, 8180, 8179, 8151, 8153, 8159, 8161, 8169, 8172, 8207, 8195, 8201, 8175, 8179, 8170,3.0072364807128906
125, 8204, 8195, 8182, 8170, 8175, 8156, 8164, 8173, 8204, 8193, 8216, 8178, 8190, 8171,3.0228142738342285
126, 8213, 8216, 8213, 8193, 8189, 8174, 8172, 8178, 8188, 8200, 8215, 8187, 8187, 8178,3.0228142738342285
127, 8192, 8199, 8145, 8205, 8181, 8169, 8179, 8167, 8169, 8194, 8194, 8161, 8163, 8166,3.0379676818847656
236, 8181, 8195, 8209, 8200, 8176, 8172, 8170, 8177, 8146, 8166, 8175, 8145, 8143, 8158,3.0379676818847656
0, 8176, 8193, 8162, 8217, 8195, 8186, 8190, 8178, 8159, 8184, 8174, 8123, 8150, 8161,3.054002046585083
1, 8170, 8174, 8172, 8214, 8189, 8183, 8196, 8167, 8171, 8199, 8164, 8104, 8154, 8164,3.054002046585083
2, 8168, 8166, 8194, 8193, 8167, 8178, 8184, 8174, 8184, 8193, 8158, 8108, 8154, 8164,3.069859504699707
3, 8160, 8155, 8121, 8183, 8170, 8166, 8184, 8170, 8208, 8200, 8159, 8102, 8158, 8153,3.069859504699707
4, 8160, 8157, 8193, 8165, 8168, 8165, 8182, 8178, 8201, 8191, 8157, 8120, 8164, 8156,3.0850460529327393
5, 8169, 8158, 8151, 8163, 8160, 8158, 8190, 8179, 8200, 8192, 8177, 8137, 8188, 8171,3.0850460529327393
6, 8174, 8158, 8141, 8155, 8150, 8142, 8175, 8168, 8191, 8186, 8181, 8138, 8186, 8162,3.100905656814575
7, 8168, 8164, 8184, 8147, 8154, 8151, 8155, 8173, 8175, 8172, 8165, 8143, 8163, 8146,3.100905656814575
8, 8165, 8158, 8129, 8169, 8171, 8155, 8157, 8164, 8184, 8179, 8176, 8141, 8167, 8149,3.1159815788269043
9, 8181, 8174, 8195, 8174, 8171, 8154, 8144, 8164, 8179, 8174, 8192, 8161, 8172, 8155,3.1159815788269043
10, 8187, 8189, 8162, 8177, 8173, 8152, 8149, 8170, 8171, 8174, 8199, 8166, 8171, 8152,3.1318230628967285
11, 8185, 8186, 8157, 8183, 8187, 8150, 8164, 8165, 8153, 8172, 8197, 8158, 8165, 8155,3.1318230628967285
12, 8193, 8195, 8213, 8201, 8197, 8175, 8176, 8174, 8134, 8164, 8194, 8165, 8160, 8169,3.1468002796173096
13, 8194, 8188, 8150, 8232, 8202, 8189, 8195, 8169, 8139, 8181, 8194, 8152, 8166, 8176,3.1468002796173096
14, 8191, 8180, 8210, 8229, 8208, 8194, 8197, 8170, 8149, 8197, 8190, 8154, 8170, 8179,3.1632914543151855
15, 8184, 8174, 8180, 8223, 8214, 8202, 8206, 8179, 8168, 8215, 8195, 8158, 8182, 8184,3.1632914543151855
16, 8186, 8166, 8154, 8220, 8204, 8201, 8218, 8172, 8175, 8221, 8193, 8154, 8183, 8189,3.1783950328826904
17, 8199, 8175, 8213, 8216, 8205, 8203, 8221, 8180, 8184, 8216, 8190, 8167, 8181, 8201,3.1783950328826904
18, 8202, 8175, 8147, 8218, 8215, 8190, 8219, 8177, 8214, 8230, 8205, 8168, 8200, 8203,3.1949241161346436
19, 8198, 8175, 8188, 8193, 8202, 8178, 8201, 8173, 8212, 8231, 8208, 8172, 8205, 8194,3.1949241161346436
20, 8197, 8174, 8180, 8188, 8199, 8173, 8196, 8178, 8212, 8226, 8208, 8172, 8203, 8194,3.2101352214813232
21, 8196, 8167, 8152, 8195, 8204, 8150, 8183, 8166, 8210, 8213, 8211, 8164, 8207, 8185,3.225140333175659
22, 8190, 8174, 8199, 8179, 8193, 8149, 8157, 8165, 8181, 8195, 8216, 8176, 8207, 8176,3.225140333175659
23, 8195, 8182, 8146, 8189, 8198, 8158, 8164, 8168, 8177, 8206, 8230, 8184, 8212, 8178,3.225140333175659
24, 8214, 8192, 8195, 8207, 8202, 8153, 8162, 8173, 8181, 8203, 8230, 8190, 8208, 8176,3.2421865463256836
25, 8204, 8193, 8185, 8207, 8192, 8152, 8154, 8184, 8181, 8192, 8218, 8180, 8198, 8170,3.2421865463256836
26, 8184, 8180, 8148, 8197, 8191, 8157, 8165, 8181, 8183, 8192, 8211, 8159, 8188, 8168,3.2579917907714844
27, 8184, 8182, 8209, 8192, 8192, 8178, 8178, 8181, 8180, 8189, 8204, 8160, 8181, 8172,3.2579917907714844
28, 8171, 8170, 8143, 8200, 8191, 8184, 8191, 8172, 8186, 8195, 8193, 8150, 8174, 8167,3.2736754417419434
29, 8155, 8161, 8180, 8196, 8191, 8184, 8182, 8168, 8177, 8191, 8172, 8141, 8160, 8156,3.274672269821167
30, 8157, 8168, 8189, 8196, 8193, 8194, 8184, 8174, 8183, 8196, 8161, 8140, 8168, 8159,3.2897932529449463
31, 8168, 8158, 8133, 8183, 8181, 8175, 8191, 8169, 8202, 8205, 8170, 8141, 8184, 8165,3.2897932529449463
32, 8175, 8166, 8199, 8162, 8170, 8168, 8182, 8180, 8197, 8197, 8181, 8166, 8182, 8168,3.304849863052368
33, 8174, 8180, 8146, 8185, 8187, 8176, 8184, 8173, 8204, 8203, 8194, 8169, 8189, 8169,3.3205337524414062
34, 8182, 8185, 8172, 8188, 8190, 8166, 8166, 8160, 8196, 8194, 8195, 8167, 8189, 8162,3.3205337524414062
35, 8182, 8188, 8189, 8175, 8184, 8154, 8154, 8168, 8171, 8183, 8201, 8176, 8176, 8151,3.3205337524414062
36, 8177, 8189, 8133, 8191, 8195, 8149, 8162, 8163, 8158, 8189, 8212, 8168, 8176, 8151,3.3366312980651855
37, 8189, 8209, 8215, 8201, 8195, 8162, 8155, 8171, 8153, 8182, 8198, 8168, 8173, 8163,3.3366312980651855
38, 8177, 8201, 8158, 8205, 8188, 8161, 8161, 8173, 8161, 8183, 8186, 8153, 8167, 8158,3.3518168926239014
39, 8154, 8179, 8160, 8195, 8187, 8159, 8157, 8169, 8150, 8177, 8181, 8148, 8164, 8148,3.3518168926239014
40, 8154, 8183, 8198, 8198, 8193, 8181, 8160, 8182, 8158, 8188, 8183, 8166, 8179, 8165,3.3669164180755615
41, 8159, 8172, 8135, 8214, 8192, 8185, 8182, 8177, 8194, 8220, 8192, 8159, 8191, 8178,3.3826680183410645
42, 8160, 8166, 8200, 8200, 8179, 8187, 8184, 8177, 8187, 8214, 8187, 8157, 8178, 8172,3.3826680183410645
43, 8152, 8164, 8152, 8196, 8176, 8185, 8192, 8173, 8187, 8208, 8186, 8155, 8182, 8171,3.399066209793091
44, 8154, 8157, 8152, 8190, 8171, 8173, 8193, 8163, 8198, 8209, 8181, 8157, 8190, 8181,3.399066209793091
45, 8164, 8159, 8196, 8174, 8161, 8182, 8191, 8175, 8201, 8210, 8182, 8169, 8185, 8187,3.415574073791504
46, 8159, 8150, 8126, 8165, 8162, 8181, 8203, 8171, 8213, 8220, 8191, 8160, 8191, 8180,3.415574073791504
47, 8156, 8153, 8190, 8150, 8158, 8171, 8191, 8173, 8205, 8205, 8183, 8170, 8191, 8173,3.415574073791504
48, 8157, 8160, 8155, 8157, 8164, 8164, 8173, 8174, 8197, 8194, 8188, 8174, 8193, 8169,3.4308314323425293
49, 8159, 8159, 8146, 8157, 8167, 8153, 8153, 8160, 8180, 8174, 8189, 8167, 8183, 8154,3.444289207458496
50, 8150, 8163, 8192, 8141, 8157, 8155, 8133, 8166, 8152, 8151, 8170, 8174, 8164, 8141,3.444289207458496
51, 8144, 8156, 8117, 8146, 8156, 8147, 8133, 8164, 8146, 8162, 8180, 8170, 8165, 8131,3.460087776184082
52, 8159, 8168, 8184, 8150, 8160, 8155, 8137, 8166, 8146, 8169, 8198, 8179, 8173, 8132,3.460087776184082
53, 8161, 8180, 8166, 8165, 8171, 8171, 8157, 8175, 8164, 8178, 8200, 8175, 8175, 8143,3.4756598472595215
54, 8151, 8172, 8142, 8170, 8173, 8161, 8160, 8171, 8163, 8173, 8189, 8156, 8168, 8136,3.4756598472595215
55, 8147, 8177, 8193, 8165, 8175, 8165, 8154, 8173, 8144, 8162, 8182, 8156, 8163, 8125,3.49084210395813
56, 8142, 8172, 8125, 8186, 8188, 8173, 8174, 8160, 8154, 8177, 8181, 8145, 8166, 8127,3.49084210395813
57, 8147, 8172, 8183, 8196, 8187, 8179, 8177, 8167, 8155, 8176, 8172, 8147, 8159, 8138,3.5068929195404053
58, 8152, 8178, 8171, 8202, 8186, 8187, 8176, 8181, 8162, 8187, 8180, 8153, 8168, 8150,3.5068929195404053
59, 8145, 8166, 8132, 8194, 8183, 8180, 8177, 8169, 8165, 8207, 8180, 8148, 8177, 8150,3.5220561027526855
60, 8138, 8156, 8192, 8173, 8178, 8186, 8174, 8170, 8150, 8196, 8162, 8152, 8169, 8153,3.5220561027526855
61, 8147, 8153, 8139, 8197, 8183, 8189, 8178, 8167, 8170, 8202, 8173, 8155, 8183, 8165,3.537933826446533
62, 8167, 8167, 8195, 8215, 8174, 8178, 8170, 8163, 8182, 8209, 8191, 8179, 8197, 8173,3.537933826446533
63, 8165, 8171, 8186, 8205, 8164, 8168, 8177, 8168, 8177, 8195, 8190, 8190, 8190, 8172,3.552912950515747
64, 8172, 8158, 8146, 8198, 8162, 8160, 8185, 8167, 8176, 8181, 8197, 8186, 8187, 8169,3.552912950515747
65, 8203, 8178, 8229, 8220, 8161, 8169, 8174, 8175, 8178, 8181, 8224, 8228, 8202, 8181,3.5685367584228516
66, 8208, 8192, 8171, 8260, 8172, 8156, 8163, 8164, 8181, 8187, 8246, 8247, 8215, 8183,3.5685367584228516
67, 8202, 8193, 8197, 8260, 8169, 8139, 8137, 8160, 8158, 8159, 8239, 8235, 8200, 8170,3.5836071968078613
68, 8206, 8195, 8206, 8263, 8160, 8147, 8135, 8175, 8154, 8151, 8234, 8235, 8195, 8164,3.5836071968078613
69, 8205, 8189, 8163, 8275, 8164, 8144, 8148, 8166, 8161, 8156, 8232, 8233, 8194, 8163,3.5996828079223633
70, 8204, 8203, 8231, 8271, 8169, 8148, 8141, 8168, 8143, 8137, 8223, 8234, 8181, 8164,3.5996828079223633
71, 8193, 8203, 8162, 8280, 8168, 8145, 8147, 8169, 8138, 8136, 8216, 8211, 8181, 8156,3.6177756786346436
72, 8184, 8196, 8177, 8263, 8159, 8141, 8147, 8168, 8118, 8122, 8193, 8198, 8171, 8142,3.6177756786346436
73, 8186, 8204, 8200, 8253, 8166, 8163, 8155, 8175, 8106, 8120, 8184, 8205, 8164, 8147,3.6318161487579346
74, 8186, 8194, 8148, 8266, 8176, 8170, 8175, 8165, 8112, 8138, 8190, 8190, 8169, 8150,3.6318161487579346
75, 8182, 8187, 8216, 8246, 8168, 8173, 8179, 8175, 8113, 8128, 8177, 8192, 8163, 8150,3.647739887237549
76, 8172, 8180, 8160, 8235, 8161, 8167, 8177, 8176, 8130, 8131, 8174, 8190, 8167, 8156,3.647739887237549
77, 8180, 8180, 8176, 8239, 8157, 8156, 8155, 8166, 8122, 8136, 8177, 8190, 8165, 8162,3.6627776622772217
78, 8194, 8191, 8210, 8247, 8162, 8174, 8145, 8172, 8105, 8137, 8181, 8202, 8165, 8173,3.6627776622772217
79, 8193, 8183, 8146, 8256, 8172, 8185, 8161, 8165, 8120, 8152, 8190, 8197, 8179, 8180,3.6779048442840576
80, 8200, 8186, 8218, 8249, 8177, 8187, 8166, 8172, 8126, 8160, 8187, 8205, 8184, 8190,3.6779048442840576
81, 8208, 8191, 8179, 8252, 8183, 8187, 8183, 8179, 8141, 8179, 8195, 8204, 8191, 8198,3.6939210891723633
82, 8212, 8184, 8177, 8249, 8175, 8184, 8192, 8174, 8151, 8189, 8198, 8200, 8196, 8195,3.6939210891723633
83, 8205, 8181, 8207, 8236, 8172, 8189, 8196, 8178, 8151, 8183, 8188, 8205, 8194, 8194,3.7095351219177246
84, 8195, 8170, 8133, 8224, 8178, 8190, 8218, 8165, 8162, 8194, 8191, 8188, 8197, 8190,3.7095351219177246
85, 8202, 8176, 8197, 8201, 8165, 8193, 8222, 8165, 8169, 8197, 8190, 8187, 8202, 8197,3.724561929702759
86, 8209, 8176, 8166, 8200, 8160, 8181, 8213, 8173, 8179, 8198, 8192, 8190, 8204, 8204,3.724561929702759
87, 8211, 8164, 8152, 8194, 8166, 8171, 8198, 8170, 8172, 8190, 8191, 8185, 8198, 8190,3.740602493286133
88, 8210, 8167, 8189, 8175, 8168, 8179, 8194, 8173, 8165, 8185, 8185, 8186, 8195, 8182,3.740602493286133
89, 8206, 8164, 8124, 8176, 8172, 8163, 8199, 8161, 8176, 8189, 8187, 8177, 8203, 8187,3.7566258907318115
90, 8202, 8169, 8187, 8162, 8168, 8155, 8177, 8164, 8160, 8165, 8184, 8181, 8195, 8180,3.7566258907318115
91, 8192, 8167, 8158, 8152, 8166, 8167, 8168, 8175, 8156, 8162, 8185, 8177, 8188, 8165,3.771747589111328
92, 8193, 8166, 8143, 8154, 8175, 8161, 8176, 8166, 8167, 8175, 8191, 8174, 8194, 8167,3.771747589111328
93, 8196, 8181, 8198, 8148, 8176, 8158, 8177, 8171, 8159, 8163, 8186, 8188, 8191, 8169,3.7878148555755615
94, 8180, 8166, 8121, 8144, 8166, 8149, 8170, 8172, 8146, 8150, 8175, 8168, 8174, 8152,3.7878148555755615
95, 8182, 8160, 8183, 8138, 8159, 8152, 8154, 8172, 8133, 8143, 8172, 8165, 8163, 8146,3.8029141426086426
96, 8196, 8178, 8180, 8157, 8171, 8170, 8173, 8177, 8155, 8171, 8194, 8183, 8187, 8165,3.8029141426086426
97, 8197, 8183, 8141, 8164, 8182, 8174, 8189, 8176, 8180, 8197, 8213, 8188, 8198, 8176,3.8182623386383057
98, 8188, 8187, 8201, 8162, 8179, 8181, 8185, 8184, 8170, 8183, 8205, 8187, 8176, 8171,3.8182623386383057
99, 8179, 8182, 8146, 8193, 8186, 8176, 8194, 8174, 8169, 8187, 8197, 8166, 8174, 8165,3.8335888385772705
100, 8188, 8183, 8189, 8197, 8195, 8173, 8190, 8170, 8167, 8196, 8192, 8170, 8181, 8173,3.8335888385772705
101, 8191, 8181, 8181, 8194, 8198, 8183, 8198, 8178, 8174, 8209, 8198, 8183, 8182, 8184,3.849764585494995
102, 8179, 8166, 8145, 8194, 8189, 8176, 8208, 8168, 8170, 8211, 8192, 8165, 8174, 8177,3.849764585494995
103, 8167, 8165, 8206, 8177, 8177, 8178, 8200, 8171, 8144, 8189, 8164, 8151, 8158, 8168,3.8648390769958496
104, 8164, 8159, 8132, 8178, 8187, 8186, 8217, 8169, 8155, 8197, 8159, 8140, 8159, 8165,3.8648390769958496
105, 8177, 8165, 8172, 8182, 8192, 8189, 8230, 8170, 8173, 8214, 8173, 8152, 8168, 8166,3.8806347846984863
106, 8179, 8180, 8184, 8192, 8187, 8193, 8222, 8182, 8178, 8218, 8188, 8165, 8178, 8177,3.8806347846984863
107, 8175, 8175, 8133, 8193, 8189, 8185, 8216, 8175, 8180, 8217, 8191, 8156, 8184, 8179,3.8966634273529053
108, 8189, 8186, 8207, 8182, 8194, 8190, 8212, 8177, 8176, 8211, 8186, 8166, 8185, 8174,3.8966634273529053
109, 8196, 8193, 8160, 8209, 8201, 8199, 8220, 8176, 8183, 8219, 8190, 8163, 8191, 8178,3.912614345550537
110, 8198, 8187, 8181, 8214, 8198, 8199, 8219, 8175, 8178, 8216, 8182, 8157, 8183, 8184,3.912614345550537
111, 8191, 8177, 8184, 8182, 8197, 8198, 8217, 8178, 8181, 8212, 8173, 8160, 8168, 8178,3.9281742572784424
112, 8184, 8166, 8129, 8167, 8199, 8194, 8220, 8162, 8190, 8217, 8173, 8147, 8165, 8167,3.9291799068450928
113, 8196, 8181, 8211, 8172, 8192, 8207, 8221, 8170, 8182, 8215, 8172, 8157, 8169, 8178,3.9437997341156006
114, 8193, 8176, 8152, 8187, 8195, 8205, 8234, 8178, 8185, 8218, 8168, 8148, 8169, 8176,3.9598443508148193
115, 8178, 8163, 8160, 8170, 8198, 8190, 8223, 8171, 8182, 8195, 8157, 8135, 8154, 8159,3.9598443508148193
116, 8188, 8177, 8193, 8172, 8206, 8195, 8213, 8176, 8193, 8198, 8172, 8161, 8168, 8177,3.9598443508148193
117, 8203, 8178, 8135, 8202, 8215, 8185, 8217, 8173, 8213, 8237, 8202, 8172, 8202, 8198,3.9743709564208984
118, 8194, 8179, 8208, 8192, 8205, 8182, 8203, 8180, 8197, 8233, 8192, 8166, 8194, 8184,3.9743709564208984
119, 8175, 8175, 8158, 8184, 8205, 8192, 8204, 8177, 8200, 8229, 8186, 8154, 8184, 8172,3.9895195960998535
120, 8178, 8168, 8155, 8189, 8207, 8185, 8197, 8169, 8205, 8228, 8194, 8159, 8193, 8181,3.9895195960998535
121, 8176, 8170, 8199, 8184, 8193, 8181, 8191, 8180, 8194, 8227, 8189, 8168, 8194, 8186,4.005545139312744
122, 8166, 8156, 8131, 8183, 8191, 8182, 8208, 8169, 8203, 8240, 8184, 8153, 8186, 8177,4.005545139312744
123, 8168, 8159, 8195, 8174, 8201, 8195, 8215, 8173, 8203, 8232, 8178, 8162, 8178, 8176,4.025720119476318
124, 8162, 8162, 8165, 8170, 8205, 8200, 8220, 8190, 8211, 8239, 8183, 8169, 8193, 8182,4.025720119476318
125, 8165, 8153, 8154, 8165, 8198, 8192, 8209, 8181, 8222, 8260, 8194, 8165, 8205, 8180,4.037739992141724
126, 8181, 8168, 8199, 8173, 8200, 8200, 8200, 8178, 8217, 8265, 8194, 8173, 8199, 8187,4.038785219192505
127, 8178, 8168, 8135, 8185, 8203, 8190, 8206, 8167, 8217, 8260, 8182, 8160, 8195, 8188,4.0528295040130615
236, 8167, 8156, 8180, 8158, 8185, 8177, 8190, 8168, 8211, 8236, 8160, 8153, 8185, 8176,4.0528295040130615
0, 8163, 8150, 8148, 8148, 8185, 8175, 8185, 8176, 8206, 8233, 8160, 8155, 8184, 8171,4.068516254425049
1, 8174, 8153, 8144, 8155, 8187, 8162, 8180, 8164, 8196, 8226, 8171, 8163, 8190, 8174,4.083727836608887
2, 8187, 8165, 8197, 8158, 8172, 8154, 8161, 8165, 8190, 8202, 8180, 8177, 8196, 8178,4.083727836608887
3, 8184, 8160, 8124, 8164, 8172, 8144, 8154, 8165, 8192, 8204, 8205, 8177, 8207, 8175,4.083727836608887
4, 8189, 8172, 8188, 8162, 8180, 8149, 8150, 8170, 8170, 8192, 8217, 8196, 8202, 8172,4.101207494735718
5, 8191, 8181, 8173, 8181, 8182, 8156, 8158, 8169, 8168, 8178, 8213, 8194, 8194, 8172,4.101207494735718
6, 8187, 8174, 8143, 8193, 8181, 8139, 8153, 8157, 8167, 8177, 8210, 8177, 8192, 8169,4.115802526473999
7, 8193, 8194, 8217, 8193, 8192, 8146, 8142, 8168, 8150, 8179, 8216, 8198, 8191, 8174,4.130962133407593
8, 8203, 8205, 8148, 8225, 8208, 8159, 8162, 8165, 8163, 8188, 8230, 8202, 8197, 8179,4.130962133407593
9, 8213, 8208, 8194, 8240, 8204, 8161, 8163, 8169, 8156, 8175, 8225, 8201, 8192, 8179,4.130962133407593
10, 8203, 8208, 8197, 8244, 8202, 8169, 8162, 8180, 8143, 8171, 8215, 8196, 8187, 8183,4.14555811882019
11, 8190, 8198, 8149, 8244, 8201, 8175, 8185, 8167, 8148, 8180, 8202, 8173, 8180, 8180,4.160659551620483
12, 8194, 8201, 8216, 8233, 8196, 8186, 8198, 8177, 8151, 8182, 8192, 8176, 8174, 8183,4.160659551620483
13, 8184, 8188, 8145, 8235, 8205, 8184, 8196, 8177, 8163, 8193, 8198, 8167, 8177, 8180,4.1767613887786865
14, 8175, 8176, 8168, 8218, 8211, 8185, 8180, 8167, 8155, 8187, 8186, 8152, 8167, 8172,4.1767613887786865
15, 8180, 8192, 8190, 8219, 8213, 8199, 8189, 8175, 8157, 8198, 8184, 8163, 8169, 8183,4.192058563232422
16, 8190, 8195, 8155, 8238, 8212, 8191, 8199, 8169, 8173, 8219, 8197, 8177, 8185, 8199,4.192058563232422
17, 8190, 8188, 8213, 8224, 8202, 8192, 8187, 8166, 8171, 8211, 8192, 8185, 8175, 8204,4.207653284072876
18, 8176, 8176, 8150, 8212, 8196, 8191, 8193, 8166, 8181, 8215, 8186, 8171, 8171, 8197,4.207653284072876
19, 8179, 8173, 8167, 8205, 8187, 8174, 8186, 8165, 8183, 8216, 8180, 8177, 8177, 8192,4.223532676696777
20, 8187, 8176, 8189, 8199, 8181, 8171, 8172, 8173, 8175, 8204, 8175, 8191, 8180, 8203,4.223532676696777
21, 8188, 8166, 8146, 8197, 8182, 8176, 8176, 8170, 8180, 8207, 8183, 8184, 8186, 8206,4.238596677780151
22, 8182, 8165, 8190, 8181, 8175, 8180, 8172, 8167, 8182, 8208, 8186, 8188, 8184, 8191,4.238596677780151
23, 8168, 8166, 8149, 8163, 8163, 8163, 8156, 8169, 8179, 8196, 8175, 8182, 8174, 8177,4.254155158996582
24, 8173, 8171, 8159, 8156, 8163, 8154, 8150, 8168, 8191, 8189, 8172, 8185, 8175, 8181,4.254155158996582
25, 8188, 8173, 8170, 8158, 8180, 8178, 8179, 8179, 8228, 8215, 8191, 8199, 8198, 8193,4.269543886184692
26, 8182, 8157, 8138, 8150, 8180, 8180, 8190, 8180, 8234, 8227, 8201, 8197, 8203, 8187,4.269543886184692
27, 8178, 8164, 8189, 8137, 8170, 8174, 8166, 8169, 8203, 8199, 8191, 8196, 8184, 8176,4.285632610321045
28, 8190, 8177, 8146, 8156, 8175, 8173, 8170, 8168, 8209, 8199, 8198, 8192, 8187, 8180,4.285632610321045
29, 8192, 8176, 8168, 8161, 8174, 8163, 8178, 8169, 8214, 8205, 8202, 8190, 8196, 8182,4.301621437072754
30, 8174, 8170, 8183, 8135, 8169, 8159, 8169, 8175, 8200, 8201, 8198, 8194, 8192, 8179,4.301621437072754
31, 8169, 8167, 8120, 8131, 8175, 8155, 8160, 8178, 8198, 8207, 8206, 8191, 8187, 8169,4.3177330493927
32, 8180, 8182, 8194, 8138, 8174, 8154, 8154, 8185, 8182, 8193, 8202, 8201, 8179, 8162,4.3177330493927
33, 8173, 8179, 8156, 8143, 8178, 8154, 8171, 8176, 8189, 8195, 8195, 8201, 8186, 8164,4.332823038101196
34, 8174, 8169, 8157, 8130, 8178, 8157, 8173, 8167, 8192, 8198, 8188, 8199, 8188, 8163,4.332823038101196
35, 8189, 8186, 8213, 8132, 8176, 8172, 8165, 8184, 8171, 8186, 8195, 8212, 8186, 8163,4.348370552062988
36, 8191, 8191, 8136, 8163, 8188, 8165, 8185, 8175, 8178, 8199, 8228, 8205, 8199, 8170,4.348370552062988
37, 8194, 8192, 8206, 8158, 8185, 8162, 8179, 8175, 8180, 8204, 8212, 8212, 8200, 8171,4.363679885864258
38, 8189, 8186, 8176, 8154, 8180, 8173, 8170, 8180, 8187, 8207, 8214, 8204, 8191, 8159,4.363679885864258
39, 8182, 8178, 8142, 8162, 8190, 8173, 8183, 8171, 8192, 8203, 8368, 8181, 8179, 8150,4.378860235214233
40, 8178, 8187, 8209, 8169, 8194, 8189, 8192, 8186, 8188, 8203, 8553, 8189, 8172, 8163,4.394948959350586
41, 8170, 8174, 8126, 8176, 8197, 8188, 8196, 8180, 8197, 8226, 8593, 8180, 8179, 8162,4.394948959350586
42, 8167, 8171, 8184, 8149, 8189, 8171, 8178, 8177, 8182, 8208, 8548, 8170, 8166, 8144,4.394948959350586
43, 8154, 8177, 8173, 8147, 8189, 8172, 8179, 8181, 8179, 8188, 8552, 8156, 8152, 8137,4.4105188846588135
44, 8144, 8162, 8129, 8160, 8196, 8174, 8192, 8170, 8193, 8198, 8563, 8141, 8149, 8141,4.4105188846588135
45, 8153, 8169, 8204, 8158, 8199, 8192, 8203, 8182, 8194, 8199, 8546, 8154, 8145, 8150,4.425868272781372
46, 8157, 8172, 8132, 8179, 8208, 8198, 8231, 8174, 8203, 8203, 8545, 8145, 8146, 8152,4.425868272781372
47, 8157, 8164, 8171, 8171, 8203, 8196, 8230, 8171, 8193, 8199, 8533, 8143, 8142, 8153,4.441589117050171
48, 8151, 8154, 8171, 8148, 8190, 8201, 8218, 8183, 8189, 8201, 8520, 8145, 8143, 8151,4.441589117050171
49, 8146, 8144, 8125, 8150, 8181, 8185, 8209, 8174, 8201, 8200, 8512, 8131, 8143, 8148,4.456918954849243
50, 8159, 8164, 8200, 8161, 8183, 8186, 8203, 8179, 8201, 8191, 8510, 8144, 8137, 8163,4.456918954849243
51, 8163, 8167, 8137, 8171, 8190, 8183, 8212, 8172, 8212, 8212, 8526, 8149, 8150, 8167,4.472089529037476
52, 8160, 8155, 8165, 8151, 8179, 8170, 8197, 8170, 8210, 8208, 8519, 8147, 8161, 8156,4.472089529037476
53, 8157, 8152, 8172, 8139, 8172, 8171, 8190, 8181, 8209, 8197, 8505, 8144, 8161, 8154,4.48782205581665
54, 8156, 8141, 8119, 8138, 8171, 8167, 8199, 8164, 8212, 8206, 8504, 8136, 8157, 8154,4.48782205581665
55, 8168, 8152, 8197, 8133, 8174, 8173, 8190, 8167, 8205, 8205, 8504, 8157, 8157, 8164,4.50333571434021
56, 8187, 8163, 8154, 8157, 8192, 8176, 8194, 8177, 8226, 8217, 8520, 8174, 8174, 8175,4.50333571434021
57, 8203, 8168, 8174, 8151, 8194, 8172, 8197, 8181, 8239, 8217, 8534, 8184, 8181, 8177,4.518959999084473
58, 8187, 8162, 8180, 8121, 8179, 8167, 8193, 8183, 8230, 8207, 8530, 8180, 8177, 8164,4.518959999084473
59, 8172, 8146, 8125, 8124, 8173, 8155, 8182, 8169, 8220, 8200, 8516, 8158, 8168, 8154,4.53498911857605
60, 8183, 8164, 8205, 8132, 8173, 8163, 8170, 8176, 8209, 8186, 8513, 8176, 8162, 8163,4.53498911857605
61, 8182, 8173, 8155, 8137, 8178, 8163, 8184, 8177, 8216, 8199, 8531, 8190, 8175, 8166,4.551654815673828
62, 8175, 8165, 8156, 8128, 8173, 8147, 8171, 8166, 8196, 8194, 8521, 8180, 8173, 8149,4.551654815673828
63, 8169, 8170, 8181, 8134, 8167, 8150, 8148, 8178, 8176, 8172, 8501, 8173, 8159, 8143,4.566744327545166
64, 8171, 8171, 8134, 8154, 8172, 8149, 8151, 8177, 8183, 8179, 8511, 8171, 8164, 8151,4.566744327545166
65, 8186, 8183, 8213, 8155, 8175, 8158, 8151, 8175, 8181, 8193, 8519, 8198, 8172, 8160,4.581956148147583
66, 8179, 8183, 8163, 8170, 8185, 8170, 8162, 8171, 8183, 8196, 8506, 8190, 8174, 8159,4.581956148147583
67, 8166, 8174, 8161, 8178, 8188, 8161, 8161, 8169, 8167, 8172, 8479, 8162, 8161, 8149,4.597886085510254
68, 8167, 8180, 8198, 8173, 8183, 8167, 8156, 8174, 8153, 8164, 8477, 8169, 8152, 8150,4.597886085510254
69, 8165, 8175, 8132, 8177, 8182, 8178, 8167, 8165, 8169, 8186, 8489, 8163, 8162, 8156,4.613764047622681
70, 8165, 8180, 8198, 8180, 8180, 8185, 8167, 8171, 8167, 8183, 8477, 8161, 8166, 8156,4.613764047622681
71, 8172, 8187, 8167, 8202, 8186, 8183, 8170, 8176, 8167, 8183, 8470, 8166, 8170, 8158,4.629936695098877
72, 8173, 8176, 8152, 8203, 8185, 8176, 8166, 8165, 8161, 8182, 8465, 8163, 8163, 8155,4.629936695098877
73, 8168, 8167, 8190, 8183, 8178, 8184, 8163, 8172, 8156, 8169, 8451, 8166, 8153, 8155,4.643564939498901
74, 8162, 8156, 8127, 8184, 8184, 8183, 8180, 8173, 8171, 8179, 8445, 8155, 8160, 8152,4.658807754516602
75, 8160, 8150, 8182, 8170, 8182, 8181, 8174, 8174, 8162, 8180, 8432, 8149, 8163, 8145,4.658807754516602
76, 8153, 8144, 8153, 8163, 8174, 8178, 8165, 8173, 8156, 8172, 8422, 8141, 8153, 8148,4.67787504196167
77, 8156, 8148, 8136, 8175, 8171, 8176, 8162, 8164, 8161, 8177, 8418, 8139, 8143, 8148,4.67787504196167
78, 8163, 8158, 8191, 8173, 8173, 8194, 8164, 8169, 8164, 8192, 8413, 8154, 8182, 8148,4.67787504196167
79, 8159, 8142, 8127, 8168, 8175, 8193, 8180, 8167, 8178, 8215, 8418, 8148, 8233, 8160,4.6905529499053955
80, 8158, 8140, 8171, 8157, 8171, 8183, 8179, 8170, 8176, 8212, 8416, 8152, 8204, 8166,4.707013845443726
81, 8161, 8158, 8159, 8173, 8176, 8189, 8181, 8177, 8184, 8213, 8411, 8160, 8165, 8166,4.707013845443726
82, 8172, 8167, 8143, 8188, 8183, 8188, 8190, 8166, 8200, 8217, 8412, 8163, 8180, 8173,4.707013845443726
83, 8185, 8170, 8203, 8175, 8178, 8188, 8191, 8171, 8198, 8211, 8410, 8173, 8187, 8181,4.721673965454102
84, 8182, 8152, 8130, 8169, 8171, 8170, 8184, 8172, 8199, 8213, 8408, 8161, 8179, 8175,4.7380077838897705
85, 8182, 8147, 8164, 8147, 8157, 8150, 8156, 8168, 8190, 8200, 8398, 8157, 8178, 8171,4.7380077838897705
86, 8183, 8155, 8162, 8135, 8156, 8152, 8151, 8173, 8191, 8197, 8399, 8160, 8181, 8174,4.752756118774414
87, 8185, 8150, 8130, 8146, 8161, 8146, 8156, 8169, 8193, 8201, 8404, 8152, 8180, 8161,4.752756118774414
88, 8198, 8169, 8201, 8151, 8166, 8148, 8148, 8175, 8181, 8191, 8407, 8169, 8172, 8154,4.767887830734253
89, 8202, 8182, 8146, 8160, 8181, 8152, 8157, 8172, 8175, 8193, 8416, 8173, 8171, 8161,4.767887830734253
90, 8194, 8176, 8177, 8164, 8182, 8161, 8157, 8168, 8157, 8175, 8402, 8166, 8159, 8159,4.783688545227051
91, 8187, 8176, 8187, 8181, 8180, 8179, 8163, 8179, 8157, 8174, 8384, 8160, 8151, 8155,4.783688545227051
92, 8185, 8166, 8142, 8190, 8187, 8177, 8171, 8172, 8168, 8197, 8370, 8141, 8154, 8149,4.799713611602783
93, 8179, 8162, 8196, 8170, 8183, 8179, 8164, 8169, 8163, 8193, 8348, 8136, 8148, 8151,4.799713611602783
94, 8173, 8150, 8135, 8166, 8173, 8181, 8176, 8169, 8181, 8196, 8349, 8130, 8148, 8165,4.818868160247803
95, 8184, 8141, 8164, 8158, 8162, 8179, 8184, 8168, 8189, 8205, 8352, 8135, 8151, 8174,4.818868160247803
96, 8179, 8146, 8177, 8147, 8164, 8178, 8182, 8172, 8178, 8207, 8342, 8135, 8154, 8167,4.818868160247803
97, 8172, 8144, 8120, 8138, 8172, 8166, 8178, 8161, 8178, 8206, 8347, 8124, 8155, 8160,4.832890748977661
98, 8185, 8151, 8194, 8131, 8167, 8168, 8170, 8170, 8180, 8193, 8356, 8146, 8163, 8173,4.84895658493042
99, 8183, 8148, 8141, 8145, 8165, 8164, 8178, 8176, 8195, 8196, 8358, 8151, 8181, 8172,4.84895658493042
100, 8185, 8151, 8156, 8143, 8166, 8152, 8169, 8170, 8187, 8183, 8354, 8153, 8172, 8154,4.84895658493042
101, 8197, 8164, 8191, 8140, 8168, 8158, 8157, 8173, 8172, 8170, 8355, 8166, 8165, 8155,4.864015579223633
102, 8182, 8156, 8123, 8141, 8164, 8144, 8151, 8157, 8163, 8170, 8350, 8147, 8166, 8149,4.879550218582153
103, 8177, 8170, 8192, 8135, 8161, 8147, 8131, 8164, 8141, 8153, 8340, 8149, 8152, 8138,4.879550218582153
104, 8186, 8178, 8157, 8172, 8182, 8176, 8154, 8173, 8160, 8180, 8351, 8151, 8154, 8145,4.894679307937622
105, 8183, 8166, 8162, 8187, 8184, 8182, 8180, 8164, 8175, 8204, 8337, 8133, 8156, 8152,4.894679307937622
106, 8169, 8163, 8194, 8170, 8164, 8182, 8178, 8170, 8159, 8192, 8312, 8127, 8144, 8150,4.909738302230835
107, 8165, 8155, 8119, 8176, 8164, 8181, 8183, 8164, 8167, 8198, 8319, 8126, 8153, 8158,4.909738302230835
108, 8172, 8159, 8188, 8166, 8167, 8189, 8179, 8169, 8178, 8195, 8315, 8146, 8162, 8172,4.925751209259033
109, 8172, 8161, 8151, 8151, 8161, 8182, 8176, 8169, 8186, 8188, 8310, 8149, 8166, 8166,4.925751209259033
110, 8178, 8152, 8137, 8133, 8149, 8153, 8154, 8156, 8170, 8178, 8314, 8146, 8161, 8149,4.941524028778076
111, 8188, 8160, 8189, 8127, 8140, 8147, 8133, 8168, 8140, 8157, 8318, 8167, 8158, 8149,4.941524028778076
112, 8193, 8167, 8130, 8152, 8151, 8143, 8141, 8167, 8136, 8148, 8327, 8171, 8168, 8150,4.956913471221924
113, 8194, 8175, 8200, 8155, 8163, 8155, 8140, 8167, 8134, 8140, 8323, 8173, 8161, 8147,4.956913471221924
114, 8177, 8166, 8167, 8152, 8167, 8174, 8147, 8165, 8135, 8150, 8311, 8152, 8144, 8144,4.971676349639893
115, 8169, 8153, 8140, 8158, 8166, 8176, 8154, 8157, 8133, 8160, 8300, 8130, 8136, 8141,4.971676349639893
116, 8175, 8166, 8208, 8167, 8167, 8189, 8163, 8168, 8137, 8171, 8297, 8142, 8144, 8145,4.98683762550354
117, 8162, 8153, 8134, 8173, 8174, 8183, 8179, 8164, 8155, 8186, 8296, 8138, 8158, 8150,4.98683762550354
118, 8168, 8142, 8173, 8150, 8166, 8169, 8176, 8165, 8149, 8175, 8286, 8145, 8157, 8160,5.002676486968994
119, 8190, 8154, 8165, 8145, 8168, 8176, 8176, 8168, 8166, 8186, 8292, 8165, 8170, 8174,5.002676486968994
120, 8192, 8159, 8148, 8147, 8166, 8172, 8168, 8162, 8189, 8202, 8301, 8170, 8185, 8172,5.0179219245910645
121, 8191, 8171, 8203, 8139, 8157, 8162, 8154, 8172, 8176, 8187, 8307, 8183, 8182, 8170,5.0179219245910645
122, 8195, 8171, 8128, 8149, 8165, 8152, 8154, 8163, 8173, 8177, 8315, 8184, 8175, 8168,5.033926725387573
123, 8195, 8178, 8180, 8144, 8168, 8164, 8142, 8160, 8160, 8160, 8301, 8189, 8157, 8159,5.033926725387573
124, 8186, 8181, 8179, 8143, 8171, 8182, 8151, 8175, 8154, 8160, 8293, 8185, 8151, 8153,5.049875259399414
125, 8180, 8165, 8132, 8157, 8175, 8174, 8172, 8166, 8155, 8169, 8290, 8162, 8155, 8149,5.049875259399414
126, 8173, 8167, 8197, 8158, 8173, 8185, 8171, 8170, 8144, 8159, 8267, 8157, 8143, 8153,5.065328121185303
127, 8165, 8159, 8134, 8162, 8173, 8197, 8182, 8171, 8153, 8170, 8253, 8146, 8143, 8160,5.065328121185303
236, 8174, 8147, 8164, 8143, 8160, 8185, 8184, 8168, 8167, 8184, 8251, 8149, 8155, 8167,5.080547571182251
0, 8172, 8144, 8169, 8124, 8147, 8171, 8170, 8174, 8183, 8185, 8260, 8163, 8169, 8169,5.080547571182251
1, 8173, 8142, 8127, 8124, 8153, 8158, 8160, 8161, 8182, 8177, 8269, 8169, 8178, 8160,5.095737934112549
2, 8182, 8157, 8197, 8122, 8157, 8162, 8152, 8161, 8160, 8161, 8264, 8184, 8168, 8152,5.095737934112549
3, 8175, 8159, 8139, 8137, 8157, 8162, 8150, 8162, 8159, 8164, 8264, 8174, 8167, 8150,5.11092734336853
4, 8174, 8166, 8165, 8145, 8158, 8155, 8130, 8165, 8149, 8154, 8273, 8175, 8166, 8148,5.11092734336853
5, 8178, 8179, 8185, 8154, 8165, 8157, 8128, 8174, 8140, 8144, 8273, 8184, 8156, 8151,5.126854181289673
6, 8177, 8174, 8133, 8172, 8171, 8160, 8150, 8169, 8149, 8149, 8261, 8166, 8147, 8149,5.126854181289673
7, 8173, 8178, 8201, 8172, 8169, 8176, 8155, 8177, 8138, 8146, 8253, 8169, 8142, 8141,5.142004013061523
8, 8165, 8171, 8148, 8182, 8171, 8184, 8167, 8175, 8138, 8162, 8261, 8170, 8150, 8143,5.158078193664551
9, 8168, 8165, 8162, 8182, 8167, 8182, 8172, 8169, 8146, 8170, 8247, 8158, 8145, 8159,5.158078193664551
10, 8169, 8167, 8189, 8176, 8163, 8190, 8174, 8180, 8156, 8170, 8218, 8152, 8141, 8162,5.158730506896973
11, 8157, 8150, 8124, 8171, 8163, 8181, 8181, 8170, 8169, 8177, 8215, 8143, 8149, 8149,5.1728270053863525
12, 8164, 8150, 8191, 8154, 8156, 8181, 8176, 8169, 8164, 8174, 8220, 8157, 8150, 8162,5.1728270053863525
13, 8174, 8153, 8146, 8155, 8152, 8183, 8178, 8173, 8171, 8182, 8225, 8154, 8161, 8179,5.188877582550049
14, 8167, 8139, 8142, 8134, 8141, 8166, 8167, 8164, 8168, 8172, 8215, 8145, 8158, 8158,5.188877582550049
15, 8173, 8143, 8183, 8115, 8139, 8169, 8169, 8171, 8177, 8167, 8218, 8166, 8157, 8154,5.20499062538147
16, 8194, 8155, 8129, 8141, 8158, 8174, 8187, 8173, 8213, 8194, 8249, 8182, 8184, 8177,5.20499062538147
17, 8205, 8176, 8200, 8152, 8165, 8169, 8172, 8174, 8203, 8185, 8255, 8199, 8194, 8185,5.219684839248657
18, 8192, 8179, 8164, 8154, 8167, 8162, 8164, 8170, 8187, 8174, 8253, 8198, 8190, 8178,5.219684839248657
19, 8188, 8168, 8150, 8145, 8164, 8155, 8163, 8161, 8191, 8180, 8256, 8193, 8186, 8166,5.235806941986084
20, 8194, 8179, 8200, 8144, 8160, 8163, 8157, 8174, 8184, 8175, 8254, 8206, 8181, 8159,5.236806631088257
21, 8191, 8186, 8146, 8172, 8166, 8159, 8165, 8173, 8165, 8169, 8252, 8202, 8181, 8164,5.252200126647949
22, 8193, 8189, 8200, 8176, 8169, 8164, 8167, 8169, 8144, 8162, 8246, 8204, 8178, 8166,5.252200126647949
23, 8187, 8182, 8173, 8179, 8176, 8179, 8175, 8172, 8154, 8173, 8243, 8197, 8182, 8156,5.266858339309692
24, 8183, 8177, 8160, 8196, 8183, 8178, 8176, 8166, 8159, 8181, 8238, 8186, 8181, 8156,5.266858339309692
25, 8194, 8188, 8215, 8205, 8190, 8184, 8172, 8171, 8152, 8179, 8234, 8197, 8182, 8182,5.282905578613281
26, 8195, 8176, 8147, 8200, 8192, 8185, 8183, 8168, 8163, 8187, 8228, 8185, 8188, 8185,5.282905578613281
27, 8183, 8163, 8183, 8178, 8179, 8190, 8178, 8170, 8159, 8182, 8211, 8167, 8183, 8168,5.298715829849243
28, 8168, 8162, 8167, 8179, 8179, 8196, 8186, 8178, 8170, 8195, 8215, 8163, 8189, 8176,5.299716234207153
29, 8175, 8151, 8146, 8176, 8181, 8193, 8198, 8170, 8192, 8215, 8221, 8169, 8197, 8190,5.314778804779053
30, 8183, 8150, 8195, 8153, 8168, 8198, 8195, 8173, 8184, 8207, 8200, 8173, 8187, 8183,5.314778804779053
31, 8173, 8149, 8122, 8149, 8167, 8184, 8195, 8168, 8185, 8205, 8201, 8163, 8187, 8174,5.3299500942230225
32, 8181, 8154, 8174, 8130, 8166, 8166, 8179, 8169, 8196, 8196, 8218, 8191, 8191, 8182,5.3299500942230225
33, 8192, 8159, 8172, 8122, 8163, 8164, 8171, 8174, 8205, 8190, 8230, 8211, 8196, 8191,5.3453123569488525
34, 8190, 8158, 8135, 8137, 8166, 8156, 8175, 8162, 8197, 8185, 8222, 8192, 8193, 8181,5.362020254135132
35, 8189, 8171, 8203, 8139, 8166, 8159, 8171, 8171, 8174, 8167, 8202, 8194, 8184, 8173,5.362020254135132
36, 8187, 8162, 8131, 8141, 8162, 8156, 8168, 8170, 8177, 8168, 8207, 8191, 8187, 8168,5.362020254135132
37, 8185, 8163, 8175, 8136, 8159, 8151, 8148, 8168, 8170, 8163, 8212, 8198, 8179, 8164,5.378030300140381
38, 8183, 8179, 8187, 8149, 8173, 8164, 8152, 8175, 8170, 8168, 8213, 8210, 8176, 8162,5.378030300140381
39, 8184, 8172, 8129, 8164, 8179, 8157, 8162, 8163, 8169, 8180, 8222, 8200, 8186, 8160,5.3915417194366455
40, 8185, 8183, 8214, 8162, 8172, 8158, 8142, 8169, 8132, 8163, 8221, 8201, 8175, 8167,5.407615423202515
41, 8179, 8187, 8152, 8188, 8184, 8167, 8150, 8163, 8126, 8159, 8208, 8186, 8158, 8166,5.407615423202515
42, 8185, 8182, 8176, 8196, 8190, 8172, 8163, 8162, 8129, 8153, 8194, 8181, 8152, 8156,5.423641204833984
43, 8179, 8177, 8199, 8182, 8183, 8184, 8168, 8174, 8125, 8158, 8188, 8182, 8151, 8153,5.423641204833984
44, 8155, 8152, 8124, 8174, 8179, 8178, 8173, 8158, 8127, 8172, 8170, 8149, 8139, 8148,5.423641204833984
45, 8157, 8155, 8196, 8164, 8175, 8189, 8176, 8168, 8132, 8168, 8158, 8153, 8137, 8155,5.4379308223724365
46, 8166, 8160, 8146, 8171, 8177, 8196, 8193, 8174, 8156, 8182, 8176, 8168, 8168, 8166,5.4540276527404785
47, 8160, 8151, 8160, 8166, 8170, 8186, 8179, 8165, 8148, 8181, 8170, 8159, 8167, 8162,5.4540276527404785
48, 8144, 8146, 8186, 8151, 8161, 8189, 8166, 8174, 8140, 8173, 8151, 8152, 8146, 8152,5.471011161804199
49, 8145, 8136, 8113, 8136, 8151, 8168, 8165, 8171, 8163, 8180, 8162, 8152, 8157, 8144,5.471011161804199
50, 8173, 8152, 8192, 8122, 8144, 8159, 8152, 8177, 8173, 8171, 8179, 8185, 8176, 8157,5.485080242156982
51, 8187, 8170, 8155, 8153, 8164, 8170, 8161, 8174, 8183, 8179, 8198, 8200, 8183, 8169,5.485080242156982
52, 8183, 8173, 8156, 8158, 8175, 8162, 8154, 8169, 8168, 8169, 8195, 8194, 8168, 8155,5.502715349197388
53, 8173, 8176, 8199, 8137, 8167, 8161, 8139, 8183, 8151, 8151, 8182, 8190, 8158, 8149,5.502715349197388
54, 8160, 8160, 8133, 8158, 8171, 8169, 8155, 8167, 8156, 8162, 8179, 8165, 8157, 8151,5.515883445739746
55, 8165, 8157, 8192, 8177, 8176, 8186, 8164, 8160, 8148, 8158, 8165, 8160, 8145, 8151,5.515883445739746
56, 8166, 8162, 8154, 8183, 8182, 8194, 8169, 8168, 8156, 8164, 8159, 8156, 8155, 8152,5.531414270401001
57, 8156, 8159, 8153, 8170, 8181, 8189, 8160, 8164, 8153, 8180, 8156, 8145, 8161, 8154,5.531414270401001
58, 8160, 8160, 8204, 8167, 8177, 8196, 8161, 8170, 8144, 8188, 8160, 8160, 8161, 8165,5.547025203704834
59, 8175, 8159, 8136, 8191, 8184, 8196, 8187, 8167, 8172, 8202, 8163, 8158, 8176, 8176,5.547025203704834
60, 8179, 8165, 8195, 8183, 8182, 8196, 8179, 8174, 8176, 8190, 8130, 8148, 8165, 8171,5.562954902648926
61, 8165, 8155, 8162, 8167, 8173, 8188, 8163, 8176, 8171, 8185, 8130, 8148, 8153, 8166,5.562954902648926
62, 8171, 8140, 8146, 8159, 8161, 8172, 8161, 8165, 8184, 8193, 8161, 8164, 8168, 8171,5.578646659851074
63, 8178, 8158, 8199, 8153, 8154, 8175, 8167, 8176, 8193, 8189, 8156, 8177, 8174, 8172,5.578646659851074
64, 8171, 8164, 8130, 8161, 8165, 8175, 8182, 8175, 8207, 8195, 8148, 8163, 8178, 8167,5.594156742095947
65, 8190, 8170, 8197, 8163, 8177, 8184, 8184, 8177, 8212, 8201, 8168, 8185, 8191, 8176,5.594156742095947
66, 8199, 8175, 8182, 8175, 8177, 8187, 8183, 8175, 8215, 8208, 8187, 8201, 8201, 8179,5.610199451446533
67, 8193, 8171, 8147, 8178, 8168, 8161, 8166, 8161, 8202, 8199, 8191, 8191, 8194, 8168,5.610199451446533
68, 8200, 8185, 8212, 8174, 8176, 8163, 8148, 8173, 8184, 8184, 8196, 8204, 8185, 8165,5.625872611999512
69, 8198, 8187, 8151, 8195, 8197, 8166, 8150, 8175, 8186, 8186, 8196, 8195, 8186, 8162,5.625872611999512
70, 8193, 8185, 8194, 8189, 8189, 8160, 8142, 8174, 8179, 8180, 8192, 8197, 8183, 8160,5.641790866851807
71, 8195, 8191, 8185, 8187, 8185, 8173, 8159, 8177, 8187, 8200, 8208, 8209, 8190, 8170,5.641790866851807
72, 8206, 8200, 8157, 8217, 8208, 8177, 8182, 8169, 8195, 8211, 8212, 8201, 8195, 8175,5.657138347625732
73, 8214, 8221, 8228, 8238, 8221, 8180, 8178, 8176, 8175, 8184, 8195, 8203, 8184, 8172,5.657138347625732
74, 8200, 8204, 8152, 8245, 8215, 8178, 8181, 8173, 8170, 8180, 8185, 8188, 8177, 8159,5.671736478805542
75, 8186, 8179, 8187, 8222, 8203, 8179, 8178, 8164, 8159, 8173, 8164, 8177, 8165, 8155,5.671736478805542
76, 8183, 8175, 8190, 8222, 8207, 8188, 8180, 8167, 8157, 8173, 8156, 8180, 8174, 8170,5.68790078163147
77, 8187, 8168, 8138, 8227, 8211, 8182, 8183, 8162, 8168, 8186, 8162, 8177, 8187, 8173,5.68790078163147
78, 8181, 8167, 8201, 8200, 8193, 8183, 8175, 8172, 8162, 8175, 8140, 8174, 8169, 8170,5.70330548286438
79, 8167, 8153, 8131, 8190, 8187, 8181, 8184, 8171, 8172, 8182, 8134, 8164, 8166, 8169,5.70330548286438
80, 8175, 8150, 8163, 8183, 8185, 8181, 8180, 8170, 8182, 8197, 8149, 8170, 8173, 8168,5.719256401062012
81, 8191, 8167, 8189, 8187, 8180, 8193, 8172, 8176, 8196, 8209, 8150, 8177, 8175, 8176,5.719256401062012
82, 8198, 8166, 8137, 8200, 8179, 8182, 8177, 8159, 8205, 8212, 8142, 8170, 8184, 8180,5.73491358757019
83, 8202, 8168, 8206, 8189, 8172, 8177, 8170, 8163, 8191, 8205, 8143, 8191, 8190, 8179,5.73491358757019
84, 8188, 8159, 8148, 8170, 8166, 8172, 8160, 8170, 8186, 8203, 8145, 8183, 8188, 8177,5.75071907043457
85, 8182, 8149, 8159, 8151, 8160, 8162, 8144, 8166, 8178, 8185, 8131, 8166, 8182, 8170,5.75071907043457
86, 8194, 8158, 8190, 8164, 8162, 8166, 8142, 8173, 8188, 8186, 8140, 8185, 8196, 8171,5.766807556152344
87, 8199, 8160, 8145, 8183, 8172, 8156, 8153, 8168, 8209, 8213, 8167, 8193, 8210, 8176,5.766807556152344
88, 8207, 8170, 8210, 8167, 8171, 8152, 8146, 8170, 8201, 8215, 8165, 8200, 8204, 8180,5.782116651535034
89, 8213, 8170, 8157, 8169, 8169, 8152, 8144, 8169, 8199, 8215, 8166, 8201, 8211, 8181,5.782116651535034
90, 8219, 8169, 8167, 8173, 8165, 8151, 8136, 8164, 8195, 8202, 8180, 8204, 8213, 8178,5.797861814498901
91, 8215, 8182, 8209, 8170, 8169, 8170, 8144, 8174, 8190, 8191, 8179, 8208, 8207, 8173,5.7982261180877686
92, 8208, 8180, 8149, 8179, 8178, 8172, 8167, 8167, 8195, 8201, 8170, 8191, 8210, 8164,5.813863515853882
93, 8208, 8179, 8200, 8168, 8177, 8167, 8160, 8165, 8180, 8188, 8159, 8191, 8203, 8160,5.813863515853882
94, 8200, 8168, 8163, 8156, 8177, 8169, 8165, 8170, 8177, 8185, 8161, 8189, 8195, 8154,5.829037666320801
95, 8198, 8170, 8161, 8155, 8172, 8166, 8169, 8166, 8184, 8195, 8167, 8189, 8194, 8154,5.829037666320801
96, 8207, 8187, 8200, 8172, 8173, 8163, 8150, 8169, 8181, 8190, 8171, 8198, 8198, 8169,5.844557523727417
97, 8214, 8178, 8148, 8191, 8188, 8156, 8146, 8169, 8180, 8190, 8174, 8190, 8201, 8173,5.844557523727417
98, 8216, 8182, 8213, 8189, 8194, 8166, 8158, 8173, 8179, 8196, 8167, 8202, 8200, 8170,5.859768629074097
99, 8202, 8192, 8172, 8189, 8189, 8177, 8172, 8169, 8187, 8209, 8172, 8204, 8208, 8171,5.859768629074097
100, 8183, 8183, 8150, 8170, 8177, 8169, 8164, 8159, 8172, 8197, 8166, 8178, 8198, 8155,5.875212669372559
101, 8179, 8184, 8208, 8170, 8173, 8173, 8160, 8173, 8160, 8183, 8156, 8170, 8186, 8150,5.875212669372559
102, 8184, 8183, 8146, 8226, 8182, 8172, 8171, 8171, 8167, 8201, 8164, 8169, 8191, 8164,5.891236066818237
103, 8192, 8186, 8201, 8240, 8177, 8170, 8157, 8163, 8148, 8192, 8159, 8181, 8184, 8169,5.891236066818237
104, 8196, 8190, 8189, 8219, 8180, 8177, 8158, 8166, 8150, 8184, 8163, 8191, 8185, 8170,5.9060022830963135
105, 8206, 8181, 8176, 8228, 8195, 8176, 8162, 8167, 8164, 8189, 8179, 8198, 8196, 8176,5.9060022830963135
106, 8216, 8170, 8242, 8240, 8187, 8183, 8159, 8176, 8146, 8183, 8167, 8207, 8194, 8181,5.921568870544434
107, 8210, 8162, 8158, 8241, 8183, 8181, 8177, 8166, 8153, 8193, 8153, 8183, 8195, 8179,5.921568870544434
108, 8213, 8191, 8199, 8240, 8192, 8188, 8171, 8168, 8160, 8199, 8157, 8186, 8198, 8187,5.936666250228882
109, 8213, 8208, 8202, 8259, 8196, 8195, 8161, 8179, 8156, 8200, 8166, 8205, 8204, 8193,5.936666250228882
110, 8210, 8183, 8159, 8269, 8189, 8181, 8164, 8165, 8158, 8199, 8160, 8195, 8208, 8186,5.952729940414429
111, 8214, 8182, 8220, 8245, 8176, 8184, 8159, 8169, 8151, 8185, 8144, 8194, 8195, 8189,5.952729940414429
112, 8198, 8174, 8147, 8230, 8165, 8181, 8159, 8166, 8144, 8175, 8128, 8182, 8185, 8181,5.9679787158966064
113, 8189, 8154, 8180, 8215, 8163, 8175, 8158, 8159, 8128, 8164, 8114, 8181, 8176, 8168,5.985011577606201
114, 8194, 8155, 8196, 8213, 8182, 8191, 8177, 8168, 8143, 8180, 8122, 8186, 8181, 8181,5.985011577606201
115, 8194, 8153, 8146, 8207, 8182, 8188, 8189, 8169, 8179, 8199, 8128, 8176, 8189, 8196,5.985011577606201
116, 8193, 8149, 8200, 8182, 8156, 8185, 8175, 8180, 8186, 8188, 8118, 8187, 8181, 8196,6.000540494918823
117, 8200, 8150, 8141, 8192, 8168, 8187, 8185, 8179, 8198, 8204, 8128, 8194, 8189, 8202,6.000540494918823
118, 8214, 8170, 8182, 8198, 8194, 8187, 8193, 8176, 8201, 8215, 8138, 8205, 8203, 8212,6.015558958053589
119, 8207, 8177, 8195, 8188, 8197, 8185, 8199, 8179, 8202, 8212, 8142, 8209, 8210, 8212,6.015558958053589
120, 8195, 8151, 8127, 8174, 8174, 8163, 8193, 8159, 8198, 8213, 8148, 8187, 8211, 8201,6.03660249710083
121, 8201, 8152, 8200, 8151, 8152, 8161, 8162, 8164, 8175, 8189, 8146, 8193, 8199, 8194,6.038181781768799
122, 8204, 8161, 8147, 8165, 8162, 8170, 8163, 8171, 8185, 8187, 8150, 8195, 8203, 8190,6.046690225601196
123, 8206, 8158, 8171, 8166, 8172, 8166, 8166, 8164, 8194, 8189, 8143, 8189, 8203, 8183,6.046690225601196
124, 8204, 8164, 8195, 8156, 8174, 8162, 8155, 8171, 8190, 8188, 8142, 8195, 8198, 8175,6.063283920288086
125, 8206, 8165, 8129, 8173, 8181, 8152, 8148, 8169, 8187, 8189, 8158, 8197, 8201, 8169,6.063283920288086
126, 8217, 8190, 8220, 8189, 8188, 8171, 8145, 8181, 8166, 8170, 8160, 8204, 8196, 8173,6.077930450439453
127, 8206, 8193, 8165, 8210, 8198, 8188, 8169, 8176, 8170, 8180, 8153, 8181, 8195, 8176,6.078333377838135
236, 8195, 8171, 8165, 8206, 8192, 8179, 8170, 8164, 8163, 8184, 8130, 8164, 8180, 8173,6.094958066940308
0, 8195, 8172, 8208, 8187, 8182, 8180, 8158, 8176, 8145, 8174, 8104, 8172, 8166, 8175,6.094958066940308
1, 8186, 8167, 8129, 8185, 8177, 8178, 8176, 8167, 8161, 8190, 8105, 8157, 8177, 8172,6.110920190811157
2, 8191, 8173, 8203, 8169, 8171, 8186, 8181, 8170, 8181, 8193, 8111, 8168, 8186, 8178,6.110920190811157
3, 8195, 8178, 8164, 8171, 8174, 8183, 8180, 8176, 8199, 8191, 8116, 8175, 8191, 8186,6.126769065856934
4, 8190, 8173, 8151, 8160, 8169, 8156, 8165, 8165, 8185, 8174, 8103, 8161, 8177, 8170,6.126769065856934
5, 8188, 8182, 8198, 8135, 8158, 8154, 8146, 8167, 8167, 8156, 8095, 8173, 8163, 8152,6.1415276527404785
6, 8189, 8180, 8127, 8150, 8167, 8155, 8149, 8165, 8185, 8169, 8117, 8179, 8174, 8146,6.1415276527404785
7, 8195, 8187, 8202, 8170, 8175, 8160, 8150, 8176, 8174, 8166, 8127, 8186, 8178, 8153,6.157055139541626
8, 8191, 8197, 8175, 8192, 8185, 8172, 8161, 8175, 8158, 8167, 8131, 8183, 8181, 8157,6.173020839691162
9, 8184, 8193, 8146, 8196, 8195, 8178, 8169, 8166, 8156, 8167, 8130, 8169, 8179, 8151,6.173020839691162
10, 8178, 8190, 8190, 8183, 8192, 8194, 8179, 8182, 8168, 8172, 8112, 8166, 8168, 8152,6.173020839691162
11, 8180, 8176, 8125, 8192, 8189, 8193, 8207, 8171, 8199, 8207, 8103, 8155, 8169, 8165,6.1866371631622314
12, 8195, 8178, 8194, 8189, 8188, 8196, 8212, 8168, 8206, 8218, 8104, 8171, 8175, 8181,6.201913595199585
13, 8187, 8175, 8168, 8187, 8192, 8208, 8215, 8180, 8211, 8217, 8107, 8172, 8184, 8176,6.201913595199585
14, 8176, 8161, 8129, 8179, 8192, 8194, 8209, 8173, 8215, 8220, 8103, 8157, 8184, 8164,6.217664480209351
15, 8191, 8176, 8198, 8171, 8185, 8182, 8200, 8177, 8207, 8214, 8108, 8176, 8186, 8175,6.217664480209351
16, 8204, 8174, 8142, 8177, 8179, 8166, 8199, 8171, 8211, 8208, 8124, 8181, 8201, 8182,6.233093976974487
17, 8195, 8164, 8185, 8157, 8168, 8161, 8175, 8171, 8196, 8185, 8111, 8169, 8185, 8164,6.233093976974487
18, 8177, 8168, 8167, 8151, 8182, 8171, 8175, 8179, 8183, 8181, 8103, 8158, 8163, 8148,6.248673677444458
19, 8176, 8172, 8130, 8163, 8199, 8160, 8183, 8167, 8161, 8177, 8112, 8159, 8161, 8144,6.248673677444458
20, 8177, 8177, 8195, 8158, 8184, 8158, 8166, 8170, 8128, 8152, 8099, 8163, 8148, 8140,6.263801097869873
21, 8161, 8164, 8133, 8165, 8179, 8165, 8160, 8168, 8128, 8155, 8082, 8132, 8135, 8133,6.263801097869873
22, 8162, 8162, 8170, 8165, 8183, 8164, 8152, 8164, 8127, 8153, 8076, 8134, 8130, 8128,6.279923915863037
23, 8176, 8174, 8178, 8170, 8181, 8159, 8150, 8171, 8129, 8150, 8092, 8159, 8140, 8133,6.279923915863037
24, 8189, 8176, 8149, 8179, 8181, 8162, 8160, 8170, 8146, 8164, 8118, 8166, 8154, 8140,6.296005487442017
25, 8193, 8188, 8216, 8185, 8193, 8187, 8165, 8173, 8158, 8174, 8117, 8179, 8159, 8149,6.296005487442017
26, 8175, 8181, 8154, 8202, 8203, 8187, 8172, 8170, 8165, 8182, 8097, 8159, 8156, 8147,6.311347007751465
27, 8162, 8169, 8172, 8188, 8189, 8173, 8162, 8164, 8136, 8159, 8073, 8134, 8132, 8135,6.311347007751465
28, 8162, 8168, 8175, 8169, 8182, 8182, 8160, 8166, 8122, 8149, 8069, 8133, 8127, 8137,6.326860427856445
29, 8169, 8161, 8140, 8176, 8187, 8185, 8172, 8165, 8143, 8167, 8075, 8134, 8151, 8148,6.326860427856445
30, 8181, 8164, 8212, 8177, 8184, 8184, 8175, 8173, 8148, 8168, 8070, 8145, 8156, 8152,6.342248201370239
31, 8170, 8154, 8142, 8178, 8181, 8178, 8176, 8168, 8149, 8164, 8068, 8133, 8144, 8148,6.342248201370239
32, 8153, 8144, 8154, 8161, 8168, 8176, 8164, 8162, 8153, 8157, 8056, 8122, 8131, 8145,6.357831716537476
33, 8150, 8147, 8178, 8145, 8160, 8182, 8159, 8171, 8160, 8159, 8052, 8129, 8135, 8142,6.357831716537476
34, 8152, 8140, 8121, 8146, 8162, 8169, 8161, 8160, 8158, 8163, 8057, 8121, 8138, 8128,6.373563766479492
35, 8151, 8144, 8185, 8139, 8156, 8170, 8148, 8159, 8139, 8150, 8053, 8124, 8127, 8131,6.373563766479492
36, 8147, 8153, 8135, 8148, 8164, 8177, 8161, 8163, 8150, 8159, 8062, 8127, 8145, 8147,6.388691186904907
37, 8158, 8162, 8149, 8151, 8174, 8171, 8168, 8160, 8161, 8163, 8067, 8133, 8158, 8150,6.388691186904907
38, 8159, 8162, 8185, 8145, 8167, 8171, 8165, 8169, 8156, 8152, 8055, 8134, 8144, 8136,6.404126405715942
39, 8151, 8144, 8120, 8138, 8158, 8163, 8168, 8164, 8161, 8156, 8056, 8117, 8144, 8124,6.404126405715942
40, 8165, 8155, 8189, 8126, 8155, 8162, 8156, 8170, 8157, 8160, 8073, 8135, 8161, 8134,6.4201672077178955
41, 8174, 8169, 8143, 8143, 8160, 8159, 8161, 8175, 8167, 8170, 8094, 8152, 8168, 8146,6.4201672077178955
42, 8177, 8163, 8142, 8137, 8159, 8149, 8163, 8166, 8166, 8156, 8090, 8151, 8157, 8141,6.435788631439209
43, 8177, 8177, 8191, 8127, 8158, 8156, 8154, 8173, 8158, 8143, 8084, 8154, 8157, 8135,6.435788631439209
44, 8167, 8178, 8117, 8149, 8161, 8146, 8144, 8166, 8162, 8156, 8097, 8146, 8171, 8124,6.451470375061035
45, 8170, 8175, 8182, 8143, 8156, 8143, 8128, 8166, 8144, 8143, 8099, 8157, 8167, 8121,6.451470375061035
46, 8179, 8183, 8162, 8146, 8164, 8155, 8145, 8172, 8145, 8137, 8104, 8167, 8171, 8132,6.467065095901489
47, 8184, 8187, 8153, 8159, 8165, 8151, 8147, 8166, 8143, 8136, 8109, 8164, 8171, 8131,6.467065095901489
48, 8176, 8193, 8207, 8153, 8160, 8159, 8124, 8169, 8114, 8123, 8103, 8167, 8160, 8123,6.482832908630371
49, 8164, 8181, 8133, 8163, 8171, 8162, 8133, 8161, 8109, 8139, 8105, 8153, 8166, 8124,6.482832908630371
50, 8163, 8179, 8184, 8164, 8168, 8161, 8134, 8163, 8112, 8142, 8095, 8147, 8168, 8128,6.49895977973938
51, 8149, 8175, 8162, 8166, 8160, 8170, 8128, 8167, 8119, 8134, 8083, 8132, 8156, 8121,6.49895977973938
52, 8142, 8167, 8140, 8177, 8168, 8178, 8140, 8160, 8125, 8137, 8082, 8119, 8145, 8112,6.515052795410156
53, 8151, 8175, 8199, 8172, 8173, 8193, 8159, 8171, 8126, 8143, 8074, 8126, 8141, 8123,6.515052795410156
54, 8139, 8161, 8123, 8161, 8167, 8186, 8161, 8162, 8132, 8146, 8052, 8098, 8136, 8121,6.530651569366455
55, 8134, 8156, 8172, 8150, 8164, 8178, 8146, 8158, 8125, 8128, 8038, 8093, 8124, 8107,6.530651569366455
56, 8148, 8168, 8170, 8163, 8179, 8188, 8158, 8172, 8148, 8143, 8062, 8120, 8136, 8122,6.545867681503296
57, 8158, 8167, 8132, 8162, 8176, 8175, 8159, 8170, 8182, 8171, 8085, 8137, 8159, 8142,6.545867681503296
58, 8170, 8181, 8198, 8146, 8167, 8166, 8137, 8174, 8181, 8163, 8091, 8163, 8172, 8148,6.561174631118774
59, 8176, 8184, 8140, 8159, 8176, 8160, 8141, 8166, 8168, 8153, 8108, 8167, 8184, 8141,6.561174631118774
60, 8165, 8171, 8174, 8149, 8166, 8153, 8133, 8159, 8131, 8124, 8101, 8160, 8161, 8123,6.576763391494751
61, 8149, 8166, 8169, 8144, 8160, 8155, 8125, 8168, 8113, 8109, 8093, 8157, 8134, 8109,6.576763391494751
62, 8149, 8172, 8136, 8163, 8171, 8157, 8130, 8164, 8118, 8119, 8095, 8144, 8130, 8106,6.593226432800293
63, 8157, 8184, 8210, 8166, 8173, 8166, 8125, 8172, 8111, 8116, 8080, 8147, 8126, 8117,6.593226432800293
64, 8153, 8171, 8138, 8178, 8174, 8164, 8136, 8168, 8126, 8133, 8077, 8139, 8133, 8128,6.607895612716675
65, 8159, 8167, 8173, 8182, 8172, 8166, 8141, 8163, 8134, 8148, 8074, 8139, 8139, 8136,6.607895612716675
66, 8157, 8171, 8195, 8180, 8165, 8179, 8148, 8173, 8133, 8157, 8060, 8144, 8145, 8142,6.623012542724609
67, 8146, 8154, 8133, 8172, 8162, 8175, 8166, 8165, 8150, 8172, 8057, 8134, 8152, 8141,6.623012542724609
68, 8151, 8160, 8197, 8150, 8161, 8183, 8165, 8169, 8160, 8171, 8067, 8145, 8154, 8147,6.639044284820557
69, 8158, 8163, 8143, 8153, 8155, 8176, 8157, 8169, 8168, 8176, 8080, 8145, 8164, 8149,6.639044284820557
70, 8152, 8149, 8155, 8140, 8139, 8155, 8140, 8162, 8147, 8161, 8065, 8135, 8155, 8128,6.654701471328735
71, 8134, 8144, 8172, 8118, 8137, 8160, 8139, 8167, 8130, 8138, 8045, 8125, 8137, 8111,6.654701471328735
72, 8138, 8145, 8117, 8121, 8147, 8151, 8134, 8159, 8141, 8130, 8052, 8119, 8138, 8112,6.67081093788147
73, 8156, 8163, 8192, 8129, 8145, 8144, 8106, 8167, 8134, 8121, 8064, 8148, 8145, 8119,6.67081093788147
74, 8150, 8164, 8141, 8141, 8153, 8148, 8117, 8170, 8137, 8134, 8078, 8149, 8153, 8118,6.6867430210113525
75, 8144, 8155, 8145, 8130, 8159, 8144, 8125, 8163, 8139, 8134, 8082, 8140, 8151, 8115,6.6867430210113525
76, 8147, 8168, 8181, 8129, 8154, 8150, 8123, 8167, 8131, 8128, 8087, 8154, 8149, 8120,6.702202081680298
77, 8148, 8172, 8122, 8155, 8155, 8153, 8134, 8157, 8123, 8133, 8090, 8144, 8147, 8117,6.702202081680298
78, 8150, 8170, 8189, 8153, 8151, 8165, 8121, 8162, 8095, 8119, 8071, 8138, 8127, 8109,6.717951536178589
79, 8138, 8158, 8137, 8152, 8150, 8166, 8117, 8165, 8086, 8117, 8057, 8129, 8120, 8106,6.717951536178589
80, 8141, 8156, 8134, 8155, 8151, 8161, 8127, 8162, 8088, 8118, 8051, 8119, 8122, 8113,6.733588218688965
81, 8157, 8169, 8198, 8162, 8154, 8178, 8139, 8171, 8103, 8129, 8050, 8128, 8125, 8123,6.733588218688965
82, 8147, 8151, 8135, 8175, 8159, 8177, 8150, 8161, 8133, 8155, 8047, 8120, 8130, 8122,6.7496795654296875
83, 8142, 8153, 8188, 8165, 8160, 8176, 8147, 8169, 8130, 8152, 8038, 8124, 8127, 8131,6.7496795654296875
84, 8142, 8159, 8151, 8163, 8164, 8182, 8149, 8177, 8136, 8149, 8049, 8125, 8135, 8143,6.76525092124939
85, 8125, 8133, 8132, 8147, 8151, 8170, 8133, 8162, 8142, 8143, 8042, 8112, 8132, 8127,6.780610799789429
86, 8121, 8132, 8185, 8124, 8132, 8162, 8127, 8167, 8138, 8139, 8028, 8119, 8123, 8120,6.780610799789429
87, 8137, 8140, 8123, 8136, 8132, 8153, 8140, 8165, 8159, 8157, 8056, 8129, 8144, 8141,6.796615123748779
88, 8153, 8146, 8181, 8134, 8134, 8150, 8126, 8163, 8168, 8152, 8075, 8146, 8169, 8154,6.796615123748779
89, 8151, 8153, 8156, 8136, 8143, 8156, 8129, 8170, 8174, 8154, 8074, 8151, 8187, 8150,6.796615123748779
90, 8156, 8157, 8140, 8145, 8152, 8158, 8145, 8170, 8192, 8171, 8078, 8153, 8191, 8149,6.811943531036377
91, 8171, 8164, 8214, 8144, 8148, 8165, 8140, 8177, 8205, 8174, 8087, 8171, 8187, 8158,6.811943531036377
92, 8166, 8154, 8137, 8151, 8142, 8149, 8134, 8166, 8202, 8171, 8093, 8159, 8192, 8149,6.827089548110962
93, 8165, 8167, 8175, 8150, 8143, 8137, 8121, 8162, 8177, 8149, 8089, 8164, 8191, 8137,6.827089548110962
94, 8172, 8181, 8179, 8154, 8154, 8147, 8119, 8173, 8168, 8144, 8095, 8178, 8191, 8136,6.843810558319092
95, 8170, 8164, 8144, 8154, 8150, 8142, 8111, 8160, 8157, 8146, 8105, 8176, 8191, 8126,6.843810558319092
96, 8167, 8171, 8194, 8155, 8138, 8139, 8094, 8162, 8134, 8118, 8103, 8187, 8178, 8121,6.859822511672974
97, 8174, 8191, 8149, 8185, 8150, 8139, 8101, 8170, 8139, 8113, 8107, 8186, 8176, 8125,6.859822511672974
98, 8190, 8202, 8203, 8202, 8160, 8146, 8107, 8172, 8137, 8128, 8120, 8192, 8183, 8133,6.874209403991699
99, 8192, 8199, 8203, 8220, 8162, 8165, 8117, 8172, 8139, 8144, 8137, 8204, 8191, 8142,6.891127109527588
100, 8191, 8188, 8168, 8238, 8163, 8156, 8116, 8164, 8142, 8137, 8133, 8194, 8187, 8142,6.891127109527588
101, 8184, 8191, 8237, 8228, 8149, 8151, 8101, 8172, 8126, 8114, 8118, 8194, 8177, 8137,6.891127109527588
102, 8169, 8186, 8173, 8236, 8144, 8162, 8111, 8170, 8138, 8139, 8128, 8196, 8191, 8142,6.905811786651611
103, 8184, 8193, 8207, 8259, 8153, 8177, 8125, 8169, 8159, 8173, 8144, 8212, 8208, 8164,6.905811786651611
104, 8197, 8198, 8217, 8274, 8163, 8190, 8140, 8174, 8176, 8184, 8145, 8224, 8211, 8179,6.922844886779785
105, 8180, 8176, 8157, 8269, 8166, 8180, 8147, 8159, 8177, 8179, 8119, 8200, 8198, 8167,6.922844886779785
106, 8169, 8172, 8222, 8248, 8158, 8178, 8136, 8164, 8150, 8164, 8099, 8193, 8185, 8156,6.936945199966431
107, 8178, 8177, 8162, 8264, 8165, 8179, 8146, 8169, 8153, 8176, 8117, 8196, 8195, 8163,6.951668977737427
108, 8184, 8178, 8179, 8260, 8164, 8177, 8149, 8161, 8152, 8169, 8108, 8193, 8188, 8162,6.951668977737427
109, 8164, 8171, 8196, 8225, 8154, 8176, 8146, 8162, 8140, 8148, 8076, 8178, 8171, 8146,6.966760635375977
110, 8156, 8162, 8134, 8215, 8149, 8163, 8152, 8154, 8152, 8154, 8085, 8169, 8179, 8145,6.966760635375977
111, 8178, 8177, 8219, 8212, 8150, 8166, 8140, 8164, 8165, 8165, 8105, 8204, 8189, 8168,6.981847286224365
112, 8180, 8177, 8162, 8216, 8159, 8160, 8134, 8163, 8176, 8173, 8109, 8204, 8196, 8169,6.981847286224365
113, 8167, 8164, 8156, 8197, 8151, 8140, 8124, 8156, 8166, 8151, 8097, 8184, 8186, 8144,6.99796724319458
114, 8168, 8168, 8192, 8178, 8140, 8141, 8122, 8171, 8164, 8138, 8102, 8197, 8184, 8145,6.99796724319458
115, 8171, 8164, 8126, 8181, 8144, 8138, 8126, 8164, 8174, 8150, 8130, 8201, 8201, 8151,7.013605833053589
116, 8173, 8179, 8200, 8176, 8142, 8143, 8105, 8168, 8139, 8127, 8128, 8209, 8188, 8142,7.013605833053589
117, 8171, 8189, 8161, 8186, 8146, 8152, 8111, 8170, 8126, 8121, 8116, 8202, 8170, 8136,7.028727293014526
118, 8170, 8177, 8154, 8181, 8158, 8154, 8122, 8159, 8133, 8129, 8110, 8189, 8167, 8137,7.028727293014526
119, 8171, 8185, 8204, 8177, 8164, 8167, 8130, 8168, 8134, 8133, 8107, 8194, 8169, 8141,7.0442633628845215
120, 8167, 8191, 8136, 8199, 8167, 8159, 8141, 8165, 8141, 8144, 8108, 8185, 8159, 8141,7.0442633628845215
121, 8162, 8186, 8195, 8194, 8170, 8156, 8129, 8169, 8133, 8132, 8089, 8175, 8134, 8134,7.060053110122681
122, 8152, 8170, 8161, 8192, 8177, 8176, 8143, 8171, 8144, 8143, 8080, 8153, 8141, 8137,7.060053110122681
123, 8156, 8163, 8150, 8192, 8175, 8185, 8175, 8165, 8167, 8176, 8090, 8155, 8164, 8155,7.075560808181763
124, 8161, 8167, 8201, 8172, 8164, 8187, 8183, 8177, 8174, 8180, 8089, 8173, 8167, 8169,7.075560808181763
125, 8140, 8138, 8116, 8148, 8154, 8168, 8163, 8163, 8163, 8163, 8070, 8140, 8154, 8148,7.090703725814819
126, 8133, 8133, 8169, 8124, 8147, 8164, 8142, 8157, 8139, 8141, 8059, 8134, 8147, 8130,7.090703725814819
127, 8142, 8153, 8156, 8141, 8163, 8179, 8163, 8167, 8151, 8154, 8077, 8157, 8159, 8145,7.106790542602539
236, 8153, 8155, 8133, 8155, 8169, 8166, 8166, 8163, 8164, 8158, 8086, 8159, 8161, 8150,7.106790542602539
0, 8158, 8161, 8195, 8139, 8155, 8159, 8145, 8167, 8161, 8144, 8083, 8169, 8156, 8141,7.12288236618042
1, 8150, 8159, 8127, 8139, 8162, 8154, 8154, 8161, 8171, 8151, 8091, 8167, 8160, 8135,7.12288236618042
2, 8146, 8162, 8169, 8129, 8166, 8152, 8154, 8165, 8153, 8141, 8090, 8163, 8152, 8134,7.137920379638672
3, 8141, 8169, 8159, 8127, 8166, 8157, 8144, 8174, 8145, 8138, 8094, 8165, 8155, 8130,7.137920379638672
4, 8142, 8168, 8130, 8134, 8167, 8146, 8138, 8163, 8152, 8146, 8096, 8162, 8165, 8122,7.153843641281128
5, 8147, 8182, 8197, 8139, 8172, 8159, 8137, 8166, 8133, 8134, 8090, 8164, 8151, 8122,7.153843641281128
6, 8143, 8180, 8134, 8160, 8191, 8173, 8151, 8163, 8133, 8140, 8097, 8156, 8149, 8124,7.17120885848999
7, 8150, 8175, 8180, 8155, 8185, 8166, 8146, 8165, 8137, 8144, 8097, 8165, 8155, 8126,7.17120885848999
8, 8155, 8181, 8179, 8153, 8171, 8162, 8148, 8173, 8143, 8146, 8097, 8166, 8157, 8133,7.184736967086792
9, 8154, 8175, 8140, 8172, 8183, 8166, 8163, 8167, 8160, 8154, 8098, 8153, 8159, 8137,7.184736967086792
10, 8158, 8184, 8216, 8180, 8195, 8178, 8169, 8180, 8166, 8163, 8095, 8171, 8165, 8153,7.200697660446167
11, 8153, 8184, 8146, 8187, 8191, 8171, 8178, 8179, 8169, 8179, 8106, 8167, 8178, 8159,7.200697660446167
12, 8149, 8175, 8172, 8174, 8182, 8171, 8171, 8167, 8152, 8169, 8102, 8156, 8173, 8144,7.216085910797119
13, 8147, 8174, 8178, 8177, 8192, 8187, 8180, 8170, 8157, 8172, 8087, 8156, 8173, 8143,7.216085910797119
14, 8144, 8166, 8117, 8194, 8200, 8182, 8197, 8168, 8179, 8193, 8090, 8150, 8185, 8155,7.231615304946899
15, 8142, 8161, 8184, 8178, 8187, 8184, 8183, 8178, 8168, 8178, 8085, 8151, 8172, 8148,7.231615304946899
16, 8134, 8147, 8123, 8167, 8185, 8188, 8186, 8175, 8173, 8182, 8078, 8136, 8164, 8139,7.247148036956787
17, 8144, 8153, 8152, 8166, 8189, 8187, 8199, 8170, 8190, 8202, 8081, 8145, 8177, 8151,7.247148036956787
18, 8158, 8171, 8186, 8176, 8181, 8184, 8200, 8176, 8192, 8203, 8089, 8170, 8190, 8165,7.262720823287964
19, 8161, 8157, 8127, 8173, 8168, 8158, 8188, 8164, 8183, 8190, 8088, 8160, 8188, 8163,7.262720823287964
20, 8162, 8156, 8196, 8147, 8160, 8154, 8172, 8173, 8174, 8175, 8084, 8163, 8181, 8161,7.278113842010498
21, 8156, 8164, 8139, 8152, 8171, 8160, 8176, 8178, 8191, 8185, 8101, 8164, 8191, 8154,7.278113842010498
22, 8159, 8166, 8149, 8150, 8168, 8147, 8165, 8168, 8178, 8175, 8102, 8165, 8191, 8144,7.293783664703369
23, 8171, 8173, 8198, 8146, 8164, 8148, 8163, 8174, 8160, 8167, 8098, 8178, 8187, 8156,7.293783664703369
24, 8180, 8176, 8143, 8161, 8177, 8152, 8177, 8170, 8173, 8181, 8119, 8175, 8197, 8165,7.3098366260528564
25, 8176, 8188, 8202, 8151, 8180, 8161, 8164, 8174, 8172, 8168, 8125, 8180, 8189, 8155,7.3098366260528564
26, 8161, 8185, 8152, 8156, 8184, 8164, 8168, 8174, 8176, 8168, 8116, 8174, 8184, 8148,7.324865102767944
27, 8167, 8188, 8161, 8177, 8192, 8160, 8177, 8170, 8173, 8173, 8115, 8174, 8184, 8154,7.324865102767944
28, 8172, 8198, 8207, 8182, 8196, 8172, 8174, 8180, 8166, 8173, 8121, 8185, 8185, 8160,7.340991973876953
29, 8157, 8180, 8133, 8179, 8190, 8173, 8182, 8170, 8172, 8181, 8115, 8168, 8182, 8153,7.340991973876953
30, 8160, 8180, 8197, 8173, 8184, 8175, 8189, 8174, 8163, 8178, 8098, 8171, 8165, 8158,7.357244968414307
31, 8163, 8180, 8163, 8183, 8183, 8184, 8206, 8182, 8175, 8195, 8103, 8172, 8162, 8177,7.357244968414307
32, 8154, 8159, 8147, 8171, 8168, 8182, 8205, 8171, 8189, 8206, 8101, 8161, 8167, 8177,7.372795104980469
33, 8161, 8163, 8202, 8166, 8168, 8186, 8196, 8176, 8189, 8204, 8096, 8173, 8175, 8181,7.372795104980469
34, 8175, 8173, 8140, 8194, 8193, 8184, 8214, 8174, 8207, 8219, 8110, 8175, 8185, 8186,7.387928009033203
35, 8177, 8174, 8194, 8179, 8185, 8179, 8205, 8178, 8209, 8214, 8108, 8177, 8174, 8182,7.387928009033203
36, 8168, 8159, 8159, 8143, 8164, 8162, 8179, 8174, 8202, 8203, 8101, 8177, 8173, 8178,7.404329538345337
37, 8170, 8149, 8135, 8132, 8158, 8139, 8160, 8157, 8196, 8184, 8097, 8178, 8177, 8172,7.404329538345337
38, 8176, 8167, 8201, 8146, 8161, 8153, 8159, 8170, 8191, 8167, 8096, 8191, 8173, 8163,7.418562889099121
39, 8163, 8167, 8133, 8157, 8171, 8156, 8171, 8172, 8199, 8180, 8106, 8184, 8173, 8151,7.418562889099121
40, 8159, 8167, 8183, 8130, 8169, 8150, 8165, 8167, 8187, 8172, 8107, 8186, 8161, 8143,7.434717893600464
41, 8162, 8169, 8169, 8131, 8162, 8158, 8169, 8172, 8187, 8169, 8116, 8192, 8161, 8149,7.434717893600464
42, 8167, 8159, 8137, 8142, 8161, 8148, 8163, 8171, 8195, 8185, 8130, 8191, 8174, 8155,7.4514360427856445
43, 8171, 8169, 8199, 8126, 8164, 8150, 8140, 8179, 8187, 8186, 8130, 8201, 8179, 8154,7.4514360427856445
44, 8166, 8171, 8130, 8136, 8169, 8159, 8146, 8171, 8186, 8184, 8130, 8191, 8177, 8148,7.464393377304077
45, 8175, 8178, 8185, 8153, 8168, 8163, 8154, 8165, 8172, 8164, 8125, 8201, 8165, 8150,7.480956792831421
46, 8189, 8190, 8190, 8171, 8178, 8166, 8169, 8172, 8177, 8167, 8130, 8222, 8173, 8159,7.480956792831421
47, 8184, 8180, 8144, 8170, 8181, 8155, 8173, 8171, 8196, 8188, 8144, 8214, 8192, 8163,7.480956792831421
48, 8171, 8181, 8209, 8151, 8168, 8162, 8156, 8182, 8189, 8185, 8137, 8208, 8184, 8162,7.496623754501343
49, 8168, 8186, 8142, 8163, 8171, 8167, 8168, 8176, 8199, 8192, 8138, 8199, 8181, 8156,7.510778427124023
50, 8186, 8195, 8173, 8167, 8182, 8167, 8174, 8166, 8207, 8197, 8148, 8206, 8187, 8160,7.511767148971558
51, 8193, 8198, 8189, 8165, 8190, 8185, 8184, 8175, 8209, 8200, 8147, 8210, 8190, 8170,7.525949478149414
52, 8186, 8188, 8141, 8168, 8195, 8187, 8195, 8170, 8205, 8193, 8138, 8187, 8175, 8166,7.525949478149414
53, 8181, 8191, 8206, 8158, 8189, 8177, 8175, 8171, 8185, 8171, 8124, 8182, 8155, 8163,7.541682243347168
54, 8175, 8182, 8149, 8166, 8186, 8168, 8165, 8168, 8190, 8181, 8120, 8168, 8161, 8161,7.541682243347168
55, 8177, 8171, 8174, 8159, 8185, 8172, 8166, 8170, 8192, 8185, 8112, 8161, 8164, 8155,7.55876350402832
56, 8173, 8179, 8187, 8141, 8187, 8183, 8176, 8181, 8187, 8181, 8109, 8170, 8157, 8153,7.55876350402832
57, 8165, 8177, 8130, 8154, 8193, 8172, 8187, 8169, 8194, 8184, 8107, 8161, 8153, 8153,7.55876350402832
58, 8170, 8186, 8213, 8174, 8190, 8180, 8184, 8174, 8187, 8170, 8095, 8163, 8147, 8161,7.572885751724243
59, 8167, 8189, 8159, 8185, 8195, 8192, 8184, 8180, 8184, 8176, 8107, 8164, 8150, 8165,7.589163303375244
60, 8165, 8182, 8157, 8169, 8195, 8185, 8168, 8172, 8175, 8182, 8110, 8167, 8146, 8156,7.589163303375244
61, 8164, 8182, 8195, 8167, 8193, 8195, 8169, 8180, 8187, 8184, 8104, 8174, 8146, 8156,7.604839563369751
62, 8167, 8178, 8144, 8189, 8203, 8203, 8191, 8180, 8221, 8202, 8112, 8170, 8163, 8170,7.604839563369751
63, 8184, 8188, 8215, 8185, 8210, 8211, 8197, 8183, 8224, 8212, 8115, 8188, 8175, 8183,7.620291233062744
64, 8178, 8178, 8160, 8183, 8206, 8203, 8200, 8179, 8219, 8216, 8113, 8183, 8176, 8173,7.620291233062744
65, 8150, 8153, 8139, 8163, 8184, 8182, 8183, 8170, 8197, 8196, 8096, 8151, 8151, 8147,7.635908365249634
66, 8143, 8156, 8181, 8146, 8173, 8185, 8176, 8170, 8176, 8180, 8083, 8146, 8134, 8139,7.635908365249634
67, 8157, 8158, 8127, 8164, 8187, 8192, 8200, 8161, 8189, 8192, 8093, 8150, 8147, 8150,7.651958227157593
68, 8174, 8171, 8193, 8163, 8186, 8198, 8196, 8168, 8193, 8196, 8092, 8165, 8157, 8161,7.651958227157593
69, 8171, 8176, 8158, 8168, 8181, 8194, 8190, 8174, 8203, 8210, 8091, 8162, 8163, 8160,7.667007684707642
70, 8167, 8163, 8148, 8168, 8187, 8188, 8197, 8171, 8212, 8222, 8095, 8151, 8163, 8155,7.667007684707642
71, 8169, 8167, 8197, 8161, 8196, 8200, 8203, 8181, 8214, 8219, 8090, 8161, 8161, 8167,7.6826171875
72, 8174, 8170, 8136, 8174, 8200, 8195, 8213, 8169, 8226, 8218, 8093, 8160, 8173, 8179,7.6826171875
73, 8179, 8179, 8194, 8166, 8187, 8191, 8209, 8169, 8216, 8210, 8097, 8173, 8180, 8175,7.697903871536255
74, 8174, 8176, 8161, 8163, 8191, 8192, 8209, 8179, 8210, 8218, 8095, 8176, 8177, 8176,7.697903871536255
75, 8177, 8168, 8148, 8170, 8196, 8180, 8201, 8171, 8216, 8222, 8095, 8167, 8166, 8180,7.713946342468262
76, 8179, 8175, 8210, 8162, 8186, 8186, 8190, 8177, 8210, 8211, 8100, 8176, 8164, 8176,7.713946342468262
77, 8174, 8168, 8131, 8165, 8189, 8184, 8191, 8171, 8213, 8206, 8103, 8173, 8176, 8174,7.729095220565796
78, 8194, 8178, 8193, 8180, 8201, 8178, 8181, 8172, 8218, 8194, 8107, 8195, 8178, 8186,7.729095220565796
79, 8211, 8189, 8189, 8198, 8213, 8183, 8192, 8183, 8242, 8217, 8135, 8217, 8193, 8199,7.7446043491363525
80, 8196, 8173, 8142, 8186, 8206, 8170, 8190, 8173, 8242, 8226, 8132, 8199, 8196, 8186,7.7446043491363525
81, 8181, 8175, 8201, 8171, 8187, 8166, 8168, 8173, 8211, 8184, 8100, 8186, 8170, 8169,7.760535478591919
82, 8177, 8175, 8135, 8182, 8187, 8162, 8173, 8167, 8209, 8184, 8111, 8179, 8171, 8163,7.760535478591919
83, 8189, 8180, 8185, 8176, 8190, 8163, 8170, 8169, 8203, 8196, 8132, 8194, 8183, 8165,7.775623321533203
84, 8194, 8188, 8182, 8180, 8189, 8169, 8168, 8178, 8199, 8188, 8135, 8204, 8185, 8175,7.775623321533203
85, 8181, 8177, 8128, 8183, 8188, 8155, 8162, 8169, 8197, 8183, 8132, 8188, 8183, 8170,7.791626691818237
86, 8187, 8191, 8205, 8183, 8190, 8162, 8151, 8176, 8184, 8191, 8141, 8206, 8188, 8171,7.791626691818237
87, 8208, 8207, 8162, 8217, 8201, 8168, 8166, 8177, 8193, 8208, 8169, 8221, 8205, 8185,7.808149099349976
88, 8212, 8202, 8195, 8212, 8194, 8159, 8158, 8171, 8185, 8194, 8166, 8216, 8198, 8181,7.808149099349976
89, 8199, 8194, 8195, 8196, 8183, 8157, 8145, 8174, 8177, 8190, 8151, 8207, 8187, 8175,7.822769641876221
90, 8200, 8198, 8154, 8219, 8183, 8150, 8150, 8167, 8176, 8197, 8158, 8212, 8192, 8178,7.822769641876221
91, 8213, 8218, 8242, 8237, 8187, 8160, 8151, 8172, 8158, 8178, 8166, 8236, 8195, 8182,7.838859558105469
92, 8210, 8217, 8178, 8244, 8198, 8170, 8161, 8167, 8159, 8176, 8158, 8220, 8200, 8180,7.838859558105469
93, 8216, 8209, 8187, 8226, 8193, 8165, 8161, 8160, 8156, 8173, 8138, 8203, 8192, 8180,7.854957580566406
94, 8218, 8207, 8207, 8218, 8185, 8175, 8165, 8170, 8153, 8170, 8148, 8218, 8190, 8186,7.854957580566406
95, 8208, 8203, 8151, 8232, 8193, 8179, 8170, 8169, 8146, 8172, 8164, 8214, 8195, 8181,7.8705785274505615
96, 8207, 8216, 8221, 8225, 8194, 8182, 8161, 8176, 8126, 8162, 8139, 8202, 8185, 8173,7.8705785274505615
97, 8197, 8205, 8163, 8220, 8191, 8179, 8173, 8174, 8137, 8169, 8122, 8184, 8175, 8166,7.8857262134552
98, 8183, 8188, 8168, 8208, 8182, 8177, 8175, 8163, 8138, 8164, 8124, 8180, 8163, 8156,7.8857262134552
99, 8180, 8198, 8200, 8210, 8183, 8187, 8171, 8167, 8133, 8155, 8120, 8179, 8159, 8154,7.901313781738281
100, 8183, 8195, 8141, 8226, 8193, 8178, 8179, 8167, 8151, 8170, 8120, 8163, 8170, 8157,7.901313781738281
101, 8188, 8196, 8211, 8217, 8194, 8179, 8180, 8180, 8156, 8181, 8124, 8174, 8174, 8170,7.916831016540527
102, 8183, 8197, 8167, 8214, 8198, 8187, 8193, 8180, 8155, 8188, 8125, 8172, 8175, 8172,7.916831016540527
103, 8184, 8192, 8172, 8213, 8200, 8188, 8194, 8167, 8151, 8184, 8115, 8165, 8165, 8167,7.931980133056641
104, 8185, 8192, 8213, 8208, 8205, 8199, 8193, 8176, 8151, 8181, 8109, 8177, 8161, 8171,7.931980133056641
105, 8169, 8178, 8137, 8203, 8212, 8195, 8203, 8172, 8158, 8186, 8106, 8158, 8171, 8169,7.947582006454468
106, 8172, 8179, 8195, 8193, 8201, 8189, 8189, 8170, 8142, 8174, 8093, 8148, 8162, 8165,7.947582006454468
107, 8184, 8181, 8165, 8200, 8194, 8187, 8193, 8175, 8148, 8184, 8096, 8150, 8159, 8173,7.962635517120361
108, 8180, 8168, 8154, 8194, 8190, 8181, 8208, 8177, 8171, 8196, 8100, 8148, 8167, 8173,7.962635517120361
109, 8169, 8173, 8193, 8181, 8183, 8191, 8211, 8183, 8178, 8192, 8092, 8145, 8167, 8162,7.978718280792236
110, 8158, 8167, 8123, 8184, 8188, 8191, 8219, 8168, 8182, 8201, 8092, 8131, 8169, 8154,7.978718280792236
111, 8163, 8168, 8184, 8167, 8187, 8183, 8208, 8169, 8177, 8195, 8100, 8148, 8172, 8168,7.994831323623657
112, 8168, 8168, 8158, 8166, 8173, 8173, 8194, 8179, 8181, 8190, 8104, 8158, 8177, 8177,7.994831323623657
113, 8162, 8153, 8136, 8163, 8159, 8157, 8181, 8170, 8178, 8190, 8083, 8139, 8167, 8158,8.008981943130493
114, 8162, 8161, 8190, 8144, 8159, 8163, 8171, 8176, 8167, 8183, 8078, 8142, 8161, 8151,8.008981943130493
115, 8167, 8166, 8121, 8146, 8170, 8162, 8178, 8174, 8180, 8193, 8109, 8149, 8181, 8165,8.026065349578857
116, 8171, 8172, 8174, 8142, 8169, 8155, 8172, 8173, 8174, 8195, 8110, 8157, 8186, 8169,8.026065349578857
117, 8161, 8173, 8158, 8145, 8173, 8152, 8169, 8177, 8171, 8197, 8098, 8151, 8173, 8159,8.049621343612671
118, 8157, 8157, 8129, 8137, 8171, 8142, 8159, 8164, 8168, 8190, 8102, 8139, 8163, 8149,8.051124334335327
119, 8162, 8161, 8192, 8116, 8161, 8148, 8150, 8167, 8153, 8176, 8107, 8152, 8165, 8156,8.051124334335327
120, 8158, 8169, 8120, 8130, 8167, 8145, 8158, 8165, 8161, 8184, 8123, 8155, 8166, 8160,8.057696342468262
121, 8169, 8187, 8183, 8145, 8171, 8139, 8145, 8170, 8152, 8173, 8143, 8175, 8159, 8158,8.073228359222412
122, 8180, 8202, 8193, 8162, 8178, 8152, 8146, 8179, 8145, 8175, 8161, 8195, 8174, 8163,8.073228359222412
123, 8187, 8203, 8152, 8176, 8193, 8160, 8159, 8170, 8157, 8196, 8162, 8188, 8184, 8170,8.087664365768433
124, 8192, 8210, 8222, 8170, 8194, 8169, 8156, 8179, 8154, 8191, 8147, 8189, 8165, 8173,8.087664365768433
125, 8180, 8195, 8149, 8181, 8193, 8166, 8168, 8173, 8150, 8184, 8147, 8175, 8160, 8166,8.103116273880005
126, 8183, 8194, 8186, 8183, 8191, 8163, 8173, 8169, 8146, 8179, 8152, 8177, 8159, 8164,8.119608640670776
127, 8186, 8206, 8197, 8179, 8195, 8174, 8176, 8181, 8166, 8200, 8161, 8184, 8164, 8169,8.119608640670776
236, 8181, 8201, 8145, 8189, 8198, 8165, 8171, 8174, 8184, 8220, 8167, 8166, 8172, 8166,8.135702848434448
0, 8184, 8205, 8222, 8192, 8191, 8165, 8152, 8177, 8170, 8198, 8153, 8171, 8160, 8168,8.135702848434448
1, 8173, 8196, 8158, 8197, 8195, 8173, 8167, 8172, 8175, 8198, 8144, 8162, 8157, 8171,8.135702848434448
2, 8161, 8186, 8171, 8186, 8197, 8179, 8175, 8171, 8173, 8203, 8139, 8147, 8161, 8170,8.151163578033447
3, 8160, 8183, 8188, 8185, 8191, 8185, 8175, 8179, 8170, 8201, 8135, 8149, 8161, 8173,8.151163578033447
4, 8169, 8175, 8135, 8198, 8195, 8178, 8191, 8169, 8190, 8214, 8138, 8151, 8165, 8185,8.166711807250977
5, 8178, 8186, 8211, 8194, 8207, 8198, 8198, 8176, 8196, 8222, 8143, 8165, 8173, 8196,8.181658267974854
6, 8175, 8185, 8156, 8196, 8213, 8208, 8204, 8180, 8207, 8232, 8153, 8159, 8184, 8194,8.181658267974854
7, 8173, 8169, 8161, 8170, 8190, 8181, 8191, 8171, 8201, 8216, 8133, 8148, 8164, 8183,8.181658267974854
8, 8164, 8159, 8181, 8140, 8173, 8170, 8178, 8172, 8182, 8193, 8110, 8150, 8145, 8175,8.197837114334106
9, 8161, 8149, 8124, 8144, 8174, 8171, 8192, 8169, 8187, 8207, 8125, 8147, 8170, 8179,8.197837114334106
10, 8173, 8167, 8206, 8148, 8174, 8182, 8202, 8177, 8211, 8214, 8145, 8170, 8191, 8196,8.212923765182495
11, 8176, 8180, 8162, 8168, 8185, 8180, 8203, 8175, 8238, 8221, 8158, 8178, 8195, 8196,8.22721815109253
12, 8180, 8181, 8168, 8178, 8188, 8159, 8173, 8165, 8226, 8218, 8164, 8179, 8196, 8183,8.22721815109253
13, 8183, 8192, 8205, 8175, 8181, 8159, 8154, 8175, 8213, 8214, 8170, 8187, 8201, 8187,8.24309229850769
14, 8183, 8183, 8130, 8178, 8180, 8156, 8164, 8173, 8224, 8214, 8177, 8173, 8201, 8187,8.24309229850769
15, 8195, 8182, 8204, 8174, 8173, 8154, 8157, 8176, 8200, 8187, 8168, 8180, 8184, 8176,8.258753538131714
16, 8190, 8182, 8167, 8177, 8169, 8152, 8147, 8173, 8182, 8172, 8163, 8179, 8172, 8169,8.258753538131714
17, 8173, 8168, 8145, 8160, 8166, 8141, 8135, 8156, 8167, 8159, 8157, 8164, 8156, 8159,8.273898124694824
18, 8168, 8172, 8197, 8147, 8163, 8143, 8132, 8166, 8150, 8148, 8149, 8174, 8155, 8159,8.273898124694824
19, 8166, 8174, 8140, 8169, 8166, 8137, 8143, 8167, 8158, 8156, 8150, 8164, 8168, 8160,8.289122343063354
20, 8158, 8179, 8198, 8171, 8162, 8142, 8129, 8171, 8148, 8139, 8134, 8150, 8147, 8148,8.289122343063354
21, 8141, 8173, 8159, 8171, 8160, 8152, 8128, 8175, 8143, 8142, 8126, 8143, 8135, 8144,8.304624319076538
22, 8141, 8162, 8137, 8167, 8159, 8151, 8142, 8168, 8145, 8159, 8139, 8144, 8151, 8154,8.304624319076538
23, 8150, 8175, 8201, 8159, 8158, 8166, 8152, 8174, 8145, 8156, 8145, 8154, 8157, 8160,8.320133209228516
24, 8145, 8172, 8134, 8174, 8167, 8165, 8160, 8168, 8159, 8161, 8136, 8141, 8144, 8150,8.320133209228516
25, 8140, 8164, 8175, 8169, 8168, 8157, 8146, 8166, 8150, 8157, 8122, 8141, 8131, 8141,8.335677146911621
26, 8142, 8166, 8168, 8172, 8166, 8170, 8151, 8174, 8151, 8164, 8136, 8150, 8146, 8151,8.335677146911621
27, 8152, 8169, 8152, 8183, 8168, 8176, 8159, 8169, 8164, 8169, 8142, 8149, 8149, 8158,8.351434230804443
28, 8153, 8172, 8207, 8173, 8170, 8173, 8141, 8168, 8150, 8151, 8118, 8149, 8130, 8155,8.351434230804443
29, 8140, 8158, 8138, 8172, 8177, 8168, 8142, 8161, 8136, 8149, 8117, 8134, 8131, 8150,8.366664409637451
30, 8147, 8166, 8182, 8177, 8177, 8179, 8162, 8167, 8133, 8155, 8129, 8149, 8145, 8161,8.366664409637451
31, 8160, 8177, 8177, 8182, 8179, 8188, 8187, 8177, 8154, 8175, 8134, 8165, 8162, 8182,8.38319444656372
32, 8153, 8157, 8140, 8172, 8174, 8177, 8187, 8163, 8179, 8193, 8127, 8150, 8166, 8182,8.38319444656372
33, 8155, 8156, 8204, 8158, 8167, 8185, 8176, 8167, 8187, 8194, 8128, 8158, 8166, 8177,8.397610425949097
34, 8162, 8161, 8143, 8167, 8178, 8183, 8191, 8168, 8202, 8205, 8145, 8167, 8183, 8184,8.397610425949097
35, 8156, 8156, 8175, 8154, 8172, 8165, 8184, 8162, 8190, 8197, 8133, 8168, 8186, 8185,8.413086175918579
36, 8156, 8155, 8179, 8151, 8160, 8162, 8168, 8171, 8176, 8188, 8121, 8167, 8175, 8179,8.413086175918579
37, 8178, 8164, 8142, 8168, 8168, 8157, 8169, 8174, 8194, 8195, 8149, 8175, 8188, 8183,8.428629636764526
38, 8190, 8186, 8216, 8164, 8174, 8163, 8175, 8177, 8209, 8195, 8174, 8209, 8206, 8196,8.428629636764526
39, 8178, 8178, 8153, 8158, 8168, 8155, 8183, 8165, 8204, 8193, 8168, 8204, 8205, 8184,8.444703340530396
40, 8179, 8169, 8177, 8150, 8160, 8138, 8162, 8164, 8183, 8176, 8155, 8184, 8183, 8163,8.444703340530396
41, 8179, 8186, 8199, 8162, 8175, 8154, 8156, 8180, 8185, 8178, 8164, 8187, 8173, 8164,8.46070384979248
42, 8167, 8183, 8142, 8182, 8191, 8162, 8163, 8169, 8183, 8182, 8161, 8179, 8167, 8165,8.46070384979248
43, 8167, 8175, 8201, 8180, 8184, 8169, 8157, 8166, 8158, 8170, 8135, 8173, 8152, 8162,8.476746797561646
44, 8172, 8177, 8160, 8198, 8189, 8184, 8183, 8172, 8177, 8194, 8135, 8166, 8163, 8175,8.476746797561646
45, 8179, 8184, 8185, 8203, 8193, 8192, 8200, 8170, 8196, 8213, 8137, 8179, 8179, 8192,8.492227792739868
46, 8177, 8177, 8195, 8180, 8179, 8188, 8196, 8172, 8192, 8207, 8126, 8183, 8187, 8191,8.492227792739868
47, 8171, 8158, 8127, 8166, 8164, 8169, 8199, 8170, 8201, 8210, 8132, 8167, 8183, 8183,8.507797002792358
48, 8187, 8172, 8206, 8159, 8168, 8169, 8196, 8178, 8214, 8205, 8154, 8196, 8193, 8191,8.507797002792358
49, 8199, 8182, 8161, 8162, 8181, 8168, 8189, 8174, 8225, 8207, 8169, 8210, 8247, 8189,8.523843765258789
50, 8193, 8176, 8160, 8156, 8172, 8151, 8168, 8162, 8192, 8194, 8159, 8196, 8252, 8169,8.523843765258789
51, 8178, 8179, 8205, 8161, 8168, 8163, 8164, 8169, 8156, 8173, 8148, 8200, 8191, 8164,8.5393385887146
52, 8166, 8170, 8141, 8184, 8183, 8176, 8185, 8160, 8160, 8181, 8149, 8186, 8168, 8169,8.5393385887146
53, 8169, 8171, 8205, 8181, 8184, 8181, 8190, 8164, 8160, 8181, 8131, 8170, 8172, 8171,8.554919481277466
54, 8163, 8165, 8159, 8178, 8180, 8187, 8202, 8173, 8176, 8196, 8120, 8159, 8162, 8176,8.554919481277466
55, 8162, 8153, 8150, 8166, 8176, 8187, 8207, 8170, 8199, 8215, 8122, 8164, 8164, 8179,8.570725202560425
56, 8178, 8167, 8211, 8156, 8172, 8182, 8197, 8175, 8200, 8212, 8123, 8184, 8184, 8185,8.570725202560425
57, 8186, 8169, 8137, 8166, 8174, 8160, 8191, 8161, 8197, 8199, 8131, 8181, 8185, 8182,8.5858895778656
58, 8189, 8174, 8198, 8148, 8169, 8153, 8174, 8165, 8181, 8176, 8133, 8192, 8169, 8174,8.5858895778656
59, 8183, 8178, 8171, 8145, 8171, 8157, 8177, 8174, 8178, 8179, 8135, 8193, 8171, 8164,8.60157823562622
60, 8176, 8171, 8145, 8157, 8175, 8154, 8175, 8162, 8169, 8171, 8125, 8175, 8165, 8149,8.60157823562622
61, 8169, 8178, 8202, 8160, 8173, 8171, 8170, 8172, 8157, 8155, 8108, 8175, 8145, 8150,8.616774320602417
62, 8156, 8165, 8126, 8173, 8182, 8179, 8197, 8173, 8179, 8187, 8107, 8159, 8154, 8160,8.616774320602417
63, 8149, 8148, 8176, 8154, 8173, 8178, 8199, 8167, 8176, 8194, 8090, 8152, 8159, 8162,8.632181406021118
64, 8148, 8146, 8163, 8139, 8155, 8171, 8189, 8163, 8166, 8183, 8085, 8157, 8161, 8165,8.632181406021118
65, 8162, 8152, 8135, 8149, 8161, 8158, 8188, 8155, 8177, 8191, 8109, 8172, 8180, 8177,8.648947954177856
66, 8175, 8159, 8198, 8145, 8165, 8168, 8183, 8168, 8178, 8190, 8121, 8191, 8190, 8179,8.648947954177856
67, 8172, 8149, 8129, 8144, 8160, 8160, 8180, 8163, 8180, 8189, 8114, 8175, 8193, 8164,8.663610458374023
68, 8172, 8158, 8173, 8138, 8152, 8142, 8164, 8161, 8166, 8175, 8106, 8178, 8187, 8161,8.663610458374023
69, 8169, 8168, 8171, 8135, 8150, 8148, 8159, 8171, 8158, 8162, 8121, 8191, 8186, 8166,8.678902626037598
70, 8175, 8159, 8139, 8135, 8152, 8145, 8155, 8164, 8151, 8153, 8130, 8184, 8188, 8155,8.678902626037598
71, 8185, 8177, 8214, 8149, 8156, 8147, 8145, 8165, 8136, 8144, 8110, 8184, 8177, 8144,8.694959878921509
72, 8173, 8177, 8145, 8174, 8162, 8149, 8160, 8162, 8142, 8162, 8100, 8169, 8165, 8144,8.711193084716797
73, 8174, 8165, 8180, 8162, 8157, 8153, 8160, 8163, 8135, 8159, 8101, 8171, 8155, 8144,8.711193084716797
74, 8185, 8174, 8199, 8168, 8173, 8167, 8162, 8171, 8132, 8152, 8101, 8182, 8160, 8149,8.711193084716797
75, 8171, 8173, 8144, 8188, 8185, 8172, 8175, 8161, 8137, 8157, 8095, 8162, 8159, 8151,8.726106882095337
76, 8155, 8170, 8198, 8167, 8169, 8182, 8174, 8167, 8127, 8155, 8085, 8157, 8144, 8149,8.726106882095337
77, 8157, 8163, 8141, 8168, 8170, 8183, 8182, 8163, 8145, 8177, 8081, 8156, 8148, 8149,8.742887496948242
78, 8168, 8163, 8175, 8181, 8173, 8181, 8183, 8162, 8156, 8180, 8075, 8153, 8147, 8152,8.742887496948242
79, 8163, 8170, 8188, 8177, 8165, 8193, 8190, 8178, 8160, 8176, 8080, 8159, 8144, 8155,8.758944988250732
80, 8152, 8157, 8127, 8166, 8160, 8185, 8201, 8163, 8172, 8191, 8080, 8151, 8153, 8152,8.775376081466675
81, 8164, 8158, 8201, 8156, 8156, 8175, 8194, 8164, 8174, 8191, 8070, 8160, 8155, 8162,8.775376081466675
82, 8176, 8165, 8147, 8168, 8161, 8165, 8193, 8177, 8200, 8196, 8095, 8171, 8166, 8175,8.775376081466675
83, 8178, 8170, 8156, 8159, 8160, 8158, 8181, 8172, 8211, 8193, 8111, 8179, 8175, 8179,8.789034605026245
84, 8172, 8171, 8182, 8149, 8155, 8163, 8177, 8170, 8196, 8178, 8099, 8184, 8176, 8178,8.789034605026245
85, 8164, 8153, 8115, 8145, 8148, 8145, 8176, 8166, 8176, 8153, 8094, 8169, 8162, 8158,8.805542469024658
86, 8170, 8163, 8187, 8130, 8142, 8144, 8159, 8172, 8158, 8125, 8091, 8181, 8145, 8141,8.805542469024658
87, 8183, 8187, 8152, 8164, 8162, 8164, 8172, 8173, 8175, 8144, 8110, 8189, 8162, 8151,8.82163691520691
88, 8189, 8194, 8157, 8188, 8175, 8162, 8177, 8173, 8180, 8161, 8130, 8190, 8167, 8153,8.82163691520691
89, 8180, 8192, 8191, 8162, 8167, 8156, 8166, 8184, 8166, 8153, 8123, 8195, 8152, 8147,8.836787939071655
90, 8166, 8179, 8125, 8151, 8162, 8149, 8169, 8172, 8168, 8154, 8125, 8185, 8160, 8145,8.836787939071655
91, 8174, 8190, 8195, 8159, 8169, 8159, 8169, 8168, 8164, 8154, 8130, 8194, 8169, 8150,8.853058099746704
92, 8183, 8200, 8167, 8188, 8183, 8166, 8184, 8172, 8173, 8170, 8132, 8199, 8168, 8159,8.853058099746704
93, 8181, 8192, 8161, 8194, 8179, 8163, 8187, 8171, 8173, 8171, 8121, 8188, 8158, 8163,8.867643356323242
94, 8174, 8191, 8203, 8181, 8175, 8180, 8184, 8177, 8168, 8170, 8110, 8182, 8158, 8169,8.867643356323242
95, 8170, 8179, 8134, 8192, 8185, 8190, 8207, 8169, 8181, 8188, 8109, 8170, 8165, 8173,8.884167671203613
96, 8170, 8177, 8199, 8189, 8185, 8194, 8203, 8171, 8166, 8168, 8094, 8175, 8154, 8165,8.900079488754272
97, 8162, 8170, 8164, 8185, 8180, 8189, 8193, 8174, 8162, 8159, 8082, 8165, 8150, 8156,8.900079488754272
98, 8170, 8160, 8136, 8185, 8174, 8177, 8201, 8169, 8185, 8183, 8090, 8154, 8155, 8163,8.900079488754272
99, 8180, 8175, 8200, 8185, 8169, 8183, 8212, 8182, 8202, 8197, 8110, 8183, 8167, 8183,8.915599346160889
100, 8173, 8174, 8140, 8185, 8175, 8172, 8213, 8172, 8211, 8191, 8122, 8191, 8182, 8186,8.915599346160889
101, 8180, 8175, 8189, 8169, 8174, 8164, 8194, 8169, 8207, 8171, 8112, 8195, 8180, 8183,8.930767297744751
102, 8184, 8184, 8169, 8170, 8170, 8169, 8191, 8181, 8221, 8183, 8128, 8208, 8190, 8190,8.930767297744751
103, 8184, 8184, 8145, 8170, 8165, 8156, 8186, 8170, 8229, 8201, 8154, 8214, 8202, 8191,8.947983503341675
104, 8191, 8193, 8211, 8163, 8163, 8154, 8174, 8172, 8215, 8183, 8150, 8225, 8194, 8193,8.947983503341675
105, 8187, 8188, 8142, 8166, 8171, 8153, 8176, 8172, 8209, 8172, 8139, 8216, 8188, 8181,8.960113763809204
106, 8184, 8195, 8189, 8160, 8169, 8148, 8166, 8174, 8193, 8166, 8134, 8216, 8181, 8164,8.975715398788452
107, 8179, 8204, 8186, 8175, 8170, 8159, 8166, 8178, 8182, 8166, 8138, 8209, 8175, 8160,8.975715398788452
108, 8160, 8181, 8145, 8179, 8170, 8161, 8165, 8167, 8174, 8158, 8127, 8181, 8166, 8145,8.991202354431152
109, 8149, 8175, 8205, 8160, 8160, 8169, 8163, 8172, 8164, 8149, 8107, 8176, 8152, 8143,8.991202354431152
