COUNTER,F3,FC5,AF3,F7,T7,P7,O1,O2,P8,T8,F8,AF4,FC6,F4,Timestamp
6, 8196, 8190, 8145, 8175, 8177, 8172, 8145, 8176, 8163, 8170, 8183, 8221, 8175, 8147,0.04166245460510254
7, 8189, 8183, 8206, 8166, 8176, 8169, 8139, 8183, 8146, 8151, 8174, 8227, 8165, 8139,0.057074546813964844
8, 8184, 8186, 8171, 8174, 8192, 8184, 8151, 8183, 8145, 8150, 8176, 8220, 8165, 8146,0.057074546813964844
9, 8185, 8192, 8176, 8181, 8198, 8190, 8154, 8175, 8141, 8160, 8174, 8217, 8162, 8155,0.0730137825012207
10, 8177, 8195, 8209, 8191, 8190, 8192, 8160, 8180, 8133, 8163, 8164, 8223, 8152, 8152,0.0730137825012207
11, 8176, 8183, 8145, 8212, 8193, 8194, 8183, 8178, 8145, 8176, 8170, 8209, 8159, 8147,0.08869218826293945
12, 8187, 8192, 8208, 8199, 8198, 8207, 8173, 8184, 8141, 8174, 8175, 8222, 8169, 8158,0.08869218826293945
13, 8178, 8192, 8172, 8191, 8200, 8207, 8170, 8184, 8151, 8188, 8184, 8230, 8182, 8173,0.10383248329162598
14, 8177, 8176, 8157, 8194, 8192, 8201, 8190, 8182, 8185, 8217, 8187, 8227, 8202, 8180,0.10383248329162598
15, 8184, 8183, 8201, 8185, 8191, 8208, 8192, 8192, 8204, 8222, 8178, 8230, 8218, 8177,0.1193397045135498
16, 8175, 8174, 8131, 8174, 8196, 8186, 8173, 8180, 8203, 8205, 8171, 8210, 8212, 8158,0.1193397045135498
17, 8184, 8172, 8189, 8164, 8186, 8174, 8157, 8175, 8191, 8184, 8168, 8226, 8202, 8161,0.13498544692993164
18, 8199, 8186, 8175, 8182, 8190, 8187, 8175, 8183, 8208, 8201, 8190, 8253, 8221, 8182,0.13498544692993164
19, 8196, 8183, 8153, 8172, 8187, 8172, 8168, 8183, 8208, 8203, 8202, 8246, 8214, 8171,0.1506364345550537
20, 8182, 8180, 8199, 8153, 8168, 8159, 8139, 8183, 8171, 8160, 8182, 8231, 8175, 8140,0.1506364345550537
21, 8179, 8192, 8148, 8198, 8180, 8175, 8165, 8177, 8183, 8165, 8182, 8220, 8183, 8142,0.16590571403503418
22, 8197, 8214, 8220, 8229, 8208, 8211, 8206, 8187, 8221, 8206, 8197, 8236, 8202, 8171,0.16590571403503418
23, 8192, 8199, 8191, 8217, 8212, 8225, 8216, 8192, 8231, 8219, 8178, 8218, 8189, 8165,0.18100690841674805
24, 8170, 8171, 8143, 8207, 8193, 8201, 8201, 8178, 8211, 8195, 8161, 8190, 8179, 8144,0.18100690841674805
25, 8181, 8187, 8220, 8217, 8189, 8198, 8204, 8181, 8213, 8192, 8190, 8225, 8199, 8169,0.19690942764282227
26, 8207, 8198, 8173, 8226, 8202, 8198, 8212, 8181, 8231, 8219, 8224, 8256, 8226, 8189,0.19690942764282227
27, 8225, 8208, 8216, 8223, 8198, 8176, 8174, 8177, 8199, 8194, 8225, 8274, 8225, 8179,0.2131049633026123
28, 8230, 8224, 8215, 8244, 8196, 8166, 8159, 8177, 8179, 8170, 8232, 8287, 8220, 8179,0.2131049633026123
29, 8229, 8219, 8180, 8249, 8197, 8166, 8163, 8172, 8178, 8172, 8229, 8281, 8212, 8180,0.22905731201171875
30, 8220, 8220, 8246, 8237, 8194, 8174, 8156, 8181, 8154, 8157, 8209, 8279, 8196, 8170,0.22905731201171875
31, 8213, 8223, 8185, 8264, 8204, 8180, 8175, 8181, 8163, 8164, 8222, 8262, 8200, 8167,0.24394774436950684
32, 8219, 8214, 8206, 8261, 8203, 8186, 8180, 8176, 8178, 8177, 8223, 8256, 8198, 8171,0.24394774436950684
33, 8204, 8198, 8200, 8235, 8189, 8185, 8176, 8178, 8168, 8183, 8193, 8250, 8186, 8170,0.25927066802978516
34, 8195, 8181, 8157, 8242, 8189, 8176, 8196, 8178, 8169, 8188, 8183, 8237, 8192, 8174,0.25927066802978516
35, 8206, 8183, 8224, 8240, 8192, 8199, 8217, 8186, 8182, 8190, 8190, 8241, 8200, 8182,0.275193452835083
36, 8190, 8173, 8157, 8224, 8193, 8207, 8226, 8179, 8197, 8205, 8194, 8226, 8197, 8172,0.275193452835083
37, 8177, 8170, 8178, 8209, 8193, 8187, 8208, 8173, 8196, 8201, 8184, 8219, 8189, 8162,0.29087305068969727
38, 8191, 8182, 8204, 8217, 8196, 8187, 8201, 8176, 8207, 8199, 8183, 8227, 8198, 8171,0.29087305068969727
39, 8196, 8170, 8143, 8212, 8194, 8190, 8205, 8171, 8226, 8216, 8190, 8219, 8205, 8180,0.3066389560699463
40, 8191, 8165, 8194, 8177, 8185, 8186, 8192, 8178, 8212, 8218, 8184, 8227, 8199, 8172,0.3066389560699463
41, 8185, 8167, 8151, 8185, 8185, 8170, 8190, 8173, 8200, 8215, 8196, 8224, 8212, 8157,0.32259559631347656
42, 8192, 8174, 8175, 8201, 8183, 8161, 8184, 8166, 8196, 8207, 8217, 8229, 8226, 8162,0.32259559631347656
43, 8193, 8178, 8195, 8188, 8188, 8178, 8193, 8179, 8212, 8216, 8214, 8234, 8223, 8171,0.33807945251464844
44, 8186, 8165, 8125, 8173, 8191, 8177, 8215, 8180, 8224, 8223, 8199, 8208, 8211, 8156,0.33807945251464844
45, 8183, 8179, 8191, 8171, 8184, 8178, 8205, 8182, 8211, 8200, 8190, 8210, 8194, 8146,0.3541278839111328
46, 8167, 8182, 8146, 8185, 8191, 8183, 8201, 8182, 8234, 8206, 8206, 8216, 8198, 8153,0.3541278839111328
47, 8160, 8166, 8147, 8171, 8199, 8166, 8183, 8175, 8232, 8213, 8215, 8212, 8201, 8153,0.3696262836456299
48, 8173, 8186, 8199, 8180, 8206, 8167, 8170, 8178, 8192, 8203, 8209, 8215, 8193, 8152,0.3696262836456299
49, 8178, 8197, 8142, 8219, 8212, 8176, 8195, 8170, 8173, 8191, 8183, 8201, 8177, 8147,0.3856699466705322
50, 8170, 8188, 8197, 8207, 8208, 8183, 8208, 8173, 8152, 8162, 8159, 8193, 8154, 8145,0.3856699466705322
51, 8164, 8180, 8160, 8202, 8212, 8191, 8216, 8179, 8159, 8172, 8179, 8187, 8168, 8153,0.4008903503417969
52, 8168, 8168, 8152, 8209, 8205, 8193, 8212, 8177, 8180, 8195, 8187, 8187, 8187, 8155,0.4008903503417969
53, 8157, 8155, 8195, 8198, 8188, 8197, 8193, 8182, 8178, 8191, 8159, 8189, 8167, 8142,0.4162933826446533
54, 8149, 8152, 8122, 8201, 8190, 8187, 8184, 8167, 8179, 8190, 8146, 8170, 8165, 8143,0.4162933826446533
55, 8168, 8171, 8180, 8196, 8190, 8180, 8178, 8166, 8174, 8182, 8150, 8182, 8183, 8163,0.43184661865234375
56, 8183, 8176, 8160, 8194, 8183, 8178, 8187, 8176, 8182, 8202, 8167, 8199, 8196, 8176,0.43184661865234375
57, 8187, 8170, 8139, 8194, 8182, 8173, 8194, 8175, 8197, 8229, 8175, 8208, 8199, 8182,0.44786643981933594
58, 8185, 8179, 8198, 8186, 8195, 8180, 8198, 8181, 8216, 8218, 8187, 8225, 8208, 8189,0.44786643981933594
59, 8178, 8171, 8136, 8183, 8200, 8164, 8193, 8179, 8230, 8198, 8203, 8210, 8213, 8178,0.4630465507507324
60, 8179, 8172, 8178, 8170, 8176, 8149, 8168, 8177, 8201, 8176, 8187, 8203, 8193, 8162,0.47855615615844727
61, 8179, 8184, 8167, 8174, 8175, 8160, 8168, 8173, 8186, 8184, 8180, 8210, 8191, 8164,0.47855615615844727
62, 8186, 8194, 8157, 8188, 8195, 8163, 8174, 8173, 8192, 8202, 8204, 8218, 8201, 8172,0.4939537048339844
63, 8190, 8204, 8221, 8196, 8193, 8177, 8174, 8189, 8188, 8197, 8202, 8228, 8189, 8175,0.4939537048339844
64, 8168, 8179, 8147, 8195, 8190, 8185, 8188, 8180, 8191, 8196, 8173, 8196, 8172, 8166,0.4939537048339844
65, 8149, 8155, 8172, 8166, 8186, 8182, 8183, 8166, 8180, 8193, 8147, 8174, 8163, 8154,0.5099904537200928
66, 8154, 8156, 8167, 8160, 8180, 8182, 8183, 8171, 8187, 8203, 8155, 8180, 8177, 8163,0.5099904537200928
67, 8180, 8162, 8146, 8162, 8182, 8171, 8185, 8175, 8216, 8216, 8186, 8195, 8203, 8181,0.5253489017486572
68, 8192, 8180, 8209, 8149, 8191, 8173, 8173, 8181, 8218, 8203, 8195, 8217, 8206, 8180,0.5420322418212891
69, 8171, 8183, 8140, 8158, 8202, 8177, 8177, 8173, 8204, 8186, 8177, 8197, 8182, 8153,0.5420322418212891
70, 8158, 8181, 8175, 8165, 8213, 8183, 8182, 8170, 8183, 8173, 8160, 8179, 8158, 8137,0.5420322418212891
71, 8148, 8176, 8178, 8169, 8213, 8192, 8185, 8176, 8174, 8177, 8147, 8165, 8149, 8131,0.557096004486084
72, 8132, 8142, 8117, 8156, 8186, 8192, 8191, 8172, 8174, 8175, 8119, 8134, 8132, 8120,0.557096004486084
73, 8139, 8139, 8186, 8133, 8169, 8201, 8204, 8180, 8188, 8184, 8125, 8151, 8138, 8143,0.5726509094238281
74, 8147, 8157, 8143, 8147, 8186, 8189, 8216, 8177, 8223, 8221, 8172, 8169, 8178, 8172,0.5726509094238281
75, 8149, 8162, 8166, 8142, 8186, 8164, 8184, 8174, 8214, 8204, 8173, 8170, 8178, 8160,0.5880990028381348
76, 8160, 8173, 8185, 8134, 8182, 8167, 8166, 8180, 8201, 8183, 8167, 8182, 8172, 8152,0.5880990028381348
77, 8185, 8184, 8146, 8157, 8196, 8161, 8181, 8172, 8208, 8206, 8196, 8199, 8196, 8171,0.6049585342407227
78, 8194, 8194, 8223, 8166, 8200, 8162, 8177, 8174, 8183, 8196, 8190, 8208, 8190, 8176,0.6049585342407227
79, 8162, 8170, 8154, 8162, 8191, 8173, 8178, 8171, 8165, 8185, 8155, 8168, 8163, 8154,0.6195602416992188
80, 8141, 8142, 8148, 8144, 8173, 8170, 8175, 8164, 8165, 8196, 8143, 8147, 8155, 8148,0.6195602416992188
81, 8148, 8146, 8188, 8135, 8169, 8169, 8173, 8168, 8177, 8211, 8155, 8169, 8167, 8158,0.634148120880127
82, 8160, 8152, 8135, 8140, 8175, 8161, 8176, 8162, 8193, 8215, 8163, 8177, 8175, 8156,0.634148120880127
83, 8172, 8169, 8192, 8135, 8171, 8156, 8157, 8170, 8186, 8202, 8167, 8192, 8173, 8153,0.6507778167724609
84, 8170, 8175, 8146, 8141, 8179, 8154, 8159, 8175, 8183, 8205, 8186, 8195, 8182, 8153,0.6507778167724609
85, 8161, 8164, 8152, 8124, 8177, 8151, 8172, 8165, 8174, 8197, 8187, 8191, 8176, 8148,0.6676294803619385
86, 8144, 8159, 8188, 8100, 8163, 8159, 8170, 8169, 8165, 8178, 8166, 8187, 8151, 8134,0.6686298847198486
87, 8130, 8153, 8119, 8118, 8171, 8160, 8168, 8173, 8171, 8178, 8156, 8162, 8137, 8118,0.6820542812347412
88, 8135, 8166, 8186, 8136, 8185, 8176, 8176, 8181, 8167, 8175, 8155, 8163, 8136, 8128,0.6969728469848633
89, 8139, 8173, 8156, 8146, 8190, 8191, 8198, 8183, 8181, 8186, 8161, 8165, 8144, 8143,0.6969728469848633
90, 8145, 8163, 8145, 8139, 8185, 8183, 8193, 8177, 8186, 8188, 8159, 8161, 8138, 8137,0.6969728469848633
91, 8145, 8161, 8199, 8139, 8182, 8190, 8189, 8179, 8179, 8184, 8146, 8170, 8130, 8143,0.7116422653198242
92, 8143, 8151, 8140, 8155, 8185, 8191, 8207, 8168, 8194, 8200, 8143, 8160, 8139, 8155,0.727571964263916
93, 8147, 8141, 8179, 8126, 8174, 8180, 8192, 8174, 8190, 8192, 8132, 8160, 8138, 8149,0.727571964263916
94, 8140, 8138, 8145, 8109, 8163, 8173, 8178, 8180, 8189, 8191, 8128, 8160, 8142, 8146,0.7440354824066162
95, 8151, 8153, 8146, 8129, 8163, 8170, 8175, 8164, 8188, 8199, 8146, 8169, 8156, 8164,0.7440354824066162
96, 8181, 8181, 8216, 8144, 8171, 8179, 8174, 8168, 8175, 8193, 8167, 8204, 8166, 8177,0.7440354824066162
97, 8185, 8167, 8144, 8148, 8175, 8171, 8173, 8170, 8181, 8190, 8174, 8203, 8172, 8166,0.7577860355377197
98, 8169, 8155, 8178, 8131, 8164, 8151, 8146, 8162, 8170, 8176, 8164, 8190, 8161, 8154,0.7729904651641846
99, 8163, 8166, 8165, 8128, 8165, 8147, 8144, 8160, 8156, 8170, 8170, 8193, 8153, 8149,0.7729904651641846
100, 8171, 8173, 8147, 8133, 8178, 8158, 8164, 8165, 8161, 8165, 8183, 8202, 8158, 8141,0.7890217304229736
101, 8180, 8186, 8210, 8139, 8185, 8179, 8176, 8181, 8179, 8163, 8191, 8215, 8164, 8144,0.7890217304229736
102, 8169, 8183, 8146, 8148, 8188, 8176, 8187, 8182, 8191, 8179, 8191, 8190, 8167, 8144,0.8051261901855469
103, 8153, 8178, 8181, 8139, 8182, 8176, 8183, 8181, 8170, 8173, 8171, 8175, 8152, 8141,0.8051261901855469
104, 8149, 8178, 8177, 8152, 8186, 8192, 8187, 8178, 8171, 8182, 8167, 8175, 8146, 8148,0.8208591938018799
105, 8152, 8170, 8140, 8172, 8191, 8187, 8184, 8168, 8180, 8197, 8169, 8163, 8155, 8153,0.8208591938018799
106, 8145, 8166, 8195, 8155, 8178, 8186, 8174, 8174, 8164, 8184, 8157, 8167, 8153, 8149,0.835900068283081
107, 8138, 8154, 8129, 8144, 8175, 8185, 8196, 8176, 8174, 8192, 8154, 8165, 8156, 8151,0.835900068283081
108, 8155, 8155, 8166, 8139, 8181, 8187, 8201, 8174, 8191, 8200, 8149, 8172, 8160, 8167,0.852424144744873
109, 8169, 8160, 8180, 8149, 8184, 8194, 8182, 8172, 8200, 8202, 8152, 8181, 8165, 8169,0.852424144744873
110, 8180, 8162, 8146, 8171, 8181, 8176, 8167, 8163, 8197, 8197, 8169, 8189, 8172, 8162,0.8672916889190674
111, 8191, 8183, 8217, 8172, 8177, 8168, 8151, 8168, 8180, 8178, 8180, 8211, 8176, 8168,0.8672916889190674
112, 8171, 8173, 8145, 8168, 8173, 8165, 8149, 8160, 8180, 8181, 8191, 8195, 8186, 8160,0.8829290866851807
113, 8160, 8153, 8155, 8149, 8163, 8157, 8134, 8155, 8159, 8167, 8191, 8189, 8183, 8137,0.8829290866851807
114, 8160, 8168, 8175, 8143, 8172, 8168, 8139, 8169, 8141, 8150, 8183, 8195, 8175, 8126,0.8986258506774902
115, 8140, 8168, 8117, 8150, 8181, 8172, 8167, 8166, 8150, 8158, 8176, 8169, 8167, 8119,0.8986258506774902
116, 8129, 8159, 8182, 8141, 8171, 8175, 8171, 8169, 8142, 8156, 8167, 8160, 8152, 8108,0.9135971069335938
117, 8137, 8161, 8146, 8158, 8179, 8192, 8188, 8175, 8151, 8164, 8175, 8159, 8159, 8114,0.9135971069335938
118, 8145, 8167, 8161, 8179, 8186, 8215, 8210, 8177, 8169, 8175, 8175, 8156, 8162, 8129,0.9287335872650146
119, 8142, 8168, 8186, 8177, 8180, 8225, 8220, 8180, 8173, 8184, 8166, 8159, 8155, 8138,0.9287335872650146
120, 8143, 8156, 8132, 8169, 8176, 8199, 8217, 8174, 8178, 8199, 8169, 8161, 8165, 8148,0.9439136981964111
121, 8157, 8153, 8198, 8153, 8164, 8186, 8201, 8181, 8186, 8208, 8176, 8180, 8179, 8167,0.9439136981964111
122, 8162, 8151, 8152, 8155, 8157, 8182, 8192, 8181, 8203, 8220, 8187, 8182, 8189, 8177,0.9593875408172607
123, 8168, 8155, 8152, 8142, 8153, 8162, 8158, 8168, 8193, 8208, 8185, 8185, 8184, 8171,0.9593875408172607
124, 8170, 8162, 8195, 8130, 8150, 8163, 8128, 8165, 8178, 8188, 8184, 8200, 8179, 8167,0.9750492572784424
125, 8172, 8155, 8139, 8148, 8159, 8160, 8122, 8157, 8175, 8188, 8199, 8197, 8187, 8162,0.9750492572784424
126, 8193, 8181, 8214, 8165, 8176, 8160, 8122, 8166, 8165, 8181, 8212, 8219, 8191, 8170,0.9906179904937744
127, 8200, 8197, 8186, 8184, 8192, 8172, 8147, 8178, 8180, 8191, 8229, 8229, 8193, 8177,0.9906179904937744
236, 8185, 8172, 8163, 8174, 8181, 8174, 8159, 8169, 8180, 8189, 8227, 8209, 8181, 8157,1.0069797039031982
0, 8168, 8165, 8196, 8161, 8168, 8173, 8161, 8171, 8164, 8173, 8201, 8192, 8161, 8135,1.0069797039031982
1, 8152, 8158, 8126, 8167, 8173, 8169, 8177, 8170, 8176, 8179, 8180, 8164, 8152, 8123,1.0216028690338135
2, 8145, 8147, 8175, 8142, 8171, 8179, 8179, 8172, 8168, 8173, 8159, 8155, 8139, 8117,1.0216028690338135
3, 8126, 8142, 8142, 8130, 8168, 8192, 8194, 8174, 8166, 8175, 8151, 8138, 8133, 8114,1.0389854907989502
4, 8116, 8139, 8125, 8137, 8169, 8188, 8204, 8175, 8181, 8183, 8151, 8133, 8142, 8119,1.0389854907989502
5, 8142, 8151, 8195, 8148, 8171, 8197, 8202, 8186, 8196, 8193, 8158, 8167, 8163, 8147,1.0529699325561523
6, 8169, 8158, 8146, 8161, 8173, 8190, 8206, 8176, 8228, 8219, 8179, 8182, 8190, 8174,1.0529699325561523
7, 8184, 8172, 8199, 8146, 8168, 8168, 8189, 8178, 8237, 8214, 8199, 8196, 8194, 8183,1.069019079208374
8, 8197, 8183, 8188, 8152, 8169, 8161, 8183, 8185, 8229, 8208, 8223, 8215, 8202, 8184,1.069019079208374
9, 8209, 8174, 8160, 8162, 8165, 8160, 8177, 8168, 8206, 8202, 8230, 8221, 8206, 8175,1.0848870277404785
10, 8192, 8168, 8209, 8133, 8152, 8160, 8154, 8166, 8168, 8174, 8214, 8218, 8185, 8160,1.0848870277404785
11, 8164, 8161, 8138, 8132, 8159, 8153, 8157, 8165, 8153, 8165, 8194, 8182, 8169, 8149,1.101008415222168
12, 8169, 8168, 8182, 8151, 8165, 8165, 8161, 8166, 8138, 8159, 8171, 8170, 8157, 8146,1.101008415222168
13, 8174, 8173, 8184, 8166, 8166, 8191, 8171, 8172, 8147, 8167, 8171, 8175, 8156, 8146,1.1166129112243652
14, 8163, 8158, 8139, 8166, 8167, 8192, 8192, 8171, 8176, 8191, 8175, 8162, 8162, 8158,1.1166129112243652
15, 8149, 8158, 8189, 8159, 8156, 8186, 8201, 8176, 8186, 8201, 8159, 8161, 8159, 8163,1.1328799724578857
16, 8139, 8149, 8124, 8159, 8144, 8178, 8205, 8174, 8201, 8208, 8160, 8150, 8170, 8149,1.1473257541656494
17, 8154, 8141, 8163, 8141, 8137, 8176, 8197, 8174, 8215, 8207, 8173, 8163, 8181, 8158,1.1473257541656494
18, 8164, 8146, 8170, 8126, 8135, 8173, 8187, 8172, 8214, 8204, 8173, 8178, 8175, 8169,1.1473257541656494
19, 8157, 8148, 8117, 8121, 8136, 8149, 8166, 8157, 8180, 8185, 8171, 8169, 8162, 8147,1.1639773845672607
20, 8161, 8168, 8192, 8125, 8150, 8147, 8154, 8170, 8154, 8162, 8171, 8178, 8155, 8128,1.1639773845672607
21, 8160, 8180, 8142, 8154, 8176, 8162, 8172, 8175, 8173, 8182, 8169, 8162, 8155, 8136,1.178131341934204
22, 8163, 8184, 8174, 8175, 8179, 8174, 8174, 8169, 8175, 8194, 8166, 8157, 8155, 8157,1.1791307926177979
23, 8176, 8189, 8205, 8189, 8179, 8191, 8179, 8172, 8181, 8203, 8177, 8176, 8173, 8169,1.1950409412384033
24, 8178, 8175, 8137, 8192, 8182, 8186, 8197, 8165, 8205, 8224, 8176, 8164, 8180, 8167,1.1950409412384033
25, 8169, 8165, 8186, 8168, 8166, 8182, 8193, 8171, 8198, 8221, 8153, 8154, 8163, 8165,1.210885763168335
26, 8158, 8148, 8135, 8147, 8147, 8171, 8189, 8170, 8195, 8213, 8147, 8146, 8161, 8158,1.210885763168335
27, 8161, 8140, 8145, 8117, 8137, 8148, 8180, 8161, 8185, 8188, 8132, 8143, 8150, 8143,1.226395606994629
28, 8153, 8152, 8173, 8107, 8143, 8149, 8173, 8165, 8165, 8162, 8109, 8142, 8130, 8129,1.2426574230194092
29, 8146, 8154, 8117, 8120, 8149, 8146, 8171, 8157, 8167, 8164, 8121, 8142, 8134, 8120,1.2426574230194092
30, 8162, 8170, 8184, 8112, 8144, 8145, 8157, 8164, 8165, 8160, 8145, 8167, 8146, 8128,1.2426574230194092
31, 8169, 8180, 8155, 8128, 8156, 8151, 8164, 8171, 8169, 8158, 8156, 8170, 8157, 8135,1.258216142654419
32, 8170, 8178, 8170, 8146, 8169, 8146, 8163, 8169, 8162, 8158, 8157, 8173, 8152, 8127,1.2715446949005127
33, 8170, 8190, 8204, 8149, 8166, 8155, 8158, 8178, 8158, 8165, 8166, 8192, 8148, 8140,1.2715446949005127
34, 8162, 8179, 8134, 8161, 8163, 8157, 8173, 8167, 8168, 8179, 8174, 8176, 8152, 8155,1.2865703105926514
35, 8147, 8167, 8189, 8150, 8159, 8163, 8175, 8167, 8159, 8169, 8151, 8162, 8138, 8141,1.2865703105926514
36, 8131, 8163, 8149, 8155, 8162, 8176, 8185, 8173, 8164, 8175, 8135, 8154, 8128, 8129,1.3026800155639648
37, 8143, 8158, 8145, 8160, 8162, 8173, 8194, 8163, 8170, 8188, 8140, 8157, 8135, 8139,1.3026800155639648
38, 8170, 8165, 8209, 8154, 8161, 8175, 8193, 8165, 8177, 8200, 8157, 8185, 8158, 8164,1.3178839683532715
39, 8181, 8167, 8145, 8162, 8167, 8168, 8185, 8165, 8200, 8213, 8174, 8191, 8177, 8173,1.3178839683532715
40, 8175, 8169, 8187, 8157, 8160, 8164, 8166, 8168, 8193, 8190, 8160, 8194, 8164, 8161,1.3330862522125244
41, 8162, 8167, 8155, 8150, 8153, 8161, 8172, 8168, 8191, 8187, 8159, 8188, 8166, 8153,1.3330862522125244
42, 8160, 8161, 8135, 8144, 8148, 8149, 8170, 8163, 8194, 8198, 8178, 8185, 8178, 8146,1.348703384399414
43, 8172, 8176, 8195, 8143, 8149, 8155, 8159, 8166, 8178, 8179, 8183, 8201, 8170, 8142,1.348703384399414
44, 8174, 8182, 8140, 8161, 8165, 8154, 8163, 8161, 8163, 8170, 8179, 8197, 8168, 8140,1.3638029098510742
45, 8176, 8195, 8192, 8169, 8168, 8159, 8150, 8164, 8146, 8167, 8184, 8202, 8166, 8139,1.3638029098510742
46, 8177, 8207, 8175, 8185, 8171, 8176, 8155, 8166, 8151, 8178, 8190, 8199, 8159, 8141,1.379478931427002
47, 8171, 8190, 8150, 8192, 8176, 8172, 8171, 8160, 8159, 8185, 8174, 8179, 8156, 8138,1.379478931427002
48, 8160, 8180, 8209, 8187, 8182, 8173, 8173, 8170, 8154, 8185, 8163, 8175, 8162, 8141,1.3946113586425781
49, 8140, 8164, 8133, 8185, 8184, 8178, 8179, 8167, 8171, 8203, 8166, 8160, 8169, 8147,1.3946113586425781
50, 8135, 8153, 8162, 8161, 8160, 8180, 8176, 8163, 8181, 8204, 8152, 8157, 8162, 8150,1.4106659889221191
51, 8147, 8153, 8159, 8157, 8148, 8180, 8184, 8168, 8194, 8207, 8154, 8164, 8176, 8155,1.4106659889221191
52, 8161, 8152, 8127, 8161, 8159, 8172, 8191, 8169, 8209, 8210, 8171, 8168, 8189, 8169,1.425947666168213
53, 8152, 8156, 8185, 8141, 8151, 8164, 8168, 8180, 8194, 8187, 8162, 8177, 8176, 8172,1.425947666168213
54, 8137, 8157, 8122, 8144, 8146, 8151, 8162, 8173, 8188, 8184, 8161, 8162, 8174, 8149,1.4416215419769287
55, 8153, 8176, 8169, 8154, 8156, 8149, 8157, 8165, 8178, 8180, 8174, 8170, 8172, 8139,1.4416215419769287
56, 8160, 8192, 8182, 8168, 8160, 8154, 8147, 8162, 8161, 8166, 8173, 8185, 8157, 8131,1.456827163696289
57, 8152, 8181, 8127, 8186, 8162, 8150, 8147, 8153, 8154, 8156, 8162, 8170, 8151, 8119,1.456827163696289
58, 8153, 8185, 8200, 8191, 8178, 8170, 8152, 8166, 8155, 8154, 8158, 8173, 8154, 8133,1.4729828834533691
59, 8143, 8180, 8149, 8194, 8191, 8180, 8158, 8168, 8168, 8169, 8167, 8163, 8157, 8141,1.4729828834533691
60, 8144, 8169, 8162, 8189, 8180, 8176, 8149, 8163, 8160, 8173, 8158, 8153, 8148, 8131,1.4883503913879395
61, 8153, 8173, 8181, 8197, 8182, 8190, 8161, 8171, 8170, 8191, 8154, 8162, 8157, 8144,1.4883503913879395
62, 8151, 8167, 8134, 8201, 8184, 8184, 8175, 8164, 8196, 8216, 8165, 8164, 8175, 8161,1.5039393901824951
63, 8148, 8168, 8195, 8182, 8164, 8168, 8157, 8168, 8186, 8198, 8160, 8169, 8167, 8156,1.5039393901824951
64, 8142, 8163, 8137, 8178, 8154, 8157, 8153, 8168, 8183, 8192, 8152, 8156, 8163, 8149,1.5200424194335938
65, 8147, 8159, 8149, 8161, 8158, 8155, 8150, 8161, 8174, 8193, 8154, 8162, 8172, 8147,1.5200424194335938
66, 8153, 8174, 8184, 8149, 8170, 8163, 8154, 8165, 8169, 8187, 8174, 8184, 8179, 8148,1.536034345626831
67, 8161, 8180, 8133, 8169, 8181, 8156, 8159, 8164, 8183, 8185, 8194, 8184, 8186, 8147,1.536034345626831
68, 8174, 8188, 8204, 8175, 8179, 8156, 8147, 8175, 8173, 8177, 8196, 8197, 8190, 8151,1.5509483814239502
69, 8176, 8192, 8169, 8178, 8185, 8160, 8155, 8175, 8163, 8186, 8203, 8199, 8192, 8154,1.5509483814239502
70, 8179, 8196, 8173, 8173, 8189, 8158, 8161, 8164, 8161, 8188, 8211, 8201, 8194, 8159,1.5666136741638184
71, 8178, 8205, 8205, 8171, 8189, 8175, 8166, 8173, 8165, 8184, 8206, 8206, 8195, 8162,1.5666136741638184
72, 8165, 8190, 8138, 8186, 8196, 8183, 8178, 8175, 8171, 8184, 8190, 8178, 8183, 8152,1.5818252563476562
73, 8157, 8180, 8193, 8177, 8191, 8187, 8178, 8172, 8157, 8166, 8168, 8163, 8159, 8141,1.5818252563476562
74, 8138, 8167, 8149, 8166, 8184, 8188, 8180, 8164, 8151, 8160, 8167, 8142, 8151, 8130,1.5979535579681396
75, 8121, 8153, 8141, 8160, 8182, 8183, 8176, 8163, 8153, 8167, 8164, 8128, 8143, 8127,1.5979535579681396
76, 8130, 8159, 8189, 8152, 8177, 8187, 8171, 8170, 8162, 8176, 8147, 8138, 8136, 8139,1.6129944324493408
77, 8143, 8152, 8119, 8149, 8162, 8168, 8158, 8157, 8177, 8177, 8142, 8131, 8147, 8138,1.6129944324493408
78, 8162, 8164, 8177, 8143, 8153, 8153, 8135, 8161, 8172, 8162, 8163, 8154, 8154, 8136,1.629012107849121
79, 8177, 8187, 8165, 8164, 8170, 8160, 8149, 8175, 8186, 8176, 8188, 8180, 8166, 8150,1.629012107849121
80, 8180, 8186, 8147, 8172, 8171, 8148, 8154, 8169, 8178, 8173, 8180, 8171, 8165, 8153,1.643913984298706
81, 8171, 8185, 8196, 8148, 8153, 8140, 8123, 8160, 8135, 8137, 8163, 8165, 8146, 8138,1.6593043804168701
82, 8165, 8181, 8137, 8145, 8156, 8142, 8121, 8152, 8134, 8138, 8171, 8159, 8142, 8132,1.6593043804168701
83, 8173, 8191, 8192, 8154, 8168, 8157, 8137, 8166, 8143, 8152, 8171, 8172, 8136, 8139,1.6593043804168701
84, 8161, 8197, 8171, 8179, 8177, 8181, 8150, 8176, 8142, 8160, 8157, 8161, 8127, 8131,1.6751964092254639
85, 8148, 8179, 8136, 8188, 8174, 8178, 8149, 8161, 8136, 8163, 8137, 8130, 8124, 8124,1.6751964092254639
86, 8158, 8174, 8203, 8181, 8165, 8180, 8148, 8167, 8142, 8169, 8135, 8145, 8131, 8144,1.6927616596221924
87, 8162, 8165, 8140, 8182, 8166, 8185, 8167, 8174, 8170, 8195, 8157, 8151, 8148, 8157,1.6927616596221924
88, 8162, 8158, 8168, 8155, 8160, 8176, 8160, 8172, 8175, 8190, 8150, 8147, 8145, 8150,1.7067880630493164
89, 8170, 8166, 8164, 8155, 8158, 8162, 8152, 8166, 8175, 8171, 8143, 8163, 8146, 8149,1.7067880630493164
90, 8172, 8168, 8137, 8158, 8155, 8152, 8147, 8160, 8158, 8151, 8160, 8173, 8145, 8141,1.7225513458251953
91, 8164, 8173, 8204, 8127, 8142, 8164, 8135, 8172, 8130, 8130, 8162, 8171, 8130, 8127,1.7225513458251953
92, 8161, 8173, 8143, 8143, 8150, 8164, 8158, 8177, 8151, 8155, 8172, 8160, 8143, 8134,1.7376887798309326
93, 8173, 8181, 8187, 8178, 8165, 8166, 8175, 8176, 8161, 8169, 8182, 8177, 8155, 8148,1.753899335861206
94, 8167, 8182, 8195, 8180, 8173, 8187, 8180, 8177, 8150, 8165, 8169, 8176, 8146, 8147,1.753899335861206
95, 8160, 8169, 8142, 8171, 8175, 8182, 8184, 8171, 8167, 8183, 8163, 8159, 8151, 8154,1.753899335861206
96, 8172, 8167, 8207, 8162, 8164, 8175, 8181, 8180, 8187, 8197, 8160, 8176, 8160, 8172,1.7692818641662598
97, 8168, 8153, 8144, 8151, 8155, 8172, 8190, 8173, 8200, 8195, 8143, 8162, 8152, 8164,1.7692818641662598
98, 8162, 8154, 8161, 8134, 8153, 8165, 8184, 8162, 8189, 8171, 8128, 8150, 8137, 8147,1.7835817337036133
99, 8163, 8167, 8179, 8141, 8157, 8161, 8171, 8173, 8173, 8152, 8143, 8163, 8135, 8138,1.800654649734497
100, 8167, 8163, 8130, 8153, 8150, 8150, 8161, 8168, 8158, 8142, 8162, 8170, 8134, 8129,1.800654649734497
101, 8177, 8181, 8205, 8158, 8146, 8158, 8151, 8165, 8137, 8132, 8165, 8189, 8129, 8133,1.8167502880096436
102, 8175, 8191, 8167, 8190, 8164, 8168, 8165, 8162, 8141, 8142, 8170, 8184, 8131, 8134,1.8167502880096436
103, 8169, 8176, 8179, 8191, 8168, 8168, 8166, 8162, 8137, 8137, 8158, 8172, 8121, 8127,1.8167502880096436
104, 8166, 8174, 8202, 8179, 8168, 8187, 8182, 8172, 8150, 8153, 8151, 8173, 8127, 8135,1.83194899559021
105, 8165, 8171, 8144, 8193, 8178, 8200, 8210, 8170, 8183, 8191, 8155, 8165, 8143, 8149,1.8461639881134033
106, 8161, 8164, 8203, 8177, 8167, 8201, 8191, 8174, 8169, 8172, 8142, 8161, 8128, 8144,1.8461639881134033
107, 8146, 8152, 8148, 8162, 8152, 8185, 8170, 8173, 8157, 8160, 8138, 8145, 8123, 8131,1.8618619441986084
108, 8148, 8138, 8143, 8151, 8150, 8167, 8171, 8167, 8175, 8181, 8137, 8143, 8133, 8134,1.862234354019165
109, 8153, 8146, 8186, 8143, 8157, 8178, 8183, 8173, 8198, 8193, 8138, 8159, 8139, 8153,1.877023458480835
110, 8149, 8144, 8128, 8146, 8156, 8178, 8193, 8167, 8208, 8196, 8150, 8152, 8144, 8155,1.877023458480835
111, 8148, 8139, 8181, 8122, 8142, 8173, 8185, 8169, 8188, 8184, 8138, 8154, 8141, 8140,1.8930261135101318
112, 8139, 8133, 8142, 8117, 8148, 8177, 8187, 8171, 8183, 8178, 8129, 8148, 8143, 8140,1.8930261135101318
113, 8134, 8136, 8144, 8118, 8157, 8171, 8183, 8168, 8190, 8177, 8144, 8153, 8152, 8152,1.908681869506836
114, 8138, 8151, 8188, 8107, 8150, 8166, 8177, 8171, 8193, 8184, 8154, 8175, 8155, 8144,1.908681869506836
115, 8129, 8144, 8114, 8116, 8154, 8157, 8176, 8161, 8190, 8179, 8141, 8158, 8144, 8122,1.923902988433838
116, 8131, 8151, 8174, 8122, 8158, 8155, 8154, 8163, 8173, 8146, 8130, 8159, 8131, 8129,1.923902988433838
117, 8148, 8166, 8157, 8135, 8154, 8156, 8153, 8167, 8178, 8154, 8154, 8178, 8153, 8141,1.939995527267456
118, 8164, 8170, 8145, 8147, 8152, 8148, 8157, 8161, 8175, 8171, 8176, 8188, 8167, 8129,1.939995527267456
119, 8167, 8182, 8202, 8155, 8154, 8156, 8148, 8173, 8157, 8157, 8167, 8198, 8148, 8127,1.9558966159820557
120, 8154, 8179, 8134, 8165, 8159, 8155, 8153, 8165, 8159, 8148, 8158, 8176, 8137, 8126,1.9558966159820557
121, 8156, 8184, 8186, 8172, 8157, 8155, 8152, 8159, 8145, 8136, 8156, 8176, 8134, 8112,1.9710092544555664
122, 8171, 8194, 8178, 8201, 8166, 8161, 8163, 8168, 8148, 8153, 8172, 8193, 8143, 8116,1.9710092544555664
123, 8174, 8187, 8152, 8204, 8171, 8157, 8163, 8164, 8160, 8170, 8175, 8191, 8146, 8129,1.9860594272613525
124, 8170, 8186, 8206, 8188, 8168, 8168, 8152, 8166, 8155, 8163, 8164, 8192, 8144, 8145,1.9860594272613525
125, 8176, 8181, 8143, 8209, 8180, 8180, 8170, 8168, 8170, 8183, 8176, 8194, 8162, 8163,2.00760817527771
126, 8193, 8183, 8195, 8217, 8188, 8198, 8183, 8174, 8174, 8193, 8173, 8208, 8167, 8169,2.0086097717285156
127, 8184, 8183, 8189, 8210, 8186, 8211, 8195, 8173, 8177, 8193, 8159, 8205, 8166, 8170,2.0086097717285156
236, 8173, 8169, 8141, 8200, 8181, 8193, 8203, 8167, 8189, 8198, 8159, 8190, 8168, 8174,2.0177054405212402
0, 8181, 8168, 8211, 8185, 8177, 8195, 8201, 8177, 8190, 8199, 8161, 8202, 8172, 8176,2.033306837081909
1, 8176, 8155, 8152, 8188, 8169, 8196, 8205, 8173, 8207, 8213, 8166, 8196, 8193, 8173,2.033306837081909
2, 8164, 8145, 8170, 8167, 8154, 8179, 8192, 8166, 8208, 8209, 8164, 8198, 8197, 8168,2.048983335494995
3, 8159, 8156, 8170, 8151, 8164, 8186, 8188, 8172, 8210, 8203, 8173, 8208, 8199, 8166,2.048983335494995
4, 8171, 8164, 8138, 8167, 8179, 8185, 8193, 8176, 8221, 8209, 8185, 8202, 8217, 8170,2.0649099349975586
5, 8181, 8163, 8209, 8167, 8161, 8170, 8179, 8179, 8202, 8199, 8174, 8210, 8211, 8174,2.0649099349975586
6, 8162, 8142, 8142, 8150, 8147, 8157, 8167, 8164, 8177, 8188, 8157, 8204, 8191, 8157,2.0800697803497314
7, 8152, 8144, 8161, 8133, 8150, 8154, 8153, 8155, 8163, 8161, 8154, 8209, 8185, 8147,2.0800697803497314
8, 8166, 8166, 8187, 8147, 8154, 8156, 8150, 8165, 8172, 8160, 8172, 8229, 8191, 8155,2.095560073852539
9, 8183, 8169, 8146, 8167, 8159, 8151, 8159, 8161, 8181, 8190, 8192, 8235, 8201, 8158,2.095560073852539
10, 8201, 8181, 8218, 8167, 8172, 8174, 8167, 8167, 8182, 8191, 8194, 8255, 8203, 8171,2.1109657287597656
11, 8197, 8182, 8160, 8178, 8180, 8180, 8178, 8170, 8194, 8180, 8197, 8250, 8201, 8172,2.1109657287597656
12, 8193, 8174, 8171, 8173, 8170, 8158, 8169, 8166, 8175, 8164, 8204, 8250, 8190, 8155,2.126310110092163
13, 8196, 8184, 8202, 8170, 8175, 8163, 8172, 8172, 8161, 8159, 8202, 8255, 8184, 8151,2.126310110092163
14, 8180, 8177, 8136, 8175, 8181, 8169, 8187, 8166, 8171, 8162, 8182, 8216, 8170, 8140,2.141615867614746
15, 8162, 8171, 8195, 8158, 8172, 8176, 8176, 8170, 8154, 8150, 8164, 8205, 8152, 8128,2.141615867614746
16, 8155, 8171, 8156, 8167, 8178, 8179, 8179, 8172, 8156, 8160, 8173, 8214, 8155, 8133,2.1577043533325195
17, 8157, 8168, 8158, 8180, 8180, 8177, 8195, 8167, 8172, 8168, 8164, 8206, 8148, 8137,2.1577043533325195
18, 8153, 8165, 8191, 8173, 8177, 8191, 8212, 8171, 8170, 8179, 8141, 8201, 8145, 8137,2.1728391647338867
19, 8150, 8147, 8124, 8162, 8178, 8187, 8221, 8172, 8170, 8194, 8141, 8206, 8156, 8143,2.1728391647338867
20, 8159, 8149, 8184, 8156, 8167, 8182, 8210, 8177, 8168, 8174, 8135, 8235, 8150, 8151,2.1881749629974365
21, 8169, 8162, 8160, 8179, 8166, 8183, 8216, 8171, 8178, 8177, 8138, 8248, 8152, 8152,2.1881749629974365
22, 8183, 8163, 8170, 8186, 8171, 8178, 8209, 8162, 8178, 8193, 8150, 8257, 8164, 8162,2.203951358795166
23, 8183, 8159, 8214, 8173, 8162, 8181, 8187, 8171, 8169, 8190, 8149, 8273, 8167, 8170,2.203951358795166
24, 8169, 8140, 8135, 8173, 8152, 8172, 8179, 8164, 8155, 8182, 8143, 8258, 8160, 8158,2.2199394702911377
25, 8175, 8142, 8197, 8163, 8139, 8158, 8158, 8162, 8123, 8157, 8142, 8271, 8160, 8158,2.2199394702911377
26, 8188, 8167, 8185, 8178, 8139, 8151, 8151, 8169, 8137, 8156, 8164, 8302, 8181, 8176,2.2360916137695312
27, 8199, 8178, 8168, 8196, 8153, 8148, 8155, 8170, 8165, 8175, 8181, 8318, 8195, 8184,2.2360916137695312
28, 8200, 8174, 8217, 8189, 8151, 8155, 8157, 8179, 8160, 8173, 8187, 8332, 8191, 8182,2.2516512870788574
29, 8192, 8169, 8152, 8197, 8152, 8149, 8168, 8170, 8155, 8167, 8187, 8317, 8187, 8178,2.2516512870788574
30, 8198, 8187, 8206, 8197, 8157, 8152, 8163, 8165, 8144, 8155, 8174, 8315, 8175, 8174,2.266751289367676
31, 8192, 8177, 8185, 8178, 8146, 8159, 8155, 8168, 8144, 8154, 8173, 8310, 8171, 8161,2.266751289367676
32, 8176, 8149, 8143, 8163, 8135, 8140, 8141, 8162, 8135, 8140, 8173, 8295, 8168, 8143,2.28190016746521
33, 8175, 8167, 8208, 8175, 8155, 8144, 8140, 8170, 8122, 8122, 8167, 8300, 8152, 8137,2.28190016746521
34, 8175, 8174, 8150, 8191, 8167, 8151, 8160, 8167, 8138, 8140, 8169, 8284, 8148, 8136,2.297549247741699
35, 8175, 8171, 8183, 8162, 8143, 8152, 8144, 8169, 8130, 8142, 8161, 8280, 8138, 8134,2.297549247741699
36, 8170, 8181, 8175, 8153, 8147, 8172, 8146, 8179, 8123, 8139, 8158, 8283, 8133, 8140,2.31373929977417
37, 8166, 8170, 8143, 8164, 8166, 8180, 8172, 8173, 8132, 8142, 8159, 8266, 8141, 8145,2.31373929977417
38, 8154, 8162, 8203, 8154, 8158, 8180, 8164, 8169, 8115, 8131, 8136, 8256, 8128, 8134,2.328775405883789
39, 8138, 8161, 8134, 8160, 8160, 8179, 8166, 8163, 8115, 8140, 8125, 8240, 8119, 8121,2.328775405883789
40, 8149, 8166, 8171, 8164, 8165, 8183, 8178, 8171, 8127, 8148, 8131, 8246, 8128, 8132,2.345576763153076
41, 8159, 8163, 8179, 8163, 8161, 8189, 8180, 8179, 8132, 8154, 8134, 8248, 8134, 8146,2.345576763153076
42, 8152, 8150, 8132, 8160, 8152, 8177, 8172, 8169, 8134, 8167, 8132, 8237, 8131, 8144,2.3596484661102295
43, 8152, 8157, 8201, 8144, 8138, 8177, 8171, 8176, 8143, 8176, 8131, 8247, 8131, 8147,2.3747477531433105
44, 8147, 8150, 8141, 8144, 8144, 8180, 8182, 8173, 8153, 8181, 8129, 8236, 8131, 8151,2.3747477531433105
45, 8150, 8153, 8164, 8151, 8160, 8182, 8176, 8166, 8128, 8164, 8118, 8237, 8118, 8148,2.3915934562683105
46, 8156, 8168, 8184, 8163, 8162, 8191, 8177, 8173, 8124, 8161, 8122, 8253, 8124, 8148,2.3915934562683105
47, 8153, 8149, 8132, 8155, 8147, 8181, 8174, 8168, 8146, 8177, 8131, 8245, 8138, 8154,2.407968044281006
48, 8156, 8145, 8199, 8128, 8135, 8181, 8161, 8171, 8148, 8179, 8137, 8262, 8136, 8164,2.407968044281006
49, 8165, 8164, 8156, 8143, 8143, 8179, 8170, 8169, 8174, 8192, 8165, 8278, 8157, 8175,2.407968044281006
50, 8186, 8175, 8179, 8149, 8142, 8164, 8166, 8166, 8195, 8190, 8179, 8291, 8179, 8184,2.421663522720337
51, 8186, 8171, 8194, 8136, 8131, 8165, 8154, 8175, 8187, 8171, 8173, 8296, 8174, 8177,2.437732458114624
52, 8167, 8156, 8122, 8126, 8128, 8161, 8149, 8168, 8173, 8156, 8164, 8274, 8150, 8154,2.437732458114624
53, 8165, 8160, 8193, 8098, 8133, 8162, 8138, 8164, 8160, 8138, 8142, 8268, 8127, 8142,2.454824924468994
54, 8169, 8169, 8159, 8114, 8151, 8159, 8144, 8165, 8169, 8147, 8148, 8267, 8139, 8139,2.454824924468994
55, 8172, 8177, 8163, 8153, 8160, 8149, 8142, 8170, 8162, 8148, 8171, 8268, 8150, 8135,2.454824924468994
56, 8171, 8190, 8192, 8163, 8170, 8166, 8142, 8171, 8150, 8145, 8167, 8265, 8138, 8133,2.470914363861084
57, 8164, 8188, 8129, 8169, 8186, 8172, 8164, 8161, 8162, 8164, 8157, 8241, 8137, 8129,2.486970901489258
58, 8162, 8194, 8203, 8173, 8180, 8166, 8161, 8171, 8156, 8163, 8162, 8245, 8140, 8135,2.486970901489258
59, 8156, 8187, 8165, 8183, 8172, 8159, 8159, 8172, 8149, 8161, 8168, 8242, 8137, 8142,2.486970901489258
60, 8154, 8171, 8148, 8177, 8167, 8162, 8159, 8161, 8141, 8157, 8148, 8227, 8130, 8136,2.50277042388916
61, 8151, 8185, 8198, 8184, 8176, 8179, 8163, 8173, 8143, 8159, 8142, 8234, 8135, 8138,2.50277042388916
62, 8145, 8189, 8137, 8208, 8190, 8179, 8169, 8169, 8167, 8179, 8161, 8233, 8146, 8144,2.5188753604888916
63, 8162, 8184, 8194, 8201, 8184, 8185, 8160, 8166, 8160, 8172, 8164, 8244, 8139, 8154,2.5188753604888916
64, 8172, 8179, 8171, 8201, 8179, 8196, 8182, 8173, 8158, 8179, 8160, 8241, 8142, 8169,2.534238815307617
65, 8162, 8162, 8152, 8188, 8174, 8186, 8194, 8172, 8172, 8194, 8148, 8227, 8140, 8168,2.534238815307617
66, 8158, 8152, 8187, 8156, 8161, 8187, 8177, 8171, 8168, 8177, 8128, 8220, 8127, 8152,2.547861099243164
67, 8157, 8149, 8113, 8150, 8162, 8192, 8188, 8166, 8173, 8176, 8126, 8203, 8134, 8150,2.564951181411743
68, 8158, 8160, 8173, 8147, 8166, 8192, 8202, 8173, 8179, 8185, 8136, 8218, 8150, 8168,2.564951181411743
69, 8149, 8159, 8157, 8142, 8163, 8180, 8197, 8174, 8186, 8189, 8142, 8219, 8152, 8166,2.5800933837890625
70, 8146, 8149, 8124, 8126, 8157, 8157, 8177, 8165, 8184, 8178, 8129, 8200, 8137, 8146,2.5800933837890625
71, 8151, 8163, 8181, 8110, 8157, 8164, 8170, 8177, 8188, 8169, 8128, 8220, 8133, 8152,2.5943198204040527
72, 8143, 8156, 8118, 8111, 8155, 8166, 8171, 8170, 8198, 8177, 8147, 8220, 8143, 8152,2.5943198204040527
73, 8133, 8149, 8157, 8098, 8140, 8152, 8145, 8164, 8167, 8155, 8131, 8207, 8125, 8128,2.609959125518799
74, 8129, 8163, 8150, 8101, 8150, 8158, 8145, 8171, 8147, 8141, 8120, 8209, 8111, 8113,2.609959125518799
75, 8142, 8168, 8125, 8124, 8172, 8173, 8164, 8163, 8143, 8148, 8144, 8211, 8113, 8123,2.6255929470062256
76, 8155, 8172, 8197, 8147, 8174, 8186, 8163, 8165, 8130, 8161, 8157, 8220, 8115, 8143,2.6255929470062256
77, 8151, 8164, 8142, 8166, 8177, 8180, 8160, 8168, 8147, 8195, 8156, 8215, 8130, 8161,2.6410813331604004
78, 8144, 8160, 8178, 8156, 8171, 8178, 8152, 8169, 8159, 8196, 8151, 8218, 8135, 8158,2.6410813331604004
79, 8145, 8162, 8175, 8153, 8163, 8192, 8175, 8173, 8169, 8192, 8149, 8214, 8132, 8150,2.656989812850952
80, 8156, 8152, 8126, 8153, 8165, 8188, 8199, 8172, 8190, 8205, 8142, 8201, 8139, 8156,2.656989812850952
81, 8155, 8153, 8186, 8124, 8165, 8186, 8188, 8171, 8189, 8199, 8130, 8211, 8137, 8159,2.672415018081665
82, 8140, 8151, 8124, 8114, 8165, 8176, 8185, 8161, 8184, 8193, 8141, 8208, 8136, 8149,2.672415018081665
83, 8155, 8157, 8157, 8119, 8166, 8161, 8174, 8166, 8177, 8186, 8167, 8225, 8147, 8150,2.6875808238983154
84, 8173, 8174, 8181, 8134, 8171, 8160, 8159, 8174, 8169, 8178, 8181, 8245, 8160, 8155,2.6875808238983154
85, 8165, 8168, 8127, 8148, 8172, 8152, 8149, 8159, 8156, 8161, 8171, 8232, 8149, 8143,2.702946186065674
86, 8167, 8169, 8191, 8131, 8168, 8156, 8137, 8165, 8151, 8144, 8162, 8234, 8132, 8136,2.702946186065674
87, 8168, 8172, 8144, 8134, 8178, 8163, 8148, 8174, 8185, 8162, 8169, 8226, 8139, 8135,2.718540668487549
88, 8156, 8174, 8160, 8156, 8180, 8171, 8160, 8171, 8192, 8168, 8160, 8214, 8137, 8135,2.718540668487549
89, 8140, 8170, 8184, 8174, 8179, 8185, 8171, 8173, 8179, 8166, 8144, 8205, 8125, 8131,2.7339906692504883
90, 8132, 8149, 8125, 8169, 8185, 8183, 8185, 8165, 8181, 8177, 8142, 8187, 8129, 8123,2.7339906692504883
91, 8139, 8152, 8184, 8146, 8178, 8184, 8186, 8169, 8170, 8170, 8137, 8200, 8132, 8134,2.7493464946746826
92, 8135, 8153, 8136, 8148, 8165, 8183, 8182, 8167, 8174, 8175, 8133, 8198, 8135, 8145,2.7493464946746826
93, 8136, 8149, 8144, 8143, 8161, 8174, 8166, 8161, 8185, 8188, 8134, 8195, 8138, 8140,2.765043258666992
94, 8149, 8161, 8185, 8135, 8167, 8173, 8155, 8174, 8198, 8200, 8155, 8217, 8153, 8142,2.765043258666992
95, 8153, 8156, 8127, 8139, 8162, 8153, 8147, 8166, 8198, 8195, 8173, 8218, 8163, 8144,2.781057119369507
96, 8151, 8159, 8189, 8127, 8145, 8141, 8122, 8163, 8165, 8157, 8159, 8219, 8143, 8136,2.781057119369507
97, 8146, 8169, 8159, 8140, 8152, 8154, 8124, 8168, 8155, 8149, 8163, 8216, 8141, 8131,2.7969679832458496
98, 8152, 8173, 8161, 8159, 8170, 8167, 8130, 8164, 8151, 8158, 8169, 8203, 8141, 8132,2.7969679832458496
99, 8155, 8174, 8204, 8166, 8177, 8186, 8139, 8167, 8151, 8165, 8148, 8193, 8127, 8134,2.8129634857177734
100, 8143, 8150, 8126, 8161, 8162, 8185, 8158, 8163, 8170, 8179, 8134, 8174, 8130, 8131,2.8129634857177734
101, 8146, 8147, 8175, 8131, 8136, 8176, 8151, 8168, 8169, 8168, 8141, 8185, 8137, 8137,2.827967405319214
102, 8151, 8154, 8149, 8129, 8150, 8176, 8153, 8173, 8172, 8165, 8160, 8196, 8151, 8146,2.827967405319214
103, 8153, 8151, 8138, 8129, 8166, 8165, 8151, 8169, 8170, 8165, 8165, 8195, 8157, 8134,2.84413743019104
104, 8159, 8173, 8199, 8120, 8159, 8165, 8144, 8173, 8163, 8158, 8165, 8203, 8149, 8123,2.84413743019104
105, 8154, 8178, 8135, 8138, 8165, 8167, 8153, 8164, 8167, 8162, 8170, 8185, 8140, 8121,2.8600258827209473
106, 8144, 8164, 8179, 8142, 8169, 8171, 8145, 8162, 8139, 8146, 8157, 8170, 8127, 8115,2.8600258827209473
107, 8131, 8155, 8161, 8144, 8162, 8181, 8152, 8165, 8129, 8154, 8146, 8158, 8129, 8115,2.8749446868896484
108, 8124, 8151, 8134, 8142, 8156, 8184, 8170, 8164, 8154, 8180, 8141, 8149, 8135, 8123,2.8749446868896484
109, 8127, 8151, 8186, 8121, 8155, 8186, 8166, 8172, 8170, 8184, 8136, 8160, 8137, 8132,2.89154314994812
110, 8135, 8142, 8119, 8119, 8150, 8163, 8156, 8161, 8177, 8187, 8146, 8158, 8152, 8137,2.89154314994812
111, 8147, 8151, 8166, 8119, 8141, 8145, 8135, 8157, 8163, 8173, 8163, 8175, 8157, 8138,2.907029628753662
112, 8143, 8171, 8171, 8134, 8152, 8152, 8121, 8167, 8152, 8163, 8181, 8183, 8148, 8127,2.907029628753662
113, 8146, 8176, 8143, 8159, 8168, 8159, 8128, 8162, 8144, 8167, 8179, 8171, 8138, 8122,2.922633647918701
114, 8154, 8177, 8204, 8165, 8171, 8181, 8146, 8162, 8142, 8173, 8160, 8173, 8137, 8139,2.922633647918701
115, 8141, 8165, 8135, 8161, 8176, 8188, 8161, 8160, 8169, 8199, 8162, 8157, 8149, 8150,2.9380388259887695
116, 8136, 8160, 8165, 8138, 8166, 8178, 8144, 8162, 8178, 8207, 8160, 8160, 8156, 8153,2.9380388259887695
117, 8151, 8167, 8173, 8140, 8161, 8175, 8143, 8164, 8175, 8203, 8164, 8179, 8172, 8158,2.953975200653076
118, 8167, 8168, 8145, 8156, 8169, 8162, 8149, 8160, 8164, 8192, 8180, 8182, 8184, 8152,2.953975200653076
119, 8165, 8182, 8218, 8143, 8164, 8157, 8122, 8171, 8128, 8158, 8175, 8188, 8163, 8136,2.970062255859375
120, 8141, 8172, 8145, 8145, 8156, 8154, 8108, 8164, 8111, 8143, 8152, 8156, 8137, 8115,2.970062255859375
121, 8122, 8147, 8157, 8146, 8152, 8158, 8107, 8156, 8099, 8136, 8123, 8125, 8113, 8106,2.985621929168701
122, 8112, 8140, 8166, 8137, 8147, 8172, 8116, 8158, 8094, 8141, 8113, 8121, 8109, 8114,2.985621929168701
123, 8099, 8130, 8106, 8125, 8139, 8164, 8119, 8143, 8103, 8145, 8107, 8113, 8115, 8113,3.0009725093841553
124, 8104, 8136, 8177, 8112, 8133, 8159, 8104, 8149, 8101, 8131, 8095, 8124, 8114, 8113,3.0009725093841553
125, 8124, 8148, 8138, 8130, 8145, 8159, 8110, 8161, 8119, 8147, 8134, 8140, 8142, 8125,3.0167269706726074
126, 8155, 8167, 8166, 8142, 8157, 8155, 8115, 8158, 8134, 8159, 8187, 8169, 8171, 8138,3.0167269706726074
127, 8166, 8182, 8194, 8146, 8156, 8159, 8114, 8157, 8130, 8159, 8192, 8182, 8169, 8140,3.031733274459839
236, 8152, 8172, 8131, 8154, 8157, 8155, 8114, 8158, 8128, 8168, 8180, 8159, 8159, 8130,3.0475449562072754
0, 8145, 8168, 8196, 8142, 8164, 8162, 8109, 8172, 8116, 8164, 8177, 8154, 8153, 8124,3.0475449562072754
1, 8134, 8157, 8147, 8150, 8167, 8169, 8122, 8171, 8125, 8169, 8171, 8136, 8145, 8120,3.0475449562072754
2, 8127, 8150, 8142, 8159, 8160, 8168, 8126, 8160, 8125, 8167, 8150, 8116, 8128, 8116,3.062603712081909
3, 8117, 8158, 8175, 8154, 8161, 8188, 8134, 8166, 8123, 8164, 8134, 8110, 8121, 8113,3.062603712081909
4, 8103, 8135, 8106, 8142, 8158, 8187, 8156, 8163, 8137, 8177, 8125, 8088, 8125, 8116,3.078680992126465
5, 8111, 8127, 8162, 8122, 8139, 8177, 8153, 8167, 8143, 8181, 8129, 8100, 8136, 8134,3.078680992126465
6, 8118, 8139, 8133, 8119, 8138, 8170, 8147, 8167, 8163, 8191, 8143, 8114, 8151, 8141,3.094191312789917
7, 8119, 8138, 8131, 8102, 8136, 8149, 8133, 8157, 8161, 8183, 8136, 8111, 8138, 8120,3.094191312789917
8, 8124, 8143, 8174, 8097, 8128, 8151, 8119, 8159, 8142, 8164, 8135, 8120, 8128, 8113,3.1100916862487793
9, 8137, 8152, 8121, 8129, 8140, 8156, 8125, 8157, 8146, 8161, 8161, 8127, 8148, 8120,3.1100916862487793
10, 8152, 8173, 8185, 8133, 8148, 8149, 8121, 8161, 8133, 8146, 8169, 8143, 8150, 8119,3.1257359981536865
11, 8137, 8174, 8155, 8124, 8150, 8147, 8126, 8160, 8117, 8140, 8156, 8129, 8130, 8107,3.1257359981536865
12, 8120, 8156, 8139, 8128, 8151, 8156, 8134, 8157, 8116, 8136, 8138, 8101, 8114, 8101,3.1409013271331787
13, 8124, 8161, 8193, 8142, 8153, 8173, 8130, 8172, 8124, 8135, 8129, 8105, 8110, 8109,3.1409013271331787
14, 8112, 8151, 8118, 8136, 8150, 8170, 8137, 8165, 8137, 8157, 8124, 8094, 8118, 8113,3.157019853591919
15, 8101, 8143, 8164, 8110, 8139, 8183, 8143, 8163, 8146, 8176, 8120, 8102, 8128, 8124,3.157019853591919
16, 8122, 8154, 8166, 8131, 8143, 8190, 8151, 8171, 8171, 8188, 8145, 8130, 8154, 8147,3.1735966205596924
17, 8153, 8161, 8154, 8146, 8143, 8157, 8135, 8162, 8163, 8169, 8168, 8150, 8168, 8151,3.1735966205596924
18, 8151, 8173, 8208, 8131, 8135, 8147, 8105, 8159, 8121, 8133, 8170, 8171, 8156, 8139,3.187767505645752
19, 8147, 8181, 8152, 8153, 8144, 8155, 8110, 8156, 8116, 8136, 8193, 8178, 8160, 8136,3.188767671585083
20, 8162, 8190, 8207, 8172, 8144, 8150, 8111, 8156, 8106, 8133, 8207, 8194, 8158, 8143,3.202446460723877
21, 8166, 8195, 8206, 8194, 8137, 8146, 8113, 8163, 8093, 8118, 8198, 8197, 8143, 8146,3.2034528255462646
22, 8174, 8199, 8177, 8231, 8142, 8155, 8121, 8162, 8092, 8115, 8202, 8192, 8148, 8148,3.2174313068389893
23, 8186, 8203, 8243, 8237, 8149, 8177, 8123, 8165, 8081, 8117, 8199, 8199, 8154, 8156,3.2326385974884033
24, 8169, 8181, 8178, 8233, 8149, 8175, 8134, 8157, 8080, 8130, 8177, 8180, 8152, 8161,3.2326385974884033
25, 8164, 8176, 8211, 8234, 8141, 8172, 8136, 8162, 8080, 8121, 8161, 8181, 8149, 8170,3.2487523555755615
26, 8172, 8185, 8211, 8240, 8139, 8184, 8150, 8168, 8096, 8121, 8172, 8190, 8158, 8170,3.2487523555755615
27, 8171, 8169, 8164, 8224, 8141, 8173, 8152, 8154, 8123, 8140, 8172, 8180, 8160, 8159,3.264702320098877
28, 8169, 8166, 8221, 8195, 8133, 8163, 8137, 8158, 8130, 8144, 8157, 8193, 8155, 8166,3.264702320098877
29, 8171, 8167, 8160, 8198, 8129, 8164, 8149, 8163, 8136, 8150, 8178, 8194, 8170, 8175,3.2798640727996826
30, 8178, 8166, 8184, 8195, 8125, 8157, 8137, 8160, 8123, 8135, 8187, 8189, 8172, 8163,3.2798640727996826
31, 8174, 8174, 8193, 8186, 8128, 8149, 8114, 8164, 8123, 8128, 8176, 8189, 8167, 8153,3.294996976852417
32, 8171, 8176, 8140, 8183, 8136, 8147, 8118, 8160, 8136, 8145, 8188, 8184, 8172, 8150,3.294996976852417
33, 8177, 8184, 8209, 8171, 8141, 8160, 8120, 8157, 8112, 8129, 8195, 8192, 8162, 8145,3.3106677532196045
34, 8164, 8183, 8162, 8180, 8153, 8158, 8122, 8152, 8090, 8112, 8176, 8179, 8147, 8138,3.3106677532196045
35, 8158, 8185, 8179, 8191, 8154, 8150, 8117, 8156, 8080, 8109, 8160, 8170, 8139, 8135,3.325890302658081
36, 8170, 8193, 8202, 8200, 8149, 8162, 8120, 8167, 8084, 8120, 8175, 8173, 8147, 8140,3.325890302658081
37, 8166, 8175, 8139, 8199, 8148, 8155, 8120, 8157, 8095, 8127, 8181, 8155, 8147, 8142,3.341554641723633
38, 8152, 8163, 8201, 8177, 8145, 8161, 8106, 8158, 8089, 8121, 8151, 8154, 8134, 8138,3.3419463634490967
39, 8145, 8158, 8158, 8184, 8154, 8184, 8124, 8157, 8106, 8148, 8143, 8149, 8143, 8142,3.356679916381836
40, 8154, 8158, 8163, 8190, 8160, 8180, 8139, 8156, 8123, 8162, 8154, 8149, 8155, 8160,3.356679916381836
41, 8162, 8167, 8195, 8185, 8157, 8182, 8146, 8172, 8138, 8166, 8163, 8162, 8162, 8172,3.371945381164551
42, 8155, 8153, 8121, 8171, 8152, 8181, 8156, 8166, 8153, 8181, 8158, 8148, 8162, 8160,3.371945381164551
43, 8152, 8139, 8179, 8131, 8140, 8175, 8138, 8161, 8137, 8163, 8132, 8136, 8141, 8148,3.3874194622039795
44, 8148, 8135, 8145, 8127, 8147, 8174, 8133, 8160, 8144, 8152, 8129, 8125, 8141, 8148,3.3874194622039795
45, 8157, 8147, 8144, 8142, 8155, 8164, 8139, 8158, 8155, 8153, 8141, 8139, 8154, 8155,3.4033396244049072
46, 8169, 8167, 8193, 8141, 8151, 8155, 8135, 8170, 8149, 8153, 8142, 8167, 8156, 8164,3.4033396244049072
47, 8161, 8159, 8127, 8137, 8151, 8138, 8124, 8164, 8146, 8149, 8150, 8158, 8158, 8153,3.419013738632202
48, 8158, 8166, 8192, 8126, 8146, 8142, 8108, 8159, 8125, 8125, 8161, 8167, 8155, 8141,3.419013738632202
49, 8166, 8179, 8172, 8140, 8153, 8156, 8122, 8157, 8121, 8131, 8167, 8173, 8155, 8148,3.4345896244049072
50, 8178, 8177, 8150, 8150, 8158, 8144, 8126, 8154, 8121, 8138, 8162, 8159, 8149, 8150,3.4345896244049072
51, 8173, 8183, 8203, 8136, 8155, 8151, 8118, 8171, 8111, 8122, 8156, 8155, 8138, 8138,3.4512178897857666
52, 8158, 8177, 8146, 8148, 8164, 8167, 8135, 8169, 8127, 8138, 8160, 8144, 8141, 8138,3.4512178897857666
53, 8166, 8177, 8203, 8171, 8172, 8182, 8147, 8168, 8138, 8159, 8159, 8153, 8149, 8161,3.4668538570404053
54, 8167, 8183, 8188, 8186, 8175, 8192, 8169, 8173, 8148, 8166, 8162, 8154, 8158, 8169,3.4668538570404053
55, 8155, 8170, 8148, 8172, 8172, 8190, 8179, 8166, 8153, 8166, 8154, 8129, 8155, 8151,3.4827218055725098
56, 8141, 8155, 8184, 8141, 8157, 8192, 8166, 8161, 8151, 8165, 8137, 8116, 8144, 8146,3.4827218055725098
57, 8129, 8144, 8126, 8144, 8150, 8183, 8167, 8158, 8157, 8170, 8132, 8105, 8140, 8150,3.4981417655944824
58, 8139, 8153, 8175, 8146, 8149, 8176, 8163, 8166, 8157, 8167, 8133, 8122, 8142, 8154,3.4981417655944824
59, 8153, 8162, 8165, 8142, 8152, 8176, 8157, 8168, 8173, 8182, 8153, 8137, 8160, 8157,3.5137407779693604
60, 8155, 8162, 8141, 8140, 8152, 8167, 8149, 8158, 8180, 8186, 8169, 8134, 8174, 8155,3.5137407779693604
61, 8161, 8179, 8208, 8141, 8158, 8170, 8143, 8165, 8161, 8170, 8165, 8149, 8169, 8160,3.528942823410034
62, 8163, 8173, 8136, 8147, 8157, 8158, 8143, 8162, 8151, 8164, 8160, 8141, 8161, 8155,3.528942823410034
63, 8154, 8161, 8164, 8126, 8134, 8143, 8124, 8160, 8133, 8137, 8147, 8123, 8141, 8134,3.544609308242798
64, 8143, 8168, 8169, 8131, 8136, 8157, 8130, 8169, 8134, 8132, 8148, 8123, 8142, 8124,3.544609308242798
65, 8149, 8176, 8133, 8158, 8163, 8160, 8153, 8165, 8137, 8151, 8166, 8129, 8158, 8131,3.560029983520508
66, 8164, 8191, 8206, 8162, 8175, 8161, 8149, 8170, 8125, 8150, 8166, 8142, 8157, 8142,3.560029983520508
67, 8159, 8185, 8149, 8181, 8179, 8170, 8148, 8169, 8144, 8172, 8169, 8122, 8159, 8149,3.5756146907806396
68, 8153, 8187, 8173, 8191, 8184, 8181, 8155, 8168, 8153, 8192, 8183, 8117, 8165, 8158,3.5756146907806396
69, 8160, 8204, 8188, 8195, 8196, 8192, 8171, 8175, 8155, 8197, 8194, 8136, 8176, 8172,3.5916945934295654
70, 8167, 8188, 8132, 8194, 8198, 8189, 8174, 8166, 8163, 8203, 8179, 8122, 8178, 8173,3.5916945934295654
71, 8158, 8168, 8196, 8170, 8182, 8195, 8166, 8171, 8157, 8198, 8148, 8106, 8165, 8168,3.6078121662139893
72, 8142, 8161, 8137, 8161, 8177, 8194, 8191, 8172, 8181, 8218, 8153, 8098, 8178, 8169,3.6078121662139893
73, 8155, 8161, 8148, 8148, 8171, 8183, 8196, 8167, 8205, 8235, 8168, 8118, 8199, 8176,3.6239190101623535
74, 8168, 8165, 8178, 8134, 8166, 8179, 8181, 8175, 8206, 8227, 8165, 8135, 8202, 8180,3.6239190101623535
75, 8164, 8164, 8125, 8140, 8170, 8164, 8182, 8169, 8205, 8212, 8167, 8120, 8201, 8173,3.6399424076080322
76, 8172, 8177, 8198, 8140, 8170, 8166, 8176, 8168, 8192, 8201, 8177, 8133, 8197, 8170,3.6399424076080322
77, 8177, 8175, 8160, 8149, 8177, 8175, 8182, 8166, 8190, 8208, 8190, 8139, 8203, 8174,3.655844211578369
78, 8191, 8177, 8170, 8150, 8181, 8168, 8185, 8167, 8190, 8200, 8200, 8141, 8209, 8177,3.655844211578369
79, 8199, 8200, 8206, 8157, 8186, 8176, 8187, 8174, 8187, 8198, 8207, 8153, 8205, 8178,3.67087459564209
80, 8180, 8193, 8139, 8171, 8195, 8175, 8191, 8163, 8179, 8204, 8195, 8128, 8186, 8164,3.67087459564209
81, 8166, 8181, 8199, 8151, 8185, 8173, 8179, 8167, 8166, 8182, 8165, 8116, 8173, 8154,3.686723232269287
82, 8162, 8178, 8163, 8150, 8179, 8179, 8191, 8174, 8183, 8195, 8164, 8112, 8187, 8160,3.686723232269287
83, 8159, 8173, 8153, 8157, 8187, 8174, 8196, 8166, 8177, 8205, 8163, 8101, 8176, 8155,3.701969623565674
84, 8143, 8170, 8182, 8147, 8190, 8177, 8191, 8169, 8149, 8183, 8149, 8100, 8153, 8149,3.7023603916168213
85, 8136, 8156, 8120, 8150, 8180, 8178, 8206, 8171, 8167, 8192, 8155, 8100, 8166, 8161,3.7180304527282715
86, 8157, 8163, 8195, 8149, 8168, 8192, 8214, 8176, 8187, 8213, 8158, 8115, 8181, 8178,3.7180304527282715
87, 8164, 8173, 8163, 8155, 8185, 8208, 8224, 8177, 8199, 8225, 8160, 8110, 8179, 8175,3.7335493564605713
88, 8151, 8162, 8133, 8153, 8194, 8197, 8222, 8169, 8194, 8208, 8160, 8098, 8167, 8164,3.7335493564605713
89, 8154, 8157, 8189, 8143, 8179, 8193, 8221, 8174, 8188, 8194, 8154, 8105, 8162, 8168,3.749579906463623
90, 8164, 8153, 8126, 8146, 8175, 8183, 8228, 8169, 8211, 8211, 8161, 8098, 8169, 8174,3.749579906463623
91, 8166, 8153, 8171, 8127, 8171, 8173, 8207, 8172, 8213, 8212, 8166, 8108, 8167, 8177,3.7651915550231934
92, 8162, 8150, 8156, 8122, 8164, 8171, 8200, 8174, 8213, 8214, 8171, 8112, 8172, 8180,3.7651915550231934
93, 8172, 8149, 8137, 8124, 8163, 8165, 8204, 8161, 8216, 8208, 8167, 8107, 8178, 8183,3.7808544635772705
94, 8176, 8164, 8192, 8122, 8170, 8166, 8188, 8164, 8201, 8188, 8156, 8123, 8174, 8188,3.7808544635772705
95, 8169, 8165, 8124, 8134, 8175, 8157, 8183, 8164, 8199, 8201, 8168, 8127, 8187, 8188,3.7965667247772217
96, 8187, 8175, 8179, 8130, 8172, 8150, 8179, 8167, 8193, 8202, 8187, 8145, 8196, 8189,3.7965667247772217
97, 8195, 8188, 8186, 8142, 8178, 8154, 8177, 8169, 8178, 8181, 8193, 8154, 8185, 8186,3.812035083770752
98, 8183, 8185, 8153, 8162, 8179, 8145, 8174, 8163, 8165, 8176, 8188, 8137, 8174, 8171,3.812035083770752
99, 8186, 8198, 8215, 8166, 8176, 8151, 8176, 8170, 8171, 8190, 8200, 8146, 8178, 8172,3.8268489837646484
100, 8195, 8197, 8159, 8166, 8183, 8160, 8190, 8168, 8189, 8205, 8214, 8151, 8194, 8183,3.8268489837646484
101, 8199, 8193, 8196, 8160, 8179, 8164, 8182, 8172, 8163, 8189, 8203, 8155, 8194, 8187,3.8429770469665527
102, 8195, 8202, 8200, 8188, 8183, 8176, 8188, 8178, 8157, 8195, 8206, 8153, 8195, 8190,3.8429770469665527
103, 8190, 8195, 8157, 8211, 8190, 8182, 8206, 8170, 8186, 8222, 8214, 8137, 8201, 8198,3.859029531478882
104, 8181, 8183, 8209, 8187, 8173, 8187, 8196, 8178, 8188, 8220, 8197, 8136, 8194, 8203,3.859029531478882
105, 8157, 8158, 8130, 8170, 8163, 8177, 8188, 8174, 8180, 8208, 8177, 8112, 8175, 8182,3.8746275901794434
106, 8147, 8149, 8151, 8151, 8160, 8169, 8185, 8161, 8164, 8186, 8162, 8090, 8158, 8164,3.8746275901794434
107, 8158, 8162, 8172, 8140, 8158, 8179, 8200, 8166, 8170, 8192, 8166, 8097, 8171, 8176,3.889641761779785
108, 8164, 8156, 8123, 8145, 8166, 8174, 8212, 8168, 8191, 8210, 8175, 8108, 8183, 8179,3.889641761779785
109, 8161, 8153, 8184, 8130, 8166, 8172, 8207, 8176, 8187, 8195, 8159, 8119, 8168, 8168,3.905747890472412
110, 8160, 8154, 8132, 8125, 8165, 8165, 8209, 8173, 8198, 8198, 8159, 8109, 8173, 8174,3.9216203689575195
111, 8174, 8161, 8160, 8123, 8167, 8150, 8179, 8162, 8187, 8200, 8175, 8124, 8181, 8184,3.9216203689575195
112, 8167, 8163, 8181, 8122, 8168, 8147, 8146, 8164, 8150, 8179, 8174, 8137, 8165, 8173,3.9216203689575195
113, 8162, 8156, 8116, 8124, 8167, 8141, 8154, 8164, 8149, 8178, 8180, 8123, 8174, 8165,3.9365787506103516
114, 8186, 8177, 8197, 8129, 8167, 8154, 8168, 8173, 8171, 8185, 8193, 8147, 8189, 8186,3.9365787506103516
115, 8183, 8184, 8160, 8154, 8176, 8171, 8193, 8171, 8190, 8190, 8199, 8146, 8175, 8188,3.954148054122925
116, 8162, 8170, 8159, 8149, 8173, 8168, 8197, 8173, 8171, 8180, 8186, 8114, 8206, 8165,3.954148054122925
117, 8166, 8172, 8198, 8143, 8174, 8172, 8196, 8186, 8159, 8183, 8184, 8116, 8288, 8167,3.9666860103607178
118, 8174, 8170, 8145, 8166, 8184, 8177, 8206, 8171, 8175, 8193, 8193, 8124, 8271, 8180,3.9818501472473145
119, 8166, 8170, 8206, 8170, 8185, 8194, 8200, 8171, 8163, 8176, 8167, 8119, 8161, 8174,3.9818501472473145
120, 8145, 8162, 8157, 8165, 8182, 8197, 8201, 8176, 8165, 8193, 8143, 8094, 8136, 8163,3.9989001750946045
121, 8148, 8147, 8146, 8147, 8167, 8179, 8195, 8166, 8178, 8210, 8147, 8093, 8166, 8169,3.9989001750946045
122, 8161, 8148, 8189, 8136, 8161, 8188, 8187, 8169, 8180, 8205, 8149, 8111, 8157, 8175,4.017979383468628
123, 8158, 8143, 8122, 8151, 8170, 8195, 8191, 8168, 8183, 8209, 8140, 8097, 8150, 8167,4.017979383468628
124, 8149, 8147, 8178, 8132, 8164, 8186, 8180, 8168, 8168, 8191, 8128, 8095, 8152, 8163,4.017979383468628
125, 8153, 8156, 8156, 8115, 8157, 8167, 8174, 8165, 8165, 8188, 8144, 8105, 8161, 8171,4.0288450717926025
126, 8183, 8163, 8152, 8127, 8163, 8148, 8161, 8159, 8160, 8187, 8169, 8121, 8169, 8182,4.044955015182495
127, 8192, 8176, 8202, 8137, 8163, 8152, 8142, 8169, 8139, 8169, 8186, 8140, 8166, 8178,4.044955015182495
236, 8168, 8169, 8134, 8139, 8163, 8148, 8142, 8164, 8128, 8153, 8185, 8126, 8161, 8155,4.062749624252319
0, 8162, 8169, 8188, 8140, 8171, 8157, 8144, 8165, 8128, 8143, 8161, 8118, 8145, 8144,4.062749624252319
1, 8163, 8171, 8170, 8171, 8188, 8183, 8163, 8170, 8162, 8177, 8163, 8109, 8148, 8155,4.062749624252319
2, 8154, 8154, 8143, 8180, 8188, 8183, 8172, 8164, 8165, 8202, 8157, 8092, 8151, 8163,4.076965093612671
3, 8148, 8148, 8190, 8157, 8170, 8178, 8169, 8171, 8145, 8186, 8134, 8094, 8142, 8163,4.095031023025513
4, 8156, 8144, 8123, 8158, 8169, 8178, 8184, 8172, 8180, 8201, 8158, 8096, 8170, 8172,4.095031023025513
5, 8183, 8158, 8184, 8166, 8177, 8180, 8183, 8173, 8202, 8224, 8184, 8123, 8200, 8194,4.095031023025513
6, 8196, 8172, 8178, 8178, 8181, 8170, 8178, 8168, 8186, 8213, 8185, 8142, 8202, 8200,4.108943939208984
7, 8197, 8172, 8140, 8180, 8170, 8150, 8169, 8159, 8162, 8181, 8199, 8140, 8193, 8182,4.123676538467407
8, 8208, 8187, 8216, 8178, 8169, 8161, 8155, 8170, 8140, 8164, 8211, 8157, 8188, 8181,4.123676538467407
9, 8200, 8180, 8162, 8202, 8196, 8173, 8166, 8167, 8140, 8181, 8202, 8142, 8185, 8184,4.1386878490448
10, 8184, 8173, 8192, 8210, 8196, 8175, 8167, 8164, 8136, 8182, 8187, 8124, 8179, 8174,4.1386878490448
11, 8183, 8178, 8189, 8215, 8179, 8185, 8178, 8174, 8149, 8183, 8184, 8125, 8184, 8178,4.153913259506226
12, 8189, 8163, 8147, 8211, 8186, 8186, 8196, 8170, 8175, 8205, 8181, 8121, 8196, 8197,4.153913259506226
13, 8201, 8168, 8222, 8187, 8191, 8181, 8191, 8171, 8184, 8216, 8187, 8146, 8208, 8214,4.170014381408691
14, 8206, 8186, 8165, 8191, 8184, 8157, 8179, 8165, 8179, 8206, 8204, 8157, 8216, 8211,4.170014381408691
15, 8202, 8182, 8187, 8184, 8181, 8142, 8156, 8163, 8152, 8177, 8207, 8154, 8209, 8190,4.185791254043579
16, 8197, 8177, 8200, 8170, 8192, 8165, 8160, 8176, 8158, 8189, 8216, 8159, 8212, 8184,4.185791254043579
17, 8194, 8188, 8149, 8177, 8187, 8164, 8171, 8172, 8162, 8200, 8217, 8144, 8198, 8177,4.201111555099487
18, 8185, 8198, 8205, 8172, 8167, 8153, 8151, 8164, 8121, 8155, 8185, 8123, 8153, 8154,4.201111555099487
19, 8168, 8180, 8149, 8176, 8174, 8163, 8156, 8162, 8119, 8147, 8174, 8103, 8142, 8141,4.216960668563843
20, 8166, 8173, 8162, 8175, 8183, 8179, 8175, 8170, 8141, 8170, 8180, 8113, 8158, 8156,4.216960668563843
21, 8160, 8181, 8179, 8172, 8180, 8190, 8192, 8179, 8152, 8185, 8169, 8114, 8159, 8170,4.233062267303467
22, 8158, 8172, 8133, 8179, 8182, 8187, 8206, 8171, 8164, 8203, 8160, 8091, 8158, 8167,4.233062267303467
23, 8171, 8176, 8198, 8180, 8188, 8202, 8206, 8173, 8167, 8211, 8173, 8103, 8164, 8173,4.24864935874939
24, 8160, 8173, 8150, 8188, 8196, 8214, 8212, 8174, 8176, 8219, 8179, 8102, 8168, 8183,4.24864935874939
25, 8152, 8160, 8157, 8172, 8188, 8198, 8206, 8173, 8185, 8217, 8163, 8095, 8165, 8181,4.263839960098267
26, 8161, 8159, 8180, 8145, 8171, 8182, 8197, 8178, 8194, 8215, 8162, 8100, 8161, 8171,4.263839960098267
27, 8158, 8144, 8118, 8132, 8163, 8163, 8188, 8165, 8198, 8212, 8154, 8089, 8146, 8160,4.2799248695373535
28, 8156, 8143, 8187, 8120, 8159, 8161, 8172, 8166, 8190, 8190, 8137, 8098, 8134, 8166,4.2799248695373535
29, 8155, 8145, 8145, 8125, 8160, 8161, 8174, 8168, 8198, 8192, 8147, 8099, 8152, 8173,4.29599404335022
30, 8149, 8135, 8132, 8111, 8150, 8151, 8162, 8162, 8191, 8188, 8141, 8085, 8154, 8159,4.29599404335022
31, 8153, 8145, 8176, 8106, 8148, 8159, 8158, 8168, 8176, 8180, 8141, 8095, 8146, 8154,4.311631202697754
32, 8163, 8149, 8121, 8124, 8163, 8160, 8175, 8164, 8186, 8193, 8175, 8103, 8173, 8161,4.311631202697754
33, 8161, 8155, 8180, 8111, 8165, 8162, 8164, 8170, 8176, 8177, 8179, 8110, 8199, 8155,4.3275980949401855
34, 8160, 8167, 8156, 8121, 8171, 8168, 8162, 8175, 8173, 8173, 8174, 8110, 8219, 8146,4.3275980949401855
35, 8183, 8181, 8156, 8147, 8183, 8165, 8170, 8164, 8180, 8186, 8194, 8126, 8236, 8159,4.342995882034302
36, 8191, 8190, 8209, 8149, 8186, 8169, 8165, 8167, 8176, 8180, 8202, 8145, 8239, 8172,4.342995882034302
37, 8173, 8173, 8137, 8150, 8186, 8159, 8167, 8168, 8170, 8176, 8189, 8120, 8231, 8160,4.3590545654296875
38, 8166, 8168, 8187, 8145, 8181, 8159, 8169, 8169, 8143, 8170, 8167, 8107, 8211, 8146,4.3590545654296875
39, 8163, 8172, 8168, 8161, 8186, 8180, 8188, 8172, 8145, 8177, 8157, 8099, 8209, 8149,4.375000476837158
40, 8172, 8167, 8145, 8170, 8194, 8190, 8209, 8173, 8171, 8189, 8159, 8089, 8217, 8164,4.375000476837158
41, 8181, 8167, 8201, 8155, 8196, 8199, 8217, 8182, 8181, 8200, 8166, 8100, 8217, 8175,4.391103267669678
42, 8162, 8151, 8130, 8155, 8194, 8194, 8219, 8176, 8187, 8210, 8161, 8086, 8220, 8167,4.391103267669678
43, 8150, 8146, 8172, 8145, 8184, 8181, 8201, 8172, 8174, 8194, 8138, 8083, 8212, 8162,4.40671706199646
44, 8152, 8147, 8160, 8133, 8177, 8178, 8196, 8167, 8177, 8196, 8143, 8094, 8215, 8173,4.40671706199646
45, 8156, 8138, 8125, 8124, 8170, 8176, 8201, 8158, 8191, 8204, 8162, 8092, 8224, 8166,4.421969652175903
46, 8163, 8148, 8186, 8114, 8172, 8182, 8202, 8173, 8190, 8184, 8150, 8096, 8215, 8150,4.421969652175903
47, 8160, 8147, 8115, 8110, 8177, 8170, 8207, 8170, 8189, 8176, 8142, 8084, 8203, 8141,4.437719345092773
48, 8156, 8142, 8152, 8091, 8164, 8157, 8183, 8162, 8175, 8157, 8136, 8085, 8186, 8135,4.437719345092773
49, 8158, 8150, 8163, 8102, 8167, 8165, 8171, 8170, 8181, 8148, 8134, 8092, 8188, 8136,4.4528868198394775
50, 8171, 8161, 8127, 8125, 8179, 8156, 8175, 8173, 8187, 8161, 8157, 8101, 8205, 8144,4.4528868198394775
51, 8177, 8183, 8205, 8125, 8174, 8150, 8163, 8177, 8160, 8162, 8179, 8127, 8204, 8154,4.468909025192261
52, 8160, 8183, 8149, 8136, 8180, 8151, 8168, 8165, 8153, 8161, 8178, 8109, 8199, 8147,4.468909025192261
53, 8155, 8174, 8169, 8137, 8189, 8155, 8173, 8161, 8145, 8141, 8155, 8090, 8189, 8140,4.484553575515747
54, 8156, 8171, 8178, 8138, 8188, 8174, 8181, 8170, 8146, 8142, 8145, 8089, 8185, 8143,4.484553575515747
55, 8153, 8159, 8130, 8148, 8189, 8180, 8202, 8166, 8163, 8169, 8146, 8081, 8188, 8150,4.499956130981445
56, 8163, 8167, 8205, 8150, 8190, 8186, 8210, 8173, 8157, 8171, 8138, 8098, 8184, 8162,4.499956130981445
57, 8165, 8164, 8150, 8158, 8187, 8186, 8213, 8172, 8160, 8175, 8136, 8091, 8183, 8165,4.5151050090789795
58, 8163, 8152, 8160, 8144, 8178, 8183, 8200, 8166, 8170, 8177, 8133, 8083, 8186, 8164,4.5151050090789795
59, 8167, 8160, 8189, 8140, 8181, 8184, 8195, 8174, 8187, 8188, 8145, 8107, 8205, 8176,4.530867099761963
60, 8181, 8168, 8146, 8155, 8181, 8165, 8193, 8170, 8205, 8202, 8170, 8122, 8232, 8188,4.530867099761963
61, 8197, 8176, 8212, 8148, 8171, 8163, 8176, 8171, 8192, 8185, 8182, 8139, 8233, 8184,4.546139240264893
62, 8192, 8171, 8158, 8154, 8181, 8160, 8179, 8170, 8183, 8181, 8193, 8141, 8230, 8176,4.546139240264893
63, 8188, 8171, 8166, 8150, 8179, 8141, 8163, 8165, 8168, 8171, 8188, 8138, 8221, 8175,4.561720848083496
64, 8184, 8184, 8204, 8145, 8170, 8147, 8150, 8174, 8149, 8154, 8181, 8139, 8205, 8170,4.561720848083496
65, 8177, 8173, 8148, 8167, 8182, 8155, 8170, 8170, 8143, 8156, 8183, 8123, 8195, 8159,4.577640771865845
66, 8178, 8176, 8210, 8179, 8190, 8169, 8175, 8167, 8123, 8144, 8161, 8115, 8176, 8160,4.577640771865845
67, 8170, 8180, 8161, 8186, 8193, 8187, 8186, 8160, 8124, 8147, 8146, 8099, 8170, 8167,4.592766761779785
68, 8164, 8156, 8155, 8173, 8190, 8180, 8194, 8158, 8139, 8161, 8150, 8093, 8176, 8165,4.592766761779785
69, 8171, 8151, 8197, 8161, 8181, 8174, 8193, 8170, 8164, 8171, 8153, 8109, 8183, 8176,4.607903003692627
70, 8182, 8167, 8132, 8178, 8176, 8167, 8195, 8168, 8194, 8176, 8163, 8112, 8194, 8186,4.607903003692627
71, 8195, 8183, 8196, 8178, 8174, 8160, 8183, 8174, 8186, 8161, 8176, 8139, 8208, 8184,4.623409271240234
72, 8191, 8179, 8165, 8174, 8183, 8157, 8191, 8176, 8175, 8160, 8191, 8146, 8222, 8174,4.623409271240234
73, 8185, 8176, 8146, 8178, 8193, 8164, 8202, 8170, 8173, 8160, 8191, 8129, 8210, 8170,4.639262676239014
74, 8183, 8194, 8203, 8191, 8193, 8183, 8197, 8181, 8170, 8155, 8186, 8130, 8194, 8166,4.639262676239014
75, 8168, 8179, 8137, 8197, 8188, 8181, 8199, 8172, 8171, 8166, 8181, 8110, 8194, 8154,4.6543285846710205
76, 8158, 8156, 8177, 8167, 8177, 8187, 8208, 8169, 8163, 8171, 8162, 8103, 8188, 8158,4.6543285846710205
77, 8163, 8150, 8153, 8162, 8171, 8197, 8222, 8175, 8178, 8185, 8160, 8102, 8188, 8177,4.670884132385254
78, 8178, 8154, 8134, 8168, 8170, 8176, 8209, 8168, 8186, 8190, 8167, 8102, 8196, 8180,4.670884132385254
79, 8180, 8169, 8192, 8152, 8166, 8172, 8193, 8172, 8176, 8174, 8169, 8125, 8198, 8180,4.685694694519043
80, 8172, 8164, 8129, 8146, 8165, 8167, 8194, 8170, 8185, 8167, 8185, 8131, 8196, 8174,4.685694694519043
81, 8190, 8174, 8180, 8140, 8160, 8146, 8174, 8163, 8179, 8154, 8197, 8144, 8192, 8171,4.700885772705078
82, 8199, 8193, 8176, 8156, 8165, 8140, 8167, 8161, 8171, 8156, 8195, 8143, 8194, 8173,4.700885772705078
83, 8184, 8179, 8144, 8165, 8168, 8146, 8169, 8161, 8157, 8152, 8187, 8125, 8183, 8162,4.717241525650024
84, 8176, 8176, 8201, 8160, 8165, 8167, 8165, 8171, 8128, 8134, 8175, 8133, 8154, 8147,4.734102249145508
85, 8171, 8181, 8141, 8185, 8177, 8182, 8189, 8163, 8138, 8150, 8163, 8120, 8149, 8150,4.734102249145508
86, 8169, 8176, 8181, 8187, 8176, 8187, 8192, 8163, 8135, 8154, 8140, 8101, 8146, 8159,4.734102249145508
87, 8174, 8163, 8181, 8177, 8173, 8196, 8189, 8176, 8139, 8167, 8147, 8104, 8158, 8170,4.748980522155762
88, 8185, 8156, 8143, 8173, 8177, 8193, 8197, 8167, 8176, 8198, 8173, 8118, 8189, 8191,4.763760805130005
89, 8198, 8176, 8209, 8167, 8180, 8186, 8187, 8166, 8191, 8197, 8171, 8134, 8195, 8209,4.763760805130005
90, 8207, 8184, 8147, 8179, 8184, 8173, 8179, 8169, 8187, 8183, 8178, 8131, 8196, 8208,4.763760805130005
91, 8219, 8182, 8179, 8167, 8175, 8167, 8164, 8172, 8167, 8165, 8190, 8148, 8199, 8201,4.7783026695251465
92, 8212, 8180, 8193, 8156, 8166, 8167, 8161, 8171, 8163, 8164, 8195, 8164, 8206, 8198,4.793600797653198
93, 8213, 8183, 8148, 8173, 8174, 8156, 8165, 8161, 8166, 8173, 8210, 8161, 8223, 8198,4.793600797653198
94, 8232, 8209, 8224, 8194, 8189, 8169, 8162, 8169, 8144, 8166, 8226, 8175, 8229, 8204,4.808670997619629
95, 8225, 8210, 8167, 8218, 8194, 8181, 8180, 8168, 8144, 8173, 8220, 8158, 8218, 8203,4.808670997619629
96, 8212, 8196, 8178, 8208, 8184, 8179, 8182, 8165, 8152, 8174, 8191, 8144, 8203, 8196,4.824663877487183
97, 8200, 8189, 8196, 8187, 8182, 8189, 8186, 8173, 8170, 8178, 8182, 8147, 8210, 8203,4.824663877487183
98, 8181, 8163, 8131, 8181, 8183, 8187, 8205, 8171, 8185, 8189, 8177, 8118, 8211, 8203,4.839302062988281
99, 8188, 8160, 8193, 8176, 8177, 8192, 8215, 8179, 8193, 8188, 8162, 8117, 8203, 8199,4.839302062988281
100, 8194, 8167, 8149, 8181, 8178, 8194, 8223, 8177, 8224, 8202, 8166, 8126, 8216, 8203,4.854610204696655
101, 8186, 8159, 8155, 8165, 8168, 8174, 8201, 8170, 8223, 8198, 8169, 8127, 8219, 8205,4.854610204696655
102, 8185, 8155, 8183, 8141, 8161, 8169, 8178, 8178, 8199, 8177, 8164, 8128, 8211, 8196,4.8706910610198975
103, 8194, 8159, 8137, 8149, 8172, 8169, 8174, 8173, 8194, 8170, 8174, 8126, 8208, 8181,4.8706910610198975
104, 8207, 8185, 8216, 8168, 8176, 8171, 8168, 8171, 8188, 8167, 8191, 8154, 8205, 8187,4.885945558547974
105, 8217, 8199, 8181, 8196, 8184, 8174, 8183, 8174, 8194, 8181, 8202, 8161, 8218, 8200,4.885945558547974
106, 8212, 8192, 8175, 8195, 8192, 8172, 8189, 8170, 8185, 8174, 8186, 8140, 8209, 8190,4.901871204376221
107, 8185, 8181, 8205, 8180, 8186, 8178, 8183, 8175, 8167, 8159, 8158, 8120, 8178, 8177,4.901871204376221
108, 8175, 8154, 8133, 8186, 8176, 8182, 8197, 8170, 8173, 8179, 8160, 8101, 8177, 8178,4.917148590087891
109, 8190, 8158, 8200, 8183, 8172, 8194, 8199, 8172, 8182, 8194, 8170, 8114, 8189, 8190,4.917148590087891
110, 8179, 8167, 8169, 8183, 8175, 8190, 8194, 8167, 8196, 8199, 8165, 8113, 8190, 8189,4.932600498199463
111, 8172, 8152, 8144, 8164, 8164, 8165, 8181, 8158, 8195, 8178, 8156, 8111, 8185, 8179,4.932600498199463
112, 8189, 8164, 8198, 8153, 8157, 8168, 8173, 8171, 8184, 8160, 8168, 8138, 8192, 8182,4.948263168334961
113, 8196, 8179, 8146, 8172, 8173, 8167, 8184, 8170, 8197, 8181, 8191, 8146, 8208, 8190,4.948263168334961
114, 8200, 8183, 8201, 8164, 8175, 8161, 8185, 8174, 8205, 8183, 8193, 8158, 8205, 8197,4.963285207748413
115, 8198, 8182, 8176, 8161, 8170, 8167, 8184, 8177, 8210, 8179, 8193, 8158, 8201, 8195,4.963285207748413
116, 8192, 8174, 8154, 8173, 8174, 8165, 8169, 8166, 8191, 8176, 8185, 8139, 8197, 8182,4.978954553604126
117, 8185, 8178, 8212, 8187, 8180, 8176, 8165, 8173, 8174, 8174, 8173, 8141, 8189, 8183,4.978954553604126
118, 8182, 8174, 8139, 8205, 8185, 8181, 8192, 8171, 8197, 8199, 8179, 8136, 8197, 8196,4.994723796844482
119, 8180, 8159, 8179, 8188, 8171, 8183, 8193, 8163, 8195, 8197, 8169, 8128, 8189, 8195,5.010777711868286
120, 8166, 8143, 8168, 8171, 8161, 8188, 8187, 8165, 8191, 8185, 8156, 8119, 8181, 8179,5.010777711868286
121, 8171, 8145, 8138, 8165, 8168, 8173, 8191, 8169, 8207, 8191, 8167, 8129, 8187, 8190,5.010777711868286
122, 8195, 8164, 8197, 8150, 8166, 8167, 8186, 8175, 8209, 8183, 8180, 8158, 8182, 8205,5.026569604873657
123, 8200, 8164, 8135, 8154, 8159, 8165, 8180, 8165, 8213, 8173, 8186, 8146, 8176, 8190,5.026569604873657
124, 8202, 8175, 8192, 8164, 8164, 8159, 8166, 8171, 8195, 8162, 8192, 8151, 8178, 8186,5.041961431503296
125, 8203, 8193, 8205, 8182, 8182, 8159, 8173, 8180, 8180, 8168, 8209, 8176, 8186, 8198,5.041961431503296
126, 8201, 8184, 8157, 8190, 8187, 8158, 8187, 8169, 8181, 8169, 8211, 8168, 8177, 8188,5.060131549835205
127, 8204, 8185, 8221, 8186, 8179, 8175, 8189, 8175, 8176, 8154, 8194, 8160, 8162, 8183,5.060131549835205
236, 8195, 8180, 8156, 8203, 8184, 8187, 8212, 8175, 8188, 8177, 8197, 8152, 8169, 8195,5.072962760925293
0, 8187, 8169, 8176, 8192, 8184, 8189, 8217, 8170, 8191, 8190, 8194, 8153, 8168, 8199,5.072962760925293
1, 8183, 8164, 8189, 8172, 8174, 8189, 8207, 8177, 8189, 8183, 8175, 8141, 8163, 8196,5.087971448898315
2, 8189, 8156, 8144, 8173, 8164, 8171, 8207, 8173, 8198, 8187, 8166, 8122, 8163, 8197,5.087971448898315
3, 8200, 8168, 8204, 8162, 8158, 8162, 8204, 8172, 8201, 8189, 8172, 8148, 8163, 8203,5.103596210479736
4, 8200, 8166, 8141, 8152, 8160, 8160, 8201, 8167, 8212, 8190, 8185, 8158, 8172, 8205,5.103596210479736
5, 8209, 8165, 8171, 8153, 8164, 8155, 8177, 8168, 8202, 8170, 8183, 8158, 8168, 8199,5.118977069854736
6, 8209, 8182, 8196, 8171, 8172, 8153, 8165, 8176, 8185, 8148, 8178, 8157, 8155, 8193,5.118977069854736
7, 8191, 8174, 8129, 8175, 8178, 8145, 8167, 8166, 8172, 8133, 8168, 8129, 8144, 8175,5.135309457778931
8, 8183, 8173, 8196, 8161, 8169, 8158, 8156, 8167, 8146, 8114, 8150, 8124, 8132, 8164,5.135309457778931
9, 8170, 8172, 8147, 8175, 8166, 8168, 8160, 8164, 8135, 8124, 8149, 8116, 8131, 8167,5.149852514266968
10, 8163, 8156, 8147, 8179, 8168, 8165, 8163, 8163, 8129, 8129, 8136, 8106, 8127, 8170,5.149852514266968
11, 8165, 8155, 8180, 8174, 8168, 8179, 8173, 8178, 8151, 8144, 8123, 8110, 8133, 8174,5.16605544090271
12, 8163, 8151, 8124, 8181, 8166, 8174, 8179, 8169, 8187, 8171, 8143, 8107, 8152, 8180,5.16605544090271
13, 8170, 8152, 8189, 8163, 8161, 8161, 8160, 8170, 8186, 8163, 8156, 8128, 8158, 8195,5.1810643672943115
14, 8183, 8162, 8149, 8155, 8166, 8157, 8163, 8178, 8184, 8162, 8172, 8145, 8162, 8197,5.1810643672943115
15, 8185, 8174, 8150, 8152, 8166, 8144, 8151, 8171, 8155, 8151, 8177, 8141, 8150, 8173,5.196965932846069
16, 8170, 8182, 8197, 8161, 8166, 8152, 8135, 8166, 8120, 8134, 8162, 8133, 8134, 8162,5.212671518325806
17, 8169, 8174, 8139, 8185, 8176, 8165, 8159, 8164, 8139, 8158, 8161, 8118, 8151, 8180,5.212671518325806
18, 8188, 8173, 8198, 8179, 8167, 8176, 8178, 8176, 8161, 8179, 8167, 8134, 8163, 8200,5.212671518325806
19, 8188, 8162, 8161, 8177, 8164, 8178, 8185, 8177, 8178, 8185, 8169, 8141, 8165, 8203,5.228710651397705
20, 8183, 8151, 8148, 8166, 8166, 8165, 8170, 8172, 8188, 8180, 8165, 8147, 8169, 8195,5.228710651397705
21, 8189, 8166, 8199, 8149, 8164, 8161, 8148, 8181, 8181, 8170, 8176, 8170, 8171, 8190,5.244887590408325
22, 8192, 8173, 8139, 8165, 8168, 8150, 8144, 8171, 8170, 8163, 8198, 8161, 8171, 8185,5.244887590408325
23, 8190, 8185, 8201, 8173, 8174, 8156, 8142, 8164, 8143, 8140, 8191, 8155, 8157, 8180,5.260687589645386
24, 8175, 8185, 8177, 8182, 8182, 8174, 8162, 8167, 8138, 8143, 8169, 8140, 8147, 8179,5.261693477630615
25, 8168, 8165, 8149, 8187, 8176, 8174, 8181, 8166, 8155, 8161, 8156, 8118, 8140, 8184,5.274842977523804
26, 8171, 8163, 8196, 8166, 8164, 8177, 8184, 8176, 8170, 8162, 8151, 8125, 8140, 8187,5.291578054428101
27, 8171, 8159, 8128, 8158, 8170, 8172, 8187, 8170, 8184, 8171, 8165, 8134, 8155, 8182,5.291578054428101
28, 8192, 8172, 8190, 8165, 8176, 8169, 8175, 8164, 8179, 8174, 8185, 8161, 8168, 8194,5.306616544723511
29, 8208, 8188, 8191, 8182, 8178, 8166, 8163, 8166, 8183, 8177, 8202, 8178, 8174, 8200,5.306616544723511
30, 8203, 8188, 8154, 8185, 8178, 8153, 8148, 8162, 8173, 8168, 8200, 8174, 8157, 8181,5.321817636489868
31, 8201, 8199, 8213, 8189, 8182, 8169, 8146, 8173, 8149, 8158, 8191, 8178, 8141, 8182,5.321817636489868
32, 8197, 8185, 8148, 8211, 8187, 8182, 8172, 8169, 8150, 8169, 8174, 8151, 8146, 8189,5.337775707244873
33, 8187, 8164, 8177, 8187, 8173, 8175, 8170, 8164, 8138, 8153, 8138, 8134, 8132, 8176,5.337775707244873
34, 8174, 8157, 8167, 8155, 8163, 8176, 8171, 8166, 8140, 8149, 8136, 8141, 8125, 8169,5.354039430618286
35, 8175, 8150, 8130, 8155, 8163, 8170, 8174, 8161, 8163, 8167, 8157, 8149, 8150, 8179,5.354039430618286
36, 8192, 8162, 8207, 8161, 8158, 8162, 8158, 8170, 8172, 8169, 8161, 8166, 8164, 8186,5.368621349334717
37, 8192, 8166, 8147, 8163, 8162, 8151, 8157, 8171, 8184, 8180, 8171, 8158, 8164, 8181,5.368621349334717
38, 8189, 8163, 8166, 8138, 8162, 8146, 8139, 8169, 8166, 8169, 8186, 8157, 8163, 8174,5.384751796722412
39, 8194, 8171, 8179, 8138, 8159, 8147, 8119, 8166, 8142, 8148, 8192, 8169, 8158, 8173,5.384751796722412
40, 8199, 8176, 8147, 8159, 8161, 8142, 8118, 8154, 8128, 8135, 8185, 8167, 8142, 8171,5.400778770446777
41, 8196, 8183, 8210, 8160, 8165, 8163, 8127, 8166, 8105, 8130, 8175, 8175, 8133, 8169,5.400778770446777
42, 8187, 8177, 8145, 8177, 8180, 8181, 8150, 8173, 8115, 8154, 8187, 8165, 8149, 8168,5.417752981185913
43, 8195, 8181, 8181, 8188, 8186, 8177, 8157, 8171, 8134, 8166, 8194, 8163, 8155, 8177,5.417752981185913
44, 8192, 8189, 8209, 8192, 8182, 8182, 8163, 8174, 8145, 8167, 8186, 8166, 8148, 8183,5.417752981185913
45, 8177, 8170, 8138, 8197, 8178, 8180, 8174, 8168, 8156, 8182, 8175, 8146, 8151, 8175,5.433019638061523
46, 8175, 8164, 8196, 8175, 8168, 8184, 8175, 8170, 8157, 8188, 8172, 8154, 8158, 8184,5.433019638061523
47, 8173, 8160, 8151, 8166, 8168, 8183, 8179, 8167, 8175, 8200, 8185, 8160, 8177, 8202,5.447587728500366
48, 8179, 8153, 8160, 8162, 8165, 8163, 8163, 8163, 8179, 8191, 8183, 8154, 8171, 8192,5.4627602100372314
49, 8185, 8163, 8187, 8166, 8159, 8161, 8148, 8171, 8175, 8177, 8174, 8154, 8153, 8174,5.4627602100372314
50, 8178, 8160, 8128, 8162, 8157, 8162, 8156, 8172, 8184, 8178, 8182, 8144, 8157, 8174,5.47815728187561
51, 8169, 8150, 8185, 8121, 8146, 8152, 8144, 8180, 8164, 8145, 8177, 8147, 8147, 8167,5.47815728187561
52, 8162, 8144, 8134, 8105, 8138, 8140, 8135, 8171, 8141, 8120, 8160, 8138, 8132, 8144,5.4940760135650635
53, 8170, 8153, 8142, 8111, 8144, 8147, 8137, 8158, 8130, 8123, 8163, 8144, 8135, 8147,5.4940760135650635
54, 8178, 8170, 8204, 8129, 8159, 8167, 8143, 8172, 8141, 8144, 8200, 8176, 8160, 8174,5.509770154953003
55, 8180, 8174, 8147, 8162, 8170, 8159, 8148, 8173, 8162, 8173, 8227, 8180, 8178, 8185,5.509770154953003
56, 8188, 8193, 8206, 8176, 8174, 8171, 8148, 8171, 8150, 8172, 8205, 8175, 8169, 8176,5.524888753890991
57, 8190, 8202, 8183, 8195, 8193, 8194, 8169, 8172, 8156, 8182, 8194, 8165, 8176, 8177,5.524888753890991
58, 8194, 8187, 8176, 8202, 8195, 8189, 8164, 8173, 8163, 8190, 8202, 8164, 8180, 8184,5.540995359420776
59, 8186, 8182, 8214, 8183, 8177, 8187, 8145, 8180, 8155, 8185, 8183, 8169, 8166, 8187,5.540995359420776
60, 8170, 8169, 8140, 8173, 8173, 8183, 8161, 8165, 8166, 8189, 8166, 8146, 8161, 8178,5.557110786437988
61, 8178, 8164, 8197, 8164, 8169, 8186, 8173, 8169, 8172, 8189, 8166, 8145, 8159, 8171,5.557110786437988
62, 8193, 8168, 8169, 8176, 8170, 8196, 8190, 8181, 8195, 8204, 8177, 8152, 8168, 8181,5.572680234909058
63, 8192, 8160, 8143, 8173, 8169, 8184, 8198, 8174, 8212, 8211, 8182, 8150, 8181, 8189,5.572680234909058
64, 8182, 8156, 8198, 8146, 8161, 8177, 8183, 8178, 8200, 8201, 8178, 8165, 8176, 8181,5.588283538818359
65, 8173, 8154, 8127, 8145, 8159, 8161, 8167, 8168, 8190, 8194, 8186, 8159, 8168, 8168,5.588283538818359
66, 8189, 8175, 8183, 8152, 8167, 8151, 8145, 8159, 8178, 8171, 8191, 8167, 8171, 8171,5.603978395462036
67, 8207, 8193, 8184, 8165, 8176, 8164, 8150, 8169, 8178, 8173, 8201, 8185, 8185, 8176,5.603978395462036
68, 8207, 8186, 8152, 8172, 8169, 8171, 8159, 8171, 8171, 8176, 8203, 8182, 8178, 8176,5.619646310806274
69, 8198, 8191, 8209, 8172, 8171, 8175, 8153, 8169, 8145, 8151, 8185, 8172, 8153, 8172,5.619646310806274
70, 8179, 8184, 8142, 8190, 8184, 8170, 8161, 8164, 8134, 8151, 8173, 8136, 8142, 8154,5.634768009185791
71, 8174, 8179, 8184, 8190, 8177, 8171, 8164, 8170, 8131, 8160, 8167, 8133, 8138, 8154,5.634768009185791
72, 8185, 8182, 8183, 8196, 8173, 8188, 8172, 8172, 8140, 8172, 8177, 8153, 8150, 8174,5.650647163391113
73, 8188, 8171, 8138, 8200, 8180, 8192, 8173, 8164, 8139, 8170, 8173, 8144, 8158, 8175,5.650647163391113
74, 8182, 8173, 8195, 8186, 8181, 8198, 8168, 8176, 8132, 8156, 8154, 8134, 8146, 8164,5.665832996368408
75, 8169, 8165, 8125, 8185, 8180, 8192, 8179, 8176, 8165, 8169, 8156, 8113, 8146, 8155,5.665832996368408
76, 8172, 8157, 8157, 8170, 8166, 8182, 8178, 8176, 8179, 8172, 8158, 8117, 8154, 8151,5.68139123916626
77, 8177, 8166, 8172, 8164, 8161, 8192, 8186, 8175, 8174, 8170, 8159, 8130, 8163, 8154,5.68139123916626
78, 8177, 8164, 8120, 8163, 8169, 8179, 8188, 8162, 8175, 8175, 8171, 8129, 8167, 8152,5.69701361656189
79, 8182, 8170, 8186, 8147, 8158, 8164, 8155, 8176, 8161, 8161, 8188, 8151, 8158, 8148,5.69701361656189
80, 8177, 8168, 8131, 8158, 8152, 8159, 8141, 8171, 8154, 8151, 8190, 8155, 8151, 8140,5.712555885314941
81, 8179, 8171, 8157, 8161, 8159, 8152, 8131, 8155, 8124, 8125, 8170, 8152, 8129, 8125,5.712555885314941
82, 8187, 8191, 8190, 8173, 8171, 8156, 8132, 8165, 8103, 8115, 8167, 8157, 8116, 8125,5.727633714675903
83, 8193, 8199, 8145, 8208, 8180, 8162, 8153, 8167, 8123, 8139, 8186, 8154, 8126, 8139,5.727633714675903
84, 8203, 8202, 8217, 8208, 8176, 8177, 8161, 8169, 8128, 8147, 8186, 8170, 8131, 8157,5.7427613735198975
85, 8202, 8192, 8166, 8199, 8182, 8182, 8164, 8165, 8126, 8152, 8180, 8159, 8131, 8166,5.7427613735198975
86, 8203, 8189, 8177, 8202, 8190, 8176, 8159, 8162, 8115, 8149, 8175, 8146, 8129, 8165,5.757761240005493
87, 8199, 8193, 8210, 8204, 8184, 8183, 8160, 8171, 8125, 8161, 8181, 8163, 8142, 8172,5.757761240005493
88, 8189, 8166, 8141, 8191, 8168, 8173, 8167, 8164, 8150, 8179, 8184, 8154, 8154, 8177,5.77381157875061
89, 8182, 8155, 8190, 8166, 8155, 8174, 8164, 8166, 8143, 8163, 8155, 8136, 8135, 8173,5.77381157875061
90, 8169, 8157, 8141, 8164, 8161, 8184, 8180, 8169, 8151, 8166, 8148, 8125, 8132, 8158,5.789024114608765
91, 8176, 8154, 8143, 8155, 8165, 8173, 8181, 8168, 8163, 8172, 8169, 8143, 8149, 8154,5.789024114608765
92, 8196, 8172, 8193, 8161, 8163, 8168, 8167, 8174, 8173, 8167, 8190, 8175, 8161, 8175,5.804640531539917
93, 8206, 8181, 8141, 8178, 8167, 8163, 8163, 8173, 8182, 8171, 8204, 8177, 8167, 8179,5.804640531539917
94, 8212, 8184, 8202, 8157, 8157, 8157, 8148, 8177, 8163, 8161, 8205, 8186, 8163, 8166,5.821052551269531
95, 8216, 8188, 8167, 8161, 8157, 8150, 8147, 8173, 8155, 8158, 8219, 8194, 8166, 8174,5.821052551269531
96, 8221, 8194, 8169, 8193, 8174, 8158, 8146, 8171, 8151, 8155, 8228, 8201, 8164, 8183,5.835218191146851
97, 8226, 8211, 8230, 8210, 8184, 8174, 8144, 8178, 8138, 8153, 8227, 8215, 8160, 8177,5.852315187454224
98, 8235, 8210, 8167, 8223, 8182, 8167, 8161, 8167, 8133, 8153, 8231, 8214, 8176, 8186,5.852315187454224
99, 8247, 8206, 8227, 8244, 8181, 8180, 8164, 8171, 8126, 8138, 8225, 8230, 8171, 8205,5.852315187454224
100, 8236, 8192, 8203, 8274, 8187, 8196, 8167, 8175, 8136, 8153, 8222, 8219, 8154, 8195,5.867030143737793
101, 8226, 8182, 8178, 8268, 8175, 8186, 8167, 8169, 8140, 8175, 8227, 8198, 8161, 8183,5.882807970046997
102, 8235, 8196, 8236, 8257, 8161, 8195, 8168, 8181, 8141, 8175, 8230, 8222, 8184, 8198,5.882807970046997
103, 8235, 8187, 8171, 8269, 8156, 8182, 8175, 8175, 8160, 8175, 8226, 8233, 8191, 8205,5.882807970046997
104, 8245, 8186, 8225, 8255, 8140, 8157, 8157, 8164, 8151, 8158, 8229, 8249, 8178, 8201,5.898851633071899
105, 8258, 8204, 8217, 8259, 8145, 8171, 8163, 8169, 8153, 8166, 8245, 8261, 8185, 8200,5.898851633071899
106, 8256, 8201, 8184, 8268, 8163, 8179, 8180, 8172, 8175, 8182, 8242, 8255, 8197, 8200,5.913984298706055
107, 8250, 8201, 8243, 8243, 8161, 8177, 8177, 8181, 8169, 8167, 8238, 8265, 8197, 8200,5.928698539733887
108, 8246, 8203, 8174, 8251, 8165, 8170, 8178, 8174, 8163, 8165, 8247, 8255, 8197, 8191,5.928698539733887
109, 8249, 8208, 8207, 8261, 8170, 8169, 8162, 8171, 8155, 8161, 8225, 8241, 8179, 8185,5.943764925003052
110, 8243, 8202, 8201, 8249, 8168, 8178, 8155, 8174, 8139, 8145, 8199, 8228, 8165, 8189,5.943764925003052
111, 8240, 8193, 8166, 8240, 8167, 8171, 8162, 8169, 8129, 8143, 8210, 8213, 8169, 8184,5.959506273269653
112, 8244, 8204, 8233, 8243, 8172, 8183, 8166, 8179, 8134, 8149, 8216, 8219, 8169, 8187,5.959506273269653
113, 8230, 8192, 8164, 8258, 8176, 8191, 8177, 8172, 8167, 8168, 8206, 8214, 8177, 8199,5.974560260772705
114, 8219, 8171, 8185, 8233, 8168, 8187, 8173, 8162, 8174, 8170, 8193, 8212, 8179, 8203,5.974560260772705
115, 8213, 8167, 8182, 8200, 8168, 8191, 8182, 8167, 8168, 8175, 8189, 8202, 8174, 8199,5.990645885467529
116, 8211, 8165, 8138, 8197, 8174, 8183, 8195, 8167, 8177, 8191, 8192, 8185, 8177, 8197,5.990645885467529
117, 8220, 8170, 8207, 8186, 8169, 8170, 8181, 8175, 8191, 8194, 8199, 8199, 8188, 8201,6.00593376159668
118, 8227, 8169, 8152, 8184, 8167, 8162, 8188, 8180, 8224, 8208, 8219, 8198, 8203, 8208,6.00593376159668
119, 8238, 8179, 8185, 8184, 8171, 8171, 8207, 8186, 8234, 8202, 8217, 8205, 8203, 8209,6.026542901992798
120, 8236, 8193, 8203, 8188, 8181, 8180, 8215, 8188, 8228, 8199, 8217, 8225, 8209, 8201,6.026542901992798
121, 8222, 8181, 8135, 8184, 8182, 8160, 8200, 8167, 8211, 8198, 8230, 8214, 8209, 8183,6.026542901992798
122, 8224, 8187, 8202, 8185, 8172, 8157, 8178, 8169, 8174, 8164, 8221, 8210, 8189, 8174,6.037651777267456
123, 8228, 8202, 8163, 8216, 8182, 8165, 8184, 8178, 8171, 8165, 8215, 8205, 8195, 8176,6.053713083267212
124, 8233, 8204, 8185, 8221, 8202, 8163, 8181, 8179, 8175, 8189, 8223, 8213, 8207, 8187,6.053713083267212
125, 8227, 8203, 8221, 8228, 8215, 8178, 8188, 8180, 8177, 8197, 8229, 8220, 8205, 8199,6.069583415985107
126, 8202, 8179, 8146, 8243, 8214, 8189, 8206, 8169, 8188, 8201, 8214, 8188, 8195, 8186,6.069583415985107
127, 8191, 8166, 8195, 8212, 8202, 8200, 8203, 8175, 8190, 8202, 8194, 8176, 8186, 8173,6.0856544971466064
236, 8194, 8168, 8152, 8206, 8198, 8202, 8208, 8178, 8205, 8217, 8199, 8170, 8198, 8179,6.0856544971466064
0, 8191, 8161, 8152, 8206, 8182, 8182, 8199, 8167, 8188, 8203, 8186, 8160, 8191, 8181,6.10089373588562
1, 8188, 8162, 8188, 8179, 8175, 8184, 8197, 8169, 8172, 8186, 8171, 8165, 8178, 8180,6.10089373588562
2, 8200, 8166, 8127, 8168, 8182, 8178, 8214, 8168, 8200, 8195, 8190, 8169, 8192, 8186,6.116836309432983
3, 8209, 8179, 8192, 8161, 8166, 8165, 8205, 8172, 8204, 8184, 8201, 8186, 8197, 8186,6.116836309432983
4, 8199, 8182, 8157, 8165, 8159, 8164, 8199, 8175, 8204, 8187, 8198, 8178, 8195, 8168,6.1319334506988525
5, 8204, 8184, 8148, 8171, 8181, 8161, 8198, 8176, 8210, 8194, 8200, 8168, 8192, 8158,6.132291793823242
6, 8207, 8192, 8195, 8170, 8187, 8164, 8187, 8184, 8207, 8184, 8203, 8187, 8185, 8166,6.1469128131866455
7, 8192, 8176, 8132, 8170, 8181, 8162, 8185, 8174, 8200, 8181, 8203, 8183, 8182, 8167,6.1469128131866455
8, 8193, 8181, 8189, 8167, 8181, 8167, 8179, 8172, 8176, 8171, 8189, 8177, 8170, 8166,6.162841796875
9, 8189, 8191, 8162, 8187, 8187, 8176, 8183, 8172, 8169, 8172, 8178, 8165, 8157, 8162,6.162841796875
10, 8175, 8171, 8141, 8188, 8185, 8181, 8186, 8168, 8169, 8176, 8169, 8146, 8149, 8151,6.177978754043579
11, 8169, 8166, 8188, 8170, 8180, 8190, 8192, 8177, 8170, 8169, 8152, 8132, 8150, 8149,6.177978754043579
12, 8170, 8161, 8118, 8167, 8179, 8176, 8207, 8168, 8183, 8172, 8143, 8111, 8157, 8153,6.1936821937561035
13, 8180, 8158, 8166, 8153, 8163, 8167, 8188, 8165, 8176, 8162, 8136, 8129, 8154, 8158,6.1936821937561035
14, 8186, 8161, 8149, 8147, 8159, 8166, 8176, 8174, 8178, 8159, 8147, 8143, 8159, 8169,6.208837270736694
15, 8196, 8165, 8128, 8145, 8167, 8150, 8182, 8170, 8180, 8167, 8173, 8142, 8172, 8174,6.208837270736694
16, 8202, 8178, 8198, 8143, 8168, 8151, 8180, 8170, 8159, 8167, 8186, 8168, 8174, 8173,6.223965167999268
17, 8190, 8178, 8137, 8171, 8176, 8155, 8179, 8168, 8151, 8171, 8195, 8164, 8180, 8172,6.223965167999268
18, 8198, 8187, 8185, 8189, 8184, 8163, 8175, 8177, 8149, 8169, 8195, 8161, 8184, 8177,6.240008592605591
19, 8206, 8190, 8181, 8194, 8193, 8180, 8195, 8181, 8163, 8184, 8185, 8164, 8182, 8185,6.240008592605591
20, 8193, 8173, 8141, 8190, 8194, 8177, 8206, 8167, 8168, 8193, 8172, 8157, 8173, 8187,6.255788326263428
21, 8180, 8168, 8203, 8175, 8182, 8183, 8187, 8172, 8149, 8174, 8163, 8164, 8166, 8188,6.255788326263428
22, 8173, 8150, 8129, 8167, 8172, 8180, 8187, 8171, 8151, 8178, 8155, 8143, 8166, 8184,6.270855903625488
23, 8177, 8142, 8154, 8148, 8160, 8164, 8184, 8165, 8155, 8183, 8136, 8127, 8154, 8178,6.270855903625488
24, 8176, 8155, 8170, 8146, 8161, 8164, 8178, 8168, 8162, 8192, 8140, 8131, 8159, 8178,6.286571264266968
25, 8169, 8147, 8120, 8146, 8164, 8160, 8173, 8167, 8167, 8198, 8146, 8127, 8170, 8174,6.286571264266968
26, 8174, 8152, 8182, 8126, 8159, 8158, 8164, 8174, 8162, 8178, 8141, 8140, 8162, 8171,6.3019609451293945
27, 8180, 8163, 8130, 8132, 8165, 8150, 8172, 8167, 8167, 8166, 8159, 8146, 8166, 8160,6.3019609451293945
28, 8182, 8168, 8155, 8127, 8169, 8144, 8158, 8165, 8145, 8141, 8163, 8149, 8157, 8150,6.3176374435424805
29, 8176, 8175, 8176, 8131, 8169, 8150, 8140, 8172, 8126, 8127, 8151, 8145, 8142, 8146,6.3176374435424805
30, 8168, 8173, 8125, 8149, 8168, 8144, 8143, 8167, 8138, 8145, 8158, 8130, 8154, 8142,6.333680868148804
31, 8169, 8178, 8193, 8148, 8168, 8152, 8146, 8174, 8133, 8148, 8160, 8139, 8153, 8140,6.333680868148804
32, 8169, 8176, 8147, 8165, 8182, 8171, 8164, 8173, 8134, 8161, 8151, 8130, 8139, 8134,6.34882116317749
33, 8166, 8167, 8160, 8170, 8185, 8183, 8180, 8171, 8141, 8183, 8146, 8120, 8139, 8136,6.34882116317749
34, 8157, 8161, 8180, 8151, 8179, 8195, 8197, 8179, 8162, 8201, 8151, 8126, 8159, 8149,6.36492395401001
35, 8153, 8148, 8114, 8142, 8173, 8179, 8205, 8172, 8188, 8201, 8154, 8116, 8172, 8155,6.36492395401001
36, 8163, 8156, 8183, 8130, 8162, 8162, 8176, 8173, 8174, 8168, 8144, 8124, 8157, 8148,6.380954265594482
37, 8163, 8162, 8137, 8127, 8162, 8151, 8162, 8172, 8164, 8151, 8145, 8129, 8149, 8134,6.380954265594482
38, 8159, 8158, 8136, 8117, 8163, 8134, 8156, 8164, 8156, 8130, 8144, 8126, 8147, 8123,6.397079706192017
39, 8163, 8174, 8187, 8130, 8171, 8142, 8152, 8169, 8142, 8123, 8144, 8131, 8146, 8130,6.41169810295105
40, 8163, 8178, 8134, 8166, 8186, 8152, 8160, 8165, 8146, 8155, 8154, 8123, 8145, 8134,6.41169810295105
41, 8154, 8166, 8184, 8153, 8177, 8162, 8159, 8168, 8142, 8168, 8150, 8127, 8132, 8135,6.41169810295105
42, 8135, 8154, 8135, 8143, 8179, 8173, 8167, 8168, 8155, 8180, 8148, 8119, 8138, 8144,6.4275901317596436
43, 8137, 8153, 8128, 8146, 8189, 8167, 8166, 8161, 8166, 8187, 8142, 8108, 8150, 8148,6.4275901317596436
44, 8150, 8165, 8185, 8144, 8181, 8160, 8159, 8170, 8168, 8181, 8137, 8119, 8152, 8143,6.442937135696411
45, 8155, 8166, 8123, 8154, 8173, 8150, 8161, 8168, 8172, 8175, 8151, 8128, 8159, 8144,6.458961725234985
46, 8172, 8174, 8180, 8142, 8175, 8150, 8142, 8168, 8149, 8151, 8170, 8158, 8166, 8148,6.458961725234985
47, 8174, 8176, 8156, 8136, 8182, 8146, 8138, 8176, 8148, 8161, 8188, 8165, 8177, 8147,6.458961725234985
48, 8160, 8174, 8142, 8153, 8189, 8146, 8148, 8175, 8157, 8187, 8195, 8156, 8172, 8147,6.4750075340271
49, 8153, 8188, 8201, 8169, 8192, 8173, 8156, 8175, 8142, 8188, 8187, 8160, 8160, 8146,6.4750075340271
50, 8141, 8168, 8129, 8162, 8183, 8177, 8167, 8167, 8137, 8179, 8163, 8131, 8148, 8127,6.491048812866211
51, 8132, 8152, 8168, 8141, 8173, 8173, 8168, 8171, 8137, 8166, 8134, 8119, 8130, 8124,6.4915852546691895
52, 8136, 8157, 8151, 8152, 8185, 8181, 8189, 8174, 8152, 8178, 8136, 8120, 8139, 8141,6.507034063339233
53, 8143, 8150, 8126, 8143, 8180, 8169, 8191, 8168, 8165, 8178, 8145, 8115, 8156, 8143,6.507034063339233
54, 8142, 8150, 8188, 8109, 8163, 8168, 8169, 8178, 8172, 8169, 8147, 8137, 8162, 8147,6.523597478866577
55, 8138, 8146, 8125, 8112, 8170, 8161, 8169, 8173, 8180, 8186, 8170, 8148, 8176, 8154,6.523597478866577
56, 8149, 8154, 8174, 8121, 8170, 8140, 8154, 8166, 8159, 8177, 8182, 8160, 8181, 8152,6.537751913070679
57, 8157, 8172, 8176, 8141, 8166, 8142, 8150, 8170, 8165, 8169, 8185, 8171, 8184, 8152,6.537751913070679
58, 8156, 8172, 8135, 8145, 8170, 8140, 8158, 8170, 8178, 8176, 8190, 8169, 8179, 8152,6.553542852401733
59, 8160, 8174, 8195, 8123, 8164, 8139, 8154, 8180, 8156, 8166, 8186, 8181, 8165, 8150,6.553542852401733
60, 8161, 8173, 8142, 8147, 8175, 8153, 8168, 8177, 8159, 8175, 8188, 8174, 8170, 8153,6.569947719573975
61, 8162, 8182, 8186, 8180, 8194, 8172, 8180, 8174, 8165, 8180, 8183, 8168, 8168, 8154,6.569947719573975
62, 8147, 8176, 8188, 8178, 8189, 8163, 8176, 8177, 8151, 8170, 8168, 8160, 8152, 8149,6.586602210998535
63, 8130, 8147, 8124, 8152, 8172, 8145, 8162, 8165, 8139, 8166, 8146, 8135, 8145, 8142,6.586602210998535
64, 8128, 8139, 8179, 8124, 8157, 8161, 8150, 8167, 8140, 8165, 8120, 8126, 8137, 8145,6.60113787651062
65, 8131, 8142, 8125, 8126, 8160, 8158, 8162, 8171, 8177, 8189, 8129, 8122, 8145, 8150,6.601682662963867
66, 8152, 8147, 8157, 8120, 8164, 8141, 8160, 8173, 8195, 8195, 8154, 8145, 8165, 8155,6.616840600967407
67, 8157, 8152, 8177, 8111, 8159, 8144, 8145, 8173, 8179, 8174, 8157, 8161, 8167, 8156,6.616840600967407
68, 8148, 8154, 8129, 8119, 8159, 8139, 8136, 8166, 8169, 8157, 8149, 8147, 8153, 8146,6.632944583892822
69, 8164, 8180, 8206, 8131, 8172, 8151, 8141, 8180, 8166, 8151, 8156, 8165, 8154, 8148,6.632944583892822
70, 8175, 8186, 8165, 8152, 8186, 8171, 8166, 8181, 8178, 8170, 8177, 8175, 8176, 8157,6.649494647979736
71, 8173, 8170, 8177, 8153, 8174, 8170, 8163, 8170, 8170, 8176, 8177, 8172, 8174, 8168,6.649494647979736
72, 8161, 8169, 8195, 8148, 8165, 8175, 8156, 8177, 8157, 8177, 8151, 8160, 8153, 8167,6.663977146148682
73, 8150, 8155, 8131, 8150, 8167, 8180, 8168, 8172, 8160, 8181, 8124, 8129, 8147, 8156,6.663977146148682
74, 8164, 8155, 8198, 8140, 8159, 8188, 8171, 8173, 8159, 8171, 8121, 8137, 8155, 8166,6.680016756057739
75, 8173, 8165, 8153, 8151, 8159, 8178, 8179, 8175, 8180, 8184, 8144, 8156, 8179, 8185,6.680016756057739
76, 8167, 8161, 8146, 8140, 8155, 8153, 8161, 8173, 8183, 8180, 8146, 8159, 8185, 8184,6.696124076843262
77, 8161, 8158, 8180, 8113, 8147, 8150, 8140, 8171, 8161, 8153, 8137, 8153, 8173, 8170,6.696124076843262
78, 8160, 8157, 8116, 8127, 8147, 8141, 8138, 8161, 8141, 8143, 8145, 8135, 8163, 8152,6.711615324020386
79, 8169, 8185, 8189, 8154, 8160, 8146, 8133, 8169, 8127, 8141, 8158, 8156, 8162, 8156,6.711615324020386
80, 8175, 8200, 8168, 8176, 8183, 8160, 8146, 8173, 8148, 8158, 8179, 8171, 8176, 8176,6.7275941371917725
81, 8167, 8183, 8156, 8173, 8179, 8161, 8151, 8166, 8147, 8161, 8170, 8153, 8167, 8173,6.7275941371917725
82, 8160, 8183, 8197, 8173, 8174, 8182, 8160, 8179, 8130, 8165, 8146, 8142, 8157, 8170,6.743622064590454
83, 8165, 8179, 8133, 8189, 8186, 8193, 8195, 8177, 8148, 8193, 8153, 8133, 8176, 8183,6.743622064590454
84, 8173, 8174, 8186, 8165, 8174, 8179, 8188, 8169, 8152, 8180, 8158, 8143, 8181, 8185,6.759648323059082
85, 8170, 8166, 8152, 8141, 8157, 8160, 8150, 8165, 8147, 8156, 8154, 8141, 8179, 8174,6.759648323059082
86, 8171, 8156, 8130, 8128, 8150, 8138, 8126, 8159, 8140, 8150, 8155, 8141, 8174, 8164,6.774830341339111
87, 8172, 8172, 8192, 8125, 8150, 8141, 8129, 8169, 8131, 8149, 8164, 8171, 8171, 8167,6.774830341339111
88, 8167, 8174, 8134, 8157, 8165, 8158, 8153, 8167, 8138, 8167, 8171, 8164, 8177, 8169,6.7908642292022705
89, 8166, 8169, 8185, 8167, 8169, 8176, 8161, 8166, 8131, 8172, 8151, 8145, 8163, 8171,6.7908642292022705
90, 8156, 8167, 8166, 8152, 8159, 8185, 8173, 8168, 8137, 8179, 8142, 8136, 8157, 8176,6.806750059127808
91, 8162, 8166, 8139, 8141, 8159, 8173, 8176, 8165, 8161, 8186, 8151, 8141, 8178, 8180,6.806750059127808
92, 8182, 8180, 8206, 8143, 8167, 8174, 8168, 8178, 8170, 8181, 8158, 8168, 8189, 8185,6.82187032699585
93, 8183, 8184, 8147, 8162, 8175, 8171, 8178, 8180, 8172, 8185, 8178, 8173, 8192, 8185,6.82187032699585
94, 8195, 8194, 8193, 8162, 8175, 8167, 8165, 8177, 8153, 8169, 8190, 8190, 8189, 8179,6.83800482749939
95, 8195, 8194, 8190, 8160, 8180, 8170, 8153, 8173, 8146, 8165, 8186, 8193, 8181, 8173,6.83800482749939
96, 8167, 8178, 8148, 8165, 8184, 8163, 8153, 8164, 8141, 8171, 8168, 8162, 8162, 8171,6.85384202003479
97, 8158, 8189, 8212, 8177, 8181, 8176, 8151, 8171, 8121, 8166, 8156, 8160, 8151, 8173,6.85384202003479
98, 8172, 8185, 8150, 8193, 8182, 8188, 8165, 8165, 8138, 8185, 8160, 8157, 8174, 8176,6.869373083114624
99, 8184, 8175, 8179, 8171, 8176, 8184, 8181, 8168, 8158, 8198, 8161, 8162, 8194, 8190,6.869373083114624
100, 8185, 8185, 8189, 8174, 8180, 8185, 8193, 8182, 8171, 8206, 8172, 8175, 8199, 8206,6.8841423988342285
101, 8185, 8180, 8142, 8189, 8179, 8175, 8188, 8169, 8173, 8203, 8175, 8176, 8195, 8207,6.8841423988342285
102, 8192, 8173, 8206, 8158, 8164, 8169, 8167, 8169, 8161, 8185, 8169, 8190, 8204, 8204,6.8997180461883545
103, 8196, 8174, 8153, 8152, 8172, 8157, 8161, 8176, 8163, 8186, 8187, 8190, 8221, 8194,6.8997180461883545
104, 8187, 8185, 8176, 8171, 8185, 8155, 8148, 8171, 8147, 8172, 8194, 8188, 8206, 8173,6.915817022323608
105, 8165, 8192, 8192, 8183, 8187, 8175, 8150, 8167, 8137, 8161, 8185, 8183, 8188, 8165,6.915817022323608
106, 8170, 8185, 8148, 8196, 8190, 8168, 8159, 8166, 8147, 8178, 8182, 8173, 8192, 8172,6.930868864059448
107, 8185, 8192, 8220, 8200, 8186, 8164, 8142, 8176, 8141, 8181, 8171, 8179, 8188, 8176,6.930868864059448
108, 8168, 8186, 8160, 8207, 8188, 8178, 8150, 8171, 8159, 8194, 8166, 8168, 8191, 8175,6.947181940078735
109, 8174, 8174, 8169, 8196, 8190, 8183, 8170, 8166, 8178, 8217, 8184, 8181, 8211, 8195,6.963023662567139
110, 8195, 8180, 8199, 8188, 8185, 8184, 8181, 8176, 8184, 8231, 8196, 8204, 8225, 8212,6.963023662567139
111, 8182, 8172, 8136, 8184, 8182, 8171, 8183, 8168, 8188, 8224, 8181, 8184, 8212, 8191,6.963023662567139
112, 8172, 8167, 8195, 8158, 8173, 8162, 8165, 8169, 8171, 8196, 8158, 8179, 8189, 8173,6.978633880615234
113, 8171, 8163, 8149, 8152, 8165, 8147, 8159, 8167, 8153, 8186, 8166, 8176, 8187, 8165,6.978633880615234
114, 8169, 8166, 8156, 8155, 8163, 8138, 8153, 8165, 8135, 8167, 8176, 8173, 8186, 8155,6.993558168411255
115, 8177, 8190, 8203, 8171, 8181, 8162, 8155, 8178, 8140, 8166, 8182, 8188, 8189, 8169,7.009650468826294
116, 8185, 8193, 8146, 8203, 8195, 8170, 8166, 8174, 8158, 8200, 8199, 8182, 8204, 8187,7.009650468826294
117, 8180, 8185, 8208, 8198, 8186, 8168, 8156, 8179, 8145, 8202, 8191, 8176, 8197, 8181,7.025592803955078
118, 8161, 8172, 8167, 8183, 8189, 8176, 8171, 8182, 8162, 8206, 8178, 8162, 8195, 8176,7.025592803955078
119, 8155, 8160, 8150, 8170, 8184, 8178, 8184, 8168, 8175, 8211, 8162, 8146, 8192, 8176,7.025592803955078
120, 8155, 8158, 8195, 8164, 8162, 8179, 8173, 8167, 8152, 8196, 8143, 8150, 8185, 8174,7.04357647895813
121, 8149, 8142, 8130, 8163, 8155, 8174, 8166, 8167, 8152, 8193, 8149, 8149, 8199, 8173,7.04357647895813
122, 8157, 8148, 8182, 8145, 8152, 8176, 8163, 8171, 8163, 8189, 8164, 8170, 8209, 8177,7.055234432220459
123, 8172, 8168, 8160, 8155, 8156, 8172, 8176, 8173, 8176, 8196, 8174, 8182, 8215, 8181,7.055234432220459
124, 8186, 8178, 8154, 8167, 8167, 8159, 8174, 8174, 8178, 8199, 8183, 8188, 8222, 8182,7.07341742515564
125, 8191, 8183, 8214, 8161, 8171, 8162, 8159, 8182, 8174, 8186, 8197, 8209, 8224, 8185,7.074417591094971
126, 8186, 8172, 8142, 8158, 8172, 8151, 8160, 8168, 8177, 8182, 8197, 8197, 8219, 8174,7.086977958679199
127, 8183, 8176, 8187, 8144, 8173, 8147, 8146, 8164, 8153, 8172, 8177, 8191, 8197, 8165,7.10308837890625
236, 8174, 8184, 8172, 8164, 8173, 8162, 8141, 8172, 8145, 8176, 8185, 8192, 8190, 8173,7.10308837890625
0, 8171, 8173, 8150, 8188, 8166, 8161, 8152, 8166, 8153, 8181, 8192, 8186, 8188, 8177,7.119142532348633
1, 8178, 8179, 8218, 8190, 8168, 8178, 8164, 8171, 8157, 8184, 8178, 8198, 8187, 8183,7.119142532348633
2, 8172, 8175, 8151, 8203, 8165, 8190, 8182, 8171, 8167, 8201, 8176, 8193, 8190, 8187,7.134328603744507
3, 8161, 8162, 8183, 8182, 8142, 8180, 8173, 8171, 8153, 8183, 8164, 8191, 8173, 8185,7.134328603744507
4, 8160, 8158, 8173, 8159, 8142, 8172, 8165, 8172, 8162, 8178, 8156, 8193, 8171, 8181,7.151988744735718
5, 8178, 8166, 8141, 8165, 8151, 8162, 8157, 8165, 8196, 8198, 8185, 8203, 8199, 8185,7.151988744735718
6, 8188, 8187, 8211, 8162, 8146, 8164, 8143, 8173, 8188, 8183, 8201, 8232, 8198, 8180,7.151988744735718
7, 8178, 8191, 8152, 8170, 8152, 8159, 8149, 8167, 8160, 8161, 8187, 8220, 8173, 8159,7.166656255722046
8, 8179, 8191, 8187, 8172, 8154, 8148, 8143, 8163, 8135, 8140, 8166, 8206, 8153, 8149,7.166656255722046
9, 8168, 8181, 8185, 8163, 8149, 8150, 8139, 8166, 8132, 8136, 8153, 8196, 8140, 8146,7.1838905811309814
10, 8142, 8151, 8126, 8160, 8145, 8159, 8149, 8157, 8130, 8146, 8136, 8165, 8131, 8139,7.1838905811309814
11, 8138, 8149, 8191, 8162, 8140, 8183, 8163, 8166, 8128, 8155, 8124, 8166, 8133, 8154,7.197965383529663
12, 8143, 8149, 8135, 8166, 8143, 8181, 8174, 8168, 8158, 8169, 8139, 8173, 8151, 8172,7.197965383529663
13, 8150, 8142, 8154, 8143, 8139, 8158, 8151, 8164, 8159, 8155, 8150, 8182, 8154, 8163,7.212710618972778
14, 8148, 8151, 8168, 8143, 8139, 8155, 8133, 8168, 8136, 8137, 8156, 8189, 8149, 8148,7.2280943393707275
15, 8145, 8159, 8119, 8160, 8152, 8150, 8136, 8166, 8132, 8137, 8164, 8185, 8146, 8141,7.2280943393707275
16, 8155, 8175, 8193, 8159, 8156, 8159, 8144, 8174, 8132, 8136, 8164, 8199, 8137, 8145,7.247190475463867
17, 8146, 8170, 8143, 8179, 8160, 8174, 8170, 8175, 8143, 8154, 8160, 8178, 8145, 8146,7.247190475463867
18, 8130, 8149, 8146, 8173, 8156, 8174, 8163, 8167, 8134, 8155, 8137, 8148, 8134, 8133,7.247190475463867
19, 8126, 8144, 8166, 8155, 8148, 8179, 8152, 8165, 8130, 8150, 8126, 8145, 8120, 8124,7.259684324264526
20, 8131, 8140, 8116, 8159, 8150, 8179, 8169, 8160, 8157, 8168, 8146, 8148, 8140, 8141,7.2755560874938965
21, 8147, 8146, 8192, 8146, 8151, 8181, 8166, 8173, 8166, 8177, 8158, 8173, 8163, 8168,7.2755560874938965
22, 8155, 8148, 8151, 8140, 8147, 8172, 8156, 8172, 8164, 8181, 8160, 8183, 8168, 8171,7.291162490844727
23, 8163, 8156, 8156, 8143, 8144, 8157, 8148, 8159, 8143, 8166, 8164, 8188, 8159, 8159,7.291162490844727
24, 8178, 8183, 8201, 8161, 8159, 8171, 8154, 8169, 8137, 8158, 8193, 8210, 8171, 8168,7.3081488609313965
25, 8175, 8184, 8141, 8177, 8173, 8173, 8163, 8169, 8150, 8166, 8213, 8197, 8184, 8167,7.3091466426849365
26, 8159, 8175, 8197, 8155, 8155, 8162, 8140, 8168, 8131, 8144, 8178, 8181, 8154, 8148,7.3091466426849365
27, 8154, 8171, 8162, 8164, 8151, 8155, 8136, 8169, 8130, 8148, 8158, 8173, 8146, 8144,7.322631120681763
28, 8161, 8171, 8160, 8185, 8165, 8159, 8154, 8172, 8147, 8173, 8170, 8169, 8162, 8155,7.338262319564819
29, 8150, 8169, 8204, 8182, 8162, 8176, 8168, 8180, 8157, 8177, 8167, 8166, 8157, 8156,7.338262319564819
30, 8137, 8154, 8132, 8178, 8158, 8176, 8178, 8169, 8171, 8179, 8152, 8150, 8151, 8148,7.354851484298706
31, 8151, 8160, 8185, 8172, 8163, 8183, 8178, 8170, 8176, 8179, 8148, 8163, 8154, 8155,7.354851484298706
32, 8152, 8162, 8159, 8170, 8165, 8187, 8188, 8172, 8191, 8194, 8160, 8165, 8160, 8162,7.372663736343384
33, 8153, 8149, 8145, 8163, 8156, 8170, 8186, 8166, 8197, 8201, 8162, 8158, 8165, 8166,7.372663736343384
34, 8174, 8167, 8209, 8165, 8152, 8167, 8182, 8173, 8198, 8197, 8170, 8189, 8182, 8183,7.372663736343384
35, 8187, 8177, 8147, 8173, 8155, 8158, 8189, 8168, 8215, 8207, 8195, 8205, 8200, 8187,7.389713525772095
36, 8191, 8175, 8193, 8154, 8152, 8146, 8161, 8169, 8204, 8186, 8190, 8213, 8186, 8176,7.389713525772095
37, 8168, 8159, 8167, 8141, 8149, 8139, 8141, 8174, 8182, 8157, 8165, 8200, 8165, 8159,7.40176248550415
38, 8147, 8144, 8133, 8134, 8138, 8126, 8137, 8167, 8162, 8147, 8159, 8186, 8151, 8141,7.417166471481323
39, 8158, 8162, 8199, 8136, 8133, 8132, 8128, 8167, 8141, 8139, 8167, 8199, 8141, 8135,7.417166471481323
40, 8161, 8166, 8142, 8159, 8153, 8145, 8139, 8166, 8147, 8146, 8170, 8190, 8146, 8135,7.43232536315918
41, 8154, 8171, 8186, 8164, 8170, 8162, 8151, 8174, 8152, 8152, 8169, 8187, 8153, 8141,7.43232536315918
42, 8140, 8182, 8177, 8178, 8175, 8179, 8166, 8177, 8162, 8174, 8178, 8181, 8156, 8147,7.447164535522461
43, 8131, 8172, 8134, 8191, 8169, 8172, 8169, 8165, 8165, 8181, 8160, 8158, 8144, 8132,7.447164535522461
44, 8128, 8162, 8191, 8170, 8158, 8176, 8154, 8168, 8145, 8155, 8129, 8158, 8126, 8121,7.462637424468994
45, 8123, 8148, 8124, 8164, 8150, 8175, 8159, 8164, 8150, 8162, 8134, 8151, 8129, 8129,7.462637424468994
46, 8131, 8154, 8165, 8162, 8142, 8166, 8166, 8166, 8162, 8176, 8140, 8158, 8141, 8140,7.478040456771851
47, 8140, 8173, 8173, 8163, 8150, 8169, 8174, 8175, 8176, 8185, 8144, 8172, 8156, 8149,7.478040456771851
48, 8139, 8160, 8118, 8161, 8154, 8160, 8160, 8160, 8178, 8177, 8148, 8170, 8151, 8139,7.493575096130371
49, 8132, 8149, 8183, 8139, 8140, 8157, 8129, 8159, 8162, 8153, 8134, 8172, 8127, 8120,7.493575096130371
50, 8133, 8154, 8132, 8140, 8149, 8153, 8139, 8166, 8174, 8163, 8140, 8163, 8130, 8112,7.508954286575317
51, 8157, 8175, 8174, 8150, 8157, 8143, 8138, 8172, 8168, 8160, 8164, 8183, 8137, 8118,7.508954286575317
52, 8171, 8191, 8202, 8170, 8153, 8153, 8131, 8173, 8149, 8148, 8173, 8201, 8137, 8124,7.5243330001831055
53, 8155, 8175, 8144, 8178, 8157, 8164, 8145, 8160, 8147, 8154, 8154, 8168, 8128, 8119,7.5243330001831055
54, 8140, 8165, 8202, 8155, 8160, 8178, 8155, 8170, 8146, 8152, 8124, 8155, 8106, 8119,7.5408546924591064
55, 8139, 8164, 8152, 8162, 8160, 8182, 8177, 8171, 8168, 8164, 8126, 8156, 8110, 8133,7.5408546924591064
56, 8159, 8168, 8172, 8171, 8153, 8172, 8181, 8169, 8181, 8170, 8131, 8168, 8132, 8155,7.556324243545532
57, 8170, 8168, 8195, 8161, 8144, 8164, 8162, 8175, 8185, 8175, 8137, 8185, 8147, 8161,7.556324243545532
58, 8164, 8155, 8130, 8146, 8142, 8142, 8138, 8159, 8178, 8168, 8156, 8182, 8149, 8143,7.571703195571899
59, 8167, 8171, 8201, 8138, 8139, 8138, 8113, 8162, 8142, 8129, 8158, 8190, 8129, 8127,7.571703195571899
60, 8165, 8181, 8162, 8167, 8151, 8151, 8119, 8168, 8133, 8119, 8153, 8183, 8119, 8121,7.587773323059082
61, 8165, 8174, 8167, 8186, 8162, 8160, 8124, 8163, 8135, 8128, 8147, 8173, 8119, 8127,7.587773323059082
62, 8169, 8177, 8207, 8189, 8166, 8180, 8140, 8168, 8145, 8141, 8142, 8179, 8126, 8143,7.6029438972473145
63, 8172, 8169, 8141, 8194, 8165, 8173, 8163, 8163, 8172, 8164, 8141, 8175, 8139, 8149,7.6029438972473145
64, 8168, 8163, 8193, 8157, 8150, 8149, 8143, 8161, 8161, 8154, 8138, 8185, 8132, 8143,7.6190221309661865
65, 8162, 8169, 8159, 8145, 8147, 8147, 8134, 8161, 8147, 8145, 8151, 8186, 8126, 8127,7.6190221309661865
66, 8178, 8184, 8168, 8174, 8161, 8157, 8143, 8159, 8141, 8142, 8161, 8191, 8127, 8123,7.634912014007568
67, 8177, 8187, 8216, 8184, 8167, 8171, 8149, 8168, 8140, 8145, 8158, 8200, 8128, 8137,7.634912014007568
68, 8152, 8155, 8133, 8180, 8162, 8171, 8156, 8168, 8154, 8172, 8144, 8177, 8132, 8138,7.6512534618377686
69, 8151, 8144, 8183, 8168, 8149, 8177, 8156, 8173, 8151, 8174, 8122, 8169, 8126, 8138,7.6512534618377686
70, 8151, 8149, 8161, 8156, 8146, 8172, 8158, 8170, 8154, 8166, 8118, 8165, 8126, 8145,7.667002439498901
71, 8147, 8146, 8146, 8136, 8143, 8149, 8140, 8157, 8151, 8150, 8128, 8169, 8133, 8141,7.667002439498901
72, 8160, 8161, 8198, 8122, 8138, 8154, 8128, 8164, 8140, 8129, 8141, 8195, 8140, 8132,7.681959867477417
73, 8163, 8166, 8130, 8128, 8136, 8157, 8135, 8165, 8139, 8132, 8149, 8185, 8138, 8124,7.681959867477417
74, 8160, 8168, 8186, 8135, 8137, 8148, 8117, 8164, 8127, 8131, 8146, 8182, 8125, 8121,7.697249174118042
75, 8163, 8175, 8180, 8163, 8149, 8147, 8118, 8164, 8133, 8139, 8155, 8197, 8131, 8133,7.697249174118042
76, 8163, 8168, 8152, 8175, 8144, 8145, 8136, 8164, 8131, 8133, 8153, 8192, 8136, 8132,7.7128870487213135
77, 8154, 8170, 8205, 8176, 8136, 8160, 8145, 8171, 8111, 8122, 8136, 8176, 8132, 8121,7.7128870487213135
78, 8147, 8165, 8136, 8205, 8147, 8170, 8167, 8164, 8127, 8154, 8140, 8160, 8147, 8131,7.729013204574585
79, 8159, 8161, 8178, 8204, 8149, 8182, 8175, 8166, 8144, 8171, 8145, 8179, 8151, 8147,7.729013204574585
80, 8163, 8167, 8177, 8204, 8155, 8196, 8177, 8173, 8155, 8164, 8147, 8189, 8152, 8147,7.744557619094849
81, 8168, 8167, 8147, 8215, 8158, 8175, 8176, 8170, 8178, 8178, 8163, 8186, 8169, 8155,7.744557619094849
82, 8178, 8170, 8205, 8198, 8153, 8165, 8171, 8179, 8203, 8201, 8175, 8212, 8183, 8176,7.760084629058838
83, 8167, 8159, 8134, 8185, 8154, 8163, 8166, 8169, 8203, 8199, 8179, 8207, 8181, 8163,7.760084629058838
84, 8169, 8164, 8172, 8172, 8146, 8147, 8139, 8164, 8159, 8160, 8177, 8202, 8164, 8138,7.776134967803955
85, 8179, 8181, 8171, 8180, 8146, 8144, 8137, 8173, 8150, 8156, 8189, 8218, 8165, 8145,7.776134967803955
86, 8177, 8177, 8123, 8189, 8161, 8152, 8151, 8164, 8174, 8183, 8206, 8219, 8179, 8153,7.791881322860718
87, 8171, 8174, 8198, 8162, 8152, 8152, 8131, 8166, 8163, 8174, 8201, 8215, 8164, 8140,7.791881322860718
88, 8156, 8163, 8134, 8156, 8132, 8143, 8126, 8168, 8152, 8167, 8187, 8187, 8142, 8123,7.807804107666016
89, 8154, 8164, 8157, 8174, 8136, 8171, 8148, 8171, 8153, 8172, 8169, 8181, 8139, 8133,7.807804107666016
90, 8166, 8174, 8185, 8192, 8155, 8207, 8170, 8176, 8168, 8190, 8162, 8192, 8153, 8156,7.823396921157837
91, 8168, 8154, 8134, 8183, 8160, 8193, 8176, 8165, 8174, 8204, 8166, 8179, 8151, 8159,7.823396921157837
92, 8158, 8143, 8185, 8150, 8150, 8192, 8169, 8171, 8153, 8179, 8150, 8171, 8132, 8146,7.838936805725098
93, 8135, 8132, 8118, 8137, 8146, 8195, 8176, 8170, 8151, 8164, 8129, 8151, 8133, 8129,7.838936805725098
94, 8126, 8129, 8136, 8119, 8134, 8179, 8168, 8162, 8153, 8163, 8119, 8149, 8133, 8126,7.855225086212158
95, 8131, 8144, 8167, 8113, 8128, 8180, 8165, 8171, 8172, 8173, 8133, 8165, 8139, 8142,7.855225086212158
96, 8138, 8139, 8112, 8121, 8133, 8174, 8175, 8173, 8205, 8182, 8151, 8168, 8161, 8152,7.871212482452393
97, 8146, 8151, 8187, 8110, 8138, 8167, 8167, 8180, 8198, 8173, 8161, 8190, 8168, 8150,7.871212482452393
98, 8150, 8164, 8147, 8120, 8146, 8158, 8158, 8172, 8180, 8178, 8182, 8193, 8171, 8140,7.886463165283203
99, 8157, 8164, 8153, 8125, 8140, 8149, 8148, 8159, 8156, 8169, 8179, 8190, 8164, 8130,7.886463165283203
100, 8165, 8178, 8188, 8130, 8142, 8168, 8161, 8171, 8149, 8164, 8176, 8204, 8162, 8143,7.90168571472168
101, 8168, 8183, 8135, 8150, 8155, 8173, 8181, 8174, 8159, 8174, 8199, 8202, 8173, 8159,7.90168571472168
102, 8167, 8183, 8207, 8151, 8149, 8168, 8164, 8172, 8138, 8152, 8188, 8205, 8159, 8148,7.917809724807739
103, 8154, 8172, 8163, 8160, 8152, 8176, 8167, 8170, 8141, 8154, 8160, 8186, 8144, 8140,7.917809724807739
104, 8148, 8163, 8148, 8165, 8161, 8180, 8181, 8167, 8164, 8175, 8152, 8165, 8145, 8151,7.93390679359436
105, 8152, 8167, 8194, 8163, 8159, 8186, 8186, 8172, 8179, 8188, 8162, 8179, 8154, 8162,7.93390679359436
106, 8157, 8157, 8132, 8169, 8154, 8186, 8199, 8162, 8201, 8214, 8167, 8182, 8166, 8163,7.949948310852051
107, 8164, 8154, 8186, 8148, 8143, 8187, 8193, 8165, 8202, 8213, 8154, 8180, 8163, 8170,7.949948310852051
108, 8166, 8156, 8159, 8142, 8139, 8182, 8189, 8173, 8197, 8196, 8154, 8174, 8165, 8169,7.965602159500122
109, 8175, 8154, 8150, 8145, 8138, 8156, 8178, 8165, 8179, 8172, 8162, 8185, 8174, 8158,7.965602159500122
110, 8179, 8160, 8200, 8144, 8137, 8150, 8158, 8166, 8157, 8157, 8163, 8205, 8166, 8156,7.980972528457642
111, 8169, 8158, 8133, 8151, 8148, 8153, 8155, 8163, 8164, 8165, 8164, 8187, 8155, 8149,7.980972528457642
112, 8173, 8165, 8190, 8145, 8148, 8145, 8144, 8166, 8157, 8148, 8162, 8190, 8149, 8142,7.997069358825684
113, 8177, 8176, 8177, 8168, 8153, 8137, 8151, 8173, 8156, 8149, 8181, 8205, 8160, 8146,7.997069358825684
114, 8176, 8180, 8156, 8192, 8167, 8143, 8166, 8169, 8165, 8175, 8201, 8205, 8167, 8151,8.01459550857544
115, 8174, 8186, 8211, 8186, 8166, 8167, 8166, 8169, 8159, 8176, 8189, 8206, 8159, 8151,8.01459550857544
116, 8171, 8180, 8144, 8199, 8160, 8168, 8170, 8164, 8152, 8168, 8168, 8185, 8148, 8144,8.035796403884888
117, 8176, 8183, 8194, 8205, 8170, 8166, 8169, 8173, 8138, 8158, 8159, 8184, 8139, 8151,8.035796403884888
118, 8171, 8180, 8190, 8201, 8181, 8175, 8180, 8178, 8150, 8171, 8161, 8187, 8144, 8160,8.035796403884888
119, 8165, 8163, 8145, 8194, 8171, 8172, 8193, 8168, 8181, 8190, 8158, 8177, 8150, 8158,8.043834686279297
120, 8172, 8173, 8210, 8189, 8166, 8181, 8192, 8175, 8198, 8202, 8157, 8194, 8158, 8165,8.058803081512451
121, 8175, 8175, 8160, 8200, 8175, 8176, 8191, 8170, 8207, 8217, 8169, 8197, 8172, 8178,8.058803081512451
122, 8176, 8167, 8191, 8186, 8162, 8164, 8172, 8166, 8196, 8202, 8159, 8192, 8160, 8175,8.074089288711548
123, 8172, 8162, 8189, 8168, 8148, 8162, 8168, 8173, 8195, 8199, 8153, 8194, 8159, 8162,8.074089288711548
124, 8169, 8148, 8145, 8158, 8152, 8149, 8172, 8167, 8200, 8206, 8166, 8194, 8176, 8163,8.089599132537842
125, 8169, 8156, 8201, 8143, 8153, 8149, 8162, 8166, 8189, 8185, 8168, 8208, 8170, 8170,8.089599132537842
126, 8175, 8163, 8141, 8148, 8153, 8153, 8173, 8165, 8199, 8180, 8168, 8203, 8168, 8160,8.10565185546875
127, 8184, 8163, 8168, 8139, 8149, 8143, 8172, 8170, 8192, 8167, 8161, 8194, 8165, 8142,8.10565185546875
236, 8167, 8162, 8177, 8132, 8147, 8142, 8161, 8179, 8166, 8141, 8152, 8186, 8146, 8131,8.121766805648804
0, 8147, 8156, 8128, 8143, 8159, 8146, 8164, 8169, 8159, 8139, 8152, 8176, 8131, 8130,8.121766805648804
1, 8161, 8173, 8205, 8159, 8176, 8170, 8179, 8170, 8160, 8158, 8151, 8188, 8136, 8149,8.136942148208618
2, 8164, 8171, 8152, 8178, 8184, 8184, 8202, 8167, 8171, 8183, 8152, 8170, 8147, 8161,8.136942148208618
3, 8144, 8144, 8153, 8159, 8167, 8176, 8194, 8163, 8163, 8175, 8142, 8152, 8135, 8146,8.15353798866272
4, 8136, 8134, 8171, 8135, 8151, 8179, 8177, 8171, 8166, 8176, 8139, 8161, 8137, 8142,8.15353798866272
5, 8152, 8135, 8121, 8130, 8149, 8168, 8166, 8164, 8196, 8199, 8147, 8167, 8158, 8157,8.168055295944214
6, 8168, 8144, 8192, 8121, 8145, 8154, 8145, 8161, 8190, 8186, 8148, 8183, 8161, 8166,8.168055295944214
7, 8167, 8147, 8149, 8137, 8150, 8151, 8155, 8160, 8192, 8190, 8168, 8190, 8175, 8170,8.183616161346436
8, 8177, 8155, 8168, 8140, 8159, 8146, 8164, 8161, 8202, 8197, 8190, 8208, 8191, 8176,8.183616161346436
9, 8185, 8176, 8207, 8140, 8170, 8153, 8166, 8175, 8196, 8182, 8191, 8221, 8183, 8170,8.198782444000244
10, 8172, 8181, 8139, 8179, 8181, 8162, 8185, 8170, 8192, 8184, 8188, 8193, 8170, 8152,8.215782880783081
11, 8168, 8186, 8210, 8201, 8181, 8179, 8196, 8173, 8184, 8187, 8178, 8189, 8157, 8153,8.215782880783081
12, 8160, 8176, 8170, 8203, 8185, 8183, 8205, 8174, 8193, 8188, 8169, 8181, 8156, 8158,8.215782880783081
13, 8147, 8154, 8149, 8184, 8179, 8171, 8200, 8167, 8186, 8179, 8150, 8161, 8150, 8150,8.231808423995972
14, 8155, 8152, 8191, 8168, 8164, 8180, 8206, 8167, 8178, 8177, 8140, 8164, 8147, 8145,8.231808423995972
15, 8166, 8151, 8127, 8177, 8166, 8175, 8222, 8160, 8197, 8191, 8143, 8162, 8154, 8155,8.247356414794922
16, 8166, 8154, 8190, 8169, 8169, 8164, 8202, 8168, 8187, 8181, 8131, 8172, 8153, 8165,8.247356414794922
17, 8150, 8147, 8154, 8165, 8166, 8165, 8189, 8168, 8172, 8179, 8131, 8168, 8156, 8160,8.263267993927002
18, 8155, 8138, 8129, 8154, 8161, 8158, 8189, 8159, 8168, 8177, 8141, 8156, 8161, 8159,8.263267993927002
19, 8175, 8158, 8194, 8140, 8167, 8160, 8182, 8174, 8175, 8172, 8151, 8176, 8167, 8168,8.27981948852539
20, 8164, 8153, 8125, 8146, 8174, 8149, 8172, 8166, 8181, 8174, 8161, 8178, 8174, 8161,8.27981948852539
21, 8162, 8145, 8174, 8137, 8163, 8138, 8151, 8161, 8162, 8154, 8154, 8178, 8163, 8157,8.294912815093994
22, 8173, 8161, 8168, 8139, 8170, 8145, 8166, 8171, 8170, 8160, 8156, 8180, 8164, 8163,8.294912815093994
23, 8174, 8164, 8133, 8136, 8181, 8151, 8182, 8165, 8177, 8169, 8161, 8173, 8165, 8150,8.310001611709595
24, 8168, 8166, 8183, 8129, 8167, 8153, 8164, 8167, 8156, 8147, 8153, 8171, 8150, 8139,8.310001611709595
25, 8165, 8163, 8128, 8145, 8168, 8148, 8165, 8165, 8158, 8149, 8152, 8159, 8144, 8148,8.32701301574707
26, 8167, 8170, 8183, 8147, 8179, 8161, 8173, 8167, 8156, 8156, 8154, 8166, 8140, 8149,8.32701301574707
27, 8161, 8171, 8173, 8153, 8184, 8169, 8176, 8174, 8150, 8157, 8157, 8164, 8137, 8143,8.343109369277954
28, 8161, 8166, 8142, 8165, 8182, 8152, 8167, 8169, 8146, 8151, 8158, 8153, 8133, 8144,8.343109369277954
29, 8168, 8184, 8214, 8171, 8188, 8168, 8164, 8172, 8142, 8152, 8163, 8171, 8138, 8152,8.358114004135132
30, 8163, 8176, 8144, 8182, 8202, 8186, 8185, 8165, 8155, 8174, 8164, 8165, 8155, 8154,8.358114004135132
31, 8167, 8163, 8172, 8177, 8201, 8189, 8187, 8168, 8158, 8177, 8151, 8163, 8155, 8160,8.373037815093994
32, 8173, 8164, 8180, 8181, 8195, 8196, 8192, 8183, 8168, 8182, 8156, 8172, 8157, 8179,8.373037815093994
33, 8170, 8148, 8137, 8173, 8179, 8183, 8193, 8170, 8165, 8179, 8148, 8159, 8160, 8173,8.389606952667236
34, 8165, 8144, 8193, 8141, 8160, 8172, 8174, 8158, 8139, 8155, 8122, 8158, 8147, 8157,8.389606952667236
35, 8166, 8147, 8138, 8145, 8166, 8169, 8178, 8155, 8160, 8173, 8142, 8165, 8158, 8171,8.405556678771973
36, 8186, 8158, 8176, 8156, 8172, 8157, 8163, 8157, 8172, 8184, 8166, 8191, 8181, 8189,8.420964002609253
37, 8187, 8168, 8185, 8150, 8169, 8149, 8132, 8158, 8142, 8160, 8164, 8199, 8176, 8170,8.420964002609253
38, 8168, 8162, 8128, 8143, 8173, 8146, 8130, 8159, 8124, 8144, 8170, 8183, 8157, 8143,8.420964002609253
39, 8175, 8176, 8204, 8143, 8180, 8162, 8151, 8176, 8138, 8153, 8184, 8206, 8158, 8153,8.436169147491455
40, 8182, 8183, 8156, 8170, 8191, 8172, 8183, 8173, 8168, 8179, 8183, 8208, 8169, 8162,8.436169147491455
41, 8169, 8171, 8167, 8171, 8185, 8167, 8182, 8168, 8163, 8179, 8171, 8184, 8153, 8146,8.45201587677002
42, 8161, 8166, 8190, 8168, 8180, 8180, 8186, 8176, 8153, 8179, 8172, 8178, 8146, 8146,8.466078758239746
43, 8169, 8158, 8133, 8185, 8180, 8183, 8204, 8169, 8159, 8187, 8162, 8169, 8156, 8155,8.466078758239746
44, 8168, 8154, 8194, 8170, 8168, 8178, 8192, 8169, 8149, 8172, 8143, 8168, 8149, 8155,8.481091499328613
45, 8157, 8143, 8146, 8152, 8166, 8173, 8189, 8165, 8152, 8184, 8154, 8163, 8155, 8158,8.481091499328613
46, 8171, 8145, 8159, 8149, 8170, 8177, 8197, 8164, 8166, 8199, 8165, 8176, 8170, 8171,8.49666690826416
47, 8189, 8166, 8198, 8159, 8174, 8183, 8197, 8180, 8179, 8193, 8173, 8200, 8175, 8177,8.49666690826416
48, 8188, 8167, 8137, 8161, 8175, 8149, 8179, 8172, 8174, 8181, 8190, 8191, 8174, 8165,8.512022972106934
49, 8190, 8180, 8201, 8146, 8169, 8134, 8150, 8164, 8143, 8156, 8192, 8195, 8164, 8157,8.512022972106934
50, 8195, 8195, 8170, 8165, 8179, 8151, 8161, 8162, 8148, 8162, 8203, 8206, 8169, 8157,8.527794122695923
51, 8205, 8191, 8175, 8181, 8191, 8151, 8174, 8160, 8151, 8169, 8214, 8215, 8175, 8160,8.527794122695923
52, 8200, 8191, 8214, 8182, 8188, 8157, 8173, 8171, 8129, 8163, 8203, 8217, 8171, 8163,8.54297661781311
53, 8177, 8178, 8136, 8192, 8185, 8171, 8188, 8166, 8132, 8174, 8188, 8184, 8166, 8155,8.54297661781311
54, 8167, 8165, 8190, 8177, 8182, 8193, 8201, 8168, 8140, 8175, 8168, 8170, 8156, 8147,8.559215784072876
55, 8152, 8148, 8154, 8160, 8176, 8194, 8221, 8175, 8157, 8180, 8155, 8160, 8153, 8146,8.559215784072876
56, 8140, 8130, 8129, 8140, 8166, 8178, 8220, 8170, 8171, 8180, 8150, 8151, 8148, 8141,8.574560165405273
57, 8152, 8143, 8187, 8127, 8159, 8184, 8201, 8176, 8175, 8176, 8151, 8161, 8148, 8143,8.574560165405273
58, 8164, 8155, 8128, 8141, 8158, 8169, 8192, 8167, 8184, 8183, 8170, 8159, 8162, 8148,8.589945316314697
59, 8179, 8163, 8183, 8139, 8157, 8149, 8177, 8162, 8169, 8173, 8184, 8179, 8167, 8149,8.589945316314697
60, 8188, 8171, 8172, 8147, 8164, 8161, 8177, 8165, 8161, 8173, 8193, 8195, 8173, 8150,8.606019020080566
61, 8183, 8173, 8152, 8161, 8170, 8172, 8178, 8161, 8150, 8169, 8198, 8194, 8174, 8148,8.606019020080566
62, 8176, 8183, 8210, 8162, 8175, 8176, 8167, 8164, 8123, 8148, 8193, 8197, 8166, 8147,8.621564149856567
63, 8176, 8180, 8146, 8183, 8188, 8174, 8171, 8160, 8119, 8156, 8186, 8169, 8159, 8143,8.621564149856567
64, 8187, 8185, 8195, 8194, 8189, 8178, 8182, 8163, 8116, 8165, 8187, 8169, 8158, 8152,8.636965036392212
65, 8185, 8184, 8188, 8195, 8188, 8192, 8205, 8168, 8121, 8177, 8200, 8185, 8178, 8169,8.636965036392212
66, 8177, 8165, 8149, 8193, 8187, 8191, 8209, 8162, 8123, 8182, 8201, 8173, 8185, 8174,8.65209412574768
67, 8182, 8173, 8208, 8196, 8183, 8189, 8204, 8166, 8124, 8181, 8191, 8177, 8174, 8175,8.65209412574768
68, 8188, 8172, 8148, 8200, 8183, 8181, 8220, 8164, 8162, 8206, 8197, 8185, 8190, 8177,8.668073892593384
69, 8188, 8163, 8184, 8171, 8174, 8171, 8203, 8166, 8178, 8204, 8192, 8192, 8196, 8172,8.668073892593384
70, 8174, 8161, 8174, 8159, 8169, 8157, 8180, 8168, 8169, 8180, 8185, 8182, 8178, 8158,8.68410873413086
71, 8173, 8159, 8123, 8165, 8172, 8146, 8174, 8160, 8177, 8176, 8194, 8175, 8182, 8143,8.68410873413086
72, 8183, 8174, 8202, 8158, 8174, 8160, 8172, 8174, 8187, 8179, 8206, 8204, 8198, 8140,8.699373245239258
73, 8179, 8181, 8156, 8177, 8185, 8158, 8177, 8175, 8187, 8183, 8213, 8196, 8195, 8139,8.699373245239258
74, 8179, 8182, 8184, 8192, 8187, 8153, 8174, 8166, 8158, 8168, 8199, 8183, 8176, 8143,8.714977502822876
75, 8176, 8183, 8196, 8199, 8188, 8179, 8187, 8173, 8145, 8168, 8189, 8185, 8175, 8151,8.714977502822876
76, 8168, 8165, 8141, 8202, 8192, 8183, 8207, 8171, 8170, 8194, 8191, 8166, 8182, 8157,8.730022668838501
77, 8170, 8158, 8200, 8182, 8187, 8184, 8208, 8177, 8187, 8204, 8186, 8167, 8181, 8168,8.730022668838501
78, 8170, 8153, 8139, 8174, 8182, 8178, 8210, 8172, 8199, 8205, 8186, 8172, 8186, 8165,8.7458176612854
79, 8182, 8155, 8160, 8170, 8171, 8155, 8186, 8168, 8186, 8186, 8192, 8185, 8184, 8159,8.7458176612854
80, 8198, 8171, 8194, 8176, 8176, 8161, 8173, 8174, 8175, 8178, 8209, 8202, 8188, 8164,8.760673999786377
81, 8186, 8171, 8138, 8197, 8198, 8169, 8191, 8166, 8180, 8190, 8215, 8189, 8184, 8157,8.760673999786377
82, 8165, 8174, 8199, 8200, 8194, 8174, 8194, 8174, 8173, 8187, 8192, 8176, 8160, 8149,8.776603937149048
83, 8148, 8163, 8141, 8200, 8189, 8187, 8211, 8177, 8187, 8208, 8178, 8148, 8160, 8143,8.776603937149048
84, 8148, 8145, 8136, 8180, 8187, 8199, 8228, 8169, 8194, 8219, 8170, 8135, 8166, 8140,8.79159927368164
85, 8157, 8152, 8171, 8158, 8176, 8203, 8221, 8171, 8189, 8206, 8162, 8151, 8158, 8148,8.79159927368164
86, 8162, 8149, 8118, 8146, 8163, 8175, 8196, 8172, 8190, 8194, 8165, 8153, 8160, 8153,8.807255744934082
87, 8171, 8153, 8191, 8132, 8157, 8159, 8167, 8182, 8175, 8172, 8172, 8177, 8165, 8151,8.807255744934082
88, 8176, 8166, 8159, 8157, 8167, 8169, 8182, 8175, 8177, 8170, 8186, 8191, 8176, 8153,8.822997570037842
89, 8179, 8178, 8159, 8174, 8173, 8171, 8193, 8167, 8174, 8167, 8180, 8177, 8169, 8152,8.822997570037842
90, 8168, 8186, 8200, 8171, 8172, 8179, 8182, 8180, 8154, 8160, 8156, 8163, 8144, 8138,8.839168787002563
91, 8150, 8163, 8130, 8179, 8174, 8189, 8191, 8174, 8156, 8181, 8152, 8144, 8144, 8132,8.839168787002563
92, 8162, 8162, 8191, 8182, 8181, 8198, 8211, 8173, 8173, 8198, 8164, 8162, 8165, 8160,8.855029106140137
93, 8181, 8177, 8171, 8194, 8192, 8192, 8230, 8181, 8204, 8217, 8184, 8178, 8188, 8188,8.855029106140137
94, 8183, 8168, 8152, 8181, 8179, 8169, 8206, 8172, 8201, 8207, 8188, 8174, 8185, 8175,8.87084412574768
95, 8173, 8163, 8190, 8150, 8166, 8164, 8167, 8168, 8171, 8175, 8176, 8176, 8170, 8151,8.87084412574768
96, 8172, 8169, 8129, 8163, 8179, 8160, 8176, 8166, 8184, 8183, 8191, 8175, 8181, 8152,8.884979724884033
97, 8182, 8188, 8196, 8171, 8184, 8161, 8181, 8177, 8199, 8194, 8215, 8196, 8189, 8169,8.884979724884033
98, 8174, 8186, 8177, 8170, 8182, 8166, 8174, 8180, 8196, 8192, 8219, 8194, 8180, 8165,8.900672197341919
99, 8176, 8182, 8150, 8180, 8188, 8164, 8177, 8174, 8185, 8187, 8213, 8178, 8170, 8146,8.900672197341919
100, 8194, 8207, 8216, 8200, 8197, 8186, 8188, 8183, 8181, 8187, 8216, 8196, 8178, 8153,8.915863275527954
101, 8189, 8204, 8160, 8217, 8209, 8190, 8195, 8177, 8194, 8202, 8221, 8197, 8189, 8167,8.93283486366272
102, 8182, 8191, 8204, 8207, 8204, 8177, 8175, 8170, 8184, 8194, 8199, 8190, 8169, 8170,8.93283486366272
103, 8176, 8186, 8188, 8205, 8194, 8184, 8172, 8171, 8178, 8189, 8176, 8171, 8150, 8161,8.948997497558594
104, 8161, 8163, 8145, 8196, 8188, 8184, 8182, 8171, 8183, 8191, 8165, 8146, 8150, 8145,8.948997497558594
105, 8158, 8156, 8205, 8175, 8181, 8184, 8188, 8179, 8188, 8186, 8160, 8152, 8159, 8142,8.948997497558594
106, 8165, 8161, 8138, 8183, 8181, 8175, 8191, 8169, 8203, 8201, 8164, 8147, 8167, 8151,8.96361255645752
107, 8173, 8161, 8172, 8169, 8171, 8167, 8170, 8164, 8198, 8194, 8163, 8154, 8163, 8159,8.96361255645752
108, 8170, 8154, 8175, 8152, 8166, 8166, 8167, 8175, 8194, 8180, 8172, 8163, 8177, 8159,8.978050231933594
109, 8174, 8153, 8134, 8160, 8173, 8162, 8177, 8169, 8199, 8177, 8186, 8164, 8191, 8155,8.9940345287323
110, 8187, 8169, 8206, 8167, 8177, 8168, 8171, 8174, 8191, 8172, 8189, 8181, 8186, 8163,8.9940345287323
