COUNTER,F3,FC5,AF3,F7,T7,P7,O1,O2,P8,T8,F8,AF4,FC6,F4,Timestamp
79, 8157, 8148, 8133, 8183, 8182, 8180, 8217, 8169, 8187, 8193, 8142, 8133, 8148, 8150,0.014139175415039062
80, 8153, 8153, 8194, 8173, 8166, 8180, 8196, 8167, 8168, 8185, 8129, 8143, 8144, 8142,0.02816033363342285
81, 8142, 8146, 8123, 8166, 8170, 8181, 8192, 8160, 8168, 8178, 8121, 8124, 8139, 8133,0.02816033363342285
82, 8155, 8148, 8175, 8146, 8170, 8174, 8182, 8162, 8175, 8171, 8129, 8136, 8140, 8143,0.04406619071960449
83, 8167, 8153, 8161, 8144, 8159, 8168, 8176, 8167, 8182, 8176, 8148, 8158, 8156, 8157,0.04406619071960449
84, 8165, 8142, 8124, 8145, 8149, 8153, 8172, 8157, 8171, 8173, 8143, 8144, 8158, 8149,0.06009078025817871
85, 8166, 8146, 8188, 8129, 8144, 8156, 8166, 8165, 8158, 8158, 8128, 8146, 8143, 8142,0.06009078025817871
86, 8165, 8143, 8118, 8133, 8146, 8154, 8170, 8164, 8170, 8163, 8136, 8148, 8147, 8145,0.07634973526000977
87, 8168, 8149, 8170, 8136, 8146, 8151, 8155, 8162, 8152, 8150, 8137, 8150, 8147, 8147,0.07634973526000977
88, 8170, 8167, 8181, 8156, 8159, 8162, 8156, 8166, 8145, 8142, 8141, 8152, 8145, 8148,0.09154081344604492
89, 8179, 8169, 8134, 8162, 8168, 8151, 8157, 8161, 8155, 8149, 8156, 8153, 8146, 8142,0.09154081344604492
90, 8187, 8176, 8201, 8138, 8155, 8143, 8132, 8174, 8136, 8137, 8156, 8169, 8140, 8139,0.10754871368408203
91, 8172, 8174, 8138, 8149, 8156, 8143, 8135, 8175, 8132, 8140, 8150, 8155, 8140, 8133,0.10754871368408203
92, 8168, 8180, 8177, 8163, 8168, 8154, 8141, 8168, 8131, 8130, 8136, 8148, 8131, 8130,0.12351179122924805
93, 8169, 8183, 8185, 8162, 8177, 8177, 8151, 8169, 8132, 8134, 8131, 8150, 8128, 8140,0.12351179122924805
94, 8160, 8158, 8119, 8165, 8177, 8184, 8183, 8166, 8146, 8171, 8132, 8130, 8135, 8151,0.13915634155273438
95, 8163, 8164, 8196, 8162, 8171, 8192, 8202, 8175, 8160, 8177, 8122, 8138, 8132, 8160,0.13915634155273438
96, 8159, 8165, 8146, 8152, 8159, 8183, 8200, 8172, 8182, 8169, 8116, 8139, 8133, 8157,0.15419483184814453
97, 8152, 8144, 8158, 8119, 8140, 8164, 8175, 8167, 8173, 8164, 8104, 8133, 8132, 8147,0.15419483184814453
98, 8155, 8142, 8176, 8112, 8137, 8165, 8167, 8170, 8163, 8171, 8105, 8144, 8134, 8150,0.16961359977722168
99, 8161, 8150, 8124, 8127, 8140, 8152, 8162, 8161, 8158, 8153, 8120, 8152, 8132, 8152,0.16961359977722168
100, 8178, 8169, 8202, 8118, 8134, 8147, 8146, 8172, 8143, 8123, 8137, 8175, 8135, 8159,0.1854398250579834
101, 8197, 8178, 8161, 8130, 8143, 8157, 8165, 8176, 8170, 8156, 8164, 8186, 8163, 8178,0.1854398250579834
102, 8199, 8169, 8171, 8131, 8145, 8156, 8165, 8162, 8178, 8169, 8157, 8177, 8164, 8174,0.2015531063079834
103, 8173, 8157, 8186, 8109, 8136, 8153, 8151, 8167, 8151, 8148, 8131, 8164, 8142, 8148,0.2015531063079834
104, 8157, 8154, 8121, 8114, 8137, 8143, 8160, 8168, 8154, 8157, 8132, 8151, 8139, 8138,0.21668386459350586
105, 8174, 8179, 8203, 8121, 8140, 8146, 8152, 8170, 8156, 8163, 8134, 8168, 8142, 8147,0.21668386459350586
106, 8181, 8184, 8163, 8129, 8150, 8153, 8148, 8172, 8155, 8166, 8130, 8170, 8141, 8153,0.2333681583404541
107, 8178, 8178, 8157, 8138, 8163, 8154, 8158, 8169, 8153, 8159, 8126, 8157, 8130, 8147,0.2333681583404541
108, 8168, 8185, 8197, 8155, 8168, 8167, 8171, 8174, 8151, 8155, 8130, 8156, 8124, 8145,0.24748706817626953
109, 8156, 8178, 8133, 8166, 8168, 8167, 8178, 8166, 8157, 8168, 8143, 8152, 8135, 8146,0.24748706817626953
110, 8168, 8185, 8196, 8156, 8167, 8167, 8157, 8167, 8138, 8150, 8134, 8162, 8131, 8143,0.2633545398712158
111, 8179, 8197, 8164, 8181, 8181, 8168, 8156, 8168, 8129, 8154, 8134, 8164, 8137, 8143,0.2633545398712158
112, 8178, 8196, 8161, 8205, 8187, 8168, 8162, 8160, 8129, 8185, 8156, 8169, 8155, 8153,0.27939319610595703
113, 8178, 8196, 8218, 8204, 8182, 8184, 8154, 8169, 8128, 8188, 8162, 8186, 8155, 8165,0.29483604431152344
114, 8189, 8197, 8157, 8227, 8197, 8184, 8168, 8166, 8143, 8183, 8164, 8185, 8156, 8166,0.29483604431152344
115, 8202, 8215, 8220, 8237, 8204, 8188, 8187, 8171, 8147, 8184, 8166, 8193, 8162, 8172,0.29483604431152344
116, 8193, 8212, 8191, 8239, 8200, 8193, 8194, 8180, 8150, 8193, 8163, 8185, 8164, 8182,0.31148195266723633
117, 8186, 8189, 8163, 8236, 8197, 8178, 8175, 8164, 8135, 8181, 8152, 8168, 8154, 8177,0.31148195266723633
118, 8196, 8197, 8222, 8229, 8191, 8183, 8168, 8161, 8112, 8165, 8145, 8180, 8147, 8171,0.32755374908447266
119, 8190, 8192, 8151, 8234, 8190, 8186, 8187, 8163, 8122, 8175, 8143, 8168, 8155, 8172,0.32755374908447266
120, 8181, 8179, 8188, 8216, 8183, 8188, 8184, 8173, 8137, 8176, 8133, 8160, 8153, 8172,0.34323692321777344
121, 8174, 8179, 8170, 8213, 8181, 8193, 8195, 8184, 8161, 8184, 8134, 8160, 8152, 8168,0.34323692321777344
122, 8177, 8177, 8145, 8222, 8190, 8191, 8214, 8173, 8167, 8188, 8133, 8150, 8155, 8168,0.3573431968688965
123, 8194, 8187, 8216, 8213, 8195, 8200, 8212, 8173, 8155, 8182, 8131, 8163, 8164, 8177,0.37409162521362305
124, 8193, 8179, 8147, 8198, 8181, 8188, 8199, 8167, 8165, 8188, 8138, 8169, 8168, 8180,0.37409162521362305
125, 8194, 8172, 8186, 8178, 8165, 8170, 8179, 8165, 8161, 8178, 8139, 8178, 8159, 8180,0.37409162521362305
126, 8204, 8177, 8190, 8190, 8178, 8176, 8186, 8174, 8171, 8186, 8161, 8194, 8179, 8189,0.38928890228271484
127, 8211, 8174, 8151, 8200, 8183, 8174, 8196, 8169, 8197, 8211, 8180, 8202, 8202, 8196,0.38928890228271484
236, 8207, 8175, 8211, 8174, 8166, 8171, 8182, 8171, 8197, 8206, 8167, 8205, 8190, 8196,0.4048933982849121
0, 8194, 8165, 8141, 8158, 8164, 8163, 8176, 8169, 8196, 8196, 8166, 8182, 8182, 8185,0.40589261054992676
1, 8195, 8164, 8174, 8148, 8167, 8155, 8161, 8167, 8184, 8182, 8173, 8182, 8184, 8177,0.4194793701171875
2, 8198, 8172, 8186, 8149, 8171, 8160, 8161, 8169, 8181, 8180, 8179, 8198, 8188, 8184,0.437183141708374
3, 8204, 8164, 8137, 8150, 8175, 8156, 8173, 8161, 8191, 8193, 8189, 8194, 8195, 8183,0.437183141708374
4, 8211, 8178, 8207, 8140, 8172, 8161, 8164, 8171, 8184, 8188, 8188, 8206, 8195, 8178,0.437183141708374
5, 8211, 8187, 8150, 8153, 8176, 8171, 8173, 8171, 8184, 8186, 8184, 8206, 8195, 8180,0.4524106979370117
6, 8212, 8185, 8172, 8151, 8174, 8170, 8181, 8165, 8184, 8180, 8177, 8199, 8184, 8176,0.466519832611084
7, 8210, 8192, 8195, 8150, 8174, 8166, 8183, 8178, 8194, 8187, 8184, 8206, 8184, 8171,0.466519832611084
8, 8201, 8188, 8136, 8161, 8180, 8152, 8179, 8173, 8201, 8196, 8192, 8198, 8189, 8168,0.4833066463470459
9, 8195, 8190, 8199, 8147, 8172, 8160, 8159, 8171, 8173, 8168, 8174, 8197, 8166, 8162,0.4833066463470459
10, 8193, 8187, 8144, 8153, 8177, 8165, 8161, 8167, 8170, 8171, 8175, 8198, 8163, 8158,0.4833066463470459
11, 8193, 8183, 8159, 8152, 8184, 8152, 8157, 8164, 8175, 8176, 8171, 8195, 8167, 8153,0.49840545654296875
12, 8179, 8181, 8188, 8134, 8176, 8161, 8153, 8175, 8169, 8155, 8154, 8181, 8155, 8148,0.5146000385284424
13, 8164, 8167, 8119, 8137, 8171, 8166, 8163, 8164, 8165, 8155, 8167, 8159, 8150, 8140,0.5146000385284424
14, 8173, 8180, 8195, 8147, 8170, 8166, 8154, 8166, 8150, 8156, 8177, 8170, 8148, 8138,0.5146000385284424
15, 8170, 8180, 8144, 8154, 8172, 8167, 8159, 8169, 8154, 8152, 8167, 8163, 8147, 8130,0.5303668975830078
16, 8156, 8159, 8133, 8133, 8168, 8166, 8160, 8161, 8144, 8135, 8152, 8144, 8138, 8117,0.544459342956543
17, 8151, 8156, 8179, 8114, 8161, 8173, 8154, 8167, 8131, 8133, 8148, 8153, 8132, 8120,0.544459342956543
18, 8154, 8147, 8107, 8126, 8162, 8165, 8156, 8162, 8148, 8152, 8151, 8149, 8134, 8120,0.560044527053833
19, 8159, 8163, 8177, 8133, 8173, 8171, 8157, 8173, 8163, 8160, 8158, 8154, 8139, 8125,0.560044527053833
20, 8160, 8178, 8158, 8150, 8186, 8185, 8175, 8183, 8186, 8172, 8171, 8154, 8158, 8133,0.5755040645599365
21, 8166, 8171, 8147, 8146, 8173, 8174, 8173, 8169, 8185, 8164, 8165, 8145, 8156, 8123,0.5755040645599365
22, 8172, 8176, 8198, 8134, 8168, 8175, 8167, 8170, 8166, 8154, 8166, 8155, 8144, 8119,0.5911669731140137
23, 8173, 8178, 8136, 8162, 8189, 8179, 8184, 8165, 8176, 8170, 8184, 8162, 8161, 8132,0.5911669731140137
24, 8181, 8183, 8200, 8162, 8183, 8178, 8179, 8168, 8167, 8157, 8176, 8173, 8167, 8139,0.6065497398376465
25, 8171, 8177, 8169, 8144, 8166, 8172, 8172, 8173, 8147, 8142, 8160, 8162, 8153, 8130,0.6065497398376465
26, 8157, 8167, 8139, 8142, 8165, 8156, 8166, 8169, 8136, 8141, 8157, 8153, 8143, 8123,0.6226539611816406
27, 8164, 8178, 8201, 8148, 8169, 8165, 8165, 8179, 8146, 8151, 8169, 8179, 8150, 8134,0.6226539611816406
28, 8169, 8177, 8139, 8156, 8190, 8175, 8185, 8172, 8176, 8170, 8185, 8171, 8163, 8143,0.638066291809082
29, 8171, 8178, 8188, 8148, 8199, 8175, 8178, 8171, 8168, 8151, 8170, 8163, 8154, 8139,0.638066291809082
30, 8164, 8177, 8169, 8155, 8182, 8174, 8159, 8181, 8147, 8138, 8162, 8168, 8152, 8143,0.6532237529754639
31, 8158, 8169, 8137, 8156, 8173, 8169, 8154, 8169, 8148, 8149, 8173, 8165, 8155, 8145,0.6532237529754639
32, 8168, 8178, 8205, 8151, 8182, 8183, 8159, 8171, 8160, 8161, 8180, 8173, 8153, 8144,0.6693158149719238
33, 8168, 8179, 8145, 8166, 8189, 8180, 8167, 8171, 8175, 8182, 8185, 8164, 8163, 8145,0.6693158149719238
34, 8162, 8179, 8184, 8164, 8182, 8173, 8145, 8165, 8150, 8163, 8182, 8160, 8156, 8141,0.6852865219116211
35, 8156, 8178, 8177, 8166, 8189, 8187, 8140, 8169, 8135, 8140, 8181, 8165, 8145, 8134,0.6852865219116211
36, 8157, 8170, 8142, 8173, 8198, 8190, 8155, 8170, 8152, 8153, 8185, 8160, 8151, 8132,0.7003226280212402
37, 8171, 8184, 8214, 8168, 8189, 8188, 8154, 8175, 8151, 8156, 8183, 8165, 8158, 8141,0.7003226280212402
38, 8168, 8177, 8147, 8176, 8181, 8175, 8157, 8165, 8139, 8144, 8176, 8152, 8150, 8138,0.7160820960998535
39, 8155, 8153, 8175, 8163, 8169, 8170, 8155, 8162, 8121, 8129, 8160, 8145, 8129, 8127,0.7160820960998535
40, 8149, 8152, 8184, 8158, 8171, 8187, 8168, 8172, 8138, 8149, 8160, 8151, 8136, 8138,0.7316105365753174
41, 8155, 8160, 8138, 8170, 8188, 8191, 8182, 8169, 8166, 8175, 8168, 8145, 8156, 8147,0.7316105365753174
42, 8160, 8180, 8214, 8171, 8188, 8189, 8172, 8181, 8150, 8160, 8160, 8148, 8145, 8143,0.7476325035095215
43, 8164, 8191, 8156, 8189, 8190, 8179, 8182, 8182, 8154, 8161, 8167, 8145, 8147, 8141,0.7476325035095215
44, 8176, 8190, 8178, 8194, 8191, 8179, 8186, 8171, 8168, 8167, 8183, 8158, 8161, 8143,0.7635045051574707
45, 8172, 8187, 8198, 8188, 8192, 8190, 8178, 8170, 8167, 8166, 8192, 8172, 8161, 8147,0.7635045051574707
46, 8166, 8184, 8140, 8196, 8200, 8179, 8178, 8165, 8161, 8175, 8200, 8162, 8164, 8149,0.7792165279388428
47, 8177, 8194, 8214, 8191, 8195, 8183, 8175, 8176, 8155, 8179, 8201, 8174, 8176, 8152,0.7792165279388428
48, 8172, 8178, 8153, 8188, 8184, 8186, 8175, 8170, 8162, 8181, 8194, 8169, 8179, 8148,0.7943539619445801
49, 8175, 8170, 8163, 8186, 8181, 8179, 8169, 8162, 8158, 8170, 8191, 8163, 8165, 8150,0.7943539619445801
50, 8192, 8193, 8213, 8195, 8188, 8192, 8184, 8178, 8170, 8177, 8207, 8179, 8168, 8165,0.8098855018615723
51, 8190, 8186, 8146, 8198, 8181, 8183, 8197, 8171, 8188, 8183, 8197, 8165, 8169, 8156,0.8098855018615723
52, 8178, 8177, 8201, 8171, 8163, 8174, 8179, 8167, 8162, 8149, 8160, 8155, 8140, 8139,0.8249120712280273
53, 8170, 8170, 8157, 8171, 8171, 8183, 8187, 8169, 8164, 8153, 8182, 8157, 8143, 8144,0.8249120712280273
54, 8179, 8167, 8163, 8173, 8176, 8188, 8188, 8169, 8183, 8171, 8215, 8166, 8164, 8150,0.8413894176483154
55, 8178, 8179, 8208, 8166, 8168, 8188, 8175, 8172, 8182, 8167, 8200, 8168, 8159, 8145,0.8413894176483154
56, 8169, 8173, 8134, 8185, 8171, 8181, 8176, 8165, 8184, 8171, 8194, 8155, 8160, 8143,0.8568689823150635
57, 8183, 8173, 8197, 8182, 8169, 8188, 8173, 8176, 8171, 8165, 8200, 8172, 8165, 8153,0.8568689823150635
58, 8182, 8166, 8155, 8160, 8160, 8188, 8185, 8178, 8173, 8166, 8187, 8168, 8166, 8156,0.8726634979248047
59, 8162, 8149, 8132, 8133, 8152, 8176, 8194, 8166, 8191, 8161, 8166, 8146, 8157, 8147,0.8726634979248047
60, 8161, 8155, 8191, 8125, 8154, 8186, 8193, 8179, 8200, 8150, 8174, 8160, 8154, 8143,0.8881938457489014
61, 8168, 8154, 8132, 8149, 8161, 8176, 8195, 8172, 8210, 8162, 8198, 8168, 8171, 8140,0.8881938457489014
62, 8174, 8152, 8185, 8135, 8153, 8163, 8175, 8166, 8194, 8160, 8192, 8174, 8172, 8140,0.9034180641174316
63, 8169, 8153, 8158, 8119, 8151, 8155, 8152, 8171, 8180, 8152, 8184, 8168, 8165, 8137,0.9034180641174316
64, 8177, 8160, 8150, 8132, 8149, 8136, 8135, 8166, 8166, 8142, 8192, 8169, 8161, 8132,0.9187548160552979
65, 8198, 8179, 8218, 8149, 8152, 8147, 8139, 8177, 8154, 8129, 8199, 8192, 8159, 8139,0.9187548160552979
66, 8194, 8169, 8140, 8154, 8168, 8162, 8171, 8175, 8158, 8135, 8199, 8182, 8162, 8136,0.9343447685241699
67, 8184, 8163, 8186, 8133, 8166, 8164, 8173, 8176, 8142, 8126, 8189, 8179, 8156, 8123,0.9343447685241699
68, 8177, 8169, 8172, 8136, 8162, 8172, 8172, 8183, 8147, 8127, 8193, 8184, 8158, 8128,0.9504013061523438
69, 8176, 8168, 8140, 8149, 8167, 8168, 8185, 8173, 8163, 8137, 8196, 8172, 8161, 8139,0.9504013061523438
70, 8188, 8178, 8214, 8153, 8173, 8170, 8183, 8177, 8154, 8136, 8182, 8174, 8160, 8146,0.9654431343078613
71, 8194, 8180, 8154, 8179, 8176, 8173, 8176, 8174, 8160, 8146, 8184, 8173, 8168, 8154,0.9654431343078613
72, 8194, 8184, 8192, 8186, 8173, 8178, 8168, 8170, 8151, 8136, 8188, 8178, 8162, 8158,0.9813144207000732
73, 8189, 8179, 8183, 8187, 8179, 8186, 8187, 8177, 8144, 8136, 8181, 8178, 8158, 8154,0.9813144207000732
74, 8190, 8161, 8145, 8191, 8184, 8193, 8210, 8173, 8163, 8163, 8183, 8176, 8178, 8153,0.9965424537658691
75, 8194, 8169, 8216, 8185, 8178, 8205, 8209, 8179, 8178, 8179, 8190, 8196, 8194, 8169,1.0131211280822754
76, 8193, 8168, 8146, 8184, 8178, 8189, 8201, 8172, 8186, 8186, 8199, 8195, 8202, 8171,1.0131211280822754
77, 8210, 8166, 8182, 8179, 8169, 8166, 8169, 8167, 8177, 8169, 8204, 8202, 8205, 8168,1.0131211280822754
78, 8222, 8176, 8201, 8186, 8161, 8161, 8149, 8173, 8181, 8162, 8217, 8224, 8215, 8186,1.027496337890625
79, 8217, 8175, 8144, 8188, 8157, 8143, 8138, 8167, 8179, 8158, 8229, 8217, 8215, 8178,1.043907880783081
80, 8211, 8187, 8201, 8174, 8154, 8145, 8124, 8174, 8152, 8126, 8218, 8210, 8197, 8155,1.043907880783081
81, 8198, 8186, 8149, 8194, 8177, 8164, 8144, 8174, 8150, 8120, 8210, 8195, 8185, 8148,1.043907880783081
82, 8197, 8183, 8183, 8219, 8199, 8176, 8159, 8169, 8142, 8121, 8198, 8188, 8169, 8144,1.0594611167907715
83, 8198, 8191, 8199, 8225, 8198, 8188, 8169, 8176, 8134, 8127, 8190, 8191, 8162, 8143,1.0753858089447021
84, 8188, 8174, 8132, 8217, 8196, 8188, 8185, 8173, 8152, 8148, 8187, 8178, 8167, 8150,1.0753858089447021
85, 8191, 8174, 8205, 8204, 8194, 8198, 8190, 8182, 8171, 8156, 8179, 8187, 8173, 8169,1.0753858089447021
86, 8196, 8171, 8155, 8211, 8186, 8194, 8201, 8183, 8193, 8173, 8183, 8191, 8191, 8182,1.089789867401123
87, 8194, 8153, 8155, 8185, 8164, 8170, 8191, 8173, 8185, 8169, 8176, 8193, 8188, 8179,1.089789867401123
88, 8193, 8155, 8184, 8158, 8159, 8171, 8177, 8174, 8176, 8151, 8170, 8196, 8176, 8178,1.106199026107788
89, 8201, 8166, 8131, 8173, 8168, 8166, 8175, 8164, 8181, 8145, 8184, 8185, 8184, 8180,1.106199026107788
90, 8208, 8180, 8206, 8160, 8156, 8154, 8153, 8168, 8155, 8125, 8189, 8203, 8178, 8175,1.1213767528533936
91, 8201, 8175, 8159, 8154, 8154, 8150, 8141, 8172, 8141, 8113, 8192, 8205, 8171, 8160,1.1224536895751953
92, 8205, 8177, 8161, 8175, 8165, 8149, 8133, 8167, 8135, 8106, 8192, 8191, 8164, 8150,1.135544776916504
93, 8200, 8191, 8206, 8187, 8166, 8162, 8134, 8171, 8120, 8104, 8183, 8193, 8152, 8150,1.15162992477417
94, 8180, 8170, 8128, 8184, 8163, 8170, 8149, 8165, 8119, 8115, 8170, 8174, 8147, 8143,1.15162992477417
95, 8177, 8159, 8184, 8168, 8166, 8185, 8152, 8175, 8123, 8115, 8144, 8155, 8137, 8135,1.1671812534332275
96, 8179, 8164, 8157, 8184, 8180, 8193, 8170, 8181, 8151, 8143, 8150, 8157, 8152, 8151,1.1671812534332275
97, 8182, 8165, 8154, 8190, 8178, 8183, 8177, 8170, 8182, 8168, 8181, 8178, 8186, 8175,1.1831281185150146
98, 8190, 8168, 8200, 8158, 8168, 8184, 8163, 8176, 8195, 8166, 8199, 8196, 8202, 8184,1.1831281185150146
99, 8193, 8161, 8130, 8135, 8166, 8169, 8160, 8169, 8202, 8172, 8223, 8198, 8212, 8181,1.1983323097229004
100, 8193, 8161, 8191, 8114, 8157, 8160, 8150, 8165, 8186, 8164, 8244, 8220, 8218, 8175,1.1983323097229004
101, 8190, 8167, 8164, 8116, 8163, 8167, 8154, 8171, 8194, 8167, 8255, 8222, 8227, 8173,1.2141211032867432
102, 8194, 8169, 8143, 8121, 8172, 8164, 8160, 8171, 8213, 8177, 8267, 8207, 8235, 8177,1.2141211032867432
103, 8193, 8174, 8202, 8106, 8166, 8168, 8151, 8176, 8199, 8170, 8287, 8225, 8238, 8177,1.2291131019592285
104, 8176, 8160, 8131, 8090, 8165, 8160, 8149, 8167, 8189, 8173, 8305, 8227, 8238, 8168,1.2291131019592285
105, 8184, 8166, 8182, 8079, 8171, 8157, 8146, 8168, 8185, 8178, 8307, 8232, 8237, 8169,1.2442653179168701
106, 8195, 8176, 8167, 8092, 8180, 8170, 8155, 8175, 8192, 8184, 8312, 8224, 8245, 8178,1.2442653179168701
107, 8173, 8157, 8125, 8082, 8172, 8162, 8153, 8168, 8187, 8176, 8306, 8200, 8235, 8169,1.2599127292633057
108, 8158, 8160, 8187, 8061, 8167, 8163, 8148, 8177, 8174, 8173, 8295, 8211, 8226, 8163,1.2599127292633057
109, 8170, 8166, 8134, 8087, 8186, 8172, 8170, 8179, 8193, 8200, 8299, 8204, 8240, 8168,1.2750742435455322
110, 8179, 8171, 8182, 8105, 8186, 8178, 8170, 8174, 8187, 8196, 8284, 8190, 8227, 8167,1.2750742435455322
111, 8174, 8178, 8179, 8117, 8178, 8177, 8166, 8174, 8180, 8198, 8277, 8196, 8220, 8173,1.2911572456359863
112, 8178, 8175, 8143, 8133, 8181, 8169, 8179, 8166, 8186, 8220, 8285, 8198, 8239, 8177,1.2911572456359863
113, 8184, 8178, 8212, 8131, 8179, 8183, 8192, 8177, 8174, 8218, 8285, 8202, 8243, 8184,1.3063263893127441
114, 8177, 8162, 8144, 8128, 8175, 8193, 8212, 8179, 8187, 8229, 8286, 8200, 8249, 8192,1.3063263893127441
115, 8181, 8152, 8175, 8112, 8167, 8190, 8207, 8175, 8198, 8235, 8274, 8200, 8251, 8192,1.3215856552124023
116, 8176, 8154, 8175, 8102, 8158, 8191, 8204, 8177, 8195, 8230, 8257, 8189, 8247, 8183,1.3215856552124023
117, 8163, 8139, 8119, 8100, 8160, 8180, 8207, 8167, 8189, 8226, 8255, 8179, 8239, 8172,1.3372745513916016
118, 8167, 8146, 8196, 8089, 8162, 8184, 8194, 8175, 8176, 8214, 8256, 8203, 8231, 8175,1.3372745513916016
119, 8170, 8150, 8140, 8094, 8161, 8183, 8196, 8169, 8184, 8216, 8257, 8199, 8239, 8175,1.3527867794036865
120, 8174, 8145, 8161, 8087, 8157, 8167, 8192, 8162, 8180, 8206, 8251, 8189, 8237, 8167,1.3527867794036865
121, 8182, 8156, 8180, 8093, 8167, 8169, 8190, 8177, 8179, 8209, 8261, 8201, 8236, 8173,1.3687782287597656
122, 8182, 8159, 8120, 8108, 8176, 8172, 8186, 8169, 8188, 8215, 8276, 8198, 8246, 8174,1.3687782287597656
123, 8182, 8168, 8194, 8097, 8174, 8180, 8173, 8170, 8181, 8189, 8272, 8212, 8245, 8170,1.3842542171478271
124, 8193, 8173, 8151, 8106, 8182, 8168, 8189, 8179, 8192, 8192, 8289, 8218, 8254, 8177,1.3842542171478271
125, 8214, 8174, 8173, 8110, 8175, 8148, 8181, 8177, 8192, 8198, 8306, 8216, 8256, 8186,1.4002940654754639
126, 8211, 8181, 8206, 8111, 8161, 8155, 8164, 8173, 8175, 8184, 8296, 8217, 8251, 8183,1.4002940654754639
127, 8200, 8181, 8139, 8132, 8166, 8155, 8179, 8163, 8171, 8177, 8290, 8211, 8254, 8172,1.4163122177124023
236, 8211, 8193, 8214, 8133, 8170, 8160, 8175, 8169, 8160, 8171, 8296, 8222, 8246, 8175,1.4163122177124023
0, 8204, 8189, 8170, 8139, 8173, 8164, 8165, 8169, 8151, 8177, 8295, 8209, 8232, 8173,1.4319305419921875
1, 8189, 8184, 8164, 8144, 8174, 8157, 8155, 8159, 8130, 8177, 8284, 8202, 8224, 8165,1.4319305419921875
2, 8196, 8190, 8204, 8134, 8169, 8165, 8154, 8167, 8121, 8169, 8281, 8217, 8222, 8166,1.4478223323822021
3, 8195, 8175, 8136, 8126, 8164, 8163, 8162, 8162, 8130, 8165, 8274, 8199, 8209, 8165,1.4478223323822021
4, 8192, 8183, 8205, 8130, 8167, 8167, 8155, 8171, 8123, 8154, 8261, 8198, 8197, 8164,1.4634621143341064
5, 8192, 8193, 8168, 8158, 8186, 8177, 8163, 8177, 8136, 8181, 8280, 8210, 8215, 8168,1.4634621143341064
6, 8189, 8182, 8154, 8155, 8187, 8174, 8163, 8167, 8148, 8195, 8280, 8205, 8217, 8161,1.4785053730010986
7, 8184, 8179, 8205, 8134, 8173, 8177, 8158, 8173, 8142, 8174, 8254, 8200, 8197, 8155,1.4785053730010986
8, 8183, 8173, 8131, 8147, 8178, 8171, 8168, 8168, 8150, 8184, 8259, 8190, 8201, 8153,1.494086503982544
9, 8185, 8177, 8195, 8150, 8178, 8169, 8158, 8172, 8139, 8192, 8263, 8191, 8200, 8151,1.494086503982544
10, 8166, 8170, 8169, 8146, 8171, 8171, 8151, 8174, 8131, 8193, 8256, 8182, 8194, 8146,1.5101170539855957
11, 8157, 8156, 8140, 8142, 8168, 8165, 8150, 8159, 8126, 8182, 8249, 8175, 8190, 8142,1.5101170539855957
12, 8167, 8174, 8201, 8148, 8177, 8181, 8153, 8169, 8117, 8166, 8239, 8187, 8182, 8143,1.5253150463104248
13, 8161, 8166, 8130, 8162, 8182, 8180, 8166, 8166, 8128, 8185, 8239, 8169, 8185, 8144,1.5253150463104248
14, 8148, 8147, 8170, 8140, 8170, 8172, 8162, 8161, 8129, 8194, 8231, 8161, 8186, 8144,1.5414228439331055
15, 8141, 8146, 8149, 8136, 8167, 8181, 8168, 8171, 8140, 8199, 8232, 8164, 8191, 8149,1.5414228439331055
16, 8147, 8146, 8129, 8150, 8168, 8182, 8174, 8174, 8149, 8202, 8233, 8159, 8189, 8147,1.556947946548462
17, 8162, 8153, 8200, 8149, 8165, 8189, 8173, 8181, 8140, 8198, 8221, 8168, 8176, 8145,1.556947946548462
18, 8160, 8148, 8124, 8153, 8170, 8195, 8193, 8170, 8157, 8219, 8221, 8165, 8184, 8148,1.5725491046905518
19, 8154, 8146, 8166, 8131, 8171, 8203, 8198, 8173, 8166, 8228, 8218, 8163, 8191, 8155,1.5725491046905518
20, 8155, 8148, 8160, 8124, 8175, 8208, 8196, 8184, 8170, 8229, 8218, 8163, 8195, 8168,1.5880608558654785
21, 8173, 8149, 8121, 8149, 8178, 8201, 8196, 8168, 8177, 8241, 8222, 8165, 8200, 8176,1.5880608558654785
22, 8185, 8162, 8198, 8148, 8170, 8203, 8186, 8170, 8165, 8241, 8215, 8186, 8199, 8179,1.6040570735931396
23, 8166, 8151, 8130, 8142, 8171, 8191, 8181, 8172, 8158, 8243, 8214, 8171, 8199, 8173,1.6040570735931396
24, 8160, 8145, 8161, 8132, 8174, 8188, 8171, 8172, 8155, 8234, 8217, 8163, 8201, 8168,1.619537353515625
25, 8170, 8152, 8168, 8134, 8177, 8194, 8180, 8178, 8168, 8239, 8219, 8179, 8212, 8172,1.619537353515625
26, 8165, 8145, 8117, 8135, 8173, 8173, 8186, 8175, 8173, 8249, 8218, 8172, 8208, 8172,1.6352100372314453
27, 8161, 8149, 8190, 8120, 8163, 8176, 8176, 8178, 8158, 8237, 8218, 8176, 8191, 8174,1.6352100372314453
28, 8163, 8148, 8135, 8124, 8171, 8186, 8184, 8170, 8172, 8238, 8223, 8174, 8203, 8176,1.6503057479858398
29, 8170, 8147, 8161, 8115, 8175, 8173, 8172, 8166, 8174, 8229, 8215, 8176, 8211, 8177,1.6659104824066162
30, 8172, 8154, 8181, 8106, 8166, 8172, 8167, 8173, 8176, 8225, 8217, 8195, 8209, 8185,1.6659104824066162
31, 8174, 8150, 8126, 8109, 8150, 8162, 8174, 8165, 8189, 8222, 8220, 8190, 8214, 8182,1.6659104824066162
32, 8178, 8154, 8194, 8093, 8141, 8154, 8154, 8171, 8175, 8199, 8207, 8187, 8205, 8171,1.6825613975524902
33, 8168, 8148, 8136, 8096, 8153, 8158, 8155, 8169, 8174, 8203, 8210, 8183, 8205, 8159,1.6982271671295166
34, 8160, 8148, 8144, 8098, 8150, 8158, 8162, 8161, 8175, 8212, 8210, 8185, 8210, 8151,1.6982271671295166
35, 8158, 8159, 8176, 8092, 8137, 8159, 8152, 8171, 8170, 8209, 8204, 8188, 8213, 8152,1.6982271671295166
36, 8164, 8147, 8120, 8098, 8143, 8150, 8144, 8167, 8174, 8207, 8215, 8182, 8217, 8152,1.7143280506134033
37, 8183, 8155, 8191, 8102, 8140, 8154, 8139, 8170, 8171, 8201, 8235, 8208, 8218, 8163,1.7143280506134033
38, 8190, 8168, 8155, 8123, 8138, 8163, 8154, 8174, 8175, 8210, 8252, 8216, 8232, 8175,1.728362798690796
39, 8185, 8171, 8166, 8125, 8148, 8159, 8152, 8168, 8161, 8195, 8240, 8203, 8225, 8164,1.7448482513427734
40, 8177, 8175, 8199, 8119, 8158, 8163, 8146, 8167, 8145, 8177, 8227, 8205, 8205, 8152,1.7448482513427734
41, 8176, 8166, 8129, 8138, 8162, 8160, 8152, 8161, 8149, 8194, 8233, 8200, 8208, 8153,1.7448482513427734
42, 8180, 8170, 8196, 8131, 8153, 8163, 8140, 8171, 8138, 8191, 8223, 8198, 8203, 8154,1.759864330291748
43, 8157, 8166, 8150, 8122, 8153, 8162, 8146, 8175, 8128, 8183, 8200, 8174, 8186, 8145,1.7613685131072998
44, 8151, 8155, 8140, 8130, 8165, 8161, 8154, 8161, 8120, 8184, 8186, 8164, 8175, 8139,1.7783458232879639
45, 8172, 8171, 8206, 8154, 8174, 8178, 8146, 8167, 8123, 8187, 8195, 8185, 8179, 8146,1.7783458232879639
46, 8172, 8170, 8141, 8169, 8172, 8175, 8141, 8165, 8139, 8202, 8220, 8182, 8190, 8154,1.7922885417938232
47, 8167, 8164, 8197, 8153, 8169, 8170, 8133, 8170, 8130, 8199, 8227, 8188, 8192, 8156,1.7922885417938232
48, 8176, 8171, 8170, 8164, 8180, 8176, 8134, 8170, 8130, 8198, 8222, 8188, 8193, 8150,1.8074088096618652
49, 8186, 8182, 8156, 8185, 8182, 8174, 8132, 8156, 8140, 8203, 8216, 8183, 8190, 8154,1.8084094524383545
50, 8187, 8192, 8216, 8186, 8182, 8191, 8141, 8175, 8149, 8209, 8210, 8203, 8193, 8173,1.8215816020965576
51, 8172, 8172, 8140, 8185, 8185, 8196, 8167, 8178, 8169, 8222, 8211, 8192, 8206, 8172,1.8372130393981934
52, 8166, 8167, 8190, 8161, 8175, 8198, 8170, 8168, 8161, 8215, 8202, 8185, 8203, 8165,1.8372130393981934
53, 8178, 8178, 8174, 8155, 8177, 8199, 8177, 8172, 8162, 8224, 8204, 8200, 8208, 8180,1.8523600101470947
54, 8192, 8171, 8145, 8159, 8176, 8183, 8175, 8173, 8176, 8230, 8202, 8200, 8206, 8188,1.8523600101470947
55, 8186, 8174, 8211, 8152, 8172, 8193, 8172, 8177, 8162, 8206, 8176, 8191, 8186, 8177,1.8704497814178467
56, 8178, 8173, 8137, 8164, 8185, 8199, 8196, 8168, 8168, 8203, 8175, 8176, 8189, 8171,1.8704497814178467
57, 8187, 8171, 8177, 8152, 8175, 8184, 8186, 8171, 8175, 8201, 8178, 8186, 8191, 8174,1.8704497814178467
58, 8175, 8161, 8170, 8136, 8154, 8182, 8168, 8172, 8187, 8208, 8168, 8186, 8180, 8172,1.8840866088867188
59, 8165, 8156, 8131, 8136, 8163, 8185, 8186, 8163, 8205, 8224, 8169, 8168, 8182, 8174,1.8991022109985352
60, 8193, 8180, 8205, 8129, 8164, 8190, 8204, 8182, 8216, 8227, 8192, 8193, 8204, 8193,1.8991022109985352
61, 8211, 8177, 8144, 8140, 8157, 8178, 8201, 8180, 8230, 8241, 8207, 8210, 8224, 8208,1.9144935607910156
62, 8210, 8169, 8189, 8151, 8155, 8168, 8173, 8168, 8209, 8230, 8197, 8214, 8211, 8200,1.9144935607910156
63, 8197, 8172, 8191, 8146, 8150, 8169, 8161, 8171, 8193, 8217, 8199, 8211, 8202, 8181,1.930053472518921
64, 8188, 8159, 8131, 8132, 8143, 8158, 8161, 8165, 8207, 8223, 8213, 8206, 8209, 8169,1.930053472518921
65, 8217, 8183, 8225, 8162, 8160, 8175, 8166, 8175, 8222, 8233, 8244, 8251, 8231, 8192,1.945235252380371
66, 8245, 8214, 8191, 8232, 8188, 8182, 8181, 8177, 8231, 8243, 8281, 8285, 8260, 8214,1.945235252380371
67, 8244, 8218, 8218, 8244, 8179, 8159, 8151, 8176, 8194, 8213, 8266, 8291, 8240, 8201,1.9615452289581299
68, 8247, 8225, 8238, 8256, 8172, 8161, 8135, 8179, 8173, 8202, 8245, 8303, 8218, 8194,1.9615452289581299
69, 8260, 8226, 8188, 8296, 8178, 8161, 8153, 8163, 8183, 8205, 8250, 8304, 8218, 8200,1.9771747589111328
70, 8255, 8230, 8264, 8305, 8172, 8154, 8138, 8164, 8151, 8161, 8230, 8303, 8187, 8185,1.9771747589111328
71, 8254, 8237, 8212, 8344, 8180, 8152, 8131, 8166, 8122, 8141, 8201, 8286, 8165, 8174,1.9931371212005615
72, 8273, 8243, 8226, 8375, 8181, 8160, 8136, 8157, 8111, 8141, 8183, 8282, 8162, 8178,1.9931371212005615
73, 8267, 8240, 8252, 8373, 8168, 8179, 8135, 8164, 8110, 8131, 8163, 8286, 8149, 8182,2.015286445617676
74, 8262, 8234, 8197, 8393, 8175, 8177, 8141, 8163, 8112, 8137, 8157, 8284, 8145, 8188,2.015286445617676
75, 8279, 8243, 8264, 8396, 8180, 8183, 8149, 8168, 8103, 8136, 8147, 8296, 8148, 8205,2.015286445617676
76, 8259, 8213, 8194, 8368, 8168, 8187, 8163, 8169, 8119, 8132, 8124, 8271, 8143, 8194,2.025329351425171
77, 8234, 8183, 8185, 8336, 8163, 8183, 8160, 8164, 8130, 8134, 8102, 8245, 8131, 8174,2.041369915008545
78, 8243, 8206, 8227, 8346, 8177, 8190, 8162, 8171, 8121, 8145, 8094, 8248, 8131, 8185,2.041369915008545
79, 8247, 8212, 8161, 8363, 8182, 8180, 8176, 8165, 8128, 8154, 8088, 8233, 8138, 8187,2.056774139404297
80, 8246, 8200, 8218, 8334, 8173, 8177, 8166, 8173, 8135, 8149, 8079, 8230, 8135, 8172,2.056774139404297
81, 8241, 8189, 8174, 8315, 8180, 8177, 8167, 8176, 8157, 8170, 8091, 8224, 8145, 8174,2.0722105503082275
82, 8240, 8186, 8171, 8300, 8176, 8165, 8171, 8169, 8171, 8179, 8097, 8223, 8156, 8182,2.0722105503082275
83, 8241, 8190, 8209, 8282, 8164, 8168, 8160, 8176, 8158, 8159, 8083, 8227, 8150, 8176,2.0877749919891357
84, 8231, 8176, 8129, 8278, 8171, 8157, 8149, 8167, 8146, 8149, 8072, 8198, 8138, 8161,2.0877749919891357
85, 8230, 8182, 8200, 8266, 8173, 8149, 8140, 8166, 8138, 8139, 8061, 8196, 8130, 8167,2.103797435760498
86, 8231, 8193, 8180, 8275, 8174, 8155, 8149, 8172, 8148, 8151, 8068, 8206, 8138, 8181,2.103797435760498
87, 8222, 8180, 8148, 8264, 8166, 8147, 8138, 8162, 8134, 8145, 8072, 8199, 8139, 8166,2.119530439376831
88, 8214, 8186, 8198, 8241, 8160, 8149, 8121, 8162, 8107, 8114, 8068, 8203, 8130, 8150,2.119530439376831
89, 8220, 8206, 8138, 8262, 8182, 8155, 8131, 8164, 8120, 8120, 8080, 8194, 8135, 8158,2.134860038757324
90, 8233, 8219, 8195, 8267, 8192, 8162, 8123, 8174, 8127, 8125, 8077, 8188, 8130, 8165,2.134860038757324
91, 8226, 8206, 8181, 8255, 8183, 8160, 8122, 8171, 8121, 8124, 8072, 8190, 8124, 8157,2.1505017280578613
92, 8218, 8194, 8156, 8253, 8178, 8148, 8128, 8155, 8103, 8121, 8068, 8181, 8112, 8149,2.1505017280578613
93, 8217, 8210, 8214, 8258, 8188, 8165, 8135, 8170, 8088, 8113, 8052, 8170, 8094, 8153,2.1656298637390137
94, 8205, 8198, 8136, 8271, 8204, 8181, 8163, 8173, 8112, 8129, 8045, 8152, 8101, 8151,2.1656298637390137
95, 8197, 8186, 8172, 8262, 8195, 8186, 8169, 8167, 8130, 8144, 8042, 8159, 8113, 8157,2.181471347808838
96, 8195, 8187, 8174, 8249, 8185, 8195, 8177, 8174, 8153, 8169, 8051, 8164, 8129, 8180,2.181471347808838
97, 8197, 8174, 8141, 8240, 8192, 8197, 8198, 8173, 8172, 8183, 8055, 8152, 8135, 8185,2.1968324184417725
98, 8204, 8178, 8201, 8237, 8195, 8198, 8202, 8180, 8158, 8164, 8047, 8164, 8122, 8179,2.1968324184417725
99, 8208, 8179, 8144, 8239, 8189, 8183, 8210, 8183, 8169, 8172, 8062, 8169, 8135, 8191,2.2124502658843994
100, 8213, 8173, 8179, 8212, 8180, 8174, 8215, 8179, 8182, 8187, 8079, 8173, 8155, 8200,2.2124502658843994
101, 8208, 8174, 8175, 8199, 8182, 8183, 8214, 8181, 8187, 8180, 8075, 8174, 8152, 8188,2.2285232543945312
102, 8206, 8173, 8135, 8197, 8179, 8166, 8190, 8176, 8178, 8153, 8064, 8159, 8127, 8167,2.2285232543945312
103, 8216, 8182, 8204, 8183, 8169, 8157, 8167, 8179, 8160, 8127, 8069, 8167, 8117, 8164,2.2441296577453613
104, 8218, 8186, 8149, 8195, 8176, 8163, 8178, 8172, 8172, 8134, 8089, 8175, 8131, 8176,2.2441296577453613
105, 8216, 8193, 8180, 8196, 8181, 8170, 8181, 8172, 8177, 8133, 8089, 8177, 8127, 8170,2.259657621383667
106, 8204, 8189, 8188, 8195, 8183, 8180, 8182, 8185, 8173, 8135, 8079, 8161, 8115, 8152,2.259657621383667
107, 8181, 8169, 8134, 8206, 8192, 8182, 8183, 8172, 8168, 8142, 8070, 8133, 8101, 8144,2.275686740875244
108, 8182, 8181, 8206, 8208, 8196, 8199, 8183, 8168, 8162, 8144, 8066, 8148, 8097, 8159,2.275686740875244
109, 8199, 8189, 8162, 8227, 8200, 8206, 8215, 8176, 8188, 8179, 8090, 8172, 8133, 8184,2.290332078933716
110, 8213, 8181, 8191, 8234, 8196, 8193, 8216, 8175, 8196, 8197, 8097, 8183, 8153, 8192,2.290332078933716
111, 8202, 8174, 8201, 8218, 8182, 8188, 8191, 8174, 8195, 8190, 8077, 8175, 8140, 8183,2.305818796157837
112, 8190, 8158, 8124, 8200, 8173, 8182, 8194, 8165, 8212, 8191, 8071, 8148, 8136, 8175,2.305818796157837
113, 8208, 8168, 8210, 8191, 8174, 8187, 8194, 8175, 8213, 8186, 8076, 8166, 8139, 8184,2.321444034576416
114, 8209, 8174, 8163, 8205, 8183, 8177, 8192, 8171, 8214, 8185, 8085, 8176, 8141, 8184,2.321444034576416
115, 8203, 8172, 8156, 8184, 8173, 8151, 8182, 8161, 8207, 8173, 8086, 8167, 8142, 8178,2.336773157119751
116, 8222, 8188, 8208, 8168, 8169, 8157, 8177, 8173, 8200, 8169, 8095, 8188, 8151, 8191,2.336773157119751
117, 8229, 8189, 8146, 8202, 8184, 8158, 8175, 8164, 8198, 8178, 8109, 8195, 8155, 8187,2.3521547317504883
118, 8220, 8198, 8212, 8205, 8186, 8150, 8152, 8163, 8167, 8161, 8108, 8192, 8137, 8171,2.3685452938079834
119, 8200, 8196, 8171, 8187, 8188, 8150, 8155, 8169, 8154, 8158, 8104, 8171, 8132, 8158,2.3685452938079834
120, 8176, 8172, 8147, 8168, 8189, 8157, 8159, 8160, 8156, 8150, 8081, 8139, 8127, 8132,2.3685452938079834
121, 8161, 8168, 8185, 8162, 8183, 8173, 8152, 8168, 8144, 8131, 8056, 8133, 8110, 8120,2.38445782661438
122, 8163, 8162, 8119, 8184, 8185, 8165, 8164, 8168, 8148, 8138, 8060, 8128, 8109, 8133,2.38445782661438
123, 8159, 8154, 8180, 8172, 8178, 8172, 8167, 8171, 8144, 8124, 8039, 8119, 8096, 8141,2.398491621017456
124, 8129, 8142, 8146, 8146, 8164, 8186, 8168, 8176, 8111, 8120, 8024, 8096, 8087, 8130,2.398491621017456
125, 8132, 8144, 8128, 8152, 8155, 8174, 8171, 8170, 8064, 8114, 8031, 8098, 8092, 8125,2.4141056537628174
126, 8145, 8163, 8188, 8162, 8159, 8170, 8166, 8172, 8067, 8072, 8005, 8112, 8082, 8124,2.4141056537628174
127, 8127, 8145, 8110, 8154, 8171, 8151, 8159, 8161, 8125, 8084, 7998, 8082, 8077, 8115,2.429727554321289
236, 8127, 8133, 8164, 8130, 8158, 8147, 8149, 8163, 8137, 8142, 8034, 8083, 8088, 8120,2.429727554321289
0, 8148, 8151, 8163, 8152, 8153, 8177, 8169, 8175, 8143, 8184, 8064, 8117, 8117, 8147,2.4464828968048096
1, 8163, 8167, 8149, 8186, 8172, 8189, 8187, 8170, 8173, 8182, 8071, 8136, 8133, 8171,2.4464828968048096
2, 8169, 8172, 8212, 8179, 8180, 8189, 8183, 8175, 8170, 8168, 8071, 8146, 8127, 8174,2.462184429168701
3, 8160, 8150, 8136, 8168, 8173, 8192, 8197, 8165, 8157, 8168, 8067, 8127, 8119, 8156,2.462184429168701
4, 8150, 8145, 8176, 8155, 8168, 8201, 8205, 8166, 8144, 8153, 8054, 8118, 8103, 8137,2.478229522705078
5, 8161, 8165, 8181, 8167, 8187, 8200, 8210, 8177, 8167, 8164, 8067, 8130, 8117, 8153,2.478229522705078
6, 8184, 8170, 8151, 8183, 8200, 8189, 8204, 8169, 8204, 8190, 8083, 8134, 8142, 8177,2.4934370517730713
7, 8183, 8180, 8211, 8182, 8203, 8197, 8199, 8175, 8207, 8191, 8081, 8140, 8141, 8173,2.5095319747924805
8, 8163, 8176, 8140, 8188, 8209, 8193, 8213, 8178, 8207, 8189, 8082, 8127, 8132, 8155,2.5095319747924805
9, 8173, 8173, 8179, 8173, 8200, 8178, 8205, 8176, 8200, 8181, 8090, 8139, 8137, 8162,2.5246071815490723
10, 8189, 8181, 8192, 8170, 8192, 8179, 8198, 8176, 8206, 8185, 8115, 8168, 8158, 8185,2.5246071815490723
11, 8184, 8174, 8146, 8175, 8195, 8171, 8197, 8170, 8206, 8186, 8115, 8160, 8156, 8178,2.540121555328369
12, 8185, 8180, 8212, 8167, 8192, 8166, 8191, 8179, 8189, 8168, 8096, 8165, 8140, 8167,2.540121555328369
13, 8191, 8178, 8152, 8175, 8191, 8163, 8197, 8172, 8203, 8179, 8116, 8176, 8153, 8176,2.540121555328369
14, 8192, 8178, 8182, 8174, 8188, 8161, 8189, 8170, 8201, 8180, 8131, 8184, 8161, 8180,2.556291341781616
15, 8193, 8192, 8198, 8183, 8189, 8167, 8188, 8184, 8190, 8167, 8126, 8187, 8157, 8179,2.5694284439086914
16, 8202, 8194, 8144, 8200, 8192, 8157, 8185, 8167, 8197, 8165, 8132, 8188, 8161, 8178,2.5694284439086914
17, 8217, 8203, 8223, 8192, 8192, 8165, 8163, 8162, 8183, 8158, 8144, 8208, 8160, 8180,2.5854945182800293
18, 8217, 8202, 8165, 8207, 8199, 8171, 8168, 8166, 8170, 8167, 8157, 8196, 8167, 8184,2.5854945182800293
19, 8211, 8198, 8178, 8218, 8201, 8156, 8163, 8169, 8154, 8158, 8153, 8180, 8163, 8178,2.6015377044677734
20, 8202, 8202, 8208, 8210, 8203, 8164, 8160, 8182, 8156, 8154, 8149, 8194, 8156, 8175,2.6015377044677734
21, 8197, 8194, 8144, 8221, 8213, 8180, 8192, 8179, 8187, 8189, 8161, 8191, 8167, 8180,2.6172077655792236
22, 8193, 8197, 8213, 8229, 8217, 8191, 8204, 8177, 8189, 8203, 8148, 8181, 8161, 8182,2.6172077655792236
23, 8164, 8178, 8155, 8223, 8204, 8185, 8197, 8166, 8176, 8200, 8120, 8150, 8143, 8171,2.6323554515838623
24, 8154, 8155, 8150, 8195, 8186, 8174, 8190, 8160, 8170, 8192, 8116, 8142, 8145, 8168,2.6323554515838623
25, 8172, 8165, 8198, 8182, 8181, 8180, 8194, 8178, 8188, 8196, 8134, 8173, 8171, 8186,2.6478400230407715
26, 8169, 8162, 8134, 8186, 8181, 8170, 8187, 8172, 8202, 8202, 8132, 8157, 8173, 8176,2.6478400230407715
27, 8151, 8156, 8185, 8160, 8173, 8159, 8155, 8171, 8173, 8170, 8112, 8138, 8142, 8147,2.662994146347046
28, 8153, 8161, 8150, 8155, 8173, 8155, 8149, 8174, 8161, 8151, 8123, 8148, 8140, 8142,2.662994146347046
29, 8175, 8176, 8160, 8165, 8174, 8146, 8155, 8163, 8152, 8145, 8134, 8167, 8147, 8149,2.678541660308838
30, 8183, 8193, 8209, 8174, 8175, 8159, 8163, 8167, 8136, 8141, 8138, 8184, 8144, 8159,2.678541660308838
31, 8177, 8184, 8137, 8193, 8185, 8166, 8175, 8171, 8141, 8151, 8143, 8172, 8144, 8162,2.6942033767700195
32, 8177, 8180, 8196, 8189, 8182, 8169, 8156, 8173, 8129, 8137, 8117, 8163, 8124, 8159,2.6942033767700195
33, 8167, 8175, 8169, 8185, 8185, 8177, 8156, 8171, 8135, 8141, 8105, 8153, 8114, 8152,2.7098264694213867
34, 8162, 8159, 8146, 8176, 8185, 8176, 8173, 8167, 8161, 8163, 8123, 8151, 8129, 8154,2.7098264694213867
35, 8167, 8164, 8193, 8166, 8172, 8184, 8176, 8181, 8170, 8167, 8123, 8157, 8138, 8169,2.7258400917053223
36, 8160, 8168, 8131, 8186, 8173, 8184, 8186, 8175, 8174, 8177, 8114, 8142, 8136, 8172,2.7258400917053223
37, 8156, 8169, 8183, 8181, 8170, 8186, 8189, 8172, 8173, 8177, 8110, 8143, 8138, 8171,2.7412025928497314
38, 8156, 8153, 8159, 8160, 8162, 8185, 8188, 8175, 8183, 8180, 8111, 8142, 8145, 8172,2.7412025928497314
39, 8165, 8140, 8138, 8150, 8153, 8173, 8180, 8164, 8185, 8181, 8114, 8141, 8150, 8176,2.756696939468384
40, 8185, 8162, 8209, 8152, 8148, 8180, 8175, 8171, 8188, 8186, 8133, 8179, 8168, 8188,2.756696939468384
41, 8174, 8157, 8137, 8153, 8149, 8162, 8170, 8172, 8200, 8194, 8154, 8179, 8179, 8182,2.7721633911132812
42, 8155, 8147, 8169, 8132, 8140, 8135, 8135, 8170, 8169, 8164, 8130, 8160, 8157, 8157,2.7721633911132812
43, 8161, 8160, 8169, 8139, 8144, 8146, 8130, 8172, 8156, 8155, 8121, 8166, 8154, 8146,2.7881641387939453
44, 8179, 8172, 8148, 8150, 8154, 8153, 8139, 8169, 8171, 8170, 8140, 8172, 8168, 8153,2.7881641387939453
45, 8181, 8183, 8206, 8139, 8155, 8153, 8127, 8179, 8155, 8159, 8146, 8182, 8166, 8165,2.8042068481445312
46, 8173, 8176, 8129, 8154, 8161, 8151, 8130, 8173, 8142, 8154, 8146, 8176, 8168, 8163,2.8042068481445312
47, 8178, 8178, 8175, 8160, 8163, 8155, 8127, 8165, 8127, 8143, 8144, 8173, 8154, 8146,2.819967269897461
48, 8172, 8191, 8186, 8160, 8166, 8165, 8132, 8172, 8123, 8147, 8147, 8170, 8146, 8138,2.819967269897461
49, 8156, 8180, 8132, 8165, 8174, 8159, 8147, 8166, 8136, 8167, 8152, 8162, 8158, 8140,2.836069345474243
50, 8160, 8177, 8204, 8157, 8171, 8166, 8144, 8165, 8128, 8159, 8152, 8174, 8148, 8142,2.836069345474243
51, 8170, 8180, 8149, 8166, 8175, 8168, 8148, 8167, 8123, 8162, 8153, 8163, 8141, 8144,2.8512163162231445
52, 8177, 8183, 8174, 8173, 8179, 8162, 8146, 8177, 8124, 8170, 8152, 8157, 8148, 8150,2.8512163162231445
53, 8167, 8188, 8193, 8175, 8181, 8169, 8143, 8180, 8132, 8169, 8153, 8158, 8147, 8154,2.866530656814575
54, 8149, 8181, 8132, 8175, 8188, 8171, 8138, 8157, 8130, 8163, 8143, 8136, 8130, 8144,2.866530656814575
55, 8152, 8180, 8194, 8170, 8191, 8177, 8125, 8164, 8120, 8162, 8134, 8141, 8126, 8144,2.882448434829712
56, 8158, 8170, 8149, 8183, 8186, 8178, 8138, 8172, 8139, 8187, 8148, 8142, 8142, 8161,2.882448434829712
57, 8149, 8165, 8164, 8172, 8172, 8176, 8143, 8167, 8150, 8185, 8141, 8132, 8135, 8158,2.897848606109619
58, 8138, 8169, 8180, 8163, 8168, 8183, 8141, 8176, 8153, 8173, 8121, 8128, 8132, 8143,2.897848606109619
59, 8144, 8164, 8124, 8180, 8176, 8182, 8154, 8176, 8172, 8191, 8129, 8125, 8130, 8142,2.9134838581085205
60, 8161, 8178, 8205, 8176, 8180, 8208, 8172, 8185, 8180, 8200, 8137, 8142, 8150, 8164,2.9134838581085205
61, 8155, 8172, 8156, 8171, 8185, 8214, 8191, 8178, 8193, 8213, 8142, 8138, 8249, 8175,2.929227590560913
62, 8159, 8156, 8163, 8169, 8184, 8179, 8177, 8164, 8196, 8210, 8145, 8135, 8294, 8172,2.929227590560913
63, 8183, 8171, 8207, 8181, 8185, 8179, 8169, 8179, 8204, 8213, 8151, 8160, 8223, 8188,2.9444191455841064
64, 8192, 8172, 8139, 8189, 8184, 8178, 8178, 8177, 8220, 8231, 8162, 8163, 8180, 8202,2.9444191455841064
65, 8188, 8169, 8203, 8166, 8170, 8172, 8170, 8174, 8216, 8222, 8167, 8166, 8198, 8196,2.960026979446411
66, 8175, 8165, 8159, 8165, 8171, 8175, 8180, 8175, 8229, 8221, 8176, 8164, 8205, 8186,2.960026979446411
67, 8170, 8160, 8147, 8159, 8172, 8169, 8173, 8166, 8218, 8209, 8173, 8157, 8184, 8183,2.9750871658325195
68, 8166, 8171, 8197, 8139, 8163, 8164, 8144, 8169, 8177, 8183, 8168, 8160, 8168, 8172,2.9750871658325195
69, 8166, 8172, 8136, 8157, 8169, 8158, 8145, 8165, 8176, 8186, 8190, 8154, 8165, 8152,2.990489959716797
70, 8182, 8187, 8206, 8177, 8181, 8170, 8153, 8171, 8180, 8187, 8199, 8169, 8168, 8152,2.990489959716797
71, 8170, 8191, 8173, 8189, 8192, 8185, 8164, 8176, 8179, 8192, 8183, 8165, 8166, 8159,3.0065486431121826
72, 8138, 8166, 8138, 8182, 8194, 8183, 8158, 8169, 8172, 8193, 8157, 8131, 8146, 8143,3.0065486431121826
73, 8132, 8165, 8192, 8170, 8184, 8189, 8147, 8173, 8161, 8180, 8141, 8122, 8130, 8132,3.022557020187378
74, 8143, 8166, 8131, 8181, 8184, 8191, 8163, 8165, 8172, 8184, 8143, 8121, 8142, 8142,3.022557020187378
75, 8148, 8168, 8186, 8181, 8186, 8196, 8167, 8172, 8173, 8194, 8148, 8136, 8157, 8158,3.0381436347961426
76, 8141, 8163, 8164, 8184, 8188, 8195, 8168, 8178, 8179, 8207, 8161, 8136, 8165, 8160,3.0381436347961426
77, 8136, 8147, 8131, 8175, 8179, 8186, 8169, 8163, 8183, 8200, 8160, 8118, 8159, 8153,3.0549538135528564
78, 8140, 8159, 8196, 8172, 8178, 8201, 8177, 8175, 8176, 8195, 8157, 8132, 8164, 8165,3.0549538135528564
79, 8148, 8167, 8138, 8201, 8196, 8196, 8197, 8178, 8192, 8219, 8173, 8138, 8182, 8178,3.069570779800415
80, 8157, 8170, 8183, 8197, 8189, 8177, 8184, 8170, 8189, 8203, 8167, 8134, 8174, 8164,3.069570779800415
81, 8154, 8168, 8171, 8187, 8172, 8172, 8175, 8167, 8180, 8186, 8162, 8124, 8171, 8151,3.085404396057129
82, 8151, 8153, 8141, 8195, 8163, 8162, 8172, 8160, 8176, 8192, 8172, 8123, 8181, 8153,3.085404396057129
83, 8153, 8158, 8207, 8188, 8156, 8170, 8157, 8168, 8168, 8177, 8172, 8147, 8171, 8161,3.1013717651367188
84, 8143, 8160, 8127, 8183, 8148, 8167, 8153, 8164, 8171, 8171, 8170, 8139, 8163, 8153,3.1013717651367188
85, 8145, 8154, 8159, 8167, 8136, 8145, 8136, 8159, 8159, 8162, 8161, 8129, 8160, 8139,3.1169724464416504
86, 8147, 8153, 8168, 8159, 8144, 8148, 8132, 8168, 8163, 8169, 8162, 8138, 8166, 8144,3.1169724464416504
87, 8145, 8155, 8128, 8164, 8154, 8156, 8144, 8163, 8178, 8188, 8177, 8142, 8172, 8150,3.1324520111083984
88, 8152, 8164, 8200, 8156, 8142, 8161, 8127, 8165, 8162, 8177, 8175, 8150, 8164, 8147,3.1324520111083984
89, 8152, 8160, 8134, 8162, 8147, 8157, 8117, 8164, 8157, 8164, 8175, 8143, 8166, 8144,3.148559331893921
90, 8156, 8173, 8165, 8159, 8161, 8161, 8123, 8167, 8150, 8158, 8187, 8153, 8168, 8142,3.148559331893921
91, 8157, 8188, 8189, 8163, 8162, 8171, 8132, 8174, 8129, 8154, 8190, 8161, 8162, 8142,3.164126396179199
92, 8151, 8177, 8134, 8183, 8161, 8157, 8128, 8163, 8118, 8151, 8185, 8146, 8160, 8138,3.164126396179199
93, 8155, 8184, 8206, 8183, 8170, 8163, 8119, 8172, 8116, 8150, 8186, 8155, 8160, 8144,3.1795291900634766
94, 8152, 8177, 8151, 8189, 8182, 8173, 8134, 8177, 8134, 8170, 8190, 8145, 8162, 8144,3.194524049758911
95, 8146, 8164, 8162, 8183, 8174, 8168, 8125, 8172, 8134, 8164, 8175, 8133, 8152, 8134,3.194524049758911
96, 8144, 8177, 8190, 8179, 8167, 8175, 8126, 8181, 8142, 8165, 8175, 8149, 8156, 8144,3.194524049758911
97, 8146, 8177, 8139, 8195, 8171, 8178, 8159, 8176, 8168, 8195, 8200, 8155, 8177, 8163,3.210092782974243
98, 8159, 8178, 8213, 8198, 8162, 8186, 8168, 8178, 8164, 8193, 8205, 8166, 8180, 8169,3.210092782974243
99, 8159, 8176, 8162, 8199, 8166, 8186, 8167, 8176, 8164, 8193, 8194, 8155, 8177, 8165,3.2261006832122803
100, 8161, 8174, 8169, 8195, 8179, 8179, 8162, 8170, 8164, 8200, 8186, 8150, 8178, 8173,3.2261006832122803
101, 8175, 8187, 8211, 8208, 8187, 8190, 8167, 8176, 8173, 8204, 8200, 8171, 8189, 8193,3.2422397136688232
102, 8169, 8178, 8145, 8219, 8183, 8183, 8171, 8166, 8184, 8204, 8199, 8160, 8192, 8184,3.2422397136688232
103, 8155, 8171, 8200, 8189, 8168, 8178, 8148, 8168, 8162, 8185, 8167, 8144, 8164, 8162,3.2579259872436523
104, 8150, 8170, 8155, 8191, 8176, 8195, 8153, 8172, 8170, 8194, 8176, 8142, 8158, 8165,3.2579259872436523
105, 8162, 8176, 8157, 8214, 8195, 8211, 8174, 8168, 8192, 8210, 8202, 8155, 8184, 8179,3.2734720706939697
106, 8169, 8191, 8208, 8217, 8196, 8217, 8182, 8178, 8184, 8209, 8196, 8167, 8187, 8179,3.2734720706939697
107, 8162, 8177, 8134, 8209, 8193, 8203, 8186, 8171, 8176, 8209, 8189, 8148, 8169, 8165,3.2895123958587646
108, 8160, 8173, 8195, 8195, 8192, 8200, 8180, 8169, 8180, 8204, 8192, 8152, 8168, 8168,3.2895123958587646
109, 8163, 8179, 8173, 8213, 8198, 8204, 8191, 8173, 8194, 8216, 8195, 8159, 8184, 8183,3.3076248168945312
110, 8175, 8183, 8166, 8229, 8200, 8196, 8195, 8168, 8179, 8210, 8190, 8161, 8174, 8181,3.3076248168945312
111, 8183, 8193, 8220, 8228, 8193, 8202, 8186, 8174, 8157, 8188, 8187, 8176, 8162, 8176,3.3216352462768555
112, 8175, 8178, 8142, 8227, 8189, 8192, 8189, 8168, 8166, 8196, 8189, 8164, 8172, 8178,3.3216352462768555
113, 8175, 8173, 8200, 8206, 8183, 8182, 8178, 8170, 8154, 8198, 8177, 8159, 8162, 8180,3.3374927043914795
114, 8175, 8181, 8186, 8208, 8187, 8184, 8178, 8173, 8153, 8202, 8175, 8157, 8153, 8179,3.3374927043914795
115, 8176, 8177, 8158, 8218, 8191, 8184, 8186, 8165, 8163, 8210, 8188, 8152, 8162, 8181,3.353929042816162
116, 8190, 8185, 8222, 8216, 8196, 8200, 8186, 8179, 8161, 8215, 8203, 8176, 8175, 8196,3.353929042816162
117, 8193, 8183, 8154, 8222, 8199, 8197, 8199, 8172, 8171, 8234, 8214, 8187, 8196, 8206,3.369783639907837
118, 8185, 8178, 8196, 8205, 8178, 8185, 8197, 8167, 8168, 8226, 8199, 8180, 8195, 8201,3.369783639907837
119, 8184, 8175, 8187, 8203, 8176, 8193, 8202, 8180, 8178, 8225, 8190, 8174, 8187, 8203,3.385094404220581
120, 8193, 8175, 8154, 8215, 8193, 8194, 8215, 8178, 8195, 8242, 8203, 8184, 8193, 8210,3.385094404220581
121, 8190, 8182, 8211, 8197, 8182, 8195, 8211, 8179, 8191, 8227, 8196, 8193, 8193, 8208,3.4016215801239014
122, 8162, 8162, 8124, 8181, 8164, 8179, 8201, 8167, 8196, 8218, 8184, 8159, 8193, 8195,3.4016215801239014
123, 8164, 8155, 8170, 8165, 8159, 8168, 8180, 8165, 8195, 8218, 8186, 8157, 8190, 8193,3.4171645641326904
124, 8171, 8165, 8185, 8157, 8159, 8179, 8182, 8176, 8198, 8221, 8190, 8175, 8186, 8194,3.4171645641326904
125, 8158, 8154, 8129, 8153, 8155, 8171, 8179, 8169, 8205, 8216, 8180, 8158, 8182, 8176,3.43224835395813
126, 8165, 8162, 8197, 8149, 8154, 8163, 8154, 8173, 8199, 8203, 8179, 8164, 8178, 8169,3.43224835395813
127, 8181, 8171, 8145, 8171, 8162, 8155, 8154, 8171, 8202, 8214, 8200, 8177, 8186, 8182,3.4481446743011475
236, 8188, 8168, 8177, 8167, 8155, 8153, 8146, 8166, 8185, 8202, 8198, 8188, 8181, 8182,3.4481446743011475
0, 8181, 8168, 8191, 8161, 8159, 8166, 8149, 8175, 8173, 8189, 8195, 8197, 8180, 8173,3.463083505630493
1, 8181, 8169, 8138, 8171, 8170, 8156, 8152, 8170, 8183, 8204, 8212, 8195, 8197, 8178,3.463083505630493
2, 8182, 8177, 8208, 8156, 8156, 8150, 8132, 8166, 8165, 8194, 8207, 8200, 8188, 8183,3.4784421920776367
3, 8170, 8168, 8149, 8152, 8153, 8154, 8139, 8160, 8152, 8180, 8188, 8182, 8166, 8163,3.4784421920776367
4, 8169, 8169, 8163, 8150, 8153, 8144, 8139, 8160, 8149, 8167, 8184, 8182, 8157, 8153,3.4946045875549316
5, 8172, 8184, 8186, 8145, 8141, 8137, 8129, 8170, 8151, 8171, 8202, 8198, 8167, 8167,3.4946045875549316
6, 8179, 8177, 8135, 8163, 8152, 8143, 8140, 8163, 8155, 8179, 8213, 8187, 8177, 8168,3.5091593265533447
7, 8191, 8188, 8215, 8178, 8173, 8167, 8144, 8173, 8144, 8172, 8200, 8197, 8173, 8162,3.5091593265533447
8, 8173, 8183, 8156, 8175, 8171, 8160, 8132, 8168, 8143, 8183, 8199, 8196, 8173, 8160,3.5254786014556885
9, 8156, 8168, 8154, 8158, 8153, 8145, 8119, 8159, 8128, 8181, 8195, 8177, 8163, 8150,3.5425398349761963
10, 8165, 8180, 8199, 8173, 8163, 8170, 8135, 8174, 8130, 8176, 8192, 8181, 8162, 8155,3.5425398349761963
11, 8165, 8174, 8139, 8189, 8170, 8175, 8148, 8171, 8142, 8182, 8200, 8179, 8167, 8165,3.5425398349761963
12, 8159, 8173, 8200, 8168, 8156, 8174, 8136, 8167, 8117, 8170, 8188, 8184, 8153, 8161,3.557119846343994
13, 8169, 8182, 8163, 8188, 8164, 8184, 8156, 8167, 8134, 8191, 8188, 8183, 8158, 8162,3.557119846343994
14, 8182, 8178, 8169, 8206, 8173, 8180, 8171, 8167, 8167, 8208, 8189, 8175, 8160, 8161,3.573488473892212
15, 8173, 8174, 8208, 8187, 8172, 8187, 8158, 8175, 8166, 8194, 8174, 8177, 8152, 8160,3.573488473892212
16, 8159, 8171, 8130, 8190, 8182, 8192, 8162, 8166, 8169, 8194, 8170, 8163, 8160, 8163,3.5872812271118164
17, 8170, 8180, 8195, 8196, 8183, 8195, 8170, 8172, 8165, 8190, 8172, 8167, 8161, 8169,3.5872812271118164
18, 8174, 8175, 8168, 8200, 8176, 8190, 8182, 8181, 8163, 8184, 8177, 8177, 8159, 8175,3.60251784324646
19, 8171, 8171, 8154, 8198, 8170, 8177, 8181, 8172, 8154, 8175, 8177, 8179, 8159, 8177,3.620426654815674
20, 8167, 8181, 8198, 8194, 8167, 8183, 8168, 8176, 8147, 8168, 8178, 8182, 8156, 8177,3.620426654815674
21, 8157, 8163, 8119, 8197, 8169, 8182, 8162, 8167, 8149, 8178, 8179, 8162, 8150, 8164,3.620426654815674
22, 8155, 8164, 8183, 8188, 8169, 8183, 8150, 8166, 8126, 8172, 8163, 8165, 8138, 8160,3.633495330810547
23, 8155, 8180, 8170, 8201, 8174, 8187, 8160, 8173, 8126, 8172, 8161, 8166, 8145, 8166,3.6504201889038086
24, 8161, 8174, 8141, 8207, 8171, 8181, 8169, 8164, 8145, 8181, 8173, 8160, 8159, 8170,3.6504201889038086
25, 8176, 8174, 8207, 8191, 8165, 8190, 8166, 8170, 8153, 8191, 8185, 8180, 8165, 8182,3.6649444103240967
26, 8177, 8172, 8138, 8200, 8170, 8191, 8174, 8168, 8152, 8199, 8189, 8175, 8170, 8183,3.6649444103240967
27, 8173, 8173, 8179, 8194, 8163, 8182, 8157, 8162, 8127, 8166, 8161, 8160, 8154, 8173,3.6813340187072754
28, 8165, 8167, 8173, 8184, 8153, 8176, 8151, 8163, 8133, 8163, 8156, 8160, 8152, 8172,3.6813340187072754
29, 8167, 8161, 8143, 8183, 8159, 8170, 8159, 8164, 8159, 8195, 8183, 8168, 8172, 8177,3.697110891342163
30, 8188, 8182, 8208, 8187, 8167, 8184, 8159, 8172, 8152, 8190, 8190, 8188, 8178, 8187,3.697110891342163
31, 8200, 8181, 8143, 8197, 8169, 8182, 8170, 8162, 8151, 8183, 8182, 8182, 8182, 8192,3.7132747173309326
32, 8199, 8169, 8188, 8178, 8157, 8170, 8164, 8163, 8154, 8182, 8179, 8186, 8187, 8190,3.7132747173309326
33, 8192, 8167, 8187, 8173, 8158, 8180, 8165, 8180, 8160, 8187, 8190, 8198, 8189, 8192,3.730376958847046
34, 8188, 8159, 8134, 8176, 8165, 8176, 8168, 8173, 8166, 8190, 8184, 8178, 8184, 8186,3.730376958847046
35, 8181, 8164, 8199, 8154, 8157, 8171, 8152, 8169, 8162, 8183, 8162, 8168, 8179, 8176,3.744534492492676
36, 8174, 8156, 8139, 8152, 8154, 8173, 8159, 8167, 8177, 8198, 8173, 8173, 8189, 8179,3.744534492492676
37, 8187, 8154, 8175, 8155, 8151, 8171, 8163, 8167, 8179, 8195, 8187, 8191, 8189, 8187,3.759692430496216
38, 8184, 8161, 8187, 8155, 8151, 8172, 8152, 8173, 8161, 8181, 8176, 8187, 8175, 8174,3.759692430496216
39, 8168, 8149, 8129, 8144, 8149, 8165, 8141, 8163, 8145, 8169, 8155, 8161, 8162, 8153,3.7776126861572266
40, 8167, 8148, 8194, 8117, 8139, 8167, 8132, 8165, 8122, 8142, 8145, 8167, 8150, 8148,3.7776126861572266
41, 8168, 8151, 8137, 8125, 8143, 8162, 8132, 8167, 8118, 8147, 8163, 8166, 8159, 8150,3.7776126861572266
42, 8180, 8161, 8162, 8139, 8149, 8161, 8135, 8171, 8123, 8167, 8188, 8176, 8176, 8158,3.791156053543091
43, 8187, 8175, 8188, 8145, 8155, 8174, 8154, 8176, 8139, 8177, 8197, 8190, 8182, 8176,3.807119846343994
44, 8180, 8165, 8128, 8150, 8160, 8163, 8161, 8164, 8150, 8174, 8184, 8174, 8177, 8175,3.807119846343994
45, 8180, 8171, 8202, 8148, 8160, 8167, 8144, 8169, 8141, 8163, 8166, 8178, 8167, 8161,3.8223001956939697
46, 8176, 8175, 8149, 8158, 8163, 8167, 8144, 8168, 8149, 8167, 8175, 8175, 8164, 8151,3.8223001956939697
47, 8169, 8169, 8153, 8150, 8162, 8150, 8139, 8170, 8150, 8162, 8188, 8174, 8159, 8146,3.8382952213287354
48, 8181, 8180, 8200, 8155, 8170, 8165, 8143, 8187, 8152, 8161, 8199, 8196, 8175, 8161,3.8382952213287354
49, 8192, 8182, 8145, 8187, 8182, 8173, 8154, 8171, 8162, 8171, 8206, 8196, 8192, 8174,3.853428602218628
50, 8190, 8189, 8208, 8183, 8174, 8168, 8144, 8168, 8144, 8159, 8191, 8192, 8171, 8169,3.853428602218628
51, 8176, 8184, 8157, 8169, 8170, 8164, 8150, 8173, 8145, 8163, 8185, 8180, 8160, 8159,3.8693275451660156
52, 8167, 8163, 8148, 8148, 8168, 8157, 8142, 8160, 8141, 8160, 8184, 8168, 8160, 8146,3.8693275451660156
53, 8160, 8159, 8192, 8143, 8164, 8161, 8130, 8165, 8120, 8143, 8177, 8169, 8146, 8139,3.884450674057007
54, 8158, 8162, 8127, 8166, 8170, 8157, 8142, 8164, 8119, 8153, 8178, 8167, 8150, 8138,3.884450674057007
55, 8174, 8181, 8195, 8168, 8172, 8163, 8137, 8161, 8127, 8157, 8179, 8182, 8161, 8144,3.900453567504883
56, 8176, 8176, 8171, 8168, 8174, 8169, 8142, 8164, 8148, 8167, 8190, 8178, 8164, 8147,3.900453567504883
57, 8167, 8156, 8150, 8162, 8169, 8155, 8146, 8166, 8149, 8168, 8185, 8164, 8153, 8141,3.916518211364746
58, 8169, 8170, 8196, 8158, 8164, 8155, 8136, 8177, 8138, 8158, 8173, 8180, 8151, 8145,3.916518211364746
59, 8167, 8174, 8137, 8178, 8172, 8160, 8142, 8168, 8149, 8169, 8177, 8174, 8157, 8150,3.9326484203338623
60, 8159, 8171, 8201, 8172, 8167, 8166, 8143, 8162, 8144, 8162, 8172, 8168, 8144, 8145,3.9326484203338623
61, 8161, 8175, 8175, 8175, 8163, 8168, 8154, 8167, 8153, 8166, 8180, 8176, 8148, 8145,3.947153091430664
62, 8177, 8181, 8162, 8199, 8168, 8165, 8162, 8169, 8164, 8182, 8192, 8186, 8165, 8159,3.947153091430664
63, 8178, 8186, 8228, 8198, 8164, 8175, 8153, 8180, 8141, 8176, 8188, 8202, 8166, 8165,3.9626693725585938
64, 8171, 8174, 8147, 8193, 8166, 8170, 8148, 8170, 8136, 8170, 8188, 8188, 8162, 8155,3.9626693725585938
65, 8183, 8185, 8199, 8203, 8175, 8173, 8141, 8167, 8137, 8154, 8184, 8176, 8152, 8158,3.9785280227661133
66, 8178, 8188, 8190, 8215, 8179, 8185, 8154, 8174, 8144, 8161, 8177, 8168, 8155, 8167,3.9785280227661133
67, 8162, 8158, 8143, 8204, 8173, 8180, 8163, 8164, 8149, 8175, 8164, 8147, 8161, 8163,3.99344539642334
68, 8167, 8157, 8209, 8200, 8170, 8184, 8154, 8165, 8136, 8157, 8139, 8147, 8142, 8162,3.99344539642334
69, 8175, 8163, 8146, 8217, 8178, 8179, 8161, 8166, 8147, 8155, 8143, 8145, 8138, 8165,4.016047954559326
70, 8175, 8164, 8187, 8197, 8169, 8172, 8151, 8172, 8151, 8167, 8159, 8150, 8149, 8164,4.016047954559326
71, 8168, 8172, 8192, 8195, 8162, 8176, 8144, 8173, 8149, 8179, 8152, 8148, 8151, 8163,4.016047954559326
72, 8167, 8177, 8148, 8221, 8172, 8168, 8144, 8157, 8150, 8174, 8139, 8142, 8141, 8157,4.025166749954224
73, 8163, 8176, 8207, 8200, 8170, 8176, 8128, 8165, 8147, 8161, 8137, 8157, 8134, 8150,4.040263652801514
74, 8140, 8148, 8135, 8167, 8155, 8174, 8129, 8167, 8153, 8165, 8132, 8134, 8135, 8144,4.040263652801514
75, 8133, 8135, 8162, 8149, 8140, 8167, 8137, 8162, 8148, 8153, 8114, 8125, 8126, 8136,4.055893659591675
76, 8151, 8157, 8183, 8165, 8155, 8186, 8148, 8173, 8166, 8173, 8140, 8159, 8144, 8150,4.055893659591675
77, 8165, 8167, 8138, 8189, 8177, 8184, 8152, 8169, 8190, 8209, 8173, 8166, 8172, 8166,4.071457147598267
78, 8163, 8173, 8198, 8181, 8173, 8178, 8146, 8169, 8182, 8190, 8157, 8165, 8162, 8163,4.071457147598267
79, 8153, 8164, 8134, 8176, 8168, 8180, 8156, 8165, 8187, 8180, 8143, 8166, 8161, 8156,4.087525367736816
80, 8147, 8151, 8155, 8149, 8157, 8179, 8152, 8163, 8182, 8187, 8137, 8170, 8163, 8151,4.087525367736816
81, 8140, 8145, 8171, 8132, 8146, 8180, 8158, 8177, 8177, 8187, 8136, 8163, 8152, 8151,4.103503465652466
82, 8139, 8138, 8114, 8142, 8147, 8171, 8177, 8170, 8195, 8182, 8136, 8148, 8152, 8148,4.103503465652466
83, 8150, 8151, 8192, 8130, 8146, 8169, 8172, 8169, 8201, 8176, 8134, 8163, 8156, 8148,4.119101524353027
84, 8141, 8146, 8135, 8127, 8153, 8166, 8177, 8170, 8210, 8197, 8156, 8171, 8165, 8152,4.119101524353027
85, 8149, 8147, 8148, 8133, 8159, 8162, 8167, 8168, 8208, 8192, 8169, 8184, 8167, 8155,4.134251594543457
86, 8172, 8173, 8197, 8145, 8163, 8170, 8149, 8173, 8195, 8170, 8158, 8191, 8161, 8158,4.134251594543457
87, 8169, 8172, 8128, 8155, 8167, 8159, 8148, 8161, 8187, 8168, 8160, 8175, 8153, 8147,4.149278163909912
88, 8166, 8173, 8190, 8145, 8164, 8155, 8139, 8165, 8166, 8155, 8171, 8193, 8148, 8138,4.149278163909912
89, 8172, 8177, 8163, 8160, 8165, 8167, 8150, 8177, 8170, 8165, 8182, 8206, 8160, 8145,4.1645941734313965
90, 8175, 8180, 8170, 8179, 8170, 8173, 8162, 8178, 8185, 8181, 8186, 8198, 8167, 8150,4.1801042556762695
91, 8165, 8187, 8201, 8179, 8181, 8183, 8156, 8177, 8176, 8173, 8168, 8186, 8153, 8145,4.1801042556762695
92, 8146, 8166, 8122, 8169, 8178, 8175, 8145, 8160, 8159, 8167, 8140, 8155, 8133, 8130,4.1801042556762695
93, 8146, 8160, 8192, 8154, 8166, 8170, 8130, 8165, 8148, 8157, 8136, 8161, 8123, 8126,4.196268796920776
94, 8149, 8167, 8163, 8169, 8178, 8177, 8146, 8174, 8166, 8167, 8155, 8171, 8140, 8134,4.196268796920776
95, 8149, 8163, 8140, 8168, 8185, 8173, 8164, 8170, 8170, 8179, 8144, 8154, 8152, 8139,4.2112956047058105
96, 8144, 8158, 8191, 8149, 8166, 8170, 8159, 8176, 8166, 8176, 8131, 8150, 8149, 8143,4.228407382965088
97, 8140, 8147, 8126, 8156, 8158, 8167, 8161, 8168, 8188, 8184, 8142, 8143, 8150, 8140,4.228407382965088
98, 8154, 8161, 8186, 8159, 8168, 8185, 8166, 8170, 8187, 8183, 8143, 8154, 8147, 8143,4.228407382965088
99, 8166, 8174, 8167, 8173, 8181, 8198, 8181, 8176, 8191, 8191, 8146, 8164, 8156, 8155,4.2429375648498535
100, 8166, 8166, 8141, 8173, 8182, 8184, 8181, 8168, 8205, 8197, 8147, 8156, 8164, 8164,4.2429375648498535
101, 8166, 8167, 8198, 8153, 8182, 8189, 8171, 8177, 8202, 8194, 8139, 8161, 8159, 8168,4.258197069168091
102, 8162, 8153, 8129, 8156, 8183, 8188, 8173, 8171, 8200, 8201, 8145, 8153, 8159, 8164,4.274270057678223
103, 8157, 8147, 8174, 8140, 8169, 8180, 8163, 8165, 8186, 8182, 8140, 8150, 8150, 8160,4.274270057678223
104, 8155, 8162, 8169, 8141, 8171, 8185, 8177, 8171, 8197, 8175, 8132, 8154, 8149, 8162,4.274270057678223
105, 8157, 8155, 8139, 8151, 8179, 8180, 8183, 8167, 8210, 8178, 8126, 8145, 8141, 8151,4.291306257247925
106, 8150, 8142, 8189, 8126, 8164, 8172, 8155, 8175, 8198, 8163, 8115, 8143, 8125, 8137,4.291306257247925
107, 8141, 8139, 8118, 8114, 8158, 8158, 8148, 8171, 8205, 8166, 8123, 8137, 8133, 8134,4.306397438049316
108, 8153, 8152, 8167, 8116, 8161, 8160, 8145, 8162, 8197, 8158, 8120, 8143, 8132, 8131,4.307393312454224
109, 8153, 8154, 8165, 8123, 8167, 8174, 8146, 8163, 8184, 8147, 8108, 8142, 8123, 8120,4.321601390838623
110, 8149, 8147, 8120, 8129, 8171, 8159, 8147, 8158, 8186, 8154, 8122, 8142, 8135, 8122,4.321601390838623
111, 8159, 8159, 8191, 8127, 8166, 8156, 8140, 8165, 8180, 8149, 8137, 8170, 8143, 8138,4.338200092315674
112, 8156, 8151, 8129, 8123, 8168, 8157, 8144, 8168, 8186, 8154, 8143, 8167, 8146, 8136,4.338200092315674
113, 8153, 8149, 8159, 8111, 8173, 8150, 8131, 8172, 8184, 8152, 8143, 8165, 8145, 8131,4.353260517120361
114, 8156, 8165, 8174, 8128, 8178, 8156, 8129, 8175, 8180, 8146, 8151, 8171, 8142, 8137,4.353260517120361
115, 8153, 8155, 8124, 8137, 8177, 8150, 8136, 8163, 8182, 8147, 8160, 8158, 8143, 8130,4.368301153182983
116, 8149, 8153, 8196, 8112, 8174, 8153, 8123, 8168, 8172, 8143, 8156, 8167, 8145, 8115,4.368301153182983
117, 8142, 8155, 8139, 8120, 8176, 8155, 8123, 8163, 8173, 8147, 8155, 8164, 8146, 8111,4.383431673049927
118, 8148, 8161, 8161, 8130, 8172, 8151, 8120, 8157, 8165, 8131, 8152, 8163, 8139, 8114,4.383431673049927
119, 8162, 8176, 8190, 8135, 8185, 8162, 8131, 8174, 8177, 8140, 8157, 8177, 8150, 8127,4.398707151412964
120, 8167, 8177, 8133, 8153, 8193, 8156, 8151, 8168, 8195, 8173, 8171, 8177, 8168, 8138,4.415318489074707
121, 8178, 8184, 8212, 8154, 8175, 8159, 8145, 8167, 8176, 8163, 8173, 8190, 8163, 8145,4.415318489074707
122, 8180, 8178, 8159, 8157, 8181, 8168, 8153, 8168, 8179, 8154, 8173, 8180, 8163, 8150,4.415318489074707
123, 8163, 8168, 8158, 8147, 8190, 8165, 8151, 8164, 8173, 8144, 8151, 8154, 8149, 8129,4.432174921035767
124, 8143, 8169, 8191, 8138, 8176, 8164, 8139, 8171, 8146, 8130, 8131, 8142, 8131, 8112,4.432516098022461
125, 8144, 8161, 8128, 8150, 8179, 8162, 8154, 8164, 8160, 8146, 8144, 8135, 8141, 8124,4.445127964019775
126, 8163, 8174, 8206, 8150, 8192, 8180, 8174, 8170, 8193, 8165, 8154, 8158, 8156, 8147,4.460144281387329
127, 8161, 8177, 8160, 8156, 8197, 8195, 8187, 8171, 8204, 8172, 8147, 8158, 8156, 8145,4.460144281387329
236, 8147, 8157, 8146, 8155, 8191, 8178, 8173, 8160, 8173, 8150, 8131, 8134, 8143, 8128,4.475548505783081
0, 8142, 8159, 8195, 8158, 8185, 8164, 8172, 8167, 8165, 8146, 8130, 8141, 8143, 8138,4.475548505783081
1, 8146, 8160, 8130, 8168, 8186, 8154, 8191, 8161, 8191, 8176, 8135, 8140, 8148, 8147,4.491581916809082
2, 8154, 8157, 8190, 8150, 8186, 8161, 8187, 8162, 8183, 8164, 8121, 8139, 8135, 8142,4.491581916809082
3, 8147, 8145, 8156, 8141, 8179, 8168, 8184, 8168, 8180, 8150, 8116, 8131, 8130, 8140,4.507145643234253
4, 8140, 8141, 8141, 8141, 8164, 8157, 8181, 8164, 8191, 8160, 8114, 8123, 8132, 8142,4.507145643234253
5, 8142, 8160, 8190, 8135, 8161, 8161, 8176, 8171, 8197, 8175, 8116, 8140, 8135, 8141,4.522448301315308
6, 8142, 8150, 8119, 8139, 8163, 8154, 8173, 8163, 8197, 8174, 8132, 8139, 8146, 8131,4.522448301315308
7, 8150, 8149, 8180, 8122, 8150, 8141, 8149, 8162, 8172, 8137, 8137, 8145, 8141, 8130,4.538464546203613
8, 8155, 8167, 8160, 8118, 8153, 8139, 8143, 8170, 8168, 8135, 8147, 8166, 8144, 8138,4.538464546203613
9, 8166, 8171, 8140, 8136, 8165, 8134, 8146, 8166, 8177, 8149, 8157, 8177, 8152, 8140,4.555035829544067
10, 8177, 8178, 8203, 8141, 8166, 8145, 8141, 8171, 8170, 8139, 8160, 8176, 8147, 8141,4.555035829544067
11, 8155, 8168, 8127, 8135, 8166, 8139, 8132, 8162, 8161, 8137, 8156, 8153, 8143, 8128,4.570078611373901
12, 8135, 8156, 8170, 8119, 8158, 8134, 8101, 8158, 8137, 8128, 8137, 8146, 8130, 8108,4.570078611373901
13, 8135, 8159, 8161, 8140, 8162, 8152, 8105, 8164, 8136, 8135, 8140, 8139, 8124, 8107,4.586127758026123
14, 8139, 8164, 8134, 8166, 8170, 8160, 8139, 8163, 8141, 8149, 8149, 8128, 8126, 8119,4.586127758026123
15, 8139, 8161, 8198, 8156, 8165, 8167, 8151, 8176, 8126, 8147, 8135, 8141, 8126, 8133,4.601147174835205
16, 8129, 8138, 8124, 8150, 8165, 8170, 8156, 8167, 8145, 8165, 8123, 8128, 8132, 8137,4.601147174835205
17, 8124, 8132, 8161, 8130, 8155, 8173, 8149, 8157, 8168, 8176, 8112, 8117, 8128, 8134,4.616536617279053
18, 8128, 8134, 8159, 8126, 8145, 8166, 8151, 8163, 8183, 8178, 8119, 8132, 8129, 8138,4.616536617279053
19, 8147, 8132, 8118, 8136, 8151, 8144, 8137, 8160, 8185, 8170, 8141, 8146, 8136, 8140,4.632086992263794
20, 8159, 8154, 8190, 8127, 8153, 8150, 8112, 8167, 8161, 8147, 8143, 8162, 8139, 8137,4.632086992263794
21, 8139, 8156, 8124, 8131, 8151, 8154, 8132, 8159, 8150, 8144, 8137, 8139, 8134, 8120,4.648114919662476
22, 8125, 8146, 8155, 8137, 8155, 8156, 8138, 8155, 8139, 8140, 8132, 8120, 8113, 8101,4.648114919662476
23, 8131, 8153, 8178, 8156, 8172, 8180, 8137, 8171, 8140, 8153, 8140, 8130, 8117, 8110,4.664179086685181
24, 8138, 8147, 8133, 8170, 8175, 8183, 8157, 8168, 8146, 8171, 8145, 8126, 8143, 8127,4.664179086685181
25, 8137, 8144, 8192, 8149, 8153, 8172, 8161, 8168, 8137, 8158, 8125, 8124, 8143, 8129,4.679213047027588
26, 8131, 8130, 8122, 8131, 8143, 8160, 8148, 8164, 8151, 8153, 8112, 8112, 8140, 8122,4.679213047027588
27, 8140, 8128, 8148, 8114, 8137, 8145, 8126, 8160, 8158, 8149, 8122, 8122, 8147, 8122,4.694645881652832
28, 8149, 8156, 8177, 8119, 8140, 8142, 8128, 8167, 8149, 8147, 8143, 8147, 8157, 8128,4.694645881652832
29, 8138, 8160, 8118, 8136, 8154, 8139, 8129, 8162, 8135, 8143, 8147, 8139, 8153, 8119,4.710413455963135
30, 8133, 8166, 8188, 8132, 8156, 8151, 8106, 8166, 8110, 8126, 8133, 8133, 8132, 8112,4.710413455963135
31, 8133, 8165, 8140, 8152, 8161, 8164, 8118, 8162, 8121, 8143, 8136, 8128, 8138, 8119,4.726122140884399
32, 8136, 8154, 8158, 8165, 8167, 8175, 8140, 8158, 8142, 8168, 8139, 8129, 8157, 8132,4.726122140884399
33, 8136, 8149, 8192, 8156, 8166, 8190, 8149, 8170, 8156, 8178, 8136, 8134, 8161, 8148,4.741193771362305
34, 8133, 8138, 8123, 8145, 8157, 8176, 8148, 8163, 8169, 8179, 8137, 8119, 8158, 8147,4.741193771362305
35, 8137, 8139, 8183, 8116, 8143, 8160, 8124, 8164, 8154, 8153, 8126, 8128, 8149, 8126,4.756470203399658
36, 8137, 8138, 8135, 8106, 8139, 8145, 8111, 8164, 8149, 8144, 8140, 8137, 8159, 8115,4.756470203399658
37, 8140, 8144, 8138, 8102, 8135, 8132, 8101, 8157, 8143, 8138, 8161, 8140, 8158, 8117,4.772494792938232
38, 8142, 8160, 8185, 8104, 8137, 8142, 8090, 8166, 8126, 8121, 8152, 8140, 8138, 8112,4.772494792938232
39, 8131, 8153, 8118, 8126, 8149, 8139, 8095, 8161, 8124, 8126, 8139, 8121, 8131, 8098,4.787086248397827
40, 8130, 8160, 8184, 8132, 8150, 8144, 8098, 8166, 8128, 8123, 8143, 8130, 8134, 8103,4.787086248397827
41, 8127, 8163, 8153, 8135, 8156, 8161, 8111, 8171, 8144, 8137, 8158, 8132, 8143, 8114,4.80417013168335
42, 8118, 8149, 8138, 8134, 8164, 8168, 8116, 8162, 8140, 8151, 8144, 8117, 8135, 8109,4.80417013168335
43, 8109, 8152, 8187, 8134, 8164, 8184, 8123, 8167, 8134, 8146, 8122, 8119, 8128, 8107,4.819585561752319
44, 8110, 8146, 8118, 8146, 8162, 8185, 8151, 8165, 8151, 8155, 8131, 8113, 8142, 8119,4.819585561752319
45, 8128, 8142, 8176, 8137, 8156, 8185, 8153, 8168, 8152, 8162, 8137, 8117, 8145, 8132,4.834170818328857
46, 8131, 8146, 8150, 8144, 8161, 8191, 8155, 8169, 8167, 8175, 8136, 8121, 8148, 8129,4.834170818328857
47, 8134, 8148, 8129, 8151, 8161, 8177, 8155, 8163, 8177, 8181, 8135, 8128, 8156, 8123,4.850218057632446
48, 8146, 8151, 8193, 8133, 8150, 8168, 8143, 8173, 8164, 8172, 8132, 8140, 8159, 8130,4.850218057632446
49, 8140, 8134, 8119, 8131, 8147, 8164, 8144, 8164, 8158, 8170, 8133, 8122, 8161, 8130,4.8669257164001465
50, 8141, 8139, 8173, 8125, 8139, 8164, 8137, 8160, 8145, 8155, 8130, 8127, 8155, 8125,4.8669257164001465
51, 8143, 8150, 8170, 8124, 8134, 8162, 8142, 8165, 8151, 8157, 8134, 8140, 8156, 8126,4.882672548294067
52, 8135, 8141, 8130, 8114, 8136, 8155, 8144, 8160, 8167, 8160, 8137, 8137, 8157, 8120,4.882672548294067
53, 8134, 8149, 8179, 8096, 8135, 8168, 8133, 8172, 8160, 8147, 8137, 8145, 8148, 8114,4.897081136703491
54, 8134, 8151, 8111, 8109, 8136, 8156, 8135, 8167, 8156, 8153, 8148, 8141, 8147, 8112,4.912062406539917
55, 8138, 8146, 8169, 8102, 8133, 8138, 8122, 8157, 8135, 8137, 8141, 8147, 8140, 8108,4.912062406539917
56, 8128, 8144, 8164, 8090, 8133, 8152, 8111, 8163, 8111, 8113, 8123, 8144, 8128, 8097,4.912062406539917
57, 8123, 8149, 8115, 8102, 8136, 8162, 8118, 8159, 8108, 8116, 8129, 8139, 8128, 8090,4.929553508758545
58, 8142, 8172, 8199, 8117, 8146, 8169, 8125, 8169, 8124, 8130, 8149, 8169, 8137, 8106,4.944504499435425
59, 8151, 8166, 8141, 8130, 8154, 8165, 8129, 8170, 8150, 8145, 8160, 8167, 8146, 8116,4.945503234863281
60, 8149, 8162, 8170, 8125, 8147, 8160, 8119, 8167, 8136, 8139, 8153, 8154, 8134, 8104,4.945503234863281
61, 8145, 8175, 8181, 8130, 8146, 8171, 8133, 8171, 8123, 8139, 8150, 8160, 8129, 8102,4.960587978363037
62, 8141, 8166, 8127, 8142, 8149, 8170, 8148, 8165, 8138, 8140, 8141, 8147, 8130, 8105,4.960587978363037
63, 8140, 8163, 8197, 8145, 8149, 8177, 8139, 8170, 8130, 8122, 8123, 8143, 8114, 8104,4.9753077030181885
64, 8129, 8156, 8136, 8156, 8154, 8182, 8147, 8166, 8134, 8147, 8127, 8135, 8117, 8106,4.9753077030181885
65, 8125, 8144, 8154, 8129, 8139, 8173, 8150, 8164, 8147, 8173, 8124, 8131, 8129, 8114,4.990564346313477
66, 8128, 8140, 8180, 8108, 8122, 8175, 8154, 8172, 8155, 8171, 8119, 8140, 8134, 8124,5.008127212524414
67, 8136, 8137, 8128, 8129, 8130, 8173, 8159, 8159, 8162, 8165, 8113, 8129, 8130, 8123,5.008127212524414
68, 8146, 8158, 8196, 8133, 8130, 8171, 8140, 8165, 8159, 8154, 8103, 8128, 8121, 8123,5.008127212524414
69, 8145, 8158, 8142, 8129, 8126, 8158, 8142, 8171, 8171, 8164, 8128, 8137, 8140, 8129,5.0221827030181885
70, 8146, 8138, 8155, 8107, 8125, 8143, 8136, 8164, 8160, 8152, 8144, 8150, 8151, 8122,5.0221827030181885
71, 8143, 8138, 8186, 8093, 8121, 8151, 8119, 8167, 8143, 8129, 8127, 8154, 8144, 8110,5.039316415786743
72, 8144, 8144, 8118, 8108, 8125, 8145, 8126, 8162, 8154, 8140, 8134, 8146, 8152, 8117,5.054110050201416
73, 8153, 8157, 8193, 8105, 8125, 8146, 8125, 8172, 8145, 8140, 8151, 8168, 8152, 8124,5.054110050201416
74, 8143, 8155, 8149, 8106, 8133, 8161, 8125, 8170, 8140, 8141, 8148, 8168, 8145, 8102,5.068286657333374
75, 8140, 8148, 8143, 8103, 8131, 8162, 8121, 8155, 8132, 8129, 8145, 8153, 8137, 8092,5.068286657333374
76, 8151, 8158, 8188, 8104, 8127, 8162, 8128, 8166, 8125, 8120, 8150, 8162, 8137, 8107,5.0853917598724365
77, 8152, 8160, 8124, 8127, 8141, 8158, 8148, 8166, 8141, 8137, 8148, 8157, 8141, 8104,5.0853917598724365
78, 8146, 8170, 8191, 8134, 8139, 8169, 8139, 8169, 8132, 8131, 8134, 8155, 8125, 8090,5.0853917598724365
79, 8143, 8171, 8155, 8148, 8141, 8182, 8145, 8171, 8130, 8135, 8144, 8151, 8125, 8102,5.1004602909088135
80, 8151, 8165, 8150, 8156, 8155, 8176, 8160, 8167, 8146, 8155, 8156, 8154, 8146, 8122,5.1004602909088135
81, 8155, 8173, 8206, 8156, 8158, 8181, 8162, 8177, 8145, 8154, 8145, 8159, 8149, 8121,5.114593505859375
82, 8135, 8155, 8122, 8168, 8144, 8178, 8165, 8167, 8134, 8143, 8122, 8118, 8133, 8105,5.130388021469116
83, 8126, 8142, 8170, 8155, 8137, 8186, 8164, 8162, 8122, 8133, 8097, 8101, 8120, 8098,5.130388021469116
84, 8128, 8147, 8150, 8152, 8150, 8192, 8176, 8163, 8133, 8138, 8100, 8106, 8128, 8100,5.14613151550293
85, 8122, 8141, 8127, 8142, 8143, 8171, 8168, 8158, 8135, 8126, 8095, 8098, 8124, 8097,5.14613151550293
86, 8123, 8139, 8178, 8123, 8122, 8172, 8151, 8170, 8146, 8121, 8082, 8105, 8115, 8105,5.161353588104248
87, 8134, 8136, 8108, 8129, 8122, 8168, 8147, 8165, 8169, 8137, 8100, 8115, 8127, 8108,5.161353588104248
88, 8146, 8148, 8173, 8119, 8121, 8145, 8117, 8159, 8146, 8111, 8118, 8136, 8128, 8100,5.176591634750366
89, 8143, 8161, 8165, 8114, 8123, 8145, 8110, 8165, 8139, 8104, 8131, 8145, 8129, 8106,5.176591634750366
90, 8146, 8160, 8131, 8126, 8131, 8155, 8129, 8165, 8153, 8128, 8136, 8140, 8133, 8110,5.192223072052002
91, 8153, 8166, 8194, 8126, 8137, 8156, 8124, 8173, 8137, 8122, 8129, 8146, 8130, 8101,5.192223072052002
92, 8143, 8156, 8126, 8126, 8138, 8139, 8113, 8163, 8121, 8113, 8128, 8132, 8129, 8088,5.207840442657471
93, 8147, 8161, 8176, 8125, 8137, 8144, 8112, 8163, 8108, 8110, 8138, 8143, 8128, 8097,5.207840442657471
94, 8155, 8170, 8176, 8142, 8143, 8163, 8139, 8177, 8119, 8129, 8158, 8161, 8145, 8120,5.223930835723877
95, 8152, 8165, 8135, 8160, 8142, 8158, 8145, 8169, 8136, 8151, 8168, 8147, 8156, 8121,5.223930835723877
96, 8155, 8182, 8211, 8160, 8139, 8168, 8117, 8172, 8128, 8146, 8160, 8148, 8143, 8117,5.23956036567688
97, 8154, 8178, 8147, 8170, 8146, 8170, 8118, 8168, 8135, 8149, 8164, 8145, 8138, 8120,5.23956036567688
98, 8160, 8171, 8178, 8173, 8147, 8167, 8125, 8158, 8140, 8154, 8165, 8146, 8144, 8124,5.2561399936676025
99, 8163, 8178, 8191, 8181, 8154, 8178, 8128, 8166, 8145, 8162, 8157, 8144, 8151, 8130,5.2561399936676025
100, 8145, 8157, 8134, 8173, 8150, 8177, 8128, 8164, 8139, 8163, 8147, 8122, 8142, 8121,5.271499156951904
101, 8132, 8147, 8189, 8144, 8137, 8187, 8130, 8164, 8124, 8146, 8134, 8123, 8131, 8110,5.271499156951904
102, 8132, 8151, 8131, 8149, 8143, 8190, 8153, 8163, 8146, 8154, 8136, 8121, 8147, 8117,5.286726236343384
103, 8137, 8152, 8162, 8153, 8145, 8181, 8154, 8170, 8153, 8159, 8135, 8121, 8148, 8122,5.286726236343384
104, 8142, 8157, 8185, 8153, 8143, 8190, 8151, 8178, 8153, 8160, 8127, 8129, 8143, 8125,5.302542448043823
105, 8154, 8158, 8134, 8159, 8150, 8188, 8162, 8167, 8173, 8168, 8129, 8127, 8158, 8134,5.302542448043823
106, 8163, 8166, 8207, 8154, 8149, 8191, 8162, 8176, 8174, 8170, 8133, 8141, 8164, 8144,5.318074941635132
107, 8149, 8160, 8147, 8161, 8151, 8201, 8180, 8178, 8188, 8190, 8148, 8143, 8171, 8145,5.318074941635132
108, 8153, 8153, 8157, 8150, 8152, 8195, 8185, 8168, 8194, 8187, 8158, 8145, 8178, 8149,5.334120512008667
109, 8166, 8162, 8192, 8143, 8140, 8187, 8173, 8170, 8188, 8176, 8159, 8148, 8174, 8157,5.334120512008667
110, 8159, 8153, 8123, 8149, 8134, 8177, 8175, 8161, 8181, 8180, 8147, 8131, 8167, 8147,5.34928822517395
111, 8150, 8147, 8183, 8124, 8127, 8180, 8170, 8163, 8159, 8158, 8133, 8140, 8155, 8136,5.34928822517395
112, 8147, 8146, 8138, 8123, 8130, 8174, 8168, 8164, 8166, 8158, 8150, 8144, 8162, 8144,5.364254474639893
113, 8162, 8161, 8152, 8145, 8138, 8169, 8165, 8163, 8179, 8171, 8157, 8142, 8176, 8153,5.364254474639893
114, 8173, 8175, 8200, 8151, 8140, 8186, 8171, 8172, 8182, 8175, 8154, 8158, 8184, 8154,5.379422187805176
115, 8172, 8154, 8124, 8146, 8138, 8171, 8171, 8163, 8198, 8181, 8166, 8154, 8192, 8157,5.379422187805176
116, 8185, 8156, 8194, 8131, 8125, 8159, 8149, 8172, 8199, 8175, 8172, 8166, 8193, 8170,5.395424842834473
117, 8189, 8170, 8159, 8139, 8129, 8172, 8160, 8181, 8203, 8187, 8181, 8171, 8199, 8163,5.395424842834473
118, 8181, 8164, 8145, 8136, 8143, 8172, 8169, 8169, 8209, 8192, 8182, 8162, 8197, 8151,5.411482572555542
119, 8180, 8166, 8201, 8126, 8146, 8172, 8159, 8170, 8202, 8175, 8171, 8170, 8192, 8164,5.411482572555542
120, 8186, 8165, 8127, 8137, 8141, 8165, 8166, 8162, 8187, 8168, 8179, 8169, 8198, 8163,5.4275946617126465
121, 8187, 8170, 8184, 8123, 8136, 8161, 8161, 8162, 8158, 8144, 8174, 8166, 8182, 8139,5.4275946617126465
122, 8170, 8168, 8156, 8121, 8143, 8164, 8162, 8164, 8154, 8132, 8157, 8151, 8163, 8126,5.443507671356201
123, 8169, 8165, 8133, 8139, 8140, 8161, 8166, 8158, 8166, 8139, 8165, 8151, 8167, 8131,5.443507671356201
124, 8192, 8187, 8206, 8147, 8144, 8174, 8172, 8172, 8182, 8151, 8190, 8190, 8188, 8152,5.459050893783569
125, 8209, 8194, 8153, 8166, 8157, 8174, 8188, 8167, 8199, 8170, 8212, 8201, 8208, 8169,5.459050893783569
126, 8208, 8192, 8208, 8166, 8147, 8169, 8176, 8165, 8179, 8163, 8209, 8196, 8200, 8167,5.474212884902954
127, 8188, 8181, 8178, 8159, 8146, 8177, 8168, 8173, 8168, 8159, 8199, 8181, 8189, 8160,5.474212884902954
236, 8177, 8166, 8141, 8150, 8155, 8171, 8166, 8167, 8177, 8161, 8191, 8165, 8183, 8152,5.490301609039307
0, 8178, 8173, 8210, 8135, 8142, 8172, 8152, 8174, 8174, 8150, 8180, 8172, 8172, 8150,5.490301609039307
1, 8168, 8168, 8136, 8148, 8138, 8171, 8155, 8169, 8171, 8151, 8173, 8155, 8169, 8144,5.506096601486206
2, 8164, 8169, 8181, 8154, 8146, 8170, 8153, 8164, 8145, 8137, 8161, 8150, 8159, 8133,5.506096601486206
3, 8165, 8174, 8178, 8156, 8145, 8175, 8161, 8172, 8143, 8141, 8161, 8154, 8154, 8133,5.521106958389282
4, 8161, 8161, 8134, 8154, 8140, 8172, 8166, 8172, 8163, 8158, 8160, 8141, 8152, 8135,5.521106958389282
5, 8165, 8172, 8208, 8153, 8148, 8186, 8157, 8176, 8154, 8146, 8156, 8154, 8152, 8144,5.53642725944519
6, 8162, 8172, 8146, 8171, 8161, 8185, 8169, 8164, 8143, 8150, 8163, 8151, 8162, 8144,5.53642725944519
7, 8156, 8167, 8179, 8162, 8153, 8181, 8164, 8163, 8128, 8147, 8146, 8139, 8148, 8137,5.552613735198975
8, 8155, 8177, 8184, 8165, 8160, 8195, 8164, 8179, 8146, 8149, 8139, 8141, 8143, 8141,5.552613735198975
9, 8170, 8176, 8136, 8180, 8180, 8191, 8181, 8173, 8186, 8173, 8158, 8145, 8160, 8154,5.5671985149383545
10, 8185, 8175, 8215, 8169, 8171, 8197, 8191, 8175, 8194, 8189, 8164, 8165, 8169, 8171,5.5671985149383545
11, 8172, 8161, 8150, 8162, 8157, 8194, 8206, 8173, 8200, 8203, 8164, 8161, 8176, 8173,5.582383394241333
12, 8168, 8158, 8164, 8150, 8160, 8186, 8203, 8167, 8195, 8192, 8158, 8152, 8176, 8164,5.582383394241333
13, 8176, 8172, 8184, 8152, 8169, 8201, 8211, 8172, 8201, 8193, 8161, 8159, 8184, 8163,5.59848165512085
14, 8180, 8164, 8131, 8156, 8166, 8197, 8221, 8168, 8218, 8211, 8171, 8160, 8195, 8168,5.59848165512085
15, 8180, 8159, 8197, 8137, 8154, 8184, 8196, 8170, 8201, 8195, 8156, 8170, 8182, 8171,5.61429238319397
16, 8171, 8157, 8139, 8145, 8154, 8181, 8187, 8165, 8199, 8182, 8145, 8157, 8174, 8160,5.61429238319397
17, 8176, 8165, 8162, 8149, 8151, 8176, 8183, 8171, 8207, 8180, 8156, 8152, 8177, 8155,5.630323886871338
18, 8189, 8177, 8192, 8139, 8146, 8170, 8178, 8185, 8210, 8180, 8168, 8170, 8182, 8164,5.630323886871338
19, 8194, 8176, 8129, 8155, 8150, 8161, 8188, 8170, 8217, 8183, 8174, 8172, 8187, 8166,5.645523548126221
20, 8200, 8188, 8205, 8166, 8152, 8175, 8193, 8171, 8210, 8172, 8176, 8187, 8177, 8161,5.645523548126221
21, 8188, 8177, 8150, 8157, 8152, 8177, 8196, 8173, 8209, 8172, 8183, 8184, 8171, 8156,5.659937858581543
22, 8178, 8158, 8147, 8131, 8145, 8162, 8184, 8165, 8200, 8167, 8183, 8178, 8173, 8149,5.659937858581543
23, 8189, 8177, 8202, 8147, 8153, 8176, 8186, 8174, 8199, 8171, 8191, 8198, 8184, 8158,5.676559209823608
24, 8203, 8185, 8141, 8185, 8172, 8175, 8198, 8171, 8215, 8198, 8210, 8206, 8196, 8169,5.676559209823608
25, 8194, 8176, 8193, 8156, 8164, 8161, 8177, 8171, 8201, 8193, 8205, 8207, 8179, 8155,5.6951210498809814
26, 8173, 8165, 8152, 8137, 8158, 8165, 8169, 8171, 8193, 8182, 8193, 8186, 8161, 8139,5.707143068313599
27, 8175, 8164, 8148, 8151, 8166, 8176, 8169, 8165, 8190, 8177, 8187, 8178, 8161, 8140,5.707143068313599
28, 8176, 8172, 8197, 8151, 8170, 8179, 8165, 8173, 8186, 8176, 8191, 8191, 8167, 8145,5.722177267074585
29, 8171, 8168, 8129, 8159, 8176, 8169, 8176, 8169, 8198, 8182, 8194, 8173, 8165, 8139,5.722177267074585
30, 8180, 8171, 8188, 8162, 8176, 8187, 8181, 8173, 8191, 8175, 8180, 8169, 8151, 8136,5.7382447719573975
31, 8174, 8173, 8162, 8173, 8180, 8201, 8194, 8178, 8181, 8186, 8182, 8175, 8157, 8143,5.7382447719573975
32, 8171, 8179, 8160, 8187, 8184, 8182, 8194, 8169, 8167, 8189, 8195, 8187, 8167, 8150,5.754323959350586
33, 8185, 8189, 8217, 8194, 8189, 8188, 8185, 8177, 8164, 8174, 8192, 8203, 8165, 8157,5.754323959350586
34, 8184, 8173, 8136, 8208, 8198, 8197, 8196, 8173, 8180, 8195, 8186, 8174, 8165, 8151,5.754323959350586
35, 8184, 8177, 8198, 8212, 8200, 8194, 8197, 8173, 8172, 8201, 8177, 8158, 8165, 8152,5.770603179931641
36, 8196, 8197, 8190, 8237, 8207, 8192, 8202, 8180, 8184, 8197, 8186, 8171, 8178, 8172,5.770603179931641
37, 8206, 8194, 8159, 8254, 8206, 8186, 8200, 8170, 8203, 8201, 8197, 8170, 8188, 8181,5.785129547119141
38, 8210, 8199, 8227, 8238, 8194, 8197, 8190, 8172, 8195, 8206, 8189, 8172, 8188, 8180,5.800255060195923
39, 8204, 8188, 8155, 8223, 8185, 8186, 8200, 8165, 8197, 8209, 8191, 8169, 8197, 8181,5.800255060195923
40, 8207, 8182, 8200, 8202, 8178, 8168, 8192, 8164, 8199, 8189, 8196, 8182, 8198, 8186,5.8173322677612305
41, 8219, 8195, 8202, 8218, 8181, 8175, 8183, 8176, 8216, 8196, 8214, 8201, 8213, 8198,5.8173322677612305
42, 8227, 8200, 8160, 8233, 8175, 8167, 8175, 8171, 8223, 8206, 8225, 8211, 8227, 8199,5.8173322677612305
43, 8236, 8218, 8228, 8217, 8173, 8168, 8165, 8172, 8199, 8185, 8221, 8235, 8216, 8193,5.831854820251465
44, 8231, 8223, 8167, 8226, 8192, 8168, 8181, 8168, 8194, 8181, 8234, 8232, 8208, 8187,5.847412824630737
45, 8227, 8217, 8200, 8228, 8195, 8165, 8177, 8168, 8186, 8175, 8228, 8221, 8197, 8179,5.847412824630737
46, 8223, 8217, 8200, 8222, 8195, 8176, 8174, 8176, 8180, 8169, 8200, 8213, 8185, 8173,5.86277961730957
47, 8213, 8213, 8148, 8224, 8206, 8177, 8189, 8170, 8183, 8174, 8186, 8191, 8180, 8168,5.86277961730957
48, 8208, 8213, 8217, 8221, 8203, 8183, 8194, 8173, 8182, 8174, 8191, 8195, 8177, 8169,5.87827730178833
49, 8197, 8195, 8151, 8224, 8197, 8189, 8207, 8174, 8205, 8191, 8185, 8184, 8174, 8174,5.87827730178833
50, 8198, 8191, 8166, 8216, 8196, 8194, 8216, 8177, 8217, 8200, 8162, 8173, 8166, 8180,5.894081115722656
51, 8210, 8204, 8189, 8219, 8202, 8195, 8224, 8185, 8212, 8207, 8169, 8182, 8172, 8192,5.894081115722656
52, 8214, 8198, 8150, 8225, 8204, 8182, 8226, 8174, 8216, 8228, 8194, 8187, 8195, 8205,5.909422159194946
53, 8218, 8204, 8213, 8212, 8201, 8191, 8222, 8178, 8231, 8240, 8197, 8204, 8212, 8218,5.909422159194946
54, 8218, 8200, 8150, 8210, 8204, 8200, 8234, 8182, 8262, 8250, 8198, 8201, 8218, 8215,5.925503969192505
55, 8220, 8185, 8166, 8192, 8192, 8181, 8213, 8175, 8256, 8236, 8196, 8191, 8204, 8198,5.925503969192505
56, 8225, 8187, 8196, 8179, 8182, 8168, 8187, 8174, 8234, 8218, 8193, 8198, 8195, 8194,5.941142559051514
57, 8226, 8184, 8139, 8182, 8190, 8157, 8187, 8165, 8227, 8208, 8196, 8198, 8202, 8184,5.941142559051514
58, 8225, 8194, 8211, 8166, 8184, 8161, 8178, 8170, 8203, 8179, 8198, 8202, 8192, 8173,5.95688271522522
59, 8223, 8200, 8165, 8170, 8180, 8161, 8179, 8172, 8195, 8183, 8206, 8198, 8189, 8176,5.95688271522522
60, 8227, 8198, 8168, 8178, 8190, 8152, 8172, 8171, 8186, 8181, 8196, 8193, 8186, 8172,5.972237586975098
61, 8211, 8197, 8202, 8182, 8194, 8160, 8160, 8176, 8169, 8165, 8182, 8187, 8171, 8155,5.972237586975098
62, 8178, 8174, 8126, 8186, 8191, 8167, 8172, 8164, 8178, 8183, 8180, 8155, 8166, 8143,5.987282752990723
63, 8176, 8170, 8196, 8174, 8189, 8195, 8193, 8173, 8189, 8192, 8159, 8154, 8169, 8162,5.987282752990723
64, 8194, 8174, 8160, 8188, 8200, 8216, 8224, 8182, 8219, 8210, 8161, 8166, 8188, 8190,6.003489255905151
65, 8197, 8165, 8155, 8187, 8194, 8195, 8226, 8171, 8234, 8224, 8176, 8166, 8192, 8196,6.003489255905151
66, 8177, 8158, 8207, 8151, 8179, 8185, 8208, 8176, 8219, 8213, 8167, 8164, 8181, 8183,6.025062561035156
67, 8171, 8149, 8119, 8144, 8177, 8185, 8215, 8171, 8229, 8210, 8172, 8159, 8193, 8178,6.025062561035156
68, 8199, 8167, 8182, 8152, 8180, 8184, 8214, 8175, 8235, 8207, 8188, 8187, 8205, 8197,6.025062561035156
69, 8200, 8173, 8163, 8157, 8185, 8176, 8211, 8179, 8234, 8220, 8190, 8193, 8213, 8198,6.035434722900391
70, 8188, 8156, 8138, 8145, 8181, 8164, 8199, 8169, 8231, 8227, 8187, 8177, 8213, 8186,6.050468921661377
71, 8196, 8163, 8197, 8140, 8175, 8165, 8183, 8178, 8231, 8214, 8192, 8189, 8206, 8189,6.050468921661377
72, 8194, 8162, 8124, 8149, 8178, 8154, 8174, 8174, 8228, 8210, 8193, 8181, 8202, 8183,6.066083669662476
73, 8191, 8163, 8177, 8131, 8172, 8156, 8154, 8169, 8204, 8200, 8181, 8181, 8193, 8165,6.066083669662476
74, 8191, 8166, 8166, 8133, 8168, 8162, 8157, 8170, 8204, 8195, 8184, 8187, 8192, 8159,6.081599950790405
75, 8197, 8169, 8140, 8149, 8174, 8152, 8161, 8167, 8205, 8185, 8186, 8181, 8185, 8161,6.081599950790405
76, 8213, 8195, 8206, 8155, 8190, 8177, 8163, 8182, 8201, 8179, 8182, 8192, 8180, 8171,6.097243070602417
77, 8214, 8198, 8147, 8171, 8203, 8187, 8184, 8177, 8222, 8199, 8193, 8195, 8193, 8178,6.097243070602417
78, 8213, 8192, 8201, 8169, 8187, 8166, 8175, 8173, 8211, 8193, 8194, 8204, 8192, 8175,6.112289190292358
79, 8214, 8190, 8194, 8177, 8177, 8172, 8174, 8178, 8200, 8185, 8191, 8203, 8188, 8176,6.112289190292358
80, 8208, 8179, 8150, 8190, 8190, 8187, 8189, 8168, 8203, 8194, 8188, 8182, 8189, 8178,6.128403902053833
81, 8194, 8179, 8208, 8180, 8199, 8192, 8184, 8171, 8187, 8188, 8173, 8179, 8175, 8172,6.128403902053833
82, 8185, 8168, 8139, 8189, 8203, 8184, 8185, 8164, 8195, 8190, 8170, 8170, 8165, 8169,6.1444761753082275
83, 8195, 8165, 8185, 8194, 8192, 8180, 8176, 8163, 8190, 8175, 8162, 8167, 8157, 8167,6.1444761753082275
84, 8194, 8172, 8185, 8186, 8183, 8186, 8175, 8172, 8168, 8168, 8148, 8165, 8156, 8169,6.160203218460083
85, 8180, 8156, 8121, 8172, 8182, 8183, 8193, 8166, 8178, 8190, 8146, 8152, 8161, 8170,6.160203218460083
86, 8172, 8148, 8191, 8152, 8174, 8186, 8195, 8172, 8192, 8196, 8148, 8157, 8164, 8171,6.175394535064697
87, 8170, 8151, 8133, 8154, 8174, 8174, 8185, 8169, 8201, 8198, 8155, 8149, 8176, 8173,6.175394535064697
88, 8187, 8164, 8161, 8156, 8175, 8161, 8165, 8170, 8201, 8185, 8155, 8159, 8176, 8177,6.1914286613464355
89, 8198, 8170, 8186, 8167, 8179, 8170, 8165, 8180, 8213, 8191, 8168, 8183, 8180, 8184,6.1914286613464355
90, 8196, 8160, 8127, 8176, 8183, 8161, 8168, 8168, 8221, 8205, 8185, 8182, 8192, 8178,6.206970453262329
91, 8207, 8175, 8199, 8164, 8181, 8163, 8157, 8172, 8210, 8189, 8190, 8202, 8189, 8175,6.206970453262329
92, 8201, 8176, 8148, 8174, 8185, 8166, 8165, 8174, 8220, 8190, 8199, 8205, 8181, 8170,6.222511529922485
93, 8187, 8165, 8163, 8170, 8185, 8160, 8158, 8167, 8207, 8184, 8198, 8194, 8174, 8162,6.222511529922485
94, 8191, 8176, 8194, 8167, 8188, 8168, 8160, 8171, 8192, 8175, 8197, 8201, 8178, 8172,6.237182140350342
95, 8199, 8182, 8138, 8189, 8197, 8162, 8179, 8165, 8199, 8182, 8211, 8199, 8182, 8177,6.237182140350342
96, 8204, 8194, 8210, 8189, 8198, 8167, 8169, 8171, 8179, 8174, 8210, 8207, 8175, 8168,6.252258777618408
97, 8197, 8196, 8160, 8195, 8198, 8175, 8167, 8172, 8166, 8172, 8199, 8198, 8175, 8158,6.2532641887664795
98, 8189, 8188, 8162, 8199, 8195, 8170, 8168, 8163, 8160, 8163, 8185, 8182, 8162, 8151,6.26812744140625
99, 8189, 8188, 8203, 8199, 8192, 8176, 8169, 8170, 8161, 8163, 8188, 8188, 8149, 8157,6.26812744140625
100, 8192, 8181, 8139, 8210, 8196, 8175, 8182, 8167, 8173, 8181, 8192, 8187, 8162, 8167,6.28425669670105
101, 8196, 8190, 8207, 8204, 8192, 8183, 8180, 8175, 8174, 8179, 8175, 8190, 8164, 8176,6.28425669670105
102, 8190, 8185, 8173, 8205, 8196, 8191, 8190, 8181, 8198, 8187, 8182, 8186, 8161, 8181,6.299757480621338
103, 8187, 8164, 8163, 8192, 8194, 8185, 8194, 8169, 8205, 8188, 8187, 8181, 8158, 8177,6.299757480621338
104, 8188, 8168, 8200, 8183, 8189, 8193, 8190, 8168, 8188, 8174, 8174, 8184, 8158, 8167,6.314610004425049
105, 8190, 8162, 8137, 8198, 8198, 8200, 8204, 8166, 8195, 8191, 8173, 8172, 8171, 8171,6.314610004425049
106, 8197, 8155, 8204, 8177, 8184, 8198, 8205, 8173, 8201, 8198, 8171, 8181, 8172, 8191,6.332646608352661
107, 8194, 8151, 8167, 8152, 8164, 8184, 8199, 8173, 8205, 8187, 8168, 8191, 8175, 8200,6.332646608352661
108, 8204, 8148, 8144, 8151, 8162, 8169, 8188, 8162, 8204, 8187, 8167, 8197, 8184, 8198,6.346254348754883
109, 8215, 8162, 8208, 8159, 8167, 8178, 8186, 8170, 8208, 8205, 8170, 8211, 8189, 8204,6.363365173339844
110, 8213, 8163, 8143, 8163, 8164, 8171, 8188, 8168, 8220, 8205, 8182, 8206, 8196, 8197,6.363365173339844
111, 8225, 8167, 8192, 8149, 8157, 8156, 8163, 8169, 8205, 8167, 8183, 8221, 8188, 8189,6.363365173339844
112, 8234, 8178, 8179, 8167, 8172, 8162, 8166, 8175, 8205, 8175, 8194, 8235, 8192, 8200,6.37985634803772
113, 8237, 8183, 8162, 8186, 8185, 8165, 8184, 8166, 8208, 8195, 8218, 8231, 8200, 8200,6.37985634803772
114, 8234, 8190, 8222, 8176, 8178, 8171, 8170, 8168, 8186, 8169, 8214, 8236, 8187, 8178,6.3957061767578125
115, 8219, 8180, 8142, 8189, 8182, 8172, 8162, 8165, 8180, 8169, 8204, 8224, 8180, 8168,6.3957061767578125
116, 8215, 8183, 8197, 8199, 8194, 8182, 8171, 8171, 8174, 8184, 8211, 8226, 8178, 8182,6.409238815307617
117, 8212, 8184, 8200, 8201, 8201, 8201, 8194, 8178, 8176, 8192, 8218, 8225, 8183, 8190,6.410238027572632
118, 8199, 8164, 8147, 8199, 8197, 8203, 8197, 8168, 8189, 8201, 8199, 8198, 8185, 8176,6.425675868988037
119, 8195, 8166, 8206, 8189, 8196, 8203, 8195, 8176, 8200, 8208, 8183, 8203, 8183, 8181,6.425675868988037
120, 8205, 8164, 8148, 8188, 8192, 8186, 8207, 8172, 8219, 8221, 8202, 8219, 8201, 8201,6.440305233001709
121, 8226, 8168, 8194, 8178, 8171, 8169, 8186, 8165, 8207, 8204, 8214, 8238, 8214, 8203,6.440305233001709
122, 8231, 8175, 8198, 8176, 8173, 8174, 8168, 8171, 8198, 8192, 8214, 8245, 8211, 8193,6.455421686172485
123, 8219, 8163, 8145, 8174, 8186, 8168, 8166, 8169, 8194, 8187, 8208, 8226, 8192, 8173,6.4721150398254395
124, 8213, 8172, 8215, 8163, 8179, 8173, 8156, 8176, 8170, 8163, 8193, 8220, 8183, 8168,6.4721150398254395
125, 8210, 8179, 8156, 8186, 8184, 8172, 8164, 8169, 8169, 8165, 8194, 8209, 8194, 8174,6.4721150398254395
126, 8212, 8173, 8184, 8192, 8193, 8169, 8165, 8164, 8165, 8167, 8193, 8206, 8184, 8172,6.487475633621216
127, 8207, 8171, 8196, 8184, 8190, 8185, 8168, 8173, 8161, 8166, 8189, 8204, 8173, 8170,6.501425504684448
236, 8192, 8157, 8128, 8184, 8186, 8186, 8183, 8166, 8172, 8180, 8180, 8189, 8179, 8173,6.501425504684448
0, 8187, 8152, 8194, 8166, 8178, 8190, 8182, 8169, 8174, 8184, 8156, 8193, 8172, 8178,6.51754903793335
1, 8177, 8142, 8143, 8160, 8173, 8191, 8176, 8167, 8186, 8186, 8148, 8176, 8171, 8169,6.51754903793335
2, 8178, 8141, 8158, 8153, 8168, 8180, 8163, 8165, 8192, 8177, 8158, 8169, 8177, 8161,6.53325080871582
3, 8192, 8160, 8184, 8152, 8171, 8178, 8166, 8175, 8196, 8185, 8177, 8191, 8185, 8171,6.53325080871582
4, 8205, 8167, 8134, 8163, 8180, 8167, 8177, 8171, 8206, 8205, 8199, 8205, 8196, 8179,6.548799753189087
5, 8210, 8175, 8212, 8154, 8177, 8163, 8158, 8172, 8193, 8183, 8203, 8225, 8198, 8177,6.548799753189087
6, 8202, 8172, 8154, 8159, 8172, 8155, 8142, 8166, 8180, 8170, 8209, 8217, 8199, 8162,6.563936948776245
7, 8206, 8174, 8157, 8168, 8165, 8146, 8130, 8162, 8159, 8165, 8212, 8212, 8188, 8156,6.563936948776245
8, 8211, 8190, 8206, 8175, 8171, 8164, 8135, 8177, 8158, 8171, 8213, 8235, 8186, 8162,6.57957649230957
9, 8199, 8181, 8133, 8184, 8189, 8172, 8157, 8174, 8179, 8190, 8217, 8220, 8194, 8162,6.57957649230957
10, 8200, 8185, 8194, 8184, 8189, 8178, 8155, 8176, 8174, 8187, 8204, 8203, 8180, 8161,6.595177173614502
11, 8203, 8194, 8166, 8211, 8187, 8187, 8160, 8174, 8186, 8199, 8201, 8201, 8176, 8162,6.595177173614502
12, 8191, 8175, 8160, 8208, 8184, 8184, 8162, 8164, 8184, 8202, 8195, 8192, 8179, 8155,6.610285758972168
13, 8181, 8162, 8194, 8178, 8183, 8190, 8163, 8174, 8162, 8188, 8178, 8180, 8173, 8151,6.610285758972168
14, 8194, 8162, 8125, 8187, 8190, 8189, 8179, 8172, 8183, 8197, 8182, 8174, 8182, 8171,6.625446081161499
15, 8218, 8180, 8203, 8189, 8188, 8189, 8183, 8175, 8208, 8211, 8195, 8202, 8202, 8198,6.625446081161499
16, 8216, 8175, 8176, 8188, 8186, 8195, 8190, 8177, 8213, 8224, 8203, 8217, 8218, 8199,6.641565561294556
17, 8207, 8155, 8149, 8184, 8183, 8183, 8183, 8169, 8204, 8217, 8195, 8206, 8205, 8182,6.641565561294556
18, 8208, 8164, 8199, 8170, 8177, 8174, 8168, 8177, 8200, 8202, 8187, 8206, 8192, 8177,6.657628774642944
19, 8201, 8157, 8123, 8167, 8173, 8160, 8160, 8167, 8206, 8198, 8188, 8195, 8197, 8173,6.657628774642944
20, 8197, 8157, 8176, 8162, 8163, 8154, 8135, 8163, 8193, 8176, 8192, 8202, 8189, 8166,6.673688888549805
21, 8197, 8171, 8162, 8181, 8166, 8155, 8142, 8174, 8198, 8181, 8217, 8210, 8190, 8168,6.673688888549805
22, 8206, 8176, 8140, 8188, 8173, 8150, 8155, 8171, 8194, 8188, 8223, 8202, 8197, 8159,6.689391613006592
23, 8210, 8191, 8206, 8177, 8171, 8162, 8139, 8174, 8165, 8161, 8206, 8218, 8191, 8152,6.689391613006592
24, 8202, 8186, 8137, 8196, 8172, 8159, 8136, 8166, 8167, 8162, 8220, 8226, 8194, 8160,6.7044970989227295
25, 8204, 8185, 8185, 8205, 8179, 8160, 8133, 8164, 8160, 8164, 8233, 8224, 8195, 8161,6.7044970989227295
26, 8204, 8193, 8182, 8211, 8188, 8176, 8141, 8169, 8147, 8157, 8227, 8217, 8193, 8153,6.720150470733643
27, 8205, 8189, 8146, 8219, 8183, 8168, 8153, 8160, 8150, 8157, 8220, 8209, 8191, 8155,6.720150470733643
28, 8209, 8190, 8213, 8216, 8173, 8171, 8154, 8171, 8154, 8156, 8214, 8215, 8182, 8165,6.735741853713989
29, 8198, 8176, 8148, 8226, 8183, 8181, 8168, 8176, 8165, 8175, 8214, 8196, 8185, 8164,6.735741853713989
30, 8196, 8179, 8190, 8232, 8193, 8181, 8175, 8173, 8154, 8185, 8212, 8193, 8190, 8166,6.751399278640747
31, 8199, 8185, 8190, 8229, 8189, 8183, 8178, 8173, 8145, 8194, 8211, 8196, 8192, 8167,6.751399278640747
32, 8188, 8161, 8131, 8217, 8177, 8185, 8179, 8163, 8150, 8197, 8198, 8173, 8189, 8157,6.767232179641724
33, 8189, 8159, 8199, 8200, 8173, 8198, 8168, 8170, 8149, 8183, 8184, 8178, 8183, 8165,6.767232179641724
34, 8196, 8163, 8141, 8201, 8180, 8188, 8172, 8169, 8168, 8196, 8196, 8184, 8192, 8181,6.782336473464966
35, 8198, 8160, 8168, 8187, 8172, 8174, 8171, 8166, 8171, 8203, 8205, 8186, 8200, 8178,6.782336473464966
36, 8198, 8159, 8185, 8183, 8169, 8190, 8177, 8177, 8176, 8200, 8205, 8189, 8206, 8177,6.79753041267395
37, 8201, 8150, 8128, 8181, 8175, 8185, 8179, 8169, 8195, 8199, 8201, 8180, 8204, 8179,6.79753041267395
38, 8207, 8156, 8200, 8153, 8161, 8175, 8160, 8166, 8185, 8184, 8189, 8189, 8191, 8172,6.813262939453125
39, 8205, 8157, 8149, 8161, 8157, 8174, 8161, 8164, 8185, 8187, 8197, 8189, 8196, 8173,6.813262939453125
40, 8208, 8160, 8164, 8181, 8166, 8170, 8161, 8168, 8187, 8195, 8210, 8199, 8210, 8180,6.82879900932312
41, 8207, 8167, 8189, 8182, 8167, 8175, 8161, 8180, 8189, 8193, 8215, 8218, 8223, 8183,6.82879900932312
42, 8200, 8154, 8127, 8172, 8164, 8169, 8163, 8171, 8191, 8178, 8208, 8205, 8221, 8175,6.84438681602478
43, 8201, 8163, 8196, 8157, 8159, 8165, 8153, 8174, 8174, 8151, 8191, 8202, 8195, 8170,6.84438681602478
44, 8201, 8175, 8151, 8166, 8166, 8160, 8160, 8173, 8167, 8153, 8189, 8194, 8187, 8164,6.859518527984619
45, 8205, 8170, 8162, 8165, 8167, 8156, 8152, 8165, 8152, 8149, 8187, 8183, 8182, 8149,6.859518527984619
46, 8205, 8175, 8202, 8173, 8171, 8173, 8146, 8171, 8143, 8150, 8193, 8192, 8182, 8150,6.879397630691528
47, 8199, 8178, 8138, 8189, 8186, 8175, 8166, 8164, 8156, 8175, 8209, 8196, 8199, 8163,6.879397630691528
48, 8198, 8180, 8200, 8169, 8179, 8175, 8167, 8170, 8154, 8166, 8203, 8193, 8189, 8161,6.889809608459473
49, 8191, 8169, 8154, 8171, 8177, 8180, 8171, 8177, 8167, 8166, 8193, 8166, 8178, 8147,6.90709114074707
50, 8191, 8171, 8163, 8196, 8191, 8190, 8174, 8170, 8172, 8180, 8191, 8157, 8182, 8154,6.90709114074707
51, 8197, 8189, 8219, 8209, 8197, 8204, 8174, 8174, 8162, 8181, 8193, 8180, 8187, 8170,6.922142744064331
52, 8189, 8174, 8137, 8219, 8192, 8187, 8178, 8171, 8165, 8186, 8202, 8177, 8190, 8167,6.922142744064331
53, 8191, 8167, 8198, 8202, 8183, 8184, 8164, 8176, 8157, 8185, 8194, 8178, 8184, 8167,6.922142744064331
54, 8182, 8165, 8168, 8194, 8182, 8201, 8169, 8171, 8158, 8194, 8181, 8166, 8182, 8163,6.937546253204346
55, 8176, 8159, 8145, 8199, 8180, 8201, 8181, 8164, 8157, 8191, 8175, 8150, 8179, 8152,6.937546253204346
56, 8197, 8175, 8209, 8202, 8183, 8203, 8182, 8177, 8157, 8191, 8181, 8172, 8186, 8172,6.953401327133179
57, 8201, 8170, 8135, 8201, 8185, 8184, 8182, 8165, 8173, 8210, 8194, 8176, 8203, 8187,6.969440460205078
58, 8183, 8151, 8178, 8166, 8167, 8171, 8160, 8163, 8161, 8193, 8178, 8168, 8190, 8171,6.970445871353149
59, 8175, 8144, 8159, 8156, 8156, 8175, 8162, 8174, 8158, 8190, 8176, 8166, 8184, 8166,6.970445871353149
60, 8188, 8144, 8135, 8159, 8152, 8155, 8165, 8165, 8169, 8198, 8192, 8168, 8204, 8173,6.9854841232299805
61, 8195, 8157, 8198, 8142, 8140, 8148, 8149, 8168, 8163, 8182, 8192, 8186, 8210, 8172,6.9854841232299805
62, 8187, 8155, 8128, 8146, 8145, 8153, 8150, 8165, 8158, 8172, 8197, 8185, 8200, 8162,7.001517057418823
63, 8187, 8159, 8177, 8140, 8152, 8149, 8137, 8167, 8136, 8148, 8202, 8183, 8185, 8149,7.001517057418823
64, 8179, 8163, 8169, 8145, 8157, 8149, 8126, 8173, 8134, 8143, 8201, 8181, 8179, 8142,7.017101764678955
65, 8177, 8156, 8138, 8165, 8162, 8152, 8129, 8165, 8144, 8155, 8194, 8174, 8173, 8141,7.017101764678955
66, 8181, 8163, 8209, 8163, 8165, 8175, 8140, 8175, 8138, 8156, 8180, 8179, 8161, 8144,7.03252911567688
67, 8163, 8151, 8132, 8159, 8175, 8186, 8160, 8171, 8155, 8170, 8180, 8160, 8161, 8143,7.03252911567688
68, 8157, 8151, 8170, 8163, 8174, 8183, 8152, 8167, 8158, 8166, 8177, 8154, 8157, 8137,7.049115180969238
69, 8166, 8165, 8181, 8180, 8169, 8185, 8156, 8177, 8147, 8174, 8169, 8159, 8156, 8140,7.049115180969238
70, 8168, 8156, 8131, 8178, 8170, 8190, 8183, 8173, 8151, 8195, 8159, 8145, 8162, 8147,7.064210414886475
71, 8169, 8156, 8194, 8157, 8171, 8202, 8189, 8173, 8161, 8185, 8154, 8152, 8164, 8155,7.06521201133728
72, 8170, 8151, 8131, 8158, 8173, 8188, 8191, 8171, 8177, 8185, 8162, 8151, 8169, 8161,7.0797343254089355
73, 8175, 8150, 8162, 8152, 8167, 8171, 8186, 8172, 8173, 8188, 8156, 8153, 8163, 8167,7.0797343254089355
74, 8174, 8159, 8177, 8157, 8167, 8183, 8182, 8176, 8176, 8183, 8153, 8158, 8164, 8168,7.096359968185425
75, 8168, 8146, 8119, 8159, 8166, 8177, 8173, 8167, 8181, 8176, 8160, 8153, 8170, 8158,7.096359968185425
76, 8169, 8148, 8189, 8130, 8155, 8166, 8149, 8170, 8165, 8165, 8158, 8167, 8160, 8151,7.1115076541900635
77, 8168, 8158, 8140, 8137, 8155, 8157, 8151, 8164, 8166, 8163, 8163, 8164, 8166, 8146,7.126827955245972
78, 8180, 8168, 8162, 8148, 8156, 8154, 8146, 8161, 8160, 8150, 8170, 8168, 8177, 8150,7.12782883644104
79, 8198, 8178, 8191, 8150, 8161, 8168, 8143, 8172, 8155, 8159, 8184, 8190, 8181, 8165,7.12782883644104
80, 8201, 8175, 8139, 8165, 8170, 8158, 8144, 8163, 8162, 8171, 8200, 8195, 8184, 8165,7.142870903015137
81, 8198, 8184, 8212, 8167, 8164, 8150, 8131, 8166, 8148, 8148, 8193, 8202, 8178, 8160,7.159481763839722
82, 8195, 8184, 8160, 8179, 8167, 8158, 8145, 8170, 8148, 8152, 8191, 8202, 8182, 8163,7.159481763839722
83, 8205, 8177, 8168, 8185, 8176, 8162, 8149, 8167, 8147, 8161, 8197, 8210, 8183, 8162,7.159481763839722
84, 8206, 8180, 8211, 8183, 8169, 8165, 8144, 8182, 8141, 8154, 8199, 8220, 8185, 8161,7.174515724182129
85, 8196, 8172, 8149, 8188, 8163, 8156, 8151, 8180, 8150, 8163, 8198, 8202, 8185, 8165,7.174515724182129
86, 8199, 8179, 8211, 8186, 8166, 8164, 8146, 8173, 8143, 8157, 8186, 8202, 8167, 8164,7.190378904342651
87, 8191, 8176, 8160, 8201, 8170, 8171, 8151, 8170, 8139, 8151, 8188, 8193, 8163, 8158,7.204540014266968
88, 8175, 8160, 8151, 8200, 8163, 8165, 8153, 8169, 8130, 8149, 8183, 8173, 8163, 8145,7.204540014266968
89, 8168, 8160, 8195, 8192, 8168, 8180, 8154, 8178, 8129, 8149, 8160, 8173, 8155, 8143,7.222106695175171
90, 8164, 8151, 8123, 8198, 8177, 8176, 8164, 8170, 8151, 8162, 8155, 8160, 8154, 8143,7.222449064254761
91, 8168, 8156, 8190, 8187, 8171, 8174, 8156, 8172, 8144, 8154, 8158, 8155, 8145, 8144,7.222449064254761
92, 8165, 8164, 8158, 8193, 8176, 8182, 8157, 8173, 8142, 8150, 8156, 8150, 8139, 8151,7.235190391540527
93, 8163, 8159, 8136, 8194, 8180, 8173, 8159, 8166, 8147, 8149, 8146, 8143, 8135, 8151,7.251497507095337
94, 8165, 8158, 8187, 8174, 8166, 8177, 8158, 8179, 8144, 8154, 8146, 8157, 8140, 8150,7.251497507095337
95, 8157, 8146, 8111, 8176, 8160, 8185, 8171, 8174, 8165, 8186, 8166, 8160, 8165, 8156,7.266222953796387
96, 8157, 8148, 8179, 8172, 8157, 8189, 8160, 8173, 8168, 8186, 8164, 8168, 8163, 8163,7.266222953796387
97, 8156, 8151, 8166, 8178, 8162, 8192, 8158, 8176, 8166, 8183, 8160, 8164, 8152, 8157,7.281436920166016
98, 8149, 8137, 8128, 8171, 8159, 8185, 8166, 8164, 8165, 8192, 8161, 8154, 8158, 8148,7.281436920166016
99, 8143, 8138, 8185, 8148, 8150, 8180, 8165, 8169, 8158, 8186, 8156, 8161, 8156, 8156,7.29654598236084
100, 8139, 8136, 8115, 8151, 8149, 8172, 8167, 8164, 8166, 8185, 8155, 8145, 8155, 8155,7.29654598236084
101, 8150, 8136, 8166, 8143, 8139, 8177, 8160, 8173, 8169, 8184, 8155, 8147, 8156, 8153,7.312191009521484
102, 8158, 8139, 8156, 8147, 8144, 8171, 8171, 8183, 8181, 8197, 8168, 8162, 8167, 8161,7.312191009521484
103, 8160, 8139, 8123, 8160, 8160, 8146, 8177, 8164, 8184, 8192, 8167, 8155, 8165, 8157,7.328093528747559
104, 8166, 8152, 8198, 8150, 8155, 8154, 8163, 8164, 8172, 8174, 8157, 8162, 8153, 8155,7.328093528747559
105, 8169, 8146, 8128, 8144, 8149, 8152, 8158, 8167, 8174, 8177, 8171, 8165, 8160, 8155,7.343205451965332
106, 8172, 8153, 8170, 8138, 8151, 8133, 8135, 8168, 8156, 8154, 8175, 8175, 8154, 8142,7.343205451965332
107, 8167, 8175, 8179, 8146, 8157, 8137, 8126, 8169, 8139, 8132, 8167, 8179, 8145, 8129,7.358827590942383
108, 8163, 8161, 8131, 8142, 8149, 8134, 8128, 8163, 8142, 8128, 8162, 8162, 8148, 8126,7.358827590942383
109, 8166, 8152, 8199, 8125, 8139, 8136, 8119, 8173, 8143, 8136, 8159, 8174, 8151, 8136,7.37443470954895
110, 8169, 8156, 8140, 8146, 8151, 8137, 8129, 8169, 8153, 8129, 8176, 8181, 8156, 8144,7.37443470954895
111, 8185, 8169, 8181, 8158, 8154, 8131, 8127, 8162, 8133, 8051, 8186, 8187, 8160, 8141,7.3894593715667725
112, 8183, 8172, 8197, 8150, 8139, 8139, 8116, 8167, 8112, 8053, 8180, 8184, 8164, 8141,7.3894593715667725
113, 8164, 8154, 8137, 8148, 8137, 8144, 8113, 8164, 8118, 8166, 8163, 8156, 8145, 8139,7.4050586223602295
114, 8169, 8164, 8208, 8150, 8148, 8155, 8112, 8176, 8117, 8192, 8151, 8160, 8120, 8136,7.4050586223602295
115, 8173, 8171, 8150, 8171, 8161, 8158, 8131, 8175, 8131, 8129, 8172, 8172, 8152, 8143,7.421574592590332
116, 8167, 8167, 8168, 8164, 8156, 8154, 8130, 8168, 8125, 8110, 8179, 8169, 8173, 8147,7.421574592590332
117, 8160, 8172, 8194, 8155, 8148, 8162, 8125, 8172, 8115, 8154, 8163, 8154, 8147, 8134,7.43753981590271
118, 8149, 8159, 8132, 8167, 8155, 8155, 8135, 8162, 8124, 8169, 8159, 8131, 8138, 8125,7.43753981590271
119, 8145, 8157, 8195, 8161, 8160, 8169, 8143, 8173, 8125, 8140, 8155, 8140, 8148, 8137,7.452609300613403
120, 8135, 8155, 8140, 8165, 8166, 8187, 8159, 8180, 8140, 8145, 8153, 8136, 8151, 8138,7.452609300613403
121, 8129, 8148, 8151, 8166, 8166, 8180, 8158, 8171, 8142, 8162, 8152, 8121, 8144, 8128,7.4683146476745605
122, 8142, 8161, 8195, 8172, 8170, 8193, 8173, 8182, 8159, 8179, 8164, 8131, 8161, 8143,7.4683146476745605
123, 8156, 8163, 8134, 8189, 8178, 8199, 8198, 8186, 8197, 8202, 8171, 8136, 8176, 8158,7.4839112758636475
124, 8162, 8159, 8197, 8174, 8165, 8191, 8183, 8180, 8187, 8191, 8156, 8147, 8160, 8156,7.4839112758636475
125, 8155, 8149, 8158, 8164, 8162, 8183, 8173, 8168, 8168, 8186, 8157, 8146, 8159, 8154,7.499934911727905
126, 8152, 8146, 8152, 8155, 8165, 8177, 8174, 8168, 8168, 8190, 8153, 8137, 8162, 8148,7.499934911727905
127, 8154, 8153, 8191, 8145, 8160, 8178, 8176, 8183, 8187, 8189, 8147, 8138, 8166, 8146,7.515461206436157
236, 8163, 8150, 8132, 8156, 8165, 8167, 8189, 8173, 8218, 8216, 8167, 8140, 8189, 8160,7.515461206436157
0, 8181, 8157, 8197, 8151, 8171, 8164, 8188, 8172, 8215, 8214, 8170, 8160, 8195, 8175,7.531574487686157
1, 8168, 8147, 8155, 8135, 8161, 8160, 8183, 8178, 8196, 8192, 8155, 8152, 8176, 8165,7.531574487686157
2, 8155, 8132, 8138, 8119, 8137, 8147, 8170, 8168, 8174, 8176, 8150, 8134, 8159, 8146,7.546647071838379
3, 8171, 8151, 8201, 8131, 8137, 8155, 8159, 8168, 8165, 8169, 8169, 8162, 8173, 8158,7.546647071838379
4, 8185, 8161, 8144, 8154, 8150, 8152, 8166, 8169, 8172, 8176, 8189, 8175, 8198, 8175,7.562177658081055
5, 8191, 8169, 8200, 8150, 8144, 8150, 8155, 8172, 8170, 8179, 8197, 8188, 8203, 8177,7.562177658081055
6, 8196, 8177, 8181, 8169, 8147, 8150, 8151, 8173, 8181, 8192, 8218, 8207, 8210, 8186,7.577662706375122
7, 8210, 8180, 8174, 8189, 8153, 8134, 8141, 8162, 8171, 8185, 8224, 8209, 8205, 8194,7.577662706375122
8, 8226, 8198, 8242, 8192, 8151, 8140, 8126, 8165, 8139, 8161, 8215, 8216, 8186, 8191,7.592817068099976
9, 8226, 8198, 8160, 8217, 8163, 8149, 8141, 8164, 8142, 8174, 8224, 8212, 8190, 8184,7.592817068099976
10, 8226, 8198, 8211, 8225, 8175, 8158, 8149, 8172, 8142, 8184, 8232, 8218, 8195, 8189,7.608156681060791
11, 8224, 8204, 8215, 8228, 8178, 8167, 8151, 8176, 8147, 8182, 8229, 8213, 8191, 8190,7.608156681060791
12, 8222, 8199, 8171, 8240, 8177, 8155, 8144, 8164, 8151, 8175, 8220, 8195, 8186, 8181,7.6232922077178955
13, 8222, 8200, 8230, 8235, 8168, 8157, 8132, 8175, 8132, 8179, 8217, 8202, 8186, 8188,7.6232922077178955
14, 8205, 8180, 8163, 8232, 8165, 8158, 8145, 8168, 8130, 8200, 8223, 8187, 8190, 8192,7.639313697814941
15, 8189, 8169, 8195, 8218, 8160, 8161, 8144, 8162, 8125, 8179, 8202, 8168, 8174, 8179,7.639313697814941
16, 8181, 8171, 8192, 8210, 8161, 8178, 8153, 8178, 8130, 8164, 8177, 8156, 8165, 8173,7.655094385147095
17, 8181, 8157, 8146, 8209, 8164, 8184, 8177, 8174, 8155, 8192, 8179, 8143, 8171, 8179,7.655094385147095
18, 8179, 8156, 8210, 8195, 8157, 8187, 8170, 8172, 8158, 8201, 8172, 8145, 8163, 8174,7.670125484466553
19, 8174, 8155, 8140, 8200, 8161, 8174, 8159, 8167, 8147, 8197, 8153, 8135, 8161, 8171,7.670125484466553
20, 8182, 8152, 8169, 8194, 8163, 8172, 8163, 8165, 8136, 8190, 8145, 8144, 8167, 8178,7.68535304069519
21, 8177, 8146, 8181, 8184, 8163, 8190, 8185, 8172, 8154, 8194, 8149, 8153, 8169, 8179,7.701493263244629
22, 8164, 8131, 8122, 8173, 8164, 8183, 8201, 8169, 8187, 8203, 8143, 8136, 8166, 8171,7.701493263244629
23, 8168, 8138, 8184, 8151, 8156, 8184, 8197, 8175, 8190, 8193, 8129, 8144, 8157, 8170,7.715668678283691
24, 8159, 8131, 8114, 8148, 8143, 8179, 8197, 8168, 8188, 8191, 8129, 8129, 8152, 8162,7.715668678283691
25, 8154, 8126, 8136, 8138, 8129, 8164, 8174, 8166, 8171, 8177, 8127, 8114, 8146, 8153,7.732117652893066
26, 8164, 8145, 8175, 8140, 8139, 8167, 8169, 8178, 8162, 8170, 8133, 8137, 8153, 8161,7.732117652893066
27, 8171, 8147, 8117, 8148, 8154, 8159, 8186, 8166, 8169, 8179, 8146, 8146, 8165, 8158,7.747278690338135
28, 8174, 8153, 8185, 8139, 8148, 8155, 8179, 8166, 8158, 8168, 8144, 8151, 8158, 8161,7.747278690338135
29, 8169, 8153, 8135, 8148, 8149, 8153, 8182, 8170, 8172, 8176, 8153, 8148, 8163, 8173,7.762361764907837
30, 8167, 8151, 8145, 8139, 8145, 8146, 8177, 8170, 8181, 8172, 8152, 8149, 8162, 8163,7.762361764907837
31, 8168, 8158, 8182, 8126, 8140, 8154, 8171, 8177, 8175, 8154, 8138, 8160, 8154, 8152,7.777493715286255
32, 8165, 8152, 8122, 8143, 8145, 8149, 8170, 8167, 8176, 8156, 8144, 8153, 8158, 8153,7.777493715286255
33, 8170, 8165, 8198, 8142, 8146, 8145, 8149, 8169, 8157, 8152, 8155, 8159, 8152, 8152,7.793531656265259
34, 8177, 8174, 8154, 8143, 8150, 8150, 8153, 8172, 8154, 8164, 8169, 8162, 8151, 8148,7.793531656265259
35, 8182, 8162, 8148, 8143, 8149, 8149, 8161, 8168, 8144, 8164, 8166, 8162, 8148, 8151,7.809601306915283
36, 8177, 8162, 8199, 8137, 8145, 8150, 8156, 8176, 8133, 8152, 8154, 8168, 8140, 8158,7.809601306915283
37, 8165, 8161, 8124, 8142, 8148, 8136, 8160, 8171, 8139, 8156, 8155, 8152, 8141, 8150,7.825600862503052
38, 8158, 8166, 8183, 8134, 8143, 8135, 8151, 8169, 8127, 8145, 8153, 8148, 8128, 8139,7.825600862503052
39, 8161, 8170, 8162, 8148, 8152, 8152, 8159, 8170, 8146, 8151, 8156, 8146, 8129, 8143,7.8411781787872314
40, 8176, 8173, 8155, 8166, 8168, 8160, 8169, 8165, 8164, 8157, 8158, 8149, 8144, 8151,7.8411781787872314
41, 8176, 8186, 8204, 8162, 8170, 8171, 8167, 8174, 8136, 8151, 8158, 8161, 8148, 8152,7.857189893722534
42, 8167, 8179, 8133, 8171, 8173, 8168, 8179, 8168, 8125, 8165, 8164, 8146, 8153, 8149,7.857189893722534
43, 8177, 8179, 8199, 8171, 8174, 8169, 8183, 8173, 8133, 8170, 8165, 8155, 8155, 8162,7.87310004234314
44, 8176, 8177, 8175, 8168, 8176, 8175, 8184, 8185, 8147, 8183, 8163, 8158, 8160, 8168,7.87310004234314
45, 8164, 8154, 8141, 8159, 8172, 8167, 8181, 8178, 8148, 8187, 8144, 8136, 8154, 8158,7.888127565383911
46, 8164, 8151, 8205, 8150, 8167, 8178, 8179, 8177, 8141, 8173, 8128, 8140, 8143, 8165,7.888127565383911
47, 8155, 8147, 8133, 8157, 8166, 8184, 8185, 8166, 8160, 8188, 8140, 8139, 8155, 8176,7.9041852951049805
48, 8153, 8150, 8177, 8147, 8169, 8186, 8179, 8170, 8179, 8207, 8146, 8145, 8162, 8176,7.9041852951049805
49, 8152, 8146, 8165, 8148, 8181, 8190, 8190, 8179, 8198, 8214, 8141, 8146, 8156, 8173,7.919613599777222
50, 8143, 8135, 8132, 8147, 8172, 8178, 8197, 8166, 8200, 8207, 8130, 8135, 8149, 8173,7.919613599777222
51, 8157, 8156, 8203, 8137, 8159, 8179, 8193, 8177, 8195, 8210, 8137, 8160, 8161, 8189,7.935676574707031
52, 8176, 8169, 8139, 8160, 8181, 8175, 8203, 8177, 8209, 8235, 8172, 8172, 8186, 8205,7.935676574707031
53, 8184, 8170, 8184, 8171, 8193, 8179, 8193, 8168, 8190, 8230, 8171, 8171, 8180, 8199,7.95122766494751
54, 8180, 8169, 8187, 8177, 8183, 8190, 8189, 8171, 8174, 8228, 8152, 8170, 8174, 8198,7.95122766494751
55, 8187, 8168, 8143, 8187, 8189, 8180, 8200, 8167, 8186, 8235, 8162, 8171, 8182, 8207,7.967182159423828
56, 8194, 8182, 8214, 8177, 8196, 8180, 8195, 8170, 8188, 8224, 8174, 8191, 8181, 8207,7.967182159423828
57, 8181, 8169, 8144, 8173, 8188, 8174, 8196, 8166, 8198, 8232, 8169, 8184, 8178, 8195,7.982149362564087
58, 8179, 8158, 8169, 8158, 8170, 8158, 8181, 8172, 8198, 8222, 8157, 8176, 8173, 8189,7.982149362564087
59, 8188, 8173, 8193, 8156, 8172, 8158, 8172, 8183, 8194, 8207, 8170, 8193, 8179, 8191,7.9981865882873535
60, 8195, 8179, 8152, 8170, 8195, 8159, 8175, 8167, 8181, 8204, 8194, 8204, 8185, 8186,7.9981865882873535
61, 8197, 8188, 8218, 8179, 8197, 8165, 8162, 8163, 8141, 8168, 8175, 8202, 8159, 8172,8.013873100280762
62, 8188, 8188, 8161, 8194, 8191, 8158, 8158, 8163, 8125, 8150, 8160, 8177, 8141, 8167,8.013873100280762
63, 8189, 8181, 8186, 8184, 8186, 8147, 8149, 8164, 8127, 8159, 8177, 8190, 8150, 8174,8.036471843719482
64, 8195, 8187, 8210, 8183, 8189, 8164, 8157, 8178, 8146, 8172, 8193, 8213, 8176, 8185,8.036471843719482
65, 8196, 8190, 8149, 8210, 8199, 8177, 8180, 8177, 8167, 8196, 8196, 8197, 8192, 8195,8.036471843719482
66, 8193, 8190, 8216, 8206, 8194, 8179, 8172, 8178, 8158, 8200, 8185, 8195, 8175, 8202,8.044501781463623
67, 8186, 8181, 8160, 8201, 8190, 8173, 8167, 8173, 8161, 8193, 8177, 8193, 8164, 8192,8.060124635696411
68, 8194, 8186, 8173, 8212, 8194, 8173, 8168, 8167, 8157, 8180, 8176, 8190, 8168, 8185,8.060124635696411
69, 8208, 8202, 8218, 8225, 8208, 8191, 8175, 8176, 8152, 8188, 8190, 8203, 8183, 8206,8.075053691864014
70, 8204, 8193, 8153, 8235, 8222, 8195, 8185, 8169, 8162, 8208, 8187, 8193, 8185, 8211,8.075053691864014
71, 8196, 8191, 8218, 8232, 8218, 8203, 8179, 8174, 8157, 8195, 8161, 8188, 8164, 8192,8.091579914093018
72, 8188, 8181, 8170, 8232, 8209, 8201, 8189, 8175, 8157, 8188, 8159, 8179, 8161, 8188,8.091579914093018
73, 8184, 8158, 8158, 8202, 8188, 8182, 8190, 8170, 8144, 8182, 8156, 8167, 8162, 8190,8.107527017593384
74, 8177, 8157, 8199, 8168, 8175, 8183, 8179, 8179, 8133, 8179, 8146, 8174, 8159, 8189,8.107527017593384
75, 8170, 8153, 8130, 8178, 8177, 8180, 8185, 8166, 8155, 8196, 8151, 8170, 8169, 8190,8.123465776443481
76, 8184, 8162, 8198, 8176, 8177, 8185, 8184, 8169, 8165, 8195, 8148, 8175, 8175, 8196,8.123465776443481
77, 8188, 8165, 8167, 8171, 8177, 8186, 8190, 8176, 8180, 8199, 8150, 8175, 8182, 8192,8.139473915100098
78, 8186, 8153, 8148, 8161, 8167, 8167, 8190, 8169, 8191, 8200, 8157, 8176, 8185, 8186,8.139473915100098
79, 8191, 8160, 8203, 8152, 8157, 8168, 8187, 8177, 8196, 8200, 8162, 8198, 8187, 8196,8.155054807662964
80, 8193, 8163, 8143, 8169, 8167, 8167, 8186, 8170, 8208, 8215, 8180, 8202, 8200, 8201,8.155054807662964
81, 8206, 8179, 8202, 8169, 8172, 8159, 8157, 8171, 8190, 8196, 8189, 8214, 8195, 8193,8.170499324798584
82, 8211, 8191, 8174, 8170, 8172, 8153, 8149, 8179, 8174, 8179, 8189, 8216, 8184, 8186,8.170499324798584
83, 8198, 8182, 8151, 8181, 8176, 8155, 8150, 8164, 8161, 8169, 8184, 8205, 8179, 8179,8.18606424331665
84, 8184, 8183, 8217, 8189, 8186, 8178, 8146, 8161, 8147, 8158, 8176, 8204, 8174, 8178,8.18606424331665
85, 8180, 8177, 8148, 8207, 8201, 8185, 8173, 8167, 8171, 8187, 8176, 8190, 8182, 8188,8.202131032943726
86, 8191, 8181, 8199, 8215, 8198, 8187, 8185, 8179, 8195, 8208, 8173, 8197, 8189, 8202,8.202131032943726
87, 8193, 8184, 8185, 8228, 8197, 8200, 8190, 8184, 8213, 8219, 8176, 8202, 8197, 8211,8.2171471118927
88, 8188, 8171, 8139, 8218, 8200, 8191, 8197, 8175, 8219, 8228, 8173, 8184, 8193, 8207,8.2171471118927
89, 8193, 8171, 8200, 8190, 8190, 8184, 8192, 8182, 8211, 8226, 8164, 8189, 8188, 8206,8.232397556304932
90, 8185, 8163, 8133, 8183, 8176, 8171, 8182, 8174, 8211, 8221, 8170, 8190, 8197, 8204,8.232397556304932
91, 8180, 8161, 8172, 8161, 8163, 8159, 8163, 8167, 8195, 8199, 8171, 8193, 8192, 8201,8.248348236083984
92, 8192, 8173, 8181, 8168, 8174, 8163, 8169, 8172, 8200, 8200, 8182, 8206, 8189, 8197,8.248348236083984
93, 8202, 8177, 8146, 8191, 8182, 8155, 8168, 8160, 8205, 8200, 8195, 8207, 8188, 8181,8.264276266098022
94, 8198, 8188, 8213, 8177, 8175, 8155, 8145, 8169, 8173, 8175, 8187, 8212, 8177, 8173,8.264276266098022
95, 8189, 8186, 8145, 8188, 8185, 8158, 8156, 8171, 8170, 8186, 8191, 8200, 8184, 8180,8.279841184616089
96, 8194, 8186, 8180, 8207, 8191, 8159, 8162, 8162, 8180, 8198, 8194, 8200, 8184, 8184,8.279841184616089
97, 8188, 8184, 8193, 8208, 8184, 8172, 8165, 8167, 8174, 8199, 8180, 8198, 8171, 8178,8.2958402633667
98, 8176, 8161, 8131, 8205, 8184, 8174, 8177, 8165, 8160, 8206, 8164, 8165, 8165, 8168,8.2958402633667
99, 8182, 8160, 8203, 8190, 8184, 8183, 8176, 8169, 8155, 8205, 8156, 8168, 8169, 8180,8.310503005981445
100, 8188, 8164, 8153, 8185, 8183, 8187, 8192, 8170, 8189, 8225, 8165, 8180, 8187, 8200,8.310503005981445
101, 8198, 8170, 8169, 8179, 8182, 8182, 8198, 8174, 8212, 8238, 8173, 8189, 8199, 8201,8.326534032821655
102, 8195, 8176, 8188, 8174, 8181, 8172, 8178, 8177, 8209, 8224, 8179, 8196, 8194, 8188,8.326534032821655
103, 8183, 8169, 8133, 8168, 8171, 8147, 8150, 8165, 8196, 8204, 8190, 8189, 8187, 8175,8.3420569896698
104, 8192, 8188, 8213, 8175, 8170, 8147, 8139, 8175, 8175, 8197, 8198, 8209, 8184, 8189,8.3420569896698
105, 8180, 8181, 8159, 8198, 8182, 8154, 8155, 8173, 8165, 8201, 8185, 8196, 8183, 8191,8.358099937438965
106, 8154, 8148, 8154, 8177, 8174, 8153, 8157, 8159, 8142, 8180, 8150, 8160, 8162, 8168,8.358099937438965
107, 8157, 8151, 8193, 8167, 8173, 8178, 8169, 8169, 8143, 8183, 8144, 8162, 8153, 8168,8.374182224273682
108, 8168, 8153, 8139, 8190, 8182, 8185, 8198, 8170, 8172, 8215, 8161, 8166, 8162, 8180,8.374182224273682
109, 8172, 8156, 8198, 8177, 8177, 8178, 8199, 8172, 8175, 8215, 8150, 8172, 8157, 8180,8.389618873596191
110, 8169, 8158, 8146, 8162, 8179, 8175, 8198, 8168, 8192, 8221, 8143, 8168, 8159, 8177,8.389618873596191
111, 8168, 8152, 8147, 8141, 8172, 8167, 8180, 8159, 8192, 8217, 8142, 8161, 8159, 8172,8.40571403503418
112, 8175, 8160, 8198, 8133, 8163, 8164, 8159, 8172, 8179, 8208, 8149, 8179, 8165, 8172,8.40571403503418
113, 8190, 8168, 8136, 8162, 8172, 8149, 8155, 8169, 8195, 8224, 8177, 8196, 8183, 8183,8.421292304992676
114, 8195, 8175, 8199, 8158, 8174, 8142, 8146, 8169, 8186, 8207, 8178, 8204, 8174, 8184,8.421292304992676
115, 8178, 8167, 8158, 8142, 8174, 8151, 8156, 8174, 8170, 8188, 8167, 8187, 8164, 8170,8.437179565429688
116, 8174, 8160, 8145, 8138, 8174, 8149, 8149, 8166, 8155, 8175, 8168, 8181, 8156, 8152,8.437179565429688
117, 8171, 8170, 8201, 8132, 8168, 8156, 8133, 8171, 8132, 8159, 8167, 8190, 8140, 8147,8.452343225479126
118, 8160, 8166, 8130, 8151, 8178, 8156, 8149, 8171, 8136, 8179, 8170, 8170, 8140, 8149,8.452343225479126
119, 8162, 8176, 8192, 8173, 8186, 8162, 8149, 8173, 8144, 8190, 8167, 8172, 8143, 8145,8.468435049057007
120, 8165, 8178, 8175, 8184, 8189, 8173, 8150, 8170, 8150, 8189, 8167, 8179, 8143, 8147,8.468435049057007
121, 8162, 8167, 8144, 8172, 8189, 8168, 8155, 8163, 8136, 8186, 8165, 8169, 8139, 8150,8.484475135803223
122, 8153, 8175, 8198, 8164, 8186, 8172, 8153, 8174, 8122, 8183, 8152, 8169, 8129, 8150,8.484475135803223
123, 8145, 8167, 8129, 8186, 8192, 8174, 8169, 8168, 8142, 8201, 8147, 8155, 8137, 8151,8.500070571899414
124, 8151, 8166, 8185, 8185, 8189, 8180, 8177, 8169, 8145, 8204, 8153, 8166, 8151, 8164,8.500070571899414
125, 8156, 8174, 8179, 8182, 8183, 8181, 8180, 8174, 8151, 8207, 8164, 8185, 8163, 8175,8.515195846557617
126, 8161, 8169, 8142, 8179, 8179, 8167, 8177, 8164, 8165, 8217, 8161, 8181, 8171, 8182,8.515195846557617
127, 8161, 8165, 8197, 8154, 8166, 8171, 8168, 8174, 8164, 8212, 8146, 8180, 8173, 8189,8.53035306930542
236, 8146, 8144, 8125, 8151, 8167, 8163, 8171, 8173, 8173, 8210, 8153, 8172, 8180, 8183,8.53035306930542
0, 8159, 8150, 8177, 8155, 8166, 8147, 8164, 8170, 8174, 8204, 8159, 8187, 8183, 8186,8.547412395477295
1, 8180, 8179, 8186, 8170, 8158, 8152, 8168, 8171, 8174, 8206, 8170, 8205, 8190, 8196,8.547412395477295
2, 8181, 8174, 8141, 8168, 8159, 8149, 8173, 8162, 8181, 8202, 8179, 8201, 8193, 8189,8.562199115753174
3, 8179, 8166, 8208, 8140, 8161, 8150, 8170, 8176, 8182, 8188, 8171, 8211, 8183, 8179,8.562199115753174
4, 8171, 8162, 8139, 8140, 8158, 8145, 8171, 8171, 8181, 8186, 8164, 8196, 8175, 8165,8.577418327331543
5, 8167, 8172, 8169, 8135, 8148, 8140, 8144, 8157, 8153, 8163, 8159, 8178, 8157, 8150,8.577418327331543
6, 8170, 8186, 8183, 8145, 8158, 8151, 8142, 8168, 8144, 8160, 8175, 8181, 8161, 8152,8.592855453491211
7, 8172, 8189, 8136, 8178, 8171, 8152, 8169, 8173, 8163, 8188, 8194, 8183, 8178, 8160,8.592855453491211
8, 8174, 8201, 8212, 8182, 8170, 8159, 8165, 8175, 8157, 8185, 8188, 8197, 8176, 8166,8.609485626220703
9, 8172, 8198, 8156, 8197, 8185, 8163, 8169, 8175, 8164, 8192, 8194, 8192, 8186, 8176,8.609485626220703
10, 8180, 8192, 8180, 8211, 8198, 8168, 8184, 8182, 8181, 8214, 8206, 8186, 8194, 8188,8.625355243682861
11, 8179, 8192, 8207, 8213, 8195, 8182, 8192, 8188, 8188, 8222, 8205, 8190, 8189, 8194,8.625355243682861
12, 8160, 8169, 8141, 8206, 8186, 8174, 8188, 8168, 8178, 8207, 8179, 8176, 8181, 8186,8.639874935150146
13, 8159, 8168, 8203, 8192, 8183, 8182, 8180, 8171, 8161, 8193, 8159, 8180, 8174, 8184,8.639874935150146
14, 8163, 8172, 8154, 8197, 8186, 8188, 8202, 8178, 8183, 8220, 8177, 8185, 8187, 8193,8.656463623046875
15, 8160, 8165, 8167, 8188, 8174, 8179, 8212, 8178, 8197, 8231, 8187, 8183, 8194, 8195,8.656463623046875
16, 8158, 8173, 8201, 8185, 8173, 8188, 8210, 8188, 8206, 8228, 8177, 8182, 8193, 8203,8.672100067138672
17, 8158, 8169, 8137, 8197, 8183, 8187, 8213, 8176, 8227, 8242, 8181, 8173, 8202, 8207,8.688250303268433
18, 8172, 8172, 8202, 8180, 8175, 8182, 8204, 8178, 8225, 8237, 8181, 8189, 8206, 8208,8.688250303268433
19, 8176, 8168, 8156, 8169, 8169, 8172, 8211, 8180, 8227, 8234, 8171, 8190, 8204, 8212,8.688250303268433
20, 8162, 8150, 8148, 8154, 8158, 8152, 8193, 8165, 8207, 8207, 8151, 8172, 8179, 8195,8.701436996459961
21, 8151, 8154, 8186, 8141, 8149, 8153, 8168, 8164, 8179, 8177, 8145, 8170, 8160, 8174,8.718546390533447
22, 8161, 8159, 8121, 8154, 8159, 8155, 8177, 8161, 8191, 8192, 8164, 8176, 8180, 8181,8.719545364379883
23, 8179, 8168, 8197, 8159, 8165, 8157, 8173, 8169, 8190, 8196, 8176, 8203, 8189, 8194,8.719545364379883
24, 8173, 8168, 8163, 8165, 8166, 8157, 8171, 8175, 8186, 8195, 8186, 8203, 8182, 8184,8.734115362167358
25, 8168, 8162, 8137, 8160, 8163, 8148, 8172, 8168, 8186, 8195, 8186, 8188, 8181, 8170,8.734115362167358
26, 8176, 8175, 8192, 8164, 8160, 8159, 8176, 8176, 8194, 8196, 8188, 8207, 8189, 8180,8.750296592712402
27, 8170, 8175, 8128, 8184, 8170, 8159, 8189, 8174, 8209, 8208, 8205, 8205, 8190, 8178,8.765407800674438
28, 8156, 8174, 8176, 8163, 8168, 8148, 8178, 8171, 8180, 8176, 8184, 8184, 8163, 8152,8.765407800674438
29, 8145, 8172, 8146, 8156, 8162, 8143, 8169, 8168, 8156, 8148, 8158, 8168, 8151, 8137,8.765407800674438
30, 8156, 8179, 8139, 8181, 8162, 8145, 8169, 8163, 8161, 8165, 8174, 8181, 8163, 8151,8.783128499984741
31, 8174, 8197, 8217, 8193, 8164, 8159, 8168, 8175, 8169, 8190, 8200, 8215, 8174, 8173,8.783128499984741
32, 8169, 8181, 8146, 8193, 8170, 8150, 8174, 8166, 8176, 8194, 8197, 8196, 8177, 8175,8.79524564743042
33, 8166, 8175, 8193, 8177, 8165, 8154, 8168, 8160, 8156, 8169, 8167, 8183, 8162, 8168,8.810388565063477
34, 8159, 8178, 8179, 8185, 8163, 8177, 8183, 8168, 8148, 8167, 8154, 8186, 8150, 8161,8.810388565063477
35, 8147, 8163, 8134, 8194, 8161, 8175, 8197, 8168, 8150, 8172, 8150, 8164, 8149, 8148,8.828495025634766
36, 8151, 8168, 8193, 8179, 8155, 8180, 8190, 8174, 8140, 8159, 8140, 8159, 8149, 8151,8.828495025634766
37, 8159, 8165, 8130, 8179, 8156, 8179, 8201, 8164, 8149, 8178, 8149, 8166, 8162, 8170,8.828495025634766
38, 8166, 8157, 8177, 8175, 8153, 8171, 8201, 8165, 8155, 8196, 8149, 8186, 8167, 8187,8.84151315689087
39, 8161, 8160, 8170, 8172, 8148, 8174, 8196, 8170, 8164, 8198, 8142, 8187, 8166, 8190,8.85726547241211
40, 8154, 8153, 8120, 8163, 8140, 8169, 8190, 8163, 8175, 8188, 8134, 8166, 8159, 8176,8.85726547241211
41, 8153, 8156, 8190, 8149, 8144, 8171, 8186, 8178, 8175, 8179, 8128, 8170, 8156, 8170,8.87253475189209
42, 8145, 8154, 8125, 8154, 8155, 8165, 8196, 8176, 8194, 8195, 8132, 8163, 8165, 8166,8.87253475189209
43, 8151, 8156, 8160, 8135, 8145, 8160, 8183, 8166, 8198, 8190, 8136, 8168, 8169, 8161,8.88806939125061
44, 8165, 8165, 8180, 8135, 8144, 8162, 8178, 8173, 8194, 8184, 8150, 8191, 8179, 8169,8.88806939125061
45, 8172, 8160, 8130, 8152, 8147, 8143, 8176, 8163, 8185, 8183, 8159, 8190, 8183, 8173,8.904122114181519
46, 8174, 8162, 8198, 8136, 8138, 8136, 8151, 8164, 8159, 8163, 8157, 8199, 8169, 8167,8.904122114181519
47, 8173, 8162, 8139, 8135, 8140, 8142, 8153, 8165, 8159, 8167, 8173, 8200, 8170, 8157,8.919481039047241
48, 8174, 8169, 8165, 8140, 8143, 8141, 8154, 8161, 8148, 8157, 8169, 8196, 8158, 8149,8.919481039047241
49, 8166, 8173, 8193, 8138, 8141, 8143, 8148, 8167, 8137, 8143, 8151, 8193, 8138, 8147,8.935495138168335
50, 8173, 8168, 8135, 8155, 8158, 8149, 8164, 8168, 8153, 8164, 8161, 8190, 8151, 8158,8.935495138168335
51, 8188, 8188, 8201, 8165, 8171, 8169, 8180, 8184, 8157, 8169, 8166, 8206, 8160, 8173,8.951605558395386
52, 8160, 8180, 8145, 8163, 8168, 8164, 8185, 8183, 8148, 8157, 8149, 8186, 8145, 8160,8.951605558395386
53, 8141, 8161, 8154, 8147, 8156, 8150, 8166, 8167, 8129, 8149, 8140, 8167, 8128, 8143,8.967081069946289
54, 8167, 8172, 8197, 8153, 8154, 8161, 8157, 8171, 8134, 8167, 8160, 8192, 8143, 8153,8.967081069946289
