COUNTER,F3,FC5,AF3,F7,T7,P7,O1,O2,P8,T8,F8,AF4,FC6,F4,Timestamp
56, 8198, 8155, 8198, 8240, 8195, 8194, 8223, 8173, 8186, 8212, 8185, 8181, 8191, 8200,0.04495644569396973
57, 8199, 8157, 8126, 8246, 8191, 8177, 8221, 8166, 8207, 8224, 8194, 8178, 8196, 8203,0.04495644569396973
58, 8206, 8166, 8199, 8222, 8176, 8163, 8196, 8173, 8210, 8211, 8199, 8187, 8200, 8197,0.05608010292053223
59, 8208, 8170, 8161, 8222, 8187, 8155, 8181, 8177, 8213, 8214, 8221, 8195, 8213, 8194,0.07314085960388184
60, 8198, 8171, 8152, 8222, 8185, 8143, 8167, 8175, 8191, 8203, 8219, 8192, 8196, 8182,0.07314085960388184
61, 8196, 8186, 8210, 8220, 8176, 8158, 8170, 8183, 8173, 8185, 8206, 8199, 8175, 8179,0.08777523040771484
62, 8194, 8176, 8135, 8243, 8189, 8165, 8188, 8176, 8188, 8201, 8211, 8188, 8189, 8186,0.08777523040771484
63, 8193, 8165, 8198, 8239, 8185, 8167, 8179, 8178, 8184, 8197, 8195, 8186, 8186, 8192,0.10297441482543945
64, 8197, 8161, 8168, 8238, 8182, 8179, 8195, 8178, 8208, 8217, 8188, 8188, 8186, 8209,0.10297441482543945
65, 8217, 8161, 8146, 8238, 8185, 8180, 8214, 8175, 8248, 8251, 8197, 8194, 8206, 8220,0.11853146553039551
66, 8223, 8170, 8209, 8229, 8175, 8177, 8198, 8183, 8240, 8228, 8199, 8213, 8207, 8209,0.11853146553039551
67, 8211, 8160, 8128, 8220, 8168, 8154, 8180, 8169, 8212, 8182, 8197, 8205, 8194, 8196,0.1340944766998291
68, 8221, 8163, 8188, 8198, 8162, 8141, 8168, 8170, 8193, 8167, 8200, 8217, 8185, 8200,0.1340944766998291
69, 8221, 8165, 8175, 8202, 8159, 8150, 8177, 8178, 8214, 8196, 8218, 8227, 8200, 8199,0.14903831481933594
70, 8211, 8156, 8141, 8217, 8162, 8150, 8178, 8169, 8219, 8198, 8211, 8210, 8199, 8191,0.14903831481933594
71, 8208, 8175, 8207, 8234, 8172, 8169, 8171, 8176, 8193, 8180, 8185, 8205, 8180, 8191,0.1646134853363037
72, 8192, 8163, 8123, 8253, 8173, 8176, 8186, 8171, 8201, 8202, 8174, 8178, 8173, 8183,0.1646134853363037
73, 8185, 8140, 8166, 8223, 8159, 8175, 8188, 8168, 8212, 8203, 8159, 8169, 8168, 8182,0.1802225112915039
74, 8193, 8146, 8164, 8203, 8168, 8183, 8201, 8175, 8224, 8202, 8158, 8185, 8181, 8196,0.1802225112915039
75, 8198, 8148, 8116, 8210, 8174, 8169, 8209, 8175, 8223, 8206, 8164, 8180, 8189, 8192,0.1963334083557129
76, 8198, 8154, 8181, 8203, 8159, 8158, 8187, 8174, 8195, 8177, 8156, 8182, 8174, 8170,0.1963334083557129
77, 8192, 8160, 8114, 8205, 8168, 8151, 8176, 8163, 8184, 8161, 8163, 8180, 8166, 8159,0.21203255653381348
78, 8189, 8173, 8164, 8196, 8181, 8157, 8170, 8168, 8164, 8151, 8170, 8181, 8152, 8153,0.21203255653381348
79, 8190, 8178, 8178, 8215, 8185, 8172, 8181, 8176, 8158, 8147, 8164, 8173, 8145, 8154,0.22719287872314453
80, 8200, 8174, 8126, 8252, 8187, 8163, 8187, 8163, 8161, 8153, 8159, 8161, 8155, 8166,0.22719287872314453
81, 8206, 8181, 8201, 8240, 8188, 8165, 8178, 8165, 8146, 8155, 8158, 8182, 8160, 8174,0.24315690994262695
82, 8197, 8166, 8134, 8235, 8193, 8174, 8201, 8169, 8169, 8176, 8160, 8175, 8167, 8178,0.24315690994262695
83, 8196, 8164, 8162, 8237, 8185, 8182, 8212, 8180, 8197, 8188, 8149, 8164, 8171, 8185,0.2592282295227051
84, 8194, 8174, 8182, 8228, 8176, 8189, 8207, 8184, 8215, 8199, 8144, 8172, 8179, 8191,0.2592282295227051
85, 8199, 8161, 8127, 8222, 8174, 8168, 8206, 8171, 8224, 8200, 8155, 8172, 8190, 8189,0.27510833740234375
86, 8224, 8175, 8211, 8221, 8173, 8157, 8202, 8179, 8215, 8189, 8174, 8199, 8197, 8197,0.27510833740234375
87, 8229, 8185, 8147, 8226, 8173, 8153, 8203, 8173, 8223, 8204, 8197, 8214, 8213, 8200,0.29048657417297363
88, 8216, 8179, 8156, 8200, 8159, 8146, 8179, 8166, 8213, 8185, 8185, 8209, 8199, 8179,0.29048657417297363
89, 8207, 8187, 8193, 8196, 8155, 8152, 8170, 8176, 8200, 8162, 8176, 8209, 8182, 8171,0.3060159683227539
90, 8203, 8187, 8133, 8227, 8169, 8151, 8180, 8171, 8201, 8182, 8196, 8203, 8194, 8179,0.3060159683227539
91, 8201, 8199, 8208, 8228, 8177, 8159, 8169, 8172, 8178, 8175, 8192, 8207, 8191, 8178,0.32204723358154297
92, 8190, 8199, 8151, 8234, 8186, 8168, 8174, 8166, 8172, 8169, 8176, 8189, 8176, 8175,0.32204723358154297
93, 8188, 8186, 8154, 8239, 8186, 8176, 8181, 8164, 8173, 8180, 8171, 8181, 8174, 8188,0.3379495143890381
94, 8185, 8185, 8195, 8235, 8181, 8191, 8191, 8179, 8193, 8202, 8176, 8190, 8188, 8201,0.3379495143890381
95, 8177, 8180, 8116, 8220, 8175, 8169, 8203, 8176, 8228, 8217, 8181, 8180, 8198, 8194,0.35296010971069336
96, 8184, 8184, 8189, 8184, 8159, 8144, 8174, 8172, 8214, 8194, 8173, 8198, 8188, 8183,0.35296010971069336
97, 8192, 8192, 8157, 8192, 8160, 8143, 8160, 8170, 8194, 8189, 8187, 8212, 8194, 8175,0.369020938873291
98, 8202, 8212, 8156, 8218, 8172, 8154, 8169, 8172, 8182, 8195, 8211, 8210, 8203, 8186,0.369020938873291
99, 8204, 8228, 8209, 8227, 8172, 8181, 8177, 8182, 8172, 8190, 8208, 8211, 8202, 8199,0.3850548267364502
100, 8191, 8204, 8128, 8233, 8169, 8184, 8189, 8173, 8180, 8197, 8187, 8191, 8197, 8194,0.3850548267364502
101, 8187, 8198, 8192, 8215, 8165, 8178, 8184, 8173, 8181, 8192, 8171, 8195, 8189, 8194,0.4005298614501953
102, 8189, 8203, 8160, 8207, 8167, 8167, 8187, 8170, 8196, 8198, 8176, 8198, 8195, 8196,0.4005298614501953
103, 8205, 8207, 8140, 8205, 8165, 8151, 8185, 8169, 8201, 8199, 8184, 8194, 8198, 8190,0.41605615615844727
104, 8219, 8235, 8205, 8199, 8168, 8162, 8179, 8184, 8196, 8190, 8195, 8214, 8196, 8190,0.41605615615844727
105, 8211, 8239, 8132, 8220, 8184, 8165, 8190, 8177, 8206, 8198, 8211, 8218, 8203, 8191,0.43177127838134766
106, 8200, 8231, 8195, 8225, 8181, 8169, 8186, 8174, 8200, 8198, 8200, 8217, 8195, 8190,0.43177127838134766
107, 8188, 8221, 8172, 8228, 8174, 8182, 8197, 8178, 8205, 8216, 8194, 8203, 8198, 8193,0.4469423294067383
108, 8177, 8202, 8131, 8214, 8165, 8176, 8204, 8172, 8208, 8222, 8184, 8183, 8202, 8186,0.4469423294067383
109, 8168, 8194, 8186, 8180, 8151, 8173, 8189, 8173, 8189, 8190, 8154, 8184, 8181, 8175,0.4629976749420166
110, 8171, 8185, 8110, 8180, 8150, 8160, 8180, 8165, 8192, 8181, 8153, 8179, 8178, 8179,0.4629976749420166
111, 8199, 8204, 8184, 8187, 8152, 8153, 8160, 8173, 8188, 8186, 8180, 8200, 8195, 8190,0.4783053398132324
112, 8210, 8226, 8194, 8205, 8167, 8165, 8155, 8178, 8189, 8201, 8207, 8219, 8207, 8196,0.4783053398132324
113, 8191, 8208, 8141, 8207, 8175, 8166, 8162, 8165, 8185, 8185, 8189, 8195, 8185, 8184,0.4932746887207031
114, 8179, 8202, 8202, 8195, 8162, 8182, 8173, 8170, 8171, 8159, 8150, 8177, 8157, 8171,0.4932746887207031
115, 8171, 8192, 8129, 8200, 8160, 8180, 8200, 8169, 8189, 8188, 8144, 8156, 8167, 8179,0.5091578960418701
116, 8167, 8186, 8166, 8180, 8156, 8169, 8193, 8171, 8197, 8204, 8147, 8161, 8172, 8186,0.5091578960418701
117, 8178, 8198, 8176, 8182, 8155, 8181, 8183, 8174, 8205, 8206, 8159, 8186, 8177, 8193,0.5247128009796143
118, 8196, 8197, 8135, 8197, 8160, 8178, 8181, 8165, 8216, 8213, 8173, 8186, 8189, 8204,0.5247128009796143
119, 8192, 8202, 8207, 8177, 8155, 8168, 8164, 8174, 8200, 8196, 8168, 8188, 8184, 8206,0.5398218631744385
120, 8167, 8199, 8130, 8171, 8153, 8163, 8166, 8166, 8186, 8187, 8165, 8180, 8184, 8183,0.5398218631744385
121, 8166, 8204, 8160, 8169, 8162, 8167, 8163, 8161, 8164, 8175, 8168, 8181, 8184, 8161,0.5551669597625732
122, 8177, 8219, 8185, 8174, 8173, 8168, 8158, 8172, 8162, 8175, 8176, 8187, 8185, 8167,0.5551669597625732
123, 8178, 8217, 8128, 8196, 8174, 8157, 8157, 8168, 8168, 8188, 8186, 8182, 8189, 8174,0.5725855827331543
124, 8177, 8222, 8210, 8204, 8181, 8172, 8150, 8174, 8140, 8181, 8183, 8190, 8179, 8172,0.5725855827331543
125, 8156, 8213, 8142, 8207, 8185, 8172, 8164, 8176, 8140, 8188, 8187, 8170, 8170, 8158,0.5861682891845703
126, 8152, 8213, 8158, 8205, 8168, 8165, 8170, 8179, 8168, 8203, 8196, 8169, 8182, 8157,0.6017460823059082
127, 8169, 8229, 8206, 8224, 8174, 8195, 8182, 8186, 8196, 8221, 8202, 8194, 8203, 8187,0.6017460823059082
236, 8172, 8210, 8140, 8233, 8188, 8206, 8202, 8177, 8204, 8242, 8198, 8180, 8204, 8202,0.6017460823059082
0, 8173, 8199, 8205, 8206, 8165, 8194, 8190, 8176, 8182, 8230, 8181, 8180, 8194, 8200,0.6197237968444824
1, 8174, 8198, 8158, 8213, 8161, 8176, 8187, 8170, 8176, 8218, 8178, 8186, 8208, 8199,0.6197237968444824
2, 8187, 8204, 8170, 8227, 8171, 8175, 8188, 8168, 8172, 8209, 8183, 8198, 8214, 8203,0.6341218948364258
3, 8196, 8215, 8211, 8221, 8158, 8191, 8186, 8176, 8175, 8211, 8194, 8217, 8212, 8208,0.651193380355835
4, 8188, 8202, 8137, 8215, 8152, 8166, 8174, 8167, 8179, 8208, 8192, 8200, 8209, 8199,0.651193380355835
5, 8192, 8209, 8213, 8199, 8155, 8148, 8149, 8170, 8160, 8175, 8178, 8203, 8191, 8195,0.651193380355835
6, 8207, 8220, 8175, 8215, 8169, 8165, 8160, 8173, 8174, 8182, 8201, 8223, 8201, 8207,0.664710521697998
7, 8219, 8224, 8169, 8235, 8190, 8176, 8169, 8178, 8179, 8195, 8215, 8233, 8214, 8211,0.664710521697998
8, 8211, 8234, 8222, 8235, 8195, 8178, 8162, 8184, 8159, 8181, 8197, 8233, 8203, 8199,0.6809389591217041
9, 8189, 8220, 8143, 8233, 8189, 8160, 8166, 8164, 8160, 8175, 8189, 8201, 8187, 8180,0.6809389591217041
10, 8182, 8214, 8198, 8218, 8183, 8167, 8169, 8170, 8154, 8171, 8182, 8187, 8175, 8169,0.6960234642028809
11, 8175, 8211, 8157, 8227, 8189, 8186, 8190, 8181, 8163, 8185, 8177, 8183, 8180, 8173,0.7121739387512207
12, 8168, 8209, 8143, 8237, 8192, 8184, 8203, 8174, 8174, 8187, 8177, 8174, 8184, 8181,0.7121739387512207
13, 8168, 8217, 8206, 8232, 8192, 8197, 8210, 8180, 8180, 8181, 8177, 8179, 8184, 8187,0.7277288436889648
14, 8159, 8199, 8119, 8228, 8196, 8201, 8221, 8175, 8191, 8200, 8170, 8161, 8183, 8183,0.7277288436889648
15, 8154, 8194, 8176, 8207, 8191, 8188, 8202, 8174, 8171, 8199, 8152, 8157, 8167, 8176,0.7418174743652344
16, 8157, 8195, 8159, 8206, 8187, 8176, 8200, 8173, 8156, 8192, 8150, 8157, 8168, 8175,0.7418174743652344
17, 8160, 8177, 8122, 8193, 8171, 8170, 8198, 8166, 8152, 8177, 8146, 8150, 8171, 8172,0.7571160793304443
18, 8166, 8182, 8186, 8170, 8165, 8179, 8181, 8176, 8155, 8169, 8141, 8169, 8174, 8175,0.757488489151001
19, 8177, 8189, 8122, 8190, 8182, 8173, 8194, 8175, 8186, 8205, 8165, 8179, 8200, 8191,0.7730438709259033
20, 8197, 8191, 8184, 8189, 8186, 8171, 8198, 8176, 8196, 8212, 8175, 8196, 8213, 8205,0.7730438709259033
21, 8191, 8186, 8170, 8176, 8180, 8176, 8185, 8174, 8191, 8194, 8171, 8203, 8203, 8195,0.7885339260101318
22, 8182, 8183, 8128, 8177, 8172, 8157, 8172, 8163, 8184, 8184, 8171, 8192, 8198, 8175,0.7885339260101318
23, 8186, 8199, 8204, 8173, 8166, 8157, 8171, 8172, 8180, 8178, 8171, 8201, 8197, 8172,0.8042864799499512
24, 8180, 8199, 8131, 8180, 8178, 8163, 8182, 8175, 8192, 8181, 8184, 8194, 8199, 8170,0.8042864799499512
25, 8179, 8203, 8175, 8183, 8186, 8165, 8170, 8176, 8174, 8159, 8176, 8190, 8183, 8165,0.8202502727508545
26, 8171, 8208, 8183, 8193, 8188, 8180, 8174, 8179, 8164, 8158, 8158, 8184, 8172, 8167,0.8202502727508545
27, 8162, 8196, 8129, 8195, 8183, 8181, 8185, 8176, 8174, 8182, 8156, 8163, 8176, 8170,0.8364050388336182
28, 8169, 8198, 8205, 8186, 8177, 8187, 8174, 8181, 8156, 8174, 8145, 8164, 8166, 8170,0.8364050388336182
29, 8165, 8185, 8140, 8205, 8186, 8190, 8179, 8167, 8151, 8173, 8138, 8155, 8157, 8169,0.8539223670959473
30, 8159, 8168, 8165, 8188, 8182, 8193, 8180, 8166, 8155, 8180, 8139, 8152, 8157, 8170,0.8539223670959473
31, 8155, 8168, 8176, 8159, 8173, 8205, 8180, 8176, 8173, 8194, 8137, 8153, 8164, 8175,0.8671417236328125
32, 8161, 8166, 8118, 8172, 8187, 8195, 8187, 8170, 8194, 8211, 8140, 8148, 8175, 8177,0.8674888610839844
33, 8178, 8186, 8200, 8176, 8189, 8185, 8184, 8178, 8189, 8204, 8157, 8173, 8182, 8181,0.883098840713501
34, 8175, 8187, 8137, 8166, 8177, 8170, 8183, 8170, 8190, 8198, 8163, 8172, 8189, 8178,0.883098840713501
35, 8159, 8172, 8150, 8141, 8163, 8158, 8157, 8162, 8173, 8171, 8127, 8151, 8164, 8157,0.8987338542938232
36, 8146, 8171, 8173, 8127, 8159, 8168, 8140, 8171, 8146, 8150, 8117, 8146, 8144, 8135,0.8987338542938232
37, 8147, 8168, 8105, 8134, 8161, 8161, 8144, 8166, 8136, 8147, 8146, 8145, 8152, 8128,0.9143166542053223
38, 8157, 8192, 8195, 8151, 8167, 8171, 8145, 8169, 8129, 8131, 8142, 8163, 8148, 8137,0.9143166542053223
39, 8154, 8206, 8151, 8184, 8185, 8189, 8169, 8170, 8148, 8141, 8131, 8150, 8142, 8138,0.9302864074707031
40, 8148, 8191, 8149, 8176, 8188, 8188, 8173, 8172, 8148, 8152, 8145, 8141, 8141, 8136,0.9302864074707031
41, 8142, 8191, 8188, 8170, 8192, 8194, 8171, 8176, 8136, 8157, 8158, 8158, 8151, 8136,0.9458901882171631
42, 8136, 8190, 8117, 8191, 8199, 8191, 8177, 8164, 8135, 8155, 8142, 8137, 8153, 8125,0.9458901882171631
43, 8141, 8195, 8188, 8182, 8187, 8199, 8163, 8170, 8124, 8147, 8122, 8129, 8141, 8130,0.9609856605529785
44, 8146, 8183, 8150, 8185, 8190, 8207, 8174, 8179, 8151, 8183, 8142, 8143, 8158, 8156,0.9609856605529785
45, 8153, 8173, 8146, 8188, 8195, 8199, 8188, 8177, 8173, 8202, 8149, 8149, 8168, 8163,0.9771153926849365
46, 8154, 8184, 8192, 8174, 8185, 8192, 8180, 8176, 8168, 8179, 8140, 8155, 8164, 8152,0.9771153926849365
47, 8141, 8173, 8113, 8165, 8172, 8177, 8173, 8164, 8179, 8178, 8145, 8145, 8176, 8144,0.9924747943878174
48, 8136, 8167, 8179, 8144, 8162, 8183, 8160, 8170, 8168, 8170, 8129, 8140, 8170, 8137,0.9924747943878174
49, 8132, 8173, 8149, 8145, 8175, 8188, 8158, 8168, 8154, 8166, 8125, 8137, 8168, 8123,1.0080797672271729
50, 8147, 8188, 8146, 8158, 8188, 8172, 8154, 8162, 8148, 8166, 8156, 8162, 8183, 8124,1.0080797672271729
51, 8168, 8212, 8216, 8171, 8191, 8178, 8153, 8174, 8140, 8156, 8181, 8193, 8189, 8140,1.0232388973236084
52, 8168, 8212, 8139, 8202, 8203, 8179, 8165, 8168, 8138, 8159, 8186, 8178, 8186, 8143,1.0232388973236084
53, 8165, 8216, 8199, 8207, 8208, 8180, 8156, 8170, 8135, 8160, 8188, 8183, 8183, 8135,1.0392704010009766
54, 8161, 8212, 8174, 8212, 8205, 8192, 8162, 8177, 8157, 8177, 8194, 8187, 8184, 8141,1.0392704010009766
55, 8156, 8200, 8140, 8216, 8204, 8195, 8174, 8177, 8165, 8183, 8174, 8161, 8168, 8149,1.0547819137573242
56, 8150, 8206, 8214, 8206, 8199, 8199, 8170, 8182, 8144, 8164, 8147, 8163, 8150, 8149,1.0547819137573242
57, 8142, 8186, 8144, 8210, 8192, 8184, 8174, 8170, 8145, 8167, 8151, 8160, 8157, 8142,1.070859670639038
58, 8152, 8179, 8192, 8191, 8182, 8179, 8164, 8167, 8147, 8165, 8150, 8166, 8160, 8140,1.070859670639038
59, 8169, 8198, 8175, 8175, 8180, 8187, 8165, 8165, 8168, 8175, 8156, 8188, 8178, 8155,1.0869255065917969
60, 8179, 8200, 8137, 8180, 8172, 8168, 8158, 8157, 8175, 8180, 8170, 8192, 8196, 8159,1.0869255065917969
61, 8182, 8204, 8225, 8188, 8164, 8162, 8140, 8167, 8145, 8161, 8169, 8195, 8189, 8150,1.1027989387512207
62, 8177, 8199, 8151, 8195, 8175, 8161, 8153, 8165, 8144, 8166, 8175, 8186, 8192, 8141,1.1027989387512207
63, 8180, 8203, 8182, 8177, 8176, 8158, 8154, 8164, 8143, 8160, 8180, 8187, 8189, 8137,1.118483066558838
64, 8183, 8215, 8192, 8188, 8184, 8164, 8148, 8169, 8134, 8157, 8184, 8192, 8188, 8140,1.118483066558838
65, 8174, 8208, 8146, 8213, 8199, 8169, 8152, 8165, 8134, 8168, 8184, 8182, 8188, 8141,1.1341450214385986
66, 8162, 8208, 8209, 8197, 8189, 8188, 8154, 8176, 8137, 8169, 8173, 8183, 8176, 8143,1.1341450214385986
67, 8148, 8194, 8132, 8188, 8182, 8189, 8172, 8172, 8160, 8187, 8166, 8166, 8179, 8147,1.1491527557373047
68, 8149, 8180, 8169, 8181, 8182, 8181, 8172, 8165, 8161, 8185, 8152, 8164, 8176, 8151,1.1491527557373047
69, 8146, 8178, 8182, 8175, 8170, 8182, 8160, 8167, 8160, 8176, 8144, 8170, 8167, 8149,1.1644532680511475
70, 8144, 8174, 8115, 8165, 8157, 8164, 8149, 8162, 8167, 8176, 8147, 8166, 8172, 8148,1.1644532680511475
71, 8173, 8199, 8203, 8164, 8163, 8164, 8146, 8174, 8164, 8169, 8169, 8202, 8187, 8165,1.180004358291626
72, 8194, 8209, 8154, 8193, 8173, 8165, 8160, 8173, 8184, 8183, 8205, 8218, 8204, 8172,1.180004358291626
73, 8194, 8206, 8170, 8189, 8168, 8156, 8146, 8166, 8177, 8185, 8204, 8211, 8199, 8165,1.1951100826263428
74, 8195, 8212, 8197, 8188, 8180, 8165, 8149, 8172, 8156, 8182, 8196, 8214, 8194, 8162,1.1951100826263428
75, 8185, 8197, 8131, 8207, 8190, 8164, 8169, 8168, 8159, 8181, 8200, 8192, 8191, 8158,1.2104382514953613
76, 8164, 8191, 8190, 8189, 8174, 8172, 8159, 8172, 8156, 8170, 8186, 8177, 8177, 8154,1.2104382514953613
77, 8151, 8180, 8128, 8185, 8168, 8181, 8172, 8173, 8171, 8194, 8175, 8165, 8180, 8152,1.226107120513916
78, 8163, 8174, 8145, 8183, 8167, 8181, 8183, 8176, 8178, 8202, 8167, 8164, 8177, 8159,1.226107120513916
79, 8168, 8187, 8187, 8176, 8168, 8183, 8169, 8178, 8178, 8192, 8163, 8177, 8178, 8168,1.2417469024658203
80, 8170, 8191, 8120, 8188, 8177, 8174, 8157, 8161, 8189, 8202, 8180, 8179, 8199, 8170,1.2417469024658203
81, 8190, 8205, 8200, 8190, 8179, 8177, 8149, 8169, 8178, 8190, 8187, 8204, 8201, 8171,1.2577168941497803
82, 8181, 8200, 8152, 8186, 8179, 8171, 8150, 8176, 8172, 8175, 8185, 8205, 8186, 8156,1.2587172985076904
83, 8160, 8188, 8143, 8175, 8171, 8160, 8134, 8167, 8157, 8163, 8178, 8178, 8167, 8134,1.2737998962402344
84, 8157, 8197, 8201, 8184, 8168, 8180, 8142, 8174, 8141, 8156, 8164, 8166, 8156, 8134,1.2737998962402344
85, 8161, 8187, 8125, 8202, 8175, 8182, 8174, 8168, 8155, 8174, 8153, 8154, 8167, 8145,1.2889904975891113
86, 8174, 8186, 8189, 8182, 8170, 8181, 8170, 8168, 8171, 8189, 8157, 8175, 8183, 8163,1.2889904975891113
87, 8180, 8189, 8159, 8175, 8172, 8187, 8177, 8172, 8191, 8209, 8179, 8182, 8199, 8183,1.3041248321533203
88, 8182, 8180, 8143, 8168, 8168, 8172, 8177, 8168, 8188, 8199, 8176, 8167, 8195, 8179,1.3041248321533203
89, 8188, 8191, 8205, 8161, 8160, 8171, 8159, 8171, 8175, 8174, 8169, 8182, 8186, 8167,1.3209195137023926
90, 8190, 8201, 8133, 8182, 8183, 8175, 8162, 8168, 8174, 8181, 8185, 8186, 8186, 8159,1.3209195137023926
91, 8186, 8198, 8188, 8178, 8194, 8176, 8157, 8176, 8151, 8169, 8174, 8172, 8167, 8146,1.336026668548584
92, 8163, 8174, 8158, 8173, 8176, 8175, 8154, 8170, 8147, 8159, 8150, 8146, 8151, 8138,1.336026668548584
93, 8159, 8165, 8135, 8182, 8168, 8179, 8160, 8160, 8159, 8177, 8146, 8140, 8157, 8146,1.3522419929504395
94, 8170, 8184, 8207, 8178, 8175, 8194, 8165, 8180, 8174, 8196, 8159, 8161, 8174, 8160,1.3522419929504395
95, 8158, 8173, 8122, 8170, 8174, 8173, 8159, 8178, 8192, 8193, 8166, 8148, 8178, 8154,1.3668544292449951
96, 8155, 8174, 8172, 8151, 8158, 8156, 8132, 8166, 8168, 8155, 8149, 8144, 8158, 8136,1.3668544292449951
97, 8166, 8190, 8168, 8160, 8163, 8168, 8135, 8167, 8161, 8157, 8159, 8156, 8160, 8130,1.3823659420013428
98, 8164, 8185, 8131, 8177, 8176, 8165, 8145, 8171, 8173, 8166, 8174, 8148, 8166, 8130,1.3833653926849365
99, 8149, 8187, 8196, 8176, 8174, 8165, 8134, 8180, 8153, 8147, 8151, 8142, 8147, 8125,1.3986306190490723
100, 8133, 8174, 8117, 8186, 8172, 8170, 8148, 8167, 8149, 8169, 8140, 8121, 8149, 8122,1.3986306190490723
101, 8144, 8175, 8173, 8190, 8176, 8184, 8159, 8165, 8155, 8188, 8145, 8123, 8155, 8129,1.4133756160736084
102, 8158, 8189, 8191, 8204, 8188, 8194, 8166, 8171, 8167, 8187, 8149, 8141, 8150, 8140,1.4330182075500488
103, 8158, 8173, 8134, 8200, 8181, 8182, 8170, 8165, 8176, 8191, 8147, 8138, 8156, 8145,1.4340181350708008
104, 8159, 8168, 8200, 8166, 8155, 8180, 8162, 8171, 8165, 8183, 8142, 8144, 8161, 8142,1.4340181350708008
105, 8161, 8169, 8138, 8163, 8156, 8169, 8171, 8171, 8170, 8182, 8145, 8137, 8159, 8133,1.4460813999176025
106, 8177, 8176, 8178, 8166, 8160, 8159, 8161, 8171, 8166, 8168, 8152, 8152, 8158, 8135,1.4607391357421875
107, 8185, 8188, 8195, 8174, 8154, 8169, 8151, 8171, 8155, 8158, 8176, 8182, 8170, 8139,1.4607391357421875
108, 8172, 8185, 8134, 8180, 8157, 8160, 8155, 8163, 8143, 8148, 8189, 8174, 8169, 8129,1.4607391357421875
109, 8167, 8199, 8213, 8175, 8162, 8158, 8151, 8174, 8123, 8134, 8186, 8175, 8156, 8130,1.4762663841247559
110, 8173, 8203, 8160, 8212, 8166, 8162, 8160, 8170, 8131, 8155, 8202, 8174, 8168, 8148,1.4918503761291504
111, 8180, 8198, 8185, 8231, 8162, 8166, 8153, 8164, 8125, 8146, 8191, 8166, 8158, 8149,1.4918503761291504
112, 8174, 8194, 8208, 8227, 8152, 8184, 8155, 8171, 8118, 8128, 8164, 8168, 8139, 8145,1.5089097023010254
113, 8171, 8180, 8141, 8235, 8142, 8181, 8168, 8163, 8132, 8146, 8164, 8166, 8150, 8151,1.5089097023010254
114, 8187, 8189, 8218, 8232, 8140, 8181, 8165, 8167, 8138, 8154, 8175, 8185, 8162, 8166,1.5089097023010254
115, 8195, 8188, 8163, 8237, 8154, 8176, 8173, 8165, 8160, 8166, 8195, 8192, 8186, 8176,1.5239408016204834
116, 8201, 8186, 8179, 8228, 8157, 8163, 8156, 8164, 8163, 8163, 8209, 8201, 8187, 8175,1.5239408016204834
117, 8203, 8204, 8224, 8227, 8158, 8170, 8138, 8178, 8150, 8151, 8211, 8216, 8169, 8167,1.5400257110595703
118, 8198, 8200, 8148, 8245, 8163, 8164, 8144, 8170, 8142, 8157, 8211, 8200, 8212, 8157,1.5556416511535645
119, 8201, 8199, 8221, 8246, 8161, 8176, 8149, 8171, 8132, 8164, 8202, 8200, 8252, 8165,1.5556416511535645
120, 8194, 8191, 8175, 8246, 8167, 8198, 8174, 8174, 8152, 8176, 8187, 8183, 8214, 8171,1.5556416511535645
121, 8187, 8176, 8160, 8220, 8161, 8186, 8173, 8174, 8163, 8169, 8164, 8164, 8166, 8155,1.5707223415374756
122, 8196, 8180, 8212, 8196, 8150, 8169, 8152, 8174, 8168, 8166, 8171, 8184, 8180, 8149,1.5871014595031738
123, 8206, 8185, 8148, 8211, 8162, 8160, 8155, 8166, 8183, 8181, 8205, 8194, 8197, 8158,1.5871014595031738
124, 8204, 8197, 8216, 8204, 8164, 8163, 8148, 8176, 8157, 8161, 8204, 8195, 8171, 8155,1.5871014595031738
125, 8180, 8188, 8168, 8198, 8160, 8163, 8147, 8173, 8133, 8142, 8177, 8168, 8154, 8138,1.6028072834014893
126, 8168, 8168, 8145, 8203, 8162, 8169, 8157, 8167, 8146, 8151, 8162, 8145, 8147, 8137,1.6028072834014893
127, 8177, 8169, 8207, 8203, 8163, 8197, 8170, 8182, 8181, 8178, 8171, 8160, 8160, 8159,1.6178793907165527
236, 8184, 8166, 8132, 8203, 8164, 8184, 8178, 8171, 8210, 8207, 8191, 8158, 8180, 8167,1.6178793907165527
0, 8187, 8171, 8190, 8178, 8151, 8158, 8152, 8165, 8188, 8189, 8195, 8163, 8171, 8155,1.6320381164550781
1, 8183, 8176, 8167, 8175, 8153, 8163, 8142, 8174, 8178, 8173, 8200, 8174, 8172, 8148,1.648040533065796
2, 8186, 8182, 8146, 8191, 8171, 8168, 8145, 8175, 8178, 8166, 8209, 8171, 8170, 8143,1.648040533065796
3, 8186, 8200, 8212, 8207, 8181, 8181, 8149, 8179, 8165, 8159, 8203, 8167, 8151, 8136,1.6635005474090576
4, 8171, 8179, 8124, 8223, 8182, 8184, 8176, 8171, 8177, 8177, 8186, 8136, 8149, 8127,1.6635005474090576
5, 8162, 8163, 8170, 8201, 8164, 8184, 8183, 8168, 8179, 8172, 8164, 8128, 8146, 8131,1.6792922019958496
6, 8153, 8161, 8154, 8182, 8149, 8177, 8181, 8169, 8181, 8162, 8166, 8133, 8149, 8136,1.6792922019958496
7, 8158, 8153, 8115, 8177, 8149, 8151, 8170, 8169, 8188, 8167, 8178, 8135, 8162, 8135,1.694826364517212
8, 8180, 8181, 8200, 8184, 8160, 8147, 8148, 8180, 8189, 8165, 8185, 8165, 8174, 8152,1.694826364517212
9, 8177, 8192, 8138, 8209, 8173, 8142, 8137, 8169, 8199, 8171, 8199, 8169, 8178, 8156,1.7100143432617188
10, 8166, 8186, 8178, 8204, 8171, 8148, 8129, 8167, 8182, 8164, 8190, 8153, 8158, 8133,1.7100143432617188
11, 8163, 8190, 8174, 8205, 8185, 8178, 8159, 8179, 8167, 8161, 8169, 8136, 8143, 8122,1.7259879112243652
12, 8162, 8180, 8124, 8211, 8193, 8183, 8180, 8171, 8164, 8163, 8154, 8124, 8134, 8129,1.7259879112243652
13, 8163, 8174, 8206, 8197, 8171, 8182, 8164, 8168, 8155, 8155, 8152, 8133, 8125, 8133,1.7407464981079102
14, 8164, 8164, 8136, 8201, 8162, 8171, 8173, 8165, 8173, 8173, 8168, 8127, 8140, 8139,1.7407464981079102
15, 8167, 8166, 8162, 8191, 8159, 8151, 8166, 8170, 8175, 8173, 8160, 8136, 8145, 8153,1.755995273590088
16, 8169, 8176, 8180, 8186, 8156, 8148, 8146, 8171, 8164, 8163, 8154, 8154, 8141, 8159,1.755995273590088
17, 8183, 8175, 8133, 8196, 8160, 8138, 8138, 8159, 8165, 8168, 8179, 8156, 8156, 8157,1.7720248699188232
18, 8197, 8183, 8211, 8185, 8156, 8137, 8119, 8169, 8147, 8158, 8196, 8173, 8164, 8158,1.7720248699188232
19, 8181, 8170, 8142, 8174, 8152, 8133, 8116, 8163, 8133, 8152, 8188, 8166, 8152, 8148,1.7877788543701172
20, 8175, 8172, 8161, 8162, 8150, 8130, 8114, 8157, 8118, 8129, 8166, 8151, 8130, 8130,1.7877788543701172
21, 8185, 8199, 8191, 8183, 8157, 8144, 8123, 8168, 8114, 8128, 8176, 8159, 8128, 8134,1.8032588958740234
22, 8189, 8201, 8138, 8223, 8174, 8158, 8144, 8166, 8133, 8160, 8200, 8157, 8144, 8147,1.8032588958740234
23, 8186, 8192, 8220, 8211, 8182, 8178, 8152, 8172, 8139, 8164, 8189, 8160, 8144, 8149,1.8188860416412354
24, 8161, 8171, 8150, 8192, 8178, 8172, 8161, 8169, 8147, 8173, 8182, 8137, 8143, 8146,1.8188860416412354
25, 8154, 8170, 8152, 8196, 8171, 8166, 8167, 8171, 8150, 8181, 8176, 8127, 8143, 8146,1.8339838981628418
26, 8168, 8184, 8197, 8210, 8179, 8184, 8174, 8177, 8161, 8181, 8167, 8147, 8143, 8146,1.8339838981628418
27, 8167, 8169, 8125, 8209, 8177, 8164, 8170, 8163, 8177, 8177, 8171, 8141, 8147, 8147,1.849132776260376
28, 8174, 8176, 8204, 8192, 8157, 8145, 8150, 8172, 8172, 8167, 8183, 8151, 8156, 8163,1.849132776260376
29, 8181, 8182, 8162, 8198, 8158, 8147, 8159, 8175, 8186, 8179, 8189, 8157, 8168, 8165,1.865177869796753
30, 8182, 8174, 8151, 8184, 8163, 8142, 8154, 8159, 8177, 8166, 8174, 8149, 8159, 8140,1.865177869796753
31, 8181, 8179, 8200, 8167, 8155, 8145, 8139, 8160, 8148, 8139, 8173, 8163, 8147, 8138,1.8807704448699951
32, 8190, 8179, 8138, 8187, 8158, 8143, 8148, 8168, 8155, 8147, 8198, 8173, 8158, 8153,1.8807704448699951
33, 8206, 8196, 8210, 8193, 8168, 8148, 8144, 8174, 8149, 8145, 8194, 8184, 8153, 8153,1.8961710929870605
34, 8199, 8200, 8168, 8191, 8175, 8146, 8145, 8163, 8135, 8140, 8182, 8176, 8145, 8140,1.8961710929870605
35, 8203, 8188, 8153, 8186, 8163, 8139, 8146, 8162, 8125, 8136, 8188, 8173, 8146, 8146,1.9114189147949219
36, 8216, 8199, 8218, 8201, 8164, 8160, 8154, 8179, 8130, 8141, 8201, 8189, 8149, 8163,1.9114189147949219
37, 8202, 8202, 8138, 8228, 8184, 8160, 8165, 8169, 8149, 8160, 8200, 8172, 8146, 8155,1.927408218383789
38, 8186, 8196, 8199, 8213, 8181, 8151, 8149, 8171, 8135, 8145, 8178, 8164, 8129, 8142,1.927408218383789
39, 8186, 8189, 8175, 8210, 8173, 8160, 8162, 8180, 8142, 8150, 8180, 8164, 8143, 8154,1.943025827407837
40, 8185, 8177, 8144, 8216, 8167, 8160, 8180, 8178, 8159, 8167, 8187, 8154, 8158, 8163,1.943025827407837
41, 8179, 8175, 8209, 8206, 8162, 8167, 8174, 8182, 8155, 8160, 8168, 8155, 8145, 8163,1.9582154750823975
42, 8184, 8170, 8137, 8210, 8171, 8170, 8188, 8173, 8166, 8174, 8161, 8148, 8146, 8167,1.9582154750823975
43, 8193, 8171, 8192, 8196, 8165, 8169, 8191, 8171, 8156, 8177, 8161, 8166, 8152, 8177,1.9747345447540283
44, 8190, 8173, 8177, 8199, 8163, 8167, 8188, 8171, 8149, 8168, 8169, 8180, 8160, 8180,1.9747345447540283
45, 8196, 8174, 8142, 8209, 8172, 8153, 8183, 8160, 8156, 8160, 8177, 8171, 8165, 8180,1.9893286228179932
46, 8207, 8185, 8214, 8191, 8169, 8155, 8174, 8166, 8159, 8158, 8174, 8181, 8163, 8182,1.9893286228179932
47, 8198, 8172, 8139, 8190, 8167, 8152, 8180, 8165, 8182, 8179, 8177, 8177, 8168, 8183,2.014995574951172
48, 8201, 8177, 8192, 8178, 8165, 8141, 8163, 8168, 8178, 8176, 8186, 8183, 8172, 8187,2.014995574951172
49, 8211, 8197, 8194, 8180, 8166, 8138, 8153, 8172, 8172, 8177, 8213, 8203, 8188, 8192,2.014995574951172
50, 8217, 8188, 8144, 8198, 8168, 8135, 8158, 8167, 8181, 8192, 8235, 8208, 8202, 8192,2.0230095386505127
51, 8217, 8189, 8224, 8179, 8168, 8147, 8147, 8170, 8164, 8176, 8218, 8207, 8188, 8185,2.036123514175415
52, 8194, 8182, 8149, 8165, 8171, 8143, 8136, 8159, 8137, 8153, 8189, 8172, 8168, 8154,2.036123514175415
53, 8182, 8178, 8174, 8167, 8168, 8141, 8121, 8156, 8123, 8139, 8180, 8170, 8150, 8134,2.0520074367523193
54, 8185, 8187, 8197, 8183, 8172, 8160, 8136, 8168, 8147, 8153, 8194, 8192, 8149, 8150,2.0696067810058594
55, 8186, 8178, 8143, 8190, 8176, 8157, 8152, 8168, 8152, 8158, 8194, 8173, 8149, 8153,2.0696067810058594
56, 8181, 8185, 8215, 8184, 8177, 8161, 8140, 8172, 8125, 8136, 8175, 8167, 8134, 8143,2.0696067810058594
57, 8164, 8181, 8153, 8200, 8185, 8165, 8150, 8166, 8142, 8152, 8172, 8161, 8137, 8146,2.0836315155029297
58, 8158, 8164, 8169, 8188, 8173, 8164, 8155, 8167, 8141, 8156, 8157, 8146, 8131, 8142,2.099475145339966
59, 8159, 8160, 8180, 8170, 8156, 8176, 8162, 8172, 8120, 8152, 8139, 8137, 8123, 8140,2.099475145339966
60, 8155, 8155, 8114, 8166, 8163, 8166, 8173, 8160, 8130, 8165, 8136, 8125, 8126, 8148,2.099475145339966
61, 8152, 8163, 8196, 8147, 8159, 8162, 8162, 8168, 8146, 8155, 8127, 8134, 8122, 8147,2.1151866912841797
62, 8150, 8155, 8134, 8150, 8149, 8165, 8171, 8176, 8177, 8173, 8144, 8137, 8142, 8143,2.116185188293457
63, 8164, 8149, 8146, 8143, 8145, 8161, 8181, 8173, 8192, 8197, 8168, 8151, 8170, 8161,2.13107967376709
64, 8174, 8167, 8193, 8127, 8146, 8161, 8173, 8171, 8185, 8185, 8173, 8176, 8167, 8172,2.13107967376709
65, 8167, 8165, 8118, 8128, 8145, 8146, 8163, 8164, 8179, 8161, 8162, 8164, 8151, 8156,2.1470141410827637
66, 8165, 8163, 8190, 8132, 8136, 8151, 8159, 8177, 8173, 8156, 8153, 8164, 8147, 8154,2.147338628768921
67, 8167, 8156, 8145, 8148, 8138, 8165, 8185, 8177, 8195, 8193, 8163, 8167, 8162, 8165,2.1630287170410156
68, 8175, 8154, 8143, 8138, 8134, 8161, 8181, 8167, 8198, 8194, 8162, 8165, 8161, 8169,2.1630287170410156
69, 8177, 8166, 8190, 8125, 8128, 8157, 8151, 8172, 8174, 8164, 8159, 8172, 8157, 8167,2.1761858463287354
70, 8167, 8158, 8121, 8141, 8135, 8146, 8144, 8165, 8163, 8158, 8166, 8165, 8158, 8155,2.1919100284576416
71, 8175, 8165, 8193, 8145, 8137, 8156, 8144, 8174, 8147, 8151, 8169, 8173, 8143, 8147,2.1919100284576416
72, 8171, 8172, 8150, 8156, 8148, 8165, 8152, 8179, 8148, 8161, 8177, 8161, 8140, 8150,2.2073779106140137
73, 8158, 8168, 8136, 8163, 8160, 8163, 8146, 8169, 8145, 8165, 8168, 8136, 8145, 8151,2.2073779106140137
74, 8160, 8165, 8196, 8159, 8158, 8183, 8148, 8173, 8141, 8162, 8144, 8141, 8147, 8151,2.2230820655822754
75, 8159, 8145, 8110, 8160, 8151, 8191, 8176, 8168, 8164, 8188, 8143, 8132, 8153, 8156,2.2230820655822754
76, 8167, 8158, 8174, 8153, 8146, 8198, 8179, 8171, 8172, 8193, 8154, 8140, 8151, 8165,2.238159656524658
77, 8166, 8169, 8153, 8161, 8154, 8201, 8183, 8173, 8183, 8191, 8159, 8144, 8154, 8168,2.238159656524658
78, 8150, 8147, 8122, 8143, 8150, 8182, 8181, 8170, 8189, 8187, 8148, 8126, 8153, 8154,2.253915548324585
79, 8151, 8150, 8190, 8115, 8139, 8179, 8168, 8176, 8177, 8173, 8143, 8131, 8148, 8147,2.253915548324585
80, 8165, 8162, 8118, 8128, 8141, 8176, 8170, 8168, 8183, 8172, 8160, 8139, 8156, 8147,2.27003812789917
81, 8179, 8173, 8177, 8130, 8142, 8171, 8158, 8174, 8179, 8170, 8164, 8162, 8158, 8149,2.27003812789917
82, 8176, 8168, 8168, 8128, 8147, 8162, 8149, 8178, 8176, 8173, 8151, 8157, 8156, 8150,2.2860794067382812
83, 8167, 8149, 8124, 8117, 8140, 8144, 8143, 8169, 8167, 8158, 8141, 8135, 8149, 8140,2.2860794067382812
84, 8166, 8166, 8199, 8107, 8136, 8160, 8144, 8177, 8158, 8144, 8157, 8160, 8148, 8146,2.3013226985931396
85, 8162, 8170, 8138, 8133, 8153, 8178, 8170, 8169, 8174, 8170, 8173, 8153, 8157, 8156,2.3013226985931396
86, 8157, 8158, 8177, 8137, 8145, 8181, 8170, 8168, 8156, 8159, 8136, 8124, 8130, 8146,2.31714129447937
87, 8153, 8151, 8167, 8134, 8136, 8189, 8175, 8179, 8150, 8150, 8121, 8117, 8121, 8144,2.317544937133789
88, 8156, 8147, 8126, 8134, 8153, 8196, 8195, 8177, 8178, 8175, 8145, 8115, 8145, 8156,2.3331193923950195
89, 8155, 8153, 8198, 8114, 8152, 8201, 8199, 8179, 8185, 8179, 8142, 8121, 8142, 8156,2.3331193923950195
90, 8157, 8150, 8124, 8115, 8143, 8179, 8200, 8174, 8192, 8186, 8137, 8119, 8146, 8149,2.34843111038208
91, 8183, 8167, 8168, 8123, 8144, 8165, 8180, 8179, 8198, 8185, 8154, 8140, 8166, 8163,2.34843111038208
92, 8188, 8180, 8181, 8132, 8150, 8173, 8180, 8183, 8211, 8197, 8174, 8160, 8177, 8171,2.3644251823425293
93, 8171, 8162, 8121, 8129, 8147, 8154, 8186, 8169, 8202, 8201, 8175, 8147, 8171, 8154,2.3644251823425293
94, 8168, 8172, 8205, 8116, 8136, 8142, 8153, 8171, 8152, 8158, 8159, 8152, 8156, 8145,2.3792121410369873
95, 8167, 8177, 8148, 8136, 8134, 8140, 8136, 8165, 8135, 8140, 8165, 8152, 8151, 8152,2.3792121410369873
96, 8177, 8177, 8177, 8145, 8136, 8139, 8134, 8166, 8136, 8144, 8169, 8155, 8149, 8153,2.3947410583496094
97, 8182, 8190, 8204, 8151, 8146, 8156, 8144, 8180, 8148, 8159, 8174, 8163, 8162, 8151,2.3947410583496094
98, 8176, 8185, 8134, 8171, 8158, 8166, 8164, 8179, 8170, 8182, 8188, 8155, 8175, 8157,2.4107346534729004
99, 8179, 8187, 8210, 8167, 8154, 8177, 8166, 8177, 8154, 8178, 8176, 8158, 8165, 8166,2.4107346534729004
100, 8181, 8182, 8158, 8174, 8151, 8177, 8173, 8168, 8143, 8177, 8168, 8153, 8166, 8172,2.4264707565307617
101, 8195, 8185, 8180, 8193, 8151, 8174, 8178, 8171, 8154, 8184, 8178, 8163, 8175, 8182,2.4264707565307617
102, 8200, 8198, 8217, 8207, 8157, 8189, 8186, 8177, 8168, 8193, 8176, 8173, 8177, 8190,2.44171404838562
103, 8179, 8177, 8132, 8197, 8157, 8179, 8192, 8161, 8168, 8188, 8160, 8146, 8168, 8178,2.44171404838562
104, 8170, 8168, 8201, 8164, 8146, 8174, 8183, 8168, 8161, 8170, 8151, 8153, 8163, 8176,2.4568896293640137
105, 8185, 8174, 8160, 8169, 8148, 8175, 8188, 8173, 8186, 8191, 8173, 8171, 8183, 8193,2.4568896293640137
106, 8212, 8180, 8161, 8164, 8141, 8160, 8179, 8167, 8192, 8205, 8189, 8182, 8194, 8200,2.472797155380249
107, 8215, 8186, 8207, 8151, 8134, 8161, 8171, 8174, 8182, 8191, 8194, 8195, 8190, 8186,2.472797155380249
108, 8196, 8180, 8131, 8166, 8149, 8161, 8176, 8169, 8185, 8186, 8195, 8171, 8183, 8163,2.488217353820801
109, 8183, 8185, 8195, 8156, 8158, 8166, 8166, 8172, 8174, 8176, 8185, 8167, 8164, 8160,2.488217353820801
110, 8176, 8177, 8159, 8144, 8157, 8171, 8180, 8175, 8193, 8194, 8197, 8175, 8170, 8170,2.5037479400634766
111, 8179, 8164, 8147, 8128, 8141, 8158, 8172, 8174, 8188, 8187, 8195, 8168, 8170, 8164,2.5037479400634766
112, 8176, 8175, 8195, 8124, 8131, 8159, 8150, 8176, 8148, 8148, 8167, 8165, 8142, 8152,2.5191798210144043
113, 8169, 8175, 8123, 8151, 8150, 8160, 8162, 8164, 8149, 8149, 8152, 8148, 8134, 8143,2.5191798210144043
114, 8181, 8190, 8202, 8162, 8167, 8170, 8163, 8170, 8155, 8169, 8164, 8158, 8148, 8145,2.5345945358276367
115, 8181, 8203, 8176, 8173, 8173, 8175, 8168, 8173, 8155, 8187, 8189, 8166, 8164, 8151,2.5345945358276367
116, 8157, 8181, 8137, 8159, 8170, 8167, 8171, 8162, 8148, 8170, 8171, 8143, 8150, 8145,2.5497400760650635
117, 8153, 8170, 8199, 8145, 8167, 8184, 8173, 8171, 8149, 8155, 8144, 8134, 8132, 8139,2.5497400760650635
118, 8178, 8175, 8136, 8184, 8171, 8186, 8204, 8172, 8177, 8191, 8168, 8141, 8152, 8150,2.5649044513702393
119, 8197, 8186, 8201, 8200, 8162, 8177, 8203, 8172, 8173, 8201, 8184, 8159, 8160, 8167,2.580047369003296
120, 8177, 8168, 8177, 8188, 8162, 8180, 8183, 8170, 8165, 8198, 8178, 8154, 8162, 8162,2.580047369003296
121, 8157, 8152, 8131, 8178, 8168, 8181, 8176, 8169, 8176, 8207, 8180, 8146, 8164, 8159,2.580047369003296
122, 8163, 8179, 8204, 8176, 8164, 8191, 8181, 8175, 8183, 8195, 8171, 8163, 8149, 8169,2.596181631088257
123, 8160, 8173, 8128, 8179, 8170, 8181, 8200, 8162, 8192, 8197, 8158, 8145, 8148, 8160,2.610788583755493
124, 8161, 8153, 8174, 8141, 8167, 8171, 8197, 8167, 8193, 8198, 8149, 8130, 8151, 8144,2.610788583755493
125, 8167, 8155, 8174, 8116, 8151, 8172, 8189, 8179, 8204, 8195, 8161, 8139, 8157, 8147,2.610788583755493
126, 8168, 8154, 8127, 8124, 8139, 8153, 8177, 8169, 8208, 8181, 8178, 8149, 8161, 8151,2.6259729862213135
127, 8166, 8164, 8204, 8122, 8139, 8154, 8165, 8169, 8190, 8167, 8168, 8159, 8153, 8142,2.6427056789398193
236, 8154, 8161, 8129, 8127, 8154, 8156, 8167, 8166, 8192, 8177, 8152, 8133, 8142, 8121,2.6427056789398193
0, 8149, 8159, 8156, 8119, 8162, 8152, 8148, 8169, 8184, 8159, 8146, 8128, 8128, 8108,2.6567623615264893
1, 8141, 8168, 8168, 8119, 8167, 8158, 8148, 8173, 8172, 8148, 8157, 8142, 8130, 8115,2.6571295261383057
2, 8144, 8164, 8123, 8139, 8166, 8153, 8170, 8168, 8166, 8156, 8162, 8130, 8136, 8125,2.6717865467071533
3, 8168, 8169, 8208, 8145, 8160, 8165, 8184, 8182, 8162, 8160, 8155, 8140, 8136, 8140,2.6717865467071533
4, 8162, 8157, 8138, 8142, 8167, 8175, 8207, 8178, 8184, 8180, 8149, 8129, 8142, 8148,2.687835931777954
5, 8130, 8140, 8147, 8120, 8159, 8170, 8195, 8164, 8168, 8166, 8117, 8096, 8127, 8129,2.687835931777954
6, 8107, 8132, 8155, 8110, 8143, 8175, 8178, 8166, 8141, 8142, 8096, 8084, 8109, 8109,2.7069432735443115
7, 8111, 8123, 8087, 8111, 8149, 8173, 8187, 8165, 8160, 8154, 8117, 8090, 8117, 8115,2.7069432735443115
8, 8129, 8144, 8180, 8104, 8160, 8176, 8190, 8176, 8181, 8168, 8147, 8125, 8140, 8136,2.7069432735443115
9, 8143, 8149, 8136, 8122, 8154, 8162, 8184, 8170, 8191, 8175, 8166, 8142, 8166, 8141,2.7199575901031494
10, 8157, 8144, 8149, 8117, 8130, 8142, 8153, 8161, 8167, 8157, 8164, 8155, 8161, 8138,2.737523078918457
11, 8155, 8154, 8185, 8108, 8131, 8158, 8146, 8169, 8150, 8150, 8157, 8160, 8138, 8134,2.737523078918457
12, 8133, 8147, 8110, 8130, 8158, 8174, 8167, 8166, 8156, 8157, 8137, 8118, 8119, 8116,2.737523078918457
13, 8132, 8157, 8189, 8143, 8162, 8187, 8169, 8170, 8144, 8141, 8113, 8107, 8108, 8112,2.7527215480804443
14, 8141, 8161, 8145, 8148, 8160, 8179, 8181, 8167, 8154, 8159, 8132, 8122, 8133, 8126,2.766777753829956
15, 8148, 8150, 8138, 8131, 8160, 8162, 8181, 8162, 8163, 8174, 8144, 8126, 8146, 8130,2.766777753829956
16, 8154, 8159, 8187, 8125, 8161, 8169, 8177, 8173, 8174, 8161, 8141, 8141, 8143, 8136,2.782801866531372
17, 8163, 8168, 8122, 8143, 8163, 8165, 8187, 8171, 8195, 8171, 8168, 8158, 8157, 8147,2.782801866531372
18, 8172, 8180, 8202, 8139, 8157, 8169, 8187, 8180, 8184, 8183, 8188, 8173, 8162, 8147,2.7988409996032715
19, 8163, 8172, 8170, 8160, 8163, 8180, 8196, 8180, 8181, 8197, 8181, 8154, 8166, 8147,2.7988409996032715
20, 8150, 8148, 8143, 8154, 8155, 8170, 8192, 8165, 8171, 8180, 8144, 8127, 8153, 8148,2.815920114517212
21, 8146, 8149, 8184, 8117, 8141, 8169, 8179, 8166, 8150, 8153, 8114, 8128, 8131, 8142,2.815920114517212
22, 8149, 8156, 8116, 8128, 8153, 8156, 8174, 8164, 8163, 8167, 8135, 8133, 8142, 8148,2.815920114517212
23, 8165, 8178, 8197, 8141, 8166, 8148, 8147, 8171, 8169, 8164, 8170, 8167, 8164, 8164,2.8320720195770264
24, 8176, 8193, 8177, 8160, 8177, 8156, 8148, 8174, 8180, 8166, 8193, 8188, 8175, 8163,2.846182107925415
25, 8181, 8191, 8157, 8187, 8184, 8162, 8175, 8173, 8193, 8182, 8194, 8179, 8169, 8160,2.846182107925415
26, 8180, 8186, 8221, 8188, 8172, 8178, 8185, 8184, 8187, 8187, 8180, 8177, 8159, 8170,2.8631105422973633
27, 8160, 8152, 8128, 8166, 8145, 8172, 8193, 8175, 8186, 8192, 8163, 8151, 8152, 8164,2.8641104698181152
28, 8150, 8140, 8171, 8128, 8128, 8165, 8186, 8170, 8176, 8183, 8146, 8141, 8140, 8150,2.8641104698181152
29, 8153, 8152, 8161, 8126, 8147, 8169, 8190, 8172, 8183, 8178, 8157, 8152, 8149, 8153,2.8770246505737305
30, 8159, 8156, 8136, 8130, 8159, 8155, 8182, 8163, 8187, 8162, 8168, 8156, 8157, 8156,2.894145965576172
31, 8167, 8176, 8212, 8124, 8149, 8148, 8157, 8167, 8162, 8144, 8163, 8175, 8143, 8143,2.894145965576172
32, 8172, 8175, 8139, 8146, 8155, 8143, 8156, 8163, 8154, 8152, 8172, 8174, 8142, 8139,2.894145965576172
33, 8185, 8178, 8192, 8161, 8160, 8153, 8158, 8169, 8147, 8150, 8182, 8179, 8152, 8160,2.9090545177459717
34, 8184, 8189, 8195, 8179, 8156, 8170, 8178, 8179, 8161, 8167, 8184, 8184, 8159, 8171,2.924041986465454
35, 8169, 8169, 8138, 8179, 8156, 8171, 8198, 8177, 8180, 8188, 8167, 8163, 8153, 8157,2.924041986465454
36, 8165, 8158, 8205, 8156, 8158, 8189, 8197, 8181, 8174, 8180, 8138, 8154, 8142, 8158,2.939638614654541
37, 8169, 8159, 8135, 8162, 8166, 8187, 8201, 8167, 8185, 8183, 8147, 8149, 8158, 8175,2.939638614654541
38, 8181, 8171, 8176, 8150, 8160, 8163, 8179, 8169, 8184, 8168, 8162, 8162, 8167, 8165,2.955261707305908
39, 8177, 8178, 8184, 8139, 8152, 8155, 8155, 8178, 8164, 8145, 8154, 8165, 8152, 8145,2.955261707305908
40, 8177, 8175, 8128, 8161, 8163, 8157, 8149, 8162, 8151, 8142, 8156, 8152, 8144, 8142,2.9711477756500244
41, 8186, 8189, 8214, 8171, 8174, 8175, 8157, 8168, 8153, 8141, 8171, 8165, 8150, 8148,2.9711477756500244
42, 8174, 8179, 8152, 8178, 8172, 8185, 8185, 8175, 8180, 8170, 8178, 8155, 8163, 8154,2.987032890319824
43, 8178, 8175, 8175, 8181, 8165, 8186, 8189, 8177, 8189, 8195, 8164, 8152, 8157, 8166,2.987032890319824
44, 8193, 8185, 8194, 8187, 8167, 8188, 8191, 8177, 8199, 8196, 8164, 8167, 8152, 8173,3.0020580291748047
45, 8185, 8171, 8130, 8175, 8167, 8172, 8197, 8164, 8206, 8186, 8164, 8155, 8155, 8162,3.0020580291748047
46, 8182, 8167, 8208, 8144, 8160, 8169, 8177, 8171, 8185, 8167, 8149, 8164, 8147, 8161,3.018098831176758
47, 8189, 8163, 8150, 8155, 8166, 8160, 8172, 8166, 8178, 8158, 8157, 8170, 8147, 8160,3.018098831176758
48, 8193, 8174, 8172, 8165, 8162, 8146, 8162, 8154, 8158, 8133, 8165, 8169, 8139, 8148,3.0337533950805664
49, 8192, 8191, 8208, 8172, 8159, 8160, 8154, 8162, 8148, 8133, 8170, 8179, 8132, 8146,3.0337533950805664
50, 8192, 8173, 8127, 8190, 8168, 8162, 8162, 8169, 8172, 8170, 8178, 8172, 8139, 8156,3.0488080978393555
51, 8194, 8177, 8202, 8189, 8168, 8167, 8165, 8177, 8170, 8172, 8163, 8169, 8136, 8166,3.0488080978393555
52, 8180, 8181, 8159, 8196, 8172, 8176, 8181, 8171, 8172, 8176, 8151, 8154, 8140, 8160,3.0640015602111816
53, 8177, 8162, 8152, 8178, 8166, 8171, 8174, 8165, 8184, 8174, 8142, 8150, 8137, 8151,3.0640015602111816
54, 8191, 8167, 8192, 8152, 8159, 8167, 8161, 8169, 8190, 8164, 8142, 8169, 8132, 8158,3.0800375938415527
55, 8195, 8176, 8126, 8158, 8156, 8142, 8162, 8161, 8183, 8164, 8162, 8167, 8144, 8158,3.0800375938415527
56, 8193, 8184, 8202, 8155, 8141, 8130, 8141, 8170, 8150, 8141, 8169, 8179, 8144, 8141,3.0960633754730225
57, 8186, 8187, 8166, 8167, 8148, 8141, 8142, 8174, 8154, 8140, 8174, 8186, 8145, 8138,3.0960633754730225
58, 8188, 8189, 8158, 8184, 8166, 8153, 8163, 8170, 8165, 8151, 8173, 8172, 8139, 8143,3.111104965209961
59, 8182, 8190, 8207, 8185, 8167, 8171, 8174, 8176, 8153, 8146, 8152, 8158, 8128, 8138,3.111104965209961
60, 8165, 8162, 8114, 8179, 8153, 8159, 8165, 8164, 8146, 8145, 8133, 8128, 8127, 8131,3.1267266273498535
61, 8166, 8160, 8178, 8157, 8136, 8146, 8144, 8165, 8139, 8136, 8120, 8130, 8122, 8137,3.1267266273498535
62, 8170, 8170, 8162, 8169, 8143, 8157, 8161, 8168, 8164, 8155, 8131, 8143, 8132, 8149,3.142801284790039
63, 8174, 8158, 8136, 8178, 8155, 8160, 8171, 8164, 8185, 8175, 8145, 8148, 8149, 8153,3.142801284790039
64, 8186, 8169, 8203, 8162, 8150, 8163, 8153, 8172, 8179, 8168, 8155, 8167, 8155, 8155,3.158761978149414
65, 8188, 8178, 8136, 8164, 8156, 8156, 8149, 8163, 8176, 8160, 8177, 8168, 8151, 8146,3.158761978149414
66, 8183, 8184, 8186, 8158, 8165, 8158, 8144, 8166, 8150, 8139, 8177, 8171, 8135, 8136,3.1738171577453613
67, 8163, 8171, 8157, 8163, 8164, 8169, 8155, 8173, 8147, 8142, 8161, 8160, 8127, 8131,3.1738171577453613
68, 8140, 8153, 8119, 8169, 8151, 8162, 8161, 8168, 8157, 8152, 8137, 8129, 8116, 8121,3.1890382766723633
69, 8132, 8162, 8187, 8163, 8148, 8172, 8153, 8174, 8151, 8149, 8115, 8125, 8106, 8119,3.1890382766723633
70, 8130, 8156, 8106, 8168, 8154, 8170, 8164, 8165, 8175, 8160, 8115, 8122, 8120, 8127,3.2048819065093994
71, 8147, 8160, 8163, 8151, 8138, 8154, 8154, 8167, 8187, 8157, 8122, 8139, 8128, 8141,3.2048819065093994
72, 8162, 8168, 8167, 8140, 8128, 8147, 8145, 8175, 8177, 8151, 8127, 8146, 8134, 8140,3.2200632095336914
73, 8156, 8154, 8108, 8131, 8127, 8135, 8141, 8161, 8155, 8136, 8118, 8124, 8131, 8121,3.2200632095336914
74, 8142, 8160, 8178, 8125, 8125, 8143, 8127, 8161, 8129, 8117, 8124, 8134, 8116, 8118,3.2359509468078613
75, 8140, 8167, 8116, 8147, 8136, 8145, 8131, 8163, 8125, 8124, 8149, 8138, 8119, 8118,3.2359509468078613
76, 8151, 8171, 8162, 8143, 8139, 8146, 8126, 8166, 8109, 8119, 8145, 8135, 8117, 8108,3.25230073928833
77, 8147, 8175, 8179, 8144, 8140, 8164, 8132, 8171, 8116, 8127, 8135, 8135, 8120, 8114,3.25230073928833
78, 8143, 8165, 8121, 8163, 8150, 8168, 8151, 8170, 8134, 8147, 8134, 8125, 8123, 8130,3.266709089279175
79, 8146, 8171, 8187, 8155, 8154, 8178, 8157, 8175, 8126, 8141, 8120, 8131, 8118, 8136,3.266709089279175
80, 8138, 8165, 8124, 8154, 8152, 8179, 8176, 8167, 8141, 8152, 8123, 8125, 8126, 8138,3.281848430633545
81, 8149, 8167, 8161, 8154, 8150, 8176, 8184, 8167, 8156, 8162, 8130, 8127, 8131, 8147,3.281848430633545
82, 8162, 8178, 8180, 8153, 8151, 8181, 8185, 8177, 8165, 8171, 8140, 8140, 8143, 8158,3.297105312347412
83, 8154, 8166, 8107, 8148, 8149, 8158, 8173, 8169, 8178, 8180, 8152, 8130, 8160, 8161,3.3127145767211914
84, 8153, 8174, 8188, 8139, 8139, 8144, 8138, 8174, 8168, 8155, 8149, 8141, 8152, 8154,3.313715696334839
85, 8164, 8180, 8140, 8152, 8145, 8151, 8138, 8170, 8169, 8157, 8159, 8154, 8152, 8149,3.3298511505126953
86, 8181, 8181, 8160, 8142, 8150, 8158, 8153, 8169, 8168, 8166, 8168, 8164, 8158, 8154,3.3298511505126953
87, 8178, 8187, 8191, 8146, 8148, 8159, 8157, 8177, 8157, 8142, 8158, 8159, 8145, 8145,3.3298511505126953
88, 8158, 8169, 8116, 8159, 8152, 8149, 8162, 8167, 8145, 8126, 8140, 8129, 8124, 8125,3.344317674636841
89, 8156, 8164, 8196, 8128, 8152, 8168, 8169, 8175, 8131, 8130, 8130, 8130, 8120, 8132,3.344317674636841
90, 8164, 8169, 8155, 8148, 8158, 8181, 8187, 8176, 8151, 8154, 8136, 8132, 8133, 8150,3.3603579998016357
91, 8169, 8172, 8156, 8185, 8155, 8166, 8173, 8167, 8156, 8148, 8119, 8123, 8124, 8145,3.377413511276245
92, 8164, 8177, 8194, 8172, 8143, 8169, 8167, 8175, 8157, 8144, 8105, 8129, 8119, 8145,3.377413511276245
93, 8164, 8166, 8114, 8155, 8143, 8166, 8187, 8173, 8189, 8172, 8129, 8130, 8149, 8160,3.377413511276245
94, 8179, 8169, 8189, 8152, 8135, 8160, 8171, 8174, 8186, 8167, 8139, 8143, 8158, 8166,3.390211343765259
95, 8175, 8173, 8157, 8157, 8131, 8148, 8160, 8172, 8175, 8160, 8139, 8137, 8155, 8159,3.407153367996216
96, 8170, 8172, 8140, 8150, 8136, 8145, 8157, 8174, 8170, 8155, 8144, 8134, 8158, 8147,3.407153367996216
97, 8175, 8183, 8192, 8158, 8149, 8168, 8157, 8181, 8163, 8148, 8154, 8156, 8161, 8147,3.407153367996216
98, 8166, 8176, 8122, 8180, 8162, 8163, 8173, 8170, 8170, 8160, 8161, 8145, 8161, 8145,3.423743486404419
99, 8170, 8185, 8197, 8182, 8161, 8158, 8173, 8175, 8164, 8161, 8151, 8139, 8148, 8145,3.423743486404419
100, 8166, 8183, 8164, 8192, 8154, 8171, 8183, 8179, 8161, 8168, 8142, 8130, 8147, 8145,3.4368903636932373
101, 8144, 8153, 8126, 8179, 8144, 8170, 8190, 8171, 8154, 8168, 8123, 8109, 8143, 8141,3.452387809753418
102, 8147, 8156, 8189, 8158, 8146, 8179, 8190, 8174, 8160, 8170, 8114, 8122, 8140, 8152,3.452387809753418
103, 8163, 8161, 8117, 8164, 8149, 8170, 8188, 8165, 8189, 8188, 8134, 8127, 8158, 8158,3.4685254096984863
104, 8167, 8166, 8175, 8148, 8134, 8151, 8158, 8168, 8167, 8168, 8141, 8139, 8162, 8148,3.4685254096984863
105, 8168, 8175, 8164, 8155, 8142, 8152, 8154, 8173, 8137, 8148, 8146, 8155, 8159, 8148,3.4851479530334473
106, 8180, 8182, 8135, 8177, 8161, 8152, 8165, 8161, 8123, 8141, 8151, 8156, 8160, 8149,3.4851479530334473
107, 8177, 8189, 8202, 8167, 8155, 8156, 8158, 8166, 8111, 8127, 8147, 8157, 8158, 8142,3.5000784397125244
108, 8162, 8172, 8126, 8173, 8156, 8158, 8167, 8167, 8119, 8140, 8149, 8145, 8156, 8136,3.5000784397125244
109, 8176, 8175, 8184, 8185, 8159, 8173, 8170, 8171, 8116, 8145, 8145, 8152, 8150, 8148,3.516075849533081
110, 8177, 8173, 8180, 8185, 8157, 8188, 8177, 8174, 8127, 8147, 8140, 8152, 8150, 8155,3.516075849533081
111, 8161, 8149, 8125, 8176, 8152, 8174, 8182, 8169, 8149, 8160, 8133, 8136, 8148, 8154,3.5315144062042236
112, 8176, 8164, 8209, 8177, 8152, 8176, 8180, 8180, 8154, 8173, 8137, 8159, 8155, 8175,3.5315144062042236
113, 8192, 8173, 8150, 8193, 8161, 8177, 8187, 8174, 8169, 8189, 8160, 8166, 8182, 8188,3.546858310699463
114, 8193, 8169, 8181, 8166, 8150, 8167, 8166, 8166, 8166, 8172, 8166, 8170, 8185, 8178,3.547365188598633
115, 8193, 8174, 8184, 8155, 8151, 8163, 8155, 8170, 8162, 8162, 8175, 8189, 8182, 8178,3.5620527267456055
116, 8199, 8176, 8139, 8181, 8167, 8146, 8160, 8166, 8155, 8165, 8179, 8185, 8179, 8173,3.5620527267456055
117, 8200, 8193, 8224, 8183, 8161, 8149, 8145, 8169, 8128, 8142, 8166, 8186, 8157, 8153,3.578092575073242
118, 8197, 8197, 8158, 8192, 8168, 8162, 8154, 8161, 8135, 8149, 8185, 8189, 8169, 8157,3.578092575073242
119, 8212, 8193, 8188, 8198, 8187, 8172, 8172, 8167, 8149, 8165, 8209, 8201, 8188, 8188,3.5941336154937744
120, 8205, 8189, 8206, 8193, 8186, 8183, 8181, 8175, 8149, 8175, 8204, 8196, 8178, 8184,3.5941336154937744
121, 8176, 8168, 8129, 8181, 8170, 8167, 8175, 8166, 8143, 8178, 8185, 8167, 8162, 8160,3.6112077236175537
122, 8169, 8165, 8203, 8166, 8158, 8164, 8156, 8173, 8132, 8160, 8164, 8168, 8151, 8160,3.6112077236175537
123, 8168, 8158, 8143, 8176, 8163, 8171, 8172, 8168, 8147, 8170, 8160, 8158, 8158, 8160,3.626182794570923
124, 8168, 8149, 8154, 8173, 8162, 8173, 8180, 8166, 8155, 8184, 8162, 8150, 8161, 8158,3.626182794570923
125, 8166, 8153, 8189, 8165, 8162, 8182, 8175, 8177, 8162, 8190, 8163, 8158, 8166, 8162,3.641268253326416
126, 8158, 8141, 8114, 8154, 8162, 8166, 8178, 8163, 8172, 8195, 8152, 8142, 8165, 8162,3.641268253326416
127, 8155, 8141, 8186, 8130, 8147, 8159, 8171, 8161, 8161, 8178, 8135, 8144, 8151, 8161,3.656850814819336
236, 8155, 8142, 8139, 8139, 8142, 8159, 8174, 8167, 8169, 8177, 8143, 8147, 8163, 8156,3.657344341278076
0, 8166, 8142, 8141, 8133, 8138, 8148, 8164, 8165, 8167, 8172, 8154, 8152, 8174, 8156,3.6717309951782227
1, 8172, 8151, 8186, 8114, 8131, 8147, 8154, 8167, 8156, 8161, 8160, 8170, 8172, 8165,3.6717309951782227
2, 8170, 8143, 8114, 8123, 8129, 8137, 8157, 8162, 8163, 8161, 8174, 8165, 8178, 8164,3.686837673187256
3, 8179, 8148, 8191, 8121, 8128, 8140, 8147, 8172, 8142, 8139, 8174, 8177, 8177, 8160,3.686837673187256
4, 8169, 8148, 8149, 8127, 8134, 8151, 8157, 8175, 8132, 8143, 8175, 8179, 8173, 8160,3.701986789703369
5, 8162, 8145, 8133, 8133, 8125, 8147, 8161, 8165, 8134, 8153, 8176, 8164, 8161, 8151,3.701986789703369
6, 8169, 8161, 8190, 8141, 8124, 8153, 8158, 8166, 8135, 8153, 8180, 8172, 8161, 8151,3.717176914215088
7, 8168, 8159, 8117, 8161, 8145, 8153, 8164, 8163, 8141, 8165, 8190, 8169, 8175, 8160,3.717519760131836
8, 8177, 8166, 8188, 8155, 8148, 8159, 8159, 8177, 8138, 8170, 8185, 8177, 8172, 8166,3.733137607574463
9, 8182, 8172, 8165, 8166, 8149, 8168, 8178, 8177, 8160, 8190, 8187, 8176, 8175, 8174,3.733137607574463
10, 8172, 8167, 8141, 8181, 8157, 8168, 8190, 8161, 8166, 8194, 8184, 8162, 8180, 8172,3.7481930255889893
11, 8161, 8173, 8197, 8169, 8154, 8175, 8172, 8169, 8151, 8180, 8161, 8155, 8166, 8165,3.7481930255889893
12, 8154, 8154, 8112, 8158, 8142, 8162, 8170, 8173, 8167, 8193, 8146, 8133, 8157, 8162,3.7637877464294434
13, 8166, 8155, 8172, 8150, 8136, 8165, 8172, 8179, 8180, 8206, 8161, 8148, 8172, 8170,3.7637877464294434
14, 8181, 8169, 8166, 8162, 8148, 8180, 8181, 8173, 8189, 8216, 8192, 8168, 8196, 8181,3.778913736343384
15, 8188, 8162, 8137, 8166, 8147, 8165, 8177, 8159, 8194, 8218, 8190, 8161, 8194, 8181,3.778913736343384
16, 8192, 8164, 8200, 8155, 8136, 8165, 8162, 8170, 8189, 8210, 8177, 8177, 8188, 8185,3.7949941158294678
17, 8192, 8161, 8119, 8164, 8144, 8164, 8169, 8169, 8198, 8214, 8193, 8180, 8206, 8192,3.7949941158294678
18, 8193, 8162, 8175, 8150, 8144, 8158, 8158, 8169, 8191, 8200, 8193, 8178, 8206, 8187,3.8107683658599854
19, 8186, 8162, 8179, 8144, 8139, 8153, 8155, 8169, 8186, 8192, 8189, 8180, 8200, 8179,3.8107683658599854
20, 8187, 8158, 8128, 8148, 8138, 8139, 8156, 8158, 8169, 8177, 8189, 8177, 8196, 8173,3.8272063732147217
21, 8189, 8170, 8198, 8138, 8132, 8144, 8140, 8163, 8142, 8146, 8175, 8185, 8179, 8160,3.8272063732147217
22, 8186, 8172, 8138, 8157, 8141, 8153, 8156, 8165, 8161, 8161, 8185, 8185, 8187, 8158,3.8418571949005127
23, 8191, 8180, 8184, 8163, 8152, 8163, 8164, 8169, 8163, 8162, 8193, 8190, 8192, 8167,3.8418571949005127
24, 8176, 8182, 8186, 8156, 8155, 8168, 8159, 8173, 8150, 8149, 8181, 8179, 8180, 8154,3.8581249713897705
25, 8161, 8168, 8130, 8161, 8155, 8158, 8165, 8170, 8158, 8160, 8175, 8157, 8173, 8148,3.8581249713897705
26, 8176, 8179, 8215, 8174, 8156, 8180, 8181, 8177, 8167, 8173, 8177, 8173, 8175, 8166,3.874154567718506
27, 8174, 8166, 8141, 8180, 8163, 8190, 8200, 8166, 8177, 8186, 8174, 8163, 8177, 8165,3.874154567718506
28, 8159, 8143, 8157, 8154, 8157, 8179, 8186, 8168, 8162, 8175, 8159, 8148, 8161, 8155,3.890190839767456
29, 8161, 8152, 8183, 8156, 8153, 8189, 8188, 8186, 8170, 8189, 8165, 8159, 8170, 8167,3.890190839767456
30, 8175, 8154, 8123, 8172, 8153, 8179, 8201, 8176, 8201, 8219, 8176, 8161, 8196, 8172,3.9062957763671875
31, 8185, 8159, 8201, 8147, 8144, 8167, 8183, 8170, 8195, 8203, 8170, 8173, 8195, 8167,3.9062957763671875
32, 8180, 8161, 8150, 8141, 8145, 8160, 8173, 8167, 8191, 8192, 8183, 8174, 8198, 8175,3.921837091445923
33, 8192, 8177, 8174, 8157, 8151, 8156, 8166, 8170, 8187, 8193, 8205, 8192, 8212, 8183,3.921837091445923
34, 8201, 8191, 8206, 8177, 8155, 8164, 8165, 8172, 8171, 8191, 8211, 8206, 8208, 8170,3.9371089935302734
35, 8187, 8174, 8134, 8187, 8162, 8162, 8169, 8159, 8160, 8186, 8200, 8168, 8188, 8152,3.9375061988830566
36, 8186, 8179, 8213, 8181, 8166, 8173, 8173, 8171, 8153, 8180, 8180, 8165, 8181, 8162,3.9531288146972656
37, 8189, 8180, 8162, 8199, 8171, 8182, 8198, 8174, 8172, 8202, 8182, 8178, 8196, 8179,3.9531288146972656
38, 8191, 8168, 8161, 8190, 8162, 8173, 8197, 8163, 8181, 8210, 8185, 8177, 8198, 8187,3.968759775161743
39, 8195, 8170, 8196, 8158, 8149, 8174, 8179, 8168, 8183, 8199, 8180, 8179, 8190, 8191,3.968759775161743
40, 8193, 8160, 8119, 8159, 8147, 8167, 8182, 8167, 8197, 8204, 8184, 8175, 8196, 8190,3.984781265258789
41, 8194, 8157, 8200, 8150, 8140, 8166, 8176, 8169, 8183, 8194, 8183, 8191, 8199, 8191,3.984781265258789
42, 8191, 8156, 8166, 8145, 8146, 8163, 8179, 8166, 8177, 8189, 8192, 8195, 8205, 8190,4.0003886222839355
43, 8197, 8161, 8157, 8148, 8155, 8155, 8176, 8169, 8178, 8179, 8199, 8194, 8195, 8183,4.0003886222839355
44, 8201, 8180, 8213, 8149, 8163, 8173, 8178, 8178, 8181, 8172, 8199, 8205, 8189, 8185,4.024049282073975
45, 8189, 8175, 8134, 8161, 8176, 8180, 8199, 8166, 8195, 8183, 8196, 8184, 8200, 8185,4.024049282073975
46, 8182, 8173, 8202, 8166, 8175, 8184, 8196, 8175, 8181, 8182, 8182, 8174, 8192, 8179,4.024049282073975
47, 8182, 8175, 8178, 8181, 8177, 8200, 8209, 8182, 8194, 8204, 8182, 8175, 8192, 8184,4.031155824661255
48, 8180, 8160, 8140, 8165, 8171, 8190, 8224, 8171, 8208, 8213, 8173, 8163, 8197, 8185,4.047178268432617
49, 8172, 8161, 8187, 8134, 8152, 8165, 8204, 8175, 8190, 8196, 8154, 8168, 8194, 8181,4.047178268432617
50, 8175, 8161, 8123, 8140, 8146, 8139, 8182, 8166, 8188, 8195, 8172, 8168, 8203, 8180,4.062738418579102
51, 8193, 8174, 8196, 8142, 8147, 8145, 8169, 8167, 8185, 8180, 8197, 8191, 8203, 8177,4.063738822937012
52, 8192, 8186, 8182, 8161, 8161, 8167, 8188, 8178, 8192, 8179, 8205, 8201, 8199, 8175,4.07879114151001
53, 8185, 8180, 8150, 8176, 8170, 8171, 8197, 8174, 8188, 8185, 8193, 8180, 8192, 8172,4.07879114151001
54, 8189, 8185, 8219, 8171, 8166, 8185, 8183, 8172, 8178, 8182, 8182, 8179, 8185, 8174,4.09429407119751
55, 8179, 8170, 8134, 8180, 8167, 8185, 8190, 8164, 8195, 8201, 8186, 8172, 8191, 8176,4.09429407119751
56, 8166, 8157, 8180, 8168, 8157, 8177, 8182, 8173, 8188, 8207, 8177, 8168, 8183, 8174,4.110381364822388
57, 8168, 8157, 8183, 8165, 8153, 8184, 8183, 8176, 8195, 8214, 8172, 8169, 8185, 8179,4.110381364822388
58, 8178, 8154, 8140, 8167, 8152, 8173, 8187, 8159, 8213, 8225, 8175, 8167, 8193, 8183,4.12608528137207
59, 8178, 8156, 8209, 8146, 8140, 8165, 8172, 8165, 8196, 8208, 8167, 8175, 8188, 8176,4.141364574432373
60, 8169, 8149, 8128, 8147, 8146, 8157, 8168, 8170, 8190, 8203, 8182, 8169, 8196, 8165,4.141364574432373
61, 8175, 8161, 8171, 8149, 8149, 8154, 8155, 8176, 8181, 8184, 8195, 8184, 8191, 8163,4.141364574432373
62, 8173, 8172, 8198, 8154, 8147, 8168, 8157, 8179, 8170, 8173, 8198, 8200, 8179, 8166,4.157191753387451
63, 8172, 8163, 8146, 8172, 8161, 8176, 8179, 8170, 8166, 8186, 8198, 8187, 8186, 8173,4.157191753387451
64, 8166, 8172, 8205, 8176, 8163, 8191, 8184, 8174, 8153, 8177, 8174, 8181, 8179, 8173,4.172147512435913
65, 8138, 8158, 8122, 8175, 8148, 8186, 8177, 8164, 8153, 8168, 8151, 8154, 8163, 8151,4.172147512435913
66, 8139, 8153, 8157, 8167, 8143, 8177, 8174, 8169, 8158, 8165, 8146, 8146, 8162, 8153,4.1880199909210205
67, 8164, 8171, 8191, 8178, 8158, 8195, 8201, 8184, 8179, 8192, 8161, 8164, 8191, 8182,4.1880199909210205
68, 8172, 8157, 8121, 8183, 8163, 8190, 8212, 8176, 8199, 8223, 8170, 8163, 8217, 8191,4.204113483428955
69, 8175, 8152, 8192, 8159, 8149, 8180, 8191, 8182, 8191, 8206, 8165, 8172, 8215, 8182,4.204113483428955
70, 8171, 8146, 8132, 8155, 8136, 8163, 8189, 8173, 8185, 8189, 8161, 8154, 8204, 8164,4.219129323959351
71, 8176, 8141, 8147, 8150, 8125, 8151, 8176, 8160, 8168, 8173, 8149, 8156, 8191, 8154,4.219129323959351
72, 8191, 8158, 8189, 8150, 8132, 8163, 8164, 8171, 8164, 8172, 8169, 8223, 8206, 8171,4.236754655838013
73, 8196, 8156, 8128, 8163, 8141, 8151, 8173, 8173, 8180, 8179, 8201, 8267, 8228, 8184,4.236754655838013
74, 8202, 8165, 8207, 8163, 8132, 8146, 8167, 8170, 8171, 8163, 8200, 8286, 8219, 8172,4.252120733261108
75, 8196, 8174, 8157, 8175, 8145, 8155, 8176, 8161, 8162, 8170, 8197, 8282, 8210, 8157,4.252120733261108
76, 8187, 8165, 8156, 8168, 8157, 8156, 8173, 8167, 8153, 8176, 8196, 8280, 8206, 8161,4.267347097396851
77, 8181, 8159, 8200, 8168, 8146, 8160, 8156, 8177, 8153, 8179, 8196, 8292, 8211, 8171,4.267347097396851
78, 8176, 8156, 8127, 8192, 8141, 8156, 8158, 8162, 8153, 8183, 8192, 8276, 8207, 8160,4.282407522201538
79, 8183, 8173, 8201, 8191, 8148, 8166, 8155, 8169, 8126, 8160, 8174, 8276, 8182, 8150,4.282407522201538
80, 8187, 8180, 8167, 8202, 8168, 8180, 8172, 8177, 8151, 8170, 8183, 8289, 8192, 8172,4.298151969909668
81, 8182, 8166, 8154, 8202, 8167, 8180, 8187, 8170, 8179, 8188, 8192, 8294, 8214, 8183,4.298151969909668
82, 8176, 8166, 8198, 8186, 8156, 8189, 8189, 8172, 8168, 8186, 8180, 8296, 8205, 8173,4.313826084136963
83, 8175, 8158, 8119, 8189, 8160, 8185, 8194, 8167, 8179, 8194, 8170, 8283, 8197, 8170,4.33005428314209
84, 8181, 8158, 8187, 8170, 8148, 8181, 8186, 8175, 8186, 8192, 8160, 8285, 8192, 8175,4.33005428314209
85, 8179, 8155, 8160, 8165, 8145, 8179, 8197, 8180, 8196, 8206, 8171, 8284, 8199, 8177,4.33005428314209
86, 8183, 8145, 8138, 8158, 8152, 8166, 8193, 8170, 8207, 8211, 8186, 8287, 8209, 8179,4.34438681602478
87, 8179, 8155, 8194, 8137, 8149, 8169, 8173, 8173, 8201, 8191, 8177, 8300, 8206, 8169,4.359556674957275
88, 8175, 8153, 8119, 8150, 8148, 8161, 8173, 8170, 8193, 8185, 8177, 8288, 8203, 8154,4.359556674957275
89, 8198, 8160, 8190, 8156, 8151, 8156, 8164, 8172, 8172, 8169, 8185, 8302, 8200, 8161,4.377925157546997
90, 8199, 8157, 8170, 8146, 8159, 8164, 8166, 8170, 8180, 8172, 8185, 8306, 8202, 8166,4.377925157546997
91, 8182, 8144, 8127, 8130, 8160, 8158, 8165, 8164, 8193, 8183, 8180, 8286, 8194, 8149,4.377925157546997
92, 8190, 8163, 8203, 8135, 8159, 8159, 8154, 8172, 8174, 8166, 8184, 8297, 8182, 8147,4.393390893936157
93, 8195, 8165, 8131, 8160, 8168, 8152, 8166, 8165, 8169, 8166, 8192, 8293, 8185, 8156,4.393390893936157
94, 8188, 8161, 8183, 8147, 8167, 8161, 8171, 8167, 8167, 8171, 8177, 8285, 8181, 8160,4.407081842422485
95, 8187, 8167, 8187, 8153, 8169, 8181, 8178, 8176, 8174, 8176, 8172, 8285, 8183, 8163,4.407081842422485
96, 8191, 8157, 8142, 8174, 8171, 8173, 8173, 8170, 8175, 8169, 8166, 8273, 8173, 8158,4.423125743865967
97, 8182, 8157, 8203, 8158, 8171, 8178, 8166, 8170, 8166, 8158, 8148, 8267, 8150, 8151,4.4393250942230225
98, 8158, 8150, 8122, 8155, 8174, 8186, 8195, 8164, 8184, 8170, 8145, 8243, 8144, 8150,4.4393250942230225
99, 8157, 8150, 8162, 8161, 8165, 8183, 8198, 8172, 8173, 8162, 8127, 8234, 8131, 8145,4.454224586486816
100, 8175, 8154, 8178, 8174, 8160, 8183, 8198, 8184, 8172, 8169, 8129, 8250, 8138, 8154,4.454224586486816
101, 8189, 8147, 8133, 8172, 8165, 8178, 8216, 8175, 8203, 8203, 8154, 8257, 8163, 8178,4.469847202301025
102, 8182, 8149, 8206, 8143, 8161, 8188, 8208, 8173, 8198, 8198, 8143, 8258, 8149, 8174,4.469847202301025
103, 8156, 8131, 8121, 8131, 8157, 8181, 8199, 8164, 8181, 8168, 8109, 8226, 8123, 8147,4.485957145690918
104, 8159, 8131, 8152, 8125, 8151, 8170, 8193, 8167, 8176, 8152, 8098, 8220, 8122, 8152,4.4871156215667725
105, 8183, 8156, 8194, 8137, 8156, 8180, 8192, 8179, 8190, 8176, 8133, 8257, 8149, 8170,4.4871156215667725
106, 8186, 8149, 8131, 8139, 8163, 8165, 8180, 8171, 8191, 8175, 8149, 8256, 8162, 8160,4.501717805862427
107, 8178, 8146, 8198, 8117, 8153, 8158, 8163, 8175, 8174, 8138, 8123, 8245, 8148, 8157,4.518192529678345
108, 8173, 8144, 8145, 8127, 8155, 8165, 8177, 8170, 8191, 8154, 8128, 8241, 8150, 8169,4.518192529678345
109, 8186, 8149, 8172, 8130, 8160, 8161, 8183, 8172, 8195, 8168, 8158, 8257, 8167, 8173,4.518192529678345
110, 8196, 8167, 8205, 8128, 8167, 8170, 8193, 8184, 8188, 8157, 8171, 8267, 8181, 8173,4.5337560176849365
111, 8188, 8170, 8132, 8156, 8179, 8169, 8199, 8174, 8191, 8167, 8166, 8244, 8175, 8171,4.5337560176849365
112, 8188, 8180, 8213, 8169, 8177, 8157, 8170, 8173, 8168, 8162, 8159, 8249, 8155, 8165,4.5497376918792725
113, 8189, 8174, 8160, 8164, 8171, 8143, 8159, 8166, 8152, 8157, 8167, 8250, 8157, 8160,4.566258668899536
114, 8185, 8166, 8155, 8149, 8167, 8143, 8158, 8161, 8144, 8148, 8161, 8238, 8156, 8154,4.566258668899536
115, 8172, 8174, 8201, 8160, 8169, 8163, 8167, 8171, 8144, 8148, 8150, 8234, 8143, 8152,4.566258668899536
116, 8163, 8158, 8129, 8182, 8173, 8164, 8182, 8166, 8160, 8170, 8156, 8219, 8144, 8154,4.5817930698394775
117, 8173, 8155, 8200, 8174, 8172, 8168, 8173, 8175, 8155, 8165, 8152, 8228, 8140, 8162,4.582793235778809
118, 8170, 8164, 8159, 8181, 8179, 8172, 8177, 8175, 8154, 8161, 8144, 8222, 8137, 8158,4.597338438034058
119, 8171, 8170, 8155, 8189, 8181, 8173, 8184, 8168, 8152, 8167, 8143, 8214, 8141, 8154,4.61301326751709
120, 8185, 8176, 8213, 8185, 8178, 8186, 8182, 8179, 8157, 8178, 8151, 8233, 8151, 8175,4.61301326751709
121, 8186, 8155, 8123, 8177, 8176, 8173, 8188, 8178, 8178, 8189, 8153, 8221, 8159, 8192,4.61301326751709
122, 8192, 8154, 8191, 8156, 8170, 8164, 8183, 8175, 8176, 8176, 8132, 8224, 8151, 8192,4.629109859466553
123, 8199, 8162, 8178, 8168, 8175, 8180, 8193, 8169, 8188, 8190, 8139, 8240, 8157, 8191,4.629109859466553
124, 8194, 8153, 8150, 8169, 8178, 8178, 8196, 8163, 8192, 8190, 8150, 8230, 8161, 8188,4.646135091781616
125, 8187, 8155, 8195, 8151, 8177, 8175, 8186, 8173, 8174, 8166, 8136, 8225, 8157, 8185,4.646135091781616
126, 8191, 8156, 8125, 8172, 8186, 8163, 8195, 8170, 8190, 8180, 8146, 8228, 8169, 8188,4.660798788070679
127, 8207, 8171, 8202, 8174, 8179, 8158, 8189, 8174, 8194, 8182, 8169, 8251, 8168, 8191,4.660798788070679
236, 8197, 8170, 8179, 8160, 8175, 8162, 8182, 8171, 8181, 8169, 8171, 8241, 8158, 8182,4.677968502044678
0, 8185, 8159, 8130, 8159, 8180, 8154, 8174, 8160, 8169, 8155, 8159, 8215, 8153, 8166,4.677968502044678
1, 8194, 8177, 8202, 8167, 8177, 8160, 8166, 8173, 8156, 8142, 8166, 8229, 8152, 8166,4.693040132522583
2, 8188, 8177, 8133, 8183, 8175, 8150, 8174, 8166, 8157, 8150, 8177, 8221, 8155, 8169,4.693040132522583
3, 8179, 8171, 8179, 8169, 8173, 8149, 8162, 8160, 8146, 8139, 8160, 8206, 8152, 8159,4.7090325355529785
4, 8171, 8167, 8165, 8160, 8172, 8165, 8154, 8164, 8137, 8130, 8153, 8200, 8148, 8152,4.7090325355529785
5, 8164, 8155, 8125, 8160, 8166, 8154, 8146, 8161, 8121, 8126, 8153, 8188, 8136, 8148,4.72508692741394
6, 8167, 8169, 8206, 8166, 8161, 8159, 8135, 8167, 8107, 8122, 8149, 8192, 8127, 8151,4.72508692741394
7, 8164, 8174, 8131, 8194, 8175, 8168, 8145, 8161, 8130, 8143, 8159, 8189, 8141, 8162,4.740828275680542
8, 8170, 8172, 8171, 8185, 8177, 8170, 8140, 8166, 8134, 8144, 8158, 8199, 8140, 8170,4.740828275680542
9, 8177, 8175, 8185, 8175, 8179, 8181, 8151, 8173, 8133, 8149, 8150, 8199, 8139, 8167,4.75627326965332
10, 8176, 8168, 8130, 8195, 8193, 8182, 8175, 8165, 8141, 8163, 8144, 8173, 8143, 8158,4.75627326965332
11, 8169, 8172, 8198, 8191, 8183, 8186, 8169, 8171, 8137, 8158, 8133, 8175, 8138, 8165,4.770907402038574
12, 8162, 8163, 8126, 8186, 8168, 8175, 8170, 8165, 8146, 8169, 8140, 8171, 8146, 8178,4.786064147949219
13, 8164, 8154, 8159, 8174, 8165, 8171, 8171, 8160, 8138, 8169, 8146, 8167, 8147, 8174,4.786064147949219
14, 8157, 8157, 8183, 8166, 8168, 8184, 8174, 8171, 8139, 8168, 8149, 8168, 8148, 8171,4.801310062408447
15, 8153, 8151, 8115, 8166, 8167, 8172, 8170, 8167, 8155, 8175, 8149, 8149, 8158, 8173,4.801310062408447
16, 8171, 8163, 8192, 8163, 8164, 8167, 8162, 8165, 8148, 8167, 8148, 8159, 8165, 8176,4.818755865097046
17, 8179, 8165, 8138, 8174, 8172, 8169, 8175, 8161, 8163, 8180, 8174, 8172, 8177, 8181,4.818755865097046
18, 8184, 8168, 8157, 8161, 8171, 8159, 8160, 8166, 8175, 8173, 8185, 8174, 8196, 8179,4.818755865097046
19, 8187, 8182, 8192, 8153, 8167, 8151, 8140, 8172, 8163, 8146, 8179, 8170, 8236, 8167,4.834782838821411
20, 8185, 8176, 8128, 8165, 8169, 8141, 8148, 8166, 8150, 8147, 8183, 8152, 8272, 8157,4.834782838821411
21, 8186, 8182, 8207, 8169, 8173, 8156, 8151, 8180, 8137, 8151, 8188, 8162, 8268, 8162,4.851832389831543
22, 8181, 8183, 8161, 8193, 8189, 8173, 8175, 8179, 8153, 8162, 8192, 8159, 8269, 8166,4.851832389831543
23, 8176, 8176, 8167, 8195, 8184, 8176, 8184, 8168, 8149, 8158, 8182, 8136, 8273, 8165,4.867011785507202
24, 8172, 8178, 8203, 8191, 8174, 8190, 8169, 8170, 8136, 8160, 8170, 8127, 8271, 8166,4.867011785507202
25, 8178, 8175, 8135, 8212, 8192, 8190, 8179, 8165, 8159, 8187, 8173, 8117, 8282, 8168,4.881489992141724
26, 8187, 8181, 8207, 8204, 8204, 8193, 8190, 8177, 8171, 8187, 8171, 8125, 8282, 8176,4.881489992141724
27, 8175, 8168, 8148, 8191, 8192, 8191, 8190, 8177, 8175, 8184, 8166, 8109, 8277, 8174,4.8951575756073
28, 8176, 8156, 8140, 8180, 8177, 8173, 8173, 8168, 8178, 8186, 8169, 8097, 8281, 8167,4.910251140594482
29, 8192, 8176, 8206, 8177, 8177, 8166, 8166, 8174, 8182, 8186, 8185, 8121, 8289, 8177,4.910251140594482
30, 8192, 8172, 8130, 8182, 8174, 8143, 8164, 8165, 8180, 8181, 8201, 8121, 8291, 8183,4.9271240234375
31, 8194, 8170, 8196, 8169, 8163, 8141, 8138, 8166, 8143, 8155, 8196, 8125, 8281, 8175,4.9271240234375
32, 8190, 8174, 8172, 8179, 8178, 8162, 8140, 8167, 8133, 8156, 8195, 8113, 8277, 8165,4.941082954406738
33, 8175, 8168, 8143, 8185, 8187, 8162, 8150, 8162, 8132, 8160, 8181, 8080, 8257, 8149,4.941082954406738
34, 8160, 8172, 8191, 8171, 8179, 8172, 8154, 8172, 8125, 8150, 8164, 8075, 8244, 8143,4.9563586711883545
35, 8147, 8156, 8116, 8171, 8179, 8175, 8167, 8164, 8141, 8165, 8168, 8063, 8251, 8147,4.9563586711883545
36, 8150, 8149, 8179, 8165, 8169, 8174, 8154, 8163, 8144, 8166, 8157, 8050, 8234, 8154,4.971796751022339
37, 8157, 8151, 8159, 8173, 8166, 8179, 8159, 8166, 8150, 8172, 8153, 8040, 8227, 8156,4.971796751022339
38, 8165, 8148, 8124, 8175, 8175, 8178, 8179, 8165, 8157, 8183, 8161, 8040, 8242, 8163,4.987709283828735
39, 8169, 8155, 8192, 8159, 8171, 8185, 8178, 8178, 8155, 8182, 8157, 8049, 8242, 8174,4.987709283828735
40, 8165, 8144, 8118, 8165, 8166, 8174, 8170, 8177, 8179, 8190, 8154, 8028, 8239, 8173,5.002729415893555
41, 8175, 8147, 8170, 8149, 8164, 8166, 8161, 8177, 8185, 8180, 8154, 8034, 8244, 8165,5.002729415893555
42, 8183, 8159, 8169, 8128, 8172, 8172, 8174, 8177, 8181, 8170, 8167, 8054, 8253, 8163,5.018770694732666
43, 8188, 8159, 8131, 8135, 8175, 8163, 8168, 8171, 8168, 8161, 8179, 8050, 8247, 8162,5.018770694732666
44, 8193, 8176, 8211, 8158, 8176, 8170, 8147, 8180, 8149, 8154, 8186, 8060, 8238, 8167,5.034113883972168
45, 8177, 8172, 8133, 8180, 8187, 8172, 8167, 8173, 8158, 8178, 8192, 8043, 8242, 8169,5.034113883972168
46, 8158, 8157, 8162, 8161, 8182, 8173, 8169, 8169, 8145, 8172, 8159, 8016, 8220, 8158,5.049371004104614
47, 8145, 8146, 8169, 8153, 8177, 8186, 8161, 8170, 8132, 8167, 8134, 8004, 8204, 8147,5.049371004104614
48, 8145, 8133, 8117, 8155, 8179, 8180, 8173, 8160, 8137, 8183, 8140, 7997, 8216, 8145,5.064927339553833
49, 8162, 8151, 8194, 8139, 8171, 8181, 8178, 8166, 8134, 8177, 8142, 8008, 8221, 8157,5.064927339553833
50, 8161, 8152, 8125, 8147, 8172, 8171, 8174, 8164, 8152, 8178, 8146, 8000, 8224, 8166,5.080265760421753
51, 8155, 8143, 8158, 8138, 8169, 8148, 8147, 8162, 8149, 8165, 8155, 7999, 8219, 8154,5.080265760421753
52, 8163, 8157, 8185, 8136, 8169, 8151, 8132, 8166, 8127, 8150, 8174, 8010, 8220, 8143,5.096279621124268
53, 8178, 8163, 8130, 8162, 8182, 8156, 8137, 8160, 8117, 8151, 8175, 8001, 8219, 8145,5.096279621124268
54, 8179, 8178, 8217, 8173, 8188, 8168, 8140, 8167, 8111, 8140, 8157, 8001, 8202, 8148,5.112144708633423
55, 8163, 8197, 8152, 8181, 8189, 8172, 8164, 8164, 8128, 8158, 8163, 7983, 8201, 8147,5.112144708633423
56, 8165, 8218, 8153, 8175, 8185, 8173, 8173, 8161, 8140, 8177, 8161, 7970, 8210, 8154,5.128062963485718
57, 8173, 8228, 8187, 8167, 8181, 8180, 8175, 8171, 8148, 8180, 8152, 7979, 8217, 8167,5.128062963485718
58, 8177, 8210, 8130, 8171, 8182, 8162, 8176, 8162, 8157, 8175, 8165, 7980, 8226, 8164,5.144072771072388
59, 8179, 8210, 8204, 8160, 8176, 8156, 8152, 8162, 8141, 8147, 8174, 7990, 8219, 8153,5.144072771072388
60, 8169, 8202, 8143, 8155, 8169, 8155, 8144, 8159, 8139, 8143, 8169, 7977, 8210, 8145,5.160150766372681
61, 8174, 8201, 8147, 8150, 8165, 8148, 8140, 8161, 8146, 8149, 8172, 7975, 8208, 8149,5.160150766372681
62, 8184, 8218, 8199, 8156, 8175, 8155, 8138, 8172, 8149, 8143, 8180, 7990, 8205, 8155,5.1761651039123535
63, 8166, 8202, 8123, 8174, 8179, 8155, 8143, 8169, 8147, 8138, 8166, 7955, 8190, 8138,5.1761651039123535
64, 8150, 8192, 8190, 8166, 8164, 8166, 8144, 8178, 8141, 8141, 8140, 7935, 8177, 8129,5.19174861907959
65, 8150, 8190, 8145, 8170, 8166, 8181, 8168, 8174, 8170, 8169, 8149, 7936, 8192, 8147,5.19174861907959
66, 8156, 8183, 8129, 8170, 8170, 8170, 8173, 8163, 8177, 8173, 8156, 7935, 8195, 8153,5.207263946533203
67, 8163, 8196, 8182, 8159, 8161, 8161, 8154, 8172, 8159, 8159, 8150, 7952, 8194, 8152,5.207263946533203
68, 8163, 8193, 8111, 8158, 8159, 8149, 8147, 8165, 8159, 8160, 8160, 7953, 8211, 8152,5.222578763961792
69, 8164, 8195, 8178, 8139, 8153, 8145, 8128, 8163, 8138, 8140, 8167, 7957, 8204, 8144,5.222578763961792
70, 8162, 8201, 8150, 8154, 8153, 8140, 8127, 8162, 8133, 8138, 8170, 7957, 8193, 8139,5.238178968429565
71, 8159, 8195, 8131, 8171, 8158, 8132, 8131, 8160, 8131, 8134, 8165, 7952, 8189, 8142,5.238178968429565
72, 8151, 8197, 8191, 8166, 8162, 8158, 8131, 8168, 8125, 8133, 8158, 7954, 8187, 8144,5.253216028213501
73, 8143, 8188, 8114, 8181, 8172, 8172, 8148, 8162, 8148, 8167, 8158, 7934, 8194, 8150,5.253216028213501
74, 8152, 8182, 8172, 8170, 8164, 8168, 8147, 8169, 8157, 8177, 8142, 7935, 8189, 8163,5.268921613693237
75, 8150, 8173, 8149, 8155, 8161, 8167, 8155, 8175, 8171, 8179, 8142, 7944, 8193, 8162,5.268921613693237
76, 8152, 8168, 8117, 8149, 8165, 8155, 8160, 8164, 8182, 8175, 8146, 7942, 8198, 8161,5.284358024597168
77, 8166, 8183, 8191, 8139, 8150, 8149, 8141, 8164, 8163, 8153, 8133, 7952, 8189, 8169,5.284358024597168
78, 8167, 8172, 8116, 8135, 8141, 8138, 8136, 8160, 8154, 8154, 8142, 7951, 8189, 8160,5.299504041671753
79, 8176, 8178, 8179, 8129, 8148, 8145, 8133, 8169, 8149, 8151, 8161, 7976, 8192, 8160,5.300503253936768
80, 8181, 8194, 8187, 8151, 8164, 8161, 8137, 8172, 8152, 8154, 8172, 7997, 8200, 8171,5.316107273101807
81, 8173, 8180, 8138, 8159, 8166, 8148, 8133, 8164, 8145, 8159, 8176, 7983, 8198, 8161,5.316107273101807
82, 8170, 8183, 8202, 8140, 8163, 8156, 8122, 8173, 8126, 8141, 8176, 7981, 8180, 8151,5.330802917480469
83, 8160, 8186, 8128, 8149, 8171, 8167, 8138, 8166, 8135, 8140, 8170, 7966, 8178, 8154,5.330802917480469
84, 8159, 8191, 8176, 8157, 8170, 8166, 8142, 8170, 8139, 8147, 8157, 7966, 8179, 8155,5.346807241439819
85, 8159, 8195, 8189, 8170, 8178, 8174, 8153, 8179, 8144, 8162, 8165, 7975, 8184, 8155,5.347194194793701
86, 8155, 8182, 8129, 8173, 8183, 8174, 8161, 8169, 8151, 8170, 8166, 7960, 8187, 8153,5.3637776374816895
87, 8158, 8186, 8198, 8163, 8173, 8185, 8146, 8168, 8137, 8162, 8152, 7961, 8177, 8155,5.3637776374816895
88, 8162, 8183, 8135, 8180, 8180, 8186, 8161, 8164, 8147, 8184, 8163, 7956, 8187, 8163,5.378999948501587
89, 8171, 8182, 8172, 8183, 8188, 8181, 8180, 8167, 8159, 8189, 8167, 7965, 8194, 8169,5.378999948501587
90, 8169, 8183, 8187, 8170, 8182, 8190, 8185, 8172, 8158, 8177, 8150, 7975, 8188, 8174,5.393445253372192
91, 8167, 8163, 8120, 8160, 8172, 8179, 8180, 8160, 8153, 8180, 8143, 7964, 8182, 8169,5.393445253372192
92, 8186, 8168, 8205, 8149, 8161, 8178, 8180, 8168, 8152, 8186, 8155, 7986, 8190, 8173,5.408435821533203
93, 8188, 8169, 8141, 8153, 8163, 8175, 8193, 8167, 8180, 8199, 8170, 7998, 8210, 8185,5.408435821533203
94, 8183, 8162, 8150, 8139, 8162, 8159, 8166, 8159, 8173, 8189, 8170, 8002, 8205, 8178,5.424392461776733
95, 8181, 8171, 8186, 8135, 8158, 8155, 8144, 8164, 8153, 8180, 8181, 8022, 8199, 8162,5.442030668258667
96, 8177, 8175, 8119, 8156, 8157, 8145, 8157, 8162, 8161, 8174, 8196, 8021, 8204, 8154,5.442030668258667
97, 8179, 8187, 8196, 8152, 8161, 8155, 8155, 8169, 8145, 8155, 8184, 8029, 8194, 8159,5.442030668258667
98, 8180, 8187, 8150, 8158, 8173, 8160, 8150, 8158, 8136, 8168, 8184, 8028, 8193, 8158,5.456071853637695
99, 8181, 8185, 8159, 8170, 8168, 8143, 8133, 8149, 8116, 8158, 8182, 8018, 8183, 8147,5.456071853637695
100, 8174, 8188, 8203, 8180, 8170, 8152, 8127, 8164, 8094, 8136, 8171, 8021, 8168, 8143,5.472241640090942
101, 8164, 8177, 8128, 8193, 8185, 8166, 8143, 8164, 8103, 8160, 8173, 8016, 8171, 8150,5.488034248352051
102, 8174, 8185, 8198, 8180, 8185, 8175, 8143, 8169, 8106, 8167, 8168, 8030, 8177, 8162,5.488034248352051
103, 8184, 8186, 8162, 8186, 8185, 8174, 8162, 8172, 8122, 8174, 8173, 8035, 8190, 8170,5.488034248352051
104, 8188, 8174, 8155, 8184, 8181, 8174, 8178, 8164, 8134, 8185, 8176, 8033, 8193, 8175,5.50443172454834
105, 8177, 8175, 8197, 8159, 8166, 8193, 8172, 8165, 8141, 8186, 8166, 8041, 8180, 8172,5.505935192108154
106, 8165, 8168, 8118, 8159, 8161, 8180, 8174, 8164, 8158, 8198, 8166, 8032, 8186, 8161,5.519061088562012
107, 8177, 8173, 8195, 8162, 8167, 8171, 8169, 8174, 8153, 8200, 8170, 8049, 8199, 8168,5.5360939502716064
108, 8178, 8172, 8163, 8168, 8173, 8174, 8171, 8170, 8154, 8205, 8178, 8055, 8201, 8183,5.5360939502716064
109, 8172, 8156, 8139, 8153, 8162, 8163, 8160, 8160, 8152, 8192, 8175, 8046, 8184, 8173,5.5360939502716064
110, 8176, 8164, 8207, 8137, 8155, 8165, 8153, 8171, 8143, 8169, 8173, 8063, 8177, 8163,5.550260066986084
111, 8179, 8162, 8127, 8148, 8166, 8163, 8172, 8163, 8150, 8179, 8179, 8064, 8193, 8172,5.550260066986084
112, 8186, 8166, 8182, 8138, 8157, 8159, 8160, 8161, 8138, 8176, 8166, 8070, 8191, 8176,5.563807487487793
113, 8180, 8168, 8166, 8133, 8150, 8161, 8149, 8164, 8127, 8169, 8160, 8076, 8180, 8159,5.579251527786255
114, 8172, 8159, 8132, 8134, 8160, 8156, 8157, 8162, 8123, 8168, 8173, 8074, 8177, 8153,5.579251527786255
115, 8184, 8173, 8198, 8132, 8159, 8163, 8160, 8172, 8119, 8164, 8182, 8094, 8182, 8165,5.5947935581207275
116, 8190, 8170, 8131, 8148, 8154, 8153, 8156, 8166, 8133, 8168, 8184, 8097, 8192, 8168,5.5947935581207275
117, 8194, 8175, 8197, 8150, 8151, 8144, 8132, 8167, 8120, 8153, 8182, 8104, 8186, 8165,5.609879016876221
118, 8192, 8190, 8193, 8156, 8158, 8160, 8138, 8170, 8116, 8157, 8192, 8105, 8184, 8162,5.609879016876221
119, 8185, 8185, 8145, 8162, 8165, 8165, 8154, 8162, 8120, 8175, 8194, 8095, 8184, 8160,5.625996112823486
120, 8186, 8191, 8220, 8171, 8167, 8167, 8148, 8170, 8103, 8165, 8185, 8111, 8175, 8162,5.625996112823486
121, 8187, 8196, 8150, 8203, 8175, 8163, 8161, 8165, 8113, 8170, 8192, 8116, 8183, 8165,5.6418070793151855
122, 8200, 8206, 8199, 8212, 8178, 8177, 8168, 8168, 8121, 8179, 8202, 8128, 8193, 8176,5.6418070793151855
123, 8205, 8209, 8216, 8225, 8182, 8196, 8176, 8179, 8126, 8188, 8216, 8143, 8204, 8193,5.657081842422485
124, 8191, 8185, 8148, 8228, 8173, 8178, 8177, 8169, 8127, 8181, 8204, 8129, 8194, 8187,5.657081842422485
125, 8180, 8175, 8206, 8199, 8159, 8177, 8168, 8166, 8119, 8167, 8181, 8128, 8173, 8168,5.6730732917785645
126, 8181, 8178, 8152, 8220, 8173, 8187, 8185, 8163, 8143, 8192, 8203, 8129, 8192, 8176,5.6730732917785645
127, 8191, 8187, 8193, 8246, 8171, 8178, 8187, 8170, 8148, 8188, 8219, 8140, 8197, 8187,5.688156843185425
236, 8187, 8188, 8201, 8239, 8155, 8169, 8178, 8171, 8139, 8166, 8209, 8150, 8179, 8179,5.688156843185425
0, 8193, 8182, 8142, 8249, 8156, 8159, 8177, 8155, 8150, 8173, 8216, 8155, 8193, 8180,5.703802108764648
1, 8210, 8196, 8233, 8265, 8151, 8159, 8166, 8169, 8151, 8177, 8240, 8191, 8216, 8199,5.703802108764648
2, 8200, 8186, 8165, 8268, 8138, 8143, 8155, 8169, 8149, 8169, 8255, 8197, 8216, 8190,5.719775915145874
3, 8203, 8181, 8186, 8255, 8127, 8133, 8127, 8156, 8124, 8134, 8244, 8201, 8197, 8170,5.719775915145874
4, 8229, 8201, 8240, 8274, 8129, 8148, 8122, 8160, 8112, 8118, 8244, 8229, 8199, 8186,5.735809087753296
5, 8238, 8201, 8182, 8305, 8140, 8144, 8144, 8157, 8126, 8136, 8267, 8228, 8212, 8198,5.735809087753296
6, 8235, 8208, 8253, 8299, 8145, 8151, 8147, 8163, 8111, 8124, 8261, 8234, 8200, 8184,5.751206636428833
7, 8226, 8207, 8190, 8297, 8151, 8160, 8153, 8163, 8103, 8123, 8240, 8228, 8183, 8175,5.751206636428833
8, 8217, 8203, 8186, 8290, 8144, 8151, 8145, 8163, 8102, 8128, 8239, 8221, 8181, 8178,5.766869783401489
9, 8209, 8213, 8231, 8291, 8141, 8157, 8140, 8169, 8112, 8134, 8248, 8226, 8195, 8179,5.767261028289795
10, 8194, 8194, 8153, 8292, 8149, 8157, 8142, 8158, 8115, 8139, 8228, 8198, 8187, 8166,5.78188157081604
11, 8175, 8184, 8211, 8259, 8141, 8160, 8118, 8159, 8086, 8122, 8183, 8171, 8152, 8155,5.78188157081604
12, 8168, 8180, 8166, 8256, 8140, 8168, 8131, 8160, 8098, 8140, 8180, 8155, 8159, 8156,5.797976732254028
13, 8180, 8167, 8157, 8253, 8144, 8171, 8157, 8165, 8121, 8160, 8191, 8157, 8178, 8161,5.797976732254028
14, 8178, 8167, 8203, 8233, 8145, 8186, 8165, 8177, 8128, 8169, 8188, 8169, 8182, 8175,5.814006090164185
15, 8168, 8168, 8124, 8230, 8147, 8180, 8170, 8167, 8160, 8195, 8198, 8158, 8194, 8181,5.814006090164185
16, 8188, 8182, 8197, 8213, 8149, 8173, 8158, 8171, 8172, 8181, 8207, 8169, 8198, 8179,5.829163551330566
17, 8186, 8177, 8164, 8201, 8153, 8160, 8152, 8170, 8161, 8153, 8208, 8166, 8194, 8174,5.829163551330566
18, 8170, 8157, 8138, 8185, 8136, 8143, 8150, 8161, 8154, 8147, 8197, 8150, 8188, 8172,5.844173431396484
19, 8181, 8166, 8202, 8172, 8128, 8167, 8163, 8170, 8166, 8168, 8202, 8168, 8194, 8183,5.844173431396484
20, 8186, 8166, 8124, 8174, 8144, 8169, 8170, 8167, 8184, 8192, 8222, 8169, 8208, 8184,5.859767198562622
21, 8182, 8168, 8185, 8160, 8140, 8151, 8143, 8170, 8168, 8172, 8212, 8165, 8191, 8173,5.859767198562622
22, 8175, 8173, 8171, 8166, 8136, 8153, 8146, 8173, 8159, 8159, 8189, 8156, 8169, 8163,5.875790357589722
23, 8167, 8164, 8133, 8161, 8150, 8164, 8158, 8164, 8155, 8149, 8169, 8136, 8155, 8147,5.875790357589722
24, 8165, 8168, 8196, 8140, 8155, 8172, 8148, 8163, 8146, 8134, 8166, 8144, 8147, 8140,5.890950679779053
25, 8162, 8163, 8121, 8155, 8146, 8153, 8145, 8159, 8154, 8153, 8176, 8141, 8155, 8145,5.890950679779053
26, 8160, 8164, 8178, 8157, 8136, 8152, 8136, 8169, 8124, 8159, 8162, 8135, 8152, 8145,5.9068989753723145
27, 8153, 8167, 8173, 8163, 8148, 8183, 8163, 8172, 8115, 8165, 8158, 8132, 8155, 8145,5.9068989753723145
28, 8154, 8162, 8129, 8184, 8165, 8190, 8199, 8165, 8146, 8180, 8164, 8125, 8165, 8159,5.922364950180054
29, 8155, 8170, 8204, 8175, 8160, 8192, 8191, 8177, 8145, 8182, 8148, 8131, 8164, 8166,5.922364950180054
30, 8150, 8159, 8134, 8164, 8158, 8193, 8199, 8167, 8152, 8192, 8152, 8123, 8177, 8163,5.938087463378906
31, 8155, 8152, 8169, 8149, 8154, 8194, 8206, 8164, 8167, 8186, 8148, 8121, 8177, 8167,5.953133821487427
32, 8145, 8156, 8167, 8141, 8148, 8193, 8201, 8179, 8177, 8184, 8128, 8111, 8167, 8161,5.953133821487427
33, 8140, 8151, 8117, 8139, 8141, 8179, 8200, 8174, 8180, 8186, 8133, 8099, 8171, 8153,5.953133821487427
34, 8163, 8163, 8195, 8127, 8139, 8177, 8200, 8176, 8186, 8182, 8158, 8133, 8178, 8167,5.9687180519104
35, 8167, 8161, 8124, 8125, 8146, 8168, 8206, 8176, 8202, 8182, 8169, 8144, 8180, 8170,5.96971869468689
36, 8163, 8157, 8163, 8108, 8141, 8156, 8185, 8178, 8179, 8145, 8153, 8142, 8168, 8156,5.984736680984497
37, 8160, 8158, 8183, 8107, 8137, 8164, 8170, 8178, 8166, 8139, 8152, 8146, 8163, 8151,5.984736680984497
38, 8149, 8151, 8114, 8119, 8145, 8155, 8174, 8168, 8178, 8175, 8161, 8130, 8162, 8146,6.0007805824279785
39, 8139, 8160, 8193, 8104, 8142, 8158, 8169, 8178, 8155, 8162, 8138, 8129, 8144, 8133,6.0007805824279785
40, 8124, 8148, 8135, 8108, 8140, 8165, 8174, 8173, 8142, 8144, 8122, 8112, 8131, 8120,6.015967845916748
41, 8126, 8145, 8157, 8117, 8142, 8164, 8168, 8168, 8150, 8150, 8136, 8110, 8134, 8124,6.036644697189331
42, 8147, 8173, 8199, 8141, 8159, 8174, 8175, 8179, 8177, 8177, 8157, 8134, 8151, 8149,6.038153171539307
43, 8153, 8176, 8133, 8168, 8172, 8171, 8184, 8174, 8192, 8196, 8164, 8134, 8164, 8158,6.038153171539307
44, 8152, 8172, 8207, 8155, 8162, 8178, 8167, 8171, 8177, 8186, 8167, 8148, 8161, 8158,6.038153171539307
45, 8156, 8165, 8156, 8161, 8168, 8180, 8174, 8169, 8185, 8199, 8185, 8162, 8173, 8178,6.047709703445435
46, 8165, 8170, 8163, 8178, 8173, 8175, 8179, 8169, 8179, 8214, 8182, 8169, 8181, 8189,6.062734127044678
47, 8162, 8183, 8204, 8171, 8162, 8187, 8177, 8172, 8173, 8213, 8170, 8174, 8175, 8178,6.062734127044678
48, 8155, 8161, 8126, 8157, 8158, 8175, 8181, 8160, 8193, 8215, 8168, 8157, 8172, 8170,6.07813286781311
49, 8165, 8153, 8198, 8149, 8148, 8165, 8169, 8168, 8184, 8204, 8165, 8163, 8175, 8177,6.09373140335083
50, 8163, 8159, 8161, 8161, 8137, 8162, 8173, 8169, 8187, 8206, 8175, 8162, 8189, 8179,6.09373140335083
51, 8155, 8152, 8148, 8144, 8130, 8148, 8164, 8162, 8184, 8196, 8163, 8144, 8173, 8168,6.110783815383911
52, 8153, 8154, 8195, 8126, 8130, 8145, 8148, 8168, 8158, 8171, 8149, 8149, 8152, 8161,6.110783815383911
53, 8158, 8152, 8126, 8144, 8135, 8143, 8149, 8165, 8162, 8171, 8170, 8160, 8175, 8166,6.110783815383911
54, 8176, 8169, 8207, 8146, 8142, 8158, 8144, 8170, 8163, 8171, 8189, 8196, 8193, 8173,6.127994060516357
55, 8174, 8182, 8176, 8160, 8162, 8170, 8152, 8162, 8151, 8176, 8197, 8207, 8184, 8164,6.127994060516357
56, 8162, 8176, 8144, 8161, 8166, 8150, 8143, 8149, 8123, 8162, 8184, 8189, 8158, 8145,6.1395509243011475
57, 8162, 8176, 8208, 8148, 8157, 8156, 8135, 8165, 8107, 8152, 8170, 8199, 8148, 8146,6.15514874458313
58, 8151, 8158, 8133, 8162, 8162, 8176, 8164, 8167, 8137, 8173, 8170, 8184, 8161, 8151,6.15514874458313
59, 8138, 8148, 8181, 8155, 8158, 8193, 8181, 8169, 8159, 8173, 8146, 8165, 8154, 8144,6.1702351570129395
60, 8149, 8149, 8152, 8148, 8155, 8191, 8195, 8174, 8183, 8192, 8143, 8167, 8158, 8150,6.1702351570129395
61, 8184, 8144, 8122, 8148, 8158, 8180, 8205, 8174, 8204, 8221, 8169, 8183, 8181, 8174,6.186183929443359
62, 8200, 8154, 8195, 8136, 8161, 8188, 8195, 8177, 8202, 8214, 8174, 8207, 8187, 8183,6.186183929443359
63, 8196, 8153, 8119, 8142, 8168, 8175, 8187, 8163, 8199, 8208, 8175, 8212, 8190, 8170,6.201088905334473
64, 8209, 8155, 8170, 8130, 8160, 8160, 8170, 8169, 8182, 8199, 8186, 8232, 8190, 8165,6.201088905334473
65, 8207, 8154, 8163, 8129, 8160, 8158, 8168, 8173, 8174, 8191, 8182, 8234, 8186, 8164,6.216609477996826
66, 8198, 8153, 8125, 8146, 8166, 8146, 8162, 8156, 8157, 8181, 8163, 8211, 8176, 8150,6.216609477996826
67, 8203, 8172, 8203, 8152, 8171, 8154, 8151, 8163, 8132, 8166, 8167, 8225, 8166, 8144,6.2322704792022705
68, 8196, 8161, 8127, 8159, 8177, 8157, 8164, 8172, 8137, 8183, 8190, 8223, 8174, 8149,6.2322704792022705
69, 8198, 8159, 8171, 8149, 8168, 8154, 8164, 8177, 8140, 8194, 8188, 8223, 8178, 8159,6.247796058654785
70, 8202, 8169, 8186, 8157, 8167, 8163, 8171, 8178, 8142, 8195, 8184, 8232, 8175, 8162,6.247796058654785
71, 8204, 8159, 8136, 8180, 8183, 8169, 8188, 8171, 8142, 8202, 8187, 8229, 8176, 8160,6.263147592544556
72, 8212, 8170, 8212, 8186, 8193, 8187, 8190, 8180, 8130, 8202, 8176, 8239, 8178, 8174,6.263147592544556
73, 8203, 8164, 8138, 8186, 8184, 8186, 8194, 8169, 8134, 8210, 8166, 8222, 8181, 8180,6.278814792633057
74, 8192, 8145, 8162, 8160, 8170, 8177, 8184, 8159, 8126, 8200, 8150, 8206, 8158, 8166,6.278814792633057
75, 8193, 8148, 8182, 8146, 8180, 8191, 8190, 8166, 8139, 8199, 8145, 8212, 8160, 8162,6.293836832046509
76, 8196, 8144, 8116, 8146, 8182, 8181, 8200, 8163, 8162, 8211, 8145, 8204, 8161, 8159,6.293836832046509
77, 8194, 8142, 8188, 8125, 8157, 8169, 8182, 8166, 8139, 8194, 8129, 8206, 8145, 8148,6.309221506118774
78, 8188, 8133, 8126, 8120, 8148, 8162, 8183, 8161, 8134, 8187, 8139, 8210, 8213, 8145,6.309221506118774
79, 8195, 8144, 8151, 8115, 8151, 8144, 8165, 8158, 8122, 8163, 8158, 8231, 8259, 8146,6.3247270584106445
80, 8194, 8165, 8191, 8115, 8151, 8143, 8151, 8165, 8095, 8146, 8158, 8245, 8187, 8148,6.3247270584106445
81, 8189, 8159, 8126, 8138, 8166, 8152, 8174, 8171, 8102, 8171, 8153, 8224, 8136, 8149,6.340764045715332
82, 8190, 8162, 8202, 8142, 8171, 8171, 8177, 8183, 8105, 8172, 8146, 8224, 8155, 8149,6.340764045715332
83, 8168, 8147, 8137, 8136, 8165, 8181, 8180, 8164, 8113, 8174, 8141, 8210, 8153, 8144,6.356797933578491
84, 8157, 8127, 8133, 8114, 8157, 8178, 8192, 8156, 8125, 8178, 8123, 8194, 8125, 8150,6.356797933578491
85, 8171, 8140, 8183, 8114, 8157, 8183, 8196, 8177, 8133, 8181, 8117, 8209, 8131, 8162,6.372811317443848
86, 8176, 8142, 8112, 8125, 8161, 8169, 8179, 8169, 8130, 8183, 8129, 8211, 8142, 8154,6.372811317443848
87, 8171, 8143, 8180, 8097, 8146, 8154, 8142, 8161, 8106, 8161, 8123, 8217, 8133, 8140,6.387939214706421
88, 8168, 8140, 8141, 8105, 8142, 8145, 8138, 8156, 8104, 8160, 8125, 8218, 8134, 8130,6.387939214706421
89, 8179, 8144, 8144, 8123, 8154, 8143, 8138, 8153, 8080, 8154, 8131, 8216, 8130, 8118,6.404026985168457
90, 8179, 8159, 8200, 8121, 8164, 8163, 8133, 8163, 8045, 8132, 8131, 8219, 8113, 8114,6.404026985168457
91, 8162, 8145, 8118, 8133, 8167, 8167, 8147, 8160, 8052, 8141, 8123, 8195, 8108, 8115,6.420053720474243
92, 8155, 8135, 8180, 8133, 8157, 8171, 8153, 8167, 8053, 8154, 8104, 8190, 8106, 8122,6.420053720474243
93, 8150, 8129, 8144, 8132, 8158, 8174, 8161, 8166, 8062, 8166, 8101, 8187, 8113, 8126,6.436025619506836
94, 8151, 8125, 8122, 8121, 8157, 8164, 8153, 8157, 8070, 8157, 8104, 8185, 8114, 8126,6.436025619506836
95, 8159, 8138, 8188, 8106, 8151, 8165, 8138, 8167, 8072, 8146, 8111, 8218, 8117, 8123,6.451784133911133
96, 8165, 8140, 8115, 8118, 8153, 8141, 8133, 8163, 8085, 8160, 8137, 8229, 8138, 8127,6.451784133911133
97, 8181, 8162, 8180, 8124, 8158, 8135, 8116, 8164, 8086, 8164, 8155, 8233, 8148, 8132,6.466860294342041
98, 8188, 8177, 8167, 8136, 8170, 8161, 8131, 8169, 8102, 8178, 8167, 8238, 8155, 8127,6.482030868530273
99, 8188, 8169, 8139, 8141, 8177, 8161, 8150, 8168, 8103, 8173, 8168, 8238, 8152, 8130,6.482030868530273
100, 8184, 8178, 8204, 8139, 8182, 8164, 8149, 8171, 8081, 8150, 8160, 8242, 8138, 8140,6.482030868530273
101, 8162, 8160, 8117, 8138, 8184, 8161, 8155, 8162, 8077, 8148, 8136, 8206, 8121, 8121,6.498178243637085
102, 8145, 8135, 8161, 8110, 8165, 8160, 8144, 8165, 8061, 8124, 8095, 8186, 8091, 8096,6.498178243637085
103, 8137, 8136, 8155, 8115, 8161, 8168, 8148, 8163, 8057, 8123, 8091, 8186, 8086, 8097,6.51278018951416
104, 8134, 8136, 8118, 8137, 8168, 8156, 8138, 8151, 8053, 8142, 8102, 8177, 8093, 8099,6.51278018951416
105, 8141, 8146, 8193, 8137, 8167, 8161, 8112, 8163, 8035, 8126, 8098, 8190, 8088, 8097,6.528886079788208
106, 8149, 8145, 8121, 8153, 8173, 8171, 8133, 8161, 8064, 8131, 8111, 8192, 8098, 8107,6.528886079788208
107, 8157, 8148, 8167, 8150, 8168, 8173, 8147, 8162, 8090, 8162, 8126, 8204, 8120, 8125,6.545196771621704
108, 8159, 8156, 8174, 8144, 8159, 8171, 8142, 8170, 8100, 8183, 8135, 8224, 8138, 8138,6.545196771621704
109, 8165, 8149, 8123, 8153, 8162, 8159, 8147, 8158, 8111, 8178, 8141, 8226, 8135, 8139,6.559331178665161
110, 8175, 8156, 8200, 8146, 8161, 8160, 8150, 8162, 8101, 8167, 8134, 8233, 8128, 8140,6.573900461196899
111, 8168, 8148, 8126, 8141, 8154, 8145, 8143, 8162, 8106, 8170, 8134, 8224, 8142, 8146,6.573900461196899
112, 8173, 8145, 8159, 8137, 8149, 8137, 8117, 8162, 8108, 8148, 8139, 8235, 8148, 8144,6.590169668197632
113, 8185, 8164, 8193, 8152, 8159, 8157, 8120, 8166, 8109, 8147, 8159, 8258, 8151, 8147,6.590169668197632
114, 8185, 8169, 8136, 8163, 8169, 8156, 8140, 8159, 8106, 8160, 8177, 8250, 8151, 8144,6.590169668197632
115, 8190, 8180, 8209, 8153, 8166, 8154, 8120, 8165, 8071, 8127, 8158, 8247, 8125, 8128,6.6047728061676025
116, 8180, 8173, 8144, 8167, 8167, 8152, 8113, 8158, 8062, 8121, 8148, 8230, 8110, 8116,6.6208391189575195
117, 8164, 8165, 8164, 8171, 8170, 8159, 8120, 8156, 8077, 8143, 8156, 8219, 8116, 8119,6.6208391189575195
118, 8158, 8170, 8195, 8173, 8178, 8175, 8129, 8167, 8094, 8153, 8155, 8217, 8126, 8125,6.639931917190552
119, 8159, 8158, 8126, 8183, 8176, 8171, 8141, 8156, 8095, 8151, 8140, 8196, 8126, 8123,6.639931917190552
120, 8168, 8155, 8199, 8168, 8162, 8181, 8146, 8160, 8089, 8147, 8125, 8209, 8122, 8135,6.639931917190552
121, 8170, 8141, 8141, 8158, 8161, 8178, 8153, 8167, 8115, 8173, 8132, 8224, 8137, 8144,6.653086185455322
122, 8179, 8137, 8149, 8142, 8153, 8153, 8134, 8165, 8114, 8161, 8133, 8228, 8141, 8137,6.667346239089966
123, 8190, 8160, 8199, 8149, 8152, 8154, 8128, 8167, 8118, 8141, 8145, 8248, 8144, 8143,6.667346239089966
124, 8194, 8157, 8126, 8169, 8160, 8149, 8136, 8162, 8141, 8163, 8170, 8249, 8150, 8144,6.682911396026611
125, 8185, 8154, 8191, 8141, 8144, 8145, 8106, 8162, 8097, 8140, 8149, 8240, 8119, 8116,6.682911396026611
126, 8168, 8153, 8145, 8146, 8145, 8160, 8112, 8155, 8061, 8112, 8125, 8221, 8096, 8104,6.701019525527954
127, 8175, 8153, 8145, 8181, 8169, 8181, 8147, 8157, 8083, 8142, 8136, 8220, 8115, 8126,6.701019525527954
236, 8179, 8156, 8194, 8180, 8174, 8195, 8160, 8170, 8120, 8182, 8147, 8228, 8139, 8143,6.701019525527954
0, 8161, 8138, 8102, 8160, 8168, 8183, 8168, 8163, 8146, 8187, 8138, 8211, 8141, 8141,6.714504241943359
1, 8163, 8141, 8171, 8139, 8159, 8168, 8164, 8165, 8145, 8165, 8129, 8224, 8129, 8141,6.730500221252441
2, 8176, 8150, 8152, 8147, 8163, 8158, 8161, 8165, 8148, 8174, 8149, 8239, 8140, 8147,6.730500221252441
3, 8180, 8153, 8132, 8146, 8167, 8148, 8148, 8159, 8138, 8171, 8157, 8238, 8152, 8146,6.7461724281311035
4, 8172, 8162, 8186, 8137, 8160, 8159, 8134, 8166, 8118, 8148, 8151, 8249, 8144, 8138,6.7461724281311035
5, 8159, 8148, 8108, 8146, 8165, 8157, 8142, 8158, 8123, 8155, 8157, 8244, 8141, 8121,6.761272192001343
6, 8162, 8154, 8174, 8145, 8172, 8152, 8136, 8166, 8117, 8150, 8159, 8252, 8133, 8113,6.761272192001343
7, 8161, 8168, 8160, 8157, 8173, 8161, 8138, 8170, 8119, 8149, 8164, 8243, 8125, 8117,6.777149438858032
8, 8161, 8157, 8130, 8158, 8171, 8166, 8144, 8157, 8123, 8164, 8165, 8228, 8128, 8122,6.777149438858032
9, 8168, 8159, 8198, 8152, 8178, 8182, 8154, 8167, 8121, 8177, 8159, 8251, 8141, 8136,6.7927374839782715
10, 8158, 8157, 8120, 8170, 8184, 8186, 8177, 8169, 8133, 8186, 8154, 8237, 8147, 8138,6.7927374839782715
11, 8150, 8151, 8165, 8158, 8163, 8182, 8162, 8165, 8116, 8164, 8137, 8216, 8131, 8132,6.808717727661133
12, 8147, 8139, 8151, 8142, 8150, 8178, 8162, 8159, 8118, 8171, 8140, 8227, 8139, 8140,6.808717727661133
13, 8151, 8129, 8111, 8131, 8148, 8165, 8173, 8157, 8140, 8191, 8154, 8236, 8158, 8155,6.824233770370483
14, 8165, 8149, 8193, 8120, 8148, 8177, 8159, 8171, 8138, 8181, 8149, 8249, 8161, 8159,6.824233770370483
15, 8168, 8155, 8119, 8137, 8158, 8170, 8150, 8165, 8145, 8180, 8156, 8250, 8168, 8154,6.840230941772461
16, 8176, 8159, 8162, 8136, 8155, 8154, 8136, 8165, 8148, 8169, 8178, 8272, 8172, 8157,6.840230941772461
17, 8183, 8168, 8177, 8135, 8154, 8163, 8144, 8169, 8151, 8165, 8192, 8290, 8175, 8160,6.855761528015137
18, 8180, 8165, 8128, 8147, 8164, 8161, 8154, 8159, 8149, 8172, 8188, 8269, 8170, 8151,6.855761528015137
19, 8181, 8181, 8202, 8151, 8164, 8165, 8149, 8171, 8137, 8171, 8186, 8271, 8163, 8151,6.871156692504883
20, 8171, 8171, 8134, 8160, 8166, 8170, 8163, 8169, 8145, 8178, 8193, 8261, 8175, 8155,6.871156692504883
21, 8162, 8155, 8168, 8158, 8165, 8169, 8167, 8166, 8135, 8166, 8175, 8247, 8169, 8153,6.887125015258789
22, 8156, 8158, 8183, 8161, 8163, 8178, 8177, 8172, 8134, 8172, 8164, 8243, 8161, 8155,6.887125015258789
23, 8151, 8137, 8110, 8156, 8158, 8177, 8185, 8164, 8148, 8193, 8167, 8233, 8166, 8153,6.902517080307007
24, 8155, 8135, 8192, 8128, 8152, 8185, 8175, 8169, 8150, 8185, 8156, 8245, 8160, 8154,6.902517080307007
25, 8164, 8146, 8142, 8137, 8161, 8177, 8182, 8167, 8172, 8195, 8160, 8248, 8165, 8160,6.918093919754028
26, 8186, 8156, 8158, 8143, 8156, 8158, 8172, 8161, 8164, 8187, 8171, 8259, 8171, 8158,6.918093919754028
27, 8189, 8165, 8190, 8131, 8148, 8165, 8164, 8162, 8140, 8158, 8174, 8281, 8164, 8156,6.934136152267456
28, 8179, 8157, 8129, 8134, 8154, 8164, 8168, 8158, 8132, 8152, 8172, 8272, 8157, 8153,6.934136152267456
29, 8186, 8168, 8207, 8140, 8156, 8169, 8163, 8171, 8121, 8142, 8160, 8269, 8145, 8145,6.949885606765747
30, 8185, 8173, 8151, 8167, 8164, 8175, 8179, 8170, 8130, 8154, 8163, 8258, 8142, 8140,6.949885606765747
31, 8179, 8167, 8159, 8178, 8173, 8178, 8184, 8167, 8130, 8166, 8159, 8255, 8145, 8151,6.966018199920654
32, 8170, 8164, 8202, 8171, 8174, 8190, 8176, 8173, 8120, 8161, 8148, 8268, 8150, 8157,6.966018199920654
33, 8162, 8148, 8122, 8177, 8172, 8178, 8180, 8162, 8137, 8174, 8157, 8261, 8157, 8155,6.9811482429504395
34, 8171, 8155, 8194, 8171, 8176, 8177, 8179, 8167, 8150, 8188, 8166, 8273, 8157, 8167,6.9811482429504395
35, 8171, 8154, 8148, 8168, 8181, 8180, 8184, 8168, 8162, 8196, 8164, 8273, 8164, 8166,6.9962897300720215
36, 8169, 8144, 8140, 8150, 8164, 8165, 8174, 8157, 8164, 8176, 8158, 8270, 8162, 8150,6.9962897300720215
37, 8173, 8155, 8198, 8135, 8159, 8165, 8162, 8167, 8161, 8160, 8172, 8289, 8159, 8153,7.012295961380005
38, 8165, 8159, 8124, 8151, 8177, 8155, 8168, 8167, 8156, 8164, 8178, 8273, 8154, 8142,7.012295961380005
39, 8159, 8172, 8189, 8150, 8178, 8150, 8150, 8167, 8124, 8144, 8152, 8262, 8132, 8119,7.028265476226807
40, 8165, 8181, 8164, 8170, 8183, 8162, 8151, 8166, 8124, 8154, 8164, 8271, 8139, 8133,7.028265476226807
41, 8179, 8183, 8158, 8194, 8192, 8167, 8169, 8167, 8137, 8175, 8187, 8279, 8156, 8157,7.0438501834869385
42, 8186, 8186, 8216, 8192, 8188, 8180, 8170, 8173, 8133, 8170, 8169, 8284, 8149, 8152,7.0438501834869385
43, 8192, 8166, 8130, 8195, 8184, 8176, 8178, 8166, 8154, 8186, 8164, 8266, 8158, 8151,7.059338331222534
44, 8209, 8164, 8195, 8186, 8175, 8172, 8179, 8175, 8167, 8195, 8177, 8274, 8173, 8173,7.059338331222534
45, 8209, 8163, 8172, 8184, 8171, 8170, 8181, 8169, 8167, 8193, 8179, 8283, 8170, 8177,7.076033592224121
46, 8210, 8151, 8132, 8176, 8166, 8157, 8167, 8151, 8160, 8186, 8166, 8279, 8160, 8163,7.076033592224121
47, 8215, 8163, 8204, 8161, 8158, 8161, 8156, 8164, 8154, 8181, 8170, 8294, 8163, 8164,7.091081380844116
48, 8204, 8161, 8129, 8158, 8165, 8149, 8160, 8166, 8159, 8176, 8192, 8292, 8170, 8157,7.091081380844116
49, 8198, 8159, 8177, 8146, 8164, 8139, 8140, 8164, 8132, 8147, 8183, 8294, 8152, 8139,7.107003211975098
50, 8196, 8170, 8176, 8163, 8162, 8155, 8145, 8167, 8122, 8157, 8172, 8291, 8144, 8127,7.107003211975098
51, 8197, 8166, 8134, 8177, 8165, 8161, 8155, 8167, 8129, 8174, 8176, 8272, 8147, 8129,7.122262001037598
52, 8203, 8172, 8199, 8171, 8171, 8175, 8153, 8172, 8116, 8157, 8171, 8274, 8140, 8142,7.122262001037598
53, 8197, 8169, 8130, 8192, 8183, 8182, 8184, 8163, 8130, 8166, 8163, 8259, 8144, 8152,7.138243198394775
54, 8201, 8166, 8184, 8189, 8178, 8179, 8198, 8167, 8150, 8181, 8149, 8261, 8148, 8158,7.138243198394775
55, 8214, 8167, 8187, 8176, 8166, 8174, 8182, 8171, 8158, 8186, 8157, 8281, 8157, 8163,7.153743505477905
56, 8215, 8164, 8129, 8177, 8162, 8150, 8153, 8156, 8142, 8165, 8172, 8280, 8158, 8155,7.153743505477905
57, 8218, 8184, 8211, 8178, 8164, 8148, 8133, 8162, 8113, 8136, 8182, 8291, 8146, 8144,7.169026136398315
58, 8217, 8185, 8145, 8201, 8183, 8162, 8152, 8165, 8123, 8155, 8197, 8283, 8152, 8146,7.169026136398315
59, 8215, 8185, 8180, 8214, 8199, 8182, 8167, 8166, 8125, 8165, 8189, 8274, 8156, 8157,7.184616565704346
60, 8206, 8187, 8199, 8218, 8199, 8194, 8178, 8166, 8123, 8166, 8171, 8277, 8155, 8161,7.184616565704346
61, 8192, 8154, 8116, 8205, 8181, 8174, 8173, 8153, 8126, 8173, 8160, 8256, 8143, 8148,7.200146675109863
62, 8190, 8149, 8178, 8172, 8161, 8170, 8136, 8162, 8118, 8155, 8154, 8252, 8128, 8141,7.200146675109863
63, 8200, 8158, 8128, 8174, 8169, 8165, 8132, 8163, 8139, 8159, 8166, 8262, 8150, 8157,7.216185808181763
64, 8221, 8167, 8159, 8177, 8172, 8152, 8138, 8161, 8144, 8162, 8178, 8286, 8163, 8171,7.216185808181763
65, 8229, 8182, 8195, 8186, 8174, 8163, 8139, 8170, 8131, 8155, 8190, 8301, 8155, 8165,7.23180627822876
66, 8223, 8183, 8132, 8205, 8192, 8164, 8143, 8166, 8126, 8162, 8197, 8286, 8149, 8162,7.23180627822876
67, 8212, 8183, 8203, 8190, 8193, 8165, 8136, 8168, 8111, 8147, 8177, 8278, 8130, 8160,7.247931718826294
68, 8196, 8172, 8143, 8198, 8192, 8171, 8147, 8167, 8124, 8147, 8163, 8257, 8126, 8146,7.247931718826294
69, 8207, 8180, 8160, 8229, 8203, 8183, 8159, 8165, 8143, 8167, 8160, 8257, 8138, 8153,7.263526678085327
70, 8215, 8192, 8206, 8232, 8205, 8190, 8164, 8167, 8142, 8176, 8157, 8275, 8141, 8169,7.263526678085327
71, 8194, 8159, 8122, 8215, 8186, 8169, 8166, 8156, 8138, 8165, 8156, 8252, 8132, 8163,7.279000520706177
72, 8191, 8150, 8192, 8196, 8171, 8170, 8158, 8167, 8132, 8142, 8142, 8247, 8119, 8156,7.279000520706177
73, 8196, 8153, 8145, 8198, 8178, 8179, 8167, 8165, 8145, 8145, 8132, 8243, 8118, 8157,7.294608116149902
74, 8198, 8152, 8141, 8188, 8178, 8162, 8161, 8155, 8143, 8144, 8133, 8244, 8119, 8156,7.294608116149902
75, 8217, 8169, 8209, 8188, 8180, 8157, 8148, 8166, 8137, 8147, 8152, 8280, 8129, 8160,7.309732913970947
76, 8237, 8173, 8135, 8207, 8186, 8150, 8144, 8160, 8145, 8157, 8179, 8291, 8146, 8161,7.309732913970947
77, 8231, 8181, 8194, 8189, 8176, 8149, 8116, 8159, 8122, 8133, 8174, 8290, 8133, 8149,7.325815200805664
78, 8203, 8182, 8159, 8190, 8181, 8153, 8117, 8159, 8120, 8138, 8165, 8275, 8121, 8132,7.325815200805664
79, 8202, 8172, 8143, 8201, 8194, 8156, 8140, 8162, 8136, 8153, 8176, 8266, 8132, 8125,7.341046333312988
80, 8212, 8181, 8208, 8203, 8192, 8180, 8156, 8176, 8147, 8153, 8186, 8282, 8147, 8149,7.341046333312988
81, 8199, 8175, 8132, 8227, 8197, 8185, 8183, 8170, 8171, 8170, 8174, 8269, 8148, 8163,7.356241464614868
82, 8194, 8170, 8188, 8223, 8194, 8187, 8186, 8172, 8160, 8169, 8140, 8257, 8128, 8146,7.356241464614868
83, 8190, 8165, 8160, 8213, 8190, 8199, 8192, 8172, 8153, 8171, 8138, 8250, 8127, 8139,7.372245788574219
84, 8187, 8158, 8133, 8216, 8191, 8190, 8200, 8165, 8160, 8180, 8152, 8252, 8146, 8153,7.372245788574219
85, 8207, 8171, 8215, 8221, 8190, 8192, 8205, 8174, 8167, 8183, 8163, 8281, 8167, 8171,7.38811993598938
86, 8227, 8172, 8144, 8237, 8200, 8186, 8208, 8165, 8191, 8201, 8176, 8283, 8178, 8184,7.38811993598938
87, 8225, 8172, 8195, 8220, 8194, 8174, 8182, 8165, 8179, 8189, 8169, 8285, 8161, 8186,7.403132915496826
88, 8219, 8171, 8190, 8209, 8182, 8167, 8178, 8166, 8170, 8170, 8170, 8291, 8164, 8174,7.420171499252319
89, 8222, 8162, 8142, 8200, 8182, 8156, 8180, 8156, 8178, 8162, 8174, 8276, 8171, 8156,7.420171499252319
90, 8214, 8166, 8201, 8180, 8182, 8156, 8157, 8166, 8164, 8151, 8155, 8274, 8147, 8148,7.420171499252319
91, 8198, 8159, 8131, 8189, 8179, 8148, 8157, 8163, 8159, 8156, 8158, 8272, 8142, 8150,7.435202598571777
92, 8213, 8167, 8191, 8193, 8174, 8156, 8168, 8164, 8160, 8148, 8179, 8284, 8153, 8155,7.435202598571777
93, 8223, 8184, 8193, 8203, 8189, 8179, 8183, 8179, 8176, 8153, 8193, 8292, 8155, 8157,7.451732397079468
94, 8214, 8179, 8130, 8218, 8202, 8175, 8185, 8171, 8183, 8167, 8181, 8271, 8148, 8150,7.451732397079468
95, 8214, 8187, 8212, 8221, 8199, 8175, 8176, 8167, 8163, 8158, 8161, 8274, 8138, 8144,7.466124773025513
96, 8212, 8186, 8152, 8239, 8206, 8177, 8196, 8164, 8161, 8165, 8166, 8272, 8143, 8147,7.466124773025513
97, 8215, 8181, 8184, 8234, 8208, 8179, 8201, 8170, 8156, 8164, 8161, 8273, 8133, 8157,7.4830851554870605
98, 8219, 8178, 8196, 8229, 8206, 8190, 8199, 8172, 8168, 8170, 8152, 8277, 8131, 8159,7.4830851554870605
99, 8213, 8161, 8128, 8228, 8199, 8183, 8206, 8165, 8195, 8191, 8153, 8262, 8149, 8157,7.4974799156188965
100, 8208, 8170, 8209, 8200, 8193, 8182, 8199, 8176, 8196, 8184, 8147, 8262, 8149, 8167,7.4974799156188965
101, 8196, 8165, 8140, 8188, 8189, 8165, 8188, 8167, 8193, 8174, 8138, 8252, 8138, 8157,7.513017654418945
102, 8188, 8145, 8145, 8158, 8167, 8145, 8159, 8157, 8166, 8147, 8125, 8250, 8123, 8125,7.514019012451172
103, 8179, 8152, 8182, 8141, 8168, 8163, 8153, 8166, 8146, 8126, 8129, 8253, 8120, 8115,7.530085325241089
104, 8174, 8164, 8128, 8172, 8196, 8168, 8170, 8163, 8146, 8132, 8137, 8235, 8122, 8116,7.530085325241089
105, 8180, 8179, 8205, 8188, 8197, 8167, 8165, 8169, 8131, 8134, 8133, 8252, 8119, 8121,7.545957326889038
106, 8174, 8167, 8148, 8193, 8189, 8174, 8173, 8169, 8142, 8156, 8139, 8256, 8127, 8130,7.545957326889038
107, 8177, 8151, 8158, 8193, 8188, 8184, 8189, 8174, 8166, 8173, 8138, 8240, 8126, 8135,7.5603461265563965
108, 8183, 8158, 8199, 8188, 8187, 8192, 8205, 8181, 8183, 8180, 8132, 8236, 8125, 8136,7.561344623565674
109, 8178, 8150, 8114, 8175, 8188, 8170, 8208, 8169, 8201, 8195, 8135, 8228, 8146, 8137,7.576092481613159
110, 8189, 8156, 8186, 8154, 8179, 8169, 8194, 8179, 8213, 8195, 8142, 8250, 8158, 8146,7.576092481613159
111, 8192, 8157, 8144, 8156, 8174, 8175, 8197, 8176, 8228, 8203, 8154, 8259, 8158, 8148,7.590226888656616
112, 8188, 8155, 8139, 8148, 8173, 8158, 8179, 8158, 8201, 8185, 8155, 8256, 8150, 8139,7.605816602706909
113, 8197, 8177, 8200, 8151, 8180, 8160, 8168, 8164, 8167, 8158, 8157, 8271, 8142, 8132,7.605816602706909
114, 8198, 8172, 8129, 8176, 8195, 8170, 8193, 8164, 8180, 8172, 8167, 8259, 8139, 8130,7.622132778167725
115, 8192, 8165, 8192, 8166, 8189, 8184, 8196, 8170, 8180, 8186, 8155, 8251, 8135, 8137,7.622132778167725
116, 8183, 8161, 8154, 8168, 8179, 8188, 8197, 8165, 8174, 8192, 8142, 8236, 8133, 8137,7.638332366943359
117, 8176, 8143, 8133, 8171, 8171, 8179, 8190, 8147, 8158, 8166, 8121, 8215, 8111, 8124,7.638332366943359
118, 8165, 8139, 8184, 8149, 8167, 8190, 8174, 8154, 8140, 8138, 8099, 8214, 8093, 8111,7.652183294296265
119, 8155, 8134, 8101, 8145, 8172, 8183, 8191, 8159, 8161, 8169, 8111, 8207, 8113, 8113,7.652183294296265
120, 8164, 8141, 8172, 8144, 8168, 8175, 8201, 8169, 8182, 8197, 8131, 8222, 8135, 8131,7.6681318283081055
121, 8163, 8134, 8150, 8144, 8163, 8172, 8199, 8173, 8201, 8201, 8145, 8234, 8152, 8138,7.6681318283081055
122, 8158, 8122, 8111, 8128, 8155, 8156, 8191, 8168, 8208, 8191, 8144, 8228, 8157, 8134,7.682892560958862
123, 8160, 8140, 8181, 8114, 8148, 8164, 8190, 8174, 8208, 8184, 8136, 8238, 8147, 8137,7.682892560958862
124, 8157, 8139, 8105, 8133, 8164, 8169, 8200, 8167, 8230, 8209, 8144, 8229, 8149, 8138,7.698795318603516
125, 8159, 8139, 8158, 8125, 8164, 8168, 8178, 8166, 8217, 8198, 8143, 8226, 8146, 8125,7.698795318603516
126, 8158, 8148, 8158, 8125, 8158, 8168, 8161, 8165, 8191, 8166, 8148, 8231, 8139, 8120,7.714327573776245
127, 8168, 8158, 8124, 8144, 8170, 8156, 8156, 8158, 8181, 8159, 8159, 8235, 8135, 8123,7.714327573776245
236, 8179, 8177, 8201, 8153, 8173, 8159, 8149, 8168, 8167, 8162, 8153, 8250, 8125, 8117,7.729151010513306
0, 8163, 8161, 8125, 8159, 8164, 8159, 8158, 8159, 8168, 8166, 8149, 8231, 8117, 8099,7.729151010513306
1, 8156, 8154, 8165, 8152, 8156, 8164, 8163, 8162, 8163, 8165, 8145, 8223, 8113, 8096,7.745208263397217
2, 8166, 8173, 8177, 8161, 8168, 8182, 8180, 8171, 8166, 8185, 8142, 8230, 8123, 8106,7.745208263397217
3, 8165, 8168, 8128, 8172, 8170, 8176, 8193, 8160, 8166, 8180, 8132, 8214, 8123, 8107,7.761250257492065
4, 8163, 8159, 8200, 8162, 8162, 8181, 8189, 8168, 8153, 8150, 8126, 8214, 8115, 8108,7.761250257492065
5, 8162, 8151, 8127, 8173, 8173, 8191, 8203, 8171, 8178, 8181, 8139, 8214, 8129, 8121,7.7768895626068115
6, 8162, 8154, 8161, 8171, 8171, 8196, 8204, 8172, 8198, 8202, 8137, 8219, 8135, 8134,7.7768895626068115
7, 8160, 8157, 8184, 8164, 8160, 8200, 8207, 8177, 8210, 8202, 8135, 8224, 8139, 8139,7.792261838912964
8, 8153, 8138, 8116, 8157, 8156, 8185, 8206, 8166, 8210, 8201, 8131, 8208, 8136, 8129,7.792261838912964
9, 8146, 8132, 8186, 8134, 8146, 8188, 8185, 8168, 8187, 8176, 8107, 8211, 8114, 8120,7.807876825332642
10, 8149, 8132, 8129, 8142, 8143, 8185, 8198, 8168, 8203, 8191, 8116, 8214, 8125, 8123,7.807876825332642
11, 8165, 8140, 8150, 8133, 8146, 8167, 8193, 8169, 8214, 8210, 8135, 8217, 8147, 8126,7.823048830032349
12, 8155, 8145, 8176, 8119, 8151, 8166, 8167, 8170, 8208, 8198, 8131, 8220, 8141, 8116,7.823048830032349
13, 8151, 8135, 8118, 8144, 8146, 8157, 8161, 8162, 8218, 8197, 8136, 8214, 8139, 8114,7.839038848876953
14, 8185, 8156, 8208, 8151, 8139, 8159, 8159, 8170, 8217, 8205, 8156, 8239, 8154, 8136,7.839038848876953
15, 8188, 8161, 8150, 8142, 8151, 8161, 8165, 8165, 8220, 8211, 8171, 8238, 8165, 8144,7.855112075805664
16, 8175, 8153, 8155, 8137, 8153, 8157, 8159, 8163, 8208, 8186, 8164, 8226, 8148, 8130,7.855112075805664
17, 8187, 8177, 8206, 8160, 8152, 8170, 8163, 8178, 8203, 8178, 8175, 8251, 8153, 8132,7.8709876537323
18, 8199, 8178, 8136, 8176, 8163, 8162, 8179, 8172, 8215, 8197, 8186, 8251, 8171, 8134,7.8709876537323
19, 8189, 8166, 8202, 8141, 8159, 8149, 8167, 8172, 8201, 8179, 8154, 8243, 8142, 8119,7.886883735656738
20, 8174, 8162, 8155, 8143, 8156, 8151, 8171, 8170, 8200, 8176, 8152, 8235, 8126, 8112,7.886883735656738
21, 8179, 8171, 8157, 8167, 8167, 8161, 8177, 8168, 8207, 8192, 8178, 8234, 8147, 8119,7.90177059173584
22, 8180, 8180, 8217, 8174, 8180, 8175, 8186, 8177, 8216, 8210, 8183, 8248, 8162, 8138,7.90177059173584
23, 8169, 8164, 8136, 8187, 8189, 8179, 8217, 8171, 8235, 8233, 8180, 8239, 8164, 8155,7.917811870574951
24, 8169, 8165, 8198, 8185, 8183, 8193, 8213, 8173, 8212, 8218, 8169, 8241, 8156, 8151,7.917811870574951
25, 8160, 8162, 8159, 8183, 8180, 8192, 8203, 8165, 8198, 8208, 8164, 8236, 8160, 8144,7.933334112167358
26, 8161, 8155, 8144, 8185, 8179, 8182, 8210, 8156, 8207, 8220, 8171, 8232, 8172, 8149,7.933334112167358
27, 8172, 8171, 8213, 8193, 8177, 8198, 8217, 8174, 8220, 8230, 8187, 8250, 8180, 8159,7.948739528656006
28, 8162, 8156, 8130, 8192, 8172, 8185, 8204, 8170, 8230, 8223, 8192, 8242, 8178, 8151,7.948739528656006
29, 8163, 8149, 8194, 8168, 8157, 8164, 8172, 8161, 8213, 8196, 8183, 8254, 8169, 8141,7.9643449783325195
30, 8179, 8165, 8186, 8180, 8164, 8167, 8179, 8158, 8214, 8205, 8190, 8262, 8179, 8144,7.9643449783325195
31, 8182, 8165, 8153, 8188, 8167, 8161, 8182, 8161, 8214, 8206, 8196, 8251, 8184, 8148,7.979742765426636
32, 8176, 8168, 8212, 8177, 8157, 8166, 8164, 8170, 8201, 8183, 8211, 8267, 8188, 8152,7.979742765426636
33, 8179, 8174, 8147, 8208, 8169, 8171, 8172, 8163, 8209, 8194, 8233, 8273, 8207, 8153,7.996358156204224
34, 8197, 8192, 8215, 8219, 8178, 8171, 8174, 8173, 8201, 8194, 8227, 8276, 8194, 8162,7.996358156204224
35, 8193, 8186, 8195, 8200, 8178, 8169, 8181, 8180, 8196, 8187, 8223, 8270, 8183, 8166,8.01133131980896
36, 8184, 8164, 8142, 8186, 8176, 8163, 8185, 8168, 8196, 8190, 8217, 8255, 8189, 8158,8.01133131980896
37, 8180, 8176, 8218, 8187, 8175, 8177, 8178, 8170, 8189, 8173, 8196, 8259, 8175, 8154,8.026907920837402
38, 8171, 8174, 8151, 8207, 8185, 8182, 8189, 8165, 8205, 8182, 8198, 8250, 8173, 8157,8.026907920837402
39, 8180, 8175, 8197, 8204, 8191, 8187, 8195, 8172, 8209, 8196, 8202, 8252, 8178, 8165,8.050770282745361
40, 8189, 8186, 8202, 8211, 8194, 8199, 8203, 8174, 8210, 8200, 8201, 8255, 8177, 8165,8.050770282745361
41, 8177, 8175, 8147, 8218, 8196, 8190, 8208, 8163, 8214, 8199, 8199, 8236, 8173, 8155,8.051770687103271
42, 8163, 8165, 8209, 8187, 8187, 8194, 8204, 8177, 8210, 8204, 8185, 8231, 8169, 8152,8.058151483535767
43, 8155, 8153, 8136, 8179, 8180, 8193, 8221, 8174, 8227, 8230, 8180, 8219, 8175, 8156,8.073909282684326
44, 8160, 8155, 8178, 8179, 8179, 8191, 8219, 8165, 8230, 8226, 8179, 8220, 8175, 8158,8.074909925460815
45, 8155, 8159, 8195, 8174, 8178, 8196, 8205, 8174, 8233, 8219, 8171, 8228, 8172, 8153,8.089108228683472
46, 8145, 8140, 8120, 8162, 8172, 8180, 8195, 8177, 8245, 8224, 8165, 8212, 8169, 8144,8.089108228683472
47, 8159, 8148, 8196, 8154, 8166, 8185, 8191, 8181, 8243, 8221, 8172, 8220, 8170, 8151,8.105266332626343
48, 8164, 8149, 8144, 8171, 8176, 8189, 8204, 8168, 8260, 8231, 8177, 8219, 8179, 8159,8.105266332626343
49, 8158, 8142, 8164, 8149, 8172, 8171, 8191, 8160, 8253, 8213, 8166, 8215, 8167, 8151,8.120278120040894
50, 8157, 8153, 8193, 8133, 8163, 8170, 8177, 8169, 8221, 8190, 8176, 8226, 8159, 8146,8.136403799057007
51, 8169, 8158, 8134, 8159, 8174, 8164, 8177, 8163, 8211, 8194, 8204, 8238, 8172, 8154,8.136403799057007
52, 8185, 8175, 8218, 8165, 8178, 8162, 8160, 8167, 8201, 8191, 8209, 8263, 8177, 8162,8.136403799057007
53, 8172, 8175, 8166, 8177, 8187, 8171, 8166, 8170, 8200, 8205, 8209, 8247, 8181, 8157,8.15174126625061
54, 8155, 8163, 8170, 8185, 8193, 8179, 8177, 8169, 8202, 8212, 8201, 8224, 8177, 8154,8.167907953262329
55, 8150, 8166, 8208, 8186, 8191, 8194, 8187, 8178, 8217, 8209, 8198, 8231, 8173, 8166,8.167907953262329
56, 8152, 8154, 8132, 8195, 8192, 8196, 8214, 8177, 8238, 8225, 8198, 8224, 8180, 8172,8.167907953262329
57, 8161, 8151, 8202, 8183, 8188, 8203, 8223, 8180, 8230, 8222, 8180, 8226, 8179, 8170,8.183937311172485
58, 8161, 8151, 8155, 8175, 8187, 8199, 8225, 8174, 8240, 8233, 8190, 8230, 8188, 8177,8.183937311172485
59, 8165, 8150, 8147, 8166, 8182, 8184, 8221, 8171, 8244, 8243, 8211, 8236, 8195, 8186,8.199466705322266
60, 8169, 8154, 8198, 8157, 8175, 8189, 8224, 8175, 8225, 8233, 8194, 8243, 8190, 8177,8.199466705322266
61, 8157, 8136, 8123, 8148, 8170, 8172, 8219, 8157, 8211, 8223, 8169, 8223, 8188, 8163,8.21512222290039
62, 8159, 8140, 8190, 8131, 8158, 8156, 8181, 8161, 8191, 8195, 8168, 8228, 8176, 8162,8.21512222290039
63, 8166, 8151, 8154, 8153, 8160, 8153, 8182, 8169, 8201, 8192, 8189, 8239, 8176, 8165,8.230248212814331
64, 8165, 8148, 8141, 8154, 8160, 8146, 8184, 8161, 8199, 8192, 8192, 8233, 8177, 8155,8.230248212814331
65, 8159, 8158, 8205, 8128, 8159, 8155, 8162, 8166, 8175, 8174, 8183, 8240, 8173, 8149,8.246728420257568
66, 8152, 8148, 8120, 8138, 8167, 8151, 8170, 8161, 8182, 8184, 8188, 8228, 8176, 8144,8.247057914733887
67, 8153, 8150, 8181, 8137, 8161, 8152, 8177, 8170, 8173, 8186, 8182, 8227, 8166, 8138,8.262186765670776
68, 8144, 8160, 8165, 8138, 8165, 8160, 8178, 8171, 8161, 8182, 8176, 8220, 8159, 8134,8.262186765670776
69, 8136, 8152, 8130, 8142, 8169, 8150, 8167, 8156, 8158, 8167, 8165, 8193, 8154, 8125,8.278096437454224
70, 8131, 8156, 8196, 8130, 8157, 8157, 8155, 8164, 8149, 8149, 8154, 8191, 8139, 8122,8.278096437454224
71, 8117, 8153, 8118, 8134, 8161, 8162, 8165, 8164, 8147, 8162, 8154, 8180, 8134, 8122,8.293241500854492
72, 8112, 8151, 8167, 8134, 8169, 8165, 8163, 8165, 8129, 8163, 8132, 8167, 8126, 8126,8.308959484100342
73, 8111, 8145, 8155, 8142, 8169, 8177, 8176, 8167, 8137, 8166, 8123, 8164, 8125, 8136,8.308959484100342
74, 8119, 8135, 8114, 8144, 8164, 8178, 8191, 8168, 8163, 8177, 8141, 8173, 8141, 8153,8.308959484100342
75, 8135, 8147, 8197, 8128, 8168, 8183, 8185, 8179, 8178, 8197, 8151, 8197, 8161, 8173,8.32400107383728
76, 8130, 8143, 8122, 8129, 8173, 8170, 8184, 8169, 8205, 8229, 8156, 8185, 8171, 8170,8.33902883529663
77, 8129, 8147, 8161, 8121, 8167, 8160, 8172, 8166, 8214, 8216, 8150, 8190, 8159, 8163,8.33902883529663
78, 8139, 8163, 8174, 8129, 8178, 8166, 8177, 8170, 8223, 8208, 8159, 8211, 8161, 8167,8.35470962524414
79, 8141, 8156, 8123, 8137, 8177, 8144, 8174, 8166, 8225, 8215, 8175, 8200, 8167, 8153,8.35470962524414
80, 8140, 8164, 8201, 8124, 8163, 8139, 8147, 8177, 8204, 8193, 8177, 8209, 8158, 8135,8.369758367538452
81, 8145, 8169, 8148, 8145, 8181, 8155, 8154, 8175, 8211, 8197, 8188, 8218, 8166, 8145,8.369758367538452
82, 8165, 8177, 8187, 8154, 8195, 8165, 8159, 8175, 8212, 8206, 8192, 8225, 8171, 8158,8.385823965072632
83, 8163, 8188, 8199, 8151, 8185, 8165, 8161, 8177, 8209, 8210, 8198, 8229, 8174, 8158,8.385823965072632
84, 8142, 8172, 8140, 8169, 8183, 8155, 8166, 8162, 8214, 8220, 8210, 8217, 8184, 8160,8.402252912521362
85, 8142, 8173, 8223, 8180, 8189, 8168, 8159, 8174, 8206, 8220, 8208, 8226, 8186, 8177,8.402252912521362
86, 8151, 8170, 8153, 8183, 8194, 8184, 8177, 8180, 8222, 8233, 8198, 8218, 8190, 8193,8.417881488800049
87, 8158, 8162, 8169, 8171, 8189, 8190, 8188, 8173, 8233, 8240, 8189, 8215, 8189, 8196,8.417881488800049
88, 8164, 8169, 8206, 8180, 8191, 8198, 8196, 8176, 8251, 8258, 8209, 8239, 8203, 8204,8.432106256484985
89, 8170, 8171, 8140, 8195, 8200, 8185, 8207, 8174, 8275, 8280, 8234, 8246, 8224, 8219,8.432106256484985
90, 8174, 8178, 8210, 8174, 8199, 8181, 8205, 8183, 8266, 8263, 8225, 8258, 8219, 8228,8.4482421875
91, 8165, 8162, 8148, 8156, 8195, 8179, 8214, 8177, 8266, 8258, 8218, 8251, 8219, 8221,8.4482421875
92, 8169, 8152, 8159, 8136, 8180, 8161, 8196, 8169, 8254, 8246, 8212, 8247, 8221, 8208,8.463531494140625
93, 8181, 8172, 8208, 8145, 8176, 8159, 8174, 8176, 8231, 8223, 8212, 8264, 8215, 8200,8.463531494140625
94, 8180, 8178, 8135, 8175, 8189, 8154, 8177, 8169, 8228, 8214, 8222, 8251, 8208, 8191,8.479080438613892
95, 8175, 8185, 8210, 8159, 8187, 8161, 8176, 8171, 8215, 8194, 8214, 8238, 8185, 8178,8.479080438613892
96, 8161, 8177, 8165, 8156, 8183, 8171, 8189, 8172, 8217, 8205, 8204, 8222, 8176, 8171,8.495110511779785
97, 8159, 8172, 8158, 8176, 8190, 8173, 8196, 8178, 8222, 8220, 8198, 8211, 8177, 8178,8.495110511779785
98, 8163, 8184, 8218, 8183, 8200, 8189, 8191, 8188, 8228, 8222, 8196, 8219, 8175, 8192,8.509746074676514
99, 8150, 8166, 8140, 8176, 8194, 8181, 8191, 8173, 8237, 8232, 8189, 8200, 8168, 8184,8.509746074676514
100, 8157, 8165, 8202, 8163, 8172, 8164, 8174, 8174, 8230, 8215, 8172, 8205, 8163, 8171,8.525915145874023
101, 8170, 8179, 8170, 8173, 8179, 8158, 8172, 8171, 8236, 8201, 8188, 8226, 8178, 8169,8.525915145874023
102, 8169, 8178, 8154, 8165, 8190, 8157, 8161, 8162, 8228, 8189, 8206, 8231, 8171, 8155,8.541115760803223
103, 8163, 8178, 8214, 8154, 8183, 8168, 8141, 8175, 8211, 8180, 8193, 8227, 8145, 8141,8.541115760803223
104, 8153, 8172, 8138, 8180, 8189, 8159, 8152, 8175, 8212, 8189, 8185, 8201, 8144, 8136,8.55681037902832
105, 8142, 8180, 8200, 8179, 8189, 8163, 8159, 8176, 8186, 8182, 8188, 8203, 8150, 8137,8.55681037902832
106, 8136, 8176, 8172, 8180, 8188, 8182, 8175, 8174, 8181, 8188, 8189, 8204, 8158, 8144,8.572291135787964
107, 8145, 8162, 8139, 8186, 8189, 8186, 8188, 8165, 8202, 8197, 8177, 8189, 8159, 8154,8.572291135787964
108, 8144, 8167, 8203, 8164, 8175, 8187, 8181, 8173, 8209, 8189, 8160, 8197, 8150, 8161,8.587913036346436
109, 8135, 8156, 8123, 8156, 8163, 8170, 8186, 8166, 8225, 8205, 8168, 8197, 8164, 8165,8.587913036346436
110, 8160, 8158, 8190, 8155, 8165, 8166, 8181, 8170, 8233, 8213, 8184, 8220, 8184, 8178,8.602951765060425
111, 8173, 8172, 8190, 8163, 8181, 8175, 8174, 8174, 8239, 8207, 8193, 8237, 8187, 8179,8.602951765060425
112, 8161, 8166, 8142, 8159, 8181, 8153, 8155, 8162, 8225, 8200, 8195, 8228, 8180, 8163,8.618739604949951
113, 8163, 8168, 8217, 8143, 8166, 8149, 8139, 8171, 8194, 8187, 8201, 8246, 8175, 8163,8.618739604949951
114, 8166, 8169, 8150, 8157, 8173, 8162, 8147, 8174, 8190, 8185, 8207, 8247, 8172, 8163,8.633759260177612
115, 8165, 8177, 8192, 8165, 8183, 8171, 8134, 8166, 8177, 8168, 8185, 8237, 8154, 8147,8.633759260177612
116, 8162, 8185, 8199, 8185, 8196, 8179, 8147, 8166, 8186, 8185, 8186, 8236, 8164, 8154,8.649128198623657
117, 8162, 8174, 8147, 8204, 8203, 8175, 8176, 8172, 8215, 8217, 8205, 8232, 8185, 8179,8.649128198623657
118, 8158, 8176, 8221, 8192, 8193, 8186, 8176, 8182, 8208, 8210, 8194, 8234, 8175, 8180,8.664716958999634
119, 8143, 8163, 8146, 8185, 8185, 8182, 8183, 8166, 8203, 8212, 8172, 8207, 8165, 8167,8.664716958999634
120, 8148, 8154, 8167, 8161, 8178, 8168, 8179, 8166, 8204, 8205, 8156, 8201, 8164, 8170,8.68076491355896
121, 8156, 8165, 8179, 8150, 8181, 8169, 8170, 8177, 8206, 8191, 8170, 8221, 8175, 8172,8.68076491355896
122, 8155, 8171, 8129, 8173, 8186, 8157, 8158, 8170, 8195, 8182, 8198, 8224, 8186, 8161,8.697259902954102
123, 8173, 8199, 8221, 8194, 8185, 8158, 8145, 8179, 8177, 8176, 8208, 8244, 8183, 8172,8.697259902954102
124, 8176, 8203, 8160, 8215, 8194, 8164, 8164, 8175, 8197, 8193, 8215, 8241, 8187, 8190,8.712850093841553
125, 8153, 8170, 8169, 8200, 8190, 8170, 8175, 8167, 8196, 8185, 8192, 8212, 8176, 8173,8.712850093841553
126, 8140, 8154, 8187, 8180, 8189, 8195, 8188, 8174, 8183, 8179, 8169, 8199, 8160, 8161,8.728920698165894
127, 8155, 8157, 8123, 8188, 8198, 8200, 8217, 8175, 8210, 8200, 8176, 8200, 8172, 8180,8.728920698165894
236, 8170, 8172, 8201, 8182, 8189, 8191, 8213, 8188, 8233, 8201, 8182, 8220, 8187, 8197,8.743949890136719
0, 8156, 8160, 8135, 8175, 8181, 8173, 8191, 8180, 8240, 8207, 8191, 8213, 8189, 8175,8.743949890136719
1, 8163, 8166, 8152, 8167, 8185, 8161, 8170, 8171, 8227, 8201, 8209, 8224, 8185, 8160,8.759457349777222
2, 8183, 8203, 8216, 8185, 8194, 8172, 8178, 8186, 8218, 8193, 8222, 8263, 8189, 8186,8.760457754135132
3, 8174, 8193, 8143, 8208, 8200, 8167, 8193, 8179, 8209, 8197, 8209, 8246, 8184, 8188,8.77511477470398
4, 8165, 8180, 8209, 8197, 8201, 8176, 8188, 8177, 8184, 8187, 8188, 8228, 8162, 8178,8.77511477470398
5, 8170, 8178, 8160, 8206, 8209, 8192, 8208, 8180, 8205, 8204, 8191, 8226, 8170, 8195,8.790778160095215
6, 8176, 8169, 8154, 8198, 8197, 8180, 8209, 8175, 8217, 8211, 8177, 8213, 8167, 8201,8.790778160095215
7, 8171, 8172, 8209, 8181, 8184, 8175, 8187, 8170, 8207, 8198, 8162, 8216, 8154, 8185,8.806960105895996
8, 8174, 8175, 8132, 8193, 8193, 8166, 8179, 8162, 8225, 8200, 8185, 8228, 8173, 8176,8.806960105895996
9, 8197, 8195, 8199, 8186, 8198, 8164, 8162, 8176, 8217, 8191, 8207, 8259, 8181, 8180,8.822615623474121
10, 8201, 8203, 8171, 8194, 8211, 8170, 8170, 8179, 8204, 8204, 8215, 8260, 8177, 8180,8.822615623474121
11, 8191, 8198, 8159, 8217, 8225, 8176, 8184, 8171, 8213, 8220, 8213, 8245, 8177, 8182,8.838065385818481
12, 8182, 8206, 8219, 8233, 8223, 8192, 8185, 8181, 8221, 8223, 8199, 8243, 8176, 8186,8.838065385818481
13, 8170, 8191, 8133, 8237, 8221, 8187, 8199, 8176, 8213, 8232, 8184, 8219, 8174, 8180,8.854220867156982
14, 8168, 8180, 8185, 8198, 8211, 8188, 8200, 8177, 8193, 8224, 8172, 8219, 8165, 8178,8.854220867156982
15, 8167, 8177, 8159, 8177, 8204, 8192, 8203, 8180, 8220, 8229, 8186, 8219, 8169, 8181,8.869338989257812
16, 8165, 8175, 8133, 8187, 8207, 8176, 8198, 8175, 8247, 8233, 8204, 8212, 8178, 8177,8.869338989257812
17, 8169, 8188, 8205, 8194, 8211, 8174, 8187, 8182, 8230, 8216, 8207, 8232, 8181, 8176,8.88487982749939
18, 8174, 8184, 8133, 8198, 8216, 8162, 8182, 8172, 8227, 8214, 8218, 8231, 8186, 8175,8.88487982749939
19, 8190, 8197, 8199, 8196, 8217, 8158, 8166, 8178, 8229, 8211, 8228, 8244, 8186, 8177,8.899988174438477
20, 8189, 8211, 8195, 8217, 8228, 8173, 8182, 8184, 8235, 8214, 8234, 8256, 8186, 8172,8.899988174438477
21, 8170, 8201, 8144, 8221, 8232, 8164, 8192, 8171, 8238, 8211, 8223, 8228, 8169, 8154,8.91595458984375
22, 8166, 8200, 8216, 8201, 8222, 8163, 8173, 8177, 8230, 8194, 8204, 8213, 8150, 8148,8.91595458984375
23, 8158, 8188, 8144, 8214, 8219, 8172, 8178, 8177, 8235, 8203, 8204, 8205, 8158, 8158,8.93065595626831
24, 8156, 8189, 8186, 8220, 8216, 8178, 8184, 8177, 8222, 8205, 8198, 8211, 8158, 8167,8.93065595626831
25, 8158, 8193, 8187, 8224, 8214, 8180, 8188, 8178, 8219, 8217, 8192, 8211, 8158, 8162,8.947026252746582
26, 8152, 8171, 8127, 8225, 8206, 8175, 8192, 8176, 8224, 8220, 8187, 8191, 8159, 8152,8.947026252746582
27, 8145, 8173, 8199, 8206, 8198, 8191, 8183, 8182, 8214, 8195, 8170, 8196, 8148, 8155,8.960625886917114
28, 8143, 8172, 8137, 8210, 8205, 8195, 8194, 8169, 8230, 8211, 8172, 8196, 8156, 8159,8.97623872756958
29, 8155, 8169, 8177, 8209, 8205, 8187, 8197, 8166, 8231, 8218, 8173, 8195, 8156, 8159,8.97623872756958
30, 8160, 8179, 8192, 8208, 8207, 8191, 8200, 8178, 8234, 8205, 8173, 8202, 8149, 8154,8.991301774978638
31, 8169, 8182, 8127, 8210, 8207, 8176, 8206, 8170, 8261, 8218, 8187, 8207, 8167, 8157,8.991301774978638
