COUNTER,F3,FC5,AF3,F7,T7,P7,O1,O2,P8,T8,F8,AF4,FC6,F4,Timestamp,word
53, 8219, 8171, 8156, 8131, 8159, 8162, 8160, 8176, 8174, 8188, 8149, 8184, 8282, 9631,0.00347137451171875,XXXXX
54, 8230, 8183, 8182, 8148, 8161, 8152, 8162, 8174, 8166, 8187, 8172, 8194, 8291, 9662,0.01001882553100586,XXXXX
55, 8054, 8151, 8202, 8224, 8170, 8175, 8173, 8175, 8193, 8188, 8251, 8227, 8265, 9562,0.017850399017333984,XXXXX
56, 8268, 8200, 8141, 8097, 8160, 8147, 8151, 8182, 8165, 8181, 8098, 8151, 8306, 9730,0.02591991424560547,XXXXX
57, 8066, 8158, 8209, 8234, 8178, 8181, 8168, 8172, 8181, 8189, 8236, 8216, 8271, 9595,0.03388357162475586,XXXXX
58, 8210, 8175, 8162, 8150, 8168, 8162, 8165, 8179, 8178, 8188, 8161, 8177, 8282, 9657,0.04181051254272461,XXXXX
59, 8248, 8192, 8169, 8158, 8164, 8154, 8157, 8172, 8164, 8187, 8133, 8166, 8294, 9658,0.049669742584228516,XXXXX
60, 8043, 8142, 8213, 8256, 8177, 8190, 8168, 8171, 8190, 8192, 8226, 8206, 8260, 9535,0.05761075019836426,XXXXX
61, 8320, 8190, 8127, 8077, 8167, 8156, 8157, 8185, 8168, 8180, 8065, 8126, 8300, 9735,0.06686949729919434,XXXXX
62, 8129, 8166, 8173, 8192, 8175, 8174, 8173, 8172, 8182, 8185, 8196, 8203, 8267, 9582,0.0743100643157959,XXXXX
63, 8175, 8173, 8152, 8152, 8160, 8164, 8167, 8170, 8179, 8188, 8155, 8186, 8273, 9601,0.08062052726745605,XXXXX
64, 8269, 8192, 8153, 8126, 8155, 8156, 8157, 8170, 8163, 8184, 8119, 8162, 8299, 9683,0.09020447731018066,XXXXX
65, 8052, 8148, 8189, 8225, 8172, 8182, 8171, 8170, 8199, 8187, 8244, 8225, 8261, 9553,0.0965890884399414,XXXXX
66, 8263, 8199, 8101, 8057, 8163, 8144, 8156, 8176, 8175, 8182, 8084, 8150, 8296, 9691,0.10614657402038574,XXXXX
67, 8089, 8166, 8176, 8188, 8170, 8172, 8166, 8163, 8175, 8192, 8216, 8207, 8273, 9550,0.11386799812316895,XXXXX
68, 8147, 8160, 8182, 8175, 8162, 8171, 8169, 8176, 8182, 8189, 8205, 8196, 8278, 9591,0.12169218063354492,XXXXX
69, 8277, 8195, 8150, 8115, 8167, 8154, 8167, 8179, 8171, 8178, 8102, 8154, 8302, 9695,0.1294078826904297,XXXXX
70, 8028, 8147, 8188, 8237, 8182, 8187, 8182, 8165, 8195, 8189, 8229, 8218, 8253, 9517,0.13719654083251953,XXXXX
71, 8276, 8191, 8120, 8073, 8158, 8149, 8160, 8173, 8165, 8187, 8091, 8146, 8297, 9680,0.14491629600524902,XXXXX
72, 8153, 8171, 8171, 8160, 8169, 8169, 8165, 8170, 8177, 8184, 8176, 8191, 8286, 9599,0.15287041664123535,XXXXX
73, 8116, 8161, 8165, 8164, 8173, 8177, 8167, 8178, 8194, 8184, 8194, 8201, 8269, 9571,0.16058063507080078,XXXXX
74, 8255, 8200, 8139, 8089, 8163, 8151, 8153, 8177, 8165, 8191, 8118, 8164, 8299, 9678,0.16829156875610352,XXXXX
75, 8029, 8149, 8204, 8232, 8172, 8184, 8167, 8166, 8184, 8199, 8261, 8229, 8262, 9532,0.17598390579223633,XXXXX
76, 8281, 8187, 8136, 8097, 8158, 8157, 8154, 8181, 8167, 8182, 8109, 8151, 8298, 9688,0.18374919891357422,XXXXX
77, 8180, 8178, 8181, 8183, 8172, 8172, 8161, 8181, 8170, 8184, 8163, 8180, 8291, 9615,0.19153642654418945,XXXXX
78, 8102, 8157, 8184, 8195, 8173, 8181, 8169, 8174, 8187, 8193, 8197, 8193, 8274, 9564,0.2012183666229248,XXXXX
79, 8301, 8193, 8126, 8064, 8155, 8145, 8154, 8170, 8162, 8186, 8096, 8143, 8301, 9691,0.20763516426086426,XXXXX
80, 8042, 8145, 8200, 8224, 8170, 8182, 8169, 8170, 8185, 8193, 8262, 8229, 8260, 9519,0.21549558639526367,XXXXX
81, 8244, 8184, 8158, 8135, 8168, 8165, 8159, 8183, 8173, 8186, 8137, 8165, 8296, 9682,0.22350120544433594,XXXXX
82, 8244, 8181, 8177, 8174, 8178, 8170, 8165, 8171, 8170, 8183, 8145, 8163, 8290, 9697,0.2315692901611328,XXXXX
83, 8152, 8153, 8175, 8193, 8173, 8180, 8173, 8170, 8184, 8186, 8188, 8180, 8261, 9610,0.23952984809875488,XXXXX
84, 8325, 8199, 8124, 8074, 8157, 8155, 8155, 8180, 8161, 8181, 8080, 8134, 8303, 9695,0.2476353645324707,XXXXX
85, 8050, 8149, 8203, 8232, 8175, 8187, 8170, 8170, 8187, 8189, 8251, 8229, 8266, 9500,0.25536227226257324,XXXXX
86, 8210, 8178, 8159, 8132, 8162, 8154, 8159, 8174, 8175, 8184, 8153, 8174, 8285, 9647,0.26327991485595703,XXXXX
87, 8211, 8188, 8176, 8159, 8164, 8160, 8158, 8172, 8167, 8184, 8154, 8169, 8291, 9688,0.2695193290710449,XXXXX
88, 8086, 8151, 8191, 8215, 8170, 8187, 8172, 8170, 8190, 8192, 8218, 8203, 8268, 9580,0.27765607833862305,XXXXX
89, 8315, 8195, 8126, 8079, 8157, 8150, 8155, 8170, 8163, 8181, 8073, 8140, 8304, 9697,0.2871098518371582,XXXXX
90, 8054, 8149, 8203, 8233, 8173, 8181, 8168, 8158, 8187, 8184, 8233, 8225, 8263, 9518,0.2936854362487793,XXXXX
91, 8183, 8169, 8160, 8132, 8162, 8160, 8161, 8174, 8180, 8183, 8165, 8186, 8283, 9633,0.3026423454284668,XXXXX
92, 8245, 8195, 8156, 8125, 8169, 8155, 8158, 8174, 8160, 8183, 8138, 8168, 8297, 9678,0.3107185363769531,XXXXX
93, 8062, 8154, 8196, 8234, 8182, 8185, 8170, 8163, 8187, 8189, 8233, 8212, 8259, 9524,0.31850409507751465,XXXXX
94, 8313, 8191, 8139, 8094, 8164, 8151, 8156, 8166, 8168, 8185, 8088, 8143, 8303, 9699,0.3265566825866699,XXXXX
95, 8141, 8157, 8188, 8209, 8175, 8178, 8170, 8164, 8182, 8195, 8210, 8203, 8275, 9601,0.3329455852508545,XXXXX
96, 8216, 8175, 8133, 8119, 8168, 8161, 8161, 8174, 8178, 8190, 8147, 8170, 8280, 9645,0.3409101963043213,XXXXX
97, 8245, 8191, 8157, 8115, 8166, 8148, 8151, 8165, 8163, 8186, 8139, 8171, 8298, 9645,0.34884166717529297,XXXXX
98, 8021, 8143, 8243, 8262, 8174, 8183, 8167, 8165, 8189, 8195, 8276, 8235, 8265, 9514,0.35689568519592285,XXXXX
99, 8285, 8198, 8145, 8090, 8159, 8149, 8155, 8181, 8167, 8183, 8083, 8132, 8304, 9734,0.36495137214660645,XXXXX
100, 8117, 8171, 8167, 8179, 8177, 8171, 8165, 8163, 8178, 8186, 8177, 8178, 8276, 9589,0.3729856014251709,XXXXX
101, 8172, 8162, 8164, 8153, 8169, 8171, 8161, 8166, 8181, 8190, 8179, 8189, 8278, 9573,0.3807847499847412,XXXXX
102, 8303, 8183, 8164, 8118, 8159, 8155, 8157, 8172, 8164, 8182, 8142, 8182, 8303, 9677,0.38880038261413574,XXXXX
103, 8046, 8140, 8201, 8232, 8173, 8183, 8174, 8168, 8188, 8185, 8267, 8233, 8264, 9563,0.3966939449310303,XXXXX
104, 8246, 8193, 8124, 8078, 8167, 8148, 8157, 8176, 8159, 8180, 8094, 8144, 8304, 9719,0.4058718681335449,XXXXX
105, 8088, 8166, 8191, 8202, 8181, 8176, 8166, 8162, 8169, 8188, 8196, 8204, 8281, 9573,0.41155552864074707,XXXXX
106, 8115, 8156, 8185, 8200, 8170, 8178, 8167, 8170, 8183, 8192, 8206, 8200, 8273, 9583,0.42093729972839355,XXXXX
107, 8315, 8200, 8149, 8114, 8161, 8152, 8156, 8186, 8160, 8183, 8106, 8144, 8302, 9754,0.42874932289123535,XXXXX
108, 8070, 8151, 8209, 8247, 8178, 8189, 8172, 8177, 8184, 8189, 8241, 8209, 8257, 9589,0.4367239475250244,XXXXX
109, 8281, 8183, 8143, 8108, 8165, 8157, 8154, 8172, 8165, 8183, 8100, 8138, 8295, 9715,0.4445652961730957,XXXXX
110, 8187, 8169, 8179, 8188, 8179, 8167, 8161, 8163, 8174, 8187, 8167, 8178, 8283, 9637,0.45254969596862793,XXXXX
111, 8143, 8156, 8173, 8189, 8177, 8176, 8172, 8176, 8190, 8187, 8188, 8189, 8263, 9600,0.4602513313293457,XXXXX
112, 8326, 8192, 8136, 8089, 8160, 8153, 8161, 8177, 8165, 8177, 8079, 8135, 8300, 9733,0.4679694175720215,XXXXX
113, 8079, 8143, 8207, 8241, 8177, 8186, 8173, 8163, 8188, 8187, 8221, 8204, 8268, 9569,0.4756896495819092,XXXXX
114, 8287, 8183, 8131, 8101, 8167, 8153, 8158, 8173, 8170, 8186, 8088, 8142, 8294, 9695,0.4835093021392822,XXXXX
115, 8221, 8174, 8156, 8149, 8166, 8165, 8161, 8168, 8173, 8187, 8147, 8177, 8285, 9640,0.49126529693603516,XXXXX
116, 8113, 8150, 8182, 8199, 8168, 8182, 8169, 8170, 8197, 8187, 8211, 8206, 8271, 9584,0.4991414546966553,XXXXX
117, 8307, 8197, 8134, 8092, 8164, 8150, 8155, 8178, 8165, 8180, 8081, 8139, 8309, 9727,0.5068180561065674,XXXXX
118, 8080, 8145, 8187, 8225, 8177, 8180, 8169, 8166, 8182, 8189, 8226, 8209, 8261, 9544,0.5146617889404297,XXXXX
119, 8266, 8178, 8129, 8094, 8164, 8155, 8160, 8166, 8175, 8183, 8116, 8154, 8283, 9651,0.5227348804473877,XXXXX
120, 8197, 8187, 8158, 8137, 8168, 8161, 8167, 8168, 8168, 8181, 8148, 8173, 8285, 9615,0.5302526950836182,XXXXX
121, 8045, 8148, 8197, 8219, 8169, 8180, 8173, 8178, 8185, 8186, 8245, 8221, 8261, 9526,0.5381944179534912,XXXXX
122, 8310, 8190, 8155, 8100, 8163, 8147, 8149, 8178, 8160, 8181, 8107, 8153, 8306, 9726,0.5463676452636719,XXXXX
123, 8108, 8148, 8213, 8234, 8184, 8186, 8169, 8161, 8183, 8190, 8222, 8208, 8268, 9596,0.5542910099029541,XXXXX
124, 8232, 8174, 8147, 8127, 8169, 8166, 8164, 8175, 8177, 8183, 8126, 8158, 8286, 9669,0.5621976852416992,XXXXX
125, 8224, 8187, 8158, 8155, 8172, 8161, 8159, 8176, 8169, 8178, 8136, 8161, 8297, 9652,0.5699560642242432,XXXXX
126, 8078, 8143, 8191, 8239, 8183, 8187, 8174, 8170, 8195, 8189, 8228, 8206, 8262, 9541,0.5779092311859131,XXXXX
127, 8322, 8188, 8120, 8068, 8160, 8146, 8158, 8172, 8167, 8185, 8081, 8151, 8301, 9694,0.5856220722198486,XXXXX
238, 8077, 8153, 8192, 8207, 8171, 8171, 8164, 8161, 8180, 8188, 8232, 8230, 8266, 9532,0.5933763980865479,XXXXX
0, 8170, 8170, 8163, 8154, 8167, 8166, 8160, 8171, 8175, 8188, 8170, 8183, 8276, 9622,0.6011154651641846,XXXXX
1, 8235, 8186, 8156, 8134, 8162, 8163, 8162, 8170, 8162, 8191, 8130, 8158, 8295, 9678,0.6089591979980469,XXXXX
2, 8057, 8142, 8195, 8225, 8172, 8188, 8172, 8166, 8193, 8197, 8234, 8210, 8263, 9536,0.6169283390045166,XXXXX
3, 8329, 8194, 8126, 8071, 8164, 8147, 8153, 8175, 8167, 8180, 8078, 8137, 8305, 9695,0.6248619556427002,XXXXX
4, 8117, 8163, 8188, 8199, 8172, 8175, 8166, 8167, 8174, 8180, 8208, 8206, 8274, 9542,0.6326632499694824,XXXXX
5, 8142, 8167, 8172, 8162, 8162, 8171, 8161, 8173, 8180, 8183, 8184, 8192, 8278, 9594,0.6406466960906982,XXXXX
6, 8263, 8193, 8162, 8128, 8167, 8154, 8155, 8173, 8165, 8184, 8130, 8168, 8302, 9716,0.6485733985900879,XXXXX
7, 8065, 8149, 8201, 8237, 8180, 8183, 8173, 8167, 8188, 8192, 8247, 8225, 8263, 9568,0.656505823135376,XXXXX
8, 8281, 8198, 8131, 8079, 8165, 8151, 8159, 8174, 8165, 8184, 8090, 8144, 8299, 9706,0.6642792224884033,XXXXX
9, 8098, 8166, 8200, 8203, 8181, 8175, 8172, 8164, 8176, 8185, 8197, 8195, 8272, 9600,0.6722574234008789,XXXXX
10, 8129, 8160, 8177, 8182, 8171, 8174, 8169, 8173, 8184, 8185, 8172, 8178, 8269, 9614,0.6803278923034668,XXXXX
11, 8298, 8195, 8136, 8103, 8165, 8161, 8158, 8173, 8166, 8186, 8083, 8138, 8301, 9694,0.6883907318115234,XXXXX
12, 8066, 8144, 8202, 8239, 8186, 8195, 8174, 8160, 8193, 8195, 8238, 8217, 8262, 9522,0.6963644027709961,XXXXX
13, 8268, 8192, 8138, 8099, 8161, 8150, 8154, 8172, 8167, 8183, 8104, 8147, 8294, 9680,0.7043967247009277,XXXXX
14, 8119, 8181, 8178, 8191, 8165, 8168, 8165, 8166, 8170, 8187, 8189, 8195, 8279, 9589,0.7122676372528076,XXXXX
15, 8126, 8163, 8171, 8183, 8173, 8176, 8176, 8169, 8184, 8192, 8193, 8201, 8273, 9584,0.7203061580657959,XXXXX
16, 8342, 8196, 8143, 8089, 8165, 8146, 8157, 8169, 8159, 8183, 8087, 8150, 8307, 9701,0.7266454696655273,XXXXX
17, 8064, 8145, 8214, 8244, 8173, 8182, 8171, 8164, 8186, 8193, 8251, 8227, 8263, 9506,0.7360448837280273,XXXXX
18, 8234, 8189, 8131, 8093, 8157, 8153, 8166, 8177, 8173, 8187, 8112, 8159, 8296, 9664,0.7440569400787354,XXXXX
19, 8141, 8185, 8150, 8139, 8169, 8157, 8168, 8167, 8175, 8179, 8155, 8186, 8283, 9614,0.7520506381988525,XXXXX
20, 8076, 8157, 8187, 8202, 8175, 8169, 8170, 8172, 8186, 8182, 8226, 8216, 8260, 9543,0.7599773406982422,XXXXX
21, 8314, 8192, 8169, 8124, 8163, 8152, 8156, 8186, 8155, 8181, 8124, 8161, 8301, 9726,0.7679810523986816,XXXXX
22, 8092, 8149, 8214, 8240, 8174, 8188, 8172, 8175, 8184, 8190, 8230, 8210, 8268, 9613,0.7755591869354248,XXXXX
23, 8271, 8185, 8135, 8100, 8168, 8153, 8165, 8174, 8174, 8182, 8094, 8144, 8301, 9701,0.7821364402770996,XXXXX
24, 8216, 8175, 8170, 8162, 8177, 8159, 8172, 8168, 8169, 8186, 8159, 8182, 8297, 9598,0.7894868850708008,XXXXX
25, 8086, 8144, 8190, 8208, 8174, 8181, 8175, 8170, 8184, 8196, 8230, 8216, 8265, 9510,0.79891037940979,XXXXX
26, 8321, 8202, 8126, 8066, 8156, 8147, 8154, 8173, 8158, 8185, 8084, 8148, 8305, 9716,0.8068299293518066,XXXXX
27, 8092, 8157, 8191, 8220, 8171, 8178, 8170, 8163, 8184, 8186, 8224, 8220, 8265, 9571,0.8148636817932129,XXXXX
28, 8206, 8173, 8138, 8121, 8163, 8155, 8156, 8175, 8178, 8184, 8130, 8174, 8278, 9645,0.8227672576904297,XXXXX
29, 8188, 8184, 8153, 8138, 8172, 8154, 8154, 8169, 8167, 8183, 8150, 8185, 8287, 9630,0.8306350708007812,XXXXX
30, 8056, 8153, 8195, 8220, 8177, 8180, 8171, 8166, 8190, 8187, 8246, 8225, 8266, 9539,0.838477373123169,XXXXX
31, 8290, 8193, 8145, 8094, 8160, 8153, 8156, 8174, 8165, 8176, 8095, 8144, 8303, 9721,0.8463163375854492,XXXXX
32, 8053, 8150, 8212, 8242, 8178, 8187, 8174, 8169, 8180, 8186, 8220, 8201, 8267, 9565,0.854067325592041,XXXXX
33, 8206, 8176, 8158, 8147, 8169, 8163, 8174, 8179, 8177, 8188, 8131, 8151, 8286, 9649,0.8619444370269775,XXXXX
34, 8295, 8191, 8154, 8129, 8168, 8150, 8165, 8172, 8169, 8182, 8116, 8147, 8299, 9708,0.8697056770324707,XXXXX
35, 8089, 8145, 8198, 8231, 8178, 8182, 8175, 8167, 8191, 8189, 8236, 8214, 8261, 9582,0.8774282932281494,XXXXX
36, 8299, 8201, 8124, 8076, 8163, 8148, 8164, 8178, 8163, 8188, 8075, 8137, 8303, 9720,0.8851344585418701,XXXXX
37, 8100, 8167, 8179, 8197, 8176, 8177, 8169, 8168, 8179, 8191, 8193, 8193, 8275, 9550,0.8929457664489746,XXXXX
38, 8188, 8167, 8163, 8153, 8167, 8172, 8160, 8174, 8180, 8186, 8173, 8188, 8282, 9595,0.9006397724151611,XXXXX
39, 8276, 8188, 8167, 8132, 8159, 8155, 8159, 8170, 8164, 8184, 8152, 8183, 8301, 9684,0.9087347984313965,XXXXX
40, 8044, 8148, 8203, 8233, 8167, 8182, 8171, 8165, 8192, 8189, 8257, 8227, 8260, 9560,0.9182190895080566,XXXXX
41, 8260, 8198, 8123, 8075, 8155, 8151, 8153, 8182, 8166, 8178, 8087, 8143, 8301, 9721,0.9246211051940918,XXXXX
42, 8095, 8166, 8190, 8203, 8173, 8173, 8173, 8176, 8175, 8186, 8221, 8214, 8278, 9591,0.9324746131896973,XXXXX
43, 8144, 8164, 8174, 8174, 8170, 8169, 8171, 8176, 8180, 8187, 8210, 8202, 8274, 9613,0.9404783248901367,XXXXX
44, 8249, 8201, 8140, 8108, 8164, 8154, 8161, 8174, 8157, 8181, 8104, 8146, 8299, 9704,0.9483458995819092,XXXXX
45, 8023, 8156, 8198, 8241, 8178, 8185, 8178, 8169, 8186, 8188, 8220, 8201, 8260, 9546,0.9564082622528076,XXXXX
46, 8301, 8190, 8142, 8106, 8165, 8151, 8158, 8175, 8168, 8183, 8095, 8139, 8296, 9691,0.9642791748046875,XXXXX
47, 8156, 8160, 8189, 8202, 8173, 8174, 8162, 8166, 8173, 8192, 8201, 8199, 8278, 9574,0.9722986221313477,XXXXX
48, 8107, 8154, 8169, 8178, 8169, 8173, 8165, 8173, 8187, 8192, 8199, 8197, 8274, 9573,0.9803359508514404,XXXXX
49, 8272, 8199, 8134, 8095, 8169, 8148, 8158, 8169, 8167, 8182, 8092, 8138, 8303, 9702,0.9883639812469482,XXXXX
50, 8056, 8146, 8197, 8242, 8183, 8187, 8175, 8161, 8189, 8191, 8232, 8209, 8260, 9531,0.9947121143341064,XXXXX
51, 8280, 8179, 8128, 8094, 8157, 8153, 8154, 8179, 8168, 8186, 8103, 8152, 8296, 9671,1.0028400421142578,XXXXX
52, 8151, 8172, 8170, 8162, 8161, 8165, 8153, 8173, 8173, 8189, 8185, 8196, 8286, 9586,1.0118803977966309,XXXXX
53, 8076, 8153, 8185, 8190, 8169, 8179, 8164, 8170, 8189, 8192, 8221, 8206, 8270, 9552,1.0199005603790283,XXXXX
54, 8304, 8188, 8151, 8104, 8166, 8151, 8153, 8175, 8161, 8183, 8095, 8139, 8302, 9737,1.0277650356292725,XXXXX
55, 8084, 8145, 8209, 8244, 8181, 8181, 8168, 8166, 8183, 8190, 8232, 8204, 8260, 9590,1.035726547241211,XXXXX
56, 8275, 8189, 8139, 8103, 8171, 8154, 8163, 8170, 8171, 8185, 8106, 8143, 8292, 9695,1.0436196327209473,XXXXX
57, 8200, 8177, 8182, 8174, 8174, 8168, 8165, 8166, 8169, 8185, 8148, 8168, 8290, 9641,1.0516293048858643,XXXXX
58, 8076, 8145, 8195, 8220, 8171, 8184, 8169, 8174, 8187, 8189, 8197, 8194, 8267, 9581,1.0578713417053223,XXXXX
59, 8300, 8197, 8126, 8074, 8160, 8150, 8161, 8173, 8163, 8181, 8073, 8139, 8302, 9714,1.065880537033081,XXXXX
60, 8059, 8149, 8195, 8224, 8171, 8182, 8174, 8158, 8188, 8190, 8247, 8226, 8259, 9501,1.0737619400024414,XXXXX
61, 8212, 8176, 8145, 8120, 8154, 8155, 8156, 8177, 8178, 8187, 8153, 8178, 8281, 9624,1.0817809104919434,XXXXX
62, 8218, 8185, 8159, 8134, 8165, 8157, 8163, 8181, 8168, 8184, 8157, 8180, 8288, 9666,1.0906147956848145,XXXXX
63, 8081, 8150, 8182, 8199, 8175, 8179, 8173, 8171, 8186, 8189, 8226, 8210, 8266, 9566,1.0987217426300049,XXXXX
64, 8293, 8193, 8121, 8071, 8157, 8144, 8149, 8168, 8162, 8182, 8094, 8149, 8307, 9701,1.1067450046539307,XXXXX
65, 8064, 8149, 8192, 8218, 8174, 8178, 8169, 8164, 8184, 8190, 8252, 8227, 8268, 9555,1.1148080825805664,XXXXX
66, 8185, 8171, 8156, 8130, 8167, 8161, 8163, 8178, 8177, 8191, 8168, 8179, 8283, 9646,1.1211698055267334,XXXXX
67, 8182, 8186, 8160, 8135, 8165, 8154, 8159, 8168, 8166, 8184, 8143, 8173, 8294, 9643,1.129154920578003,XXXXX
68, 8034, 8146, 8196, 8239, 8176, 8184, 8179, 8161, 8191, 8186, 8242, 8223, 8261, 9522,1.1369647979736328,XXXXX
69, 8339, 8195, 8148, 8108, 8166, 8154, 8165, 8174, 8163, 8182, 8099, 8150, 8301, 9718,1.144944190979004,XXXXX
70, 8134, 8161, 8207, 8225, 8181, 8181, 8173, 8165, 8178, 8190, 8210, 8206, 8272, 9599,1.1527888774871826,XXXXX
71, 8196, 8175, 8149, 8132, 8163, 8168, 8166, 8166, 8179, 8186, 8134, 8168, 8285, 9636,1.1609923839569092,XXXXX
72, 8238, 8191, 8146, 8113, 8156, 8157, 8155, 8168, 8165, 8184, 8132, 8172, 8298, 9627,1.1687545776367188,XXXXX
73, 8028, 8145, 8206, 8235, 8174, 8186, 8167, 8172, 8190, 8191, 8274, 8241, 8255, 9495,1.176687479019165,XXXXX
74, 8279, 8198, 8132, 8088, 8160, 8149, 8153, 8172, 8163, 8185, 8094, 8144, 8299, 9722,1.1864778995513916,XXXXX
75, 8096, 8167, 8188, 8211, 8168, 8177, 8164, 8160, 8176, 8196, 8192, 8189, 8275, 9601,1.1925134658813477,XXXXX
76, 8165, 8160, 8170, 8165, 8165, 8172, 8169, 8178, 8179, 8194, 8163, 8178, 8274, 9606,1.1998472213745117,XXXXX
77, 8302, 8192, 8146, 8107, 8161, 8152, 8167, 8178, 8158, 8187, 8102, 8150, 8299, 9680,1.2076623439788818,XXXXX
78, 8063, 8152, 8194, 8227, 8169, 8184, 8170, 8163, 8188, 8192, 8247, 8224, 8266, 9525,1.2168622016906738,XXXXX
79, 8253, 8186, 8129, 8082, 8160, 8152, 8150, 8170, 8170, 8180, 8109, 8166, 8304, 9683,1.224649429321289,XXXXX
80, 8090, 8153, 8187, 8197, 8178, 8172, 8173, 8166, 8174, 8187, 8205, 8207, 8278, 9579,1.2324416637420654,XXXXX
81, 8142, 8157, 8174, 8182, 8172, 8170, 8174, 8178, 8178, 8192, 8196, 8188, 8273, 9592,1.240337610244751,XXXXX
82, 8323, 8197, 8151, 8113, 8163, 8153, 8151, 8179, 8160, 8180, 8104, 8148, 8304, 9710,1.2481584548950195,XXXXX
83, 8056, 8141, 8209, 8246, 8176, 8192, 8165, 8167, 8196, 8189, 8234, 8214, 8263, 9548,1.2560086250305176,XXXXX
84, 8258, 8184, 8120, 8079, 8158, 8155, 8161, 8175, 8177, 8189, 8086, 8137, 8300, 9681,1.2638745307922363,XXXXX
85, 8148, 8170, 8155, 8158, 8167, 8166, 8171, 8167, 8175, 8186, 8178, 8192, 8282, 9574,1.2716777324676514,XXXXX
86, 8115, 8158, 8171, 8188, 8170, 8175, 8166, 8171, 8185, 8185, 8216, 8209, 8268, 9555,1.2794973850250244,XXXXX
87, 8304, 8201, 8149, 8114, 8164, 8153, 8153, 8175, 8158, 8184, 8103, 8147, 8307, 9708,1.287360668182373,XXXXX
88, 8043, 8146, 8204, 8255, 8177, 8190, 8178, 8164, 8185, 8192, 8226, 8213, 8261, 9535,1.295283317565918,XXXXX
89, 8245, 8180, 8118, 8089, 8159, 8155, 8168, 8172, 8172, 8183, 8081, 8143, 8287, 9672,1.3032119274139404,XXXXX
90, 8201, 8180, 8157, 8142, 8168, 8163, 8168, 8166, 8172, 8184, 8150, 8171, 8291, 9627,1.310969352722168,XXXXX
91, 8107, 8157, 8187, 8200, 8172, 8181, 8172, 8166, 8186, 8190, 8223, 8206, 8279, 9556,1.3189692497253418,XXXXX
92, 8271, 8200, 8134, 8099, 8160, 8151, 8154, 8173, 8156, 8183, 8104, 8152, 8308, 9704,1.3269481658935547,XXXXX
93, 8032, 8157, 8194, 8238, 8178, 8180, 8172, 8165, 8183, 8191, 8240, 8213, 8263, 9550,1.3348608016967773,XXXXX
94, 8250, 8181, 8142, 8111, 8166, 8159, 8167, 8175, 8174, 8185, 8124, 8152, 8288, 9655,1.3428499698638916,XXXXX
95, 8218, 8175, 8164, 8143, 8166, 8167, 8169, 8177, 8166, 8183, 8161, 8179, 8289, 9619,1.3504126071929932,XXXXX
96, 8066, 8147, 8188, 8211, 8168, 8180, 8176, 8176, 8187, 8189, 8237, 8219, 8265, 9539,1.3584306240081787,XXXXX
97, 8301, 8198, 8138, 8090, 8162, 8146, 8163, 8173, 8164, 8185, 8088, 8143, 8305, 9716,1.3664319515228271,XXXXX
98, 8085, 8150, 8199, 8226, 8182, 8185, 8179, 8163, 8183, 8191, 8220, 8204, 8265, 9561,1.3742773532867432,XXXXX
99, 8216, 8172, 8145, 8122, 8162, 8163, 8165, 8175, 8178, 8183, 8139, 8168, 8288, 9634,1.3823416233062744,XXXXX
100, 8200, 8186, 8162, 8147, 8160, 8158, 8159, 8167, 8166, 8183, 8159, 8185, 8301, 9630,1.3886313438415527,XXXXX
101, 8043, 8144, 8192, 8231, 8175, 8187, 8167, 8163, 8179, 8193, 8238, 8212, 8263, 9545,1.3967344760894775,XXXXX
102, 8314, 8192, 8128, 8084, 8161, 8153, 8150, 8173, 8157, 8183, 8073, 8128, 8300, 9710,1.4056546688079834,XXXXX
103, 8096, 8157, 8199, 8219, 8167, 8179, 8169, 8164, 8185, 8187, 8229, 8223, 8269, 9515,1.413792371749878,XXXXX
104, 8172, 8171, 8144, 8118, 8160, 8161, 8162, 8171, 8180, 8187, 8174, 8197, 8284, 9588,1.4217593669891357,XXXXX
105, 8206, 8190, 8130, 8095, 8165, 8154, 8156, 8168, 8160, 8186, 8124, 8161, 8305, 9670,1.4312708377838135,XXXXX
106, 8021, 8148, 8196, 8240, 8174, 8189, 8173, 8171, 8190, 8192, 8238, 8212, 8265, 9537,1.4373762607574463,XXXXX
107, 8317, 8193, 8149, 8106, 8158, 8156, 8157, 8183, 8169, 8183, 8101, 8150, 8296, 9717,1.4453911781311035,XXXXX
108, 8155, 8159, 8196, 8203, 8178, 8183, 8167, 8167, 8177, 8184, 8202, 8197, 8272, 9629,1.4516701698303223,XXXXX
109, 8190, 8169, 8154, 8142, 8172, 8174, 8167, 8169, 8178, 8183, 8140, 8158, 8283, 9660,1.4613549709320068,XXXXX
110, 8260, 8190, 8135, 8104, 8162, 8155, 8162, 8170, 8165, 8188, 8093, 8145, 8299, 9669,1.467679500579834,XXXXX
111, 8032, 8135, 8194, 8226, 8173, 8182, 8173, 8169, 8190, 8197, 8246, 8227, 8259, 9493,1.4766898155212402,XXXXX
112, 8268, 8186, 8147, 8091, 8162, 8148, 8160, 8180, 8164, 8182, 8129, 8166, 8305, 9697,1.484632968902588,XXXXX
113, 8123, 8168, 8201, 8206, 8173, 8170, 8176, 8168, 8178, 8186, 8226, 8207, 8278, 9626,1.492417812347412,XXXXX
114, 8163, 8166, 8164, 8166, 8168, 8165, 8173, 8168, 8186, 8189, 8179, 8181, 8272, 9623,1.5001471042633057,XXXXX
115, 8289, 8196, 8141, 8104, 8170, 8149, 8158, 8168, 8164, 8182, 8103, 8145, 8301, 9685,1.5081732273101807,XXXXX
116, 8054, 8141, 8208, 8241, 8187, 8186, 8179, 8164, 8195, 8191, 8247, 8211, 8259, 9533,1.5159788131713867,XXXXX
117, 8302, 8188, 8134, 8088, 8162, 8151, 8164, 8177, 8171, 8189, 8097, 8138, 8294, 9700,1.5239052772521973,XXXXX
118, 8144, 8172, 8180, 8188, 8166, 8171, 8161, 8170, 8170, 8191, 8195, 8198, 8277, 9581,1.5318353176116943,XXXXX
119, 8085, 8156, 8166, 8174, 8166, 8172, 8163, 8175, 8183, 8192, 8200, 8208, 8269, 9558,1.5398378372192383,XXXXX
120, 8271, 8198, 8127, 8069, 8157, 8142, 8160, 8180, 8163, 8182, 8090, 8153, 8305, 9693,1.5477898120880127,XXXXX
121, 8035, 8146, 8208, 8229, 8173, 8183, 8173, 8166, 8191, 8182, 8265, 8227, 8262, 9522,1.5557520389556885,XXXXX
122, 8257, 8180, 8148, 8110, 8162, 8159, 8153, 8169, 8177, 8178, 8126, 8155, 8296, 9683,1.5634584426879883,XXXXX
123, 8187, 8173, 8176, 8180, 8170, 8167, 8166, 8169, 8175, 8187, 8151, 8176, 8288, 9630,1.5713989734649658,XXXXX
124, 8102, 8156, 8171, 8183, 8167, 8171, 8175, 8173, 8183, 8189, 8186, 8188, 8266, 9559,1.579439640045166,XXXXX
125, 8290, 8196, 8119, 8058, 8154, 8142, 8156, 8170, 8158, 8178, 8086, 8136, 8301, 9693,1.5857763290405273,XXXXX
126, 8060, 8151, 8191, 8216, 8169, 8182, 8171, 8166, 8183, 8189, 8240, 8220, 8267, 9534,1.5935683250427246,XXXXX
127, 8244, 8186, 8138, 8114, 8159, 8159, 8165, 8178, 8168, 8185, 8124, 8162, 8293, 9673,1.6028945446014404,XXXXX
238, 8184, 8177, 8170, 8169, 8172, 8166, 8168, 8164, 8167, 8183, 8159, 8176, 8285, 9639,1.6108059883117676,XXXXX
0, 8083, 8148, 8193, 8211, 8176, 8182, 8173, 8168, 8190, 8188, 8215, 8206, 8267, 9537,1.6187434196472168,XXXXX
1, 8331, 8201, 8130, 8072, 8160, 8147, 8160, 8175, 8162, 8183, 8074, 8139, 8312, 9710,1.6264774799346924,XXXXX
2, 8105, 8157, 8180, 8208, 8172, 8179, 8176, 8159, 8184, 8191, 8209, 8203, 8264, 9590,1.634298324584961,XXXXX
3, 8232, 8179, 8135, 8104, 8163, 8155, 8163, 8171, 8175, 8183, 8126, 8159, 8282, 9668,1.6420488357543945,XXXXX
4, 8186, 8179, 8176, 8145, 8168, 8154, 8158, 8171, 8167, 8179, 8172, 8183, 8294, 9611,1.6499817371368408,XXXXX
5, 8043, 8143, 8209, 8229, 8171, 8184, 8171, 8169, 8190, 8188, 8262, 8229, 8263, 9521,1.6577849388122559,XXXXX
6, 8293, 8194, 8140, 8086, 8159, 8158, 8160, 8174, 8160, 8182, 8100, 8150, 8302, 9727,1.6656129360198975,XXXXX
7, 8060, 8154, 8206, 8223, 8181, 8185, 8172, 8162, 8180, 8181, 8228, 8208, 8272, 9581,1.673368215560913,XXXXX
8, 8208, 8173, 8161, 8138, 8173, 8161, 8161, 8174, 8181, 8177, 8141, 8161, 8285, 9648,1.6814446449279785,XXXXX
9, 8279, 8188, 8161, 8139, 8167, 8157, 8161, 8170, 8169, 8180, 8132, 8162, 8289, 9651,1.689378023147583,XXXXX
10, 8068, 8142, 8197, 8233, 8170, 8185, 8177, 8162, 8190, 8188, 8253, 8224, 8256, 9513,1.6975300312042236,XXXXX
11, 8276, 8198, 8118, 8069, 8157, 8146, 8154, 8169, 8164, 8181, 8083, 8145, 8301, 9695,1.7054674625396729,XXXXX
12, 8077, 8171, 8177, 8189, 8176, 8176, 8166, 8164, 8184, 8191, 8200, 8207, 8271, 9559,1.7117986679077148,XXXXX
13, 8182, 8174, 8166, 8149, 8169, 8167, 8167, 8173, 8181, 8189, 8180, 8188, 8280, 9608,1.719543218612671,XXXXX
14, 8275, 8189, 8173, 8142, 8166, 8155, 8163, 8172, 8163, 8184, 8137, 8164, 8299, 9679,1.7289233207702637,XXXXX
15, 8061, 8144, 8209, 8241, 8178, 8192, 8176, 8169, 8193, 8193, 8226, 8207, 8262, 9538,1.7368838787078857,XXXXX
16, 8284, 8194, 8125, 8061, 8157, 8158, 8156, 8174, 8169, 8185, 8080, 8142, 8304, 9678,1.7448129653930664,XXXXX
17, 8098, 8166, 8185, 8185, 8165, 8171, 8163, 8164, 8176, 8187, 8223, 8217, 8276, 9554,1.752530574798584,XXXXX
18, 8164, 8167, 8171, 8176, 8165, 8168, 8163, 8172, 8180, 8187, 8190, 8191, 8273, 9609,1.7603347301483154,XXXXX
19, 8302, 8194, 8149, 8119, 8164, 8159, 8157, 8172, 8161, 8185, 8093, 8140, 8303, 9695,1.7680602073669434,XXXXX
20, 8045, 8143, 8193, 8225, 8172, 8184, 8169, 8161, 8186, 8193, 8226, 8210, 8267, 9506,1.775430679321289,XXXXX
21, 8260, 8191, 8122, 8074, 8156, 8140, 8154, 8171, 8167, 8182, 8109, 8155, 8299, 9667,1.7827107906341553,XXXXX
22, 8117, 8168, 8188, 8197, 8171, 8168, 8170, 8170, 8178, 8191, 8226, 8209, 8270, 9586,1.7907123565673828,XXXXX
23, 8113, 8152, 8190, 8196, 8172, 8177, 8172, 8179, 8185, 8191, 8203, 8192, 8269, 9595,1.799619197845459,XXXXX
24, 8294, 8191, 8149, 8107, 8170, 8151, 8157, 8181, 8160, 8178, 8079, 8133, 8310, 9731,1.8074951171875,XXXXX
25, 8071, 8145, 8200, 8239, 8183, 8188, 8180, 8173, 8187, 8192, 8229, 8201, 8262, 9563,1.8154592514038086,XXXXX
26, 8285, 8182, 8133, 8094, 8159, 8156, 8170, 8184, 8170, 8192, 8108, 8141, 8291, 9680,1.8234233856201172,XXXXX
27, 8161, 8171, 8179, 8171, 8165, 8167, 8165, 8171, 8176, 8185, 8183, 8194, 8285, 9588,1.831104040145874,XXXXX
28, 8102, 8157, 8175, 8182, 8165, 8177, 8163, 8169, 8195, 8186, 8201, 8206, 8272, 9564,1.8388619422912598,XXXXX
29, 8289, 8194, 8131, 8090, 8157, 8152, 8152, 8171, 8167, 8181, 8091, 8143, 8304, 9712,1.846611499786377,XXXXX
30, 8035, 8144, 8206, 8251, 8179, 8187, 8169, 8163, 8186, 8184, 8248, 8218, 8261, 9542,1.8546147346496582,XXXXX
31, 8255, 8184, 8144, 8114, 8168, 8152, 8159, 8179, 8173, 8181, 8110, 8148, 8289, 9686,1.862560749053955,XXXXX
32, 8205, 8179, 8165, 8160, 8170, 8158, 8168, 8176, 8170, 8185, 8140, 8162, 8288, 9644,1.870478868484497,XXXXX
33, 8079, 8149, 8176, 8201, 8172, 8177, 8171, 8174, 8186, 8183, 8207, 8200, 8268, 9551,1.8783268928527832,XXXXX
34, 8274, 8196, 8128, 8085, 8159, 8146, 8153, 8177, 8160, 8175, 8105, 8158, 8305, 9687,1.886347770690918,XXXXX
35, 8042, 8152, 8200, 8239, 8172, 8181, 8173, 8170, 8184, 8190, 8257, 8226, 8266, 9535,1.8941149711608887,XXXXX
36, 8241, 8182, 8151, 8133, 8166, 8166, 8165, 8179, 8174, 8187, 8130, 8154, 8287, 9656,1.9021167755126953,XXXXX
37, 8234, 8186, 8169, 8157, 8175, 8173, 8164, 8170, 8170, 8182, 8133, 8157, 8284, 9639,1.909984827041626,XXXXX
38, 8071, 8149, 8181, 8208, 8174, 8186, 8173, 8164, 8193, 8189, 8221, 8204, 8259, 9535,1.9179646968841553,XXXXX
39, 8284, 8196, 8120, 8070, 8159, 8149, 8158, 8169, 8162, 8180, 8102, 8156, 8303, 9681,1.9259090423583984,XXXXX
40, 8065, 8154, 8193, 8219, 8178, 8184, 8174, 8164, 8179, 8187, 8253, 8227, 8260, 9521,1.9335970878601074,XXXXX
41, 8185, 8174, 8149, 8131, 8167, 8162, 8165, 8176, 8177, 8190, 8157, 8173, 8275, 9631,1.9415862560272217,XXXXX
42, 8193, 8188, 8162, 8146, 8167, 8157, 8162, 8170, 8169, 8193, 8134, 8174, 8292, 9669,1.9496734142303467,XXXXX
43, 8056, 8149, 8197, 8231, 8176, 8187, 8179, 8166, 8185, 8194, 8224, 8211, 8263, 9554,1.9573657512664795,XXXXX
44, 8324, 8199, 8123, 8076, 8159, 8149, 8157, 8171, 8155, 8183, 8082, 8130, 8305, 9699,1.9651799201965332,XXXXX
45, 8064, 8158, 8193, 8218, 8170, 8171, 8163, 8162, 8177, 8186, 8232, 8214, 8271, 9515,1.9728834629058838,XXXXX
46, 8132, 8164, 8167, 8147, 8161, 8161, 8162, 8173, 8181, 8180, 8181, 8193, 8280, 9601,1.9807891845703125,XXXXX
47, 8247, 8188, 8149, 8108, 8163, 8155, 8159, 8172, 8165, 8184, 8136, 8167, 8298, 9703,1.988558292388916,XXXXX
48, 8053, 8152, 8185, 8212, 8177, 8182, 8171, 8169, 8189, 8196, 8245, 8225, 8263, 9546,1.996340036392212,XXXXX
49, 8266, 8195, 8132, 8081, 8162, 8146, 8155, 8176, 8165, 8182, 8114, 8168, 8304, 9694,2.0040173530578613,XXXXX
50, 8083, 8158, 8200, 8217, 8171, 8171, 8165, 8166, 8176, 8184, 8240, 8223, 8275, 9595,2.012140989303589,XXXXX
51, 8145, 8169, 8170, 8169, 8163, 8166, 8162, 8173, 8179, 8188, 8186, 8185, 8279, 9643,2.020843029022217,XXXXX
52, 8260, 8194, 8149, 8110, 8160, 8155, 8157, 8174, 8166, 8184, 8120, 8154, 8300, 9713,2.028632402420044,XXXXX
53, 8041, 8139, 8198, 8234, 8174, 8187, 8172, 8169, 8193, 8189, 8256, 8221, 8257, 9557,2.0363833904266357,XXXXX
54, 8279, 8190, 8138, 8108, 8157, 8151, 8155, 8176, 8164, 8183, 8107, 8148, 8297, 9736,2.044041395187378,XXXXX
55, 8129, 8169, 8197, 8220, 8168, 8174, 8167, 8167, 8173, 8188, 8198, 8196, 8279, 9640,2.0517373085021973,XXXXX
56, 8145, 8156, 8177, 8188, 8169, 8173, 8166, 8173, 8185, 8189, 8176, 8188, 8271, 9634,2.0594091415405273,XXXXX
57, 8298, 8191, 8144, 8110, 8169, 8151, 8156, 8172, 8161, 8181, 8090, 8146, 8300, 9735,2.0671892166137695,XXXXX
58, 8068, 8151, 8203, 8242, 8181, 8187, 8171, 8165, 8187, 8189, 8234, 8211, 8266, 9580,2.0750412940979004,XXXXX
59, 8294, 8191, 8139, 8104, 8165, 8156, 8156, 8172, 8172, 8187, 8087, 8139, 8308, 9724,2.082909107208252,XXXXX
60, 8172, 8165, 8183, 8194, 8180, 8172, 8165, 8161, 8177, 8191, 8160, 8182, 8289, 9629,2.0909273624420166,XXXXX
61, 8140, 8150, 8169, 8176, 8174, 8174, 8168, 8171, 8187, 8190, 8184, 8195, 8271, 9593,2.0986454486846924,XXXXX
62, 8279, 8192, 8135, 8083, 8156, 8147, 8156, 8178, 8160, 8181, 8106, 8155, 8303, 9689,2.1064553260803223,XXXXX
63, 8011, 8141, 8219, 8258, 8173, 8185, 8174, 8163, 8190, 8187, 8271, 8229, 8263, 9520,2.1142730712890625,XXXXX
64, 8269, 8177, 8138, 8113, 8165, 8158, 8162, 8172, 8176, 8181, 8105, 8148, 8294, 9690,2.122230291366577,XXXXX
65, 8213, 8173, 8150, 8155, 8176, 8168, 8164, 8168, 8170, 8186, 8136, 8174, 8283, 9623,2.130063056945801,XXXXX
66, 8106, 8153, 8173, 8188, 8177, 8182, 8169, 8166, 8184, 8190, 8202, 8206, 8259, 9548,2.138155698776245,XXXXX
67, 8279, 8194, 8133, 8079, 8161, 8151, 8156, 8169, 8155, 8179, 8091, 8145, 8297, 9691,2.146106481552124,XXXXX
68, 8021, 8146, 8192, 8233, 8178, 8185, 8170, 8165, 8178, 8191, 8236, 8214, 8260, 9529,2.154113531112671,XXXXX
69, 8250, 8184, 8131, 8113, 8172, 8166, 8158, 8178, 8173, 8190, 8123, 8158, 8286, 9669,2.162060022354126,XXXXX
70, 8253, 8184, 8163, 8152, 8173, 8169, 8166, 8169, 8175, 8189, 8154, 8176, 8282, 9634,2.169924020767212,XXXXX
71, 8085, 8145, 8184, 8209, 8172, 8182, 8179, 8167, 8194, 8192, 8223, 8213, 8260, 9531,2.177851438522339,XXXXX
72, 8262, 8190, 8123, 8082, 8161, 8149, 8160, 8179, 8165, 8188, 8089, 8149, 8307, 9700,2.1857781410217285,XXXXX
73, 8035, 8150, 8196, 8237, 8176, 8182, 8171, 8171, 8185, 8199, 8239, 8216, 8265, 9547,2.1937460899353027,XXXXX
74, 8203, 8177, 8158, 8143, 8165, 8157, 8159, 8173, 8171, 8191, 8148, 8163, 8280, 9651,2.201885461807251,XXXXX
75, 8224, 8186, 8167, 8154, 8171, 8157, 8158, 8170, 8166, 8186, 8142, 8160, 8293, 9683,2.2098512649536133,XXXXX
76, 8071, 8149, 8179, 8222, 8179, 8185, 8173, 8174, 8196, 8190, 8212, 8194, 8265, 9578,2.2179460525512695,XXXXX
77, 8302, 8199, 8116, 8080, 8159, 8147, 8155, 8176, 8166, 8178, 8076, 8134, 8300, 9693,2.225908041000366,XXXXX
78, 8068, 8155, 8199, 8217, 8169, 8179, 8169, 8160, 8178, 8183, 8251, 8228, 8262, 9508,2.233881711959839,XXXXX
79, 8170, 8170, 8153, 8125, 8162, 8163, 8163, 8179, 8177, 8183, 8177, 8187, 8279, 9617,2.240257978439331,XXXXX
80, 8218, 8189, 8150, 8124, 8169, 8152, 8160, 8183, 8165, 8179, 8130, 8161, 8295, 9676,2.2482528686523438,XXXXX
81, 8027, 8146, 8212, 8257, 8176, 8191, 8174, 8176, 8189, 8185, 8245, 8211, 8260, 9531,2.2558934688568115,XXXXX
82, 8314, 8196, 8149, 8109, 8159, 8161, 8157, 8180, 8165, 8182, 8089, 8131, 8301, 9736,2.263620615005493,XXXXX
83, 8148, 8165, 8189, 8206, 8181, 8177, 8171, 8165, 8183, 8187, 8193, 8185, 8275, 9631,2.273158550262451,XXXXX
84, 8198, 8171, 8154, 8147, 8177, 8165, 8169, 8169, 8184, 8185, 8152, 8168, 8284, 9652,2.279656171798706,XXXXX
85, 8289, 8198, 8147, 8128, 8170, 8158, 8160, 8169, 8165, 8181, 8112, 8150, 8304, 9714,2.2876405715942383,XXXXX
86, 8072, 8151, 8193, 8241, 8177, 8186, 8176, 8169, 8192, 8190, 8229, 8205, 8261, 9568,2.295623540878296,XXXXX
87, 8315, 8198, 8120, 8071, 8161, 8149, 8162, 8179, 8167, 8185, 8075, 8130, 8297, 9718,2.3034818172454834,XXXXX
88, 8160, 8169, 8172, 8180, 8174, 8177, 8168, 8169, 8177, 8187, 8193, 8194, 8274, 9598,2.3115010261535645,XXXXX
89, 8177, 8161, 8156, 8164, 8170, 8174, 8167, 8172, 8185, 8183, 8178, 8187, 8277, 9616,2.319488286972046,XXXXX
90, 8294, 8192, 8135, 8105, 8161, 8154, 8164, 8175, 8165, 8180, 8095, 8140, 8308, 9708,2.32753324508667,XXXXX
91, 8065, 8150, 8178, 8219, 8175, 8186, 8173, 8168, 8191, 8191, 8224, 8201, 8266, 9540,2.3354592323303223,XXXXX
92, 8310, 8194, 8103, 8064, 8157, 8148, 8146, 8165, 8167, 8183, 8089, 8146, 8303, 9687,2.343350410461426,XXXXX
93, 8164, 8167, 8173, 8178, 8165, 8170, 8164, 8154, 8173, 8185, 8191, 8201, 8284, 9598,2.35109281539917,XXXXX
94, 8125, 8157, 8174, 8181, 8169, 8174, 8179, 8169, 8185, 8186, 8191, 8189, 8271, 9598,2.3590831756591797,XXXXX
95, 8280, 8200, 8121, 8079, 8159, 8145, 8158, 8173, 8162, 8180, 8081, 8136, 8303, 9701,2.366819143295288,XXXXX
96, 8050, 8147, 8184, 8216, 8168, 8177, 8167, 8162, 8186, 8190, 8243, 8222, 8262, 9524,2.3746869564056396,XXXXX
97, 8271, 8187, 8141, 8099, 8164, 8149, 8164, 8176, 8165, 8182, 8129, 8160, 8291, 9683,2.3826677799224854,XXXXX
98, 8139, 8181, 8191, 8197, 8183, 8168, 8170, 8171, 8169, 8181, 8188, 8182, 8277, 9612,2.39070987701416,XXXXX
99, 8078, 8158, 8184, 8212, 8174, 8186, 8162, 8171, 8188, 8189, 8199, 8185, 8263, 9578,2.398629903793335,XXXXX
100, 8320, 8196, 8127, 8076, 8157, 8157, 8153, 8177, 8162, 8186, 8071, 8127, 8305, 9747,2.4066524505615234,XXXXX
101, 8070, 8154, 8197, 8223, 8178, 8190, 8179, 8167, 8185, 8192, 8227, 8206, 8262, 9566,2.414435386657715,XXXXX
102, 8252, 8189, 8144, 8118, 8163, 8164, 8164, 8174, 8172, 8183, 8120, 8149, 8289, 9673,2.422194480895996,XXXXX
103, 8219, 8178, 8161, 8161, 8162, 8167, 8162, 8166, 8168, 8184, 8158, 8173, 8287, 9648,2.429931640625,XXXXX
104, 8100, 8146, 8164, 8183, 8168, 8178, 8171, 8163, 8190, 8191, 8212, 8201, 8262, 9568,2.437817335128784,XXXXX
105, 8309, 8196, 8114, 8058, 8157, 8143, 8156, 8171, 8163, 8186, 8088, 8140, 8301, 9704,2.445605993270874,XXXXX
106, 8083, 8153, 8189, 8221, 8167, 8180, 8172, 8164, 8182, 8193, 8243, 8220, 8266, 9553,2.4536421298980713,XXXXX
107, 8220, 8179, 8132, 8115, 8158, 8159, 8162, 8170, 8179, 8187, 8135, 8168, 8288, 9660,2.4608089923858643,XXXXX
108, 8181, 8187, 8143, 8128, 8164, 8160, 8161, 8166, 8176, 8183, 8148, 8175, 8290, 9628,2.4684948921203613,XXXXX
109, 8064, 8150, 8181, 8209, 8165, 8184, 8174, 8168, 8189, 8190, 8248, 8220, 8264, 9529,2.477597951889038,XXXXX
110, 8319, 8195, 8145, 8102, 8156, 8153, 8158, 8175, 8160, 8181, 8105, 8149, 8304, 9713,2.4854657649993896,XXXXX
111, 8073, 8154, 8213, 8247, 8182, 8182, 8170, 8166, 8190, 8185, 8224, 8204, 8262, 9561,2.4934322834014893,XXXXX
112, 8200, 8176, 8147, 8131, 8165, 8162, 8162, 8177, 8189, 8186, 8136, 8159, 8280, 9625,2.5014829635620117,XXXXX
113, 8255, 8190, 8146, 8112, 8161, 8155, 8163, 8174, 8166, 8187, 8130, 8168, 8297, 9634,2.5077903270721436,XXXXX
114, 8083, 8143, 8188, 8206, 8177, 8178, 8179, 8168, 8182, 8191, 8243, 8228, 8259, 9522,2.5157759189605713,XXXXX
115, 8278, 8187, 8128, 8080, 8162, 8145, 8155, 8173, 8160, 8183, 8107, 8159, 8295, 9681,2.5236728191375732,XXXXX
116, 8031, 8151, 8206, 8233, 8171, 8181, 8168, 8164, 8180, 8190, 8249, 8222, 8267, 9516,2.5316293239593506,XXXXX
117, 8179, 8167, 8170, 8159, 8166, 8168, 8171, 8176, 8182, 8187, 8180, 8176, 8278, 9603,2.5410983562469482,XXXXX
118, 8315, 8192, 8150, 8122, 8166, 8156, 8164, 8174, 8167, 8182, 8113, 8145, 8295, 9702,2.547537326812744,XXXXX
119, 8072, 8147, 8195, 8240, 8175, 8191, 8177, 8167, 8187, 8192, 8219, 8208, 8258, 9555,2.556929349899292,XXXXX
120, 8271, 8194, 8125, 8083, 8154, 8153, 8163, 8178, 8163, 8187, 8077, 8146, 8300, 9693,2.5633721351623535,XXXXX
121, 8093, 8163, 8179, 8186, 8164, 8174, 8168, 8167, 8186, 8186, 8214, 8214, 8273, 9546,2.571063995361328,XXXXX
122, 8143, 8164, 8155, 8145, 8165, 8168, 8161, 8170, 8190, 8184, 8188, 8199, 8274, 9578,2.579061508178711,XXXXX
123, 8262, 8187, 8141, 8106, 8161, 8152, 8157, 8170, 8161, 8184, 8112, 8161, 8298, 9688,2.5867910385131836,XXXXX
124, 8036, 8140, 8205, 8246, 8169, 8194, 8172, 8173, 8191, 8194, 8246, 8216, 8261, 9537,2.5945346355438232,XXXXX
125, 8299, 8195, 8138, 8097, 8159, 8165, 8156, 8183, 8172, 8185, 8095, 8133, 8302, 9705,2.6038894653320312,XXXXX
126, 8167, 8170, 8174, 8182, 8175, 8179, 8169, 8164, 8174, 8188, 8182, 8186, 8282, 9602,2.612006425857544,XXXXX
127, 8149, 8157, 8154, 8155, 8169, 8178, 8168, 8165, 8187, 8187, 8181, 8194, 8275, 9590,2.61991286277771,XXXXX
238, 8324, 8202, 8131, 8086, 8159, 8155, 8155, 8172, 8170, 8181, 8098, 8150, 8300, 9720,2.6263749599456787,XXXXX
0, 8087, 8156, 8194, 8227, 8173, 8183, 8175, 8168, 8193, 8192, 8239, 8214, 8254, 9557,2.6341941356658936,XXXXX
1, 8279, 8186, 8124, 8080, 8157, 8150, 8158, 8171, 8172, 8187, 8098, 8151, 8294, 9687,2.642232656478882,XXXXX
2, 8185, 8173, 8164, 8161, 8168, 8165, 8161, 8162, 8176, 8187, 8172, 8191, 8287, 9629,2.6501917839050293,XXXXX
3, 8146, 8163, 8158, 8166, 8166, 8169, 8173, 8170, 8188, 8187, 8192, 8197, 8275, 9605,2.6583378314971924,XXXXX
4, 8280, 8201, 8118, 8074, 8158, 8143, 8162, 8172, 8164, 8178, 8091, 8149, 8307, 9690,2.666306972503662,XXXXX
5, 8002, 8148, 8199, 8244, 8179, 8185, 8169, 8160, 8188, 8187, 8258, 8229, 8260, 9500,2.6743733882904053,XXXXX
6, 8244, 8184, 8147, 8118, 8162, 8153, 8157, 8172, 8171, 8183, 8134, 8161, 8288, 9687,2.6822633743286133,XXXXX
7, 8202, 8175, 8183, 8173, 8166, 8156, 8168, 8171, 8168, 8183, 8181, 8186, 8286, 9670,2.690382480621338,XXXXX
8, 8088, 8147, 8197, 8212, 8175, 8173, 8173, 8175, 8187, 8184, 8235, 8214, 8269, 9588,2.6966724395751953,XXXXX
9, 8281, 8196, 8132, 8081, 8168, 8148, 8154, 8179, 8162, 8178, 8090, 8141, 8307, 9724,2.7048497200012207,XXXXX
10, 8047, 8149, 8198, 8231, 8177, 8184, 8174, 8164, 8187, 8189, 8222, 8205, 8261, 9544,2.713756799697876,XXXXX
11, 8261, 8176, 8150, 8130, 8161, 8155, 8167, 8170, 8173, 8185, 8132, 8164, 8282, 9652,2.7216150760650635,XXXXX
12, 8253, 8180, 8163, 8153, 8164, 8162, 8166, 8169, 8168, 8188, 8165, 8189, 8287, 9646,2.72933292388916,XXXXX
13, 8089, 8150, 8175, 8198, 8171, 8185, 8170, 8168, 8195, 8194, 8221, 8212, 8264, 9565,2.7374207973480225,XXXXX
14, 8292, 8197, 8120, 8067, 8160, 8145, 8155, 8170, 8166, 8182, 8079, 8137, 8302, 9705,2.7452661991119385,XXXXX
15, 8051, 8150, 8195, 8219, 8171, 8175, 8174, 8162, 8183, 8189, 8258, 8232, 8262, 9511,2.7531578540802,XXXXX
16, 8189, 8170, 8154, 8132, 8161, 8161, 8162, 8174, 8180, 8185, 8192, 8205, 8282, 9626,2.7609663009643555,XXXXX
17, 8214, 8179, 8166, 8143, 8168, 8162, 8158, 8167, 8166, 8181, 8171, 8189, 8293, 9688,2.768882989883423,XXXXX
18, 8042, 8143, 8196, 8225, 8177, 8180, 8172, 8166, 8183, 8190, 8249, 8215, 8261, 9567,2.7770895957946777,XXXXX
19, 8294, 8200, 8132, 8087, 8160, 8140, 8153, 8180, 8162, 8188, 8095, 8145, 8300, 9728,2.7849478721618652,XXXXX
20, 8093, 8160, 8200, 8225, 8175, 8176, 8168, 8171, 8177, 8190, 8232, 8221, 8266, 9594,2.7926783561706543,XXXXX
21, 8174, 8168, 8169, 8138, 8163, 8162, 8166, 8177, 8173, 8185, 8180, 8183, 8280, 9641,2.8005003929138184,XXXXX
22, 8212, 8190, 8171, 8119, 8159, 8146, 8159, 8174, 8166, 8185, 8154, 8163, 8297, 9672,2.808350086212158,XXXXX
23, 8039, 8149, 8206, 8240, 8174, 8187, 8168, 8168, 8192, 8196, 8249, 8213, 8258, 9564,2.8166847229003906,XXXXX
24, 8326, 8194, 8130, 8095, 8164, 8161, 8154, 8175, 8163, 8185, 8081, 8134, 8302, 9754,2.8244497776031494,XXXXX
25, 8125, 8161, 8199, 8221, 8177, 8178, 8170, 8168, 8178, 8185, 8211, 8195, 8281, 9610,2.8322508335113525,XXXXX
26, 8162, 8167, 8180, 8180, 8169, 8170, 8171, 8178, 8181, 8186, 8175, 8173, 8283, 9646,2.838512420654297,XXXXX
27, 8286, 8194, 8152, 8131, 8168, 8162, 8165, 8176, 8163, 8184, 8098, 8144, 8299, 9736,2.8479349613189697,XXXXX
28, 8095, 8148, 8192, 8234, 8183, 8188, 8177, 8175, 8192, 8188, 8229, 8208, 8258, 9585,2.8546488285064697,XXXXX
29, 8316, 8197, 8124, 8081, 8170, 8149, 8158, 8189, 8164, 8178, 8089, 8130, 8298, 9710,2.862628936767578,XXXXX
30, 8120, 8168, 8178, 8199, 8173, 8175, 8165, 8171, 8172, 8184, 8187, 8189, 8279, 9562,2.871704339981079,XXXXX
31, 8139, 8164, 8159, 8172, 8160, 8170, 8163, 8168, 8184, 8190, 8182, 8198, 8273, 9574,2.879641056060791,XXXXX
32, 8285, 8197, 8141, 8098, 8167, 8149, 8157, 8174, 8168, 8184, 8123, 8162, 8297, 9680,2.887557029724121,XXXXX
33, 8045, 8141, 8213, 8238, 8185, 8188, 8174, 8170, 8194, 8189, 8260, 8213, 8259, 9535,2.894047260284424,XXXXX
34, 8272, 8186, 8135, 8096, 8155, 8156, 8159, 8177, 8165, 8182, 8089, 8131, 8301, 9704,2.9020192623138428,XXXXX
35, 8131, 8173, 8166, 8178, 8163, 8173, 8170, 8168, 8168, 8189, 8178, 8181, 8283, 9588,2.910088062286377,XXXXX
36, 8109, 8156, 8167, 8173, 8169, 8173, 8170, 8173, 8184, 8193, 8216, 8199, 8269, 9556,2.9179537296295166,XXXXX
37, 8311, 8195, 8148, 8097, 8160, 8143, 8154, 8181, 8157, 8183, 8113, 8151, 8306, 9713,2.926022529602051,XXXXX
38, 8060, 8151, 8220, 8265, 8175, 8186, 8174, 8176, 8179, 8188, 8244, 8214, 8263, 9560,2.933884620666504,XXXXX
39, 8260, 8191, 8134, 8112, 8162, 8161, 8161, 8178, 8172, 8182, 8088, 8139, 8292, 9691,2.9418907165527344,XXXXX
40, 8178, 8177, 8148, 8145, 8168, 8163, 8166, 8166, 8179, 8187, 8149, 8181, 8286, 9600,2.949934959411621,XXXXX
41, 8094, 8147, 8172, 8183, 8173, 8173, 8177, 8169, 8189, 8190, 8229, 8219, 8271, 9530,2.957244634628296,XXXXX
42, 8306, 8190, 8153, 8105, 8164, 8150, 8160, 8174, 8159, 8180, 8127, 8165, 8304, 9716,2.9645965099334717,XXXXX
43, 8058, 8151, 8220, 8257, 8177, 8184, 8171, 8168, 8188, 8189, 8250, 8220, 8258, 9576,2.9739596843719482,XXXXX
44, 8226, 8183, 8150, 8121, 8166, 8154, 8162, 8184, 8177, 8183, 8114, 8146, 8289, 9702,2.9818551540374756,XXXXX
45, 8195, 8178, 8174, 8163, 8174, 8163, 8161, 8174, 8167, 8180, 8152, 8169, 8292, 9676,2.989844799041748,XXXXX
46, 8095, 8153, 8194, 8224, 8177, 8186, 8166, 8165, 8185, 8186, 8222, 8204, 8264, 9576,2.9977293014526367,XXXXX
47, 8331, 8205, 8140, 8101, 8164, 8154, 8157, 8175, 8160, 8179, 8085, 8135, 8304, 9739,3.0057690143585205,XXXXX
48, 8085, 8159, 8210, 8248, 8179, 8191, 8175, 8171, 8183, 8187, 8224, 8205, 8269, 9599,3.0136115550994873,XXXXX
49, 8230, 8179, 8155, 8143, 8169, 8170, 8158, 8178, 8178, 8184, 8119, 8154, 8286, 9697,3.021507501602173,XXXXX
50, 8249, 8181, 8164, 8155, 8177, 8166, 8156, 8172, 8167, 8185, 8129, 8162, 8290, 9682,3.0278375148773193,XXXXX
51, 8093, 8143, 8197, 8227, 8183, 8191, 8174, 8174, 8187, 8192, 8229, 8207, 8262, 9571,3.0357868671417236,XXXXX
52, 8321, 8197, 8138, 8093, 8166, 8158, 8158, 8179, 8168, 8179, 8082, 8130, 8306, 9745,3.043644666671753,XXXXX
53, 8101, 8157, 8194, 8238, 8181, 8186, 8171, 8166, 8189, 8182, 8206, 8194, 8268, 9595,3.0531530380249023,XXXXX
54, 8234, 8171, 8140, 8141, 8168, 8170, 8163, 8175, 8178, 8184, 8122, 8155, 8280, 9660,3.0596585273742676,XXXXX
55, 8292, 8190, 8149, 8126, 8164, 8164, 8158, 8170, 8164, 8184, 8111, 8148, 8295, 9684,3.0676162242889404,XXXXX
56, 8093, 8149, 8197, 8231, 8177, 8187, 8176, 8166, 8192, 8186, 8228, 8203, 8264, 9572,3.0769190788269043,XXXXX
57, 8294, 8197, 8121, 8077, 8160, 8147, 8163, 8177, 8165, 8180, 8070, 8132, 8311, 9721,3.0848240852355957,XXXXX
58, 8069, 8158, 8178, 8198, 8167, 8178, 8171, 8167, 8179, 8192, 8205, 8208, 8277, 9535,3.090986967086792,XXXXX
59, 8180, 8166, 8153, 8140, 8164, 8168, 8161, 8169, 8180, 8188, 8173, 8190, 8276, 9594,3.098839044570923,XXXXX
60, 8273, 8194, 8157, 8129, 8169, 8154, 8157, 8171, 8161, 8182, 8123, 8157, 8292, 9684,3.1066153049468994,XXXXX
61, 8024, 8143, 8218, 8265, 8180, 8192, 8180, 8171, 8191, 8196, 8233, 8207, 8256, 9536,3.116292715072632,XXXXX
62, 8287, 8189, 8130, 8092, 8163, 8160, 8164, 8175, 8170, 8190, 8069, 8130, 8302, 9720,3.1241273880004883,XXXXX
63, 8166, 8172, 8168, 8177, 8175, 8178, 8169, 8165, 8179, 8186, 8180, 8184, 8281, 9633,3.1307284832000732,XXXXX
64, 8190, 8172, 8157, 8154, 8168, 8173, 8169, 8171, 8185, 8185, 8167, 8174, 8274, 9628,3.1396031379699707,XXXXX
65, 8267, 8192, 8135, 8101, 8160, 8155, 8162, 8168, 8169, 8183, 8097, 8143, 8297, 9661,3.1476080417633057,XXXXX
66, 8028, 8140, 8193, 8227, 8174, 8180, 8173, 8166, 8195, 8188, 8247, 8214, 8259, 9494,3.155790328979492,XXXXX
67, 8306, 8186, 8147, 8095, 8165, 8148, 8153, 8181, 8166, 8183, 8121, 8155, 8295, 9696,3.162135362625122,XXXXX
68, 8187, 8166, 8203, 8208, 8176, 8179, 8167, 8170, 8171, 8189, 8204, 8202, 8280, 9641,3.169968843460083,XXXXX
69, 8141, 8157, 8173, 8189, 8169, 8179, 8172, 8179, 8187, 8189, 8183, 8181, 8280, 9638,3.1782877445220947,XXXXX
70, 8283, 8199, 8122, 8089, 8167, 8150, 8160, 8180, 8163, 8187, 8073, 8129, 8312, 9722,3.1871111392974854,XXXXX
71, 8055, 8151, 8189, 8232, 8183, 8190, 8176, 8160, 8188, 8195, 8229, 8217, 8263, 9517,3.194934844970703,XXXXX
72, 8275, 8188, 8134, 8101, 8158, 8154, 8159, 8170, 8173, 8183, 8112, 8161, 8295, 9662,3.203118085861206,XXXXX
73, 8159, 8171, 8179, 8176, 8164, 8162, 8163, 8169, 8171, 8185, 8184, 8196, 8285, 9605,3.209657907485962,XXXXX
74, 8101, 8155, 8173, 8179, 8170, 8175, 8169, 8171, 8181, 8188, 8199, 8199, 8269, 9572,3.2188720703125,XXXXX
75, 8292, 8200, 8137, 8084, 8166, 8145, 8157, 8176, 8162, 8179, 8089, 8143, 8303, 9704,3.225066900253296,XXXXX
76, 8038, 8148, 8220, 8251, 8183, 8181, 8174, 8168, 8188, 8191, 8256, 8230, 8259, 9526,3.232785701751709,XXXXX
77, 8260, 8183, 8137, 8108, 8167, 8163, 8165, 8173, 8168, 8190, 8112, 8155, 8290, 9670,3.2407217025756836,XXXXX
78, 8219, 8180, 8149, 8150, 8166, 8171, 8166, 8165, 8171, 8184, 8134, 8158, 8293, 9634,3.2486441135406494,XXXXX
79, 8093, 8151, 8176, 8196, 8168, 8180, 8168, 8170, 8195, 8187, 8209, 8200, 8269, 9547,3.258110523223877,XXXXX
80, 8293, 8195, 8142, 8084, 8160, 8149, 8154, 8177, 8163, 8188, 8106, 8159, 8302, 9688,3.2657949924468994,XXXXX
81, 8048, 8148, 8218, 8251, 8176, 8186, 8172, 8166, 8186, 8196, 8262, 8229, 8263, 9527,3.2734806537628174,XXXXX
82, 8216, 8173, 8154, 8136, 8165, 8164, 8161, 8177, 8178, 8186, 8135, 8158, 8288, 9663,3.2813549041748047,XXXXX
83, 8212, 8178, 8152, 8135, 8169, 8168, 8159, 8171, 8169, 8182, 8125, 8160, 8287, 9658,3.2877912521362305,XXXXX
84, 8076, 8147, 8173, 8201, 8175, 8184, 8170, 8164, 8188, 8188, 8217, 8209, 8259, 9528,3.2955119609832764,XXXXX
85, 8300, 8197, 8131, 8087, 8160, 8144, 8157, 8171, 8160, 8183, 8105, 8154, 8304, 9690,3.3051772117614746,XXXXX
86, 8047, 8155, 8208, 8239, 8172, 8183, 8172, 8169, 8184, 8190, 8241, 8216, 8267, 9558,3.313138961791992,XXXXX
87, 8195, 8174, 8160, 8147, 8165, 8170, 8164, 8177, 8185, 8187, 8136, 8161, 8283, 9647,3.32114315032959,XXXXX
88, 8286, 8186, 8156, 8137, 8173, 8158, 8164, 8169, 8173, 8181, 8112, 8157, 8293, 9689,3.3289973735809326,XXXXX
89, 8116, 8144, 8183, 8212, 8176, 8181, 8172, 8166, 8193, 8186, 8210, 8207, 8261, 9579,3.337085008621216,XXXXX
90, 8298, 8196, 8127, 8081, 8154, 8148, 8146, 8174, 8160, 8182, 8087, 8144, 8304, 9698,3.3451578617095947,XXXXX
91, 8042, 8157, 8213, 8246, 8177, 8182, 8164, 8165, 8173, 8193, 8243, 8217, 8271, 9533,3.3527491092681885,XXXXX
92, 8148, 8163, 8180, 8174, 8176, 8173, 8167, 8173, 8175, 8192, 8164, 8172, 8277, 9641,3.3592164516448975,XXXXX
93, 8256, 8193, 8148, 8116, 8167, 8159, 8158, 8172, 8165, 8183, 8102, 8151, 8291, 9726,3.3673949241638184,XXXXX
94, 8067, 8155, 8190, 8229, 8180, 8188, 8169, 8172, 8190, 8190, 8228, 8214, 8255, 9579,3.374729633331299,XXXXX
95, 8315, 8193, 8134, 8100, 8167, 8158, 8161, 8181, 8162, 8187, 8081, 8134, 8301, 9720,3.382765054702759,XXXXX
96, 8098, 8159, 8191, 8217, 8171, 8182, 8176, 8166, 8174, 8188, 8201, 8199, 8273, 9542,3.390692710876465,XXXXX
97, 8118, 8164, 8161, 8156, 8162, 8168, 8170, 8166, 8184, 8185, 8185, 8201, 8267, 9580,3.3986682891845703,XXXXX
98, 8266, 8191, 8146, 8095, 8162, 8150, 8159, 8168, 8165, 8189, 8131, 8173, 8298, 9717,3.4066498279571533,XXXXX
99, 8053, 8146, 8203, 8229, 8174, 8185, 8173, 8170, 8182, 8197, 8260, 8227, 8268, 9561,3.415177345275879,XXXXX
100, 8255, 8198, 8148, 8104, 8158, 8149, 8157, 8179, 8162, 8183, 8108, 8156, 8301, 9710,3.42257022857666,XXXXX
101, 8111, 8166, 8208, 8217, 8175, 8168, 8167, 8164, 8178, 8189, 8206, 8208, 8276, 9623,3.4305644035339355,XXXXX
102, 8154, 8157, 8180, 8178, 8173, 8169, 8168, 8172, 8184, 8193, 8192, 8193, 8273, 9623,3.438262939453125,XXXXX
103, 8294, 8199, 8147, 8105, 8163, 8155, 8154, 8182, 8159, 8183, 8101, 8147, 8299, 9708,3.4462907314300537,XXXXX
104, 8018, 8149, 8222, 8267, 8176, 8197, 8169, 8172, 8193, 8193, 8245, 8216, 8254, 9541,3.454169273376465,XXXXX
105, 8268, 8190, 8152, 8119, 8165, 8164, 8161, 8176, 8177, 8191, 8096, 8137, 8296, 9726,3.462195873260498,XXXXX
106, 8195, 8173, 8181, 8186, 8178, 8180, 8171, 8167, 8176, 8192, 8160, 8171, 8282, 9658,3.4699196815490723,XXXXX
107, 8153, 8155, 8171, 8190, 8172, 8184, 8171, 8171, 8185, 8194, 8178, 8185, 8265, 9603,3.4777162075042725,XXXXX
108, 8342, 8201, 8130, 8090, 8160, 8149, 8154, 8173, 8162, 8183, 8072, 8133, 8305, 9732,3.4852166175842285,XXXXX
109, 8091, 8154, 8197, 8237, 8178, 8186, 8170, 8163, 8191, 8190, 8219, 8197, 8267, 9578,3.49298357963562,XXXXX
110, 8271, 8184, 8131, 8104, 8160, 8159, 8159, 8176, 8173, 8193, 8100, 8139, 8292, 9697,3.5007083415985107,XXXXX
111, 8204, 8176, 8162, 8154, 8163, 8163, 8162, 8173, 8173, 8194, 8166, 8190, 8282, 9628,3.5101916790008545,XXXXX
112, 8124, 8156, 8165, 8170, 8170, 8174, 8168, 8168, 8194, 8187, 8210, 8213, 8269, 9577,3.5178987979888916,XXXXX
113, 8286, 8199, 8111, 8062, 8159, 8145, 8151, 8170, 8167, 8176, 8082, 8140, 8304, 9699,3.5258021354675293,XXXXX
114, 8007, 8149, 8196, 8238, 8172, 8185, 8164, 8167, 8188, 8188, 8249, 8222, 8256, 9499,3.5334677696228027,XXXXX
115, 8213, 8180, 8157, 8123, 8166, 8158, 8154, 8179, 8175, 8186, 8154, 8179, 8284, 9650,3.5399246215820312,XXXXX
116, 8207, 8185, 8171, 8144, 8168, 8153, 8158, 8166, 8168, 8187, 8163, 8186, 8292, 9683,3.547625780105591,XXXXX
117, 8090, 8155, 8187, 8206, 8168, 8174, 8169, 8167, 8187, 8193, 8215, 8208, 8269, 9597,3.55704665184021,XXXXX
118, 8318, 8198, 8143, 8098, 8165, 8151, 8154, 8179, 8161, 8186, 8089, 8139, 8307, 9710,3.5647897720336914,XXXXX
119, 8078, 8151, 8209, 8245, 8185, 8184, 8169, 8164, 8184, 8190, 8245, 8210, 8267, 9524,3.5725412368774414,XXXXX
120, 8230, 8175, 8144, 8124, 8167, 8163, 8158, 8168, 8177, 8186, 8131, 8163, 8288, 9635,3.5809249877929688,XXXXX
121, 8247, 8184, 8150, 8130, 8169, 8164, 8160, 8170, 8162, 8188, 8112, 8165, 8299, 9661,3.5890519618988037,XXXXX
122, 8071, 8147, 8184, 8212, 8175, 8179, 8175, 8169, 8181, 8191, 8220, 8206, 8267, 9546,3.596858501434326,XXXXX
123, 8284, 8200, 8127, 8070, 8157, 8138, 8153, 8174, 8162, 8178, 8097, 8143, 8307, 9689,3.6049253940582275,XXXXX
124, 8054, 8157, 8207, 8227, 8171, 8178, 8164, 8169, 8189, 8189, 8247, 8224, 8269, 9537,3.611279249191284,XXXXX
125, 8181, 8169, 8170, 8163, 8166, 8164, 8161, 8177, 8180, 8187, 8168, 8179, 8279, 9643,3.6193196773529053,XXXXX
126, 8253, 8197, 8158, 8141, 8169, 8156, 8162, 8166, 8159, 8178, 8113, 8151, 8299, 9701,3.6271960735321045,XXXXX
127, 8057, 8155, 8190, 8227, 8177, 8193, 8175, 8160, 8190, 8186, 8225, 8210, 8260, 9536,3.635316848754883,XXXXX
238, 8294, 8194, 8121, 8065, 8156, 8155, 8154, 8172, 8166, 8183, 8104, 8149, 8293, 9679,3.642671585083008,XXXXX
0, 8082, 8158, 8198, 8202, 8172, 8172, 8165, 8170, 8178, 8185, 8243, 8217, 8273, 9558,3.6506354808807373,XXXXX
1, 8132, 8170, 8176, 8166, 8166, 8166, 8161, 8181, 8185, 8182, 8180, 8186, 8286, 9616,3.659553289413452,XXXXX
2, 8245, 8202, 8149, 8116, 8162, 8160, 8153, 8173, 8164, 8180, 8103, 8147, 8303, 9689,3.6676087379455566,XXXXX
3, 8055, 8146, 8194, 8225, 8181, 8194, 8173, 8162, 8184, 8190, 8237, 8212, 8261, 9535,3.675417900085449,XXXXX
4, 8302, 8185, 8132, 8083, 8167, 8154, 8159, 8174, 8162, 8181, 8097, 8145, 8304, 9691,3.6817731857299805,XXXXX
5, 8104, 8162, 8192, 8198, 8167, 8172, 8163, 8168, 8173, 8183, 8205, 8201, 8283, 9565,3.6896238327026367,XXXXX
6, 8099, 8157, 8176, 8175, 8163, 8176, 8161, 8173, 8183, 8185, 8196, 8200, 8276, 9582,3.6991519927978516,XXXXX
7, 8260, 8188, 8147, 8104, 8163, 8156, 8156, 8174, 8166, 8179, 8119, 8161, 8303, 9707,3.705497980117798,XXXXX
8, 8050, 8149, 8199, 8230, 8173, 8182, 8169, 8169, 8187, 8185, 8245, 8212, 8264, 9551,3.7150778770446777,XXXXX
9, 8307, 8192, 8142, 8105, 8163, 8153, 8149, 8177, 8161, 8182, 8102, 8139, 8298, 9708,3.722942590713501,XXXXX
10, 8198, 8163, 8197, 8207, 8184, 8180, 8161, 8168, 8174, 8192, 8188, 8189, 8274, 9633,3.730748414993286,XXXXX
11, 8148, 8159, 8171, 8176, 8176, 8180, 8164, 8174, 8187, 8189, 8165, 8172, 8266, 9625,3.73840594291687,XXXXX
12, 8295, 8205, 8125, 8075, 8158, 8151, 8150, 8176, 8157, 8178, 8063, 8121, 8303, 9716,3.746195077896118,XXXXX
13, 8040, 8143, 8206, 8237, 8172, 8189, 8172, 8163, 8186, 8191, 8269, 8233, 8253, 9489,3.7538790702819824,XXXXX
14, 8243, 8180, 8145, 8095, 8159, 8154, 8161, 8172, 8173, 8184, 8152, 8181, 8292, 9647,3.7617897987365723,XXXXX
15, 8168, 8182, 8166, 8144, 8166, 8163, 8163, 8170, 8163, 8178, 8174, 8185, 8296, 9642,3.7698941230773926,XXXXX
16, 8120, 8160, 8177, 8181, 8167, 8182, 8168, 8174, 8180, 8183, 8214, 8198, 8271, 9589,3.7778725624084473,XXXXX
17, 8324, 8198, 8149, 8105, 8158, 8159, 8152, 8173, 8163, 8184, 8118, 8156, 8298, 9715,3.78599214553833,XXXXX
18, 8068, 8149, 8216, 8262, 8177, 8186, 8170, 8163, 8184, 8194, 8248, 8218, 8268, 9574,3.7939398288726807,XXXXX
19, 8257, 8185, 8141, 8116, 8161, 8154, 8163, 8181, 8169, 8192, 8102, 8133, 8298, 9712,3.8017938137054443,XXXXX
20, 8209, 8187, 8156, 8146, 8162, 8163, 8166, 8169, 8172, 8191, 8131, 8155, 8289, 9635,3.8099136352539062,XXXXX
21, 8081, 8155, 8187, 8207, 8170, 8179, 8170, 8159, 8190, 8190, 8219, 8211, 8266, 9527,3.816298484802246,XXXXX
22, 8295, 8197, 8150, 8094, 8160, 8141, 8153, 8173, 8154, 8184, 8119, 8165, 8304, 9714,3.824302911758423,XXXXX
23, 8065, 8152, 8216, 8236, 8171, 8176, 8166, 8172, 8173, 8197, 8258, 8224, 8261, 9596,3.8321611881256104,XXXXX
24, 8208, 8178, 8156, 8123, 8163, 8160, 8159, 8174, 8172, 8191, 8136, 8158, 8288, 9681,3.8402483463287354,XXXXX
25, 8177, 8180, 8171, 8155, 8174, 8159, 8166, 8169, 8165, 8184, 8159, 8173, 8295, 9633,3.8482561111450195,XXXXX
26, 8060, 8138, 8202, 8235, 8181, 8182, 8175, 8175, 8184, 8191, 8247, 8211, 8259, 9541,3.856398582458496,XXXXX
27, 8330, 8191, 8132, 8083, 8167, 8151, 8153, 8178, 8161, 8191, 8069, 8127, 8303, 9714,3.8637735843658447,XXXXX
28, 8070, 8155, 8191, 8217, 8179, 8182, 8169, 8163, 8185, 8198, 8209, 8206, 8272, 9526,3.8718600273132324,XXXXX
29, 8180, 8165, 8160, 8145, 8161, 8157, 8166, 8176, 8176, 8189, 8167, 8181, 8279, 9618,3.8801865577697754,XXXXX
30, 8256, 8176, 8180, 8150, 8161, 8152, 8161, 8177, 8161, 8184, 8161, 8172, 8291, 9698,3.8881449699401855,XXXXX
31, 8072, 8147, 8215, 8234, 8175, 8189, 8168, 8171, 8187, 8194, 8247, 8216, 8266, 9582,3.8953888416290283,XXXXX
32, 8294, 8199, 8127, 8080, 8165, 8151, 8155, 8176, 8162, 8185, 8081, 8135, 8310, 9729,3.9032039642333984,XXXXX
33, 8090, 8156, 8189, 8221, 8180, 8177, 8176, 8167, 8183, 8188, 8212, 8196, 8275, 9570,3.9107773303985596,XXXXX
34, 8199, 8165, 8163, 8155, 8171, 8175, 8168, 8176, 8186, 8188, 8162, 8174, 8281, 9618,3.918745994567871,XXXXX
35, 8302, 8191, 8147, 8105, 8167, 8163, 8153, 8179, 8163, 8187, 8119, 8164, 8304, 9676,3.9278552532196045,XXXXX
36, 8050, 8146, 8192, 8207, 8179, 8188, 8174, 8174, 8190, 8195, 8240, 8225, 8269, 9526,3.9357361793518066,XXXXX
37, 8272, 8194, 8122, 8063, 8157, 8150, 8164, 8174, 8168, 8184, 8086, 8143, 8303, 9711,3.943448305130005,XXXXX
38, 8122, 8164, 8173, 8192, 8163, 8173, 8167, 8159, 8178, 8183, 8205, 8201, 8268, 9590,3.949768304824829,XXXXX
39, 8161, 8165, 8157, 8152, 8161, 8168, 8162, 8170, 8182, 8184, 8189, 8198, 8275, 9595,3.957754373550415,XXXXX
40, 8275, 8194, 8152, 8095, 8155, 8153, 8159, 8179, 8164, 8180, 8125, 8171, 8313, 9696,3.966728687286377,XXXXX
41, 8034, 8144, 8208, 8238, 8165, 8186, 8175, 8170, 8189, 8186, 8261, 8226, 8265, 9554,3.974522590637207,XXXXX
42, 8257, 8191, 8135, 8094, 8154, 8148, 8158, 8171, 8165, 8181, 8113, 8149, 8296, 9704,3.98256254196167,XXXXX
43, 8131, 8167, 8192, 8190, 8169, 8171, 8162, 8166, 8177, 8187, 8218, 8207, 8283, 9602,3.9905455112457275,XXXXX
44, 8134, 8156, 8178, 8176, 8167, 8176, 8160, 8177, 8187, 8184, 8218, 8205, 8278, 9602,3.9986648559570312,XXXXX
45, 8251, 8197, 8136, 8093, 8163, 8151, 8156, 8174, 8159, 8178, 8104, 8151, 8310, 9701,4.006512641906738,XXXXX
46, 8008, 8150, 8202, 8235, 8176, 8186, 8177, 8162, 8186, 8190, 8244, 8214, 8268, 9529,4.012848615646362,XXXXX
47, 8287, 8190, 8149, 8104, 8158, 8156, 8160, 8173, 8171, 8183, 8114, 8143, 8297, 9684,4.020622968673706,XXXXX
48, 8186, 8175, 8188, 8184, 8170, 8169, 8166, 8167, 8175, 8186, 8179, 8183, 8281, 9604,4.028700590133667,XXXXX
49, 8097, 8157, 8177, 8186, 8167, 8172, 8173, 8173, 8192, 8191, 8201, 8201, 8272, 9564,4.037647008895874,XXXXX
50, 8270, 8202, 8138, 8082, 8155, 8141, 8158, 8176, 8168, 8179, 8096, 8145, 8313, 9701,4.045577764511108,XXXXX
51, 8048, 8152, 8213, 8239, 8178, 8181, 8174, 8162, 8189, 8184, 8238, 8210, 8264, 9546,4.053562164306641,XXXXX
52, 8277, 8183, 8142, 8111, 8161, 8158, 8167, 8168, 8171, 8185, 8102, 8146, 8285, 9678,4.061530113220215,XXXXX
53, 8194, 8177, 8164, 8162, 8159, 8169, 8171, 8164, 8170, 8189, 8156, 8178, 8285, 9611,4.069343090057373,XXXXX
54, 8072, 8150, 8182, 8205, 8171, 8182, 8172, 8167, 8187, 8188, 8222, 8205, 8272, 9540,4.075714111328125,XXXXX
55, 8307, 8200, 8133, 8087, 8166, 8147, 8157, 8173, 8157, 8179, 8083, 8133, 8307, 9710,4.085207939147949,XXXXX
56, 8071, 8157, 8202, 8231, 8174, 8181, 8172, 8166, 8183, 8189, 8225, 8207, 8265, 9536,4.091771364212036,XXXXX
57, 8224, 8173, 8154, 8119, 8161, 8160, 8155, 8173, 8178, 8186, 8139, 8173, 8294, 9634,4.100719213485718,XXXXX
58, 8226, 8173, 8165, 8141, 8166, 8157, 8157, 8165, 8167, 8187, 8160, 8185, 8297, 9651,4.108602046966553,XXXXX
59, 8097, 8152, 8180, 8194, 8167, 8172, 8176, 8167, 8187, 8189, 8221, 8206, 8267, 9572,4.116436719894409,XXXXX
60, 8289, 8203, 8135, 8075, 8157, 8145, 8161, 8176, 8163, 8180, 8094, 8145, 8305, 9705,4.124411582946777,XXXXX
61, 8045, 8151, 8217, 8243, 8176, 8184, 8171, 8167, 8184, 8193, 8256, 8227, 8267, 9536,4.132234811782837,XXXXX
62, 8218, 8167, 8160, 8146, 8169, 8161, 8164, 8174, 8179, 8195, 8149, 8164, 8285, 9646,4.140215873718262,XXXXX
63, 8256, 8183, 8154, 8137, 8174, 8156, 8165, 8171, 8167, 8191, 8117, 8149, 8298, 9670,4.146517753601074,XXXXX
64, 8061, 8147, 8193, 8224, 8177, 8185, 8174, 8165, 8188, 8192, 8229, 8213, 8270, 9534,4.155903339385986,XXXXX
65, 8298, 8192, 8135, 8079, 8156, 8147, 8152, 8171, 8162, 8182, 8090, 8150, 8309, 9689,4.1636717319488525,XXXXX
66, 8081, 8148, 8201, 8218, 8171, 8174, 8165, 8167, 8176, 8187, 8222, 8219, 8272, 9534,4.171772241592407,XXXXX
67, 8165, 8166, 8164, 8148, 8165, 8164, 8161, 8179, 8171, 8182, 8168, 8193, 8283, 9609,4.179553270339966,XXXXX
68, 8236, 8194, 8161, 8124, 8169, 8155, 8156, 8171, 8159, 8180, 8139, 8177, 8298, 9679,4.187497138977051,XXXXX
69, 8057, 8150, 8205, 8237, 8183, 8181, 8173, 8165, 8189, 8193, 8246, 8218, 8259, 9551,4.1951823234558105,XXXXX
70, 8320, 8200, 8134, 8093, 8162, 8146, 8158, 8178, 8160, 8188, 8079, 8130, 8300, 9723,4.203351736068726,XXXXX
71, 8116, 8167, 8192, 8214, 8172, 8180, 8174, 8166, 8178, 8190, 8197, 8189, 8274, 9576,4.209642648696899,XXXXX
72, 8166, 8162, 8153, 8152, 8169, 8177, 8171, 8171, 8192, 8189, 8157, 8172, 8280, 9602,4.219146490097046,XXXXX
73, 8297, 8186, 8132, 8101, 8161, 8155, 8157, 8172, 8168, 8182, 8105, 8154, 8306, 9686,4.227161169052124,XXXXX
74, 8055, 8143, 8192, 8228, 8169, 8183, 8174, 8162, 8184, 8188, 8256, 8232, 8263, 9524,4.233688592910767,XXXXX
75, 8249, 8195, 8115, 8065, 8157, 8146, 8163, 8173, 8165, 8186, 8095, 8153, 8299, 9676,4.242702960968018,XXXXX
76, 8088, 8171, 8170, 8174, 8173, 8165, 8170, 8167, 8180, 8192, 8182, 8197, 8277, 9564,4.250791072845459,XXXXX
77, 8135, 8165, 8176, 8170, 8169, 8165, 8164, 8174, 8180, 8187, 8194, 8201, 8269, 9577,4.258711099624634,XXXXX
78, 8297, 8196, 8159, 8110, 8162, 8149, 8155, 8182, 8154, 8179, 8126, 8164, 8301, 9697,4.266702890396118,XXXXX
79, 8037, 8142, 8213, 8252, 8176, 8188, 8174, 8175, 8186, 8192, 8245, 8211, 8268, 9546,4.273902654647827,XXXXX
80, 8269, 8188, 8142, 8108, 8156, 8156, 8159, 8175, 8171, 8189, 8083, 8133, 8304, 9706,4.281832933425903,XXXXX
81, 8171, 8172, 8177, 8179, 8162, 8172, 8164, 8167, 8180, 8190, 8178, 8195, 8281, 9609,4.289669752120972,XXXXX
82, 8119, 8154, 8160, 8160, 8167, 8176, 8168, 8177, 8191, 8189, 8208, 8209, 8267, 9567,4.297596216201782,XXXXX
83, 8268, 8197, 8129, 8069, 8162, 8145, 8160, 8180, 8163, 8176, 8098, 8151, 8308, 9688,4.305404424667358,XXXXX
84, 8017, 8149, 8212, 8242, 8173, 8183, 8175, 8166, 8188, 8187, 8248, 8224, 8265, 9516,4.313359498977661,XXXXX
85, 8262, 8180, 8157, 8129, 8165, 8160, 8155, 8175, 8174, 8188, 8123, 8154, 8293, 9688,4.321187257766724,XXXXX
86, 8220, 8173, 8188, 8188, 8183, 8171, 8160, 8171, 8170, 8186, 8165, 8171, 8284, 9671,4.329090356826782,XXXXX
87, 8132, 8159, 8180, 8197, 8179, 8179, 8170, 8171, 8187, 8188, 8189, 8184, 8264, 9602,4.336824178695679,XXXXX
88, 8322, 8204, 8120, 8074, 8160, 8150, 8158, 8173, 8162, 8185, 8061, 8121, 8305, 9716,4.3446550369262695,XXXXX
89, 8063, 8151, 8193, 8231, 8178, 8185, 8174, 8167, 8181, 8190, 8223, 8203, 8267, 9535,4.352421998977661,XXXXX
90, 8233, 8179, 8140, 8107, 8163, 8154, 8162, 8178, 8171, 8178, 8132, 8170, 8288, 9648,4.360278844833374,XXXXX
91, 8198, 8178, 8158, 8130, 8166, 8160, 8159, 8167, 8167, 8181, 8170, 8193, 8284, 9622,4.36823034286499,XXXXX
92, 8074, 8146, 8189, 8200, 8174, 8183, 8167, 8165, 8184, 8191, 8232, 8213, 8262, 9558,4.37619423866272,XXXXX
93, 8285, 8191, 8145, 8097, 8165, 8153, 8154, 8175, 8161, 8184, 8092, 8144, 8305, 9727,4.383961915969849,XXXXX
94, 8061, 8145, 8202, 8240, 8180, 8188, 8171, 8163, 8186, 8191, 8228, 8214, 8269, 9554,4.391726493835449,XXXXX
95, 8235, 8169, 8139, 8116, 8165, 8161, 8161, 8169, 8175, 8187, 8130, 8163, 8291, 9630,4.399553537368774,XXXXX
96, 8216, 8179, 8163, 8137, 8166, 8155, 8161, 8172, 8163, 8180, 8155, 8179, 8297, 9626,4.407294988632202,XXXXX
97, 8041, 8147, 8209, 8238, 8175, 8183, 8173, 8175, 8191, 8182, 8250, 8221, 8268, 9544,4.415053129196167,XXXXX
98, 8314, 8206, 8129, 8086, 8163, 8152, 8162, 8178, 8169, 8183, 8068, 8130, 8310, 9721,4.422948360443115,XXXXX
99, 8105, 8160, 8177, 8205, 8180, 8177, 8181, 8166, 8183, 8194, 8203, 8203, 8270, 9545,4.430710554122925,XXXXX
100, 8193, 8166, 8154, 8135, 8171, 8159, 8165, 8177, 8176, 8187, 8165, 8183, 8280, 9612,4.438742160797119,XXXXX
101, 8225, 8188, 8177, 8149, 8166, 8155, 8153, 8170, 8164, 8185, 8145, 8168, 8295, 9666,4.44668173789978,XXXXX
102, 8044, 8147, 8206, 8252, 8177, 8188, 8174, 8159, 8191, 8193, 8228, 8207, 8260, 9547,4.456235647201538,XXXXX
103, 8319, 8195, 8118, 8082, 8167, 8152, 8162, 8168, 8164, 8177, 8068, 8137, 8305, 9705,4.462564945220947,XXXXX
104, 8124, 8163, 8182, 8198, 8173, 8176, 8165, 8164, 8179, 8186, 8215, 8213, 8278, 9546,4.470500469207764,XXXXX
105, 8165, 8166, 8164, 8151, 8159, 8168, 8162, 8173, 8179, 8192, 8182, 8192, 8277, 9598,4.478334426879883,XXXXX
106, 8249, 8188, 8155, 8130, 8168, 8153, 8162, 8172, 8159, 8180, 8123, 8162, 8296, 9700,4.486337900161743,XXXXX
107, 8060, 8148, 8201, 8243, 8191, 8187, 8174, 8169, 8184, 8182, 8232, 8210, 8262, 9559,4.49433970451355,XXXXX
108, 8325, 8197, 8125, 8076, 8164, 8154, 8154, 8176, 8162, 8184, 8080, 8132, 8301, 9694,4.502429723739624,XXXXX
109, 8143, 8158, 8187, 8198, 8164, 8169, 8165, 8165, 8179, 8192, 8208, 8202, 8276, 9559,4.510412216186523,XXXXX
110, 8139, 8152, 8181, 8178, 8165, 8166, 8167, 8174, 8187, 8188, 8198, 8195, 8277, 9598,4.518189430236816,XXXXX
111, 8268, 8195, 8152, 8107, 8168, 8157, 8159, 8174, 8164, 8187, 8111, 8149, 8303, 9707,4.52607536315918,XXXXX
112, 8054, 8151, 8187, 8226, 8182, 8187, 8175, 8163, 8193, 8196, 8234, 8215, 8263, 9523,4.533960819244385,XXXXX
113, 8288, 8187, 8116, 8078, 8158, 8146, 8159, 8175, 8171, 8179, 8091, 8150, 8301, 9663,4.541776180267334,XXXXX
114, 8124, 8160, 8194, 8195, 8162, 8173, 8164, 8173, 8172, 8181, 8207, 8206, 8277, 9577,4.54980206489563,XXXXX
115, 8080, 8153, 8195, 8201, 8166, 8180, 8165, 8179, 8182, 8187, 8219, 8204, 8268, 9585,4.55781102180481,XXXXX
116, 8259, 8196, 8139, 8104, 8167, 8152, 8157, 8180, 8162, 8178, 8096, 8142, 8306, 9720,4.565831899642944,XXXXX
117, 8046, 8147, 8200, 8240, 8180, 8192, 8180, 8170, 8191, 8186, 8241, 8213, 8261, 9545,4.5737011432647705,XXXXX
118, 8281, 8185, 8143, 8105, 8161, 8161, 8173, 8178, 8175, 8187, 8108, 8147, 8296, 9678,4.581498861312866,XXXXX
119, 8182, 8174, 8170, 8175, 8172, 8168, 8174, 8170, 8172, 8190, 8151, 8173, 8285, 9604,4.589458227157593,XXXXX
120, 8105, 8159, 8168, 8184, 8173, 8173, 8167, 8171, 8182, 8191, 8189, 8199, 8263, 9553,4.597521781921387,XXXXX
121, 8296, 8201, 8137, 8076, 8162, 8145, 8151, 8174, 8160, 8182, 8103, 8162, 8300, 9702,4.603785276412964,XXXXX
122, 8042, 8147, 8207, 8227, 8179, 8181, 8170, 8169, 8187, 8182, 8264, 8232, 8262, 9548,4.611760854721069,XXXXX
123, 8231, 8182, 8142, 8109, 8163, 8153, 8158, 8181, 8169, 8177, 8130, 8157, 8289, 9679,4.619562149047852,XXXXX
124, 8189, 8184, 8173, 8168, 8168, 8165, 8165, 8165, 8164, 8190, 8150, 8170, 8285, 9638,4.629180192947388,XXXXX
125, 8097, 8152, 8181, 8198, 8177, 8180, 8179, 8163, 8185, 8198, 8203, 8195, 8262, 9553,4.635647296905518,XXXXX
126, 8307, 8194, 8128, 8066, 8166, 8140, 8162, 8182, 8157, 8180, 8097, 8145, 8306, 9689,4.64378809928894,XXXXX
127, 8035, 8150, 8220, 8244, 8169, 8177, 8175, 8177, 8179, 8181, 8273, 8234, 8273, 9526,4.652791500091553,XXXXX
238, 8197, 8177, 8170, 8147, 8158, 8162, 8167, 8176, 8175, 8182, 8156, 8172, 8290, 9669,4.660977363586426,XXXXX
0, 8211, 8183, 8162, 8146, 8173, 8160, 8169, 8168, 8167, 8183, 8140, 8166, 8289, 9684,4.667114734649658,XXXXX
1, 8090, 8149, 8179, 8212, 8179, 8179, 8176, 8172, 8182, 8190, 8210, 8202, 8268, 9570,4.674875497817993,XXXXX
2, 8338, 8196, 8131, 8094, 8165, 8152, 8157, 8177, 8156, 8182, 8074, 8140, 8311, 9704,4.682539939880371,XXXXX
3, 8077, 8149, 8201, 8231, 8181, 8185, 8173, 8161, 8188, 8187, 8230, 8217, 8268, 9529,4.691925525665283,XXXXX
4, 8174, 8168, 8142, 8119, 8166, 8160, 8167, 8172, 8187, 8184, 8137, 8165, 8285, 9632,4.69965386390686,XXXXX
5, 8221, 8184, 8143, 8117, 8169, 8153, 8161, 8173, 8164, 8186, 8126, 8169, 8301, 9651,4.707448959350586,XXXXX
6, 8033, 8146, 8194, 8225, 8184, 8183, 8171, 8166, 8188, 8192, 8273, 8243, 8262, 9489,4.715167284011841,XXXXX
7, 8266, 8198, 8137, 8089, 8161, 8146, 8156, 8171, 8167, 8178, 8131, 8163, 8302, 9692,4.7229931354522705,XXXXX
8, 8086, 8159, 8193, 8215, 8167, 8172, 8169, 8167, 8178, 8186, 8222, 8209, 8273, 9610,4.730954647064209,XXXXX
9, 8202, 8169, 8156, 8143, 8166, 8163, 8164, 8179, 8176, 8186, 8159, 8180, 8278, 9652,4.739108085632324,XXXXX
10, 8279, 8192, 8162, 8135, 8166, 8157, 8159, 8174, 8166, 8179, 8138, 8166, 8294, 9663,4.747148036956787,XXXXX
11, 8048, 8145, 8212, 8251, 8170, 8187, 8174, 8163, 8193, 8189, 8250, 8219, 8263, 9516,4.753708839416504,XXXXX
12, 8288, 8195, 8130, 8073, 8157, 8147, 8158, 8171, 8170, 8186, 8072, 8138, 8305, 9723,4.762839078903198,XXXXX
13, 8144, 8170, 8175, 8180, 8177, 8173, 8170, 8167, 8182, 8189, 8173, 8187, 8272, 9624,4.770921945571899,XXXXX
14, 8199, 8163, 8154, 8153, 8170, 8169, 8167, 8171, 8183, 8186, 8162, 8180, 8269, 9607,4.779010534286499,XXXXX
15, 8263, 8183, 8144, 8109, 8158, 8149, 8156, 8169, 8162, 8182, 8133, 8173, 8299, 9648,4.787135601043701,XXXXX
16, 8013, 8144, 8208, 8242, 8174, 8184, 8169, 8164, 8188, 8190, 8267, 8235, 8260, 9522,4.793886184692383,XXXXX
17, 8281, 8198, 8139, 8101, 8163, 8152, 8154, 8174, 8162, 8184, 8091, 8141, 8297, 9710,4.80164909362793,XXXXX
18, 8149, 8166, 8184, 8197, 8172, 8171, 8167, 8166, 8174, 8187, 8181, 8189, 8279, 9585,4.808915615081787,XXXXX
19, 8144, 8157, 8167, 8170, 8167, 8170, 8173, 8173, 8186, 8186, 8191, 8196, 8274, 9571,4.816910266876221,XXXXX
20, 8269, 8201, 8137, 8096, 8160, 8146, 8161, 8172, 8160, 8183, 8110, 8159, 8296, 9672,4.8248045444488525,XXXXX
21, 8010, 8147, 8204, 8238, 8177, 8180, 8172, 8163, 8187, 8193, 8249, 8221, 8254, 9509,4.832730770111084,XXXXX
22, 8286, 8185, 8142, 8097, 8166, 8153, 8156, 8178, 8174, 8186, 8104, 8145, 8297, 9692,4.840698957443237,XXXXX
23, 8195, 8170, 8189, 8191, 8175, 8174, 8166, 8168, 8177, 8192, 8182, 8189, 8282, 9608,4.848977565765381,XXXXX
24, 8113, 8155, 8177, 8201, 8167, 8178, 8173, 8168, 8186, 8193, 8199, 8193, 8267, 9560,4.8580639362335205,XXXXX
25, 8326, 8204, 8120, 8088, 8159, 8151, 8159, 8175, 8162, 8180, 8073, 8129, 8310, 9736,4.8646697998046875,XXXXX
26, 8097, 8157, 8189, 8231, 8183, 8191, 8176, 8170, 8190, 8190, 8218, 8202, 8270, 9583,4.87190055847168,XXXXX
27, 8278, 8185, 8132, 8093, 8161, 8155, 8161, 8175, 8174, 8187, 8095, 8142, 8294, 9689,4.879782438278198,XXXXX
28, 8215, 8177, 8163, 8142, 8158, 8160, 8162, 8165, 8174, 8184, 8156, 8182, 8286, 9632,4.887596368789673,XXXXX
29, 8107, 8157, 8176, 8184, 8165, 8183, 8173, 8166, 8194, 8184, 8217, 8210, 8269, 9573,4.895803451538086,XXXXX
30, 8296, 8201, 8130, 8078, 8155, 8155, 8159, 8172, 8168, 8182, 8088, 8141, 8309, 9720,4.903640985488892,XXXXX
31, 8075, 8152, 8194, 8218, 8169, 8177, 8173, 8169, 8189, 8192, 8235, 8219, 8264, 9544,4.911686897277832,XXXXX
32, 8255, 8187, 8125, 8088, 8158, 8150, 8167, 8176, 8177, 8181, 8124, 8173, 8284, 9648,4.919636011123657,XXXXX
33, 8187, 8189, 8143, 8128, 8164, 8166, 8167, 8161, 8169, 8178, 8146, 8178, 8285, 9616,4.92768669128418,XXXXX
34, 8049, 8149, 8192, 8221, 8172, 8181, 8168, 8164, 8183, 8187, 8238, 8218, 8261, 9530,4.935775518417358,XXXXX
35, 8307, 8194, 8157, 8100, 8163, 8137, 8154, 8181, 8156, 8179, 8109, 8162, 8304, 9727,0.0052340030670166016,XXXXX
36, 8076, 8154, 8209, 8224, 8176, 8182, 8173, 8170, 8183, 8186, 8236, 8223, 8267, 9582,0.012839794158935547,purple
37, 8213, 8177, 8154, 8128, 8162, 8170, 8161, 8170, 8175, 8188, 8148, 8170, 8282, 9669,0.020774364471435547,purple
38, 8232, 8188, 8181, 8162, 8165, 8157, 8162, 8166, 8160, 8185, 8161, 8178, 8289, 9691,0.02858757972717285,purple
39, 8062, 8152, 8213, 8245, 8176, 8186, 8176, 8171, 8190, 8187, 8243, 8213, 8256, 9588,0.03654980659484863,purple
40, 8310, 8204, 8132, 8085, 8170, 8156, 8155, 8181, 8169, 8181, 8071, 8121, 8299, 9751,0.04463076591491699,purple
41, 8114, 8164, 8195, 8225, 8183, 8180, 8172, 8171, 8180, 8190, 8204, 8191, 8276, 9608,0.05352520942687988,purple
42, 8214, 8170, 8157, 8150, 8163, 8167, 8168, 8179, 8177, 8187, 8144, 8164, 8291, 9661,0.05993056297302246,purple
43, 8237, 8188, 8147, 8124, 8166, 8160, 8163, 8173, 8170, 8183, 8121, 8156, 8296, 9647,0.06777262687683105,purple
44, 8036, 8148, 8189, 8218, 8179, 8184, 8175, 8164, 8196, 8188, 8241, 8224, 8256, 9503,0.07551431655883789,purple
45, 8302, 8193, 8129, 8067, 8155, 8147, 8153, 8174, 8162, 8183, 8100, 8157, 8306, 9705,0.08353853225708008,purple
46, 8089, 8157, 8207, 8219, 8169, 8174, 8167, 8169, 8173, 8195, 8238, 8216, 8278, 9571,0.09157562255859375,purple
47, 8129, 8165, 8185, 8184, 8168, 8163, 8175, 8178, 8181, 8190, 8190, 8184, 8279, 9612,0.10039997100830078,purple
48, 8259, 8198, 8155, 8126, 8163, 8150, 8163, 8172, 8163, 8177, 8111, 8148, 8299, 9720,0.10814404487609863,purple
49, 8079, 8157, 8197, 8238, 8175, 8187, 8169, 8165, 8187, 8188, 8236, 8210, 8254, 9581,0.1159827709197998,purple
50, 8318, 8201, 8137, 8094, 8163, 8155, 8157, 8175, 8161, 8185, 8083, 8138, 8299, 9701,0.12381958961486816,purple
51, 8126, 8164, 8196, 8206, 8174, 8177, 8169, 8165, 8176, 8183, 8186, 8190, 8282, 9553,0.1317281723022461,purple
52, 8130, 8158, 8167, 8168, 8170, 8170, 8167, 8173, 8190, 8181, 8190, 8185, 8267, 9571,0.13970518112182617,purple
53, 8261, 8198, 8135, 8088, 8165, 8148, 8158, 8175, 8166, 8182, 8127, 8160, 8289, 9678,0.14763808250427246,purple
54, 8024, 8152, 8203, 8233, 8177, 8183, 8171, 8162, 8185, 8193, 8259, 8228, 8259, 9527,0.15538859367370605,purple
55, 8282, 8196, 8135, 8098, 8163, 8151, 8157, 8169, 8168, 8183, 8106, 8146, 8296, 9699,0.1632089614868164,purple
56, 8171, 8177, 8169, 8177, 8172, 8174, 8167, 8165, 8182, 8185, 8180, 8184, 8274, 9588,0.1709747314453125,purple
57, 8135, 8161, 8159, 8163, 8164, 8181, 8164, 8168, 8193, 8192, 8180, 8190, 8268, 9548,0.17893052101135254,purple
58, 8299, 8197, 8136, 8078, 8154, 8148, 8149, 8166, 8161, 8184, 8096, 8150, 8304, 9691,0.1866767406463623,purple
59, 8034, 8145, 8218, 8243, 8171, 8185, 8174, 8161, 8183, 8188, 8269, 8232, 8260, 9519,0.1946089267730713,purple
60, 8254, 8187, 8158, 8120, 8158, 8158, 8166, 8175, 8169, 8183, 8124, 8156, 8297, 9676,0.20245671272277832,purple
61, 8213, 8183, 8179, 8180, 8172, 8169, 8173, 8166, 8169, 8186, 8154, 8168, 8293, 9676,0.2105255126953125,purple
62, 8153, 8163, 8171, 8189, 8175, 8184, 8172, 8171, 8182, 8190, 8190, 8180, 8269, 9616,0.21848630905151367,purple
63, 8314, 8202, 8132, 8079, 8158, 8154, 8152, 8183, 8162, 8183, 8090, 8138, 8302, 9685,0.2262580394744873,purple
64, 8034, 8151, 8206, 8239, 8169, 8182, 8173, 8173, 8189, 8187, 8254, 8226, 8263, 9507,0.23404765129089355,purple
65, 8229, 8185, 8138, 8115, 8156, 8156, 8163, 8174, 8173, 8182, 8129, 8161, 8290, 9675,0.24196076393127441,purple
66, 8204, 8183, 8169, 8156, 8169, 8165, 8165, 8169, 8171, 8187, 8158, 8177, 8287, 9642,0.24977946281433105,purple
67, 8093, 8150, 8196, 8204, 8178, 8179, 8176, 8174, 8192, 8193, 8227, 8210, 8265, 9539,0.2576456069946289,purple
68, 8309, 8200, 8132, 8071, 8154, 8147, 8158, 8177, 8160, 8184, 8085, 8141, 8310, 9695,0.2656090259552002,purple
69, 8050, 8152, 8199, 8223, 8163, 8187, 8170, 8161, 8179, 8189, 8234, 8219, 8271, 9528,0.27342987060546875,purple
70, 8212, 8172, 8160, 8131, 8166, 8164, 8165, 8171, 8175, 8183, 8144, 8172, 8290, 9642,0.28122735023498535,purple
71, 8246, 8185, 8175, 8161, 8177, 8162, 8165, 8170, 8167, 8185, 8144, 8169, 8299, 9659,0.28907299041748047,purple
72, 8082, 8148, 8196, 8226, 8176, 8182, 8174, 8167, 8186, 8192, 8224, 8210, 8273, 9541,0.29680919647216797,purple
73, 8264, 8195, 8129, 8074, 8159, 8144, 8160, 8169, 8160, 8177, 8091, 8146, 8309, 9686,0.30486512184143066,purple
74, 8030, 8157, 8193, 8228, 8175, 8180, 8172, 8162, 8184, 8184, 8241, 8215, 8263, 9536,0.31370043754577637,purple
75, 8207, 8175, 8158, 8153, 8168, 8168, 8161, 8174, 8179, 8189, 8159, 8170, 8274, 9638,0.3215315341949463,purple
76, 8283, 8190, 8168, 8136, 8171, 8160, 8160, 8171, 8163, 8184, 8129, 8158, 8296, 9675,0.327756404876709,purple
77, 8061, 8150, 8201, 8225, 8174, 8185, 8175, 8162, 8190, 8187, 8235, 8213, 8264, 9527,0.3367500305175781,purple
78, 8268, 8199, 8127, 8072, 8156, 8147, 8153, 8170, 8168, 8185, 8089, 8148, 8298, 9691,0.3446767330169678,purple
79, 8070, 8159, 8197, 8203, 8172, 8177, 8169, 8167, 8180, 8194, 8224, 8209, 8270, 9560,0.35265016555786133,purple
80, 8192, 8165, 8175, 8162, 8166, 8171, 8171, 8174, 8181, 8187, 8170, 8170, 8284, 9622,0.3604557514190674,purple
81, 8328, 8191, 8155, 8128, 8162, 8158, 8165, 8169, 8164, 8180, 8104, 8147, 8300, 9715,0.3686087131500244,purple
82, 8106, 8149, 8183, 8215, 8173, 8190, 8182, 8166, 8187, 8189, 8215, 8212, 8256, 9576,0.37651538848876953,purple
83, 8299, 8196, 8114, 8062, 8155, 8157, 8165, 8175, 8163, 8182, 8078, 8141, 8299, 9695,0.38303422927856445,purple
84, 8103, 8161, 8188, 8200, 8167, 8175, 8169, 8163, 8178, 8184, 8218, 8216, 8279, 9541,0.39063191413879395,purple
85, 8151, 8154, 8169, 8163, 8165, 8167, 8164, 8169, 8182, 8179, 8202, 8206, 8275, 9583,0.39854955673217773,purple
86, 8268, 8187, 8147, 8105, 8161, 8152, 8153, 8171, 8158, 8175, 8123, 8158, 8295, 9688,0.4065053462982178,purple
87, 8018, 8149, 8215, 8255, 8177, 8188, 8169, 8164, 8191, 8188, 8250, 8214, 8259, 9535,0.4144437313079834,purple
88, 8274, 8201, 8145, 8102, 8166, 8156, 8160, 8179, 8174, 8184, 8091, 8142, 8304, 9727,0.42248058319091797,purple
89, 8151, 8175, 8190, 8193, 8176, 8177, 8168, 8175, 8174, 8187, 8187, 8191, 8279, 9641,0.4305570125579834,purple
90, 8140, 8160, 8175, 8185, 8169, 8178, 8167, 8174, 8182, 8189, 8187, 8180, 8266, 9619,0.43938589096069336,purple
91, 8301, 8196, 8127, 8092, 8160, 8156, 8160, 8169, 8169, 8180, 8082, 8135, 8304, 9703,0.4456367492675781,purple
92, 8029, 8144, 8189, 8226, 8173, 8190, 8175, 8162, 8200, 8189, 8245, 8226, 8262, 9490,0.45499205589294434,purple
93, 8237, 8185, 8138, 8090, 8158, 8153, 8157, 8178, 8171, 8186, 8130, 8167, 8291, 9659,0.46286630630493164,purple
94, 8175, 8174, 8175, 8168, 8168, 8167, 8164, 8174, 8165, 8186, 8189, 8193, 8283, 9653,0.47067904472351074,purple
95, 8124, 8156, 8170, 8184, 8170, 8174, 8169, 8175, 8186, 8189, 8205, 8199, 8271, 9609,0.4785122871398926,purple
96, 8285, 8200, 8143, 8099, 8167, 8146, 8156, 8174, 8166, 8189, 8099, 8149, 8305, 9699,0.4864680767059326,purple
97, 8050, 8151, 8212, 8247, 8186, 8187, 8177, 8166, 8190, 8197, 8240, 8220, 8264, 9527,0.49445128440856934,purple
98, 8285, 8189, 8130, 8095, 8164, 8159, 8161, 8175, 8173, 8184, 8092, 8151, 8294, 9674,0.5023765563964844,purple
99, 8224, 8187, 8157, 8152, 8168, 8168, 8161, 8165, 8167, 8182, 8136, 8171, 8288, 9629,0.5102114677429199,purple
100, 8094, 8151, 8179, 8202, 8176, 8183, 8175, 8167, 8187, 8190, 8212, 8197, 8267, 9552,0.516456127166748,purple
101, 8295, 8189, 8129, 8069, 8159, 8144, 8164, 8178, 8166, 8180, 8098, 8145, 8302, 9688,0.5244553089141846,purple
102, 8049, 8154, 8205, 8221, 8169, 8181, 8173, 8166, 8187, 8183, 8256, 8235, 8255, 9515,0.5339455604553223,purple
103, 8204, 8188, 8158, 8133, 8163, 8167, 8161, 8167, 8171, 8181, 8153, 8183, 8281, 9649,0.5418436527252197,purple
104, 8183, 8180, 8171, 8164, 8169, 8164, 8164, 8167, 8165, 8183, 8157, 8177, 8295, 9658,0.5498225688934326,purple
105, 8079, 8149, 8192, 8218, 8174, 8179, 8173, 8174, 8188, 8187, 8222, 8202, 8266, 9568,0.5577752590179443,purple
106, 8349, 8205, 8140, 8090, 8166, 8154, 8159, 8177, 8159, 8183, 8081, 8132, 8302, 9724,0.5655062198638916,purple
107, 8101, 8153, 8210, 8237, 8179, 8187, 8175, 8164, 8183, 8194, 8226, 8209, 8271, 9543,0.573378324508667,purple
108, 8205, 8167, 8150, 8122, 8158, 8163, 8165, 8179, 8180, 8186, 8139, 8167, 8291, 9625,0.5796988010406494,purple
109, 8237, 8186, 8139, 8114, 8159, 8158, 8164, 8175, 8168, 8182, 8118, 8161, 8298, 9657,0.5877289772033691,purple
110, 8073, 8143, 8174, 8209, 8174, 8175, 8174, 8167, 8193, 8193, 8214, 8213, 8260, 9526,0.5954532623291016,purple
111, 8300, 8188, 8129, 8078, 8164, 8139, 8153, 8174, 8165, 8182, 8097, 8158, 8299, 9674,0.6047465801239014,purple
112, 8059, 8153, 8215, 8241, 8178, 8184, 8170, 8166, 8178, 8186, 8253, 8230, 8266, 9545,0.6124362945556641,purple
113, 8150, 8170, 8177, 8169, 8169, 8172, 8166, 8172, 8180, 8186, 8165, 8179, 8279, 9645,0.6203291416168213,purple
114, 8236, 8193, 8157, 8123, 8170, 8153, 8156, 8172, 8168, 8182, 8110, 8153, 8297, 9697,0.6282308101654053,purple
115, 8048, 8147, 8197, 8231, 8181, 8185, 8170, 8175, 8195, 8185, 8240, 8214, 8257, 9536,0.6362552642822266,purple
116, 8313, 8192, 8130, 8089, 8158, 8154, 8159, 8178, 8170, 8185, 8093, 8141, 8301, 9691,0.6439149379730225,purple
117, 8117, 8158, 8190, 8207, 8169, 8182, 8171, 8160, 8182, 8195, 8213, 8208, 8276, 9552,0.6519913673400879,purple
118, 8137, 8165, 8155, 8139, 8169, 8170, 8164, 8170, 8184, 8191, 8171, 8191, 8277, 9586,0.6598184108734131,purple
119, 8244, 8194, 8135, 8082, 8167, 8145, 8154, 8176, 8164, 8184, 8108, 8157, 8300, 9665,0.6678080558776855,purple
120, 8037, 8144, 8205, 8233, 8174, 8182, 8177, 8168, 8188, 8190, 8270, 8231, 8260, 9511,0.6758930683135986,purple
121, 8278, 8192, 8146, 8108, 8157, 8156, 8167, 8173, 8168, 8181, 8128, 8161, 8300, 9698,0.682732343673706,purple
122, 8113, 8169, 8187, 8212, 8174, 8171, 8172, 8166, 8181, 8186, 8188, 8189, 8280, 9602,0.6917304992675781,purple
123, 8132, 8160, 8166, 8182, 8170, 8169, 8171, 8170, 8188, 8192, 8166, 8170, 8273, 9591,0.6997935771942139,purple
124, 8318, 8195, 8145, 8097, 8159, 8156, 8165, 8170, 8162, 8180, 8098, 8137, 8300, 9719,0.7077345848083496,purple
125, 8090, 8148, 8205, 8221, 8173, 8194, 8183, 8166, 8189, 8184, 8237, 8204, 8263, 9585,0.7142517566680908,purple
126, 8275, 8189, 8127, 8076, 8162, 8151, 8163, 8177, 8170, 8183, 8089, 8140, 8300, 9702,0.7221896648406982,purple
127, 8113, 8170, 8170, 8169, 8177, 8164, 8168, 8166, 8172, 8186, 8192, 8203, 8278, 9561,0.7302136421203613,purple
238, 8095, 8156, 8189, 8192, 8174, 8176, 8171, 8165, 8184, 8187, 8228, 8210, 8261, 9548,0.737992525100708,purple
0, 8327, 8196, 8162, 8116, 8158, 8152, 8158, 8173, 8163, 8180, 8106, 8143, 8300, 9746,0.7459418773651123,purple
1, 8067, 8146, 8211, 8252, 8172, 8185, 8177, 8172, 8188, 8189, 8232, 8211, 8264, 9596,0.7537641525268555,purple
2, 8254, 8187, 8140, 8097, 8164, 8155, 8161, 8182, 8165, 8182, 8095, 8146, 8293, 9707,0.7615089416503906,purple
3, 8187, 8178, 8187, 8171, 8174, 8171, 8166, 8168, 8169, 8187, 8165, 8178, 8280, 9621,0.7694151401519775,purple
4, 8112, 8150, 8189, 8204, 8173, 8185, 8178, 8166, 8194, 8194, 8216, 8201, 8260, 9550,0.7772595882415771,purple
5, 8338, 8198, 8122, 8069, 8160, 8143, 8161, 8177, 8162, 8181, 8075, 8137, 8304, 9723,0.785306453704834,purple
6, 8092, 8153, 8192, 8219, 8177, 8181, 8173, 8171, 8181, 8189, 8219, 8207, 8265, 9576,0.7932970523834229,purple
7, 8250, 8178, 8138, 8102, 8161, 8168, 8165, 8178, 8177, 8187, 8105, 8146, 8288, 9677,0.8012340068817139,purple
8, 8199, 8178, 8154, 8135, 8162, 8169, 8167, 8169, 8175, 8189, 8133, 8165, 8284, 9616,0.8092827796936035,purple
9, 8070, 8149, 8190, 8206, 8169, 8177, 8172, 8167, 8191, 8191, 8231, 8213, 8259, 9524,0.8171043395996094,purple
10, 8302, 8196, 8152, 8096, 8158, 8149, 8156, 8169, 8164, 8180, 8116, 8151, 8297, 9720,0.8249709606170654,purple
11, 8070, 8152, 8209, 8235, 8172, 8184, 8169, 8162, 8184, 8190, 8245, 8219, 8258, 9578,0.8327109813690186,purple
12, 8218, 8178, 8145, 8118, 8163, 8158, 8157, 8178, 8171, 8188, 8143, 8176, 8283, 9664,0.8405556678771973,purple
13, 8220, 8187, 8161, 8136, 8168, 8159, 8161, 8172, 8162, 8185, 8161, 8184, 8295, 9671,0.8484172821044922,purple
14, 8042, 8147, 8208, 8237, 8174, 8183, 8172, 8167, 8187, 8190, 8260, 8227, 8265, 9568,0.8563084602355957,purple
15, 8268, 8192, 8148, 8104, 8157, 8146, 8154, 8176, 8160, 8182, 8103, 8155, 8307, 9736,0.8643333911895752,purple
16, 8075, 8155, 8199, 8230, 8166, 8178, 8171, 8169, 8180, 8187, 8229, 8217, 8268, 9589,0.8723793029785156,purple
17, 8221, 8177, 8152, 8147, 8158, 8165, 8161, 8173, 8177, 8185, 8156, 8170, 8279, 9658,0.8802013397216797,purple
18, 8252, 8193, 8163, 8149, 8166, 8159, 8157, 8168, 8163, 8184, 8127, 8158, 8294, 9680,0.8880715370178223,purple
19, 8044, 8142, 8208, 8248, 8177, 8189, 8181, 8162, 8194, 8189, 8234, 8213, 8258, 9547,0.8957300186157227,purple
20, 8330, 8192, 8129, 8085, 8157, 8152, 8167, 8168, 8173, 8183, 8081, 8136, 8300, 9722,0.9036190509796143,purple
21, 8149, 8162, 8185, 8205, 8171, 8178, 8175, 8165, 8182, 8193, 8201, 8201, 8270, 9581,0.9115350246429443,purple
22, 8188, 8165, 8146, 8135, 8164, 8170, 8174, 8174, 8183, 8193, 8146, 8175, 8272, 9617,0.9194469451904297,purple
23, 8261, 8190, 8128, 8094, 8163, 8157, 8168, 8171, 8169, 8187, 8099, 8153, 8295, 9665,0.9273486137390137,purple
24, 8049, 8147, 8182, 8224, 8176, 8186, 8174, 8164, 8189, 8190, 8239, 8223, 8259, 9511,0.9352555274963379,purple
25, 8285, 8194, 8118, 8071, 8157, 8148, 8160, 8175, 8161, 8181, 8097, 8154, 8295, 9686,0.9431407451629639,purple
26, 8098, 8168, 8190, 8193, 8167, 8173, 8172, 8166, 8173, 8187, 8221, 8212, 8275, 9570,0.9511358737945557,purple
27, 8123, 8165, 8180, 8181, 8166, 8176, 8164, 8167, 8181, 8187, 8201, 8194, 8281, 9595,0.9588634967803955,purple
28, 8269, 8197, 8146, 8115, 8166, 8155, 8153, 8165, 8162, 8180, 8106, 8147, 8305, 9706,0.9665796756744385,purple
29, 8048, 8149, 8202, 8243, 8182, 8183, 8177, 8166, 8190, 8189, 8239, 8211, 8257, 9544,0.9757716655731201,purple
30, 8308, 8192, 8144, 8105, 8165, 8152, 8167, 8180, 8167, 8184, 8092, 8140, 8291, 9700,0.9820098876953125,purple
31, 8174, 8170, 8189, 8199, 8174, 8178, 8170, 8169, 8179, 8188, 8171, 8182, 8275, 9611,0.9897959232330322,purple
32, 8119, 8159, 8167, 8172, 8170, 8181, 8166, 8171, 8192, 8192, 8178, 8179, 8271, 9591,0.9977037906646729,purple
33, 8276, 8198, 8122, 8068, 8156, 8148, 8158, 8168, 8161, 8186, 8088, 8145, 8304, 9687,1.0056047439575195,purple
34, 8048, 8148, 8190, 8216, 8168, 8180, 8179, 8158, 8186, 8195, 8248, 8233, 8258, 9502,1.013559341430664,purple
35, 8264, 8185, 8143, 8097, 8160, 8156, 8160, 8174, 8171, 8185, 8128, 8163, 8290, 9667,1.0228872299194336,purple
36, 8150, 8168, 8193, 8181, 8173, 8170, 8165, 8170, 8173, 8183, 8194, 8190, 8280, 9626,1.030813455581665,purple
37, 8090, 8151, 8185, 8192, 8174, 8172, 8176, 8174, 8188, 8186, 8216, 8205, 8264, 9590,1.0385868549346924,purple
38, 8318, 8199, 8134, 8086, 8162, 8144, 8161, 8177, 8159, 8180, 8091, 8148, 8305, 9721,1.0449764728546143,purple
39, 8061, 8147, 8217, 8251, 8174, 8188, 8174, 8160, 8183, 8190, 8250, 8219, 8262, 9521,1.052825689315796,purple
40, 8243, 8179, 8160, 8120, 8161, 8161, 8156, 8171, 8176, 8187, 8124, 8152, 8286, 9666,1.0607714653015137,purple
41, 8235, 8182, 8163, 8150, 8174, 8163, 8161, 8170, 8171, 8184, 8139, 8163, 8290, 9690,1.0686237812042236,purple
42, 8143, 8155, 8168, 8197, 8176, 8181, 8180, 8169, 8183, 8186, 8194, 8195, 8271, 9595,1.0764374732971191,purple
43, 8302, 8196, 8130, 8079, 8153, 8152, 8165, 8175, 8158, 8184, 8092, 8149, 8302, 9673,1.0859439373016357,purple
44, 8018, 8144, 8215, 8236, 8171, 8187, 8171, 8167, 8184, 8192, 8264, 8233, 8257, 9511,1.0940454006195068,purple
45, 8210, 8174, 8161, 8134, 8166, 8164, 8164, 8175, 8176, 8181, 8145, 8171, 8288, 9671,1.101846694946289,purple
46, 8237, 8187, 8160, 8147, 8161, 8168, 8169, 8172, 8168, 8184, 8130, 8164, 8297, 9659,1.1081573963165283,purple
47, 8083, 8151, 8183, 8213, 8166, 8189, 8170, 8171, 8192, 8194, 8222, 8210, 8260, 9519,1.115929365158081,purple
48, 8311, 8194, 8135, 8082, 8162, 8149, 8149, 8172, 8167, 8180, 8111, 8160, 8300, 9693,1.1238822937011719,purple
49, 8073, 8152, 8202, 8223, 8172, 8180, 8167, 8160, 8185, 8185, 8255, 8227, 8269, 9576,1.131664752960205,purple
50, 8172, 8178, 8147, 8127, 8158, 8165, 8160, 8174, 8172, 8186, 8157, 8170, 8283, 9661,1.1394524574279785,purple
51, 8194, 8194, 8154, 8125, 8170, 8156, 8159, 8176, 8158, 8181, 8141, 8168, 8289, 9654,1.1489691734313965,purple
52, 8037, 8143, 8206, 8234, 8179, 8186, 8173, 8172, 8190, 8192, 8255, 8222, 8256, 9520,1.156947374343872,purple
53, 8330, 8191, 8142, 8105, 8161, 8156, 8151, 8178, 8164, 8188, 8095, 8139, 8302, 9733,1.1648995876312256,purple
54, 8149, 8164, 8195, 8226, 8182, 8180, 8167, 8167, 8173, 8192, 8197, 8193, 8275, 9619,1.1714246273040771,purple
55, 8226, 8175, 8151, 8136, 8168, 8165, 8168, 8172, 8177, 8194, 8134, 8157, 8284, 9648,1.1792519092559814,purple
56, 8274, 8189, 8153, 8119, 8158, 8160, 8161, 8167, 8169, 8192, 8117, 8148, 8299, 9654,1.187302827835083,purple
57, 8023, 8138, 8209, 8241, 8175, 8193, 8170, 8163, 8193, 8194, 8262, 8230, 8261, 9495,1.195265769958496,purple
58, 8260, 8189, 8131, 8074, 8157, 8149, 8156, 8174, 8165, 8187, 8110, 8160, 8307, 9703,1.203296422958374,purple
59, 8109, 8167, 8182, 8190, 8162, 8169, 8169, 8163, 8176, 8192, 8218, 8209, 8283, 9603,1.2112951278686523,purple
60, 8157, 8170, 8157, 8149, 8163, 8166, 8167, 8174, 8178, 8185, 8182, 8186, 8279, 9611,1.21932053565979,purple
61, 8243, 8197, 8137, 8086, 8163, 8146, 8159, 8174, 8156, 8184, 8110, 8156, 8299, 9675,1.2256746292114258,purple
62, 8003, 8147, 8209, 8234, 8172, 8179, 8170, 8162, 8183, 8197, 8258, 8230, 8258, 9512,1.2337303161621094,purple
63, 8283, 8189, 8157, 8114, 8166, 8153, 8152, 8172, 8166, 8186, 8112, 8151, 8301, 9702,1.242631435394287,purple
64, 8169, 8168, 8196, 8211, 8182, 8175, 8169, 8166, 8181, 8190, 8182, 8178, 8282, 9633,1.250619649887085,purple
65, 8170, 8173, 8166, 8168, 8170, 8170, 8174, 8169, 8185, 8192, 8164, 8171, 8273, 9634,1.2584218978881836,yellow
66, 8309, 8209, 8138, 8091, 8163, 8150, 8160, 8172, 8155, 8186, 8093, 8145, 8304, 9715,1.2667567729949951,yellow
67, 8029, 8143, 8209, 8257, 8183, 8191, 8176, 8168, 8191, 8195, 8248, 8219, 8258, 9531,1.2741620540618896,yellow
68, 8270, 8186, 8136, 8110, 8165, 8156, 8162, 8177, 8175, 8189, 8088, 8136, 8290, 9718,1.2821545600891113,yellow
69, 8211, 8182, 8171, 8166, 8173, 8168, 8165, 8167, 8173, 8190, 8155, 8176, 8281, 9658,1.2899632453918457,yellow
70, 8149, 8154, 8175, 8177, 8172, 8177, 8169, 8170, 8191, 8189, 8191, 8198, 8268, 9590,1.2979471683502197,yellow
71, 8317, 8189, 8130, 8087, 8160, 8150, 8157, 8174, 8168, 8182, 8076, 8141, 8302, 9718,1.3058106899261475,yellow
72, 8092, 8152, 8186, 8226, 8175, 8188, 8171, 8168, 8186, 8193, 8218, 8202, 8267, 9570,1.3135321140289307,yellow
73, 8278, 8187, 8125, 8086, 8163, 8154, 8159, 8174, 8171, 8188, 8106, 8147, 8296, 9670,1.3213741779327393,yellow
74, 8168, 8169, 8178, 8160, 8168, 8160, 8164, 8163, 8174, 8187, 8179, 8195, 8283, 9579,1.3293259143829346,yellow
75, 8082, 8146, 8192, 8205, 8170, 8181, 8167, 8166, 8190, 8192, 8229, 8217, 8266, 9542,1.3370330333709717,yellow
76, 8292, 8198, 8130, 8081, 8163, 8150, 8146, 8173, 8165, 8180, 8091, 8145, 8305, 9714,1.3448162078857422,yellow
77, 8036, 8149, 8208, 8239, 8182, 8179, 8165, 8164, 8188, 8185, 8244, 8218, 8259, 9531,1.3526384830474854,yellow
78, 8243, 8177, 8165, 8132, 8166, 8158, 8162, 8176, 8170, 8184, 8129, 8158, 8285, 9657,1.3605811595916748,yellow
79, 8235, 8180, 8177, 8159, 8169, 8166, 8162, 8174, 8164, 8187, 8132, 8159, 8289, 9669,1.3685641288757324,yellow
80, 8084, 8151, 8188, 8215, 8179, 8182, 8165, 8170, 8188, 8196, 8206, 8192, 8261, 9571,1.376542329788208,yellow
81, 8292, 8200, 8127, 8079, 8163, 8147, 8151, 8171, 8160, 8186, 8091, 8141, 8302, 9684,1.3842129707336426,yellow
82, 8047, 8149, 8199, 8229, 8168, 8181, 8171, 8163, 8181, 8186, 8252, 8230, 8265, 9510,1.392089605331421,yellow
83, 8197, 8171, 8154, 8148, 8161, 8161, 8159, 8174, 8174, 8186, 8156, 8176, 8282, 9647,1.4001975059509277,yellow
84, 8228, 8184, 8165, 8161, 8172, 8162, 8156, 8169, 8163, 8188, 8133, 8159, 8293, 9684,1.4077527523040771,yellow
85, 8058, 8141, 8198, 8234, 8180, 8189, 8175, 8171, 8195, 8189, 8220, 8207, 8261, 9545,1.4156057834625244,yellow
86, 8313, 8192, 8127, 8078, 8163, 8148, 8158, 8181, 8171, 8178, 8075, 8138, 8300, 9702,1.4235339164733887,yellow
87, 8097, 8159, 8186, 8218, 8176, 8177, 8166, 8166, 8180, 8192, 8221, 8210, 8270, 9555,1.431541919708252,yellow
88, 8167, 8165, 8162, 8151, 8164, 8166, 8160, 8171, 8179, 8190, 8169, 8191, 8284, 9616,1.4394128322601318,yellow
89, 8237, 8181, 8162, 8125, 8162, 8155, 8158, 8169, 8170, 8180, 8139, 8181, 8293, 9678,1.4478332996368408,yellow
90, 8076, 8150, 8188, 8214, 8175, 8182, 8171, 8167, 8192, 8190, 8247, 8222, 8252, 9557,1.4560236930847168,yellow
91, 8323, 8203, 8129, 8080, 8163, 8149, 8154, 8179, 8165, 8185, 8095, 8140, 8298, 9714,1.4642093181610107,yellow
92, 8098, 8163, 8215, 8242, 8179, 8185, 8171, 8171, 8180, 8187, 8220, 8206, 8275, 9567,1.470693826675415,yellow
93, 8154, 8167, 8181, 8189, 8170, 8182, 8171, 8177, 8181, 8185, 8170, 8178, 8276, 9627,1.4801223278045654,yellow
94, 8299, 8199, 8146, 8109, 8166, 8158, 8159, 8174, 8161, 8179, 8087, 8137, 8297, 9737,1.4877798557281494,yellow
95, 8087, 8150, 8195, 8223, 8181, 8185, 8171, 8169, 8188, 8187, 8212, 8197, 8261, 9568,1.4956738948822021,yellow
96, 8323, 8193, 8123, 8083, 8163, 8152, 8158, 8180, 8164, 8191, 8082, 8133, 8301, 9714,1.502155065536499,yellow
97, 8157, 8169, 8176, 8198, 8169, 8174, 8169, 8169, 8177, 8198, 8190, 8193, 8275, 9612,1.5101795196533203,yellow
98, 8153, 8165, 8164, 8173, 8167, 8175, 8164, 8169, 8189, 8189, 8163, 8178, 8273, 9621,1.5181283950805664,yellow
99, 8308, 8199, 8133, 8094, 8160, 8155, 8154, 8175, 8169, 8181, 8079, 8136, 8305, 9710,1.5259480476379395,yellow
100, 8078, 8146, 8187, 8220, 8171, 8186, 8175, 8171, 8193, 8192, 8236, 8219, 8261, 9530,1.5339350700378418,yellow
101, 8289, 8184, 8128, 8083, 8159, 8153, 8162, 8173, 8173, 8183, 8107, 8154, 8294, 9691,1.541668176651001,yellow
102, 8173, 8170, 8180, 8176, 8172, 8173, 8166, 8163, 8176, 8185, 8179, 8188, 8280, 9632,1.5495712757110596,yellow
103, 8154, 8163, 8165, 8163, 8168, 8175, 8167, 8175, 8182, 8187, 8178, 8186, 8268, 9606,1.5574491024017334,yellow
104, 8281, 8200, 8127, 8081, 8153, 8146, 8155, 8181, 8154, 8183, 8098, 8146, 8302, 9675,1.565370798110962,yellow
105, 7990, 8144, 8221, 8258, 8164, 8185, 8168, 8166, 8183, 8195, 8282, 8239, 8263, 9489,1.5731325149536133,yellow
106, 8230, 8185, 8164, 8127, 8159, 8155, 8153, 8172, 8174, 8187, 8136, 8173, 8292, 9694,1.5809075832366943,yellow
107, 8177, 8183, 8169, 8167, 8175, 8164, 8163, 8168, 8174, 8184, 8159, 8185, 8276, 9671,1.5886473655700684,yellow
108, 8117, 8160, 8173, 8193, 8171, 8176, 8171, 8176, 8187, 8190, 8205, 8198, 8257, 9596,1.5965874195098877,yellow
109, 8333, 8195, 8153, 8108, 8156, 8149, 8151, 8177, 8162, 8186, 8104, 8147, 8300, 9728,1.6059224605560303,yellow
110, 8078, 8146, 8224, 8265, 8175, 8192, 8171, 8166, 8188, 8193, 8240, 8213, 8263, 9582,1.613908290863037,yellow
111, 8251, 8184, 8145, 8125, 8164, 8165, 8168, 8179, 8173, 8188, 8093, 8139, 8293, 9712,1.6216142177581787,yellow
112, 8204, 8185, 8162, 8157, 8174, 8161, 8165, 8173, 8168, 8188, 8129, 8159, 8290, 9658,1.62937593460083,yellow
113, 8085, 8148, 8192, 8217, 8182, 8177, 8166, 8169, 8191, 8191, 8221, 8204, 8260, 9555,1.6355030536651611,yellow
114, 8332, 8196, 8139, 8093, 8164, 8150, 8154, 8173, 8164, 8184, 8086, 8142, 8308, 9720,1.6447362899780273,yellow
115, 8117, 8157, 8192, 8226, 8175, 8185, 8170, 8160, 8184, 8187, 8213, 8203, 8279, 9586,1.6526777744293213,yellow
116, 8235, 8177, 8128, 8104, 8161, 8160, 8159, 8168, 8176, 8185, 8117, 8157, 8291, 9668,1.6606295108795166,yellow
117, 8191, 8176, 8163, 8137, 8163, 8161, 8162, 8167, 8167, 8189, 8165, 8191, 8289, 9604,1.668555498123169,yellow
118, 8042, 8143, 8217, 8236, 8170, 8186, 8172, 8168, 8191, 8193, 8276, 8239, 8265, 9504,1.676501989364624,yellow
119, 8273, 8201, 8141, 8086, 8158, 8147, 8154, 8179, 8167, 8185, 8103, 8148, 8305, 9721,1.6844358444213867,yellow
120, 8033, 8158, 8189, 8215, 8175, 8173, 8172, 8170, 8185, 8196, 8220, 8210, 8262, 9571,1.692347764968872,yellow
121, 8203, 8169, 8156, 8138, 8167, 8163, 8166, 8172, 8179, 8191, 8146, 8167, 8278, 9626,1.6986839771270752,yellow
122, 8272, 8183, 8173, 8144, 8170, 8165, 8159, 8163, 8164, 8183, 8138, 8158, 8298, 9643,1.7065963745117188,yellow
123, 8032, 8144, 8204, 8240, 8175, 8191, 8170, 8164, 8192, 8192, 8251, 8221, 8262, 9520,1.714557409286499,yellow
124, 8260, 8199, 8115, 8065, 8154, 8148, 8153, 8177, 8166, 8186, 8082, 8150, 8301, 9698,1.7224276065826416,yellow
125, 8089, 8163, 8176, 8186, 8172, 8173, 8166, 8162, 8179, 8190, 8211, 8216, 8273, 9542,1.731971263885498,yellow
126, 8177, 8167, 8165, 8154, 8164, 8164, 8162, 8167, 8179, 8186, 8189, 8190, 8279, 9590,1.7384889125823975,yellow
127, 8263, 8188, 8168, 8142, 8162, 8152, 8154, 8171, 8160, 8178, 8127, 8152, 8297, 9689,1.747793197631836,yellow
238, 8048, 8140, 8203, 8247, 8180, 8188, 8173, 8167, 8187, 8191, 8217, 8199, 8263, 9552,1.7558238506317139,yellow
0, 8293, 8190, 8123, 8083, 8162, 8155, 8159, 8174, 8170, 8185, 8086, 8138, 8301, 9692,1.7637579441070557,yellow
1, 8128, 8162, 8189, 8195, 8163, 8171, 8166, 8171, 8180, 8182, 8228, 8218, 8267, 9557,1.7702045440673828,yellow
2, 8148, 8158, 8166, 8146, 8159, 8163, 8164, 8178, 8181, 8185, 8194, 8210, 8268, 9584,1.7780702114105225,yellow
3, 8241, 8196, 8132, 8089, 8160, 8150, 8158, 8172, 8165, 8187, 8105, 8161, 8303, 9687,1.785949468612671,yellow
4, 8005, 8151, 8199, 8247, 8174, 8188, 8173, 8165, 8189, 8191, 8249, 8218, 8259, 9527,1.7937145233154297,yellow
5, 8285, 8190, 8150, 8107, 8161, 8151, 8156, 8178, 8160, 8178, 8113, 8150, 8290, 9700,1.8015644550323486,yellow
6, 8165, 8167, 8192, 8196, 8170, 8169, 8165, 8170, 8171, 8185, 8192, 8191, 8280, 9628,1.8109478950500488,yellow
7, 8133, 8160, 8173, 8187, 8169, 8175, 8168, 8174, 8183, 8194, 8177, 8182, 8279, 9613,1.8190805912017822,yellow
8, 8308, 8194, 8137, 8098, 8166, 8151, 8160, 8171, 8159, 8186, 8079, 8142, 8304, 9710,1.8270981311798096,yellow
9, 8069, 8142, 8196, 8231, 8177, 8180, 8177, 8160, 8189, 8189, 8224, 8216, 8260, 9524,1.8334975242614746,yellow
10, 8273, 8187, 8131, 8089, 8157, 8145, 8157, 8168, 8171, 8185, 8091, 8147, 8300, 9675,1.8413684368133545,yellow
11, 8170, 8174, 8172, 8160, 8168, 8168, 8162, 8162, 8173, 8186, 8172, 8189, 8286, 9620,1.8493764400482178,yellow
12, 8100, 8152, 8165, 8170, 8168, 8180, 8170, 8171, 8194, 8186, 8202, 8204, 8266, 9579,1.8571202754974365,yellow
13, 8280, 8196, 8118, 8073, 8155, 8142, 8154, 8175, 8167, 8183, 8091, 8150, 8308, 9697,1.8653147220611572,yellow
14, 8027, 8146, 8203, 8238, 8171, 8176, 8166, 8158, 8190, 8196, 8266, 8237, 8265, 9506,1.8733141422271729,yellow
15, 8229, 8175, 8152, 8113, 8158, 8159, 8155, 8168, 8177, 8188, 8155, 8186, 8285, 9658,1.8813450336456299,yellow
16, 8176, 8172, 8177, 8163, 8167, 8169, 8162, 8169, 8169, 8182, 8181, 8196, 8283, 9654,1.8891305923461914,yellow
17, 8066, 8151, 8194, 8211, 8170, 8181, 8171, 8173, 8180, 8186, 8225, 8207, 8269, 9583,1.89701509475708,yellow
18, 8284, 8202, 8145, 8090, 8160, 8147, 8153, 8179, 8157, 8185, 8092, 8147, 8305, 9731,1.9048004150390625,yellow
19, 8050, 8155, 8213, 8236, 8178, 8182, 8170, 8166, 8184, 8190, 8251, 8228, 8258, 9563,1.9126956462860107,yellow
20, 8213, 8181, 8165, 8135, 8163, 8160, 8163, 8171, 8173, 8181, 8161, 8172, 8284, 9677,1.9208011627197266,yellow
21, 8202, 8187, 8182, 8168, 8165, 8160, 8161, 8169, 8165, 8181, 8160, 8175, 8292, 9682,1.9292864799499512,yellow
22, 8072, 8149, 8198, 8229, 8172, 8179, 8171, 8172, 8187, 8190, 8219, 8206, 8258, 9585,1.936295747756958,yellow
23, 8309, 8191, 8139, 8090, 8159, 8149, 8157, 8175, 8164, 8182, 8087, 8135, 8302, 9736,1.944218397140503,yellow
24, 8074, 8152, 8216, 8239, 8169, 8188, 8167, 8161, 8182, 8188, 8238, 8211, 8275, 9584,1.9521489143371582,yellow
25, 8199, 8175, 8172, 8153, 8163, 8172, 8160, 8171, 8176, 8187, 8145, 8170, 8288, 9678,1.9601354598999023,yellow
26, 8229, 8180, 8164, 8147, 8176, 8163, 8161, 8171, 8167, 8188, 8124, 8160, 8295, 9694,1.9665367603302002,yellow
27, 8075, 8138, 8190, 8224, 8182, 8183, 8175, 8167, 8191, 8194, 8218, 8203, 8265, 9568,1.9760103225708008,yellow
28, 8322, 8198, 8132, 8082, 8162, 8150, 8160, 8170, 8163, 8183, 8071, 8136, 8303, 9693,1.983874797821045,yellow
29, 8075, 8161, 8204, 8229, 8177, 8186, 8175, 8166, 8180, 8189, 8223, 8211, 8267, 9523,1.9918010234832764,yellow
30, 8142, 8163, 8157, 8151, 8165, 8169, 8168, 8181, 8178, 8188, 8162, 8177, 8282, 9617,1.9997413158416748,yellow
31, 8228, 8184, 8139, 8110, 8158, 8152, 8163, 8174, 8160, 8184, 8116, 8162, 8303, 9667,2.0078177452087402,yellow
32, 8044, 8147, 8197, 8230, 8172, 8187, 8176, 8160, 8187, 8188, 8255, 8233, 8260, 9509,2.0157763957977295,yellow
33, 8285, 8197, 8138, 8096, 8165, 8155, 8159, 8175, 8165, 8181, 8109, 8153, 8298, 9704,2.0238037109375,yellow
34, 8087, 8166, 8191, 8219, 8177, 8179, 8175, 8176, 8177, 8188, 8203, 8192, 8273, 9590,2.030184507369995,yellow
35, 8162, 8167, 8161, 8163, 8171, 8170, 8170, 8172, 8182, 8191, 8163, 8172, 8273, 9602,2.038224697113037,yellow
36, 8306, 8188, 8145, 8106, 8166, 8154, 8156, 8161, 8165, 8188, 8109, 8157, 8297, 9678,2.0459139347076416,yellow
37, 8054, 8138, 8191, 8230, 8177, 8188, 8174, 8165, 8191, 8192, 8241, 8227, 8258, 9533,2.054011344909668,yellow
38, 8253, 8193, 8111, 8067, 8156, 8147, 8162, 8182, 8166, 8182, 8086, 8144, 8302, 9696,2.0629780292510986,yellow
39, 8100, 8173, 8172, 8166, 8165, 8163, 8168, 8164, 8176, 8190, 8187, 8198, 8289, 9569,2.0710020065307617,yellow
40, 8125, 8156, 8180, 8170, 8167, 8171, 8161, 8167, 8184, 8193, 8202, 8212, 8280, 9563,2.078946828842163,yellow
41, 8289, 8185, 8160, 8116, 8162, 8155, 8154, 8174, 8158, 8181, 8132, 8172, 8301, 9705,2.086693286895752,yellow
42, 8033, 8143, 8221, 8253, 8177, 8185, 8174, 8165, 8188, 8186, 8259, 8224, 8262, 9556,2.0929253101348877,yellow
43, 8254, 8193, 8152, 8109, 8167, 8155, 8157, 8176, 8173, 8185, 8094, 8139, 8301, 9719,2.100782871246338,yellow
44, 8156, 8174, 8185, 8193, 8172, 8177, 8162, 8174, 8171, 8187, 8174, 8179, 8281, 9652,2.108605146408081,yellow
45, 8126, 8153, 8175, 8197, 8168, 8179, 8167, 8173, 8183, 8187, 8201, 8194, 8267, 9606,2.1165528297424316,yellow
46, 8318, 8203, 8143, 8105, 8167, 8150, 8157, 8170, 8163, 8180, 8088, 8144, 8307, 9736,2.1253085136413574,yellow
47, 8057, 8154, 8211, 8253, 8183, 8188, 8172, 8165, 8187, 8188, 8233, 8211, 8267, 9580,2.1333484649658203,yellow
48, 8269, 8182, 8135, 8104, 8163, 8158, 8158, 8176, 8170, 8185, 8100, 8138, 8294, 9715,2.1412699222564697,yellow
49, 8226, 8179, 8165, 8159, 8174, 8167, 8163, 8165, 8173, 8189, 8148, 8168, 8281, 9651,2.1493277549743652,yellow
50, 8128, 8154, 8181, 8196, 8172, 8183, 8174, 8167, 8189, 8191, 8202, 8198, 8261, 9579,2.1555633544921875,yellow
51, 8320, 8194, 8129, 8078, 8152, 8150, 8157, 8175, 8162, 8182, 8082, 8137, 8305, 9722,2.165050745010376,yellow
52, 8088, 8155, 8192, 8221, 8172, 8184, 8171, 8168, 8188, 8188, 8224, 8205, 8267, 9557,2.171447277069092,yellow
53, 8258, 8184, 8131, 8097, 8161, 8158, 8163, 8175, 8170, 8183, 8113, 8156, 8287, 9662,2.1808297634124756,yellow
54, 8191, 8174, 8157, 8142, 8160, 8159, 8164, 8168, 8166, 8186, 8156, 8189, 8290, 9616,2.1887059211730957,yellow
55, 8050, 8146, 8189, 8217, 8169, 8178, 8171, 8170, 8197, 8191, 8241, 8224, 8268, 9533,2.196611166000366,yellow
56, 8270, 8203, 8136, 8081, 8156, 8143, 8154, 8178, 8168, 8179, 8100, 8149, 8299, 9702,2.204573392868042,yellow
57, 8043, 8153, 8202, 8218, 8168, 8173, 8167, 8165, 8185, 8186, 8245, 8220, 8253, 9550,2.212477207183838,yellow
58, 8233, 8171, 8157, 8138, 8161, 8160, 8159, 8171, 8181, 8185, 8151, 8170, 8279, 9659,2.2187535762786865,yellow
59, 8256, 8182, 8172, 8164, 8168, 8166, 8158, 8169, 8170, 8187, 8134, 8160, 8291, 9656,2.2268333435058594,yellow
60, 8070, 8143, 8193, 8221, 8175, 8189, 8170, 8171, 8195, 8197, 8218, 8195, 8255, 9535,2.2356064319610596,yellow
61, 8293, 8198, 8122, 8064, 8157, 8151, 8154, 8178, 8170, 8184, 8095, 8138, 8299, 9700,2.243243932723999,yellow
62, 8065, 8155, 8204, 8227, 8172, 8179, 8164, 8165, 8182, 8182, 8260, 8231, 8269, 9532,2.2505626678466797,yellow
63, 8163, 8160, 8173, 8157, 8168, 8159, 8158, 8177, 8178, 8190, 8184, 8190, 8276, 9608,2.2600812911987305,yellow
64, 8210, 8183, 8158, 8124, 8169, 8149, 8163, 8176, 8163, 8194, 8139, 8161, 8290, 9677,2.2678539752960205,yellow
65, 8035, 8149, 8196, 8226, 8175, 8179, 8177, 8168, 8186, 8189, 8250, 8218, 8260, 9555,2.2757041454315186,yellow
66, 8325, 8194, 8136, 8092, 8164, 8150, 8154, 8176, 8168, 8180, 8091, 8149, 8303, 9719,2.283554792404175,yellow
67, 8138, 8154, 8202, 8228, 8178, 8184, 8171, 8165, 8185, 8194, 8209, 8202, 8275, 9582,2.2898783683776855,yellow
68, 8167, 8162, 8168, 8163, 8164, 8175, 8171, 8171, 8180, 8192, 8166, 8168, 8284, 9624,2.2976443767547607,yellow
69, 8273, 8195, 8131, 8100, 8163, 8155, 8160, 8171, 8164, 8183, 8095, 8136, 8308, 9701,2.3055410385131836,yellow
70, 8081, 8151, 8179, 8219, 8184, 8187, 8170, 8160, 8195, 8191, 8221, 8206, 8264, 9541,2.3150670528411865,yellow
71, 8288, 8191, 8132, 8081, 8165, 8150, 8151, 8168, 8168, 8184, 8106, 8158, 8297, 9675,2.3215372562408447,yellow
72, 8090, 8158, 8189, 8194, 8169, 8168, 8167, 8167, 8178, 8185, 8222, 8219, 8276, 9566,2.330754280090332,yellow
73, 8143, 8159, 8163, 8171, 8168, 8172, 8170, 8172, 8189, 8188, 8186, 8188, 8277, 9611,2.3386833667755127,yellow
74, 8304, 8196, 8143, 8106, 8164, 8155, 8154, 8169, 8166, 8189, 8097, 8141, 8306, 9703,2.346527338027954,yellow
75, 8038, 8144, 8202, 8234, 8170, 8183, 8176, 8165, 8188, 8195, 8247, 8228, 8261, 9507,2.3529481887817383,yellow
76, 8265, 8184, 8134, 8091, 8153, 8148, 8168, 8175, 8168, 8182, 8120, 8170, 8293, 9675,2.360715627670288,yellow
77, 8166, 8165, 8186, 8183, 8167, 8170, 8165, 8168, 8176, 8186, 8204, 8204, 8281, 9622,2.3686764240264893,yellow
78, 8139, 8158, 8177, 8172, 8165, 8171, 8164, 8176, 8184, 8189, 8199, 8198, 8276, 9597,2.376533269882202,yellow
79, 8287, 8197, 8141, 8092, 8159, 8149, 8163, 8176, 8156, 8179, 8100, 8151, 8301, 9694,2.3857741355895996,yellow
80, 8032, 8139, 8212, 8250, 8178, 8190, 8177, 8162, 8188, 8188, 8256, 8224, 8254, 9517,2.3934261798858643,yellow
81, 8267, 8180, 8140, 8108, 8164, 8156, 8155, 8171, 8179, 8187, 8107, 8149, 8299, 9683,2.4012861251831055,yellow
82, 8203, 8177, 8164, 8166, 8173, 8168, 8164, 8164, 8177, 8190, 8152, 8179, 8291, 9650,2.4089577198028564,yellow
83, 8126, 8154, 8165, 8176, 8172, 8177, 8173, 8166, 8186, 8188, 8192, 8200, 8262, 9586,2.4168217182159424,yellow
84, 8298, 8199, 8127, 8074, 8160, 8140, 8158, 8174, 8161, 8177, 8098, 8154, 8304, 9684,2.425077438354492,yellow
85, 8029, 8152, 8214, 8246, 8175, 8179, 8175, 8168, 8190, 8184, 8271, 8237, 8271, 9515,2.4331517219543457,yellow
86, 8211, 8180, 8153, 8109, 8162, 8157, 8161, 8178, 8176, 8182, 8137, 8170, 8293, 9676,2.439444065093994,yellow
87, 8155, 8178, 8166, 8138, 8170, 8159, 8163, 8170, 8169, 8185, 8156, 8183, 8288, 9636,2.4485576152801514,yellow
88, 8065, 8150, 8197, 8216, 8176, 8182, 8177, 8166, 8188, 8191, 8232, 8212, 8265, 9533,2.4563369750976562,yellow
89, 8351, 8194, 8149, 8104, 8162, 8151, 8162, 8170, 8163, 8180, 8095, 8141, 8302, 9719,2.464195489883423,yellow
90, 8128, 8151, 8194, 8228, 8176, 8180, 8174, 8166, 8184, 8190, 8215, 8203, 8268, 9596,2.4721295833587646,yellow
91, 8242, 8182, 8127, 8107, 8164, 8163, 8163, 8180, 8174, 8193, 8111, 8154, 8294, 9667,2.4798662662506104,yellow
92, 8209, 8184, 8153, 8128, 8162, 8161, 8162, 8169, 8167, 8186, 8147, 8183, 8293, 9602,2.4878923892974854,yellow
93, 8063, 8148, 8197, 8209, 8168, 8176, 8170, 8163, 8190, 8184, 8255, 8230, 8262, 9515,2.495952844619751,yellow
94, 8293, 8202, 8140, 8097, 8162, 8148, 8158, 8177, 8158, 8181, 8101, 8140, 8307, 9723,2.503894090652466,yellow
95, 8066, 8155, 8193, 8239, 8178, 8184, 8174, 8170, 8179, 8194, 8217, 8202, 8268, 9555,2.5117716789245605,yellow
96, 8210, 8168, 8140, 8121, 8164, 8159, 8162, 8170, 8181, 8190, 8140, 8175, 8280, 9614,2.519522190093994,yellow
97, 8247, 8192, 8159, 8122, 8162, 8150, 8161, 8165, 8167, 8187, 8148, 8184, 8298, 9640,2.5273196697235107,yellow
98, 8023, 8152, 8213, 8248, 8171, 8180, 8172, 8172, 8189, 8193, 8273, 8241, 8265, 9513,2.535404920578003,yellow
99, 8261, 8193, 8145, 8102, 8164, 8149, 8151, 8180, 8167, 8183, 8113, 8157, 8304, 9726,2.54305362701416,yellow
100, 8091, 8161, 8206, 8220, 8182, 8184, 8165, 8163, 8180, 8188, 8220, 8202, 8274, 9627,2.5495336055755615,yellow
101, 8199, 8177, 8171, 8152, 8168, 8169, 8161, 8178, 8173, 8188, 8157, 8170, 8283, 9653,2.557514190673828,yellow
102, 8281, 8192, 8165, 8136, 8166, 8154, 8158, 8181, 8159, 8188, 8117, 8152, 8298, 9679,2.566894054412842,yellow
103, 8052, 8141, 8211, 8261, 8184, 8190, 8183, 8167, 8194, 8200, 8231, 8207, 8257, 9548,2.574697256088257,yellow
104, 8295, 8198, 8126, 8086, 8160, 8151, 8166, 8169, 8172, 8189, 8063, 8130, 8300, 9717,2.5824685096740723,yellow
105, 8133, 8165, 8177, 8177, 8164, 8171, 8166, 8165, 8177, 8187, 8186, 8196, 8279, 9570,2.590311050415039,yellow
106, 8167, 8154, 8163, 8144, 8165, 8170, 8165, 8173, 8178, 8186, 8180, 8192, 8279, 9585,2.598285436630249,yellow
107, 8257, 8188, 8154, 8108, 8163, 8153, 8160, 8167, 8171, 8182, 8120, 8164, 8295, 9667,2.6061859130859375,yellow
108, 8004, 8147, 8211, 8245, 8171, 8184, 8173, 8164, 8207, 8194, 8252, 8221, 8253, 9515,2.6140716075897217,yellow
109, 8250, 8192, 8132, 8083, 8158, 8147, 8160, 8179, 8172, 8188, 8101, 8140, 8297, 9697,2.6206321716308594,yellow
110, 8119, 8169, 8183, 8186, 8170, 8170, 8170, 8168, 8168, 8187, 8200, 8196, 8275, 9604,2.6296863555908203,yellow
111, 8131, 8163, 8179, 8193, 8167, 8182, 8165, 8170, 8184, 8187, 8190, 8196, 8268, 9606,2.6376700401306152,yellow
112, 8301, 8198, 8143, 8109, 8166, 8160, 8155, 8170, 8166, 8187, 8089, 8142, 8306, 9709,2.645195484161377,yellow
113, 8033, 8142, 8192, 8230, 8181, 8187, 8174, 8159, 8191, 8197, 8240, 8215, 8265, 9506,2.653029203414917,yellow
114, 8241, 8187, 8120, 8077, 8157, 8157, 8157, 8172, 8174, 8184, 8102, 8153, 8295, 9665,2.6607956886291504,yellow
115, 8147, 8177, 8170, 8163, 8163, 8173, 8163, 8171, 8175, 8187, 8181, 8192, 8282, 9610,2.6685869693756104,yellow
116, 8087, 8153, 8187, 8197, 8168, 8173, 8168, 8170, 8188, 8194, 8229, 8208, 8272, 9556,2.677921772003174,yellow
117, 8277, 8194, 8146, 8101, 8163, 8145, 8156, 8169, 8165, 8184, 8114, 8150, 8308, 9720,2.6843838691711426,yellow
118, 8062, 8154, 8206, 8236, 8179, 8185, 8174, 8170, 8189, 8188, 8240, 8214, 8257, 9594,2.6922736167907715,yellow
119, 8294, 8189, 8149, 8113, 8166, 8153, 8160, 8185, 8171, 8183, 8106, 8146, 8284, 9703,2.700200080871582,yellow
120, 8211, 8176, 8188, 8188, 8178, 8164, 8163, 8170, 8169, 8185, 8153, 8169, 8290, 9627,2.7080259323120117,yellow
121, 8073, 8146, 8196, 8216, 8178, 8187, 8172, 8164, 8188, 8191, 8210, 8196, 8270, 9563,2.7159924507141113,yellow
122, 8320, 8199, 8124, 8070, 8154, 8149, 8153, 8174, 8166, 8185, 8072, 8134, 8302, 9727,2.723714828491211,yellow
123, 8107, 8158, 8180, 8204, 8168, 8178, 8167, 8166, 8190, 8191, 8211, 8211, 8264, 9547,2.731682062149048,yellow
124, 8235, 8178, 8134, 8095, 8162, 8155, 8159, 8173, 8174, 8185, 8135, 8174, 8288, 9639,2.7395169734954834,yellow
125, 8203, 8181, 8157, 8141, 8165, 8158, 8161, 8170, 8167, 8185, 8179, 8192, 8289, 9645,2.749013662338257,yellow
126, 8079, 8158, 8170, 8210, 8173, 8184, 8172, 8170, 8193, 8188, 8229, 8212, 8264, 9569,2.7553138732910156,yellow
127, 8275, 8205, 8118, 8071, 8158, 8149, 8157, 8174, 8161, 8179, 8085, 8146, 8304, 9701,2.763223171234131,yellow
238, 8033, 8151, 8208, 8231, 8170, 8177, 8171, 8161, 8173, 8189, 8253, 8226, 8267, 9532,2.7712438106536865,yellow
0, 8217, 8170, 8162, 8154, 8165, 8165, 8165, 8168, 8176, 8188, 8149, 8165, 8289, 9647,2.779155731201172,yellow
1, 8245, 8186, 8153, 8147, 8168, 8163, 8166, 8166, 8178, 8185, 8116, 8157, 8296, 9653,2.7870709896087646,yellow
2, 8036, 8147, 8184, 8214, 8168, 8178, 8173, 8167, 8195, 8190, 8235, 8219, 8253, 9506,2.7948687076568604,yellow
3, 8279, 8194, 8119, 8059, 8155, 8143, 8154, 8176, 8158, 8185, 8097, 8146, 8299, 9681,2.8025245666503906,yellow
4, 8089, 8156, 8185, 8197, 8173, 8180, 8168, 8168, 8179, 8189, 8217, 8209, 8278, 9553,2.8104639053344727,yellow
5, 8171, 8173, 8162, 8145, 8160, 8160, 8160, 8179, 8181, 8186, 8168, 8192, 8286, 9617,2.8183929920196533,yellow
6, 8208, 8191, 8161, 8134, 8165, 8148, 8155, 8173, 8166, 8187, 8145, 8182, 8293, 9664,2.826207160949707,yellow
7, 8041, 8144, 8197, 8228, 8182, 8182, 8174, 8166, 8193, 8192, 8249, 8220, 8260, 9543,2.8341684341430664,yellow
8, 8333, 8200, 8133, 8082, 8162, 8149, 8160, 8180, 8166, 8183, 8085, 8133, 8309, 9716,2.841905117034912,yellow
9, 8121, 8165, 8201, 8231, 8172, 8179, 8171, 8168, 8176, 8196, 8195, 8196, 8276, 9569,2.849717140197754,yellow
10, 8142, 8160, 8163, 8180, 8171, 8172, 8174, 8166, 8181, 8196, 8146, 8174, 8270, 9608,2.857699394226074,yellow
11, 8276, 8195, 8129, 8100, 8166, 8150, 8165, 8167, 8163, 8184, 8086, 8140, 8299, 9703,2.86550235748291,yellow
12, 8069, 8151, 8187, 8216, 8170, 8180, 8173, 8168, 8189, 8195, 8236, 8210, 8267, 9541,2.873427629470825,yellow
13, 8272, 8190, 8124, 8080, 8155, 8150, 8155, 8179, 8165, 8191, 8104, 8145, 8301, 9679,2.881122589111328,yellow
14, 8078, 8165, 8180, 8196, 8170, 8173, 8166, 8169, 8174, 8188, 8216, 8199, 8273, 9553,2.8890645503997803,yellow
15, 8097, 8164, 8175, 8177, 8168, 8170, 8170, 8174, 8187, 8192, 8207, 8198, 8269, 9579,2.8966922760009766,yellow
16, 8280, 8197, 8147, 8100, 8164, 8146, 8159, 8174, 8164, 8195, 8117, 8164, 8299, 9725,2.9044742584228516,yellow
17, 8058, 8148, 8197, 8230, 8175, 8183, 8168, 8163, 8181, 8194, 8250, 8224, 8263, 9576,2.9136159420013428,yellow
18, 8279, 8191, 8137, 8098, 8160, 8154, 8154, 8175, 8163, 8181, 8097, 8137, 8301, 9702,2.9213685989379883,yellow
19, 8151, 8166, 8188, 8193, 8176, 8172, 8168, 8170, 8180, 8192, 8177, 8182, 8280, 9580,2.9292500019073486,yellow
20, 8120, 8152, 8168, 8178, 8173, 8179, 8168, 8169, 8193, 8196, 8193, 8200, 8269, 9550,2.937523603439331,yellow
21, 8306, 8202, 8117, 8070, 8157, 8154, 8153, 8167, 8160, 8181, 8072, 8139, 8310, 9690,2.9436213970184326,yellow
22, 8040, 8152, 8192, 8231, 8169, 8184, 8174, 8165, 8187, 8189, 8230, 8209, 8265, 9513,2.951565980911255,yellow
23, 8232, 8184, 8146, 8114, 8158, 8149, 8162, 8176, 8173, 8186, 8136, 8169, 8291, 9659,2.961017608642578,yellow
24, 8168, 8177, 8183, 8177, 8173, 8164, 8164, 8166, 8170, 8185, 8203, 8207, 8282, 9636,2.968900442123413,yellow
25, 8104, 8154, 8176, 8189, 8175, 8174, 8166, 8169, 8186, 8192, 8223, 8205, 8262, 9582,2.976626396179199,yellow
26, 8295, 8200, 8131, 8080, 8159, 8141, 8152, 8176, 8161, 8183, 8081, 8134, 8305, 9714,2.9847452640533447,yellow
27, 8036, 8151, 8212, 8256, 8181, 8186, 8177, 8166, 8184, 8183, 8232, 8211, 8271, 9550,2.9925549030303955,yellow
28, 8247, 8179, 8147, 8134, 8173, 8161, 8168, 8172, 8175, 8185, 8120, 8155, 8290, 9666,3.000520706176758,yellow
29, 8232, 8182, 8161, 8151, 8168, 8157, 8158, 8166, 8172, 8192, 8147, 8175, 8284, 9629,3.006880044937134,yellow
30, 8075, 8149, 8188, 8206, 8170, 8184, 8163, 8170, 8189, 8191, 8219, 8211, 8264, 9542,3.014937400817871,yellow
31, 8261, 8190, 8132, 8078, 8161, 8152, 8154, 8176, 8157, 8179, 8091, 8148, 8305, 9691,3.0226852893829346,yellow
32, 8037, 8151, 8196, 8219, 8175, 8177, 8170, 8163, 8178, 8191, 8239, 8220, 8262, 9528,3.0308287143707275,yellow
33, 8245, 8177, 8153, 8128, 8166, 8162, 8161, 8175, 8176, 8185, 8136, 8159, 8280, 9651,3.038663864135742,yellow
34, 8269, 8173, 8173, 8155, 8168, 8165, 8163, 8179, 8169, 8182, 8136, 8161, 8291, 9653,3.0467255115509033,yellow
35, 8050, 8137, 8203, 8235, 8169, 8182, 8172, 8172, 8189, 8191, 8239, 8220, 8266, 9520,3.0546581745147705,yellow
36, 8284, 8199, 8120, 8074, 8154, 8147, 8157, 8171, 8166, 8180, 8083, 8145, 8310, 9718,3.062758207321167,yellow
37, 8115, 8157, 8176, 8199, 8169, 8177, 8176, 8168, 8186, 8186, 8201, 8202, 8275, 9588,3.0705766677856445,yellow
38, 8218, 8165, 8155, 8142, 8161, 8159, 8168, 8178, 8178, 8189, 8161, 8184, 8284, 9624,3.0787124633789062,yellow
39, 8237, 8188, 8157, 8132, 8167, 8151, 8159, 8170, 8163, 8185, 8162, 8190, 8294, 9656,3.0865771770477295,yellow
40, 8046, 8151, 8189, 8216, 8174, 8178, 8171, 8167, 8188, 8187, 8252, 8232, 8259, 9551,3.09454345703125,yellow
41, 8296, 8193, 8138, 8085, 8158, 8143, 8155, 8174, 8161, 8186, 8099, 8149, 8300, 9733,3.102526903152466,yellow
42, 8094, 8154, 8205, 8229, 8180, 8175, 8169, 8166, 8179, 8194, 8240, 8213, 8270, 9596,3.1106019020080566,yellow
43, 8165, 8169, 8160, 8159, 8176, 8165, 8162, 8175, 8183, 8183, 8186, 8183, 8279, 9643,3.118489980697632,yellow
44, 8266, 8203, 8152, 8127, 8167, 8152, 8152, 8170, 8160, 8179, 8123, 8153, 8305, 9722,3.1266841888427734,yellow
45, 8062, 8154, 8205, 8251, 8179, 8186, 8174, 8167, 8184, 8193, 8242, 8213, 8268, 9578,3.1347148418426514,yellow
46, 8314, 8196, 8128, 8083, 8164, 8144, 8164, 8183, 8164, 8184, 8080, 8135, 8305, 9723,3.1410350799560547,yellow
47, 8126, 8165, 8193, 8206, 8174, 8169, 8171, 8168, 8180, 8188, 8201, 8198, 8276, 9566,3.1485915184020996,yellow
48, 8137, 8160, 8177, 8184, 8167, 8176, 8166, 8168, 8188, 8191, 8189, 8192, 8268, 9583,3.1567063331604004,yellow
49, 8297, 8192, 8139, 8097, 8158, 8158, 8160, 8173, 8165, 8181, 8100, 8147, 8296, 9703,3.1655569076538086,yellow
50, 8089, 8150, 8187, 8212, 8171, 8187, 8176, 8167, 8190, 8185, 8228, 8207, 8260, 9545,3.173445224761963,yellow
51, 8296, 8195, 8111, 8067, 8157, 8151, 8154, 8174, 8171, 8184, 8076, 8136, 8299, 9684,3.1812665462493896,yellow
52, 8111, 8168, 8175, 8182, 8170, 8171, 8158, 8169, 8176, 8189, 8188, 8199, 8279, 9560,3.1891825199127197,yellow
53, 8080, 8154, 8200, 8198, 8172, 8176, 8164, 8179, 8183, 8184, 8235, 8219, 8269, 9560,3.1969385147094727,yellow
54, 8272, 8198, 8156, 8099, 8164, 8150, 8154, 8176, 8160, 8177, 8125, 8167, 8303, 9729,3.2037413120269775,yellow
55, 8055, 8149, 8192, 8225, 8175, 8185, 8167, 8161, 8188, 8191, 8242, 8220, 8262, 9573,3.2126054763793945,yellow
56, 8290, 8185, 8142, 8108, 8163, 8155, 8156, 8176, 8166, 8186, 8119, 8148, 8297, 9700,3.2210609912872314,yellow
57, 8177, 8174, 8201, 8204, 8179, 8170, 8169, 8175, 8162, 8186, 8189, 8184, 8292, 9630,3.228952407836914,yellow
58, 8094, 8156, 8185, 8206, 8178, 8182, 8170, 8173, 8184, 8190, 8189, 8187, 8273, 9591,3.235722303390503,yellow
59, 8325, 8202, 8122, 8075, 8165, 8150, 8150, 8172, 8168, 8183, 8056, 8125, 8305, 9733,3.243495464324951,yellow
60, 8090, 8151, 8198, 8226, 8179, 8184, 8170, 8163, 8190, 8190, 8226, 8209, 8266, 9558,3.2531445026397705,yellow
61, 8258, 8175, 8147, 8108, 8161, 8160, 8162, 8167, 8175, 8186, 8115, 8151, 8296, 9679,3.261032819747925,yellow
62, 8225, 8174, 8168, 8153, 8170, 8168, 8161, 8160, 8174, 8185, 8141, 8163, 8286, 9654,3.2689547538757324,yellow
63, 8129, 8153, 8175, 8193, 8177, 8180, 8170, 8168, 8186, 8186, 8194, 8191, 8258, 9584,3.27514386177063,yellow
64, 8301, 8194, 8125, 8073, 8156, 8140, 8155, 8182, 8159, 8182, 8080, 8144, 8301, 9693,3.2834978103637695,yellow
65, 8026, 8145, 8205, 8232, 8168, 8173, 8168, 8173, 8184, 8193, 8248, 8233, 8265, 9505,3.2911994457244873,red
66, 8181, 8180, 8151, 8120, 8159, 8159, 8161, 8175, 8174, 8187, 8147, 8186, 8284, 9636,3.2991843223571777,red
67, 8164, 8188, 8162, 8138, 8160, 8160, 8162, 8167, 8168, 8184, 8157, 8190, 8289, 9635,3.306562900543213,red
68, 8055, 8150, 8196, 8224, 8171, 8182, 8169, 8167, 8188, 8190, 8238, 8212, 8263, 9538,3.3146607875823975,red
69, 8339, 8202, 8141, 8100, 8161, 8154, 8156, 8176, 8159, 8184, 8086, 8129, 8306, 9718,3.323425054550171,red
70, 8095, 8160, 8199, 8232, 8175, 8186, 8174, 8166, 8186, 8189, 8214, 8199, 8266, 9569,3.3314316272735596,red
71, 8196, 8172, 8144, 8128, 8165, 8165, 8165, 8169, 8185, 8186, 8129, 8159, 8283, 9637,3.337777853012085,red
72, 8230, 8182, 8148, 8117, 8163, 8157, 8159, 8164, 8164, 8185, 8135, 8165, 8300, 9625,3.3456103801727295,red
73, 8034, 8142, 8203, 8218, 8170, 8181, 8172, 8166, 8189, 8191, 8272, 8236, 8263, 9481,3.355036973953247,red
74, 8277, 8196, 8150, 8085, 8162, 8147, 8155, 8175, 8167, 8184, 8121, 8160, 8298, 9711,3.362976551055908,red
75, 8103, 8163, 8201, 8219, 8177, 8179, 8169, 8167, 8179, 8189, 8222, 8204, 8267, 9626,3.3708066940307617,red
76, 8207, 8170, 8158, 8152, 8165, 8166, 8168, 8177, 8179, 8187, 8160, 8172, 8278, 9645,3.378814935684204,red
77, 8272, 8186, 8160, 8132, 8165, 8157, 8162, 8173, 8164, 8186, 8124, 8162, 8296, 9670,3.3867342472076416,red
78, 8048, 8141, 8212, 8246, 8174, 8191, 8172, 8167, 8190, 8195, 8235, 8217, 8260, 9548,3.3944575786590576,red
79, 8280, 8195, 8126, 8075, 8156, 8147, 8155, 8176, 8166, 8186, 8071, 8135, 8306, 9704,3.4023942947387695,red
80, 8092, 8164, 8179, 8184, 8171, 8164, 8169, 8163, 8181, 8190, 8198, 8204, 8275, 9541,3.4087142944335938,red
81, 8150, 8164, 8170, 8159, 8169, 8168, 8169, 8172, 8183, 8187, 8189, 8197, 8272, 9580,3.4165561199188232,red
82, 8288, 8194, 8155, 8125, 8161, 8156, 8158, 8175, 8156, 8180, 8119, 8151, 8302, 9694,3.4244768619537354,red
83, 8049, 8148, 8196, 8248, 8170, 8183, 8176, 8161, 8186, 8193, 8234, 8205, 8266, 9536,3.4339840412139893,red
84, 8258, 8196, 8117, 8077, 8156, 8144, 8158, 8168, 8170, 8187, 8088, 8148, 8301, 9677,3.441342830657959,red
85, 8092, 8171, 8177, 8182, 8171, 8169, 8160, 8168, 8177, 8185, 8214, 8214, 8274, 9550,3.4492764472961426,red
86, 8100, 8158, 8179, 8182, 8171, 8174, 8160, 8173, 8183, 8187, 8224, 8209, 8271, 9565,3.457180976867676,red
87, 8282, 8194, 8155, 8105, 8165, 8146, 8155, 8170, 8160, 8185, 8120, 8158, 8310, 9725,3.4650630950927734,red
88, 8043, 8146, 8210, 8240, 8179, 8183, 8174, 8166, 8188, 8191, 8253, 8220, 8263, 9568,3.4715416431427,red
89, 8271, 8191, 8140, 8097, 8162, 8161, 8164, 8182, 8170, 8178, 8111, 8144, 8289, 9702,3.47955060005188,red
