COUNTER,F3,FC5,AF3,F7,T7,P7,O1,O2,P8,T8,F8,AF4,FC6,F4,Timestamp,word
50, 8164, 8172, 8176, 8168, 8158, 8159, 8168, 8166, 8158, 8185, 8169, 8181, 8285, 9640,0.0076482295989990234,XXXXX
51, 8074, 8151, 8191, 8208, 8172, 8180, 8171, 8164, 8186, 8190, 8212, 8203, 8264, 9586,0.015462875366210938,XXXXX
52, 8322, 8195, 8127, 8070, 8170, 8151, 8153, 8164, 8165, 8177, 8078, 8139, 8296, 9709,0.02348947525024414,XXXXX
53, 8093, 8151, 8189, 8207, 8173, 8176, 8167, 8159, 8174, 8181, 8226, 8211, 8265, 9531,0.03149867057800293,XXXXX
54, 8222, 8168, 8156, 8137, 8158, 8157, 8153, 8172, 8163, 8183, 8149, 8169, 8282, 9663,0.03946828842163086,XXXXX
55, 8230, 8172, 8178, 8166, 8167, 8164, 8152, 8166, 8165, 8187, 8149, 8173, 8283, 9712,0.04735898971557617,XXXXX
56, 8122, 8144, 8190, 8210, 8171, 8183, 8164, 8164, 8186, 8186, 8199, 8194, 8259, 9617,0.055379629135131836,XXXXX
57, 8339, 8190, 8133, 8078, 8157, 8150, 8147, 8174, 8159, 8177, 8068, 8128, 8297, 9723,0.0633230209350586,XXXXX
58, 8092, 8152, 8198, 8218, 8177, 8180, 8163, 8160, 8180, 8188, 8222, 8207, 8261, 9555,0.07062649726867676,XXXXX
59, 8187, 8169, 8151, 8141, 8167, 8157, 8167, 8165, 8180, 8184, 8159, 8173, 8274, 9645,0.08020329475402832,XXXXX
60, 8223, 8185, 8160, 8144, 8163, 8149, 8162, 8166, 8165, 8177, 8135, 8162, 8286, 9684,0.08770918846130371,XXXXX
61, 8076, 8148, 8195, 8227, 8173, 8180, 8167, 8168, 8187, 8186, 8223, 8200, 8253, 9571,0.09571671485900879,XXXXX
62, 8305, 8186, 8126, 8086, 8155, 8148, 8155, 8175, 8168, 8183, 8087, 8133, 8297, 9713,0.10368704795837402,XXXXX
63, 8081, 8154, 8187, 8217, 8167, 8172, 8168, 8158, 8179, 8186, 8215, 8204, 8280, 9568,0.11155295372009277,XXXXX
64, 8167, 8169, 8157, 8153, 8162, 8166, 8161, 8166, 8178, 8179, 8172, 8178, 8282, 9629,0.11807823181152344,XXXXX
65, 8272, 8186, 8157, 8121, 8160, 8152, 8156, 8171, 8161, 8173, 8130, 8155, 8291, 9691,0.1259164810180664,XXXXX
66, 8082, 8140, 8202, 8228, 8173, 8177, 8172, 8168, 8181, 8183, 8226, 8203, 8258, 9565,0.133742094039917,XXXXX
67, 8297, 8189, 8118, 8078, 8161, 8149, 8157, 8172, 8163, 8182, 8070, 8135, 8298, 9720,0.14154481887817383,XXXXX
68, 8109, 8170, 8166, 8178, 8167, 8169, 8164, 8157, 8178, 8189, 8186, 8195, 8276, 9575,0.14955782890319824,XXXXX
69, 8155, 8161, 8169, 8161, 8163, 8161, 8163, 8166, 8180, 8183, 8186, 8185, 8265, 9601,0.15903377532958984,XXXXX
70, 8287, 8180, 8166, 8131, 8169, 8148, 8152, 8172, 8157, 8175, 8126, 8159, 8284, 9719,0.16695785522460938,XXXXX
71, 8049, 8143, 8197, 8244, 8180, 8185, 8167, 8164, 8181, 8186, 8230, 8208, 8256, 9575,0.17330217361450195,XXXXX
72, 8278, 8187, 8115, 8096, 8154, 8152, 8158, 8163, 8168, 8183, 8076, 8129, 8291, 9718,0.1806163787841797,XXXXX
73, 8177, 8164, 8162, 8176, 8164, 8162, 8162, 8155, 8178, 8184, 8171, 8186, 8274, 9620,0.18997621536254883,XXXXX
74, 8165, 8152, 8152, 8149, 8166, 8160, 8164, 8169, 8182, 8184, 8194, 8196, 8271, 9599,0.1976778507232666,XXXXX
75, 8293, 8186, 8133, 8085, 8156, 8144, 8157, 8170, 8159, 8179, 8125, 8158, 8298, 9702,0.20543932914733887,XXXXX
76, 8046, 8145, 8200, 8234, 8168, 8181, 8169, 8155, 8187, 8182, 8258, 8222, 8256, 9554,0.2130434513092041,XXXXX
77, 8243, 8183, 8133, 8104, 8157, 8150, 8152, 8165, 8169, 8175, 8118, 8150, 8288, 9707,0.2219681739807129,XXXXX
78, 8150, 8166, 8173, 8175, 8167, 8164, 8161, 8164, 8171, 8181, 8181, 8185, 8279, 9644,0.2296741008758545,XXXXX
79, 8121, 8148, 8177, 8186, 8168, 8174, 8171, 8170, 8186, 8187, 8209, 8195, 8266, 9615,0.23570919036865234,XXXXX
80, 8306, 8188, 8137, 8092, 8161, 8149, 8154, 8171, 8160, 8181, 8091, 8136, 8303, 9749,0.24355030059814453,XXXXX
81, 8062, 8152, 8198, 8240, 8181, 8179, 8169, 8157, 8180, 8184, 8214, 8200, 8266, 9577,0.2528219223022461,XXXXX
82, 8276, 8188, 8129, 8110, 8163, 8152, 8164, 8168, 8171, 8181, 8100, 8142, 8283, 9689,0.26058006286621094,XXXXX
83, 8236, 8180, 8148, 8137, 8159, 8161, 8166, 8164, 8169, 8186, 8143, 8165, 8279, 9655,0.2684171199798584,XXXXX
84, 8102, 8152, 8168, 8188, 8164, 8175, 8169, 8162, 8182, 8183, 8199, 8193, 8262, 9587,0.27606987953186035,XXXXX
85, 8284, 8192, 8123, 8088, 8157, 8143, 8153, 8168, 8159, 8175, 8084, 8141, 8299, 9722,0.2845778465270996,XXXXX
86, 8101, 8149, 8176, 8202, 8168, 8173, 8170, 8161, 8181, 8191, 8218, 8210, 8266, 9581,0.29244256019592285,XXXXX
87, 8254, 8168, 8138, 8109, 8155, 8155, 8162, 8168, 8170, 8185, 8137, 8162, 8279, 9677,0.3002636432647705,XXXXX
88, 8180, 8174, 8179, 8170, 8165, 8161, 8159, 8169, 8160, 8178, 8165, 8177, 8272, 9652,0.3065073490142822,XXXXX
89, 8075, 8154, 8186, 8218, 8175, 8180, 8169, 8169, 8181, 8190, 8214, 8197, 8253, 9576,0.31606554985046387,XXXXX
90, 8319, 8192, 8111, 8067, 8154, 8145, 8157, 8163, 8162, 8186, 8079, 8134, 8302, 9699,0.32343459129333496,XXXXX
91, 8072, 8141, 8188, 8208, 8167, 8177, 8169, 8151, 8178, 8186, 8230, 8217, 8271, 9534,0.33136749267578125,XXXXX
92, 8209, 8166, 8155, 8138, 8162, 8162, 8161, 8168, 8170, 8184, 8138, 8169, 8280, 9658,0.33873462677001953,XXXXX
93, 8255, 8188, 8151, 8144, 8163, 8157, 8158, 8169, 8164, 8185, 8111, 8153, 8288, 9674,0.34674835205078125,XXXXX
94, 8071, 8141, 8171, 8215, 8166, 8178, 8168, 8165, 8185, 8190, 8215, 8202, 8258, 9530,0.35456037521362305,XXXXX
95, 8270, 8181, 8118, 8073, 8154, 8139, 8149, 8173, 8157, 8183, 8098, 8148, 8297, 9693,0.364027738571167,XXXXX
96, 8074, 8160, 8202, 8212, 8173, 8166, 8164, 8166, 8175, 8187, 8226, 8208, 8272, 9580,0.3703293800354004,XXXXX
97, 8189, 8171, 8162, 8146, 8167, 8166, 8166, 8172, 8179, 8181, 8145, 8165, 8278, 9639,0.37836766242980957,XXXXX
98, 8246, 8181, 8141, 8113, 8164, 8157, 8160, 8165, 8165, 8182, 8111, 8164, 8293, 9655,0.38616466522216797,XXXXX
99, 8027, 8136, 8185, 8225, 8170, 8175, 8171, 8158, 8185, 8192, 8251, 8236, 8260, 9513,0.3940620422363281,XXXXX
100, 8271, 8177, 8130, 8095, 8153, 8146, 8151, 8167, 8162, 8181, 8110, 8158, 8296, 9716,0.40170860290527344,XXXXX
101, 8093, 8154, 8187, 8200, 8168, 8176, 8157, 8162, 8176, 8184, 8200, 8196, 8273, 9620,0.40973329544067383,XXXXX
102, 8138, 8163, 8166, 8164, 8166, 8169, 8162, 8177, 8181, 8183, 8171, 8176, 8272, 9639,0.41846537590026855,XXXXX
103, 8304, 8190, 8143, 8119, 8163, 8151, 8159, 8170, 8163, 8179, 8098, 8149, 8292, 9726,0.4262349605560303,XXXXX
104, 8101, 8150, 8173, 8208, 8175, 8183, 8170, 8152, 8183, 8193, 8205, 8203, 8261, 9571,0.4340662956237793,XXXXX
105, 8284, 8187, 8114, 8064, 8156, 8153, 8157, 8165, 8160, 8185, 8094, 8144, 8301, 9698,0.441694974899292,XXXXX
106, 8134, 8159, 8181, 8181, 8160, 8168, 8163, 8162, 8169, 8182, 8201, 8200, 8280, 9607,0.4495832920074463,XXXXX
107, 8135, 8161, 8161, 8166, 8161, 8166, 8159, 8168, 8179, 8184, 8183, 8187, 8266, 9617,0.45734429359436035,XXXXX
108, 8254, 8198, 8128, 8092, 8166, 8146, 8152, 8171, 8155, 8177, 8102, 8144, 8294, 9709,0.4652564525604248,XXXXX
109, 8031, 8146, 8206, 8241, 8177, 8176, 8172, 8162, 8175, 8182, 8245, 8214, 8261, 9546,0.47272610664367676,XXXXX
110, 8281, 8176, 8153, 8126, 8156, 8152, 8159, 8170, 8168, 8188, 8104, 8149, 8289, 9695,0.4808349609375,XXXXX
111, 8191, 8162, 8169, 8176, 8166, 8170, 8167, 8160, 8179, 8198, 8153, 8180, 8278, 9639,0.4887871742248535,XXXXX
112, 8145, 8151, 8151, 8155, 8166, 8170, 8170, 8166, 8185, 8189, 8181, 8186, 8271, 9613,0.4966437816619873,XXXXX
113, 8283, 8191, 8144, 8093, 8157, 8141, 8151, 8169, 8154, 8179, 8110, 8151, 8304, 9703,0.5045814514160156,XXXXX
114, 8017, 8144, 8225, 8262, 8177, 8181, 8167, 8157, 8179, 8191, 8249, 8217, 8265, 9543,0.5124552249908447,XXXXX
115, 8240, 8173, 8135, 8110, 8165, 8156, 8159, 8168, 8170, 8186, 8090, 8132, 8291, 9703,0.5206851959228516,XXXXX
116, 8202, 8173, 8146, 8129, 8169, 8155, 8157, 8164, 8167, 8183, 8129, 8159, 8284, 9634,0.5280818939208984,XXXXX
117, 8098, 8150, 8182, 8191, 8174, 8167, 8165, 8159, 8181, 8186, 8228, 8215, 8266, 9549,0.5360362529754639,XXXXX
118, 8290, 8182, 8154, 8118, 8156, 8148, 8159, 8167, 8160, 8182, 8126, 8166, 8302, 9736,0.5439105033874512,XXXXX
119, 8087, 8150, 8200, 8241, 8165, 8183, 8170, 8170, 8180, 8187, 8223, 8202, 8264, 9620,0.5517678260803223,XXXXX
120, 8267, 8186, 8129, 8108, 8160, 8157, 8156, 8176, 8170, 8180, 8097, 8135, 8283, 9697,0.5606133937835693,XXXXX
121, 8214, 8177, 8149, 8135, 8167, 8157, 8159, 8162, 8163, 8185, 8138, 8170, 8286, 9636,0.5669064521789551,XXXXX
122, 8064, 8138, 8186, 8208, 8169, 8177, 8172, 8162, 8176, 8194, 8236, 8217, 8260, 9548,0.5747113227844238,XXXXX
123, 8296, 8187, 8142, 8104, 8158, 8150, 8157, 8169, 8159, 8183, 8103, 8144, 8294, 9735,0.5824658870697021,XXXXX
124, 8115, 8159, 8187, 8232, 8175, 8178, 8169, 8160, 8186, 8185, 8203, 8195, 8267, 9634,0.5918111801147461,XXXXX
125, 8266, 8175, 8134, 8128, 8162, 8156, 8161, 8173, 8175, 8182, 8115, 8150, 8287, 9705,0.5994212627410889,XXXXX
126, 8235, 8177, 8163, 8139, 8160, 8154, 8157, 8169, 8161, 8186, 8143, 8167, 8291, 9640,0.6070969104766846,XXXXX
127, 8011, 8145, 8201, 8230, 8164, 8176, 8168, 8162, 8188, 8194, 8249, 8220, 8254, 9520,0.6149332523345947,XXXXX
240, 8256, 8195, 8126, 8084, 8149, 8140, 8155, 8170, 8165, 8180, 8099, 8149, 8293, 9734,0.6227583885192871,XXXXX
0, 8119, 8156, 8184, 8192, 8166, 8170, 8166, 8165, 8172, 8186, 8219, 8210, 8272, 9602,0.6301724910736084,XXXXX
1, 8219, 8159, 8158, 8136, 8162, 8161, 8162, 8174, 8170, 8188, 8167, 8176, 8280, 9644,0.6378543376922607,XXXXX
2, 8243, 8179, 8162, 8143, 8168, 8154, 8163, 8169, 8161, 8181, 8130, 8155, 8291, 9696,0.6455435752868652,XXXXX
3, 8060, 8143, 8190, 8228, 8182, 8179, 8174, 8157, 8184, 8186, 8221, 8201, 8259, 9557,0.6547732353210449,XXXXX
4, 8297, 8186, 8117, 8065, 8161, 8140, 8152, 8164, 8162, 8181, 8094, 8149, 8296, 9690,0.6626684665679932,XXXXX
5, 8088, 8160, 8190, 8191, 8168, 8164, 8168, 8160, 8175, 8183, 8224, 8217, 8270, 9573,0.670569658279419,XXXXX
6, 8148, 8160, 8169, 8171, 8166, 8167, 8171, 8167, 8178, 8183, 8176, 8181, 8272, 9623,0.6784851551055908,XXXXX
7, 8305, 8180, 8132, 8114, 8162, 8154, 8154, 8167, 8166, 8181, 8102, 8149, 8292, 9702,0.685905933380127,XXXXX
8, 8119, 8143, 8168, 8196, 8172, 8177, 8165, 8163, 8186, 8189, 8221, 8212, 8259, 9564,0.693793773651123,XXXXX
9, 8289, 8182, 8124, 8075, 8158, 8148, 8158, 8171, 8158, 8182, 8104, 8153, 8299, 9694,0.7017641067504883,XXXXX
10, 8077, 8154, 8202, 8217, 8166, 8173, 8163, 8163, 8170, 8187, 8218, 8210, 8274, 9580,0.7096681594848633,XXXXX
11, 8115, 8158, 8178, 8184, 8165, 8171, 8157, 8174, 8182, 8188, 8178, 8182, 8262, 9627,0.7170863151550293,XXXXX
12, 8302, 8195, 8130, 8089, 8165, 8148, 8153, 8174, 8161, 8179, 8071, 8131, 8297, 9723,0.7249956130981445,XXXXX
13, 8068, 8148, 8188, 8223, 8174, 8182, 8173, 8160, 8186, 8182, 8231, 8217, 8271, 9531,0.7328453063964844,XXXXX
14, 8253, 8186, 8138, 8106, 8153, 8154, 8152, 8170, 8172, 8180, 8127, 8162, 8293, 9685,0.7407910823822021,XXXXX
15, 8134, 8168, 8181, 8193, 8164, 8166, 8152, 8165, 8176, 8187, 8178, 8179, 8271, 9628,0.748732328414917,XXXXX
16, 8131, 8149, 8161, 8184, 8168, 8167, 8163, 8171, 8186, 8187, 8170, 8171, 8268, 9606,0.7566890716552734,XXXXX
17, 8310, 8187, 8124, 8082, 8153, 8143, 8159, 8182, 8160, 8181, 8092, 8152, 8299, 9703,0.7646963596343994,XXXXX
18, 8035, 8144, 8207, 8239, 8167, 8177, 8172, 8171, 8179, 8192, 8263, 8239, 8254, 9518,0.7725176811218262,XXXXX
19, 8233, 8173, 8153, 8129, 8165, 8151, 8158, 8169, 8168, 8185, 8125, 8153, 8288, 9689,0.7804503440856934,XXXXX
20, 8220, 8170, 8166, 8162, 8179, 8162, 8165, 8159, 8169, 8182, 8128, 8152, 8289, 9702,0.7883069515228271,XXXXX
21, 8159, 8153, 8157, 8180, 8169, 8173, 8171, 8161, 8181, 8189, 8173, 8181, 8260, 9621,0.7960987091064453,XXXXX
22, 8301, 8186, 8126, 8095, 8146, 8144, 8153, 8170, 8159, 8185, 8103, 8155, 8285, 9688,0.8040857315063477,XXXXX
23, 8014, 8144, 8206, 8240, 8165, 8181, 8167, 8167, 8181, 8188, 8260, 8228, 8260, 9532,0.8118488788604736,XXXXX
24, 8200, 8182, 8145, 8121, 8158, 8159, 8160, 8177, 8171, 8181, 8137, 8159, 8291, 9700,0.819772481918335,XXXXX
25, 8216, 8185, 8159, 8150, 8160, 8155, 8157, 8166, 8165, 8185, 8145, 8169, 8284, 9696,0.8275463581085205,XXXXX
26, 8097, 8149, 8187, 8211, 8168, 8171, 8168, 8162, 8179, 8189, 8219, 8203, 8252, 9592,0.8351988792419434,XXXXX
27, 8311, 8188, 8143, 8106, 8164, 8148, 8158, 8170, 8151, 8179, 8102, 8140, 8294, 9744,0.8430125713348389,XXXXX
28, 8106, 8149, 8199, 8234, 8176, 8180, 8167, 8167, 8176, 8188, 8217, 8193, 8269, 9608,0.8510384559631348,XXXXX
29, 8247, 8168, 8139, 8124, 8163, 8160, 8162, 8175, 8178, 8185, 8115, 8143, 8284, 9687,0.8587303161621094,XXXXX
30, 8256, 8176, 8143, 8124, 8167, 8157, 8163, 8160, 8164, 8178, 8119, 8156, 8288, 9678,0.8664684295654297,XXXXX
31, 8093, 8143, 8173, 8194, 8171, 8179, 8172, 8158, 8176, 8185, 8216, 8201, 8259, 9570,0.8759777545928955,XXXXX
32, 8295, 8188, 8125, 8079, 8154, 8148, 8154, 8172, 8158, 8179, 8093, 8137, 8301, 9717,0.8825500011444092,XXXXX
33, 8099, 8151, 8183, 8211, 8169, 8170, 8161, 8159, 8181, 8184, 8220, 8212, 8274, 9576,0.8918991088867188,XXXXX
34, 8218, 8164, 8132, 8119, 8163, 8151, 8155, 8164, 8174, 8183, 8149, 8187, 8279, 9643,0.8981328010559082,XXXXX
35, 8212, 8178, 8155, 8119, 8162, 8152, 8156, 8166, 8158, 8182, 8138, 8176, 8288, 9663,0.9069681167602539,XXXXX
36, 7990, 8139, 8221, 8256, 8173, 8189, 8168, 8165, 8184, 8188, 8256, 8220, 8258, 9554,0.9152102470397949,XXXXX
37, 8274, 8187, 8141, 8112, 8162, 8148, 8150, 8174, 8167, 8181, 8095, 8143, 8298, 9755,0.9214482307434082,XXXXX
38, 8141, 8161, 8179, 8200, 8176, 8168, 8168, 8165, 8176, 8187, 8192, 8189, 8278, 9641,0.9302864074707031,XXXXX
39, 8200, 8168, 8157, 8154, 8167, 8167, 8163, 8167, 8174, 8181, 8148, 8158, 8286, 9660,0.9379420280456543,XXXXX
40, 8268, 8193, 8141, 8124, 8163, 8152, 8149, 8167, 8162, 8175, 8088, 8140, 8302, 9693,0.9472231864929199,XXXXX
41, 8070, 8146, 8174, 8220, 8171, 8180, 8166, 8168, 8189, 8189, 8218, 8207, 8261, 9532,0.9534223079681396,XXXXX
42, 8291, 8180, 8125, 8075, 8154, 8153, 8151, 8174, 8167, 8182, 8117, 8151, 8295, 9689,0.9611306190490723,XXXXX
43, 8114, 8159, 8197, 8200, 8176, 8172, 8155, 8162, 8172, 8181, 8217, 8207, 8275, 9615,0.9688589572906494,XXXXX
44, 8164, 8165, 8164, 8183, 8178, 8172, 8163, 8172, 8179, 8182, 8162, 8177, 8269, 9650,0.9766769409179688,XXXXX
45, 8298, 8194, 8126, 8102, 8159, 8156, 8159, 8172, 8164, 8180, 8079, 8144, 8293, 9695,0.9844789505004883,XXXXX
46, 8029, 8139, 8192, 8215, 8170, 8179, 8168, 8155, 8189, 8186, 8247, 8233, 8254, 9505,0.993682861328125,XXXXX
47, 8241, 8175, 8130, 8085, 8163, 8142, 8154, 8166, 8164, 8180, 8129, 8164, 8284, 9697,1.001387357711792,XXXXX
48, 8139, 8171, 8167, 8175, 8167, 8165, 8162, 8168, 8166, 8183, 8186, 8187, 8278, 9648,1.0093064308166504,XXXXX
49, 8120, 8167, 8170, 8184, 8162, 8174, 8165, 8173, 8178, 8182, 8187, 8184, 8274, 9610,1.01708984375,XXXXX
50, 8311, 8191, 8142, 8106, 8153, 8150, 8155, 8168, 8161, 8182, 8100, 8143, 8294, 9722,1.0235991477966309,XXXXX
51, 8098, 8144, 8179, 8205, 8168, 8177, 8169, 8157, 8187, 8193, 8231, 8214, 8257, 9574,1.032585620880127,XXXXX
52, 8253, 8187, 8106, 8055, 8156, 8141, 8157, 8168, 8169, 8183, 8093, 8153, 8299, 9689,1.0402741432189941,XXXXX
53, 8133, 8175, 8164, 8154, 8164, 8156, 8167, 8163, 8162, 8185, 8151, 8177, 8290, 9627,1.047945261001587,XXXXX
54, 8099, 8149, 8177, 8200, 8161, 8178, 8174, 8163, 8175, 8190, 8194, 8188, 8261, 9592,1.0558428764343262,XXXXX
55, 8312, 8188, 8121, 8075, 8150, 8149, 8155, 8166, 8159, 8180, 8093, 8150, 8295, 9704,1.063619613647461,XXXXX
56, 8061, 8146, 8195, 8216, 8173, 8176, 8170, 8161, 8180, 8187, 8248, 8225, 8267, 9537,1.0716500282287598,XXXXX
57, 8241, 8172, 8148, 8124, 8164, 8157, 8163, 8174, 8169, 8185, 8125, 8148, 8291, 9682,1.0804352760314941,XXXXX
58, 8203, 8178, 8152, 8151, 8164, 8164, 8162, 8167, 8166, 8183, 8135, 8160, 8287, 9648,1.0883030891418457,XXXXX
59, 8082, 8154, 8163, 8190, 8166, 8174, 8171, 8168, 8180, 8186, 8219, 8206, 8261, 9552,1.0960190296173096,XXXXX
60, 8299, 8187, 8135, 8096, 8158, 8142, 8155, 8174, 8153, 8182, 8112, 8145, 8298, 9717,1.10392427444458,XXXXX
61, 8080, 8143, 8204, 8239, 8174, 8178, 8168, 8160, 8176, 8187, 8225, 8198, 8266, 9586,1.1117959022521973,XXXXX
62, 8205, 8169, 8141, 8117, 8160, 8163, 8165, 8168, 8174, 8182, 8133, 8163, 8284, 9657,1.1196422576904297,XXXXX
63, 8191, 8174, 8158, 8134, 8163, 8159, 8157, 8167, 8167, 8185, 8160, 8187, 8291, 9639,1.1276040077209473,XXXXX
64, 8072, 8140, 8189, 8223, 8173, 8174, 8161, 8166, 8185, 8191, 8227, 8208, 8263, 9565,1.1355183124542236,XXXXX
65, 8306, 8191, 8119, 8084, 8158, 8146, 8158, 8172, 8161, 8182, 8070, 8129, 8301, 9726,1.143608808517456,XXXXX
66, 8062, 8152, 8182, 8206, 8169, 8177, 8172, 8159, 8180, 8188, 8212, 8208, 8272, 9554,1.1513495445251465,XXXXX
67, 8190, 8159, 8154, 8137, 8164, 8158, 8157, 8169, 8176, 8184, 8154, 8172, 8278, 9633,1.1574962139129639,XXXXX
68, 8278, 8180, 8151, 8120, 8165, 8150, 8158, 8167, 8161, 8184, 8118, 8152, 8288, 9680,1.1654562950134277,XXXXX
69, 8075, 8148, 8186, 8211, 8168, 8176, 8178, 8161, 8184, 8194, 8228, 8210, 8260, 9544,1.175262212753296,XXXXX
70, 8276, 8186, 8145, 8108, 8154, 8139, 8157, 8174, 8165, 8184, 8114, 8154, 8298, 9723,1.1827671527862549,XXXXX
71, 8114, 8156, 8202, 8228, 8174, 8166, 8167, 8170, 8180, 8181, 8216, 8199, 8269, 9637,1.1907563209533691,XXXXX
72, 8212, 8169, 8148, 8141, 8163, 8166, 8164, 8170, 8177, 8183, 8144, 8158, 8274, 9671,1.198549747467041,XXXXX
73, 8278, 8182, 8143, 8117, 8158, 8152, 8155, 8160, 8158, 8187, 8111, 8147, 8294, 9684,1.2064208984375,XXXXX
74, 8019, 8138, 8203, 8248, 8178, 8178, 8172, 8157, 8185, 8192, 8251, 8218, 8258, 9527,1.2143356800079346,XXXXX
75, 8245, 8187, 8129, 8092, 8159, 8151, 8157, 8174, 8170, 8179, 8106, 8152, 8295, 9719,1.2221298217773438,XXXXX
76, 8132, 8166, 8173, 8178, 8163, 8173, 8164, 8170, 8173, 8182, 8195, 8198, 8277, 9636,1.2285487651824951,XXXXX
77, 8186, 8158, 8165, 8168, 8167, 8166, 8166, 8173, 8168, 8184, 8183, 8183, 8273, 9635,1.2376117706298828,XXXXX
78, 8321, 8180, 8154, 8131, 8166, 8150, 8157, 8170, 8156, 8180, 8117, 8151, 8298, 9717,1.2454619407653809,XXXXX
79, 8092, 8145, 8193, 8231, 8169, 8184, 8170, 8161, 8191, 8187, 8224, 8205, 8265, 9573,1.253382682800293,XXXXX
80, 8288, 8191, 8109, 8068, 8148, 8152, 8159, 8168, 8173, 8180, 8074, 8134, 8295, 9715,1.2611029148101807,XXXXX
81, 8152, 8168, 8158, 8162, 8160, 8166, 8162, 8163, 8174, 8182, 8168, 8192, 8273, 9612,1.269150733947754,XXXXX
82, 8138, 8159, 8168, 8178, 8165, 8169, 8164, 8171, 8179, 8186, 8195, 8204, 8268, 9598,1.2769930362701416,XXXXX
83, 8294, 8195, 8147, 8114, 8161, 8147, 8158, 8171, 8158, 8184, 8112, 8158, 8303, 9732,1.2850916385650635,XXXXX
84, 8075, 8146, 8198, 8237, 8172, 8175, 8172, 8160, 8186, 8188, 8235, 8209, 8262, 9601,1.2925066947937012,XXXXX
85, 8298, 8180, 8129, 8090, 8159, 8146, 8158, 8177, 8168, 8176, 8091, 8130, 8287, 9730,1.3003149032592773,XXXXX
86, 8184, 8172, 8177, 8164, 8172, 8168, 8169, 8175, 8164, 8179, 8153, 8167, 8283, 9628,1.308114767074585,XXXXX
87, 8090, 8154, 8178, 8193, 8167, 8182, 8174, 8166, 8183, 8185, 8204, 8201, 8267, 9571,1.3159961700439453,XXXXX
88, 8283, 8192, 8128, 8080, 8149, 8147, 8156, 8160, 8167, 8176, 8108, 8162, 8298, 9709,1.3235697746276855,XXXXX
89, 8073, 8147, 8197, 8209, 8167, 8174, 8170, 8160, 8184, 8182, 8247, 8223, 8267, 9560,1.3330271244049072,XXXXX
90, 8256, 8177, 8143, 8105, 8161, 8153, 8158, 8178, 8162, 8182, 8133, 8153, 8296, 9697,1.3408584594726562,XXXXX
91, 8174, 8176, 8173, 8171, 8166, 8161, 8156, 8165, 8162, 8185, 8159, 8169, 8291, 9663,1.348789930343628,XXXXX
92, 8071, 8145, 8191, 8221, 8171, 8178, 8165, 8164, 8188, 8188, 8195, 8186, 8261, 9587,1.3551361560821533,XXXXX
93, 8339, 8189, 8131, 8087, 8161, 8149, 8151, 8174, 8164, 8182, 8059, 8125, 8293, 9739,1.363323450088501,XXXXX
94, 8120, 8152, 8182, 8204, 8174, 8179, 8165, 8164, 8178, 8187, 8212, 8202, 8261, 9583,1.3708486557006836,XXXXX
95, 8217, 8168, 8139, 8116, 8158, 8160, 8162, 8169, 8173, 8182, 8142, 8164, 8284, 9670,1.3787565231323242,XXXXX
96, 8212, 8173, 8161, 8145, 8158, 8160, 8162, 8162, 8169, 8183, 8144, 8175, 8289, 9665,1.387636661529541,XXXXX
97, 8105, 8155, 8174, 8198, 8167, 8179, 8167, 8164, 8182, 8187, 8211, 8207, 8263, 9570,1.3953800201416016,XXXXX
98, 8290, 8196, 8118, 8073, 8154, 8150, 8148, 8170, 8154, 8175, 8100, 8150, 8298, 9712,1.4030663967132568,XXXXX
99, 8037, 8139, 8203, 8224, 8168, 8182, 8162, 8156, 8173, 8183, 8249, 8226, 8259, 9576,1.4120326042175293,XXXXX
100, 8177, 8154, 8165, 8147, 8166, 8162, 8165, 8170, 8174, 8186, 8162, 8174, 8279, 9668,1.4198384284973145,XXXXX
101, 8221, 8182, 8158, 8135, 8170, 8150, 8165, 8172, 8161, 8183, 8126, 8153, 8301, 9685,1.4261078834533691,XXXXX
102, 8056, 8146, 8189, 8221, 8173, 8179, 8170, 8159, 8177, 8185, 8224, 8204, 8265, 9564,1.4338619709014893,XXXXX
103, 8323, 8183, 8132, 8097, 8154, 8152, 8150, 8165, 8164, 8181, 8099, 8148, 8297, 9725,1.4416086673736572,XXXXX
104, 8124, 8151, 8190, 8209, 8166, 8167, 8165, 8164, 8187, 8191, 8220, 8204, 8270, 9585,1.4495298862457275,XXXXX
105, 8164, 8161, 8145, 8118, 8159, 8151, 8165, 8172, 8177, 8187, 8155, 8166, 8274, 9635,1.4575722217559814,XXXXX
106, 8227, 8184, 8139, 8098, 8159, 8147, 8155, 8166, 8154, 8178, 8126, 8161, 8289, 9684,1.4654016494750977,XXXXX
107, 8040, 8144, 8200, 8236, 8171, 8181, 8167, 8163, 8184, 8187, 8260, 8228, 8256, 9547,1.4733991622924805,XXXXX
108, 8269, 8190, 8134, 8096, 8160, 8148, 8158, 8177, 8166, 8183, 8100, 8139, 8292, 9732,1.481126070022583,XXXXX
109, 8113, 8166, 8176, 8192, 8175, 8171, 8170, 8170, 8174, 8186, 8181, 8179, 8273, 9630,1.4891891479492188,XXXXX
110, 8168, 8158, 8158, 8162, 8164, 8164, 8166, 8168, 8179, 8181, 8171, 8176, 8272, 9615,1.4970927238464355,XXXXX
111, 8256, 8178, 8155, 8119, 8153, 8145, 8155, 8165, 8161, 8173, 8133, 8159, 8294, 9666,1.504983901977539,XXXXX
112, 8023, 8142, 8206, 8242, 8172, 8187, 8169, 8165, 8183, 8182, 8257, 8219, 8261, 9543,1.5129060745239258,XXXXX
113, 8282, 8188, 8128, 8100, 8159, 8160, 8155, 8175, 8166, 8178, 8090, 8138, 8299, 9719,1.5207602977752686,XXXXX
114, 8163, 8163, 8172, 8178, 8156, 8166, 8162, 8159, 8173, 8186, 8168, 8184, 8278, 9603,1.528468132019043,XXXXX
115, 8136, 8156, 8162, 8163, 8152, 8163, 8165, 8168, 8175, 8189, 8193, 8196, 8266, 9583,1.5378103256225586,XXXXX
116, 8264, 8192, 8144, 8110, 8157, 8148, 8156, 8173, 8151, 8181, 8115, 8148, 8300, 9714,1.5457208156585693,XXXXX
117, 8042, 8147, 8204, 8241, 8176, 8183, 8173, 8157, 8178, 8191, 8218, 8194, 8266, 9577,1.5537183284759521,XXXXX
118, 8273, 8188, 8121, 8080, 8155, 8151, 8157, 8167, 8164, 8188, 8083, 8143, 8290, 9691,1.5600402355194092,XXXXX
119, 8152, 8168, 8168, 8157, 8160, 8162, 8158, 8163, 8166, 8181, 8198, 8210, 8278, 9587,1.567960262298584,XXXXX
120, 8072, 8143, 8197, 8206, 8167, 8169, 8167, 8162, 8180, 8178, 8241, 8212, 8265, 9581,1.575702428817749,XXXXX
121, 8275, 8191, 8142, 8106, 8159, 8146, 8158, 8171, 8156, 8182, 8086, 8129, 8298, 9763,1.583744764328003,XXXXX
122, 8054, 8152, 8182, 8224, 8167, 8180, 8167, 8170, 8176, 8193, 8209, 8194, 8263, 9580,1.5915446281433105,XXXXX
123, 8261, 8171, 8140, 8107, 8152, 8151, 8153, 8173, 8165, 8179, 8132, 8158, 8283, 9658,1.6012139320373535,XXXXX
124, 8229, 8167, 8169, 8147, 8160, 8160, 8163, 8162, 8166, 8182, 8181, 8190, 8278, 9630,1.609130859375,XXXXX
125, 8086, 8150, 8170, 8182, 8161, 8178, 8172, 8169, 8184, 8191, 8218, 8203, 8265, 9582,1.6154091358184814,XXXXX
126, 8257, 8189, 8131, 8078, 8151, 8145, 8151, 8176, 8161, 8179, 8096, 8142, 8305, 9719,1.6233787536621094,XXXXX
127, 8076, 8152, 8194, 8212, 8171, 8172, 8168, 8167, 8176, 8186, 8239, 8215, 8265, 9574,1.6311280727386475,XXXXX
240, 8263, 8179, 8141, 8125, 8164, 8156, 8161, 8177, 8165, 8185, 8137, 8166, 8282, 9690,1.6387722492218018,XXXXX
0, 8210, 8175, 8179, 8174, 8167, 8161, 8156, 8166, 8164, 8183, 8145, 8173, 8291, 9658,1.6467971801757812,XXXXX
1, 8058, 8150, 8186, 8208, 8168, 8177, 8168, 8164, 8184, 8189, 8208, 8195, 8263, 9551,1.654599666595459,XXXXX
2, 8306, 8201, 8095, 8047, 8151, 8145, 8154, 8171, 8159, 8185, 8066, 8132, 8293, 9712,1.6637260913848877,XXXXX
3, 8098, 8155, 8174, 8200, 8171, 8174, 8163, 8158, 8180, 8186, 8209, 8216, 8267, 9565,1.6713695526123047,XXXXX
4, 8202, 8161, 8159, 8142, 8165, 8159, 8159, 8168, 8174, 8179, 8148, 8179, 8281, 9648,1.6791269779205322,XXXXX
5, 8213, 8175, 8163, 8142, 8164, 8154, 8157, 8168, 8159, 8183, 8132, 8163, 8282, 9675,1.6870472431182861,XXXXX
6, 8057, 8150, 8183, 8224, 8173, 8176, 8166, 8163, 8183, 8190, 8212, 8200, 8256, 9558,1.6934146881103516,XXXXX
7, 8330, 8192, 8115, 8084, 8160, 8147, 8155, 8166, 8164, 8179, 8078, 8135, 8300, 9719,1.7026879787445068,XXXXX
8, 8138, 8151, 8169, 8192, 8173, 8175, 8169, 8158, 8177, 8186, 8203, 8200, 8269, 9597,1.710602045059204,XXXXX
9, 8177, 8168, 8139, 8125, 8160, 8155, 8160, 8175, 8175, 8186, 8141, 8169, 8277, 9651,1.7184746265411377,XXXXX
10, 8228, 8192, 8152, 8116, 8155, 8144, 8152, 8175, 8163, 8181, 8120, 8162, 8295, 9687,1.7259719371795654,XXXXX
11, 8062, 8143, 8192, 8220, 8170, 8179, 8168, 8162, 8184, 8189, 8256, 8231, 8261, 9555,1.733644962310791,XXXXX
12, 8280, 8184, 8118, 8076, 8162, 8148, 8154, 8170, 8155, 8181, 8108, 8153, 8300, 9720,1.7415602207183838,XXXXX
13, 8075, 8161, 8187, 8200, 8173, 8172, 8160, 8168, 8166, 8182, 8197, 8190, 8277, 9601,1.750931739807129,XXXXX
14, 8155, 8159, 8171, 8177, 8165, 8171, 8162, 8172, 8180, 8182, 8174, 8180, 8270, 9615,1.7571384906768799,XXXXX
15, 8316, 8186, 8138, 8115, 8159, 8151, 8161, 8163, 8164, 8180, 8111, 8158, 8290, 9691,1.7648820877075195,XXXXX
16, 8102, 8144, 8174, 8206, 8172, 8180, 8173, 8157, 8180, 8186, 8217, 8207, 8259, 9566,1.7726898193359375,XXXXX
17, 8274, 8178, 8117, 8076, 8159, 8151, 8156, 8170, 8163, 8177, 8089, 8143, 8295, 9715,1.7805149555206299,XXXXX
18, 8090, 8156, 8182, 8197, 8165, 8168, 8165, 8161, 8175, 8179, 8204, 8202, 8273, 9590,1.7899274826049805,XXXXX
19, 8130, 8153, 8170, 8180, 8160, 8169, 8166, 8165, 8180, 8181, 8185, 8181, 8263, 9610,1.7978003025054932,XXXXX
20, 8317, 8190, 8136, 8097, 8160, 8149, 8150, 8175, 8158, 8179, 8074, 8125, 8300, 9740,1.8054883480072021,XXXXX
21, 8064, 8145, 8195, 8232, 8179, 8184, 8169, 8172, 8188, 8192, 8221, 8201, 8271, 9554,1.8131496906280518,XXXXX
22, 8259, 8178, 8135, 8098, 8161, 8156, 8164, 8174, 8172, 8186, 8110, 8149, 8298, 9674,1.8209013938903809,XXXXX
23, 8167, 8165, 8171, 8159, 8161, 8166, 8163, 8159, 8166, 8182, 8177, 8186, 8282, 9627,1.8285984992980957,XXXXX
24, 8130, 8155, 8168, 8171, 8163, 8169, 8161, 8169, 8176, 8183, 8199, 8191, 8265, 9619,1.8366308212280273,XXXXX
25, 8298, 8191, 8140, 8103, 8162, 8144, 8152, 8177, 8157, 8184, 8093, 8137, 8298, 9726,1.844611644744873,XXXXX
26, 8036, 8147, 8211, 8249, 8175, 8179, 8165, 8160, 8181, 8191, 8221, 8198, 8265, 9545,1.8522884845733643,XXXXX
27, 8234, 8180, 8133, 8101, 8154, 8157, 8149, 8167, 8169, 8186, 8099, 8137, 8291, 9687,1.8601768016815186,XXXXX
28, 8222, 8171, 8142, 8124, 8161, 8163, 8154, 8168, 8168, 8191, 8141, 8173, 8282, 9669,1.8681011199951172,XXXXX
29, 8140, 8149, 8164, 8173, 8172, 8173, 8167, 8171, 8180, 8190, 8199, 8202, 8260, 9600,1.875929355621338,XXXXX
30, 8286, 8187, 8140, 8099, 8162, 8151, 8155, 8170, 8156, 8178, 8098, 8145, 8296, 9713,1.8838183879852295,XXXXX
31, 8048, 8149, 8200, 8241, 8174, 8187, 8170, 8158, 8183, 8186, 8225, 8206, 8266, 9558,1.8915555477142334,XXXXX
32, 8240, 8181, 8138, 8112, 8159, 8160, 8158, 8171, 8174, 8185, 8119, 8153, 8292, 9669,1.8995282649993896,XXXXX
33, 8194, 8180, 8168, 8145, 8162, 8160, 8155, 8166, 8163, 8189, 8166, 8187, 8293, 9638,1.9071543216705322,XXXXX
34, 8054, 8148, 8197, 8220, 8174, 8181, 8170, 8163, 8179, 8193, 8235, 8223, 8267, 9561,1.915266990661621,XXXXX
35, 8297, 8193, 8138, 8091, 8162, 8150, 8159, 8174, 8158, 8183, 8080, 8138, 8302, 9724,1.9231503009796143,XXXXX
36, 8086, 8153, 8192, 8206, 8168, 8176, 8168, 8169, 8182, 8188, 8210, 8196, 8263, 9567,1.9314100742340088,XXXXX
37, 8203, 8165, 8141, 8117, 8157, 8158, 8159, 8174, 8175, 8185, 8146, 8163, 8277, 9650,1.9393589496612549,XXXXX
38, 8194, 8173, 8167, 8147, 8161, 8155, 8159, 8168, 8158, 8182, 8155, 8176, 8292, 9658,1.9456191062927246,XXXXX
39, 8023, 8143, 8209, 8237, 8168, 8179, 8169, 8168, 8180, 8186, 8236, 8209, 8264, 9557,1.9550738334655762,XXXXX
40, 8296, 8194, 8131, 8083, 8153, 8149, 8149, 8176, 8165, 8177, 8069, 8118, 8302, 9743,1.9632494449615479,XXXXX
41, 8123, 8158, 8180, 8196, 8166, 8175, 8161, 8162, 8180, 8184, 8191, 8187, 8272, 9593,1.9695699214935303,XXXXX
42, 8191, 8158, 8155, 8153, 8160, 8165, 8162, 8163, 8175, 8183, 8170, 8184, 8274, 9622,1.977687120437622,XXXXX
43, 8245, 8176, 8161, 8144, 8160, 8158, 8159, 8160, 8164, 8177, 8153, 8176, 8290, 9687,1.9855740070343018,XXXXX
44, 8066, 8143, 8187, 8211, 8169, 8178, 8167, 8166, 8180, 8185, 8236, 8212, 8257, 9582,1.993586540222168,XXXXX
45, 8286, 8185, 8120, 8066, 8155, 8141, 8149, 8179, 8154, 8181, 8089, 8140, 8288, 9728,2.002784252166748,XXXXX
46, 8082, 8157, 8197, 8211, 8169, 8172, 8162, 8165, 8172, 8186, 8216, 8206, 8266, 9601,2.010316848754883,XXXXX
47, 8144, 8162, 8179, 8180, 8166, 8173, 8164, 8170, 8179, 8188, 8174, 8177, 8274, 9658,2.0164568424224854,XXXXX
48, 8295, 8189, 8152, 8120, 8163, 8158, 8156, 8170, 8161, 8184, 8085, 8136, 8299, 9746,2.024487257003784,XXXXX
49, 8105, 8149, 8186, 8216, 8174, 8187, 8167, 8161, 8179, 8189, 8199, 8196, 8261, 9586,2.0338404178619385,XXXXX
50, 8315, 8190, 8121, 8082, 8155, 8152, 8150, 8167, 8154, 8180, 8084, 8139, 8293, 9712,2.041759729385376,XXXXX
51, 8123, 8165, 8184, 8191, 8165, 8166, 8160, 8155, 8170, 8184, 8195, 8199, 8275, 9585,2.0497257709503174,XXXXX
52, 8104, 8159, 8167, 8160, 8163, 8167, 8164, 8162, 8184, 8187, 8185, 8194, 8274, 9595,2.0576655864715576,XXXXX
53, 8267, 8188, 8129, 8080, 8154, 8145, 8149, 8171, 8160, 8179, 8104, 8161, 8297, 9710,2.0654454231262207,XXXXX
54, 8055, 8143, 8189, 8219, 8171, 8174, 8162, 8164, 8181, 8182, 8245, 8232, 8254, 9552,2.07330060005188,XXXXX
55, 8260, 8184, 8142, 8109, 8160, 8151, 8158, 8168, 8162, 8183, 8126, 8163, 8290, 9709,2.079442024230957,XXXXX
56, 8160, 8171, 8184, 8197, 8168, 8172, 8167, 8166, 8163, 8194, 8192, 8190, 8284, 9667,2.0889227390289307,XXXXX
57, 8147, 8156, 8170, 8189, 8169, 8173, 8165, 8173, 8179, 8190, 8178, 8180, 8272, 9640,2.09659481048584,XXXXX
58, 8301, 8192, 8136, 8094, 8159, 8145, 8149, 8171, 8161, 8182, 8071, 8130, 8298, 9714,2.1044960021972656,XXXXX
59, 8052, 8144, 8204, 8237, 8168, 8181, 8170, 8162, 8183, 8196, 8229, 8208, 8260, 9540,2.112412691116333,XXXXX
60, 8250, 8175, 8141, 8104, 8156, 8154, 8165, 8172, 8173, 8189, 8114, 8157, 8292, 9684,2.1203160285949707,XXXXX
61, 8158, 8172, 8168, 8147, 8171, 8160, 8163, 8161, 8170, 8185, 8155, 8181, 8287, 9635,2.1281871795654297,XXXXX
62, 8094, 8150, 8172, 8188, 8174, 8175, 8166, 8163, 8182, 8192, 8202, 8195, 8269, 9586,2.1359541416168213,XXXXX
63, 8345, 8187, 8127, 8088, 8156, 8148, 8160, 8169, 8160, 8190, 8087, 8144, 8303, 9731,2.143636703491211,XXXXX
64, 8100, 8146, 8193, 8211, 8167, 8177, 8175, 8159, 8182, 8192, 8220, 8210, 8264, 9567,2.151346445083618,XXXXX
65, 8218, 8179, 8135, 8099, 8158, 8155, 8155, 8172, 8172, 8183, 8127, 8158, 8284, 9678,2.1585373878479004,XXXXX
66, 8191, 8182, 8154, 8137, 8163, 8158, 8156, 8167, 8165, 8184, 8165, 8186, 8281, 9657,2.167815923690796,XXXXX
67, 8091, 8148, 8182, 8192, 8164, 8171, 8170, 8160, 8181, 8188, 8231, 8214, 8256, 9572,2.175823926925659,XXXXX
68, 8299, 8187, 8147, 8091, 8155, 8140, 8156, 8171, 8158, 8177, 8097, 8140, 8299, 9742,2.183614730834961,XXXXX
69, 8086, 8149, 8214, 8241, 8176, 8179, 8168, 8167, 8181, 8184, 8223, 8204, 8272, 9615,2.1912593841552734,XXXXX
70, 8244, 8168, 8151, 8133, 8165, 8165, 8155, 8171, 8172, 8184, 8122, 8154, 8283, 9687,2.1984875202178955,XXXXX
71, 8240, 8177, 8154, 8127, 8158, 8158, 8151, 8163, 8158, 8182, 8115, 8154, 8282, 9654,2.207690477371216,XXXXX
72, 8067, 8141, 8192, 8219, 8166, 8177, 8174, 8161, 8184, 8187, 8234, 8207, 8253, 9536,2.214003562927246,XXXXX
73, 8302, 8185, 8135, 8104, 8160, 8148, 8159, 8171, 8169, 8180, 8115, 8149, 8296, 9725,2.2216031551361084,XXXXX
74, 8111, 8156, 8192, 8223, 8172, 8175, 8157, 8164, 8179, 8187, 8213, 8208, 8272, 9614,2.2294375896453857,XXXXX
75, 8228, 8168, 8158, 8149, 8162, 8165, 8158, 8172, 8171, 8186, 8138, 8161, 8278, 9668,2.238818883895874,XXXXX
76, 8278, 8178, 8153, 8135, 8167, 8162, 8162, 8166, 8165, 8185, 8116, 8141, 8289, 9678,2.246861219406128,XXXXX
77, 8072, 8146, 8173, 8208, 8170, 8182, 8168, 8159, 8189, 8190, 8219, 8202, 8262, 9546,2.254652976989746,XXXXX
78, 8277, 8197, 8116, 8062, 8150, 8141, 8151, 8168, 8159, 8187, 8088, 8158, 8303, 9704,2.2624764442443848,XXXXX
79, 8104, 8157, 8198, 8206, 8175, 8172, 8165, 8160, 8171, 8194, 8211, 8211, 8276, 9583,2.2703254222869873,XXXXX
80, 8193, 8155, 8164, 8166, 8170, 8173, 8165, 8163, 8178, 8190, 8156, 8167, 8273, 9629,2.276745319366455,XXXXX
81, 8266, 8188, 8133, 8109, 8155, 8150, 8158, 8163, 8162, 8185, 8103, 8149, 8292, 9684,2.2847397327423096,XXXXX
82, 8044, 8148, 8183, 8218, 8168, 8167, 8172, 8164, 8186, 8190, 8243, 8219, 8261, 9539,2.2925832271575928,XXXXX
83, 8302, 8182, 8134, 8090, 8156, 8140, 8155, 8174, 8166, 8177, 8102, 8142, 8297, 9711,2.3005526065826416,XXXXX
84, 8151, 8156, 8189, 8198, 8165, 8172, 8166, 8160, 8173, 8179, 8187, 8189, 8276, 9608,2.3085200786590576,XXXXX
85, 8136, 8161, 8157, 8163, 8162, 8169, 8166, 8167, 8179, 8186, 8175, 8189, 8275, 9604,2.3165388107299805,XXXXX
86, 8245, 8191, 8134, 8092, 8157, 8140, 8153, 8167, 8160, 8182, 8114, 8161, 8299, 9681,2.3245160579681396,XXXXX
87, 8023, 8141, 8209, 8233, 8174, 8173, 8167, 8160, 8179, 8187, 8249, 8218, 8256, 9546,2.333916425704956,XXXXX
88, 8292, 8176, 8148, 8115, 8164, 8156, 8152, 8171, 8160, 8178, 8100, 8140, 8290, 9738,2.340261459350586,XXXXX
89, 8194, 8164, 8178, 8191, 8172, 8175, 8161, 8160, 8170, 8183, 8162, 8177, 8283, 9657,2.3481838703155518,XXXXX
90, 8125, 8161, 8161, 8175, 8166, 8176, 8172, 8166, 8181, 8189, 8173, 8177, 8272, 9608,2.356135129928589,XXXXX
91, 8309, 8197, 8116, 8084, 8152, 8149, 8160, 8172, 8161, 8186, 8073, 8129, 8300, 9719,2.3639907836914062,XXXXX
92, 8103, 8146, 8174, 8210, 8166, 8179, 8170, 8154, 8185, 8191, 8213, 8211, 8260, 9551,2.3719117641448975,XXXXX
93, 8260, 8176, 8129, 8088, 8157, 8149, 8158, 8163, 8168, 8180, 8117, 8167, 8285, 9677,2.379591941833496,XXXXX
94, 8159, 8170, 8177, 8166, 8163, 8157, 8160, 8165, 8168, 8181, 8187, 8194, 8278, 9637,2.3875927925109863,XXXXX
95, 8105, 8157, 8169, 8187, 8163, 8169, 8167, 8169, 8185, 8188, 8209, 8192, 8262, 9598,2.395442008972168,XXXXX
96, 8280, 8196, 8125, 8085, 8160, 8147, 8156, 8173, 8159, 8180, 8096, 8140, 8299, 9722,2.4034054279327393,XXXXX
97, 8020, 8146, 8215, 8251, 8178, 8182, 8170, 8166, 8178, 8185, 8260, 8224, 8269, 9558,2.4109842777252197,XXXXX
98, 8235, 8173, 8165, 8143, 8163, 8158, 8160, 8174, 8168, 8183, 8136, 8154, 8289, 9704,2.4188621044158936,XXXXX
99, 8244, 8175, 8167, 8154, 8169, 8165, 8161, 8164, 8162, 8182, 8120, 8149, 8284, 9707,2.426722288131714,XXXXX
100, 8140, 8147, 8172, 8188, 8174, 8182, 8170, 8159, 8183, 8188, 8181, 8184, 8262, 9610,2.434600830078125,XXXXX
101, 8332, 8189, 8124, 8076, 8155, 8144, 8153, 8161, 8165, 8185, 8085, 8143, 8297, 9708,2.44283127784729,XXXXX
102, 8054, 8148, 8197, 8221, 8167, 8172, 8163, 8158, 8185, 8192, 8230, 8215, 8261, 9536,2.450745105743408,XXXXX
103, 8175, 8170, 8147, 8125, 8156, 8158, 8157, 8175, 8176, 8187, 8135, 8167, 8277, 9658,2.4585366249084473,XXXXX
104, 8215, 8186, 8150, 8131, 8160, 8156, 8159, 8169, 8167, 8187, 8140, 8180, 8285, 9672,2.4664483070373535,XXXXX
105, 8092, 8152, 8186, 8208, 8171, 8173, 8173, 8163, 8181, 8189, 8235, 8214, 8261, 9561,2.474123239517212,XXXXX
106, 8287, 8188, 8144, 8100, 8158, 8145, 8158, 8177, 8151, 8180, 8105, 8136, 8299, 9731,2.4819979667663574,XXXXX
107, 8073, 8155, 8199, 8232, 8173, 8179, 8169, 8173, 8170, 8189, 8216, 8199, 8267, 9614,2.48982572555542,XXXXX
108, 8228, 8170, 8144, 8133, 8164, 8163, 8165, 8171, 8171, 8188, 8135, 8166, 8279, 9664,2.4976658821105957,XXXXX
109, 8258, 8177, 8158, 8121, 8159, 8149, 8161, 8161, 8162, 8183, 8139, 8166, 8292, 9649,2.50545597076416,XXXXX
110, 8022, 8142, 8203, 8227, 8168, 8174, 8172, 8162, 8180, 8186, 8265, 8223, 8257, 9530,2.514892101287842,XXXXX
111, 8244, 8195, 8126, 8077, 8158, 8143, 8158, 8169, 8156, 8180, 8105, 8151, 8293, 9720,2.522627592086792,XXXXX
112, 8075, 8160, 8181, 8191, 8170, 8166, 8169, 8157, 8177, 8187, 8197, 8199, 8264, 9587,2.530461549758911,XXXXX
113, 8175, 8156, 8163, 8163, 8163, 8159, 8163, 8171, 8180, 8185, 8164, 8173, 8270, 9619,2.5381295680999756,XXXXX
114, 8301, 8180, 8148, 8120, 8161, 8149, 8156, 8170, 8158, 8182, 8121, 8157, 8298, 9698,2.545948028564453,XXXXX
115, 8102, 8142, 8173, 8189, 8167, 8175, 8173, 8160, 8180, 8192, 8216, 8212, 8262, 9576,2.5536346435546875,XXXXX
116, 8288, 8181, 8116, 8062, 8152, 8144, 8156, 8170, 8165, 8181, 8089, 8149, 8289, 9705,2.561403512954712,XXXXX
117, 8096, 8154, 8201, 8213, 8172, 8171, 8163, 8162, 8174, 8184, 8229, 8208, 8270, 9571,2.5691118240356445,XXXXX
118, 8153, 8160, 8181, 8176, 8173, 8168, 8165, 8170, 8177, 8189, 8195, 8182, 8271, 9611,2.5768961906433105,XXXXX
119, 8301, 8197, 8138, 8089, 8166, 8148, 8159, 8169, 8163, 8187, 8082, 8134, 8296, 9716,2.5846567153930664,XXXXX
120, 8046, 8144, 8189, 8218, 8171, 8172, 8173, 8157, 8192, 8188, 8221, 8203, 8260, 9542,2.5925095081329346,XXXXX
121, 8259, 8176, 8133, 8095, 8148, 8135, 8156, 8165, 8172, 8177, 8123, 8156, 8291, 9677,2.6001760959625244,XXXXX
122, 8156, 8170, 8180, 8176, 8158, 8159, 8162, 8161, 8173, 8188, 8206, 8208, 8275, 9601,2.6078648567199707,XXXXX
123, 8115, 8163, 8176, 8175, 8161, 8171, 8167, 8170, 8179, 8191, 8202, 8200, 8263, 9609,2.6156375408172607,XXXXX
124, 8255, 8183, 8153, 8110, 8161, 8143, 8154, 8174, 8154, 8172, 8106, 8149, 8293, 9752,2.6235604286193848,XXXXX
125, 8074, 8141, 8208, 8239, 8181, 8176, 8169, 8165, 8173, 8177, 8230, 8212, 8262, 9604,2.6315371990203857,XXXXX
126, 8303, 8184, 8134, 8102, 8158, 8155, 8161, 8174, 8163, 8184, 8100, 8143, 8295, 9702,2.640558958053589,XXXXX
127, 8166, 8167, 8174, 8172, 8153, 8164, 8164, 8165, 8173, 8184, 8172, 8180, 8279, 9612,2.6484975814819336,XXXXX
240, 8086, 8148, 8183, 8195, 8158, 8173, 8167, 8165, 8182, 8178, 8212, 8197, 8258, 9585,2.656447172164917,XXXXX
0, 8307, 8191, 8136, 8090, 8155, 8153, 8156, 8171, 8153, 8175, 8095, 8137, 8297, 9720,2.664315700531006,XXXXX
1, 8092, 8145, 8197, 8219, 8168, 8182, 8170, 8163, 8180, 8184, 8232, 8211, 8263, 9550,2.6705894470214844,XXXXX
2, 8245, 8178, 8140, 8102, 8156, 8150, 8157, 8171, 8172, 8177, 8126, 8165, 8285, 9671,2.6801412105560303,XXXXX
3, 8162, 8179, 8168, 8161, 8166, 8164, 8156, 8164, 8161, 8179, 8159, 8179, 8284, 9643,2.6866917610168457,XXXXX
4, 8088, 8149, 8181, 8205, 8171, 8184, 8167, 8160, 8176, 8187, 8198, 8189, 8263, 9580,2.695497751235962,XXXXX
5, 8337, 8188, 8127, 8068, 8154, 8145, 8157, 8161, 8162, 8182, 8078, 8137, 8296, 9708,2.7033755779266357,XXXXX
6, 8053, 8143, 8206, 8219, 8169, 8176, 8171, 8157, 8183, 8184, 8251, 8228, 8260, 9519,2.7111456394195557,XXXXX
7, 8166, 8166, 8171, 8148, 8163, 8157, 8159, 8172, 8170, 8178, 8160, 8175, 8281, 9656,2.7192535400390625,XXXXX
8, 8235, 8182, 8170, 8158, 8169, 8151, 8158, 8169, 8163, 8184, 8125, 8150, 8286, 9731,2.727158308029175,XXXXX
9, 8139, 8150, 8176, 8207, 8169, 8171, 8174, 8164, 8185, 8193, 8190, 8181, 8257, 9620,2.733555793762207,XXXXX
10, 8323, 8184, 8129, 8088, 8150, 8141, 8157, 8166, 8159, 8181, 8082, 8139, 8295, 9704,2.7430121898651123,XXXXX
11, 8045, 8153, 8204, 8228, 8168, 8169, 8166, 8158, 8177, 8184, 8229, 8216, 8267, 9533,2.7494802474975586,XXXXX
12, 8139, 8173, 8157, 8141, 8158, 8159, 8161, 8170, 8179, 8185, 8158, 8179, 8280, 9640,2.7590420246124268,XXXXX
13, 8222, 8180, 8154, 8126, 8155, 8158, 8155, 8166, 8163, 8181, 8133, 8168, 8291, 9702,2.7665021419525146,XXXXX
14, 8075, 8142, 8188, 8213, 8172, 8178, 8169, 8160, 8178, 8185, 8228, 8205, 8257, 9576,2.774554491043091,XXXXX
15, 8304, 8185, 8136, 8093, 8161, 8147, 8159, 8168, 8159, 8179, 8101, 8138, 8292, 9727,2.7822213172912598,XXXXX
16, 8127, 8155, 8197, 8223, 8166, 8180, 8169, 8157, 8178, 8184, 8205, 8194, 8271, 9624,2.7900595664978027,XXXXX
17, 8220, 8172, 8143, 8146, 8164, 8172, 8159, 8164, 8177, 8180, 8119, 8147, 8278, 9679,2.7976157665252686,XXXXX
18, 8269, 8189, 8133, 8104, 8165, 8155, 8152, 8166, 8161, 8178, 8094, 8143, 8286, 9678,2.8055450916290283,XXXXX
19, 8021, 8136, 8200, 8228, 8165, 8179, 8167, 8161, 8185, 8189, 8264, 8232, 8253, 9512,2.813678503036499,XXXXX
20, 8251, 8180, 8139, 8099, 8148, 8150, 8149, 8169, 8163, 8182, 8121, 8157, 8296, 9716,2.8214919567108154,XXXXX
21, 8118, 8163, 8180, 8193, 8166, 8173, 8160, 8162, 8170, 8183, 8190, 8193, 8271, 9637,2.8293557167053223,XXXXX
22, 8182, 8163, 8157, 8155, 8163, 8164, 8162, 8170, 8174, 8180, 8173, 8180, 8270, 9647,2.8372726440429688,XXXXX
23, 8285, 8187, 8147, 8116, 8163, 8149, 8154, 8172, 8156, 8178, 8115, 8149, 8299, 9713,2.8453562259674072,XXXXX
24, 8025, 8141, 8201, 8241, 8177, 8184, 8172, 8166, 8186, 8191, 8225, 8199, 8262, 9565,2.853282928466797,XXXXX
25, 8272, 8182, 8132, 8094, 8157, 8149, 8157, 8176, 8172, 8181, 8074, 8127, 8291, 9724,2.8614039421081543,XXXXX
26, 8187, 8168, 8164, 8171, 8168, 8163, 8162, 8162, 8172, 8181, 8164, 8178, 8274, 9626,2.867558479309082,XXXXX
27, 8156, 8157, 8149, 8152, 8165, 8168, 8167, 8158, 8179, 8183, 8189, 8187, 8262, 9596,2.8755998611450195,XXXXX
28, 8266, 8184, 8142, 8092, 8152, 8149, 8159, 8161, 8165, 8176, 8125, 8156, 8290, 9701,2.883678913116455,XXXXX
29, 8051, 8144, 8202, 8233, 8168, 8178, 8171, 8164, 8186, 8181, 8251, 8220, 8258, 9568,2.893139362335205,XXXXX
30, 8287, 8188, 8120, 8090, 8159, 8147, 8153, 8178, 8160, 8177, 8104, 8148, 8288, 9711,2.9005355834960938,XXXXX
31, 8159, 8171, 8175, 8174, 8169, 8164, 8159, 8164, 8164, 8178, 8182, 8184, 8277, 9610,2.9082305431365967,XXXXX
32, 8085, 8142, 8190, 8207, 8170, 8178, 8168, 8162, 8184, 8177, 8208, 8190, 8265, 9569,2.9159107208251953,XXXXX
33, 8299, 8181, 8125, 8090, 8155, 8146, 8153, 8166, 8160, 8176, 8076, 8132, 8297, 9726,2.923866033554077,XXXXX
34, 8079, 8149, 8173, 8198, 8166, 8173, 8160, 8157, 8179, 8189, 8222, 8211, 8258, 9567,2.9314045906066895,XXXXX
35, 8244, 8180, 8127, 8089, 8157, 8148, 8148, 8167, 8164, 8178, 8126, 8165, 8287, 9671,2.9391796588897705,XXXXX
36, 8145, 8167, 8180, 8178, 8166, 8155, 8154, 8161, 8163, 8178, 8173, 8186, 8285, 9629,2.946931838989258,XXXXX
37, 8045, 8146, 8205, 8239, 8169, 8180, 8164, 8166, 8183, 8187, 8216, 8194, 8262, 9590,2.9549131393432617,XXXXX
38, 8310, 8200, 8130, 8103, 8160, 8159, 8152, 8173, 8163, 8180, 8063, 8122, 8301, 9763,2.962749481201172,XXXXX
39, 8107, 8155, 8169, 8210, 8177, 8181, 8168, 8160, 8185, 8186, 8191, 8188, 8263, 9594,2.9708526134490967,XXXXX
40, 8239, 8170, 8130, 8107, 8158, 8152, 8162, 8169, 8181, 8181, 8126, 8156, 8276, 9666,2.9787633419036865,XXXXX
41, 8219, 8176, 8160, 8142, 8156, 8154, 8162, 8165, 8172, 8178, 8151, 8187, 8285, 9662,2.9867191314697266,XXXXX
42, 8086, 8151, 8168, 8198, 8166, 8173, 8162, 8161, 8184, 8187, 8207, 8213, 8259, 9577,2.9945383071899414,XXXXX
43, 8266, 8193, 8109, 8059, 8154, 8140, 8144, 8171, 8159, 8181, 8091, 8144, 8291, 9694,3.0018346309661865,test
44, 8040, 8151, 8194, 8217, 8167, 8173, 8165, 8170, 8177, 8176, 8243, 8219, 8264, 9542,3.0096397399902344,test
45, 8211, 8163, 8160, 8160, 8164, 8161, 8163, 8178, 8170, 8172, 8142, 8164, 8283, 9657,3.017510414123535,test
46, 8242, 8174, 8150, 8133, 8169, 8155, 8156, 8169, 8166, 8182, 8112, 8153, 8291, 9665,3.027008056640625,test
47, 8057, 8143, 8179, 8199, 8170, 8174, 8167, 8164, 8188, 8191, 8241, 8222, 8261, 9530,3.0335733890533447,test
48, 8294, 8187, 8143, 8098, 8153, 8138, 8150, 8172, 8161, 8178, 8119, 8157, 8301, 9712,3.042861223220825,test
49, 8099, 8151, 8209, 8238, 8172, 8171, 8160, 8164, 8175, 8180, 8204, 8190, 8267, 9598,3.050312042236328,test
50, 8182, 8164, 8142, 8138, 8165, 8163, 8161, 8170, 8180, 8182, 8134, 8161, 8268, 9628,3.0581228733062744,test
51, 8239, 8186, 8126, 8093, 8157, 8145, 8158, 8164, 8165, 8182, 8125, 8165, 8290, 9650,3.066138505935669,test
52, 8049, 8143, 8197, 8223, 8168, 8173, 8169, 8163, 8181, 8186, 8251, 8215, 8263, 9540,3.0725269317626953,test
53, 8308, 8185, 8136, 8100, 8160, 8150, 8156, 8172, 8158, 8177, 8088, 8135, 8294, 9725,3.081974506378174,test
54, 8122, 8161, 8169, 8195, 8172, 8174, 8165, 8153, 8176, 8183, 8183, 8193, 8267, 9588,3.089832067489624,test
55, 8123, 8157, 8146, 8139, 8159, 8161, 8159, 8157, 8184, 8182, 8178, 8185, 8272, 9597,3.0978801250457764,test
56, 8239, 8180, 8142, 8096, 8152, 8145, 8150, 8169, 8159, 8174, 8133, 8167, 8299, 9698,3.1057958602905273,test
57, 8060, 8146, 8193, 8236, 8170, 8182, 8165, 8167, 8177, 8184, 8243, 8219, 8261, 9575,3.1138155460357666,test
58, 8291, 8191, 8131, 8101, 8162, 8152, 8153, 8168, 8161, 8184, 8079, 8126, 8295, 9719,3.121518135070801,test
59, 8136, 8160, 8175, 8173, 8172, 8170, 8164, 8158, 8170, 8188, 8164, 8175, 8279, 9594,3.1275229454040527,test
60, 8129, 8149, 8150, 8148, 8166, 8170, 8160, 8167, 8177, 8185, 8184, 8197, 8272, 9582,3.1354620456695557,test
61, 8262, 8188, 8137, 8102, 8156, 8143, 8143, 8171, 8154, 8181, 8121, 8170, 8299, 9696,3.145033359527588,test
62, 8001, 8142, 8221, 8253, 8174, 8175, 8164, 8162, 8180, 8187, 8254, 8229, 8262, 9541,3.152993679046631,test
63, 8233, 8178, 8152, 8115, 8163, 8154, 8157, 8178, 8168, 8178, 8110, 8147, 8289, 9710,3.159597396850586,test
64, 8185, 8174, 8178, 8178, 8171, 8168, 8161, 8177, 8169, 8183, 8157, 8167, 8278, 9673,3.168972969055176,test
65, 8147, 8159, 8177, 8185, 8172, 8171, 8168, 8168, 8182, 8182, 8176, 8173, 8268, 9624,3.1767818927764893,test
66, 8326, 8191, 8140, 8096, 8163, 8143, 8152, 8162, 8164, 8172, 8089, 8132, 8302, 9728,3.1844539642333984,test
67, 8083, 8147, 8193, 8225, 8168, 8175, 8168, 8163, 8184, 8188, 8226, 8202, 8262, 9567,3.192251443862915,test
68, 8256, 8179, 8114, 8078, 8147, 8149, 8161, 8171, 8167, 8186, 8094, 8142, 8287, 9688,3.2000250816345215,test
69, 8193, 8170, 8144, 8122, 8159, 8156, 8160, 8151, 8167, 8180, 8157, 8178, 8288, 9633,3.20780873298645,test
70, 8084, 8145, 8175, 8186, 8168, 8168, 8168, 8160, 8182, 8181, 8240, 8212, 8269, 9565,3.215489625930786,test
71, 8267, 8186, 8135, 8092, 8153, 8139, 8157, 8178, 8158, 8179, 8109, 8152, 8301, 9728,3.2232515811920166,test
72, 8064, 8148, 8192, 8219, 8167, 8175, 8165, 8164, 8181, 8185, 8223, 8209, 8266, 9590,3.230912446975708,test
73, 8264, 8173, 8149, 8121, 8165, 8158, 8154, 8169, 8165, 8178, 8140, 8157, 8287, 9687,3.2387096881866455,test
74, 8230, 8172, 8179, 8165, 8165, 8158, 8165, 8167, 8154, 8182, 8164, 8171, 8288, 9664,3.246457099914551,test
75, 8074, 8149, 8185, 8216, 8161, 8177, 8174, 8166, 8181, 8189, 8207, 8193, 8266, 9588,3.2558560371398926,test
76, 8311, 8199, 8114, 8075, 8158, 8152, 8152, 8173, 8165, 8179, 8059, 8119, 8304, 9748,3.2621712684631348,test
77, 8134, 8151, 8170, 8198, 8175, 8181, 8167, 8168, 8178, 8188, 8197, 8193, 8268, 9598,3.2699875831604004,test
78, 8233, 8160, 8137, 8122, 8154, 8156, 8158, 8172, 8167, 8183, 8144, 8172, 8277, 9648,3.2776732444763184,test
79, 8178, 8175, 8172, 8153, 8160, 8150, 8151, 8160, 8160, 8176, 8157, 8178, 8286, 9636,3.2854466438293457,test
80, 8043, 8149, 8195, 8223, 8178, 8179, 8167, 8157, 8183, 8187, 8221, 8201, 8260, 9565,3.294869899749756,test
81, 8318, 8194, 8111, 8064, 8157, 8148, 8154, 8168, 8162, 8181, 8071, 8137, 8299, 9718,3.3024280071258545,test
82, 8083, 8155, 8195, 8209, 8166, 8174, 8162, 8162, 8174, 8181, 8233, 8222, 8270, 9544,3.310311794281006,test
83, 8163, 8167, 8176, 8166, 8169, 8163, 8162, 8172, 8170, 8181, 8175, 8171, 8278, 9647,3.318190813064575,test
84, 8256, 8188, 8145, 8129, 8171, 8157, 8160, 8167, 8162, 8184, 8104, 8140, 8297, 9714,3.3261876106262207,test
85, 8075, 8145, 8171, 8203, 8172, 8186, 8170, 8161, 8185, 8187, 8218, 8209, 8262, 9539,3.3334238529205322,test
86, 8278, 8182, 8129, 8077, 8155, 8146, 8154, 8177, 8159, 8180, 8111, 8152, 8290, 9688,3.341172933578491,test
87, 8084, 8157, 8202, 8214, 8175, 8166, 8163, 8166, 8172, 8188, 8221, 8200, 8264, 9600,3.3489267826080322,test
88, 8169, 8164, 8168, 8166, 8172, 8168, 8163, 8167, 8181, 8186, 8160, 8169, 8272, 9642,3.357056140899658,test
89, 8307, 8189, 8138, 8093, 8158, 8154, 8158, 8168, 8165, 8181, 8089, 8142, 8298, 9698,3.364867925643921,test
90, 8070, 8145, 8190, 8207, 8167, 8178, 8169, 8158, 8181, 8189, 8231, 8212, 8259, 9533,3.372776746749878,test
91, 8264, 8186, 8142, 8100, 8160, 8147, 8150, 8166, 8156, 8183, 8120, 8157, 8292, 9699,3.380563735961914,test
92, 8133, 8165, 8186, 8200, 8168, 8170, 8156, 8167, 8166, 8183, 8205, 8201, 8278, 9634,3.388727903366089,test
93, 8165, 8159, 8153, 8159, 8162, 8166, 8158, 8168, 8178, 8177, 8178, 8180, 8276, 9631,3.395749092102051,test
94, 8312, 8188, 8135, 8093, 8164, 8143, 8153, 8162, 8156, 8176, 8105, 8145, 8296, 9693,3.403566360473633,test
95, 8071, 8139, 8202, 8230, 8179, 8175, 8168, 8163, 8178, 8190, 8247, 8217, 8254, 9536,3.4129159450531006,test
96, 8245, 8177, 8127, 8095, 8156, 8147, 8153, 8176, 8165, 8184, 8112, 8151, 8291, 9695,3.420713186264038,test
97, 8116, 8163, 8166, 8181, 8166, 8165, 8163, 8161, 8168, 8183, 8186, 8191, 8281, 9621,3.428422212600708,test
98, 8115, 8146, 8169, 8184, 8171, 8173, 8169, 8167, 8176, 8187, 8199, 8191, 8265, 9594,3.435927152633667,test
99, 8306, 8187, 8135, 8085, 8158, 8145, 8151, 8171, 8157, 8182, 8092, 8137, 8297, 9703,3.443781852722168,test
100, 8046, 8146, 8197, 8229, 8169, 8171, 8165, 8157, 8180, 8187, 8240, 8213, 8262, 9538,3.4516615867614746,test
101, 8246, 8173, 8133, 8104, 8160, 8141, 8158, 8169, 8164, 8180, 8116, 8152, 8291, 9691,3.4596493244171143,test
102, 8192, 8169, 8164, 8158, 8165, 8153, 8158, 8165, 8167, 8182, 8149, 8175, 8288, 9637,3.46743106842041,test
103, 8098, 8156, 8173, 8196, 8164, 8173, 8165, 8164, 8187, 8185, 8204, 8199, 8262, 9559,3.475126266479492,test
104, 8312, 8193, 8127, 8082, 8156, 8150, 8156, 8168, 8161, 8179, 8090, 8137, 8291, 9731,3.4830713272094727,test
105, 8108, 8153, 8183, 8204, 8173, 8174, 8170, 8159, 8180, 8186, 8216, 8197, 8261, 9587,3.490981101989746,test
106, 8248, 8186, 8126, 8099, 8156, 8150, 8155, 8168, 8172, 8180, 8133, 8161, 8285, 9660,3.498720169067383,test
107, 8182, 8177, 8169, 8160, 8158, 8161, 8157, 8166, 8170, 8183, 8181, 8196, 8282, 9639,3.5065362453460693,test
108, 8059, 8140, 8203, 8232, 8171, 8177, 8173, 8169, 8183, 8189, 8238, 8211, 8259, 9593,3.5144753456115723,test
109, 8289, 8189, 8137, 8107, 8163, 8143, 8158, 8173, 8155, 8179, 8092, 8128, 8301, 9754,3.5238099098205566,test
110, 8086, 8153, 8185, 8221, 8170, 8181, 8166, 8160, 8179, 8186, 8212, 8194, 8270, 9589,3.5302212238311768,test
111, 8237, 8166, 8141, 8119, 8154, 8163, 8156, 8165, 8173, 8183, 8127, 8162, 8280, 9658,3.5381808280944824,test
112, 8215, 8169, 8168, 8141, 8158, 8154, 8157, 8162, 8158, 8180, 8158, 8184, 8283, 9638,3.54601788520813,test
113, 8019, 8137, 8204, 8229, 8167, 8181, 8170, 8164, 8181, 8188, 8260, 8225, 8256, 9538,3.55405592918396,test
114, 8278, 8190, 8133, 8091, 8154, 8148, 8153, 8175, 8165, 8181, 8089, 8134, 8299, 9754,3.5616371631622314,test
115, 8115, 8158, 8188, 8210, 8172, 8172, 8164, 8167, 8179, 8183, 8197, 8186, 8270, 9643,3.5710511207580566,test
116, 8222, 8167, 8150, 8140, 8169, 8163, 8161, 8177, 8174, 8182, 8143, 8157, 8274, 9671,3.5789499282836914,test
117, 8250, 8181, 8155, 8138, 8166, 8155, 8156, 8169, 8162, 8184, 8119, 8153, 8287, 9659,3.5869054794311523,test
118, 8024, 8141, 8197, 8235, 8169, 8179, 8169, 8157, 8186, 8191, 8231, 8209, 8257, 9534,3.5938949584960938,test
119, 8274, 8183, 8120, 8067, 8147, 8145, 8155, 8169, 8164, 8181, 8096, 8148, 8295, 9723,3.6017024517059326,test
120, 8114, 8157, 8173, 8173, 8161, 8168, 8161, 8168, 8175, 8182, 8214, 8213, 8267, 9591,3.6097326278686523,test
121, 8146, 8167, 8165, 8154, 8164, 8162, 8161, 8177, 8178, 8181, 8186, 8187, 8268, 9624,3.6177167892456055,test
122, 8236, 8187, 8161, 8132, 8161, 8150, 8160, 8173, 8160, 8183, 8135, 8155, 8294, 9722,3.6255791187286377,test
123, 8064, 8145, 8196, 8228, 8168, 8182, 8169, 8168, 8177, 8190, 8237, 8209, 8258, 9594,3.633575916290283,test
124, 8312, 8188, 8137, 8092, 8160, 8151, 8148, 8179, 8155, 8180, 8087, 8133, 8286, 9731,3.6415791511535645,test
125, 8124, 8158, 8205, 8213, 8179, 8172, 8161, 8164, 8172, 8189, 8190, 8180, 8270, 9605,3.6492631435394287,test
126, 8122, 8151, 8175, 8177, 8168, 8172, 8166, 8162, 8183, 8189, 8175, 8176, 8274, 9607,3.656967878341675,test
127, 8292, 8184, 8121, 8082, 8153, 8152, 8156, 8166, 8158, 8179, 8085, 8147, 8295, 9707,3.664163827896118,test
240, 8081, 8143, 8163, 8195, 8170, 8181, 8172, 8161, 8184, 8186, 8224, 8217, 8252, 9553,3.6718318462371826,test
0, 8277, 8181, 8117, 8079, 8158, 8148, 8152, 8170, 8173, 8180, 8123, 8163, 8292, 9690,3.679478645324707,test
1, 8143, 8164, 8179, 8181, 8159, 8165, 8155, 8162, 8173, 8183, 8205, 8208, 8282, 9611,3.688749074935913,test
2, 8110, 8152, 8167, 8175, 8158, 8174, 8163, 8169, 8177, 8191, 8200, 8200, 8269, 9608,3.696711540222168,test
3, 8257, 8193, 8126, 8076, 8155, 8149, 8150, 8176, 8154, 8184, 8108, 8153, 8305, 9720,3.704385280609131,test
4, 8025, 8148, 8198, 8229, 8172, 8178, 8164, 8169, 8179, 8184, 8260, 8221, 8267, 9549,3.711988925933838,test
5, 8278, 8176, 8151, 8135, 8161, 8155, 8157, 8179, 8168, 8179, 8127, 8148, 8288, 9711,3.719780206680298,test
6, 8229, 8170, 8183, 8190, 8174, 8168, 8160, 8167, 8170, 8185, 8152, 8164, 8284, 9686,3.72759747505188,test
7, 8140, 8154, 8177, 8186, 8174, 8177, 8167, 8166, 8181, 8185, 8179, 8174, 8267, 9621,3.7352821826934814,test
8, 8326, 8191, 8126, 8069, 8159, 8145, 8160, 8169, 8156, 8176, 8075, 8130, 8294, 9730,3.7431628704071045,test
9, 8096, 8143, 8190, 8220, 8174, 8177, 8176, 8158, 8178, 8188, 8222, 8208, 8259, 9577,3.7517330646514893,test
10, 8239, 8175, 8129, 8109, 8160, 8156, 8161, 8175, 8168, 8186, 8104, 8147, 8287, 9688,3.7595794200897217,test
11, 8173, 8178, 8144, 8127, 8158, 8157, 8156, 8172, 8165, 8182, 8138, 8170, 8286, 9625,3.7676188945770264,test
12, 8091, 8147, 8169, 8186, 8167, 8172, 8165, 8168, 8183, 8182, 8232, 8214, 8263, 9547,3.775510311126709,test
13, 8319, 8185, 8139, 8111, 8167, 8151, 8158, 8177, 8158, 8179, 8102, 8141, 8300, 9728,3.7818353176116943,test
14, 8076, 8147, 8206, 8246, 8182, 8184, 8176, 8171, 8177, 8187, 8207, 8193, 8264, 9583,3.789654016494751,test
15, 8217, 8174, 8133, 8104, 8163, 8158, 8161, 8171, 8173, 8184, 8128, 8160, 8282, 9648,3.7975478172302246,test
16, 8209, 8180, 8151, 8121, 8164, 8156, 8153, 8164, 8164, 8181, 8163, 8184, 8292, 9631,3.8069376945495605,test
17, 8058, 8143, 8203, 8236, 8174, 8180, 8163, 8169, 8177, 8184, 8240, 8212, 8261, 9560,3.814833641052246,test
18, 8307, 8196, 8138, 8107, 8160, 8149, 8147, 8171, 8157, 8180, 8075, 8121, 8295, 9743,3.822744607925415,test
19, 8105, 8161, 8178, 8202, 8164, 8180, 8160, 8154, 8186, 8191, 8202, 8191, 8265, 9571,3.830836534500122,test
20, 8200, 8159, 8143, 8127, 8155, 8165, 8155, 8169, 8180, 8183, 8160, 8179, 8275, 9619,3.838653087615967,test
21, 8236, 8172, 8170, 8148, 8166, 8157, 8152, 8176, 8156, 8177, 8153, 8172, 8285, 9673,3.8465826511383057,test
22, 8043, 8145, 8212, 8245, 8180, 8185, 8170, 8170, 8182, 8189, 8239, 8206, 8257, 9559,3.8528172969818115,test
23, 8297, 8188, 8138, 8089, 8156, 8149, 8160, 8170, 8166, 8182, 8072, 8127, 8299, 9735,3.8605782985687256,test
24, 8138, 8156, 8182, 8203, 8166, 8166, 8166, 8162, 8171, 8185, 8178, 8174, 8274, 9634,3.870011568069458,test
25, 8207, 8162, 8145, 8154, 8164, 8161, 8158, 8169, 8171, 8185, 8147, 8153, 8277, 9651,3.8766257762908936,test
26, 8292, 8181, 8150, 8119, 8157, 8155, 8153, 8166, 8163, 8184, 8121, 8159, 8296, 9677,3.886160135269165,test
27, 8068, 8143, 8202, 8216, 8165, 8185, 8167, 8165, 8188, 8192, 8237, 8216, 8261, 9559,3.892735004425049,test
28, 8264, 8185, 8118, 8063, 8151, 8149, 8151, 8175, 8163, 8184, 8088, 8134, 8297, 9720,3.9006834030151367,test
29, 8099, 8156, 8175, 8186, 8164, 8166, 8163, 8160, 8170, 8186, 8209, 8204, 8273, 9570,3.90865159034729,test
30, 8142, 8158, 8178, 8185, 8162, 8165, 8166, 8168, 8175, 8187, 8203, 8200, 8268, 9599,3.916639566421509,test
31, 8263, 8190, 8149, 8118, 8156, 8151, 8156, 8174, 8158, 8183, 8106, 8148, 8296, 9737,3.9245970249176025,test
32, 8050, 8147, 8187, 8225, 8168, 8179, 8169, 8164, 8184, 8191, 8216, 8197, 8262, 9585,3.9325010776519775,test
33, 8313, 8184, 8133, 8096, 8160, 8147, 8154, 8166, 8163, 8185, 8089, 8133, 8292, 9700,3.9405229091644287,test
34, 8173, 8160, 8187, 8189, 8171, 8171, 8160, 8157, 8169, 8186, 8185, 8185, 8279, 9593,3.9483978748321533,test
35, 8102, 8152, 8162, 8166, 8162, 8176, 8168, 8168, 8182, 8184, 8191, 8189, 8276, 9585,3.958185911178589,test
36, 8231, 8191, 8126, 8081, 8154, 8150, 8154, 8172, 8164, 8179, 8099, 8151, 8305, 9702,3.964606761932373,test
37, 8006, 8141, 8203, 8241, 8171, 8186, 8163, 8161, 8186, 8189, 8248, 8219, 8262, 9537,3.9724597930908203,test
38, 8274, 8174, 8146, 8121, 8161, 8155, 8153, 8171, 8165, 8181, 8119, 8143, 8292, 9699,3.978588581085205,test
39, 8220, 8171, 8176, 8171, 8176, 8160, 8160, 8167, 8164, 8179, 8155, 8163, 8285, 9673,3.987961769104004,test
40, 8113, 8155, 8178, 8192, 8173, 8177, 8166, 8171, 8181, 8184, 8180, 8174, 8264, 9621,3.9957005977630615,test
41, 8301, 8191, 8135, 8097, 8152, 8154, 8156, 8170, 8158, 8185, 8074, 8127, 8297, 9735,4.003695726394653,XXXXX
42, 8095, 8145, 8185, 8222, 8171, 8179, 8168, 8154, 8180, 8195, 8216, 8207, 8265, 9560,4.011415719985962,XXXXX
43, 8254, 8173, 8122, 8093, 8161, 8154, 8151, 8164, 8176, 8185, 8119, 8158, 8289, 9670,4.019718408584595,XXXXX
44, 8194, 8175, 8155, 8135, 8158, 8161, 8155, 8160, 8173, 8181, 8160, 8181, 8290, 9651,4.027438640594482,XXXXX
45, 8100, 8152, 8174, 8189, 8164, 8172, 8165, 8163, 8182, 8186, 8218, 8211, 8268, 9587,4.035229444503784,XXXXX
46, 8288, 8193, 8130, 8087, 8160, 8145, 8147, 8174, 8157, 8180, 8104, 8154, 8299, 9724,4.041461229324341,XXXXX
47, 8035, 8151, 8210, 8236, 8175, 8181, 8164, 8164, 8178, 8186, 8247, 8216, 8261, 9566,4.050804138183594,XXXXX
48, 8205, 8172, 8165, 8142, 8166, 8161, 8161, 8168, 8170, 8185, 8144, 8155, 8281, 9689,4.058507442474365,XXXXX
49, 8234, 8176, 8166, 8155, 8170, 8160, 8157, 8162, 8166, 8185, 8133, 8151, 8290, 9715,4.067079067230225,XXXXX
50, 8114, 8143, 8180, 8214, 8173, 8177, 8163, 8163, 8186, 8186, 8197, 8188, 8265, 9613,4.074784994125366,XXXXX
51, 8326, 8189, 8124, 8091, 8160, 8150, 8150, 8172, 8159, 8181, 8064, 8129, 8298, 9734,4.082536697387695,XXXXX
52, 8089, 8157, 8182, 8219, 8175, 8186, 8164, 8162, 8179, 8191, 8202, 8195, 8265, 9575,4.090258598327637,XXXXX
53, 8202, 8175, 8131, 8120, 8161, 8166, 8158, 8167, 8180, 8188, 8140, 8162, 8281, 9651,4.097681760787964,XXXXX
54, 8221, 8183, 8153, 8124, 8159, 8152, 8152, 8164, 8165, 8184, 8150, 8180, 8294, 9646,4.106993913650513,XXXXX
55, 8032, 8140, 8211, 8235, 8171, 8180, 8165, 8166, 8182, 8188, 8264, 8232, 8258, 9528,4.113243579864502,XXXXX
56, 8268, 8189, 8139, 8090, 8160, 8149, 8151, 8175, 8160, 8179, 8100, 8138, 8294, 9741,4.121415138244629,XXXXX
57, 8076, 8160, 8186, 8201, 8174, 8173, 8163, 8157, 8178, 8183, 8199, 8187, 8272, 9620,4.1292572021484375,XXXXX
58, 8180, 8160, 8159, 8156, 8164, 8166, 8162, 8162, 8181, 8182, 8163, 8169, 8276, 9636,4.137166976928711,XXXXX
59, 8308, 8182, 8144, 8119, 8154, 8156, 8154, 8166, 8160, 8179, 8119, 8152, 8290, 9698,4.1451966762542725,XXXXX
60, 8099, 8149, 8175, 8202, 8163, 8182, 8166, 8163, 8181, 8187, 8217, 8199, 8257, 9581,4.1532182693481445,XXXXX
61, 8267, 8190, 8119, 8069, 8154, 8149, 8152, 8170, 8163, 8178, 8087, 8137, 8299, 9716,4.161261558532715,XXXXX
62, 8086, 8158, 8186, 8199, 8170, 8174, 8159, 8161, 8170, 8186, 8206, 8201, 8279, 9584,4.169227600097656,XXXXX
63, 8166, 8157, 8158, 8164, 8165, 8169, 8159, 8170, 8171, 8191, 8179, 8176, 8275, 9616,4.177053689956665,XXXXX
64, 8292, 8182, 8139, 8104, 8157, 8147, 8150, 8170, 8162, 8177, 8109, 8144, 8298, 9686,4.183634281158447,XXXXX
65, 8043, 8142, 8198, 8222, 8163, 8175, 8162, 8161, 8189, 8183, 8240, 8222, 8262, 9528,4.1927924156188965,XXXXX
66, 8270, 8186, 8132, 8084, 8150, 8147, 8152, 8175, 8162, 8185, 8107, 8151, 8296, 9694,4.200737476348877,XXXXX
67, 8156, 8161, 8182, 8188, 8171, 8169, 8167, 8169, 8172, 8185, 8190, 8182, 8281, 9606,4.208803415298462,XXXXX
68, 8152, 8154, 8166, 8176, 8167, 8171, 8168, 8172, 8185, 8179, 8180, 8183, 8273, 9604,4.216745615005493,XXXXX
69, 8281, 8193, 8130, 8091, 8151, 8147, 8154, 8174, 8163, 8177, 8092, 8153, 8294, 9707,4.2244768142700195,XXXXX
70, 8013, 8143, 8201, 8238, 8170, 8178, 8167, 8166, 8185, 8190, 8234, 8210, 8252, 9539,4.232403993606567,XXXXX
71, 8258, 8180, 8146, 8111, 8169, 8151, 8152, 8172, 8165, 8182, 8095, 8130, 8290, 9709,4.238853216171265,XXXXX
72, 8198, 8172, 8175, 8165, 8174, 8168, 8163, 8163, 8164, 8181, 8152, 8174, 8283, 9666,4.247906923294067,XXXXX
73, 8110, 8153, 8176, 8187, 8166, 8176, 8175, 8166, 8183, 8186, 8192, 8195, 8265, 9607,4.256689071655273,XXXXX
74, 8311, 8193, 8140, 8096, 8157, 8142, 8158, 8167, 8164, 8180, 8085, 8135, 8300, 9736,4.262561798095703,XXXXX
75, 8112, 8150, 8186, 8206, 8174, 8175, 8166, 8156, 8183, 8186, 8218, 8204, 8263, 9576,4.27056360244751,XXXXX
76, 8275, 8172, 8121, 8078, 8156, 8150, 8159, 8165, 8174, 8183, 8120, 8162, 8283, 9674,4.278591632843018,XXXXX
77, 8191, 8169, 8168, 8150, 8157, 8152, 8164, 8162, 8171, 8184, 8178, 8194, 8283, 9635,4.287932634353638,XXXXX
78, 8077, 8154, 8185, 8196, 8163, 8173, 8170, 8168, 8183, 8186, 8224, 8208, 8266, 9590,4.295651435852051,XXXXX
79, 8282, 8195, 8124, 8072, 8153, 8148, 8150, 8168, 8163, 8178, 8086, 8140, 8301, 9741,4.303727626800537,XXXXX
80, 8062, 8147, 8195, 8213, 8168, 8172, 8160, 8155, 8184, 8184, 8238, 8216, 8270, 9571,4.3113932609558105,XXXXX
81, 8225, 8169, 8159, 8131, 8164, 8151, 8158, 8172, 8167, 8177, 8164, 8180, 8287, 9669,4.317706346511841,XXXXX
82, 8213, 8176, 8175, 8166, 8166, 8156, 8161, 8170, 8158, 8176, 8165, 8183, 8283, 9678,4.325521945953369,XXXXX
83, 8092, 8153, 8195, 8225, 8168, 8177, 8166, 8160, 8179, 8187, 8218, 8199, 8258, 9608,4.333624362945557,XXXXX
84, 8328, 8200, 8140, 8093, 8160, 8151, 8150, 8169, 8157, 8181, 8082, 8131, 8300, 9762,4.342543125152588,XXXXX
85, 8100, 8150, 8202, 8228, 8180, 8183, 8168, 8169, 8175, 8183, 8218, 8200, 8267, 9593,4.350275993347168,XXXXX
86, 8222, 8159, 8158, 8151, 8165, 8164, 8163, 8171, 8167, 8181, 8138, 8157, 8279, 9673,4.357965469360352,XXXXX
87, 8266, 8178, 8160, 8142, 8158, 8157, 8157, 8163, 8159, 8184, 8108, 8151, 8290, 9716,4.365649938583374,XXXXX
88, 8104, 8147, 8186, 8212, 8167, 8178, 8172, 8164, 8186, 8188, 8206, 8202, 8259, 9595,4.373556137084961,XXXXX
89, 8319, 8184, 8129, 8084, 8152, 8138, 8157, 8170, 8164, 8176, 8103, 8157, 8298, 9710,4.381541013717651,XXXXX
90, 8088, 8153, 8194, 8212, 8164, 8168, 8162, 8158, 8176, 8184, 8243, 8232, 8270, 9563,4.389406204223633,XXXXX
91, 8158, 8173, 8150, 8131, 8159, 8164, 8158, 8171, 8175, 8184, 8170, 8184, 8274, 9647,4.3971452713012695,XXXXX
92, 8234, 8192, 8146, 8106, 8156, 8149, 8158, 8171, 8159, 8179, 8130, 8157, 8288, 9700,4.404824733734131,XXXXX
93, 8060, 8147, 8196, 8234, 8166, 8176, 8171, 8163, 8179, 8186, 8259, 8219, 8251, 9567,4.412823915481567,XXXXX
94, 8297, 8184, 8133, 8102, 8156, 8148, 8150, 8173, 8160, 8176, 8102, 8144, 8293, 9745,4.42198920249939,XXXXX
95, 8102, 8155, 8196, 8209, 8173, 8172, 8160, 8165, 8174, 8181, 8182, 8186, 8276, 9613,4.429792165756226,XXXXX
96, 8149, 8160, 8172, 8171, 8167, 8166, 8164, 8166, 8180, 8181, 8161, 8176, 8273, 9611,4.437802791595459,XXXXX
97, 8311, 8191, 8135, 8100, 8160, 8147, 8159, 8164, 8160, 8176, 8108, 8155, 8296, 9704,4.444048643112183,XXXXX
98, 8124, 8145, 8174, 8197, 8172, 8173, 8174, 8160, 8184, 8185, 8221, 8206, 8264, 9570,4.451820135116577,XXXXX
99, 8292, 8182, 8118, 8077, 8155, 8145, 8156, 8171, 8166, 8180, 8089, 8141, 8296, 9703,4.459723711013794,XXXXX
100, 8100, 8162, 8179, 8192, 8166, 8166, 8160, 8163, 8170, 8183, 8185, 8197, 8276, 9607,4.467646360397339,XXXXX
101, 8145, 8155, 8173, 8179, 8166, 8165, 8166, 8166, 8175, 8188, 8181, 8187, 8268, 9610,4.47641921043396,XXXXX
102, 8336, 8183, 8144, 8108, 8153, 8151, 8159, 8165, 8156, 8188, 8110, 8148, 8291, 9698,4.484115362167358,XXXXX
103, 8074, 8141, 8186, 8218, 8162, 8181, 8169, 8160, 8182, 8192, 8242, 8220, 8261, 9551,4.4918248653411865,XXXXX
104, 8238, 8188, 8116, 8066, 8154, 8138, 8153, 8176, 8168, 8177, 8100, 8152, 8298, 9709,4.499596357345581,XXXXX
105, 8122, 8175, 8174, 8162, 8167, 8153, 8161, 8166, 8173, 8181, 8184, 8193, 8276, 9607,4.507665157318115,XXXXX
106, 8111, 8152, 8188, 8197, 8168, 8174, 8161, 8163, 8185, 8189, 8210, 8202, 8259, 9569,4.515432357788086,XXXXX
107, 8350, 8191, 8145, 8098, 8163, 8152, 8145, 8176, 8161, 8178, 8071, 8128, 8304, 9756,4.523362636566162,XXXXX
108, 8129, 8153, 8190, 8217, 8175, 8177, 8165, 8175, 8186, 8181, 8196, 8186, 8267, 9620,4.531261205673218,XXXXX
109, 8270, 8182, 8126, 8092, 8152, 8146, 8155, 8172, 8174, 8181, 8116, 8156, 8284, 9688,4.539183616638184,XXXXX
110, 8165, 8169, 8177, 8169, 8161, 8161, 8153, 8155, 8167, 8184, 8189, 8204, 8286, 9605,4.547108888626099,XXXXX
111, 8093, 8152, 8198, 8218, 8175, 8181, 8165, 8165, 8182, 8185, 8217, 8197, 8270, 9583,4.5549609661102295,XXXXX
112, 8316, 8201, 8128, 8088, 8163, 8147, 8156, 8172, 8166, 8180, 8067, 8112, 8298, 9739,4.56255578994751,XXXXX
113, 8078, 8151, 8175, 8208, 8168, 8174, 8165, 8151, 8184, 8188, 8213, 8203, 8261, 9547,4.570343732833862,XXXXX
114, 8244, 8167, 8138, 8114, 8154, 8153, 8154, 8166, 8170, 8178, 8138, 8167, 8286, 9657,4.578203201293945,XXXXX
115, 8219, 8175, 8179, 8166, 8164, 8158, 8158, 8173, 8170, 8182, 8163, 8167, 8285, 9670,4.586174488067627,XXXXX
116, 8084, 8154, 8189, 8214, 8178, 8176, 8171, 8170, 8189, 8195, 8214, 8198, 8258, 9589,4.593949317932129,XXXXX
117, 8299, 8195, 8111, 8059, 8165, 8145, 8155, 8167, 8161, 8185, 8075, 8147, 8301, 9715,4.601634502410889,XXXXX
118, 8052, 8147, 8187, 8203, 8168, 8177, 8160, 8155, 8183, 8184, 8236, 8227, 8270, 9534,4.611108064651489,XXXXX
119, 8181, 8162, 8170, 8151, 8157, 8164, 8148, 8166, 8183, 8178, 8172, 8181, 8278, 9645,4.617521524429321,XXXXX
120, 8244, 8181, 8173, 8148, 8163, 8156, 8148, 8171, 8169, 8181, 8140, 8162, 8284, 9721,4.626928806304932,XXXXX
121, 8102, 8144, 8184, 8210, 8169, 8172, 8166, 8172, 8185, 8189, 8215, 8198, 8260, 9607,4.633464097976685,XXXXX
122, 8329, 8183, 8122, 8083, 8150, 8146, 8153, 8169, 8161, 8183, 8083, 8139, 8300, 9718,4.642832517623901,XXXXX
123, 8121, 8155, 8186, 8203, 8162, 8178, 8165, 8155, 8178, 8192, 8215, 8208, 8268, 9571,4.649286985397339,XXXXX
124, 8180, 8165, 8137, 8127, 8157, 8160, 8160, 8169, 8179, 8189, 8160, 8178, 8274, 9648,4.656992435455322,XXXXX
125, 8204, 8177, 8133, 8116, 8159, 8145, 8152, 8166, 8164, 8180, 8128, 8168, 8289, 9686,4.664985418319702,XXXXX
126, 8033, 8143, 8195, 8227, 8168, 8176, 8166, 8158, 8184, 8187, 8238, 8215, 8255, 9552,4.672851800918579,XXXXX
127, 8321, 8186, 8148, 8095, 8153, 8151, 8156, 8176, 8163, 8185, 8098, 8141, 8293, 9727,4.680837154388428,XXXXX
240, 8135, 8153, 8199, 8220, 8171, 8178, 8170, 8170, 8179, 8190, 8204, 8194, 8275, 9609,4.688533067703247,XXXXX
0, 8141, 8159, 8156, 8162, 8167, 8169, 8163, 8167, 8181, 8190, 8156, 8163, 8279, 9634,4.697835445404053,XXXXX
1, 8249, 8190, 8137, 8092, 8156, 8148, 8150, 8164, 8162, 8185, 8095, 8142, 8296, 9693,4.703908920288086,XXXXX
2, 8068, 8151, 8192, 8204, 8168, 8179, 8168, 8157, 8186, 8189, 8235, 8220, 8255, 9541,4.711751699447632,XXXXX
3, 8286, 8191, 8134, 8080, 8155, 8149, 8157, 8169, 8166, 8179, 8106, 8160, 8291, 9705,4.719559669494629,XXXXX
4, 8098, 8158, 8201, 8204, 8168, 8168, 8159, 8166, 8174, 8182, 8194, 8199, 8276, 9617,4.7275550365448,XXXXX
5, 8119, 8151, 8178, 8182, 8170, 8171, 8163, 8174, 8179, 8184, 8172, 8168, 8268, 9634,4.735404014587402,XXXXX
6, 8300, 8193, 8135, 8094, 8161, 8153, 8159, 8176, 8158, 8182, 8088, 8130, 8296, 9725,4.74481201171875,XXXXX
7, 8074, 8145, 8203, 8231, 8169, 8181, 8169, 8167, 8181, 8192, 8230, 8210, 8264, 9558,4.752612829208374,XXXXX
8, 8264, 8173, 8139, 8102, 8157, 8147, 8158, 8170, 8166, 8183, 8099, 8148, 8292, 9705,4.760591983795166,XXXXX
9, 8132, 8162, 8164, 8164, 8167, 8164, 8167, 8159, 8171, 8181, 8168, 8185, 8275, 9617,4.768441200256348,XXXXX
10, 8117, 8151, 8174, 8179, 8163, 8177, 8162, 8165, 8181, 8186, 8204, 8196, 8264, 9579,4.7747766971588135,XXXXX
11, 8329, 8187, 8157, 8108, 8160, 8151, 8147, 8173, 8158, 8184, 8115, 8149, 8294, 9735,4.782653570175171,XXXXX
12, 8100, 8150, 8199, 8231, 8178, 8181, 8167, 8168, 8183, 8186, 8228, 8198, 8258, 9615,4.7906928062438965,XXXXX
13, 8273, 8186, 8116, 8091, 8158, 8158, 8156, 8174, 8170, 8178, 8086, 8131, 8292, 9710,4.798537254333496,XXXXX
14, 8171, 8171, 8151, 8142, 8162, 8165, 8161, 8160, 8168, 8185, 8149, 8179, 8287, 9603,4.807305574417114,XXXXX
15, 8097, 8144, 8183, 8191, 8168, 8173, 8169, 8163, 8184, 8187, 8223, 8210, 8261, 9560,4.815174341201782,XXXXX
16, 8338, 8187, 8160, 8119, 8159, 8147, 8149, 8174, 8160, 8172, 8106, 8142, 8295, 9757,4.822956085205078,XXXXX
17, 8117, 8150, 8204, 8245, 8174, 8181, 8169, 8164, 8178, 8181, 8210, 8193, 8267, 9618,4.83063817024231,XXXXX
18, 8266, 8181, 8121, 8096, 8159, 8155, 8167, 8172, 8170, 8183, 8095, 8141, 8293, 9694,4.838382720947266,XXXXX
19, 8222, 8177, 8159, 8144, 8157, 8159, 8158, 8164, 8168, 8182, 8154, 8181, 8287, 9629,4.845625638961792,XXXXX
20, 8083, 8138, 8193, 8216, 8165, 8175, 8165, 8160, 8186, 8183, 8242, 8229, 8258, 9544,4.853574991226196,XXXXX
21, 8277, 8183, 8119, 8071, 8154, 8141, 8159, 8166, 8164, 8179, 8092, 8154, 8298, 9725,4.86257004737854,XXXXX
22, 8057, 8149, 8183, 8202, 8164, 8173, 8170, 8160, 8182, 8190, 8225, 8207, 8269, 9574,4.87041449546814,XXXXX
23, 8222, 8168, 8158, 8134, 8160, 8157, 8154, 8172, 8169, 8185, 8162, 8168, 8281, 9658,4.87810206413269,XXXXX
24, 8250, 8175, 8178, 8156, 8172, 8157, 8158, 8167, 8159, 8182, 8153, 8174, 8284, 9687,4.8859782218933105,XXXXX
25, 8080, 8139, 8199, 8224, 8176, 8184, 8177, 8161, 8188, 8185, 8212, 8203, 8261, 9591,4.894068241119385,XXXXX
26, 8292, 8183, 8128, 8082, 8157, 8153, 8159, 8167, 8168, 8175, 8063, 8119, 8304, 9732,4.901813268661499,XXXXX
27, 8100, 8152, 8185, 8203, 8174, 8175, 8168, 8158, 8174, 8184, 8202, 8184, 8270, 9577,4.9096455574035645,XXXXX
28, 8204, 8169, 8150, 8130, 8167, 8157, 8161, 8171, 8167, 8184, 8160, 8174, 8276, 9634,4.917656660079956,XXXXX
29, 8219, 8182, 8159, 8129, 8162, 8151, 8155, 8169, 8161, 8180, 8143, 8179, 8293, 9666,4.92551326751709,XXXXX
30, 8042, 8148, 8201, 8230, 8169, 8182, 8169, 8167, 8189, 8186, 8231, 8210, 8260, 9558,4.933407545089722,XXXXX
31, 8323, 8193, 8134, 8080, 8156, 8153, 8155, 8180, 8165, 8177, 8076, 8128, 8295, 9711,4.941295623779297,XXXXX
32, 8129, 8151, 8195, 8193, 8170, 8174, 8162, 8168, 8173, 8181, 8209, 8205, 8268, 9554,4.949342250823975,XXXXX
33, 8147, 8156, 8166, 8154, 8163, 8161, 8159, 8170, 8178, 8184, 8181, 8188, 8268, 9607,4.9572248458862305,XXXXX
34, 8235, 8191, 8148, 8119, 8162, 8149, 8153, 8175, 8165, 8182, 8107, 8146, 8291, 9711,4.965189695358276,XXXXX
35, 8054, 8148, 8192, 8227, 8173, 8185, 8169, 8170, 8185, 8186, 8213, 8195, 8262, 9560,4.973179578781128,XXXXX
36, 8299, 8183, 8129, 8090, 8153, 8150, 8154, 8171, 8162, 8173, 8092, 8142, 8297, 9690,4.979450464248657,XXXXX
37, 8123, 8163, 8188, 8193, 8167, 8168, 8154, 8163, 8174, 8178, 8208, 8209, 8273, 9581,4.988455295562744,XXXXX
38, 8129, 8158, 8177, 8176, 8169, 8176, 8157, 8173, 8178, 8185, 8190, 8192, 8268, 9609,4.996506214141846,XXXXX
