COUNTER,F3,FC5,AF3,F7,T7,P7,O1,O2,P8,T8,F8,AF4,FC6,F4,Timestamp
27, 8148, 8149, 8160, 8128, 8120, 8173, 8107, 8196, 8108, 8112, 8183, 8185, 8196, 8122,0.0070078372955322266
27, 8148, 8149, 8160, 8128, 8120, 8173, 8107, 8196, 8108, 8112, 8183, 8185, 8196, 8122,0.0070078372955322266
28, 8146, 8162, 8164, 8146, 8127, 8153, 8116, 8164, 8127, 8127, 8154, 8148, 8169, 8108,0.014000654220581055
28, 8146, 8162, 8164, 8146, 8127, 8153, 8116, 8164, 8127, 8127, 8154, 8148, 8169, 8108,0.015000104904174805
29, 8163, 8178, 8169, 8163, 8144, 8170, 8134, 8173, 8169, 8160, 8163, 8166, 8170, 8122,0.023000001907348633
29, 8163, 8178, 8169, 8163, 8144, 8170, 8134, 8173, 8169, 8160, 8163, 8166, 8170, 8122,0.023000001907348633
30, 8162, 8182, 8173, 8161, 8135, 8177, 8139, 8184, 8178, 8162, 8178, 8190, 8179, 8137,0.030743837356567383
30, 8162, 8182, 8173, 8161, 8135, 8177, 8139, 8184, 8178, 8162, 8178, 8190, 8179, 8137,0.030743837356567383
31, 8149, 8187, 8179, 8167, 8141, 8158, 8151, 8143, 8169, 8159, 8165, 8150, 8151, 8151,0.03879904747009277
31, 8149, 8187, 8179, 8167, 8141, 8158, 8151, 8143, 8169, 8159, 8165, 8150, 8151, 8151,0.03879904747009277
32, 8182, 8194, 8179, 8174, 8162, 8176, 8142, 8191, 8145, 8153, 8193, 8203, 8198, 8175,0.04652142524719238
32, 8182, 8194, 8179, 8174, 8162, 8176, 8142, 8191, 8145, 8153, 8193, 8203, 8198, 8175,0.04652142524719238
33, 8168, 8190, 8177, 8177, 8176, 8158, 8148, 8164, 8156, 8178, 8161, 8159, 8168, 8155,0.0545198917388916
33, 8168, 8190, 8177, 8177, 8176, 8158, 8148, 8164, 8156, 8178, 8161, 8159, 8168, 8155,0.0545198917388916
34, 8166, 8184, 8183, 8171, 8150, 8169, 8151, 8159, 8173, 8193, 8167, 8154, 8152, 8141,0.06272745132446289
34, 8166, 8184, 8183, 8171, 8150, 8169, 8151, 8159, 8173, 8193, 8167, 8154, 8152, 8141,0.06272745132446289
35, 8164, 8174, 8169, 8151, 8115, 8178, 8125, 8171, 8142, 8162, 8177, 8181, 8172, 8129,0.07009267807006836
35, 8164, 8174, 8169, 8151, 8115, 8178, 8125, 8171, 8142, 8162, 8177, 8181, 8172, 8129,0.07009267807006836
36, 8145, 8164, 8155, 8142, 8123, 8158, 8117, 8129, 8115, 8139, 8146, 8128, 8154, 8117,0.0771019458770752
36, 8145, 8164, 8155, 8142, 8123, 8158, 8117, 8129, 8115, 8139, 8146, 8128, 8154, 8117,0.0781092643737793
37, 8168, 8166, 8163, 8142, 8133, 8174, 8121, 8179, 8105, 8122, 8185, 8180, 8198, 8137,0.0857243537902832
37, 8168, 8166, 8163, 8142, 8133, 8174, 8121, 8179, 8105, 8122, 8185, 8180, 8198, 8137,0.0857243537902832
38, 8160, 8175, 8175, 8156, 8149, 8160, 8140, 8170, 8126, 8138, 8164, 8160, 8180, 8141,0.09313201904296875
38, 8160, 8175, 8175, 8156, 8149, 8160, 8140, 8170, 8126, 8138, 8164, 8160, 8180, 8141,0.09413576126098633
39, 8164, 8180, 8181, 8163, 8158, 8166, 8138, 8169, 8138, 8149, 8159, 8154, 8174, 8149,0.10213375091552734
39, 8164, 8180, 8181, 8163, 8158, 8166, 8138, 8169, 8138, 8149, 8159, 8154, 8174, 8149,0.10213375091552734
40, 8172, 8179, 8178, 8161, 8150, 8171, 8117, 8190, 8124, 8129, 8184, 8190, 8196, 8142,0.1096963882446289
40, 8172, 8179, 8178, 8161, 8150, 8171, 8117, 8190, 8124, 8129, 8184, 8190, 8196, 8142,0.1096963882446289
41, 8152, 8189, 8172, 8178, 8165, 8149, 8132, 8152, 8135, 8153, 8149, 8135, 8157, 8123,0.11771154403686523
41, 8152, 8189, 8172, 8178, 8165, 8149, 8132, 8152, 8135, 8153, 8149, 8135, 8157, 8123,0.11771154403686523
42, 8177, 8195, 8173, 8182, 8178, 8171, 8137, 8192, 8144, 8175, 8163, 8178, 8184, 8146,0.12570786476135254
42, 8177, 8195, 8173, 8182, 8178, 8171, 8137, 8192, 8144, 8175, 8163, 8178, 8184, 8146,0.12570786476135254
43, 8167, 8198, 8178, 8187, 8175, 8163, 8140, 8168, 8161, 8175, 8144, 8157, 8163, 8141,0.13408756256103516
43, 8167, 8198, 8178, 8187, 8175, 8163, 8140, 8168, 8161, 8175, 8144, 8157, 8163, 8141,0.13408756256103516
44, 8160, 8203, 8184, 8189, 8161, 8173, 8148, 8151, 8169, 8173, 8149, 8141, 8149, 8133,0.14108777046203613
44, 8160, 8203, 8184, 8189, 8161, 8173, 8148, 8151, 8169, 8173, 8149, 8141, 8149, 8133,0.14108777046203613
45, 8166, 8189, 8178, 8170, 8166, 8181, 8144, 8178, 8151, 8171, 8182, 8192, 8184, 8142,0.14908790588378906
45, 8166, 8189, 8178, 8170, 8166, 8181, 8144, 8178, 8151, 8171, 8182, 8192, 8184, 8142,0.14908790588378906
46, 8133, 8175, 8166, 8165, 8198, 8146, 8148, 8130, 8149, 8181, 8153, 8143, 8151, 8137,0.1558542251586914
46, 8133, 8175, 8166, 8165, 8198, 8146, 8148, 8130, 8149, 8181, 8153, 8143, 8151, 8137,0.1558542251586914
47, 8154, 8180, 8166, 8159, 8181, 8172, 8143, 8176, 8135, 8171, 8184, 8196, 8190, 8158,0.1647181510925293
47, 8154, 8180, 8166, 8159, 8181, 8172, 8143, 8176, 8135, 8171, 8184, 8196, 8190, 8158,0.1647181510925293
48, 8160, 8189, 8177, 8165, 8162, 8173, 8149, 8183, 8149, 8169, 8169, 8186, 8183, 8157,0.17271852493286133
48, 8160, 8189, 8177, 8165, 8162, 8173, 8149, 8183, 8149, 8169, 8169, 8186, 8183, 8157,0.17271852493286133
49, 8153, 8186, 8178, 8180, 8163, 8164, 8149, 8166, 8185, 8179, 8146, 8138, 8152, 8141,0.1807239055633545
49, 8153, 8186, 8178, 8180, 8163, 8164, 8149, 8166, 8185, 8179, 8146, 8138, 8152, 8141,0.1807239055633545
50, 8164, 8174, 8164, 8161, 8139, 8180, 8135, 8206, 8174, 8179, 8179, 8194, 8190, 8133,0.18868803977966309
50, 8164, 8174, 8164, 8161, 8139, 8180, 8135, 8206, 8174, 8179, 8179, 8194, 8190, 8133,0.18868803977966309
51, 8131, 8164, 8156, 8141, 8142, 8153, 8149, 8142, 8160, 8182, 8130, 8127, 8138, 8103,0.19672608375549316
51, 8131, 8164, 8156, 8141, 8142, 8153, 8149, 8142, 8160, 8182, 8130, 8127, 8138, 8103,0.19672608375549316
52, 8133, 8158, 8152, 8138, 8143, 8165, 8133, 8152, 8148, 8152, 8139, 8137, 8144, 8094,0.20369601249694824
52, 8133, 8158, 8152, 8138, 8143, 8165, 8133, 8152, 8148, 8152, 8139, 8137, 8144, 8094,0.20369601249694824
53, 8123, 8153, 8138, 8139, 8142, 8162, 8119, 8160, 8134, 8135, 8153, 8162, 8164, 8090,0.21173763275146484
53, 8123, 8153, 8138, 8139, 8142, 8162, 8119, 8160, 8134, 8135, 8153, 8162, 8164, 8090,0.21173763275146484
54, 8112, 8161, 8144, 8144, 8172, 8148, 8149, 8135, 8137, 8157, 8145, 8136, 8151, 8109,0.21981048583984375
54, 8112, 8161, 8144, 8144, 8172, 8148, 8149, 8135, 8137, 8157, 8145, 8136, 8151, 8109,0.22076177597045898
55, 8137, 8175, 8160, 8145, 8173, 8172, 8146, 8196, 8129, 8141, 8184, 8191, 8201, 8132,0.2277669906616211
55, 8137, 8175, 8160, 8145, 8173, 8172, 8146, 8196, 8129, 8141, 8184, 8191, 8201, 8132,0.2277669906616211
56, 8112, 8182, 8157, 8159, 8161, 8150, 8148, 8150, 8154, 8142, 8134, 8119, 8148, 8108,0.23576593399047852
56, 8112, 8182, 8157, 8159, 8161, 8150, 8148, 8150, 8154, 8142, 8134, 8119, 8148, 8108,0.23576593399047852
57, 8129, 8180, 8160, 8165, 8153, 8173, 8157, 8157, 8193, 8161, 8144, 8131, 8145, 8113,0.24372482299804688
57, 8129, 8180, 8160, 8165, 8153, 8173, 8157, 8157, 8193, 8161, 8144, 8131, 8145, 8113,0.24372482299804688
58, 8132, 8159, 8160, 8142, 8147, 8186, 8146, 8185, 8171, 8154, 8185, 8192, 8195, 8112,0.2517249584197998
58, 8132, 8159, 8160, 8142, 8147, 8186, 8146, 8185, 8171, 8154, 8185, 8192, 8195, 8112,0.2517249584197998
59, 8077, 8138, 8135, 8123, 8152, 8138, 8130, 8122, 8132, 8151, 8135, 8100, 8139, 8084,0.25972700119018555
59, 8077, 8138, 8135, 8123, 8152, 8138, 8130, 8122, 8132, 8151, 8135, 8100, 8139, 8084,0.25972700119018555
60, 8114, 8144, 8136, 8123, 8123, 8174, 8094, 8183, 8113, 8125, 8162, 8143, 8169, 8083,0.26763916015625
60, 8114, 8144, 8136, 8123, 8123, 8174, 8094, 8183, 8113, 8125, 8162, 8143, 8169, 8083,0.26763916015625
61, 8130, 8161, 8155, 8135, 8109, 8180, 8110, 8178, 8137, 8126, 8167, 8167, 8177, 8087,0.2747378349304199
61, 8130, 8161, 8155, 8135, 8109, 8180, 8110, 8178, 8137, 8126, 8167, 8167, 8177, 8087,0.2747378349304199
62, 8106, 8142, 8147, 8124, 8128, 8164, 8150, 8138, 8166, 8147, 8157, 8140, 8154, 8104,0.2830049991607666
62, 8106, 8142, 8147, 8124, 8128, 8164, 8150, 8138, 8166, 8147, 8157, 8140, 8154, 8104,0.2830049991607666
63, 8110, 8116, 8138, 8101, 8127, 8181, 8112, 8178, 8126, 8113, 8175, 8167, 8190, 8098,0.290987491607666
63, 8110, 8116, 8138, 8101, 8127, 8181, 8112, 8178, 8126, 8113, 8175, 8167, 8190, 8098,0.290987491607666
64, 8094, 8136, 8138, 8113, 8118, 8154, 8080, 8146, 8096, 8100, 8135, 8110, 8154, 8066,0.2986879348754883
64, 8094, 8136, 8138, 8113, 8118, 8154, 8080, 8146, 8096, 8100, 8135, 8110, 8154, 8066,0.2986879348754883
65, 8124, 8163, 8146, 8122, 8096, 8180, 8088, 8160, 8088, 8115, 8159, 8151, 8162, 8075,0.30672597885131836
65, 8124, 8163, 8146, 8122, 8096, 8180, 8088, 8160, 8088, 8115, 8159, 8151, 8162, 8075,0.30672597885131836
66, 8123, 8157, 8146, 8110, 8111, 8172, 8107, 8151, 8096, 8128, 8161, 8162, 8168, 8087,0.3153493404388428
66, 8123, 8157, 8146, 8110, 8111, 8172, 8107, 8151, 8096, 8128, 8161, 8162, 8168, 8087,0.3153493404388428
67, 8106, 8145, 8131, 8098, 8142, 8157, 8100, 8155, 8086, 8105, 8149, 8127, 8159, 8076,0.3222651481628418
67, 8106, 8145, 8131, 8098, 8142, 8157, 8100, 8155, 8086, 8105, 8149, 8127, 8159, 8076,0.3222651481628418
68, 8124, 8139, 8133, 8093, 8103, 8194, 8063, 8187, 8049, 8052, 8160, 8144, 8173, 8048,0.3302617073059082
68, 8124, 8139, 8133, 8093, 8103, 8194, 8063, 8187, 8049, 8052, 8160, 8144, 8173, 8048,0.3302617073059082
69, 8105, 8142, 8140, 8101, 8082, 8168, 8083, 8118, 8078, 8081, 8127, 8098, 8126, 8051,0.33768677711486816
69, 8105, 8142, 8140, 8101, 8082, 8168, 8083, 8118, 8078, 8081, 8127, 8098, 8126, 8051,0.33768677711486816
70, 8120, 8133, 8132, 8084, 8095, 8180, 8078, 8162, 8067, 8089, 8171, 8162, 8180, 8089,0.3457162380218506
70, 8120, 8133, 8132, 8084, 8095, 8180, 8078, 8162, 8067, 8089, 8171, 8162, 8180, 8089,0.3457162380218506
71, 8102, 8114, 8114, 8068, 8102, 8163, 8044, 8175, 8026, 8052, 8152, 8139, 8182, 8053,0.3537290096282959
71, 8102, 8114, 8114, 8068, 8102, 8163, 8044, 8175, 8026, 8052, 8152, 8139, 8182, 8053,0.3537290096282959
72, 8098, 8129, 8124, 8090, 8100, 8156, 8058, 8150, 8054, 8064, 8134, 8096, 8144, 8032,0.3617222309112549
72, 8098, 8129, 8124, 8090, 8100, 8156, 8058, 8150, 8054, 8064, 8134, 8096, 8144, 8032,0.3617222309112549
73, 8135, 8148, 8146, 8100, 8085, 8196, 8071, 8178, 8070, 8077, 8173, 8167, 8185, 8062,0.3692741394042969
73, 8135, 8148, 8146, 8100, 8085, 8196, 8071, 8178, 8070, 8077, 8173, 8167, 8185, 8062,0.3692741394042969
74, 8095, 8145, 8130, 8088, 8102, 8158, 8072, 8121, 8059, 8082, 8132, 8107, 8149, 8063,0.3772718906402588
74, 8095, 8145, 8130, 8088, 8102, 8158, 8072, 8121, 8059, 8082, 8132, 8107, 8149, 8063,0.3772718906402588
75, 8095, 8131, 8103, 8066, 8088, 8176, 8031, 8173, 8017, 8045, 8158, 8125, 8178, 8044,0.38571715354919434
75, 8095, 8131, 8103, 8066, 8088, 8176, 8031, 8173, 8017, 8045, 8158, 8125, 8178, 8044,0.38571715354919434
76, 8082, 8121, 8095, 8054, 8055, 8169, 8007, 8163, 8015, 8026, 8132, 8097, 8153, 7993,0.3937222957611084
76, 8082, 8121, 8095, 8054, 8055, 8169, 8007, 8163, 8015, 8026, 8132, 8097, 8153, 7993,0.3937222957611084
77, 8075, 8139, 8114, 8067, 8066, 8156, 8026, 8126, 8047, 8051, 8127, 8093, 8132, 8006,0.4007439613342285
77, 8075, 8139, 8114, 8067, 8066, 8156, 8026, 8126, 8047, 8051, 8127, 8093, 8132, 8006,0.4007439613342285
78, 8112, 8149, 8132, 8077, 8081, 8186, 8024, 8191, 8033, 8038, 8194, 8189, 8207, 8057,0.40874195098876953
78, 8112, 8149, 8132, 8077, 8081, 8186, 8024, 8191, 8033, 8038, 8194, 8189, 8207, 8057,0.40874195098876953
79, 8087, 8144, 8131, 8086, 8101, 8151, 8038, 8145, 8034, 8050, 8145, 8111, 8158, 8054,0.41659021377563477
79, 8087, 8144, 8131, 8086, 8101, 8151, 8038, 8145, 8034, 8050, 8145, 8111, 8158, 8054,0.41659021377563477
80, 8109, 8152, 8141, 8094, 8078, 8186, 8024, 8177, 8032, 8061, 8160, 8144, 8167, 8047,0.42459821701049805
80, 8109, 8152, 8141, 8094, 8078, 8186, 8024, 8177, 8032, 8061, 8160, 8144, 8167, 8047,0.42459821701049805
81, 8115, 8168, 8147, 8098, 8068, 8179, 8023, 8159, 8052, 8084, 8158, 8153, 8157, 8048,0.4327218532562256
81, 8115, 8168, 8147, 8098, 8068, 8179, 8023, 8159, 8052, 8084, 8158, 8153, 8157, 8048,0.4327218532562256
82, 8104, 8160, 8145, 8093, 8108, 8147, 8061, 8113, 8089, 8119, 8157, 8125, 8141, 8088,0.4406318664550781
82, 8104, 8160, 8145, 8093, 8108, 8147, 8061, 8113, 8089, 8119, 8157, 8125, 8141, 8088,0.4406318664550781
83, 8118, 8136, 8138, 8073, 8096, 8184, 8043, 8189, 8048, 8078, 8198, 8184, 8207, 8088,0.44867372512817383
83, 8118, 8136, 8138, 8073, 8096, 8184, 8043, 8189, 8048, 8078, 8198, 8184, 8207, 8088,0.44867372512817383
84, 8072, 8136, 8123, 8081, 8078, 8153, 8042, 8146, 8050, 8068, 8125, 8082, 8139, 8024,0.45646190643310547
84, 8072, 8136, 8123, 8081, 8078, 8153, 8042, 8146, 8050, 8068, 8125, 8082, 8139, 8024,0.45646190643310547
85, 8089, 8136, 8123, 8075, 8074, 8175, 8052, 8157, 8080, 8080, 8144, 8114, 8152, 8033,0.46362829208374023
85, 8089, 8136, 8123, 8075, 8074, 8175, 8052, 8157, 8080, 8080, 8144, 8114, 8152, 8033,0.46362829208374023
86, 8090, 8121, 8116, 8054, 8094, 8172, 8057, 8154, 8072, 8063, 8157, 8139, 8175, 8054,0.471635103225708
86, 8090, 8121, 8116, 8054, 8094, 8172, 8057, 8154, 8072, 8063, 8157, 8139, 8175, 8054,0.471635103225708
87, 8071, 8126, 8110, 8070, 8127, 8148, 8067, 8130, 8068, 8056, 8128, 8085, 8142, 8046,0.47971606254577637
87, 8071, 8126, 8110, 8070, 8127, 8148, 8067, 8130, 8068, 8056, 8128, 8085, 8142, 8046,0.47971606254577637
88, 8101, 8140, 8115, 8081, 8093, 8189, 8042, 8194, 8058, 8048, 8158, 8147, 8174, 8029,0.48772192001342773
88, 8101, 8140, 8115, 8081, 8093, 8189, 8042, 8194, 8058, 8048, 8158, 8147, 8174, 8029,0.48772192001342773
89, 8072, 8144, 8109, 8078, 8081, 8155, 8070, 8121, 8090, 8091, 8127, 8094, 8123, 8023,0.4957273006439209
89, 8072, 8144, 8109, 8078, 8081, 8155, 8070, 8121, 8090, 8091, 8127, 8094, 8123, 8023,0.4957273006439209
90, 8101, 8146, 8114, 8068, 8103, 8174, 8089, 8155, 8094, 8096, 8173, 8143, 8170, 8071,0.5037436485290527
90, 8101, 8146, 8114, 8068, 8103, 8174, 8089, 8155, 8094, 8096, 8173, 8143, 8170, 8071,0.5037436485290527
91, 8107, 8140, 8119, 8062, 8105, 8178, 8062, 8193, 8063, 8057, 8158, 8148, 8184, 8056,0.5117509365081787
91, 8107, 8140, 8119, 8062, 8105, 8178, 8062, 8193, 8063, 8057, 8158, 8148, 8184, 8056,0.5117509365081787
92, 8073, 8139, 8122, 8083, 8096, 8154, 8065, 8125, 8080, 8073, 8108, 8076, 8112, 8021,0.519721508026123
92, 8073, 8139, 8122, 8083, 8096, 8154, 8065, 8125, 8080, 8073, 8108, 8076, 8112, 8021,0.519721508026123
93, 8114, 8149, 8135, 8091, 8090, 8195, 8076, 8169, 8094, 8081, 8180, 8172, 8173, 8062,0.527277946472168
93, 8114, 8149, 8135, 8091, 8090, 8195, 8076, 8169, 8094, 8081, 8180, 8172, 8173, 8062,0.527277946472168
94, 8097, 8169, 8142, 8104, 8143, 8148, 8106, 8131, 8115, 8095, 8155, 8132, 8159, 8091,0.534282922744751
94, 8097, 8169, 8142, 8104, 8143, 8148, 8106, 8131, 8115, 8095, 8155, 8132, 8159, 8091,0.534282922744751
95, 8111, 8187, 8151, 8125, 8159, 8161, 8105, 8165, 8118, 8098, 8162, 8144, 8176, 8098,0.542722225189209
95, 8111, 8187, 8151, 8125, 8159, 8161, 8105, 8165, 8118, 8098, 8162, 8144, 8176, 8098,0.542722225189209
96, 8125, 8184, 8143, 8124, 8131, 8184, 8105, 8186, 8123, 8110, 8163, 8166, 8178, 8080,0.5507218837738037
96, 8125, 8184, 8143, 8124, 8131, 8184, 8105, 8186, 8123, 8110, 8163, 8166, 8178, 8080,0.5507218837738037
97, 8100, 8173, 8133, 8124, 8155, 8153, 8154, 8116, 8174, 8158, 8132, 8113, 8126, 8095,0.55867600440979
97, 8100, 8173, 8133, 8124, 8155, 8153, 8154, 8116, 8174, 8158, 8132, 8113, 8126, 8095,0.55867600440979
98, 8133, 8180, 8144, 8122, 8167, 8191, 8148, 8194, 8164, 8148, 8178, 8186, 8193, 8125,0.5666718482971191
98, 8133, 8180, 8144, 8122, 8167, 8191, 8148, 8194, 8164, 8148, 8178, 8186, 8193, 8125,0.5666718482971191
99, 8109, 8196, 8153, 8141, 8173, 8158, 8138, 8155, 8148, 8154, 8133, 8125, 8148, 8094,0.5747222900390625
99, 8109, 8196, 8153, 8141, 8173, 8158, 8138, 8155, 8148, 8154, 8133, 8125, 8148, 8094,0.5747222900390625
100, 8125, 8206, 8161, 8160, 8163, 8168, 8149, 8133, 8167, 8176, 8154, 8145, 8144, 8109,0.5827229022979736
100, 8125, 8206, 8161, 8160, 8163, 8168, 8149, 8133, 8167, 8176, 8154, 8145, 8144, 8109,0.5827229022979736
101, 8149, 8195, 8155, 8142, 8171, 8181, 8165, 8169, 8179, 8178, 8183, 8194, 8191, 8145,0.590721607208252
101, 8149, 8195, 8155, 8142, 8171, 8181, 8165, 8169, 8179, 8178, 8183, 8194, 8191, 8145,0.590721607208252
102, 8115, 8193, 8150, 8140, 8214, 8132, 8190, 8137, 8206, 8197, 8152, 8134, 8159, 8154,0.5977063179016113
102, 8115, 8193, 8150, 8140, 8214, 8132, 8190, 8137, 8206, 8197, 8152, 8134, 8159, 8154,0.5977063179016113
103, 8141, 8195, 8153, 8141, 8174, 8174, 8142, 8210, 8172, 8157, 8183, 8192, 8191, 8139,0.605830192565918
103, 8141, 8195, 8153, 8141, 8174, 8174, 8142, 8210, 8172, 8157, 8183, 8192, 8191, 8139,0.605830192565918
104, 8124, 8193, 8152, 8150, 8153, 8154, 8125, 8153, 8159, 8143, 8131, 8133, 8135, 8102,0.6138312816619873
104, 8124, 8193, 8152, 8150, 8153, 8154, 8125, 8153, 8159, 8143, 8131, 8133, 8135, 8102,0.6138312816619873
105, 8140, 8204, 8171, 8172, 8179, 8158, 8161, 8123, 8186, 8180, 8159, 8151, 8139, 8136,0.6217164993286133
105, 8140, 8204, 8171, 8172, 8179, 8158, 8161, 8123, 8186, 8180, 8159, 8151, 8139, 8136,0.6217164993286133
106, 8164, 8202, 8171, 8164, 8167, 8177, 8168, 8180, 8168, 8170, 8194, 8206, 8193, 8165,0.6297523975372314
106, 8164, 8202, 8171, 8164, 8167, 8177, 8168, 8180, 8168, 8170, 8194, 8206, 8193, 8165,0.6297523975372314
107, 8115, 8181, 8149, 8153, 8173, 8129, 8168, 8138, 8154, 8152, 8139, 8125, 8144, 8127,0.6377527713775635
107, 8115, 8181, 8149, 8153, 8173, 8129, 8168, 8138, 8154, 8152, 8139, 8125, 8144, 8127,0.6377527713775635
108, 8134, 8159, 8135, 8134, 8161, 8177, 8132, 8182, 8128, 8119, 8164, 8172, 8171, 8093,0.6457638740539551
108, 8134, 8159, 8135, 8134, 8161, 8177, 8132, 8182, 8128, 8119, 8164, 8172, 8171, 8093,0.6457638740539551
109, 8120, 8157, 8124, 8125, 8160, 8164, 8139, 8135, 8136, 8128, 8144, 8138, 8146, 8088,0.6537635326385498
109, 8120, 8157, 8124, 8125, 8160, 8164, 8139, 8135, 8136, 8128, 8144, 8138, 8146, 8088,0.6537635326385498
110, 8113, 8157, 8125, 8131, 8166, 8155, 8161, 8134, 8140, 8139, 8166, 8150, 8158, 8120,0.6609470844268799
110, 8113, 8157, 8125, 8131, 8166, 8155, 8161, 8134, 8140, 8139, 8166, 8150, 8158, 8120,0.6609470844268799
111, 8128, 8139, 8112, 8107, 8130, 8184, 8114, 8203, 8103, 8087, 8160, 8174, 8182, 8085,0.6689467430114746
111, 8128, 8139, 8112, 8107, 8130, 8184, 8114, 8203, 8103, 8087, 8160, 8174, 8182, 8085,0.6689467430114746
112, 8093, 8143, 8095, 8102, 8131, 8145, 8113, 8114, 8128, 8103, 8107, 8086, 8110, 8042,0.676950216293335
112, 8093, 8143, 8095, 8102, 8131, 8145, 8113, 8114, 8128, 8103, 8107, 8086, 8110, 8042,0.676950216293335
113, 8138, 8161, 8112, 8119, 8142, 8181, 8141, 8157, 8147, 8124, 8183, 8177, 8179, 8096,0.6847219467163086
113, 8138, 8161, 8112, 8119, 8142, 8181, 8141, 8157, 8147, 8124, 8183, 8177, 8179, 8096,0.6847219467163086
114, 8142, 8165, 8131, 8136, 8151, 8153, 8165, 8174, 8157, 8126, 8168, 8167, 8183, 8117,0.6924426555633545
114, 8142, 8165, 8131, 8136, 8151, 8153, 8165, 8174, 8157, 8126, 8168, 8167, 8183, 8117,0.6924426555633545
115, 8142, 8177, 8151, 8151, 8159, 8140, 8163, 8160, 8174, 8150, 8160, 8148, 8162, 8121,0.7005312442779541
115, 8142, 8177, 8151, 8151, 8159, 8140, 8163, 8160, 8174, 8150, 8160, 8148, 8162, 8121,0.7005312442779541
116, 8185, 8185, 8173, 8155, 8157, 8188, 8143, 8203, 8165, 8148, 8177, 8193, 8187, 8130,0.7086856365203857
116, 8185, 8185, 8173, 8155, 8157, 8188, 8143, 8203, 8165, 8148, 8177, 8193, 8187, 8130,0.7086856365203857
117, 8157, 8191, 8179, 8175, 8183, 8155, 8177, 8132, 8197, 8176, 8143, 8133, 8125, 8128,0.7161893844604492
117, 8157, 8191, 8179, 8175, 8183, 8155, 8177, 8132, 8197, 8176, 8143, 8133, 8125, 8128,0.7161893844604492
118, 8182, 8198, 8184, 8181, 8177, 8186, 8172, 8169, 8194, 8181, 8199, 8209, 8172, 8156,0.7241902351379395
118, 8182, 8198, 8184, 8181, 8177, 8186, 8172, 8169, 8194, 8181, 8199, 8209, 8172, 8156,0.7241902351379395
119, 8173, 8189, 8178, 8169, 8178, 8158, 8172, 8158, 8173, 8177, 8176, 8189, 8178, 8158,0.7317218780517578
119, 8173, 8189, 8178, 8169, 8178, 8158, 8172, 8158, 8173, 8177, 8176, 8189, 8178, 8158,0.7317218780517578
120, 8147, 8169, 8166, 8169, 8186, 8136, 8183, 8140, 8170, 8168, 8163, 8154, 8161, 8147,0.7391877174377441
120, 8147, 8169, 8166, 8169, 8186, 8136, 8183, 8140, 8170, 8168, 8163, 8154, 8161, 8147,0.7391877174377441
121, 8164, 8152, 8155, 8152, 8142, 8186, 8133, 8206, 8143, 8122, 8172, 8199, 8181, 8113,0.7477221488952637
121, 8164, 8152, 8155, 8152, 8142, 8186, 8133, 8206, 8143, 8122, 8172, 8199, 8181, 8113,0.7477221488952637
122, 8118, 8143, 8141, 8139, 8143, 8151, 8137, 8121, 8158, 8137, 8126, 8135, 8122, 8088,0.7557229995727539
122, 8118, 8143, 8141, 8139, 8143, 8151, 8137, 8121, 8158, 8137, 8126, 8135, 8122, 8088,0.7557229995727539
123, 8132, 8122, 8128, 8114, 8134, 8176, 8132, 8156, 8131, 8116, 8181, 8192, 8179, 8105,0.7637948989868164
123, 8132, 8122, 8128, 8114, 8134, 8176, 8132, 8156, 8131, 8116, 8181, 8192, 8179, 8105,0.7637948989868164
124, 8130, 8111, 8120, 8101, 8110, 8160, 8113, 8187, 8099, 8080, 8158, 8177, 8179, 8080,0.7718029022216797
124, 8130, 8111, 8120, 8101, 8110, 8160, 8113, 8187, 8099, 8080, 8158, 8177, 8179, 8080,0.7718029022216797
125, 8123, 8145, 8136, 8132, 8135, 8145, 8132, 8151, 8141, 8109, 8143, 8144, 8140, 8079,0.7798187732696533
125, 8123, 8145, 8136, 8132, 8135, 8145, 8132, 8151, 8141, 8109, 8143, 8144, 8140, 8079,0.7798187732696533
126, 8168, 8164, 8154, 8140, 8135, 8197, 8131, 8196, 8143, 8123, 8196, 8220, 8192, 8109,0.7878270149230957
126, 8168, 8164, 8154, 8140, 8135, 8197, 8131, 8196, 8143, 8123, 8196, 8220, 8192, 8109,0.7878270149230957
127, 8140, 8156, 8157, 8141, 8142, 8155, 8150, 8145, 8153, 8145, 8164, 8176, 8166, 8123,0.7943170070648193
127, 8140, 8156, 8157, 8141, 8142, 8155, 8150, 8145, 8153, 8145, 8164, 8176, 8166, 8123,0.795342206954956
240, 8158, 8168, 8167, 8152, 8140, 8182, 8134, 8203, 8147, 8125, 8184, 8218, 8197, 8133,0.8027219772338867
240, 8158, 8168, 8167, 8152, 8140, 8182, 8134, 8203, 8147, 8125, 8184, 8218, 8197, 8133,0.8027219772338867
0, 8159, 8180, 8172, 8163, 8121, 8188, 8111, 8201, 8126, 8116, 8165, 8195, 8175, 8101,0.8106818199157715
0, 8159, 8180, 8172, 8163, 8121, 8188, 8111, 8201, 8126, 8116, 8165, 8195, 8175, 8101,0.8106818199157715
1, 8137, 8180, 8180, 8171, 8126, 8164, 8142, 8120, 8151, 8160, 8158, 8153, 8139, 8110,0.8182840347290039
1, 8137, 8180, 8180, 8171, 8126, 8164, 8142, 8120, 8151, 8160, 8158, 8153, 8139, 8110,0.8182840347290039
2, 8175, 8163, 8176, 8137, 8120, 8200, 8136, 8201, 8121, 8118, 8199, 8237, 8210, 8137,0.8262853622436523
2, 8175, 8163, 8176, 8137, 8120, 8200, 8136, 8201, 8121, 8118, 8199, 8237, 8210, 8137,0.8262853622436523
3, 8131, 8147, 8146, 8116, 8130, 8147, 8124, 8177, 8087, 8079, 8147, 8158, 8168, 8090,0.8347222805023193
3, 8131, 8147, 8146, 8116, 8130, 8147, 8124, 8177, 8087, 8079, 8147, 8158, 8168, 8090,0.8347222805023193
4, 8138, 8151, 8150, 8131, 8121, 8180, 8103, 8192, 8080, 8074, 8173, 8170, 8177, 8061,0.8429429531097412
4, 8138, 8151, 8150, 8131, 8121, 8180, 8103, 8192, 8080, 8074, 8173, 8170, 8177, 8061,0.8429429531097412
5, 8161, 8162, 8168, 8138, 8111, 8211, 8112, 8199, 8091, 8066, 8180, 8211, 8192, 8074,0.8509454727172852
5, 8161, 8162, 8168, 8138, 8111, 8211, 8112, 8199, 8091, 8066, 8180, 8211, 8192, 8074,0.8509454727172852
6, 8147, 8171, 8170, 8139, 8130, 8174, 8149, 8155, 8098, 8078, 8163, 8182, 8169, 8107,0.8578982353210449
6, 8147, 8171, 8170, 8139, 8130, 8174, 8149, 8155, 8098, 8078, 8163, 8182, 8169, 8107,0.8578982353210449
7, 8184, 8165, 8168, 8122, 8114, 8208, 8112, 8240, 8055, 8075, 8200, 8231, 8226, 8108,0.8657219409942627
7, 8184, 8165, 8168, 8122, 8114, 8208, 8112, 8240, 8055, 8075, 8200, 8231, 8226, 8108,0.8657219409942627
8, 8151, 8164, 8159, 8122, 8128, 8170, 8112, 8177, 8095, 8109, 8151, 8164, 8169, 8074,0.8739533424377441
8, 8151, 8164, 8159, 8122, 8128, 8170, 8112, 8177, 8095, 8109, 8151, 8164, 8169, 8074,0.8739533424377441
9, 8162, 8175, 8164, 8133, 8128, 8181, 8134, 8164, 8137, 8106, 8170, 8187, 8174, 8103,0.8815414905548096
9, 8162, 8175, 8164, 8133, 8128, 8181, 8134, 8164, 8137, 8106, 8170, 8187, 8174, 8103,0.8815414905548096
10, 8188, 8173, 8172, 8126, 8098, 8190, 8113, 8218, 8098, 8075, 8182, 8219, 8212, 8117,0.8895378112792969
10, 8188, 8173, 8172, 8126, 8098, 8190, 8113, 8218, 8098, 8075, 8182, 8219, 8212, 8117,0.8905339241027832
11, 8160, 8182, 8184, 8143, 8130, 8152, 8124, 8167, 8113, 8119, 8145, 8157, 8158, 8098,0.8970465660095215
11, 8160, 8182, 8184, 8143, 8130, 8152, 8124, 8167, 8113, 8119, 8145, 8157, 8158, 8098,0.8970465660095215
12, 8206, 8196, 8204, 8155, 8141, 8212, 8137, 8205, 8145, 8138, 8196, 8226, 8194, 8120,0.9060468673706055
12, 8206, 8196, 8204, 8155, 8141, 8212, 8137, 8205, 8145, 8138, 8196, 8226, 8194, 8120,0.9060468673706055
13, 8188, 8195, 8198, 8159, 8149, 8178, 8168, 8158, 8155, 8154, 8183, 8192, 8176, 8140,0.9130458831787109
13, 8188, 8195, 8198, 8159, 8149, 8178, 8168, 8158, 8155, 8154, 8183, 8192, 8176, 8140,0.9130458831787109
14, 8172, 8183, 8179, 8157, 8147, 8174, 8156, 8168, 8116, 8145, 8173, 8175, 8175, 8129,0.9220457077026367
14, 8172, 8183, 8179, 8157, 8147, 8174, 8156, 8168, 8116, 8145, 8173, 8175, 8175, 8129,0.9220457077026367
15, 8188, 8179, 8166, 8142, 8116, 8202, 8123, 8211, 8091, 8112, 8173, 8202, 8189, 8095,0.9280445575714111
15, 8188, 8179, 8166, 8142, 8116, 8202, 8123, 8211, 8091, 8112, 8173, 8202, 8189, 8095,0.9280445575714111
16, 8156, 8189, 8170, 8154, 8150, 8147, 8165, 8121, 8142, 8136, 8152, 8147, 8136, 8108,0.936046838760376
16, 8156, 8189, 8170, 8154, 8150, 8147, 8165, 8121, 8142, 8136, 8152, 8147, 8136, 8108,0.936046838760376
17, 8179, 8175, 8170, 8143, 8161, 8183, 8155, 8185, 8112, 8106, 8186, 8193, 8184, 8127,0.9440443515777588
17, 8179, 8175, 8170, 8143, 8161, 8183, 8155, 8185, 8112, 8106, 8186, 8193, 8184, 8127,0.9440443515777588
18, 8155, 8166, 8155, 8131, 8131, 8169, 8130, 8174, 8084, 8095, 8141, 8146, 8155, 8083,0.9520471096038818
18, 8155, 8166, 8155, 8131, 8131, 8169, 8130, 8174, 8084, 8095, 8141, 8146, 8155, 8083,0.9530446529388428
19, 8161, 8196, 8165, 8158, 8113, 8167, 8160, 8136, 8138, 8153, 8147, 8132, 8128, 8095,0.9600446224212646
19, 8161, 8196, 8165, 8158, 8113, 8167, 8160, 8136, 8138, 8153, 8147, 8132, 8128, 8095,0.9600446224212646
20, 8198, 8200, 8171, 8156, 8124, 8195, 8178, 8180, 8171, 8165, 8189, 8194, 8175, 8126,0.9690465927124023
20, 8198, 8200, 8171, 8156, 8124, 8195, 8178, 8180, 8171, 8165, 8189, 8194, 8175, 8126,0.9690465927124023
21, 8147, 8174, 8154, 8141, 8162, 8144, 8187, 8106, 8182, 8171, 8146, 8123, 8132, 8102,0.976722240447998
21, 8147, 8174, 8154, 8141, 8162, 8144, 8187, 8106, 8182, 8171, 8146, 8123, 8132, 8102,0.976722240447998
22, 8170, 8163, 8155, 8137, 8148, 8180, 8156, 8152, 8125, 8143, 8172, 8165, 8167, 8097,0.9843935966491699
22, 8170, 8163, 8155, 8137, 8148, 8180, 8156, 8152, 8125, 8143, 8172, 8165, 8167, 8097,0.9843935966491699
23, 8162, 8164, 8158, 8141, 8147, 8161, 8151, 8156, 8088, 8125, 8163, 8160, 8168, 8099,0.9913907051086426
23, 8162, 8164, 8158, 8141, 8147, 8161, 8151, 8156, 8088, 8125, 8163, 8160, 8168, 8099,0.9913907051086426
24, 8136, 8161, 8154, 8142, 8141, 8150, 8149, 8133, 8093, 8122, 8146, 8122, 8144, 8095,0.9994649887084961
24, 8136, 8161, 8154, 8142, 8141, 8150, 8149, 8133, 8093, 8122, 8146, 8122, 8144, 8095,0.9994649887084961
25, 8162, 8148, 8156, 8121, 8094, 8188, 8108, 8199, 8078, 8071, 8170, 8176, 8183, 8085,1.0077226161956787
25, 8162, 8148, 8156, 8121, 8094, 8188, 8108, 8199, 8078, 8071, 8170, 8176, 8183, 8085,1.0077226161956787
26, 8139, 8144, 8167, 8129, 8132, 8138, 8136, 8141, 8116, 8099, 8140, 8132, 8145, 8082,1.0156855583190918
26, 8139, 8144, 8167, 8129, 8132, 8138, 8136, 8141, 8116, 8099, 8140, 8132, 8145, 8082,1.0156855583190918
27, 8163, 8143, 8173, 8132, 8148, 8178, 8131, 8180, 8103, 8122, 8163, 8161, 8166, 8078,1.0236926078796387
27, 8163, 8143, 8173, 8132, 8148, 8178, 8131, 8180, 8103, 8122, 8163, 8161, 8166, 8078,1.0236926078796387
28, 8143, 8134, 8152, 8114, 8118, 8172, 8100, 8170, 8066, 8086, 8139, 8148, 8145, 8034,1.0317292213439941
28, 8143, 8134, 8152, 8114, 8118, 8172, 8100, 8170, 8066, 8086, 8139, 8148, 8145, 8034,1.0317292213439941
29, 8132, 8150, 8154, 8131, 8124, 8150, 8134, 8120, 8110, 8097, 8132, 8125, 8118, 8057,1.039721965789795
29, 8132, 8150, 8154, 8131, 8124, 8150, 8134, 8120, 8110, 8097, 8132, 8125, 8118, 8057,1.039721965789795
30, 8184, 8161, 8180, 8138, 8124, 8195, 8156, 8190, 8128, 8111, 8190, 8202, 8190, 8114,1.0477190017700195
30, 8184, 8161, 8180, 8138, 8124, 8195, 8156, 8190, 8128, 8111, 8190, 8202, 8190, 8114,1.0477190017700195
31, 8142, 8155, 8171, 8127, 8154, 8152, 8160, 8140, 8122, 8116, 8156, 8146, 8151, 8095,1.054758071899414
31, 8142, 8155, 8171, 8127, 8154, 8152, 8160, 8140, 8122, 8116, 8156, 8146, 8151, 8095,1.054758071899414
32, 8153, 8162, 8161, 8112, 8146, 8188, 8127, 8168, 8105, 8091, 8162, 8158, 8148, 8071,1.0627546310424805
32, 8153, 8162, 8161, 8112, 8146, 8188, 8127, 8168, 8105, 8091, 8162, 8158, 8148, 8071,1.0627546310424805
33, 8155, 8157, 8154, 8113, 8123, 8183, 8124, 8161, 8103, 8092, 8166, 8169, 8152, 8064,1.0707225799560547
33, 8155, 8157, 8154, 8113, 8123, 8183, 8124, 8161, 8103, 8092, 8166, 8169, 8152, 8064,1.0707225799560547
34, 8132, 8154, 8149, 8113, 8151, 8145, 8147, 8112, 8110, 8112, 8159, 8140, 8143, 8079,1.0786850452423096
34, 8132, 8154, 8149, 8113, 8151, 8145, 8147, 8112, 8110, 8112, 8159, 8140, 8143, 8079,1.0786850452423096
35, 8172, 8169, 8166, 8079, 8128, 8194, 8123, 8210, 8090, 8078, 8186, 8202, 8197, 8090,1.0867700576782227
35, 8172, 8169, 8166, 8079, 8128, 8194, 8123, 8210, 8090, 8078, 8186, 8202, 8197, 8090,1.0867700576782227
36, 8136, 8172, 8178, 8108, 8108, 8162, 8141, 8159, 8129, 8094, 8137, 8144, 8131, 8068,1.0943036079406738
36, 8136, 8172, 8178, 8108, 8108, 8162, 8141, 8159, 8129, 8094, 8137, 8144, 8131, 8068,1.0943036079406738
37, 8146, 8158, 8193, 8146, 8107, 8186, 8135, 8150, 8132, 8102, 8157, 8159, 8141, 8073,1.10272216796875
37, 8146, 8158, 8193, 8146, 8107, 8186, 8135, 8150, 8132, 8102, 8157, 8159, 8141, 8073,1.10272216796875
38, 8159, 8161, 8199, 8129, 8114, 8163, 8115, 8164, 8094, 8095, 8179, 8191, 8185, 8084,1.1107227802276611
38, 8159, 8161, 8199, 8129, 8114, 8163, 8115, 8164, 8094, 8095, 8179, 8191, 8185, 8084,1.1107227802276611
39, 8128, 8174, 8196, 8144, 8146, 8100, 8144, 8115, 8117, 8125, 8149, 8138, 8139, 8090,1.1177215576171875
39, 8128, 8174, 8196, 8144, 8146, 8100, 8144, 8115, 8117, 8125, 8149, 8138, 8139, 8090,1.1177215576171875
40, 8159, 8158, 8195, 8158, 8138, 8164, 8110, 8188, 8115, 8087, 8169, 8184, 8159, 8082,1.1257429122924805
40, 8159, 8158, 8195, 8158, 8138, 8164, 8110, 8188, 8115, 8087, 8169, 8184, 8159, 8082,1.1257429122924805
41, 8131, 8153, 8192, 8158, 8125, 8136, 8108, 8120, 8139, 8105, 8133, 8136, 8112, 8065,1.133742094039917
41, 8131, 8153, 8192, 8158, 8125, 8136, 8108, 8120, 8139, 8105, 8133, 8136, 8112, 8065,1.133742094039917
42, 8147, 8172, 8198, 8159, 8102, 8154, 8137, 8104, 8143, 8154, 8147, 8140, 8120, 8101,1.141721248626709
42, 8147, 8172, 8198, 8159, 8102, 8154, 8137, 8104, 8143, 8154, 8147, 8140, 8120, 8101,1.141721248626709
43, 8168, 8169, 8195, 8144, 8107, 8186, 8124, 8171, 8090, 8125, 8172, 8189, 8173, 8116,1.1497220993041992
43, 8168, 8169, 8195, 8144, 8107, 8186, 8124, 8171, 8090, 8125, 8172, 8189, 8173, 8116,1.1497220993041992
44, 8131, 8165, 8193, 8152, 8146, 8152, 8130, 8134, 8118, 8112, 8148, 8138, 8137, 8094,1.1577599048614502
44, 8131, 8165, 8193, 8152, 8146, 8152, 8130, 8134, 8118, 8112, 8148, 8138, 8137, 8094,1.1577599048614502
45, 8168, 8161, 8197, 8163, 8116, 8203, 8114, 8174, 8131, 8095, 8178, 8177, 8164, 8084,1.1651091575622559
45, 8168, 8161, 8197, 8163, 8116, 8203, 8114, 8174, 8131, 8095, 8178, 8177, 8164, 8084,1.1661152839660645
46, 8151, 8166, 8200, 8164, 8143, 8170, 8136, 8130, 8129, 8131, 8164, 8158, 8152, 8099,1.1741158962249756
46, 8151, 8166, 8200, 8164, 8143, 8170, 8136, 8130, 8129, 8131, 8164, 8158, 8152, 8099,1.1741158962249756
47, 8171, 8186, 8230, 8185, 8190, 8171, 8164, 8157, 8140, 8166, 8187, 8168, 8173, 8148,1.1817216873168945
47, 8171, 8186, 8230, 8185, 8190, 8171, 8164, 8157, 8140, 8166, 8187, 8168, 8173, 8148,1.1817216873168945
48, 8207, 8194, 8249, 8204, 8155, 8202, 8141, 8215, 8140, 8151, 8200, 8202, 8191, 8145,1.1886851787567139
48, 8207, 8194, 8249, 8204, 8155, 8202, 8141, 8215, 8140, 8151, 8200, 8202, 8191, 8145,1.1886851787567139
49, 8162, 8198, 8240, 8212, 8144, 8167, 8168, 8121, 8184, 8191, 8161, 8147, 8124, 8132,1.1971604824066162
49, 8162, 8198, 8240, 8212, 8144, 8167, 8168, 8121, 8184, 8191, 8161, 8147, 8124, 8132,1.1971604824066162
50, 8186, 8183, 8237, 8193, 8141, 8213, 8166, 8173, 8176, 8175, 8201, 8202, 8177, 8147,1.2047312259674072
50, 8186, 8183, 8237, 8193, 8141, 8213, 8166, 8173, 8176, 8175, 8201, 8202, 8177, 8147,1.2047312259674072
51, 8167, 8158, 8230, 8179, 8154, 8176, 8144, 8167, 8144, 8141, 8173, 8168, 8168, 8114,1.2127306461334229
51, 8167, 8158, 8230, 8179, 8154, 8176, 8144, 8167, 8144, 8141, 8173, 8168, 8168, 8114,1.2127306461334229
52, 8170, 8166, 8237, 8198, 8167, 8178, 8150, 8153, 8154, 8151, 8164, 8153, 8149, 8108,1.220721960067749
52, 8170, 8166, 8237, 8198, 8167, 8178, 8150, 8153, 8154, 8151, 8164, 8153, 8149, 8108,1.220721960067749
53, 8199, 8174, 8245, 8201, 8143, 8204, 8159, 8192, 8164, 8150, 8198, 8207, 8191, 8136,1.228684425354004
53, 8199, 8174, 8245, 8201, 8143, 8204, 8159, 8192, 8164, 8150, 8198, 8207, 8191, 8136,1.228684425354004
54, 8151, 8161, 8234, 8198, 8154, 8150, 8147, 8138, 8152, 8145, 8166, 8144, 8155, 8130,1.2367212772369385
54, 8151, 8161, 8234, 8198, 8154, 8150, 8147, 8138, 8152, 8145, 8166, 8144, 8155, 8130,1.2367212772369385
55, 8182, 8155, 8235, 8190, 8152, 8209, 8089, 8202, 8102, 8099, 8180, 8181, 8181, 8103,1.244722843170166
55, 8182, 8155, 8235, 8190, 8152, 8209, 8089, 8202, 8102, 8099, 8180, 8181, 8181, 8103,1.244722843170166
56, 8180, 8169, 8241, 8194, 8144, 8198, 8117, 8159, 8129, 8114, 8163, 8177, 8159, 8097,1.2513837814331055
56, 8180, 8169, 8241, 8194, 8144, 8198, 8117, 8159, 8129, 8114, 8163, 8177, 8159, 8097,1.2523791790008545
57, 8170, 8164, 8235, 8194, 8136, 8175, 8139, 8128, 8135, 8134, 8165, 8161, 8147, 8123,1.259385347366333
57, 8170, 8164, 8235, 8194, 8136, 8175, 8139, 8128, 8135, 8134, 8165, 8161, 8147, 8123,1.259385347366333
58, 8176, 8137, 8213, 8163, 8096, 8195, 8065, 8207, 8069, 8073, 8181, 8200, 8189, 8092,1.2673919200897217
58, 8176, 8137, 8213, 8163, 8096, 8195, 8065, 8207, 8069, 8073, 8181, 8200, 8189, 8092,1.2673919200897217
59, 8135, 8149, 8213, 8175, 8099, 8158, 8072, 8135, 8120, 8092, 8141, 8137, 8133, 8055,1.2757222652435303
59, 8135, 8149, 8213, 8175, 8099, 8158, 8072, 8135, 8120, 8092, 8141, 8137, 8133, 8055,1.2757222652435303
60, 8178, 8168, 8237, 8185, 8107, 8206, 8092, 8156, 8137, 8117, 8183, 8190, 8163, 8105,1.2837235927581787
60, 8178, 8168, 8237, 8185, 8107, 8206, 8092, 8156, 8137, 8117, 8183, 8190, 8163, 8105,1.2837235927581787
61, 8169, 8155, 8233, 8174, 8120, 8180, 8094, 8159, 8076, 8096, 8177, 8194, 8173, 8126,1.2920575141906738
61, 8169, 8155, 8233, 8174, 8120, 8180, 8094, 8159, 8076, 8096, 8177, 8194, 8173, 8126,1.2920575141906738
62, 8163, 8164, 8239, 8201, 8119, 8175, 8104, 8151, 8086, 8098, 8157, 8155, 8149, 8114,1.2997291088104248
62, 8163, 8164, 8239, 8201, 8119, 8175, 8104, 8151, 8086, 8098, 8157, 8155, 8149, 8114,1.2997291088104248
63, 8210, 8190, 8252, 8212, 8099, 8213, 8107, 8199, 8127, 8113, 8191, 8208, 8184, 8131,1.3074605464935303
63, 8210, 8190, 8252, 8212, 8099, 8213, 8107, 8199, 8127, 8113, 8191, 8208, 8184, 8131,1.3074605464935303
64, 8169, 8186, 8238, 8206, 8152, 8146, 8137, 8121, 8153, 8137, 8166, 8156, 8150, 8146,1.3144607543945312
64, 8169, 8186, 8238, 8206, 8152, 8146, 8137, 8121, 8153, 8137, 8166, 8156, 8150, 8146,1.3144607543945312
65, 8189, 8171, 8230, 8198, 8157, 8183, 8116, 8185, 8127, 8102, 8187, 8184, 8186, 8144,1.3224756717681885
65, 8189, 8171, 8230, 8198, 8157, 8183, 8116, 8185, 8127, 8102, 8187, 8184, 8186, 8144,1.3224756717681885
66, 8189, 8176, 8231, 8205, 8129, 8189, 8112, 8193, 8149, 8110, 8175, 8188, 8175, 8125,1.3304197788238525
66, 8189, 8176, 8231, 8205, 8129, 8189, 8112, 8193, 8149, 8110, 8175, 8188, 8175, 8125,1.3304197788238525
67, 8170, 8181, 8229, 8207, 8142, 8178, 8149, 8119, 8185, 8156, 8149, 8137, 8125, 8120,1.338442325592041
67, 8170, 8181, 8229, 8207, 8142, 8178, 8149, 8119, 8185, 8156, 8149, 8137, 8125, 8120,1.338442325592041
68, 8186, 8158, 8206, 8166, 8124, 8199, 8121, 8173, 8109, 8094, 8173, 8183, 8174, 8106,1.3465943336486816
68, 8186, 8158, 8206, 8166, 8124, 8199, 8121, 8173, 8109, 8094, 8173, 8183, 8174, 8106,1.3465943336486816
69, 8145, 8158, 8190, 8170, 8124, 8142, 8114, 8132, 8074, 8067, 8142, 8140, 8146, 8085,1.354722261428833
69, 8145, 8158, 8190, 8170, 8124, 8142, 8114, 8132, 8074, 8067, 8142, 8140, 8146, 8085,1.354722261428833
70, 8186, 8188, 8216, 8205, 8120, 8194, 8119, 8167, 8112, 8102, 8175, 8168, 8165, 8105,1.362480640411377
70, 8186, 8188, 8216, 8205, 8120, 8194, 8119, 8167, 8112, 8102, 8175, 8168, 8165, 8105,1.362480640411377
71, 8211, 8205, 8234, 8219, 8142, 8192, 8152, 8171, 8175, 8148, 8196, 8202, 8183, 8138,1.3704807758331299
71, 8211, 8205, 8234, 8219, 8142, 8192, 8152, 8171, 8175, 8148, 8196, 8202, 8183, 8138,1.3704807758331299
72, 8201, 8220, 8247, 8249, 8195, 8152, 8182, 8136, 8195, 8176, 8181, 8184, 8160, 8177,1.3786804676055908
72, 8201, 8220, 8247, 8249, 8195, 8152, 8182, 8136, 8195, 8176, 8181, 8184, 8160, 8177,1.3786804676055908
73, 8234, 8226, 8255, 8266, 8178, 8204, 8131, 8221, 8127, 8131, 8205, 8242, 8201, 8178,1.3857171535491943
73, 8234, 8226, 8255, 8266, 8178, 8204, 8131, 8221, 8127, 8131, 8205, 8242, 8201, 8178,1.3857171535491943
74, 8193, 8222, 8237, 8274, 8169, 8171, 8132, 8149, 8139, 8142, 8165, 8185, 8151, 8138,1.393228530883789
74, 8193, 8222, 8237, 8274, 8169, 8171, 8132, 8149, 8139, 8142, 8165, 8185, 8151, 8138,1.393228530883789
75, 8211, 8210, 8232, 8253, 8168, 8192, 8158, 8149, 8163, 8169, 8186, 8200, 8170, 8163,1.401669979095459
75, 8211, 8210, 8232, 8253, 8168, 8192, 8158, 8149, 8163, 8169, 8186, 8200, 8170, 8163,1.401669979095459
76, 8225, 8196, 8236, 8223, 8165, 8179, 8153, 8194, 8145, 8163, 8197, 8228, 8198, 8183,1.409674882888794
76, 8225, 8196, 8236, 8223, 8165, 8179, 8153, 8194, 8145, 8163, 8197, 8228, 8198, 8183,1.409674882888794
77, 8196, 8207, 8231, 8253, 8164, 8147, 8147, 8150, 8154, 8166, 8155, 8161, 8140, 8152,1.4177231788635254
77, 8196, 8207, 8231, 8253, 8164, 8147, 8147, 8150, 8154, 8166, 8155, 8161, 8140, 8152,1.4177231788635254
78, 8232, 8216, 8221, 8270, 8140, 8209, 8120, 8193, 8139, 8143, 8187, 8218, 8176, 8147,1.425722360610962
78, 8232, 8216, 8221, 8270, 8140, 8209, 8120, 8193, 8139, 8143, 8187, 8218, 8176, 8147,1.425722360610962
79, 8198, 8205, 8214, 8262, 8184, 8162, 8148, 8143, 8174, 8177, 8176, 8200, 8164, 8167,1.4337053298950195
79, 8198, 8205, 8214, 8262, 8184, 8162, 8148, 8143, 8174, 8177, 8176, 8200, 8164, 8167,1.4337053298950195
80, 8199, 8201, 8221, 8255, 8207, 8165, 8152, 8173, 8199, 8174, 8180, 8186, 8170, 8170,1.4417214393615723
80, 8199, 8201, 8221, 8255, 8207, 8165, 8152, 8173, 8199, 8174, 8180, 8186, 8170, 8170,1.4417214393615723
81, 8209, 8202, 8216, 8242, 8164, 8178, 8135, 8206, 8185, 8143, 8179, 8206, 8177, 8135,1.448685884475708
81, 8209, 8202, 8216, 8242, 8164, 8178, 8135, 8206, 8185, 8143, 8179, 8206, 8177, 8135,1.448685884475708
82, 8179, 8207, 8208, 8247, 8167, 8138, 8187, 8120, 8202, 8199, 8155, 8162, 8129, 8130,1.4567224979400635
82, 8179, 8207, 8208, 8247, 8167, 8138, 8187, 8120, 8202, 8199, 8155, 8162, 8129, 8130,1.4567224979400635
83, 8212, 8204, 8211, 8246, 8187, 8171, 8201, 8184, 8172, 8185, 8195, 8219, 8188, 8160,1.464721441268921
83, 8212, 8204, 8211, 8246, 8187, 8171, 8201, 8184, 8172, 8185, 8195, 8219, 8188, 8160,1.464721441268921
84, 8187, 8205, 8214, 8258, 8210, 8133, 8190, 8165, 8151, 8138, 8163, 8185, 8164, 8147,1.472599744796753
84, 8187, 8205, 8214, 8258, 8210, 8133, 8190, 8165, 8151, 8138, 8163, 8185, 8164, 8147,1.472599744796753
85, 8199, 8210, 8229, 8268, 8188, 8157, 8167, 8141, 8140, 8132, 8153, 8175, 8136, 8143,1.4806101322174072
85, 8199, 8210, 8229, 8268, 8188, 8157, 8167, 8141, 8140, 8132, 8153, 8175, 8136, 8143,1.4806101322174072
86, 8230, 8204, 8233, 8251, 8167, 8180, 8150, 8161, 8122, 8148, 8187, 8235, 8179, 8170,1.488685131072998
86, 8230, 8204, 8233, 8251, 8167, 8180, 8150, 8161, 8122, 8148, 8187, 8235, 8179, 8170,1.488685131072998
87, 8202, 8220, 8233, 8272, 8215, 8126, 8168, 8118, 8154, 8193, 8178, 8199, 8163, 8204,1.4967162609100342
87, 8202, 8220, 8233, 8272, 8215, 8126, 8168, 8118, 8154, 8193, 8178, 8199, 8163, 8204,1.4967162609100342
88, 8237, 8237, 8245, 8298, 8209, 8169, 8141, 8195, 8160, 8189, 8196, 8234, 8187, 8213,1.5047223567962646
88, 8237, 8237, 8245, 8298, 8209, 8169, 8141, 8195, 8160, 8189, 8196, 8234, 8187, 8213,1.5047223567962646
89, 8210, 8226, 8229, 8296, 8203, 8144, 8171, 8156, 8197, 8203, 8159, 8193, 8146, 8181,1.512721300125122
89, 8210, 8226, 8229, 8296, 8203, 8144, 8171, 8156, 8197, 8203, 8159, 8193, 8146, 8181,1.512721300125122
90, 8188, 8201, 8197, 8265, 8217, 8147, 8230, 8133, 8232, 8206, 8161, 8171, 8141, 8176,1.5194125175476074
90, 8188, 8201, 8197, 8265, 8217, 8147, 8230, 8133, 8232, 8206, 8161, 8171, 8141, 8176,1.5194125175476074
91, 8193, 8165, 8174, 8222, 8185, 8173, 8211, 8204, 8182, 8152, 8180, 8207, 8191, 8155,1.527411699295044
91, 8193, 8165, 8174, 8222, 8185, 8173, 8211, 8204, 8182, 8152, 8180, 8207, 8191, 8155,1.528341293334961
92, 8147, 8155, 8167, 8224, 8180, 8134, 8195, 8140, 8173, 8151, 8126, 8133, 8131, 8107,1.5357224941253662
92, 8147, 8155, 8167, 8224, 8180, 8134, 8195, 8140, 8173, 8151, 8126, 8133, 8131, 8107,1.5357224941253662
93, 8186, 8173, 8172, 8230, 8177, 8185, 8191, 8165, 8192, 8161, 8159, 8184, 8152, 8119,1.5437214374542236
93, 8186, 8173, 8172, 8230, 8177, 8185, 8191, 8165, 8192, 8161, 8159, 8184, 8152, 8119,1.5437214374542236
94, 8192, 8191, 8183, 8234, 8186, 8154, 8222, 8154, 8211, 8179, 8174, 8201, 8166, 8156,1.5513710975646973
94, 8192, 8191, 8183, 8234, 8186, 8154, 8222, 8154, 8211, 8179, 8174, 8201, 8166, 8156,1.5513710975646973
95, 8188, 8190, 8199, 8246, 8200, 8135, 8212, 8147, 8191, 8167, 8160, 8168, 8157, 8163,1.5593645572662354
95, 8188, 8190, 8199, 8246, 8200, 8135, 8212, 8147, 8191, 8167, 8160, 8168, 8157, 8163,1.5603630542755127
96, 8213, 8162, 8193, 8218, 8164, 8176, 8148, 8194, 8128, 8115, 8161, 8195, 8173, 8122,1.5679559707641602
96, 8213, 8162, 8193, 8218, 8164, 8176, 8148, 8194, 8128, 8115, 8161, 8195, 8173, 8122,1.5679559707641602
97, 8179, 8158, 8188, 8211, 8158, 8142, 8176, 8108, 8138, 8150, 8144, 8150, 8123, 8112,1.5757102966308594
97, 8179, 8158, 8188, 8211, 8158, 8142, 8176, 8108, 8138, 8150, 8144, 8150, 8123, 8112,1.5757102966308594
98, 8211, 8174, 8199, 8223, 8168, 8179, 8184, 8157, 8141, 8158, 8189, 8202, 8173, 8164,1.5827341079711914
98, 8211, 8174, 8199, 8223, 8168, 8179, 8184, 8157, 8141, 8158, 8189, 8202, 8173, 8164,1.5827341079711914
99, 8210, 8176, 8195, 8228, 8177, 8159, 8156, 8181, 8146, 8142, 8169, 8194, 8180, 8162,1.590721845626831
99, 8210, 8176, 8195, 8228, 8177, 8159, 8156, 8181, 8146, 8142, 8169, 8194, 8180, 8162,1.590721845626831
100, 8203, 8187, 8209, 8251, 8185, 8145, 8171, 8140, 8199, 8187, 8154, 8151, 8139, 8150,1.5986332893371582
100, 8203, 8187, 8209, 8251, 8185, 8145, 8171, 8140, 8199, 8187, 8154, 8151, 8139, 8150,1.5986332893371582
101, 8241, 8191, 8221, 8253, 8186, 8189, 8188, 8185, 8205, 8209, 8196, 8213, 8181, 8167,1.6073150634765625
101, 8241, 8191, 8221, 8253, 8186, 8189, 8188, 8185, 8205, 8209, 8196, 8213, 8181, 8167,1.6073150634765625
102, 8207, 8190, 8209, 8253, 8232, 8139, 8238, 8138, 8214, 8230, 8170, 8179, 8157, 8178,1.6143133640289307
102, 8207, 8190, 8209, 8253, 8232, 8139, 8238, 8138, 8214, 8230, 8170, 8179, 8157, 8178,1.615316390991211
103, 8229, 8195, 8214, 8257, 8236, 8168, 8255, 8189, 8211, 8222, 8183, 8206, 8189, 8194,1.6227216720581055
103, 8229, 8195, 8214, 8257, 8236, 8168, 8255, 8189, 8211, 8222, 8183, 8206, 8189, 8194,1.6227216720581055
104, 8229, 8194, 8211, 8256, 8223, 8174, 8245, 8194, 8206, 8207, 8170, 8197, 8186, 8167,1.6307220458984375
104, 8229, 8194, 8211, 8256, 8223, 8174, 8245, 8194, 8206, 8207, 8170, 8197, 8186, 8167,1.6307220458984375
105, 8209, 8190, 8195, 8267, 8235, 8158, 8247, 8126, 8211, 8211, 8140, 8140, 8128, 8136,1.638474702835083
105, 8209, 8190, 8195, 8267, 8235, 8158, 8247, 8126, 8211, 8211, 8140, 8140, 8128, 8136,1.638474702835083
106, 8243, 8177, 8190, 8244, 8203, 8196, 8229, 8179, 8176, 8175, 8177, 8209, 8177, 8148,1.645721435546875
106, 8243, 8177, 8190, 8244, 8203, 8196, 8229, 8179, 8176, 8175, 8177, 8209, 8177, 8148,1.645721435546875
107, 8207, 8176, 8193, 8235, 8204, 8143, 8243, 8147, 8174, 8174, 8168, 8181, 8169, 8161,1.653743028640747
107, 8207, 8176, 8193, 8235, 8204, 8143, 8243, 8147, 8174, 8174, 8168, 8181, 8169, 8161,1.653743028640747
108, 8224, 8191, 8203, 8252, 8205, 8167, 8219, 8187, 8164, 8161, 8181, 8182, 8176, 8161,1.6617417335510254
108, 8224, 8191, 8203, 8252, 8205, 8167, 8219, 8187, 8164, 8161, 8181, 8182, 8176, 8161,1.6617417335510254
109, 8239, 8195, 8202, 8253, 8199, 8180, 8197, 8198, 8180, 8163, 8174, 8199, 8178, 8145,1.67043137550354
109, 8239, 8195, 8202, 8253, 8199, 8180, 8197, 8198, 8180, 8163, 8174, 8199, 8178, 8145,1.67043137550354
110, 8212, 8189, 8198, 8247, 8231, 8152, 8230, 8130, 8247, 8222, 8157, 8163, 8148, 8162,1.6774299144744873
110, 8212, 8189, 8198, 8247, 8231, 8152, 8230, 8130, 8247, 8222, 8157, 8163, 8148, 8162,1.6774299144744873
111, 8240, 8188, 8197, 8236, 8219, 8185, 8223, 8203, 8228, 8208, 8190, 8209, 8199, 8180,1.6854305267333984
111, 8240, 8188, 8197, 8236, 8219, 8185, 8223, 8203, 8228, 8208, 8190, 8209, 8199, 8180,1.6854305267333984
112, 8211, 8197, 8190, 8247, 8211, 8147, 8234, 8172, 8228, 8212, 8151, 8165, 8159, 8148,1.6939349174499512
112, 8211, 8197, 8190, 8247, 8211, 8147, 8234, 8172, 8228, 8212, 8151, 8165, 8159, 8148,1.6939349174499512
113, 8218, 8186, 8184, 8244, 8215, 8171, 8246, 8158, 8257, 8234, 8162, 8168, 8149, 8138,1.701935052871704
113, 8218, 8186, 8184, 8244, 8215, 8171, 8246, 8158, 8257, 8234, 8162, 8168, 8149, 8138,1.701935052871704
114, 8219, 8171, 8170, 8222, 8217, 8179, 8235, 8180, 8240, 8199, 8184, 8198, 8182, 8145,1.7086868286132812
114, 8219, 8171, 8170, 8222, 8217, 8179, 8235, 8180, 8240, 8199, 8184, 8198, 8182, 8145,1.7086868286132812
115, 8180, 8183, 8166, 8235, 8229, 8142, 8229, 8142, 8223, 8170, 8151, 8140, 8149, 8130,1.7169909477233887
115, 8180, 8183, 8166, 8235, 8229, 8142, 8229, 8142, 8223, 8170, 8151, 8140, 8149, 8130,1.7169909477233887
116, 8206, 8175, 8161, 8220, 8201, 8187, 8190, 8188, 8183, 8147, 8169, 8175, 8169, 8109,1.7245395183563232
116, 8206, 8175, 8161, 8220, 8201, 8187, 8190, 8188, 8183, 8147, 8169, 8175, 8169, 8109,1.7245395183563232
117, 8182, 8157, 8146, 8201, 8198, 8151, 8209, 8130, 8176, 8163, 8155, 8150, 8143, 8099,1.732532262802124
117, 8182, 8157, 8146, 8201, 8198, 8151, 8209, 8130, 8176, 8163, 8155, 8150, 8143, 8099,1.732532262802124
118, 8194, 8167, 8159, 8212, 8205, 8156, 8238, 8141, 8181, 8163, 8164, 8158, 8157, 8130,1.7407221794128418
118, 8194, 8167, 8159, 8212, 8205, 8156, 8238, 8141, 8181, 8163, 8164, 8158, 8157, 8130,1.7407221794128418
119, 8215, 8168, 8167, 8214, 8197, 8173, 8216, 8207, 8177, 8144, 8171, 8192, 8192, 8139,1.7486863136291504
119, 8215, 8168, 8167, 8214, 8197, 8173, 8216, 8207, 8177, 8144, 8171, 8192, 8192, 8139,1.7486863136291504
120, 8181, 8161, 8164, 8222, 8219, 8133, 8224, 8158, 8224, 8175, 8143, 8132, 8149, 8129,1.756723403930664
120, 8181, 8161, 8164, 8222, 8219, 8133, 8224, 8158, 8224, 8175, 8143, 8132, 8149, 8129,1.756723403930664
121, 8223, 8167, 8175, 8225, 8203, 8173, 8231, 8212, 8252, 8180, 8180, 8187, 8184, 8147,1.7646667957305908
121, 8223, 8167, 8175, 8225, 8203, 8173, 8231, 8212, 8252, 8180, 8180, 8187, 8184, 8147,1.7646667957305908
122, 8209, 8169, 8173, 8231, 8193, 8155, 8248, 8176, 8283, 8209, 8164, 8172, 8155, 8142,1.7726857662200928
122, 8209, 8169, 8173, 8231, 8193, 8155, 8248, 8176, 8283, 8209, 8164, 8172, 8155, 8142,1.7726857662200928
123, 8202, 8170, 8173, 8236, 8208, 8171, 8256, 8140, 8289, 8237, 8160, 8152, 8134, 8145,1.7799949645996094
123, 8202, 8170, 8173, 8236, 8208, 8171, 8256, 8140, 8289, 8237, 8160, 8152, 8134, 8145,1.7799949645996094
124, 8224, 8178, 8179, 8223, 8215, 8186, 8244, 8182, 8230, 8201, 8189, 8204, 8185, 8159,1.7880191802978516
124, 8224, 8178, 8179, 8223, 8215, 8186, 8244, 8182, 8230, 8201, 8189, 8204, 8185, 8159,1.7880191802978516
125, 8184, 8184, 8176, 8223, 8230, 8123, 8243, 8137, 8203, 8182, 8156, 8149, 8155, 8147,1.79603910446167
125, 8184, 8184, 8176, 8223, 8230, 8123, 8243, 8137, 8203, 8182, 8156, 8149, 8155, 8147,1.79603910446167
126, 8201, 8172, 8167, 8211, 8195, 8166, 8206, 8184, 8177, 8142, 8164, 8167, 8168, 8121,1.8037965297698975
126, 8201, 8172, 8167, 8211, 8195, 8166, 8206, 8184, 8177, 8142, 8164, 8167, 8168, 8121,1.8037965297698975
127, 8182, 8156, 8151, 8199, 8181, 8161, 8221, 8150, 8181, 8130, 8146, 8152, 8142, 8095,1.811117172241211
127, 8182, 8156, 8151, 8199, 8181, 8161, 8221, 8150, 8181, 8130, 8146, 8152, 8142, 8095,1.8121252059936523
240, 8161, 8145, 8139, 8193, 8187, 8153, 8240, 8119, 8182, 8139, 8141, 8128, 8136, 8101,1.8191237449645996
240, 8161, 8145, 8139, 8193, 8187, 8153, 8240, 8119, 8182, 8139, 8141, 8128, 8136, 8101,1.8201236724853516
0, 8175, 8122, 8128, 8156, 8154, 8176, 8194, 8194, 8148, 8109, 8167, 8165, 8189, 8096,1.8277239799499512
0, 8175, 8122, 8128, 8156, 8154, 8176, 8194, 8194, 8148, 8109, 8167, 8165, 8189, 8096,1.8277239799499512
1, 8148, 8129, 8133, 8158, 8154, 8141, 8205, 8144, 8196, 8132, 8139, 8113, 8137, 8075,1.8357224464416504
1, 8148, 8129, 8133, 8158, 8154, 8141, 8205, 8144, 8196, 8132, 8139, 8113, 8137, 8075,1.8357224464416504
2, 8195, 8148, 8143, 8179, 8143, 8183, 8230, 8162, 8236, 8154, 8167, 8160, 8154, 8097,1.8431065082550049
2, 8195, 8148, 8143, 8179, 8143, 8183, 8230, 8162, 8236, 8154, 8167, 8160, 8154, 8097,1.8431065082550049
3, 8205, 8134, 8137, 8167, 8163, 8162, 8255, 8164, 8231, 8170, 8169, 8179, 8180, 8125,1.8501033782958984
3, 8205, 8134, 8137, 8167, 8163, 8162, 8255, 8164, 8231, 8170, 8169, 8179, 8180, 8125,1.8511033058166504
4, 8195, 8138, 8147, 8166, 8203, 8143, 8268, 8158, 8227, 8190, 8158, 8146, 8168, 8137,1.8591055870056152
4, 8195, 8138, 8147, 8166, 8203, 8143, 8268, 8158, 8227, 8190, 8158, 8146, 8168, 8137,1.8591055870056152
5, 8232, 8161, 8166, 8182, 8177, 8184, 8236, 8205, 8208, 8170, 8183, 8191, 8185, 8125,1.8667232990264893
5, 8232, 8161, 8166, 8182, 8177, 8184, 8236, 8205, 8208, 8170, 8183, 8191, 8185, 8125,1.8667232990264893
6, 8213, 8170, 8172, 8206, 8180, 8153, 8243, 8117, 8203, 8191, 8158, 8159, 8137, 8127,1.8747220039367676
6, 8213, 8170, 8172, 8206, 8180, 8153, 8243, 8117, 8203, 8191, 8158, 8159, 8137, 8127,1.8747220039367676
7, 8245, 8174, 8183, 8204, 8192, 8179, 8239, 8150, 8157, 8195, 8183, 8200, 8171, 8179,1.882692575454712
7, 8245, 8174, 8183, 8204, 8192, 8179, 8239, 8150, 8157, 8195, 8183, 8200, 8171, 8179,1.882692575454712
8, 8241, 8175, 8185, 8194, 8186, 8157, 8223, 8188, 8120, 8174, 8182, 8206, 8185, 8172,1.8906850814819336
8, 8241, 8175, 8185, 8194, 8186, 8157, 8223, 8188, 8120, 8174, 8182, 8206, 8185, 8172,1.8906850814819336
9, 8214, 8169, 8179, 8206, 8192, 8136, 8233, 8149, 8132, 8171, 8155, 8148, 8140, 8130,1.8986856937408447
9, 8214, 8169, 8179, 8206, 8192, 8136, 8233, 8149, 8132, 8171, 8155, 8148, 8140, 8130,1.8986856937408447
10, 8249, 8156, 8173, 8188, 8177, 8185, 8228, 8187, 8123, 8149, 8178, 8196, 8174, 8137,1.9057660102844238
10, 8249, 8156, 8173, 8188, 8177, 8185, 8228, 8187, 8123, 8149, 8178, 8196, 8174, 8137,1.9057660102844238
11, 8211, 8152, 8158, 8168, 8172, 8143, 8248, 8138, 8144, 8151, 8150, 8156, 8152, 8139,1.9137225151062012
11, 8211, 8152, 8158, 8168, 8172, 8143, 8248, 8138, 8144, 8151, 8150, 8156, 8152, 8139,1.9137225151062012
12, 8209, 8142, 8141, 8160, 8151, 8162, 8248, 8178, 8149, 8127, 8155, 8154, 8161, 8109,1.9217488765716553
12, 8209, 8142, 8141, 8160, 8151, 8162, 8248, 8178, 8149, 8127, 8155, 8154, 8161, 8109,1.9217488765716553
13, 8213, 8125, 8135, 8156, 8136, 8173, 8245, 8190, 8160, 8120, 8153, 8164, 8161, 8074,1.9297449588775635
13, 8213, 8125, 8135, 8156, 8136, 8173, 8245, 8190, 8160, 8120, 8153, 8164, 8161, 8074,1.9297449588775635
14, 8200, 8142, 8146, 8165, 8160, 8150, 8283, 8121, 8222, 8174, 8149, 8139, 8130, 8099,1.9377226829528809
14, 8200, 8142, 8146, 8165, 8160, 8150, 8283, 8121, 8222, 8174, 8149, 8139, 8130, 8099,1.9377226829528809
15, 8241, 8160, 8159, 8152, 8154, 8184, 8276, 8192, 8222, 8178, 8199, 8217, 8197, 8150,1.9457433223724365
15, 8241, 8160, 8159, 8152, 8154, 8184, 8276, 8192, 8222, 8178, 8199, 8217, 8197, 8150,1.9457433223724365
16, 8214, 8157, 8161, 8169, 8166, 8141, 8264, 8176, 8216, 8194, 8164, 8182, 8173, 8140,1.9537413120269775
16, 8214, 8157, 8161, 8169, 8166, 8141, 8264, 8176, 8216, 8194, 8164, 8182, 8173, 8140,1.9537413120269775
17, 8229, 8174, 8183, 8214, 8182, 8164, 8244, 8173, 8217, 8223, 8158, 8178, 8149, 8141,1.9617812633514404
17, 8229, 8174, 8183, 8214, 8182, 8164, 8244, 8173, 8217, 8223, 8158, 8178, 8149, 8141,1.9617812633514404
18, 8255, 8199, 8202, 8225, 8177, 8180, 8236, 8175, 8200, 8222, 8185, 8223, 8167, 8171,1.9702341556549072
18, 8255, 8199, 8202, 8225, 8177, 8180, 8236, 8175, 8200, 8222, 8185, 8223, 8167, 8171,1.9711651802062988
19, 8231, 8195, 8195, 8213, 8177, 8141, 8238, 8126, 8186, 8208, 8172, 8184, 8155, 8188,1.9762248992919922
19, 8231, 8195, 8195, 8213, 8177, 8141, 8238, 8126, 8186, 8208, 8172, 8184, 8155, 8188,1.9762248992919922
20, 8248, 8166, 8178, 8193, 8145, 8171, 8170, 8197, 8129, 8145, 8182, 8210, 8193, 8164,1.984229564666748
20, 8248, 8166, 8178, 8193, 8145, 8171, 8170, 8197, 8129, 8145, 8182, 8210, 8193, 8164,1.9852294921875
21, 8211, 8149, 8155, 8180, 8136, 8138, 8159, 8148, 8109, 8130, 8149, 8169, 8146, 8114,1.9927358627319336
21, 8211, 8149, 8155, 8180, 8136, 8138, 8159, 8148, 8109, 8130, 8149, 8169, 8146, 8114,1.9927358627319336
22, 8204, 8143, 8137, 8148, 8126, 8156, 8193, 8125, 8093, 8121, 8153, 8161, 8141, 8110,2.0007359981536865
22, 8204, 8143, 8137, 8148, 8126, 8156, 8193, 8125, 8093, 8121, 8153, 8161, 8141, 8110,2.0007359981536865
23, 8197, 8115, 8120, 8102, 8104, 8172, 8183, 8173, 8047, 8067, 8162, 8178, 8179, 8090,2.0087356567382812
23, 8197, 8115, 8120, 8102, 8104, 8172, 8183, 8173, 8047, 8067, 8162, 8178, 8179, 8090,2.0087356567382812
24, 8151, 8097, 8114, 8108, 8122, 8134, 8188, 8138, 8076, 8072, 8128, 8115, 8133, 8049,2.0167362689971924
24, 8151, 8097, 8114, 8108, 8122, 8134, 8188, 8138, 8076, 8072, 8128, 8115, 8133, 8049,2.0167362689971924
25, 8195, 8111, 8124, 8125, 8112, 8184, 8187, 8182, 8117, 8098, 8165, 8169, 8161, 8060,2.024735689163208
25, 8195, 8111, 8124, 8125, 8112, 8184, 8187, 8182, 8117, 8098, 8165, 8169, 8161, 8060,2.024735689163208
26, 8192, 8135, 8127, 8133, 8123, 8153, 8213, 8148, 8153, 8141, 8164, 8165, 8162, 8087,2.0327377319335938
26, 8192, 8135, 8127, 8133, 8123, 8153, 8213, 8148, 8153, 8141, 8164, 8165, 8162, 8087,2.0327377319335938
27, 8189, 8134, 8137, 8134, 8142, 8142, 8217, 8152, 8167, 8155, 8165, 8151, 8163, 8107,2.0397369861602783
27, 8189, 8134, 8137, 8134, 8142, 8142, 8217, 8152, 8167, 8155, 8165, 8151, 8163, 8107,2.0397369861602783
28, 8210, 8120, 8149, 8121, 8129, 8171, 8177, 8214, 8156, 8125, 8184, 8192, 8186, 8105,2.047736406326294
28, 8210, 8120, 8149, 8121, 8129, 8171, 8177, 8214, 8156, 8125, 8184, 8192, 8186, 8105,2.047736406326294
29, 8186, 8141, 8158, 8150, 8148, 8143, 8189, 8158, 8177, 8149, 8161, 8153, 8145, 8107,2.055722236633301
29, 8186, 8141, 8158, 8150, 8148, 8143, 8189, 8158, 8177, 8149, 8161, 8153, 8145, 8107,2.055722236633301
30, 8221, 8154, 8168, 8162, 8129, 8177, 8179, 8192, 8141, 8134, 8174, 8189, 8176, 8125,2.0637223720550537
30, 8221, 8154, 8168, 8162, 8129, 8177, 8179, 8192, 8141, 8134, 8174, 8189, 8176, 8125,2.0637223720550537
31, 8206, 8140, 8157, 8136, 8100, 8159, 8158, 8161, 8111, 8107, 8152, 8161, 8157, 8105,2.0717504024505615
31, 8206, 8140, 8157, 8136, 8100, 8159, 8158, 8161, 8111, 8107, 8152, 8161, 8157, 8105,2.0717504024505615
32, 8198, 8152, 8161, 8142, 8115, 8162, 8165, 8135, 8123, 8134, 8160, 8144, 8140, 8113,2.0797526836395264
32, 8198, 8152, 8161, 8142, 8115, 8162, 8165, 8135, 8123, 8134, 8160, 8144, 8140, 8113,2.0797526836395264
33, 8229, 8166, 8171, 8157, 8131, 8182, 8183, 8186, 8127, 8155, 8189, 8208, 8185, 8139,2.0877246856689453
33, 8229, 8166, 8171, 8157, 8131, 8182, 8183, 8186, 8127, 8155, 8189, 8208, 8185, 8139,2.0877246856689453
34, 8191, 8159, 8159, 8164, 8141, 8136, 8221, 8131, 8159, 8174, 8155, 8158, 8145, 8130,2.096015691757202
34, 8191, 8159, 8159, 8164, 8141, 8136, 8221, 8131, 8159, 8174, 8155, 8158, 8145, 8130,2.096015691757202
35, 8200, 8133, 8133, 8127, 8114, 8178, 8206, 8175, 8155, 8149, 8177, 8174, 8165, 8117,2.1040148735046387
35, 8200, 8133, 8133, 8127, 8114, 8178, 8206, 8175, 8155, 8149, 8177, 8174, 8165, 8117,2.1040148735046387
36, 8183, 8118, 8121, 8100, 8106, 8162, 8208, 8174, 8158, 8145, 8166, 8168, 8166, 8099,2.111015796661377
36, 8183, 8118, 8121, 8100, 8106, 8162, 8208, 8174, 8158, 8145, 8166, 8168, 8166, 8099,2.111015796661377
37, 8168, 8131, 8138, 8126, 8106, 8142, 8223, 8137, 8178, 8153, 8151, 8145, 8145, 8103,2.118687152862549
37, 8168, 8131, 8138, 8126, 8106, 8142, 8223, 8137, 8178, 8153, 8151, 8145, 8145, 8103,2.118687152862549
38, 8189, 8127, 8139, 8119, 8092, 8173, 8181, 8191, 8141, 8106, 8177, 8187, 8185, 8097,2.1267223358154297
38, 8189, 8127, 8139, 8119, 8092, 8173, 8181, 8191, 8141, 8106, 8177, 8187, 8185, 8097,2.1267223358154297
39, 8143, 8108, 8123, 8098, 8121, 8134, 8157, 8151, 8127, 8107, 8145, 8130, 8152, 8060,2.135068655014038
39, 8143, 8108, 8123, 8098, 8121, 8134, 8157, 8151, 8127, 8107, 8145, 8130, 8152, 8060,2.135068655014038
40, 8164, 8119, 8133, 8109, 8111, 8168, 8143, 8176, 8125, 8126, 8161, 8157, 8165, 8064,2.1427228450775146
40, 8164, 8119, 8133, 8109, 8111, 8168, 8143, 8176, 8125, 8126, 8161, 8157, 8165, 8064,2.1427228450775146
41, 8174, 8144, 8144, 8129, 8100, 8161, 8172, 8168, 8138, 8149, 8163, 8174, 8171, 8093,2.1507222652435303
41, 8174, 8144, 8144, 8129, 8100, 8161, 8172, 8168, 8138, 8149, 8163, 8174, 8171, 8093,2.1507222652435303
42, 8162, 8151, 8144, 8138, 8136, 8134, 8207, 8144, 8158, 8167, 8154, 8144, 8158, 8116,2.159067153930664
42, 8162, 8151, 8144, 8138, 8136, 8134, 8207, 8144, 8158, 8167, 8154, 8144, 8158, 8116,2.159067153930664
43, 8189, 8148, 8137, 8132, 8119, 8175, 8165, 8216, 8126, 8119, 8181, 8183, 8192, 8099,2.167067289352417
43, 8189, 8148, 8137, 8132, 8119, 8175, 8165, 8216, 8126, 8119, 8181, 8183, 8192, 8099,2.167067289352417
44, 8155, 8146, 8121, 8129, 8118, 8150, 8169, 8153, 8149, 8124, 8147, 8127, 8140, 8066,2.173722267150879
44, 8155, 8146, 8121, 8129, 8118, 8150, 8169, 8153, 8149, 8124, 8147, 8127, 8140, 8066,2.173722267150879
45, 8176, 8128, 8113, 8101, 8137, 8175, 8196, 8158, 8184, 8160, 8156, 8145, 8152, 8084,2.1817219257354736
45, 8176, 8128, 8113, 8101, 8137, 8175, 8196, 8158, 8184, 8160, 8156, 8145, 8152, 8084,2.1817219257354736
46, 8171, 8103, 8094, 8073, 8123, 8162, 8188, 8186, 8167, 8154, 8159, 8153, 8175, 8074,2.189440965652466
46, 8171, 8103, 8094, 8073, 8123, 8162, 8188, 8186, 8167, 8154, 8159, 8153, 8175, 8074,2.189440965652466
47, 8131, 8107, 8081, 8083, 8113, 8132, 8182, 8157, 8158, 8139, 8139, 8093, 8142, 8037,2.197950839996338
47, 8131, 8107, 8081, 8083, 8113, 8132, 8182, 8157, 8158, 8139, 8139, 8093, 8142, 8037,2.197950839996338
48, 8161, 8114, 8092, 8084, 8112, 8184, 8184, 8199, 8151, 8127, 8162, 8143, 8169, 8037,2.2058956623077393
48, 8161, 8114, 8092, 8084, 8112, 8184, 8184, 8199, 8151, 8127, 8162, 8143, 8169, 8037,2.2058956623077393
49, 8148, 8122, 8100, 8088, 8146, 8154, 8231, 8136, 8177, 8163, 8143, 8123, 8143, 8060,2.2139182090759277
49, 8148, 8122, 8100, 8088, 8146, 8154, 8231, 8136, 8177, 8163, 8143, 8123, 8143, 8060,2.2139182090759277
50, 8161, 8132, 8104, 8090, 8145, 8158, 8234, 8163, 8165, 8148, 8161, 8134, 8168, 8084,2.221919298171997
50, 8161, 8132, 8104, 8090, 8145, 8158, 8234, 8163, 8165, 8148, 8161, 8134, 8168, 8084,2.221919298171997
51, 8163, 8132, 8107, 8085, 8129, 8161, 8200, 8203, 8137, 8111, 8166, 8156, 8191, 8060,2.2297215461730957
51, 8163, 8132, 8107, 8085, 8129, 8161, 8200, 8203, 8137, 8111, 8166, 8156, 8191, 8060,2.2297215461730957
52, 8145, 8147, 8119, 8111, 8159, 8140, 8232, 8136, 8184, 8175, 8139, 8116, 8140, 8056,2.2371010780334473
52, 8145, 8147, 8119, 8111, 8159, 8140, 8232, 8136, 8184, 8175, 8139, 8116, 8140, 8056,2.2371010780334473
53, 8195, 8165, 8139, 8123, 8156, 8181, 8248, 8180, 8206, 8202, 8171, 8177, 8178, 8105,2.245103597640991
53, 8195, 8165, 8139, 8123, 8156, 8181, 8248, 8180, 8206, 8202, 8171, 8177, 8178, 8105,2.245103597640991
54, 8174, 8168, 8143, 8126, 8159, 8139, 8245, 8164, 8211, 8196, 8162, 8158, 8176, 8122,2.2531118392944336
54, 8174, 8168, 8143, 8126, 8159, 8139, 8245, 8164, 8211, 8196, 8162, 8158, 8176, 8122,2.2531118392944336
55, 8167, 8152, 8132, 8123, 8152, 8150, 8217, 8180, 8206, 8187, 8161, 8138, 8170, 8105,2.2607178688049316
55, 8167, 8152, 8132, 8123, 8152, 8150, 8217, 8180, 8206, 8187, 8161, 8138, 8170, 8105,2.2607178688049316
56, 8172, 8134, 8113, 8103, 8141, 8180, 8214, 8199, 8208, 8172, 8157, 8147, 8169, 8073,2.269132614135742
56, 8172, 8134, 8113, 8103, 8141, 8180, 8214, 8199, 8208, 8172, 8157, 8147, 8169, 8073,2.269132614135742
57, 8147, 8156, 8116, 8115, 8177, 8144, 8283, 8132, 8249, 8201, 8145, 8113, 8139, 8083,2.2767221927642822
57, 8147, 8156, 8116, 8115, 8177, 8144, 8283, 8132, 8249, 8201, 8145, 8113, 8139, 8083,2.2767221927642822
58, 8182, 8175, 8128, 8121, 8181, 8167, 8290, 8198, 8228, 8180, 8186, 8171, 8190, 8120,2.284703016281128
58, 8182, 8175, 8128, 8121, 8181, 8167, 8290, 8198, 8228, 8180, 8186, 8171, 8190, 8120,2.284703016281128
59, 8158, 8165, 8120, 8116, 8185, 8144, 8279, 8182, 8217, 8166, 8150, 8134, 8163, 8097,2.2922158241271973
59, 8158, 8165, 8120, 8116, 8185, 8144, 8279, 8182, 8217, 8166, 8150, 8134, 8163, 8097,2.2922158241271973
60, 8157, 8165, 8122, 8120, 8194, 8168, 8296, 8158, 8240, 8192, 8139, 8114, 8145, 8096,2.2997217178344727
60, 8157, 8165, 8122, 8120, 8194, 8168, 8296, 8158, 8240, 8192, 8139, 8114, 8145, 8096,2.2997217178344727
61, 8185, 8173, 8131, 8110, 8186, 8189, 8307, 8192, 8228, 8200, 8173, 8162, 8186, 8135,2.307723045349121
61, 8185, 8173, 8131, 8110, 8186, 8189, 8307, 8192, 8228, 8200, 8173, 8162, 8186, 8135,2.307723045349121
62, 8160, 8182, 8143, 8126, 8212, 8141, 8315, 8149, 8234, 8201, 8157, 8117, 8154, 8146,2.31575345993042
62, 8160, 8182, 8143, 8126, 8212, 8141, 8315, 8149, 8234, 8201, 8157, 8117, 8154, 8146,2.31575345993042
63, 8192, 8194, 8150, 8149, 8204, 8183, 8276, 8192, 8231, 8175, 8173, 8156, 8173, 8134,2.3237884044647217
63, 8192, 8194, 8150, 8149, 8204, 8183, 8276, 8192, 8231, 8175, 8173, 8156, 8173, 8134,2.3237884044647217
64, 8175, 8196, 8136, 8151, 8194, 8161, 8280, 8162, 8241, 8195, 8164, 8144, 8163, 8127,2.3317956924438477
64, 8175, 8196, 8136, 8151, 8194, 8161, 8280, 8162, 8241, 8195, 8164, 8144, 8163, 8127,2.3317956924438477
65, 8163, 8189, 8141, 8143, 8215, 8146, 8310, 8156, 8251, 8220, 8166, 8132, 8160, 8149,2.339824914932251
65, 8163, 8189, 8141, 8143, 8215, 8146, 8310, 8156, 8251, 8220, 8166, 8132, 8160, 8149,2.339824914932251
66, 8184, 8175, 8149, 8124, 8213, 8183, 8293, 8214, 8242, 8192, 8177, 8174, 8195, 8137,2.3478190898895264
66, 8184, 8175, 8149, 8124, 8213, 8183, 8293, 8214, 8242, 8192, 8177, 8174, 8195, 8137,2.3478190898895264
67, 8147, 8168, 8126, 8121, 8204, 8160, 8304, 8137, 8266, 8202, 8139, 8110, 8143, 8101,2.355722665786743
67, 8147, 8168, 8126, 8121, 8204, 8160, 8304, 8137, 8266, 8202, 8139, 8110, 8143, 8101,2.355722665786743
68, 8162, 8162, 8111, 8115, 8186, 8186, 8306, 8162, 8241, 8186, 8162, 8134, 8163, 8112,2.3637118339538574
68, 8162, 8162, 8111, 8115, 8186, 8186, 8306, 8162, 8241, 8186, 8162, 8134, 8163, 8112,2.3637118339538574
69, 8156, 8166, 8123, 8123, 8201, 8153, 8310, 8173, 8222, 8170, 8163, 8140, 8173, 8117,2.37072491645813
69, 8156, 8166, 8123, 8123, 8201, 8153, 8310, 8173, 8222, 8170, 8163, 8140, 8173, 8117,2.37072491645813
70, 8157, 8179, 8140, 8137, 8213, 8145, 8310, 8157, 8247, 8197, 8153, 8123, 8157, 8110,2.3783113956451416
70, 8157, 8179, 8140, 8137, 8213, 8145, 8310, 8157, 8247, 8197, 8153, 8123, 8157, 8110,2.3793110847473145
71, 8186, 8170, 8135, 8119, 8181, 8186, 8288, 8193, 8234, 8202, 8174, 8167, 8182, 8109,2.38631010055542
71, 8186, 8170, 8135, 8119, 8181, 8186, 8288, 8193, 8234, 8202, 8174, 8167, 8182, 8109,2.38631010055542
72, 8146, 8163, 8125, 8129, 8195, 8140, 8303, 8140, 8235, 8215, 8158, 8121, 8148, 8117,2.394721508026123
72, 8146, 8163, 8125, 8129, 8195, 8140, 8303, 8140, 8235, 8215, 8158, 8121, 8148, 8117,2.394721508026123
73, 8171, 8174, 8142, 8146, 8203, 8164, 8277, 8193, 8222, 8199, 8178, 8149, 8180, 8135,2.402722120285034
73, 8171, 8174, 8142, 8146, 8203, 8164, 8277, 8193, 8222, 8199, 8178, 8149, 8180, 8135,2.402722120285034
74, 8180, 8184, 8154, 8149, 8202, 8167, 8253, 8193, 8224, 8206, 8165, 8146, 8176, 8117,2.410721778869629
74, 8180, 8184, 8154, 8149, 8202, 8167, 8253, 8193, 8224, 8206, 8165, 8146, 8176, 8117,2.410721778869629
75, 8163, 8181, 8142, 8150, 8211, 8158, 8285, 8132, 8252, 8234, 8152, 8109, 8140, 8113,2.419090747833252
75, 8163, 8181, 8142, 8150, 8211, 8158, 8285, 8132, 8252, 8234, 8152, 8109, 8140, 8113,2.419090747833252
76, 8183, 8162, 8127, 8124, 8189, 8185, 8278, 8184, 8217, 8186, 8179, 8156, 8182, 8122,2.4271039962768555
76, 8183, 8162, 8127, 8124, 8189, 8185, 8278, 8184, 8217, 8186, 8179, 8156, 8182, 8122,2.4271039962768555
77, 8147, 8158, 8124, 8125, 8195, 8141, 8280, 8156, 8215, 8179, 8136, 8108, 8153, 8098,2.4336049556732178
77, 8147, 8158, 8124, 8125, 8195, 8141, 8280, 8156, 8215, 8179, 8136, 8108, 8153, 8098,2.4336049556732178
78, 8166, 8163, 8126, 8131, 8171, 8178, 8287, 8174, 8228, 8184, 8145, 8130, 8162, 8096,2.4418134689331055
78, 8166, 8163, 8126, 8131, 8171, 8178, 8287, 8174, 8228, 8184, 8145, 8130, 8162, 8096,2.4418134689331055
79, 8168, 8155, 8117, 8104, 8150, 8174, 8300, 8169, 8211, 8164, 8166, 8157, 8177, 8104,2.4498138427734375
79, 8168, 8155, 8117, 8104, 8150, 8174, 8300, 8169, 8211, 8164, 8166, 8157, 8177, 8104,2.4498138427734375
80, 8142, 8155, 8120, 8103, 8191, 8144, 8322, 8144, 8209, 8168, 8154, 8116, 8160, 8110,2.4577231407165527
80, 8142, 8155, 8120, 8103, 8191, 8144, 8322, 8144, 8209, 8168, 8154, 8116, 8160, 8110,2.4577231407165527
81, 8182, 8162, 8130, 8115, 8189, 8190, 8305, 8215, 8208, 8166, 8168, 8155, 8192, 8106,2.465968370437622
81, 8182, 8162, 8130, 8115, 8189, 8190, 8305, 8215, 8208, 8166, 8168, 8155, 8192, 8106,2.465968370437622
82, 8163, 8170, 8126, 8127, 8172, 8148, 8309, 8144, 8233, 8192, 8145, 8116, 8149, 8093,2.4737226963043213
82, 8163, 8170, 8126, 8127, 8172, 8148, 8309, 8144, 8233, 8192, 8145, 8116, 8149, 8093,2.4737226963043213
83, 8164, 8169, 8125, 8120, 8166, 8160, 8297, 8145, 8216, 8188, 8167, 8128, 8164, 8111,2.4812448024749756
83, 8164, 8169, 8125, 8120, 8166, 8160, 8297, 8145, 8216, 8188, 8167, 8128, 8164, 8111,2.4822371006011963
84, 8164, 8154, 8127, 8104, 8179, 8173, 8279, 8198, 8203, 8166, 8169, 8156, 8193, 8114,2.4892404079437256
84, 8164, 8154, 8127, 8104, 8179, 8173, 8279, 8198, 8203, 8166, 8169, 8156, 8193, 8114,2.4902398586273193
85, 8155, 8172, 8147, 8135, 8206, 8151, 8299, 8161, 8268, 8209, 8143, 8115, 8147, 8118,2.4962453842163086
85, 8155, 8172, 8147, 8135, 8206, 8151, 8299, 8161, 8268, 8209, 8143, 8115, 8147, 8118,2.4972541332244873
86, 8204, 8196, 8163, 8155, 8187, 8188, 8286, 8191, 8274, 8219, 8178, 8162, 8176, 8138,2.5047218799591064
86, 8204, 8196, 8163, 8155, 8187, 8188, 8286, 8191, 8274, 8219, 8178, 8162, 8176, 8138,2.5047218799591064
87, 8172, 8191, 8150, 8152, 8193, 8146, 8294, 8152, 8247, 8202, 8165, 8128, 8164, 8135,2.5122697353363037
87, 8172, 8191, 8150, 8152, 8193, 8146, 8294, 8152, 8247, 8202, 8165, 8128, 8164, 8135,2.5132710933685303
88, 8169, 8185, 8142, 8147, 8195, 8156, 8294, 8169, 8232, 8181, 8161, 8123, 8165, 8124,2.520721673965454
88, 8169, 8185, 8142, 8147, 8195, 8156, 8294, 8169, 8232, 8181, 8161, 8123, 8165, 8124,2.520721673965454
89, 8187, 8182, 8140, 8137, 8173, 8174, 8283, 8186, 8230, 8183, 8161, 8150, 8173, 8110,2.528921127319336
89, 8187, 8182, 8140, 8137, 8173, 8174, 8283, 8186, 8230, 8183, 8161, 8150, 8173, 8110,2.528921127319336
90, 8162, 8178, 8143, 8148, 8206, 8140, 8309, 8126, 8250, 8219, 8148, 8104, 8140, 8124,2.5367231369018555
90, 8162, 8178, 8143, 8148, 8206, 8140, 8309, 8126, 8250, 8219, 8148, 8104, 8140, 8124,2.5367231369018555
91, 8190, 8177, 8154, 8159, 8222, 8174, 8289, 8199, 8223, 8191, 8183, 8148, 8192, 8143,2.5447049140930176
91, 8190, 8177, 8154, 8159, 8222, 8174, 8289, 8199, 8223, 8191, 8183, 8148, 8192, 8143,2.5447049140930176
92, 8173, 8190, 8156, 8176, 8215, 8154, 8282, 8175, 8237, 8191, 8155, 8126, 8169, 8116,2.5527141094207764
92, 8173, 8190, 8156, 8176, 8215, 8154, 8282, 8175, 8237, 8191, 8155, 8126, 8169, 8116,2.5527141094207764
93, 8180, 8193, 8154, 8182, 8209, 8167, 8301, 8147, 8263, 8216, 8152, 8124, 8156, 8123,2.5607190132141113
93, 8180, 8193, 8154, 8182, 8209, 8167, 8301, 8147, 8263, 8216, 8152, 8124, 8156, 8123,2.5607190132141113
94, 8202, 8193, 8161, 8175, 8214, 8180, 8306, 8191, 8243, 8206, 8183, 8166, 8199, 8155,2.568242073059082
94, 8202, 8193, 8161, 8175, 8214, 8180, 8306, 8191, 8243, 8206, 8183, 8166, 8199, 8155,2.568242073059082
95, 8178, 8217, 8174, 8196, 8236, 8138, 8319, 8153, 8261, 8225, 8158, 8114, 8166, 8158,2.5752387046813965
95, 8178, 8217, 8174, 8196, 8236, 8138, 8319, 8153, 8261, 8225, 8158, 8114, 8166, 8158,2.5762290954589844
96, 8213, 8216, 8173, 8194, 8201, 8178, 8297, 8186, 8257, 8215, 8170, 8152, 8175, 8156,2.583721399307251
96, 8213, 8216, 8173, 8194, 8201, 8178, 8297, 8186, 8257, 8215, 8170, 8152, 8175, 8156,2.583721399307251
97, 8193, 8189, 8161, 8175, 8186, 8159, 8293, 8154, 8237, 8208, 8157, 8138, 8155, 8148,2.5906174182891846
97, 8193, 8189, 8161, 8175, 8186, 8159, 8293, 8154, 8237, 8208, 8157, 8138, 8155, 8148,2.5921249389648438
98, 8187, 8182, 8162, 8176, 8214, 8159, 8290, 8152, 8211, 8203, 8163, 8116, 8156, 8155,2.600135326385498
98, 8187, 8182, 8162, 8176, 8214, 8159, 8290, 8152, 8211, 8203, 8163, 8116, 8156, 8155,2.600135326385498
99, 8215, 8188, 8165, 8177, 8215, 8181, 8269, 8207, 8189, 8183, 8184, 8156, 8190, 8149,2.607149362564087
99, 8215, 8188, 8165, 8177, 8215, 8181, 8269, 8207, 8189, 8183, 8184, 8156, 8190, 8149,2.6081442832946777
100, 8186, 8197, 8166, 8185, 8211, 8144, 8291, 8143, 8221, 8223, 8154, 8119, 8146, 8135,2.6151528358459473
100, 8186, 8197, 8166, 8185, 8211, 8144, 8291, 8143, 8221, 8223, 8154, 8119, 8146, 8135,2.6161417961120605
101, 8208, 8190, 8170, 8178, 8195, 8181, 8281, 8176, 8215, 8224, 8176, 8155, 8177, 8154,2.623722791671753
101, 8208, 8190, 8170, 8178, 8195, 8181, 8281, 8176, 8215, 8224, 8176, 8155, 8177, 8154,2.623722791671753
102, 8194, 8183, 8166, 8177, 8216, 8155, 8276, 8175, 8205, 8202, 8167, 8141, 8180, 8164,2.6307215690612793
102, 8194, 8183, 8166, 8177, 8216, 8155, 8276, 8175, 8205, 8202, 8167, 8141, 8180, 8164,2.6307215690612793
103, 8187, 8199, 8176, 8195, 8231, 8141, 8284, 8166, 8220, 8202, 8159, 8118, 8161, 8167,2.638686180114746
103, 8187, 8199, 8176, 8195, 8231, 8141, 8284, 8166, 8220, 8202, 8159, 8118, 8161, 8167,2.638686180114746
104, 8217, 8208, 8191, 8198, 8196, 8179, 8267, 8209, 8225, 8204, 8176, 8169, 8189, 8156,2.646724224090576
104, 8217, 8208, 8191, 8198, 8196, 8179, 8267, 8209, 8225, 8204, 8176, 8169, 8189, 8156,2.646724224090576
105, 8188, 8202, 8184, 8209, 8213, 8145, 8289, 8137, 8256, 8240, 8146, 8128, 8149, 8148,2.654398202896118
105, 8188, 8202, 8184, 8209, 8213, 8145, 8289, 8137, 8256, 8240, 8146, 8128, 8149, 8148,2.654398202896118
106, 8206, 8186, 8172, 8197, 8223, 8167, 8288, 8173, 8232, 8210, 8175, 8156, 8175, 8167,2.6624085903167725
106, 8206, 8186, 8172, 8197, 8223, 8167, 8288, 8173, 8232, 8210, 8175, 8156, 8175, 8167,2.6634373664855957
107, 8184, 8177, 8157, 8175, 8196, 8147, 8265, 8186, 8189, 8154, 8171, 8146, 8179, 8139,2.6704745292663574
107, 8184, 8177, 8157, 8175, 8196, 8147, 8265, 8186, 8189, 8154, 8171, 8146, 8179, 8139,2.6704745292663574
108, 8156, 8184, 8153, 8182, 8180, 8141, 8256, 8149, 8193, 8157, 8144, 8104, 8146, 8106,2.6787025928497314
108, 8156, 8184, 8153, 8182, 8180, 8141, 8256, 8149, 8193, 8157, 8144, 8104, 8146, 8106,2.6787025928497314
109, 8192, 8178, 8164, 8176, 8180, 8188, 8259, 8191, 8203, 8184, 8172, 8169, 8182, 8128,2.685699701309204
109, 8192, 8178, 8164, 8176, 8180, 8188, 8259, 8191, 8203, 8184, 8172, 8169, 8182, 8128,2.685699701309204
110, 8179, 8185, 8175, 8188, 8229, 8147, 8306, 8148, 8247, 8238, 8170, 8154, 8161, 8166,2.693723201751709
110, 8179, 8185, 8175, 8188, 8229, 8147, 8306, 8148, 8247, 8238, 8170, 8154, 8161, 8166,2.693723201751709
111, 8206, 8203, 8188, 8205, 8232, 8168, 8289, 8186, 8253, 8230, 8182, 8176, 8180, 8181,2.7017219066619873
111, 8206, 8203, 8188, 8205, 8232, 8168, 8289, 8186, 8253, 8230, 8182, 8176, 8180, 8181,2.7017219066619873
112, 8203, 8198, 8181, 8197, 8203, 8166, 8258, 8184, 8244, 8218, 8168, 8173, 8183, 8160,2.7097220420837402
112, 8203, 8198, 8181, 8197, 8203, 8166, 8258, 8184, 8244, 8218, 8168, 8173, 8183, 8160,2.7097220420837402
113, 8174, 8184, 8164, 8193, 8209, 8143, 8285, 8131, 8258, 8251, 8152, 8134, 8149, 8162,2.717759132385254
113, 8174, 8184, 8164, 8193, 8209, 8143, 8285, 8131, 8258, 8251, 8152, 8134, 8149, 8162,2.717759132385254
114, 8199, 8176, 8157, 8173, 8190, 8174, 8271, 8201, 8217, 8204, 8179, 8180, 8188, 8161,2.725759267807007
114, 8199, 8176, 8157, 8173, 8190, 8174, 8271, 8201, 8217, 8204, 8179, 8180, 8188, 8161,2.725759267807007
115, 8162, 8176, 8156, 8168, 8191, 8147, 8260, 8164, 8208, 8184, 8148, 8128, 8155, 8126,2.7337589263916016
115, 8162, 8176, 8156, 8168, 8191, 8147, 8260, 8164, 8208, 8184, 8148, 8128, 8155, 8126,2.7337589263916016
116, 8178, 8179, 8163, 8175, 8187, 8180, 8255, 8160, 8212, 8205, 8156, 8139, 8158, 8129,2.7417590618133545
116, 8178, 8179, 8163, 8175, 8187, 8180, 8255, 8160, 8212, 8205, 8156, 8139, 8158, 8129,2.7417590618133545
117, 8194, 8174, 8160, 8166, 8184, 8166, 8257, 8174, 8191, 8200, 8175, 8169, 8181, 8145,2.7482566833496094
117, 8194, 8174, 8160, 8166, 8184, 8166, 8257, 8174, 8191, 8200, 8175, 8169, 8181, 8145,2.749265193939209
118, 8172, 8175, 8161, 8174, 8206, 8122, 8268, 8146, 8200, 8198, 8159, 8125, 8156, 8145,2.7567977905273438
118, 8172, 8175, 8161, 8174, 8206, 8122, 8268, 8146, 8200, 8198, 8159, 8125, 8156, 8145,2.7567977905273438
119, 8211, 8189, 8175, 8184, 8187, 8176, 8245, 8203, 8207, 8195, 8176, 8174, 8189, 8145,2.764810800552368
119, 8211, 8189, 8175, 8184, 8187, 8176, 8245, 8203, 8207, 8195, 8176, 8174, 8189, 8145,2.764810800552368
120, 8202, 8202, 8184, 8202, 8211, 8152, 8272, 8155, 8246, 8243, 8161, 8159, 8166, 8162,2.772831678390503
120, 8202, 8202, 8184, 8202, 8211, 8152, 8272, 8155, 8246, 8243, 8161, 8159, 8166, 8162,2.772831678390503
121, 8209, 8197, 8192, 8206, 8245, 8156, 8283, 8166, 8245, 8246, 8181, 8169, 8171, 8190,2.7808356285095215
121, 8209, 8197, 8192, 8206, 8245, 8156, 8283, 8166, 8245, 8246, 8181, 8169, 8171, 8190,2.7808356285095215
122, 8204, 8194, 8189, 8198, 8233, 8165, 8254, 8198, 8215, 8207, 8178, 8187, 8185, 8170,2.7886860370635986
122, 8204, 8194, 8189, 8198, 8233, 8165, 8254, 8198, 8215, 8207, 8178, 8187, 8185, 8170,2.7886860370635986
123, 8171, 8205, 8186, 8204, 8218, 8147, 8268, 8144, 8249, 8234, 8142, 8133, 8142, 8145,2.796717405319214
123, 8171, 8205, 8186, 8204, 8218, 8147, 8268, 8144, 8249, 8234, 8142, 8133, 8142, 8145,2.796717405319214
124, 8205, 8193, 8180, 8186, 8177, 8193, 8257, 8190, 8245, 8233, 8170, 8167, 8175, 8147,2.8047282695770264
124, 8205, 8193, 8180, 8186, 8177, 8193, 8257, 8190, 8245, 8233, 8170, 8167, 8175, 8147,2.8047282695770264
125, 8176, 8178, 8164, 8176, 8181, 8153, 8261, 8155, 8234, 8226, 8155, 8136, 8152, 8125,2.8127284049987793
125, 8176, 8178, 8164, 8176, 8181, 8153, 8261, 8155, 8234, 8226, 8155, 8136, 8152, 8125,2.813119888305664
126, 8171, 8178, 8161, 8177, 8211, 8161, 8292, 8154, 8247, 8224, 8162, 8140, 8155, 8132,2.8207216262817383
126, 8171, 8178, 8161, 8177, 8211, 8161, 8292, 8154, 8247, 8224, 8162, 8140, 8155, 8132,2.8207216262817383
127, 8183, 8168, 8152, 8160, 8198, 8179, 8291, 8202, 8223, 8197, 8176, 8172, 8195, 8141,2.8277223110198975
127, 8183, 8168, 8152, 8160, 8198, 8179, 8291, 8202, 8223, 8197, 8176, 8172, 8195, 8141,2.8277223110198975
240, 8152, 8168, 8144, 8164, 8189, 8140, 8268, 8154, 8193, 8198, 8145, 8108, 8152, 8117,2.8357224464416504
240, 8152, 8168, 8144, 8164, 8189, 8140, 8268, 8154, 8193, 8198, 8145, 8108, 8152, 8117,2.8357224464416504
0, 8189, 8178, 8161, 8173, 8177, 8189, 8243, 8186, 8180, 8204, 8178, 8154, 8167, 8119,2.843724489212036
0, 8189, 8178, 8161, 8173, 8177, 8189, 8243, 8186, 8180, 8204, 8178, 8154, 8167, 8119,2.843724489212036
1, 8182, 8182, 8171, 8183, 8188, 8165, 8279, 8151, 8215, 8240, 8179, 8160, 8159, 8148,2.851722478866577
1, 8182, 8182, 8171, 8183, 8188, 8165, 8279, 8151, 8215, 8240, 8179, 8160, 8159, 8148,2.851722478866577
2, 8183, 8184, 8178, 8193, 8195, 8144, 8283, 8148, 8208, 8247, 8178, 8157, 8168, 8184,2.859773635864258
2, 8183, 8184, 8178, 8193, 8195, 8144, 8283, 8148, 8208, 8247, 8178, 8157, 8168, 8184,2.859773635864258
3, 8200, 8174, 8184, 8181, 8180, 8168, 8217, 8206, 8159, 8207, 8184, 8181, 8196, 8172,2.867769718170166
3, 8200, 8174, 8184, 8181, 8180, 8168, 8217, 8206, 8159, 8207, 8184, 8181, 8196, 8172,2.867769718170166
4, 8160, 8164, 8174, 8182, 8184, 8152, 8218, 8146, 8191, 8219, 8151, 8118, 8141, 8135,2.875527858734131
4, 8160, 8164, 8174, 8182, 8184, 8152, 8218, 8146, 8191, 8219, 8151, 8118, 8141, 8135,2.875527858734131
5, 8191, 8171, 8173, 8182, 8158, 8190, 8237, 8178, 8198, 8213, 8181, 8168, 8170, 8150,2.8837215900421143
5, 8191, 8171, 8173, 8182, 8158, 8190, 8237, 8178, 8198, 8213, 8181, 8168, 8170, 8150,2.8837215900421143
6, 8183, 8182, 8179, 8176, 8158, 8160, 8250, 8172, 8191, 8206, 8174, 8170, 8178, 8167,2.891957998275757
6, 8183, 8182, 8179, 8176, 8158, 8160, 8250, 8172, 8191, 8206, 8174, 8170, 8178, 8167,2.891957998275757
7, 8178, 8186, 8188, 8184, 8179, 8156, 8258, 8161, 8220, 8235, 8162, 8140, 8158, 8176,2.89872670173645
7, 8178, 8186, 8188, 8184, 8179, 8156, 8258, 8161, 8220, 8235, 8162, 8140, 8158, 8176,2.89872670173645
8, 8210, 8179, 8188, 8177, 8169, 8185, 8254, 8197, 8218, 8244, 8182, 8187, 8184, 8180,2.906730890274048
8, 8210, 8179, 8188, 8177, 8169, 8185, 8254, 8197, 8218, 8244, 8182, 8187, 8184, 8180,2.906730890274048
9, 8176, 8175, 8177, 8175, 8193, 8134, 8287, 8137, 8218, 8245, 8162, 8147, 8155, 8177,2.914721965789795
9, 8176, 8175, 8177, 8175, 8193, 8134, 8287, 8137, 8218, 8245, 8162, 8147, 8155, 8177,2.914721965789795
10, 8199, 8181, 8177, 8183, 8190, 8165, 8268, 8198, 8201, 8203, 8186, 8167, 8180, 8178,2.922722101211548
10, 8199, 8181, 8177, 8183, 8190, 8165, 8268, 8198, 8201, 8203, 8186, 8167, 8180, 8178,2.922722101211548
11, 8203, 8192, 8188, 8195, 8169, 8170, 8254, 8193, 8209, 8208, 8175, 8164, 8167, 8166,2.9307215213775635
11, 8203, 8192, 8188, 8195, 8169, 8170, 8254, 8193, 8209, 8208, 8175, 8164, 8167, 8166,2.9307215213775635
12, 8196, 8195, 8197, 8198, 8171, 8162, 8281, 8130, 8226, 8255, 8160, 8144, 8145, 8186,2.938685178756714
12, 8196, 8195, 8197, 8198, 8171, 8162, 8281, 8130, 8226, 8255, 8160, 8144, 8145, 8186,2.938685178756714
13, 8216, 8171, 8179, 8164, 8167, 8182, 8260, 8185, 8175, 8216, 8185, 8187, 8193, 8196,2.9467225074768066
13, 8216, 8171, 8179, 8164, 8167, 8182, 8260, 8185, 8175, 8216, 8185, 8187, 8193, 8196,2.947467565536499
14, 8175, 8157, 8159, 8161, 8184, 8137, 8246, 8163, 8162, 8197, 8160, 8132, 8155, 8155,2.954526662826538
14, 8175, 8157, 8159, 8161, 8184, 8137, 8246, 8163, 8162, 8197, 8160, 8132, 8155, 8155,2.954526662826538
15, 8186, 8157, 8157, 8162, 8148, 8176, 8218, 8179, 8167, 8194, 8165, 8146, 8160, 8130,2.9615349769592285
15, 8186, 8157, 8157, 8162, 8148, 8176, 8218, 8179, 8167, 8194, 8165, 8146, 8160, 8130,2.9615349769592285
16, 8173, 8140, 8144, 8139, 8123, 8175, 8208, 8165, 8169, 8180, 8160, 8157, 8170, 8130,2.969414472579956
16, 8173, 8140, 8144, 8139, 8123, 8175, 8208, 8165, 8169, 8180, 8160, 8157, 8170, 8130,2.969414472579956
17, 8151, 8136, 8144, 8140, 8161, 8150, 8228, 8147, 8184, 8176, 8153, 8129, 8157, 8147,2.9780654907226562
17, 8151, 8136, 8144, 8140, 8161, 8150, 8228, 8147, 8184, 8176, 8153, 8129, 8157, 8147,2.9780654907226562
18, 8186, 8140, 8153, 8138, 8137, 8186, 8206, 8214, 8173, 8155, 8175, 8172, 8193, 8132,2.9850754737854004
18, 8186, 8140, 8153, 8138, 8137, 8186, 8206, 8214, 8173, 8155, 8175, 8172, 8193, 8132,2.986063003540039
19, 8156, 8143, 8144, 8140, 8109, 8155, 8215, 8138, 8188, 8179, 8146, 8124, 8150, 8104,2.9939475059509277
19, 8156, 8143, 8144, 8140, 8109, 8155, 8215, 8138, 8188, 8179, 8146, 8124, 8150, 8104,2.9939475059509277
20, 8163, 8135, 8131, 8126, 8117, 8171, 8212, 8145, 8164, 8164, 8163, 8145, 8162, 8120,3.0019516944885254
20, 8163, 8135, 8131, 8126, 8117, 8171, 8212, 8145, 8164, 8164, 8163, 8145, 8162, 8120,3.0019516944885254
21, 8154, 8118, 8115, 8101, 8130, 8160, 8182, 8188, 8118, 8111, 8163, 8153, 8179, 8101,3.0099778175354004
21, 8154, 8118, 8115, 8101, 8130, 8160, 8182, 8188, 8118, 8111, 8163, 8153, 8179, 8101,3.0099778175354004
22, 8121, 8125, 8110, 8117, 8124, 8145, 8179, 8152, 8114, 8134, 8133, 8102, 8141, 8075,3.0177180767059326
22, 8121, 8125, 8110, 8117, 8124, 8145, 8179, 8152, 8114, 8134, 8133, 8102, 8141, 8075,3.0177180767059326
23, 8163, 8141, 8131, 8125, 8102, 8196, 8184, 8188, 8100, 8168, 8171, 8169, 8180, 8112,3.0257365703582764
23, 8163, 8141, 8131, 8125, 8102, 8196, 8184, 8188, 8100, 8168, 8171, 8169, 8180, 8112,3.0257365703582764
24, 8154, 8153, 8144, 8131, 8133, 8146, 8211, 8152, 8145, 8190, 8163, 8148, 8165, 8142,3.032738447189331
24, 8154, 8153, 8144, 8131, 8133, 8146, 8211, 8152, 8145, 8190, 8163, 8148, 8165, 8142,3.032738447189331
25, 8169, 8161, 8144, 8142, 8138, 8159, 8189, 8180, 8168, 8163, 8157, 8143, 8161, 8130,3.040721893310547
25, 8169, 8161, 8144, 8142, 8138, 8159, 8189, 8180, 8168, 8163, 8157, 8143, 8161, 8130,3.040721893310547
26, 8175, 8154, 8140, 8134, 8126, 8179, 8178, 8193, 8152, 8162, 8155, 8164, 8171, 8106,3.0486912727355957
26, 8175, 8154, 8140, 8134, 8126, 8179, 8178, 8193, 8152, 8162, 8155, 8164, 8171, 8106,3.0486912727355957
27, 8150, 8161, 8146, 8142, 8151, 8146, 8242, 8126, 8192, 8213, 8148, 8132, 8148, 8133,3.056687593460083
27, 8150, 8161, 8146, 8142, 8151, 8146, 8242, 8126, 8192, 8213, 8148, 8132, 8148, 8133,3.056687593460083
28, 8181, 8160, 8138, 8135, 8131, 8176, 8238, 8198, 8187, 8165, 8178, 8178, 8193, 8153,3.064678430557251
28, 8181, 8160, 8138, 8135, 8131, 8176, 8238, 8198, 8187, 8165, 8178, 8178, 8193, 8153,3.064678430557251
29, 8136, 8130, 8108, 8110, 8113, 8152, 8207, 8176, 8155, 8133, 8138, 8129, 8158, 8089,3.0726804733276367
29, 8136, 8130, 8108, 8110, 8113, 8152, 8207, 8176, 8155, 8133, 8138, 8129, 8158, 8089,3.0726804733276367
30, 8136, 8122, 8113, 8109, 8103, 8174, 8200, 8147, 8148, 8160, 8141, 8118, 8144, 8065,3.080684185028076
30, 8136, 8122, 8113, 8109, 8103, 8174, 8200, 8147, 8148, 8160, 8141, 8118, 8144, 8065,3.080684185028076
31, 8159, 8130, 8131, 8111, 8110, 8180, 8203, 8170, 8149, 8146, 8173, 8163, 8181, 8099,3.0876822471618652
31, 8159, 8130, 8131, 8111, 8110, 8180, 8203, 8170, 8149, 8146, 8173, 8163, 8181, 8099,3.0876822471618652
32, 8123, 8129, 8127, 8104, 8150, 8132, 8214, 8147, 8145, 8145, 8149, 8119, 8156, 8108,3.095188617706299
32, 8123, 8129, 8127, 8104, 8150, 8132, 8214, 8147, 8145, 8145, 8149, 8119, 8156, 8108,3.095188617706299
33, 8155, 8138, 8126, 8099, 8117, 8176, 8180, 8198, 8111, 8140, 8164, 8155, 8181, 8097,3.1031885147094727
33, 8155, 8138, 8126, 8099, 8117, 8176, 8180, 8198, 8111, 8140, 8164, 8155, 8181, 8097,3.1031885147094727
34, 8145, 8156, 8129, 8118, 8096, 8159, 8183, 8147, 8131, 8151, 8147, 8129, 8157, 8086,3.111189126968384
34, 8145, 8156, 8129, 8118, 8096, 8159, 8183, 8147, 8131, 8151, 8147, 8129, 8157, 8086,3.111189126968384
35, 8137, 8142, 8129, 8118, 8132, 8159, 8197, 8147, 8141, 8150, 8153, 8118, 8153, 8100,3.1191883087158203
35, 8137, 8142, 8129, 8118, 8132, 8159, 8197, 8147, 8141, 8150, 8153, 8118, 8153, 8100,3.1191883087158203
36, 8157, 8128, 8127, 8107, 8136, 8176, 8178, 8212, 8107, 8126, 8170, 8162, 8189, 8092,3.127188205718994
36, 8157, 8128, 8127, 8107, 8136, 8176, 8178, 8212, 8107, 8126, 8170, 8162, 8189, 8092,3.128190279006958
37, 8146, 8157, 8131, 8134, 8114, 8143, 8189, 8152, 8125, 8141, 8138, 8113, 8145, 8075,3.13519287109375
37, 8146, 8157, 8131, 8134, 8114, 8143, 8189, 8152, 8125, 8141, 8138, 8113, 8145, 8075,3.13519287109375
38, 8185, 8160, 8141, 8133, 8101, 8182, 8185, 8186, 8139, 8137, 8163, 8154, 8173, 8086,3.1437225341796875
38, 8185, 8160, 8141, 8133, 8101, 8182, 8185, 8186, 8139, 8137, 8163, 8154, 8173, 8086,3.1440608501434326
39, 8162, 8142, 8146, 8126, 8140, 8158, 8203, 8170, 8162, 8152, 8158, 8157, 8168, 8073,3.1520309448242188
39, 8162, 8142, 8146, 8126, 8140, 8158, 8203, 8170, 8162, 8152, 8158, 8157, 8168, 8073,3.1520309448242188
40, 8162, 8159, 8159, 8153, 8159, 8160, 8232, 8146, 8182, 8172, 8153, 8143, 8149, 8065,3.15828537940979
40, 8162, 8159, 8159, 8153, 8159, 8160, 8232, 8146, 8182, 8172, 8153, 8143, 8149, 8065,3.15828537940979
41, 8204, 8179, 8164, 8155, 8129, 8189, 8223, 8180, 8151, 8161, 8178, 8187, 8181, 8068,3.166285276412964
41, 8204, 8179, 8164, 8155, 8129, 8189, 8223, 8180, 8151, 8161, 8178, 8187, 8181, 8068,3.166285276412964
42, 8174, 8184, 8162, 8160, 8149, 8149, 8240, 8121, 8163, 8204, 8160, 8150, 8148, 8065,3.17472243309021
42, 8174, 8184, 8162, 8160, 8149, 8149, 8240, 8121, 8163, 8204, 8160, 8150, 8148, 8065,3.17472243309021
43, 8193, 8179, 8169, 8164, 8172, 8184, 8239, 8173, 8175, 8209, 8180, 8187, 8180, 8074,3.1827216148376465
43, 8193, 8179, 8169, 8164, 8172, 8184, 8239, 8173, 8175, 8209, 8180, 8187, 8180, 8074,3.1827216148376465
44, 8173, 8166, 8156, 8151, 8172, 8162, 8235, 8182, 8164, 8176, 8169, 8169, 8181, 8047,3.1905806064605713
44, 8173, 8166, 8156, 8151, 8172, 8162, 8235, 8182, 8164, 8176, 8169, 8169, 8181, 8047,3.1905806064605713
45, 8142, 8148, 8134, 8135, 8160, 8140, 8226, 8152, 8153, 8147, 8157, 8125, 8157, 8016,3.1986851692199707
45, 8142, 8148, 8134, 8135, 8160, 8140, 8226, 8152, 8153, 8147, 8157, 8125, 8157, 8016,3.1986851692199707
46, 8159, 8138, 8134, 8122, 8132, 8170, 8194, 8208, 8141, 8121, 8174, 8175, 8194, 8004,3.2066149711608887
46, 8159, 8138, 8134, 8122, 8132, 8170, 8194, 8208, 8141, 8121, 8174, 8175, 8194, 8004,3.2066149711608887
47, 8127, 8139, 8130, 8130, 8151, 8142, 8206, 8163, 8164, 8149, 8137, 8129, 8154, 7982,3.2146148681640625
47, 8127, 8139, 8130, 8130, 8151, 8142, 8206, 8163, 8164, 8149, 8137, 8129, 8154, 7982,3.2146148681640625
48, 8137, 8124, 8109, 8104, 8150, 8178, 8183, 8166, 8133, 8119, 8145, 8134, 8157, 7959,3.221721887588501
48, 8137, 8124, 8109, 8104, 8150, 8178, 8183, 8166, 8133, 8119, 8145, 8134, 8157, 7959,3.221721887588501
49, 8121, 8121, 8098, 8088, 8125, 8158, 8167, 8153, 8103, 8082, 8150, 8130, 8163, 7942,3.2297425270080566
49, 8121, 8121, 8098, 8088, 8125, 8158, 8167, 8153, 8103, 8082, 8150, 8130, 8163, 7942,3.2297425270080566
50, 8112, 8139, 8120, 8115, 8124, 8133, 8196, 8145, 8127, 8111, 8148, 8102, 8149, 7953,3.2377426624298096
50, 8112, 8139, 8120, 8115, 8124, 8133, 8196, 8145, 8127, 8111, 8148, 8102, 8149, 7953,3.2377426624298096
51, 8157, 8135, 8138, 8100, 8118, 8183, 8177, 8209, 8124, 8110, 8174, 8163, 8181, 7955,3.245722532272339
51, 8157, 8135, 8138, 8100, 8118, 8183, 8177, 8209, 8124, 8110, 8174, 8163, 8181, 7955,3.245722532272339
52, 8128, 8121, 8133, 8106, 8140, 8156, 8173, 8141, 8155, 8131, 8147, 8132, 8144, 7950,3.2537178993225098
52, 8128, 8121, 8133, 8106, 8140, 8156, 8173, 8141, 8155, 8131, 8147, 8132, 8144, 7950,3.2537178993225098
53, 8140, 8126, 8140, 8112, 8144, 8170, 8150, 8161, 8141, 8127, 8163, 8152, 8171, 7972,3.2617225646972656
53, 8140, 8126, 8140, 8112, 8144, 8170, 8150, 8161, 8141, 8127, 8163, 8152, 8171, 7972,3.2617225646972656
54, 8142, 8148, 8155, 8066, 8115, 8163, 8126, 8186, 8117, 8099, 8167, 8164, 8184, 7972,3.269829034805298
54, 8142, 8148, 8155, 8066, 8115, 8163, 8126, 8186, 8117, 8099, 8167, 8164, 8184, 7972,3.269829034805298
55, 8125, 8153, 8163, 8084, 8107, 8152, 8153, 8132, 8175, 8124, 8145, 8123, 8135, 7963,3.277841329574585
55, 8125, 8153, 8163, 8084, 8107, 8152, 8153, 8132, 8175, 8124, 8145, 8123, 8135, 7963,3.277841329574585
56, 8148, 8116, 8154, 8151, 8127, 8188, 8150, 8170, 8169, 8122, 8175, 8170, 8173, 7959,3.284721612930298
56, 8148, 8116, 8154, 8151, 8127, 8188, 8150, 8170, 8169, 8122, 8175, 8170, 8173, 7959,3.284721612930298
57, 8110, 8116, 8144, 8133, 8166, 8131, 8152, 8140, 8136, 8109, 8164, 8135, 8169, 7952,3.2929799556732178
57, 8110, 8116, 8144, 8133, 8166, 8131, 8152, 8140, 8136, 8109, 8164, 8135, 8169, 7952,3.2929799556732178
58, 8129, 8148, 8158, 8052, 8118, 8153, 8141, 8174, 8135, 8102, 8169, 8142, 8177, 7959,3.300983428955078
58, 8129, 8148, 8158, 8052, 8118, 8153, 8141, 8174, 8135, 8102, 8169, 8142, 8177, 7959,3.300983428955078
59, 8136, 8126, 8153, 8060, 8084, 8179, 8131, 8184, 8146, 8127, 8160, 8148, 8167, 7936,3.309018850326538
59, 8136, 8126, 8153, 8060, 8084, 8179, 8131, 8184, 8146, 8127, 8160, 8148, 8167, 7936,3.309018850326538
60, 8100, 8111, 8135, 8132, 8148, 8149, 8157, 8118, 8163, 8154, 8140, 8109, 8133, 7936,3.317034959793091
60, 8100, 8111, 8135, 8132, 8148, 8149, 8157, 8118, 8163, 8154, 8140, 8109, 8133, 7936,3.317034959793091
61, 8130, 8133, 8137, 8119, 8142, 8179, 8136, 8183, 8134, 8107, 8171, 8168, 8189, 7957,3.3245890140533447
61, 8130, 8133, 8137, 8119, 8142, 8179, 8136, 8183, 8134, 8107, 8171, 8168, 8189, 7957,3.3245890140533447
62, 8112, 8136, 8145, 8096, 8113, 8145, 8129, 8158, 8137, 8111, 8147, 8125, 8162, 7931,3.332592725753784
62, 8112, 8136, 8145, 8096, 8113, 8145, 8129, 8158, 8137, 8111, 8147, 8125, 8162, 7931,3.332592725753784
63, 8133, 8131, 8164, 8121, 8109, 8168, 8144, 8145, 8156, 8139, 8164, 8130, 8148, 7940,3.3407232761383057
63, 8133, 8131, 8164, 8121, 8109, 8168, 8144, 8145, 8156, 8139, 8164, 8130, 8148, 7940,3.3407232761383057
64, 8153, 8127, 8159, 8125, 8109, 8189, 8147, 8167, 8134, 8113, 8181, 8172, 8176, 7963,3.3486857414245605
64, 8153, 8127, 8159, 8125, 8109, 8189, 8147, 8167, 8134, 8113, 8181, 8172, 8176, 7963,3.3486857414245605
65, 8118, 8131, 8146, 8130, 8138, 8143, 8145, 8136, 8119, 8104, 8147, 8124, 8153, 7957,3.3556034564971924
65, 8118, 8131, 8146, 8130, 8138, 8143, 8145, 8136, 8119, 8104, 8147, 8124, 8153, 7957,3.3556034564971924
66, 8148, 8132, 8155, 8138, 8121, 8179, 8110, 8195, 8100, 8082, 8166, 8163, 8181, 7948,3.3636837005615234
66, 8148, 8132, 8155, 8138, 8121, 8179, 8110, 8195, 8100, 8082, 8166, 8163, 8181, 7948,3.3636837005615234
67, 8130, 8132, 8156, 8135, 8109, 8164, 8127, 8140, 8128, 8103, 8150, 8137, 8149, 7931,3.371678590774536
67, 8130, 8132, 8156, 8135, 8109, 8164, 8127, 8140, 8128, 8103, 8150, 8137, 8149, 7931,3.371678590774536
68, 8135, 8138, 8160, 8139, 8131, 8168, 8162, 8129, 8143, 8139, 8159, 8140, 8154, 7954,3.3797237873077393
68, 8135, 8138, 8160, 8139, 8131, 8168, 8162, 8129, 8143, 8139, 8159, 8140, 8154, 7954,3.3797237873077393
69, 8158, 8143, 8169, 8141, 8155, 8173, 8157, 8200, 8124, 8129, 8181, 8185, 8194, 7972,3.3878467082977295
69, 8158, 8143, 8169, 8141, 8155, 8173, 8157, 8200, 8124, 8129, 8181, 8185, 8194, 7972,3.3878467082977295
70, 8126, 8149, 8170, 8155, 8178, 8139, 8157, 8150, 8150, 8136, 8154, 8128, 8143, 7950,3.3952550888061523
70, 8126, 8149, 8170, 8155, 8178, 8139, 8157, 8150, 8150, 8136, 8154, 8128, 8143, 7950,3.3952550888061523
71, 8148, 8142, 8155, 8139, 8138, 8189, 8139, 8173, 8146, 8125, 8172, 8156, 8163, 7948,3.4032552242279053
71, 8148, 8142, 8155, 8139, 8138, 8189, 8139, 8173, 8146, 8125, 8172, 8156, 8163, 7948,3.4032552242279053
72, 8120, 8133, 8132, 8118, 8124, 8162, 8147, 8153, 8136, 8124, 8156, 8141, 8162, 7949,3.4117093086242676
72, 8120, 8133, 8132, 8118, 8124, 8162, 8147, 8153, 8136, 8124, 8156, 8141, 8162, 7949,3.4117093086242676
73, 8114, 8146, 8140, 8127, 8138, 8153, 8136, 8158, 8136, 8116, 8149, 8124, 8155, 7943,3.418708562850952
73, 8114, 8146, 8140, 8127, 8138, 8153, 8136, 8158, 8136, 8116, 8149, 8124, 8155, 7943,3.418708562850952
74, 8139, 8141, 8145, 8121, 8108, 8185, 8093, 8195, 8122, 8090, 8164, 8153, 8174, 7921,3.4267077445983887
74, 8139, 8141, 8145, 8121, 8108, 8185, 8093, 8195, 8122, 8090, 8164, 8153, 8174, 7921,3.4267077445983887
75, 8108, 8134, 8138, 8122, 8120, 8148, 8125, 8116, 8147, 8138, 8145, 8110, 8136, 7922,3.43502140045166
75, 8108, 8134, 8138, 8122, 8120, 8148, 8125, 8116, 8147, 8138, 8145, 8110, 8136, 7922,3.43502140045166
76, 8141, 8148, 8154, 8122, 8148, 8177, 8136, 8170, 8130, 8145, 8176, 8163, 8179, 7961,3.442723035812378
76, 8141, 8148, 8154, 8122, 8148, 8177, 8136, 8170, 8130, 8145, 8176, 8163, 8179, 7961,3.442723035812378
77, 8134, 8159, 8165, 8125, 8159, 8161, 8125, 8185, 8115, 8106, 8163, 8155, 8178, 7961,3.451089382171631
77, 8134, 8159, 8165, 8125, 8159, 8161, 8125, 8185, 8115, 8106, 8163, 8155, 8178, 7961,3.451089382171631
78, 8117, 8151, 8164, 8133, 8137, 8162, 8120, 8151, 8142, 8104, 8143, 8117, 8143, 7944,3.458686351776123
78, 8117, 8151, 8164, 8133, 8137, 8162, 8120, 8151, 8142, 8104, 8143, 8117, 8143, 7944,3.458686351776123
79, 8139, 8142, 8162, 8125, 8095, 8191, 8102, 8174, 8133, 8118, 8166, 8158, 8169, 7940,3.4668538570404053
79, 8139, 8142, 8162, 8125, 8095, 8191, 8102, 8174, 8133, 8118, 8166, 8158, 8169, 7940,3.4668538570404053
80, 8114, 8148, 8162, 8129, 8123, 8146, 8138, 8126, 8125, 8145, 8161, 8124, 8151, 7953,3.474855899810791
80, 8114, 8148, 8162, 8129, 8123, 8146, 8138, 8126, 8125, 8145, 8161, 8124, 8151, 7953,3.474855899810791
81, 8144, 8149, 8161, 8126, 8157, 8181, 8143, 8186, 8100, 8114, 8183, 8158, 8187, 7971,3.4828672409057617
81, 8144, 8149, 8161, 8126, 8157, 8181, 8143, 8186, 8100, 8114, 8183, 8158, 8187, 7971,3.4828672409057617
82, 8141, 8157, 8167, 8145, 8176, 8170, 8129, 8187, 8101, 8107, 8164, 8156, 8174, 7954,3.4898767471313477
82, 8141, 8157, 8167, 8145, 8176, 8170, 8129, 8187, 8101, 8107, 8164, 8156, 8174, 7954,3.4898767471313477
83, 8129, 8182, 8187, 8177, 8182, 8153, 8146, 8132, 8135, 8151, 8159, 8132, 8136, 7970,3.4979088306427
83, 8129, 8182, 8187, 8177, 8182, 8153, 8146, 8132, 8135, 8151, 8159, 8132, 8136, 7970,3.4979088306427
84, 8159, 8173, 8178, 8150, 8151, 8189, 8146, 8184, 8133, 8149, 8194, 8178, 8183, 7999,3.5050814151763916
84, 8159, 8173, 8178, 8150, 8151, 8189, 8146, 8184, 8133, 8149, 8194, 8178, 8183, 7999,3.5060744285583496
85, 8121, 8154, 8152, 8130, 8154, 8150, 8148, 8154, 8149, 8152, 8157, 8118, 8159, 7976,3.51407790184021
85, 8121, 8154, 8152, 8130, 8154, 8150, 8148, 8154, 8149, 8152, 8157, 8118, 8159, 7976,3.51407790184021
86, 8140, 8158, 8156, 8141, 8145, 8182, 8109, 8177, 8127, 8141, 8162, 8136, 8164, 7961,3.521721839904785
86, 8140, 8158, 8156, 8141, 8145, 8182, 8109, 8177, 8127, 8141, 8162, 8136, 8164, 7961,3.521721839904785
87, 8151, 8168, 8163, 8143, 8134, 8181, 8104, 8165, 8123, 8152, 8170, 8163, 8167, 7964,3.529721975326538
87, 8151, 8168, 8163, 8143, 8134, 8181, 8104, 8165, 8123, 8152, 8170, 8163, 8167, 7964,3.529721975326538
88, 8138, 8176, 8167, 8149, 8155, 8153, 8151, 8136, 8173, 8182, 8161, 8140, 8153, 7988,3.538104772567749
88, 8138, 8176, 8167, 8149, 8155, 8153, 8151, 8136, 8173, 8182, 8161, 8140, 8153, 7988,3.538104772567749
89, 8161, 8171, 8170, 8143, 8141, 8183, 8133, 8214, 8150, 8137, 8184, 8181, 8197, 8000,3.54510235786438
89, 8161, 8171, 8170, 8143, 8141, 8183, 8133, 8214, 8150, 8137, 8184, 8181, 8197, 8000,3.546100616455078
90, 8129, 8171, 8167, 8148, 8139, 8153, 8104, 8152, 8128, 8126, 8156, 8132, 8149, 7973,3.5521774291992188
90, 8129, 8171, 8167, 8148, 8139, 8153, 8104, 8152, 8128, 8126, 8156, 8132, 8149, 7973,3.553187608718872
91, 8168, 8191, 8188, 8169, 8145, 8188, 8100, 8146, 8144, 8148, 8173, 8163, 8150, 7988,3.560100793838501
91, 8168, 8191, 8188, 8169, 8145, 8188, 8100, 8146, 8144, 8148, 8173, 8163, 8150, 7988,3.56109881401062
92, 8183, 8206, 8201, 8178, 8160, 8176, 8133, 8172, 8160, 8159, 8191, 8193, 8180, 8029,3.5681114196777344
92, 8183, 8206, 8201, 8178, 8160, 8176, 8133, 8172, 8160, 8159, 8191, 8193, 8180, 8029,3.569098949432373
93, 8143, 8189, 8185, 8170, 8178, 8132, 8147, 8144, 8152, 8163, 8167, 8130, 8157, 8031,3.576327323913574
93, 8143, 8189, 8185, 8170, 8178, 8132, 8147, 8144, 8152, 8163, 8167, 8130, 8157, 8031,3.576327323913574
94, 8171, 8166, 8172, 8155, 8140, 8181, 8101, 8202, 8133, 8135, 8177, 8170, 8181, 7996,3.5843405723571777
94, 8171, 8166, 8172, 8155, 8140, 8181, 8101, 8202, 8133, 8135, 8177, 8170, 8181, 7996,3.5843405723571777
95, 8152, 8182, 8177, 8179, 8139, 8157, 8127, 8149, 8181, 8163, 8148, 8153, 8144, 7984,3.592872381210327
95, 8152, 8182, 8177, 8179, 8139, 8157, 8127, 8149, 8181, 8163, 8148, 8153, 8144, 7984,3.592872381210327
96, 8169, 8202, 8192, 8186, 8161, 8170, 8154, 8156, 8185, 8184, 8163, 8164, 8161, 8030,3.6008682250976562
96, 8169, 8202, 8192, 8186, 8161, 8170, 8154, 8156, 8185, 8184, 8163, 8164, 8161, 8030,3.6008682250976562
97, 8188, 8190, 8192, 8154, 8167, 8178, 8134, 8194, 8164, 8174, 8183, 8193, 8194, 8040,3.6089060306549072
97, 8188, 8190, 8192, 8154, 8167, 8178, 8134, 8194, 8164, 8174, 8183, 8193, 8194, 8040,3.6089060306549072
98, 8157, 8185, 8191, 8167, 8183, 8149, 8140, 8137, 8209, 8195, 8152, 8144, 8143, 8013,3.6159884929656982
98, 8157, 8185, 8191, 8167, 8183, 8149, 8140, 8137, 8209, 8195, 8152, 8144, 8143, 8013,3.6159884929656982
99, 8172, 8185, 8185, 8177, 8161, 8182, 8127, 8173, 8192, 8169, 8170, 8174, 8170, 8010,3.623990535736084
99, 8172, 8185, 8185, 8177, 8161, 8182, 8127, 8173, 8192, 8169, 8170, 8174, 8170, 8010,3.623990535736084
100, 8146, 8191, 8172, 8173, 8163, 8148, 8142, 8146, 8173, 8165, 8164, 8153, 8169, 8023,3.631722927093506
100, 8146, 8191, 8172, 8173, 8163, 8148, 8142, 8146, 8173, 8165, 8164, 8153, 8169, 8023,3.631722927093506
101, 8165, 8202, 8187, 8185, 8173, 8160, 8156, 8164, 8183, 8178, 8180, 8164, 8178, 8053,3.639556884765625
101, 8165, 8202, 8187, 8185, 8173, 8160, 8156, 8164, 8183, 8178, 8180, 8164, 8178, 8053,3.639556884765625
102, 8182, 8186, 8200, 8180, 8159, 8174, 8133, 8207, 8166, 8155, 8185, 8191, 8193, 8046,3.647723436355591
102, 8182, 8186, 8200, 8180, 8159, 8174, 8133, 8207, 8166, 8155, 8185, 8191, 8193, 8046,3.647723436355591
103, 8144, 8178, 8190, 8175, 8177, 8150, 8135, 8143, 8186, 8172, 8145, 8132, 8140, 8019,3.656013250350952
103, 8144, 8178, 8190, 8175, 8177, 8150, 8135, 8143, 8186, 8172, 8145, 8132, 8140, 8019,3.656013250350952
104, 8180, 8187, 8189, 8182, 8173, 8196, 8149, 8177, 8202, 8192, 8176, 8189, 8172, 8042,3.6637227535247803
104, 8180, 8187, 8189, 8182, 8173, 8196, 8149, 8177, 8202, 8192, 8176, 8189, 8172, 8042,3.6637227535247803
105, 8164, 8183, 8193, 8208, 8184, 8154, 8185, 8154, 8219, 8215, 8178, 8193, 8172, 8063,3.672048807144165
105, 8164, 8183, 8193, 8208, 8184, 8154, 8185, 8154, 8219, 8215, 8178, 8193, 8172, 8063,3.672048807144165
106, 8151, 8172, 8196, 8213, 8196, 8148, 8163, 8162, 8208, 8196, 8174, 8172, 8162, 8052,3.679056406021118
106, 8151, 8172, 8196, 8213, 8196, 8148, 8163, 8162, 8208, 8196, 8174, 8172, 8162, 8052,3.679056406021118
107, 8177, 8174, 8194, 8184, 8166, 8184, 8113, 8208, 8185, 8151, 8176, 8197, 8176, 8021,3.6867222785949707
107, 8177, 8174, 8194, 8184, 8166, 8184, 8113, 8208, 8185, 8151, 8176, 8197, 8176, 8021,3.6867222785949707
108, 8162, 8185, 8195, 8198, 8183, 8148, 8157, 8128, 8218, 8191, 8152, 8159, 8136, 8034,3.695127010345459
108, 8162, 8185, 8195, 8198, 8183, 8148, 8157, 8128, 8218, 8191, 8152, 8159, 8136, 8034,3.695127010345459
109, 8185, 8180, 8193, 8206, 8193, 8182, 8162, 8170, 8193, 8175, 8185, 8201, 8179, 8066,3.703125476837158
109, 8185, 8180, 8193, 8206, 8193, 8182, 8162, 8170, 8193, 8175, 8185, 8201, 8179, 8066,3.703125476837158
110, 8158, 8184, 8186, 8197, 8165, 8166, 8129, 8182, 8174, 8129, 8168, 8170, 8168, 8029,3.71113920211792
110, 8158, 8184, 8186, 8197, 8165, 8166, 8129, 8182, 8174, 8129, 8168, 8170, 8168, 8029,3.71113920211792
111, 8150, 8197, 8188, 8208, 8143, 8168, 8135, 8153, 8213, 8150, 8153, 8140, 8140, 8015,3.719177484512329
111, 8150, 8197, 8188, 8208, 8143, 8168, 8135, 8153, 8213, 8150, 8153, 8140, 8140, 8015,3.719177484512329
112, 8175, 8173, 8175, 8194, 8159, 8195, 8138, 8180, 8205, 8173, 8177, 8192, 8184, 8040,3.7267229557037354
112, 8175, 8173, 8175, 8194, 8159, 8195, 8138, 8180, 8205, 8173, 8177, 8192, 8184, 8040,3.7267229557037354
113, 8135, 8152, 8160, 8178, 8197, 8149, 8136, 8141, 8191, 8185, 8154, 8131, 8156, 8023,3.734198570251465
113, 8135, 8152, 8160, 8178, 8197, 8149, 8136, 8141, 8191, 8185, 8154, 8131, 8156, 8023,3.7352077960968018
114, 8160, 8166, 8169, 8173, 8156, 8185, 8115, 8187, 8188, 8155, 8166, 8145, 8169, 8004,3.7422139644622803
114, 8160, 8166, 8169, 8173, 8156, 8185, 8115, 8187, 8188, 8155, 8166, 8145, 8169, 8004,3.7432076930999756
115, 8156, 8172, 8165, 8174, 8142, 8181, 8138, 8159, 8215, 8154, 8157, 8154, 8158, 8011,3.7492146492004395
115, 8156, 8172, 8165, 8174, 8142, 8181, 8138, 8159, 8215, 8154, 8157, 8154, 8158, 8011,3.7503232955932617
116, 8137, 8164, 8149, 8173, 8173, 8165, 8163, 8124, 8217, 8177, 8157, 8136, 8146, 8040,3.7577264308929443
116, 8137, 8164, 8149, 8173, 8173, 8165, 8163, 8124, 8217, 8177, 8157, 8136, 8146, 8040,3.7577264308929443
117, 8159, 8154, 8137, 8153, 8151, 8189, 8123, 8201, 8163, 8146, 8179, 8172, 8190, 8028,3.7652366161346436
117, 8159, 8154, 8137, 8153, 8151, 8189, 8123, 8201, 8163, 8146, 8179, 8172, 8190, 8028,3.7652366161346436
118, 8133, 8159, 8137, 8162, 8151, 8153, 8131, 8152, 8185, 8157, 8145, 8125, 8148, 7997,3.773233652114868
118, 8133, 8159, 8137, 8162, 8151, 8153, 8131, 8152, 8185, 8157, 8145, 8125, 8148, 7997,3.773233652114868
119, 8169, 8169, 8154, 8173, 8159, 8196, 8149, 8167, 8204, 8173, 8167, 8169, 8160, 8028,3.7812373638153076
119, 8169, 8169, 8154, 8173, 8159, 8196, 8149, 8167, 8204, 8173, 8167, 8169, 8160, 8028,3.782240152359009
120, 8168, 8161, 8153, 8157, 8163, 8181, 8148, 8179, 8185, 8176, 8174, 8176, 8169, 8048,3.7892885208129883
120, 8168, 8161, 8153, 8157, 8163, 8181, 8148, 8179, 8185, 8176, 8174, 8176, 8169, 8048,3.7892885208129883
121, 8134, 8159, 8144, 8154, 8161, 8150, 8152, 8150, 8194, 8184, 8150, 8124, 8145, 8035,3.7979068756103516
121, 8134, 8159, 8144, 8154, 8161, 8150, 8152, 8150, 8194, 8184, 8150, 8124, 8145, 8035,3.7979068756103516
122, 8162, 8169, 8147, 8154, 8130, 8196, 8130, 8189, 8181, 8154, 8161, 8169, 8174, 8016,3.805710792541504
122, 8162, 8169, 8147, 8154, 8130, 8196, 8130, 8189, 8181, 8154, 8161, 8169, 8174, 8016,3.805710792541504
123, 8135, 8171, 8144, 8161, 8150, 8162, 8152, 8126, 8180, 8157, 8143, 8141, 8141, 8005,3.8127105236053467
123, 8135, 8171, 8144, 8161, 8150, 8162, 8152, 8126, 8180, 8157, 8143, 8141, 8141, 8005,3.8127105236053467
124, 8147, 8153, 8138, 8147, 8162, 8178, 8153, 8163, 8168, 8143, 8169, 8160, 8165, 8021,3.820943832397461
124, 8147, 8153, 8138, 8147, 8162, 8178, 8153, 8163, 8168, 8143, 8169, 8160, 8165, 8021,3.820943832397461
125, 8151, 8143, 8135, 8132, 8142, 8178, 8125, 8191, 8160, 8131, 8161, 8158, 8176, 8006,3.828470468521118
125, 8151, 8143, 8135, 8132, 8142, 8178, 8125, 8191, 8160, 8131, 8161, 8158, 8176, 8006,3.828470468521118
126, 8135, 8166, 8144, 8153, 8145, 8159, 8130, 8134, 8190, 8166, 8135, 8115, 8131, 7996,3.836463451385498
126, 8135, 8166, 8144, 8153, 8145, 8159, 8130, 8134, 8190, 8166, 8135, 8115, 8131, 7996,3.836463451385498
127, 8172, 8174, 8155, 8160, 8138, 8198, 8129, 8182, 8193, 8159, 8179, 8182, 8167, 8015,3.8447225093841553
127, 8172, 8174, 8155, 8160, 8138, 8198, 8129, 8182, 8193, 8159, 8179, 8182, 8167, 8015,3.8447225093841553
240, 8148, 8164, 8155, 8165, 8148, 8161, 8141, 8140, 8213, 8175, 8161, 8152, 8146, 8019,3.85272216796875
240, 8148, 8164, 8155, 8165, 8148, 8161, 8141, 8140, 8213, 8175, 8161, 8152, 8146, 8019,3.85272216796875
0, 8172, 8166, 8168, 8176, 8146, 8180, 8126, 8143, 8205, 8193, 8167, 8163, 8155, 8041,3.860210657119751
0, 8172, 8166, 8168, 8176, 8146, 8180, 8126, 8143, 8205, 8193, 8167, 8163, 8155, 8041,3.860210657119751
1, 8187, 8180, 8185, 8189, 8153, 8182, 8123, 8177, 8183, 8180, 8192, 8210, 8185, 8064,3.86820912361145
1, 8187, 8180, 8185, 8189, 8153, 8182, 8123, 8177, 8183, 8180, 8192, 8210, 8185, 8064,3.86820912361145
2, 8153, 8189, 8191, 8209, 8199, 8144, 8159, 8149, 8209, 8191, 8176, 8173, 8155, 8071,3.8757216930389404
2, 8153, 8189, 8191, 8209, 8199, 8144, 8159, 8149, 8209, 8191, 8176, 8173, 8155, 8071,3.8757216930389404
3, 8186, 8186, 8192, 8196, 8186, 8192, 8146, 8199, 8208, 8188, 8189, 8204, 8177, 8070,3.8837664127349854
3, 8186, 8186, 8192, 8196, 8186, 8192, 8146, 8199, 8208, 8188, 8189, 8204, 8177, 8070,3.8837664127349854
4, 8178, 8204, 8200, 8212, 8189, 8172, 8168, 8140, 8227, 8217, 8172, 8181, 8149, 8078,3.890765905380249
4, 8178, 8204, 8200, 8212, 8189, 8172, 8168, 8140, 8227, 8217, 8172, 8181, 8149, 8078,3.892271041870117
5, 8188, 8221, 8216, 8242, 8216, 8175, 8194, 8141, 8231, 8224, 8187, 8192, 8161, 8111,3.899722099304199
5, 8188, 8221, 8216, 8242, 8216, 8175, 8194, 8141, 8231, 8224, 8187, 8192, 8161, 8111,3.899722099304199
6, 8191, 8207, 8205, 8219, 8203, 8169, 8167, 8204, 8200, 8181, 8189, 8213, 8195, 8098,3.9077224731445312
6, 8191, 8207, 8205, 8219, 8203, 8169, 8167, 8204, 8200, 8181, 8189, 8213, 8195, 8098,3.9077224731445312
7, 8163, 8213, 8195, 8232, 8203, 8138, 8166, 8167, 8219, 8200, 8158, 8155, 8148, 8069,3.915710210800171
7, 8163, 8213, 8195, 8232, 8203, 8138, 8166, 8167, 8219, 8200, 8158, 8155, 8148, 8069,3.915710210800171
8, 8201, 8223, 8207, 8260, 8215, 8193, 8171, 8197, 8217, 8214, 8189, 8202, 8171, 8084,3.923710346221924
8, 8201, 8223, 8207, 8260, 8215, 8193, 8171, 8197, 8217, 8214, 8189, 8202, 8171, 8084,3.923710346221924
9, 8173, 8199, 8192, 8243, 8236, 8165, 8183, 8153, 8202, 8211, 8162, 8176, 8154, 8083,3.9317219257354736
9, 8173, 8199, 8192, 8243, 8236, 8165, 8183, 8153, 8202, 8211, 8162, 8176, 8154, 8083,3.9317219257354736
10, 8171, 8182, 8176, 8222, 8218, 8164, 8168, 8158, 8185, 8190, 8149, 8154, 8149, 8069,3.939903974533081
10, 8171, 8182, 8176, 8222, 8218, 8164, 8168, 8158, 8185, 8190, 8149, 8154, 8149, 8069,3.939903974533081
11, 8200, 8187, 8179, 8223, 8190, 8185, 8135, 8206, 8178, 8171, 8172, 8191, 8182, 8050,3.9469101428985596
11, 8200, 8187, 8179, 8223, 8190, 8185, 8135, 8206, 8178, 8171, 8172, 8191, 8182, 8050,3.9469101428985596
12, 8171, 8195, 8182, 8234, 8210, 8148, 8161, 8129, 8215, 8209, 8153, 8145, 8140, 8046,3.954993724822998
12, 8171, 8195, 8182, 8234, 8210, 8148, 8161, 8129, 8215, 8209, 8153, 8145, 8140, 8046,3.954993724822998
13, 8193, 8190, 8180, 8222, 8206, 8186, 8181, 8173, 8201, 8205, 8180, 8186, 8175, 8077,3.9627251625061035
13, 8193, 8190, 8180, 8222, 8206, 8186, 8181, 8173, 8201, 8205, 8180, 8186, 8175, 8077,3.9627251625061035
14, 8167, 8173, 8168, 8214, 8215, 8161, 8186, 8185, 8192, 8190, 8173, 8173, 8172, 8070,3.970276117324829
14, 8167, 8173, 8168, 8214, 8215, 8161, 8186, 8185, 8192, 8190, 8173, 8173, 8172, 8070,3.970276117324829
15, 8156, 8169, 8165, 8202, 8207, 8160, 8169, 8177, 8212, 8183, 8163, 8146, 8147, 8048,3.978299617767334
15, 8156, 8169, 8165, 8202, 8207, 8160, 8169, 8177, 8212, 8183, 8163, 8146, 8147, 8048,3.978299617767334
16, 8189, 8174, 8164, 8169, 8162, 8191, 8161, 8198, 8212, 8179, 8180, 8187, 8175, 8046,3.9868838787078857
16, 8189, 8174, 8164, 8169, 8162, 8191, 8161, 8198, 8212, 8179, 8180, 8187, 8175, 8046,3.9868838787078857
17, 8156, 8173, 8154, 8180, 8189, 8149, 8210, 8128, 8232, 8211, 8159, 8144, 8151, 8059,3.994722366333008
17, 8156, 8173, 8154, 8180, 8189, 8149, 8210, 8128, 8232, 8211, 8159, 8144, 8151, 8059,3.994722366333008
18, 8173, 8161, 8152, 8183, 8199, 8183, 8187, 8188, 8202, 8161, 8179, 8176, 8183, 8063,4.003157377243042
18, 8173, 8161, 8152, 8183, 8199, 8183, 8187, 8188, 8202, 8161, 8179, 8176, 8183, 8063,4.003157377243042
19, 8167, 8155, 8156, 8170, 8184, 8171, 8156, 8185, 8183, 8134, 8163, 8165, 8164, 8034,4.009721517562866
19, 8167, 8155, 8156, 8170, 8184, 8171, 8156, 8185, 8183, 8134, 8163, 8165, 8164, 8034,4.01016640663147
20, 8162, 8173, 8164, 8193, 8189, 8158, 8182, 8140, 8213, 8202, 8159, 8139, 8142, 8052,4.0171730518341064
20, 8162, 8173, 8164, 8193, 8189, 8158, 8182, 8140, 8213, 8202, 8159, 8139, 8142, 8052,4.0171730518341064
21, 8186, 8179, 8164, 8193, 8173, 8189, 8169, 8194, 8197, 8212, 8187, 8190, 8192, 8086,4.025176286697388
21, 8186, 8179, 8164, 8193, 8173, 8189, 8169, 8194, 8197, 8212, 8187, 8190, 8192, 8086,4.02617335319519
22, 8151, 8172, 8164, 8184, 8191, 8160, 8161, 8153, 8194, 8199, 8150, 8132, 8149, 8063,4.033713340759277
22, 8151, 8172, 8164, 8184, 8191, 8160, 8161, 8153, 8194, 8199, 8150, 8132, 8149, 8063,4.033713340759277
23, 8186, 8176, 8175, 8185, 8192, 8197, 8164, 8172, 8209, 8201, 8170, 8149, 8156, 8055,4.0417070388793945
23, 8186, 8176, 8175, 8185, 8192, 8197, 8164, 8172, 8209, 8201, 8170, 8149, 8156, 8055,4.0417070388793945
24, 8196, 8187, 8178, 8176, 8168, 8175, 8189, 8161, 8228, 8219, 8183, 8169, 8175, 8080,4.049707412719727
24, 8196, 8187, 8178, 8176, 8168, 8175, 8189, 8161, 8228, 8219, 8183, 8169, 8175, 8080,4.049707412719727
25, 8173, 8176, 8176, 8178, 8177, 8149, 8201, 8144, 8230, 8216, 8172, 8146, 8164, 8103,4.056979179382324
25, 8173, 8176, 8176, 8178, 8177, 8149, 8201, 8144, 8230, 8216, 8172, 8146, 8164, 8103,4.056979179382324
26, 8194, 8160, 8178, 8194, 8185, 8189, 8162, 8209, 8201, 8181, 8187, 8187, 8190, 8089,4.065744876861572
26, 8194, 8160, 8178, 8194, 8185, 8189, 8162, 8209, 8201, 8181, 8187, 8187, 8190, 8089,4.065744876861572
27, 8170, 8182, 8187, 8212, 8214, 8152, 8181, 8142, 8237, 8215, 8164, 8144, 8148, 8082,4.0727479457855225
27, 8170, 8182, 8187, 8212, 8214, 8152, 8181, 8142, 8237, 8215, 8164, 8144, 8148, 8082,4.0727479457855225
28, 8194, 8189, 8190, 8194, 8215, 8178, 8189, 8159, 8235, 8209, 8185, 8164, 8169, 8113,4.080724000930786
28, 8194, 8189, 8190, 8194, 8215, 8178, 8189, 8159, 8235, 8209, 8185, 8164, 8169, 8113,4.080724000930786
29, 8179, 8157, 8163, 8169, 8194, 8177, 8163, 8184, 8193, 8156, 8174, 8165, 8180, 8090,4.088894605636597
29, 8179, 8157, 8163, 8169, 8194, 8177, 8163, 8184, 8193, 8156, 8174, 8165, 8180, 8090,4.088894605636597
30, 8145, 8151, 8148, 8165, 8186, 8153, 8156, 8147, 8203, 8166, 8147, 8112, 8141, 8054,4.096433401107788
30, 8145, 8151, 8148, 8165, 8186, 8153, 8156, 8147, 8203, 8166, 8147, 8112, 8141, 8054,4.096433401107788
31, 8180, 8156, 8161, 8142, 8165, 8189, 8131, 8201, 8187, 8172, 8177, 8160, 8175, 8055,4.104433298110962
31, 8180, 8156, 8161, 8142, 8165, 8189, 8131, 8201, 8187, 8172, 8177, 8160, 8175, 8055,4.1054298877716064
32, 8146, 8150, 8155, 8150, 8188, 8153, 8145, 8156, 8191, 8179, 8147, 8123, 8144, 8042,4.112721681594849
32, 8146, 8150, 8155, 8150, 8188, 8153, 8145, 8156, 8191, 8179, 8147, 8123, 8144, 8042,4.112721681594849
33, 8145, 8147, 8141, 8164, 8187, 8178, 8158, 8162, 8207, 8167, 8155, 8134, 8149, 8046,4.120667457580566
33, 8145, 8147, 8141, 8164, 8187, 8178, 8158, 8162, 8207, 8167, 8155, 8134, 8149, 8046,4.121668100357056
34, 8161, 8152, 8142, 8155, 8168, 8180, 8160, 8179, 8216, 8164, 8174, 8164, 8171, 8060,4.128684759140015
34, 8161, 8152, 8142, 8155, 8168, 8180, 8160, 8179, 8216, 8164, 8174, 8164, 8171, 8060,4.128684759140015
35, 8147, 8162, 8150, 8158, 8183, 8147, 8171, 8126, 8222, 8185, 8151, 8119, 8143, 8065,4.1367223262786865
35, 8147, 8162, 8150, 8158, 8183, 8147, 8171, 8126, 8222, 8185, 8151, 8119, 8143, 8065,4.1367223262786865
36, 8173, 8151, 8150, 8144, 8181, 8188, 8147, 8190, 8185, 8145, 8175, 8165, 8187, 8064,4.143743515014648
36, 8173, 8151, 8150, 8144, 8181, 8188, 8147, 8190, 8185, 8145, 8175, 8165, 8187, 8064,4.143743515014648
37, 8144, 8139, 8142, 8145, 8191, 8150, 8153, 8170, 8196, 8153, 8155, 8131, 8159, 8039,4.1557395458221436
37, 8144, 8139, 8142, 8145, 8191, 8150, 8153, 8170, 8196, 8153, 8155, 8131, 8159, 8039,4.1557395458221436
38, 8160, 8161, 8152, 8159, 8166, 8170, 8160, 8163, 8216, 8190, 8153, 8134, 8148, 8047,4.159738540649414
38, 8160, 8161, 8152, 8159, 8166, 8170, 8160, 8163, 8216, 8190, 8153, 8134, 8148, 8047,4.159738540649414
39, 8187, 8181, 8169, 8153, 8157, 8192, 8174, 8175, 8218, 8203, 8172, 8182, 8175, 8086,4.167738437652588
39, 8187, 8181, 8169, 8153, 8157, 8192, 8174, 8175, 8218, 8203, 8172, 8182, 8175, 8086,4.167738437652588
40, 8161, 8186, 8178, 8165, 8229, 8148, 8211, 8137, 8244, 8220, 8163, 8142, 8146, 8105,4.175738334655762
40, 8161, 8186, 8178, 8165, 8229, 8148, 8211, 8137, 8244, 8220, 8163, 8142, 8146, 8105,4.175738334655762
41, 8186, 8185, 8172, 8172, 8226, 8184, 8180, 8211, 8224, 8188, 8178, 8173, 8179, 8087,4.1837427616119385
41, 8186, 8185, 8172, 8172, 8226, 8184, 8180, 8211, 8224, 8188, 8178, 8173, 8179, 8087,4.1837427616119385
42, 8167, 8189, 8168, 8168, 8190, 8168, 8185, 8167, 8231, 8204, 8157, 8146, 8153, 8070,4.1917431354522705
42, 8167, 8189, 8168, 8168, 8190, 8168, 8185, 8167, 8231, 8204, 8157, 8146, 8153, 8070,4.1917431354522705
43, 8177, 8197, 8185, 8179, 8215, 8172, 8230, 8146, 8258, 8237, 8174, 8157, 8153, 8111,4.198303937911987
43, 8177, 8197, 8185, 8179, 8215, 8172, 8230, 8146, 8258, 8237, 8174, 8157, 8153, 8111,4.198303937911987
44, 8189, 8200, 8183, 8173, 8231, 8176, 8222, 8203, 8232, 8202, 8185, 8198, 8195, 8117,4.206251382827759
44, 8189, 8200, 8183, 8173, 8231, 8176, 8222, 8203, 8232, 8202, 8185, 8198, 8195, 8117,4.206251382827759
45, 8147, 8194, 8169, 8171, 8210, 8146, 8209, 8161, 8227, 8201, 8144, 8130, 8151, 8079,4.214253187179565
45, 8147, 8194, 8169, 8171, 8210, 8146, 8209, 8161, 8227, 8201, 8144, 8130, 8151, 8079,4.214253187179565
46, 8188, 8186, 8173, 8169, 8172, 8200, 8191, 8192, 8228, 8209, 8177, 8170, 8166, 8083,4.222250938415527
46, 8188, 8186, 8173, 8169, 8172, 8200, 8191, 8192, 8228, 8209, 8177, 8170, 8166, 8083,4.222992897033691
47, 8186, 8198, 8177, 8177, 8198, 8171, 8207, 8152, 8237, 8217, 8176, 8168, 8157, 8097,4.229998826980591
47, 8186, 8198, 8177, 8177, 8198, 8171, 8207, 8152, 8237, 8217, 8176, 8168, 8157, 8097,4.230999231338501
48, 8182, 8204, 8181, 8191, 8229, 8160, 8222, 8140, 8225, 8217, 8167, 8149, 8160, 8111,4.239004373550415
48, 8182, 8204, 8181, 8191, 8229, 8160, 8222, 8140, 8225, 8217, 8167, 8149, 8160, 8111,4.239004373550415
49, 8198, 8167, 8167, 8161, 8200, 8179, 8197, 8190, 8185, 8188, 8179, 8186, 8192, 8105,4.246759653091431
49, 8198, 8167, 8167, 8161, 8200, 8179, 8197, 8190, 8185, 8188, 8179, 8186, 8192, 8105,4.246759653091431
50, 8157, 8151, 8154, 8141, 8197, 8140, 8201, 8137, 8202, 8195, 8158, 8139, 8153, 8094,4.254722833633423
50, 8157, 8151, 8154, 8141, 8197, 8140, 8201, 8137, 8202, 8195, 8158, 8139, 8153, 8094,4.254722833633423
51, 8189, 8178, 8172, 8168, 8199, 8185, 8194, 8200, 8220, 8200, 8185, 8182, 8185, 8117,4.262722492218018
51, 8189, 8178, 8172, 8168, 8199, 8185, 8194, 8200, 8220, 8200, 8185, 8182, 8185, 8117,4.262722492218018
52, 8182, 8199, 8176, 8201, 8203, 8166, 8203, 8197, 8233, 8219, 8163, 8165, 8168, 8109,4.270747184753418
52, 8182, 8199, 8176, 8201, 8203, 8166, 8203, 8197, 8233, 8219, 8163, 8165, 8168, 8109,4.270747184753418
53, 8167, 8197, 8167, 8193, 8199, 8154, 8204, 8157, 8226, 8222, 8150, 8123, 8139, 8091,4.277744293212891
53, 8167, 8197, 8167, 8193, 8199, 8154, 8204, 8157, 8226, 8222, 8150, 8123, 8139, 8091,4.277744293212891
54, 8199, 8184, 8166, 8171, 8179, 8192, 8177, 8202, 8196, 8184, 8185, 8171, 8183, 8089,4.285721778869629
54, 8199, 8184, 8166, 8171, 8179, 8192, 8177, 8202, 8196, 8184, 8185, 8171, 8183, 8089,4.285721778869629
55, 8179, 8195, 8169, 8198, 8203, 8155, 8201, 8146, 8229, 8208, 8157, 8133, 8144, 8086,4.293598890304565
55, 8179, 8195, 8169, 8198, 8203, 8155, 8201, 8146, 8229, 8208, 8157, 8133, 8144, 8086,4.2945942878723145
56, 8198, 8193, 8168, 8201, 8195, 8187, 8197, 8171, 8228, 8204, 8167, 8164, 8156, 8086,4.3016040325164795
56, 8198, 8193, 8168, 8201, 8195, 8187, 8197, 8171, 8228, 8204, 8167, 8164, 8156, 8086,4.3016040325164795
57, 8185, 8177, 8159, 8185, 8182, 8180, 8194, 8169, 8207, 8181, 8166, 8163, 8166, 8081,4.309290409088135
57, 8185, 8177, 8159, 8185, 8182, 8180, 8194, 8169, 8207, 8181, 8166, 8163, 8166, 8081,4.309290409088135
58, 8176, 8187, 8170, 8196, 8199, 8165, 8215, 8148, 8217, 8193, 8162, 8131, 8151, 8102,4.317297458648682
58, 8176, 8187, 8170, 8196, 8199, 8165, 8215, 8148, 8217, 8193, 8162, 8131, 8151, 8102,4.318291187286377
59, 8201, 8185, 8185, 8196, 8203, 8190, 8192, 8202, 8204, 8183, 8183, 8179, 8183, 8103,4.32533597946167
59, 8201, 8185, 8185, 8196, 8203, 8190, 8192, 8202, 8204, 8183, 8183, 8179, 8183, 8103,4.32533597946167
60, 8166, 8187, 8180, 8216, 8225, 8155, 8211, 8136, 8239, 8220, 8154, 8137, 8141, 8088,4.334124565124512
60, 8166, 8187, 8180, 8216, 8225, 8155, 8211, 8136, 8239, 8220, 8154, 8137, 8141, 8088,4.334124565124512
61, 8202, 8201, 8181, 8217, 8218, 8190, 8232, 8164, 8256, 8244, 8184, 8172, 8171, 8128,4.341125249862671
61, 8202, 8201, 8181, 8217, 8218, 8190, 8232, 8164, 8256, 8244, 8184, 8172, 8171, 8128,4.341125249862671
62, 8198, 8189, 8178, 8197, 8217, 8176, 8218, 8194, 8230, 8229, 8189, 8185, 8197, 8143,4.3486878871917725
62, 8198, 8189, 8178, 8197, 8217, 8176, 8218, 8194, 8230, 8229, 8189, 8185, 8197, 8143,4.3486878871917725
63, 8167, 8187, 8177, 8221, 8230, 8159, 8215, 8164, 8232, 8241, 8158, 8139, 8157, 8132,4.356622934341431
63, 8167, 8187, 8177, 8221, 8230, 8159, 8215, 8164, 8232, 8241, 8158, 8139, 8157, 8132,4.356622934341431
64, 8209, 8201, 8185, 8226, 8202, 8208, 8209, 8201, 8237, 8250, 8180, 8189, 8178, 8139,4.364628314971924
64, 8209, 8201, 8185, 8226, 8202, 8208, 8209, 8201, 8237, 8250, 8180, 8189, 8178, 8139,4.364628314971924
65, 8179, 8192, 8179, 8198, 8212, 8160, 8224, 8130, 8242, 8256, 8162, 8150, 8149, 8138,4.372722148895264
65, 8179, 8192, 8179, 8198, 8212, 8160, 8224, 8130, 8242, 8256, 8162, 8150, 8149, 8138,4.372722148895264
66, 8186, 8173, 8173, 8167, 8209, 8173, 8195, 8160, 8196, 8201, 8175, 8162, 8169, 8136,4.380721807479858
66, 8186, 8173, 8173, 8167, 8209, 8173, 8195, 8160, 8196, 8201, 8175, 8162, 8169, 8136,4.380721807479858
67, 8197, 8176, 8173, 8175, 8186, 8176, 8167, 8199, 8174, 8176, 8174, 8179, 8179, 8119,4.388921022415161
67, 8197, 8176, 8173, 8175, 8186, 8176, 8167, 8199, 8174, 8176, 8174, 8179, 8179, 8119,4.388921022415161
68, 8182, 8189, 8179, 8217, 8205, 8154, 8204, 8142, 8228, 8235, 8152, 8137, 8136, 8123,4.396527051925659
68, 8182, 8189, 8179, 8217, 8205, 8154, 8204, 8142, 8228, 8235, 8152, 8137, 8136, 8123,4.396527051925659
69, 8217, 8192, 8185, 8212, 8201, 8197, 8211, 8185, 8218, 8228, 8189, 8196, 8181, 8156,4.404527187347412
69, 8217, 8192, 8185, 8212, 8201, 8197, 8211, 8185, 8218, 8228, 8189, 8196, 8181, 8156,4.404527187347412
70, 8183, 8179, 8173, 8189, 8205, 8156, 8203, 8154, 8198, 8205, 8170, 8155, 8159, 8147,4.411721706390381
70, 8183, 8179, 8173, 8189, 8205, 8156, 8203, 8154, 8198, 8205, 8170, 8155, 8159, 8147,4.411721706390381
71, 8183, 8160, 8165, 8186, 8195, 8172, 8174, 8177, 8199, 8191, 8167, 8144, 8153, 8118,4.419550657272339
71, 8183, 8160, 8165, 8186, 8195, 8172, 8174, 8177, 8199, 8191, 8167, 8144, 8153, 8118,4.419550657272339
72, 8198, 8161, 8166, 8173, 8169, 8188, 8172, 8188, 8205, 8188, 8170, 8177, 8169, 8104,4.427722454071045
72, 8198, 8161, 8166, 8173, 8169, 8188, 8172, 8188, 8205, 8188, 8170, 8177, 8169, 8104,4.427722454071045
73, 8180, 8186, 8180, 8173, 8202, 8153, 8222, 8123, 8229, 8230, 8156, 8150, 8144, 8130,4.435692310333252
73, 8180, 8186, 8180, 8173, 8202, 8153, 8222, 8123, 8229, 8230, 8156, 8150, 8144, 8130,4.435692310333252
74, 8216, 8191, 8197, 8181, 8218, 8186, 8206, 8200, 8206, 8216, 8191, 8202, 8194, 8157,4.443697690963745
74, 8216, 8191, 8197, 8181, 8218, 8186, 8206, 8200, 8206, 8216, 8191, 8202, 8194, 8157,4.443697690963745
75, 8190, 8178, 8191, 8193, 8210, 8158, 8191, 8171, 8207, 8200, 8157, 8155, 8159, 8126,4.451722145080566
75, 8190, 8178, 8191, 8193, 8210, 8158, 8191, 8171, 8207, 8200, 8157, 8155, 8159, 8126,4.451722145080566
76, 8191, 8174, 8181, 8195, 8191, 8173, 8205, 8145, 8217, 8210, 8155, 8143, 8139, 8120,4.459721803665161
76, 8191, 8174, 8181, 8195, 8191, 8173, 8205, 8145, 8217, 8210, 8155, 8143, 8139, 8120,4.459721803665161
77, 8212, 8179, 8183, 8180, 8189, 8183, 8209, 8180, 8200, 8217, 8194, 8200, 8181, 8144,4.466722726821899
