COUNTER,F3,FC5,AF3,F7,T7,P7,O1,O2,P8,T8,F8,AF4,FC6,F4,Timestamp
45, 8166, 8181, 8161, 8155, 8168, 8171, 8165, 8186, 8154, 8125, 8177, 8186, 8174, 8078,0.003999471664428711
45, 8166, 8181, 8161, 8155, 8168, 8171, 8165, 8186, 8154, 8125, 8177, 8186, 8174, 8078,0.003999471664428711
46, 8175, 8199, 8171, 8174, 8173, 8160, 8190, 8156, 8180, 8156, 8157, 8162, 8151, 8086,0.01200103759765625
46, 8175, 8199, 8171, 8174, 8173, 8160, 8190, 8156, 8180, 8156, 8157, 8162, 8151, 8086,0.01200103759765625
47, 8192, 8209, 8170, 8188, 8173, 8171, 8200, 8177, 8194, 8178, 8183, 8195, 8173, 8125,0.019998550415039062
47, 8192, 8209, 8170, 8188, 8173, 8171, 8200, 8177, 8194, 8178, 8183, 8195, 8173, 8125,0.019998550415039062
48, 8184, 8200, 8169, 8186, 8173, 8166, 8185, 8173, 8179, 8170, 8183, 8192, 8181, 8134,0.028001070022583008
48, 8184, 8200, 8169, 8186, 8173, 8166, 8185, 8173, 8179, 8170, 8183, 8192, 8181, 8134,0.028001070022583008
49, 8177, 8191, 8169, 8180, 8167, 8163, 8175, 8166, 8170, 8162, 8166, 8176, 8170, 8112,0.03535652160644531
49, 8177, 8191, 8169, 8180, 8167, 8163, 8175, 8166, 8170, 8162, 8166, 8176, 8170, 8112,0.03635454177856445
50, 8190, 8190, 8169, 8173, 8156, 8170, 8186, 8189, 8183, 8174, 8178, 8202, 8178, 8112,0.04351806640625
50, 8190, 8190, 8169, 8173, 8156, 8170, 8186, 8189, 8183, 8174, 8178, 8202, 8178, 8112,0.04351806640625
51, 8195, 8208, 8195, 8192, 8172, 8158, 8211, 8159, 8211, 8215, 8173, 8187, 8164, 8143,0.05151724815368652
51, 8195, 8208, 8195, 8192, 8172, 8158, 8211, 8159, 8211, 8215, 8173, 8187, 8164, 8143,0.05151724815368652
52, 8198, 8209, 8199, 8200, 8172, 8173, 8200, 8177, 8193, 8215, 8187, 8206, 8181, 8163,0.05852055549621582
52, 8198, 8209, 8199, 8200, 8172, 8173, 8200, 8177, 8193, 8215, 8187, 8206, 8181, 8163,0.05852055549621582
53, 8177, 8184, 8166, 8176, 8147, 8170, 8167, 8173, 8154, 8167, 8171, 8186, 8170, 8127,0.06694555282592773
53, 8177, 8184, 8166, 8176, 8147, 8170, 8167, 8173, 8154, 8167, 8171, 8186, 8170, 8127,0.06731867790222168
54, 8158, 8174, 8152, 8155, 8132, 8165, 8147, 8157, 8140, 8133, 8154, 8154, 8147, 8094,0.07485723495483398
54, 8158, 8174, 8152, 8155, 8132, 8165, 8147, 8157, 8140, 8133, 8154, 8154, 8147, 8094,0.07485723495483398
55, 8163, 8181, 8157, 8144, 8117, 8173, 8128, 8185, 8118, 8119, 8166, 8179, 8164, 8081,0.08285284042358398
55, 8163, 8181, 8157, 8144, 8117, 8173, 8128, 8185, 8118, 8119, 8166, 8179, 8164, 8081,0.08285284042358398
56, 8163, 8183, 8156, 8148, 8121, 8156, 8139, 8155, 8117, 8130, 8155, 8153, 8145, 8065,0.09099912643432617
56, 8163, 8183, 8156, 8148, 8121, 8156, 8139, 8155, 8117, 8130, 8155, 8153, 8145, 8065,0.09099912643432617
57, 8171, 8187, 8150, 8155, 8141, 8164, 8158, 8168, 8138, 8134, 8173, 8172, 8155, 8083,0.09901642799377441
57, 8171, 8187, 8150, 8155, 8141, 8164, 8158, 8168, 8138, 8134, 8173, 8172, 8155, 8083,0.09901642799377441
58, 8165, 8189, 8149, 8155, 8145, 8167, 8155, 8173, 8146, 8134, 8170, 8182, 8161, 8088,0.10701727867126465
58, 8165, 8189, 8149, 8155, 8145, 8167, 8155, 8173, 8146, 8134, 8170, 8182, 8161, 8088,0.10701727867126465
59, 8154, 8174, 8150, 8148, 8130, 8162, 8139, 8146, 8136, 8143, 8154, 8151, 8147, 8071,0.1148989200592041
59, 8154, 8174, 8150, 8148, 8130, 8162, 8139, 8146, 8136, 8143, 8154, 8151, 8147, 8071,0.1148989200592041
60, 8167, 8171, 8156, 8136, 8128, 8170, 8142, 8176, 8146, 8154, 8178, 8180, 8179, 8089,0.12189936637878418
60, 8167, 8171, 8156, 8136, 8128, 8170, 8142, 8176, 8146, 8154, 8178, 8180, 8179, 8089,0.12189936637878418
61, 8174, 8194, 8180, 8158, 8159, 8155, 8179, 8166, 8189, 8188, 8178, 8176, 8174, 8113,0.12990164756774902
61, 8174, 8194, 8180, 8158, 8159, 8155, 8179, 8166, 8189, 8188, 8178, 8176, 8174, 8113,0.12990164756774902
62, 8180, 8198, 8187, 8173, 8160, 8163, 8175, 8179, 8185, 8185, 8182, 8182, 8173, 8115,0.13790011405944824
62, 8180, 8198, 8187, 8173, 8160, 8163, 8175, 8179, 8185, 8185, 8182, 8182, 8173, 8115,0.13790011405944824
63, 8169, 8175, 8176, 8163, 8139, 8168, 8146, 8181, 8154, 8153, 8171, 8177, 8170, 8091,0.1459028720855713
63, 8169, 8175, 8176, 8163, 8139, 8168, 8146, 8181, 8154, 8153, 8171, 8177, 8170, 8091,0.1459028720855713
64, 8157, 8167, 8170, 8166, 8147, 8160, 8151, 8147, 8166, 8160, 8163, 8158, 8153, 8084,0.1538999080657959
64, 8157, 8167, 8170, 8166, 8147, 8160, 8151, 8147, 8166, 8160, 8163, 8158, 8153, 8084,0.1538999080657959
65, 8168, 8180, 8174, 8168, 8154, 8171, 8160, 8170, 8175, 8169, 8193, 8195, 8176, 8108,0.16190218925476074
65, 8168, 8180, 8174, 8168, 8154, 8171, 8160, 8170, 8175, 8169, 8193, 8195, 8176, 8108,0.16190218925476074
66, 8163, 8192, 8186, 8168, 8158, 8154, 8168, 8155, 8165, 8158, 8180, 8180, 8163, 8105,0.16990232467651367
66, 8163, 8192, 8186, 8168, 8158, 8154, 8168, 8155, 8165, 8158, 8180, 8180, 8163, 8105,0.16990232467651367
67, 8160, 8203, 8174, 8169, 8166, 8157, 8165, 8166, 8153, 8145, 8173, 8187, 8165, 8094,0.17741680145263672
67, 8160, 8203, 8174, 8169, 8166, 8157, 8165, 8166, 8153, 8145, 8173, 8187, 8165, 8094,0.17741680145263672
68, 8170, 8209, 8156, 8177, 8181, 8159, 8165, 8186, 8153, 8156, 8175, 8203, 8179, 8099,0.18541574478149414
68, 8170, 8209, 8156, 8177, 8181, 8159, 8165, 8186, 8153, 8156, 8175, 8203, 8179, 8099,0.18541574478149414
69, 8176, 8215, 8173, 8193, 8188, 8151, 8179, 8166, 8174, 8180, 8167, 8181, 8165, 8109,0.19241547584533691
69, 8176, 8215, 8173, 8193, 8188, 8151, 8179, 8166, 8174, 8180, 8167, 8181, 8165, 8109,0.19241547584533691
70, 8185, 8220, 8180, 8187, 8173, 8173, 8179, 8192, 8181, 8175, 8179, 8213, 8177, 8111,0.20100688934326172
70, 8185, 8220, 8180, 8187, 8173, 8173, 8179, 8192, 8181, 8175, 8179, 8213, 8177, 8111,0.20100688934326172
71, 8174, 8213, 8167, 8186, 8170, 8167, 8179, 8172, 8180, 8173, 8165, 8203, 8164, 8096,0.20904254913330078
71, 8174, 8213, 8167, 8186, 8170, 8167, 8179, 8172, 8180, 8173, 8165, 8203, 8164, 8096,0.20904254913330078
72, 8169, 8205, 8164, 8184, 8161, 8171, 8167, 8167, 8171, 8164, 8172, 8195, 8172, 8100,0.21697115898132324
72, 8169, 8205, 8164, 8184, 8161, 8171, 8167, 8167, 8171, 8164, 8172, 8195, 8172, 8100,0.21697115898132324
73, 8178, 8199, 8173, 8169, 8144, 8176, 8148, 8170, 8166, 8148, 8178, 8204, 8177, 8110,0.22500872611999512
73, 8178, 8199, 8173, 8169, 8144, 8176, 8148, 8170, 8166, 8148, 8178, 8204, 8177, 8110,0.22500872611999512
74, 8181, 8199, 8193, 8173, 8161, 8163, 8163, 8139, 8192, 8169, 8168, 8187, 8158, 8116,0.23298096656799316
74, 8181, 8199, 8193, 8173, 8161, 8163, 8163, 8139, 8192, 8169, 8168, 8187, 8158, 8116,0.23298096656799316
75, 8181, 8205, 8195, 8185, 8179, 8178, 8181, 8185, 8203, 8183, 8196, 8213, 8190, 8129,0.2410128116607666
75, 8181, 8205, 8195, 8185, 8179, 8178, 8181, 8185, 8203, 8183, 8196, 8213, 8190, 8129,0.2410128116607666
76, 8170, 8215, 8183, 8190, 8183, 8166, 8186, 8185, 8200, 8176, 8188, 8188, 8185, 8124,0.2490077018737793
76, 8170, 8215, 8183, 8190, 8183, 8166, 8186, 8185, 8200, 8176, 8188, 8188, 8185, 8124,0.2490077018737793
77, 8182, 8218, 8188, 8193, 8188, 8160, 8196, 8176, 8201, 8175, 8189, 8187, 8178, 8129,0.2570188045501709
77, 8182, 8218, 8188, 8193, 8188, 8160, 8196, 8176, 8201, 8175, 8189, 8187, 8178, 8129,0.2570188045501709
78, 8195, 8219, 8195, 8197, 8188, 8171, 8208, 8197, 8196, 8182, 8192, 8210, 8190, 8130,0.2640109062194824
78, 8195, 8219, 8195, 8197, 8188, 8171, 8208, 8197, 8196, 8182, 8192, 8210, 8190, 8130,0.2640109062194824
79, 8181, 8228, 8191, 8203, 8188, 8166, 8217, 8166, 8195, 8198, 8166, 8166, 8159, 8118,0.27209997177124023
79, 8181, 8228, 8191, 8203, 8188, 8166, 8217, 8166, 8195, 8198, 8166, 8166, 8159, 8118,0.27209997177124023
80, 8187, 8221, 8193, 8194, 8186, 8179, 8210, 8179, 8188, 8195, 8190, 8190, 8173, 8138,0.28011322021484375
80, 8187, 8221, 8193, 8194, 8186, 8179, 8210, 8179, 8188, 8195, 8190, 8190, 8173, 8138,0.28011322021484375
81, 8182, 8202, 8205, 8185, 8187, 8171, 8198, 8174, 8183, 8179, 8182, 8192, 8172, 8141,0.2879791259765625
81, 8182, 8202, 8205, 8185, 8187, 8171, 8198, 8174, 8183, 8179, 8182, 8192, 8172, 8141,0.2879791259765625
82, 8183, 8208, 8212, 8192, 8188, 8166, 8195, 8161, 8189, 8182, 8164, 8172, 8157, 8126,0.2960057258605957
82, 8183, 8208, 8212, 8192, 8188, 8166, 8195, 8161, 8189, 8182, 8164, 8172, 8157, 8126,0.2960057258605957
83, 8202, 8224, 8222, 8207, 8191, 8177, 8211, 8176, 8197, 8196, 8186, 8200, 8174, 8134,0.30405640602111816
83, 8202, 8224, 8222, 8207, 8191, 8177, 8211, 8176, 8197, 8196, 8186, 8200, 8174, 8134,0.30405640602111816
84, 8187, 8217, 8227, 8215, 8205, 8159, 8235, 8147, 8204, 8210, 8181, 8179, 8163, 8143,0.31209516525268555
84, 8187, 8217, 8227, 8215, 8205, 8159, 8235, 8147, 8204, 8210, 8181, 8179, 8163, 8143,0.31209516525268555
85, 8178, 8208, 8210, 8202, 8202, 8168, 8214, 8186, 8184, 8194, 8189, 8199, 8186, 8137,0.3193035125732422
85, 8178, 8208, 8210, 8202, 8202, 8168, 8214, 8186, 8184, 8194, 8189, 8199, 8186, 8137,0.3193035125732422
86, 8182, 8227, 8212, 8205, 8206, 8171, 8198, 8189, 8180, 8183, 8177, 8194, 8177, 8113,0.32727503776550293
86, 8182, 8227, 8212, 8205, 8206, 8171, 8198, 8189, 8180, 8183, 8177, 8194, 8177, 8113,0.32727503776550293
87, 8178, 8233, 8220, 8220, 8226, 8161, 8222, 8143, 8200, 8191, 8156, 8150, 8139, 8109,0.3350074291229248
87, 8178, 8233, 8220, 8220, 8226, 8161, 8222, 8143, 8200, 8191, 8156, 8150, 8139, 8109,0.3350074291229248
88, 8178, 8217, 8209, 8202, 8214, 8180, 8213, 8188, 8170, 8170, 8180, 8192, 8177, 8118,0.3430061340332031
88, 8178, 8217, 8209, 8202, 8214, 8180, 8213, 8188, 8170, 8170, 8180, 8192, 8177, 8118,0.3430061340332031
89, 8173, 8222, 8216, 8197, 8212, 8168, 8208, 8183, 8158, 8173, 8169, 8182, 8175, 8105,0.35131263732910156
89, 8173, 8222, 8216, 8197, 8212, 8168, 8208, 8183, 8158, 8173, 8169, 8182, 8175, 8105,0.35131263732910156
90, 8193, 8233, 8223, 8209, 8221, 8171, 8232, 8167, 8193, 8204, 8164, 8170, 8154, 8118,0.3583180904388428
90, 8193, 8233, 8223, 8209, 8221, 8171, 8232, 8167, 8193, 8204, 8164, 8170, 8154, 8118,0.3593168258666992
91, 8201, 8216, 8205, 8204, 8211, 8175, 8238, 8176, 8202, 8202, 8179, 8193, 8166, 8136,0.3670024871826172
91, 8201, 8216, 8205, 8204, 8211, 8175, 8238, 8176, 8202, 8202, 8179, 8193, 8166, 8136,0.3670024871826172
92, 8176, 8200, 8178, 8194, 8204, 8150, 8227, 8161, 8185, 8181, 8159, 8160, 8154, 8115,0.3750948905944824
92, 8176, 8200, 8178, 8194, 8204, 8150, 8227, 8161, 8185, 8181, 8159, 8160, 8154, 8115,0.3750948905944824
93, 8178, 8203, 8170, 8190, 8193, 8163, 8215, 8183, 8167, 8179, 8163, 8163, 8163, 8101,0.382976770401001
93, 8178, 8203, 8170, 8190, 8193, 8163, 8215, 8183, 8167, 8179, 8163, 8163, 8163, 8101,0.382976770401001
94, 8178, 8204, 8169, 8200, 8199, 8160, 8232, 8152, 8180, 8205, 8162, 8157, 8156, 8113,0.391315221786499
94, 8178, 8204, 8169, 8200, 8199, 8160, 8232, 8152, 8180, 8205, 8162, 8157, 8156, 8113,0.391315221786499
95, 8170, 8203, 8146, 8197, 8213, 8160, 8252, 8153, 8193, 8207, 8168, 8157, 8157, 8126,0.3983142375946045
95, 8170, 8203, 8146, 8197, 8213, 8160, 8252, 8153, 8193, 8207, 8168, 8157, 8157, 8126,0.3983142375946045
96, 8170, 8203, 8136, 8188, 8199, 8175, 8234, 8190, 8179, 8189, 8173, 8179, 8173, 8112,0.4060060977935791
96, 8170, 8203, 8136, 8188, 8199, 8175, 8234, 8190, 8179, 8189, 8173, 8179, 8173, 8112,0.4060060977935791
97, 8164, 8207, 8143, 8199, 8195, 8159, 8223, 8147, 8184, 8204, 8152, 8146, 8142, 8098,0.4137918949127197
97, 8164, 8207, 8143, 8199, 8195, 8159, 8223, 8147, 8184, 8204, 8152, 8146, 8142, 8098,0.4137918949127197
98, 8170, 8207, 8136, 8205, 8205, 8171, 8225, 8157, 8191, 8201, 8175, 8171, 8158, 8116,0.42179203033447266
98, 8170, 8207, 8136, 8205, 8205, 8171, 8225, 8157, 8191, 8201, 8175, 8171, 8158, 8116,0.42179203033447266
99, 8165, 8195, 8131, 8195, 8209, 8166, 8225, 8170, 8179, 8177, 8174, 8181, 8172, 8115,0.42999839782714844
99, 8165, 8195, 8131, 8195, 8209, 8166, 8225, 8170, 8179, 8177, 8174, 8181, 8172, 8115,0.42999839782714844
100, 8159, 8182, 8134, 8183, 8198, 8153, 8204, 8167, 8164, 8170, 8155, 8157, 8160, 8103,0.4380035400390625
100, 8159, 8182, 8134, 8183, 8198, 8153, 8204, 8167, 8164, 8170, 8155, 8157, 8160, 8103,0.4380035400390625
101, 8165, 8180, 8130, 8179, 8179, 8168, 8181, 8173, 8150, 8161, 8162, 8166, 8159, 8088,0.4459874629974365
101, 8165, 8180, 8130, 8179, 8179, 8168, 8181, 8173, 8150, 8161, 8162, 8166, 8159, 8088,0.4459874629974365
102, 8156, 8187, 8123, 8192, 8187, 8167, 8196, 8136, 8150, 8157, 8154, 8147, 8140, 8078,0.45299506187438965
102, 8156, 8187, 8123, 8192, 8187, 8167, 8196, 8136, 8150, 8157, 8154, 8147, 8140, 8078,0.45299506187438965
103, 8161, 8188, 8127, 8189, 8195, 8176, 8209, 8166, 8146, 8152, 8167, 8174, 8169, 8104,0.46100378036499023
103, 8161, 8188, 8127, 8189, 8195, 8176, 8209, 8166, 8146, 8152, 8167, 8174, 8169, 8104,0.46100378036499023
104, 8165, 8185, 8140, 8185, 8187, 8169, 8206, 8182, 8146, 8152, 8166, 8185, 8180, 8104,0.4690241813659668
104, 8165, 8185, 8140, 8185, 8187, 8169, 8206, 8182, 8146, 8152, 8166, 8185, 8180, 8104,0.4690241813659668
105, 8174, 8193, 8141, 8197, 8191, 8166, 8212, 8165, 8174, 8177, 8166, 8178, 8159, 8098,0.47711610794067383
105, 8174, 8193, 8141, 8197, 8191, 8166, 8212, 8165, 8174, 8177, 8166, 8178, 8159, 8098,0.47711610794067383
106, 8191, 8202, 8144, 8198, 8197, 8182, 8214, 8176, 8182, 8193, 8187, 8207, 8175, 8119,0.485126256942749
106, 8191, 8202, 8144, 8198, 8197, 8182, 8214, 8176, 8182, 8193, 8187, 8207, 8175, 8119,0.485126256942749
107, 8175, 8204, 8149, 8192, 8196, 8168, 8210, 8160, 8159, 8192, 8167, 8182, 8170, 8115,0.4931342601776123
107, 8175, 8204, 8149, 8192, 8196, 8168, 8210, 8160, 8159, 8192, 8167, 8182, 8170, 8115,0.4931342601776123
108, 8169, 8199, 8139, 8179, 8174, 8178, 8176, 8194, 8132, 8166, 8165, 8186, 8182, 8090,0.5004889965057373
108, 8169, 8199, 8139, 8179, 8174, 8178, 8176, 8194, 8132, 8166, 8165, 8186, 8182, 8090,0.5004889965057373
109, 8173, 8193, 8138, 8170, 8157, 8187, 8163, 8186, 8141, 8160, 8167, 8192, 8175, 8079,0.5084891319274902
109, 8173, 8193, 8138, 8170, 8157, 8187, 8163, 8186, 8141, 8160, 8167, 8192, 8175, 8079,0.5094819068908691
110, 8178, 8196, 8142, 8177, 8167, 8186, 8190, 8161, 8160, 8185, 8172, 8183, 8164, 8102,0.5160040855407715
110, 8178, 8196, 8142, 8177, 8167, 8186, 8190, 8161, 8160, 8185, 8172, 8183, 8164, 8102,0.5160040855407715
111, 8184, 8199, 8145, 8179, 8164, 8198, 8176, 8207, 8142, 8162, 8189, 8207, 8198, 8108,0.5240042209625244
111, 8184, 8199, 8145, 8179, 8164, 8198, 8176, 8207, 8142, 8162, 8189, 8207, 8198, 8108,0.5240042209625244
112, 8162, 8190, 8141, 8166, 8158, 8178, 8162, 8181, 8145, 8149, 8162, 8170, 8174, 8072,0.5318403244018555
112, 8162, 8190, 8141, 8166, 8158, 8178, 8162, 8181, 8145, 8149, 8162, 8170, 8174, 8072,0.5318403244018555
113, 8170, 8182, 8137, 8147, 8153, 8192, 8179, 8178, 8148, 8170, 8173, 8185, 8171, 8075,0.5398406982421875
113, 8170, 8182, 8137, 8147, 8153, 8192, 8179, 8178, 8148, 8170, 8173, 8185, 8171, 8075,0.5398406982421875
114, 8194, 8194, 8161, 8164, 8167, 8202, 8193, 8203, 8139, 8174, 8191, 8221, 8199, 8104,0.5479981899261475
114, 8194, 8194, 8161, 8164, 8167, 8202, 8193, 8203, 8139, 8174, 8191, 8221, 8199, 8104,0.5479981899261475
115, 8201, 8218, 8184, 8195, 8197, 8186, 8198, 8196, 8164, 8186, 8181, 8198, 8190, 8120,0.5558872222900391
115, 8201, 8218, 8184, 8195, 8197, 8186, 8198, 8196, 8164, 8186, 8181, 8198, 8190, 8120,0.5558872222900391
116, 8206, 8223, 8183, 8187, 8185, 8201, 8192, 8206, 8170, 8194, 8199, 8223, 8201, 8130,0.5641090869903564
116, 8206, 8223, 8183, 8187, 8185, 8201, 8192, 8206, 8170, 8194, 8199, 8223, 8201, 8130,0.5641090869903564
117, 8189, 8212, 8177, 8180, 8176, 8184, 8196, 8166, 8165, 8194, 8188, 8207, 8183, 8130,0.572101354598999
117, 8189, 8212, 8177, 8180, 8176, 8184, 8196, 8166, 8165, 8194, 8188, 8207, 8183, 8130,0.572101354598999
118, 8186, 8207, 8169, 8186, 8173, 8186, 8174, 8191, 8158, 8175, 8189, 8204, 8185, 8122,0.5800039768218994
118, 8186, 8207, 8169, 8186, 8173, 8186, 8174, 8191, 8158, 8175, 8189, 8204, 8185, 8122,0.5800039768218994
119, 8186, 8203, 8164, 8178, 8160, 8193, 8146, 8200, 8134, 8155, 8184, 8206, 8187, 8100,0.5869672298431396
119, 8186, 8203, 8164, 8178, 8160, 8193, 8146, 8200, 8134, 8155, 8184, 8206, 8187, 8100,0.5869672298431396
120, 8176, 8206, 8166, 8177, 8167, 8178, 8169, 8149, 8134, 8170, 8174, 8177, 8169, 8111,0.5950047969818115
120, 8176, 8206, 8166, 8177, 8167, 8178, 8169, 8149, 8134, 8170, 8174, 8177, 8169, 8111,0.5950047969818115
121, 8190, 8209, 8176, 8182, 8173, 8193, 8181, 8195, 8142, 8173, 8206, 8218, 8205, 8138,0.6030771732330322
121, 8190, 8209, 8176, 8182, 8173, 8193, 8181, 8195, 8142, 8173, 8206, 8218, 8205, 8138,0.6030771732330322
122, 8175, 8200, 8178, 8176, 8180, 8166, 8174, 8190, 8136, 8166, 8174, 8184, 8179, 8114,0.6109917163848877
122, 8175, 8200, 8178, 8176, 8180, 8166, 8174, 8190, 8136, 8166, 8174, 8184, 8179, 8114,0.6109917163848877
123, 8170, 8202, 8165, 8167, 8180, 8167, 8177, 8179, 8122, 8166, 8157, 8174, 8165, 8100,0.6190061569213867
123, 8170, 8202, 8165, 8167, 8180, 8167, 8177, 8179, 8122, 8166, 8157, 8174, 8165, 8100,0.6190061569213867
124, 8181, 8213, 8165, 8175, 8176, 8184, 8193, 8183, 8141, 8181, 8181, 8206, 8182, 8117,0.6268696784973145
124, 8181, 8213, 8165, 8175, 8176, 8184, 8193, 8183, 8141, 8181, 8181, 8206, 8182, 8117,0.6268696784973145
125, 8171, 8210, 8168, 8185, 8198, 8165, 8206, 8154, 8178, 8210, 8172, 8170, 8155, 8134,0.6348631381988525
125, 8171, 8210, 8168, 8185, 8198, 8165, 8206, 8154, 8178, 8210, 8172, 8170, 8155, 8134,0.6348631381988525
126, 8180, 8201, 8161, 8170, 8197, 8183, 8184, 8196, 8160, 8197, 8187, 8193, 8180, 8138,0.6430039405822754
126, 8180, 8201, 8161, 8170, 8197, 8183, 8184, 8196, 8160, 8197, 8187, 8193, 8180, 8138,0.6430039405822754
127, 8173, 8207, 8162, 8166, 8180, 8173, 8184, 8167, 8154, 8184, 8173, 8172, 8163, 8117,0.6500227451324463
127, 8173, 8207, 8162, 8166, 8180, 8173, 8184, 8167, 8154, 8184, 8173, 8172, 8163, 8117,0.6500227451324463
240, 8183, 8220, 8171, 8182, 8188, 8172, 8201, 8162, 8174, 8194, 8182, 8173, 8159, 8127,0.6580257415771484
240, 8183, 8220, 8171, 8182, 8188, 8172, 8201, 8162, 8174, 8194, 8182, 8173, 8159, 8127,0.6580257415771484
0, 8191, 8218, 8169, 8188, 8203, 8181, 8190, 8198, 8164, 8187, 8197, 8205, 8188, 8134,0.6660254001617432
0, 8191, 8218, 8169, 8188, 8203, 8181, 8190, 8198, 8164, 8187, 8197, 8205, 8188, 8134,0.6660254001617432
1, 8163, 8199, 8144, 8168, 8190, 8164, 8178, 8154, 8154, 8172, 8157, 8150, 8144, 8097,0.6734440326690674
1, 8163, 8199, 8144, 8168, 8190, 8164, 8178, 8154, 8154, 8172, 8157, 8150, 8144, 8097,0.6734440326690674
2, 8167, 8178, 8124, 8137, 8151, 8186, 8162, 8174, 8136, 8148, 8178, 8176, 8157, 8091,0.6820549964904785
2, 8167, 8178, 8124, 8137, 8151, 8186, 8162, 8174, 8136, 8148, 8178, 8176, 8157, 8091,0.6820549964904785
3, 8174, 8193, 8146, 8161, 8168, 8170, 8177, 8166, 8145, 8163, 8183, 8181, 8174, 8113,0.6900546550750732
3, 8174, 8193, 8146, 8161, 8168, 8170, 8177, 8166, 8145, 8163, 8183, 8181, 8174, 8113,0.6900546550750732
4, 8179, 8213, 8167, 8190, 8194, 8163, 8189, 8164, 8165, 8186, 8172, 8165, 8170, 8123,0.6982154846191406
4, 8179, 8213, 8167, 8190, 8194, 8163, 8189, 8164, 8165, 8186, 8172, 8165, 8170, 8123,0.6982154846191406
5, 8176, 8195, 8152, 8158, 8156, 8178, 8165, 8187, 8151, 8169, 8180, 8183, 8176, 8107,0.706223726272583
5, 8176, 8195, 8152, 8158, 8156, 8178, 8165, 8187, 8151, 8169, 8180, 8183, 8176, 8107,0.706223726272583
6, 8159, 8188, 8135, 8148, 8152, 8157, 8172, 8147, 8156, 8178, 8167, 8153, 8153, 8100,0.7142219543457031
6, 8159, 8188, 8135, 8148, 8152, 8157, 8172, 8147, 8156, 8178, 8167, 8153, 8153, 8100,0.7142219543457031
7, 8168, 8193, 8134, 8159, 8166, 8179, 8172, 8188, 8151, 8172, 8194, 8190, 8188, 8119,0.7212245464324951
7, 8168, 8193, 8134, 8159, 8166, 8179, 8172, 8188, 8151, 8172, 8194, 8190, 8188, 8119,0.7212245464324951
8, 8156, 8179, 8136, 8147, 8160, 8178, 8160, 8185, 8131, 8154, 8175, 8179, 8178, 8104,0.7292323112487793
8, 8156, 8179, 8136, 8147, 8160, 8178, 8160, 8185, 8131, 8154, 8175, 8179, 8178, 8104,0.7292323112487793
9, 8154, 8169, 8134, 8136, 8153, 8172, 8154, 8167, 8133, 8154, 8160, 8151, 8155, 8096,0.7372314929962158
9, 8154, 8169, 8134, 8136, 8153, 8172, 8154, 8167, 8133, 8154, 8160, 8151, 8155, 8096,0.7372314929962158
10, 8169, 8172, 8128, 8139, 8141, 8181, 8144, 8196, 8148, 8159, 8191, 8192, 8181, 8103,0.7450041770935059
10, 8169, 8172, 8128, 8139, 8141, 8181, 8144, 8196, 8148, 8159, 8191, 8192, 8181, 8103,0.7450041770935059
11, 8155, 8172, 8123, 8145, 8149, 8159, 8161, 8150, 8168, 8182, 8176, 8160, 8155, 8096,0.7530045509338379
11, 8155, 8172, 8123, 8145, 8149, 8159, 8161, 8150, 8168, 8182, 8176, 8160, 8155, 8096,0.7530045509338379
12, 8156, 8164, 8125, 8134, 8150, 8175, 8159, 8176, 8153, 8171, 8191, 8192, 8176, 8107,0.760845422744751
12, 8156, 8164, 8125, 8134, 8150, 8175, 8159, 8176, 8153, 8171, 8191, 8192, 8176, 8107,0.760845422744751
13, 8149, 8158, 8124, 8131, 8144, 8165, 8146, 8183, 8131, 8148, 8179, 8193, 8177, 8096,0.7688450813293457
13, 8149, 8158, 8124, 8131, 8144, 8165, 8146, 8183, 8131, 8148, 8179, 8193, 8177, 8096,0.7688450813293457
14, 8146, 8156, 8119, 8126, 8134, 8160, 8147, 8151, 8121, 8137, 8156, 8152, 8148, 8071,0.7768423557281494
14, 8146, 8156, 8119, 8126, 8134, 8160, 8147, 8151, 8121, 8137, 8156, 8152, 8148, 8071,0.7768423557281494
15, 8148, 8154, 8114, 8108, 8120, 8182, 8148, 8173, 8112, 8120, 8182, 8192, 8172, 8079,0.7838456630706787
15, 8148, 8154, 8114, 8108, 8120, 8182, 8148, 8173, 8112, 8120, 8182, 8192, 8172, 8079,0.7838456630706787
16, 8139, 8162, 8119, 8125, 8140, 8161, 8159, 8154, 8142, 8140, 8169, 8174, 8161, 8102,0.7920057773590088
16, 8139, 8162, 8119, 8125, 8140, 8161, 8159, 8154, 8142, 8140, 8169, 8174, 8161, 8102,0.7920057773590088
17, 8168, 8178, 8141, 8150, 8155, 8178, 8145, 8195, 8152, 8157, 8180, 8188, 8177, 8111,0.8000707626342773
17, 8168, 8178, 8141, 8150, 8155, 8178, 8145, 8195, 8152, 8157, 8180, 8188, 8177, 8111,0.8000707626342773
18, 8176, 8180, 8146, 8152, 8156, 8175, 8142, 8188, 8143, 8159, 8173, 8186, 8167, 8089,0.8080039024353027
18, 8176, 8180, 8146, 8152, 8156, 8175, 8142, 8188, 8143, 8159, 8173, 8186, 8167, 8089,0.8080039024353027
19, 8166, 8175, 8139, 8155, 8160, 8164, 8163, 8153, 8159, 8168, 8172, 8167, 8152, 8101,0.8160049915313721
19, 8166, 8175, 8139, 8155, 8160, 8164, 8163, 8153, 8159, 8168, 8172, 8167, 8152, 8101,0.8160049915313721
20, 8182, 8175, 8146, 8157, 8149, 8187, 8148, 8197, 8145, 8153, 8201, 8212, 8195, 8120,0.8233990669250488
20, 8182, 8175, 8146, 8157, 8149, 8187, 8148, 8197, 8145, 8153, 8201, 8212, 8195, 8120,0.8243932723999023
21, 8159, 8167, 8145, 8149, 8145, 8169, 8143, 8159, 8118, 8146, 8159, 8164, 8157, 8081,0.832392692565918
21, 8159, 8167, 8145, 8149, 8145, 8169, 8143, 8159, 8118, 8146, 8159, 8164, 8157, 8081,0.832392692565918
22, 8143, 8148, 8127, 8122, 8136, 8182, 8158, 8167, 8099, 8136, 8167, 8161, 8155, 8059,0.8400053977966309
22, 8143, 8148, 8127, 8122, 8136, 8182, 8158, 8167, 8099, 8136, 8167, 8161, 8155, 8059,0.8400053977966309
23, 8146, 8143, 8125, 8112, 8136, 8182, 8156, 8186, 8094, 8125, 8181, 8171, 8178, 8062,0.8479995727539062
23, 8146, 8143, 8125, 8112, 8136, 8182, 8156, 8186, 8094, 8125, 8181, 8171, 8178, 8062,0.8479995727539062
24, 8152, 8160, 8139, 8129, 8149, 8168, 8143, 8157, 8106, 8138, 8161, 8139, 8151, 8063,0.854644775390625
24, 8152, 8160, 8139, 8129, 8149, 8168, 8143, 8157, 8106, 8138, 8161, 8139, 8151, 8063,0.854644775390625
25, 8161, 8167, 8143, 8127, 8133, 8189, 8135, 8179, 8103, 8133, 8186, 8186, 8168, 8076,0.8627059459686279
25, 8161, 8167, 8143, 8127, 8133, 8189, 8135, 8179, 8103, 8133, 8186, 8186, 8168, 8076,0.8627059459686279
26, 8149, 8163, 8147, 8130, 8145, 8163, 8158, 8152, 8116, 8143, 8179, 8168, 8166, 8088,0.8710746765136719
26, 8149, 8163, 8147, 8130, 8145, 8163, 8158, 8152, 8116, 8143, 8179, 8168, 8166, 8088,0.8710746765136719
27, 8164, 8173, 8152, 8141, 8164, 8166, 8144, 8176, 8120, 8151, 8187, 8168, 8185, 8099,0.8790574073791504
27, 8164, 8173, 8152, 8141, 8164, 8166, 8144, 8176, 8120, 8151, 8187, 8168, 8185, 8099,0.8790574073791504
28, 8168, 8179, 8158, 8135, 8148, 8176, 8114, 8185, 8118, 8144, 8176, 8185, 8180, 8087,0.8869674205780029
28, 8168, 8179, 8158, 8135, 8148, 8176, 8114, 8185, 8118, 8144, 8176, 8185, 8180, 8087,0.8869674205780029
29, 8156, 8181, 8162, 8137, 8142, 8161, 8141, 8140, 8142, 8159, 8156, 8163, 8143, 8094,0.8949015140533447
29, 8156, 8181, 8162, 8137, 8142, 8161, 8141, 8140, 8142, 8159, 8156, 8163, 8143, 8094,0.8949015140533447
30, 8172, 8184, 8161, 8139, 8151, 8178, 8166, 8191, 8142, 8167, 8194, 8206, 8184, 8136,0.9029679298400879
30, 8172, 8184, 8161, 8139, 8151, 8178, 8166, 8191, 8142, 8167, 8194, 8206, 8184, 8136,0.9029679298400879
31, 8164, 8187, 8164, 8144, 8163, 8163, 8175, 8173, 8149, 8173, 8172, 8171, 8165, 8129,0.9099760055541992
31, 8164, 8187, 8164, 8144, 8163, 8163, 8175, 8173, 8149, 8173, 8172, 8171, 8165, 8129,0.9099760055541992
32, 8164, 8186, 8161, 8146, 8147, 8171, 8167, 8158, 8153, 8166, 8169, 8168, 8149, 8113,0.9179978370666504
32, 8164, 8186, 8161, 8146, 8147, 8171, 8167, 8158, 8153, 8166, 8169, 8168, 8149, 8113,0.9179978370666504
33, 8160, 8169, 8146, 8137, 8137, 8173, 8156, 8170, 8125, 8147, 8185, 8196, 8173, 8113,0.9260125160217285
33, 8160, 8169, 8146, 8137, 8137, 8173, 8156, 8170, 8125, 8147, 8185, 8196, 8173, 8113,0.9260125160217285
34, 8143, 8161, 8147, 8142, 8156, 8145, 8164, 8148, 8120, 8151, 8161, 8151, 8154, 8111,0.9340100288391113
34, 8143, 8161, 8147, 8142, 8156, 8145, 8164, 8148, 8120, 8151, 8161, 8151, 8154, 8111,0.9340100288391113
35, 8164, 8170, 8155, 8144, 8144, 8167, 8153, 8193, 8130, 8145, 8171, 8178, 8168, 8113,0.9420061111450195
35, 8164, 8170, 8155, 8144, 8144, 8167, 8153, 8193, 8130, 8145, 8171, 8178, 8168, 8113,0.9420061111450195
36, 8157, 8170, 8151, 8146, 8134, 8158, 8152, 8155, 8143, 8158, 8159, 8166, 8148, 8107,0.9500746726989746
36, 8157, 8170, 8151, 8146, 8134, 8158, 8152, 8155, 8143, 8158, 8159, 8166, 8148, 8107,0.9500746726989746
37, 8148, 8156, 8142, 8145, 8143, 8161, 8147, 8142, 8128, 8159, 8166, 8163, 8149, 8115,0.9580910205841064
37, 8148, 8156, 8142, 8145, 8143, 8161, 8147, 8142, 8128, 8159, 8166, 8163, 8149, 8115,0.9580910205841064
38, 8149, 8142, 8131, 8133, 8139, 8168, 8129, 8182, 8104, 8121, 8162, 8177, 8167, 8104,0.9660708904266357
38, 8149, 8142, 8131, 8133, 8139, 8168, 8129, 8182, 8104, 8121, 8162, 8177, 8167, 8104,0.9660708904266357
39, 8137, 8151, 8129, 8140, 8143, 8148, 8152, 8135, 8131, 8129, 8135, 8131, 8129, 8087,0.973621129989624
39, 8137, 8151, 8129, 8140, 8143, 8148, 8152, 8135, 8131, 8129, 8135, 8131, 8129, 8087,0.973621129989624
40, 8153, 8159, 8134, 8148, 8130, 8173, 8153, 8156, 8133, 8145, 8182, 8180, 8162, 8112,0.9806208610534668
40, 8153, 8159, 8134, 8148, 8130, 8173, 8153, 8156, 8133, 8145, 8182, 8180, 8162, 8112,0.9816162586212158
41, 8147, 8153, 8133, 8144, 8116, 8156, 8126, 8160, 8108, 8132, 8177, 8175, 8167, 8116,0.9884676933288574
41, 8147, 8153, 8133, 8144, 8116, 8156, 8126, 8160, 8108, 8132, 8177, 8175, 8167, 8116,0.9894695281982422
42, 8143, 8158, 8139, 8139, 8117, 8145, 8123, 8155, 8112, 8125, 8160, 8149, 8150, 8105,0.9967532157897949
42, 8143, 8158, 8139, 8139, 8117, 8145, 8123, 8155, 8112, 8125, 8160, 8149, 8150, 8105,0.9967532157897949
43, 8162, 8171, 8149, 8139, 8125, 8165, 8139, 8173, 8115, 8136, 8174, 8179, 8167, 8112,1.0049736499786377
43, 8162, 8171, 8149, 8139, 8125, 8165, 8139, 8173, 8115, 8136, 8174, 8179, 8167, 8112,1.0049736499786377
44, 8159, 8177, 8148, 8152, 8146, 8145, 8153, 8140, 8109, 8149, 8155, 8145, 8148, 8116,1.012976884841919
44, 8159, 8177, 8148, 8152, 8146, 8145, 8153, 8140, 8109, 8149, 8155, 8145, 8148, 8116,1.012976884841919
45, 8159, 8169, 8136, 8146, 8125, 8167, 8129, 8175, 8085, 8102, 8167, 8164, 8164, 8099,1.0210015773773193
45, 8159, 8169, 8136, 8146, 8125, 8167, 8129, 8175, 8085, 8102, 8167, 8164, 8164, 8099,1.0210015773773193
46, 8144, 8166, 8133, 8138, 8111, 8166, 8124, 8151, 8072, 8086, 8155, 8159, 8151, 8076,1.028533697128296
46, 8144, 8166, 8133, 8138, 8111, 8166, 8124, 8151, 8072, 8086, 8155, 8159, 8151, 8076,1.028533697128296
47, 8147, 8176, 8143, 8149, 8144, 8156, 8139, 8137, 8077, 8131, 8163, 8155, 8153, 8105,1.0365331172943115
47, 8147, 8176, 8143, 8149, 8144, 8156, 8139, 8137, 8077, 8131, 8163, 8155, 8153, 8105,1.0365331172943115
48, 8173, 8182, 8152, 8154, 8148, 8173, 8134, 8190, 8093, 8137, 8186, 8193, 8187, 8128,1.0440049171447754
48, 8173, 8182, 8152, 8154, 8148, 8173, 8134, 8190, 8093, 8137, 8186, 8193, 8187, 8128,1.0440049171447754
49, 8165, 8187, 8145, 8160, 8147, 8154, 8142, 8141, 8134, 8146, 8158, 8155, 8149, 8112,1.0520050525665283
49, 8165, 8187, 8145, 8160, 8147, 8154, 8142, 8141, 8134, 8146, 8158, 8155, 8149, 8112,1.0520050525665283
50, 8159, 8175, 8123, 8145, 8146, 8169, 8130, 8160, 8111, 8134, 8175, 8174, 8163, 8111,1.059697151184082
50, 8159, 8175, 8123, 8145, 8146, 8169, 8130, 8160, 8111, 8134, 8175, 8174, 8163, 8111,1.059697151184082
51, 8145, 8160, 8119, 8132, 8137, 8167, 8120, 8180, 8070, 8112, 8162, 8165, 8163, 8089,1.0676887035369873
51, 8145, 8160, 8119, 8132, 8137, 8167, 8120, 8180, 8070, 8112, 8162, 8165, 8163, 8089,1.0676887035369873
52, 8148, 8174, 8138, 8153, 8144, 8160, 8149, 8152, 8097, 8137, 8151, 8150, 8140, 8085,1.0759990215301514
52, 8148, 8174, 8138, 8153, 8144, 8160, 8149, 8152, 8097, 8137, 8151, 8150, 8140, 8085,1.0759990215301514
53, 8167, 8185, 8147, 8155, 8140, 8181, 8158, 8167, 8112, 8154, 8175, 8195, 8165, 8111,1.0840044021606445
53, 8167, 8185, 8147, 8155, 8140, 8181, 8158, 8167, 8112, 8154, 8175, 8195, 8165, 8111,1.0840044021606445
54, 8147, 8176, 8153, 8147, 8141, 8154, 8158, 8139, 8110, 8161, 8161, 8158, 8151, 8110,1.0920281410217285
54, 8147, 8176, 8153, 8147, 8141, 8154, 8158, 8139, 8110, 8161, 8161, 8158, 8151, 8110,1.0920281410217285
55, 8159, 8173, 8162, 8152, 8157, 8165, 8141, 8171, 8105, 8151, 8181, 8180, 8169, 8110,1.1000263690948486
55, 8159, 8173, 8162, 8152, 8157, 8165, 8141, 8171, 8105, 8151, 8181, 8180, 8169, 8110,1.1000263690948486
56, 8171, 8179, 8154, 8159, 8165, 8171, 8120, 8178, 8112, 8138, 8168, 8183, 8163, 8100,1.1069674491882324
56, 8171, 8179, 8154, 8159, 8165, 8171, 8120, 8178, 8112, 8138, 8168, 8183, 8163, 8100,1.1074440479278564
57, 8156, 8177, 8144, 8158, 8141, 8157, 8129, 8143, 8129, 8153, 8159, 8153, 8143, 8103,1.1150050163269043
57, 8156, 8177, 8144, 8158, 8141, 8157, 8129, 8143, 8129, 8153, 8159, 8153, 8143, 8103,1.1150050163269043
58, 8166, 8171, 8157, 8149, 8120, 8178, 8132, 8179, 8105, 8148, 8192, 8205, 8183, 8129,1.123004674911499
58, 8166, 8171, 8157, 8149, 8120, 8178, 8132, 8179, 8105, 8148, 8192, 8205, 8183, 8129,1.123004674911499
59, 8160, 8174, 8176, 8162, 8136, 8159, 8138, 8160, 8100, 8133, 8170, 8179, 8159, 8123,1.131070613861084
59, 8160, 8174, 8176, 8162, 8136, 8159, 8138, 8160, 8100, 8133, 8170, 8179, 8159, 8123,1.131070613861084
60, 8161, 8174, 8171, 8163, 8126, 8169, 8120, 8174, 8104, 8116, 8176, 8175, 8158, 8100,1.1390039920806885
60, 8161, 8174, 8171, 8163, 8126, 8169, 8120, 8174, 8104, 8116, 8176, 8175, 8158, 8100,1.1390039920806885
61, 8164, 8177, 8162, 8155, 8145, 8177, 8094, 8166, 8079, 8109, 8176, 8183, 8165, 8082,1.1470258235931396
61, 8164, 8177, 8162, 8155, 8145, 8177, 8094, 8166, 8079, 8109, 8176, 8183, 8165, 8082,1.1470258235931396
62, 8169, 8198, 8185, 8174, 8191, 8154, 8121, 8124, 8079, 8127, 8174, 8172, 8157, 8111,1.1550257205963135
62, 8169, 8198, 8185, 8174, 8191, 8154, 8121, 8124, 8079, 8127, 8174, 8172, 8157, 8111,1.1550257205963135
63, 8196, 8208, 8209, 8178, 8145, 8173, 8139, 8184, 8096, 8129, 8204, 8223, 8194, 8149,1.163003921508789
63, 8196, 8208, 8209, 8178, 8145, 8173, 8139, 8184, 8096, 8129, 8204, 8223, 8194, 8149,1.163003921508789
64, 8190, 8201, 8205, 8186, 8136, 8157, 8131, 8173, 8115, 8152, 8180, 8195, 8166, 8131,1.171003818511963
64, 8190, 8201, 8205, 8186, 8136, 8157, 8131, 8173, 8115, 8152, 8180, 8195, 8166, 8131,1.1715590953826904
65, 8201, 8211, 8211, 8231, 8197, 8154, 8136, 8163, 8131, 8187, 8193, 8210, 8167, 8142,1.177703619003296
65, 8201, 8211, 8211, 8231, 8197, 8154, 8136, 8163, 8131, 8187, 8193, 8210, 8167, 8142,1.177703619003296
66, 8219, 8235, 8239, 8243, 8179, 8149, 8158, 8179, 8147, 8193, 8205, 8238, 8188, 8180,1.1856975555419922
66, 8219, 8235, 8239, 8243, 8179, 8149, 8158, 8179, 8147, 8193, 8205, 8238, 8188, 8180,1.1856975555419922
67, 8213, 8237, 8240, 8224, 8137, 8128, 8157, 8154, 8159, 8191, 8184, 8194, 8154, 8180,1.1936912536621094
67, 8213, 8237, 8240, 8224, 8137, 8128, 8157, 8154, 8159, 8191, 8184, 8194, 8154, 8180,1.1936912536621094
68, 8221, 8214, 8224, 8235, 8131, 8163, 8129, 8179, 8143, 8186, 8201, 8220, 8165, 8171,1.2020041942596436
68, 8221, 8214, 8224, 8235, 8131, 8163, 8129, 8179, 8143, 8186, 8201, 8220, 8165, 8171,1.2020041942596436
69, 8201, 8200, 8229, 8252, 8165, 8146, 8132, 8150, 8139, 8186, 8186, 8200, 8163, 8165,1.2100389003753662
69, 8201, 8200, 8229, 8252, 8165, 8146, 8132, 8150, 8139, 8186, 8186, 8200, 8163, 8165,1.2100389003753662
70, 8201, 8213, 8229, 8233, 8186, 8134, 8128, 8158, 8133, 8175, 8189, 8197, 8172, 8167,1.21803879737854
70, 8201, 8213, 8229, 8233, 8186, 8134, 8128, 8158, 8133, 8175, 8189, 8197, 8172, 8167,1.21803879737854
71, 8223, 8211, 8218, 8221, 8143, 8152, 8123, 8183, 8124, 8174, 8196, 8215, 8174, 8160,1.2260396480560303
71, 8223, 8211, 8218, 8221, 8143, 8152, 8123, 8183, 8124, 8174, 8196, 8215, 8174, 8160,1.2260396480560303
72, 8213, 8190, 8225, 8236, 8117, 8143, 8151, 8135, 8145, 8194, 8186, 8186, 8148, 8166,1.234039306640625
72, 8213, 8190, 8225, 8236, 8117, 8143, 8151, 8135, 8145, 8194, 8186, 8186, 8148, 8166,1.234039306640625
73, 8219, 8185, 8236, 8227, 8139, 8164, 8137, 8181, 8133, 8173, 8204, 8221, 8183, 8181,1.241039752960205
73, 8219, 8185, 8236, 8227, 8139, 8164, 8137, 8181, 8133, 8173, 8204, 8221, 8183, 8181,1.241039752960205
74, 8219, 8197, 8231, 8228, 8164, 8152, 8124, 8178, 8129, 8168, 8183, 8195, 8164, 8159,1.2490403652191162
74, 8219, 8197, 8231, 8228, 8164, 8152, 8124, 8178, 8129, 8168, 8183, 8195, 8164, 8159,1.2490403652191162
75, 8221, 8199, 8224, 8236, 8158, 8150, 8144, 8147, 8153, 8197, 8189, 8189, 8149, 8158,1.2570431232452393
75, 8221, 8199, 8224, 8236, 8158, 8150, 8144, 8147, 8153, 8197, 8189, 8189, 8149, 8158,1.2570431232452393
76, 8222, 8178, 8228, 8211, 8144, 8160, 8136, 8170, 8137, 8191, 8200, 8224, 8179, 8168,1.2650437355041504
76, 8222, 8178, 8228, 8211, 8144, 8160, 8136, 8170, 8137, 8191, 8200, 8224, 8179, 8168,1.2650437355041504
77, 8201, 8163, 8228, 8205, 8148, 8139, 8122, 8152, 8133, 8175, 8174, 8182, 8160, 8153,1.2725656032562256
77, 8201, 8163, 8228, 8205, 8148, 8139, 8122, 8152, 8133, 8175, 8174, 8182, 8160, 8153,1.2725656032562256
78, 8209, 8171, 8219, 8218, 8144, 8162, 8112, 8183, 8149, 8163, 8193, 8201, 8172, 8149,1.280564785003662
78, 8209, 8171, 8219, 8218, 8144, 8162, 8112, 8183, 8149, 8163, 8193, 8201, 8172, 8149,1.280564785003662
79, 8204, 8181, 8220, 8224, 8151, 8158, 8129, 8165, 8162, 8174, 8182, 8190, 8158, 8142,1.2892239093780518
79, 8204, 8181, 8220, 8224, 8151, 8158, 8129, 8165, 8162, 8174, 8182, 8190, 8158, 8142,1.2892239093780518
80, 8200, 8175, 8230, 8221, 8143, 8158, 8136, 8147, 8160, 8184, 8174, 8174, 8145, 8141,1.29695725440979
80, 8200, 8175, 8230, 8221, 8143, 8158, 8136, 8147, 8160, 8184, 8174, 8174, 8145, 8141,1.29695725440979
81, 8206, 8162, 8225, 8205, 8119, 8176, 8111, 8176, 8137, 8161, 8187, 8209, 8173, 8146,1.3049495220184326
81, 8206, 8162, 8225, 8205, 8119, 8176, 8111, 8176, 8137, 8161, 8187, 8209, 8173, 8146,1.3049495220184326
82, 8196, 8173, 8225, 8213, 8147, 8147, 8125, 8134, 8147, 8174, 8179, 8184, 8159, 8158,1.3119986057281494
82, 8196, 8173, 8225, 8213, 8147, 8147, 8125, 8134, 8147, 8174, 8179, 8184, 8159, 8158,1.3119986057281494
83, 8212, 8184, 8230, 8220, 8175, 8162, 8123, 8167, 8144, 8172, 8203, 8204, 8178, 8170,1.320004940032959
83, 8212, 8184, 8230, 8220, 8175, 8162, 8123, 8167, 8144, 8172, 8203, 8204, 8178, 8170,1.320004940032959
84, 8209, 8173, 8227, 8211, 8167, 8160, 8101, 8180, 8137, 8153, 8183, 8202, 8175, 8149,1.3279917240142822
84, 8209, 8173, 8227, 8211, 8167, 8160, 8101, 8180, 8137, 8153, 8183, 8202, 8175, 8149,1.3279917240142822
85, 8201, 8170, 8223, 8213, 8155, 8150, 8109, 8155, 8153, 8163, 8171, 8182, 8154, 8136,1.336008071899414
85, 8201, 8170, 8223, 8213, 8155, 8150, 8109, 8155, 8153, 8163, 8171, 8182, 8154, 8136,1.336008071899414
86, 8218, 8177, 8221, 8217, 8139, 8173, 8108, 8185, 8147, 8161, 8195, 8203, 8173, 8134,1.3440043926239014
86, 8218, 8177, 8221, 8217, 8139, 8173, 8108, 8185, 8147, 8161, 8195, 8203, 8173, 8134,1.3440043926239014
87, 8212, 8185, 8223, 8230, 8155, 8157, 8123, 8150, 8168, 8189, 8178, 8175, 8152, 8131,1.3520050048828125
87, 8212, 8185, 8223, 8230, 8155, 8157, 8123, 8150, 8168, 8189, 8178, 8175, 8152, 8131,1.3520050048828125
88, 8216, 8188, 8225, 8224, 8167, 8169, 8139, 8158, 8187, 8203, 8190, 8195, 8167, 8156,1.3600225448608398
88, 8216, 8188, 8225, 8224, 8167, 8169, 8139, 8158, 8187, 8203, 8190, 8195, 8167, 8156,1.3600225448608398
89, 8209, 8179, 8220, 8210, 8163, 8169, 8127, 8166, 8175, 8178, 8186, 8194, 8173, 8153,1.3680799007415771
89, 8209, 8179, 8220, 8210, 8163, 8169, 8127, 8166, 8175, 8178, 8186, 8194, 8173, 8153,1.3680799007415771
90, 8211, 8185, 8222, 8228, 8169, 8152, 8123, 8149, 8190, 8197, 8176, 8176, 8153, 8151,1.3747239112854004
90, 8211, 8185, 8222, 8228, 8169, 8152, 8123, 8149, 8190, 8197, 8176, 8176, 8153, 8151,1.3747239112854004
91, 8237, 8201, 8227, 8233, 8163, 8168, 8135, 8181, 8208, 8227, 8198, 8223, 8173, 8187,1.3827228546142578
91, 8237, 8201, 8227, 8233, 8163, 8168, 8135, 8181, 8208, 8227, 8198, 8223, 8173, 8187,1.3827228546142578
92, 8217, 8205, 8226, 8233, 8176, 8145, 8159, 8149, 8213, 8226, 8181, 8189, 8159, 8187,1.3910040855407715
92, 8217, 8205, 8226, 8233, 8176, 8145, 8159, 8149, 8213, 8226, 8181, 8189, 8159, 8187,1.3910040855407715
93, 8213, 8192, 8221, 8233, 8184, 8151, 8138, 8165, 8195, 8190, 8178, 8179, 8160, 8161,1.398993968963623
93, 8213, 8192, 8221, 8233, 8184, 8151, 8138, 8165, 8195, 8190, 8178, 8179, 8160, 8161,1.398993968963623
94, 8217, 8177, 8208, 8217, 8171, 8158, 8111, 8175, 8179, 8171, 8175, 8191, 8152, 8148,1.4069914817810059
94, 8217, 8177, 8208, 8217, 8171, 8158, 8111, 8175, 8179, 8171, 8175, 8191, 8152, 8148,1.4069914817810059
95, 8203, 8183, 8212, 8222, 8180, 8148, 8133, 8137, 8192, 8193, 8174, 8172, 8140, 8160,1.415001630783081
95, 8203, 8183, 8212, 8222, 8180, 8148, 8133, 8137, 8192, 8193, 8174, 8172, 8140, 8160,1.415001630783081
96, 8221, 8192, 8231, 8237, 8183, 8169, 8139, 8179, 8193, 8195, 8198, 8206, 8181, 8172,1.423081874847412
96, 8221, 8192, 8231, 8237, 8183, 8169, 8139, 8179, 8193, 8195, 8198, 8206, 8181, 8172,1.423081874847412
97, 8223, 8194, 8233, 8246, 8181, 8148, 8153, 8159, 8212, 8213, 8182, 8185, 8158, 8165,1.4306893348693848
97, 8223, 8194, 8233, 8246, 8181, 8148, 8153, 8159, 8212, 8213, 8182, 8185, 8158, 8165,1.4306893348693848
98, 8225, 8199, 8231, 8253, 8189, 8152, 8178, 8154, 8227, 8234, 8186, 8189, 8156, 8183,1.4377083778381348
98, 8225, 8199, 8231, 8253, 8189, 8152, 8178, 8154, 8227, 8234, 8186, 8189, 8156, 8183,1.4377083778381348
99, 8234, 8198, 8242, 8269, 8204, 8160, 8176, 8179, 8211, 8232, 8194, 8211, 8183, 8197,1.4457159042358398
99, 8234, 8198, 8242, 8269, 8204, 8160, 8176, 8179, 8211, 8232, 8194, 8211, 8183, 8197,1.4457159042358398
100, 8231, 8200, 8248, 8286, 8218, 8138, 8163, 8148, 8214, 8235, 8178, 8180, 8154, 8183,1.4540050029754639
100, 8231, 8200, 8248, 8286, 8218, 8138, 8163, 8148, 8214, 8235, 8178, 8180, 8154, 8183,1.4540050029754639
101, 8240, 8208, 8242, 8273, 8206, 8161, 8150, 8170, 8208, 8221, 8185, 8207, 8160, 8178,1.4620108604431152
101, 8240, 8208, 8242, 8273, 8206, 8161, 8150, 8170, 8208, 8221, 8185, 8207, 8160, 8178,1.4620108604431152
102, 8221, 8198, 8235, 8261, 8202, 8147, 8148, 8149, 8195, 8217, 8172, 8192, 8155, 8179,1.470010757446289
102, 8221, 8198, 8235, 8261, 8202, 8147, 8148, 8149, 8195, 8217, 8172, 8192, 8155, 8179,1.470010757446289
103, 8207, 8165, 8217, 8244, 8191, 8139, 8120, 8146, 8184, 8205, 8176, 8171, 8152, 8168,1.4780218601226807
103, 8207, 8165, 8217, 8244, 8191, 8139, 8120, 8146, 8184, 8205, 8176, 8171, 8152, 8168,1.4780218601226807
104, 8208, 8153, 8206, 8215, 8162, 8152, 8111, 8172, 8195, 8190, 8181, 8183, 8160, 8149,1.4857876300811768
104, 8208, 8153, 8206, 8215, 8162, 8152, 8111, 8172, 8195, 8190, 8181, 8183, 8160, 8149,1.4857876300811768
105, 8203, 8174, 8226, 8220, 8176, 8133, 8162, 8137, 8228, 8213, 8164, 8166, 8144, 8156,1.4937844276428223
105, 8203, 8174, 8226, 8220, 8176, 8133, 8162, 8137, 8228, 8213, 8164, 8166, 8144, 8156,1.4937844276428223
106, 8216, 8170, 8234, 8227, 8180, 8149, 8163, 8171, 8204, 8203, 8181, 8195, 8163, 8164,1.501004934310913
106, 8216, 8170, 8234, 8227, 8180, 8149, 8163, 8171, 8204, 8203, 8181, 8195, 8163, 8164,1.501004934310913
107, 8206, 8160, 8223, 8229, 8172, 8148, 8147, 8160, 8184, 8192, 8171, 8180, 8150, 8149,1.5090041160583496
107, 8206, 8160, 8223, 8229, 8172, 8148, 8147, 8160, 8184, 8192, 8171, 8180, 8150, 8149,1.5090041160583496
108, 8207, 8176, 8221, 8231, 8182, 8151, 8158, 8138, 8187, 8211, 8171, 8180, 8149, 8164,1.516968011856079
108, 8207, 8176, 8221, 8231, 8182, 8151, 8158, 8138, 8187, 8211, 8171, 8180, 8149, 8164,1.516968011856079
109, 8226, 8175, 8225, 8227, 8183, 8160, 8142, 8174, 8152, 8186, 8184, 8208, 8170, 8178,1.5252995491027832
109, 8226, 8175, 8225, 8227, 8183, 8160, 8142, 8174, 8152, 8186, 8184, 8208, 8170, 8178,1.5252995491027832
110, 8220, 8170, 8225, 8242, 8189, 8136, 8126, 8143, 8155, 8176, 8166, 8166, 8139, 8164,1.5332975387573242
110, 8220, 8170, 8225, 8242, 8189, 8136, 8126, 8143, 8155, 8176, 8166, 8166, 8139, 8164,1.5332975387573242
111, 8242, 8189, 8238, 8257, 8194, 8157, 8135, 8154, 8202, 8223, 8184, 8205, 8158, 8191,1.5403316020965576
111, 8242, 8189, 8238, 8257, 8194, 8157, 8135, 8154, 8202, 8223, 8184, 8205, 8158, 8191,1.5413508415222168
112, 8252, 8202, 8257, 8260, 8211, 8147, 8172, 8161, 8244, 8275, 8191, 8227, 8175, 8226,1.5483412742614746
112, 8252, 8202, 8257, 8260, 8211, 8147, 8172, 8161, 8244, 8275, 8191, 8227, 8175, 8226,1.549339771270752
113, 8244, 8195, 8249, 8256, 8205, 8138, 8194, 8163, 8256, 8269, 8181, 8192, 8162, 8215,1.5569672584533691
113, 8244, 8195, 8249, 8256, 8205, 8138, 8194, 8163, 8256, 8269, 8181, 8192, 8162, 8215,1.5569672584533691
114, 8227, 8175, 8216, 8231, 8173, 8163, 8177, 8186, 8225, 8217, 8179, 8193, 8161, 8176,1.5649945735931396
114, 8227, 8175, 8216, 8231, 8173, 8163, 8177, 8186, 8225, 8217, 8179, 8193, 8161, 8176,1.5649945735931396
115, 8195, 8150, 8196, 8210, 8191, 8145, 8180, 8139, 8202, 8207, 8163, 8165, 8141, 8153,1.5719914436340332
115, 8195, 8150, 8196, 8210, 8191, 8145, 8180, 8139, 8202, 8207, 8163, 8165, 8141, 8153,1.5719914436340332
116, 8211, 8141, 8194, 8204, 8193, 8158, 8178, 8165, 8181, 8200, 8175, 8179, 8167, 8160,1.5799789428710938
116, 8211, 8141, 8194, 8204, 8193, 8158, 8178, 8165, 8181, 8200, 8175, 8179, 8167, 8160,1.5799789428710938
117, 8218, 8159, 8195, 8211, 8163, 8162, 8178, 8170, 8180, 8197, 8172, 8184, 8168, 8151,1.5880038738250732
117, 8218, 8159, 8195, 8211, 8163, 8162, 8178, 8170, 8180, 8197, 8172, 8184, 8168, 8151,1.5880038738250732
118, 8204, 8165, 8199, 8220, 8170, 8153, 8180, 8132, 8196, 8210, 8172, 8175, 8148, 8144,1.5960447788238525
118, 8204, 8165, 8199, 8220, 8170, 8153, 8180, 8132, 8196, 8210, 8172, 8175, 8148, 8144,1.5960447788238525
119, 8207, 8142, 8196, 8217, 8182, 8165, 8137, 8169, 8166, 8179, 8184, 8193, 8172, 8139,1.6040453910827637
119, 8207, 8142, 8196, 8217, 8182, 8165, 8137, 8169, 8166, 8179, 8184, 8193, 8172, 8139,1.6040453910827637
120, 8203, 8157, 8200, 8233, 8181, 8139, 8112, 8162, 8151, 8175, 8162, 8161, 8161, 8123,1.6120622158050537
120, 8203, 8157, 8200, 8233, 8181, 8139, 8112, 8162, 8151, 8175, 8162, 8161, 8161, 8123,1.6120622158050537
121, 8224, 8200, 8217, 8244, 8171, 8156, 8109, 8176, 8163, 8194, 8176, 8187, 8165, 8141,1.6200103759765625
121, 8224, 8200, 8217, 8244, 8171, 8156, 8109, 8176, 8163, 8194, 8176, 8187, 8165, 8141,1.6200103759765625
122, 8232, 8196, 8229, 8233, 8174, 8161, 8100, 8170, 8156, 8179, 8180, 8202, 8170, 8155,1.6279821395874023
122, 8232, 8196, 8229, 8233, 8174, 8161, 8100, 8170, 8156, 8179, 8180, 8202, 8170, 8155,1.6284949779510498
123, 8231, 8177, 8232, 8231, 8179, 8148, 8104, 8142, 8131, 8161, 8164, 8179, 8158, 8155,1.636505365371704
123, 8231, 8177, 8232, 8231, 8179, 8148, 8104, 8142, 8131, 8161, 8164, 8179, 8158, 8155,1.636505365371704
124, 8245, 8180, 8222, 8222, 8150, 8171, 8105, 8183, 8097, 8144, 8174, 8203, 8174, 8145,1.643502950668335
124, 8245, 8180, 8222, 8222, 8150, 8171, 8105, 8183, 8097, 8144, 8174, 8203, 8174, 8145,1.643502950668335
125, 8215, 8168, 8196, 8204, 8145, 8151, 8124, 8152, 8097, 8140, 8158, 8169, 8149, 8118,1.651005744934082
125, 8215, 8168, 8196, 8204, 8145, 8151, 8124, 8152, 8097, 8140, 8158, 8169, 8149, 8118,1.6515421867370605
126, 8187, 8139, 8164, 8173, 8146, 8153, 8148, 8146, 8104, 8126, 8162, 8161, 8151, 8109,1.6593048572540283
126, 8187, 8139, 8164, 8173, 8146, 8153, 8148, 8146, 8104, 8126, 8162, 8161, 8151, 8109,1.6593048572540283
127, 8186, 8130, 8150, 8155, 8128, 8159, 8165, 8167, 8124, 8130, 8163, 8174, 8169, 8102,1.666480541229248
127, 8186, 8130, 8150, 8155, 8128, 8159, 8165, 8167, 8124, 8130, 8163, 8174, 8169, 8102,1.6674785614013672
240, 8192, 8148, 8157, 8172, 8137, 8144, 8180, 8155, 8178, 8171, 8158, 8161, 8155, 8103,1.6751971244812012
240, 8192, 8148, 8157, 8172, 8137, 8144, 8180, 8155, 8178, 8171, 8158, 8161, 8155, 8103,1.6751971244812012
0, 8203, 8150, 8160, 8164, 8144, 8163, 8154, 8182, 8180, 8166, 8176, 8190, 8171, 8121,1.6831986904144287
0, 8203, 8150, 8160, 8164, 8144, 8163, 8154, 8182, 8180, 8166, 8176, 8190, 8171, 8121,1.6831986904144287
1, 8192, 8142, 8175, 8158, 8148, 8150, 8114, 8156, 8157, 8152, 8164, 8179, 8162, 8119,1.6910014152526855
1, 8192, 8142, 8175, 8158, 8148, 8150, 8114, 8156, 8157, 8152, 8164, 8179, 8162, 8119,1.6910014152526855
2, 8211, 8153, 8198, 8184, 8152, 8162, 8092, 8159, 8155, 8164, 8170, 8192, 8164, 8127,1.6979963779449463
2, 8211, 8153, 8198, 8184, 8152, 8162, 8092, 8159, 8155, 8164, 8170, 8192, 8164, 8127,1.6979963779449463
3, 8229, 8167, 8200, 8204, 8152, 8168, 8085, 8174, 8142, 8165, 8179, 8211, 8175, 8147,1.705996036529541
3, 8229, 8167, 8200, 8204, 8152, 8168, 8085, 8174, 8142, 8165, 8179, 8211, 8175, 8147,1.705996036529541
4, 8217, 8173, 8202, 8214, 8160, 8138, 8080, 8141, 8123, 8157, 8172, 8186, 8158, 8157,1.7139992713928223
4, 8217, 8173, 8202, 8214, 8160, 8138, 8080, 8141, 8123, 8157, 8172, 8186, 8158, 8157,1.7139992713928223
5, 8238, 8176, 8214, 8214, 8154, 8160, 8072, 8179, 8121, 8158, 8187, 8222, 8181, 8170,1.7220120429992676
5, 8238, 8176, 8214, 8214, 8154, 8160, 8072, 8179, 8121, 8158, 8187, 8222, 8181, 8170,1.7220120429992676
6, 8238, 8175, 8215, 8210, 8159, 8159, 8107, 8165, 8153, 8191, 8179, 8215, 8171, 8180,1.7300100326538086
6, 8238, 8175, 8215, 8210, 8159, 8159, 8107, 8165, 8153, 8191, 8179, 8215, 8171, 8180,1.7300100326538086
7, 8209, 8155, 8195, 8191, 8156, 8154, 8109, 8159, 8141, 8173, 8176, 8188, 8164, 8170,1.7380077838897705
7, 8209, 8155, 8195, 8191, 8156, 8154, 8109, 8159, 8141, 8173, 8176, 8188, 8164, 8170,1.7380077838897705
8, 8191, 8125, 8171, 8156, 8126, 8162, 8076, 8196, 8108, 8117, 8169, 8188, 8179, 8122,1.7463436126708984
8, 8191, 8125, 8171, 8156, 8126, 8162, 8076, 8196, 8108, 8117, 8169, 8188, 8179, 8122,1.7463436126708984
9, 8176, 8122, 8161, 8148, 8116, 8158, 8107, 8162, 8143, 8133, 8151, 8164, 8155, 8094,1.7543425559997559
9, 8176, 8122, 8161, 8148, 8116, 8158, 8107, 8162, 8143, 8133, 8151, 8164, 8155, 8094,1.7543425559997559
10, 8177, 8120, 8154, 8136, 8104, 8180, 8130, 8175, 8152, 8138, 8167, 8180, 8168, 8102,1.762343406677246
10, 8177, 8120, 8154, 8136, 8104, 8180, 8130, 8175, 8152, 8138, 8167, 8180, 8168, 8102,1.762343406677246
11, 8152, 8108, 8139, 8122, 8101, 8159, 8112, 8175, 8124, 8105, 8157, 8164, 8170, 8071,1.7693464756011963
11, 8152, 8108, 8139, 8122, 8101, 8159, 8112, 8175, 8124, 8105, 8157, 8164, 8170, 8071,1.7693464756011963
12, 8146, 8109, 8138, 8129, 8111, 8154, 8088, 8171, 8111, 8092, 8148, 8159, 8167, 8038,1.776888132095337
12, 8146, 8109, 8138, 8129, 8111, 8154, 8088, 8171, 8111, 8092, 8148, 8159, 8167, 8038,1.776888132095337
13, 8169, 8118, 8162, 8136, 8105, 8176, 8065, 8188, 8104, 8089, 8163, 8191, 8176, 8041,1.7848889827728271
13, 8169, 8118, 8162, 8136, 8105, 8176, 8065, 8188, 8104, 8089, 8163, 8191, 8176, 8041,1.7848889827728271
14, 8169, 8131, 8184, 8148, 8112, 8156, 8065, 8146, 8111, 8104, 8163, 8176, 8157, 8061,1.7930054664611816
14, 8169, 8131, 8184, 8148, 8112, 8156, 8065, 8146, 8111, 8104, 8163, 8176, 8157, 8061,1.7930054664611816
15, 8188, 8144, 8199, 8157, 8116, 8173, 8059, 8174, 8098, 8103, 8177, 8204, 8182, 8093,1.8010058403015137
15, 8188, 8144, 8199, 8157, 8116, 8173, 8059, 8174, 8098, 8103, 8177, 8204, 8182, 8093,1.8010058403015137
16, 8200, 8161, 8222, 8176, 8126, 8171, 8062, 8180, 8089, 8103, 8181, 8211, 8183, 8111,1.8089306354522705
16, 8200, 8161, 8222, 8176, 8126, 8171, 8062, 8180, 8089, 8103, 8181, 8211, 8183, 8111,1.8089306354522705
17, 8223, 8187, 8250, 8211, 8147, 8168, 8088, 8155, 8114, 8138, 8189, 8212, 8173, 8146,1.816969871520996
17, 8223, 8187, 8250, 8211, 8147, 8168, 8088, 8155, 8114, 8138, 8189, 8212, 8173, 8146,1.816969871520996
18, 8257, 8204, 8267, 8225, 8159, 8186, 8109, 8191, 8140, 8176, 8204, 8255, 8207, 8194,1.8249523639678955
18, 8257, 8204, 8267, 8225, 8159, 8186, 8109, 8191, 8140, 8176, 8204, 8255, 8207, 8194,1.8249523639678955
19, 8240, 8199, 8261, 8224, 8166, 8161, 8128, 8185, 8171, 8201, 8185, 8225, 8195, 8198,1.831780195236206
19, 8240, 8199, 8261, 8224, 8166, 8161, 8128, 8185, 8171, 8201, 8185, 8225, 8195, 8198,1.8328101634979248
20, 8225, 8185, 8231, 8203, 8138, 8172, 8119, 8199, 8169, 8173, 8185, 8213, 8183, 8164,1.84000563621521
20, 8225, 8185, 8231, 8203, 8138, 8172, 8119, 8199, 8169, 8173, 8185, 8213, 8183, 8164,1.84000563621521
21, 8204, 8165, 8190, 8165, 8120, 8177, 8113, 8184, 8138, 8133, 8176, 8206, 8179, 8122,1.8478896617889404
21, 8204, 8165, 8190, 8165, 8120, 8177, 8113, 8184, 8138, 8133, 8176, 8206, 8179, 8122,1.8488845825195312
22, 8183, 8145, 8178, 8149, 8132, 8168, 8124, 8159, 8122, 8119, 8161, 8175, 8168, 8095,1.8559658527374268
22, 8183, 8145, 8178, 8149, 8132, 8168, 8124, 8159, 8122, 8119, 8161, 8175, 8168, 8095,1.8559658527374268
23, 8188, 8146, 8191, 8151, 8118, 8184, 8118, 8198, 8123, 8114, 8174, 8192, 8174, 8091,1.8639895915985107
23, 8188, 8146, 8191, 8151, 8118, 8184, 8118, 8198, 8123, 8114, 8174, 8192, 8174, 8091,1.8639895915985107
24, 8186, 8170, 8211, 8164, 8129, 8164, 8138, 8165, 8158, 8146, 8171, 8185, 8161, 8107,1.8721938133239746
24, 8186, 8170, 8211, 8164, 8129, 8164, 8138, 8165, 8158, 8146, 8171, 8185, 8161, 8107,1.8721938133239746
25, 8199, 8168, 8213, 8157, 8152, 8175, 8134, 8166, 8155, 8143, 8175, 8195, 8176, 8117,1.8803727626800537
25, 8199, 8168, 8213, 8157, 8152, 8175, 8134, 8166, 8155, 8143, 8175, 8195, 8176, 8117,1.8803727626800537
26, 8187, 8140, 8193, 8132, 8135, 8180, 8093, 8176, 8108, 8095, 8167, 8185, 8177, 8076,1.8873779773712158
26, 8187, 8140, 8193, 8132, 8135, 8180, 8093, 8176, 8108, 8095, 8167, 8185, 8177, 8076,1.8883836269378662
27, 8174, 8145, 8192, 8141, 8119, 8161, 8091, 8140, 8103, 8095, 8157, 8156, 8153, 8059,1.896240234375
27, 8174, 8145, 8192, 8141, 8119, 8161, 8091, 8140, 8103, 8095, 8157, 8156, 8153, 8059,1.896240234375
28, 8205, 8169, 8214, 8163, 8123, 8175, 8102, 8180, 8111, 8113, 8179, 8194, 8176, 8102,1.9029860496520996
28, 8205, 8169, 8214, 8163, 8123, 8175, 8102, 8180, 8111, 8113, 8179, 8194, 8176, 8102,1.9029860496520996
29, 8204, 8175, 8219, 8175, 8139, 8163, 8108, 8178, 8135, 8142, 8168, 8188, 8170, 8118,1.9109857082366943
29, 8204, 8175, 8219, 8175, 8139, 8163, 8108, 8178, 8135, 8142, 8168, 8188, 8170, 8118,1.9109857082366943
30, 8201, 8175, 8212, 8171, 8128, 8178, 8112, 8171, 8161, 8168, 8172, 8189, 8168, 8123,1.919165849685669
30, 8201, 8175, 8212, 8171, 8128, 8178, 8112, 8171, 8161, 8168, 8172, 8189, 8168, 8123,1.919165849685669
31, 8203, 8179, 8212, 8175, 8122, 8182, 8107, 8179, 8155, 8163, 8184, 8201, 8176, 8139,1.9271671772003174
31, 8203, 8179, 8212, 8175, 8122, 8182, 8107, 8179, 8155, 8163, 8184, 8201, 8176, 8139,1.9271671772003174
32, 8196, 8183, 8218, 8186, 8146, 8155, 8114, 8162, 8164, 8168, 8169, 8173, 8154, 8145,1.9350056648254395
32, 8196, 8183, 8218, 8186, 8146, 8155, 8114, 8162, 8164, 8168, 8169, 8173, 8154, 8145,1.9350056648254395
33, 8212, 8181, 8208, 8164, 8147, 8180, 8139, 8194, 8194, 8187, 8180, 8197, 8174, 8145,1.9429993629455566
33, 8212, 8181, 8208, 8164, 8147, 8180, 8139, 8194, 8194, 8187, 8180, 8197, 8174, 8145,1.9429993629455566
34, 8210, 8183, 8206, 8160, 8153, 8173, 8190, 8168, 8224, 8214, 8182, 8197, 8173, 8146,1.9509985446929932
34, 8210, 8183, 8206, 8160, 8153, 8173, 8190, 8168, 8224, 8214, 8182, 8197, 8173, 8146,1.9509985446929932
35, 8203, 8185, 8212, 8172, 8163, 8166, 8191, 8168, 8203, 8193, 8175, 8186, 8165, 8136,1.9590282440185547
35, 8203, 8185, 8212, 8172, 8163, 8166, 8191, 8168, 8203, 8193, 8175, 8186, 8165, 8136,1.9590282440185547
36, 8189, 8174, 8196, 8150, 8140, 8175, 8142, 8191, 8153, 8135, 8165, 8183, 8168, 8095,1.9660344123840332
36, 8189, 8174, 8196, 8150, 8140, 8175, 8142, 8191, 8153, 8135, 8165, 8183, 8168, 8095,1.9660344123840332
37, 8168, 8163, 8178, 8135, 8120, 8166, 8130, 8138, 8139, 8117, 8152, 8156, 8149, 8072,1.9740736484527588
37, 8168, 8163, 8178, 8135, 8120, 8166, 8130, 8138, 8139, 8117, 8152, 8156, 8149, 8072,1.9740736484527588
38, 8183, 8157, 8174, 8138, 8113, 8188, 8123, 8168, 8114, 8109, 8172, 8184, 8171, 8091,1.9820055961608887
38, 8183, 8157, 8174, 8138, 8113, 8188, 8123, 8168, 8114, 8109, 8172, 8184, 8171, 8091,1.9820055961608887
39, 8196, 8175, 8194, 8156, 8139, 8178, 8129, 8186, 8132, 8130, 8177, 8186, 8169, 8111,1.9900047779083252
39, 8196, 8175, 8194, 8156, 8139, 8178, 8129, 8186, 8132, 8130, 8177, 8186, 8169, 8111,1.9900047779083252
40, 8214, 8206, 8222, 8183, 8161, 8175, 8149, 8168, 8196, 8176, 8176, 8186, 8163, 8139,1.997466802597046
40, 8214, 8206, 8222, 8183, 8161, 8175, 8149, 8168, 8196, 8176, 8176, 8186, 8163, 8139,1.997466802597046
41, 8220, 8206, 8217, 8187, 8140, 8183, 8142, 8187, 8188, 8172, 8180, 8206, 8182, 8153,2.005465269088745
41, 8220, 8206, 8217, 8187, 8140, 8183, 8142, 8187, 8188, 8172, 8180, 8206, 8182, 8153,2.006458282470703
42, 8195, 8186, 8205, 8173, 8134, 8159, 8132, 8171, 8147, 8151, 8161, 8173, 8164, 8137,2.014005422592163
42, 8195, 8186, 8205, 8173, 8134, 8159, 8132, 8171, 8147, 8151, 8161, 8173, 8164, 8137,2.014005422592163
43, 8198, 8180, 8207, 8162, 8137, 8180, 8134, 8188, 8139, 8149, 8170, 8182, 8165, 8126,2.0219132900238037
43, 8198, 8180, 8207, 8162, 8137, 8180, 8134, 8188, 8139, 8149, 8170, 8182, 8165, 8126,2.0219132900238037
44, 8187, 8184, 8204, 8166, 8144, 8177, 8156, 8171, 8147, 8157, 8171, 8180, 8162, 8117,2.0290064811706543
44, 8187, 8184, 8204, 8166, 8144, 8177, 8156, 8171, 8147, 8157, 8171, 8180, 8162, 8117,2.0290064811706543
45, 8165, 8171, 8184, 8156, 8155, 8168, 8157, 8156, 8122, 8130, 8161, 8158, 8154, 8097,2.036996603012085
45, 8165, 8171, 8184, 8156, 8155, 8168, 8157, 8156, 8122, 8130, 8161, 8158, 8154, 8097,2.036996603012085
46, 8160, 8151, 8169, 8126, 8140, 8185, 8135, 8190, 8106, 8090, 8160, 8172, 8167, 8074,2.044384241104126
46, 8160, 8151, 8169, 8126, 8140, 8185, 8135, 8190, 8106, 8090, 8160, 8172, 8167, 8074,2.0453763008117676
47, 8159, 8166, 8172, 8135, 8140, 8164, 8162, 8151, 8150, 8117, 8152, 8160, 8152, 8073,2.0533764362335205
47, 8159, 8166, 8172, 8135, 8140, 8164, 8162, 8151, 8150, 8117, 8152, 8160, 8152, 8073,2.0533764362335205
48, 8182, 8179, 8179, 8148, 8144, 8173, 8171, 8161, 8151, 8133, 8166, 8180, 8168, 8100,2.0610039234161377
48, 8182, 8179, 8179, 8148, 8144, 8173, 8171, 8161, 8151, 8133, 8166, 8180, 8168, 8100,2.0610039234161377
49, 8176, 8162, 8179, 8136, 8127, 8171, 8139, 8175, 8124, 8120, 8165, 8177, 8175, 8101,2.0690102577209473
49, 8176, 8162, 8179, 8136, 8127, 8171, 8139, 8175, 8124, 8120, 8165, 8177, 8175, 8101,2.0690102577209473
50, 8165, 8157, 8179, 8137, 8109, 8159, 8132, 8157, 8148, 8139, 8157, 8159, 8156, 8100,2.0771067142486572
50, 8165, 8157, 8179, 8137, 8109, 8159, 8132, 8157, 8148, 8139, 8157, 8159, 8156, 8100,2.0771067142486572
51, 8185, 8162, 8175, 8135, 8101, 8177, 8140, 8184, 8159, 8140, 8167, 8185, 8170, 8114,2.0852837562561035
51, 8185, 8162, 8175, 8135, 8101, 8177, 8140, 8184, 8159, 8140, 8167, 8185, 8170, 8114,2.0852837562561035
52, 8171, 8149, 8171, 8117, 8112, 8159, 8151, 8156, 8149, 8120, 8149, 8149, 8154, 8097,2.0932843685150146
52, 8171, 8149, 8171, 8117, 8112, 8159, 8151, 8156, 8149, 8120, 8149, 8149, 8154, 8097,2.0932843685150146
53, 8157, 8132, 8167, 8101, 8104, 8163, 8139, 8162, 8135, 8104, 8148, 8141, 8146, 8073,2.100285053253174
53, 8157, 8132, 8167, 8101, 8104, 8163, 8139, 8162, 8135, 8104, 8148, 8141, 8146, 8073,2.100285053253174
54, 8144, 8133, 8161, 8105, 8095, 8159, 8130, 8159, 8132, 8111, 8150, 8158, 8154, 8069,2.1084091663360596
54, 8144, 8133, 8161, 8105, 8095, 8159, 8130, 8159, 8132, 8111, 8150, 8158, 8154, 8069,2.1084091663360596
55, 8136, 8141, 8154, 8100, 8118, 8146, 8150, 8125, 8139, 8122, 8147, 8136, 8146, 8076,2.1160051822662354
55, 8136, 8141, 8154, 8100, 8118, 8146, 8150, 8125, 8139, 8122, 8147, 8136, 8146, 8076,2.1160051822662354
56, 8143, 8149, 8150, 8083, 8120, 8159, 8145, 8160, 8124, 8109, 8163, 8145, 8161, 8075,2.124034881591797
56, 8143, 8149, 8150, 8083, 8120, 8159, 8145, 8160, 8124, 8109, 8163, 8145, 8161, 8075,2.124034881591797
57, 8126, 8152, 8152, 8103, 8115, 8133, 8138, 8138, 8129, 8127, 8146, 8128, 8141, 8065,2.131598472595215
57, 8126, 8152, 8152, 8103, 8115, 8133, 8138, 8138, 8129, 8127, 8146, 8128, 8141, 8065,2.131598472595215
58, 8134, 8147, 8148, 8110, 8105, 8144, 8138, 8127, 8136, 8143, 8139, 8127, 8134, 8073,2.1395962238311768
58, 8134, 8147, 8148, 8110, 8105, 8144, 8138, 8127, 8136, 8143, 8139, 8127, 8134, 8073,2.1395962238311768
59, 8147, 8145, 8153, 8100, 8106, 8150, 8140, 8131, 8124, 8137, 8147, 8131, 8139, 8082,2.1480038166046143
59, 8147, 8145, 8153, 8100, 8106, 8150, 8140, 8131, 8124, 8137, 8147, 8131, 8139, 8082,2.1480038166046143
60, 8146, 8165, 8172, 8131, 8131, 8121, 8152, 8106, 8130, 8156, 8146, 8110, 8122, 8095,2.156317949295044
60, 8146, 8165, 8172, 8131, 8131, 8121, 8152, 8106, 8130, 8156, 8146, 8110, 8122, 8095,2.156317949295044
61, 8176, 8177, 8175, 8145, 8127, 8149, 8145, 8154, 8146, 8159, 8162, 8148, 8149, 8118,2.163072347640991
61, 8176, 8177, 8175, 8145, 8127, 8149, 8145, 8154, 8146, 8159, 8162, 8148, 8149, 8118,2.163072347640991
62, 8175, 8168, 8162, 8130, 8127, 8150, 8164, 8147, 8168, 8157, 8155, 8155, 8150, 8114,2.171069860458374
62, 8175, 8168, 8162, 8130, 8127, 8150, 8164, 8147, 8168, 8157, 8155, 8155, 8150, 8114,2.171069860458374
63, 8153, 8149, 8144, 8113, 8136, 8143, 8180, 8139, 8150, 8142, 8150, 8142, 8140, 8092,2.1790835857391357
63, 8153, 8149, 8144, 8113, 8136, 8143, 8180, 8139, 8150, 8142, 8150, 8142, 8140, 8092,2.1790835857391357
64, 8140, 8135, 8131, 8099, 8116, 8150, 8157, 8156, 8112, 8110, 8149, 8142, 8143, 8063,2.1871659755706787
64, 8140, 8135, 8131, 8099, 8116, 8150, 8157, 8156, 8112, 8110, 8149, 8142, 8143, 8063,2.1871659755706787
65, 8135, 8140, 8137, 8112, 8116, 8140, 8168, 8128, 8146, 8127, 8146, 8126, 8132, 8064,2.1951680183410645
65, 8135, 8140, 8137, 8112, 8116, 8140, 8168, 8128, 8146, 8127, 8146, 8126, 8132, 8064,2.1951680183410645
66, 8157, 8145, 8146, 8118, 8132, 8157, 8184, 8169, 8169, 8140, 8167, 8159, 8160, 8096,2.2030060291290283
66, 8157, 8145, 8146, 8118, 8132, 8157, 8184, 8169, 8169, 8140, 8167, 8159, 8160, 8096,2.2030060291290283
67, 8158, 8143, 8146, 8120, 8147, 8145, 8179, 8160, 8157, 8146, 8160, 8159, 8156, 8092,2.2110044956207275
67, 8158, 8143, 8146, 8120, 8147, 8145, 8179, 8160, 8157, 8146, 8160, 8159, 8156, 8092,2.2110044956207275
68, 8160, 8150, 8151, 8137, 8152, 8150, 8176, 8130, 8157, 8161, 8158, 8154, 8148, 8091,2.219003915786743
68, 8160, 8150, 8151, 8137, 8152, 8150, 8176, 8130, 8157, 8161, 8158, 8154, 8148, 8091,2.219003915786743
69, 8153, 8146, 8149, 8134, 8147, 8162, 8167, 8159, 8150, 8147, 8164, 8167, 8163, 8095,2.2269670963287354
69, 8153, 8146, 8149, 8134, 8147, 8162, 8167, 8159, 8150, 8147, 8164, 8167, 8163, 8095,2.2269670963287354
70, 8139, 8146, 8146, 8126, 8155, 8136, 8173, 8145, 8165, 8151, 8151, 8147, 8148, 8095,2.2340047359466553
70, 8139, 8146, 8146, 8126, 8155, 8136, 8173, 8145, 8165, 8151, 8151, 8147, 8148, 8095,2.2340047359466553
71, 8173, 8166, 8165, 8144, 8158, 8156, 8182, 8161, 8180, 8172, 8170, 8179, 8162, 8122,2.2419862747192383
71, 8173, 8166, 8165, 8144, 8158, 8156, 8182, 8161, 8180, 8172, 8170, 8179, 8162, 8122,2.2419862747192383
72, 8173, 8172, 8180, 8159, 8165, 8150, 8186, 8155, 8169, 8178, 8171, 8176, 8157, 8127,2.2500011920928955
72, 8173, 8172, 8180, 8159, 8165, 8150, 8186, 8155, 8169, 8178, 8171, 8176, 8157, 8127,2.2500011920928955
73, 8159, 8166, 8168, 8148, 8161, 8146, 8181, 8155, 8165, 8172, 8158, 8155, 8149, 8120,2.258009433746338
73, 8159, 8166, 8168, 8148, 8161, 8146, 8181, 8155, 8165, 8172, 8158, 8155, 8149, 8120,2.258009433746338
74, 8181, 8173, 8163, 8154, 8153, 8170, 8187, 8180, 8175, 8170, 8165, 8187, 8171, 8131,2.266005039215088
74, 8181, 8173, 8163, 8154, 8153, 8170, 8187, 8180, 8175, 8170, 8165, 8187, 8171, 8131,2.266005039215088
75, 8192, 8181, 8185, 8189, 8190, 8145, 8223, 8139, 8189, 8192, 8166, 8182, 8158, 8145,2.273005485534668
75, 8192, 8181, 8185, 8189, 8190, 8145, 8223, 8139, 8189, 8192, 8166, 8182, 8158, 8145,2.273005485534668
76, 8203, 8176, 8188, 8190, 8199, 8156, 8228, 8166, 8183, 8198, 8180, 8190, 8170, 8144,2.2810287475585938
76, 8203, 8176, 8188, 8190, 8199, 8156, 8228, 8166, 8183, 8198, 8180, 8190, 8170, 8144,2.2810287475585938
77, 8200, 8181, 8175, 8182, 8192, 8158, 8233, 8168, 8202, 8215, 8182, 8187, 8173, 8142,2.2890233993530273
77, 8200, 8181, 8175, 8182, 8192, 8158, 8233, 8168, 8202, 8215, 8182, 8187, 8173, 8142,2.2890233993530273
78, 8202, 8193, 8181, 8194, 8216, 8147, 8252, 8143, 8221, 8232, 8178, 8185, 8162, 8155,2.2970223426818848
78, 8202, 8193, 8181, 8194, 8216, 8147, 8252, 8143, 8221, 8232, 8178, 8185, 8162, 8155,2.2970223426818848
79, 8207, 8181, 8176, 8183, 8203, 8165, 8233, 8179, 8192, 8198, 8174, 8197, 8174, 8141,2.305023431777954
79, 8207, 8181, 8176, 8183, 8203, 8165, 8233, 8179, 8192, 8198, 8174, 8197, 8174, 8141,2.305023431777954
80, 8179, 8163, 8160, 8169, 8177, 8154, 8229, 8148, 8180, 8182, 8160, 8165, 8156, 8114,2.3130240440368652
80, 8179, 8163, 8160, 8169, 8177, 8154, 8229, 8148, 8180, 8182, 8160, 8165, 8156, 8114,2.3130240440368652
81, 8179, 8161, 8160, 8169, 8171, 8167, 8231, 8158, 8169, 8181, 8178, 8185, 8165, 8119,2.3210232257843018
81, 8179, 8161, 8160, 8169, 8171, 8167, 8231, 8158, 8169, 8181, 8178, 8185, 8165, 8119,2.3210232257843018
82, 8190, 8175, 8173, 8179, 8187, 8164, 8225, 8172, 8166, 8183, 8178, 8197, 8171, 8124,2.3290231227874756
82, 8190, 8175, 8173, 8179, 8187, 8164, 8225, 8172, 8166, 8183, 8178, 8197, 8171, 8124,2.3290231227874756
83, 8196, 8183, 8182, 8190, 8200, 8151, 8224, 8144, 8185, 8197, 8168, 8185, 8161, 8136,2.336022138595581
83, 8196, 8183, 8182, 8190, 8200, 8151, 8224, 8144, 8185, 8197, 8168, 8185, 8161, 8136,2.336022138595581
84, 8199, 8170, 8177, 8174, 8191, 8165, 8206, 8169, 8168, 8179, 8176, 8207, 8177, 8147,2.344022035598755
84, 8199, 8170, 8177, 8174, 8191, 8165, 8206, 8169, 8168, 8179, 8176, 8207, 8177, 8147,2.344022035598755
85, 8178, 8169, 8181, 8185, 8208, 8145, 8212, 8156, 8176, 8180, 8163, 8188, 8161, 8136,2.352022647857666
85, 8178, 8169, 8181, 8185, 8208, 8145, 8212, 8156, 8176, 8180, 8163, 8188, 8161, 8136,2.352022647857666
86, 8196, 8181, 8189, 8211, 8212, 8161, 8219, 8173, 8206, 8200, 8171, 8199, 8168, 8145,2.3600265979766846
86, 8196, 8181, 8189, 8211, 8212, 8161, 8219, 8173, 8206, 8200, 8171, 8199, 8168, 8145,2.3600265979766846
87, 8211, 8183, 8194, 8212, 8201, 8166, 8226, 8173, 8228, 8224, 8181, 8206, 8171, 8165,2.3678433895111084
87, 8211, 8183, 8194, 8212, 8201, 8166, 8226, 8173, 8228, 8224, 8181, 8206, 8171, 8165,2.3678433895111084
88, 8193, 8180, 8197, 8209, 8215, 8145, 8249, 8140, 8252, 8253, 8178, 8191, 8153, 8173,2.3758866786956787
88, 8193, 8180, 8197, 8209, 8215, 8145, 8249, 8140, 8252, 8253, 8178, 8191, 8153, 8173,2.3758866786956787
89, 8189, 8174, 8182, 8201, 8211, 8164, 8238, 8176, 8229, 8226, 8178, 8209, 8172, 8160,2.383894681930542
89, 8189, 8174, 8182, 8201, 8211, 8164, 8238, 8176, 8229, 8226, 8178, 8209, 8172, 8160,2.383894681930542
90, 8184, 8174, 8170, 8204, 8213, 8149, 8232, 8161, 8206, 8201, 8163, 8184, 8163, 8137,2.3920042514801025
90, 8184, 8174, 8170, 8204, 8213, 8149, 8232, 8161, 8206, 8201, 8163, 8184, 8163, 8137,2.3920042514801025
91, 8195, 8180, 8169, 8210, 8222, 8154, 8239, 8167, 8206, 8204, 8169, 8178, 8164, 8133,2.4000041484832764
91, 8195, 8180, 8169, 8210, 8222, 8154, 8239, 8167, 8206, 8204, 8169, 8178, 8164, 8133,2.4000041484832764
92, 8182, 8173, 8155, 8193, 8209, 8162, 8231, 8174, 8187, 8189, 8158, 8174, 8165, 8110,2.4079947471618652
92, 8182, 8173, 8155, 8193, 8209, 8162, 8231, 8174, 8187, 8189, 8158, 8174, 8165, 8110,2.4079947471618652
93, 8158, 8166, 8139, 8183, 8206, 8147, 8235, 8133, 8167, 8164, 8145, 8151, 8145, 8088,2.4156317710876465
93, 8158, 8166, 8139, 8183, 8206, 8147, 8235, 8133, 8167, 8164, 8145, 8151, 8145, 8088,2.4156317710876465
94, 8173, 8169, 8139, 8183, 8209, 8168, 8233, 8164, 8146, 8137, 8162, 8171, 8160, 8096,2.422630786895752
94, 8173, 8169, 8139, 8183, 8209, 8168, 8233, 8164, 8146, 8137, 8162, 8171, 8160, 8096,2.422630786895752
95, 8164, 8171, 8142, 8197, 8220, 8152, 8230, 8159, 8153, 8137, 8152, 8153, 8154, 8102,2.43123459815979
95, 8164, 8171, 8142, 8197, 8220, 8152, 8230, 8159, 8153, 8137, 8152, 8153, 8154, 8102,2.431462049484253
96, 8165, 8175, 8143, 8208, 8231, 8158, 8225, 8160, 8182, 8151, 8150, 8154, 8155, 8101,2.4390039443969727
96, 8165, 8175, 8143, 8208, 8231, 8158, 8225, 8160, 8182, 8151, 8150, 8154, 8155, 8101,2.4390039443969727
97, 8174, 8176, 8144, 8202, 8227, 8173, 8225, 8171, 8196, 8163, 8155, 8167, 8162, 8093,2.4468493461608887
97, 8174, 8176, 8144, 8202, 8227, 8173, 8225, 8171, 8196, 8163, 8155, 8167, 8162, 8093,2.4468493461608887
98, 8156, 8174, 8147, 8203, 8230, 8145, 8232, 8139, 8197, 8179, 8147, 8141, 8149, 8093,2.454847574234009
98, 8156, 8174, 8147, 8203, 8230, 8145, 8232, 8139, 8197, 8179, 8147, 8141, 8149, 8093,2.454847574234009
99, 8156, 8169, 8144, 8205, 8233, 8158, 8205, 8180, 8178, 8154, 8157, 8159, 8169, 8085,2.4630062580108643
99, 8156, 8169, 8144, 8205, 8233, 8158, 8205, 8180, 8178, 8154, 8157, 8159, 8169, 8085,2.4630062580108643
100, 8144, 8165, 8139, 8210, 8244, 8155, 8211, 8168, 8187, 8148, 8150, 8151, 8155, 8057,2.470979690551758
100, 8144, 8165, 8139, 8210, 8244, 8155, 8211, 8168, 8187, 8148, 8150, 8151, 8155, 8057,2.470979690551758
101, 8134, 8157, 8131, 8204, 8237, 8159, 8235, 8154, 8201, 8156, 8144, 8136, 8148, 8053,2.478583335876465
101, 8134, 8157, 8131, 8204, 8237, 8159, 8235, 8154, 8201, 8156, 8144, 8136, 8148, 8053,2.478583335876465
102, 8133, 8147, 8120, 8191, 8219, 8171, 8221, 8179, 8182, 8138, 8143, 8139, 8169, 8042,2.485583543777466
102, 8133, 8147, 8120, 8191, 8219, 8171, 8221, 8179, 8182, 8138, 8143, 8139, 8169, 8042,2.486584424972534
103, 8120, 8157, 8121, 8191, 8242, 8152, 8234, 8150, 8189, 8155, 8136, 8123, 8154, 8026,2.4940056800842285
103, 8120, 8157, 8121, 8191, 8242, 8152, 8234, 8150, 8189, 8155, 8136, 8123, 8154, 8026,2.4940056800842285
104, 8120, 8153, 8112, 8166, 8242, 8172, 8244, 8172, 8185, 8147, 8147, 8139, 8161, 8033,2.5022218227386475
104, 8120, 8153, 8112, 8166, 8242, 8172, 8244, 8172, 8185, 8147, 8147, 8139, 8161, 8033,2.5022218227386475
105, 8102, 8138, 8102, 8148, 8222, 8159, 8240, 8167, 8177, 8119, 8137, 8124, 8161, 8025,2.5100045204162598
105, 8102, 8138, 8102, 8148, 8222, 8159, 8240, 8167, 8177, 8119, 8137, 8124, 8161, 8025,2.5100045204162598
106, 8108, 8149, 8109, 8163, 8230, 8152, 8254, 8150, 8192, 8133, 8135, 8124, 8166, 8022,2.5179712772369385
106, 8108, 8149, 8109, 8163, 8230, 8152, 8254, 8150, 8192, 8133, 8135, 8124, 8166, 8022,2.5179712772369385
107, 8128, 8153, 8105, 8152, 8241, 8172, 8264, 8177, 8200, 8147, 8145, 8146, 8177, 8035,2.525977373123169
107, 8128, 8153, 8105, 8152, 8241, 8172, 8264, 8177, 8200, 8147, 8145, 8146, 8177, 8035,2.525977373123169
108, 8110, 8142, 8096, 8136, 8254, 8154, 8265, 8160, 8219, 8160, 8139, 8127, 8157, 8038,2.533982992172241
108, 8110, 8142, 8096, 8136, 8254, 8154, 8265, 8160, 8219, 8160, 8139, 8127, 8157, 8038,2.533982992172241
109, 8121, 8145, 8106, 8148, 8247, 8174, 8260, 8182, 8234, 8174, 8150, 8156, 8167, 8048,2.5420331954956055
109, 8121, 8145, 8106, 8148, 8247, 8174, 8260, 8182, 8234, 8174, 8150, 8156, 8167, 8048,2.5420331954956055
110, 8132, 8152, 8126, 8164, 8246, 8169, 8272, 8171, 8243, 8185, 8147, 8165, 8167, 8062,2.550025701522827
110, 8132, 8152, 8126, 8164, 8246, 8169, 8272, 8171, 8243, 8185, 8147, 8165, 8167, 8062,2.550025701522827
111, 8125, 8151, 8132, 8158, 8253, 8154, 8268, 8154, 8236, 8174, 8149, 8145, 8165, 8064,2.5570435523986816
111, 8125, 8151, 8132, 8158, 8253, 8154, 8268, 8154, 8236, 8174, 8149, 8145, 8165, 8064,2.5570435523986816
112, 8133, 8159, 8116, 8151, 8244, 8172, 8243, 8181, 8214, 8153, 8158, 8151, 8171, 8049,2.5650575160980225
112, 8133, 8159, 8116, 8151, 8244, 8172, 8243, 8181, 8214, 8153, 8158, 8151, 8171, 8049,2.5650575160980225
113, 8118, 8160, 8100, 8153, 8240, 8150, 8262, 8150, 8217, 8161, 8143, 8129, 8148, 8033,2.573253631591797
113, 8118, 8160, 8100, 8153, 8240, 8150, 8262, 8150, 8217, 8161, 8143, 8129, 8148, 8033,2.573253631591797
114, 8099, 8132, 8083, 8119, 8213, 8162, 8266, 8174, 8188, 8124, 8142, 8124, 8163, 8015,2.5811753273010254
114, 8099, 8132, 8083, 8119, 8213, 8162, 8266, 8174, 8188, 8124, 8142, 8124, 8163, 8015,2.5811753273010254
115, 8076, 8118, 8071, 8087, 8195, 8170, 8253, 8183, 8169, 8089, 8138, 8110, 8164, 7984,2.5891764163970947
115, 8076, 8118, 8071, 8087, 8195, 8170, 8253, 8183, 8169, 8089, 8138, 8110, 8164, 7984,2.5891764163970947
116, 8076, 8127, 8069, 8095, 8208, 8166, 8264, 8157, 8198, 8112, 8139, 8101, 8149, 7979,2.597195863723755
116, 8076, 8127, 8069, 8095, 8208, 8166, 8264, 8157, 8198, 8112, 8139, 8101, 8149, 7979,2.597195863723755
117, 8084, 8119, 8061, 8084, 8196, 8177, 8254, 8185, 8181, 8105, 8145, 8117, 8165, 7978,2.6050045490264893
117, 8084, 8119, 8061, 8084, 8196, 8177, 8254, 8185, 8181, 8105, 8145, 8117, 8165, 7978,2.6050045490264893
118, 8063, 8124, 8057, 8070, 8191, 8149, 8237, 8157, 8163, 8089, 8131, 8095, 8153, 7967,2.61299991607666
118, 8063, 8124, 8057, 8070, 8191, 8149, 8237, 8157, 8163, 8089, 8131, 8095, 8153, 7967,2.61299991607666
119, 8068, 8142, 8056, 8071, 8190, 8166, 8219, 8162, 8160, 8091, 8134, 8108, 8154, 7975,2.620004653930664
119, 8068, 8142, 8056, 8071, 8190, 8166, 8219, 8162, 8160, 8091, 8134, 8108, 8154, 7975,2.620004653930664
120, 8071, 8129, 8060, 8079, 8181, 8169, 8218, 8165, 8145, 8090, 8135, 8112, 8157, 7980,2.6281821727752686
120, 8071, 8129, 8060, 8079, 8181, 8169, 8218, 8165, 8145, 8090, 8135, 8112, 8157, 7980,2.6281821727752686
121, 8071, 8127, 8078, 8096, 8199, 8145, 8232, 8145, 8153, 8096, 8136, 8100, 8153, 7993,2.636181592941284
121, 8071, 8127, 8078, 8096, 8199, 8145, 8232, 8145, 8153, 8096, 8136, 8100, 8153, 7993,2.636181592941284
122, 8098, 8149, 8091, 8111, 8219, 8165, 8220, 8178, 8173, 8108, 8149, 8132, 8166, 8014,2.6442179679870605
122, 8098, 8149, 8091, 8111, 8219, 8165, 8220, 8178, 8173, 8108, 8149, 8132, 8166, 8014,2.6442179679870605
123, 8103, 8160, 8107, 8136, 8233, 8159, 8233, 8158, 8200, 8139, 8145, 8128, 8147, 8025,2.6522579193115234
123, 8103, 8160, 8107, 8136, 8233, 8159, 8233, 8158, 8200, 8139, 8145, 8128, 8147, 8025,2.6522579193115234
124, 8109, 8153, 8118, 8145, 8220, 8172, 8245, 8170, 8193, 8141, 8152, 8123, 8148, 8029,2.660269260406494
124, 8109, 8153, 8118, 8145, 8220, 8172, 8245, 8170, 8193, 8141, 8152, 8123, 8148, 8029,2.660269260406494
125, 8102, 8142, 8103, 8121, 8200, 8170, 8236, 8177, 8173, 8121, 8147, 8116, 8156, 8006,2.6681325435638428
125, 8102, 8142, 8103, 8121, 8200, 8170, 8236, 8177, 8173, 8121, 8147, 8116, 8156, 8006,2.6681325435638428
126, 8087, 8129, 8088, 8108, 8197, 8153, 8241, 8141, 8180, 8122, 8131, 8097, 8145, 7992,2.675657033920288
126, 8087, 8129, 8088, 8108, 8197, 8153, 8241, 8141, 8180, 8122, 8131, 8097, 8145, 7992,2.675657033920288
127, 8092, 8122, 8077, 8102, 8188, 8178, 8234, 8180, 8168, 8106, 8136, 8116, 8162, 8000,2.6840052604675293
127, 8092, 8122, 8077, 8102, 8188, 8178, 8234, 8180, 8168, 8106, 8136, 8116, 8162, 8000,2.6840052604675293
240, 8081, 8128, 8065, 8107, 8195, 8160, 8230, 8164, 8165, 8101, 8133, 8105, 8150, 7993,2.690979480743408
240, 8081, 8128, 8065, 8107, 8195, 8160, 8230, 8164, 8165, 8101, 8133, 8105, 8150, 7993,2.690979480743408
0, 8080, 8125, 8066, 8107, 8188, 8161, 8215, 8149, 8157, 8095, 8134, 8095, 8144, 7982,2.698976993560791
0, 8080, 8125, 8066, 8107, 8188, 8161, 8215, 8149, 8157, 8095, 8134, 8095, 8144, 7982,2.698976993560791
1, 8082, 8119, 8077, 8097, 8164, 8177, 8197, 8172, 8129, 8081, 8135, 8100, 8158, 7980,2.707016944885254
1, 8082, 8119, 8077, 8097, 8164, 8177, 8197, 8172, 8129, 8081, 8135, 8100, 8158, 7980,2.707016944885254
2, 8086, 8135, 8095, 8111, 8177, 8163, 8213, 8149, 8146, 8108, 8137, 8099, 8149, 7993,2.7150049209594727
2, 8086, 8135, 8095, 8111, 8177, 8163, 8213, 8149, 8146, 8108, 8137, 8099, 8149, 7993,2.7150049209594727
3, 8120, 8153, 8100, 8118, 8180, 8181, 8219, 8168, 8168, 8116, 8150, 8128, 8166, 8013,2.723005533218384
3, 8120, 8153, 8100, 8118, 8180, 8181, 8219, 8168, 8168, 8116, 8150, 8128, 8166, 8013,2.723005533218384
4, 8115, 8152, 8100, 8120, 8177, 8167, 8211, 8162, 8166, 8103, 8141, 8121, 8161, 8008,2.7310047149658203
4, 8115, 8152, 8100, 8120, 8177, 8167, 8211, 8162, 8166, 8103, 8141, 8121, 8161, 8008,2.7310047149658203
5, 8108, 8149, 8107, 8133, 8183, 8168, 8200, 8158, 8156, 8101, 8141, 8123, 8148, 8001,2.7390058040618896
5, 8108, 8149, 8107, 8133, 8183, 8168, 8200, 8158, 8156, 8101, 8141, 8123, 8148, 8001,2.7390058040618896
6, 8122, 8143, 8104, 8131, 8174, 8181, 8183, 8172, 8141, 8088, 8148, 8146, 8160, 8002,2.7470126152038574
6, 8122, 8143, 8104, 8131, 8174, 8181, 8183, 8172, 8141, 8088, 8148, 8146, 8160, 8002,2.7470126152038574
7, 8114, 8138, 8105, 8124, 8167, 8157, 8185, 8150, 8136, 8082, 8140, 8122, 8159, 7998,2.7539989948272705
7, 8114, 8138, 8105, 8124, 8167, 8157, 8185, 8150, 8136, 8082, 8140, 8122, 8159, 7998,2.7539989948272705
8, 8107, 8129, 8102, 8108, 8144, 8178, 8168, 8181, 8119, 8068, 8141, 8123, 8168, 7979,2.7620043754577637
8, 8107, 8129, 8102, 8108, 8144, 8178, 8168, 8181, 8119, 8068, 8141, 8123, 8168, 7979,2.7620043754577637
9, 8086, 8121, 8090, 8090, 8126, 8179, 8152, 8161, 8115, 8062, 8133, 8120, 8157, 7956,2.7700037956237793
9, 8086, 8121, 8090, 8090, 8126, 8179, 8152, 8161, 8115, 8062, 8133, 8120, 8157, 7956,2.7700037956237793
10, 8080, 8114, 8076, 8078, 8124, 8178, 8148, 8145, 8104, 8054, 8140, 8113, 8152, 7958,2.778006076812744
10, 8080, 8114, 8076, 8078, 8124, 8178, 8148, 8145, 8104, 8054, 8140, 8113, 8152, 7958,2.778006076812744
11, 8094, 8109, 8080, 8072, 8112, 8194, 8137, 8187, 8073, 8033, 8151, 8132, 8170, 7964,2.7861328125
11, 8094, 8109, 8080, 8072, 8112, 8194, 8137, 8187, 8073, 8033, 8151, 8132, 8170, 7964,2.7861328125
12, 8093, 8129, 8109, 8096, 8126, 8175, 8160, 8160, 8097, 8057, 8141, 8122, 8162, 7970,2.7939934730529785
12, 8093, 8129, 8109, 8096, 8126, 8175, 8160, 8160, 8097, 8057, 8141, 8122, 8162, 7970,2.7939934730529785
13, 8111, 8154, 8127, 8108, 8140, 8191, 8172, 8180, 8112, 8069, 8147, 8136, 8172, 7990,2.8019967079162598
13, 8111, 8154, 8127, 8108, 8140, 8191, 8172, 8180, 8112, 8069, 8147, 8136, 8172, 7990,2.8019967079162598
14, 8117, 8159, 8138, 8109, 8136, 8183, 8166, 8188, 8105, 8061, 8148, 8148, 8169, 7997,2.8100039958953857
14, 8117, 8159, 8138, 8109, 8136, 8183, 8166, 8188, 8105, 8061, 8148, 8148, 8169, 7997,2.8100039958953857
15, 8114, 8158, 8151, 8124, 8136, 8176, 8174, 8163, 8121, 8069, 8144, 8151, 8157, 8004,2.8169679641723633
15, 8114, 8158, 8151, 8124, 8136, 8176, 8174, 8163, 8121, 8069, 8144, 8151, 8157, 8004,2.8169679641723633
16, 8115, 8153, 8148, 8112, 8129, 8200, 8167, 8189, 8116, 8064, 8153, 8161, 8171, 8006,2.8253257274627686
16, 8115, 8153, 8148, 8112, 8129, 8200, 8167, 8189, 8116, 8064, 8153, 8161, 8171, 8006,2.8253257274627686
17, 8093, 8139, 8137, 8084, 8117, 8179, 8161, 8164, 8107, 8060, 8146, 8132, 8157, 7988,2.8330085277557373
17, 8093, 8139, 8137, 8084, 8117, 8179, 8161, 8164, 8107, 8060, 8146, 8132, 8157, 7988,2.8330085277557373
18, 8089, 8121, 8129, 8064, 8092, 8189, 8149, 8171, 8095, 8041, 8143, 8133, 8164, 7972,2.8414669036865234
18, 8089, 8121, 8129, 8064, 8092, 8189, 8149, 8171, 8095, 8041, 8143, 8133, 8164, 7972,2.8414669036865234
19, 8081, 8116, 8117, 8063, 8083, 8191, 8143, 8186, 8079, 8024, 8146, 8140, 8180, 7968,2.84946870803833
19, 8081, 8116, 8117, 8063, 8083, 8191, 8143, 8186, 8079, 8024, 8146, 8140, 8180, 7968,2.84946870803833
20, 8072, 8127, 8109, 8068, 8093, 8176, 8151, 8176, 8082, 8037, 8150, 8129, 8170, 7970,2.8569674491882324
20, 8072, 8127, 8109, 8068, 8093, 8176, 8151, 8176, 8082, 8037, 8150, 8129, 8170, 7970,2.8569674491882324
21, 8083, 8130, 8109, 8051, 8086, 8195, 8153, 8197, 8087, 8039, 8153, 8141, 8172, 7963,2.8650059700012207
21, 8083, 8130, 8109, 8051, 8086, 8195, 8153, 8197, 8087, 8039, 8153, 8141, 8172, 7963,2.8650059700012207
22, 8063, 8125, 8106, 8047, 8095, 8179, 8162, 8167, 8093, 8036, 8140, 8121, 8164, 7953,2.8727877140045166
22, 8063, 8125, 8106, 8047, 8095, 8179, 8162, 8167, 8093, 8036, 8140, 8121, 8164, 7953,2.8727877140045166
23, 8066, 8138, 8103, 8070, 8098, 8192, 8150, 8183, 8085, 8028, 8149, 8127, 8173, 7962,2.8798036575317383
23, 8066, 8138, 8103, 8070, 8098, 8192, 8150, 8183, 8085, 8028, 8149, 8127, 8173, 7962,2.8798036575317383
24, 8087, 8151, 8115, 8080, 8088, 8198, 8139, 8197, 8090, 8031, 8156, 8144, 8174, 7967,2.8877999782562256
24, 8087, 8151, 8115, 8080, 8088, 8198, 8139, 8197, 8090, 8031, 8156, 8144, 8174, 7967,2.8877999782562256
25, 8079, 8144, 8119, 8070, 8094, 8175, 8146, 8160, 8104, 8042, 8142, 8124, 8157, 7965,2.896238088607788
25, 8079, 8144, 8119, 8070, 8094, 8175, 8146, 8160, 8104, 8042, 8142, 8124, 8157, 7965,2.896238088607788
26, 8075, 8133, 8103, 8054, 8081, 8190, 8121, 8188, 8073, 8017, 8147, 8134, 8173, 7960,2.9042460918426514
26, 8075, 8133, 8103, 8054, 8081, 8190, 8121, 8188, 8073, 8017, 8147, 8134, 8173, 7960,2.9042460918426514
27, 8073, 8147, 8112, 8070, 8082, 8180, 8121, 8176, 8072, 8023, 8153, 8138, 8169, 7962,2.912247657775879
27, 8073, 8147, 8112, 8070, 8082, 8180, 8121, 8176, 8072, 8023, 8153, 8138, 8169, 7962,2.912247657775879
28, 8101, 8165, 8136, 8094, 8109, 8182, 8148, 8167, 8105, 8057, 8160, 8151, 8172, 7992,2.92000412940979
28, 8101, 8165, 8136, 8094, 8109, 8182, 8148, 8167, 8105, 8057, 8160, 8151, 8172, 7992,2.92000412940979
29, 8116, 8166, 8140, 8095, 8118, 8185, 8149, 8178, 8108, 8065, 8158, 8162, 8183, 8009,2.928004503250122
29, 8116, 8166, 8140, 8095, 8118, 8185, 8149, 8178, 8108, 8065, 8158, 8162, 8183, 8009,2.928004503250122
30, 8104, 8174, 8140, 8106, 8122, 8167, 8145, 8156, 8115, 8093, 8151, 8144, 8162, 8009,2.936345100402832
30, 8104, 8174, 8140, 8106, 8122, 8167, 8145, 8156, 8115, 8093, 8151, 8144, 8162, 8009,2.936345100402832
31, 8115, 8177, 8140, 8103, 8113, 8187, 8144, 8184, 8113, 8105, 8161, 8157, 8167, 8015,2.9443461894989014
31, 8115, 8177, 8140, 8103, 8113, 8187, 8144, 8184, 8113, 8105, 8161, 8157, 8167, 8015,2.9443461894989014
32, 8108, 8171, 8143, 8095, 8121, 8173, 8156, 8170, 8112, 8096, 8157, 8154, 8171, 8015,2.9509997367858887
32, 8108, 8171, 8143, 8095, 8121, 8173, 8156, 8170, 8112, 8096, 8157, 8154, 8171, 8015,2.9509997367858887
33, 8113, 8178, 8146, 8099, 8132, 8173, 8156, 8167, 8115, 8090, 8160, 8155, 8168, 8021,2.9586939811706543
33, 8113, 8178, 8146, 8099, 8132, 8173, 8156, 8167, 8115, 8090, 8160, 8155, 8168, 8021,2.9586939811706543
34, 8130, 8181, 8140, 8101, 8125, 8187, 8153, 8190, 8115, 8092, 8171, 8174, 8177, 8034,2.966973304748535
34, 8130, 8181, 8140, 8101, 8125, 8187, 8153, 8190, 8115, 8092, 8171, 8174, 8177, 8034,2.966973304748535
35, 8117, 8176, 8137, 8105, 8134, 8166, 8175, 8158, 8116, 8107, 8160, 8154, 8168, 8040,2.9750049114227295
35, 8117, 8176, 8137, 8105, 8134, 8166, 8175, 8158, 8116, 8107, 8160, 8154, 8168, 8040,2.9750049114227295
36, 8116, 8172, 8137, 8101, 8128, 8187, 8157, 8181, 8094, 8083, 8156, 8161, 8175, 8033,2.9824018478393555
36, 8116, 8172, 8137, 8101, 8128, 8187, 8157, 8181, 8094, 8083, 8156, 8161, 8175, 8033,2.9833948612213135
37, 8114, 8169, 8148, 8108, 8121, 8181, 8151, 8173, 8102, 8078, 8160, 8168, 8165, 8029,2.9904019832611084
37, 8114, 8169, 8148, 8108, 8121, 8181, 8151, 8173, 8102, 8078, 8160, 8168, 8165, 8029,2.99139666557312
38, 8118, 8169, 8152, 8114, 8130, 8175, 8174, 8158, 8118, 8095, 8164, 8158, 8164, 8044,2.9984097480773926
38, 8118, 8169, 8152, 8114, 8130, 8175, 8174, 8158, 8118, 8095, 8164, 8158, 8164, 8044,2.9994194507598877
39, 8119, 8164, 8138, 8103, 8124, 8193, 8160, 8194, 8086, 8069, 8160, 8155, 8183, 8035,3.0069682598114014
39, 8119, 8164, 8138, 8103, 8124, 8193, 8160, 8194, 8086, 8069, 8160, 8155, 8183, 8035,3.0069682598114014
40, 8101, 8163, 8123, 8099, 8117, 8173, 8155, 8165, 8088, 8064, 8146, 8134, 8161, 8012,3.014005184173584
40, 8101, 8163, 8123, 8099, 8117, 8173, 8155, 8165, 8088, 8064, 8146, 8134, 8161, 8012,3.014005184173584
41, 8105, 8159, 8111, 8083, 8102, 8185, 8157, 8173, 8098, 8069, 8155, 8146, 8167, 8015,3.022280693054199
41, 8105, 8159, 8111, 8083, 8102, 8185, 8157, 8173, 8098, 8069, 8155, 8146, 8167, 8015,3.022280693054199
42, 8100, 8149, 8108, 8071, 8098, 8181, 8147, 8179, 8082, 8060, 8154, 8149, 8176, 8008,3.030280590057373
42, 8100, 8149, 8108, 8071, 8098, 8181, 8147, 8179, 8082, 8060, 8154, 8149, 8176, 8008,3.0304315090179443
43, 8094, 8146, 8111, 8071, 8096, 8174, 8140, 8163, 8078, 8050, 8147, 8135, 8162, 7994,3.0378994941711426
43, 8094, 8146, 8111, 8071, 8096, 8174, 8140, 8163, 8078, 8050, 8147, 8135, 8162, 7994,3.0378994941711426
44, 8099, 8139, 8108, 8050, 8070, 8193, 8123, 8183, 8068, 8032, 8152, 8148, 8168, 7985,3.045894145965576
44, 8099, 8139, 8108, 8050, 8070, 8193, 8123, 8183, 8068, 8032, 8152, 8148, 8168, 7985,3.045894145965576
45, 8081, 8125, 8099, 8041, 8059, 8171, 8110, 8160, 8062, 8027, 8144, 8134, 8163, 7978,3.053894519805908
45, 8081, 8125, 8099, 8041, 8059, 8171, 8110, 8160, 8062, 8027, 8144, 8134, 8163, 7978,3.053894519805908
46, 8085, 8120, 8092, 8048, 8049, 8185, 8092, 8179, 8053, 8024, 8152, 8147, 8171, 7981,3.0619256496429443
46, 8085, 8120, 8092, 8048, 8049, 8185, 8092, 8179, 8053, 8024, 8152, 8147, 8171, 7981,3.0619256496429443
47, 8094, 8134, 8094, 8054, 8056, 8191, 8097, 8179, 8047, 8032, 8157, 8163, 8171, 7985,3.0697133541107178
47, 8094, 8134, 8094, 8054, 8056, 8191, 8097, 8179, 8047, 8032, 8157, 8163, 8171, 7985,3.0697133541107178
48, 8099, 8152, 8102, 8061, 8077, 8175, 8117, 8159, 8056, 8046, 8156, 8152, 8165, 7995,3.0768213272094727
48, 8099, 8152, 8102, 8061, 8077, 8175, 8117, 8159, 8056, 8046, 8156, 8152, 8165, 7995,3.0768213272094727
49, 8109, 8146, 8109, 8062, 8064, 8190, 8099, 8202, 8060, 8034, 8167, 8170, 8183, 7999,3.08481764793396
49, 8109, 8146, 8109, 8062, 8064, 8190, 8099, 8202, 8060, 8034, 8167, 8170, 8183, 7999,3.08481764793396
50, 8091, 8143, 8113, 8072, 8079, 8175, 8103, 8175, 8089, 8059, 8167, 8168, 8172, 7999,3.0930044651031494
50, 8091, 8143, 8113, 8072, 8079, 8175, 8103, 8175, 8089, 8059, 8167, 8168, 8172, 7999,3.0930044651031494
51, 8099, 8156, 8105, 8069, 8095, 8190, 8112, 8179, 8091, 8079, 8172, 8168, 8177, 8011,3.1010043621063232
51, 8099, 8156, 8105, 8069, 8095, 8190, 8112, 8179, 8091, 8079, 8172, 8168, 8177, 8011,3.1010043621063232
52, 8107, 8161, 8105, 8046, 8073, 8203, 8096, 8212, 8055, 8050, 8171, 8170, 8195, 8001,3.1090047359466553
52, 8107, 8161, 8105, 8046, 8073, 8203, 8096, 8212, 8055, 8050, 8171, 8170, 8195, 8001,3.1090047359466553
53, 8100, 8161, 8119, 8051, 8065, 8193, 8095, 8196, 8060, 8054, 8166, 8167, 8183, 7994,3.1170589923858643
53, 8100, 8161, 8119, 8051, 8065, 8193, 8095, 8196, 8060, 8054, 8166, 8167, 8183, 7994,3.1170589923858643
54, 8114, 8166, 8117, 8060, 8058, 8212, 8091, 8208, 8077, 8069, 8174, 8191, 8192, 8013,3.1250052452087402
54, 8114, 8166, 8117, 8060, 8058, 8212, 8091, 8208, 8077, 8069, 8174, 8191, 8192, 8013,3.1250052452087402
55, 8104, 8171, 8116, 8051, 8054, 8191, 8103, 8186, 8089, 8075, 8170, 8170, 8190, 8030,3.1333675384521484
55, 8104, 8171, 8116, 8051, 8054, 8191, 8103, 8186, 8089, 8075, 8170, 8170, 8190, 8030,3.1333675384521484
56, 8106, 8169, 8129, 8039, 8059, 8191, 8112, 8201, 8086, 8071, 8176, 8168, 8190, 8035,3.1413683891296387
56, 8106, 8169, 8129, 8039, 8059, 8191, 8112, 8201, 8086, 8071, 8176, 8168, 8190, 8035,3.1413683891296387
57, 8117, 8168, 8136, 8050, 8058, 8196, 8105, 8219, 8084, 8071, 8175, 8189, 8189, 8028,3.1480038166046143
57, 8117, 8168, 8136, 8050, 8058, 8196, 8105, 8219, 8084, 8071, 8175, 8189, 8189, 8028,3.1480038166046143
58, 8105, 8170, 8135, 8071, 8059, 8181, 8107, 8176, 8102, 8097, 8161, 8173, 8172, 8030,3.1554038524627686
58, 8105, 8170, 8135, 8071, 8059, 8181, 8107, 8176, 8102, 8097, 8161, 8173, 8172, 8030,3.1563961505889893
59, 8113, 8169, 8132, 8068, 8056, 8202, 8109, 8201, 8094, 8094, 8172, 8183, 8185, 8037,3.1634068489074707
59, 8113, 8169, 8132, 8068, 8056, 8202, 8109, 8201, 8094, 8094, 8172, 8183, 8185, 8037,3.1643993854522705
60, 8114, 8178, 8136, 8073, 8069, 8179, 8125, 8191, 8097, 8089, 8173, 8177, 8175, 8032,3.1720046997070312
60, 8114, 8178, 8136, 8073, 8069, 8179, 8125, 8191, 8097, 8089, 8173, 8177, 8175, 8032,3.1724112033843994
61, 8107, 8171, 8126, 8079, 8076, 8172, 8128, 8170, 8103, 8086, 8164, 8157, 8165, 8029,3.1800012588500977
61, 8107, 8171, 8126, 8079, 8076, 8172, 8128, 8170, 8103, 8086, 8164, 8157, 8165, 8029,3.1800012588500977
62, 8090, 8143, 8101, 8060, 8073, 8175, 8114, 8183, 8085, 8065, 8162, 8148, 8177, 8023,3.1880784034729004
62, 8090, 8143, 8101, 8060, 8073, 8175, 8114, 8183, 8085, 8065, 8162, 8148, 8177, 8023,3.1880784034729004
63, 8076, 8140, 8098, 8053, 8083, 8146, 8119, 8163, 8091, 8079, 8156, 8135, 8163, 8014,3.1960866451263428
63, 8076, 8140, 8098, 8053, 8083, 8146, 8119, 8163, 8091, 8079, 8156, 8135, 8163, 8014,3.1960866451263428
64, 8094, 8158, 8103, 8058, 8074, 8169, 8112, 8184, 8100, 8097, 8161, 8151, 8167, 8016,3.2038776874542236
64, 8094, 8158, 8103, 8058, 8074, 8169, 8112, 8184, 8100, 8097, 8161, 8151, 8167, 8016,3.2038776874542236
65, 8089, 8165, 8104, 8073, 8096, 8165, 8126, 8165, 8123, 8113, 8165, 8141, 8166, 8030,3.210789680480957
65, 8089, 8165, 8104, 8073, 8096, 8165, 8126, 8165, 8123, 8113, 8165, 8141, 8166, 8030,3.210789680480957
66, 8098, 8171, 8117, 8092, 8138, 8158, 8145, 8164, 8146, 8131, 8173, 8147, 8169, 8051,3.219007968902588
66, 8098, 8171, 8117, 8092, 8138, 8158, 8145, 8164, 8146, 8131, 8173, 8147, 8169, 8051,3.219007968902588
67, 8123, 8188, 8132, 8101, 8130, 8174, 8138, 8190, 8140, 8146, 8172, 8179, 8181, 8063,3.226973056793213
67, 8123, 8188, 8132, 8101, 8130, 8174, 8138, 8190, 8140, 8146, 8172, 8179, 8181, 8063,3.226973056793213
68, 8130, 8210, 8147, 8129, 8141, 8156, 8173, 8147, 8165, 8180, 8162, 8167, 8164, 8091,3.235003709793091
68, 8130, 8210, 8147, 8129, 8141, 8156, 8173, 8147, 8165, 8180, 8162, 8167, 8164, 8091,3.235003709793091
69, 8161, 8226, 8168, 8156, 8168, 8172, 8206, 8181, 8187, 8190, 8177, 8180, 8174, 8130,3.243009567260742
69, 8161, 8226, 8168, 8156, 8168, 8172, 8206, 8181, 8187, 8190, 8177, 8180, 8174, 8130,3.243009567260742
70, 8162, 8223, 8173, 8165, 8172, 8163, 8202, 8186, 8188, 8191, 8176, 8181, 8170, 8127,3.2510392665863037
70, 8162, 8223, 8173, 8165, 8172, 8163, 8202, 8186, 8188, 8191, 8176, 8181, 8170, 8127,3.2510392665863037
71, 8149, 8211, 8151, 8163, 8171, 8157, 8199, 8154, 8192, 8194, 8166, 8167, 8152, 8114,3.25903582572937
71, 8149, 8211, 8151, 8163, 8171, 8157, 8199, 8154, 8192, 8194, 8166, 8167, 8152, 8114,3.25903582572937
72, 8156, 8196, 8144, 8153, 8163, 8180, 8189, 8183, 8173, 8164, 8170, 8177, 8167, 8107,3.2669730186462402
72, 8156, 8196, 8144, 8153, 8163, 8180, 8189, 8183, 8173, 8164, 8170, 8177, 8167, 8107,3.2669730186462402
73, 8141, 8187, 8156, 8154, 8168, 8159, 8194, 8160, 8168, 8162, 8165, 8161, 8158, 8099,3.2740085124969482
73, 8141, 8187, 8156, 8154, 8168, 8159, 8194, 8160, 8168, 8162, 8165, 8161, 8158, 8099,3.2740085124969482
74, 8145, 8185, 8145, 8144, 8167, 8178, 8198, 8167, 8169, 8161, 8167, 8161, 8160, 8102,3.2820072174072266
74, 8145, 8185, 8145, 8144, 8167, 8178, 8198, 8167, 8169, 8161, 8167, 8161, 8160, 8102,3.2820072174072266
75, 8139, 8183, 8126, 8128, 8159, 8173, 8196, 8171, 8169, 8150, 8164, 8153, 8166, 8091,3.2900006771087646
75, 8139, 8183, 8126, 8128, 8159, 8173, 8196, 8171, 8169, 8150, 8164, 8153, 8166, 8091,3.2900006771087646
76, 8123, 8178, 8122, 8118, 8149, 8150, 8184, 8159, 8168, 8157, 8158, 8143, 8162, 8075,3.29803729057312
76, 8123, 8178, 8122, 8118, 8149, 8150, 8184, 8159, 8168, 8157, 8158, 8143, 8162, 8075,3.29803729057312
77, 8134, 8168, 8124, 8105, 8136, 8177, 8166, 8188, 8151, 8156, 8166, 8162, 8172, 8078,3.3060362339019775
77, 8134, 8168, 8124, 8105, 8136, 8177, 8166, 8188, 8151, 8156, 8166, 8162, 8172, 8078,3.3060362339019775
78, 8134, 8176, 8134, 8123, 8160, 8159, 8190, 8165, 8157, 8176, 8167, 8149, 8163, 8097,3.3140337467193604
78, 8134, 8176, 8134, 8123, 8160, 8159, 8190, 8165, 8157, 8176, 8167, 8149, 8163, 8097,3.3140337467193604
79, 8143, 8180, 8135, 8139, 8165, 8166, 8189, 8181, 8162, 8180, 8169, 8153, 8167, 8104,3.3220083713531494
79, 8143, 8180, 8135, 8139, 8165, 8166, 8189, 8181, 8162, 8180, 8169, 8153, 8167, 8104,3.3220083713531494
80, 8143, 8172, 8132, 8136, 8149, 8173, 8173, 8174, 8176, 8181, 8163, 8159, 8162, 8091,3.330172538757324
80, 8143, 8172, 8132, 8136, 8149, 8173, 8173, 8174, 8176, 8181, 8163, 8159, 8162, 8091,3.330172538757324
81, 8144, 8188, 8145, 8151, 8174, 8153, 8204, 8130, 8210, 8217, 8162, 8146, 8151, 8114,3.3380043506622314
81, 8144, 8188, 8145, 8151, 8174, 8153, 8204, 8130, 8210, 8217, 8162, 8146, 8151, 8114,3.3380043506622314
82, 8163, 8200, 8154, 8159, 8190, 8164, 8206, 8173, 8201, 8215, 8170, 8159, 8168, 8136,3.3446829319000244
82, 8163, 8200, 8154, 8159, 8190, 8164, 8206, 8173, 8201, 8215, 8170, 8159, 8168, 8136,3.3446829319000244
83, 8141, 8186, 8146, 8152, 8188, 8140, 8195, 8151, 8205, 8201, 8154, 8139, 8151, 8118,3.3526828289031982
83, 8141, 8186, 8146, 8152, 8188, 8140, 8195, 8151, 8205, 8201, 8154, 8139, 8151, 8118,3.3536770343780518
84, 8141, 8184, 8134, 8150, 8181, 8151, 8205, 8139, 8210, 8190, 8151, 8135, 8145, 8112,3.3609516620635986
84, 8141, 8184, 8134, 8150, 8181, 8151, 8205, 8139, 8210, 8190, 8151, 8135, 8145, 8112,3.3609516620635986
85, 8158, 8192, 8134, 8158, 8187, 8156, 8210, 8165, 8188, 8177, 8155, 8146, 8153, 8116,3.368316650390625
85, 8158, 8192, 8134, 8158, 8187, 8156, 8210, 8165, 8188, 8177, 8155, 8146, 8153, 8116,3.368316650390625
86, 8150, 8181, 8136, 8167, 8209, 8130, 8206, 8142, 8189, 8192, 8149, 8134, 8142, 8114,3.377837657928467
86, 8150, 8181, 8136, 8167, 8209, 8130, 8206, 8142, 8189, 8192, 8149, 8134, 8142, 8114,3.377837657928467
87, 8152, 8165, 8133, 8149, 8188, 8166, 8189, 8164, 8176, 8191, 8158, 8147, 8157, 8113,3.384834051132202
87, 8152, 8165, 8133, 8149, 8188, 8166, 8189, 8164, 8176, 8191, 8158, 8147, 8157, 8113,3.384834051132202
88, 8154, 8175, 8139, 8149, 8176, 8158, 8206, 8159, 8183, 8200, 8167, 8144, 8156, 8119,3.3928349018096924
88, 8154, 8175, 8139, 8149, 8176, 8158, 8206, 8159, 8183, 8200, 8167, 8144, 8156, 8119,3.3928349018096924
89, 8172, 8185, 8144, 8166, 8192, 8160, 8223, 8165, 8216, 8218, 8175, 8154, 8159, 8131,3.40083384513855
89, 8172, 8185, 8144, 8166, 8192, 8160, 8223, 8165, 8216, 8218, 8175, 8154, 8159, 8131,3.40083384513855
90, 8174, 8177, 8142, 8156, 8194, 8179, 8208, 8180, 8216, 8212, 8173, 8169, 8167, 8130,3.40783429145813
90, 8174, 8177, 8142, 8156, 8194, 8179, 8208, 8180, 8216, 8212, 8173, 8169, 8167, 8130,3.40783429145813
91, 8155, 8177, 8151, 8157, 8201, 8154, 8211, 8155, 8210, 8222, 8168, 8158, 8158, 8134,3.415834426879883
91, 8155, 8177, 8151, 8157, 8201, 8154, 8211, 8155, 8210, 8222, 8168, 8158, 8158, 8134,3.415834426879883
92, 8163, 8172, 8144, 8154, 8175, 8178, 8200, 8193, 8194, 8212, 8171, 8163, 8168, 8123,3.4238362312316895
92, 8163, 8172, 8144, 8154, 8175, 8178, 8200, 8193, 8194, 8212, 8171, 8163, 8168, 8123,3.4238362312316895
93, 8142, 8157, 8124, 8146, 8164, 8167, 8212, 8165, 8215, 8216, 8154, 8139, 8148, 8100,3.4318339824676514
93, 8142, 8157, 8124, 8146, 8164, 8167, 8212, 8165, 8215, 8216, 8154, 8139, 8148, 8100,3.4318339824676514
94, 8140, 8164, 8119, 8149, 8193, 8149, 8239, 8139, 8239, 8237, 8154, 8130, 8135, 8118,3.439833879470825
94, 8140, 8164, 8119, 8149, 8193, 8149, 8239, 8139, 8239, 8237, 8154, 8130, 8135, 8118,3.439833879470825
95, 8161, 8182, 8123, 8154, 8203, 8163, 8228, 8174, 8196, 8214, 8163, 8144, 8154, 8125,3.4478342533111572
95, 8161, 8182, 8123, 8154, 8203, 8163, 8228, 8174, 8196, 8214, 8163, 8144, 8154, 8125,3.4478342533111572
96, 8152, 8189, 8131, 8161, 8212, 8147, 8232, 8145, 8192, 8198, 8153, 8129, 8145, 8103,3.4558420181274414
96, 8152, 8189, 8131, 8161, 8212, 8147, 8232, 8145, 8192, 8198, 8153, 8129, 8145, 8103,3.4558420181274414
97, 8160, 8177, 8130, 8149, 8198, 8174, 8214, 8167, 8200, 8176, 8154, 8141, 8148, 8088,3.4640018939971924
97, 8160, 8177, 8130, 8149, 8198, 8174, 8214, 8167, 8200, 8176, 8154, 8141, 8148, 8088,3.4640018939971924
98, 8153, 8158, 8124, 8128, 8174, 8176, 8187, 8174, 8170, 8171, 8153, 8137, 8153, 8083,3.4716947078704834
98, 8153, 8158, 8124, 8128, 8174, 8176, 8187, 8174, 8170, 8171, 8153, 8137, 8153, 8083,3.4716947078704834
99, 8140, 8145, 8114, 8113, 8156, 8177, 8189, 8164, 8156, 8185, 8154, 8133, 8164, 8086,3.478788137435913
99, 8140, 8145, 8114, 8113, 8156, 8177, 8189, 8164, 8156, 8185, 8154, 8133, 8164, 8086,3.478788137435913
100, 8144, 8131, 8111, 8105, 8147, 8195, 8173, 8190, 8150, 8150, 8154, 8145, 8171, 8069,3.4868111610412598
100, 8144, 8131, 8111, 8105, 8147, 8195, 8173, 8190, 8150, 8150, 8154, 8145, 8171, 8069,3.4868111610412598
101, 8132, 8129, 8122, 8118, 8167, 8164, 8164, 8169, 8156, 8131, 8155, 8139, 8154, 8069,3.4950051307678223
101, 8132, 8129, 8122, 8118, 8167, 8164, 8164, 8169, 8156, 8131, 8155, 8139, 8154, 8069,3.4950051307678223
102, 8140, 8135, 8130, 8116, 8140, 8198, 8148, 8201, 8144, 8137, 8169, 8157, 8178, 8087,3.5029988288879395
102, 8140, 8135, 8130, 8116, 8140, 8198, 8148, 8201, 8144, 8137, 8169, 8157, 8178, 8087,3.5029988288879395
103, 8139, 8132, 8127, 8094, 8116, 8203, 8133, 8198, 8123, 8140, 8161, 8158, 8186, 8069,3.5109927654266357
103, 8139, 8132, 8127, 8094, 8116, 8203, 8133, 8198, 8123, 8140, 8161, 8158, 8186, 8069,3.5109927654266357
104, 8143, 8138, 8126, 8093, 8143, 8181, 8138, 8181, 8118, 8141, 8165, 8163, 8178, 8059,3.518991708755493
104, 8143, 8138, 8126, 8093, 8143, 8181, 8138, 8181, 8118, 8141, 8165, 8163, 8178, 8059,3.518991708755493
105, 8166, 8147, 8137, 8103, 8140, 8211, 8149, 8226, 8123, 8137, 8181, 8182, 8191, 8069,3.5270001888275146
105, 8166, 8147, 8137, 8103, 8140, 8211, 8149, 8226, 8123, 8137, 8181, 8182, 8191, 8069,3.5270001888275146
106, 8157, 8153, 8152, 8105, 8135, 8190, 8174, 8196, 8152, 8152, 8177, 8176, 8189, 8081,3.534264087677002
106, 8157, 8153, 8152, 8105, 8135, 8190, 8174, 8196, 8152, 8152, 8177, 8176, 8189, 8081,3.534264087677002
107, 8169, 8159, 8156, 8103, 8135, 8197, 8161, 8215, 8142, 8136, 8181, 8182, 8203, 8090,3.5420947074890137
107, 8169, 8159, 8156, 8103, 8135, 8197, 8161, 8215, 8142, 8136, 8181, 8182, 8203, 8090,3.5420947074890137
108, 8172, 8167, 8167, 8119, 8135, 8205, 8156, 8224, 8143, 8142, 8174, 8143, 8198, 8092,3.5500082969665527
108, 8172, 8167, 8167, 8119, 8135, 8205, 8156, 8224, 8143, 8142, 8174, 8143, 8198, 8092,3.5500082969665527
109, 8168, 8186, 8186, 8146, 8155, 8197, 8184, 8189, 8182, 8200, 8177, 8118, 8185, 8118,3.5580050945281982
109, 8168, 8186, 8186, 8146, 8155, 8197, 8184, 8189, 8182, 8200, 8177, 8118, 8185, 8118,3.5580050945281982
110, 8184, 8195, 8189, 8144, 8162, 8211, 8166, 8222, 8163, 8184, 8186, 8153, 8199, 8128,3.5661003589630127
110, 8184, 8195, 8189, 8144, 8162, 8211, 8166, 8222, 8163, 8184, 8186, 8153, 8199, 8128,3.5661003589630127
111, 8168, 8185, 8183, 8141, 8162, 8181, 8150, 8199, 8157, 8161, 8173, 8144, 8188, 8109,3.5740644931793213
111, 8168, 8185, 8183, 8141, 8162, 8181, 8150, 8199, 8157, 8161, 8173, 8144, 8188, 8109,3.5740644931793213
112, 8165, 8173, 8178, 8140, 8145, 8201, 8148, 8198, 8168, 8178, 8174, 8138, 8184, 8113,3.582058906555176
112, 8165, 8173, 8178, 8140, 8145, 8201, 8148, 8198, 8168, 8178, 8174, 8138, 8184, 8113,3.582058906555176
113, 8157, 8167, 8176, 8130, 8140, 8201, 8142, 8203, 8144, 8175, 8174, 8140, 8180, 8114,3.590005397796631
113, 8157, 8167, 8176, 8130, 8140, 8201, 8142, 8203, 8144, 8175, 8174, 8140, 8180, 8114,3.590005397796631
114, 8145, 8178, 8178, 8132, 8155, 8174, 8144, 8183, 8135, 8162, 8172, 8134, 8172, 8101,3.5981500148773193
114, 8145, 8178, 8178, 8132, 8155, 8174, 8144, 8183, 8135, 8162, 8172, 8134, 8172, 8101,3.5981500148773193
115, 8163, 8185, 8170, 8131, 8125, 8208, 8131, 8204, 8136, 8157, 8175, 8143, 8176, 8090,3.6051571369171143
115, 8163, 8185, 8170, 8131, 8125, 8208, 8131, 8204, 8136, 8157, 8175, 8143, 8176, 8090,3.6051571369171143
116, 8151, 8186, 8163, 8136, 8122, 8191, 8145, 8169, 8158, 8181, 8171, 8123, 8159, 8094,3.613159418106079
116, 8151, 8186, 8163, 8136, 8122, 8191, 8145, 8169, 8158, 8181, 8171, 8123, 8159, 8094,3.613159418106079
117, 8155, 8186, 8166, 8132, 8151, 8200, 8151, 8194, 8163, 8168, 8171, 8129, 8173, 8102,3.6215245723724365
117, 8155, 8186, 8166, 8132, 8151, 8200, 8151, 8194, 8163, 8168, 8171, 8129, 8173, 8102,3.6215245723724365
118, 8164, 8183, 8172, 8119, 8143, 8208, 8132, 8219, 8143, 8132, 8163, 8140, 8182, 8091,3.629213333129883
118, 8164, 8183, 8172, 8119, 8143, 8208, 8132, 8219, 8143, 8132, 8163, 8140, 8182, 8091,3.629213333129883
119, 8156, 8192, 8175, 8134, 8132, 8185, 8141, 8176, 8155, 8158, 8164, 8133, 8167, 8104,3.637662887573242
119, 8156, 8192, 8175, 8134, 8132, 8185, 8141, 8176, 8155, 8158, 8164, 8133, 8167, 8104,3.637662887573242
120, 8174, 8200, 8178, 8142, 8136, 8214, 8152, 8209, 8167, 8182, 8177, 8149, 8181, 8126,3.6446666717529297
120, 8174, 8200, 8178, 8142, 8136, 8214, 8152, 8209, 8167, 8182, 8177, 8149, 8181, 8126,3.6446666717529297
121, 8175, 8207, 8191, 8145, 8166, 8193, 8177, 8208, 8198, 8196, 8174, 8140, 8178, 8134,3.6530046463012695
121, 8175, 8207, 8191, 8145, 8166, 8193, 8177, 8208, 8198, 8196, 8174, 8140, 8178, 8134,3.6530046463012695
122, 8175, 8219, 8201, 8156, 8172, 8191, 8180, 8209, 8210, 8200, 8179, 8148, 8179, 8142,3.660720109939575
122, 8175, 8219, 8201, 8156, 8172, 8191, 8180, 8209, 8210, 8200, 8179, 8148, 8179, 8142,3.660720109939575
123, 8170, 8224, 8189, 8165, 8159, 8194, 8172, 8201, 8205, 8210, 8178, 8155, 8176, 8144,3.6677358150482178
123, 8170, 8224, 8189, 8165, 8159, 8194, 8172, 8201, 8205, 8210, 8178, 8155, 8176, 8144,3.6677358150482178
124, 8158, 8221, 8176, 8167, 8186, 8158, 8205, 8156, 8241, 8244, 8168, 8131, 8161, 8155,3.6762535572052
124, 8158, 8221, 8176, 8167, 8186, 8158, 8205, 8156, 8241, 8244, 8168, 8131, 8161, 8155,3.6762535572052
125, 8166, 8208, 8168, 8152, 8196, 8171, 8202, 8190, 8248, 8223, 8175, 8136, 8173, 8153,3.68400502204895
125, 8166, 8208, 8168, 8152, 8196, 8171, 8202, 8190, 8248, 8223, 8175, 8136, 8173, 8153,3.68400502204895
126, 8151, 8209, 8168, 8163, 8199, 8148, 8207, 8165, 8255, 8233, 8176, 8131, 8156, 8152,3.691976547241211
126, 8151, 8209, 8168, 8163, 8199, 8148, 8207, 8165, 8255, 8233, 8176, 8131, 8156, 8152,3.691976547241211
127, 8154, 8215, 8170, 8178, 8211, 8139, 8223, 8146, 8269, 8266, 8173, 8132, 8148, 8167,3.6999764442443848
127, 8154, 8215, 8170, 8178, 8211, 8139, 8223, 8146, 8269, 8266, 8173, 8132, 8148, 8167,3.6999764442443848
240, 8165, 8196, 8163, 8160, 8209, 8143, 8205, 8167, 8251, 8235, 8168, 8136, 8162, 8156,3.7080044746398926
240, 8165, 8196, 8163, 8160, 8209, 8143, 8205, 8167, 8251, 8235, 8168, 8136, 8162, 8156,3.7080044746398926
0, 8160, 8195, 8155, 8164, 8210, 8123, 8212, 8133, 8254, 8233, 8162, 8120, 8147, 8155,3.7160043716430664
0, 8160, 8195, 8155, 8164, 8210, 8123, 8212, 8133, 8254, 8233, 8162, 8120, 8147, 8155,3.7160043716430664
1, 8170, 8200, 8139, 8170, 8210, 8152, 8226, 8152, 8265, 8255, 8168, 8129, 8146, 8176,3.7239990234375
1, 8170, 8200, 8139, 8170, 8210, 8152, 8226, 8152, 8265, 8255, 8168, 8129, 8146, 8176,3.7239990234375
2, 8159, 8198, 8142, 8173, 8233, 8127, 8251, 8134, 8289, 8270, 8169, 8135, 8150, 8190,3.7323741912841797
2, 8159, 8198, 8142, 8173, 8233, 8127, 8251, 8134, 8289, 8270, 8169, 8135, 8150, 8190,3.7323741912841797
3, 8170, 8201, 8160, 8185, 8235, 8123, 8250, 8128, 8282, 8266, 8178, 8147, 8157, 8196,3.7393743991851807
3, 8170, 8201, 8160, 8185, 8235, 8123, 8250, 8128, 8282, 8266, 8178, 8147, 8157, 8196,3.7393743991851807
4, 8189, 8196, 8160, 8176, 8201, 8149, 8223, 8149, 8256, 8260, 8177, 8151, 8155, 8187,3.7469682693481445
4, 8189, 8196, 8160, 8176, 8201, 8149, 8223, 8149, 8256, 8260, 8177, 8151, 8155, 8187,3.7469682693481445
5, 8174, 8188, 8154, 8178, 8213, 8118, 8236, 8110, 8295, 8293, 8168, 8135, 8140, 8196,3.7553186416625977
5, 8174, 8188, 8154, 8178, 8213, 8118, 8236, 8110, 8295, 8293, 8168, 8135, 8140, 8196,3.7553186416625977
6, 8187, 8178, 8157, 8188, 8213, 8130, 8224, 8143, 8303, 8287, 8183, 8153, 8162, 8208,3.7633514404296875
6, 8187, 8178, 8157, 8188, 8213, 8130, 8224, 8143, 8303, 8287, 8183, 8153, 8162, 8208,3.7633514404296875
7, 8185, 8167, 8167, 8177, 8202, 8127, 8205, 8137, 8277, 8268, 8183, 8147, 8159, 8195,3.770578622817993
7, 8185, 8167, 8167, 8177, 8202, 8127, 8205, 8137, 8277, 8268, 8183, 8147, 8159, 8195,3.770578622817993
8, 8176, 8167, 8172, 8166, 8214, 8140, 8226, 8113, 8286, 8278, 8175, 8140, 8140, 8200,3.7786779403686523
8, 8176, 8167, 8172, 8166, 8214, 8140, 8226, 8113, 8286, 8278, 8175, 8140, 8140, 8200,3.7786779403686523
9, 8190, 8169, 8178, 8165, 8207, 8165, 8232, 8145, 8285, 8281, 8185, 8162, 8153, 8210,3.786684036254883
9, 8190, 8169, 8178, 8165, 8207, 8165, 8232, 8145, 8285, 8281, 8185, 8162, 8153, 8210,3.786684036254883
10, 8188, 8170, 8193, 8172, 8208, 8126, 8224, 8118, 8287, 8306, 8190, 8156, 8149, 8207,3.794684648513794
10, 8188, 8170, 8193, 8172, 8208, 8126, 8224, 8118, 8287, 8306, 8190, 8156, 8149, 8207,3.794684648513794
11, 8208, 8165, 8198, 8167, 8199, 8139, 8219, 8133, 8300, 8323, 8196, 8170, 8156, 8227,3.801729679107666
11, 8208, 8165, 8198, 8167, 8199, 8139, 8219, 8133, 8300, 8323, 8196, 8170, 8156, 8227,3.801729679107666
12, 8213, 8171, 8204, 8173, 8212, 8135, 8245, 8139, 8318, 8331, 8198, 8183, 8161, 8260,3.809680223464966
12, 8213, 8171, 8204, 8173, 8212, 8135, 8245, 8139, 8318, 8331, 8198, 8183, 8161, 8260,3.809680223464966
13, 8214, 8192, 8218, 8193, 8239, 8129, 8263, 8135, 8326, 8351, 8204, 8182, 8158, 8280,3.8180038928985596
13, 8214, 8192, 8218, 8193, 8239, 8129, 8263, 8135, 8326, 8351, 8204, 8182, 8158, 8280,3.8180038928985596
14, 8236, 8195, 8215, 8191, 8225, 8152, 8246, 8155, 8324, 8363, 8207, 8195, 8166, 8282,3.8260438442230225
14, 8236, 8195, 8215, 8191, 8225, 8152, 8246, 8155, 8324, 8363, 8207, 8195, 8166, 8282,3.8260438442230225
15, 8225, 8190, 8213, 8200, 8228, 8122, 8274, 8120, 8356, 8400, 8202, 8190, 8156, 8295,3.8340048789978027
15, 8225, 8190, 8213, 8200, 8228, 8122, 8274, 8120, 8356, 8400, 8202, 8190, 8156, 8295,3.8340048789978027
16, 8236, 8188, 8219, 8205, 8235, 8137, 8294, 8149, 8365, 8402, 8208, 8194, 8161, 8303,3.8420040607452393
16, 8236, 8188, 8219, 8205, 8235, 8137, 8294, 8149, 8365, 8402, 8208, 8194, 8161, 8303,3.8420040607452393
17, 8243, 8183, 8220, 8190, 8239, 8134, 8283, 8147, 8357, 8384, 8196, 8191, 8162, 8289,3.849630117416382
17, 8243, 8183, 8220, 8190, 8239, 8134, 8283, 8147, 8357, 8384, 8196, 8191, 8162, 8289,3.849630117416382
18, 8239, 8181, 8218, 8192, 8247, 8125, 8286, 8111, 8365, 8395, 8189, 8180, 8157, 8287,3.857625722885132
18, 8239, 8181, 8218, 8192, 8247, 8125, 8286, 8111, 8365, 8395, 8189, 8180, 8157, 8287,3.857625722885132
19, 8243, 8170, 8208, 8191, 8227, 8154, 8279, 8152, 8345, 8381, 8197, 8193, 8170, 8283,3.865004062652588
19, 8243, 8170, 8208, 8191, 8227, 8154, 8279, 8152, 8345, 8381, 8197, 8193, 8170, 8283,3.865004062652588
20, 8222, 8163, 8200, 8182, 8232, 8126, 8295, 8132, 8341, 8369, 8187, 8182, 8162, 8280,3.87211275100708
20, 8222, 8163, 8200, 8182, 8232, 8126, 8295, 8132, 8341, 8369, 8187, 8182, 8162, 8280,3.87211275100708
21, 8233, 8166, 8210, 8169, 8246, 8134, 8297, 8138, 8342, 8354, 8184, 8187, 8176, 8291,3.8806300163269043
21, 8233, 8166, 8210, 8169, 8246, 8134, 8297, 8138, 8342, 8354, 8184, 8187, 8176, 8291,3.8816256523132324
22, 8234, 8159, 8224, 8163, 8226, 8142, 8275, 8156, 8337, 8350, 8191, 8199, 8187, 8287,3.889004707336426
22, 8234, 8159, 8224, 8163, 8226, 8142, 8275, 8156, 8337, 8350, 8191, 8199, 8187, 8287,3.889004707336426
23, 8217, 8150, 8223, 8173, 8203, 8135, 8271, 8132, 8347, 8369, 8186, 8180, 8164, 8272,3.8969671726226807
23, 8217, 8150, 8223, 8173, 8203, 8135, 8271, 8132, 8347, 8369, 8186, 8180, 8164, 8272,3.8969671726226807
24, 8234, 8146, 8214, 8159, 8208, 8160, 8277, 8153, 8326, 8362, 8183, 8183, 8171, 8265,3.9050049781799316
24, 8234, 8146, 8214, 8159, 8208, 8160, 8277, 8153, 8326, 8362, 8183, 8183, 8171, 8265,3.9050049781799316
25, 8229, 8148, 8218, 8156, 8251, 8128, 8294, 8130, 8320, 8368, 8185, 8188, 8173, 8273,3.9127492904663086
25, 8229, 8148, 8218, 8156, 8251, 8128, 8294, 8130, 8320, 8368, 8185, 8188, 8173, 8273,3.9127492904663086
26, 8231, 8150, 8216, 8167, 8243, 8138, 8264, 8142, 8318, 8359, 8188, 8191, 8172, 8270,3.92075777053833
26, 8231, 8150, 8216, 8167, 8243, 8138, 8264, 8142, 8318, 8359, 8188, 8191, 8172, 8270,3.92075777053833
27, 8233, 8148, 8207, 8160, 8200, 8151, 8231, 8153, 8304, 8340, 8184, 8190, 8171, 8256,3.9290037155151367
27, 8233, 8148, 8207, 8160, 8200, 8151, 8231, 8153, 8304, 8340, 8184, 8190, 8171, 8256,3.9290037155151367
28, 8217, 8145, 8205, 8159, 8211, 8135, 8248, 8120, 8309, 8340, 8173, 8174, 8162, 8261,3.936009407043457
28, 8217, 8145, 8205, 8159, 8211, 8135, 8248, 8120, 8309, 8340, 8173, 8174, 8162, 8261,3.936009407043457
29, 8222, 8142, 8202, 8156, 8218, 8164, 8244, 8162, 8291, 8310, 8175, 8181, 8173, 8250,3.9439988136291504
29, 8222, 8142, 8202, 8156, 8218, 8164, 8244, 8162, 8291, 8310, 8175, 8181, 8173, 8250,3.9439988136291504
30, 8212, 8145, 8195, 8159, 8210, 8154, 8247, 8150, 8286, 8304, 8173, 8171, 8165, 8220,3.95200514793396
30, 8212, 8145, 8195, 8159, 8210, 8154, 8247, 8150, 8286, 8304, 8173, 8171, 8165, 8220,3.95200514793396
31, 8210, 8142, 8185, 8154, 8196, 8166, 8243, 8141, 8278, 8303, 8169, 8162, 8160, 8209,3.9596142768859863
31, 8210, 8142, 8185, 8154, 8196, 8166, 8243, 8141, 8278, 8303, 8169, 8162, 8160, 8209,3.9596142768859863
32, 8205, 8121, 8176, 8133, 8172, 8171, 8208, 8169, 8252, 8270, 8170, 8171, 8173, 8201,3.9676287174224854
32, 8205, 8121, 8176, 8133, 8172, 8171, 8208, 8169, 8252, 8270, 8170, 8171, 8173, 8201,3.9676287174224854
33, 8191, 8102, 8176, 8130, 8165, 8142, 8192, 8151, 8260, 8276, 8171, 8167, 8167, 8186,3.9759998321533203
33, 8191, 8102, 8176, 8130, 8165, 8142, 8192, 8151, 8260, 8276, 8171, 8167, 8167, 8186,3.9759998321533203
34, 8208, 8103, 8170, 8126, 8144, 8179, 8172, 8169, 8250, 8286, 8176, 8177, 8172, 8185,3.984004497528076
34, 8208, 8103, 8170, 8126, 8144, 8179, 8172, 8169, 8250, 8286, 8176, 8177, 8172, 8185,3.9846489429473877
35, 8198, 8117, 8164, 8127, 8146, 8176, 8172, 8154, 8238, 8277, 8170, 8164, 8172, 8194,3.99100399017334
35, 8198, 8117, 8164, 8127, 8146, 8176, 8172, 8154, 8238, 8277, 8170, 8164, 8172, 8194,3.99100399017334
36, 8191, 8116, 8168, 8128, 8148, 8172, 8169, 8157, 8230, 8251, 8168, 8156, 8173, 8189,3.9986655712127686
36, 8191, 8116, 8168, 8128, 8148, 8172, 8169, 8157, 8230, 8251, 8168, 8156, 8173, 8189,3.9996964931488037
37, 8199, 8109, 8170, 8120, 8134, 8186, 8151, 8177, 8221, 8235, 8174, 8178, 8179, 8175,4.0073511600494385
37, 8199, 8109, 8170, 8120, 8134, 8186, 8151, 8177, 8221, 8235, 8174, 8178, 8179, 8175,4.0073511600494385
38, 8195, 8140, 8180, 8145, 8169, 8168, 8188, 8144, 8259, 8274, 8178, 8173, 8172, 8195,4.015353441238403
38, 8195, 8140, 8180, 8145, 8169, 8168, 8188, 8144, 8259, 8274, 8178, 8173, 8172, 8195,4.015353441238403
39, 8211, 8150, 8181, 8160, 8175, 8188, 8198, 8181, 8255, 8264, 8181, 8173, 8185, 8202,4.023004531860352
39, 8211, 8150, 8181, 8160, 8175, 8188, 8198, 8181, 8255, 8264, 8181, 8173, 8185, 8202,4.023004531860352
40, 8196, 8123, 8167, 8142, 8145, 8171, 8164, 8181, 8218, 8229, 8172, 8164, 8182, 8168,4.031004905700684
40, 8196, 8123, 8167, 8142, 8145, 8171, 8164, 8181, 8218, 8229, 8172, 8164, 8182, 8168,4.031004905700684
41, 8191, 8126, 8168, 8137, 8137, 8172, 8160, 8162, 8223, 8256, 8171, 8160, 8174, 8163,4.039178133010864
41, 8191, 8126, 8168, 8137, 8137, 8172, 8160, 8162, 8223, 8256, 8171, 8160, 8174, 8163,4.039178133010864
42, 8209, 8138, 8172, 8134, 8131, 8200, 8168, 8196, 8234, 8267, 8176, 8174, 8190, 8181,4.047132968902588
42, 8209, 8138, 8172, 8134, 8131, 8200, 8168, 8196, 8234, 8267, 8176, 8174, 8190, 8181,4.047132968902588
43, 8200, 8135, 8181, 8135, 8130, 8182, 8155, 8177, 8227, 8248, 8172, 8165, 8182, 8181,4.055196046829224
43, 8200, 8135, 8181, 8135, 8130, 8182, 8155, 8177, 8227, 8248, 8172, 8165, 8182, 8181,4.055196046829224
44, 8209, 8131, 8192, 8135, 8118, 8206, 8121, 8190, 8182, 8209, 8176, 8177, 8183, 8167,4.062213659286499
44, 8209, 8131, 8192, 8135, 8118, 8206, 8121, 8190, 8182, 8209, 8176, 8177, 8183, 8167,4.062213659286499
45, 8208, 8135, 8191, 8135, 8116, 8198, 8134, 8186, 8158, 8188, 8174, 8183, 8186, 8156,4.069396257400513
45, 8208, 8135, 8191, 8135, 8116, 8198, 8134, 8186, 8158, 8188, 8174, 8183, 8186, 8156,4.070396423339844
46, 8201, 8139, 8189, 8139, 8113, 8188, 8148, 8178, 8162, 8188, 8173, 8175, 8180, 8156,4.077568054199219
46, 8201, 8139, 8189, 8139, 8113, 8188, 8148, 8178, 8162, 8188, 8173, 8175, 8180, 8156,4.077568054199219
47, 8211, 8137, 8192, 8122, 8094, 8213, 8120, 8208, 8147, 8179, 8181, 8188, 8190, 8157,4.085575580596924
47, 8211, 8137, 8192, 8122, 8094, 8213, 8120, 8208, 8147, 8179, 8181, 8188, 8190, 8157,4.085575580596924
48, 8206, 8143, 8211, 8122, 8108, 8188, 8127, 8181, 8161, 8194, 8175, 8180, 8187, 8168,4.09400486946106
48, 8206, 8143, 8211, 8122, 8108, 8188, 8127, 8181, 8161, 8194, 8175, 8180, 8187, 8168,4.09400486946106
49, 8207, 8150, 8213, 8138, 8112, 8197, 8121, 8195, 8157, 8184, 8175, 8177, 8192, 8165,4.102004766464233
49, 8207, 8150, 8213, 8138, 8112, 8197, 8121, 8195, 8157, 8184, 8175, 8177, 8192, 8165,4.102004766464233
50, 8180, 8148, 8187, 8138, 8100, 8190, 8103, 8195, 8142, 8170, 8175, 8168, 8186, 8137,4.110032320022583
50, 8180, 8148, 8187, 8138, 8100, 8190, 8103, 8195, 8142, 8170, 8175, 8168, 8186, 8137,4.110032320022583
51, 8154, 8140, 8169, 8125, 8097, 8178, 8104, 8161, 8152, 8177, 8166, 8154, 8170, 8119,4.118004560470581
51, 8154, 8140, 8169, 8125, 8097, 8178, 8104, 8161, 8152, 8177, 8166, 8154, 8170, 8119,4.118004560470581
52, 8158, 8124, 8160, 8096, 8080, 8194, 8087, 8183, 8125, 8145, 8160, 8161, 8174, 8110,4.126276016235352
52, 8158, 8124, 8160, 8096, 8080, 8194, 8087, 8183, 8125, 8145, 8160, 8161, 8174, 8110,4.126276016235352
53, 8139, 8119, 8151, 8083, 8081, 8155, 8089, 8163, 8090, 8127, 8152, 8138, 8164, 8089,4.133004188537598
53, 8139, 8119, 8151, 8083, 8081, 8155, 8089, 8163, 8090, 8127, 8152, 8138, 8164, 8089,4.133004188537598
54, 8137, 8117, 8135, 8073, 8075, 8166, 8089, 8170, 8069, 8111, 8153, 8127, 8166, 8066,4.141003847122192
54, 8137, 8117, 8135, 8073, 8075, 8166, 8089, 8170, 8069, 8111, 8153, 8127, 8166, 8066,4.141003847122192
55, 8135, 8117, 8135, 8066, 8059, 8181, 8085, 8173, 8085, 8106, 8152, 8136, 8172, 8062,4.149005174636841
55, 8135, 8117, 8135, 8066, 8059, 8181, 8085, 8173, 8085, 8106, 8152, 8136, 8172, 8062,4.149005174636841
56, 8128, 8120, 8156, 8076, 8070, 8165, 8097, 8144, 8113, 8130, 8150, 8133, 8164, 8072,4.157175064086914
56, 8128, 8120, 8156, 8076, 8070, 8165, 8097, 8144, 8113, 8130, 8150, 8133, 8164, 8072,4.157175064086914
57, 8135, 8108, 8150, 8064, 8065, 8179, 8080, 8176, 8092, 8113, 8155, 8144, 8177, 8062,4.165194511413574
57, 8135, 8108, 8150, 8064, 8065, 8179, 8080, 8176, 8092, 8113, 8155, 8144, 8177, 8062,4.165194511413574
58, 8135, 8118, 8147, 8073, 8064, 8171, 8078, 8168, 8106, 8117, 8158, 8142, 8175, 8066,4.172203540802002
58, 8135, 8118, 8147, 8073, 8064, 8171, 8078, 8168, 8106, 8117, 8158, 8142, 8175, 8066,4.172203540802002
59, 8164, 8144, 8170, 8100, 8073, 8188, 8091, 8171, 8137, 8157, 8168, 8152, 8174, 8106,4.181005477905273
59, 8164, 8144, 8170, 8100, 8073, 8188, 8091, 8171, 8137, 8157, 8168, 8152, 8174, 8106,4.181005477905273
60, 8162, 8142, 8176, 8093, 8078, 8183, 8087, 8186, 8131, 8160, 8168, 8166, 8184, 8112,4.1889753341674805
60, 8162, 8142, 8176, 8093, 8078, 8183, 8087, 8186, 8131, 8160, 8168, 8166, 8184, 8112,4.1889753341674805
61, 8127, 8123, 8164, 8078, 8074, 8167, 8077, 8165, 8124, 8130, 8158, 8149, 8174, 8076,4.1962127685546875
61, 8127, 8123, 8164, 8078, 8074, 8167, 8077, 8165, 8124, 8130, 8158, 8149, 8174, 8076,4.1962127685546875
62, 8124, 8099, 8141, 8047, 8037, 8192, 8049, 8183, 8094, 8093, 8154, 8138, 8175, 8041,4.204212665557861
62, 8124, 8099, 8141, 8047, 8037, 8192, 8049, 8183, 8094, 8093, 8154, 8138, 8175, 8041,4.204212665557861
63, 8105, 8084, 8117, 8014, 8029, 8168, 8032, 8161, 8060, 8079, 8147, 8118, 8167, 8023,4.212004899978638
63, 8105, 8084, 8117, 8014, 8029, 8168, 8032, 8161, 8060, 8079, 8147, 8118, 8167, 8023,4.212004899978638
64, 8096, 8087, 8114, 8030, 8035, 8172, 8029, 8165, 8043, 8069, 8152, 8122, 8162, 8022,4.219977855682373
64, 8096, 8087, 8114, 8030, 8035, 8172, 8029, 8165, 8043, 8069, 8152, 8122, 8162, 8022,4.219977855682373
65, 8106, 8104, 8123, 8031, 8013, 8184, 8038, 8183, 8038, 8073, 8158, 8149, 8168, 8024,4.228013038635254
65, 8106, 8104, 8123, 8031, 8013, 8184, 8038, 8183, 8038, 8073, 8158, 8149, 8168, 8024,4.228013038635254
66, 8107, 8117, 8139, 7982, 8011, 8163, 8053, 8147, 8039, 8084, 8150, 8140, 8158, 8027,4.236093997955322
66, 8107, 8117, 8139, 7982, 8011, 8163, 8053, 8147, 8039, 8084, 8150, 8140, 8158, 8027,4.237034797668457
67, 8114, 8103, 8138, 8001, 8034, 8184, 8037, 8175, 8024, 8058, 8155, 8141, 8173, 8028,4.24341082572937
67, 8114, 8103, 8138, 8001, 8034, 8184, 8037, 8175, 8024, 8058, 8155, 8141, 8173, 8028,4.24341082572937
68, 8099, 8097, 8131, 8074, 8058, 8168, 8049, 8166, 8047, 8077, 8158, 8144, 8175, 8035,4.251425266265869
68, 8099, 8097, 8131, 8074, 8058, 8168, 8049, 8166, 8047, 8077, 8158, 8144, 8175, 8035,4.251425266265869
69, 8099, 8117, 8134, 8064, 8046, 8151, 8075, 8142, 8070, 8112, 8154, 8141, 8163, 8046,4.260006666183472
69, 8099, 8117, 8134, 8064, 8046, 8151, 8075, 8142, 8070, 8112, 8154, 8141, 8163, 8046,4.260006666183472
70, 8122, 8129, 8144, 8044, 8044, 8159, 8073, 8166, 8061, 8105, 8162, 8157, 8175, 8058,4.266962289810181
70, 8122, 8129, 8144, 8044, 8044, 8159, 8073, 8166, 8061, 8105, 8162, 8157, 8175, 8058,4.266962289810181
71, 8123, 8127, 8152, 8101, 8074, 8146, 8090, 8140, 8085, 8127, 8167, 8155, 8169, 8080,4.275005578994751
71, 8123, 8127, 8152, 8101, 8074, 8146, 8090, 8140, 8085, 8127, 8167, 8155, 8169, 8080,4.275005578994751
72, 8124, 8128, 8142, 8102, 8067, 8147, 8105, 8140, 8098, 8139, 8163, 8150, 8165, 8085,4.283060312271118
72, 8124, 8128, 8142, 8102, 8067, 8147, 8105, 8140, 8098, 8139, 8163, 8150, 8165, 8085,4.283060312271118
73, 8118, 8132, 8141, 8077, 8083, 8127, 8126, 8138, 8096, 8136, 8155, 8140, 8161, 8078,4.291004657745361
73, 8118, 8132, 8141, 8077, 8083, 8127, 8126, 8138, 8096, 8136, 8155, 8140, 8161, 8078,4.291004657745361
74, 8132, 8129, 8151, 8104, 8102, 8157, 8126, 8146, 8097, 8132, 8156, 8140, 8160, 8076,4.29901123046875
74, 8132, 8129, 8151, 8104, 8102, 8157, 8126, 8146, 8097, 8132, 8156, 8140, 8160, 8076,4.29901123046875
75, 8147, 8121, 8148, 8091, 8060, 8202, 8093, 8182, 8074, 8103, 8162, 8153, 8176, 8065,4.306968688964844
75, 8147, 8121, 8148, 8091, 8060, 8202, 8093, 8182, 8074, 8103, 8162, 8153, 8176, 8065,4.306968688964844
76, 8133, 8127, 8150, 8077, 8053, 8176, 8096, 8165, 8067, 8096, 8159, 8142, 8177, 8058,4.315004825592041
76, 8133, 8127, 8150, 8077, 8053, 8176, 8096, 8165, 8067, 8096, 8159, 8142, 8177, 8058,4.315004825592041
77, 8146, 8133, 8160, 8078, 8074, 8182, 8103, 8186, 8070, 8097, 8162, 8158, 8182, 8066,4.323005199432373
77, 8146, 8133, 8160, 8078, 8074, 8182, 8103, 8186, 8070, 8097, 8162, 8158, 8182, 8066,4.323005199432373
78, 8144, 8141, 8163, 8089, 8074, 8175, 8109, 8179, 8083, 8113, 8166, 8174, 8174, 8070,4.330007791519165
78, 8144, 8141, 8163, 8089, 8074, 8175, 8109, 8179, 8083, 8113, 8166, 8174, 8174, 8070,4.330007791519165
79, 8131, 8156, 8156, 8116, 8079, 8158, 8126, 8144, 8093, 8133, 8160, 8157, 8163, 8078,4.3380043506622314
79, 8131, 8156, 8156, 8116, 8079, 8158, 8126, 8144, 8093, 8133, 8160, 8157, 8163, 8078,4.3380043506622314
80, 8132, 8151, 8146, 8112, 8090, 8160, 8122, 8170, 8076, 8118, 8159, 8153, 8175, 8085,4.345698595046997
80, 8132, 8151, 8146, 8112, 8090, 8160, 8122, 8170, 8076, 8118, 8159, 8153, 8175, 8085,4.345698595046997
81, 8114, 8138, 8145, 8107, 8101, 8129, 8129, 8145, 8088, 8124, 8157, 8138, 8160, 8071,4.353699207305908
81, 8114, 8138, 8145, 8107, 8101, 8129, 8129, 8145, 8088, 8124, 8157, 8138, 8160, 8071,4.353699207305908
82, 8119, 8140, 8144, 8107, 8098, 8139, 8144, 8138, 8103, 8137, 8157, 8135, 8157, 8068,4.361729621887207
82, 8119, 8140, 8144, 8107, 8098, 8139, 8144, 8138, 8103, 8137, 8157, 8135, 8157, 8068,4.361729621887207
83, 8122, 8136, 8146, 8103, 8105, 8140, 8159, 8148, 8099, 8140, 8158, 8145, 8167, 8089,4.370004892349243
83, 8122, 8136, 8146, 8103, 8105, 8140, 8159, 8148, 8099, 8140, 8158, 8145, 8167, 8089,4.370004892349243
84, 8103, 8130, 8153, 8106, 8109, 8129, 8148, 8131, 8097, 8145, 8159, 8145, 8155, 8091,4.378519296646118
84, 8103, 8130, 8153, 8106, 8109, 8129, 8148, 8131, 8097, 8145, 8159, 8145, 8155, 8091,4.378519296646118
85, 8099, 8128, 8132, 8096, 8084, 8149, 8112, 8144, 8082, 8127, 8156, 8151, 8156, 8071,4.386006116867065
85, 8099, 8128, 8132, 8096, 8084, 8149, 8112, 8144, 8082, 8127, 8156, 8151, 8156, 8071,4.386006116867065
86, 8101, 8126, 8123, 8094, 8094, 8135, 8121, 8125, 8079, 8119, 8150, 8134, 8157, 8069,4.394003868103027
86, 8101, 8126, 8123, 8094, 8094, 8135, 8121, 8125, 8079, 8119, 8150, 8134, 8157, 8069,4.394003868103027
87, 8117, 8129, 8148, 8103, 8116, 8148, 8128, 8143, 8078, 8123, 8160, 8138, 8164, 8080,4.40100359916687
87, 8117, 8129, 8148, 8103, 8116, 8148, 8128, 8143, 8078, 8123, 8160, 8138, 8164, 8080,4.40100359916687
88, 8117, 8145, 8160, 8105, 8108, 8150, 8117, 8150, 8080, 8133, 8166, 8162, 8169, 8078,4.408999681472778
88, 8117, 8145, 8160, 8105, 8108, 8150, 8117, 8150, 8080, 8133, 8166, 8162, 8169, 8078,4.408999681472778
89, 8120, 8149, 8160, 8108, 8104, 8136, 8127, 8116, 8081, 8145, 8160, 8156, 8162, 8086,4.417014122009277
89, 8120, 8149, 8160, 8108, 8104, 8136, 8127, 8116, 8081, 8145, 8160, 8156, 8162, 8086,4.417014122009277
90, 8147, 8146, 8174, 8111, 8113, 8154, 8129, 8158, 8070, 8135, 8168, 8163, 8177, 8104,4.4250123500823975
90, 8147, 8146, 8174, 8111, 8113, 8154, 8129, 8158, 8070, 8135, 8168, 8163, 8177, 8104,4.4250123500823975
91, 8146, 8163, 8198, 8126, 8128, 8143, 8130, 8161, 8096, 8142, 8165, 8169, 8173, 8110,4.433004140853882
91, 8146, 8163, 8198, 8126, 8128, 8143, 8130, 8161, 8096, 8142, 8165, 8169, 8173, 8110,4.433004140853882
92, 8151, 8158, 8197, 8126, 8118, 8163, 8125, 8152, 8110, 8141, 8160, 8168, 8168, 8110,4.441027402877808
92, 8151, 8158, 8197, 8126, 8118, 8163, 8125, 8152, 8110, 8141, 8160, 8168, 8168, 8110,4.441027402877808
93, 8157, 8137, 8178, 8107, 8093, 8185, 8110, 8175, 8075, 8124, 8167, 8168, 8180, 8104,4.449024438858032
93, 8157, 8137, 8178, 8107, 8093, 8185, 8110, 8175, 8075, 8124, 8167, 8168, 8180, 8104,4.449024438858032
94, 8148, 8144, 8172, 8101, 8087, 8181, 8103, 8177, 8060, 8120, 8167, 8159, 8173, 8084,4.457502603530884
94, 8148, 8144, 8172, 8101, 8087, 8181, 8103, 8177, 8060, 8120, 8167, 8159, 8173, 8084,4.457502603530884
95, 8141, 8137, 8157, 8092, 8073, 8196, 8088, 8193, 8053, 8100, 8165, 8168, 8175, 8061,4.463505029678345
