COUNTER,F3,FC5,AF3,F7,T7,P7,O1,O2,P8,T8,F8,AF4,FC6,F4,Timestamp
89, 9844, 8233, 8219, 8169, 8166, 8153, 8181, 8165, 8245, 8208, 8149, 8153, 8152, 8150,0.00500035285949707
89, 9844, 8233, 8219, 8169, 8166, 8153, 8181, 8165, 8245, 8208, 8149, 8153, 8152, 8150,0.00500035285949707
90, 9843, 8244, 8211, 8174, 8160, 8169, 8186, 8162, 8249, 8216, 8159, 8163, 8156, 8145,0.012990474700927734
90, 9843, 8244, 8211, 8174, 8160, 8169, 8186, 8162, 8249, 8216, 8159, 8163, 8156, 8145,0.012990474700927734
91, 9838, 8229, 8197, 8163, 8159, 8173, 8185, 8172, 8219, 8186, 8174, 8177, 8178, 8148,0.02098822593688965
91, 9838, 8229, 8197, 8163, 8159, 8173, 8185, 8172, 8219, 8186, 8174, 8177, 8178, 8148,0.02098822593688965
92, 9812, 8214, 8192, 8154, 8172, 8143, 8181, 8148, 8207, 8184, 8155, 8140, 8162, 8145,0.02895212173461914
92, 9812, 8214, 8192, 8154, 8172, 8143, 8181, 8148, 8207, 8184, 8155, 8140, 8162, 8145,0.02895212173461914
93, 9815, 8211, 8189, 8138, 8156, 8173, 8143, 8198, 8181, 8171, 8167, 8174, 8184, 8120,0.03703474998474121
93, 9815, 8211, 8189, 8138, 8156, 8173, 8143, 8198, 8181, 8171, 8167, 8174, 8184, 8120,0.03703474998474121
94, 9796, 8213, 8179, 8138, 8146, 8161, 8136, 8163, 8186, 8169, 8137, 8141, 8152, 8090,0.04466986656188965
94, 9796, 8213, 8179, 8138, 8146, 8161, 8136, 8163, 8186, 8169, 8137, 8141, 8152, 8090,0.04466986656188965
95, 9811, 8220, 8191, 8150, 8141, 8168, 8143, 8154, 8202, 8170, 8147, 8148, 8149, 8107,0.05266690254211426
95, 9811, 8220, 8191, 8150, 8141, 8168, 8143, 8154, 8202, 8170, 8147, 8148, 8149, 8107,0.05266690254211426
96, 9823, 8220, 8202, 8143, 8132, 8172, 8140, 8178, 8183, 8161, 8173, 8180, 8174, 8122,0.06066608428955078
96, 9823, 8220, 8202, 8143, 8132, 8172, 8140, 8178, 8183, 8161, 8173, 8180, 8174, 8122,0.06066608428955078
97, 9806, 8212, 8193, 8145, 8145, 8148, 8148, 8145, 8172, 8164, 8156, 8137, 8150, 8121,0.06906270980834961
97, 9806, 8212, 8193, 8145, 8145, 8148, 8148, 8145, 8172, 8164, 8156, 8137, 8150, 8121,0.06906270980834961
98, 9819, 8203, 8189, 8137, 8132, 8175, 8124, 8188, 8152, 8136, 8171, 8169, 8176, 8119,0.07606315612792969
98, 9819, 8203, 8189, 8137, 8132, 8175, 8124, 8188, 8152, 8136, 8171, 8169, 8176, 8119,0.07606315612792969
99, 9791, 8192, 8181, 8120, 8124, 8157, 8111, 8171, 8145, 8127, 8149, 8142, 8163, 8092,0.08406352996826172
99, 9791, 8192, 8181, 8120, 8124, 8157, 8111, 8171, 8145, 8127, 8149, 8142, 8163, 8092,0.08406352996826172
100, 9784, 8185, 8183, 8118, 8123, 8160, 8116, 8167, 8149, 8125, 8152, 8134, 8158, 8094,0.09180140495300293
100, 9784, 8185, 8183, 8118, 8123, 8160, 8116, 8167, 8149, 8125, 8152, 8134, 8158, 8094,0.09180140495300293
101, 9801, 8198, 8195, 8129, 8116, 8175, 8110, 8198, 8148, 8119, 8176, 8175, 8183, 8112,0.09980225563049316
101, 9801, 8198, 8195, 8129, 8116, 8175, 8110, 8198, 8148, 8119, 8176, 8175, 8183, 8112,0.09980225563049316
102, 9777, 8217, 8191, 8143, 8133, 8158, 8119, 8158, 8162, 8154, 8152, 8138, 8152, 8109,0.10777902603149414
102, 9777, 8217, 8191, 8143, 8133, 8158, 8119, 8158, 8162, 8154, 8152, 8138, 8152, 8109,0.10777902603149414
103, 9782, 8215, 8186, 8134, 8129, 8188, 8111, 8190, 8144, 8148, 8167, 8166, 8171, 8108,0.11580872535705566
103, 9782, 8215, 8186, 8134, 8129, 8188, 8111, 8190, 8144, 8148, 8167, 8166, 8171, 8108,0.11580872535705566
104, 9772, 8223, 8192, 8144, 8132, 8165, 8125, 8168, 8156, 8143, 8153, 8157, 8163, 8111,0.12330889701843262
104, 9772, 8223, 8192, 8144, 8132, 8165, 8125, 8168, 8156, 8143, 8153, 8157, 8163, 8111,0.12330889701843262
105, 9767, 8234, 8195, 8161, 8142, 8159, 8139, 8142, 8183, 8167, 8160, 8147, 8156, 8120,0.13182282447814941
105, 9767, 8234, 8195, 8161, 8142, 8159, 8139, 8142, 8183, 8167, 8160, 8147, 8156, 8120,0.13182282447814941
106, 9769, 8211, 8182, 8132, 8130, 8175, 8119, 8174, 8154, 8149, 8185, 8192, 8183, 8116,0.13882088661193848
106, 9769, 8211, 8182, 8132, 8130, 8175, 8119, 8174, 8154, 8149, 8185, 8192, 8183, 8116,0.13882088661193848
107, 9756, 8211, 8185, 8132, 8151, 8147, 8133, 8152, 8155, 8151, 8153, 8183, 8159, 8119,0.14680743217468262
107, 9756, 8211, 8185, 8132, 8151, 8147, 8133, 8152, 8155, 8151, 8153, 8183, 8159, 8119,0.14680743217468262
108, 9775, 8236, 8202, 8155, 8153, 8178, 8132, 8193, 8165, 8156, 8162, 8234, 8179, 8125,0.15428376197814941
108, 9775, 8236, 8202, 8155, 8153, 8178, 8132, 8193, 8165, 8156, 8162, 8234, 8179, 8125,0.15428376197814941
109, 9754, 8229, 8191, 8149, 8134, 8166, 8111, 8183, 8154, 8134, 8150, 8223, 8166, 8096,0.16228365898132324
109, 9754, 8229, 8191, 8149, 8134, 8166, 8111, 8183, 8154, 8134, 8150, 8223, 8166, 8096,0.16228365898132324
110, 9747, 8215, 8187, 8142, 8132, 8152, 8104, 8159, 8138, 8120, 8147, 8197, 8142, 8091,0.17078709602355957
110, 9747, 8215, 8187, 8142, 8132, 8152, 8104, 8159, 8138, 8120, 8147, 8197, 8142, 8091,0.17078709602355957
111, 9774, 8224, 8200, 8144, 8129, 8183, 8107, 8195, 8123, 8124, 8168, 8245, 8176, 8109,0.17878389358520508
111, 9774, 8224, 8200, 8144, 8129, 8183, 8107, 8195, 8123, 8124, 8168, 8245, 8176, 8109,0.17878389358520508
112, 9756, 8239, 8201, 8156, 8136, 8164, 8132, 8153, 8156, 8152, 8141, 8207, 8150, 8107,0.18579745292663574
112, 9756, 8239, 8201, 8156, 8136, 8164, 8132, 8153, 8156, 8152, 8141, 8207, 8150, 8107,0.18579745292663574
113, 9762, 8236, 8199, 8151, 8134, 8179, 8131, 8178, 8181, 8163, 8167, 8226, 8165, 8113,0.19382286071777344
113, 9762, 8236, 8199, 8151, 8134, 8179, 8131, 8178, 8181, 8163, 8167, 8226, 8165, 8113,0.19382286071777344
114, 9761, 8228, 8200, 8147, 8147, 8170, 8141, 8179, 8196, 8196, 8175, 8237, 8170, 8124,0.20182299613952637
114, 9761, 8228, 8200, 8147, 8147, 8170, 8141, 8179, 8196, 8196, 8175, 8237, 8170, 8124,0.20182299613952637
115, 9750, 8239, 8207, 8167, 8172, 8165, 8175, 8141, 8223, 8227, 8162, 8208, 8150, 8141,0.2098093032836914
115, 9750, 8239, 8207, 8167, 8172, 8165, 8175, 8141, 8223, 8227, 8162, 8208, 8150, 8141,0.2098093032836914
116, 9760, 8251, 8212, 8176, 8173, 8193, 8171, 8186, 8224, 8197, 8186, 8246, 8185, 8161,0.21781253814697266
116, 9760, 8251, 8212, 8176, 8173, 8193, 8171, 8186, 8224, 8197, 8186, 8246, 8185, 8161,0.21781253814697266
117, 9741, 8247, 8204, 8179, 8197, 8153, 8170, 8158, 8220, 8196, 8168, 8215, 8169, 8152,0.2253282070159912
117, 9741, 8247, 8204, 8179, 8197, 8153, 8170, 8158, 8220, 8196, 8168, 8215, 8169, 8152,0.2253282070159912
118, 9749, 8234, 8199, 8168, 8192, 8157, 8150, 8169, 8185, 8177, 8171, 8224, 8173, 8135,0.23378562927246094
118, 9749, 8234, 8199, 8168, 8192, 8157, 8150, 8169, 8185, 8177, 8171, 8224, 8173, 8135,0.23378562927246094
119, 9735, 8224, 8193, 8156, 8161, 8169, 8119, 8187, 8150, 8138, 8163, 8226, 8172, 8111,0.24181699752807617
119, 9735, 8224, 8193, 8156, 8161, 8169, 8119, 8187, 8150, 8138, 8163, 8226, 8172, 8111,0.24181699752807617
120, 9714, 8221, 8191, 8161, 8156, 8158, 8108, 8162, 8153, 8150, 8143, 8187, 8145, 8097,0.2498183250427246
120, 9714, 8221, 8191, 8161, 8156, 8158, 8108, 8162, 8153, 8150, 8143, 8187, 8145, 8097,0.2498183250427246
121, 9733, 8216, 8190, 8151, 8143, 8177, 8099, 8188, 8150, 8153, 8163, 8225, 8172, 8096,0.2581593990325928
121, 9733, 8216, 8190, 8151, 8143, 8177, 8099, 8188, 8150, 8153, 8163, 8225, 8172, 8096,0.2581593990325928
122, 9718, 8217, 8188, 8155, 8154, 8160, 8134, 8146, 8183, 8161, 8148, 8198, 8149, 8095,0.26516008377075195
122, 9718, 8217, 8188, 8155, 8154, 8160, 8134, 8146, 8183, 8161, 8148, 8198, 8149, 8095,0.26516008377075195
123, 9727, 8225, 8206, 8169, 8169, 8178, 8156, 8153, 8200, 8169, 8170, 8213, 8157, 8122,0.2727787494659424
123, 9727, 8225, 8206, 8169, 8169, 8178, 8156, 8153, 8200, 8169, 8170, 8213, 8157, 8122,0.2727787494659424
124, 9731, 8233, 8215, 8170, 8177, 8173, 8151, 8171, 8188, 8182, 8184, 8239, 8178, 8136,0.28116703033447266
124, 9731, 8233, 8215, 8170, 8177, 8173, 8151, 8171, 8188, 8182, 8184, 8239, 8178, 8136,0.28116703033447266
125, 9717, 8246, 8211, 8182, 8202, 8152, 8173, 8145, 8206, 8215, 8165, 8211, 8164, 8144,0.2891671657562256
125, 9717, 8246, 8211, 8182, 8202, 8152, 8173, 8145, 8206, 8215, 8165, 8211, 8164, 8144,0.2891671657562256
126, 9723, 8239, 8210, 8183, 8203, 8176, 8160, 8194, 8192, 8197, 8189, 8248, 8195, 8145,0.29677796363830566
126, 9723, 8239, 8210, 8183, 8203, 8176, 8160, 8194, 8192, 8197, 8189, 8248, 8195, 8145,0.29677796363830566
127, 9686, 8209, 8193, 8160, 8189, 8145, 8140, 8169, 8175, 8172, 8157, 8206, 8160, 8106,0.30481719970703125
127, 9686, 8209, 8193, 8160, 8189, 8145, 8140, 8169, 8175, 8172, 8157, 8206, 8160, 8106,0.30481719970703125
240, 9678, 8197, 8182, 8135, 8159, 8163, 8131, 8167, 8179, 8161, 8149, 8195, 8149, 8088,0.3127779960632324
240, 9678, 8197, 8182, 8135, 8159, 8163, 8131, 8167, 8179, 8161, 8149, 8195, 8149, 8088,0.3127779960632324
0, 9681, 8215, 8182, 8150, 8143, 8182, 8131, 8182, 8176, 8152, 8161, 8216, 8164, 8078,0.31978511810302734
0, 9681, 8215, 8182, 8150, 8143, 8182, 8131, 8182, 8176, 8152, 8161, 8216, 8164, 8078,0.31978511810302734
1, 9665, 8235, 8185, 8183, 8174, 8155, 8145, 8137, 8177, 8160, 8145, 8177, 8135, 8065,0.32882189750671387
1, 9665, 8235, 8185, 8183, 8174, 8155, 8145, 8137, 8177, 8160, 8145, 8177, 8135, 8065,0.32882189750671387
2, 9683, 8226, 8186, 8170, 8184, 8183, 8139, 8175, 8165, 8146, 8169, 8220, 8172, 8079,0.335848331451416
2, 9683, 8226, 8186, 8170, 8184, 8183, 8139, 8175, 8165, 8146, 8169, 8220, 8172, 8079,0.335848331451416
3, 9669, 8218, 8184, 8158, 8193, 8160, 8151, 8157, 8179, 8163, 8151, 8204, 8162, 8090,0.34381866455078125
3, 9669, 8218, 8184, 8158, 8193, 8160, 8151, 8157, 8179, 8163, 8151, 8204, 8162, 8090,0.34381866455078125
4, 9659, 8216, 8186, 8162, 8191, 8156, 8147, 8162, 8164, 8168, 8152, 8199, 8156, 8088,0.35181570053100586
4, 9659, 8216, 8186, 8162, 8191, 8156, 8147, 8162, 8164, 8168, 8152, 8199, 8156, 8088,0.35181570053100586
5, 9657, 8205, 8182, 8145, 8158, 8173, 8120, 8190, 8116, 8128, 8158, 8220, 8175, 8069,0.3599514961242676
5, 9657, 8205, 8182, 8145, 8158, 8173, 8120, 8190, 8116, 8128, 8158, 8220, 8175, 8069,0.3599514961242676
6, 9644, 8213, 8183, 8153, 8152, 8157, 8137, 8139, 8144, 8140, 8137, 8177, 8141, 8060,0.3679330348968506
6, 9644, 8213, 8183, 8153, 8152, 8157, 8137, 8139, 8144, 8140, 8137, 8177, 8141, 8060,0.3679330348968506
7, 9668, 8223, 8197, 8159, 8160, 8184, 8146, 8172, 8177, 8165, 8176, 8226, 8166, 8080,0.3759346008300781
7, 9668, 8223, 8197, 8159, 8160, 8184, 8146, 8172, 8177, 8165, 8176, 8226, 8166, 8080,0.3759346008300781
8, 9650, 8212, 8194, 8147, 8182, 8159, 8150, 8160, 8175, 8174, 8168, 8219, 8170, 8091,0.38381385803222656
8, 9650, 8212, 8194, 8147, 8182, 8159, 8150, 8160, 8175, 8174, 8168, 8219, 8170, 8091,0.38381385803222656
9, 9638, 8207, 8188, 8148, 8184, 8150, 8145, 8160, 8162, 8161, 8155, 8197, 8171, 8097,0.39183497428894043
9, 9638, 8207, 8188, 8148, 8184, 8150, 8145, 8160, 8162, 8161, 8155, 8197, 8171, 8097,0.39183497428894043
10, 9649, 8205, 8187, 8141, 8159, 8176, 8128, 8201, 8162, 8151, 8159, 8219, 8183, 8086,0.39884400367736816
10, 9649, 8205, 8187, 8141, 8159, 8176, 8128, 8201, 8162, 8151, 8159, 8219, 8183, 8086,0.39884400367736816
11, 9627, 8203, 8180, 8135, 8162, 8162, 8146, 8142, 8191, 8174, 8139, 8171, 8142, 8072,0.4067802429199219
11, 9627, 8203, 8180, 8135, 8162, 8162, 8146, 8142, 8191, 8174, 8139, 8171, 8142, 8072,0.4067802429199219
12, 9636, 8207, 8185, 8133, 8156, 8185, 8148, 8166, 8174, 8157, 8174, 8206, 8173, 8095,0.41481494903564453
12, 9636, 8207, 8185, 8133, 8156, 8185, 8148, 8166, 8174, 8157, 8174, 8206, 8173, 8095,0.41481494903564453
13, 9625, 8208, 8189, 8133, 8169, 8164, 8149, 8181, 8160, 8158, 8161, 8204, 8172, 8099,0.42246270179748535
13, 9625, 8208, 8189, 8133, 8169, 8164, 8149, 8181, 8160, 8158, 8161, 8204, 8172, 8099,0.42246270179748535
14, 9611, 8203, 8182, 8128, 8180, 8156, 8150, 8157, 8167, 8182, 8141, 8174, 8138, 8080,0.4304530620574951
14, 9611, 8203, 8182, 8128, 8180, 8156, 8150, 8157, 8167, 8182, 8141, 8174, 8138, 8080,0.4304530620574951
15, 9611, 8195, 8172, 8106, 8139, 8185, 8130, 8169, 8147, 8148, 8159, 8203, 8161, 8070,0.4388089179992676
15, 9611, 8195, 8172, 8106, 8139, 8185, 8130, 8169, 8147, 8148, 8159, 8203, 8161, 8070,0.4388089179992676
16, 9591, 8203, 8179, 8111, 8136, 8153, 8145, 8142, 8154, 8137, 8145, 8180, 8154, 8085,0.44713664054870605
16, 9591, 8203, 8179, 8111, 8136, 8153, 8145, 8142, 8154, 8137, 8145, 8180, 8154, 8085,0.44713664054870605
17, 9616, 8218, 8197, 8124, 8148, 8172, 8144, 8189, 8152, 8142, 8170, 8211, 8181, 8106,0.45481181144714355
17, 9616, 8218, 8197, 8124, 8148, 8172, 8144, 8189, 8152, 8142, 8170, 8211, 8181, 8106,0.45481181144714355
18, 9611, 8229, 8199, 8131, 8154, 8175, 8140, 8177, 8152, 8148, 8157, 8198, 8165, 8088,0.46181178092956543
18, 9611, 8229, 8199, 8131, 8154, 8175, 8140, 8177, 8152, 8148, 8157, 8198, 8165, 8088,0.46181178092956543
19, 9602, 8241, 8208, 8148, 8179, 8168, 8164, 8135, 8180, 8172, 8149, 8178, 8142, 8093,0.4697999954223633
19, 9602, 8241, 8208, 8148, 8179, 8168, 8164, 8135, 8180, 8172, 8149, 8178, 8142, 8093,0.4697999954223633
20, 9622, 8237, 8218, 8149, 8190, 8190, 8171, 8180, 8167, 8160, 8193, 8236, 8188, 8126,0.4777953624725342
20, 9622, 8237, 8218, 8149, 8190, 8190, 8171, 8180, 8167, 8160, 8193, 8236, 8188, 8126,0.4777953624725342
21, 9608, 8232, 8217, 8149, 8199, 8155, 8172, 8158, 8150, 8152, 8171, 8195, 8166, 8126,0.4858119487762451
21, 9608, 8232, 8217, 8149, 8199, 8155, 8172, 8158, 8150, 8152, 8171, 8195, 8166, 8126,0.4858119487762451
22, 9622, 8249, 8226, 8156, 8181, 8171, 8153, 8178, 8151, 8159, 8169, 8199, 8164, 8116,0.49381232261657715
22, 9622, 8249, 8226, 8156, 8181, 8171, 8153, 8178, 8151, 8159, 8169, 8199, 8164, 8116,0.49381232261657715
23, 9623, 8261, 8236, 8172, 8172, 8177, 8158, 8173, 8174, 8180, 8165, 8213, 8161, 8115,0.5015900135040283
23, 9623, 8261, 8236, 8172, 8172, 8177, 8158, 8173, 8174, 8180, 8165, 8213, 8161, 8115,0.5015900135040283
24, 9610, 8260, 8238, 8186, 8195, 8161, 8179, 8141, 8192, 8193, 8161, 8192, 8150, 8141,0.5097775459289551
24, 9610, 8260, 8238, 8186, 8195, 8161, 8179, 8141, 8192, 8193, 8161, 8192, 8150, 8141,0.5097775459289551
25, 9619, 8253, 8231, 8174, 8194, 8181, 8144, 8192, 8162, 8165, 8184, 8225, 8190, 8149,0.5177938938140869
25, 9619, 8253, 8231, 8174, 8194, 8181, 8144, 8192, 8162, 8165, 8184, 8225, 8190, 8149,0.5177938938140869
26, 9596, 8254, 8222, 8178, 8201, 8158, 8146, 8156, 8172, 8192, 8148, 8184, 8155, 8120,0.5253214836120605
26, 9596, 8254, 8222, 8178, 8201, 8158, 8146, 8156, 8172, 8192, 8148, 8184, 8155, 8120,0.5253214836120605
27, 9600, 8257, 8223, 8182, 8197, 8178, 8176, 8155, 8190, 8219, 8161, 8202, 8153, 8128,0.5325655937194824
27, 9600, 8257, 8223, 8182, 8197, 8178, 8176, 8155, 8190, 8219, 8161, 8202, 8153, 8128,0.5325655937194824
28, 9595, 8247, 8213, 8164, 8188, 8177, 8171, 8173, 8171, 8191, 8182, 8221, 8176, 8139,0.540564775466919
28, 9595, 8247, 8213, 8164, 8188, 8177, 8171, 8173, 8171, 8191, 8182, 8221, 8176, 8139,0.540564775466919
29, 9574, 8238, 8209, 8164, 8212, 8147, 8161, 8159, 8170, 8185, 8160, 8179, 8159, 8131,0.548811674118042
29, 9574, 8238, 8209, 8164, 8212, 8147, 8161, 8159, 8170, 8185, 8160, 8179, 8159, 8131,0.548811674118042
30, 9593, 8240, 8228, 8172, 8208, 8180, 8156, 8198, 8171, 8195, 8170, 8218, 8176, 8134,0.5565822124481201
30, 9593, 8240, 8228, 8172, 8208, 8180, 8156, 8198, 8171, 8195, 8170, 8218, 8176, 8134,0.5565822124481201
31, 9587, 8264, 8239, 8191, 8193, 8169, 8176, 8152, 8196, 8226, 8155, 8199, 8155, 8141,0.5648164749145508
31, 9587, 8264, 8239, 8191, 8193, 8169, 8176, 8152, 8196, 8226, 8155, 8199, 8155, 8141,0.5648164749145508
32, 9595, 8272, 8239, 8204, 8192, 8173, 8168, 8157, 8205, 8219, 8170, 8205, 8167, 8154,0.5728116035461426
32, 9595, 8272, 8239, 8204, 8192, 8173, 8168, 8157, 8205, 8219, 8170, 8205, 8167, 8154,0.5728116035461426
33, 9597, 8254, 8237, 8196, 8206, 8166, 8149, 8194, 8194, 8189, 8182, 8226, 8183, 8152,0.5808117389678955
33, 9597, 8254, 8237, 8196, 8206, 8166, 8149, 8194, 8194, 8189, 8182, 8226, 8183, 8152,0.5808117389678955
34, 9583, 8265, 8247, 8205, 8226, 8142, 8178, 8165, 8211, 8215, 8168, 8199, 8162, 8157,0.5888116359710693
34, 9583, 8265, 8247, 8205, 8226, 8142, 8178, 8165, 8211, 8215, 8168, 8199, 8162, 8157,0.5888116359710693
35, 9606, 8285, 8262, 8213, 8199, 8187, 8178, 8199, 8198, 8230, 8183, 8232, 8188, 8172,0.5960352420806885
35, 9606, 8285, 8262, 8213, 8199, 8187, 8178, 8199, 8198, 8230, 8183, 8232, 8188, 8172,0.5960352420806885
36, 9595, 8286, 8261, 8222, 8199, 8172, 8173, 8169, 8200, 8250, 8164, 8200, 8161, 8170,0.6040337085723877
36, 9595, 8286, 8261, 8222, 8199, 8172, 8173, 8169, 8200, 8250, 8164, 8200, 8161, 8170,0.6040337085723877
37, 9598, 8286, 8266, 8229, 8224, 8171, 8186, 8153, 8223, 8276, 8181, 8207, 8161, 8195,0.612053394317627
37, 9598, 8286, 8266, 8229, 8224, 8171, 8186, 8153, 8223, 8276, 8181, 8207, 8161, 8195,0.612053394317627
38, 9601, 8279, 8258, 8214, 8226, 8181, 8189, 8182, 8211, 8256, 8189, 8232, 8185, 8199,0.61981201171875
38, 9601, 8279, 8258, 8214, 8226, 8181, 8189, 8182, 8211, 8256, 8189, 8232, 8185, 8199,0.61981201171875
39, 9570, 8266, 8237, 8205, 8232, 8153, 8184, 8162, 8202, 8231, 8157, 8180, 8154, 8162,0.6278114318847656
39, 9570, 8266, 8237, 8205, 8232, 8153, 8184, 8162, 8202, 8231, 8157, 8180, 8154, 8162,0.6278114318847656
40, 9582, 8266, 8234, 8202, 8221, 8181, 8167, 8196, 8201, 8216, 8176, 8211, 8173, 8149,0.6361565589904785
40, 9582, 8266, 8234, 8202, 8221, 8181, 8167, 8196, 8201, 8216, 8176, 8211, 8173, 8149,0.6361565589904785
41, 9579, 8273, 8242, 8208, 8236, 8166, 8202, 8162, 8210, 8249, 8165, 8201, 8162, 8164,0.6441538333892822
41, 9579, 8273, 8242, 8208, 8236, 8166, 8202, 8162, 8210, 8249, 8165, 8201, 8162, 8164,0.6441538333892822
42, 9577, 8272, 8252, 8213, 8249, 8163, 8225, 8159, 8186, 8251, 8176, 8200, 8163, 8183,0.6518149375915527
42, 9577, 8272, 8252, 8213, 8249, 8163, 8225, 8159, 8186, 8251, 8176, 8200, 8163, 8183,0.6518149375915527
43, 9585, 8281, 8259, 8217, 8227, 8182, 8189, 8209, 8155, 8209, 8192, 8232, 8189, 8175,0.6588118076324463
43, 9585, 8281, 8259, 8217, 8227, 8182, 8189, 8209, 8155, 8209, 8192, 8232, 8189, 8175,0.6588118076324463
44, 9577, 8314, 8272, 8251, 8254, 8165, 8198, 8160, 8203, 8247, 8167, 8195, 8154, 8175,0.6669080257415771
44, 9577, 8314, 8272, 8251, 8254, 8165, 8198, 8160, 8203, 8247, 8167, 8195, 8154, 8175,0.6669080257415771
45, 9611, 8326, 8288, 8269, 8275, 8195, 8211, 8168, 8220, 8273, 8196, 8233, 8178, 8211,0.6748085021972656
45, 9611, 8326, 8288, 8269, 8275, 8195, 8211, 8168, 8220, 8273, 8196, 8233, 8178, 8211,0.6748085021972656
46, 9609, 8317, 8291, 8268, 8276, 8175, 8220, 8158, 8199, 8271, 8196, 8233, 8186, 8232,0.6830558776855469
46, 9609, 8317, 8291, 8268, 8276, 8175, 8220, 8158, 8199, 8271, 8196, 8233, 8186, 8232,0.6840548515319824
47, 9599, 8320, 8295, 8275, 8291, 8158, 8232, 8159, 8202, 8283, 8192, 8222, 8176, 8236,0.6910510063171387
47, 9599, 8320, 8295, 8275, 8291, 8158, 8232, 8159, 8202, 8283, 8192, 8222, 8176, 8236,0.6910510063171387
48, 9602, 8313, 8292, 8265, 8293, 8182, 8222, 8209, 8201, 8265, 8191, 8240, 8185, 8219,0.6985692977905273
48, 9602, 8313, 8292, 8265, 8293, 8182, 8222, 8209, 8201, 8265, 8191, 8240, 8185, 8219,0.6985692977905273
49, 9579, 8306, 8282, 8270, 8288, 8164, 8247, 8165, 8232, 8279, 8164, 8193, 8149, 8210,0.706186056137085
49, 9579, 8306, 8282, 8270, 8288, 8164, 8247, 8165, 8232, 8279, 8164, 8193, 8149, 8210,0.7071921825408936
50, 9598, 8310, 8277, 8279, 8274, 8191, 8268, 8176, 8242, 8301, 8197, 8228, 8179, 8242,0.7142000198364258
50, 9598, 8310, 8277, 8279, 8274, 8191, 8268, 8176, 8242, 8301, 8197, 8228, 8179, 8242,0.7151925563812256
51, 9585, 8308, 8257, 8269, 8291, 8184, 8265, 8176, 8217, 8279, 8193, 8230, 8185, 8237,0.7226977348327637
51, 9585, 8308, 8257, 8269, 8291, 8184, 8265, 8176, 8217, 8279, 8193, 8230, 8185, 8237,0.7226977348327637
52, 9560, 8301, 8232, 8263, 8308, 8167, 8246, 8162, 8199, 8244, 8173, 8197, 8157, 8208,0.7296979427337646
52, 9560, 8301, 8232, 8263, 8308, 8167, 8246, 8162, 8199, 8244, 8173, 8197, 8157, 8208,0.7296979427337646
53, 9574, 8298, 8224, 8263, 8265, 8188, 8234, 8192, 8194, 8258, 8187, 8227, 8177, 8207,0.7376985549926758
53, 9574, 8298, 8224, 8263, 8265, 8188, 8234, 8192, 8194, 8258, 8187, 8227, 8177, 8207,0.7376985549926758
54, 9558, 8300, 8224, 8264, 8271, 8162, 8267, 8146, 8221, 8310, 8171, 8197, 8159, 8221,0.7456979751586914
54, 9558, 8300, 8224, 8264, 8271, 8162, 8267, 8146, 8221, 8310, 8171, 8197, 8159, 8221,0.7456979751586914
55, 9555, 8286, 8214, 8241, 8327, 8178, 8248, 8170, 8194, 8271, 8181, 8212, 8174, 8220,0.7540557384490967
55, 9555, 8286, 8214, 8241, 8327, 8178, 8248, 8170, 8194, 8271, 8181, 8212, 8174, 8220,0.7540557384490967
56, 9550, 8275, 8209, 8238, 8309, 8176, 8223, 8184, 8169, 8236, 8173, 8213, 8173, 8203,0.7620515823364258
56, 9550, 8275, 8209, 8238, 8309, 8176, 8223, 8184, 8169, 8236, 8173, 8213, 8173, 8203,0.7620515823364258
57, 9553, 8286, 8232, 8272, 8255, 8169, 8245, 8150, 8203, 8287, 8167, 8193, 8150, 8216,0.769812822341919
57, 9553, 8286, 8232, 8272, 8255, 8169, 8245, 8150, 8203, 8287, 8167, 8193, 8150, 8216,0.769812822341919
58, 9570, 8287, 8241, 8268, 8278, 8197, 8222, 8172, 8167, 8267, 8190, 8229, 8171, 8220,0.7780835628509521
58, 9570, 8287, 8241, 8268, 8278, 8197, 8222, 8172, 8167, 8267, 8190, 8229, 8171, 8220,0.7780835628509521
59, 9558, 8296, 8239, 8264, 8327, 8159, 8227, 8138, 8141, 8248, 8176, 8208, 8156, 8229,0.78580641746521
59, 9558, 8296, 8239, 8264, 8327, 8159, 8227, 8138, 8141, 8248, 8176, 8208, 8156, 8229,0.78580641746521
60, 9581, 8309, 8265, 8283, 8268, 8174, 8260, 8169, 8174, 8287, 8207, 8242, 8185, 8290,0.7927958965301514
60, 9581, 8309, 8265, 8283, 8268, 8174, 8260, 8169, 8174, 8287, 8207, 8242, 8185, 8290,0.7927958965301514
61, 9561, 8266, 8258, 8281, 8238, 8185, 8231, 8186, 8178, 8268, 8199, 8242, 8187, 8278,0.8007984161376953
61, 9561, 8266, 8258, 8281, 8238, 8185, 8231, 8186, 8178, 8268, 8199, 8242, 8187, 8278,0.8007984161376953
62, 9523, 8250, 8236, 8282, 8308, 8151, 8195, 8145, 8152, 8232, 8166, 8197, 8152, 8238,0.809135913848877
62, 9523, 8250, 8236, 8282, 8308, 8151, 8195, 8145, 8152, 8232, 8166, 8197, 8152, 8238,0.809135913848877
63, 9550, 8289, 8259, 8284, 8289, 8178, 8195, 8190, 8135, 8247, 8200, 8252, 8191, 8262,0.8167760372161865
63, 9550, 8289, 8259, 8284, 8289, 8178, 8195, 8190, 8135, 8247, 8200, 8252, 8191, 8262,0.8167760372161865
64, 9526, 8281, 8262, 8283, 8248, 8168, 8213, 8157, 8166, 8285, 8184, 8222, 8169, 8253,0.8242137432098389
64, 9526, 8281, 8262, 8283, 8248, 8168, 8213, 8157, 8166, 8285, 8184, 8222, 8169, 8253,0.8252062797546387
65, 9515, 8251, 8241, 8289, 8261, 8176, 8210, 8144, 8169, 8270, 8186, 8209, 8158, 8227,0.8322134017944336
65, 9515, 8251, 8241, 8289, 8261, 8176, 8210, 8144, 8169, 8270, 8186, 8209, 8158, 8227,0.8332102298736572
66, 9531, 8268, 8243, 8293, 8266, 8174, 8207, 8166, 8135, 8247, 8198, 8236, 8184, 8242,0.840219259262085
66, 9531, 8268, 8243, 8293, 8266, 8174, 8207, 8166, 8135, 8247, 8198, 8236, 8184, 8242,0.8412456512451172
67, 9522, 8289, 8256, 8301, 8273, 8147, 8214, 8150, 8136, 8254, 8180, 8209, 8169, 8254,0.8488113880157471
67, 9522, 8289, 8256, 8301, 8273, 8147, 8214, 8150, 8136, 8254, 8180, 8209, 8169, 8254,0.8488113880157471
68, 9538, 8281, 8263, 8307, 8265, 8185, 8191, 8191, 8137, 8235, 8197, 8239, 8184, 8234,0.8569118976593018
68, 9538, 8281, 8263, 8307, 8265, 8185, 8191, 8191, 8137, 8235, 8197, 8239, 8184, 8234,0.8574705123901367
69, 9535, 8299, 8273, 8325, 8266, 8176, 8209, 8158, 8160, 8267, 8182, 8228, 8163, 8235,0.8638119697570801
69, 9535, 8299, 8273, 8325, 8266, 8176, 8209, 8158, 8160, 8267, 8182, 8228, 8163, 8235,0.8638119697570801
70, 9537, 8313, 8282, 8329, 8270, 8177, 8226, 8151, 8164, 8290, 8187, 8233, 8171, 8276,0.8717718124389648
70, 9537, 8313, 8282, 8329, 8270, 8177, 8226, 8151, 8164, 8290, 8187, 8233, 8171, 8276,0.872809648513794
71, 9534, 8281, 8270, 8315, 8271, 8181, 8200, 8187, 8125, 8250, 8203, 8250, 8198, 8265,0.8798894882202148
71, 9534, 8281, 8270, 8315, 8271, 8181, 8200, 8187, 8125, 8250, 8203, 8250, 8198, 8265,0.8798894882202148
72, 9524, 8284, 8277, 8340, 8287, 8157, 8225, 8159, 8152, 8271, 8185, 8220, 8166, 8242,0.8878867626190186
72, 9524, 8284, 8277, 8340, 8287, 8157, 8225, 8159, 8152, 8271, 8185, 8220, 8166, 8242,0.8878867626190186
73, 9554, 8314, 8297, 8362, 8292, 8192, 8242, 8183, 8161, 8302, 8198, 8260, 8183, 8262,0.8954439163208008
73, 9554, 8314, 8297, 8362, 8292, 8192, 8242, 8183, 8161, 8302, 8198, 8260, 8183, 8262,0.8954439163208008
74, 9536, 8309, 8283, 8353, 8311, 8175, 8244, 8156, 8140, 8303, 8184, 8249, 8172, 8268,0.9033486843109131
74, 9536, 8309, 8283, 8353, 8311, 8175, 8244, 8156, 8140, 8303, 8184, 8249, 8172, 8268,0.9033486843109131
75, 9517, 8287, 8271, 8346, 8301, 8174, 8243, 8159, 8146, 8279, 8187, 8233, 8168, 8259,0.9118747711181641
75, 9517, 8287, 8271, 8346, 8301, 8174, 8243, 8159, 8146, 8279, 8187, 8233, 8168, 8259,0.9118747711181641
76, 9519, 8281, 8279, 8345, 8277, 8190, 8224, 8203, 8149, 8257, 8197, 8254, 8193, 8245,0.9194819927215576
76, 9519, 8281, 8279, 8345, 8277, 8190, 8224, 8203, 8149, 8257, 8197, 8254, 8193, 8245,0.9209883213043213
77, 9500, 8291, 8283, 8357, 8296, 8162, 8225, 8146, 8186, 8269, 8169, 8218, 8156, 8239,0.9269924163818359
77, 9500, 8291, 8283, 8357, 8296, 8162, 8225, 8146, 8186, 8269, 8169, 8218, 8156, 8239,0.9269924163818359
78, 9508, 8282, 8274, 8346, 8280, 8192, 8207, 8157, 8150, 8263, 8190, 8250, 8168, 8247,0.934992790222168
78, 9508, 8282, 8274, 8346, 8280, 8192, 8207, 8157, 8150, 8263, 8190, 8250, 8168, 8247,0.934992790222168
79, 9483, 8265, 8257, 8331, 8265, 8167, 8199, 8162, 8061, 8264, 8185, 8244, 8173, 8236,0.9429922103881836
79, 9483, 8265, 8257, 8331, 8265, 8167, 8199, 8162, 8061, 8264, 8185, 8244, 8173, 8236,0.9429922103881836
80, 9469, 8267, 8254, 8336, 8270, 8149, 8189, 8159, 8048, 8250, 8171, 8213, 8164, 8215,0.9509923458099365
80, 9469, 8267, 8254, 8336, 8270, 8149, 8189, 8159, 8048, 8250, 8171, 8213, 8164, 8215,0.9509923458099365
81, 9492, 8282, 8273, 8343, 8237, 8188, 8171, 8184, 8067, 8227, 8188, 8237, 8179, 8212,0.9589924812316895
81, 9492, 8282, 8273, 8343, 8237, 8188, 8171, 8184, 8067, 8227, 8188, 8237, 8179, 8212,0.9589924812316895
82, 9489, 8306, 8294, 8367, 8254, 8178, 8203, 8137, 8093, 8264, 8178, 8219, 8154, 8246,0.9669952392578125
82, 9489, 8306, 8294, 8367, 8254, 8178, 8203, 8137, 8093, 8264, 8178, 8219, 8154, 8246,0.9669952392578125
83, 9510, 8313, 8301, 8379, 8293, 8194, 8211, 8175, 8127, 8254, 8200, 8264, 8188, 8285,0.974992036819458
83, 9510, 8313, 8301, 8379, 8293, 8194, 8211, 8175, 8127, 8254, 8200, 8264, 8188, 8285,0.975085973739624
84, 9508, 8311, 8298, 8383, 8288, 8174, 8200, 8186, 8176, 8241, 8195, 8270, 8196, 8282,0.98309326171875
84, 9508, 8311, 8298, 8383, 8288, 8174, 8200, 8186, 8176, 8241, 8195, 8270, 8196, 8282,0.98309326171875
85, 9503, 8322, 8304, 8406, 8278, 8167, 8208, 8155, 8173, 8294, 8190, 8239, 8168, 8275,0.9900918006896973
85, 9503, 8322, 8304, 8406, 8278, 8167, 8208, 8155, 8173, 8294, 8190, 8239, 8168, 8275,0.9910931587219238
86, 9516, 8318, 8309, 8404, 8283, 8204, 8211, 8186, 8155, 8285, 8206, 8270, 8185, 8275,0.9980931282043457
86, 9516, 8318, 8309, 8404, 8283, 8204, 8211, 8186, 8155, 8285, 8206, 8270, 8185, 8275,0.9980931282043457
87, 9487, 8306, 8294, 8376, 8288, 8177, 8223, 8158, 8185, 8258, 8174, 8228, 8155, 8260,1.005805492401123
87, 9487, 8306, 8294, 8376, 8288, 8177, 8223, 8158, 8185, 8258, 8174, 8228, 8155, 8260,1.005805492401123
88, 9490, 8296, 8277, 8363, 8249, 8191, 8197, 8174, 8152, 8256, 8182, 8235, 8162, 8245,1.013810157775879
88, 9490, 8296, 8277, 8363, 8249, 8191, 8197, 8174, 8152, 8256, 8182, 8235, 8162, 8245,1.013810157775879
89, 9480, 8281, 8271, 8362, 8240, 8184, 8176, 8161, 8132, 8258, 8185, 8245, 8168, 8234,1.0219025611877441
89, 9480, 8281, 8271, 8362, 8240, 8184, 8176, 8161, 8132, 8258, 8185, 8245, 8168, 8234,1.0219025611877441
90, 9473, 8294, 8284, 8334, 8265, 8172, 8198, 8132, 8161, 8272, 8179, 8228, 8157, 8252,1.029984474182129
90, 9473, 8294, 8284, 8334, 8265, 8172, 8198, 8132, 8161, 8272, 8179, 8228, 8157, 8252,1.029984474182129
91, 9495, 8302, 8294, 8324, 8252, 8197, 8195, 8181, 8139, 8262, 8204, 8269, 8188, 8270,1.0378005504608154
91, 9495, 8302, 8294, 8324, 8252, 8197, 8195, 8181, 8139, 8262, 8204, 8269, 8188, 8270,1.0378005504608154
92, 9467, 8288, 8285, 8370, 8274, 8161, 8202, 8144, 8113, 8248, 8187, 8231, 8165, 8250,1.0457916259765625
92, 9467, 8288, 8285, 8370, 8274, 8161, 8202, 8144, 8113, 8248, 8187, 8231, 8165, 8250,1.0457916259765625
93, 9464, 8291, 8285, 8353, 8281, 8170, 8205, 8158, 8092, 8205, 8193, 8235, 8171, 8241,1.053812026977539
93, 9464, 8291, 8285, 8353, 8281, 8170, 8205, 8158, 8092, 8205, 8193, 8235, 8171, 8241,1.053812026977539
94, 9463, 8298, 8286, 8318, 8255, 8174, 8201, 8180, 8081, 8188, 8190, 8251, 8181, 8237,1.060807228088379
94, 9463, 8298, 8286, 8318, 8255, 8174, 8201, 8180, 8081, 8188, 8190, 8251, 8181, 8237,1.060807228088379
95, 9449, 8287, 8285, 8362, 8286, 8160, 8222, 8153, 8113, 8233, 8171, 8223, 8164, 8236,1.0688111782073975
95, 9449, 8287, 8285, 8362, 8286, 8160, 8222, 8153, 8113, 8233, 8171, 8223, 8164, 8236,1.0688111782073975
96, 9461, 8281, 8287, 8375, 8310, 8194, 8230, 8202, 8139, 8244, 8192, 8257, 8190, 8241,1.0769543647766113
96, 9461, 8281, 8287, 8375, 8310, 8194, 8230, 8202, 8139, 8244, 8192, 8257, 8190, 8241,1.0769543647766113
97, 9444, 8291, 8281, 8361, 8303, 8171, 8248, 8169, 8174, 8270, 8180, 8230, 8156, 8225,1.0849566459655762
97, 9444, 8291, 8281, 8361, 8303, 8171, 8248, 8169, 8174, 8270, 8180, 8230, 8156, 8225,1.0849566459655762
98, 9448, 8289, 8280, 8375, 8282, 8180, 8255, 8153, 8184, 8283, 8190, 8229, 8154, 8227,1.0927762985229492
98, 9448, 8289, 8280, 8375, 8282, 8180, 8255, 8153, 8184, 8283, 8190, 8229, 8154, 8227,1.0927762985229492
99, 9441, 8279, 8273, 8364, 8274, 8180, 8246, 8175, 8161, 8247, 8190, 8240, 8181, 8232,1.100813388824463
99, 9441, 8279, 8273, 8364, 8274, 8180, 8246, 8175, 8161, 8247, 8190, 8240, 8181, 8232,1.100813388824463
100, 9414, 8270, 8258, 8364, 8286, 8152, 8244, 8156, 8149, 8242, 8167, 8198, 8159, 8223,1.1087117195129395
100, 9414, 8270, 8258, 8364, 8286, 8152, 8244, 8156, 8149, 8242, 8167, 8198, 8159, 8223,1.1087117195129395
101, 9434, 8264, 8257, 8404, 8280, 8187, 8228, 8192, 8123, 8246, 8186, 8230, 8176, 8211,1.116711139678955
101, 9434, 8264, 8257, 8404, 8280, 8187, 8228, 8192, 8123, 8246, 8186, 8230, 8176, 8211,1.116711139678955
102, 9430, 8294, 8274, 8438, 8301, 8173, 8239, 8153, 8134, 8265, 8169, 8222, 8155, 8211,1.1241345405578613
102, 9430, 8294, 8274, 8438, 8301, 8173, 8239, 8153, 8134, 8265, 8169, 8222, 8155, 8211,1.1241345405578613
103, 9436, 8309, 8290, 8437, 8306, 8180, 8226, 8140, 8125, 8252, 8179, 8227, 8150, 8230,1.1318116188049316
103, 9436, 8309, 8290, 8437, 8306, 8180, 8226, 8140, 8125, 8252, 8179, 8227, 8150, 8230,1.1318116188049316
104, 9439, 8279, 8292, 8408, 8278, 8186, 8194, 8173, 8075, 8203, 8200, 8249, 8179, 8230,1.1397249698638916
104, 9439, 8279, 8292, 8408, 8278, 8186, 8194, 8173, 8075, 8203, 8200, 8249, 8179, 8230,1.1397249698638916
105, 9410, 8271, 8290, 8410, 8284, 8151, 8210, 8150, 8078, 8198, 8174, 8213, 8170, 8220,1.1478121280670166
105, 9410, 8271, 8290, 8410, 8284, 8151, 8210, 8150, 8078, 8198, 8174, 8213, 8170, 8220,1.1478121280670166
106, 9416, 8285, 8283, 8407, 8276, 8180, 8209, 8183, 8083, 8201, 8181, 8237, 8183, 8217,1.1558127403259277
106, 9416, 8285, 8283, 8407, 8276, 8180, 8209, 8183, 8083, 8201, 8181, 8237, 8183, 8217,1.1558127403259277
107, 9394, 8282, 8269, 8375, 8271, 8172, 8233, 8158, 8105, 8232, 8169, 8217, 8153, 8208,1.1638009548187256
107, 9394, 8282, 8269, 8375, 8271, 8172, 8233, 8158, 8105, 8232, 8169, 8217, 8153, 8208,1.1638009548187256
108, 9375, 8256, 8255, 8362, 8282, 8177, 8277, 8152, 8144, 8250, 8178, 8203, 8158, 8213,1.171800136566162
108, 9375, 8256, 8255, 8362, 8282, 8177, 8277, 8152, 8144, 8250, 8178, 8203, 8158, 8213,1.171800136566162
109, 9359, 8230, 8225, 8345, 8272, 8190, 8276, 8192, 8154, 8212, 8184, 8221, 8193, 8189,1.179811716079712
109, 9359, 8230, 8225, 8345, 8272, 8190, 8276, 8192, 8154, 8212, 8184, 8221, 8193, 8189,1.179811716079712
110, 9320, 8236, 8199, 8318, 8256, 8160, 8265, 8163, 8165, 8217, 8144, 8167, 8157, 8140,1.1867742538452148
110, 9320, 8236, 8199, 8318, 8256, 8160, 8265, 8163, 8165, 8217, 8144, 8167, 8157, 8140,1.1867742538452148
111, 9334, 8248, 8206, 8294, 8219, 8191, 8238, 8187, 8162, 8237, 8165, 8189, 8166, 8132,1.1948904991149902
111, 9334, 8248, 8206, 8294, 8219, 8191, 8238, 8187, 8162, 8237, 8165, 8189, 8166, 8132,1.195901870727539
112, 9329, 8241, 8206, 8292, 8232, 8174, 8232, 8165, 8177, 8234, 8165, 8191, 8164, 8143,1.2029502391815186
112, 9329, 8241, 8206, 8292, 8232, 8174, 8232, 8165, 8177, 8234, 8165, 8191, 8164, 8143,1.2029502391815186
113, 9312, 8231, 8193, 8283, 8302, 8157, 8220, 8154, 8165, 8210, 8153, 8175, 8156, 8140,1.211162805557251
113, 9312, 8231, 8193, 8283, 8302, 8157, 8220, 8154, 8165, 8210, 8153, 8175, 8156, 8140,1.211162805557251
114, 9318, 8229, 8199, 8262, 8288, 8182, 8189, 8194, 8113, 8191, 8160, 8202, 8178, 8124,1.2191641330718994
114, 9318, 8229, 8199, 8262, 8288, 8182, 8189, 8194, 8113, 8191, 8160, 8202, 8178, 8124,1.2191641330718994
115, 9314, 8250, 8215, 8281, 8226, 8172, 8217, 8144, 8144, 8233, 8149, 8180, 8149, 8132,1.2267765998840332
115, 9314, 8250, 8215, 8281, 8226, 8172, 8217, 8144, 8144, 8233, 8149, 8180, 8149, 8132,1.2267765998840332
116, 9340, 8265, 8216, 8284, 8225, 8195, 8237, 8158, 8162, 8244, 8178, 8217, 8170, 8167,1.2348127365112305
116, 9340, 8265, 8216, 8284, 8225, 8195, 8237, 8158, 8162, 8244, 8178, 8217, 8170, 8167,1.2348127365112305
117, 9324, 8248, 8196, 8255, 8276, 8169, 8231, 8167, 8109, 8205, 8165, 8203, 8179, 8153,1.242811918258667
117, 9324, 8248, 8196, 8255, 8276, 8169, 8231, 8167, 8109, 8205, 8165, 8203, 8179, 8153,1.242811918258667
118, 9294, 8218, 8181, 8232, 8275, 8157, 8244, 8158, 8083, 8186, 8137, 8162, 8158, 8121,1.249812126159668
118, 9294, 8218, 8181, 8232, 8275, 8157, 8244, 8158, 8083, 8186, 8137, 8162, 8158, 8121,1.249812126159668
119, 9299, 8201, 8172, 8212, 8237, 8189, 8261, 8190, 8102, 8210, 8157, 8201, 8174, 8122,1.2578294277191162
119, 9299, 8201, 8172, 8212, 8237, 8189, 8261, 8190, 8102, 8210, 8157, 8201, 8174, 8122,1.2582077980041504
120, 9285, 8209, 8170, 8218, 8257, 8163, 8303, 8154, 8160, 8268, 8160, 8182, 8157, 8145,1.2662174701690674
120, 9285, 8209, 8170, 8218, 8257, 8163, 8303, 8154, 8160, 8268, 8160, 8182, 8157, 8145,1.2662174701690674
121, 9294, 8216, 8179, 8219, 8253, 8182, 8289, 8185, 8165, 8238, 8175, 8194, 8177, 8151,1.2742180824279785
121, 9294, 8216, 8179, 8219, 8253, 8182, 8289, 8185, 8165, 8238, 8175, 8194, 8177, 8151,1.2742180824279785
122, 9278, 8224, 8178, 8217, 8243, 8181, 8253, 8194, 8157, 8203, 8156, 8185, 8173, 8118,1.2818124294281006
122, 9278, 8224, 8178, 8217, 8243, 8181, 8253, 8194, 8157, 8203, 8156, 8185, 8173, 8118,1.2818124294281006
123, 9277, 8245, 8190, 8246, 8266, 8169, 8273, 8156, 8209, 8259, 8152, 8168, 8150, 8125,1.2898118495941162
123, 9277, 8245, 8190, 8246, 8266, 8169, 8273, 8156, 8209, 8259, 8152, 8168, 8150, 8125,1.2898118495941162
124, 9311, 8248, 8207, 8251, 8253, 8195, 8277, 8186, 8221, 8268, 8188, 8227, 8185, 8164,1.2973213195800781
124, 9311, 8248, 8207, 8251, 8253, 8195, 8277, 8186, 8221, 8268, 8188, 8227, 8185, 8164,1.2973213195800781
125, 9283, 8233, 8198, 8239, 8254, 8159, 8248, 8157, 8181, 8228, 8163, 8195, 8164, 8149,1.3063368797302246
125, 9283, 8233, 8198, 8239, 8254, 8159, 8248, 8157, 8181, 8228, 8163, 8195, 8164, 8149,1.3063368797302246
126, 9272, 8221, 8188, 8230, 8239, 8171, 8205, 8169, 8123, 8176, 8156, 8174, 8156, 8110,1.313812255859375
126, 9272, 8221, 8188, 8230, 8239, 8171, 8205, 8169, 8123, 8176, 8156, 8174, 8156, 8110,1.313812255859375
127, 9269, 8216, 8186, 8228, 8218, 8187, 8219, 8164, 8112, 8181, 8157, 8175, 8158, 8100,1.3208529949188232
127, 9269, 8216, 8186, 8228, 8218, 8187, 8219, 8164, 8112, 8181, 8157, 8175, 8158, 8100,1.3208529949188232
240, 9262, 8225, 8186, 8241, 8246, 8173, 8281, 8129, 8147, 8243, 8154, 8159, 8150, 8130,1.3288116455078125
240, 9262, 8225, 8186, 8241, 8246, 8173, 8281, 8129, 8147, 8243, 8154, 8159, 8150, 8130,1.3288116455078125
0, 9274, 8219, 8185, 8227, 8239, 8193, 8281, 8194, 8133, 8227, 8179, 8192, 8187, 8140,1.3367764949798584
0, 9274, 8219, 8185, 8227, 8239, 8193, 8281, 8194, 8133, 8227, 8179, 8192, 8187, 8140,1.3367764949798584
1, 9247, 8205, 8182, 8213, 8230, 8163, 8279, 8180, 8146, 8214, 8155, 8157, 8162, 8121,1.344858169555664
1, 9247, 8205, 8182, 8213, 8230, 8163, 8279, 8180, 8146, 8214, 8155, 8157, 8162, 8121,1.344858169555664
2, 9260, 8218, 8196, 8225, 8234, 8173, 8295, 8169, 8196, 8243, 8163, 8174, 8159, 8140,1.3528578281402588
2, 9260, 8218, 8196, 8225, 8234, 8173, 8295, 8169, 8196, 8243, 8163, 8174, 8159, 8140,1.3528578281402588
3, 9271, 8226, 8200, 8229, 8239, 8179, 8301, 8182, 8213, 8240, 8181, 8209, 8180, 8156,1.3608126640319824
3, 9271, 8226, 8200, 8229, 8239, 8179, 8301, 8182, 8213, 8240, 8181, 8209, 8180, 8156,1.3608126640319824
4, 9247, 8227, 8188, 8235, 8264, 8159, 8298, 8161, 8201, 8230, 8161, 8170, 8166, 8155,1.3688421249389648
4, 9247, 8227, 8188, 8235, 8264, 8159, 8298, 8161, 8201, 8230, 8161, 8170, 8166, 8155,1.3688421249389648
5, 9263, 8242, 8203, 8242, 8256, 8191, 8269, 8203, 8178, 8222, 8176, 8200, 8188, 8158,1.376774787902832
5, 9263, 8242, 8203, 8242, 8256, 8191, 8269, 8203, 8178, 8222, 8176, 8200, 8188, 8158,1.376774787902832
6, 9256, 8264, 8226, 8266, 8257, 8168, 8275, 8165, 8204, 8248, 8169, 8188, 8162, 8151,1.3838119506835938
6, 9256, 8264, 8226, 8266, 8257, 8168, 8275, 8165, 8204, 8248, 8169, 8188, 8162, 8151,1.3838119506835938
7, 9263, 8270, 8232, 8281, 8281, 8177, 8300, 8150, 8224, 8269, 8180, 8191, 8166, 8167,1.3918061256408691
7, 9263, 8270, 8232, 8281, 8281, 8177, 8300, 8150, 8224, 8269, 8180, 8191, 8166, 8167,1.3918061256408691
8, 9267, 8255, 8225, 8259, 8289, 8186, 8306, 8186, 8203, 8264, 8188, 8217, 8194, 8175,1.3998188972473145
8, 9267, 8255, 8225, 8259, 8289, 8186, 8306, 8186, 8203, 8264, 8188, 8217, 8194, 8175,1.3998188972473145
9, 9239, 8246, 8222, 8245, 8278, 8156, 8311, 8151, 8185, 8251, 8152, 8168, 8151, 8142,1.4078319072723389
9, 9239, 8246, 8222, 8245, 8278, 8156, 8311, 8151, 8185, 8251, 8152, 8168, 8151, 8142,1.4078319072723389
10, 9248, 8251, 8217, 8241, 8248, 8189, 8305, 8171, 8155, 8217, 8161, 8183, 8157, 8123,1.4158124923706055
10, 9248, 8251, 8217, 8241, 8248, 8189, 8305, 8171, 8155, 8217, 8161, 8183, 8157, 8123,1.4158124923706055
11, 9237, 8257, 8206, 8245, 8256, 8175, 8340, 8165, 8169, 8230, 8158, 8181, 8165, 8144,1.423884630203247
11, 9237, 8257, 8206, 8245, 8256, 8175, 8340, 8165, 8169, 8230, 8158, 8181, 8165, 8144,1.423884630203247
12, 9231, 8245, 8206, 8243, 8278, 8173, 8352, 8180, 8195, 8239, 8163, 8180, 8173, 8157,1.4318079948425293
12, 9231, 8245, 8206, 8243, 8278, 8173, 8352, 8180, 8195, 8239, 8163, 8180, 8173, 8157,1.4318079948425293
13, 9231, 8231, 8200, 8236, 8271, 8188, 8316, 8203, 8195, 8216, 8171, 8194, 8181, 8128,1.439812421798706
13, 9231, 8231, 8200, 8236, 8271, 8188, 8316, 8203, 8195, 8216, 8171, 8194, 8181, 8128,1.439812421798706
14, 9211, 8247, 8197, 8250, 8267, 8162, 8330, 8148, 8228, 8250, 8155, 8159, 8149, 8124,1.4478116035461426
14, 9211, 8247, 8197, 8250, 8267, 8162, 8330, 8148, 8228, 8250, 8155, 8159, 8149, 8124,1.4478116035461426
15, 9229, 8259, 8209, 8247, 8262, 8185, 8339, 8185, 8232, 8265, 8183, 8200, 8187, 8162,1.4549956321716309
15, 9229, 8259, 8209, 8247, 8262, 8185, 8339, 8185, 8232, 8265, 8183, 8200, 8187, 8162,1.4549956321716309
16, 9215, 8254, 8203, 8237, 8276, 8163, 8328, 8188, 8213, 8243, 8171, 8187, 8187, 8152,1.4629957675933838
16, 9215, 8254, 8203, 8237, 8276, 8163, 8328, 8188, 8213, 8243, 8171, 8187, 8187, 8152,1.4629957675933838
17, 9207, 8257, 8195, 8240, 8272, 8161, 8326, 8167, 8208, 8237, 8162, 8160, 8157, 8129,1.4708120822906494
17, 9207, 8257, 8195, 8240, 8272, 8161, 8326, 8167, 8208, 8237, 8162, 8160, 8157, 8129,1.4708120822906494
18, 9229, 8267, 8209, 8243, 8261, 8194, 8338, 8188, 8207, 8246, 8179, 8201, 8177, 8142,1.478811264038086
18, 9229, 8267, 8209, 8243, 8261, 8194, 8338, 8188, 8207, 8246, 8179, 8201, 8177, 8142,1.478811264038086
19, 9215, 8270, 8219, 8255, 8288, 8172, 8364, 8143, 8221, 8269, 8160, 8177, 8161, 8163,1.4870200157165527
19, 9215, 8270, 8219, 8255, 8288, 8172, 8364, 8143, 8221, 8269, 8160, 8177, 8161, 8163,1.4870200157165527
20, 9212, 8242, 8197, 8232, 8255, 8185, 8316, 8172, 8170, 8225, 8175, 8192, 8175, 8143,1.4947121143341064
20, 9212, 8242, 8197, 8232, 8255, 8185, 8316, 8172, 8170, 8225, 8175, 8192, 8175, 8143,1.4947121143341064
21, 9187, 8225, 8181, 8203, 8216, 8168, 8282, 8178, 8140, 8190, 8167, 8181, 8168, 8095,1.502718210220337
21, 9187, 8225, 8181, 8203, 8216, 8168, 8282, 8178, 8140, 8190, 8167, 8181, 8168, 8095,1.502718210220337
22, 9188, 8252, 8207, 8234, 8243, 8163, 8324, 8155, 8200, 8226, 8164, 8163, 8154, 8114,1.5108115673065186
22, 9188, 8252, 8207, 8234, 8243, 8163, 8324, 8155, 8200, 8226, 8164, 8163, 8154, 8114,1.5108115673065186
23, 9208, 8251, 8218, 8242, 8249, 8191, 8338, 8187, 8220, 8230, 8186, 8206, 8184, 8150,1.5172994136810303
23, 9208, 8251, 8218, 8242, 8249, 8191, 8338, 8187, 8220, 8230, 8186, 8206, 8184, 8150,1.5172994136810303
24, 9173, 8215, 8188, 8200, 8236, 8159, 8325, 8163, 8200, 8225, 8163, 8170, 8165, 8131,1.5258128643035889
24, 9173, 8215, 8188, 8200, 8236, 8159, 8325, 8163, 8200, 8225, 8163, 8170, 8165, 8131,1.5258128643035889
25, 9184, 8225, 8192, 8187, 8215, 8176, 8310, 8192, 8189, 8234, 8173, 8184, 8181, 8127,1.5338654518127441
25, 9184, 8225, 8192, 8187, 8215, 8176, 8310, 8192, 8189, 8234, 8173, 8184, 8181, 8127,1.5338654518127441
26, 9199, 8262, 8223, 8217, 8224, 8180, 8327, 8182, 8212, 8253, 8176, 8200, 8182, 8149,1.541865348815918
26, 9199, 8262, 8223, 8217, 8224, 8180, 8327, 8182, 8212, 8253, 8176, 8200, 8182, 8149,1.541865348815918
27, 9185, 8254, 8224, 8223, 8254, 8169, 8339, 8144, 8216, 8260, 8171, 8179, 8161, 8162,1.5498945713043213
27, 9185, 8254, 8224, 8223, 8254, 8169, 8339, 8144, 8216, 8260, 8171, 8179, 8161, 8162,1.5498945713043213
28, 9184, 8233, 8210, 8201, 8240, 8185, 8308, 8195, 8175, 8229, 8188, 8211, 8194, 8160,1.5579028129577637
28, 9184, 8233, 8210, 8201, 8240, 8185, 8308, 8195, 8175, 8229, 8188, 8211, 8194, 8160,1.5579028129577637
29, 9173, 8255, 8214, 8225, 8243, 8155, 8312, 8171, 8180, 8238, 8164, 8179, 8172, 8150,1.565812110900879
29, 9173, 8255, 8214, 8225, 8243, 8155, 8312, 8171, 8180, 8238, 8164, 8179, 8172, 8150,1.565812110900879
30, 9201, 8283, 8239, 8259, 8265, 8184, 8332, 8177, 8203, 8255, 8179, 8193, 8174, 8167,1.5738117694854736
30, 9201, 8283, 8239, 8259, 8265, 8184, 8332, 8177, 8203, 8255, 8179, 8193, 8174, 8167,1.5738117694854736
31, 9213, 8290, 8251, 8259, 8284, 8191, 8359, 8182, 8221, 8274, 8191, 8213, 8180, 8189,1.5808117389678955
31, 9213, 8290, 8251, 8259, 8284, 8191, 8359, 8182, 8221, 8274, 8191, 8213, 8180, 8189,1.5808117389678955
32, 9196, 8292, 8246, 8260, 8291, 8168, 8382, 8148, 8235, 8292, 8176, 8185, 8157, 8194,1.5885868072509766
32, 9196, 8292, 8246, 8260, 8291, 8168, 8382, 8148, 8235, 8292, 8176, 8185, 8157, 8194,1.5885868072509766
33, 9200, 8283, 8250, 8250, 8265, 8188, 8353, 8184, 8207, 8255, 8192, 8216, 8188, 8190,1.596585988998413
33, 9200, 8283, 8250, 8250, 8265, 8188, 8353, 8184, 8207, 8255, 8192, 8216, 8188, 8190,1.596585988998413
34, 9187, 8293, 8259, 8257, 8284, 8160, 8354, 8166, 8225, 8262, 8184, 8199, 8183, 8200,1.6045997142791748
34, 9187, 8293, 8259, 8257, 8284, 8160, 8354, 8166, 8225, 8262, 8184, 8199, 8183, 8200,1.6045997142791748
35, 9209, 8308, 8269, 8272, 8303, 8170, 8366, 8180, 8252, 8302, 8194, 8213, 8187, 8223,1.612654209136963
35, 9209, 8308, 8269, 8272, 8303, 8170, 8366, 8180, 8252, 8302, 8194, 8213, 8187, 8223,1.612654209136963
36, 9204, 8289, 8258, 8255, 8277, 8178, 8349, 8186, 8240, 8309, 8184, 8213, 8177, 8200,1.6206750869750977
36, 9204, 8289, 8258, 8255, 8277, 8178, 8349, 8186, 8240, 8309, 8184, 8213, 8177, 8200,1.6206750869750977
37, 9164, 8269, 8242, 8240, 8258, 8161, 8355, 8142, 8251, 8304, 8163, 8170, 8141, 8177,1.6288127899169922
37, 9164, 8269, 8242, 8240, 8258, 8161, 8355, 8142, 8251, 8304, 8163, 8170, 8141, 8177,1.6288127899169922
38, 9174, 8270, 8236, 8230, 8247, 8188, 8351, 8182, 8243, 8267, 8193, 8217, 8180, 8190,1.6370630264282227
38, 9174, 8270, 8236, 8230, 8247, 8188, 8351, 8182, 8243, 8267, 8193, 8217, 8180, 8190,1.6370630264282227
39, 9161, 8277, 8234, 8233, 8269, 8158, 8355, 8168, 8237, 8266, 8181, 8201, 8181, 8192,1.6438119411468506
39, 9161, 8277, 8234, 8233, 8269, 8158, 8355, 8168, 8237, 8266, 8181, 8201, 8181, 8192,1.6438119411468506
40, 9165, 8270, 8244, 8239, 8282, 8167, 8357, 8172, 8242, 8283, 8180, 8192, 8167, 8192,1.652308702468872
40, 9165, 8270, 8244, 8239, 8282, 8167, 8357, 8172, 8242, 8283, 8180, 8192, 8167, 8192,1.652308702468872
41, 9177, 8259, 8247, 8221, 8263, 8190, 8356, 8183, 8243, 8266, 8184, 8212, 8165, 8188,1.6596248149871826
41, 9177, 8259, 8247, 8221, 8263, 8190, 8356, 8183, 8243, 8266, 8184, 8212, 8165, 8188,1.6596248149871826
42, 9160, 8263, 8243, 8213, 8262, 8165, 8384, 8140, 8259, 8282, 8168, 8185, 8151, 8195,1.6676251888275146
42, 9160, 8263, 8243, 8213, 8262, 8165, 8384, 8140, 8259, 8282, 8168, 8185, 8151, 8195,1.6676251888275146
43, 9170, 8266, 8245, 8213, 8258, 8186, 8388, 8187, 8245, 8294, 8192, 8224, 8190, 8216,1.6758058071136475
43, 9170, 8266, 8245, 8213, 8258, 8186, 8388, 8187, 8245, 8294, 8192, 8224, 8190, 8216,1.6761260032653809
44, 9152, 8266, 8247, 8214, 8268, 8169, 8386, 8181, 8246, 8292, 8177, 8201, 8171, 8204,1.6838974952697754
44, 9152, 8266, 8247, 8214, 8268, 8169, 8386, 8181, 8246, 8292, 8177, 8201, 8171, 8204,1.6838974952697754
45, 9151, 8269, 8246, 8206, 8260, 8176, 8376, 8162, 8255, 8275, 8172, 8182, 8152, 8187,1.691908597946167
45, 9151, 8269, 8246, 8206, 8260, 8176, 8376, 8162, 8255, 8275, 8172, 8182, 8152, 8187,1.691908597946167
46, 9160, 8268, 8238, 8199, 8227, 8189, 8365, 8180, 8234, 8254, 8184, 8214, 8176, 8191,1.6998164653778076
46, 9160, 8268, 8238, 8199, 8227, 8189, 8365, 8180, 8234, 8254, 8184, 8214, 8176, 8191,1.6998164653778076
47, 9135, 8273, 8235, 8220, 8245, 8157, 8375, 8157, 8242, 8261, 8167, 8188, 8166, 8201,1.7070693969726562
47, 9135, 8273, 8235, 8220, 8245, 8157, 8375, 8157, 8242, 8261, 8167, 8188, 8166, 8201,1.7070693969726562
48, 9142, 8263, 8236, 8220, 8256, 8187, 8346, 8200, 8236, 8243, 8183, 8207, 8185, 8198,1.7150704860687256
48, 9142, 8263, 8236, 8220, 8256, 8187, 8346, 8200, 8236, 8243, 8183, 8207, 8185, 8198,1.7150704860687256
49, 9129, 8257, 8233, 8206, 8252, 8177, 8344, 8175, 8239, 8255, 8171, 8189, 8166, 8183,1.723073959350586
49, 9129, 8257, 8233, 8206, 8252, 8177, 8344, 8175, 8239, 8255, 8171, 8189, 8166, 8183,1.723073959350586
50, 9128, 8277, 8242, 8216, 8253, 8170, 8363, 8149, 8248, 8287, 8171, 8176, 8156, 8200,1.730811595916748
50, 9128, 8277, 8242, 8216, 8253, 8170, 8363, 8149, 8248, 8287, 8171, 8176, 8156, 8200,1.730811595916748
51, 9132, 8267, 8239, 8206, 8243, 8192, 8335, 8191, 8225, 8269, 8186, 8209, 8188, 8202,1.7388129234313965
51, 9132, 8267, 8239, 8206, 8243, 8192, 8335, 8191, 8225, 8269, 8186, 8209, 8188, 8202,1.7388129234313965
52, 9098, 8242, 8215, 8190, 8252, 8165, 8331, 8159, 8220, 8260, 8165, 8166, 8164, 8173,1.7468047142028809
52, 9098, 8242, 8215, 8190, 8252, 8165, 8331, 8159, 8220, 8260, 8165, 8166, 8164, 8173,1.7468047142028809
53, 9107, 8240, 8207, 8177, 8245, 8184, 8324, 8183, 8202, 8247, 8181, 8177, 8177, 8161,1.7550842761993408
53, 9107, 8240, 8207, 8177, 8245, 8184, 8324, 8183, 8202, 8247, 8181, 8177, 8177, 8161,1.7550842761993408
54, 9104, 8241, 8207, 8179, 8230, 8172, 8306, 8186, 8183, 8240, 8172, 8174, 8170, 8149,1.763094425201416
54, 9104, 8241, 8207, 8179, 8230, 8172, 8306, 8186, 8183, 8240, 8172, 8174, 8170, 8149,1.763094425201416
55, 9102, 8249, 8217, 8197, 8227, 8161, 8300, 8162, 8190, 8236, 8161, 8166, 8148, 8148,1.7700941562652588
55, 9102, 8249, 8217, 8197, 8227, 8161, 8300, 8162, 8190, 8236, 8161, 8166, 8148, 8148,1.7710938453674316
56, 9124, 8259, 8228, 8185, 8219, 8187, 8292, 8182, 8177, 8213, 8182, 8207, 8174, 8163,1.7790942192077637
56, 9124, 8259, 8228, 8185, 8219, 8187, 8292, 8182, 8177, 8213, 8182, 8207, 8174, 8163,1.7790942192077637
57, 9105, 8256, 8232, 8195, 8237, 8162, 8311, 8145, 8181, 8231, 8173, 8175, 8162, 8181,1.7850940227508545
57, 9105, 8256, 8232, 8195, 8237, 8162, 8311, 8145, 8181, 8231, 8173, 8175, 8162, 8181,1.7860939502716064
58, 9110, 8249, 8234, 8210, 8239, 8179, 8296, 8176, 8170, 8238, 8187, 8190, 8182, 8195,1.7940952777862549
58, 9110, 8249, 8234, 8210, 8239, 8179, 8296, 8176, 8170, 8238, 8187, 8190, 8182, 8195,1.7940952777862549
59, 9104, 8257, 8228, 8187, 8230, 8175, 8278, 8178, 8160, 8240, 8172, 8191, 8177, 8169,1.801849126815796
59, 9104, 8257, 8228, 8187, 8230, 8175, 8278, 8178, 8160, 8240, 8172, 8191, 8177, 8169,1.801849126815796
60, 9091, 8264, 8234, 8183, 8235, 8165, 8303, 8139, 8179, 8269, 8157, 8164, 8154, 8160,1.8098530769348145
60, 9091, 8264, 8234, 8183, 8235, 8165, 8303, 8139, 8179, 8269, 8157, 8164, 8154, 8160,1.8098530769348145
61, 9104, 8256, 8246, 8202, 8242, 8188, 8319, 8185, 8188, 8273, 8183, 8207, 8192, 8189,1.8177986145019531
61, 9104, 8256, 8246, 8202, 8242, 8188, 8319, 8185, 8188, 8273, 8183, 8207, 8192, 8189,1.8177986145019531
62, 9081, 8258, 8232, 8217, 8277, 8158, 8329, 8171, 8213, 8285, 8167, 8182, 8176, 8194,1.8258941173553467
62, 9081, 8258, 8232, 8217, 8277, 8158, 8329, 8171, 8213, 8285, 8167, 8182, 8176, 8194,1.8258941173553467
63, 9081, 8259, 8217, 8195, 8256, 8175, 8311, 8177, 8209, 8273, 8169, 8178, 8167, 8171,1.8338944911956787
63, 9081, 8259, 8217, 8195, 8256, 8175, 8311, 8177, 8209, 8273, 8169, 8178, 8167, 8171,1.8338944911956787
64, 9073, 8246, 8212, 8170, 8212, 8180, 8300, 8174, 8192, 8247, 8163, 8178, 8167, 8147,1.8418114185333252
64, 9073, 8246, 8212, 8170, 8212, 8180, 8300, 8174, 8192, 8247, 8163, 8178, 8167, 8147,1.8418114185333252
65, 9059, 8247, 8213, 8189, 8227, 8170, 8317, 8147, 8216, 8267, 8153, 8158, 8152, 8155,1.848809003829956
65, 9059, 8247, 8213, 8189, 8227, 8170, 8317, 8147, 8216, 8267, 8153, 8158, 8152, 8155,1.848809003829956
66, 9078, 8248, 8218, 8207, 8227, 8198, 8307, 8184, 8211, 8269, 8182, 8198, 8175, 8166,1.856799840927124
66, 9078, 8248, 8218, 8207, 8227, 8198, 8307, 8184, 8211, 8269, 8182, 8198, 8175, 8166,1.856799840927124
67, 9059, 8242, 8217, 8207, 8227, 8160, 8306, 8148, 8200, 8259, 8165, 8166, 8156, 8157,1.8648114204406738
67, 9059, 8242, 8217, 8207, 8227, 8160, 8306, 8148, 8200, 8259, 8165, 8166, 8156, 8157,1.8648114204406738
68, 9060, 8240, 8224, 8195, 8220, 8165, 8296, 8157, 8176, 8231, 8169, 8168, 8170, 8166,1.8728103637695312
68, 9060, 8240, 8224, 8195, 8220, 8165, 8296, 8157, 8176, 8231, 8169, 8168, 8170, 8166,1.8728103637695312
69, 9060, 8242, 8228, 8188, 8205, 8178, 8279, 8188, 8139, 8205, 8178, 8195, 8188, 8167,1.8808012008666992
69, 9060, 8242, 8228, 8188, 8205, 8178, 8279, 8188, 8139, 8205, 8178, 8195, 8188, 8167,1.8808012008666992
70, 9043, 8245, 8236, 8196, 8220, 8155, 8287, 8156, 8144, 8223, 8163, 8164, 8157, 8159,1.8888020515441895
70, 9043, 8245, 8236, 8196, 8220, 8155, 8287, 8156, 8144, 8223, 8163, 8164, 8157, 8159,1.8888020515441895
71, 9067, 8257, 8252, 8205, 8223, 8184, 8281, 8177, 8160, 8234, 8183, 8191, 8178, 8170,1.8967688083648682
71, 9067, 8257, 8252, 8205, 8223, 8184, 8281, 8177, 8160, 8234, 8183, 8191, 8178, 8170,1.8967688083648682
72, 9058, 8274, 8246, 8215, 8228, 8169, 8302, 8152, 8185, 8267, 8173, 8181, 8168, 8184,1.9038059711456299
72, 9058, 8274, 8246, 8215, 8228, 8169, 8302, 8152, 8185, 8267, 8173, 8181, 8168, 8184,1.9038059711456299
73, 9054, 8267, 8231, 8194, 8230, 8173, 8309, 8164, 8182, 8276, 8175, 8188, 8173, 8196,1.9118061065673828
73, 9054, 8267, 8231, 8194, 8230, 8173, 8309, 8164, 8182, 8276, 8175, 8188, 8173, 8196,1.9118061065673828
74, 9047, 8247, 8224, 8162, 8224, 8179, 8283, 8196, 8165, 8240, 8184, 8201, 8189, 8186,1.9198205471038818
74, 9047, 8247, 8224, 8162, 8224, 8179, 8283, 8196, 8165, 8240, 8184, 8201, 8189, 8186,1.9198205471038818
75, 9028, 8244, 8221, 8183, 8221, 8154, 8282, 8153, 8176, 8239, 8160, 8157, 8149, 8164,1.9273529052734375
75, 9028, 8244, 8221, 8183, 8221, 8154, 8282, 8153, 8176, 8239, 8160, 8157, 8149, 8164,1.928351640701294
76, 9041, 8237, 8211, 8190, 8197, 8183, 8270, 8176, 8149, 8226, 8170, 8186, 8163, 8157,1.9358129501342773
76, 9041, 8237, 8211, 8190, 8197, 8183, 8270, 8176, 8149, 8226, 8170, 8186, 8163, 8157,1.9358129501342773
77, 9011, 8229, 8197, 8167, 8199, 8168, 8269, 8159, 8138, 8214, 8164, 8170, 8163, 8153,1.9438121318817139
77, 9011, 8229, 8197, 8167, 8199, 8168, 8269, 8159, 8138, 8214, 8164, 8170, 8163, 8153,1.9438121318817139
78, 9000, 8238, 8198, 8148, 8192, 8164, 8259, 8155, 8137, 8200, 8165, 8158, 8164, 8146,1.951852560043335
78, 9000, 8238, 8198, 8148, 8192, 8164, 8259, 8155, 8137, 8200, 8165, 8158, 8164, 8146,1.951852560043335
79, 9017, 8244, 8204, 8142, 8156, 8174, 8238, 8184, 8119, 8181, 8169, 8189, 8179, 8128,1.9598133563995361
79, 9017, 8244, 8204, 8142, 8156, 8174, 8238, 8184, 8119, 8181, 8169, 8189, 8179, 8128,1.9598133563995361
80, 9002, 8246, 8200, 8165, 8171, 8155, 8260, 8138, 8136, 8196, 8152, 8160, 8149, 8130,1.9678642749786377
80, 9002, 8246, 8200, 8165, 8171, 8155, 8260, 8138, 8136, 8196, 8152, 8160, 8149, 8130,1.9678642749786377
81, 9014, 8241, 8200, 8157, 8190, 8187, 8262, 8165, 8125, 8175, 8179, 8185, 8176, 8157,1.9750566482543945
81, 9014, 8241, 8200, 8157, 8190, 8187, 8262, 8165, 8125, 8175, 8179, 8185, 8176, 8157,1.9750566482543945
82, 9000, 8238, 8203, 8136, 8193, 8167, 8251, 8169, 8106, 8166, 8171, 8174, 8178, 8153,1.983003854751587
82, 9000, 8238, 8203, 8136, 8193, 8167, 8251, 8169, 8106, 8166, 8171, 8174, 8178, 8153,1.983003854751587
83, 8993, 8240, 8208, 8157, 8180, 8164, 8243, 8161, 8126, 8207, 8165, 8158, 8161, 8147,1.9908154010772705
83, 8993, 8240, 8208, 8157, 8180, 8164, 8243, 8161, 8126, 8207, 8165, 8158, 8161, 8147,1.9908154010772705
84, 9006, 8236, 8214, 8145, 8164, 8191, 8235, 8179, 8145, 8227, 8178, 8197, 8177, 8148,1.9990501403808594
84, 9006, 8236, 8214, 8145, 8164, 8191, 8235, 8179, 8145, 8227, 8178, 8197, 8177, 8148,1.9990501403808594
85, 8988, 8237, 8215, 8121, 8179, 8154, 8253, 8136, 8159, 8228, 8159, 8175, 8158, 8156,2.0070722103118896
85, 8988, 8237, 8215, 8121, 8179, 8154, 8253, 8136, 8159, 8228, 8159, 8175, 8158, 8156,2.0070722103118896
86, 8997, 8233, 8208, 8140, 8170, 8164, 8232, 8180, 8140, 8200, 8179, 8195, 8181, 8169,2.0140702724456787
86, 8997, 8233, 8208, 8140, 8170, 8164, 8232, 8180, 8140, 8200, 8179, 8195, 8181, 8169,2.0150704383850098
87, 8988, 8224, 8199, 8166, 8173, 8161, 8215, 8183, 8142, 8199, 8167, 8183, 8172, 8147,2.022576093673706
87, 8988, 8224, 8199, 8166, 8173, 8161, 8215, 8183, 8142, 8199, 8167, 8183, 8172, 8147,2.022576093673706
88, 8988, 8232, 8207, 8156, 8198, 8163, 8240, 8141, 8165, 8219, 8148, 8160, 8143, 8141,2.030578136444092
88, 8988, 8232, 8207, 8156, 8198, 8163, 8240, 8141, 8165, 8219, 8148, 8160, 8143, 8141,2.030578136444092
89, 9000, 8225, 8208, 8130, 8173, 8179, 8234, 8168, 8132, 8191, 8168, 8197, 8171, 8154,2.038576602935791
89, 9000, 8225, 8208, 8130, 8173, 8179, 8234, 8168, 8132, 8191, 8168, 8197, 8171, 8154,2.038576602935791
90, 8969, 8215, 8191, 8133, 8163, 8147, 8224, 8149, 8107, 8179, 8155, 8166, 8161, 8144,2.045579671859741
90, 8969, 8215, 8191, 8133, 8163, 8147, 8224, 8149, 8107, 8179, 8155, 8166, 8161, 8144,2.045579671859741
91, 8984, 8229, 8203, 8138, 8170, 8176, 8211, 8170, 8105, 8173, 8165, 8180, 8166, 8140,2.0535762310028076
91, 8984, 8229, 8203, 8138, 8170, 8176, 8211, 8170, 8105, 8173, 8165, 8180, 8166, 8140,2.0535762310028076
92, 8994, 8241, 8212, 8141, 8169, 8174, 8208, 8161, 8116, 8176, 8165, 8188, 8161, 8146,2.0615758895874023
92, 8994, 8241, 8212, 8141, 8169, 8174, 8208, 8161, 8116, 8176, 8165, 8188, 8161, 8146,2.0615758895874023
93, 8990, 8245, 8215, 8160, 8179, 8153, 8222, 8136, 8129, 8220, 8164, 8177, 8158, 8173,2.0695760250091553
93, 8990, 8245, 8215, 8160, 8179, 8153, 8222, 8136, 8129, 8220, 8164, 8177, 8158, 8173,2.0695760250091553
94, 9002, 8243, 8227, 8160, 8182, 8179, 8211, 8185, 8115, 8227, 8191, 8223, 8199, 8192,2.0775790214538574
94, 9002, 8243, 8227, 8160, 8182, 8179, 8211, 8185, 8115, 8227, 8191, 8223, 8199, 8192,2.0775790214538574
95, 8971, 8238, 8220, 8154, 8196, 8153, 8209, 8155, 8129, 8214, 8157, 8174, 8163, 8166,2.0855765342712402
95, 8971, 8238, 8220, 8154, 8196, 8153, 8209, 8155, 8129, 8214, 8157, 8174, 8163, 8166,2.0855765342712402
96, 8967, 8231, 8206, 8138, 8185, 8175, 8193, 8178, 8122, 8189, 8162, 8178, 8168, 8147,2.0935769081115723
96, 8967, 8231, 8206, 8138, 8185, 8175, 8193, 8178, 8122, 8189, 8162, 8178, 8168, 8147,2.0935769081115723
97, 8956, 8220, 8197, 8129, 8156, 8182, 8175, 8198, 8097, 8170, 8180, 8205, 8196, 8137,2.102047920227051
97, 8956, 8220, 8197, 8129, 8156, 8182, 8175, 8198, 8097, 8170, 8180, 8205, 8196, 8137,2.102047920227051
98, 8928, 8219, 8194, 8140, 8157, 8151, 8187, 8140, 8108, 8177, 8152, 8148, 8156, 8124,2.108811616897583
98, 8928, 8219, 8194, 8140, 8157, 8151, 8187, 8140, 8108, 8177, 8152, 8148, 8156, 8124,2.109182596206665
99, 8947, 8213, 8197, 8133, 8146, 8172, 8176, 8175, 8100, 8158, 8163, 8176, 8169, 8117,2.1161961555480957
99, 8947, 8213, 8197, 8133, 8146, 8172, 8176, 8175, 8100, 8158, 8163, 8176, 8169, 8117,2.117187976837158
100, 8943, 8215, 8205, 8134, 8148, 8154, 8183, 8172, 8116, 8167, 8163, 8179, 8171, 8116,2.124288320541382
100, 8943, 8215, 8205, 8134, 8148, 8154, 8183, 8172, 8116, 8167, 8163, 8179, 8171, 8116,2.1252822875976562
101, 8953, 8228, 8219, 8147, 8154, 8167, 8189, 8171, 8131, 8180, 8167, 8177, 8172, 8134,2.1323790550231934
101, 8953, 8228, 8219, 8147, 8154, 8167, 8189, 8171, 8131, 8180, 8167, 8177, 8172, 8134,2.133399248123169
102, 8956, 8224, 8218, 8142, 8152, 8178, 8177, 8178, 8116, 8177, 8162, 8186, 8174, 8134,2.140261173248291
102, 8956, 8224, 8218, 8142, 8152, 8178, 8177, 8178, 8116, 8177, 8162, 8186, 8174, 8134,2.1412484645843506
103, 8935, 8217, 8213, 8139, 8155, 8156, 8179, 8143, 8117, 8190, 8143, 8152, 8139, 8119,2.1482553482055664
103, 8935, 8217, 8213, 8139, 8155, 8156, 8179, 8143, 8117, 8190, 8143, 8152, 8139, 8119,2.1492505073547363
104, 8947, 8215, 8211, 8128, 8130, 8182, 8160, 8180, 8098, 8160, 8164, 8181, 8163, 8110,2.15677547454834
104, 8947, 8215, 8211, 8128, 8130, 8182, 8160, 8180, 8098, 8160, 8164, 8181, 8163, 8110,2.15677547454834
105, 8923, 8213, 8205, 8125, 8128, 8163, 8156, 8157, 8090, 8140, 8153, 8165, 8159, 8091,2.164811849594116
105, 8923, 8213, 8205, 8125, 8128, 8163, 8156, 8157, 8090, 8140, 8153, 8165, 8159, 8091,2.164811849594116
106, 8921, 8211, 8216, 8130, 8139, 8174, 8164, 8154, 8093, 8147, 8164, 8175, 8161, 8098,2.171812057495117
106, 8921, 8211, 8216, 8130, 8139, 8174, 8164, 8154, 8093, 8147, 8164, 8175, 8161, 8098,2.1724045276641846
107, 8927, 8213, 8220, 8124, 8142, 8183, 8170, 8183, 8084, 8139, 8177, 8200, 8181, 8116,2.179811716079712
107, 8927, 8213, 8220, 8124, 8142, 8183, 8170, 8183, 8084, 8139, 8177, 8200, 8181, 8116,2.179811716079712
108, 8896, 8213, 8200, 8127, 8157, 8155, 8177, 8165, 8085, 8131, 8156, 8157, 8168, 8105,2.1879630088806152
108, 8896, 8213, 8200, 8127, 8157, 8155, 8177, 8165, 8085, 8131, 8156, 8157, 8168, 8105,2.1879630088806152
109, 8896, 8198, 8191, 8124, 8132, 8187, 8145, 8200, 8068, 8109, 8167, 8183, 8188, 8079,2.19596529006958
109, 8896, 8198, 8191, 8124, 8132, 8187, 8145, 8200, 8068, 8109, 8167, 8183, 8188, 8079,2.19596529006958
110, 8883, 8200, 8190, 8117, 8122, 8174, 8153, 8159, 8090, 8140, 8154, 8169, 8162, 8073,2.203812837600708
110, 8883, 8200, 8190, 8117, 8122, 8174, 8153, 8159, 8090, 8140, 8154, 8169, 8162, 8073,2.203812837600708
111, 8889, 8213, 8190, 8114, 8139, 8168, 8178, 8156, 8105, 8179, 8171, 8173, 8170, 8106,2.212132692337036
111, 8889, 8213, 8190, 8114, 8139, 8168, 8178, 8156, 8105, 8179, 8171, 8173, 8170, 8106,2.212132692337036
112, 8897, 8208, 8187, 8107, 8136, 8170, 8162, 8202, 8075, 8157, 8187, 8196, 8201, 8114,2.219411849975586
112, 8897, 8208, 8187, 8107, 8136, 8170, 8162, 8202, 8075, 8157, 8187, 8196, 8201, 8114,2.220407009124756
113, 8882, 8213, 8187, 8120, 8138, 8149, 8159, 8162, 8091, 8151, 8157, 8150, 8163, 8098,2.227811336517334
113, 8882, 8213, 8187, 8120, 8138, 8149, 8159, 8162, 8091, 8151, 8157, 8150, 8163, 8098,2.227811336517334
114, 8899, 8228, 8199, 8125, 8140, 8184, 8158, 8175, 8109, 8148, 8169, 8180, 8175, 8107,2.2356319427490234
114, 8899, 8228, 8199, 8125, 8140, 8184, 8158, 8175, 8109, 8148, 8169, 8180, 8175, 8107,2.2356319427490234
115, 8885, 8237, 8206, 8122, 8164, 8163, 8182, 8158, 8109, 8155, 8164, 8173, 8168, 8118,2.2426321506500244
115, 8885, 8237, 8206, 8122, 8164, 8163, 8182, 8158, 8109, 8155, 8164, 8173, 8168, 8118,2.2426321506500244
116, 8884, 8244, 8209, 8130, 8174, 8155, 8198, 8158, 8103, 8161, 8165, 8166, 8162, 8121,2.250631332397461
116, 8884, 8244, 8209, 8130, 8174, 8155, 8198, 8158, 8103, 8161, 8165, 8166, 8162, 8121,2.250631332397461
117, 8888, 8239, 8204, 8134, 8153, 8177, 8167, 8192, 8086, 8133, 8170, 8187, 8180, 8095,2.2586615085601807
117, 8888, 8239, 8204, 8134, 8153, 8177, 8167, 8192, 8086, 8133, 8170, 8187, 8180, 8095,2.2586615085601807
118, 8860, 8237, 8202, 8139, 8161, 8158, 8164, 8144, 8102, 8135, 8146, 8138, 8142, 8077,2.266775131225586
118, 8860, 8237, 8202, 8139, 8161, 8158, 8164, 8144, 8102, 8135, 8146, 8138, 8142, 8077,2.266775131225586
119, 8888, 8247, 8214, 8133, 8152, 8186, 8170, 8167, 8108, 8148, 8177, 8179, 8158, 8106,2.27510142326355
119, 8888, 8247, 8214, 8133, 8152, 8186, 8170, 8167, 8108, 8148, 8177, 8179, 8158, 8106,2.27510142326355
120, 8896, 8247, 8214, 8135, 8159, 8169, 8185, 8179, 8108, 8176, 8179, 8195, 8174, 8133,2.2831573486328125
120, 8896, 8247, 8214, 8135, 8159, 8169, 8185, 8179, 8108, 8176, 8179, 8195, 8174, 8133,2.2831573486328125
121, 8896, 8242, 8214, 8149, 8180, 8157, 8195, 8171, 8116, 8193, 8165, 8168, 8173, 8143,2.290163993835449
121, 8896, 8242, 8214, 8149, 8180, 8157, 8195, 8171, 8116, 8193, 8165, 8168, 8173, 8143,2.2911558151245117
122, 8916, 8249, 8221, 8149, 8157, 8188, 8185, 8192, 8117, 8175, 8174, 8190, 8183, 8135,2.298811435699463
122, 8916, 8249, 8221, 8149, 8157, 8188, 8185, 8192, 8117, 8175, 8174, 8190, 8183, 8135,2.298811435699463
123, 8905, 8265, 8225, 8159, 8158, 8164, 8203, 8138, 8140, 8187, 8154, 8160, 8149, 8131,2.305393695831299
123, 8905, 8265, 8225, 8159, 8158, 8164, 8203, 8138, 8140, 8187, 8154, 8160, 8149, 8131,2.305393695831299
124, 8922, 8257, 8226, 8156, 8178, 8180, 8190, 8164, 8120, 8166, 8173, 8186, 8179, 8153,2.3138113021850586
124, 8922, 8257, 8226, 8156, 8178, 8180, 8190, 8164, 8120, 8166, 8173, 8186, 8179, 8153,2.3138113021850586
125, 8918, 8241, 8221, 8147, 8190, 8173, 8172, 8182, 8100, 8144, 8177, 8188, 8194, 8144,2.321453332901001
125, 8918, 8241, 8221, 8147, 8190, 8173, 8172, 8182, 8100, 8144, 8177, 8188, 8194, 8144,2.3224666118621826
126, 8906, 8252, 8223, 8163, 8189, 8163, 8187, 8157, 8132, 8176, 8169, 8161, 8163, 8141,2.329735279083252
126, 8906, 8252, 8223, 8163, 8189, 8163, 8187, 8157, 8132, 8176, 8169, 8161, 8163, 8141,2.329735279083252
127, 8919, 8263, 8228, 8161, 8163, 8192, 8177, 8186, 8130, 8177, 8188, 8202, 8180, 8161,2.3377320766448975
127, 8919, 8263, 8228, 8161, 8163, 8192, 8177, 8186, 8130, 8177, 8188, 8202, 8180, 8161,2.3377320766448975
240, 8889, 8250, 8221, 8148, 8167, 8161, 8169, 8155, 8122, 8181, 8169, 8167, 8161, 8149,2.3458120822906494
240, 8889, 8250, 8221, 8148, 8167, 8161, 8169, 8155, 8122, 8181, 8169, 8167, 8161, 8149,2.3458120822906494
0, 8886, 8229, 8219, 8145, 8163, 8173, 8149, 8180, 8113, 8186, 8176, 8165, 8169, 8125,2.3538119792938232
0, 8886, 8229, 8219, 8145, 8163, 8173, 8149, 8180, 8113, 8186, 8176, 8165, 8169, 8125,2.3538119792938232
1, 8887, 8234, 8219, 8150, 8148, 8180, 8149, 8189, 8135, 8198, 8172, 8177, 8174, 8117,2.361757278442383
1, 8887, 8234, 8219, 8150, 8148, 8180, 8149, 8189, 8135, 8198, 8172, 8177, 8174, 8117,2.361757278442383
2, 8869, 8245, 8219, 8154, 8157, 8163, 8187, 8138, 8181, 8225, 8157, 8151, 8150, 8130,2.3696863651275635
2, 8869, 8245, 8219, 8154, 8157, 8163, 8187, 8138, 8181, 8225, 8157, 8151, 8150, 8130,2.3696863651275635
3, 8874, 8226, 8218, 8137, 8150, 8185, 8172, 8178, 8150, 8195, 8185, 8189, 8184, 8139,2.3766937255859375
3, 8874, 8226, 8218, 8137, 8150, 8185, 8172, 8178, 8150, 8195, 8185, 8189, 8184, 8139,2.3766937255859375
4, 8865, 8226, 8221, 8151, 8159, 8157, 8149, 8166, 8119, 8169, 8168, 8165, 8172, 8125,2.3851189613342285
4, 8865, 8226, 8221, 8151, 8159, 8157, 8149, 8166, 8119, 8169, 8168, 8165, 8172, 8125,2.3851189613342285
5, 8885, 8252, 8243, 8180, 8170, 8171, 8149, 8166, 8131, 8174, 8168, 8168, 8167, 8134,2.393120050430298
5, 8885, 8252, 8243, 8180, 8170, 8171, 8149, 8166, 8131, 8174, 8168, 8168, 8167, 8134,2.393120050430298
6, 8890, 8255, 8248, 8176, 8167, 8181, 8173, 8173, 8150, 8186, 8180, 8196, 8180, 8153,2.4008126258850098
6, 8890, 8255, 8248, 8176, 8167, 8181, 8173, 8173, 8150, 8186, 8180, 8196, 8180, 8153,2.4008126258850098
7, 8870, 8250, 8238, 8173, 8180, 8159, 8202, 8146, 8154, 8194, 8170, 8172, 8163, 8163,2.408811330795288
7, 8870, 8250, 8238, 8173, 8180, 8159, 8202, 8146, 8154, 8194, 8170, 8172, 8163, 8163,2.408811330795288
8, 8889, 8254, 8245, 8180, 8182, 8190, 8186, 8193, 8130, 8184, 8186, 8202, 8185, 8161,2.4173362255096436
8, 8889, 8254, 8245, 8180, 8182, 8190, 8186, 8193, 8130, 8184, 8186, 8202, 8185, 8161,2.4173362255096436
9, 8883, 8267, 8250, 8198, 8202, 8174, 8201, 8167, 8166, 8225, 8173, 8185, 8167, 8154,2.42480731010437
9, 8883, 8267, 8250, 8198, 8202, 8174, 8201, 8167, 8166, 8225, 8173, 8185, 8167, 8154,2.42480731010437
10, 8888, 8273, 8251, 8200, 8208, 8179, 8225, 8158, 8203, 8250, 8178, 8188, 8169, 8173,2.4313488006591797
10, 8888, 8273, 8251, 8200, 8208, 8179, 8225, 8158, 8203, 8250, 8178, 8188, 8169, 8173,2.432356834411621
11, 8879, 8252, 8238, 8171, 8178, 8183, 8194, 8189, 8164, 8202, 8179, 8205, 8190, 8166,2.439364433288574
11, 8879, 8252, 8238, 8171, 8178, 8183, 8194, 8189, 8164, 8202, 8179, 8205, 8190, 8166,2.4403586387634277
12, 8847, 8234, 8223, 8165, 8178, 8161, 8164, 8172, 8140, 8169, 8153, 8170, 8168, 8142,2.4478116035461426
12, 8847, 8234, 8223, 8165, 8178, 8161, 8164, 8172, 8140, 8169, 8153, 8170, 8168, 8142,2.4478116035461426
13, 8869, 8245, 8236, 8177, 8180, 8198, 8159, 8201, 8152, 8166, 8174, 8197, 8185, 8146,2.455812454223633
13, 8869, 8245, 8236, 8177, 8180, 8198, 8159, 8201, 8152, 8166, 8174, 8197, 8185, 8146,2.455812454223633
14, 8871, 8269, 8248, 8194, 8184, 8183, 8197, 8161, 8183, 8202, 8174, 8179, 8163, 8156,2.4635725021362305
14, 8871, 8269, 8248, 8194, 8184, 8183, 8197, 8161, 8183, 8202, 8174, 8179, 8163, 8156,2.4635725021362305
15, 8870, 8270, 8247, 8199, 8192, 8180, 8205, 8160, 8167, 8201, 8185, 8186, 8171, 8170,2.4718661308288574
15, 8870, 8270, 8247, 8199, 8192, 8180, 8205, 8160, 8167, 8201, 8185, 8186, 8171, 8170,2.4718661308288574
16, 8871, 8246, 8245, 8180, 8191, 8184, 8160, 8201, 8126, 8154, 8185, 8209, 8199, 8158,2.479862928390503
16, 8871, 8246, 8245, 8180, 8191, 8184, 8160, 8201, 8126, 8154, 8185, 8209, 8199, 8158,2.479862928390503
17, 8856, 8248, 8247, 8192, 8191, 8163, 8157, 8160, 8163, 8193, 8155, 8160, 8160, 8136,2.487811803817749
17, 8856, 8248, 8247, 8192, 8191, 8163, 8157, 8160, 8163, 8193, 8155, 8160, 8160, 8136,2.487811803817749
18, 8885, 8264, 8256, 8202, 8178, 8202, 8169, 8192, 8191, 8240, 8190, 8205, 8186, 8151,2.494635581970215
18, 8885, 8264, 8256, 8202, 8178, 8202, 8169, 8192, 8191, 8240, 8190, 8205, 8186, 8151,2.494635581970215
19, 8865, 8259, 8255, 8183, 8185, 8178, 8173, 8190, 8173, 8225, 8189, 8204, 8190, 8161,2.5024709701538086
19, 8865, 8259, 8255, 8183, 8185, 8178, 8173, 8190, 8173, 8225, 8189, 8204, 8190, 8161,2.5024709701538086
20, 8838, 8243, 8253, 8180, 8180, 8158, 8148, 8165, 8150, 8194, 8171, 8169, 8163, 8152,2.5104854106903076
20, 8838, 8243, 8253, 8180, 8180, 8158, 8148, 8165, 8150, 8194, 8171, 8169, 8163, 8152,2.5104854106903076
21, 8856, 8236, 8260, 8188, 8157, 8190, 8128, 8190, 8146, 8189, 8190, 8208, 8181, 8149,2.5188117027282715
21, 8856, 8236, 8260, 8188, 8157, 8190, 8128, 8190, 8146, 8189, 8190, 8208, 8181, 8149,2.5188117027282715
22, 8854, 8252, 8272, 8202, 8195, 8169, 8171, 8150, 8182, 8221, 8186, 8193, 8170, 8170,2.526775360107422
22, 8854, 8252, 8272, 8202, 8195, 8169, 8171, 8150, 8182, 8221, 8186, 8193, 8170, 8170,2.526775360107422
23, 8865, 8260, 8283, 8210, 8206, 8179, 8169, 8180, 8168, 8208, 8207, 8210, 8197, 8196,2.5352628231048584
23, 8865, 8260, 8283, 8210, 8206, 8179, 8169, 8180, 8168, 8208, 8207, 8210, 8197, 8196,2.5352628231048584
24, 8844, 8252, 8277, 8211, 8176, 8170, 8141, 8197, 8149, 8194, 8193, 8201, 8196, 8175,2.5427780151367188
24, 8844, 8252, 8277, 8211, 8176, 8170, 8141, 8197, 8149, 8194, 8193, 8201, 8196, 8175,2.5427780151367188
25, 8837, 8260, 8280, 8221, 8173, 8165, 8157, 8159, 8186, 8234, 8168, 8166, 8153, 8156,2.550785779953003
25, 8837, 8260, 8280, 8221, 8173, 8165, 8157, 8159, 8186, 8234, 8168, 8166, 8153, 8156,2.550785779953003
26, 8871, 8276, 8297, 8228, 8179, 8198, 8150, 8182, 8172, 8231, 8203, 8223, 8185, 8179,2.5588133335113525
26, 8871, 8276, 8297, 8228, 8179, 8198, 8150, 8182, 8172, 8231, 8203, 8223, 8185, 8179,2.5588133335113525
27, 8843, 8278, 8296, 8239, 8196, 8158, 8138, 8151, 8145, 8204, 8185, 8187, 8174, 8187,2.5658116340637207
27, 8843, 8278, 8296, 8239, 8196, 8158, 8138, 8151, 8145, 8204, 8185, 8187, 8174, 8187,2.5658116340637207
28, 8833, 8261, 8281, 8227, 8165, 8174, 8105, 8180, 8115, 8160, 8182, 8173, 8171, 8161,2.5738329887390137
28, 8833, 8261, 8281, 8227, 8165, 8174, 8105, 8180, 8115, 8160, 8182, 8173, 8171, 8161,2.5738329887390137
29, 8833, 8245, 8266, 8213, 8136, 8196, 8080, 8198, 8074, 8127, 8201, 8215, 8190, 8129,2.58183217048645
29, 8833, 8245, 8266, 8213, 8136, 8196, 8080, 8198, 8074, 8127, 8201, 8215, 8190, 8129,2.58183217048645
30, 8824, 8256, 8268, 8232, 8180, 8162, 8115, 8140, 8099, 8152, 8180, 8181, 8161, 8144,2.5898122787475586
30, 8824, 8256, 8268, 8232, 8180, 8162, 8115, 8140, 8099, 8152, 8180, 8181, 8161, 8144,2.5898122787475586
31, 8843, 8258, 8280, 8222, 8182, 8178, 8119, 8195, 8128, 8152, 8193, 8205, 8187, 8172,2.598010540008545
31, 8843, 8258, 8280, 8222, 8182, 8178, 8119, 8195, 8128, 8152, 8193, 8205, 8187, 8172,2.598010540008545
32, 8819, 8238, 8264, 8205, 8164, 8168, 8098, 8198, 8126, 8153, 8181, 8190, 8178, 8149,2.6060099601745605
32, 8819, 8238, 8264, 8205, 8164, 8168, 8098, 8198, 8126, 8153, 8181, 8190, 8178, 8149,2.6060099601745605
33, 8812, 8235, 8254, 8210, 8168, 8187, 8085, 8175, 8116, 8172, 8173, 8174, 8163, 8132,2.613811492919922
33, 8812, 8235, 8254, 8210, 8168, 8187, 8085, 8175, 8116, 8172, 8173, 8174, 8163, 8132,2.613811492919922
34, 8806, 8238, 8260, 8203, 8164, 8193, 8101, 8172, 8119, 8182, 8182, 8192, 8176, 8137,2.621812582015991
34, 8806, 8238, 8260, 8203, 8164, 8193, 8101, 8172, 8119, 8182, 8182, 8192, 8176, 8137,2.621812582015991
35, 8782, 8223, 8241, 8186, 8162, 8159, 8129, 8142, 8118, 8177, 8167, 8168, 8157, 8138,2.6288015842437744
35, 8782, 8223, 8241, 8186, 8162, 8159, 8129, 8142, 8118, 8177, 8167, 8168, 8157, 8138,2.6288015842437744
36, 8797, 8215, 8226, 8177, 8164, 8187, 8108, 8196, 8083, 8126, 8181, 8196, 8188, 8129,2.6367998123168945
36, 8797, 8215, 8226, 8177, 8164, 8187, 8108, 8196, 8083, 8126, 8181, 8196, 8188, 8129,2.6367998123168945
37, 8775, 8231, 8231, 8184, 8184, 8168, 8108, 8184, 8091, 8131, 8161, 8161, 8174, 8111,2.6451447010040283
37, 8775, 8231, 8231, 8184, 8184, 8168, 8108, 8184, 8091, 8131, 8161, 8161, 8174, 8111,2.6451447010040283
38, 8768, 8229, 8223, 8178, 8186, 8166, 8112, 8166, 8103, 8146, 8154, 8145, 8154, 8100,2.6530661582946777
38, 8768, 8229, 8223, 8178, 8186, 8166, 8112, 8166, 8103, 8146, 8154, 8145, 8154, 8100,2.6530661582946777
39, 8775, 8207, 8206, 8160, 8175, 8185, 8095, 8178, 8081, 8118, 8166, 8176, 8176, 8086,2.6608071327209473
39, 8775, 8207, 8206, 8160, 8175, 8185, 8095, 8178, 8081, 8118, 8166, 8176, 8176, 8086,2.6608071327209473
40, 8757, 8216, 8217, 8169, 8196, 8166, 8119, 8144, 8096, 8150, 8149, 8141, 8162, 8104,2.6688194274902344
40, 8757, 8216, 8217, 8169, 8196, 8166, 8119, 8144, 8096, 8150, 8149, 8141, 8162, 8104,2.6688194274902344
41, 8771, 8227, 8233, 8176, 8192, 8192, 8115, 8192, 8090, 8164, 8176, 8174, 8186, 8122,2.6768250465393066
41, 8771, 8227, 8233, 8176, 8192, 8192, 8115, 8192, 8090, 8164, 8176, 8174, 8186, 8122,2.6768250465393066
42, 8758, 8214, 8213, 8166, 8180, 8176, 8094, 8178, 8085, 8135, 8163, 8168, 8168, 8083,2.6848063468933105
42, 8758, 8214, 8213, 8166, 8180, 8176, 8094, 8178, 8085, 8135, 8163, 8168, 8168, 8083,2.6848063468933105
43, 8760, 8215, 8202, 8165, 8184, 8172, 8101, 8157, 8100, 8137, 8159, 8153, 8157, 8085,2.6930789947509766
43, 8760, 8215, 8202, 8165, 8184, 8172, 8101, 8157, 8100, 8137, 8159, 8153, 8157, 8085,2.6930789947509766
44, 8779, 8225, 8218, 8169, 8175, 8186, 8122, 8203, 8103, 8156, 8189, 8201, 8200, 8127,2.7000858783721924
44, 8779, 8225, 8218, 8169, 8175, 8186, 8122, 8203, 8103, 8156, 8189, 8201, 8200, 8127,2.7000858783721924
45, 8753, 8227, 8219, 8177, 8182, 8161, 8136, 8173, 8117, 8171, 8154, 8156, 8166, 8113,2.7081003189086914
45, 8753, 8227, 8219, 8177, 8182, 8161, 8136, 8173, 8117, 8171, 8154, 8156, 8166, 8113,2.7081003189086914
46, 8751, 8221, 8209, 8162, 8206, 8193, 8107, 8181, 8097, 8156, 8160, 8163, 8165, 8085,2.716104507446289
46, 8751, 8221, 8209, 8162, 8206, 8193, 8107, 8181, 8097, 8156, 8160, 8163, 8165, 8085,2.716104507446289
47, 8741, 8221, 8205, 8149, 8229, 8179, 8112, 8163, 8099, 8168, 8170, 8175, 8173, 8098,2.724128484725952
47, 8741, 8221, 8205, 8149, 8229, 8179, 8112, 8163, 8099, 8168, 8170, 8175, 8173, 8098,2.724128484725952
48, 8743, 8233, 8210, 8161, 8202, 8166, 8141, 8162, 8134, 8185, 8162, 8162, 8169, 8125,2.731813669204712
48, 8743, 8233, 8210, 8161, 8202, 8166, 8141, 8162, 8134, 8185, 8162, 8162, 8169, 8125,2.731813669204712
49, 8762, 8242, 8218, 8169, 8154, 8192, 8124, 8208, 8135, 8165, 8179, 8194, 8196, 8117,2.739837408065796
49, 8762, 8242, 8218, 8169, 8154, 8192, 8124, 8208, 8135, 8165, 8179, 8194, 8196, 8117,2.739837408065796
50, 8740, 8243, 8208, 8172, 8189, 8162, 8136, 8146, 8142, 8173, 8156, 8152, 8158, 8097,2.747835397720337
50, 8740, 8243, 8208, 8172, 8189, 8162, 8136, 8146, 8142, 8173, 8156, 8152, 8158, 8097,2.747835397720337
51, 8741, 8231, 8207, 8158, 8204, 8186, 8132, 8174, 8128, 8152, 8173, 8172, 8182, 8105,2.755812406539917
51, 8741, 8231, 8207, 8158, 8204, 8186, 8132, 8174, 8128, 8152, 8173, 8172, 8182, 8105,2.755812406539917
52, 8722, 8223, 8210, 8149, 8181, 8183, 8114, 8202, 8124, 8138, 8169, 8167, 8197, 8093,2.7628116607666016
52, 8722, 8223, 8210, 8149, 8181, 8183, 8114, 8202, 8124, 8138, 8169, 8167, 8197, 8093,2.7628116607666016
53, 8711, 8224, 8205, 8156, 8181, 8177, 8121, 8167, 8148, 8166, 8144, 8125, 8150, 8076,2.7708117961883545
53, 8711, 8224, 8205, 8156, 8181, 8177, 8121, 8167, 8148, 8166, 8144, 8125, 8150, 8076,2.7715048789978027
54, 8722, 8202, 8195, 8134, 8179, 8206, 8107, 8183, 8121, 8149, 8169, 8172, 8172, 8071,2.779026746749878
54, 8722, 8202, 8195, 8134, 8179, 8206, 8107, 8183, 8121, 8149, 8169, 8172, 8172, 8071,2.779026746749878
55, 8685, 8188, 8186, 8116, 8189, 8165, 8102, 8148, 8102, 8149, 8152, 8137, 8168, 8057,2.7870280742645264
55, 8685, 8188, 8186, 8116, 8189, 8165, 8102, 8148, 8102, 8149, 8152, 8137, 8168, 8057,2.7870280742645264
56, 8695, 8193, 8196, 8116, 8151, 8187, 8083, 8191, 8089, 8140, 8160, 8147, 8191, 8052,2.79463529586792
56, 8695, 8193, 8196, 8116, 8151, 8187, 8083, 8191, 8089, 8140, 8160, 8147, 8191, 8052,2.79463529586792
57, 8695, 8196, 8196, 8119, 8122, 8193, 8077, 8192, 8094, 8115, 8156, 8152, 8180, 8042,2.80281138420105
57, 8695, 8196, 8196, 8119, 8122, 8193, 8077, 8192, 8094, 8115, 8156, 8152, 8180, 8042,2.80281138420105
58, 8688, 8206, 8194, 8128, 8162, 8179, 8111, 8145, 8125, 8123, 8147, 8126, 8145, 8059,2.8108325004577637
58, 8688, 8206, 8194, 8128, 8162, 8179, 8111, 8145, 8125, 8123, 8147, 8126, 8145, 8059,2.8108325004577637
59, 8706, 8205, 8202, 8119, 8162, 8207, 8105, 8208, 8094, 8099, 8186, 8189, 8203, 8076,2.8188321590423584
59, 8706, 8205, 8202, 8119, 8162, 8207, 8105, 8208, 8094, 8099, 8186, 8189, 8203, 8076,2.8188321590423584
60, 8670, 8189, 8190, 8110, 8145, 8177, 8083, 8175, 8060, 8077, 8147, 8134, 8169, 8030,2.8253393173217773
60, 8670, 8189, 8190, 8110, 8145, 8177, 8083, 8175, 8060, 8077, 8147, 8134, 8169, 8030,2.8253393173217773
61, 8680, 8183, 8187, 8102, 8125, 8203, 8052, 8173, 8048, 8058, 8150, 8131, 8158, 8007,2.833343267440796
61, 8680, 8183, 8187, 8102, 8125, 8203, 8052, 8173, 8048, 8058, 8150, 8131, 8158, 8007,2.833343267440796
62, 8686, 8184, 8196, 8087, 8127, 8197, 8058, 8184, 8045, 8051, 8174, 8171, 8189, 8028,2.8418128490448
62, 8686, 8184, 8196, 8087, 8127, 8197, 8058, 8184, 8045, 8051, 8174, 8171, 8189, 8028,2.8418128490448
63, 8665, 8188, 8203, 8098, 8162, 8165, 8073, 8160, 8048, 8056, 8154, 8132, 8171, 8040,2.8498127460479736
63, 8665, 8188, 8203, 8098, 8162, 8165, 8073, 8160, 8048, 8056, 8154, 8132, 8171, 8040,2.8498127460479736
64, 8690, 8198, 8215, 8111, 8144, 8211, 8040, 8219, 8031, 8046, 8176, 8171, 8203, 8034,2.857556104660034
64, 8690, 8198, 8215, 8111, 8144, 8211, 8040, 8219, 8031, 8046, 8176, 8171, 8203, 8034,2.857556104660034
65, 8685, 8215, 8229, 8123, 8132, 8192, 8062, 8167, 8060, 8106, 8159, 8149, 8178, 8040,2.865554094314575
65, 8685, 8215, 8229, 8123, 8132, 8192, 8062, 8167, 8060, 8106, 8159, 8149, 8178, 8040,2.865554094314575
66, 8696, 8211, 8261, 8119, 8152, 8199, 8082, 8164, 8068, 8125, 8169, 8161, 8184, 8071,2.873812198638916
66, 8696, 8211, 8261, 8119, 8152, 8199, 8082, 8164, 8068, 8125, 8169, 8161, 8184, 8071,2.873812198638916
67, 8687, 8204, 8283, 8112, 8153, 8195, 8068, 8200, 8054, 8089, 8178, 8176, 8204, 8071,2.881812334060669
67, 8687, 8204, 8283, 8112, 8153, 8195, 8068, 8200, 8054, 8089, 8178, 8176, 8204, 8071,2.881812334060669
68, 8667, 8217, 8287, 8131, 8151, 8166, 8077, 8163, 8084, 8117, 8155, 8116, 8167, 8063,2.889568328857422
68, 8667, 8217, 8287, 8131, 8151, 8166, 8077, 8163, 8084, 8117, 8155, 8116, 8167, 8063,2.889568328857422
69, 8698, 8212, 8300, 8120, 8167, 8204, 8058, 8210, 8073, 8105, 8191, 8165, 8205, 8068,2.8965697288513184
69, 8698, 8212, 8300, 8120, 8167, 8204, 8058, 8210, 8073, 8105, 8191, 8165, 8205, 8068,2.8965697288513184
70, 8677, 8209, 8306, 8114, 8190, 8172, 8073, 8181, 8088, 8098, 8164, 8139, 8181, 8049,2.9048900604248047
70, 8677, 8209, 8306, 8114, 8190, 8172, 8073, 8181, 8088, 8098, 8164, 8139, 8181, 8049,2.9048900604248047
71, 8676, 8221, 8314, 8131, 8149, 8183, 8097, 8171, 8115, 8124, 8159, 8128, 8167, 8045,2.9127583503723145
71, 8676, 8221, 8314, 8131, 8149, 8183, 8097, 8171, 8115, 8124, 8159, 8128, 8167, 8045,2.9127583503723145
72, 8683, 8217, 8319, 8128, 8142, 8197, 8085, 8188, 8087, 8120, 8181, 8163, 8194, 8056,2.9197499752044678
72, 8683, 8217, 8319, 8128, 8142, 8197, 8085, 8188, 8087, 8120, 8181, 8163, 8194, 8056,2.9197499752044678
73, 8666, 8227, 8326, 8142, 8198, 8162, 8094, 8153, 8089, 8127, 8157, 8122, 8159, 8067,2.928645372390747
73, 8666, 8227, 8326, 8142, 8198, 8162, 8094, 8153, 8089, 8127, 8157, 8122, 8159, 8067,2.928645372390747
74, 8694, 8248, 8346, 8156, 8160, 8199, 8096, 8208, 8107, 8143, 8189, 8174, 8191, 8081,2.9368083477020264
74, 8694, 8248, 8346, 8156, 8160, 8199, 8096, 8208, 8107, 8143, 8189, 8174, 8191, 8081,2.9368083477020264
75, 8676, 8236, 8337, 8141, 8130, 8175, 8110, 8163, 8133, 8173, 8170, 8148, 8167, 8064,2.9438064098358154
75, 8676, 8236, 8337, 8141, 8130, 8175, 8110, 8163, 8133, 8173, 8170, 8148, 8167, 8064,2.9438064098358154
76, 8668, 8226, 8319, 8129, 8171, 8177, 8107, 8150, 8127, 8162, 8165, 8133, 8155, 8068,2.9518134593963623
76, 8668, 8226, 8319, 8129, 8171, 8177, 8107, 8150, 8127, 8162, 8165, 8133, 8155, 8068,2.9518134593963623
77, 8682, 8234, 8329, 8145, 8189, 8194, 8091, 8200, 8103, 8143, 8185, 8189, 8199, 8092,2.959843397140503
77, 8682, 8234, 8329, 8145, 8189, 8194, 8091, 8200, 8103, 8143, 8185, 8189, 8199, 8092,2.959843397140503
78, 8670, 8236, 8344, 8155, 8191, 8157, 8121, 8157, 8138, 8178, 8160, 8137, 8168, 8104,2.9678127765655518
78, 8670, 8236, 8344, 8155, 8191, 8157, 8121, 8157, 8138, 8178, 8160, 8137, 8168, 8104,2.9678127765655518
79, 8691, 8219, 8344, 8131, 8161, 8195, 8103, 8203, 8130, 8152, 8191, 8165, 8193, 8101,2.9758362770080566
79, 8691, 8219, 8344, 8131, 8161, 8195, 8103, 8203, 8130, 8152, 8191, 8165, 8193, 8101,2.9758362770080566
80, 8666, 8216, 8319, 8141, 8161, 8182, 8074, 8180, 8119, 8133, 8163, 8146, 8165, 8069,2.9838333129882812
80, 8666, 8216, 8319, 8141, 8161, 8182, 8074, 8180, 8119, 8133, 8163, 8146, 8165, 8069,2.9838333129882812
81, 8676, 8234, 8324, 8178, 8177, 8182, 8093, 8145, 8140, 8166, 8154, 8127, 8139, 8076,2.9920990467071533
81, 8676, 8234, 8324, 8178, 8177, 8182, 8093, 8145, 8140, 8166, 8154, 8127, 8139, 8076,2.9920990467071533
82, 8709, 8235, 8347, 8164, 8154, 8202, 8110, 8192, 8131, 8158, 8199, 8194, 8204, 8110,2.999812364578247
82, 8709, 8235, 8347, 8164, 8154, 8202, 8110, 8192, 8131, 8158, 8199, 8194, 8204, 8110,2.999812364578247
83, 8671, 8224, 8339, 8151, 8175, 8154, 8111, 8165, 8139, 8147, 8164, 8143, 8178, 8100,3.0074846744537354
83, 8671, 8224, 8339, 8151, 8175, 8154, 8111, 8165, 8139, 8147, 8164, 8143, 8178, 8100,3.0074846744537354
84, 8681, 8222, 8338, 8153, 8172, 8192, 8068, 8207, 8118, 8128, 8178, 8168, 8187, 8078,3.0154855251312256
84, 8681, 8222, 8338, 8153, 8172, 8192, 8068, 8207, 8118, 8128, 8178, 8168, 8187, 8078,3.0154855251312256
85, 8680, 8240, 8344, 8157, 8152, 8190, 8077, 8181, 8118, 8146, 8181, 8172, 8177, 8074,3.023087978363037
85, 8680, 8240, 8344, 8157, 8152, 8190, 8077, 8181, 8118, 8146, 8181, 8172, 8177, 8074,3.023087978363037
86, 8666, 8249, 8346, 8166, 8172, 8177, 8105, 8142, 8147, 8173, 8175, 8144, 8163, 8102,3.030801296234131
86, 8666, 8249, 8346, 8166, 8172, 8177, 8105, 8142, 8147, 8173, 8175, 8144, 8163, 8102,3.030801296234131
87, 8676, 8235, 8353, 8159, 8183, 8200, 8074, 8210, 8120, 8142, 8204, 8203, 8224, 8108,3.0387983322143555
87, 8676, 8235, 8353, 8159, 8183, 8200, 8074, 8210, 8120, 8142, 8204, 8203, 8224, 8108,3.0387983322143555
88, 8671, 8251, 8360, 8178, 8194, 8164, 8079, 8177, 8125, 8162, 8171, 8155, 8184, 8091,3.046778440475464
88, 8671, 8251, 8360, 8178, 8194, 8164, 8079, 8177, 8125, 8162, 8171, 8155, 8184, 8091,3.046778440475464
89, 8712, 8272, 8372, 8201, 8175, 8206, 8086, 8197, 8154, 8187, 8196, 8190, 8189, 8111,3.0548126697540283
89, 8712, 8272, 8372, 8201, 8175, 8206, 8086, 8197, 8154, 8187, 8196, 8190, 8189, 8111,3.0548126697540283
90, 8695, 8248, 8354, 8179, 8160, 8201, 8086, 8194, 8165, 8172, 8195, 8204, 8194, 8113,3.0629425048828125
90, 8695, 8248, 8354, 8179, 8160, 8201, 8086, 8194, 8165, 8172, 8195, 8204, 8194, 8113,3.0629425048828125
91, 8659, 8218, 8340, 8156, 8178, 8163, 8089, 8160, 8146, 8148, 8168, 8145, 8163, 8099,3.0709357261657715
91, 8659, 8218, 8340, 8156, 8178, 8163, 8089, 8160, 8146, 8148, 8168, 8145, 8163, 8099,3.0709357261657715
92, 8688, 8238, 8363, 8167, 8176, 8198, 8064, 8223, 8114, 8129, 8211, 8213, 8216, 8107,3.0788116455078125
92, 8688, 8238, 8363, 8167, 8176, 8198, 8064, 8223, 8114, 8129, 8211, 8213, 8216, 8107,3.0788116455078125
93, 8685, 8277, 8372, 8204, 8185, 8176, 8091, 8172, 8168, 8174, 8182, 8180, 8169, 8104,3.0869596004486084
93, 8685, 8277, 8372, 8204, 8185, 8176, 8091, 8172, 8168, 8174, 8182, 8180, 8169, 8104,3.0869596004486084
94, 8700, 8270, 8372, 8207, 8168, 8194, 8107, 8168, 8188, 8185, 8189, 8183, 8165, 8122,3.093961000442505
94, 8700, 8270, 8372, 8207, 8168, 8194, 8107, 8168, 8188, 8185, 8189, 8183, 8165, 8122,3.093961000442505
95, 8685, 8248, 8369, 8185, 8167, 8176, 8089, 8180, 8139, 8162, 8201, 8204, 8204, 8134,3.1049787998199463
95, 8685, 8248, 8369, 8185, 8167, 8176, 8089, 8180, 8139, 8162, 8201, 8204, 8204, 8134,3.1049787998199463
96, 8659, 8258, 8368, 8200, 8200, 8139, 8080, 8148, 8131, 8167, 8177, 8145, 8169, 8126,3.1099812984466553
96, 8659, 8258, 8368, 8200, 8200, 8139, 8080, 8148, 8131, 8167, 8177, 8145, 8169, 8126,3.1099812984466553
97, 8681, 8260, 8370, 8212, 8152, 8182, 8049, 8205, 8135, 8143, 8204, 8191, 8191, 8117,3.117981195449829
97, 8681, 8260, 8370, 8212, 8152, 8182, 8049, 8205, 8135, 8143, 8204, 8191, 8191, 8117,3.117981195449829
98, 8664, 8260, 8365, 8223, 8147, 8157, 8057, 8151, 8162, 8176, 8163, 8149, 8148, 8107,3.1254944801330566
98, 8664, 8260, 8365, 8223, 8147, 8157, 8057, 8151, 8162, 8176, 8163, 8149, 8148, 8107,3.1254944801330566
99, 8682, 8273, 8376, 8234, 8198, 8176, 8077, 8149, 8170, 8210, 8168, 8149, 8151, 8137,3.1334943771362305
99, 8682, 8273, 8376, 8234, 8198, 8176, 8077, 8149, 8170, 8210, 8168, 8149, 8151, 8137,3.1334943771362305
100, 8682, 8267, 8369, 8228, 8191, 8174, 8082, 8174, 8170, 8186, 8199, 8189, 8192, 8162,3.141494035720825
100, 8682, 8267, 8369, 8228, 8191, 8174, 8082, 8174, 8170, 8186, 8199, 8189, 8192, 8162,3.141494035720825
101, 8656, 8260, 8354, 8239, 8171, 8129, 8100, 8130, 8189, 8189, 8176, 8142, 8151, 8159,3.1494944095611572
101, 8656, 8260, 8354, 8239, 8171, 8129, 8100, 8130, 8189, 8189, 8176, 8142, 8151, 8159,3.1494944095611572
102, 8680, 8253, 8356, 8232, 8155, 8172, 8072, 8193, 8154, 8173, 8199, 8185, 8188, 8149,3.156493663787842
102, 8680, 8253, 8356, 8232, 8155, 8172, 8072, 8193, 8154, 8173, 8199, 8185, 8188, 8149,3.156493663787842
103, 8651, 8239, 8344, 8216, 8165, 8150, 8069, 8143, 8146, 8174, 8161, 8142, 8152, 8123,3.1644935607910156
103, 8651, 8239, 8344, 8216, 8165, 8150, 8069, 8143, 8146, 8174, 8161, 8142, 8152, 8123,3.1644935607910156
104, 8654, 8244, 8346, 8224, 8163, 8156, 8078, 8123, 8147, 8169, 8172, 8152, 8142, 8142,3.1724958419799805
104, 8654, 8244, 8346, 8224, 8163, 8156, 8078, 8123, 8147, 8169, 8172, 8152, 8142, 8142,3.1724958419799805
105, 8673, 8252, 8357, 8234, 8164, 8163, 8068, 8175, 8123, 8144, 8207, 8213, 8192, 8176,3.1804964542388916
105, 8673, 8252, 8357, 8234, 8164, 8163, 8068, 8175, 8123, 8144, 8207, 8213, 8192, 8176,3.1804964542388916
106, 8663, 8265, 8363, 8255, 8202, 8132, 8081, 8126, 8145, 8187, 8163, 8150, 8145, 8184,3.188817262649536
106, 8663, 8265, 8363, 8255, 8202, 8132, 8081, 8126, 8145, 8187, 8163, 8150, 8145, 8184,3.188817262649536
107, 8687, 8274, 8372, 8265, 8199, 8175, 8067, 8175, 8163, 8203, 8199, 8198, 8185, 8197,3.1965882778167725
107, 8687, 8274, 8372, 8265, 8199, 8175, 8067, 8175, 8163, 8203, 8199, 8198, 8185, 8197,3.1965882778167725
108, 8669, 8279, 8367, 8279, 8205, 8133, 8081, 8162, 8191, 8204, 8188, 8183, 8178, 8193,3.20481538772583
108, 8669, 8279, 8367, 8279, 8205, 8133, 8081, 8162, 8191, 8204, 8188, 8183, 8178, 8193,3.20481538772583
109, 8681, 8285, 8364, 8289, 8206, 8129, 8096, 8152, 8203, 8201, 8165, 8158, 8147, 8187,3.212893486022949
109, 8681, 8285, 8364, 8289, 8206, 8129, 8096, 8152, 8203, 8201, 8165, 8158, 8147, 8187,3.212893486022949
110, 8682, 8268, 8346, 8257, 8188, 8163, 8082, 8195, 8178, 8177, 8181, 8188, 8173, 8163,3.2198903560638428
110, 8682, 8268, 8346, 8257, 8188, 8163, 8082, 8195, 8178, 8177, 8181, 8188, 8173, 8163,3.2198903560638428
111, 8636, 8247, 8321, 8251, 8217, 8128, 8109, 8130, 8195, 8186, 8136, 8108, 8113, 8131,3.227970838546753
111, 8636, 8247, 8321, 8251, 8217, 8128, 8109, 8130, 8195, 8186, 8136, 8108, 8113, 8131,3.227970838546753
112, 8659, 8250, 8336, 8274, 8206, 8163, 8107, 8168, 8185, 8174, 8165, 8150, 8143, 8145,3.2358152866363525
112, 8659, 8250, 8336, 8274, 8206, 8163, 8107, 8168, 8185, 8174, 8165, 8150, 8143, 8145,3.2358152866363525
113, 8653, 8269, 8349, 8290, 8191, 8145, 8106, 8140, 8182, 8180, 8160, 8149, 8140, 8149,3.2437174320220947
113, 8653, 8269, 8349, 8290, 8191, 8145, 8106, 8140, 8182, 8180, 8160, 8149, 8140, 8149,3.2437174320220947
114, 8662, 8286, 8357, 8306, 8218, 8142, 8129, 8103, 8231, 8222, 8157, 8132, 8112, 8171,3.252070188522339
114, 8662, 8286, 8357, 8306, 8218, 8142, 8129, 8103, 8231, 8222, 8157, 8132, 8112, 8171,3.252070188522339
115, 8693, 8288, 8365, 8300, 8237, 8170, 8139, 8170, 8253, 8255, 8203, 8199, 8172, 8220,3.2597463130950928
115, 8693, 8288, 8365, 8300, 8237, 8170, 8139, 8170, 8253, 8255, 8203, 8199, 8172, 8220,3.260742664337158
116, 8664, 8277, 8355, 8291, 8250, 8124, 8149, 8128, 8273, 8292, 8167, 8156, 8139, 8233,3.267159938812256
116, 8664, 8277, 8355, 8291, 8250, 8124, 8149, 8128, 8273, 8292, 8167, 8156, 8139, 8233,3.268160343170166
117, 8670, 8266, 8348, 8287, 8216, 8150, 8091, 8164, 8258, 8248, 8175, 8180, 8157, 8217,3.275160074234009
117, 8670, 8266, 8348, 8287, 8216, 8150, 8091, 8164, 8258, 8248, 8175, 8180, 8157, 8217,3.275160074234009
118, 8661, 8269, 8346, 8295, 8204, 8141, 8064, 8153, 8240, 8215, 8154, 8156, 8144, 8187,3.2828118801116943
118, 8661, 8269, 8346, 8295, 8204, 8141, 8064, 8153, 8240, 8215, 8154, 8156, 8144, 8187,3.2828118801116943
119, 8661, 8275, 8350, 8307, 8221, 8143, 8103, 8102, 8242, 8239, 8148, 8137, 8109, 8200,3.2910523414611816
119, 8661, 8275, 8350, 8307, 8221, 8143, 8103, 8102, 8242, 8239, 8148, 8137, 8109, 8200,3.2910523414611816
120, 8668, 8254, 8335, 8269, 8204, 8176, 8100, 8156, 8209, 8202, 8173, 8191, 8162, 8210,3.2984719276428223
120, 8668, 8254, 8335, 8269, 8204, 8176, 8100, 8156, 8209, 8202, 8173, 8191, 8162, 8210,3.2984719276428223
121, 8618, 8222, 8298, 8235, 8209, 8126, 8102, 8123, 8204, 8180, 8139, 8125, 8127, 8162,3.306480884552002
121, 8618, 8222, 8298, 8235, 8209, 8126, 8102, 8123, 8204, 8180, 8139, 8125, 8127, 8162,3.306480884552002
122, 8620, 8191, 8284, 8223, 8190, 8154, 8100, 8150, 8201, 8181, 8154, 8143, 8132, 8132,3.3148131370544434
122, 8620, 8191, 8284, 8223, 8190, 8154, 8100, 8150, 8201, 8181, 8154, 8143, 8132, 8132,3.3148131370544434
123, 8614, 8189, 8283, 8217, 8184, 8148, 8123, 8138, 8225, 8209, 8136, 8134, 8129, 8135,3.322813034057617
123, 8614, 8189, 8283, 8217, 8184, 8148, 8123, 8138, 8225, 8209, 8136, 8134, 8129, 8135,3.322813034057617
124, 8608, 8213, 8287, 8223, 8205, 8130, 8144, 8121, 8257, 8228, 8156, 8131, 8133, 8163,3.3308122158050537
124, 8608, 8213, 8287, 8223, 8205, 8130, 8144, 8121, 8257, 8228, 8156, 8131, 8133, 8163,3.3308122158050537
125, 8616, 8201, 8272, 8205, 8179, 8164, 8084, 8190, 8208, 8165, 8162, 8162, 8167, 8134,3.3388121128082275
125, 8616, 8201, 8272, 8205, 8179, 8164, 8084, 8190, 8208, 8165, 8162, 8162, 8167, 8134,3.3388121128082275
126, 8579, 8186, 8255, 8202, 8166, 8134, 8068, 8118, 8202, 8154, 8106, 8083, 8100, 8072,3.346775770187378
126, 8579, 8186, 8255, 8202, 8166, 8134, 8068, 8118, 8202, 8154, 8106, 8083, 8100, 8072,3.346775770187378
127, 8604, 8193, 8277, 8200, 8159, 8170, 8082, 8127, 8199, 8168, 8176, 8159, 8146, 8107,3.353660821914673
127, 8604, 8193, 8277, 8200, 8159, 8170, 8082, 8127, 8199, 8168, 8176, 8159, 8146, 8107,3.354658603668213
240, 8609, 8191, 8281, 8197, 8171, 8153, 8078, 8141, 8168, 8150, 8170, 8171, 8165, 8141,3.361661911010742
240, 8609, 8191, 8281, 8197, 8171, 8153, 8078, 8141, 8168, 8150, 8170, 8171, 8165, 8141,3.361661911010742
0, 8597, 8197, 8271, 8218, 8193, 8121, 8065, 8126, 8168, 8158, 8142, 8120, 8131, 8127,3.3698031902313232
0, 8597, 8197, 8271, 8218, 8193, 8121, 8065, 8126, 8168, 8158, 8142, 8120, 8131, 8127,3.3698031902313232
1, 8630, 8207, 8286, 8216, 8169, 8175, 8042, 8199, 8179, 8173, 8179, 8187, 8177, 8125,3.3779540061950684
1, 8630, 8207, 8286, 8216, 8169, 8175, 8042, 8199, 8179, 8173, 8179, 8187, 8177, 8125,3.3779540061950684
2, 8607, 8215, 8289, 8222, 8186, 8151, 8086, 8125, 8231, 8221, 8145, 8142, 8124, 8135,3.3859188556671143
2, 8607, 8215, 8289, 8222, 8186, 8151, 8086, 8125, 8231, 8221, 8145, 8142, 8124, 8135,3.3859188556671143
3, 8602, 8195, 8272, 8205, 8199, 8170, 8102, 8131, 8223, 8196, 8163, 8156, 8142, 8142,3.3938143253326416
3, 8602, 8195, 8272, 8205, 8199, 8170, 8102, 8131, 8223, 8196, 8163, 8156, 8142, 8142,3.3938143253326416
4, 8576, 8158, 8240, 8152, 8171, 8165, 8075, 8177, 8181, 8126, 8154, 8152, 8162, 8094,3.4018120765686035
4, 8576, 8158, 8240, 8152, 8171, 8165, 8075, 8177, 8181, 8126, 8154, 8152, 8162, 8094,3.4018120765686035
5, 8548, 8158, 8233, 8150, 8159, 8140, 8098, 8140, 8209, 8144, 8133, 8107, 8116, 8063,3.409266710281372
5, 8548, 8158, 8233, 8150, 8159, 8140, 8098, 8140, 8209, 8144, 8133, 8107, 8116, 8063,3.410259485244751
6, 8588, 8172, 8262, 8162, 8149, 8190, 8130, 8177, 8231, 8159, 8170, 8178, 8161, 8097,3.417262077331543
6, 8588, 8172, 8262, 8162, 8149, 8190, 8130, 8177, 8231, 8159, 8170, 8178, 8161, 8097,3.417262077331543
7, 8581, 8180, 8273, 8171, 8181, 8143, 8175, 8138, 8259, 8168, 8145, 8143, 8150, 8121,3.4248085021972656
7, 8581, 8180, 8273, 8171, 8181, 8143, 8175, 8138, 8259, 8168, 8145, 8143, 8150, 8121,3.4248085021972656
8, 8597, 8203, 8286, 8193, 8191, 8145, 8155, 8177, 8241, 8171, 8170, 8164, 8178, 8142,3.4328112602233887
8, 8597, 8203, 8286, 8193, 8191, 8145, 8155, 8177, 8241, 8171, 8170, 8164, 8178, 8142,3.4328112602233887
9, 8618, 8222, 8305, 8214, 8158, 8172, 8102, 8201, 8214, 8196, 8180, 8198, 8182, 8145,3.4408113956451416
9, 8618, 8222, 8305, 8214, 8158, 8172, 8102, 8201, 8214, 8196, 8180, 8198, 8182, 8145,3.4408113956451416
10, 8619, 8227, 8318, 8230, 8180, 8154, 8117, 8114, 8263, 8251, 8161, 8156, 8126, 8158,3.4489786624908447
10, 8619, 8227, 8318, 8230, 8180, 8154, 8117, 8114, 8263, 8251, 8161, 8156, 8126, 8158,3.4489786624908447
11, 8647, 8214, 8316, 8215, 8187, 8188, 8101, 8167, 8238, 8213, 8196, 8216, 8187, 8181,3.4569785594940186
11, 8647, 8214, 8316, 8215, 8187, 8188, 8101, 8167, 8238, 8213, 8196, 8216, 8187, 8181,3.4569785594940186
12, 8605, 8197, 8284, 8191, 8169, 8146, 8069, 8149, 8171, 8163, 8156, 8169, 8162, 8150,3.4648120403289795
12, 8605, 8197, 8284, 8191, 8169, 8146, 8069, 8149, 8171, 8163, 8156, 8169, 8162, 8150,3.4648120403289795
13, 8592, 8191, 8268, 8183, 8149, 8155, 8047, 8144, 8147, 8136, 8155, 8151, 8146, 8122,3.473034620285034
13, 8592, 8191, 8268, 8183, 8149, 8155, 8047, 8144, 8147, 8136, 8155, 8151, 8146, 8122,3.473034620285034
14, 8613, 8204, 8272, 8185, 8136, 8177, 8060, 8167, 8168, 8149, 8174, 8191, 8163, 8124,3.4810402393341064
14, 8613, 8204, 8272, 8185, 8136, 8177, 8060, 8167, 8168, 8149, 8174, 8191, 8163, 8124,3.4810402393341064
15, 8595, 8214, 8271, 8193, 8159, 8139, 8113, 8120, 8217, 8201, 8152, 8143, 8132, 8152,3.487813711166382
15, 8595, 8214, 8271, 8193, 8159, 8139, 8113, 8120, 8217, 8201, 8152, 8143, 8132, 8152,3.487813711166382
16, 8590, 8193, 8268, 8164, 8151, 8173, 8089, 8194, 8202, 8152, 8181, 8182, 8190, 8153,3.495833396911621
16, 8590, 8193, 8268, 8164, 8151, 8173, 8089, 8194, 8202, 8152, 8181, 8182, 8190, 8153,3.495833396911621
17, 8555, 8176, 8248, 8147, 8144, 8150, 8092, 8169, 8231, 8133, 8149, 8144, 8153, 8095,3.503836154937744
17, 8555, 8176, 8248, 8147, 8144, 8150, 8092, 8169, 8231, 8133, 8149, 8144, 8153, 8095,3.503836154937744
18, 8573, 8194, 8250, 8174, 8158, 8159, 8137, 8139, 8294, 8189, 8152, 8138, 8124, 8100,3.5112056732177734
18, 8573, 8194, 8250, 8174, 8158, 8159, 8137, 8139, 8294, 8189, 8152, 8138, 8124, 8100,3.5112056732177734
19, 8605, 8218, 8268, 8194, 8176, 8170, 8145, 8175, 8285, 8206, 8189, 8204, 8178, 8154,3.520207643508911
19, 8605, 8218, 8268, 8194, 8176, 8170, 8145, 8175, 8285, 8206, 8189, 8204, 8178, 8154,3.520207643508911
20, 8583, 8232, 8283, 8211, 8213, 8122, 8158, 8141, 8286, 8223, 8165, 8162, 8152, 8165,3.528221845626831
20, 8583, 8232, 8283, 8211, 8213, 8122, 8158, 8141, 8286, 8223, 8165, 8162, 8152, 8165,3.528221845626831
21, 8613, 8242, 8305, 8217, 8194, 8177, 8125, 8194, 8280, 8207, 8181, 8199, 8174, 8158,3.5358078479766846
21, 8613, 8242, 8305, 8217, 8194, 8177, 8125, 8194, 8280, 8207, 8181, 8199, 8174, 8158,3.5358078479766846
22, 8613, 8254, 8307, 8228, 8198, 8163, 8116, 8145, 8277, 8215, 8166, 8189, 8148, 8161,3.5438127517700195
22, 8613, 8254, 8307, 8228, 8198, 8163, 8116, 8145, 8277, 8215, 8166, 8189, 8148, 8161,3.5438127517700195
23, 8606, 8251, 8304, 8235, 8227, 8144, 8127, 8119, 8260, 8227, 8177, 8179, 8145, 8197,3.550795793533325
23, 8606, 8251, 8304, 8235, 8227, 8144, 8127, 8119, 8260, 8227, 8177, 8179, 8145, 8197,3.550795793533325
24, 8620, 8231, 8304, 8213, 8205, 8171, 8094, 8192, 8207, 8175, 8200, 8224, 8192, 8195,3.558809757232666
24, 8620, 8231, 8304, 8213, 8205, 8171, 8094, 8192, 8207, 8175, 8200, 8224, 8192, 8195,3.558809757232666
25, 8592, 8239, 8296, 8223, 8195, 8134, 8096, 8128, 8205, 8180, 8152, 8152, 8129, 8146,3.5667786598205566
25, 8592, 8239, 8296, 8223, 8195, 8134, 8096, 8128, 8205, 8180, 8152, 8152, 8129, 8146,3.5667786598205566
26, 8610, 8239, 8298, 8223, 8171, 8174, 8101, 8144, 8198, 8194, 8180, 8189, 8155, 8152,3.5748116970062256
26, 8610, 8239, 8298, 8223, 8171, 8174, 8101, 8144, 8198, 8194, 8180, 8189, 8155, 8152,3.5748116970062256
27, 8597, 8208, 8286, 8188, 8178, 8162, 8118, 8151, 8202, 8186, 8184, 8204, 8170, 8175,3.582791805267334
27, 8597, 8208, 8286, 8188, 8178, 8162, 8118, 8151, 8202, 8186, 8184, 8204, 8170, 8175,3.582791805267334
28, 8583, 8210, 8273, 8185, 8192, 8143, 8133, 8149, 8236, 8185, 8161, 8162, 8152, 8174,3.5907890796661377
28, 8583, 8210, 8273, 8185, 8192, 8143, 8133, 8149, 8236, 8185, 8161, 8162, 8152, 8174,3.5907890796661377
29, 8602, 8224, 8275, 8193, 8159, 8181, 8117, 8203, 8252, 8185, 8176, 8193, 8180, 8150,3.5988104343414307
29, 8602, 8224, 8275, 8193, 8159, 8181, 8117, 8203, 8252, 8185, 8176, 8193, 8180, 8150,3.5988104343414307
30, 8579, 8223, 8273, 8195, 8180, 8149, 8155, 8131, 8309, 8234, 8157, 8149, 8132, 8149,3.6067755222320557
30, 8579, 8223, 8273, 8195, 8180, 8149, 8155, 8131, 8309, 8234, 8157, 8149, 8132, 8149,3.6067755222320557
31, 8603, 8216, 8282, 8184, 8188, 8178, 8164, 8160, 8320, 8225, 8190, 8191, 8171, 8192,3.614811897277832
31, 8603, 8216, 8282, 8184, 8188, 8178, 8164, 8160, 8320, 8225, 8190, 8191, 8171, 8192,3.614811897277832
32, 8598, 8215, 8283, 8179, 8172, 8164, 8133, 8181, 8290, 8187, 8185, 8201, 8187, 8183,3.6218128204345703
32, 8598, 8215, 8283, 8179, 8172, 8164, 8133, 8181, 8290, 8187, 8185, 8201, 8187, 8183,3.6218128204345703
33, 8583, 8225, 8282, 8198, 8183, 8135, 8117, 8146, 8296, 8199, 8157, 8153, 8148, 8161,3.6298115253448486
33, 8583, 8225, 8282, 8198, 8183, 8135, 8117, 8146, 8296, 8199, 8157, 8153, 8148, 8161,3.6298115253448486
34, 8607, 8225, 8285, 8197, 8163, 8178, 8088, 8194, 8276, 8185, 8177, 8199, 8180, 8161,3.6371703147888184
34, 8607, 8225, 8285, 8197, 8163, 8178, 8088, 8194, 8276, 8185, 8177, 8199, 8180, 8161,3.6381726264953613
35, 8581, 8227, 8279, 8198, 8172, 8150, 8103, 8130, 8270, 8193, 8155, 8158, 8136, 8157,3.646172285079956
35, 8581, 8227, 8279, 8198, 8172, 8150, 8103, 8130, 8270, 8193, 8155, 8158, 8136, 8157,3.646172285079956
36, 8591, 8230, 8285, 8192, 8181, 8173, 8097, 8146, 8232, 8187, 8186, 8184, 8162, 8182,3.6538074016571045
36, 8591, 8230, 8285, 8192, 8181, 8173, 8097, 8146, 8232, 8187, 8186, 8184, 8162, 8182,3.6538074016571045
37, 8580, 8211, 8271, 8164, 8158, 8165, 8068, 8176, 8172, 8147, 8180, 8198, 8184, 8158,3.6618125438690186
37, 8580, 8211, 8271, 8164, 8158, 8165, 8068, 8176, 8172, 8147, 8180, 8198, 8184, 8158,3.6618125438690186
38, 8543, 8187, 8248, 8159, 8138, 8137, 8071, 8130, 8166, 8124, 8137, 8130, 8128, 8098,3.6698124408721924
38, 8543, 8187, 8248, 8159, 8138, 8137, 8071, 8130, 8166, 8124, 8137, 8130, 8128, 8098,3.6698124408721924
39, 8552, 8177, 8239, 8146, 8110, 8186, 8068, 8166, 8151, 8091, 8171, 8173, 8160, 8077,3.677812099456787
39, 8552, 8177, 8239, 8146, 8110, 8186, 8068, 8166, 8151, 8091, 8171, 8173, 8160, 8077,3.677812099456787
40, 8519, 8171, 8227, 8127, 8129, 8147, 8099, 8127, 8172, 8117, 8158, 8151, 8151, 8088,3.6848347187042236
40, 8519, 8171, 8227, 8127, 8129, 8147, 8099, 8127, 8172, 8117, 8158, 8151, 8151, 8088,3.6848347187042236
41, 8525, 8160, 8233, 8114, 8127, 8154, 8101, 8174, 8206, 8129, 8168, 8166, 8173, 8112,3.6928346157073975
41, 8525, 8160, 8233, 8114, 8127, 8154, 8101, 8174, 8206, 8129, 8168, 8166, 8173, 8112,3.6928346157073975
42, 8535, 8158, 8240, 8108, 8099, 8167, 8078, 8202, 8236, 8116, 8172, 8180, 8173, 8094,3.7008137702941895
42, 8535, 8158, 8240, 8108, 8099, 8167, 8078, 8202, 8236, 8116, 8172, 8180, 8173, 8094,3.7008137702941895
43, 8516, 8180, 8233, 8132, 8120, 8146, 8100, 8111, 8285, 8163, 8150, 8127, 8114, 8090,3.708893299102783
43, 8516, 8180, 8233, 8132, 8120, 8146, 8100, 8111, 8285, 8163, 8150, 8127, 8114, 8090,3.708893299102783
44, 8539, 8185, 8239, 8135, 8125, 8185, 8100, 8173, 8279, 8161, 8190, 8191, 8171, 8125,3.7167763710021973
44, 8539, 8185, 8239, 8135, 8125, 8185, 8100, 8173, 8279, 8161, 8190, 8191, 8171, 8125,3.7167763710021973
45, 8531, 8190, 8251, 8138, 8131, 8137, 8098, 8171, 8287, 8158, 8173, 8170, 8165, 8124,3.724330186843872
45, 8531, 8190, 8251, 8138, 8131, 8137, 8098, 8171, 8287, 8158, 8173, 8170, 8165, 8124,3.725327491760254
46, 8564, 8223, 8280, 8172, 8145, 8143, 8088, 8153, 8296, 8187, 8180, 8173, 8158, 8140,3.7323386669158936
46, 8564, 8223, 8280, 8172, 8145, 8143, 8088, 8153, 8296, 8187, 8180, 8173, 8158, 8140,3.7323386669158936
47, 8592, 8244, 8302, 8185, 8150, 8175, 8089, 8164, 8276, 8197, 8198, 8222, 8181, 8178,3.740811824798584
47, 8592, 8244, 8302, 8185, 8150, 8175, 8089, 8164, 8276, 8197, 8198, 8222, 8181, 8178,3.740811824798584
48, 8558, 8242, 8290, 8192, 8174, 8139, 8122, 8122, 8267, 8195, 8170, 8171, 8144, 8189,3.7478017807006836
48, 8558, 8242, 8290, 8192, 8174, 8139, 8122, 8122, 8267, 8195, 8170, 8171, 8144, 8189,3.7478017807006836
49, 8565, 8224, 8266, 8179, 8164, 8171, 8090, 8189, 8200, 8144, 8187, 8201, 8181, 8164,3.7557997703552246
49, 8565, 8224, 8266, 8179, 8164, 8171, 8090, 8189, 8200, 8144, 8187, 8201, 8181, 8164,3.7557997703552246
50, 8534, 8207, 8242, 8154, 8148, 8155, 8083, 8162, 8182, 8132, 8154, 8162, 8148, 8104,3.7638120651245117
50, 8534, 8207, 8242, 8154, 8148, 8155, 8083, 8162, 8182, 8132, 8154, 8162, 8148, 8104,3.7638120651245117
51, 8522, 8195, 8238, 8142, 8131, 8170, 8112, 8138, 8235, 8147, 8153, 8141, 8128, 8090,3.7718496322631836
51, 8522, 8195, 8238, 8142, 8131, 8170, 8112, 8138, 8235, 8147, 8153, 8141, 8128, 8090,3.7718496322631836
52, 8534, 8183, 8236, 8122, 8115, 8189, 8122, 8185, 8258, 8135, 8188, 8197, 8178, 8115,3.779557943344116
52, 8534, 8183, 8236, 8122, 8115, 8189, 8122, 8185, 8258, 8135, 8188, 8197, 8178, 8115,3.779557943344116
53, 8505, 8179, 8225, 8110, 8138, 8131, 8145, 8145, 8278, 8148, 8158, 8149, 8150, 8112,3.7876110076904297
53, 8505, 8179, 8225, 8110, 8138, 8131, 8145, 8145, 8278, 8148, 8158, 8149, 8150, 8112,3.7876110076904297
54, 8522, 8169, 8231, 8105, 8118, 8165, 8104, 8190, 8261, 8134, 8169, 8170, 8174, 8088,3.795609951019287
54, 8522, 8169, 8231, 8105, 8118, 8165, 8104, 8190, 8261, 8134, 8169, 8170, 8174, 8088,3.795609951019287
55, 8513, 8173, 8233, 8118, 8098, 8165, 8084, 8160, 8262, 8141, 8155, 8157, 8151, 8072,3.803812265396118
55, 8513, 8173, 8233, 8118, 8098, 8165, 8084, 8160, 8262, 8141, 8155, 8157, 8151, 8072,3.803812265396118
56, 8517, 8193, 8240, 8128, 8107, 8164, 8120, 8137, 8275, 8163, 8164, 8155, 8138, 8112,3.810811996459961
56, 8517, 8193, 8240, 8128, 8107, 8164, 8120, 8137, 8275, 8163, 8164, 8155, 8138, 8112,3.810811996459961
57, 8540, 8189, 8247, 8111, 8103, 8180, 8099, 8203, 8238, 8141, 8199, 8217, 8192, 8138,3.8188111782073975
57, 8540, 8189, 8247, 8111, 8103, 8180, 8099, 8203, 8238, 8141, 8199, 8217, 8192, 8138,3.8188111782073975
58, 8516, 8189, 8244, 8130, 8122, 8137, 8078, 8142, 8231, 8155, 8160, 8160, 8147, 8117,3.8273205757141113
58, 8516, 8189, 8244, 8130, 8122, 8137, 8078, 8142, 8231, 8155, 8160, 8160, 8147, 8117,3.8273205757141113
59, 8532, 8200, 8240, 8147, 8103, 8185, 8075, 8161, 8226, 8134, 8164, 8178, 8160, 8109,3.8353183269500732
59, 8532, 8200, 8240, 8147, 8103, 8185, 8075, 8161, 8226, 8134, 8164, 8178, 8160, 8109,3.8353183269500732
60, 8507, 8186, 8212, 8119, 8095, 8172, 8103, 8159, 8223, 8112, 8163, 8176, 8162, 8093,3.8428120613098145
60, 8507, 8186, 8212, 8119, 8095, 8172, 8103, 8159, 8223, 8112, 8163, 8176, 8162, 8093,3.8428120613098145
61, 8479, 8164, 8194, 8088, 8130, 8144, 8127, 8143, 8228, 8127, 8165, 8144, 8150, 8087,3.8511693477630615
61, 8479, 8164, 8194, 8088, 8130, 8144, 8127, 8143, 8228, 8127, 8165, 8144, 8150, 8087,3.8511693477630615
62, 8494, 8162, 8197, 8077, 8112, 8181, 8109, 8206, 8220, 8097, 8174, 8179, 8185, 8065,3.858168601989746
62, 8494, 8162, 8197, 8077, 8112, 8181, 8109, 8206, 8220, 8097, 8174, 8179, 8185, 8065,3.858168601989746
63, 8473, 8181, 8195, 8097, 8116, 8154, 8134, 8143, 8270, 8110, 8125, 8122, 8122, 8029,3.866163492202759
63, 8473, 8181, 8195, 8097, 8116, 8154, 8134, 8143, 8270, 8110, 8125, 8122, 8122, 8029,3.8671655654907227
64, 8492, 8183, 8204, 8099, 8137, 8185, 8142, 8157, 8273, 8123, 8158, 8154, 8143, 8054,3.874164581298828
64, 8492, 8183, 8204, 8099, 8137, 8185, 8142, 8157, 8273, 8123, 8158, 8154, 8143, 8054,3.874164581298828
65, 8485, 8166, 8197, 8086, 8134, 8171, 8127, 8175, 8229, 8093, 8171, 8167, 8177, 8071,3.8811638355255127
65, 8485, 8166, 8197, 8086, 8134, 8171, 8127, 8175, 8229, 8093, 8171, 8167, 8177, 8071,3.8811638355255127
66, 8474, 8187, 8198, 8110, 8116, 8141, 8125, 8149, 8240, 8099, 8150, 8123, 8149, 8064,3.890019655227661
66, 8474, 8187, 8198, 8110, 8116, 8141, 8125, 8149, 8240, 8099, 8150, 8123, 8149, 8064,3.890019655227661
67, 8512, 8209, 8230, 8117, 8096, 8179, 8103, 8193, 8237, 8127, 8176, 8187, 8177, 8077,3.897725820541382
67, 8512, 8209, 8230, 8117, 8096, 8179, 8103, 8193, 8237, 8127, 8176, 8187, 8177, 8077,3.897725820541382
68, 8500, 8209, 8245, 8129, 8146, 8149, 8128, 8138, 8253, 8181, 8163, 8166, 8155, 8115,3.905884027481079
68, 8500, 8209, 8245, 8129, 8146, 8149, 8128, 8138, 8253, 8181, 8163, 8166, 8155, 8115,3.905884027481079
69, 8519, 8214, 8247, 8142, 8173, 8174, 8137, 8172, 8257, 8173, 8184, 8182, 8180, 8156,3.913892984390259
69, 8519, 8214, 8247, 8142, 8173, 8174, 8137, 8172, 8257, 8173, 8184, 8182, 8180, 8156,3.913892984390259
70, 8515, 8211, 8239, 8122, 8157, 8173, 8134, 8196, 8241, 8143, 8175, 8190, 8178, 8125,3.9218127727508545
70, 8515, 8211, 8239, 8122, 8157, 8173, 8134, 8196, 8241, 8143, 8175, 8190, 8178, 8125,3.9218127727508545
71, 8477, 8190, 8216, 8112, 8144, 8151, 8168, 8130, 8256, 8164, 8137, 8129, 8118, 8075,3.929831027984619
71, 8477, 8190, 8216, 8112, 8144, 8151, 8168, 8130, 8256, 8164, 8137, 8129, 8118, 8075,3.929831027984619
72, 8478, 8166, 8190, 8087, 8102, 8193, 8160, 8174, 8243, 8131, 8156, 8161, 8156, 8056,3.937835216522217
72, 8478, 8166, 8190, 8087, 8102, 8193, 8160, 8174, 8243, 8131, 8156, 8161, 8156, 8056,3.937835216522217
73, 8443, 8158, 8162, 8060, 8106, 8152, 8162, 8143, 8248, 8106, 8127, 8115, 8128, 8020,3.9454522132873535
73, 8443, 8158, 8162, 8060, 8106, 8152, 8162, 8143, 8248, 8106, 8127, 8115, 8128, 8020,3.9454522132873535
74, 8452, 8158, 8167, 8061, 8121, 8167, 8171, 8154, 8256, 8112, 8145, 8127, 8142, 8031,3.952812433242798
74, 8452, 8158, 8167, 8061, 8121, 8167, 8171, 8154, 8256, 8112, 8145, 8127, 8142, 8031,3.952812433242798
75, 8466, 8155, 8178, 8065, 8112, 8174, 8170, 8183, 8250, 8111, 8174, 8174, 8187, 8070,3.9608123302459717
75, 8466, 8155, 8178, 8065, 8112, 8174, 8170, 8183, 8250, 8111, 8174, 8174, 8187, 8070,3.9608123302459717
76, 8444, 8167, 8176, 8064, 8128, 8135, 8159, 8146, 8258, 8119, 8144, 8123, 8147, 8069,3.968829870223999
76, 8444, 8167, 8176, 8064, 8128, 8135, 8159, 8146, 8258, 8119, 8144, 8123, 8147, 8069,3.968829870223999
77, 8478, 8192, 8197, 8070, 8132, 8181, 8124, 8195, 8249, 8120, 8160, 8162, 8168, 8066,3.976837635040283
77, 8478, 8192, 8197, 8070, 8132, 8181, 8124, 8195, 8249, 8120, 8160, 8162, 8168, 8066,3.976837635040283
78, 8476, 8206, 8209, 8093, 8142, 8160, 8152, 8142, 8274, 8168, 8155, 8146, 8148, 8085,3.9848122596740723
78, 8476, 8206, 8209, 8093, 8142, 8160, 8152, 8142, 8274, 8168, 8155, 8146, 8148, 8085,3.9848122596740723
79, 8474, 8189, 8202, 8091, 8140, 8162, 8169, 8142, 8266, 8173, 8169, 8149, 8162, 8116,3.992811679840088
79, 8474, 8189, 8202, 8091, 8140, 8162, 8169, 8142, 8266, 8173, 8169, 8149, 8162, 8116,3.992811679840088
80, 8473, 8177, 8196, 8075, 8137, 8171, 8162, 8197, 8237, 8148, 8176, 8180, 8192, 8110,4.000421524047852
80, 8473, 8177, 8196, 8075, 8137, 8171, 8162, 8197, 8237, 8148, 8176, 8180, 8192, 8110,4.001439571380615
81, 8445, 8185, 8189, 8085, 8148, 8145, 8198, 8144, 8271, 8173, 8141, 8119, 8135, 8084,4.007471323013306
81, 8445, 8185, 8189, 8085, 8148, 8145, 8198, 8144, 8271, 8173, 8141, 8119, 8135, 8084,4.008469581604004
82, 8462, 8173, 8181, 8073, 8106, 8196, 8191, 8181, 8269, 8141, 8165, 8154, 8158, 8078,4.015299320220947
82, 8462, 8173, 8181, 8073, 8106, 8196, 8191, 8181, 8269, 8141, 8165, 8154, 8158, 8078,4.016291379928589
83, 8448, 8163, 8179, 8055, 8116, 8169, 8203, 8160, 8276, 8134, 8156, 8148, 8153, 8082,4.02349591255188
83, 8448, 8163, 8179, 8055, 8116, 8169, 8203, 8160, 8276, 8134, 8156, 8148, 8153, 8082,4.02349591255188
84, 8447, 8172, 8189, 8061, 8152, 8162, 8204, 8165, 8279, 8141, 8157, 8140, 8160, 8095,4.031811952590942
84, 8447, 8172, 8189, 8061, 8152, 8162, 8204, 8165, 8279, 8141, 8157, 8140, 8160, 8095,4.031811952590942
85, 8446, 8160, 8179, 8057, 8118, 8183, 8145, 8209, 8245, 8092, 8160, 8161, 8178, 8058,4.039714336395264
85, 8446, 8160, 8179, 8057, 8118, 8183, 8145, 8209, 8245, 8092, 8160, 8161, 8178, 8058,4.040712833404541
86, 8422, 8160, 8175, 8068, 8115, 8151, 8152, 8128, 8276, 8123, 8128, 8109, 8124, 8035,4.047811031341553
86, 8422, 8160, 8175, 8068, 8115, 8151, 8152, 8128, 8276, 8123, 8128, 8109, 8124, 8035,4.047811031341553
87, 8450, 8164, 8195, 8066, 8122, 8186, 8156, 8162, 8266, 8145, 8170, 8167, 8173, 8070,4.05550479888916
87, 8450, 8164, 8195, 8066, 8122, 8186, 8156, 8162, 8266, 8145, 8170, 8167, 8173, 8070,4.056506156921387
88, 8423, 8157, 8185, 8055, 8123, 8154, 8132, 8172, 8227, 8108, 8161, 8160, 8177, 8062,4.063558578491211
88, 8423, 8157, 8185, 8055, 8123, 8154, 8132, 8172, 8227, 8108, 8161, 8160, 8177, 8062,4.064558506011963
89, 8420, 8166, 8183, 8074, 8129, 8152, 8125, 8161, 8238, 8109, 8143, 8125, 8148, 8044,4.071570634841919
89, 8420, 8166, 8183, 8074, 8129, 8152, 8125, 8161, 8238, 8109, 8143, 8125, 8148, 8044,4.071570634841919
90, 8445, 8161, 8192, 8061, 8121, 8200, 8136, 8188, 8247, 8137, 8168, 8166, 8170, 8041,4.0788140296936035
90, 8445, 8161, 8192, 8061, 8121, 8200, 8136, 8188, 8247, 8137, 8168, 8166, 8170, 8041,4.0788140296936035
91, 8402, 8149, 8178, 8041, 8138, 8161, 8180, 8118, 8265, 8154, 8146, 8125, 8134, 8038,4.086775064468384
91, 8402, 8149, 8178, 8041, 8138, 8161, 8180, 8118, 8265, 8154, 8146, 8125, 8134, 8038,4.086775064468384
92, 8409, 8151, 8173, 8041, 8123, 8181, 8173, 8178, 8249, 8107, 8166, 8160, 8172, 8051,4.0948121547698975
92, 8409, 8151, 8173, 8041, 8123, 8181, 8173, 8178, 8249, 8107, 8166, 8160, 8172, 8051,4.0948121547698975
93, 8410, 8152, 8168, 8042, 8113, 8164, 8168, 8196, 8262, 8104, 8156, 8150, 8169, 8032,4.10281229019165
93, 8410, 8152, 8168, 8042, 8113, 8164, 8168, 8196, 8262, 8104, 8156, 8150, 8169, 8032,4.10281229019165
94, 8406, 8152, 8167, 8036, 8123, 8155, 8195, 8149, 8312, 8150, 8143, 8114, 8136, 8021,4.1105358600616455
94, 8406, 8152, 8167, 8036, 8123, 8155, 8195, 8149, 8312, 8150, 8143, 8114, 8136, 8021,4.1105358600616455
95, 8419, 8151, 8173, 8023, 8096, 8189, 8186, 8189, 8286, 8120, 8171, 8172, 8183, 8041,4.118533372879028
95, 8419, 8151, 8173, 8023, 8096, 8189, 8186, 8189, 8286, 8120, 8171, 8172, 8183, 8041,4.118533372879028
96, 8387, 8151, 8163, 8036, 8114, 8148, 8190, 8150, 8263, 8115, 8147, 8134, 8158, 8049,4.126775026321411
96, 8387, 8151, 8163, 8036, 8114, 8148, 8190, 8150, 8263, 8115, 8147, 8134, 8158, 8049,4.126775026321411
97, 8403, 8141, 8154, 8034, 8115, 8172, 8165, 8185, 8243, 8115, 8160, 8148, 8175, 8050,4.134813547134399
97, 8403, 8141, 8154, 8034, 8115, 8172, 8165, 8185, 8243, 8115, 8160, 8148, 8175, 8050,4.134813547134399
98, 8404, 8145, 8150, 8018, 8087, 8170, 8131, 8191, 8227, 8103, 8155, 8145, 8175, 8025,4.141812086105347
98, 8404, 8145, 8150, 8018, 8087, 8170, 8131, 8191, 8227, 8103, 8155, 8145, 8175, 8025,4.141812086105347
99, 8389, 8154, 8154, 8032, 8094, 8156, 8131, 8144, 8238, 8111, 8142, 8105, 8135, 8012,4.149520397186279
99, 8389, 8154, 8154, 8032, 8094, 8156, 8131, 8144, 8238, 8111, 8142, 8105, 8135, 8012,4.149520397186279
100, 8409, 8133, 8155, 8026, 8087, 8192, 8128, 8179, 8221, 8095, 8167, 8165, 8176, 8028,4.157812595367432
100, 8409, 8133, 8155, 8026, 8087, 8192, 8128, 8179, 8221, 8095, 8167, 8165, 8176, 8028,4.157812595367432
101, 8384, 8130, 8147, 8019, 8105, 8147, 8157, 8138, 8228, 8097, 8143, 8136, 8157, 8037,4.1658124923706055
101, 8384, 8130, 8147, 8019, 8105, 8147, 8157, 8138, 8228, 8097, 8143, 8136, 8157, 8037,4.1658124923706055
102, 8399, 8153, 8166, 8032, 8121, 8168, 8147, 8184, 8223, 8084, 8161, 8149, 8166, 8043,4.173574209213257
102, 8399, 8153, 8166, 8032, 8121, 8168, 8147, 8184, 8223, 8084, 8161, 8149, 8166, 8043,4.173574209213257
103, 8408, 8160, 8176, 8046, 8105, 8180, 8122, 8196, 8232, 8095, 8159, 8156, 8165, 8017,4.18156886100769
103, 8408, 8160, 8176, 8046, 8105, 8180, 8122, 8196, 8232, 8095, 8159, 8156, 8165, 8017,4.18156886100769
104, 8388, 8160, 8157, 8051, 8091, 8157, 8148, 8124, 8272, 8146, 8138, 8117, 8131, 8014,4.189813852310181
104, 8388, 8160, 8157, 8051, 8091, 8157, 8148, 8124, 8272, 8146, 8138, 8117, 8131, 8014,4.189813852310181
105, 8403, 8149, 8151, 8024, 8080, 8184, 8137, 8180, 8239, 8110, 8172, 8177, 8176, 8041,4.198658466339111
105, 8403, 8149, 8151, 8024, 8080, 8184, 8137, 8180, 8239, 8110, 8172, 8177, 8176, 8041,4.199657440185547
106, 8373, 8138, 8146, 8019, 8103, 8143, 8117, 8159, 8214, 8075, 8142, 8130, 8148, 8018,4.204656362533569
106, 8373, 8138, 8146, 8019, 8103, 8143, 8117, 8159, 8214, 8075, 8142, 8130, 8148, 8018,4.204656362533569
107, 8377, 8144, 8143, 8033, 8081, 8167, 8105, 8163, 8216, 8082, 8142, 8115, 8144, 7995,4.212660789489746
107, 8377, 8144, 8143, 8033, 8081, 8167, 8105, 8163, 8216, 8082, 8142, 8115, 8144, 7995,4.212660789489746
108, 8384, 8154, 8138, 8025, 8054, 8179, 8120, 8176, 8227, 8100, 8158, 8157, 8161, 8008,4.220660448074341
108, 8384, 8154, 8138, 8025, 8054, 8179, 8120, 8176, 8227, 8100, 8158, 8157, 8161, 8008,4.220660448074341
109, 8370, 8158, 8137, 8028, 8089, 8136, 8152, 8132, 8242, 8115, 8144, 8126, 8137, 8031,4.22872519493103
109, 8370, 8158, 8137, 8028, 8089, 8136, 8152, 8132, 8242, 8115, 8144, 8126, 8137, 8031,4.22872519493103
110, 8386, 8139, 8144, 8016, 8083, 8176, 8104, 8197, 8192, 8064, 8165, 8156, 8182, 8019,4.236727714538574
110, 8386, 8139, 8144, 8016, 8083, 8176, 8104, 8197, 8192, 8064, 8165, 8156, 8182, 8019,4.237233400344849
111, 8354, 8123, 8135, 8003, 8070, 8159, 8083, 8153, 8183, 8060, 8139, 8122, 8144, 7977,4.245242357254028
111, 8354, 8123, 8135, 8003, 8070, 8159, 8083, 8153, 8183, 8060, 8139, 8122, 8144, 7977,4.245242357254028
112, 8363, 8134, 8142, 8018, 8069, 8166, 8109, 8136, 8207, 8083, 8150, 8137, 8145, 8002,4.252240180969238
112, 8363, 8134, 8142, 8018, 8069, 8166, 8109, 8136, 8207, 8083, 8150, 8137, 8145, 8002,4.25324010848999
113, 8387, 8147, 8157, 8029, 8071, 8173, 8114, 8191, 8199, 8069, 8172, 8181, 8195, 8036,4.261239528656006
113, 8387, 8147, 8157, 8029, 8071, 8173, 8114, 8191, 8199, 8069, 8172, 8181, 8195, 8036,4.261239528656006
114, 8365, 8154, 8150, 8039, 8093, 8140, 8122, 8151, 8217, 8091, 8140, 8122, 8149, 8028,4.268285036087036
114, 8365, 8154, 8150, 8039, 8093, 8140, 8122, 8151, 8217, 8091, 8140, 8122, 8149, 8028,4.269074201583862
115, 8385, 8156, 8144, 8038, 8063, 8189, 8103, 8182, 8215, 8090, 8156, 8155, 8159, 8016,4.276082992553711
115, 8385, 8156, 8144, 8038, 8063, 8189, 8103, 8182, 8215, 8090, 8156, 8155, 8159, 8016,4.276082992553711
116, 8365, 8151, 8136, 8036, 8057, 8165, 8106, 8149, 8217, 8092, 8143, 8139, 8144, 7997,4.284117221832275
116, 8365, 8151, 8136, 8036, 8057, 8165, 8106, 8149, 8217, 8092, 8143, 8139, 8144, 7997,4.284117221832275
117, 8360, 8150, 8138, 8038, 8085, 8161, 8111, 8137, 8224, 8108, 8147, 8127, 8140, 8006,4.29181432723999
117, 8360, 8150, 8138, 8038, 8085, 8161, 8111, 8137, 8224, 8108, 8147, 8127, 8140, 8006,4.29181432723999
118, 8380, 8157, 8142, 8024, 8081, 8193, 8111, 8181, 8211, 8108, 8172, 8176, 8176, 8031,4.299834489822388
118, 8380, 8157, 8142, 8024, 8081, 8193, 8111, 8181, 8211, 8108, 8172, 8176, 8176, 8031,4.299834489822388
119, 8363, 8166, 8140, 8037, 8089, 8152, 8147, 8125, 8227, 8125, 8154, 8137, 8146, 8044,4.307859182357788
119, 8363, 8166, 8140, 8037, 8089, 8152, 8147, 8125, 8227, 8125, 8154, 8137, 8146, 8044,4.307859182357788
120, 8384, 8165, 8141, 8045, 8077, 8171, 8131, 8166, 8208, 8096, 8176, 8171, 8177, 8048,4.315812587738037
120, 8384, 8165, 8141, 8045, 8077, 8171, 8131, 8166, 8208, 8096, 8176, 8171, 8177, 8048,4.316236972808838
121, 8367, 8162, 8128, 8038, 8083, 8154, 8123, 8162, 8196, 8085, 8159, 8158, 8164, 8035,4.323812484741211
121, 8367, 8162, 8128, 8038, 8083, 8154, 8123, 8162, 8196, 8085, 8159, 8158, 8164, 8035,4.323812484741211
122, 8354, 8161, 8132, 8038, 8099, 8153, 8128, 8148, 8203, 8090, 8152, 8133, 8143, 8043,4.331812620162964
122, 8354, 8161, 8132, 8038, 8099, 8153, 8128, 8148, 8203, 8090, 8152, 8133, 8143, 8043,4.331812620162964
123, 8368, 8144, 8139, 8016, 8071, 8177, 8098, 8205, 8180, 8057, 8170, 8177, 8185, 8041,4.338889122009277
123, 8368, 8144, 8139, 8016, 8071, 8177, 8098, 8205, 8180, 8057, 8170, 8177, 8185, 8041,4.338889122009277
124, 8348, 8145, 8129, 8017, 8071, 8138, 8105, 8156, 8197, 8080, 8138, 8127, 8156, 8017,4.346244812011719
124, 8348, 8145, 8129, 8017, 8071, 8138, 8105, 8156, 8197, 8080, 8138, 8127, 8156, 8017,4.347238063812256
125, 8382, 8167, 8146, 8049, 8071, 8180, 8106, 8180, 8206, 8095, 8164, 8152, 8170, 8023,4.354244947433472
125, 8382, 8167, 8146, 8049, 8071, 8180, 8106, 8180, 8206, 8095, 8164, 8152, 8170, 8023,4.354244947433472
126, 8378, 8178, 8153, 8065, 8078, 8168, 8118, 8164, 8210, 8089, 8167, 8160, 8163, 8030,4.362806558609009
126, 8378, 8178, 8153, 8065, 8078, 8168, 8118, 8164, 8210, 8089, 8167, 8160, 8163, 8030,4.362806558609009
127, 8358, 8171, 8142, 8046, 8087, 8140, 8132, 8130, 8205, 8093, 8153, 8137, 8149, 8042,4.370362997055054
127, 8358, 8171, 8142, 8046, 8087, 8140, 8132, 8130, 8205, 8093, 8153, 8137, 8149, 8042,4.370362997055054
240, 8369, 8148, 8137, 8013, 8064, 8174, 8084, 8198, 8155, 8063, 8172, 8178, 8189, 8031,4.3783886432647705
240, 8369, 8148, 8137, 8013, 8064, 8174, 8084, 8198, 8155, 8063, 8172, 8178, 8189, 8031,4.379382848739624
0, 8345, 8157, 8129, 8040, 8076, 8154, 8081, 8157, 8165, 8077, 8143, 8124, 8142, 7999,4.386383771896362
0, 8345, 8157, 8129, 8040, 8076, 8154, 8081, 8157, 8165, 8077, 8143, 8124, 8142, 7999,4.386383771896362
1, 8378, 8192, 8144, 8073, 8087, 8188, 8112, 8169, 8190, 8112, 8163, 8154, 8159, 8034,4.394812822341919
1, 8378, 8192, 8144, 8073, 8087, 8188, 8112, 8169, 8190, 8112, 8163, 8154, 8159, 8034,4.394812822341919
2, 8385, 8186, 8149, 8057, 8092, 8171, 8129, 8166, 8188, 8124, 8170, 8181, 8179, 8068,4.401812314987183
2, 8385, 8186, 8149, 8057, 8092, 8171, 8129, 8166, 8188, 8124, 8170, 8181, 8179, 8068,4.401812314987183
3, 8365, 8165, 8136, 8048, 8109, 8138, 8127, 8143, 8194, 8115, 8152, 8138, 8151, 8052,4.40922212600708
3, 8365, 8165, 8136, 8048, 8109, 8138, 8127, 8143, 8194, 8115, 8152, 8138, 8151, 8052,4.410215377807617
4, 8392, 8179, 8143, 8056, 8095, 8182, 8105, 8207, 8186, 8095, 8169, 8171, 8179, 8036,4.417216539382935
4, 8392, 8179, 8143, 8056, 8095, 8182, 8105, 8207, 8186, 8095, 8169, 8171, 8179, 8036,4.4182164669036865
5, 8374, 8198, 8154, 8069, 8105, 8153, 8140, 8148, 8215, 8138, 8147, 8134, 8143, 8044,4.425812721252441
5, 8374, 8198, 8154, 8069, 8105, 8153, 8140, 8148, 8215, 8138, 8147, 8134, 8143, 8044,4.425812721252441
6, 8376, 8186, 8163, 8070, 8105, 8165, 8145, 8160, 8209, 8130, 8168, 8155, 8165, 8075,4.433959007263184
6, 8376, 8186, 8163, 8070, 8105, 8165, 8145, 8160, 8209, 8130, 8168, 8155, 8165, 8075,4.433959007263184
7, 8374, 8179, 8167, 8066, 8093, 8161, 8114, 8187, 8176, 8085, 8172, 8169, 8186, 8061,4.441954851150513
7, 8374, 8179, 8167, 8066, 8093, 8161, 8114, 8187, 8176, 8085, 8172, 8169, 8186, 8061,4.441954851150513
8, 8360, 8187, 8167, 8074, 8106, 8143, 8129, 8131, 8202, 8120, 8141, 8113, 8133, 8034,4.4498114585876465
8, 8360, 8187, 8167, 8074, 8106, 8143, 8129, 8131, 8202, 8120, 8141, 8113, 8133, 8034,4.4498114585876465
9, 8379, 8170, 8163, 8061, 8097, 8186, 8131, 8172, 8206, 8121, 8167, 8163, 8165, 8047,4.457804203033447
9, 8379, 8170, 8163, 8061, 8097, 8186, 8131, 8172, 8206, 8121, 8167, 8163, 8165, 8047,4.457804203033447
10, 8347, 8161, 8144, 8056, 8099, 8138, 8135, 8150, 8201, 8108, 8154, 8138, 8163, 8051,4.4648120403289795
