COUNTER,F3,FC5,AF3,F7,T7,P7,O1,O2,P8,T8,F8,AF4,FC6,F4,Timestamp
80, 8142, 8097, 8122, 8114, 8157, 8183, 8177, 8185, 8204, 8174, 8136, 8087, 8185, 8096,0.042233943939208984
81, 8161, 8105, 8145, 8127, 8157, 8158, 8162, 8179, 8194, 8174, 8140, 8104, 8192, 8107,0.042233943939208984
82, 8154, 8101, 8139, 8133, 8154, 8154, 8162, 8180, 8184, 8196, 8145, 8096, 8191, 8097,0.057607412338256836
83, 8139, 8090, 8117, 8108, 8152, 8162, 8167, 8172, 8184, 8184, 8130, 8067, 8173, 8079,0.057607412338256836
84, 8142, 8103, 8141, 8099, 8147, 8153, 8159, 8167, 8178, 8157, 8117, 8082, 8163, 8085,0.07417082786560059
85, 8161, 8125, 8152, 8133, 8152, 8146, 8162, 8173, 8181, 8180, 8148, 8100, 8187, 8095,0.07417082786560059
86, 8176, 8127, 8161, 8134, 8156, 8150, 8165, 8169, 8180, 8189, 8170, 8112, 8198, 8104,0.09024214744567871
87, 8154, 8119, 8138, 8110, 8147, 8153, 8162, 8165, 8176, 8163, 8139, 8090, 8177, 8095,0.09124231338500977
88, 8130, 8108, 8117, 8105, 8143, 8148, 8160, 8163, 8166, 8148, 8105, 8059, 8151, 8070,0.09124231338500977
89, 8140, 8117, 8157, 8118, 8152, 8153, 8159, 8170, 8161, 8158, 8129, 8080, 8154, 8072,0.10542559623718262
90, 8160, 8135, 8160, 8136, 8162, 8155, 8163, 8176, 8176, 8170, 8181, 8106, 8190, 8091,0.1210486888885498
91, 8170, 8145, 8163, 8128, 8161, 8142, 8153, 8162, 8166, 8148, 8189, 8126, 8198, 8097,0.1210486888885498
92, 8167, 8156, 8178, 8132, 8171, 8147, 8147, 8151, 8146, 8134, 8166, 8118, 8176, 8080,0.13682961463928223
93, 8157, 8159, 8180, 8156, 8185, 8159, 8147, 8147, 8140, 8152, 8163, 8107, 8165, 8069,0.13682961463928223
94, 8156, 8161, 8197, 8157, 8180, 8167, 8149, 8153, 8138, 8160, 8170, 8122, 8169, 8083,0.1521916389465332
95, 8155, 8150, 8175, 8153, 8173, 8176, 8168, 8166, 8150, 8171, 8161, 8104, 8172, 8086,0.1521916389465332
96, 8142, 8126, 8160, 8142, 8176, 8180, 8181, 8176, 8161, 8182, 8138, 8088, 8160, 8080,0.16777467727661133
97, 8128, 8100, 8145, 8114, 8175, 8177, 8187, 8187, 8180, 8183, 8125, 8083, 8161, 8081,0.16777467727661133
98, 8130, 8091, 8115, 8093, 8162, 8163, 8183, 8180, 8192, 8176, 8138, 8084, 8178, 8078,0.18384385108947754
99, 8141, 8107, 8126, 8086, 8155, 8151, 8167, 8172, 8173, 8157, 8148, 8100, 8178, 8073,0.18384385108947754
100, 8145, 8115, 8123, 8090, 8168, 8149, 8166, 8171, 8156, 8150, 8137, 8089, 8176, 8072,0.19949746131896973
101, 8152, 8123, 8142, 8093, 8177, 8146, 8159, 8159, 8155, 8148, 8131, 8097, 8181, 8084,0.19949746131896973
102, 8158, 8146, 8168, 8102, 8179, 8148, 8150, 8154, 8157, 8136, 8139, 8112, 8175, 8082,0.21477866172790527
103, 8153, 8153, 8150, 8109, 8179, 8152, 8153, 8158, 8146, 8127, 8133, 8093, 8155, 8060,0.21477866172790527
104, 8149, 8141, 8157, 8098, 8176, 8156, 8155, 8161, 8139, 8139, 8123, 8088, 8146, 8052,0.2308788299560547
105, 8146, 8130, 8154, 8098, 8170, 8151, 8150, 8161, 8147, 8157, 8130, 8083, 8157, 8054,0.2308788299560547
106, 8148, 8129, 8155, 8103, 8161, 8135, 8135, 8150, 8138, 8140, 8130, 8089, 8153, 8064,0.24688148498535156
107, 8153, 8138, 8165, 8102, 8161, 8138, 8139, 8154, 8132, 8129, 8121, 8098, 8142, 8074,0.24688148498535156
108, 8161, 8144, 8161, 8118, 8173, 8155, 8150, 8159, 8146, 8146, 8115, 8088, 8145, 8069,0.26240992546081543
109, 8156, 8135, 8177, 8125, 8170, 8151, 8138, 8149, 8139, 8145, 8096, 8084, 8135, 8062,0.26240992546081543
110, 8138, 8118, 8153, 8120, 8160, 8152, 8145, 8153, 8139, 8153, 8094, 8073, 8136, 8068,0.27834129333496094
111, 8148, 8121, 8154, 8125, 8165, 8172, 8166, 8170, 8161, 8179, 8129, 8095, 8156, 8087,0.27834129333496094
112, 8163, 8133, 8182, 8136, 8172, 8179, 8160, 8175, 8172, 8192, 8147, 8118, 8163, 8092,0.29416823387145996
113, 8151, 8123, 8153, 8129, 8165, 8160, 8144, 8163, 8176, 8181, 8135, 8098, 8160, 8080,0.29416823387145996
114, 8145, 8116, 8160, 8117, 8164, 8153, 8147, 8169, 8181, 8165, 8137, 8111, 8164, 8087,0.3096017837524414
115, 8156, 8135, 8176, 8133, 8176, 8164, 8168, 8185, 8197, 8187, 8165, 8132, 8182, 8102,0.3096017837524414
116, 8168, 8141, 8169, 8129, 8169, 8150, 8157, 8176, 8199, 8209, 8189, 8138, 8201, 8112,0.32475805282592773
117, 8174, 8150, 8175, 8125, 8161, 8137, 8132, 8172, 8179, 8192, 8182, 8151, 8201, 8117,0.32475805282592773
118, 8174, 8154, 8151, 8121, 8168, 8142, 8134, 8174, 8170, 8172, 8166, 8137, 8188, 8105,0.3398854732513428
119, 8164, 8139, 8143, 8074, 8150, 8128, 8136, 8174, 8164, 8165, 8159, 8130, 8173, 8092,0.3398854732513428
120, 8152, 8136, 8138, 8082, 8135, 8118, 8136, 8176, 8163, 8166, 8158, 8122, 8176, 8084,0.3556675910949707
121, 8162, 8159, 8152, 8144, 8151, 8127, 8138, 8172, 8160, 8149, 8148, 8121, 8175, 8083,0.3556675910949707
122, 8191, 8179, 8189, 8158, 8161, 8136, 8136, 8173, 8158, 8136, 8147, 8151, 8166, 8101,0.3707466125488281
123, 8207, 8180, 8186, 8149, 8154, 8135, 8132, 8177, 8175, 8160, 8182, 8171, 8189, 8119,0.3707466125488281
124, 8207, 8193, 8201, 8156, 8158, 8135, 8129, 8170, 8171, 8172, 8199, 8187, 8205, 8127,0.38600611686706543
125, 8207, 8201, 8195, 8161, 8169, 8140, 8144, 8162, 8152, 8155, 8176, 8169, 8183, 8120,0.38600611686706543
126, 8203, 8184, 8174, 8144, 8163, 8139, 8144, 8157, 8143, 8136, 8164, 8150, 8162, 8108,0.40172672271728516
127, 8192, 8182, 8191, 8129, 8152, 8135, 8129, 8169, 8141, 8131, 8169, 8167, 8173, 8109,0.40172672271728516
237, 8187, 8188, 8177, 8139, 8150, 8124, 8144, 8179, 8154, 8147, 8169, 8164, 8186, 8113,0.41699790954589844
0, 8199, 8192, 8185, 8144, 8147, 8121, 8157, 8171, 8159, 8156, 8173, 8173, 8179, 8121,0.41699790954589844
1, 8208, 8208, 8203, 8151, 8158, 8139, 8158, 8178, 8159, 8161, 8187, 8185, 8184, 8122,0.43257904052734375
2, 8203, 8216, 8204, 8169, 8174, 8147, 8160, 8177, 8153, 8156, 8184, 8180, 8187, 8112,0.43257904052734375
3, 8201, 8207, 8222, 8171, 8167, 8143, 8159, 8172, 8146, 8144, 8177, 8187, 8176, 8107,0.44768476486206055
4, 8204, 8201, 8205, 8167, 8156, 8147, 8168, 8177, 8165, 8159, 8197, 8184, 8195, 8114,0.44768476486206055
5, 8204, 8200, 8206, 8162, 8157, 8150, 8170, 8166, 8157, 8165, 8205, 8191, 8210, 8129,0.46370792388916016
6, 8202, 8205, 8215, 8171, 8160, 8151, 8170, 8156, 8130, 8150, 8183, 8188, 8195, 8127,0.46370792388916016
7, 8203, 8211, 8204, 8186, 8168, 8150, 8171, 8161, 8140, 8137, 8173, 8178, 8187, 8119,0.47968173027038574
8, 8211, 8217, 8231, 8189, 8181, 8154, 8167, 8172, 8161, 8140, 8191, 8198, 8199, 8128,0.47968173027038574
9, 8213, 8218, 8232, 8201, 8187, 8160, 8174, 8178, 8166, 8167, 8205, 8196, 8210, 8129,0.49483370780944824
10, 8213, 8215, 8234, 8208, 8181, 8159, 8173, 8173, 8155, 8163, 8196, 8196, 8199, 8127,0.49483370780944824
11, 8211, 8218, 8241, 8211, 8177, 8167, 8179, 8176, 8161, 8148, 8198, 8206, 8198, 8139,0.5099012851715088
12, 8204, 8207, 8219, 8214, 8165, 8177, 8197, 8178, 8169, 8174, 8203, 8197, 8210, 8151,0.5099012851715088
13, 8185, 8180, 8208, 8190, 8154, 8178, 8195, 8173, 8159, 8186, 8168, 8178, 8190, 8145,0.5262212753295898
14, 8167, 8167, 8184, 8175, 8165, 8179, 8189, 8167, 8159, 8162, 8147, 8147, 8165, 8124,0.5262212753295898
15, 8180, 8181, 8199, 8185, 8171, 8170, 8186, 8168, 8149, 8140, 8163, 8158, 8159, 8118,0.5421864986419678
16, 8189, 8186, 8215, 8199, 8165, 8170, 8183, 8177, 8138, 8135, 8160, 8172, 8158, 8122,0.5421864986419678
17, 8181, 8167, 8179, 8204, 8162, 8173, 8189, 8174, 8158, 8150, 8146, 8154, 8162, 8126,0.5577471256256104
18, 8182, 8164, 8190, 8190, 8158, 8174, 8203, 8181, 8179, 8171, 8143, 8165, 8168, 8142,0.5577471256256104
19, 8183, 8164, 8185, 8187, 8165, 8186, 8219, 8200, 8195, 8182, 8143, 8161, 8180, 8144,0.5728585720062256
20, 8183, 8150, 8167, 8187, 8174, 8183, 8214, 8195, 8214, 8188, 8149, 8155, 8187, 8145,0.5728585720062256
21, 8188, 8151, 8177, 8178, 8162, 8174, 8208, 8192, 8227, 8201, 8157, 8161, 8180, 8152,0.5880475044250488
22, 8181, 8151, 8155, 8167, 8154, 8180, 8217, 8197, 8227, 8206, 8143, 8135, 8162, 8135,0.6037266254425049
23, 8169, 8139, 8148, 8140, 8154, 8179, 8202, 8192, 8205, 8178, 8115, 8126, 8135, 8117,0.6037266254425049
24, 8177, 8139, 8142, 8138, 8162, 8173, 8189, 8186, 8206, 8177, 8124, 8129, 8144, 8119,0.6195361614227295
25, 8199, 8149, 8155, 8149, 8172, 8178, 8191, 8182, 8221, 8188, 8149, 8150, 8170, 8130,0.6195361614227295
26, 8202, 8155, 8184, 8141, 8163, 8190, 8192, 8186, 8220, 8163, 8148, 8170, 8165, 8128,0.6195361614227295
27, 8195, 8155, 8159, 8152, 8164, 8181, 8204, 8183, 8221, 8174, 8161, 8147, 8166, 8113,0.6347677707672119
28, 8198, 8153, 8164, 8152, 8185, 8169, 8200, 8176, 8206, 8196, 8169, 8150, 8166, 8115,0.6347677707672119
29, 8185, 8151, 8173, 8137, 8194, 8184, 8193, 8181, 8191, 8174, 8154, 8159, 8151, 8115,0.651364803314209
30, 8171, 8152, 8164, 8141, 8185, 8174, 8196, 8170, 8203, 8163, 8155, 8142, 8150, 8105,0.651364803314209
31, 8180, 8161, 8184, 8152, 8177, 8149, 8191, 8172, 8209, 8191, 8171, 8142, 8160, 8112,0.6659538745880127
32, 8187, 8165, 8184, 8165, 8193, 8169, 8204, 8181, 8211, 8209, 8176, 8143, 8157, 8115,0.6810417175292969
33, 8189, 8163, 8191, 8166, 8206, 8193, 8217, 8167, 8203, 8182, 8158, 8144, 8138, 8115,0.6810417175292969
34, 8185, 8162, 8188, 8163, 8194, 8193, 8211, 8164, 8186, 8170, 8144, 8133, 8131, 8114,0.6957087516784668
35, 8171, 8149, 8168, 8164, 8180, 8186, 8193, 8168, 8176, 8174, 8145, 8125, 8134, 8106,0.6957087516784668
36, 8162, 8145, 8177, 8161, 8182, 8184, 8188, 8167, 8175, 8171, 8143, 8135, 8131, 8110,0.7109415531158447
37, 8161, 8147, 8163, 8154, 8179, 8185, 8208, 8168, 8186, 8177, 8141, 8127, 8135, 8113,0.7109415531158447
38, 8158, 8139, 8165, 8135, 8163, 8184, 8212, 8171, 8180, 8161, 8133, 8133, 8136, 8111,0.7260904312133789
39, 8155, 8136, 8162, 8139, 8166, 8186, 8212, 8173, 8177, 8155, 8125, 8130, 8134, 8103,0.7260904312133789
40, 8155, 8138, 8145, 8145, 8175, 8188, 8214, 8170, 8185, 8176, 8119, 8120, 8129, 8106,0.7416186332702637
41, 8157, 8145, 8172, 8135, 8176, 8190, 8204, 8175, 8188, 8177, 8121, 8141, 8126, 8118,0.7416186332702637
42, 8157, 8144, 8169, 8134, 8174, 8184, 8201, 8176, 8200, 8180, 8138, 8139, 8142, 8116,0.756749153137207
43, 8153, 8126, 8159, 8119, 8167, 8176, 8192, 8169, 8193, 8181, 8132, 8131, 8136, 8109,0.756749153137207
44, 8147, 8130, 8161, 8130, 8176, 8188, 8197, 8177, 8188, 8179, 8126, 8134, 8124, 8109,0.7723495960235596
45, 8161, 8143, 8161, 8157, 8177, 8192, 8213, 8177, 8191, 8183, 8138, 8140, 8134, 8118,0.7723495960235596
46, 8174, 8136, 8171, 8142, 8160, 8180, 8209, 8172, 8187, 8182, 8135, 8151, 8137, 8120,0.7882630825042725
47, 8169, 8131, 8155, 8129, 8173, 8177, 8205, 8186, 8203, 8193, 8137, 8149, 8148, 8114,0.7882630825042725
48, 8170, 8136, 8166, 8129, 8185, 8178, 8202, 8195, 8210, 8197, 8147, 8166, 8159, 8120,0.8031864166259766
49, 8151, 8125, 8143, 8127, 8173, 8172, 8198, 8181, 8206, 8197, 8145, 8143, 8155, 8109,0.8031864166259766
50, 8134, 8119, 8120, 8122, 8173, 8156, 8180, 8172, 8198, 8191, 8135, 8116, 8152, 8092,0.8187999725341797
51, 8153, 8149, 8168, 8123, 8183, 8159, 8160, 8171, 8190, 8182, 8144, 8158, 8168, 8099,0.8187999725341797
52, 8163, 8153, 8153, 8131, 8176, 8159, 8162, 8168, 8198, 8189, 8158, 8160, 8184, 8108,0.8338468074798584
53, 8153, 8128, 8148, 8110, 8156, 8138, 8155, 8170, 8192, 8184, 8148, 8149, 8169, 8110,0.8338468074798584
54, 8149, 8126, 8159, 8094, 8151, 8139, 8152, 8173, 8181, 8172, 8138, 8150, 8156, 8097,0.8490619659423828
55, 8153, 8135, 8132, 8101, 8155, 8148, 8155, 8160, 8167, 8158, 8137, 8138, 8153, 8081,0.8490619659423828
56, 8156, 8146, 8154, 8104, 8156, 8147, 8153, 8153, 8150, 8150, 8144, 8152, 8149, 8088,0.8645820617675781
57, 8157, 8150, 8154, 8107, 8168, 8149, 8160, 8159, 8156, 8157, 8155, 8148, 8159, 8089,0.8645820617675781
58, 8165, 8157, 8158, 8106, 8173, 8145, 8157, 8159, 8154, 8138, 8152, 8155, 8162, 8093,0.8806016445159912
59, 8176, 8170, 8182, 8119, 8167, 8145, 8158, 8168, 8164, 8133, 8158, 8174, 8166, 8110,0.8806016445159912
60, 8174, 8155, 8166, 8120, 8157, 8142, 8150, 8171, 8175, 8152, 8167, 8162, 8166, 8102,0.8966567516326904
61, 8162, 8146, 8172, 8096, 8152, 8139, 8134, 8161, 8153, 8144, 8153, 8161, 8147, 8086,0.8966567516326904
62, 8160, 8171, 8182, 8120, 8170, 8153, 8162, 8167, 8165, 8161, 8161, 8167, 8154, 8102,0.9126830101013184
63, 8175, 8190, 8196, 8161, 8190, 8169, 8186, 8174, 8197, 8195, 8190, 8183, 8181, 8129,0.9126830101013184
64, 8186, 8185, 8208, 8164, 8188, 8173, 8171, 8171, 8187, 8194, 8200, 8194, 8199, 8132,0.9287161827087402
65, 8194, 8178, 8191, 8151, 8180, 8160, 8162, 8162, 8178, 8177, 8206, 8184, 8217, 8125,0.9287161827087402
66, 8199, 8192, 8214, 8147, 8177, 8151, 8168, 8161, 8183, 8171, 8216, 8205, 8224, 8135,0.94388747215271
67, 8195, 8202, 8217, 8167, 8190, 8169, 8188, 8162, 8182, 8190, 8216, 8211, 8228, 8143,0.94388747215271
68, 8192, 8190, 8204, 8188, 8207, 8194, 8201, 8160, 8167, 8198, 8206, 8191, 8226, 8146,0.9597141742706299
69, 8192, 8187, 8214, 8180, 8208, 8201, 8206, 8171, 8170, 8186, 8202, 8190, 8220, 8153,0.9597141742706299
70, 8188, 8186, 8196, 8168, 8195, 8191, 8214, 8180, 8193, 8184, 8195, 8194, 8218, 8151,0.9758110046386719
71, 8172, 8168, 8186, 8153, 8177, 8178, 8196, 8175, 8187, 8190, 8164, 8198, 8204, 8139,0.9758110046386719
72, 8154, 8148, 8158, 8131, 8169, 8174, 8181, 8177, 8188, 8198, 8143, 8166, 8189, 8124,0.9914364814758301
73, 8154, 8148, 8145, 8106, 8162, 8157, 8177, 8175, 8192, 8182, 8142, 8148, 8184, 8116,0.9914364814758301
74, 8170, 8168, 8182, 8101, 8157, 8144, 8170, 8175, 8175, 8154, 8154, 8181, 8195, 8117,1.006803035736084
75, 8177, 8191, 8179, 8128, 8172, 8156, 8172, 8171, 8173, 8161, 8186, 8198, 8219, 8117,1.006803035736084
76, 8179, 8199, 8196, 8127, 8179, 8157, 8161, 8159, 8162, 8163, 8188, 8205, 8210, 8125,1.0220458507537842
77, 8178, 8195, 8211, 8122, 8164, 8145, 8146, 8156, 8145, 8141, 8168, 8194, 8187, 8124,1.0220458507537842
78, 8168, 8185, 8192, 8137, 8159, 8145, 8149, 8146, 8136, 8132, 8173, 8176, 8186, 8113,1.037851333618164
79, 8159, 8180, 8200, 8140, 8169, 8172, 8167, 8146, 8130, 8143, 8175, 8180, 8176, 8117,1.037851333618164
80, 8149, 8175, 8189, 8135, 8160, 8183, 8181, 8162, 8148, 8162, 8157, 8164, 8165, 8121,1.0529868602752686
81, 8143, 8163, 8193, 8125, 8146, 8158, 8168, 8159, 8152, 8154, 8150, 8167, 8167, 8119,1.0529868602752686
82, 8143, 8162, 8193, 8135, 8159, 8159, 8166, 8156, 8143, 8142, 8157, 8169, 8171, 8117,1.0682945251464844
83, 8157, 8169, 8179, 8154, 8168, 8173, 8179, 8166, 8156, 8156, 8155, 8158, 8169, 8122,1.0839569568634033
84, 8178, 8174, 8199, 8154, 8158, 8159, 8175, 8183, 8174, 8169, 8158, 8178, 8176, 8142,1.0839569568634033
85, 8178, 8164, 8181, 8141, 8151, 8141, 8161, 8179, 8169, 8163, 8166, 8182, 8193, 8143,1.0839569568634033
86, 8168, 8155, 8175, 8126, 8154, 8145, 8151, 8166, 8155, 8144, 8172, 8190, 8197, 8129,1.099611759185791
87, 8164, 8164, 8183, 8132, 8166, 8155, 8167, 8176, 8169, 8148, 8180, 8197, 8205, 8119,1.1147911548614502
88, 8159, 8163, 8166, 8129, 8162, 8143, 8169, 8174, 8176, 8150, 8176, 8174, 8197, 8108,1.1147911548614502
89, 8159, 8164, 8176, 8118, 8148, 8138, 8146, 8160, 8157, 8137, 8173, 8176, 8177, 8104,1.1308109760284424
90, 8186, 8193, 8194, 8159, 8175, 8167, 8164, 8170, 8169, 8158, 8203, 8201, 8207, 8126,1.1308109760284424
91, 8227, 8233, 8240, 8209, 8213, 8198, 8210, 8187, 8190, 8183, 8234, 8236, 8249, 8169,1.1466879844665527
92, 8243, 8248, 8263, 8234, 8230, 8219, 8244, 8198, 8209, 8207, 8249, 8243, 8261, 8193,1.1466879844665527
93, 8251, 8245, 8252, 8256, 8261, 8235, 8262, 8212, 8243, 8253, 8266, 8243, 8265, 8205,1.1466879844665527
94, 8270, 8260, 8280, 8276, 8295, 8258, 8286, 8225, 8276, 8291, 8282, 8279, 8287, 8226,1.1620333194732666
95, 8277, 8264, 8275, 8289, 8296, 8279, 8325, 8234, 8309, 8310, 8292, 8284, 8315, 8246,1.1620333194732666
96, 8280, 8251, 8273, 8287, 8287, 8274, 8332, 8237, 8317, 8306, 8293, 8282, 8317, 8262,1.1775236129760742
97, 8294, 8260, 8290, 8297, 8304, 8276, 8329, 8240, 8316, 8313, 8301, 8293, 8319, 8269,1.1926906108856201
98, 8302, 8275, 8281, 8315, 8330, 8294, 8345, 8241, 8336, 8339, 8315, 8292, 8333, 8274,1.1926906108856201
99, 8298, 8270, 8295, 8304, 8317, 8295, 8344, 8240, 8338, 8342, 8308, 8304, 8328, 8281,1.2080068588256836
100, 8298, 8263, 8278, 8303, 8300, 8276, 8338, 8234, 8334, 8345, 8303, 8297, 8329, 8274,1.2080068588256836
101, 8318, 8275, 8279, 8324, 8316, 8277, 8335, 8227, 8344, 8352, 8323, 8303, 8347, 8282,1.224191427230835
102, 8331, 8295, 8314, 8339, 8331, 8303, 8342, 8239, 8362, 8348, 8335, 8325, 8350, 8302,1.224191427230835
103, 8320, 8294, 8288, 8337, 8330, 8300, 8355, 8241, 8372, 8350, 8327, 8309, 8342, 8292,1.2401635646820068
104, 8312, 8281, 8283, 8320, 8330, 8287, 8351, 8233, 8363, 8353, 8313, 8305, 8337, 8280,1.2401635646820068
105, 8322, 8283, 8297, 8336, 8346, 8303, 8359, 8241, 8374, 8370, 8327, 8315, 8354, 8291,1.2549338340759277
106, 8345, 8290, 8307, 8354, 8356, 8301, 8367, 8237, 8380, 8381, 8353, 8338, 8378, 8306,1.2549338340759277
107, 8354, 8295, 8319, 8335, 8348, 8273, 8348, 8228, 8359, 8361, 8360, 8361, 8384, 8310,1.2700848579406738
108, 8343, 8288, 8300, 8318, 8335, 8258, 8322, 8223, 8347, 8337, 8362, 8350, 8378, 8291,1.2700848579406738
109, 8343, 8289, 8316, 8323, 8330, 8260, 8316, 8211, 8334, 8316, 8363, 8359, 8361, 8278,1.28523850440979
110, 8351, 8302, 8321, 8332, 8340, 8274, 8338, 8215, 8331, 8314, 8356, 8359, 8356, 8283,1.28523850440979
111, 8355, 8302, 8321, 8321, 8349, 8286, 8351, 8226, 8341, 8328, 8360, 8354, 8367, 8297,1.300652027130127
112, 8356, 8307, 8348, 8334, 8351, 8296, 8350, 8228, 8348, 8339, 8372, 8367, 8373, 8306,1.300652027130127
113, 8351, 8310, 8327, 8380, 8349, 8302, 8357, 8216, 8349, 8347, 8364, 8345, 8367, 8298,1.316671371459961
114, 8348, 8302, 8324, 8389, 8343, 8299, 8359, 8208, 8335, 8338, 8331, 8332, 8347, 8295,1.316671371459961
115, 8343, 8298, 8326, 8379, 8349, 8303, 8362, 8211, 8331, 8329, 8323, 8326, 8336, 8292,1.3322699069976807
116, 8338, 8296, 8308, 8380, 8351, 8305, 8364, 8206, 8344, 8329, 8339, 8315, 8333, 8291,1.3322699069976807
117, 8335, 8287, 8316, 8367, 8338, 8307, 8359, 8209, 8351, 8341, 8343, 8328, 8332, 8307,1.3480355739593506
118, 8328, 8269, 8300, 8347, 8334, 8305, 8350, 8208, 8342, 8348, 8325, 8316, 8333, 8301,1.3480355739593506
119, 8315, 8261, 8294, 8338, 8332, 8296, 8337, 8196, 8318, 8330, 8304, 8298, 8318, 8274,1.3638012409210205
120, 8304, 8257, 8278, 8334, 8326, 8291, 8336, 8201, 8320, 8330, 8301, 8302, 8309, 8264,1.3638012409210205
121, 8308, 8253, 8263, 8328, 8324, 8290, 8340, 8205, 8337, 8340, 8307, 8330, 8309, 8274,1.3788676261901855
122, 8317, 8256, 8292, 8324, 8320, 8295, 8337, 8208, 8343, 8332, 8299, 8351, 8306, 8281,1.3788676261901855
123, 8305, 8250, 8273, 8335, 8325, 8301, 8344, 8214, 8350, 8334, 8293, 8319, 8308, 8275,1.3940041065216064
124, 8293, 8241, 8265, 8330, 8334, 8299, 8340, 8216, 8344, 8332, 8294, 8307, 8309, 8272,1.3940041065216064
125, 8306, 8248, 8281, 8324, 8335, 8309, 8339, 8226, 8359, 8337, 8304, 8316, 8325, 8276,1.4093012809753418
126, 8322, 8246, 8278, 8323, 8333, 8307, 8348, 8234, 8388, 8359, 8319, 8324, 8347, 8290,1.4093012809753418
127, 8309, 8234, 8278, 8307, 8329, 8295, 8336, 8227, 8374, 8352, 8315, 8337, 8330, 8296,1.4250903129577637
237, 8292, 8235, 8255, 8309, 8328, 8295, 8329, 8216, 8359, 8336, 8308, 8313, 8311, 8267,1.4250903129577637
0, 8304, 8239, 8266, 8315, 8326, 8295, 8323, 8210, 8366, 8337, 8316, 8317, 8328, 8268,1.4406709671020508
1, 8311, 8236, 8274, 8301, 8316, 8290, 8316, 8214, 8369, 8348, 8327, 8333, 8345, 8292,1.4406709671020508
2, 8307, 8225, 8250, 8282, 8304, 8287, 8316, 8213, 8364, 8345, 8321, 8316, 8337, 8281,1.4561402797698975
3, 8317, 8232, 8276, 8288, 8313, 8292, 8318, 8213, 8365, 8329, 8314, 8326, 8330, 8270,1.4561402797698975
4, 8325, 8254, 8281, 8319, 8328, 8299, 8324, 8222, 8379, 8331, 8329, 8335, 8344, 8278,1.4716763496398926
5, 8318, 8250, 8270, 8304, 8314, 8286, 8303, 8209, 8356, 8316, 8321, 8325, 8327, 8270,1.4716763496398926
6, 8325, 8256, 8287, 8300, 8322, 8291, 8311, 8201, 8345, 8315, 8313, 8329, 8320, 8268,1.4871587753295898
7, 8370, 8303, 8318, 8374, 8382, 8331, 8375, 8230, 8393, 8368, 8360, 8362, 8376, 8314,1.4871587753295898
8, 8408, 8339, 8365, 8412, 8421, 8354, 8408, 8254, 8419, 8397, 8404, 8407, 8412, 8354,1.5031280517578125
9, 8403, 8335, 8362, 8409, 8412, 8347, 8406, 8244, 8411, 8405, 8414, 8402, 8409, 8344,1.5031280517578125
10, 8394, 8330, 8356, 8409, 8399, 8337, 8396, 8225, 8402, 8404, 8407, 8392, 8398, 8333,1.5192291736602783
11, 8394, 8330, 8355, 8392, 8406, 8340, 8388, 8232, 8400, 8380, 8389, 8392, 8386, 8334,1.5192291736602783
12, 8379, 8315, 8328, 8382, 8417, 8339, 8386, 8231, 8400, 8369, 8379, 8372, 8372, 8318,1.535128116607666
13, 8369, 8310, 8346, 8401, 8413, 8339, 8389, 8219, 8398, 8390, 8382, 8386, 8364, 8311,1.535128116607666
14, 8368, 8305, 8342, 8407, 8399, 8339, 8394, 8226, 8396, 8402, 8373, 8383, 8360, 8318,1.5506396293640137
15, 8356, 8281, 8322, 8365, 8383, 8326, 8385, 8225, 8378, 8380, 8362, 8364, 8346, 8316,1.5506396293640137
16, 8345, 8276, 8323, 8347, 8378, 8325, 8380, 8220, 8369, 8376, 8373, 8373, 8347, 8306,1.5658893585205078
17, 8344, 8279, 8308, 8367, 8379, 8323, 8378, 8221, 8379, 8390, 8365, 8364, 8346, 8303,1.5658893585205078
18, 8346, 8273, 8318, 8360, 8375, 8320, 8371, 8217, 8383, 8380, 8335, 8351, 8329, 8302,1.581315517425537
19, 8337, 8271, 8298, 8345, 8376, 8331, 8382, 8216, 8388, 8376, 8328, 8330, 8329, 8285,1.581315517425537
20, 8325, 8269, 8279, 8336, 8372, 8333, 8384, 8216, 8379, 8371, 8323, 8327, 8329, 8279,1.5970535278320312
21, 8322, 8268, 8298, 8342, 8364, 8327, 8374, 8221, 8370, 8362, 8317, 8335, 8322, 8290,1.5970535278320312
22, 8326, 8263, 8278, 8351, 8369, 8322, 8373, 8222, 8377, 8368, 8323, 8318, 8328, 8284,1.6129522323608398
23, 8319, 8256, 8273, 8341, 8366, 8320, 8365, 8222, 8363, 8362, 8308, 8322, 8329, 8272,1.6129522323608398
24, 8301, 8242, 8269, 8336, 8351, 8316, 8357, 8219, 8351, 8349, 8289, 8323, 8323, 8267,1.6284971237182617
25, 8305, 8231, 8255, 8331, 8343, 8300, 8353, 8208, 8363, 8341, 8295, 8323, 8327, 8271,1.6284971237182617
26, 8314, 8234, 8265, 8312, 8338, 8288, 8347, 8217, 8368, 8340, 8301, 8332, 8334, 8275,1.6441326141357422
27, 8309, 8226, 8247, 8307, 8325, 8293, 8353, 8235, 8367, 8355, 8284, 8315, 8333, 8268,1.6441326141357422
28, 8311, 8224, 8251, 8308, 8322, 8296, 8358, 8234, 8369, 8355, 8272, 8323, 8329, 8271,1.6592533588409424
29, 8313, 8235, 8252, 8303, 8329, 8286, 8355, 8228, 8377, 8343, 8283, 8328, 8327, 8272,1.6748197078704834
30, 8316, 8230, 8238, 8294, 8319, 8276, 8336, 8219, 8369, 8335, 8288, 8320, 8326, 8258,1.6748197078704834
31, 8319, 8218, 8251, 8287, 8302, 8280, 8318, 8212, 8351, 8328, 8284, 8333, 8327, 8257,1.6748197078704834
32, 8315, 8215, 8243, 8288, 8306, 8280, 8310, 8208, 8351, 8326, 8285, 8330, 8332, 8263,1.6905324459075928
33, 8314, 8218, 8247, 8274, 8306, 8263, 8287, 8194, 8338, 8307, 8281, 8325, 8314, 8252,1.706150770187378
34, 8307, 8227, 8249, 8270, 8293, 8250, 8268, 8185, 8318, 8289, 8267, 8314, 8295, 8233,1.706150770187378
35, 8295, 8233, 8247, 8283, 8290, 8248, 8262, 8182, 8308, 8287, 8266, 8306, 8294, 8225,1.721679449081421
36, 8297, 8238, 8272, 8286, 8298, 8254, 8256, 8180, 8295, 8278, 8272, 8320, 8285, 8229,1.721679449081421
37, 8296, 8240, 8262, 8295, 8309, 8263, 8261, 8182, 8291, 8273, 8267, 8303, 8274, 8227,1.7368896007537842
38, 8286, 8238, 8268, 8298, 8302, 8265, 8260, 8181, 8294, 8280, 8265, 8296, 8278, 8219,1.7368896007537842
39, 8285, 8238, 8281, 8294, 8293, 8269, 8265, 8183, 8297, 8291, 8278, 8307, 8288, 8211,1.7526161670684814
40, 8286, 8242, 8266, 8293, 8304, 8272, 8278, 8180, 8295, 8294, 8282, 8300, 8287, 8214,1.7526161670684814
41, 8275, 8236, 8278, 8291, 8303, 8274, 8273, 8176, 8282, 8284, 8255, 8298, 8275, 8224,1.7686893939971924
42, 8262, 8221, 8260, 8288, 8289, 8278, 8266, 8175, 8279, 8285, 8232, 8280, 8269, 8214,1.7686893939971924
43, 8258, 8216, 8249, 8276, 8285, 8268, 8266, 8171, 8276, 8280, 8230, 8272, 8263, 8205,1.7840576171875
44, 8251, 8227, 8259, 8272, 8295, 8260, 8262, 8179, 8276, 8275, 8233, 8274, 8264, 8206,1.7840576171875
45, 8251, 8227, 8247, 8277, 8293, 8267, 8264, 8188, 8287, 8287, 8240, 8267, 8273, 8213,1.7993154525756836
46, 8258, 8218, 8257, 8265, 8275, 8269, 8266, 8188, 8281, 8286, 8234, 8276, 8267, 8221,1.7993154525756836
47, 8241, 8205, 8234, 8248, 8262, 8258, 8263, 8183, 8265, 8273, 8210, 8263, 8255, 8208,1.8151535987854004
48, 8223, 8197, 8216, 8238, 8264, 8252, 8255, 8173, 8260, 8267, 8195, 8254, 8247, 8195,1.8151535987854004
49, 8235, 8208, 8235, 8252, 8279, 8265, 8262, 8178, 8275, 8273, 8202, 8260, 8246, 8204,1.830033779144287
50, 8241, 8211, 8230, 8260, 8280, 8268, 8273, 8189, 8280, 8275, 8203, 8248, 8249, 8208,1.830033779144287
51, 8227, 8200, 8232, 8236, 8267, 8261, 8259, 8189, 8266, 8268, 8192, 8252, 8244, 8205,1.8456993103027344
52, 8226, 8204, 8224, 8244, 8266, 8265, 8252, 8196, 8278, 8278, 8197, 8252, 8244, 8200,1.8456993103027344
53, 8234, 8216, 8229, 8264, 8266, 8264, 8252, 8188, 8278, 8275, 8202, 8256, 8233, 8196,1.8613543510437012
54, 8230, 8222, 8240, 8249, 8259, 8254, 8255, 8186, 8257, 8267, 8197, 8264, 8231, 8197,1.8613543510437012
55, 8224, 8210, 8217, 8239, 8259, 8244, 8256, 8192, 8265, 8276, 8200, 8252, 8246, 8201,1.8773863315582275
56, 8221, 8199, 8226, 8235, 8247, 8237, 8238, 8184, 8265, 8267, 8196, 8256, 8237, 8200,1.8773863315582275
57, 8213, 8199, 8219, 8226, 8237, 8240, 8238, 8182, 8253, 8255, 8190, 8253, 8228, 8189,1.8931257724761963
58, 8222, 8207, 8220, 8231, 8254, 8247, 8256, 8191, 8260, 8260, 8205, 8258, 8240, 8192,1.8931257724761963
59, 8239, 8221, 8257, 8250, 8269, 8249, 8257, 8196, 8268, 8253, 8217, 8276, 8247, 8206,1.9087681770324707
60, 8231, 8213, 8238, 8257, 8257, 8242, 8250, 8191, 8265, 8253, 8205, 8261, 8244, 8195,1.9087681770324707
61, 8217, 8196, 8224, 8237, 8241, 8237, 8248, 8190, 8255, 8260, 8185, 8256, 8234, 8190,1.9268970489501953
62, 8212, 8194, 8228, 8226, 8246, 8245, 8247, 8194, 8254, 8259, 8186, 8249, 8230, 8186,1.9268970489501953
63, 8219, 8203, 8231, 8230, 8250, 8242, 8231, 8186, 8249, 8248, 8209, 8244, 8235, 8171,1.9407267570495605
64, 8235, 8213, 8256, 8239, 8250, 8235, 8220, 8183, 8243, 8245, 8219, 8266, 8238, 8172,1.9407267570495605
65, 8240, 8220, 8251, 8252, 8258, 8238, 8231, 8180, 8250, 8256, 8207, 8258, 8236, 8181,1.9566051959991455
66, 8231, 8225, 8251, 8243, 8257, 8243, 8223, 8168, 8233, 8244, 8194, 8249, 8221, 8178,1.9566051959991455
67, 8225, 8221, 8245, 8240, 8259, 8247, 8220, 8172, 8219, 8230, 8199, 8245, 8213, 8168,1.971949815750122
68, 8227, 8220, 8233, 8248, 8265, 8244, 8229, 8181, 8233, 8241, 8196, 8240, 8221, 8171,1.971949815750122
69, 8220, 8223, 8244, 8234, 8255, 8247, 8217, 8182, 8233, 8248, 8184, 8247, 8219, 8182,1.9872310161590576
70, 8220, 8216, 8231, 8229, 8254, 8248, 8219, 8181, 8229, 8246, 8196, 8243, 8219, 8179,1.9872310161590576
71, 8229, 8221, 8245, 8243, 8267, 8242, 8235, 8180, 8226, 8229, 8205, 8254, 8223, 8175,2.0092666149139404
72, 8224, 8234, 8254, 8250, 8263, 8254, 8243, 8185, 8234, 8230, 8187, 8254, 8221, 8177,2.0092666149139404
73, 8218, 8220, 8238, 8241, 8250, 8270, 8242, 8186, 8246, 8253, 8179, 8238, 8218, 8180,2.0092666149139404
74, 8213, 8207, 8248, 8226, 8244, 8269, 8232, 8181, 8233, 8240, 8176, 8238, 8214, 8178,2.0198068618774414
75, 8196, 8208, 8224, 8221, 8241, 8258, 8226, 8174, 8220, 8219, 8168, 8222, 8215, 8167,2.0350453853607178
76, 8187, 8201, 8218, 8211, 8230, 8249, 8220, 8169, 8219, 8220, 8170, 8221, 8217, 8166,2.0350453853607178
77, 8198, 8203, 8235, 8220, 8235, 8259, 8225, 8184, 8226, 8229, 8175, 8230, 8222, 8174,2.05066180229187
78, 8213, 8207, 8230, 8240, 8243, 8263, 8226, 8186, 8231, 8229, 8179, 8229, 8228, 8181,2.05066180229187
79, 8220, 8197, 8237, 8217, 8229, 8244, 8215, 8181, 8237, 8233, 8185, 8249, 8232, 8187,2.065997838973999
80, 8216, 8197, 8220, 8201, 8218, 8235, 8220, 8193, 8252, 8253, 8203, 8254, 8255, 8187,2.065997838973999
81, 8221, 8205, 8221, 8208, 8223, 8239, 8212, 8189, 8244, 8237, 8209, 8260, 8258, 8185,2.0810935497283936
82, 8228, 8203, 8237, 8203, 8228, 8234, 8193, 8185, 8221, 8206, 8198, 8264, 8239, 8181,2.0810935497283936
83, 8228, 8207, 8229, 8206, 8228, 8213, 8186, 8185, 8211, 8208, 8204, 8258, 8240, 8175,2.0966901779174805
84, 8226, 8229, 8253, 8218, 8226, 8211, 8183, 8178, 8204, 8221, 8215, 8270, 8240, 8171,2.0966901779174805
85, 8211, 8229, 8247, 8226, 8236, 8234, 8183, 8168, 8204, 8223, 8206, 8252, 8226, 8153,2.1118967533111572
86, 8192, 8205, 8240, 8220, 8237, 8243, 8187, 8162, 8198, 8214, 8190, 8238, 8217, 8148,2.1118967533111572
87, 8196, 8206, 8254, 8229, 8226, 8252, 8207, 8178, 8210, 8227, 8198, 8253, 8231, 8172,2.126621961593628
88, 8216, 8207, 8237, 8237, 8214, 8249, 8214, 8191, 8244, 8249, 8213, 8265, 8248, 8185,2.126621961593628
89, 8227, 8197, 8246, 8208, 8204, 8227, 8193, 8194, 8243, 8230, 8213, 8294, 8257, 8183,2.142158031463623
90, 8233, 8217, 8255, 8216, 8207, 8223, 8193, 8194, 8231, 8215, 8228, 8304, 8270, 8179,2.142158031463623
91, 8238, 8238, 8271, 8254, 8217, 8237, 8203, 8181, 8226, 8217, 8249, 8302, 8256, 8177,2.1576499938964844
92, 8228, 8232, 8288, 8269, 8222, 8243, 8203, 8179, 8210, 8216, 8242, 8295, 8224, 8171,2.1576499938964844
93, 8216, 8231, 8273, 8283, 8222, 8243, 8207, 8182, 8202, 8217, 8237, 8279, 8224, 8163,2.1736841201782227
94, 8232, 8246, 8298, 8306, 8217, 8247, 8203, 8181, 8205, 8203, 8247, 8300, 8241, 8172,2.1736841201782227
95, 8245, 8237, 8301, 8315, 8210, 8252, 8198, 8178, 8215, 8192, 8246, 8297, 8240, 8178,2.189617156982422
96, 8229, 8214, 8274, 8302, 8198, 8244, 8198, 8164, 8205, 8187, 8221, 8270, 8215, 8163,2.189617156982422
97, 8221, 8217, 8279, 8302, 8194, 8235, 8197, 8162, 8184, 8179, 8206, 8278, 8197, 8156,2.20481014251709
98, 8237, 8222, 8279, 8322, 8206, 8242, 8207, 8178, 8195, 8188, 8231, 8288, 8215, 8170,2.20481014251709
99, 8241, 8215, 8291, 8319, 8207, 8248, 8213, 8185, 8206, 8200, 8243, 8300, 8228, 8184,2.2202136516571045
100, 8225, 8199, 8270, 8310, 8194, 8243, 8206, 8177, 8198, 8193, 8216, 8286, 8212, 8167,2.2202136516571045
101, 8220, 8179, 8238, 8296, 8183, 8233, 8191, 8173, 8193, 8184, 8201, 8269, 8199, 8152,2.235792875289917
102, 8225, 8181, 8253, 8278, 8176, 8231, 8191, 8181, 8199, 8188, 8214, 8284, 8207, 8165,2.235792875289917
103, 8221, 8184, 8242, 8274, 8174, 8228, 8201, 8183, 8216, 8188, 8224, 8283, 8223, 8173,2.251366376876831
104, 8221, 8168, 8236, 8263, 8170, 8212, 8175, 8175, 8197, 8164, 8217, 8284, 8215, 8165,2.251366376876831
105, 8227, 8174, 8236, 8264, 8166, 8198, 8143, 8174, 8158, 8147, 8212, 8284, 8202, 8148,2.2667150497436523
106, 8234, 8205, 8245, 8279, 8171, 8190, 8145, 8165, 8148, 8144, 8219, 8289, 8207, 8148,2.2667150497436523
107, 8233, 8220, 8271, 8280, 8178, 8197, 8156, 8163, 8159, 8135, 8219, 8298, 8199, 8157,2.2818541526794434
108, 8217, 8211, 8243, 8281, 8187, 8212, 8166, 8177, 8171, 8147, 8211, 8272, 8189, 8146,2.2969954013824463
109, 8205, 8208, 8231, 8268, 8180, 8215, 8171, 8174, 8167, 8158, 8200, 8251, 8176, 8133,2.2969954013824463
110, 8194, 8202, 8228, 8246, 8169, 8211, 8175, 8160, 8157, 8145, 8183, 8225, 8161, 8118,2.312155246734619
111, 8182, 8192, 8207, 8247, 8180, 8203, 8167, 8148, 8147, 8143, 8168, 8202, 8160, 8111,2.312155246734619
112, 8182, 8201, 8221, 8257, 8175, 8199, 8150, 8146, 8138, 8158, 8155, 8211, 8160, 8115,2.3288848400115967
113, 8189, 8198, 8211, 8254, 8154, 8200, 8157, 8163, 8154, 8171, 8148, 8200, 8158, 8121,2.3288848400115967
114, 8198, 8180, 8209, 8236, 8164, 8204, 8166, 8180, 8169, 8163, 8141, 8195, 8157, 8135,2.3288848400115967
115, 8193, 8183, 8206, 8223, 8183, 8219, 8176, 8184, 8176, 8161, 8142, 8195, 8160, 8135,2.3449649810791016
116, 8176, 8181, 8175, 8209, 8174, 8226, 8189, 8169, 8175, 8168, 8143, 8181, 8164, 8117,2.3449649810791016
117, 8171, 8170, 8183, 8188, 8165, 8224, 8189, 8169, 8161, 8156, 8129, 8186, 8157, 8118,2.3596293926239014
118, 8174, 8175, 8179, 8194, 8175, 8219, 8194, 8181, 8168, 8140, 8113, 8172, 8155, 8128,2.375699043273926
119, 8186, 8187, 8184, 8199, 8173, 8214, 8196, 8173, 8177, 8135, 8113, 8173, 8163, 8131,2.375699043273926
120, 8188, 8188, 8183, 8182, 8169, 8227, 8198, 8178, 8184, 8158, 8130, 8190, 8178, 8130,2.392087459564209
121, 8165, 8172, 8150, 8173, 8180, 8233, 8199, 8189, 8187, 8160, 8123, 8164, 8164, 8112,2.392087459564209
122, 8151, 8173, 8160, 8171, 8187, 8228, 8197, 8191, 8189, 8133, 8093, 8150, 8135, 8098,2.392087459564209
123, 8161, 8180, 8156, 8167, 8183, 8238, 8214, 8201, 8216, 8159, 8098, 8148, 8150, 8108,2.4066953659057617
124, 8160, 8167, 8138, 8134, 8165, 8234, 8216, 8198, 8217, 8174, 8110, 8141, 8167, 8109,2.422074556350708
125, 8146, 8160, 8134, 8112, 8161, 8215, 8206, 8191, 8194, 8143, 8093, 8133, 8154, 8091,2.422074556350708
126, 8151, 8168, 8125, 8125, 8168, 8211, 8205, 8193, 8205, 8145, 8085, 8130, 8145, 8090,2.437257766723633
127, 8161, 8166, 8141, 8116, 8159, 8215, 8205, 8193, 8222, 8157, 8089, 8141, 8152, 8110,2.437257766723633
237, 8164, 8164, 8142, 8110, 8161, 8225, 8218, 8197, 8230, 8156, 8103, 8143, 8174, 8115,2.4529261589050293
0, 8175, 8179, 8152, 8129, 8174, 8238, 8214, 8198, 8229, 8164, 8125, 8158, 8183, 8113,2.4529261589050293
1, 8177, 8186, 8163, 8135, 8174, 8231, 8192, 8203, 8228, 8183, 8127, 8161, 8175, 8116,2.468149185180664
2, 8166, 8179, 8144, 8133, 8166, 8210, 8194, 8203, 8236, 8190, 8126, 8151, 8177, 8116,2.468149185180664
3, 8163, 8175, 8161, 8128, 8159, 8205, 8195, 8192, 8224, 8164, 8138, 8176, 8173, 8111,2.483689308166504
4, 8160, 8166, 8152, 8112, 8158, 8209, 8189, 8186, 8210, 8150, 8139, 8163, 8162, 8094,2.483689308166504
5, 8157, 8160, 8133, 8098, 8156, 8198, 8186, 8181, 8206, 8156, 8123, 8135, 8152, 8080,2.4992787837982178
6, 8161, 8183, 8161, 8119, 8163, 8203, 8186, 8184, 8208, 8152, 8122, 8154, 8146, 8083,2.4992787837982178
7, 8170, 8213, 8175, 8158, 8187, 8219, 8197, 8189, 8222, 8164, 8156, 8172, 8160, 8094,2.514923095703125
8, 8184, 8221, 8201, 8159, 8190, 8220, 8198, 8188, 8218, 8176, 8175, 8188, 8173, 8115,2.514923095703125
9, 8180, 8212, 8194, 8148, 8177, 8223, 8196, 8183, 8199, 8162, 8150, 8167, 8161, 8120,2.5301742553710938
10, 8166, 8202, 8171, 8146, 8173, 8221, 8191, 8169, 8189, 8147, 8131, 8136, 8139, 8098,2.5301742553710938
11, 8161, 8207, 8189, 8146, 8173, 8212, 8189, 8171, 8193, 8162, 8147, 8146, 8130, 8091,2.5457518100738525
12, 8159, 8204, 8179, 8154, 8169, 8223, 8198, 8185, 8200, 8184, 8149, 8147, 8136, 8100,2.5457518100738525
13, 8156, 8185, 8162, 8133, 8163, 8246, 8209, 8189, 8204, 8184, 8118, 8142, 8134, 8106,2.5615415573120117
14, 8155, 8176, 8139, 8115, 8159, 8243, 8218, 8197, 8214, 8186, 8103, 8128, 8133, 8103,2.5615415573120117
15, 8152, 8178, 8140, 8125, 8147, 8213, 8209, 8190, 8206, 8174, 8108, 8118, 8125, 8097,2.577655553817749
16, 8147, 8174, 8169, 8121, 8146, 8202, 8198, 8181, 8186, 8153, 8112, 8132, 8124, 8095,2.577655553817749
17, 8158, 8174, 8151, 8113, 8174, 8210, 8194, 8185, 8193, 8155, 8127, 8131, 8153, 8089,2.592806100845337
18, 8169, 8185, 8154, 8112, 8181, 8206, 8171, 8177, 8187, 8141, 8130, 8138, 8159, 8086,2.592806100845337
19, 8162, 8191, 8159, 8115, 8157, 8200, 8167, 8174, 8178, 8124, 8112, 8140, 8148, 8083,2.607977867126465
20, 8159, 8191, 8149, 8113, 8157, 8195, 8181, 8174, 8183, 8124, 8117, 8136, 8149, 8074,2.607977867126465
21, 8162, 8211, 8181, 8126, 8181, 8206, 8176, 8168, 8170, 8125, 8135, 8144, 8139, 8072,2.6237049102783203
22, 8160, 8223, 8188, 8145, 8186, 8224, 8184, 8170, 8171, 8149, 8151, 8139, 8139, 8078,2.6237049102783203
23, 8161, 8208, 8186, 8135, 8180, 8215, 8185, 8170, 8178, 8160, 8154, 8143, 8144, 8079,2.63866925239563
24, 8157, 8200, 8183, 8134, 8186, 8206, 8163, 8168, 8167, 8140, 8138, 8134, 8128, 8069,2.63866925239563
25, 8148, 8203, 8175, 8147, 8186, 8216, 8161, 8165, 8162, 8144, 8126, 8116, 8122, 8073,2.6538233757019043
26, 8155, 8207, 8195, 8144, 8170, 8223, 8174, 8178, 8177, 8163, 8134, 8139, 8141, 8094,2.6538233757019043
27, 8151, 8195, 8171, 8143, 8157, 8214, 8173, 8186, 8193, 8161, 8138, 8138, 8146, 8093,2.669029474258423
28, 8133, 8171, 8160, 8129, 8150, 8206, 8161, 8177, 8187, 8152, 8116, 8123, 8126, 8083,2.669029474258423
29, 8138, 8173, 8176, 8119, 8154, 8221, 8179, 8190, 8200, 8173, 8107, 8127, 8131, 8088,2.6846375465393066
30, 8153, 8189, 8169, 8145, 8155, 8233, 8205, 8205, 8221, 8197, 8123, 8130, 8148, 8092,2.68501353263855
31, 8152, 8191, 8181, 8151, 8146, 8233, 8205, 8196, 8200, 8183, 8128, 8140, 8143, 8100,2.699739933013916
32, 8152, 8183, 8172, 8134, 8153, 8230, 8208, 8192, 8192, 8176, 8127, 8135, 8142, 8104,2.699739933013916
33, 8164, 8183, 8172, 8129, 8160, 8217, 8204, 8197, 8212, 8184, 8129, 8153, 8146, 8112,2.7156147956848145
34, 8163, 8187, 8180, 8138, 8149, 8205, 8185, 8199, 8219, 8180, 8130, 8166, 8142, 8121,2.7156147956848145
35, 8156, 8178, 8160, 8138, 8145, 8205, 8173, 8188, 8209, 8167, 8132, 8150, 8138, 8106,2.7306971549987793
36, 8156, 8170, 8166, 8116, 8146, 8214, 8173, 8181, 8190, 8154, 8133, 8157, 8140, 8091,2.7306971549987793
37, 8154, 8173, 8150, 8113, 8140, 8214, 8176, 8182, 8188, 8152, 8135, 8150, 8147, 8093,2.747070074081421
38, 8162, 8177, 8152, 8133, 8143, 8202, 8163, 8175, 8196, 8150, 8138, 8157, 8145, 8101,2.7616374492645264
39, 8174, 8179, 8174, 8140, 8148, 8201, 8155, 8185, 8191, 8147, 8136, 8175, 8141, 8095,2.7616374492645264
40, 8169, 8172, 8152, 8124, 8131, 8194, 8155, 8194, 8180, 8149, 8135, 8152, 8147, 8083,2.778170347213745
41, 8164, 8171, 8157, 8109, 8113, 8177, 8142, 8183, 8175, 8146, 8137, 8150, 8146, 8090,2.778170347213745
42, 8167, 8190, 8165, 8131, 8135, 8185, 8150, 8186, 8185, 8154, 8145, 8162, 8147, 8093,2.778170347213745
43, 8169, 8198, 8162, 8140, 8151, 8198, 8162, 8187, 8179, 8154, 8150, 8160, 8144, 8089,2.7939207553863525
44, 8167, 8188, 8165, 8116, 8141, 8184, 8156, 8180, 8166, 8138, 8149, 8158, 8142, 8088,2.794956922531128
45, 8165, 8177, 8146, 8114, 8141, 8175, 8150, 8170, 8166, 8145, 8158, 8153, 8156, 8084,2.808974504470825
46, 8175, 8189, 8168, 8132, 8147, 8179, 8144, 8167, 8153, 8143, 8167, 8168, 8154, 8088,2.824131965637207
47, 8191, 8211, 8185, 8152, 8148, 8185, 8150, 8178, 8149, 8133, 8169, 8171, 8146, 8092,2.824131965637207
48, 8195, 8211, 8181, 8157, 8151, 8189, 8154, 8171, 8146, 8132, 8161, 8165, 8142, 8086,2.8400826454162598
49, 8184, 8206, 8192, 8152, 8149, 8193, 8143, 8162, 8127, 8131, 8157, 8166, 8127, 8080,2.8400826454162598
50, 8171, 8204, 8180, 8156, 8149, 8186, 8146, 8164, 8129, 8132, 8164, 8149, 8124, 8081,2.855762004852295
51, 8178, 8209, 8196, 8157, 8160, 8179, 8150, 8166, 8140, 8135, 8163, 8154, 8130, 8093,2.855762004852295
52, 8183, 8215, 8203, 8167, 8176, 8187, 8153, 8170, 8147, 8153, 8165, 8155, 8131, 8095,2.8708250522613525
53, 8172, 8210, 8194, 8172, 8170, 8191, 8159, 8171, 8148, 8164, 8165, 8149, 8129, 8089,2.8708250522613525
54, 8162, 8201, 8206, 8157, 8162, 8194, 8163, 8175, 8137, 8151, 8156, 8152, 8122, 8086,2.8865251541137695
55, 8158, 8194, 8188, 8156, 8164, 8202, 8162, 8173, 8139, 8147, 8155, 8135, 8118, 8084,2.8865251541137695
56, 8168, 8201, 8203, 8166, 8161, 8205, 8166, 8167, 8150, 8149, 8164, 8151, 8128, 8099,2.901675224304199
57, 8161, 8194, 8204, 8158, 8153, 8199, 8168, 8170, 8146, 8142, 8157, 8156, 8121, 8093,2.901675224304199
58, 8148, 8183, 8180, 8160, 8158, 8200, 8163, 8169, 8146, 8142, 8147, 8139, 8110, 8081,2.9166791439056396
59, 8210, 8240, 8244, 8216, 8206, 8253, 8214, 8206, 8212, 8205, 8205, 8210, 8182, 8152,2.9166791439056396
60, 8303, 8307, 8305, 8283, 8274, 8312, 8311, 8271, 8323, 8304, 8301, 8297, 8299, 8249,2.9321773052215576
61, 8321, 8312, 8310, 8292, 8293, 8312, 8334, 8282, 8353, 8332, 8332, 8321, 8331, 8273,2.9321773052215576
62, 8297, 8299, 8289, 8286, 8288, 8296, 8309, 8253, 8326, 8312, 8312, 8300, 8314, 8259,2.9473390579223633
63, 8312, 8302, 8292, 8298, 8297, 8299, 8311, 8248, 8325, 8314, 8324, 8301, 8335, 8260,2.9473390579223633
64, 8327, 8303, 8312, 8290, 8296, 8296, 8313, 8255, 8327, 8317, 8346, 8327, 8340, 8254,2.9626288414001465
65, 8303, 8306, 8285, 8292, 8298, 8289, 8306, 8244, 8321, 8313, 8336, 8308, 8311, 8234,2.9626288414001465
66, 8287, 8314, 8292, 8305, 8306, 8286, 8298, 8221, 8304, 8292, 8315, 8291, 8287, 8230,2.977801561355591
67, 8287, 8312, 8311, 8307, 8294, 8287, 8293, 8216, 8286, 8272, 8297, 8289, 8275, 8220,2.977801561355591
68, 8284, 8300, 8289, 8305, 8286, 8288, 8294, 8215, 8288, 8279, 8296, 8275, 8266, 8208,2.9939892292022705
69, 8273, 8293, 8292, 8296, 8284, 8281, 8289, 8209, 8275, 8275, 8286, 8268, 8255, 8215,2.9939892292022705
70, 8270, 8284, 8284, 8300, 8276, 8279, 8293, 8204, 8262, 8268, 8268, 8253, 8257, 8220,3.0092451572418213
71, 8284, 8272, 8280, 8298, 8270, 8277, 8296, 8201, 8272, 8283, 8267, 8259, 8272, 8226,3.0092451572418213
72, 8286, 8271, 8282, 8287, 8275, 8276, 8293, 8218, 8302, 8307, 8275, 8271, 8283, 8238,3.025017261505127
73, 8284, 8273, 8261, 8282, 8278, 8275, 8295, 8229, 8325, 8312, 8279, 8268, 8284, 8233,3.025017261505127
74, 8289, 8269, 8268, 8264, 8269, 8272, 8290, 8223, 8316, 8301, 8279, 8281, 8282, 8225,3.0402896404266357
75, 8284, 8261, 8255, 8251, 8264, 8264, 8286, 8224, 8319, 8310, 8289, 8280, 8301, 8229,3.0402896404266357
76, 8287, 8259, 8254, 8251, 8260, 8244, 8270, 8219, 8316, 8301, 8298, 8287, 8304, 8232,3.0556631088256836
77, 8302, 8265, 8269, 8252, 8254, 8236, 8250, 8209, 8287, 8262, 8299, 8299, 8283, 8219,3.0556631088256836
78, 8294, 8263, 8249, 8247, 8247, 8238, 8244, 8194, 8261, 8244, 8305, 8285, 8271, 8193,3.070990562438965
79, 8278, 8261, 8259, 8236, 8239, 8240, 8240, 8185, 8248, 8244, 8301, 8285, 8266, 8186,3.070990562438965
80, 8275, 8261, 8255, 8241, 8248, 8242, 8245, 8193, 8254, 8252, 8293, 8277, 8268, 8183,3.0869500637054443
81, 8263, 8259, 8250, 8247, 8255, 8241, 8244, 8189, 8253, 8249, 8295, 8272, 8263, 8177,3.0869500637054443
82, 8248, 8261, 8267, 8240, 8246, 8255, 8244, 8188, 8243, 8239, 8287, 8273, 8245, 8176,3.102537155151367
83, 8248, 8248, 8254, 8235, 8241, 8266, 8256, 8191, 8244, 8249, 8272, 8244, 8242, 8175,3.102537155151367
84, 8257, 8236, 8263, 8237, 8241, 8263, 8258, 8188, 8242, 8256, 8266, 8239, 8246, 8179,3.118450880050659
85, 8252, 8236, 8261, 8248, 8239, 8268, 8263, 8194, 8248, 8262, 8270, 8240, 8246, 8180,3.118450880050659
86, 8240, 8233, 8251, 8248, 8239, 8265, 8264, 8195, 8250, 8262, 8259, 8236, 8240, 8182,3.134023904800415
87, 8240, 8227, 8258, 8242, 8243, 8258, 8259, 8194, 8241, 8254, 8242, 8238, 8229, 8184,3.134023904800415
88, 8243, 8218, 8237, 8250, 8232, 8262, 8261, 8193, 8239, 8252, 8240, 8228, 8225, 8179,3.1496760845184326
89, 8244, 8209, 8243, 8239, 8220, 8258, 8258, 8197, 8241, 8247, 8243, 8240, 8227, 8179,3.1496760845184326
90, 8242, 8210, 8246, 8226, 8229, 8244, 8252, 8213, 8255, 8251, 8254, 8249, 8240, 8182,3.1656553745269775
91, 8243, 8208, 8237, 8219, 8223, 8224, 8231, 8210, 8257, 8246, 8257, 8255, 8245, 8180,3.1656553745269775
92, 8246, 8204, 8250, 8209, 8209, 8209, 8200, 8194, 8229, 8213, 8250, 8270, 8237, 8169,3.181217670440674
93, 8245, 8211, 8243, 8217, 8229, 8213, 8202, 8183, 8213, 8199, 8259, 8257, 8239, 8154,3.181217670440674
94, 8240, 8219, 8258, 8226, 8245, 8228, 8213, 8180, 8209, 8211, 8266, 8252, 8228, 8155,3.196930408477783
95, 8232, 8218, 8262, 8229, 8228, 8235, 8215, 8191, 8215, 8223, 8250, 8240, 8210, 8158,3.196930408477783
96, 8222, 8203, 8238, 8219, 8214, 8239, 8223, 8193, 8221, 8224, 8226, 8217, 8198, 8150,3.211958646774292
97, 8197, 8178, 8226, 8189, 8208, 8246, 8230, 8187, 8222, 8220, 8203, 8204, 8180, 8140,3.2280495166778564
98, 8181, 8167, 8196, 8178, 8197, 8231, 8224, 8191, 8233, 8218, 8200, 8192, 8186, 8135,3.2280495166778564
99, 8207, 8182, 8206, 8177, 8190, 8203, 8205, 8193, 8228, 8204, 8228, 8223, 8210, 8140,3.2280495166778564
100, 8230, 8205, 8231, 8182, 8198, 8209, 8205, 8192, 8218, 8201, 8256, 8250, 8221, 8139,3.2442986965179443
101, 8229, 8223, 8240, 8207, 8211, 8226, 8212, 8186, 8220, 8208, 8263, 8244, 8215, 8135,3.2442986965179443
102, 8223, 8238, 8259, 8226, 8212, 8222, 8196, 8182, 8205, 8192, 8252, 8241, 8197, 8136,3.2600350379943848
103, 8208, 8223, 8234, 8223, 8207, 8216, 8191, 8174, 8183, 8182, 8230, 8211, 8177, 8121,3.2600350379943848
104, 8195, 8197, 8222, 8209, 8201, 8223, 8199, 8167, 8180, 8190, 8210, 8199, 8161, 8118,3.2756741046905518
105, 8193, 8192, 8215, 8202, 8199, 8235, 8205, 8189, 8202, 8206, 8218, 8214, 8177, 8142,3.2756741046905518
106, 8191, 8174, 8185, 8185, 8192, 8217, 8197, 8193, 8208, 8206, 8228, 8207, 8197, 8145,3.2911746501922607
107, 8192, 8166, 8201, 8166, 8181, 8192, 8178, 8180, 8188, 8184, 8215, 8205, 8184, 8126,3.2911746501922607
108, 8205, 8193, 8208, 8187, 8185, 8199, 8178, 8181, 8180, 8176, 8223, 8200, 8180, 8116,3.3070759773254395
109, 8206, 8206, 8207, 8197, 8188, 8208, 8179, 8174, 8170, 8168, 8238, 8197, 8179, 8112,3.3070759773254395
110, 8191, 8193, 8211, 8185, 8191, 8211, 8178, 8168, 8165, 8164, 8226, 8190, 8167, 8106,3.3227005004882812
111, 8179, 8194, 8196, 8197, 8198, 8212, 8175, 8170, 8171, 8179, 8213, 8174, 8158, 8103,3.3227005004882812
112, 8167, 8195, 8197, 8196, 8183, 8211, 8167, 8172, 8163, 8175, 8204, 8173, 8146, 8102,3.337984800338745
113, 8154, 8177, 8175, 8169, 8170, 8220, 8184, 8182, 8175, 8174, 8196, 8161, 8147, 8100,3.353745937347412
114, 8162, 8176, 8174, 8167, 8181, 8235, 8202, 8192, 8198, 8197, 8206, 8170, 8164, 8114,3.353745937347412
115, 8182, 8197, 8202, 8202, 8188, 8238, 8202, 8194, 8197, 8211, 8210, 8186, 8166, 8125,3.3686740398406982
116, 8176, 8187, 8187, 8214, 8176, 8223, 8193, 8174, 8177, 8201, 8196, 8169, 8152, 8110,3.3686740398406982
117, 8155, 8159, 8178, 8174, 8164, 8214, 8173, 8162, 8160, 8184, 8188, 8165, 8147, 8104,3.3847899436950684
118, 8149, 8154, 8168, 8165, 8176, 8224, 8181, 8184, 8179, 8200, 8197, 8165, 8168, 8116,3.3847899436950684
119, 8140, 8136, 8157, 8154, 8167, 8209, 8177, 8176, 8176, 8193, 8180, 8158, 8164, 8106,3.3847899436950684
120, 8138, 8127, 8161, 8130, 8142, 8202, 8160, 8166, 8155, 8168, 8170, 8159, 8153, 8097,3.4004225730895996
121, 8239, 8230, 8237, 8241, 8236, 8297, 8262, 8239, 8259, 8273, 8284, 8245, 8263, 8195,3.417165756225586
122, 8418, 8396, 8407, 8432, 8415, 8429, 8442, 8343, 8439, 8454, 8456, 8419, 8445, 8362,3.417165756225586
123, 8495, 8457, 8460, 8506, 8480, 8465, 8520, 8371, 8518, 8526, 8529, 8480, 8521, 8427,3.417165756225586
124, 8475, 8426, 8420, 8471, 8439, 8424, 8480, 8330, 8491, 8491, 8514, 8456, 8500, 8401,3.430929660797119
125, 8479, 8423, 8433, 8465, 8440, 8407, 8463, 8308, 8473, 8471, 8510, 8481, 8498, 8403,3.4469165802001953
126, 8490, 8431, 8427, 8495, 8467, 8408, 8484, 8307, 8481, 8483, 8522, 8488, 8514, 8410,3.4469165802001953
127, 8485, 8428, 8426, 8490, 8462, 8404, 8478, 8292, 8470, 8474, 8520, 8477, 8506, 8396,3.462958812713623
237, 8484, 8432, 8420, 8476, 8461, 8412, 8475, 8280, 8468, 8467, 8507, 8469, 8499, 8385,3.462958812713623
0, 8479, 8425, 8402, 8466, 8460, 8408, 8473, 8267, 8459, 8460, 8490, 8459, 8490, 8383,3.478517532348633
1, 8472, 8421, 8416, 8459, 8449, 8399, 8462, 8266, 8436, 8449, 8487, 8460, 8482, 8386,3.478517532348633
2, 8468, 8426, 8408, 8472, 8445, 8392, 8451, 8266, 8440, 8448, 8494, 8448, 8490, 8378,3.4940786361694336
3, 8465, 8420, 8409, 8470, 8441, 8380, 8430, 8251, 8442, 8437, 8481, 8449, 8478, 8365,3.4940786361694336
4, 8456, 8417, 8410, 8467, 8445, 8384, 8425, 8250, 8439, 8436, 8476, 8448, 8464, 8360,3.5099217891693115
5, 8452, 8420, 8401, 8484, 8454, 8392, 8429, 8251, 8442, 8444, 8489, 8441, 8470, 8366,3.5099217891693115
6, 8453, 8417, 8402, 8484, 8445, 8387, 8420, 8243, 8430, 8438, 8480, 8444, 8461, 8368,3.5260095596313477
7, 8454, 8411, 8384, 8481, 8441, 8372, 8414, 8237, 8415, 8431, 8469, 8430, 8451, 8353,3.5260095596313477
8, 8466, 8419, 8411, 8493, 8453, 8375, 8418, 8241, 8418, 8437, 8488, 8448, 8465, 8354,3.541649341583252
9, 8477, 8428, 8423, 8507, 8458, 8389, 8431, 8257, 8436, 8461, 8512, 8467, 8490, 8370,3.541649341583252
10, 8474, 8418, 8392, 8495, 8454, 8381, 8430, 8255, 8436, 8463, 8508, 8452, 8487, 8372,3.556807518005371
11, 8465, 8420, 8399, 8483, 8451, 8374, 8420, 8247, 8414, 8437, 8490, 8449, 8464, 8368,3.556807518005371
12, 8459, 8428, 8394, 8495, 8454, 8387, 8431, 8250, 8414, 8434, 8488, 8444, 8460, 8367,3.5728983879089355
13, 8449, 8413, 8384, 8482, 8453, 8391, 8436, 8246, 8410, 8429, 8479, 8440, 8453, 8362,3.5728983879089355
14, 8426, 8385, 8370, 8463, 8447, 8382, 8428, 8245, 8394, 8418, 8455, 8421, 8436, 8346,3.588083505630493
15, 8412, 8363, 8352, 8461, 8431, 8375, 8423, 8237, 8390, 8415, 8439, 8398, 8430, 8333,3.588083505630493
16, 8411, 8362, 8371, 8453, 8416, 8379, 8412, 8228, 8384, 8408, 8434, 8403, 8431, 8334,3.6042258739471436
17, 8401, 8364, 8352, 8444, 8416, 8388, 8410, 8229, 8378, 8406, 8433, 8388, 8431, 8329,3.6042258739471436
18, 8384, 8346, 8337, 8427, 8404, 8376, 8404, 8224, 8371, 8406, 8423, 8384, 8418, 8325,3.61980938911438
19, 8373, 8326, 8340, 8415, 8383, 8362, 8388, 8222, 8363, 8403, 8407, 8385, 8398, 8314,3.61980938911438
20, 8371, 8322, 8322, 8412, 8384, 8368, 8379, 8217, 8356, 8395, 8408, 8372, 8397, 8301,3.6348860263824463
21, 8376, 8328, 8332, 8406, 8394, 8379, 8376, 8213, 8350, 8374, 8413, 8376, 8401, 8308,3.6348860263824463
22, 8367, 8314, 8315, 8404, 8388, 8382, 8379, 8221, 8355, 8375, 8389, 8357, 8390, 8308,3.6502585411071777
23, 8355, 8294, 8302, 8389, 8377, 8368, 8372, 8218, 8351, 8388, 8372, 8352, 8376, 8297,3.6502585411071777
24, 8353, 8293, 8310, 8370, 8376, 8364, 8371, 8225, 8355, 8390, 8394, 8375, 8386, 8304,3.6654348373413086
25, 8343, 8281, 8284, 8354, 8363, 8362, 8371, 8230, 8366, 8384, 8401, 8360, 8392, 8302,3.6654348373413086
26, 8324, 8262, 8278, 8325, 8337, 8340, 8338, 8214, 8335, 8356, 8365, 8336, 8357, 8273,3.681105613708496
27, 8302, 8256, 8266, 8320, 8325, 8325, 8315, 8206, 8310, 8339, 8345, 8316, 8333, 8243,3.681105613708496
28, 8291, 8249, 8257, 8323, 8320, 8323, 8306, 8209, 8315, 8344, 8350, 8314, 8335, 8236,3.69618558883667
29, 8279, 8232, 8255, 8293, 8307, 8319, 8287, 8207, 8313, 8342, 8337, 8311, 8327, 8232,3.69618558883667
30, 8251, 8203, 8220, 8255, 8291, 8299, 8260, 8189, 8288, 8312, 8305, 8280, 8302, 8201,3.711773157119751
31, 8224, 8188, 8211, 8236, 8269, 8275, 8236, 8174, 8253, 8269, 8273, 8264, 8269, 8174,3.711773157119751
32, 8215, 8198, 8207, 8248, 8270, 8280, 8236, 8180, 8248, 8267, 8268, 8259, 8264, 8171,3.7269890308380127
33, 8226, 8192, 8210, 8244, 8273, 8289, 8234, 8187, 8253, 8280, 8278, 8261, 8278, 8179,3.7269890308380127
34, 8222, 8169, 8217, 8218, 8255, 8284, 8221, 8185, 8244, 8269, 8273, 8261, 8269, 8178,3.7430765628814697
35, 8204, 8165, 8196, 8219, 8254, 8274, 8218, 8180, 8248, 8262, 8268, 8244, 8249, 8161,3.7430765628814697
36, 8204, 8171, 8212, 8222, 8253, 8266, 8220, 8184, 8247, 8249, 8267, 8256, 8244, 8155,3.7591183185577393
37, 8213, 8172, 8220, 8229, 8238, 8263, 8219, 8195, 8246, 8243, 8279, 8267, 8260, 8167,3.7591183185577393
38, 8229, 8179, 8227, 8240, 8238, 8260, 8208, 8192, 8248, 8263, 8306, 8279, 8273, 8179,3.7747488021850586
39, 8237, 8184, 8247, 8237, 8240, 8257, 8200, 8190, 8241, 8270, 8316, 8296, 8270, 8175,3.7747488021850586
40, 8228, 8176, 8229, 8242, 8230, 8243, 8202, 8186, 8240, 8253, 8319, 8291, 8271, 8165,3.79067063331604
41, 8229, 8187, 8255, 8264, 8228, 8228, 8188, 8171, 8231, 8237, 8326, 8311, 8269, 8171,3.79067063331604
42, 8247, 8212, 8282, 8279, 8234, 8225, 8178, 8175, 8224, 8231, 8336, 8332, 8268, 8170,3.8066861629486084
43, 8257, 8218, 8272, 8278, 8221, 8217, 8176, 8178, 8221, 8218, 8347, 8342, 8277, 8170,3.8066861629486084
44, 8252, 8220, 8284, 8288, 8208, 8209, 8167, 8169, 8204, 8198, 8351, 8359, 8281, 8177,3.8222479820251465
45, 8248, 8217, 8279, 8301, 8211, 8207, 8155, 8164, 8190, 8193, 8352, 8349, 8277, 8171,3.8222479820251465
46, 8252, 8215, 8291, 8288, 8206, 8207, 8141, 8157, 8176, 8180, 8353, 8353, 8269, 8169,3.83803129196167
47, 8250, 8224, 8295, 8292, 8200, 8214, 8141, 8162, 8174, 8176, 8360, 8350, 8269, 8167,3.83803129196167
48, 8252, 8229, 8283, 8320, 8204, 8216, 8140, 8166, 8177, 8188, 8364, 8335, 8270, 8159,3.852980613708496
49, 8258, 8235, 8301, 8322, 8208, 8222, 8129, 8166, 8172, 8188, 8354, 8346, 8260, 8161,3.852980613708496
50, 8246, 8233, 8280, 8310, 8214, 8225, 8137, 8154, 8163, 8168, 8330, 8322, 8242, 8152,3.868656873703003
51, 8226, 8222, 8265, 8308, 8210, 8213, 8135, 8139, 8132, 8143, 8304, 8293, 8212, 8137,3.868656873703003
52, 8217, 8221, 8268, 8307, 8206, 8216, 8127, 8147, 8122, 8167, 8307, 8291, 8210, 8137,3.8837037086486816
53, 8208, 8214, 8245, 8286, 8208, 8231, 8133, 8156, 8138, 8197, 8313, 8276, 8225, 8138,3.8837037086486816
54, 8196, 8193, 8235, 8256, 8200, 8228, 8128, 8150, 8127, 8169, 8282, 8250, 8196, 8124,3.8990039825439453
55, 8178, 8181, 8206, 8254, 8194, 8225, 8128, 8149, 8120, 8158, 8254, 8217, 8170, 8104,3.8990039825439453
56, 8176, 8181, 8204, 8251, 8197, 8235, 8140, 8164, 8148, 8191, 8251, 8219, 8189, 8115,3.9145967960357666
57, 8182, 8182, 8209, 8234, 8200, 8242, 8152, 8183, 8175, 8208, 8247, 8222, 8199, 8130,3.9145967960357666
58, 8175, 8171, 8188, 8230, 8196, 8228, 8160, 8177, 8169, 8194, 8241, 8201, 8179, 8118,3.9296913146972656
59, 8170, 8159, 8199, 8212, 8184, 8222, 8163, 8174, 8164, 8196, 8243, 8215, 8179, 8120,3.9296913146972656
60, 8174, 8153, 8185, 8188, 8176, 8227, 8168, 8191, 8186, 8221, 8244, 8218, 8204, 8133,3.9449808597564697
61, 8168, 8146, 8168, 8171, 8175, 8212, 8158, 8188, 8194, 8209, 8236, 8206, 8200, 8124,3.9449808597564697
62, 8156, 8143, 8172, 8163, 8175, 8202, 8155, 8185, 8194, 8190, 8233, 8200, 8188, 8114,3.960186719894409
63, 8160, 8139, 8163, 8160, 8167, 8206, 8154, 8188, 8193, 8202, 8231, 8193, 8193, 8124,3.9758048057556152
64, 8164, 8128, 8165, 8128, 8150, 8200, 8139, 8185, 8178, 8192, 8221, 8198, 8179, 8120,3.9758048057556152
65, 8156, 8119, 8147, 8108, 8144, 8186, 8137, 8178, 8180, 8180, 8222, 8188, 8174, 8103,3.9758048057556152
66, 8149, 8117, 8149, 8101, 8145, 8172, 8136, 8168, 8180, 8187, 8222, 8182, 8182, 8105,3.9918630123138428
67, 8130, 8107, 8156, 8083, 8140, 8176, 8126, 8182, 8166, 8179, 8198, 8172, 8164, 8102,4.012057065963745
68, 8129, 8108, 8141, 8095, 8146, 8198, 8136, 8195, 8173, 8169, 8188, 8167, 8158, 8090,4.012057065963745
69, 8152, 8139, 8174, 8127, 8169, 8209, 8139, 8184, 8173, 8162, 8199, 8198, 8168, 8096,4.012057065963745
70, 8139, 8130, 8164, 8111, 8169, 8194, 8131, 8182, 8163, 8159, 8205, 8179, 8156, 8083,4.022659778594971
71, 8109, 8089, 8128, 8061, 8146, 8175, 8128, 8183, 8168, 8156, 8191, 8147, 8140, 8061,4.039260387420654
72, 8125, 8112, 8149, 8079, 8156, 8180, 8132, 8179, 8171, 8151, 8174, 8165, 8145, 8077,4.039260387420654
73, 8140, 8146, 8151, 8120, 8172, 8183, 8134, 8177, 8168, 8149, 8178, 8171, 8149, 8091,4.039260387420654
74, 8126, 8135, 8147, 8089, 8152, 8173, 8129, 8179, 8162, 8138, 8177, 8163, 8132, 8076,4.0539350509643555
75, 8121, 8128, 8136, 8072, 8147, 8174, 8130, 8183, 8169, 8135, 8171, 8153, 8133, 8060,4.069771766662598
76, 8125, 8143, 8130, 8096, 8159, 8171, 8119, 8177, 8165, 8134, 8171, 8155, 8139, 8055,4.069771766662598
77, 8119, 8151, 8151, 8097, 8150, 8170, 8111, 8176, 8152, 8128, 8163, 8162, 8122, 8054,4.0849974155426025
78, 8126, 8154, 8149, 8093, 8150, 8184, 8127, 8178, 8164, 8143, 8164, 8157, 8122, 8061,4.0849974155426025
79, 8137, 8157, 8161, 8097, 8156, 8184, 8123, 8173, 8158, 8137, 8169, 8167, 8128, 8067,4.100208282470703
80, 8126, 8147, 8149, 8090, 8140, 8163, 8107, 8172, 8135, 8117, 8162, 8159, 8119, 8055,4.100208282470703
81, 8130, 8147, 8145, 8085, 8139, 8159, 8108, 8168, 8132, 8126, 8172, 8161, 8124, 8058,4.116196632385254
82, 8159, 8174, 8183, 8101, 8155, 8176, 8113, 8173, 8137, 8144, 8195, 8198, 8149, 8080,4.116196632385254
83, 8157, 8164, 8161, 8101, 8145, 8167, 8108, 8177, 8140, 8134, 8184, 8181, 8147, 8068,4.1319499015808105
84, 8133, 8134, 8145, 8077, 8130, 8153, 8104, 8165, 8131, 8105, 8162, 8159, 8113, 8045,4.1319499015808105
85, 8133, 8151, 8157, 8088, 8143, 8167, 8107, 8165, 8129, 8110, 8173, 8169, 8117, 8054,4.147021532058716
86, 8137, 8163, 8151, 8096, 8136, 8159, 8089, 8167, 8123, 8110, 8172, 8168, 8126, 8056,4.147021532058716
87, 8122, 8148, 8147, 8071, 8112, 8136, 8074, 8157, 8109, 8087, 8149, 8160, 8102, 8034,4.164994478225708
88, 8113, 8159, 8143, 8088, 8136, 8146, 8097, 8153, 8111, 8091, 8143, 8144, 8090, 8020,4.164994478225708
89, 8127, 8185, 8176, 8122, 8163, 8156, 8101, 8149, 8095, 8085, 8148, 8153, 8088, 8029,4.1778647899627686
90, 8128, 8186, 8177, 8121, 8147, 8143, 8088, 8146, 8068, 8057, 8143, 8146, 8073, 8028,4.1778647899627686
91, 8110, 8175, 8145, 8107, 8139, 8140, 8097, 8144, 8069, 8070, 8133, 8120, 8061, 8011,4.193871974945068
92, 8098, 8173, 8162, 8109, 8152, 8158, 8107, 8154, 8087, 8094, 8127, 8128, 8063, 8021,4.193871974945068
93, 8095, 8159, 8155, 8121, 8150, 8175, 8114, 8167, 8097, 8077, 8121, 8123, 8067, 8043,4.2090160846710205
94, 8095, 8131, 8145, 8107, 8126, 8170, 8108, 8159, 8094, 8070, 8104, 8111, 8057, 8042,4.2090160846710205
95, 8090, 8124, 8141, 8088, 8112, 8162, 8101, 8162, 8102, 8114, 8098, 8105, 8063, 8036,4.224528789520264
96, 8094, 8139, 8134, 8103, 8121, 8170, 8112, 8181, 8127, 8150, 8124, 8107, 8090, 8045,4.224528789520264
97, 8111, 8150, 8156, 8117, 8125, 8174, 8114, 8191, 8133, 8138, 8129, 8127, 8096, 8064,4.239983797073364
98, 8119, 8149, 8149, 8121, 8125, 8173, 8117, 8185, 8130, 8137, 8116, 8123, 8091, 8074,4.239983797073364
99, 8113, 8141, 8150, 8110, 8123, 8170, 8119, 8179, 8132, 8146, 8128, 8128, 8097, 8074,4.255066633224487
100, 8113, 8134, 8159, 8095, 8116, 8153, 8098, 8186, 8133, 8128, 8152, 8141, 8104, 8060,4.255066633224487
101, 8119, 8136, 8148, 8098, 8116, 8139, 8073, 8172, 8121, 8098, 8157, 8136, 8103, 8044,4.2711944580078125
102, 8124, 8149, 8168, 8109, 8124, 8151, 8069, 8158, 8100, 8080, 8144, 8138, 8088, 8040,4.2711944580078125
103, 8120, 8158, 8167, 8124, 8130, 8159, 8074, 8163, 8095, 8089, 8143, 8122, 8077, 8029,4.2863969802856445
104, 8115, 8154, 8168, 8121, 8124, 8132, 8058, 8143, 8079, 8075, 8140, 8123, 8076, 8028,4.2863969802856445
105, 8110, 8151, 8179, 8118, 8130, 8142, 8070, 8145, 8076, 8075, 8115, 8127, 8076, 8048,4.302186965942383
106, 8110, 8144, 8161, 8131, 8143, 8180, 8115, 8171, 8110, 8123, 8106, 8107, 8085, 8060,4.302186965942383
107, 8103, 8124, 8164, 8113, 8128, 8168, 8112, 8163, 8109, 8123, 8111, 8113, 8079, 8056,4.3176610469818115
108, 8090, 8093, 8145, 8084, 8109, 8143, 8083, 8150, 8097, 8092, 8095, 8101, 8063, 8040,4.3176610469818115
109, 8100, 8086, 8134, 8082, 8112, 8140, 8074, 8166, 8118, 8098, 8078, 8091, 8068, 8037,4.333742618560791
110, 8106, 8114, 8149, 8085, 8123, 8144, 8080, 8185, 8141, 8107, 8088, 8109, 8081, 8040,4.333742618560791
111, 8090, 8123, 8125, 8069, 8119, 8134, 8073, 8174, 8128, 8088, 8096, 8106, 8077, 8027,4.349693775177002
112, 8089, 8110, 8127, 8041, 8093, 8124, 8065, 8163, 8100, 8058, 8090, 8105, 8065, 8018,4.349693775177002
113, 8095, 8112, 8129, 8042, 8087, 8125, 8081, 8175, 8106, 8057, 8088, 8098, 8067, 8018,4.364851713180542
114, 8079, 8114, 8120, 8057, 8108, 8127, 8082, 8170, 8109, 8059, 8087, 8074, 8056, 8006,4.364851713180542
115, 8060, 8116, 8134, 8059, 8112, 8138, 8072, 8157, 8096, 8059, 8087, 8060, 8038, 7997,4.380857944488525
116, 8063, 8121, 8134, 8076, 8103, 8140, 8079, 8156, 8105, 8079, 8096, 8058, 8043, 8003,4.380857944488525
117, 8066, 8119, 8144, 8093, 8104, 8137, 8082, 8152, 8095, 8072, 8082, 8070, 8038, 8011,4.3967108726501465
118, 8061, 8120, 8135, 8102, 8117, 8152, 8091, 8159, 8080, 8059, 8068, 8069, 8033, 8015,4.3967108726501465
119, 8079, 8126, 8138, 8100, 8123, 8155, 8109, 8167, 8096, 8087, 8095, 8081, 8056, 8035,4.412804126739502
120, 8095, 8132, 8165, 8104, 8110, 8144, 8109, 8166, 8096, 8104, 8105, 8096, 8068, 8046,4.412804126739502
121, 8073, 8119, 8126, 8110, 8087, 8141, 8091, 8158, 8077, 8086, 8076, 8062, 8053, 8022,4.428062915802002
122, 8054, 8096, 8101, 8068, 8092, 8141, 8075, 8158, 8082, 8080, 8074, 8056, 8054, 8023,4.428062915802002
123, 8060, 8079, 8108, 8039, 8111, 8142, 8087, 8173, 8103, 8105, 8089, 8071, 8076, 8044,4.444102048873901
124, 8071, 8085, 8118, 8078, 8094, 8133, 8102, 8172, 8105, 8115, 8073, 8070, 8073, 8036,4.444102048873901
125, 8082, 8111, 8140, 8113, 8094, 8131, 8099, 8172, 8104, 8110, 8071, 8083, 8062, 8037,4.459340333938599
126, 8084, 8111, 8121, 8096, 8114, 8137, 8093, 8178, 8121, 8116, 8107, 8091, 8082, 8050,4.459340333938599
127, 8083, 8099, 8123, 8072, 8100, 8121, 8082, 8174, 8121, 8112, 8120, 8108, 8098, 8052,4.4747490882873535
237, 8089, 8112, 8134, 8082, 8102, 8109, 8084, 8178, 8124, 8113, 8106, 8122, 8099, 8054,4.4747490882873535
0, 8084, 8111, 8113, 8083, 8101, 8121, 8080, 8170, 8118, 8111, 8095, 8108, 8090, 8046,4.4907190799713135
1, 8074, 8097, 8114, 8067, 8050, 8110, 8058, 8158, 8094, 8093, 8100, 8099, 8080, 8028,4.4907190799713135
2, 8090, 8108, 8114, 8071, 8052, 8078, 8055, 8152, 8102, 8091, 8127, 8102, 8100, 8022,4.505861759185791
3, 8111, 8129, 8133, 8080, 8109, 8077, 8051, 8143, 8102, 8085, 8135, 8122, 8100, 8029,4.505861759185791
4, 8098, 8125, 8136, 8079, 8111, 8102, 8041, 8145, 8074, 8066, 8118, 8107, 8070, 8023,4.521953821182251
5, 8081, 8120, 8118, 8083, 8087, 8104, 8059, 8146, 8070, 8067, 8121, 8077, 8067, 8014,4.521953821182251
6, 8091, 8139, 8142, 8088, 8084, 8103, 8082, 8147, 8086, 8076, 8129, 8099, 8081, 8017,4.537633419036865
7, 8090, 8142, 8137, 8093, 8092, 8120, 8090, 8159, 8090, 8073, 8119, 8096, 8078, 8012,4.537633419036865
8, 8073, 8119, 8130, 8082, 8112, 8118, 8086, 8155, 8073, 8065, 8099, 8069, 8052, 8005,4.55265212059021
9, 8060, 8110, 8131, 8065, 8107, 8119, 8092, 8150, 8066, 8068, 8084, 8056, 8038, 8000,4.55265212059021
10, 8054, 8106, 8107, 8061, 8057, 8138, 8093, 8154, 8068, 8066, 8083, 8045, 8044, 7993,4.567911386489868
11, 8056, 8100, 8124, 8060, 8045, 8133, 8077, 8154, 8070, 8062, 8085, 8058, 8046, 7995,4.567911386489868
12, 8056, 8097, 8126, 8067, 8093, 8116, 8082, 8157, 8089, 8090, 8090, 8060, 8054, 7998,4.584228515625
13, 8050, 8085, 8109, 8053, 8097, 8123, 8097, 8164, 8101, 8109, 8090, 8054, 8059, 8004,4.584228515625
14, 8050, 8076, 8102, 8038, 8067, 8137, 8100, 8175, 8110, 8103, 8084, 8048, 8061, 8016,4.5998499393463135
15, 8058, 8078, 8096, 8051, 8082, 8134, 8101, 8178, 8134, 8109, 8089, 8042, 8076, 8024,4.5998499393463135
16, 8057, 8073, 8111, 8041, 8091, 8129, 8095, 8173, 8133, 8107, 8087, 8060, 8076, 8030,4.615010738372803
17, 8046, 8067, 8097, 8031, 8060, 8128, 8094, 8175, 8122, 8100, 8069, 8050, 8061, 8017,4.615010738372803
18, 8050, 8071, 8089, 8038, 8052, 8121, 8095, 8173, 8122, 8086, 8057, 8046, 8050, 8005,4.630524158477783
19, 8051, 8076, 8093, 8023, 8064, 8122, 8091, 8172, 8112, 8065, 8054, 8064, 8047, 8011,4.630524158477783
20, 8051, 8072, 8074, 8012, 8061, 8119, 8089, 8171, 8104, 8070, 8062, 8060, 8063, 8019,4.645660161972046
21, 8061, 8077, 8100, 8020, 8055, 8105, 8079, 8170, 8104, 8083, 8072, 8066, 8080, 8025,4.6624486446380615
22, 8057, 8083, 8097, 8026, 8057, 8091, 8073, 8164, 8104, 8085, 8077, 8057, 8078, 8012,4.6624486446380615
23, 8054, 8082, 8082, 8019, 8042, 8074, 8071, 8151, 8085, 8074, 8077, 8056, 8065, 7998,4.6624486446380615
24, 8062, 8083, 8106, 8017, 8038, 8077, 8071, 8150, 8067, 8071, 8089, 8086, 8073, 8012,4.6766676902771
25, 8069, 8087, 8102, 8029, 8059, 8084, 8062, 8148, 8068, 8070, 8113, 8096, 8091, 8025,4.691887855529785
26, 8074, 8101, 8115, 8037, 8067, 8077, 8047, 8140, 8059, 8054, 8115, 8103, 8078, 8017,4.691887855529785
27, 8078, 8105, 8126, 8048, 8066, 8082, 8056, 8151, 8062, 8059, 8109, 8105, 8071, 8005,4.707082986831665
28, 8082, 8094, 8129, 8045, 8061, 8079, 8059, 8153, 8067, 8062, 8119, 8107, 8080, 8009,4.707082986831665
29, 8079, 8101, 8141, 8039, 8057, 8070, 8044, 8144, 8057, 8039, 8116, 8112, 8073, 8008,4.723156690597534
30, 8068, 8109, 8114, 8044, 8059, 8073, 8051, 8140, 8050, 8042, 8100, 8088, 8061, 7992,4.723156690597534
31, 8067, 8105, 8122, 8042, 8067, 8081, 8058, 8139, 8045, 8059, 8103, 8087, 8064, 7999,4.73906683921814
32, 8085, 8120, 8147, 8058, 8077, 8091, 8061, 8153, 8062, 8071, 8121, 8103, 8080, 8020,4.73906683921814
33, 8092, 8141, 8145, 8070, 8085, 8098, 8071, 8162, 8091, 8079, 8129, 8107, 8085, 8025,4.754599332809448
34, 8077, 8142, 8146, 8060, 8088, 8103, 8080, 8159, 8090, 8076, 8115, 8102, 8071, 8024,4.754599332809448
35, 8060, 8130, 8123, 8062, 8082, 8101, 8087, 8156, 8082, 8074, 8090, 8068, 8055, 8012,4.7697954177856445
36, 8058, 8126, 8130, 8064, 8077, 8096, 8081, 8149, 8076, 8058, 8079, 8061, 8042, 8000,4.7697954177856445
37, 8063, 8133, 8138, 8063, 8082, 8102, 8081, 8147, 8069, 8045, 8094, 8076, 8044, 8007,4.785922288894653
38, 8064, 8124, 8124, 8072, 8086, 8105, 8096, 8149, 8069, 8064, 8102, 8077, 8052, 8018,4.785922288894653
39, 8064, 8117, 8133, 8079, 8084, 8113, 8105, 8158, 8079, 8089, 8087, 8078, 8050, 8021,4.8020148277282715
40, 8054, 8114, 8112, 8078, 8079, 8114, 8107, 8155, 8084, 8092, 8080, 8057, 8045, 8010,4.8020148277282715
41, 8045, 8100, 8105, 8058, 8068, 8091, 8094, 8140, 8073, 8078, 8072, 8056, 8036, 8006,4.8176093101501465
42, 8043, 8093, 8103, 8044, 8064, 8083, 8089, 8153, 8074, 8084, 8067, 8064, 8042, 8010,4.8176093101501465
43, 8037, 8089, 8078, 8042, 8056, 8090, 8085, 8166, 8086, 8095, 8072, 8050, 8054, 8006,4.832642078399658
44, 8027, 8076, 8078, 8017, 8039, 8073, 8063, 8159, 8076, 8071, 8055, 8046, 8040, 7998,4.832642078399658
45, 8024, 8073, 8069, 8005, 8039, 8050, 8056, 8161, 8082, 8071, 8039, 8039, 8032, 7992,4.847818613052368
46, 8046, 8090, 8092, 8025, 8056, 8059, 8070, 8169, 8099, 8095, 8067, 8068, 8049, 8011,4.847818613052368
47, 8068, 8104, 8122, 8049, 8067, 8084, 8085, 8176, 8104, 8085, 8093, 8096, 8065, 8032,4.862969636917114
48, 8074, 8103, 8108, 8053, 8065, 8080, 8079, 8165, 8097, 8059, 8084, 8085, 8071, 8022,4.862969636917114
49, 8068, 8105, 8115, 8038, 8064, 8064, 8055, 8151, 8081, 8067, 8081, 8093, 8073, 8013,4.8780717849731445
50, 8063, 8103, 8113, 8035, 8070, 8070, 8052, 8161, 8087, 8093, 8103, 8103, 8086, 8018,4.8780717849731445
51, 8075, 8105, 8122, 8036, 8071, 8078, 8050, 8161, 8091, 8081, 8107, 8116, 8087, 8027,4.894114255905151
52, 8079, 8112, 8130, 8031, 8065, 8066, 8042, 8153, 8075, 8058, 8088, 8114, 8070, 8022,4.894114255905151
53, 8066, 8105, 8111, 8039, 8074, 8053, 8041, 8155, 8071, 8065, 8093, 8094, 8063, 8011,4.9102349281311035
54, 8067, 8105, 8135, 8051, 8087, 8064, 8053, 8162, 8077, 8068, 8107, 8110, 8075, 8017,4.9102349281311035
55, 8079, 8117, 8141, 8062, 8085, 8082, 8072, 8167, 8081, 8065, 8112, 8115, 8084, 8024,4.925469160079956
56, 8088, 8128, 8138, 8069, 8082, 8081, 8073, 8158, 8073, 8062, 8119, 8118, 8079, 8026,4.925469160079956
57, 8094, 8144, 8157, 8089, 8098, 8087, 8073, 8156, 8075, 8073, 8126, 8127, 8080, 8029,4.940618515014648
58, 8086, 8142, 8140, 8106, 8110, 8109, 8093, 8158, 8094, 8099, 8114, 8103, 8078, 8027,4.940618515014648
59, 8065, 8119, 8132, 8092, 8094, 8118, 8106, 8152, 8093, 8098, 8089, 8088, 8059, 8028,4.9558587074279785
60, 8057, 8111, 8120, 8084, 8089, 8109, 8110, 8155, 8091, 8094, 8089, 8085, 8060, 8031,4.9558587074279785
61, 8071, 8115, 8112, 8085, 8093, 8095, 8107, 8164, 8097, 8105, 8100, 8091, 8073, 8034,4.971006155014038
62, 8075, 8107, 8111, 8072, 8077, 8090, 8102, 8176, 8103, 8108, 8097, 8095, 8075, 8031,4.971006155014038
63, 8068, 8096, 8087, 8064, 8074, 8079, 8093, 8175, 8114, 8103, 8100, 8084, 8081, 8028,4.9867260456085205
64, 8080, 8110, 8107, 8059, 8087, 8066, 8080, 8165, 8107, 8092, 8114, 8104, 8087, 8034,4.9867260456085205
65, 8089, 8127, 8119, 8066, 8091, 8069, 8080, 8154, 8086, 8089, 8129, 8111, 8083, 8021,5.002268075942993
66, 8080, 8128, 8116, 8081, 8091, 8071, 8077, 8137, 8072, 8086, 8128, 8094, 8065, 8005,5.002268075942993
67, 8069, 8133, 8138, 8091, 8100, 8077, 8072, 8146, 8070, 8088, 8112, 8090, 8051, 8014,5.017491340637207
68, 8068, 8131, 8124, 8098, 8100, 8092, 8091, 8156, 8076, 8095, 8101, 8079, 8057, 8022,5.017491340637207
69, 8073, 8116, 8117, 8091, 8088, 8094, 8102, 8145, 8071, 8083, 8090, 8080, 8055, 8017,5.0330541133880615
70, 8067, 8113, 8109, 8082, 8094, 8095, 8096, 8155, 8080, 8090, 8082, 8073, 8048, 8018,5.0330541133880615
71, 8055, 8111, 8097, 8077, 8094, 8091, 8085, 8168, 8100, 8113, 8091, 8072, 8061, 8029,5.048870325088501
72, 8062, 8107, 8110, 8066, 8075, 8084, 8081, 8172, 8103, 8107, 8092, 8088, 8074, 8038,5.048870325088501
73, 8079, 8105, 8096, 8062, 8070, 8088, 8091, 8173, 8101, 8100, 8094, 8084, 8084, 8042,5.064036130905151
74, 8088, 8104, 8102, 8055, 8076, 8088, 8092, 8166, 8102, 8112, 8112, 8101, 8105, 8055,5.064036130905151
75, 8091, 8112, 8113, 8059, 8078, 8086, 8090, 8169, 8109, 8129, 8127, 8118, 8123, 8064,5.078988790512085
76, 8092, 8117, 8102, 8065, 8084, 8086, 8087, 8174, 8117, 8125, 8126, 8108, 8119, 8058,5.094650030136108
77, 8088, 8115, 8110, 8055, 8083, 8082, 8078, 8169, 8111, 8105, 8112, 8108, 8108, 8045,5.094650030136108
78, 8095, 8117, 8105, 8060, 8076, 8082, 8079, 8161, 8108, 8101, 8109, 8098, 8109, 8026,5.10996413230896
79, 8105, 8124, 8117, 8064, 8076, 8084, 8075, 8152, 8091, 8092, 8116, 8107, 8107, 8023,5.10996413230896
80, 8099, 8135, 8122, 8064, 8095, 8087, 8078, 8158, 8081, 8086, 8127, 8124, 8120, 8039,5.125146865844727
81, 8099, 8145, 8118, 8082, 8114, 8091, 8085, 8162, 8096, 8100, 8141, 8126, 8147, 8048,5.125146865844727
82, 8109, 8155, 8144, 8093, 8109, 8100, 8082, 8164, 8099, 8105, 8145, 8133, 8142, 8044,5.140679359436035
83, 8099, 8155, 8128, 8088, 8099, 8101, 8085, 8159, 8097, 8102, 8145, 8121, 8120, 8028,5.140679359436035
84, 8094, 8155, 8123, 8074, 8095, 8088, 8079, 8139, 8080, 8081, 8129, 8114, 8105, 8018,5.156232118606567
85, 8091, 8156, 8130, 8077, 8101, 8086, 8071, 8138, 8056, 8054, 8106, 8102, 8095, 8016,5.156232118606567
86, 8079, 8156, 8115, 8090, 8103, 8087, 8080, 8152, 8061, 8061, 8109, 8086, 8088, 8014,5.172309160232544
87, 8080, 8164, 8129, 8083, 8096, 8083, 8087, 8152, 8072, 8080, 8123, 8100, 8085, 8016,5.172309160232544
88, 8088, 8172, 8121, 8086, 8098, 8085, 8092, 8144, 8074, 8090, 8118, 8093, 8092, 8016,5.187976598739624
89, 8085, 8176, 8125, 8103, 8100, 8087, 8091, 8139, 8066, 8089, 8113, 8093, 8092, 8018,5.187976598739624
90, 8079, 8176, 8138, 8108, 8097, 8096, 8087, 8148, 8060, 8091, 8115, 8097, 8087, 8020,5.203148126602173
91, 8076, 8164, 8117, 8106, 8100, 8107, 8097, 8152, 8067, 8102, 8110, 8082, 8087, 8019,5.203148126602173
92, 8084, 8160, 8132, 8100, 8107, 8117, 8114, 8156, 8083, 8113, 8110, 8093, 8088, 8032,5.2187113761901855
93, 8086, 8168, 8133, 8105, 8109, 8124, 8123, 8168, 8103, 8122, 8118, 8099, 8095, 8046,5.2187113761901855
94, 8082, 8161, 8129, 8109, 8106, 8117, 8109, 8163, 8101, 8122, 8115, 8106, 8100, 8052,5.234176874160767
95, 8082, 8151, 8137, 8097, 8098, 8107, 8096, 8156, 8093, 8126, 8122, 8115, 8106, 8060,5.234176874160767
96, 8085, 8148, 8116, 8083, 8091, 8100, 8104, 8164, 8105, 8128, 8141, 8103, 8116, 8059,5.2497878074646
97, 8091, 8148, 8117, 8076, 8090, 8094, 8102, 8177, 8100, 8111, 8126, 8105, 8110, 8052,5.2497878074646
98, 8092, 8149, 8111, 8084, 8096, 8093, 8096, 8178, 8098, 8110, 8113, 8103, 8106, 8043,5.264957666397095
99, 8096, 8162, 8115, 8085, 8099, 8086, 8087, 8161, 8104, 8116, 8137, 8112, 8115, 8039,5.264957666397095
100, 8108, 8192, 8138, 8090, 8103, 8083, 8073, 8154, 8093, 8104, 8158, 8135, 8124, 8035,5.282634496688843
101, 8108, 8198, 8132, 8102, 8107, 8085, 8066, 8148, 8075, 8096, 8149, 8127, 8119, 8023,5.282634496688843
102, 8091, 8188, 8147, 8098, 8101, 8087, 8067, 8138, 8061, 8085, 8124, 8118, 8089, 8021,5.2960731983184814
103, 8092, 8201, 8147, 8107, 8104, 8096, 8088, 8147, 8074, 8091, 8124, 8112, 8083, 8031,5.2960731983184814
104, 8116, 8214, 8148, 8129, 8115, 8103, 8096, 8155, 8087, 8105, 8148, 8123, 8112, 8048,5.312081575393677
105, 8117, 8210, 8173, 8138, 8107, 8103, 8087, 8151, 8080, 8097, 8154, 8140, 8116, 8057,5.312081575393677
106, 8099, 8203, 8156, 8138, 8095, 8098, 8086, 8143, 8077, 8091, 8137, 8120, 8094, 8043,5.327817916870117
107, 8101, 8208, 8156, 8138, 8093, 8093, 8081, 8140, 8077, 8098, 8128, 8116, 8093, 8039,5.327817916870117
108, 8118, 8221, 8164, 8152, 8096, 8093, 8084, 8157, 8090, 8121, 8142, 8127, 8120, 8053,5.343181848526001
109, 8121, 8219, 8162, 8151, 8098, 8092, 8094, 8157, 8091, 8134, 8142, 8130, 8127, 8061,5.343181848526001
110, 8107, 8206, 8161, 8126, 8093, 8089, 8092, 8145, 8072, 8116, 8122, 8129, 8110, 8056,5.35908579826355
111, 8101, 8199, 8131, 8127, 8091, 8084, 8085, 8150, 8071, 8101, 8129, 8118, 8113, 8051,5.35908579826355
112, 8114, 8198, 8142, 8130, 8089, 8076, 8079, 8155, 8081, 8100, 8144, 8135, 8119, 8058,5.374100923538208
113, 8109, 8188, 8149, 8115, 8083, 8082, 8086, 8162, 8096, 8115, 8135, 8135, 8120, 8050,5.374100923538208
114, 8101, 8177, 8127, 8106, 8084, 8086, 8087, 8164, 8108, 8127, 8133, 8125, 8132, 8044,5.389638185501099
115, 8115, 8183, 8146, 8112, 8096, 8084, 8079, 8164, 8110, 8122, 8155, 8148, 8147, 8063,5.389638185501099
116, 8126, 8185, 8146, 8130, 8107, 8087, 8084, 8165, 8118, 8131, 8175, 8151, 8157, 8067,5.405666351318359
117, 8123, 8184, 8148, 8131, 8106, 8079, 8072, 8151, 8108, 8131, 8177, 8152, 8149, 8052,5.405666351318359
118, 8124, 8202, 8158, 8129, 8108, 8077, 8055, 8148, 8093, 8119, 8181, 8158, 8145, 8049,5.421325922012329
119, 8132, 8212, 8156, 8141, 8107, 8086, 8066, 8154, 8100, 8115, 8196, 8159, 8153, 8053,5.421325922012329
120, 8119, 8193, 8163, 8131, 8095, 8085, 8069, 8145, 8091, 8098, 8180, 8154, 8133, 8043,5.436985015869141
121, 8092, 8169, 8144, 8126, 8102, 8088, 8066, 8132, 8072, 8087, 8144, 8114, 8105, 8021,5.436985015869141
122, 8100, 8172, 8156, 8147, 8118, 8107, 8083, 8137, 8076, 8097, 8132, 8104, 8103, 8028,5.4524712562561035
123, 8111, 8171, 8167, 8160, 8110, 8119, 8103, 8161, 8102, 8121, 8139, 8124, 8119, 8054,5.4524712562561035
124, 8103, 8145, 8137, 8139, 8095, 8107, 8099, 8167, 8120, 8135, 8149, 8127, 8135, 8063,5.467731237411499
125, 8107, 8134, 8136, 8115, 8088, 8098, 8092, 8164, 8118, 8121, 8145, 8127, 8141, 8058,5.467731237411499
126, 8112, 8146, 8118, 8120, 8084, 8097, 8103, 8172, 8121, 8106, 8141, 8119, 8149, 8051,5.483756065368652
127, 8115, 8148, 8120, 8123, 8085, 8083, 8094, 8163, 8109, 8097, 8152, 8136, 8149, 8052,5.483756065368652
237, 8119, 8153, 8140, 8124, 8090, 8084, 8079, 8155, 8093, 8098, 8171, 8150, 8149, 8048,5.498917818069458
0, 8117, 8170, 8130, 8135, 8090, 8102, 8090, 8152, 8099, 8102, 8175, 8126, 8147, 8039,5.498917818069458
1, 8117, 8180, 8148, 8142, 8095, 8117, 8096, 8153, 8100, 8103, 8148, 8115, 8129, 8045,5.514978647232056
2, 8115, 8166, 8141, 8144, 8106, 8124, 8095, 8161, 8100, 8110, 8134, 8100, 8117, 8043,5.514978647232056
3, 8104, 8150, 8127, 8129, 8100, 8116, 8088, 8149, 8096, 8109, 8138, 8096, 8115, 8032,5.530442953109741
4, 8102, 8151, 8136, 8124, 8091, 8114, 8090, 8143, 8090, 8107, 8146, 8107, 8121, 8041,5.530442953109741
5, 8111, 8146, 8129, 8146, 8091, 8119, 8102, 8150, 8092, 8120, 8135, 8097, 8124, 8053,5.546259880065918
6, 8105, 8138, 8129, 8140, 8096, 8120, 8103, 8156, 8098, 8126, 8121, 8095, 8118, 8051,5.546259880065918
7, 8092, 8132, 8111, 8122, 8105, 8120, 8108, 8166, 8116, 8131, 8130, 8090, 8120, 8048,5.56180214881897
8, 8102, 8122, 8108, 8126, 8100, 8114, 8107, 8165, 8118, 8129, 8134, 8096, 8121, 8052,5.56180214881897
9, 8112, 8121, 8120, 8120, 8087, 8116, 8101, 8165, 8109, 8120, 8120, 8108, 8118, 8056,5.577259302139282
10, 8103, 8122, 8093, 8098, 8087, 8112, 8102, 8167, 8114, 8114, 8118, 8093, 8121, 8055,5.577259302139282
11, 8105, 8122, 8100, 8087, 8092, 8104, 8101, 8165, 8112, 8107, 8124, 8099, 8118, 8054,5.593183994293213
12, 8117, 8124, 8109, 8106, 8095, 8107, 8103, 8162, 8111, 8118, 8119, 8107, 8121, 8055,5.593183994293213
13, 8117, 8124, 8101, 8103, 8091, 8102, 8093, 8155, 8109, 8120, 8115, 8105, 8124, 8056,5.608866214752197
14, 8114, 8132, 8111, 8086, 8089, 8095, 8078, 8158, 8098, 8099, 8120, 8115, 8120, 8051,5.608866214752197
15, 8131, 8149, 8115, 8104, 8106, 8104, 8087, 8165, 8115, 8108, 8139, 8123, 8139, 8057,5.623946189880371
16, 8147, 8150, 8138, 8109, 8115, 8117, 8103, 8170, 8135, 8127, 8152, 8145, 8159, 8079,5.623946189880371
17, 8137, 8142, 8127, 8104, 8106, 8125, 8116, 8177, 8138, 8132, 8144, 8139, 8150, 8079,5.639765501022339
18, 8133, 8141, 8107, 8109, 8107, 8118, 8108, 8168, 8131, 8127, 8141, 8127, 8136, 8060,5.639765501022339
19, 8146, 8144, 8133, 8108, 8116, 8110, 8096, 8166, 8128, 8122, 8147, 8143, 8139, 8060,5.65531325340271
20, 8149, 8147, 8133, 8116, 8127, 8114, 8111, 8177, 8142, 8131, 8154, 8145, 8155, 8075,5.65531325340271
21, 8147, 8152, 8134, 8111, 8127, 8115, 8119, 8177, 8146, 8128, 8155, 8152, 8150, 8081,5.67065167427063
22, 8144, 8156, 8123, 8099, 8122, 8109, 8113, 8173, 8134, 8107, 8144, 8140, 8135, 8064,5.67065167427063
23, 8138, 8152, 8110, 8099, 8122, 8107, 8109, 8162, 8125, 8098, 8129, 8119, 8129, 8046,5.686638355255127
24, 8128, 8156, 8122, 8093, 8117, 8113, 8107, 8158, 8122, 8099, 8119, 8124, 8124, 8046,5.686638355255127
25, 8120, 8165, 8102, 8087, 8115, 8113, 8101, 8162, 8124, 8105, 8123, 8115, 8121, 8035,5.701654672622681
26, 8129, 8172, 8114, 8094, 8123, 8114, 8091, 8151, 8106, 8099, 8117, 8116, 8112, 8024,5.716787815093994
27, 8139, 8178, 8137, 8107, 8126, 8118, 8097, 8148, 8095, 8096, 8110, 8123, 8107, 8032,5.716787815093994
28, 8142, 8182, 8141, 8120, 8118, 8114, 8104, 8153, 8108, 8105, 8130, 8131, 8123, 8043,5.732879400253296
29, 8148, 8201, 8166, 8136, 8120, 8125, 8112, 8158, 8119, 8117, 8152, 8153, 8140, 8053,5.732879400253296
30, 8160, 8215, 8163, 8148, 8138, 8140, 8129, 8166, 8133, 8135, 8169, 8152, 8152, 8061,5.748014450073242
31, 8170, 8217, 8175, 8154, 8137, 8129, 8116, 8165, 8133, 8130, 8185, 8167, 8157, 8072,5.748014450073242
32, 8172, 8234, 8197, 8179, 8129, 8116, 8100, 8160, 8122, 8123, 8202, 8190, 8168, 8083,5.763168096542358
33, 8172, 8244, 8196, 8203, 8138, 8126, 8112, 8154, 8121, 8130, 8210, 8195, 8177, 8084,5.763168096542358
34, 8180, 8239, 8222, 8217, 8144, 8142, 8119, 8155, 8123, 8123, 8207, 8211, 8171, 8086,5.778819561004639
35, 8187, 8243, 8229, 8249, 8144, 8139, 8125, 8167, 8138, 8124, 8215, 8217, 8176, 8088,5.778819561004639
36, 8189, 8246, 8235, 8263, 8141, 8127, 8127, 8166, 8141, 8132, 8229, 8231, 8179, 8092,5.793977499008179
37, 8184, 8241, 8244, 8261, 8139, 8135, 8122, 8162, 8133, 8124, 8229, 8244, 8177, 8091,5.793977499008179
38, 8188, 8244, 8241, 8280, 8147, 8148, 8121, 8151, 8131, 8116, 8224, 8238, 8178, 8091,5.809005260467529
39, 8200, 8248, 8264, 8292, 8148, 8148, 8122, 8147, 8133, 8127, 8226, 8244, 8173, 8096,5.809005260467529
40, 8192, 8226, 8246, 8292, 8138, 8143, 8129, 8154, 8146, 8147, 8224, 8226, 8168, 8092,5.824733734130859
41, 8187, 8211, 8233, 8297, 8129, 8133, 8131, 8147, 8139, 8140, 8210, 8217, 8162, 8090,5.824733734130859
42, 8198, 8228, 8251, 8309, 8136, 8132, 8136, 8150, 8122, 8128, 8205, 8228, 8157, 8093,5.839876651763916
43, 8200, 8225, 8237, 8313, 8150, 8142, 8155, 8161, 8136, 8138, 8205, 8218, 8156, 8088,5.839876651763916
44, 8189, 8201, 8232, 8287, 8146, 8147, 8162, 8171, 8158, 8142, 8193, 8216, 8161, 8099,5.855998516082764
45, 8182, 8192, 8213, 8270, 8140, 8138, 8160, 8180, 8176, 8148, 8189, 8211, 8172, 8113,5.855998516082764
46, 8185, 8189, 8199, 8258, 8138, 8128, 8155, 8175, 8177, 8157, 8207, 8217, 8176, 8115,5.8716230392456055
47, 8187, 8184, 8197, 8235, 8136, 8130, 8150, 8178, 8168, 8164, 8212, 8217, 8175, 8113,5.8716230392456055
48, 8185, 8175, 8171, 8226, 8138, 8127, 8145, 8180, 8177, 8170, 8201, 8193, 8177, 8112,5.886730432510376
49, 8182, 8174, 8178, 8220, 8140, 8120, 8139, 8176, 8192, 8168, 8191, 8197, 8178, 8116,5.886730432510376
50, 8184, 8176, 8175, 8214, 8150, 8139, 8156, 8185, 8199, 8175, 8196, 8197, 8190, 8123,5.901905298233032
51, 8193, 8170, 8170, 8206, 8157, 8158, 8171, 8187, 8201, 8196, 8210, 8193, 8203, 8131,5.901905298233032
52, 8194, 8170, 8186, 8195, 8154, 8151, 8169, 8182, 8202, 8207, 8216, 8200, 8204, 8135,5.917101144790649
53, 8186, 8160, 8159, 8185, 8149, 8144, 8174, 8187, 8203, 8195, 8207, 8179, 8203, 8124,5.917101144790649
54, 8175, 8133, 8146, 8155, 8144, 8148, 8176, 8192, 8198, 8171, 8180, 8159, 8184, 8117,5.932634115219116
55, 8161, 8127, 8141, 8146, 8150, 8154, 8174, 8199, 8210, 8187, 8170, 8143, 8169, 8115,5.932634115219116
56, 8161, 8141, 8138, 8159, 8154, 8145, 8162, 8192, 8220, 8213, 8179, 8140, 8178, 8112,5.948010444641113
57, 8172, 8144, 8156, 8156, 8156, 8139, 8154, 8185, 8221, 8206, 8179, 8159, 8191, 8118,5.948010444641113
58, 8169, 8138, 8140, 8146, 8164, 8151, 8168, 8186, 8238, 8207, 8185, 8153, 8198, 8118,5.962993144989014
59, 8159, 8140, 8141, 8137, 8157, 8152, 8167, 8184, 8233, 8198, 8179, 8151, 8184, 8109,5.962993144989014
60, 8155, 8135, 8144, 8139, 8143, 8145, 8164, 8187, 8213, 8174, 8162, 8151, 8174, 8109,5.97902250289917
61, 8159, 8123, 8133, 8137, 8143, 8137, 8168, 8182, 8200, 8167, 8158, 8148, 8180, 8116,5.97902250289917
62, 8159, 8119, 8131, 8115, 8150, 8137, 8167, 8179, 8193, 8164, 8145, 8143, 8166, 8107,5.994966745376587
63, 8137, 8108, 8100, 8099, 8152, 8147, 8177, 8185, 8206, 8157, 8119, 8109, 8138, 8086,5.994966745376587
64, 8133, 8102, 8110, 8098, 8144, 8146, 8167, 8180, 8196, 8140, 8109, 8114, 8129, 8089,6.015163421630859
65, 8158, 8128, 8140, 8117, 8139, 8141, 8152, 8180, 8182, 8141, 8134, 8142, 8154, 8103,6.015163421630859
66, 8177, 8148, 8142, 8134, 8145, 8142, 8160, 8179, 8195, 8152, 8155, 8145, 8176, 8111,6.0259480476379395
67, 8166, 8136, 8143, 8124, 8144, 8147, 8167, 8181, 8192, 8145, 8132, 8137, 8160, 8110,6.0259480476379395
68, 8149, 8118, 8112, 8115, 8137, 8148, 8172, 8179, 8179, 8155, 8110, 8111, 8142, 8096,6.0413055419921875
69, 8149, 8125, 8118, 8116, 8135, 8143, 8182, 8177, 8189, 8163, 8117, 8119, 8145, 8101,6.0413055419921875
70, 8155, 8139, 8138, 8130, 8142, 8150, 8195, 8199, 8220, 8162, 8139, 8137, 8168, 8114,6.057002544403076
71, 8162, 8141, 8127, 8141, 8153, 8154, 8194, 8207, 8237, 8181, 8152, 8139, 8185, 8108,6.057002544403076
72, 8164, 8137, 8132, 8124, 8150, 8143, 8171, 8190, 8226, 8191, 8149, 8145, 8174, 8094,6.071632385253906
73, 8151, 8127, 8116, 8111, 8141, 8128, 8158, 8178, 8218, 8177, 8142, 8126, 8168, 8080,6.071632385253906
74, 8149, 8129, 8115, 8115, 8137, 8132, 8159, 8179, 8216, 8165, 8136, 8123, 8169, 8076,6.08684515953064
75, 8147, 8141, 8119, 8121, 8143, 8143, 8154, 8179, 8210, 8156, 8123, 8124, 8159, 8072,6.102763891220093
76, 8134, 8139, 8104, 8121, 8152, 8134, 8138, 8166, 8196, 8131, 8112, 8102, 8145, 8060,6.102763891220093
77, 8140, 8135, 8123, 8107, 8150, 8129, 8135, 8160, 8184, 8129, 8122, 8113, 8140, 8059,6.117882966995239
78, 8151, 8131, 8116, 8103, 8144, 8137, 8151, 8159, 8187, 8150, 8131, 8119, 8145, 8062,6.117882966995239
79, 8149, 8126, 8118, 8112, 8141, 8134, 8139, 8149, 8173, 8118, 8121, 8118, 8141, 8064,6.134133577346802
80, 8146, 8141, 8144, 8124, 8148, 8131, 8133, 8151, 8163, 8100, 8121, 8122, 8134, 8074,6.134133577346802
81, 8152, 8154, 8137, 8131, 8153, 8128, 8150, 8151, 8163, 8143, 8142, 8120, 8130, 8073,6.149990797042847
82, 8155, 8155, 8152, 8133, 8140, 8116, 8149, 8138, 8136, 8137, 8143, 8132, 8117, 8063,6.149990797042847
83, 8154, 8158, 8154, 8151, 8145, 8118, 8143, 8140, 8121, 8103, 8134, 8124, 8114, 8060,6.165015697479248
84, 8162, 8162, 8148, 8160, 8168, 8130, 8153, 8149, 8135, 8121, 8151, 8121, 8130, 8070,6.165015697479248
85, 8170, 8166, 8158, 8154, 8179, 8140, 8167, 8163, 8150, 8156, 8172, 8137, 8153, 8087,6.181033134460449
86, 8171, 8166, 8148, 8160, 8176, 8144, 8172, 8169, 8157, 8157, 8174, 8140, 8163, 8093,6.181033134460449
87, 8165, 8159, 8159, 8157, 8172, 8142, 8160, 8156, 8136, 8123, 8159, 8141, 8138, 8086,6.196767330169678
88, 8150, 8154, 8153, 8155, 8174, 8147, 8161, 8157, 8123, 8122, 8140, 8119, 8121, 8078,6.196767330169678
89, 8145, 8151, 8153, 8164, 8168, 8149, 8167, 8165, 8146, 8149, 8139, 8109, 8136, 8084,6.211992979049683
90, 8152, 8144, 8168, 8171, 8165, 8147, 8163, 8163, 8158, 8147, 8148, 8123, 8143, 8093,6.211992979049683
91, 8149, 8130, 8141, 8163, 8165, 8149, 8174, 8160, 8153, 8135, 8147, 8115, 8132, 8094,6.228089332580566
92, 8138, 8122, 8144, 8138, 8158, 8160, 8182, 8163, 8146, 8141, 8129, 8119, 8120, 8096,6.228089332580566
93, 8141, 8122, 8152, 8141, 8163, 8175, 8189, 8173, 8163, 8157, 8133, 8119, 8127, 8094,6.243797063827515
94, 8155, 8126, 8151, 8163, 8176, 8186, 8199, 8171, 8186, 8167, 8153, 8117, 8139, 8097,6.243797063827515
95, 8157, 8136, 8167, 8165, 8182, 8193, 8201, 8180, 8191, 8174, 8146, 8129, 8143, 8105,6.259134769439697
96, 8157, 8136, 8147, 8158, 8165, 8189, 8205, 8197, 8208, 8183, 8140, 8127, 8154, 8105,6.259134769439697
97, 8166, 8127, 8147, 8140, 8147, 8183, 8201, 8198, 8229, 8184, 8152, 8144, 8166, 8107,6.274853229522705
98, 8158, 8126, 8144, 8128, 8160, 8178, 8187, 8192, 8230, 8184, 8148, 8138, 8169, 8101,6.274853229522705
99, 8155, 8121, 8129, 8125, 8163, 8153, 8159, 8175, 8201, 8161, 8133, 8119, 8158, 8087,6.289937496185303
100, 8168, 8126, 8143, 8123, 8153, 8146, 8151, 8173, 8179, 8145, 8148, 8142, 8158, 8091,6.289937496185303
101, 8170, 8135, 8143, 8132, 8173, 8171, 8177, 8179, 8193, 8162, 8171, 8148, 8166, 8095,6.3060462474823
102, 8166, 8136, 8161, 8136, 8186, 8171, 8174, 8164, 8189, 8156, 8160, 8142, 8154, 8084,6.3060462474823
103, 8169, 8134, 8159, 8129, 8167, 8151, 8158, 8163, 8177, 8138, 8154, 8145, 8149, 8081,6.3221282958984375
104, 8172, 8129, 8139, 8111, 8158, 8150, 8164, 8172, 8183, 8139, 8162, 8150, 8160, 8090,6.3221282958984375
105, 8165, 8131, 8157, 8106, 8165, 8158, 8167, 8166, 8181, 8142, 8149, 8151, 8151, 8095,6.3377087116241455
106, 8152, 8143, 8156, 8133, 8162, 8155, 8163, 8156, 8162, 8141, 8138, 8134, 8140, 8080,6.3377087116241455
107, 8164, 8159, 8176, 8156, 8166, 8153, 8164, 8156, 8152, 8137, 8148, 8150, 8144, 8084,6.3528265953063965
108, 8185, 8170, 8196, 8179, 8179, 8169, 8186, 8172, 8175, 8149, 8167, 8162, 8155, 8110,6.3528265953063965
109, 8170, 8161, 8178, 8188, 8166, 8178, 8197, 8174, 8184, 8166, 8166, 8148, 8149, 8108,6.36820125579834
110, 8145, 8145, 8176, 8161, 8153, 8164, 8182, 8164, 8164, 8164, 8147, 8145, 8133, 8087,6.36820125579834
111, 8150, 8150, 8166, 8155, 8169, 8160, 8186, 8165, 8173, 8169, 8154, 8135, 8147, 8084,6.38381814956665
112, 8163, 8160, 8174, 8166, 8174, 8175, 8198, 8168, 8184, 8180, 8167, 8145, 8154, 8097,6.38381814956665
113, 8152, 8149, 8169, 8152, 8155, 8179, 8197, 8176, 8185, 8186, 8144, 8140, 8131, 8093,6.39973258972168
114, 8138, 8134, 8145, 8138, 8164, 8162, 8188, 8170, 8190, 8183, 8135, 8113, 8126, 8080,6.39973258972168
115, 8142, 8136, 8164, 8142, 8183, 8161, 8180, 8158, 8174, 8167, 8147, 8129, 8135, 8083,6.414567470550537
116, 8149, 8141, 8156, 8155, 8179, 8177, 8183, 8163, 8173, 8166, 8141, 8132, 8135, 8086,6.414567470550537
117, 8162, 8140, 8155, 8159, 8175, 8174, 8182, 8166, 8184, 8169, 8135, 8123, 8132, 8084,6.429970741271973
118, 8160, 8137, 8163, 8155, 8178, 8178, 8183, 8169, 8180, 8174, 8147, 8129, 8141, 8087,6.429970741271973
119, 8133, 8126, 8129, 8143, 8167, 8180, 8185, 8168, 8167, 8172, 8137, 8116, 8136, 8081,6.446067571640015
120, 8126, 8127, 8127, 8131, 8152, 8169, 8176, 8164, 8153, 8145, 8115, 8108, 8110, 8073,6.446067571640015
121, 8144, 8139, 8132, 8153, 8170, 8172, 8184, 8168, 8155, 8148, 8129, 8111, 8117, 8075,6.4615864753723145
122, 8153, 8136, 8138, 8163, 8180, 8177, 8191, 8171, 8159, 8173, 8137, 8122, 8132, 8082,6.4615864753723145
123, 8145, 8135, 8149, 8143, 8164, 8176, 8188, 8175, 8159, 8167, 8115, 8122, 8122, 8085,6.476991891860962
124, 8144, 8138, 8130, 8136, 8160, 8174, 8182, 8171, 8160, 8146, 8110, 8103, 8114, 8076,6.476991891860962
125, 8136, 8136, 8131, 8130, 8156, 8167, 8171, 8165, 8157, 8135, 8113, 8111, 8112, 8065,6.492345571517944
126, 8123, 8138, 8123, 8131, 8146, 8165, 8172, 8168, 8162, 8143, 8111, 8108, 8114, 8063,6.492345571517944
127, 8131, 8140, 8123, 8133, 8135, 8165, 8174, 8170, 8165, 8154, 8113, 8108, 8118, 8076,6.5078442096710205
237, 8134, 8141, 8134, 8122, 8133, 8159, 8171, 8176, 8165, 8153, 8104, 8111, 8112, 8072,6.5078442096710205
0, 8120, 8137, 8110, 8123, 8145, 8148, 8170, 8176, 8177, 8148, 8101, 8093, 8109, 8053,6.523886203765869
1, 8122, 8133, 8117, 8120, 8145, 8142, 8164, 8176, 8184, 8148, 8124, 8113, 8123, 8068,6.523886203765869
2, 8136, 8141, 8127, 8113, 8137, 8148, 8169, 8195, 8202, 8170, 8148, 8136, 8153, 8091,6.5395283699035645
3, 8143, 8146, 8121, 8115, 8143, 8142, 8163, 8196, 8207, 8180, 8153, 8146, 8165, 8084,6.5395283699035645
4, 8147, 8147, 8132, 8120, 8152, 8130, 8140, 8176, 8179, 8154, 8155, 8159, 8151, 8073,6.554566144943237
5, 8157, 8155, 8137, 8135, 8150, 8135, 8144, 8169, 8165, 8147, 8170, 8160, 8152, 8078,6.554566144943237
6, 8162, 8170, 8165, 8149, 8156, 8147, 8158, 8168, 8170, 8153, 8177, 8172, 8161, 8085,6.569699048995972
7, 8159, 8177, 8164, 8163, 8171, 8148, 8161, 8170, 8176, 8147, 8172, 8165, 8156, 8084,6.569699048995972
8, 8157, 8172, 8148, 8167, 8166, 8146, 8162, 8164, 8170, 8140, 8163, 8149, 8143, 8085,6.585689544677734
9, 8156, 8176, 8167, 8170, 8159, 8161, 8177, 8167, 8166, 8152, 8153, 8148, 8139, 8088,6.585689544677734
10, 8159, 8172, 8153, 8183, 8170, 8171, 8194, 8174, 8182, 8177, 8150, 8138, 8143, 8088,6.601083993911743
11, 8165, 8157, 8150, 8177, 8168, 8165, 8189, 8174, 8186, 8178, 8149, 8151, 8145, 8105,6.601083993911743
12, 8159, 8150, 8142, 8163, 8153, 8160, 8182, 8182, 8184, 8172, 8146, 8159, 8146, 8117,6.6167120933532715
13, 8154, 8140, 8118, 8146, 8147, 8142, 8174, 8176, 8188, 8171, 8141, 8145, 8142, 8101,6.6167120933532715
14, 8167, 8139, 8132, 8138, 8145, 8134, 8160, 8176, 8191, 8174, 8144, 8158, 8149, 8100,6.631928443908691
15, 8181, 8155, 8133, 8159, 8160, 8148, 8168, 8193, 8204, 8189, 8164, 8172, 8180, 8118,6.647994518280029
16, 8183, 8166, 8142, 8161, 8174, 8151, 8173, 8189, 8201, 8181, 8164, 8182, 8183, 8121,6.647994518280029
17, 8169, 8159, 8131, 8137, 8155, 8134, 8156, 8178, 8184, 8158, 8141, 8168, 8161, 8100,6.647994518280029
18, 8150, 8142, 8103, 8115, 8133, 8121, 8138, 8170, 8173, 8143, 8139, 8147, 8149, 8079,6.664069652557373
19, 8150, 8139, 8121, 8104, 8138, 8129, 8139, 8161, 8153, 8133, 8142, 8158, 8142, 8070,6.664069652557373
20, 8157, 8145, 8118, 8118, 8153, 8137, 8152, 8159, 8149, 8142, 8139, 8151, 8141, 8066,6.679658889770508
21, 8164, 8154, 8124, 8124, 8153, 8122, 8139, 8158, 8151, 8137, 8139, 8150, 8142, 8074,6.679658889770508
22, 8178, 8166, 8144, 8125, 8153, 8119, 8136, 8161, 8148, 8122, 8143, 8161, 8137, 8085,6.695219278335571
23, 8181, 8169, 8137, 8134, 8154, 8136, 8154, 8161, 8144, 8126, 8140, 8155, 8125, 8082,6.695793867111206
24, 8164, 8169, 8145, 8133, 8155, 8144, 8154, 8160, 8142, 8133, 8135, 8155, 8110, 8077,6.710882902145386
25, 8157, 8180, 8144, 8144, 8171, 8152, 8166, 8168, 8160, 8152, 8141, 8147, 8123, 8084,6.710882902145386
26, 8172, 8191, 8157, 8164, 8188, 8167, 8183, 8170, 8171, 8176, 8149, 8157, 8141, 8103,6.726086854934692
27, 8175, 8187, 8166, 8172, 8179, 8172, 8181, 8175, 8174, 8188, 8153, 8159, 8144, 8113,6.726086854934692
28, 8176, 8183, 8152, 8176, 8173, 8173, 8181, 8178, 8192, 8203, 8158, 8146, 8150, 8113,6.741713762283325
29, 8188, 8192, 8168, 8176, 8178, 8181, 8192, 8180, 8204, 8206, 8155, 8163, 8152, 8123,6.741713762283325
30, 8180, 8184, 8145, 8168, 8177, 8176, 8198, 8189, 8209, 8198, 8149, 8158, 8154, 8125,6.757341384887695
31, 8175, 8162, 8132, 8148, 8175, 8153, 8183, 8191, 8210, 8190, 8148, 8158, 8159, 8118,6.773970127105713
32, 8183, 8170, 8154, 8142, 8181, 8146, 8173, 8188, 8210, 8186, 8161, 8177, 8164, 8119,6.773970127105713
33, 8191, 8182, 8144, 8146, 8189, 8147, 8176, 8176, 8207, 8177, 8181, 8181, 8173, 8117,6.773970127105713
34, 8193, 8179, 8155, 8136, 8183, 8140, 8167, 8167, 8193, 8160, 8181, 8191, 8168, 8115,6.7891435623168945
35, 8180, 8177, 8152, 8145, 8180, 8146, 8168, 8170, 8187, 8166, 8170, 8174, 8154, 8111,6.804179906845093
36, 8163, 8177, 8146, 8160, 8178, 8157, 8176, 8165, 8185, 8185, 8160, 8154, 8143, 8109,6.804179906845093
37, 8158, 8180, 8158, 8159, 8174, 8172, 8189, 8172, 8188, 8191, 8146, 8159, 8141, 8115,6.819719552993774
38, 8155, 8174, 8134, 8162, 8177, 8183, 8206, 8185, 8206, 8199, 8143, 8145, 8147, 8113,6.819719552993774
39, 8149, 8164, 8132, 8155, 8172, 8168, 8195, 8182, 8214, 8210, 8144, 8147, 8142, 8114,6.835958480834961
40, 8150, 8163, 8131, 8154, 8172, 8157, 8185, 8183, 8216, 8216, 8146, 8153, 8140, 8116,6.835958480834961
41, 8164, 8171, 8135, 8161, 8176, 8160, 8192, 8186, 8214, 8205, 8160, 8163, 8157, 8118,6.8515565395355225
42, 8181, 8186, 8162, 8161, 8172, 8157, 8186, 8187, 8222, 8197, 8175, 8186, 8178, 8125,6.8515565395355225
43, 8191, 8192, 8155, 8169, 8172, 8142, 8171, 8176, 8227, 8199, 8180, 8192, 8186, 8123,6.8515565395355225
44, 8199, 8195, 8162, 8175, 8184, 8141, 8162, 8164, 8200, 8169, 8181, 8203, 8169, 8118,6.866790771484375
45, 8205, 8200, 8166, 8180, 8197, 8152, 8167, 8171, 8192, 8155, 8192, 8200, 8166, 8117,6.882835626602173
46, 8204, 8203, 8167, 8186, 8190, 8141, 8166, 8171, 8202, 8179, 8195, 8196, 8175, 8119,6.882835626602173
47, 8196, 8206, 8179, 8182, 8187, 8137, 8157, 8162, 8189, 8181, 8182, 8201, 8164, 8107,6.898502349853516
48, 8180, 8206, 8161, 8181, 8191, 8147, 8159, 8160, 8184, 8165, 8169, 8178, 8146, 8088,6.898502349853516
49, 8175, 8205, 8170, 8183, 8189, 8143, 8157, 8153, 8186, 8158, 8161, 8176, 8134, 8094,6.913856029510498
50, 8176, 8197, 8171, 8187, 8191, 8154, 8158, 8151, 8180, 8165, 8165, 8177, 8134, 8099,6.913856029510498
51, 8172, 8184, 8157, 8185, 8191, 8174, 8168, 8150, 8167, 8168, 8165, 8168, 8136, 8087,6.929055452346802
52, 8171, 8183, 8172, 8182, 8193, 8173, 8179, 8161, 8163, 8165, 8150, 8174, 8134, 8090,6.929055452346802
53, 8179, 8187, 8159, 8191, 8195, 8173, 8191, 8176, 8189, 8184, 8151, 8168, 8148, 8109,6.945007085800171
54, 8182, 8184, 8161, 8187, 8188, 8186, 8193, 8183, 8210, 8203, 8154, 8174, 8156, 8119,6.945007085800171
55, 8167, 8178, 8157, 8178, 8186, 8190, 8194, 8193, 8220, 8215, 8141, 8173, 8152, 8115,6.960924863815308
56, 8161, 8166, 8135, 8166, 8189, 8170, 8179, 8186, 8222, 8209, 8144, 8168, 8159, 8114,6.960924863815308
57, 8172, 8161, 8150, 8146, 8180, 8159, 8160, 8167, 8210, 8185, 8154, 8183, 8169, 8121,6.976054906845093
58, 8179, 8173, 8146, 8161, 8180, 8158, 8174, 8166, 8208, 8185, 8154, 8178, 8169, 8119,6.976054906845093
59, 8185, 8179, 8152, 8171, 8181, 8151, 8176, 8170, 8201, 8193, 8149, 8184, 8165, 8117,6.9916136264801025
60, 8188, 8175, 8155, 8154, 8169, 8146, 8155, 8168, 8182, 8180, 8155, 8191, 8174, 8116,6.9916136264801025
61, 8192, 8171, 8147, 8149, 8169, 8131, 8140, 8153, 8165, 8155, 8164, 8189, 8176, 8104,7.007655143737793
62, 8194, 8177, 8172, 8154, 8172, 8122, 8132, 8146, 8140, 8130, 8153, 8196, 8155, 8094,7.007655143737793
63, 8181, 8181, 8164, 8168, 8170, 8133, 8135, 8153, 8133, 8130, 8141, 8176, 8144, 8080,7.022796154022217
64, 8177, 8179, 8172, 8181, 8179, 8143, 8144, 8149, 8141, 8143, 8145, 8174, 8143, 8081,7.022796154022217
65, 8190, 8183, 8193, 8191, 8189, 8153, 8157, 8156, 8155, 8158, 8151, 8191, 8151, 8106,7.037899732589722
66, 8188, 8176, 8169, 8188, 8186, 8161, 8165, 8161, 8160, 8169, 8145, 8180, 8157, 8109,7.037899732589722
67, 8165, 8163, 8167, 8174, 8180, 8163, 8160, 8156, 8153, 8164, 8134, 8172, 8143, 8092,7.053055763244629
68, 8150, 8153, 8157, 8169, 8175, 8165, 8172, 8166, 8170, 8173, 8125, 8163, 8141, 8088,7.053055763244629
69, 8154, 8141, 8143, 8159, 8169, 8158, 8178, 8169, 8179, 8177, 8118, 8169, 8146, 8098,7.068682432174683
70, 8155, 8141, 8141, 8152, 8170, 8148, 8165, 8165, 8163, 8157, 8125, 8173, 8144, 8092,7.068682432174683
71, 8151, 8142, 8127, 8159, 8164, 8143, 8154, 8168, 8164, 8152, 8130, 8155, 8146, 8081,7.085013389587402
72, 8149, 8145, 8136, 8155, 8155, 8145, 8150, 8174, 8169, 8159, 8122, 8163, 8145, 8086,7.085013389587402
73, 8153, 8150, 8126, 8151, 8160, 8146, 8158, 8176, 8169, 8171, 8128, 8164, 8152, 8087,7.100088834762573
74, 8163, 8149, 8121, 8146, 8159, 8137, 8157, 8174, 8161, 8165, 8138, 8165, 8161, 8083,7.100088834762573
75, 8164, 8150, 8132, 8140, 8155, 8132, 8152, 8179, 8158, 8146, 8133, 8175, 8158, 8082,7.116075038909912
76, 8161, 8151, 8121, 8152, 8170, 8140, 8156, 8175, 8162, 8140, 8142, 8173, 8160, 8087,7.116075038909912
77, 8163, 8151, 8132, 8151, 8176, 8142, 8149, 8161, 8144, 8134, 8147, 8179, 8166, 8084,7.132044076919556
78, 8158, 8151, 8127, 8149, 8166, 8134, 8141, 8160, 8132, 8132, 8144, 8172, 8170, 8069,7.132044076919556
79, 8162, 8158, 8125, 8150, 8158, 8121, 8139, 8160, 8135, 8134, 8152, 8177, 8170, 8071,7.147640943527222
80, 8169, 8163, 8146, 8147, 8158, 8125, 8136, 8167, 8137, 8134, 8159, 8191, 8166, 8085,7.147640943527222
81, 8166, 8158, 8138, 8161, 8167, 8140, 8142, 8168, 8138, 8140, 8160, 8174, 8160, 8079,7.1631996631622314
82, 8160, 8165, 8155, 8172, 8172, 8150, 8157, 8159, 8137, 8148, 8157, 8173, 8150, 8074,7.1631996631622314
83, 8161, 8170, 8159, 8185, 8170, 8162, 8176, 8165, 8149, 8159, 8148, 8169, 8148, 8082,7.17903995513916
84, 8162, 8153, 8141, 8187, 8169, 8169, 8182, 8170, 8157, 8156, 8131, 8152, 8142, 8085,7.17903995513916
85, 8159, 8149, 8141, 8170, 8167, 8175, 8181, 8172, 8150, 8150, 8122, 8145, 8130, 8086,7.194170236587524
86, 8156, 8157, 8125, 8171, 8174, 8177, 8191, 8174, 8160, 8159, 8120, 8133, 8128, 8082,7.194170236587524
87, 8162, 8157, 8140, 8183, 8183, 8176, 8204, 8181, 8174, 8170, 8120, 8150, 8133, 8089,7.209771156311035
88, 8166, 8157, 8146, 8185, 8182, 8178, 8216, 8194, 8188, 8193, 8129, 8164, 8144, 8104,7.209771156311035
89, 8161, 8147, 8124, 8166, 8168, 8156, 8202, 8182, 8198, 8202, 8132, 8156, 8154, 8105,7.225893259048462
90, 8166, 8145, 8131, 8149, 8159, 8137, 8168, 8170, 8191, 8175, 8120, 8158, 8158, 8094,7.225893259048462
91, 8177, 8163, 8126, 8161, 8169, 8143, 8159, 8168, 8179, 8160, 8127, 8160, 8173, 8092,7.241626739501953
92, 8184, 8164, 8138, 8167, 8168, 8142, 8153, 8154, 8157, 8154, 8144, 8182, 8181, 8102,7.241626739501953
93, 8189, 8158, 8147, 8164, 8162, 8131, 8138, 8149, 8142, 8146, 8146, 8187, 8179, 8099,7.257091760635376
94, 8185, 8169, 8150, 8167, 8172, 8131, 8135, 8147, 8138, 8147, 8149, 8177, 8176, 8088,7.257091760635376
95, 8179, 8187, 8179, 8182, 8184, 8144, 8145, 8143, 8129, 8150, 8156, 8188, 8170, 8097,7.272659063339233
96, 8178, 8184, 8168, 8207, 8188, 8156, 8165, 8150, 8138, 8167, 8147, 8171, 8165, 8112,7.272659063339233
97, 8175, 8166, 8163, 8196, 8186, 8155, 8173, 8155, 8153, 8178, 8129, 8160, 8161, 8113,7.288658380508423
98, 8164, 8154, 8157, 8172, 8185, 8155, 8180, 8165, 8166, 8184, 8133, 8163, 8171, 8104,7.288658380508423
99, 8160, 8141, 8129, 8163, 8183, 8154, 8179, 8173, 8171, 8196, 8148, 8157, 8184, 8104,7.304040431976318
100, 8163, 8144, 8142, 8157, 8172, 8142, 8160, 8170, 8160, 8183, 8154, 8164, 8179, 8107,7.304040431976318
101, 8158, 8153, 8139, 8160, 8170, 8130, 8152, 8169, 8163, 8165, 8161, 8165, 8181, 8094,7.319311141967773
102, 8157, 8153, 8136, 8160, 8168, 8130, 8140, 8166, 8157, 8157, 8161, 8173, 8188, 8084,7.319311141967773
103, 8165, 8158, 8145, 8158, 8165, 8143, 8133, 8166, 8150, 8164, 8159, 8182, 8183, 8087,7.33510160446167
104, 8169, 8165, 8142, 8163, 8172, 8143, 8139, 8163, 8162, 8168, 8167, 8178, 8180, 8085,7.33510160446167
105, 8179, 8174, 8162, 8163, 8174, 8136, 8134, 8162, 8161, 8153, 8173, 8190, 8180, 8089,7.350119352340698
106, 8185, 8179, 8160, 8170, 8170, 8141, 8135, 8170, 8151, 8152, 8173, 8186, 8182, 8087,7.350119352340698
107, 8177, 8177, 8164, 8176, 8176, 8144, 8140, 8160, 8139, 8152, 8171, 8180, 8175, 8083,7.365663051605225
108, 8167, 8174, 8171, 8173, 8184, 8143, 8140, 8155, 8135, 8144, 8155, 8175, 8163, 8085,7.365663051605225
109, 8159, 8173, 8153, 8171, 8179, 8142, 8135, 8159, 8137, 8141, 8143, 8161, 8156, 8085,7.380750894546509
110, 8153, 8168, 8163, 8162, 8173, 8138, 8132, 8160, 8122, 8135, 8135, 8158, 8142, 8073,7.380750894546509
111, 8137, 8151, 8145, 8157, 8176, 8147, 8153, 8163, 8128, 8146, 8120, 8133, 8127, 8058,7.396680116653442
112, 8138, 8155, 8140, 8160, 8178, 8166, 8178, 8165, 8154, 8169, 8117, 8134, 8129, 8073,7.396680116653442
113, 8153, 8173, 8165, 8163, 8180, 8179, 8185, 8170, 8168, 8184, 8129, 8157, 8149, 8096,7.411712646484375
114, 8151, 8162, 8146, 8161, 8183, 8174, 8184, 8166, 8171, 8187, 8140, 8143, 8160, 8089,7.427427053451538
115, 8144, 8144, 8141, 8146, 8171, 8165, 8177, 8163, 8166, 8182, 8136, 8142, 8145, 8077,7.427427053451538
116, 8137, 8145, 8123, 8145, 8162, 8167, 8173, 8172, 8169, 8189, 8125, 8137, 8136, 8074,7.442480564117432
117, 8140, 8156, 8115, 8154, 8169, 8168, 8169, 8166, 8171, 8182, 8120, 8134, 8139, 8079,7.442480564117432
118, 8151, 8166, 8146, 8164, 8176, 8175, 8171, 8168, 8172, 8168, 8129, 8156, 8145, 8089,7.442480564117432
119, 8150, 8155, 8137, 8159, 8172, 8182, 8178, 8173, 8180, 8181, 8142, 8155, 8158, 8092,7.4581122398376465
120, 8139, 8147, 8132, 8138, 8164, 8174, 8165, 8164, 8178, 8188, 8133, 8151, 8158, 8090,7.47395920753479
121, 8146, 8153, 8131, 8147, 8170, 8171, 8162, 8169, 8180, 8188, 8129, 8149, 8160, 8093,7.47395920753479
122, 8168, 8156, 8130, 8156, 8173, 8169, 8172, 8178, 8187, 8190, 8146, 8156, 8172, 8100,7.489172697067261
123, 8163, 8157, 8137, 8136, 8166, 8165, 8169, 8179, 8188, 8185, 8149, 8165, 8166, 8097,7.489172697067261
124, 8158, 8159, 8119, 8135, 8167, 8162, 8169, 8183, 8202, 8192, 8143, 8149, 8160, 8085,7.504842519760132
125, 8169, 8162, 8136, 8145, 8168, 8159, 8169, 8187, 8208, 8194, 8148, 8159, 8172, 8093,7.504842519760132
126, 8165, 8166, 8138, 8141, 8169, 8156, 8164, 8182, 8196, 8182, 8152, 8167, 8184, 8097,7.520626783370972
127, 8160, 8155, 8116, 8125, 8160, 8144, 8146, 8163, 8167, 8163, 8149, 8161, 8172, 8083,7.520626783370972
237, 8162, 8146, 8131, 8115, 8155, 8140, 8134, 8158, 8145, 8152, 8148, 8172, 8161, 8083,7.535689115524292
0, 8163, 8155, 8127, 8130, 8165, 8141, 8138, 8159, 8153, 8155, 8152, 8171, 8167, 8083,7.535689115524292
1, 8165, 8156, 8135, 8129, 8165, 8140, 8133, 8150, 8150, 8146, 8151, 8170, 8156, 8069,7.551703929901123
2, 8164, 8149, 8142, 8121, 8162, 8145, 8134, 8156, 8147, 8141, 8148, 8167, 8147, 8063,7.551703929901123
3, 8166, 8165, 8145, 8145, 8174, 8151, 8142, 8163, 8155, 8150, 8158, 8171, 8153, 8075,7.567784786224365
4, 8170, 8181, 8164, 8165, 8183, 8161, 8146, 8162, 8154, 8157, 8164, 8185, 8153, 8081,7.567784786224365
5, 8155, 8165, 8141, 8160, 8174, 8170, 8149, 8154, 8147, 8161, 8157, 8157, 8144, 8064,7.583795785903931
6, 8145, 8153, 8147, 8153, 8171, 8171, 8150, 8143, 8134, 8154, 8139, 8142, 8129, 8056,7.583795785903931
7, 8160, 8169, 8167, 8174, 8189, 8183, 8169, 8163, 8150, 8171, 8138, 8151, 8134, 8075,7.598985433578491
8, 8168, 8165, 8154, 8196, 8199, 8198, 8183, 8182, 8182, 8204, 8154, 8156, 8158, 8094,7.598985433578491
9, 8164, 8144, 8160, 8185, 8179, 8200, 8162, 8173, 8181, 8196, 8149, 8167, 8159, 8095,7.614794015884399
10, 8159, 8140, 8148, 8172, 8166, 8192, 8150, 8164, 8176, 8186, 8138, 8159, 8153, 8087,7.615150451660156
11, 8163, 8149, 8149, 8166, 8169, 8184, 8158, 8166, 8178, 8194, 8147, 8158, 8156, 8087,7.63070821762085
12, 8176, 8159, 8161, 8171, 8171, 8181, 8162, 8179, 8184, 8202, 8157, 8170, 8169, 8093,7.63070821762085
13, 8181, 8159, 8152, 8172, 8174, 8169, 8151, 8175, 8182, 8195, 8164, 8181, 8186, 8095,7.645920038223267
14, 8182, 8166, 8170, 8163, 8176, 8161, 8138, 8160, 8160, 8171, 8172, 8201, 8186, 8093,7.645920038223267
15, 8189, 8186, 8177, 8184, 8186, 8176, 8153, 8163, 8154, 8177, 8182, 8192, 8179, 8087,7.661539554595947
16, 8181, 8189, 8184, 8202, 8195, 8186, 8158, 8161, 8159, 8182, 8170, 8180, 8163, 8084,7.661539554595947
17, 8157, 8170, 8178, 8193, 8190, 8188, 8153, 8158, 8159, 8164, 8149, 8170, 8151, 8084,7.676701545715332
18, 8151, 8154, 8142, 8185, 8183, 8183, 8167, 8161, 8164, 8170, 8147, 8150, 8154, 8081,7.676701545715332
19, 8156, 8149, 8142, 8179, 8172, 8172, 8165, 8165, 8164, 8184, 8140, 8151, 8145, 8085,7.692180633544922
20, 8153, 8134, 8128, 8173, 8157, 8172, 8155, 8169, 8159, 8183, 8134, 8145, 8138, 8085,7.692180633544922
21, 8157, 8121, 8118, 8158, 8147, 8171, 8152, 8165, 8154, 8175, 8145, 8153, 8156, 8085,7.707770824432373
22, 8158, 8134, 8131, 8153, 8149, 8159, 8147, 8171, 8159, 8175, 8153, 8172, 8177, 8091,7.707770824432373
23, 8157, 8142, 8122, 8167, 8148, 8144, 8134, 8172, 8167, 8174, 8158, 8169, 8181, 8091,7.723881721496582
24, 8172, 8143, 8141, 8168, 8150, 8144, 8118, 8168, 8165, 8160, 8168, 8189, 8175, 8087,7.723881721496582
25, 8183, 8154, 8142, 8163, 8171, 8155, 8127, 8171, 8177, 8161, 8180, 8195, 8186, 8090,7.738856077194214
26, 8188, 8167, 8141, 8172, 8183, 8154, 8137, 8164, 8185, 8166, 8181, 8188, 8197, 8103,7.738856077194214
27, 8190, 8174, 8161, 8189, 8173, 8149, 8133, 8161, 8171, 8161, 8176, 8191, 8187, 8104,7.754223823547363
28, 8185, 8179, 8145, 8196, 8169, 8146, 8129, 8162, 8154, 8155, 8181, 8181, 8173, 8090,7.754223823547363
29, 8194, 8190, 8164, 8187, 8175, 8146, 8134, 8166, 8151, 8157, 8194, 8199, 8179, 8106,7.769928455352783
30, 8212, 8201, 8188, 8207, 8181, 8160, 8152, 8180, 8180, 8182, 8205, 8211, 8201, 8129,7.769928455352783
31, 8206, 8186, 8176, 8199, 8171, 8169, 8155, 8176, 8199, 8186, 8198, 8199, 8194, 8118,7.786037445068359
32, 8185, 8168, 8164, 8155, 8159, 8164, 8145, 8165, 8194, 8167, 8185, 8189, 8175, 8102,7.786037445068359
33, 8178, 8175, 8151, 8174, 8171, 8158, 8144, 8164, 8192, 8171, 8187, 8180, 8180, 8104,7.801635026931763
34, 8185, 8196, 8174, 8212, 8178, 8160, 8140, 8161, 8177, 8172, 8182, 8193, 8177, 8107,7.801635026931763
35, 8177, 8201, 8176, 8211, 8174, 8168, 8148, 8161, 8158, 8156, 8170, 8183, 8155, 8096,7.8167643547058105
36, 8162, 8197, 8167, 8207, 8178, 8171, 8159, 8155, 8146, 8143, 8167, 8171, 8142, 8088,7.8167643547058105
37, 8166, 8201, 8185, 8209, 8178, 8176, 8161, 8157, 8135, 8150, 8169, 8190, 8144, 8093,7.832414627075195
38, 8176, 8203, 8181, 8208, 8175, 8184, 8170, 8165, 8146, 8162, 8176, 8188, 8154, 8099,7.832414627075195
39, 8185, 8204, 8197, 8214, 8175, 8189, 8169, 8165, 8155, 8148, 8173, 8189, 8150, 8107,7.847877264022827
40, 8182, 8205, 8196, 8223, 8178, 8198, 8166, 8172, 8153, 8144, 8163, 8183, 8140, 8105,7.847877264022827
41, 8174, 8189, 8174, 8213, 8176, 8205, 8177, 8174, 8160, 8162, 8153, 8175, 8143, 8104,7.863013982772827
42, 8170, 8175, 8184, 8200, 8173, 8206, 8185, 8179, 8166, 8165, 8145, 8184, 8145, 8111,7.863013982772827
43, 8153, 8164, 8161, 8201, 8165, 8196, 8175, 8180, 8161, 8159, 8141, 8161, 8137, 8094,7.878636121749878
44, 8135, 8150, 8155, 8189, 8151, 8174, 8148, 8164, 8144, 8151, 8135, 8157, 8129, 8079,7.878636121749878
45, 8145, 8150, 8164, 8183, 8152, 8168, 8147, 8160, 8141, 8146, 8136, 8172, 8139, 8091,7.893880605697632
46, 8162, 8155, 8160, 8193, 8153, 8176, 8169, 8171, 8156, 8154, 8145, 8173, 8151, 8099,7.893880605697632
47, 8155, 8156, 8172, 8192, 8144, 8175, 8176, 8186, 8167, 8168, 8157, 8185, 8151, 8099,7.909118890762329
48, 8151, 8154, 8155, 8191, 8145, 8158, 8170, 8186, 8166, 8160, 8163, 8189, 8163, 8097,7.909118890762329
49, 8166, 8158, 8157, 8191, 8150, 8144, 8152, 8174, 8139, 8124, 8157, 8202, 8172, 8103,7.924681663513184
50, 8184, 8173, 8179, 8191, 8151, 8154, 8149, 8180, 8137, 8131, 8159, 8207, 8174, 8123,7.924681663513184
51, 8194, 8176, 8183, 8193, 8154, 8161, 8154, 8180, 8163, 8161, 8162, 8186, 8180, 8120,7.940733909606934
52, 8177, 8171, 8181, 8188, 8156, 8149, 8135, 8163, 8155, 8154, 8161, 8189, 8172, 8076,7.940733909606934
53, 8151, 8174, 8143, 8190, 8160, 8145, 8125, 8161, 8133, 8139, 8171, 8204, 8165, 8039,7.956060171127319
54, 8164, 8175, 8148, 8181, 8155, 8142, 8120, 8159, 8110, 8113, 8164, 8196, 8159, 8047,7.956060171127319
55, 8178, 8168, 8176, 8175, 8143, 8144, 8121, 8155, 8105, 8095, 8147, 8170, 8153, 8048,7.971742868423462
56, 8165, 8165, 8157, 8185, 8150, 8152, 8135, 8165, 8127, 8121, 8172, 8183, 8163, 8024,7.971742868423462
57, 8162, 8173, 8166, 8182, 8153, 8149, 8127, 8175, 8131, 8144, 8193, 8218, 8176, 8020,7.98712682723999
58, 8171, 8178, 8175, 8185, 8146, 8144, 8117, 8171, 8127, 8142, 8174, 8190, 8178, 8020,7.98712682723999
59, 8171, 8172, 8191, 8190, 8139, 8150, 8119, 8151, 8126, 8123, 8168, 8182, 8166, 8014,8.002710580825806
60, 8184, 8190, 8222, 8201, 8137, 8152, 8121, 8149, 8117, 8109, 8190, 8228, 8157, 8025,8.002710580825806
61, 8206, 8217, 8228, 8231, 8147, 8142, 8113, 8159, 8118, 8119, 8198, 8235, 8167, 8036,8.022897958755493
62, 8206, 8211, 8241, 8239, 8163, 8140, 8108, 8164, 8126, 8131, 8192, 8225, 8176, 8031,8.022897958755493
63, 8190, 8189, 8226, 8227, 8173, 8158, 8134, 8176, 8138, 8137, 8199, 8227, 8185, 8029,8.033084630966187
64, 8179, 8181, 8213, 8219, 8175, 8173, 8145, 8170, 8133, 8123, 8181, 8224, 8168, 8019,8.033084630966187
65, 8161, 8173, 8212, 8211, 8172, 8175, 8132, 8161, 8125, 8103, 8142, 8186, 8130, 7994,8.048702478408813
66, 8150, 8160, 8194, 8205, 8170, 8174, 8143, 8171, 8145, 8126, 8143, 8149, 8124, 7989,8.063907623291016
67, 8161, 8159, 8205, 8198, 8169, 8190, 8165, 8183, 8162, 8158, 8151, 8179, 8137, 8008,8.063907623291016
68, 8148, 8143, 8173, 8180, 8160, 8201, 8174, 8190, 8173, 8163, 8125, 8162, 8133, 8001,8.078979015350342
69, 8121, 8113, 8135, 8146, 8152, 8184, 8169, 8186, 8172, 8144, 8099, 8112, 8118, 7980,8.078979015350342
70, 8125, 8123, 8161, 8139, 8150, 8187, 8169, 8181, 8158, 8125, 8098, 8135, 8113, 7986,8.094172239303589
71, 8144, 8141, 8171, 8167, 8149, 8202, 8177, 8174, 8157, 8142, 8108, 8152, 8123, 7996,8.094172239303589
72, 8152, 8131, 8174, 8160, 8146, 8180, 8165, 8173, 8164, 8174, 8122, 8140, 8137, 7998,8.109503269195557
73, 8143, 8116, 8156, 8135, 8152, 8167, 8155, 8182, 8170, 8180, 8135, 8127, 8148, 7996,8.109503269195557
74, 8135, 8113, 8142, 8130, 8149, 8180, 8157, 8180, 8168, 8170, 8131, 8143, 8146, 7998,8.124930381774902
75, 8132, 8128, 8163, 8136, 8145, 8186, 8172, 8194, 8174, 8179, 8123, 8166, 8150, 8004,8.124930381774902
76, 8131, 8138, 8147, 8134, 8162, 8184, 8191, 8211, 8197, 8198, 8140, 8159, 8173, 8001,8.140072107315063
77, 8143, 8125, 8142, 8112, 8149, 8177, 8184, 8200, 8201, 8185, 8151, 8166, 8179, 7999,8.140072107315063
78, 8156, 8124, 8156, 8114, 8123, 8170, 8171, 8186, 8189, 8154, 8141, 8162, 8169, 7994,8.155606269836426
79, 8162, 8147, 8168, 8134, 8134, 8165, 8172, 8174, 8175, 8137, 8145, 8159, 8168, 7989,8.155606269836426
80, 8151, 8150, 8169, 8124, 8154, 8161, 8169, 8169, 8157, 8131, 8154, 8172, 8165, 7984,8.171635150909424
81, 8132, 8136, 8138, 8117, 8153, 8165, 8164, 8161, 8147, 8134, 8144, 8151, 8153, 7964,8.171635150909424
82, 8128, 8148, 8154, 8130, 8154, 8174, 8161, 8146, 8130, 8122, 8127, 8148, 8133, 7954,8.186769485473633
83, 8127, 8157, 8161, 8136, 8165, 8184, 8161, 8146, 8116, 8109, 8117, 8144, 8120, 7959,8.186769485473633
84, 8125, 8138, 8140, 8130, 8156, 8176, 8155, 8146, 8116, 8110, 8112, 8128, 8111, 7957,8.202281475067139
85, 8133, 8141, 8169, 8138, 8146, 8174, 8151, 8150, 8122, 8129, 8115, 8140, 8107, 7968,8.202281475067139
86, 8140, 8153, 8171, 8159, 8158, 8187, 8166, 8165, 8138, 8160, 8129, 8140, 8127, 7987,8.217676162719727
87, 8134, 8144, 8157, 8151, 8158, 8190, 8174, 8172, 8154, 8159, 8122, 8140, 8137, 7996,8.217676162719727
88, 8126, 8131, 8144, 8139, 8144, 8194, 8177, 8182, 8175, 8156, 8103, 8139, 8137, 7988,8.23369812965393
89, 8123, 8121, 8119, 8136, 8144, 8194, 8176, 8184, 8189, 8169, 8112, 8129, 8150, 7979,8.23369812965393
90, 8126, 8123, 8125, 8119, 8149, 8175, 8156, 8180, 8176, 8157, 8120, 8137, 8156, 7978,8.24864649772644
91, 8117, 8120, 8112, 8115, 8145, 8162, 8147, 8183, 8177, 8146, 8113, 8122, 8148, 7966,8.24864649772644
92, 8114, 8115, 8110, 8122, 8133, 8164, 8151, 8180, 8184, 8142, 8115, 8119, 8146, 7955,8.263910055160522
93, 8137, 8144, 8136, 8132, 8136, 8167, 8151, 8181, 8176, 8139, 8135, 8147, 8167, 7962,8.263910055160522
94, 8159, 8176, 8150, 8148, 8152, 8157, 8143, 8174, 8156, 8139, 8153, 8157, 8175, 7966,8.279246091842651
95, 8156, 8176, 8166, 8147, 8150, 8155, 8138, 8158, 8133, 8133, 8143, 8155, 8151, 7960,8.279246091842651
96, 8146, 8169, 8147, 8142, 8140, 8159, 8143, 8158, 8141, 8140, 8139, 8146, 8145, 7952,8.294669151306152
97, 8154, 8182, 8154, 8150, 8144, 8161, 8138, 8158, 8148, 8138, 8150, 8154, 8158, 7954,8.294669151306152
98, 8160, 8199, 8180, 8169, 8154, 8170, 8141, 8154, 8131, 8123, 8148, 8157, 8151, 7959,8.310757160186768
99, 8153, 8191, 8160, 8165, 8156, 8172, 8150, 8152, 8129, 8127, 8135, 8136, 8139, 7953,8.310757160186768
100, 8143, 8176, 8166, 8144, 8147, 8168, 8138, 8152, 8132, 8136, 8127, 8133, 8133, 7946,8.32630467414856
101, 8130, 8175, 8159, 8155, 8141, 8165, 8137, 8152, 8124, 8130, 8118, 8117, 8123, 7937,8.32630467414856
102, 8123, 8176, 8150, 8163, 8136, 8161, 8145, 8149, 8116, 8119, 8114, 8113, 8111, 7940,8.341921329498291
103, 8129, 8174, 8158, 8154, 8146, 8172, 8155, 8162, 8133, 8138, 8125, 8130, 8118, 7956,8.341921329498291
104, 8126, 8162, 8141, 8155, 8152, 8185, 8166, 8172, 8156, 8159, 8120, 8119, 8134, 7957,8.357651948928833
105, 8117, 8146, 8142, 8139, 8135, 8180, 8159, 8165, 8135, 8130, 8090, 8104, 8119, 7946,8.3738431930542
106, 8116, 8144, 8130, 8130, 8130, 8176, 8155, 8163, 8124, 8114, 8086, 8089, 8104, 7941,8.3738431930542
107, 8117, 8150, 8126, 8132, 8132, 8175, 8155, 8166, 8142, 8140, 8106, 8096, 8113, 7949,8.3738431930542
108, 8117, 8149, 8143, 8125, 8121, 8174, 8150, 8177, 8152, 8159, 8109, 8115, 8124, 7962,8.389003276824951
109, 8122, 8140, 8121, 8114, 8117, 8164, 8151, 8176, 8159, 8157, 8109, 8113, 8134, 7961,8.389003276824951
110, 8132, 8140, 8125, 8104, 8118, 8151, 8142, 8160, 8153, 8144, 8115, 8127, 8136, 7960,8.404995441436768
111, 8142, 8148, 8135, 8112, 8113, 8151, 8141, 8169, 8147, 8145, 8127, 8142, 8144, 7966,8.404995441436768
112, 8152, 8148, 8135, 8118, 8108, 8145, 8136, 8174, 8143, 8148, 8148, 8155, 8159, 7970,8.420141220092773
113, 8154, 8151, 8145, 8101, 8111, 8134, 8117, 8160, 8129, 8134, 8147, 8160, 8148, 7965,8.435852527618408
114, 8154, 8161, 8139, 8107, 8123, 8139, 8118, 8148, 8117, 8122, 8135, 8144, 8131, 7952,8.435852527618408
115, 8174, 8173, 8170, 8140, 8141, 8150, 8127, 8152, 8113, 8125, 8149, 8167, 8142, 7962,8.435852527618408
116, 8173, 8181, 8177, 8152, 8149, 8155, 8130, 8166, 8122, 8139, 8167, 8178, 8155, 7973,8.451408863067627
117, 8143, 8177, 8150, 8132, 8144, 8150, 8129, 8155, 8111, 8120, 8146, 8143, 8128, 7947,8.452409029006958
118, 8143, 8177, 8166, 8136, 8143, 8147, 8125, 8145, 8093, 8094, 8124, 8132, 8105, 7925,8.467159271240234
119, 8159, 8180, 8170, 8163, 8152, 8151, 8132, 8154, 8112, 8124, 8137, 8134, 8127, 7937,8.482866525650024
120, 8146, 8177, 8174, 8157, 8145, 8156, 8132, 8153, 8129, 8146, 8146, 8143, 8131, 7954,8.482866525650024
121, 8125, 8164, 8162, 8144, 8137, 8170, 8132, 8153, 8119, 8124, 8131, 8129, 8107, 7945,8.498628616333008
122, 8130, 8152, 8144, 8155, 8149, 8181, 8141, 8159, 8119, 8125, 8118, 8110, 8100, 7943,8.498628616333008
123, 8132, 8155, 8161, 8151, 8147, 8179, 8150, 8173, 8141, 8154, 8122, 8128, 8112, 7964,8.51520586013794
124, 8127, 8156, 8145, 8141, 8137, 8174, 8150, 8180, 8167, 8170, 8134, 8132, 8133, 7969,8.51520586013794
125, 8136, 8152, 8141, 8129, 8136, 8171, 8138, 8177, 8166, 8159, 8136, 8139, 8140, 7974,8.529975652694702
126, 8143, 8164, 8154, 8128, 8146, 8172, 8139, 8185, 8168, 8162, 8144, 8148, 8148, 7987,8.529975652694702
127, 8155, 8178, 8153, 8141, 8154, 8164, 8134, 8177, 8174, 8177, 8163, 8150, 8167, 7981,8.529975652694702
237, 8166, 8182, 8168, 8134, 8145, 8149, 8111, 8155, 8135, 8142, 8157, 8160, 8155, 7963,8.545675992965698
0, 8153, 8181, 8159, 8125, 8136, 8148, 8116, 8146, 8107, 8102, 8143, 8137, 8133, 7951,8.562193393707275
1, 8141, 8180, 8166, 8127, 8142, 8149, 8127, 8146, 8119, 8115, 8146, 8126, 8133, 7951,8.562193393707275
2, 8140, 8185, 8179, 8142, 8156, 8152, 8123, 8153, 8126, 8152, 8145, 8127, 8135, 7952,8.562193393707275
3, 8139, 8184, 8170, 8165, 8159, 8161, 8125, 8150, 8116, 8161, 8144, 8122, 8131, 7954,8.57706069946289
4, 8136, 8180, 8180, 8161, 8154, 8167, 8136, 8146, 8113, 8152, 8147, 8142, 8137, 7968,8.594089031219482
5, 8121, 8165, 8158, 8139, 8162, 8168, 8141, 8158, 8135, 8167, 8136, 8127, 8140, 7966,8.594089031219482
6, 8102, 8148, 8140, 8121, 8146, 8168, 8130, 8166, 8143, 8169, 8112, 8096, 8114, 7953,8.594089031219482
7, 8113, 8159, 8158, 8140, 8136, 8173, 8138, 8177, 8150, 8167, 8123, 8102, 8120, 7966,8.609160423278809
8, 8132, 8150, 8160, 8152, 8150, 8162, 8155, 8178, 8163, 8183, 8144, 8108, 8150, 7984,8.624848127365112
9, 8126, 8131, 8152, 8104, 8130, 8142, 8139, 8161, 8142, 8159, 8117, 8096, 8134, 7970,8.624848127365112
10, 8119, 8147, 8128, 8104, 8113, 8146, 8138, 8161, 8132, 8140, 8111, 8075, 8126, 7958,8.6399405002594
11, 8135, 8135, 8142, 8139, 8127, 8154, 8151, 8167, 8140, 8156, 8138, 8089, 8146, 7970,8.6399405002594
12, 8140, 8107, 8162, 8112, 8134, 8148, 8140, 8164, 8137, 8144, 8135, 8103, 8148, 7971,8.655340671539307
13, 8126, 8152, 8131, 8106, 8149, 8138, 8118, 8157, 8135, 8123, 8140, 8099, 8140, 7960,8.655340671539307
14, 8141, 8186, 8160, 8164, 8173, 8153, 8114, 8162, 8137, 8141, 8178, 8125, 8158, 7980,8.670923709869385
15, 8157, 8140, 8192, 8200, 8177, 8177, 8142, 8174, 8144, 8166, 8190, 8117, 8185, 7992,8.670923709869385
16, 8143, 8110, 8179, 8183, 8167, 8174, 8157, 8165, 8141, 8164, 8162, 8086, 8153, 7989,8.68648362159729
17, 8133, 8114, 8169, 8176, 8163, 8168, 8153, 8163, 8133, 8162, 8146, 8089, 8113, 8009,8.68648362159729
18, 8146, 8104, 8163, 8182, 8155, 8180, 8164, 8167, 8143, 8183, 8166, 8092, 8153, 8016,8.702012777328491
19, 8160, 8108, 8185, 8169, 8149, 8187, 8167, 8163, 8154, 8189, 8178, 8095, 8196, 8007,8.702012777328491
20, 8163, 8116, 8175, 8169, 8155, 8172, 8160, 8170, 8162, 8185, 8171, 8094, 8179, 8015,8.718057870864868
21, 8170, 8110, 8164, 8176, 8156, 8151, 8143, 8168, 8164, 8171, 8173, 8115, 8168, 8027,8.718057870864868
22, 8172, 8113, 8179, 8166, 8151, 8152, 8127, 8163, 8158, 8160, 8183, 8142, 8180, 8023,8.734005451202393
23, 8155, 8101, 8154, 8154, 8144, 8163, 8131, 8165, 8151, 8165, 8176, 8125, 8175, 8012,8.734005451202393
24, 8153, 8093, 8166, 8148, 8139, 8155, 8126, 8158, 8132, 8150, 8174, 8133, 8165, 8012,8.7496817111969
25, 8165, 8113, 8187, 8157, 8151, 8152, 8115, 8153, 8123, 8127, 8191, 8150, 8167, 8005,8.7496817111969
26, 8159, 8129, 8185, 8173, 8165, 8158, 8119, 8147, 8117, 8118, 8184, 8134, 8148, 7993,8.764860153198242
27, 8149, 8142, 8207, 8208, 8174, 8171, 8136, 8152, 8114, 8133, 8170, 8126, 8128, 8002,8.764860153198242
28, 8158, 8130, 8206, 8232, 8171, 8186, 8155, 8161, 8137, 8170, 8194, 8129, 8149, 8018,8.780150413513184
29, 8165, 8106, 8201, 8221, 8160, 8186, 8156, 8161, 8147, 8180, 8207, 8146, 8168, 8032,8.780150413513184
30, 8162, 8123, 8191, 8232, 8163, 8180, 8155, 8171, 8149, 8168, 8197, 8144, 8169, 8039,8.795748233795166
31, 8182, 8149, 8187, 8248, 8167, 8168, 8147, 8177, 8156, 8164, 8221, 8159, 8187, 8042,8.795748233795166
32, 8200, 8143, 8209, 8227, 8155, 8153, 8130, 8168, 8146, 8150, 8245, 8196, 8196, 8034,8.810973167419434
33, 8182, 8141, 8202, 8234, 8153, 8155, 8130, 8156, 8130, 8143, 8240, 8180, 8187, 8014,8.810973167419434
34, 8175, 8170, 8218, 8275, 8171, 8171, 8139, 8153, 8129, 8154, 8239, 8170, 8185, 8025,8.826987266540527
35, 8179, 8172, 8216, 8279, 8179, 8184, 8147, 8164, 8140, 8166, 8234, 8162, 8186, 8047,8.826987266540527
36, 8169, 8139, 8180, 8244, 8164, 8186, 8149, 8164, 8148, 8172, 8218, 8142, 8184, 8051,8.842621564865112
37, 8174, 8133, 8187, 8223, 8155, 8186, 8157, 8168, 8159, 8183, 8214, 8158, 8191, 8060,8.842621564865112
38, 8180, 8137, 8168, 8217, 8152, 8169, 8153, 8170, 8166, 8177, 8212, 8153, 8197, 8055,8.857996463775635
39, 8172, 8118, 8153, 8191, 8145, 8147, 8122, 8155, 8148, 8135, 8201, 8139, 8186, 8038,8.857996463775635
40, 8174, 8124, 8166, 8178, 8157, 8166, 8128, 8164, 8145, 8139, 8207, 8152, 8193, 8039,8.874339580535889
41, 8182, 8144, 8164, 8183, 8169, 8176, 8151, 8173, 8151, 8173, 8217, 8160, 8199, 8039,8.874339580535889
42, 8172, 8145, 8168, 8172, 8157, 8155, 8134, 8155, 8125, 8150, 8202, 8150, 8171, 8019,8.889819383621216
43, 8152, 8144, 8146, 8175, 8157, 8154, 8132, 8146, 8109, 8126, 8183, 8113, 8153, 7994,8.889819383621216
44, 8139, 8143, 8142, 8173, 8161, 8164, 8137, 8145, 8104, 8127, 8168, 8094, 8147, 7987,8.905029535293579
45, 8128, 8147, 8157, 8165, 8160, 8165, 8123, 8146, 8097, 8130, 8163, 8087, 8138, 7987,8.905029535293579
46, 8129, 8155, 8148, 8179, 8173, 8174, 8137, 8151, 8116, 8151, 8176, 8080, 8141, 8001,8.920430898666382
47, 8138, 8156, 8162, 8183, 8178, 8187, 8158, 8159, 8137, 8165, 8172, 8093, 8144, 8025,8.920430898666382
48, 8132, 8146, 8148, 8178, 8165, 8193, 8160, 8163, 8141, 8171, 8158, 8078, 8145, 8026,8.935676336288452
49, 8120, 8134, 8135, 8169, 8157, 8198, 8159, 8157, 8137, 8173, 8147, 8065, 8136, 8013,8.935676336288452
50, 8110, 8124, 8134, 8143, 8152, 8201, 8162, 8159, 8136, 8165, 8125, 8065, 8117, 8010,8.951066493988037
51, 8107, 8119, 8109, 8128, 8145, 8185, 8165, 8163, 8133, 8155, 8109, 8051, 8110, 8014,8.951066493988037
52, 8121, 8134, 8128, 8131, 8146, 8178, 8165, 8172, 8136, 8159, 8119, 8066, 8117, 8026,8.96700406074524
53, 8124, 8135, 8128, 8132, 8155, 8190, 8167, 8190, 8164, 8188, 8136, 8073, 8139, 8027,8.96700406074524
54, 8111, 8125, 8107, 8117, 8154, 8178, 8160, 8188, 8173, 8194, 8130, 8062, 8147, 8018,8.982168912887573
