COUNTER,F3,FC5,AF3,F7,T7,P7,O1,O2,P8,T8,F8,AF4,FC6,F4,Timestamp
15, 8163, 8159, 8129, 8125, 8158, 8135, 8171, 8152, 8169, 8148, 8147, 8162, 8159, 8084,0.027095317840576172
16, 8163, 8164, 8156, 8131, 8162, 8146, 8157, 8148, 8142, 8127, 8152, 8166, 8150, 8082,0.027095317840576172
17, 8172, 8180, 8155, 8153, 8180, 8162, 8166, 8163, 8157, 8159, 8157, 8162, 8163, 8093,0.04401350021362305
18, 8181, 8193, 8178, 8163, 8186, 8163, 8165, 8161, 8164, 8177, 8160, 8177, 8161, 8107,0.04401350021362305
19, 8171, 8194, 8168, 8168, 8180, 8161, 8164, 8160, 8159, 8167, 8160, 8170, 8157, 8099,0.0601043701171875
20, 8166, 8185, 8157, 8164, 8173, 8164, 8176, 8168, 8163, 8161, 8146, 8158, 8156, 8098,0.0601043701171875
21, 8166, 8185, 8180, 8167, 8173, 8177, 8195, 8175, 8180, 8178, 8138, 8168, 8153, 8105,0.0747835636138916
22, 8154, 8175, 8150, 8169, 8179, 8178, 8205, 8172, 8200, 8200, 8149, 8144, 8154, 8100,0.09052252769470215
23, 8147, 8158, 8142, 8131, 8165, 8159, 8184, 8174, 8187, 8180, 8132, 8132, 8147, 8102,0.09052252769470215
24, 8147, 8157, 8134, 8124, 8155, 8143, 8174, 8169, 8172, 8164, 8121, 8136, 8154, 8104,0.09052252769470215
25, 8158, 8171, 8137, 8154, 8164, 8131, 8167, 8155, 8159, 8159, 8150, 8153, 8162, 8088,0.10608768463134766
26, 8175, 8193, 8187, 8177, 8171, 8138, 8161, 8159, 8146, 8146, 8179, 8181, 8153, 8090,0.10608768463134766
27, 8181, 8197, 8182, 8201, 8178, 8159, 8189, 8163, 8158, 8158, 8170, 8170, 8147, 8105,0.12143254280090332
28, 8172, 8177, 8178, 8192, 8176, 8168, 8195, 8161, 8159, 8168, 8132, 8155, 8133, 8106,0.1383497714996338
29, 8156, 8152, 8157, 8167, 8165, 8167, 8180, 8161, 8161, 8167, 8126, 8142, 8130, 8099,0.1383497714996338
30, 8153, 8141, 8133, 8154, 8158, 8152, 8176, 8164, 8174, 8170, 8139, 8134, 8138, 8097,0.1383497714996338
31, 8172, 8162, 8168, 8155, 8161, 8147, 8175, 8181, 8185, 8189, 8147, 8160, 8154, 8116,0.1536862850189209
32, 8178, 8168, 8148, 8157, 8165, 8145, 8170, 8178, 8189, 8200, 8161, 8170, 8166, 8117,0.1536862850189209
33, 8170, 8157, 8143, 8134, 8154, 8132, 8151, 8154, 8146, 8150, 8153, 8174, 8138, 8089,0.1685645580291748
34, 8169, 8166, 8160, 8134, 8157, 8138, 8150, 8151, 8125, 8126, 8145, 8173, 8123, 8077,0.1685645580291748
35, 8166, 8176, 8152, 8152, 8161, 8138, 8147, 8150, 8135, 8141, 8152, 8163, 8134, 8076,0.18465471267700195
36, 8157, 8179, 8172, 8150, 8162, 8136, 8145, 8149, 8125, 8138, 8151, 8164, 8125, 8075,0.18465471267700195
37, 8163, 8176, 8158, 8162, 8178, 8153, 8175, 8157, 8143, 8153, 8148, 8146, 8120, 8082,0.20039772987365723
38, 8174, 8176, 8165, 8166, 8177, 8159, 8186, 8171, 8162, 8171, 8143, 8146, 8123, 8090,0.20039772987365723
39, 8165, 8183, 8176, 8166, 8168, 8159, 8192, 8185, 8155, 8179, 8138, 8150, 8124, 8082,0.21593260765075684
40, 8158, 8175, 8156, 8175, 8174, 8162, 8206, 8182, 8155, 8177, 8136, 8142, 8126, 8094,0.23199796676635742
41, 8164, 8171, 8180, 8177, 8177, 8171, 8197, 8179, 8164, 8174, 8136, 8159, 8128, 8116,0.23199796676635742
42, 8150, 8166, 8160, 8178, 8168, 8173, 8188, 8172, 8168, 8195, 8142, 8152, 8139, 8100,0.23199796676635742
43, 8138, 8150, 8146, 8145, 8149, 8160, 8172, 8158, 8148, 8187, 8131, 8140, 8128, 8081,0.24710392951965332
44, 8150, 8149, 8161, 8129, 8134, 8154, 8164, 8159, 8151, 8154, 8116, 8143, 8113, 8085,0.262448787689209
45, 8172, 8165, 8158, 8163, 8138, 8142, 8166, 8166, 8173, 8156, 8135, 8153, 8135, 8094,0.262448787689209
46, 8201, 8194, 8196, 8189, 8159, 8131, 8157, 8178, 8168, 8176, 8166, 8192, 8171, 8120,0.27844977378845215
47, 8209, 8207, 8186, 8195, 8174, 8135, 8152, 8179, 8170, 8173, 8181, 8199, 8183, 8135,0.27844977378845215
48, 8201, 8195, 8170, 8183, 8162, 8123, 8138, 8160, 8161, 8148, 8177, 8195, 8168, 8119,0.29355812072753906
49, 8203, 8202, 8189, 8197, 8153, 8117, 8137, 8158, 8147, 8159, 8183, 8203, 8173, 8113,0.29355812072753906
50, 8205, 8204, 8176, 8211, 8162, 8120, 8152, 8164, 8150, 8181, 8191, 8185, 8181, 8113,0.3091092109680176
51, 8200, 8191, 8192, 8187, 8157, 8126, 8145, 8158, 8134, 8154, 8174, 8179, 8155, 8104,0.3091092109680176
52, 8194, 8190, 8188, 8194, 8158, 8131, 8138, 8148, 8120, 8135, 8164, 8175, 8147, 8095,0.3250303268432617
53, 8201, 8204, 8195, 8206, 8171, 8133, 8128, 8145, 8108, 8129, 8161, 8178, 8143, 8097,0.3250303268432617
54, 8200, 8213, 8217, 8202, 8175, 8146, 8127, 8153, 8113, 8134, 8161, 8189, 8136, 8105,0.3404109477996826
55, 8195, 8206, 8196, 8219, 8186, 8154, 8151, 8161, 8145, 8172, 8174, 8184, 8160, 8109,0.3404109477996826
56, 8208, 8212, 8225, 8231, 8203, 8160, 8167, 8175, 8148, 8188, 8179, 8198, 8175, 8116,0.3554999828338623
57, 8212, 8214, 8225, 8229, 8202, 8170, 8179, 8181, 8151, 8188, 8178, 8195, 8169, 8124,0.3554999828338623
58, 8207, 8186, 8192, 8212, 8181, 8168, 8180, 8163, 8164, 8184, 8162, 8178, 8158, 8132,0.37154197692871094
59, 8201, 8184, 8198, 8206, 8184, 8180, 8186, 8162, 8169, 8178, 8144, 8169, 8151, 8127,0.37154197692871094
60, 8198, 8212, 8185, 8229, 8208, 8196, 8208, 8173, 8182, 8193, 8150, 8160, 8159, 8119,0.38747096061706543
61, 8200, 8222, 8192, 8216, 8201, 8186, 8206, 8181, 8191, 8200, 8151, 8177, 8166, 8132,0.38747096061706543
62, 8188, 8204, 8168, 8177, 8184, 8171, 8200, 8183, 8206, 8203, 8148, 8166, 8168, 8129,0.4023549556732178
63, 8178, 8187, 8146, 8158, 8177, 8159, 8194, 8178, 8211, 8201, 8149, 8145, 8170, 8114,0.4023549556732178
64, 8186, 8192, 8175, 8169, 8171, 8164, 8186, 8185, 8209, 8195, 8157, 8171, 8180, 8124,0.417696475982666
65, 8195, 8198, 8159, 8187, 8175, 8163, 8184, 8178, 8216, 8201, 8173, 8181, 8191, 8126,0.417696475982666
66, 8188, 8199, 8160, 8175, 8174, 8147, 8164, 8163, 8200, 8183, 8168, 8186, 8177, 8107,0.4337809085845947
67, 8174, 8197, 8154, 8168, 8170, 8141, 8157, 8163, 8186, 8165, 8158, 8178, 8167, 8092,0.4337809085845947
68, 8177, 8193, 8140, 8172, 8173, 8138, 8154, 8165, 8175, 8161, 8162, 8164, 8165, 8091,0.4493217468261719
69, 8187, 8205, 8168, 8171, 8175, 8138, 8151, 8174, 8170, 8160, 8168, 8181, 8165, 8100,0.4493217468261719
70, 8184, 8208, 8156, 8184, 8181, 8135, 8165, 8171, 8181, 8178, 8172, 8178, 8170, 8102,0.46446800231933594
71, 8190, 8211, 8175, 8185, 8186, 8141, 8163, 8166, 8174, 8187, 8173, 8177, 8159, 8101,0.46446800231933594
72, 8184, 8217, 8179, 8185, 8187, 8165, 8165, 8169, 8169, 8187, 8171, 8167, 8150, 8098,0.4800081253051758
73, 8156, 8195, 8142, 8177, 8180, 8170, 8172, 8155, 8161, 8164, 8148, 8133, 8137, 8084,0.4800081253051758
74, 8148, 8184, 8160, 8161, 8174, 8162, 8173, 8152, 8148, 8144, 8123, 8127, 8116, 8084,0.49535632133483887
75, 8163, 8195, 8156, 8178, 8181, 8169, 8196, 8171, 8186, 8182, 8133, 8132, 8131, 8101,0.49535632133483887
76, 8165, 8188, 8154, 8174, 8175, 8182, 8211, 8187, 8207, 8208, 8141, 8140, 8144, 8113,0.5115101337432861
77, 8149, 8169, 8150, 8153, 8167, 8186, 8206, 8188, 8198, 8203, 8133, 8134, 8138, 8113,0.5115101337432861
78, 8150, 8165, 8131, 8146, 8165, 8170, 8192, 8178, 8206, 8203, 8134, 8129, 8145, 8111,0.5266392230987549
79, 8157, 8178, 8152, 8142, 8157, 8159, 8175, 8172, 8205, 8185, 8136, 8148, 8150, 8117,0.5266392230987549
80, 8155, 8182, 8131, 8150, 8156, 8157, 8173, 8173, 8209, 8185, 8147, 8142, 8150, 8118,0.542335033416748
81, 8166, 8181, 8142, 8146, 8161, 8148, 8164, 8175, 8215, 8196, 8165, 8151, 8153, 8118,0.542755126953125
82, 8180, 8191, 8172, 8143, 8172, 8152, 8162, 8177, 8212, 8186, 8172, 8165, 8161, 8117,0.5573961734771729
83, 8179, 8191, 8146, 8147, 8173, 8144, 8166, 8165, 8200, 8171, 8173, 8159, 8162, 8115,0.5573961734771729
84, 8180, 8190, 8160, 8139, 8156, 8133, 8160, 8151, 8174, 8167, 8176, 8178, 8155, 8115,0.5734574794769287
85, 8179, 8189, 8157, 8150, 8157, 8143, 8166, 8141, 8162, 8178, 8188, 8175, 8162, 8101,0.5734574794769287
86, 8171, 8177, 8149, 8151, 8164, 8137, 8156, 8137, 8150, 8161, 8184, 8161, 8160, 8083,0.5893926620483398
87, 8167, 8179, 8158, 8141, 8155, 8136, 8152, 8153, 8156, 8148, 8179, 8166, 8155, 8081,0.5893926620483398
88, 8174, 8190, 8153, 8150, 8155, 8150, 8164, 8167, 8176, 8154, 8179, 8158, 8151, 8084,0.6050906181335449
89, 8173, 8195, 8181, 8156, 8167, 8156, 8155, 8165, 8163, 8151, 8164, 8153, 8132, 8080,0.6050906181335449
90, 8150, 8188, 8166, 8166, 8174, 8160, 8153, 8158, 8152, 8171, 8165, 8142, 8137, 8072,0.6211867332458496
91, 8149, 8188, 8162, 8173, 8176, 8165, 8167, 8159, 8153, 8180, 8172, 8147, 8147, 8079,0.6211867332458496
92, 8164, 8197, 8190, 8177, 8187, 8173, 8185, 8169, 8158, 8171, 8164, 8154, 8139, 8091,0.635911226272583
93, 8163, 8186, 8171, 8183, 8191, 8169, 8199, 8165, 8169, 8184, 8148, 8135, 8144, 8095,0.635911226272583
94, 8162, 8179, 8179, 8170, 8164, 8161, 8189, 8168, 8166, 8182, 8134, 8145, 8150, 8105,0.6515014171600342
95, 8164, 8179, 8161, 8167, 8152, 8160, 8185, 8181, 8176, 8183, 8147, 8155, 8156, 8112,0.6515014171600342
96, 8169, 8174, 8147, 8170, 8167, 8159, 8184, 8174, 8176, 8192, 8160, 8162, 8164, 8114,0.6670584678649902
97, 8172, 8175, 8171, 8168, 8167, 8162, 8174, 8167, 8160, 8181, 8159, 8168, 8164, 8115,0.6670584678649902
98, 8170, 8176, 8153, 8172, 8157, 8154, 8169, 8161, 8154, 8164, 8163, 8161, 8160, 8104,0.6820454597473145
99, 8188, 8194, 8184, 8174, 8161, 8147, 8165, 8160, 8150, 8153, 8173, 8198, 8163, 8107,0.6820454597473145
100, 8205, 8210, 8199, 8190, 8168, 8149, 8174, 8162, 8162, 8163, 8195, 8220, 8182, 8117,0.6976621150970459
101, 8189, 8189, 8177, 8181, 8147, 8134, 8161, 8150, 8146, 8148, 8194, 8203, 8169, 8105,0.6976621150970459
102, 8180, 8187, 8201, 8167, 8138, 8134, 8148, 8159, 8124, 8127, 8177, 8214, 8147, 8098,0.7134678363800049
103, 8204, 8216, 8212, 8209, 8167, 8153, 8178, 8183, 8156, 8164, 8202, 8231, 8173, 8117,0.7134678363800049
104, 8220, 8224, 8235, 8247, 8182, 8168, 8185, 8184, 8161, 8185, 8226, 8242, 8184, 8138,0.7290871143341064
105, 8207, 8214, 8231, 8263, 8187, 8186, 8183, 8172, 8144, 8179, 8216, 8235, 8171, 8142,0.7290871143341064
106, 8201, 8200, 8213, 8253, 8183, 8182, 8193, 8167, 8160, 8184, 8209, 8231, 8175, 8144,0.7443420886993408
107, 8208, 8191, 8227, 8222, 8163, 8157, 8189, 8171, 8178, 8185, 8213, 8249, 8188, 8159,0.7443420886993408
108, 8220, 8190, 8199, 8224, 8164, 8142, 8183, 8164, 8180, 8185, 8228, 8253, 8203, 8165,0.7598178386688232
109, 8234, 8207, 8209, 8224, 8178, 8147, 8175, 8164, 8164, 8175, 8242, 8271, 8209, 8159,0.7753658294677734
110, 8224, 8214, 8212, 8216, 8181, 8162, 8182, 8173, 8165, 8180, 8252, 8267, 8209, 8145,0.7753658294677734
111, 8211, 8202, 8192, 8217, 8180, 8160, 8176, 8171, 8172, 8188, 8242, 8240, 8197, 8130,0.7943124771118164
112, 8217, 8222, 8222, 8230, 8191, 8161, 8159, 8175, 8166, 8176, 8229, 8242, 8184, 8128,0.7943124771118164
113, 8214, 8242, 8209, 8245, 8204, 8170, 8167, 8162, 8164, 8165, 8228, 8229, 8185, 8120,0.8067114353179932
114, 8204, 8221, 8205, 8232, 8199, 8170, 8166, 8135, 8131, 8144, 8205, 8221, 8163, 8113,0.8067114353179932
115, 8191, 8202, 8204, 8224, 8192, 8178, 8175, 8132, 8103, 8147, 8180, 8209, 8146, 8117,0.8067114353179932
116, 8178, 8195, 8178, 8217, 8190, 8182, 8198, 8139, 8123, 8172, 8168, 8180, 8152, 8116,0.8222494125366211
117, 8173, 8185, 8191, 8198, 8184, 8183, 8205, 8158, 8155, 8183, 8167, 8183, 8160, 8113,0.838294267654419
118, 8167, 8171, 8165, 8199, 8186, 8178, 8208, 8180, 8181, 8206, 8183, 8179, 8171, 8109,0.838294267654419
119, 8169, 8170, 8164, 8187, 8187, 8162, 8198, 8188, 8190, 8206, 8183, 8183, 8176, 8118,0.8534798622131348
120, 8177, 8174, 8180, 8174, 8183, 8151, 8190, 8183, 8197, 8186, 8179, 8196, 8185, 8124,0.8534798622131348
121, 8177, 8169, 8162, 8176, 8181, 8136, 8185, 8171, 8187, 8175, 8194, 8193, 8186, 8113,0.8689849376678467
122, 8183, 8185, 8191, 8170, 8187, 8138, 8181, 8175, 8160, 8173, 8211, 8204, 8181, 8112,0.8689849376678467
123, 8186, 8204, 8197, 8188, 8204, 8166, 8200, 8175, 8169, 8186, 8221, 8199, 8196, 8118,0.8840346336364746
124, 8180, 8196, 8193, 8200, 8208, 8185, 8212, 8166, 8175, 8193, 8208, 8192, 8194, 8119,0.8840346336364746
125, 8167, 8182, 8194, 8194, 8205, 8188, 8224, 8175, 8182, 8222, 8198, 8192, 8186, 8119,0.900052547454834
126, 8170, 8168, 8170, 8189, 8195, 8177, 8231, 8180, 8210, 8244, 8200, 8187, 8199, 8128,0.900052547454834
127, 8180, 8159, 8188, 8174, 8177, 8161, 8205, 8182, 8210, 8216, 8189, 8202, 8204, 8147,0.9160912036895752
237, 8183, 8163, 8173, 8174, 8171, 8148, 8180, 8178, 8202, 8205, 8192, 8200, 8202, 8139,0.9160912036895752
0, 8196, 8182, 8172, 8179, 8173, 8136, 8163, 8160, 8179, 8200, 8202, 8210, 8192, 8117,0.9312663078308105
1, 8194, 8198, 8205, 8197, 8186, 8150, 8157, 8153, 8149, 8176, 8196, 8217, 8177, 8110,0.9312663078308105
2, 8167, 8182, 8185, 8226, 8205, 8170, 8180, 8159, 8153, 8174, 8183, 8181, 8170, 8109,0.9471335411071777
3, 8154, 8168, 8182, 8214, 8202, 8184, 8204, 8171, 8178, 8189, 8174, 8174, 8166, 8112,0.9471335411071777
4, 8163, 8168, 8161, 8199, 8186, 8187, 8216, 8185, 8212, 8215, 8179, 8180, 8188, 8123,0.9623470306396484
5, 8176, 8164, 8156, 8194, 8179, 8163, 8199, 8187, 8222, 8221, 8192, 8191, 8210, 8141,0.9623470306396484
6, 8181, 8177, 8183, 8198, 8185, 8152, 8188, 8190, 8217, 8207, 8214, 8217, 8216, 8143,0.9778196811676025
7, 8182, 8187, 8158, 8208, 8191, 8153, 8196, 8185, 8220, 8202, 8228, 8207, 8214, 8125,0.9778196811676025
8, 8180, 8185, 8171, 8199, 8187, 8154, 8190, 8181, 8209, 8202, 8215, 8197, 8197, 8120,0.9936456680297852
9, 8158, 8177, 8163, 8202, 8191, 8169, 8202, 8182, 8212, 8220, 8197, 8178, 8185, 8119,0.9936456680297852
10, 8134, 8158, 8135, 8199, 8195, 8170, 8210, 8169, 8211, 8229, 8176, 8143, 8169, 8103,1.0093035697937012
11, 8136, 8148, 8148, 8186, 8186, 8168, 8196, 8158, 8193, 8213, 8149, 8134, 8151, 8088,1.0093035697937012
12, 8142, 8145, 8129, 8183, 8183, 8170, 8184, 8153, 8190, 8208, 8150, 8137, 8153, 8091,1.0250310897827148
13, 8142, 8140, 8138, 8157, 8176, 8157, 8161, 8152, 8178, 8203, 8158, 8150, 8163, 8111,1.0250310897827148
14, 8147, 8137, 8142, 8151, 8173, 8149, 8160, 8160, 8184, 8200, 8161, 8151, 8178, 8115,1.0401344299316406
15, 8163, 8141, 8139, 8168, 8176, 8148, 8166, 8159, 8193, 8184, 8178, 8169, 8186, 8105,1.0401344299316406
16, 8173, 8161, 8171, 8178, 8182, 8150, 8156, 8162, 8184, 8177, 8203, 8204, 8191, 8114,1.056110143661499
17, 8165, 8169, 8161, 8184, 8191, 8152, 8158, 8161, 8188, 8198, 8219, 8187, 8199, 8115,1.056110143661499
18, 8151, 8155, 8169, 8169, 8182, 8154, 8155, 8155, 8171, 8183, 8195, 8168, 8174, 8097,1.0712103843688965
19, 8143, 8155, 8165, 8173, 8175, 8160, 8168, 8162, 8165, 8175, 8179, 8167, 8160, 8095,1.0712103843688965
20, 8153, 8172, 8159, 8208, 8191, 8167, 8189, 8176, 8188, 8203, 8196, 8176, 8183, 8117,1.087113380432129
21, 8158, 8174, 8192, 8210, 8198, 8185, 8190, 8185, 8192, 8207, 8200, 8191, 8187, 8136,1.087113380432129
22, 8150, 8147, 8160, 8179, 8177, 8183, 8191, 8174, 8192, 8209, 8186, 8173, 8178, 8128,1.102203369140625
23, 8165, 8149, 8168, 8181, 8167, 8162, 8186, 8173, 8196, 8204, 8188, 8194, 8180, 8138,1.102203369140625
24, 8198, 8193, 8216, 8250, 8198, 8158, 8188, 8188, 8212, 8203, 8231, 8243, 8209, 8174,1.117377758026123
25, 8227, 8215, 8232, 8307, 8214, 8143, 8183, 8173, 8211, 8205, 8267, 8273, 8239, 8179,1.117377758026123
26, 8234, 8223, 8255, 8311, 8187, 8130, 8159, 8158, 8179, 8180, 8261, 8294, 8232, 8157,1.1330444812774658
27, 8214, 8230, 8235, 8332, 8179, 8136, 8151, 8154, 8158, 8155, 8245, 8275, 8209, 8137,1.1330444812774658
28, 8207, 8233, 8247, 8348, 8188, 8139, 8142, 8146, 8136, 8147, 8235, 8273, 8187, 8131,1.1487162113189697
29, 8217, 8244, 8270, 8360, 8194, 8147, 8144, 8146, 8133, 8160, 8248, 8293, 8189, 8131,1.1487162113189697
30, 8210, 8241, 8256, 8377, 8201, 8156, 8154, 8143, 8142, 8159, 8251, 8283, 8193, 8127,1.1639947891235352
31, 8198, 8221, 8267, 8366, 8195, 8158, 8151, 8139, 8123, 8135, 8223, 8277, 8171, 8120,1.1639947891235352
32, 8198, 8210, 8245, 8369, 8182, 8157, 8161, 8143, 8124, 8153, 8227, 8274, 8168, 8125,1.179206132888794
33, 8205, 8213, 8250, 8368, 8175, 8160, 8175, 8156, 8146, 8176, 8247, 8285, 8178, 8147,1.179206132888794
34, 8208, 8210, 8259, 8352, 8178, 8173, 8183, 8171, 8164, 8175, 8231, 8285, 8180, 8153,1.1943614482879639
35, 8213, 8199, 8223, 8335, 8179, 8166, 8178, 8170, 8182, 8190, 8222, 8269, 8193, 8143,1.1943614482879639
36, 8220, 8201, 8233, 8309, 8172, 8153, 8158, 8176, 8198, 8207, 8243, 8291, 8213, 8157,1.2099213600158691
37, 8218, 8199, 8217, 8303, 8176, 8161, 8159, 8178, 8206, 8206, 8264, 8295, 8228, 8169,1.2099213600158691
38, 8219, 8191, 8207, 8284, 8179, 8154, 8162, 8166, 8187, 8180, 8254, 8285, 8220, 8158,1.2255690097808838
39, 8219, 8203, 8222, 8267, 8179, 8147, 8159, 8167, 8182, 8168, 8243, 8288, 8215, 8148,1.2255690097808838
40, 8207, 8210, 8201, 8275, 8179, 8149, 8154, 8164, 8191, 8176, 8247, 8279, 8217, 8145,1.2413811683654785
41, 8198, 8211, 8221, 8275, 8185, 8163, 8148, 8162, 8169, 8171, 8235, 8269, 8199, 8139,1.2575368881225586
42, 8195, 8206, 8215, 8277, 8206, 8189, 8166, 8166, 8170, 8177, 8217, 8238, 8188, 8125,1.2575368881225586
43, 8195, 8193, 8197, 8265, 8211, 8193, 8175, 8160, 8180, 8181, 8202, 8224, 8181, 8126,1.2726874351501465
44, 8191, 8190, 8209, 8251, 8204, 8187, 8181, 8160, 8176, 8184, 8194, 8232, 8179, 8144,1.2726874351501465
45, 8188, 8180, 8186, 8249, 8202, 8181, 8201, 8167, 8184, 8195, 8197, 8218, 8189, 8146,1.2726874351501465
46, 8194, 8170, 8188, 8227, 8192, 8170, 8199, 8177, 8186, 8179, 8190, 8222, 8189, 8145,1.2874093055725098
47, 8189, 8169, 8169, 8202, 8181, 8162, 8178, 8178, 8192, 8174, 8186, 8219, 8195, 8143,1.304506778717041
48, 8181, 8161, 8157, 8179, 8175, 8151, 8151, 8166, 8183, 8170, 8185, 8211, 8196, 8131,1.304506778717041
49, 8186, 8164, 8183, 8177, 8175, 8151, 8146, 8164, 8177, 8159, 8191, 8224, 8187, 8122,1.304506778717041
50, 8183, 8173, 8165, 8194, 8186, 8155, 8160, 8165, 8199, 8161, 8194, 8216, 8182, 8114,1.3184781074523926
51, 8175, 8179, 8175, 8180, 8191, 8160, 8155, 8170, 8193, 8154, 8179, 8213, 8169, 8107,1.3343758583068848
52, 8168, 8177, 8171, 8173, 8194, 8174, 8168, 8173, 8184, 8164, 8178, 8196, 8170, 8103,1.3343758583068848
53, 8156, 8167, 8157, 8183, 8198, 8177, 8178, 8165, 8192, 8168, 8178, 8176, 8168, 8100,1.349550724029541
54, 8148, 8171, 8184, 8188, 8196, 8176, 8162, 8162, 8188, 8153, 8172, 8186, 8157, 8095,1.349550724029541
55, 8146, 8171, 8165, 8194, 8199, 8181, 8166, 8161, 8181, 8169, 8178, 8175, 8165, 8095,1.3652758598327637
56, 8143, 8152, 8163, 8176, 8195, 8192, 8179, 8163, 8170, 8180, 8162, 8167, 8164, 8105,1.3652758598327637
57, 8134, 8136, 8152, 8158, 8183, 8204, 8197, 8166, 8179, 8191, 8150, 8164, 8161, 8104,1.3813817501068115
58, 8136, 8138, 8136, 8156, 8176, 8191, 8207, 8164, 8203, 8207, 8160, 8164, 8171, 8106,1.3813817501068115
59, 8145, 8146, 8158, 8146, 8176, 8180, 8203, 8168, 8217, 8201, 8160, 8172, 8172, 8118,1.397092342376709
60, 8143, 8140, 8131, 8142, 8179, 8181, 8205, 8169, 8234, 8193, 8162, 8164, 8175, 8112,1.397092342376709
61, 8145, 8136, 8137, 8132, 8171, 8169, 8188, 8173, 8228, 8178, 8166, 8179, 8177, 8109,1.4124088287353516
62, 8149, 8151, 8150, 8133, 8173, 8163, 8174, 8182, 8228, 8182, 8173, 8183, 8182, 8111,1.4124088287353516
63, 8153, 8157, 8138, 8138, 8188, 8166, 8177, 8173, 8237, 8190, 8189, 8179, 8183, 8102,1.42745041847229
64, 8159, 8164, 8169, 8140, 8190, 8165, 8178, 8163, 8217, 8180, 8197, 8200, 8173, 8095,1.42745041847229
65, 8152, 8163, 8157, 8136, 8182, 8162, 8179, 8163, 8209, 8186, 8194, 8187, 8173, 8091,1.4427692890167236
66, 8144, 8147, 8158, 8108, 8171, 8168, 8176, 8166, 8211, 8179, 8180, 8174, 8168, 8087,1.4427692890167236
67, 8142, 8158, 8176, 8135, 8182, 8187, 8187, 8172, 8223, 8171, 8183, 8184, 8165, 8088,1.4584484100341797
68, 8144, 8171, 8164, 8194, 8199, 8189, 8193, 8169, 8222, 8184, 8188, 8183, 8162, 8091,1.4584484100341797
69, 8132, 8161, 8175, 8193, 8189, 8188, 8188, 8169, 8195, 8177, 8153, 8173, 8146, 8090,1.4735016822814941
70, 8123, 8158, 8158, 8197, 8188, 8198, 8213, 8177, 8210, 8174, 8121, 8144, 8146, 8086,1.4735016822814941
71, 8136, 8167, 8159, 8219, 8201, 8198, 8224, 8181, 8231, 8179, 8117, 8146, 8145, 8087,1.4890992641448975
72, 8129, 8162, 8156, 8219, 8197, 8192, 8211, 8185, 8224, 8183, 8121, 8154, 8139, 8085,1.4890992641448975
73, 8108, 8132, 8113, 8196, 8181, 8176, 8204, 8178, 8219, 8189, 8115, 8128, 8133, 8076,1.504711389541626
74, 8116, 8127, 8125, 8173, 8180, 8173, 8193, 8176, 8223, 8184, 8110, 8131, 8127, 8075,1.504711389541626
75, 8119, 8135, 8113, 8176, 8185, 8176, 8185, 8177, 8233, 8182, 8115, 8132, 8134, 8076,1.5203337669372559
76, 8116, 8130, 8109, 8173, 8171, 8151, 8162, 8170, 8213, 8169, 8109, 8128, 8133, 8078,1.5203337669372559
77, 8127, 8135, 8136, 8173, 8166, 8149, 8156, 8170, 8196, 8159, 8111, 8142, 8132, 8084,1.5354206562042236
78, 8136, 8139, 8126, 8183, 8173, 8164, 8176, 8169, 8205, 8156, 8123, 8148, 8141, 8083,1.5354206562042236
79, 8139, 8141, 8141, 8171, 8168, 8165, 8175, 8173, 8199, 8137, 8119, 8152, 8138, 8079,1.5515174865722656
80, 8141, 8144, 8132, 8177, 8172, 8165, 8173, 8175, 8203, 8141, 8122, 8144, 8142, 8075,1.5515174865722656
81, 8146, 8152, 8137, 8183, 8173, 8163, 8165, 8161, 8192, 8138, 8130, 8153, 8140, 8073,1.5671300888061523
82, 8152, 8174, 8165, 8181, 8173, 8160, 8161, 8163, 8170, 8125, 8133, 8166, 8134, 8069,1.5671300888061523
83, 8157, 8176, 8139, 8191, 8181, 8144, 8166, 8163, 8170, 8130, 8131, 8150, 8136, 8065,1.582108736038208
84, 8161, 8170, 8152, 8186, 8171, 8129, 8149, 8153, 8150, 8119, 8116, 8160, 8129, 8068,1.582108736038208
85, 8156, 8179, 8157, 8193, 8169, 8135, 8144, 8146, 8143, 8121, 8125, 8164, 8130, 8064,1.5977940559387207
86, 8168, 8194, 8163, 8209, 8188, 8148, 8154, 8146, 8161, 8140, 8155, 8167, 8140, 8069,1.5977940559387207
87, 8185, 8201, 8188, 8207, 8193, 8162, 8163, 8156, 8180, 8147, 8159, 8180, 8140, 8088,1.6133637428283691
88, 8174, 8183, 8159, 8201, 8184, 8163, 8168, 8157, 8182, 8139, 8145, 8166, 8139, 8083,1.6133637428283691
89, 8161, 8177, 8169, 8191, 8186, 8159, 8163, 8153, 8167, 8131, 8137, 8171, 8132, 8077,1.6294801235198975
90, 8164, 8188, 8173, 8211, 8195, 8163, 8170, 8160, 8173, 8154, 8147, 8170, 8140, 8086,1.6294801235198975
91, 8174, 8191, 8170, 8231, 8190, 8163, 8168, 8163, 8172, 8154, 8145, 8159, 8147, 8090,1.6450934410095215
92, 8178, 8197, 8194, 8226, 8192, 8178, 8163, 8165, 8166, 8139, 8137, 8167, 8145, 8089,1.6450934410095215
93, 8170, 8190, 8167, 8225, 8206, 8188, 8183, 8165, 8178, 8159, 8142, 8148, 8146, 8086,1.6604714393615723
94, 8164, 8170, 8172, 8215, 8198, 8183, 8185, 8172, 8173, 8164, 8127, 8147, 8136, 8090,1.6604714393615723
95, 8160, 8152, 8167, 8200, 8184, 8182, 8178, 8179, 8182, 8161, 8117, 8151, 8134, 8094,1.676414966583252
96, 8154, 8143, 8138, 8178, 8180, 8170, 8173, 8174, 8195, 8164, 8127, 8139, 8144, 8090,1.676414966583252
97, 8151, 8148, 8156, 8174, 8187, 8170, 8178, 8184, 8192, 8170, 8135, 8152, 8154, 8103,1.6922011375427246
98, 8151, 8146, 8146, 8191, 8196, 8177, 8190, 8184, 8198, 8175, 8139, 8158, 8166, 8111,1.6926229000091553
99, 8156, 8137, 8149, 8169, 8180, 8162, 8167, 8163, 8193, 8147, 8135, 8165, 8160, 8103,1.707322597503662
100, 8161, 8140, 8146, 8154, 8172, 8156, 8153, 8161, 8193, 8142, 8139, 8161, 8165, 8101,1.707322597503662
101, 8165, 8139, 8139, 8162, 8177, 8154, 8154, 8169, 8192, 8160, 8143, 8160, 8175, 8104,1.7230620384216309
102, 8169, 8139, 8165, 8151, 8168, 8146, 8138, 8169, 8171, 8143, 8142, 8178, 8168, 8099,1.7230620384216309
103, 8172, 8144, 8145, 8148, 8171, 8150, 8135, 8160, 8164, 8130, 8152, 8167, 8168, 8087,1.739133358001709
104, 8175, 8149, 8162, 8162, 8190, 8162, 8144, 8160, 8159, 8140, 8156, 8165, 8165, 8088,1.739133358001709
105, 8169, 8165, 8182, 8182, 8202, 8166, 8158, 8168, 8161, 8158, 8156, 8168, 8157, 8091,1.7544660568237305
106, 8163, 8167, 8165, 8192, 8201, 8162, 8157, 8156, 8170, 8164, 8157, 8154, 8153, 8088,1.7544660568237305
107, 8161, 8165, 8187, 8187, 8194, 8172, 8148, 8147, 8155, 8153, 8150, 8156, 8149, 8092,1.7704253196716309
108, 8152, 8168, 8174, 8192, 8197, 8176, 8164, 8155, 8150, 8165, 8151, 8145, 8158, 8090,1.7704253196716309
109, 8152, 8167, 8173, 8182, 8199, 8169, 8172, 8161, 8157, 8180, 8154, 8145, 8156, 8093,1.786067247390747
110, 8155, 8166, 8182, 8179, 8197, 8183, 8175, 8162, 8162, 8177, 8147, 8148, 8148, 8094,1.786067247390747
111, 8152, 8159, 8162, 8193, 8199, 8182, 8175, 8156, 8159, 8171, 8136, 8136, 8149, 8088,1.8010787963867188
112, 8153, 8159, 8182, 8187, 8201, 8176, 8166, 8161, 8154, 8172, 8136, 8150, 8153, 8101,1.8010787963867188
113, 8155, 8162, 8167, 8186, 8199, 8183, 8175, 8167, 8178, 8195, 8155, 8152, 8169, 8116,1.8164730072021484
114, 8160, 8157, 8158, 8181, 8189, 8175, 8172, 8161, 8179, 8190, 8149, 8148, 8164, 8111,1.8164730072021484
115, 8158, 8156, 8164, 8177, 8194, 8180, 8170, 8160, 8171, 8178, 8125, 8148, 8152, 8101,1.832019567489624
116, 8150, 8147, 8139, 8178, 8206, 8194, 8182, 8163, 8187, 8191, 8123, 8142, 8160, 8104,1.8475394248962402
117, 8159, 8154, 8169, 8168, 8202, 8181, 8175, 8174, 8190, 8189, 8141, 8168, 8168, 8116,1.8475394248962402
118, 8173, 8170, 8174, 8178, 8201, 8165, 8181, 8176, 8198, 8198, 8144, 8170, 8179, 8119,1.8475394248962402
119, 8173, 8163, 8160, 8169, 8197, 8170, 8189, 8171, 8205, 8203, 8119, 8155, 8177, 8116,1.8636882305145264
120, 8169, 8155, 8170, 8150, 8193, 8181, 8189, 8183, 8220, 8199, 8138, 8165, 8185, 8116,1.8636882305145264
121, 8176, 8152, 8166, 8154, 8195, 8174, 8185, 8178, 8236, 8208, 8201, 8183, 8212, 8123,1.8784010410308838
122, 8182, 8153, 8193, 8142, 8189, 8163, 8155, 8161, 8209, 8203, 8222, 8203, 8215, 8126,1.8940253257751465
123, 8171, 8147, 8175, 8126, 8185, 8153, 8140, 8160, 8191, 8202, 8230, 8195, 8219, 8119,1.8940253257751465
124, 8168, 8142, 8157, 8105, 8179, 8140, 8141, 8165, 8202, 8210, 8255, 8198, 8241, 8127,1.9092087745666504
125, 8170, 8147, 8183, 8094, 8173, 8151, 8144, 8173, 8211, 8221, 8265, 8212, 8248, 8137,1.9092087745666504
126, 8162, 8147, 8169, 8105, 8178, 8158, 8137, 8166, 8206, 8221, 8265, 8197, 8239, 8123,1.9244637489318848
127, 8159, 8149, 8180, 8092, 8179, 8142, 8125, 8153, 8185, 8197, 8258, 8200, 8220, 8113,1.9244637489318848
237, 8150, 8146, 8164, 8084, 8179, 8148, 8141, 8157, 8185, 8193, 8246, 8189, 8205, 8106,1.9402368068695068
0, 8143, 8145, 8159, 8093, 8179, 8167, 8150, 8161, 8182, 8197, 8236, 8178, 8194, 8104,1.9402368068695068
1, 8151, 8162, 8200, 8101, 8181, 8175, 8146, 8161, 8172, 8197, 8231, 8196, 8199, 8117,1.9554765224456787
2, 8156, 8171, 8182, 8109, 8189, 8168, 8156, 8159, 8186, 8213, 8236, 8189, 8214, 8116,1.9554765224456787
3, 8158, 8169, 8186, 8109, 8197, 8171, 8159, 8158, 8184, 8212, 8226, 8182, 8203, 8107,1.9714891910552979
4, 8151, 8163, 8179, 8116, 8204, 8194, 8170, 8160, 8186, 8210, 8217, 8171, 8197, 8110,1.9714891910552979
5, 8140, 8143, 8156, 8115, 8198, 8195, 8178, 8160, 8195, 8210, 8218, 8157, 8203, 8104,1.9870388507843018
6, 8133, 8140, 8176, 8109, 8189, 8187, 8175, 8167, 8191, 8206, 8215, 8165, 8198, 8099,1.9870388507843018
7, 8136, 8148, 8163, 8119, 8191, 8196, 8187, 8172, 8198, 8221, 8215, 8164, 8198, 8107,2.010084629058838
8, 8148, 8146, 8180, 8116, 8179, 8200, 8200, 8184, 8201, 8217, 8206, 8170, 8196, 8117,2.010084629058838
9, 8152, 8137, 8179, 8116, 8169, 8191, 8208, 8189, 8207, 8211, 8199, 8165, 8198, 8119,2.010084629058838
10, 8156, 8128, 8148, 8103, 8170, 8173, 8192, 8178, 8211, 8212, 8204, 8162, 8202, 8120,2.0190913677215576
11, 8157, 8133, 8166, 8081, 8166, 8168, 8174, 8184, 8204, 8202, 8207, 8185, 8199, 8120,2.0342183113098145
12, 8160, 8140, 8159, 8102, 8166, 8169, 8179, 8183, 8216, 8204, 8216, 8186, 8209, 8115,2.0342183113098145
13, 8172, 8144, 8175, 8121, 8169, 8155, 8164, 8168, 8212, 8198, 8224, 8195, 8209, 8116,2.0495452880859375
14, 8164, 8154, 8181, 8122, 8174, 8161, 8160, 8169, 8202, 8190, 8226, 8188, 8194, 8103,2.0495452880859375
15, 8145, 8152, 8158, 8124, 8177, 8176, 8181, 8168, 8195, 8185, 8206, 8149, 8171, 8084,2.064706802368164
16, 8140, 8144, 8170, 8123, 8171, 8187, 8189, 8165, 8185, 8176, 8179, 8146, 8153, 8090,2.064706802368164
17, 8139, 8133, 8146, 8131, 8174, 8196, 8206, 8167, 8201, 8196, 8185, 8146, 8164, 8101,2.0803158283233643
18, 8142, 8126, 8145, 8119, 8174, 8190, 8206, 8174, 8218, 8219, 8205, 8159, 8179, 8113,2.0803158283233643
19, 8147, 8133, 8152, 8107, 8170, 8182, 8185, 8182, 8229, 8221, 8214, 8173, 8192, 8123,2.0954952239990234
20, 8156, 8137, 8135, 8110, 8169, 8162, 8165, 8165, 8218, 8196, 8210, 8171, 8193, 8117,2.0954952239990234
21, 8177, 8147, 8173, 8110, 8166, 8154, 8152, 8153, 8185, 8174, 8214, 8196, 8189, 8115,2.1116976737976074
22, 8184, 8167, 8180, 8138, 8180, 8170, 8169, 8164, 8196, 8201, 8235, 8197, 8198, 8120,2.1116976737976074
23, 8166, 8168, 8176, 8154, 8194, 8174, 8171, 8165, 8198, 8196, 8208, 8171, 8176, 8114,2.126757860183716
24, 8158, 8167, 8181, 8151, 8190, 8175, 8167, 8160, 8177, 8175, 8170, 8154, 8152, 8109,2.126757860183716
25, 8172, 8168, 8167, 8159, 8182, 8177, 8181, 8159, 8180, 8195, 8192, 8161, 8172, 8123,2.142369270324707
26, 8171, 8166, 8189, 8151, 8178, 8184, 8184, 8165, 8176, 8194, 8197, 8180, 8178, 8127,2.142369270324707
27, 8151, 8158, 8168, 8149, 8177, 8189, 8189, 8162, 8167, 8176, 8164, 8158, 8163, 8108,2.1578216552734375
28, 8157, 8149, 8157, 8141, 8173, 8187, 8195, 8159, 8166, 8169, 8153, 8162, 8163, 8121,2.1578216552734375
29, 8179, 8147, 8176, 8132, 8172, 8189, 8199, 8174, 8181, 8186, 8176, 8194, 8195, 8156,2.1733484268188477
30, 8180, 8146, 8156, 8140, 8173, 8175, 8191, 8175, 8199, 8216, 8201, 8178, 8227, 8151,2.1733484268188477
31, 8180, 8166, 8172, 8152, 8174, 8165, 8173, 8176, 8198, 8207, 8204, 8173, 8222, 8137,2.1888890266418457
32, 8184, 8178, 8172, 8167, 8180, 8173, 8180, 8182, 8209, 8202, 8206, 8182, 8224, 8145,2.1888890266418457
33, 8189, 8165, 8177, 8160, 8176, 8169, 8179, 8181, 8220, 8217, 8215, 8192, 8240, 8150,2.203988552093506
34, 8194, 8166, 8196, 8154, 8178, 8169, 8171, 8185, 8221, 8221, 8229, 8198, 8244, 8141,2.203988552093506
35, 8191, 8170, 8171, 8161, 8188, 8165, 8177, 8176, 8220, 8204, 8224, 8191, 8234, 8128,2.2201180458068848
36, 8191, 8175, 8185, 8156, 8181, 8153, 8167, 8164, 8190, 8184, 8208, 8203, 8222, 8126,2.2201180458068848
37, 8186, 8175, 8176, 8158, 8178, 8158, 8157, 8163, 8180, 8184, 8210, 8195, 8225, 8123,2.2353029251098633
38, 8180, 8163, 8163, 8151, 8178, 8157, 8149, 8160, 8183, 8169, 8203, 8185, 8219, 8120,2.2353029251098633
39, 8182, 8164, 8188, 8149, 8173, 8146, 8143, 8160, 8168, 8156, 8184, 8185, 8199, 8118,2.251636505126953
40, 8181, 8174, 8170, 8164, 8177, 8149, 8145, 8154, 8150, 8152, 8179, 8162, 8188, 8104,2.251636505126953
41, 8182, 8180, 8188, 8155, 8181, 8160, 8145, 8149, 8137, 8135, 8186, 8168, 8185, 8106,2.267289876937866
42, 8191, 8185, 8203, 8165, 8189, 8167, 8163, 8159, 8151, 8154, 8197, 8180, 8199, 8130,2.267289876937866
43, 8204, 8184, 8194, 8174, 8196, 8162, 8173, 8165, 8160, 8169, 8197, 8179, 8203, 8145,2.283010482788086
44, 8198, 8190, 8202, 8160, 8189, 8161, 8169, 8165, 8161, 8156, 8201, 8181, 8194, 8135,2.283010482788086
45, 8187, 8200, 8180, 8173, 8190, 8160, 8172, 8165, 8181, 8179, 8225, 8171, 8205, 8128,2.2985711097717285
46, 8187, 8197, 8190, 8175, 8198, 8166, 8167, 8173, 8185, 8194, 8219, 8177, 8203, 8137,2.2985711097717285
47, 8181, 8186, 8182, 8165, 8205, 8189, 8179, 8179, 8190, 8184, 8193, 8167, 8200, 8131,2.3136680126190186
48, 8174, 8183, 8166, 8172, 8206, 8192, 8191, 8169, 8201, 8183, 8192, 8153, 8210, 8125,2.3136680126190186
49, 8183, 8192, 8200, 8177, 8206, 8188, 8185, 8176, 8201, 8195, 8206, 8173, 8212, 8144,2.328831434249878
50, 8186, 8186, 8182, 8179, 8217, 8198, 8197, 8185, 8215, 8220, 8215, 8171, 8214, 8154,2.328831434249878
51, 8178, 8175, 8178, 8173, 8227, 8207, 8199, 8176, 8216, 8221, 8195, 8162, 8202, 8143,2.3443143367767334
52, 8173, 8176, 8180, 8174, 8224, 8203, 8199, 8172, 8212, 8219, 8182, 8153, 8192, 8139,2.3443143367767334
53, 8176, 8172, 8168, 8176, 8214, 8192, 8210, 8173, 8217, 8225, 8194, 8149, 8194, 8144,2.359938621520996
54, 8184, 8178, 8196, 8170, 8212, 8204, 8221, 8183, 8215, 8224, 8198, 8171, 8198, 8155,2.3750619888305664
55, 8183, 8175, 8175, 8163, 8208, 8209, 8225, 8187, 8227, 8228, 8198, 8167, 8206, 8157,2.3750619888305664
56, 8187, 8157, 8170, 8142, 8194, 8186, 8205, 8179, 8229, 8217, 8189, 8167, 8195, 8150,2.3911216259002686
57, 8192, 8155, 8182, 8139, 8193, 8194, 8206, 8183, 8228, 8213, 8185, 8174, 8196, 8147,2.3911216259002686
58, 8194, 8164, 8167, 8147, 8195, 8194, 8221, 8189, 8241, 8218, 8192, 8166, 8220, 8149,2.3911216259002686
59, 8202, 8174, 8188, 8133, 8188, 8161, 8223, 8198, 8253, 8212, 8199, 8182, 8241, 8163,2.4062933921813965
60, 8214, 8176, 8177, 8141, 8204, 8145, 8232, 8199, 8266, 8224, 8211, 8188, 8263, 8170,2.421469211578369
61, 8225, 8177, 8181, 8155, 8221, 8154, 8219, 8184, 8247, 8218, 8214, 8195, 8260, 8163,2.421469211578369
62, 8219, 8190, 8196, 8159, 8219, 8160, 8206, 8172, 8231, 8201, 8214, 8204, 8252, 8156,2.437251091003418
63, 8214, 8190, 8182, 8161, 8219, 8145, 8207, 8169, 8237, 8208, 8218, 8201, 8255, 8154,2.437251091003418
64, 8218, 8184, 8209, 8152, 8216, 8137, 8195, 8173, 8218, 8205, 8214, 8214, 8248, 8150,2.4528439044952393
65, 8210, 8190, 8197, 8162, 8217, 8144, 8199, 8166, 8211, 8205, 8231, 8213, 8255, 8147,2.4528439044952393
66, 8212, 8201, 8200, 8172, 8222, 8145, 8208, 8164, 8211, 8211, 8245, 8216, 8263, 8161,2.467839002609253
67, 8221, 8214, 8227, 8186, 8235, 8156, 8223, 8185, 8217, 8220, 8240, 8213, 8257, 8166,2.467839002609253
68, 8213, 8203, 8211, 8190, 8238, 8162, 8232, 8178, 8219, 8227, 8235, 8185, 8255, 8153,2.483167886734009
69, 8202, 8187, 8219, 8168, 8217, 8161, 8215, 8158, 8196, 8211, 8220, 8182, 8240, 8147,2.483167886734009
70, 8200, 8190, 8203, 8179, 8215, 8159, 8213, 8164, 8197, 8211, 8212, 8176, 8225, 8148,2.4992926120758057
71, 8204, 8195, 8204, 8197, 8224, 8156, 8217, 8177, 8206, 8214, 8219, 8183, 8229, 8160,2.4992926120758057
72, 8201, 8192, 8220, 8190, 8215, 8164, 8210, 8185, 8206, 8210, 8220, 8199, 8241, 8169,2.514488458633423
73, 8187, 8176, 8182, 8180, 8204, 8164, 8211, 8183, 8211, 8216, 8212, 8185, 8241, 8159,2.514488458633423
74, 8189, 8178, 8195, 8177, 8208, 8166, 8224, 8189, 8216, 8230, 8217, 8191, 8229, 8163,2.5300753116607666
75, 8199, 8188, 8203, 8190, 8218, 8172, 8236, 8197, 8231, 8254, 8241, 8197, 8235, 8177,2.5300753116607666
76, 8192, 8176, 8190, 8185, 8206, 8164, 8217, 8182, 8219, 8230, 8233, 8189, 8225, 8167,2.546140193939209
77, 8178, 8168, 8194, 8170, 8196, 8167, 8205, 8175, 8198, 8199, 8207, 8185, 8199, 8150,2.546140193939209
78, 8180, 8170, 8178, 8178, 8209, 8178, 8225, 8183, 8218, 8226, 8207, 8172, 8196, 8154,2.562248945236206
79, 8193, 8175, 8203, 8177, 8210, 8170, 8231, 8191, 8230, 8238, 8215, 8183, 8203, 8171,2.562248945236206
80, 8197, 8179, 8198, 8180, 8206, 8170, 8227, 8189, 8222, 8229, 8210, 8182, 8210, 8170,2.5782837867736816
81, 8193, 8173, 8169, 8180, 8205, 8167, 8220, 8179, 8208, 8220, 8194, 8161, 8202, 8153,2.5782837867736816
82, 8186, 8167, 8180, 8170, 8198, 8156, 8218, 8187, 8211, 8214, 8199, 8164, 8204, 8153,2.593865156173706
83, 8187, 8161, 8167, 8177, 8190, 8148, 8223, 8192, 8224, 8217, 8227, 8167, 8225, 8160,2.593865156173706
84, 8191, 8154, 8176, 8166, 8181, 8145, 8202, 8185, 8196, 8198, 8220, 8169, 8217, 8154,2.609499931335449
85, 8183, 8152, 8165, 8158, 8181, 8150, 8201, 8178, 8188, 8192, 8208, 8160, 8213, 8142,2.609499931335449
86, 8187, 8156, 8145, 8155, 8186, 8146, 8202, 8174, 8200, 8186, 8223, 8167, 8224, 8140,2.6254310607910156
87, 8193, 8168, 8173, 8151, 8184, 8146, 8176, 8181, 8186, 8160, 8227, 8187, 8221, 8144,2.6254310607910156
88, 8183, 8168, 8164, 8162, 8181, 8143, 8168, 8176, 8184, 8167, 8229, 8177, 8218, 8139,2.6415340900421143
89, 8190, 8169, 8177, 8156, 8175, 8132, 8173, 8165, 8184, 8182, 8242, 8192, 8226, 8139,2.6415340900421143
90, 8205, 8187, 8194, 8165, 8183, 8141, 8181, 8176, 8187, 8191, 8260, 8202, 8244, 8145,2.656583070755005
91, 8211, 8204, 8196, 8192, 8201, 8150, 8180, 8181, 8187, 8204, 8264, 8192, 8249, 8150,2.656583070755005
92, 8218, 8215, 8227, 8197, 8201, 8151, 8172, 8175, 8173, 8204, 8249, 8204, 8232, 8156,2.6721131801605225
93, 8201, 8194, 8195, 8191, 8184, 8145, 8174, 8166, 8160, 8186, 8221, 8178, 8209, 8139,2.6721131801605225
94, 8173, 8163, 8178, 8172, 8172, 8139, 8169, 8158, 8148, 8162, 8185, 8149, 8181, 8123,2.687396764755249
95, 8174, 8166, 8182, 8173, 8179, 8161, 8185, 8166, 8163, 8187, 8190, 8150, 8185, 8141,2.687396764755249
96, 8192, 8174, 8169, 8182, 8183, 8171, 8204, 8173, 8182, 8218, 8211, 8157, 8204, 8156,2.703462600708008
97, 8188, 8172, 8191, 8170, 8177, 8156, 8188, 8173, 8172, 8193, 8191, 8166, 8189, 8145,2.703462600708008
98, 8177, 8166, 8165, 8168, 8175, 8151, 8184, 8174, 8178, 8185, 8179, 8148, 8186, 8134,2.7191336154937744
99, 8194, 8163, 8163, 8160, 8164, 8147, 8177, 8174, 8182, 8193, 8198, 8153, 8206, 8146,2.7191336154937744
100, 8208, 8169, 8179, 8155, 8164, 8136, 8158, 8170, 8158, 8174, 8208, 8178, 8209, 8140,2.735076904296875
101, 8202, 8172, 8157, 8155, 8172, 8123, 8143, 8150, 8133, 8142, 8198, 8176, 8188, 8118,2.735076904296875
102, 8194, 8173, 8180, 8143, 8164, 8124, 8134, 8146, 8118, 8121, 8201, 8172, 8169, 8115,2.751356840133667
103, 8190, 8176, 8186, 8165, 8171, 8136, 8154, 8159, 8127, 8142, 8217, 8159, 8176, 8124,2.751356840133667
104, 8198, 8181, 8198, 8194, 8190, 8145, 8171, 8164, 8136, 8165, 8209, 8164, 8179, 8138,2.7663497924804688
105, 8196, 8176, 8205, 8191, 8185, 8157, 8163, 8166, 8142, 8172, 8192, 8163, 8174, 8141,2.7663497924804688
106, 8181, 8144, 8159, 8168, 8169, 8147, 8154, 8163, 8157, 8178, 8185, 8135, 8182, 8123,2.781512498855591
107, 8182, 8125, 8155, 8135, 8156, 8130, 8147, 8172, 8150, 8170, 8170, 8141, 8182, 8121,2.781512498855591
108, 8183, 8137, 8171, 8121, 8151, 8131, 8145, 8191, 8138, 8151, 8157, 8156, 8175, 8132,2.797175884246826
109, 8167, 8143, 8118, 8161, 8170, 8133, 8167, 8140, 8162, 8158, 8185, 8133, 8193, 8102,2.797175884246826
110, 8171, 8122, 8107, 8145, 8170, 8103, 8135, 8121, 8125, 8122, 8171, 8122, 8171, 8082,2.812516450881958
111, 8188, 8163, 8313, 8065, 8136, 8130, 8063, 8243, 8026, 8036, 8111, 8205, 8104, 8126,2.812516450881958
112, 8137, 8183, 8091, 8238, 8191, 8181, 8202, 8093, 8195, 8206, 8241, 8112, 8223, 8051,2.82846736907959
113, 8131, 8075, 7855, 8251, 8208, 8057, 8195, 7996, 8225, 8232, 8245, 8007, 8229, 8028,2.82846736907959
114, 8197, 8139, 8410, 8001, 8122, 8076, 7999, 8325, 7962, 7980, 8046, 8242, 8030, 8182,2.843172550201416
115, 8164, 8239, 8394, 8167, 8166, 8239, 8153, 8269, 8119, 8148, 8154, 8218, 8139, 8138,2.843172550201416
116, 8130, 8131, 8000, 8258, 8196, 8158, 8239, 8078, 8260, 8280, 8232, 8044, 8231, 8061,2.8588452339172363
117, 8166, 8115, 8177, 8101, 8146, 8106, 8133, 8197, 8126, 8133, 8133, 8146, 8142, 8128,2.8588452339172363
118, 8173, 8151, 8202, 8138, 8158, 8148, 8165, 8195, 8157, 8158, 8165, 8163, 8181, 8130,2.874542713165283
119, 8170, 8125, 8129, 8151, 8151, 8114, 8158, 8153, 8180, 8180, 8193, 8138, 8210, 8110,2.874542713165283
120, 8167, 8128, 8150, 8116, 8142, 8095, 8118, 8160, 8142, 8145, 8189, 8161, 8193, 8097,2.890094518661499
121, 8176, 8148, 8163, 8123, 8159, 8097, 8110, 8167, 8114, 8128, 8188, 8164, 8180, 8095,2.890094518661499
122, 8184, 8170, 8185, 8158, 8164, 8104, 8109, 8147, 8098, 8126, 8195, 8173, 8177, 8093,2.905205011367798
123, 8179, 8181, 8185, 8169, 8162, 8107, 8100, 8141, 8072, 8121, 8199, 8174, 8164, 8086,2.905205011367798
124, 8173, 8197, 8201, 8176, 8174, 8133, 8119, 8160, 8059, 8117, 8199, 8173, 8153, 8093,2.9211573600769043
125, 8176, 8202, 8203, 8221, 8194, 8160, 8161, 8133, 8088, 8137, 8206, 8164, 8170, 8099,2.9211573600769043
126, 8188, 8206, 8230, 8235, 8189, 8167, 8166, 8123, 8092, 8151, 8207, 8182, 8171, 8126,2.935894250869751
127, 8185, 8199, 8221, 8241, 8180, 8170, 8170, 8104, 8107, 8175, 8237, 8196, 8186, 8131,2.935894250869751
237, 8183, 8173, 8212, 8234, 8169, 8158, 8154, 8122, 8113, 8159, 8244, 8198, 8191, 8128,2.951469898223877
0, 8195, 8183, 8242, 8264, 8160, 8154, 8151, 8146, 8117, 8153, 8247, 8216, 8192, 8134,2.967054605484009
1, 8215, 8200, 8247, 8313, 8161, 8138, 8163, 8135, 8138, 8181, 8275, 8236, 8208, 8147,2.967054605484009
2, 8244, 8218, 8284, 8314, 8157, 8130, 8143, 8173, 8136, 8170, 8295, 8282, 8222, 8178,2.967054605484009
3, 8257, 8234, 8296, 8338, 8162, 8132, 8133, 8162, 8158, 8176, 8331, 8308, 8260, 8178,2.9830918312072754
4, 8258, 8225, 8287, 8328, 8152, 8111, 8120, 8157, 8148, 8162, 8323, 8307, 8256, 8172,2.9830918312072754
5, 8255, 8223, 8294, 8305, 8141, 8113, 8124, 8174, 8127, 8141, 8309, 8315, 8241, 8173,2.9985427856445312
6, 8256, 8226, 8276, 8323, 8154, 8114, 8141, 8146, 8139, 8154, 8337, 8311, 8267, 8161,2.9985427856445312
7, 8267, 8235, 8294, 8312, 8162, 8109, 8131, 8157, 8120, 8142, 8332, 8319, 8266, 8168,3.014173746109009
8, 8266, 8246, 8286, 8313, 8166, 8131, 8143, 8146, 8112, 8153, 8324, 8313, 8258, 8153,3.014173746109009
9, 8253, 8239, 8269, 8310, 8161, 8132, 8139, 8141, 8102, 8156, 8304, 8286, 8243, 8139,3.0297141075134277
10, 8235, 8237, 8278, 8301, 8156, 8127, 8119, 8160, 8091, 8137, 8270, 8259, 8220, 8131,3.04787278175354
11, 8213, 8222, 8239, 8295, 8159, 8121, 8106, 8130, 8092, 8129, 8240, 8214, 8201, 8107,3.04787278175354
12, 8202, 8209, 8234, 8264, 8156, 8122, 8095, 8147, 8073, 8115, 8203, 8189, 8175, 8112,3.0613932609558105
13, 8198, 8211, 8221, 8286, 8166, 8146, 8134, 8145, 8104, 8151, 8218, 8177, 8193, 8116,3.0613932609558105
14, 8202, 8205, 8245, 8264, 8160, 8162, 8143, 8166, 8111, 8156, 8205, 8192, 8182, 8133,3.0613932609558105
15, 8182, 8199, 8231, 8243, 8149, 8185, 8164, 8178, 8129, 8176, 8187, 8182, 8181, 8131,3.0772924423217773
16, 8164, 8152, 8111, 8251, 8151, 8155, 8187, 8113, 8169, 8210, 8196, 8115, 8207, 8097,3.0772924423217773
17, 8181, 8134, 8185, 8167, 8129, 8127, 8125, 8185, 8113, 8134, 8148, 8147, 8160, 8122,3.0920937061309814
18, 8171, 8157, 8204, 8166, 8127, 8149, 8138, 8200, 8145, 8145, 8172, 8171, 8177, 8114,3.108499526977539
19, 8165, 8139, 8124, 8184, 8131, 8113, 8146, 8154, 8177, 8177, 8205, 8144, 8209, 8098,3.108499526977539
20, 8187, 8154, 8183, 8157, 8124, 8101, 8104, 8189, 8120, 8128, 8185, 8164, 8183, 8120,3.108499526977539
21, 8185, 8180, 8179, 8190, 8143, 8122, 8116, 8149, 8122, 8132, 8205, 8146, 8181, 8098,3.123025894165039
22, 8178, 8182, 8180, 8184, 8147, 8125, 8123, 8156, 8108, 8127, 8195, 8139, 8161, 8093,3.139047384262085
23, 8171, 8181, 8184, 8198, 8156, 8154, 8158, 8174, 8119, 8154, 8187, 8136, 8163, 8102,3.139047384262085
24, 8155, 8151, 8157, 8209, 8165, 8160, 8182, 8163, 8141, 8180, 8170, 8108, 8166, 8107,3.154949903488159
25, 8144, 8130, 8162, 8170, 8154, 8165, 8175, 8185, 8137, 8165, 8144, 8106, 8148, 8115,3.154949903488159
26, 8132, 8116, 8121, 8148, 8145, 8162, 8175, 8164, 8155, 8169, 8147, 8094, 8154, 8094,3.171133518218994
27, 8124, 8109, 8113, 8117, 8129, 8127, 8140, 8174, 8142, 8147, 8127, 8089, 8147, 8080,3.171133518218994
28, 8131, 8126, 8142, 8123, 8128, 8115, 8121, 8173, 8125, 8126, 8141, 8107, 8154, 8068,3.171133518218994
29, 8144, 8135, 8148, 8142, 8140, 8123, 8130, 8157, 8113, 8118, 8164, 8117, 8155, 8060,3.1863598823547363
30, 8128, 8142, 8145, 8149, 8148, 8139, 8148, 8180, 8108, 8120, 8137, 8100, 8123, 8061,3.202303647994995
31, 8092, 8132, 8127, 8162, 8155, 8153, 8164, 8165, 8122, 8138, 8108, 8065, 8107, 8045,3.202303647994995
32, 8094, 8114, 8139, 8142, 8148, 8162, 8156, 8174, 8122, 8137, 8098, 8066, 8108, 8059,3.202303647994995
33, 8112, 8114, 8127, 8136, 8142, 8171, 8173, 8177, 8149, 8163, 8118, 8080, 8135, 8079,3.217663049697876
34, 8115, 8111, 8113, 8124, 8134, 8149, 8173, 8168, 8152, 8163, 8114, 8086, 8143, 8080,3.2343862056732178
35, 8120, 8126, 8143, 8113, 8132, 8135, 8145, 8186, 8127, 8127, 8114, 8105, 8142, 8085,3.2343862056732178
36, 8130, 8140, 8132, 8142, 8140, 8121, 8142, 8153, 8146, 8139, 8159, 8106, 8173, 8073,3.2343862056732178
37, 8131, 8138, 8144, 8117, 8122, 8092, 8120, 8161, 8124, 8125, 8148, 8106, 8153, 8071,3.2490248680114746
38, 8114, 8150, 8159, 8116, 8121, 8106, 8109, 8170, 8103, 8114, 8135, 8108, 8136, 8063,3.264319658279419
39, 8116, 8157, 8145, 8155, 8145, 8127, 8122, 8145, 8123, 8140, 8161, 8107, 8157, 8067,3.264319658279419
40, 8125, 8155, 8169, 8147, 8147, 8140, 8133, 8178, 8124, 8148, 8155, 8111, 8157, 8098,3.2797913551330566
41, 8100, 8132, 8148, 8149, 8139, 8142, 8150, 8162, 8126, 8153, 8139, 8077, 8151, 8075,3.2797913551330566
42, 8090, 8114, 8142, 8136, 8128, 8131, 8132, 8155, 8111, 8137, 8109, 8066, 8126, 8060,3.2956275939941406
43, 8102, 8127, 8150, 8130, 8138, 8153, 8142, 8176, 8137, 8162, 8106, 8083, 8135, 8079,3.2956275939941406
44, 8100, 8117, 8116, 8127, 8150, 8167, 8167, 8166, 8178, 8191, 8115, 8071, 8157, 8079,3.311340570449829
45, 8098, 8112, 8131, 8110, 8143, 8163, 8157, 8193, 8170, 8163, 8101, 8082, 8146, 8084,3.311340570449829
46, 8114, 8121, 8133, 8128, 8147, 8158, 8170, 8187, 8193, 8182, 8123, 8100, 8172, 8088,3.3272299766540527
47, 8132, 8107, 8127, 8101, 8147, 8134, 8162, 8193, 8195, 8183, 8129, 8103, 8184, 8097,3.3272299766540527
48, 8122, 8105, 8133, 8077, 8137, 8121, 8139, 8200, 8182, 8155, 8124, 8108, 8170, 8095,3.342545509338379
49, 8115, 8114, 8115, 8100, 8135, 8107, 8131, 8164, 8185, 8155, 8139, 8108, 8174, 8080,3.342545509338379
50, 8135, 8121, 8141, 8096, 8134, 8105, 8126, 8192, 8171, 8157, 8143, 8123, 8178, 8095,3.3580360412597656
51, 8145, 8131, 8148, 8103, 8140, 8117, 8139, 8185, 8180, 8172, 8168, 8131, 8199, 8095,3.3580360412597656
52, 8152, 8143, 8157, 8111, 8144, 8111, 8129, 8164, 8164, 8149, 8168, 8140, 8195, 8093,3.374094247817993
53, 8160, 8166, 8181, 8137, 8153, 8128, 8133, 8170, 8142, 8129, 8160, 8148, 8180, 8096,3.374094247817993
54, 8150, 8162, 8171, 8162, 8163, 8140, 8150, 8150, 8145, 8148, 8170, 8134, 8179, 8084,3.390172004699707
55, 8133, 8155, 8183, 8133, 8156, 8137, 8140, 8181, 8135, 8138, 8158, 8131, 8161, 8089,3.390172004699707
56, 8124, 8161, 8166, 8142, 8152, 8144, 8156, 8172, 8163, 8148, 8155, 8114, 8160, 8082,3.4053258895874023
57, 8129, 8156, 8160, 8149, 8148, 8142, 8156, 8160, 8163, 8162, 8138, 8105, 8149, 8077,3.4053258895874023
58, 8131, 8158, 8180, 8145, 8152, 8163, 8155, 8187, 8146, 8166, 8126, 8113, 8142, 8081,3.4205315113067627
59, 8124, 8140, 8148, 8153, 8157, 8168, 8171, 8167, 8166, 8175, 8131, 8093, 8150, 8081,3.4205315113067627
60, 8119, 8127, 8149, 8126, 8145, 8158, 8150, 8175, 8145, 8150, 8098, 8082, 8122, 8094,3.436018705368042
61, 8113, 8131, 8142, 8132, 8150, 8171, 8154, 8164, 8124, 8150, 8097, 8076, 8121, 8074,3.436018705368042
62, 8120, 8130, 8136, 8138, 8158, 8164, 8168, 8162, 8122, 8147, 8106, 8082, 8133, 8071,3.4511704444885254
63, 8124, 8132, 8153, 8126, 8149, 8153, 8166, 8186, 8135, 8132, 8092, 8099, 8134, 8098,3.4511704444885254
64, 8113, 8118, 8125, 8120, 8138, 8141, 8160, 8160, 8159, 8148, 8095, 8090, 8146, 8086,3.4664053916931152
65, 8127, 8121, 8137, 8094, 8131, 8130, 8148, 8185, 8159, 8151, 8106, 8106, 8150, 8094,3.4664053916931152
66, 8149, 8144, 8147, 8108, 8138, 8144, 8173, 8198, 8191, 8174, 8138, 8127, 8175, 8110,3.482405424118042
67, 8140, 8125, 8134, 8103, 8136, 8146, 8178, 8185, 8194, 8161, 8118, 8107, 8166, 8100,3.482405424118042
68, 8119, 8111, 8142, 8079, 8130, 8151, 8165, 8205, 8173, 8135, 8081, 8092, 8140, 8096,3.4981822967529297
69, 8131, 8123, 8133, 8109, 8147, 8163, 8192, 8199, 8214, 8176, 8113, 8103, 8169, 8106,3.4981822967529297
70, 8159, 8133, 8159, 8112, 8149, 8163, 8186, 8217, 8230, 8178, 8124, 8132, 8179, 8127,3.5133800506591797
71, 8141, 8136, 8151, 8099, 8139, 8155, 8161, 8193, 8208, 8146, 8115, 8124, 8165, 8103,3.5133800506591797
72, 8114, 8120, 8109, 8083, 8132, 8129, 8138, 8149, 8177, 8125, 8111, 8094, 8148, 8069,3.529470443725586
73, 8126, 8117, 8128, 8061, 8119, 8118, 8117, 8180, 8158, 8125, 8109, 8104, 8144, 8080,3.529470443725586
74, 8143, 8135, 8135, 8090, 8131, 8135, 8127, 8176, 8195, 8163, 8130, 8118, 8172, 8092,3.5452463626861572
75, 8152, 8137, 8127, 8111, 8150, 8147, 8128, 8172, 8209, 8169, 8128, 8117, 8176, 8104,3.5452463626861572
76, 8161, 8140, 8168, 8092, 8146, 8155, 8117, 8195, 8177, 8149, 8113, 8132, 8163, 8114,3.561221122741699
77, 8154, 8149, 8156, 8109, 8148, 8151, 8124, 8161, 8171, 8157, 8128, 8120, 8172, 8091,3.561221122741699
78, 8145, 8141, 8095, 8129, 8156, 8125, 8125, 8132, 8162, 8144, 8132, 8090, 8163, 8066,3.5761263370513916
79, 8143, 8131, 8143, 8090, 8141, 8116, 8096, 8160, 8124, 8100, 8104, 8109, 8122, 8063,3.5761263370513916
80, 8133, 8136, 8170, 8078, 8135, 8132, 8099, 8176, 8132, 8110, 8103, 8109, 8124, 8062,3.5916435718536377
81, 8128, 8137, 8118, 8107, 8152, 8128, 8122, 8148, 8158, 8132, 8121, 8078, 8152, 8052,3.5916435718536377
82, 8135, 8135, 8136, 8088, 8146, 8116, 8106, 8151, 8132, 8103, 8110, 8091, 8139, 8052,3.6070992946624756
83, 8129, 8148, 8165, 8083, 8138, 8129, 8103, 8177, 8124, 8101, 8108, 8110, 8128, 8063,3.6070992946624756
84, 8131, 8174, 8159, 8136, 8158, 8136, 8128, 8156, 8145, 8139, 8136, 8104, 8150, 8065,3.6231532096862793
85, 8148, 8188, 8180, 8142, 8163, 8127, 8119, 8154, 8119, 8129, 8135, 8114, 8144, 8070,3.6231532096862793
86, 8150, 8178, 8183, 8127, 8155, 8124, 8112, 8164, 8113, 8119, 8134, 8131, 8140, 8076,3.638725996017456
87, 8144, 8165, 8164, 8127, 8150, 8114, 8120, 8159, 8146, 8138, 8151, 8134, 8156, 8085,3.638725996017456
88, 8145, 8183, 8187, 8124, 8147, 8123, 8119, 8189, 8151, 8132, 8145, 8133, 8149, 8091,3.653857946395874
89, 8133, 8190, 8154, 8162, 8168, 8143, 8146, 8161, 8173, 8149, 8142, 8102, 8147, 8061,3.653857946395874
90, 8122, 8169, 8176, 8127, 8163, 8133, 8131, 8183, 8147, 8129, 8098, 8104, 8107, 8071,3.669970989227295
91, 8112, 8180, 8210, 8116, 8146, 8155, 8138, 8209, 8145, 8129, 8092, 8113, 8098, 8080,3.669970989227295
92, 8116, 8182, 8120, 8185, 8163, 8151, 8180, 8130, 8194, 8182, 8151, 8077, 8144, 8045,3.6855568885803223
93, 8132, 8180, 8164, 8146, 8164, 8130, 8145, 8168, 8150, 8146, 8125, 8106, 8114, 8067,3.6855568885803223
94, 8112, 8174, 8161, 8136, 8158, 8156, 8160, 8175, 8151, 8147, 8095, 8097, 8101, 8063,3.701566457748413
95, 8103, 8142, 8097, 8154, 8154, 8152, 8179, 8150, 8172, 8160, 8083, 8059, 8101, 8048,3.701566457748413
96, 8120, 8162, 8153, 8147, 8159, 8157, 8166, 8195, 8165, 8146, 8093, 8103, 8094, 8078,3.7170040607452393
97, 8118, 8168, 8137, 8170, 8174, 8162, 8184, 8171, 8203, 8184, 8127, 8110, 8121, 8080,3.7170040607452393
98, 8122, 8139, 8132, 8135, 8153, 8140, 8165, 8188, 8200, 8174, 8101, 8105, 8121, 8090,3.732154607772827
99, 8128, 8134, 8127, 8114, 8140, 8132, 8148, 8186, 8213, 8175, 8119, 8119, 8145, 8089,3.732154607772827
100, 8137, 8135, 8122, 8106, 8147, 8109, 8128, 8167, 8207, 8167, 8144, 8129, 8150, 8087,3.7482662200927734
101, 8145, 8155, 8158, 8112, 8154, 8117, 8131, 8187, 8186, 8145, 8138, 8145, 8134, 8092,3.7482662200927734
102, 8142, 8159, 8143, 8137, 8163, 8126, 8150, 8161, 8202, 8157, 8147, 8135, 8143, 8074,3.764371156692505
103, 8140, 8155, 8150, 8108, 8150, 8111, 8112, 8170, 8167, 8122, 8130, 8132, 8119, 8073,3.764371156692505
104, 8137, 8164, 8143, 8114, 8153, 8116, 8114, 8158, 8152, 8122, 8136, 8131, 8119, 8064,3.7804653644561768
105, 8140, 8161, 8139, 8126, 8159, 8111, 8136, 8143, 8161, 8136, 8142, 8128, 8129, 8064,3.7804653644561768
106, 8144, 8179, 8170, 8124, 8156, 8116, 8143, 8179, 8167, 8131, 8134, 8136, 8118, 8083,3.7954490184783936
107, 8144, 8196, 8156, 8155, 8166, 8136, 8160, 8161, 8196, 8155, 8154, 8129, 8129, 8077,3.7954490184783936
108, 8148, 8198, 8169, 8156, 8172, 8142, 8158, 8173, 8185, 8152, 8152, 8136, 8127, 8092,3.811622142791748
109, 8138, 8202, 8172, 8169, 8175, 8144, 8169, 8181, 8182, 8154, 8147, 8128, 8123, 8096,3.811622142791748
110, 8131, 8190, 8150, 8160, 8168, 8127, 8163, 8161, 8176, 8140, 8127, 8105, 8103, 8071,3.8272337913513184
111, 8133, 8188, 8165, 8138, 8162, 8123, 8146, 8170, 8156, 8116, 8097, 8105, 8084, 8065,3.8272337913513184
112, 8129, 8183, 8155, 8158, 8169, 8125, 8158, 8149, 8163, 8135, 8108, 8099, 8103, 8067,3.8424367904663086
113, 8125, 8163, 8160, 8132, 8159, 8122, 8154, 8173, 8153, 8135, 8104, 8104, 8091, 8079,3.8424367904663086
114, 8113, 8156, 8148, 8119, 8162, 8138, 8166, 8179, 8154, 8141, 8087, 8092, 8079, 8071,3.858461618423462
115, 8106, 8153, 8129, 8146, 8172, 8130, 8172, 8151, 8154, 8136, 8065, 8069, 8080, 8070,3.858461618423462
116, 8118, 8162, 8165, 8166, 8168, 8125, 8161, 8180, 8147, 8132, 8071, 8092, 8093, 8101,3.8740999698638916
117, 8127, 8156, 8157, 8182, 8172, 8139, 8171, 8167, 8173, 8180, 8118, 8107, 8126, 8100,3.8740999698638916
118, 8127, 8139, 8148, 8138, 8163, 8130, 8157, 8170, 8166, 8176, 8102, 8100, 8113, 8096,3.89013934135437
119, 8113, 8133, 8137, 8112, 8151, 8119, 8153, 8175, 8163, 8150, 8077, 8083, 8104, 8089,3.89013934135437
120, 8105, 8119, 8112, 8112, 8151, 8113, 8151, 8159, 8172, 8151, 8080, 8073, 8113, 8075,3.905627965927124
121, 8121, 8128, 8137, 8103, 8147, 8126, 8139, 8188, 8164, 8153, 8077, 8096, 8113, 8089,3.905627965927124
122, 8129, 8136, 8125, 8114, 8148, 8125, 8154, 8168, 8182, 8161, 8093, 8096, 8134, 8092,3.921165943145752
123, 8125, 8123, 8126, 8085, 8142, 8104, 8141, 8162, 8165, 8130, 8095, 8098, 8129, 8092,3.921165943145752
124, 8131, 8136, 8146, 8091, 8145, 8119, 8134, 8175, 8153, 8134, 8119, 8127, 8135, 8091,3.9363484382629395
125, 8151, 8156, 8150, 8133, 8161, 8118, 8130, 8157, 8160, 8159, 8146, 8144, 8151, 8091,3.9363484382629395
126, 8157, 8163, 8172, 8120, 8164, 8108, 8107, 8173, 8136, 8124, 8118, 8148, 8125, 8098,3.951448440551758
127, 8136, 8156, 8147, 8114, 8159, 8111, 8115, 8150, 8133, 8109, 8110, 8128, 8107, 8070,3.951448440551758
237, 8131, 8151, 8145, 8111, 8147, 8110, 8115, 8155, 8118, 8103, 8113, 8116, 8090, 8058,3.9670114517211914
0, 8139, 8166, 8165, 8126, 8157, 8127, 8131, 8177, 8120, 8101, 8113, 8117, 8088, 8064,3.9670114517211914
1, 8134, 8163, 8145, 8143, 8170, 8119, 8148, 8147, 8138, 8108, 8107, 8108, 8094, 8055,3.983264446258545
2, 8122, 8155, 8153, 8125, 8155, 8106, 8127, 8165, 8113, 8088, 8080, 8100, 8067, 8056,3.983264446258545
3, 8107, 8158, 8146, 8139, 8160, 8124, 8136, 8163, 8117, 8100, 8081, 8080, 8063, 8048,3.9993271827697754
4, 8108, 8154, 8150, 8146, 8170, 8124, 8146, 8164, 8127, 8105, 8077, 8084, 8065, 8052,3.9993271827697754
5, 8122, 8160, 8176, 8153, 8168, 8127, 8146, 8183, 8132, 8110, 8078, 8104, 8071, 8068,4.018515586853027
6, 8129, 8159, 8166, 8177, 8174, 8140, 8155, 8161, 8147, 8141, 8098, 8097, 8093, 8070,4.018515586853027
7, 8118, 8153, 8166, 8168, 8172, 8145, 8148, 8177, 8131, 8139, 8084, 8098, 8086, 8079,4.030450105667114
8, 8113, 8151, 8154, 8171, 8171, 8146, 8153, 8166, 8130, 8145, 8088, 8100, 8093, 8072,4.030450105667114
9, 8133, 8144, 8156, 8172, 8177, 8142, 8160, 8158, 8135, 8149, 8095, 8106, 8108, 8081,4.044737339019775
10, 8136, 8151, 8168, 8165, 8176, 8151, 8168, 8188, 8142, 8143, 8085, 8117, 8110, 8100,4.06198263168335
11, 8111, 8141, 8132, 8153, 8163, 8145, 8174, 8167, 8163, 8142, 8073, 8097, 8107, 8080,4.06198263168335
12, 8112, 8128, 8135, 8117, 8153, 8137, 8159, 8178, 8156, 8132, 8062, 8094, 8100, 8081,4.06198263168335
13, 8134, 8132, 8144, 8131, 8159, 8138, 8169, 8178, 8170, 8167, 8094, 8110, 8124, 8094,4.078441858291626
14, 8142, 8129, 8138, 8140, 8148, 8115, 8165, 8172, 8173, 8179, 8107, 8119, 8126, 8097,4.078441858291626
15, 8134, 8138, 8149, 8122, 8137, 8115, 8148, 8194, 8161, 8156, 8096, 8122, 8119, 8098,4.092209577560425
16, 8127, 8140, 8135, 8126, 8143, 8121, 8150, 8173, 8174, 8166, 8118, 8118, 8141, 8089,4.1081671714782715
17, 8128, 8136, 8152, 8113, 8133, 8101, 8132, 8177, 8155, 8148, 8116, 8135, 8128, 8092,4.1081671714782715
18, 8128, 8149, 8153, 8128, 8137, 8093, 8128, 8163, 8147, 8125, 8114, 8131, 8121, 8073,4.123424291610718
19, 8132, 8159, 8149, 8137, 8150, 8090, 8118, 8149, 8132, 8108, 8122, 8119, 8122, 8054,4.123424291610718
20, 8141, 8181, 8188, 8139, 8154, 8106, 8121, 8177, 8114, 8113, 8137, 8143, 8123, 8068,4.139023065567017
21, 8150, 8193, 8185, 8175, 8165, 8116, 8150, 8148, 8136, 8145, 8159, 8145, 8136, 8078,4.139023065567017
22, 8153, 8184, 8186, 8164, 8163, 8105, 8130, 8150, 8111, 8110, 8127, 8132, 8105, 8083,4.154132843017578
23, 8136, 8184, 8182, 8170, 8161, 8114, 8130, 8155, 8097, 8090, 8102, 8113, 8087, 8065,4.154132843017578
24, 8134, 8174, 8163, 8193, 8172, 8131, 8155, 8143, 8117, 8119, 8103, 8096, 8096, 8060,4.169461488723755
25, 8151, 8169, 8195, 8175, 8178, 8149, 8158, 8190, 8121, 8125, 8091, 8124, 8099, 8097,4.169461488723755
26, 8142, 8170, 8189, 8190, 8173, 8156, 8172, 8183, 8154, 8151, 8113, 8139, 8135, 8098,4.1850926876068115
27, 8131, 8159, 8147, 8198, 8166, 8133, 8164, 8161, 8162, 8159, 8119, 8112, 8145, 8086,4.1850926876068115
28, 8138, 8160, 8167, 8176, 8166, 8130, 8144, 8176, 8128, 8127, 8094, 8113, 8111, 8094,4.201135158538818
29, 8143, 8171, 8183, 8189, 8165, 8149, 8167, 8169, 8137, 8136, 8100, 8134, 8114, 8094,4.201135158538818
30, 8147, 8166, 8148, 8208, 8155, 8145, 8189, 8167, 8173, 8166, 8119, 8126, 8141, 8099,4.216330528259277
31, 8145, 8155, 8147, 8190, 8155, 8140, 8173, 8175, 8173, 8154, 8114, 8123, 8135, 8105,4.216330528259277
32, 8141, 8156, 8166, 8173, 8157, 8145, 8155, 8188, 8149, 8143, 8106, 8132, 8116, 8106,4.231841802597046
33, 8141, 8156, 8166, 8176, 8143, 8138, 8151, 8184, 8133, 8151, 8103, 8132, 8111, 8098,4.231841802597046
34, 8141, 8153, 8163, 8176, 8144, 8135, 8158, 8175, 8130, 8143, 8094, 8124, 8108, 8091,4.2473578453063965
35, 8141, 8152, 8137, 8178, 8159, 8148, 8173, 8189, 8158, 8161, 8097, 8116, 8118, 8097,4.2473578453063965
36, 8145, 8145, 8121, 8168, 8157, 8137, 8163, 8184, 8182, 8183, 8111, 8121, 8137, 8099,4.263163328170776
37, 8142, 8144, 8134, 8133, 8147, 8109, 8131, 8188, 8164, 8143, 8096, 8129, 8135, 8091,4.263163328170776
38, 8138, 8162, 8128, 8135, 8152, 8105, 8130, 8179, 8165, 8127, 8109, 8129, 8142, 8073,4.278181552886963
39, 8147, 8169, 8118, 8141, 8157, 8109, 8136, 8157, 8166, 8149, 8139, 8131, 8150, 8060,4.278181552886963
40, 8151, 8171, 8141, 8123, 8155, 8120, 8125, 8179, 8118, 8120, 8114, 8128, 8118, 8059,4.293389797210693
41, 8136, 8185, 8142, 8157, 8167, 8138, 8149, 8165, 8120, 8111, 8104, 8108, 8103, 8045,4.293389797210693
42, 8121, 8175, 8141, 8173, 8175, 8146, 8165, 8168, 8149, 8140, 8099, 8098, 8098, 8049,4.30925178527832
43, 8125, 8162, 8156, 8166, 8178, 8171, 8178, 8199, 8161, 8165, 8086, 8105, 8100, 8065,4.30925178527832
44, 8140, 8157, 8142, 8183, 8179, 8171, 8198, 8176, 8183, 8186, 8101, 8101, 8123, 8071,4.324384689331055
45, 8151, 8157, 8153, 8158, 8161, 8151, 8179, 8189, 8182, 8175, 8106, 8112, 8126, 8093,4.324384689331055
46, 8157, 8169, 8153, 8158, 8166, 8168, 8178, 8186, 8196, 8193, 8125, 8132, 8147, 8098,4.340405464172363
47, 8172, 8175, 8147, 8177, 8181, 8166, 8179, 8173, 8199, 8197, 8144, 8150, 8169, 8097,4.340405464172363
48, 8182, 8189, 8178, 8170, 8177, 8151, 8161, 8190, 8178, 8173, 8162, 8173, 8168, 8102,4.355595588684082
49, 8172, 8184, 8168, 8172, 8171, 8146, 8158, 8162, 8168, 8179, 8183, 8159, 8171, 8083,4.355595588684082
50, 8167, 8174, 8180, 8156, 8163, 8147, 8155, 8179, 8152, 8161, 8162, 8156, 8156, 8089,4.371102571487427
51, 8159, 8177, 8177, 8156, 8171, 8164, 8169, 8183, 8166, 8151, 8148, 8162, 8149, 8092,4.371102571487427
52, 8149, 8170, 8144, 8158, 8177, 8158, 8165, 8159, 8163, 8144, 8135, 8141, 8135, 8075,4.3871777057647705
53, 8144, 8177, 8170, 8165, 8176, 8165, 8161, 8175, 8138, 8138, 8132, 8135, 8120, 8079,4.3871777057647705
54, 8140, 8182, 8169, 8196, 8187, 8194, 8188, 8162, 8161, 8172, 8160, 8133, 8142, 8083,4.402483224868774
55, 8150, 8177, 8168, 8179, 8189, 8199, 8184, 8182, 8162, 8168, 8148, 8142, 8136, 8102,4.402859926223755
56, 8148, 8174, 8166, 8171, 8191, 8192, 8182, 8188, 8167, 8170, 8141, 8138, 8129, 8101,4.417530536651611
57, 8134, 8154, 8144, 8177, 8188, 8185, 8189, 8171, 8180, 8184, 8141, 8115, 8130, 8086,4.417530536651611
58, 8142, 8149, 8170, 8160, 8178, 8208, 8199, 8203, 8177, 8180, 8131, 8133, 8133, 8109,4.432987451553345
59, 8151, 8147, 8161, 8172, 8181, 8219, 8227, 8196, 8213, 8213, 8157, 8144, 8169, 8123,4.432987451553345
60, 8158, 8139, 8155, 8165, 8184, 8195, 8215, 8205, 8221, 8218, 8162, 8143, 8171, 8133,4.448132753372192
61, 8159, 8147, 8162, 8166, 8185, 8197, 8211, 8205, 8213, 8209, 8162, 8151, 8171, 8131,4.448132753372192
62, 8152, 8138, 8139, 8166, 8172, 8183, 8212, 8176, 8206, 8209, 8163, 8152, 8182, 8118,4.463566541671753
63, 8152, 8136, 8153, 8140, 8158, 8165, 8189, 8203, 8188, 8186, 8156, 8163, 8171, 8126,4.463566541671753
64, 8156, 8147, 8146, 8152, 8175, 8169, 8194, 8189, 8216, 8190, 8185, 8163, 8183, 8116,4.479573965072632
65, 8161, 8146, 8140, 8140, 8173, 8160, 8182, 8184, 8214, 8181, 8183, 8168, 8181, 8116,4.479573965072632
66, 8165, 8157, 8157, 8137, 8164, 8166, 8172, 8190, 8196, 8174, 8174, 8181, 8176, 8115,4.495134353637695
67, 8173, 8168, 8158, 8160, 8178, 8172, 8177, 8166, 8192, 8170, 8196, 8176, 8184, 8102,4.495134353637695
68, 8174, 8181, 8185, 8157, 8181, 8171, 8170, 8190, 8167, 8155, 8196, 8188, 8174, 8111,4.511199474334717
69, 8152, 8185, 8167, 8173, 8182, 8174, 8178, 8167, 8162, 8175, 8191, 8176, 8166, 8093,4.511199474334717
70, 8141, 8176, 8150, 8160, 8183, 8170, 8167, 8154, 8145, 8153, 8169, 8154, 8141, 8084,4.526432991027832
71, 8154, 8192, 8182, 8169, 8189, 8189, 8171, 8177, 8148, 8144, 8174, 8167, 8139, 8101,4.542046070098877
72, 8161, 8201, 8182, 8216, 8204, 8195, 8189, 8165, 8169, 8189, 8194, 8174, 8154, 8104,4.542046070098877
73, 8153, 8194, 8189, 8205, 8201, 8185, 8183, 8179, 8149, 8187, 8170, 8171, 8135, 8107,4.542046070098877
74, 8143, 8184, 8170, 8195, 8191, 8198, 8199, 8160, 8153, 8182, 8166, 8155, 8137, 8098,4.558656692504883
75, 8145, 8171, 8158, 8185, 8176, 8203, 8195, 8168, 8157, 8176, 8163, 8151, 8134, 8100,4.558656692504883
76, 8141, 8172, 8169, 8178, 8169, 8200, 8183, 8198, 8161, 8177, 8156, 8168, 8131, 8113,4.572821378707886
77, 8137, 8161, 8144, 8188, 8175, 8184, 8192, 8169, 8182, 8196, 8160, 8164, 8145, 8111,4.588066577911377
78, 8142, 8157, 8164, 8171, 8159, 8173, 8169, 8181, 8157, 8174, 8140, 8164, 8135, 8117,4.588066577911377
79, 8132, 8172, 8167, 8183, 8152, 8179, 8165, 8175, 8147, 8163, 8157, 8158, 8141, 8102,4.603249549865723
80, 8129, 8163, 8148, 8182, 8157, 8177, 8174, 8168, 8150, 8157, 8168, 8156, 8144, 8095,4.603249549865723
81, 8146, 8157, 8175, 8174, 8153, 8192, 8178, 8189, 8161, 8166, 8166, 8189, 8150, 8113,4.619297027587891
82, 8164, 8162, 8179, 8193, 8151, 8182, 8174, 8168, 8182, 8193, 8202, 8211, 8190, 8124,4.619297027587891
83, 8169, 8167, 8190, 8176, 8144, 8158, 8150, 8181, 8154, 8168, 8212, 8226, 8191, 8141,4.635327100753784
84, 8169, 8175, 8190, 8191, 8151, 8168, 8168, 8172, 8156, 8167, 8208, 8226, 8179, 8138,4.635327100753784
85, 8196, 8179, 8195, 8214, 8158, 8164, 8182, 8167, 8178, 8177, 8211, 8235, 8185, 8144,4.651118040084839
86, 8215, 8189, 8223, 8207, 8155, 8161, 8165, 8190, 8169, 8157, 8216, 8258, 8194, 8159,4.651118040084839
87, 8202, 8184, 8200, 8214, 8154, 8160, 8160, 8160, 8164, 8160, 8224, 8244, 8202, 8139,4.6666576862335205
88, 8204, 8190, 8213, 8212, 8157, 8155, 8150, 8172, 8149, 8152, 8216, 8240, 8190, 8137,4.6666576862335205
89, 8212, 8205, 8223, 8234, 8177, 8168, 8164, 8165, 8161, 8157, 8235, 8248, 8195, 8134,4.682579517364502
90, 8192, 8184, 8191, 8224, 8175, 8154, 8153, 8141, 8148, 8148, 8223, 8231, 8178, 8108,4.682579517364502
91, 8168, 8174, 8197, 8188, 8158, 8143, 8126, 8172, 8114, 8123, 8189, 8222, 8150, 8097,4.698117017745972
92, 8182, 8183, 8189, 8209, 8176, 8147, 8145, 8163, 8139, 8143, 8219, 8222, 8176, 8102,4.698117017745972
93, 8204, 8195, 8210, 8221, 8188, 8150, 8147, 8168, 8136, 8135, 8228, 8227, 8176, 8120,4.713279962539673
94, 8189, 8216, 8226, 8239, 8184, 8171, 8148, 8163, 8124, 8133, 8203, 8211, 8154, 8106,4.713279962539673
95, 8168, 8213, 8203, 8244, 8188, 8174, 8152, 8144, 8122, 8141, 8180, 8184, 8135, 8084,4.728810548782349
96, 8164, 8207, 8209, 8214, 8196, 8180, 8149, 8161, 8100, 8128, 8174, 8182, 8120, 8087,4.728810548782349
97, 8146, 8190, 8180, 8218, 8194, 8190, 8166, 8140, 8111, 8141, 8184, 8162, 8134, 8073,4.744517087936401
98, 8142, 8160, 8166, 8208, 8181, 8188, 8169, 8164, 8136, 8152, 8157, 8155, 8134, 8093,4.744517087936401
99, 8157, 8158, 8178, 8202, 8184, 8194, 8185, 8187, 8177, 8185, 8166, 8173, 8154, 8124,4.759559631347656
100, 8156, 8155, 8162, 8190, 8176, 8177, 8189, 8168, 8189, 8194, 8191, 8173, 8176, 8119,4.759559631347656
101, 8158, 8155, 8169, 8162, 8155, 8167, 8167, 8183, 8161, 8158, 8174, 8182, 8169, 8116,4.775428533554077
102, 8166, 8167, 8153, 8184, 8167, 8173, 8165, 8158, 8172, 8170, 8185, 8185, 8186, 8108,4.775428533554077
103, 8169, 8168, 8150, 8179, 8171, 8155, 8139, 8162, 8159, 8159, 8186, 8184, 8182, 8105,4.79170560836792
104, 8161, 8171, 8155, 8167, 8157, 8152, 8136, 8172, 8142, 8134, 8185, 8183, 8164, 8088,4.79170560836792
105, 8155, 8172, 8138, 8176, 8169, 8161, 8163, 8151, 8148, 8137, 8200, 8172, 8156, 8072,4.807622909545898
106, 8156, 8185, 8173, 8172, 8186, 8169, 8157, 8177, 8132, 8129, 8188, 8180, 8137, 8086,4.807622909545898
107, 8145, 8184, 8170, 8194, 8188, 8175, 8153, 8157, 8126, 8144, 8173, 8161, 8133, 8072,4.823277711868286
108, 8138, 8169, 8155, 8190, 8178, 8177, 8146, 8153, 8115, 8142, 8154, 8144, 8120, 8075,4.823277711868286
109, 8136, 8170, 8169, 8186, 8183, 8193, 8157, 8178, 8129, 8141, 8158, 8153, 8121, 8086,4.838424444198608
110, 8138, 8164, 8153, 8205, 8198, 8197, 8192, 8171, 8164, 8175, 8164, 8142, 8141, 8087,4.838424444198608
111, 8153, 8165, 8161, 8187, 8187, 8197, 8205, 8199, 8169, 8189, 8146, 8146, 8143, 8121,4.854377508163452
112, 8159, 8158, 8144, 8165, 8165, 8185, 8203, 8182, 8196, 8192, 8164, 8156, 8163, 8127,4.854377508163452
113, 8164, 8135, 8138, 8141, 8149, 8155, 8173, 8174, 8193, 8170, 8169, 8165, 8172, 8121,4.869418382644653
114, 8176, 8156, 8168, 8160, 8165, 8170, 8169, 8194, 8178, 8180, 8179, 8188, 8184, 8133,4.869418382644653
115, 8184, 8178, 8158, 8183, 8181, 8173, 8171, 8165, 8177, 8195, 8209, 8190, 8200, 8124,4.885057210922241
116, 8177, 8171, 8168, 8150, 8165, 8146, 8137, 8172, 8139, 8148, 8198, 8184, 8165, 8110,4.885057210922241
117, 8159, 8174, 8169, 8171, 8175, 8163, 8154, 8162, 8147, 8150, 8193, 8165, 8148, 8092,4.900515079498291
118, 8155, 8178, 8166, 8197, 8189, 8176, 8175, 8160, 8167, 8165, 8181, 8149, 8144, 8094,4.900515079498291
119, 8148, 8173, 8179, 8184, 8170, 8179, 8178, 8177, 8157, 8158, 8165, 8146, 8138, 8107,4.915784597396851
120, 8122, 8139, 8140, 8176, 8153, 8182, 8191, 8146, 8155, 8164, 8157, 8120, 8136, 8098,4.915784597396851
121, 8110, 8114, 8136, 8141, 8140, 8179, 8182, 8165, 8139, 8145, 8119, 8120, 8108, 8103,4.931396722793579
122, 8120, 8123, 8138, 8143, 8138, 8175, 8192, 8174, 8157, 8159, 8126, 8135, 8123, 8108,4.931396722793579
123, 8136, 8127, 8129, 8146, 8132, 8150, 8181, 8171, 8169, 8170, 8146, 8135, 8145, 8112,4.946667671203613
124, 8144, 8136, 8151, 8130, 8128, 8142, 8149, 8184, 8154, 8145, 8143, 8151, 8142, 8111,4.946667671203613
125, 8148, 8140, 8136, 8142, 8142, 8145, 8140, 8156, 8161, 8137, 8161, 8164, 8155, 8097,4.962001323699951
126, 8159, 8152, 8152, 8137, 8150, 8149, 8123, 8173, 8143, 8128, 8169, 8178, 8156, 8106,4.962001323699951
127, 8153, 8173, 8170, 8156, 8158, 8170, 8133, 8167, 8141, 8138, 8181, 8172, 8156, 8096,4.978160381317139
237, 8147, 8168, 8161, 8164, 8163, 8170, 8142, 8141, 8132, 8132, 8172, 8150, 8143, 8084,4.978160381317139
0, 8149, 8169, 8175, 8155, 8164, 8183, 8139, 8160, 8108, 8115, 8148, 8147, 8124, 8092,4.993221282958984
1, 8137, 8160, 8156, 8177, 8169, 8201, 8154, 8145, 8126, 8144, 8147, 8128, 8130, 8076,4.993221282958984
2, 8122, 8139, 8160, 8159, 8161, 8192, 8147, 8157, 8125, 8147, 8128, 8120, 8115, 8076,5.008815050125122
3, 8119, 8133, 8161, 8150, 8158, 8193, 8156, 8164, 8139, 8154, 8126, 8127, 8123, 8087,5.008815050125122
4, 8123, 8112, 8127, 8141, 8156, 8193, 8157, 8158, 8153, 8166, 8118, 8117, 8141, 8089,5.025513410568237
5, 8121, 8099, 8132, 8108, 8141, 8189, 8139, 8180, 8142, 8162, 8102, 8121, 8139, 8100,5.025513410568237
6, 8124, 8103, 8124, 8114, 8143, 8176, 8152, 8159, 8165, 8179, 8132, 8129, 8154, 8101,5.040365219116211
7, 8144, 8110, 8133, 8109, 8144, 8159, 8144, 8173, 8159, 8160, 8134, 8140, 8150, 8108,5.040365219116211
8, 8147, 8124, 8143, 8119, 8140, 8164, 8132, 8175, 8146, 8150, 8136, 8147, 8153, 8101,5.0555033683776855
9, 8145, 8128, 8123, 8128, 8145, 8156, 8123, 8146, 8141, 8159, 8157, 8147, 8163, 8092,5.072026491165161
10, 8157, 8146, 8148, 8120, 8152, 8155, 8111, 8167, 8124, 8130, 8161, 8169, 8149, 8099,5.072026491165161
11, 8146, 8151, 8142, 8132, 8152, 8159, 8118, 8139, 8121, 8114, 8162, 8155, 8138, 8073,5.072026491165161
12, 8129, 8139, 8136, 8112, 8138, 8151, 8111, 8138, 8099, 8104, 8133, 8126, 8106, 8064,5.087054491043091
13, 8131, 8157, 8155, 8138, 8152, 8175, 8131, 8153, 8110, 8128, 8132, 8124, 8096, 8075,5.087054491043091
14, 8131, 8158, 8153, 8185, 8168, 8184, 8151, 8140, 8133, 8154, 8145, 8124, 8110, 8076,5.102250576019287
15, 8123, 8140, 8163, 8162, 8161, 8186, 8149, 8174, 8130, 8150, 8129, 8133, 8116, 8095,5.102250576019287
16, 8112, 8132, 8129, 8145, 8164, 8198, 8170, 8167, 8168, 8186, 8141, 8124, 8136, 8099,5.11805272102356
17, 8116, 8122, 8117, 8124, 8155, 8182, 8156, 8171, 8185, 8197, 8137, 8121, 8135, 8102,5.11805272102356
18, 8135, 8122, 8143, 8119, 8143, 8165, 8130, 8182, 8190, 8187, 8144, 8140, 8148, 8108,5.13373589515686
19, 8151, 8129, 8129, 8135, 8150, 8149, 8123, 8154, 8191, 8178, 8167, 8144, 8168, 8103,5.13373589515686
20, 8144, 8144, 8135, 8122, 8155, 8146, 8108, 8169, 8152, 8135, 8148, 8144, 8133, 8093,5.14954686164856
21, 8128, 8151, 8136, 8135, 8161, 8153, 8117, 8153, 8152, 8139, 8153, 8127, 8126, 8063,5.165231227874756
22, 8147, 8157, 8154, 8148, 8164, 8147, 8125, 8158, 8166, 8161, 8172, 8134, 8144, 8080,5.165231227874756
23, 8159, 8175, 8181, 8157, 8165, 8161, 8133, 8182, 8171, 8167, 8181, 8155, 8148, 8110,5.181281328201294
24, 8143, 8160, 8155, 8170, 8167, 8169, 8143, 8156, 8176, 8169, 8169, 8133, 8142, 8096,5.181281328201294
25, 8140, 8143, 8166, 8154, 8158, 8176, 8142, 8175, 8157, 8158, 8139, 8127, 8128, 8098,5.181281328201294
26, 8137, 8148, 8160, 8163, 8160, 8191, 8171, 8171, 8174, 8190, 8150, 8124, 8144, 8100,5.196826934814453
27, 8126, 8139, 8136, 8147, 8158, 8180, 8178, 8169, 8180, 8193, 8141, 8114, 8138, 8106,5.196826934814453
28, 8129, 8135, 8146, 8127, 8149, 8179, 8173, 8184, 8167, 8173, 8120, 8120, 8127, 8114,5.2130186557769775
29, 8137, 8125, 8129, 8138, 8149, 8176, 8177, 8159, 8185, 8194, 8128, 8108, 8141, 8105,5.228125810623169
30, 8139, 8123, 8141, 8120, 8138, 8163, 8156, 8173, 8185, 8187, 8132, 8117, 8133, 8116,5.228125810623169
31, 8142, 8134, 8139, 8121, 8138, 8159, 8151, 8158, 8189, 8184, 8146, 8134, 8147, 8116,5.244438886642456
32, 8152, 8129, 8134, 8116, 8145, 8140, 8137, 8148, 8179, 8175, 8141, 8130, 8152, 8113,5.244438886642456
33, 8162, 8147, 8167, 8120, 8147, 8138, 8120, 8173, 8173, 8168, 8145, 8139, 8156, 8120,5.244438886642456
34, 8166, 8159, 8155, 8145, 8154, 8140, 8128, 8151, 8189, 8186, 8183, 8153, 8189, 8114,5.25862979888916
35, 8170, 8160, 8166, 8124, 8150, 8130, 8115, 8169, 8163, 8167, 8182, 8174, 8187, 8120,5.274083852767944
36, 8171, 8181, 8182, 8137, 8154, 8141, 8118, 8162, 8156, 8164, 8183, 8167, 8172, 8105,5.274083852767944
37, 8175, 8180, 8176, 8155, 8152, 8135, 8121, 8141, 8143, 8151, 8168, 8144, 8150, 8087,5.291496753692627
38, 8167, 8173, 8192, 8142, 8141, 8139, 8118, 8159, 8119, 8135, 8141, 8149, 8129, 8093,5.291496753692627
39, 8149, 8170, 8170, 8155, 8150, 8163, 8140, 8143, 8141, 8161, 8151, 8141, 8137, 8086,5.305393218994141
40, 8150, 8168, 8175, 8157, 8153, 8170, 8137, 8164, 8135, 8143, 8140, 8133, 8122, 8093,5.305393218994141
41, 8148, 8165, 8176, 8171, 8152, 8175, 8147, 8164, 8139, 8143, 8130, 8127, 8114, 8095,5.320403099060059
42, 8144, 8147, 8151, 8174, 8154, 8171, 8157, 8148, 8158, 8178, 8127, 8113, 8123, 8092,5.320403099060059
43, 8148, 8142, 8164, 8152, 8151, 8181, 8158, 8181, 8161, 8180, 8125, 8121, 8129, 8108,5.336393356323242
44, 8146, 8137, 8139, 8158, 8150, 8184, 8174, 8164, 8179, 8178, 8140, 8118, 8142, 8107,5.336393356323242
45, 8143, 8130, 8127, 8138, 8135, 8167, 8155, 8171, 8171, 8170, 8126, 8117, 8134, 8113,5.352283954620361
46, 8144, 8135, 8135, 8132, 8130, 8165, 8142, 8179, 8185, 8188, 8132, 8126, 8150, 8119,5.352283954620361
47, 8153, 8127, 8125, 8136, 8136, 8145, 8130, 8162, 8199, 8189, 8146, 8133, 8163, 8117,5.367491245269775
48, 8157, 8122, 8134, 8103, 8127, 8138, 8108, 8177, 8175, 8149, 8132, 8138, 8144, 8112,5.367491245269775
49, 8145, 8126, 8111, 8106, 8125, 8149, 8118, 8149, 8170, 8151, 8146, 8125, 8152, 8082,5.383372068405151
50, 8154, 8151, 8141, 8133, 8135, 8150, 8122, 8153, 8153, 8153, 8163, 8137, 8147, 8089,5.383372068405151
51, 8164, 8185, 8191, 8176, 8156, 8169, 8143, 8166, 8152, 8162, 8179, 8154, 8151, 8108,5.398381471633911
52, 8148, 8157, 8157, 8174, 8159, 8178, 8154, 8147, 8159, 8166, 8169, 8131, 8156, 8101,5.398381471633911
53, 8135, 8126, 8139, 8131, 8139, 8184, 8140, 8165, 8145, 8149, 8127, 8115, 8130, 8101,5.413703203201294
54, 8137, 8134, 8132, 8153, 8140, 8185, 8153, 8153, 8178, 8182, 8137, 8114, 8145, 8101,5.413703203201294
55, 8153, 8147, 8148, 8158, 8146, 8158, 8142, 8171, 8196, 8190, 8159, 8146, 8171, 8120,5.429381370544434
56, 8169, 8161, 8163, 8149, 8150, 8147, 8118, 8175, 8184, 8167, 8185, 8178, 8182, 8117,5.429381370544434
57, 8169, 8162, 8146, 8157, 8153, 8144, 8107, 8137, 8166, 8149, 8196, 8158, 8170, 8084,5.445086479187012
58, 8162, 8177, 8173, 8156, 8157, 8155, 8105, 8161, 8136, 8127, 8172, 8153, 8140, 8090,5.445086479187012
59, 8155, 8189, 8173, 8188, 8173, 8178, 8139, 8151, 8150, 8153, 8181, 8159, 8145, 8095,5.461422920227051
60, 8155, 8169, 8164, 8180, 8165, 8180, 8151, 8154, 8148, 8153, 8170, 8145, 8137, 8100,5.461422920227051
61, 8155, 8155, 8167, 8165, 8157, 8191, 8160, 8174, 8145, 8151, 8146, 8133, 8134, 8109,5.477483034133911
62, 8154, 8135, 8133, 8165, 8165, 8185, 8170, 8153, 8176, 8183, 8145, 8126, 8154, 8113,5.477483034133911
63, 8159, 8123, 8146, 8132, 8152, 8171, 8153, 8179, 8186, 8181, 8142, 8146, 8154, 8133,5.493514537811279
64, 8159, 8127, 8148, 8141, 8143, 8169, 8161, 8173, 8205, 8184, 8158, 8150, 8167, 8129,5.493514537811279
65, 8151, 8119, 8131, 8136, 8140, 8151, 8153, 8160, 8180, 8164, 8140, 8132, 8151, 8120,5.509043455123901
66, 8136, 8117, 8131, 8117, 8138, 8161, 8153, 8171, 8154, 8150, 8115, 8124, 8126, 8114,5.509043455123901
67, 8131, 8117, 8109, 8127, 8140, 8177, 8171, 8157, 8183, 8170, 8129, 8118, 8142, 8096,5.525125741958618
68, 8149, 8123, 8133, 8111, 8139, 8166, 8155, 8189, 8195, 8169, 8137, 8141, 8157, 8111,5.525125741958618
69, 8156, 8128, 8134, 8117, 8147, 8161, 8157, 8178, 8213, 8181, 8155, 8152, 8176, 8122,5.541223049163818
70, 8158, 8128, 8124, 8123, 8154, 8157, 8153, 8168, 8214, 8178, 8153, 8145, 8170, 8121,5.541223049163818
71, 8164, 8146, 8149, 8118, 8149, 8152, 8142, 8195, 8202, 8168, 8149, 8151, 8164, 8115,5.556564092636108
72, 8161, 8145, 8129, 8121, 8147, 8133, 8142, 8169, 8201, 8167, 8168, 8145, 8177, 8100,5.556564092636108
73, 8165, 8141, 8142, 8109, 8147, 8124, 8124, 8171, 8168, 8135, 8165, 8156, 8158, 8106,5.572277545928955
74, 8165, 8153, 8158, 8135, 8154, 8144, 8128, 8162, 8166, 8141, 8177, 8161, 8155, 8093,5.572277545928955
75, 8157, 8141, 8142, 8128, 8145, 8133, 8125, 8153, 8172, 8154, 8166, 8145, 8158, 8085,5.587317705154419
76, 8145, 8136, 8145, 8093, 8126, 8122, 8112, 8165, 8158, 8140, 8139, 8142, 8140, 8090,5.587317705154419
77, 8141, 8145, 8134, 8122, 8133, 8132, 8122, 8134, 8158, 8137, 8151, 8136, 8135, 8068,5.603021860122681
78, 8155, 8163, 8170, 8156, 8148, 8146, 8132, 8158, 8154, 8126, 8160, 8154, 8133, 8081,5.603021860122681
79, 8159, 8187, 8190, 8191, 8168, 8165, 8160, 8168, 8189, 8167, 8177, 8163, 8155, 8104,5.619100093841553
80, 8153, 8181, 8166, 8187, 8169, 8161, 8163, 8154, 8197, 8197, 8164, 8138, 8151, 8102,5.619100093841553
81, 8149, 8178, 8175, 8163, 8154, 8172, 8145, 8169, 8158, 8155, 8132, 8130, 8114, 8095,5.634356737136841
82, 8150, 8177, 8164, 8186, 8170, 8183, 8161, 8144, 8165, 8164, 8151, 8132, 8125, 8088,5.634356737136841
83, 8156, 8166, 8171, 8178, 8183, 8179, 8163, 8165, 8175, 8196, 8157, 8146, 8140, 8112,5.650368928909302
84, 8145, 8149, 8163, 8167, 8178, 8200, 8168, 8172, 8178, 8198, 8145, 8141, 8139, 8112,5.650368928909302
85, 8137, 8125, 8134, 8157, 8164, 8195, 8175, 8151, 8175, 8167, 8127, 8120, 8127, 8098,5.666427135467529
86, 8149, 8139, 8158, 8137, 8159, 8181, 8175, 8186, 8181, 8168, 8126, 8140, 8132, 8123,5.666427135467529
87, 8149, 8150, 8149, 8152, 8172, 8184, 8191, 8178, 8212, 8211, 8154, 8149, 8161, 8129,5.682161092758179
88, 8145, 8130, 8144, 8143, 8163, 8169, 8169, 8172, 8183, 8187, 8137, 8139, 8145, 8123,5.682161092758179
89, 8155, 8132, 8156, 8144, 8153, 8160, 8153, 8164, 8171, 8181, 8131, 8143, 8145, 8122,5.697265386581421
90, 8164, 8139, 8141, 8144, 8158, 8154, 8152, 8150, 8194, 8207, 8149, 8145, 8158, 8122,5.697265386581421
91, 8155, 8139, 8154, 8115, 8155, 8154, 8144, 8184, 8180, 8182, 8139, 8151, 8140, 8123,5.713046312332153
92, 8147, 8135, 8141, 8116, 8152, 8151, 8151, 8166, 8174, 8156, 8144, 8143, 8143, 8100,5.713046312332153
93, 8163, 8141, 8148, 8109, 8146, 8132, 8131, 8165, 8147, 8123, 8141, 8147, 8134, 8096,5.728200197219849
94, 8174, 8170, 8180, 8129, 8154, 8135, 8129, 8176, 8147, 8133, 8148, 8161, 8136, 8105,5.728200197219849
95, 8168, 8178, 8176, 8162, 8169, 8147, 8151, 8157, 8180, 8177, 8163, 8145, 8154, 8107,5.7434515953063965
96, 8157, 8170, 8184, 8153, 8168, 8171, 8159, 8185, 8172, 8193, 8150, 8138, 8139, 8123,5.7434515953063965
97, 8149, 8158, 8164, 8169, 8170, 8183, 8182, 8177, 8177, 8218, 8152, 8132, 8141, 8119,5.758586406707764
98, 8163, 8145, 8156, 8153, 8161, 8153, 8168, 8177, 8174, 8206, 8140, 8138, 8146, 8124,5.758586406707764
99, 8177, 8152, 8166, 8125, 8151, 8141, 8143, 8182, 8170, 8181, 8143, 8160, 8159, 8136,5.773558139801025
100, 8178, 8157, 8151, 8137, 8153, 8135, 8137, 8152, 8164, 8168, 8161, 8167, 8167, 8126,5.773558139801025
101, 8187, 8174, 8186, 8141, 8158, 8140, 8138, 8177, 8147, 8139, 8156, 8185, 8149, 8129,5.789057493209839
102, 8185, 8187, 8187, 8146, 8165, 8149, 8166, 8171, 8180, 8157, 8177, 8179, 8157, 8117,5.789057493209839
103, 8178, 8172, 8169, 8127, 8157, 8129, 8154, 8163, 8171, 8161, 8164, 8160, 8147, 8108,5.805152416229248
104, 8173, 8176, 8188, 8134, 8155, 8135, 8138, 8172, 8136, 8149, 8142, 8155, 8131, 8101,5.805152416229248
105, 8156, 8176, 8172, 8160, 8161, 8140, 8148, 8145, 8139, 8163, 8148, 8138, 8131, 8083,5.821213245391846
106, 8147, 8173, 8180, 8144, 8155, 8129, 8128, 8159, 8120, 8148, 8137, 8145, 8112, 8094,5.821213245391846
107, 8159, 8187, 8184, 8166, 8174, 8151, 8136, 8148, 8124, 8154, 8148, 8150, 8125, 8093,5.836768388748169
108, 8168, 8185, 8179, 8173, 8194, 8178, 8166, 8152, 8138, 8162, 8146, 8141, 8131, 8096,5.836768388748169
109, 8149, 8172, 8181, 8153, 8179, 8191, 8188, 8177, 8135, 8154, 8115, 8133, 8113, 8106,5.852567195892334
110, 8133, 8154, 8153, 8166, 8167, 8178, 8194, 8155, 8143, 8169, 8105, 8115, 8115, 8097,5.852983236312866
111, 8148, 8150, 8168, 8151, 8164, 8176, 8185, 8187, 8150, 8176, 8109, 8130, 8126, 8115,5.868039846420288
112, 8151, 8151, 8158, 8146, 8170, 8194, 8203, 8189, 8182, 8198, 8130, 8139, 8143, 8123,5.868039846420288
113, 8142, 8138, 8131, 8139, 8162, 8172, 8189, 8168, 8176, 8183, 8109, 8113, 8129, 8111,5.883207559585571
114, 8144, 8148, 8152, 8139, 8151, 8151, 8163, 8185, 8157, 8158, 8086, 8112, 8114, 8105,5.883207559585571
115, 8151, 8149, 8139, 8163, 8162, 8151, 8173, 8168, 8180, 8184, 8120, 8128, 8143, 8101,5.898427248001099
116, 8164, 8135, 8147, 8137, 8161, 8149, 8164, 8182, 8167, 8178, 8137, 8156, 8157, 8122,5.898427248001099
117, 8164, 8147, 8157, 8136, 8160, 8147, 8159, 8170, 8158, 8172, 8160, 8169, 8173, 8119,5.91417932510376
118, 8158, 8157, 8149, 8147, 8163, 8128, 8148, 8152, 8142, 8164, 8174, 8170, 8174, 8110,5.91417932510376
119, 8165, 8173, 8177, 8145, 8162, 8134, 8134, 8176, 8122, 8149, 8162, 8180, 8161, 8118,5.929496765136719
120, 8166, 8176, 8169, 8166, 8171, 8144, 8152, 8154, 8147, 8167, 8162, 8159, 8162, 8106,5.945486068725586
121, 8153, 8163, 8167, 8148, 8166, 8135, 8149, 8160, 8132, 8152, 8141, 8140, 8127, 8102,5.945486068725586
122, 8138, 8162, 8170, 8159, 8166, 8150, 8156, 8166, 8126, 8160, 8141, 8140, 8128, 8101,5.945486068725586
123, 8147, 8161, 8168, 8183, 8179, 8159, 8165, 8164, 8147, 8185, 8151, 8144, 8159, 8114,5.961115121841431
124, 8152, 8156, 8179, 8164, 8182, 8170, 8172, 8183, 8149, 8185, 8137, 8151, 8153, 8131,5.977047443389893
125, 8134, 8131, 8142, 8149, 8170, 8179, 8197, 8154, 8173, 8208, 8138, 8129, 8155, 8119,5.977047443389893
126, 8141, 8122, 8149, 8136, 8157, 8169, 8187, 8178, 8181, 8208, 8133, 8130, 8162, 8135,5.977047443389893
127, 8159, 8145, 8174, 8165, 8172, 8175, 8190, 8196, 8191, 8211, 8147, 8151, 8176, 8148,5.993219375610352
237, 8164, 8138, 8156, 8182, 8173, 8175, 8200, 8173, 8203, 8221, 8153, 8154, 8181, 8139,5.993219375610352
0, 8166, 8135, 8176, 8156, 8154, 8173, 8185, 8191, 8202, 8216, 8144, 8161, 8177, 8148,6.008313894271851
1, 8155, 8133, 8152, 8147, 8157, 8157, 8185, 8170, 8208, 8223, 8149, 8144, 8186, 8133,6.008313894271851
2, 8149, 8121, 8134, 8123, 8147, 8123, 8160, 8174, 8173, 8188, 8142, 8142, 8176, 8129,6.029409646987915
3, 8161, 8142, 8164, 8142, 8135, 8123, 8144, 8172, 8159, 8166, 8169, 8170, 8189, 8131,6.029409646987915
4, 8177, 8151, 8170, 8173, 8148, 8121, 8151, 8145, 8177, 8173, 8192, 8176, 8198, 8123,6.040558099746704
5, 8187, 8145, 8189, 8147, 8154, 8119, 8152, 8184, 8176, 8167, 8181, 8193, 8180, 8142,6.040558099746704
6, 8199, 8156, 8195, 8167, 8151, 8131, 8165, 8177, 8192, 8184, 8217, 8210, 8208, 8151,6.054574251174927
7, 8216, 8172, 8221, 8197, 8145, 8121, 8148, 8166, 8181, 8182, 8246, 8234, 8223, 8160,6.054574251174927
8, 8217, 8185, 8253, 8217, 8148, 8119, 8136, 8163, 8163, 8171, 8255, 8260, 8209, 8156,6.070434331893921
9, 8204, 8188, 8244, 8254, 8156, 8119, 8138, 8137, 8140, 8148, 8254, 8243, 8191, 8128,6.086076021194458
10, 8204, 8206, 8276, 8283, 8160, 8133, 8136, 8160, 8103, 8114, 8230, 8238, 8172, 8133,6.086076021194458
11, 8212, 8221, 8280, 8319, 8170, 8146, 8157, 8147, 8119, 8140, 8253, 8252, 8188, 8138,6.102209568023682
12, 8220, 8209, 8280, 8305, 8155, 8124, 8146, 8140, 8110, 8141, 8272, 8273, 8190, 8143,6.102209568023682
13, 8214, 8203, 8296, 8301, 8137, 8130, 8147, 8158, 8102, 8121, 8247, 8275, 8178, 8141,6.118062734603882
14, 8207, 8187, 8271, 8327, 8132, 8146, 8178, 8150, 8138, 8144, 8220, 8255, 8180, 8141,6.118062734603882
15, 8221, 8177, 8280, 8302, 8125, 8145, 8173, 8178, 8141, 8156, 8209, 8276, 8179, 8168,6.133247375488281
16, 8232, 8179, 8261, 8289, 8139, 8142, 8176, 8163, 8157, 8165, 8225, 8287, 8204, 8162,6.133247375488281
17, 8240, 8175, 8239, 8277, 8143, 8126, 8163, 8153, 8158, 8134, 8208, 8279, 8207, 8151,6.149320602416992
18, 8244, 8183, 8262, 8271, 8129, 8121, 8139, 8167, 8143, 8104, 8202, 8287, 8198, 8154,6.149320602416992
19, 8238, 8176, 8236, 8273, 8132, 8108, 8138, 8140, 8143, 8123, 8221, 8271, 8206, 8137,6.165380477905273
20, 8228, 8174, 8229, 8236, 8136, 8103, 8129, 8157, 8117, 8116, 8187, 8251, 8184, 8129,6.165380477905273
21, 8209, 8189, 8221, 8234, 8143, 8125, 8141, 8149, 8119, 8115, 8173, 8227, 8172, 8111,6.18141508102417
22, 8202, 8185, 8203, 8231, 8147, 8140, 8149, 8147, 8129, 8111, 8169, 8203, 8161, 8102,6.18141508102417
23, 8198, 8194, 8212, 8216, 8152, 8158, 8165, 8179, 8141, 8120, 8166, 8206, 8160, 8117,6.18141508102417
24, 8181, 8196, 8192, 8229, 8164, 8165, 8182, 8155, 8171, 8151, 8176, 8194, 8167, 8108,6.196552753448486
25, 8173, 8182, 8196, 8215, 8165, 8164, 8161, 8161, 8148, 8129, 8141, 8172, 8131, 8102,6.196552753448486
26, 8176, 8181, 8194, 8220, 8173, 8178, 8170, 8163, 8151, 8150, 8130, 8163, 8129, 8104,6.211245059967041
27, 8182, 8168, 8183, 8217, 8172, 8174, 8182, 8165, 8176, 8187, 8138, 8167, 8153, 8120,6.2264723777771
28, 8180, 8155, 8196, 8191, 8163, 8173, 8178, 8191, 8177, 8183, 8127, 8173, 8152, 8126,6.2264723777771
29, 8170, 8142, 8159, 8184, 8168, 8176, 8191, 8164, 8191, 8201, 8132, 8157, 8157, 8112,6.242307662963867
30, 8170, 8134, 8153, 8147, 8163, 8175, 8185, 8178, 8192, 8201, 8122, 8159, 8152, 8127,6.242307662963867
31, 8176, 8141, 8159, 8137, 8161, 8182, 8194, 8183, 8218, 8196, 8125, 8163, 8163, 8127,6.257949352264404
32, 8183, 8141, 8147, 8130, 8156, 8156, 8192, 8171, 8230, 8188, 8136, 8161, 8173, 8116,6.257949352264404
33, 8187, 8154, 8169, 8108, 8148, 8139, 8172, 8188, 8205, 8172, 8141, 8181, 8164, 8122,6.2731945514678955
34, 8182, 8155, 8149, 8119, 8158, 8140, 8165, 8149, 8190, 8162, 8149, 8166, 8165, 8098,6.2731945514678955
35, 8180, 8146, 8141, 8100, 8157, 8132, 8134, 8151, 8155, 8126, 8131, 8155, 8144, 8086,6.288356781005859
36, 8173, 8161, 8160, 8109, 8161, 8147, 8142, 8163, 8168, 8144, 8149, 8176, 8151, 8086,6.288356781005859
37, 8176, 8175, 8163, 8139, 8179, 8160, 8174, 8158, 8197, 8183, 8168, 8172, 8166, 8088,6.304203748703003
38, 8180, 8184, 8178, 8134, 8184, 8166, 8172, 8179, 8172, 8163, 8146, 8156, 8142, 8094,6.304203748703003
39, 8158, 8176, 8154, 8147, 8180, 8169, 8185, 8150, 8169, 8161, 8148, 8135, 8141, 8078,6.319309234619141
40, 8146, 8161, 8162, 8146, 8179, 8170, 8197, 8167, 8181, 8177, 8134, 8137, 8142, 8087,6.319309234619141
41, 8146, 8160, 8166, 8149, 8186, 8189, 8206, 8185, 8202, 8201, 8117, 8136, 8137, 8102,6.334440231323242
42, 8139, 8140, 8124, 8138, 8179, 8188, 8205, 8162, 8215, 8202, 8111, 8117, 8131, 8101,6.334440231323242
43, 8141, 8129, 8141, 8112, 8160, 8179, 8194, 8185, 8212, 8186, 8108, 8135, 8131, 8114,6.3500542640686035
44, 8146, 8134, 8142, 8128, 8164, 8177, 8200, 8170, 8233, 8213, 8128, 8144, 8155, 8108,6.3500542640686035
45, 8144, 8132, 8131, 8109, 8164, 8167, 8181, 8169, 8216, 8200, 8114, 8134, 8140, 8106,6.365302801132202
46, 8141, 8135, 8136, 8100, 8156, 8165, 8178, 8181, 8209, 8186, 8107, 8130, 8135, 8105,6.365302801132202
47, 8147, 8124, 8126, 8109, 8157, 8145, 8178, 8161, 8224, 8194, 8122, 8125, 8152, 8096,6.381520748138428
48, 8154, 8127, 8148, 8077, 8150, 8133, 8144, 8173, 8199, 8161, 8114, 8138, 8134, 8098,6.381520748138428
49, 8144, 8140, 8130, 8086, 8149, 8142, 8141, 8152, 8196, 8159, 8129, 8136, 8137, 8079,6.39743971824646
50, 8145, 8133, 8125, 8095, 8146, 8128, 8140, 8161, 8192, 8159, 8138, 8138, 8147, 8085,6.39743971824646
51, 8163, 8139, 8159, 8099, 8151, 8133, 8152, 8187, 8202, 8165, 8155, 8161, 8161, 8109,6.41355299949646
52, 8182, 8150, 8155, 8126, 8170, 8142, 8168, 8167, 8217, 8186, 8176, 8168, 8176, 8105,6.41355299949646
53, 8179, 8163, 8169, 8128, 8169, 8136, 8146, 8172, 8169, 8154, 8147, 8163, 8145, 8094,6.4290525913238525
54, 8147, 8156, 8153, 8137, 8160, 8134, 8135, 8139, 8139, 8122, 8129, 8132, 8110, 8062,6.4290525913238525
55, 8146, 8142, 8144, 8127, 8155, 8129, 8130, 8135, 8135, 8107, 8127, 8127, 8098, 8057,6.445009469985962
56, 8175, 8165, 8176, 8132, 8163, 8147, 8143, 8171, 8148, 8125, 8146, 8166, 8127, 8083,6.445009469985962
57, 8175, 8168, 8161, 8159, 8172, 8150, 8154, 8147, 8167, 8143, 8165, 8158, 8144, 8081,6.461395263671875
58, 8155, 8152, 8157, 8135, 8159, 8138, 8130, 8149, 8138, 8115, 8133, 8131, 8104, 8078,6.461395263671875
59, 8137, 8148, 8144, 8137, 8159, 8148, 8145, 8142, 8140, 8142, 8124, 8117, 8101, 8067,6.476795196533203
60, 8135, 8145, 8135, 8138, 8159, 8144, 8158, 8155, 8157, 8174, 8125, 8113, 8109, 8073,6.476795196533203
61, 8138, 8159, 8159, 8136, 8151, 8147, 8155, 8173, 8157, 8161, 8120, 8119, 8102, 8088,6.492329359054565
62, 8127, 8152, 8135, 8149, 8158, 8156, 8172, 8137, 8166, 8161, 8131, 8113, 8115, 8079,6.492329359054565
63, 8125, 8132, 8132, 8121, 8156, 8156, 8174, 8168, 8171, 8164, 8116, 8122, 8114, 8091,6.507721662521362
64, 8139, 8136, 8137, 8118, 8159, 8150, 8178, 8179, 8207, 8187, 8120, 8134, 8125, 8100,6.507721662521362
65, 8155, 8140, 8133, 8108, 8157, 8124, 8152, 8158, 8209, 8187, 8139, 8151, 8142, 8100,6.523300886154175
66, 8160, 8147, 8159, 8093, 8155, 8126, 8131, 8172, 8188, 8172, 8162, 8181, 8154, 8104,6.523300886154175
67, 8169, 8164, 8160, 8133, 8174, 8136, 8150, 8150, 8192, 8179, 8184, 8171, 8165, 8096,6.539325475692749
68, 8179, 8181, 8186, 8151, 8184, 8133, 8147, 8162, 8162, 8159, 8165, 8160, 8139, 8104,6.539325475692749
69, 8157, 8175, 8179, 8160, 8185, 8146, 8156, 8160, 8166, 8165, 8162, 8148, 8130, 8098,6.55443000793457
70, 8131, 8137, 8143, 8146, 8166, 8140, 8156, 8148, 8181, 8173, 8143, 8115, 8121, 8088,6.55443000793457
71, 8122, 8120, 8143, 8114, 8144, 8134, 8144, 8171, 8167, 8161, 8110, 8110, 8106, 8092,6.570502758026123
72, 8114, 8111, 8107, 8106, 8145, 8126, 8152, 8151, 8184, 8175, 8120, 8113, 8126, 8077,6.570502758026123
73, 8126, 8107, 8119, 8083, 8143, 8109, 8143, 8166, 8190, 8159, 8126, 8131, 8136, 8089,6.585644245147705
74, 8145, 8131, 8151, 8099, 8145, 8122, 8142, 8169, 8189, 8154, 8148, 8156, 8158, 8097,6.585644245147705
75, 8150, 8149, 8144, 8123, 8152, 8124, 8132, 8148, 8174, 8154, 8166, 8163, 8165, 8088,6.601309061050415
76, 8149, 8170, 8173, 8122, 8157, 8123, 8119, 8164, 8146, 8131, 8161, 8177, 8144, 8096,6.601309061050415
77, 8152, 8178, 8176, 8152, 8170, 8121, 8139, 8137, 8153, 8139, 8173, 8170, 8151, 8090,6.617225408554077
78, 8160, 8167, 8178, 8151, 8174, 8122, 8137, 8152, 8141, 8138, 8160, 8168, 8142, 8093,6.617225408554077
79, 8146, 8161, 8172, 8150, 8175, 8153, 8138, 8160, 8138, 8150, 8142, 8153, 8126, 8087,6.6333677768707275
80, 8120, 8146, 8140, 8151, 8175, 8150, 8141, 8132, 8148, 8152, 8125, 8119, 8118, 8068,6.6333677768707275
81, 8118, 8150, 8160, 8135, 8169, 8137, 8132, 8158, 8144, 8131, 8118, 8133, 8107, 8075,6.648988723754883
82, 8131, 8157, 8160, 8155, 8171, 8157, 8155, 8151, 8167, 8161, 8144, 8144, 8124, 8077,6.648988723754883
83, 8132, 8137, 8149, 8143, 8160, 8165, 8161, 8156, 8157, 8165, 8116, 8124, 8113, 8082,6.664448261260986
84, 8118, 8121, 8139, 8129, 8150, 8171, 8161, 8166, 8162, 8159, 8092, 8110, 8103, 8080,6.664448261260986
85, 8120, 8115, 8123, 8133, 8154, 8168, 8166, 8156, 8196, 8180, 8116, 8126, 8122, 8083,6.6799914836883545
86, 8136, 8127, 8153, 8115, 8154, 8163, 8159, 8183, 8195, 8180, 8121, 8159, 8129, 8105,6.6799914836883545
87, 8132, 8122, 8136, 8117, 8157, 8153, 8159, 8162, 8208, 8188, 8130, 8149, 8145, 8089,6.695584535598755
88, 8131, 8114, 8125, 8103, 8154, 8127, 8134, 8162, 8187, 8165, 8123, 8140, 8143, 8083,6.695584535598755
89, 8142, 8144, 8149, 8111, 8156, 8131, 8136, 8168, 8159, 8146, 8135, 8162, 8147, 8094,6.7112085819244385
90, 8152, 8158, 8146, 8134, 8163, 8132, 8152, 8138, 8163, 8162, 8174, 8171, 8162, 8088,6.7112085819244385
91, 8157, 8167, 8174, 8130, 8163, 8132, 8134, 8164, 8152, 8155, 8179, 8178, 8149, 8089,6.726412534713745
92, 8141, 8187, 8166, 8164, 8181, 8155, 8150, 8156, 8157, 8165, 8168, 8166, 8142, 8080,6.726412534713745
93, 8127, 8168, 8144, 8162, 8178, 8160, 8164, 8155, 8147, 8158, 8127, 8141, 8114, 8083,6.7421674728393555
94, 8134, 8140, 8152, 8127, 8155, 8153, 8166, 8183, 8167, 8175, 8121, 8146, 8117, 8104,6.7421674728393555
95, 8151, 8136, 8143, 8129, 8159, 8139, 8176, 8173, 8221, 8220, 8162, 8162, 8171, 8119,6.757807731628418
96, 8162, 8148, 8161, 8123, 8162, 8135, 8163, 8193, 8212, 8199, 8156, 8183, 8180, 8135,6.757807731628418
97, 8166, 8154, 8155, 8132, 8160, 8135, 8159, 8173, 8206, 8191, 8179, 8194, 8182, 8117,6.773595809936523
98, 8179, 8160, 8157, 8136, 8163, 8116, 8134, 8153, 8193, 8182, 8208, 8193, 8177, 8105,6.773595809936523
99, 8170, 8181, 8187, 8162, 8183, 8137, 8129, 8160, 8163, 8154, 8182, 8175, 8152, 8098,6.789254426956177
100, 8132, 8176, 8159, 8189, 8192, 8162, 8157, 8142, 8164, 8156, 8148, 8131, 8126, 8070,6.789254426956177
101, 8126, 8169, 8162, 8155, 8173, 8163, 8149, 8165, 8157, 8148, 8131, 8131, 8100, 8073,6.804455280303955
102, 8138, 8182, 8169, 8164, 8185, 8178, 8161, 8157, 8169, 8170, 8147, 8136, 8120, 8081,6.804455280303955
103, 8147, 8167, 8158, 8176, 8199, 8178, 8179, 8158, 8181, 8196, 8147, 8138, 8145, 8104,6.820502758026123
104, 8159, 8150, 8169, 8151, 8183, 8172, 8178, 8189, 8190, 8192, 8146, 8161, 8156, 8132,6.8364667892456055
105, 8161, 8137, 8141, 8137, 8168, 8148, 8167, 8155, 8199, 8184, 8158, 8150, 8171, 8111,6.8364667892456055
106, 8161, 8144, 8154, 8114, 8162, 8120, 8134, 8158, 8169, 8151, 8151, 8149, 8155, 8096,6.852105379104614
107, 8165, 8182, 8178, 8145, 8179, 8133, 8138, 8153, 8164, 8145, 8169, 8162, 8148, 8085,6.852105379104614
108, 8176, 8196, 8179, 8175, 8193, 8140, 8152, 8144, 8161, 8146, 8172, 8159, 8137, 8083,6.852105379104614
109, 8176, 8196, 8205, 8169, 8187, 8151, 8158, 8171, 8150, 8154, 8167, 8171, 8134, 8100,6.867685794830322
110, 8157, 8182, 8181, 8185, 8181, 8160, 8176, 8148, 8166, 8180, 8182, 8156, 8150, 8094,6.867685794830322
111, 8148, 8168, 8176, 8176, 8172, 8166, 8175, 8166, 8155, 8164, 8148, 8139, 8128, 8099,6.883853435516357
112, 8155, 8161, 8181, 8170, 8169, 8183, 8190, 8180, 8178, 8179, 8137, 8146, 8135, 8114,6.883853435516357
113, 8171, 8138, 8165, 8163, 8165, 8172, 8194, 8168, 8210, 8208, 8161, 8156, 8168, 8131,6.898481369018555
114, 8177, 8142, 8181, 8147, 8161, 8164, 8180, 8192, 8202, 8202, 8166, 8172, 8174, 8149,6.914010047912598
115, 8171, 8150, 8162, 8152, 8165, 8152, 8173, 8167, 8211, 8207, 8174, 8166, 8187, 8131,6.914010047912598
116, 8175, 8146, 8163, 8126, 8151, 8125, 8137, 8171, 8186, 8181, 8170, 8170, 8179, 8123,6.914010047912598
117, 8174, 8171, 8175, 8136, 8155, 8134, 8135, 8169, 8167, 8166, 8187, 8183, 8178, 8113,6.929374933242798
118, 8168, 8188, 8170, 8168, 8172, 8148, 8147, 8142, 8166, 8163, 8192, 8175, 8173, 8098,6.945427417755127
119, 8173, 8187, 8203, 8174, 8167, 8158, 8135, 8166, 8153, 8151, 8162, 8173, 8149, 8108,6.945427417755127
120, 8167, 8180, 8192, 8198, 8174, 8167, 8152, 8154, 8165, 8180, 8166, 8158, 8155, 8110,6.961197376251221
121, 8153, 8172, 8181, 8190, 8182, 8170, 8159, 8165, 8156, 8186, 8164, 8155, 8151, 8120,6.961197376251221
122, 8155, 8172, 8175, 8187, 8178, 8190, 8175, 8180, 8175, 8190, 8169, 8162, 8161, 8128,6.976366996765137
123, 8164, 8159, 8149, 8184, 8167, 8173, 8192, 8167, 8207, 8198, 8172, 8154, 8181, 8129,6.976366996765137
124, 8166, 8156, 8168, 8154, 8153, 8141, 8171, 8185, 8188, 8180, 8160, 8174, 8180, 8146,6.991471529006958
125, 8174, 8160, 8164, 8164, 8160, 8137, 8166, 8162, 8196, 8194, 8193, 8188, 8207, 8139,6.991471529006958
126, 8188, 8166, 8167, 8163, 8164, 8138, 8154, 8169, 8191, 8183, 8200, 8191, 8207, 8134,7.007081031799316
127, 8182, 8187, 8181, 8171, 8169, 8144, 8145, 8175, 8171, 8168, 8196, 8194, 8189, 8123,7.007081031799316
237, 8172, 8189, 8162, 8192, 8181, 8137, 8146, 8143, 8162, 8175, 8221, 8187, 8187, 8105,7.023033857345581
0, 8178, 8197, 8190, 8188, 8182, 8145, 8141, 8164, 8143, 8168, 8223, 8193, 8185, 8122,7.023033857345581
1, 8176, 8211, 8191, 8215, 8196, 8170, 8161, 8150, 8150, 8183, 8211, 8180, 8191, 8121,7.038195848464966
2, 8172, 8195, 8176, 8213, 8198, 8159, 8154, 8152, 8143, 8171, 8180, 8158, 8165, 8114,7.038195848464966
3, 8170, 8194, 8192, 8214, 8192, 8168, 8161, 8174, 8150, 8172, 8181, 8160, 8155, 8116,7.053708791732788
4, 8164, 8193, 8182, 8233, 8197, 8192, 8192, 8153, 8181, 8207, 8189, 8154, 8175, 8117,7.053708791732788
5, 8167, 8177, 8184, 8190, 8189, 8193, 8195, 8179, 8174, 8198, 8158, 8160, 8164, 8137,7.069488525390625
6, 8172, 8166, 8166, 8179, 8180, 8182, 8204, 8178, 8195, 8209, 8172, 8167, 8177, 8140,7.069488525390625
7, 8175, 8165, 8156, 8188, 8174, 8160, 8186, 8165, 8197, 8209, 8184, 8169, 8190, 8144,7.085251331329346
8, 8177, 8178, 8168, 8179, 8175, 8152, 8166, 8176, 8174, 8187, 8178, 8179, 8192, 8142,7.085251331329346
9, 8177, 8170, 8144, 8172, 8183, 8143, 8165, 8156, 8174, 8181, 8193, 8177, 8200, 8120,7.101362943649292
10, 8181, 8174, 8167, 8156, 8177, 8130, 8132, 8168, 8155, 8158, 8189, 8186, 8187, 8122,7.101362943649292
11, 8175, 8194, 8178, 8173, 8179, 8129, 8130, 8151, 8153, 8161, 8202, 8185, 8191, 8119,7.116497278213501
12, 8181, 8201, 8168, 8184, 8187, 8139, 8145, 8148, 8151, 8165, 8215, 8183, 8191, 8118,7.116497278213501
13, 8187, 8214, 8192, 8192, 8193, 8163, 8147, 8164, 8143, 8156, 8205, 8193, 8174, 8122,7.132165908813477
14, 8167, 8196, 8172, 8206, 8189, 8156, 8149, 8124, 8146, 8166, 8186, 8166, 8164, 8106,7.132165908813477
15, 8163, 8176, 8175, 8190, 8175, 8156, 8146, 8155, 8146, 8173, 8166, 8165, 8159, 8128,7.148203134536743
16, 8180, 8179, 8177, 8203, 8177, 8177, 8168, 8179, 8192, 8209, 8194, 8190, 8200, 8152,7.148203134536743
17, 8188, 8167, 8159, 8183, 8174, 8150, 8163, 8171, 8203, 8215, 8208, 8200, 8220, 8154,7.163438558578491
18, 8180, 8163, 8166, 8145, 8164, 8136, 8150, 8182, 8172, 8181, 8186, 8203, 8200, 8149,7.163438558578491
19, 8166, 8163, 8144, 8158, 8166, 8144, 8159, 8153, 8172, 8165, 8179, 8183, 8195, 8115,7.179144859313965
20, 8166, 8167, 8155, 8144, 8158, 8133, 8138, 8165, 8145, 8130, 8165, 8181, 8173, 8106,7.179144859313965
21, 8160, 8178, 8164, 8149, 8166, 8149, 8143, 8162, 8139, 8121, 8168, 8178, 8158, 8100,7.194221496582031
22, 8152, 8177, 8158, 8174, 8183, 8165, 8161, 8145, 8148, 8135, 8166, 8161, 8151, 8089,7.194221496582031
23, 8156, 8189, 8188, 8188, 8184, 8173, 8161, 8165, 8139, 8146, 8161, 8172, 8144, 8103,7.20984959602356
24, 8163, 8190, 8178, 8213, 8193, 8185, 8174, 8147, 8164, 8179, 8177, 8171, 8161, 8116,7.20984959602356
25, 8158, 8165, 8170, 8190, 8185, 8185, 8167, 8168, 8172, 8172, 8147, 8159, 8151, 8128,7.225050210952759
26, 8144, 8155, 8157, 8177, 8169, 8181, 8168, 8175, 8185, 8178, 8137, 8152, 8154, 8116,7.225050210952759
27, 8158, 8154, 8139, 8177, 8169, 8169, 8167, 8160, 8201, 8197, 8161, 8163, 8177, 8120,7.241121768951416
28, 8183, 8167, 8168, 8163, 8172, 8167, 8155, 8186, 8193, 8181, 8174, 8198, 8186, 8152,7.241121768951416
29, 8183, 8176, 8155, 8183, 8174, 8152, 8156, 8159, 8189, 8179, 8200, 8206, 8200, 8139,7.256984233856201
30, 8177, 8180, 8158, 8174, 8173, 8129, 8136, 8153, 8160, 8154, 8198, 8205, 8185, 8128,7.256984233856201
31, 8173, 8195, 8178, 8174, 8184, 8146, 8137, 8160, 8155, 8150, 8202, 8204, 8180, 8124,7.273030042648315
32, 8166, 8191, 8165, 8188, 8188, 8152, 8147, 8145, 8156, 8159, 8200, 8181, 8177, 8106,7.273030042648315
33, 8156, 8191, 8180, 8175, 8181, 8155, 8149, 8166, 8132, 8142, 8165, 8173, 8147, 8106,7.288832664489746
34, 8143, 8190, 8164, 8186, 8185, 8167, 8175, 8152, 8146, 8160, 8163, 8161, 8146, 8112,7.288832664489746
35, 8150, 8184, 8175, 8179, 8180, 8170, 8181, 8172, 8154, 8171, 8157, 8163, 8146, 8131,7.304361581802368
36, 8156, 8187, 8151, 8192, 8185, 8183, 8206, 8169, 8191, 8207, 8169, 8156, 8166, 8125,7.304361581802368
37, 8156, 8174, 8138, 8160, 8173, 8161, 8195, 8165, 8198, 8201, 8161, 8161, 8167, 8128,7.319998502731323
38, 8169, 8205, 8240, 8115, 8153, 8169, 8165, 8233, 8162, 8157, 8146, 8225, 8159, 8162,7.319998502731323
39, 8169, 8217, 8161, 8196, 8180, 8182, 8204, 8155, 8224, 8220, 8206, 8195, 8217, 8119,7.3356993198394775
40, 8173, 8175, 8116, 8176, 8173, 8123, 8173, 8129, 8202, 8194, 8193, 8165, 8192, 8106,7.3356993198394775
41, 8183, 8192, 8204, 8133, 8154, 8128, 8155, 8184, 8154, 8134, 8183, 8215, 8163, 8130,7.351506948471069
42, 8191, 8216, 8185, 8195, 8175, 8152, 8184, 8144, 8185, 8165, 8237, 8222, 8202, 8119,7.351506948471069
43, 8196, 8215, 8213, 8218, 8173, 8144, 8157, 8160, 8160, 8158, 8235, 8234, 8187, 8134,7.367549896240234
44, 8189, 8214, 8228, 8249, 8173, 8156, 8179, 8154, 8165, 8171, 8253, 8236, 8187, 8137,7.367549896240234
45, 8200, 8216, 8242, 8262, 8182, 8174, 8206, 8171, 8179, 8186, 8270, 8250, 8203, 8159,7.383457660675049
46, 8207, 8229, 8269, 8287, 8190, 8200, 8210, 8197, 8193, 8212, 8281, 8284, 8222, 8190,7.383457660675049
47, 8205, 8216, 8246, 8314, 8187, 8189, 8203, 8166, 8200, 8227, 8291, 8285, 8230, 8187,7.398391485214233
48, 8222, 8220, 8256, 8308, 8175, 8172, 8191, 8182, 8186, 8207, 8287, 8294, 8228, 8192,7.398391485214233
49, 8243, 8234, 8284, 8325, 8172, 8166, 8195, 8183, 8194, 8215, 8294, 8314, 8245, 8203,7.414348363876343
50, 8251, 8245, 8316, 8326, 8165, 8165, 8187, 8187, 8182, 8208, 8296, 8345, 8248, 8218,7.414348363876343
51, 8234, 8224, 8180, 8358, 8172, 8144, 8207, 8119, 8219, 8236, 8347, 8298, 8287, 8182,7.429476022720337
52, 8244, 8205, 8283, 8262, 8137, 8100, 8128, 8174, 8136, 8151, 8291, 8336, 8229, 8205,7.429476022720337
53, 8251, 8267, 8389, 8274, 8144, 8174, 8147, 8226, 8127, 8142, 8279, 8379, 8225, 8224,7.4450767040252686
54, 8245, 8241, 8157, 8385, 8188, 8164, 8224, 8084, 8221, 8237, 8348, 8277, 8304, 8164,7.4450767040252686
55, 8259, 8215, 8282, 8268, 8139, 8092, 8112, 8164, 8103, 8124, 8270, 8329, 8219, 8199,7.460160970687866
56, 8240, 8248, 8319, 8285, 8133, 8132, 8116, 8174, 8101, 8123, 8282, 8345, 8215, 8185,7.460160970687866
57, 8240, 8227, 8213, 8335, 8161, 8125, 8146, 8108, 8136, 8150, 8310, 8302, 8243, 8152,7.475839138031006
58, 8261, 8241, 8307, 8299, 8163, 8141, 8134, 8191, 8103, 8113, 8279, 8349, 8216, 8185,7.475839138031006
59, 8242, 8233, 8264, 8316, 8165, 8153, 8164, 8155, 8138, 8153, 8303, 8316, 8234, 8160,7.491414546966553
60, 8225, 8211, 8265, 8279, 8143, 8130, 8132, 8148, 8106, 8127, 8283, 8307, 8206, 8150,7.491414546966553
61, 8217, 8226, 8254, 8307, 8158, 8154, 8150, 8156, 8116, 8142, 8281, 8297, 8202, 8148,7.507274627685547
62, 8227, 8232, 8260, 8321, 8178, 8171, 8166, 8153, 8134, 8158, 8283, 8296, 8203, 8160,7.507274627685547
63, 8235, 8239, 8274, 8320, 8179, 8182, 8166, 8169, 8140, 8156, 8289, 8310, 8207, 8175,7.5244810581207275
64, 8229, 8226, 8242, 8337, 8177, 8170, 8167, 8150, 8151, 8162, 8293, 8289, 8206, 8163,7.5244810581207275
65, 8223, 8213, 8256, 8311, 8158, 8168, 8160, 8161, 8139, 8152, 8271, 8289, 8188, 8161,7.5379884243011475
66, 8218, 8199, 8224, 8305, 8156, 8184, 8181, 8171, 8160, 8183, 8285, 8288, 8215, 8172,7.5379884243011475
67, 8230, 8201, 8247, 8309, 8171, 8184, 8183, 8180, 8166, 8202, 8302, 8305, 8229, 8200,7.554031848907471
68, 8236, 8207, 8254, 8310, 8173, 8177, 8179, 8179, 8167, 8208, 8298, 8306, 8226, 8201,7.554031848907471
69, 8218, 8183, 8213, 8287, 8151, 8161, 8172, 8149, 8157, 8189, 8276, 8291, 8214, 8176,7.568055152893066
70, 8209, 8180, 8224, 8267, 8147, 8171, 8173, 8154, 8143, 8160, 8259, 8289, 8200, 8173,7.568055152893066
71, 8211, 8190, 8205, 8279, 8166, 8186, 8194, 8178, 8178, 8187, 8273, 8267, 8215, 8177,7.584083557128906
72, 8214, 8179, 8207, 8249, 8155, 8170, 8180, 8187, 8187, 8197, 8274, 8277, 8220, 8182,7.584083557128906
73, 8206, 8170, 8194, 8217, 8143, 8163, 8162, 8176, 8169, 8179, 8267, 8279, 8219, 8178,7.599324464797974
74, 8201, 8165, 8169, 8215, 8149, 8157, 8152, 8152, 8153, 8166, 8257, 8253, 8215, 8157,7.599324464797974
75, 8207, 8163, 8189, 8201, 8151, 8156, 8144, 8157, 8135, 8151, 8240, 8250, 8203, 8144,7.616411924362183
76, 8203, 8169, 8172, 8200, 8164, 8172, 8167, 8169, 8147, 8159, 8252, 8241, 8205, 8142,7.616411924362183
77, 8204, 8190, 8192, 8213, 8182, 8184, 8190, 8175, 8164, 8172, 8266, 8242, 8200, 8147,7.631509065628052
78, 8204, 8198, 8200, 8225, 8181, 8182, 8192, 8174, 8176, 8181, 8250, 8228, 8189, 8151,7.631509065628052
79, 8193, 8175, 8165, 8204, 8175, 8173, 8177, 8158, 8175, 8189, 8221, 8200, 8186, 8150,7.647306203842163
80, 8190, 8167, 8179, 8170, 8177, 8189, 8183, 8169, 8167, 8196, 8212, 8205, 8193, 8162,7.647306203842163
81, 8185, 8157, 8147, 8153, 8173, 8195, 8206, 8180, 8181, 8205, 8214, 8188, 8195, 8157,7.663262605667114
82, 8174, 8141, 8125, 8118, 8150, 8163, 8181, 8174, 8186, 8186, 8194, 8173, 8177, 8137,7.663262605667114
83, 8169, 8156, 8138, 8106, 8151, 8153, 8167, 8177, 8194, 8179, 8194, 8180, 8182, 8139,7.678322076797485
84, 8186, 8176, 8146, 8124, 8168, 8155, 8184, 8170, 8194, 8185, 8217, 8185, 8197, 8146,7.69402289390564
85, 8193, 8185, 8169, 8128, 8168, 8152, 8181, 8167, 8167, 8165, 8202, 8183, 8172, 8130,7.69402289390564
86, 8170, 8180, 8145, 8147, 8174, 8163, 8183, 8167, 8165, 8168, 8168, 8148, 8146, 8112,7.69402289390564
87, 8154, 8154, 8133, 8129, 8175, 8169, 8188, 8168, 8177, 8187, 8153, 8138, 8149, 8127,7.7092344760894775
88, 8156, 8136, 8130, 8094, 8170, 8178, 8198, 8186, 8202, 8215, 8162, 8153, 8173, 8147,7.724373817443848
89, 8158, 8141, 8120, 8106, 8168, 8187, 8213, 8194, 8230, 8232, 8174, 8148, 8183, 8146,7.724373817443848
90, 8157, 8142, 8140, 8098, 8155, 8179, 8208, 8185, 8214, 8205, 8159, 8141, 8164, 8137,7.740458726882935
91, 8146, 8129, 8105, 8066, 8144, 8162, 8201, 8166, 8184, 8180, 8144, 8125, 8157, 8119,7.740458726882935
92, 8145, 8134, 8108, 8060, 8146, 8152, 8189, 8151, 8157, 8159, 8145, 8137, 8155, 8108,7.756656885147095
93, 8163, 8154, 8146, 8086, 8157, 8158, 8187, 8168, 8157, 8154, 8167, 8159, 8161, 8117,7.756656885147095
94, 8168, 8153, 8129, 8090, 8156, 8153, 8185, 8176, 8167, 8169, 8187, 8147, 8170, 8120,7.772854328155518
95, 8140, 8144, 8133, 8068, 8147, 8155, 8172, 8164, 8139, 8170, 8166, 8124, 8151, 8110,7.772854328155518
96, 8119, 8145, 8126, 8093, 8158, 8168, 8186, 8165, 8140, 8186, 8145, 8095, 8138, 8103,7.787447214126587
97, 8136, 8147, 8130, 8114, 8171, 8167, 8205, 8178, 8180, 8207, 8156, 8103, 8143, 8107,7.787447214126587
98, 8143, 8149, 8141, 8100, 8170, 8177, 8211, 8190, 8213, 8222, 8179, 8121, 8147, 8114,7.8030030727386475
99, 8123, 8140, 8117, 8097, 8170, 8189, 8215, 8182, 8219, 8228, 8176, 8096, 8140, 8112,7.8030030727386475
100, 8113, 8131, 8129, 8095, 8161, 8190, 8220, 8175, 8205, 8208, 8149, 8092, 8126, 8107,7.818080186843872
101, 8108, 8121, 8109, 8089, 8150, 8190, 8233, 8178, 8210, 8214, 8142, 8092, 8139, 8099,7.818080186843872
102, 8108, 8114, 8103, 8072, 8148, 8184, 8219, 8174, 8198, 8216, 8140, 8092, 8147, 8101,7.833291053771973
103, 8117, 8126, 8134, 8075, 8151, 8184, 8205, 8175, 8170, 8198, 8135, 8104, 8141, 8111,7.833291053771973
104, 8126, 8132, 8121, 8091, 8152, 8179, 8222, 8175, 8183, 8206, 8149, 8112, 8151, 8121,7.849386930465698
105, 8140, 8128, 8138, 8075, 8146, 8166, 8214, 8181, 8208, 8229, 8164, 8132, 8169, 8134,7.849386930465698
106, 8145, 8131, 8137, 8077, 8150, 8165, 8199, 8187, 8225, 8247, 8162, 8124, 8178, 8135,7.865142583847046
107, 8139, 8128, 8131, 8086, 8158, 8169, 8209, 8182, 8229, 8233, 8144, 8116, 8166, 8127,7.865142583847046
108, 8141, 8128, 8154, 8073, 8162, 8176, 8227, 8191, 8231, 8218, 8145, 8139, 8167, 8135,7.8802313804626465
109, 8148, 8131, 8134, 8065, 8157, 8166, 8231, 8191, 8238, 8227, 8168, 8142, 8191, 8141,7.8802313804626465
110, 8152, 8136, 8149, 8061, 8146, 8145, 8207, 8181, 8223, 8211, 8166, 8150, 8187, 8138,7.895345449447632
111, 8156, 8142, 8161, 8082, 8158, 8151, 8200, 8181, 8222, 8206, 8167, 8150, 8181, 8140,7.895345449447632
112, 8165, 8143, 8161, 8094, 8167, 8165, 8207, 8182, 8230, 8227, 8192, 8154, 8196, 8148,7.91144061088562
113, 8176, 8154, 8186, 8093, 8162, 8166, 8208, 8187, 8230, 8237, 8204, 8178, 8207, 8155,7.91144061088562
114, 8179, 8169, 8173, 8121, 8170, 8153, 8208, 8177, 8231, 8233, 8197, 8174, 8206, 8148,7.927269220352173
115, 8184, 8170, 8183, 8104, 8174, 8146, 8193, 8166, 8209, 8209, 8179, 8170, 8191, 8139,7.927269220352173
116, 8176, 8159, 8178, 8069, 8162, 8154, 8186, 8174, 8201, 8200, 8179, 8158, 8188, 8136,7.942525625228882
117, 8172, 8161, 8171, 8095, 8156, 8142, 8181, 8169, 8207, 8206, 8189, 8150, 8190, 8131,7.942525625228882
118, 8185, 8188, 8209, 8139, 8169, 8147, 8182, 8166, 8204, 8204, 8192, 8178, 8185, 8132,7.958515405654907
119, 8174, 8188, 8192, 8148, 8181, 8173, 8206, 8171, 8203, 8211, 8195, 8170, 8190, 8131,7.958515405654907
120, 8151, 8167, 8190, 8138, 8181, 8185, 8212, 8160, 8176, 8203, 8172, 8139, 8170, 8124,7.973467826843262
121, 8159, 8176, 8202, 8157, 8192, 8185, 8211, 8150, 8158, 8206, 8155, 8134, 8155, 8121,7.973467826843262
122, 8184, 8194, 8202, 8173, 8199, 8174, 8201, 8152, 8165, 8219, 8173, 8161, 8177, 8132,7.9889914989471436
123, 8188, 8199, 8224, 8164, 8186, 8176, 8181, 8167, 8168, 8206, 8179, 8171, 8187, 8152,7.9889914989471436
124, 8165, 8179, 8190, 8162, 8176, 8183, 8191, 8172, 8181, 8201, 8153, 8131, 8177, 8143,8.005033493041992
125, 8156, 8157, 8180, 8151, 8170, 8172, 8198, 8168, 8185, 8203, 8131, 8130, 8159, 8118,8.005033493041992
126, 8161, 8160, 8192, 8154, 8171, 8167, 8192, 8177, 8191, 8208, 8142, 8144, 8156, 8115,8.02046275138855
127, 8171, 8160, 8179, 8159, 8176, 8169, 8183, 8171, 8198, 8204, 8148, 8129, 8160, 8125,8.02046275138855
237, 8172, 8150, 8190, 8145, 8162, 8167, 8185, 8167, 8184, 8193, 8134, 8134, 8157, 8131,8.042212724685669
0, 8160, 8144, 8167, 8149, 8152, 8166, 8205, 8173, 8182, 8203, 8137, 8131, 8156, 8121,8.042212724685669
1, 8158, 8147, 8164, 8150, 8162, 8172, 8206, 8166, 8172, 8187, 8139, 8132, 8149, 8114,8.042212724685669
2, 8160, 8152, 8167, 8143, 8169, 8184, 8204, 8168, 8168, 8170, 8131, 8138, 8149, 8120,8.052817583084106
3, 8161, 8140, 8137, 8143, 8154, 8171, 8206, 8173, 8182, 8185, 8131, 8132, 8158, 8123,8.06818962097168
4, 8159, 8134, 8155, 8141, 8144, 8156, 8189, 8177, 8187, 8187, 8134, 8142, 8161, 8125,8.06818962097168
5, 8156, 8141, 8146, 8148, 8167, 8169, 8185, 8178, 8203, 8180, 8139, 8140, 8175, 8127,8.083360433578491
6, 8166, 8146, 8144, 8143, 8180, 8169, 8175, 8181, 8212, 8173, 8142, 8147, 8180, 8127,8.083360433578491
7, 8169, 8154, 8158, 8140, 8168, 8155, 8153, 8184, 8199, 8163, 8144, 8158, 8167, 8117,8.098908424377441
8, 8166, 8151, 8141, 8148, 8165, 8151, 8148, 8163, 8191, 8161, 8148, 8145, 8166, 8108,8.098908424377441
9, 8166, 8154, 8161, 8140, 8172, 8148, 8151, 8160, 8186, 8168, 8150, 8154, 8167, 8111,8.114370584487915
10, 8161, 8163, 8151, 8140, 8171, 8143, 8159, 8172, 8183, 8177, 8148, 8139, 8157, 8102,8.114370584487915
11, 8161, 8160, 8151, 8139, 8168, 8147, 8157, 8161, 8169, 8165, 8138, 8117, 8134, 8093,8.130013465881348
12, 8169, 8158, 8174, 8145, 8179, 8166, 8164, 8158, 8167, 8156, 8138, 8121, 8125, 8099,8.130013465881348
13, 8159, 8158, 8153, 8162, 8188, 8174, 8185, 8164, 8175, 8163, 8142, 8113, 8133, 8100,8.145134449005127
14, 8141, 8148, 8157, 8145, 8177, 8178, 8183, 8165, 8163, 8156, 8120, 8108, 8126, 8097,8.145134449005127
15, 8136, 8137, 8142, 8130, 8172, 8186, 8183, 8163, 8170, 8171, 8109, 8096, 8125, 8093,8.160273551940918
16, 8137, 8136, 8132, 8135, 8174, 8176, 8190, 8164, 8186, 8196, 8119, 8097, 8132, 8089,8.160273551940918
17, 8140, 8137, 8151, 8137, 8171, 8173, 8192, 8172, 8198, 8203, 8124, 8113, 8142, 8096,8.175466060638428
18, 8157, 8129, 8135, 8134, 8162, 8170, 8184, 8175, 8212, 8203, 8138, 8121, 8168, 8108,8.175466060638428
19, 8172, 8137, 8149, 8115, 8149, 8149, 8163, 8180, 8202, 8183, 8151, 8142, 8176, 8117,8.191509485244751
20, 8163, 8142, 8145, 8111, 8155, 8138, 8169, 8182, 8201, 8179, 8146, 8132, 8175, 8121,8.191509485244751
21, 8160, 8124, 8134, 8103, 8155, 8135, 8171, 8174, 8206, 8177, 8132, 8115, 8171, 8121,8.207119226455688
22, 8162, 8126, 8150, 8090, 8141, 8131, 8159, 8177, 8193, 8159, 8129, 8123, 8160, 8110,8.207119226455688
23, 8159, 8139, 8137, 8105, 8147, 8129, 8166, 8177, 8195, 8163, 8146, 8125, 8162, 8100,8.222259998321533
24, 8166, 8140, 8157, 8104, 8159, 8129, 8164, 8167, 8189, 8165, 8155, 8139, 8163, 8107,8.222601175308228
25, 8169, 8136, 8156, 8095, 8159, 8137, 8161, 8169, 8177, 8161, 8158, 8137, 8165, 8105,8.238296031951904
26, 8167, 8141, 8144, 8105, 8160, 8142, 8160, 8165, 8171, 8151, 8151, 8124, 8159, 8085,8.239295721054077
27, 8166, 8157, 8172, 8120, 8166, 8150, 8160, 8159, 8164, 8132, 8137, 8123, 8141, 8085,8.25401496887207
28, 8155, 8153, 8158, 8133, 8167, 8155, 8175, 8162, 8170, 8135, 8138, 8108, 8132, 8088,8.25401496887207
29, 8149, 8143, 8164, 8128, 8164, 8161, 8183, 8168, 8177, 8151, 8138, 8110, 8126, 8084,8.269052743911743
30, 8148, 8147, 8157, 8124, 8165, 8166, 8181, 8166, 8172, 8161, 8133, 8109, 8126, 8087,8.285136461257935
31, 8139, 8134, 8131, 8110, 8159, 8155, 8162, 8156, 8153, 8141, 8118, 8094, 8118, 8082,8.285136461257935
32, 8125, 8115, 8147, 8094, 8145, 8164, 8164, 8156, 8137, 8112, 8089, 8087, 8092, 8067,8.301250696182251
33, 8120, 8118, 8128, 8114, 8153, 8182, 8203, 8154, 8141, 8128, 8091, 8071, 8100, 8067,8.301250696182251
34, 8138, 8133, 8146, 8132, 8169, 8172, 8195, 8153, 8147, 8159, 8125, 8103, 8138, 8098,8.301250696182251
35, 8146, 8132, 8164, 8134, 8166, 8166, 8157, 8168, 8165, 8178, 8142, 8136, 8159, 8120,8.316473245620728
36, 8131, 8112, 8130, 8132, 8149, 8156, 8146, 8166, 8168, 8176, 8127, 8114, 8145, 8102,8.332167863845825
37, 8133, 8115, 8139, 8125, 8145, 8149, 8154, 8165, 8151, 8164, 8118, 8111, 8127, 8093,8.332167863845825
38, 8152, 8133, 8144, 8139, 8158, 8170, 8176, 8181, 8177, 8188, 8139, 8124, 8145, 8109,8.348103046417236
39, 8151, 8131, 8151, 8136, 8153, 8176, 8182, 8182, 8196, 8197, 8148, 8135, 8156, 8121,8.348103046417236
40, 8131, 8119, 8141, 8117, 8138, 8158, 8166, 8174, 8183, 8179, 8134, 8131, 8146, 8107,8.36338758468628
41, 8128, 8114, 8118, 8106, 8139, 8141, 8151, 8165, 8178, 8170, 8125, 8119, 8139, 8092,8.36338758468628
42, 8142, 8121, 8143, 8094, 8140, 8134, 8144, 8167, 8173, 8161, 8129, 8133, 8141, 8096,8.380453824996948
43, 8138, 8121, 8129, 8104, 8141, 8136, 8142, 8169, 8178, 8164, 8147, 8134, 8157, 8096,8.380453824996948
44, 8141, 8124, 8130, 8106, 8143, 8139, 8129, 8164, 8174, 8155, 8159, 8145, 8165, 8100,8.380453824996948
45, 8163, 8150, 8162, 8113, 8148, 8143, 8131, 8169, 8167, 8153, 8179, 8167, 8171, 8106,8.395061731338501
46, 8175, 8168, 8161, 8140, 8155, 8141, 8150, 8167, 8170, 8164, 8187, 8163, 8172, 8102,8.410145998001099
47, 8170, 8176, 8183, 8138, 8155, 8151, 8156, 8171, 8168, 8164, 8178, 8172, 8164, 8106,8.410145998001099
48, 8156, 8171, 8168, 8132, 8157, 8153, 8158, 8175, 8179, 8170, 8179, 8163, 8168, 8105,8.426014423370361
49, 8148, 8157, 8160, 8135, 8155, 8138, 8150, 8163, 8169, 8150, 8167, 8141, 8150, 8086,8.426014423370361
50, 8148, 8156, 8176, 8146, 8152, 8147, 8156, 8160, 8155, 8137, 8148, 8129, 8129, 8082,8.441236019134521
51, 8139, 8146, 8142, 8144, 8153, 8154, 8166, 8162, 8163, 8159, 8149, 8112, 8133, 8084,8.441236019134521
52, 8137, 8140, 8155, 8131, 8152, 8151, 8158, 8170, 8160, 8166, 8142, 8128, 8142, 8092,8.456889152526855
53, 8150, 8157, 8167, 8152, 8164, 8167, 8183, 8181, 8175, 8177, 8141, 8144, 8155, 8110,8.456889152526855
54, 8154, 8159, 8158, 8155, 8170, 8172, 8193, 8176, 8187, 8188, 8140, 8144, 8152, 8111,8.472159624099731
55, 8146, 8145, 8162, 8139, 8160, 8168, 8177, 8177, 8179, 8189, 8133, 8140, 8140, 8107,8.472159624099731
56, 8154, 8142, 8151, 8150, 8159, 8161, 8180, 8174, 8176, 8186, 8142, 8142, 8149, 8115,8.487349033355713
57, 8162, 8148, 8166, 8137, 8157, 8147, 8169, 8160, 8154, 8152, 8142, 8163, 8149, 8115,8.487349033355713
58, 8151, 8145, 8145, 8116, 8153, 8140, 8151, 8157, 8144, 8135, 8130, 8151, 8147, 8102,8.502542495727539
59, 8159, 8142, 8138, 8122, 8160, 8140, 8148, 8160, 8152, 8149, 8134, 8140, 8155, 8106,8.502542495727539
60, 8175, 8155, 8174, 8140, 8164, 8150, 8155, 8171, 8156, 8165, 8152, 8162, 8165, 8119,8.518078565597534
61, 8167, 8163, 8157, 8150, 8163, 8154, 8166, 8181, 8162, 8173, 8169, 8164, 8178, 8111,8.518078565597534
62, 8166, 8173, 8168, 8140, 8165, 8144, 8156, 8176, 8157, 8161, 8170, 8170, 8168, 8100,8.533283472061157
63, 8167, 8176, 8173, 8142, 8176, 8147, 8151, 8165, 8163, 8164, 8172, 8168, 8161, 8091,8.533283472061157
64, 8154, 8157, 8165, 8149, 8175, 8151, 8149, 8148, 8159, 8161, 8168, 8156, 8158, 8080,8.548874139785767
65, 8147, 8155, 8184, 8148, 8163, 8148, 8141, 8149, 8133, 8140, 8147, 8156, 8140, 8075,8.548874139785767
66, 8154, 8168, 8170, 8151, 8167, 8143, 8144, 8152, 8132, 8139, 8152, 8147, 8133, 8072,8.564379930496216
67, 8159, 8169, 8184, 8152, 8173, 8150, 8144, 8155, 8143, 8148, 8168, 8156, 8138, 8078,8.564379930496216
68, 8155, 8170, 8185, 8176, 8175, 8177, 8165, 8175, 8174, 8171, 8166, 8156, 8147, 8087,8.580474853515625
69, 8153, 8168, 8166, 8189, 8178, 8189, 8187, 8181, 8195, 8183, 8159, 8145, 8144, 8090,8.580474853515625
70, 8140, 8167, 8177, 8172, 8178, 8192, 8190, 8172, 8176, 8173, 8158, 8149, 8129, 8093,8.596026182174683
71, 8124, 8161, 8144, 8172, 8175, 8191, 8190, 8158, 8169, 8186, 8156, 8135, 8136, 8091,8.596026182174683
72, 8133, 8141, 8136, 8158, 8159, 8171, 8177, 8157, 8167, 8190, 8139, 8134, 8144, 8091,8.611127376556396
73, 8136, 8126, 8136, 8136, 8152, 8160, 8175, 8171, 8167, 8180, 8135, 8140, 8147, 8094,8.611127376556396
74, 8133, 8128, 8120, 8130, 8151, 8156, 8179, 8173, 8168, 8175, 8139, 8139, 8148, 8098,8.627148389816284
75, 8149, 8144, 8146, 8129, 8148, 8153, 8178, 8183, 8177, 8167, 8138, 8153, 8147, 8103,8.627148389816284
76, 8159, 8155, 8141, 8147, 8160, 8155, 8191, 8193, 8207, 8171, 8151, 8151, 8158, 8100,8.642260789871216
77, 8156, 8156, 8142, 8151, 8167, 8159, 8188, 8187, 8204, 8168, 8157, 8157, 8160, 8095,8.642260789871216
78, 8164, 8164, 8155, 8155, 8171, 8166, 8186, 8189, 8199, 8166, 8168, 8170, 8160, 8100,8.657832622528076
79, 8179, 8175, 8158, 8174, 8186, 8161, 8185, 8171, 8198, 8176, 8193, 8179, 8172, 8110,8.657832622528076
80, 8173, 8181, 8187, 8176, 8193, 8159, 8164, 8143, 8146, 8165, 8188, 8189, 8162, 8106,8.673077583312988
81, 8152, 8168, 8163, 8179, 8191, 8166, 8166, 8146, 8112, 8151, 8160, 8160, 8143, 8094,8.673077583312988
82, 8147, 8151, 8154, 8181, 8182, 8172, 8181, 8163, 8135, 8152, 8147, 8144, 8136, 8101,8.689101457595825
83, 8141, 8143, 8154, 8167, 8167, 8175, 8190, 8170, 8166, 8165, 8141, 8143, 8140, 8104,8.689101457595825
84, 8131, 8122, 8115, 8135, 8148, 8147, 8185, 8168, 8168, 8170, 8130, 8129, 8142, 8089,8.705130815505981
85, 8146, 8127, 8137, 8118, 8142, 8120, 8162, 8178, 8157, 8153, 8136, 8156, 8149, 8102,8.705130815505981
86, 8162, 8157, 8148, 8146, 8154, 8132, 8155, 8169, 8157, 8146, 8166, 8177, 8169, 8117,8.720315933227539
87, 8158, 8163, 8156, 8149, 8155, 8142, 8150, 8151, 8130, 8135, 8171, 8175, 8160, 8097,8.720315933227539
88, 8151, 8163, 8174, 8146, 8163, 8144, 8153, 8162, 8113, 8140, 8161, 8171, 8149, 8093,8.736335754394531
89, 8150, 8169, 8149, 8172, 8184, 8157, 8177, 8170, 8132, 8163, 8154, 8155, 8152, 8107,8.736335754394531
90, 8155, 8166, 8162, 8178, 8174, 8173, 8194, 8176, 8143, 8161, 8140, 8164, 8145, 8116,8.751957654953003
91, 8163, 8147, 8161, 8169, 8151, 8165, 8197, 8183, 8168, 8165, 8147, 8169, 8159, 8123,8.751957654953003
92, 8170, 8138, 8150, 8144, 8149, 8139, 8171, 8172, 8179, 8160, 8163, 8174, 8175, 8126,8.766996145248413
93, 8167, 8159, 8156, 8131, 8159, 8140, 8141, 8164, 8161, 8140, 8164, 8187, 8162, 8108,8.766996145248413
94, 8167, 8180, 8160, 8171, 8168, 8154, 8145, 8155, 8154, 8138, 8171, 8188, 8153, 8089,8.782358884811401
95, 8187, 8185, 8208, 8204, 8170, 8159, 8162, 8150, 8150, 8149, 8172, 8198, 8158, 8112,8.782752513885498
96, 8188, 8168, 8186, 8193, 8175, 8168, 8178, 8161, 8156, 8176, 8161, 8186, 8166, 8132,8.798465251922607
97, 8161, 8152, 8137, 8153, 8175, 8159, 8172, 8160, 8159, 8170, 8150, 8175, 8162, 8121,8.798465251922607
98, 8146, 8152, 8144, 8132, 8167, 8148, 8157, 8160, 8160, 8142, 8149, 8179, 8163, 8116,8.814409494400024
99, 8155, 8145, 8134, 8147, 8156, 8139, 8148, 8165, 8158, 8136, 8157, 8171, 8174, 8114,8.814409494400024
100, 8166, 8147, 8158, 8150, 8146, 8133, 8129, 8161, 8127, 8118, 8156, 8185, 8166, 8102,8.829999923706055
101, 8162, 8168, 8168, 8158, 8163, 8145, 8137, 8157, 8116, 8110, 8155, 8183, 8157, 8093,8.829999923706055
102, 8159, 8169, 8166, 8174, 8169, 8157, 8153, 8157, 8117, 8115, 8145, 8158, 8153, 8095,8.845592498779297
103, 8164, 8161, 8187, 8184, 8153, 8169, 8162, 8166, 8110, 8116, 8138, 8162, 8147, 8109,8.845592498779297
104, 8169, 8168, 8173, 8210, 8165, 8172, 8183, 8166, 8121, 8132, 8156, 8172, 8162, 8116,8.861234903335571
105, 8180, 8176, 8188, 8214, 8179, 8163, 8181, 8160, 8123, 8134, 8153, 8186, 8169, 8119,8.861234903335571
106, 8178, 8160, 8177, 8191, 8161, 8162, 8170, 8161, 8118, 8127, 8143, 8181, 8167, 8118,8.876466035842896
107, 8165, 8140, 8142, 8168, 8145, 8153, 8159, 8157, 8115, 8129, 8151, 8163, 8172, 8111,8.876466035842896
108, 8171, 8161, 8170, 8174, 8160, 8145, 8151, 8170, 8133, 8143, 8155, 8184, 8189, 8121,8.892050743103027
109, 8198, 8167, 8172, 8190, 8164, 8139, 8148, 8180, 8167, 8167, 8171, 8208, 8225, 8143,8.907646894454956
110, 8205, 8140, 8175, 8159, 8145, 8129, 8133, 8167, 8156, 8151, 8189, 8225, 8236, 8147,8.907646894454956
111, 8183, 8148, 8169, 8154, 8142, 8120, 8122, 8157, 8130, 8125, 8184, 8210, 8222, 8123,8.907646894454956
112, 8185, 8168, 8165, 8179, 8144, 8105, 8118, 8152, 8117, 8126, 8178, 8196, 8220, 8115,8.923041582107544
113, 8213, 8170, 8207, 8171, 8142, 8112, 8116, 8159, 8110, 8128, 8207, 8234, 8233, 8133,8.938405752182007
114, 8211, 8172, 8192, 8182, 8149, 8130, 8127, 8165, 8120, 8125, 8220, 8233, 8238, 8124,8.938405752182007
115, 8201, 8184, 8191, 8201, 8154, 8128, 8128, 8161, 8113, 8113, 8185, 8209, 8217, 8106,8.954452276229858
116, 8208, 8191, 8214, 8209, 8163, 8136, 8143, 8165, 8107, 8126, 8172, 8208, 8212, 8106,8.954452276229858
117, 8200, 8188, 8198, 8212, 8175, 8155, 8164, 8161, 8120, 8141, 8184, 8205, 8218, 8103,8.970173835754395
118, 8180, 8179, 8200, 8207, 8160, 8160, 8157, 8161, 8117, 8132, 8176, 8198, 8206, 8102,8.970173835754395
119, 8170, 8162, 8177, 8205, 8148, 8152, 8159, 8159, 8109, 8144, 8165, 8178, 8208, 8105,8.985232591629028
