COUNTER,F3,FC5,AF3,F7,T7,P7,O1,O2,P8,T8,F8,AF4,FC6,F4,Timestamp
111, 8214, 8168, 8158, 8156, 8202, 8179, 8228, 8172, 8225, 8220, 8150, 8166, 8177, 8143,0.0399477481842041
112, 8208, 8150, 8163, 8113, 8172, 8152, 8194, 8168, 8211, 8207, 8143, 8167, 8172, 8135,0.0399477481842041
113, 8215, 8156, 8163, 8108, 8176, 8154, 8183, 8176, 8213, 8203, 8161, 8179, 8192, 8135,0.055617332458496094
114, 8214, 8162, 8155, 8129, 8195, 8153, 8180, 8171, 8211, 8196, 8177, 8187, 8196, 8130,0.055617332458496094
115, 8206, 8168, 8168, 8128, 8187, 8144, 8165, 8167, 8187, 8186, 8169, 8192, 8175, 8122,0.07081961631774902
116, 8211, 8178, 8147, 8130, 8178, 8132, 8164, 8158, 8177, 8187, 8164, 8174, 8168, 8111,0.07081961631774902
117, 8224, 8190, 8178, 8136, 8185, 8133, 8163, 8164, 8165, 8175, 8171, 8182, 8169, 8113,0.08694243431091309
118, 8213, 8189, 8180, 8162, 8193, 8156, 8180, 8172, 8164, 8180, 8173, 8174, 8168, 8115,0.08694243431091309
119, 8203, 8176, 8159, 8165, 8191, 8164, 8188, 8166, 8164, 8189, 8138, 8149, 8150, 8111,0.10294175148010254
120, 8207, 8174, 8177, 8140, 8184, 8163, 8182, 8175, 8173, 8203, 8133, 8162, 8158, 8117,0.10294175148010254
121, 8215, 8170, 8152, 8139, 8184, 8154, 8179, 8175, 8201, 8222, 8185, 8175, 8202, 8123,0.11765313148498535
122, 8224, 8178, 8176, 8140, 8187, 8137, 8159, 8162, 8180, 8181, 8184, 8185, 8196, 8117,0.11765313148498535
123, 8230, 8197, 8198, 8160, 8197, 8148, 8163, 8157, 8157, 8159, 8158, 8177, 8176, 8110,0.13371634483337402
124, 8235, 8201, 8192, 8179, 8205, 8170, 8186, 8160, 8176, 8197, 8178, 8177, 8191, 8122,0.13371634483337402
125, 8225, 8189, 8206, 8169, 8194, 8183, 8189, 8171, 8188, 8214, 8178, 8193, 8194, 8138,0.14940118789672852
126, 8209, 8172, 8164, 8153, 8181, 8174, 8185, 8169, 8195, 8203, 8148, 8171, 8182, 8132,0.14940118789672852
127, 8220, 8171, 8170, 8136, 8173, 8157, 8171, 8174, 8198, 8193, 8144, 8171, 8179, 8132,0.16460227966308594
237, 8230, 8179, 8187, 8147, 8174, 8158, 8174, 8186, 8215, 8210, 8173, 8194, 8192, 8137,0.16460227966308594
0, 8231, 8178, 8175, 8159, 8178, 8151, 8180, 8185, 8231, 8224, 8205, 8218, 8215, 8137,0.18063139915466309
1, 8252, 8186, 8212, 8160, 8179, 8154, 8170, 8184, 8218, 8199, 8225, 8248, 8224, 8148,0.18063139915466309
2, 8262, 8200, 8202, 8187, 8186, 8163, 8170, 8171, 8202, 8179, 8227, 8223, 8211, 8143,0.196028470993042
3, 8247, 8205, 8204, 8185, 8195, 8153, 8164, 8160, 8186, 8171, 8216, 8211, 8193, 8128,0.196028470993042
4, 8238, 8218, 8210, 8181, 8203, 8158, 8169, 8172, 8201, 8179, 8227, 8233, 8206, 8130,0.21263551712036133
5, 8237, 8225, 8187, 8213, 8210, 8173, 8178, 8177, 8212, 8184, 8228, 8221, 8207, 8133,0.21263551712036133
6, 8230, 8226, 8213, 8223, 8206, 8180, 8168, 8167, 8179, 8166, 8192, 8198, 8183, 8131,0.2268357276916504
7, 8219, 8221, 8192, 8220, 8211, 8187, 8180, 8161, 8175, 8174, 8176, 8167, 8189, 8126,0.2268357276916504
8, 8216, 8211, 8183, 8212, 8216, 8182, 8185, 8175, 8183, 8183, 8179, 8165, 8194, 8123,0.24260258674621582
9, 8212, 8215, 8190, 8219, 8217, 8178, 8179, 8183, 8179, 8183, 8175, 8180, 8186, 8122,0.24260258674621582
10, 8212, 8218, 8172, 8235, 8221, 8184, 8185, 8166, 8182, 8189, 8167, 8186, 8185, 8126,0.25908780097961426
11, 8214, 8223, 8192, 8227, 8218, 8195, 8185, 8170, 8181, 8187, 8161, 8198, 8184, 8134,0.25908780097961426
12, 8207, 8224, 8166, 8211, 8218, 8190, 8188, 8182, 8204, 8211, 8176, 8188, 8200, 8133,0.27487659454345703
13, 8209, 8216, 8165, 8187, 8215, 8170, 8177, 8182, 8216, 8218, 8185, 8203, 8210, 8127,0.27538132667541504
14, 8214, 8220, 8186, 8191, 8216, 8170, 8169, 8183, 8214, 8195, 8186, 8213, 8207, 8128,0.29054760932922363
15, 8226, 8226, 8177, 8215, 8221, 8166, 8170, 8175, 8218, 8180, 8189, 8197, 8214, 8144,0.29054760932922363
16, 8239, 8227, 8213, 8199, 8211, 8155, 8158, 8172, 8211, 8179, 8183, 8227, 8215, 8158,0.30609917640686035
17, 8217, 8217, 8177, 8182, 8209, 8151, 8159, 8173, 8208, 8190, 8182, 8225, 8207, 8135,0.30609917640686035
18, 8207, 8220, 8161, 8191, 8218, 8143, 8150, 8169, 8186, 8172, 8173, 8197, 8190, 8114,0.32215094566345215
19, 8229, 8250, 8215, 8220, 8226, 8150, 8141, 8165, 8164, 8163, 8171, 8209, 8181, 8120,0.32215094566345215
20, 8234, 8256, 8202, 8234, 8229, 8157, 8142, 8156, 8157, 8167, 8179, 8206, 8178, 8114,0.3378422260284424
21, 8221, 8252, 8205, 8203, 8229, 8162, 8143, 8167, 8146, 8140, 8170, 8194, 8164, 8104,0.3378422260284424
22, 8208, 8259, 8189, 8195, 8240, 8179, 8173, 8181, 8171, 8146, 8163, 8177, 8166, 8108,0.35303711891174316
23, 8190, 8257, 8171, 8199, 8238, 8184, 8188, 8173, 8189, 8167, 8143, 8151, 8160, 8104,0.35303711891174316
24, 8175, 8251, 8182, 8193, 8227, 8186, 8181, 8177, 8185, 8166, 8126, 8138, 8144, 8097,0.3685944080352783
25, 8175, 8236, 8160, 8196, 8222, 8185, 8185, 8184, 8203, 8183, 8142, 8143, 8155, 8099,0.369598388671875
26, 8183, 8229, 8185, 8190, 8214, 8185, 8182, 8183, 8205, 8198, 8139, 8163, 8158, 8110,0.3837924003601074
27, 8174, 8230, 8183, 8192, 8213, 8189, 8182, 8179, 8189, 8185, 8117, 8141, 8148, 8105,0.3991529941558838
28, 8169, 8214, 8158, 8179, 8210, 8180, 8185, 8170, 8183, 8167, 8119, 8128, 8142, 8103,0.3991529941558838
29, 8190, 8211, 8180, 8168, 8207, 8184, 8198, 8180, 8212, 8181, 8138, 8160, 8153, 8128,0.4145476818084717
30, 8204, 8217, 8166, 8186, 8213, 8184, 8207, 8190, 8250, 8211, 8153, 8157, 8165, 8140,0.4145476818084717
31, 8204, 8209, 8179, 8173, 8208, 8163, 8184, 8189, 8236, 8206, 8151, 8155, 8166, 8135,0.4306662082672119
32, 8208, 8203, 8178, 8164, 8206, 8160, 8182, 8177, 8227, 8212, 8161, 8162, 8182, 8135,0.4306662082672119
33, 8214, 8203, 8157, 8168, 8212, 8161, 8184, 8166, 8236, 8217, 8165, 8166, 8189, 8138,0.4467813968658447
34, 8199, 8199, 8164, 8149, 8196, 8151, 8162, 8173, 8222, 8190, 8147, 8173, 8173, 8128,0.4467813968658447
35, 8179, 8178, 8131, 8135, 8181, 8143, 8159, 8175, 8215, 8184, 8144, 8156, 8179, 8109,0.4619760513305664
36, 8190, 8180, 8154, 8128, 8188, 8142, 8161, 8179, 8215, 8185, 8156, 8162, 8184, 8112,0.4619760513305664
37, 8205, 8201, 8173, 8135, 8192, 8140, 8164, 8185, 8226, 8182, 8166, 8169, 8181, 8116,0.47825193405151367
38, 8206, 8199, 8152, 8131, 8178, 8127, 8155, 8177, 8227, 8174, 8170, 8173, 8182, 8113,0.47825193405151367
39, 8202, 8203, 8179, 8127, 8179, 8135, 8141, 8171, 8206, 8167, 8167, 8187, 8163, 8108,0.4951632022857666
40, 8190, 8206, 8166, 8153, 8201, 8151, 8159, 8167, 8203, 8173, 8158, 8161, 8143, 8088,0.4951632022857666
41, 8183, 8199, 8173, 8152, 8201, 8147, 8169, 8166, 8194, 8165, 8148, 8154, 8154, 8088,0.4951632022857666
42, 8181, 8199, 8173, 8136, 8187, 8148, 8161, 8168, 8189, 8163, 8154, 8159, 8150, 8101,0.5095698833465576
43, 8177, 8196, 8151, 8146, 8181, 8150, 8157, 8163, 8188, 8171, 8159, 8144, 8184, 8098,0.5256016254425049
44, 8176, 8197, 8191, 8165, 8180, 8154, 8155, 8167, 8180, 8177, 8156, 8155, 8385, 8101,0.5256016254425049
45, 8177, 8197, 8174, 8179, 8191, 8158, 8159, 8165, 8187, 8189, 8169, 8154, 8592, 8107,0.5407354831695557
46, 8186, 8193, 8165, 8163, 8192, 8157, 8150, 8159, 8174, 8175, 8167, 8156, 8565, 8112,0.5407354831695557
47, 8184, 8186, 8178, 8157, 8185, 8163, 8150, 8163, 8169, 8163, 8152, 8160, 8479, 8112,0.5559470653533936
48, 8174, 8179, 8155, 8172, 8182, 8159, 8159, 8156, 8180, 8177, 8146, 8142, 8484, 8100,0.5559470653533936
49, 8177, 8184, 8178, 8172, 8180, 8161, 8157, 8161, 8173, 8176, 8133, 8148, 8464, 8096,0.5716102123260498
50, 8177, 8179, 8160, 8168, 8192, 8175, 8180, 8176, 8194, 8191, 8131, 8158, 8436, 8109,0.5716102123260498
51, 8176, 8160, 8153, 8145, 8192, 8174, 8195, 8182, 8211, 8203, 8137, 8166, 8427, 8122,0.5876851081848145
52, 8168, 8155, 8160, 8132, 8178, 8175, 8199, 8187, 8206, 8189, 8123, 8160, 8395, 8113,0.5876851081848145
53, 8156, 8155, 8126, 8135, 8170, 8169, 8201, 8186, 8203, 8179, 8102, 8134, 8368, 8092,0.6028034687042236
54, 8154, 8155, 8152, 8122, 8163, 8162, 8182, 8192, 8206, 8176, 8101, 8150, 8353, 8093,0.6028034687042236
55, 8156, 8149, 8143, 8129, 8160, 8165, 8177, 8191, 8227, 8186, 8116, 8154, 8354, 8102,0.6189217567443848
56, 8163, 8140, 8135, 8123, 8155, 8148, 8165, 8179, 8215, 8162, 8104, 8151, 8341, 8105,0.6189217567443848
57, 8175, 8157, 8170, 8121, 8163, 8147, 8159, 8179, 8195, 8145, 8102, 8178, 8323, 8109,0.6335439682006836
58, 8188, 8175, 8162, 8149, 8178, 8160, 8174, 8170, 8199, 8171, 8125, 8183, 8321, 8112,0.6335439682006836
59, 8198, 8174, 8181, 8145, 8175, 8149, 8163, 8169, 8183, 8161, 8124, 8189, 8309, 8111,0.6495461463928223
60, 8202, 8169, 8170, 8136, 8173, 8142, 8152, 8172, 8188, 8154, 8138, 8195, 8315, 8111,0.6495461463928223
61, 8208, 8175, 8171, 8148, 8181, 8152, 8148, 8167, 8204, 8164, 8159, 8211, 8317, 8118,0.6646871566772461
62, 8212, 8198, 8207, 8168, 8189, 8163, 8144, 8161, 8187, 8154, 8151, 8226, 8291, 8117,0.6646871566772461
63, 8212, 8204, 8191, 8184, 8193, 8162, 8148, 8149, 8165, 8151, 8147, 8205, 8267, 8102,0.6812014579772949
64, 8219, 8198, 8216, 8174, 8191, 8176, 8152, 8157, 8160, 8158, 8155, 8210, 8260, 8104,0.6812014579772949
65, 8210, 8193, 8206, 8176, 8195, 8187, 8171, 8169, 8175, 8172, 8157, 8200, 8262, 8107,0.695732831954956
66, 8201, 8184, 8182, 8187, 8196, 8166, 8176, 8165, 8174, 8164, 8136, 8176, 8241, 8106,0.695732831954956
67, 8203, 8182, 8203, 8188, 8189, 8171, 8177, 8178, 8177, 8163, 8131, 8184, 8220, 8117,0.711287260055542
68, 8189, 8164, 8171, 8184, 8186, 8193, 8194, 8184, 8203, 8192, 8149, 8183, 8230, 8115,0.711287260055542
69, 8186, 8147, 8175, 8168, 8179, 8193, 8185, 8173, 8189, 8181, 8137, 8176, 8216, 8110,0.7277131080627441
70, 8191, 8149, 8169, 8170, 8176, 8189, 8184, 8165, 8172, 8163, 8126, 8165, 8189, 8111,0.7277131080627441
71, 8184, 8147, 8147, 8167, 8177, 8179, 8183, 8166, 8174, 8165, 8127, 8180, 8177, 8113,0.7428591251373291
72, 8182, 8153, 8172, 8158, 8170, 8172, 8167, 8176, 8178, 8164, 8127, 8209, 8173, 8119,0.7428591251373291
73, 8199, 8157, 8158, 8174, 8165, 8166, 8167, 8172, 8204, 8171, 8139, 8187, 8188, 8120,0.7586555480957031
74, 8216, 8160, 8178, 8169, 8167, 8154, 8153, 8164, 8201, 8155, 8143, 8189, 8195, 8120,0.7586555480957031
75, 8214, 8185, 8188, 8177, 8181, 8150, 8139, 8160, 8176, 8141, 8142, 8203, 8182, 8118,0.7739832401275635
76, 8204, 8197, 8168, 8205, 8190, 8154, 8144, 8149, 8162, 8145, 8140, 8178, 8157, 8107,0.7739832401275635
77, 8201, 8194, 8193, 8206, 8188, 8165, 8147, 8155, 8161, 8146, 8134, 8174, 8138, 8100,0.790090799331665
78, 8197, 8186, 8180, 8213, 8197, 8176, 8161, 8161, 8179, 8166, 8146, 8180, 8139, 8107,0.790090799331665
79, 8185, 8166, 8182, 8202, 8190, 8171, 8163, 8162, 8176, 8178, 8141, 8180, 8123, 8118,0.8057990074157715
80, 8165, 8135, 8156, 8161, 8159, 8164, 8164, 8166, 8171, 8172, 8113, 8151, 8106, 8105,0.8057990074157715
81, 8166, 8117, 8116, 8129, 8142, 8157, 8166, 8165, 8184, 8165, 8109, 8133, 8110, 8097,0.8209431171417236
82, 8178, 8132, 8155, 8135, 8148, 8160, 8158, 8177, 8194, 8163, 8123, 8161, 8117, 8118,0.8209431171417236
83, 8170, 8133, 8141, 8154, 8151, 8161, 8151, 8182, 8207, 8173, 8134, 8155, 8112, 8116,0.8365249633789062
84, 8173, 8128, 8139, 8134, 8144, 8149, 8132, 8168, 8191, 8156, 8141, 8159, 8097, 8101,0.8365249633789062
85, 8183, 8152, 8166, 8133, 8151, 8152, 8128, 8158, 8165, 8146, 8154, 8183, 8100, 8107,0.8516719341278076
86, 8185, 8167, 8165, 8170, 8168, 8156, 8143, 8154, 8149, 8151, 8161, 8176, 8099, 8115,0.8516719341278076
87, 8188, 8169, 8198, 8182, 8167, 8159, 8153, 8163, 8136, 8144, 8164, 8177, 8081, 8118,0.8676857948303223
88, 8181, 8163, 8177, 8182, 8166, 8168, 8160, 8169, 8144, 8152, 8168, 8158, 8080, 8119,0.8676857948303223
89, 8174, 8156, 8167, 8173, 8165, 8167, 8150, 8169, 8146, 8150, 8156, 8144, 8076, 8121,0.8838047981262207
90, 8177, 8158, 8182, 8179, 8164, 8183, 8162, 8179, 8155, 8157, 8159, 8154, 8075, 8121,0.8838047981262207
91, 8173, 8153, 8149, 8182, 8157, 8189, 8177, 8172, 8171, 8175, 8162, 8149, 8079, 8118,0.8993098735809326
92, 8161, 8142, 8153, 8150, 8148, 8179, 8153, 8160, 8154, 8154, 8129, 8143, 8062, 8114,0.8993098735809326
93, 8159, 8140, 8141, 8155, 8156, 8181, 8153, 8159, 8160, 8152, 8121, 8131, 8063, 8107,0.91483473777771
94, 8171, 8145, 8141, 8159, 8150, 8174, 8161, 8167, 8172, 8161, 8136, 8135, 8070, 8109,0.91483473777771
95, 8166, 8151, 8156, 8136, 8143, 8168, 8157, 8176, 8174, 8154, 8139, 8146, 8068, 8113,0.9307630062103271
96, 8162, 8148, 8130, 8136, 8153, 8159, 8157, 8166, 8176, 8149, 8141, 8134, 8071, 8104,0.9307630062103271
97, 8171, 8156, 8160, 8140, 8152, 8152, 8138, 8162, 8149, 8126, 8136, 8142, 8057, 8095,0.9462966918945312
98, 8167, 8169, 8157, 8149, 8156, 8158, 8132, 8160, 8136, 8117, 8129, 8135, 8048, 8082,0.9462966918945312
99, 8162, 8160, 8141, 8140, 8160, 8158, 8137, 8158, 8130, 8118, 8126, 8130, 8050, 8079,0.9619994163513184
100, 8168, 8152, 8166, 8135, 8150, 8168, 8146, 8165, 8128, 8118, 8120, 8137, 8046, 8097,0.9619994163513184
101, 8170, 8143, 8152, 8157, 8146, 8182, 8166, 8164, 8154, 8127, 8109, 8117, 8045, 8109,0.9781925678253174
102, 8182, 8140, 8171, 8154, 8141, 8182, 8170, 8178, 8172, 8138, 8101, 8132, 8058, 8126,0.9781925678253174
103, 8198, 8144, 8164, 8140, 8132, 8157, 8155, 8190, 8185, 8163, 8120, 8152, 8092, 8147,0.9935727119445801
104, 8207, 8144, 8156, 8136, 8129, 8127, 8121, 8170, 8175, 8155, 8145, 8162, 8102, 8146,0.9935727119445801
105, 8215, 8160, 8194, 8145, 8140, 8143, 8111, 8161, 8157, 8140, 8157, 8181, 8089, 8137,1.0096144676208496
106, 8208, 8181, 8177, 8171, 8160, 8165, 8132, 8160, 8160, 8167, 8167, 8168, 8094, 8133,1.0096144676208496
107, 8197, 8199, 8196, 8180, 8171, 8172, 8135, 8161, 8150, 8169, 8170, 8167, 8097, 8133,1.0257203578948975
108, 8194, 8203, 8203, 8189, 8182, 8197, 8164, 8173, 8161, 8174, 8185, 8172, 8105, 8133,1.0257203578948975
109, 8192, 8193, 8186, 8199, 8184, 8208, 8202, 8179, 8181, 8199, 8182, 8160, 8105, 8138,1.0409047603607178
110, 8169, 8180, 8185, 8191, 8174, 8199, 8198, 8173, 8165, 8189, 8147, 8149, 8082, 8130,1.0409047603607178
111, 8143, 8158, 8130, 8179, 8168, 8192, 8189, 8165, 8158, 8171, 8134, 8128, 8074, 8108,1.0562703609466553
112, 8155, 8151, 8146, 8161, 8167, 8189, 8190, 8175, 8168, 8175, 8142, 8139, 8084, 8119,1.0562703609466553
113, 8173, 8165, 8170, 8170, 8172, 8189, 8190, 8179, 8188, 8189, 8153, 8154, 8100, 8136,1.072005033493042
114, 8168, 8169, 8145, 8168, 8172, 8176, 8161, 8163, 8178, 8166, 8155, 8151, 8095, 8114,1.072005033493042
115, 8162, 8177, 8168, 8144, 8161, 8162, 8129, 8161, 8141, 8132, 8155, 8159, 8075, 8091,1.0880517959594727
116, 8168, 8185, 8160, 8163, 8162, 8160, 8141, 8161, 8134, 8139, 8158, 8145, 8075, 8095,1.0880517959594727
117, 8181, 8178, 8176, 8176, 8167, 8174, 8157, 8164, 8138, 8143, 8149, 8146, 8075, 8110,1.1040210723876953
118, 8175, 8161, 8176, 8167, 8162, 8200, 8169, 8178, 8159, 8156, 8145, 8139, 8074, 8112,1.1040210723876953
119, 8163, 8142, 8134, 8145, 8145, 8194, 8164, 8178, 8185, 8170, 8144, 8120, 8081, 8111,1.1187503337860107
120, 8171, 8148, 8153, 8121, 8140, 8167, 8138, 8178, 8183, 8156, 8143, 8142, 8087, 8119,1.1187503337860107
121, 8179, 8168, 8150, 8146, 8157, 8151, 8132, 8167, 8176, 8148, 8157, 8145, 8090, 8111,1.1342713832855225
122, 8183, 8185, 8174, 8176, 8165, 8160, 8136, 8155, 8155, 8132, 8165, 8153, 8079, 8096,1.1342713832855225
123, 8173, 8195, 8188, 8185, 8170, 8189, 8159, 8166, 8152, 8139, 8160, 8160, 8075, 8092,1.1508188247680664
124, 8153, 8169, 8144, 8171, 8171, 8190, 8181, 8166, 8166, 8167, 8143, 8127, 8068, 8087,1.1508188247680664
125, 8156, 8153, 8161, 8149, 8164, 8181, 8174, 8172, 8177, 8162, 8133, 8131, 8070, 8094,1.164870262145996
126, 8174, 8170, 8155, 8160, 8169, 8184, 8177, 8180, 8199, 8164, 8162, 8152, 8104, 8108,1.164870262145996
127, 8181, 8173, 8157, 8158, 8165, 8171, 8156, 8169, 8181, 8159, 8178, 8161, 8109, 8103,1.180896282196045
237, 8173, 8168, 8170, 8154, 8154, 8164, 8134, 8160, 8155, 8138, 8170, 8156, 8090, 8085,1.1960535049438477
0, 8178, 8177, 8154, 8163, 8167, 8159, 8138, 8157, 8167, 8144, 8185, 8151, 8098, 8082,1.1960535049438477
1, 8178, 8188, 8184, 8153, 8177, 8159, 8129, 8163, 8158, 8143, 8187, 8166, 8092, 8091,1.211665391921997
2, 8151, 8173, 8159, 8156, 8165, 8164, 8124, 8156, 8139, 8129, 8164, 8139, 8068, 8076,1.211665391921997
3, 8141, 8155, 8138, 8156, 8148, 8159, 8125, 8150, 8133, 8116, 8138, 8110, 8053, 8065,1.2277038097381592
4, 8140, 8162, 8159, 8152, 8147, 8171, 8137, 8166, 8136, 8123, 8127, 8113, 8058, 8070,1.2277038097381592
5, 8134, 8162, 8147, 8157, 8152, 8190, 8159, 8169, 8143, 8140, 8140, 8120, 8066, 8076,1.2277038097381592
6, 8150, 8161, 8180, 8162, 8152, 8192, 8164, 8171, 8142, 8145, 8151, 8154, 8065, 8094,1.2428691387176514
7, 8165, 8169, 8183, 8191, 8150, 8184, 8167, 8173, 8154, 8165, 8155, 8165, 8085, 8102,1.2580046653747559
8, 8173, 8180, 8194, 8226, 8141, 8171, 8154, 8170, 8145, 8155, 8156, 8174, 8103, 8100,1.2580046653747559
9, 8184, 8192, 8228, 8249, 8140, 8165, 8133, 8170, 8132, 8120, 8166, 8204, 8100, 8107,1.273552417755127
10, 8195, 8189, 8210, 8274, 8149, 8160, 8127, 8160, 8144, 8119, 8184, 8213, 8114, 8112,1.273552417755127
11, 8214, 8212, 8256, 8308, 8150, 8156, 8119, 8160, 8137, 8114, 8185, 8245, 8122, 8125,1.2895910739898682
12, 8233, 8254, 8280, 8375, 8155, 8147, 8119, 8163, 8124, 8096, 8187, 8259, 8113, 8127,1.2895910739898682
13, 8239, 8256, 8267, 8414, 8152, 8132, 8105, 8147, 8091, 8059, 8171, 8245, 8089, 8107,1.3051695823669434
14, 8219, 8251, 8277, 8417, 8138, 8146, 8090, 8137, 8050, 8028, 8135, 8232, 8065, 8087,1.3051695823669434
15, 8214, 8268, 8264, 8468, 8152, 8165, 8097, 8140, 8060, 8041, 8117, 8222, 8066, 8083,1.3203654289245605
16, 8239, 8286, 8301, 8518, 8179, 8163, 8092, 8150, 8071, 8045, 8110, 8246, 8068, 8095,1.3203654289245605
17, 8238, 8286, 8295, 8534, 8185, 8163, 8096, 8145, 8059, 8034, 8093, 8233, 8052, 8093,1.336057424545288
18, 8219, 8271, 8259, 8536, 8174, 8165, 8104, 8136, 8043, 8025, 8056, 8195, 8026, 8083,1.336057424545288
19, 8231, 8263, 8284, 8536, 8171, 8180, 8113, 8157, 8052, 8040, 8048, 8209, 8032, 8100,1.351245641708374
20, 8243, 8262, 8262, 8540, 8185, 8187, 8131, 8162, 8073, 8073, 8069, 8215, 8059, 8119,1.351245641708374
21, 8225, 8248, 8250, 8506, 8169, 8165, 8114, 8147, 8037, 8054, 8037, 8196, 8035, 8110,1.3670217990875244
22, 8214, 8227, 8236, 8478, 8146, 8155, 8102, 8153, 8010, 8043, 8007, 8178, 8017, 8090,1.3670217990875244
23, 8226, 8220, 8220, 8474, 8150, 8156, 8112, 8163, 8037, 8059, 8032, 8183, 8039, 8090,1.3827452659606934
24, 8225, 8234, 8252, 8465, 8159, 8154, 8108, 8163, 8044, 8058, 8045, 8203, 8050, 8102,1.3827452659606934
25, 8208, 8226, 8220, 8443, 8158, 8146, 8099, 8153, 8027, 8060, 8036, 8178, 8042, 8090,1.3980090618133545
26, 8199, 8205, 8203, 8392, 8145, 8131, 8081, 8147, 7996, 8039, 8023, 8162, 8024, 8073,1.3980090618133545
27, 8193, 8218, 8210, 8378, 8144, 8136, 8085, 8147, 7987, 8021, 8028, 8162, 8020, 8069,1.4132874011993408
28, 8195, 8232, 8204, 8401, 8159, 8147, 8104, 8145, 7994, 8036, 8039, 8159, 8027, 8068,1.4132874011993408
29, 8201, 8233, 8232, 8394, 8164, 8148, 8102, 8158, 7995, 8038, 8038, 8168, 8023, 8069,1.428626298904419
30, 8191, 8218, 8204, 8372, 8159, 8147, 8110, 8159, 8031, 8033, 8042, 8151, 8034, 8068,1.428626298904419
31, 8185, 8211, 8205, 8352, 8164, 8152, 8110, 8150, 8065, 8033, 8046, 8142, 8039, 8073,1.4437429904937744
32, 8186, 8221, 8221, 8358, 8182, 8167, 8108, 8158, 8084, 8051, 8038, 8134, 8033, 8074,1.4437429904937744
33, 8176, 8207, 8191, 8360, 8181, 8163, 8112, 8158, 8085, 8060, 8015, 8107, 8030, 8065,1.4599590301513672
34, 8166, 8194, 8203, 8331, 8168, 8164, 8116, 8154, 8062, 8052, 8001, 8113, 8025, 8066,1.4599590301513672
35, 8158, 8192, 8179, 8327, 8177, 8175, 8129, 8149, 8058, 8072, 8010, 8105, 8028, 8062,1.4756247997283936
36, 8155, 8188, 8178, 8317, 8176, 8169, 8125, 8147, 8051, 8065, 8003, 8097, 8018, 8057,1.4756247997283936
37, 8152, 8179, 8188, 8291, 8163, 8173, 8130, 8153, 8045, 8048, 7992, 8103, 8014, 8063,1.490755558013916
38, 8146, 8164, 8149, 8279, 8160, 8170, 8144, 8152, 8060, 8067, 7991, 8094, 8029, 8070,1.490755558013916
39, 8151, 8168, 8171, 8269, 8155, 8160, 8140, 8164, 8084, 8079, 7997, 8107, 8042, 8082,1.5055773258209229
40, 8151, 8176, 8164, 8269, 8155, 8161, 8154, 8172, 8121, 8095, 8019, 8109, 8064, 8080,1.5055773258209229
41, 8149, 8166, 8162, 8252, 8158, 8153, 8155, 8166, 8120, 8098, 8021, 8105, 8070, 8078,1.521686315536499
42, 8148, 8162, 8169, 8235, 8156, 8150, 8145, 8165, 8102, 8085, 8005, 8105, 8056, 8083,1.521686315536499
43, 8150, 8166, 8136, 8236, 8159, 8145, 8143, 8159, 8107, 8078, 8014, 8100, 8058, 8075,1.537757158279419
44, 8167, 8184, 8172, 8232, 8165, 8134, 8129, 8160, 8097, 8067, 8034, 8126, 8064, 8069,1.537757158279419
45, 8174, 8192, 8173, 8240, 8166, 8135, 8130, 8162, 8102, 8069, 8048, 8127, 8065, 8067,1.5534183979034424
46, 8172, 8181, 8162, 8234, 8156, 8138, 8132, 8165, 8113, 8074, 8047, 8123, 8060, 8068,1.5534183979034424
47, 8176, 8184, 8189, 8233, 8160, 8152, 8136, 8167, 8105, 8078, 8041, 8134, 8058, 8066,1.5686330795288086
48, 8167, 8179, 8158, 8236, 8168, 8153, 8142, 8146, 8094, 8071, 8035, 8101, 8053, 8049,1.5686330795288086
49, 8151, 8172, 8167, 8211, 8161, 8143, 8128, 8145, 8074, 8053, 8034, 8091, 8032, 8040,1.5846474170684814
50, 8147, 8189, 8174, 8224, 8171, 8154, 8144, 8166, 8086, 8074, 8030, 8102, 8032, 8052,1.5846474170684814
51, 8153, 8192, 8172, 8232, 8180, 8164, 8162, 8167, 8098, 8078, 7989, 8094, 8032, 8067,1.6005377769470215
52, 8154, 8178, 8193, 8204, 8173, 8164, 8151, 8160, 8087, 8060, 7987, 8091, 8033, 8074,1.6005377769470215
53, 8143, 8164, 8161, 8197, 8177, 8160, 8150, 8154, 8100, 8091, 8052, 8086, 8057, 8074,1.6156961917877197
54, 8138, 8162, 8173, 8190, 8176, 8166, 8156, 8167, 8108, 8115, 8078, 8099, 8066, 8081,1.6156961917877197
55, 8141, 8160, 8176, 8180, 8176, 8181, 8172, 8185, 8134, 8127, 8085, 8108, 8082, 8096,1.630908489227295
56, 8148, 8140, 8151, 8156, 8178, 8177, 8175, 8177, 8162, 8142, 8110, 8115, 8106, 8106,1.630908489227295
57, 8140, 8127, 8156, 8115, 8169, 8172, 8171, 8175, 8164, 8154, 8123, 8117, 8110, 8103,1.646578311920166
58, 8125, 8122, 8134, 8107, 8166, 8167, 8190, 8187, 8175, 8179, 8145, 8097, 8121, 8100,1.646578311920166
59, 8130, 8115, 8154, 8090, 8170, 8160, 8200, 8195, 8188, 8179, 8161, 8115, 8131, 8116,1.6623234748840332
60, 8123, 8099, 8137, 8050, 8159, 8160, 8194, 8188, 8206, 8182, 8154, 8117, 8134, 8113,1.6623234748840332
61, 8116, 8087, 8107, 8026, 8140, 8145, 8174, 8179, 8206, 8190, 8168, 8107, 8148, 8104,1.6789782047271729
62, 8126, 8107, 8140, 8029, 8142, 8140, 8166, 8185, 8204, 8194, 8205, 8140, 8170, 8119,1.6789782047271729
63, 8127, 8120, 8128, 8034, 8154, 8141, 8179, 8189, 8224, 8201, 8207, 8139, 8175, 8122,1.6930482387542725
64, 8131, 8116, 8143, 8015, 8147, 8133, 8167, 8191, 8215, 8178, 8171, 8129, 8150, 8116,1.6930482387542725
65, 8142, 8112, 8142, 8014, 8144, 8138, 8164, 8183, 8207, 8183, 8177, 8132, 8156, 8121,1.709205150604248
66, 8136, 8100, 8113, 8012, 8146, 8135, 8161, 8173, 8194, 8187, 8191, 8122, 8165, 8113,1.709205150604248
67, 8119, 8100, 8136, 7992, 8145, 8130, 8148, 8178, 8168, 8145, 8164, 8115, 8136, 8091,1.7249438762664795
68, 8123, 8103, 8124, 7999, 8150, 8133, 8166, 8182, 8178, 8135, 8166, 8109, 8133, 8089,1.7249438762664795
69, 8143, 8107, 8136, 8006, 8145, 8136, 8176, 8182, 8193, 8162, 8188, 8130, 8152, 8109,1.740617036819458
70, 8145, 8119, 8132, 8014, 8144, 8139, 8168, 8173, 8200, 8180, 8194, 8127, 8158, 8111,1.740617036819458
71, 8143, 8122, 8128, 8016, 8148, 8136, 8157, 8175, 8194, 8164, 8192, 8120, 8152, 8110,1.7556483745574951
72, 8151, 8132, 8182, 8015, 8151, 8151, 8164, 8188, 8188, 8165, 8196, 8146, 8156, 8115,1.7556483745574951
73, 8134, 8130, 8131, 8034, 8165, 8167, 8195, 8171, 8195, 8192, 8191, 8112, 8158, 8097,1.771820068359375
74, 8115, 8116, 8113, 8019, 8167, 8166, 8183, 8166, 8169, 8164, 8166, 8084, 8131, 8083,1.771820068359375
75, 8124, 8129, 8170, 8012, 8156, 8174, 8165, 8186, 8159, 8138, 8165, 8106, 8132, 8090,1.786881923675537
76, 8133, 8137, 8140, 8034, 8151, 8171, 8182, 8168, 8180, 8157, 8174, 8098, 8153, 8088,1.8020312786102295
77, 8117, 8117, 8121, 8021, 8149, 8160, 8187, 8156, 8160, 8145, 8145, 8080, 8129, 8086,1.8020312786102295
78, 8101, 8103, 8113, 8017, 8153, 8169, 8193, 8174, 8156, 8140, 8133, 8070, 8127, 8093,1.8189260959625244
79, 8112, 8103, 8108, 8021, 8150, 8170, 8198, 8178, 8191, 8174, 8148, 8083, 8158, 8110,1.8189260959625244
80, 8113, 8105, 8118, 8009, 8142, 8165, 8195, 8181, 8201, 8181, 8142, 8095, 8160, 8116,1.8189260959625244
81, 8099, 8098, 8096, 8009, 8146, 8164, 8193, 8174, 8189, 8162, 8126, 8069, 8145, 8092,1.8339471817016602
82, 8105, 8099, 8109, 8005, 8147, 8167, 8184, 8175, 8182, 8155, 8119, 8068, 8139, 8087,1.8495678901672363
83, 8113, 8104, 8096, 8013, 8150, 8172, 8193, 8185, 8211, 8181, 8137, 8076, 8160, 8107,1.8495678901672363
84, 8114, 8100, 8093, 8012, 8143, 8164, 8198, 8181, 8225, 8188, 8154, 8078, 8178, 8110,1.8646020889282227
85, 8111, 8098, 8111, 8000, 8129, 8153, 8194, 8177, 8210, 8168, 8139, 8075, 8166, 8095,1.8646020889282227
86, 8112, 8093, 8079, 8009, 8136, 8137, 8188, 8165, 8211, 8171, 8134, 8068, 8161, 8086,1.880082607269287
87, 8125, 8103, 8105, 8013, 8138, 8121, 8163, 8160, 8199, 8167, 8162, 8102, 8171, 8096,1.880082607269287
88, 8124, 8108, 8102, 8011, 8129, 8124, 8158, 8164, 8195, 8168, 8187, 8111, 8183, 8099,1.8955872058868408
89, 8115, 8097, 8094, 7996, 8125, 8120, 8154, 8160, 8195, 8167, 8172, 8098, 8178, 8093,1.8955872058868408
90, 8111, 8104, 8122, 7990, 8124, 8118, 8131, 8161, 8180, 8155, 8161, 8102, 8169, 8085,1.910895586013794
91, 8107, 8109, 8087, 8001, 8124, 8121, 8124, 8155, 8173, 8150, 8175, 8085, 8168, 8065,1.910895586013794
92, 8116, 8121, 8113, 8009, 8128, 8121, 8123, 8153, 8157, 8128, 8182, 8099, 8159, 8063,1.9262809753417969
93, 8119, 8143, 8139, 8028, 8135, 8124, 8121, 8160, 8154, 8128, 8188, 8111, 8154, 8070,1.9262809753417969
94, 8096, 8126, 8111, 8021, 8127, 8117, 8101, 8150, 8140, 8133, 8175, 8086, 8136, 8051,1.941807746887207
95, 8074, 8104, 8114, 8007, 8121, 8125, 8098, 8147, 8121, 8125, 8156, 8076, 8118, 8040,1.941807746887207
96, 8084, 8113, 8106, 8039, 8136, 8138, 8125, 8150, 8135, 8132, 8165, 8076, 8131, 8049,1.9569363594055176
97, 8102, 8127, 8135, 8045, 8145, 8140, 8128, 8151, 8141, 8126, 8163, 8084, 8133, 8062,1.9569363594055176
98, 8091, 8114, 8127, 8026, 8141, 8152, 8132, 8152, 8149, 8135, 8154, 8074, 8132, 8066,1.9726364612579346
99, 8094, 8096, 8097, 8019, 8138, 8154, 8146, 8159, 8168, 8154, 8157, 8069, 8145, 8076,1.9726364612579346
100, 8120, 8103, 8121, 8022, 8136, 8148, 8148, 8171, 8174, 8143, 8146, 8086, 8152, 8086,1.9876677989959717
101, 8118, 8104, 8100, 8023, 8129, 8135, 8140, 8164, 8175, 8139, 8141, 8074, 8160, 8074,1.9876677989959717
102, 8110, 8110, 8115, 8002, 8119, 8125, 8113, 8160, 8160, 8129, 8156, 8089, 8159, 8067,2.0095348358154297
103, 8118, 8134, 8133, 8011, 8135, 8134, 8111, 8164, 8154, 8119, 8171, 8115, 8158, 8071,2.0095348358154297
104, 8123, 8140, 8125, 8036, 8151, 8135, 8124, 8157, 8150, 8125, 8169, 8109, 8156, 8067,2.0095348358154297
105, 8117, 8135, 8146, 8037, 8139, 8126, 8114, 8154, 8137, 8123, 8162, 8103, 8146, 8060,2.0186927318573
106, 8112, 8133, 8123, 8042, 8135, 8124, 8108, 8155, 8133, 8114, 8164, 8092, 8145, 8063,2.0346548557281494
107, 8117, 8144, 8141, 8046, 8147, 8142, 8115, 8159, 8131, 8114, 8167, 8110, 8147, 8079,2.0346548557281494
108, 8124, 8152, 8155, 8071, 8161, 8167, 8138, 8165, 8153, 8157, 8187, 8125, 8166, 8089,2.049981117248535
109, 8136, 8149, 8149, 8084, 8158, 8155, 8135, 8170, 8153, 8154, 8185, 8118, 8165, 8090,2.049981117248535
110, 8136, 8154, 8168, 8077, 8143, 8143, 8117, 8162, 8131, 8112, 8167, 8117, 8141, 8081,2.0659730434417725
111, 8118, 8148, 8127, 8083, 8146, 8152, 8126, 8152, 8143, 8131, 8170, 8095, 8140, 8072,2.0659730434417725
112, 8116, 8139, 8141, 8077, 8147, 8155, 8128, 8159, 8131, 8135, 8157, 8108, 8125, 8085,2.08064341545105
113, 8124, 8144, 8164, 8088, 8149, 8161, 8139, 8161, 8121, 8124, 8143, 8120, 8113, 8091,2.08064341545105
114, 8125, 8146, 8140, 8109, 8154, 8165, 8157, 8162, 8149, 8149, 8143, 8097, 8127, 8088,2.0967183113098145
115, 8124, 8150, 8164, 8101, 8152, 8170, 8156, 8175, 8171, 8177, 8144, 8110, 8136, 8099,2.0967183113098145
116, 8118, 8141, 8139, 8088, 8158, 8169, 8166, 8174, 8174, 8186, 8152, 8105, 8138, 8100,2.112095832824707
117, 8115, 8126, 8128, 8078, 8162, 8164, 8169, 8166, 8160, 8164, 8137, 8083, 8118, 8089,2.112095832824707
118, 8111, 8121, 8135, 8071, 8153, 8167, 8165, 8168, 8167, 8150, 8116, 8073, 8107, 8087,2.1281065940856934
119, 8116, 8113, 8111, 8063, 8146, 8156, 8160, 8167, 8183, 8157, 8125, 8071, 8121, 8093,2.1281065940856934
120, 8133, 8116, 8137, 8050, 8147, 8146, 8151, 8172, 8171, 8151, 8131, 8094, 8126, 8102,2.1439640522003174
121, 8128, 8119, 8120, 8053, 8151, 8145, 8158, 8175, 8178, 8151, 8123, 8092, 8123, 8099,2.1439640522003174
122, 8120, 8112, 8104, 8043, 8146, 8138, 8159, 8166, 8193, 8150, 8120, 8090, 8127, 8094,2.1598358154296875
123, 8136, 8121, 8130, 8036, 8148, 8147, 8159, 8170, 8190, 8145, 8128, 8103, 8140, 8092,2.1598358154296875
124, 8152, 8130, 8119, 8053, 8155, 8151, 8162, 8172, 8188, 8146, 8136, 8101, 8143, 8091,2.175844192504883
125, 8151, 8126, 8140, 8048, 8149, 8145, 8143, 8168, 8180, 8138, 8140, 8123, 8139, 8098,2.175844192504883
126, 8140, 8126, 8134, 8046, 8150, 8153, 8144, 8167, 8186, 8139, 8150, 8131, 8144, 8095,2.1908833980560303
127, 8140, 8131, 8134, 8051, 8155, 8159, 8157, 8166, 8191, 8145, 8158, 8128, 8139, 8088,2.1908833980560303
237, 8148, 8143, 8172, 8064, 8161, 8162, 8162, 8168, 8185, 8156, 8169, 8138, 8139, 8097,2.206294298171997
0, 8155, 8156, 8163, 8094, 8172, 8164, 8165, 8165, 8184, 8161, 8166, 8129, 8148, 8105,2.206294298171997
1, 8161, 8161, 8178, 8106, 8174, 8176, 8159, 8169, 8181, 8152, 8148, 8132, 8135, 8111,2.2221827507019043
2, 8148, 8153, 8166, 8110, 8175, 8188, 8168, 8172, 8183, 8160, 8149, 8120, 8127, 8108,2.2221827507019043
3, 8128, 8136, 8137, 8094, 8167, 8178, 8168, 8164, 8174, 8160, 8143, 8098, 8130, 8090,2.237844228744507
4, 8129, 8136, 8157, 8081, 8158, 8178, 8165, 8168, 8176, 8158, 8132, 8105, 8130, 8093,2.237844228744507
5, 8147, 8138, 8144, 8099, 8166, 8189, 8183, 8175, 8208, 8181, 8148, 8115, 8140, 8111,2.2531521320343018
6, 8154, 8137, 8148, 8086, 8170, 8178, 8181, 8179, 8210, 8184, 8163, 8133, 8144, 8115,2.2531521320343018
7, 8148, 8142, 8148, 8068, 8165, 8164, 8167, 8180, 8208, 8178, 8166, 8141, 8151, 8113,2.268665075302124
8, 8161, 8150, 8150, 8082, 8164, 8156, 8155, 8168, 8210, 8174, 8176, 8145, 8163, 8120,2.268665075302124
9, 8173, 8160, 8176, 8089, 8163, 8152, 8143, 8164, 8192, 8160, 8183, 8157, 8162, 8114,2.2844934463500977
10, 8162, 8156, 8144, 8078, 8164, 8151, 8147, 8165, 8185, 8158, 8185, 8141, 8153, 8092,2.2844934463500977
11, 8156, 8153, 8151, 8064, 8160, 8153, 8137, 8162, 8176, 8144, 8174, 8141, 8132, 8090,2.299633502960205
12, 8160, 8154, 8159, 8077, 8159, 8158, 8130, 8161, 8168, 8134, 8166, 8140, 8126, 8095,2.299633502960205
13, 8167, 8147, 8145, 8088, 8162, 8149, 8130, 8160, 8164, 8146, 8171, 8137, 8133, 8089,2.3150691986083984
14, 8166, 8155, 8179, 8075, 8162, 8149, 8128, 8167, 8154, 8142, 8175, 8161, 8135, 8096,2.3311214447021484
15, 8156, 8163, 8161, 8088, 8166, 8161, 8143, 8165, 8164, 8138, 8185, 8154, 8147, 8104,2.3311214447021484
16, 8166, 8166, 8165, 8102, 8166, 8152, 8138, 8159, 8161, 8138, 8187, 8153, 8153, 8107,2.3311214447021484
17, 8177, 8178, 8178, 8106, 8169, 8152, 8138, 8169, 8156, 8153, 8185, 8165, 8155, 8114,2.3469085693359375
18, 8173, 8170, 8158, 8103, 8175, 8159, 8148, 8172, 8164, 8158, 8187, 8154, 8158, 8117,2.3469085693359375
19, 8181, 8161, 8187, 8094, 8170, 8163, 8148, 8171, 8159, 8135, 8183, 8153, 8147, 8118,2.362539052963257
20, 8178, 8178, 8165, 8120, 8174, 8164, 8155, 8169, 8167, 8148, 8179, 8142, 8142, 8111,2.362539052963257
21, 8153, 8185, 8139, 8130, 8179, 8162, 8153, 8168, 8170, 8160, 8172, 8138, 8136, 8103,2.3785486221313477
22, 8142, 8162, 8146, 8108, 8171, 8168, 8152, 8171, 8169, 8153, 8173, 8137, 8132, 8095,2.39505672454834
23, 8149, 8147, 8139, 8101, 8162, 8163, 8156, 8166, 8171, 8153, 8180, 8121, 8135, 8088,2.39505672454834
24, 8152, 8160, 8155, 8115, 8169, 8165, 8161, 8175, 8163, 8151, 8175, 8129, 8140, 8098,2.39505672454834
25, 8144, 8154, 8137, 8131, 8173, 8176, 8176, 8178, 8170, 8166, 8175, 8124, 8146, 8104,2.41011905670166
26, 8142, 8136, 8139, 8121, 8157, 8170, 8178, 8166, 8174, 8167, 8173, 8120, 8141, 8106,2.41011905670166
27, 8146, 8148, 8155, 8123, 8160, 8170, 8184, 8168, 8168, 8156, 8173, 8126, 8145, 8112,2.4256553649902344
28, 8159, 8160, 8144, 8143, 8174, 8172, 8196, 8176, 8164, 8159, 8179, 8125, 8153, 8121,2.4256553649902344
29, 8173, 8162, 8172, 8144, 8172, 8170, 8182, 8176, 8159, 8164, 8176, 8144, 8146, 8130,2.441107988357544
30, 8162, 8161, 8153, 8144, 8170, 8167, 8169, 8170, 8163, 8170, 8173, 8142, 8148, 8124,2.456355333328247
31, 8148, 8146, 8140, 8135, 8163, 8155, 8162, 8163, 8152, 8165, 8170, 8138, 8147, 8117,2.456355333328247
32, 8141, 8127, 8155, 8120, 8144, 8150, 8156, 8155, 8136, 8156, 8155, 8133, 8133, 8108,2.4718751907348633
33, 8137, 8119, 8127, 8113, 8142, 8151, 8157, 8151, 8137, 8148, 8141, 8108, 8125, 8097,2.4718751907348633
34, 8142, 8129, 8141, 8112, 8152, 8163, 8162, 8169, 8143, 8140, 8152, 8125, 8133, 8106,2.489652395248413
35, 8144, 8120, 8140, 8120, 8152, 8175, 8179, 8178, 8165, 8156, 8165, 8132, 8149, 8122,2.489652395248413
36, 8136, 8108, 8132, 8111, 8145, 8166, 8183, 8174, 8172, 8163, 8147, 8104, 8143, 8116,2.489652395248413
37, 8133, 8134, 8149, 8108, 8145, 8168, 8173, 8183, 8164, 8153, 8136, 8105, 8133, 8107,2.5031118392944336
38, 8146, 8151, 8140, 8137, 8158, 8180, 8185, 8182, 8186, 8169, 8166, 8128, 8157, 8122,2.518721580505371
39, 8159, 8147, 8165, 8132, 8156, 8181, 8191, 8172, 8194, 8175, 8173, 8154, 8169, 8141,2.518721580505371
40, 8147, 8128, 8146, 8101, 8125, 8166, 8181, 8169, 8174, 8146, 8141, 8128, 8144, 8119,2.5359933376312256
41, 8153, 8097, 8129, 8096, 8098, 8159, 8175, 8166, 8165, 8126, 8124, 8108, 8127, 8102,2.5359933376312256
42, 8187, 8140, 8178, 8141, 8146, 8193, 8208, 8188, 8206, 8182, 8171, 8165, 8166, 8146,2.5505082607269287
43, 8185, 8188, 8157, 8160, 8192, 8188, 8220, 8196, 8236, 8223, 8208, 8189, 8197, 8171,2.5505082607269287
44, 8166, 8135, 8153, 8097, 8128, 8139, 8171, 8174, 8190, 8162, 8165, 8169, 8160, 8142,2.5663866996765137
45, 8182, 8108, 8166, 8115, 8085, 8150, 8173, 8174, 8197, 8156, 8166, 8167, 8164, 8143,2.5663866996765137
46, 8202, 8149, 8164, 8169, 8121, 8177, 8198, 8185, 8248, 8201, 8211, 8198, 8215, 8175,2.5815632343292236
47, 8191, 8160, 8176, 8140, 8147, 8159, 8176, 8184, 8241, 8178, 8201, 8213, 8215, 8170,2.5815632343292236
48, 8177, 8163, 8148, 8151, 8178, 8143, 8175, 8180, 8235, 8169, 8194, 8190, 8201, 8145,2.5967564582824707
49, 8189, 8172, 8169, 8186, 8205, 8146, 8181, 8180, 8236, 8179, 8203, 8203, 8198, 8149,2.5967564582824707
50, 8180, 8128, 8176, 8149, 8166, 8148, 8173, 8173, 8220, 8159, 8190, 8206, 8188, 8140,2.6128740310668945
51, 8167, 8090, 8147, 8113, 8167, 8140, 8173, 8169, 8214, 8150, 8180, 8186, 8192, 8110,2.6128740310668945
52, 8191, 8127, 8182, 8148, 8279, 8150, 8182, 8188, 8227, 8167, 8195, 8205, 8205, 8122,2.6280245780944824
53, 8198, 8145, 8184, 8188, 8366, 8163, 8189, 8184, 8231, 8174, 8201, 8204, 8189, 8142,2.6280245780944824
54, 8176, 8121, 8183, 8174, 8397, 8162, 8177, 8167, 8207, 8157, 8178, 8187, 8156, 8128,2.6436116695404053
55, 8160, 8107, 8178, 8160, 8459, 8169, 8178, 8172, 8207, 8164, 8164, 8174, 8157, 8116,2.6436116695404053
56, 8166, 8102, 8156, 8169, 8530, 8185, 8197, 8174, 8232, 8192, 8165, 8170, 8177, 8133,2.6588833332061768
57, 8179, 8111, 8182, 8176, 8548, 8193, 8204, 8177, 8238, 8196, 8153, 8194, 8182, 8156,2.6588833332061768
58, 8183, 8112, 8173, 8182, 8551, 8181, 8204, 8184, 8251, 8204, 8141, 8190, 8191, 8160,2.6743178367614746
59, 8186, 8104, 8175, 8173, 8556, 8166, 8190, 8176, 8254, 8207, 8155, 8195, 8199, 8165,2.6743178367614746
60, 8194, 8114, 8181, 8170, 8551, 8170, 8186, 8170, 8248, 8204, 8187, 8225, 8211, 8174,2.689445972442627
61, 8213, 8124, 8170, 8179, 8537, 8171, 8192, 8175, 8253, 8210, 8205, 8245, 8226, 8176,2.689445972442627
62, 8223, 8131, 8204, 8177, 8510, 8169, 8187, 8181, 8249, 8206, 8210, 8265, 8225, 8177,2.7051641941070557
63, 8213, 8133, 8187, 8179, 8488, 8165, 8189, 8175, 8244, 8194, 8214, 8252, 8220, 8158,2.7051641941070557
64, 8205, 8138, 8180, 8177, 8455, 8163, 8184, 8164, 8226, 8170, 8206, 8238, 8202, 8141,2.720526933670044
65, 8190, 8145, 8193, 8172, 8413, 8171, 8184, 8167, 8210, 8167, 8191, 8229, 8185, 8142,2.720526933670044
66, 8178, 8144, 8175, 8174, 8380, 8168, 8198, 8168, 8206, 8180, 8185, 8216, 8185, 8143,2.7360544204711914
67, 8193, 8161, 8214, 8184, 8354, 8173, 8199, 8171, 8196, 8170, 8179, 8233, 8183, 8144,2.7360544204711914
68, 8205, 8184, 8219, 8215, 8333, 8186, 8202, 8172, 8207, 8175, 8183, 8227, 8185, 8147,2.7516543865203857
69, 8204, 8191, 8214, 8225, 8306, 8179, 8202, 8174, 8215, 8191, 8192, 8219, 8190, 8157,2.7516543865203857
70, 8199, 8185, 8228, 8213, 8280, 8184, 8208, 8181, 8198, 8200, 8187, 8229, 8193, 8164,2.7668097019195557
71, 8199, 8173, 8196, 8212, 8261, 8204, 8226, 8179, 8197, 8210, 8172, 8217, 8194, 8157,2.7668097019195557
72, 8206, 8178, 8209, 8221, 8245, 8206, 8227, 8180, 8204, 8202, 8165, 8219, 8192, 8155,2.782414674758911
73, 8203, 8180, 8212, 8241, 8235, 8199, 8221, 8183, 8207, 8213, 8178, 8223, 8207, 8159,2.782414674758911
74, 8200, 8172, 8201, 8225, 8215, 8187, 8212, 8176, 8195, 8227, 8174, 8222, 8215, 8165,2.798060894012451
75, 8207, 8173, 8210, 8197, 8189, 8181, 8206, 8176, 8184, 8212, 8163, 8220, 8210, 8163,2.798060894012451
76, 8202, 8173, 8185, 8201, 8167, 8170, 8203, 8172, 8191, 8198, 8171, 8213, 8213, 8150,2.813589572906494
77, 8193, 8171, 8193, 8190, 8149, 8159, 8191, 8167, 8186, 8193, 8177, 8230, 8211, 8152,2.813589572906494
78, 8189, 8177, 8181, 8179, 8139, 8165, 8190, 8168, 8183, 8201, 8177, 8223, 8209, 8155,2.828665256500244
79, 8195, 8176, 8171, 8173, 8128, 8163, 8181, 8163, 8167, 8193, 8173, 8209, 8205, 8142,2.828665256500244
80, 8203, 8185, 8200, 8176, 8126, 8164, 8175, 8166, 8157, 8181, 8177, 8228, 8208, 8141,2.8441359996795654
81, 8203, 8197, 8180, 8196, 8131, 8169, 8185, 8170, 8177, 8197, 8198, 8227, 8219, 8150,2.8441359996795654
82, 8201, 8202, 8207, 8191, 8129, 8168, 8180, 8172, 8167, 8189, 8199, 8234, 8209, 8151,2.860105276107788
83, 8194, 8202, 8213, 8191, 8133, 8168, 8185, 8169, 8159, 8181, 8196, 8230, 8201, 8146,2.860105276107788
84, 8194, 8196, 8189, 8202, 8140, 8163, 8194, 8160, 8174, 8189, 8205, 8221, 8203, 8150,2.8756368160247803
85, 8205, 8207, 8231, 8202, 8133, 8177, 8185, 8178, 8176, 8188, 8198, 8238, 8196, 8162,2.8756368160247803
86, 8207, 8216, 8207, 8227, 8136, 8192, 8200, 8177, 8182, 8193, 8185, 8217, 8199, 8161,2.890850305557251
87, 8199, 8205, 8196, 8230, 8138, 8184, 8202, 8164, 8173, 8180, 8166, 8203, 8186, 8161,2.9070401191711426
88, 8193, 8204, 8210, 8223, 8132, 8192, 8203, 8180, 8179, 8191, 8165, 8216, 8180, 8166,2.9070401191711426
89, 8196, 8199, 8170, 8245, 8147, 8212, 8234, 8180, 8212, 8241, 8192, 8207, 8210, 8167,2.9070401191711426
90, 8194, 8191, 8175, 8235, 8151, 8213, 8233, 8176, 8207, 8241, 8192, 8203, 8212, 8174,2.9217159748077393
91, 8178, 8189, 8178, 8205, 8138, 8204, 8212, 8189, 8184, 8220, 8175, 8197, 8191, 8171,2.9367523193359375
92, 8180, 8185, 8171, 8202, 8133, 8196, 8214, 8184, 8183, 8228, 8178, 8203, 8194, 8166,2.9367523193359375
93, 8193, 8186, 8160, 8208, 8132, 8184, 8214, 8176, 8193, 8234, 8186, 8207, 8212, 8170,2.9528298377990723
94, 8200, 8192, 8177, 8182, 8120, 8165, 8177, 8188, 8182, 8211, 8181, 8215, 8211, 8171,2.9528298377990723
95, 8198, 8196, 8205, 8164, 8117, 8161, 8169, 8192, 8180, 8210, 8194, 8234, 8217, 8171,2.967987298965454
96, 8181, 8182, 8150, 8172, 8128, 8166, 8199, 8176, 8199, 8227, 8210, 8221, 8229, 8165,2.967987298965454
97, 8180, 8178, 8159, 8162, 8122, 8163, 8183, 8170, 8178, 8198, 8192, 8217, 8203, 8151,2.983931541442871
98, 8191, 8201, 8194, 8185, 8125, 8176, 8176, 8175, 8167, 8200, 8191, 8216, 8188, 8150,2.983931541442871
99, 8197, 8213, 8192, 8223, 8140, 8189, 8200, 8177, 8188, 8241, 8204, 8204, 8201, 8171,3.0002288818359375
100, 8211, 8217, 8222, 8222, 8142, 8209, 8219, 8184, 8193, 8244, 8193, 8217, 8211, 8187,3.0002288818359375
101, 8212, 8194, 8190, 8211, 8137, 8219, 8236, 8178, 8211, 8246, 8192, 8210, 8223, 8183,3.0161640644073486
102, 8189, 8165, 8164, 8181, 8119, 8194, 8216, 8169, 8217, 8248, 8193, 8202, 8217, 8177,3.0161640644073486
103, 8173, 8167, 8167, 8158, 8110, 8175, 8188, 8175, 8207, 8233, 8184, 8201, 8213, 8171,3.031418800354004
104, 8181, 8171, 8146, 8161, 8115, 8171, 8185, 8175, 8205, 8222, 8185, 8192, 8223, 8166,3.031418800354004
105, 8193, 8175, 8174, 8159, 8110, 8167, 8181, 8173, 8198, 8219, 8197, 8212, 8217, 8174,3.0481059551239014
106, 8197, 8180, 8174, 8174, 8109, 8170, 8189, 8172, 8204, 8227, 8215, 8223, 8221, 8173,3.0481059551239014
107, 8204, 8179, 8181, 8174, 8110, 8168, 8193, 8171, 8192, 8210, 8210, 8228, 8228, 8168,3.0486114025115967
108, 8201, 8181, 8199, 8155, 8110, 8166, 8193, 8176, 8171, 8194, 8195, 8228, 8213, 8162,3.0628318786621094
109, 8184, 8171, 8156, 8158, 8119, 8165, 8204, 8167, 8177, 8210, 8196, 8198, 8197, 8136,3.0628318786621094
110, 8172, 8169, 8185, 8152, 8117, 8167, 8192, 8169, 8166, 8193, 8176, 8196, 8179, 8120,3.0780251026153564
111, 8177, 8193, 8196, 8173, 8123, 8177, 8193, 8171, 8156, 8183, 8164, 8197, 8186, 8125,3.0936145782470703
112, 8201, 8207, 8177, 8207, 8139, 8179, 8204, 8155, 8156, 8200, 8173, 8190, 8201, 8139,3.0936145782470703
113, 8203, 8201, 8216, 8188, 8134, 8189, 8189, 8169, 8156, 8206, 8161, 8198, 8187, 8151,3.108842611312866
114, 8175, 8187, 8186, 8171, 8120, 8194, 8192, 8168, 8173, 8216, 8142, 8177, 8183, 8140,3.108842611312866
115, 8171, 8176, 8173, 8175, 8118, 8184, 8202, 8158, 8176, 8211, 8144, 8174, 8189, 8140,3.1240861415863037
116, 8178, 8180, 8190, 8186, 8123, 8192, 8206, 8176, 8181, 8217, 8162, 8188, 8196, 8154,3.1240861415863037
117, 8172, 8175, 8178, 8178, 8116, 8184, 8194, 8173, 8180, 8214, 8153, 8179, 8189, 8148,3.139676094055176
118, 8158, 8160, 8167, 8147, 8095, 8164, 8173, 8165, 8157, 8179, 8114, 8166, 8166, 8133,3.139676094055176
119, 8146, 8149, 8131, 8134, 8083, 8154, 8165, 8158, 8154, 8177, 8109, 8152, 8161, 8124,3.1548614501953125
120, 8148, 8150, 8151, 8125, 8083, 8142, 8151, 8153, 8146, 8176, 8119, 8165, 8160, 8121,3.1548614501953125
121, 8145, 8157, 8151, 8122, 8090, 8142, 8157, 8160, 8146, 8154, 8118, 8166, 8153, 8110,3.1700170040130615
122, 8145, 8154, 8131, 8119, 8092, 8142, 8165, 8160, 8154, 8143, 8114, 8162, 8155, 8105,3.1700170040130615
123, 8163, 8162, 8165, 8119, 8091, 8145, 8156, 8165, 8146, 8151, 8126, 8190, 8164, 8122,3.1860580444335938
124, 8168, 8168, 8157, 8134, 8102, 8150, 8157, 8161, 8141, 8154, 8143, 8187, 8167, 8116,3.1860580444335938
125, 8162, 8166, 8160, 8132, 8107, 8152, 8152, 8147, 8134, 8132, 8141, 8179, 8152, 8092,3.2019495964050293
126, 8166, 8167, 8156, 8134, 8102, 8145, 8149, 8144, 8122, 8126, 8136, 8178, 8146, 8096,3.2019495964050293
127, 8175, 8173, 8176, 8144, 8099, 8136, 8140, 8161, 8106, 8123, 8133, 8187, 8140, 8117,3.218214511871338
237, 8173, 8191, 8217, 8174, 8109, 8163, 8152, 8171, 8128, 8146, 8150, 8203, 8149, 8129,3.218214511871338
0, 8181, 8195, 8194, 8207, 8116, 8178, 8167, 8163, 8162, 8177, 8177, 8200, 8178, 8138,3.2336080074310303
1, 8202, 8198, 8230, 8195, 8098, 8158, 8141, 8156, 8126, 8149, 8176, 8226, 8180, 8146,3.2336080074310303
2, 8193, 8205, 8239, 8210, 8095, 8160, 8142, 8148, 8107, 8137, 8179, 8232, 8170, 8138,3.2489683628082275
3, 8183, 8199, 8214, 8238, 8113, 8180, 8171, 8156, 8128, 8153, 8188, 8222, 8163, 8142,3.2489683628082275
4, 8198, 8200, 8253, 8237, 8105, 8189, 8180, 8168, 8124, 8147, 8189, 8248, 8164, 8150,3.2650067806243896
5, 8206, 8205, 8244, 8256, 8093, 8170, 8175, 8163, 8118, 8144, 8204, 8257, 8187, 8145,3.2650067806243896
6, 8211, 8217, 8258, 8287, 8099, 8155, 8163, 8162, 8118, 8146, 8222, 8276, 8195, 8163,3.28059983253479
7, 8221, 8223, 8274, 8302, 8111, 8169, 8162, 8167, 8127, 8156, 8226, 8293, 8188, 8176,3.28059983253479
8, 8224, 8205, 8248, 8294, 8107, 8174, 8165, 8161, 8129, 8166, 8218, 8280, 8187, 8161,3.2959678173065186
9, 8218, 8197, 8261, 8278, 8095, 8173, 8157, 8160, 8121, 8161, 8214, 8281, 8192, 8158,3.2959678173065186
10, 8211, 8195, 8236, 8276, 8094, 8175, 8163, 8160, 8129, 8165, 8220, 8270, 8193, 8156,3.312026262283325
11, 8208, 8183, 8227, 8261, 8094, 8170, 8164, 8160, 8129, 8169, 8208, 8260, 8182, 8148,3.312026262283325
12, 8211, 8185, 8243, 8248, 8090, 8176, 8165, 8168, 8138, 8172, 8197, 8263, 8189, 8161,3.328038454055786
13, 8218, 8187, 8217, 8238, 8089, 8169, 8166, 8169, 8173, 8185, 8207, 8260, 8209, 8180,3.328038454055786
14, 8230, 8182, 8227, 8210, 8086, 8148, 8142, 8167, 8175, 8172, 8213, 8273, 8205, 8179,3.3439207077026367
15, 8233, 8187, 8215, 8204, 8083, 8143, 8127, 8157, 8156, 8157, 8213, 8269, 8205, 8163,3.3439207077026367
16, 8228, 8196, 8205, 8198, 8081, 8136, 8111, 8147, 8141, 8143, 8205, 8268, 8199, 8150,3.360041379928589
17, 8210, 8191, 8209, 8181, 8083, 8136, 8110, 8156, 8133, 8139, 8197, 8267, 8183, 8138,3.360041379928589
18, 8192, 8174, 8175, 8174, 8084, 8147, 8134, 8155, 8125, 8144, 8192, 8233, 8175, 8121,3.376033306121826
19, 8191, 8176, 8193, 8168, 8090, 8159, 8143, 8157, 8118, 8130, 8178, 8227, 8161, 8118,3.376033306121826
20, 8185, 8186, 8193, 8185, 8112, 8170, 8152, 8169, 8134, 8142, 8173, 8219, 8155, 8120,3.3910911083221436
21, 8174, 8177, 8183, 8190, 8114, 8169, 8150, 8164, 8121, 8147, 8160, 8189, 8145, 8107,3.3910911083221436
22, 8171, 8167, 8188, 8175, 8100, 8180, 8157, 8164, 8109, 8141, 8131, 8178, 8130, 8097,3.4066214561462402
23, 8175, 8159, 8156, 8169, 8105, 8193, 8189, 8171, 8152, 8174, 8124, 8183, 8144, 8117,3.4066214561462402
24, 8176, 8151, 8170, 8148, 8107, 8187, 8185, 8174, 8177, 8182, 8138, 8198, 8160, 8142,3.4220452308654785
25, 8176, 8158, 8164, 8150, 8105, 8173, 8169, 8168, 8170, 8163, 8152, 8190, 8164, 8130,3.4220452308654785
26, 8193, 8176, 8154, 8172, 8112, 8171, 8177, 8164, 8170, 8159, 8151, 8188, 8166, 8122,3.438188076019287
27, 8201, 8187, 8180, 8167, 8117, 8185, 8193, 8177, 8179, 8177, 8150, 8203, 8174, 8143,3.438188076019287
28, 8187, 8173, 8157, 8157, 8121, 8180, 8198, 8177, 8186, 8184, 8164, 8195, 8183, 8148,3.4539501667022705
29, 8180, 8165, 8155, 8143, 8118, 8158, 8184, 8173, 8172, 8156, 8163, 8198, 8179, 8133,3.4539501667022705
30, 8172, 8170, 8139, 8134, 8115, 8160, 8188, 8184, 8179, 8160, 8160, 8189, 8183, 8123,3.469550371170044
31, 8168, 8165, 8124, 8131, 8114, 8174, 8203, 8194, 8200, 8185, 8165, 8176, 8189, 8123,3.469550371170044
32, 8170, 8166, 8158, 8131, 8121, 8187, 8210, 8191, 8197, 8170, 8159, 8188, 8187, 8125,3.485053062438965
33, 8162, 8167, 8136, 8132, 8126, 8179, 8201, 8174, 8186, 8153, 8154, 8178, 8186, 8112,3.485053062438965
34, 8165, 8174, 8146, 8123, 8120, 8163, 8179, 8170, 8169, 8162, 8157, 8180, 8179, 8106,3.5009877681732178
35, 8189, 8196, 8171, 8144, 8134, 8173, 8186, 8178, 8180, 8187, 8175, 8196, 8189, 8128,3.5009877681732178
36, 8203, 8202, 8167, 8158, 8144, 8175, 8195, 8170, 8191, 8186, 8184, 8204, 8202, 8142,3.5165817737579346
37, 8203, 8195, 8186, 8135, 8132, 8169, 8185, 8164, 8176, 8173, 8180, 8216, 8195, 8144,3.5165817737579346
38, 8195, 8193, 8168, 8140, 8140, 8176, 8196, 8169, 8184, 8184, 8181, 8195, 8192, 8145,3.5320069789886475
39, 8196, 8204, 8188, 8158, 8153, 8185, 8206, 8171, 8187, 8178, 8173, 8195, 8185, 8146,3.5320069789886475
40, 8200, 8212, 8202, 8169, 8153, 8193, 8211, 8171, 8186, 8182, 8177, 8211, 8185, 8145,3.5481438636779785
41, 8202, 8203, 8180, 8173, 8155, 8197, 8215, 8168, 8195, 8206, 8187, 8198, 8194, 8153,3.5481438636779785
42, 8196, 8202, 8204, 8174, 8161, 8199, 8211, 8173, 8195, 8205, 8186, 8191, 8199, 8169,3.5640645027160645
43, 8184, 8198, 8185, 8181, 8167, 8194, 8221, 8168, 8198, 8207, 8188, 8187, 8209, 8170,3.5640645027160645
44, 8188, 8190, 8182, 8168, 8166, 8196, 8223, 8168, 8199, 8215, 8179, 8196, 8201, 8162,3.5796563625335693
45, 8192, 8189, 8191, 8167, 8160, 8219, 8226, 8185, 8219, 8221, 8169, 8195, 8191, 8155,3.5796563625335693
46, 8183, 8182, 8169, 8174, 8152, 8214, 8230, 8180, 8228, 8212, 8166, 8171, 8190, 8148,3.5948009490966797
47, 8173, 8177, 8188, 8153, 8146, 8198, 8220, 8182, 8207, 8193, 8154, 8171, 8179, 8151,3.5948009490966797
48, 8167, 8175, 8157, 8147, 8150, 8205, 8227, 8189, 8216, 8200, 8147, 8159, 8176, 8145,3.6100261211395264
49, 8170, 8167, 8142, 8145, 8144, 8201, 8222, 8180, 8221, 8201, 8142, 8151, 8173, 8140,3.6100261211395264
50, 8166, 8166, 8166, 8134, 8139, 8197, 8217, 8179, 8206, 8205, 8136, 8159, 8171, 8147,3.625552177429199
51, 8159, 8162, 8140, 8138, 8148, 8203, 8230, 8182, 8219, 8231, 8148, 8157, 8179, 8152,3.625552177429199
52, 8174, 8168, 8156, 8144, 8154, 8214, 8234, 8182, 8226, 8231, 8163, 8173, 8183, 8159,3.64085054397583
53, 8182, 8175, 8163, 8151, 8154, 8217, 8237, 8179, 8215, 8225, 8167, 8172, 8187, 8163,3.64085054397583
54, 8175, 8165, 8166, 8145, 8150, 8205, 8223, 8168, 8210, 8222, 8170, 8177, 8188, 8166,3.656491994857788
55, 8179, 8170, 8174, 8146, 8150, 8204, 8207, 8165, 8220, 8225, 8185, 8196, 8194, 8167,3.656491994857788
56, 8180, 8169, 8147, 8148, 8154, 8199, 8198, 8164, 8219, 8229, 8186, 8185, 8202, 8156,3.6715800762176514
57, 8164, 8156, 8161, 8131, 8148, 8184, 8183, 8160, 8198, 8213, 8170, 8181, 8194, 8145,3.6715800762176514
58, 8148, 8156, 8147, 8137, 8145, 8185, 8187, 8161, 8206, 8211, 8173, 8175, 8197, 8141,3.686613082885742
59, 8153, 8161, 8140, 8143, 8144, 8186, 8189, 8168, 8209, 8207, 8174, 8177, 8203, 8140,3.686613082885742
60, 8165, 8161, 8165, 8138, 8146, 8186, 8194, 8180, 8204, 8205, 8167, 8193, 8205, 8144,3.701695203781128
61, 8169, 8156, 8145, 8142, 8152, 8181, 8203, 8179, 8218, 8219, 8185, 8189, 8209, 8143,3.7177891731262207
62, 8166, 8171, 8164, 8133, 8142, 8176, 8191, 8179, 8214, 8207, 8194, 8196, 8208, 8138,3.7177891731262207
63, 8172, 8190, 8169, 8145, 8147, 8175, 8199, 8183, 8214, 8198, 8197, 8196, 8223, 8146,3.733564853668213
64, 8196, 8191, 8173, 8158, 8169, 8172, 8209, 8172, 8205, 8190, 8198, 8198, 8224, 8156,3.733564853668213
65, 8200, 8198, 8199, 8154, 8167, 8178, 8197, 8164, 8173, 8176, 8190, 8202, 8197, 8142,3.733564853668213
66, 8175, 8193, 8165, 8161, 8149, 8190, 8195, 8163, 8168, 8183, 8187, 8183, 8193, 8122,3.7487776279449463
67, 8174, 8189, 8173, 8153, 8153, 8188, 8192, 8172, 8175, 8181, 8198, 8197, 8201, 8134,3.764078378677368
68, 8189, 8204, 8181, 8155, 8180, 8183, 8187, 8180, 8182, 8178, 8213, 8207, 8203, 8146,3.764078378677368
69, 8186, 8204, 8176, 8177, 8173, 8194, 8183, 8163, 8174, 8177, 8204, 8191, 8191, 8133,3.779229164123535
70, 8172, 8190, 8202, 8187, 8153, 8217, 8188, 8154, 8159, 8169, 8180, 8185, 8177, 8121,3.779229164123535
71, 8171, 8187, 8180, 8192, 8176, 8207, 8205, 8150, 8168, 8181, 8187, 8174, 8186, 8117,3.795050859451294
72, 8176, 8197, 8189, 8195, 8203, 8191, 8200, 8152, 8172, 8189, 8204, 8188, 8195, 8127,3.795050859451294
73, 8158, 8192, 8181, 8213, 8205, 8209, 8202, 8164, 8181, 8188, 8202, 8186, 8191, 8125,3.810666084289551
74, 8130, 8162, 8142, 8206, 8197, 8207, 8207, 8170, 8195, 8193, 8180, 8153, 8183, 8099,3.810666084289551
75, 8127, 8152, 8163, 8180, 8203, 8191, 8202, 8182, 8195, 8200, 8169, 8152, 8172, 8097,3.826758623123169
76, 8136, 8159, 8158, 8198, 8220, 8206, 8217, 8192, 8213, 8209, 8176, 8151, 8174, 8110,3.826758623123169
77, 8153, 8163, 8170, 8204, 8218, 8225, 8227, 8190, 8219, 8201, 8176, 8160, 8182, 8114,3.8420088291168213
78, 8157, 8163, 8175, 8196, 8229, 8218, 8226, 8183, 8210, 8196, 8173, 8165, 8189, 8115,3.8420088291168213
79, 8148, 8154, 8161, 8205, 8259, 8201, 8224, 8170, 8198, 8199, 8171, 8157, 8188, 8125,3.8582072257995605
80, 8150, 8146, 8182, 8193, 8266, 8209, 8224, 8177, 8196, 8201, 8162, 8171, 8182, 8135,3.8582072257995605
81, 8147, 8136, 8147, 8178, 8263, 8215, 8231, 8175, 8198, 8207, 8153, 8154, 8179, 8123,3.873741865158081
82, 8138, 8136, 8141, 8176, 8267, 8187, 8204, 8153, 8148, 8181, 8131, 8135, 8162, 8108,3.873741865158081
83, 8144, 8145, 8164, 8181, 8271, 8185, 8197, 8156, 8114, 8180, 8133, 8150, 8167, 8111,3.8895580768585205
84, 8157, 8138, 8145, 8174, 8274, 8203, 8221, 8169, 8128, 8202, 8153, 8160, 8183, 8124,3.8895580768585205
85, 8142, 8131, 8150, 8159, 8281, 8201, 8214, 8162, 8106, 8173, 8133, 8154, 8158, 8113,3.9056971073150635
86, 8119, 8135, 8127, 8171, 8285, 8202, 8213, 8149, 8082, 8149, 8116, 8125, 8138, 8086,3.9056971073150635
87, 8130, 8140, 8136, 8169, 8270, 8212, 8224, 8160, 8106, 8163, 8132, 8132, 8150, 8093,3.9216115474700928
88, 8143, 8135, 8158, 8159, 8266, 8224, 8232, 8188, 8158, 8195, 8153, 8160, 8177, 8121,3.9216115474700928
89, 8139, 8130, 8138, 8167, 8273, 8209, 8225, 8190, 8176, 8216, 8168, 8159, 8196, 8126,3.9376320838928223
90, 8142, 8138, 8160, 8168, 8256, 8181, 8198, 8181, 8150, 8205, 8163, 8159, 8194, 8121,3.9376320838928223
91, 8142, 8141, 8140, 8172, 8234, 8165, 8176, 8171, 8132, 8181, 8155, 8144, 8184, 8112,3.9534831047058105
92, 8147, 8139, 8134, 8174, 8228, 8153, 8158, 8157, 8108, 8144, 8151, 8155, 8170, 8112,3.9534831047058105
93, 8160, 8151, 8160, 8180, 8227, 8158, 8159, 8154, 8092, 8123, 8152, 8175, 8167, 8118,3.9686789512634277
94, 8163, 8154, 8142, 8181, 8212, 8154, 8159, 8149, 8097, 8120, 8162, 8162, 8172, 8106,3.9686789512634277
95, 8172, 8171, 8174, 8185, 8214, 8157, 8150, 8145, 8097, 8120, 8166, 8173, 8159, 8097,3.9847750663757324
96, 8181, 8193, 8184, 8225, 8233, 8186, 8166, 8153, 8118, 8144, 8167, 8179, 8156, 8109,3.9847750663757324
97, 8173, 8188, 8175, 8235, 8227, 8200, 8182, 8159, 8139, 8144, 8158, 8168, 8160, 8119,4.000550985336304
98, 8151, 8167, 8169, 8210, 8206, 8197, 8188, 8158, 8139, 8121, 8132, 8144, 8145, 8104,4.000550985336304
99, 8127, 8146, 8127, 8198, 8192, 8195, 8190, 8151, 8146, 8135, 8105, 8103, 8132, 8082,4.021723747253418
100, 8125, 8146, 8142, 8181, 8181, 8200, 8179, 8159, 8156, 8155, 8107, 8118, 8143, 8093,4.021723747253418
101, 8134, 8149, 8137, 8180, 8176, 8200, 8182, 8173, 8176, 8161, 8136, 8141, 8167, 8107,4.021723747253418
102, 8130, 8130, 8117, 8174, 8176, 8191, 8188, 8178, 8191, 8155, 8130, 8130, 8157, 8097,4.031330823898315
103, 8116, 8123, 8123, 8150, 8170, 8196, 8185, 8191, 8199, 8151, 8099, 8120, 8135, 8088,4.046905755996704
104, 8113, 8124, 8095, 8130, 8159, 8191, 8178, 8187, 8217, 8159, 8091, 8104, 8137, 8085,4.046905755996704
105, 8120, 8116, 8109, 8106, 8138, 8170, 8159, 8172, 8219, 8152, 8096, 8110, 8137, 8084,4.06211519241333
106, 8131, 8117, 8111, 8105, 8128, 8168, 8160, 8172, 8208, 8142, 8109, 8122, 8144, 8087,4.06211519241333
107, 8159, 8134, 8117, 8116, 8131, 8169, 8163, 8168, 8177, 8132, 8121, 8132, 8152, 8098,4.078051328659058
108, 8181, 8160, 8169, 8134, 8135, 8181, 8164, 8168, 8166, 8132, 8135, 8160, 8155, 8112,4.078051328659058
109, 8186, 8177, 8160, 8170, 8147, 8198, 8189, 8167, 8199, 8159, 8164, 8168, 8173, 8125,4.094048738479614
110, 8196, 8183, 8181, 8167, 8147, 8190, 8180, 8176, 8188, 8151, 8166, 8172, 8170, 8137,4.094048738479614
111, 8192, 8182, 8184, 8160, 8138, 8185, 8167, 8176, 8180, 8144, 8156, 8161, 8158, 8130,4.109607934951782
112, 8181, 8171, 8135, 8183, 8143, 8185, 8189, 8149, 8207, 8166, 8176, 8148, 8169, 8116,4.109607934951782
113, 8190, 8184, 8186, 8191, 8146, 8188, 8188, 8161, 8194, 8167, 8189, 8169, 8174, 8132,4.124770641326904
114, 8189, 8202, 8203, 8201, 8155, 8206, 8189, 8178, 8186, 8181, 8187, 8166, 8182, 8138,4.124770641326904
115, 8175, 8182, 8176, 8200, 8159, 8213, 8198, 8166, 8192, 8193, 8175, 8153, 8178, 8122,4.140332460403442
116, 8169, 8165, 8177, 8197, 8149, 8212, 8208, 8176, 8196, 8191, 8173, 8159, 8166, 8124,4.140332460403442
117, 8173, 8167, 8181, 8214, 8140, 8219, 8223, 8184, 8220, 8202, 8185, 8164, 8180, 8140,4.155856132507324
118, 8178, 8168, 8201, 8202, 8136, 8228, 8227, 8188, 8236, 8205, 8177, 8172, 8191, 8152,4.155856132507324
119, 8174, 8156, 8168, 8183, 8143, 8217, 8232, 8193, 8249, 8209, 8166, 8155, 8188, 8151,4.170976161956787
120, 8174, 8148, 8166, 8166, 8139, 8196, 8218, 8189, 8251, 8201, 8158, 8157, 8180, 8146,4.170976161956787
121, 8178, 8155, 8174, 8154, 8128, 8192, 8203, 8187, 8242, 8195, 8156, 8160, 8180, 8146,4.187059640884399
122, 8181, 8152, 8144, 8155, 8127, 8182, 8200, 8177, 8227, 8193, 8165, 8144, 8187, 8143,4.187059640884399
123, 8186, 8159, 8171, 8159, 8132, 8171, 8184, 8171, 8198, 8162, 8160, 8158, 8184, 8136,4.203104019165039
124, 8178, 8161, 8154, 8159, 8130, 8167, 8169, 8158, 8181, 8143, 8159, 8153, 8178, 8118,4.203104019165039
125, 8173, 8149, 8148, 8133, 8114, 8160, 8158, 8148, 8163, 8144, 8169, 8154, 8171, 8114,4.218703031539917
126, 8177, 8162, 8171, 8144, 8121, 8171, 8167, 8159, 8169, 8158, 8188, 8175, 8184, 8127,4.218703031539917
127, 8177, 8174, 8164, 8177, 8145, 8186, 8175, 8161, 8197, 8169, 8191, 8168, 8195, 8127,4.2338128089904785
237, 8169, 8173, 8196, 8173, 8153, 8194, 8169, 8158, 8190, 8173, 8182, 8166, 8177, 8123,4.2338128089904785
0, 8154, 8163, 8172, 8172, 8148, 8190, 8181, 8161, 8184, 8183, 8183, 8153, 8176, 8119,4.249100208282471
1, 8149, 8156, 8157, 8165, 8135, 8173, 8173, 8167, 8181, 8168, 8177, 8147, 8182, 8112,4.249100208282471
2, 8149, 8162, 8180, 8155, 8130, 8184, 8170, 8179, 8189, 8166, 8170, 8152, 8181, 8112,4.264994382858276
3, 8145, 8154, 8150, 8163, 8135, 8197, 8193, 8173, 8202, 8190, 8164, 8133, 8183, 8116,4.264994382858276
4, 8155, 8157, 8169, 8167, 8143, 8194, 8198, 8172, 8188, 8183, 8152, 8138, 8178, 8128,4.27979302406311
5, 8172, 8180, 8178, 8185, 8150, 8202, 8202, 8180, 8198, 8193, 8169, 8150, 8192, 8142,4.27979302406311
6, 8178, 8190, 8179, 8187, 8148, 8203, 8202, 8182, 8216, 8208, 8189, 8156, 8195, 8151,4.294924020767212
7, 8175, 8180, 8192, 8178, 8148, 8208, 8211, 8184, 8213, 8195, 8183, 8156, 8181, 8149,4.294924020767212
8, 8179, 8171, 8180, 8184, 8157, 8214, 8225, 8187, 8205, 8193, 8178, 8151, 8184, 8154,4.310591220855713
9, 8182, 8178, 8198, 8186, 8153, 8211, 8214, 8182, 8188, 8192, 8174, 8169, 8189, 8167,4.310591220855713
10, 8167, 8174, 8166, 8186, 8147, 8199, 8202, 8166, 8187, 8194, 8165, 8152, 8191, 8156,4.325726509094238
11, 8169, 8163, 8168, 8177, 8146, 8188, 8189, 8163, 8180, 8185, 8154, 8145, 8184, 8150,4.325726509094238
12, 8175, 8168, 8191, 8187, 8149, 8195, 8193, 8170, 8183, 8187, 8169, 8171, 8193, 8161,4.340989351272583
13, 8161, 8160, 8144, 8189, 8149, 8192, 8197, 8159, 8189, 8193, 8182, 8161, 8199, 8155,4.340989351272583
14, 8155, 8144, 8155, 8152, 8139, 8185, 8173, 8155, 8175, 8171, 8154, 8151, 8173, 8141,4.357056379318237
15, 8150, 8137, 8144, 8148, 8142, 8187, 8181, 8165, 8193, 8178, 8146, 8142, 8166, 8134,4.357056379318237
16, 8147, 8144, 8138, 8158, 8149, 8178, 8197, 8186, 8210, 8189, 8166, 8154, 8185, 8141,4.372586011886597
17, 8152, 8149, 8164, 8149, 8144, 8183, 8193, 8193, 8210, 8189, 8175, 8173, 8197, 8147,4.372586011886597
18, 8149, 8130, 8124, 8137, 8128, 8179, 8187, 8179, 8216, 8185, 8160, 8144, 8188, 8139,4.387975454330444
19, 8149, 8134, 8144, 8130, 8124, 8164, 8176, 8180, 8206, 8170, 8150, 8141, 8175, 8138,4.403639793395996
20, 8147, 8152, 8159, 8137, 8134, 8171, 8174, 8184, 8208, 8178, 8168, 8153, 8186, 8137,4.403639793395996
21, 8142, 8140, 8128, 8126, 8123, 8167, 8170, 8167, 8203, 8180, 8168, 8145, 8186, 8129,4.403639793395996
22, 8152, 8147, 8150, 8123, 8118, 8160, 8162, 8161, 8186, 8163, 8157, 8158, 8178, 8136,4.418655633926392
23, 8176, 8173, 8166, 8164, 8144, 8171, 8166, 8172, 8200, 8178, 8182, 8168, 8200, 8149,4.433700799942017
24, 8194, 8185, 8196, 8181, 8143, 8167, 8150, 8178, 8201, 8182, 8201, 8186, 8205, 8155,4.433700799942017
25, 8192, 8196, 8197, 8193, 8125, 8154, 8148, 8172, 8184, 8163, 8208, 8199, 8194, 8151,4.449747323989868
26, 8184, 8192, 8185, 8217, 8143, 8161, 8161, 8154, 8176, 8164, 8219, 8195, 8188, 8145,4.449747323989868
27, 8178, 8183, 8223, 8232, 8159, 8186, 8161, 8149, 8163, 8166, 8206, 8193, 8167, 8139,4.465137243270874
28, 8183, 8197, 8208, 8274, 8153, 8201, 8178, 8157, 8163, 8160, 8201, 8185, 8168, 8145,4.465137243270874
29, 8200, 8198, 8218, 8292, 8147, 8198, 8192, 8171, 8167, 8157, 8216, 8207, 8180, 8164,4.480406999588013
30, 8198, 8175, 8227, 8267, 8137, 8189, 8191, 8178, 8181, 8177, 8224, 8225, 8192, 8171,4.480406999588013
31, 8189, 8159, 8192, 8257, 8121, 8172, 8179, 8171, 8193, 8183, 8229, 8221, 8207, 8164,4.496027946472168
32, 8189, 8159, 8207, 8260, 8114, 8159, 8155, 8180, 8183, 8157, 8245, 8245, 8212, 8166,4.496027946472168
33, 8191, 8160, 8199, 8274, 8125, 8154, 8152, 8182, 8191, 8155, 8266, 8253, 8225, 8165,4.511602401733398
34, 8204, 8178, 8215, 8283, 8130, 8148, 8149, 8164, 8183, 8148, 8269, 8259, 8232, 8158,4.511602401733398
35, 8215, 8200, 8237, 8283, 8134, 8153, 8141, 8165, 8158, 8131, 8263, 8256, 8216, 8155,4.527835369110107
36, 8204, 8186, 8207, 8279, 8136, 8155, 8131, 8164, 8144, 8129, 8236, 8219, 8185, 8145,4.527835369110107
37, 8189, 8172, 8210, 8272, 8125, 8162, 8126, 8154, 8139, 8131, 8197, 8205, 8173, 8146,4.543807029724121
38, 8193, 8168, 8194, 8272, 8123, 8176, 8153, 8166, 8165, 8156, 8190, 8197, 8191, 8162,4.543807029724121
39, 8203, 8151, 8185, 8247, 8126, 8180, 8168, 8177, 8185, 8166, 8181, 8191, 8192, 8168,4.558679103851318
40, 8193, 8144, 8179, 8217, 8135, 8186, 8163, 8173, 8184, 8159, 8169, 8186, 8185, 8155,4.558679103851318
41, 8184, 8159, 8149, 8213, 8152, 8185, 8159, 8169, 8193, 8172, 8186, 8182, 8195, 8150,4.574675559997559
42, 8198, 8174, 8178, 8209, 8146, 8171, 8147, 8175, 8193, 8167, 8199, 8197, 8196, 8161,4.574675559997559
43, 8185, 8155, 8149, 8190, 8117, 8153, 8137, 8165, 8174, 8142, 8177, 8171, 8178, 8133,4.589995622634888
44, 8156, 8135, 8117, 8155, 8105, 8142, 8118, 8148, 8141, 8119, 8154, 8144, 8156, 8093,4.589995622634888
45, 8156, 8156, 8151, 8159, 8124, 8158, 8118, 8158, 8139, 8124, 8175, 8160, 8163, 8103,4.605643272399902
46, 8171, 8167, 8143, 8195, 8143, 8171, 8148, 8166, 8171, 8147, 8203, 8163, 8187, 8124,4.605643272399902
47, 8169, 8161, 8177, 8184, 8145, 8172, 8154, 8179, 8165, 8139, 8174, 8162, 8174, 8126,4.620923280715942
48, 8147, 8157, 8171, 8181, 8149, 8193, 8167, 8179, 8167, 8155, 8152, 8139, 8164, 8122,4.620923280715942
49, 8140, 8140, 8119, 8195, 8148, 8196, 8182, 8155, 8175, 8177, 8161, 8114, 8172, 8125,4.63704776763916
50, 8152, 8129, 8148, 8168, 8129, 8184, 8170, 8168, 8143, 8149, 8145, 8129, 8153, 8131,4.63704776763916
51, 8146, 8123, 8138, 8147, 8123, 8177, 8170, 8173, 8138, 8136, 8123, 8122, 8144, 8131,4.65262508392334
52, 8145, 8115, 8124, 8131, 8125, 8160, 8158, 8163, 8156, 8133, 8123, 8124, 8153, 8135,4.65262508392334
53, 8169, 8135, 8142, 8144, 8130, 8160, 8153, 8184, 8173, 8134, 8152, 8150, 8171, 8146,4.667751789093018
54, 8184, 8156, 8159, 8165, 8139, 8167, 8162, 8187, 8178, 8142, 8170, 8159, 8183, 8142,4.667751789093018
55, 8177, 8160, 8176, 8154, 8147, 8168, 8159, 8177, 8167, 8134, 8153, 8156, 8165, 8125,4.6830995082855225
56, 8164, 8154, 8145, 8156, 8147, 8169, 8156, 8168, 8168, 8134, 8151, 8135, 8149, 8109,4.6830995082855225
57, 8165, 8157, 8167, 8166, 8141, 8181, 8152, 8163, 8155, 8132, 8161, 8137, 8143, 8110,4.698906660079956
58, 8164, 8166, 8175, 8184, 8161, 8201, 8172, 8165, 8154, 8145, 8164, 8141, 8150, 8116,4.698906660079956
59, 8154, 8158, 8144, 8186, 8175, 8198, 8191, 8165, 8168, 8160, 8153, 8131, 8148, 8115,4.714163064956665
60, 8143, 8145, 8155, 8166, 8157, 8194, 8185, 8172, 8171, 8156, 8128, 8124, 8130, 8118,4.714163064956665
61, 8138, 8132, 8121, 8159, 8145, 8202, 8188, 8175, 8191, 8163, 8126, 8105, 8131, 8120,4.729729890823364
62, 8145, 8131, 8133, 8147, 8140, 8188, 8189, 8182, 8201, 8169, 8141, 8124, 8142, 8131,4.729729890823364
63, 8150, 8137, 8146, 8141, 8139, 8169, 8192, 8186, 8204, 8180, 8155, 8144, 8159, 8139,4.745563268661499
64, 8158, 8138, 8125, 8136, 8142, 8160, 8186, 8174, 8204, 8175, 8161, 8141, 8167, 8133,4.745563268661499
65, 8162, 8150, 8149, 8119, 8134, 8156, 8161, 8173, 8186, 8148, 8157, 8156, 8163, 8129,4.761268377304077
66, 8153, 8155, 8131, 8124, 8130, 8145, 8148, 8169, 8174, 8147, 8160, 8144, 8165, 8121,4.761268377304077
67, 8161, 8164, 8151, 8129, 8136, 8145, 8140, 8160, 8161, 8140, 8166, 8145, 8157, 8116,4.777071952819824
68, 8172, 8185, 8177, 8147, 8149, 8167, 8152, 8165, 8165, 8140, 8176, 8163, 8156, 8119,4.777071952819824
69, 8163, 8183, 8151, 8164, 8166, 8167, 8156, 8160, 8161, 8140, 8175, 8148, 8155, 8112,4.792555093765259
70, 8148, 8172, 8159, 8143, 8165, 8158, 8139, 8151, 8126, 8111, 8156, 8136, 8134, 8095,4.792555093765259
71, 8141, 8172, 8149, 8142, 8160, 8168, 8146, 8153, 8126, 8115, 8156, 8123, 8132, 8081,4.808049917221069
72, 8155, 8185, 8165, 8167, 8164, 8182, 8161, 8161, 8151, 8138, 8164, 8136, 8141, 8093,4.808049917221069
73, 8159, 8191, 8160, 8183, 8170, 8193, 8172, 8162, 8172, 8148, 8160, 8142, 8147, 8107,4.8241355419158936
74, 8135, 8169, 8142, 8157, 8168, 8187, 8169, 8163, 8158, 8136, 8140, 8124, 8139, 8096,4.8241355419158936
75, 8123, 8158, 8173, 8137, 8170, 8199, 8180, 8169, 8146, 8137, 8139, 8132, 8135, 8094,4.84026837348938
76, 8135, 8165, 8139, 8164, 8171, 8211, 8211, 8168, 8175, 8169, 8156, 8120, 8156, 8109,4.84026837348938
77, 8143, 8165, 8141, 8163, 8162, 8191, 8193, 8170, 8170, 8166, 8144, 8119, 8151, 8123,4.855933427810669
78, 8132, 8155, 8155, 8152, 8174, 8185, 8175, 8166, 8161, 8159, 8142, 8129, 8149, 8120,4.855933427810669
79, 8131, 8147, 8125, 8149, 8179, 8183, 8180, 8162, 8178, 8163, 8150, 8124, 8165, 8121,4.8717663288116455
80, 8144, 8161, 8160, 8142, 8162, 8172, 8167, 8173, 8182, 8155, 8137, 8142, 8164, 8133,4.8717663288116455
81, 8149, 8169, 8154, 8153, 8171, 8163, 8161, 8174, 8195, 8167, 8148, 8150, 8175, 8135,4.886843204498291
82, 8156, 8169, 8151, 8147, 8177, 8155, 8148, 8168, 8190, 8174, 8168, 8158, 8185, 8133,4.886843204498291
83, 8154, 8180, 8166, 8139, 8168, 8154, 8134, 8165, 8174, 8160, 8161, 8157, 8166, 8119,4.9019622802734375
84, 8149, 8177, 8133, 8146, 8171, 8152, 8147, 8156, 8172, 8146, 8157, 8144, 8154, 8102,4.9019622802734375
85, 8164, 8181, 8157, 8136, 8178, 8158, 8156, 8158, 8171, 8147, 8176, 8173, 8163, 8116,4.917978286743164
86, 8167, 8194, 8163, 8142, 8183, 8166, 8157, 8164, 8183, 8163, 8189, 8174, 8169, 8122,4.917978286743164
87, 8158, 8194, 8158, 8158, 8181, 8160, 8147, 8156, 8172, 8150, 8176, 8153, 8151, 8100,4.933133363723755
88, 8166, 8206, 8183, 8168, 8181, 8173, 8159, 8160, 8155, 8143, 8176, 8167, 8149, 8100,4.933133363723755
89, 8172, 8214, 8166, 8173, 8192, 8188, 8183, 8167, 8172, 8170, 8188, 8167, 8169, 8118,4.948556423187256
90, 8156, 8207, 8179, 8162, 8188, 8179, 8166, 8165, 8169, 8167, 8167, 8159, 8160, 8115,4.948556423187256
91, 8148, 8207, 8180, 8181, 8184, 8181, 8164, 8159, 8159, 8162, 8148, 8153, 8152, 8106,4.964561462402344
92, 8159, 8209, 8175, 8202, 8196, 8191, 8186, 8161, 8164, 8167, 8148, 8156, 8157, 8116,4.964561462402344
93, 8155, 8198, 8186, 8186, 8202, 8200, 8200, 8176, 8176, 8163, 8132, 8154, 8149, 8125,4.980650424957275
94, 8140, 8183, 8146, 8176, 8193, 8193, 8201, 8178, 8200, 8182, 8116, 8134, 8146, 8129,4.980650424957275
95, 8155, 8184, 8162, 8173, 8178, 8183, 8187, 8180, 8221, 8195, 8126, 8157, 8167, 8150,4.996694803237915
96, 8176, 8185, 8171, 8174, 8175, 8183, 8179, 8187, 8233, 8189, 8147, 8180, 8189, 8161,4.996694803237915
97, 8172, 8177, 8145, 8164, 8176, 8168, 8168, 8173, 8216, 8178, 8146, 8175, 8179, 8151,5.01185417175293
98, 8155, 8179, 8155, 8149, 8175, 8159, 8154, 8162, 8189, 8172, 8142, 8181, 8163, 8139,5.01185417175293
99, 8158, 8184, 8140, 8157, 8176, 8164, 8154, 8161, 8188, 8173, 8167, 8175, 8177, 8134,5.027650356292725
100, 8177, 8195, 8162, 8158, 8175, 8164, 8147, 8162, 8182, 8155, 8175, 8185, 8179, 8136,5.027650356292725
101, 8171, 8208, 8163, 8173, 8187, 8169, 8152, 8161, 8181, 8151, 8167, 8183, 8169, 8126,5.0431435108184814
102, 8159, 8199, 8135, 8182, 8197, 8166, 8167, 8158, 8181, 8157, 8171, 8163, 8163, 8113,5.0431435108184814
103, 8173, 8208, 8204, 8162, 8187, 8174, 8163, 8183, 8165, 8147, 8162, 8182, 8149, 8126,5.059418678283691
104, 8169, 8223, 8201, 8184, 8194, 8197, 8181, 8180, 8183, 8167, 8159, 8168, 8154, 8130,5.059418678283691
105, 8148, 8199, 8153, 8202, 8201, 8198, 8185, 8149, 8183, 8178, 8156, 8140, 8149, 8113,5.074625015258789
106, 8138, 8181, 8162, 8181, 8187, 8190, 8166, 8158, 8153, 8166, 8144, 8145, 8135, 8110,5.074625015258789
107, 8140, 8184, 8158, 8175, 8184, 8186, 8176, 8161, 8162, 8177, 8150, 8139, 8147, 8114,5.089839935302734
108, 8149, 8187, 8172, 8171, 8189, 8186, 8192, 8163, 8173, 8179, 8153, 8140, 8159, 8120,5.10498571395874
109, 8147, 8175, 8151, 8171, 8188, 8195, 8204, 8176, 8184, 8188, 8157, 8143, 8168, 8128,5.10498571395874
110, 8148, 8164, 8150, 8167, 8184, 8193, 8200, 8178, 8196, 8202, 8161, 8155, 8174, 8141,5.121041774749756
111, 8163, 8170, 8174, 8168, 8187, 8196, 8202, 8184, 8205, 8210, 8165, 8169, 8184, 8153,5.121041774749756
112, 8175, 8167, 8156, 8178, 8185, 8190, 8207, 8177, 8206, 8214, 8171, 8165, 8193, 8149,5.121041774749756
113, 8179, 8165, 8171, 8165, 8175, 8177, 8185, 8173, 8190, 8192, 8172, 8175, 8185, 8148,5.136719703674316
114, 8171, 8164, 8146, 8157, 8178, 8172, 8171, 8170, 8191, 8194, 8178, 8164, 8182, 8143,5.136719703674316
115, 8175, 8166, 8149, 8156, 8174, 8158, 8156, 8164, 8182, 8188, 8169, 8160, 8176, 8134,5.152625322341919
116, 8184, 8190, 8182, 8166, 8175, 8158, 8157, 8169, 8174, 8164, 8173, 8179, 8174, 8130,5.152625322341919
117, 8180, 8197, 8156, 8169, 8184, 8161, 8168, 8165, 8178, 8161, 8196, 8177, 8175, 8117,5.168062210083008
118, 8170, 8185, 8168, 8154, 8180, 8162, 8159, 8162, 8169, 8156, 8191, 8178, 8160, 8106,5.168062210083008
119, 8165, 8191, 8168, 8176, 8185, 8168, 8163, 8167, 8182, 8156, 8183, 8166, 8156, 8106,5.183720827102661
120, 8173, 8204, 8185, 8192, 8196, 8174, 8172, 8173, 8191, 8159, 8185, 8167, 8160, 8116,5.200013637542725
121, 8169, 8201, 8186, 8191, 8201, 8188, 8190, 8170, 8194, 8178, 8181, 8167, 8168, 8121,5.200013637542725
122, 8151, 8183, 8139, 8191, 8203, 8185, 8194, 8162, 8198, 8177, 8164, 8144, 8164, 8112,5.200013637542725
123, 8150, 8185, 8173, 8184, 8195, 8177, 8172, 8169, 8183, 8154, 8151, 8157, 8148, 8114,5.214909315109253
124, 8157, 8190, 8166, 8196, 8193, 8189, 8180, 8172, 8189, 8173, 8161, 8159, 8158, 8121,5.231010913848877
125, 8159, 8183, 8151, 8188, 8194, 8196, 8184, 8169, 8184, 8179, 8164, 8164, 8161, 8123,5.231010913848877
126, 8158, 8179, 8173, 8176, 8193, 8195, 8180, 8172, 8180, 8172, 8170, 8187, 8163, 8125,5.231010913848877
127, 8167, 8174, 8152, 8185, 8188, 8183, 8186, 8176, 8208, 8189, 8180, 8187, 8187, 8135,5.2466301918029785
237, 8182, 8181, 8175, 8187, 8182, 8177, 8184, 8184, 8213, 8195, 8173, 8197, 8191, 8149,5.2466301918029785
0, 8181, 8189, 8168, 8200, 8193, 8187, 8195, 8188, 8208, 8207, 8184, 8188, 8190, 8145,5.261765956878662
1, 8176, 8183, 8160, 8191, 8198, 8189, 8204, 8192, 8210, 8214, 8199, 8189, 8199, 8143,5.276943206787109
2, 8179, 8188, 8182, 8184, 8198, 8187, 8200, 8189, 8220, 8213, 8202, 8207, 8210, 8150,5.276943206787109
3, 8185, 8193, 8164, 8204, 8206, 8182, 8196, 8186, 8231, 8221, 8205, 8197, 8211, 8156,5.294009208679199
4, 8185, 8188, 8177, 8190, 8204, 8184, 8195, 8191, 8218, 8207, 8196, 8196, 8195, 8154,5.294009208679199
5, 8169, 8178, 8164, 8169, 8191, 8187, 8206, 8183, 8215, 8197, 8184, 8180, 8186, 8141,5.30865478515625
6, 8163, 8173, 8152, 8163, 8178, 8165, 8197, 8172, 8215, 8203, 8180, 8172, 8188, 8134,5.30865478515625
7, 8175, 8186, 8177, 8164, 8180, 8155, 8180, 8178, 8209, 8188, 8188, 8196, 8194, 8138,5.323824405670166
8, 8181, 8189, 8152, 8169, 8187, 8160, 8186, 8182, 8214, 8171, 8197, 8190, 8201, 8135,5.323824405670166
9, 8174, 8179, 8160, 8151, 8178, 8156, 8179, 8179, 8208, 8173, 8191, 8184, 8193, 8134,5.339052677154541
10, 8166, 8177, 8162, 8143, 8171, 8162, 8177, 8181, 8209, 8190, 8184, 8186, 8194, 8142,5.339052677154541
11, 8176, 8184, 8156, 8155, 8175, 8168, 8185, 8178, 8214, 8184, 8194, 8191, 8208, 8147,5.354676008224487
12, 8192, 8192, 8191, 8157, 8179, 8167, 8190, 8174, 8206, 8175, 8213, 8209, 8218, 8142,5.354676008224487
13, 8182, 8189, 8164, 8152, 8183, 8163, 8190, 8167, 8204, 8186, 8222, 8203, 8223, 8131,5.369832754135132
14, 8174, 8192, 8163, 8148, 8178, 8156, 8170, 8162, 8190, 8175, 8214, 8208, 8213, 8129,5.369832754135132
15, 8178, 8202, 8177, 8160, 8176, 8160, 8168, 8170, 8191, 8176, 8215, 8212, 8208, 8126,5.384988307952881
16, 8180, 8199, 8164, 8162, 8180, 8155, 8174, 8169, 8192, 8183, 8212, 8197, 8211, 8118,5.384988307952881
17, 8182, 8204, 8190, 8151, 8183, 8157, 8162, 8169, 8171, 8166, 8206, 8206, 8204, 8127,5.400604248046875
18, 8181, 8203, 8176, 8164, 8188, 8167, 8168, 8174, 8180, 8165, 8225, 8202, 8206, 8133,5.400604248046875
19, 8187, 8201, 8189, 8177, 8190, 8169, 8175, 8170, 8189, 8169, 8230, 8202, 8207, 8134,5.415645599365234
20, 8187, 8214, 8207, 8184, 8199, 8182, 8187, 8171, 8193, 8182, 8218, 8204, 8209, 8139,5.415645599365234
21, 8173, 8203, 8174, 8181, 8202, 8191, 8194, 8168, 8200, 8193, 8209, 8181, 8203, 8126,5.430816650390625
22, 8169, 8194, 8193, 8176, 8192, 8189, 8178, 8166, 8186, 8176, 8192, 8178, 8188, 8114,5.430816650390625
23, 8173, 8200, 8189, 8196, 8199, 8193, 8183, 8171, 8191, 8185, 8190, 8172, 8192, 8119,5.446910619735718
24, 8159, 8185, 8174, 8188, 8203, 8198, 8193, 8171, 8201, 8199, 8189, 8164, 8196, 8126,5.446910619735718
25, 8138, 8159, 8169, 8163, 8183, 8195, 8188, 8168, 8195, 8194, 8171, 8155, 8185, 8121,5.4629127979278564
26, 8144, 8148, 8150, 8165, 8172, 8184, 8185, 8161, 8183, 8186, 8154, 8136, 8174, 8109,5.4629127979278564
27, 8159, 8153, 8177, 8157, 8178, 8198, 8192, 8169, 8176, 8177, 8159, 8152, 8173, 8112,5.478498458862305
28, 8153, 8154, 8159, 8150, 8183, 8216, 8201, 8174, 8191, 8186, 8179, 8163, 8191, 8123,5.478498458862305
29, 8154, 8144, 8144, 8143, 8172, 8198, 8183, 8173, 8196, 8183, 8173, 8164, 8194, 8127,5.49452018737793
30, 8157, 8143, 8162, 8139, 8163, 8184, 8174, 8181, 8195, 8175, 8162, 8159, 8182, 8122,5.49452018737793
31, 8158, 8146, 8144, 8149, 8171, 8184, 8186, 8174, 8200, 8179, 8171, 8149, 8186, 8116,5.510556221008301
32, 8173, 8163, 8166, 8147, 8178, 8182, 8175, 8171, 8194, 8171, 8176, 8176, 8190, 8129,5.510556221008301
33, 8176, 8174, 8154, 8150, 8173, 8177, 8167, 8176, 8197, 8174, 8179, 8178, 8194, 8137,5.526573896408081
34, 8170, 8166, 8138, 8148, 8165, 8164, 8163, 8167, 8196, 8171, 8181, 8165, 8191, 8128,5.526573896408081
35, 8173, 8171, 8162, 8150, 8168, 8164, 8162, 8171, 8189, 8159, 8185, 8176, 8191, 8121,5.542617082595825
36, 8175, 8186, 8151, 8171, 8176, 8171, 8165, 8172, 8192, 8167, 8198, 8178, 8200, 8119,5.542617082595825
37, 8176, 8188, 8169, 8159, 8169, 8167, 8155, 8161, 8176, 8160, 8190, 8186, 8193, 8116,5.557643413543701
38, 8170, 8173, 8157, 8139, 8165, 8161, 8159, 8156, 8163, 8146, 8180, 8174, 8183, 8106,5.557643413543701
39, 8161, 8168, 8148, 8142, 8168, 8164, 8169, 8161, 8151, 8142, 8188, 8158, 8174, 8100,5.573689699172974
40, 8166, 8183, 8182, 8159, 8171, 8182, 8174, 8170, 8142, 8149, 8188, 8169, 8161, 8110,5.573689699172974
41, 8169, 8179, 8163, 8169, 8171, 8183, 8181, 8167, 8160, 8160, 8175, 8159, 8158, 8114,5.588745832443237
42, 8162, 8159, 8171, 8152, 8168, 8176, 8173, 8166, 8164, 8157, 8156, 8153, 8157, 8117,5.588745832443237
43, 8151, 8147, 8160, 8151, 8173, 8191, 8179, 8176, 8177, 8174, 8150, 8146, 8165, 8124,5.603806018829346
44, 8146, 8141, 8133, 8145, 8167, 8187, 8185, 8171, 8197, 8186, 8151, 8142, 8167, 8124,5.603806018829346
45, 8152, 8149, 8155, 8122, 8150, 8170, 8175, 8169, 8200, 8173, 8162, 8161, 8167, 8127,5.619979619979858
46, 8161, 8159, 8141, 8126, 8149, 8156, 8167, 8170, 8212, 8177, 8178, 8162, 8187, 8134,5.619979619979858
47, 8174, 8166, 8160, 8126, 8149, 8149, 8150, 8170, 8204, 8171, 8176, 8167, 8188, 8132,5.635684251785278
48, 8170, 8175, 8166, 8133, 8154, 8156, 8145, 8165, 8186, 8155, 8178, 8168, 8170, 8111,5.635684251785278
49, 8151, 8175, 8143, 8145, 8164, 8158, 8145, 8152, 8177, 8151, 8185, 8158, 8156, 8090,5.651542663574219
50, 8148, 8177, 8173, 8150, 8168, 8169, 8147, 8158, 8172, 8159, 8174, 8154, 8149, 8095,5.651803255081177
51, 8151, 8174, 8166, 8172, 8172, 8188, 8176, 8170, 8178, 8174, 8168, 8135, 8154, 8105,5.667083024978638
52, 8143, 8168, 8164, 8172, 8173, 8190, 8184, 8164, 8170, 8171, 8155, 8137, 8145, 8105,5.667083024978638
53, 8133, 8168, 8155, 8162, 8168, 8188, 8178, 8162, 8180, 8173, 8141, 8138, 8142, 8098,5.682687044143677
54, 8141, 8158, 8140, 8162, 8170, 8186, 8183, 8167, 8193, 8179, 8140, 8128, 8148, 8098,5.682687044143677
55, 8152, 8156, 8168, 8154, 8171, 8187, 8177, 8171, 8170, 8163, 8134, 8138, 8136, 8103,5.69890284538269
56, 8146, 8158, 8143, 8151, 8166, 8182, 8166, 8162, 8162, 8158, 8130, 8127, 8135, 8098,5.699263095855713
57, 8155, 8154, 8145, 8151, 8163, 8176, 8155, 8159, 8164, 8156, 8122, 8132, 8144, 8102,5.715006589889526
58, 8169, 8160, 8159, 8155, 8170, 8180, 8162, 8171, 8165, 8146, 8116, 8144, 8144, 8104,5.715006589889526
59, 8164, 8161, 8130, 8148, 8174, 8171, 8165, 8167, 8174, 8144, 8127, 8134, 8138, 8094,5.73061203956604
60, 8153, 8162, 8151, 8140, 8172, 8161, 8145, 8165, 8174, 8126, 8137, 8145, 8137, 8091,5.73061203956604
61, 8155, 8168, 8147, 8162, 8176, 8166, 8139, 8165, 8171, 8111, 8135, 8142, 8146, 8091,5.7456910610198975
62, 8176, 8176, 8160, 8174, 8172, 8163, 8134, 8155, 8158, 8101, 8137, 8151, 8149, 8097,5.7456910610198975
63, 8182, 8187, 8186, 8179, 8170, 8158, 8132, 8161, 8152, 8096, 8167, 8174, 8168, 8107,5.760804176330566
64, 8169, 8185, 8164, 8185, 8181, 8148, 8135, 8164, 8150, 8124, 8181, 8168, 8180, 8103,5.760804176330566
65, 8174, 8189, 8188, 8186, 8179, 8149, 8128, 8154, 8121, 8152, 8167, 8173, 8152, 8096,5.776827812194824
66, 8178, 8200, 8185, 8208, 8174, 8163, 8132, 8148, 8118, 8149, 8173, 8171, 8149, 8094,5.776827812194824
67, 8176, 8199, 8188, 8211, 8175, 8155, 8129, 8156, 8136, 8126, 8192, 8182, 8169, 8103,5.791861057281494
68, 8181, 8198, 8205, 8195, 8175, 8140, 8119, 8164, 8141, 8137, 8201, 8198, 8174, 8112,5.791861057281494
69, 8174, 8190, 8170, 8196, 8160, 8132, 8116, 8151, 8133, 8140, 8196, 8176, 8171, 8105,5.8078601360321045
70, 8160, 8186, 8187, 8197, 8150, 8146, 8113, 8151, 8117, 8106, 8180, 8172, 8164, 8098,5.8078601360321045
71, 8156, 8174, 8183, 8204, 8160, 8170, 8130, 8153, 8120, 8116, 8172, 8168, 8156, 8091,5.822663068771362
72, 8165, 8163, 8177, 8205, 8154, 8163, 8137, 8142, 8106, 8101, 8176, 8169, 8148, 8091,5.822663068771362
73, 8173, 8178, 8207, 8211, 8146, 8156, 8133, 8151, 8096, 8069, 8181, 8189, 8155, 8107,5.837904214859009
74, 8180, 8192, 8206, 8236, 8150, 8166, 8140, 8163, 8131, 8105, 8186, 8194, 8170, 8117,5.837904214859009
75, 8194, 8199, 8237, 8252, 8151, 8178, 8140, 8160, 8148, 8150, 8198, 8218, 8173, 8123,5.853083610534668
76, 8200, 8205, 8239, 8276, 8162, 8187, 8154, 8160, 8154, 8166, 8209, 8229, 8185, 8137,5.853083610534668
77, 8205, 8197, 8236, 8292, 8167, 8185, 8169, 8164, 8166, 8152, 8200, 8232, 8196, 8149,5.869182109832764
78, 8211, 8194, 8266, 8292, 8152, 8184, 8173, 8172, 8164, 8139, 8211, 8252, 8196, 8151,5.869182109832764
79, 8215, 8192, 8247, 8296, 8150, 8176, 8173, 8164, 8161, 8131, 8248, 8262, 8208, 8146,5.884730815887451
80, 8226, 8190, 8263, 8292, 8153, 8162, 8157, 8157, 8156, 8117, 8246, 8281, 8215, 8153,5.884730815887451
81, 8226, 8189, 8256, 8306, 8147, 8164, 8163, 8166, 8162, 8139, 8241, 8290, 8221, 8158,5.899685621261597
82, 8223, 8189, 8240, 8317, 8148, 8154, 8163, 8170, 8162, 8150, 8252, 8292, 8229, 8148,5.914821147918701
83, 8231, 8200, 8276, 8300, 8153, 8139, 8127, 8161, 8142, 8108, 8243, 8305, 8219, 8139,5.914821147918701
84, 8235, 8206, 8263, 8296, 8147, 8137, 8115, 8144, 8131, 8097, 8245, 8302, 8204, 8137,5.9301230907440186
85, 8238, 8210, 8272, 8304, 8148, 8136, 8118, 8146, 8129, 8115, 8255, 8318, 8202, 8146,5.9301230907440186
86, 8238, 8213, 8273, 8316, 8164, 8132, 8113, 8155, 8141, 8120, 8253, 8314, 8214, 8146,5.945821285247803
87, 8226, 8202, 8244, 8299, 8164, 8134, 8105, 8145, 8133, 8127, 8240, 8284, 8204, 8131,5.945821285247803
88, 8216, 8200, 8249, 8264, 8156, 8154, 8117, 8160, 8122, 8135, 8220, 8274, 8188, 8129,5.961279630661011
89, 8212, 8204, 8218, 8268, 8173, 8164, 8139, 8170, 8133, 8136, 8196, 8244, 8190, 8124,5.961279630661011
90, 8207, 8200, 8224, 8273, 8186, 8166, 8140, 8156, 8115, 8117, 8171, 8226, 8169, 8114,5.977030515670776
91, 8200, 8193, 8231, 8265, 8183, 8191, 8164, 8166, 8136, 8140, 8173, 8233, 8173, 8127,5.977030515670776
92, 8206, 8177, 8198, 8238, 8183, 8198, 8189, 8183, 8200, 8199, 8197, 8235, 8218, 8154,5.99261474609375
93, 8201, 8159, 8192, 8193, 8180, 8180, 8171, 8179, 8202, 8199, 8197, 8229, 8222, 8151,5.99261474609375
94, 8178, 8151, 8160, 8186, 8172, 8167, 8145, 8165, 8169, 8160, 8169, 8203, 8195, 8122,6.0077784061431885
95, 8176, 8156, 8167, 8177, 8164, 8162, 8126, 8160, 8154, 8139, 8149, 8200, 8193, 8116,6.0077784061431885
96, 8177, 8152, 8171, 8157, 8167, 8163, 8128, 8167, 8165, 8154, 8164, 8193, 8205, 8116,6.0285868644714355
97, 8168, 8137, 8138, 8156, 8176, 8155, 8131, 8168, 8170, 8158, 8179, 8169, 8201, 8108,6.0285868644714355
98, 8178, 8148, 8169, 8155, 8165, 8155, 8126, 8169, 8165, 8143, 8171, 8184, 8196, 8110,6.0285868644714355
99, 8179, 8159, 8140, 8161, 8159, 8160, 8140, 8159, 8176, 8160, 8173, 8174, 8213, 8104,6.038622140884399
100, 8164, 8148, 8131, 8143, 8164, 8147, 8131, 8164, 8155, 8149, 8162, 8158, 8199, 8099,6.054263114929199
101, 8164, 8167, 8191, 8132, 8170, 8160, 8124, 8194, 8136, 8122, 8151, 8176, 8179, 8112,6.054263114929199
102, 8171, 8181, 8164, 8162, 8177, 8174, 8146, 8168, 8161, 8154, 8174, 8163, 8203, 8107,6.0698771476745605
103, 8166, 8169, 8152, 8163, 8174, 8169, 8135, 8150, 8156, 8166, 8159, 8141, 8190, 8096,6.0698771476745605
104, 8145, 8163, 8146, 8151, 8178, 8186, 8138, 8174, 8152, 8147, 8132, 8121, 8157, 8091,6.085955381393433
105, 8120, 8145, 8109, 8134, 8177, 8191, 8153, 8162, 8163, 8135, 8131, 8106, 8150, 8070,6.085955381393433
106, 8104, 8127, 8101, 8110, 8161, 8176, 8143, 8153, 8149, 8133, 8109, 8098, 8133, 8060,6.1016223430633545
107, 8108, 8135, 8117, 8122, 8160, 8178, 8150, 8166, 8143, 8147, 8093, 8092, 8124, 8072,6.1016223430633545
108, 8120, 8135, 8125, 8131, 8162, 8184, 8178, 8164, 8162, 8166, 8115, 8101, 8145, 8077,6.116769075393677
109, 8107, 8109, 8066, 8109, 8150, 8170, 8176, 8159, 8180, 8175, 8120, 8090, 8153, 8066,6.116769075393677
110, 8104, 8114, 8091, 8092, 8147, 8163, 8144, 8173, 8165, 8158, 8091, 8100, 8133, 8075,6.131932735443115
111, 8118, 8136, 8142, 8117, 8159, 8179, 8152, 8172, 8167, 8177, 8108, 8125, 8156, 8095,6.131932735443115
112, 8118, 8114, 8097, 8117, 8154, 8179, 8175, 8162, 8189, 8200, 8129, 8114, 8186, 8094,6.1470606327056885
113, 8112, 8109, 8110, 8084, 8143, 8180, 8163, 8174, 8187, 8172, 8107, 8118, 8160, 8083,6.1470606327056885
114, 8110, 8134, 8110, 8103, 8158, 8186, 8162, 8177, 8198, 8177, 8113, 8117, 8161, 8080,6.162619352340698
115, 8119, 8132, 8105, 8117, 8157, 8166, 8166, 8172, 8208, 8198, 8141, 8122, 8187, 8096,6.162619352340698
116, 8131, 8128, 8132, 8103, 8147, 8159, 8166, 8178, 8209, 8181, 8153, 8139, 8188, 8101,6.17778754234314
117, 8131, 8134, 8109, 8100, 8150, 8154, 8152, 8170, 8200, 8146, 8158, 8136, 8179, 8087,6.17778754234314
118, 8127, 8134, 8128, 8085, 8142, 8136, 8119, 8156, 8165, 8144, 8157, 8146, 8170, 8080,6.193790435791016
119, 8125, 8134, 8136, 8087, 8139, 8139, 8122, 8155, 8160, 8174, 8159, 8143, 8171, 8080,6.193790435791016
120, 8139, 8144, 8138, 8107, 8152, 8153, 8139, 8157, 8174, 8138, 8176, 8151, 8181, 8092,6.209121465682983
121, 8152, 8165, 8168, 8117, 8162, 8167, 8140, 8165, 8169, 8109, 8192, 8178, 8196, 8101,6.209121465682983
122, 8136, 8162, 8136, 8122, 8166, 8173, 8153, 8165, 8173, 8175, 8183, 8152, 8191, 8084,6.224666118621826
123, 8117, 8149, 8138, 8117, 8165, 8166, 8152, 8157, 8161, 8199, 8153, 8131, 8152, 8064,6.224666118621826
124, 8122, 8152, 8142, 8131, 8163, 8164, 8147, 8158, 8157, 8162, 8150, 8138, 8146, 8061,6.239865064620972
125, 8142, 8151, 8137, 8136, 8156, 8161, 8147, 8161, 8170, 8163, 8168, 8143, 8162, 8070,6.2558581829071045
126, 8138, 8147, 8164, 8120, 8150, 8161, 8145, 8160, 8160, 8168, 8165, 8148, 8153, 8071,6.2558581829071045
127, 8119, 8141, 8136, 8122, 8154, 8165, 8159, 8153, 8154, 8155, 8150, 8128, 8138, 8062,6.272432804107666
237, 8123, 8131, 8135, 8114, 8146, 8177, 8170, 8161, 8170, 8164, 8121, 8126, 8132, 8068,6.272432804107666
0, 8126, 8120, 8131, 8108, 8133, 8188, 8173, 8177, 8191, 8193, 8113, 8131, 8142, 8085,6.272432804107666
1, 8116, 8107, 8111, 8111, 8130, 8170, 8165, 8168, 8181, 8194, 8134, 8130, 8155, 8085,6.287701606750488
2, 8125, 8115, 8144, 8110, 8130, 8161, 8155, 8162, 8162, 8174, 8140, 8151, 8155, 8080,6.287701606750488
3, 8141, 8125, 8127, 8120, 8134, 8167, 8159, 8164, 8167, 8179, 8138, 8150, 8160, 8089,6.30296778678894
4, 8142, 8127, 8136, 8122, 8134, 8164, 8152, 8161, 8169, 8186, 8143, 8154, 8165, 8105,6.30296778678894
5, 8144, 8136, 8160, 8124, 8142, 8167, 8157, 8163, 8182, 8197, 8156, 8174, 8183, 8114,6.318744421005249
6, 8150, 8129, 8134, 8119, 8148, 8152, 8156, 8160, 8193, 8198, 8163, 8180, 8194, 8106,6.334781169891357
7, 8142, 8117, 8142, 8096, 8132, 8134, 8124, 8155, 8162, 8166, 8152, 8178, 8167, 8091,6.334781169891357
8, 8136, 8124, 8129, 8100, 8129, 8147, 8115, 8152, 8145, 8157, 8151, 8161, 8160, 8078,6.350525617599487
9, 8155, 8144, 8142, 8111, 8141, 8157, 8121, 8159, 8152, 8162, 8153, 8182, 8178, 8082,6.350525617599487
10, 8164, 8153, 8157, 8111, 8145, 8153, 8130, 8174, 8158, 8160, 8159, 8200, 8187, 8092,6.350525617599487
11, 8148, 8143, 8131, 8111, 8143, 8142, 8128, 8168, 8146, 8156, 8162, 8176, 8179, 8082,6.366574764251709
12, 8146, 8151, 8162, 8109, 8146, 8147, 8114, 8167, 8128, 8147, 8162, 8180, 8170, 8074,6.366574764251709
13, 8146, 8159, 8154, 8122, 8162, 8168, 8135, 8169, 8151, 8161, 8171, 8178, 8183, 8077,6.382242441177368
14, 8127, 8144, 8139, 8116, 8165, 8176, 8149, 8160, 8141, 8156, 8143, 8155, 8166, 8078,6.382242441177368
15, 8106, 8134, 8146, 8098, 8152, 8175, 8142, 8155, 8098, 8131, 8099, 8135, 8130, 8064,6.397683382034302
16, 8111, 8130, 8122, 8111, 8151, 8183, 8154, 8151, 8097, 8138, 8098, 8123, 8128, 8059,6.4128899574279785
17, 8127, 8133, 8147, 8126, 8155, 8194, 8169, 8162, 8111, 8154, 8115, 8146, 8143, 8084,6.4128899574279785
18, 8119, 8134, 8138, 8127, 8152, 8186, 8170, 8172, 8136, 8172, 8119, 8149, 8155, 8097,6.4128899574279785
19, 8118, 8123, 8120, 8104, 8144, 8168, 8150, 8172, 8155, 8188, 8118, 8145, 8163, 8089,6.428053617477417
20, 8132, 8120, 8137, 8097, 8147, 8170, 8133, 8179, 8156, 8198, 8137, 8166, 8174, 8089,6.428053617477417
21, 8139, 8128, 8129, 8119, 8152, 8164, 8128, 8172, 8151, 8191, 8158, 8169, 8180, 8100,6.44319486618042
22, 8147, 8142, 8152, 8121, 8153, 8150, 8118, 8165, 8146, 8172, 8156, 8179, 8179, 8112,6.458981990814209
23, 8141, 8141, 8131, 8117, 8153, 8152, 8124, 8169, 8156, 8173, 8152, 8174, 8183, 8099,6.458981990814209
24, 8133, 8134, 8121, 8104, 8150, 8149, 8119, 8167, 8150, 8172, 8158, 8162, 8169, 8076,6.474382162094116
25, 8141, 8154, 8170, 8112, 8161, 8160, 8117, 8169, 8146, 8182, 8171, 8174, 8160, 8084,6.474382162094116
26, 8146, 8159, 8153, 8151, 8176, 8174, 8146, 8165, 8160, 8204, 8171, 8160, 8170, 8092,6.489848613739014
27, 8141, 8142, 8161, 8137, 8163, 8180, 8150, 8168, 8139, 8177, 8137, 8156, 8150, 8083,6.489848613739014
28, 8120, 8130, 8151, 8111, 8153, 8200, 8159, 8174, 8138, 8173, 8126, 8148, 8143, 8080,6.505974054336548
29, 8112, 8115, 8104, 8111, 8157, 8197, 8176, 8158, 8169, 8208, 8145, 8129, 8158, 8082,6.505974054336548
30, 8133, 8119, 8135, 8096, 8154, 8178, 8162, 8166, 8166, 8200, 8150, 8157, 8160, 8091,6.521249055862427
31, 8150, 8134, 8134, 8099, 8155, 8171, 8154, 8170, 8166, 8184, 8161, 8173, 8175, 8091,6.521249055862427
32, 8149, 8130, 8128, 8104, 8148, 8158, 8141, 8155, 8157, 8170, 8164, 8171, 8172, 8082,6.536379814147949
33, 8144, 8127, 8140, 8107, 8150, 8155, 8134, 8164, 8143, 8167, 8159, 8166, 8157, 8082,6.536379814147949
34, 8143, 8139, 8146, 8116, 8166, 8158, 8138, 8169, 8142, 8171, 8155, 8157, 8158, 8079,6.551537752151489
35, 8142, 8157, 8159, 8125, 8164, 8161, 8136, 8161, 8138, 8158, 8144, 8145, 8151, 8073,6.551537752151489
36, 8139, 8158, 8142, 8141, 8163, 8166, 8145, 8164, 8140, 8163, 8140, 8125, 8141, 8080,6.568150997161865
37, 8133, 8151, 8157, 8138, 8168, 8185, 8160, 8173, 8143, 8176, 8133, 8132, 8138, 8089,6.568150997161865
38, 8125, 8143, 8136, 8137, 8159, 8192, 8171, 8171, 8158, 8189, 8132, 8128, 8148, 8083,6.583970785140991
39, 8130, 8132, 8118, 8134, 8144, 8172, 8162, 8170, 8157, 8194, 8132, 8120, 8146, 8088,6.583970785140991
40, 8130, 8127, 8144, 8122, 8146, 8179, 8160, 8171, 8151, 8189, 8131, 8131, 8138, 8099,6.599571228027344
41, 8121, 8113, 8101, 8114, 8153, 8184, 8165, 8163, 8161, 8188, 8131, 8115, 8146, 8093,6.599571228027344
42, 8136, 8110, 8115, 8097, 8146, 8163, 8150, 8164, 8154, 8174, 8127, 8133, 8157, 8097,6.615591526031494
43, 8149, 8125, 8135, 8099, 8148, 8163, 8156, 8172, 8161, 8175, 8146, 8156, 8169, 8106,6.615591526031494
44, 8147, 8137, 8116, 8109, 8154, 8162, 8152, 8169, 8159, 8177, 8165, 8143, 8165, 8092,6.630990982055664
45, 8149, 8151, 8146, 8115, 8148, 8149, 8125, 8156, 8119, 8159, 8162, 8149, 8147, 8075,6.630990982055664
46, 8156, 8156, 8138, 8133, 8153, 8150, 8128, 8146, 8111, 8158, 8174, 8152, 8147, 8072,6.647001504898071
47, 8162, 8169, 8155, 8138, 8165, 8159, 8125, 8151, 8119, 8159, 8190, 8158, 8151, 8083,6.647001504898071
48, 8160, 8188, 8178, 8152, 8171, 8160, 8114, 8155, 8109, 8157, 8187, 8154, 8144, 8076,6.66254734992981
49, 8148, 8170, 8141, 8164, 8166, 8150, 8118, 8145, 8101, 8158, 8171, 8129, 8137, 8060,6.66254734992981
50, 8138, 8150, 8145, 8141, 8155, 8153, 8116, 8152, 8101, 8154, 8156, 8128, 8129, 8064,6.678069829940796
51, 8131, 8150, 8132, 8137, 8155, 8167, 8119, 8163, 8117, 8158, 8147, 8118, 8128, 8068,6.678069829940796
52, 8128, 8145, 8130, 8149, 8151, 8167, 8122, 8157, 8117, 8156, 8134, 8113, 8123, 8069,6.6936280727386475
53, 8132, 8142, 8138, 8146, 8142, 8164, 8132, 8163, 8123, 8165, 8139, 8121, 8129, 8084,6.6936280727386475
54, 8129, 8137, 8107, 8125, 8139, 8154, 8141, 8166, 8148, 8181, 8150, 8111, 8142, 8087,6.708667993545532
55, 8132, 8135, 8126, 8096, 8137, 8146, 8127, 8163, 8138, 8155, 8141, 8120, 8132, 8075,6.708667993545532
56, 8142, 8143, 8130, 8112, 8141, 8145, 8127, 8161, 8115, 8129, 8139, 8128, 8125, 8064,6.723700523376465
57, 8152, 8155, 8144, 8135, 8145, 8141, 8130, 8154, 8104, 8125, 8150, 8135, 8117, 8065,6.723700523376465
58, 8155, 8169, 8172, 8139, 8152, 8158, 8131, 8157, 8105, 8139, 8162, 8144, 8106, 8079,6.739021062850952
59, 8145, 8166, 8143, 8154, 8159, 8173, 8146, 8158, 8110, 8146, 8154, 8122, 8104, 8081,6.7393958568573
60, 8136, 8155, 8151, 8154, 8149, 8167, 8142, 8157, 8102, 8133, 8124, 8115, 8091, 8072,6.75515604019165
61, 8132, 8145, 8137, 8148, 8142, 8163, 8138, 8163, 8127, 8163, 8124, 8115, 8097, 8073,6.75515604019165
62, 8148, 8146, 8135, 8148, 8146, 8158, 8137, 8167, 8162, 8194, 8149, 8133, 8129, 8100,6.770893335342407
63, 8162, 8154, 8165, 8142, 8142, 8149, 8127, 8174, 8171, 8180, 8159, 8165, 8151, 8122,6.770893335342407
64, 8152, 8144, 8131, 8128, 8135, 8132, 8114, 8166, 8162, 8165, 8165, 8155, 8145, 8102,6.7859954833984375
65, 8154, 8150, 8154, 8125, 8139, 8132, 8111, 8161, 8136, 8150, 8173, 8165, 8133, 8088,6.7859954833984375
66, 8167, 8181, 8177, 8170, 8156, 8162, 8143, 8162, 8145, 8154, 8189, 8179, 8148, 8094,6.801981449127197
67, 8170, 8177, 8171, 8181, 8159, 8158, 8149, 8159, 8155, 8157, 8188, 8171, 8143, 8088,6.801981449127197
68, 8155, 8161, 8198, 8148, 8145, 8141, 8123, 8162, 8124, 8144, 8174, 8175, 8117, 8079,6.816941499710083
69, 8142, 8161, 8151, 8169, 8145, 8150, 8140, 8139, 8118, 8154, 8181, 8151, 8135, 8071,6.816941499710083
70, 8157, 8166, 8145, 8186, 8148, 8155, 8149, 8138, 8117, 8152, 8170, 8148, 8140, 8080,6.832155466079712
71, 8165, 8165, 8184, 8170, 8147, 8161, 8139, 8175, 8117, 8151, 8153, 8168, 8126, 8107,6.832155466079712
72, 8149, 8145, 8155, 8157, 8136, 8158, 8134, 8165, 8127, 8171, 8154, 8155, 8126, 8107,6.847765922546387
73, 8139, 8131, 8145, 8144, 8117, 8150, 8125, 8157, 8119, 8160, 8139, 8140, 8116, 8088,6.847765922546387
74, 8143, 8138, 8138, 8153, 8115, 8151, 8136, 8174, 8133, 8162, 8142, 8142, 8124, 8098,6.862983465194702
75, 8157, 8150, 8159, 8152, 8119, 8139, 8138, 8171, 8147, 8176, 8156, 8165, 8149, 8116,6.862983465194702
76, 8167, 8153, 8162, 8144, 8118, 8135, 8134, 8170, 8149, 8174, 8166, 8173, 8166, 8115,6.878549575805664
77, 8175, 8147, 8142, 8142, 8121, 8137, 8137, 8171, 8157, 8173, 8186, 8179, 8178, 8118,6.878549575805664
78, 8183, 8157, 8178, 8137, 8132, 8141, 8137, 8171, 8158, 8170, 8202, 8208, 8181, 8131,6.893927335739136
79, 8182, 8170, 8161, 8148, 8149, 8148, 8147, 8162, 8160, 8174, 8203, 8194, 8178, 8112,6.893927335739136
80, 8179, 8168, 8160, 8143, 8147, 8149, 8140, 8160, 8138, 8158, 8193, 8180, 8156, 8091,6.909670114517212
81, 8162, 8166, 8172, 8135, 8139, 8153, 8136, 8166, 8129, 8144, 8181, 8177, 8137, 8089,6.924776077270508
82, 8137, 8161, 8146, 8137, 8143, 8150, 8134, 8155, 8131, 8141, 8160, 8154, 8124, 8079,6.924776077270508
83, 8135, 8160, 8158, 8144, 8146, 8153, 8135, 8151, 8120, 8143, 8150, 8147, 8117, 8076,6.940375566482544
84, 8142, 8154, 8157, 8155, 8145, 8162, 8145, 8160, 8113, 8148, 8145, 8141, 8113, 8083,6.940375566482544
85, 8138, 8146, 8177, 8147, 8141, 8174, 8144, 8168, 8108, 8135, 8128, 8149, 8100, 8088,6.956083297729492
86, 8132, 8149, 8155, 8161, 8150, 8189, 8162, 8163, 8138, 8169, 8141, 8142, 8116, 8089,6.956083297729492
87, 8141, 8147, 8131, 8167, 8147, 8163, 8166, 8170, 8157, 8193, 8161, 8136, 8136, 8095,6.971632480621338
88, 8155, 8149, 8174, 8135, 8132, 8136, 8139, 8182, 8140, 8162, 8172, 8171, 8137, 8101,6.971632480621338
89, 8164, 8154, 8144, 8134, 8140, 8131, 8125, 8162, 8134, 8153, 8187, 8171, 8138, 8093,6.987819194793701
90, 8176, 8168, 8158, 8150, 8148, 8124, 8109, 8149, 8105, 8139, 8181, 8167, 8121, 8088,6.987819194793701
91, 8169, 8182, 8191, 8174, 8151, 8136, 8116, 8162, 8091, 8131, 8179, 8169, 8119, 8076,7.0042564868927
92, 8146, 8171, 8156, 8184, 8154, 8148, 8131, 8159, 8104, 8141, 8177, 8149, 8134, 8062,7.0042564868927
93, 8142, 8170, 8174, 8172, 8147, 8154, 8124, 8150, 8100, 8135, 8158, 8146, 8153, 8065,7.0042564868927
94, 8142, 8171, 8159, 8177, 8138, 8161, 8136, 8153, 8104, 8142, 8150, 8139, 8291, 8066,7.019366979598999
95, 8136, 8158, 8142, 8175, 8131, 8171, 8145, 8161, 8116, 8156, 8141, 8135, 8512, 8064,7.034084796905518
96, 8134, 8153, 8159, 8167, 8131, 8183, 8147, 8163, 8126, 8166, 8137, 8136, 8608, 8075,7.034084796905518
97, 8140, 8152, 8139, 8169, 8130, 8174, 8155, 8163, 8135, 8180, 8153, 8129, 8570, 8090,7.050038576126099
98, 8148, 8151, 8153, 8154, 8119, 8165, 8151, 8173, 8125, 8166, 8153, 8151, 8531, 8094,7.050038576126099
99, 8146, 8152, 8143, 8151, 8112, 8158, 8147, 8170, 8125, 8150, 8144, 8154, 8518, 8091,7.064966440200806
100, 8150, 8148, 8138, 8159, 8110, 8142, 8142, 8158, 8130, 8157, 8154, 8151, 8491, 8097,7.064966440200806
101, 8157, 8156, 8161, 8163, 8109, 8148, 8139, 8165, 8136, 8167, 8168, 8166, 8474, 8106,7.081076622009277
102, 8164, 8158, 8132, 8163, 8112, 8156, 8147, 8175, 8155, 8165, 8173, 8165, 8471, 8103,7.081076622009277
103, 8178, 8162, 8148, 8156, 8112, 8153, 8143, 8179, 8160, 8159, 8174, 8183, 8453, 8106,7.096588850021362
104, 8176, 8172, 8152, 8165, 8113, 8154, 8142, 8180, 8170, 8173, 8179, 8185, 8440, 8107,7.096588850021362
105, 8166, 8165, 8137, 8163, 8107, 8136, 8137, 8167, 8163, 8162, 8174, 8168, 8416, 8100,7.111803293228149
106, 8158, 8157, 8152, 8153, 8095, 8122, 8123, 8160, 8132, 8136, 8171, 8173, 8390, 8096,7.111803293228149
107, 8158, 8163, 8132, 8167, 8094, 8125, 8122, 8161, 8122, 8142, 8178, 8168, 8386, 8094,7.127844572067261
108, 8167, 8177, 8149, 8165, 8093, 8125, 8118, 8158, 8115, 8140, 8174, 8174, 8376, 8095,7.127844572067261
109, 8158, 8173, 8146, 8156, 8087, 8130, 8119, 8155, 8122, 8138, 8178, 8172, 8371, 8096,7.143121719360352
110, 8148, 8152, 8126, 8146, 8081, 8131, 8112, 8154, 8128, 8146, 8185, 8170, 8368, 8096,7.143121719360352
111, 8153, 8153, 8152, 8139, 8080, 8132, 8106, 8162, 8117, 8141, 8177, 8183, 8355, 8096,7.158689975738525
112, 8155, 8162, 8137, 8160, 8087, 8139, 8119, 8161, 8128, 8143, 8179, 8165, 8346, 8089,7.158689975738525
113, 8160, 8174, 8149, 8166, 8084, 8150, 8117, 8151, 8134, 8149, 8186, 8173, 8337, 8091,7.174220085144043
114, 8168, 8187, 8160, 8167, 8086, 8155, 8123, 8160, 8138, 8173, 8190, 8193, 8333, 8104,7.174220085144043
115, 8163, 8183, 8143, 8173, 8088, 8139, 8124, 8164, 8143, 8173, 8180, 8176, 8313, 8105,7.189866542816162
116, 8150, 8181, 8159, 8161, 8076, 8139, 8114, 8157, 8127, 8138, 8156, 8157, 8269, 8091,7.189866542816162
117, 8146, 8190, 8145, 8165, 8078, 8160, 8139, 8153, 8130, 8149, 8152, 8142, 8261, 8088,7.205972671508789
118, 8148, 8196, 8161, 8170, 8083, 8164, 8161, 8168, 8146, 8173, 8158, 8153, 8275, 8108,7.205972671508789
119, 8136, 8185, 8157, 8161, 8074, 8162, 8169, 8180, 8157, 8177, 8153, 8153, 8272, 8118,7.221541404724121
120, 8122, 8168, 8120, 8154, 8064, 8162, 8174, 8170, 8162, 8180, 8140, 8141, 8257, 8107,7.221541404724121
121, 8126, 8176, 8143, 8155, 8062, 8164, 8177, 8174, 8163, 8184, 8132, 8158, 8250, 8113,7.23662257194519
122, 8124, 8174, 8119, 8145, 8062, 8165, 8180, 8174, 8171, 8187, 8139, 8149, 8250, 8111,7.23662257194519
123, 8117, 8156, 8112, 8118, 8051, 8159, 8168, 8168, 8165, 8183, 8137, 8142, 8234, 8101,7.252744197845459
124, 8117, 8156, 8127, 8120, 8044, 8154, 8163, 8174, 8171, 8190, 8134, 8149, 8229, 8106,7.252744197845459
125, 8117, 8151, 8099, 8110, 8032, 8136, 8159, 8169, 8169, 8173, 8126, 8136, 8230, 8099,7.268127679824829
126, 8114, 8146, 8117, 8070, 8017, 8127, 8135, 8164, 8144, 8140, 8110, 8138, 8216, 8085,7.268127679824829
127, 8116, 8160, 8110, 8085, 8027, 8137, 8138, 8167, 8156, 8158, 8119, 8134, 8220, 8086,7.283722639083862
237, 8132, 8164, 8117, 8101, 8046, 8136, 8145, 8167, 8161, 8165, 8132, 8138, 8222, 8093,7.283722639083862
0, 8135, 8161, 8129, 8083, 8052, 8141, 8143, 8173, 8143, 8139, 8134, 8141, 8209, 8087,7.2992472648620605
1, 8124, 8168, 8101, 8085, 8054, 8147, 8145, 8167, 8142, 8136, 8137, 8119, 8196, 8072,7.2992472648620605
2, 8130, 8184, 8130, 8097, 8057, 8143, 8140, 8161, 8138, 8151, 8139, 8130, 8185, 8074,7.314962148666382
3, 8147, 8187, 8139, 8108, 8062, 8140, 8143, 8169, 8146, 8163, 8152, 8144, 8196, 8091,7.314962148666382
4, 8163, 8184, 8152, 8110, 8063, 8135, 8140, 8168, 8148, 8150, 8164, 8154, 8199, 8103,7.330645799636841
5, 8162, 8192, 8169, 8121, 8059, 8142, 8140, 8167, 8135, 8142, 8167, 8157, 8183, 8093,7.330645799636841
6, 8154, 8191, 8137, 8141, 8059, 8147, 8146, 8162, 8143, 8162, 8171, 8141, 8184, 8084,7.345782518386841
7, 8158, 8189, 8159, 8139, 8068, 8143, 8139, 8162, 8157, 8168, 8172, 8150, 8187, 8096,7.345782518386841
8, 8153, 8191, 8157, 8145, 8079, 8151, 8148, 8169, 8166, 8176, 8178, 8150, 8183, 8103,7.3612284660339355
9, 8147, 8190, 8153, 8161, 8082, 8161, 8156, 8166, 8151, 8177, 8176, 8147, 8173, 8097,7.3612284660339355
10, 8149, 8197, 8173, 8173, 8084, 8174, 8158, 8162, 8146, 8176, 8172, 8151, 8170, 8094,7.377859354019165
11, 8141, 8191, 8141, 8174, 8089, 8168, 8163, 8160, 8155, 8184, 8161, 8130, 8160, 8085,7.377859354019165
12, 8130, 8178, 8146, 8150, 8081, 8158, 8159, 8163, 8136, 8165, 8139, 8125, 8132, 8085,7.392877817153931
13, 8130, 8170, 8144, 8148, 8080, 8168, 8175, 8161, 8138, 8168, 8146, 8129, 8129, 8097,7.392877817153931
14, 8143, 8173, 8138, 8163, 8085, 8179, 8192, 8165, 8161, 8199, 8164, 8141, 8145, 8109,7.4090576171875
15, 8152, 8188, 8158, 8166, 8087, 8184, 8192, 8185, 8172, 8201, 8155, 8156, 8144, 8118,7.4090576171875
16, 8142, 8177, 8126, 8160, 8094, 8174, 8190, 8178, 8184, 8196, 8146, 8138, 8140, 8113,7.4245851039886475
17, 8128, 8157, 8127, 8127, 8085, 8162, 8180, 8163, 8180, 8198, 8142, 8135, 8134, 8101,7.4245851039886475
18, 8115, 8147, 8118, 8112, 8071, 8170, 8179, 8167, 8173, 8199, 8139, 8133, 8128, 8089,7.439695596694946
19, 8112, 8140, 8105, 8114, 8073, 8167, 8174, 8172, 8167, 8179, 8136, 8123, 8116, 8087,7.439695596694946
20, 8118, 8150, 8136, 8121, 8083, 8162, 8164, 8180, 8168, 8170, 8132, 8140, 8116, 8093,7.455376625061035
21, 8122, 8160, 8119, 8140, 8087, 8156, 8168, 8175, 8185, 8189, 8148, 8146, 8132, 8092,7.455376625061035
22, 8128, 8152, 8124, 8120, 8080, 8145, 8150, 8162, 8171, 8175, 8160, 8151, 8119, 8088,7.471295118331909
23, 8119, 8142, 8123, 8100, 8073, 8145, 8141, 8163, 8160, 8162, 8147, 8144, 8101, 8076,7.471295118331909
24, 8110, 8137, 8108, 8116, 8070, 8141, 8159, 8170, 8175, 8176, 8137, 8133, 8100, 8068,7.487029790878296
25, 8124, 8147, 8136, 8131, 8075, 8143, 8166, 8173, 8173, 8172, 8150, 8151, 8104, 8081,7.487029790878296
26, 8145, 8156, 8121, 8129, 8090, 8145, 8158, 8172, 8172, 8175, 8169, 8153, 8116, 8088,7.502609014511108
27, 8153, 8153, 8135, 8115, 8088, 8133, 8135, 8168, 8156, 8178, 8162, 8159, 8112, 8088,7.502609014511108
28, 8146, 8149, 8145, 8123, 8079, 8126, 8128, 8158, 8138, 8154, 8149, 8149, 8091, 8082,7.517991542816162
29, 8137, 8144, 8124, 8130, 8075, 8117, 8127, 8149, 8130, 8122, 8144, 8133, 8071, 8067,7.517991542816162
30, 8134, 8152, 8147, 8114, 8075, 8119, 8125, 8159, 8123, 8121, 8144, 8150, 8060, 8069,7.5328028202056885
31, 8133, 8158, 8129, 8119, 8083, 8134, 8142, 8162, 8128, 8143, 8150, 8143, 8063, 8076,7.5328028202056885
32, 8145, 8160, 8141, 8129, 8082, 8135, 8140, 8153, 8123, 8137, 8150, 8148, 8063, 8078,7.54795241355896
33, 8158, 8172, 8166, 8134, 8081, 8131, 8137, 8167, 8136, 8145, 8165, 8175, 8078, 8085,7.54795241355896
34, 8163, 8175, 8144, 8143, 8081, 8127, 8142, 8172, 8154, 8172, 8185, 8177, 8097, 8095,7.563828229904175
35, 8175, 8181, 8175, 8147, 8087, 8139, 8144, 8171, 8159, 8172, 8191, 8187, 8100, 8113,7.563828229904175
36, 8181, 8194, 8178, 8166, 8112, 8165, 8161, 8182, 8185, 8187, 8205, 8194, 8114, 8124,7.579957485198975
37, 8180, 8198, 8177, 8174, 8121, 8167, 8160, 8185, 8178, 8189, 8201, 8195, 8107, 8118,7.579957485198975
38, 8179, 8198, 8190, 8175, 8115, 8165, 8155, 8174, 8162, 8178, 8182, 8189, 8082, 8114,7.595064878463745
39, 8181, 8202, 8171, 8189, 8121, 8173, 8170, 8168, 8186, 8195, 8190, 8179, 8090, 8117,7.595064878463745
40, 8183, 8210, 8186, 8188, 8126, 8184, 8177, 8182, 8192, 8203, 8192, 8193, 8098, 8121,7.610577583312988
41, 8175, 8206, 8167, 8190, 8119, 8185, 8182, 8180, 8192, 8198, 8189, 8187, 8095, 8124,7.610577583312988
42, 8167, 8192, 8159, 8178, 8113, 8170, 8175, 8166, 8186, 8181, 8183, 8171, 8090, 8123,7.625959873199463
43, 8163, 8190, 8171, 8174, 8122, 8170, 8174, 8177, 8185, 8186, 8180, 8172, 8091, 8120,7.641570806503296
44, 8168, 8190, 8153, 8200, 8127, 8178, 8186, 8183, 8198, 8214, 8192, 8173, 8104, 8133,7.641570806503296
45, 8171, 8190, 8183, 8207, 8122, 8175, 8173, 8178, 8189, 8203, 8191, 8188, 8097, 8144,7.657175064086914
46, 8166, 8195, 8172, 8213, 8137, 8172, 8173, 8174, 8192, 8198, 8191, 8178, 8089, 8127,7.657175064086914
47, 8164, 8190, 8152, 8205, 8147, 8170, 8182, 8174, 8205, 8215, 8193, 8167, 8088, 8119,7.672738075256348
48, 8159, 8180, 8166, 8196, 8137, 8182, 8184, 8179, 8204, 8225, 8190, 8171, 8087, 8128,7.672738075256348
49, 8152, 8166, 8143, 8207, 8142, 8191, 8201, 8174, 8208, 8226, 8182, 8154, 8077, 8124,7.688993453979492
50, 8157, 8159, 8157, 8194, 8148, 8194, 8213, 8178, 8206, 8210, 8166, 8155, 8057, 8121,7.688993453979492
51, 8152, 8155, 8143, 8181, 8145, 8193, 8218, 8182, 8213, 8205, 8163, 8158, 8067, 8122,7.688993453979492
52, 8149, 8148, 8129, 8178, 8136, 8172, 8204, 8176, 8221, 8215, 8171, 8166, 8091, 8128,7.704096794128418
53, 8163, 8160, 8163, 8175, 8129, 8164, 8192, 8180, 8223, 8232, 8187, 8178, 8099, 8139,7.719779968261719
54, 8171, 8163, 8143, 8182, 8135, 8167, 8198, 8178, 8226, 8240, 8189, 8163, 8102, 8131,7.719779968261719
55, 8167, 8154, 8150, 8174, 8139, 8156, 8187, 8169, 8216, 8216, 8178, 8175, 8103, 8120,7.734931230545044
56, 8152, 8148, 8144, 8167, 8132, 8146, 8171, 8168, 8209, 8196, 8176, 8176, 8100, 8113,7.734931230545044
57, 8154, 8146, 8131, 8165, 8126, 8141, 8151, 8156, 8189, 8176, 8164, 8160, 8085, 8105,7.7509496212005615
58, 8176, 8161, 8171, 8174, 8134, 8152, 8158, 8153, 8177, 8173, 8158, 8186, 8089, 8119,7.7509496212005615
59, 8181, 8167, 8159, 8189, 8149, 8166, 8186, 8162, 8201, 8197, 8187, 8204, 8112, 8129,7.7661707401275635
60, 8173, 8167, 8162, 8175, 8155, 8166, 8175, 8163, 8197, 8187, 8203, 8209, 8107, 8114,7.7661707401275635
61, 8171, 8176, 8167, 8175, 8156, 8163, 8167, 8163, 8183, 8188, 8201, 8201, 8103, 8104,7.781766414642334
62, 8179, 8182, 8163, 8196, 8151, 8157, 8174, 8162, 8186, 8203, 8220, 8205, 8118, 8115,7.781766414642334
63, 8192, 8199, 8197, 8205, 8151, 8163, 8170, 8169, 8188, 8191, 8235, 8240, 8124, 8132,7.79679799079895
64, 8195, 8205, 8177, 8216, 8161, 8165, 8165, 8165, 8193, 8191, 8226, 8227, 8117, 8125,7.79679799079895
65, 8193, 8197, 8187, 8223, 8161, 8158, 8155, 8153, 8180, 8187, 8212, 8209, 8097, 8113,7.812880277633667
66, 8183, 8200, 8196, 8230, 8165, 8173, 8170, 8157, 8169, 8182, 8203, 8199, 8091, 8115,7.812880277633667
67, 8171, 8192, 8166, 8226, 8172, 8181, 8190, 8159, 8167, 8190, 8175, 8173, 8085, 8120,7.827915191650391
68, 8176, 8174, 8177, 8208, 8161, 8182, 8183, 8164, 8167, 8193, 8149, 8175, 8068, 8124,7.827915191650391
69, 8174, 8163, 8153, 8201, 8155, 8181, 8181, 8171, 8189, 8191, 8162, 8180, 8074, 8128,7.843615293502808
70, 8179, 8163, 8165, 8187, 8158, 8161, 8172, 8169, 8194, 8174, 8170, 8193, 8089, 8141,7.843615293502808
71, 8202, 8171, 8193, 8191, 8155, 8147, 8161, 8170, 8196, 8175, 8179, 8213, 8108, 8151,7.858892202377319
72, 8208, 8167, 8164, 8193, 8146, 8139, 8152, 8163, 8194, 8182, 8202, 8219, 8118, 8142,7.858892202377319
73, 8186, 8165, 8174, 8175, 8150, 8144, 8144, 8162, 8167, 8163, 8201, 8222, 8096, 8125,7.874061584472656
74, 8179, 8178, 8175, 8199, 8175, 8170, 8171, 8168, 8174, 8169, 8187, 8206, 8090, 8124,7.874061584472656
75, 8188, 8185, 8188, 8221, 8185, 8189, 8192, 8172, 8198, 8187, 8177, 8199, 8095, 8134,7.88966178894043
76, 8172, 8168, 8181, 8208, 8180, 8194, 8197, 8172, 8209, 8200, 8169, 8181, 8092, 8128,7.88966178894043
77, 8148, 8142, 8136, 8192, 8179, 8195, 8209, 8169, 8218, 8216, 8153, 8145, 8088, 8115,7.9050328731536865
78, 8148, 8140, 8152, 8172, 8170, 8197, 8201, 8176, 8209, 8203, 8134, 8155, 8083, 8116,7.9050328731536865
79, 8158, 8143, 8138, 8170, 8166, 8196, 8198, 8174, 8205, 8192, 8138, 8163, 8091, 8121,7.92057204246521
80, 8176, 8142, 8141, 8172, 8177, 8192, 8206, 8176, 8216, 8218, 8158, 8165, 8103, 8137,7.92057204246521
81, 8172, 8145, 8162, 8168, 8176, 8190, 8208, 8189, 8228, 8245, 8170, 8167, 8107, 8140,7.935670614242554
82, 8153, 8136, 8131, 8167, 8160, 8174, 8204, 8178, 8225, 8229, 8158, 8150, 8100, 8125,7.935670614242554
83, 8161, 8140, 8156, 8155, 8152, 8164, 8198, 8174, 8208, 8203, 8143, 8170, 8091, 8135,7.95090126991272
84, 8169, 8143, 8153, 8149, 8157, 8165, 8196, 8179, 8206, 8211, 8156, 8181, 8095, 8142,7.95090126991272
85, 8165, 8125, 8135, 8133, 8152, 8151, 8176, 8164, 8192, 8195, 8160, 8163, 8080, 8122,7.965575218200684
86, 8169, 8132, 8150, 8125, 8143, 8151, 8167, 8161, 8177, 8165, 8150, 8164, 8066, 8113,7.965575218200684
87, 8184, 8165, 8153, 8157, 8159, 8158, 8177, 8168, 8182, 8172, 8169, 8187, 8077, 8123,7.980809688568115
88, 8195, 8190, 8205, 8189, 8178, 8171, 8175, 8163, 8170, 8179, 8188, 8212, 8077, 8131,7.981805086135864
89, 8184, 8185, 8203, 8202, 8185, 8191, 8183, 8163, 8175, 8190, 8188, 8185, 8077, 8132,7.9960198402404785
90, 8170, 8164, 8175, 8191, 8179, 8188, 8187, 8168, 8184, 8195, 8171, 8163, 8076, 8128,8.011632204055786
91, 8167, 8162, 8190, 8190, 8177, 8186, 8190, 8170, 8178, 8181, 8150, 8174, 8065, 8123,8.011632204055786
92, 8169, 8161, 8164, 8209, 8184, 8199, 8205, 8169, 8191, 8188, 8154, 8162, 8068, 8121,8.034749984741211
93, 8169, 8156, 8175, 8192, 8180, 8203, 8207, 8173, 8196, 8200, 8164, 8171, 8075, 8132,8.034749984741211
94, 8167, 8156, 8173, 8186, 8183, 8203, 8218, 8178, 8195, 8208, 8162, 8175, 8076, 8131,8.034749984741211
95, 8169, 8151, 8155, 8199, 8183, 8197, 8215, 8170, 8187, 8194, 8150, 8162, 8068, 8114,8.04331111907959
96, 8163, 8151, 8173, 8190, 8172, 8188, 8193, 8166, 8171, 8174, 8145, 8168, 8062, 8112,8.05852460861206
97, 8149, 8152, 8149, 8180, 8162, 8176, 8188, 8161, 8170, 8181, 8151, 8157, 8069, 8110,8.05852460861206
98, 8152, 8146, 8151, 8168, 8144, 8166, 8178, 8168, 8172, 8187, 8159, 8167, 8071, 8112,8.07561993598938
99, 8163, 8139, 8149, 8161, 8148, 8164, 8171, 8179, 8189, 8198, 8172, 8187, 8083, 8132,8.07561993598938
100, 8164, 8140, 8140, 8156, 8169, 8168, 8178, 8173, 8195, 8191, 8172, 8185, 8091, 8138,8.07561993598938
101, 8170, 8154, 8176, 8160, 8170, 8185, 8183, 8176, 8180, 8177, 8160, 8182, 8088, 8130,8.090369939804077
102, 8177, 8159, 8161, 8178, 8169, 8185, 8193, 8184, 8196, 8193, 8168, 8175, 8100, 8132,8.106019735336304
103, 8178, 8159, 8164, 8166, 8167, 8162, 8183, 8181, 8206, 8188, 8171, 8187, 8100, 8142,8.106019735336304
104, 8173, 8153, 8164, 8153, 8157, 8160, 8169, 8176, 8195, 8168, 8167, 8185, 8094, 8130,8.121755123138428
105, 8176, 8148, 8146, 8160, 8161, 8158, 8162, 8164, 8177, 8159, 8178, 8177, 8098, 8112,8.121755123138428
106, 8185, 8163, 8177, 8165, 8175, 8151, 8158, 8162, 8165, 8156, 8185, 8196, 8096, 8114,8.138011932373047
107, 8182, 8171, 8165, 8176, 8173, 8153, 8174, 8171, 8184, 8172, 8190, 8194, 8104, 8124,8.138011932373047
108, 8178, 8155, 8160, 8163, 8159, 8153, 8172, 8169, 8185, 8169, 8182, 8192, 8113, 8131,8.154069423675537
109, 8170, 8145, 8152, 8150, 8166, 8161, 8162, 8163, 8175, 8158, 8173, 8189, 8112, 8124,8.154069423675537
110, 8169, 8149, 8131, 8160, 8176, 8166, 8165, 8165, 8176, 8169, 8182, 8179, 8110, 8118,8.170098066329956
111, 8179, 8163, 8165, 8165, 8167, 8158, 8165, 8173, 8163, 8161, 8184, 8194, 8103, 8126,8.170098066329956
112, 8173, 8164, 8143, 8170, 8159, 8141, 8161, 8165, 8156, 8154, 8178, 8182, 8102, 8113,8.185714960098267
113, 8159, 8155, 8137, 8162, 8156, 8129, 8140, 8151, 8145, 8152, 8173, 8173, 8095, 8095,8.185714960098267
114, 8155, 8166, 8165, 8164, 8165, 8149, 8138, 8161, 8146, 8160, 8182, 8179, 8090, 8095,8.185714960098267
115, 8154, 8169, 8145, 8175, 8176, 8166, 8152, 8164, 8159, 8175, 8182, 8162, 8081, 8091,8.201281785964966
116, 8144, 8165, 8156, 8166, 8176, 8160, 8140, 8157, 8146, 8168, 8158, 8156, 8068, 8084,8.216941833496094
117, 8150, 8175, 8160, 8190, 8182, 8164, 8149, 8158, 8149, 8171, 8155, 8152, 8079, 8096,8.216941833496094
118, 8169, 8179, 8173, 8207, 8182, 8176, 8172, 8162, 8157, 8172, 8167, 8159, 8082, 8110,8.232552766799927
119, 8162, 8171, 8174, 8189, 8172, 8177, 8175, 8167, 8158, 8169, 8168, 8162, 8069, 8098,8.232552766799927
120, 8147, 8156, 8141, 8182, 8168, 8165, 8165, 8161, 8159, 8165, 8152, 8140, 8065, 8086,8.248107194900513
121, 8153, 8162, 8175, 8192, 8171, 8168, 8162, 8159, 8147, 8157, 8138, 8155, 8069, 8105,8.248107194900513
122, 8165, 8170, 8166, 8200, 8174, 8179, 8178, 8164, 8149, 8176, 8154, 8172, 8087, 8115,8.263695478439331
123, 8174, 8161, 8147, 8190, 8172, 8169, 8175, 8166, 8160, 8179, 8166, 8170, 8092, 8111,8.263695478439331
124, 8165, 8161, 8165, 8182, 8172, 8172, 8168, 8168, 8165, 8158, 8153, 8159, 8075, 8111,8.279154539108276
125, 8143, 8158, 8140, 8181, 8172, 8172, 8183, 8163, 8174, 8167, 8150, 8142, 8077, 8107,8.279154539108276
126, 8153, 8151, 8160, 8170, 8168, 8166, 8181, 8175, 8177, 8183, 8157, 8162, 8097, 8114,8.294727802276611
127, 8173, 8153, 8158, 8179, 8173, 8174, 8176, 8183, 8195, 8191, 8169, 8170, 8113, 8129,8.294727802276611
237, 8173, 8153, 8141, 8176, 8172, 8169, 8168, 8168, 8197, 8180, 8171, 8167, 8108, 8128,8.309997320175171
0, 8167, 8147, 8156, 8152, 8166, 8164, 8164, 8166, 8186, 8168, 8158, 8171, 8104, 8122,8.309997320175171
1, 8173, 8147, 8136, 8156, 8172, 8162, 8167, 8167, 8189, 8172, 8160, 8163, 8121, 8124,8.325371265411377
2, 8185, 8166, 8164, 8165, 8174, 8151, 8155, 8170, 8178, 8156, 8173, 8189, 8122, 8130,8.325371265411377
3, 8193, 8178, 8175, 8176, 8175, 8150, 8165, 8176, 8183, 8157, 8190, 8207, 8126, 8128,8.341415643692017
4, 8200, 8174, 8164, 8180, 8180, 8151, 8173, 8166, 8196, 8166, 8191, 8190, 8132, 8124,8.341415643692017
5, 8194, 8178, 8181, 8175, 8181, 8154, 8157, 8166, 8187, 8155, 8174, 8188, 8115, 8124,8.357112884521484
6, 8185, 8181, 8160, 8181, 8182, 8159, 8158, 8175, 8185, 8160, 8175, 8183, 8112, 8122,8.357112884521484
7, 8202, 8184, 8179, 8176, 8187, 8157, 8162, 8182, 8191, 8164, 8192, 8202, 8126, 8134,8.372689247131348
8, 8209, 8188, 8186, 8181, 8200, 8157, 8170, 8180, 8202, 8165, 8203, 8213, 8134, 8144,8.372689247131348
9, 8189, 8185, 8163, 8184, 8200, 8155, 8171, 8163, 8183, 8151, 8182, 8194, 8114, 8128,8.388938903808594
10, 8176, 8188, 8177, 8174, 8189, 8160, 8164, 8158, 8148, 8133, 8163, 8183, 8093, 8114,8.388938903808594
11, 8177, 8191, 8163, 8188, 8193, 8167, 8172, 8167, 8156, 8148, 8184, 8176, 8108, 8123,8.403921127319336
12, 8185, 8196, 8190, 8203, 8203, 8172, 8179, 8168, 8165, 8163, 8197, 8190, 8111, 8133,8.403921127319336
13, 8181, 8197, 8192, 8210, 8204, 8183, 8187, 8164, 8161, 8163, 8189, 8189, 8101, 8126,8.420162439346313
14, 8166, 8171, 8149, 8197, 8197, 8185, 8186, 8161, 8160, 8159, 8177, 8172, 8100, 8115,8.420162439346313
15, 8171, 8171, 8173, 8189, 8197, 8194, 8185, 8169, 8165, 8165, 8168, 8180, 8107, 8127,8.436185359954834
16, 8181, 8193, 8173, 8210, 8209, 8204, 8200, 8173, 8190, 8183, 8175, 8178, 8126, 8145,8.436185359954834
17, 8183, 8179, 8174, 8196, 8205, 8192, 8199, 8175, 8192, 8177, 8180, 8188, 8134, 8152,8.451719522476196
18, 8183, 8160, 8169, 8168, 8194, 8186, 8196, 8184, 8194, 8184, 8179, 8193, 8142, 8155,8.451719522476196
19, 8185, 8164, 8141, 8162, 8191, 8184, 8193, 8178, 8208, 8190, 8177, 8175, 8146, 8150,8.467102289199829
20, 8180, 8172, 8162, 8147, 8187, 8175, 8180, 8175, 8200, 8161, 8173, 8181, 8136, 8140,8.467102289199829
21, 8180, 8168, 8151, 8152, 8187, 8169, 8182, 8174, 8196, 8157, 8185, 8181, 8140, 8132,8.482679843902588
22, 8201, 8180, 8172, 8165, 8193, 8169, 8174, 8164, 8184, 8160, 8193, 8184, 8141, 8136,8.482679843902588
23, 8197, 8193, 8191, 8172, 8203, 8177, 8165, 8162, 8172, 8155, 8183, 8181, 8130, 8133,8.498811721801758
24, 8169, 8173, 8155, 8169, 8201, 8179, 8176, 8171, 8185, 8159, 8172, 8155, 8125, 8116,8.498811721801758
25, 8163, 8161, 8172, 8167, 8193, 8189, 8186, 8181, 8193, 8158, 8164, 8159, 8125, 8122,8.514312505722046
26, 8169, 8166, 8165, 8187, 8199, 8202, 8201, 8174, 8202, 8175, 8159, 8157, 8131, 8130,8.514312505722046
27, 8172, 8163, 8162, 8188, 8205, 8194, 8205, 8169, 8200, 8192, 8157, 8161, 8131, 8133,8.529942512512207
28, 8176, 8164, 8173, 8174, 8207, 8195, 8206, 8182, 8216, 8199, 8169, 8185, 8143, 8151,8.529942512512207
29, 8178, 8157, 8147, 8168, 8198, 8186, 8208, 8182, 8241, 8196, 8181, 8188, 8160, 8159,8.545572519302368
30, 8179, 8150, 8164, 8153, 8178, 8162, 8186, 8178, 8232, 8176, 8175, 8196, 8158, 8150,8.545572519302368
31, 8178, 8152, 8153, 8153, 8182, 8156, 8174, 8181, 8225, 8174, 8180, 8188, 8158, 8139,8.561019659042358
32, 8179, 8165, 8153, 8156, 8197, 8154, 8166, 8169, 8210, 8163, 8188, 8187, 8147, 8127,8.561019659042358
33, 8182, 8184, 8181, 8164, 8194, 8150, 8154, 8160, 8188, 8142, 8191, 8200, 8131, 8120,8.57655143737793
34, 8179, 8183, 8156, 8168, 8192, 8144, 8150, 8151, 8174, 8135, 8187, 8188, 8130, 8110,8.57655143737793
35, 8175, 8180, 8171, 8153, 8198, 8148, 8143, 8150, 8157, 8125, 8173, 8184, 8126, 8105,8.591874837875366
36, 8169, 8186, 8171, 8165, 8202, 8160, 8155, 8162, 8160, 8138, 8182, 8174, 8128, 8105,8.591874837875366
37, 8171, 8185, 8170, 8177, 8199, 8163, 8164, 8161, 8165, 8155, 8194, 8167, 8131, 8105,8.608000993728638
38, 8171, 8187, 8190, 8180, 8201, 8175, 8165, 8163, 8160, 8147, 8179, 8173, 8131, 8111,8.608000993728638
39, 8159, 8185, 8163, 8204, 8211, 8177, 8174, 8169, 8168, 8154, 8171, 8159, 8137, 8114,8.623258590698242
40, 8162, 8184, 8181, 8205, 8208, 8175, 8175, 8168, 8163, 8163, 8173, 8166, 8137, 8118,8.623258590698242
41, 8167, 8180, 8180, 8191, 8200, 8180, 8175, 8162, 8162, 8163, 8173, 8167, 8138, 8112,8.638696193695068
42, 8163, 8161, 8156, 8178, 8202, 8173, 8171, 8163, 8173, 8161, 8166, 8157, 8144, 8112,8.639156818389893
43, 8160, 8158, 8170, 8176, 8202, 8170, 8179, 8174, 8183, 8173, 8166, 8165, 8150, 8120,8.654010534286499
44, 8163, 8161, 8150, 8186, 8196, 8174, 8194, 8171, 8204, 8198, 8185, 8170, 8161, 8123,8.654010534286499
45, 8172, 8154, 8162, 8172, 8191, 8169, 8179, 8173, 8209, 8186, 8190, 8186, 8159, 8133,8.669646263122559
46, 8171, 8157, 8160, 8168, 8199, 8160, 8172, 8176, 8206, 8168, 8187, 8183, 8164, 8133,8.669646263122559
47, 8171, 8166, 8140, 8178, 8202, 8150, 8165, 8163, 8200, 8163, 8193, 8173, 8167, 8121,8.685292959213257
48, 8176, 8168, 8163, 8175, 8198, 8151, 8148, 8167, 8188, 8156, 8191, 8185, 8154, 8117,8.685292959213257
49, 8172, 8164, 8146, 8179, 8203, 8148, 8154, 8170, 8196, 8164, 8192, 8172, 8156, 8111,8.700658798217773
50, 8172, 8175, 8155, 8170, 8197, 8130, 8145, 8161, 8186, 8148, 8192, 8171, 8154, 8106,8.700658798217773
51, 8174, 8187, 8166, 8171, 8196, 8137, 8136, 8156, 8171, 8134, 8193, 8177, 8145, 8101,8.71620225906372
52, 8167, 8179, 8151, 8176, 8205, 8150, 8145, 8146, 8159, 8136, 8191, 8159, 8132, 8086,8.71620225906372
53, 8163, 8178, 8177, 8171, 8200, 8154, 8143, 8151, 8143, 8136, 8192, 8167, 8123, 8086,8.731389999389648
54, 8172, 8190, 8170, 8204, 8205, 8163, 8147, 8162, 8155, 8160, 8213, 8179, 8140, 8102,8.731389999389648
55, 8180, 8207, 8197, 8233, 8214, 8166, 8155, 8158, 8156, 8170, 8216, 8194, 8148, 8115,8.747012615203857
56, 8172, 8214, 8218, 8237, 8217, 8171, 8168, 8161, 8159, 8173, 8216, 8203, 8151, 8125,8.747012615203857
57, 8172, 8194, 8193, 8243, 8203, 8168, 8165, 8168, 8169, 8183, 8230, 8206, 8166, 8138,8.76274824142456
58, 8189, 8186, 8220, 8255, 8185, 8162, 8144, 8165, 8153, 8174, 8238, 8230, 8166, 8146,8.76274824142456
59, 8203, 8202, 8226, 8282, 8190, 8163, 8146, 8159, 8151, 8169, 8247, 8238, 8166, 8147,8.77762484550476
60, 8214, 8205, 8239, 8289, 8189, 8158, 8142, 8163, 8160, 8162, 8254, 8252, 8174, 8150,8.77762484550476
61, 8205, 8191, 8232, 8270, 8169, 8144, 8125, 8162, 8147, 8154, 8253, 8262, 8180, 8148,8.793227195739746
62, 8197, 8185, 8201, 8259, 8162, 8127, 8112, 8151, 8127, 8147, 8256, 8255, 8185, 8146,8.793227195739746
63, 8219, 8208, 8250, 8274, 8178, 8126, 8108, 8154, 8130, 8140, 8269, 8279, 8195, 8160,8.809017181396484
64, 8243, 8231, 8259, 8307, 8195, 8136, 8122, 8158, 8152, 8158, 8292, 8295, 8213, 8169,8.809017181396484
65, 8241, 8229, 8250, 8298, 8190, 8137, 8120, 8154, 8140, 8162, 8292, 8294, 8210, 8160,8.824846506118774
66, 8221, 8224, 8251, 8275, 8190, 8148, 8116, 8161, 8128, 8144, 8271, 8265, 8189, 8147,8.824846506118774
67, 8211, 8223, 8225, 8284, 8202, 8152, 8120, 8157, 8141, 8141, 8262, 8227, 8175, 8140,8.839975595474243
68, 8204, 8223, 8242, 8285, 8204, 8150, 8121, 8154, 8134, 8147, 8253, 8232, 8167, 8142,8.839975595474243
69, 8187, 8207, 8214, 8270, 8205, 8165, 8137, 8161, 8136, 8159, 8233, 8210, 8165, 8135,8.856046438217163
70, 8178, 8180, 8183, 8239, 8206, 8177, 8140, 8157, 8146, 8169, 8203, 8179, 8159, 8132,8.856046438217163
71, 8177, 8173, 8190, 8227, 8197, 8175, 8131, 8161, 8155, 8181, 8198, 8181, 8165, 8139,8.871957302093506
72, 8176, 8163, 8167, 8235, 8186, 8162, 8140, 8167, 8172, 8197, 8208, 8178, 8176, 8138,8.887972354888916
73, 8179, 8145, 8174, 8199, 8182, 8159, 8142, 8166, 8177, 8186, 8194, 8180, 8164, 8138,8.887972354888916
74, 8171, 8133, 8151, 8163, 8185, 8156, 8135, 8163, 8181, 8184, 8186, 8168, 8162, 8129,8.887972354888916
75, 8159, 8125, 8137, 8153, 8176, 8136, 8121, 8158, 8166, 8179, 8186, 8160, 8168, 8115,8.902527809143066
76, 8168, 8130, 8167, 8154, 8167, 8133, 8120, 8161, 8155, 8162, 8185, 8178, 8174, 8118,8.903529644012451
77, 8180, 8134, 8146, 8160, 8175, 8137, 8128, 8161, 8170, 8172, 8201, 8185, 8190, 8128,8.9185950756073
78, 8175, 8147, 8158, 8148, 8183, 8137, 8122, 8161, 8160, 8179, 8211, 8192, 8179, 8122,8.933619260787964
79, 8158, 8167, 8155, 8150, 8190, 8148, 8129, 8159, 8145, 8173, 8196, 8169, 8159, 8100,8.933619260787964
80, 8158, 8171, 8149, 8170, 8196, 8160, 8126, 8152, 8137, 8157, 8174, 8150, 8151, 8091,8.948827505111694
81, 8165, 8173, 8183, 8179, 8202, 8178, 8125, 8161, 8138, 8157, 8172, 8164, 8151, 8104,8.948827505111694
82, 8154, 8161, 8152, 8174, 8211, 8186, 8157, 8165, 8161, 8181, 8178, 8146, 8146, 8111,8.964265823364258
83, 8148, 8147, 8147, 8147, 8203, 8171, 8165, 8172, 8172, 8180, 8157, 8135, 8137, 8110,8.964265823364258
84, 8152, 8149, 8148, 8144, 8194, 8152, 8148, 8178, 8178, 8180, 8150, 8148, 8154, 8107,8.979084253311157
85, 8153, 8149, 8134, 8136, 8193, 8133, 8126, 8161, 8164, 8166, 8155, 8159, 8154, 8095,8.979084253311157
86, 8148, 8154, 8157, 8115, 8195, 8140, 8119, 8158, 8140, 8142, 8150, 8160, 8127, 8082,8.99460482597351
