COUNTER,F3,FC5,AF3,F7,T7,P7,O1,O2,P8,T8,F8,AF4,FC6,F4,Timestamp
13, 8244, 8147, 8173, 8160, 8159, 8163, 8130, 8162, 8150, 8153, 8150, 8175, 8167, 8094,0.02678823471069336
14, 8260, 8162, 8176, 8169, 8149, 8151, 8135, 8155, 8128, 8146, 8165, 8187, 8173, 8090,0.02678823471069336
15, 8274, 8180, 8207, 8171, 8149, 8153, 8128, 8149, 8103, 8109, 8173, 8202, 8154, 8092,0.042328596115112305
16, 8274, 8195, 8206, 8205, 8166, 8173, 8137, 8153, 8110, 8120, 8177, 8192, 8144, 8088,0.042328596115112305
17, 8271, 8199, 8228, 8221, 8165, 8185, 8149, 8157, 8113, 8143, 8174, 8197, 8146, 8094,0.05749320983886719
18, 8262, 8183, 8224, 8207, 8161, 8186, 8166, 8162, 8119, 8151, 8180, 8197, 8163, 8107,0.05749320983886719
19, 8262, 8168, 8204, 8209, 8169, 8178, 8171, 8164, 8137, 8161, 8189, 8192, 8177, 8113,0.07299470901489258
20, 8277, 8179, 8233, 8229, 8167, 8181, 8154, 8171, 8150, 8163, 8184, 8217, 8174, 8118,0.07299470901489258
21, 8287, 8175, 8214, 8226, 8152, 8177, 8148, 8165, 8165, 8162, 8195, 8227, 8184, 8127,0.08893060684204102
22, 8299, 8173, 8220, 8207, 8146, 8162, 8133, 8154, 8147, 8136, 8217, 8247, 8193, 8132,0.08893060684204102
23, 8305, 8208, 8245, 8246, 8170, 8178, 8135, 8160, 8122, 8124, 8220, 8249, 8186, 8124,0.10363483428955078
24, 8291, 8209, 8230, 8274, 8178, 8205, 8164, 8161, 8134, 8139, 8197, 8210, 8167, 8119,0.10363483428955078
25, 8269, 8175, 8220, 8226, 8148, 8196, 8165, 8162, 8149, 8136, 8176, 8203, 8155, 8125,0.1190800666809082
26, 8273, 8171, 8188, 8211, 8146, 8169, 8142, 8157, 8147, 8132, 8193, 8215, 8173, 8119,0.1190800666809082
27, 8296, 8190, 8206, 8221, 8163, 8164, 8125, 8149, 8124, 8130, 8213, 8226, 8184, 8112,0.135209321975708
28, 8283, 8194, 8218, 8216, 8158, 8178, 8131, 8152, 8122, 8133, 8205, 8209, 8172, 8114,0.135209321975708
29, 8248, 8168, 8177, 8212, 8146, 8190, 8142, 8153, 8139, 8143, 8180, 8176, 8156, 8104,0.151322603225708
30, 8236, 8143, 8166, 8184, 8146, 8191, 8145, 8162, 8153, 8150, 8150, 8161, 8144, 8094,0.151322603225708
31, 8231, 8130, 8124, 8146, 8144, 8184, 8156, 8169, 8179, 8156, 8139, 8138, 8149, 8086,0.16739654541015625
32, 8227, 8130, 8121, 8127, 8133, 8174, 8146, 8165, 8176, 8148, 8146, 8146, 8155, 8083,0.16739654541015625
33, 8241, 8154, 8159, 8144, 8142, 8171, 8142, 8165, 8155, 8149, 8174, 8171, 8165, 8091,0.18326544761657715
34, 8247, 8166, 8151, 8160, 8155, 8160, 8153, 8161, 8148, 8152, 8185, 8159, 8167, 8087,0.18326544761657715
35, 8230, 8169, 8166, 8146, 8146, 8161, 8143, 8163, 8136, 8139, 8163, 8156, 8144, 8078,0.1983799934387207
36, 8220, 8171, 8159, 8154, 8153, 8186, 8148, 8163, 8149, 8151, 8164, 8150, 8140, 8078,0.1983799934387207
37, 8233, 8165, 8158, 8164, 8165, 8194, 8160, 8158, 8162, 8158, 8167, 8148, 8143, 8085,0.2137284278869629
38, 8232, 8165, 8172, 8162, 8165, 8201, 8172, 8167, 8162, 8163, 8141, 8145, 8134, 8092,0.2137284278869629
39, 8218, 8153, 8137, 8157, 8158, 8200, 8179, 8168, 8168, 8180, 8121, 8121, 8129, 8091,0.22958731651306152
40, 8217, 8138, 8140, 8132, 8147, 8190, 8163, 8161, 8154, 8165, 8128, 8128, 8130, 8093,0.22958731651306152
41, 8217, 8136, 8126, 8116, 8143, 8182, 8160, 8160, 8145, 8154, 8138, 8128, 8140, 8088,0.24524331092834473
42, 8221, 8134, 8115, 8110, 8145, 8171, 8156, 8158, 8145, 8152, 8132, 8119, 8144, 8081,0.24524331092834473
43, 8230, 8138, 8136, 8112, 8152, 8174, 8146, 8169, 8155, 8152, 8137, 8132, 8151, 8082,0.2610898017883301
44, 8235, 8149, 8124, 8123, 8164, 8175, 8149, 8169, 8176, 8166, 8170, 8140, 8172, 8084,0.2610898017883301
45, 8234, 8167, 8152, 8124, 8170, 8172, 8152, 8169, 8167, 8159, 8177, 8152, 8166, 8082,0.2771317958831787
46, 8220, 8170, 8152, 8142, 8172, 8195, 8166, 8174, 8155, 8157, 8155, 8135, 8142, 8070,0.2771317958831787
47, 8205, 8148, 8126, 8136, 8168, 8208, 8171, 8162, 8152, 8162, 8128, 8112, 8127, 8065,0.2926778793334961
48, 8201, 8133, 8129, 8107, 8159, 8202, 8170, 8163, 8160, 8169, 8122, 8121, 8143, 8081,0.2926778793334961
49, 8208, 8131, 8117, 8118, 8160, 8192, 8177, 8174, 8186, 8189, 8139, 8122, 8174, 8092,0.30870699882507324
50, 8215, 8140, 8136, 8120, 8159, 8190, 8162, 8176, 8188, 8180, 8138, 8131, 8171, 8088,0.30870699882507324
51, 8214, 8146, 8127, 8108, 8158, 8186, 8151, 8169, 8185, 8169, 8142, 8134, 8179, 8082,0.3233625888824463
52, 8222, 8143, 8120, 8109, 8162, 8165, 8139, 8153, 8171, 8162, 8162, 8144, 8203, 8084,0.3233625888824463
53, 8230, 8159, 8160, 8123, 8170, 8173, 8139, 8154, 8148, 8156, 8165, 8153, 8197, 8081,0.3389127254486084
54, 8216, 8170, 8146, 8142, 8176, 8193, 8162, 8158, 8152, 8166, 8156, 8120, 8178, 8068,0.3389127254486084
55, 8207, 8163, 8151, 8132, 8170, 8184, 8159, 8153, 8144, 8150, 8145, 8113, 8166, 8066,0.35553407669067383
56, 8206, 8156, 8147, 8128, 8173, 8194, 8167, 8162, 8149, 8144, 8131, 8111, 8162, 8068,0.35553407669067383
57, 8189, 8135, 8113, 8127, 8172, 8206, 8185, 8174, 8181, 8164, 8102, 8081, 8155, 8058,0.3701965808868408
58, 8181, 8120, 8123, 8105, 8155, 8191, 8182, 8183, 8200, 8180, 8100, 8089, 8160, 8068,0.3701965808868408
59, 8194, 8120, 8113, 8101, 8147, 8178, 8179, 8181, 8207, 8189, 8128, 8107, 8187, 8086,0.38634490966796875
60, 8210, 8130, 8129, 8103, 8146, 8169, 8164, 8171, 8180, 8165, 8119, 8116, 8192, 8082,0.38634490966796875
61, 8213, 8144, 8145, 8106, 8148, 8160, 8147, 8157, 8145, 8134, 8107, 8114, 8181, 8062,0.4019277095794678
62, 8204, 8142, 8134, 8103, 8151, 8151, 8133, 8140, 8125, 8123, 8129, 8112, 8176, 8050,0.4019277095794678
63, 8203, 8151, 8161, 8103, 8155, 8150, 8125, 8149, 8114, 8121, 8130, 8121, 8165, 8056,0.41698217391967773
64, 8205, 8164, 8150, 8129, 8162, 8156, 8138, 8155, 8121, 8129, 8112, 8097, 8152, 8052,0.41698217391967773
65, 8200, 8154, 8152, 8136, 8165, 8168, 8147, 8147, 8117, 8130, 8101, 8091, 8134, 8052,0.4320361614227295
66, 8185, 8137, 8150, 8124, 8156, 8182, 8156, 8149, 8115, 8132, 8094, 8096, 8129, 8058,0.4320361614227295
67, 8183, 8126, 8113, 8109, 8145, 8169, 8153, 8144, 8123, 8139, 8084, 8079, 8132, 8053,0.4479811191558838
68, 8199, 8123, 8130, 8091, 8138, 8152, 8127, 8143, 8117, 8138, 8083, 8101, 8136, 8059,0.4479811191558838
69, 8208, 8123, 8128, 8104, 8141, 8139, 8119, 8155, 8118, 8137, 8114, 8118, 8157, 8076,0.46408629417419434
70, 8225, 8137, 8141, 8119, 8145, 8134, 8124, 8167, 8126, 8124, 8138, 8125, 8164, 8082,0.46408629417419434
71, 8230, 8153, 8159, 8116, 8154, 8163, 8140, 8178, 8142, 8123, 8132, 8121, 8146, 8071,0.47933006286621094
72, 8210, 8145, 8138, 8115, 8167, 8181, 8156, 8173, 8150, 8141, 8115, 8094, 8126, 8056,0.47933006286621094
73, 8194, 8139, 8153, 8114, 8163, 8176, 8153, 8166, 8130, 8138, 8101, 8087, 8109, 8052,0.49506473541259766
74, 8195, 8141, 8139, 8126, 8167, 8193, 8171, 8166, 8137, 8149, 8110, 8078, 8118, 8063,0.49506473541259766
75, 8221, 8142, 8143, 8126, 8169, 8206, 8184, 8165, 8151, 8158, 8123, 8089, 8138, 8087,0.5100898742675781
76, 8242, 8144, 8168, 8120, 8155, 8182, 8168, 8161, 8139, 8146, 8133, 8121, 8156, 8100,0.5100898742675781
77, 8245, 8142, 8150, 8124, 8146, 8144, 8140, 8149, 8123, 8135, 8156, 8137, 8165, 8103,0.5252394676208496
78, 8247, 8156, 8173, 8119, 8142, 8141, 8113, 8153, 8112, 8131, 8177, 8158, 8159, 8106,0.5404787063598633
79, 8246, 8173, 8177, 8140, 8156, 8160, 8112, 8163, 8131, 8152, 8187, 8152, 8164, 8097,0.5404787063598633
80, 8239, 8178, 8173, 8159, 8171, 8174, 8117, 8156, 8141, 8151, 8171, 8134, 8152, 8084,0.5560703277587891
81, 8217, 8171, 8172, 8150, 8165, 8187, 8129, 8153, 8124, 8127, 8136, 8114, 8113, 8072,0.5560703277587891
82, 8193, 8149, 8127, 8129, 8155, 8177, 8150, 8150, 8125, 8136, 8121, 8086, 8110, 8058,0.5715014934539795
83, 8198, 8140, 8129, 8104, 8148, 8163, 8151, 8156, 8135, 8154, 8130, 8105, 8134, 8069,0.5715014934539795
84, 8215, 8146, 8128, 8106, 8152, 8165, 8155, 8166, 8155, 8160, 8151, 8127, 8145, 8087,0.5715014934539795
85, 8217, 8157, 8137, 8114, 8162, 8156, 8158, 8162, 8152, 8152, 8164, 8130, 8134, 8079,0.5876226425170898
86, 8212, 8178, 8173, 8124, 8165, 8167, 8161, 8166, 8144, 8159, 8160, 8123, 8124, 8062,0.604180097579956
87, 8203, 8179, 8147, 8143, 8164, 8194, 8178, 8173, 8159, 8179, 8146, 8100, 8124, 8062,0.604180097579956
88, 8197, 8156, 8146, 8134, 8165, 8197, 8179, 8179, 8161, 8170, 8118, 8102, 8109, 8074,0.604180097579956
89, 8206, 8151, 8152, 8137, 8174, 8196, 8180, 8184, 8175, 8173, 8114, 8110, 8110, 8086,0.6192052364349365
90, 8233, 8162, 8153, 8148, 8174, 8185, 8175, 8176, 8192, 8177, 8140, 8122, 8135, 8096,0.6350843906402588
91, 8248, 8172, 8173, 8142, 8165, 8159, 8149, 8170, 8168, 8154, 8147, 8143, 8147, 8097,0.6350843906402588
92, 8231, 8166, 8141, 8141, 8163, 8143, 8134, 8158, 8137, 8138, 8125, 8121, 8135, 8070,0.6511459350585938
93, 8227, 8168, 8154, 8143, 8165, 8152, 8126, 8146, 8121, 8134, 8118, 8115, 8119, 8058,0.6511459350585938
94, 8240, 8185, 8173, 8164, 8177, 8179, 8138, 8155, 8129, 8164, 8148, 8128, 8135, 8075,0.6511459350585938
95, 8220, 8164, 8139, 8167, 8178, 8190, 8157, 8158, 8141, 8188, 8146, 8110, 8147, 8071,0.6657049655914307
96, 8192, 8137, 8122, 8134, 8161, 8190, 8168, 8162, 8160, 8179, 8113, 8092, 8141, 8061,0.6811220645904541
97, 8198, 8143, 8106, 8123, 8157, 8176, 8175, 8167, 8182, 8176, 8122, 8091, 8147, 8058,0.6811220645904541
98, 8218, 8161, 8142, 8125, 8158, 8156, 8155, 8160, 8146, 8151, 8132, 8110, 8137, 8056,0.6964766979217529
99, 8220, 8176, 8160, 8152, 8167, 8175, 8164, 8162, 8123, 8150, 8131, 8111, 8139, 8070,0.6964766979217529
100, 8223, 8163, 8135, 8163, 8167, 8191, 8192, 8170, 8159, 8194, 8139, 8106, 8167, 8090,0.7119951248168945
101, 8233, 8139, 8146, 8121, 8146, 8168, 8171, 8177, 8161, 8190, 8136, 8126, 8175, 8099,0.7119951248168945
102, 8232, 8138, 8129, 8108, 8136, 8146, 8139, 8167, 8129, 8149, 8131, 8120, 8167, 8089,0.7271738052368164
103, 8232, 8158, 8144, 8130, 8143, 8157, 8142, 8156, 8111, 8137, 8137, 8119, 8164, 8082,0.7271738052368164
104, 8230, 8157, 8158, 8145, 8152, 8180, 8175, 8167, 8133, 8169, 8144, 8122, 8177, 8092,0.7423362731933594
105, 8231, 8132, 8131, 8130, 8144, 8168, 8177, 8169, 8156, 8187, 8139, 8123, 8191, 8114,0.7423362731933594
106, 8245, 8140, 8156, 8105, 8132, 8154, 8142, 8165, 8143, 8163, 8141, 8155, 8194, 8118,0.7579631805419922
107, 8256, 8167, 8167, 8134, 8149, 8166, 8145, 8160, 8134, 8159, 8169, 8156, 8196, 8095,0.7579631805419922
108, 8264, 8176, 8182, 8176, 8171, 8184, 8166, 8158, 8139, 8180, 8179, 8149, 8192, 8099,0.773108959197998
109, 8252, 8164, 8182, 8174, 8179, 8195, 8173, 8168, 8165, 8201, 8167, 8155, 8192, 8121,0.773108959197998
110, 8238, 8141, 8145, 8143, 8171, 8174, 8160, 8167, 8175, 8199, 8165, 8149, 8199, 8110,0.7882740497589111
111, 8242, 8152, 8163, 8131, 8155, 8151, 8137, 8155, 8127, 8160, 8162, 8154, 8182, 8077,0.7882740497589111
112, 8238, 8171, 8152, 8142, 8159, 8157, 8138, 8146, 8106, 8145, 8160, 8140, 8164, 8057,0.8036074638366699
113, 8229, 8159, 8148, 8128, 8166, 8175, 8150, 8151, 8118, 8149, 8149, 8130, 8155, 8064,0.8036074638366699
114, 8221, 8149, 8167, 8137, 8165, 8193, 8168, 8165, 8131, 8159, 8119, 8130, 8156, 8071,0.8190021514892578
115, 8203, 8139, 8129, 8154, 8157, 8185, 8175, 8163, 8142, 8170, 8096, 8104, 8147, 8057,0.8190021514892578
116, 8199, 8119, 8121, 8116, 8138, 8159, 8157, 8166, 8143, 8158, 8095, 8101, 8126, 8060,0.8340837955474854
117, 8218, 8118, 8123, 8098, 8135, 8147, 8158, 8174, 8160, 8159, 8118, 8117, 8166, 8082,0.8340837955474854
118, 8239, 8139, 8140, 8113, 8145, 8143, 8149, 8167, 8163, 8163, 8143, 8145, 8225, 8091,0.8497135639190674
119, 8246, 8156, 8168, 8122, 8148, 8149, 8127, 8161, 8144, 8153, 8158, 8157, 8226, 8089,0.8497135639190674
120, 8245, 8157, 8161, 8149, 8158, 8159, 8136, 8158, 8141, 8153, 8158, 8133, 8201, 8082,0.8650462627410889
121, 8246, 8160, 8185, 8170, 8179, 8178, 8155, 8161, 8158, 8163, 8141, 8131, 8192, 8088,0.8650462627410889
122, 8228, 8149, 8163, 8160, 8180, 8190, 8165, 8166, 8178, 8183, 8133, 8115, 8196, 8088,0.8804051876068115
123, 8211, 8126, 8133, 8137, 8157, 8172, 8158, 8164, 8177, 8185, 8122, 8098, 8186, 8077,0.8804051876068115
124, 8224, 8129, 8151, 8128, 8153, 8167, 8157, 8180, 8187, 8184, 8123, 8121, 8193, 8090,0.8969237804412842
125, 8234, 8136, 8131, 8129, 8159, 8170, 8154, 8175, 8192, 8186, 8144, 8126, 8211, 8091,0.8969237804412842
126, 8224, 8138, 8143, 8115, 8145, 8156, 8127, 8151, 8151, 8154, 8144, 8122, 8186, 8064,0.9114811420440674
127, 8214, 8145, 8150, 8129, 8151, 8160, 8143, 8155, 8139, 8139, 8139, 8116, 8156, 8050,0.9114811420440674
237, 8207, 8136, 8134, 8144, 8163, 8180, 8169, 8163, 8147, 8139, 8129, 8097, 8139, 8052,0.9275071620941162
0, 8185, 8116, 8135, 8122, 8148, 8183, 8158, 8160, 8141, 8135, 8107, 8085, 8127, 8050,0.9275071620941162
1, 8182, 8109, 8114, 8124, 8144, 8176, 8174, 8166, 8171, 8176, 8115, 8087, 8148, 8065,0.9431648254394531
2, 8212, 8120, 8140, 8127, 8153, 8175, 8190, 8180, 8197, 8211, 8132, 8120, 8173, 8098,0.9431648254394531
3, 8218, 8125, 8142, 8110, 8145, 8170, 8170, 8178, 8195, 8197, 8133, 8122, 8179, 8101,0.958294153213501
4, 8216, 8127, 8122, 8099, 8138, 8151, 8142, 8160, 8185, 8169, 8141, 8115, 8180, 8089,0.9737193584442139
5, 8232, 8153, 8163, 8118, 8154, 8160, 8139, 8163, 8173, 8164, 8165, 8147, 8184, 8095,0.9737193584442139
6, 8244, 8172, 8165, 8153, 8171, 8176, 8152, 8161, 8168, 8174, 8181, 8147, 8183, 8091,0.990581750869751
7, 8232, 8160, 8166, 8137, 8162, 8166, 8142, 8151, 8153, 8162, 8168, 8137, 8165, 8080,0.990581750869751
8, 8214, 8146, 8164, 8126, 8162, 8171, 8148, 8159, 8155, 8168, 8155, 8130, 8162, 8081,0.990581750869751
9, 8214, 8144, 8150, 8147, 8173, 8184, 8176, 8165, 8174, 8187, 8143, 8115, 8163, 8084,1.0060381889343262
10, 8224, 8145, 8176, 8152, 8164, 8190, 8192, 8171, 8179, 8181, 8138, 8130, 8149, 8094,1.0060381889343262
11, 8218, 8134, 8159, 8140, 8148, 8183, 8191, 8175, 8188, 8186, 8154, 8139, 8153, 8099,1.0205206871032715
12, 8222, 8135, 8163, 8134, 8148, 8164, 8166, 8171, 8191, 8179, 8177, 8154, 8169, 8101,1.0363869667053223
13, 8250, 8168, 8194, 8177, 8162, 8157, 8150, 8171, 8184, 8169, 8219, 8190, 8189, 8108,1.0363869667053223
14, 8265, 8191, 8207, 8233, 8165, 8150, 8138, 8159, 8160, 8163, 8251, 8216, 8192, 8108,1.0519590377807617
15, 8271, 8207, 8248, 8247, 8153, 8143, 8117, 8146, 8126, 8143, 8250, 8230, 8177, 8106,1.0519590377807617
16, 8286, 8220, 8261, 8276, 8160, 8153, 8130, 8146, 8137, 8151, 8266, 8236, 8190, 8116,1.0672225952148438
17, 8311, 8229, 8296, 8327, 8176, 8165, 8151, 8152, 8149, 8162, 8294, 8274, 8208, 8143,1.0672225952148438
18, 8318, 8227, 8311, 8350, 8171, 8173, 8161, 8162, 8143, 8164, 8293, 8298, 8209, 8157,1.0829145908355713
19, 8302, 8203, 8268, 8328, 8153, 8173, 8164, 8164, 8145, 8176, 8285, 8282, 8211, 8153,1.0829145908355713
20, 8303, 8197, 8286, 8307, 8143, 8167, 8154, 8164, 8146, 8171, 8284, 8297, 8217, 8159,1.0985100269317627
21, 8331, 8220, 8302, 8335, 8157, 8156, 8150, 8168, 8158, 8168, 8308, 8318, 8239, 8174,1.0985100269317627
22, 8359, 8240, 8312, 8352, 8168, 8144, 8139, 8159, 8148, 8171, 8342, 8350, 8257, 8186,1.1141908168792725
23, 8344, 8250, 8320, 8356, 8167, 8154, 8128, 8149, 8114, 8152, 8331, 8352, 8237, 8172,1.1141908168792725
24, 8313, 8238, 8294, 8373, 8174, 8163, 8139, 8145, 8105, 8132, 8290, 8302, 8207, 8145,1.1299538612365723
25, 8316, 8221, 8309, 8363, 8177, 8164, 8159, 8159, 8127, 8147, 8276, 8298, 8196, 8152,1.1299538612365723
26, 8318, 8217, 8294, 8353, 8177, 8174, 8182, 8174, 8153, 8189, 8287, 8304, 8211, 8166,1.1454641819000244
27, 8299, 8200, 8259, 8330, 8168, 8168, 8181, 8165, 8145, 8182, 8261, 8283, 8210, 8156,1.1454641819000244
28, 8295, 8183, 8245, 8289, 8156, 8157, 8171, 8162, 8143, 8159, 8233, 8269, 8198, 8151,1.1610002517700195
29, 8306, 8186, 8219, 8274, 8158, 8151, 8165, 8164, 8162, 8170, 8248, 8260, 8207, 8153,1.1610002517700195
30, 8302, 8194, 8228, 8260, 8162, 8147, 8134, 8155, 8142, 8157, 8256, 8266, 8204, 8146,1.1770522594451904
31, 8287, 8187, 8202, 8241, 8168, 8146, 8121, 8144, 8121, 8136, 8249, 8250, 8194, 8128,1.1770522594451904
32, 8273, 8180, 8181, 8230, 8168, 8149, 8134, 8139, 8116, 8131, 8230, 8220, 8174, 8110,1.1921443939208984
33, 8258, 8193, 8201, 8232, 8168, 8165, 8154, 8152, 8116, 8139, 8207, 8202, 8152, 8112,1.1921443939208984
34, 8241, 8183, 8168, 8225, 8174, 8170, 8168, 8157, 8132, 8156, 8192, 8173, 8141, 8115,1.2076244354248047
35, 8232, 8156, 8155, 8195, 8168, 8164, 8169, 8154, 8130, 8158, 8168, 8155, 8130, 8102,1.2076244354248047
36, 8233, 8156, 8154, 8191, 8169, 8179, 8189, 8167, 8139, 8164, 8159, 8148, 8140, 8099,1.2232296466827393
37, 8245, 8164, 8146, 8190, 8174, 8186, 8202, 8176, 8172, 8174, 8174, 8157, 8156, 8121,1.2232296466827393
38, 8246, 8152, 8143, 8160, 8169, 8172, 8179, 8175, 8186, 8178, 8178, 8168, 8161, 8132,1.2389633655548096
39, 8227, 8133, 8106, 8136, 8164, 8155, 8144, 8157, 8165, 8172, 8167, 8149, 8160, 8103,1.2389633655548096
40, 8226, 8142, 8124, 8130, 8165, 8156, 8126, 8137, 8127, 8139, 8162, 8147, 8147, 8076,1.2544398307800293
41, 8236, 8159, 8138, 8144, 8175, 8165, 8153, 8150, 8126, 8132, 8176, 8146, 8143, 8074,1.2544398307800293
42, 8231, 8157, 8126, 8145, 8180, 8168, 8180, 8164, 8144, 8155, 8177, 8137, 8146, 8080,1.2701303958892822
43, 8216, 8155, 8148, 8136, 8172, 8178, 8181, 8168, 8136, 8152, 8153, 8132, 8129, 8084,1.2701303958892822
44, 8212, 8151, 8132, 8146, 8162, 8175, 8191, 8163, 8135, 8144, 8130, 8108, 8124, 8087,1.2864670753479004
45, 8229, 8145, 8133, 8135, 8160, 8170, 8198, 8164, 8150, 8153, 8134, 8122, 8153, 8106,1.2864670753479004
46, 8238, 8152, 8140, 8117, 8172, 8181, 8198, 8175, 8172, 8177, 8170, 8156, 8189, 8123,1.301971197128296
47, 8240, 8165, 8133, 8123, 8178, 8172, 8187, 8168, 8176, 8170, 8188, 8160, 8191, 8110,1.301971197128296
48, 8241, 8174, 8157, 8126, 8179, 8169, 8172, 8168, 8163, 8150, 8175, 8158, 8173, 8095,1.317969560623169
49, 8229, 8179, 8142, 8138, 8188, 8193, 8199, 8177, 8178, 8177, 8182, 8147, 8174, 8098,1.317969560623169
50, 8220, 8177, 8147, 8137, 8186, 8200, 8225, 8179, 8183, 8184, 8180, 8145, 8163, 8106,1.3340492248535156
51, 8211, 8172, 8148, 8127, 8176, 8201, 8233, 8186, 8176, 8162, 8146, 8128, 8145, 8096,1.3340492248535156
52, 8196, 8160, 8112, 8125, 8177, 8207, 8245, 8185, 8185, 8170, 8131, 8099, 8145, 8088,1.3493001461029053
53, 8195, 8159, 8134, 8122, 8177, 8204, 8248, 8182, 8186, 8188, 8134, 8113, 8145, 8098,1.3493001461029053
54, 8198, 8154, 8130, 8127, 8173, 8198, 8242, 8177, 8187, 8198, 8130, 8115, 8148, 8105,1.3655166625976562
55, 8198, 8136, 8118, 8109, 8167, 8182, 8212, 8172, 8186, 8188, 8124, 8111, 8150, 8105,1.3655166625976562
56, 8203, 8139, 8130, 8098, 8168, 8172, 8186, 8177, 8183, 8170, 8133, 8122, 8156, 8100,1.381119966506958
57, 8222, 8162, 8135, 8115, 8177, 8163, 8179, 8170, 8176, 8156, 8153, 8134, 8165, 8090,1.381119966506958
58, 8242, 8178, 8167, 8116, 8173, 8158, 8168, 8166, 8164, 8155, 8160, 8160, 8172, 8099,1.3963184356689453
59, 8238, 8175, 8155, 8119, 8173, 8158, 8175, 8173, 8179, 8175, 8169, 8154, 8185, 8107,1.3963184356689453
60, 8234, 8177, 8163, 8138, 8185, 8163, 8187, 8173, 8181, 8176, 8171, 8147, 8184, 8104,1.412360429763794
61, 8239, 8193, 8192, 8160, 8195, 8186, 8198, 8174, 8173, 8183, 8166, 8160, 8177, 8119,1.412360429763794
62, 8230, 8180, 8166, 8163, 8190, 8201, 8211, 8165, 8180, 8206, 8167, 8149, 8173, 8128,1.428145408630371
63, 8221, 8166, 8173, 8148, 8182, 8200, 8214, 8162, 8173, 8199, 8156, 8143, 8156, 8115,1.428145408630371
64, 8227, 8172, 8161, 8159, 8190, 8197, 8227, 8172, 8185, 8205, 8151, 8139, 8164, 8111,1.443659782409668
65, 8239, 8164, 8143, 8152, 8188, 8187, 8229, 8175, 8204, 8217, 8158, 8145, 8186, 8127,1.443659782409668
66, 8238, 8161, 8156, 8130, 8181, 8189, 8218, 8179, 8195, 8205, 8167, 8157, 8189, 8135,1.459390640258789
67, 8230, 8169, 8142, 8140, 8186, 8185, 8205, 8176, 8186, 8202, 8168, 8148, 8189, 8122,1.459390640258789
68, 8234, 8171, 8166, 8137, 8181, 8162, 8188, 8173, 8187, 8192, 8163, 8161, 8193, 8120,1.4755430221557617
69, 8227, 8168, 8152, 8125, 8174, 8151, 8194, 8170, 8189, 8179, 8174, 8160, 8193, 8117,1.4755430221557617
70, 8210, 8169, 8127, 8117, 8179, 8153, 8182, 8155, 8156, 8161, 8169, 8141, 8168, 8093,1.4906096458435059
71, 8209, 8188, 8158, 8123, 8185, 8164, 8167, 8153, 8127, 8148, 8156, 8140, 8148, 8082,1.4906096458435059
72, 8215, 8195, 8149, 8139, 8189, 8170, 8190, 8154, 8153, 8162, 8166, 8134, 8159, 8088,1.5060529708862305
73, 8221, 8193, 8162, 8141, 8195, 8172, 8199, 8156, 8160, 8167, 8167, 8145, 8152, 8098,1.5060529708862305
74, 8222, 8189, 8171, 8164, 8207, 8187, 8201, 8162, 8142, 8169, 8159, 8142, 8140, 8095,1.5220584869384766
75, 8219, 8178, 8160, 8174, 8204, 8195, 8217, 8163, 8139, 8171, 8150, 8127, 8141, 8092,1.5220584869384766
76, 8209, 8174, 8166, 8149, 8187, 8200, 8220, 8173, 8157, 8171, 8136, 8135, 8143, 8111,1.537261962890625
77, 8217, 8171, 8141, 8140, 8182, 8196, 8214, 8171, 8185, 8192, 8145, 8138, 8160, 8124,1.537261962890625
78, 8230, 8165, 8156, 8138, 8181, 8177, 8199, 8163, 8174, 8189, 8155, 8150, 8166, 8118,1.5524342060089111
79, 8217, 8164, 8151, 8134, 8179, 8171, 8195, 8172, 8169, 8180, 8153, 8145, 8165, 8111,1.5524342060089111
80, 8217, 8164, 8126, 8122, 8176, 8161, 8182, 8172, 8183, 8189, 8168, 8146, 8180, 8111,1.568291187286377
81, 8239, 8178, 8166, 8126, 8180, 8156, 8161, 8171, 8177, 8185, 8193, 8180, 8192, 8117,1.568291187286377
82, 8247, 8195, 8175, 8158, 8200, 8161, 8170, 8163, 8167, 8179, 8203, 8181, 8191, 8110,1.5833866596221924
83, 8234, 8189, 8172, 8149, 8199, 8163, 8171, 8156, 8141, 8168, 8174, 8160, 8167, 8091,1.5833866596221924
84, 8216, 8174, 8161, 8140, 8191, 8182, 8175, 8162, 8138, 8166, 8143, 8138, 8151, 8077,1.5993375778198242
85, 8210, 8172, 8148, 8164, 8201, 8204, 8193, 8157, 8159, 8177, 8140, 8130, 8154, 8090,1.5993375778198242
86, 8215, 8189, 8180, 8175, 8208, 8217, 8205, 8163, 8167, 8191, 8144, 8150, 8158, 8110,1.6143693923950195
87, 8215, 8183, 8167, 8178, 8202, 8209, 8216, 8178, 8191, 8216, 8149, 8140, 8175, 8108,1.6143693923950195
88, 8204, 8153, 8147, 8146, 8183, 8192, 8202, 8175, 8198, 8206, 8146, 8136, 8181, 8101,1.6304490566253662
89, 8201, 8151, 8132, 8105, 8172, 8184, 8191, 8173, 8195, 8197, 8152, 8152, 8182, 8093,1.6304490566253662
90, 8211, 8167, 8126, 8123, 8178, 8169, 8193, 8175, 8203, 8210, 8167, 8157, 8189, 8090,1.6461491584777832
91, 8227, 8173, 8168, 8150, 8184, 8172, 8188, 8180, 8196, 8203, 8164, 8168, 8189, 8109,1.6461491584777832
92, 8234, 8162, 8153, 8131, 8181, 8183, 8192, 8177, 8198, 8193, 8169, 8173, 8197, 8122,1.661283016204834
93, 8241, 8169, 8159, 8124, 8183, 8177, 8186, 8167, 8197, 8187, 8187, 8192, 8205, 8118,1.661283016204834
94, 8229, 8194, 8185, 8170, 8196, 8178, 8181, 8162, 8178, 8187, 8191, 8187, 8198, 8098,1.67702054977417
95, 8217, 8199, 8161, 8193, 8207, 8185, 8187, 8158, 8170, 8183, 8176, 8152, 8176, 8085,1.67702054977417
96, 8231, 8206, 8186, 8193, 8214, 8195, 8189, 8170, 8178, 8186, 8170, 8160, 8171, 8103,1.6920979022979736
97, 8220, 8206, 8175, 8214, 8223, 8211, 8203, 8172, 8197, 8214, 8179, 8158, 8187, 8113,1.6920979022979736
98, 8200, 8177, 8147, 8199, 8215, 8216, 8210, 8159, 8197, 8208, 8163, 8139, 8172, 8105,1.7081217765808105
99, 8209, 8163, 8151, 8177, 8205, 8210, 8214, 8167, 8199, 8198, 8149, 8140, 8155, 8114,1.7081217765808105
100, 8211, 8159, 8129, 8180, 8209, 8199, 8213, 8177, 8215, 8217, 8156, 8135, 8174, 8120,1.7241482734680176
101, 8202, 8152, 8131, 8156, 8204, 8185, 8191, 8177, 8205, 8205, 8136, 8133, 8170, 8107,1.7241482734680176
102, 8203, 8156, 8123, 8153, 8201, 8173, 8182, 8172, 8201, 8197, 8129, 8129, 8161, 8102,1.7401797771453857
103, 8212, 8165, 8129, 8160, 8200, 8164, 8177, 8165, 8197, 8205, 8157, 8141, 8180, 8115,1.7401797771453857
104, 8215, 8171, 8147, 8150, 8198, 8170, 8173, 8172, 8187, 8194, 8180, 8160, 8185, 8121,1.75506591796875
105, 8210, 8171, 8127, 8157, 8206, 8175, 8183, 8166, 8187, 8180, 8182, 8150, 8171, 8110,1.75506591796875
106, 8211, 8180, 8152, 8164, 8197, 8171, 8176, 8156, 8181, 8168, 8170, 8155, 8157, 8101,1.7711095809936523
107, 8213, 8185, 8159, 8177, 8187, 8178, 8173, 8159, 8172, 8174, 8170, 8152, 8159, 8102,1.7711095809936523
108, 8209, 8170, 8143, 8180, 8194, 8189, 8185, 8157, 8151, 8181, 8165, 8138, 8151, 8106,1.787226915359497
109, 8196, 8156, 8137, 8156, 8191, 8192, 8194, 8167, 8165, 8189, 8146, 8135, 8135, 8107,1.787226915359497
110, 8192, 8151, 8104, 8141, 8169, 8176, 8192, 8180, 8145, 8190, 8137, 8122, 8144, 8103,1.8020422458648682
111, 8205, 8165, 8131, 8144, 8169, 8162, 8171, 8174, 7957, 8159, 8147, 8138, 8148, 8099,1.8183517456054688
112, 8208, 8185, 8153, 8170, 8200, 8179, 8166, 8168, 7761, 8157, 8176, 8152, 8152, 8096,1.8183517456054688
113, 8204, 8184, 8143, 8190, 8204, 8189, 8171, 8163, 7683, 8173, 8182, 8145, 8151, 8095,1.8183517456054688
114, 8192, 8173, 8152, 8188, 8185, 8192, 8181, 8166, 7656, 8172, 8154, 8140, 8139, 8102,1.8333866596221924
115, 8184, 8161, 8130, 8178, 8185, 8192, 8195, 8166, 7662, 8178, 8140, 8129, 8141, 8106,1.8333866596221924
116, 8197, 8157, 8138, 8153, 8181, 8168, 8164, 8161, 7664, 8161, 8152, 8150, 8148, 8107,1.8495090007781982
117, 8209, 8174, 8151, 8159, 8183, 8154, 8141, 8163, 7650, 8141, 8181, 8175, 8167, 8107,1.8495090007781982
118, 8209, 8194, 8163, 8191, 8205, 8175, 8157, 8158, 7652, 8150, 8190, 8172, 8174, 8101,1.865121841430664
119, 8211, 8197, 8188, 8198, 8213, 8199, 8173, 8159, 7666, 8165, 8161, 8152, 8153, 8099,1.8810226917266846
120, 8210, 8171, 8144, 8177, 8201, 8185, 8179, 8162, 7688, 8181, 8143, 8122, 8152, 8103,1.8810226917266846
121, 8214, 8149, 8135, 8139, 8185, 8163, 8162, 8162, 7706, 8172, 8144, 8135, 8161, 8106,1.8810226917266846
122, 8220, 8165, 8147, 8140, 8184, 8176, 8163, 8169, 7724, 8152, 8148, 8151, 8168, 8101,1.8960685729980469
123, 8230, 8186, 8146, 8167, 8195, 8186, 8180, 8163, 7733, 8156, 8170, 8154, 8180, 8100,1.8960685729980469
124, 8241, 8193, 8174, 8161, 8201, 8184, 8179, 8165, 7732, 8160, 8192, 8171, 8180, 8111,1.9128503799438477
125, 8228, 8189, 8155, 8159, 8202, 8186, 8181, 8171, 7737, 8161, 8193, 8152, 8171, 8106,1.9128503799438477
126, 8214, 8188, 8159, 8166, 8200, 8199, 8189, 8166, 7730, 8162, 8177, 8138, 8160, 8103,1.927126407623291
127, 8215, 8191, 8174, 8176, 8205, 8213, 8196, 8158, 7728, 8169, 8174, 8144, 8161, 8114,1.942265510559082
237, 8217, 8173, 8151, 8176, 8209, 8203, 8196, 8157, 7749, 8178, 8185, 8144, 8166, 8115,1.942265510559082
0, 8218, 8159, 8163, 8159, 8200, 8198, 8198, 8171, 7773, 8187, 8186, 8158, 8171, 8120,1.9579906463623047
1, 8211, 8149, 8140, 8154, 8184, 8200, 8206, 8169, 7793, 8199, 8171, 8143, 8179, 8115,1.9579906463623047
2, 8200, 8136, 8129, 8139, 8178, 8186, 8191, 8158, 7793, 8185, 8153, 8127, 8172, 8104,1.973146915435791
3, 8210, 8137, 8148, 8133, 8196, 8188, 8187, 8172, 7813, 8197, 8183, 8153, 8190, 8120,1.973146915435791
4, 8238, 8148, 8145, 8148, 8203, 8188, 8190, 8174, 7834, 8219, 8236, 8180, 8222, 8136,1.9892711639404297
5, 8248, 8164, 8172, 8148, 8189, 8178, 8171, 8167, 7810, 8187, 8237, 8189, 8215, 8126,1.9892711639404297
6, 8241, 8173, 8171, 8161, 8199, 8178, 8168, 8167, 7811, 8175, 8222, 8174, 8202, 8113,2.01119065284729
7, 8233, 8172, 8168, 8164, 8205, 8176, 8172, 8160, 7828, 8181, 8218, 8175, 8196, 8109,2.01119065284729
8, 8222, 8178, 8170, 8159, 8199, 8186, 8180, 8164, 7828, 8178, 8209, 8174, 8186, 8099,2.01119065284729
9, 8214, 8185, 8153, 8177, 8209, 8196, 8189, 8165, 7827, 8182, 8193, 8144, 8175, 8088,2.0212981700897217
10, 8206, 8176, 8168, 8180, 8205, 8194, 8182, 8160, 7827, 8178, 8169, 8131, 8153, 8086,2.038395881652832
11, 8190, 8152, 8140, 8168, 8195, 8206, 8197, 8166, 7852, 8182, 8161, 8117, 8146, 8084,2.038395881652832
12, 8196, 8144, 8130, 8159, 8201, 8220, 8212, 8172, 7880, 8188, 8161, 8119, 8153, 8097,2.039395570755005
13, 8211, 8153, 8154, 8158, 8200, 8218, 8203, 8181, 7898, 8196, 8159, 8139, 8161, 8114,2.052947759628296
14, 8205, 8145, 8130, 8156, 8195, 8209, 8200, 8181, 7915, 8212, 8168, 8135, 8168, 8110,2.0682826042175293
15, 8210, 8142, 8146, 8145, 8196, 8203, 8204, 8178, 7920, 8219, 8183, 8154, 8172, 8116,2.0682826042175293
16, 8230, 8160, 8154, 8156, 8195, 8195, 8206, 8174, 7931, 8228, 8203, 8170, 8185, 8128,2.0838842391967773
17, 8237, 8169, 8152, 8161, 8192, 8179, 8180, 8160, 7920, 8206, 8205, 8168, 8184, 8114,2.0838842391967773
18, 8225, 8176, 8174, 8149, 8198, 8175, 8155, 8160, 7900, 8173, 8202, 8171, 8170, 8102,2.0993857383728027
19, 8220, 8179, 8158, 8157, 8198, 8172, 8169, 8162, 7907, 8182, 8215, 8165, 8173, 8108,2.0993857383728027
20, 8223, 8180, 8175, 8163, 8186, 8173, 8174, 8158, 7895, 8176, 8205, 8168, 8159, 8111,2.1155331134796143
21, 8215, 8181, 8175, 8176, 8185, 8192, 8182, 8160, 7896, 8169, 8176, 8150, 8136, 8109,2.1155331134796143
22, 8218, 8166, 8154, 8174, 8183, 8185, 8192, 8161, 7926, 8195, 8159, 8138, 8139, 8116,2.13151216506958
23, 8241, 8160, 8169, 8159, 8179, 8175, 8195, 8179, 7954, 8223, 8175, 8173, 8168, 8137,2.13151216506958
24, 8248, 8170, 8156, 8161, 8191, 8189, 8202, 8187, 7986, 8236, 8209, 8193, 8198, 8146,2.146282911300659
25, 8243, 8179, 8168, 8156, 8192, 8186, 8185, 8177, 7989, 8217, 8214, 8200, 8197, 8145,2.146282911300659
26, 8238, 8179, 8163, 8158, 8182, 8170, 8167, 8171, 7972, 8199, 8200, 8190, 8184, 8128,2.161384105682373
27, 8223, 8172, 8146, 8155, 8176, 8165, 8155, 8161, 7951, 8181, 8197, 8176, 8169, 8100,2.161384105682373
28, 8217, 8185, 8181, 8148, 8178, 8180, 8155, 8162, 7943, 8170, 8211, 8197, 8167, 8097,2.1769793033599854
29, 8221, 8199, 8177, 8174, 8192, 8191, 8177, 8164, 7969, 8188, 8214, 8192, 8172, 8107,2.1769793033599854
30, 8213, 8192, 8177, 8185, 8192, 8196, 8190, 8163, 7978, 8186, 8179, 8175, 8141, 8101,2.192434072494507
31, 8202, 8183, 8174, 8187, 8186, 8211, 8201, 8167, 7979, 8182, 8161, 8167, 8125, 8099,2.192434072494507
32, 8211, 8176, 8163, 8202, 8187, 8211, 8204, 8165, 7989, 8200, 8175, 8171, 8147, 8116,2.2083144187927246
33, 8217, 8171, 8180, 8199, 8179, 8208, 8199, 8171, 7994, 8208, 8170, 8175, 8147, 8125,2.2083144187927246
34, 8206, 8161, 8143, 8190, 8175, 8206, 8205, 8170, 8011, 8203, 8159, 8149, 8138, 8114,2.224332809448242
35, 8216, 8161, 8139, 8180, 8176, 8195, 8195, 8165, 8015, 8189, 8158, 8153, 8140, 8113,2.224332809448242
36, 8225, 8171, 8155, 8172, 8171, 8184, 8179, 8172, 8012, 8184, 8165, 8170, 8152, 8120,2.239539861679077
37, 8223, 8168, 8137, 8168, 8161, 8166, 8163, 8164, 8007, 8172, 8178, 8168, 8164, 8117,2.239539861679077
38, 8234, 8173, 8166, 8165, 8163, 8172, 8151, 8154, 7994, 8155, 8179, 8182, 8162, 8115,2.2554147243499756
39, 8238, 8185, 8161, 8178, 8171, 8185, 8158, 8150, 7995, 8167, 8181, 8175, 8161, 8105,2.2554147243499756
40, 8231, 8193, 8164, 8188, 8173, 8183, 8160, 8151, 7988, 8167, 8185, 8168, 8153, 8104,2.271019697189331
41, 8231, 8196, 8189, 8208, 8185, 8211, 8178, 8167, 8000, 8173, 8186, 8176, 8153, 8126,2.271019697189331
42, 8237, 8178, 8168, 8209, 8194, 8228, 8203, 8169, 8038, 8212, 8188, 8169, 8170, 8139,2.286259651184082
43, 8240, 8165, 8167, 8170, 8175, 8198, 8183, 8167, 8046, 8215, 8187, 8180, 8172, 8131,2.286259651184082
44, 8239, 8186, 8168, 8188, 8174, 8180, 8167, 8169, 8041, 8192, 8206, 8190, 8175, 8120,2.301267623901367
45, 8241, 8213, 8191, 8227, 8198, 8199, 8176, 8163, 8040, 8183, 8226, 8205, 8183, 8122,2.301267623901367
46, 8232, 8219, 8204, 8226, 8212, 8224, 8192, 8163, 8043, 8197, 8216, 8201, 8180, 8118,2.316974639892578
47, 8225, 8209, 8177, 8231, 8210, 8228, 8211, 8168, 8058, 8208, 8201, 8177, 8178, 8118,2.316974639892578
48, 8235, 8207, 8195, 8232, 8203, 8225, 8215, 8179, 8072, 8202, 8194, 8189, 8179, 8141,2.332162618637085
49, 8235, 8200, 8174, 8220, 8203, 8228, 8215, 8176, 8097, 8213, 8194, 8184, 8192, 8146,2.332162618637085
50, 8230, 8183, 8160, 8207, 8201, 8228, 8213, 8165, 8111, 8229, 8195, 8176, 8196, 8137,2.347843885421753
51, 8237, 8180, 8183, 8207, 8196, 8223, 8211, 8173, 8109, 8228, 8198, 8193, 8194, 8150,2.347843885421753
52, 8234, 8171, 8154, 8194, 8187, 8207, 8205, 8168, 8105, 8212, 8193, 8182, 8196, 8146,2.3633506298065186
53, 8227, 8166, 8159, 8171, 8176, 8190, 8177, 8156, 8087, 8179, 8179, 8175, 8195, 8122,2.3633506298065186
54, 8246, 8193, 8182, 8192, 8184, 8190, 8172, 8168, 8097, 8191, 8211, 8195, 8216, 8129,2.378978967666626
55, 8269, 8218, 8198, 8211, 8198, 8193, 8178, 8171, 8107, 8211, 8243, 8218, 8227, 8150,2.378978967666626
56, 8254, 8216, 8209, 8203, 8204, 8207, 8181, 8160, 8086, 8190, 8222, 8210, 8205, 8140,2.395035743713379
57, 8232, 8193, 8175, 8203, 8200, 8220, 8193, 8154, 8077, 8180, 8191, 8167, 8179, 8116,2.395035743713379
58, 8226, 8185, 8182, 8201, 8189, 8217, 8192, 8157, 8078, 8186, 8175, 8162, 8165, 8114,2.4110777378082275
59, 8218, 8186, 8178, 8211, 8190, 8223, 8202, 8164, 8096, 8203, 8186, 8172, 8176, 8120,2.4110777378082275
60, 8214, 8170, 8158, 8202, 8191, 8231, 8206, 8160, 8112, 8212, 8197, 8164, 8186, 8121,2.4260640144348145
61, 8223, 8162, 8172, 8174, 8183, 8225, 8195, 8170, 8117, 8210, 8191, 8171, 8185, 8134,2.4260640144348145
62, 8234, 8168, 8156, 8181, 8187, 8204, 8193, 8170, 8133, 8213, 8194, 8182, 8195, 8141,2.441237688064575
63, 8246, 8183, 8172, 8191, 8188, 8194, 8183, 8159, 8133, 8194, 8208, 8204, 8196, 8140,2.441237688064575
64, 8247, 8202, 8185, 8194, 8182, 8207, 8179, 8161, 8128, 8188, 8218, 8202, 8195, 8138,2.457125186920166
65, 8241, 8211, 8184, 8204, 8188, 8211, 8182, 8158, 8119, 8199, 8213, 8192, 8193, 8130,2.457125186920166
66, 8244, 8214, 8211, 8213, 8203, 8225, 8195, 8163, 8115, 8201, 8201, 8203, 8179, 8132,2.472691774368286
67, 8238, 8201, 8176, 8218, 8202, 8246, 8219, 8170, 8140, 8209, 8190, 8181, 8170, 8137,2.472691774368286
68, 8232, 8186, 8165, 8197, 8184, 8236, 8212, 8171, 8149, 8205, 8170, 8175, 8163, 8142,2.4879138469696045
69, 8237, 8182, 8177, 8187, 8181, 8218, 8205, 8175, 8148, 8208, 8172, 8190, 8178, 8145,2.4879138469696045
70, 8247, 8183, 8167, 8192, 8191, 8204, 8205, 8172, 8155, 8215, 8193, 8195, 8197, 8141,2.5040032863616943
71, 8254, 8202, 8194, 8191, 8191, 8208, 8197, 8174, 8149, 8205, 8206, 8209, 8198, 8136,2.5201053619384766
72, 8244, 8217, 8189, 8206, 8194, 8222, 8200, 8171, 8152, 8205, 8218, 8203, 8203, 8134,2.5201053619384766
73, 8233, 8217, 8198, 8217, 8196, 8222, 8201, 8165, 8150, 8200, 8210, 8196, 8189, 8133,2.5201053619384766
74, 8237, 8222, 8209, 8225, 8204, 8227, 8211, 8176, 8154, 8209, 8206, 8196, 8181, 8134,2.5352020263671875
75, 8248, 8215, 8191, 8228, 8208, 8235, 8226, 8179, 8175, 8240, 8225, 8202, 8211, 8153,2.5352020263671875
76, 8249, 8203, 8204, 8213, 8193, 8237, 8221, 8180, 8183, 8236, 8222, 8215, 8227, 8174,2.551189661026001
77, 8237, 8199, 8174, 8205, 8180, 8220, 8206, 8179, 8191, 8219, 8196, 8192, 8216, 8156,2.551189661026001
78, 8232, 8188, 8163, 8180, 8173, 8193, 8183, 8172, 8187, 8218, 8186, 8194, 8209, 8141,2.5663321018218994
79, 8232, 8184, 8174, 8157, 8172, 8192, 8179, 8173, 8182, 8222, 8207, 8218, 8214, 8149,2.5663321018218994
80, 8231, 8196, 8163, 8170, 8178, 8196, 8187, 8164, 8177, 8202, 8221, 8208, 8204, 8135,2.5823211669921875
81, 8225, 8209, 8191, 8187, 8181, 8196, 8176, 8154, 8151, 8178, 8201, 8199, 8180, 8115,2.5823211669921875
82, 8212, 8204, 8183, 8211, 8182, 8210, 8189, 8160, 8151, 8203, 8192, 8184, 8184, 8120,2.5981314182281494
83, 8217, 8195, 8181, 8211, 8181, 8220, 8206, 8166, 8161, 8218, 8192, 8187, 8191, 8136,2.6143269538879395
84, 8223, 8192, 8192, 8187, 8177, 8221, 8205, 8166, 8164, 8207, 8178, 8193, 8185, 8142,2.6143269538879395
85, 8209, 8174, 8156, 8176, 8165, 8211, 8198, 8156, 8170, 8210, 8159, 8168, 8176, 8128,2.6143269538879395
86, 8200, 8169, 8159, 8165, 8159, 8200, 8180, 8159, 8164, 8203, 8155, 8177, 8168, 8119,2.629425525665283
87, 8212, 8185, 8161, 8166, 8172, 8191, 8184, 8169, 8173, 8193, 8179, 8201, 8193, 8128,2.629425525665283
88, 8226, 8186, 8166, 8164, 8172, 8172, 8186, 8165, 8176, 8185, 8197, 8213, 8211, 8134,2.645016670227051
89, 8217, 8183, 8177, 8159, 8157, 8176, 8169, 8162, 8165, 8188, 8191, 8214, 8201, 8127,2.645016670227051
90, 8206, 8195, 8160, 8171, 8167, 8191, 8164, 8159, 8170, 8203, 8196, 8206, 8197, 8115,2.6607823371887207
91, 8212, 8210, 8190, 8181, 8182, 8192, 8165, 8156, 8174, 8193, 8199, 8209, 8184, 8111,2.6760854721069336
92, 8214, 8210, 8193, 8198, 8180, 8204, 8179, 8157, 8185, 8197, 8190, 8191, 8170, 8109,2.6760854721069336
93, 8207, 8201, 8176, 8202, 8177, 8217, 8184, 8152, 8190, 8203, 8177, 8178, 8163, 8109,2.692044258117676
94, 8190, 8196, 8184, 8188, 8179, 8222, 8177, 8157, 8187, 8198, 8168, 8184, 8159, 8108,2.692044258117676
95, 8180, 8185, 8161, 8190, 8176, 8217, 8192, 8163, 8202, 8213, 8169, 8175, 8165, 8110,2.692044258117676
96, 8195, 8193, 8183, 8195, 8170, 8217, 8209, 8173, 8215, 8226, 8169, 8187, 8172, 8133,2.7072582244873047
97, 8212, 8210, 8190, 8205, 8174, 8218, 8216, 8183, 8233, 8238, 8184, 8202, 8187, 8143,2.722686529159546
98, 8220, 8206, 8177, 8204, 8169, 8199, 8202, 8175, 8231, 8226, 8201, 8217, 8193, 8132,2.722686529159546
99, 8228, 8217, 8204, 8203, 8168, 8189, 8184, 8168, 8202, 8186, 8208, 8233, 8182, 8129,2.7378766536712646
100, 8234, 8242, 8206, 8236, 8184, 8198, 8185, 8161, 8195, 8180, 8221, 8217, 8179, 8118,2.7378766536712646
101, 8247, 8255, 8238, 8260, 8182, 8203, 8182, 8159, 8201, 8192, 8234, 8237, 8184, 8120,2.753488540649414
102, 8250, 8252, 8247, 8281, 8177, 8205, 8181, 8167, 8206, 8188, 8247, 8256, 8192, 8140,2.753488540649414
103, 8238, 8236, 8220, 8290, 8181, 8207, 8187, 8161, 8198, 8181, 8236, 8234, 8187, 8147,2.7691659927368164
104, 8245, 8234, 8242, 8290, 8178, 8217, 8204, 8169, 8200, 8199, 8213, 8237, 8180, 8149,2.7691659927368164
105, 8252, 8241, 8235, 8306, 8168, 8214, 8218, 8170, 8218, 8216, 8222, 8250, 8191, 8159,2.7842607498168945
106, 8251, 8233, 8232, 8296, 8163, 8194, 8195, 8157, 8217, 8196, 8236, 8270, 8202, 8171,2.7842607498168945
107, 8253, 8235, 8224, 8281, 8168, 8190, 8178, 8163, 8223, 8195, 8245, 8280, 8214, 8166,2.7994329929351807
108, 8249, 8256, 8216, 8290, 8176, 8196, 8174, 8161, 8224, 8203, 8249, 8267, 8208, 8144,2.7994329929351807
109, 8230, 8259, 8235, 8277, 8173, 8197, 8161, 8150, 8187, 8165, 8229, 8247, 8170, 8120,2.8154678344726562
110, 8210, 8239, 8204, 8264, 8172, 8197, 8165, 8150, 8173, 8143, 8207, 8214, 8152, 8108,2.8154678344726562
111, 8218, 8238, 8208, 8270, 8175, 8204, 8174, 8161, 8191, 8177, 8200, 8218, 8164, 8127,2.8313729763031006
112, 8229, 8243, 8222, 8278, 8177, 8222, 8191, 8174, 8222, 8225, 8209, 8228, 8187, 8150,2.8313729763031006
113, 8221, 8217, 8188, 8256, 8167, 8217, 8202, 8178, 8243, 8234, 8210, 8209, 8195, 8147,2.847384452819824
114, 8211, 8198, 8189, 8216, 8151, 8205, 8191, 8180, 8232, 8210, 8196, 8212, 8186, 8144,2.847384452819824
115, 8207, 8207, 8170, 8211, 8160, 8206, 8191, 8174, 8236, 8213, 8205, 8213, 8194, 8144,2.86303973197937
116, 8215, 8218, 8172, 8209, 8177, 8200, 8183, 8166, 8233, 8208, 8223, 8220, 8199, 8130,2.86303973197937
117, 8218, 8231, 8188, 8205, 8185, 8202, 8177, 8167, 8215, 8188, 8218, 8221, 8189, 8120,2.8781161308288574
118, 8214, 8235, 8175, 8221, 8184, 8200, 8184, 8153, 8211, 8186, 8212, 8198, 8178, 8119,2.8781161308288574
119, 8212, 8237, 8203, 8227, 8182, 8203, 8182, 8150, 8207, 8187, 8208, 8193, 8165, 8125,2.893501043319702
120, 8211, 8237, 8195, 8233, 8188, 8224, 8200, 8163, 8216, 8202, 8196, 8180, 8168, 8132,2.893501043319702
121, 8219, 8223, 8185, 8217, 8180, 8221, 8206, 8164, 8221, 8212, 8184, 8179, 8182, 8142,2.9093921184539795
122, 8225, 8215, 8192, 8198, 8165, 8200, 8189, 8167, 8225, 8212, 8197, 8197, 8197, 8149,2.9093921184539795
123, 8223, 8218, 8174, 8199, 8169, 8189, 8178, 8169, 8229, 8207, 8217, 8198, 8202, 8137,2.9254016876220703
124, 8218, 8230, 8201, 8197, 8183, 8202, 8176, 8166, 8213, 8174, 8208, 8204, 8192, 8122,2.9254016876220703
125, 8205, 8227, 8193, 8206, 8193, 8226, 8200, 8168, 8220, 8177, 8198, 8185, 8191, 8121,2.9414761066436768
126, 8198, 8202, 8171, 8199, 8190, 8234, 8225, 8176, 8243, 8213, 8192, 8167, 8193, 8132,2.9414761066436768
127, 8201, 8190, 8167, 8183, 8183, 8228, 8231, 8187, 8256, 8222, 8183, 8167, 8193, 8134,2.9567418098449707
237, 8201, 8191, 8139, 8176, 8179, 8208, 8210, 8172, 8252, 8197, 8179, 8159, 8192, 8118,2.9567418098449707
0, 8199, 8204, 8168, 8166, 8173, 8195, 8183, 8161, 8230, 8179, 8181, 8175, 8181, 8112,2.972447633743286
1, 8197, 8218, 8181, 8184, 8180, 8204, 8203, 8168, 8232, 8198, 8191, 8175, 8182, 8118,2.972447633743286
2, 8191, 8203, 8163, 8196, 8178, 8200, 8212, 8163, 8243, 8202, 8177, 8157, 8184, 8122,2.988034963607788
3, 8179, 8188, 8171, 8178, 8156, 8186, 8179, 8168, 8254, 8204, 8161, 8164, 8188, 8123,2.988034963607788
4, 8190, 8201, 8165, 8170, 8156, 8180, 8160, 8170, 8268, 8217, 8185, 8185, 8211, 8129,3.0037055015563965
5, 8209, 8227, 8200, 8181, 8176, 8187, 8157, 8161, 8239, 8188, 8201, 8201, 8208, 8136,3.0037055015563965
6, 8196, 8227, 8200, 8204, 8181, 8205, 8173, 8160, 8222, 8181, 8183, 8165, 8190, 8127,3.019406795501709
7, 8183, 8211, 8175, 8204, 8178, 8211, 8190, 8165, 8240, 8212, 8161, 8136, 8185, 8115,3.019406795501709
8, 8202, 8215, 8196, 8198, 8184, 8218, 8202, 8178, 8245, 8221, 8163, 8161, 8193, 8132,3.0356273651123047
9, 8210, 8208, 8178, 8200, 8181, 8219, 8213, 8174, 8242, 8217, 8179, 8167, 8207, 8148,3.0356273651123047
10, 8199, 8195, 8176, 8167, 8158, 8201, 8193, 8161, 8239, 8204, 8165, 8160, 8195, 8144,3.0515575408935547
11, 8202, 8209, 8174, 8163, 8164, 8191, 8183, 8167, 8259, 8209, 8156, 8156, 8195, 8138,3.0515575408935547
12, 8217, 8218, 8167, 8185, 8181, 8184, 8177, 8166, 8256, 8210, 8175, 8168, 8205, 8140,3.0663504600524902
13, 8219, 8220, 8189, 8162, 8167, 8177, 8156, 8158, 8219, 8177, 8177, 8189, 8189, 8138,3.0663504600524902
14, 8206, 8218, 8162, 8143, 8158, 8170, 8155, 8148, 8210, 8157, 8172, 8166, 8176, 8119,3.0820467472076416
15, 8191, 8218, 8168, 8152, 8164, 8172, 8156, 8146, 8201, 8143, 8163, 8155, 8165, 8099,3.0820467472076416
16, 8180, 8221, 8179, 8163, 8169, 8189, 8165, 8155, 8200, 8141, 8159, 8156, 8154, 8086,3.097280263900757
17, 8186, 8217, 8167, 8159, 8169, 8187, 8174, 8157, 8214, 8157, 8163, 8147, 8152, 8094,3.097280263900757
18, 8198, 8217, 8190, 8154, 8165, 8190, 8168, 8166, 8215, 8167, 8167, 8158, 8159, 8118,3.112400770187378
19, 8186, 8216, 8178, 8179, 8171, 8206, 8180, 8167, 8223, 8182, 8171, 8156, 8168, 8127,3.112400770187378
20, 8187, 8209, 8184, 8177, 8172, 8212, 8191, 8167, 8232, 8197, 8162, 8160, 8166, 8133,3.1282799243927
21, 8200, 8202, 8179, 8147, 8161, 8211, 8189, 8177, 8244, 8205, 8151, 8164, 8170, 8143,3.1282799243927
22, 8206, 8197, 8152, 8136, 8146, 8185, 8166, 8167, 8243, 8185, 8151, 8157, 8174, 8133,3.144373655319214
23, 8217, 8212, 8191, 8140, 8144, 8168, 8142, 8157, 8217, 8148, 8165, 8179, 8169, 8123,3.144373655319214
24, 8219, 8221, 8187, 8154, 8160, 8184, 8152, 8156, 8221, 8154, 8186, 8184, 8176, 8119,3.1595234870910645
25, 8210, 8216, 8181, 8151, 8166, 8190, 8153, 8155, 8223, 8167, 8185, 8181, 8170, 8116,3.1595234870910645
26, 8213, 8221, 8202, 8152, 8166, 8184, 8143, 8158, 8205, 8160, 8175, 8175, 8156, 8113,3.17536997795105
27, 8216, 8221, 8194, 8169, 8174, 8188, 8146, 8154, 8205, 8161, 8173, 8157, 8155, 8109,3.17536997795105
28, 8205, 8216, 8207, 8171, 8182, 8209, 8158, 8159, 8215, 8163, 8169, 8166, 8155, 8118,3.190767765045166
29, 8181, 8208, 8183, 8174, 8179, 8226, 8181, 8164, 8227, 8175, 8152, 8148, 8149, 8117,3.190767765045166
30, 8171, 8196, 8170, 8165, 8166, 8214, 8178, 8160, 8220, 8169, 8124, 8124, 8136, 8105,3.206061363220215
31, 8179, 8190, 8177, 8158, 8170, 8207, 8170, 8167, 8221, 8170, 8123, 8133, 8141, 8107,3.206061363220215
32, 8182, 8177, 8149, 8156, 8174, 8215, 8176, 8165, 8238, 8194, 8141, 8138, 8158, 8110,3.222107410430908
33, 8175, 8167, 8156, 8127, 8149, 8205, 8159, 8160, 8232, 8190, 8129, 8135, 8148, 8104,3.222107410430908
34, 8165, 8166, 8139, 8114, 8141, 8178, 8142, 8162, 8235, 8180, 8131, 8122, 8146, 8095,3.2373223304748535
35, 8179, 8169, 8140, 8126, 8160, 8166, 8138, 8169, 8241, 8174, 8161, 8145, 8162, 8105,3.2373223304748535
36, 8201, 8179, 8170, 8136, 8163, 8183, 8145, 8176, 8241, 8173, 8174, 8173, 8176, 8124,3.252532720565796
37, 8197, 8181, 8156, 8141, 8158, 8185, 8144, 8163, 8237, 8173, 8171, 8158, 8176, 8116,3.252532720565796
38, 8183, 8185, 8170, 8137, 8165, 8174, 8127, 8156, 8215, 8145, 8161, 8162, 8155, 8096,3.268294334411621
39, 8175, 8187, 8165, 8155, 8178, 8185, 8135, 8160, 8210, 8145, 8157, 8155, 8147, 8089,3.268294334411621
40, 8165, 8168, 8148, 8158, 8174, 8200, 8150, 8156, 8215, 8169, 8140, 8125, 8141, 8088,3.28376841545105
41, 8152, 8154, 8146, 8135, 8164, 8209, 8161, 8171, 8233, 8184, 8117, 8114, 8133, 8087,3.28376841545105
42, 8156, 8154, 8121, 8126, 8160, 8200, 8174, 8181, 8269, 8194, 8127, 8116, 8146, 8092,3.299363374710083
43, 8173, 8150, 8142, 8118, 8152, 8179, 8156, 8170, 8256, 8170, 8134, 8132, 8147, 8098,3.299363374710083
44, 8172, 8146, 8134, 8120, 8154, 8174, 8136, 8164, 8227, 8149, 8120, 8124, 8141, 8088,3.315460443496704
45, 8174, 8166, 8130, 8134, 8165, 8181, 8134, 8169, 8225, 8150, 8120, 8124, 8146, 8079,3.315460443496704
46, 8181, 8192, 8177, 8151, 8175, 8200, 8152, 8176, 8236, 8167, 8147, 8147, 8148, 8086,3.3310699462890625
47, 8176, 8178, 8160, 8157, 8182, 8205, 8182, 8169, 8246, 8188, 8142, 8125, 8140, 8091,3.3310699462890625
48, 8173, 8166, 8169, 8141, 8179, 8203, 8181, 8166, 8239, 8172, 8108, 8121, 8127, 8092,3.346389055252075
49, 8177, 8186, 8185, 8162, 8180, 8214, 8178, 8170, 8245, 8164, 8130, 8142, 8144, 8095,3.346389055252075
50, 8173, 8178, 8163, 8173, 8180, 8210, 8184, 8167, 8259, 8186, 8169, 8149, 8164, 8107,3.362100839614868
51, 8162, 8154, 8161, 8138, 8176, 8208, 8183, 8174, 8263, 8206, 8167, 8148, 8169, 8114,3.362100839614868
52, 8152, 8146, 8130, 8116, 8175, 8207, 8175, 8173, 8276, 8205, 8167, 8130, 8188, 8100,3.3777318000793457
53, 8151, 8142, 8129, 8098, 8162, 8191, 8148, 8161, 8267, 8182, 8173, 8135, 8194, 8096,3.393287181854248
54, 8151, 8140, 8130, 8086, 8158, 8192, 8155, 8167, 8269, 8197, 8182, 8141, 8193, 8104,3.393287181854248
55, 8156, 8139, 8121, 8086, 8168, 8200, 8181, 8174, 8278, 8218, 8189, 8141, 8200, 8101,3.393287181854248
56, 8162, 8152, 8146, 8087, 8164, 8189, 8166, 8171, 8253, 8185, 8185, 8152, 8189, 8093,3.4088401794433594
57, 8151, 8162, 8129, 8094, 8160, 8176, 8151, 8163, 8245, 8169, 8186, 8135, 8171, 8078,3.4088401794433594
58, 8144, 8161, 8136, 8090, 8165, 8178, 8152, 8164, 8246, 8172, 8181, 8136, 8165, 8067,3.4254376888275146
59, 8146, 8161, 8147, 8098, 8172, 8191, 8166, 8172, 8241, 8177, 8176, 8145, 8172, 8076,3.4254376888275146
60, 8147, 8167, 8140, 8118, 8174, 8193, 8179, 8170, 8243, 8187, 8189, 8135, 8174, 8085,3.440979242324829
61, 8144, 8177, 8172, 8119, 8178, 8206, 8179, 8173, 8247, 8201, 8190, 8139, 8161, 8092,3.45622181892395
62, 8127, 8162, 8148, 8121, 8184, 8212, 8192, 8169, 8251, 8205, 8165, 8114, 8147, 8083,3.45622181892395
63, 8114, 8134, 8134, 8114, 8175, 8199, 8193, 8161, 8236, 8182, 8130, 8092, 8124, 8073,3.4723012447357178
64, 8119, 8136, 8145, 8108, 8169, 8211, 8201, 8177, 8253, 8191, 8144, 8108, 8134, 8091,3.4723012447357178
65, 8125, 8132, 8123, 8102, 8162, 8212, 8209, 8187, 8287, 8215, 8173, 8113, 8164, 8106,3.487992763519287
66, 8112, 8115, 8120, 8070, 8141, 8181, 8183, 8179, 8272, 8194, 8155, 8106, 8155, 8087,3.487992763519287
67, 8114, 8116, 8103, 8065, 8143, 8171, 8166, 8168, 8259, 8181, 8142, 8100, 8142, 8075,3.487992763519287
68, 8141, 8135, 8125, 8080, 8164, 8178, 8160, 8165, 8265, 8189, 8165, 8134, 8154, 8102,3.503091812133789
69, 8154, 8152, 8161, 8092, 8163, 8173, 8158, 8170, 8266, 8188, 8187, 8162, 8171, 8111,3.5182507038116455
70, 8157, 8161, 8148, 8109, 8162, 8169, 8157, 8167, 8257, 8181, 8192, 8150, 8173, 8098,3.5182507038116455
71, 8174, 8180, 8176, 8123, 8179, 8176, 8158, 8169, 8247, 8183, 8198, 8157, 8167, 8103,3.533857583999634
72, 8180, 8190, 8184, 8147, 8186, 8182, 8177, 8173, 8255, 8205, 8216, 8154, 8179, 8109,3.533857583999634
73, 8166, 8173, 8186, 8149, 8170, 8175, 8170, 8164, 8250, 8208, 8213, 8149, 8181, 8107,3.549842119216919
74, 8153, 8158, 8188, 8139, 8159, 8184, 8157, 8162, 8238, 8198, 8187, 8145, 8164, 8102,3.549842119216919
75, 8147, 8157, 8159, 8151, 8165, 8192, 8168, 8160, 8239, 8202, 8179, 8127, 8161, 8093,3.5655555725097656
76, 8157, 8164, 8183, 8157, 8161, 8188, 8173, 8162, 8240, 8204, 8195, 8145, 8173, 8107,3.5655555725097656
77, 8169, 8165, 8180, 8158, 8158, 8191, 8183, 8177, 8266, 8228, 8225, 8169, 8196, 8133,3.5804786682128906
78, 8176, 8160, 8162, 8145, 8155, 8181, 8180, 8184, 8280, 8243, 8230, 8178, 8206, 8136,3.5804786682128906
79, 8177, 8159, 8170, 8119, 8143, 8162, 8166, 8184, 8264, 8217, 8206, 8174, 8197, 8122,3.5962042808532715
80, 8167, 8154, 8145, 8109, 8138, 8153, 8158, 8169, 8259, 8191, 8197, 8151, 8191, 8102,3.5962042808532715
81, 8169, 8157, 8170, 8108, 8136, 8161, 8141, 8159, 8246, 8176, 8209, 8165, 8185, 8092,3.6112687587738037
82, 8176, 8173, 8183, 8132, 8145, 8168, 8137, 8167, 8239, 8179, 8226, 8181, 8193, 8096,3.6112687587738037
83, 8173, 8172, 8166, 8138, 8152, 8150, 8136, 8163, 8234, 8167, 8217, 8169, 8192, 8090,3.627403974533081
84, 8163, 8167, 8176, 8120, 8150, 8156, 8138, 8167, 8226, 8154, 8202, 8160, 8174, 8083,3.627403974533081
85, 8159, 8165, 8165, 8141, 8147, 8181, 8157, 8169, 8230, 8175, 8201, 8148, 8173, 8086,3.642427682876587
86, 8157, 8163, 8175, 8150, 8144, 8185, 8159, 8156, 8211, 8162, 8172, 8147, 8152, 8082,3.642427682876587
87, 8140, 8149, 8162, 8119, 8150, 8182, 8162, 8162, 8212, 8153, 8152, 8132, 8131, 8074,3.6575820446014404
88, 8135, 8133, 8153, 8109, 8146, 8182, 8180, 8174, 8242, 8181, 8167, 8134, 8146, 8088,3.6575820446014404
89, 8149, 8148, 8193, 8142, 8136, 8192, 8189, 8175, 8250, 8188, 8176, 8168, 8161, 8113,3.6732265949249268
90, 8164, 8163, 8183, 8172, 8132, 8188, 8182, 8161, 8246, 8178, 8179, 8173, 8165, 8113,3.6732265949249268
91, 8177, 8154, 8190, 8149, 8117, 8158, 8149, 8156, 8232, 8152, 8184, 8192, 8165, 8107,3.6892988681793213
92, 8179, 8153, 8204, 8151, 8109, 8148, 8131, 8166, 8224, 8135, 8201, 8223, 8181, 8111,3.6892988681793213
93, 8193, 8169, 8210, 8188, 8116, 8152, 8135, 8165, 8229, 8145, 8237, 8254, 8206, 8127,3.7055325508117676
94, 8230, 8198, 8256, 8221, 8124, 8151, 8136, 8162, 8231, 8157, 8266, 8289, 8222, 8149,3.7055325508117676
95, 8247, 8214, 8256, 8244, 8126, 8143, 8130, 8154, 8228, 8151, 8256, 8276, 8215, 8147,3.7212066650390625
96, 8238, 8215, 8259, 8239, 8121, 8147, 8118, 8153, 8204, 8127, 8236, 8271, 8191, 8136,3.7212066650390625
97, 8233, 8225, 8267, 8256, 8133, 8171, 8131, 8162, 8192, 8127, 8242, 8280, 8192, 8141,3.7373249530792236
98, 8235, 8225, 8257, 8279, 8149, 8175, 8147, 8153, 8187, 8127, 8230, 8265, 8191, 8145,3.7373249530792236
99, 8234, 8223, 8275, 8274, 8147, 8173, 8141, 8150, 8177, 8125, 8193, 8253, 8168, 8141,3.7531445026397705
100, 8213, 8206, 8233, 8270, 8138, 8183, 8152, 8158, 8195, 8148, 8186, 8231, 8155, 8126,3.7531445026397705
101, 8182, 8169, 8194, 8237, 8126, 8181, 8158, 8160, 8202, 8148, 8175, 8211, 8139, 8114,3.7683331966400146
102, 8167, 8153, 8179, 8208, 8127, 8184, 8159, 8164, 8200, 8142, 8149, 8191, 8128, 8112,3.7683331966400146
103, 8172, 8155, 8151, 8209, 8138, 8187, 8164, 8168, 8218, 8158, 8140, 8172, 8138, 8111,3.7839274406433105
104, 8173, 8150, 8162, 8188, 8129, 8180, 8157, 8172, 8219, 8153, 8125, 8178, 8131, 8109,3.7839274406433105
105, 8147, 8128, 8128, 8151, 8116, 8168, 8149, 8160, 8203, 8132, 8104, 8151, 8112, 8093,3.7990310192108154
106, 8136, 8126, 8114, 8134, 8120, 8161, 8142, 8147, 8188, 8120, 8100, 8141, 8109, 8082,3.7990310192108154
107, 8149, 8153, 8137, 8145, 8128, 8170, 8147, 8163, 8199, 8125, 8115, 8168, 8119, 8087,3.8141047954559326
108, 8154, 8165, 8131, 8156, 8134, 8171, 8150, 8162, 8204, 8118, 8131, 8168, 8117, 8084,3.8141047954559326
109, 8153, 8166, 8155, 8142, 8126, 8161, 8137, 8146, 8178, 8095, 8129, 8165, 8098, 8079,3.8292598724365234
110, 8151, 8167, 8145, 8144, 8127, 8161, 8145, 8151, 8189, 8101, 8130, 8154, 8099, 8078,3.8292598724365234
111, 8152, 8173, 8143, 8154, 8136, 8168, 8153, 8159, 8199, 8110, 8130, 8150, 8099, 8081,3.8455495834350586
112, 8147, 8182, 8164, 8158, 8141, 8185, 8160, 8162, 8178, 8109, 8120, 8151, 8088, 8083,3.8455495834350586
113, 8136, 8174, 8142, 8162, 8144, 8191, 8178, 8152, 8180, 8121, 8113, 8133, 8087, 8083,3.861483097076416
114, 8138, 8175, 8160, 8160, 8145, 8191, 8173, 8154, 8188, 8124, 8112, 8139, 8085, 8088,3.861483097076416
115, 8143, 8181, 8158, 8171, 8157, 8200, 8180, 8170, 8204, 8142, 8117, 8139, 8093, 8088,3.8764851093292236
116, 8140, 8167, 8142, 8164, 8157, 8192, 8191, 8176, 8222, 8163, 8109, 8139, 8100, 8097,3.8764851093292236
117, 8141, 8158, 8153, 8147, 8141, 8186, 8187, 8183, 8240, 8176, 8112, 8159, 8113, 8121,3.8919484615325928
118, 8150, 8151, 8138, 8140, 8137, 8189, 8189, 8181, 8253, 8193, 8131, 8162, 8138, 8126,3.8919484615325928
119, 8150, 8149, 8153, 8111, 8143, 8187, 8188, 8183, 8249, 8182, 8126, 8169, 8142, 8120,3.9079878330230713
120, 8146, 8163, 8145, 8116, 8142, 8178, 8183, 8189, 8264, 8180, 8126, 8174, 8145, 8121,3.9079878330230713
121, 8164, 8173, 8139, 8145, 8135, 8161, 8161, 8177, 8271, 8183, 8139, 8177, 8155, 8115,3.923539161682129
122, 8167, 8180, 8170, 8139, 8135, 8162, 8146, 8172, 8255, 8172, 8148, 8184, 8156, 8106,3.923539161682129
123, 8159, 8187, 8155, 8133, 8139, 8166, 8155, 8172, 8249, 8171, 8163, 8177, 8155, 8105,3.9393081665039062
124, 8165, 8190, 8164, 8134, 8139, 8154, 8150, 8164, 8227, 8152, 8165, 8183, 8134, 8105,3.9393081665039062
125, 8161, 8186, 8171, 8144, 8142, 8166, 8159, 8160, 8219, 8147, 8154, 8171, 8120, 8096,3.9554126262664795
126, 8149, 8179, 8164, 8152, 8142, 8194, 8179, 8164, 8238, 8162, 8144, 8152, 8123, 8097,3.9554126262664795
127, 8149, 8183, 8182, 8157, 8147, 8208, 8188, 8176, 8245, 8171, 8129, 8155, 8116, 8108,3.970958948135376
237, 8147, 8177, 8159, 8167, 8163, 8211, 8209, 8178, 8251, 8188, 8124, 8140, 8114, 8110,3.970958948135376
0, 8145, 8160, 8156, 8151, 8160, 8211, 8217, 8172, 8255, 8193, 8122, 8143, 8115, 8112,3.987002372741699
1, 8152, 8158, 8149, 8143, 8146, 8202, 8210, 8173, 8259, 8184, 8123, 8152, 8127, 8120,3.987002372741699
2, 8157, 8160, 8136, 8148, 8146, 8184, 8202, 8169, 8264, 8184, 8132, 8152, 8142, 8120,4.003029823303223
3, 8157, 8159, 8162, 8136, 8151, 8185, 8194, 8171, 8262, 8186, 8131, 8169, 8137, 8117,4.003029823303223
4, 8156, 8153, 8145, 8136, 8155, 8179, 8180, 8173, 8261, 8190, 8138, 8169, 8136, 8111,4.025226593017578
5, 8177, 8169, 8166, 8148, 8159, 8157, 8153, 8171, 8245, 8180, 8168, 8188, 8148, 8111,4.0257344245910645
6, 8199, 8200, 8204, 8173, 8173, 8172, 8161, 8172, 8246, 8187, 8194, 8208, 8160, 8120,4.0257344245910645
7, 8187, 8192, 8190, 8186, 8179, 8195, 8186, 8166, 8251, 8203, 8168, 8183, 8143, 8119,4.034242153167725
8, 8171, 8163, 8184, 8169, 8167, 8194, 8194, 8171, 8240, 8193, 8129, 8168, 8130, 8116,4.0498340129852295
9, 8172, 8145, 8151, 8142, 8154, 8175, 8186, 8177, 8259, 8193, 8146, 8172, 8161, 8117,4.0498340129852295
10, 8183, 8157, 8162, 8128, 8147, 8153, 8154, 8167, 8254, 8190, 8172, 8193, 8173, 8121,4.065400123596191
11, 8184, 8190, 8191, 8166, 8159, 8168, 8145, 8163, 8217, 8170, 8167, 8192, 8151, 8118,4.065400123596191
12, 8172, 8196, 8171, 8200, 8177, 8192, 8174, 8163, 8213, 8166, 8149, 8164, 8137, 8107,4.080998420715332
13, 8168, 8182, 8180, 8180, 8174, 8197, 8196, 8171, 8234, 8179, 8137, 8163, 8142, 8122,4.080998420715332
14, 8168, 8176, 8161, 8163, 8167, 8183, 8196, 8175, 8248, 8190, 8148, 8165, 8167, 8137,4.096148729324341
15, 8176, 8179, 8160, 8150, 8161, 8155, 8160, 8166, 8224, 8164, 8158, 8179, 8170, 8126,4.096148729324341
16, 8179, 8186, 8185, 8154, 8164, 8159, 8144, 8164, 8203, 8151, 8144, 8176, 8146, 8111,4.111330986022949
17, 8163, 8175, 8168, 8181, 8173, 8183, 8178, 8163, 8213, 8169, 8122, 8141, 8133, 8113,4.111330986022949
18, 8161, 8156, 8172, 8164, 8157, 8183, 8195, 8174, 8225, 8175, 8125, 8154, 8144, 8133,4.127262115478516
19, 8173, 8153, 8156, 8138, 8145, 8162, 8185, 8181, 8234, 8174, 8150, 8167, 8169, 8130,4.127262115478516
20, 8177, 8161, 8155, 8139, 8150, 8151, 8163, 8162, 8217, 8149, 8144, 8158, 8164, 8109,4.142432689666748
21, 8179, 8171, 8183, 8150, 8153, 8165, 8159, 8162, 8205, 8138, 8135, 8170, 8150, 8109,4.142432689666748
22, 8187, 8170, 8170, 8158, 8154, 8169, 8170, 8169, 8225, 8161, 8167, 8180, 8168, 8120,4.157917499542236
23, 8180, 8168, 8178, 8147, 8149, 8160, 8160, 8163, 8214, 8151, 8172, 8180, 8159, 8113,4.173334121704102
24, 8159, 8172, 8171, 8163, 8151, 8167, 8172, 8165, 8195, 8141, 8141, 8151, 8131, 8099,4.173334121704102
25, 8164, 8166, 8173, 8179, 8165, 8181, 8201, 8173, 8202, 8161, 8131, 8145, 8136, 8108,4.188436508178711
26, 8173, 8158, 8184, 8166, 8173, 8196, 8213, 8179, 8223, 8183, 8139, 8168, 8162, 8122,4.188436508178711
27, 8168, 8149, 8154, 8163, 8166, 8195, 8214, 8174, 8241, 8195, 8140, 8160, 8171, 8123,4.203949928283691
28, 8171, 8146, 8167, 8147, 8152, 8179, 8189, 8167, 8221, 8178, 8129, 8163, 8160, 8122,4.203949928283691
29, 8178, 8151, 8166, 8138, 8153, 8166, 8164, 8163, 8207, 8164, 8135, 8169, 8167, 8114,4.219327688217163
30, 8194, 8166, 8170, 8153, 8163, 8157, 8145, 8154, 8204, 8155, 8159, 8180, 8179, 8108,4.219327688217163
31, 8214, 8194, 8215, 8171, 8170, 8162, 8147, 8159, 8187, 8147, 8172, 8197, 8172, 8114,4.2351813316345215
32, 8207, 8194, 8197, 8191, 8173, 8168, 8167, 8159, 8192, 8165, 8167, 8174, 8160, 8117,4.2351813316345215
33, 8188, 8174, 8193, 8197, 8170, 8170, 8165, 8161, 8203, 8171, 8139, 8161, 8143, 8118,4.250342607498169
34, 8175, 8161, 8177, 8190, 8169, 8173, 8171, 8172, 8219, 8171, 8123, 8152, 8148, 8119,4.250342607498169
35, 8174, 8152, 8151, 8168, 8157, 8160, 8177, 8172, 8230, 8175, 8132, 8151, 8170, 8126,4.265942335128784
36, 8187, 8162, 8181, 8168, 8153, 8154, 8167, 8175, 8223, 8167, 8152, 8182, 8189, 8136,4.265942335128784
37, 8191, 8174, 8176, 8196, 8166, 8152, 8155, 8162, 8207, 8153, 8173, 8181, 8191, 8117,4.281194686889648
38, 8187, 8181, 8190, 8197, 8167, 8153, 8148, 8151, 8175, 8132, 8161, 8170, 8162, 8103,4.281194686889648
39, 8181, 8185, 8191, 8205, 8168, 8173, 8171, 8165, 8176, 8143, 8142, 8163, 8153, 8117,4.29631781578064
40, 8176, 8169, 8160, 8218, 8172, 8174, 8181, 8161, 8188, 8155, 8133, 8153, 8153, 8122,4.29631781578064
41, 8171, 8160, 8171, 8201, 8159, 8164, 8162, 8156, 8178, 8139, 8122, 8156, 8151, 8117,4.311946153640747
42, 8177, 8170, 8160, 8204, 8158, 8165, 8162, 8166, 8195, 8148, 8139, 8162, 8186, 8126,4.311946153640747
43, 8205, 8184, 8181, 8210, 8171, 8163, 8161, 8175, 8215, 8159, 8173, 8200, 8226, 8146,4.326995849609375
44, 8222, 8196, 8204, 8221, 8180, 8167, 8158, 8174, 8214, 8154, 8189, 8221, 8229, 8150,4.326995849609375
45, 8216, 8206, 8193, 8244, 8189, 8166, 8156, 8160, 8202, 8144, 8180, 8198, 8210, 8132,4.342205047607422
46, 8204, 8215, 8212, 8243, 8189, 8162, 8150, 8161, 8187, 8139, 8171, 8187, 8195, 8118,4.342205047607422
47, 8194, 8207, 8187, 8232, 8187, 8176, 8166, 8168, 8202, 8164, 8181, 8176, 8205, 8123,4.3573455810546875
48, 8200, 8190, 8184, 8220, 8187, 8193, 8179, 8173, 8229, 8191, 8186, 8189, 8221, 8154,4.3573455810546875
49, 8202, 8183, 8196, 8221, 8183, 8194, 8181, 8181, 8250, 8201, 8179, 8196, 8228, 8171,4.373451232910156
50, 8190, 8165, 8163, 8204, 8173, 8171, 8176, 8176, 8253, 8186, 8167, 8173, 8227, 8152,4.373451232910156
51, 8185, 8153, 8164, 8168, 8166, 8160, 8163, 8179, 8249, 8162, 8165, 8184, 8222, 8143,4.388265132904053
52, 8192, 8164, 8158, 8181, 8174, 8170, 8167, 8181, 8267, 8181, 8185, 8204, 8245, 8152,4.388265132904053
53, 8201, 8179, 8171, 8194, 8175, 8160, 8158, 8167, 8249, 8176, 8182, 8208, 8252, 8157,4.403416633605957
54, 8199, 8185, 8192, 8189, 8172, 8151, 8146, 8164, 8220, 8143, 8168, 8194, 8231, 8144,4.403416633605957
55, 8190, 8181, 8179, 8198, 8176, 8158, 8160, 8163, 8223, 8144, 8176, 8173, 8225, 8127,4.418923377990723
56, 8178, 8173, 8196, 8191, 8180, 8172, 8171, 8167, 8215, 8150, 8161, 8174, 8218, 8124,4.418923377990723
57, 8161, 8154, 8167, 8182, 8176, 8174, 8177, 8174, 8221, 8158, 8126, 8153, 8205, 8124,4.435062646865845
58, 8160, 8133, 8149, 8166, 8159, 8166, 8173, 8169, 8236, 8177, 8123, 8143, 8207, 8126,4.435062646865845
59, 8174, 8140, 8171, 8145, 8147, 8167, 8165, 8169, 8238, 8183, 8152, 8170, 8226, 8130,4.449504137039185
60, 8176, 8150, 8153, 8144, 8150, 8157, 8153, 8163, 8230, 8157, 8155, 8172, 8228, 8122,4.449504137039185
61, 8175, 8151, 8168, 8147, 8155, 8149, 8138, 8159, 8214, 8126, 8137, 8174, 8207, 8114,4.465214490890503
62, 8181, 8157, 8170, 8156, 8168, 8162, 8142, 8165, 8216, 8136, 8150, 8172, 8204, 8111,4.481285333633423
63, 8177, 8161, 8165, 8155, 8177, 8174, 8149, 8163, 8214, 8144, 8160, 8168, 8200, 8110,4.481285333633423
64, 8157, 8156, 8177, 8154, 8169, 8186, 8167, 8168, 8213, 8149, 8136, 8163, 8190, 8113,4.481285333633423
65, 8148, 8136, 8151, 8155, 8162, 8186, 8196, 8176, 8231, 8176, 8127, 8141, 8190, 8115,4.497707366943359
66, 8154, 8129, 8160, 8142, 8165, 8183, 8198, 8179, 8232, 8176, 8128, 8146, 8187, 8123,4.497707366943359
67, 8153, 8142, 8150, 8141, 8172, 8188, 8205, 8183, 8235, 8165, 8120, 8147, 8193, 8130,4.5136559009552
68, 8158, 8139, 8135, 8130, 8157, 8171, 8197, 8174, 8239, 8162, 8116, 8153, 8203, 8122,4.5136559009552
69, 8168, 8138, 8158, 8106, 8141, 8150, 8161, 8164, 8223, 8148, 8125, 8173, 8196, 8110,4.52927303314209
70, 8170, 8151, 8153, 8116, 8151, 8153, 8148, 8156, 8209, 8127, 8127, 8163, 8194, 8103,4.52927303314209
71, 8173, 8169, 8178, 8141, 8156, 8161, 8153, 8155, 8184, 8111, 8111, 8166, 8189, 8102,4.545375347137451
72, 8160, 8167, 8172, 8149, 8153, 8166, 8160, 8158, 8179, 8127, 8108, 8154, 8182, 8093,4.545375347137451
73, 8139, 8137, 8141, 8132, 8155, 8165, 8157, 8157, 8196, 8142, 8107, 8122, 8170, 8085,4.560512542724609
74, 8138, 8122, 8154, 8125, 8156, 8174, 8163, 8167, 8200, 8144, 8089, 8122, 8159, 8091,4.560512542724609
75, 8151, 8127, 8142, 8137, 8159, 8172, 8181, 8169, 8212, 8163, 8094, 8132, 8178, 8101,4.5765767097473145
76, 8169, 8130, 8154, 8123, 8153, 8152, 8161, 8164, 8217, 8154, 8114, 8159, 8200, 8116,4.5765767097473145
77, 8176, 8136, 8161, 8120, 8149, 8151, 8140, 8166, 8210, 8143, 8135, 8175, 8207, 8117,4.592344284057617
78, 8173, 8156, 8155, 8137, 8163, 8157, 8142, 8161, 8194, 8149, 8148, 8173, 8199, 8102,4.592344284057617
79, 8178, 8181, 8194, 8142, 8174, 8159, 8143, 8162, 8184, 8142, 8139, 8177, 8181, 8106,4.607966899871826
80, 8182, 8179, 8186, 8160, 8175, 8164, 8158, 8167, 8201, 8150, 8134, 8160, 8187, 8119,4.623328685760498
81, 8173, 8160, 8175, 8163, 8173, 8176, 8173, 8164, 8199, 8159, 8123, 8150, 8188, 8120,4.623328685760498
82, 8152, 8144, 8154, 8142, 8169, 8185, 8181, 8168, 8200, 8160, 8107, 8143, 8179, 8113,4.623328685760498
83, 8148, 8129, 8128, 8121, 8157, 8171, 8175, 8172, 8219, 8165, 8103, 8135, 8183, 8113,4.639643430709839
84, 8163, 8137, 8159, 8112, 8153, 8157, 8158, 8179, 8219, 8170, 8119, 8152, 8197, 8126,4.639643430709839
85, 8172, 8147, 8144, 8120, 8169, 8154, 8158, 8176, 8220, 8177, 8149, 8158, 8218, 8127,4.653885126113892
86, 8170, 8135, 8139, 8111, 8164, 8141, 8139, 8160, 8207, 8153, 8146, 8159, 8207, 8107,4.669932126998901
87, 8157, 8138, 8161, 8111, 8147, 8136, 8121, 8151, 8184, 8124, 8131, 8144, 8183, 8086,4.669932126998901
88, 8147, 8153, 8157, 8133, 8161, 8149, 8134, 8149, 8176, 8125, 8129, 8122, 8174, 8081,4.669932126998901
89, 8163, 8167, 8178, 8140, 8181, 8176, 8154, 8164, 8175, 8141, 8123, 8140, 8171, 8099,4.6850621700286865
90, 8174, 8163, 8164, 8155, 8179, 8188, 8174, 8172, 8196, 8168, 8125, 8140, 8181, 8116,4.70032262802124
91, 8169, 8145, 8160, 8159, 8166, 8173, 8172, 8165, 8213, 8178, 8122, 8132, 8183, 8118,4.70032262802124
92, 8170, 8142, 8169, 8142, 8173, 8183, 8180, 8183, 8231, 8185, 8125, 8151, 8192, 8126,4.716230630874634
93, 8181, 8141, 8145, 8134, 8184, 8193, 8191, 8186, 8247, 8194, 8146, 8160, 8217, 8142,4.716230630874634
94, 8192, 8152, 8168, 8136, 8182, 8169, 8165, 8168, 8227, 8178, 8152, 8173, 8219, 8141,4.73154616355896
95, 8195, 8168, 8169, 8152, 8185, 8155, 8155, 8164, 8215, 8180, 8162, 8175, 8217, 8125,4.73154616355896
96, 8195, 8175, 8173, 8154, 8182, 8158, 8162, 8164, 8210, 8184, 8175, 8175, 8215, 8117,4.747324466705322
97, 8183, 8177, 8196, 8157, 8179, 8169, 8163, 8163, 8199, 8160, 8161, 8167, 8195, 8116,4.747324466705322
98, 8176, 8171, 8177, 8177, 8184, 8176, 8174, 8158, 8201, 8153, 8141, 8144, 8175, 8112,4.762369394302368
99, 8183, 8165, 8189, 8177, 8181, 8184, 8190, 8161, 8200, 8161, 8134, 8150, 8168, 8119,4.762369394302368
100, 8172, 8152, 8178, 8173, 8180, 8200, 8199, 8164, 8209, 8176, 8133, 8143, 8176, 8118,4.777930736541748
101, 8166, 8142, 8163, 8168, 8181, 8196, 8183, 8172, 8224, 8192, 8132, 8142, 8189, 8123,4.777930736541748
102, 8185, 8148, 8180, 8165, 8179, 8190, 8177, 8195, 8248, 8216, 8153, 8173, 8219, 8149,4.7934184074401855
103, 8197, 8149, 8156, 8163, 8180, 8181, 8182, 8190, 8266, 8220, 8180, 8177, 8245, 8156,4.7934184074401855
104, 8190, 8144, 8161, 8143, 8175, 8169, 8169, 8176, 8243, 8185, 8168, 8172, 8229, 8142,4.809008598327637
105, 8176, 8138, 8142, 8137, 8169, 8173, 8174, 8175, 8234, 8178, 8148, 8158, 8212, 8128,4.809008598327637
106, 8173, 8140, 8129, 8135, 8174, 8173, 8175, 8164, 8224, 8181, 8154, 8158, 8205, 8116,4.824063539505005
107, 8173, 8156, 8169, 8139, 8180, 8177, 8161, 8162, 8195, 8173, 8166, 8170, 8188, 8111,4.824063539505005
108, 8168, 8150, 8150, 8156, 8177, 8189, 8169, 8169, 8202, 8187, 8158, 8141, 8180, 8116,4.8399412631988525
109, 8166, 8130, 8140, 8150, 8170, 8198, 8181, 8178, 8216, 8190, 8135, 8130, 8177, 8125,4.8399412631988525
110, 8160, 8137, 8137, 8151, 8177, 8201, 8199, 8184, 8227, 8193, 8138, 8143, 8181, 8125,4.855326890945435
111, 8156, 8144, 8132, 8151, 8182, 8191, 8205, 8173, 8233, 8197, 8152, 8146, 8182, 8118,4.855326890945435
112, 8167, 8142, 8152, 8140, 8168, 8187, 8195, 8175, 8238, 8195, 8150, 8156, 8189, 8125,4.871237277984619
113, 8177, 8142, 8132, 8146, 8160, 8180, 8188, 8180, 8256, 8208, 8153, 8158, 8208, 8135,4.871237277984619
114, 8180, 8146, 8145, 8136, 8160, 8165, 8169, 8173, 8252, 8199, 8162, 8173, 8203, 8134,4.886106014251709
115, 8185, 8160, 8160, 8134, 8164, 8166, 8164, 8169, 8244, 8183, 8177, 8181, 8199, 8124,4.886106014251709
116, 8192, 8166, 8149, 8149, 8163, 8165, 8166, 8162, 8232, 8171, 8184, 8178, 8200, 8115,4.902143478393555
117, 8191, 8170, 8173, 8144, 8157, 8162, 8156, 8158, 8210, 8160, 8182, 8190, 8187, 8116,4.902143478393555
118, 8182, 8170, 8160, 8149, 8160, 8159, 8161, 8163, 8217, 8181, 8187, 8174, 8183, 8120,4.91781759262085
119, 8185, 8165, 8172, 8161, 8161, 8168, 8165, 8168, 8217, 8183, 8170, 8164, 8176, 8122,4.91781759262085
120, 8184, 8159, 8180, 8166, 8162, 8187, 8175, 8164, 8211, 8172, 8155, 8159, 8174, 8119,4.933600664138794
121, 8174, 8142, 8148, 8151, 8156, 8181, 8187, 8156, 8217, 8183, 8157, 8150, 8184, 8122,4.933600664138794
122, 8172, 8136, 8162, 8144, 8148, 8176, 8188, 8169, 8222, 8191, 8156, 8160, 8184, 8141,4.948977470397949
123, 8185, 8145, 8159, 8173, 8161, 8187, 8195, 8180, 8246, 8212, 8168, 8163, 8198, 8156,4.948977470397949
124, 8203, 8152, 8170, 8176, 8169, 8171, 8182, 8179, 8256, 8211, 8173, 8176, 8211, 8159,4.9642627239227295
125, 8202, 8155, 8170, 8160, 8160, 8156, 8165, 8178, 8248, 8183, 8168, 8182, 8202, 8151,4.9642627239227295
126, 8198, 8153, 8147, 8164, 8161, 8156, 8160, 8170, 8240, 8173, 8180, 8175, 8197, 8143,4.980243682861328
127, 8202, 8166, 8178, 8168, 8172, 8161, 8150, 8171, 8225, 8169, 8189, 8188, 8199, 8140,4.980243682861328
237, 8192, 8179, 8172, 8182, 8185, 8168, 8153, 8173, 8228, 8165, 8189, 8173, 8195, 8121,4.995276689529419
0, 8181, 8172, 8164, 8183, 8183, 8161, 8153, 8165, 8230, 8167, 8184, 8163, 8178, 8111,4.995276689529419
1, 8175, 8164, 8166, 8170, 8178, 8162, 8159, 8169, 8224, 8176, 8178, 8163, 8167, 8117,5.011142015457153
2, 8166, 8162, 8142, 8172, 8180, 8182, 8180, 8173, 8230, 8181, 8170, 8137, 8163, 8114,5.011142015457153
3, 8165, 8166, 8162, 8176, 8176, 8194, 8193, 8180, 8239, 8191, 8165, 8145, 8165, 8123,5.026643514633179
4, 8168, 8165, 8158, 8185, 8177, 8189, 8202, 8186, 8252, 8219, 8173, 8157, 8181, 8142,5.026643514633179
5, 8163, 8157, 8143, 8174, 8178, 8179, 8190, 8176, 8235, 8204, 8159, 8147, 8165, 8132,5.042280912399292
6, 8165, 8153, 8143, 8153, 8166, 8179, 8182, 8178, 8225, 8181, 8141, 8146, 8147, 8128,5.042280912399292
7, 8177, 8147, 8124, 8149, 8154, 8160, 8188, 8185, 8249, 8192, 8146, 8150, 8166, 8140,5.058199167251587
8, 8182, 8150, 8146, 8136, 8148, 8142, 8171, 8181, 8248, 8184, 8142, 8162, 8170, 8138,5.058199167251587
9, 8173, 8148, 8136, 8130, 8144, 8145, 8158, 8170, 8235, 8172, 8143, 8157, 8166, 8121,5.074298620223999
10, 8178, 8144, 8136, 8128, 8138, 8138, 8145, 8157, 8216, 8158, 8151, 8163, 8165, 8115,5.074298620223999
11, 8187, 8161, 8163, 8136, 8148, 8142, 8139, 8160, 8194, 8147, 8155, 8174, 8158, 8118,5.090393781661987
12, 8174, 8172, 8135, 8151, 8161, 8159, 8147, 8158, 8192, 8160, 8165, 8158, 8166, 8115,5.090393781661987
13, 8170, 8176, 8162, 8149, 8157, 8171, 8142, 8159, 8192, 8161, 8172, 8170, 8172, 8118,5.105917930603027
14, 8171, 8180, 8173, 8166, 8161, 8175, 8147, 8167, 8207, 8168, 8169, 8167, 8165, 8112,5.105917930603027
15, 8170, 8182, 8149, 8182, 8170, 8170, 8159, 8168, 8220, 8189, 8160, 8150, 8155, 8106,5.121954679489136
16, 8177, 8188, 8170, 8185, 8170, 8186, 8171, 8173, 8218, 8201, 8161, 8161, 8162, 8121,5.121954679489136
17, 8177, 8178, 8159, 8196, 8176, 8197, 8179, 8172, 8223, 8205, 8171, 8159, 8176, 8130,5.1379945278167725
18, 8172, 8166, 8161, 8185, 8173, 8179, 8168, 8168, 8214, 8189, 8158, 8156, 8162, 8125,5.1379945278167725
19, 8164, 8166, 8150, 8169, 8155, 8161, 8161, 8172, 8209, 8180, 8145, 8148, 8153, 8116,5.153509140014648
20, 8169, 8163, 8149, 8166, 8141, 8154, 8151, 8169, 8214, 8174, 8165, 8165, 8163, 8120,5.153509140014648
21, 8197, 8180, 8202, 8182, 8147, 8154, 8143, 8173, 8211, 8158, 8198, 8213, 8177, 8131,5.168945550918579
22, 8213, 8200, 8207, 8213, 8157, 8146, 8144, 8168, 8201, 8150, 8208, 8212, 8182, 8121,5.168945550918579
23, 8203, 8200, 8219, 8223, 8140, 8139, 8130, 8154, 8169, 8134, 8187, 8206, 8153, 8106,5.185575723648071
24, 8202, 8205, 8230, 8254, 8139, 8164, 8148, 8162, 8170, 8147, 8188, 8213, 8145, 8109,5.185575723648071
25, 8220, 8204, 8232, 8285, 8153, 8180, 8181, 8173, 8201, 8178, 8208, 8225, 8175, 8132,5.201184988021851
26, 8224, 8192, 8248, 8261, 8142, 8167, 8165, 8176, 8202, 8170, 8204, 8249, 8185, 8149,5.201184988021851
27, 8221, 8186, 8219, 8249, 8134, 8153, 8146, 8167, 8203, 8161, 8202, 8249, 8184, 8144,5.216397762298584
28, 8240, 8192, 8232, 8248, 8140, 8147, 8137, 8156, 8194, 8155, 8217, 8257, 8190, 8138,5.216397762298584
29, 8237, 8197, 8244, 8241, 8143, 8152, 8131, 8159, 8173, 8144, 8226, 8258, 8184, 8129,5.2321648597717285
30, 8216, 8193, 8217, 8249, 8144, 8160, 8138, 8160, 8158, 8138, 8207, 8230, 8155, 8113,5.2321648597717285
31, 8208, 8187, 8231, 8253, 8151, 8178, 8158, 8165, 8161, 8151, 8179, 8213, 8138, 8114,5.247347116470337
32, 8215, 8175, 8214, 8250, 8161, 8186, 8186, 8175, 8194, 8187, 8182, 8201, 8161, 8135,5.247347116470337
33, 8225, 8171, 8207, 8227, 8162, 8168, 8184, 8183, 8209, 8182, 8182, 8212, 8175, 8145,5.262998104095459
34, 8228, 8180, 8208, 8212, 8168, 8167, 8177, 8188, 8216, 8173, 8182, 8224, 8179, 8131,5.262998104095459
35, 8220, 8183, 8190, 8209, 8176, 8173, 8174, 8179, 8211, 8176, 8196, 8215, 8176, 8117,5.278198719024658
36, 8203, 8187, 8210, 8198, 8174, 8175, 8174, 8178, 8180, 8157, 8186, 8211, 8154, 8116,5.278198719024658
37, 8182, 8181, 8193, 8204, 8179, 8186, 8201, 8177, 8178, 8156, 8167, 8194, 8153, 8122,5.29341459274292
38, 8184, 8159, 8179, 8195, 8175, 8194, 8209, 8167, 8191, 8172, 8158, 8198, 8162, 8136,5.29341459274292
39, 8198, 8155, 8185, 8191, 8170, 8202, 8204, 8168, 8199, 8184, 8167, 8208, 8163, 8140,5.309002876281738
40, 8194, 8165, 8169, 8215, 8179, 8198, 8203, 8167, 8190, 8179, 8169, 8187, 8157, 8119,5.309002876281738
41, 8184, 8164, 8181, 8209, 8177, 8186, 8186, 8169, 8173, 8167, 8150, 8181, 8145, 8112,5.325086832046509
42, 8185, 8145, 8154, 8184, 8161, 8178, 8177, 8173, 8195, 8182, 8146, 8174, 8148, 8121,5.325086832046509
43, 8200, 8140, 8152, 8178, 8150, 8161, 8168, 8165, 8203, 8182, 8163, 8187, 8163, 8124,5.340922594070435
44, 8216, 8165, 8188, 8200, 8153, 8161, 8164, 8169, 8192, 8175, 8195, 8223, 8187, 8136,5.340922594070435
45, 8217, 8162, 8170, 8198, 8158, 8160, 8155, 8172, 8195, 8189, 8217, 8232, 8212, 8147,5.35600209236145
46, 8219, 8148, 8182, 8166, 8160, 8149, 8140, 8173, 8189, 8173, 8206, 8234, 8204, 8146,5.372039079666138
47, 8218, 8156, 8176, 8172, 8169, 8157, 8155, 8173, 8190, 8150, 8190, 8218, 8187, 8135,5.372039079666138
48, 8212, 8163, 8170, 8182, 8175, 8158, 8162, 8162, 8184, 8151, 8190, 8217, 8182, 8128,5.372039079666138
49, 8207, 8174, 8202, 8189, 8183, 8150, 8155, 8162, 8164, 8155, 8195, 8231, 8176, 8125,5.387930870056152
50, 8207, 8179, 8194, 8208, 8189, 8155, 8163, 8163, 8168, 8156, 8197, 8211, 8171, 8116,5.387930870056152
51, 8224, 8182, 8205, 8201, 8181, 8166, 8155, 8159, 8178, 8147, 8194, 8212, 8176, 8123,5.402961254119873
52, 8231, 8186, 8204, 8208, 8188, 8166, 8148, 8163, 8182, 8154, 8197, 8218, 8187, 8130,5.402961254119873
53, 8215, 8180, 8202, 8220, 8198, 8162, 8155, 8164, 8180, 8162, 8186, 8204, 8173, 8126,5.418158292770386
54, 8205, 8172, 8220, 8208, 8190, 8183, 8168, 8175, 8187, 8177, 8161, 8196, 8159, 8140,5.433608770370483
55, 8212, 8158, 8190, 8214, 8194, 8198, 8182, 8181, 8215, 8208, 8167, 8191, 8182, 8152,5.433608770370483
56, 8210, 8144, 8191, 8210, 8194, 8186, 8177, 8180, 8216, 8195, 8169, 8192, 8191, 8146,5.448921203613281
57, 8183, 8136, 8172, 8187, 8187, 8190, 8173, 8179, 8210, 8178, 8153, 8169, 8183, 8139,5.448921203613281
58, 8173, 8134, 8147, 8171, 8191, 8195, 8179, 8176, 8225, 8189, 8156, 8161, 8189, 8144,5.4643874168396
59, 8187, 8135, 8165, 8164, 8185, 8181, 8172, 8182, 8239, 8188, 8166, 8184, 8196, 8141,5.4643874168396
60, 8181, 8126, 8137, 8156, 8174, 8164, 8159, 8182, 8244, 8178, 8163, 8172, 8195, 8124,5.480312347412109
61, 8176, 8119, 8139, 8133, 8169, 8165, 8149, 8173, 8229, 8164, 8157, 8177, 8188, 8115,5.480312347412109
62, 8175, 8129, 8147, 8133, 8173, 8165, 8156, 8169, 8218, 8160, 8168, 8188, 8187, 8102,5.4960126876831055
63, 8170, 8139, 8133, 8146, 8177, 8148, 8149, 8161, 8205, 8151, 8174, 8171, 8182, 8088,5.4960126876831055
64, 8172, 8147, 8159, 8141, 8180, 8157, 8134, 8165, 8196, 8137, 8173, 8174, 8169, 8087,5.511195421218872
65, 8178, 8150, 8155, 8145, 8192, 8169, 8155, 8167, 8212, 8157, 8181, 8177, 8170, 8096,5.511195421218872
66, 8177, 8156, 8166, 8155, 8198, 8164, 8168, 8157, 8200, 8162, 8172, 8177, 8165, 8103,5.526476860046387
67, 8170, 8160, 8173, 8162, 8192, 8183, 8172, 8158, 8179, 8150, 8156, 8159, 8151, 8100,5.526476860046387
68, 8162, 8146, 8154, 8161, 8180, 8202, 8189, 8162, 8185, 8156, 8148, 8142, 8142, 8099,5.541929483413696
69, 8151, 8134, 8156, 8150, 8180, 8202, 8200, 8168, 8185, 8151, 8129, 8150, 8133, 8107,5.541929483413696
70, 8145, 8127, 8133, 8144, 8182, 8196, 8203, 8176, 8198, 8157, 8123, 8143, 8141, 8109,5.55721116065979
71, 8156, 8121, 8146, 8129, 8164, 8190, 8190, 8180, 8217, 8182, 8140, 8155, 8150, 8114,5.55721116065979
72, 8168, 8132, 8161, 8134, 8165, 8187, 8182, 8177, 8222, 8183, 8149, 8167, 8152, 8123,5.573293924331665
73, 8171, 8143, 8138, 8145, 8180, 8172, 8166, 8163, 8215, 8161, 8137, 8155, 8151, 8119,5.573293924331665
74, 8179, 8148, 8157, 8128, 8173, 8163, 8145, 8166, 8212, 8166, 8133, 8172, 8151, 8118,5.5889575481414795
75, 8183, 8155, 8154, 8127, 8167, 8174, 8155, 8174, 8233, 8192, 8169, 8189, 8169, 8122,5.5889575481414795
76, 8182, 8161, 8155, 8127, 8170, 8167, 8153, 8168, 8231, 8168, 8190, 8192, 8174, 8116,5.60398006439209
77, 8177, 8157, 8160, 8120, 8174, 8156, 8139, 8164, 8207, 8139, 8176, 8188, 8164, 8116,5.60398006439209
78, 8176, 8152, 8142, 8127, 8181, 8155, 8144, 8159, 8200, 8152, 8170, 8177, 8165, 8113,5.619168519973755
79, 8184, 8172, 8172, 8138, 8183, 8161, 8144, 8160, 8192, 8158, 8182, 8195, 8164, 8114,5.619168519973755
80, 8186, 8183, 8174, 8152, 8187, 8168, 8151, 8164, 8195, 8164, 8202, 8203, 8175, 8121,5.635274887084961
81, 8186, 8175, 8169, 8146, 8189, 8163, 8150, 8156, 8180, 8161, 8200, 8192, 8170, 8118,5.635274887084961
82, 8183, 8182, 8187, 8153, 8188, 8165, 8149, 8158, 8163, 8151, 8183, 8182, 8153, 8110,5.651052236557007
83, 8176, 8185, 8173, 8186, 8188, 8179, 8168, 8167, 8178, 8155, 8176, 8173, 8154, 8112,5.651052236557007
84, 8183, 8180, 8191, 8183, 8186, 8188, 8177, 8176, 8190, 8158, 8172, 8184, 8158, 8129,5.666195392608643
85, 8191, 8175, 8187, 8178, 8180, 8184, 8178, 8173, 8194, 8178, 8173, 8180, 8160, 8129,5.666195392608643
86, 8197, 8177, 8183, 8186, 8172, 8179, 8178, 8167, 8187, 8186, 8170, 8183, 8157, 8126,5.682214260101318
87, 8204, 8188, 8202, 8188, 8183, 8196, 8198, 8188, 8209, 8188, 8176, 8201, 8162, 8141,5.682214260101318
88, 8211, 8188, 8178, 8188, 8206, 8207, 8215, 8195, 8252, 8203, 8196, 8196, 8180, 8150,5.698019981384277
89, 8220, 8183, 8198, 8188, 8211, 8209, 8208, 8187, 8255, 8197, 8205, 8214, 8186, 8155,5.698019981384277
90, 8224, 8185, 8203, 8197, 8210, 8214, 8221, 8192, 8258, 8209, 8207, 8216, 8193, 8157,5.713054180145264
91, 8224, 8179, 8186, 8187, 8209, 8201, 8228, 8193, 8264, 8221, 8211, 8197, 8193, 8155,5.713054180145264
92, 8231, 8189, 8209, 8180, 8210, 8198, 8217, 8191, 8265, 8208, 8215, 8212, 8189, 8160,5.7282326221466064
93, 8247, 8216, 8208, 8206, 8218, 8199, 8216, 8183, 8270, 8203, 8224, 8224, 8197, 8165,5.7282326221466064
94, 8266, 8224, 8229, 8210, 8223, 8190, 8208, 8180, 8256, 8199, 8237, 8245, 8210, 8172,5.744330644607544
95, 8267, 8217, 8226, 8208, 8229, 8188, 8207, 8181, 8256, 8207, 8251, 8252, 8226, 8172,5.744330644607544
96, 8258, 8205, 8207, 8207, 8232, 8176, 8200, 8180, 8266, 8212, 8239, 8236, 8229, 8161,5.760188817977905
97, 8252, 8205, 8225, 8196, 8224, 8171, 8191, 8184, 8250, 8196, 8215, 8231, 8219, 8153,5.760188817977905
98, 8243, 8211, 8209, 8208, 8228, 8180, 8203, 8176, 8240, 8188, 8226, 8219, 8216, 8146,5.775216579437256
99, 8242, 8226, 8226, 8225, 8237, 8185, 8204, 8169, 8234, 8191, 8234, 8223, 8205, 8144,5.775216579437256
100, 8239, 8234, 8232, 8239, 8236, 8187, 8205, 8179, 8224, 8202, 8219, 8212, 8193, 8146,5.791050672531128
101, 8230, 8214, 8205, 8235, 8233, 8192, 8219, 8181, 8226, 8210, 8216, 8191, 8195, 8149,5.791050672531128
102, 8240, 8207, 8231, 8233, 8238, 8212, 8235, 8188, 8248, 8228, 8228, 8213, 8209, 8166,5.807156324386597
103, 8255, 8210, 8227, 8255, 8245, 8220, 8246, 8191, 8273, 8257, 8235, 8228, 8227, 8181,5.807156324386597
104, 8250, 8202, 8222, 8245, 8237, 8203, 8236, 8184, 8256, 8241, 8217, 8231, 8215, 8182,5.822360515594482
105, 8230, 8191, 8206, 8223, 8226, 8198, 8226, 8185, 8245, 8215, 8200, 8210, 8195, 8168,5.822360515594482
106, 8233, 8177, 8177, 8210, 8212, 8186, 8209, 8177, 8243, 8208, 8194, 8196, 8194, 8154,5.837972402572632
107, 8254, 8189, 8209, 8200, 8205, 8167, 8185, 8173, 8225, 8194, 8211, 8232, 8203, 8160,5.837972402572632
108, 8253, 8222, 8213, 8234, 8232, 8180, 8201, 8178, 8234, 8206, 8250, 8242, 8219, 8165,5.853177070617676
109, 8252, 8236, 8223, 8265, 8246, 8198, 8215, 8182, 8238, 8218, 8252, 8232, 8215, 8166,5.853177070617676
110, 8260, 8233, 8228, 8263, 8233, 8194, 8210, 8183, 8227, 8208, 8235, 8226, 8201, 8172,5.8685266971588135
111, 8260, 8224, 8206, 8256, 8233, 8191, 8216, 8174, 8232, 8210, 8240, 8224, 8205, 8180,5.8685266971588135
112, 8247, 8214, 8217, 8242, 8231, 8203, 8217, 8175, 8234, 8228, 8227, 8225, 8209, 8181,5.885440826416016
113, 8234, 8195, 8189, 8228, 8215, 8196, 8218, 8189, 8246, 8240, 8209, 8199, 8206, 8169,5.885440826416016
114, 8235, 8184, 8175, 8207, 8203, 8175, 8209, 8193, 8256, 8216, 8214, 8202, 8197, 8167,5.899573564529419
115, 8236, 8190, 8185, 8197, 8203, 8183, 8197, 8192, 8265, 8208, 8219, 8225, 8199, 8171,5.9152021408081055
116, 8237, 8196, 8178, 8210, 8206, 8184, 8184, 8182, 8259, 8222, 8225, 8222, 8210, 8155,5.9152021408081055
117, 8236, 8211, 8203, 8210, 8206, 8174, 8166, 8177, 8234, 8201, 8241, 8233, 8202, 8144,5.9152021408081055
118, 8224, 8222, 8191, 8209, 8213, 8180, 8165, 8173, 8235, 8190, 8247, 8224, 8188, 8146,5.931181192398071
119, 8225, 8222, 8197, 8224, 8216, 8183, 8173, 8162, 8234, 8203, 8225, 8210, 8177, 8149,5.931181192398071
120, 8234, 8214, 8220, 8239, 8211, 8192, 8196, 8171, 8234, 8215, 8215, 8211, 8177, 8159,5.946349859237671
121, 8221, 8185, 8174, 8219, 8196, 8192, 8206, 8184, 8257, 8224, 8217, 8196, 8179, 8160,5.946349859237671
122, 8199, 8169, 8160, 8173, 8177, 8184, 8180, 8183, 8253, 8218, 8191, 8191, 8162, 8147,5.962344408035278
123, 8197, 8184, 8161, 8177, 8179, 8182, 8178, 8178, 8246, 8223, 8193, 8194, 8172, 8144,5.962344408035278
124, 8214, 8193, 8168, 8191, 8192, 8173, 8183, 8174, 8245, 8219, 8224, 8212, 8195, 8160,5.9779462814331055
125, 8214, 8192, 8185, 8181, 8199, 8168, 8171, 8176, 8238, 8206, 8231, 8225, 8192, 8159,5.993332624435425
126, 8205, 8188, 8168, 8187, 8203, 8171, 8168, 8171, 8245, 8209, 8232, 8212, 8194, 8143,5.993332624435425
127, 8211, 8194, 8188, 8191, 8204, 8174, 8166, 8168, 8245, 8202, 8234, 8218, 8197, 8141,6.008495092391968
237, 8211, 8202, 8187, 8201, 8206, 8178, 8172, 8168, 8236, 8202, 8229, 8206, 8183, 8134,6.008495092391968
0, 8201, 8193, 8182, 8205, 8201, 8188, 8178, 8165, 8227, 8213, 8215, 8192, 8165, 8128,6.030415296554565
1, 8197, 8184, 8201, 8201, 8200, 8198, 8189, 8173, 8231, 8224, 8210, 8197, 8164, 8139,6.031415700912476
2, 8195, 8180, 8173, 8209, 8201, 8195, 8210, 8173, 8244, 8234, 8211, 8177, 8169, 8141,6.031415700912476
3, 8189, 8170, 8175, 8187, 8185, 8187, 8205, 8171, 8235, 8219, 8195, 8169, 8153, 8136,6.0410168170928955
4, 8179, 8155, 8169, 8164, 8173, 8188, 8201, 8180, 8237, 8211, 8187, 8166, 8154, 8137,6.056412696838379
5, 8186, 8145, 8152, 8167, 8179, 8176, 8192, 8171, 8242, 8206, 8193, 8164, 8169, 8137,6.056412696838379
6, 8205, 8165, 8181, 8179, 8189, 8167, 8174, 8169, 8239, 8201, 8201, 8181, 8176, 8143,6.071994781494141
7, 8212, 8183, 8174, 8187, 8196, 8171, 8171, 8179, 8250, 8218, 8218, 8184, 8188, 8140,6.071994781494141
8, 8208, 8170, 8177, 8161, 8183, 8165, 8156, 8177, 8239, 8204, 8224, 8190, 8178, 8126,6.087617635726929
9, 8200, 8156, 8174, 8148, 8175, 8157, 8150, 8173, 8218, 8175, 8213, 8184, 8160, 8110,6.087617635726929
10, 8189, 8171, 8167, 8167, 8184, 8151, 8154, 8159, 8194, 8164, 8198, 8165, 8147, 8098,6.103180646896362
11, 8183, 8183, 8197, 8179, 8184, 8162, 8144, 8148, 8169, 8161, 8185, 8160, 8130, 8100,6.103180646896362
12, 8177, 8156, 8167, 8174, 8180, 8175, 8158, 8155, 8182, 8174, 8176, 8146, 8128, 8107,6.118257522583008
13, 8173, 8139, 8154, 8157, 8174, 8169, 8182, 8172, 8202, 8193, 8167, 8154, 8133, 8113,6.118257522583008
14, 8172, 8153, 8165, 8164, 8174, 8172, 8185, 8181, 8213, 8207, 8177, 8166, 8143, 8121,6.134363412857056
15, 8176, 8150, 8151, 8160, 8175, 8159, 8159, 8170, 8215, 8192, 8195, 8164, 8157, 8124,6.134363412857056
16, 8181, 8150, 8165, 8133, 8168, 8129, 8133, 8167, 8200, 8160, 8194, 8184, 8159, 8117,6.149478912353516
17, 8175, 8170, 8156, 8149, 8174, 8123, 8134, 8161, 8189, 8163, 8202, 8181, 8156, 8102,6.149478912353516
18, 8170, 8178, 8169, 8167, 8179, 8141, 8130, 8147, 8173, 8170, 8203, 8167, 8141, 8094,6.165383338928223
19, 8168, 8177, 8179, 8165, 8177, 8164, 8136, 8153, 8163, 8171, 8181, 8160, 8126, 8087,6.165383338928223
20, 8166, 8168, 8155, 8174, 8173, 8165, 8157, 8158, 8173, 8178, 8169, 8153, 8132, 8091,6.18032169342041
21, 8167, 8157, 8169, 8167, 8170, 8158, 8165, 8161, 8188, 8176, 8171, 8163, 8139, 8110,6.18032169342041
22, 8172, 8156, 8152, 8153, 8172, 8161, 8171, 8168, 8212, 8189, 8175, 8154, 8149, 8115,6.198946475982666
23, 8180, 8159, 8158, 8141, 8169, 8151, 8160, 8168, 8212, 8187, 8167, 8159, 8154, 8116,6.198946475982666
24, 8182, 8163, 8180, 8145, 8165, 8134, 8137, 8171, 8201, 8171, 8161, 8171, 8156, 8116,6.210974216461182
25, 8186, 8163, 8158, 8157, 8169, 8128, 8125, 8168, 8203, 8173, 8163, 8158, 8158, 8095,6.210974216461182
26, 8190, 8170, 8176, 8148, 8173, 8140, 8130, 8166, 8191, 8167, 8169, 8165, 8147, 8085,6.226380825042725
27, 8185, 8182, 8180, 8155, 8175, 8156, 8149, 8163, 8186, 8168, 8182, 8164, 8143, 8093,6.226380825042725
28, 8191, 8191, 8193, 8185, 8177, 8164, 8152, 8155, 8176, 8165, 8178, 8161, 8135, 8094,6.242393970489502
29, 8192, 8194, 8216, 8211, 8186, 8180, 8155, 8162, 8171, 8158, 8167, 8168, 8125, 8091,6.242393970489502
30, 8173, 8176, 8182, 8207, 8189, 8180, 8160, 8162, 8178, 8161, 8167, 8152, 8123, 8093,6.258267879486084
31, 8163, 8167, 8187, 8183, 8173, 8168, 8150, 8162, 8176, 8154, 8158, 8157, 8117, 8105,6.258267879486084
32, 8182, 8174, 8200, 8206, 8165, 8173, 8171, 8178, 8200, 8176, 8172, 8181, 8139, 8126,6.273157835006714
33, 8221, 8184, 8224, 8244, 8167, 8172, 8180, 8179, 8219, 8203, 8212, 8223, 8176, 8150,6.273157835006714
34, 8235, 8192, 8243, 8249, 8160, 8157, 8149, 8169, 8202, 8193, 8238, 8258, 8189, 8150,6.289212942123413
35, 8224, 8186, 8218, 8238, 8154, 8139, 8129, 8152, 8178, 8164, 8248, 8248, 8180, 8121,6.289212942123413
36, 8227, 8199, 8268, 8253, 8159, 8147, 8131, 8148, 8154, 8146, 8251, 8254, 8160, 8103,6.305436134338379
37, 8227, 8225, 8284, 8306, 8169, 8171, 8156, 8156, 8157, 8167, 8257, 8262, 8160, 8112,6.305436134338379
38, 8234, 8200, 8243, 8294, 8160, 8162, 8166, 8156, 8171, 8170, 8250, 8259, 8167, 8134,6.321241855621338
39, 8243, 8162, 8246, 8239, 8131, 8137, 8134, 8158, 8161, 8140, 8245, 8254, 8170, 8138,6.321241855621338
40, 8229, 8179, 8255, 8266, 8120, 8130, 8100, 8152, 8140, 8129, 8271, 8253, 8184, 8126,6.336173057556152
41, 8231, 8221, 8303, 8322, 8134, 8140, 8094, 8151, 8128, 8129, 8291, 8294, 8186, 8132,6.336173057556152
42, 8245, 8224, 8303, 8348, 8146, 8158, 8128, 8168, 8156, 8155, 8286, 8304, 8183, 8142,6.351642847061157
43, 8229, 8192, 8257, 8340, 8138, 8169, 8152, 8176, 8185, 8186, 8264, 8275, 8182, 8144,6.351642847061157
44, 8219, 8180, 8249, 8309, 8125, 8164, 8138, 8170, 8174, 8177, 8260, 8286, 8184, 8145,6.36745023727417
45, 8239, 8191, 8241, 8313, 8120, 8145, 8119, 8150, 8146, 8143, 8282, 8298, 8187, 8129,6.36745023727417
46, 8253, 8213, 8275, 8342, 8134, 8149, 8108, 8144, 8108, 8107, 8267, 8289, 8161, 8117,6.383338451385498
47, 8237, 8216, 8275, 8356, 8171, 8185, 8133, 8158, 8120, 8122, 8237, 8262, 8150, 8135,6.383338451385498
48, 8227, 8184, 8228, 8333, 8180, 8187, 8168, 8169, 8176, 8166, 8244, 8254, 8175, 8153,6.398897409439087
49, 8235, 8171, 8231, 8306, 8157, 8170, 8172, 8183, 8201, 8184, 8255, 8270, 8190, 8158,6.398897409439087
50, 8239, 8178, 8224, 8304, 8149, 8162, 8160, 8178, 8202, 8178, 8246, 8256, 8192, 8151,6.414287090301514
51, 8232, 8177, 8219, 8291, 8147, 8150, 8134, 8161, 8178, 8159, 8245, 8257, 8183, 8138,6.414287090301514
52, 8231, 8176, 8208, 8283, 8156, 8156, 8135, 8167, 8165, 8158, 8260, 8264, 8180, 8127,6.4301557540893555
53, 8230, 8174, 8194, 8281, 8166, 8170, 8142, 8166, 8168, 8157, 8249, 8239, 8171, 8116,6.4301557540893555
54, 8213, 8181, 8214, 8267, 8160, 8175, 8132, 8159, 8155, 8139, 8221, 8225, 8144, 8113,6.44638729095459
55, 8198, 8182, 8188, 8274, 8168, 8187, 8153, 8169, 8155, 8154, 8217, 8205, 8139, 8115,6.44638729095459
56, 8197, 8163, 8184, 8266, 8172, 8202, 8177, 8182, 8155, 8180, 8208, 8194, 8149, 8116,6.461862087249756
57, 8189, 8147, 8182, 8242, 8170, 8212, 8184, 8181, 8164, 8196, 8188, 8189, 8155, 8120,6.461862087249756
58, 8177, 8141, 8146, 8221, 8166, 8202, 8180, 8169, 8192, 8207, 8185, 8173, 8159, 8122,6.477456331253052
59, 8182, 8146, 8165, 8205, 8144, 8188, 8164, 8170, 8203, 8203, 8186, 8178, 8161, 8119,6.477456331253052
60, 8187, 8142, 8151, 8201, 8143, 8182, 8168, 8172, 8207, 8204, 8189, 8174, 8172, 8110,6.492992639541626
61, 8182, 8137, 8142, 8180, 8172, 8182, 8168, 8169, 8206, 8193, 8189, 8176, 8174, 8111,6.492992639541626
62, 8182, 8150, 8157, 8172, 8190, 8190, 8159, 8176, 8202, 8186, 8188, 8180, 8175, 8119,6.508249282836914
63, 8181, 8152, 8141, 8180, 8182, 8176, 8147, 8163, 8177, 8193, 8181, 8159, 8172, 8105,6.508249282836914
64, 8167, 8144, 8152, 8160, 8169, 8159, 8135, 8145, 8130, 8167, 8162, 8152, 8145, 8086,6.523703336715698
65, 8151, 8148, 8146, 8160, 8169, 8179, 8150, 8149, 8128, 8157, 8166, 8143, 8137, 8083,6.523703336715698
66, 8149, 8155, 8149, 8173, 8174, 8199, 8170, 8156, 8154, 8174, 8163, 8138, 8135, 8088,6.538985013961792
67, 8145, 8148, 8151, 8171, 8174, 8202, 8185, 8168, 8179, 8190, 8136, 8123, 8120, 8088,6.538985013961792
68, 8127, 8125, 8113, 8160, 8163, 8203, 8191, 8174, 8201, 8202, 8126, 8096, 8120, 8086,6.55436110496521
69, 8124, 8113, 8123, 8127, 8148, 8207, 8181, 8176, 8208, 8200, 8122, 8106, 8128, 8092,6.55436110496521
70, 8129, 8114, 8115, 8107, 8152, 8198, 8191, 8183, 8229, 8215, 8123, 8110, 8141, 8095,6.570080995559692
71, 8139, 8119, 8112, 8110, 8163, 8174, 8188, 8185, 8229, 8223, 8134, 8113, 8153, 8104,6.570080995559692
72, 8151, 8133, 8140, 8113, 8167, 8171, 8171, 8185, 8204, 8197, 8140, 8127, 8155, 8108,6.58620548248291
73, 8147, 8137, 8118, 8102, 8166, 8169, 8168, 8175, 8193, 8162, 8136, 8114, 8141, 8083,6.58620548248291
74, 8136, 8140, 8127, 8086, 8166, 8164, 8167, 8169, 8179, 8143, 8134, 8118, 8117, 8063,6.602301836013794
75, 8139, 8157, 8142, 8120, 8180, 8184, 8180, 8166, 8186, 8166, 8143, 8118, 8119, 8063,6.602301836013794
76, 8143, 8163, 8142, 8143, 8187, 8195, 8186, 8159, 8199, 8184, 8137, 8106, 8118, 8062,6.617954730987549
77, 8126, 8162, 8150, 8123, 8181, 8194, 8179, 8170, 8205, 8185, 8136, 8115, 8110, 8071,6.617954730987549
78, 8124, 8155, 8127, 8124, 8179, 8195, 8185, 8178, 8218, 8203, 8149, 8109, 8129, 8087,6.6334803104400635
79, 8139, 8134, 8131, 8118, 8164, 8188, 8182, 8176, 8220, 8204, 8127, 8096, 8133, 8087,6.6334803104400635
80, 8126, 8116, 8114, 8102, 8153, 8178, 8180, 8183, 8232, 8205, 8110, 8085, 8122, 8079,6.650018930435181
81, 8121, 8128, 8102, 8104, 8161, 8163, 8183, 8183, 8245, 8220, 8128, 8103, 8134, 8086,6.650018930435181
82, 8147, 8149, 8136, 8110, 8165, 8164, 8184, 8189, 8243, 8228, 8151, 8131, 8157, 8100,6.666181325912476
83, 8152, 8140, 8120, 8114, 8172, 8173, 8184, 8190, 8246, 8225, 8172, 8124, 8167, 8093,6.666181325912476
84, 8136, 8137, 8127, 8108, 8172, 8166, 8166, 8173, 8233, 8200, 8171, 8133, 8157, 8083,6.681437969207764
85, 8137, 8151, 8129, 8109, 8162, 8165, 8165, 8165, 8230, 8203, 8161, 8141, 8159, 8084,6.681437969207764
86, 8143, 8146, 8115, 8100, 8160, 8159, 8160, 8164, 8220, 8206, 8157, 8132, 8153, 8083,6.697240114212036
87, 8136, 8154, 8148, 8098, 8167, 8154, 8146, 8169, 8199, 8183, 8160, 8136, 8133, 8076,6.697240114212036
88, 8125, 8175, 8142, 8129, 8183, 8165, 8165, 8170, 8219, 8203, 8166, 8123, 8134, 8067,6.712385177612305
89, 8120, 8169, 8142, 8120, 8173, 8171, 8165, 8166, 8219, 8199, 8145, 8108, 8117, 8058,6.712385177612305
90, 8111, 8148, 8136, 8095, 8151, 8161, 8147, 8163, 8188, 8151, 8111, 8085, 8083, 8042,6.728121280670166
91, 8113, 8145, 8119, 8110, 8155, 8160, 8156, 8155, 8190, 8153, 8096, 8079, 8080, 8040,6.728121280670166
92, 8126, 8154, 8140, 8116, 8168, 8181, 8175, 8169, 8206, 8191, 8106, 8120, 8107, 8070,6.744169473648071
93, 8126, 8144, 8119, 8105, 8166, 8182, 8186, 8183, 8218, 8200, 8122, 8124, 8132, 8086,6.744169473648071
94, 8133, 8137, 8127, 8102, 8158, 8167, 8189, 8183, 8220, 8188, 8119, 8116, 8131, 8083,6.7593467235565186
95, 8141, 8147, 8144, 8114, 8160, 8177, 8185, 8188, 8228, 8199, 8117, 8124, 8132, 8087,6.7593467235565186
96, 8134, 8137, 8119, 8102, 8149, 8170, 8163, 8183, 8234, 8198, 8132, 8127, 8145, 8086,6.7756102085113525
97, 8144, 8143, 8147, 8086, 8145, 8154, 8149, 8181, 8228, 8180, 8151, 8150, 8154, 8090,6.7756102085113525
98, 8161, 8170, 8155, 8115, 8165, 8158, 8153, 8174, 8226, 8190, 8169, 8158, 8162, 8092,6.791150331497192
99, 8153, 8170, 8148, 8117, 8163, 8153, 8132, 8163, 8202, 8186, 8171, 8150, 8149, 8079,6.791150331497192
100, 8132, 8163, 8145, 8098, 8158, 8155, 8128, 8166, 8192, 8175, 8166, 8136, 8135, 8062,6.8072288036346436
101, 8133, 8173, 8133, 8111, 8174, 8175, 8153, 8163, 8211, 8181, 8170, 8120, 8134, 8058,6.8072288036346436
102, 8144, 8188, 8170, 8129, 8179, 8184, 8148, 8159, 8198, 8171, 8159, 8133, 8122, 8070,6.823338508605957
103, 8132, 8185, 8161, 8151, 8173, 8179, 8140, 8161, 8188, 8181, 8142, 8122, 8117, 8074,6.823338508605957
104, 8114, 8156, 8137, 8138, 8165, 8178, 8146, 8160, 8200, 8199, 8130, 8104, 8113, 8073,6.838967800140381
105, 8111, 8148, 8135, 8106, 8157, 8185, 8158, 8166, 8208, 8188, 8116, 8102, 8100, 8065,6.838967800140381
106, 8113, 8159, 8114, 8109, 8153, 8180, 8165, 8172, 8208, 8172, 8085, 8087, 8090, 8055,6.8545215129852295
107, 8122, 8165, 8139, 8106, 8148, 8170, 8151, 8178, 8205, 8164, 8072, 8095, 8096, 8068,6.8545215129852295
108, 8132, 8163, 8134, 8093, 8141, 8159, 8138, 8174, 8207, 8170, 8120, 8109, 8127, 8074,6.870114326477051
109, 8138, 8167, 8129, 8095, 8138, 8144, 8115, 8158, 8188, 8160, 8150, 8117, 8132, 8055,6.870114326477051
110, 8148, 8193, 8166, 8116, 8147, 8152, 8109, 8162, 8182, 8148, 8144, 8129, 8124, 8051,6.886315822601318
111, 8165, 8206, 8159, 8131, 8152, 8157, 8124, 8162, 8192, 8151, 8155, 8132, 8133, 8067,6.886315822601318
112, 8173, 8195, 8166, 8117, 8145, 8147, 8120, 8153, 8170, 8134, 8146, 8138, 8120, 8072,6.902325391769409
113, 8156, 8179, 8152, 8119, 8148, 8154, 8130, 8160, 8168, 8130, 8124, 8121, 8108, 8061,6.902325391769409
114, 8143, 8173, 8138, 8120, 8150, 8153, 8133, 8164, 8181, 8144, 8125, 8110, 8119, 8062,6.917950868606567
115, 8145, 8178, 8157, 8120, 8145, 8151, 8127, 8163, 8179, 8153, 8123, 8114, 8116, 8067,6.917950868606567
116, 8141, 8164, 8138, 8141, 8151, 8166, 8151, 8168, 8193, 8159, 8113, 8101, 8106, 8066,6.933050870895386
117, 8135, 8146, 8136, 8124, 8149, 8169, 8157, 8179, 8199, 8154, 8106, 8101, 8103, 8074,6.933050870895386
118, 8127, 8138, 8112, 8102, 8139, 8160, 8149, 8175, 8201, 8163, 8109, 8091, 8110, 8079,6.948385238647461
119, 8142, 8145, 8109, 8114, 8148, 8162, 8159, 8165, 8208, 8165, 8114, 8093, 8117, 8080,6.948385238647461
120, 8172, 8164, 8158, 8130, 8162, 8172, 8168, 8183, 8219, 8155, 8123, 8129, 8131, 8095,6.964049816131592
121, 8175, 8166, 8135, 8130, 8157, 8157, 8154, 8180, 8221, 8165, 8143, 8131, 8147, 8095,6.964049816131592
122, 8164, 8165, 8134, 8113, 8147, 8136, 8127, 8162, 8186, 8151, 8153, 8136, 8139, 8080,6.979184865951538
123, 8171, 8177, 8154, 8128, 8160, 8144, 8134, 8170, 8172, 8132, 8166, 8152, 8144, 8079,6.979184865951538
124, 8190, 8182, 8159, 8158, 8173, 8144, 8148, 8174, 8187, 8142, 8178, 8158, 8165, 8087,6.995270252227783
125, 8197, 8194, 8192, 8167, 8173, 8150, 8147, 8172, 8188, 8158, 8187, 8176, 8168, 8099,7.011380434036255
126, 8185, 8203, 8174, 8176, 8182, 8161, 8153, 8169, 8189, 8159, 8199, 8166, 8168, 8095,7.011380434036255
127, 8173, 8198, 8173, 8184, 8181, 8159, 8147, 8162, 8167, 8144, 8182, 8149, 8160, 8084,7.011380434036255
237, 8171, 8193, 8187, 8198, 8176, 8179, 8158, 8172, 8165, 8176, 8172, 8144, 8158, 8094,7.026951551437378
0, 8176, 8179, 8170, 8194, 8181, 8194, 8179, 8176, 8189, 8200, 8178, 8149, 8166, 8108,7.026951551437378
1, 8173, 8169, 8174, 8181, 8177, 8186, 8174, 8169, 8178, 8144, 8156, 8148, 8150, 8102,7.042985439300537
2, 8162, 8168, 8156, 8193, 8174, 8172, 8164, 8162, 8160, 8123, 8129, 8115, 8133, 8084,7.042985439300537
3, 8175, 8174, 8164, 8189, 8180, 8158, 8146, 8160, 8157, 8153, 8133, 8133, 8141, 8087,7.058140993118286
4, 8190, 8181, 8174, 8181, 8190, 8149, 8134, 8166, 8164, 8148, 8151, 8171, 8159, 8099,7.058140993118286
5, 8186, 8172, 8161, 8187, 8182, 8136, 8125, 8162, 8160, 8119, 8154, 8163, 8164, 8094,7.073675632476807
6, 8186, 8174, 8180, 8178, 8169, 8138, 8105, 8150, 8133, 8109, 8147, 8161, 8153, 8085,7.073675632476807
7, 8182, 8190, 8161, 8180, 8172, 8140, 8100, 8143, 8120, 8107, 8146, 8154, 8146, 8079,7.088369369506836
8, 8177, 8193, 8171, 8188, 8164, 8129, 8101, 8147, 8117, 8085, 8151, 8159, 8133, 8078,7.105468034744263
9, 8178, 8192, 8194, 8189, 8162, 8136, 8116, 8160, 8122, 8090, 8162, 8170, 8136, 8086,7.105468034744263
10, 8171, 8196, 8168, 8204, 8179, 8158, 8133, 8154, 8122, 8113, 8153, 8143, 8135, 8087,7.105468034744263
11, 8160, 8191, 8180, 8206, 8181, 8177, 8144, 8158, 8115, 8108, 8126, 8125, 8115, 8084,7.120001554489136
12, 8158, 8166, 8166, 8185, 8172, 8189, 8167, 8173, 8144, 8118, 8124, 8127, 8128, 8089,7.135014772415161
13, 8166, 8153, 8153, 8168, 8167, 8179, 8162, 8169, 8165, 8134, 8129, 8139, 8146, 8096,7.135014772415161
14, 8169, 8173, 8163, 8174, 8168, 8163, 8143, 8170, 8166, 8139, 8123, 8144, 8150, 8095,7.150355100631714
15, 8172, 8186, 8144, 8172, 8174, 8152, 8143, 8175, 8183, 8139, 8136, 8149, 8163, 8091,7.150355100631714
16, 8182, 8193, 8165, 8152, 8174, 8152, 8136, 8171, 8177, 8127, 8156, 8169, 8166, 8092,7.166080713272095
17, 8172, 8201, 8168, 8165, 8170, 8162, 8137, 8164, 8163, 8133, 8156, 8149, 8156, 8081,7.166080713272095
18, 8154, 8191, 8165, 8164, 8173, 8168, 8147, 8161, 8164, 8145, 8141, 8129, 8142, 8076,7.181578636169434
19, 8148, 8183, 8172, 8150, 8182, 8182, 8153, 8165, 8174, 8152, 8136, 8134, 8134, 8087,7.181578636169434
20, 8146, 8171, 8140, 8157, 8186, 8194, 8163, 8164, 8184, 8167, 8130, 8113, 8139, 8085,7.197288990020752
21, 8142, 8149, 8140, 8138, 8176, 8189, 8159, 8176, 8193, 8176, 8115, 8114, 8146, 8084,7.197288990020752
22, 8146, 8153, 8137, 8126, 8173, 8171, 8142, 8180, 8203, 8180, 8137, 8139, 8162, 8089,7.213089227676392
23, 8167, 8182, 8151, 8142, 8177, 8159, 8130, 8160, 8185, 8166, 8169, 8153, 8167, 8085,7.213089227676392
24, 8166, 8188, 8177, 8156, 8183, 8181, 8147, 8165, 8169, 8159, 8161, 8144, 8153, 8084,7.228017330169678
25, 8142, 8158, 8136, 8149, 8181, 8187, 8166, 8170, 8186, 8176, 8143, 8118, 8152, 8087,7.228017330169678
26, 8140, 8142, 8134, 8121, 8166, 8165, 8147, 8158, 8182, 8166, 8128, 8117, 8151, 8086,7.24317193031311
27, 8139, 8151, 8132, 8118, 8169, 8164, 8149, 8161, 8177, 8160, 8120, 8111, 8147, 8078,7.24317193031311
28, 8137, 8153, 8114, 8117, 8174, 8166, 8157, 8169, 8186, 8167, 8128, 8112, 8150, 8078,7.258312702178955
29, 8147, 8155, 8137, 8104, 8156, 8154, 8143, 8174, 8192, 8151, 8138, 8130, 8146, 8085,7.258312702178955
30, 8153, 8155, 8123, 8107, 8150, 8147, 8144, 8171, 8197, 8143, 8137, 8121, 8146, 8077,7.274297475814819
31, 8157, 8165, 8139, 8111, 8162, 8148, 8140, 8165, 8180, 8140, 8136, 8127, 8149, 8070,7.274297475814819
32, 8161, 8189, 8167, 8138, 8179, 8164, 8140, 8164, 8171, 8145, 8151, 8133, 8152, 8076,7.289913892745972
33, 8159, 8184, 8169, 8165, 8184, 8174, 8153, 8167, 8182, 8166, 8156, 8125, 8146, 8089,7.289913892745972
34, 8156, 8158, 8172, 8144, 8169, 8169, 8165, 8178, 8187, 8173, 8138, 8134, 8145, 8102,7.305542707443237
35, 8158, 8141, 8136, 8125, 8160, 8160, 8168, 8175, 8195, 8168, 8138, 8127, 8159, 8096,7.305542707443237
36, 8156, 8146, 8144, 8116, 8157, 8155, 8151, 8167, 8187, 8152, 8149, 8128, 8158, 8089,7.321001052856445
37, 8148, 8146, 8148, 8105, 8153, 8146, 8142, 8169, 8174, 8140, 8150, 8130, 8156, 8086,7.321001052856445
38, 8155, 8139, 8131, 8101, 8151, 8132, 8141, 8158, 8165, 8132, 8155, 8131, 8158, 8082,7.337039470672607
39, 8175, 8164, 8176, 8123, 8163, 8143, 8139, 8160, 8156, 8139, 8171, 8160, 8156, 8086,7.337039470672607
40, 8179, 8192, 8186, 8172, 8181, 8166, 8152, 8171, 8167, 8166, 8193, 8166, 8164, 8092,7.35286545753479
41, 8173, 8192, 8194, 8180, 8185, 8168, 8148, 8167, 8161, 8161, 8186, 8161, 8159, 8100,7.35286545753479
42, 8173, 8187, 8201, 8168, 8192, 8181, 8151, 8167, 8161, 8163, 8175, 8159, 8154, 8106,7.368947505950928
43, 8172, 8172, 8170, 8175, 8194, 8196, 8172, 8169, 8184, 8191, 8167, 8143, 8154, 8106,7.368947505950928
44, 8172, 8159, 8174, 8164, 8178, 8191, 8174, 8176, 8189, 8189, 8154, 8145, 8148, 8108,7.38547945022583
45, 8172, 8166, 8162, 8154, 8174, 8175, 8173, 8178, 8200, 8183, 8169, 8150, 8164, 8109,7.38547945022583
46, 8168, 8165, 8154, 8136, 8172, 8155, 8164, 8171, 8199, 8184, 8180, 8155, 8171, 8107,7.400933742523193
47, 8165, 8153, 8154, 8125, 8165, 8147, 8150, 8170, 8180, 8176, 8174, 8154, 8162, 8098,7.400933742523193
48, 8166, 8161, 8148, 8140, 8169, 8149, 8145, 8162, 8166, 8155, 8183, 8146, 8155, 8084,7.416341304779053
49, 8158, 8175, 8178, 8144, 8182, 8170, 8153, 8163, 8161, 8140, 8170, 8143, 8135, 8078,7.416341304779053
50, 8142, 8157, 8148, 8143, 8183, 8188, 8174, 8171, 8187, 8169, 8151, 8111, 8133, 8078,7.4323883056640625
51, 8154, 8136, 8125, 8127, 8158, 8159, 8155, 8167, 8193, 8173, 8153, 8109, 8145, 8080,7.4323883056640625
52, 8162, 8145, 8141, 8106, 8145, 8138, 8126, 8163, 8169, 8136, 8144, 8134, 8138, 8072,7.4479711055755615
53, 8152, 8163, 8132, 8128, 8166, 8154, 8135, 8160, 8161, 8134, 8146, 8128, 8134, 8060,7.4479711055755615
54, 8156, 8173, 8160, 8166, 8178, 8180, 8160, 8159, 8163, 8162, 8172, 8135, 8149, 8079,7.463381052017212
55, 8161, 8153, 8145, 8164, 8171, 8187, 8180, 8163, 8182, 8188, 8178, 8134, 8167, 8099,7.463381052017212
56, 8175, 8143, 8130, 8137, 8169, 8166, 8165, 8163, 8191, 8177, 8169, 8138, 8170, 8093,7.479320287704468
57, 8192, 8192, 8171, 8162, 8184, 8163, 8140, 8166, 8176, 8156, 8192, 8160, 8174, 8087,7.479320287704468
58, 8185, 8206, 8166, 8194, 8193, 8181, 8149, 8163, 8165, 8174, 8206, 8150, 8180, 8096,7.494357109069824
59, 8178, 8162, 8162, 8162, 8181, 8188, 8167, 8169, 8168, 8190, 8172, 8143, 8169, 8105,7.494357109069824
60, 8183, 8146, 8146, 8137, 8170, 8178, 8178, 8183, 8200, 8190, 8174, 8145, 8180, 8108,7.51016640663147
61, 8197, 8169, 8156, 8142, 8173, 8161, 8159, 8176, 8205, 8173, 8208, 8165, 8202, 8114,7.51016640663147
62, 8215, 8197, 8204, 8165, 8187, 8167, 8147, 8168, 8182, 8163, 8215, 8185, 8199, 8122,7.526180267333984
63, 8213, 8197, 8188, 8193, 8197, 8185, 8174, 8175, 8185, 8186, 8199, 8166, 8190, 8119,7.526180267333984
64, 8185, 8163, 8171, 8163, 8184, 8184, 8178, 8186, 8190, 8187, 8173, 8162, 8178, 8121,7.541506290435791
65, 8170, 8137, 8149, 8129, 8170, 8177, 8164, 8184, 8199, 8176, 8169, 8161, 8185, 8126,7.541506290435791
66, 8193, 8153, 8142, 8138, 8172, 8164, 8162, 8174, 8202, 8169, 8188, 8158, 8193, 8112,7.557310342788696
67, 8205, 8185, 8170, 8148, 8175, 8160, 8163, 8177, 8180, 8152, 8200, 8172, 8178, 8098,7.557310342788696
68, 8181, 8179, 8150, 8156, 8174, 8169, 8177, 8175, 8176, 8154, 8197, 8159, 8169, 8098,7.572780132293701
69, 8172, 8159, 8159, 8155, 8170, 8189, 8195, 8179, 8193, 8171, 8185, 8150, 8172, 8111,7.572780132293701
70, 8187, 8155, 8158, 8155, 8173, 8196, 8201, 8190, 8217, 8195, 8184, 8152, 8185, 8123,7.588778734207153
71, 8193, 8145, 8134, 8148, 8174, 8175, 8183, 8178, 8220, 8192, 8183, 8156, 8189, 8120,7.588778734207153
72, 8199, 8160, 8164, 8146, 8171, 8171, 8163, 8177, 8211, 8177, 8190, 8178, 8190, 8116,7.6054158210754395
73, 8214, 8193, 8177, 8179, 8190, 8179, 8176, 8186, 8224, 8195, 8222, 8189, 8209, 8121,7.6054158210754395
74, 8213, 8197, 8195, 8191, 8201, 8180, 8180, 8176, 8218, 8190, 8219, 8189, 8196, 8124,7.620964765548706
75, 8188, 8175, 8189, 8177, 8187, 8185, 8180, 8163, 8198, 8172, 8186, 8167, 8167, 8107,7.620964765548706
76, 8179, 8148, 8154, 8161, 8175, 8183, 8186, 8164, 8194, 8183, 8176, 8156, 8168, 8098,7.636922836303711
77, 8196, 8147, 8172, 8147, 8177, 8183, 8190, 8176, 8204, 8197, 8187, 8181, 8188, 8121,7.636922836303711
78, 8209, 8161, 8166, 8154, 8181, 8178, 8194, 8174, 8214, 8195, 8197, 8185, 8208, 8132,7.652594804763794
79, 8211, 8163, 8167, 8143, 8172, 8160, 8167, 8159, 8187, 8161, 8186, 8186, 8197, 8110,7.652594804763794
80, 8201, 8162, 8172, 8133, 8168, 8157, 8149, 8160, 8161, 8134, 8169, 8180, 8173, 8092,7.668603420257568
81, 8188, 8168, 8161, 8149, 8174, 8159, 8158, 8158, 8166, 8135, 8168, 8159, 8162, 8087,7.668603420257568
82, 8190, 8175, 8192, 8165, 8178, 8169, 8164, 8161, 8176, 8152, 8172, 8169, 8159, 8094,7.683553695678711
83, 8185, 8162, 8170, 8175, 8185, 8196, 8183, 8173, 8197, 8181, 8167, 8163, 8167, 8100,7.683553695678711
84, 8175, 8142, 8149, 8160, 8175, 8197, 8191, 8171, 8198, 8183, 8151, 8152, 8168, 8107,7.699432134628296
85, 8180, 8134, 8155, 8134, 8159, 8177, 8184, 8168, 8194, 8187, 8161, 8161, 8180, 8116,7.699432134628296
86, 8194, 8136, 8145, 8127, 8156, 8161, 8175, 8163, 8197, 8194, 8184, 8169, 8195, 8112,7.7154130935668945
87, 8206, 8171, 8181, 8151, 8174, 8171, 8168, 8160, 8176, 8164, 8184, 8188, 8188, 8106,7.7154130935668945
88, 8207, 8207, 8188, 8197, 8203, 8183, 8175, 8159, 8169, 8151, 8189, 8185, 8184, 8101,7.730130195617676
89, 8196, 8195, 8183, 8191, 8202, 8175, 8173, 8158, 8170, 8159, 8186, 8168, 8172, 8097,7.730130195617676
90, 8172, 8166, 8180, 8162, 8179, 8184, 8189, 8170, 8175, 8179, 8173, 8159, 8160, 8102,7.746095895767212
91, 8159, 8150, 8141, 8160, 8175, 8189, 8206, 8172, 8197, 8192, 8174, 8150, 8172, 8106,7.746095895767212
92, 8179, 8151, 8161, 8147, 8181, 8173, 8184, 8174, 8203, 8176, 8175, 8174, 8191, 8119,7.760825872421265
93, 8200, 8164, 8165, 8141, 8179, 8163, 8170, 8174, 8198, 8178, 8186, 8184, 8203, 8125,7.760825872421265
94, 8207, 8178, 8164, 8152, 8167, 8149, 8162, 8157, 8177, 8174, 8202, 8184, 8195, 8112,7.775969505310059
95, 8205, 8194, 8195, 8173, 8166, 8145, 8147, 8155, 8158, 8153, 8205, 8193, 8184, 8105,7.775969505310059
96, 8200, 8197, 8193, 8197, 8180, 8165, 8154, 8162, 8164, 8166, 8198, 8184, 8185, 8109,7.792022466659546
97, 8189, 8188, 8196, 8187, 8181, 8186, 8175, 8169, 8163, 8186, 8178, 8180, 8178, 8113,7.792022466659546
98, 8185, 8179, 8173, 8176, 8176, 8189, 8202, 8180, 8180, 8194, 8169, 8164, 8183, 8117,7.808104991912842
99, 8197, 8163, 8157, 8163, 8173, 8170, 8201, 8178, 8196, 8190, 8171, 8159, 8195, 8126,7.808104991912842
100, 8192, 8149, 8162, 8135, 8162, 8155, 8171, 8165, 8178, 8166, 8167, 8172, 8191, 8115,7.823754072189331
101, 8181, 8151, 8136, 8130, 8161, 8152, 8164, 8155, 8169, 8153, 8173, 8163, 8191, 8092,7.823754072189331
102, 8194, 8172, 8172, 8144, 8170, 8146, 8165, 8159, 8168, 8153, 8182, 8175, 8189, 8097,7.839600086212158
103, 8205, 8189, 8195, 8170, 8179, 8144, 8167, 8169, 8170, 8164, 8188, 8182, 8182, 8110,7.839600086212158
104, 8202, 8185, 8184, 8184, 8177, 8154, 8173, 8163, 8165, 8165, 8182, 8172, 8177, 8111,7.855520009994507
105, 8193, 8183, 8198, 8182, 8176, 8180, 8187, 8167, 8163, 8168, 8172, 8175, 8180, 8117,7.855520009994507
106, 8187, 8171, 8168, 8176, 8183, 8185, 8206, 8180, 8184, 8191, 8177, 8165, 8196, 8125,7.871182680130005
107, 8198, 8159, 8171, 8148, 8174, 8167, 8188, 8180, 8185, 8186, 8179, 8178, 8204, 8132,7.871182680130005
108, 8206, 8166, 8181, 8145, 8167, 8157, 8162, 8166, 8178, 8169, 8179, 8187, 8205, 8127,7.8864312171936035
109, 8198, 8174, 8169, 8162, 8173, 8142, 8150, 8148, 8158, 8148, 8181, 8177, 8194, 8108,7.8864312171936035
110, 8204, 8187, 8192, 8161, 8177, 8146, 8154, 8157, 8142, 8143, 8194, 8197, 8189, 8111,7.902365446090698
111, 8210, 8200, 8190, 8176, 8189, 8176, 8185, 8169, 8167, 8187, 8222, 8205, 8215, 8133,7.902365446090698
112, 8204, 8204, 8204, 8194, 8196, 8189, 8201, 8170, 8185, 8207, 8215, 8200, 8210, 8145,7.917195796966553
113, 8202, 8193, 8198, 8202, 8193, 8190, 8214, 8178, 8194, 8208, 8188, 8189, 8187, 8141,7.933315992355347
114, 8196, 8175, 8164, 8189, 8183, 8187, 8211, 8175, 8203, 8211, 8182, 8184, 8189, 8131,7.933315992355347
115, 8192, 8174, 8180, 8167, 8166, 8171, 8181, 8176, 8204, 8199, 8187, 8201, 8196, 8134,7.933315992355347
116, 8198, 8176, 8170, 8173, 8163, 8147, 8168, 8179, 8216, 8198, 8196, 8198, 8204, 8136,7.949128866195679
117, 8207, 8176, 8176, 8163, 8168, 8137, 8167, 8170, 8210, 8194, 8199, 8204, 8199, 8129,7.949128866195679
118, 8201, 8182, 8181, 8154, 8171, 8150, 8175, 8167, 8190, 8177, 8199, 8201, 8188, 8116,7.964336156845093
119, 8188, 8181, 8159, 8175, 8176, 8154, 8180, 8161, 8175, 8156, 8187, 8173, 8170, 8094,7.964336156845093
120, 8180, 8182, 8181, 8182, 8175, 8161, 8178, 8160, 8170, 8150, 8159, 8166, 8150, 8089,7.979644298553467
121, 8163, 8176, 8155, 8181, 8175, 8178, 8196, 8163, 8189, 8174, 8149, 8146, 8148, 8091,7.99519681930542
122, 8157, 8158, 8136, 8171, 8174, 8184, 8200, 8161, 8196, 8183, 8150, 8136, 8152, 8093,7.99519681930542
123, 8159, 8154, 8142, 8158, 8174, 8177, 8191, 8171, 8205, 8193, 8154, 8147, 8167, 8100,8.011839628219604
124, 8166, 8159, 8124, 8148, 8173, 8152, 8192, 8174, 8223, 8210, 8177, 8156, 8192, 8108,8.011839628219604
125, 8186, 8171, 8153, 8140, 8174, 8145, 8187, 8174, 8217, 8192, 8202, 8186, 8202, 8123,8.011839628219604
126, 8184, 8176, 8150, 8146, 8176, 8151, 8178, 8166, 8208, 8170, 8206, 8182, 8198, 8115,8.033056735992432
127, 8168, 8166, 8139, 8147, 8173, 8135, 8157, 8152, 8188, 8160, 8192, 8160, 8182, 8089,8.033056735992432
237, 8167, 8175, 8161, 8161, 8179, 8145, 8157, 8162, 8182, 8171, 8202, 8164, 8182, 8082,8.041213274002075
0, 8175, 8186, 8158, 8191, 8188, 8177, 8181, 8167, 8205, 8196, 8213, 8164, 8190, 8094,8.056770086288452
1, 8173, 8180, 8178, 8195, 8181, 8176, 8187, 8162, 8201, 8194, 8187, 8165, 8176, 8108,8.056770086288452
2, 8171, 8174, 8172, 8197, 8187, 8173, 8201, 8167, 8204, 8197, 8182, 8162, 8181, 8115,8.07233476638794
3, 8189, 8177, 8165, 8188, 8196, 8182, 8216, 8176, 8230, 8210, 8199, 8178, 8205, 8128,8.07233476638794
4, 8199, 8172, 8169, 8163, 8186, 8177, 8211, 8184, 8242, 8211, 8200, 8194, 8214, 8137,8.087432384490967
5, 8193, 8163, 8143, 8156, 8174, 8159, 8190, 8178, 8235, 8210, 8200, 8183, 8219, 8133,8.087432384490967
6, 8200, 8175, 8167, 8151, 8171, 8151, 8164, 8176, 8219, 8200, 8215, 8204, 8221, 8130,8.103468418121338
7, 8205, 8185, 8169, 8154, 8175, 8153, 8168, 8174, 8213, 8194, 8232, 8206, 8218, 8121,8.103468418121338
8, 8191, 8178, 8161, 8166, 8179, 8156, 8184, 8161, 8202, 8188, 8227, 8178, 8203, 8113,8.118648767471313
9, 8178, 8177, 8179, 8178, 8184, 8174, 8198, 8165, 8196, 8188, 8199, 8164, 8180, 8117,8.118648767471313
10, 8177, 8167, 8151, 8180, 8182, 8180, 8208, 8169, 8207, 8205, 8180, 8149, 8178, 8121,8.134386539459229
11, 8181, 8153, 8159, 8158, 8172, 8171, 8205, 8174, 8218, 8214, 8179, 8165, 8194, 8134,8.134386539459229
12, 8180, 8159, 8159, 8155, 8172, 8175, 8208, 8183, 8239, 8223, 8189, 8172, 8215, 8142,8.150124549865723
13, 8188, 8166, 8149, 8158, 8172, 8166, 8190, 8169, 8228, 8209, 8194, 8170, 8214, 8130,8.150124549865723
14, 8206, 8186, 8187, 8163, 8178, 8162, 8168, 8159, 8194, 8181, 8204, 8191, 8203, 8114,8.165280818939209
15, 8211, 8209, 8190, 8197, 8197, 8171, 8184, 8162, 8205, 8195, 8231, 8195, 8213, 8118,8.165280818939209
16, 8206, 8210, 8195, 8204, 8197, 8172, 8192, 8167, 8210, 8208, 8232, 8189, 8210, 8138,8.180720806121826
17, 8192, 8191, 8185, 8193, 8189, 8176, 8198, 8172, 8204, 8201, 8207, 8174, 8195, 8134,8.180720806121826
18, 8192, 8172, 8171, 8198, 8193, 8183, 8214, 8170, 8224, 8210, 8189, 8166, 8194, 8120,8.196390390396118
19, 8203, 8180, 8193, 8204, 8194, 8188, 8217, 8177, 8245, 8235, 8191, 8177, 8199, 8131,8.196390390396118
20, 8195, 8177, 8163, 8197, 8187, 8181, 8209, 8180, 8252, 8244, 8207, 8167, 8211, 8138,8.212275981903076
21, 8185, 8156, 8158, 8167, 8177, 8162, 8186, 8170, 8240, 8210, 8204, 8177, 8214, 8128,8.212275981903076
22, 8192, 8159, 8168, 8168, 8178, 8159, 8175, 8169, 8237, 8191, 8201, 8192, 8219, 8123,8.228359699249268
23, 8207, 8177, 8164, 8186, 8185, 8160, 8173, 8173, 8231, 8196, 8223, 8191, 8230, 8127,8.228359699249268
24, 8216, 8190, 8190, 8187, 8193, 8159, 8164, 8174, 8202, 8183, 8230, 8200, 8219, 8129,8.244028091430664
25, 8207, 8196, 8179, 8205, 8205, 8158, 8169, 8165, 8196, 8178, 8216, 8189, 8201, 8114,8.244028091430664
26, 8199, 8198, 8195, 8217, 8200, 8157, 8173, 8162, 8196, 8183, 8209, 8184, 8186, 8103,8.259251594543457
27, 8201, 8199, 8216, 8223, 8199, 8166, 8178, 8174, 8195, 8192, 8225, 8193, 8194, 8117,8.259251594543457
28, 8202, 8200, 8202, 8246, 8210, 8170, 8183, 8163, 8195, 8194, 8231, 8193, 8203, 8120,8.275275230407715
29, 8195, 8203, 8226, 8257, 8197, 8172, 8177, 8153, 8187, 8181, 8213, 8208, 8189, 8116,8.275275230407715
30, 8205, 8197, 8211, 8263, 8185, 8173, 8187, 8165, 8206, 8191, 8219, 8216, 8201, 8132,8.290397882461548
31, 8230, 8195, 8211, 8258, 8185, 8162, 8176, 8170, 8209, 8178, 8229, 8236, 8214, 8139,8.290397882461548
32, 8235, 8211, 8233, 8267, 8182, 8154, 8155, 8166, 8196, 8153, 8232, 8250, 8207, 8117,8.306097507476807
33, 8236, 8227, 8231, 8298, 8187, 8150, 8165, 8160, 8205, 8169, 8252, 8249, 8214, 8118,8.306097507476807
34, 8242, 8241, 8267, 8309, 8193, 8157, 8171, 8166, 8198, 8176, 8268, 8273, 8226, 8143,8.321152448654175
35, 8237, 8238, 8265, 8316, 8191, 8171, 8170, 8166, 8181, 8172, 8265, 8271, 8224, 8142,8.321152448654175
36, 8233, 8218, 8252, 8314, 8179, 8179, 8173, 8154, 8169, 8169, 8241, 8255, 8201, 8136,8.337385892868042
37, 8221, 8200, 8248, 8301, 8169, 8187, 8185, 8159, 8166, 8168, 8214, 8239, 8183, 8134,8.337385892868042
38, 8200, 8180, 8214, 8283, 8156, 8174, 8186, 8160, 8167, 8169, 8202, 8215, 8183, 8124,8.35300874710083
39, 8203, 8173, 8223, 8258, 8146, 8163, 8170, 8161, 8164, 8168, 8205, 8226, 8179, 8129,8.35300874710083
40, 8205, 8172, 8198, 8253, 8158, 8170, 8175, 8167, 8177, 8179, 8209, 8224, 8182, 8127,8.368151426315308
41, 8201, 8167, 8180, 8239, 8164, 8159, 8168, 8161, 8172, 8165, 8207, 8223, 8186, 8108,8.368151426315308
42, 8202, 8177, 8208, 8221, 8155, 8148, 8149, 8162, 8155, 8151, 8216, 8235, 8185, 8109,8.38372540473938
43, 8194, 8183, 8194, 8221, 8154, 8149, 8149, 8158, 8151, 8163, 8223, 8214, 8178, 8111,8.38372540473938
44, 8196, 8183, 8205, 8215, 8162, 8153, 8146, 8153, 8137, 8153, 8201, 8213, 8165, 8102,8.399361371994019
45, 8208, 8188, 8208, 8222, 8169, 8158, 8151, 8154, 8139, 8149, 8188, 8213, 8167, 8101,8.399361371994019
46, 8198, 8175, 8200, 8211, 8161, 8168, 8161, 8153, 8142, 8160, 8178, 8192, 8163, 8105,8.414415836334229
47, 8174, 8159, 8199, 8196, 8161, 8184, 8175, 8163, 8151, 8172, 8159, 8187, 8160, 8110,8.414415836334229
48, 8181, 8152, 8169, 8199, 8165, 8175, 8183, 8176, 8190, 8198, 8167, 8197, 8187, 8120,8.429944038391113
49, 8201, 8150, 8182, 8167, 8149, 8156, 8164, 8182, 8201, 8195, 8176, 8214, 8196, 8132,8.429944038391113
50, 8188, 8148, 8164, 8148, 8141, 8152, 8156, 8175, 8180, 8175, 8167, 8199, 8182, 8122,8.445193529129028
51, 8175, 8142, 8138, 8165, 8152, 8137, 8154, 8162, 8166, 8166, 8162, 8187, 8180, 8106,8.445193529129028
52, 8188, 8155, 8174, 8171, 8158, 8137, 8151, 8174, 8174, 8165, 8178, 8210, 8192, 8115,8.460322618484497
53, 8190, 8163, 8166, 8166, 8161, 8154, 8163, 8173, 8179, 8162, 8181, 8200, 8179, 8111,8.460322618484497
54, 8173, 8155, 8161, 8155, 8160, 8145, 8153, 8155, 8133, 8135, 8148, 8177, 8133, 8081,8.476799011230469
55, 8161, 8149, 8165, 8164, 8164, 8144, 8151, 8156, 8107, 8133, 8140, 8165, 8123, 8074,8.476799011230469
56, 8164, 8148, 8164, 8178, 8172, 8167, 8169, 8164, 8128, 8151, 8152, 8159, 8136, 8086,8.4923837184906
57, 8157, 8148, 8172, 8171, 8168, 8181, 8176, 8165, 8132, 8141, 8130, 8145, 8117, 8080,8.4923837184906
58, 8139, 8136, 8131, 8161, 8158, 8173, 8183, 8156, 8126, 8139, 8112, 8116, 8108, 8067,8.508224487304688
59, 8136, 8118, 8133, 8141, 8149, 8164, 8188, 8164, 8126, 8153, 8117, 8128, 8121, 8076,8.508224487304688
60, 8144, 8118, 8137, 8138, 8149, 8171, 8193, 8184, 8148, 8176, 8117, 8137, 8138, 8091,8.523265838623047
61, 8155, 8132, 8120, 8152, 8152, 8162, 8178, 8179, 8160, 8176, 8122, 8131, 8154, 8095,8.53945517539978
62, 8163, 8149, 8152, 8149, 8153, 8148, 8154, 8172, 8140, 8150, 8147, 8160, 8161, 8098,8.53945517539978
63, 8147, 8153, 8136, 8148, 8153, 8146, 8163, 8169, 8134, 8146, 8161, 8154, 8155, 8085,8.53945517539978
64, 8132, 8150, 8136, 8150, 8147, 8149, 8171, 8166, 8128, 8152, 8134, 8129, 8129, 8069,8.55446982383728
65, 8143, 8153, 8154, 8154, 8145, 8165, 8179, 8178, 8133, 8175, 8121, 8124, 8124, 8079,8.55446982383728
66, 8160, 8142, 8129, 8143, 8146, 8166, 8182, 8174, 8150, 8186, 8128, 8130, 8140, 8094,8.571515321731567
67, 8158, 8136, 8133, 8116, 8144, 8153, 8162, 8163, 8139, 8152, 8114, 8147, 8137, 8095,8.571515321731567
68, 8155, 8155, 8132, 8133, 8156, 8145, 8154, 8160, 8129, 8140, 8121, 8144, 8135, 8082,8.586528778076172
69, 8163, 8169, 8160, 8153, 8167, 8147, 8149, 8152, 8121, 8150, 8138, 8151, 8133, 8080,8.602269411087036
70, 8156, 8159, 8173, 8148, 8163, 8167, 8156, 8152, 8118, 8153, 8123, 8153, 8125, 8083,8.602269411087036
71, 8151, 8138, 8137, 8148, 8156, 8175, 8178, 8162, 8137, 8165, 8113, 8133, 8126, 8088,8.602269411087036
72, 8170, 8142, 8153, 8142, 8147, 8165, 8170, 8174, 8154, 8171, 8132, 8158, 8144, 8105,8.61754846572876
73, 8180, 8163, 8153, 8143, 8161, 8161, 8150, 8171, 8158, 8164, 8154, 8173, 8163, 8106,8.63318395614624
74, 8176, 8169, 8159, 8142, 8178, 8152, 8140, 8156, 8134, 8141, 8146, 8164, 8146, 8090,8.63318395614624
75, 8165, 8166, 8176, 8148, 8168, 8142, 8141, 8157, 8117, 8136, 8137, 8158, 8120, 8081,8.648317575454712
76, 8147, 8153, 8152, 8152, 8159, 8146, 8145, 8157, 8115, 8143, 8128, 8140, 8111, 8074,8.648317575454712
77, 8145, 8156, 8170, 8146, 8171, 8172, 8156, 8157, 8107, 8137, 8107, 8138, 8104, 8079,8.648317575454712
78, 8151, 8171, 8172, 8178, 8184, 8185, 8179, 8163, 8132, 8164, 8122, 8138, 8123, 8093,8.663936376571655
79, 8147, 8164, 8163, 8190, 8178, 8177, 8169, 8163, 8148, 8187, 8142, 8144, 8141, 8096,8.679064273834229
80, 8144, 8149, 8173, 8162, 8175, 8185, 8162, 8169, 8145, 8186, 8132, 8149, 8142, 8096,8.679064273834229
81, 8151, 8142, 8155, 8156, 8168, 8183, 8177, 8167, 8163, 8192, 8130, 8142, 8155, 8106,8.69432544708252
82, 8167, 8151, 8176, 8151, 8153, 8160, 8160, 8164, 8170, 8186, 8156, 8163, 8169, 8118,8.69432544708252
83, 8176, 8160, 8169, 8144, 8158, 8149, 8142, 8167, 8164, 8188, 8181, 8169, 8177, 8113,8.710080623626709
84, 8176, 8159, 8158, 8146, 8157, 8142, 8130, 8160, 8147, 8176, 8173, 8164, 8172, 8106,8.710080623626709
85, 8177, 8171, 8188, 8154, 8155, 8148, 8124, 8159, 8134, 8149, 8159, 8173, 8162, 8099,8.725322484970093
86, 8175, 8179, 8174, 8168, 8174, 8169, 8143, 8160, 8142, 8156, 8162, 8162, 8158, 8093,8.725322484970093
87, 8172, 8182, 8189, 8172, 8184, 8179, 8158, 8160, 8140, 8159, 8161, 8159, 8147, 8102,8.74127984046936
88, 8162, 8180, 8191, 8180, 8176, 8183, 8171, 8163, 8145, 8164, 8154, 8146, 8150, 8102,8.74127984046936
89, 8153, 8162, 8168, 8175, 8174, 8186, 8175, 8160, 8146, 8180, 8143, 8125, 8150, 8090,8.756081342697144
90, 8145, 8148, 8164, 8164, 8175, 8193, 8175, 8162, 8136, 8179, 8125, 8125, 8136, 8092,8.756081342697144
91, 8130, 8141, 8133, 8166, 8172, 8187, 8175, 8160, 8147, 8174, 8124, 8118, 8139, 8091,8.77210783958435
92, 8129, 8141, 8147, 8146, 8163, 8169, 8159, 8165, 8154, 8171, 8126, 8128, 8151, 8091,8.77210783958435
93, 8133, 8146, 8149, 8140, 8162, 8171, 8152, 8174, 8166, 8182, 8127, 8134, 8164, 8103,8.78730058670044
94, 8137, 8141, 8133, 8143, 8168, 8163, 8153, 8163, 8170, 8171, 8134, 8136, 8170, 8101,8.78730058670044
95, 8148, 8148, 8166, 8139, 8170, 8147, 8147, 8163, 8153, 8145, 8139, 8158, 8162, 8092,8.803036212921143
96, 8155, 8169, 8168, 8163, 8178, 8148, 8150, 8163, 8153, 8153, 8154, 8159, 8166, 8096,8.803036212921143
97, 8161, 8179, 8184, 8173, 8178, 8156, 8142, 8155, 8140, 8149, 8168, 8170, 8173, 8106,8.818533182144165
98, 8160, 8181, 8189, 8178, 8175, 8162, 8145, 8158, 8126, 8137, 8174, 8179, 8182, 8110,8.818533182144165
99, 8155, 8177, 8174, 8198, 8182, 8165, 8156, 8158, 8131, 8146, 8159, 8160, 8176, 8106,8.834263563156128
100, 8146, 8166, 8187, 8190, 8179, 8174, 8152, 8160, 8129, 8158, 8129, 8153, 8153, 8104,8.834263563156128
101, 8146, 8152, 8166, 8182, 8173, 8173, 8158, 8167, 8132, 8167, 8122, 8146, 8154, 8104,8.84997272491455
102, 8159, 8156, 8177, 8191, 8180, 8179, 8172, 8172, 8138, 8163, 8120, 8155, 8162, 8111,8.84997272491455
103, 8156, 8159, 8178, 8185, 8188, 8211, 8193, 8177, 8152, 8173, 8116, 8157, 8165, 8114,8.866190433502197
104, 8146, 8135, 8142, 8151, 8181, 8204, 8196, 8177, 8170, 8185, 8119, 8149, 8167, 8117,8.866190433502197
105, 8165, 8141, 8167, 8148, 8177, 8175, 8175, 8180, 8175, 8178, 8128, 8177, 8175, 8131,8.882208824157715
106, 8180, 8172, 8170, 8185, 8191, 8167, 8160, 8169, 8170, 8166, 8142, 8179, 8187, 8122,8.882208824157715
107, 8171, 8170, 8163, 8173, 8182, 8156, 8137, 8151, 8140, 8137, 8137, 8172, 8170, 8102,8.89798617362976
108, 8162, 8161, 8170, 8152, 8170, 8152, 8136, 8158, 8139, 8131, 8140, 8180, 8162, 8107,8.89798617362976
109, 8161, 8167, 8166, 8173, 8182, 8167, 8158, 8165, 8160, 8151, 8150, 8172, 8175, 8109,8.914024829864502
110, 8142, 8161, 8181, 8174, 8187, 8180, 8158, 8161, 8132, 8145, 8119, 8151, 8151, 8085,8.914024829864502
111, 8120, 8141, 8149, 8164, 8182, 8191, 8174, 8159, 8119, 8150, 8090, 8117, 8129, 8071,8.929683923721313
112, 8129, 8142, 8146, 8159, 8179, 8199, 8199, 8174, 8152, 8172, 8099, 8121, 8145, 8096,8.929683923721313
113, 8144, 8152, 8164, 8158, 8179, 8203, 8204, 8192, 8179, 8194, 8111, 8138, 8163, 8113,8.945298194885254
114, 8150, 8145, 8136, 8156, 8180, 8192, 8193, 8183, 8182, 8200, 8110, 8132, 8167, 8109,8.945298194885254
115, 8158, 8149, 8156, 8142, 8181, 8187, 8179, 8173, 8172, 8179, 8114, 8146, 8173, 8121,8.961250305175781
116, 8157, 8152, 8150, 8143, 8182, 8187, 8183, 8179, 8180, 8184, 8132, 8148, 8192, 8129,8.961250305175781
117, 8162, 8142, 8137, 8136, 8169, 8164, 8175, 8171, 8177, 8197, 8142, 8148, 8192, 8118,8.976318836212158
