COUNTER,F3,FC5,AF3,F7,T7,P7,O1,O2,P8,T8,F8,AF4,FC6,F4,Timestamp
67, 8163, 8179, 8183, 8125, 8188, 8156, 8157, 8149, 8128, 8062, 8029, 8071, 8099, 8083,0.02794671058654785
68, 8164, 8182, 8207, 8119, 8180, 8163, 8162, 8150, 8112, 8044, 8023, 8073, 8093, 8089,0.0439605712890625
69, 8161, 8177, 8193, 8122, 8180, 8165, 8171, 8156, 8118, 8061, 8022, 8060, 8092, 8088,0.0439605712890625
70, 8171, 8188, 8210, 8125, 8176, 8153, 8157, 8157, 8121, 8066, 8022, 8072, 8091, 8090,0.0594022274017334
71, 8185, 8209, 8222, 8141, 8182, 8159, 8156, 8164, 8129, 8060, 8034, 8081, 8100, 8103,0.0594022274017334
72, 8186, 8208, 8225, 8156, 8198, 8165, 8160, 8162, 8128, 8064, 8039, 8080, 8101, 8108,0.07493257522583008
73, 8185, 8204, 8244, 8165, 8201, 8170, 8155, 8164, 8124, 8069, 8024, 8085, 8095, 8108,0.07493257522583008
74, 8181, 8205, 8223, 8174, 8194, 8171, 8157, 8165, 8129, 8070, 8014, 8075, 8098, 8109,0.090667724609375
75, 8180, 8200, 8229, 8160, 8192, 8172, 8158, 8159, 8123, 8067, 8004, 8078, 8088, 8108,0.090667724609375
76, 8177, 8191, 8234, 8159, 8199, 8180, 8172, 8165, 8132, 8082, 7997, 8078, 8082, 8104,0.10566830635070801
77, 8175, 8183, 8222, 8180, 8201, 8182, 8188, 8170, 8145, 8085, 8010, 8078, 8095, 8112,0.10566830635070801
78, 8176, 8178, 8229, 8181, 8193, 8179, 8186, 8165, 8133, 8074, 8014, 8083, 8102, 8123,0.1216893196105957
79, 8177, 8168, 8209, 8170, 8190, 8178, 8185, 8162, 8133, 8094, 8002, 8064, 8099, 8115,0.1216893196105957
80, 8178, 8157, 8214, 8150, 8183, 8178, 8181, 8171, 8141, 8094, 8003, 8080, 8102, 8117,0.136948823928833
81, 8180, 8160, 8209, 8141, 8170, 8182, 8178, 8182, 8148, 8064, 8022, 8109, 8126, 8128,0.136948823928833
82, 8195, 8176, 8198, 8149, 8170, 8179, 8166, 8176, 8154, 8060, 8038, 8108, 8145, 8120,0.15200471878051758
83, 8199, 8207, 8231, 8177, 8189, 8174, 8156, 8172, 8145, 8079, 8033, 8109, 8129, 8110,0.15200471878051758
84, 8182, 8213, 8221, 8203, 8202, 8178, 8173, 8167, 8130, 8083, 8015, 8091, 8100, 8109,0.16764163970947266
85, 8180, 8184, 8213, 8184, 8182, 8182, 8184, 8164, 8123, 8069, 7999, 8088, 8096, 8122,0.16764163970947266
86, 8195, 8172, 8215, 8162, 8165, 8179, 8190, 8184, 8157, 8090, 8015, 8111, 8131, 8144,0.18416261672973633
87, 8199, 8179, 8199, 8163, 8179, 8170, 8194, 8190, 8183, 8116, 8028, 8117, 8149, 8149,0.18416261672973633
88, 8192, 8178, 8206, 8156, 8166, 8165, 8183, 8183, 8171, 8101, 8024, 8118, 8138, 8144,0.1996455192565918
89, 8200, 8171, 8195, 8155, 8139, 8154, 8174, 8180, 8173, 8101, 8041, 8120, 8155, 8138,0.1996455192565918
90, 8209, 8178, 8209, 8152, 8159, 8142, 8158, 8168, 8159, 8092, 8053, 8132, 8161, 8124,0.21568799018859863
91, 8194, 8191, 8217, 8154, 8195, 8156, 8162, 8167, 8132, 8060, 8034, 8114, 8134, 8107,0.21568799018859863
92, 8174, 8177, 8188, 8157, 8190, 8172, 8184, 8166, 8133, 8068, 8022, 8085, 8124, 8099,0.23171281814575195
93, 8179, 8166, 8205, 8148, 8177, 8175, 8187, 8160, 8147, 8101, 8026, 8099, 8128, 8106,0.23171281814575195
94, 8180, 8175, 8200, 8157, 8186, 8191, 8194, 8160, 8166, 8119, 8028, 8097, 8127, 8108,0.24709439277648926
95, 8165, 8171, 8187, 8163, 8191, 8201, 8205, 8167, 8168, 8106, 8014, 8087, 8125, 8108,0.24709439277648926
96, 8162, 8158, 8190, 8154, 8195, 8198, 8213, 8181, 8173, 8103, 8005, 8085, 8127, 8114,0.2628285884857178
97, 8168, 8148, 8176, 8144, 8178, 8194, 8213, 8185, 8201, 8124, 8019, 8083, 8138, 8119,0.2628285884857178
98, 8170, 8146, 8180, 8115, 8150, 8193, 8198, 8184, 8205, 8119, 8018, 8094, 8142, 8124,0.27839183807373047
99, 8165, 8143, 8164, 8102, 8163, 8183, 8191, 8183, 8190, 8105, 8015, 8087, 8147, 8118,0.27839183807373047
100, 8179, 8154, 8167, 8110, 8184, 8168, 8185, 8173, 8178, 8104, 8038, 8099, 8150, 8111,0.29419994354248047
101, 8190, 8178, 8190, 8120, 8183, 8171, 8181, 8172, 8171, 8104, 8057, 8115, 8149, 8111,0.29419994354248047
102, 8179, 8186, 8186, 8136, 8187, 8177, 8178, 8162, 8158, 8084, 8045, 8093, 8130, 8108,0.30977368354797363
103, 8172, 8179, 8200, 8143, 8184, 8180, 8172, 8151, 8141, 8061, 8028, 8083, 8103, 8102,0.30977368354797363
104, 8173, 8164, 8187, 8149, 8172, 8190, 8185, 8160, 8150, 8078, 8036, 8083, 8113, 8111,0.32502126693725586
105, 8175, 8149, 8179, 8144, 8174, 8192, 8194, 8170, 8163, 8090, 8034, 8085, 8130, 8135,0.32502126693725586
106, 8175, 8156, 8189, 8131, 8177, 8195, 8193, 8184, 8169, 8087, 8021, 8091, 8128, 8141,0.3410513401031494
107, 8182, 8164, 8164, 8127, 8174, 8189, 8187, 8185, 8173, 8089, 8032, 8110, 8136, 8127,0.3410513401031494
108, 8205, 8166, 8182, 8124, 8172, 8167, 8166, 8170, 8159, 8071, 8051, 8171, 8146, 8127,0.3566603660583496
109, 8219, 8185, 8200, 8142, 8181, 8164, 8170, 8168, 8159, 8067, 8062, 8196, 8148, 8129,0.3566603660583496
110, 8207, 8200, 8197, 8159, 8187, 8175, 8182, 8166, 8155, 8066, 8055, 8167, 8127, 8116,0.3727447986602783
111, 8185, 8196, 8205, 8165, 8183, 8185, 8178, 8164, 8144, 8055, 8044, 8144, 8102, 8110,0.3727447986602783
112, 8181, 8189, 8193, 8177, 8187, 8196, 8193, 8166, 8163, 8074, 8049, 8130, 8112, 8120,0.38865208625793457
113, 8185, 8188, 8207, 8170, 8196, 8204, 8203, 8169, 8168, 8078, 8039, 8130, 8115, 8122,0.38865208625793457
114, 8181, 8183, 8200, 8162, 8202, 8211, 8207, 8171, 8161, 8072, 8038, 8116, 8107, 8115,0.4047551155090332
115, 8189, 8172, 8183, 8163, 8191, 8209, 8214, 8171, 8171, 8084, 8058, 8115, 8116, 8120,0.4047551155090332
116, 8197, 8170, 8196, 8157, 8177, 8195, 8204, 8179, 8179, 8089, 8029, 8132, 8124, 8133,0.42064833641052246
117, 8183, 8161, 8169, 8138, 8176, 8178, 8189, 8174, 8182, 8087, 8001, 8116, 8126, 8119,0.42064833641052246
118, 8175, 8160, 8169, 8115, 8175, 8175, 8182, 8171, 8180, 8077, 8059, 8117, 8128, 8108,0.43585729598999023
119, 8185, 8173, 8174, 8128, 8179, 8182, 8187, 8181, 8184, 8065, 8112, 8129, 8134, 8114,0.43585729598999023
120, 8195, 8173, 8165, 8135, 8180, 8169, 8171, 8174, 8173, 8051, 8084, 8130, 8128, 8109,0.4515111446380615
121, 8193, 8172, 8191, 8121, 8180, 8162, 8155, 8175, 8157, 8055, 8070, 8147, 8133, 8110,0.4515111446380615
122, 8190, 8179, 8176, 8145, 8189, 8174, 8179, 8180, 8178, 8088, 8112, 8146, 8162, 8113,0.46712422370910645
123, 8198, 8189, 8181, 8166, 8195, 8179, 8189, 8173, 8183, 8093, 8110, 8142, 8161, 8110,0.46712422370910645
124, 8202, 8199, 8204, 8164, 8197, 8183, 8183, 8171, 8168, 8079, 8095, 8143, 8143, 8109,0.48271846771240234
125, 8197, 8191, 8197, 8169, 8194, 8180, 8184, 8164, 8161, 8070, 8111, 8138, 8134, 8111,0.48271846771240234
126, 8204, 8184, 8209, 8167, 8185, 8188, 8192, 8169, 8159, 8063, 8103, 8146, 8120, 8119,0.49788331985473633
127, 8209, 8191, 8201, 8171, 8189, 8207, 8219, 8187, 8181, 8085, 8083, 8137, 8121, 8122,0.49788331985473633
237, 8202, 8191, 8208, 8178, 8192, 8208, 8230, 8187, 8191, 8100, 8087, 8135, 8118, 8121,0.513045072555542
0, 8198, 8184, 8210, 8178, 8193, 8208, 8229, 8185, 8188, 8094, 8094, 8136, 8108, 8119,0.513045072555542
1, 8194, 8178, 8178, 8176, 8202, 8204, 8225, 8184, 8194, 8093, 8090, 8132, 8106, 8122,0.5290219783782959
2, 8191, 8181, 8188, 8171, 8199, 8192, 8206, 8180, 8198, 8098, 8093, 8148, 8111, 8131,0.5290219783782959
3, 8203, 8187, 8186, 8174, 8191, 8185, 8200, 8179, 8212, 8110, 8112, 8153, 8130, 8140,0.544640064239502
4, 8227, 8193, 8190, 8169, 8187, 8171, 8188, 8179, 8212, 8097, 8125, 8170, 8136, 8143,0.544640064239502
5, 8227, 8206, 8201, 8176, 8188, 8158, 8176, 8182, 8196, 8084, 8140, 8185, 8129, 8131,0.5597314834594727
6, 8224, 8212, 8188, 8184, 8190, 8162, 8189, 8176, 8200, 8091, 8154, 8181, 8138, 8128,0.5597314834594727
7, 8237, 8214, 8208, 8167, 8187, 8163, 8190, 8166, 8197, 8075, 8151, 8191, 8134, 8140,0.5749928951263428
8, 8222, 8210, 8191, 8161, 8184, 8159, 8170, 8158, 8174, 8052, 8129, 8172, 8106, 8124,0.5749928951263428
9, 8199, 8207, 8169, 8160, 8184, 8161, 8155, 8150, 8152, 8048, 8108, 8154, 8091, 8100,0.5910234451293945
10, 8210, 8218, 8189, 8163, 8190, 8177, 8161, 8155, 8162, 8064, 8120, 8174, 8105, 8108,0.5910234451293945
11, 8232, 8231, 8209, 8183, 8206, 8182, 8172, 8165, 8190, 8091, 8152, 8195, 8127, 8131,0.6066470146179199
12, 8229, 8238, 8230, 8193, 8216, 8187, 8182, 8175, 8202, 8103, 8147, 8200, 8132, 8141,0.6066470146179199
13, 8209, 8228, 8209, 8186, 8209, 8201, 8195, 8185, 8205, 8104, 8119, 8181, 8120, 8131,0.6221370697021484
14, 8200, 8203, 8199, 8166, 8196, 8201, 8191, 8173, 8196, 8095, 8107, 8171, 8100, 8115,0.6221370697021484
15, 8190, 8181, 8198, 8151, 8187, 8199, 8195, 8159, 8184, 8087, 8095, 8162, 8091, 8106,0.6377279758453369
16, 8169, 8164, 8162, 8141, 8183, 8199, 8210, 8158, 8180, 8085, 8075, 8128, 8085, 8096,0.6377279758453369
17, 8162, 8165, 8172, 8139, 8176, 8202, 8200, 8161, 8174, 8079, 8066, 8131, 8074, 8094,0.652808666229248
18, 8180, 8177, 8182, 8159, 8177, 8210, 8196, 8172, 8192, 8098, 8081, 8155, 8092, 8112,0.652808666229248
19, 8196, 8178, 8176, 8171, 8186, 8208, 8199, 8177, 8212, 8117, 8098, 8167, 8111, 8125,0.6680126190185547
20, 8190, 8169, 8176, 8161, 8181, 8205, 8191, 8184, 8211, 8109, 8094, 8156, 8112, 8118,0.6680126190185547
21, 8178, 8162, 8147, 8157, 8170, 8202, 8198, 8188, 8210, 8110, 8074, 8134, 8117, 8110,0.6841022968292236
22, 8179, 8167, 8159, 8152, 8165, 8201, 8210, 8182, 8209, 8108, 8058, 8146, 8111, 8117,0.6841022968292236
23, 8189, 8172, 8166, 8164, 8176, 8207, 8222, 8187, 8227, 8109, 8076, 8152, 8116, 8129,0.699465274810791
24, 8198, 8166, 8151, 8164, 8173, 8196, 8211, 8186, 8230, 8114, 8089, 8149, 8124, 8125,0.699465274810791
25, 8196, 8166, 8160, 8149, 8158, 8180, 8187, 8181, 8203, 8107, 8075, 8160, 8113, 8116,0.7151741981506348
26, 8189, 8173, 8142, 8168, 8170, 8174, 8181, 8168, 8202, 8112, 8089, 8151, 8121, 8107,0.7297844886779785
27, 8200, 8189, 8165, 8171, 8183, 8170, 8167, 8165, 8201, 8116, 8121, 8166, 8137, 8112,0.7297844886779785
28, 8208, 8196, 8181, 8164, 8179, 8174, 8158, 8180, 8205, 8123, 8140, 8178, 8143, 8116,0.7461471557617188
29, 8199, 8184, 8155, 8173, 8174, 8171, 8159, 8169, 8212, 8119, 8132, 8159, 8139, 8105,0.7461471557617188
30, 8193, 8195, 8171, 8176, 8180, 8172, 8159, 8157, 8196, 8108, 8118, 8157, 8130, 8102,0.7461471557617188
31, 8181, 8212, 8168, 8191, 8188, 8185, 8167, 8162, 8182, 8115, 8120, 8139, 8120, 8091,0.7607810497283936
32, 8170, 8201, 8173, 8194, 8189, 8190, 8169, 8159, 8171, 8112, 8113, 8120, 8108, 8088,0.7763843536376953
33, 8170, 8187, 8176, 8194, 8199, 8195, 8183, 8160, 8174, 8117, 8109, 8117, 8116, 8101,0.7763843536376953
34, 8172, 8185, 8161, 8202, 8197, 8198, 8198, 8168, 8189, 8137, 8116, 8115, 8134, 8105,0.7924792766571045
35, 8175, 8190, 8176, 8198, 8188, 8205, 8204, 8178, 8202, 8149, 8118, 8126, 8138, 8111,0.7924792766571045
36, 8186, 8189, 8169, 8196, 8189, 8210, 8212, 8184, 8223, 8166, 8124, 8129, 8152, 8129,0.7924792766571045
37, 8194, 8182, 8165, 8192, 8188, 8194, 8208, 8182, 8220, 8171, 8126, 8134, 8156, 8135,0.8081743717193604
38, 8187, 8183, 8154, 8178, 8188, 8181, 8203, 8177, 8214, 8158, 8119, 8127, 8141, 8120,0.8081743717193604
39, 8186, 8181, 8137, 8163, 8192, 8177, 8200, 8174, 8223, 8147, 8131, 8125, 8143, 8115,0.8239555358886719
40, 8194, 8179, 8160, 8159, 8184, 8174, 8187, 8180, 8215, 8147, 8147, 8146, 8160, 8124,0.8396706581115723
41, 8198, 8190, 8157, 8173, 8180, 8172, 8186, 8178, 8204, 8152, 8152, 8141, 8160, 8115,0.8396706581115723
42, 8203, 8209, 8174, 8183, 8188, 8171, 8183, 8169, 8200, 8137, 8156, 8141, 8136, 8105,0.8548140525817871
43, 8201, 8217, 8200, 8195, 8198, 8187, 8186, 8182, 8203, 8147, 8163, 8154, 8140, 8117,0.8548140525817871
44, 8199, 8214, 8189, 8216, 8213, 8209, 8208, 8187, 8208, 8181, 8163, 8157, 8157, 8128,0.8701090812683105
45, 8198, 8212, 8192, 8210, 8216, 8217, 8211, 8176, 8198, 8174, 8145, 8155, 8136, 8114,0.8701090812683105
46, 8184, 8195, 8167, 8192, 8202, 8208, 8210, 8177, 8201, 8165, 8132, 8128, 8134, 8110,0.886101245880127
47, 8174, 8178, 8158, 8176, 8194, 8204, 8214, 8183, 8222, 8181, 8138, 8135, 8160, 8129,0.886101245880127
48, 8181, 8182, 8165, 8171, 8193, 8209, 8209, 8189, 8238, 8195, 8151, 8161, 8165, 8135,0.9017288684844971
49, 8182, 8186, 8139, 8170, 8184, 8187, 8187, 8179, 8222, 8184, 8160, 8143, 8164, 8120,0.9017288684844971
50, 8183, 8195, 8161, 8164, 8181, 8170, 8165, 8160, 8192, 8153, 8166, 8142, 8169, 8108,0.9173269271850586
51, 8182, 8209, 8176, 8185, 8204, 8191, 8177, 8165, 8193, 8151, 8179, 8152, 8164, 8100,0.9173269271850586
52, 8175, 8208, 8173, 8192, 8209, 8201, 8184, 8168, 8190, 8156, 8175, 8150, 8145, 8099,0.9329969882965088
53, 8173, 8202, 8188, 8179, 8196, 8187, 8178, 8166, 8178, 8150, 8150, 8140, 8138, 8102,0.9329969882965088
54, 8170, 8192, 8168, 8185, 8189, 8178, 8179, 8165, 8187, 8159, 8137, 8117, 8139, 8096,0.9478132724761963
55, 8163, 8177, 8166, 8187, 8186, 8180, 8178, 8164, 8189, 8164, 8139, 8118, 8135, 8099,0.9478132724761963
56, 8157, 8178, 8161, 8186, 8196, 8188, 8190, 8168, 8194, 8175, 8147, 8125, 8150, 8115,0.9639039039611816
57, 8168, 8184, 8154, 8186, 8201, 8195, 8200, 8171, 8210, 8189, 8151, 8140, 8167, 8127,0.9639039039611816
58, 8179, 8186, 8165, 8183, 8188, 8190, 8194, 8178, 8214, 8181, 8149, 8161, 8159, 8132,0.9791040420532227
59, 8175, 8178, 8149, 8178, 8176, 8171, 8184, 8174, 8213, 8161, 8150, 8154, 8148, 8125,0.9791040420532227
60, 8181, 8179, 8168, 8169, 8174, 8164, 8168, 8167, 8204, 8146, 8164, 8169, 8157, 8123,0.9948844909667969
61, 8194, 8196, 8182, 8188, 8179, 8177, 8168, 8176, 8204, 8159, 8200, 8197, 8185, 8132,0.9948844909667969
62, 8200, 8203, 8187, 8195, 8181, 8178, 8162, 8163, 8182, 8149, 8214, 8210, 8183, 8121,1.0097382068634033
63, 8199, 8215, 8218, 8198, 8180, 8171, 8138, 8145, 8137, 8107, 8197, 8210, 8148, 8103,1.0097382068634033
64, 8200, 8234, 8223, 8251, 8182, 8175, 8141, 8144, 8137, 8106, 8211, 8202, 8152, 8104,1.0258469581604004
65, 8207, 8242, 8261, 8285, 8185, 8181, 8153, 8150, 8151, 8123, 8234, 8234, 8164, 8122,1.0258469581604004
66, 8202, 8237, 8269, 8288, 8189, 8199, 8167, 8157, 8152, 8134, 8235, 8250, 8157, 8126,1.0414774417877197
67, 8199, 8228, 8248, 8312, 8193, 8202, 8186, 8154, 8157, 8141, 8231, 8240, 8153, 8119,1.0414774417877197
68, 8208, 8226, 8271, 8334, 8183, 8190, 8190, 8161, 8160, 8133, 8222, 8246, 8155, 8129,1.0571181774139404
69, 8210, 8211, 8255, 8327, 8171, 8180, 8180, 8164, 8165, 8129, 8221, 8244, 8163, 8138,1.0571181774139404
70, 8215, 8204, 8251, 8307, 8164, 8162, 8158, 8155, 8157, 8125, 8241, 8268, 8179, 8142,1.0727598667144775
71, 8228, 8216, 8262, 8314, 8161, 8147, 8147, 8162, 8163, 8132, 8266, 8300, 8207, 8157,1.0727598667144775
72, 8238, 8213, 8260, 8326, 8160, 8135, 8137, 8166, 8168, 8135, 8277, 8309, 8215, 8164,1.0883097648620605
73, 8243, 8213, 8279, 8319, 8160, 8121, 8117, 8158, 8148, 8103, 8274, 8314, 8197, 8152,1.0883097648620605
74, 8243, 8231, 8265, 8326, 8168, 8117, 8120, 8146, 8139, 8081, 8273, 8299, 8189, 8134,1.1040418148040771
75, 8244, 8242, 8272, 8337, 8176, 8132, 8125, 8144, 8128, 8083, 8272, 8303, 8183, 8135,1.1040418148040771
76, 8242, 8242, 8288, 8339, 8182, 8150, 8133, 8156, 8123, 8097, 8287, 8315, 8189, 8151,1.120086669921875
77, 8239, 8240, 8273, 8332, 8186, 8141, 8146, 8154, 8142, 8100, 8297, 8303, 8190, 8154,1.120086669921875
78, 8229, 8236, 8275, 8315, 8182, 8144, 8146, 8149, 8152, 8095, 8272, 8289, 8166, 8144,1.136270523071289
79, 8206, 8212, 8235, 8311, 8183, 8167, 8151, 8151, 8158, 8108, 8238, 8255, 8151, 8129,1.136270523071289
80, 8197, 8190, 8210, 8298, 8186, 8178, 8162, 8155, 8165, 8117, 8223, 8238, 8160, 8131,1.1522879600524902
81, 8201, 8194, 8212, 8276, 8186, 8185, 8174, 8176, 8189, 8137, 8228, 8248, 8180, 8148,1.1522879600524902
82, 8200, 8187, 8187, 8252, 8181, 8163, 8163, 8180, 8206, 8150, 8233, 8247, 8185, 8147,1.1683354377746582
83, 8192, 8171, 8187, 8225, 8170, 8135, 8135, 8164, 8186, 8120, 8229, 8250, 8176, 8138,1.1683354377746582
84, 8193, 8184, 8178, 8228, 8179, 8146, 8143, 8165, 8178, 8101, 8239, 8253, 8181, 8134,1.1840736865997314
85, 8192, 8196, 8179, 8226, 8185, 8154, 8146, 8161, 8175, 8109, 8245, 8252, 8174, 8123,1.1840736865997314
86, 8182, 8189, 8184, 8214, 8176, 8148, 8134, 8151, 8165, 8120, 8235, 8235, 8152, 8110,1.1996781826019287
87, 8174, 8189, 8173, 8231, 8181, 8160, 8148, 8151, 8170, 8132, 8239, 8218, 8151, 8110,1.1996781826019287
88, 8177, 8195, 8197, 8244, 8195, 8180, 8169, 8160, 8180, 8142, 8245, 8238, 8156, 8121,1.2149851322174072
89, 8169, 8179, 8173, 8231, 8195, 8185, 8183, 8164, 8194, 8159, 8231, 8229, 8147, 8119,1.2149851322174072
90, 8153, 8162, 8145, 8205, 8185, 8182, 8185, 8164, 8191, 8158, 8199, 8208, 8135, 8112,1.2309861183166504
91, 8149, 8169, 8149, 8201, 8185, 8187, 8190, 8175, 8192, 8154, 8179, 8209, 8136, 8114,1.2309861183166504
92, 8160, 8171, 8123, 8203, 8191, 8188, 8200, 8180, 8216, 8169, 8194, 8209, 8159, 8125,1.24617600440979
93, 8167, 8159, 8125, 8173, 8182, 8183, 8192, 8183, 8224, 8168, 8211, 8228, 8169, 8139,1.24617600440979
94, 8163, 8155, 8123, 8162, 8174, 8180, 8177, 8183, 8225, 8162, 8209, 8231, 8172, 8130,1.2641332149505615
95, 8163, 8165, 8116, 8165, 8173, 8171, 8155, 8161, 8209, 8139, 8198, 8229, 8167, 8109,1.2641332149505615
96, 8164, 8176, 8132, 8157, 8173, 8167, 8148, 8153, 8180, 8113, 8196, 8236, 8144, 8100,1.2776694297790527
97, 8153, 8172, 8130, 8166, 8183, 8175, 8165, 8155, 8172, 8128, 8205, 8217, 8131, 8096,1.2776694297790527
98, 8138, 8171, 8144, 8177, 8197, 8190, 8171, 8153, 8172, 8139, 8199, 8210, 8125, 8094,1.2941901683807373
99, 8132, 8173, 8130, 8178, 8203, 8207, 8181, 8162, 8186, 8142, 8183, 8199, 8123, 8096,1.2941901683807373
100, 8138, 8156, 8112, 8170, 8192, 8211, 8202, 8169, 8202, 8166, 8170, 8188, 8126, 8099,1.3097548484802246
101, 8132, 8142, 8126, 8148, 8178, 8208, 8210, 8181, 8209, 8173, 8171, 8196, 8131, 8102,1.3097548484802246
102, 8119, 8132, 8104, 8131, 8176, 8205, 8205, 8188, 8220, 8154, 8185, 8196, 8141, 8105,1.3256480693817139
103, 8125, 8129, 8107, 8123, 8172, 8203, 8190, 8181, 8218, 8137, 8184, 8209, 8144, 8111,1.3256480693817139
104, 8131, 8142, 8113, 8126, 8173, 8203, 8187, 8176, 8212, 8144, 8183, 8211, 8144, 8107,1.3409934043884277
105, 8130, 8148, 8102, 8123, 8176, 8187, 8176, 8171, 8207, 8138, 8179, 8201, 8137, 8089,1.3409934043884277
106, 8146, 8159, 8129, 8123, 8177, 8180, 8167, 8178, 8204, 8124, 8165, 8216, 8133, 8092,1.3571016788482666
107, 8163, 8176, 8136, 8140, 8179, 8185, 8184, 8178, 8207, 8132, 8179, 8217, 8142, 8106,1.3571016788482666
108, 8163, 8183, 8148, 8137, 8181, 8184, 8187, 8170, 8190, 8129, 8196, 8219, 8133, 8108,1.3731122016906738
109, 8158, 8185, 8153, 8139, 8192, 8195, 8190, 8173, 8191, 8130, 8190, 8215, 8125, 8112,1.3731122016906738
110, 8156, 8187, 8148, 8159, 8202, 8202, 8194, 8172, 8209, 8144, 8174, 8203, 8118, 8114,1.3879926204681396
111, 8142, 8187, 8163, 8158, 8190, 8202, 8185, 8167, 8208, 8150, 8157, 8203, 8098, 8108,1.3879926204681396
112, 8126, 8168, 8128, 8128, 8174, 8210, 8197, 8173, 8223, 8172, 8155, 8191, 8102, 8107,1.4041180610656738
113, 8134, 8148, 8121, 8090, 8165, 8205, 8207, 8184, 8238, 8175, 8163, 8197, 8122, 8123,1.4041180610656738
114, 8142, 8155, 8133, 8101, 8168, 8188, 8191, 8187, 8229, 8141, 8164, 8200, 8131, 8122,1.4201531410217285
115, 8137, 8174, 8119, 8136, 8174, 8174, 8171, 8170, 8207, 8122, 8159, 8189, 8124, 8099,1.4201531410217285
116, 8143, 8196, 8150, 8154, 8177, 8180, 8164, 8155, 8181, 8114, 8151, 8189, 8100, 8088,1.4356803894042969
117, 8144, 8208, 8164, 8198, 8188, 8196, 8175, 8160, 8171, 8113, 8142, 8167, 8083, 8081,1.4356803894042969
118, 8131, 8210, 8173, 8235, 8197, 8207, 8180, 8165, 8177, 8122, 8123, 8162, 8081, 8080,1.451383113861084
119, 8135, 8212, 8175, 8247, 8194, 8215, 8184, 8171, 8196, 8140, 8108, 8177, 8088, 8090,1.451383113861084
120, 8154, 8212, 8155, 8268, 8188, 8198, 8176, 8170, 8201, 8130, 8097, 8179, 8089, 8094,1.4670779705047607
121, 8172, 8226, 8184, 8277, 8184, 8181, 8152, 8170, 8176, 8082, 8086, 8199, 8078, 8096,1.4670779705047607
122, 8178, 8247, 8191, 8295, 8190, 8178, 8154, 8167, 8166, 8078, 8097, 8209, 8091, 8095,1.4826624393463135
123, 8182, 8257, 8191, 8318, 8199, 8152, 8150, 8148, 8147, 8082, 8095, 8201, 8087, 8082,1.4826624393463135
124, 8175, 8260, 8202, 8325, 8193, 8137, 8131, 8144, 8110, 8058, 8057, 8182, 8047, 8059,1.4977898597717285
125, 8164, 8258, 8185, 8344, 8185, 8160, 8137, 8139, 8098, 8053, 8037, 8163, 8026, 8052,1.4977898597717285
126, 8172, 8261, 8202, 8361, 8195, 8185, 8160, 8139, 8096, 8065, 8044, 8177, 8033, 8074,1.5138216018676758
127, 8175, 8262, 8199, 8372, 8212, 8188, 8182, 8157, 8106, 8076, 8051, 8174, 8042, 8083,1.5138216018676758
237, 8169, 8247, 8180, 8362, 8205, 8177, 8175, 8155, 8110, 8065, 8040, 8167, 8033, 8076,1.5297527313232422
0, 8169, 8237, 8173, 8340, 8193, 8173, 8164, 8152, 8113, 8063, 8027, 8168, 8034, 8085,1.5297527313232422
1, 8173, 8238, 8155, 8328, 8202, 8175, 8170, 8161, 8135, 8088, 8036, 8155, 8048, 8097,1.545149803161621
2, 8172, 8235, 8171, 8314, 8211, 8174, 8165, 8171, 8145, 8089, 8056, 8170, 8054, 8096,1.545149803161621
3, 8177, 8243, 8165, 8319, 8215, 8170, 8161, 8174, 8149, 8078, 8082, 8184, 8063, 8088,1.5607469081878662
4, 8200, 8258, 8171, 8333, 8218, 8161, 8160, 8169, 8138, 8065, 8091, 8187, 8058, 8088,1.5607469081878662
5, 8195, 8252, 8192, 8319, 8212, 8158, 8159, 8162, 8116, 8054, 8073, 8180, 8040, 8089,1.5759103298187256
6, 8165, 8224, 8155, 8295, 8206, 8157, 8165, 8153, 8110, 8066, 8064, 8151, 8037, 8077,1.5920007228851318
7, 8165, 8230, 8168, 8296, 8207, 8155, 8169, 8157, 8100, 8072, 8075, 8156, 8030, 8075,1.5920007228851318
8, 8161, 8252, 8177, 8326, 8210, 8165, 8176, 8155, 8100, 8077, 8080, 8153, 8021, 8070,1.5920007228851318
9, 8131, 8222, 8141, 8314, 8193, 8161, 8163, 8135, 8100, 8077, 8060, 8121, 8013, 8053,1.6077866554260254
10, 8130, 8197, 8146, 8280, 8187, 8159, 8161, 8151, 8107, 8087, 8057, 8133, 8018, 8063,1.6077866554260254
11, 8150, 8201, 8146, 8289, 8202, 8172, 8187, 8168, 8134, 8116, 8088, 8155, 8041, 8085,1.6228351593017578
12, 8143, 8189, 8147, 8278, 8190, 8165, 8181, 8151, 8123, 8098, 8081, 8155, 8032, 8081,1.6228351593017578
13, 8138, 8185, 8139, 8263, 8171, 8155, 8165, 8150, 8112, 8075, 8063, 8143, 8020, 8073,1.6384398937225342
14, 8164, 8204, 8140, 8269, 8180, 8154, 8167, 8168, 8133, 8087, 8087, 8158, 8045, 8090,1.6384398937225342
15, 8175, 8207, 8160, 8267, 8190, 8157, 8161, 8176, 8146, 8084, 8109, 8184, 8067, 8105,1.654341697692871
16, 8167, 8198, 8144, 8268, 8190, 8147, 8156, 8171, 8144, 8080, 8116, 8180, 8071, 8096,1.654341697692871
17, 8169, 8218, 8164, 8267, 8195, 8136, 8146, 8164, 8130, 8080, 8125, 8193, 8065, 8090,1.670079231262207
18, 8169, 8228, 8174, 8265, 8198, 8140, 8140, 8149, 8115, 8077, 8129, 8182, 8055, 8078,1.670079231262207
19, 8164, 8207, 8151, 8258, 8196, 8140, 8130, 8138, 8100, 8069, 8121, 8158, 8042, 8057,1.6857001781463623
20, 8159, 8215, 8171, 8264, 8204, 8147, 8129, 8145, 8097, 8071, 8125, 8178, 8045, 8061,1.6857001781463623
21, 8160, 8243, 8174, 8292, 8217, 8154, 8150, 8145, 8107, 8089, 8148, 8174, 8065, 8077,1.7013204097747803
22, 8172, 8244, 8190, 8291, 8205, 8155, 8147, 8135, 8092, 8083, 8141, 8164, 8054, 8079,1.7013204097747803
23, 8168, 8233, 8188, 8282, 8195, 8170, 8143, 8146, 8092, 8077, 8117, 8160, 8035, 8074,1.716665506362915
24, 8158, 8230, 8164, 8297, 8208, 8178, 8160, 8157, 8119, 8085, 8120, 8149, 8045, 8079,1.716665506362915
25, 8165, 8236, 8188, 8304, 8214, 8176, 8170, 8163, 8126, 8095, 8144, 8158, 8060, 8090,1.7320899963378906
26, 8172, 8230, 8181, 8308, 8213, 8181, 8178, 8172, 8134, 8116, 8150, 8158, 8069, 8090,1.7320899963378906
27, 8167, 8219, 8174, 8306, 8207, 8184, 8178, 8162, 8132, 8110, 8123, 8150, 8061, 8082,1.747730016708374
28, 8164, 8216, 8174, 8301, 8201, 8175, 8174, 8158, 8125, 8091, 8113, 8148, 8059, 8080,1.747730016708374
29, 8165, 8207, 8154, 8289, 8197, 8164, 8174, 8169, 8142, 8101, 8137, 8158, 8078, 8096,1.7629303932189941
30, 8164, 8200, 8158, 8266, 8186, 8164, 8168, 8177, 8148, 8118, 8146, 8176, 8080, 8111,1.7629303932189941
31, 8151, 8188, 8132, 8259, 8180, 8159, 8159, 8176, 8140, 8111, 8132, 8156, 8073, 8092,1.7781388759613037
32, 8142, 8172, 8124, 8247, 8183, 8144, 8131, 8169, 8137, 8087, 8130, 8159, 8080, 8079,1.7781388759613037
33, 8147, 8180, 8143, 8234, 8186, 8148, 8117, 8170, 8147, 8094, 8162, 8192, 8100, 8094,1.794175148010254
34, 8160, 8194, 8133, 8243, 8180, 8147, 8123, 8165, 8144, 8099, 8178, 8191, 8107, 8094,1.810281753540039
35, 8177, 8201, 8153, 8250, 8185, 8140, 8117, 8156, 8123, 8070, 8164, 8198, 8097, 8087,1.810281753540039
36, 8175, 8207, 8159, 8258, 8203, 8145, 8117, 8151, 8121, 8064, 8175, 8208, 8104, 8087,1.810281753540039
37, 8167, 8213, 8167, 8257, 8192, 8136, 8114, 8143, 8118, 8073, 8201, 8215, 8112, 8090,1.825664758682251
38, 8170, 8221, 8186, 8260, 8175, 8135, 8112, 8149, 8116, 8081, 8195, 8217, 8109, 8092,1.825664758682251
39, 8170, 8217, 8166, 8272, 8186, 8158, 8127, 8153, 8121, 8081, 8174, 8192, 8098, 8087,1.8417675495147705
40, 8163, 8207, 8170, 8262, 8195, 8169, 8130, 8151, 8107, 8071, 8160, 8182, 8080, 8078,1.8417675495147705
41, 8151, 8201, 8165, 8261, 8189, 8165, 8132, 8151, 8110, 8098, 8159, 8176, 8077, 8074,1.8570899963378906
42, 8152, 8188, 8157, 8266, 8188, 8166, 8141, 8143, 8113, 8111, 8149, 8174, 8070, 8070,1.8570899963378906
43, 8158, 8184, 8166, 8262, 8197, 8188, 8158, 8152, 8101, 8086, 8134, 8169, 8055, 8063,1.8727753162384033
44, 8151, 8183, 8141, 8256, 8201, 8195, 8175, 8166, 8117, 8101, 8143, 8156, 8069, 8066,1.8727753162384033
45, 8145, 8181, 8151, 8241, 8186, 8178, 8164, 8159, 8125, 8114, 8147, 8171, 8079, 8077,1.8885698318481445
46, 8146, 8180, 8152, 8238, 8177, 8178, 8160, 8157, 8114, 8102, 8140, 8167, 8061, 8070,1.9040899276733398
47, 8140, 8171, 8136, 8228, 8182, 8180, 8163, 8162, 8113, 8094, 8139, 8156, 8044, 8067,1.9040899276733398
48, 8135, 8166, 8142, 8210, 8179, 8167, 8150, 8162, 8130, 8079, 8140, 8169, 8052, 8075,1.9209041595458984
49, 8147, 8172, 8127, 8215, 8177, 8158, 8136, 8155, 8138, 8066, 8147, 8177, 8074, 8068,1.9209041595458984
50, 8154, 8176, 8147, 8214, 8177, 8164, 8118, 8155, 8115, 8063, 8150, 8195, 8074, 8061,1.9209041595458984
51, 8152, 8174, 8151, 8214, 8172, 8171, 8121, 8161, 8122, 8074, 8149, 8188, 8069, 8063,1.9349114894866943
52, 8165, 8176, 8137, 8212, 8172, 8166, 8129, 8148, 8135, 8083, 8162, 8181, 8081, 8071,1.949953317642212
53, 8169, 8190, 8163, 8211, 8183, 8165, 8122, 8151, 8117, 8080, 8180, 8206, 8095, 8074,1.949953317642212
54, 8153, 8194, 8156, 8230, 8196, 8170, 8128, 8160, 8116, 8083, 8176, 8193, 8095, 8066,1.9652466773986816
55, 8158, 8189, 8165, 8237, 8199, 8187, 8145, 8152, 8123, 8088, 8161, 8185, 8086, 8064,1.9652466773986816
56, 8160, 8185, 8167, 8231, 8191, 8210, 8162, 8148, 8120, 8093, 8152, 8188, 8083, 8068,1.980644941329956
57, 8140, 8170, 8142, 8221, 8178, 8207, 8166, 8149, 8120, 8088, 8119, 8169, 8068, 8064,1.980644941329956
58, 8138, 8169, 8154, 8211, 8189, 8203, 8165, 8159, 8134, 8099, 8109, 8167, 8063, 8072,1.9967451095581055
59, 8146, 8175, 8145, 8216, 8206, 8215, 8172, 8166, 8149, 8132, 8146, 8170, 8097, 8082,1.9967451095581055
60, 8139, 8163, 8143, 8208, 8187, 8221, 8172, 8165, 8138, 8128, 8154, 8175, 8100, 8079,2.020653009414673
61, 8136, 8150, 8137, 8190, 8170, 8211, 8183, 8173, 8150, 8128, 8153, 8182, 8095, 8088,2.020653009414673
62, 8142, 8145, 8124, 8178, 8181, 8186, 8180, 8171, 8169, 8144, 8178, 8194, 8124, 8095,2.020653009414673
63, 8158, 8156, 8153, 8170, 8180, 8173, 8152, 8168, 8155, 8123, 8185, 8216, 8134, 8090,2.0286943912506104
64, 8183, 8167, 8150, 8178, 8175, 8175, 8154, 8172, 8163, 8123, 8192, 8219, 8143, 8100,2.0437710285186768
65, 8193, 8162, 8154, 8172, 8173, 8170, 8159, 8168, 8171, 8143, 8211, 8234, 8162, 8111,2.0437710285186768
66, 8170, 8163, 8164, 8165, 8173, 8175, 8153, 8164, 8150, 8134, 8210, 8240, 8157, 8098,2.0598952770233154
67, 8160, 8172, 8151, 8185, 8180, 8188, 8160, 8163, 8137, 8123, 8210, 8224, 8142, 8085,2.0598952770233154
68, 8169, 8180, 8170, 8186, 8184, 8187, 8160, 8160, 8126, 8122, 8206, 8222, 8143, 8093,2.0750234127044678
69, 8155, 8173, 8158, 8174, 8182, 8185, 8156, 8151, 8117, 8127, 8189, 8203, 8148, 8083,2.0750234127044678
70, 8143, 8162, 8155, 8168, 8180, 8190, 8159, 8148, 8119, 8129, 8188, 8201, 8136, 8073,2.0903520584106445
71, 8142, 8160, 8160, 8176, 8186, 8201, 8176, 8164, 8140, 8148, 8195, 8209, 8138, 8083,2.0903520584106445
72, 8136, 8143, 8125, 8170, 8187, 8206, 8192, 8170, 8158, 8175, 8185, 8190, 8147, 8084,2.1054952144622803
73, 8130, 8132, 8133, 8140, 8175, 8214, 8190, 8174, 8166, 8176, 8172, 8193, 8137, 8080,2.1054952144622803
74, 8134, 8139, 8129, 8142, 8179, 8218, 8196, 8193, 8196, 8177, 8182, 8200, 8145, 8085,2.121195077896118
75, 8148, 8145, 8126, 8149, 8187, 8195, 8191, 8201, 8216, 8184, 8199, 8218, 8175, 8105,2.121195077896118
76, 8160, 8152, 8140, 8143, 8180, 8183, 8180, 8195, 8224, 8199, 8213, 8236, 8191, 8117,2.1367807388305664
77, 8163, 8163, 8134, 8147, 8181, 8191, 8168, 8178, 8229, 8204, 8220, 8232, 8184, 8100,2.1367807388305664
78, 8169, 8182, 8161, 8158, 8194, 8190, 8151, 8166, 8202, 8178, 8228, 8247, 8173, 8089,2.1524243354797363
79, 8165, 8189, 8164, 8175, 8202, 8184, 8147, 8158, 8174, 8162, 8238, 8238, 8170, 8091,2.1524243354797363
80, 8150, 8184, 8162, 8179, 8195, 8183, 8142, 8143, 8148, 8149, 8224, 8214, 8152, 8078,2.1684086322784424
81, 8143, 8187, 8178, 8187, 8198, 8198, 8149, 8145, 8142, 8151, 8206, 8211, 8142, 8072,2.1684086322784424
82, 8146, 8185, 8164, 8202, 8210, 8213, 8178, 8159, 8163, 8184, 8215, 8210, 8159, 8090,2.1831939220428467
83, 8148, 8177, 8169, 8191, 8208, 8222, 8189, 8167, 8170, 8196, 8223, 8220, 8163, 8107,2.1831939220428467
84, 8152, 8173, 8161, 8189, 8205, 8227, 8195, 8175, 8190, 8200, 8229, 8216, 8164, 8111,2.198861598968506
85, 8161, 8172, 8147, 8191, 8210, 8219, 8193, 8175, 8216, 8215, 8240, 8220, 8183, 8114,2.198861598968506
86, 8166, 8174, 8154, 8179, 8210, 8212, 8180, 8180, 8217, 8221, 8245, 8236, 8202, 8121,2.2149658203125
87, 8171, 8172, 8143, 8179, 8207, 8202, 8176, 8188, 8212, 8216, 8243, 8234, 8205, 8123,2.2149658203125
88, 8175, 8167, 8154, 8170, 8198, 8189, 8160, 8179, 8210, 8197, 8238, 8248, 8190, 8117,2.229950189590454
89, 8167, 8172, 8155, 8167, 8198, 8191, 8147, 8168, 8212, 8204, 8253, 8256, 8193, 8114,2.229950189590454
90, 8165, 8184, 8155, 8180, 8209, 8186, 8147, 8165, 8198, 8213, 8272, 8254, 8211, 8116,2.2453112602233887
91, 8177, 8188, 8178, 8184, 8209, 8173, 8150, 8172, 8183, 8188, 8266, 8265, 8214, 8119,2.2453112602233887
92, 8181, 8187, 8165, 8195, 8205, 8165, 8156, 8172, 8194, 8179, 8268, 8270, 8215, 8118,2.261385440826416
93, 8175, 8200, 8186, 8204, 8210, 8171, 8152, 8165, 8196, 8193, 8273, 8280, 8205, 8118,2.261385440826416
94, 8163, 8206, 8190, 8219, 8217, 8198, 8167, 8169, 8187, 8206, 8255, 8257, 8186, 8115,2.2771239280700684
95, 8153, 8181, 8148, 8214, 8211, 8206, 8185, 8170, 8194, 8210, 8231, 8220, 8168, 8114,2.2771239280700684
96, 8152, 8169, 8153, 8191, 8197, 8197, 8179, 8176, 8211, 8208, 8235, 8239, 8169, 8122,2.292635202407837
97, 8157, 8177, 8150, 8200, 8200, 8197, 8183, 8188, 8235, 8219, 8265, 8257, 8197, 8126,2.292635202407837
98, 8168, 8176, 8147, 8208, 8198, 8190, 8187, 8189, 8233, 8220, 8270, 8259, 8201, 8130,2.3086793422698975
99, 8171, 8173, 8146, 8199, 8196, 8178, 8178, 8185, 8223, 8208, 8257, 8251, 8191, 8127,2.3086793422698975
100, 8166, 8175, 8137, 8192, 8203, 8171, 8162, 8171, 8216, 8189, 8260, 8247, 8189, 8112,2.3250043392181396
101, 8167, 8192, 8161, 8204, 8205, 8182, 8161, 8167, 8200, 8189, 8270, 8264, 8183, 8105,2.3250043392181396
102, 8172, 8209, 8154, 8227, 8211, 8197, 8176, 8171, 8208, 8220, 8281, 8260, 8186, 8104,2.341012954711914
103, 8172, 8204, 8160, 8221, 8214, 8188, 8166, 8161, 8201, 8211, 8275, 8256, 8183, 8104,2.341012954711914
104, 8162, 8190, 8172, 8215, 8213, 8187, 8168, 8162, 8188, 8189, 8264, 8248, 8174, 8109,2.3566439151763916
105, 8148, 8177, 8158, 8221, 8215, 8201, 8191, 8169, 8203, 8207, 8264, 8233, 8171, 8113,2.3566439151763916
106, 8152, 8175, 8170, 8212, 8212, 8213, 8196, 8176, 8220, 8223, 8256, 8241, 8173, 8123,2.374124526977539
107, 8157, 8170, 8154, 8200, 8206, 8209, 8195, 8181, 8229, 8223, 8239, 8235, 8184, 8126,2.374124526977539
108, 8156, 8156, 8144, 8178, 8196, 8187, 8178, 8177, 8217, 8211, 8233, 8230, 8182, 8119,2.3876686096191406
109, 8152, 8147, 8144, 8152, 8188, 8175, 8160, 8177, 8212, 8207, 8239, 8231, 8173, 8116,2.3876686096191406
110, 8149, 8146, 8130, 8150, 8189, 8172, 8162, 8178, 8224, 8217, 8248, 8226, 8181, 8118,2.4041988849639893
111, 8155, 8161, 8153, 8150, 8190, 8166, 8157, 8183, 8217, 8217, 8263, 8245, 8195, 8126,2.4041988849639893
112, 8161, 8174, 8145, 8155, 8192, 8162, 8149, 8184, 8209, 8209, 8281, 8246, 8197, 8114,2.419687509536743
113, 8164, 8182, 8153, 8167, 8200, 8171, 8148, 8170, 8203, 8190, 8280, 8244, 8179, 8099,2.419687509536743
114, 8159, 8193, 8185, 8177, 8205, 8183, 8146, 8163, 8191, 8186, 8272, 8244, 8162, 8097,2.43564772605896
115, 8146, 8187, 8156, 8176, 8203, 8176, 8146, 8159, 8186, 8203, 8264, 8215, 8159, 8090,2.43564772605896
116, 8138, 8174, 8159, 8163, 8200, 8175, 8149, 8159, 8185, 8206, 8245, 8211, 8152, 8089,2.4505300521850586
117, 8147, 8179, 8168, 8182, 8206, 8196, 8178, 8167, 8201, 8220, 8244, 8219, 8154, 8098,2.4505300521850586
118, 8164, 8180, 8165, 8191, 8212, 8207, 8195, 8173, 8209, 8231, 8247, 8221, 8164, 8110,2.465991973876953
119, 8158, 8170, 8167, 8173, 8206, 8204, 8186, 8181, 8208, 8222, 8236, 8220, 8158, 8117,2.465991973876953
120, 8152, 8169, 8144, 8171, 8201, 8195, 8189, 8183, 8224, 8235, 8251, 8215, 8167, 8120,2.482004404067993
121, 8165, 8174, 8152, 8151, 8200, 8190, 8189, 8181, 8232, 8246, 8266, 8233, 8183, 8126,2.482004404067993
122, 8168, 8176, 8150, 8139, 8204, 8187, 8180, 8183, 8232, 8239, 8266, 8234, 8189, 8121,2.4979164600372314
123, 8169, 8178, 8146, 8163, 8196, 8171, 8161, 8174, 8224, 8221, 8281, 8237, 8183, 8109,2.4979164600372314
124, 8172, 8194, 8167, 8189, 8192, 8167, 8158, 8167, 8206, 8213, 8293, 8245, 8167, 8099,2.51314377784729
125, 8154, 8189, 8147, 8188, 8199, 8183, 8181, 8165, 8202, 8231, 8271, 8219, 8154, 8094,2.51314377784729
126, 8142, 8161, 8145, 8160, 8187, 8188, 8185, 8171, 8201, 8241, 8249, 8215, 8145, 8107,2.5286967754364014
127, 8152, 8155, 8139, 8153, 8170, 8177, 8171, 8185, 8207, 8239, 8256, 8219, 8157, 8114,2.5286967754364014
237, 8158, 8164, 8124, 8148, 8164, 8153, 8149, 8171, 8193, 8216, 8266, 8217, 8162, 8102,2.544097423553467
0, 8158, 8181, 8150, 8141, 8172, 8153, 8137, 8158, 8169, 8192, 8270, 8232, 8156, 8097,2.544097423553467
1, 8148, 8194, 8150, 8156, 8185, 8175, 8151, 8163, 8170, 8210, 8274, 8218, 8155, 8094,2.5600883960723877
2, 8136, 8182, 8145, 8159, 8188, 8189, 8157, 8163, 8164, 8219, 8253, 8195, 8136, 8084,2.5600883960723877
3, 8132, 8168, 8136, 8159, 8194, 8198, 8167, 8172, 8188, 8232, 8241, 8193, 8144, 8097,2.5747838020324707
4, 8142, 8167, 8128, 8158, 8198, 8190, 8172, 8181, 8222, 8255, 8252, 8207, 8172, 8119,2.5747838020324707
5, 8154, 8167, 8141, 8132, 8174, 8168, 8150, 8175, 8192, 8236, 8254, 8223, 8167, 8110,2.590810775756836
6, 8151, 8166, 8123, 8131, 8166, 8161, 8149, 8167, 8167, 8221, 8265, 8217, 8166, 8095,2.590810775756836
7, 8155, 8182, 8148, 8167, 8195, 8182, 8170, 8170, 8180, 8235, 8278, 8220, 8169, 8109,2.606672525405884
8, 8150, 8193, 8163, 8189, 8212, 8209, 8188, 8179, 8185, 8245, 8264, 8205, 8154, 8112,2.606672525405884
9, 8139, 8170, 8130, 8164, 8200, 8202, 8189, 8174, 8178, 8250, 8249, 8185, 8152, 8101,2.6222641468048096
10, 8146, 8150, 8140, 8133, 8185, 8181, 8182, 8173, 8184, 8255, 8246, 8204, 8170, 8115,2.6222641468048096
11, 8150, 8142, 8131, 8135, 8185, 8176, 8185, 8178, 8201, 8260, 8246, 8197, 8173, 8123,2.638201951980591
12, 8143, 8141, 8126, 8127, 8186, 8178, 8181, 8183, 8199, 8243, 8242, 8194, 8159, 8113,2.638201951980591
13, 8148, 8155, 8139, 8126, 8193, 8176, 8170, 8185, 8195, 8235, 8224, 8217, 8171, 8112,2.65385103225708
14, 8169, 8175, 8150, 8159, 8204, 8167, 8157, 8174, 8194, 8242, 8222, 8236, 8197, 8113,2.65385103225708
15, 8185, 8202, 8189, 8178, 8206, 8171, 8150, 8176, 8177, 8241, 8279, 8251, 8198, 8117,2.669156789779663
16, 8180, 8210, 8173, 8184, 8211, 8177, 8170, 8180, 8172, 8248, 8339, 8228, 8191, 8113,2.669156789779663
17, 8170, 8197, 8166, 8185, 8215, 8169, 8175, 8172, 8171, 8245, 8316, 8213, 8177, 8109,2.685145378112793
18, 8164, 8193, 8186, 8193, 8214, 8178, 8177, 8184, 8183, 8254, 8278, 8218, 8173, 8113,2.685145378112793
19, 8158, 8182, 8163, 8197, 8212, 8193, 8197, 8191, 8209, 8287, 8284, 8203, 8177, 8117,2.6998767852783203
20, 8150, 8164, 8158, 8176, 8209, 8200, 8208, 8183, 8210, 8297, 8276, 8207, 8173, 8120,2.6998767852783203
21, 8148, 8152, 8144, 8163, 8208, 8207, 8210, 8190, 8211, 8300, 8260, 8219, 8182, 8124,2.7161591053009033
22, 8162, 8145, 8139, 8152, 8203, 8197, 8196, 8191, 8218, 8303, 8272, 8242, 8194, 8135,2.7161591053009033
23, 8174, 8154, 8155, 8150, 8204, 8186, 8185, 8193, 8228, 8304, 8291, 8267, 8203, 8145,2.731778621673584
24, 8170, 8159, 8144, 8152, 8206, 8177, 8182, 8195, 8236, 8301, 8295, 8262, 8211, 8144,2.7481110095977783
25, 8178, 8159, 8159, 8139, 8202, 8170, 8171, 8190, 8229, 8290, 8292, 8273, 8219, 8151,2.7481110095977783
26, 8192, 8172, 8165, 8152, 8210, 8177, 8178, 8194, 8237, 8294, 8308, 8288, 8236, 8155,2.7481110095977783
27, 8184, 8177, 8164, 8155, 8206, 8171, 8175, 8184, 8226, 8282, 8307, 8286, 8227, 8133,2.7627882957458496
28, 8173, 8183, 8175, 8150, 8195, 8161, 8160, 8167, 8200, 8269, 8292, 8276, 8199, 8110,2.7627882957458496
29, 8180, 8198, 8168, 8174, 8209, 8171, 8167, 8166, 8200, 8292, 8296, 8270, 8203, 8112,2.7780022621154785
30, 8178, 8194, 8186, 8173, 8219, 8185, 8170, 8171, 8194, 8291, 8302, 8285, 8203, 8118,2.7780022621154785
31, 8160, 8179, 8176, 8169, 8208, 8184, 8172, 8165, 8185, 8272, 8294, 8272, 8192, 8108,2.7950596809387207
32, 8168, 8185, 8170, 8186, 8206, 8180, 8180, 8164, 8181, 8263, 8252, 8254, 8179, 8106,2.7950596809387207
33, 8181, 8198, 8192, 8192, 8214, 8196, 8194, 8176, 8184, 8262, 8214, 8257, 8168, 8116,2.8094189167022705
34, 8164, 8176, 8167, 8187, 8208, 8201, 8205, 8173, 8198, 8274, 8247, 8253, 8179, 8120,2.8249964714050293
35, 8170, 8161, 8179, 8186, 8188, 8184, 8202, 8174, 8205, 8294, 8302, 8293, 8209, 8139,2.8249964714050293
36, 8200, 8176, 8196, 8193, 8183, 8178, 8207, 8195, 8225, 8326, 8331, 8337, 8241, 8170,2.8401401042938232
37, 8212, 8178, 8193, 8184, 8183, 8171, 8196, 8193, 8249, 8334, 8363, 8350, 8261, 8186,2.8401401042938232
38, 8209, 8178, 8210, 8168, 8175, 8154, 8169, 8189, 8241, 8314, 8404, 8377, 8280, 8184,2.8562536239624023
39, 8217, 8188, 8203, 8175, 8176, 8141, 8163, 8192, 8224, 8315, 8434, 8395, 8302, 8183,2.8562536239624023
40, 8236, 8202, 8229, 8179, 8179, 8142, 8161, 8186, 8221, 8315, 8457, 8419, 8308, 8197,2.872098445892334
41, 8241, 8210, 8249, 8174, 8174, 8151, 8153, 8183, 8226, 8302, 8478, 8435, 8310, 8203,2.872098445892334
42, 8239, 8197, 8242, 8164, 8158, 8144, 8146, 8167, 8199, 8288, 8479, 8434, 8302, 8195,2.8871266841888428
43, 8237, 8188, 8259, 8159, 8156, 8138, 8146, 8152, 8173, 8293, 8472, 8432, 8283, 8191,2.8871266841888428
44, 8232, 8189, 8247, 8165, 8170, 8154, 8163, 8164, 8202, 8324, 8484, 8418, 8283, 8196,2.9031379222869873
45, 8219, 8180, 8246, 8148, 8157, 8169, 8171, 8177, 8212, 8331, 8488, 8422, 8288, 8196,2.9031379222869873
46, 8208, 8157, 8237, 8126, 8140, 8171, 8184, 8181, 8210, 8337, 8490, 8416, 8298, 8196,2.9190075397491455
47, 8219, 8142, 8210, 8108, 8154, 8166, 8206, 8192, 8244, 8378, 8504, 8412, 8323, 8215,2.9190075397491455
48, 8226, 8148, 8219, 8098, 8158, 8175, 8219, 8214, 8269, 8399, 8504, 8430, 8333, 8233,2.93380069732666
49, 8217, 8146, 8195, 8097, 8145, 8184, 8221, 8214, 8273, 8389, 8496, 8417, 8329, 8223,2.93380069732666
50, 8219, 8135, 8183, 8068, 8150, 8167, 8197, 8193, 8258, 8359, 8489, 8408, 8316, 8210,2.9491636753082275
51, 8220, 8138, 8186, 8060, 8169, 8153, 8184, 8190, 8252, 8344, 8481, 8408, 8310, 8213,2.9491636753082275
52, 8221, 8144, 8173, 8082, 8175, 8148, 8195, 8188, 8254, 8342, 8483, 8404, 8315, 8209,2.964787006378174
53, 8229, 8147, 8196, 8067, 8169, 8146, 8193, 8185, 8237, 8327, 8482, 8415, 8305, 8198,2.964787006378174
54, 8217, 8149, 8186, 8052, 8173, 8150, 8187, 8183, 8234, 8325, 8467, 8395, 8294, 8184,2.9797897338867188
55, 8206, 8149, 8185, 8060, 8175, 8157, 8184, 8181, 8238, 8330, 8461, 8376, 8294, 8174,2.9797897338867188
56, 8216, 8152, 8209, 8068, 8176, 8169, 8201, 8193, 8242, 8340, 8469, 8379, 8299, 8186,2.9950778484344482
57, 8211, 8154, 8197, 8072, 8183, 8173, 8219, 8194, 8247, 8353, 8465, 8367, 8293, 8190,2.9950778484344482
58, 8189, 8146, 8192, 8054, 8176, 8168, 8204, 8182, 8231, 8342, 8426, 8349, 8269, 8178,3.010673761367798
59, 8174, 8125, 8166, 8044, 8171, 8173, 8204, 8177, 8214, 8324, 8397, 8316, 8259, 8169,3.010673761367798
60, 8174, 8113, 8165, 8045, 8167, 8185, 8209, 8174, 8207, 8307, 8390, 8306, 8255, 8174,3.025871753692627
61, 8180, 8119, 8180, 8041, 8167, 8193, 8206, 8184, 8216, 8320, 8384, 8318, 8256, 8184,3.025871753692627
62, 8184, 8117, 8151, 8038, 8170, 8177, 8208, 8190, 8241, 8352, 8387, 8310, 8265, 8182,3.041057586669922
63, 8187, 8112, 8156, 8023, 8163, 8153, 8200, 8188, 8245, 8343, 8392, 8316, 8270, 8177,3.041057586669922
64, 8179, 8115, 8149, 8016, 8152, 8156, 8203, 8191, 8239, 8325, 8397, 8314, 8278, 8175,3.056818723678589
65, 8176, 8117, 8137, 8012, 8147, 8160, 8209, 8189, 8229, 8313, 8393, 8303, 8268, 8175,3.056818723678589
66, 8184, 8128, 8156, 8012, 8157, 8156, 8202, 8185, 8221, 8296, 8394, 8299, 8255, 8169,3.0719215869903564
67, 8184, 8140, 8154, 8030, 8169, 8163, 8202, 8184, 8230, 8297, 8402, 8289, 8264, 8152,3.0719215869903564
68, 8174, 8146, 8168, 8031, 8165, 8173, 8205, 8189, 8227, 8296, 8395, 8293, 8260, 8149,3.0870721340179443
69, 8163, 8143, 8154, 8018, 8159, 8165, 8205, 8186, 8215, 8288, 8391, 8277, 8243, 8146,3.0870721340179443
70, 8159, 8130, 8138, 8000, 8152, 8153, 8192, 8169, 8203, 8279, 8381, 8259, 8224, 8129,3.102123260498047
71, 8146, 8125, 8152, 8004, 8151, 8170, 8197, 8176, 8207, 8276, 8359, 8248, 8207, 8120,3.102123260498047
72, 8130, 8122, 8135, 8027, 8155, 8181, 8217, 8187, 8214, 8280, 8340, 8216, 8197, 8113,3.1176490783691406
73, 8130, 8120, 8146, 8020, 8153, 8171, 8209, 8181, 8198, 8273, 8322, 8219, 8190, 8113,3.1176490783691406
74, 8145, 8126, 8148, 8026, 8160, 8185, 8224, 8190, 8216, 8287, 8326, 8230, 8206, 8136,3.1337203979492188
75, 8148, 8119, 8131, 8036, 8162, 8199, 8245, 8196, 8241, 8300, 8330, 8220, 8215, 8155,3.149386405944824
76, 8129, 8112, 8129, 8016, 8149, 8193, 8235, 8192, 8233, 8291, 8305, 8213, 8203, 8146,3.149386405944824
77, 8127, 8110, 8107, 8010, 8151, 8184, 8231, 8194, 8244, 8309, 8309, 8211, 8218, 8143,3.149386405944824
78, 8152, 8112, 8127, 8012, 8156, 8173, 8221, 8196, 8260, 8321, 8338, 8238, 8240, 8166,3.1650166511535645
79, 8163, 8118, 8140, 8014, 8148, 8158, 8201, 8192, 8255, 8302, 8338, 8252, 8246, 8168,3.1650166511535645
80, 8164, 8129, 8131, 8018, 8150, 8152, 8188, 8182, 8243, 8288, 8332, 8251, 8247, 8147,3.1801576614379883
81, 8169, 8143, 8151, 8030, 8168, 8165, 8191, 8183, 8237, 8292, 8344, 8262, 8253, 8148,3.1801576614379883
82, 8157, 8142, 8138, 8039, 8174, 8170, 8198, 8175, 8234, 8289, 8343, 8240, 8251, 8145,3.195781946182251
83, 8144, 8137, 8147, 8034, 8167, 8163, 8182, 8154, 8210, 8263, 8322, 8225, 8228, 8124,3.2117464542388916
84, 8148, 8143, 8156, 8044, 8165, 8177, 8183, 8159, 8206, 8256, 8310, 8221, 8215, 8111,3.2117464542388916
85, 8149, 8144, 8142, 8059, 8163, 8178, 8196, 8166, 8223, 8273, 8309, 8209, 8228, 8125,3.2269513607025146
86, 8150, 8145, 8165, 8060, 8162, 8172, 8197, 8175, 8230, 8298, 8325, 8219, 8244, 8151,3.2269513607025146
87, 8157, 8147, 8162, 8073, 8174, 8189, 8210, 8192, 8247, 8326, 8346, 8219, 8260, 8162,3.242098093032837
88, 8166, 8144, 8165, 8078, 8179, 8195, 8219, 8193, 8253, 8316, 8331, 8216, 8251, 8165,3.242098093032837
89, 8163, 8146, 8175, 8076, 8180, 8182, 8207, 8190, 8250, 8302, 8318, 8219, 8240, 8161,3.257265567779541
90, 8155, 8134, 8149, 8068, 8169, 8165, 8189, 8185, 8251, 8315, 8331, 8218, 8254, 8150,3.257265567779541
91, 8163, 8123, 8150, 8045, 8150, 8159, 8184, 8184, 8237, 8307, 8334, 8234, 8262, 8153,3.2729389667510986
92, 8169, 8130, 8144, 8042, 8156, 8154, 8183, 8181, 8226, 8279, 8334, 8239, 8257, 8151,3.2729389667510986
93, 8170, 8141, 8154, 8045, 8164, 8145, 8160, 8167, 8214, 8256, 8331, 8242, 8241, 8138,3.2886486053466797
94, 8168, 8151, 8168, 8062, 8161, 8157, 8167, 8165, 8211, 8268, 8324, 8233, 8234, 8139,3.2886486053466797
95, 8167, 8150, 8165, 8087, 8169, 8173, 8195, 8180, 8225, 8293, 8328, 8218, 8240, 8150,3.3041563034057617
96, 8169, 8148, 8187, 8077, 8175, 8171, 8185, 8188, 8221, 8282, 8322, 8213, 8233, 8154,3.3041563034057617
97, 8158, 8146, 8160, 8068, 8165, 8169, 8184, 8178, 8210, 8265, 8303, 8173, 8221, 8144,3.320096969604492
98, 8145, 8139, 8142, 8073, 8157, 8175, 8208, 8174, 8205, 8262, 8289, 8149, 8211, 8139,3.320096969604492
99, 8146, 8127, 8155, 8072, 8161, 8181, 8222, 8191, 8211, 8268, 8276, 8146, 8212, 8149,3.3361144065856934
100, 8137, 8111, 8125, 8062, 8159, 8176, 8218, 8195, 8213, 8271, 8261, 8122, 8208, 8149,3.3361144065856934
101, 8130, 8112, 8131, 8058, 8147, 8169, 8213, 8192, 8213, 8264, 8261, 8133, 8201, 8144,3.351670503616333
102, 8135, 8112, 8129, 8067, 8144, 8170, 8219, 8200, 8230, 8271, 8273, 8149, 8217, 8147,3.351670503616333
103, 8141, 8102, 8115, 8058, 8145, 8166, 8206, 8195, 8227, 8275, 8269, 8150, 8228, 8153,3.367779016494751
104, 8144, 8115, 8122, 8055, 8151, 8167, 8202, 8197, 8224, 8281, 8274, 8163, 8232, 8157,3.367779016494751
105, 8162, 8132, 8113, 8071, 8159, 8161, 8206, 8196, 8243, 8287, 8296, 8173, 8250, 8157,3.3831889629364014
106, 8175, 8137, 8134, 8057, 8151, 8150, 8175, 8181, 8224, 8259, 8297, 8188, 8244, 8147,3.3831889629364014
107, 8158, 8141, 8132, 8052, 8148, 8153, 8160, 8176, 8200, 8245, 8290, 8176, 8217, 8129,3.39872145652771
108, 8154, 8150, 8122, 8078, 8164, 8161, 8172, 8169, 8198, 8246, 8291, 8162, 8206, 8121,3.39872145652771
109, 8172, 8168, 8149, 8106, 8170, 8173, 8176, 8163, 8194, 8244, 8290, 8177, 8215, 8125,3.4141550064086914
110, 8168, 8177, 8143, 8115, 8165, 8179, 8181, 8164, 8196, 8258, 8285, 8171, 8220, 8132,3.4141550064086914
111, 8148, 8158, 8141, 8092, 8162, 8177, 8177, 8165, 8189, 8251, 8266, 8158, 8199, 8134,3.429759979248047
112, 8141, 8140, 8133, 8086, 8170, 8186, 8174, 8168, 8189, 8248, 8267, 8149, 8198, 8124,3.429759979248047
113, 8152, 8147, 8136, 8104, 8169, 8183, 8178, 8171, 8193, 8275, 8290, 8156, 8217, 8127,3.4450387954711914
114, 8156, 8155, 8155, 8114, 8162, 8172, 8179, 8176, 8191, 8276, 8284, 8164, 8216, 8139,3.445482015609741
115, 8157, 8150, 8141, 8129, 8176, 8183, 8187, 8174, 8206, 8270, 8277, 8153, 8216, 8140,3.4603233337402344
116, 8167, 8156, 8159, 8134, 8187, 8201, 8200, 8180, 8216, 8281, 8289, 8168, 8222, 8142,3.4603233337402344
117, 8166, 8158, 8153, 8124, 8178, 8187, 8208, 8190, 8217, 8284, 8285, 8167, 8216, 8137,3.4752819538116455
118, 8153, 8142, 8125, 8109, 8171, 8156, 8196, 8176, 8206, 8262, 8261, 8149, 8203, 8120,3.4752819538116455
119, 8150, 8137, 8135, 8101, 8175, 8165, 8187, 8173, 8200, 8253, 8245, 8152, 8195, 8115,3.491098403930664
120, 8155, 8144, 8125, 8110, 8176, 8187, 8207, 8193, 8218, 8280, 8249, 8145, 8208, 8127,3.491098403930664
121, 8164, 8148, 8141, 8108, 8168, 8174, 8210, 8198, 8227, 8284, 8261, 8160, 8217, 8138,3.5068001747131348
122, 8169, 8152, 8149, 8107, 8171, 8158, 8200, 8193, 8224, 8267, 8259, 8170, 8219, 8146,3.5068001747131348
123, 8169, 8150, 8126, 8108, 8171, 8149, 8197, 8189, 8224, 8265, 8253, 8162, 8226, 8147,3.5221543312072754
124, 8169, 8146, 8137, 8086, 8157, 8141, 8189, 8187, 8227, 8269, 8266, 8173, 8226, 8141,3.5221543312072754
125, 8160, 8140, 8121, 8069, 8156, 8138, 8184, 8184, 8231, 8270, 8275, 8167, 8224, 8130,3.538151741027832
126, 8152, 8138, 8116, 8068, 8165, 8145, 8178, 8182, 8220, 8249, 8260, 8162, 8219, 8124,3.538151741027832
127, 8153, 8147, 8126, 8078, 8160, 8148, 8171, 8185, 8208, 8236, 8257, 8162, 8208, 8122,3.553168296813965
237, 8151, 8145, 8122, 8082, 8143, 8135, 8154, 8174, 8200, 8241, 8269, 8155, 8194, 8116,3.553168296813965
0, 8158, 8154, 8149, 8082, 8151, 8138, 8146, 8171, 8186, 8236, 8270, 8165, 8186, 8113,3.5690062046051025
1, 8172, 8170, 8148, 8102, 8177, 8154, 8171, 8183, 8198, 8238, 8282, 8161, 8197, 8117,3.5690062046051025
2, 8178, 8170, 8154, 8101, 8172, 8147, 8175, 8181, 8207, 8244, 8293, 8164, 8199, 8131,3.5839881896972656
3, 8176, 8175, 8166, 8100, 8161, 8145, 8161, 8177, 8197, 8244, 8284, 8170, 8197, 8136,3.5839881896972656
4, 8173, 8182, 8151, 8120, 8173, 8151, 8163, 8171, 8191, 8222, 8270, 8161, 8199, 8121,3.5994644165039062
5, 8170, 8181, 8168, 8123, 8178, 8157, 8171, 8168, 8185, 8202, 8265, 8165, 8193, 8120,3.5994644165039062
6, 8156, 8179, 8158, 8143, 8178, 8178, 8190, 8170, 8195, 8237, 8271, 8155, 8197, 8130,3.615004539489746
7, 8148, 8174, 8150, 8149, 8174, 8181, 8182, 8163, 8180, 8233, 8243, 8137, 8174, 8118,3.615004539489746
8, 8144, 8165, 8158, 8123, 8167, 8176, 8168, 8167, 8156, 8186, 8217, 8128, 8154, 8101,3.631133556365967
9, 8139, 8160, 8137, 8118, 8172, 8185, 8185, 8173, 8177, 8210, 8238, 8129, 8175, 8107,3.631133556365967
10, 8140, 8163, 8149, 8122, 8175, 8182, 8188, 8176, 8200, 8253, 8240, 8144, 8183, 8118,3.647338628768921
11, 8144, 8151, 8133, 8115, 8171, 8164, 8184, 8187, 8213, 8257, 8233, 8134, 8195, 8123,3.647338628768921
12, 8160, 8149, 8127, 8107, 8169, 8154, 8178, 8188, 8226, 8250, 8254, 8151, 8220, 8135,3.663018226623535
13, 8175, 8175, 8160, 8121, 8178, 8160, 8175, 8192, 8235, 8261, 8282, 8193, 8240, 8137,3.663018226623535
14, 8174, 8183, 8161, 8140, 8183, 8160, 8175, 8190, 8231, 8262, 8300, 8186, 8248, 8128,3.67887020111084
15, 8172, 8186, 8183, 8142, 8180, 8165, 8165, 8177, 8201, 8237, 8299, 8185, 8239, 8130,3.67887020111084
16, 8175, 8208, 8189, 8167, 8189, 8178, 8176, 8172, 8201, 8253, 8300, 8187, 8240, 8129,3.694077730178833
17, 8179, 8205, 8191, 8182, 8189, 8168, 8186, 8172, 8210, 8267, 8299, 8182, 8236, 8128,3.694077730178833
18, 8169, 8187, 8196, 8162, 8179, 8174, 8185, 8175, 8200, 8242, 8281, 8177, 8221, 8132,3.709951400756836
19, 8158, 8175, 8155, 8150, 8178, 8192, 8198, 8177, 8212, 8247, 8267, 8161, 8220, 8126,3.709951400756836
20, 8164, 8171, 8163, 8146, 8177, 8191, 8203, 8184, 8233, 8279, 8270, 8171, 8228, 8134,3.7260026931762695
21, 8169, 8171, 8168, 8155, 8175, 8186, 8197, 8187, 8234, 8285, 8269, 8168, 8233, 8150,3.7260026931762695
22, 8168, 8170, 8152, 8152, 8168, 8167, 8184, 8172, 8214, 8253, 8258, 8160, 8233, 8142,3.7411062717437744
23, 8175, 8169, 8172, 8136, 8162, 8157, 8176, 8175, 8203, 8237, 8264, 8182, 8248, 8144,3.7411062717437744
24, 8194, 8173, 8176, 8150, 8175, 8164, 8180, 8191, 8219, 8266, 8285, 8202, 8278, 8169,3.756697416305542
25, 8207, 8183, 8188, 8164, 8180, 8167, 8178, 8191, 8223, 8282, 8299, 8203, 8294, 8176,3.756697416305542
26, 8200, 8188, 8185, 8167, 8173, 8165, 8178, 8181, 8223, 8263, 8300, 8170, 8284, 8165,3.7721593379974365
27, 8198, 8180, 8171, 8163, 8171, 8166, 8172, 8168, 8216, 8238, 8286, 8166, 8263, 8153,3.7721593379974365
28, 8198, 8180, 8181, 8163, 8174, 8174, 8166, 8176, 8207, 8239, 8273, 8201, 8253, 8151,3.7876930236816406
29, 8188, 8179, 8163, 8166, 8175, 8171, 8170, 8183, 8216, 8252, 8281, 8190, 8259, 8150,3.7876930236816406
30, 8190, 8174, 8172, 8156, 8167, 8150, 8156, 8173, 8207, 8242, 8290, 8183, 8258, 8146,3.803724527359009
31, 8202, 8187, 8190, 8173, 8170, 8143, 8146, 8171, 8193, 8243, 8295, 8203, 8256, 8149,3.803724527359009
32, 8203, 8207, 8192, 8198, 8184, 8156, 8153, 8169, 8184, 8240, 8296, 8202, 8256, 8147,3.8193509578704834
33, 8205, 8212, 8208, 8195, 8187, 8168, 8159, 8166, 8169, 8216, 8288, 8203, 8246, 8140,3.8193509578704834
34, 8208, 8207, 8192, 8200, 8177, 8165, 8163, 8173, 8184, 8230, 8304, 8225, 8257, 8137,3.8351023197174072
35, 8208, 8211, 8202, 8209, 8170, 8164, 8158, 8176, 8192, 8242, 8324, 8243, 8271, 8150,3.8351023197174072
36, 8210, 8220, 8220, 8220, 8184, 8179, 8161, 8173, 8176, 8210, 8316, 8211, 8258, 8155,3.850527286529541
37, 8209, 8218, 8211, 8236, 8201, 8186, 8166, 8165, 8169, 8202, 8304, 8182, 8242, 8143,3.850527286529541
38, 8203, 8214, 8225, 8230, 8194, 8188, 8158, 8166, 8163, 8210, 8295, 8210, 8240, 8140,3.8656961917877197
39, 8190, 8205, 8206, 8220, 8183, 8183, 8156, 8165, 8153, 8189, 8287, 8204, 8241, 8138,3.881772756576538
40, 8196, 8195, 8207, 8225, 8184, 8172, 8152, 8156, 8142, 8169, 8277, 8191, 8229, 8137,3.881772756576538
41, 8203, 8197, 8224, 8237, 8195, 8189, 8158, 8165, 8154, 8200, 8272, 8196, 8225, 8143,3.881772756576538
42, 8191, 8196, 8199, 8242, 8190, 8203, 8165, 8168, 8161, 8223, 8263, 8172, 8219, 8140,3.8980259895324707
43, 8186, 8200, 8205, 8237, 8185, 8196, 8164, 8165, 8149, 8196, 8245, 8169, 8201, 8136,3.8980259895324707
44, 8184, 8192, 8192, 8233, 8197, 8207, 8180, 8171, 8161, 8196, 8240, 8164, 8202, 8136,3.913123369216919
45, 8177, 8162, 8172, 8212, 8201, 8228, 8192, 8177, 8184, 8215, 8231, 8148, 8203, 8138,3.9287147521972656
46, 8177, 8158, 8174, 8207, 8193, 8232, 8200, 8192, 8204, 8233, 8226, 8148, 8204, 8145,3.9287147521972656
47, 8183, 8165, 8159, 8208, 8185, 8220, 8206, 8194, 8214, 8249, 8238, 8146, 8214, 8146,3.9438395500183105
48, 8169, 8151, 8160, 8183, 8179, 8217, 8186, 8177, 8199, 8230, 8234, 8144, 8199, 8132,3.9438395500183105
49, 8149, 8140, 8140, 8184, 8182, 8216, 8177, 8167, 8187, 8217, 8215, 8128, 8179, 8115,3.959639072418213
50, 8162, 8152, 8149, 8193, 8186, 8202, 8188, 8173, 8181, 8215, 8203, 8133, 8181, 8121,3.959639072418213
51, 8178, 8158, 8172, 8178, 8183, 8207, 8194, 8186, 8191, 8219, 8215, 8153, 8198, 8140,3.9747958183288574
52, 8175, 8145, 8146, 8173, 8183, 8214, 8195, 8191, 8221, 8238, 8239, 8151, 8219, 8147,3.9747958183288574
53, 8176, 8146, 8163, 8169, 8181, 8196, 8185, 8192, 8217, 8239, 8249, 8164, 8223, 8148,3.9898407459259033
54, 8174, 8151, 8167, 8165, 8181, 8195, 8185, 8189, 8204, 8229, 8237, 8154, 8215, 8141,3.9898407459259033
55, 8169, 8141, 8158, 8162, 8181, 8198, 8173, 8179, 8199, 8217, 8225, 8154, 8217, 8134,4.005194902420044
56, 8182, 8151, 8186, 8169, 8178, 8182, 8157, 8183, 8194, 8213, 8249, 8187, 8232, 8140,4.005194902420044
57, 8190, 8168, 8181, 8182, 8183, 8171, 8165, 8177, 8194, 8214, 8272, 8185, 8234, 8132,4.027648687362671
58, 8179, 8166, 8186, 8170, 8184, 8176, 8161, 8157, 8171, 8190, 8250, 8174, 8207, 8114,4.027648687362671
59, 8172, 8161, 8189, 8173, 8189, 8179, 8153, 8161, 8159, 8178, 8233, 8166, 8198, 8109,4.027648687362671
60, 8179, 8170, 8192, 8188, 8198, 8174, 8156, 8170, 8170, 8189, 8242, 8161, 8203, 8114,4.036738634109497
61, 8176, 8180, 8202, 8186, 8203, 8183, 8162, 8170, 8183, 8199, 8244, 8167, 8199, 8120,4.05170464515686
62, 8156, 8168, 8179, 8186, 8202, 8196, 8171, 8165, 8190, 8208, 8240, 8155, 8194, 8113,4.05170464515686
63, 8147, 8150, 8183, 8168, 8184, 8202, 8171, 8159, 8172, 8196, 8212, 8135, 8170, 8097,4.066850662231445
64, 8144, 8148, 8171, 8162, 8177, 8209, 8190, 8169, 8177, 8197, 8177, 8111, 8162, 8090,4.066850662231445
65, 8142, 8147, 8154, 8178, 8191, 8207, 8200, 8179, 8195, 8214, 8181, 8110, 8179, 8103,4.08200740814209
66, 8143, 8148, 8177, 8175, 8194, 8201, 8186, 8182, 8183, 8205, 8192, 8123, 8176, 8110,4.08200740814209
67, 8145, 8148, 8161, 8171, 8186, 8196, 8195, 8176, 8183, 8200, 8195, 8115, 8168, 8097,4.097776889801025
68, 8144, 8144, 8162, 8168, 8183, 8192, 8200, 8174, 8184, 8199, 8192, 8128, 8167, 8096,4.097776889801025
69, 8132, 8133, 8159, 8160, 8183, 8200, 8190, 8181, 8178, 8195, 8180, 8131, 8171, 8099,4.11287260055542
70, 8129, 8116, 8131, 8145, 8172, 8194, 8182, 8174, 8179, 8197, 8174, 8119, 8172, 8087,4.11287260055542
71, 8138, 8117, 8153, 8132, 8163, 8181, 8181, 8178, 8180, 8202, 8188, 8133, 8173, 8090,4.12799334526062
72, 8140, 8130, 8155, 8148, 8175, 8187, 8192, 8194, 8191, 8216, 8208, 8135, 8190, 8104,4.12799334526062
73, 8146, 8134, 8157, 8156, 8183, 8202, 8186, 8198, 8210, 8224, 8208, 8147, 8206, 8117,4.143976449966431
74, 8151, 8137, 8164, 8157, 8179, 8207, 8172, 8192, 8225, 8236, 8214, 8156, 8211, 8119,4.143976449966431
75, 8152, 8143, 8157, 8170, 8180, 8186, 8153, 8169, 8210, 8226, 8223, 8149, 8207, 8101,4.159959554672241
76, 8154, 8158, 8175, 8176, 8186, 8171, 8137, 8162, 8180, 8192, 8225, 8166, 8203, 8090,4.159959554672241
77, 8149, 8161, 8158, 8176, 8191, 8179, 8145, 8172, 8184, 8198, 8242, 8166, 8211, 8087,4.175223350524902
78, 8147, 8159, 8163, 8169, 8184, 8175, 8145, 8163, 8183, 8199, 8248, 8165, 8205, 8084,4.175223350524902
79, 8152, 8178, 8190, 8186, 8185, 8174, 8147, 8166, 8179, 8178, 8237, 8171, 8192, 8086,4.1907782554626465
80, 8152, 8188, 8181, 8210, 8196, 8187, 8160, 8174, 8185, 8185, 8236, 8161, 8190, 8087,4.1907782554626465
81, 8151, 8186, 8198, 8209, 8195, 8192, 8161, 8166, 8171, 8202, 8243, 8170, 8190, 8090,4.205907106399536
82, 8153, 8182, 8195, 8207, 8189, 8186, 8165, 8161, 8168, 8207, 8243, 8168, 8206, 8092,4.205907106399536
83, 8150, 8171, 8194, 8197, 8184, 8188, 8165, 8163, 8172, 8195, 8235, 8161, 8215, 8098,4.22150444984436
84, 8143, 8167, 8205, 8202, 8188, 8209, 8169, 8164, 8172, 8194, 8231, 8160, 8205, 8096,4.22150444984436
85, 8150, 8175, 8201, 8228, 8199, 8220, 8184, 8167, 8177, 8202, 8233, 8157, 8204, 8094,4.236993789672852
86, 8156, 8176, 8214, 8224, 8202, 8220, 8188, 8180, 8179, 8211, 8235, 8166, 8217, 8102,4.252154350280762
87, 8147, 8159, 8185, 8213, 8201, 8218, 8188, 8182, 8194, 8232, 8235, 8156, 8232, 8104,4.252154350280762
88, 8141, 8147, 8168, 8212, 8194, 8210, 8183, 8174, 8199, 8230, 8218, 8152, 8231, 8100,4.267629146575928
89, 8147, 8157, 8185, 8215, 8180, 8210, 8184, 8177, 8193, 8215, 8198, 8158, 8229, 8101,4.267629146575928
90, 8161, 8163, 8174, 8212, 8177, 8206, 8197, 8180, 8206, 8226, 8203, 8156, 8245, 8116,4.284694194793701
91, 8173, 8158, 8179, 8193, 8182, 8187, 8191, 8174, 8203, 8220, 8211, 8176, 8254, 8120,4.284694194793701
92, 8168, 8144, 8163, 8183, 8173, 8173, 8167, 8173, 8185, 8194, 8207, 8182, 8250, 8102,4.2851033210754395
93, 8169, 8151, 8168, 8185, 8166, 8170, 8152, 8166, 8175, 8178, 8207, 8184, 8241, 8093,4.299718379974365
94, 8181, 8182, 8210, 8198, 8188, 8178, 8162, 8167, 8178, 8187, 8229, 8202, 8249, 8113,4.299718379974365
95, 8174, 8180, 8192, 8206, 8198, 8177, 8169, 8169, 8173, 8200, 8238, 8189, 8254, 8112,4.314907073974609
96, 8153, 8165, 8180, 8190, 8182, 8170, 8150, 8156, 8149, 8183, 8204, 8167, 8223, 8082,4.331529378890991
97, 8150, 8179, 8187, 8200, 8191, 8186, 8153, 8157, 8150, 8179, 8196, 8158, 8208, 8079,4.331529378890991
98, 8165, 8189, 8199, 8218, 8203, 8203, 8166, 8167, 8157, 8196, 8214, 8162, 8214, 8095,4.331529378890991
99, 8159, 8174, 8201, 8206, 8185, 8205, 8166, 8169, 8159, 8199, 8204, 8158, 8203, 8091,4.346097946166992
100, 8145, 8169, 8177, 8205, 8182, 8197, 8175, 8168, 8176, 8207, 8204, 8149, 8206, 8090,4.361673593521118
101, 8155, 8183, 8199, 8221, 8189, 8192, 8180, 8166, 8170, 8198, 8205, 8165, 8205, 8099,4.361673593521118
102, 8152, 8174, 8192, 8227, 8181, 8198, 8186, 8168, 8158, 8182, 8181, 8156, 8187, 8089,4.376987457275391
103, 8140, 8157, 8173, 8214, 8178, 8201, 8186, 8170, 8163, 8194, 8176, 8145, 8181, 8084,4.376987457275391
104, 8148, 8168, 8202, 8209, 8178, 8197, 8183, 8181, 8168, 8214, 8193, 8162, 8193, 8103,4.39258074760437
105, 8152, 8162, 8182, 8213, 8172, 8183, 8182, 8176, 8168, 8204, 8178, 8145, 8186, 8096,4.39258074760437
106, 8139, 8137, 8173, 8191, 8162, 8179, 8169, 8167, 8164, 8183, 8154, 8135, 8165, 8083,4.408318281173706
107, 8145, 8146, 8181, 8194, 8170, 8195, 8176, 8192, 8194, 8211, 8174, 8150, 8189, 8106,4.408318281173706
108, 8166, 8159, 8165, 8203, 8174, 8188, 8186, 8202, 8220, 8222, 8191, 8159, 8211, 8125,4.424056053161621
109, 8164, 8144, 8168, 8179, 8155, 8162, 8172, 8191, 8202, 8192, 8176, 8169, 8202, 8123,4.424056053161621
110, 8155, 8130, 8148, 8175, 8150, 8153, 8166, 8189, 8198, 8195, 8181, 8161, 8209, 8115,4.439823389053345
111, 8163, 8132, 8148, 8172, 8151, 8148, 8155, 8186, 8204, 8195, 8189, 8169, 8209, 8114,4.439823389053345
112, 8167, 8140, 8156, 8165, 8144, 8142, 8144, 8180, 8187, 8182, 8180, 8173, 8192, 8108,4.454784154891968
113, 8166, 8144, 8138, 8174, 8140, 8137, 8141, 8164, 8163, 8175, 8175, 8158, 8186, 8092,4.454784154891968
114, 8162, 8145, 8151, 8170, 8143, 8144, 8136, 8160, 8153, 8161, 8179, 8164, 8186, 8086,4.470710515975952
115, 8157, 8143, 8146, 8164, 8148, 8155, 8140, 8166, 8160, 8153, 8179, 8156, 8176, 8081,4.470710515975952
116, 8165, 8153, 8155, 8175, 8150, 8154, 8141, 8162, 8155, 8150, 8172, 8157, 8165, 8080,4.485868692398071
117, 8167, 8177, 8169, 8198, 8160, 8165, 8145, 8164, 8158, 8159, 8169, 8158, 8167, 8085,4.485868692398071
118, 8147, 8175, 8155, 8205, 8174, 8178, 8158, 8168, 8177, 8176, 8163, 8133, 8170, 8088,4.501019716262817
119, 8140, 8159, 8161, 8195, 8177, 8180, 8168, 8172, 8178, 8185, 8147, 8135, 8156, 8088,4.501019716262817
120, 8143, 8145, 8136, 8194, 8163, 8179, 8171, 8173, 8183, 8204, 8142, 8164, 8157, 8091,4.516233682632446
121, 8138, 8136, 8130, 8178, 8151, 8179, 8163, 8173, 8188, 8206, 8144, 8196, 8165, 8099,4.516233682632446
122, 8137, 8136, 8142, 8165, 8151, 8181, 8162, 8181, 8194, 8196, 8150, 8194, 8173, 8099,4.531782627105713
123, 8153, 8144, 8135, 8176, 8160, 8175, 8164, 8185, 8211, 8202, 8166, 8173, 8193, 8096,4.531782627105713
124, 8177, 8164, 8176, 8186, 8168, 8174, 8149, 8186, 8207, 8202, 8191, 8197, 8203, 8106,4.547130346298218
125, 8180, 8179, 8187, 8196, 8175, 8180, 8150, 8176, 8195, 8195, 8207, 8201, 8198, 8108,4.547130346298218
126, 8171, 8179, 8174, 8200, 8175, 8167, 8154, 8161, 8180, 8189, 8197, 8183, 8188, 8097,4.5622618198394775
127, 8158, 8178, 8179, 8199, 8175, 8166, 8156, 8167, 8171, 8195, 8176, 8173, 8183, 8089,4.5622618198394775
237, 8142, 8173, 8168, 8207, 8176, 8182, 8166, 8177, 8182, 8211, 8170, 8154, 8174, 8092,4.5777199268341064
0, 8151, 8169, 8183, 8205, 8172, 8191, 8176, 8176, 8190, 8217, 8162, 8158, 8166, 8105,4.5777199268341064
1, 8158, 8160, 8170, 8206, 8178, 8202, 8191, 8181, 8201, 8226, 8157, 8157, 8173, 8105,4.593837261199951
2, 8143, 8143, 8150, 8189, 8169, 8201, 8188, 8179, 8204, 8225, 8155, 8156, 8177, 8098,4.593837261199951
3, 8139, 8137, 8162, 8169, 8147, 8194, 8174, 8185, 8207, 8222, 8150, 8160, 8184, 8110,4.609464168548584
4, 8161, 8148, 8159, 8184, 8158, 8194, 8176, 8193, 8226, 8242, 8160, 8159, 8201, 8124,4.609464168548584
5, 8170, 8158, 8177, 8188, 8172, 8191, 8168, 8186, 8231, 8248, 8170, 8183, 8201, 8117,4.624540328979492
6, 8157, 8153, 8168, 8183, 8173, 8186, 8163, 8190, 8231, 8247, 8177, 8188, 8206, 8108,4.624540328979492
7, 8166, 8148, 8164, 8188, 8177, 8186, 8166, 8198, 8239, 8260, 8197, 8184, 8235, 8127,4.640638828277588
8, 8187, 8160, 8187, 8187, 8171, 8185, 8160, 8196, 8243, 8255, 8213, 8195, 8246, 8142,4.640638828277588
9, 8182, 8161, 8165, 8178, 8159, 8177, 8158, 8185, 8240, 8237, 8209, 8186, 8230, 8120,4.656789064407349
10, 8172, 8161, 8171, 8169, 8161, 8178, 8151, 8177, 8215, 8217, 8195, 8188, 8208, 8104,4.656789064407349
11, 8177, 8182, 8191, 8192, 8171, 8183, 8151, 8175, 8202, 8224, 8196, 8187, 8209, 8113,4.672369956970215
12, 8181, 8182, 8192, 8203, 8170, 8183, 8154, 8171, 8203, 8236, 8214, 8184, 8219, 8112,4.672369956970215
13, 8178, 8174, 8202, 8187, 8172, 8198, 8160, 8173, 8204, 8232, 8229, 8199, 8227, 8114,4.687305212020874
14, 8177, 8187, 8193, 8204, 8183, 8208, 8172, 8172, 8202, 8238, 8221, 8196, 8229, 8127,4.687305212020874
15, 8180, 8191, 8207, 8225, 8178, 8201, 8167, 8166, 8182, 8228, 8189, 8182, 8203, 8122,4.702835559844971
16, 8177, 8179, 8200, 8218, 8176, 8212, 8177, 8174, 8187, 8219, 8181, 8163, 8197, 8115,4.702835559844971
17, 8174, 8161, 8171, 8196, 8178, 8218, 8189, 8174, 8205, 8228, 8178, 8157, 8209, 8121,4.718776702880859
18, 8160, 8146, 8173, 8176, 8165, 8196, 8178, 8170, 8196, 8226, 8150, 8157, 8190, 8119,4.718776702880859
19, 8150, 8138, 8150, 8174, 8157, 8184, 8175, 8178, 8200, 8231, 8150, 8136, 8191, 8104,4.734118461608887
20, 8164, 8143, 8165, 8170, 8164, 8187, 8175, 8188, 8212, 8237, 8168, 8152, 8210, 8113,4.734118461608887
21, 8175, 8149, 8181, 8170, 8175, 8189, 8172, 8192, 8213, 8235, 8170, 8166, 8211, 8126,4.750047922134399
22, 8171, 8140, 8150, 8162, 8168, 8177, 8156, 8171, 8197, 8213, 8167, 8155, 8202, 8106,4.750047922134399
23, 8163, 8146, 8166, 8145, 8158, 8177, 8128, 8155, 8164, 8177, 8164, 8169, 8193, 8087,4.765830755233765
24, 8160, 8161, 8179, 8167, 8174, 8189, 8133, 8163, 8151, 8175, 8171, 8166, 8194, 8088,4.765830755233765
25, 8166, 8168, 8188, 8191, 8186, 8184, 8149, 8164, 8157, 8186, 8179, 8165, 8192, 8099,4.781396865844727
26, 8163, 8168, 8193, 8194, 8186, 8195, 8166, 8169, 8177, 8194, 8172, 8165, 8185, 8096,4.796499490737915
27, 8151, 8153, 8168, 8181, 8183, 8207, 8184, 8175, 8192, 8207, 8148, 8139, 8182, 8092,4.796499490737915
28, 8147, 8140, 8161, 8154, 8175, 8196, 8183, 8185, 8193, 8210, 8132, 8140, 8189, 8108,4.812283515930176
29, 8157, 8149, 8144, 8155, 8173, 8176, 8167, 8183, 8203, 8207, 8150, 8156, 8205, 8105,4.812283515930176
30, 8167, 8167, 8161, 8167, 8172, 8163, 8148, 8161, 8172, 8179, 8160, 8161, 8191, 8081,4.812283515930176
31, 8165, 8176, 8184, 8185, 8177, 8179, 8159, 8158, 8139, 8166, 8151, 8149, 8172, 8079,4.828152179718018
32, 8153, 8163, 8158, 8197, 8190, 8199, 8182, 8172, 8167, 8199, 8149, 8129, 8183, 8093,4.828152179718018
33, 8148, 8142, 8160, 8174, 8178, 8199, 8170, 8178, 8185, 8210, 8140, 8136, 8186, 8095,4.84321141242981
34, 8155, 8142, 8157, 8161, 8153, 8180, 8146, 8172, 8168, 8182, 8137, 8142, 8182, 8081,4.858201742172241
35, 8168, 8164, 8169, 8173, 8152, 8167, 8137, 8157, 8147, 8156, 8147, 8155, 8181, 8073,4.858201742172241
36, 8169, 8181, 8193, 8190, 8167, 8179, 8148, 8153, 8140, 8166, 8146, 8154, 8171, 8079,4.875108242034912
37, 8147, 8169, 8173, 8199, 8165, 8179, 8154, 8153, 8138, 8176, 8122, 8122, 8151, 8078,4.875108242034912
38, 8130, 8153, 8174, 8185, 8151, 8177, 8143, 8154, 8133, 8163, 8097, 8115, 8137, 8067,4.875108242034912
39, 8136, 8148, 8165, 8177, 8152, 8188, 8154, 8164, 8148, 8182, 8114, 8116, 8152, 8075,4.8897881507873535
40, 8145, 8142, 8154, 8173, 8147, 8185, 8167, 8172, 8163, 8205, 8124, 8123, 8174, 8102,4.904900550842285
41, 8146, 8138, 8161, 8162, 8139, 8169, 8156, 8176, 8164, 8192, 8079, 8138, 8183, 8108,4.904900550842285
42, 8157, 8136, 8145, 8158, 8141, 8151, 8140, 8169, 8160, 8174, 8043, 8137, 8189, 8093,4.920093059539795
43, 8173, 8149, 8166, 8157, 8137, 8142, 8127, 8160, 8141, 8159, 8078, 8158, 8188, 8094,4.920093059539795
44, 8182, 8173, 8181, 8173, 8151, 8153, 8145, 8169, 8142, 8166, 8168, 8180, 8193, 8106,4.935647487640381
45, 8196, 8185, 8190, 8195, 8176, 8168, 8163, 8173, 8161, 8178, 8220, 8195, 8204, 8110,4.935647487640381
46, 8203, 8194, 8218, 8214, 8181, 8181, 8152, 8172, 8155, 8171, 8202, 8204, 8202, 8109,4.951476573944092
47, 8182, 8199, 8199, 8236, 8174, 8192, 8149, 8166, 8140, 8173, 8165, 8169, 8189, 8104,4.951476573944092
48, 8167, 8195, 8196, 8234, 8175, 8196, 8157, 8158, 8139, 8177, 8152, 8152, 8172, 8104,4.967216491699219
49, 8158, 8179, 8185, 8224, 8180, 8200, 8166, 8164, 8146, 8179, 8149, 8154, 8166, 8101,4.967216491699219
50, 8146, 8153, 8157, 8218, 8165, 8198, 8164, 8165, 8134, 8171, 8123, 8145, 8149, 8089,4.982787609100342
51, 8145, 8141, 8154, 8209, 8146, 8194, 8159, 8165, 8123, 8165, 8104, 8142, 8131, 8085,4.982787609100342
52, 8150, 8138, 8125, 8203, 8145, 8182, 8165, 8167, 8138, 8179, 8110, 8133, 8148, 8084,4.998095989227295
53, 8151, 8136, 8129, 8182, 8138, 8161, 8160, 8166, 8138, 8174, 8117, 8144, 8159, 8089,4.998095989227295
54, 8152, 8138, 8136, 8174, 8128, 8158, 8152, 8172, 8130, 8160, 8124, 8155, 8163, 8094,5.014193058013916
55, 8153, 8145, 8126, 8184, 8132, 8153, 8136, 8164, 8124, 8144, 8136, 8158, 8170, 8084,5.014193058013916
56, 8166, 8161, 8144, 8170, 8129, 8140, 8125, 8159, 8104, 8124, 8146, 8172, 8165, 8084,5.030055999755859
57, 8180, 8173, 8136, 8165, 8123, 8147, 8145, 8166, 8109, 8140, 8154, 8165, 8168, 8090,5.030055999755859
58, 8182, 8180, 8153, 8190, 8141, 8167, 8156, 8162, 8115, 8151, 8153, 8172, 8170, 8085,5.045065402984619
59, 8169, 8189, 8170, 8221, 8164, 8181, 8152, 8158, 8103, 8140, 8144, 8176, 8160, 8081,5.045395612716675
60, 8163, 8182, 8156, 8228, 8164, 8188, 8153, 8155, 8096, 8144, 8139, 8158, 8154, 8084,5.060129880905151
61, 8163, 8174, 8173, 8223, 8163, 8202, 8156, 8160, 8104, 8159, 8138, 8160, 8154, 8082,5.060129880905151
62, 8156, 8172, 8165, 8228, 8171, 8207, 8162, 8166, 8127, 8174, 8138, 8152, 8152, 8081,5.076104164123535
63, 8162, 8168, 8166, 8217, 8162, 8205, 8163, 8166, 8136, 8178, 8127, 8152, 8147, 8096,5.076104164123535
64, 8176, 8167, 8173, 8213, 8156, 8210, 8171, 8173, 8148, 8186, 8120, 8160, 8160, 8103,5.0917158126831055
65, 8173, 8162, 8155, 8208, 8157, 8196, 8170, 8169, 8158, 8191, 8131, 8160, 8180, 8100,5.0917158126831055
66, 8175, 8161, 8166, 8189, 8149, 8183, 8155, 8172, 8149, 8182, 8141, 8172, 8183, 8106,5.106918573379517
67, 8178, 8167, 8154, 8195, 8148, 8172, 8154, 8182, 8150, 8187, 8138, 8171, 8183, 8111,5.106918573379517
68, 8178, 8177, 8164, 8202, 8146, 8148, 8139, 8175, 8149, 8177, 8142, 8185, 8185, 8109,5.122991323471069
69, 8184, 8189, 8189, 8198, 8143, 8142, 8128, 8170, 8149, 8162, 8167, 8199, 8194, 8106,5.122991323471069
70, 8183, 8180, 8161, 8193, 8147, 8146, 8140, 8167, 8149, 8161, 8174, 8187, 8194, 8094,5.138113975524902
71, 8167, 8168, 8161, 8170, 8145, 8141, 8138, 8163, 8125, 8153, 8150, 8186, 8170, 8087,5.138113975524902
72, 8167, 8177, 8167, 8169, 8144, 8148, 8140, 8165, 8119, 8157, 8156, 8180, 8165, 8085,5.154126882553101
73, 8198, 8197, 8193, 8197, 8149, 8152, 8152, 8170, 8131, 8160, 8180, 8197, 8183, 8096,5.154126882553101
74, 8211, 8214, 8230, 8225, 8159, 8154, 8156, 8175, 8133, 8161, 8182, 8224, 8190, 8118,5.169749736785889
75, 8196, 8210, 8218, 8231, 8161, 8165, 8156, 8165, 8132, 8175, 8179, 8202, 8180, 8115,5.169749736785889
76, 8187, 8199, 8217, 8215, 8154, 8177, 8162, 8159, 8127, 8173, 8169, 8181, 8165, 8106,5.185771942138672
77, 8188, 8200, 8207, 8224, 8166, 8193, 8188, 8171, 8142, 8185, 8170, 8187, 8176, 8120,5.185771942138672
78, 8196, 8193, 8210, 8231, 8171, 8200, 8198, 8174, 8160, 8211, 8178, 8203, 8186, 8135,5.201295614242554
79, 8192, 8175, 8211, 8214, 8154, 8199, 8184, 8178, 8157, 8206, 8162, 8191, 8170, 8127,5.201295614242554
80, 8183, 8167, 8176, 8211, 8147, 8196, 8185, 8184, 8163, 8198, 8160, 8172, 8178, 8120,5.216423511505127
81, 8194, 8179, 8190, 8212, 8150, 8188, 8190, 8186, 8170, 8214, 8182, 8211, 8209, 8143,5.216423511505127
82, 8206, 8189, 8193, 8215, 8153, 8182, 8197, 8184, 8170, 8220, 8193, 8229, 8228, 8154,5.232110977172852
83, 8197, 8178, 8172, 8203, 8150, 8169, 8189, 8170, 8157, 8194, 8181, 8204, 8222, 8133,5.232110977172852
84, 8182, 8169, 8178, 8181, 8143, 8163, 8173, 8169, 8150, 8183, 8175, 8197, 8220, 8122,5.247740983963013
85, 8185, 8173, 8171, 8186, 8144, 8166, 8174, 8172, 8153, 8199, 8184, 8204, 8234, 8124,5.247740983963013
86, 8196, 8182, 8191, 8185, 8143, 8161, 8162, 8164, 8134, 8186, 8186, 8225, 8229, 8118,5.26289963722229
87, 8194, 8194, 8196, 8187, 8147, 8162, 8157, 8164, 8133, 8175, 8187, 8221, 8220, 8110,5.26289963722229
88, 8186, 8197, 8194, 8209, 8163, 8178, 8176, 8168, 8145, 8190, 8183, 8203, 8214, 8110,5.278027772903442
89, 8189, 8198, 8214, 8220, 8171, 8207, 8197, 8172, 8147, 8200, 8177, 8208, 8208, 8121,5.278027772903442
90, 8178, 8181, 8181, 8205, 8162, 8212, 8209, 8170, 8167, 8209, 8176, 8197, 8214, 8126,5.2941741943359375
91, 8161, 8163, 8169, 8176, 8148, 8191, 8198, 8170, 8173, 8209, 8161, 8193, 8206, 8116,5.2941741943359375
92, 8164, 8175, 8184, 8184, 8151, 8190, 8197, 8180, 8171, 8215, 8148, 8192, 8193, 8112,5.310266494750977
93, 8172, 8182, 8181, 8198, 8155, 8191, 8200, 8175, 8172, 8217, 8153, 8192, 8197, 8118,5.310266494750977
94, 8167, 8172, 8180, 8175, 8146, 8178, 8179, 8171, 8162, 8198, 8161, 8205, 8202, 8117,5.326348543167114
95, 8162, 8166, 8160, 8161, 8144, 8168, 8164, 8173, 8161, 8195, 8172, 8203, 8212, 8119,5.326348543167114
96, 8176, 8175, 8180, 8170, 8150, 8169, 8161, 8164, 8162, 8198, 8177, 8222, 8216, 8134,5.341967582702637
97, 8175, 8177, 8181, 8177, 8151, 8171, 8160, 8165, 8161, 8186, 8171, 8229, 8202, 8121,5.341967582702637
98, 8153, 8167, 8143, 8161, 8149, 8161, 8143, 8163, 8148, 8164, 8155, 8202, 8185, 8089,5.3571014404296875
99, 8147, 8169, 8159, 8148, 8149, 8158, 8129, 8156, 8137, 8156, 8146, 8196, 8181, 8086,5.3571014404296875
100, 8157, 8173, 8162, 8164, 8147, 8158, 8138, 8158, 8156, 8182, 8176, 8197, 8195, 8096,5.3730621337890625
101, 8165, 8174, 8166, 8165, 8143, 8154, 8136, 8163, 8161, 8190, 8202, 8211, 8197, 8094,5.3730621337890625
102, 8162, 8183, 8177, 8166, 8148, 8163, 8141, 8169, 8148, 8185, 8197, 8212, 8193, 8089,5.387772798538208
103, 8159, 8182, 8169, 8172, 8151, 8172, 8153, 8163, 8146, 8183, 8190, 8199, 8187, 8091,5.387772798538208
104, 8159, 8175, 8187, 8156, 8140, 8177, 8145, 8166, 8151, 8174, 8188, 8210, 8182, 8096,5.403878688812256
105, 8149, 8171, 8172, 8154, 8141, 8186, 8146, 8178, 8165, 8193, 8189, 8203, 8190, 8096,5.403878688812256
106, 8138, 8164, 8171, 8156, 8146, 8196, 8152, 8170, 8162, 8208, 8180, 8186, 8182, 8093,5.419762134552002
107, 8130, 8155, 8180, 8150, 8146, 8206, 8157, 8159, 8146, 8200, 8160, 8170, 8161, 8091,5.419762134552002
108, 8125, 8139, 8151, 8139, 8143, 8203, 8161, 8154, 8143, 8200, 8148, 8165, 8158, 8088,5.435905933380127
109, 8126, 8129, 8153, 8116, 8143, 8199, 8161, 8163, 8138, 8194, 8146, 8187, 8164, 8091,5.435905933380127
110, 8121, 8125, 8143, 8116, 8141, 8209, 8175, 8174, 8147, 8199, 8150, 8166, 8168, 8092,5.450291156768799
111, 8120, 8115, 8139, 8117, 8122, 8199, 8169, 8172, 8159, 8216, 8149, 8145, 8163, 8094,5.450291156768799
112, 8134, 8118, 8157, 8112, 8126, 8188, 8157, 8184, 8177, 8239, 8166, 8190, 8195, 8104,5.466093301773071
113, 8161, 8138, 8163, 8120, 8155, 8194, 8173, 8197, 8201, 8249, 8173, 8247, 8226, 8147,5.466093301773071
114, 8188, 8161, 8202, 8103, 8154, 8195, 8184, 8192, 8193, 8217, 8146, 8245, 8203, 8196,5.481693744659424
115, 8188, 8158, 8192, 8060, 8142, 8185, 8190, 8191, 8193, 8202, 8122, 8163, 8184, 8186,5.482694387435913
116, 8199, 8145, 8180, 8039, 8146, 8172, 8189, 8196, 8192, 8194, 8087, 8166, 8183, 8205,5.497291088104248
117, 8211, 8165, 8219, 8072, 8153, 8169, 8168, 8190, 8167, 8167, 8097, 8186, 8165, 8207,5.51292872428894
118, 8193, 8159, 8205, 8069, 8147, 8168, 8154, 8170, 8152, 8154, 8144, 7982, 8133, 8090,5.51292872428894
119, 8189, 8123, 8168, 8022, 8128, 8170, 8159, 8158, 8143, 8147, 8107, 7821, 8128, 8043,5.528059005737305
120, 8189, 8121, 8138, 8056, 8130, 8172, 8168, 8165, 8142, 8149, 8053, 7865, 8250, 8122,5.528059005737305
121, 8161, 8126, 8128, 8094, 8166, 8164, 8154, 8164, 8146, 8138, 8096, 7860, 8483, 8102,5.543943643569946
122, 8190, 8136, 8190, 8047, 8184, 8165, 8151, 8163, 8151, 8130, 8126, 7833, 8619, 8053,5.543943643569946
123, 8232, 8146, 8227, 8078, 8170, 8170, 8169, 8167, 8154, 8152, 8108, 7889, 8583, 8101,5.5587077140808105
124, 8154, 8124, 8117, 8194, 8177, 8170, 8158, 8168, 8151, 8176, 8141, 7875, 8521, 8094,5.5587077140808105
125, 8084, 8108, 7985, 8242, 8212, 8184, 8161, 8184, 8178, 8198, 8202, 7809, 8557, 8065,5.574123382568359
126, 8116, 8145, 8019, 8243, 8212, 8196, 8189, 8194, 8213, 8226, 8249, 7824, 8610, 8093,5.574123382568359
127, 8111, 8183, 8074, 8244, 8182, 8191, 8192, 8185, 8199, 8239, 8266, 7817, 8569, 8076,5.590074300765991
237, 8083, 8189, 8017, 8225, 8184, 8180, 8178, 8166, 8172, 8188, 8259, 7817, 8530, 8036,5.590074300765991
0, 8132, 8220, 8061, 8193, 8200, 8175, 8173, 8165, 8172, 8063, 8270, 7929, 8560, 8079,5.605277061462402
1, 8171, 8256, 8117, 8192, 8203, 8182, 8193, 8187, 8195, 7980, 8296, 7960, 8602, 8125,5.605277061462402
2, 8147, 8257, 8066, 8192, 8200, 8176, 8198, 8191, 8210, 7991, 8303, 7924, 8603, 8101,5.6210551261901855
3, 8144, 8263, 8070, 8171, 8192, 8153, 8174, 8185, 8213, 8008, 8308, 7991, 8599, 8090,5.6210551261901855
4, 8176, 8293, 8091, 8175, 8193, 8139, 8168, 8181, 8208, 7981, 8349, 8036, 8634, 8107,5.636652231216431
5, 8203, 8322, 8123, 8171, 8202, 8146, 8169, 8171, 8184, 7964, 8367, 8029, 8649, 8127,5.636652231216431
6, 8195, 8321, 8125, 8180, 8206, 8159, 8168, 8172, 8184, 7995, 8375, 8040, 8623, 8131,5.651736497879028
7, 8183, 8314, 8101, 8208, 8211, 8167, 8172, 8171, 8207, 8018, 8416, 8067, 8598, 8122,5.651736497879028
8, 8205, 8332, 8148, 8230, 8224, 8193, 8186, 8177, 8208, 8019, 8434, 8092, 8595, 8127,5.667365550994873
9, 8208, 8339, 8160, 8259, 8241, 8216, 8201, 8178, 8206, 8045, 8408, 8095, 8584, 8126,5.667365550994873
10, 8182, 8314, 8139, 8246, 8235, 8211, 8194, 8165, 8191, 8053, 8359, 8104, 8541, 8116,5.683178901672363
11, 8163, 8284, 8112, 8204, 8215, 8216, 8197, 8170, 8185, 8036, 8326, 8076, 8510, 8107,5.683178901672363
12, 8169, 8261, 8096, 8170, 8204, 8214, 8206, 8179, 8207, 8038, 8313, 8048, 8499, 8096,5.698763132095337
13, 8170, 8242, 8116, 8147, 8198, 8191, 8191, 8182, 8212, 8049, 8294, 8083, 8486, 8087,5.698763132095337
14, 8156, 8230, 8086, 8148, 8205, 8187, 8184, 8185, 8206, 8052, 8275, 8089, 8489, 8085,5.714965581893921
15, 8159, 8221, 8075, 8151, 8201, 8194, 8178, 8186, 8206, 8036, 8268, 8080, 8489, 8084,5.714965581893921
16, 8173, 8219, 8101, 8162, 8195, 8199, 8174, 8188, 8219, 8038, 8270, 8101, 8483, 8077,5.730195760726929
17, 8182, 8210, 8099, 8166, 8206, 8197, 8177, 8180, 8224, 8061, 8267, 8133, 8489, 8087,5.730195760726929
18, 8187, 8206, 8121, 8150, 8210, 8203, 8171, 8180, 8204, 8054, 8264, 8172, 8485, 8110,5.745778560638428
19, 8189, 8214, 8124, 8163, 8212, 8217, 8184, 8187, 8215, 8058, 8275, 8164, 8473, 8100,5.745778560638428
20, 8192, 8216, 8136, 8181, 8212, 8207, 8185, 8170, 8213, 8066, 8262, 8153, 8454, 8083,5.761641502380371
21, 8192, 8214, 8159, 8176, 8207, 8197, 8170, 8161, 8185, 8058, 8236, 8176, 8432, 8091,5.761641502380371
22, 8182, 8212, 8146, 8184, 8205, 8205, 8179, 8167, 8186, 8066, 8235, 8171, 8421, 8085,5.776689767837524
23, 8178, 8211, 8157, 8199, 8208, 8219, 8181, 8164, 8187, 8066, 8229, 8155, 8404, 8060,5.776689767837524
24, 8179, 8195, 8145, 8197, 8206, 8226, 8177, 8162, 8181, 8064, 8209, 8151, 8392, 8056,5.792699813842773
25, 8183, 8181, 8149, 8181, 8199, 8229, 8184, 8165, 8176, 8069, 8197, 8178, 8383, 8078,5.792699813842773
26, 8180, 8180, 8165, 8194, 8208, 8240, 8196, 8172, 8182, 8078, 8196, 8187, 8369, 8085,5.808063983917236
27, 8152, 8154, 8113, 8201, 8204, 8233, 8186, 8165, 8195, 8090, 8175, 8144, 8348, 8057,5.808063983917236
28, 8130, 8131, 8102, 8164, 8177, 8217, 8166, 8158, 8191, 8094, 8150, 8130, 8320, 8038,5.824075698852539
29, 8140, 8145, 8126, 8158, 8174, 8220, 8180, 8171, 8195, 8101, 8146, 8142, 8314, 8050,5.824075698852539
30, 8153, 8149, 8129, 8168, 8185, 8216, 8183, 8180, 8207, 8098, 8143, 8154, 8315, 8066,5.839728832244873
31, 8148, 8132, 8124, 8149, 8177, 8205, 8161, 8177, 8215, 8096, 8143, 8147, 8308, 8058,5.839728832244873
32, 8150, 8138, 8105, 8144, 8170, 8200, 8145, 8167, 8208, 8098, 8150, 8113, 8297, 8039,5.855027675628662
33, 8166, 8163, 8126, 8152, 8176, 8192, 8131, 8158, 8165, 8055, 8143, 8109, 8270, 8039,5.8554182052612305
34, 8174, 8162, 8132, 8155, 8177, 8183, 8131, 8163, 8149, 8037, 8154, 8125, 8265, 8053,5.8710997104644775
35, 8172, 8151, 8127, 8150, 8166, 8178, 8134, 8164, 8169, 8058, 8186, 8137, 8278, 8041,5.8710997104644775
36, 8163, 8169, 8152, 8148, 8164, 8188, 8129, 8164, 8157, 8055, 8179, 8138, 8258, 8015,5.886715650558472
37, 8151, 8181, 8151, 8162, 8178, 8204, 8138, 8160, 8138, 8049, 8145, 8117, 8228, 8016,5.886715650558472
38, 8142, 8161, 8154, 8155, 8182, 8220, 8153, 8162, 8143, 8055, 8131, 8114, 8212, 8027,5.901772737503052
39, 8128, 8143, 8132, 8144, 8173, 8233, 8169, 8171, 8169, 8075, 8127, 8102, 8212, 8020,5.901772737503052
40, 8124, 8134, 8108, 8137, 8157, 8209, 8158, 8168, 8176, 8085, 8113, 8089, 8201, 8018,5.917067766189575
41, 8138, 8137, 8133, 8130, 8151, 8183, 8128, 8175, 8163, 8083, 8115, 8102, 8181, 8034,5.917067766189575
42, 8147, 8151, 8124, 8145, 8171, 8188, 8128, 8180, 8166, 8087, 8147, 8106, 8190, 8031,5.933115720748901
43, 8158, 8167, 8136, 8150, 8177, 8190, 8128, 8161, 8155, 8076, 8157, 8134, 8196, 8019,5.933115720748901
44, 8160, 8179, 8160, 8149, 8169, 8185, 8119, 8148, 8130, 8058, 8141, 8148, 8175, 8019,5.947919607162476
45, 8142, 8170, 8151, 8158, 8173, 8195, 8127, 8147, 8116, 8058, 8122, 8112, 8141, 8014,5.947919607162476
46, 8128, 8149, 8152, 8154, 8173, 8214, 8147, 8159, 8136, 8081, 8106, 8095, 8124, 8013,5.963128089904785
47, 8145, 8146, 8142, 8151, 8162, 8214, 8159, 8175, 8179, 8115, 8118, 8113, 8148, 8034,5.963128089904785
48, 8178, 8159, 8170, 8153, 8161, 8189, 8135, 8177, 8183, 8122, 8141, 8166, 8170, 8062,5.978716611862183
49, 8181, 8163, 8176, 8154, 8164, 8172, 8117, 8170, 8160, 8105, 8150, 8189, 8166, 8055,5.978716611862183
50, 8163, 8151, 8138, 8150, 8158, 8174, 8123, 8155, 8140, 8076, 8143, 8167, 8147, 8025,5.993878126144409
51, 8167, 8158, 8168, 8146, 8151, 8180, 8121, 8150, 8126, 8063, 8120, 8168, 8131, 8027,5.993878126144409
52, 8188, 8178, 8191, 8164, 8161, 8173, 8116, 8157, 8138, 8093, 8114, 8178, 8136, 8047,6.0096635818481445
53, 8194, 8183, 8196, 8179, 8167, 8169, 8111, 8153, 8133, 8103, 8128, 8193, 8132, 8051,6.0096635818481445
54, 8186, 8178, 8201, 8185, 8169, 8189, 8117, 8158, 8116, 8096, 8143, 8199, 8127, 8047,6.034077882766724
55, 8189, 8173, 8197, 8194, 8163, 8197, 8125, 8163, 8127, 8105, 8153, 8164, 8134, 8052,6.034077882766724
56, 8186, 8176, 8212, 8196, 8160, 8198, 8127, 8159, 8136, 8098, 8145, 8117, 8122, 8046,6.034077882766724
57, 8160, 8169, 8185, 8196, 8167, 8210, 8134, 8158, 8130, 8088, 8128, 8090, 8106, 8029,6.041109800338745
58, 8146, 8146, 8173, 8182, 8165, 8212, 8127, 8156, 8119, 8090, 8116, 8105, 8099, 8035,6.05718731880188
59, 8158, 8142, 8189, 8180, 8162, 8223, 8140, 8166, 8132, 8103, 8116, 8114, 8102, 8052,6.05718731880188
60, 8171, 8147, 8173, 8192, 8162, 8231, 8167, 8178, 8154, 8125, 8120, 8103, 8123, 8066,6.071892023086548
61, 8182, 8142, 8172, 8174, 8150, 8217, 8158, 8185, 8155, 8129, 8115, 8120, 8133, 8082,6.08702540397644
62, 8178, 8129, 8144, 8158, 8143, 8210, 8149, 8182, 8156, 8126, 8123, 8123, 8122, 8075,6.08702540397644
63, 8165, 8113, 8131, 8150, 8143, 8198, 8142, 8170, 8150, 8122, 8141, 8127, 8112, 8058,6.102555990219116
64, 8172, 8122, 8156, 8146, 8138, 8185, 8123, 8171, 8145, 8120, 8156, 8155, 8124, 8063,6.102555990219116
65, 8186, 8143, 8155, 8158, 8140, 8176, 8110, 8166, 8146, 8115, 8157, 8164, 8125, 8064,6.117722034454346
66, 8175, 8152, 8171, 8162, 8142, 8173, 8100, 8152, 8122, 8103, 8132, 8166, 8090, 8049,6.117722034454346
67, 8158, 8149, 8175, 8168, 8141, 8182, 8112, 8155, 8112, 8117, 8122, 8154, 8080, 8048,6.133827447891235
68, 8166, 8148, 8174, 8178, 8144, 8189, 8125, 8159, 8125, 8129, 8134, 8149, 8095, 8059,6.133827447891235
69, 8167, 8155, 8179, 8177, 8144, 8196, 8126, 8157, 8123, 8118, 8124, 8145, 8085, 8057,6.149441719055176
70, 8157, 8146, 8154, 8171, 8150, 8202, 8141, 8160, 8123, 8120, 8102, 8131, 8066, 8057,6.149441719055176
71, 8167, 8132, 8168, 8160, 8147, 8204, 8154, 8166, 8143, 8128, 8104, 8146, 8072, 8073,6.164978265762329
72, 8183, 8139, 8174, 8159, 8136, 8194, 8148, 8170, 8159, 8140, 8127, 8153, 8095, 8077,6.164978265762329
73, 8193, 8146, 8167, 8152, 8133, 8167, 8123, 8156, 8140, 8136, 8136, 8163, 8094, 8063,6.180145740509033
74, 8194, 8154, 8190, 8153, 8141, 8156, 8110, 8152, 8119, 8113, 8130, 8184, 8074, 8054,6.180145740509033
75, 8182, 8166, 8179, 8176, 8153, 8170, 8131, 8162, 8129, 8113, 8124, 8165, 8067, 8049,6.195941686630249
76, 8171, 8178, 8184, 8177, 8155, 8181, 8149, 8170, 8129, 8126, 8122, 8159, 8060, 8052,6.195941686630249
77, 8166, 8172, 8187, 8173, 8151, 8191, 8164, 8172, 8133, 8141, 8113, 8164, 8059, 8065,6.211277723312378
78, 8165, 8146, 8171, 8166, 8146, 8193, 8173, 8170, 8146, 8154, 8086, 8136, 8060, 8072,6.211277723312378
79, 8173, 8137, 8176, 8146, 8146, 8192, 8168, 8176, 8149, 8162, 8082, 8136, 8055, 8079,6.2273406982421875
80, 8174, 8141, 8155, 8143, 8146, 8180, 8158, 8174, 8163, 8171, 8112, 8162, 8066, 8083,6.2273406982421875
81, 8183, 8146, 8172, 8145, 8137, 8166, 8141, 8173, 8162, 8155, 8127, 8182, 8082, 8083,6.242963075637817
82, 8198, 8152, 8192, 8146, 8138, 8182, 8146, 8183, 8159, 8148, 8131, 8186, 8092, 8086,6.242963075637817
83, 8204, 8162, 8174, 8156, 8149, 8192, 8149, 8167, 8158, 8154, 8143, 8191, 8090, 8083,6.258143663406372
84, 8204, 8179, 8202, 8166, 8159, 8180, 8133, 8163, 8142, 8137, 8141, 8206, 8076, 8081,6.258143663406372
85, 8188, 8179, 8211, 8177, 8162, 8186, 8141, 8179, 8138, 8136, 8131, 8185, 8071, 8078,6.274124383926392
86, 8166, 8149, 8148, 8189, 8158, 8201, 8174, 8143, 8164, 8179, 8128, 8149, 8080, 8067,6.274124383926392
87, 8169, 8120, 8157, 8134, 8136, 8172, 8141, 8157, 8144, 8170, 8094, 8166, 8059, 8086,6.2888569831848145
88, 8196, 8161, 8262, 8106, 8129, 8180, 8121, 8227, 8136, 8154, 8103, 8236, 8062, 8115,6.2888569831848145
89, 8188, 8161, 8057, 8244, 8178, 8192, 8223, 8091, 8273, 8284, 8222, 8166, 8176, 8058,6.304010391235352
90, 8196, 8101, 8078, 8122, 8139, 8100, 8123, 8129, 8161, 8172, 8133, 8180, 8090, 8091,6.304010391235352
91, 8203, 8198, 8450, 7987, 8092, 8170, 8040, 8334, 8013, 8021, 8037, 8330, 7982, 8159,6.319746017456055
92, 8163, 8229, 8154, 8242, 8188, 8252, 8234, 8132, 8237, 8251, 8212, 8180, 8147, 8041,6.319746017456055
93, 8184, 8135, 7990, 8239, 8198, 8141, 8200, 8060, 8229, 8251, 8190, 8111, 8119, 8034,6.33562970161438
94, 8206, 8174, 8269, 8119, 8155, 8160, 8121, 8223, 8111, 8125, 8091, 8232, 8018, 8114,6.33562970161438
95, 8177, 8191, 8195, 8201, 8178, 8213, 8200, 8174, 8188, 8201, 8136, 8170, 8073, 8072,6.351179838180542
96, 8170, 8153, 8143, 8190, 8169, 8178, 8185, 8139, 8174, 8210, 8116, 8145, 8057, 8065,6.351179838180542
97, 8170, 8149, 8180, 8167, 8155, 8183, 8169, 8170, 8155, 8204, 8092, 8181, 8047, 8089,6.366680145263672
98, 8174, 8149, 8170, 8158, 8145, 8191, 8175, 8188, 8177, 8209, 8107, 8191, 8075, 8104,6.366680145263672
99, 8187, 8147, 8169, 8143, 8138, 8180, 8175, 8178, 8200, 8218, 8139, 8203, 8096, 8114,6.382230520248413
100, 8190, 8137, 8166, 8131, 8135, 8158, 8150, 8174, 8184, 8200, 8142, 8217, 8091, 8115,6.382230520248413
101, 8197, 8155, 8186, 8169, 8137, 8148, 8122, 8163, 8146, 8171, 8154, 8246, 8093, 8106,6.3979997634887695
102, 8221, 8186, 8200, 8218, 8145, 8140, 8116, 8143, 8132, 8174, 8195, 8270, 8109, 8105,6.3979997634887695
103, 8229, 8209, 8232, 8210, 8147, 8146, 8121, 8162, 8129, 8177, 8211, 8284, 8106, 8115,6.413066864013672
104, 8211, 8207, 8234, 8223, 8153, 8162, 8140, 8148, 8138, 8178, 8205, 8263, 8098, 8092,6.413066864013672
105, 8209, 8191, 8250, 8243, 8151, 8173, 8137, 8159, 8130, 8173, 8182, 8270, 8080, 8105,6.4288530349731445
106, 8212, 8191, 8257, 8267, 8153, 8195, 8160, 8169, 8161, 8214, 8192, 8295, 8102, 8136,6.4288530349731445
107, 8205, 8174, 8222, 8260, 8145, 8184, 8175, 8160, 8184, 8239, 8197, 8274, 8113, 8123,6.443828105926514
108, 8201, 8163, 8225, 8220, 8124, 8170, 8164, 8187, 8156, 8199, 8177, 8278, 8089, 8121,6.443828105926514
109, 8211, 8166, 8222, 8224, 8123, 8161, 8164, 8166, 8168, 8187, 8193, 8299, 8112, 8136,6.45923376083374
110, 8233, 8173, 8233, 8218, 8121, 8129, 8128, 8163, 8157, 8170, 8202, 8309, 8123, 8146,6.45923376083374
111, 8236, 8193, 8249, 8232, 8125, 8130, 8118, 8172, 8143, 8174, 8218, 8323, 8127, 8126,6.475353479385376
112, 8234, 8200, 8239, 8251, 8137, 8138, 8131, 8148, 8144, 8193, 8238, 8337, 8142, 8108,6.475353479385376
113, 8235, 8199, 8260, 8228, 8132, 8141, 8122, 8158, 8116, 8170, 8221, 8334, 8119, 8121,6.490081071853638
114, 8205, 8187, 8232, 8236, 8137, 8157, 8135, 8146, 8116, 8177, 8203, 8285, 8100, 8096,6.505640745162964
115, 8175, 8168, 8205, 8233, 8151, 8173, 8149, 8157, 8116, 8188, 8173, 8255, 8083, 8080,6.505640745162964
116, 8176, 8167, 8222, 8232, 8164, 8193, 8167, 8172, 8127, 8200, 8164, 8266, 8079, 8098,6.505640745162964
117, 8187, 8155, 8207, 8233, 8161, 8192, 8167, 8154, 8153, 8219, 8168, 8261, 8087, 8109,6.521670818328857
118, 8190, 8142, 8202, 8185, 8140, 8178, 8144, 8182, 8153, 8212, 8151, 8255, 8083, 8123,6.521670818328857
119, 8176, 8137, 8174, 8161, 8137, 8165, 8161, 8173, 8171, 8222, 8160, 8235, 8099, 8120,6.537633180618286
120, 8169, 8134, 8163, 8147, 8138, 8146, 8163, 8170, 8167, 8218, 8153, 8233, 8099, 8124,6.553145408630371
121, 8190, 8159, 8187, 8157, 8141, 8154, 8145, 8187, 8162, 8222, 8167, 8279, 8105, 8125,6.553145408630371
122, 8213, 8178, 8182, 8186, 8151, 8155, 8137, 8158, 8167, 8234, 8216, 8305, 8119, 8105,6.569255590438843
123, 8209, 8189, 8206, 8179, 8153, 8141, 8119, 8163, 8132, 8208, 8207, 8297, 8100, 8109,6.569255590438843
124, 8181, 8190, 8206, 8192, 8158, 8152, 8125, 8153, 8134, 8216, 8184, 8268, 8095, 8095,6.569255590438843
125, 8167, 8169, 8188, 8183, 8157, 8171, 8134, 8155, 8147, 8221, 8163, 8244, 8087, 8083,6.585450649261475
126, 8170, 8166, 8194, 8172, 8158, 8195, 8156, 8179, 8154, 8221, 8146, 8237, 8081, 8102,6.600242614746094
127, 8173, 8154, 8170, 8190, 8159, 8197, 8181, 8167, 8183, 8252, 8148, 8228, 8090, 8119,6.600242614746094
237, 8175, 8138, 8168, 8172, 8146, 8186, 8169, 8191, 8186, 8256, 8147, 8246, 8090, 8138,6.615771770477295
0, 8174, 8143, 8164, 8168, 8153, 8191, 8179, 8193, 8198, 8264, 8163, 8254, 8114, 8133,6.615771770477295
1, 8174, 8142, 8145, 8159, 8157, 8174, 8179, 8186, 8203, 8254, 8161, 8244, 8113, 8125,6.6312665939331055
2, 8180, 8152, 8150, 8148, 8148, 8170, 8161, 8199, 8204, 8240, 8168, 8256, 8109, 8127,6.6312665939331055
3, 8196, 8161, 8145, 8159, 8154, 8171, 8155, 8175, 8204, 8250, 8199, 8272, 8140, 8124,6.647353887557983
4, 8201, 8166, 8150, 8146, 8158, 8161, 8148, 8174, 8162, 8220, 8187, 8272, 8124, 8121,6.647353887557983
5, 8176, 8170, 8128, 8158, 8162, 8167, 8162, 8161, 8156, 8212, 8181, 8235, 8098, 8093,6.662881851196289
6, 8166, 8164, 8139, 8145, 8155, 8166, 8143, 8161, 8140, 8200, 8166, 8222, 8073, 8084,6.662881851196289
7, 8172, 8179, 8170, 8148, 8160, 8173, 8143, 8165, 8132, 8202, 8158, 8242, 8074, 8093,6.67849326133728
8, 8165, 8174, 8130, 8189, 8180, 8169, 8172, 8126, 8158, 8236, 8175, 8226, 8094, 8086,6.67849326133728
9, 8175, 8174, 8198, 8153, 8167, 8178, 8147, 8185, 8117, 8198, 8141, 8245, 8054, 8119,6.694110155105591
10, 8177, 8193, 8206, 8174, 8167, 8215, 8175, 8191, 8144, 8227, 8141, 8243, 8065, 8115,6.694110155105591
11, 8160, 8164, 8115, 8196, 8168, 8193, 8192, 8138, 8188, 8272, 8150, 8211, 8089, 8093,6.7101686000823975
12, 8165, 8143, 8126, 8162, 8149, 8175, 8166, 8166, 8177, 8254, 8142, 8223, 8086, 8121,6.7101686000823975
13, 8192, 8159, 8216, 8135, 8130, 8184, 8153, 8210, 8165, 8237, 8135, 8263, 8082, 8151,6.725707292556763
14, 8176, 8175, 8153, 8181, 8146, 8204, 8203, 8182, 8224, 8299, 8163, 8230, 8122, 8123,6.725707292556763
15, 8141, 8105, 7937, 8203, 8168, 8153, 8224, 8075, 8270, 8346, 8191, 8137, 8155, 8077,6.741742134094238
16, 8168, 8097, 8172, 8024, 8112, 8109, 8091, 8209, 8099, 8166, 8078, 8257, 8036, 8157,6.741742134094238
17, 8169, 8187, 8272, 8083, 8122, 8200, 8139, 8259, 8138, 8194, 8115, 8293, 8075, 8159,6.757412672042847
18, 8151, 8155, 8052, 8179, 8157, 8183, 8193, 8119, 8238, 8306, 8189, 8172, 8156, 8090,6.757412672042847
19, 8178, 8154, 8179, 8082, 8130, 8153, 8109, 8192, 8125, 8211, 8121, 8234, 8080, 8139,6.773040056228638
20, 8192, 8195, 8192, 8149, 8153, 8187, 8157, 8183, 8168, 8250, 8165, 8253, 8111, 8136,6.773040056228638
21, 8199, 8168, 8140, 8152, 8153, 8157, 8153, 8152, 8194, 8265, 8177, 8236, 8126, 8129,6.788814306259155
22, 8186, 8172, 8167, 8114, 8133, 8167, 8142, 8185, 8159, 8227, 8156, 8253, 8113, 8136,6.788814306259155
23, 8173, 8171, 8145, 8133, 8136, 8164, 8169, 8153, 8162, 8216, 8170, 8239, 8118, 8109,6.804027080535889
24, 8179, 8171, 8171, 8115, 8135, 8148, 8156, 8165, 8161, 8209, 8159, 8243, 8103, 8117,6.804027080535889
25, 8178, 8177, 8169, 8124, 8143, 8152, 8149, 8165, 8170, 8251, 8169, 8238, 8113, 8122,6.819084644317627
26, 8172, 8178, 8188, 8137, 8152, 8154, 8135, 8159, 8138, 8246, 8172, 8242, 8100, 8120,6.819084644317627
27, 8162, 8177, 8178, 8149, 8161, 8161, 8142, 8158, 8135, 8249, 8141, 8224, 8087, 8115,6.835135221481323
28, 8166, 8169, 8183, 8137, 8149, 8160, 8144, 8158, 8146, 8303, 8087, 8227, 8083, 8120,6.835135221481323
29, 8184, 8170, 8196, 8132, 8142, 8168, 8150, 8172, 8153, 8360, 8105, 8251, 8102, 8130,6.851033449172974
30, 8184, 8171, 8171, 8141, 8148, 8172, 8156, 8162, 8157, 8367, 8182, 8243, 8116, 8127,6.851033449172974
31, 8169, 8169, 8185, 8137, 8145, 8173, 8148, 8152, 8140, 8342, 8194, 8235, 8086, 8119,6.866670846939087
32, 8151, 8158, 8172, 8142, 8149, 8176, 8156, 8156, 8140, 8351, 8150, 8207, 8066, 8102,6.866670846939087
33, 8138, 8146, 8154, 8135, 8151, 8177, 8164, 8161, 8150, 8357, 8126, 8181, 8061, 8088,6.882689476013184
34, 8132, 8147, 8154, 8130, 8146, 8181, 8167, 8169, 8161, 8353, 8128, 8183, 8064, 8099,6.882689476013184
35, 8135, 8144, 8150, 8134, 8146, 8171, 8159, 8164, 8158, 8353, 8127, 8197, 8077, 8112,6.898855924606323
36, 8126, 8142, 8161, 8125, 8148, 8171, 8148, 8156, 8142, 8334, 8111, 8204, 8073, 8111,6.898855924606323
37, 8118, 8143, 8144, 8129, 8151, 8187, 8166, 8162, 8162, 8351, 8121, 8187, 8077, 8110,6.913900136947632
38, 8134, 8136, 8156, 8129, 8148, 8179, 8176, 8168, 8181, 8378, 8135, 8199, 8088, 8119,6.913900136947632
39, 8141, 8133, 8168, 8115, 8145, 8167, 8167, 8172, 8170, 8367, 8122, 8212, 8086, 8124,6.930023908615112
40, 8136, 8132, 8140, 8106, 8147, 8166, 8163, 8165, 8165, 8354, 8114, 8199, 8079, 8117,6.930023908615112
41, 8134, 8133, 8155, 8098, 8147, 8162, 8148, 8164, 8169, 8351, 8119, 8207, 8080, 8117,6.945452451705933
42, 8121, 8133, 8144, 8104, 8141, 8149, 8138, 8165, 8179, 8356, 8122, 8201, 8092, 8117,6.945452451705933
43, 8136, 8138, 8142, 8108, 8137, 8144, 8144, 8169, 8182, 8351, 8133, 8212, 8104, 8130,6.960704326629639
44, 8162, 8153, 8166, 8108, 8144, 8151, 8157, 8187, 8182, 8341, 8160, 8242, 8122, 8146,6.960704326629639
45, 8148, 8150, 8140, 8103, 8144, 8139, 8138, 8172, 8171, 8330, 8153, 8225, 8119, 8129,6.9768102169036865
46, 8135, 8146, 8139, 8091, 8137, 8133, 8100, 8143, 8135, 8294, 8119, 8209, 8088, 8102,6.9768102169036865
47, 8148, 8150, 8143, 8097, 8144, 8152, 8121, 8154, 8139, 8286, 8134, 8215, 8093, 8101,6.992905855178833
48, 8150, 8158, 8144, 8096, 8148, 8153, 8147, 8170, 8168, 8305, 8154, 8219, 8111, 8113,6.992905855178833
49, 8138, 8166, 8157, 8100, 8147, 8150, 8141, 8166, 8169, 8318, 8137, 8204, 8095, 8102,7.0080766677856445
50, 8137, 8158, 8149, 8129, 8159, 8168, 8150, 8156, 8159, 8321, 8123, 8184, 8075, 8088,7.0080766677856445
51, 8134, 8145, 8160, 8130, 8159, 8185, 8160, 8153, 8144, 8305, 8109, 8186, 8068, 8098,7.024125337600708
52, 8114, 8135, 8140, 8119, 8149, 8177, 8161, 8164, 8145, 8307, 8092, 8172, 8073, 8104,7.024125337600708
53, 8102, 8118, 8122, 8104, 8142, 8153, 8151, 8166, 8155, 8317, 8096, 8165, 8080, 8094,7.0396599769592285
54, 8108, 8119, 8139, 8085, 8136, 8144, 8140, 8162, 8163, 8313, 8109, 8188, 8092, 8095,7.0396599769592285
55, 8129, 8134, 8134, 8095, 8135, 8146, 8138, 8157, 8171, 8304, 8125, 8203, 8112, 8108,7.055174112319946
56, 8142, 8138, 8148, 8096, 8136, 8138, 8130, 8152, 8160, 8289, 8131, 8217, 8117, 8109,7.055174112319946
57, 8132, 8140, 8145, 8094, 8141, 8142, 8137, 8154, 8154, 8288, 8136, 8212, 8112, 8093,7.070868253707886
58, 8131, 8162, 8155, 8111, 8147, 8162, 8154, 8158, 8155, 8291, 8142, 8213, 8107, 8091,7.070868253707886
59, 8149, 8181, 8199, 8136, 8159, 8183, 8167, 8167, 8154, 8293, 8142, 8233, 8108, 8117,7.086687088012695
60, 8154, 8164, 8176, 8145, 8165, 8187, 8172, 8166, 8154, 8306, 8133, 8217, 8103, 8126,7.086687088012695
61, 8135, 8134, 8154, 8113, 8146, 8170, 8155, 8160, 8149, 8298, 8107, 8199, 8076, 8107,7.102320432662964
62, 8120, 8121, 8147, 8088, 8132, 8154, 8144, 8167, 8165, 8290, 8097, 8196, 8074, 8106,7.102320432662964
63, 8123, 8122, 8139, 8091, 8127, 8150, 8145, 8168, 8184, 8298, 8105, 8199, 8095, 8115,7.117490768432617
64, 8134, 8135, 8154, 8099, 8129, 8160, 8151, 8175, 8198, 8308, 8111, 8206, 8097, 8118,7.117490768432617
65, 8143, 8149, 8147, 8107, 8143, 8158, 8158, 8180, 8212, 8311, 8123, 8208, 8103, 8124,7.133169889450073
66, 8151, 8154, 8165, 8105, 8147, 8146, 8143, 8166, 8193, 8290, 8143, 8231, 8117, 8131,7.133169889450073
67, 8155, 8163, 8183, 8118, 8143, 8153, 8136, 8164, 8186, 8290, 8157, 8239, 8131, 8127,7.149282693862915
68, 8162, 8161, 8171, 8128, 8139, 8151, 8144, 8167, 8200, 8305, 8153, 8233, 8136, 8124,7.149282693862915
69, 8165, 8150, 8174, 8108, 8129, 8137, 8135, 8161, 8183, 8284, 8142, 8241, 8126, 8131,7.164409160614014
70, 8153, 8158, 8158, 8114, 8132, 8136, 8124, 8159, 8171, 8270, 8147, 8229, 8122, 8121,7.164409160614014
71, 8152, 8184, 8174, 8142, 8147, 8144, 8123, 8155, 8170, 8269, 8151, 8229, 8119, 8110,7.179877281188965
72, 8161, 8193, 8180, 8150, 8162, 8153, 8138, 8155, 8164, 8256, 8147, 8230, 8116, 8116,7.179877281188965
73, 8155, 8183, 8156, 8150, 8167, 8161, 8153, 8155, 8175, 8256, 8149, 8211, 8119, 8122,7.194755792617798
74, 8135, 8182, 8164, 8150, 8162, 8174, 8155, 8161, 8185, 8278, 8148, 8202, 8111, 8111,7.194755792617798
75, 8116, 8165, 8139, 8151, 8163, 8181, 8167, 8164, 8180, 8296, 8137, 8176, 8100, 8092,7.210247993469238
76, 8116, 8143, 8137, 8149, 8168, 8178, 8176, 8155, 8174, 8283, 8128, 8175, 8097, 8097,7.210247993469238
77, 8125, 8151, 8159, 8153, 8166, 8186, 8181, 8169, 8195, 8289, 8130, 8199, 8106, 8122,7.226211786270142
78, 8133, 8146, 8142, 8142, 8157, 8184, 8175, 8175, 8203, 8303, 8128, 8192, 8107, 8127,7.226211786270142
79, 8132, 8134, 8145, 8122, 8147, 8167, 8161, 8160, 8172, 8278, 8114, 8189, 8090, 8118,7.240874290466309
80, 8131, 8137, 8138, 8132, 8139, 8156, 8164, 8156, 8170, 8261, 8113, 8187, 8091, 8117,7.240874290466309
81, 8137, 8133, 8139, 8123, 8130, 8144, 8155, 8159, 8183, 8264, 8114, 8186, 8097, 8121,7.256259918212891
82, 8134, 8129, 8145, 8098, 8125, 8135, 8138, 8159, 8174, 8258, 8113, 8183, 8096, 8115,7.256259918212891
83, 8131, 8138, 8124, 8100, 8118, 8128, 8131, 8139, 8146, 8219, 8116, 8171, 8092, 8091,7.272202014923096
84, 8134, 8149, 8140, 8101, 8119, 8132, 8120, 8126, 8115, 8182, 8105, 8181, 8074, 8072,7.272202014923096
85, 8123, 8148, 8140, 8107, 8138, 8161, 8133, 8140, 8127, 8213, 8100, 8171, 8063, 8075,7.2882466316223145
86, 8117, 8143, 8133, 8113, 8150, 8182, 8161, 8162, 8153, 8255, 8098, 8162, 8063, 8094,7.2882466316223145
87, 8135, 8149, 8144, 8114, 8146, 8180, 8174, 8181, 8171, 8259, 8098, 8179, 8079, 8113,7.303781986236572
88, 8144, 8148, 8134, 8117, 8147, 8162, 8163, 8177, 8183, 8262, 8112, 8192, 8108, 8115,7.303781986236572
89, 8142, 8139, 8147, 8100, 8140, 8147, 8135, 8165, 8166, 8242, 8127, 8204, 8106, 8105,7.319058656692505
90, 8138, 8140, 8136, 8096, 8145, 8151, 8129, 8161, 8155, 8224, 8134, 8198, 8093, 8092,7.319058656692505
91, 8136, 8158, 8135, 8115, 8163, 8154, 8133, 8153, 8157, 8236, 8142, 8201, 8099, 8088,7.334153652191162
92, 8147, 8173, 8163, 8131, 8166, 8157, 8138, 8154, 8152, 8239, 8151, 8217, 8113, 8098,7.334153652191162
93, 8149, 8160, 8144, 8125, 8154, 8154, 8146, 8151, 8143, 8226, 8148, 8204, 8106, 8098,7.349767208099365
94, 8130, 8149, 8148, 8105, 8146, 8147, 8126, 8137, 8112, 8212, 8122, 8183, 8074, 8079,7.349767208099365
95, 8120, 8155, 8154, 8124, 8155, 8160, 8117, 8141, 8104, 8217, 8115, 8161, 8068, 8070,7.365066051483154
96, 8131, 8154, 8153, 8146, 8161, 8176, 8133, 8149, 8129, 8229, 8127, 8171, 8077, 8082,7.365066051483154
97, 8133, 8157, 8167, 8145, 8164, 8181, 8144, 8155, 8145, 8235, 8126, 8190, 8080, 8097,7.381121397018433
98, 8120, 8155, 8143, 8153, 8170, 8181, 8153, 8159, 8146, 8245, 8124, 8164, 8082, 8094,7.381121397018433
99, 8122, 8147, 8149, 8150, 8158, 8180, 8150, 8155, 8138, 8244, 8127, 8164, 8079, 8096,7.396715402603149
100, 8134, 8149, 8157, 8149, 8149, 8181, 8152, 8159, 8155, 8247, 8126, 8178, 8086, 8108,7.396715402603149
101, 8142, 8147, 8143, 8145, 8149, 8175, 8158, 8166, 8174, 8248, 8128, 8185, 8101, 8116,7.412761211395264
102, 8149, 8153, 8159, 8141, 8154, 8179, 8159, 8175, 8173, 8251, 8136, 8204, 8119, 8126,7.4279773235321045
103, 8153, 8162, 8153, 8149, 8160, 8183, 8163, 8174, 8177, 8268, 8144, 8204, 8133, 8132,7.4279773235321045
104, 8151, 8156, 8160, 8139, 8151, 8166, 8145, 8161, 8159, 8245, 8134, 8210, 8113, 8128,7.4279773235321045
105, 8149, 8161, 8167, 8144, 8149, 8152, 8136, 8159, 8146, 8211, 8139, 8218, 8106, 8121,7.444072008132935
106, 8163, 8180, 8163, 8162, 8160, 8146, 8149, 8167, 8166, 8213, 8181, 8231, 8147, 8129,7.444072008132935
107, 8185, 8192, 8187, 8155, 8161, 8142, 8150, 8179, 8174, 8227, 8216, 8262, 8171, 8143,7.458822250366211
108, 8185, 8202, 8189, 8178, 8168, 8141, 8143, 8174, 8163, 8249, 8220, 8266, 8158, 8134,7.474944114685059
109, 8177, 8219, 8206, 8212, 8184, 8146, 8133, 8160, 8145, 8251, 8203, 8255, 8136, 8130,7.474944114685059
110, 8172, 8217, 8201, 8203, 8187, 8157, 8137, 8160, 8132, 8225, 8182, 8236, 8116, 8130,7.490424156188965
111, 8168, 8204, 8174, 8188, 8181, 8154, 8140, 8148, 8122, 8206, 8174, 8225, 8104, 8114,7.4914231300354
112, 8159, 8206, 8191, 8195, 8180, 8157, 8132, 8140, 8115, 8202, 8173, 8235, 8099, 8106,7.4914231300354
113, 8135, 8193, 8171, 8194, 8171, 8168, 8127, 8142, 8106, 8191, 8156, 8209, 8092, 8099,7.5063557624816895
114, 8127, 8179, 8156, 8179, 8158, 8163, 8122, 8135, 8087, 8174, 8124, 8182, 8070, 8086,7.5219104290008545
115, 8140, 8188, 8163, 8193, 8166, 8163, 8142, 8146, 8107, 8200, 8133, 8191, 8076, 8101,7.5219104290008545
116, 8143, 8180, 8151, 8202, 8176, 8171, 8163, 8163, 8137, 8217, 8151, 8200, 8096, 8123,7.536973714828491
117, 8137, 8166, 8166, 8175, 8174, 8178, 8151, 8164, 8125, 8186, 8126, 8205, 8078, 8116,7.536973714828491
118, 8139, 8170, 8157, 8177, 8173, 8181, 8154, 8167, 8133, 8205, 8117, 8196, 8075, 8104,7.5526440143585205
119, 8146, 8162, 8151, 8178, 8162, 8175, 8163, 8176, 8157, 8237, 8134, 8203, 8095, 8112,7.5526440143585205
120, 8148, 8155, 8154, 8153, 8149, 8176, 8155, 8182, 8154, 8224, 8142, 8219, 8106, 8120,7.568192481994629
121, 8152, 8158, 8139, 8147, 8149, 8167, 8136, 8164, 8142, 8214, 8150, 8220, 8116, 8116,7.568192481994629
122, 8154, 8158, 8154, 8142, 8148, 8146, 8118, 8149, 8133, 8209, 8160, 8224, 8120, 8115,7.5843682289123535
123, 8150, 8157, 8145, 8141, 8153, 8143, 8126, 8158, 8131, 8193, 8162, 8213, 8118, 8105,7.5843682289123535
124, 8163, 8164, 8154, 8149, 8167, 8147, 8132, 8159, 8126, 8184, 8170, 8223, 8122, 8103,7.599954605102539
125, 8183, 8184, 8187, 8170, 8167, 8142, 8132, 8161, 8132, 8200, 8194, 8248, 8136, 8124,7.599954605102539
126, 8185, 8187, 8168, 8178, 8163, 8134, 8136, 8157, 8144, 8204, 8204, 8234, 8138, 8125,7.615060806274414
127, 8168, 8177, 8172, 8159, 8169, 8138, 8129, 8153, 8132, 8178, 8178, 8222, 8118, 8106,7.615060806274414
237, 8148, 8171, 8170, 8168, 8174, 8155, 8135, 8161, 8132, 8192, 8155, 8207, 8111, 8097,7.631031274795532
0, 8141, 8160, 8154, 8166, 8160, 8156, 8143, 8154, 8135, 8206, 8146, 8192, 8103, 8091,7.631031274795532
1, 8129, 8149, 8148, 8139, 8151, 8156, 8147, 8144, 8121, 8173, 8128, 8180, 8079, 8083,7.646081447601318
2, 8118, 8145, 8131, 8135, 8155, 8168, 8159, 8148, 8128, 8165, 8119, 8164, 8082, 8078,7.646081447601318
3, 8124, 8149, 8151, 8146, 8157, 8184, 8170, 8161, 8144, 8195, 8130, 8176, 8099, 8089,7.661661148071289
4, 8130, 8150, 8152, 8156, 8165, 8188, 8187, 8169, 8167, 8223, 8149, 8188, 8112, 8107,7.661661148071289
5, 8132, 8145, 8139, 8153, 8169, 8172, 8186, 8171, 8183, 8222, 8149, 8195, 8122, 8118,7.677221298217773
6, 8143, 8145, 8152, 8142, 8167, 8170, 8169, 8181, 8179, 8214, 8150, 8210, 8128, 8117,7.677221298217773
7, 8152, 8137, 8135, 8141, 8171, 8171, 8169, 8177, 8186, 8230, 8177, 8211, 8142, 8121,7.692740440368652
8, 8152, 8136, 8144, 8139, 8164, 8161, 8160, 8165, 8182, 8225, 8186, 8226, 8149, 8133,7.692740440368652
9, 8154, 8146, 8148, 8146, 8150, 8159, 8157, 8170, 8177, 8212, 8180, 8226, 8157, 8132,7.707881212234497
10, 8163, 8144, 8134, 8137, 8147, 8155, 8153, 8169, 8167, 8201, 8183, 8216, 8161, 8117,7.707881212234497
11, 8163, 8142, 8150, 8119, 8146, 8149, 8134, 8160, 8142, 8174, 8177, 8223, 8146, 8107,7.724055528640747
12, 8156, 8149, 8141, 8134, 8147, 8148, 8140, 8160, 8148, 8168, 8176, 8216, 8144, 8106,7.724055528640747
13, 8168, 8168, 8154, 8148, 8155, 8148, 8157, 8167, 8169, 8188, 8190, 8225, 8152, 8116,7.739280462265015
14, 8183, 8183, 8160, 8156, 8165, 8154, 8161, 8168, 8173, 8206, 8194, 8233, 8162, 8121,7.739280462265015
15, 8174, 8176, 8144, 8162, 8171, 8162, 8163, 8152, 8159, 8197, 8185, 8217, 8150, 8109,7.754395484924316
16, 8158, 8169, 8159, 8159, 8168, 8168, 8167, 8150, 8147, 8184, 8179, 8209, 8124, 8097,7.754395484924316
17, 8148, 8161, 8144, 8166, 8166, 8167, 8176, 8164, 8160, 8204, 8173, 8188, 8114, 8091,7.770071268081665
18, 8147, 8150, 8146, 8161, 8159, 8168, 8171, 8161, 8161, 8210, 8155, 8180, 8103, 8096,7.770071268081665
19, 8149, 8152, 8153, 8157, 8166, 8176, 8170, 8165, 8161, 8205, 8161, 8190, 8109, 8105,7.78611159324646
20, 8165, 8166, 8152, 8171, 8181, 8179, 8176, 8168, 8171, 8221, 8194, 8206, 8135, 8112,7.78611159324646
21, 8172, 8172, 8180, 8174, 8175, 8183, 8169, 8161, 8158, 8223, 8195, 8222, 8136, 8127,7.80179762840271
22, 8152, 8154, 8151, 8165, 8161, 8182, 8167, 8151, 8145, 8215, 8178, 8198, 8124, 8120,7.80179762840271
23, 8152, 8142, 8143, 8149, 8153, 8172, 8167, 8155, 8149, 8203, 8176, 8204, 8127, 8115,7.816837787628174
24, 8165, 8152, 8160, 8145, 8153, 8175, 8176, 8169, 8173, 8212, 8183, 8228, 8146, 8129,7.816837787628174
25, 8152, 8146, 8132, 8151, 8153, 8170, 8177, 8166, 8183, 8229, 8178, 8202, 8146, 8127,7.832212686538696
26, 8146, 8137, 8143, 8142, 8148, 8174, 8173, 8173, 8178, 8225, 8168, 8191, 8136, 8120,7.832212686538696
27, 8157, 8144, 8150, 8144, 8156, 8187, 8189, 8185, 8208, 8239, 8192, 8206, 8161, 8127,7.8478498458862305
28, 8153, 8139, 8144, 8131, 8155, 8163, 8173, 8168, 8212, 8245, 8202, 8217, 8168, 8126,7.8478498458862305
29, 8146, 8133, 8141, 8113, 8146, 8142, 8149, 8164, 8189, 8226, 8186, 8212, 8148, 8106,7.863090515136719
30, 8149, 8139, 8133, 8121, 8148, 8147, 8142, 8165, 8190, 8204, 8189, 8207, 8150, 8096,7.863090515136719
31, 8148, 8141, 8153, 8122, 8147, 8140, 8125, 8152, 8176, 8179, 8197, 8220, 8145, 8096,7.877728462219238
32, 8142, 8139, 8136, 8118, 8143, 8132, 8120, 8154, 8160, 8178, 8195, 8208, 8134, 8084,7.877728462219238
33, 8154, 8146, 8137, 8116, 8139, 8135, 8124, 8166, 8163, 8179, 8196, 8215, 8140, 8085,7.893768548965454
34, 8164, 8156, 8166, 8125, 8141, 8143, 8130, 8166, 8165, 8171, 8212, 8231, 8158, 8096,7.893768548965454
35, 8155, 8161, 8158, 8140, 8150, 8150, 8150, 8156, 8157, 8162, 8217, 8216, 8148, 8098,7.909662246704102
36, 8152, 8173, 8168, 8145, 8150, 8167, 8166, 8159, 8165, 8170, 8194, 8219, 8111, 8101,7.909662246704102
37, 8147, 8170, 8163, 8153, 8150, 8175, 8171, 8174, 8192, 8212, 8173, 8206, 8102, 8106,7.925246000289917
38, 8134, 8150, 8160, 8149, 8155, 8166, 8164, 8165, 8171, 8199, 8173, 8183, 8106, 8098,7.925246000289917
39, 8128, 8145, 8174, 8144, 8160, 8171, 8165, 8159, 8146, 8166, 8173, 8187, 8101, 8094,7.939857244491577
40, 8137, 8148, 8159, 8153, 8161, 8182, 8176, 8172, 8177, 8216, 8168, 8197, 8113, 8110,7.939857244491577
41, 8154, 8149, 8175, 8151, 8154, 8181, 8184, 8183, 8205, 8260, 8174, 8217, 8135, 8132,7.956078767776489
42, 8159, 8151, 8176, 8144, 8149, 8172, 8192, 8182, 8208, 8241, 8186, 8224, 8160, 8138,7.956078767776489
43, 8152, 8146, 8159, 8130, 8139, 8147, 8172, 8170, 8194, 8215, 8179, 8224, 8168, 8127,7.971151351928711
44, 8147, 8140, 8163, 8123, 8132, 8134, 8155, 8170, 8183, 8208, 8171, 8224, 8158, 8122,7.986692667007446
45, 8150, 8139, 8151, 8139, 8147, 8144, 8171, 8176, 8200, 8206, 8188, 8221, 8163, 8127,7.986692667007446
46, 8153, 8144, 8165, 8139, 8158, 8149, 8161, 8174, 8200, 8198, 8199, 8234, 8167, 8129,8.002702236175537
47, 8153, 8152, 8167, 8140, 8149, 8148, 8140, 8166, 8171, 8179, 8202, 8229, 8161, 8122,8.002702236175537
48, 8153, 8155, 8161, 8147, 8143, 8142, 8137, 8147, 8149, 8161, 8203, 8218, 8151, 8106,8.018150806427002
49, 8151, 8169, 8187, 8154, 8157, 8147, 8141, 8148, 8146, 8167, 8192, 8221, 8140, 8096,8.018150806427002
50, 8144, 8174, 8177, 8171, 8170, 8163, 8152, 8160, 8156, 8165, 8177, 8207, 8126, 8093,8.042711019515991
51, 8144, 8160, 8181, 8168, 8166, 8168, 8158, 8160, 8152, 8150, 8168, 8206, 8112, 8100,8.042711019515991
52, 8148, 8157, 8185, 8168, 8164, 8176, 8175, 8167, 8163, 8168, 8168, 8204, 8122, 8109,8.042711019515991
53, 8141, 8148, 8165, 8162, 8156, 8174, 8183, 8171, 8177, 8171, 8154, 8187, 8130, 8106,8.042711019515991
54, 8133, 8127, 8161, 8123, 8139, 8156, 8163, 8172, 8171, 8145, 8144, 8192, 8128, 8109,8.051246881484985
55, 8145, 8128, 8142, 8113, 8141, 8144, 8156, 8174, 8184, 8162, 8171, 8205, 8154, 8125,8.065632581710815
56, 8172, 8160, 8171, 8138, 8151, 8146, 8145, 8170, 8184, 8171, 8188, 8231, 8167, 8132,8.081086874008179
57, 8178, 8179, 8192, 8154, 8154, 8152, 8136, 8156, 8158, 8146, 8181, 8231, 8151, 8111,8.081086874008179
58, 8163, 8166, 8170, 8150, 8154, 8150, 8147, 8143, 8142, 8136, 8176, 8200, 8132, 8093,8.096237897872925
59, 8151, 8168, 8190, 8149, 8154, 8164, 8162, 8159, 8147, 8141, 8169, 8198, 8120, 8100,8.096237897872925
60, 8152, 8173, 8188, 8175, 8161, 8181, 8179, 8177, 8166, 8156, 8170, 8194, 8125, 8112,8.111775398254395
61, 8166, 8164, 8186, 8181, 8166, 8175, 8185, 8177, 8177, 8172, 8173, 8198, 8137, 8128,8.111775398254395
62, 8161, 8149, 8176, 8158, 8156, 8167, 8180, 8181, 8186, 8185, 8166, 8202, 8149, 8137,8.127447843551636
63, 8158, 8144, 8148, 8143, 8142, 8145, 8159, 8174, 8181, 8173, 8176, 8201, 8161, 8127,8.127447843551636
64, 8182, 8167, 8187, 8156, 8149, 8128, 8145, 8172, 8162, 8150, 8205, 8229, 8167, 8130,8.143120050430298
65, 8192, 8189, 8204, 8182, 8170, 8141, 8161, 8183, 8177, 8167, 8222, 8236, 8175, 8140,8.143120050430298
66, 8173, 8181, 8191, 8176, 8179, 8154, 8163, 8168, 8188, 8174, 8209, 8219, 8161, 8130,8.158686637878418
67, 8152, 8171, 8178, 8168, 8179, 8167, 8165, 8158, 8183, 8162, 8185, 8196, 8147, 8116,8.158686637878418
68, 8154, 8163, 8155, 8171, 8171, 8171, 8177, 8171, 8192, 8176, 8183, 8182, 8154, 8123,8.174099683761597
69, 8166, 8157, 8173, 8153, 8153, 8157, 8167, 8176, 8196, 8189, 8200, 8209, 8172, 8144,8.174099683761597
70, 8168, 8159, 8169, 8142, 8147, 8132, 8147, 8161, 8188, 8185, 8215, 8217, 8186, 8138,8.189482927322388
71, 8164, 8163, 8164, 8141, 8154, 8118, 8127, 8139, 8160, 8156, 8206, 8201, 8164, 8109,8.189482927322388
72, 8159, 8171, 8182, 8159, 8164, 8139, 8135, 8144, 8149, 8138, 8193, 8188, 8139, 8104,8.20470380783081
73, 8150, 8171, 8176, 8180, 8170, 8165, 8176, 8165, 8174, 8172, 8193, 8177, 8146, 8119,8.205118656158447
74, 8144, 8154, 8178, 8155, 8159, 8166, 8189, 8174, 8193, 8197, 8178, 8186, 8149, 8126,8.220661401748657
75, 8148, 8141, 8159, 8129, 8148, 8146, 8164, 8165, 8191, 8177, 8173, 8188, 8150, 8122,8.220661401748657
76, 8164, 8154, 8169, 8141, 8144, 8125, 8142, 8147, 8162, 8147, 8197, 8201, 8160, 8121,8.236718654632568
77, 8172, 8183, 8207, 8173, 8156, 8144, 8154, 8155, 8152, 8158, 8218, 8213, 8162, 8123,8.236718654632568
78, 8161, 8185, 8191, 8194, 8176, 8173, 8179, 8162, 8167, 8173, 8205, 8190, 8149, 8114,8.251854658126831
79, 8164, 8173, 8192, 8192, 8181, 8175, 8190, 8159, 8165, 8158, 8181, 8189, 8139, 8118,8.251854658126831
80, 8177, 8180, 8196, 8200, 8188, 8173, 8204, 8175, 8188, 8181, 8196, 8197, 8161, 8141,8.268048286437988
81, 8177, 8181, 8190, 8206, 8188, 8170, 8201, 8184, 8223, 8220, 8219, 8204, 8185, 8151,8.268048286437988
82, 8178, 8168, 8185, 8192, 8171, 8155, 8181, 8180, 8220, 8217, 8217, 8212, 8190, 8146,8.283125877380371
83, 8175, 8158, 8152, 8179, 8166, 8137, 8171, 8174, 8210, 8206, 8219, 8204, 8195, 8140,8.283125877380371
84, 8171, 8168, 8166, 8169, 8170, 8128, 8161, 8168, 8196, 8192, 8228, 8219, 8192, 8137,8.298886775970459
85, 8175, 8195, 8185, 8190, 8176, 8145, 8178, 8174, 8192, 8187, 8238, 8218, 8182, 8126,8.298886775970459
86, 8177, 8201, 8178, 8218, 8180, 8164, 8206, 8186, 8213, 8210, 8235, 8198, 8177, 8128,8.313940525054932
87, 8173, 8192, 8177, 8214, 8177, 8175, 8210, 8190, 8230, 8234, 8218, 8199, 8180, 8144,8.313940525054932
88, 8178, 8194, 8157, 8207, 8179, 8172, 8212, 8182, 8227, 8241, 8213, 8202, 8192, 8154,8.329644441604614
89, 8191, 8208, 8176, 8202, 8185, 8161, 8210, 8184, 8222, 8241, 8214, 8215, 8195, 8166,8.329644441604614
90, 8188, 8204, 8173, 8194, 8184, 8160, 8210, 8191, 8233, 8246, 8208, 8211, 8189, 8164,8.344825506210327
91, 8173, 8178, 8137, 8170, 8169, 8147, 8196, 8173, 8224, 8213, 8200, 8193, 8177, 8138,8.344825506210327
92, 8165, 8168, 8143, 8150, 8153, 8129, 8166, 8164, 8196, 8171, 8196, 8201, 8168, 8123,8.360344886779785
93, 8168, 8179, 8143, 8163, 8153, 8131, 8166, 8175, 8199, 8193, 8207, 8210, 8185, 8135,8.360344886779785
94, 8182, 8189, 8165, 8166, 8159, 8142, 8168, 8172, 8193, 8204, 8220, 8227, 8197, 8145,8.376418590545654
95, 8184, 8190, 8172, 8160, 8163, 8147, 8164, 8171, 8178, 8181, 8223, 8226, 8192, 8134,8.376418590545654
96, 8180, 8191, 8162, 8171, 8170, 8143, 8172, 8170, 8177, 8185, 8215, 8208, 8183, 8125,8.392184734344482
97, 8181, 8206, 8196, 8189, 8176, 8150, 8189, 8170, 8174, 8203, 8210, 8212, 8179, 8130,8.392184734344482
98, 8178, 8208, 8189, 8199, 8176, 8165, 8208, 8174, 8182, 8215, 8209, 8199, 8184, 8136,8.407691955566406
99, 8165, 8182, 8170, 8175, 8170, 8171, 8206, 8173, 8186, 8213, 8192, 8185, 8166, 8135,8.407691955566406
100, 8153, 8169, 8166, 8167, 8169, 8179, 8211, 8180, 8187, 8214, 8179, 8180, 8151, 8126,8.423962116241455
101, 8161, 8171, 8159, 8182, 8169, 8180, 8220, 8183, 8201, 8220, 8195, 8185, 8167, 8123,8.423962116241455
102, 8179, 8171, 8183, 8166, 8156, 8168, 8204, 8186, 8211, 8218, 8216, 8221, 8180, 8147,8.43968415260315
103, 8188, 8173, 8182, 8170, 8152, 8154, 8188, 8185, 8206, 8219, 8233, 8245, 8198, 8163,8.43968415260315
104, 8194, 8183, 8193, 8196, 8158, 8141, 8173, 8168, 8178, 8196, 8243, 8264, 8216, 8148,8.45465636253357
105, 8204, 8206, 8223, 8218, 8161, 8145, 8166, 8166, 8170, 8178, 8262, 8279, 8217, 8145,8.45465636253357
106, 8225, 8228, 8241, 8259, 8173, 8158, 8173, 8172, 8190, 8202, 8294, 8293, 8230, 8163,8.47017502784729
107, 8242, 8246, 8278, 8299, 8183, 8166, 8184, 8174, 8183, 8213, 8306, 8321, 8250, 8175,8.47017502784729
108, 8243, 8255, 8275, 8321, 8182, 8166, 8194, 8175, 8174, 8201, 8303, 8315, 8250, 8174,8.486111879348755
109, 8249, 8259, 8285, 8338, 8181, 8161, 8190, 8168, 8177, 8197, 8302, 8318, 8233, 8176,8.486111879348755
110, 8254, 8257, 8306, 8360, 8185, 8167, 8192, 8174, 8179, 8208, 8295, 8340, 8236, 8189,8.501706600189209
111, 8241, 8235, 8272, 8349, 8181, 8168, 8200, 8176, 8179, 8212, 8284, 8323, 8243, 8191,8.501706600189209
112, 8242, 8222, 8282, 8326, 8166, 8158, 8195, 8171, 8176, 8211, 8285, 8321, 8243, 8195,8.517014503479004
113, 8254, 8225, 8288, 8337, 8164, 8151, 8196, 8178, 8186, 8221, 8299, 8344, 8262, 8209,8.517014503479004
114, 8254, 8212, 8269, 8329, 8156, 8134, 8188, 8172, 8182, 8202, 8295, 8355, 8266, 8213,8.532432317733765
115, 8256, 8207, 8270, 8304, 8142, 8121, 8175, 8164, 8167, 8178, 8293, 8354, 8252, 8198,8.532432317733765
116, 8266, 8213, 8261, 8315, 8148, 8117, 8170, 8166, 8177, 8183, 8308, 8358, 8261, 8189,8.548264265060425
117, 8267, 8217, 8273, 8326, 8155, 8105, 8146, 8161, 8166, 8169, 8300, 8377, 8265, 8191,8.548264265060425
118, 8257, 8225, 8268, 8324, 8155, 8104, 8135, 8150, 8140, 8157, 8299, 8359, 8247, 8174,8.563868761062622
119, 8260, 8240, 8272, 8332, 8163, 8127, 8151, 8145, 8137, 8173, 8315, 8351, 8241, 8162,8.563868761062622
120, 8270, 8246, 8296, 8345, 8174, 8154, 8166, 8161, 8157, 8191, 8283, 8374, 8256, 8181,8.579100847244263
121, 8260, 8228, 8267, 8341, 8177, 8152, 8176, 8166, 8171, 8198, 8237, 8354, 8261, 8184,8.579100847244263
122, 8247, 8216, 8263, 8324, 8180, 8146, 8179, 8157, 8160, 8187, 8239, 8331, 8239, 8173,8.59516191482544
123, 8240, 8213, 8253, 8322, 8186, 8163, 8189, 8165, 8167, 8197, 8255, 8317, 8237, 8174,8.59516191482544
124, 8230, 8189, 8225, 8306, 8179, 8171, 8191, 8173, 8187, 8217, 8244, 8309, 8243, 8174,8.609947443008423
125, 8217, 8168, 8221, 8270, 8165, 8159, 8181, 8181, 8199, 8212, 8230, 8311, 8231, 8178,8.609947443008423
126, 8217, 8160, 8198, 8253, 8160, 8142, 8177, 8178, 8209, 8219, 8239, 8299, 8238, 8181,8.626051664352417
127, 8229, 8165, 8203, 8235, 8160, 8137, 8165, 8171, 8201, 8224, 8254, 8309, 8258, 8182,8.626051664352417
237, 8225, 8167, 8200, 8219, 8171, 8151, 8163, 8179, 8204, 8212, 8258, 8310, 8259, 8180,8.641536712646484
0, 8214, 8153, 8177, 8204, 8171, 8150, 8172, 8177, 8205, 8189, 8238, 8290, 8236, 8166,8.64253544807434
1, 8216, 8156, 8194, 8189, 8160, 8144, 8178, 8167, 8181, 8174, 8228, 8288, 8222, 8150,8.657222986221313
2, 8217, 8176, 8192, 8206, 8173, 8157, 8188, 8160, 8164, 8185, 8237, 8273, 8221, 8144,8.657222986221313
3, 8205, 8181, 8204, 8221, 8187, 8164, 8182, 8161, 8161, 8191, 8221, 8262, 8204, 8146,8.672775983810425
4, 8192, 8167, 8205, 8220, 8185, 8161, 8168, 8175, 8178, 8203, 8203, 8252, 8198, 8145,8.689107656478882
5, 8184, 8153, 8179, 8212, 8179, 8165, 8159, 8178, 8198, 8222, 8208, 8237, 8209, 8141,8.689107656478882
6, 8180, 8146, 8186, 8191, 8174, 8179, 8170, 8173, 8194, 8216, 8195, 8233, 8193, 8142,8.704124212265015
7, 8174, 8134, 8166, 8182, 8174, 8177, 8201, 8175, 8187, 8206, 8175, 8220, 8182, 8141,8.704627513885498
8, 8167, 8127, 8156, 8165, 8167, 8165, 8200, 8166, 8168, 8198, 8167, 8219, 8186, 8141,8.719709873199463
9, 8163, 8134, 8163, 8156, 8168, 8168, 8180, 8159, 8157, 8193, 8171, 8220, 8190, 8141,8.719709873199463
10, 8171, 8132, 8152, 8157, 8174, 8154, 8165, 8160, 8176, 8200, 8188, 8222, 8202, 8140,8.736039400100708
11, 8189, 8132, 8169, 8146, 8176, 8138, 8147, 8174, 8187, 8201, 8206, 8244, 8215, 8151,8.736039400100708
12, 8195, 8141, 8166, 8149, 8172, 8145, 8145, 8185, 8190, 8197, 8210, 8240, 8220, 8152,8.736039400100708
13, 8194, 8129, 8157, 8133, 8157, 8138, 8140, 8175, 8176, 8168, 8184, 8232, 8203, 8132,8.750720977783203
14, 8189, 8117, 8151, 8105, 8150, 8129, 8146, 8172, 8162, 8151, 8170, 8227, 8189, 8115,8.766267538070679
15, 8182, 8123, 8146, 8112, 8158, 8142, 8173, 8170, 8150, 8160, 8183, 8215, 8187, 8118,8.766267538070679
16, 8170, 8126, 8169, 8114, 8156, 8152, 8177, 8154, 8118, 8147, 8178, 8212, 8167, 8114,8.781929969787598
17, 8151, 8120, 8141, 8102, 8149, 8157, 8172, 8151, 8116, 8145, 8164, 8195, 8156, 8093,8.781929969787598
18, 8149, 8117, 8131, 8092, 8158, 8169, 8182, 8174, 8150, 8160, 8173, 8201, 8170, 8095,8.797091484069824
19, 8159, 8127, 8158, 8101, 8176, 8180, 8193, 8192, 8175, 8168, 8190, 8217, 8180, 8114,8.797091484069824
20, 8146, 8129, 8145, 8120, 8172, 8171, 8183, 8175, 8174, 8165, 8175, 8190, 8159, 8109,8.813138484954834
21, 8133, 8124, 8156, 8121, 8156, 8165, 8172, 8168, 8163, 8162, 8146, 8172, 8133, 8100,8.813138484954834
22, 8143, 8120, 8157, 8127, 8161, 8175, 8189, 8184, 8177, 8181, 8146, 8174, 8146, 8107,8.829173564910889
23, 8151, 8119, 8151, 8137, 8171, 8181, 8195, 8178, 8183, 8191, 8157, 8183, 8166, 8115,8.829173564910889
24, 8143, 8120, 8153, 8138, 8167, 8186, 8192, 8176, 8173, 8184, 8154, 8181, 8165, 8116,8.844841957092285
25, 8142, 8122, 8128, 8131, 8161, 8182, 8206, 8183, 8177, 8193, 8153, 8170, 8167, 8118,8.844841957092285
26, 8160, 8134, 8148, 8130, 8163, 8180, 8209, 8185, 8183, 8199, 8167, 8197, 8179, 8136,8.859904289245605
27, 8171, 8137, 8150, 8142, 8173, 8190, 8206, 8187, 8195, 8193, 8178, 8210, 8193, 8146,8.859904289245605
28, 8165, 8120, 8125, 8128, 8168, 8174, 8190, 8177, 8193, 8176, 8160, 8192, 8184, 8126,8.874999761581421
29, 8153, 8116, 8122, 8106, 8147, 8147, 8169, 8178, 8179, 8169, 8140, 8182, 8166, 8115,8.874999761581421
30, 8156, 8127, 8110, 8115, 8149, 8143, 8169, 8189, 8186, 8182, 8152, 8182, 8183, 8122,8.890422821044922
31, 8169, 8136, 8126, 8110, 8153, 8146, 8163, 8181, 8182, 8176, 8158, 8199, 8197, 8126,8.890422821044922
32, 8162, 8137, 8127, 8099, 8152, 8146, 8155, 8173, 8172, 8170, 8162, 8197, 8190, 8114,8.905685901641846
33, 8157, 8148, 8126, 8114, 8163, 8152, 8150, 8167, 8160, 8166, 8179, 8188, 8178, 8104,8.905685901641846
34, 8160, 8169, 8150, 8138, 8174, 8172, 8156, 8166, 8149, 8149, 8175, 8194, 8164, 8101,8.921348810195923
35, 8158, 8168, 8140, 8152, 8185, 8178, 8176, 8169, 8163, 8165, 8176, 8189, 8169, 8100,8.921348810195923
36, 8147, 8156, 8149, 8139, 8181, 8167, 8172, 8164, 8157, 8171, 8174, 8187, 8169, 8100,8.93736720085144
37, 8124, 8136, 8129, 8125, 8168, 8168, 8166, 8155, 8138, 8144, 8142, 8156, 8146, 8083,8.93736720085144
38, 8116, 8121, 8104, 8121, 8167, 8178, 8181, 8160, 8157, 8140, 8129, 8144, 8146, 8087,8.953157186508179
39, 8140, 8137, 8141, 8130, 8176, 8193, 8194, 8183, 8195, 8176, 8160, 8184, 8183, 8126,8.953157186508179
40, 8145, 8140, 8136, 8139, 8177, 8195, 8196, 8179, 8198, 8194, 8181, 8186, 8205, 8136,8.968685150146484
41, 8134, 8126, 8135, 8131, 8167, 8173, 8177, 8166, 8177, 8172, 8165, 8179, 8188, 8122,8.968685150146484
42, 8150, 8141, 8150, 8139, 8168, 8161, 8170, 8183, 8193, 8180, 8166, 8195, 8190, 8125,8.98499870300293
